BOXY.EXE: ISS Imagent and Oximeter Data Acquisition Program Version 0.80
Ascii Record File

#ACQ INFORMATION
2  Detector Channels 
16  External MUX Channels 
1  Auxiliary Channels 
5000  Waveform (CCF) Frequency (Hz)
1  Waveforms Skipped 
30  Waveforms Averaged 
1  Cycles Averaged 
16  Acquisitions per Waveform 
10.0806  Updata Rate (Hz) 

#FILE INFORMATION
TRUE -- External MUX Channel results are PARSED.
FALSE -- AC DC and Phase are NOT grouped.
TRUE -- Companion Program Settings File CREATED.
FALSE -- AC data not excluded
FALSE -- DC data not excluded
FALSE -- Phase data not excluded
FALSE -- Auxillary Chn. data not excluded
Tab delimiters

#CALIBRATION STATE
TRUE -- Waveform Calibration Values APPLIED.


#AUX CALIBRATION VALUES
Val Type	aux-1	

Term	1.0000e+00	
Factor	0.0000e+00	


#WF CALIBRATION VALUES
A = Detector Channel
Val Type	A-AC1	A-AC2	A-AC3	A-AC4	A-AC5	A-AC6	A-AC7	A-AC8	A-AC9	A-AC10	A-AC11	A-AC12	A-AC13	A-AC14	A-AC15	A-AC16	A-DC1	A-DC2	A-DC3	A-DC4	A-DC5	A-DC6	A-DC7	A-DC8	A-DC9	A-DC10	A-DC11	A-DC12	A-DC13	A-DC14	A-DC15	A-DC16	A-Ph1	A-Ph2	A-Ph3	A-Ph4	A-Ph5	A-Ph6	A-Ph7	A-Ph8	A-Ph9	A-Ph10	A-Ph11	A-Ph12	A-Ph13	A-Ph14	A-Ph15	A-Ph16	

Term	0.00000e+00	0.00000e+00	0.00000e+00	0.00000e+00	0.00000e+00	0.00000e+00	0.00000e+00	0.00000e+00	0.00000e+00	0.00000e+00	0.00000e+00	0.00000e+00	0.00000e+00	0.00000e+00	0.00000e+00	0.00000e+00	0.00000e+00	0.00000e+00	0.00000e+00	0.00000e+00	0.00000e+00	0.00000e+00	0.00000e+00	0.00000e+00	0.00000e+00	0.00000e+00	0.00000e+00	0.00000e+00	0.00000e+00	0.00000e+00	0.00000e+00	0.00000e+00	0.00000e+00	0.00000e+00	0.00000e+00	0.00000e+00	0.00000e+00	0.00000e+00	0.00000e+00	0.00000e+00	0.00000e+00	0.00000e+00	0.00000e+00	0.00000e+00	0.00000e+00	0.00000e+00	0.00000e+00	0.00000e+00	
Factor	1.00000e+00	1.00000e+00	1.00000e+00	1.00000e+00	1.00000e+00	1.00000e+00	1.00000e+00	1.00000e+00	1.00000e+00	1.00000e+00	1.00000e+00	1.00000e+00	1.00000e+00	1.00000e+00	1.00000e+00	1.00000e+00	1.00000e+00	1.00000e+00	1.00000e+00	1.00000e+00	1.00000e+00	1.00000e+00	1.00000e+00	1.00000e+00	1.00000e+00	1.00000e+00	1.00000e+00	1.00000e+00	1.00000e+00	1.00000e+00	1.00000e+00	1.00000e+00	X	X	X	X	X	X	X	X	X	X	X	X	X	X	X	X	

B = Detector Channel
Val Type	B-AC1	B-AC2	B-AC3	B-AC4	B-AC5	B-AC6	B-AC7	B-AC8	B-AC9	B-AC10	B-AC11	B-AC12	B-AC13	B-AC14	B-AC15	B-AC16	B-DC1	B-DC2	B-DC3	B-DC4	B-DC5	B-DC6	B-DC7	B-DC8	B-DC9	B-DC10	B-DC11	B-DC12	B-DC13	B-DC14	B-DC15	B-DC16	B-Ph1	B-Ph2	B-Ph3	B-Ph4	B-Ph5	B-Ph6	B-Ph7	B-Ph8	B-Ph9	B-Ph10	B-Ph11	B-Ph12	B-Ph13	B-Ph14	B-Ph15	B-Ph16	

Term	0.00000e+00	0.00000e+00	0.00000e+00	0.00000e+00	0.00000e+00	0.00000e+00	0.00000e+00	0.00000e+00	0.00000e+00	0.00000e+00	0.00000e+00	0.00000e+00	0.00000e+00	0.00000e+00	0.00000e+00	0.00000e+00	0.00000e+00	0.00000e+00	0.00000e+00	0.00000e+00	0.00000e+00	0.00000e+00	0.00000e+00	0.00000e+00	0.00000e+00	0.00000e+00	0.00000e+00	0.00000e+00	0.00000e+00	0.00000e+00	0.00000e+00	0.00000e+00	-1.06138e+02	-1.29047e+02	-1.21568e+02	-1.83476e+02	-5.52129e+01	-7.56509e+01	-1.59880e+02	-1.62015e+02	-5.74747e+01	-6.97283e+01	-1.75117e+02	-1.71928e+02	-1.83346e+02	-1.76281e+02	-5.73029e+01	-1.49823e+02	
Factor	1.52751e-05	1.27225e-04	4.13959e-05	1.84327e-01	1.04722e-06	1.71902e-06	1.70247e-01	4.74238e-02	9.30981e-07	1.49024e-06	9.31797e-02	3.12405e-02	3.94049e-02	8.22718e-03	1.10834e-06	1.22183e-02	1.99470e-06	2.18733e-06	6.09788e-07	9.24792e-02	2.38180e-08	2.40278e-08	8.06688e-02	2.40565e-02	2.37376e-08	2.40181e-08	4.51395e-02	1.53027e-02	1.98509e-02	4.17740e-03	2.39144e-08	5.96623e-03	X	X	X	X	X	X	X	X	X	X	X	X	X	X	X	X	



#DISTANCE SETTINGS
A = Detector Channel
A-1	A-2	A-3	A-4	A-5	A-6	A-7	A-8	A-9	A-10	A-11	A-12	A-13	A-14	A-15	A-16	

2.5000e+00	3.0000e+00	2.5000e+00	3.0000e+00	2.0000e+00	3.0000e+00	1.5000e+00	3.0000e+00	3.0000e+00	3.0000e+00	3.0000e+00	3.0000e+00	3.0000e+00	3.0000e+00	1.5000e+00	3.0000e+00	

B = Detector Channel
B-1	B-2	B-3	B-4	B-5	B-6	B-7	B-8	B-9	B-10	B-11	B-12	B-13	B-14	B-15	B-16	

1.0000e+01	1.0000e+01	1.0000e+01	1.4400e+00	1.0000e+01	1.0000e+01	1.5100e+00	1.9400e+00	1.0000e+01	1.0000e+01	1.9900e+00	2.4900e+00	2.4100e+00	2.9000e+00	1.0000e+01	2.9800e+00	




#DATA BEGINS
time	group	step	mark	flag	A-AC1	A-AC2	A-AC3	A-AC4	A-AC5	A-AC6	A-AC7	A-AC8	A-AC9	A-AC10	A-AC11	A-AC12	A-AC13	A-AC14	A-AC15	A-AC16	A-DC1	A-DC2	A-DC3	A-DC4	A-DC5	A-DC6	A-DC7	A-DC8	A-DC9	A-DC10	A-DC11	A-DC12	A-DC13	A-DC14	A-DC15	A-DC16	A-Ph1	A-Ph2	A-Ph3	A-Ph4	A-Ph5	A-Ph6	A-Ph7	A-Ph8	A-Ph9	A-Ph10	A-Ph11	A-Ph12	A-Ph13	A-Ph14	A-Ph15	A-Ph16	B-AC1	B-AC2	B-AC3	B-AC4	B-AC5	B-AC6	B-AC7	B-AC8	B-AC9	B-AC10	B-AC11	B-AC12	B-AC13	B-AC14	B-AC15	B-AC16	B-DC1	B-DC2	B-DC3	B-DC4	B-DC5	B-DC6	B-DC7	B-DC8	B-DC9	B-DC10	B-DC11	B-DC12	B-DC13	B-DC14	B-DC15	B-DC16	B-Ph1	B-Ph2	B-Ph3	B-Ph4	B-Ph5	B-Ph6	B-Ph7	B-Ph8	B-Ph9	B-Ph10	B-Ph11	B-Ph12	B-Ph13	B-Ph14	B-Ph15	B-Ph16	aux-1	digaux	

1063.694	1	1	0	256	0.16197	0.03036	0.092076	0.086241	0.13676	0.13748	0.097873	0.36828	0.16818	0.11445	0.23781	0.012903	0.2009	0.25019	0.36184	0.29111	-0.2375	-0.97917	-1.3354	-0.49583	-1.225	-1.3083	-0.7875	-1.7167	-0.83958	-1.0479	-1.4354	-0.725	-1.3167	-1.4896	-0.48542	-1.4646	278.274	447.282	215.788	312.627	294.970	400.354	463.686	437.498	358.290	299.720	448.091	461.733	431.291	120.220	450.624	436.816	0.00087239	0.00038853	0.00030022	591.66	2.617e-05	2.4317e-05	770.52	252.19	1.9689e-05	2.9161e-05	337.23	156.32	130.6	77.186	2.8673e-05	93.453	0.0061271	0.0065885	0.0018596	824.71	7.1299e-05	7.3762e-05	957.65	307.28	7.2576e-05	7.2719e-05	445.26	189.31	178.58	84.98	7.1031e-05	103.88	200.188	465.377	128.717	121.518	118.371	228.926	119.456	126.802	253.406	205.240	123.525	127.309	130.827	133.135	266.110	129.447	-8191	255	
1063.790	1	1	0	0	0.25283	0.13889	0.16925	0.16973	0.10246	0.10171	0.2067	0.10586	0.34713	0.14654	0.1617	0.26104	0.083636	0.3274	0.21619	0.29283	-0.42292	-0.74167	-1.3375	-0.66458	-1.0604	-1.1646	-0.45417	-1.4146	-0.775	-0.67917	-1.4354	-0.68542	-1.2083	-1.3937	-0.54167	-1.6729	232.298	383.958	126.288	278.141	130.154	116.188	231.845	398.631	227.891	409.371	113.066	137.518	158.565	434.645	376.817	405.330	0.00072095	0.0014048	0.00030173	592.23	1.4628e-05	4.7696e-05	775.66	252.64	6.6386e-06	5.6231e-06	337.32	156.24	131.88	77.369	1.4432e-05	94.014	0.0060596	0.0064942	0.0018151	818.9	6.9798e-05	7.1535e-05	947.66	304.38	7.0045e-05	7.022e-05	439.31	188.62	177.96	84.837	7.0624e-05	104.08	209.562	137.663	327.602	121.601	185.897	232.883	119.837	127.163	178.172	170.990	123.527	126.848	130.872	133.139	293.473	129.019	-8191	255	
1063.887	1	1	0	0	0.19542	0.19984	0.22465	0.12079	0.18583	0.27095	0.010216	0.21257	0.13533	0.20528	0.086863	0.061606	0.12936	0.24133	0.084154	0.16939	-0.46875	-0.59375	-1.3813	-0.52292	-0.95417	-1.1313	-0.58333	-1.35	-1.0854	-0.7125	-1.4729	-0.70208	-1.0562	-1.5562	-0.23958	-1.3083	224.435	261.734	118.444	129.082	186.720	334.165	408.706	140.980	193.773	308.203	362.916	366.707	232.490	115.463	440.148	363.991	0.00070581	0.0017404	0.00049878	592.76	1.4115e-05	2.0258e-05	769.8	253.29	1.7878e-05	1.9422e-05	338.84	156.66	130.33	78.287	1.685e-05	95.046	0.0060505	0.0064718	0.0018006	817.27	6.9837e-05	7.1563e-05	951.48	305.47	7.0861e-05	7.1087e-05	442.88	189.85	178.74	85.383	7.1641e-05	105.18	204.107	116.280	287.982	121.391	344.635	171.262	119.836	127.138	172.263	319.399	123.633	126.903	131.106	133.444	265.661	129.359	-8191	255	
1063.983	1	1	0	0	0.17456	0.12825	0.16334	0.11726	0.25832	0.040001	0.40541	0.16764	0.10923	0.043205	0.27744	0.35379	0.41729	0.37761	0.18448	0.15084	-0.71875	-0.46458	-1.3521	-0.69792	-0.83542	-1.4896	-0.75	-1.4208	-1.0042	-0.51458	-1.5479	-1.0104	-0.87083	-1.5312	-0.73125	-1.4896	133.216	385.245	271.269	362.106	274.261	254.570	374.062	415.406	400.213	341.795	453.406	118.861	465.161	404.475	204.227	134.802	0.0009975	0.0011277	0.00014029	595.14	9.0849e-06	3.5675e-05	780.52	254.52	8.2911e-06	1.5568e-05	341.51	156.93	130.88	77.767	8.9008e-06	94.648	0.0061474	0.0065932	0.0018279	825.31	7.0976e-05	7.2203e-05	959.34	307.44	7.1976e-05	7.1716e-05	443.91	190.98	178.36	85.251	7.0963e-05	105.36	187.639	282.892	243.897	121.647	215.501	425.825	119.990	126.899	176.780	418.762	123.376	126.725	131.299	133.397	296.522	129.499	-8191	255	
1064.079	1	1	0	0	0.12104	0.14456	0.19632	0.12018	0.10271	0.16222	0.23027	0.057899	0.22965	0.3145	0.21334	0.3007	0.2972	0.3009	0.24509	0.2382	-0.86875	-0.48542	-1.3271	-0.91667	-0.78958	-1.4813	-0.69583	-1.1458	-1.5729	-0.46042	-1.3271	-1.2354	-0.7875	-1.4729	-0.69583	-1.375	327.198	115.128	317.121	250.070	335.966	345.764	125.670	285.116	273.324	326.839	407.415	439.720	115.600	114.850	157.521	401.963	0.001089	0.0011957	0.00061159	587.08	9.6054e-06	1.9215e-05	777.48	251.73	1.0042e-05	1.7716e-05	339.59	156.7	129.89	77.498	1.3844e-05	93.999	0.006083	0.0065298	0.0017998	825.97	7.0659e-05	7.1669e-05	958.59	306.64	7.1003e-05	7.1134e-05	441.42	190.07	177.7	84.855	7.0584e-05	104.33	204.985	346.182	276.403	121.886	286.413	353.324	119.729	126.987	335.382	295.395	123.564	126.748	130.626	133.424	241.283	129.301	-8191	255	
1064.200	1	1	0	0	0.11436	0.18218	0.082436	0.099964	0.2238	0.027595	0.34386	0.24621	0.24579	0.13038	0.011464	0.041882	0.22767	0.12484	0.065592	0.30282	-1.1167	-0.50208	-1.1771	-1.15	-0.65417	-1.4792	-0.87708	-1.0187	-1.2229	-0.4125	-1.2833	-1.275	-0.88542	-1.5396	-0.72708	-1.0854	313.527	115.638	412.689	113.400	163.157	249.607	411.119	459.105	268.065	338.180	401.310	368.678	456.967	452.296	265.471	429.785	0.00066422	0.00098555	0.00024103	594.84	1.3402e-05	3.3751e-05	775.87	251.48	9.2366e-06	2.8514e-05	337.45	155.13	130.21	77.268	2.4575e-05	93.486	0.0060004	0.0064715	0.0017842	820.84	7.0053e-05	7.0306e-05	951.68	305.29	6.9782e-05	7.0497e-05	439.27	188.71	176.63	84.259	7.0107e-05	103.7	200.268	225.882	371.978	121.328	287.613	224.961	119.618	126.657	282.310	113.478	123.701	126.726	130.894	133.318	253.907	129.518	-8191	255	
1064.294	1	1	0	0	0.055278	0.23333	0.11327	0.014606	0.11925	0.13276	0.32512	0.16191	0.046645	0.062961	0.13488	0.17075	0.27674	0.34095	0.37484	0.19597	-1.0667	-0.46042	-1.1479	-1.4	-0.42083	-1.3375	-0.80417	-0.69167	-1.3687	-0.63542	-1.1521	-1.1208	-0.57292	-1.6958	-0.74375	-1.0604	242.940	211.788	256.405	354.925	436.414	122.269	448.562	433.647	228.255	468.804	408.205	395.942	449.419	413.036	120.430	442.144	0.0010724	0.00083788	0.00039513	592.22	1.0601e-05	1.8392e-05	774.7	252.7	5.5933e-06	1.5464e-05	338.56	156.09	130.1	77.589	4.2569e-06	94.22	0.0058919	0.0063779	0.0017561	816.81	6.8318e-05	6.857e-05	945.38	303.72	6.7037e-05	6.8042e-05	434.65	187.36	174.65	84.279	6.8453e-05	103.58	208.746	388.068	126.125	121.217	278.825	236.326	119.689	126.797	415.927	169.046	123.660	126.798	130.755	133.197	146.957	129.200	-8191	255	
1064.390	1	1	0	0	0.18485	0.1895	0.1659	0.084862	0.11352	0.24669	0.38634	0.1971	0.11813	0.14126	0.19073	0.19261	0.34314	0.28269	0.17641	0.19456	-1.0833	-0.70208	-0.99583	-1.3813	-0.56667	-1.2313	-0.98958	-0.56458	-1.4208	-0.67083	-1.0833	-1.4375	-0.57292	-1.5917	-1.025	-0.74583	391.322	425.961	305.335	115.232	172.955	318.803	460.165	404.495	159.396	250.523	375.461	396.940	178.679	123.001	334.446	346.016	0.00081681	0.00077345	0.00094547	589.71	1.7031e-05	2.226e-06	770.94	253.83	9.5384e-06	3.4759e-05	338.41	157.59	131.58	77.932	3.8432e-06	95.161	0.0056748	0.0061983	0.0017052	806.93	6.6364e-05	6.6282e-05	941.05	301.78	6.5168e-05	6.6468e-05	431.26	186.27	173.29	83.919	6.4504e-05	103.72	196.603	258.836	216.544	121.455	180.554	290.794	120.231	126.949	263.715	265.528	123.791	126.572	130.774	133.418	434.045	129.517	-8191	255	
1064.511	1	1	0	0	0.067222	0.39174	0.14038	0.12363	0.2651	0.17674	0.17935	0.053074	0.087673	0.18839	0.058523	0.38741	0.17909	0.39614	0.17345	0.22834	-0.93333	-0.82083	-0.89375	-1.3417	-0.41875	-1.2437	-1.0146	-0.82292	-1.4042	-0.81875	-1.0063	-1.6646	-0.62917	-1.3687	-1.0938	-0.84792	319.760	345.818	333.158	430.598	274.531	360.457	441.267	180.420	149.224	219.763	415.389	359.400	367.279	447.783	132.949	385.263	0.00079236	0.00038408	0.00029806	593.54	1.5258e-05	4.0112e-05	774.41	254.33	6.9702e-06	1.8835e-05	338.34	157.25	130.99	78.241	1.1161e-05	95.135	0.0053357	0.0058685	0.0016164	791.03	6.3041e-05	6.3111e-05	928.54	298.24	6.1169e-05	6.3092e-05	426.82	184.35	170.56	83.691	6.2206e-05	103.22	181.084	287.754	459.011	121.721	237.974	262.420	119.476	127.319	234.486	114.501	123.960	127.165	130.774	133.500	457.749	129.510	-8191	255	
1064.582	1	1	0	0	0.12791	0.11264	0.11962	0.1464	0.1607	0.046549	0.28979	0.43778	0.13381	0.24681	0.14745	0.27519	0.26406	0.26827	0.19931	0.26547	-0.98333	-0.825	-0.93125	-1.4583	-0.41458	-1.1187	-1.5729	-0.60625	-1.2792	-0.91458	-0.89792	-1.4937	-0.43333	-1.2854	-1.2708	-0.72917	235.547	325.161	164.260	463.724	432.128	238.518	117.362	453.807	401.521	186.985	232.399	116.556	355.117	466.860	466.823	393.738	0.00090347	0.001647	0.00040739	590.05	1.9692e-05	9.9827e-06	773.28	251.79	6.4105e-06	1.6786e-05	337.21	156.54	132.46	77.511	1.7678e-05	93.528	0.0051959	0.0057032	0.0015755	778.95	6.0546e-05	6.0228e-05	913.67	293.72	5.7799e-05	5.9374e-05	417.85	180.65	168	82.75	5.8494e-05	100.81	198.793	198.572	141.835	120.952	259.943	157.183	119.716	126.840	446.870	328.424	123.360	127.033	130.599	133.329	397.320	129.260	-8191	255	
1064.679	1	1	0	0	0.32007	0.13389	0.1294	0.064439	0.12344	0.032132	0.21704	0.16584	0.26757	0.16342	0.075266	0.10228	0.14207	0.36403	0.15636	0.061586	-0.8	-0.87708	-0.73958	-1.4979	-0.475	-1.0812	-1.4292	-0.74167	-1.3458	-0.91042	-0.50417	-1.4312	-0.84167	-1.1521	-1.2708	-0.74167	443.991	122.709	129.365	150.769	283.869	226.053	394.067	463.518	344.041	460.850	342.608	382.296	382.264	432.772	350.374	380.423	0.00097455	0.00088254	0.00063665	585.03	1.7653e-05	5.064e-06	770.27	252.3	1.9022e-05	3.0758e-05	334.34	155.7	131.43	77.949	5.2548e-06	94.116	0.00488	0.0053917	0.0014804	766.66	5.8878e-05	5.8207e-05	904.79	292.96	5.7889e-05	5.9867e-05	416.34	180.54	168.21	82.831	5.8001e-05	101.05	204.109	220.673	205.076	121.540	225.897	262.175	119.993	127.238	192.899	255.819	123.363	126.805	130.308	133.056	150.243	129.365	-8191	255	
1064.775	1	1	0	0	0.37237	0.047035	0.092725	0.34759	0.083538	0.09962	0.1044	0.16985	0.021659	0.027706	0.20261	0.056363	0.26999	0.30569	0.22744	0.35364	-0.92292	-0.95417	-0.61667	-1.3125	-0.75208	-0.86458	-1.4021	-0.54167	-1.0938	-1.1604	-0.54167	-1.4396	-0.80417	-0.95625	-1.2646	-0.65208	345.197	112.092	189.190	417.280	272.910	157.034	379.892	245.298	298.265	394.918	231.107	443.688	248.939	387.995	432.095	374.293	0.0010774	0.00049615	0.00091263	594.72	7.5046e-06	2.9132e-05	765.69	253.82	1.9177e-05	2.5765e-05	335.04	156.36	131.15	77.981	6.8994e-06	94.938	0.0048426	0.0053309	0.0014482	762.81	5.7192e-05	5.679e-05	898.94	292.63	5.5909e-05	5.7661e-05	414.4	180.25	167.09	82.668	5.6261e-05	101.61	201.410	341.117	223.841	121.722	244.230	279.719	119.579	126.587	288.425	464.341	123.068	126.983	130.427	133.318	366.701	129.142	-8191	255	
1064.895	1	1	0	0	0.128	0.21058	0.067461	0.33483	0.020894	0.035471	0.2562	0.33678	0.12295	0.10486	0.16611	0.25439	0.10157	0.20278	0.092454	0.12631	-0.59167	-1.125	-0.59583	-1.3958	-0.86875	-0.59375	-1.6792	-0.7375	-0.95625	-1.3771	-0.62708	-1.2812	-0.98333	-0.98125	-1.275	-0.9	214.679	434.322	426.560	433.907	380.262	115.195	413.003	401.086	240.433	366.322	149.827	135.116	384.098	110.830	162.526	369.694	0.00094678	0.0016381	0.00048232	596.77	9.2005e-06	1.4821e-05	769.27	254.5	1.0858e-05	2.2168e-05	337.23	157.92	131.24	78.156	9.7257e-06	95.904	0.0047505	0.0052113	0.0014328	759.76	5.6513e-05	5.5793e-05	898.45	292.16	5.4731e-05	5.6529e-05	414.78	180.84	166.28	82.755	5.4735e-05	102.13	199.131	369.979	202.794	121.699	268.238	217.970	119.795	126.754	243.556	294.005	123.531	126.701	130.354	133.378	321.730	129.077	-8191	255	
1064.991	1	1	0	0	0.040642	0.13484	0.08998	0.15492	0.11563	0.27322	0.26468	0.48417	0.18207	0.34443	0.17252	0.22659	0.20891	0.25221	0.070234	0.14591	-0.71667	-1.4937	-0.46875	-1.225	-0.89583	-0.775	-1.5354	-0.66875	-0.65625	-1.3583	-0.53958	-1.3687	-1.2687	-0.82917	-1.4062	-1.0479	183.733	171.624	247.733	437.159	427.150	356.740	299.739	390.539	276.657	188.985	392.231	417.865	430.561	426.724	229.931	321.552	0.0007858	0.00090347	0.00092444	593.17	1.5047e-05	2.5618e-05	773.21	254.63	7.8731e-06	8.7964e-06	339.83	157.53	130.99	78.061	8.6539e-06	93.983	0.0046198	0.005017	0.001379	754.21	5.513e-05	5.4631e-05	894.96	292.42	5.4555e-05	5.6162e-05	415.73	181	167.07	82.629	5.6285e-05	101.7	210.250	181.178	465.680	121.545	328.984	333.818	120.335	127.051	345.855	181.452	123.701	127.067	130.604	133.536	351.143	129.390	-8191	255	
1065.088	1	1	0	0	0.26249	0.22392	0.16778	0.16927	0.033022	0.26289	0.076828	0.18499	0.20748	0.055474	0.28787	0.17327	0.2888	0.25797	0.041048	0.18439	-0.43958	-1.4604	-0.75625	-1.4	-1.1437	-0.2	-1.4021	-1.1708	-0.8	-1.2521	-0.89375	-1.1437	-1.1313	-0.57917	-1.2458	-1.15	361.286	331.098	438.168	130.233	360.825	291.510	444.823	360.024	166.328	371.034	409.259	148.030	408.014	422.320	411.147	455.928	0.00074865	0.00062119	0.00044166	591.67	1.5899e-05	1.956e-05	772.16	251.97	9.4355e-06	1.1137e-05	338.2	156.51	130.45	77.822	1.3741e-05	93.916	0.0048002	0.0051793	0.0014495	763.46	5.7085e-05	5.6856e-05	900.39	292.54	5.6138e-05	5.7152e-05	415.37	180.11	166.75	82.441	5.618e-05	101	194.692	230.838	192.910	121.465	262.923	322.730	120.124	126.864	438.921	420.904	123.767	126.763	130.351	132.911	243.244	129.180	-8191	255	
1065.159	1	1	0	0	0.22225	0.11513	0.10527	0.15707	0.26507	0.35739	0.30383	0.34412	0.15545	0.19832	0.14874	0.032624	0.27317	0.20717	0.14295	0.26924	-0.33542	-1.3333	-0.77083	-1.2458	-1.0521	-0.5375	-1.6104	-1.1021	-0.62083	-1.1646	-0.81875	-1.0958	-1.3771	-0.80833	-1.2354	-1.4417	449.029	109.401	239.248	403.234	114.345	382.567	424.590	352.041	308.199	435.030	208.375	430.150	131.391	444.114	343.499	391.989	0.00086835	0.0019233	0.0003346	592.19	1.2384e-05	1.1554e-05	766.99	252.16	4.0381e-06	8.1263e-06	336.99	157.2	131.31	77.696	4.5808e-06	94.297	0.0047933	0.0051987	0.0014796	765.73	5.8222e-05	5.8694e-05	907.8	294.32	5.8335e-05	5.9041e-05	419.94	181.38	168.1	82.77	5.71e-05	101.51	200.963	384.029	182.715	121.330	188.831	149.900	119.675	126.865	303.436	247.636	123.273	127.120	130.411	133.246	200.530	129.070	-8191	255	
1065.280	1	1	0	0	0.080801	0.16074	0.12846	0.2465	0.039992	0.27218	0.29021	0.13488	0.19428	0.21749	0.3234	0.056032	0.09379	0.33124	0.05701	0.16562	-0.29167	-1.3188	-0.33333	-1.0187	-1.3583	-0.3125	-1.375	-1.4438	-0.50625	-1.3708	-0.97292	-0.99792	-1.5833	-0.83958	-0.92708	-1.2771	135.226	362.990	460.347	389.601	397.743	204.053	380.918	428.479	367.163	381.394	339.597	415.083	171.756	427.440	451.614	367.578	0.00090789	0.001174	0.00029438	592.64	2.831e-05	1.6687e-05	780.94	252.6	2.0168e-05	4.8194e-06	339.34	157.27	130.9	78.153	1.3585e-05	95.203	0.0048342	0.0051835	0.0014748	765.54	5.7006e-05	5.7427e-05	903.91	293.11	5.6353e-05	5.7008e-05	418.47	180.87	167.09	82.893	5.7258e-05	102.28	210.278	113.812	267.966	121.374	274.709	208.600	119.910	126.864	318.454	276.473	123.293	127.264	130.599	133.379	272.329	129.102	-8191	255	
1065.374	1	1	0	0	0.22459	0.23493	0.10313	0.2349	0.26211	0.02835	0.039277	0.46476	0.079189	0.30728	0.10822	0.43369	0.18459	0.29918	0.11569	0.10408	-0.44583	-1.3312	-0.64583	-0.83958	-1.5292	-0.53125	-1.1063	-1.3937	-0.29583	-1.4896	-1.2125	-0.77708	-1.425	-0.90625	-0.91458	-1.3188	183.563	293.916	342.449	418.510	160.255	335.907	357.732	415.107	350.061	232.546	112.051	413.820	380.206	415.067	333.313	405.251	0.00078094	0.0012876	0.00036195	590.94	3.2027e-06	1.0152e-05	776.78	254.23	9.7766e-06	1.6568e-05	339.63	156.9	131.81	77.931	1.765e-05	95.115	0.0048538	0.0052547	0.001492	765.59	5.7129e-05	5.8467e-05	909.45	294.28	5.7136e-05	5.7889e-05	419.38	181.57	167.59	82.976	5.6976e-05	102.13	202.214	390.968	240.902	121.722	122.129	265.919	119.854	126.663	252.398	420.324	123.554	127.186	130.343	133.331	224.798	129.383	-8191	255	
1065.472	1	1	0	0	0.08852	0.34573	0.31822	0.061152	0.042265	0.085377	0.15098	0.21672	0.12206	0.14565	0.24487	0.15027	0.19452	0.41503	0.23859	0.24575	-0.28958	-1.325	-0.87083	-0.64375	-1.3104	-0.6125	-1.2646	-1.5646	-0.44792	-1.1896	-1.2375	-0.78542	-1.3958	-0.92083	-0.83333	-1.4062	358.061	362.383	394.452	420.772	247.311	185.372	333.580	148.697	327.616	396.260	372.627	262.228	441.643	449.363	203.201	418.179	0.0010686	0.0017273	0.00016687	591.38	5.9865e-06	9.566e-06	771.84	253.39	8.7402e-06	9.8758e-06	338.39	156.5	131.67	77.987	4.4477e-06	94.018	0.0048613	0.0052367	0.0014888	767.86	5.721e-05	5.8493e-05	906.41	293.92	5.7211e-05	5.7624e-05	418.45	180.84	167.33	82.902	5.7172e-05	101.06	189.846	131.234	116.519	121.745	204.774	232.653	120.691	126.966	281.159	423.703	123.425	127.584	131.025	133.598	218.513	129.599	-8191	255	
1065.591	1	1	0	0	0.24631	0.12342	0.029638	0.1912	0.16937	0.33163	0.041362	0.16027	0.08698	0.088073	0.19613	0.36021	0.21993	0.22949	0.20647	0.22663	-0.20208	-1.1833	-1.15	-0.78542	-1.3854	-0.79792	-1.1479	-1.7021	-0.66458	-1.0396	-1.2417	-0.71667	-1.3979	-1.0792	-0.57708	-1.3083	261.812	386.563	468.682	139.313	383.777	425.597	121.533	272.307	364.072	286.691	396.129	379.418	382.487	466.959	230.089	147.914	0.00095227	0.0021178	0.0005621	590.91	9.2818e-06	6.2165e-06	774.14	253.51	8.5408e-06	1.1395e-05	335.97	156.25	130.3	77.465	1.5457e-05	93.342	0.0049027	0.0052605	0.0014894	764.64	5.7026e-05	5.9092e-05	901.57	292.43	5.6976e-05	5.7506e-05	414.95	179.81	165.88	82.413	5.6405e-05	100.28	198.534	223.082	177.917	122.288	288.685	287.294	120.073	127.059	136.531	437.198	123.928	127.419	130.884	133.491	301.901	129.319	-8191	255	
1065.687	1	1	0	0	0.10218	0.26752	0.2427	0.20774	0.24599	0.20054	0.36636	0.26095	0.26584	0.24938	0.14494	0.11899	0.18761	0.54698	0.022357	0.08423	-0.4	-1.1542	-1.0146	-0.63958	-1.3958	-0.94375	-0.9125	-1.4208	-0.63958	-0.94792	-1.4854	-0.74792	-1.125	-1.0604	-0.53333	-1.7729	114.937	311.583	134.546	389.423	153.716	200.357	371.313	358.386	419.769	370.005	291.481	460.736	140.157	448.512	151.878	435.376	0.001009	0.0014501	0.00034337	588.46	7.5501e-06	4.4903e-05	761.11	253.32	1.8138e-05	1.0916e-05	333.71	156.66	132.33	77.625	1.8435e-05	94.579	0.004814	0.0051046	0.0014346	756.86	5.5242e-05	5.6608e-05	892.08	289.94	5.5397e-05	5.5532e-05	411.66	178.94	165.33	82.437	5.5284e-05	101.09	192.085	185.244	173.514	121.848	260.866	317.867	120.393	127.281	175.621	268.272	124.282	127.199	131.077	133.571	194.293	129.652	-8191	255	
1065.759	1	1	0	0	0.25336	0.25582	0.050181	0.07012	0.13823	0.28111	0.16239	0.32292	0.080493	0.19079	0.15849	0.20449	0.080437	0.30265	0.28468	0.28954	-0.29375	-0.78333	-1.4688	-0.775	-1.0562	-0.975	-0.775	-1.5958	-0.95	-0.86667	-1.3583	-0.57083	-1.1771	-1.2229	-0.65833	-1.4083	408.984	398.214	276.125	410.408	426.122	212.167	130.942	450.156	464.615	365.637	420.227	417.147	391.517	453.962	463.270	432.893	0.0010516	0.0016099	0.0004058	588.18	5.0438e-06	3.2544e-05	773.28	253.43	6.6725e-06	1.7368e-05	339.25	157.13	130.96	77.885	1.0748e-05	96.065	0.0047978	0.0051078	0.0014432	761.76	5.5917e-05	5.7385e-05	900.24	292.17	5.6816e-05	5.6289e-05	416.11	180.82	165.85	82.823	5.5531e-05	102.14	199.134	156.366	469.590	122.099	229.106	224.018	120.359	127.684	207.187	114.177	124.700	127.397	131.179	133.656	467.198	129.587	-8191	255	
1065.880	1	1	0	0	0.22524	0.091812	0.20814	0.078271	0.11366	0.049169	0.11742	0.080342	0.1123	0.29031	0.094843	0.099824	0.21281	0.050401	0.023718	0.35048	-0.4375	-0.70625	-1.3979	-0.59375	-1.1104	-1.2979	-0.66875	-1.5167	-0.68542	-0.50833	-1.4333	-0.68125	-1.0375	-1.2583	-0.41042	-1.5354	221.545	444.499	117.389	364.465	218.379	238.354	373.490	357.306	316.311	262.418	325.512	263.580	438.073	410.984	468.120	395.072	0.00089262	0.00030301	0.00011689	590.5	8.0215e-06	2.117e-05	776.91	253.36	6.4519e-06	1.984e-05	338.34	157.12	131.9	78.186	1.8815e-05	94.901	0.0047791	0.005055	0.0014051	758.84	5.4376e-05	5.5596e-05	897.66	290.27	5.5739e-05	5.5081e-05	413.98	181.5	166.36	82.701	5.5841e-05	101.78	194.286	275.841	303.927	121.328	146.017	166.721	119.655	127.026	468.940	182.915	123.408	126.951	130.734	133.275	211.488	129.507	-8191	255	
1065.976	1	1	0	0	0.026938	0.2273	0.0047289	0.28953	0.075988	0.13965	0.16916	0.17962	0.18952	0.19184	0.17754	0.15547	0.19626	0.52027	0.29672	0.55606	-0.87083	-0.51458	-1.275	-0.67708	-0.88333	-1.2146	-0.73125	-1.2042	-0.7	-0.69792	-1.3917	-0.8875	-0.94583	-1.6313	-0.57292	-1.3375	319.363	209.329	275.042	384.033	348.925	130.610	467.282	135.925	213.379	135.841	354.797	189.762	233.706	434.229	162.455	375.070	0.00089578	0.0020087	0.00055255	590.74	1.9522e-05	1.0163e-05	772.48	252.83	8.3315e-06	7.0523e-06	338.15	157.23	130.64	77.495	1.0623e-05	94.335	0.0048637	0.0051442	0.0014417	765.99	5.6205e-05	5.713e-05	901.44	291.83	5.6575e-05	5.653e-05	413.6	180.32	166.04	82.459	5.7138e-05	101.02	205.521	434.389	191.699	121.681	289.106	390.882	119.907	127.004	115.420	270.560	123.643	126.932	130.979	133.491	253.259	129.542	-8191	255	
1066.072	1	1	0	0	0.23454	0.1963	0.33557	0.24621	0.24086	0.10813	0.21657	0.13411	0.097462	0.12933	0.37507	0.25997	0.14715	0.43052	0.093463	0.35	-0.56042	-0.48333	-1.175	-0.88125	-1.0021	-1.3	-0.80208	-1.3354	-1.4	-0.57708	-1.1729	-0.8125	-0.77292	-1.6542	-0.34583	-1.0688	422.987	360.841	364.566	188.221	346.642	276.942	423.326	345.482	399.053	266.184	420.426	382.595	333.211	425.183	468.697	415.983	0.00086735	0.0018531	0.00034893	585.78	5.7706e-06	1.328e-05	766.95	252.99	2.4654e-06	7.8492e-06	336.62	155.6	131.46	77.524	1.891e-05	94.677	0.0049351	0.0052921	0.00147	770.39	5.7449e-05	5.8544e-05	903.13	292.72	5.8132e-05	5.8449e-05	417.1	181.2	167.46	82.682	5.9413e-05	101.76	200.454	194.500	372.193	121.759	308.407	313.128	119.943	126.763	426.051	216.463	123.625	126.484	130.847	133.328	239.009	129.620	-8191	255	
1066.192	1	1	0	0	0.040474	0.10192	0.33591	0.18776	0.25541	0.09084	0.22768	0.19413	0.14211	0.25147	0.29941	0.23011	0.22637	0.36469	0.096876	0.27522	-0.6625	-0.36458	-1.2792	-1.0229	-0.65208	-1.4146	-0.95208	-1.2854	-1.2896	-0.74792	-1.3667	-1.1437	-0.61042	-1.6771	-0.63542	-1.0938	422.385	181.776	243.017	299.455	259.509	189.310	119.349	432.080	202.207	366.382	112.313	446.873	409.612	442.741	197.389	183.141	0.00087841	0.0017708	0.00057405	587.6	1.046e-05	2.9346e-05	771.24	252.76	1.6062e-05	1.1984e-05	336.46	156.24	131.35	77.644	5.7473e-06	94.932	0.0050542	0.005487	0.0015185	779.15	5.949e-05	6.0621e-05	916.41	296.01	6.1337e-05	6.1929e-05	424.71	183.99	170.53	83.487	6.313e-05	103.2	195.685	142.366	117.249	121.647	221.753	319.603	120.080	126.860	342.061	184.265	123.705	127.424	130.921	133.466	142.515	129.785	-8191	255	
1066.289	1	1	0	0	0.20534	0.24666	0.25893	0.010582	0.13886	0.17833	0.31646	0.28428	0.15839	0.1426	0.046312	0.035354	0.19264	0.28736	0.080369	0.094616	-0.67708	-0.25417	-1.1	-0.9625	-0.71042	-1.3854	-0.90417	-1.0083	-1.3146	-0.44792	-1.1646	-0.96458	-0.625	-1.6458	-0.83125	-1.0854	274.907	343.667	199.998	133.688	290.686	359.405	458.731	325.309	122.319	135.903	147.784	362.752	171.231	445.766	114.486	400.311	0.00086624	0.0029592	0.00052498	591.54	2.0858e-05	3.6231e-05	778.91	253.48	1.2688e-05	1.4644e-05	338.19	156.84	132.14	77.936	5.4703e-06	95.576	0.00524	0.0056689	0.0015654	784.05	6.0387e-05	6.0732e-05	918.3	295.34	5.9225e-05	6.0216e-05	420.45	182.86	168.57	83.061	5.8928e-05	102.68	195.867	223.144	190.369	121.612	224.026	310.924	119.973	127.062	253.662	179.984	123.819	127.487	130.858	133.507	267.388	129.407	-8191	255	
1066.383	1	1	0	0	0.15012	0.2057	0.11581	0.12095	0.17125	0.28757	0.070451	0.12603	0.12402	0.12257	0.21234	0.15477	0.17195	0.29377	0.27338	0.33823	-1.1771	-0.43958	-1.1063	-1.2313	-0.36458	-1.3229	-0.79792	-0.88125	-1.3604	-0.62083	-1.0667	-1.5479	-0.54792	-1.5312	-1.2625	-1.0771	135.865	206.105	164.620	142.375	273.004	380.538	415.920	419.318	353.917	127.486	436.647	214.362	168.778	402.292	291.332	374.770	0.0010913	0.0015044	0.00063431	588.04	9.0353e-06	7.8641e-06	774.57	252.63	5.7269e-06	4.2185e-06	335.84	156.32	130.9	77.388	5.7791e-06	94.878	0.0049035	0.0053679	0.0014749	769.54	5.8475e-05	5.8974e-05	915.5	294.43	5.9235e-05	6.1024e-05	420.2	182.81	169.38	83.134	6.13e-05	102.39	208.282	203.183	156.320	121.399	419.186	116.094	119.963	126.961	191.202	383.437	124.036	127.043	131.041	133.145	200.251	129.804	-8191	255	
1066.456	1	1	0	0	0.20913	0.17689	0.056365	0.042821	0.16694	0.077694	0.062323	0.2642	0.16122	0.24642	0.1817	0.23669	0.077486	0.23952	0.24054	0.10084	-1.025	-0.72708	-1.0312	-1.3458	-0.275	-1.2896	-1.1542	-0.86667	-1.5396	-0.60208	-0.98333	-1.3542	-0.67292	-1.4792	-1.1792	-0.70625	171.688	297.061	294.162	299.894	233.954	242.840	189.761	441.649	179.040	395.185	317.002	134.309	207.982	456.431	184.511	386.058	0.00077497	0.0013038	0.00049601	595.02	1.2768e-06	7.8918e-06	760.39	252.21	5.1068e-06	1.0218e-05	334.98	154.66	130.71	77.441	9.5826e-06	93.535	0.00516	0.005637	0.0015557	781.38	6.1031e-05	6.0848e-05	915.06	295.66	6.0101e-05	6.2077e-05	419.85	181.84	169.42	82.923	6.1308e-05	101.45	203.655	251.766	186.302	121.503	389.966	416.122	120.155	127.560	201.448	352.512	123.797	127.222	130.979	133.548	304.174	129.135	-8191	255	
1066.575	1	1	0	0	0.35196	0.23411	0.25831	0.082591	0.21553	0.30253	0.23917	0.22123	0.23889	0.18699	0.36861	0.33274	0.12305	0.14375	0.13379	0.24464	-1.0063	-0.73125	-0.90625	-1.4312	-0.50208	-1.1396	-1.2437	-0.65625	-1.3062	-0.8	-0.73125	-1.4062	-0.74792	-1.3	-1.325	-0.69583	203.341	374.905	258.958	187.646	443.861	357.193	450.010	318.561	362.059	445.093	450.287	127.271	393.152	399.697	204.795	461.262	0.00083135	0.00070393	0.00025523	587.58	5.2476e-06	9.5445e-06	763.68	251.95	1.4513e-05	1.8924e-05	334.52	155.84	131.51	77.401	8.7829e-06	94.107	0.0051416	0.0056525	0.0015508	777.47	6.146e-05	6.1269e-05	914.84	295.02	6.0862e-05	6.3098e-05	421.15	182.62	171.28	83.078	6.1938e-05	102.13	199.944	315.213	405.841	121.334	392.126	180.039	119.406	126.727	254.863	158.981	123.375	126.408	130.767	133.282	199.753	129.560	-8191	255	
1066.671	1	1	0	0	0.054608	0.15799	0.17719	0.062958	0.1167	0.15386	0.19904	0.014446	0.22941	0.33801	0.17202	0.07847	0.42368	0.2358	0.13621	0.23007	-1.1271	-1.1833	-0.60833	-1.5229	-0.625	-0.85	-1.3271	-0.60625	-1.3125	-0.76667	-0.77708	-1.3208	-0.75	-1.2792	-1.3792	-0.775	228.372	421.774	372.905	446.864	364.522	264.850	352.590	115.913	279.437	294.513	352.373	175.997	409.840	448.675	388.157	411.837	0.00099034	0.003526	0.00034264	590.67	5.1595e-06	3.8192e-05	765.42	253.55	1.5847e-05	1.977e-05	339.41	156.48	131.15	78.122	1.0071e-05	95.392	0.0052134	0.0057675	0.001576	784.79	6.2781e-05	6.2839e-05	921.47	297.7	6.2187e-05	6.381e-05	424.72	184.02	171.88	83.64	6.2821e-05	103.39	198.160	151.185	220.409	121.296	247.545	323.796	120.257	127.300	315.558	146.404	123.731	127.408	131.145	134.691	112.463	130.749	-8191	255	
1066.768	1	1	0	0	0.12218	0.15295	0.11371	0.10729	0.059474	0.1281	0.31862	0.032208	0.10701	0.14861	0.14774	0.18435	0.063138	0.27563	0.12866	0.15661	-0.93542	-0.98333	-0.65	-1.7021	-0.66875	-1.0667	-1.3604	-0.7375	-1.1146	-0.94375	-0.69167	-1.5667	-0.71458	-0.98542	-1.2146	-0.68542	378.389	292.103	264.732	389.436	338.698	295.717	431.159	273.055	453.649	236.731	450.397	426.898	436.306	402.234	413.704	302.029	0.00099008	0.00044024	0.00048161	595.75	1.6057e-05	2.3648e-05	775.95	253.87	7.4165e-06	6.8489e-06	336.81	157.55	130.15	77.924	5.1529e-06	95.484	0.0052646	0.0057846	0.0015937	787.01	6.3445e-05	6.3131e-05	928.64	298.84	6.2577e-05	6.4177e-05	427.23	184.66	171.76	83.589	6.199e-05	103.31	207.929	298.857	216.279	121.617	247.165	121.129	120.303	127.168	359.637	216.757	124.033	127.475	131.066	134.089	301.779	130.685	-8191	255	
1066.864	1	1	0	0	0.21179	0.19854	0.021855	0.039488	0.13958	0.14376	0.27012	0.10454	0.092621	0.14137	0.089399	0.11892	0.2841	0.15128	0.16397	0.15136	-0.67917	-1.2125	-0.54583	-1.4292	-0.99583	-0.88125	-1.65	-0.55208	-0.98333	-1.2958	-0.65	-1.4042	-0.77292	-0.81042	-1.1146	-0.78958	180.068	412.032	374.643	383.462	209.812	198.365	426.171	206.788	430.252	175.362	359.260	424.765	210.153	123.539	171.550	218.821	0.00085445	0.00094465	9.1386e-05	595.67	6.7262e-06	1.9497e-05	778.72	251.43	1.4025e-05	2.172e-05	335.05	156.53	131.17	78.478	6.3104e-06	94.782	0.0051803	0.0056728	0.001566	780.9	6.1552e-05	6.0718e-05	916.94	295.82	5.9351e-05	6.0798e-05	419.56	181.63	169.25	83.299	5.9291e-05	101.7	208.855	278.017	270.903	122.880	201.847	157.059	121.709	127.996	234.078	215.037	125.249	128.519	131.867	134.725	318.414	131.077	-8191	255	
1066.960	1	1	0	0	0.25337	0.21746	0.19981	0.14151	0.083711	0.20259	0.27847	0.22559	0.16895	0.20437	0.12788	0.14536	0.19186	0.21757	0.046997	0.13513	-0.56875	-1.3104	-0.53542	-1.5458	-0.975	-0.41458	-1.5646	-0.7875	-0.94792	-1.5625	-0.67292	-1.4375	-0.94792	-0.62708	-1.4125	-0.97708	407.965	361.642	412.801	413.702	388.079	421.988	295.181	422.270	117.485	234.010	293.680	193.011	371.467	121.781	381.836	163.410	0.0011279	0.0004038	0.0003976	591.96	1.0934e-05	9.1225e-06	768.17	253.41	1.8896e-06	1.7326e-05	335.31	155.26	130.35	77.969	2.7953e-05	94.561	0.0049576	0.0054477	0.0015078	771.08	5.9411e-05	5.8637e-05	905.8	294.18	5.7559e-05	5.8753e-05	415.35	179.84	167.65	82.824	5.774e-05	101.28	196.692	297.766	166.833	123.308	353.954	184.063	122.119	128.829	317.324	377.858	124.829	128.457	131.952	134.856	273.704	130.574	-8191	255	
1067.056	1	1	0	0	0.12104	0.25883	0.31448	0.31304	0.20713	0.24603	0.24718	0.22308	0.2331	0.32088	0.084343	0.29433	0.23215	0.35498	0.027566	0.35977	-0.63125	-1.2958	-0.37917	-1.3062	-1.1667	-0.49375	-1.5167	-0.74167	-0.64167	-1.1375	-0.39167	-1.4521	-1.1833	-0.6	-1.2979	-1.1292	346.383	365.576	308.646	282.135	297.728	219.108	415.091	409.457	117.659	191.938	319.688	174.228	266.156	386.915	199.622	141.751	0.00077078	0.0016707	0.00049661	590.39	4.4916e-06	4.1694e-05	775.33	253.44	8.0715e-06	2.7028e-05	339.15	156.91	130.96	78.19	1.1227e-05	95.372	0.0048459	0.0053191	0.0015049	768.59	5.9254e-05	5.8998e-05	910.67	294.7	5.7887e-05	5.9627e-05	421.06	181.43	168.36	82.956	5.8557e-05	102.26	208.494	121.695	317.403	123.188	411.097	189.731	121.070	127.687	278.072	287.041	124.648	128.624	131.959	134.498	231.152	130.376	-8191	255	
1067.152	1	1	0	0	0.21301	0.13906	0.15684	0.18832	0.20669	0.13364	0.089946	0.24703	0.18828	0.12378	0.19325	0.25362	0.24186	0.16647	0.10652	0.2633	-0.27083	-1.2417	-0.54583	-1.35	-1.0938	-0.37708	-1.5667	-0.82292	-0.54792	-1.5646	-0.62917	-1.2271	-1.3979	-0.56667	-1.0604	-1.1437	136.096	296.779	149.375	390.205	412.720	312.409	326.601	412.899	442.722	232.224	457.058	330.859	448.460	385.572	169.730	416.500	0.00066358	0.001451	0.00086414	591.64	8.5406e-06	2.8663e-05	781.38	253.14	4.5382e-06	3.7967e-05	339.73	158.23	130.84	77.801	1.0819e-05	96.121	0.0049243	0.0053259	0.0015033	770.62	5.8358e-05	5.8791e-05	911.57	294.11	5.7255e-05	5.8057e-05	418.76	181.14	166.72	82.703	5.5535e-05	102.56	194.082	292.007	146.187	121.982	159.693	278.527	120.187	127.398	217.488	236.489	123.647	127.634	131.116	133.757	186.946	129.909	-8191	255	
1067.273	1	1	0	0	0.18466	0.15013	0.21005	0.3038	0.057234	0.16257	0.17891	0.028661	0.26913	0.097726	0.044554	0.28152	0.084286	0.56896	0.051646	0.061648	-0.19792	-1.3021	-0.77292	-0.90625	-1.3854	-0.4375	-1.5146	-1.3979	-0.6375	-1.3417	-0.91667	-0.87917	-1.25	-0.69792	-1.4125	-1.4458	408.549	368.335	360.597	167.897	122.221	426.489	397.497	383.998	431.757	243.683	206.023	419.229	418.318	410.214	337.870	434.544	0.00074955	0.0019671	0.00037559	598.86	1.2943e-06	3.3317e-05	779.53	254.83	1.3533e-05	1.4922e-05	338.38	158.46	131.02	77.831	1.3293e-05	94.711	0.0046881	0.0051094	0.0014412	760.03	5.5924e-05	5.6515e-05	904.33	292.35	5.4515e-05	5.4827e-05	411.45	178.75	163.84	82.062	5.2569e-05	100.58	193.055	450.346	128.999	121.309	118.059	241.763	120.886	128.166	262.933	270.088	124.416	128.362	131.579	134.217	322.357	129.744	-8191	255	
1067.369	1	1	0	0	0.095867	0.30433	0.048018	0.047542	0.22956	0.09184	0.03252	0.27457	0.3275	0.082199	0.043947	0.41502	0.2403	0.21786	0.11985	0.22184	-0.05	-1.1938	-0.7375	-0.82708	-1.3312	-0.51458	-1.1542	-1.0187	-0.55417	-1.4146	-1.0792	-0.58125	-1.5208	-0.95	-1.0396	-1.25	177.259	306.724	206.020	409.305	207.293	212.108	154.096	144.834	257.663	442.069	325.783	416.878	412.707	400.153	115.891	412.379	0.00080959	0.0011218	0.00052535	592.13	1.2637e-05	2.3665e-05	771.11	254.25	1.3818e-05	5.0217e-06	336.21	155.37	131.21	77.975	2.7259e-05	94.502	0.0045013	0.0048442	0.0013769	747.53	5.2871e-05	5.3553e-05	885.54	288.38	5.0861e-05	5.0492e-05	401.57	174.65	159.94	81.187	4.6777e-05	98.381	186.640	453.905	185.742	121.633	236.144	401.264	120.264	127.127	261.354	209.806	123.296	126.945	130.989	133.047	297.096	129.321	-8191	255	
1067.463	1	1	0	0	0.16933	0.12458	0.34597	0.20952	0.062338	0.22187	0.21909	0.26095	0.24119	0.12194	0.10087	0.17004	0.21191	0.44831	0.1886	0.22686	-0.13333	-1.3042	-0.73333	-0.53125	-1.5562	-0.61667	-1.0187	-1.1979	-0.58333	-1.2146	-1.0562	-0.48542	-1.5	-0.9625	-0.96875	-1.3208	425.604	384.514	416.465	124.109	360.781	347.142	376.335	149.627	203.684	260.740	159.288	413.976	404.013	135.593	467.628	450.449	0.0008683	0.001916	0.00012537	587.1	1.6355e-05	1.3826e-05	764.28	254.24	5.6957e-06	1.3206e-05	335.05	157.57	131.39	78.427	7.0241e-06	95.556	0.0038868	0.004116	0.0011409	710.24	4.2984e-05	4.3478e-05	844.25	277.4	4.1546e-05	4.1063e-05	384.63	171.26	153.25	80.248	3.9211e-05	97.825	199.124	293.090	321.850	121.362	253.290	202.956	119.896	126.668	341.514	130.305	123.554	126.888	130.668	132.964	239.597	129.097	-8191	255	
1067.560	1	1	0	0	0.12487	0.3167	0.10816	0.21777	0.13512	0.059534	0.077379	0.22705	0.253	0.19966	0.20164	0.062502	0.020227	0.23507	0.29829	0.18177	-0.17917	-1.1562	-0.80625	-0.36667	-1.4542	-0.69583	-0.86042	-1.4396	-0.80417	-1.2938	-1.3188	-0.54167	-1.5521	-1.0438	-0.825	-1.4604	306.104	160.099	288.767	420.618	373.522	328.757	463.929	422.666	339.440	156.858	155.533	468.704	432.272	110.787	333.539	387.551	0.00084743	0.00064548	0.00012614	588.01	1.6072e-06	2.6151e-05	761.18	255.81	5.3213e-06	1.2697e-05	338.39	159.28	133.65	79.708	1.1812e-05	97.632	0.003331	0.0035046	0.00099112	689.59	3.8168e-05	3.9072e-05	827.73	274.55	3.7307e-05	3.7251e-05	379.39	170.33	151.62	80.747	3.6885e-05	99.273	195.075	239.073	267.544	121.718	130.422	305.290	119.913	126.781	409.078	199.524	123.399	126.932	130.771	132.976	218.997	128.976	-8191	255	
1067.680	1	1	0	0	0.10657	0.18929	0.12424	0.11738	0.16045	0.27177	0.36033	0.16742	0.17868	0.30818	0.19742	0.31077	0.27043	0.11646	0.068292	0.18247	-0.17292	-1.2396	-1.225	-0.67708	-1.2354	-0.62292	-0.84583	-1.5917	-0.7	-0.87708	-1.5229	-0.73333	-1.2375	-1.0292	-0.55	-1.45	118.913	209.942	280.111	397.364	241.922	354.315	390.929	361.266	355.279	463.645	149.564	113.755	356.871	379.740	166.068	109.067	0.00073159	0.0011975	0.00035554	587.04	1.1906e-05	2.4237e-05	761.41	255.33	1.0184e-05	1.1685e-05	340.08	161.76	134.03	79.679	1.2573e-05	98.331	0.0031977	0.0033342	0.0009448	682.44	3.6292e-05	3.7087e-05	823.34	273.98	3.6851e-05	3.6584e-05	381.68	172.44	152.14	80.842	3.6752e-05	99.889	204.499	205.496	258.934	121.543	304.185	277.675	119.812	126.687	282.673	319.783	123.471	126.698	130.705	133.085	257.304	129.060	-8191	255	
1067.752	1	1	0	0	0.089738	0.1151	0.094505	0.22377	0.13148	0.18057	0.15455	0.15518	0.049961	0.14883	0.2522	0.21827	0.39706	0.086539	0.13876	0.28011	-0.41875	-1.0146	-1.0312	-0.40833	-1.3958	-0.99583	-0.65417	-1.5146	-0.70417	-0.88125	-1.4125	-0.73542	-1.1979	-1.2042	-0.71667	-1.7313	214.823	286.050	250.405	276.298	381.254	351.026	373.819	388.669	315.712	153.577	390.433	372.242	426.047	297.894	369.379	156.193	0.00085648	0.001332	0.00048364	589.58	1.7865e-05	2.2479e-05	757.92	254.16	4.3791e-06	9.7271e-06	339.2	160.2	133.12	79.318	1.1214e-05	97.491	0.0032212	0.0033509	0.00096132	686.13	3.7245e-05	3.8364e-05	828.47	274.66	3.8257e-05	3.8209e-05	381.13	172.25	152.94	80.989	3.8429e-05	99.62	202.278	183.262	250.889	121.069	257.164	298.410	119.742	126.650	187.368	255.636	123.051	126.569	130.453	132.896	177.068	128.900	-8191	255	
1067.872	1	1	0	0	0.21698	0.1903	0.054437	0.0074812	0.14744	0.2121	0.16893	0.082353	0.29562	0.23158	0.067729	0.20526	0.37007	0.17799	0.28984	0.26767	-0.16875	-0.63958	-1.4125	-0.49583	-1.2083	-1.2313	-0.70625	-1.5229	-0.8875	-0.88125	-1.4375	-0.55208	-1.1125	-1.6167	-0.4	-1.4979	451.858	178.589	436.514	321.772	323.197	142.184	383.914	413.509	247.467	135.872	270.469	454.146	452.612	405.196	369.035	431.605	0.00094728	0.00075004	0.0005663	584.87	1.676e-05	1.344e-05	760.03	254.69	1.074e-05	1.284e-05	334.17	160.17	132.95	79.612	2.6621e-05	97.137	0.0033445	0.0035072	0.00099612	688.93	3.8103e-05	3.9268e-05	827.16	275.27	3.8904e-05	3.8999e-05	379.72	172.45	153.01	81.077	3.8882e-05	99.183	190.055	313.186	205.301	121.155	319.617	324.983	119.580	126.635	292.541	268.641	122.986	126.391	130.198	132.734	253.793	129.038	-8191	255	
1067.969	1	1	0	0	0.17339	0.068377	0.10721	0.15452	0.094423	0.090466	0.063717	0.45423	0.051425	0.33152	0.16058	0.15552	0.28748	0.11241	0.19095	0.36966	-0.35	-0.7625	-1.6229	-0.79583	-0.99375	-1.2375	-0.61458	-1.5	-1.0167	-0.57292	-1.3396	-0.89375	-1.1	-1.3625	-0.41042	-1.5208	463.163	327.688	143.734	309.752	129.849	222.599	264.181	428.028	432.836	423.983	423.142	445.209	130.336	459.687	170.979	414.363	0.00081141	0.0014281	0.00018332	586.85	2.082e-06	3.0552e-06	755.3	254.82	2.6146e-06	1.0012e-05	339.3	160.99	133.32	79.257	7.6845e-06	97.787	0.0033251	0.003506	0.00098002	689.44	3.8116e-05	3.9157e-05	830.48	275.13	3.9325e-05	3.9878e-05	383.42	173.65	154.57	81.383	4.1111e-05	100.35	196.620	364.709	142.241	120.989	142.503	171.491	119.345	126.724	330.215	324.031	122.569	126.626	130.200	132.696	303.941	129.075	-8191	255	
1068.065	1	1	0	0	0.27526	0.23412	0.27133	0.17868	0.13492	0.2029	0.17569	0.23472	0.057399	0.17674	0.15532	0.10698	0.14021	0.2625	0.1579	0.38648	-0.66042	-0.425	-1.2979	-0.98125	-0.84375	-1.2125	-0.51042	-1.5583	-1.25	-0.45833	-1.3375	-1.05	-1.1583	-1.4813	-0.46875	-1.3333	363.913	158.149	429.275	132.030	116.253	327.600	398.220	397.660	424.320	341.273	413.546	139.047	429.954	406.633	318.422	411.741	0.001012	0.00093235	0.00036131	590.1	8.5801e-06	3.6273e-05	758.82	254.85	1.6161e-05	1.4441e-05	341.11	162.81	133.02	78.961	9.7054e-06	98.069	0.0035498	0.0038198	0.0010746	709.81	4.2753e-05	4.4589e-05	851.77	281.35	4.5467e-05	4.6346e-05	398.38	178.9	159.46	82.145	4.7916e-05	102.43	211.455	437.202	203.392	121.130	325.112	173.436	119.038	126.486	266.889	395.354	123.076	126.487	130.363	132.780	196.460	128.799	-8191	255	
1068.161	1	1	0	0	0.2686	0.23723	0.040286	0.13143	0.26395	0.089598	0.23945	0.2204	0.15356	0.21806	0.13501	0.10812	0.13408	0.45966	0.06994	0.48292	-0.99167	-0.475	-1.4375	-0.96458	-0.6125	-1.4521	-0.92292	-1.3604	-1.2917	-0.50417	-1.4833	-1.3354	-0.92083	-1.5812	-0.54167	-1.2479	265.809	438.476	321.136	303.668	170.179	174.755	206.555	123.241	260.552	355.066	410.982	464.410	212.932	407.158	425.647	446.158	0.0008848	0.0025131	0.00011153	593.73	1.3995e-05	1.5747e-05	768.85	253.72	1.1247e-05	2.402e-05	340.65	162.22	132.79	78.632	9.4998e-06	98.122	0.0041194	0.0044836	0.0012463	737.56	4.9341e-05	5.0805e-05	879.28	286.24	5.0558e-05	5.1236e-05	405.92	181.65	162.64	82.443	5.1475e-05	103.01	190.409	124.324	420.399	121.304	152.340	206.736	119.764	126.344	285.543	204.279	123.660	126.190	130.222	132.786	233.579	128.850	-8191	255	
1068.257	1	1	0	0	0.17082	0.24568	0.035056	0.092289	0.18801	0.16917	0.22923	0.29177	0.17721	0.20963	0.1171	0.07007	0.22335	0.10105	0.0070508	0.21482	-0.85417	-0.31042	-1.3875	-0.92292	-0.47708	-1.3521	-0.66667	-0.88542	-1.4583	-0.63125	-1.3896	-1.1875	-0.74792	-1.7604	-0.8375	-0.95	341.014	267.393	348.949	423.165	118.876	235.482	336.087	116.715	297.714	391.622	393.304	399.972	460.070	417.696	153.651	384.508	0.00079578	0.0008522	0.0001393	586.7	4.0213e-06	2.5785e-05	763.85	254.47	1.8544e-05	9.4792e-06	337.5	159.87	131.68	78.386	1.0455e-05	97.063	0.0043887	0.0047328	0.0013022	740.76	5.074e-05	5.1654e-05	877.32	285.55	5.0695e-05	5.1287e-05	404.07	180.1	162.5	82.232	5.1384e-05	102.17	188.669	155.679	384.737	120.865	292.786	228.521	119.074	126.772	339.861	329.836	123.162	126.340	130.065	132.873	275.665	128.958	-8191	255	
1068.353	1	1	0	0	0.16576	0.27945	0.026005	0.2868	0.1436	0.39682	0.14712	0.30226	0.1845	0.14324	0.14212	0.24387	0.17475	0.36286	0.32505	0.021671	-0.97083	-0.44375	-1.2563	-1.1167	-0.45208	-1.3833	-1.1854	-1.0375	-1.4438	-0.29167	-1.1167	-1.2437	-0.67708	-1.7354	-0.69583	-0.9625	193.668	156.459	279.218	423.355	402.214	202.270	468.057	445.674	428.890	299.944	311.062	437.402	435.157	426.560	329.989	225.742	0.00072208	0.0010755	0.00037028	587.72	8.2741e-06	5.9958e-06	764.78	252.27	8.2261e-06	6.8163e-06	335.64	159.42	131.58	78.446	9.0784e-06	97.312	0.0043649	0.0046879	0.0012859	737.46	5.0513e-05	5.089e-05	874.09	284.23	4.9614e-05	5.0014e-05	398.85	178.51	160.72	81.662	4.7606e-05	101.32	203.723	154.425	449.141	120.578	401.567	240.657	119.121	126.601	185.326	430.878	123.244	126.204	130.222	132.562	170.668	128.769	-8191	255	
1068.448	1	1	0	0	0.029351	0.14319	0.090401	0.12404	0.037634	0.14744	0.1949	0.10221	0.17063	0.2065	0.11031	0.40039	0.32479	0.19459	0.18839	0.24302	-1.0438	-0.93958	-1.0667	-1.3771	-0.4375	-1.5021	-1.2	-1.0083	-1.2229	-0.61875	-1.0521	-1.2479	-0.48542	-1.4979	-1.0146	-0.7375	369.512	351.649	281.358	465.545	432.353	154.258	373.577	412.633	289.215	404.096	117.799	425.167	383.958	431.233	322.745	319.427	0.00075442	0.00090407	0.00057688	582.64	1.0883e-05	2.2722e-05	757.81	252.89	9.7595e-06	1.1093e-05	336.68	161.12	131.64	79.384	1.4253e-05	97.602	0.0039837	0.0042891	0.0011668	715.4	4.5705e-05	4.5602e-05	853	280.53	4.5247e-05	4.5965e-05	392.91	177.39	158.39	81.657	4.6405e-05	101.61	197.186	224.990	215.022	121.031	196.889	279.561	119.238	126.014	210.391	292.513	123.368	126.363	130.042	132.937	287.761	128.669	-8191	255	
1068.544	1	1	0	0	0.079859	0.15117	0.15078	0.164	0.31209	0.14583	0.20788	0.30176	0.13048	0.12667	0.26759	0.22639	0.35061	0.3097	0.15904	0.17605	-0.98125	-0.54583	-1.025	-1.475	-0.60208	-1.2125	-1.2854	-0.67917	-1.2375	-0.69583	-1	-1.45	-0.59375	-1.4188	-1.0458	-0.82917	341.608	211.384	301.726	457.154	445.575	415.128	121.209	381.727	181.642	112.951	304.459	448.795	122.299	425.559	137.492	372.622	0.00088196	0.0017447	0.00024294	582.31	1.8877e-05	3.8325e-06	766.49	253.14	4.4134e-06	5.1417e-06	342.51	161	132.43	79.238	1.8614e-05	98.047	0.0039716	0.0043405	0.0011929	723.89	4.7596e-05	4.7075e-05	863.84	282.49	4.7266e-05	4.8592e-05	399.83	179.62	161.28	82.359	4.8817e-05	102.71	192.520	170.681	219.786	121.009	297.722	146.641	119.143	126.578	320.901	380.124	122.659	126.267	129.931	132.710	298.029	128.800	-8191	255	
1068.642	1	1	0	0	0.29671	0.13099	0.081288	0.21098	0.03557	0.32024	0.24482	0.14018	0.30602	0.13616	0.30301	0.23369	0.19364	0.3274	0.1909	0.17338	-0.80208	-0.84792	-0.8625	-1.3583	-0.64375	-1.1437	-1.4167	-0.4875	-1.3479	-0.85417	-0.69583	-1.5521	-0.5875	-1.2313	-1.1917	-0.9125	209.294	358.497	290.320	126.378	230.394	181.161	424.265	345.487	464.298	160.193	120.630	452.736	375.973	437.425	279.592	342.317	0.0006137	0.00055245	0.00014899	588.63	5.9913e-06	1.8922e-05	762.37	250.54	4.9113e-06	2.1837e-05	338.38	160.49	132.29	78.923	5.4592e-06	97.586	0.0041286	0.0045111	0.0012405	730.32	4.9619e-05	4.9557e-05	871.92	283.75	4.9218e-05	5.0487e-05	402.83	180.47	162.37	82.366	5.0328e-05	102.39	197.112	362.036	368.853	120.901	258.651	273.229	119.584	126.516	440.164	247.012	123.126	126.434	130.121	132.756	331.961	128.471	-8191	255	
1068.761	1	1	0	0	0.19306	0.18664	0.33624	0.17577	0.23527	0.11067	0.37597	0.15763	0.17068	0.14767	0.2629	0.56282	0.31668	0.14846	0.095926	0.19475	-1.1479	-0.85833	-0.35833	-1.4813	-0.81042	-0.96875	-1.45	-0.31875	-1.3375	-1.2	-0.56875	-1.6417	-0.68333	-1.1917	-1.4604	-0.76875	178.669	323.003	135.434	357.947	121.093	220.865	396.194	380.838	327.639	284.945	395.986	431.652	466.136	411.212	314.113	435.903	0.00091499	0.0013527	0.00038304	584.05	5.76e-06	6.2741e-06	758.3	250.73	9.6895e-06	3.1348e-05	335.54	160.06	131.73	78.456	2.2608e-06	97.218	0.0041865	0.0045556	0.0012646	729.26	4.9375e-05	4.8824e-05	863.93	282.62	4.7685e-05	4.9268e-05	397.34	177.74	160.2	81.923	4.888e-05	101.63	203.757	205.832	193.423	120.992	430.574	108.993	119.502	126.071	297.987	240.035	122.771	126.532	129.834	132.849	263.059	128.499	-8191	255	
1068.857	1	1	0	0	0.15192	0.15583	0.11852	0.18866	0.13067	0.075668	0.15312	0.27533	0.26971	0.095586	0.17445	0.1432	0.075052	0.39264	0.1532	0.22667	-0.70625	-1.0479	-0.73958	-1.4604	-0.60625	-0.77708	-1.4208	-0.725	-0.975	-1.0292	-0.43958	-1.3146	-0.89167	-0.95	-1.3083	-0.88958	336.487	353.190	118.241	401.069	412.275	464.114	407.980	418.999	179.737	272.962	151.503	384.486	412.928	421.327	260.232	408.037	0.00087777	0.00031594	0.00051699	580.31	1.5575e-05	3.1069e-05	757.13	249.83	6.6845e-06	1.1349e-05	334.84	160.41	131.25	78.624	1.0703e-05	96.935	0.0041209	0.0045262	0.0012568	727.31	4.9653e-05	4.9097e-05	862.84	282.87	4.8422e-05	4.9947e-05	398.89	178.61	161.56	82.153	4.976e-05	102.03	187.040	154.132	280.117	120.811	249.465	306.779	119.166	125.996	284.226	326.188	122.525	126.556	129.996	132.480	382.061	128.617	-8191	255	
1068.953	1	1	0	0	0.11433	0.094178	0.025727	0.29302	0.36465	0.23096	0.12359	0.23042	0.14228	0.13144	0.20376	0.14256	0.18065	0.43395	0.15264	0.45381	-0.94167	-1.125	-0.49792	-1.2458	-0.7375	-0.70208	-1.3958	-0.73333	-0.83542	-1.2458	-0.70625	-1.4271	-0.83958	-0.75833	-1.5417	-0.5625	454.002	170.661	370.098	397.630	443.269	173.803	313.866	140.289	291.194	248.623	121.982	433.774	461.383	463.986	437.859	438.518	0.00079988	6.5463e-05	0.00019845	582.86	1.6061e-05	2.452e-05	757.08	252.46	8.611e-06	7.0005e-06	338.95	160.4	132.05	78.769	1.133e-05	97.802	0.004156	0.0046072	0.0012887	732.09	5.0394e-05	5.0467e-05	871.21	285.47	4.9882e-05	5.1568e-05	403.94	179.92	162.59	82.506	5.0317e-05	102.93	203.622	239.303	324.760	121.053	412.208	273.604	119.195	126.073	333.024	400.109	123.060	126.891	129.801	132.633	367.897	128.557	-8191	255	
1069.049	1	1	0	0	0.085549	0.16389	0.13154	0.2456	0.18996	0.26047	0.11062	0.1972	0.043118	0.055391	0.075205	0.17476	0.11852	0.30118	0.1495	0.20989	-0.75625	-1.4312	-0.26667	-1.2396	-1.1604	-0.38958	-1.3479	-0.82917	-0.90625	-1.0208	-0.6875	-1.3271	-0.99167	-0.85208	-1.3125	-1.15	354.552	465.868	348.323	450.853	424.950	414.503	301.670	407.492	136.246	358.762	243.013	186.170	111.709	419.234	136.947	428.900	0.0010404	0.0018671	0.00024986	583.53	1.7011e-05	1.747e-05	760.01	251.57	7.0005e-06	1.7981e-05	339.31	161.07	131.74	78.725	1.4622e-05	97.399	0.0042531	0.0046466	0.0012975	731.53	5.0652e-05	5.0536e-05	870.26	284.48	4.9482e-05	5.0796e-05	403.12	179.92	162.15	82.46	4.9556e-05	102.51	201.235	224.859	163.918	120.740	315.885	225.835	119.294	126.377	297.527	301.918	122.923	126.363	129.997	132.708	292.475	128.554	-8191	255	
1069.145	1	1	0	0	0.37106	0.1616	0.090963	0.30138	0.17089	0.070213	0.16228	0.32567	0.26711	0.17864	0.27469	0.31679	0.36417	0.15155	0.19827	0.36556	-0.425	-1.3312	-0.6	-1.4292	-1.1313	-0.4625	-1.4083	-0.925	-0.64792	-1.5458	-0.62292	-1.1	-1.4771	-0.78333	-1.475	-1.0146	296.839	362.085	269.966	335.377	166.256	139.799	233.934	354.620	320.214	200.657	111.082	410.173	109.341	431.213	149.041	386.787	0.00076543	0.00053486	0.00073916	589.13	2.3055e-05	8.9616e-06	760.27	252.22	1.1761e-05	6.7437e-07	334.69	160.91	131.02	78.449	8.8891e-06	96.653	0.0042236	0.0045877	0.001281	731.63	4.9968e-05	4.9829e-05	863.3	283.39	4.9075e-05	5.0106e-05	401.47	179.4	161.86	82.249	5.0458e-05	101.94	198.250	426.254	180.931	121.110	272.195	192.042	119.327	126.199	264.666	229.629	122.082	126.581	129.615	132.439	274.515	128.415	-8191	255	
1069.241	1	1	0	0	0.14818	0.14876	0.29168	0.10918	0.24724	0.061581	0.033316	0.37892	0.20404	0.27562	0.20207	0.18113	0.22101	0.40737	0.17529	0.42232	-0.40208	-1.4021	-0.71667	-0.70417	-1.1271	-0.53542	-1.3292	-0.98958	-0.56458	-1.5063	-0.80833	-0.89792	-1.3229	-0.57083	-1.2396	-1.2812	151.328	421.809	246.462	430.322	312.932	265.807	464.540	411.803	260.349	217.022	465.488	367.718	381.202	457.844	322.096	403.759	0.00070664	0.0010272	0.00023787	590.07	5.4272e-06	1.3264e-05	754.84	250.61	9.0395e-06	1.5754e-05	334.42	158.94	130.61	78.17	1.5579e-05	96.567	0.0043267	0.0046697	0.0013039	734.06	5.1216e-05	5.1122e-05	868.3	284.56	5.0864e-05	5.1862e-05	404.54	179.84	163.07	82.211	5.1581e-05	102.25	200.559	147.882	154.931	120.857	189.840	354.221	119.039	126.231	192.708	400.966	122.984	126.472	129.800	132.853	261.272	128.686	-8191	255	
1069.362	1	1	0	0	0.29205	0.17105	0.20573	0.19436	0.017996	0.43591	0.082607	0.18053	0.24848	0.069712	0.24572	0.22309	0.14404	0.17259	0.1515	0.45099	-0.35	-1.125	-0.62708	-0.82292	-1.1833	-0.43333	-1.2417	-1.1646	-0.49792	-1.4458	-0.8375	-0.77917	-1.3083	-0.58542	-1	-1.4375	178.169	313.582	231.740	162.809	118.216	125.246	433.417	311.661	188.543	337.755	401.521	427.841	341.507	431.612	371.874	393.459	0.00069182	0.0019904	0.00026657	589.11	8.1388e-06	1.1157e-05	762.93	251.42	2.2838e-05	6.8466e-06	337.43	161.18	131.15	78.566	7.3974e-06	97.238	0.0044427	0.0047751	0.0013521	743.94	5.283e-05	5.3136e-05	876.32	287.18	5.1716e-05	5.19e-05	406.64	180.63	162.77	82.303	5.0474e-05	102.74	201.245	343.761	191.104	120.593	305.811	287.445	119.174	126.291	295.661	182.256	122.369	126.266	130.216	132.599	166.750	128.519	-8191	255	
1069.456	1	1	0	0	0.25548	0.26284	0.13427	0.042749	0.3968	0.014026	0.077231	0.21797	0.097407	0.25993	0.20709	0.28684	0.23344	0.41724	0.15501	0.13153	-0.1125	-1.1792	-0.74792	-0.61042	-1.5375	-0.6125	-1.0375	-1.3687	-0.5875	-1.5354	-1.1458	-0.68333	-1.125	-1.0146	-0.82083	-1.4583	314.480	457.961	167.821	438.546	208.804	251.734	144.303	152.411	403.830	269.681	144.457	139.567	371.827	404.042	357.850	403.506	0.00058063	0.00092596	0.00048525	588.09	8.3177e-06	1.4065e-05	767.75	253.22	1.5917e-05	1.7721e-05	340.48	160.83	132.08	78.128	8.48e-06	97.657	0.0043998	0.0047308	0.0013428	743.87	5.2253e-05	5.3191e-05	883.21	288.37	5.2787e-05	5.2922e-05	410.91	182.79	164.81	82.525	5.2879e-05	103.8	201.467	432.372	228.457	121.015	188.471	203.402	119.421	126.395	323.199	172.296	122.823	126.345	130.211	132.644	183.051	128.543	-8191	255	
1069.552	1	1	0	0	0.26338	0.32791	0.18082	0.33043	0.081044	0.092327	0.2235	0.20111	0.15723	0.15898	0.15179	0.17952	0.16353	0.16591	0.034531	0.26173	-0.016667	-1.4438	-0.90417	-0.57292	-1.4625	-0.6875	-0.92708	-1.3667	-0.46042	-1.3229	-1.15	-0.53125	-1.5646	-1.0708	-0.72917	-1.4833	360.978	384.743	212.643	403.253	144.530	371.668	356.836	168.889	294.788	288.520	318.855	118.290	358.676	378.594	112.113	364.431	0.0010379	0.00073776	0.00047071	589.32	1.1411e-05	1.3726e-05	766.8	252.82	1.2598e-05	1.6553e-05	337.84	160.61	132.06	77.806	1.1046e-05	97.061	0.0045565	0.0048658	0.0013774	749.08	5.3277e-05	5.4181e-05	885.16	288.32	5.3347e-05	5.3499e-05	412.36	182.97	165.32	82.584	5.445e-05	103.43	209.544	191.737	243.189	121.024	231.730	297.978	119.176	126.426	146.828	119.079	122.963	126.260	129.798	132.703	373.268	128.464	-8191	255	
1069.649	1	1	0	0	0.23193	0.2232	0.076547	0.054794	0.10275	0.26444	0.24485	0.15141	0.067812	0.10559	0.1232	0.17386	0.32781	0.15025	0.13534	0.30648	-0.052083	-1.0729	-0.95417	-0.62083	-1.3917	-0.66875	-0.50833	-1.8104	-0.55625	-0.94375	-1.2833	-0.53542	-1.2708	-1.0187	-0.5625	-1.2146	367.620	218.139	394.849	447.215	312.785	183.212	211.319	456.486	192.551	240.666	466.419	453.209	427.409	390.761	170.565	108.093	0.00082626	0.0011959	0.0006037	587.3	3.0785e-06	2.4257e-05	765.58	251.72	9.1073e-06	7.6264e-06	338.39	159.8	130.95	77.754	1.2951e-05	96.05	0.0047184	0.0050062	0.0014202	754.08	5.4332e-05	5.5295e-05	888.87	288.83	5.4664e-05	5.4497e-05	412.99	182.57	165.19	82.547	5.5757e-05	103.13	197.701	129.939	402.776	120.577	373.555	136.309	118.916	126.052	399.066	310.291	122.929	125.862	130.033	132.705	289.997	128.584	-8191	255	
1069.745	1	1	0	0	0.14769	0.25216	0.18036	0.14213	0.3454	0.14692	0.18732	0.14383	0.074403	0.11915	0.33206	0.013366	0.33075	0.081983	0.16717	0.17047	-0.20417	-1.0604	-1.1542	-0.40833	-1.3687	-0.84583	-0.75208	-1.7083	-0.56458	-0.99792	-1.5583	-0.72708	-1.1854	-1.05	-0.87917	-1.525	239.102	430.642	184.634	152.895	426.759	234.573	331.988	225.856	388.335	186.002	455.895	110.029	123.048	161.363	356.724	380.495	0.00073959	0.0010813	0.00063736	590.3	1.0515e-05	1.8315e-05	768.95	251.52	1.0312e-05	2.4368e-05	335.48	159.61	131.84	77.75	1.9579e-05	97.065	0.0048161	0.0051228	0.0014628	764.23	5.6218e-05	5.7532e-05	896.89	290.4	5.641e-05	5.6277e-05	414.36	183.27	165.47	82.638	5.5372e-05	103.23	190.246	183.063	305.265	121.133	253.793	373.531	119.419	126.151	120.843	282.000	122.572	126.096	129.909	132.517	260.297	128.472	-8191	255	
1069.841	1	1	0	0	0.15349	0.21552	0.068851	0.042072	0.23743	0.1875	0.3643	0.19767	0.078116	0.045202	0.35305	0.15601	0.10318	0.40455	0.097351	0.20888	-0.29375	-0.81875	-1.3438	-0.61042	-1.0729	-0.92083	-0.7625	-1.3813	-0.53542	-0.83333	-1.4583	-0.59583	-1.0229	-1.3708	-0.53542	-1.7062	232.423	249.177	213.702	441.483	330.556	410.669	428.417	383.033	251.898	217.321	445.788	348.198	414.249	437.311	421.303	353.345	0.0010403	0.0010248	0.00061361	590.27	1.082e-05	6.1223e-06	764.5	251.86	2.0029e-05	1.1882e-05	337.02	160.42	132.55	78.344	1.1854e-05	97.62	0.0046856	0.0050206	0.0014354	758.09	5.5001e-05	5.7408e-05	895.37	291.16	5.693e-05	5.6881e-05	417.12	184.31	166.59	83.276	5.6476e-05	104.12	199.205	204.896	229.132	121.025	280.266	336.824	119.330	126.240	296.638	137.643	122.450	126.431	130.262	132.589	263.028	128.382	-8191	255	
1069.937	1	1	0	0	0.22999	0.28495	0.18149	0.16436	0.25122	0.29665	0.026603	0.31121	0.11518	0.088701	0.11575	0.13909	0.098571	0.1778	0.1331	0.29596	-0.425	-0.59375	-1.4188	-0.63542	-0.8125	-1.1104	-0.65833	-1.4604	-0.76042	-0.79583	-1.3729	-0.89583	-1.1208	-1.5854	-0.40208	-1.5312	425.232	258.665	421.174	437.286	303.940	197.037	345.289	362.081	343.809	196.074	440.505	181.464	175.644	419.272	185.876	336.540	0.00074392	0.0015361	0.00024281	589.49	1.6979e-05	2.493e-05	764.86	251.65	8.0255e-06	9.9321e-06	342.07	161.13	131.64	78.499	1.8309e-05	97.648	0.0048083	0.0051376	0.0014538	760.22	5.5516e-05	5.7504e-05	896.26	290.39	5.6379e-05	5.6774e-05	417.15	184.7	165.99	83.128	5.6349e-05	104.03	205.690	271.215	132.585	120.800	296.026	297.343	119.298	126.251	275.235	180.501	123.016	125.829	130.009	132.491	219.902	128.652	-8191	255	
1070.058	1	1	0	0	0.25933	0.11309	0.084008	0.1482	0.14513	0.18834	0.1585	0.2166	0.21095	0.097834	0.25404	0.13142	0.089521	0.20616	0.35883	0.33267	-0.48542	-0.41875	-1.2687	-0.77083	-0.8875	-1.3708	-0.47708	-1.3417	-0.8	-0.50417	-1.5479	-0.7875	-0.76042	-1.3333	-0.50833	-1.1125	269.545	287.342	152.130	202.813	134.661	268.525	466.095	123.497	162.488	162.828	441.403	121.217	381.683	396.390	123.982	377.314	0.00078966	0.00088498	0.00056941	590.11	1.9133e-06	2.1862e-05	761.01	251.38	3.3495e-06	1.189e-05	333.93	159.47	131.07	78.038	1.5436e-05	97.196	0.0048322	0.0051901	0.0014406	761.63	5.6272e-05	5.7748e-05	897.39	290.29	5.716e-05	5.7302e-05	414.48	183.87	166.84	83.057	5.7297e-05	103.43	203.978	154.134	210.717	120.797	281.106	216.791	119.222	126.420	142.825	405.819	122.801	126.244	129.744	132.793	247.385	128.459	-8191	255	
1070.154	1	1	0	0	0.35431	0.11775	0.18633	0.066316	0.21766	0.035304	0.15975	0.21644	0.20867	0.06385	0.14417	0.21521	0.10301	0.25532	0.077262	0.38793	-0.66667	-0.32917	-1.5396	-0.925	-0.66667	-1.3583	-0.70833	-1.2667	-0.96875	-0.56875	-1.2979	-0.85208	-0.77917	-1.6021	-0.6625	-1.1292	321.797	139.600	435.236	175.926	173.140	174.991	266.004	135.361	375.445	356.085	391.677	397.959	164.313	417.645	463.643	446.551	0.00085658	0.0015588	0.00044987	589.1	9.2513e-06	1.2432e-05	762.88	251.31	2.316e-06	2.0778e-05	335.27	158.77	131.37	77.938	1.0854e-05	96.75	0.004838	0.0051555	0.001423	757.93	5.485e-05	5.5514e-05	886.67	286.63	5.4468e-05	5.4668e-05	407.33	181.28	163.99	82.35	5.3876e-05	102.49	193.605	142.699	109.521	120.558	284.346	221.503	119.104	126.391	191.493	357.770	122.736	126.406	130.090	132.384	323.449	128.588	-8191	255	
1070.226	1	1	0	0	0.30876	0.042616	0.10707	0.28028	0.17129	0.22246	0.026143	0.51913	0.25065	0.17716	0.12174	0.34444	0.12469	0.39694	0.19291	0.19127	-0.71875	-0.34375	-1.1917	-1.0688	-0.54167	-1.3146	-0.5875	-1.15	-1.0604	-0.5	-1.6333	-1.4625	-0.48125	-1.6083	-0.75625	-0.84167	307.140	120.302	331.584	146.392	199.091	335.610	135.797	128.705	272.642	246.642	117.136	393.797	211.009	454.924	206.147	171.455	0.00069755	0.0014296	0.00030623	587.54	1.5459e-05	4.8522e-06	760.35	249.74	2.5178e-06	1.4269e-05	336.83	159.72	130.86	78.731	9.689e-06	97.303	0.0046133	0.0049577	0.0013655	753.27	5.4178e-05	5.498e-05	885.65	287.36	5.4456e-05	5.4747e-05	407.72	182.12	164.03	82.642	5.3985e-05	103.16	200.106	173.810	262.574	120.640	329.572	370.910	119.275	126.130	218.129	181.983	122.406	126.134	130.024	132.666	357.427	128.667	-8191	255	
1070.322	1	1	0	0	0.062624	0.18789	0.049863	0.011413	0.17646	0.10743	0.40117	0.21393	0.057704	0.27949	0.20841	0.086765	0.3382	0.083234	0.093482	0.12948	-0.93958	-0.47708	-1.2938	-0.9	-0.54583	-1.3875	-0.9125	-0.52292	-1.2125	-0.61875	-1.2583	-1.1646	-0.74167	-1.6792	-0.59167	-0.9375	452.359	143.454	155.754	396.197	116.449	412.620	358.798	291.466	199.270	410.715	236.715	460.948	111.035	385.765	358.621	368.185	0.00069643	0.00099789	0.00055341	589.48	1.3845e-05	4.2322e-06	768.97	251.85	1.2155e-05	1.6648e-05	340.72	160.42	131.82	78.462	1.5999e-05	98.024	0.0046193	0.0049823	0.0013672	755.36	5.4139e-05	5.443e-05	890.54	288.08	5.3895e-05	5.4118e-05	410.88	182.51	165.39	82.686	5.5093e-05	104	186.994	249.729	467.140	120.908	278.070	285.236	119.002	126.410	226.450	284.131	122.767	126.421	129.926	132.724	249.590	128.613	-8191	255	
1070.441	1	1	0	0	0.32141	0.19435	0.31633	0.17675	0.2193	0.16083	0.2151	0.12191	0.36404	0.18227	0.12625	0.019694	0.15652	0.2377	0.14014	0.17716	-0.87083	-0.54375	-1.1625	-1.0542	-0.39167	-1.3937	-1.0583	-0.70833	-1.4833	-0.36042	-1.0125	-1.3625	-0.61875	-1.5562	-0.8875	-0.73958	163.016	455.335	361.710	466.607	313.096	210.205	460.572	120.422	135.046	329.799	147.923	369.666	118.409	398.453	166.726	117.140	0.00093032	0.0020784	0.00024437	584.87	1.6134e-05	7.4417e-06	769.41	252.69	1.3525e-05	3.051e-05	337.56	160.84	131.26	78.346	1.5504e-05	98.003	0.0046981	0.0050338	0.001388	757.4	5.5055e-05	5.4858e-05	893.91	289.14	5.4955e-05	5.5547e-05	412.65	183.98	166.11	82.832	5.6074e-05	104.05	184.895	446.216	155.078	120.547	296.011	253.964	119.303	126.443	276.892	363.940	123.115	126.451	130.254	132.846	239.616	128.755	-8191	255	
1070.537	1	1	0	0	0.077326	0.084286	0.10182	0.12268	0.22889	0.056741	0.34915	0.36209	0.1742	0.12928	0.18482	0.14405	0.091278	0.19142	0.39453	0.3018	-1.0125	-0.67708	-0.96042	-1.2542	-0.29375	-1.0146	-1.0208	-0.83958	-1.4771	-0.53125	-0.78958	-1.45	-0.73542	-1.5875	-1.0438	-0.92083	282.314	374.915	357.178	441.682	319.769	272.876	401.015	384.520	432.828	268.332	440.271	355.802	388.541	142.062	216.913	388.677	0.00097166	0.0015292	0.00016104	588.47	1.9254e-05	1.8136e-05	763.41	250.99	7.7325e-06	1.0856e-05	337.41	160.41	130.77	78.352	1.6798e-06	96.67	0.0047427	0.0051811	0.0014316	763.69	5.6749e-05	5.6454e-05	896.96	290.09	5.5739e-05	5.6652e-05	412.93	183.64	166.12	82.852	5.676e-05	103.42	207.848	179.103	297.448	121.146	130.823	292.179	118.923	125.948	289.252	320.749	123.221	126.232	130.066	132.723	300.287	128.619	-8191	255	
1070.633	1	1	0	0	0.24306	0.10673	0.14138	0.41134	0.072004	0.26761	0.091649	0.27977	0.20249	0.095723	0.25912	0.068483	0.11517	0.32787	0.026626	0.31771	-1.1479	-0.69583	-0.80208	-1.35	-0.44792	-1.0187	-0.98125	-0.66875	-1.4021	-0.89792	-0.98542	-1.5229	-0.41667	-1.1875	-1.3646	-0.7875	415.778	199.456	265.789	407.716	346.975	193.799	406.013	156.256	357.507	467.172	359.855	176.502	436.746	465.844	260.683	441.018	0.00099985	0.0019785	0.00025545	587.42	4.1085e-06	1.1849e-05	766.36	250.75	9.6821e-06	1.5401e-05	337.89	160.17	131.54	78.472	9.8024e-06	97.305	0.0047347	0.0052025	0.0014372	758.89	5.6176e-05	5.578e-05	895.27	289.41	5.4825e-05	5.638e-05	412.01	182.88	165.25	82.654	5.4938e-05	103.32	200.277	211.586	332.611	121.070	318.748	233.657	119.469	126.111	236.046	313.039	123.131	125.965	129.783	132.937	181.691	128.740	-8191	255	
1070.753	1	1	0	0	0.20791	0.19334	0.045532	0.087524	0.15806	0.21735	0.43501	0.18285	0.095779	0.071108	0.14086	0.064059	0.069082	0.42586	0.14007	0.17434	-0.89792	-0.84583	-0.80833	-1.4062	-0.52708	-1.0021	-1.2188	-0.46042	-1.2271	-0.94583	-0.57083	-1.5208	-0.82708	-1.0208	-1.1938	-0.71667	383.736	319.859	467.473	224.444	194.854	395.366	357.179	459.029	164.246	318.005	203.708	263.016	142.925	407.561	188.270	185.122	0.00092112	0.00094108	8.8444e-05	591.4	9.0024e-06	1.1957e-05	761.34	251.81	4.9257e-06	6.0835e-06	336.19	159.49	131.05	78.223	1.2721e-05	98.399	0.004515	0.0049916	0.0013674	749.06	5.3446e-05	5.3346e-05	888.73	287.65	5.2436e-05	5.4872e-05	410.9	182.38	165.1	83.025	5.5408e-05	103.94	202.502	223.539	183.486	121.466	370.734	234.026	119.191	126.696	265.339	151.510	122.870	126.768	130.306	132.754	308.091	128.666	-8191	255	
1070.850	1	1	0	0	0.34476	0.095244	0.094134	0.17252	0.10935	0.14293	0.012749	0.33722	0.12784	0.081999	0.092265	0.14774	0.27361	0.24542	0.071937	0.23851	-0.89167	-0.82708	-0.75833	-1.3375	-0.64375	-1.1708	-1.225	-0.60208	-1.1417	-0.925	-0.70833	-1.3979	-0.74375	-0.87292	-1.5396	-0.725	288.359	145.696	441.702	380.727	295.382	277.698	399.396	376.065	303.663	345.746	405.823	442.767	425.725	457.649	288.522	393.508	0.0010421	0.0021801	0.0003862	591.18	1.4031e-05	1.2544e-05	760.88	252.07	5.7537e-06	7.3586e-06	340.71	162.41	131.57	78.669	1.9159e-05	97.852	0.0046307	0.0051468	0.0014221	757.58	5.5874e-05	5.5774e-05	894.63	290.53	5.4859e-05	5.6644e-05	416.46	183.91	166.31	83.32	5.5486e-05	104.23	201.856	379.320	247.874	120.858	237.655	150.579	119.196	126.404	200.439	401.137	123.334	126.558	130.049	132.773	206.504	128.611	-8191	255	
1070.921	1	1	0	0	0.20365	0.10616	0.17003	0.22921	0.088868	0.22051	0.1329	0.14465	0.15514	0.25881	0.13647	0.24169	0.42138	0.25716	0.20179	0.12672	-0.65417	-1.1792	-0.46875	-1.4562	-1.0417	-0.56042	-1.6104	-0.78958	-0.96875	-1.2875	-0.6875	-1.2062	-0.95208	-0.72292	-1.3104	-0.90833	302.018	303.322	384.087	147.394	259.367	292.558	348.351	311.195	329.968	332.157	306.541	369.439	154.671	414.151	319.709	436.816	0.00082854	0.0021684	0.00072664	587.66	1.0134e-05	1.5248e-05	769.87	252.15	1.192e-05	9.9829e-06	339.51	159.93	130.31	78.315	2.6095e-05	97.319	0.0046674	0.0051522	0.0014253	756.85	5.6283e-05	5.6131e-05	896.16	290.76	5.4771e-05	5.6688e-05	414.42	182.71	165.77	83.001	5.4892e-05	103.28	199.127	417.541	189.644	120.600	358.442	428.766	119.600	126.006	111.926	399.143	123.000	126.338	130.052	132.549	232.265	128.581	-8191	255	
1071.042	1	1	0	0	0.20689	0.074729	0.10946	0.23686	0.031597	0.020895	0.21473	0.18497	0.18791	0.24633	0.20178	0.14053	0.11062	0.19044	0.05052	0.27573	-0.57292	-1.1625	-0.6625	-1.275	-1.0063	-0.69375	-1.3062	-0.99167	-0.80625	-1.2	-0.73542	-1.3146	-1.0271	-0.775	-1.4438	-0.71042	368.616	194.321	113.479	438.724	286.446	434.625	433.331	142.502	411.754	195.080	111.349	116.913	145.071	353.370	412.865	398.569	0.00094683	0.0028964	0.00046062	584.46	1.2878e-05	8.2187e-06	762.06	249.42	1.9563e-05	1.9345e-05	334.3	159.21	131.29	78.34	1.0644e-05	97.234	0.0046168	0.0050283	0.0013862	747.91	5.4736e-05	5.4187e-05	881.2	286.3	5.2641e-05	5.3953e-05	405.88	179.88	163.48	82.454	5.2017e-05	102.67	194.732	167.148	278.133	120.869	256.609	411.203	119.420	126.253	262.660	210.901	122.946	126.407	129.993	132.554	219.784	128.474	-8191	255	
1071.138	1	1	0	0	0.25774	0.21683	0.29837	0.26371	0.10593	0.10538	0.013361	0.21808	0.1808	0.141	0.30144	0.11102	0.15935	0.43279	0.082136	0.098679	-0.51875	-1.1292	-0.36667	-1.3458	-0.95625	-0.68125	-1.4792	-0.91875	-0.8125	-1.1729	-0.54792	-1.2167	-1.1458	-0.80833	-1.2333	-0.88542	157.957	133.654	118.648	380.090	294.144	322.353	312.467	420.905	374.781	207.566	156.190	290.810	207.739	467.152	248.621	367.830	0.00086586	0.0020718	0.00052289	586.16	1.3744e-05	2.277e-05	764.5	251.48	9.9799e-06	9.5292e-06	338.77	159.57	131.78	78.872	1.072e-05	96.993	0.004434	0.0048073	0.001336	742.28	5.2861e-05	5.2261e-05	876.81	286.25	5.1433e-05	5.2695e-05	406.15	179.87	163.4	82.614	5.151e-05	102.9	178.736	191.190	127.708	121.041	217.920	396.080	119.387	126.215	331.515	246.240	122.959	126.481	130.146	132.729	233.404	128.668	-8191	255	
1071.234	1	1	0	0	0.17868	0.093929	0.055678	0.14563	0.10802	0.14981	0.21732	0.28705	0.10044	0.14353	0.18847	0.11314	0.13583	0.20951	0.23251	0.40362	-0.35	-1.4333	-0.4875	-1.05	-1.2833	-0.55208	-1.2708	-1.0187	-0.67917	-1.2396	-0.85	-1.1313	-1.3375	-0.56667	-1.2062	-1.0854	237.144	120.905	185.654	438.555	391.805	260.360	350.798	404.693	139.815	466.685	380.207	435.856	388.082	462.156	459.261	468.269	0.0010512	0.00037194	0.00023027	583.94	2.3104e-06	1.7175e-05	767.24	252.63	7.5952e-06	7.0585e-06	338.18	161.09	131	78.886	1.2379e-05	98.553	0.0044253	0.0047898	0.0013398	741.27	5.2613e-05	5.2746e-05	879.65	287.15	5.1665e-05	5.2616e-05	407.73	181.15	163.38	82.746	5.1043e-05	103.57	204.367	255.000	162.438	121.344	342.762	273.001	119.251	126.386	369.089	280.191	122.666	126.439	130.088	132.919	240.568	128.629	-8191	255	
1071.353	1	1	0	0	0.26394	0.042549	0.13496	0.035205	0.14529	0.059257	0.096443	0.10937	0.039757	0.26373	0.33691	0.17961	0.12911	0.054164	0.25001	0.28485	-0.21875	-1.5104	-0.42292	-0.95833	-1.4354	-0.34375	-1.3667	-1.1542	-0.5125	-1.4188	-0.90833	-1.0604	-1.4625	-0.825	-0.96667	-1.0312	349.175	151.855	356.374	244.933	304.053	344.077	218.482	305.938	223.378	451.606	395.797	263.450	367.041	419.723	253.537	109.926	0.00091787	0.0015028	0.00015357	586.08	1.3151e-05	1.7857e-05	764.32	252.35	1.2623e-05	4.4307e-06	335.77	160.6	131.55	78.975	9.7014e-06	97.544	0.0043621	0.0047096	0.0013185	740.12	5.1948e-05	5.1538e-05	877.14	286.59	5.087e-05	5.0993e-05	406.4	180.74	162.55	82.518	5.0502e-05	103.14	200.958	165.923	357.110	121.203	313.997	189.079	119.409	126.319	312.099	320.676	122.729	126.363	129.979	132.843	342.523	128.345	-8191	255	
1071.449	1	1	0	0	0.23581	0.13863	0.15598	0.044461	0.033636	0.30669	0.40073	0.22514	0.14739	0.17613	0.11484	0.087123	0.066042	0.2846	0.1937	0.4029	-0.16458	-1.3937	-0.74792	-0.64167	-1.4208	-0.40208	-0.92083	-1.2833	-0.42292	-1.1521	-1.0688	-0.9	-1.2437	-0.82708	-0.99583	-1.3896	163.648	317.217	379.245	411.782	410.951	259.150	456.281	359.343	225.834	314.426	264.215	314.717	154.223	440.899	225.369	413.938	0.00082554	0.0026836	0.00022764	586.49	1.7955e-05	1.1717e-06	766.34	252.15	5.7414e-06	2.2906e-05	334.43	160.14	131.8	78.123	1.6613e-05	97.322	0.0043442	0.0046487	0.001327	740.4	5.1479e-05	5.1764e-05	877.57	286.61	5.1532e-05	5.1898e-05	406.91	180.38	163.25	82.338	5.1237e-05	102.63	190.239	192.590	177.179	121.245	298.398	353.113	119.333	126.236	305.597	272.982	123.376	126.098	129.667	132.663	256.924	128.647	-8191	255	
1071.521	1	1	0	0	0.17751	0.24046	0.22301	0.079543	0.3701	0.13606	0.14667	0.3729	0.099001	0.24697	0.20466	0.12988	0.026231	0.14402	0.39142	0.32411	0.039583	-1.325	-0.65208	-0.71667	-1.3021	-0.61667	-1.0958	-1.2938	-0.50833	-1.3083	-0.85833	-0.71875	-1.3667	-0.63333	-0.85833	-1.5646	400.253	288.427	208.715	444.304	418.340	191.640	392.542	315.981	448.177	425.693	432.218	467.487	416.754	125.367	164.449	389.906	0.00098039	0.00036272	0.00092473	587.05	7.7469e-06	1.5269e-05	762.76	249.98	1.5662e-05	1.5774e-05	335.82	160.23	131.11	78.284	1.7894e-05	97.675	0.0043596	0.0046513	0.00133	738.53	5.0894e-05	5.1653e-05	873.6	285.37	5.1025e-05	5.0974e-05	404.4	179.92	161.38	82.131	5.0024e-05	102.53	200.427	224.091	218.788	120.959	211.543	201.307	119.538	126.209	297.417	126.385	122.823	126.414	130.085	132.698	254.168	128.442	-8191	255	
1071.617	1	1	0	0	0.20483	0.35386	0.20939	0.045763	0.24174	0.21	0.30103	0.1745	0.19629	0.10988	0.37216	0.23289	0.3666	0.61319	0.26847	0.33165	-0.18542	-1.1729	-1.1458	-0.55833	-1.2354	-0.71875	-0.98333	-1.4229	-0.47292	-1.2062	-1.1604	-0.61875	-1.2313	-0.85208	-0.6	-1.6021	125.678	150.094	277.395	118.392	387.008	211.644	439.995	325.514	392.335	109.552	394.854	417.318	132.691	450.412	198.384	404.271	0.00084216	0.00043368	0.00035046	585.32	1.5634e-05	1.0442e-05	767.46	251.03	4.959e-06	1.3186e-05	338.78	161.54	132.12	79.03	1.6252e-05	98.502	0.0042472	0.004562	0.0012943	735.17	4.9318e-05	5.0896e-05	871.55	283.9	4.9415e-05	4.9189e-05	404.71	179.75	160.6	82.235	4.9296e-05	103.08	199.974	207.414	162.209	121.272	200.797	234.100	119.566	126.485	359.549	350.658	123.078	126.386	129.887	132.617	366.085	128.614	-8191	255	
1071.738	1	1	0	0	0.10916	0.11005	0.24142	0.11056	0.25406	0.20662	0.071433	0.16514	0.28212	0.16686	0.2185	0.4513	0.14128	0.55916	0.19877	0.2355	-0.18125	-1.05	-1.1042	-0.6625	-1.1646	-0.85	-0.78958	-1.4604	-0.38958	-1.1229	-1.4292	-0.53333	-1.4042	-1.1583	-0.77917	-1.5542	209.719	354.606	363.046	209.136	112.344	234.682	238.561	419.975	419.298	221.359	406.624	393.511	314.039	398.857	287.145	400.107	0.00097729	0.0016605	0.0003263	594.08	3.2626e-06	2.0871e-05	771.53	253.48	1.0787e-05	1.7168e-05	341.63	162.45	131.67	78.909	1.4068e-06	98.891	0.0041752	0.0044703	0.0012743	733.58	4.8264e-05	5.0339e-05	876.19	284.4	4.9218e-05	4.951e-05	406.57	180.62	160.73	82.514	4.8989e-05	103.17	194.100	164.424	187.575	121.320	254.849	286.803	119.170	126.155	263.036	307.939	123.013	126.301	130.308	132.738	221.812	128.632	-8191	255	
1071.834	1	1	0	0	0.24931	0.2773	0.2248	0.39402	0.080307	0.22215	0.066513	0.27012	0.10598	0.27033	0.065769	0.25881	0.11352	0.23222	0.23576	0.55875	-0.20417	-1.0167	-1.1562	-0.69583	-1.225	-0.92292	-0.6625	-1.4896	-0.4875	-0.70208	-1.3854	-0.69167	-0.83958	-1.1854	-0.63542	-1.3979	373.523	373.315	337.060	449.571	301.944	227.186	417.452	427.685	111.507	178.188	416.702	417.660	307.113	353.835	332.766	404.592	0.0008815	0.0012357	0.00050779	593.39	1.5886e-05	1.5809e-05	770.05	253.67	1.5667e-05	1.1968e-05	339.33	160.95	131.31	78.55	1.2454e-05	97.602	0.0041857	0.0044735	0.0012706	735.93	4.9093e-05	5.0986e-05	878.18	284.02	5.0515e-05	5.0769e-05	405.52	180.38	161.73	82.321	5.0307e-05	102.71	197.977	142.440	164.656	120.830	263.379	253.563	119.416	126.482	188.422	404.484	123.160	126.531	130.126	132.521	403.622	128.835	-8191	255	
1071.930	1	1	0	0	0.22339	0.20298	0.063909	0.1978	0.12413	0.064267	0.12958	0.20872	0.10853	0.34011	0.26275	0.11015	0.32438	0.46735	0.1418	0.135	-0.1625	-0.65833	-1.2604	-0.73125	-1.0729	-0.98542	-0.52917	-1.4271	-0.77083	-0.70208	-1.5958	-0.45208	-1.0729	-1.3792	-0.23542	-1.6313	443.933	397.198	355.591	250.540	180.372	446.965	139.168	382.848	162.136	272.305	236.955	349.870	364.667	435.138	390.403	448.396	0.00069269	0.0011149	0.00019453	586.03	1.0045e-05	1.9884e-05	767.01	252.01	5.02e-06	7.0721e-06	335.38	159.78	131.44	78.433	2.476e-05	97.44	0.004314	0.0046069	0.0012906	736.95	5.0068e-05	5.1715e-05	874.42	283.68	5.0732e-05	5.0788e-05	402.42	179.48	161.2	82.2	5.0185e-05	102.43	191.083	294.811	454.838	121.087	273.740	371.443	119.481	126.471	279.345	447.073	123.074	126.244	130.344	132.781	251.074	128.654	-8191	255	
1072.026	1	1	0	0	0.27053	0.16922	0.15883	0.24598	0.074111	0.27137	0.24147	0.14969	0.29253	0.17999	0.073967	0.26133	0.05829	0.23583	0.086831	0.2757	-0.5125	-0.42917	-1.4062	-0.54792	-0.67917	-1.2729	-0.36042	-1.4146	-0.88958	-0.38958	-1.3479	-0.72292	-0.6125	-1.2458	-0.55208	-1.4167	414.974	365.328	286.449	388.076	159.597	394.884	127.493	367.743	116.619	404.895	318.534	431.862	421.757	414.073	135.305	329.777	0.00092762	0.000553	0.00020353	588.15	1.4352e-05	2.3277e-05	764	252.47	7.6802e-06	1.4643e-05	338.52	159.45	131.94	78.178	8.644e-06	97.641	0.0043081	0.0045711	0.0012677	734.26	4.9331e-05	5.0672e-05	870.26	282.82	4.9732e-05	4.9255e-05	400.52	179.33	160.45	81.989	4.8406e-05	102.23	206.558	176.661	284.284	120.640	301.041	201.315	119.553	126.448	203.812	314.605	122.840	126.673	130.463	132.937	322.895	128.497	-8191	255	
1072.122	1	1	0	0	0.15413	0.29854	0.11497	0.099352	0.13567	0.029851	0.268	0.3148	0.3547	0.18556	0.14295	0.28625	0.098333	0.086989	0.09887	0.36777	-0.58333	-0.53958	-1.15	-0.6125	-0.78542	-1.1958	-0.65208	-1.3354	-1.0438	-0.58542	-1.4146	-0.97083	-1.0167	-1.4	-0.54375	-1.3729	406.892	432.408	113.341	325.962	179.295	200.278	328.320	444.904	140.137	277.678	408.709	316.192	199.974	433.593	192.761	385.513	0.0010802	0.00072003	0.00051504	585.62	3.4176e-06	2.0481e-05	767.87	252	3.7453e-07	1.7153e-05	336.36	161.64	132.36	78.983	1.062e-05	98.862	0.0042362	0.0044934	0.0012409	733.42	4.87e-05	4.932e-05	870.66	282.78	4.8968e-05	4.8692e-05	400.44	180.48	160.51	82.248	4.8361e-05	103.13	193.595	241.306	193.889	120.970	349.010	346.525	119.362	126.439	209.265	246.371	122.994	126.500	130.577	132.855	162.171	128.526	-8191	255	
1072.218	1	1	0	0	0.30395	0.10682	0.13	0.058628	0.12504	0.038167	0.14805	0.12645	0.1175	0.11264	0.1913	0.13008	0.038954	0.13375	0.17163	0.25949	-0.69167	-0.42292	-1.4417	-0.89167	-0.88333	-1.1958	-0.76042	-0.9375	-0.86042	-0.51458	-1.2833	-0.94792	-0.72292	-1.3979	-0.82292	-1.275	434.103	413.877	185.448	420.336	227.862	173.778	340.310	109.251	167.579	432.649	419.905	130.339	194.606	408.448	397.511	418.818	0.0007577	0.0014251	0.00026466	587.36	7.0372e-06	1.5418e-05	769.17	252.98	7.0746e-06	6.9015e-06	338.2	161.75	131.24	78.953	9.1903e-07	99.331	0.0041836	0.0044544	0.0012305	734.36	4.873e-05	4.8702e-05	872.42	282.85	4.8703e-05	4.8681e-05	401.2	180.23	160.5	82.161	4.8797e-05	103.11	203.893	254.250	352.969	121.283	427.147	208.498	119.319	126.696	294.379	353.729	122.895	126.364	130.483	132.791	329.825	129.096	-8191	255	
1072.315	1	1	0	0	0.11528	0.10406	0.10459	0.29842	0.084198	0.13862	0.068441	0.056629	0.041717	0.05679	0.074287	0.13444	0.32898	0.19691	0.15457	0.15003	-0.86875	-0.58125	-1.0708	-1.075	-0.55	-1.2583	-0.86667	-1.0375	-1.2479	-0.50417	-1.1979	-1.1562	-0.51875	-1.6792	-0.76042	-0.83958	373.643	303.838	334.622	319.970	404.970	459.335	330.366	175.702	268.171	180.077	180.339	165.161	388.454	110.319	463.753	412.398	0.00095212	0.00051602	0.00036942	589.91	1.4108e-05	1.3854e-05	760.35	250.9	1.2818e-05	1.1556e-05	336.39	158.81	131.91	78.427	1.2443e-05	97.906	0.0041896	0.0044394	0.0012359	734.77	4.8405e-05	4.8599e-05	869.39	282.18	4.8865e-05	4.9056e-05	399.19	178.81	160.15	81.918	4.9502e-05	102.23	195.190	121.963	156.569	120.766	180.567	311.302	119.371	126.571	241.289	264.882	123.131	126.260	130.270	132.703	260.303	128.924	-8191	255	
1072.435	1	1	0	0	0.073287	0.087308	0.12001	0.24711	0.015245	0.060678	0.20012	0.11224	0.14927	0.13696	0.18638	0.16406	0.046957	0.34246	0.27419	0.08976	-1.0021	-0.42292	-1.1792	-1.0938	-0.37083	-1.4083	-0.97917	-0.81667	-1.3604	-0.58125	-1.0688	-1.325	-0.44583	-1.5375	-0.80417	-0.88958	411.374	445.230	339.966	462.159	190.010	395.492	433.173	266.110	298.753	374.213	203.484	408.128	460.066	456.539	114.541	264.612	0.00090819	0.00036107	0.00068551	584.34	1.4016e-05	1.2661e-05	764.99	251.29	1.4421e-05	2.0521e-05	335.47	159.89	130.75	78.393	1.8409e-05	98.132	0.0041981	0.004508	0.0012393	730.48	4.8582e-05	4.8565e-05	868.62	282.21	4.8241e-05	4.9e-05	398.57	178.49	159.68	81.697	4.8965e-05	102.27	209.344	274.808	162.364	120.899	278.346	127.284	119.081	126.431	300.556	261.840	123.266	126.460	130.319	132.883	293.276	128.971	-8191	255	
1072.530	1	1	0	0	0.30667	0.092454	0.14881	0.17988	0.07384	0.27852	0.43216	0.16031	0.093126	0.11686	0.12001	0.15317	0.12327	0.34496	0.11131	0.12616	-1.0938	-0.69583	-0.94167	-1.4604	-0.47917	-1.1042	-1.0625	-0.81042	-1.3771	-0.84583	-0.91042	-1.3479	-0.55833	-1.5438	-0.88333	-0.79583	460.263	279.442	431.006	400.606	385.267	295.742	381.844	442.932	221.519	391.239	173.832	458.297	116.454	404.973	389.069	114.591	0.00080539	0.0014419	0.00025638	585.01	1.0753e-05	1.0641e-05	758.36	251.71	4.284e-06	1.3228e-05	337.67	160.64	131.94	79.064	1.6267e-05	98.85	0.0040879	0.0044438	0.0012282	729.58	4.8185e-05	4.8655e-05	870.08	282.9	4.7646e-05	4.897e-05	399.7	179.01	159.92	82.23	4.8463e-05	102.86	190.221	132.114	443.846	121.175	126.276	178.390	119.513	126.732	273.946	431.280	122.949	126.369	130.516	132.938	261.245	128.894	-8191	255	
1072.626	1	1	0	0	0.069887	0.13303	0.12063	0.19876	0.12217	0.076832	0.29751	0.37955	0.083653	0.12732	0.054488	0.24903	0.42565	0.38458	0.15896	0.056947	-1.1167	-0.63125	-1.0833	-1.3208	-0.40833	-1.2083	-0.92708	-0.725	-1.3854	-0.70417	-0.67708	-1.6125	-0.74792	-1.2229	-0.95833	-0.62083	354.161	299.615	305.237	440.521	123.547	417.459	126.035	381.076	111.815	156.746	150.951	422.058	264.226	454.445	170.334	403.399	0.00087194	0.0017386	0.00031678	589.47	1.3188e-05	1.6058e-05	764.59	252.22	5.7574e-06	7.3422e-06	341.67	162.85	131.88	79.195	1.236e-05	99.258	0.0040332	0.0044114	0.0012203	727.39	4.7728e-05	4.7642e-05	868.71	282.33	4.6553e-05	4.8343e-05	400.59	180.1	160.1	82.311	4.7864e-05	103.31	210.612	196.027	138.697	121.201	307.475	365.801	119.422	126.411	147.167	154.613	122.967	126.374	129.816	133.061	391.435	128.899	-8191	255	
1072.722	1	1	0	0	0.26101	0.10462	0.38776	0.18871	0.065388	0.057568	0.20642	0.15751	0.20704	0.084294	0.14107	0.32506	0.13024	0.12946	0.19429	0.055861	-1.0396	-0.81458	-0.63125	-1.4021	-0.71875	-0.89167	-1.4021	-0.44583	-1.2792	-0.98125	-0.825	-1.5208	-0.76667	-1.1208	-1.375	-0.79792	289.299	137.337	248.165	256.521	154.575	332.122	451.238	464.870	155.619	437.127	396.028	444.714	141.353	369.336	249.640	380.404	0.00068084	0.0021257	0.0003548	587.07	2.0687e-05	2.3324e-05	770.19	253.97	8.3556e-06	1.3305e-05	342.58	161.49	131.41	79.275	1.4119e-05	98.228	0.004013	0.0044431	0.0012195	726.38	4.8274e-05	4.8262e-05	875.56	283.67	4.7731e-05	4.9847e-05	403.05	180.11	161.44	82.43	4.9808e-05	102.78	202.291	245.633	157.935	121.327	318.056	177.487	119.267	126.434	273.431	290.612	122.864	126.463	130.498	132.817	246.559	128.710	-8191	255	
1072.816	1	1	0	0	0.16922	0.19805	0.34265	0.060069	0.25294	0.13054	0.24599	0.089078	0.1233	0.2669	0.25984	0.12241	0.17414	0.14881	0.16854	0.22953	-0.72083	-0.94375	-0.50208	-1.5667	-0.56875	-0.88333	-1.325	-0.49167	-1.0458	-1.0396	-0.66042	-1.4667	-0.72083	-0.96667	-1.1562	-0.7375	423.336	375.187	398.669	186.171	434.799	309.536	261.538	393.222	210.948	412.564	388.951	122.744	245.926	428.617	165.420	143.246	0.00094682	0.0011679	0.00013615	593.54	7.3174e-06	1.7027e-05	764.42	252.25	9.8226e-06	1.506e-05	336.44	160.72	132.75	78.671	2.1361e-05	97.691	0.0041636	0.0046014	0.0012651	733.59	4.9803e-05	4.9554e-05	871.13	283.53	4.876e-05	5.0564e-05	402	179.49	161.75	82.218	4.9859e-05	102.59	204.992	330.792	414.944	121.203	361.705	250.958	119.555	126.462	366.171	150.689	123.467	126.349	130.511	132.706	284.846	128.797	-8191	255	
1072.912	1	1	0	0	0.10399	0.30914	0.077114	0.15958	0.085636	0.047427	0.15664	0.095146	0.078143	0.12227	0.10715	0.28046	0.11628	0.42994	0.15676	0.39389	-0.94167	-1.0917	-0.48125	-1.4333	-0.74167	-0.60625	-1.5229	-0.86042	-1.0229	-0.75	-0.53333	-1.5854	-0.82083	-0.92292	-1.4979	-0.48333	362.889	132.110	435.619	287.828	455.087	211.811	413.553	357.165	249.717	393.901	148.519	456.764	327.106	441.966	217.145	400.341	0.00086279	0.00036373	0.00056502	586.92	1.3594e-05	1.2412e-05	765.47	252.53	6.117e-06	1.8362e-05	339.09	160.43	132.28	78.65	4.6306e-06	98.283	0.0041996	0.0046174	0.0012602	732.82	5.0104e-05	4.9972e-05	871.91	284.36	4.9368e-05	5.1024e-05	404.7	180.08	162.57	82.408	4.9791e-05	103.13	184.612	199.043	252.479	121.456	233.600	217.254	119.169	126.015	243.313	337.818	123.268	126.603	130.075	132.838	182.165	128.916	-8191	255	
1073.033	1	1	0	0	0.22277	0.1689	0.25108	0.32662	0.18193	0.11843	0.20482	0.27271	0.031201	0.13056	0.18138	0.075546	0.45192	0.06496	0.15983	0.28203	-0.93958	-1.1833	-0.51458	-1.4771	-1.0271	-0.75833	-1.3875	-0.64583	-0.83542	-1.3375	-0.59167	-1.4021	-1.075	-0.90625	-1.4229	-0.81458	306.582	390.311	371.924	461.339	259.773	150.784	395.614	452.622	374.709	295.340	298.165	439.445	109.893	384.326	152.301	400.644	0.00089449	0.00085641	0.00080771	590.98	9.9843e-06	2.4261e-05	768.1	252.3	1.4725e-05	1.5512e-05	339.46	161.86	131.24	79.336	7.8914e-06	98.405	0.0042035	0.0045818	0.0012613	733.04	5.0201e-05	4.9981e-05	876.07	285.65	5.001e-05	5.164e-05	407.1	181.18	163.16	82.829	5.0865e-05	104	197.327	280.941	211.943	120.791	293.980	294.976	119.510	126.457	275.682	272.819	123.171	126.332	129.877	132.937	332.028	128.760	-8191	255	
1073.129	1	1	0	0	0.2227	0.18277	0.14336	0.035495	0.2376	0.14051	0.27435	0.25973	0.12597	0.081404	0.11479	0.20236	0.15906	0.07838	0.18116	0.1495	-0.5625	-1.3375	-0.37083	-1.3563	-0.86875	-0.59375	-1.5458	-0.83958	-0.75417	-1.2583	-0.7375	-1.1437	-1.2896	-0.61667	-1.2917	-1.0521	282.565	288.794	240.658	177.833	456.937	365.244	455.605	365.775	415.017	400.058	160.439	400.449	312.109	395.258	443.869	318.659	0.00080798	0.0017088	0.00030922	590.49	4.4057e-06	1.102e-05	772.45	253.19	1.3207e-06	3.5428e-06	341.97	162.28	132.66	79.109	4.894e-06	98.542	0.0043017	0.0047062	0.0013106	740.82	5.2168e-05	5.1659e-05	885.22	287.47	5.1034e-05	5.2137e-05	409.04	182.25	164.13	82.8	5.1015e-05	104.06	189.121	234.628	179.464	121.243	303.274	248.491	119.603	126.430	201.550	280.991	122.922	126.543	129.988	133.070	441.558	128.720	-8191	255	
1073.225	1	1	0	0	0.30728	0.070084	0.27498	0.24415	0.1083	0.1092	0.2077	0.21975	0.032366	0.10862	0.13852	0.22968	0.020845	0.12347	0.10025	0.060082	-0.41042	-1.3188	-0.33542	-1.1521	-1.2687	-0.49583	-1.4208	-0.99792	-0.68333	-1.2188	-0.66875	-1.35	-1.3417	-0.76458	-1.3083	-1.05	407.398	407.095	258.002	407.509	135.787	319.730	441.472	405.609	360.000	419.558	390.275	124.143	264.678	442.384	202.706	123.460	0.00092294	0.00076789	0.00050821	589.54	1.4401e-05	1.1324e-05	769.83	252.59	9.9389e-06	6.2151e-06	339.73	162.04	131.82	78.779	1.2868e-05	97.798	0.0043696	0.0047627	0.0013329	743.6	5.2872e-05	5.2792e-05	886.9	288.27	5.2648e-05	5.3581e-05	412.03	182.53	164.89	82.94	5.3529e-05	103.85	199.327	252.446	136.492	121.224	210.346	394.064	119.549	126.735	297.622	395.502	123.457	126.776	129.834	133.074	202.360	128.503	-8191	255	
1073.322	1	1	0	0	0.26896	0.15412	0.053095	0.276	0.19659	0.25846	0.20197	0.20546	0.053634	0.13093	0.17201	0.30732	0.12229	0.25852	0.16131	0.058881	-0.5125	-1.4062	-0.40625	-0.96458	-1.4542	-0.65	-1.3354	-1.0271	-0.5875	-1.3896	-0.95	-1.1708	-1.6417	-0.80625	-1.3813	-1.1771	332.050	137.515	285.468	436.394	384.102	275.260	338.866	124.916	217.315	464.693	359.887	353.608	377.240	417.499	292.508	117.322	0.00092774	0.0021423	0.00017171	590.57	1.7099e-05	3.547e-05	762.16	251.54	1.0751e-05	1.7578e-05	336.59	160.58	130.46	78.88	2.5452e-05	97.752	0.0045141	0.0048982	0.0013815	749.46	5.3534e-05	5.3229e-05	882.57	287.82	5.176e-05	5.2718e-05	408.8	181.47	163.14	82.72	5.195e-05	103.47	205.030	148.675	264.061	120.753	237.950	390.835	119.324	126.250	281.528	229.039	123.084	126.901	130.304	132.756	278.039	128.852	-8191	255	
1073.418	1	1	0	0	0.27228	0.17338	0.23929	0.16391	0.21917	0.26647	0.22975	0.25437	0.14622	0.14529	0.3272	0.1448	0.080286	0.18907	0.15264	0.24577	-0.03125	-1.4875	-0.73958	-1.1458	-1.3937	-0.42292	-1.1125	-1.4271	-0.77917	-1.1437	-0.7875	-0.875	-1.6083	-0.92083	-1.1917	-1.3229	266.636	324.197	450.706	248.183	337.030	331.811	454.533	359.503	156.140	209.033	435.553	361.905	119.900	433.936	376.209	387.493	0.0007057	0.003895	0.00059288	591.33	9.0677e-06	8.4758e-06	765.56	252.04	7.788e-06	1.4695e-05	338.11	161.22	131.72	78.776	6.966e-06	98.784	0.0043965	0.0047672	0.0013439	742.02	5.1425e-05	5.1934e-05	879.33	285.99	5.078e-05	5.1235e-05	407.6	181.3	162.72	82.839	5.1325e-05	104	195.073	140.892	141.904	121.039	202.649	454.233	119.718	126.621	420.742	212.437	123.092	126.449	130.031	132.911	452.829	128.787	-8191	255	
1073.514	1	1	0	0	0.062869	0.12061	0.18753	0.012009	0.21667	0.17136	0.25963	0.40644	0.12828	0.052125	0.31845	0.13704	0.32129	0.10683	0.13574	0.23245	-0.22917	-1.4125	-0.81875	-0.86042	-1.4229	-0.52917	-1.2896	-1.2625	-0.51458	-1.4292	-1.1104	-0.52917	-1.2146	-0.88542	-1.0896	-1.5375	249.753	359.470	303.187	185.504	395.906	332.368	366.135	380.500	330.026	438.496	115.167	375.073	409.562	456.866	302.945	320.894	0.00093165	0.00058868	0.00054751	594.76	9.4737e-06	1.1783e-05	776.63	252.17	7.7016e-06	7.103e-06	341.77	162.55	132.82	79.396	1.3506e-05	99.002	0.0043713	0.0047309	0.0013373	741.71	5.0519e-05	5.1454e-05	878.75	285.48	4.9309e-05	4.9876e-05	406.27	180.89	161.15	82.671	4.8695e-05	103.78	202.879	281.554	157.760	120.592	323.801	257.620	119.631	126.569	266.195	458.996	122.924	126.416	130.383	132.523	327.564	128.780	-8191	255	
#DATA ENDS
