BOXY.EXE: ISS Imagent and Oximeter Data Acquisition Program Version 0.80
Ascii Record File

#ACQ INFORMATION
2  Detector Channels 
16  External MUX Channels 
1  Auxiliary Channels 
5000  Waveform (CCF) Frequency (Hz)
1  Waveforms Skipped 
30  Waveforms Averaged 
1  Cycles Averaged 
16  Acquisitions per Waveform 
10.0806  Updata Rate (Hz) 

#FILE INFORMATION
TRUE -- External MUX Channel results are PARSED.
FALSE -- AC DC and Phase are NOT grouped.
TRUE -- Companion Program Settings File CREATED.
FALSE -- AC data not excluded
FALSE -- DC data not excluded
FALSE -- Phase data not excluded
FALSE -- Auxillary Chn. data not excluded
Tab delimiters

#CALIBRATION STATE
TRUE -- Waveform Calibration Values APPLIED.


#AUX CALIBRATION VALUES
Val Type	aux-1	

Term	1.0000e+00	
Factor	0.0000e+00	


#WF CALIBRATION VALUES
A = Detector Channel
Val Type	A-AC1	A-AC2	A-AC3	A-AC4	A-AC5	A-AC6	A-AC7	A-AC8	A-AC9	A-AC10	A-AC11	A-AC12	A-AC13	A-AC14	A-AC15	A-AC16	A-DC1	A-DC2	A-DC3	A-DC4	A-DC5	A-DC6	A-DC7	A-DC8	A-DC9	A-DC10	A-DC11	A-DC12	A-DC13	A-DC14	A-DC15	A-DC16	A-Ph1	A-Ph2	A-Ph3	A-Ph4	A-Ph5	A-Ph6	A-Ph7	A-Ph8	A-Ph9	A-Ph10	A-Ph11	A-Ph12	A-Ph13	A-Ph14	A-Ph15	A-Ph16	

Term	0.00000e+00	0.00000e+00	0.00000e+00	0.00000e+00	0.00000e+00	0.00000e+00	0.00000e+00	0.00000e+00	0.00000e+00	0.00000e+00	0.00000e+00	0.00000e+00	0.00000e+00	0.00000e+00	0.00000e+00	0.00000e+00	0.00000e+00	0.00000e+00	0.00000e+00	0.00000e+00	0.00000e+00	0.00000e+00	0.00000e+00	0.00000e+00	0.00000e+00	0.00000e+00	0.00000e+00	0.00000e+00	0.00000e+00	0.00000e+00	0.00000e+00	0.00000e+00	0.00000e+00	0.00000e+00	0.00000e+00	0.00000e+00	0.00000e+00	0.00000e+00	0.00000e+00	0.00000e+00	0.00000e+00	0.00000e+00	0.00000e+00	0.00000e+00	0.00000e+00	0.00000e+00	0.00000e+00	0.00000e+00	
Factor	1.00000e+00	1.00000e+00	1.00000e+00	1.00000e+00	1.00000e+00	1.00000e+00	1.00000e+00	1.00000e+00	1.00000e+00	1.00000e+00	1.00000e+00	1.00000e+00	1.00000e+00	1.00000e+00	1.00000e+00	1.00000e+00	1.00000e+00	1.00000e+00	1.00000e+00	1.00000e+00	1.00000e+00	1.00000e+00	1.00000e+00	1.00000e+00	1.00000e+00	1.00000e+00	1.00000e+00	1.00000e+00	1.00000e+00	1.00000e+00	1.00000e+00	1.00000e+00	X	X	X	X	X	X	X	X	X	X	X	X	X	X	X	X	

B = Detector Channel
Val Type	B-AC1	B-AC2	B-AC3	B-AC4	B-AC5	B-AC6	B-AC7	B-AC8	B-AC9	B-AC10	B-AC11	B-AC12	B-AC13	B-AC14	B-AC15	B-AC16	B-DC1	B-DC2	B-DC3	B-DC4	B-DC5	B-DC6	B-DC7	B-DC8	B-DC9	B-DC10	B-DC11	B-DC12	B-DC13	B-DC14	B-DC15	B-DC16	B-Ph1	B-Ph2	B-Ph3	B-Ph4	B-Ph5	B-Ph6	B-Ph7	B-Ph8	B-Ph9	B-Ph10	B-Ph11	B-Ph12	B-Ph13	B-Ph14	B-Ph15	B-Ph16	

Term	0.00000e+00	0.00000e+00	0.00000e+00	0.00000e+00	0.00000e+00	0.00000e+00	0.00000e+00	0.00000e+00	0.00000e+00	0.00000e+00	0.00000e+00	0.00000e+00	0.00000e+00	0.00000e+00	0.00000e+00	0.00000e+00	0.00000e+00	0.00000e+00	0.00000e+00	0.00000e+00	0.00000e+00	0.00000e+00	0.00000e+00	0.00000e+00	0.00000e+00	0.00000e+00	0.00000e+00	0.00000e+00	0.00000e+00	0.00000e+00	0.00000e+00	0.00000e+00	-1.06138e+02	-1.29047e+02	-1.21568e+02	-1.83476e+02	-5.52129e+01	-7.56509e+01	-1.59880e+02	-1.62015e+02	-5.74747e+01	-6.97283e+01	-1.75117e+02	-1.71928e+02	-1.83346e+02	-1.76281e+02	-5.73029e+01	-1.49823e+02	
Factor	1.52751e-05	1.27225e-04	4.13959e-05	1.84327e-01	1.04722e-06	1.71902e-06	1.70247e-01	4.74238e-02	9.30981e-07	1.49024e-06	9.31797e-02	3.12405e-02	3.94049e-02	8.22718e-03	1.10834e-06	1.22183e-02	1.99470e-06	2.18733e-06	6.09788e-07	9.24792e-02	2.38180e-08	2.40278e-08	8.06688e-02	2.40565e-02	2.37376e-08	2.40181e-08	4.51395e-02	1.53027e-02	1.98509e-02	4.17740e-03	2.39144e-08	5.96623e-03	X	X	X	X	X	X	X	X	X	X	X	X	X	X	X	X	



#DISTANCE SETTINGS
A = Detector Channel
A-1	A-2	A-3	A-4	A-5	A-6	A-7	A-8	A-9	A-10	A-11	A-12	A-13	A-14	A-15	A-16	

2.5000e+00	3.0000e+00	2.5000e+00	3.0000e+00	2.0000e+00	3.0000e+00	1.5000e+00	3.0000e+00	3.0000e+00	3.0000e+00	3.0000e+00	3.0000e+00	3.0000e+00	3.0000e+00	1.5000e+00	3.0000e+00	

B = Detector Channel
B-1	B-2	B-3	B-4	B-5	B-6	B-7	B-8	B-9	B-10	B-11	B-12	B-13	B-14	B-15	B-16	

1.0000e+01	1.0000e+01	1.0000e+01	1.4400e+00	1.0000e+01	1.0000e+01	1.5100e+00	1.9400e+00	1.0000e+01	1.0000e+01	1.9900e+00	2.4900e+00	2.4100e+00	2.9000e+00	1.0000e+01	2.9800e+00	




#DATA BEGINS
time	group	step	mark	flag	A-AC1	A-AC2	A-AC3	A-AC4	A-AC5	A-AC6	A-AC7	A-AC8	A-AC9	A-AC10	A-AC11	A-AC12	A-AC13	A-AC14	A-AC15	A-AC16	A-DC1	A-DC2	A-DC3	A-DC4	A-DC5	A-DC6	A-DC7	A-DC8	A-DC9	A-DC10	A-DC11	A-DC12	A-DC13	A-DC14	A-DC15	A-DC16	A-Ph1	A-Ph2	A-Ph3	A-Ph4	A-Ph5	A-Ph6	A-Ph7	A-Ph8	A-Ph9	A-Ph10	A-Ph11	A-Ph12	A-Ph13	A-Ph14	A-Ph15	A-Ph16	B-AC1	B-AC2	B-AC3	B-AC4	B-AC5	B-AC6	B-AC7	B-AC8	B-AC9	B-AC10	B-AC11	B-AC12	B-AC13	B-AC14	B-AC15	B-AC16	B-DC1	B-DC2	B-DC3	B-DC4	B-DC5	B-DC6	B-DC7	B-DC8	B-DC9	B-DC10	B-DC11	B-DC12	B-DC13	B-DC14	B-DC15	B-DC16	B-Ph1	B-Ph2	B-Ph3	B-Ph4	B-Ph5	B-Ph6	B-Ph7	B-Ph8	B-Ph9	B-Ph10	B-Ph11	B-Ph12	B-Ph13	B-Ph14	B-Ph15	B-Ph16	aux-1	digaux	

1047.321	1	1	0	512	0.082324	0.17182	0.29453	0.35517	0.27059	0.040081	0.22178	0.22355	0.10069	0.25202	0.29377	0.28856	0.053002	0.3528	0.15282	0.21832	-0.05625	-1.0021	-0.90833	-0.72917	-1.3479	-0.72292	-0.79375	-1.4979	-0.51458	-1.1	-1.2833	-0.68333	-1.5542	-1.0771	-0.54792	-1.5625	377.724	457.270	240.797	374.815	415.673	468.697	357.641	146.597	463.815	356.581	365.624	397.518	153.628	458.197	144.909	386.290	0.00097135	0.00076129	0.00045747	566.53	1.5179e-05	1.1748e-05	742.57	241.84	3.2918e-06	1.6826e-05	335.09	156.88	124.93	77.056	1.5133e-05	96.094	0.0030136	0.0031825	0.00090766	654.68	3.3923e-05	3.4697e-05	797.19	258.46	3.3224e-05	3.3264e-05	368.73	165.02	141.15	77.618	3.1873e-05	96.261	204.320	359.998	176.147	122.173	319.275	288.031	120.443	127.600	273.427	227.854	123.575	127.771	131.771	133.856	288.921	129.820	-8191	255	
1047.417	1	1	0	0	0.17598	0.11547	0.1764	0.16409	0.12532	0.25442	0.3531	0.092887	0.13037	0.14106	0.11182	0.30162	0.14506	0.44874	0.24107	0.36238	-0.24792	-1.0042	-1.1354	-0.63958	-1.2958	-0.78958	-0.64583	-1.4417	-0.47083	-1.0896	-1.5833	-0.62083	-1.5917	-1.2938	-0.65	-1.5438	231.244	294.560	131.440	124.169	121.086	386.080	330.926	417.875	202.421	387.428	190.100	379.413	263.861	444.502	294.694	421.127	0.00087062	0.00077505	0.00061061	568.35	3.495e-06	2.4155e-05	746.66	243.87	6.1689e-06	1.2802e-05	335.8	158.32	126.38	77.609	1.632e-05	97.055	0.0027205	0.0028663	0.00080254	642.33	3.0735e-05	3.1697e-05	789.71	256.52	3.0922e-05	3.0779e-05	364.53	164.85	139.63	77.684	2.9668e-05	96.603	197.373	429.269	189.075	122.146	211.578	281.350	120.579	127.510	310.105	339.527	124.196	127.782	131.211	133.549	274.988	129.565	-8191	255	
1047.513	1	1	0	0	0.072248	0.089391	0.13076	0.0899	0.033879	0.048309	0.208	0.31621	0.25066	0.28536	0.28835	0.10939	0.091127	0.19169	0.30216	0.37252	-0.40625	-0.64792	-1.3542	-0.66875	-0.90417	-1.0167	-0.775	-1.4688	-0.58333	-0.85417	-1.5292	-0.55417	-1.2812	-1.3687	-0.55833	-1.5958	386.861	265.653	116.753	394.831	199.823	118.689	222.739	313.757	209.578	430.759	113.415	392.477	132.042	179.873	182.124	431.082	0.00089204	0.00090806	0.00041646	572.46	8.7612e-06	5.1862e-06	747.03	246.79	8.2715e-06	1.4636e-05	339.13	159.3	127.47	78.168	7.9716e-06	98.198	0.0025349	0.0026665	0.00074672	634.63	2.8437e-05	2.9294e-05	782.39	256.21	2.8818e-05	2.8556e-05	362.39	164.71	138.84	77.863	2.814e-05	97.03	199.408	196.845	125.318	122.495	447.313	275.953	120.801	127.715	189.407	292.411	124.022	127.689	131.349	134.034	132.776	129.784	-8191	255	
1047.609	1	1	0	0	0.13824	0.28043	0.28078	0.13192	0.097265	0.35152	0.35998	0.30487	0.026191	0.12855	0.11968	0.093546	0.2919	0.48824	0.33022	0.55333	-0.52083	-0.58958	-1.1625	-0.79792	-1.0938	-1.2062	-0.57292	-1.3792	-0.875	-0.70833	-1.7042	-0.55625	-1.075	-1.5917	-0.64792	-1.3583	350.501	300.289	195.191	188.945	234.583	150.247	375.558	418.804	204.352	116.341	280.949	396.598	129.272	427.910	202.069	414.250	0.00084474	0.0010074	0.00011196	570.84	1.6232e-06	2.8178e-05	746.31	244.21	8.2188e-06	1.0119e-05	337.13	158.63	126.46	77.498	4.3782e-06	96.882	0.0024475	0.0025754	0.00072484	632.23	2.8267e-05	2.9103e-05	780.12	255.26	2.9009e-05	2.891e-05	362.08	164.29	138.66	77.459	2.8983e-05	95.937	197.730	163.148	144.888	122.444	121.900	464.854	120.519	127.720	226.491	457.648	124.084	127.850	131.277	133.952	211.731	129.790	-8191	255	
1047.705	1	1	0	0	0.045374	0.2786	0.42591	0.16565	0.26311	0.13951	0.083933	0.34105	0.041795	0.053055	0.10846	0.16538	0.41234	0.17075	0.1758	0.46255	-0.5625	-0.68958	-1.375	-0.56042	-1.0562	-1.2938	-0.64792	-1.45	-1.1375	-0.69583	-1.55	-0.92083	-0.975	-1.5396	-0.60625	-1.1938	466.936	156.330	321.406	416.335	226.913	408.861	439.767	361.876	332.522	237.865	110.577	449.469	431.939	433.427	376.022	400.983	0.00081485	0.0012111	0.00034319	564.01	3.9566e-06	6.7075e-07	739.51	243.61	3.4538e-06	1.1403e-05	333.73	157.72	127.14	77.633	8.251e-06	96.588	0.0025585	0.002672	0.00073403	633.13	2.8561e-05	2.916e-05	774.39	253.99	2.8144e-05	2.8038e-05	358.32	162.86	138.22	77.302	2.765e-05	95.45	198.652	342.129	126.439	122.368	249.425	387.478	120.178	127.715	266.674	242.084	123.756	127.361	131.210	133.803	333.816	129.235	-8191	255	
1047.824	1	1	0	0	0.1756	0.17593	0.24874	0.13999	0.1166	0.26035	0.12789	0.2048	0.26776	0.19802	0.098467	0.20488	0.24235	0.22513	0.2324	0.20277	-0.65208	-0.65	-1.5458	-0.53542	-0.58125	-1.2521	-0.72292	-1.3271	-1.0812	-0.5125	-1.5083	-0.84792	-0.70417	-1.7708	-0.54375	-1.2812	241.895	115.089	122.040	208.833	188.293	209.754	448.983	399.511	392.439	349.534	382.707	120.077	113.597	438.345	194.982	118.473	0.00088196	0.00055102	0.00025952	565.91	6.9089e-06	1.9589e-05	743.64	243.91	1.8324e-06	9.1438e-06	337.14	157.96	127.36	77.945	1.2642e-05	97.486	0.0024032	0.0025136	0.00069641	626.44	2.7451e-05	2.7608e-05	774.53	253.74	2.7532e-05	2.7264e-05	357.83	163.09	137.96	77.418	2.7651e-05	96.311	197.033	407.722	211.501	122.031	348.180	271.856	120.562	127.660	263.969	198.864	124.152	127.594	131.475	133.973	241.432	129.932	-8191	255	
1047.920	1	1	0	0	0.086671	0.14549	0.33955	0.15144	0.13789	0.1585	0.12309	0.13888	0.24463	0.23643	0.22864	0.33454	0.12166	0.39302	0.057002	0.40747	-0.89792	-0.72708	-1.325	-0.81458	-0.78125	-1.6417	-0.725	-0.98542	-1.3208	-0.71042	-1.2792	-1.0729	-0.6	-1.6875	-0.80625	-1.1354	371.828	342.141	226.793	269.538	457.270	225.139	177.146	402.037	221.078	334.975	372.275	461.322	142.094	423.865	225.951	404.142	0.0008232	0.00097034	0.00037675	567.25	6.619e-06	5.3341e-06	740.69	246.11	3.237e-06	1.3458e-05	339.48	159.93	127.41	78.131	3.2303e-06	98.677	0.0024305	0.0025424	0.00070404	630.7	2.759e-05	2.7785e-05	775.41	254.72	2.7759e-05	2.7304e-05	360.35	164.33	138.38	77.676	2.746e-05	97.123	207.370	151.027	209.363	122.869	233.843	301.077	120.247	127.634	136.113	198.175	124.158	127.379	131.421	134.035	418.968	129.874	-8191	255	
1047.994	1	1	0	0	0.23119	0.0080005	0.17385	0.2683	0.0079976	0.43332	0.19449	0.30563	0.26313	0.10541	0.09657	0.23325	0.2065	0.23891	0.20521	0.098306	-1.0021	-0.51875	-1.0667	-1.2208	-0.39792	-1.3375	-0.775	-0.95625	-1.5667	-0.79167	-1.2833	-1.2563	-0.67917	-1.5521	-0.76042	-1.0771	320.798	382.900	419.631	354.757	393.350	224.544	135.164	403.928	326.346	429.018	393.668	178.763	421.987	159.277	467.764	448.682	0.00083851	0.00041151	0.00023545	568.93	9.6522e-06	2.4867e-05	741.36	244.73	1.4739e-05	2.2644e-06	341.8	159.87	128.09	78.13	3.415e-06	97.78	0.0023699	0.0024955	0.00069484	629.87	2.7216e-05	2.7283e-05	778.57	254.56	2.7351e-05	2.777e-05	361.76	164.69	138.88	77.74	2.8168e-05	96.769	200.744	414.849	424.328	122.521	244.834	236.288	120.912	127.873	186.377	234.171	124.338	127.918	131.722	134.492	282.581	129.847	-8191	255	
1048.113	1	1	0	0	0.060918	0.050123	0.24567	0.15091	0.18565	0.16809	0.26074	0.15355	0.18252	0.24581	0.22553	0.10712	0.059519	0.28493	0.16087	0.32166	-1.0438	-0.3125	-1.1688	-1.1854	-0.36875	-1.3729	-1.0125	-0.71875	-1.3458	-0.78542	-1.1313	-1.3104	-0.52917	-1.5167	-0.78333	-0.71042	299.751	315.922	314.118	442.629	440.780	463.958	425.000	124.172	350.560	270.848	165.578	117.885	127.808	392.924	158.791	439.784	0.00085273	0.00039748	0.0004091	569.02	3.1243e-06	2.4247e-05	739.65	244.62	8.1906e-06	1.2251e-05	336.44	159.15	127.83	77.643	3.1558e-06	96.865	0.0024093	0.002557	0.00070683	629.03	2.7728e-05	2.7764e-05	775.76	254.05	2.7457e-05	2.8159e-05	359.1	163.53	138.18	77.377	2.8117e-05	95.926	193.795	409.931	315.098	122.211	366.168	301.193	120.640	127.628	275.228	311.165	123.970	127.561	131.379	134.052	353.816	129.779	-8191	255	
1048.209	1	1	0	0	0.059772	0.22403	0.20221	0.19985	0.51109	0.25298	0.12147	0.30086	0.15228	0.16678	0.2307	0.39988	0.04361	0.23705	0.24987	0.079356	-1.0063	-0.51667	-0.84792	-1.4458	-0.54167	-1.2667	-0.95625	-0.58125	-1.3354	-0.78333	-1.0542	-1.3375	-0.79167	-1.3438	-0.91042	-0.77917	199.231	386.138	359.332	153.662	405.883	358.230	199.100	395.578	289.148	217.262	388.335	451.072	382.947	444.681	297.843	424.187	0.00087355	0.0002795	0.00054145	560.54	7.4397e-06	1.9333e-05	736.88	244.13	1.3969e-06	7.9566e-06	338.46	158.22	127.29	78.292	1.6193e-05	97.043	0.0023575	0.0025415	0.00069363	624.08	2.6857e-05	2.7252e-05	770.35	252.57	2.6843e-05	2.7589e-05	357.71	162.49	137.59	77.591	2.7205e-05	95.813	194.007	163.832	190.745	122.703	269.867	225.038	120.732	127.893	309.322	303.951	123.870	127.388	130.863	133.620	271.010	129.130	-8191	255	
1048.305	1	1	0	0	0.36349	0.25281	0.18171	0.087783	0.070703	0.14521	0.30823	0.38834	0.28911	0.12124	0.18136	0.21409	0.18707	0.077535	0.028972	0.17458	-1.0938	-0.76042	-0.56458	-1.1354	-0.48958	-1.2208	-1.1333	-0.51667	-1.2146	-0.79583	-0.93333	-1.4	-0.43125	-1.1521	-1.1375	-0.68958	420.994	444.141	177.762	316.127	389.445	364.053	287.299	434.467	273.068	274.005	457.711	360.718	143.247	114.988	214.079	374.187	0.00082054	0.00087083	0.00040838	564.2	5.8736e-06	7.2799e-06	736.57	244.01	4.9255e-06	8.1247e-06	337.34	158.93	127.03	78.826	1.2483e-05	97.63	0.002268	0.0024623	0.00067864	619.39	2.6502e-05	2.6375e-05	768.23	251.48	2.575e-05	2.6812e-05	356.83	162.58	137.53	77.89	2.6448e-05	96.578	196.414	162.841	445.568	122.233	275.010	328.731	120.042	127.058	219.201	283.245	123.708	127.045	130.949	133.567	257.923	129.203	-8191	255	
1048.401	1	1	0	0	0.044313	0.078293	0.16611	0.10476	0.2585	0.047402	0.13629	0.049327	0.061266	0.12878	0.17004	0.081514	0.14199	0.48706	0.28622	0.29919	-0.79375	-0.85208	-0.67083	-1.5125	-0.46875	-1.0333	-1.3229	-0.69375	-1.1771	-0.85208	-0.46667	-1.5979	-0.66667	-1.2083	-1.3646	-0.66667	200.487	172.648	270.644	297.381	231.908	412.019	237.345	210.026	452.039	222.659	290.065	328.642	408.810	112.345	452.777	410.804	0.00090364	0.00038077	0.00040454	565.28	3.891e-06	1.7015e-05	740.49	242.34	4.1848e-06	1.9663e-05	338.83	160.07	127.78	78.973	3.2955e-06	98.645	0.0022406	0.0024456	0.00066262	616.79	2.6026e-05	2.6054e-05	768.07	251.76	2.5554e-05	2.6628e-05	358.25	163.96	137.78	78.149	2.6451e-05	97.285	201.802	245.545	179.592	121.977	117.665	237.063	120.278	127.119	242.781	267.766	123.679	127.213	130.691	133.475	249.781	129.322	-8191	255	
1048.522	1	1	0	0	0.092963	0.17625	0.13103	0.25395	0.24858	0.065209	0.057728	0.38643	0.093985	0.14956	0.024143	0.24283	0.23763	0.20744	0.28523	0.22436	-1.0417	-0.96458	-0.39583	-1.4208	-1.0292	-1.0042	-1.2792	-0.60417	-1.1875	-0.93125	-0.69167	-1.1625	-0.84583	-1.0354	-1.3646	-0.75417	448.776	360.412	281.804	241.839	144.497	204.156	240.117	409.036	414.238	175.028	223.873	133.006	427.903	116.470	212.535	385.563	0.0008598	0.00086828	0.00016667	565.07	8.5056e-06	1.3452e-05	737.71	243.81	3.7116e-06	9.0543e-06	337.97	158.98	126.76	78.66	1.0165e-05	97.454	0.0022652	0.0024829	0.00067966	621.51	2.7201e-05	2.6898e-05	770.66	252.77	2.7017e-05	2.8098e-05	358.45	163.47	138.72	77.987	2.7598e-05	96.486	191.561	122.758	161.485	122.352	264.403	234.092	120.247	127.254	158.310	212.271	123.813	127.213	130.912	133.709	336.852	129.408	-8191	255	
1048.618	1	1	0	0	0.19471	0.16047	0.12765	0.012975	0.14478	0.086887	0.10457	0.12018	0.08625	0.032984	0.13022	0.040333	0.24408	0.34071	0.19574	0.082314	-0.75833	-1.0646	-0.40625	-1.5042	-0.79375	-0.57708	-1.4708	-0.94792	-0.83333	-0.9875	-0.40833	-1.4708	-0.775	-0.98542	-1.5146	-0.78125	133.153	317.156	187.211	243.746	410.614	232.798	415.684	252.185	150.445	265.236	424.659	357.728	140.555	391.968	263.805	443.251	0.00094631	0.00058045	0.000126	567.15	3.6532e-06	2.8853e-06	735.32	242.19	3.5791e-06	7.0291e-06	334.6	157.04	125.95	77.802	6.6479e-06	96.074	0.0023779	0.0025674	0.00070334	625.86	2.8148e-05	2.8011e-05	768.81	252.83	2.7563e-05	2.8727e-05	357.66	162.4	139.14	77.414	2.8808e-05	95.686	198.725	288.889	175.612	121.915	413.221	391.482	120.200	127.144	260.574	336.836	123.511	127.030	130.961	133.656	314.515	129.230	-8191	255	
1048.714	1	1	0	0	0.27697	0.16659	0.22002	0.044987	0.026333	0.22499	0.063721	0.17217	0.15631	0.10161	0.086311	0.063354	0.34006	0.14746	0.22686	0.3708	-0.72708	-1.1417	-0.375	-1.4146	-0.83333	-0.62708	-1.4396	-0.76667	-0.83542	-0.83542	-0.76667	-1.2854	-0.89167	-0.78125	-1.2417	-0.67917	365.770	169.108	164.039	407.428	208.578	200.788	413.980	163.961	336.624	190.471	315.374	395.674	443.030	451.441	242.078	117.321	0.00072357	0.00068997	0.00013441	566.19	1.1125e-05	1.6178e-05	733.59	242.42	9.7503e-06	1.1625e-05	331.51	157.19	125.88	77.337	3.6408e-06	96.285	0.0025037	0.0027027	0.0007427	632.08	2.947e-05	2.9337e-05	775.24	254.06	2.9263e-05	3.0207e-05	359.31	163.48	140.3	77.487	3.0779e-05	96.161	203.571	145.727	209.683	122.117	233.567	390.726	120.071	127.243	279.685	192.865	123.677	127.300	130.707	133.557	380.786	129.169	-8191	255	
1048.809	1	1	0	0	0.21306	0.20665	0.21258	0.12688	0.16699	0.074068	0.10867	0.10305	0.086665	0.11642	0.27506	0.14816	0.18774	0.48563	0.11738	0.095399	-0.5	-1.1146	-0.62083	-1.5938	-1.0063	-0.425	-1.4958	-0.78958	-0.81875	-1.5229	-0.45833	-1.2146	-1.2792	-0.55208	-1.1938	-1.1042	468.303	114.040	436.135	351.813	432.354	203.871	252.805	452.988	367.390	277.733	393.311	154.011	246.722	434.584	437.811	404.969	0.00070822	0.0007439	0.00045612	569.04	8.0804e-06	2.2592e-05	740.21	242.78	3.636e-07	8.27e-06	338.56	158.44	126.71	77.36	6.5228e-06	96.67	0.0026521	0.0028579	0.0007939	639.55	3.1232e-05	3.0703e-05	785.71	255.85	3.0302e-05	3.0894e-05	364.18	164.39	140.37	77.469	3.0533e-05	96.623	194.666	139.131	211.142	121.706	160.262	232.208	120.234	127.201	258.671	147.214	123.689	127.586	130.650	133.535	235.091	129.320	-8191	255	
1048.905	1	1	0	0	0.24676	0.022946	0.018695	0.24964	0.22125	0.36071	0.070735	0.12037	0.0059754	0.25432	0.18585	0.19562	0.14916	0.1869	0.087464	0.27645	-0.26458	-1.1458	-0.44375	-1.1187	-1.3854	-0.46667	-1.4396	-1.1083	-0.56875	-1.4625	-0.76458	-0.98958	-1.1958	-0.62083	-1.1375	-1.05	350.554	209.935	434.878	163.116	130.419	416.363	386.448	137.392	387.937	429.708	416.923	112.320	429.897	350.343	414.795	409.827	0.00088224	0.00075446	0.00027179	569.12	6.2648e-06	9.1332e-06	744.94	242.54	6.6364e-06	1.7835e-06	336.02	159.15	126.67	76.967	6.1167e-06	96.486	0.002642	0.0028149	0.00080205	643.41	3.1595e-05	3.1384e-05	790.53	256.45	3.1091e-05	3.1267e-05	367.03	165.64	140.16	77.25	3.1098e-05	96.692	203.035	269.513	277.029	122.329	298.264	178.999	120.147	127.293	291.299	469.223	123.819	127.172	131.092	133.571	358.684	129.269	-8191	255	
1049.001	1	1	0	0	0.19501	0.18186	0.097256	0.23452	0.10025	0.23848	0.12689	0.20212	0.16571	0.14961	0.1871	0.093751	0.35593	0.23724	0.12286	0.15143	-0.18542	-1.3854	-0.775	-0.88542	-1.3438	-0.18958	-1.4292	-1.0271	-0.36667	-1.5104	-0.78958	-1.1833	-1.4104	-0.75	-1.1125	-1.4521	259.242	144.669	228.516	468.930	359.514	210.737	239.980	423.093	341.054	455.581	126.771	385.489	399.654	366.784	356.061	403.601	0.0010172	0.00099309	0.0002578	567.31	1.242e-05	8.7738e-06	743.85	243.75	8.7601e-06	1.1272e-06	334.41	157.25	124.5	76.071	5.8899e-07	95.507	0.0026841	0.0028673	0.00082169	644.87	3.1789e-05	3.2036e-05	791.52	257.5	3.1705e-05	3.255e-05	367.43	164.65	140.45	76.645	3.2287e-05	95.782	194.380	165.191	195.032	121.877	192.534	292.735	120.270	127.041	136.861	237.063	123.654	127.241	131.517	133.554	300.052	129.621	-8191	255	
1049.121	1	1	0	0	0.1341	0.16889	0.1935	0.052598	0.079992	0.23763	0.26974	0.10949	0.078434	0.12488	0.12225	0.038479	0.2312	0.29694	0.070399	0.13429	0.047917	-1.1917	-0.57708	-0.80625	-1.2437	-0.59167	-1.1875	-1.2521	-0.28958	-1.2646	-0.93333	-0.64167	-1.3292	-1.0125	-0.83958	-1.3958	412.495	264.771	454.306	393.016	176.061	138.378	326.376	140.413	446.437	428.979	121.779	300.914	446.015	110.332	395.573	418.026	0.0008882	0.0001714	5.6933e-05	566.94	5.8961e-06	2.0746e-05	743.15	241.35	9.8918e-06	3.5676e-06	333.38	156.88	125.02	75.293	1.4629e-05	93.865	0.0027821	0.0029627	0.00084483	646.47	3.2484e-05	3.2993e-05	789.48	255.99	3.169e-05	3.2122e-05	365.23	163.71	139.36	75.858	3.1182e-05	94.509	207.232	273.181	148.174	122.269	292.362	191.113	119.933	127.271	297.153	210.850	123.660	127.339	130.554	133.735	200.457	129.510	-8191	255	
1049.218	1	1	0	0	0.099552	0.048311	0.045063	0.14481	0.21374	0.15029	0.38487	0.10848	0.11925	0.11767	0.12588	0.41124	0.26757	0.26304	0.31817	0.26029	0.029167	-1.3479	-0.95625	-0.87083	-1.0938	-0.46458	-1.2479	-1.3875	-0.32292	-1.2792	-1.2333	-0.91875	-1.3833	-0.88333	-0.95417	-1.6542	436.959	323.479	180.343	382.199	374.835	181.787	416.604	398.546	436.119	148.356	174.485	394.307	409.586	441.267	376.785	402.403	0.00089306	0.001313	0.00045008	564.21	1.3195e-05	1.1782e-05	735.54	239.52	1.1489e-05	1.8589e-05	332.69	158.3	125.95	75.868	4.3715e-06	95.756	0.0026388	0.0028061	0.00080277	634.59	3.0169e-05	3.0727e-05	775.28	252.74	2.9082e-05	2.9096e-05	359.06	163.23	137.06	75.58	2.7538e-05	94.812	204.658	252.514	213.089	122.625	181.841	251.865	120.003	127.288	266.146	212.904	123.644	127.562	131.112	133.949	279.619	129.595	-8191	255	
1049.289	1	1	0	0	0.17152	0.14935	0.24678	0.16113	0.066663	0.34253	0.079579	0.11444	0.12036	0.060811	0.19759	0.091592	0.31471	0.62698	0.097038	0.4534	0.027083	-1.0917	-0.85625	-0.6125	-1.3167	-0.62292	-0.92292	-1.3333	-0.33958	-1.0833	-1.15	-0.72917	-1.2229	-1.0021	-0.64792	-1.5042	253.809	236.009	413.055	359.217	234.094	377.155	350.609	437.331	249.170	310.117	165.069	280.920	399.068	412.900	195.551	397.616	0.00089809	0.0012833	0.00013375	562.98	2.3889e-06	1.6037e-05	735.58	240.15	9.0303e-06	1.2281e-06	336.44	158.73	125.61	76.172	1.4228e-05	96.313	0.0024016	0.0025318	0.00071461	619.28	2.7367e-05	2.818e-05	768.35	250.8	2.7848e-05	2.8062e-05	359.83	163.82	137.43	75.865	2.8087e-05	95.492	199.433	160.154	443.651	122.138	188.321	378.217	120.399	127.502	291.982	139.055	123.937	127.440	131.181	133.763	230.207	129.628	-8191	255	
1049.385	1	1	0	0	0.26703	0.26435	0.06766	0.14421	0.10458	0.10345	0.2083	0.19963	0.22517	0.31653	0.34745	0.31253	0.18806	0.017567	0.19574	0.19868	-0.13958	-0.92292	-0.91667	-0.35	-1.3375	-0.90625	-0.89792	-1.1708	-0.60833	-0.91042	-1.25	-0.55	-1.2729	-1.0229	-0.3625	-1.5729	185.683	216.044	341.599	424.100	162.106	408.756	403.237	397.427	192.381	285.602	439.411	439.849	273.216	333.759	314.591	465.797	0.0009511	0.0008101	0.0005835	550.08	9.8282e-06	1.6411e-05	729.98	240.19	3.1892e-06	6.8372e-07	331.15	160.33	125.87	76.503	1.4711e-05	96.202	0.0024465	0.0025452	0.00070969	613.9	2.6447e-05	2.6939e-05	756.75	248.22	2.596e-05	2.6104e-05	353.7	163.54	136.68	76.173	2.6305e-05	95.318	201.179	159.148	194.431	122.724	306.358	225.253	120.426	127.661	302.304	111.315	123.301	127.791	131.395	133.808	288.731	129.030	-8191	255	
1049.506	1	1	0	0	0.051813	0.15645	0.24259	0.073212	0.13378	0.055802	0.055553	0.37725	0.06743	0.076421	0.33675	0.16392	0.26122	0.14214	0.141	0.081732	-0.125	-0.8125	-1.3583	-0.50208	-1.2208	-0.9625	-0.50208	-1.4146	-0.77917	-0.71042	-1.4146	-0.59792	-1.2708	-1.2646	-0.46875	-1.5271	451.974	275.457	459.115	222.921	371.064	171.320	224.324	410.088	379.147	281.636	418.307	153.570	170.144	117.111	342.520	445.737	0.00093466	0.00093711	0.00034641	550.17	1.223e-05	2.2511e-05	722.36	239.76	1.3903e-05	4.9537e-06	330.92	158.75	125.74	76.636	2.5894e-06	96.364	0.0023237	0.0024155	0.00068171	607.81	2.5969e-05	2.6713e-05	749.16	247.78	2.5949e-05	2.596e-05	350.64	161.81	135.53	76.058	2.5569e-05	94.938	201.370	216.328	231.467	121.640	283.016	296.543	119.817	127.038	255.629	110.564	123.255	127.352	131.058	133.498	217.709	129.205	-8191	255	
1049.602	1	1	0	0	0.23968	0.14561	0.29497	0.14861	0.061346	0.28274	0.092161	0.29556	0.18099	0.20206	0.15985	0.39728	0.42582	0.23595	0.18887	0.19193	-0.39583	-0.65625	-1.1063	-0.59375	-1.1625	-1.0958	-0.68542	-1.4	-0.72083	-0.81458	-1.3625	-0.5125	-0.93333	-1.5583	-0.50417	-1.2625	289.577	356.898	235.181	278.952	405.306	140.271	393.441	428.067	304.099	456.791	166.729	450.273	323.554	432.671	214.841	384.631	0.000897	0.0018586	0.00033193	549.49	5.9396e-06	5.2718e-06	720.55	238.14	6.7505e-06	1.0418e-06	330.41	157.55	125.79	77.046	9.0734e-06	96.63	0.0022747	0.0023659	0.0006625	605.83	2.585e-05	2.6629e-05	748.88	247.55	2.6684e-05	2.6354e-05	350.61	162.08	136.55	76.384	2.6487e-05	95.149	203.628	185.366	248.635	121.777	263.063	275.399	119.926	127.143	330.414	135.412	123.200	126.903	131.119	133.585	248.190	129.163	-8191	255	
1049.698	1	1	0	0	0.20411	0.14471	0.021996	0.20473	0.058267	0.10462	0.35277	0.12236	0.42413	0.29729	0.093617	0.39617	0.17248	0.19528	0.10434	0.19356	-0.30625	-0.5625	-1.2979	-0.5875	-1.1729	-1.2375	-0.54167	-1.4729	-0.87708	-0.46042	-1.3375	-0.53542	-0.81042	-1.7042	-0.29167	-1.325	271.362	308.624	359.310	196.100	250.239	186.020	389.879	357.277	146.830	311.845	397.243	450.294	381.506	179.329	427.853	374.679	0.00094742	0.0011294	0.00012893	548.46	1.9103e-05	8.0029e-06	720.09	238.95	8.8661e-06	2.1975e-05	331.01	158.64	125.94	77.52	1.3586e-05	97.18	0.0023256	0.0024208	0.00067866	609.67	2.6563e-05	2.7115e-05	753.6	248.28	2.7101e-05	2.6741e-05	352.57	162.97	136.9	76.754	2.7101e-05	95.937	187.828	227.032	228.687	122.225	264.514	174.908	119.958	127.652	255.712	275.445	123.513	127.372	130.861	133.458	348.617	129.353	-8191	255	
1049.794	1	1	0	0	0.25077	0.083751	0.1427	0.25917	0.16857	0.086009	0.12813	0.29423	0.25046	0.16541	0.23722	0.22912	0.12441	0.10658	0.2852	0.41812	-0.55833	-0.46875	-0.95208	-0.8	-0.70833	-1.0312	-0.76667	-1.3771	-0.9625	-0.5	-1.5417	-0.83125	-0.62917	-1.5125	-0.47708	-1.1292	431.883	202.044	149.784	425.811	223.783	296.031	364.296	417.268	290.092	247.484	441.768	465.687	370.848	460.336	132.218	388.356	0.00097299	0.0003226	0.00026851	550.46	2.7478e-06	9.1334e-06	726.69	237.93	1.5699e-05	1.1646e-05	334	158.89	125.88	77.724	7.5709e-06	97.161	0.0023636	0.002459	0.00069245	612.82	2.6931e-05	2.7612e-05	759.21	249.07	2.7872e-05	2.7961e-05	356.12	163.76	137.96	77.206	2.8275e-05	96.33	197.336	116.176	139.984	122.061	452.330	453.662	120.313	127.460	276.399	297.874	124.137	127.130	130.812	133.667	322.728	129.348	-8191	255	
1049.889	1	1	0	0	0.15007	0.15467	0.068383	0.11541	0.090007	0.21826	0.22183	0.1161	0.1013	0.29361	0.052627	0.20366	0.082502	0.30076	0.28497	0.30545	-0.75833	-0.41667	-1.0854	-1.0604	-0.64167	-1.3333	-0.59167	-1.0083	-1.3271	-0.47708	-1.4646	-0.77292	-0.49167	-1.6458	-0.59167	-1	125.136	266.797	134.524	384.872	427.132	466.984	431.440	243.951	382.204	401.238	191.624	432.494	198.972	396.802	176.541	353.425	0.00088232	0.00098483	7.2208e-05	552.88	2.306e-06	1.6823e-05	726.76	237.44	1.9723e-06	1.4045e-05	328.87	157.22	124.7	76.226	6.1894e-06	95.31	0.0024418	0.0025854	0.00072576	619.5	2.8742e-05	2.9331e-05	764.55	250.83	2.992e-05	3.0248e-05	357.99	163.93	138.67	76.46	3.0351e-05	95.204	202.576	197.320	138.130	121.972	362.188	205.105	120.155	127.398	211.138	283.209	123.782	127.258	130.777	133.615	313.968	129.433	-8191	255	
1049.985	1	1	0	0	0.32192	0.1145	0.36222	0.21245	0.19071	0.20225	0.22601	0.035225	0.10762	0.16462	0.070236	0.1469	0.14621	0.25169	0.05089	0.15259	-0.82083	-0.53958	-1.0854	-0.96042	-0.70833	-1.1063	-0.87292	-0.91458	-1.3896	-0.66042	-1.0979	-0.92917	-0.75625	-1.725	-0.525	-1.0604	448.830	164.013	304.294	363.895	291.599	294.945	367.648	373.177	370.153	182.877	173.759	433.759	415.458	425.223	201.418	344.146	0.0008185	0.00040941	0.00043136	552.54	8.5349e-06	1.9939e-05	717.74	236.94	1.4668e-05	4.9529e-06	328.67	155.07	124.12	76.459	6.3486e-06	94.901	0.0025659	0.0026987	0.00075819	621.55	2.9472e-05	2.9909e-05	761.04	249.67	2.9673e-05	3.0332e-05	354.85	162.17	137.74	76.374	3.0019e-05	94.718	199.973	452.892	237.322	122.254	196.797	231.368	120.643	127.507	306.521	254.551	123.905	126.842	130.990	133.689	238.871	129.418	-8191	255	
1050.083	1	1	0	0	0.12838	0.097371	0.15641	0.10377	0.24066	0.27522	0.20833	0.19845	0.017987	0.2929	0.14803	0.055835	0.304	0.44939	0.2079	0.08613	-0.98333	-0.475	-1.0083	-0.96667	-0.46875	-1.3542	-0.72708	-0.73958	-1.3042	-0.72708	-1.0729	-1.0979	-0.67708	-1.6812	-0.64167	-0.74792	208.804	147.055	376.985	383.656	430.681	169.591	389.292	456.961	261.926	355.153	191.523	190.043	204.404	466.030	455.923	430.506	0.00087016	0.00056073	0.00022759	548.92	1.8322e-05	2.0034e-05	716.27	238.2	6.0648e-06	7.8171e-06	327.41	156.34	124.73	76.082	6.2953e-06	95.474	0.0025609	0.0027508	0.00076537	622.08	2.9908e-05	3.0228e-05	764.09	250.07	3.0125e-05	3.1104e-05	355.61	162.92	138.51	76.37	3.0711e-05	95.156	204.232	421.500	225.566	122.010	255.216	195.777	119.821	127.595	202.649	235.109	123.616	126.974	131.115	133.687	232.060	129.290	-8191	255	
1050.202	1	1	0	0	0.13344	0.14116	0.38202	0.11826	0.029781	0.12201	0.16953	0.2453	0.22219	0.24524	0.044263	0.21176	0.33945	0.36599	0.15202	0.21271	-1.0146	-0.62083	-0.78958	-1.2354	-0.38125	-1.1083	-0.94583	-0.88125	-1.3854	-0.6	-0.95417	-1.5125	-0.46875	-1.3	-0.84167	-0.63958	181.718	467.936	364.631	194.487	236.477	305.066	332.948	359.253	311.200	332.810	368.513	115.887	126.245	443.893	338.672	346.198	0.00089539	0.00050593	0.00022811	547.94	1.0577e-05	1.2172e-05	719.02	237.59	1.662e-06	5.7562e-06	328.67	157.5	125.11	76.855	8.9305e-06	96.044	0.0026088	0.0027915	0.00076689	623.05	3.0346e-05	3.0357e-05	763.06	250.12	3.0009e-05	3.0675e-05	357.41	163.56	138.55	76.729	2.9964e-05	95.553	202.807	398.463	334.196	121.896	257.011	222.962	120.411	127.549	249.599	418.537	123.658	127.214	131.311	133.698	292.988	129.454	-8191	255	
1050.298	1	1	0	0	0.064264	0.26023	0.23563	0.23813	0.3862	0.13004	0.3126	0.15396	0.18177	0.15055	0.15444	0.28723	0.34579	0.19046	0.28594	0.22799	-1.0958	-0.62292	-0.52708	-1.2104	-0.55625	-1.0708	-0.98542	-0.50208	-1.1875	-0.45833	-0.65208	-1.4208	-0.67083	-1.3208	-0.92083	-0.49583	317.486	336.024	198.111	386.052	457.194	120.376	395.170	200.220	455.807	408.030	326.698	109.334	136.694	443.081	416.027	356.907	0.00081662	0.0012439	0.00031091	549.48	6.2623e-06	2.2882e-05	720.52	237.52	2.4251e-06	8.5623e-06	327.49	156.75	125.25	77.264	3.0779e-06	95.761	0.0025196	0.0026825	0.00072614	616.3	2.875e-05	2.8567e-05	757.81	248.9	2.8387e-05	2.9217e-05	354.22	162.41	138.1	76.565	2.8791e-05	95.171	198.906	451.642	317.913	122.215	204.764	284.692	120.133	127.171	181.617	170.911	124.116	127.385	130.769	133.551	218.768	129.509	-8191	255	
1050.394	1	1	0	0	0.19564	0.031786	0.15489	0.26273	0.28617	0.091073	0.15475	0.26346	0.075998	0.035864	0.38236	0.12533	0.17879	0.34116	0.31094	0.081705	-1.0771	-0.99583	-0.6125	-1.4729	-0.50208	-1.2583	-1.2417	-0.54583	-1.5187	-0.84167	-0.7	-1.375	-0.68542	-1.2208	-1.325	-0.68542	157.190	389.518	163.820	319.165	370.170	271.780	318.249	408.511	455.697	254.991	389.202	243.349	165.798	440.575	381.257	270.666	0.00094947	0.00063326	0.0002365	546.6	9.4033e-06	1.1013e-05	713.41	237.1	9.7975e-06	6.3292e-06	325.27	155.91	126.45	76.279	3.4912e-06	94.744	0.002439	0.0026276	0.00071381	611.4	2.8242e-05	2.7962e-05	749.44	247.53	2.7385e-05	2.8309e-05	350.23	161.1	137.4	76.032	2.8472e-05	94.434	198.102	168.638	134.536	122.314	169.553	361.628	120.184	127.674	292.491	382.944	123.973	127.382	130.785	133.711	318.512	129.335	-8191	255	
1050.515	1	1	0	0	0.12481	0.065908	0.11171	0.08205	0.065826	0.16472	0.063377	0.1995	0.18652	0.059242	0.10197	0.20895	0.052614	0.39798	0.32408	0.4441	-0.95833	-0.79583	-0.47083	-1.7021	-0.77708	-0.81458	-1.5042	-0.67917	-1.2875	-1.1625	-0.70208	-1.4875	-0.90417	-1.2375	-1.4312	-0.7	184.146	176.241	414.632	338.569	406.468	222.649	118.002	443.339	120.656	199.023	392.577	409.126	454.895	430.039	141.827	434.759	0.00096362	0.0016865	0.00011793	550.42	7.6082e-06	1.89e-05	716.58	237.06	8.8036e-06	9.0177e-06	328.75	156	126.89	76.774	1.5494e-05	95.035	0.0024619	0.0026705	0.00072843	616.32	2.9168e-05	2.8792e-05	753.12	248.74	2.8351e-05	2.8835e-05	351.42	161.38	137.67	76.358	2.7954e-05	94.618	186.553	239.267	400.590	121.971	180.880	223.903	120.212	127.113	254.636	330.420	123.826	127.576	131.001	134.007	326.240	129.476	-8191	255	
1050.586	1	1	0	0	0.18883	0.014808	0.092598	0.11833	0.17999	0.28065	0.22177	0.15206	0.13471	0.13046	0.11322	0.16605	0.22785	0.26056	0.11127	0.35687	-0.90833	-1.1021	-0.58333	-1.4062	-0.475	-0.73958	-1.5417	-0.83333	-1.2167	-0.88125	-0.60208	-1.4875	-0.79375	-0.79792	-1.5208	-0.80208	368.579	111.249	332.982	285.289	156.865	296.053	159.186	410.734	120.349	374.347	305.763	112.733	149.330	464.147	411.175	449.876	0.0010159	0.00019532	0.0003191	546.1	9.4657e-06	1.3428e-05	716.59	238.67	4.872e-06	6.7905e-06	329.29	157.53	125.43	76.97	1.7219e-06	96.337	0.0023738	0.0025678	0.00070396	613.77	2.82e-05	2.7833e-05	753.11	248.89	2.7607e-05	2.8289e-05	352.09	161.79	137.21	76.564	2.7149e-05	95.297	193.780	282.107	264.199	122.221	254.440	184.790	120.247	127.350	263.895	337.766	124.294	127.323	131.197	133.826	144.003	129.489	-8191	255	
1050.683	1	1	0	0	0.31848	0.28783	0.22117	0.23532	0.26264	0.1258	0.017423	0.22748	0.054464	0.13739	0.286	0.26371	0.059372	0.18355	0.17886	0.39001	-0.62292	-1.1208	-0.23958	-1.4937	-0.86042	-0.62917	-1.375	-0.49167	-0.90417	-1.4021	-0.7125	-1.4604	-0.89167	-0.88958	-1.4188	-0.96667	361.504	214.857	445.800	436.675	409.866	165.113	435.009	454.859	348.288	205.958	116.479	386.261	392.044	434.346	259.976	372.997	0.00075963	0.00077464	0.00040632	548.45	4.8285e-06	6.3572e-06	727.15	239.01	8.1808e-06	7.5064e-06	332.64	159.14	126.17	77.459	6.6639e-06	97.204	0.0023071	0.0024683	0.00068753	608.97	2.6898e-05	2.6581e-05	752.95	248.77	2.5899e-05	2.6824e-05	352.77	162.62	136.91	76.883	2.6572e-05	95.998	211.333	115.923	149.863	122.104	148.062	260.941	120.349	127.368	418.060	255.295	123.630	127.388	131.273	133.946	305.900	129.390	-8191	255	
1050.803	1	1	0	0	0.16992	0.29268	0.1635	0.042073	0.11818	0.088065	0.076042	0.35345	0.10517	0.25199	0.23548	0.2014	0.11655	0.45639	0.33508	0.095804	-0.3625	-1.1354	-0.44167	-1.3667	-0.96875	-0.3375	-1.3396	-0.67708	-0.88333	-1.2271	-0.7625	-1.375	-1.1417	-0.64375	-1.1229	-0.80208	264.226	111.809	302.499	152.521	155.159	267.679	352.218	432.763	298.135	415.444	426.032	256.463	299.607	422.036	160.914	369.237	0.00087104	0.00096274	0.00025108	552.77	4.0969e-06	1.5797e-05	721.61	238.62	8.2959e-06	1.4361e-05	331.19	157.91	125.15	77.173	7.7616e-06	95.977	0.0023057	0.0024902	0.00069803	611.67	2.7654e-05	2.7342e-05	754.92	249.87	2.7035e-05	2.7804e-05	354.61	162.28	137.08	76.612	2.73e-05	95.12	188.342	203.474	159.785	122.332	447.422	244.058	120.460	127.377	215.007	264.337	124.013	127.294	131.353	133.899	445.262	129.612	-8191	255	
1050.898	1	1	0	0	0.20914	0.055299	0.12373	0.23568	0.018609	0.2941	0.092303	0.31571	0.16459	0.067659	0.11055	0.3223	0.16809	0.15705	0.27715	0.24738	-0.37917	-1.4271	-0.63542	-1	-1.0042	-0.46667	-1.6292	-0.9	-0.67083	-1.35	-0.68958	-1.0229	-1.3625	-0.48125	-1.2563	-1.0292	356.530	133.727	314.376	363.826	443.694	247.562	368.095	143.636	289.404	154.025	375.404	132.525	468.318	152.918	446.887	451.426	0.00088217	0.00067147	0.0001365	549.39	1.2131e-05	1.0464e-05	714.6	239.11	1.0709e-05	9.6866e-06	328.11	156.6	125.61	77.098	4.4359e-06	96.034	0.0023397	0.0024973	0.00070081	610.15	2.7105e-05	2.7226e-05	751.54	248.88	2.6671e-05	2.7067e-05	351.77	161.16	136.6	76.523	2.6522e-05	95.106	199.789	152.045	213.078	122.524	344.168	420.349	120.151	127.348	321.088	449.314	124.070	127.552	130.918	133.749	352.738	129.631	-8191	255	
1050.994	1	1	0	0	0.09947	0.3929	0.071737	0.11258	0.35799	0.19958	0.23514	0.14806	0.15219	0.16362	0.18638	0.11179	0.056336	0.3287	0.25355	0.33837	-0.3375	-1.4833	-0.70208	-0.97292	-1.2125	-0.47292	-1.3188	-1.1688	-0.54375	-1.2354	-0.64792	-0.97083	-1.5333	-0.66875	-1.1063	-1.2938	194.005	381.095	133.404	113.479	133.086	204.734	376.991	390.321	236.422	257.558	349.832	383.081	462.083	455.410	250.345	388.417	0.00097694	0.0017543	0.00010259	550.25	5.7075e-06	9.9203e-06	718.94	239.32	6.5748e-06	7.2176e-06	330.8	157.31	125.93	76.98	1.1691e-05	96.52	0.0022724	0.0024212	0.00068957	608.43	2.6742e-05	2.7125e-05	751.45	248.59	2.7014e-05	2.7583e-05	354.08	161.83	137.25	76.561	2.7283e-05	95.464	205.987	232.927	320.743	122.430	209.218	241.363	120.716	127.524	276.782	382.943	123.727	127.762	131.122	133.640	288.001	129.390	-8191	255	
1051.090	1	1	0	0	0.10502	0.029761	0.28219	0.13982	0.096921	0.13974	0.1749	0.20778	0.3869	0.15662	0.26929	0.28388	0.21851	0.45714	0.11781	0.45676	-0.23958	-1.3479	-0.88125	-0.7	-1.1042	-0.325	-1.3062	-1.1688	-0.5375	-1.1292	-0.72708	-0.84792	-1.325	-0.64167	-0.81667	-1.3125	287.311	317.961	188.392	279.559	444.337	447.474	354.255	449.486	270.331	369.404	413.920	440.957	173.937	419.736	284.540	414.298	0.00087331	0.00074327	4.9272e-05	550.73	3.7649e-06	1.355e-05	726.99	240.52	7.9783e-06	3.6132e-06	331.87	159.2	125.9	77.344	5.1356e-06	96.729	0.0023859	0.0025257	0.00071404	611.32	2.7899e-05	2.8193e-05	758.35	250.29	2.7694e-05	2.7939e-05	356.28	163.45	137.97	77.003	2.7834e-05	96.183	189.099	205.286	454.185	122.262	352.373	256.650	120.428	127.592	243.080	353.965	123.946	127.462	131.125	133.975	198.976	129.716	-8191	255	
1051.163	1	1	0	0	0.16368	0.13981	0.12694	0.1736	0.26838	0.25581	0.12833	0.21674	0.15138	0.12736	0.24288	0.10605	0.29502	0.52317	0.062867	0.34686	-0.15417	-1.1292	-0.72083	-0.81458	-1.3479	-0.51458	-1.1187	-1.4542	-0.52083	-1.1771	-0.98125	-0.93542	-1.3583	-0.65	-0.92917	-1.55	320.903	305.956	168.842	436.643	426.531	412.427	171.622	266.647	390.315	190.089	460.437	390.502	114.307	424.614	219.086	468.087	0.0008916	0.0012635	2.7177e-05	556.87	4.6432e-06	1.4844e-05	725.36	240.55	8.6603e-06	7.0621e-06	332.87	158.26	126.31	77.252	3.4463e-06	96.261	0.0024412	0.0025875	0.0007352	616.48	2.8348e-05	2.8666e-05	759.08	250.45	2.7973e-05	2.7913e-05	355.46	162.54	137.53	76.975	2.7392e-05	95.845	206.139	141.031	172.448	121.978	188.693	266.284	120.649	127.712	442.750	349.047	123.972	127.428	131.254	133.754	128.495	129.497	-8191	255	
1051.282	1	1	0	0	0.10408	0.049305	0.081965	0.27383	0.15095	0.18131	0.24757	0.2592	0.16209	0.15499	0.16872	0.13759	0.26276	0.33593	0.15388	0.18727	0.18125	-1.1854	-0.975	-0.80417	-1.2521	-0.36458	-1.0042	-1.2271	-0.49792	-1.2292	-1.2479	-0.71458	-1.3875	-0.86042	-0.8125	-1.3687	324.403	235.296	280.457	388.626	421.087	142.412	458.595	377.538	203.835	159.262	207.831	464.942	346.522	364.734	166.936	379.156	0.0007593	0.00046337	0.00022586	553.42	3.8288e-06	5.5809e-06	721.34	238.95	5.663e-06	6.8136e-06	327.87	157.29	125.52	77.054	3.7329e-06	95.308	0.0024323	0.0025846	0.00073933	618.18	2.8854e-05	2.9723e-05	758.71	250.47	2.8791e-05	2.8716e-05	353.5	161.95	137.64	76.743	2.7883e-05	94.84	195.691	133.766	254.062	122.295	355.038	270.239	120.291	127.561	301.819	384.161	123.718	127.543	131.051	133.689	126.173	129.543	-8191	255	
1051.378	1	1	0	0	0.16544	0.1581	0.196	0.52526	0.30273	0.19281	0.25464	0.20388	0.13464	0.23644	0.083886	0.31151	0.23827	0.095834	0.36662	0.2819	-0.175	-1.2646	-1.1729	-0.6125	-1.3354	-0.98542	-0.86042	-1.5104	-0.56875	-1.0667	-0.97708	-0.71042	-1.4479	-1.0292	-0.71667	-1.55	406.998	331.013	125.334	110.472	262.373	231.963	176.625	209.207	258.038	173.959	158.470	420.231	450.471	427.352	135.150	401.854	0.0010022	0.00097287	0.00052973	554.54	3.1814e-06	9.6003e-06	715.18	238.03	8.5002e-06	7.5228e-06	330.15	156.24	123.79	76.915	1.1268e-05	95.944	0.0024599	0.002583	0.00073191	617.44	2.8568e-05	2.9131e-05	753.68	249.94	2.8971e-05	2.878e-05	354.28	161.95	137.68	76.76	2.8969e-05	95.342	203.120	173.595	200.273	122.194	324.243	195.659	120.524	127.476	304.799	383.073	123.912	127.536	130.943	133.812	239.900	129.396	-8191	255	
1051.474	1	1	0	0	0.094313	0.35678	0.17546	0.29541	0.22376	0.099572	0.11073	0.2085	0.042869	0.1717	0.27273	0.35848	0.048665	0.30247	0.32592	0.25813	0.15	-0.99792	-1.4542	-0.61458	-1.2812	-0.675	-0.575	-1.5208	-0.7625	-0.925	-1.3417	-0.67917	-1.3104	-1.2625	-0.62083	-1.5583	338.301	257.100	322.729	453.928	460.967	254.700	423.157	338.803	119.004	293.763	117.644	444.751	256.645	424.008	303.789	365.730	0.00091048	0.0010999	0.00054939	550.25	1.2503e-05	2.8936e-05	718.9	238.22	2.5736e-06	1.9817e-05	329.11	156.12	125.4	77.446	1.1127e-05	96.002	0.0025521	0.0026544	0.00075268	619.73	2.9079e-05	3.0081e-05	761.65	251.07	2.9966e-05	2.9754e-05	357.26	163.09	138.91	77.359	3.0202e-05	96.177	195.178	230.993	184.307	122.226	263.969	259.934	120.587	127.413	209.960	275.480	123.950	127.372	131.230	133.646	296.384	129.748	-8191	255	
1051.595	1	1	0	0	0.028747	0.27717	0.19501	0.059545	0.11268	0.072771	0.13725	0.2276	0.26055	0.080667	0.050707	0.15661	0.14993	0.26793	0.22451	0.15593	-0.275	-0.75417	-1.4021	-0.50833	-1.1375	-0.87083	-0.7375	-1.5229	-0.75833	-0.68542	-1.3937	-0.74583	-1.125	-1.4396	-0.60625	-1.3542	292.637	442.585	195.828	354.616	208.191	189.312	427.766	399.963	299.285	449.414	452.825	295.531	302.518	129.082	164.400	457.014	0.00078049	0.00082062	0.00051714	550.99	6.227e-06	2.0313e-05	725.37	240.08	5.136e-06	1.0414e-05	331.81	157.28	125.76	77.462	7.2431e-06	96.716	0.0026272	0.0027545	0.00078076	626.15	3.0171e-05	3.1136e-05	768.29	252.53	3.0839e-05	3.0463e-05	359.78	164.13	139.52	77.68	3.0973e-05	96.588	212.834	116.004	174.720	122.380	297.333	243.546	120.211	127.548	456.494	289.167	123.712	127.082	131.043	133.639	334.174	129.471	-8191	255	
1051.691	1	1	0	0	0.20443	0.13352	0.0861	0.13708	0.20819	0.12418	0.10838	0.19864	0.26472	0.52117	0.071625	0.096454	0.28661	0.37723	0.20591	0.20976	-0.41042	-0.625	-1.4375	-0.39583	-1.2437	-1.3188	-0.53542	-1.3167	-0.75625	-0.57708	-1.5458	-0.64167	-1.3083	-1.6958	-0.50417	-1.3333	283.795	438.454	243.440	383.379	286.094	115.614	304.344	444.171	384.717	229.296	111.892	117.831	449.643	387.719	205.682	403.271	0.00088097	0.00029885	0.0002618	555.51	3.5471e-06	3.3287e-05	722.11	238.05	5.9159e-06	6.195e-06	327.66	156.08	124.27	76.879	1.6643e-05	95.328	0.0026917	0.0028286	0.00079928	628.77	3.0728e-05	3.1429e-05	769.94	252.81	3.1615e-05	3.1539e-05	358.98	163.81	139.75	77.341	3.2166e-05	95.615	199.971	307.929	241.620	122.514	312.610	229.384	120.445	127.514	416.543	219.005	124.181	127.421	131.658	134.002	340.018	129.780	-8191	255	
1051.787	1	1	0	0	0.38091	0.14087	0.13484	0.075583	0.15583	0.13005	0.18653	0.22163	0.1115	0.34907	0.15887	0.29445	0.12503	0.34949	0.22354	0.48884	-0.56042	-0.54583	-1.2979	-0.54792	-0.73125	-1.3583	-0.62083	-1.2104	-0.95208	-0.76458	-1.4104	-0.66667	-0.79583	-1.6917	-0.42708	-1.3104	149.504	202.708	433.934	462.359	366.031	410.252	427.419	130.353	190.780	394.163	124.956	429.451	381.237	189.003	252.659	369.421	0.00074295	6.929e-05	0.0004507	554.43	4.0488e-06	3.1671e-06	719.41	237.9	4.2565e-06	5.1511e-06	327.38	155.98	125.49	77.142	1.0961e-05	95.617	0.0027647	0.0028943	0.00081423	632.28	3.1517e-05	3.2292e-05	769.43	252.66	3.1702e-05	3.2237e-05	358.77	163.42	139.7	77.334	3.2128e-05	95.664	191.022	195.194	176.505	122.235	194.513	336.358	120.514	127.965	272.241	277.599	124.133	127.320	131.576	133.739	440.460	129.744	-8191	255	
1051.884	1	1	0	0	0.28233	0.12862	0.25022	0.28096	0.20177	0.012081	0.27133	0.18252	0.22117	0.17324	0.29525	0.31438	0.16208	0.27648	0.10781	0.28718	-0.68542	-0.39583	-1.2521	-0.99167	-0.61875	-1.225	-0.73333	-1.2292	-1.0146	-0.65625	-1.2938	-0.93958	-0.61458	-1.6688	-0.56042	-1.2417	293.223	309.361	433.897	428.626	242.627	454.620	384.804	410.019	337.649	342.659	155.773	385.366	359.322	401.254	149.419	395.770	0.00089799	0.0014679	0.00040778	554.42	8.0214e-06	5.4893e-06	725.77	238.37	6.1403e-06	1.262e-05	325.96	156.72	125.89	76.949	1.1735e-05	96.53	0.0027298	0.0029014	0.00080241	629.43	3.0885e-05	3.1863e-05	769.84	252.18	3.1581e-05	3.1911e-05	358.2	163.76	140.03	77.433	3.1962e-05	96.203	201.347	193.942	349.589	122.319	289.888	209.635	120.302	127.593	420.625	362.342	123.988	127.149	131.162	133.672	214.822	130.002	-8191	255	
1051.978	1	1	0	0	0.22208	0.25985	0.11318	0.22556	0.10326	0.10089	0.12245	0.30322	0.10394	0.16522	0.36329	0.16722	0.12259	0.21564	0.24499	0.27993	-0.78125	-0.33333	-1.2	-0.97708	-0.45417	-1.1917	-0.66042	-1.125	-1.0688	-0.24792	-1.2792	-1.1333	-0.66667	-1.6854	-0.58125	-1.0958	347.787	302.892	281.133	431.221	370.324	312.528	204.436	346.936	189.985	425.461	427.224	382.615	394.210	431.082	350.199	388.543	0.00096041	0.00097328	0.00018734	553.89	4.7033e-06	1.0449e-05	720.78	238.69	4.9086e-06	1.705e-05	330.26	157.87	125.58	77.616	3.0741e-07	96.442	0.0027271	0.0028956	0.00079984	631.84	3.1619e-05	3.2179e-05	773.55	252.94	3.2054e-05	3.2401e-05	362	165.14	140.75	77.828	3.2242e-05	97.09	207.816	209.698	432.398	122.540	282.412	344.051	120.313	127.370	318.094	257.818	124.250	127.475	131.294	133.795	277.459	129.482	-8191	255	
1052.076	1	1	0	0	0.36226	0.042077	0.047883	0.13254	0.093682	0.14744	0.11967	0.23708	0.13229	0.094218	0.18551	0.064607	0.053806	0.31834	0.14728	0.15824	-0.875	-0.51458	-1.0542	-1.0979	-0.43542	-1.4896	-0.80417	-0.79792	-1.3354	-0.58333	-1.3771	-1.1	-0.47917	-1.3021	-0.9	-0.97917	271.601	329.726	424.504	167.065	211.307	238.586	326.764	456.276	407.843	245.978	376.373	449.922	257.390	395.605	434.466	460.069	0.00094551	0.0011989	0.00010272	557.56	3.2136e-06	1.37e-05	729.01	240.44	1.112e-05	1.0456e-05	330.83	157.99	124.48	77.334	1.6598e-05	96.251	0.0027689	0.0029636	0.00081363	634.02	3.1916e-05	3.2241e-05	778.23	254.11	3.2117e-05	3.2543e-05	361.38	164.65	140.45	77.768	3.232e-05	96.725	196.214	154.142	228.166	121.768	289.937	203.158	120.293	127.892	316.090	234.747	123.833	127.259	131.405	133.917	288.648	129.599	-8191	255	
1052.195	1	1	0	0	0.30089	0.20241	0.26202	0.1532	0.14339	0.18286	0.038593	0.33323	0.38518	0.22978	0.14767	0.17184	0.078359	0.31551	0.095628	0.17047	-0.85417	-0.40417	-1.1229	-1.2417	-0.275	-1.2792	-1.2292	-0.71667	-1.1208	-0.59792	-1.1167	-1.3438	-0.4875	-1.4521	-1.1	-0.51667	434.497	412.580	115.645	392.216	316.773	191.589	221.614	414.805	109.725	202.743	340.232	152.070	452.354	431.529	228.694	375.590	0.00071091	0.0019998	0.00057171	551.45	1.3372e-05	7.9843e-06	725.3	238.5	1.4075e-05	2.5479e-05	326.81	155.24	124.95	77.033	6.1809e-06	95.696	0.0027837	0.0029819	0.00082486	636.81	3.2719e-05	3.2813e-05	777.09	254.2	3.3076e-05	3.3854e-05	360.75	164.44	141.21	77.474	3.3187e-05	95.872	195.616	467.591	140.919	122.413	279.146	348.281	120.694	127.635	270.455	428.451	124.024	127.426	131.289	133.533	155.311	129.787	-8191	255	
1052.291	1	1	0	0	0.23318	0.075365	0.12869	0.028254	0.24782	0.21162	0.11154	0.15022	0.23576	0.20237	0.082009	0.15969	0.26262	0.37308	0.3892	0.25214	-0.96667	-0.61042	-0.63542	-1.1667	-0.61875	-1.3021	-0.99167	-0.6125	-1.2313	-0.84375	-0.94375	-1.5375	-0.62917	-1.3542	-0.99167	-0.74375	324.587	162.475	259.592	457.266	146.317	309.345	334.383	447.251	443.781	305.437	432.940	418.258	448.737	453.360	304.840	436.381	0.00068941	0.00035184	0.00030043	554.24	2.4882e-06	1.9105e-05	724.86	238.57	1.4534e-05	1.3657e-05	328.35	156.17	124.65	77.2	8.8111e-06	95.553	0.0028491	0.0030629	0.00084674	640.41	3.3972e-05	3.3885e-05	780.84	255.95	3.4188e-05	3.4966e-05	364.85	165.62	142.45	77.763	3.4217e-05	96.581	197.869	297.303	315.506	122.347	233.706	153.472	120.453	127.647	338.834	112.002	124.245	127.482	131.322	133.973	202.983	129.694	-8191	255	
1052.387	1	1	0	0	0.28871	0.068644	0.18741	0.18252	0.14586	0.16159	0.18151	0.11766	0.17186	0.18416	0.26278	0.30439	0.09002	0.12411	0.24805	0.12229	-0.90833	-0.58333	-0.56042	-1.5146	-0.52708	-0.99375	-1.3813	-0.59375	-1.2375	-0.875	-0.79167	-1.5146	-0.775	-1.2042	-1.0167	-0.64583	311.271	133.043	338.540	121.177	307.250	399.605	381.292	363.421	374.252	285.589	367.590	420.051	199.606	449.053	264.619	432.424	0.00083013	0.0020029	0.00044228	556.8	3.8649e-06	2.1552e-05	725.35	239.73	8.9422e-06	1.4562e-05	332.14	155.98	124.76	77.615	1.7513e-06	96.301	0.0028948	0.003121	0.00085911	643.03	3.4097e-05	3.4042e-05	783.41	256.56	3.4209e-05	3.5051e-05	366.82	166.22	143.26	78.184	3.5798e-05	97.512	193.877	150.234	132.689	122.665	420.493	328.249	120.219	127.484	331.290	295.357	124.241	127.604	131.159	133.833	255.510	129.547	-8191	255	
1052.483	1	1	0	0	0.093157	0.064886	0.076575	0.22384	0.1378	0.22075	0.27996	0.16533	0.17654	0.069185	0.25788	0.41406	0.1327	0.3218	0.20963	0.068905	-0.84792	-0.66667	-0.65417	-1.6208	-0.59375	-0.74792	-1.4458	-0.7875	-1.05	-1.0292	-0.65208	-1.1958	-0.80625	-1.1938	-1.2146	-0.6	317.769	323.848	419.267	436.070	410.051	114.030	382.962	444.245	410.330	215.102	407.441	427.434	438.001	453.340	242.434	426.058	0.00081486	0.0022745	0.00064437	556.18	7.518e-06	2.3708e-05	732.44	238.89	7.6885e-06	2.5728e-05	328.92	156.85	125.65	76.944	1.2367e-05	96.419	0.0030465	0.0033249	0.00091903	651.49	3.6458e-05	3.613e-05	795.43	258.84	3.6332e-05	3.7394e-05	371.81	167.72	144.87	78.303	3.664e-05	98.054	204.572	175.454	175.694	122.885	264.150	314.272	120.553	127.810	282.500	234.917	124.046	127.506	131.525	134.066	291.117	129.695	-8191	255	
1052.579	1	1	0	0	0.1599	0.1726	0.10493	0.068966	0.12007	0.26161	0.13637	0.14608	0.21095	0.13985	0.015058	0.15128	0.22278	0.40959	0.16936	0.54046	-1.0625	-1.0938	-0.5	-1.4979	-0.92708	-1.0063	-1.4479	-0.47917	-1.1083	-0.99583	-0.625	-1.5979	-0.99583	-0.90833	-1.4021	-1.175	389.856	437.530	309.428	379.889	143.983	137.127	439.485	141.977	328.847	277.938	262.368	162.463	446.654	125.290	228.107	428.082	0.00094378	0.0012037	0.00021809	557.11	5.3879e-06	2.0886e-05	725.9	239.36	1.1186e-05	4.3046e-06	329.31	155.88	124.21	77.152	1.4619e-06	94.983	0.0031155	0.0034098	0.00093936	653.65	3.7307e-05	3.7009e-05	794.02	259.08	3.6648e-05	3.8057e-05	370.47	166.9	144.62	78.121	3.7459e-05	96.898	189.247	320.328	258.177	122.367	214.326	242.042	120.674	127.590	275.263	356.331	124.293	127.408	131.172	133.747	273.576	129.607	-8191	255	
1052.675	1	1	0	0	0.14309	0.2364	0.20511	0.063873	0.019696	0.25386	0.24753	0.30728	0.25401	0.016095	0.23453	0.24129	0.11601	0.45536	0.18967	0.20119	-0.71667	-1.3146	-0.53542	-1.3979	-0.63333	-0.90833	-1.7437	-0.78958	-0.75625	-1.2896	-0.61667	-1.4354	-0.8875	-0.94792	-1.5167	-1.0208	229.988	462.789	329.836	327.757	315.684	250.854	460.396	457.186	252.490	433.064	439.170	421.037	460.032	453.158	118.083	446.665	0.00085972	0.00046565	0.00016234	556	6.6302e-06	7.9144e-06	721.59	237.86	8.2454e-06	5.6659e-06	327.25	155.45	123.99	76.624	6.1117e-06	94.615	0.0031444	0.0034484	0.00095203	653.64	3.7386e-05	3.7394e-05	791.29	257.89	3.7024e-05	3.8373e-05	369.47	166.33	144.39	78.05	3.81e-05	96.696	194.216	137.926	178.528	122.522	206.581	147.978	120.173	127.590	290.920	467.792	123.777	127.857	130.726	134.105	462.190	129.702	-8191	255	
1052.772	1	1	0	0	0.19241	0.024261	0.19672	0.079162	0.12363	0.16359	0.098183	0.28359	0.057471	0.11107	0.40573	0.24083	0.28392	0.32787	0.067637	0.43342	-0.6625	-1.25	-0.5125	-1.2313	-1.0896	-0.47083	-1.4792	-0.85	-0.825	-1.2313	-0.69583	-1.2854	-1.0812	-0.90833	-1.3354	-0.91042	315.214	197.026	301.357	332.810	198.569	423.508	327.660	115.911	360.618	306.058	433.650	405.309	412.889	387.769	375.725	464.952	0.0009234	0.0012551	0.00039058	554.49	1.1728e-05	3.7072e-06	729.05	238.75	2.4652e-06	2.0799e-05	329.42	155.35	123.5	76.621	9.5453e-06	95.629	0.0032142	0.0035223	0.00097902	654.8	3.8197e-05	3.827e-05	794.98	258.7	3.7115e-05	3.816e-05	370.07	166.61	144.8	78.196	3.769e-05	97.333	193.002	459.386	170.053	122.148	356.034	265.643	120.699	127.819	440.129	276.888	124.435	128.003	131.537	133.864	318.674	129.683	-8191	255	
1052.868	1	1	0	0	0.065277	0.13224	0.19592	0.29875	0.21011	0.12127	0.16416	0.30139	0.29375	0.024982	0.10774	0.21299	0.26324	0.10273	0.27846	0.48783	-0.675	-1.3479	-0.58958	-1.3333	-1.2	-0.75208	-1.5438	-0.81875	-0.68333	-1.4375	-0.75833	-1.1896	-1.3042	-0.54375	-1.4854	-0.97083	453.133	200.802	465.202	120.842	111.849	196.657	341.289	408.167	111.254	240.760	456.797	377.596	116.362	116.544	243.303	409.848	0.0007903	0.00092573	0.0002565	552.39	8.3065e-06	1.6323e-05	727.48	238.09	1.1932e-05	1.5591e-05	329.82	156.41	124.16	76.742	4.9548e-07	96.578	0.0032233	0.0035147	0.00097771	656.65	3.84e-05	3.8377e-05	794.22	259.01	3.7386e-05	3.8203e-05	372.48	167.24	145.31	78.493	3.7482e-05	98.03	201.987	232.457	284.253	122.346	150.444	291.146	120.089	127.627	334.770	228.761	123.684	127.589	131.677	134.114	334.586	129.470	-8191	255	
1052.987	1	1	0	0	0.18238	0.048073	0.29652	0.29474	0.19491	0.23231	0.20782	0.45336	0.25205	0.13611	0.28464	0.2051	0.072615	0.18931	0.041986	0.32204	-0.24375	-1.4854	-0.55208	-0.93125	-1.2042	-0.52083	-1.5542	-1.1521	-0.97292	-1.2875	-0.84792	-0.88333	-1.6125	-0.80833	-1.0958	-1.4167	261.942	399.930	337.047	175.164	161.021	461.549	417.731	408.521	400.983	408.867	351.808	292.870	303.611	339.063	419.741	111.860	0.00076455	0.0014247	0.00041008	555.46	1.0401e-05	5.8683e-06	729.7	237.39	6.1976e-06	1.9315e-05	329.05	156.51	125.09	76.853	6.8066e-06	95.438	0.0031978	0.0034579	0.00097144	655.32	3.7975e-05	3.8202e-05	797.47	258.22	3.7609e-05	3.838e-05	372.33	167.34	145.6	78.499	3.8051e-05	97.57	195.603	369.530	192.091	122.295	244.973	140.036	120.665	127.325	239.884	174.263	123.568	127.835	131.331	134.002	376.152	129.546	-8191	255	
1053.058	1	1	0	0	0.19972	0.24269	0.074791	0.20205	0.14771	0.25011	0.12286	0.22769	0.15077	0.23228	0.31159	0.039542	0.31707	0.34692	0.13736	0.22341	-0.19792	-1.3937	-0.84583	-1.025	-1.45	-0.54375	-1.4188	-1.1333	-0.5625	-1.4417	-0.76667	-0.86042	-1.425	-0.78542	-0.93958	-1.1979	431.601	191.945	210.874	469.231	258.315	304.016	356.487	450.537	144.201	333.722	424.326	134.937	128.581	449.546	273.851	402.186	0.0010696	0.0011855	0.00025588	558.3	6.0839e-06	1.9184e-05	724.54	237.56	1.4364e-05	2.1316e-05	327.3	153.87	124.05	76.795	1.6427e-05	94.809	0.0033043	0.0035489	0.0010055	661.95	3.9265e-05	3.9936e-05	798.11	259.88	3.938e-05	3.961e-05	373.13	167.09	146.15	78.267	3.9414e-05	97.167	196.655	165.379	448.745	122.306	294.646	362.367	121.026	127.833	311.615	278.539	124.297	127.361	131.354	133.885	230.970	129.714	-8191	255	
1053.156	1	1	0	0	0.19245	0.098304	0.070048	0.078237	0.30542	0.2901	0.088977	0.063726	0.17692	0.21468	0.15417	0.060781	0.16895	0.31785	0.043141	0.055062	-0.38125	-1.3917	-0.65833	-0.6375	-1.5229	-0.5625	-1.1542	-1.2042	-0.41667	-1.4312	-0.84583	-0.82292	-1.725	-0.67292	-1.075	-1.4333	117.716	252.882	276.282	228.547	304.100	129.600	191.773	398.177	213.213	346.718	330.012	432.840	349.918	451.965	123.485	365.629	0.0006208	0.0013441	0.0005308	556.21	4.4563e-06	2.5008e-06	732.6	238.38	6.9836e-06	1.2225e-05	327.68	153.87	124.27	76.413	1.9722e-05	94.82	0.0034429	0.003698	0.0010446	664.7	4.0475e-05	4.0909e-05	803.69	261.43	4.0101e-05	4.007e-05	374.59	167.88	146.6	78.31	3.9498e-05	97.595	203.837	274.433	253.662	122.518	243.283	224.532	120.718	127.469	321.745	257.227	124.115	127.668	131.463	133.976	289.811	129.718	-8191	255	
1053.275	1	1	0	0	0.20231	0.11365	0.13988	0.23078	0.14189	0.22926	0.14653	0.25788	0.11983	0.19484	0.20187	0.22907	0.088237	0.12091	0.14741	0.20092	0.03125	-1.1604	-0.81667	-0.78542	-1.4	-0.45417	-1.1	-1.3979	-0.4375	-1.4271	-1.0479	-0.7625	-1.5229	-0.84375	-0.82292	-1.7208	462.612	364.220	289.768	441.486	455.911	442.302	409.149	156.393	428.589	185.540	144.217	372.292	250.308	191.968	203.946	442.317	0.00094157	0.0021261	0.00029627	556.09	6.9801e-06	1.6982e-06	729.3	238.39	1.0795e-05	8.1164e-06	329.44	156.55	124.1	76.717	1.5139e-05	95.773	0.0034334	0.0036423	0.0010326	667.81	4.0205e-05	4.099e-05	805.99	261.57	4.054e-05	4.0267e-05	378.02	169.47	147.21	78.73	4.0626e-05	98.673	202.349	460.505	187.943	122.876	263.752	329.783	120.671	127.682	193.447	165.462	124.025	127.548	131.752	133.902	284.236	129.728	-8191	255	
1053.371	1	1	0	0	0.12152	0.20957	0.532	0.12996	0.24548	0.1378	0.15352	0.10235	0.19237	0.43726	0.059304	0.2938	0.010473	0.3003	0.14507	0.22603	-0.225	-1.1437	-1.2604	-0.63333	-1.4333	-0.9125	-0.88125	-1.5208	-0.62292	-1.0458	-1.0917	-0.85	-1.3833	-0.96667	-0.73333	-1.6354	446.740	141.410	221.735	399.448	407.808	148.537	118.982	357.441	124.872	334.910	251.994	121.337	373.410	441.931	463.001	356.226	0.00089713	0.0011361	0.00070835	552.6	7.3448e-06	4.4352e-06	735.19	239.03	5.4945e-06	1.6507e-05	330.93	156.81	125.03	76.682	1.7367e-05	96.243	0.0035426	0.0037736	0.0010682	674.47	4.2107e-05	4.2909e-05	818.36	264.46	4.2514e-05	4.2473e-05	383.46	171.23	148.81	79.138	4.2331e-05	99.221	199.377	166.076	166.287	122.658	340.522	376.823	120.988	127.779	219.795	153.015	124.082	127.637	131.151	133.637	270.890	129.579	-8191	255	
1053.467	1	1	0	0	0.072059	0.16773	0.12592	0.059238	0.18716	0.22504	0.024076	0.19695	0.28047	0.32478	0.21149	0.28204	0.19209	0.23974	0.10171	0.24244	-0.24167	-1.0792	-1.3604	-0.6625	-1.3021	-0.90833	-0.75625	-1.5063	-0.49792	-0.95	-1.5667	-0.73542	-1.0979	-0.98333	-0.51042	-1.2812	340.310	395.848	266.468	229.157	448.547	443.656	426.494	400.421	180.878	131.546	393.653	130.759	187.259	352.486	125.875	364.525	0.00085282	0.002104	0.0002193	564.05	5.4185e-06	1.7752e-05	735.15	237.22	1.3173e-05	1.0482e-05	327.79	155.34	124.61	76.221	9.8377e-06	95.278	0.0036841	0.0039279	0.0011201	684.86	4.3364e-05	4.5025e-05	828.37	266.34	4.5726e-05	4.607e-05	389.48	173.1	151.72	79.504	4.7168e-05	99.181	193.431	244.548	150.406	122.604	207.507	280.030	120.426	127.758	379.276	211.288	123.861	127.740	131.439	133.551	291.179	129.404	-8191	255	
1053.564	1	1	0	0	0.24781	0.1356	0.022515	0.10505	0.13362	0.18601	0.35621	0.16122	0.049197	0.16001	0.2522	0.1115	0.12564	0.24028	0.15904	0.087325	-0.25833	-0.98958	-1.1042	-0.54375	-1.1708	-1.0271	-0.65	-1.5708	-0.74583	-0.66667	-1.2667	-0.60833	-1.225	-1.2292	-0.50833	-1.4396	436.759	306.044	230.527	396.593	142.614	330.334	420.751	152.254	393.329	114.031	306.438	388.941	396.088	441.113	243.477	376.525	0.00093308	0.001881	0.00020588	557.05	7.6558e-06	1.5998e-05	734.6	237.03	1.2853e-05	1.5881e-05	331.25	155.36	125.17	76.285	1.4906e-05	94.663	0.0040152	0.0042968	0.001214	696.35	4.6274e-05	4.7837e-05	831.71	266.6	4.6466e-05	4.6165e-05	388.33	171.81	151.17	79.276	4.6482e-05	98.697	196.095	223.357	431.431	121.807	244.860	187.386	120.517	127.866	195.623	249.097	123.919	127.380	131.300	133.772	245.697	129.903	-8191	255	
1053.684	1	1	0	0	0.22124	0.042304	0.16889	0.03066	0.11508	0.22026	0.32432	0.1194	0.035962	0.12471	0.28127	0.44846	0.11082	0.41531	0.13502	0.10396	-0.25	-0.63958	-1.3083	-0.49583	-1.0958	-1.3021	-0.66458	-1.4146	-0.74583	-0.88125	-1.6479	-0.62708	-0.94583	-1.4958	-0.48542	-1.4188	443.365	238.742	221.500	270.989	279.569	252.218	439.171	380.785	397.485	152.030	428.428	415.798	350.050	147.698	171.108	249.638	0.00068237	0.0026678	0.00040004	560.21	1.0404e-05	2.6926e-05	735.76	237.23	8.8279e-06	1.1934e-05	329.24	155.65	125.51	76.424	1.0536e-06	95.374	0.003968	0.0042462	0.0011943	693	4.5718e-05	4.7193e-05	832.09	266.49	4.6063e-05	4.5993e-05	386.04	171.32	149.96	79.189	4.4744e-05	98.792	198.642	151.875	292.464	122.429	255.948	279.074	120.654	127.591	243.922	171.051	123.941	127.570	131.220	133.749	240.457	129.432	-8191	255	
1053.756	1	1	0	0	0.15945	0.10065	0.066813	0.18224	0.21121	0.17144	0.12849	0.040194	0.19179	0.2215	0.15354	0.13824	0.012053	0.19834	0.41322	0.31867	-0.39583	-0.61042	-1.5604	-0.83125	-0.8125	-1.2708	-0.74375	-1.0583	-0.93333	-0.50417	-1.4708	-0.44375	-0.89792	-1.7979	-0.50417	-1.3167	249.966	207.551	418.684	383.678	346.557	290.422	170.385	361.757	128.181	216.078	195.745	359.831	125.275	445.562	242.936	338.139	0.00085929	0.00048331	0.00040552	556.92	4.8497e-06	7.256e-06	734.71	237.85	1.461e-05	1.7679e-05	328.22	156.44	124.59	76.969	1.3346e-05	96.136	0.0037872	0.004027	0.0011193	682.94	4.3403e-05	4.4536e-05	824.7	263.78	4.3609e-05	4.3925e-05	382.39	171.16	149.03	79.337	4.328e-05	99.262	204.945	119.847	232.010	121.885	162.449	346.076	120.153	127.778	284.999	277.843	123.762	127.350	130.927	133.653	255.019	129.547	-8191	255	
1053.876	1	1	0	0	0.13977	0.061755	0.37479	0.091827	0.029673	0.12988	0.44568	0.088603	0.12471	0.048629	0.51326	0.31752	0.26677	0.26638	0.032134	0.26222	-0.67292	-0.475	-1.1396	-0.825	-0.87292	-1.4042	-0.48958	-1.0312	-1.0771	-0.57917	-1.5063	-0.84375	-0.82917	-1.5021	-0.45208	-1.3854	460.603	424.028	115.027	198.153	292.318	461.750	386.472	150.596	113.736	175.130	416.092	403.516	443.055	410.727	350.869	452.367	0.00082912	0.0011239	0.00045529	561.82	1.5772e-05	2.4545e-05	737.06	238.95	2.4826e-06	2.3656e-05	328.83	155.18	123.62	76.593	1.393e-05	95.886	0.0037379	0.004003	0.0011076	685.99	4.3299e-05	4.4347e-05	824.52	265.1	4.425e-05	4.4662e-05	384.24	171.37	149.89	79.298	4.4351e-05	99.169	189.416	128.559	246.638	122.334	367.289	466.714	120.255	127.547	134.726	189.079	123.941	127.463	130.953	133.728	254.273	129.672	-8191	255	
1053.971	1	1	0	0	0.17886	0.15238	0.071049	0.16786	0.25181	0.080222	0.063303	0.014312	0.22615	0.22133	0.12342	0.15633	0.14029	0.1463	0.21049	0.00955	-1.075	-0.63542	-1.35	-0.94167	-0.65625	-1.2104	-0.71875	-1.2563	-1.4562	-0.5625	-1.2792	-0.88542	-0.60208	-1.8667	-0.82292	-1.2896	155.026	355.951	248.988	459.789	352.813	422.361	161.972	310.045	454.960	312.325	138.783	448.919	267.213	466.838	336.328	364.434	0.00086446	0.00045733	0.00026841	555.55	5.4921e-06	1.3692e-05	734.6	237.05	8.7526e-06	1.2139e-05	327.26	154.45	124.09	75.789	8.8798e-06	93.937	0.0038045	0.0040763	0.0011148	685.42	4.4303e-05	4.4972e-05	826.79	265.24	4.5586e-05	4.6283e-05	385.14	171.47	151.38	79.217	4.7651e-05	98.629	190.414	131.186	337.349	122.420	292.978	323.501	120.237	127.525	266.367	189.365	124.107	127.321	131.523	133.682	367.368	129.781	-8191	255	
1054.067	1	1	0	0	0.17362	0.37424	0.033127	0.3186	0.10541	0.20022	0.16556	0.15789	0.024802	0.1186	0.27027	0.25367	0.18562	0.33525	0.078879	0.12784	-1.0187	-0.35417	-1.0187	-1.175	-0.49167	-1.4604	-0.85625	-1.1437	-1.225	-0.48958	-1.0521	-1.2729	-0.65	-1.6167	-0.84583	-1.0333	224.514	276.165	409.962	356.133	378.559	435.597	445.194	375.274	183.277	248.744	379.850	453.637	143.706	445.785	249.176	372.485	0.00088398	0.00065692	0.00043216	558.83	1.5777e-05	1.5097e-05	733.88	237.29	3.8139e-06	1.6111e-05	327.58	153.38	122.85	76.083	1.9197e-05	94.941	0.0041272	0.004493	0.0012395	706.67	4.9713e-05	5.048e-05	845.19	270.54	5.1317e-05	5.2359e-05	395.78	175.27	157.06	80.387	5.5742e-05	101.1	205.367	220.254	155.544	122.678	299.354	459.405	119.985	127.491	178.821	357.816	123.995	127.560	131.007	133.871	299.086	129.580	-8191	255	
1054.163	1	1	0	0	0.10546	0.23601	0.070598	0.2824	0.16675	0.18983	0.33921	0.11038	0.031442	0.17031	0.081011	0.086001	0.15161	0.1707	0.25361	0.33361	-1.1604	-0.7875	-1.2792	-1.175	-0.42292	-1.3333	-1.1042	-0.90625	-1.5042	-0.36042	-1.2042	-1.275	-0.61458	-1.6042	-0.91458	-0.6875	330.467	175.816	169.487	433.587	275.183	289.620	393.292	347.685	269.194	135.656	199.627	115.533	137.880	433.934	377.167	336.748	0.00087233	0.0014122	0.00019112	560.65	3.1437e-06	1.0774e-05	748.09	238.48	1.2036e-05	1.8239e-05	332.33	154.48	123.84	76.483	1.0358e-05	94.904	0.0048488	0.0053344	0.0014843	749.77	5.9874e-05	5.9988e-05	891.14	281.61	6.0052e-05	6.0682e-05	415.28	180.86	162.49	81.535	5.9746e-05	102.35	193.629	385.626	287.093	121.532	399.102	271.705	120.001	127.404	234.186	388.246	124.036	127.397	131.465	133.767	321.954	129.695	-8191	255	
1054.284	1	1	0	0	0.24186	0.12571	0.15188	0.049987	0.37454	0.15539	0.2042	0.30263	0.19202	0.20461	0.15431	0.33284	0.11768	0.31092	0.33848	0.33344	-1.1104	-0.54167	-1.1125	-1.2833	-0.33125	-1.1792	-1.15	-0.70417	-1.4979	-0.51458	-0.97292	-1.4479	-0.86458	-1.45	-1.05	-0.6875	183.571	426.295	411.780	392.741	306.544	317.645	133.575	422.619	356.082	394.756	451.725	410.779	385.553	452.093	323.556	131.202	0.0008145	0.00075736	0.00033253	567.1	1.3289e-05	9.9703e-06	745.31	238.39	6.6133e-06	1.9853e-05	332.21	155.47	124.37	76.597	9.1434e-06	95.625	0.0049505	0.0053814	0.0014753	745.85	5.8005e-05	5.7094e-05	886.4	279.15	5.6593e-05	5.753e-05	409.5	179.84	159.84	81.122	5.6469e-05	102.06	199.173	193.297	327.367	122.110	292.876	423.976	120.078	127.850	207.306	169.614	123.928	127.561	131.088	133.772	288.371	129.761	-8191	255	
1054.356	1	1	0	0	0.15832	0.064107	0.22961	0.27437	0.19414	0.099948	0.090204	0.057843	0.16577	0.18952	0.14308	0.22603	0.30179	0.23764	0.31604	0.086814	-1.175	-0.74583	-0.79167	-1.5063	-0.64583	-1.4188	-1.2229	-0.51667	-1.2271	-0.96875	-1.0208	-1.4625	-0.54375	-1.2833	-1.3021	-0.73958	433.712	243.962	397.578	426.276	179.536	170.046	147.860	207.749	427.199	219.097	447.233	260.072	436.873	426.341	384.300	441.597	0.0010161	0.0014311	0.00056009	560.64	1.0459e-05	9.2598e-06	747.33	239.73	5.3258e-06	1.5506e-05	328.73	155.22	124.25	76.254	1.8586e-05	94.829	0.0047325	0.0051293	0.0014154	736.04	5.5163e-05	5.4768e-05	873.44	276.27	5.3518e-05	5.4836e-05	402.8	177.01	157	80.414	5.3339e-05	100.58	191.950	248.254	286.207	122.345	325.130	198.527	120.077	127.997	321.069	215.401	124.114	127.655	131.041	134.044	264.386	129.430	-8191	255	
1054.452	1	1	0	0	0.37467	0.13944	0.015044	0.37168	0.091103	0.2918	0.49494	0.14563	0.056672	0.16274	0.055189	0.25322	0.30648	0.15109	0.14984	0.20561	-1	-0.97292	-0.67083	-1.3708	-0.475	-1.0979	-1.3167	-0.56667	-1.1521	-0.95625	-0.875	-1.5729	-0.77708	-1.1187	-1.1104	-0.58333	170.686	343.923	411.761	434.413	334.692	356.104	406.216	110.650	158.485	345.747	355.701	112.318	412.600	244.181	380.084	163.986	0.00077551	0.00071348	0.00024426	563.9	1.0712e-05	1.2583e-05	737.1	238.43	1.1517e-05	9.5137e-06	330.28	154.52	123.92	76.264	1.6242e-05	94.998	0.0044086	0.0048514	0.0013203	715.48	5.0358e-05	4.9645e-05	845.78	269.6	4.7082e-05	4.8451e-05	390.17	172.39	152.39	79.233	4.737e-05	98.952	201.410	458.372	112.226	121.679	315.782	113.345	120.693	127.569	280.772	232.823	124.095	127.650	131.373	134.067	180.829	129.646	-8191	255	
1054.548	1	1	0	0	0.11482	0.075939	0.19039	0.27347	0.075262	0.18375	0.34003	0.13951	0.17129	0.15142	0.16132	0.32422	0.19088	0.37236	0.084343	0.22647	-0.95208	-0.97292	-0.80208	-1.6417	-0.55	-0.83542	-1.5021	-0.79375	-1.2917	-0.90208	-0.55208	-1.625	-1.0979	-1.0187	-1.2958	-0.75625	365.575	306.849	442.330	433.112	331.391	167.055	441.637	138.746	436.029	445.479	469.538	453.009	412.091	414.800	288.558	435.708	0.00095094	0.00075223	0.0002577	560.31	1.2755e-05	1.7423e-05	734.96	237.33	1.1761e-05	7.9224e-06	329.3	154.88	123.65	76.487	1.5448e-05	94.959	0.0039082	0.0043165	0.0011851	694.91	4.6322e-05	4.6166e-05	833.06	267.09	4.4533e-05	4.6705e-05	386.62	171.13	150.55	79.155	4.5582e-05	98.9	204.966	203.934	220.938	122.009	327.610	198.172	120.411	127.588	446.158	239.192	123.928	127.398	130.896	134.104	161.188	129.827	-8191	255	
1054.668	1	1	0	0	0.037859	0.087355	0.23617	0.03855	0.097346	0.39072	0.2939	0.39863	0.20138	0.16997	0.085392	0.074827	0.16675	0.28118	0.28973	0.24427	-0.94167	-1.125	-0.34583	-1.5396	-0.77917	-0.6375	-1.5625	-0.75833	-0.96667	-1.1792	-0.82708	-1.3854	-0.88542	-0.93333	-1.3563	-0.80208	255.977	230.902	360.286	134.283	160.215	268.401	318.149	423.270	155.055	258.399	401.739	333.658	178.099	461.761	314.754	374.374	0.00089464	0.001426	0.00022859	563.37	4.1467e-06	1.6122e-05	739.02	237.74	5.9258e-06	2.2344e-05	329.83	155.77	123.88	76.609	7.5566e-06	96.038	0.0037937	0.0042149	0.001161	689.93	4.5836e-05	4.612e-05	835.67	267.18	4.6094e-05	4.758e-05	390.94	173.12	152.47	79.699	4.7366e-05	99.796	191.901	193.732	142.710	122.157	348.424	239.258	120.412	127.806	206.014	270.810	124.008	127.861	131.414	134.099	211.393	129.725	-8191	255	
1054.765	1	1	0	0	0.013772	0.11598	0.19458	0.099659	0.051587	0.15405	0.06793	0.03662	0.206	0.11091	0.085896	0.17622	0.19018	0.028508	0.11301	0.12177	-0.49792	-1.2896	-0.56667	-1.3646	-1.0958	-0.83958	-1.7167	-0.76875	-0.90417	-1.4271	-0.6125	-1.4417	-1.0833	-1.0562	-1.2542	-0.80833	383.693	170.361	388.147	241.050	242.273	144.513	252.336	208.343	314.217	251.886	427.271	389.543	132.206	130.403	293.514	344.484	0.0010381	0.0019921	0.00027731	559.02	1.4026e-05	3.5609e-05	741.61	238.52	6.5687e-06	1.9186e-05	331.67	156.98	124.34	76.813	1.0619e-05	95.515	0.0039601	0.0043614	0.0011919	693.81	4.708e-05	4.6782e-05	838.08	267.82	4.5407e-05	4.6709e-05	389.23	172.96	152.03	79.737	4.5622e-05	99.725	191.994	132.942	156.417	122.860	335.663	242.762	120.539	127.780	314.334	295.111	123.841	127.781	130.744	133.883	274.538	129.754	-8191	255	
1054.859	1	1	0	0	0.098199	0.17247	0.14602	0.1087	0.15842	0.15569	0.24891	0.10393	0.27713	0.1603	0.38719	0.32819	0.038477	0.13669	0.10402	0.19535	-0.29792	-1.4521	-0.62083	-1.3458	-1.0667	-0.63333	-1.5542	-0.85208	-0.67083	-1.5	-0.62083	-1.1437	-1.2062	-0.65833	-1.4229	-0.84167	206.258	289.351	130.505	282.472	184.279	358.975	119.040	425.035	118.603	205.718	410.952	418.653	303.855	309.755	162.429	401.721	0.00083559	0.00047537	0.00035662	557.25	1.0292e-05	1.235e-05	738.36	237.89	4.7141e-06	1.5831e-05	328.05	155.84	124.59	76.124	8.1842e-06	94.791	0.0039335	0.0042929	0.0011917	692.83	4.7669e-05	4.7157e-05	834.67	268.59	4.7067e-05	4.7791e-05	389.54	172.45	152.66	79.346	4.6712e-05	98.987	205.245	242.874	440.228	122.671	304.069	237.411	120.508	127.428	140.393	266.015	124.099	127.785	131.299	134.252	207.880	129.752	-8191	255	
1054.957	1	1	0	0	0.028395	0.092775	0.14971	0.14065	0.075322	0.15993	0.1418	0.10599	0.2219	0.063383	0.071391	0.1074	0.21172	0.28412	0.11667	0.12307	-0.425	-1.3229	-0.59375	-1.2458	-0.95417	-0.425	-1.4188	-1.1125	-0.7625	-1.1979	-0.84167	-1.1125	-1.3458	-0.71458	-1.4333	-1.2896	123.587	204.458	267.426	166.642	235.865	247.629	374.407	174.358	342.811	416.578	460.160	204.154	169.383	176.151	264.937	387.996	0.0010466	0.0016862	0.00061986	560.41	6.7918e-06	1.3613e-05	735.6	236.86	1.0745e-05	1.1876e-05	326.23	154.69	124.99	76.238	1.1187e-05	94.362	0.0040373	0.0043197	0.0012091	695.73	4.7463e-05	4.7372e-05	831.94	267.75	4.6217e-05	4.6827e-05	387.49	171.81	152.02	79.321	4.6104e-05	98.949	197.897	138.381	169.955	122.690	232.275	385.341	120.886	127.742	302.592	465.608	123.990	127.918	131.961	134.117	316.206	130.063	-8191	255	
1055.051	1	1	0	0	0.2024	0.23646	0.22091	0.15207	0.21773	0.12444	0.2372	0.222	0.067386	0.13512	0.30963	0.085986	0.20796	0.29363	0.23593	0.2649	-0.4625	-1.3208	-0.5875	-1.1708	-1.2021	-0.50833	-1.3917	-1.3271	-0.55417	-1.4771	-1.0104	-0.90417	-1.4083	-0.95	-1.3	-1.2917	227.601	127.063	124.671	395.466	198.263	158.123	459.358	207.735	158.593	406.488	113.723	424.552	460.481	129.295	299.545	457.651	0.00091718	0.0013296	0.00048872	556.07	6.3017e-06	7.502e-06	736.38	238.72	7.7911e-06	1.1405e-05	330.99	154.31	123.88	76.331	1.908e-05	95.382	0.0039398	0.0042642	0.0012027	693.79	4.7353e-05	4.7191e-05	831.16	268.44	4.6382e-05	4.6622e-05	388.86	172.03	151.88	79.515	4.6297e-05	99.643	200.982	174.767	178.810	122.583	197.313	172.669	121.012	127.653	288.843	254.601	124.164	127.747	131.615	133.752	203.410	129.387	-8191	255	
1055.147	1	1	0	0	0.20688	0.1499	0.056668	0.22759	0.27309	0.104	0.20073	0.27056	0.16657	0.17135	0.39469	0.099837	0.20172	0.24501	0.25198	0.31481	-0.13333	-1.5063	-0.86042	-0.75625	-1.3062	-0.44375	-1.3167	-1.475	-0.5625	-1.3792	-1.0562	-0.875	-1.4583	-0.82708	-0.96042	-1.2667	428.144	180.444	326.589	418.127	319.426	226.619	434.569	410.976	152.412	308.083	406.188	320.076	437.677	351.975	269.662	421.628	0.00074111	0.00081766	0.00019343	559.14	5.1275e-06	1.1297e-05	737.01	238.19	1.2251e-05	2.2139e-05	332.4	154.61	124.54	77.182	9.7918e-06	96.297	0.0039729	0.0042315	0.001212	695.55	4.6817e-05	4.731e-05	835.7	269.03	4.6532e-05	4.6572e-05	392	172.76	151.85	79.8	4.6008e-05	100.35	204.082	410.312	203.586	122.178	221.903	394.353	120.503	127.203	298.886	267.199	124.107	127.599	130.588	133.759	225.417	129.577	-8191	255	
1055.268	1	1	0	0	0.23102	0.15377	0.051287	0.10239	0.17949	0.097449	0.24397	0.14273	0.13279	0.30296	0.14683	0.18011	0.21293	0.1892	0.27736	0.15193	-0.095833	-1.2396	-0.78958	-0.65	-1.1437	-0.80625	-1.0875	-1.4771	-0.375	-1.0833	-0.94792	-0.53542	-1.5229	-0.98542	-0.69792	-1.4979	342.381	433.837	452.763	249.486	391.938	395.378	368.545	370.561	385.039	339.929	380.108	147.990	271.062	445.982	286.782	191.045	0.00072094	0.0013502	0.00060611	558.88	3.0729e-06	3.1587e-05	742.54	239.86	5.2195e-06	2.0725e-06	330.25	155.96	123.34	76.328	2.0766e-05	95.648	0.0039321	0.004187	0.0011925	693.7	4.5848e-05	4.6734e-05	837.71	269.12	4.6326e-05	4.6467e-05	391.74	173.36	152.2	79.613	4.6822e-05	100.04	196.072	184.971	429.477	122.484	357.414	197.721	120.373	127.404	235.570	408.051	123.839	127.324	131.006	133.533	216.725	129.462	-8191	255	
1055.364	1	1	0	0	0.21433	0.086633	0.022751	0.25159	0.12194	0.19266	0.25527	0.2995	0.12401	0.45107	0.32645	0.06894	0.12711	0.22078	0.23127	0.19409	-0.033333	-1.2417	-0.93333	-0.30625	-1.2667	-0.79583	-0.86458	-1.1917	-0.42292	-1.1021	-1.3729	-0.74167	-1.3125	-1.1646	-0.72292	-1.4292	149.739	391.218	195.301	434.109	225.122	177.635	149.108	434.813	190.702	322.563	398.466	373.578	442.913	416.876	174.973	409.307	0.00082748	0.002025	0.00027096	557.77	4.2422e-06	6.2326e-06	735.87	239.16	6.0233e-06	8.9927e-06	331.12	154.78	124.98	76.049	7.0857e-06	94.916	0.0040396	0.0042915	0.0012265	696.03	4.6464e-05	4.7938e-05	835.81	268.57	4.6735e-05	4.6788e-05	390.59	172.4	151.74	79.387	4.6252e-05	98.735	198.479	311.860	152.068	121.753	128.438	247.037	119.994	127.263	262.904	152.495	123.832	127.699	131.303	133.656	308.908	129.281	-8191	255	
1055.459	1	1	0	0	0.23642	0.21617	0.10302	0.10535	0.14143	0.12578	0.22337	0.10004	0.15172	0.10094	0.30638	0.27212	0.054082	0.097773	0.049672	0.34857	-0.12292	-0.95625	-0.82292	-0.3875	-1.2667	-0.87083	-0.7375	-1.4396	-0.38125	-0.85208	-1.3396	-0.68542	-1.3021	-0.98125	-0.50833	-1.8167	297.571	255.809	395.438	455.425	248.982	243.637	380.829	374.554	151.288	161.640	430.577	138.460	313.490	130.339	404.100	398.020	0.00094217	0.0015365	0.000185	561.04	6.7075e-06	3.0216e-06	736.43	237.84	7.6312e-06	6.4926e-06	330.09	155.36	123.76	76.113	8.2086e-06	95.135	0.0039279	0.0041762	0.0011882	691.04	4.5469e-05	4.6811e-05	831.48	266.59	4.5822e-05	4.572e-05	388.34	171.77	150.33	79.284	4.5791e-05	99.013	196.121	246.940	366.831	121.944	248.550	347.745	120.023	127.430	308.661	219.754	123.316	126.860	131.517	133.517	121.361	129.540	-8191	255	
1055.555	1	1	0	0	0.22484	0.039491	0.042019	0.33717	0.29304	0.18494	0.019539	0.1476	0.069339	0.27082	0.070577	0.32542	0.19385	0.065317	0.13042	0.24653	-0.36458	-0.94375	-1.0542	-0.30833	-1.0187	-1.0958	-0.75833	-1.675	-0.75417	-0.7625	-1.4042	-0.6875	-1.1313	-1.4792	-0.30625	-1.8021	278.877	149.187	250.477	140.042	147.057	379.143	138.147	393.938	376.224	192.088	144.805	394.980	425.123	444.386	185.622	373.521	0.00096596	0.00086462	0.00037609	555.46	1.093e-05	2.3252e-05	743.35	238.47	7.5466e-06	1.7004e-05	331.45	155.45	124.36	76.408	1.7458e-05	95.994	0.0039265	0.0042136	0.0011841	692.54	4.5583e-05	4.7442e-05	835.87	267.31	4.6118e-05	4.6321e-05	390.42	173.24	151.45	79.676	4.6756e-05	99.91	210.081	151.587	454.472	122.472	308.115	322.294	120.160	127.884	250.231	318.216	123.647	127.488	131.232	133.673	267.607	129.490	-8191	255	
1055.651	1	1	0	0	0.11035	0.14811	0.18768	0.16977	0.095785	0.24581	0.30634	0.38381	0.19687	0.19037	0.37044	0.10032	0.23403	0.13452	0.10669	0.083999	-0.53333	-0.83333	-1.4188	-0.47083	-1.0021	-0.94167	-0.63125	-1.4688	-0.75417	-0.69167	-1.6333	-0.84375	-1.25	-1.2417	-0.29167	-1.7042	352.073	228.164	391.918	436.517	407.380	412.554	375.605	418.677	194.882	219.593	446.357	435.292	379.859	380.781	445.840	438.794	0.00090128	0.00033464	0.00096995	563.31	2.6375e-06	1.7682e-05	745.26	239.54	1.0255e-05	9.6637e-06	332.86	156.69	124.63	76.938	2.0268e-05	96.061	0.0040442	0.0042988	0.0012079	699.9	4.721e-05	4.864e-05	846.89	270.3	4.9648e-05	4.9924e-05	398.28	175.93	154.55	80.396	4.9351e-05	100.64	197.442	116.342	229.721	122.173	391.639	111.742	120.472	127.521	371.936	225.676	124.101	127.635	131.075	133.967	248.210	129.848	-8191	255	
1055.747	1	1	0	0	0.17826	0.32105	0.18755	0.10082	0.1303	0.099627	0.37268	0.017457	0.10378	0.1451	0.19343	0.22482	0.1421	0.37382	0.15442	0.13648	-0.55	-0.49167	-1.4188	-0.7375	-0.98333	-1.0542	-0.58333	-1.5104	-0.82917	-0.6	-1.5063	-0.76042	-1.0958	-1.3354	-0.52917	-1.0667	137.577	134.516	186.006	128.804	439.237	234.977	418.906	200.866	273.527	151.893	393.230	135.082	149.978	447.974	249.428	383.127	0.00071531	0.000691	0.00044142	564.11	1.1911e-05	2.8145e-05	741.07	238.76	6.8642e-06	6.0536e-06	331.27	154.81	124.72	76.474	4.1298e-06	94.957	0.0042117	0.0044886	0.001238	704.33	4.8256e-05	4.9139e-05	844.83	269.95	4.9062e-05	4.9359e-05	394.6	174.55	153.86	80.023	4.9457e-05	99.853	203.434	374.964	247.522	122.536	455.791	348.937	120.512	127.647	250.791	444.636	124.324	127.661	131.619	133.588	231.710	129.708	-8191	255	
1055.868	1	1	0	0	0.12097	0.18133	0.31953	0.089401	0.23879	0.34257	0.26892	0.2129	0.20572	0.23243	0.1085	0.20561	0.24114	0.24797	0.076375	0.42348	-0.49167	-0.64375	-1.2437	-0.94583	-0.8875	-1.1646	-0.62083	-1.2	-0.93125	-0.72083	-1.4562	-0.60417	-0.92708	-1.5292	-0.32917	-1.2812	221.737	258.249	119.150	308.439	165.418	253.456	420.652	303.568	169.850	297.812	239.417	419.944	395.082	414.363	367.050	441.958	0.00081524	0.0011826	0.00036087	560.14	1.5525e-05	2.0479e-05	741.19	238.93	7.1872e-06	8.6851e-06	326.52	153.96	124.04	76.468	1.7558e-05	94.486	0.0042478	0.0045534	0.0012556	708.02	4.91e-05	4.9992e-05	843.78	269.97	4.9685e-05	4.9517e-05	392.23	173.52	153.88	79.789	4.9605e-05	99.485	186.570	234.211	382.201	121.871	192.999	391.524	120.201	127.718	251.510	386.201	124.303	127.635	131.586	133.771	255.875	129.651	-8191	255	
1055.964	1	1	0	0	0.35337	0.19417	0.12734	0.14175	0.10398	0.10794	0.28073	0.23705	0.25057	0.046475	0.26992	0.17974	0.34843	0.20491	0.29711	0.17946	-0.61042	-0.34792	-1.2646	-1.0146	-0.66667	-1.4771	-0.70208	-1.1958	-1.1562	-0.54583	-1.5604	-1.0167	-0.51458	-1.6562	-0.775	-1.0896	361.919	418.139	364.059	217.738	246.793	212.924	419.435	450.030	358.658	203.016	443.464	143.675	112.216	388.476	381.164	141.802	0.00089935	0.0022555	0.00048566	558.59	1.9026e-05	3.9834e-06	734.36	238.49	1.303e-05	2.2108e-06	327.12	154.03	123.78	76.106	8.8495e-06	94.835	0.0043102	0.0046044	0.0012865	714.89	5.0883e-05	5.1328e-05	850.8	271.86	5.1547e-05	5.1498e-05	395.3	175.05	155.19	79.974	5.1119e-05	100.09	192.404	149.649	309.165	121.733	375.120	365.493	120.092	127.293	329.289	244.698	124.119	127.466	131.361	133.835	241.088	129.535	-8191	255	
1056.060	1	1	0	0	0.055132	0.22908	0.17259	0.4297	0.081411	0.23959	0.3666	0.21539	0.22243	0.27668	0.23461	0.19863	0.20189	0.26485	0.25931	0.034723	-0.79792	-0.7	-1.4562	-0.96042	-0.59792	-1.4292	-0.94375	-0.97917	-1.2708	-0.55833	-1.4125	-1.0688	-0.74583	-1.5458	-0.6	-1.0729	157.736	383.832	438.287	412.417	303.494	390.134	469.338	361.154	302.566	346.506	142.492	428.742	176.888	375.504	462.830	435.341	0.0010213	0.00069191	0.00046437	559.66	1.0182e-05	3.0305e-05	743.15	237.05	6.5375e-06	1.1797e-05	331.39	154.85	123.29	76.626	1.9947e-05	95.948	0.0043467	0.0046192	0.0012741	711.46	5.0368e-05	5.0408e-05	850.9	270.67	5.0462e-05	5.0877e-05	395.96	175.58	154.83	80.24	5.098e-05	100.72	197.851	449.852	215.026	122.394	124.516	213.296	120.205	127.575	335.958	362.807	124.033	127.542	131.411	134.037	313.030	129.758	-8191	255	
1056.156	1	1	0	0	0.16652	0.16174	0.31032	0.094543	0.22342	0.18159	0.093234	0.10636	0.35697	0.19219	0.18062	0.16667	0.16088	0.14539	0.055583	0.094424	-1.0729	-0.60208	-1.3146	-1.3708	-0.71042	-1.2	-0.82083	-0.76458	-1.4708	-0.58958	-1.0229	-1.5417	-0.60625	-1.6562	-0.65417	-1.025	174.249	326.125	220.915	405.263	368.939	235.684	209.296	179.980	448.273	405.392	267.149	435.025	436.837	385.067	411.869	161.822	0.00092096	0.0015953	0.00011375	556.41	1.0004e-05	1.3205e-05	735.71	237.93	7.1169e-06	7.4826e-06	329.58	156.4	123.69	76.752	1.5678e-06	95.807	0.0042729	0.0046048	0.0012806	713	5.004e-05	5.0261e-05	851.28	271.64	4.9735e-05	5.0073e-05	395.53	175.44	154.39	80.154	5.0377e-05	100.6	188.939	245.099	401.008	122.688	160.419	297.630	120.549	127.583	358.166	193.467	124.230	127.415	131.366	134.141	467.760	129.670	-8191	255	
1056.228	1	1	0	0	0.20854	0.12304	0.15529	0.16187	0.30294	0.1832	0.2075	0.20694	0.29276	0.22181	0.11743	0.19425	0.053283	0.20483	0.26092	0.36204	-1.1187	-0.47083	-0.92917	-1.5562	-0.45417	-1.3333	-0.94375	-0.58125	-1.5771	-0.67083	-1.0375	-1.4	-0.50417	-1.6771	-1.0208	-0.72708	374.344	112.227	131.482	394.183	245.250	277.071	451.854	206.895	209.738	184.006	116.379	408.298	399.569	466.975	450.193	395.197	0.00081288	0.00055401	0.00041707	560.29	1.9081e-05	1.5737e-05	736.35	236.66	1.3335e-05	2.0134e-05	327.15	153.72	123.6	75.971	1.3808e-06	94.495	0.0041998	0.0045643	0.0012682	709.91	4.954e-05	4.9991e-05	848.31	270.5	4.9751e-05	5.1374e-05	395.63	174.55	155.19	79.881	5.1614e-05	99.642	187.872	214.450	115.639	122.108	185.364	181.521	120.190	127.714	201.280	217.375	124.188	127.590	131.528	133.988	298.516	129.666	-8191	255	
1056.347	1	1	0	0	0.045983	0.35468	0.1887	0.16256	0.26865	0.16584	0.30307	0.095548	0.077453	0.19806	0.14423	0.18144	0.205	0.22645	0.17402	0.35575	-0.875	-0.52292	-1.0625	-1.6104	-0.66458	-1.2938	-1.2771	-0.55833	-1.6292	-0.62917	-0.77292	-1.6771	-1.0042	-1.2979	-1.1	-0.80625	163.163	447.752	140.830	279.161	398.568	187.117	324.116	153.854	187.039	395.036	430.036	362.880	117.854	382.920	418.772	391.065	0.0010197	0.0014939	0.00069982	556.68	8.4454e-06	9.4591e-06	738.01	236.32	1.4517e-05	2.7745e-05	324.54	153.34	123.88	76.14	1.5253e-05	94.336	0.0043042	0.0047404	0.001302	711.93	5.085e-05	5.1066e-05	849.49	271.18	5.0471e-05	5.2481e-05	395	174.49	155.6	80.013	5.2683e-05	99.802	198.357	124.864	189.438	121.992	451.998	127.201	120.656	127.562	243.753	252.824	124.024	127.318	131.798	134.040	200.709	129.698	-8191	255	
1056.443	1	1	0	0	0.05604	0.2347	0.048449	0.21326	0.16814	0.071567	0.26725	0.32582	0.12701	0.24633	0.47964	0.12672	0.39055	0.036762	0.022705	0.087657	-1.0146	-0.57292	-0.73125	-1.5583	-0.66458	-1.0146	-1.1625	-0.57292	-1.3042	-0.77708	-0.69375	-1.3229	-0.54583	-1.3792	-1.275	-0.66042	134.741	173.359	321.750	391.349	281.023	227.354	348.368	451.735	297.691	134.227	368.561	393.072	397.985	363.962	425.094	180.806	0.00083245	0.0013524	0.00023156	557.39	8.8786e-06	1.0441e-05	735.73	236.96	8.0054e-06	1.403e-05	326.21	154.45	124.31	76.383	4.2906e-06	95.166	0.0043625	0.0048591	0.0013279	715.89	5.221e-05	5.2167e-05	854.97	272.5	5.0936e-05	5.2959e-05	397.58	174.72	155.53	80.184	5.1894e-05	100.48	198.487	452.508	267.305	122.320	284.175	218.992	120.637	127.836	315.231	230.138	123.996	127.589	131.241	134.496	169.404	130.011	-8191	255	
1056.539	1	1	0	0	0.11212	0.13202	0.17956	0.29642	0.097233	0.14063	0.2801	0.12113	0.13137	0.3053	0.10059	0.095822	0.13997	0.37557	0.045383	0.19845	-1.0042	-0.89792	-0.69167	-1.525	-0.70625	-0.775	-1.3896	-0.71667	-1.1688	-1.15	-0.72917	-1.5729	-0.63958	-1.0646	-1.3333	-0.87708	338.136	261.623	345.077	141.245	110.055	450.532	468.614	340.942	405.269	253.408	292.724	442.648	213.546	407.361	322.484	438.636	0.00095248	0.0020235	0.00049112	560.57	1.4053e-05	1.6636e-05	738.52	238.04	8.5472e-06	1.5222e-05	332.11	155.86	124.73	76.701	1.8568e-05	95.773	0.0043108	0.0047604	0.001301	710.67	5.1715e-05	5.1138e-05	851.27	271.68	4.9659e-05	5.1197e-05	395.89	175.08	155.15	80.493	5.0391e-05	101.12	201.641	286.279	122.138	123.110	139.546	235.315	120.325	127.739	229.728	118.998	124.367	128.120	131.260	134.480	259.449	129.529	-8191	255	
1056.635	1	1	0	0	0.1935	0.12729	0.13588	0.20207	0.13411	0.29086	0.19192	0.064414	0.11704	0.13118	0.27542	0.13499	0.25845	0.50561	0.14074	0.37246	-0.59167	-0.82708	-0.52083	-1.6917	-0.7375	-0.5125	-1.4188	-0.68125	-1.0021	-1.2021	-0.57083	-1.5958	-1.0125	-0.9375	-1.2729	-0.86875	115.737	151.944	226.393	128.002	124.267	389.975	156.147	373.956	274.239	293.138	218.960	430.826	204.209	395.997	385.719	412.847	0.0009647	0.0011082	0.00023684	560.74	1.4207e-05	9.4405e-06	748.05	235.97	1.0234e-05	6.498e-06	330.18	155.61	124.14	76.474	1.1438e-05	95.378	0.0042989	0.0047429	0.0013014	712.51	5.1936e-05	5.1885e-05	860.14	273.2	5.1975e-05	5.3628e-05	401.97	177.13	158.14	80.901	5.3836e-05	101.57	193.256	242.333	167.792	122.156	201.499	276.999	120.505	127.375	230.336	151.257	124.182	127.710	130.715	133.897	292.836	129.551	-8191	255	
1056.756	1	1	0	0	0.11294	0.24571	0.31505	0.090899	0.14815	0.16126	0.24184	0.38025	0.24432	0.027324	0.22573	0.35747	0.43699	0.13245	0.26475	0.14086	-0.63333	-1.2396	-0.68125	-1.2583	-0.84375	-0.55625	-1.5187	-0.73542	-0.68542	-1.2583	-0.75417	-1.4104	-1.2458	-0.82292	-1.4229	-0.81667	355.258	292.521	438.044	415.267	377.456	452.038	422.000	468.926	258.933	356.748	378.364	438.458	160.493	410.888	301.515	394.903	0.00098085	0.0012707	0.00080514	562.73	1.4524e-05	1.5543e-05	743.61	237.85	3.1444e-06	1.1197e-05	328.5	154.68	124.01	75.952	1.6675e-05	94.853	0.00462	0.0050815	0.0014096	728.42	5.6105e-05	5.5569e-05	867.62	275.53	5.4245e-05	5.5092e-05	402.54	176.45	158.2	80.345	5.3328e-05	100.85	204.371	461.973	201.022	121.700	258.522	379.609	120.050	127.276	397.394	365.236	123.465	127.429	130.845	133.520	283.003	129.364	-8191	255	
1056.852	1	1	0	0	0.33455	0.17719	0.21914	0.045289	0.078274	0.23115	0.23818	0.31746	0.16663	0.19288	0.10574	0.32804	0.21919	0.20392	0.18791	0.26681	-0.51458	-1.1542	-0.42708	-1.15	-1.1604	-0.69792	-1.4979	-0.6875	-0.85417	-1.4229	-0.56875	-1.3375	-1.0229	-0.69375	-1.2938	-1.0708	384.126	262.034	350.865	246.089	119.576	217.017	449.596	328.962	185.349	300.929	177.586	116.795	306.891	467.604	187.298	423.740	0.0008883	0.0011633	0.00044602	564.01	1.668e-05	2.2168e-05	737.53	236.31	4.1879e-06	6.0289e-06	327.34	154.42	123.72	76.149	1.6552e-05	95.056	0.0044816	0.0049467	0.001369	721.02	5.4088e-05	5.3732e-05	858.39	274.69	5.3045e-05	5.4022e-05	400.72	176.05	157.6	80.358	5.2766e-05	101.1	203.868	116.566	276.050	122.150	249.827	302.227	120.237	127.393	244.209	410.488	123.535	126.888	130.593	133.582	259.861	129.302	-8191	255	
1056.948	1	1	0	0	0.096954	0.21149	0.0974	0.19845	0.17389	0.15821	0.3468	0.27545	0.07532	0.13801	0.14164	0.056755	0.15041	0.353	0.22661	0.44144	-0.45208	-1.2667	-0.6375	-1.2667	-1.0542	-0.46042	-1.4438	-0.96042	-0.58542	-1.5167	-0.74583	-1.2	-1.1917	-0.79375	-1.4083	-1.1562	442.096	416.459	133.928	412.569	441.029	266.009	152.115	452.419	375.228	128.411	454.692	381.940	191.609	390.095	170.338	417.125	0.00084116	0.0010642	0.0007911	560.14	5.4925e-06	6.1895e-06	739.78	236.09	1.7419e-05	1.3695e-05	329.52	155.27	124.13	76.686	1.2894e-05	95.77	0.0044839	0.0048498	0.0013538	718.11	5.3083e-05	5.2876e-05	856.37	273.33	5.1951e-05	5.262e-05	401.06	176.52	157.32	80.606	5.2147e-05	101.34	189.684	232.913	190.757	122.017	219.140	380.190	120.452	127.388	226.106	283.006	123.524	127.594	130.964	133.722	154.347	129.578	-8191	255	
1057.044	1	1	0	0	0.1111	0.10354	0.11654	0.2742	0.11929	0.1381	0.36216	0.28512	0.28383	0.12896	0.11933	0.23552	0.17404	0.18119	0.17412	0.27133	-0.29792	-1.4146	-0.6	-1.1646	-1.1	-0.30208	-1.2646	-1.0854	-0.54792	-1.4229	-0.77083	-0.94792	-1.5021	-0.69583	-1.0646	-1.45	467.406	240.760	323.673	462.279	343.207	323.055	411.192	121.743	272.884	393.364	386.786	453.471	462.888	391.420	145.181	415.135	0.00099207	0.0016964	0.00038804	561.05	9.7039e-06	2.3478e-05	742.14	237.61	6.2494e-06	1.4803e-06	332.38	155.81	126.22	76.679	6.352e-06	95.705	0.0044694	0.004837	0.0013735	722.6	5.3591e-05	5.3665e-05	864.78	275.28	5.301e-05	5.3757e-05	405.68	177.58	158.16	81.02	5.3366e-05	101.8	204.973	272.749	214.289	122.245	232.244	384.728	120.064	127.303	354.247	284.757	123.063	127.400	131.195	133.950	148.898	129.492	-8191	255	
1057.140	1	1	0	0	0.21981	0.19892	0.1411	0.053139	0.21159	0.10939	0.22297	0.23276	0.22295	0.079116	0.071119	0.063684	0.20609	0.49748	0.32828	0.21149	-0.3	-1.2354	-0.75208	-0.95	-1.3396	-0.65833	-1.2875	-1.4104	-0.53125	-1.3083	-1.0271	-0.76667	-1.4667	-0.9125	-1.2083	-1.3813	452.358	384.789	465.063	398.449	341.345	128.840	456.325	448.279	177.558	236.640	115.090	414.691	111.580	465.268	450.537	460.929	0.00070803	0.0019577	0.00035037	559.38	1.0032e-05	2.1466e-05	739.68	238.47	9.9956e-06	3.7034e-06	326.03	154.87	123.63	76.321	1.5241e-05	94.876	0.0045387	0.00494	0.0014014	725.18	5.4177e-05	5.5107e-05	863.88	275.33	5.3606e-05	5.4018e-05	402.66	176.6	156.92	80.595	5.3046e-05	100.9	194.515	162.135	166.773	122.066	309.438	242.421	120.145	127.363	277.630	217.135	123.970	127.328	131.010	133.970	305.568	129.295	-8191	255	
#DATA ENDS
