BOXY.EXE: ISS Imagent and Oximeter Data Acquisition Program Version 0.80
Ascii Record File

#ACQ INFORMATION
2  Detector Channels 
16  External MUX Channels 
1  Auxiliary Channels 
5000  Waveform (CCF) Frequency (Hz)
1  Waveforms Skipped 
30  Waveforms Averaged 
1  Cycles Averaged 
16  Acquisitions per Waveform 
10.0806  Updata Rate (Hz) 

#FILE INFORMATION
TRUE -- External MUX Channel results are PARSED.
FALSE -- AC DC and Phase are NOT grouped.
TRUE -- Companion Program Settings File CREATED.
FALSE -- AC data not excluded
FALSE -- DC data not excluded
FALSE -- Phase data not excluded
FALSE -- Auxillary Chn. data not excluded
Tab delimiters

#CALIBRATION STATE
TRUE -- Waveform Calibration Values APPLIED.


#AUX CALIBRATION VALUES
Val Type	aux-1	

Term	1.0000e+00	
Factor	0.0000e+00	


#WF CALIBRATION VALUES
A = Detector Channel
Val Type	A-AC1	A-AC2	A-AC3	A-AC4	A-AC5	A-AC6	A-AC7	A-AC8	A-AC9	A-AC10	A-AC11	A-AC12	A-AC13	A-AC14	A-AC15	A-AC16	A-DC1	A-DC2	A-DC3	A-DC4	A-DC5	A-DC6	A-DC7	A-DC8	A-DC9	A-DC10	A-DC11	A-DC12	A-DC13	A-DC14	A-DC15	A-DC16	A-Ph1	A-Ph2	A-Ph3	A-Ph4	A-Ph5	A-Ph6	A-Ph7	A-Ph8	A-Ph9	A-Ph10	A-Ph11	A-Ph12	A-Ph13	A-Ph14	A-Ph15	A-Ph16	

Term	0.00000e+00	0.00000e+00	0.00000e+00	0.00000e+00	0.00000e+00	0.00000e+00	0.00000e+00	0.00000e+00	0.00000e+00	0.00000e+00	0.00000e+00	0.00000e+00	0.00000e+00	0.00000e+00	0.00000e+00	0.00000e+00	0.00000e+00	0.00000e+00	0.00000e+00	0.00000e+00	0.00000e+00	0.00000e+00	0.00000e+00	0.00000e+00	0.00000e+00	0.00000e+00	0.00000e+00	0.00000e+00	0.00000e+00	0.00000e+00	0.00000e+00	0.00000e+00	0.00000e+00	0.00000e+00	0.00000e+00	0.00000e+00	0.00000e+00	0.00000e+00	0.00000e+00	0.00000e+00	0.00000e+00	0.00000e+00	0.00000e+00	0.00000e+00	0.00000e+00	0.00000e+00	0.00000e+00	0.00000e+00	
Factor	1.00000e+00	1.00000e+00	1.00000e+00	1.00000e+00	1.00000e+00	1.00000e+00	1.00000e+00	1.00000e+00	1.00000e+00	1.00000e+00	1.00000e+00	1.00000e+00	1.00000e+00	1.00000e+00	1.00000e+00	1.00000e+00	1.00000e+00	1.00000e+00	1.00000e+00	1.00000e+00	1.00000e+00	1.00000e+00	1.00000e+00	1.00000e+00	1.00000e+00	1.00000e+00	1.00000e+00	1.00000e+00	1.00000e+00	1.00000e+00	1.00000e+00	1.00000e+00	X	X	X	X	X	X	X	X	X	X	X	X	X	X	X	X	

B = Detector Channel
Val Type	B-AC1	B-AC2	B-AC3	B-AC4	B-AC5	B-AC6	B-AC7	B-AC8	B-AC9	B-AC10	B-AC11	B-AC12	B-AC13	B-AC14	B-AC15	B-AC16	B-DC1	B-DC2	B-DC3	B-DC4	B-DC5	B-DC6	B-DC7	B-DC8	B-DC9	B-DC10	B-DC11	B-DC12	B-DC13	B-DC14	B-DC15	B-DC16	B-Ph1	B-Ph2	B-Ph3	B-Ph4	B-Ph5	B-Ph6	B-Ph7	B-Ph8	B-Ph9	B-Ph10	B-Ph11	B-Ph12	B-Ph13	B-Ph14	B-Ph15	B-Ph16	

Term	0.00000e+00	0.00000e+00	0.00000e+00	0.00000e+00	0.00000e+00	0.00000e+00	0.00000e+00	0.00000e+00	0.00000e+00	0.00000e+00	0.00000e+00	0.00000e+00	0.00000e+00	0.00000e+00	0.00000e+00	0.00000e+00	0.00000e+00	0.00000e+00	0.00000e+00	0.00000e+00	0.00000e+00	0.00000e+00	0.00000e+00	0.00000e+00	0.00000e+00	0.00000e+00	0.00000e+00	0.00000e+00	0.00000e+00	0.00000e+00	0.00000e+00	0.00000e+00	-9.16924e+01	-1.29767e+02	-1.18293e+02	-1.86930e+02	-6.15527e+01	-7.43525e+01	-1.57927e+02	-1.62015e+02	-5.46448e+01	-6.47678e+01	-1.74803e+02	-1.71738e+02	-1.79902e+02	-1.78143e+02	-6.55759e+01	-1.51148e+02	
Factor	1.34725e-05	1.20035e-04	3.44946e-05	2.75324e-01	1.14839e-06	1.47898e-06	1.54831e-01	4.40518e-02	8.52034e-07	1.53134e-06	8.28116e-02	2.37421e-02	1.84838e-02	7.33700e-03	1.05337e-06	1.06775e-02	4.48628e-06	5.69377e-06	1.58866e-06	1.45487e-01	6.13995e-08	6.28015e-08	7.73109e-02	2.36346e-02	6.06459e-08	6.30374e-08	4.27097e-02	1.23527e-02	1.00779e-02	3.96030e-03	6.13034e-08	5.55185e-03	X	X	X	X	X	X	X	X	X	X	X	X	X	X	X	X	



#DISTANCE SETTINGS
A = Detector Channel
A-1	A-2	A-3	A-4	A-5	A-6	A-7	A-8	A-9	A-10	A-11	A-12	A-13	A-14	A-15	A-16	

2.5000e+00	3.0000e+00	2.5000e+00	3.0000e+00	2.0000e+00	3.0000e+00	1.5000e+00	3.0000e+00	3.0000e+00	3.0000e+00	3.0000e+00	3.0000e+00	3.0000e+00	3.0000e+00	1.5000e+00	3.0000e+00	

B = Detector Channel
B-1	B-2	B-3	B-4	B-5	B-6	B-7	B-8	B-9	B-10	B-11	B-12	B-13	B-14	B-15	B-16	

1.0000e+01	1.0000e+01	1.0000e+01	1.4400e+00	1.0000e+01	1.0000e+01	1.5100e+00	1.9400e+00	1.0000e+01	1.0000e+01	1.9900e+00	2.4900e+00	2.4100e+00	2.9000e+00	1.0000e+01	2.9800e+00	




#DATA BEGINS
time	group	step	mark	flag	A-AC1	A-AC2	A-AC3	A-AC4	A-AC5	A-AC6	A-AC7	A-AC8	A-AC9	A-AC10	A-AC11	A-AC12	A-AC13	A-AC14	A-AC15	A-AC16	A-DC1	A-DC2	A-DC3	A-DC4	A-DC5	A-DC6	A-DC7	A-DC8	A-DC9	A-DC10	A-DC11	A-DC12	A-DC13	A-DC14	A-DC15	A-DC16	A-Ph1	A-Ph2	A-Ph3	A-Ph4	A-Ph5	A-Ph6	A-Ph7	A-Ph8	A-Ph9	A-Ph10	A-Ph11	A-Ph12	A-Ph13	A-Ph14	A-Ph15	A-Ph16	B-AC1	B-AC2	B-AC3	B-AC4	B-AC5	B-AC6	B-AC7	B-AC8	B-AC9	B-AC10	B-AC11	B-AC12	B-AC13	B-AC14	B-AC15	B-AC16	B-DC1	B-DC2	B-DC3	B-DC4	B-DC5	B-DC6	B-DC7	B-DC8	B-DC9	B-DC10	B-DC11	B-DC12	B-DC13	B-DC14	B-DC15	B-DC16	B-Ph1	B-Ph2	B-Ph3	B-Ph4	B-Ph5	B-Ph6	B-Ph7	B-Ph8	B-Ph9	B-Ph10	B-Ph11	B-Ph12	B-Ph13	B-Ph14	B-Ph15	B-Ph16	aux-1	digaux	

881.420	1	1	0	256	0.10616	0.056574	0.10426	0.078981	0.13353	0.14777	0.1989	0.10206	0.20167	0.2197	0.19057	0.183	0.14029	0.2493	0.16583	0.15803	-2.2667	-1.7729	-2.5	-2.5083	-1.9021	-2.9875	-2.1312	-2.0312	-2.8708	-1.9562	-2.4375	-2.5042	-1.7896	-2.7875	-2.1021	-2.35	342.763	355.079	375.618	79.422	127.666	381.235	316.912	136.447	331.168	255.308	215.348	87.304	124.855	105.094	275.449	354.163	0.00030891	0.00047051	6.6337e-05	158	1.789e-06	4.3463e-06	290.47	70.363	1.7192e-06	4.0305e-06	146.34	71.15	34.163	19.243	2.6385e-06	41.606	0.00046475	0.000481	0.00013631	166.42	5.1996e-06	5.2565e-06	292	71.845	5.0052e-06	5.2664e-06	146.69	71.443	34.82	19.541	5.2087e-06	41.953	205.271	175.358	216.822	83.762	206.741	221.261	83.306	89.168	240.477	179.225	87.237	90.819	93.480	96.147	160.635	93.459	-8191	255	
881.539	1	1	0	0	0.030946	0.20938	0.26487	0.32835	0.16934	0.07905	0.18527	0.14936	0.35086	0.070814	0.14516	0.1819	0.1782	0.25555	0.19182	0.083676	-2.45	-1.9104	-2.1521	-2.5229	-1.7417	-2.7167	-2.1458	-2.4354	-2.6604	-1.7437	-2.2542	-2.7771	-1.6917	-2.6958	-2.3104	-1.9646	292.957	122.898	348.639	421.801	142.432	277.998	100.090	293.467	73.254	269.833	242.641	304.275	378.240	125.561	324.524	419.461	0.00031949	0.0002694	9.7616e-05	160.71	3.3578e-06	4.6668e-06	293.09	72.158	1.946e-06	2.0636e-06	148.54	72.414	34.774	19.714	2.6787e-06	42.97	0.0004479	0.00046888	0.00013441	167.83	5.0181e-06	4.9726e-06	294.73	73.082	4.767e-06	5.0452e-06	148.51	72.885	35.357	19.94	4.7273e-06	42.921	203.583	170.514	171.552	83.821	189.989	315.974	83.481	89.180	300.508	217.646	87.213	90.992	93.611	96.665	218.271	93.510	-8191	255	
881.635	1	1	0	0	0.15825	0.10414	0.26425	0.17287	0.20311	0.28031	0.18684	0.11568	0.42922	0.13654	0.14928	0.30728	0.16689	0.20706	0.23322	0.14979	-2.4083	-1.9813	-2.3042	-2.6146	-1.7042	-2.7083	-2.5125	-2.0479	-2.7208	-2.1333	-2.1188	-2.7	-1.7896	-2.8125	-2.3333	-2.1229	214.635	399.890	310.493	259.894	421.105	410.364	348.174	278.469	369.637	104.008	140.568	428.341	425.193	151.983	212.075	396.381	0.0003409	0.00019676	0.00010531	163.46	5.0259e-06	2.9453e-06	298.24	72.937	1.9109e-06	4.7876e-06	148.52	72.703	34.839	19.808	2.5473e-06	42.803	0.00043074	0.00042993	0.00012016	169.42	4.5662e-06	4.5204e-06	297.96	73.961	4.4638e-06	4.7637e-06	149.41	73.278	35.489	20.011	4.5694e-06	42.991	200.643	114.739	180.458	83.439	248.736	130.935	82.616	88.933	182.212	257.546	86.949	90.839	93.457	96.514	229.369	93.505	-8191	255	
881.731	1	1	0	0	0.043091	0.21314	0.36712	0.081085	0.16501	0.13782	0.30799	0.16651	0.1079	0.27795	0.031057	0.33814	0.35338	0.06988	0.10379	0.17101	-2.4917	-1.7833	-2.1583	-2.8208	-1.9479	-2.5333	-2.525	-1.7792	-2.7542	-2.0312	-2.2229	-2.8917	-1.8792	-2.4417	-2.5875	-1.8833	325.949	258.809	287.724	323.409	282.667	367.276	174.931	303.449	324.148	173.044	417.760	313.573	106.016	219.876	220.100	273.032	0.00031785	0.00028295	3.334e-05	164.41	1.2932e-06	5.3485e-06	295.17	72.649	2.4857e-06	4.8727e-06	148.33	72.107	34.951	19.555	2.2013e-06	42.603	0.00040704	0.00040646	0.00011651	169.21	4.5377e-06	4.6658e-06	296.17	73.491	4.3942e-06	4.6686e-06	148.98	72.603	35.212	19.875	4.5585e-06	42.58	198.769	220.233	324.465	83.714	235.779	240.226	82.770	88.631	262.028	219.720	86.662	91.137	93.757	96.065	177.756	93.181	-8191	255	
881.827	1	1	0	0	0.15602	0.28691	0.022437	0.20857	0.36854	0.030832	0.16456	0.075829	0.25613	0.35432	0.12954	0.23619	0.18627	0.15745	0.12013	0.053666	-2.4271	-2.2479	-1.9354	-2.8583	-1.9312	-2.275	-2.6667	-1.8271	-2.5333	-2.3042	-2.0563	-2.775	-2.0667	-2.25	-2.7979	-1.9792	289.958	280.445	141.869	408.245	283.602	428.261	400.492	358.852	277.380	418.583	245.175	341.293	262.957	337.502	215.112	358.295	0.0003251	0.00012712	6.7842e-05	161.4	4.3179e-06	5.8589e-06	295.68	71.599	3.1782e-06	3.2772e-06	146.28	71.323	34.651	19.414	1.3582e-06	41.996	0.00042705	0.00041452	0.00011774	168.27	4.6298e-06	4.6822e-06	296.17	72.609	4.6048e-06	4.8119e-06	147.22	71.787	35.046	19.545	4.8108e-06	42.056	203.988	177.510	221.601	83.925	235.910	280.700	82.853	88.841	190.447	256.249	86.776	91.140	93.524	96.439	232.589	93.555	-8191	255	
881.923	1	1	0	0	0.047799	0.22539	0.082833	0.18468	0.16914	0.19688	0.20699	0.16288	0.12966	0.18472	0.18763	0.15864	0.02088	0.18772	0.21721	0.18834	-2.1792	-2.25	-1.8292	-2.7333	-1.7792	-2.2167	-2.7896	-1.8958	-2.5083	-2.4667	-1.9833	-2.9229	-2.0375	-2.25	-2.6979	-1.9062	127.103	296.302	112.694	230.006	82.582	202.586	129.970	191.105	248.775	88.756	74.558	420.673	417.481	414.966	238.690	342.833	0.00034432	0.00019658	6.3625e-05	161.38	1.9425e-06	5.1934e-06	298	71.701	3.4919e-07	1.5072e-06	147.16	71.953	34.727	19.326	2.8593e-06	42.58	0.00042099	0.00042294	0.00011808	168.69	4.4742e-06	4.6265e-06	298.91	72.257	4.4815e-06	4.425e-06	147.99	72.627	35.31	19.658	4.4583e-06	42.624	197.605	152.613	170.967	82.903	267.271	188.016	83.204	88.773	177.395	214.208	86.290	90.379	92.902	94.995	216.072	92.711	-8191	255	
882.019	1	1	0	0	0.14218	0.18494	0.24417	0.16233	0.17278	0.244	0.10951	0.14893	0.12343	0.14582	0.37599	0.12331	0.23165	0.19206	0.19967	0.34301	-2.2104	-2.4292	-1.7521	-2.6646	-2.0771	-2.125	-2.7229	-1.7146	-2.4604	-2.5646	-2.0812	-2.7062	-2.3542	-1.9188	-2.8375	-2.0208	116.646	379.719	331.281	347.026	295.710	315.784	128.505	309.310	290.997	420.486	343.965	218.514	165.349	99.545	152.024	259.534	0.00033104	0.00017184	6.7909e-05	160.94	1.6127e-06	2.6197e-06	301.89	71.327	3.072e-06	4.7569e-06	147.92	71.475	34.749	19.489	1.7288e-06	42.046	0.00041044	0.00040906	0.00011448	169.42	4.4823e-06	4.5849e-06	301.07	72.402	4.5732e-06	4.6023e-06	148.71	72.525	35.161	19.726	4.7239e-06	42.272	199.250	146.768	142.140	83.101	94.818	210.235	82.679	88.131	219.598	181.088	86.022	89.923	93.069	95.408	353.832	92.592	-8191	255	
882.140	1	1	0	0	0.14445	0.21408	0.22286	0.090794	0.14919	0.15415	0.060386	0.098678	0.026475	0.26472	0.20149	0.13823	0.03997	0.22843	0.11001	0.26841	-1.8667	-2.5604	-1.6104	-2.6042	-2.3688	-1.6917	-2.8521	-2.0833	-2.1333	-2.7812	-1.9458	-2.5896	-2.2854	-1.6521	-2.8	-2.175	188.133	229.751	276.475	284.217	405.132	155.724	423.742	199.442	359.160	266.306	376.683	93.521	228.329	260.782	333.866	330.069	0.00031832	4.5704e-05	4.2014e-05	160.33	2.7275e-06	1.5854e-06	295.72	71.122	1.6172e-06	4.0723e-06	144.78	71.158	34.067	19.094	1.8211e-06	41.418	0.00043318	0.00044204	0.00012491	168.84	4.9223e-06	5.1571e-06	296.93	72.503	5.1917e-06	5.2791e-06	146.31	71.278	34.634	19.442	5.1423e-06	41.619	200.504	222.008	173.753	82.624	247.643	210.952	82.515	87.832	213.527	273.485	85.661	90.384	92.445	95.770	271.879	93.112	-8191	255	
882.236	1	1	0	0	0.13043	0.31795	0.085642	0.14985	0.12165	0.13384	0.20794	0.060615	0.24983	0.087936	0.085606	0.30422	0.18306	0.1007	0.14932	0.17223	-1.6021	-2.8271	-1.8167	-2.5271	-2.4479	-1.7771	-2.7229	-2.1188	-1.9167	-2.825	-1.9354	-2.3417	-2.6583	-1.8333	-2.5687	-2.3583	271.636	100.860	410.200	357.924	161.422	401.711	242.446	423.712	324.204	252.754	410.311	423.402	386.574	310.697	263.255	409.837	0.00031651	0.0004993	8.6316e-05	158.53	1.4137e-06	7.2038e-06	295.55	70.833	2.1222e-06	5.0575e-06	143.69	70.244	33.934	19.031	4.8065e-06	41.203	0.00046585	0.00047838	0.00013586	168.42	5.1336e-06	5.2811e-06	294.67	72.217	5.1645e-06	5.2048e-06	146.06	70.996	34.593	19.409	5.487e-06	41.448	198.864	151.410	139.817	82.905	165.938	194.391	82.513	88.037	284.757	265.332	86.554	90.427	92.685	95.634	232.251	92.592	-8191	255	
882.332	1	1	0	0	0.14085	0.11695	0.10541	0.056358	0.1548	0.18438	0.10341	0.40854	0.36949	0.30383	0.094917	0.058095	0.027498	0.134	0.33624	0.31109	-1.5854	-2.8	-1.6625	-2.4021	-2.6	-1.8146	-2.7083	-2.0729	-1.8958	-2.6979	-2.0479	-2.1354	-2.8604	-1.6958	-2.6771	-2.3729	375.681	348.569	232.222	118.055	386.903	154.628	145.900	386.421	109.001	210.842	335.593	355.924	162.785	73.162	286.831	404.974	0.00030009	0.0003602	6.3126e-05	160.5	1.1934e-06	2.8614e-06	289.55	70.707	2.2461e-06	3.2012e-06	144.4	70.625	34.254	19.337	8.8149e-07	41.486	0.00048095	0.00050947	0.00014826	168.82	5.5707e-06	5.6184e-06	291.52	72.116	5.5294e-06	5.5589e-06	146.07	71.021	34.743	19.579	5.6252e-06	41.763	202.008	206.216	153.942	83.485	185.896	122.861	82.481	87.691	270.917	203.306	86.095	90.261	93.147	95.906	213.807	92.934	-8191	255	
882.428	1	1	0	0	0.32823	0.062467	0.20315	0.15192	0.10409	0.1452	0.044874	0.30507	0.19727	0.19798	0.34763	0.33623	0.1118	0.09766	0.042295	0.13979	-1.5292	-2.5938	-2.0125	-2.2583	-2.6354	-1.8771	-2.7042	-2.4042	-1.8646	-2.95	-2.1437	-1.9896	-2.6104	-1.6979	-2.4354	-2.7021	392.965	82.454	361.213	232.552	367.689	425.363	296.555	359.291	93.456	309.645	425.122	380.591	210.448	359.858	291.018	132.061	0.00031018	0.00017621	0.00012813	160.76	3.0928e-06	2.3537e-06	292.85	71.835	3.215e-06	2.3092e-06	145.9	71.025	34.469	19.429	3.1185e-06	41.659	0.00049157	0.00050625	0.00014467	169.2	5.5093e-06	5.5736e-06	292.81	73.114	5.3841e-06	5.613e-06	146.92	71.666	35.071	19.735	5.6047e-06	41.972	204.006	127.293	180.600	82.976	193.054	178.924	82.341	87.877	260.165	317.717	86.257	90.518	92.785	95.320	226.704	92.916	-8191	255	
882.525	1	1	0	0	0.077826	0.21992	0.098316	0.18589	0.057807	0.18266	0.061921	0.28178	0.15941	0.07438	0.32176	0.13733	0.11151	0.051042	0.2564	0.21887	-1.5333	-2.5979	-2.175	-1.9562	-2.7521	-1.8229	-2.3417	-2.6854	-1.7021	-2.7896	-2.3792	-2.0687	-2.7958	-1.9625	-2.225	-2.7604	251.737	255.721	250.021	402.148	181.724	133.095	284.238	403.468	160.691	239.215	393.352	343.284	364.260	221.317	324.878	342.644	0.00031046	0.00027075	6.0201e-05	159.07	1.476e-06	2.9548e-06	290.62	71.234	1.039e-06	6.0151e-06	144.15	70.302	34.562	19.278	1.8567e-06	41.486	0.00049015	0.00050051	0.00014162	169	5.3218e-06	5.5331e-06	292.22	72.455	5.4131e-06	5.5263e-06	146.15	71.022	34.954	19.603	5.337e-06	41.732	198.398	174.549	263.329	82.721	231.308	172.508	82.865	87.963	398.525	179.491	86.281	90.764	92.775	95.067	201.411	92.775	-8191	255	
882.621	1	1	0	0	0.17156	0.25265	0.18483	0.27406	0.097406	0.18288	0.2795	0.12176	0.076445	0.14567	0.19449	0.16485	0.086146	0.10176	0.30936	0.25744	-1.4979	-2.65	-2.2104	-1.8979	-2.7521	-1.8396	-2.2625	-2.7292	-1.9146	-2.6396	-2.4271	-2.075	-2.9062	-1.9062	-2.3063	-2.875	427.459	141.844	371.687	408.708	107.999	118.655	349.547	405.106	120.370	373.349	332.722	72.824	233.921	315.865	367.339	335.062	0.0003406	7.2492e-05	4.2006e-05	157.79	9.4221e-07	2.6086e-06	288.97	71.069	3.0507e-06	2.2971e-06	144.59	69.897	34.382	19.351	1.9826e-06	41.456	0.00046912	0.00049618	0.00013605	167.92	5.2159e-06	5.4763e-06	291.67	72.711	5.3279e-06	5.5763e-06	145.88	70.957	34.969	19.6	5.3575e-06	41.697	206.944	216.329	107.933	83.543	226.221	188.129	82.332	88.427	232.878	185.998	86.234	90.581	92.767	95.555	239.125	93.023	-8191	255	
882.717	1	1	0	0	0.2124	0.33738	0.20046	0.11072	0.090099	0.13645	0.37333	0.052465	0.070475	0.041612	0.22032	0.0769	0.26425	0.23193	0.19474	0.096622	-1.5187	-2.55	-2.2792	-1.8104	-2.5458	-2.0312	-2.1479	-2.6854	-1.8375	-2.3604	-2.5125	-1.85	-2.6312	-2.2208	-1.8396	-2.7646	353.121	384.302	337.406	315.087	322.648	327.711	276.767	171.968	129.081	371.962	136.483	261.305	345.151	425.926	341.389	320.735	0.00032162	0.0003737	8.3155e-05	157.39	3.1751e-06	3.0192e-06	292.32	71.581	1.6017e-06	1.7353e-06	144.25	70.793	34.396	19.29	2.0223e-06	41.496	0.00047006	0.00048447	0.00013132	168.22	5.199e-06	5.2189e-06	292.63	72.807	5.1181e-06	5.3285e-06	146.12	71.387	35.012	19.644	5.3993e-06	41.8	198.590	220.213	146.057	82.585	175.713	268.716	83.030	88.557	221.738	201.045	85.982	90.018	93.359	95.793	207.090	93.150	-8191	255	
882.836	1	1	0	0	0.099091	0.080292	0.20386	0.2155	0.1137	0.051806	0.034811	0.06515	0.12993	0.24471	0.18422	0.087004	0.12841	0.27242	0.25638	0.16258	-1.5104	-2.2646	-2.5833	-1.9083	-2.6917	-2.2479	-2.0354	-2.7042	-1.9833	-2.2146	-2.6688	-1.8917	-2.7458	-2.4375	-1.6833	-2.925	205.853	212.122	221.561	95.163	222.295	102.409	241.268	215.256	77.442	283.168	391.460	135.442	370.895	147.303	331.684	72.760	0.00034974	0.00037143	3.3685e-05	160.4	3.0022e-06	5.3927e-07	294.05	71.172	1.4426e-06	4.3419e-06	146.33	71.071	34.481	19.485	3.3954e-06	41.984	0.00048072	0.00050367	0.00013442	169.54	5.3239e-06	5.3684e-06	293.92	72.838	5.3223e-06	5.4924e-06	147.15	71.69	35.036	19.724	5.3205e-06	42.106	197.786	211.681	184.840	82.775	220.369	86.327	82.262	88.018	218.418	230.439	86.056	90.529	93.150	95.396	255.206	93.268	-8191	255	
882.932	1	1	0	0	0.22879	0.10819	0.10609	0.11277	0.069681	0.042972	0.12293	0.29469	0.21944	0.20338	0.0081896	0.20359	0.20036	0.19709	0.23072	0.11552	-1.55	-2.2667	-2.65	-1.7437	-2.6375	-2.4229	-1.9021	-2.8896	-2.15	-2.0542	-2.9	-2.0354	-2.5354	-2.4396	-1.8937	-2.8979	295.390	174.497	156.243	97.906	296.116	424.022	377.569	311.838	166.755	294.034	356.995	419.151	85.994	144.931	391.560	213.773	0.00031563	0.00010644	8.7152e-05	159.25	1.8743e-06	5.1692e-06	291.58	71.37	8.7708e-07	4.7105e-06	143.81	71.081	34.504	19.361	2.6724e-06	41.522	0.00048681	0.00049716	0.00013435	168.72	5.3054e-06	5.3884e-06	293.05	72.899	5.2705e-06	5.3973e-06	146.37	71.646	34.95	19.676	5.2854e-06	41.769	201.474	403.459	182.676	82.694	315.651	215.262	82.818	88.344	229.925	218.375	85.821	90.208	92.806	95.755	220.256	93.086	-8191	255	
883.004	1	1	0	0	0.25206	0.23225	0.091372	0.084381	0.10127	0.21117	0.21176	0.17486	0.098623	0.18216	0.14083	0.28356	0.11911	0.32593	0.34727	0.040427	-1.9917	-1.9479	-2.7125	-1.8417	-2.3854	-2.3458	-1.7583	-2.6229	-2.0146	-1.9833	-2.7229	-1.9	-2.4292	-2.6	-1.7958	-2.7125	115.824	271.729	209.088	419.148	400.557	155.477	313.420	82.556	222.178	181.652	74.088	398.349	129.724	152.795	219.113	88.800	0.00030022	0.00050175	0.00010248	159.84	1.7339e-06	5.3219e-06	291.29	71.656	1.9301e-06	8.7292e-06	144.75	70.201	34.555	19.307	3.8863e-06	41.382	0.00046835	0.00048454	0.00013372	168	5.2176e-06	5.2011e-06	291.96	72.709	5.2273e-06	5.4341e-06	145.59	70.983	34.975	19.642	5.372e-06	41.548	201.344	110.658	134.825	83.144	238.319	207.442	82.723	87.944	262.367	263.416	86.184	90.390	93.299	95.796	249.168	93.068	-8191	255	
883.100	1	1	0	0	0.25298	0.32191	0.12626	0.15581	0.12453	0.33822	0.16856	0.057169	0.18193	0.084803	0.13244	0.21451	0.07949	0.24829	0.15712	0.059466	-1.875	-1.7708	-2.7354	-1.9312	-2.3542	-2.7438	-1.75	-2.4896	-2.3292	-1.7792	-2.7	-2.0396	-2.2229	-2.7146	-1.7646	-2.6042	216.859	221.949	374.689	403.476	281.251	256.184	379.836	222.859	121.527	419.819	119.676	330.783	243.857	135.330	216.265	211.937	0.00030311	0.00026871	7.0386e-06	158.6	1.1845e-06	3.0123e-06	291.79	71.833	1.9143e-06	4.4422e-06	145.41	70.608	34.146	19.445	3.5271e-06	41.414	0.00046261	0.00047979	0.00013172	168.36	5.1205e-06	5.2514e-06	292.4	72.896	5.2454e-06	5.4753e-06	146.41	71.284	34.912	19.713	5.2855e-06	41.659	202.780	183.923	191.801	82.981	300.533	274.193	82.549	88.139	221.313	254.306	86.017	90.531	92.869	95.678	323.074	93.016	-8191	255	
883.220	1	1	0	0	0.14649	0.17334	0.10498	0.14678	0.1019	0.27595	0.19104	0.1158	0.1223	0.070226	0.12497	0.16813	0.2425	0.1476	0.064153	0.35751	-2.0833	-1.6896	-2.6271	-2.0042	-2.1271	-2.8667	-1.9146	-2.5292	-2.5542	-1.8333	-2.825	-2.125	-1.9813	-2.75	-1.8917	-2.5187	385.916	184.967	299.224	370.867	255.107	302.383	257.296	156.896	229.503	199.412	84.957	119.215	386.786	148.973	130.571	296.557	0.0003133	0.00042072	7.4719e-05	158.58	2.8908e-06	2.3837e-06	291.1	71.908	2.0214e-06	3.7056e-06	144.06	70.801	34.531	19.519	1.843e-06	42.271	0.00046563	0.00050022	0.00013466	167.72	5.2428e-06	5.3025e-06	292.65	73.1	5.1433e-06	5.3535e-06	146.17	71.686	35.044	19.787	5.2017e-06	42.251	203.111	159.582	170.759	82.667	199.073	420.509	82.538	89.049	309.947	214.218	86.343	90.335	92.979	95.678	147.256	92.862	-8191	255	
883.316	1	1	0	0	0.29303	0.032745	0.019174	0.093323	0.060238	0.11187	0.065981	0.25741	0.25107	0.32014	0.08389	0.14949	0.051084	0.22675	0.17817	0.21484	-2.1437	-1.575	-2.7479	-2.2792	-2.0312	-2.8854	-1.8333	-2.3667	-2.6396	-1.9646	-2.7646	-2.3708	-1.9375	-2.775	-1.9542	-2.3125	234.016	125.825	202.413	144.477	334.681	333.736	351.708	288.667	292.623	383.923	425.248	398.521	249.056	341.753	72.925	365.450	0.00036611	0.00013414	4.5012e-05	161.15	1.2231e-06	1.741e-06	293.07	72.727	2.0182e-06	5.7649e-06	148.31	72.005	34.838	19.701	8.712e-07	42.25	0.00045912	0.00047372	0.00013109	169.15	5.0721e-06	5.1065e-06	294.12	73.721	4.9266e-06	5.233e-06	148.54	72.361	35.374	19.991	5.0872e-06	42.456	200.058	127.798	100.753	82.686	117.308	192.402	82.994	88.096	279.733	225.607	86.097	90.263	93.096	95.702	215.210	93.104	-8191	255	
883.413	1	1	0	0	0.18044	0.13253	0.017294	0.29996	0.10289	0.24762	0.12321	0.33092	0.25467	0.022788	0.090997	0.10886	0.4647	0.073332	0.011223	0.2119	-2.3958	-1.6729	-2.4583	-2.4042	-1.8229	-2.7125	-1.9542	-2.1521	-2.7208	-1.8042	-2.5083	-2.4813	-1.7479	-2.5604	-2.1729	-2.0292	223.115	315.826	325.515	244.712	199.585	362.098	139.932	134.567	149.119	420.547	196.945	401.377	367.364	300.382	333.696	275.414	0.00035298	0.00031583	7.0972e-05	160.41	1.9146e-06	3.991e-06	290.66	72.524	1.5043e-06	1.0227e-06	144.25	71.446	34.633	19.74	1.2161e-06	42.122	0.00044668	0.00047204	0.00012734	167.86	5.0225e-06	5.0127e-06	292.26	73.702	4.8704e-06	5.0062e-06	147.2	72.136	35.298	19.968	4.9777e-06	42.148	197.308	216.135	121.623	82.801	253.843	172.583	82.890	88.344	235.367	260.741	86.116	90.366	93.505	95.478	253.475	92.931	-8191	255	
883.509	1	1	0	0	0.059164	0.18941	0.21831	0.040759	0.068139	0.10049	0.1529	0.21461	0.037999	0.14579	0.16763	0.10506	0.12151	0.23347	0.18838	0.22757	-2.4313	-1.8312	-2.3583	-2.4958	-1.7583	-2.7771	-2.2021	-2.0187	-2.725	-1.9854	-2.3	-2.7667	-1.7917	-2.8021	-2.2896	-2.1542	307.587	264.383	321.670	314.521	384.069	421.163	416.540	118.605	191.501	294.250	359.845	191.569	112.536	403.478	202.607	76.119	0.00031882	5.0527e-05	5.3172e-05	158.54	1.0793e-06	2.8726e-06	291.96	72.953	7.007e-07	3.078e-06	146.69	71.374	34.836	19.806	2.2743e-06	42.12	0.00043434	0.00045456	0.00012351	167.3	4.804e-06	4.9333e-06	293.59	74.049	4.8413e-06	5.1523e-06	147.68	72.08	35.41	20.01	5.0597e-06	42.346	201.148	124.807	257.999	83.015	333.464	237.209	82.554	88.443	295.800	196.741	86.305	90.892	93.015	95.935	270.007	93.144	-8191	255	
883.628	1	1	0	0	0.43159	0.19691	0.24932	0.2441	0.21022	0.1395	0.13917	0.29022	0.13236	0.098818	0.32088	0.26198	0.32398	0.021825	0.11548	0.061792	-2.6125	-1.7646	-2.4667	-2.75	-1.8604	-2.6813	-2.275	-2.0062	-2.7958	-1.9354	-2.2396	-2.7771	-1.8542	-2.7146	-2.3583	-2	98.950	426.955	403.928	429.619	370.760	408.354	371.263	397.483	359.576	154.034	297.376	341.700	84.796	381.596	361.142	374.171	0.00035	0.00022257	0.00010918	163.03	3.6559e-06	5.1309e-06	291.28	72.632	1.6691e-06	1.6917e-06	146.13	70.825	34.678	19.675	2.3686e-06	41.752	0.00044776	0.00047055	0.00013107	168.99	5.0236e-06	5.2689e-06	293.8	73.781	5.0239e-06	5.2568e-06	147.67	71.89	35.414	19.937	5.3625e-06	42.152	201.783	164.018	116.959	83.025	222.295	240.366	82.866	88.630	266.571	216.723	86.533	90.467	92.584	95.702	237.719	93.262	-8191	255	
883.701	1	1	0	0	0.14733	0.23353	0.42943	0.14926	0.068716	0.27864	0.19509	0.21341	0.35191	0.10202	0.079192	0.19487	0.18825	0.18269	0.13984	0.25802	-2.4813	-2.05	-2.1437	-2.6937	-1.975	-2.5062	-2.5979	-1.9208	-2.7271	-2.1104	-2.0771	-2.7854	-1.7583	-2.3917	-2.5396	-1.7812	334.974	415.217	388.096	131.706	422.842	97.513	207.637	191.222	333.511	130.287	230.696	311.751	374.498	413.981	374.345	367.943	0.00033096	0.00020287	7.8507e-05	160	1.0754e-06	6.8622e-07	291	72.614	8.8263e-07	3.3065e-06	145.89	70.96	34.596	19.706	3.2635e-06	42.167	0.00046581	0.00049264	0.0001381	169.79	5.3398e-06	5.4667e-06	292.09	73.735	5.3583e-06	5.3847e-06	147.27	72.075	35.301	19.968	5.4374e-06	42.215	200.466	173.696	115.246	82.983	154.111	286.757	82.473	88.765	294.002	291.966	86.817	90.419	93.085	95.810	287.662	93.375	-8191	255	
883.820	1	1	0	0	0.1555	0.22888	0.21098	0.22139	0.1771	0.076008	0.027352	0.5675	0.067805	0.15024	0.27949	0.3099	0.18098	0.2608	0.21786	0.11441	-2.6604	-2.1667	-1.9146	-2.6792	-2.0687	-2.2771	-2.6125	-1.7583	-2.9083	-2.1125	-2.1813	-3.0104	-2	-2.5833	-2.7062	-2.0167	202.965	351.070	392.926	399.463	224.497	148.961	92.328	313.891	367.108	310.478	367.396	394.971	203.959	154.359	362.070	392.446	0.00030984	0.00040998	7.4113e-05	160.54	2.1756e-06	1.3909e-06	293.42	71.765	2.6261e-07	6.4921e-06	144.54	70.603	34.522	19.332	2.5044e-06	41.149	0.00049137	0.00051674	0.00014466	168.15	5.5439e-06	5.609e-06	291.52	73.353	5.3785e-06	5.6682e-06	145.89	71.145	34.982	19.776	5.3142e-06	41.497	196.721	177.758	78.376	83.566	243.946	203.310	82.834	88.670	366.384	259.441	85.975	90.357	92.550	95.843	196.538	93.122	-8191	255	
883.916	1	1	0	0	0.26683	0.12752	0.24379	0.32767	0.27395	0.07983	0.17771	0.15307	0.1077	0.1033	0.22264	0.035646	0.25434	0.21166	0.24169	0.1238	-2.3125	-2.3917	-1.8167	-2.825	-2.0604	-2.0542	-2.65	-1.8333	-2.6292	-2.4896	-1.7479	-2.8458	-2.1	-2.1312	-2.7604	-2.175	167.900	218.533	217.207	329.505	218.861	288.152	88.868	344.837	297.707	320.620	345.132	107.283	106.434	291.048	167.793	297.489	0.0003201	0.00021913	7.3925e-05	160.38	7.1323e-06	4.1671e-06	288.89	72.354	1.2133e-06	7.3559e-07	142.57	70.141	34.264	19.475	3.1919e-06	41.423	0.00048501	0.0005086	0.00014323	168.32	5.4776e-06	5.5536e-06	290.12	73.247	5.3591e-06	5.4622e-06	145.1	70.964	34.784	19.684	5.4158e-06	41.582	196.313	183.696	130.320	83.740	233.747	271.969	82.432	88.321	229.987	187.720	86.298	90.643	92.779	95.693	244.322	93.242	-8191	255	
884.012	1	1	0	0	0.14549	0.21008	0.19732	0.14696	0.041117	0.088908	0.10004	0.173	0.10919	0.052853	0.13282	0.20841	0.33128	0.3065	0.16069	0.16179	-2.3333	-2.3604	-1.7729	-2.6167	-2.1458	-2.1271	-3.0583	-1.7812	-2.5542	-2.5771	-2.0271	-2.7396	-2.2729	-2.025	-2.7333	-1.8937	393.773	215.258	239.805	265.200	109.085	264.803	76.224	367.450	109.199	268.221	124.857	120.285	392.394	116.273	286.052	360.404	0.00033811	0.00015087	9.5536e-05	159.28	1.8973e-06	2.4257e-06	289.17	71.795	3.308e-06	6.0988e-06	144.76	70.917	34.324	19.433	1.1056e-06	41.522	0.00047802	0.00047978	0.00013578	167.76	5.4447e-06	5.4325e-06	290.1	73.156	5.3643e-06	5.4783e-06	146.07	71.271	35.001	19.741	5.3584e-06	41.721	201.337	169.471	129.684	83.331	285.960	201.107	82.850	88.381	217.177	235.197	86.092	90.573	92.590	95.755	275.571	93.138	-8191	255	
884.108	1	1	0	0	0.23199	0.14034	0.34802	0.16104	0.10793	0.12834	0.12137	0.20551	0.083064	0.3845	0.12451	0.13543	0.047963	0.14426	0.082858	0.070494	-1.9479	-2.6104	-1.8563	-2.5812	-2.45	-2.0396	-2.7146	-2.025	-2.3208	-2.7625	-1.8771	-2.6667	-2.5146	-1.8771	-2.7208	-2.225	230.070	305.117	297.942	255.468	430.248	85.278	296.162	216.692	72.946	288.133	384.256	382.600	363.616	89.846	257.846	294.768	0.00034791	0.0003291	8.5697e-05	158.21	2.7657e-06	3.245e-06	290.87	71.697	1.7014e-06	2.0621e-06	144.5	71.562	34.589	19.653	4.0301e-06	41.958	0.00048768	0.00050556	0.00013878	167.6	5.3027e-06	5.4401e-06	292.2	73.371	5.3425e-06	5.4596e-06	146.64	71.867	35.225	19.915	5.332e-06	42.222	198.678	154.857	201.532	82.977	278.382	242.774	82.812	88.774	227.418	170.190	86.375	90.629	93.489	95.964	168.051	93.241	-8191	255	
884.229	1	1	0	0	0.17761	0.25709	0.23987	0.13754	0.042169	0.27176	0.15458	0.30274	0.18004	0.084112	0.082048	0.21141	0.18174	0.27767	0.1832	0.22394	-1.7958	-2.4396	-1.8146	-2.5438	-2.3521	-1.8521	-2.7812	-2.0208	-2.1396	-2.8479	-1.8083	-2.6437	-2.4313	-1.8833	-2.6063	-2.4125	175.657	201.996	183.388	421.637	412.403	127.725	129.224	357.472	271.928	86.823	163.917	365.643	358.093	338.480	94.575	272.097	0.0003288	0.00029707	0.00019985	159.98	9.5461e-07	1.9374e-06	290.2	72.44	1.8139e-06	6.0549e-06	145.01	70.883	34.364	19.545	1.6052e-06	41.566	0.00046614	0.00047593	0.00013734	168.55	5.195e-06	5.3893e-06	292.05	73.723	5.3068e-06	5.5155e-06	146.71	71.574	35.183	19.89	5.3445e-06	41.885	203.613	187.538	144.682	83.713	204.459	256.019	83.326	88.809	193.064	225.679	86.463	90.927	93.262	95.867	207.989	93.545	-8191	255	
884.301	1	1	0	0	0.14536	0.10851	0.22238	0.21706	0.053034	0.16983	0.0084126	0.046474	0.22571	0.07096	0.24031	0.075934	0.29299	0.1694	0.30608	0.1341	-1.6854	-2.7417	-2.0083	-2.4896	-2.5271	-1.8667	-2.7917	-2.2917	-1.9729	-2.9896	-1.9333	-2.3729	-2.5792	-1.8813	-2.7333	-2.3688	242.287	260.790	139.137	312.435	91.762	271.096	82.599	276.652	268.156	211.335	314.389	88.750	411.325	251.662	145.947	341.639	0.00032438	0.00044128	0.00016711	159.29	1.2713e-06	1.5644e-06	289.65	72.559	1.6745e-06	4.1697e-06	144.91	71.283	34.673	19.501	4.6069e-06	41.997	0.00047633	0.00049482	0.00013984	168.49	5.2897e-06	5.3979e-06	290.43	73.714	5.2346e-06	5.2546e-06	146.25	71.54	35.243	19.811	5.1216e-06	41.956	202.123	133.122	171.994	82.722	196.595	191.135	83.078	89.100	154.518	253.333	86.229	90.898	93.190	95.899	207.855	93.271	-8191	255	
884.397	1	1	0	0	0.19376	0.20318	0.10296	0.20583	0.031732	0.14596	0.066358	0.22531	0.12105	0.09586	0.12712	0.22692	0.10474	0.12514	0.21331	0.09045	-1.6333	-2.7146	-2.0271	-2.1458	-2.8396	-1.7146	-2.7167	-2.2271	-1.9042	-2.9229	-2.2292	-2.3625	-2.8458	-1.8521	-2.4979	-2.525	245.443	354.135	194.318	342.845	102.221	155.921	333.755	355.937	191.356	234.055	393.070	427.210	142.418	197.282	429.107	98.142	0.00031468	0.00031767	3.4122e-05	162.73	2.6514e-06	5.3075e-06	289.2	72.637	1.5912e-06	4.9e-06	146.81	70.916	34.75	19.599	2.5762e-06	41.705	0.00046786	0.00047411	0.00013724	169.05	5.1794e-06	5.4427e-06	290.04	73.836	5.3106e-06	5.3232e-06	147.04	71.763	35.195	19.883	5.3453e-06	41.956	201.543	158.389	162.955	83.716	284.051	182.072	83.015	88.252	283.183	263.788	86.028	90.537	92.740	95.666	214.496	92.961	-8191	255	
884.493	1	1	0	0	0.085495	0.10514	0.18834	0.18935	0.31123	0.17307	0.18602	0.080857	0.22827	0.12994	0.1924	0.2717	0.13636	0.44033	0.22342	0.10049	-1.55	-2.7833	-1.9729	-2.2771	-2.8	-1.8458	-2.5	-2.525	-1.8896	-2.7208	-2.1042	-1.9438	-2.9333	-1.8396	-2.5312	-2.8854	294.814	409.564	182.656	219.185	362.239	308.275	252.920	243.157	150.663	252.805	198.459	271.616	275.074	400.056	373.378	265.461	0.00034467	0.00035729	9.3265e-05	161.66	3.1251e-06	3.2943e-06	288.23	71.695	2.453e-06	6.3269e-06	144.5	70.785	34.701	19.646	3.1477e-06	41.901	0.00047636	0.00048652	0.00014017	168.34	5.4536e-06	5.6759e-06	291.05	73.649	5.4974e-06	5.6199e-06	146.53	71.62	35.22	19.902	5.4971e-06	42.044	195.117	163.143	159.883	82.271	200.205	225.143	83.134	88.226	276.376	224.941	86.816	90.479	92.966	95.977	176.651	93.230	-8191	255	
884.612	1	1	0	0	0.29034	0.043484	0.15581	0.21478	0.14984	0.2077	0.10677	0.16275	0.36195	0.10824	0.11246	0.17882	0.095939	0.10884	0.069613	0.30186	-1.3104	-2.7625	-2.1729	-1.7437	-2.6937	-2.0833	-2.2521	-2.7375	-1.7854	-2.8312	-2.4729	-2.1333	-2.7438	-2.0333	-2.2604	-2.7604	259.353	76.328	184.757	139.953	96.190	275.423	74.372	415.330	110.226	272.633	223.055	306.965	142.588	421.542	195.821	350.470	0.00032043	0.00019054	6.2527e-05	161.14	1.8485e-06	3.626e-06	289.16	72.477	1.1077e-06	4.5378e-06	144.46	70.301	34.108	19.451	1.9721e-06	41.425	0.00050021	0.00052155	0.00014518	169.17	5.6009e-06	5.7113e-06	290.54	73.741	5.6223e-06	5.8617e-06	146.48	71.208	34.931	19.798	5.6029e-06	41.604	201.569	150.848	232.031	83.030	144.757	202.429	82.710	88.471	157.269	273.580	86.342	90.544	92.909	95.642	220.610	93.118	-8191	255	
884.708	1	1	0	0	0.24055	0.097481	0.29815	0.060505	0.14144	0.10235	0.17689	0.23505	0.16157	0.2106	0.2404	0.21429	0.17788	0.12844	0.18698	0.37526	-1.475	-2.5062	-2.5062	-1.9104	-3.0021	-2.0438	-2.3667	-2.7333	-1.8917	-2.6021	-2.5542	-2.0854	-2.8229	-2.0125	-1.9937	-2.9188	182.083	311.008	323.787	402.870	366.186	92.730	305.767	358.688	293.114	197.948	368.729	382.040	416.700	159.200	313.540	389.762	0.00029176	0.00049914	5.0015e-05	159.14	9.0459e-07	7.9456e-06	284.02	72.076	2.9142e-06	3.7383e-06	145.03	70.447	34.317	19.573	2.4687e-06	41.387	0.00049165	0.00051958	0.0001442	167.47	5.5532e-06	5.7758e-06	288.3	73.194	5.5741e-06	5.676e-06	145.4	71.027	35.053	19.793	5.4773e-06	41.644	202.110	172.410	185.522	83.678	318.602	229.590	82.725	88.770	219.421	216.291	86.305	90.733	93.504	95.887	312.242	93.194	-8191	255	
884.804	1	1	0	0	0.16716	0.059175	0.19149	0.11841	0.024535	0.28109	0.093009	0.054005	0.24793	0.050233	0.18007	0.2556	0.14076	0.090959	0.024287	0.17988	-1.4458	-2.5187	-2.6208	-1.75	-2.6583	-2.3208	-2.0187	-2.8208	-1.9792	-2.3208	-2.7229	-1.875	-2.8833	-2.3208	-1.9958	-2.9021	154.032	326.050	93.934	370.427	374.212	352.179	269.094	338.217	158.532	158.179	114.371	82.860	407.641	295.768	211.243	389.032	0.0003043	0.00022428	0.00011246	158.96	5.6707e-07	5.9806e-06	286.3	71.909	6.4049e-07	7.8199e-06	143.43	70.617	34.764	19.675	4.2282e-06	41.683	0.00048057	0.00051098	0.00013925	167.81	5.4349e-06	5.3669e-06	288.3	73.137	5.3317e-06	5.3918e-06	145.61	71.293	35.166	19.915	5.4154e-06	41.849	199.097	166.216	143.779	83.084	184.337	246.872	83.034	88.296	158.181	240.981	86.156	90.631	92.878	95.849	202.062	93.078	-8191	255	
884.900	1	1	0	0	0.20334	0.19636	0.091074	0.22243	0.035364	0.11219	0.11922	0.17153	0.076669	0.11534	0.026418	0.30945	0.028784	0.11328	0.094147	0.1406	-1.6458	-2.2604	-2.6417	-1.8458	-2.525	-2.3729	-2.0583	-2.7833	-1.95	-2.3833	-2.7875	-1.7583	-2.5938	-2.4188	-1.85	-2.9667	362.332	292.139	294.445	300.117	137.297	343.489	269.147	409.736	411.347	72.555	96.124	422.680	88.593	251.297	397.912	223.725	0.00031096	0.0003709	0.00013196	160.45	2.7763e-06	3.4572e-06	287.45	72.214	2.5372e-06	2.3086e-06	144.96	71.01	34.586	19.683	4.3095e-06	41.903	0.00047199	0.00050123	0.00013793	168.9	5.4429e-06	5.5551e-06	289.35	73.663	5.4152e-06	5.5175e-06	146.38	71.59	35.227	19.988	5.4006e-06	42.126	198.148	198.025	237.388	83.266	128.156	201.485	82.687	89.123	238.466	195.196	86.655	90.780	92.917	95.879	223.551	93.266	-8191	255	
884.996	1	1	0	0	0.095069	0.24612	0.31482	0.28187	0.22391	0.19172	0.1984	0.22523	0.078879	0.077455	0.16155	0.12886	0.18408	0.14648	0.19154	0.29545	-1.5917	-2.3417	-2.75	-1.7667	-2.3688	-2.5583	-1.8729	-2.7687	-2.3042	-1.9917	-2.8854	-2.0146	-2.5792	-2.6417	-1.7313	-2.9625	286.143	330.932	143.143	196.093	430.020	387.831	209.142	423.843	205.412	302.697	346.473	380.747	270.425	385.053	368.870	357.273	0.00032184	0.00017959	0.00011389	162.33	3.339e-06	5.1641e-06	293.75	73.04	3.8409e-06	4.0767e-06	146.86	71.978	34.964	19.869	5.0098e-06	42.222	0.00047116	0.00048536	0.00013451	169.41	5.2848e-06	5.3813e-06	293.02	74.092	5.1579e-06	5.2422e-06	147.55	72.326	35.621	20.19	5.2651e-06	42.53	203.884	92.703	165.817	82.843	242.883	262.713	83.135	89.036	251.474	208.420	86.336	91.084	93.391	95.778	232.856	93.397	-8191	255	
885.093	1	1	0	0	0.21518	0.055703	0.10447	0.063105	0.066385	0.30298	0.028405	0.13422	0.17627	0.26103	0.081777	0.17149	0.060103	0.040489	0.16427	0.12784	-1.8333	-1.9	-2.9125	-1.9708	-2.4333	-2.8708	-1.7542	-2.7667	-2.4708	-2.0812	-2.6667	-2.1625	-2.2938	-2.8833	-1.7354	-2.6729	151.669	340.043	281.462	255.432	188.557	130.195	411.786	312.498	102.750	368.770	188.479	103.093	290.003	409.955	405.045	136.318	0.0003133	5.1854e-05	0.00010874	158.13	2.3969e-06	6.9954e-06	289.65	72.957	1.9809e-06	2.7961e-06	144.88	71.756	34.765	19.809	2.1714e-06	41.927	0.00046757	0.00048341	0.00013197	168.24	5.1774e-06	5.0861e-06	290.38	74.138	5.0303e-06	5.2588e-06	147.2	71.818	35.439	20.129	5.2637e-06	42.225	204.737	293.569	141.986	83.257	180.039	196.113	83.294	88.521	263.984	278.180	86.906	91.023	93.609	95.902	201.686	93.435	-8191	255	
885.212	1	1	0	0	0.14661	0.031638	0.14398	0.22814	0.15803	0.11621	0.19327	0.32953	0.26763	0.2524	0.078592	0.19174	0.096238	0.089906	0.14906	0.20308	-1.9979	-1.8833	-2.9521	-2.0604	-2.0938	-2.7021	-1.7458	-2.575	-2.4938	-2.0125	-2.9062	-2.2708	-2.0875	-2.9292	-1.8396	-2.5771	309.380	167.546	146.024	81.832	229.902	79.740	326.506	340.397	360.663	132.229	312.811	352.735	133.644	400.098	354.164	428.837	0.00031963	0.00028953	5.7461e-05	158.65	7.4467e-07	1.264e-06	287.27	73.342	2.8872e-06	1.439e-06	145.03	71.337	34.844	19.865	9.0356e-07	42.128	0.00046512	0.00048645	0.00013541	168.13	5.347e-06	5.3291e-06	289.3	74.53	5.2186e-06	5.5065e-06	146.61	71.814	35.523	20.139	5.3671e-06	42.233	205.075	162.491	220.555	83.820	251.474	300.442	82.707	89.345	200.685	170.376	86.718	90.997	93.621	96.411	200.353	93.729	-8191	255	
885.308	1	1	0	0	0.10999	0.099082	0.063945	0.21507	0.24358	0.10656	0.24862	0.33252	0.13003	0.29597	0.23701	0.22251	0.061874	0.13057	0.12584	0.32603	-2.125	-1.8083	-2.8333	-2.2375	-2.1396	-2.6625	-2.0521	-2.3083	-2.6937	-1.7563	-2.8771	-2.3625	-1.95	-2.9792	-1.7542	-2.6375	162.116	238.495	290.337	343.944	109.355	71.957	268.192	389.512	425.679	135.241	75.917	329.528	78.887	410.458	243.618	411.516	0.00031634	0.0003159	0.00011798	160.14	3.1751e-06	3.746e-06	289.04	73.239	3.5849e-06	2.7192e-06	147.26	71.171	34.985	19.901	2.5292e-06	41.872	0.00047077	0.00048108	0.00013613	168.85	5.2879e-06	5.3322e-06	290.9	74.638	5.4533e-06	5.6417e-06	147.63	71.987	35.594	20.128	5.6466e-06	42.14	207.195	141.395	115.017	83.243	242.275	215.578	83.199	88.861	197.067	134.475	86.560	91.021	93.804	96.134	237.168	93.496	-8191	255	
885.404	1	1	0	0	0.077898	0.15932	0.040966	0.074819	0.17389	0.12885	0.081846	0.37595	0.16162	0.26009	0.20318	0.12649	0.1135	0.42162	0.12501	0.095511	-2.4542	-1.8604	-2.8271	-2.2938	-1.8833	-2.6854	-2.0458	-2.2292	-2.7542	-1.9979	-2.6437	-2.6104	-1.9792	-2.8833	-2.1667	-2.3667	369.387	251.205	107.952	361.622	350.649	151.927	72.249	388.279	199.981	180.241	193.545	405.871	154.983	386.935	213.368	228.035	0.00033371	0.00044942	0.00012999	156.78	3.0361e-06	5.0743e-06	287.38	73.053	3.1094e-06	3.461e-06	146.46	70.889	34.959	19.805	1.8935e-06	42.253	0.00048522	0.00051565	0.00014293	167.68	5.5489e-06	5.5897e-06	290.52	74.553	5.4163e-06	5.81e-06	147.45	71.981	35.562	20.114	5.6762e-06	42.388	198.096	146.123	154.455	83.776	180.354	121.439	82.948	88.918	247.718	219.338	87.157	90.840	93.383	96.246	265.730	93.899	-8191	255	
885.500	1	1	0	0	0.19423	0.26717	0.091536	0.17854	0.27767	0.16883	0.11822	0.052725	0.19843	0.079957	0.13226	0.085444	0.19008	0.18391	0.12505	0.1211	-2.3312	-1.9333	-2.5958	-2.775	-1.7396	-2.8521	-2.1625	-2.0417	-2.8063	-2.025	-2.675	-2.6333	-1.9396	-2.6167	-2.3812	-1.9188	371.392	77.006	327.500	107.205	314.853	228.783	368.574	391.338	108.886	372.509	235.564	152.272	408.795	397.492	256.492	364.963	0.0003456	0.0004826	1.509e-05	159.46	1.7994e-06	1.9666e-06	285.55	72.806	2.7531e-06	5.9775e-06	144.98	70.756	34.459	19.857	3.1877e-06	41.531	0.00050165	0.00052909	0.00014664	168.39	5.5861e-06	5.7529e-06	288.77	74.214	5.553e-06	5.8591e-06	146.61	71.502	35.217	20.007	5.8201e-06	41.79	203.701	110.223	121.409	83.568	268.987	220.462	82.900	89.285	251.725	243.594	86.785	91.116	93.400	96.445	222.109	93.487	-8191	255	
885.596	1	1	0	0	0.24608	0.16835	0.14935	0.25029	0.29905	0.17278	0.10615	0.081798	0.35471	0.32967	0.11642	0.094315	0.27248	0.17031	0.17412	0.059197	-2.5563	-2	-2.5542	-2.7938	-1.9354	-2.775	-2.1583	-1.9979	-2.5563	-1.9562	-2.4125	-2.9708	-1.7313	-2.6917	-2.2979	-1.8292	362.925	282.044	217.815	313.783	427.163	192.015	84.401	288.152	327.148	276.787	196.893	278.257	260.057	125.619	240.990	166.348	0.00035194	4.4178e-05	0.00016728	156.28	1.6444e-06	5.3504e-06	285.38	72.46	2.0284e-06	3.1176e-06	144.42	70.582	34.615	19.686	4.3729e-06	41.29	0.00048931	0.0005341	0.00014641	167.57	5.7012e-06	5.8174e-06	287.47	73.91	5.6468e-06	5.9041e-06	145.64	70.995	35.224	19.935	5.7833e-06	41.611	201.072	387.177	214.785	83.035	260.851	225.873	83.202	89.268	178.172	207.256	86.999	91.101	93.364	95.990	245.275	93.779	-8191	255	
885.692	1	1	0	0	0.027722	0.15036	0.23599	0.15888	0.29049	0.28595	0.041867	0.092373	0.15374	0.22243	0.089584	0.21739	0.19776	0.16368	0.2385	0.13854	-2.45	-1.9271	-2.2792	-2.6125	-2.0833	-2.5667	-2.4417	-2.0125	-2.6646	-1.9333	-2.2917	-2.7667	-1.7812	-2.5396	-2.5458	-1.8729	397.255	157.778	172.995	353.705	227.815	319.747	138.280	103.682	223.206	193.397	98.457	312.620	249.245	284.137	82.348	306.914	0.00034808	0.00017764	0.00013137	156.21	1.5819e-06	4.4758e-06	288.68	71.94	1.4572e-06	8.1094e-06	144.77	70.495	34.843	19.513	1.3755e-06	41.662	0.00049348	0.00052517	0.00014674	167.56	5.7481e-06	5.7118e-06	287.52	73.714	5.608e-06	5.8353e-06	145.94	71.304	35.345	19.932	5.7219e-06	41.855	201.094	130.797	169.700	83.850	201.835	237.570	82.589	88.906	341.025	239.684	86.366	90.960	93.303	96.099	262.371	93.784	-8191	255	
885.813	1	1	0	0	0.19054	0.21131	0.18516	0.11082	0.054336	0.089982	0.11319	0.077802	0.21095	0.13602	0.11801	0.13787	0.21302	0.29233	0.1198	0.043693	-2.425	-2.0667	-1.9896	-2.7062	-1.6938	-2.4104	-2.775	-1.7521	-2.9208	-2.1833	-2.05	-2.8729	-1.8771	-2.4604	-2.575	-1.9021	176.111	88.182	290.745	352.114	111.856	159.062	392.680	198.169	77.869	377.202	149.338	121.874	382.664	309.327	290.645	348.472	0.00028671	0.00021796	4.0302e-05	157.21	1.6459e-06	3.0152e-06	284.77	73.087	1.6901e-06	8.0736e-07	144.15	70.845	34.699	19.636	4.2882e-06	41.449	0.00048514	0.00051634	0.00014567	167.41	5.7277e-06	5.8196e-06	288.24	74.086	5.7952e-06	5.9876e-06	145.95	71.529	35.374	19.971	6.2374e-06	41.78	204.824	139.341	177.829	83.000	160.436	168.054	82.913	89.063	289.384	415.891	87.319	91.309	93.708	96.576	210.972	93.543	-8191	255	
885.909	1	1	0	0	0.22858	0.15139	0.25451	0.16269	0.061649	0.29086	0.28834	0.17782	0.064553	0.15891	0.13911	0.24469	0.039307	0.22359	0.068072	0.14007	-2.3354	-2.3812	-1.9458	-2.7896	-2.0021	-2.2208	-2.9271	-1.7542	-2.6729	-2.3958	-1.9208	-2.7417	-2.1375	-1.9458	-2.7583	-1.8708	157.499	142.388	243.151	211.424	399.889	360.421	94.822	314.156	407.329	94.532	185.530	371.712	345.460	402.854	73.541	292.522	0.00030969	6.6885e-05	5.917e-05	157.38	1.0683e-06	5.1451e-06	279.53	71.488	1.6852e-06	3.678e-06	143.36	69.913	34.136	19.402	3.8004e-06	40.794	0.00054596	0.00058789	0.00016899	168.03	6.665e-06	6.759e-06	284.56	73.399	6.725e-06	6.8343e-06	144.9	70.562	34.981	19.819	6.633e-06	41.2	203.678	149.504	161.030	82.978	203.303	195.777	82.995	89.049	253.186	210.303	86.718	91.131	93.975	96.529	253.271	93.523	-8191	255	
886.005	1	1	0	0	0.069959	0.41464	0.12346	0.22406	0.13016	0.10062	0.2424	0.21462	0.096469	0.22448	0.11375	0.22387	0.13008	0.18458	0.39573	0.15218	-2.2125	-2.3688	-1.7229	-3.0875	-2.1396	-2.05	-2.7229	-1.8188	-2.5521	-2.5292	-1.8229	-2.9938	-2.2042	-2.05	-2.6604	-1.9125	291.878	318.531	203.231	243.287	176.536	327.587	247.024	352.720	231.862	368.616	166.056	379.490	149.681	71.811	99.873	184.515	0.00030872	0.00051559	8.0087e-05	155.1	4.6692e-06	5.1875e-06	278.3	71.055	2.8034e-06	2.1058e-06	139.59	68.91	33.724	19.178	1.2013e-06	40.067	0.0005841	0.00062866	0.00017804	166.97	6.8141e-06	7.0575e-06	281.3	72.695	7.0131e-06	7.147e-06	142.66	69.485	34.618	19.555	6.95e-06	40.517	202.579	166.067	181.968	83.703	236.123	210.388	83.135	88.790	318.634	202.842	86.465	90.838	93.916	96.551	139.454	93.604	-8191	255	
886.100	1	1	0	0	0.044311	0.18245	0.081295	0.19626	0.16183	0.19986	0.18601	0.19455	0.1876	0.18996	0.093204	0.36919	0.24741	0.26806	0.11299	0.076997	-2.15	-2.5667	-1.7854	-2.8271	-2.1188	-1.9958	-2.7854	-1.9	-2.3563	-2.5667	-1.8375	-2.5729	-2.3104	-1.8813	-2.7812	-2.1437	312.862	318.384	427.483	265.228	362.572	275.564	341.585	238.424	414.546	318.439	107.432	389.283	376.110	238.654	208.094	291.777	0.00029554	0.00036046	7.1664e-05	153.38	1.5395e-06	4.082e-06	278.2	70.483	4.9697e-06	6.1862e-06	140.93	69.158	34.047	19.18	5.3944e-06	40.954	0.00059804	0.0006371	0.00017714	166.21	6.777e-06	7.1163e-06	280.46	72.536	6.8987e-06	6.9086e-06	142.7	69.874	34.742	19.665	6.3081e-06	41.023	205.074	169.947	192.737	83.832	186.938	217.485	83.409	88.862	174.256	199.949	86.729	90.896	93.694	96.445	181.160	93.416	-8191	255	
886.173	1	1	0	0	0.042517	0.059871	0.0703	0.18748	0.050465	0.067818	0.34981	0.16446	0.10718	0.2646	0.22313	0.23291	0.15929	0.25493	0.10379	0.050986	-1.8708	-2.6625	-1.8333	-2.4354	-2.2354	-1.9625	-2.8104	-2.2687	-2.1521	-2.7292	-1.8167	-2.6833	-2.4333	-1.8458	-2.675	-2.4583	290.222	292.635	74.149	277.342	378.572	290.633	322.068	196.136	364.798	379.479	187.593	274.026	74.233	355.534	295.868	281.216	0.00034656	0.00049818	6.0065e-05	155.54	4.3619e-06	2.4864e-06	278.08	72.305	2.1795e-06	4.049e-06	142.56	69.375	33.89	19.441	5.0782e-06	40.854	0.0005325	0.0005702	0.0001588	166.34	6.1168e-06	6.3753e-06	281.88	73.739	6.23e-06	6.5101e-06	144.39	70.426	34.953	19.848	6.3975e-06	41.33	204.312	188.118	184.196	83.947	220.918	154.497	82.827	88.714	212.359	243.341	86.501	90.886	93.025	96.027	234.729	93.561	-8191	255	
886.292	1	1	0	0	0.042046	0.12506	0.21254	0.30492	0.12221	0.019822	0.053304	0.058083	0.19838	0.10337	0.074779	0.040799	0.16136	0.13338	0.14385	0.21272	-1.725	-2.8187	-2.0229	-2.5687	-2.7833	-1.6458	-2.8312	-2.2313	-1.9813	-2.975	-2.0708	-2.55	-2.5417	-1.7896	-2.7292	-2.3208	328.427	389.789	129.130	275.396	335.561	373.947	394.463	145.842	78.898	136.514	177.680	389.650	231.147	87.497	401.973	348.897	0.00033833	0.00053917	2.7438e-05	156.76	1.6183e-06	4.3308e-06	284.65	72.48	1.7062e-06	3.2275e-06	142.81	69.711	34.473	19.481	5.4826e-07	40.667	0.00056403	0.00059041	0.00016755	168.31	6.4343e-06	6.6504e-06	284.86	73.931	6.3923e-06	6.6715e-06	145.03	70.808	35.19	19.825	6.6012e-06	41.184	205.296	259.852	389.441	84.109	250.844	220.769	83.331	88.783	206.035	240.449	86.584	91.062	93.044	95.895	146.870	93.372	-8191	255	
886.388	1	1	0	0	0.084435	0.038317	0.087037	0.11924	0.08848	0.33466	0.11193	0.25969	0.21022	0.061564	0.13817	0.28264	0.18024	0.14411	0.24151	0.041202	-1.5625	-2.7625	-2.0104	-2.3229	-2.6771	-1.7458	-2.6083	-2.3979	-1.8083	-3.0167	-2.1771	-2.1896	-2.6562	-1.9312	-2.5375	-2.3333	99.612	242.759	128.676	98.462	238.876	416.776	228.314	396.043	325.026	268.955	187.813	299.172	254.818	376.596	347.692	297.881	0.00032883	0.0001707	9.2518e-05	153.49	3.8256e-06	5.801e-06	278.58	71.508	2.3117e-06	2.3834e-06	139.74	68.213	33.731	18.968	2.2118e-06	39.605	0.00056968	0.00061571	0.00017275	166.55	6.6617e-06	6.6999e-06	281.74	73.679	6.7442e-06	7.0063e-06	142.92	69.478	34.713	19.435	7.7466e-06	40.001	199.174	134.831	128.800	83.255	196.507	179.695	83.084	88.526	190.028	300.966	86.393	91.159	93.579	95.981	209.583	93.288	-8191	255	
886.484	1	1	0	0	0.079417	0.084518	0.12723	0.29622	0.12034	0.22241	0.10567	0.10419	0.076467	0.067569	0.18002	0.078046	0.16404	0.14242	0.12252	0.10922	-1.5792	-2.7667	-2.1229	-2.0917	-2.8354	-1.8208	-2.4625	-2.6688	-1.7521	-2.8833	-2.25	-2.3292	-2.8	-1.775	-2.4667	-2.7583	418.896	122.771	93.177	359.377	190.184	112.503	393.215	235.637	173.032	79.841	78.912	404.743	235.000	147.475	224.529	81.606	0.0003026	0.00035181	4.7519e-05	152.55	2.4504e-06	2.2439e-06	272.5	70.294	4.643e-06	5.4242e-06	136.35	67.455	33.513	18.804	3.1023e-06	39.427	0.00065328	0.00073166	0.0002014	167.22	7.6927e-06	7.9025e-06	276.95	72.474	7.5992e-06	7.6933e-06	140.69	68.284	34.3	19.239	8.0004e-06	39.759	204.072	176.349	91.874	83.502	319.948	294.615	82.880	88.632	226.542	208.945	86.319	90.493	93.049	95.862	241.602	93.282	-8191	255	
886.580	1	1	0	0	0.17064	0.083524	0.072189	0.12042	0.32484	0.179	0.09464	0.050417	0.13952	0.13376	0.12413	0.37293	0.27714	0.18691	0.055717	0.077411	-1.35	-2.8104	-2.2021	-2.0667	-2.7812	-1.9542	-2.4313	-2.6896	-1.5583	-2.7917	-2.3396	-1.8813	-2.8708	-1.9083	-2.4562	-2.7229	245.160	402.427	377.019	217.511	208.992	116.847	347.809	147.648	80.637	117.893	353.880	325.978	316.115	91.602	178.595	276.274	0.00031389	0.0003308	3.381e-05	150.25	9.2917e-07	2.2326e-06	270.04	69.745	3.9428e-06	2.2986e-06	137.2	66.845	33.374	18.751	3.1495e-06	39.735	0.0006523	0.00071956	0.00020409	165.69	7.8113e-06	7.9193e-06	276.33	72.097	7.9083e-06	8.1954e-06	140.61	68.235	34.212	19.302	7.4751e-06	40.105	207.109	140.617	81.962	83.737	137.709	195.831	82.562	88.782	242.328	225.927	86.328	91.028	93.283	95.672	188.351	93.119	-8191	255	
886.701	1	1	0	0	0.28952	0.092493	0.051525	0.35492	0.11959	0.12077	0.082718	0.039186	0.022734	0.19111	0.24309	0.32958	0.21712	0.11188	0.2167	0.12651	-1.6979	-2.5708	-2.4604	-1.8792	-2.7604	-2.0146	-2.3229	-2.7542	-1.7979	-2.6333	-2.5938	-1.9958	-2.85	-2.1125	-2.2604	-2.8417	351.151	298.335	375.455	251.355	315.582	292.296	280.323	355.524	276.711	228.428	216.415	291.332	95.534	421.500	268.049	145.537	0.00030981	0.00048919	6.1032e-05	151.98	2.8751e-06	2.5679e-06	270.71	70.304	1.5825e-06	1.2583e-06	137.79	68.061	33.636	19.342	3.7085e-06	40.372	0.000625	0.00068594	0.00018823	164.56	7.0647e-06	7.3469e-06	275.73	72.058	6.7313e-06	6.8346e-06	140.49	68.922	34.361	19.687	6.4185e-06	40.704	205.935	152.246	179.308	83.668	238.675	253.813	82.803	88.446	419.975	213.003	86.488	90.781	93.802	96.073	223.156	93.325	-8191	255	
886.797	1	1	0	0	0.090605	0.10951	0.10289	0.26707	0.13813	0.24385	0.036441	0.20991	0.090163	0.090623	0.065989	0.13691	0.036747	0.10491	0.032868	0.2454	-1.4083	-2.5271	-2.3958	-1.7958	-2.7833	-1.9729	-2.0312	-2.8708	-1.7854	-2.475	-2.7062	-1.9521	-2.8229	-2.3542	-1.8188	-2.9125	331.603	78.648	140.069	223.881	190.297	212.098	322.402	76.982	340.792	334.531	241.677	337.868	318.533	401.894	377.722	387.975	0.00029237	0.00020916	7.9771e-05	152.52	3.514e-06	3.2384e-06	270.95	69.157	7.9512e-07	2.9463e-06	138.16	67.616	33.508	19.246	2.0902e-06	40.348	0.00055057	0.00059655	0.00016779	164.05	6.4274e-06	6.5618e-06	276.28	71.425	6.2924e-06	6.6493e-06	140.15	68.621	34.243	19.602	6.4132e-06	40.539	201.803	290.267	415.350	82.954	271.264	109.784	83.269	88.838	255.087	217.321	86.369	90.585	93.486	96.024	247.116	93.109	-8191	255	
886.893	1	1	0	0	0.064152	0.14466	0.25489	0.017626	0.18277	0.01348	0.2227	0.096544	0.21525	0.065391	0.22794	0.27586	0.1188	0.11569	0.11498	0.021014	-1.4729	-2.2729	-2.6667	-1.7792	-2.5958	-2.4167	-2.0875	-2.8312	-1.9729	-2.2708	-2.6167	-1.8396	-2.4688	-2.3292	-1.8604	-2.6604	120.183	203.034	404.372	294.109	207.162	97.147	346.553	100.199	246.325	118.330	298.502	382.523	345.971	271.556	261.264	299.245	0.00034106	7.5867e-05	0.00015069	153.32	1.3119e-06	3.0378e-06	271.68	69.231	2.1043e-06	3.307e-06	136.03	67.274	33.457	19.037	1.6385e-06	39.825	0.00053304	0.0005699	0.00015952	163.88	6.2621e-06	6.4792e-06	275.86	70.932	6.2815e-06	6.6935e-06	138.9	68.036	33.965	19.445	6.5306e-06	40.109	205.058	168.301	159.743	83.679	275.462	165.462	83.157	89.042	180.493	214.569	86.781	90.803	93.372	96.016	260.520	93.392	-8191	255	
886.989	1	1	0	0	0.37377	0.23907	0.086057	0.068197	0.12324	0.076333	0.2726	0.12474	0.14308	0.16023	0.097658	0.20959	0.20743	0.17446	0.33469	0.16371	-1.6167	-2.025	-2.8937	-1.9104	-2.4521	-2.3563	-1.6688	-2.8729	-2.0812	-2.0125	-2.6646	-1.9729	-2.4521	-2.4667	-1.7812	-2.7313	305.424	402.438	372.137	187.823	232.036	144.400	366.486	95.648	172.587	219.129	337.631	245.003	261.716	188.925	309.658	336.956	0.00035302	0.00039998	8.2715e-05	150.81	2.014e-06	9.3984e-06	271.08	69.012	1.9599e-06	5.3152e-06	135.86	66.859	33.259	18.971	6.6007e-07	39.26	0.00055544	0.00060792	0.00016594	163.48	6.6279e-06	6.7603e-06	275.76	70.88	6.8483e-06	7.0326e-06	139.19	67.802	34.115	19.324	7.2081e-06	39.812	208.941	230.284	108.669	82.535	208.597	192.716	82.615	88.475	248.909	293.672	86.911	91.098	93.631	96.008	220.501	93.437	-8191	255	
887.086	1	1	0	0	0.038315	0.11092	0.039214	0.049736	0.101	0.036117	0.13635	0.19279	0.042356	0.16878	0.12562	0.17494	0.074561	0.17946	0.24594	0.15536	-1.6792	-1.6729	-2.8563	-1.8312	-2.2354	-2.475	-1.8625	-2.7188	-2.4125	-1.7104	-2.7396	-2.0312	-2.2729	-2.7438	-1.8458	-2.8479	258.293	293.178	323.466	419.884	281.293	77.269	90.709	158.193	155.878	329.921	180.469	379.391	312.092	117.989	257.874	73.846	0.00028827	0.0001775	0.00015203	151.95	2.499e-06	5.1656e-06	274.12	69.67	2.9445e-06	5.1191e-06	137.91	67.8	33.194	18.969	4.5082e-06	39.793	0.00060195	0.000653	0.0001806	165.61	6.9894e-06	7.0603e-06	276.91	71.354	7.1006e-06	7.2552e-06	140.52	68.452	34.07	19.371	7.1694e-06	40.301	196.705	213.738	97.746	82.458	265.529	222.541	83.026	88.710	283.285	189.686	86.575	90.771	93.372	95.917	222.656	93.620	-8191	255	
887.182	1	1	0	0	0.071098	0.11672	0.20461	0.27148	0.159	0.080216	0.15128	0.2044	0.12835	0.082333	0.28916	0.063125	0.31188	0.20162	0.26937	0.16691	-1.7792	-1.7125	-2.7771	-2.0583	-1.9917	-2.6292	-1.9083	-2.2729	-2.5167	-1.7354	-2.8104	-2.0021	-2.2521	-2.7708	-1.9396	-2.5479	216.682	348.237	302.499	408.779	137.250	211.231	352.501	80.718	375.134	280.723	173.649	118.701	391.322	121.698	222.856	417.653	0.00030303	0.00028825	5.554e-05	152.97	4.2573e-06	2.3421e-06	274.81	70.62	3.7783e-06	2.3154e-06	137.69	67.675	33.653	19.136	2.5357e-06	39.931	0.00060423	0.000663	0.00018568	165.83	6.9774e-06	7.1057e-06	278.41	71.728	6.9862e-06	7.2383e-06	140.61	68.617	34.441	19.539	7.0848e-06	40.408	197.737	167.024	222.250	83.486	235.422	208.292	82.815	88.631	193.376	177.016	86.357	90.866	93.002	95.940	216.319	93.349	-8191	255	
887.301	1	1	0	0	0.14177	0.22549	0.11437	0.045667	0.11965	0.043747	0.15883	0.21239	0.28487	0.066215	0.20664	0.16322	0.23292	0.11873	0.26984	0.048372	-2.0604	-1.8563	-2.7458	-2.1042	-1.8792	-2.7521	-1.7833	-2.5646	-2.55	-1.8083	-2.8229	-2.125	-1.9292	-2.7771	-1.7854	-2.2625	97.665	318.038	108.847	401.204	360.057	208.564	382.156	82.510	382.834	192.573	168.286	104.328	362.502	313.004	192.595	421.327	0.00033301	0.00025119	0.00013028	152.91	3.2847e-06	3.7952e-06	272.04	69.525	2.9773e-06	3.3371e-06	136.89	67.006	33.146	19.139	4.2021e-06	40.121	0.00061156	0.0006763	0.00019091	166.56	7.535e-06	7.7831e-06	275.9	71.342	7.5211e-06	7.7347e-06	139.93	68.018	34.118	19.467	6.9416e-06	40.338	204.529	180.145	173.576	83.224	307.771	175.699	83.073	89.141	196.645	212.362	86.572	90.864	93.150	96.192	213.549	93.581	-8191	255	
887.397	1	1	0	0	0.11031	0.054879	0.3168	0.11729	0.31136	0.035926	0.11603	0.32235	0.035099	0.22307	0.044445	0.33535	0.10193	0.11723	0.10703	0.24326	-2.4271	-1.5375	-2.4646	-2.2083	-1.8333	-2.8125	-2.0187	-2.2875	-2.5271	-1.7833	-2.5979	-2.4167	-2.0396	-2.7979	-2.0479	-2.175	314.081	339.945	428.279	81.263	89.884	246.374	120.918	398.649	142.475	350.954	75.728	325.791	95.829	306.111	281.499	81.057	0.00030766	0.00035133	5.939e-05	152.39	1.7466e-06	1.7328e-06	275.29	70.067	2.3333e-06	3.6161e-06	138.69	68.003	33.689	19.243	1.4944e-06	40.539	0.00056787	0.00062666	0.00017431	164.99	6.8228e-06	6.8533e-06	278.8	71.819	6.7594e-06	7.0992e-06	141.29	69.044	34.482	19.62	6.6349e-06	40.821	197.629	149.022	131.144	83.424	202.112	169.367	82.973	88.960	178.943	193.358	86.218	90.877	93.370	96.147	242.162	93.285	-8191	255	
887.468	1	1	0	0	0.073439	0.056282	0.15341	0.10815	0.089768	0.46915	0.24671	0.073167	0.14804	0.22732	0.093584	0.1033	0.1393	0.17808	0.16158	0.45892	-2.5333	-1.9292	-2.5312	-2.3375	-1.7375	-2.7646	-2.2104	-2.1354	-2.8458	-2.0229	-2.3958	-2.5062	-1.8667	-2.7292	-2.2333	-2.2083	244.132	394.109	413.117	90.408	279.236	141.221	376.883	426.984	163.764	261.562	174.088	116.917	318.132	419.864	234.397	333.144	0.00030833	0.00038789	7.0305e-05	153.94	4.1159e-06	3.6522e-06	277.94	70.529	1.2567e-06	2.5632e-06	141.51	68.974	33.912	19.197	4.9846e-07	40.407	0.00055912	0.00060547	0.00016933	165.99	6.6492e-06	6.6869e-06	281.01	72.561	6.4619e-06	6.709e-06	143.51	69.787	34.728	19.633	6.712e-06	40.905	192.399	81.914	122.757	82.183	292.465	267.935	83.054	88.901	164.715	219.932	86.817	90.573	92.991	96.449	94.178	93.475	-8191	255	
887.589	1	1	0	0	0.17785	0.062794	0.16007	0.078977	0.21017	0.13908	0.35411	0.17825	0.12705	0.15981	0.16261	0.1939	0.11094	0.20069	0.069753	0.22465	-2.2979	-1.9083	-2.3229	-2.5792	-1.8188	-2.6521	-2.2833	-1.8833	-2.8625	-1.775	-2.3312	-2.6896	-1.8188	-2.6271	-2.2771	-2.0563	240.882	406.360	124.192	402.947	215.171	364.261	386.621	380.678	162.060	290.024	154.995	181.658	371.914	424.577	392.560	268.598	0.00030594	0.00053734	4.9447e-05	153.86	3.8389e-06	4.1073e-06	279.19	70.757	2.3777e-06	5.024e-06	141.21	69.157	34.162	19.238	1.2385e-06	40.395	0.0005748	0.00062487	0.00017389	167.52	6.7431e-06	6.8823e-06	282.28	72.871	6.4584e-06	6.662e-06	143.43	69.874	34.762	19.609	6.847e-06	40.747	201.985	180.340	195.909	83.219	267.267	230.182	82.605	88.896	251.286	227.965	86.644	91.130	93.203	95.862	183.856	93.336	-8191	255	
887.685	1	1	0	0	0.12325	0.099554	0.34962	0.038461	0.24227	0.043835	0.23918	0.19528	0.23341	0.29673	0.082611	0.10212	0.089264	0.17904	0.32888	0.06296	-2.4833	-1.8354	-2.1708	-2.6604	-1.5958	-2.6833	-2.1792	-1.9688	-2.4833	-1.8292	-2.1646	-2.9	-1.7292	-2.5875	-2.3125	-1.8896	285.049	245.133	344.589	241.893	264.544	328.384	220.016	203.755	322.398	128.317	220.858	394.801	367.465	152.971	208.222	304.394	0.00032961	0.00024822	3.3256e-05	157.03	6.9529e-07	4.2906e-06	278.27	70.327	2.4662e-06	2.8259e-06	140.39	68.017	33.443	18.968	1.2482e-06	40.195	0.00056651	0.00062289	0.0001743	167.71	6.7665e-06	6.8798e-06	281.11	72.307	6.5554e-06	6.8326e-06	142.64	68.789	34.356	19.425	6.8747e-06	40.306	196.687	169.948	193.686	82.340	365.189	198.709	82.843	88.794	225.577	281.089	86.710	90.869	93.655	95.728	211.644	93.472	-8191	255	
887.781	1	1	0	0	0.2577	0.21314	0.19203	0.024476	0.20922	0.25072	0.046302	0.19373	0.14573	0.072119	0.066157	0.10525	0.14718	0.34866	0.10826	0.33366	-2.4708	-2.1083	-1.9896	-2.8812	-1.775	-2.2917	-2.5896	-1.8354	-2.6312	-2.175	-1.9438	-2.8417	-1.9042	-2.4917	-2.6813	-1.9604	353.447	244.133	125.134	354.287	197.128	354.976	132.325	416.377	150.603	317.303	226.628	204.281	405.957	267.484	160.841	371.102	0.00029527	0.00013703	0.00011215	155.2	9.9525e-07	1.3966e-06	278.34	69.374	1.2447e-07	4.4064e-06	139.3	67.813	33.367	18.821	2.4669e-06	39.804	0.00057372	0.00063244	0.00017331	166.67	6.8955e-06	7.0412e-06	281.22	71.89	6.6565e-06	7.1196e-06	141.63	68.619	34.212	19.266	6.7288e-06	40.056	197.860	217.850	196.656	83.217	191.901	208.684	82.885	89.116	401.853	169.715	86.454	90.998	92.936	96.071	227.744	93.498	-8191	255	
887.877	1	1	0	0	0.19338	0.14699	0.22988	0.08219	0.027079	0.10869	0.23019	0.11736	0.01423	0.14523	0.066368	0.11286	0.12756	0.21921	0.0097523	0.234	-2.4729	-2.2	-2.0375	-2.7583	-1.8104	-2.2479	-2.8167	-1.7208	-2.5542	-2.0146	-1.8375	-2.7417	-2.1208	-2.25	-2.5438	-1.7271	427.038	215.966	387.062	203.417	286.939	294.567	361.117	140.562	141.835	390.542	227.293	294.672	247.677	350.697	255.045	95.382	0.00034119	0.00018555	0.00010177	154.26	2.0598e-06	3.6544e-06	278.96	70.321	2.0106e-06	2.7424e-06	138.71	67.793	33.17	18.828	2.4351e-06	39.839	0.00057628	0.00063325	0.00017223	167.12	6.8211e-06	6.8586e-06	281.6	72.337	6.6689e-06	6.9559e-06	141.48	68.813	34.136	19.28	7.0639e-06	40.084	195.233	253.158	176.889	83.614	260.557	245.095	82.901	88.742	78.755	357.865	86.500	90.702	93.608	95.851	279.335	93.386	-8191	255	
887.996	1	1	0	0	0.16618	0.16274	0.27296	0.0058506	0.16597	0.089844	0.21811	0.2139	0.049965	0.11564	0.20891	0.089361	0.06617	0.18599	0.19812	0.27594	-2.1917	-2.4271	-1.5375	-2.7438	-1.8271	-2.0583	-2.6604	-1.925	-2.3792	-2.3208	-1.7	-2.7458	-2.1542	-1.8771	-2.625	-1.8875	172.259	382.799	78.875	219.005	125.304	107.353	339.671	385.970	188.086	350.813	325.334	166.551	366.313	383.688	412.551	313.917	0.00032746	9.4491e-05	0.00011157	155.06	1.5392e-06	6.0534e-06	278.16	70.039	2.5628e-06	2.7322e-06	140.13	68.012	33.388	19.16	3.1697e-06	39.912	0.00059011	0.00065618	0.00018341	168.34	6.9566e-06	7.064e-06	281.49	72.047	6.9586e-06	7.2244e-06	142.06	69.069	34.237	19.413	7.0998e-06	40.256	190.745	296.941	246.975	82.977	211.533	156.918	83.280	88.364	252.336	241.528	86.558	91.302	93.333	96.071	229.867	93.706	-8191	255	
888.093	1	1	0	0	0.21012	0.12529	0.15024	0.07568	0.18019	0.33822	0.16065	0.21701	0.27605	0.028491	0.043284	0.15159	0.082334	0.25241	0.24462	0.063347	-1.9396	-2.5521	-1.6063	-2.5771	-2.1396	-1.8875	-2.7042	-1.8417	-2.0896	-2.6417	-1.8146	-2.7083	-2.2458	-2.0938	-2.7042	-2.0062	236.781	84.255	82.552	89.180	221.201	235.508	166.415	91.041	310.414	297.063	317.416	317.194	289.830	121.389	295.365	357.114	0.00029737	0.0003886	9.8877e-06	155.02	3.1146e-06	2.8396e-06	276.04	69.78	2.6406e-06	3.518e-06	138.81	67.581	33.243	18.928	4.5164e-06	39.901	0.00058949	0.00064502	0.00017936	167.5	6.8698e-06	7.0811e-06	280.73	71.81	6.8281e-06	6.9626e-06	141.38	68.592	34.188	19.318	6.6314e-06	40.192	200.716	136.888	150.994	83.240	266.986	270.163	83.181	88.932	329.982	219.728	86.850	91.056	92.915	96.219	212.562	93.692	-8191	255	
888.166	1	1	0	0	0.09735	0.10754	0.26829	0.22711	0.042619	0.10299	0.10409	0.29185	0.40844	0.069585	0.17127	0.012356	0.056817	0.17212	0.15583	0.23442	-1.825	-2.6083	-1.7313	-2.6792	-2.3625	-2.0042	-2.7458	-2.0292	-2.1896	-2.6979	-1.7771	-2.4833	-2.4292	-1.7354	-2.4979	-2.0812	262.894	146.713	401.883	81.433	82.758	276.431	108.224	341.075	223.019	351.952	343.844	275.112	326.275	119.246	325.451	246.631	0.00029813	0.000275	0.00010795	154.45	3.2872e-06	2.2324e-06	276.51	70.83	3.603e-06	3.9552e-06	139.91	68.342	33.984	19.188	1.2871e-06	40.035	0.0005572	0.00059496	0.00016664	166.1	6.3468e-06	6.5909e-06	280.24	72.132	6.479e-06	6.7344e-06	142.22	69.058	34.698	19.51	6.23e-06	40.459	197.200	178.498	238.646	82.712	240.649	105.949	83.144	88.804	224.442	209.864	87.020	90.952	93.400	95.930	223.332	93.618	-8191	255	
888.262	1	1	0	0	0.1296	0.1391	0.39306	0.10285	0.35643	0.15972	0.041749	0.0834	0.10463	0.26368	0.14517	0.17428	0.16808	0.19777	0.17592	0.16773	-1.6354	-2.6937	-1.8104	-2.4021	-2.6271	-1.8604	-2.6167	-2.0187	-1.8875	-2.6521	-1.8062	-2.2458	-2.7125	-1.7563	-2.5125	-2.2313	424.170	123.845	134.600	370.079	125.129	357.436	322.244	216.556	362.315	260.033	321.045	98.151	78.473	281.589	296.932	280.379	0.00035709	0.0002838	8.8077e-05	157.87	7.161e-07	3.7931e-06	280.82	70.951	2.8676e-06	4.6201e-06	141.34	68.696	33.941	19.149	2.7075e-06	40.054	0.00054889	0.00057038	0.00015872	167.83	6.299e-06	6.3487e-06	282.24	72.548	6.1403e-06	6.3517e-06	143.24	69.507	34.64	19.487	6.1214e-06	40.395	203.895	162.217	366.082	83.945	291.828	256.188	83.023	88.885	257.887	179.476	87.232	91.149	93.292	96.368	248.053	93.628	-8191	255	
888.381	1	1	0	0	0.11642	0.20465	0.13979	0.088789	0.091569	0.20642	0.11302	0.33268	0.27834	0.082887	0.1522	0.07936	0.18007	0.044617	0.13298	0.35132	-1.5375	-2.9167	-1.9854	-2.1708	-2.5771	-1.5438	-2.8292	-2.2771	-2.0563	-2.7521	-2.0479	-2.2687	-2.6937	-1.6896	-2.4583	-2.2625	189.151	331.631	400.278	118.028	327.176	346.802	148.397	257.521	130.393	221.679	417.860	366.743	91.048	363.174	298.443	370.023	0.00034318	0.00027117	4.4555e-05	156.59	3.4647e-06	3.5048e-06	280.98	71.605	1.4891e-06	3.4478e-06	142.52	68.755	33.905	19.019	1.0101e-06	40.246	0.00053333	0.00057451	0.00016139	167.05	6.1185e-06	6.3303e-06	283.62	73.055	6.099e-06	6.1712e-06	143.4	69.641	34.642	19.406	6.1197e-06	40.488	199.490	152.526	113.139	83.152	190.754	129.326	82.995	88.813	147.868	234.283	86.795	90.957	94.199	96.208	203.366	93.742	-8191	255	
888.477	1	1	0	0	0.17417	0.14272	0.27571	0.33929	0.28924	0.12371	0.0059454	0.16575	0.096694	0.15204	0.34529	0.27263	0.19065	0.13567	0.24945	0.029857	-1.4813	-2.6208	-1.7917	-2.1354	-2.7188	-1.6458	-2.4583	-2.3771	-1.8979	-2.6792	-2.0187	-2.0312	-2.7646	-2.0375	-2.4875	-2.7021	270.696	75.718	398.884	238.551	104.415	75.856	271.076	414.646	410.648	401.233	394.656	426.883	183.067	411.145	347.914	429.448	0.00033059	0.00031531	0.00010313	155.16	8.5174e-07	2.7679e-06	282.44	71.097	2.1811e-06	2.9596e-06	140.23	68.285	33.498	18.977	5.264e-06	39.666	0.00053238	0.00055952	0.00016001	167.19	6.099e-06	6.3228e-06	284.45	72.803	6.1444e-06	6.1589e-06	143	68.972	34.346	19.255	6.193e-06	40.024	195.973	83.245	120.881	84.241	338.949	274.111	82.950	88.718	237.711	152.092	86.352	90.982	93.360	96.459	236.427	93.518	-8191	255	
888.573	1	1	0	0	0.32164	0.24805	0.14672	0.13146	0.18976	0.089552	0.14158	0.1736	0.077353	0.35861	0.10548	0.11644	0.097718	0.27613	0.10973	0.21156	-1.3604	-2.875	-2.1292	-2.0292	-2.6646	-1.9646	-2.3979	-2.5896	-1.8417	-2.6583	-2.2021	-1.8771	-2.7042	-1.8917	-2.2458	-2.7542	163.746	109.178	148.941	364.097	212.174	199.578	156.634	277.062	428.902	265.002	353.265	296.475	309.716	174.347	309.079	86.043	0.00027519	0.00029003	0.0001564	155.87	2.4121e-06	1.5247e-06	276.1	70.917	2.1379e-06	4.411e-06	138.94	67.366	33.123	18.848	3.0896e-06	39.497	0.0005376	0.00057942	0.00015924	166.36	6.2826e-06	6.2689e-06	280.4	72.357	6.0773e-06	6.2474e-06	141.18	68.349	34.08	19.125	6.3191e-06	39.748	197.817	98.542	97.942	83.349	288.146	311.051	83.262	88.809	266.226	185.763	86.700	91.284	93.394	96.188	192.768	93.351	-8191	255	
888.694	1	1	0	0	0.037858	0.3293	0.23451	0.083934	0.13432	0.17896	0.21679	0.10202	0.22563	0.18461	0.043069	0.26677	0.017292	0.123	0.12611	0.062391	-1.3438	-2.8729	-2.2979	-1.8042	-2.6604	-1.9188	-2.0354	-2.7708	-1.7271	-2.7042	-2.3979	-1.9021	-2.6083	-2.0375	-2.1292	-2.8125	396.003	267.426	411.413	83.293	429.916	348.813	394.018	80.626	140.688	236.485	388.071	396.018	204.143	141.073	290.667	321.843	0.00030898	0.00012995	4.1032e-05	156.74	6.1057e-06	4.399e-06	275.33	70.738	2.875e-06	3.2551e-06	139	67.654	33.19	18.65	1.1887e-06	39.226	0.00053422	0.00057615	0.00016061	166.06	6.0954e-06	6.3774e-06	280.08	72.112	6.2587e-06	6.3328e-06	141.05	68.407	34.071	19.024	6.2598e-06	39.632	195.840	105.836	174.743	83.129	215.375	304.422	82.943	88.652	246.741	273.107	86.891	90.887	93.405	96.432	147.233	93.356	-8191	255	
888.766	1	1	0	0	0.13472	0.19761	0.22392	0.19376	0.23617	0.1945	0.102	0.05989	0.14009	0.2844	0.23373	0.36856	0.12316	0.16494	0.29784	0.10209	-1.4875	-2.4437	-2.5438	-1.7375	-2.8479	-2.1104	-2.0687	-2.7458	-1.7896	-2.6458	-2.525	-1.9167	-2.6562	-2.2479	-1.7958	-2.7313	344.307	76.250	259.562	259.930	182.453	308.497	366.081	149.237	205.399	107.865	394.095	377.299	95.070	402.099	219.072	382.004	0.00034597	0.0002291	6.5286e-05	157.77	2.942e-06	2.7821e-06	276.67	70.799	2.8266e-06	4.9962e-06	139.2	68.204	33.845	18.788	2.2391e-06	40.055	0.00053498	0.00057995	0.00015999	166.68	6.1455e-06	6.1859e-06	280.26	72.451	6.0364e-06	6.2063e-06	141.71	68.956	34.471	19.144	6.0279e-06	40.179	200.381	166.651	242.133	82.830	243.921	178.789	83.235	88.735	264.991	233.855	86.904	91.197	93.639	96.216	179.231	93.370	-8191	255	
888.862	1	1	0	0	0.20154	0.16687	0.12429	0.24693	0.20833	0.015815	0.13743	0.19031	0.24002	0.079973	0.11179	0.2104	0.23183	0.11457	0.14346	0.14312	-1.4833	-2.2833	-2.5354	-1.6292	-2.6625	-2.1792	-1.9604	-2.675	-1.9271	-2.2583	-2.6958	-1.7854	-2.65	-2.2292	-1.7646	-2.9437	74.250	210.226	128.259	134.480	341.064	137.449	351.734	367.391	162.589	392.175	423.124	371.222	109.068	92.557	428.953	422.550	0.00030256	0.00034059	0.00010138	155.2	1.7371e-06	1.5203e-06	280.78	71.714	2.659e-06	5.4886e-06	142.16	68.285	33.911	18.979	2.6417e-06	39.799	0.00051101	0.00054763	0.00015144	165.91	5.8217e-06	5.9363e-06	282.94	73.142	5.7265e-06	5.9802e-06	143.79	69.279	34.508	19.283	5.8519e-06	40.216	198.328	168.198	191.793	82.881	268.303	192.002	83.070	88.351	179.193	249.541	86.914	91.351	93.249	96.379	216.602	93.540	-8191	255	
888.982	1	1	0	0	0.064717	0.23124	0.22378	0.23004	0.11891	0.048785	0.070151	0.13387	0.20752	0.21368	0.24117	0.097723	0.068287	0.27858	0.26461	0.36361	-1.6875	-2.2292	-2.6521	-1.5167	-2.5812	-2.4292	-1.8083	-2.6437	-2.0167	-2.0563	-2.7313	-1.8521	-2.5542	-2.4625	-1.6271	-2.9	391.269	416.801	362.956	240.374	377.897	320.932	318.506	234.229	339.504	95.217	271.273	94.327	104.360	400.893	209.703	381.718	0.00028752	4.8728e-05	9.2712e-05	157.64	3.5009e-06	4.1084e-06	279.66	71.121	3.2541e-06	3.3138e-06	142.96	68.295	33.853	18.811	3.04e-06	39.95	0.00051494	0.0005418	0.00014805	167.1	5.7794e-06	5.845e-06	282.73	72.894	5.5689e-06	5.7355e-06	143.81	69.218	34.458	19.203	5.845e-06	40.096	200.443	178.751	151.578	83.816	202.509	216.746	82.992	88.731	270.427	204.186	86.810	91.055	93.398	96.284	224.407	93.825	-8191	255	
889.077	1	1	0	0	0.2539	0.19644	0.035933	0.067444	0.13587	0.222	0.14107	0.18857	0.15713	0.11976	0.030446	0.09059	0.11974	0.19288	0.28999	0.23349	-1.7563	-1.9167	-2.7854	-1.8312	-2.4354	-2.6521	-2.0062	-2.5375	-2.1583	-2.025	-2.7521	-1.8854	-2.4667	-2.7354	-1.8458	-2.7812	192.792	233.981	284.914	424.174	312.848	151.003	239.797	311.304	283.062	261.263	145.060	275.484	379.860	316.456	286.593	286.021	0.00031939	0.00046233	6.4474e-05	159.14	4.3351e-06	2.7678e-06	281.24	71.778	1.7369e-06	5.0952e-06	142.25	68.867	34.016	19.018	1.3893e-06	40.142	0.00050714	0.00053487	0.00015112	167.54	5.7315e-06	5.749e-06	284.02	73.178	5.6633e-06	5.6099e-06	143.91	69.816	34.532	19.349	5.4394e-06	40.523	203.157	208.514	165.442	83.378	219.864	197.881	82.575	88.839	200.556	283.248	86.353	90.984	93.236	96.542	264.677	93.851	-8191	255	
889.173	1	1	0	0	0.056729	0.30406	0.075325	0.20685	0.19963	0.089874	0.14261	0.10692	0.10466	0.34474	0.21713	0.1687	0.11118	0.14322	0.15531	0.46751	-2.0083	-1.9083	-2.8937	-1.9062	-2.3021	-2.4917	-1.8792	-2.5271	-2.2583	-1.7458	-2.925	-2.0604	-2.1063	-2.8333	-1.7125	-2.5542	102.753	158.646	135.049	147.610	178.425	128.841	291.127	273.269	159.435	260.197	397.165	345.234	211.916	243.760	109.140	372.101	0.00030648	0.00025009	8.5692e-05	158.01	2.58e-06	4.7857e-06	284.38	72.887	1.9691e-06	5.773e-07	144.25	69.475	34.255	19.129	3.3578e-06	40.762	0.00046739	0.00049753	0.00013668	167.56	5.268e-06	5.3898e-06	286.94	74.013	5.2718e-06	5.4195e-06	145.76	70.307	34.821	19.429	5.3103e-06	40.997	204.218	178.622	139.775	82.935	149.720	171.040	83.546	88.977	236.005	111.513	86.581	90.853	93.394	96.185	318.380	93.902	-8191	255	
889.294	1	1	0	0	0.16906	0.3392	0.23594	0.28617	0.21128	0.11796	0.27135	0.12881	0.14463	0.20649	0.07867	0.37638	0.14298	0.094538	0.22287	0.054048	-1.95	-1.6583	-2.6708	-1.9542	-2.0583	-2.5938	-2.0292	-2.5333	-2.5125	-1.7812	-2.7146	-2.0542	-2.0146	-2.7958	-1.9771	-2.4708	85.438	426.406	154.608	324.764	407.821	94.712	341.027	115.577	308.222	249.733	267.822	399.525	116.891	335.225	286.884	86.500	0.00032169	0.00011907	2.8533e-05	159.4	1.2514e-06	2.4689e-06	288.19	73.799	2.0185e-06	2.4129e-06	146.51	70.544	34.433	19.251	2.4086e-06	41.077	0.00045943	0.00048303	0.00013201	168.46	5.1013e-06	5.2349e-06	289.9	74.901	4.9756e-06	5.1705e-06	147.69	71.375	35.209	19.586	4.9635e-06	41.494	200.171	143.045	113.147	83.500	188.074	307.694	82.666	89.186	250.522	214.796	86.641	91.096	93.016	96.503	228.658	93.987	-8191	255	
889.365	1	1	0	0	0.24254	0.15013	0.21314	0.18087	0.13566	0.062916	0.35996	0.11148	0.03439	0.15718	0.11946	0.18873	0.10995	0.080554	0.12475	0.087097	-2.2708	-1.7458	-2.5812	-2.3729	-1.8229	-2.6896	-2.0479	-2.3583	-2.5896	-1.875	-2.6042	-2.3917	-1.7146	-2.7208	-2.1375	-2.1458	375.633	193.855	178.914	359.990	180.606	389.501	429.639	270.126	245.764	82.057	366.028	99.029	95.598	186.875	291.158	334.932	0.00035564	0.00024495	3.6145e-05	159.27	9.2526e-07	4.158e-06	289.47	74.787	1.8537e-06	4.2126e-06	146.38	70.005	34.539	19.344	2.9201e-06	40.78	0.00043991	0.00045545	0.00012405	167.49	4.8955e-06	5.0704e-06	290.54	75.566	4.9284e-06	5.1139e-06	147.46	70.929	35.224	19.573	5.0336e-06	40.978	200.573	135.469	138.180	83.665	173.001	224.904	82.589	88.657	294.392	191.657	86.657	90.741	93.664	96.501	175.714	93.776	-8191	255	
889.461	1	1	0	0	0.15527	0.16689	0.13711	0.118	0.049643	0.24727	0.090373	0.11309	0.20787	0.11361	0.1664	0.28824	0.078894	0.3308	0.070833	0.028428	-2.2354	-1.7437	-2.5458	-2.4271	-1.925	-2.8667	-2.0812	-1.8583	-2.6958	-1.7958	-2.5542	-2.6208	-1.9271	-2.775	-2.3021	-2.0292	423.413	422.025	259.465	236.529	223.553	147.560	344.571	302.001	264.269	292.142	337.960	388.709	323.064	169.480	170.471	358.126	0.00034498	0.00014088	6.2977e-05	162.87	2.9606e-06	8.8253e-07	287.14	73.532	3.7909e-06	6.9835e-06	146.05	70.802	34.616	19.321	1.8032e-06	41.244	0.00045116	0.00045897	0.00012668	169.58	4.9421e-06	4.9841e-06	289.44	75.007	4.9212e-06	5.1576e-06	147.34	71.244	35.145	19.577	4.8514e-06	41.386	202.631	403.326	138.148	83.986	208.453	203.423	83.006	88.493	274.656	236.174	86.723	90.365	93.499	96.259	244.333	93.822	-8191	255	
889.557	1	1	0	0	0.15272	0.22363	0.040701	0.19936	0.23559	0.29584	0.1991	0.0092022	0.059613	0.1329	0.17192	0.40962	0.17274	0.21274	0.19628	0.053052	-2.325	-1.8563	-2.6625	-2.5229	-1.8771	-2.7188	-2.0146	-1.8042	-2.8333	-1.8792	-2.2854	-2.5583	-1.825	-2.6583	-2.2542	-1.8687	347.994	131.623	377.030	374.280	266.170	203.009	411.674	377.747	292.670	132.053	89.911	359.282	420.437	307.647	140.199	389.687	0.00030846	0.00030963	5.6955e-05	161.64	3.2103e-06	1.233e-06	287.26	75.176	8.4952e-07	4.1461e-06	147.52	71.103	34.891	19.174	1.9562e-06	41.13	0.00044416	0.00045224	0.0001266	168.61	4.865e-06	4.9803e-06	289.76	75.673	4.802e-06	5.0087e-06	148.64	71.487	35.379	19.565	4.8611e-06	41.309	194.419	143.002	168.981	84.002	216.585	77.869	83.082	88.555	219.573	206.102	87.022	91.090	93.921	96.399	250.912	94.271	-8191	255	
889.678	1	1	0	0	0.16533	0.14881	0.3277	0.29194	0.038321	0.19228	0.050031	0.18735	0.10757	0.21597	0.21151	0.13556	0.0621	0.20163	0.22427	0.1439	-2.3542	-2.0292	-2.2521	-2.6479	-1.8875	-2.6333	-2.2167	-1.9312	-2.6354	-1.9896	-1.975	-2.6958	-1.9104	-2.5167	-2.4396	-1.8875	324.223	216.098	402.862	324.824	156.064	405.602	332.795	362.792	208.382	114.548	315.059	409.661	405.586	150.328	223.749	332.260	0.00031196	0.00023876	5.6606e-05	161.46	2.8229e-06	3.4466e-06	287.41	73.515	7.7406e-07	3.2503e-06	145.01	70.71	34.54	19.352	1.5136e-06	40.683	0.00044757	0.00047622	0.00013412	169.56	5.2374e-06	5.2824e-06	290.38	74.812	5.2589e-06	5.4439e-06	147.15	71.214	35.002	19.568	5.5836e-06	40.909	198.928	120.093	170.481	84.159	214.176	213.188	83.121	88.962	261.324	281.969	86.331	90.663	93.281	95.927	218.414	93.655	-8191	255	
889.774	1	1	0	0	0.073506	0.25376	0.57024	0.2032	0.16218	0.12367	0.070934	0.2135	0.31354	0.057684	0.22949	0.10003	0.23861	0.2344	0.033716	0.15146	-2.3854	-1.9958	-1.8083	-2.7521	-1.5396	-2.5729	-2.5646	-1.8896	-2.6292	-2.2021	-1.9229	-2.9125	-1.7271	-2.5771	-2.3292	-1.9562	329.645	299.642	299.453	429.826	245.723	329.435	428.179	388.578	81.817	285.424	392.615	84.770	252.842	158.356	313.984	417.455	0.00030484	0.00026885	7.4227e-05	158.54	4.1055e-06	3.9919e-06	286.4	71.845	3.5629e-07	4.2354e-06	144.78	68.922	33.751	18.889	5.0513e-07	39.677	0.00048909	0.00053544	0.00015108	169.03	5.7011e-06	5.8755e-06	288.11	73.756	5.8312e-06	6.0663e-06	145.49	69.853	34.553	19.227	5.924e-06	40.066	194.718	114.508	126.673	83.147	178.114	165.991	82.698	88.849	160.140	230.854	86.407	90.562	93.474	96.194	166.676	93.501	-8191	255	
889.870	1	1	0	0	0.28169	0.098561	0.081338	0.14951	0.20056	0.068546	0.17043	0.058971	0.11543	0.26053	0.20713	0.11924	0.16742	0.17421	0.1798	0.12904	-2.1792	-2.2521	-1.8771	-2.6167	-1.8229	-2.2625	-2.6396	-1.6625	-2.5521	-2.1729	-1.8979	-2.9083	-1.9688	-2.2562	-2.4437	-1.8292	269.571	400.602	104.116	327.787	95.306	330.963	342.730	320.446	204.719	223.890	301.027	295.140	355.281	139.510	77.664	116.237	0.00031874	0.00042177	0.00013275	159.13	3.5336e-06	3.0092e-06	285.14	71.137	2.0155e-06	5.295e-06	141.01	68.382	33.442	18.855	2.2693e-06	39.611	0.00051062	0.00053718	0.00015169	169.16	5.746e-06	6.022e-06	286.25	72.753	6.0271e-06	6.1138e-06	143.07	68.927	34.189	19.104	5.7515e-06	39.946	198.962	141.080	213.871	83.417	232.480	153.621	82.760	88.691	225.986	104.935	86.950	90.761	93.436	96.227	218.197	93.769	-8191	255	
889.967	1	1	0	0	0.12443	0.37316	0.15629	0.14971	0.11423	0.1496	0.093303	0.048322	0.17186	0.088395	0.12934	0.15532	0.11375	0.32543	0.077381	0.17819	-2.4375	-2.425	-1.8667	-2.7979	-1.9438	-2.1625	-2.7771	-1.7646	-2.5396	-2.4729	-1.8625	-2.9083	-2.2542	-1.9229	-2.8708	-1.7792	346.882	259.871	259.137	183.319	176.178	358.748	84.282	89.819	271.253	375.711	353.133	115.212	198.463	376.852	123.137	243.957	0.00029732	0.00022967	7.8042e-05	157.29	4.4155e-06	7.3728e-07	284.54	72.053	2.2721e-06	2.275e-06	143.38	68.493	33.872	18.97	2.3904e-06	40.115	0.00049253	0.00051616	0.00014022	167.33	5.4945e-06	5.7106e-06	286.16	73.22	5.3926e-06	5.5552e-06	144.43	69.634	34.437	19.229	5.4541e-06	40.402	202.258	219.822	209.966	83.465	202.906	229.161	83.077	88.679	216.295	209.975	86.586	90.907	92.946	96.439	202.016	93.636	-8191	255	
890.063	1	1	0	0	0.086519	0.19478	0.12768	0.14095	0.31269	0.14684	0.10559	0.16254	0.073975	0.12075	0.2571	0.18918	0.12914	0.13557	0.2652	0.037705	-1.9625	-2.2667	-1.7708	-2.6063	-2.0375	-1.9521	-2.7854	-1.8917	-2.3979	-2.3875	-1.8729	-2.7104	-2.0979	-1.875	-2.8625	-2.0042	386.320	109.956	225.324	403.742	419.590	347.432	358.073	107.166	343.237	427.194	231.274	356.610	225.935	363.728	218.070	159.581	0.00029801	0.00021599	6.9534e-05	160.73	1.1115e-06	2.2935e-06	288.29	71.91	9.5957e-07	2.3532e-06	143.59	69.576	34.029	19.05	1.8933e-06	40.586	0.00047617	0.00049308	0.00013979	169.15	5.3636e-06	5.4646e-06	288.73	73.432	5.3341e-06	5.4782e-06	145.48	70.406	34.664	19.326	5.303e-06	40.698	196.733	212.615	122.134	83.276	259.892	133.749	82.871	88.382	151.652	150.118	86.326	90.693	93.432	95.923	249.126	93.549	-8191	255	
890.159	1	1	0	0	0.17702	0.14164	0.092118	0.066729	0.29826	0.019354	0.081009	0.04112	0.13054	0.21805	0.19958	0.10383	0.077262	0.096238	0.13061	0.14133	-2.0583	-2.5146	-1.95	-2.7083	-2.3333	-1.6958	-2.7896	-1.8354	-2.2062	-2.625	-1.5833	-2.6937	-2.4125	-1.8896	-2.6604	-1.9667	275.055	256.032	89.947	97.967	276.656	369.941	185.562	412.464	263.224	107.382	397.475	75.336	147.605	214.067	96.626	428.666	0.00031553	0.00024371	0.00010227	161.46	1.3429e-06	2.0923e-06	286.96	72.01	2.5766e-06	2.5222e-06	144.66	69.524	33.971	18.851	3.8811e-06	39.764	0.00047433	0.00049603	0.00014013	169.91	5.3506e-06	5.5188e-06	288.6	73.623	5.4867e-06	5.5958e-06	145.77	70.134	34.602	19.188	5.597e-06	40.146	195.213	237.910	126.409	82.378	206.994	193.245	82.882	88.441	244.331	242.232	86.604	91.017	93.356	95.950	260.846	93.666	-8191	255	
890.255	1	1	0	0	0.18476	0.12916	0.21281	0.19969	0.22615	0.13878	0.2184	0.1026	0.11305	0.031577	0.38529	0.1662	0.13342	0.17648	0.28178	0.22735	-1.8458	-2.4688	-1.8937	-2.5771	-2.4917	-1.8521	-2.8542	-2.0438	-2.0812	-2.6937	-1.975	-2.3937	-2.6104	-1.7542	-2.7729	-2.1312	350.843	103.518	413.454	208.057	383.408	140.988	165.958	204.385	136.293	428.236	324.883	385.633	343.628	113.005	79.876	123.551	0.00031549	0.00029063	0.00018751	159.23	5.4029e-06	1.8501e-06	285.43	71.715	9.0778e-07	2.8052e-06	140	67.83	33.136	18.634	1.3032e-06	39.323	0.0004921	0.00052194	0.00014931	168.94	5.5807e-06	5.8975e-06	287.05	73.14	5.7403e-06	5.8227e-06	143.33	68.712	34.062	18.912	5.7137e-06	39.595	203.720	152.920	167.683	83.251	140.620	138.988	83.136	88.458	223.159	121.064	86.343	90.702	93.284	96.065	230.234	93.594	-8191	255	
890.374	1	1	0	0	0.2175	0.092655	0.15112	0.073677	0.18068	0.12613	0.34164	0.13195	0.054739	0.066091	0.36449	0.21394	0.14197	0.15167	0.077674	0.21417	-1.925	-2.8208	-1.8542	-2.3	-2.7167	-1.6854	-2.6979	-2.4646	-1.9667	-2.7792	-1.9271	-2.4146	-2.9583	-1.8563	-2.4375	-2.4167	285.532	367.713	114.846	342.503	226.663	377.637	286.034	425.174	179.254	344.222	101.051	379.045	223.153	407.442	227.186	118.158	0.00032618	0.00019937	9.775e-05	158.22	4.3398e-06	5.1082e-06	285.08	71.319	1.9867e-06	3.3374e-06	140.43	68.072	33.297	18.478	2.6935e-06	39.454	0.00050086	0.00052953	0.00014604	168.51	5.65e-06	5.9758e-06	286.03	72.57	5.9069e-06	6.1484e-06	142.67	68.64	34.028	18.878	5.802e-06	39.62	201.387	185.855	188.836	83.922	195.359	184.108	83.389	88.517	231.905	288.613	86.288	91.149	93.350	96.026	225.844	93.672	-8191	255	
890.470	1	1	0	0	0.23131	0.14544	0.14215	0.16048	0.27193	0.054535	0.088917	0.10518	0.1971	0.11089	0.082345	0.2058	0.21987	0.21919	0.1235	0.090975	-1.6938	-2.9042	-2.1792	-2.175	-2.5792	-1.9292	-2.5958	-2.3625	-1.9771	-2.8312	-2.0271	-2.2771	-2.8896	-1.8312	-2.6792	-2.5271	339.739	210.154	358.837	96.361	251.805	154.571	100.788	371.735	204.670	397.960	346.754	95.186	84.455	354.007	414.692	336.734	0.00029063	6.9145e-05	8.1356e-05	160.37	1.5584e-06	4.8485e-06	281.5	70.565	3e-06	4.5129e-06	142.17	67.885	33.149	18.607	1.105e-06	39.084	0.00052414	0.00055813	0.00015251	168.55	5.9863e-06	6.1552e-06	285.09	72.454	6.1064e-06	6.4359e-06	142.8	68.612	33.986	18.87	6.3481e-06	39.431	203.558	254.869	145.916	83.740	214.292	191.099	82.968	88.639	238.374	275.486	86.746	91.027	93.042	96.131	281.089	93.515	-8191	255	
890.566	1	1	0	0	0.22355	0.2124	0.15761	0.22641	0.20921	0.16894	0.036474	0.31551	0.22359	0.1968	0.30517	0.10024	0.11009	0.18934	0.236	0.08361	-1.5125	-2.8146	-2.125	-2.0104	-2.8042	-1.8979	-2.4604	-2.5812	-1.8312	-2.7375	-2.2625	-2.1312	-2.8396	-2.1312	-2.2396	-2.6813	282.892	167.560	380.560	116.250	77.124	270.870	216.255	328.143	232.215	197.728	321.207	137.033	419.983	116.248	156.142	408.832	0.00032491	0.00051623	0.00010329	158.66	3.0798e-06	3.6219e-06	282.84	70.013	3.0494e-06	5.4407e-06	139.5	68.198	33.1	18.419	3.3916e-06	39.14	0.00054855	0.00058454	0.00016294	169.31	6.2523e-06	6.481e-06	285.39	72.039	6.3523e-06	6.5912e-06	142.11	68.476	33.831	18.825	6.5172e-06	39.376	204.634	164.295	111.303	82.929	299.614	123.227	83.050	88.616	279.237	200.653	86.517	90.921	93.234	96.116	216.977	93.616	-8191	255	
890.662	1	1	0	0	0.11586	0.15288	0.12188	0.30234	0.15347	0.28565	0.13372	0.029331	0.20496	0.12233	0.13095	0.10735	0.048057	0.12437	0.15537	0.058885	-1.3271	-2.5812	-2.2729	-2.0417	-2.7062	-2.0854	-2.1896	-2.7979	-1.6187	-2.7083	-2.2667	-1.9937	-3	-2.175	-2.2	-2.9833	223.586	300.914	135.366	164.987	90.530	113.434	194.414	157.283	394.415	340.128	396.442	146.655	163.960	344.216	364.321	72.199	0.00034125	0.00023031	6.213e-05	156.61	3.8598e-06	3.8224e-06	280.56	69.505	2.692e-06	1.4459e-06	137.86	67.609	32.916	18.261	1.8317e-06	38.591	0.00055825	0.00060424	0.00016386	167.7	6.2913e-06	6.3997e-06	282.89	71.734	6.2444e-06	6.4746e-06	140.77	67.919	33.692	18.697	6.3168e-06	38.997	202.771	148.297	168.024	83.749	230.474	275.904	83.161	88.252	248.975	287.536	86.852	90.992	93.385	95.989	230.092	93.673	-8191	255	
890.759	1	1	0	0	0.040692	0.21523	0.1285	0.076654	0.19593	0.084364	0.20113	0.22745	0.15996	0.35124	0.31019	0.066462	0.070032	0.10154	0.02621	0.17959	-1.3625	-2.6875	-2.3604	-1.8479	-2.9437	-2.0604	-2.2938	-2.7083	-1.9292	-2.6646	-2.5375	-2.0208	-2.7083	-2.2104	-2.1542	-2.8438	331.708	277.577	379.372	409.538	207.046	123.008	401.200	386.884	156.170	101.358	380.737	411.305	107.857	93.957	365.686	379.138	0.00030062	6.6988e-05	0.00015051	155.97	1.5814e-06	5.8897e-06	277.75	70.846	9.7282e-07	4.475e-06	138.81	66.753	32.98	18.35	4.0892e-06	38.9	0.0005438	0.00057638	0.00016356	166.91	6.1708e-06	6.3431e-06	282.33	71.79	6.2223e-06	6.3262e-06	140.86	67.981	33.711	18.727	6.1987e-06	39.3	200.206	324.722	178.560	83.746	214.154	197.421	82.971	88.480	252.025	304.905	86.851	90.818	93.578	96.329	281.462	93.690	-8191	255	
890.855	1	1	0	0	0.1653	0.21658	0.34714	0.12781	0.33901	0.12168	0.12882	0.10484	0.13621	0.19218	0.2003	0.040093	0.1654	0.10811	0.025152	0.26207	-1.4771	-2.3042	-2.6667	-1.8021	-2.6917	-2.15	-2.025	-2.9813	-1.8771	-2.5708	-2.575	-1.8771	-2.4792	-2.5271	-2	-2.825	126.391	400.052	422.845	127.806	252.040	292.184	234.324	100.635	234.267	317.899	131.579	394.181	345.673	360.721	405.961	320.643	0.00033707	0.00030414	6.5388e-05	155.21	2.208e-06	2.6137e-06	282.84	70.722	2.4371e-06	1.8315e-06	140.97	68.114	33.567	18.708	3.2604e-06	39.359	0.00052011	0.00056826	0.00015712	167.8	5.8992e-06	6.0465e-06	284.69	72.29	5.9381e-06	6.2238e-06	143.08	68.821	34.217	19.025	5.9057e-06	39.838	203.202	170.548	177.345	83.454	206.319	203.092	83.101	88.624	205.403	111.218	87.125	91.215	93.946	96.285	231.378	93.795	-8191	255	
890.975	1	1	0	0	0.094892	0.094657	0.037266	0.028905	0.29318	0.061472	0.2077	0.078078	0.21203	0.089599	0.3429	0.12068	0.18858	0.035406	0.062345	0.28984	-1.6479	-2.1646	-2.7396	-1.7396	-2.6979	-2.0312	-1.8958	-2.6833	-2.0083	-2.1333	-2.7542	-1.8625	-2.6458	-2.525	-2.0083	-2.8042	169.496	296.762	354.913	116.270	81.764	370.988	102.063	319.803	165.863	222.303	272.060	425.327	427.413	336.691	270.839	354.587	0.00030877	0.00038083	0.00010379	158.84	2.4209e-06	1.9271e-06	284	71.194	1.9868e-06	3.8259e-06	142.96	68.153	33.361	18.744	2.4654e-06	39.986	0.00050382	0.00054561	0.00014743	168.71	5.7166e-06	5.8727e-06	287.11	72.791	5.7026e-06	5.8966e-06	144.42	69.405	34.303	19.068	5.7218e-06	40.161	202.715	113.997	202.508	84.182	175.388	182.744	83.171	88.508	250.358	234.741	86.380	90.721	93.096	95.918	166.687	93.574	-8191	255	
891.071	1	1	0	0	0.12409	0.28478	0.14307	0.14461	0.1772	0.31508	0.29147	0.083543	0.44125	0.24561	0.081497	0.023969	0.18545	0.19991	0.13491	0.25552	-1.8229	-2.0375	-2.8292	-1.9062	-2.3896	-2.5687	-1.7188	-2.6562	-2.1729	-1.8271	-2.8667	-1.725	-2.4333	-2.4333	-1.9354	-2.7729	397.060	174.893	176.940	154.294	232.205	128.071	400.763	79.734	299.808	109.197	325.902	125.135	370.991	145.472	157.951	250.472	0.00030766	0.00010629	5.6241e-05	161.11	1.7768e-06	5.5224e-06	283.63	72.095	8.9664e-07	3.8814e-06	141.95	68.145	33.644	18.707	2.4084e-06	39.651	0.00049695	0.00053277	0.00014314	169.97	5.6407e-06	5.7767e-06	287.55	72.931	5.5445e-06	5.7242e-06	143.65	69.094	34.234	19.029	5.7939e-06	39.777	199.047	264.122	114.697	83.456	308.782	184.923	83.384	88.711	285.669	233.388	86.334	90.892	93.709	96.167	282.314	93.536	-8191	255	
891.166	1	1	0	0	0.045693	0.14431	0.091924	0.098341	0.064653	0.099519	0.25907	0.11415	0.11162	0.046627	0.057493	0.16403	0.2015	0.17307	0.076281	0.22563	-1.8438	-1.8458	-2.8875	-1.725	-2.2146	-2.7583	-1.6354	-2.8479	-2.1646	-1.8646	-2.8167	-2.0062	-2.2812	-2.7521	-1.8354	-2.6688	322.215	348.553	345.805	423.982	165.518	393.562	350.132	82.948	175.556	296.706	380.806	385.242	271.970	417.346	300.314	151.541	0.00030072	0.00044487	2.1861e-05	158.65	3.754e-07	3.1467e-06	284.7	71.043	1.6668e-06	7.0924e-06	141.81	68.209	33.738	18.754	3.5266e-06	39.738	0.00049194	0.00052247	0.00014488	168.63	5.6016e-06	5.4849e-06	286.68	72.657	5.4815e-06	5.6395e-06	143.78	69.018	34.28	19.068	5.6056e-06	39.83	196.782	129.326	136.002	83.424	190.169	152.745	83.112	88.626	335.967	204.256	86.204	90.929	93.593	96.023	286.339	93.682	-8191	255	
891.262	1	1	0	0	0.14865	0.14996	0.097206	0.13868	0.2882	0.091817	0.053017	0.11605	0.32672	0.095025	0.25334	0.077445	0.16172	0.11394	0.40645	0.1951	-1.975	-1.8708	-2.7625	-2.1771	-2.1813	-2.6437	-1.9521	-2.4813	-2.5604	-2.0875	-2.7938	-2.3229	-1.9875	-2.7083	-1.9229	-2.4125	321.485	263.606	403.598	83.058	235.151	282.226	144.914	157.130	75.439	388.776	345.950	353.981	165.353	409.025	285.600	86.388	0.00029698	0.00020768	0.00013264	158.17	1.6922e-06	2.0851e-06	285.86	71.346	1.8567e-06	2.436e-06	142.01	68.498	33.687	18.818	5.733e-07	39.973	0.00049267	0.00052137	0.00014423	168.14	5.5976e-06	5.6092e-06	287.3	72.853	5.5045e-06	5.817e-06	143.5	69.275	34.299	19.031	5.7066e-06	40.042	199.867	122.751	144.416	83.056	224.503	203.420	82.998	88.866	225.560	255.958	86.685	90.821	93.009	96.239	318.940	93.459	-8191	255	
#DATA ENDS
