BOXY.EXE: ISS Imagent and Oximeter Data Acquisition Program Version 0.80
Ascii Record File

#ACQ INFORMATION
2  Detector Channels 
16  External MUX Channels 
1  Auxiliary Channels 
5000  Waveform (CCF) Frequency (Hz)
1  Waveforms Skipped 
30  Waveforms Averaged 
1  Cycles Averaged 
16  Acquisitions per Waveform 
10.0806  Updata Rate (Hz) 

#FILE INFORMATION
TRUE -- External MUX Channel results are PARSED.
FALSE -- AC DC and Phase are NOT grouped.
TRUE -- Companion Program Settings File CREATED.
FALSE -- AC data not excluded
FALSE -- DC data not excluded
FALSE -- Phase data not excluded
FALSE -- Auxillary Chn. data not excluded
Tab delimiters

#CALIBRATION STATE
TRUE -- Waveform Calibration Values APPLIED.


#AUX CALIBRATION VALUES
Val Type	aux-1	

Term	1.0000e+00	
Factor	0.0000e+00	


#WF CALIBRATION VALUES
A = Detector Channel
Val Type	A-AC1	A-AC2	A-AC3	A-AC4	A-AC5	A-AC6	A-AC7	A-AC8	A-AC9	A-AC10	A-AC11	A-AC12	A-AC13	A-AC14	A-AC15	A-AC16	A-DC1	A-DC2	A-DC3	A-DC4	A-DC5	A-DC6	A-DC7	A-DC8	A-DC9	A-DC10	A-DC11	A-DC12	A-DC13	A-DC14	A-DC15	A-DC16	A-Ph1	A-Ph2	A-Ph3	A-Ph4	A-Ph5	A-Ph6	A-Ph7	A-Ph8	A-Ph9	A-Ph10	A-Ph11	A-Ph12	A-Ph13	A-Ph14	A-Ph15	A-Ph16	

Term	0.00000e+00	0.00000e+00	0.00000e+00	0.00000e+00	0.00000e+00	0.00000e+00	0.00000e+00	0.00000e+00	0.00000e+00	0.00000e+00	0.00000e+00	0.00000e+00	0.00000e+00	0.00000e+00	0.00000e+00	0.00000e+00	0.00000e+00	0.00000e+00	0.00000e+00	0.00000e+00	0.00000e+00	0.00000e+00	0.00000e+00	0.00000e+00	0.00000e+00	0.00000e+00	0.00000e+00	0.00000e+00	0.00000e+00	0.00000e+00	0.00000e+00	0.00000e+00	0.00000e+00	0.00000e+00	0.00000e+00	0.00000e+00	0.00000e+00	0.00000e+00	0.00000e+00	0.00000e+00	0.00000e+00	0.00000e+00	0.00000e+00	0.00000e+00	0.00000e+00	0.00000e+00	0.00000e+00	0.00000e+00	
Factor	1.00000e+00	1.00000e+00	1.00000e+00	1.00000e+00	1.00000e+00	1.00000e+00	1.00000e+00	1.00000e+00	1.00000e+00	1.00000e+00	1.00000e+00	1.00000e+00	1.00000e+00	1.00000e+00	1.00000e+00	1.00000e+00	1.00000e+00	1.00000e+00	1.00000e+00	1.00000e+00	1.00000e+00	1.00000e+00	1.00000e+00	1.00000e+00	1.00000e+00	1.00000e+00	1.00000e+00	1.00000e+00	1.00000e+00	1.00000e+00	1.00000e+00	1.00000e+00	X	X	X	X	X	X	X	X	X	X	X	X	X	X	X	X	

B = Detector Channel
Val Type	B-AC1	B-AC2	B-AC3	B-AC4	B-AC5	B-AC6	B-AC7	B-AC8	B-AC9	B-AC10	B-AC11	B-AC12	B-AC13	B-AC14	B-AC15	B-AC16	B-DC1	B-DC2	B-DC3	B-DC4	B-DC5	B-DC6	B-DC7	B-DC8	B-DC9	B-DC10	B-DC11	B-DC12	B-DC13	B-DC14	B-DC15	B-DC16	B-Ph1	B-Ph2	B-Ph3	B-Ph4	B-Ph5	B-Ph6	B-Ph7	B-Ph8	B-Ph9	B-Ph10	B-Ph11	B-Ph12	B-Ph13	B-Ph14	B-Ph15	B-Ph16	

Term	0.00000e+00	0.00000e+00	0.00000e+00	0.00000e+00	0.00000e+00	0.00000e+00	0.00000e+00	0.00000e+00	0.00000e+00	0.00000e+00	0.00000e+00	0.00000e+00	0.00000e+00	0.00000e+00	0.00000e+00	0.00000e+00	0.00000e+00	0.00000e+00	0.00000e+00	0.00000e+00	0.00000e+00	0.00000e+00	0.00000e+00	0.00000e+00	0.00000e+00	0.00000e+00	0.00000e+00	0.00000e+00	0.00000e+00	0.00000e+00	0.00000e+00	0.00000e+00	-1.50301e+02	-1.43373e+02	-1.49792e+02	-1.82306e+02	-7.93885e+01	-7.58284e+01	-1.59027e+02	-1.62015e+02	-9.78180e+01	-8.34192e+01	-1.70563e+02	-1.71693e+02	-1.81003e+02	-1.76539e+02	-7.99657e+01	-1.49547e+02	
Factor	2.19586e-05	8.39436e-05	3.41424e-05	1.49821e-01	8.35295e-07	9.81461e-07	1.65141e-01	4.79080e-02	1.03987e-06	1.07697e-06	8.44516e-02	2.96454e-02	2.29630e-02	8.60919e-03	9.99734e-07	1.26421e-02	8.08318e-07	8.29617e-07	2.31217e-07	7.45948e-02	9.07046e-09	9.09328e-09	7.73629e-02	2.38309e-02	9.06268e-09	9.06799e-09	3.98886e-02	1.40138e-02	1.13350e-02	4.22160e-03	9.04165e-09	5.95415e-03	X	X	X	X	X	X	X	X	X	X	X	X	X	X	X	X	



#DISTANCE SETTINGS
A = Detector Channel
A-1	A-2	A-3	A-4	A-5	A-6	A-7	A-8	A-9	A-10	A-11	A-12	A-13	A-14	A-15	A-16	

2.5000e+00	3.0000e+00	2.5000e+00	3.0000e+00	2.0000e+00	3.0000e+00	1.5000e+00	3.0000e+00	3.0000e+00	3.0000e+00	3.0000e+00	3.0000e+00	3.0000e+00	3.0000e+00	1.5000e+00	3.0000e+00	

B = Detector Channel
B-1	B-2	B-3	B-4	B-5	B-6	B-7	B-8	B-9	B-10	B-11	B-12	B-13	B-14	B-15	B-16	

1.0000e+01	1.0000e+01	1.0000e+01	1.4400e+00	1.0000e+01	1.0000e+01	1.5100e+00	1.9400e+00	1.0000e+01	1.0000e+01	1.9900e+00	2.4900e+00	2.4100e+00	2.9000e+00	1.0000e+01	2.9800e+00	




#DATA BEGINS
time	group	step	mark	flag	A-AC1	A-AC2	A-AC3	A-AC4	A-AC5	A-AC6	A-AC7	A-AC8	A-AC9	A-AC10	A-AC11	A-AC12	A-AC13	A-AC14	A-AC15	A-AC16	A-DC1	A-DC2	A-DC3	A-DC4	A-DC5	A-DC6	A-DC7	A-DC8	A-DC9	A-DC10	A-DC11	A-DC12	A-DC13	A-DC14	A-DC15	A-DC16	A-Ph1	A-Ph2	A-Ph3	A-Ph4	A-Ph5	A-Ph6	A-Ph7	A-Ph8	A-Ph9	A-Ph10	A-Ph11	A-Ph12	A-Ph13	A-Ph14	A-Ph15	A-Ph16	B-AC1	B-AC2	B-AC3	B-AC4	B-AC5	B-AC6	B-AC7	B-AC8	B-AC9	B-AC10	B-AC11	B-AC12	B-AC13	B-AC14	B-AC15	B-AC16	B-DC1	B-DC2	B-DC3	B-DC4	B-DC5	B-DC6	B-DC7	B-DC8	B-DC9	B-DC10	B-DC11	B-DC12	B-DC13	B-DC14	B-DC15	B-DC16	B-Ph1	B-Ph2	B-Ph3	B-Ph4	B-Ph5	B-Ph6	B-Ph7	B-Ph8	B-Ph9	B-Ph10	B-Ph11	B-Ph12	B-Ph13	B-Ph14	B-Ph15	B-Ph16	aux-1	digaux	

836.077	1	1	0	512	0.19889	0.1813	0.16806	0.16659	0.11424	0.1326	0.082554	0.050237	0.11713	0.23247	0.056794	0.23961	0.15878	0.26516	0.13659	0.21841	-1.8396	-1.9813	-2.4667	-2.1896	-2.1896	-2.6625	-2.0312	-2.5271	-2.425	-2.2521	-2.4479	-2.2542	-2.2125	-2.7229	-2.2396	-2.4854	242.720	227.497	151.073	53.912	315.338	357.267	231.943	38.592	137.244	397.501	232.394	323.521	283.778	58.160	344.983	373.384	0.00079788	0.00065274	0.00025717	499.78	1.0001e-05	9.5972e-06	573.41	226.1	1.7511e-05	9.4966e-06	295.73	138.78	102.98	59.046	7.6462e-06	78.42	0.0029573	0.0030331	0.000847	750.5	3.3306e-05	3.341e-05	831.1	303.27	3.3441e-05	3.3492e-05	423.16	181.13	138.84	71.372	3.3132e-05	95.016	102.137	279.148	107.789	49.968	208.420	231.815	48.769	55.533	196.245	243.203	53.169	56.564	59.876	64.808	190.052	60.950	-8191	255	
836.173	1	1	0	0	0.1934	0.19114	0.11404	0.048087	0.31397	0.31717	0.09428	0.38165	0.083495	0.061175	0.24709	0.11452	0.19455	0.1187	0.35017	0.35508	-2.0792	-2.0417	-2.4271	-2.4042	-2.3021	-2.5458	-2.2812	-2.2729	-2.6229	-2.0458	-2.3896	-2.4313	-2.1688	-2.5625	-2.2313	-2.3708	322.430	395.582	299.709	337.707	147.197	210.027	297.023	292.779	256.759	181.525	306.290	291.576	272.587	305.911	108.729	323.730	0.00078245	0.00061736	0.00034612	496.49	9.0875e-06	1.3851e-05	565.39	222.8	5.7144e-06	1.2856e-05	293	137.97	102.87	59.277	1.3391e-05	78.471	0.0029669	0.0030326	0.00084348	746.79	3.3136e-05	3.3387e-05	826.01	301.3	3.3617e-05	3.3751e-05	420.86	181.32	139.08	71.575	3.3714e-05	95.348	135.746	216.471	274.875	49.782	203.788	209.047	48.585	55.733	303.775	246.762	52.764	56.346	59.461	64.842	134.042	60.887	-8191	255	
836.269	1	1	0	0	0.056603	0.066265	0.10119	0.16261	0.18249	0.13806	0.26012	0.48194	0.2374	0.069176	0.24524	0.22462	0.2882	0.25962	0.30208	0.20118	-1.8729	-2.0958	-2.4521	-2.3375	-2.0958	-2.4313	-2.2771	-2.3354	-2.3479	-1.9813	-2.6458	-2.3854	-2.0021	-2.7479	-2.3	-2.2438	126.126	310.582	337.642	307.189	198.010	153.499	125.483	360.195	51.322	376.053	368.140	316.498	292.816	317.166	41.189	395.207	0.0004374	0.00029323	0.00029482	498.23	1.4493e-05	2.4554e-06	566.46	222.71	8.5784e-06	1.0444e-05	293.79	139.21	103.7	59.733	8.1473e-06	79.657	0.0030254	0.0030753	0.00085421	750.4	3.3344e-05	3.3442e-05	824.59	300.31	3.3389e-05	3.369e-05	421.46	182.32	140.26	72.371	3.4167e-05	96.705	170.998	336.808	64.104	49.873	73.018	371.793	48.590	55.560	115.824	242.135	52.795	56.193	59.386	64.875	280.664	60.755	-8191	255	
836.388	1	1	0	0	0.32049	0.16896	0.31234	0.28962	0.18467	0.053081	0.2235	0.24972	0.42322	0.11726	0.21189	0.10803	0.33904	0.20107	0.24418	0.36708	-2.0187	-2.2625	-2.35	-2.4167	-2.1688	-2.6208	-2.2979	-2.2167	-2.5292	-2.0792	-2.4271	-2.6771	-2.2021	-2.625	-2.3063	-2.35	264.674	236.360	309.733	129.130	244.234	184.639	345.367	271.052	46.965	271.837	382.289	136.691	372.558	61.202	138.836	60.375	0.00068506	0.00052843	0.00056822	501.81	8.0754e-06	1.0405e-05	569.38	222.85	9.4337e-06	4.4979e-06	291.31	137.75	102.78	59.197	3.254e-06	79.049	0.0030741	0.0031209	0.00086787	756.19	3.3483e-05	3.3431e-05	825.59	299.26	3.3049e-05	3.3175e-05	417.04	180.18	138.51	71.511	3.3518e-05	95.877	125.426	59.832	240.043	50.096	359.399	128.703	48.691	55.535	216.674	187.984	52.827	56.393	59.612	64.767	109.731	60.701	-8191	255	
836.460	1	1	0	0	0.07239	0.074691	0.17909	0.17465	0.12841	0.22119	0.019948	0.15906	0.16609	0.30602	0.23498	0.093313	0.077141	0.16731	0.076391	0.097997	-2.0938	-2.0271	-2.3125	-2.5854	-1.9688	-2.5792	-2.1896	-2.1542	-2.3708	-2.2125	-2.3458	-2.4667	-2.3333	-2.5833	-2.4417	-2.1333	134.161	245.853	199.629	265.302	107.560	145.999	245.549	356.660	54.927	343.424	275.287	150.111	295.548	58.961	122.693	253.356	0.00095532	0.00047618	0.00036968	501.21	5.0399e-06	6.8482e-06	571.47	221.99	8.6828e-06	3.9019e-06	289.85	137.17	101.53	59.031	1.9996e-05	78.738	0.0030318	0.003092	0.00085949	751.06	3.3458e-05	3.334e-05	824.98	298.02	3.2798e-05	3.2921e-05	415.07	179.18	137.2	71.182	3.3216e-05	95.631	105.575	57.505	365.509	50.189	243.536	277.588	48.795	55.798	370.578	331.045	52.840	56.587	59.568	64.522	225.622	60.933	-8191	255	
836.556	1	1	0	0	0.10469	0.07969	0.26641	0.2311	0.036776	0.039799	0.14006	0.1752	0.17162	0.17111	0.073686	0.1579	0.16343	0.20083	0.16634	0.33389	-2.1	-2.2854	-2.1479	-2.4562	-2.2146	-2.4313	-2.4854	-2.2146	-2.4813	-2.4771	-2.1604	-2.7479	-2.4292	-2.4813	-2.3875	-2.1312	385.503	250.877	57.998	272.561	56.553	372.010	238.302	386.964	204.494	365.502	244.672	346.146	389.406	55.124	210.578	351.313	0.00087454	0.0013088	0.00017769	499.56	6.6123e-06	2.3142e-06	567.42	222.39	2.3321e-05	1.8177e-05	289.02	135.99	100.57	58.166	9.4992e-06	77.434	0.0030275	0.0030935	0.00086474	752.37	3.3854e-05	3.3863e-05	828.6	299.53	3.3384e-05	3.3407e-05	415.61	178.02	136.53	70.258	3.2963e-05	93.655	119.358	175.397	91.853	49.897	380.877	311.786	48.149	55.808	128.243	263.257	52.855	56.545	59.377	64.875	177.290	60.897	-8191	255	
836.652	1	1	0	0	0.12903	0.088391	0.05325	0.19101	0.12486	0.24335	0.18394	0.17821	0.11454	0.38159	0.15509	0.14751	0.3247	0.010862	0.2247	0.094321	-2.0646	-2.1937	-1.9771	-2.4313	-2.1542	-2.3792	-2.5542	-2.2083	-2.575	-2.2917	-2.3229	-2.5792	-2.3042	-2.4333	-2.2812	-2.4562	391.177	205.816	203.006	358.119	40.233	281.834	388.421	388.578	139.677	166.369	62.497	78.493	367.227	127.118	223.262	369.681	0.00062797	0.00054624	0.00034246	487.56	1.3571e-05	1.2608e-05	562.34	219.33	5.4145e-06	8.3063e-06	288.62	137.22	101.47	58.234	7.1606e-06	78.179	0.002967	0.0030407	0.0008485	741.86	3.3629e-05	3.4042e-05	825.5	299.92	3.4246e-05	3.4305e-05	420.34	180.89	138.41	71.211	3.4022e-05	95.194	147.429	110.772	128.268	49.599	89.669	394.364	48.341	55.899	230.412	185.672	52.747	56.424	59.797	64.922	48.697	61.011	-8191	255	
836.773	1	1	0	0	0.15732	0.015043	0.35777	0.15218	0.11599	0.0020885	0.056209	0.1291	0.19239	0.12312	0.065455	0.12041	0.21325	0.12139	0.086146	0.2631	-1.8208	-2.2812	-1.9458	-2.3896	-2.1	-2.2958	-2.6229	-2.0479	-2.4688	-2.3229	-2.3	-2.6771	-2.2938	-2.4667	-2.4375	-2.2292	334.487	217.232	97.899	340.650	39.198	180.000	300.125	65.995	375.478	49.114	97.356	353.792	70.092	369.726	325.503	325.763	0.00064031	0.0016698	0.00034483	485.71	3.5253e-06	1.0671e-05	555.62	216.82	2.2861e-05	2.0856e-05	284.66	136.41	101.29	58.543	9.4908e-06	78.612	0.0030491	0.0030984	0.0008576	740.71	3.3302e-05	3.3467e-05	814.39	294.02	3.3165e-05	3.3375e-05	412.26	178.89	137.22	71.104	3.3683e-05	95.475	175.427	102.844	129.523	50.444	46.633	283.633	48.450	55.669	239.826	324.006	52.730	56.679	59.582	64.866	165.469	61.178	-8191	255	
836.869	1	1	0	0	0.18611	0.18102	0.14885	0.089167	0.27447	0.30942	0.29296	0.14732	0.29419	0.21418	0.17684	0.1424	0.12471	0.40894	0.17089	0.26225	-1.8854	-2.4562	-2.0187	-2.7104	-2.4896	-2.1583	-2.4229	-2.2417	-2.7458	-2.3625	-2.25	-2.6229	-2.4479	-2.2604	-2.5375	-2.2833	279.367	67.116	169.939	103.604	92.798	361.115	258.598	389.763	312.706	91.392	261.795	382.703	366.429	337.780	338.163	371.095	0.00046832	0.00031848	0.00050369	490.88	9.2868e-06	3.702e-06	560.5	216.7	1.9913e-06	1.9076e-06	284.07	135.38	100.48	58.392	1.8435e-05	79.201	0.0030472	0.0031163	0.00086568	746.24	3.396e-05	3.3864e-05	822.08	295.16	3.3509e-05	3.3456e-05	411.83	178.16	136.36	70.918	3.3581e-05	96.035	102.160	338.186	392.597	49.869	222.853	113.790	48.582	55.990	67.384	138.813	52.682	56.644	59.586	65.082	290.545	61.244	-8191	255	
836.965	1	1	0	0	0.20642	0.15978	0.13085	0.10848	0.072288	0.10675	0.19188	0.19851	0.21638	0.15346	0.15773	0.16178	0.092542	0.3444	0.10343	0.24019	-1.8708	-2.4062	-2.0625	-2.5771	-2.2562	-2.1188	-2.7083	-2.1312	-2.2021	-2.5542	-2.3	-2.3354	-2.5458	-2.175	-2.6	-2.2104	277.314	87.065	246.231	345.968	385.517	114.871	287.877	215.192	38.058	361.143	360.334	354.835	397.315	122.949	153.809	374.117	0.00042739	0.0019707	0.00080732	487.82	5.0213e-06	6.7378e-06	565.35	219.69	1.3835e-05	1.8103e-05	286.99	136.34	101.17	58.652	4.1413e-06	79.232	0.0030526	0.0031245	0.00087897	752.82	3.485e-05	3.5281e-05	839.81	302.68	3.5639e-05	3.5629e-05	424.16	181.84	138.81	71.665	3.4039e-05	95.81	122.149	344.637	138.608	50.197	189.137	157.625	48.608	55.933	46.126	46.672	52.875	56.603	59.716	65.049	200.225	60.929	-8191	255	
837.037	1	1	0	0	0.03275	0.069699	0.25209	0.30263	0.25127	0.24563	0.12459	0.35229	0.039128	0.21696	0.18488	0.22413	0.19643	0.26418	0.14558	0.091562	-1.8875	-2.2479	-1.8937	-2.3563	-2.5354	-1.9104	-2.5292	-2.2042	-2.2083	-2.4521	-2.0125	-2.3646	-2.4813	-2.2	-2.3458	-2.3583	81.085	147.008	319.674	278.065	110.228	369.449	271.785	366.019	115.182	52.548	50.153	72.091	46.115	373.309	179.921	350.210	0.00093999	0.00069127	0.00049251	475.78	8.3866e-06	2.264e-05	561.05	219.19	1.091e-05	4.5216e-06	288.3	137.98	102.12	59.351	2.7977e-06	79.21	0.0030184	0.0030854	0.00086033	734.54	3.4049e-05	3.4443e-05	830.37	301.57	3.5314e-05	3.568e-05	427.97	184.69	141.19	72.84	3.532e-05	96.943	139.960	168.159	371.117	50.062	163.263	253.488	49.171	55.635	187.422	120.327	52.713	56.522	59.872	64.859	344.208	60.723	-8191	255	
837.157	1	1	0	0	0.065994	0.20017	0.13731	0.13853	0.1959	0.085097	0.12042	0.25747	0.073866	0.13462	0.047849	0.18592	0.082055	0.38151	0.29878	0.30002	-1.8	-2.6104	-2.0896	-2.4708	-2.3667	-2.0896	-2.6896	-2.4271	-1.9729	-2.3833	-2.3125	-2.4917	-2.5854	-2.2729	-2.5646	-2.525	79.975	291.436	89.487	302.725	353.679	267.770	160.525	366.516	301.094	316.849	296.411	68.553	339.170	59.370	361.544	348.954	0.00070628	0.0011472	0.00073888	479.2	5.8104e-06	1.8664e-05	548.01	215.14	1.2218e-05	6.8053e-06	287.55	136.67	101.84	59.755	1.3604e-05	80.19	0.0031059	0.0031426	0.00086685	737.08	3.3533e-05	3.3575e-05	808.33	294.35	3.3655e-05	3.3966e-05	417.26	181.41	139.36	72.624	3.4972e-05	97.665	151.764	61.549	162.399	49.886	154.199	365.288	47.891	55.884	223.369	126.297	52.977	56.335	59.385	65.003	199.168	60.934	-8191	255	
837.254	1	1	0	0	0.079176	0.19	0.10264	0.30257	0.20773	0.12454	0.066212	0.10939	0.019442	0.061989	0.15086	0.27011	0.10548	0.2976	0.11865	0.13897	-1.5438	-2.3833	-2.225	-2.2146	-2.3292	-2.0083	-2.6042	-2.3292	-2.175	-2.5062	-2.4167	-2.25	-2.3417	-2.3604	-2.4854	-2.4979	159.821	380.302	124.519	377.935	290.352	167.244	236.921	366.197	203.899	261.610	132.977	371.757	383.432	299.875	377.857	307.530	0.00083995	0.00019807	0.00015389	492.41	5.8249e-06	1.6476e-05	555.43	218.34	1.7841e-05	4.1474e-06	285.33	137.11	102.81	59.991	1.0476e-05	81.046	0.0031525	0.0032141	0.00089282	755.96	3.45e-05	3.4506e-05	824.21	297.95	3.4064e-05	3.4268e-05	418.11	181.88	139.99	72.922	3.5298e-05	98.852	137.573	366.866	52.229	49.927	156.460	150.178	48.684	55.890	91.028	291.718	53.007	56.605	59.422	64.773	216.728	60.729	-8191	255	
837.350	1	1	0	0	0.14519	0.19365	0.14602	0.20964	0.015387	0.18265	0.23055	0.1051	0.041387	0.034194	0.21347	0.15839	0.2314	0.25211	0.19082	0.16777	-1.3708	-2.3625	-2.2146	-2.1229	-2.3167	-2.1292	-2.2625	-2.3646	-1.9854	-2.4083	-2.3583	-2.1354	-2.5958	-2.3542	-2.4979	-2.5958	95.066	272.666	150.844	386.950	284.864	211.643	242.666	280.424	180.652	142.303	56.615	365.488	62.899	88.447	168.411	331.198	0.00072296	0.00097863	0.00031883	502.39	7.5362e-06	9.1866e-08	575.61	225.17	9.9e-06	8.5143e-06	293.2	137.34	101.46	59.332	1.1508e-05	79.178	0.0032242	0.0033169	0.00092554	777.62	3.6435e-05	3.6496e-05	857.07	308.97	3.5585e-05	3.5309e-05	424.64	181.91	138.61	71.601	3.3573e-05	95.726	127.819	55.672	351.428	49.884	107.539	101.279	48.117	55.549	141.244	370.757	53.066	56.686	59.741	64.489	288.688	60.958	-8191	255	
837.469	1	1	0	0	0.064458	0.13406	0.026477	0.23243	0.093435	0.062459	0.14591	0.23028	0.099895	0.17035	0.058087	0.27972	0.18628	0.16161	0.088207	0.16105	-1.6021	-2.5438	-2.1917	-2.2396	-2.5583	-2.0792	-2.375	-2.8021	-1.8583	-2.35	-2.5896	-2.2583	-2.5187	-2.1833	-2.2833	-2.4104	183.885	115.427	118.046	157.410	337.651	159.420	191.458	325.771	95.353	304.858	172.459	191.268	283.357	39.166	297.371	94.840	0.00056829	0.0012172	0.00034497	475.77	4.1171e-06	1.111e-05	561.83	220.44	1.7767e-05	1.4694e-05	290.48	139.26	101.88	59.405	1.5955e-05	79.243	0.0029992	0.0030678	0.00085536	733.02	3.3821e-05	3.4259e-05	829.54	301.22	3.4895e-05	3.5153e-05	425.74	183.35	140.09	72.326	3.4326e-05	96.186	113.690	110.390	112.355	50.135	96.452	298.032	48.510	55.677	125.062	157.560	52.962	56.730	59.520	64.982	165.746	60.853	-8191	255	
837.565	1	1	0	0	0.24994	0.079334	0.19195	0.16552	0.35843	0.25006	0.15254	0.19709	0.14943	0.12908	0.16859	0.46131	0.23717	0.060399	0.1729	0.30988	-1.4708	-2.4646	-2.2271	-2.3042	-2.6312	-2.4042	-2.3875	-2.5542	-2.0375	-2.3042	-2.4167	-2.1833	-2.4437	-2.3563	-2.2417	-2.7938	184.881	257.895	79.329	275.695	47.585	42.283	344.375	244.943	276.146	323.131	381.324	319.140	349.246	340.130	146.493	370.014	0.0005708	0.00065144	0.00010668	477.11	1.1119e-06	1.2439e-05	545.29	215.23	2.7065e-05	1.7774e-05	287.34	136.67	102.14	59.169	3.4421e-06	80.247	0.0030252	0.0030509	0.00084423	724.28	3.2886e-05	3.2828e-05	800.99	291.73	3.3229e-05	3.365e-05	416.23	180.89	139.62	72.379	3.4854e-05	97.642	142.184	130.033	352.414	49.825	139.157	137.337	48.731	56.035	110.453	72.609	53.011	56.577	59.346	64.779	159.057	60.601	-8191	255	
837.661	1	1	0	0	0.28583	0.16296	0.061362	0.17756	0.14075	0.13133	0.30881	0.37221	0.24594	0.11413	0.16402	0.33205	0.13031	0.16807	0.20558	0.10289	-1.7458	-2.1604	-2.3792	-2.0708	-2.6771	-2.2542	-2.2479	-2.6229	-2.2292	-2.4917	-2.4813	-1.9188	-2.6937	-2.5	-2.1042	-2.7854	153.702	97.118	131.884	340.530	118.753	382.816	326.855	325.818	155.214	201.448	390.815	318.600	376.918	379.152	61.031	306.005	0.00079592	0.00072996	0.00055425	489.64	7.4825e-06	6.5614e-06	558.55	215.68	1.6107e-05	2.0971e-06	279.62	134.71	99.961	58.333	8.9832e-06	78.608	0.0031493	0.0032062	0.00088831	753.17	3.4362e-05	3.3958e-05	815.98	294.13	3.283e-05	3.2737e-05	405.77	176.08	134.92	70.341	3.2653e-05	95.024	128.519	175.698	307.865	49.950	117.636	190.352	48.312	55.990	202.386	129.695	52.957	56.808	59.592	64.979	99.170	60.852	-8191	255	
837.757	1	1	0	0	0.1859	0.038038	0.17153	0.23138	0.11813	0.16351	0.28671	0.19841	0.09618	0.17057	0.12844	0.13732	0.28774	0.081813	0.30754	0.17605	-1.8292	-2.2812	-2.5104	-2.3542	-2.3521	-2.1708	-2.1333	-2.5729	-2.3375	-2.15	-2.4521	-2.2771	-2.5875	-2.5354	-2.0896	-2.5	357.667	221.326	334.701	94.007	301.994	70.201	340.598	85.615	226.557	317.185	377.614	381.837	382.463	90.462	95.540	310.702	0.00073522	0.0016969	0.0004088	483.41	1.3267e-05	8.2517e-06	560.22	219.26	1.0902e-05	2.2451e-05	285.48	134.92	100.46	57.973	1.0255e-05	78.396	0.0029746	0.0030703	0.00085623	737.57	3.38e-05	3.3802e-05	819.85	296.18	3.315e-05	3.3052e-05	408.94	176.01	134.88	69.934	3.2055e-05	94.038	118.346	129.301	321.039	50.178	157.130	174.090	48.664	55.835	189.382	204.334	52.754	56.572	60.008	64.730	241.097	60.687	-8191	255	
837.853	1	1	0	0	0.20953	0.22316	0.30852	0.15863	0.24544	0.058289	0.043134	0.13392	0.33526	0.066784	0.13544	0.09686	0.1051	0.3023	0.23971	0.12136	-1.85	-2.2458	-2.4896	-1.8771	-2.4833	-2.4583	-2.0104	-2.3583	-2.0687	-2.1063	-2.5583	-2.2687	-2.4396	-2.3229	-2.1979	-2.5125	62.161	230.836	190.713	63.292	43.393	179.564	336.723	380.930	156.166	94.389	391.825	327.645	101.923	79.374	286.252	261.039	0.00093441	0.0013855	0.00013379	476.42	1.3526e-05	8.878e-06	554.88	218.86	2.5797e-06	1.0622e-05	288.58	136.65	101.88	58.941	6.4551e-06	78.675	0.0028912	0.0029711	0.00083383	723.45	3.3142e-05	3.3182e-05	810.2	295.25	3.322e-05	3.3408e-05	414.17	179.16	136.98	70.997	3.273e-05	94.883	126.590	93.417	394.050	50.014	157.665	215.404	48.408	55.554	240.663	164.970	53.197	56.236	59.553	65.127	318.456	60.757	-8191	255	
837.949	1	1	0	0	0.3213	0.42193	0.20799	0.13587	0.2175	0.11019	0.079272	0.054841	0.28845	0.19446	0.16461	0.18415	0.1411	0.22359	0.10648	0.33096	-1.8813	-2.2771	-2.2917	-2.1042	-2.3792	-2.2208	-2.0458	-2.4125	-2.2042	-2.1396	-2.4646	-2.1021	-2.4896	-2.4083	-1.9979	-2.6	163.175	233.462	182.363	346.801	379.593	121.782	234.740	254.694	119.764	234.399	260.735	324.303	42.814	39.632	294.003	74.391	0.00069915	0.00080662	0.00037421	473	1.1285e-05	1.1818e-05	545.97	214.25	1.1317e-05	1.2752e-05	283.46	135.49	101.22	58.627	8.3015e-06	78.581	0.0029071	0.0029611	0.00082421	715.63	3.2075e-05	3.2095e-05	791.7	288.96	3.2298e-05	3.2524e-05	408.43	177.98	136.38	70.711	3.2871e-05	94.951	152.331	178.198	352.009	50.291	167.695	164.016	48.676	55.712	153.035	196.537	52.846	56.746	59.667	64.994	320.266	60.822	-8191	255	
838.070	1	1	0	0	0.20769	0.26648	0.16117	0.21849	0.13035	0.12635	0.36102	0.19746	0.22327	0.090246	0.17663	0.14379	0.2646	0.27599	0.14405	0.037215	-1.7563	-2.0917	-2.6125	-2.1271	-2.1458	-2.5521	-2.1604	-2.3271	-2.3167	-2.0958	-2.425	-2.2896	-2.3458	-2.5104	-1.9021	-2.5792	237.578	394.871	47.736	346.844	287.916	227.200	330.849	324.392	170.597	384.490	216.370	302.901	213.364	301.670	188.795	177.124	0.00068024	0.0012717	0.00048557	482.64	8.2601e-06	1.0413e-05	548.35	212.5	5.045e-06	1.5577e-05	280.52	132.86	99.257	58.12	1.3456e-05	78.638	0.0029473	0.0029941	0.00083002	723.68	3.2144e-05	3.2121e-05	791.19	286.16	3.1636e-05	3.1614e-05	399.54	173.74	133.62	69.617	3.2059e-05	94.467	103.499	345.462	83.463	49.728	196.392	74.675	48.627	55.833	151.669	210.783	53.122	56.599	59.367	64.739	264.324	60.750	-8191	255	
838.166	1	1	0	0	0.1779	0.11537	0.12279	0.2658	0.21047	0.18335	0.35465	0.326	0.14254	0.12551	0.14856	0.19703	0.093667	0.15222	0.17239	0.23405	-1.8417	-1.7417	-2.3396	-2.4104	-2.375	-2.2375	-2.1458	-2.4708	-2.3021	-2.0708	-2.3937	-2.2542	-2.4708	-2.4562	-1.9667	-2.4104	118.657	44.868	169.387	377.343	312.639	358.395	303.451	332.414	147.440	352.691	46.923	104.293	218.496	334.791	260.257	365.413	0.0010482	0.00064	0.00036308	483.12	1.7088e-05	1.7457e-05	560.99	218.95	2.3998e-05	6.6916e-06	283.69	134.51	101.08	58.257	1.0502e-05	78.225	0.0029221	0.0029823	0.00083707	730.15	3.2828e-05	3.2796e-05	812.6	294.46	3.2446e-05	3.2437e-05	407.27	175.66	134.42	69.795	3.1587e-05	93.715	134.025	357.480	56.463	50.226	102.785	278.643	48.760	55.465	214.945	204.629	53.139	56.318	59.504	64.577	273.143	61.178	-8191	255	
838.262	1	1	0	0	0.23561	0.078294	0.1436	0.21143	0.042761	0.12697	0.090345	0.20869	0.2486	0.15587	0.14214	0.2218	0.11516	0.078415	0.26944	0.33465	-1.8333	-2.0583	-2.3438	-2.3563	-2.2292	-2.4396	-2.05	-2.3458	-2.4104	-2.0187	-2.5583	-2.5083	-2.0354	-2.7	-2.2396	-2.3229	262.386	128.044	157.062	254.935	70.310	72.692	358.750	331.324	155.735	151.195	209.860	198.134	173.235	202.873	185.770	329.992	0.00082173	0.00022553	0.00058306	470.74	8.361e-06	2.3795e-06	553.09	219.5	1.5343e-05	1.074e-05	287.71	136.34	101.89	58.905	3.8684e-06	78.62	0.0028354	0.0029066	0.00081055	712.3	3.201e-05	3.2337e-05	805.01	294.49	3.2522e-05	3.257e-05	411.96	178.29	135.99	70.347	3.174e-05	93.961	121.699	172.743	151.637	49.850	389.826	60.081	48.462	55.684	72.726	106.499	53.016	56.601	59.341	64.832	233.748	60.793	-8191	255	
838.334	1	1	0	0	0.18679	0.099315	0.26602	0.22913	0.12395	0.13436	0.1375	0.21368	0.21916	0.088233	0.19526	0.06633	0.39156	0.36367	0.090662	0.11926	-1.7458	-1.9875	-2.325	-2.3271	-2.1688	-2.4542	-2.2833	-2.3521	-2.5667	-2.2396	-2.3208	-2.7146	-2.1917	-2.4729	-2.2188	-2.4104	340.250	139.082	50.423	298.831	38.417	206.399	369.319	386.295	384.240	392.954	349.476	75.025	311.000	39.854	146.367	379.727	0.00081142	0.0016149	0.00038836	474.55	1.5595e-06	9.304e-06	550.96	217.54	3.5056e-06	1.2694e-05	293.66	139.63	104.17	60.179	5.7227e-06	80.481	0.002828	0.0028674	0.00079858	708.15	3.1226e-05	3.1485e-05	794.62	291.97	3.2231e-05	3.2597e-05	417.72	182.25	139.65	72.424	3.3691e-05	97.312	145.911	129.795	70.201	49.691	266.235	109.283	48.365	55.708	66.043	288.572	52.912	56.276	59.724	64.781	279.152	60.711	-8191	255	
838.430	1	1	0	0	0.1561	0.29575	0.184	0.11345	0.12558	0.070664	0.059181	0.14489	0.14757	0.12306	0.31032	0.22649	0.20808	0.15112	0.021867	0.1852	-2.0062	-2.1667	-2.3833	-2.4021	-2.1333	-2.4958	-2.4562	-2.225	-2.5	-2.1979	-2.3375	-2.4042	-2.0479	-2.3521	-2.4771	-2.2313	389.742	93.379	81.497	310.572	212.997	362.022	320.526	152.984	176.805	209.808	340.059	396.824	353.812	298.581	385.918	123.403	0.00090909	0.0010968	0.00046202	491.35	6.0613e-06	3.0033e-06	560.02	216.87	7.7431e-06	2.7953e-06	283.57	136.97	101.36	58.835	1.0174e-05	79.352	0.0030263	0.0030635	0.00085136	741.68	3.2703e-05	3.2372e-05	803.32	290.39	3.1652e-05	3.1753e-05	404.1	176.24	135.4	70.436	3.219e-05	95.274	125.116	279.769	116.342	49.934	104.220	351.454	48.757	55.866	95.798	267.176	52.804	56.629	59.648	64.985	266.893	60.720	-8191	255	
838.549	1	1	0	0	0.31843	0.32402	0.15574	0.084557	0.041884	0.073341	0.15028	0.21316	0.11529	0.05188	0.064357	0.12763	0.16404	0.31325	0.14373	0.089253	-1.8833	-2.1667	-2.2354	-2.5854	-1.7812	-2.2333	-2.225	-2.3229	-2.4938	-1.9979	-2.3042	-2.4083	-2.2875	-2.5396	-2.1042	-2.2396	268.569	40.369	104.929	304.524	352.759	128.167	382.998	313.038	339.343	351.738	56.431	63.868	373.113	346.781	180.475	309.853	0.00072384	0.00096037	0.00047409	488.83	1.202e-05	9.4714e-06	562.57	219.02	8.9743e-06	7.8172e-06	286.84	135.01	100.05	58.212	9.6344e-06	78.66	0.0029403	0.0030215	0.00084115	739.1	3.2806e-05	3.276e-05	811.2	292.96	3.1778e-05	3.1744e-05	403.58	174.4	133.58	69.384	3.1232e-05	94.019	135.404	369.347	54.530	49.969	107.595	96.982	48.372	55.570	90.557	134.017	53.116	56.231	59.355	64.723	280.142	60.913	-8191	255	
838.645	1	1	0	0	0.33177	0.2335	0.33431	0.20363	0.1605	0.1623	0.080847	0.10196	0.11191	0.13007	0.13173	0.12293	0.19188	0.1467	0.13995	0.30644	-2.1562	-2.2333	-2.0625	-2.4083	-2.0167	-2.4542	-2.35	-2.0792	-2.4979	-2.2875	-2.2375	-2.4375	-2.0667	-2.5167	-2.3417	-2.2188	346.409	204.440	101.709	379.452	82.771	90.752	236.902	165.120	374.920	88.722	335.153	372.242	59.088	256.478	141.791	346.268	0.00080533	0.00029009	0.00023093	485.47	2.8841e-06	1.5674e-05	565.46	219.6	3.922e-06	3.314e-06	288.83	136.04	101.12	57.952	1.3783e-05	77.947	0.0028415	0.0029217	0.00082074	727.48	3.2508e-05	3.2717e-05	814.88	295.67	3.2271e-05	3.2179e-05	409.07	176.24	134.16	69.382	3.1069e-05	93.314	131.750	94.842	233.730	50.175	112.536	167.599	48.094	55.503	198.535	346.535	52.708	56.365	59.677	65.040	54.807	60.964	-8191	255	
838.741	1	1	0	0	0.19929	0.18589	0.11935	0.071361	0.082753	0.08617	0.18812	0.17442	0.355	0.10004	0.20873	0.14608	0.21126	0.34747	0.11998	0.30083	-1.8667	-2.1479	-2.3083	-2.6833	-2.0146	-2.3833	-2.4896	-2.0812	-2.2062	-2.3333	-2.0979	-2.5125	-2.1708	-2.6083	-2.4313	-2.0521	215.615	99.964	90.949	296.794	210.013	232.250	321.604	327.366	253.685	287.269	274.816	334.267	59.364	397.686	160.098	282.056	0.0005682	0.00023468	0.00032188	473.73	4.8827e-06	5.751e-06	551.65	218.97	2.2506e-05	8.1227e-06	289.72	137.68	101.79	58.59	1.0999e-05	79.154	0.002783	0.0028542	0.00079719	710.87	3.1665e-05	3.1914e-05	801.89	293.53	3.2474e-05	3.2684e-05	414.37	179.67	136.57	70.571	3.2166e-05	94.663	118.547	201.755	152.950	50.036	247.282	239.220	48.711	55.760	223.604	397.160	53.075	56.185	59.346	65.015	220.793	60.967	-8191	255	
838.862	1	1	0	0	0.30092	0.10637	0.11101	0.34912	0.2016	0.17693	0.26679	0.17957	0.15187	0.093329	0.29595	0.27378	0.045289	0.14643	0.068196	0.14313	-1.7083	-2.4729	-2.0563	-2.4979	-2.1729	-2.1937	-2.525	-1.9958	-2.3167	-2.4667	-2.2458	-2.5187	-2.3875	-2.5104	-2.2938	-2.1417	358.731	345.879	199.858	378.389	113.670	276.029	282.428	223.222	86.653	195.419	55.841	362.925	239.741	74.367	43.809	320.748	0.00091654	0.00099634	4.0735e-05	466.4	5.9837e-06	1.1998e-05	541.94	212.18	1.0188e-05	1.2099e-05	285.03	136.65	101	58.744	1.4612e-05	79.672	0.0028278	0.0028716	0.00079558	704	3.0908e-05	3.1208e-05	780.45	284.72	3.1315e-05	3.1624e-05	405.04	176.94	135.58	70.607	3.2372e-05	95.567	127.934	276.479	157.576	50.135	340.396	303.929	48.425	55.896	181.140	170.948	53.249	56.928	59.415	64.908	281.938	60.796	-8191	255	
838.934	1	1	0	0	0.20082	0.084793	0.024417	0.070413	0.21563	0.079336	0.048833	0.25707	0.16032	0.080066	0.10171	0.18451	0.21736	0.36647	0.029979	0.2462	-1.8604	-2.4292	-1.95	-2.5042	-2.2021	-2	-2.5812	-2.3125	-2.4313	-2.5646	-2.0083	-2.3354	-2.4875	-2.1021	-2.7	-2.2313	98.767	89.285	191.409	115.366	378.003	324.825	245.791	331.499	175.165	121.756	389.664	358.880	328.516	360.300	392.322	364.062	0.00044939	0.0018317	0.00016625	479.86	1.5266e-05	1.0629e-05	549.63	212.22	8.1632e-06	7.7812e-06	280.15	132.51	99.267	57.481	1.0216e-05	78.181	0.0029217	0.0029594	0.00081952	722.76	3.1772e-05	3.1644e-05	789.76	285.24	3.1105e-05	3.1005e-05	396.68	172.59	132.27	68.72	3.1301e-05	93.579	144.176	84.243	268.730	50.043	235.860	217.698	48.923	55.516	94.652	164.969	52.799	56.633	59.622	64.763	117.137	60.640	-8191	255	
839.030	1	1	0	0	0.10772	0.026412	0.15495	0.31244	0.38992	0.14423	0.082084	0.18818	0.22043	0.3795	0.033717	0.072012	0.063051	0.1371	0.052795	0.12354	-1.6833	-2.4813	-2.2521	-2.4792	-2.2854	-2.1792	-2.4542	-2.2729	-2.4271	-2.5125	-2.0896	-2.4188	-2.5062	-2.2458	-2.4437	-2.5583	290.016	207.092	375.692	108.560	355.439	264.466	167.988	333.072	246.221	203.160	292.554	193.752	321.501	358.951	333.406	367.529	0.0006447	0.0018761	0.00020208	480.92	1.2631e-05	7.0744e-06	551.24	215.93	1.4316e-05	9.4021e-06	283.05	133.43	98.877	57.257	5.7421e-06	78.016	0.0028402	0.0029163	0.0008137	721.05	3.2015e-05	3.1951e-05	796.92	289.13	3.1572e-05	3.152e-05	400.67	172.92	132.03	68.476	3.0749e-05	92.658	133.753	185.016	169.001	49.595	186.181	215.585	48.598	55.977	65.390	94.871	53.168	56.439	59.279	64.546	60.022	60.804	-8191	255	
839.150	1	1	0	0	0.33407	0.085925	0.42439	0.11765	0.25247	0.21003	0.15652	0.28498	0.057001	0.14699	0.06324	0.13414	0.29412	0.064936	0.028444	0.21248	-1.5979	-2.5208	-2.1562	-2.2021	-2.5604	-2.1833	-2.5646	-2.1667	-2.3917	-2.6146	-2.0604	-2.3979	-2.4333	-2.2458	-2.2833	-2.4542	354.128	299.999	119.992	235.970	318.832	98.659	319.298	379.359	283.616	185.700	301.036	256.907	261.682	328.826	125.128	297.235	0.00061451	0.0012972	0.00030525	470.24	7.7147e-06	1.4539e-05	548.78	217.6	1.7228e-05	8.8728e-06	287.11	134.75	99.749	57.753	1.3753e-05	78.211	0.0027862	0.0028289	0.00079546	705.57	3.1231e-05	3.1407e-05	791.6	289.09	3.1661e-05	3.1826e-05	405.14	175.77	133.87	69.323	3.1541e-05	93.578	137.386	166.766	154.961	49.985	356.140	304.468	48.668	55.848	168.111	95.695	52.926	56.831	59.630	65.141	174.729	60.840	-8191	255	
839.246	1	1	0	0	0.37525	0.16499	0.1709	0.29013	0.042728	0.18564	0.062993	0.086528	0.32353	0.17641	0.22345	0.14155	0.26344	0.26227	0.18913	0.33658	-1.7833	-2.3063	-1.9375	-2.3125	-2.0896	-1.8917	-2.75	-2.3104	-1.9438	-2.5729	-2.1708	-2.35	-2.725	-2.0375	-2.3396	-2.35	188.378	56.277	291.470	296.139	323.964	363.534	344.724	277.276	186.070	144.161	317.514	366.448	393.722	62.170	229.081	323.565	0.00071792	0.0010877	0.00021802	464.06	1.1e-05	1.549e-05	543.95	211.64	1.0494e-05	5.1278e-06	281.82	135.85	100.44	57.875	1.2679e-05	78.686	0.002814	0.0028585	0.00079538	699.62	3.0922e-05	3.1037e-05	777.85	283.49	3.101e-05	3.1213e-05	400.7	175.46	133.92	69.579	3.1763e-05	94.625	119.022	132.282	41.045	50.362	297.552	136.863	48.818	56.077	96.985	196.912	53.327	56.608	59.586	64.813	214.051	60.959	-8191	255	
839.343	1	1	0	0	0.10454	0.16994	0.09326	0.24694	0.12565	0.29611	0.27055	0.26359	0.26194	0.12867	0.27178	0.18453	0.18847	0.28874	0.21784	0.18941	-1.7396	-2.5729	-2.0604	-2.3354	-2.4292	-2.0521	-2.5167	-2.4813	-1.9292	-2.575	-2.3625	-2.225	-2.575	-2.225	-2.2208	-2.5667	375.035	300.365	322.799	84.536	240.676	130.932	380.871	41.068	323.493	52.342	382.425	104.037	391.113	367.218	282.572	142.749	0.00091102	0.00046369	0.00025906	471.31	2.3646e-06	6.3065e-06	540.48	212.01	8.4528e-06	1.3933e-05	281.53	135.05	99.81	57.81	2.918e-06	79.234	0.0028598	0.0029271	0.00081457	709.97	3.1495e-05	3.139e-05	780.11	282.67	3.0826e-05	3.0891e-05	396.9	173.64	132.74	69.207	3.1334e-05	94.539	96.954	319.166	104.079	50.187	140.978	165.587	48.224	55.852	209.359	375.250	53.045	56.764	59.549	64.971	221.780	61.098	-8191	255	
839.439	1	1	0	0	0.13004	0.057872	0.074524	0.068574	0.010416	0.15938	0.20313	0.084307	0.19087	0.029123	0.1816	0.25665	0.18929	0.13421	0.16402	0.19922	-1.5458	-2.2812	-2.1063	-2.2562	-2.5458	-1.9229	-2.3375	-2.4375	-2.0875	-2.4896	-2.2292	-2.3104	-2.5458	-2.3396	-2.3333	-2.3937	258.567	154.519	71.479	234.310	163.024	317.689	377.356	338.487	236.542	305.997	365.098	353.143	45.579	372.355	159.142	330.713	0.00052934	0.00060949	0.00020012	480.34	8.582e-06	2.7426e-05	549.18	212.93	2.2768e-05	2.3808e-05	278.23	132.56	98.956	56.862	1.0907e-05	78.258	0.0028596	0.0029395	0.00082036	720.59	3.2118e-05	3.2158e-05	796.62	286.31	3.1304e-05	3.1266e-05	395.88	171.78	131.2	68.053	3.0874e-05	93.116	134.888	114.012	261.264	50.091	167.626	93.214	48.688	55.772	191.015	202.163	52.878	56.880	59.496	64.715	68.741	61.224	-8191	255	
839.558	1	1	0	0	0.0039415	0.079354	0.079016	0.083358	0.27194	0.3013	0.12403	0.18179	0.050648	0.095043	0.10949	0.058604	0.24994	0.14609	0.11727	0.4773	-1.4146	-2.6312	-2.1063	-2.1125	-2.5854	-2.2208	-2.3063	-2.6042	-1.8813	-2.4333	-2.5042	-2.1083	-2.8042	-2.0542	-2.3354	-2.525	261.095	210.278	393.373	219.971	324.087	102.913	298.063	99.921	188.725	120.709	363.836	219.394	359.928	92.786	73.076	281.450	0.00078823	0.00098731	0.00036309	471.23	6.4756e-06	1.1372e-05	553.24	215.42	1.4103e-05	5.1477e-06	282.34	133.57	98.669	56.908	1.2278e-05	77.575	0.0028146	0.002896	0.00081625	716.75	3.2306e-05	3.2639e-05	804.55	291.11	3.2495e-05	3.2285e-05	404.43	174.23	131.7	68.201	3.0936e-05	92.389	142.924	230.031	105.168	50.141	82.177	378.911	48.832	56.005	216.394	47.745	52.758	56.482	59.573	64.584	172.555	60.738	-8191	255	
839.629	1	1	0	0	0.092525	0.30099	0.030361	0.29601	0.22111	0.12721	0.27385	0.24489	0.23723	0.084182	0.29166	0.25157	0.37146	0.17149	0.030345	0.064893	-1.6938	-2.3396	-2.2042	-2.1979	-2.2917	-2.3063	-2.3854	-2.4771	-2.2146	-2.2958	-2.2062	-2.2313	-2.4	-2.3104	-2.3729	-2.5854	256.422	308.828	247.348	278.607	103.244	236.384	378.880	369.284	337.121	201.967	310.594	292.148	54.300	378.555	89.448	205.681	0.00059869	0.00098186	0.00043917	465.95	4.7446e-06	2.8409e-06	545.78	213.69	1.0847e-05	6.1531e-06	282.38	134.68	99.379	57.129	5.1366e-06	77.874	0.0027645	0.0028207	0.00078979	698.94	3.1316e-05	3.153e-05	787.08	287.3	3.2112e-05	3.2291e-05	405.72	175.55	133.09	68.815	3.17e-05	93.191	157.755	55.181	106.954	50.221	171.397	112.175	48.037	55.810	49.365	187.308	53.013	56.569	59.788	64.972	46.979	60.811	-8191	255	
839.725	1	1	0	0	0.11191	0.08689	0.19515	0.2218	0.071971	0.11721	0.21103	0.2141	0.10696	0.080304	0.21354	0.16588	0.05451	0.18691	0.27543	0.10735	-1.3917	-2.2229	-2.4271	-2.0917	-2.5958	-2.2979	-2.3063	-2.4	-2.0083	-2.2854	-2.5125	-2.0854	-2.5146	-2.4229	-1.9771	-2.8688	341.453	279.979	348.342	111.627	148.891	147.779	395.853	242.473	326.159	328.218	335.383	369.944	321.881	113.418	183.542	370.921	0.00057655	0.00042082	0.00027951	460.4	1.165e-05	4.299e-06	533.4	208.37	6.1387e-06	9.0886e-06	278.24	133.53	98.927	57.192	8.1946e-06	78.579	0.002816	0.0028517	0.00079178	694.89	3.0848e-05	3.0834e-05	770.56	279.58	3.0732e-05	3.1022e-05	396.6	173.47	132.32	68.729	3.1704e-05	94.355	114.783	140.158	182.175	50.438	245.897	315.241	48.442	55.879	209.878	388.882	53.014	56.989	59.456	64.735	73.165	60.580	-8191	255	
839.846	1	1	0	0	0.26374	0.053213	0.11009	0.19826	0.1437	0.14792	0.21855	0.2621	0.22383	0.32953	0.008634	0.24651	0.088453	0.023591	0.20478	0.1825	-1.7542	-2.1417	-2.0312	-2.1437	-2.4042	-2.2917	-2.3271	-2.6792	-2.2583	-2.1063	-2.7271	-2.1271	-2.3937	-2.525	-2.25	-2.6979	44.682	76.094	282.882	93.418	283.641	55.951	293.525	67.436	95.940	185.429	241.787	321.047	71.022	167.370	181.441	329.969	0.0009741	0.0013102	0.00031337	472.13	1.5603e-05	5.1175e-06	541.92	210.86	5.2618e-06	4.8821e-06	278.72	132.98	97.336	57.017	2.2367e-05	78.097	0.002873	0.0029374	0.00081674	712.6	3.1725e-05	3.1585e-05	784.28	282.12	3.0831e-05	3.061e-05	392.57	171.31	130.36	67.97	3.0476e-05	92.911	119.237	131.605	249.129	50.223	136.492	171.692	48.319	55.929	178.765	134.850	53.049	56.740	59.273	65.049	229.843	60.956	-8191	255	
839.942	1	1	0	0	0.074855	0.29356	0.11751	0.18566	0.042211	0.028437	0.076502	0.13074	0.19176	0.10266	0.3113	0.13188	0.14252	0.16446	0.12287	0.222	-1.6271	-2.2229	-2.4792	-2.0854	-2.3396	-2.3604	-2.2042	-2.6396	-2.025	-2.2521	-2.6417	-2	-2.3333	-2.55	-2.0792	-2.6583	216.539	71.823	318.121	319.746	49.018	52.944	96.028	66.056	129.870	304.087	318.022	387.698	380.167	353.589	367.849	254.419	0.00059806	0.00081141	0.00022485	465.77	1.0471e-05	9.9795e-06	549.72	212.72	1.4109e-05	1.5018e-05	282.43	132.68	97.87	56.099	1.8155e-05	76.803	0.0027733	0.002848	0.00080119	704.92	3.1761e-05	3.2046e-05	795.25	287.41	3.1874e-05	3.1823e-05	401.41	173.2	131.14	67.305	3.0302e-05	91.392	128.438	126.577	118.612	49.856	202.485	71.954	48.469	55.618	272.716	219.492	53.215	56.707	59.881	64.856	135.964	61.004	-8191	255	
840.038	1	1	0	0	0.12979	0.19144	0.11339	0.019817	0.1115	0.35489	0.17354	0.21497	0.32134	0.21329	0.40415	0.17443	0.32201	0.17321	0.09504	0.2029	-1.7667	-2.0375	-2.2625	-2.0958	-2.0854	-2.3208	-2.0979	-2.4958	-2.3354	-2.1021	-2.375	-2.0771	-2.4146	-2.5854	-2.1167	-2.5812	287.632	284.281	292.770	105.880	61.525	73.816	318.031	331.272	263.697	238.833	368.995	100.947	367.823	307.254	226.444	363.057	0.00092233	0.00054121	0.00029529	458.66	1.0201e-05	8.7416e-06	535.98	212.5	1.0252e-05	1.0164e-05	282.16	135.37	100.04	57.263	8.5505e-06	78.447	0.0027005	0.0027564	0.00076653	683.51	3.0323e-05	3.0729e-05	774.62	284.12	3.1416e-05	3.1756e-05	404.04	176.01	133.58	68.998	3.1622e-05	93.661	138.900	75.509	113.526	50.248	211.182	201.777	48.984	55.998	201.343	211.241	52.925	56.531	59.481	64.646	128.915	60.922	-8191	255	
840.135	1	1	0	0	0.072961	0.22077	0.29683	0.33348	0.0382	0.047326	0.050758	0.10476	0.15529	0.13093	0.082487	0.17599	0.22369	0.10168	0.045305	0.28552	-1.8417	-2.2188	-2.475	-2.0563	-2.3479	-2.6042	-2.0958	-2.1896	-2.5042	-2.1479	-2.3021	-2.3417	-2.2667	-2.5292	-2.2021	-2.5625	345.552	379.497	281.102	88.908	312.339	175.249	198.495	385.270	342.576	328.871	387.743	295.624	46.123	370.092	246.333	384.334	0.00066161	0.0010002	0.00048903	463.88	1.4989e-06	5.7983e-06	537.7	211.24	8.5368e-06	1.8481e-05	282.57	135.91	100.03	57.732	1.0017e-05	79.205	0.0028182	0.0028509	0.0007918	694.87	3.0668e-05	3.0752e-05	773.91	282.25	3.0999e-05	3.1162e-05	400.55	175.75	133.9	69.389	3.1857e-05	94.838	117.701	131.572	124.615	50.048	220.580	57.919	48.580	55.879	106.617	85.638	53.121	56.566	59.205	64.985	83.722	60.955	-8191	255	
840.231	1	1	0	0	0.17075	0.27672	0.11894	0.28819	0.28148	0.10417	0.088061	0.15191	0.22227	0.195	0.2864	0.21791	0.12188	0.24306	0.073136	0.034158	-1.9188	-1.9271	-2.5646	-2.1688	-2.0208	-2.5583	-2.2438	-2.3583	-2.2396	-2.1333	-2.4479	-2.1937	-2.3833	-2.6583	-1.9729	-2.5021	139.173	250.310	147.424	58.842	84.022	280.213	385.451	200.651	319.630	73.519	78.770	389.750	369.736	63.354	212.259	61.598	0.00057007	0.00060848	0.00041772	475.48	5.2687e-06	7.7989e-06	546.66	213.94	1.2893e-05	1.4463e-05	282.16	135.07	99.654	57.741	7.7731e-06	79.521	0.0028691	0.0029363	0.00081333	716.86	3.1556e-05	3.1465e-05	785.91	285.26	3.0965e-05	3.1117e-05	399.33	174.64	133.29	69.159	3.1842e-05	95.195	124.894	250.049	228.856	49.840	113.469	390.831	48.823	55.785	192.080	253.605	53.006	56.125	59.868	64.699	70.938	60.977	-8191	255	
840.327	1	1	0	0	0.089982	0.036711	0.37781	0.13661	0.2222	0.1146	0.054936	0.20027	0.084904	0.045039	0.18844	0.086077	0.037932	0.23931	0.096361	0.20085	-1.9458	-1.8813	-2.3688	-2.4292	-2.0563	-2.5854	-2.3104	-2.3833	-2.4271	-2.1625	-2.7833	-2.4708	-2.2562	-2.7875	-1.8937	-2.4896	166.323	212.852	252.946	160.390	170.899	211.447	96.576	377.726	118.482	302.536	395.157	175.704	42.611	95.402	40.623	291.365	0.00056869	0.00070875	0.00034863	477.53	7.6716e-06	1.5996e-05	554.16	215.37	9.5908e-06	6.9174e-06	281.15	133.91	98.847	56.957	6.2327e-06	77.844	0.0029082	0.0029785	0.00083281	726.62	3.269e-05	3.256e-05	801.67	289.33	3.1546e-05	3.1274e-05	398.9	173.04	131.54	68.164	3.0753e-05	93.076	120.161	383.499	386.031	50.012	169.391	73.411	48.928	55.757	157.470	45.315	53.251	56.353	59.668	64.715	178.953	60.688	-8191	255	
840.423	1	1	0	0	0.096995	0.10163	0.16481	0.09385	0.093009	0.064937	0.15488	0.12029	0.11498	0.13681	0.23751	0.33968	0.16664	0.2451	0.058839	0.1044	-1.9208	-2.2021	-2.2188	-2.1604	-1.9646	-2.5938	-2.1542	-2.0792	-2.2271	-2.0438	-2.4542	-2.4021	-2.0667	-2.8063	-2.1833	-2.3167	372.578	115.609	221.606	278.222	217.938	113.098	44.598	47.400	258.255	82.508	176.477	303.896	368.825	301.329	192.642	72.341	0.00039629	0.00066018	0.00023157	465.39	1.4557e-05	9.5162e-06	549.09	214.3	9.6447e-06	1.1332e-05	283.46	133.74	97.766	56.369	3.2105e-06	76.789	0.0027984	0.0028715	0.00081085	709.7	3.2114e-05	3.2223e-05	797.41	288.47	3.1938e-05	3.1748e-05	402.38	173.43	131.13	67.675	3.0676e-05	91.997	141.010	162.269	121.562	49.875	397.206	99.493	48.117	55.753	98.538	305.631	52.752	56.493	59.498	64.610	189.117	60.935	-8191	255	
840.519	1	1	0	0	0.17041	0.21241	0.28578	0.18629	0.14088	0.028989	0.16326	0.19855	0.17042	0.19757	0.30358	0.20526	0.098096	0.21789	0.034604	0.41501	-2.0979	-1.8625	-2.425	-2.5333	-2.0229	-2.4125	-2.3479	-2.0479	-2.3833	-2.15	-2.4813	-2.625	-2.15	-2.6292	-2.2333	-2.1167	346.393	256.679	302.638	181.224	142.169	350.103	202.111	100.477	38.863	52.101	322.797	323.672	392.618	356.828	191.547	352.926	0.00071319	0.0011575	0.00029585	458.18	4.0466e-06	1.5611e-05	539.48	211.56	8.5035e-06	5.4657e-07	283.46	135.75	99.533	57.467	1.3393e-05	78.71	0.0027555	0.0028137	0.00078882	694.12	3.1259e-05	3.1582e-05	785.24	285.56	3.1902e-05	3.2139e-05	405.64	176.4	134.03	69.244	3.2111e-05	94.485	131.944	304.091	138.910	49.862	85.715	268.851	48.599	55.828	265.522	280.960	53.139	56.218	59.195	64.660	245.898	60.859	-8191	255	
840.638	1	1	0	0	0.13935	0.28116	0.074642	0.29985	0.11514	0.13368	0.19514	0.18336	0.1251	0.1285	0.32641	0.08168	0.22692	0.16502	0.12697	0.25726	-1.9833	-2.2208	-2.2021	-2.3854	-2.1375	-2.4333	-2.2854	-2.1667	-2.55	-2.1333	-2.3646	-2.4833	-2.1021	-2.5667	-2.275	-2.3438	298.380	369.009	371.465	308.923	123.272	102.701	326.530	321.721	315.175	200.983	344.845	351.613	338.330	242.306	211.833	324.562	0.00048865	0.0014708	0.00026389	469.27	1.5064e-05	1.011e-05	542.51	211.99	5.2211e-06	1.2365e-06	280.67	133.95	98.65	57.022	8.5794e-06	78.893	0.0028786	0.0029275	0.00081436	710.64	3.1616e-05	3.1708e-05	785.29	284.46	3.1451e-05	3.154e-05	399.18	173.75	132.43	68.724	3.1825e-05	94.522	135.214	182.341	43.156	49.993	213.796	56.121	48.110	55.637	64.915	211.012	53.407	56.649	59.300	64.598	205.252	60.776	-8191	255	
840.734	1	1	0	0	0.18704	0.090411	0.37039	0.28855	0.19106	0.15001	0.25109	0.40974	0.15211	0.17148	0.2271	0.064787	0.038943	0.097714	0.20864	0.26134	-2.0812	-2.1958	-2.1813	-2.6375	-2.0687	-2.3625	-2.4417	-1.8563	-2.2938	-2.3187	-2.4813	-2.625	-1.9875	-2.2854	-2.4708	-2.2104	60.290	387.119	165.300	381.169	228.706	306.717	325.878	354.924	90.071	384.946	391.694	305.284	327.103	375.512	370.042	48.473	0.00062313	0.0019452	8.8926e-05	477.89	6.6813e-06	6.6297e-06	546.49	212.44	2.2406e-05	4.0038e-06	278.06	132.05	98.056	56.682	1.2987e-05	78.171	0.0028967	0.0029662	0.000833	721.96	3.2543e-05	3.2663e-05	797.13	288.11	3.2005e-05	3.1774e-05	399.3	172.8	131.36	68.102	3.1185e-05	93.461	117.939	54.971	84.539	49.896	219.312	45.882	48.832	55.854	340.301	143.459	52.885	56.484	59.688	65.069	210.931	60.661	-8191	255	
840.830	1	1	0	0	0.11746	0.029804	0.0437	0.28867	0.14181	0.18059	0.16775	0.16161	0.25321	0.029041	0.27552	0.2415	0.19372	0.21473	0.047561	0.14632	-1.9771	-2.3125	-1.9646	-2.4125	-2.4042	-2.3917	-2.4979	-2.2479	-2.2771	-2.4188	-2.1708	-2.5208	-2.3667	-2.3333	-2.4542	-2.1396	233.459	138.556	66.791	50.971	240.020	193.779	39.143	61.756	95.144	117.064	364.940	58.326	356.670	357.990	129.679	312.682	0.00080098	0.00018727	0.00038189	468.51	8.1562e-06	3.0929e-06	555.49	215.53	8.2307e-06	2.174e-05	283.64	134.68	98.212	56.829	7.5833e-06	78.079	0.0028291	0.0029073	0.00081386	713.32	3.2342e-05	3.2614e-05	805.78	291.51	3.2518e-05	3.2528e-05	406.75	175.4	132.53	68.369	3.1114e-05	92.786	152.479	338.070	168.337	49.770	208.252	144.113	48.342	55.841	221.639	111.657	52.929	56.419	59.524	64.871	183.382	60.795	-8191	255	
840.926	1	1	0	0	0.19942	0.27286	0.12169	0.041153	0.053909	0.27257	0.23709	0.13746	0.095628	0.084925	0.10569	0.18265	0.26146	0.005831	0.28366	0.31221	-2.0167	-2.1625	-2.2458	-2.5458	-2.2	-2.4146	-2.4167	-2.3	-2.3021	-2.5125	-1.9875	-2.6104	-2.3042	-2.2854	-2.5792	-2.1125	334.342	271.808	63.243	294.183	72.167	232.769	63.338	197.100	169.473	190.059	370.147	335.744	362.788	232.770	275.170	251.813	0.00071579	0.00052565	0.00033256	457.6	9.8825e-06	6.71e-06	538.23	211.39	9.7638e-06	5.3313e-06	284.29	135.53	98.89	57.28	2.4815e-05	78.45	0.0027738	0.0028376	0.00079363	692.53	3.1323e-05	3.1717e-05	783.75	286.3	3.2206e-05	3.2546e-05	407.94	177.07	134.03	69.171	3.231e-05	94.4	129.562	132.899	351.561	49.928	119.884	210.595	48.393	55.646	197.723	241.742	52.900	56.309	59.395	64.845	115.589	60.674	-8191	255	
841.023	1	1	0	0	0.16091	0.067482	0.1444	0.10363	0.12875	0.14272	0.21279	0.14866	0.12237	0.11415	0.18847	0.44043	0.17155	0.18131	0.14938	0.13943	-1.8708	-2.5646	-2.1292	-2.6625	-2.0375	-2.325	-2.7146	-2.1417	-2.3812	-2.2958	-2.1083	-2.4521	-2.3604	-2.1688	-2.5729	-2.3583	83.951	48.161	300.668	64.794	132.713	47.807	380.118	140.576	80.232	50.160	286.635	366.340	370.456	356.622	139.521	43.440	0.00072057	0.0016651	0.00039744	465.09	6.2926e-06	1.1153e-05	531.55	206.23	3.3271e-06	4.1176e-06	275.5	132.93	98.29	56.84	3.5001e-06	78.583	0.0028745	0.0029142	0.00080541	699.93	3.1142e-05	3.104e-05	771.01	278.63	3.0859e-05	3.0999e-05	393.41	172.25	131.32	68.368	3.1619e-05	94.222	125.591	94.329	100.599	50.159	254.347	227.930	48.681	56.039	189.116	371.538	53.044	56.402	59.721	64.703	215.013	60.619	-8191	255	
841.119	1	1	0	0	0.12698	0.15408	0.073764	0.16738	0.16812	0.10844	0.096286	0.080663	0.013556	0.19278	0.26476	0.28136	0.10387	0.38429	0.17481	0.1561	-1.9208	-2.4229	-2.0979	-2.5687	-2.1917	-2.2604	-2.5083	-2.2625	-2.2396	-2.4625	-2.2875	-2.4958	-2.4104	-2.4125	-2.65	-2.3146	138.227	287.445	252.705	77.716	336.720	245.501	91.575	226.481	176.743	226.204	92.776	257.523	188.587	74.418	94.393	198.143	0.00071026	0.00081424	0.00019975	470.82	3.9118e-06	4.1926e-06	541.03	210.47	2.2046e-05	1.6139e-05	274	131.55	96.178	56.094	4.3885e-06	77.111	0.0028823	0.0029482	0.000826	714.72	3.2259e-05	3.2237e-05	788.41	282.9	3.1327e-05	3.1125e-05	391.83	170.07	128.77	67.033	3.0219e-05	92.118	128.420	110.797	181.168	50.008	357.800	298.830	48.807	55.697	120.102	224.665	53.131	56.613	59.658	64.701	282.865	60.838	-8191	255	
841.239	1	1	0	0	0.20252	0.18811	0.14822	0.024705	0.16503	0.28301	0.35077	0.12753	0.13412	0.013002	0.10476	0.27947	0.091897	0.25504	0.22583	0.059817	-1.8625	-2.5458	-1.9854	-2.4229	-2.475	-2.0792	-2.5125	-2.3667	-2.3646	-2.8208	-2.1937	-2.4625	-2.1979	-2.0812	-2.4917	-2.2333	66.761	353.232	39.264	223.026	204.955	187.230	275.835	145.471	344.681	392.601	170.768	348.729	95.754	342.272	301.362	164.486	0.0005605	0.00083533	3.6603e-05	460.65	1.3964e-05	7.68e-06	547.96	213.08	7.9008e-06	3.3666e-06	282.55	133.35	98.278	56.277	4.2658e-06	77.723	0.0027551	0.0028338	0.00079854	701.63	3.1846e-05	3.2288e-05	796.33	288.47	3.2359e-05	3.2501e-05	405.42	174.3	132.02	68.028	3.1343e-05	92.887	132.522	165.987	47.374	49.582	91.975	329.814	48.270	56.032	202.284	150.981	53.240	56.697	59.303	64.889	157.166	60.876	-8191	255	
841.334	1	1	0	0	0.16307	0.25163	0.35029	0.16726	0.13875	0.13892	0.09234	0.22608	0.056144	0.06163	0.082867	0.25753	0.29137	0.14741	0.021356	0.047796	-1.6083	-2.4208	-2.0563	-2.2917	-2.3896	-2.0521	-2.6479	-2.2687	-2.0729	-2.5104	-2.2979	-2.3729	-2.5792	-2.3958	-2.3396	-2.5354	288.161	148.210	327.217	347.978	101.638	173.956	390.641	384.179	376.551	353.010	347.432	350.397	347.269	131.402	97.325	62.318	0.0011691	0.0014037	0.00028799	455.45	2.3999e-06	1.9728e-05	540.66	210.81	1.6412e-06	7.443e-07	283.8	135.06	99.791	57.284	2.4179e-05	78.187	0.0028039	0.0028496	0.00079638	689.32	3.1366e-05	3.1652e-05	781.54	284.64	3.231e-05	3.277e-05	409.35	178.21	135	69.518	3.3218e-05	94.868	153.936	253.389	122.874	49.955	302.498	162.125	48.862	55.851	104.365	227.031	53.046	56.562	59.738	64.449	212.279	60.545	-8191	255	
841.430	1	1	0	0	0.24566	0.075748	0.030354	0.16375	0.047847	0.23687	0.1421	0.15745	0.18888	0.055812	0.17218	0.095188	0.041045	0.23074	0.29226	0.26194	-1.6104	-2.5625	-1.9917	-2.2521	-2.6125	-1.8604	-2.5021	-2.4125	-2.1292	-2.375	-2.375	-2.375	-2.4854	-2.275	-2.3312	-2.425	262.685	285.492	327.254	165.976	327.193	207.129	104.432	358.215	358.849	167.599	373.872	363.223	236.533	376.132	73.964	371.230	0.00083583	0.00086387	0.00024432	463.54	4.7676e-06	4.2662e-06	526.68	203.78	1.2112e-05	8.7483e-06	270.87	130.29	96.228	55.701	6.2895e-06	77.613	0.002952	0.0029866	0.00082506	701.86	3.1675e-05	3.1497e-05	767.13	275.89	3.117e-05	3.1249e-05	392.69	171.23	130.31	67.621	3.2275e-05	93.523	126.347	381.788	209.022	50.003	206.273	163.136	48.861	55.582	297.848	79.385	53.058	56.838	59.428	64.975	219.742	60.769	-8191	255	
841.526	1	1	0	0	0.064775	0.16481	0.17079	0.21564	0.095362	0.089645	0.10815	0.16855	0.29669	0.041699	0.21111	0.3387	0.19244	0.15188	0.18348	0.21582	-1.575	-2.5604	-2.1562	-2.0583	-2.5646	-1.9354	-2.4083	-2.4792	-1.9333	-2.7042	-2.375	-2.0875	-2.7562	-2.4375	-2.2979	-2.6375	310.946	305.778	119.338	99.649	198.192	102.897	296.448	136.529	109.482	38.577	354.089	336.702	241.876	371.063	182.580	387.952	0.00091974	0.00085076	0.00039002	466.47	1.644e-05	1.2676e-05	531.58	206.25	6.275e-06	6.426e-06	271.14	129.41	94.835	54.885	7.5595e-06	76.625	0.0029297	0.0029887	0.00083729	712.16	3.2322e-05	3.213e-05	779.18	279.23	3.1118e-05	3.0786e-05	387.16	167.89	127.27	66.108	3.0493e-05	91.398	150.054	90.475	144.210	50.473	159.993	186.295	48.698	56.322	99.416	83.057	53.480	56.678	59.378	64.860	227.216	60.906	-8191	255	
841.622	1	1	0	0	0.11718	0.079249	0.15311	0.19137	0.13761	0.070107	0.21265	0.15029	0.046044	0.030354	0.1448	0.16113	0.24326	0.27119	0.25408	0.17276	-1.5542	-2.3271	-2.4958	-2.2229	-2.4417	-2.0771	-2.1958	-2.5438	-2.0563	-2.4979	-2.4771	-2.1271	-2.5646	-2.3563	-2.25	-2.5771	192.523	257.958	368.709	394.547	345.570	309.743	352.312	68.900	218.416	170.427	50.098	67.437	55.871	40.428	383.582	37.868	0.00067876	0.00046231	0.00022978	457.54	3.4334e-06	4.4505e-06	537.75	209.83	8.0918e-06	8.9143e-06	277.28	131.81	95.784	55.179	1.2464e-05	76.259	0.0027641	0.0028492	0.00080287	695.02	3.1769e-05	3.2115e-05	785.69	283.41	3.2099e-05	3.2034e-05	398.35	172.4	129.98	67.067	3.125e-05	91.505	128.372	94.559	372.080	50.038	237.117	324.676	48.263	55.833	97.169	329.710	52.938	56.760	59.658	64.955	202.274	60.961	-8191	255	
841.718	1	1	0	0	0.22743	0.12401	0.28956	0.045378	0.1658	0.20581	0.20261	0.40017	0.19891	0.1454	0.1339	0.11904	0.071298	0.3151	0.095008	0.22013	-1.6562	-2.5229	-2.2792	-2.1771	-2.5854	-2.3479	-2.4042	-2.7188	-2.1104	-2.2667	-2.4938	-1.9979	-2.6437	-2.4417	-2.375	-2.5729	137.532	106.186	386.102	199.018	262.618	117.176	384.487	394.344	136.957	65.968	343.028	215.243	283.305	393.995	60.834	317.114	0.00051921	0.00057929	0.00031259	443.41	1.7272e-05	2.4695e-05	526.54	204.55	1.5043e-05	8.1464e-06	276.96	132.48	97.017	56.183	1.276e-05	77.919	0.0027842	0.0028316	0.00079524	679.77	3.1092e-05	3.1283e-05	767.26	278.04	3.1359e-05	3.1586e-05	397.1	172.78	131.01	67.81	3.1731e-05	93.276	144.962	134.790	382.436	50.095	237.283	189.306	48.389	55.721	193.306	153.264	53.173	56.684	59.774	65.053	281.995	60.897	-8191	255	
841.815	1	1	0	0	0.081894	0.12038	0.18991	0.26868	0.063932	0.057438	0.13784	0.12152	0.29412	0.084566	0.36725	0.16117	0.17811	0.35515	0.13279	0.2277	-1.7646	-2.3354	-2.4021	-2.0729	-2.5333	-2.1854	-2.3042	-2.5479	-2.1063	-2.4583	-2.3	-2.0625	-2.6312	-2.4521	-2.2542	-2.6604	102.708	270.198	320.703	102.382	254.339	165.068	154.290	388.270	197.010	353.606	370.878	46.055	316.872	392.926	331.392	230.539	0.00079367	0.00043182	0.00053223	452.74	8.485e-06	8.7412e-06	523.08	201.89	1.1971e-05	9.0912e-06	270.57	130.45	95.506	55.788	3.5949e-06	77.51	0.0028555	0.0029044	0.00080586	688.94	3.1048e-05	3.1075e-05	758.72	273.09	3.0269e-05	3.0268e-05	384.95	168.52	127.84	66.833	3.0706e-05	92.454	130.755	188.348	107.878	50.303	42.332	92.027	49.037	56.065	101.647	223.811	52.959	56.713	59.594	65.098	75.271	61.021	-8191	255	
841.935	1	1	0	0	0.24947	0.18264	0.25893	0.33988	0.12728	0.087124	0.17909	0.25735	0.12766	0.05561	0.19954	0.38534	0.23844	0.14527	0.18642	0.24709	-1.7417	-2.1771	-2.4646	-2.1063	-2.4125	-2.4958	-2	-2.55	-2.1813	-2.2188	-2.5938	-2.2625	-2.4146	-2.6146	-1.9229	-2.6917	361.602	103.475	289.579	93.676	232.967	370.179	258.462	347.101	85.398	249.395	170.766	338.400	347.988	302.179	57.082	333.061	0.00067929	0.00096575	0.00052774	455.74	1.231e-05	7.7132e-06	533.87	206.42	1.2437e-05	7.7348e-06	272	129.88	94.717	54.662	5.6122e-06	76.051	0.002809	0.0028726	0.00080475	694.02	3.151e-05	3.1514e-05	772.54	278.32	3.0904e-05	3.0776e-05	387.52	167.66	126.64	65.639	2.9669e-05	90.201	151.833	227.248	105.365	50.039	205.820	187.911	48.563	55.822	142.339	121.052	53.161	56.577	59.486	65.203	93.685	60.960	-8191	255	
842.031	1	1	0	0	0.24985	0.215	0.12424	0.12547	0.31619	0.20072	0.1008	0.066541	0.11612	0.1379	0.18365	0.13271	0.20991	0.29512	0.17422	0.31774	-1.7333	-2.2854	-2.425	-2.1813	-2.3958	-2.2438	-2.2708	-2.4167	-2.3854	-2.1979	-2.4333	-2.4875	-2.3958	-2.6188	-2.2333	-2.5062	326.968	315.207	387.987	45.868	342.972	168.583	37.752	56.601	319.599	147.631	383.501	169.920	218.570	341.402	241.399	354.553	0.00069556	0.0015013	9.7379e-05	444.06	9.6264e-06	4.909e-06	525.94	206.52	1.4056e-05	1.0158e-05	273.92	131.01	95.935	55.409	1.4614e-05	76.248	0.0026861	0.00274	0.00076911	674.63	3.0504e-05	3.0787e-05	763.7	277	3.0829e-05	3.0923e-05	391.23	169.88	128.34	66.495	3.006e-05	90.973	143.964	89.082	392.638	50.442	129.767	265.375	48.701	55.571	258.699	90.920	53.475	56.348	59.749	64.824	123.259	60.860	-8191	255	
842.103	1	1	0	0	0.2733	0.084746	0.2634	0.095671	0.15201	0.14771	0.15251	0.41503	0.187	0.18	0.19414	0.075769	0.19904	0.086199	0.21926	0.17625	-1.9458	-2.0271	-2.5417	-2.075	-2.3458	-2.5229	-1.9937	-2.4042	-2.3896	-1.9688	-2.6333	-2.1375	-2.3646	-2.6875	-1.9229	-2.6208	51.210	392.906	227.203	249.175	170.172	236.929	107.680	380.891	237.816	246.248	284.485	224.109	350.022	93.548	142.636	354.681	0.00060141	0.0010097	0.00056493	437.23	3.2715e-06	1.4986e-05	515.24	203.11	6.4761e-06	1.8542e-05	270.14	131.86	96.798	56.119	3.6667e-06	77.756	0.0026804	0.0027202	0.00075267	660.45	2.9552e-05	2.9773e-05	743.18	271.42	3.0098e-05	3.0346e-05	388.52	170.18	129.53	67.366	3.0552e-05	92.45	125.537	132.850	142.914	50.231	260.348	188.293	49.003	55.904	130.320	225.895	52.805	56.132	59.577	64.616	41.025	60.816	-8191	255	
842.199	1	1	0	0	0.10288	0.11402	0.045634	0.30561	0.090145	0.10124	0.45775	0.32752	0.28121	0.28228	0.42411	0.30576	0.14996	0.25529	0.14545	0.048499	-2.1854	-1.9771	-2.4583	-2.0938	-2.1937	-2.5271	-2.2083	-2.3083	-2.3312	-2.325	-2.4125	-2.4417	-2.3208	-2.5438	-2.075	-2.5125	196.386	96.086	125.171	85.052	336.917	126.992	274.989	332.350	176.330	238.853	60.555	395.411	329.465	346.554	124.652	301.574	0.00083659	0.00086492	0.00019177	439.77	1.1683e-05	6.2252e-06	510.4	201.62	1.2492e-05	5.8194e-06	265.54	129.28	94.466	55.488	1.8446e-05	77.516	0.0027363	0.0027797	0.00077105	668.58	2.9674e-05	2.9515e-05	736.46	266.77	2.8939e-05	2.8841e-05	373.73	164.91	125.1	65.813	2.9142e-05	91.229	146.621	392.599	132.342	50.087	248.963	79.425	48.354	56.035	166.724	235.342	53.015	56.501	59.605	64.747	294.108	60.779	-8191	255	
842.320	1	1	0	0	0.11953	0.17696	0.40632	0.35175	0.22162	0.12418	0.21873	0.17147	0.14873	0.32551	0.12546	0.25508	0.19589	0.10994	0.29596	0.13205	-1.775	-1.9979	-2.5896	-2.4229	-2.1813	-2.3187	-2.2	-2.3063	-2.5062	-2.1104	-2.5687	-2.425	-2.1958	-2.7188	-2.0812	-2.4688	339.280	294.034	346.316	66.748	131.858	166.127	382.573	157.813	133.088	384.589	288.091	298.934	353.196	292.022	346.138	87.755	0.00079774	0.00069681	0.0003849	438.94	1.1845e-05	7.3758e-06	515.35	199.93	9.6043e-06	8.0327e-06	266.97	127.74	94.51	54.96	1.0675e-05	75.837	0.0026537	0.0027187	0.00075661	664.15	2.9653e-05	2.9604e-05	741.08	268	2.8855e-05	2.8812e-05	372.55	163.91	124.09	64.968	2.8162e-05	89.188	132.404	194.654	67.391	50.052	252.344	134.035	48.799	55.838	313.827	170.045	53.375	56.824	59.781	64.651	180.997	60.928	-8191	255	
842.416	1	1	0	0	0.13243	0.065298	0.1363	0.086854	0.23491	0.12045	0.18549	0.31797	0.15016	0.098795	0.16027	0.17636	0.20688	0.16559	0.09433	0.11556	-2.0104	-1.8792	-2.2979	-2.5104	-2.1833	-2.5	-2.3146	-2.4167	-2.425	-2.175	-2.2625	-2.5396	-2.0833	-2.7521	-2.3688	-2.4208	38.246	150.162	232.095	174.001	339.294	318.373	299.252	145.312	160.333	81.152	340.410	290.228	274.134	362.910	130.916	336.561	0.00057745	0.0010185	0.00057297	429.95	4.765e-06	5.714e-06	506.57	199.5	1.9252e-05	2.9183e-06	262.99	128.56	93.64	54.591	1.3663e-05	74.956	0.002532	0.002597	0.00072664	643.77	2.8574e-05	2.8661e-05	727.16	264.3	2.8585e-05	2.8595e-05	371.56	163.82	123.54	64.481	2.8061e-05	88.192	147.685	169.669	110.814	50.241	146.162	68.823	48.499	56.175	188.328	180.767	53.167	56.432	59.269	64.946	87.925	60.730	-8191	255	
842.512	1	1	0	0	0.12172	0.11931	0.14612	0.1584	0.14519	0.15568	0.13706	0.19804	0.045352	0.095394	0.30753	0.080976	0.28267	0.10364	0.17806	0.35393	-1.8896	-2.1021	-2.3292	-2.3208	-2.0396	-2.4646	-2.1937	-2.3042	-2.5708	-2.3479	-2.2438	-2.4625	-2.2083	-2.5312	-2.2708	-2.3792	219.076	336.915	118.223	86.593	184.823	305.507	322.653	143.807	229.908	74.538	371.941	323.772	324.614	194.416	189.018	309.602	0.00054364	0.0011362	0.00040218	419.12	5.6197e-06	1.2492e-05	492.39	191.43	1.7036e-05	1.5966e-05	259.54	127.01	93.76	54.562	3.8611e-06	75.243	0.0025136	0.0025533	0.00070968	627.73	2.7595e-05	2.7649e-05	701.29	254.54	2.7497e-05	2.7703e-05	362.78	162.18	122.72	64.463	2.789e-05	88.508	132.426	216.708	147.780	50.253	161.394	358.863	49.200	56.137	172.381	195.095	53.407	56.141	59.300	64.534	209.680	60.561	-8191	255	
842.631	1	1	0	0	0.24845	0.19104	0.24553	0.25528	0.22404	0.25248	0.037113	0.22502	0.10136	0.23191	0.19052	0.32063	0.12684	0.29541	0.071935	0.39036	-2.2542	-1.925	-2.3042	-2.4396	-2.1521	-2.3979	-2.4167	-2.0646	-2.4896	-2.1896	-2.4271	-2.4271	-2.1708	-2.4792	-2.5062	-2.425	356.395	385.390	388.444	361.419	304.666	309.248	298.632	321.264	155.406	56.945	87.984	346.848	166.602	392.910	252.325	361.511	0.00039156	0.00063841	0.00032425	416	1.9757e-05	1.2214e-05	484.54	185.34	1.3427e-05	1.0032e-05	245.22	124.06	90.861	53.644	9.6072e-06	74.762	0.0025048	0.002553	0.00071195	624.01	2.7361e-05	2.7316e-05	691.76	247.61	2.6843e-05	2.6911e-05	348.44	157.29	118.71	63.204	2.6923e-05	87.144	159.911	244.124	93.361	50.356	209.080	227.981	48.505	56.465	104.087	237.275	53.195	56.444	59.528	64.756	218.365	61.002	-8191	255	
842.727	1	1	0	0	0.12166	0.1153	0.26673	0.071636	0.13979	0.23268	0.20149	0.30803	0.20003	0.08619	0.25151	0.26502	0.23473	0.33538	0.27201	0.1031	-2.1083	-2.1	-2.3875	-2.5042	-1.85	-2.45	-2.0292	-2.2521	-2.5875	-2.025	-2.3563	-2.7021	-2.2062	-2.4854	-2.3625	-2.3521	67.796	352.082	310.202	97.810	287.758	378.764	357.077	303.921	195.374	65.021	375.892	94.161	384.165	60.343	246.374	285.376	0.00032775	0.00074458	0.00048863	413.14	8.5279e-06	1.4229e-05	484.65	185.39	1.34e-05	1.5366e-05	246.96	122.58	88.911	53.035	9.4596e-06	73.591	0.0024507	0.0025036	0.00070207	618.58	2.7463e-05	2.755e-05	694.36	247.46	2.7096e-05	2.6997e-05	347.84	155.67	117.17	62.575	2.6546e-05	86.268	55.531	57.699	278.825	49.557	367.619	172.097	48.583	56.307	186.319	172.387	53.383	56.801	59.739	64.548	89.547	61.075	-8191	255	
842.799	1	1	0	0	0.1517	0.11721	0.088704	0.11647	0.2643	0.15596	0.26176	0.32401	0.13003	0.12075	0.36653	0.22031	0.19075	0.069754	0.13292	0.1879	-1.9396	-2.1333	-2.2625	-2.7833	-2.1375	-2.4188	-2.65	-2.075	-2.2917	-2.1354	-2.4479	-2.6083	-2.3312	-2.5396	-2.3042	-2.2938	213.533	347.510	323.546	48.398	345.707	45.889	306.552	63.723	142.854	341.378	275.178	387.090	337.137	180.105	318.304	375.286	0.00054267	0.00056239	0.00016884	405.1	2.1795e-07	6.3556e-06	483.5	186.42	4.4934e-06	8.6417e-06	250.58	125.39	91.246	54.111	2.009e-05	74.392	0.0023925	0.0024528	0.00069025	608.95	2.7241e-05	2.7439e-05	692.95	250	2.7626e-05	2.7726e-05	355.98	159.79	119.89	63.619	2.7067e-05	86.798	137.252	168.279	237.693	50.553	336.470	55.356	48.867	56.137	122.075	99.456	53.569	56.613	59.633	64.845	204.903	60.667	-8191	255	
842.919	1	1	0	0	0.062685	0.14881	0.14869	0.071788	0.12627	0.16786	0.15719	0.16157	0.2742	0.15476	0.27185	0.12893	0.23529	0.25031	0.29222	0.16279	-1.9813	-2.3083	-2.225	-2.6229	-2.0583	-2.3312	-2.575	-2.2687	-2.375	-2.2687	-2.2938	-2.5896	-2.2292	-2.4167	-2.2958	-2.3396	318.062	269.372	237.321	279.414	220.353	65.280	72.341	308.405	262.173	278.654	104.899	239.039	306.697	396.995	295.355	338.570	0.00070378	0.0011094	0.00013555	395.08	2.4822e-06	8.106e-07	465.09	177.54	1.9047e-05	1.3033e-05	239.61	120.4	88.295	52.483	9.9229e-06	72.65	0.0023937	0.0024316	0.00067316	593.93	2.614e-05	2.6099e-05	664.82	237.25	2.6126e-05	2.6204e-05	338.12	153.32	115.58	61.822	2.6094e-05	84.745	111.809	45.906	118.170	50.360	55.903	160.128	48.808	56.267	208.595	143.241	53.376	56.565	59.713	64.771	268.455	60.806	-8191	255	
843.016	1	1	0	0	0.10539	0.15268	0.10292	0.075136	0.22938	0.12777	0.030581	0.047401	0.073686	0.19379	0.046642	0.33197	0.058404	0.0019548	0.21316	0.15992	-2.0042	-2.1521	-2.075	-2.5563	-2.2375	-2.2646	-2.5625	-2.1937	-2.4458	-2.4333	-2.3583	-2.525	-2.3583	-2.0667	-2.4354	-2.2812	251.730	77.722	246.807	128.406	148.757	141.313	300.268	230.936	390.070	157.032	276.897	349.282	76.845	180.000	277.134	269.284	0.00084329	0.0009669	0.00023069	394.19	3.3322e-06	1.4631e-05	460.19	172.23	4.5203e-06	1.0181e-05	232.01	119.07	86.346	51.792	9.2687e-06	71.745	0.002359	0.0023778	0.00066227	587.13	2.5817e-05	2.5761e-05	655.99	232.18	2.5471e-05	2.5623e-05	328.2	150.48	113.38	61.058	2.5828e-05	84.083	146.643	89.765	49.966	49.753	390.003	148.325	48.614	55.977	322.607	175.868	53.404	56.723	59.934	64.560	170.733	60.850	-8191	255	
843.112	1	1	0	0	0.19982	0.063548	0.20634	0.079559	0.075407	0.059494	0.25032	0.069653	0.083747	0.21168	0.084507	0.23612	0.23665	0.23591	0.1248	0.15697	-1.8625	-2.5771	-1.9688	-2.5417	-2.4229	-2.4042	-2.4	-2.1667	-2.1792	-2.4833	-2.2229	-2.4167	-2.2604	-2.3271	-2.5875	-2.3896	207.571	139.294	369.088	361.387	332.855	75.224	304.213	207.594	302.605	55.216	384.189	48.186	202.039	351.187	131.963	330.844	0.00025692	0.00057192	0.00049551	390.8	4.0673e-06	1.9775e-05	460.47	174.37	1.1912e-05	1.2463e-05	233.49	118.75	86.302	52.115	3.6541e-06	71.189	0.0023381	0.0024016	0.00066812	588.12	2.6133e-05	2.6036e-05	658.88	233.62	2.5703e-05	2.5654e-05	328.3	150.35	112.88	60.788	2.5297e-05	82.973	117.915	73.136	49.605	49.888	43.094	145.679	48.716	56.084	140.593	128.132	53.258	56.702	59.828	64.472	324.010	60.671	-8191	255	
843.232	1	1	0	0	0.17324	0.11339	0.14445	0.37315	0.10458	0.074719	0.15977	0.2411	0.06433	0.028575	0.093817	0.3884	0.06198	0.27009	0.13361	0.13694	-1.9062	-2.3312	-1.9146	-2.4875	-2.3104	-2.1979	-2.6708	-2.2146	-2.1958	-2.4729	-2.0854	-2.4792	-2.2125	-2.2583	-2.7333	-2.275	303.130	312.110	381.728	329.969	155.040	67.972	40.399	307.234	192.386	54.716	330.426	328.837	268.600	306.349	392.224	291.005	0.00067239	0.00032331	0.00017467	390.07	5.6661e-06	1.242e-05	459.49	174.72	2.0343e-05	8.9068e-06	232.83	120.13	86.862	51.557	7.3168e-06	71.166	0.0022931	0.0023347	0.00065497	582.76	2.5742e-05	2.5915e-05	657.78	233.66	2.5851e-05	2.577e-05	331.38	152.08	114.04	60.618	2.5559e-05	82.821	126.119	90.089	37.933	49.581	105.770	245.596	48.309	55.697	358.381	44.013	53.560	56.426	59.495	64.497	136.841	60.578	-8191	255	
843.327	1	1	0	0	0.3062	0.15614	0.15074	0.36238	0.11981	0.30803	0.25908	0.17519	0.084342	0.26179	0.14658	0.13112	0.19736	0.17008	0.22655	0.13248	-1.7687	-2.5208	-2.0187	-2.3896	-2.4375	-2.1479	-2.5458	-2.3229	-2.2354	-2.6	-2.1396	-2.2542	-2.3708	-2.2021	-2.4938	-2.2479	66.099	231.526	340.242	396.283	121.620	350.454	314.061	85.839	375.396	351.664	242.403	355.359	397.603	336.987	198.643	225.919	0.00096814	0.0010883	0.00044349	393.22	4.1537e-06	1.2675e-05	458.68	173.97	6.327e-06	1.3549e-05	234.39	120.89	87.411	51.885	1.4392e-05	71.697	0.0023038	0.0023339	0.00065174	584.85	2.5485e-05	2.5667e-05	655.7	232.8	2.5663e-05	2.5758e-05	331.19	152.21	114.65	60.877	2.5804e-05	83.454	129.349	380.616	367.693	49.846	224.140	47.674	48.660	56.451	89.762	152.130	52.889	56.709	59.382	64.351	175.250	60.697	-8191	255	
843.400	1	1	0	0	0.097961	0.020761	0.067832	0.29243	0.10515	0.047219	0.13452	0.34068	0.016893	0.09918	0.14311	0.054488	0.20274	0.30807	0.046941	0.12931	-1.8438	-2.4271	-1.7938	-2.4979	-2.3854	-2.1708	-2.4104	-2.2646	-2.1708	-2.3937	-2.2646	-2.3042	-2.6625	-2.1292	-2.3979	-2.5	353.592	223.819	81.607	351.770	305.896	356.994	169.168	342.958	174.759	397.078	240.211	251.881	69.721	336.343	47.742	355.657	0.00059415	0.001053	0.0002441	402.08	5.3094e-06	4.5355e-06	468.8	176.39	9.1003e-06	1.7095e-05	234.76	118.46	86.745	50.809	8.7184e-06	70.202	0.0023299	0.0023736	0.00066253	594.02	2.5785e-05	2.5961e-05	663.85	235.21	2.5793e-05	2.5741e-05	331.53	150.83	114.01	60.122	2.5974e-05	82.514	150.641	368.311	155.388	50.318	260.419	210.054	48.296	55.874	90.656	113.982	53.140	56.495	59.904	64.387	133.243	60.776	-8191	255	
843.496	1	1	0	0	0.084716	0.13411	0.12806	0.27288	0.2502	0.10526	0.08756	0.14638	0.19047	0.20429	0.01523	0.096834	0.14814	0.099744	0.086869	0.17697	-1.7083	-2.5021	-1.9146	-2.1958	-2.5917	-2.2896	-2.5042	-2.4708	-2.025	-2.5062	-2.1875	-2.2458	-2.6771	-2.2521	-2.4146	-2.3667	299.464	317.978	356.907	306.191	83.781	105.684	352.809	43.755	54.786	95.836	354.431	191.184	58.537	249.056	62.865	306.405	0.00061805	0.00040118	0.00053836	408.79	5.3492e-06	8.615e-06	476.14	181.76	2.587e-06	2.3783e-05	244.11	120.54	88.158	50.552	4.6692e-06	69.863	0.0023639	0.002419	0.00067453	607.63	2.6516e-05	2.6531e-05	679.31	242.25	2.62e-05	2.626e-05	341.14	152.81	115.36	59.793	2.6073e-05	82.178	120.565	50.480	105.973	50.089	112.728	272.525	48.742	55.566	255.578	155.163	52.380	56.759	59.695	64.742	246.648	60.640	-8191	255	
843.615	1	1	0	0	0.085194	0.18645	0.28787	0.1648	0.13363	0.23881	0.033956	0.14196	0.19402	0.18156	0.17136	0.14778	0.084301	0.52958	0.17733	0.16676	-1.5083	-2.4188	-2.0958	-2.1437	-2.3354	-1.9667	-2.4729	-2.3542	-2.15	-2.5812	-2.175	-2.3292	-2.8875	-2.3458	-2.2021	-2.6708	245.246	312.502	197.146	314.241	161.451	234.296	257.441	281.322	331.030	54.314	315.074	89.726	210.893	389.412	107.072	377.181	0.0005095	0.00098168	0.00046343	422.18	8.2083e-06	6.3032e-06	499.42	191.47	3.5435e-06	1.7465e-05	256.96	124.21	90.896	50.367	1.0975e-05	69.771	0.0023553	0.0024036	0.00067284	618.51	2.6444e-05	2.662e-05	697.54	251.92	2.6672e-05	2.6936e-05	358.28	158	119.28	60.205	2.7105e-05	82.895	140.516	103.283	269.789	49.954	105.691	372.548	48.420	55.493	239.843	90.872	53.069	55.987	59.097	64.628	218.099	60.832	-8191	255	
843.711	1	1	0	0	0.22036	0.081154	0.1296	0.21321	0.25945	0.11043	0.17716	0.32952	0.12595	0.051308	0.23277	0.09458	0.023702	0.27371	0.30193	0.070942	-1.5542	-2.4354	-2.3458	-2.1771	-2.5167	-2.2396	-2.4667	-2.6833	-1.9604	-2.3854	-2.4583	-2.3354	-2.2687	-2.3604	-2.375	-2.6208	318.376	190.528	214.950	354.946	180.903	222.478	375.631	267.810	162.948	239.420	369.951	267.738	316.720	83.747	331.869	270.446	0.00058264	0.0010417	0.00010634	451.18	4.3664e-06	1.7344e-05	529.69	203.93	6.7149e-06	1.4474e-05	279.24	129.32	94.942	51.709	5.5503e-06	73.538	0.0024537	0.002498	0.00069835	657.84	2.7423e-05	2.7641e-05	739.27	267.69	2.7794e-05	2.792e-05	381.87	164.6	124.87	62.31	2.9152e-05	87.893	135.512	341.913	285.727	49.655	111.825	195.140	48.715	55.710	265.841	381.225	52.566	56.442	58.615	64.620	160.851	60.732	-8191	255	
843.807	1	1	0	0	0.060351	0.064775	0.13442	0.18202	0.19142	0.11375	0.088877	0.18709	0.21446	0.17195	0.092042	0.25184	0.21591	0.14791	0.11269	0.15704	-1.625	-2.3833	-2.2104	-1.9562	-2.3625	-2.3125	-2.3625	-2.7938	-2.1542	-2.45	-2.5938	-2.1625	-2.5479	-2.5354	-2.1562	-2.4375	368.609	205.086	380.453	264.320	212.135	233.557	106.915	374.035	51.408	96.550	134.877	266.448	252.561	169.908	40.187	381.375	0.00056191	0.00038585	0.00040992	510.39	1.0773e-05	3.5612e-06	593.27	229.15	8.361e-06	3.7074e-06	304.5	132.88	96.38	53.206	1.8619e-05	76.535	0.0026749	0.0027558	0.00077977	738.95	3.108e-05	3.134e-05	836.39	301.3	3.1902e-05	3.2208e-05	426.26	174.75	131.36	65.81	3.3807e-05	93.681	120.178	55.527	121.215	49.690	261.465	237.061	48.268	55.047	121.546	319.229	52.390	56.189	58.616	64.438	135.531	60.840	-8191	255	
843.904	1	1	0	0	0.073325	0.022421	0.2592	0.17684	0.40975	0.10307	0.24938	0.22035	0.17045	0.24741	0.32929	0.34492	0.11256	0.25019	0.18037	0.13766	-1.6104	-2.3167	-2.5333	-2.1875	-2.575	-2.3146	-2.3688	-2.5938	-1.9958	-2.3708	-2.4125	-2.0396	-2.4625	-2.3979	-2.2083	-2.6979	221.149	84.106	146.545	289.854	273.057	283.817	324.571	378.580	115.025	330.314	362.997	313.062	60.685	368.160	283.834	264.399	0.00074191	0.00079934	0.00053017	555.07	3.5294e-06	2.783e-06	650.27	243.18	8.6515e-06	2.2929e-05	320.12	135.39	94.581	54.358	1.6603e-05	77.471	0.0031384	0.0032552	0.00092211	832.77	3.7283e-05	3.773e-05	944.27	334.1	3.8767e-05	3.9246e-05	472.45	187.95	139.17	70.192	4.0035e-05	98.708	125.238	193.288	201.191	49.771	333.633	292.241	48.385	54.514	230.141	131.449	52.002	56.024	58.539	64.275	108.473	60.537	-8191	255	
844.024	1	1	0	0	0.095922	0.14177	0.19253	0.16351	0.28656	0.064048	0.22768	0.1643	0.081687	0.17915	0.12981	0.2089	0.54038	0.15321	0.1329	0.14659	-1.8333	-2.4104	-2.5792	-2.0563	-2.6	-2.6542	-2.0333	-2.6271	-2.2542	-2.3333	-2.4813	-2.3625	-2.4979	-2.5271	-1.9083	-2.7521	264.350	239.603	249.181	89.243	318.600	95.790	360.653	367.121	77.075	374.550	158.452	84.544	365.254	43.257	141.297	303.474	0.00050446	0.0008208	0.00017993	594.58	1.0638e-05	3.0308e-06	693.8	250.5	7.4843e-06	1.9225e-05	324.63	139.41	96.986	57.151	1.0392e-05	82.895	0.0036222	0.0037265	0.001044	908.87	4.1528e-05	4.21e-05	1016	350.5	4.2812e-05	4.3119e-05	496.76	197.3	145.79	74.211	4.3225e-05	105.76	133.133	132.655	244.866	49.254	152.044	205.196	48.167	54.820	168.363	242.804	52.373	56.233	58.678	64.194	206.702	60.685	-8191	255	
844.096	1	1	0	0	0.15965	0.27396	0.14642	0.27085	0.056673	0.12387	0.07305	0.089574	0.16381	0.027348	0.093037	0.15251	0.17845	0.085362	0.07388	0.27913	-1.7313	-2.2313	-2.4333	-2.3312	-2.1063	-2.5542	-2.3542	-2.8271	-2.1521	-2.1562	-2.7562	-2.2188	-2.3937	-2.3646	-2.1854	-2.6021	369.386	173.272	314.340	321.318	222.383	379.851	222.337	211.488	323.357	383.940	321.268	313.161	261.406	131.195	57.225	304.919	0.00062441	0.0010752	0.00045883	619.38	2.2538e-05	5.4713e-06	710.73	251.87	1.0236e-05	1.4579e-05	333.36	143	99.308	60.649	9.4149e-06	86.813	0.0038987	0.0040011	0.0011199	954.39	4.3922e-05	4.423e-05	1053.8	356.78	4.4405e-05	4.4607e-05	507.11	203.17	150.12	78.513	4.5339e-05	111.06	96.758	146.380	105.262	48.924	366.484	60.302	47.842	54.431	127.719	227.611	52.335	55.942	58.738	64.180	68.610	60.541	-8191	255	
844.192	1	1	0	0	0.20941	0.14953	0.1587	0.26781	0.14573	0.088437	0.25586	0.21196	0.12472	0.13456	0.20322	0.25699	0.060967	0.23573	0.25415	0.11807	-1.6562	-2.025	-2.5167	-2.2917	-2.2021	-2.3979	-2.0729	-2.5854	-2.3542	-2.0917	-2.6542	-2.4062	-2.3208	-2.5271	-2.1562	-2.6833	120.987	99.408	182.941	304.631	99.188	86.158	314.241	373.233	149.516	304.169	114.079	73.064	365.806	388.978	140.109	384.327	0.00114	0.00081997	0.00022385	649.2	9.7649e-06	1.8692e-05	732.77	252.9	1.4854e-05	1.5243e-05	332.69	144.84	101.93	62.412	3.6615e-06	90.16	0.0040993	0.0041908	0.0011777	997.61	4.6527e-05	4.7171e-05	1103.7	367.36	4.858e-05	4.9351e-05	531.61	215.32	160.37	83.251	5.202e-05	118.79	133.981	289.293	182.383	49.047	176.224	209.842	48.014	54.353	275.105	161.885	52.049	56.036	58.806	64.021	290.315	60.668	-8191	255	
844.313	1	1	0	0	0.19128	0.18374	0.20827	0.21212	0.14447	0.28011	0.15632	0.038959	0.1042	0.36889	0.38008	0.30699	0.31326	0.099624	0.28806	0.29638	-1.7542	-2.0438	-2.6354	-2.4292	-2.3271	-2.4021	-1.9479	-2.4479	-2.5021	-2.1229	-2.6646	-2.2375	-2.2771	-2.4604	-2.3167	-2.7021	363.887	46.805	394.864	287.709	387.035	197.431	59.534	80.197	337.284	88.534	327.722	337.742	55.182	298.694	79.838	245.255	0.00075941	0.0018995	0.0005891	672.26	3.8601e-06	1.0662e-05	754.55	254.96	1.5458e-05	2.6501e-05	332.97	147.51	102.45	62.177	2.5875e-05	89.333	0.0046609	0.0047645	0.0013249	1067.3	5.179e-05	5.1817e-05	1154	379.61	5.1485e-05	5.166e-05	541.92	219.18	162.49	83.541	5.3457e-05	119.34	146.333	131.769	37.249	48.958	341.420	303.654	47.389	54.416	259.025	243.039	51.912	56.220	58.863	64.280	142.617	60.505	-8191	255	
844.407	1	1	0	0	0.28233	0.31013	0.070131	0.055632	0.29395	0.10225	0.13149	0.21023	0.22823	0.26197	0.15584	0.15887	0.41987	0.15867	0.11506	0.14229	-1.9333	-1.9083	-2.4208	-2.5021	-2.3167	-2.5958	-2.2521	-2.3521	-2.3229	-2.275	-2.4437	-2.4729	-2.1979	-2.7021	-2.0271	-2.6708	344.189	258.473	197.456	38.137	43.578	362.383	332.912	379.931	367.137	48.788	292.712	253.252	360.440	80.113	294.860	258.124	0.00078694	0.00050689	0.00056461	669.81	4.5599e-06	1.6912e-06	750.8	256.61	1.0206e-05	1.9919e-05	338.08	151.31	106.2	62.766	8.439e-06	89.192	0.004866	0.0050259	0.0014074	1097.5	5.5228e-05	5.5301e-05	1188.5	389.81	5.489e-05	5.5117e-05	560.26	227.35	169.11	85.189	5.4994e-05	119.65	141.766	210.141	79.735	48.981	280.755	66.112	47.940	54.198	147.528	257.961	51.978	56.218	58.549	64.356	75.994	61.063	-8191	255	
844.503	1	1	0	0	0.01938	0.24218	0.21608	0.37822	0.14144	0.26759	0.22122	0.23859	0.27551	0.14039	0.081908	0.26357	0.22177	0.035319	0.021398	0.14223	-1.9562	-1.9312	-2.4646	-2.4542	-2.2042	-2.4083	-2.2792	-2.4062	-2.6271	-2.4062	-2.5521	-2.425	-1.9604	-2.5833	-2.1458	-2.5042	104.594	244.928	99.212	39.844	279.182	384.934	338.892	271.463	104.705	379.750	95.500	85.596	359.280	247.453	151.900	166.949	0.00073168	0.00097156	0.00063365	666.74	1.5064e-05	1.78e-05	747.08	262.15	1.0283e-05	8.8272e-06	347.72	158.58	111.69	63.998	7.9869e-06	90.926	0.0049562	0.0050671	0.0014066	1090.3	5.4134e-05	5.3933e-05	1169.5	389.42	5.2099e-05	5.1956e-05	551.25	228.13	169.09	84.372	5.0624e-05	118.13	127.915	189.266	63.710	49.135	76.781	271.006	47.788	54.088	86.630	223.178	52.404	56.299	58.518	64.384	351.674	60.674	-8191	255	
844.601	1	1	0	0	0.15713	0.28519	0.16883	0.18976	0.10835	0.25396	0.18326	0.060292	0.17857	0.056557	0.34242	0.19066	0.14951	0.18146	0.31613	0.20876	-2.1625	-1.95	-2.3333	-2.4729	-1.9396	-2.5583	-2.3208	-2.3	-2.6562	-2.2771	-2.5375	-2.6021	-1.9979	-2.5896	-2.2354	-2.2375	333.634	167.399	152.792	223.661	160.401	343.976	354.906	275.368	303.314	389.243	334.908	342.676	51.722	345.992	217.459	309.675	0.00081449	0.0030575	0.00012745	654.65	5.1075e-06	1.055e-05	729.13	263.88	1.3426e-05	1.4281e-05	346.02	157.84	110.5	63.016	1.0032e-05	89.764	0.0045572	0.0046506	0.0012959	1041.8	5.0353e-05	5.0336e-05	1124.3	381.68	4.8488e-05	4.8212e-05	535.12	221.32	163.28	81.417	4.6179e-05	113.93	152.264	68.088	320.333	49.117	80.529	217.265	47.995	54.392	266.983	262.846	52.331	56.267	59.022	64.163	128.874	60.561	-8191	255	
844.696	1	1	0	0	0.13119	0.20043	0.25142	0.13809	0.11716	0.18176	0.079495	0.16741	0.13502	0.27916	0.058713	0.24153	0.4021	0.12613	0.061199	0.07247	-1.9604	-2.2167	-2.4167	-2.5208	-2.0833	-2.6917	-2.4042	-2.2062	-2.3979	-2.0687	-2.4688	-2.5938	-2.2646	-2.6083	-2.2646	-2.4208	174.955	349.037	53.076	43.322	321.795	238.791	374.333	354.442	321.975	51.299	383.896	355.572	372.795	386.627	290.401	331.334	0.00069468	0.0019734	0.00051402	639.97	9.0915e-06	8.8376e-06	718.67	263.44	3.4418e-06	1.3909e-05	347.57	156.96	110.77	63.122	1.0517e-05	89.75	0.0041133	0.0041994	0.0011739	986.17	4.5797e-05	4.5877e-05	1078	372.42	4.5698e-05	4.5724e-05	525.32	217.81	160.9	80.866	4.4958e-05	113.27	138.711	87.916	72.860	49.417	112.627	257.744	48.362	54.540	190.397	147.646	52.051	56.043	58.769	64.602	196.848	60.566	-8191	255	
844.792	1	1	0	0	0.018359	0.32493	0.20932	0.14524	0.18596	0.22745	0.14432	0.11717	0.26869	0.12124	0.06185	0.15967	0.14459	0.087103	0.061274	0.15864	-2.1083	-2.1354	-2.15	-2.4208	-2.0271	-2.5	-2.4562	-2.3042	-2.5	-2.3438	-2.2333	-2.5729	-2.2667	-2.7042	-2.3083	-2.075	65.237	337.929	251.550	71.804	150.139	218.169	333.747	343.786	172.937	391.510	60.777	344.174	383.417	369.083	213.574	386.519	0.00088419	0.00073165	0.00058532	639.05	3.984e-06	1.5925e-05	720.6	264.11	2.1095e-06	1.8939e-05	346.44	154.89	108.54	62.818	1.2961e-05	89.946	0.0040118	0.0040939	0.0011325	972.47	4.3881e-05	4.3958e-05	1053.3	365.11	4.3123e-05	4.3145e-05	513.82	211.67	156.14	79.747	4.3203e-05	112.69	129.300	89.136	294.361	49.368	389.642	235.029	47.845	54.601	263.998	187.090	52.270	56.265	58.675	64.377	218.917	60.854	-8191	255	
844.912	1	1	0	0	0.2081	0.22038	0.19165	0.037062	0.082307	0.16468	0.18333	0.11431	0.095668	0.15621	0.12674	0.16801	0.080705	0.10668	0.22177	0.032555	-1.9896	-2.1562	-2.2062	-2.6667	-2.0292	-2.3771	-2.3896	-2.2167	-2.3479	-2.2521	-2.3375	-2.5167	-1.9604	-2.4417	-2.6646	-2.1625	187.938	63.769	254.511	313.185	292.398	150.015	81.090	371.022	262.491	346.379	286.923	333.240	48.777	376.911	55.307	73.400	0.00089277	0.0012012	0.00035383	638.28	9.8522e-06	9.7959e-06	727.24	261.98	2.1092e-05	1.6881e-05	345.38	152.55	105.55	62.055	7.8189e-06	88.404	0.003894	0.0039821	0.0011072	965.44	4.3026e-05	4.326e-05	1053.6	363.11	4.2733e-05	4.2777e-05	509.63	207.8	152.9	78.051	4.1816e-05	109.81	132.176	332.058	335.194	49.352	247.685	272.570	48.116	54.533	228.274	171.879	52.340	56.274	58.690	64.534	373.015	60.625	-8191	255	
845.008	1	1	0	0	0.15416	0.12385	0.22535	0.18082	0.065026	0.35247	0.08441	0.10791	0.21534	0.17492	0.17373	0.091608	0.18664	0.2143	0.27016	0.10282	-1.9125	-2.35	-2.2292	-2.6229	-1.9771	-2.3104	-2.3937	-2.15	-2.3917	-2.5062	-2.4562	-2.6125	-2.3292	-2.4979	-2.4521	-2.2812	200.595	183.123	337.128	115.943	93.165	294.338	211.216	52.868	107.440	255.439	39.140	45.433	327.710	375.456	264.003	99.756	0.00060943	0.001187	0.00049921	633.83	6.7938e-06	1.5619e-05	713.67	260.38	8.2979e-06	8.8633e-06	344.23	149.49	104.03	60.281	7.1229e-06	87.959	0.0037292	0.0038158	0.0010613	947.2	4.1617e-05	4.193e-05	1039.9	358.49	4.1808e-05	4.1882e-05	504.45	204.39	149.99	76.428	4.1201e-05	109.11	123.404	382.195	289.848	49.430	299.276	182.790	48.292	54.369	234.301	279.526	52.823	56.226	58.404	64.597	198.391	60.560	-8191	255	
845.105	1	1	0	0	0.21354	0.12014	0.12371	0.22069	0.17442	0.094337	0.31659	0.31098	0.10662	0.097497	0.16032	0.18112	0.09639	0.20552	0.13212	0.094885	-2.15	-2.2	-2.1104	-2.6583	-2.2021	-2.3708	-2.3688	-2.2042	-2.4792	-2.5667	-2.0979	-2.4979	-2.35	-2.3167	-2.5479	-2.25	74.719	316.059	66.406	355.760	104.690	356.875	37.100	300.881	42.553	227.269	46.771	287.935	286.973	393.054	306.499	318.495	0.0010628	0.00090732	0.00042713	632.02	2.2918e-05	1.4563e-06	713.87	256.39	1.528e-06	5.2512e-06	341.01	147.65	101.47	59.693	4.2085e-06	87.606	0.0036901	0.0037481	0.0010381	938.6	4.0381e-05	4.0601e-05	1025.4	351	4.0535e-05	4.0631e-05	495.21	200.53	146.49	75.341	4.0298e-05	108.31	115.605	193.703	93.358	49.370	138.151	117.171	48.130	54.360	200.616	119.263	52.513	56.494	58.774	64.601	124.704	60.859	-8191	255	
845.201	1	1	0	0	0.078723	0.29639	0.29396	0.045991	0.20099	0.20275	0.15848	0.30599	0.27113	0.1135	0.10977	0.18417	0.26693	0.09052	0.10398	0.35272	-1.7	-2.4271	-2.0271	-2.5563	-2.0875	-2.1312	-2.6917	-2.2	-2.2104	-2.2833	-2.1229	-2.4646	-2.2562	-2.3563	-2.4604	-2.3229	203.819	195.962	276.982	239.748	183.520	330.234	378.461	352.138	327.018	348.237	95.048	340.797	335.354	355.237	55.956	333.552	0.00081613	0.00029165	0.00031194	624.22	1.1461e-05	7.5607e-06	693.67	253.28	1.4426e-05	1.9546e-05	335.61	146.47	102.48	58.67	1.372e-05	86.058	0.0035741	0.0036198	0.0010028	914.56	3.8692e-05	3.8626e-05	990.83	343.32	3.8242e-05	3.8196e-05	482.11	196.41	144.78	73.301	3.7621e-05	104.77	153.677	268.618	103.988	49.452	58.159	50.950	47.872	54.738	105.317	226.998	52.246	56.395	58.902	64.558	168.679	60.987	-8191	255	
845.272	1	1	0	0	0.23191	0.22663	0.13106	0.092903	0.05803	0.12419	0.2536	0.33633	0.16717	0.39887	0.22025	0.096188	0.23277	0.24428	0.046309	0.18495	-1.9354	-2.3271	-1.9229	-2.4813	-2.2292	-2.2396	-2.6542	-2.3479	-2.3	-2.5229	-2.1396	-2.5896	-2.3417	-2.2167	-2.4708	-2.4042	88.594	160.288	363.646	312.528	40.908	107.107	285.808	280.656	310.903	312.357	241.336	329.732	268.371	68.411	192.728	362.257	0.00082766	0.00081893	0.00028666	590.57	8.4767e-06	1.0003e-05	671.01	258.3	9.3619e-06	1.3132e-05	338.99	152.36	108.13	59.199	7.4928e-06	86.242	0.0033643	0.0034348	0.00095566	874.29	3.7088e-05	3.6983e-05	956.37	342.33	3.6558e-05	3.6611e-05	476.75	197.87	146.65	72.721	3.5527e-05	103.44	112.156	227.890	213.241	49.638	387.811	263.087	48.166	54.714	109.567	313.126	51.902	56.067	58.409	64.439	308.917	60.825	-8191	255	
845.393	1	1	0	0	0.16687	0.18142	0.088635	0.25338	0.20241	0.088114	0.1792	0.031646	0.10829	0.18579	0.32147	0.44391	0.11686	0.12697	0.22968	0.085984	-1.7417	-2.3583	-2.2479	-2.4729	-2.3292	-2.1104	-2.4333	-2.3396	-2.2208	-2.2938	-2.3417	-2.6083	-2.4333	-2.1396	-2.5062	-2.3833	190.963	291.714	320.570	363.455	50.406	39.266	373.337	256.478	129.515	76.782	50.410	359.883	102.530	97.477	242.844	360.133	0.00084832	1.9637e-05	0.00035034	572.98	8.3427e-06	7.7723e-06	662.78	257.37	1.4758e-05	7.8929e-06	337.01	150.66	105.47	60.024	1.1283e-05	86.27	0.0031864	0.0032389	0.00090059	841.95	3.5189e-05	3.5018e-05	929.28	337.28	3.4835e-05	3.4942e-05	468.76	194.92	142.59	72.836	3.4282e-05	102.44	115.413	213.573	152.224	49.656	250.202	396.157	48.149	54.777	66.868	169.104	52.409	56.286	58.553	64.740	225.786	60.917	-8191	255	
845.487	1	1	0	0	0.059894	0.059206	0.14748	0.20543	0.076541	0.18254	0.21895	0.13866	0.1677	0.28953	0.045352	0.022902	0.24947	0.16836	0.20633	0.25572	-1.5979	-2.325	-2.1292	-2.3333	-2.4875	-1.9896	-2.4896	-2.4646	-2.2	-2.5938	-2.0333	-2.3875	-2.4479	-2.3187	-2.3917	-2.5438	47.343	139.295	251.986	326.930	172.073	211.109	310.078	358.228	158.361	57.016	70.840	257.388	355.681	48.949	67.088	388.207	0.00094063	0.0014126	0.00020799	528.7	6.8297e-06	1.8175e-05	618.11	244.22	6.0161e-06	1.4143e-05	326.25	151.9	108.61	61.492	1.1572e-05	87.748	0.0030481	0.0030878	0.00085793	777	3.2928e-05	3.2603e-05	859.55	314.98	3.1293e-05	3.1111e-05	439.06	188.76	139.47	72.095	2.9864e-05	101.41	120.607	103.224	278.993	49.831	259.973	225.630	48.415	54.905	123.096	120.106	52.244	55.892	58.542	64.571	118.310	60.839	-8191	255	
845.584	1	1	0	0	0.28201	0.13502	0.10317	0.30041	0.13667	0.35291	0.013473	0.35361	0.16386	0.35134	0.29329	0.07593	0.05954	0.15467	0.13604	0.24905	-1.6667	-2.5354	-2.1312	-2.2375	-2.6833	-1.9792	-2.5354	-2.6542	-2.1271	-2.5938	-2.4833	-2.3646	-2.6771	-2.15	-2.425	-2.6625	202.082	395.076	90.017	87.763	92.430	47.027	77.504	298.555	150.904	363.832	340.093	139.920	257.137	291.749	214.529	315.537	0.0008054	0.00080081	0.00046458	485.2	6.9947e-06	1.2674e-05	547.18	218.96	2.0844e-06	9.6154e-06	289.68	141.1	99.753	58.552	9.8746e-06	82.714	0.0026683	0.0027211	0.00075417	705.62	2.9455e-05	2.9483e-05	770.7	285.11	2.9182e-05	2.9077e-05	398.54	176.27	129.99	68.703	2.881e-05	96.02	130.904	274.321	211.815	50.022	322.434	249.953	48.569	55.349	79.646	115.795	52.629	56.186	59.133	64.533	190.243	60.715	-8191	255	
845.682	1	1	0	0	0.18049	0.097544	0.1852	0.070036	0.010669	0.2974	0.18926	0.22151	0.20811	0.27244	0.078576	0.31671	0.22982	0.23233	0.15296	0.27593	-1.6229	-2.4292	-2.2042	-2.1583	-2.5542	-1.8833	-2.45	-2.3063	-2.1771	-2.4917	-2.2875	-2.3792	-2.4333	-2.2875	-2.4479	-2.5271	181.944	380.295	358.992	359.906	63.082	224.454	324.139	56.689	236.532	211.776	127.395	331.900	296.494	390.276	239.767	341.831	0.000753	0.00064031	0.00060957	422.03	5.3571e-06	1.6892e-05	497.28	198.1	1.5388e-05	8.9396e-06	263.93	129.46	91.209	56.062	7.2747e-06	79.485	0.0025971	0.0026647	0.00074103	642.78	2.9076e-05	2.9242e-05	724.76	265.96	2.9413e-05	2.954e-05	376.49	166.22	122.37	66.662	2.9174e-05	92.829	144.712	283.834	166.526	50.289	104.854	173.318	48.867	55.589	74.394	388.161	53.121	56.488	59.650	64.693	240.276	60.938	-8191	255	
845.800	1	1	0	0	0.21254	0.058324	0.30798	0.12242	0.17025	0.077007	0.23947	0.20714	0.29592	0.14969	0.25682	0.047305	0.34767	0.4514	0.22321	0.21366	-1.6604	-2.3937	-2.2313	-2.4437	-2.4708	-2.3417	-2.4708	-2.6312	-2.125	-2.3667	-2.2833	-2.2875	-2.6479	-2.3625	-2.4313	-2.6625	398.032	361.804	46.598	288.082	81.585	297.200	337.994	304.843	369.499	392.137	199.377	166.850	134.647	54.217	299.418	287.154	0.00084297	0.00036398	0.00046612	402.57	1.5323e-05	4.1141e-06	472.15	187.11	1.7631e-05	1.1965e-05	254.07	125.57	89.548	55.593	4.4987e-06	78.895	0.0025692	0.0025878	0.00071544	608.41	2.7432e-05	2.7385e-05	681.9	248.85	2.7227e-05	2.73e-05	356.54	160.24	118.88	65.611	2.8035e-05	92.059	135.960	106.996	396.519	50.437	241.066	137.037	48.503	56.078	130.206	216.697	53.358	56.842	59.387	64.893	147.439	60.875	-8191	255	
845.897	1	1	0	0	0.1162	0.27647	0.28726	0.27802	0.14328	0.25841	0.13468	0.19872	0.12887	0.26406	0.23413	0.40759	0.16658	0.17186	0.16513	0.23182	-1.6021	-2.3042	-2.3896	-2.1083	-2.7104	-2.1854	-2.3	-2.4938	-2.1208	-2.1917	-2.4813	-2.125	-2.4667	-2.2292	-2.2271	-2.4458	297.467	346.490	117.239	361.450	383.822	187.474	164.881	82.045	393.756	386.662	324.164	322.868	182.994	356.088	231.026	375.626	0.00054495	0.00060634	0.00026305	397.32	1.1223e-05	1.3654e-05	469.22	181.04	1.3663e-05	7.9851e-06	244.2	122.05	85.99	54.334	5.7703e-06	77.273	0.0025314	0.0025895	0.0007246	612.23	2.8326e-05	2.8653e-05	690.6	248.16	2.9082e-05	2.9484e-05	360.1	160.57	118.95	65.677	3.1154e-05	92.957	130.868	85.939	218.451	50.223	217.533	236.789	48.950	55.695	204.839	163.139	53.087	56.652	59.683	65.069	277.240	61.041	-8191	255	
#DATA ENDS
