BOXY.EXE: ISS Imagent and Oximeter Data Acquisition Program Version 0.80
Ascii Record File

#ACQ INFORMATION
2  Detector Channels 
16  External MUX Channels 
1  Auxiliary Channels 
5000  Waveform (CCF) Frequency (Hz)
1  Waveforms Skipped 
30  Waveforms Averaged 
1  Cycles Averaged 
16  Acquisitions per Waveform 
10.0806  Updata Rate (Hz) 

#FILE INFORMATION
TRUE -- External MUX Channel results are PARSED.
FALSE -- AC DC and Phase are NOT grouped.
TRUE -- Companion Program Settings File CREATED.
FALSE -- AC data not excluded
FALSE -- DC data not excluded
FALSE -- Phase data not excluded
FALSE -- Auxillary Chn. data not excluded
Tab delimiters

#CALIBRATION STATE
TRUE -- Waveform Calibration Values APPLIED.


#AUX CALIBRATION VALUES
Val Type	aux-1	

Term	1.0000e+00	
Factor	0.0000e+00	


#WF CALIBRATION VALUES
A = Detector Channel
Val Type	A-AC1	A-AC2	A-AC3	A-AC4	A-AC5	A-AC6	A-AC7	A-AC8	A-AC9	A-AC10	A-AC11	A-AC12	A-AC13	A-AC14	A-AC15	A-AC16	A-DC1	A-DC2	A-DC3	A-DC4	A-DC5	A-DC6	A-DC7	A-DC8	A-DC9	A-DC10	A-DC11	A-DC12	A-DC13	A-DC14	A-DC15	A-DC16	A-Ph1	A-Ph2	A-Ph3	A-Ph4	A-Ph5	A-Ph6	A-Ph7	A-Ph8	A-Ph9	A-Ph10	A-Ph11	A-Ph12	A-Ph13	A-Ph14	A-Ph15	A-Ph16	

Term	0.00000e+00	0.00000e+00	0.00000e+00	0.00000e+00	0.00000e+00	0.00000e+00	0.00000e+00	0.00000e+00	0.00000e+00	0.00000e+00	0.00000e+00	0.00000e+00	0.00000e+00	0.00000e+00	0.00000e+00	0.00000e+00	0.00000e+00	0.00000e+00	0.00000e+00	0.00000e+00	0.00000e+00	0.00000e+00	0.00000e+00	0.00000e+00	0.00000e+00	0.00000e+00	0.00000e+00	0.00000e+00	0.00000e+00	0.00000e+00	0.00000e+00	0.00000e+00	0.00000e+00	0.00000e+00	0.00000e+00	0.00000e+00	0.00000e+00	0.00000e+00	0.00000e+00	0.00000e+00	0.00000e+00	0.00000e+00	0.00000e+00	0.00000e+00	0.00000e+00	0.00000e+00	0.00000e+00	0.00000e+00	
Factor	1.00000e+00	1.00000e+00	1.00000e+00	1.00000e+00	1.00000e+00	1.00000e+00	1.00000e+00	1.00000e+00	1.00000e+00	1.00000e+00	1.00000e+00	1.00000e+00	1.00000e+00	1.00000e+00	1.00000e+00	1.00000e+00	1.00000e+00	1.00000e+00	1.00000e+00	1.00000e+00	1.00000e+00	1.00000e+00	1.00000e+00	1.00000e+00	1.00000e+00	1.00000e+00	1.00000e+00	1.00000e+00	1.00000e+00	1.00000e+00	1.00000e+00	1.00000e+00	X	X	X	X	X	X	X	X	X	X	X	X	X	X	X	X	

B = Detector Channel
Val Type	B-AC1	B-AC2	B-AC3	B-AC4	B-AC5	B-AC6	B-AC7	B-AC8	B-AC9	B-AC10	B-AC11	B-AC12	B-AC13	B-AC14	B-AC15	B-AC16	B-DC1	B-DC2	B-DC3	B-DC4	B-DC5	B-DC6	B-DC7	B-DC8	B-DC9	B-DC10	B-DC11	B-DC12	B-DC13	B-DC14	B-DC15	B-DC16	B-Ph1	B-Ph2	B-Ph3	B-Ph4	B-Ph5	B-Ph6	B-Ph7	B-Ph8	B-Ph9	B-Ph10	B-Ph11	B-Ph12	B-Ph13	B-Ph14	B-Ph15	B-Ph16	

Term	0.00000e+00	0.00000e+00	0.00000e+00	0.00000e+00	0.00000e+00	0.00000e+00	0.00000e+00	0.00000e+00	0.00000e+00	0.00000e+00	0.00000e+00	0.00000e+00	0.00000e+00	0.00000e+00	0.00000e+00	0.00000e+00	0.00000e+00	0.00000e+00	0.00000e+00	0.00000e+00	0.00000e+00	0.00000e+00	0.00000e+00	0.00000e+00	0.00000e+00	0.00000e+00	0.00000e+00	0.00000e+00	0.00000e+00	0.00000e+00	0.00000e+00	0.00000e+00	-1.50301e+02	-1.43373e+02	-1.49792e+02	-1.82306e+02	-7.93885e+01	-7.58284e+01	-1.59027e+02	-1.62015e+02	-9.78180e+01	-8.34192e+01	-1.70563e+02	-1.71693e+02	-1.81003e+02	-1.76539e+02	-7.99657e+01	-1.49547e+02	
Factor	2.19586e-05	8.39436e-05	3.41424e-05	1.49821e-01	8.35295e-07	9.81461e-07	1.65141e-01	4.79080e-02	1.03987e-06	1.07697e-06	8.44516e-02	2.96454e-02	2.29630e-02	8.60919e-03	9.99734e-07	1.26421e-02	8.08318e-07	8.29617e-07	2.31217e-07	7.45948e-02	9.07046e-09	9.09328e-09	7.73629e-02	2.38309e-02	9.06268e-09	9.06799e-09	3.98886e-02	1.40138e-02	1.13350e-02	4.22160e-03	9.04165e-09	5.95415e-03	X	X	X	X	X	X	X	X	X	X	X	X	X	X	X	X	



#DISTANCE SETTINGS
A = Detector Channel
A-1	A-2	A-3	A-4	A-5	A-6	A-7	A-8	A-9	A-10	A-11	A-12	A-13	A-14	A-15	A-16	

2.5000e+00	3.0000e+00	2.5000e+00	3.0000e+00	2.0000e+00	3.0000e+00	1.5000e+00	3.0000e+00	3.0000e+00	3.0000e+00	3.0000e+00	3.0000e+00	3.0000e+00	3.0000e+00	1.5000e+00	3.0000e+00	

B = Detector Channel
B-1	B-2	B-3	B-4	B-5	B-6	B-7	B-8	B-9	B-10	B-11	B-12	B-13	B-14	B-15	B-16	

1.0000e+01	1.0000e+01	1.0000e+01	1.4400e+00	1.0000e+01	1.0000e+01	1.5100e+00	1.9400e+00	1.0000e+01	1.0000e+01	1.9900e+00	2.4900e+00	2.4100e+00	2.9000e+00	1.0000e+01	2.9800e+00	




#DATA BEGINS
time	group	step	mark	flag	A-AC1	A-AC2	A-AC3	A-AC4	A-AC5	A-AC6	A-AC7	A-AC8	A-AC9	A-AC10	A-AC11	A-AC12	A-AC13	A-AC14	A-AC15	A-AC16	A-DC1	A-DC2	A-DC3	A-DC4	A-DC5	A-DC6	A-DC7	A-DC8	A-DC9	A-DC10	A-DC11	A-DC12	A-DC13	A-DC14	A-DC15	A-DC16	A-Ph1	A-Ph2	A-Ph3	A-Ph4	A-Ph5	A-Ph6	A-Ph7	A-Ph8	A-Ph9	A-Ph10	A-Ph11	A-Ph12	A-Ph13	A-Ph14	A-Ph15	A-Ph16	B-AC1	B-AC2	B-AC3	B-AC4	B-AC5	B-AC6	B-AC7	B-AC8	B-AC9	B-AC10	B-AC11	B-AC12	B-AC13	B-AC14	B-AC15	B-AC16	B-DC1	B-DC2	B-DC3	B-DC4	B-DC5	B-DC6	B-DC7	B-DC8	B-DC9	B-DC10	B-DC11	B-DC12	B-DC13	B-DC14	B-DC15	B-DC16	B-Ph1	B-Ph2	B-Ph3	B-Ph4	B-Ph5	B-Ph6	B-Ph7	B-Ph8	B-Ph9	B-Ph10	B-Ph11	B-Ph12	B-Ph13	B-Ph14	B-Ph15	B-Ph16	aux-1	digaux	

1983.558	1	1	0	512	0.082758	0.10263	0.1008	0.043811	0.034312	0.033316	0.36346	0.1657	0.22911	0.22908	0.11971	0.089711	0.15458	0.11391	0.045651	0.34568	-1.9292	-2.5479	-2.0208	-2.4625	-2.4917	-2.2812	-2.425	-2.25	-2.4625	-2.7292	-2.2521	-2.4188	-2.3271	-2.2292	-2.5208	-2.2104	175.348	119.658	376.963	267.482	223.170	351.318	440.949	225.014	323.706	462.971	186.646	280.475	160.264	465.900	305.020	420.084	0.00051206	0.00016059	5.3889e-05	154.34	2.524e-06	3.0971e-06	260.48	68.614	1.2372e-06	2.7349e-06	119.24	68.122	41.545	19.941	2.0582e-06	34.772	0.00013771	0.00012872	3.6852e-05	159.49	1.3972e-06	1.404e-06	261.76	69.64	1.4331e-06	1.4069e-06	118.03	66.841	40.738	19.639	1.4104e-06	33.697	159.350	190.721	468.923	123.389	187.052	428.462	122.937	128.646	228.686	220.538	127.236	130.506	131.366	138.262	212.515	134.421	-8191	255	
1983.677	1	1	0	0	0.086507	0.21377	0.087951	0.069756	0.14772	0.13436	0.21237	0.078573	0.24177	0.061001	0.10164	0.36137	0.079913	0.16704	0.1189	0.093376	-1.8583	-2.55	-2.0417	-2.525	-2.5271	-2.1646	-2.7917	-2.2729	-2.2167	-2.6188	-2.2417	-2.3812	-2.625	-2.2792	-2.5333	-2.3688	384.243	464.915	403.919	362.149	130.033	409.200	125.726	294.051	274.968	349.110	311.058	425.366	125.243	386.572	211.784	147.091	0.00043659	0.00010759	9.7512e-05	155.65	1.9531e-06	8.2385e-07	264.36	69.373	4.8722e-06	2.4252e-06	119.95	69.3	42.036	19.886	1.3085e-06	34.866	0.00014065	0.00013022	3.6291e-05	160.75	1.4292e-06	1.4387e-06	263.99	70.015	1.4225e-06	1.4132e-06	118.44	67.37	41.122	19.708	1.4128e-06	33.866	161.880	206.635	139.464	123.671	409.968	161.866	123.401	128.385	227.385	191.359	127.270	130.512	131.480	137.583	228.157	134.835	-8191	255	
1983.773	1	1	0	0	0.13722	0.094719	0.17946	0.34388	0.22008	0.075357	0.20093	0.097802	0.11714	0.054399	0.17035	0.04578	0.086287	0.206	0.25977	0.20114	-1.725	-2.5542	-2.3312	-2.5062	-2.4208	-2.1708	-2.4771	-2.2438	-2.2021	-2.7292	-2.1646	-2.3979	-2.55	-2.2646	-2.6083	-2.2104	435.183	311.395	425.738	442.289	260.989	186.438	305.033	145.341	448.110	351.237	153.900	432.050	145.223	136.819	419.890	447.230	0.00039788	0.00021783	0.00011764	155.59	1.0043e-06	1.51e-06	258.77	69.009	6.0206e-07	4.5589e-06	119.08	68.796	41.552	19.93	3.2456e-06	34.598	0.00013938	0.00013096	3.6532e-05	160.17	1.4302e-06	1.4204e-06	261.39	69.699	1.4333e-06	1.4117e-06	117.72	66.673	40.818	19.574	1.429e-06	33.439	161.535	268.098	176.028	123.840	324.677	251.479	123.029	128.963	421.306	213.324	127.235	130.216	130.994	138.062	226.049	134.475	-8191	255	
1983.847	1	1	0	0	0.10261	0.20728	0.12014	0.23043	0.054529	0.19436	0.29111	0.088653	0.10447	0.083714	0.13107	0.17614	0.046361	0.15675	0.10524	0.25818	-1.6167	-2.4854	-2.2333	-2.5646	-2.6458	-2.0979	-2.5542	-2.4313	-2.0938	-2.475	-2.5312	-2.45	-2.725	-2.2	-2.3667	-2.6958	112.679	196.213	193.142	360.561	271.555	417.384	240.135	188.236	281.534	359.643	118.166	346.765	267.944	422.920	209.756	402.009	0.00045574	0.00018693	2.8001e-05	155.94	9.8693e-07	3.0999e-06	258.4	69.292	1.6806e-06	2.7225e-06	119.51	68.343	41.525	19.759	2.3744e-06	34.582	0.00013949	0.00012924	3.5311e-05	160.53	1.4504e-06	1.4137e-06	260	69.819	1.4256e-06	1.4169e-06	117.29	66.178	40.843	19.58	1.4115e-06	33.351	166.045	115.884	204.171	123.518	379.297	276.822	123.477	128.691	239.253	176.863	126.922	130.111	131.323	137.702	250.543	134.503	-8191	255	
1983.966	1	1	0	0	0.16753	0.095056	0.21751	0.1772	0.12738	0.091944	0.25932	0.33122	0.36984	0.17465	0.14014	0.096825	0.081829	0.16089	0.20921	0.21931	-1.7354	-2.5	-2.3083	-2.3104	-2.575	-2.275	-2.3438	-2.6188	-2.2167	-2.6042	-2.4375	-2.3688	-2.5438	-2.4771	-2.4583	-2.5833	385.462	184.744	398.737	325.423	321.171	376.993	292.709	363.696	207.031	322.042	387.078	290.164	236.991	366.904	461.637	386.507	0.00045631	0.00013025	3.5511e-05	154.72	1.3274e-06	1.6312e-06	261.91	69.051	3.1994e-06	1.0813e-06	118.6	68.513	41.482	19.931	1.6253e-06	34.527	0.00013794	0.00012941	3.6288e-05	160.85	1.4277e-06	1.4219e-06	260.87	69.95	1.4313e-06	1.4101e-06	117.23	66.421	40.932	19.625	1.4312e-06	33.459	155.683	201.264	275.382	123.680	277.085	227.640	123.100	128.375	330.660	279.615	126.747	130.465	130.991	137.807	215.324	134.252	-8191	255	
1984.062	1	1	0	0	0.36901	0.30609	0.10482	0.22021	0.10375	0.041605	0.070244	0.19794	0.09692	0.1057	0.24315	0.068342	0.1272	0.035452	0.17867	0.088379	-1.8625	-2.5125	-2.1917	-2.1937	-2.4458	-2.3812	-2.5104	-2.3917	-2.0667	-2.6021	-2.3875	-2.1813	-2.3854	-2.3229	-2.3771	-2.6312	197.701	377.456	121.140	237.996	375.952	402.627	348.835	407.037	414.749	380.120	470.992	393.092	121.290	299.596	276.353	204.745	0.0004063	0.00014519	8.3162e-05	155.56	4.2169e-06	2.2668e-06	259.83	69.682	9.624e-07	4.7424e-06	118.89	68.645	41.822	20.139	1.5469e-06	34.385	0.00013735	0.00012883	3.5957e-05	161.3	1.406e-06	1.4227e-06	261.42	70.051	1.436e-06	1.4343e-06	117.75	66.563	41.06	19.743	1.4079e-06	33.472	158.155	150.650	192.044	123.710	254.935	158.654	122.671	129.055	201.711	232.837	127.326	130.448	131.103	138.180	269.656	134.722	-8191	255	
1984.158	1	1	0	0	0.11156	0.15261	0.11378	0.048888	0.099159	0.054518	0.29072	0.16838	0.14107	0.12566	0.20219	0.03683	0.2086	0.086131	0.16591	0.13475	-1.6938	-2.4042	-2.2479	-2.15	-2.7	-2.2396	-2.2521	-2.5833	-2.1292	-2.3896	-2.3729	-2.3208	-2.5	-2.3708	-2.3333	-2.6771	455.342	400.276	369.987	329.153	344.191	120.782	360.083	384.841	214.940	425.188	158.071	176.855	213.793	459.259	377.763	414.909	0.0004883	0.00029994	9.569e-05	157.65	2.4236e-06	2.4553e-06	259.16	69.469	1.4538e-06	1.4594e-06	121.05	68.757	42.086	19.971	1.6443e-06	34.491	0.00013692	0.00013116	3.6014e-05	161.52	1.4212e-06	1.4342e-06	261.71	70.159	1.4033e-06	1.4035e-06	118.75	66.961	41.461	19.791	1.4137e-06	33.523	157.656	208.400	155.808	123.524	211.821	333.301	123.237	128.739	237.606	261.885	126.603	130.278	131.664	137.644	296.925	134.588	-8191	255	
1984.279	1	1	0	0	0.17764	0.20362	0.34972	0.22353	0.20044	0.35537	0.016462	0.2437	0.036989	0.2817	0.19064	0.093406	0.14471	0.14931	0.066483	0.16005	-1.6396	-2.5187	-2.3333	-2.2042	-2.6333	-2.4646	-2.1146	-2.6	-2.3104	-2.2958	-2.6542	-2.0833	-2.4667	-2.4875	-2.2812	-2.7812	462.751	327.650	134.979	468.824	374.304	114.430	281.339	147.712	358.134	412.292	430.343	191.435	372.775	436.006	226.170	467.404	0.00041093	0.00014561	8.371e-05	158.29	2.6546e-06	3.0956e-06	260.66	69.145	5.5104e-06	1.6355e-06	118.34	67.984	42.099	19.896	2.9512e-06	34.448	0.00013744	0.00012945	3.5883e-05	163.34	1.4069e-06	1.4343e-06	261.09	70.139	1.4106e-06	1.4123e-06	117.29	66.271	41.289	19.713	1.4128e-06	33.274	152.053	124.110	270.912	123.580	412.626	280.173	122.936	128.760	290.075	238.308	127.251	130.367	131.066	138.027	272.388	134.319	-8191	255	
1984.375	1	1	0	0	0.19593	0.12255	0.048945	0.22036	0.058553	0.10999	0.048557	0.24038	0.16064	0.13034	0.090961	0.084442	0.082648	0.22884	0.1771	0.16723	-1.8208	-2.3708	-2.6562	-2.2646	-2.7292	-2.6146	-2.4	-2.4604	-2.2417	-2.325	-2.7292	-2.1854	-2.4	-2.4771	-2.2604	-2.7292	174.712	310.374	456.797	440.399	356.309	426.840	292.474	319.957	190.389	370.242	449.036	254.598	369.454	429.179	345.781	391.086	0.00044283	0.00019042	7.5567e-05	160.66	2.3646e-06	3.3058e-06	259.08	68.884	3.774e-06	3.4154e-06	118.3	67.881	41.846	19.924	3.3003e-06	34.175	0.00013721	0.00012822	3.5607e-05	164.66	1.405e-06	1.4147e-06	260.34	69.39	1.3878e-06	1.3988e-06	117.45	66.152	41.231	19.735	1.4185e-06	33.161	168.702	260.333	466.951	123.884	327.932	303.956	122.824	128.381	202.379	247.979	126.929	130.706	131.263	137.612	364.818	134.566	-8191	255	
1984.446	1	1	0	0	0.11382	0.12894	0.07531	0.17403	0.15769	0.073549	0.17159	0.22179	0.12752	0.075911	0.079766	0.1528	0.36132	0.12264	0.14737	0.27568	-1.8292	-2.2125	-2.5396	-2.2333	-2.3542	-2.6979	-2.1896	-2.8229	-2.3521	-2.4583	-2.5875	-2.275	-2.4792	-2.6562	-2.1667	-2.6188	406.088	359.314	298.895	264.603	181.218	321.730	152.752	390.121	402.765	354.410	441.435	300.696	205.117	343.467	401.472	407.937	0.00042724	0.00045279	9.1636e-05	159.16	2.1929e-07	2.6601e-06	258.02	69.367	1.9077e-06	1.0761e-06	118.08	68.476	42.157	20.126	2.086e-06	34.381	0.00013517	0.00012999	3.6521e-05	163.09	1.4277e-06	1.4249e-06	260.26	70.079	1.4009e-06	1.4207e-06	117.32	66.289	41.159	19.775	1.4213e-06	33.439	155.149	197.048	456.444	123.284	183.539	257.186	122.583	128.430	300.713	289.285	127.148	130.617	131.363	137.763	352.965	134.200	-8191	255	
1984.567	1	1	0	0	0.097669	0.1019	0.090183	0.026603	0.22263	0.060712	0.24627	0.22472	0.19042	0.15535	0.26167	0.12244	0.16037	0.088988	0.11521	0.24682	-2.0083	-2.2521	-2.55	-2.075	-2.4396	-2.4875	-2.2729	-2.4917	-2.5229	-2.3354	-2.6167	-2.3042	-2.3396	-2.5	-2.125	-2.625	385.906	426.824	354.252	325.339	407.070	446.213	469.184	412.042	223.900	454.159	382.239	419.382	409.946	348.858	191.440	371.842	0.00041957	0.0002528	5.7641e-05	159.09	2.4092e-06	2.6699e-06	260.42	69.35	3.2723e-06	1.881e-06	119.95	68.596	42.174	20.019	6.0958e-07	34.43	0.00013758	0.00013187	3.6039e-05	163.57	1.4208e-06	1.4061e-06	260.52	69.853	1.4332e-06	1.4116e-06	117.94	66.652	41.381	19.834	1.408e-06	33.546	155.730	207.413	147.706	123.742	143.052	283.025	122.882	129.502	173.409	273.076	126.914	130.385	131.684	137.822	170.303	134.495	-8191	255	
1984.663	1	1	0	0	0.2468	0.18429	0.15573	0.075908	0.21505	0.14433	0.17455	0.18208	0.070783	0.19808	0.071201	0.076371	0.22351	0.060037	0.30122	0.1624	-1.8771	-2.1333	-2.5333	-2.2562	-2.3479	-2.6708	-2.1604	-2.4521	-2.2771	-2.3604	-2.6937	-2.1833	-2.3104	-2.5542	-2.1813	-2.4313	284.323	351.321	302.422	328.206	258.095	229.139	361.441	390.709	327.662	198.537	161.139	279.939	457.837	152.105	398.232	159.468	0.00044946	0.00017992	8.0272e-05	159.97	1.8863e-06	2.7473e-06	261.1	69.438	5.5691e-07	7.0667e-07	118.71	68.499	42.147	19.944	4.2203e-06	34.419	0.00013906	0.00013024	3.5731e-05	165.13	1.4241e-06	1.3989e-06	260.95	69.935	1.4035e-06	1.393e-06	117.54	66.345	41.2	19.743	1.4158e-06	33.311	154.848	183.700	452.356	123.195	469.727	303.319	122.744	128.689	259.252	316.917	126.760	130.490	130.997	137.417	228.328	134.315	-8191	255	
1984.758	1	1	0	0	0.15023	0.15757	0.28449	0.16083	0.22314	0.18434	0.084657	0.18524	0.14734	0.24125	0.1177	0.15699	0.26026	0.11521	0.27862	0.12462	-1.8542	-2.0333	-2.7083	-2.4729	-2.3042	-2.4708	-2.2458	-2.4167	-2.2708	-2.0062	-2.4667	-2.2771	-2.25	-2.5958	-2.0563	-2.3063	149.529	145.979	416.334	457.227	379.331	134.387	455.739	394.766	410.718	261.759	130.346	399.555	374.566	370.241	154.387	129.523	0.00043523	0.00029483	0.00012587	159.96	5.3499e-07	2.7808e-06	259.58	68.985	4.0239e-06	4.0039e-06	118.39	68.002	41.814	20.067	3.9534e-07	34.453	0.00013694	0.00012808	3.6153e-05	164.77	1.4051e-06	1.4214e-06	260.85	69.92	1.408e-06	1.4022e-06	117.3	66.149	41.314	19.739	1.4042e-06	33.295	152.387	179.886	155.616	123.233	430.400	259.542	123.172	128.391	228.809	200.037	126.627	130.639	131.367	137.697	464.361	134.001	-8191	255	
1984.854	1	1	0	0	0.090414	0.2381	0.17876	0.1002	0.16277	0.076502	0.1583	0.17904	0.23718	0.12149	0.073285	0.11978	0.11416	0.26232	0.31231	0.21171	-2.0354	-2.2062	-2.55	-2.4021	-2.2854	-2.6792	-2.3187	-2.4271	-2.4667	-2.0792	-2.6125	-2.7479	-2.2479	-2.75	-2.2021	-2.4958	242.381	456.239	346.914	329.327	154.151	445.748	428.110	297.049	358.968	437.139	378.915	319.745	378.058	137.320	160.972	156.228	0.00045575	8.2298e-05	0.00012571	160	2.8899e-07	9.5658e-07	258.82	68.658	2.5481e-06	2.4832e-06	118.5	68.581	42.159	19.99	3.1724e-06	34.41	0.00013845	0.00012941	3.6155e-05	165.03	1.4357e-06	1.4101e-06	261.28	69.755	1.4045e-06	1.4135e-06	117.85	66.582	41.409	19.812	1.4318e-06	33.512	155.022	284.831	266.110	122.623	396.209	137.971	123.264	128.555	260.695	220.361	126.936	130.046	131.035	137.600	198.760	134.757	-8191	255	
1984.974	1	1	0	0	0.19046	0.11236	0.11393	0.12286	0.13197	0.098127	0.044026	0.24977	0.33442	0.053861	0.038557	0.15637	0.27183	0.23019	0.25582	0.13989	-2.0042	-2.1854	-2.3917	-2.475	-2.2542	-2.5958	-2.2771	-2.4125	-2.6125	-2.0771	-2.4604	-2.3125	-2.1312	-2.4958	-2.3333	-2.3187	347.515	250.497	242.084	234.956	333.612	388.434	424.618	304.402	355.593	279.281	429.910	191.923	442.190	116.344	213.708	377.984	0.00050295	0.00010678	0.00012164	158.74	1.6428e-06	3.3916e-06	259.84	68.681	1.3813e-06	2.7369e-06	118.78	68.401	41.781	20.174	2.7021e-06	34.837	0.00013842	0.00013013	3.6403e-05	164.47	1.423e-06	1.4187e-06	261.2	69.765	1.4186e-06	1.4292e-06	117.96	66.691	41.321	19.818	1.4307e-06	33.725	163.267	311.523	249.511	123.529	288.672	271.064	122.836	128.771	294.417	144.452	127.073	130.686	131.336	137.373	309.849	134.183	-8191	255	
1985.071	1	1	0	0	0.066928	0.27436	0.25445	0.081022	0.12151	0.19181	0.1245	0.12438	0.2603	0.21836	0.057701	0.26732	0.25058	0.25077	0.13197	0.38502	-2.1771	-2.1333	-2.4479	-2.2542	-2.0646	-2.5604	-2.3167	-2.2938	-2.7208	-2.1292	-2.475	-2.2604	-1.9958	-2.4729	-2.4	-2.2	166.444	460.774	233.870	235.471	330.584	130.159	186.752	276.957	137.622	156.656	422.428	111.614	124.200	128.597	158.612	118.585	0.0004938	1.399e-05	7.5441e-05	158.65	1.2394e-06	3.6941e-06	262.45	68.613	1.9003e-06	2.0964e-06	119.76	69.01	42.01	20.173	4.3668e-06	34.882	0.00013874	0.00013156	3.6499e-05	164.35	1.4357e-06	1.4255e-06	263.24	69.925	1.4186e-06	1.4109e-06	118.82	67.107	41.504	19.913	1.4082e-06	33.946	154.539	172.277	209.662	123.433	268.389	231.707	123.153	128.666	276.703	258.482	126.896	130.539	131.434	137.546	221.025	134.606	-8191	255	
1985.142	1	1	0	0	0.040785	0.14088	0.14448	0.1488	0.33329	0.12996	0.13687	0.031546	0.2011	0.34389	0.20459	0.25964	0.15982	0.12204	0.03611	0.14836	-2.0729	-2.0312	-2.3333	-2.5	-1.9583	-2.4729	-2.3688	-2.1854	-2.5854	-2.3625	-2.4458	-2.6021	-2.0542	-2.45	-2.4271	-2.1208	386.599	266.585	172.378	406.898	371.506	248.719	161.891	444.511	425.666	272.294	110.927	442.198	280.992	319.296	162.100	402.376	0.00051149	0.00020385	0.00010388	160.88	3.1199e-06	3.7306e-06	263.49	68.745	1.6443e-06	4.2687e-07	119.47	68.83	41.533	20.025	4.5016e-06	34.448	0.000138	0.00013095	3.5897e-05	165.35	1.4252e-06	1.4286e-06	263	69.92	1.4299e-06	1.4222e-06	118.76	66.831	41.198	19.742	1.4258e-06	33.49	158.786	273.539	201.802	123.084	206.336	275.681	123.138	128.492	112.588	289.923	126.886	129.777	131.160	137.680	202.654	134.345	-8191	255	
1985.238	1	1	0	0	0.057838	0.068501	0.28772	0.20573	0.21107	0.10303	0.13581	0.20836	0.10133	0.072154	0.11036	0.15272	0.096444	0.20258	0.28875	0.1173	-2.0979	-2.1292	-2.2729	-2.7229	-2.1604	-2.6292	-2.4875	-2.1021	-2.7292	-2.4354	-2.2417	-2.6188	-2.2188	-2.4062	-2.4333	-2.125	402.451	455.340	421.267	192.487	415.034	185.902	333.334	377.799	151.733	380.540	335.567	462.725	177.393	386.564	125.240	344.311	0.00041315	0.00013996	7.9924e-05	157.41	1.6409e-06	2.1844e-06	261.81	68.078	4.3153e-06	4.2589e-06	119.47	68.866	41.874	19.963	3.2381e-06	34.555	0.00013796	0.0001294	3.6061e-05	162.83	1.3925e-06	1.4088e-06	262.75	69.481	1.425e-06	1.4108e-06	118.46	66.904	41.134	19.688	1.4066e-06	33.614	153.803	236.825	158.101	123.495	198.695	247.853	123.124	128.671	139.626	272.941	126.687	130.349	131.256	137.849	297.082	134.719	-8191	255	
1985.359	1	1	0	0	0.22482	0.066652	0.15028	0.092368	0.056676	0.15922	0.18827	0.033929	0.047556	0.26669	0.083301	0.080598	0.11686	0.055898	0.13998	0.16385	-2.1229	-2.2667	-2.1875	-2.6188	-2.1792	-2.3875	-2.475	-2.2333	-2.5792	-2.5375	-2.3729	-2.5646	-2.3063	-2.1521	-2.5687	-2.1063	411.623	362.177	234.200	433.942	268.008	168.474	413.382	458.878	406.877	192.971	299.875	452.503	360.561	440.013	464.570	179.596	0.00044203	8.5081e-05	5.323e-05	157.42	2.6593e-06	9.9961e-07	260.54	69.242	2.6658e-06	1.9596e-07	119.94	69.603	42.378	20.101	1.5984e-06	34.845	0.00013746	0.00013019	3.5866e-05	163.01	1.4124e-06	1.4254e-06	263.36	69.981	1.4167e-06	1.4292e-06	118.99	67.436	41.423	19.827	1.4275e-06	33.861	155.371	265.617	114.120	123.043	248.977	231.644	123.022	128.517	178.683	421.379	126.979	130.016	130.976	137.433	397.148	134.276	-8191	255	
1985.455	1	1	0	0	0.046815	0.20592	0.22929	0.10072	0.16587	0.16273	0.37962	0.24651	0.22548	0.12464	0.13813	0.30174	0.090076	0.32177	0.23593	0.053866	-1.975	-2.2229	-2.1708	-2.3521	-2.1917	-2.2313	-2.5208	-2.1604	-2.225	-2.4729	-2.1146	-2.6229	-2.25	-2.2646	-2.525	-2.1312	416.666	177.363	166.159	303.159	409.247	376.331	195.781	469.356	304.941	136.377	177.825	398.437	433.778	430.462	258.709	120.513	0.00048905	0.00012643	5.2618e-05	160.09	2.4411e-06	1.2755e-06	263.26	69.102	2.9675e-06	8.4176e-07	121.14	69.536	42.64	20.135	2.5655e-06	35.001	0.00013695	0.00012857	3.6265e-05	163.84	1.3904e-06	1.4159e-06	263.42	69.917	1.4161e-06	1.411e-06	119.33	67.655	41.501	19.88	1.4229e-06	34.134	154.831	152.691	203.114	123.413	270.596	273.449	123.541	128.646	248.534	217.798	126.861	130.471	130.679	137.674	300.086	134.497	-8191	255	
1985.551	1	1	0	0	0.061903	0.062396	0.13002	0.11629	0.040116	0.13138	0.2685	0.23516	0.1515	0.080237	0.16467	0.1155	0.18877	0.23134	0.074915	0.24725	-1.9688	-2.5479	-2.075	-2.5979	-2.3312	-2.2333	-2.3542	-2.1792	-2.3625	-2.3458	-1.8333	-2.6042	-2.3958	-2.1729	-2.4938	-2.3854	162.582	420.123	152.871	438.422	299.775	115.038	278.954	377.384	439.414	389.414	442.202	163.428	165.692	291.256	422.074	226.817	0.00045036	5.2472e-05	7.0704e-05	158.85	2.0063e-06	3.0774e-06	262.74	68.779	4.0201e-06	1.3938e-06	120.84	69.55	41.609	19.964	1.1667e-06	34.849	0.00013824	0.00012908	3.6832e-05	164.28	1.4248e-06	1.4255e-06	264.53	69.719	1.4367e-06	1.4084e-06	119.36	67.266	41.163	19.733	1.4234e-06	33.837	162.138	129.842	240.696	123.152	456.997	240.464	122.867	128.468	220.747	161.069	126.957	130.028	131.290	137.756	259.892	133.897	-8191	255	
1985.647	1	1	0	0	0.048815	0.11515	0.12589	0.21634	0.16631	0.11047	0.36225	0.22291	0.28001	0.086705	0.093396	0.39455	0.32187	0.19039	0.054327	0.23956	-1.9646	-2.6	-2.2396	-2.4688	-2.4833	-2.4	-2.6042	-2.1708	-2.3958	-2.4771	-2.275	-2.45	-2.3854	-2.1688	-2.6333	-2.3625	346.726	394.111	211.877	454.003	225.080	283.140	396.742	220.503	255.088	240.945	306.832	161.569	159.135	460.134	190.773	178.800	0.00042982	0.00019138	4.311e-05	157.13	3.2892e-06	4.0178e-06	260.03	68.728	3.4452e-06	1.8315e-06	117.35	68.431	41.622	19.838	3.7203e-06	34.487	0.00013787	0.0001301	3.5552e-05	162.07	1.4457e-06	1.4155e-06	263.15	69.331	1.4079e-06	1.4168e-06	117.9	66.463	40.871	19.518	1.4208e-06	33.514	161.637	453.991	175.234	123.321	258.216	248.365	123.137	128.399	225.887	179.008	126.942	129.960	130.903	137.624	298.661	134.372	-8191	255	
1985.744	1	1	0	0	0.14854	0.050876	0.14484	0.2789	0.11922	0.064969	0.13087	0.24968	0.015198	0.142	0.24612	0.18247	0.0070194	0.30294	0.19433	0.23449	-1.8292	-2.5021	-2.1292	-2.4708	-2.4688	-2.1437	-2.6708	-2.1542	-2.3375	-2.5917	-2.2229	-2.3125	-2.4729	-2.0771	-2.5938	-2.3521	407.131	274.118	334.635	445.337	291.408	182.019	383.697	449.617	361.442	141.410	286.496	342.966	369.028	470.590	206.886	133.499	0.0004576	0.00030264	0.00016899	155.73	2.5398e-06	2.1602e-06	257.84	67.886	3.9423e-06	9.7142e-07	118.42	68.646	41.462	19.654	2.8592e-06	34.505	0.00013771	0.00012956	3.6286e-05	161.74	1.404e-06	1.4255e-06	261.61	69.045	1.4157e-06	1.4009e-06	117.87	66.58	40.876	19.55	1.4119e-06	33.497	156.181	187.366	220.752	123.271	249.263	303.217	123.443	128.953	196.059	342.388	126.652	130.023	130.995	137.782	220.712	134.361	-8191	255	
1985.840	1	1	0	0	0.11613	0.08	0.13783	0.10857	0.061376	0.38048	0.1529	0.24891	0.086159	0.067637	0.15301	0.22778	0.12249	0.28291	0.17617	0.17902	-1.7938	-2.6	-2.0938	-2.2125	-2.4583	-2.0062	-2.5104	-2.2917	-2.3333	-2.7021	-2.175	-2.55	-2.4042	-2.1646	-2.5646	-2.3625	246.801	145.898	316.542	374.553	342.628	364.760	264.161	159.070	440.247	167.848	203.129	244.857	325.636	166.243	251.202	324.578	0.00045059	0.00020797	4.3893e-05	157.31	3.185e-07	2.9619e-06	261.4	68.556	1.3677e-06	1.8554e-06	120.31	68.926	42.077	19.969	2.154e-06	34.915	0.00013844	0.00013077	3.6466e-05	161.48	1.426e-06	1.416e-06	262.98	69.527	1.4103e-06	1.3888e-06	119.17	66.902	41.103	19.658	1.4073e-06	33.851	155.955	148.935	274.674	123.654	197.102	308.230	122.958	128.766	261.971	304.626	127.106	129.883	131.411	137.385	259.818	134.197	-8191	255	
1985.959	1	1	0	0	0.14299	0.12162	0.26696	0.087872	0.35516	0.0098843	0.22091	0.08793	0.043861	0.081789	0.10995	0.24279	0.071897	0.29037	0.10914	0.16173	-1.7292	-2.4271	-2.0958	-2.225	-2.4979	-2.0625	-2.5167	-2.3833	-2.2979	-2.5812	-2.2896	-2.2854	-2.4437	-2.1771	-2.4562	-2.4125	273.012	443.374	406.117	181.584	163.543	440.947	138.690	280.207	181.993	355.855	208.977	430.929	441.853	423.711	345.572	442.393	0.00040859	0.00013166	8.5735e-05	156.31	1.6484e-06	1.78e-06	260.51	69.094	9.452e-07	2.3275e-06	119.08	69.095	41.606	19.94	1.9188e-06	35.347	0.00013731	0.00012943	3.6027e-05	160.91	1.4306e-06	1.4094e-06	262.87	69.676	1.4158e-06	1.4014e-06	118.41	67.023	41.074	19.716	1.401e-06	34.044	161.494	207.607	177.308	123.379	220.960	352.490	122.931	128.452	454.827	282.657	127.218	130.457	131.105	137.300	461.761	134.386	-8191	255	
1986.055	1	1	0	0	0.1777	0.16306	0.057869	0.12852	0.22529	0.15233	0.13359	0.068698	0.08216	0.060471	0.16867	0.36401	0.058864	0.13059	0.29623	0.067941	-1.8188	-2.3167	-2.3229	-2.3354	-2.4854	-2.175	-2.4625	-2.5375	-2.0146	-2.6354	-2.3417	-2.4167	-2.6458	-2.1437	-2.3917	-2.5542	189.159	206.400	129.757	282.021	428.993	420.351	383.162	414.121	123.382	229.880	434.171	369.661	208.514	355.735	134.738	140.939	0.00051083	0.00029433	9.4606e-05	155.83	1.5348e-06	2.5527e-06	262.51	68.762	1.2049e-06	3.3035e-06	118.92	68.639	41.35	19.776	1.818e-06	34.659	0.00013784	0.00012791	3.6187e-05	160.27	1.408e-06	1.4079e-06	262.93	69.732	1.3987e-06	1.4094e-06	118.1	66.491	40.773	19.553	1.4e-06	33.536	162.872	190.467	164.047	124.538	332.036	224.354	122.822	128.917	226.293	248.696	126.653	130.228	131.564	137.786	248.015	134.523	-8191	255	
1986.151	1	1	0	0	0.2002	0.14169	0.22936	0.1599	0.13133	0.23418	0.41817	0.06154	0.17828	0.079822	0.29675	0.072175	0.1409	0.21973	0.3041	0.31786	-1.6854	-2.4979	-2.3438	-2.1833	-2.55	-2.1542	-2.4875	-2.575	-2.2583	-2.4	-2.3042	-2.2042	-2.5938	-2.1771	-2.4437	-2.5312	153.358	452.303	172.607	195.665	244.896	132.555	217.069	208.586	351.199	185.306	127.845	118.688	449.110	140.548	316.032	369.709	0.00044335	0.00036249	3.9914e-05	154.18	2.2116e-06	3.0372e-06	261.44	69.589	2.6454e-06	3.8606e-06	118.21	67.541	41.357	19.83	1.7091e-06	34.782	0.00013542	0.00012579	3.536e-05	159.75	1.3915e-06	1.3902e-06	261.61	70.135	1.4156e-06	1.3865e-06	117.45	65.927	40.71	19.533	1.4061e-06	33.45	158.098	470.198	211.363	123.477	200.333	201.323	123.293	128.523	355.935	216.080	126.907	130.185	131.405	137.852	214.019	134.273	-8191	255	
1986.247	1	1	0	0	0.28432	0.10361	0.027803	0.095448	0.15867	0.19478	0.2807	0.21641	0.2179	0.29105	0.13994	0.094451	0.072113	0.23191	0.13914	0.19419	-1.5333	-2.3229	-2.4	-2.2083	-2.5229	-2.1396	-2.3917	-2.6229	-1.9292	-2.6	-2.5729	-2.15	-2.4896	-2.1542	-2.15	-2.5333	215.514	174.194	387.672	378.240	146.165	296.723	214.503	374.347	276.546	313.798	427.055	168.147	444.817	470.425	399.700	449.335	0.00039377	0.00019956	7.5946e-05	155.67	9.6748e-07	3.6625e-06	261.54	69.073	1.4533e-06	1.635e-06	117.88	67.83	41.828	19.927	2.6195e-06	34.696	0.00013717	0.00012697	3.556e-05	160.38	1.3686e-06	1.3872e-06	262.15	69.981	1.4118e-06	1.4093e-06	117.69	66.206	41.028	19.708	1.42e-06	33.522	152.554	147.783	130.372	123.900	255.390	223.357	122.703	128.960	226.477	257.785	127.234	130.314	131.168	137.555	425.048	134.176	-8191	255	
1986.343	1	1	0	0	0.12452	0.12726	0.1953	0.10458	0.26158	0.22611	0.26991	0.21345	0.30337	0.14111	0.23203	0.16775	0.13869	0.15638	0.063282	0.12864	-1.7313	-2.4875	-2.3208	-2.2438	-2.575	-2.2188	-2.3146	-2.4958	-2.2229	-2.5042	-2.5062	-2.0667	-2.4375	-2.2458	-2.2479	-2.5396	161.675	201.285	318.003	346.283	275.281	417.731	376.911	257.549	411.879	280.557	379.396	360.644	310.295	438.173	437.813	202.800	0.00042252	0.00033943	0.00011843	155.08	2.1154e-06	1.8486e-06	261.35	70.219	7.7202e-07	2.0829e-06	119.33	68.355	41.95	20.023	8.7711e-07	34.705	0.00013685	0.00012802	3.5839e-05	160.65	1.403e-06	1.419e-06	262.2	70.362	1.4042e-06	1.3968e-06	117.83	66.508	41.157	19.661	1.412e-06	33.634	157.815	136.497	221.764	124.004	184.801	164.313	122.538	128.764	238.482	285.527	126.318	130.381	131.748	137.519	200.221	134.386	-8191	255	
1986.439	1	1	0	0	0.30335	0.18585	0.011912	0.10295	0.098446	0.052058	0.16021	0.14143	0.13777	0.17191	0.089161	0.12217	0.054142	0.14174	0.18257	0.20352	-1.475	-2.3354	-2.4292	-1.9146	-2.6375	-2.3083	-2.2375	-2.6354	-2.1792	-2.2604	-2.6604	-2.0479	-2.4729	-2.3208	-2.2104	-2.7167	370.740	191.830	316.992	147.729	111.593	469.499	207.183	447.057	265.591	418.724	226.506	432.788	134.420	460.550	212.831	311.733	0.00043164	8.0888e-05	6.4862e-05	156.79	4.2906e-07	7.4366e-07	260.86	69.729	5.5085e-07	2.8069e-06	119.32	69.034	41.952	20.195	5.0283e-06	34.553	0.00013682	0.00012727	3.5825e-05	160.87	1.3974e-06	1.3828e-06	262.66	70.766	1.4293e-06	1.4232e-06	118.29	67.175	41.345	19.915	1.4315e-06	33.646	156.757	141.960	213.674	123.765	337.641	395.296	123.127	128.748	433.272	261.935	127.465	130.725	131.356	137.793	209.677	133.743	-8191	255	
1986.536	1	1	0	0	0.15479	0.15878	0.19906	0.27168	0.07476	0.20334	0.18277	0.2718	0.043537	0.29766	0.19148	0.25955	0.25524	0.23707	0.27955	0.046305	-1.8458	-2.2687	-2.4688	-2.0771	-2.3229	-2.3083	-2.3063	-2.5479	-2.1437	-2.1875	-2.5396	-2.2146	-2.4521	-2.4729	-2.1312	-2.5438	164.330	127.677	303.972	426.489	132.557	179.615	254.569	156.087	398.030	188.211	189.719	459.685	119.058	393.588	127.625	245.256	0.00046661	0.00011547	0.00012088	156.97	4.6641e-06	2.2026e-06	259.92	69.619	3.5005e-06	4.8022e-06	119.29	68.041	42.078	20.011	4.6714e-06	34.015	0.0001398	0.0001286	3.5632e-05	161.75	1.3909e-06	1.4051e-06	261.16	70.194	1.4048e-06	1.4166e-06	117.68	66.244	41.295	19.715	1.4323e-06	33.07	154.212	454.550	162.184	123.214	216.678	259.014	122.858	128.730	215.705	405.719	126.957	130.434	131.450	138.003	262.266	134.137	-8191	255	
1986.654	1	1	0	0	0.2077	0.088815	0.053749	0.17999	0.23542	0.062973	0.25925	0.18197	0.32055	0.051478	0.18536	0.058157	0.012299	0.21434	0.2154	0.20868	-1.6	-2.15	-2.5312	-2.0583	-2.4667	-2.6937	-2.0354	-2.4354	-2.3604	-2.1	-2.7188	-2.3396	-2.4062	-2.4625	-2.0687	-2.4125	149.302	300.110	319.065	396.413	207.493	307.309	460.714	389.621	385.461	410.979	294.825	307.848	248.857	437.355	411.583	249.536	0.00044907	0.0002361	3.6412e-05	154.27	1.5505e-06	3.1847e-06	258.56	69.011	4.0512e-06	3.454e-06	116.94	66.82	41.537	19.705	1.2478e-06	33.957	0.00013471	0.00012672	3.5626e-05	160.98	1.3995e-06	1.4144e-06	259.91	70.044	1.3804e-06	1.3936e-06	116.4	65.453	40.847	19.55	1.408e-06	32.991	162.704	197.293	308.194	124.285	324.961	204.334	122.810	128.541	215.654	183.453	126.649	130.241	131.460	137.581	237.837	134.403	-8191	255	
1986.751	1	1	0	0	0.13608	0.2889	0.055808	0.1936	0.48242	0.11499	0.20685	0.097732	0.26677	0.12365	0.090138	0.12099	0.16979	0.35336	0.081651	0.17674	-1.6938	-2.3458	-2.5833	-2.1479	-2.3646	-2.5146	-2.0104	-2.5167	-2.3312	-2.0062	-2.4688	-2.1917	-2.3688	-2.2292	-2.1417	-2.4146	248.593	368.624	114.636	172.590	396.875	274.733	342.587	433.660	341.241	357.213	322.795	245.874	128.130	192.164	230.638	199.073	0.0003987	0.00018644	5.4229e-05	155.34	3.1931e-06	3.1222e-06	257.48	69.557	2.2183e-06	2.1371e-06	116.96	67.644	41.588	19.904	5.6968e-08	34.087	0.0001357	0.00012754	3.6249e-05	160.68	1.4298e-06	1.4255e-06	259.24	70.016	1.4293e-06	1.3926e-06	116.86	65.822	40.972	19.679	1.3959e-06	33.159	165.403	260.161	318.601	124.101	208.936	453.224	123.085	128.617	430.559	329.356	126.716	130.457	131.600	137.796	183.527	134.501	-8191	255	
1986.847	1	1	0	0	0.12419	0.018444	0.1942	0.070098	0.12	0.18415	0.13198	0.36005	0.2725	0.050981	0.20252	0.057524	0.16096	0.15051	0.096809	0.17157	-1.8625	-2.0687	-2.4208	-2.1958	-2.2875	-2.6583	-2.1646	-2.525	-2.4521	-2.2167	-2.45	-2.2938	-2.1417	-2.6562	-2.4625	-2.3646	431.497	262.428	404.637	414.929	432.710	402.394	276.062	151.027	245.566	433.228	256.426	353.644	328.992	438.197	401.365	179.068	0.00044224	0.00013978	0.00015824	155.61	1.3281e-06	1.9972e-06	258.38	69.918	1.8221e-06	1.578e-06	118.59	67.344	41.103	19.961	7.5863e-07	34.097	0.00013684	0.00013081	3.5563e-05	160.92	1.4342e-06	1.4057e-06	260.36	70.444	1.4046e-06	1.3993e-06	117.44	66.006	40.8	19.697	1.4142e-06	33.279	145.873	272.683	149.033	123.557	240.465	178.621	123.001	128.373	252.966	280.798	126.899	130.205	131.061	137.414	370.221	133.835	-8191	255	
1986.943	1	1	0	0	0.37041	0.19494	0.024698	0.23822	0.071547	0.15244	0.092279	0.16637	0.16127	0.18486	0.27501	0.10971	0.25448	0.085476	0.37115	0.14467	-2.0187	-2.0875	-2.6458	-2.3292	-2.5125	-2.6771	-2.1958	-2.2188	-2.35	-2.2438	-2.5875	-2.3896	-2.2271	-2.5854	-2.2812	-2.5375	275.946	384.369	359.902	221.015	423.551	145.350	462.573	443.253	232.216	358.017	131.543	249.042	464.188	123.859	225.122	420.827	0.00042848	0.00013537	8.6306e-05	155.05	1.4824e-07	1.6366e-06	257.44	68.637	3.8554e-06	8.0134e-07	116.9	66.779	41.406	19.745	2.0153e-06	34.03	0.00013636	0.00012843	3.5769e-05	160.89	1.3975e-06	1.4071e-06	259.9	69.805	1.403e-06	1.3822e-06	116.49	65.367	40.702	19.569	1.3811e-06	33.174	158.928	458.253	245.497	123.495	377.177	344.153	122.824	128.746	156.119	229.255	126.723	130.478	131.018	138.143	211.762	133.902	-8191	255	
1987.039	1	1	0	0	0.16345	0.32154	0.070873	0.049059	0.20833	0.17641	0.12844	0.14912	0.0106	0.30359	0.12201	0.26398	0.054952	0.17578	0.26664	0.066627	-2.0458	-2.0792	-2.2583	-2.3583	-2.25	-2.6458	-2.4125	-2.1167	-2.6042	-2.0854	-2.5021	-2.2938	-2.2292	-2.5667	-2.2667	-2.4479	169.915	448.723	226.450	173.652	341.358	176.776	115.395	365.402	312.409	393.890	114.827	250.929	380.831	115.009	345.059	451.848	0.00038001	0.00012081	3.6939e-05	155.53	1.5414e-06	2.0327e-06	256.76	68.629	5.8534e-06	4.3039e-06	115.07	66.492	40.967	19.532	3.3571e-06	33.831	0.00013513	0.00012642	3.5186e-05	160.87	1.3993e-06	1.3789e-06	258.39	69.572	1.3917e-06	1.3886e-06	114.96	65.058	40.309	19.319	1.4046e-06	32.762	151.780	177.398	232.772	123.422	223.936	174.253	123.271	129.246	257.126	243.023	126.859	129.967	131.008	137.660	247.363	134.115	-8191	255	
1987.135	1	1	0	0	0.39415	0.13281	0.12129	0.03706	0.34279	0.017308	0.27423	0.22949	0.33021	0.36892	0.18897	0.20425	0.3249	0.28755	0.25135	0.25631	-2.1729	-2.1188	-2.4313	-2.325	-2.125	-2.5333	-2.275	-2.3125	-2.55	-2.3021	-2.4688	-2.4521	-2.1583	-2.4958	-2.1813	-2.35	368.056	192.613	338.657	254.552	194.571	281.516	457.904	445.360	415.098	382.952	122.273	325.039	455.492	120.365	420.263	373.432	0.00039946	0.00038373	6.497e-05	155.69	1.0158e-06	3.0477e-06	257.9	68.747	3.2204e-06	2.6211e-06	116.84	66.777	41.138	19.539	3.0619e-06	34.182	0.00013367	0.000127	3.5001e-05	160.58	1.3934e-06	1.3863e-06	259.24	69.445	1.3947e-06	1.3867e-06	115.54	65.028	40.4	19.357	1.3659e-06	33.018	160.988	152.821	157.886	123.552	402.480	268.341	122.672	128.693	276.339	262.550	126.570	130.138	131.299	137.611	290.965	134.365	-8191	255	
1987.231	1	1	0	0	0.086888	0.28329	0.13402	0.13154	0.060563	0.24645	0.11862	0.2533	0.056082	0.049749	0.2521	0.22371	0.14506	0.26343	0.21603	0.019987	-2.2667	-2.125	-2.3125	-2.5271	-2.3021	-2.5542	-2.2417	-2.2167	-2.6375	-2.1729	-2.4292	-2.5708	-2.0896	-2.5604	-2.3292	-2.3	315.539	369.970	388.464	248.131	295.683	314.147	408.367	468.397	219.928	210.625	268.601	375.986	429.279	366.293	179.043	208.237	0.00041269	0.00018349	0.00011818	156.66	8.6783e-07	1.7104e-06	259.69	67.661	8.8482e-07	1.6293e-06	115.88	67.545	41.597	19.712	3.2415e-06	34.52	0.00013497	0.00012405	3.5692e-05	161.6	1.3913e-06	1.3748e-06	259.73	68.835	1.3897e-06	1.3623e-06	116.31	65.848	40.793	19.537	1.4113e-06	33.24	165.600	223.156	152.351	123.354	273.435	132.083	122.688	127.902	315.954	291.364	126.505	129.833	131.353	137.615	206.740	134.369	-8191	255	
1987.327	1	1	0	0	0.34888	0.086218	0.20197	0.16244	0.17919	0.21486	0.0075894	0.097852	0.19048	0.15243	0.15971	0.31656	0.18404	0.23564	0.15216	0.082488	-2.1229	-2.2792	-2.2375	-2.4979	-2.3458	-2.3646	-2.3083	-2.1813	-2.6542	-2.0604	-2.3417	-2.6229	-2.2125	-2.5083	-2.4479	-2.2979	436.345	317.371	134.847	252.319	369.831	354.656	118.983	286.477	299.161	246.332	327.721	441.695	295.841	164.892	419.255	458.362	0.00044432	0.00020814	1.1894e-05	156.69	2.265e-06	7.6859e-07	260.19	67.968	3.1208e-06	1.0157e-06	118.58	68.318	41.715	19.971	3.2693e-06	34.427	0.00013389	0.00012465	3.5064e-05	162.35	1.3889e-06	1.393e-06	261.58	68.987	1.3884e-06	1.4009e-06	117.06	66.312	40.998	19.614	1.393e-06	33.416	156.907	188.286	184.347	123.565	312.568	283.272	123.075	128.646	183.785	449.665	126.333	130.262	131.011	137.702	311.663	134.256	-8191	255	
1987.448	1	1	0	0	0.16008	0.05199	0.12127	0.18315	0.1413	0.16658	0.13837	0.11091	0.12521	0.16731	0.26407	0.17336	0.16801	0.19848	0.33193	0.14844	-1.8792	-2.2958	-2.3271	-2.6	-2.2438	-2.3875	-2.475	-2.0354	-2.6729	-2.3104	-2.375	-2.8187	-2.1396	-2.35	-2.4938	-2.2583	399.754	334.585	255.239	262.062	453.628	268.299	409.000	360.338	416.516	274.220	273.306	428.756	154.741	446.609	447.762	409.212	0.00047115	0.00017393	0.00010055	158.49	3.5604e-07	3.9897e-06	258.98	67.65	2.895e-06	2.451e-06	117.95	67.306	41.231	19.761	4.6172e-06	33.764	0.00013631	0.00012754	3.555e-05	163.26	1.3878e-06	1.4233e-06	260.67	68.401	1.3869e-06	1.3691e-06	116.29	65.63	40.433	19.352	1.4006e-06	32.863	157.761	113.803	210.118	123.234	398.987	253.916	122.979	128.532	197.053	257.813	127.229	130.189	130.985	137.192	247.428	134.238	-8191	255	
1987.544	1	1	0	0	0.021612	0.10293	0.091082	0.045792	0.18013	0.15529	0.20661	0.12039	0.17802	0.30858	0.018316	0.24441	0.24132	0.068737	0.10939	0.43276	-1.9646	-2.1271	-2.1542	-2.5917	-2.0792	-2.0771	-2.475	-2.0604	-2.5687	-2.5812	-2.1063	-2.6667	-2.4604	-2.1896	-2.4458	-2.2625	132.365	408.232	146.985	130.244	446.530	160.678	358.307	392.508	222.670	238.767	432.615	286.684	390.256	442.308	185.954	423.126	0.00041609	0.00018503	3.2058e-05	156.83	2.7597e-06	6.2067e-07	257.61	67.188	1.9453e-06	3.4949e-06	115.66	67.013	41.035	19.565	2.4025e-06	33.607	0.00013308	0.00012617	3.565e-05	162.16	1.4e-06	1.3876e-06	259.99	67.952	1.3675e-06	1.3729e-06	114.88	64.919	40.232	19.181	1.4023e-06	32.647	155.561	269.614	417.225	123.549	182.946	174.566	123.076	128.257	426.235	231.640	126.997	130.340	131.002	137.165	239.940	134.537	-8191	255	
1987.640	1	1	0	0	0.199	0.044168	0.1568	0.33078	0.21018	0.16533	0.087278	0.091144	0.030344	0.0344	0.058317	0.16532	0.3831	0.40013	0.11526	0.082879	-2.1229	-2.2562	-2.1167	-2.5667	-2.2833	-2.2687	-2.65	-2.1708	-2.5083	-2.5167	-2.1958	-2.6542	-2.3187	-2.1917	-2.6667	-2.2646	449.856	309.819	455.940	272.687	465.412	462.043	414.539	404.812	400.088	187.928	243.476	378.550	117.977	422.651	414.169	372.489	0.00052816	3.4236e-05	6.1573e-05	158.75	3.1734e-06	1.3756e-06	258.83	66.846	6.8796e-07	4.6846e-07	117.52	67.114	40.977	19.536	1.2111e-06	33.655	0.00013625	0.00012747	3.5541e-05	162.63	1.3653e-06	1.3931e-06	259	67.841	1.3939e-06	1.3849e-06	115.85	65.465	40.46	19.316	1.3861e-06	32.7	155.856	253.171	182.537	122.935	229.727	185.298	122.601	128.540	296.946	117.917	126.900	129.430	131.415	137.403	122.909	134.119	-8191	255	
1987.737	1	1	0	0	0.26411	0.2028	0.17615	0.29782	0.2244	0.25971	0.18698	0.21433	0.03947	0.20475	0.086197	0.10474	0.084787	0.2084	0.31651	0.11273	-1.8104	-2.4208	-2.0604	-2.5312	-2.325	-2.1604	-2.5792	-2.2458	-2.3979	-2.575	-2.0812	-2.5687	-2.275	-2.1021	-2.4896	-2.2917	341.019	332.804	153.465	426.228	439.776	183.810	150.726	295.104	126.477	233.107	354.109	171.839	218.005	269.312	430.730	204.476	0.00040325	0.00018817	6.4375e-05	158.99	1.0262e-06	2.6619e-06	263.36	66.748	4.1867e-06	1.4473e-06	119.07	67.667	41.566	19.728	3.6974e-06	33.99	0.00013521	0.0001287	3.5302e-05	163.78	1.4193e-06	1.4086e-06	261.28	67.736	1.4208e-06	1.409e-06	116.37	65.57	40.767	19.422	1.4063e-06	32.98	161.326	172.211	209.863	123.372	225.039	185.969	122.634	128.570	253.127	133.924	126.851	130.170	131.316	137.490	232.882	134.037	-8191	255	
1987.831	1	1	0	0	0.047449	0.22524	0.11808	0.15479	0.1018	0.22497	0.12507	0.12253	0.28546	0.15349	0.074323	0.066405	0.03626	0.25773	0.033816	0.18195	-2.0375	-2.4458	-2.0312	-2.5833	-2.3333	-2.1792	-2.6125	-2.3292	-2.3125	-2.4542	-2.0875	-2.4958	-2.4562	-2.0729	-2.5979	-2.4917	226.842	402.298	209.168	121.399	412.269	419.363	456.058	159.095	437.130	333.732	432.932	315.394	359.419	305.105	172.663	124.964	0.00039352	9.3609e-05	3.2186e-05	159.64	7.3603e-07	3.061e-06	261.16	66.958	3.7578e-06	4.1132e-06	117.49	67.975	41.589	19.799	2.9797e-06	34.114	0.00013761	0.00012875	3.5842e-05	164.64	1.4141e-06	1.4066e-06	260.79	67.923	1.4028e-06	1.3919e-06	116.45	66.111	40.82	19.487	1.3957e-06	33.006	161.624	152.187	276.560	123.001	261.965	144.781	122.389	128.505	261.055	260.598	126.397	130.052	130.922	137.519	231.633	134.307	-8191	255	
1987.929	1	1	0	0	0.11012	0.11563	0.15901	0.26873	0.24782	0.10913	0.044004	0.21771	0.041102	0.27948	0.25705	0.20882	0.23747	0.1101	0.067657	0.05639	-1.8875	-2.65	-2.1375	-2.3438	-2.325	-2.2812	-2.4583	-2.3104	-2.4354	-2.5354	-2.1583	-2.4104	-2.4042	-2.2042	-2.3729	-2.4667	317.778	365.619	457.270	260.752	258.980	320.051	351.998	341.614	274.980	359.271	433.752	408.815	143.537	377.920	394.451	253.102	0.00038305	0.00020685	0.00014687	158.37	1.0392e-06	7.7565e-07	258.63	67.49	1.4439e-06	3.5692e-06	116.08	66.949	41.355	19.468	8.3494e-07	33.663	0.00013676	0.00012742	3.591e-05	163.53	1.405e-06	1.3975e-06	260.03	68.046	1.3896e-06	1.3973e-06	115.76	65.201	40.566	19.258	1.4111e-06	32.518	158.733	163.989	192.108	122.974	151.122	210.329	123.228	128.773	121.279	230.015	126.365	130.305	131.271	137.682	310.158	134.054	-8191	255	
1988.048	1	1	0	0	0.28068	0.19633	0.31382	0.20719	0.090883	0.2021	0.36056	0.1163	0.16364	0.078458	0.0084278	0.29497	0.02637	0.18375	0.15549	0.11891	-1.6521	-2.5604	-2.1854	-2.3271	-2.45	-2.05	-2.5979	-2.2604	-2.2687	-2.4521	-2.2729	-2.4146	-2.6021	-2.1312	-2.5375	-2.3438	301.551	338.671	418.178	334.722	177.964	340.380	213.010	302.874	304.521	429.757	435.798	445.816	389.835	153.035	275.513	361.814	0.00040968	0.00023465	6.8821e-05	157.67	1.9199e-06	1.6639e-06	256.05	67.37	1.4697e-06	1.4785e-06	116.62	66.587	41.102	19.544	1.6345e-06	33.277	0.00013234	0.00012711	3.5351e-05	162.49	1.3857e-06	1.4001e-06	257.83	68.302	1.4194e-06	1.3968e-06	115.38	64.79	40.59	19.291	1.3852e-06	32.402	154.102	113.230	263.106	123.646	305.987	217.603	122.651	128.390	257.450	298.727	126.176	130.350	130.636	137.480	282.896	134.164	-8191	255	
1988.144	1	1	0	0	0.25745	0.2325	0.17906	0.16082	0.10954	0.07677	0.056965	0.15707	0.058789	0.18652	0.046699	0.044763	0.15808	0.1478	0.18399	0.28629	-1.6042	-2.6063	-2.0125	-2.1458	-2.4604	-2.0917	-2.3812	-2.2729	-2.1312	-2.5	-2.2271	-2.3458	-2.7146	-2.0083	-2.4646	-2.4208	332.533	318.279	151.234	258.403	186.218	198.682	370.077	273.207	195.372	169.117	298.037	224.094	119.258	264.927	177.095	164.574	0.00041435	0.0003365	3.2999e-05	158.87	3.4269e-06	7.6975e-07	258.81	68.262	9.6247e-07	3.178e-06	116.87	67.351	41.753	19.715	3.657e-06	33.725	0.00013516	0.00012878	3.5752e-05	163.26	1.4184e-06	1.4127e-06	260.43	69.052	1.4028e-06	1.4149e-06	116.35	65.457	41.039	19.478	1.4271e-06	32.615	163.018	219.143	422.788	123.347	337.673	273.767	122.661	128.617	115.891	458.370	126.336	130.188	130.678	137.906	255.327	134.288	-8191	255	
1988.240	1	1	0	0	0.42613	0.12061	0.060451	0.24163	0.11427	0.074066	0.072652	0.24582	0.35243	0.071812	0.063144	0.13085	0.094577	0.05063	0.22286	0.24196	-1.5625	-2.5958	-2.3333	-2.2687	-2.6833	-2.2521	-2.2333	-2.4271	-2.1813	-2.5458	-2.3125	-2.0604	-2.4375	-2.325	-2.3417	-2.5104	440.285	358.662	354.007	367.044	418.003	254.829	448.461	416.790	278.578	254.994	301.148	441.882	149.313	295.054	317.997	433.493	0.00037	0.00019237	0.00011308	159.97	3.2663e-06	7.4045e-07	261.34	68.65	1.5932e-06	1.6164e-06	116.66	68.368	41.851	19.963	3.0908e-06	33.845	0.0001365	0.00013044	3.646e-05	164.79	1.4069e-06	1.4158e-06	261.7	69.105	1.4244e-06	1.4191e-06	116.56	66.005	41.246	19.648	1.4116e-06	32.774	154.250	236.837	396.776	123.378	232.176	281.874	122.609	128.284	279.751	298.588	126.871	130.420	131.528	137.782	260.393	134.022	-8191	255	
1988.336	1	1	0	0	0.32677	0.14561	0.10727	0.18015	0.14277	0.10932	0.20771	0.23426	0.267	0.1707	0.046342	0.28534	0.11332	0.30583	0.26941	0.16576	-1.5333	-2.4188	-2.3292	-2.2687	-2.4562	-2.3167	-2.2417	-2.5083	-1.9667	-2.4083	-2.3854	-2.0354	-2.6	-2.3521	-2.325	-2.6	239.452	445.427	425.758	158.705	379.822	174.221	121.087	458.208	320.821	317.391	127.913	359.571	330.332	211.178	444.720	339.832	0.00046641	0.00014787	4.573e-05	158.11	1.5976e-06	1.6462e-06	262.86	69.636	1.9278e-06	2.9358e-06	116.86	67.716	42.141	19.925	1.0828e-06	33.627	0.00013796	0.00012864	3.6078e-05	163.61	1.4209e-06	1.4182e-06	261.11	69.867	1.412e-06	1.402e-06	116.18	65.643	41.247	19.6	1.408e-06	32.551	157.843	199.426	150.395	123.146	241.237	403.414	123.219	128.854	166.849	274.108	126.680	130.183	131.093	137.398	212.644	134.169	-8191	255	
1988.432	1	1	0	0	0.066031	0.15562	0.095981	0.08604	0.22426	0.13357	0.20729	0.19413	0.16532	0.24156	0.28099	0.091315	0.27557	0.16958	0.32409	0.11833	-1.6646	-2.45	-2.3917	-2.1417	-2.4104	-2.0625	-2.1792	-2.4021	-2.25	-2.5187	-2.6042	-2.1312	-2.5854	-2.2229	-2.3125	-2.5312	329.616	183.693	313.256	356.049	224.144	419.461	125.127	167.698	167.574	439.079	222.932	395.921	144.387	160.044	302.811	425.545	0.00036808	0.00022151	7.1171e-05	157.86	1.1005e-06	1.0171e-06	256.57	68.833	3.1061e-06	3.5162e-06	116.81	66.98	41.601	19.723	2.3676e-06	33.408	0.00013838	0.0001293	3.5461e-05	162.89	1.4138e-06	1.4145e-06	260.37	69.75	1.3867e-06	1.3672e-06	115.37	65.062	41.027	19.507	1.4e-06	32.238	159.151	321.777	142.328	123.464	239.472	148.789	123.033	128.883	196.397	236.578	126.510	129.805	130.954	137.951	237.101	134.145	-8191	255	
1988.528	1	1	0	0	0.091422	0.1864	0.31719	0.049377	0.028631	0.20767	0.10802	0.063002	0.1346	0.23949	0.22593	0.1693	0.30956	0.16284	0.10279	0.19013	-1.6458	-2.4292	-2.2562	-2.0542	-2.5125	-2.2479	-2.3396	-2.4292	-2.25	-2.4979	-2.5146	-2.1146	-2.6312	-2.4208	-2.0521	-2.8229	453.041	465.301	179.285	222.259	344.514	176.009	459.399	299.435	131.299	259.152	426.099	126.771	149.460	412.038	343.365	451.926	0.00043098	0.00015499	1.7501e-05	158.41	1.9049e-06	2.5084e-06	258.58	68.211	1.1331e-06	1.3281e-06	116.59	66.428	41.791	19.808	3.8826e-06	33.241	0.00013424	0.00012837	3.5252e-05	162.81	1.389e-06	1.4175e-06	258.57	69.039	1.3979e-06	1.3871e-06	115.33	64.931	41.241	19.572	1.3764e-06	32.387	147.124	158.530	312.164	122.958	309.673	253.107	123.020	128.378	207.265	470.274	126.897	130.393	130.637	137.632	199.673	134.488	-8191	255	
1988.625	1	1	0	0	0.085705	0.14919	0.11662	0.2198	0.17344	0.18027	0.078459	0.22297	0.19658	0.13228	0.055731	0.33319	0.29043	0.19283	0.027665	0.083169	-1.9062	-2.3896	-2.5396	-2.125	-2.6646	-2.4062	-2.2625	-2.4688	-2.3229	-2.2396	-2.6021	-2.2375	-2.5021	-2.5333	-2.3312	-2.7542	270.908	361.089	201.675	218.335	164.339	417.727	161.515	354.033	257.189	132.515	285.551	418.236	380.729	405.914	414.318	111.922	0.00041099	0.00020669	3.3775e-05	157.45	1.0505e-06	2.4953e-06	258.65	69.549	2.8137e-06	4.6203e-06	115.7	67.055	41.83	19.818	2.2729e-06	32.798	0.0001351	0.00012678	3.5506e-05	163.34	1.3937e-06	1.4e-06	260.39	69.899	1.3829e-06	1.366e-06	115.82	65.395	41.415	19.692	1.3621e-06	32.483	155.138	431.931	150.829	123.661	110.923	217.312	122.546	128.080	168.426	274.705	126.604	129.848	130.741	137.266	191.823	133.370	-8191	255	
1988.743	1	1	0	0	0.26775	0.083071	0.21063	0.1334	0.12118	0.18628	0.14544	0.049804	0.26281	0.23603	0.25998	0.17399	0.074452	0.15042	0.21232	0.18358	-1.8312	-2.275	-2.5625	-2.1354	-2.5208	-2.7271	-2.3542	-2.5875	-2.3458	-2.3771	-2.7271	-2.2687	-2.5646	-2.5917	-2.2313	-2.5979	430.383	445.763	128.531	211.298	219.110	360.875	401.523	407.485	460.673	221.190	408.464	373.969	220.476	145.208	258.372	431.658	0.00038819	0.00014657	5.3575e-05	155.65	1.7569e-06	4.8928e-06	253.48	66.989	2.7455e-06	3.7031e-06	114.95	66.657	42.112	19.879	3.5128e-06	33.75	0.00013333	0.00012675	3.5168e-05	164.32	1.3925e-06	1.3826e-06	260.72	69.7	1.372e-06	1.3877e-06	116.32	65.76	41.828	19.808	1.4013e-06	32.882	155.578	298.588	208.963	122.558	256.727	220.203	122.462	127.970	268.240	269.623	125.977	129.643	130.653	136.965	241.890	133.693	-8191	255	
1988.840	1	1	0	0	0.16096	0.03357	0.10444	0.32727	0.3038	0.2557	0.094705	0.16561	0.060965	0.13332	0.10613	0.10391	0.18088	0.25742	0.25491	0.30353	-1.8312	-2.2687	-2.5646	-2.3146	-2.3312	-2.5687	-2.3083	-2.4792	-2.1958	-2.2833	-2.725	-2.2417	-2.375	-2.4229	-2.2792	-2.5125	156.885	457.592	374.564	310.468	223.735	402.783	172.042	367.542	311.936	216.220	371.216	163.255	425.523	156.827	419.896	407.325	0.00048097	7.5348e-05	6.3376e-05	162.14	3.5138e-07	2.0408e-06	260.32	69.564	7.869e-07	3.0311e-06	116.01	66.97	42.33	19.778	9.5911e-07	33.19	0.00013571	0.00012972	3.5462e-05	166.66	1.4085e-06	1.3994e-06	261.95	70.398	1.4012e-06	1.3845e-06	116.29	65.567	41.575	19.662	1.3994e-06	32.601	154.007	464.563	395.599	123.003	280.012	246.188	122.118	128.349	279.466	395.826	126.326	130.164	131.135	137.266	453.684	134.090	-8191	255	
1988.911	1	1	0	0	0.21432	0.058332	0.16954	0.38754	0.23759	0.30958	0.10361	0.060158	0.11879	0.03469	0.2261	0.065068	0.20964	0.20283	0.21338	0.2663	-1.8375	-2.0917	-2.5458	-2.1583	-2.5542	-2.5062	-2.2083	-2.5667	-2.4292	-2.2458	-2.6063	-2.5521	-2.5312	-2.375	-2.2667	-2.55	145.114	456.659	277.037	372.545	115.909	337.410	190.667	177.030	356.566	411.838	119.501	181.421	354.805	439.968	229.960	343.079	0.00040045	0.00021154	7.6687e-05	157.03	7.3252e-07	2.7689e-06	255.77	68.003	1.2338e-06	4.4395e-06	114.47	65.846	41.592	19.705	6.8937e-07	33.353	0.00013444	0.00012599	3.53e-05	163.05	1.4112e-06	1.3905e-06	258.54	69.524	1.3946e-06	1.3984e-06	114.94	64.396	41.242	19.547	1.4196e-06	32.176	158.138	211.676	391.738	122.942	227.040	249.079	122.460	128.235	258.578	190.941	126.955	129.678	130.408	137.332	201.138	133.603	-8191	255	
1989.009	1	1	0	0	0.15785	0.37038	0.062272	0.21919	0.1446	0.13721	0.083132	0.074127	0.1017	0.15313	0.27291	0.23137	0.11288	0.065269	0.020859	0.11893	-2.0021	-2.0896	-2.4854	-2.3896	-2.0583	-2.6208	-2.1646	-2.4229	-2.4917	-2.1208	-2.7292	-2.4146	-2.3083	-2.5375	-2.25	-2.4437	188.281	346.882	140.743	431.713	287.134	382.994	142.356	192.867	320.271	434.504	406.268	218.367	236.321	389.677	430.427	452.273	0.00036171	0.00015989	5.8127e-05	159.42	1.243e-06	1.5793e-06	253.23	68.748	4.2666e-06	1.7262e-06	116.02	66.547	41.578	19.719	2.9353e-06	33.14	0.00013464	0.00012877	3.5789e-05	164.72	1.3919e-06	1.3942e-06	257.91	69.649	1.3989e-06	1.3943e-06	115.38	64.877	41.074	19.52	1.4147e-06	32.247	167.878	236.021	209.165	123.609	242.076	130.903	122.696	128.198	121.136	164.748	126.755	129.859	130.855	137.037	264.986	133.696	-8191	255	
1989.128	1	1	0	0	0.089189	0.18911	0.15612	0.18731	0.29655	0.065941	0.15603	0.22201	0.037217	0.10383	0.1554	0.25436	0.20173	0.3417	0.18185	0.087616	-2.0062	-2.2292	-2.5583	-2.475	-2.0542	-2.6833	-2.3292	-2.45	-2.4625	-2.2292	-2.45	-2.4979	-2.1375	-2.5917	-2.2042	-2.4146	320.136	149.157	288.544	167.429	288.238	273.154	459.751	121.092	321.995	247.775	233.338	354.886	160.698	466.210	361.694	373.418	0.00047941	0.00027526	6.654e-05	157.61	1.2685e-06	1.9016e-06	255.21	68.895	2.7271e-06	1.1717e-06	116.54	66.874	41.888	19.88	7.9164e-07	33.186	0.00013435	0.00012625	3.5409e-05	161.98	1.374e-06	1.3845e-06	258.61	69.897	1.4017e-06	1.399e-06	116.1	65.348	41.156	19.688	1.3989e-06	32.502	152.701	122.149	320.724	122.868	246.744	188.201	122.804	128.288	199.541	192.551	126.379	130.068	131.040	137.292	276.236	134.177	-8191	255	
1989.224	1	1	0	0	0.10929	0.095662	0.14998	0.30392	0.25825	0.20022	0.15585	0.18665	0.17408	0.12389	0.19845	0.2654	0.31785	0.08653	0.25166	0.09054	-2.1333	-2.0625	-2.5062	-2.4938	-2.0958	-2.7062	-2.3604	-2.3771	-2.6396	-2.1396	-2.5625	-2.6792	-2.0687	-2.7375	-2.3958	-2.3729	252.379	405.477	268.758	241.715	280.142	296.492	121.247	388.759	225.410	153.543	405.990	469.612	427.759	411.938	322.255	192.728	0.00044122	0.00012005	0.00018391	153.82	1.736e-06	1.6378e-06	258.19	69.812	2.5867e-06	2.0647e-06	116.34	67.25	41.918	19.848	2.6488e-06	33.395	0.00013613	0.00012699	3.5739e-05	160.34	1.3868e-06	1.4108e-06	260.25	70.679	1.4037e-06	1.4166e-06	116.99	65.664	41.432	19.758	1.4023e-06	32.624	153.138	163.569	197.512	123.120	299.024	208.040	122.302	128.066	224.286	281.931	126.202	129.834	131.093	137.335	205.095	133.856	-8191	255	
1989.320	1	1	0	0	0.16938	0.21975	0.021698	0.15234	0.18828	0.24033	0.074751	0.19009	0.19858	0.32961	0.26107	0.11571	0.15989	0.1719	0.099705	0.27041	-2.1021	-2.1854	-2.2417	-2.5271	-2.2104	-2.575	-2.3396	-2.2458	-2.7083	-2.2667	-2.3875	-2.7271	-2.2646	-2.5375	-2.4375	-2.2667	231.320	177.584	270.676	448.857	163.327	393.714	346.249	319.204	334.928	226.909	121.912	153.915	405.591	431.976	379.728	284.002	0.00032114	5.3775e-05	3.558e-05	156.02	2.5932e-06	3.0058e-06	257.22	69.564	2.9779e-06	6.5175e-07	117.39	67.207	42.033	20.048	1.102e-06	33.05	0.00013715	0.00013124	3.6257e-05	162.9	1.4258e-06	1.4261e-06	260.23	70.455	1.4377e-06	1.4341e-06	117.23	65.901	41.709	19.855	1.4233e-06	32.41	161.160	440.585	424.963	123.254	281.150	286.434	122.709	128.478	187.480	208.990	126.653	129.691	130.867	137.314	224.325	133.776	-8191	255	
1989.441	1	1	0	0	0.14621	0.37649	0.22463	0.18841	0.29438	0.17364	0.24872	0.10877	0.18966	0.10179	0.13046	0.22053	0.40445	0.12571	0.058285	0.16995	-2.2854	-2.2104	-2.3854	-2.7042	-2.2542	-2.5667	-2.4229	-2.1896	-2.6021	-2.2792	-2.5167	-2.6854	-2.3104	-2.4854	-2.4333	-2.2771	389.706	120.154	252.416	361.918	227.914	121.928	405.518	125.024	201.140	218.549	363.664	408.864	462.891	352.459	117.775	272.909	0.0004428	0.00017301	8.3316e-05	160.11	1.5748e-06	5.1615e-06	257.74	69.055	2.1637e-06	1.9224e-06	117.44	67.4	42.229	20.153	3.5286e-06	33.029	0.00014022	0.00013054	3.6054e-05	166.41	1.4516e-06	1.4298e-06	260.08	70.019	1.4373e-06	1.4722e-06	117.22	65.621	41.717	19.825	1.4566e-06	32.265	161.608	217.855	161.488	123.328	454.616	296.477	122.522	128.640	187.512	320.691	126.344	129.839	131.095	137.642	291.454	134.275	-8191	255	
1989.513	1	1	0	0	0.09093	0.049056	0.04427	0.12376	0.15355	0.094478	0.23585	0.12104	0.094076	0.18343	0.088961	0.031772	0.10127	0.11623	0.13302	0.086404	-2.0083	-2.4458	-2.2354	-2.6229	-2.3063	-2.5187	-2.3542	-2.2812	-2.5542	-2.3771	-2.4167	-2.6312	-2.2979	-2.4229	-2.6083	-2.3063	428.795	205.751	434.753	185.554	248.981	261.356	408.533	156.618	438.711	374.632	243.649	204.165	191.284	266.812	119.451	401.641	0.00035241	0.00010615	4.498e-05	162.17	9.527e-07	9.6944e-07	259.88	68.7	3.1416e-06	9.1899e-07	118	67.698	42.497	19.998	3.2175e-06	33.226	0.00014006	0.00013218	3.7159e-05	168.28	1.4476e-06	1.463e-06	260.75	69.796	1.4278e-06	1.4271e-06	117.7	65.801	41.913	19.89	1.4554e-06	32.4	162.864	159.364	191.822	122.713	320.447	384.899	123.089	128.043	157.464	134.596	126.145	129.766	130.982	136.980	211.095	134.100	-8191	255	
1989.609	1	1	0	0	0.19427	0.036178	0.20014	0.053528	0.29974	0.19284	0.35387	0.13689	0.065504	0.064495	0.41044	0.033366	0.23825	0.13405	0.12513	0.12351	-1.9958	-2.5083	-2.3458	-2.7313	-2.3625	-2.5417	-2.4292	-2.2812	-2.5438	-2.4917	-2.4938	-2.6854	-2.2896	-2.5583	-2.6146	-2.2146	340.828	141.928	202.563	158.545	255.321	254.144	391.205	288.898	257.840	403.989	131.988	288.658	336.771	399.649	319.901	123.276	0.0004066	0.0002061	4.7721e-05	163.63	3.102e-06	4.9108e-06	258.18	68.952	1.9138e-06	1.6911e-06	117.87	67.437	42.354	20.153	2.7166e-06	33.627	0.00013987	0.00013233	3.7074e-05	169.27	1.462e-06	1.4606e-06	260.66	69.837	1.4319e-06	1.4506e-06	117.26	65.967	42.051	19.956	1.4664e-06	32.602	148.054	194.779	352.528	122.485	208.110	230.394	122.481	128.832	239.206	152.370	126.233	130.079	130.794	137.569	178.962	133.880	-8191	255	
1989.729	1	1	0	0	0.061512	0.22804	0.32336	0.29891	0.29538	0.19398	0.22908	0.22136	0.12143	0.26724	0.20542	0.29884	0.11356	0.19661	0.31634	0.22212	-2.0104	-2.4458	-2.025	-2.7771	-2.3396	-2.3604	-2.6312	-2.1104	-2.475	-2.3417	-2.1604	-2.5167	-2.3229	-2.3792	-2.6833	-2.4542	394.646	180.702	224.654	384.397	308.336	299.758	310.841	289.636	263.421	443.345	382.852	399.290	316.921	122.560	209.884	348.885	0.00044159	0.00025277	9.7566e-05	164.84	2.5313e-06	1.9374e-06	257.95	68.649	2.067e-06	2.6227e-06	118.26	67.683	43.098	20.207	2.6504e-06	33.396	0.00014008	0.00013264	3.6771e-05	169.4	1.459e-06	1.4605e-06	261.91	69.73	1.4664e-06	1.4397e-06	118.08	66.245	42.337	20.02	1.4557e-06	32.53	149.028	201.057	220.186	123.031	223.619	370.469	122.306	128.900	179.273	208.094	126.311	130.043	130.901	137.609	176.772	133.762	-8191	255	
1989.824	1	1	0	0	0.063838	0.27669	0.33883	0.25128	0.20632	0.1548	0.11568	0.1708	0.10403	0.16175	0.15247	0.18857	0.11747	0.23617	0.17835	0.19418	-2.1542	-2.4292	-2.0833	-2.6729	-2.3208	-2.2854	-2.7875	-2.3229	-2.6125	-2.6562	-2.1604	-2.7458	-2.5938	-2.2812	-2.5708	-2.2625	405.261	201.432	345.087	407.254	182.270	195.809	208.792	401.248	175.052	237.687	392.101	415.759	347.567	410.631	295.503	363.262	0.0004765	0.00018075	9.4114e-05	165.25	2.4037e-06	1.8807e-06	258.43	68.915	3.5471e-06	3.9816e-06	118.59	67.232	42.494	20.148	1.473e-06	32.925	0.00014179	0.00013278	3.7171e-05	170.81	1.4642e-06	1.4777e-06	261.35	69.783	1.4647e-06	1.4462e-06	117.49	65.597	42.038	19.933	1.4622e-06	32.07	154.421	227.069	118.646	122.962	196.765	226.817	122.603	128.430	423.230	231.068	126.261	129.812	131.343	137.560	374.133	133.995	-8191	255	
1989.920	1	1	0	0	0.18713	0.056001	0.1186	0.1958	0.22718	0.17608	0.1679	0.078739	0.18467	0.041019	0.16623	0.28249	0.11773	0.22981	0.1197	0.1723	-2.0708	-2.6167	-2.1188	-2.5229	-2.2687	-2.3167	-2.5979	-2.3312	-2.5563	-2.5354	-2.2125	-2.6458	-2.5354	-2.1292	-2.6646	-2.4146	358.037	310.049	168.106	322.029	217.365	448.174	325.750	437.849	413.432	341.594	456.282	386.405	412.728	257.007	449.064	126.330	0.00038936	0.00017499	0.00011005	164.71	3.8317e-06	3.1068e-06	256.46	69.142	3.4308e-06	1.3743e-06	118.46	66.878	42.649	20.171	3.0445e-06	32.982	0.00014032	0.00013272	3.7318e-05	170.69	1.4514e-06	1.4553e-06	259.97	70.074	1.4488e-06	1.4367e-06	117.36	65.514	42.051	19.928	1.4542e-06	32.186	161.440	290.334	206.715	122.995	212.813	273.161	122.580	128.523	432.335	247.198	126.656	130.148	130.589	137.618	203.169	134.072	-8191	255	
1990.041	1	1	0	0	0.26802	0.11246	0.070299	0.17463	0.21623	0.067944	0.16797	0.15125	0.16434	0.067798	0.15774	0.11067	0.091679	0.25452	0.22234	0.29385	-1.9854	-2.5854	-2.2042	-2.6833	-2.5021	-2.2396	-2.6708	-2.2854	-2.5187	-2.6562	-2.3708	-2.5875	-2.3812	-2.325	-2.6542	-2.5271	456.007	426.677	378.252	240.917	315.492	123.988	121.053	331.312	227.343	123.607	318.333	113.908	331.185	366.534	284.809	386.249	0.00043656	0.00034961	0.00019775	163.76	1.9926e-06	3.0768e-06	256.77	68.631	7.1154e-07	4.7704e-06	118.1	67.22	42.888	20.209	3.8039e-06	33.151	0.00014038	0.00013274	3.7057e-05	170.26	1.4573e-06	1.4643e-06	259.8	69.815	1.4578e-06	1.4678e-06	117.31	65.572	42.143	20.007	1.4688e-06	32.292	160.052	163.963	212.179	122.630	223.075	289.339	122.979	128.753	155.026	295.168	126.720	129.795	131.284	137.414	275.965	133.986	-8191	255	
1990.137	1	1	0	0	0.15394	0.11732	0.044021	0.22966	0.1288	0.038848	0.34874	0.081532	0.12106	0.15056	0.12327	0.32652	0.095113	0.20975	0.18092	0.13054	-1.9562	-2.6625	-2.1813	-2.4833	-2.6667	-2.3458	-2.7417	-2.475	-2.2896	-2.6729	-2.3458	-2.4854	-2.8271	-2.3271	-2.575	-2.45	425.794	390.866	266.233	439.300	139.471	355.327	365.443	250.439	202.291	148.664	217.486	406.167	223.214	160.614	271.913	130.350	0.00042658	0.00015752	0.00012747	165.01	2.8012e-06	2.8275e-06	257.06	69.363	4.0616e-06	2.3305e-06	117.84	67.274	42.856	20.404	5.797e-06	33.275	0.00014167	0.00013326	3.7228e-05	170.11	1.4495e-06	1.4783e-06	259.82	70.454	1.4723e-06	1.4759e-06	117.43	65.623	42.073	20.1	1.4651e-06	32.445	154.061	171.495	321.344	122.321	216.618	293.541	122.564	129.101	198.667	196.181	126.548	129.945	131.109	137.295	267.719	134.108	-8191	255	
1990.208	1	1	0	0	0.15172	0.28844	0.14483	0.13715	0.057358	0.16965	0.022579	0.086769	0.21245	0.22744	0.18408	0.14568	0.03717	0.031609	0.28837	0.089663	-1.8438	-2.6354	-2.2729	-2.3271	-2.5542	-2.2979	-2.4542	-2.2562	-2.4437	-2.7313	-2.3063	-2.6458	-2.8125	-2.175	-2.5604	-2.5354	280.349	302.545	317.879	379.822	160.904	376.825	114.155	268.406	173.156	363.179	419.349	206.352	428.733	454.305	244.129	456.597	0.00044222	0.00021371	8.5962e-06	164.09	1.0142e-06	1.1548e-06	259.12	68.308	2.8463e-06	9.5064e-07	117.15	66.693	42.683	20.28	2.3744e-06	32.909	0.00014154	0.00013465	3.7798e-05	170.02	1.4715e-06	1.4722e-06	259.96	69.934	1.4694e-06	1.4571e-06	116.84	65.172	42.006	19.95	1.4565e-06	32.131	158.598	250.304	129.792	122.566	209.439	258.521	122.696	128.487	217.084	123.561	127.373	130.237	130.880	137.650	129.020	133.795	-8191	255	
1990.305	1	1	0	0	0.077176	0.14929	0.071787	0.29913	0.089501	0.30099	0.13821	0.18252	0.16452	0.057901	0.18118	0.16523	0.17108	0.23933	0.20789	0.12587	-1.6917	-2.5708	-2.1708	-2.4083	-2.6583	-2.2625	-2.5146	-2.7521	-2.3	-2.6271	-2.5583	-2.2021	-2.775	-2.4667	-2.5271	-2.6521	313.230	257.114	175.179	334.065	215.651	199.969	239.115	387.388	325.408	392.602	315.376	420.842	144.821	296.275	161.332	392.017	0.0004345	0.00015835	0.00016405	163.88	2.4068e-06	1.6282e-06	259.7	69.25	1.5716e-06	2.2277e-06	117.69	66.957	43.332	20.086	3.9303e-06	32.805	0.00014033	0.00013218	3.724e-05	169.7	1.4352e-06	1.4657e-06	260.18	70.508	1.4601e-06	1.4581e-06	117.18	65.293	42.375	19.935	1.4397e-06	31.922	156.713	161.479	170.972	123.246	330.090	156.183	122.593	128.859	306.872	144.203	126.008	130.262	130.931	137.507	246.724	133.894	-8191	255	
1990.401	1	1	0	0	0.20589	0.12941	0.21763	0.21142	0.22168	0.11294	0.19739	0.12214	0.088581	0.12961	0.14904	0.30601	0.18024	0.10695	0.14161	0.3374	-1.6625	-2.5625	-2.4396	-2.3917	-2.6479	-2.4146	-2.5917	-2.6083	-2.1437	-2.6542	-2.4583	-2.1792	-2.7313	-2.2562	-2.5938	-2.6229	264.084	375.718	378.521	240.835	217.659	361.987	305.987	378.078	116.722	113.675	407.127	362.025	359.517	173.216	327.266	402.972	0.00045996	0.0002082	5.4153e-05	165.24	1.4748e-06	1.8734e-06	256.12	68.905	6.6006e-07	2.5406e-06	117.93	67.09	43.233	20.364	1.915e-06	33.072	0.00014182	0.00013318	3.7091e-05	170.11	1.453e-06	1.4611e-06	259.57	70.319	1.4687e-06	1.4573e-06	117.4	65.488	42.505	20.153	1.4349e-06	32.218	154.920	245.333	194.227	122.892	288.605	270.333	122.710	129.003	144.202	287.802	126.675	130.109	131.345	137.365	344.812	133.381	-8191	255	
1990.521	1	1	0	0	0.20825	0.27899	0.33894	0.11607	0.26059	0.13821	0.10416	0.10815	0.11941	0.092323	0.11756	0.27907	0.1821	0.26033	0.095277	0.2388	-1.6063	-2.5438	-2.2042	-2.1229	-2.4167	-2.3187	-2.3604	-2.6479	-2.1042	-2.5812	-2.6021	-2.1583	-2.5521	-2.2875	-2.5042	-2.6063	290.780	415.380	146.583	441.494	113.728	391.940	437.997	326.842	406.164	193.554	408.972	382.800	443.050	412.013	390.948	152.995	0.00040953	0.00034666	0.00015996	162.98	2.7428e-06	2.4199e-06	255.5	69.582	2.6355e-06	9.663e-07	117.22	67.757	43.059	20.478	3.8957e-06	33.61	0.00014146	0.00013361	3.8068e-05	169.96	1.4448e-06	1.4564e-06	260.06	70.575	1.4354e-06	1.4665e-06	117.02	65.74	42.342	20.186	1.4641e-06	32.527	156.838	168.725	166.639	122.853	242.440	184.684	122.535	128.560	225.374	393.703	126.186	129.625	130.995	137.933	249.545	133.833	-8191	255	
1990.618	1	1	0	0	0.17117	0.099448	0.19927	0.38825	0.14571	0.094366	0.05505	0.24732	0.18585	0.39161	0.12369	0.19561	0.27376	0.12323	0.11656	0.20224	-1.7792	-2.5979	-2.5812	-2.3625	-2.7167	-2.3521	-2.3729	-2.5854	-2.2375	-2.4062	-2.5229	-2.3292	-2.6083	-2.425	-2.4062	-2.8083	242.186	447.320	334.290	240.376	432.147	457.389	433.551	443.859	252.774	373.212	124.539	450.824	153.572	172.330	198.637	424.276	0.00044976	0.00019286	0.00010111	166.61	2.1372e-06	4.0398e-06	259.27	69.803	2.0306e-06	3.6137e-06	118.49	67.776	43.62	20.508	4.1548e-06	33.475	0.00014107	0.00013487	3.7625e-05	171.66	1.4746e-06	1.449e-06	261.72	70.762	1.4922e-06	1.4863e-06	118.05	66.095	42.762	20.247	1.486e-06	32.582	156.486	224.013	244.223	122.964	284.413	269.311	122.803	128.448	459.549	257.098	126.478	130.053	131.056	137.594	184.786	133.750	-8191	255	
1990.714	1	1	0	0	0.16955	0.14755	0.1657	0.089117	0.16456	0.14621	0.25715	0.18232	0.25311	0.08463	0.33919	0.07958	0.28338	0.15482	0.13497	0.18513	-1.6958	-2.4021	-2.4396	-2.2042	-2.5833	-2.3125	-2.2583	-2.9437	-2.3375	-2.4771	-2.5479	-2.1896	-2.4229	-2.525	-2.2562	-2.6542	261.768	185.454	291.546	156.711	401.796	401.362	461.020	371.736	370.889	326.920	339.833	368.995	121.727	280.242	337.129	396.233	0.00047084	3.9411e-05	0.00010799	165.89	1.4594e-06	1.8083e-06	256.54	69.534	3.7152e-06	1.4103e-06	117.54	66.535	43.4	20.229	4.8291e-06	32.895	0.00014257	0.00013449	3.733e-05	172.14	1.4658e-06	1.4462e-06	261.1	70.455	1.4472e-06	1.4734e-06	117.07	65.217	42.414	20.03	1.4458e-06	32.066	156.357	199.302	236.885	122.811	255.465	317.738	122.277	128.499	296.369	264.114	126.714	130.362	130.980	137.280	214.777	133.717	-8191	255	
1990.810	1	1	0	0	0.17235	0.16976	0.061353	0.19674	0.090447	0.052997	0.19527	0.052573	0.22691	0.1443	0.095175	0.093277	0.054122	0.047516	0.22957	0.18712	-1.9167	-2.4542	-2.4917	-2.1667	-2.6208	-2.5438	-2.1688	-2.7583	-2.4292	-2.35	-2.7875	-2.1667	-2.4833	-2.5917	-2.3312	-2.7604	410.100	461.996	152.986	440.587	233.409	445.037	236.107	363.860	182.357	288.454	288.877	169.525	305.992	156.024	456.047	334.320	0.00040693	0.00010863	7.3978e-05	165.21	2.4273e-06	2.1252e-06	257.59	68.779	3.7749e-06	4.3318e-07	116.38	66.081	42.427	20.107	4.578e-06	32.828	0.00014127	0.00013406	3.6967e-05	171.08	1.4643e-06	1.4691e-06	259.92	69.984	1.4685e-06	1.4596e-06	116.1	64.641	42.055	19.865	1.451e-06	31.898	151.176	137.773	159.013	122.751	237.548	244.590	122.722	128.567	165.940	319.489	126.145	129.910	130.977	137.249	227.154	133.805	-8191	255	
1990.904	1	1	0	0	0.36488	0.14043	0.037702	0.25097	0.055282	0.082903	0.099754	0.264	0.16973	0.042888	0.094796	0.11355	0.13221	0.21837	0.11393	0.30872	-1.8667	-2.3917	-2.7333	-2.2438	-2.4146	-2.6146	-2.2875	-2.7104	-2.4	-2.3917	-2.6625	-2.3958	-2.5854	-2.5875	-2.4688	-2.6979	143.596	400.702	232.987	356.847	235.133	122.009	121.053	427.310	459.591	436.077	311.964	406.860	205.466	381.354	394.070	176.916	0.00045282	0.00029667	7.2953e-05	164.35	8.7653e-07	2.9875e-07	254.5	69.183	3.4505e-07	2.591e-06	117.02	65.948	42.518	20.054	1.5749e-06	33.213	0.00014142	0.00013387	3.7097e-05	170.36	1.4562e-06	1.4792e-06	258.1	69.876	1.454e-06	1.4424e-06	116.46	64.846	41.987	19.98	1.4649e-06	32.103	167.231	275.142	190.745	122.725	178.712	410.060	122.719	128.310	269.416	219.852	126.253	129.569	130.851	137.103	161.136	134.119	-8191	255	
1991.002	1	1	0	0	0.13928	0.22548	0.10649	0.14538	0.2343	0.1891	0.1801	0.16144	0.20514	0.054105	0.052055	0.16546	0.24637	0.28453	0.14703	0.24605	-1.8917	-2.2646	-2.5646	-2.3979	-2.5146	-2.7417	-2.1833	-2.525	-2.35	-2.2042	-2.5458	-2.1458	-2.25	-2.5875	-2.1333	-2.6792	236.130	323.626	451.867	113.366	423.001	420.353	408.616	450.435	149.407	225.073	456.797	462.985	125.682	296.536	167.886	141.233	0.00040735	0.00052274	1.9211e-05	164.77	2.9211e-06	3.8639e-06	255.11	68.22	3.5579e-06	1.2007e-06	117.01	66.999	42.638	19.969	2.7068e-06	32.995	0.00014297	0.0001322	3.7256e-05	170.71	1.4842e-06	1.443e-06	259.09	69.819	1.476e-06	1.4749e-06	116.05	65.064	42.008	19.915	1.4742e-06	32.194	153.757	209.044	261.951	122.589	244.239	193.900	122.982	128.805	199.388	372.060	126.310	130.078	130.683	137.015	257.454	133.788	-8191	255	
1991.121	1	1	0	0	0.30089	0.066384	0.10719	0.14006	0.15955	0.064729	0.047004	0.13622	0.1763	0.17232	0.23952	0.20758	0.38315	0.15265	0.24965	0.26473	-1.9312	-2.1042	-2.5542	-2.2167	-2.5167	-2.6	-2.0062	-2.4896	-2.6229	-2.2479	-2.6521	-2.2521	-2.3563	-2.55	-2.1417	-2.4396	437.884	209.643	277.953	348.834	124.242	320.770	144.864	282.414	236.874	396.352	358.234	259.237	409.025	339.239	433.314	335.268	0.00037623	0.00031702	3.9519e-05	164.3	3.6519e-06	1.0825e-06	258.05	68.563	5.2585e-06	2.8435e-06	116.95	66.887	42.433	20.21	1.6415e-06	32.955	0.00014166	0.00013382	3.7286e-05	170.98	1.4858e-06	1.4609e-06	260.1	70.186	1.4647e-06	1.4593e-06	116.52	65.132	41.976	19.963	1.4705e-06	31.997	157.850	135.568	279.301	123.067	240.727	386.356	122.982	128.517	219.705	288.944	126.442	130.181	131.125	137.882	196.775	133.696	-8191	255	
1991.217	1	1	0	0	0.2611	0.14029	0.1123	0.072796	0.26137	0.30025	0.24694	0.40426	0.083495	0.28628	0.23137	0.25686	0.16003	0.076747	0.15893	0.17547	-1.9667	-2.0229	-2.6479	-2.4354	-2.0917	-2.5729	-2.3563	-2.2875	-2.3896	-2.1229	-2.5646	-2.5062	-2.3	-2.6354	-2.0042	-2.2729	345.760	431.365	281.768	316.680	169.823	222.883	286.391	468.172	232.011	215.560	453.633	185.914	432.130	288.968	422.039	302.383	0.00041567	5.505e-05	5.1532e-05	165.66	1.8076e-06	1.1156e-06	256.81	69.421	1.81e-06	3.0249e-06	115.78	65.884	42.38	19.91	1.1034e-06	32.477	0.00013974	0.00013053	3.7178e-05	171.03	1.4651e-06	1.4664e-06	257.88	69.938	1.4543e-06	1.4529e-06	115.17	64.324	41.786	19.752	1.4504e-06	31.537	160.076	151.459	304.775	123.723	278.087	241.963	122.634	128.775	218.923	290.189	126.056	130.078	130.854	137.745	465.369	134.127	-8191	255	
1991.313	1	1	0	0	0.10776	0.078366	0.21437	0.21378	0.02567	0.044143	0.27874	0.070802	0.16282	0.051097	0.15991	0.15832	0.22945	0.11397	0.31853	0.1258	-1.9833	-2.0646	-2.3312	-2.4688	-2.0812	-2.6771	-2.2812	-2.4	-2.7021	-2.2188	-2.7021	-2.3438	-2.1542	-2.5792	-2.1833	-2.2646	145.583	311.884	425.658	163.139	254.225	321.808	264.351	433.368	284.935	469.070	433.684	229.556	406.457	467.954	242.632	314.618	0.00041642	0.00031986	2.0288e-05	162.86	3.3595e-06	2.0409e-06	251.15	69.105	1.6737e-06	4.0243e-06	115.57	65.466	42.473	20.019	2.409e-06	32.279	0.00014017	0.00013233	3.6604e-05	168.55	1.4387e-06	1.4534e-06	255.59	69.759	1.4537e-06	1.4605e-06	115.08	64.154	41.767	19.843	1.47e-06	31.662	157.317	240.016	373.460	122.861	237.656	261.879	123.123	129.020	228.839	245.326	126.750	129.843	131.104	137.800	232.970	133.892	-8191	255	
1991.409	1	1	0	0	0.25719	0.2436	0.17855	0.06942	0.23682	0.25557	0.081933	0.11443	0.32802	0.19331	0.1617	0.074282	0.11012	0.14929	0.15575	0.10125	-2.0292	-1.9979	-2.4062	-2.4437	-2.0354	-2.4896	-2.0771	-2.2313	-2.6125	-2.3521	-2.5563	-2.4292	-2.3187	-2.5917	-2.2646	-2.2708	368.812	156.644	465.523	160.635	423.962	134.268	112.895	341.472	276.463	155.027	230.078	166.357	293.906	162.178	412.825	403.897	0.0003723	0.00016165	0.00014716	165.11	8.3331e-07	1.2428e-06	254.6	69.095	8.4677e-07	1.0433e-06	115.82	65.969	42.283	20.054	1.7768e-06	32.548	0.00014096	0.00013216	3.7183e-05	170.15	1.4584e-06	1.4577e-06	256.14	70.15	1.4611e-06	1.4636e-06	115.37	64.32	41.821	19.899	1.4451e-06	31.71	146.389	207.717	288.571	123.092	226.836	176.314	122.485	129.266	183.370	226.506	126.910	129.861	130.917	137.591	235.703	133.852	-8191	255	
1991.506	1	1	0	0	0.1301	0.076763	0.11907	0.23549	0.051234	0.13998	0.058552	0.13919	0.12413	0.026846	0.12114	0.026231	0.32021	0.17692	0.026903	0.080836	-2.0167	-2.0187	-2.2917	-2.4354	-2.2208	-2.5208	-2.5146	-2.0646	-2.6729	-2.1437	-2.2729	-2.5208	-2.0375	-2.5208	-2.2583	-2.375	167.422	206.807	401.349	213.483	440.714	136.932	156.627	433.177	459.594	132.933	164.521	318.681	412.384	205.942	340.764	404.108	0.00037972	0.00020873	0.00011355	162.43	1.3923e-06	4.0084e-06	253.76	69.42	5.3942e-06	1.859e-06	114.72	65.834	42.433	20.128	3.2266e-06	32.911	0.00014089	0.00013384	3.7672e-05	168.64	1.4737e-06	1.4738e-06	256	70.279	1.4793e-06	1.4643e-06	114.64	64.241	41.933	19.987	1.4835e-06	31.983	169.837	154.455	225.924	123.521	231.623	220.278	122.969	128.546	245.915	113.517	126.585	129.744	131.179	137.523	182.119	134.152	-8191	255	
1991.602	1	1	0	0	0.12667	0.27304	0.16602	0.18215	0.13381	0.089936	0.21927	0.10087	0.21765	0.1504	0.044149	0.19134	0.24261	0.21062	0.40817	0.058267	-2.1854	-2.1896	-2.3146	-2.4562	-2.225	-2.4542	-2.3292	-2.1937	-2.6688	-2.2917	-2.3438	-2.5167	-2.0833	-2.45	-2.5479	-2.0187	366.543	341.011	337.179	132.100	121.547	347.173	361.031	325.097	204.516	211.014	361.630	257.759	346.575	331.041	215.864	165.000	0.00044452	0.00036745	5.4174e-05	160.9	8.3793e-07	4.6526e-06	253.36	69.096	1.9466e-06	2.2265e-06	114.57	65.451	42.257	20.159	5.3929e-07	32.03	0.00013969	0.00013511	3.7284e-05	167.75	1.4647e-06	1.4585e-06	255.72	70.54	1.4567e-06	1.4539e-06	114.2	63.817	41.747	19.883	1.4508e-06	31.537	166.922	470.229	144.501	123.348	344.535	249.468	122.930	128.958	259.685	256.390	126.140	129.821	131.059	137.738	354.370	133.618	-8191	255	
1991.698	1	1	0	0	0.055484	0.044185	0.073362	0.23093	0.11779	0.28197	0.15012	0.20772	0.034542	0.29827	0.12269	0.25996	0.24304	0.16237	0.27199	0.19282	-2.1937	-2.2958	-2.4208	-2.5042	-2.0667	-2.5438	-2.2438	-2.1667	-2.5896	-2.1771	-2.1417	-2.6625	-2.0792	-2.3021	-2.475	-2.1542	406.877	463.837	378.501	150.183	128.967	310.133	347.758	326.108	300.396	204.095	257.294	467.472	209.549	232.352	194.379	310.394	0.00037973	0.000335	9.9853e-05	161.26	8.1987e-07	9.224e-07	251.19	69.464	2.4819e-06	3.0048e-06	112.62	64.731	42.091	19.874	1.7551e-06	32.035	0.00013983	0.00013125	3.7387e-05	167.09	1.4441e-06	1.4531e-06	253.66	70.751	1.462e-06	1.4487e-06	113.29	63.135	41.659	19.783	1.4383e-06	31.358	157.484	191.535	442.207	123.367	261.984	214.553	122.654	128.685	261.429	221.564	126.377	129.798	130.897	137.649	200.318	133.932	-8191	255	
1991.817	1	1	0	0	0.39907	0.25236	0.18733	0.26939	0.24708	0.055691	0.30022	0.0081551	0.27421	0.081765	0.24412	0.27193	0.20597	0.15791	0.21146	0.31109	-1.9146	-2.2021	-2.1208	-2.6063	-2.0625	-2.3146	-2.3979	-2.1146	-2.4167	-2.4708	-2.2729	-2.5354	-2.1979	-2.5021	-2.4042	-2.1562	146.873	331.485	128.002	381.440	294.927	152.740	361.045	466.318	273.995	267.873	438.360	335.047	314.564	284.941	203.998	420.091	0.0004264	0.00010662	4.6722e-05	159.69	1.9375e-06	1.9214e-06	251.17	70.401	2.1875e-06	2.9127e-06	113.81	64.483	42.069	20.124	3.7203e-06	32.35	0.00014089	0.00013284	3.6603e-05	165.7	1.4662e-06	1.4614e-06	254.11	71.252	1.4498e-06	1.4498e-06	113.23	63.387	41.749	19.959	1.4837e-06	31.533	160.563	354.162	242.367	123.315	160.072	357.323	122.798	128.818	287.726	228.034	126.223	129.830	131.579	137.654	244.855	133.992	-8191	255	
1991.913	1	1	0	0	0.058769	0.10303	0.15632	0.16405	0.22514	0.13409	0.16281	0.43845	0.083522	0.20058	0.040447	0.16661	0.11268	0.19951	0.30665	0.04898	-2.0917	-2.2833	-2.1375	-2.5896	-2.2208	-2.3312	-2.6479	-2.0854	-2.4083	-2.4688	-2.2812	-2.3604	-2.3167	-2.3167	-2.5208	-2.1562	135.432	465.455	361.941	430.740	457.515	114.993	269.299	126.839	273.140	241.265	309.335	297.196	442.274	387.260	366.270	429.014	0.00041444	0.0004398	0.00012832	161.07	1.0258e-06	4.843e-07	252.71	70.895	9.8374e-07	1.2269e-06	114.98	65.637	42.833	20.388	1.6647e-06	32.755	0.00014168	0.00013255	3.7254e-05	165.8	1.4556e-06	1.4665e-06	254.72	71.995	1.4481e-06	1.442e-06	114.45	63.926	42.064	20.135	1.4469e-06	31.848	151.276	310.720	185.857	123.692	276.094	143.956	122.410	128.507	429.243	138.744	126.323	129.907	131.257	138.104	174.593	134.106	-8191	255	
1992.009	1	1	0	0	0.2029	0.10616	0.080886	0.20967	0.075026	0.27175	0.26748	0.062142	0.16619	0.12799	0.054243	0.35407	0.14259	0.090766	0.12352	0.1054	-2.0396	-2.5604	-2.0417	-2.5854	-2.4021	-2.2792	-2.4313	-2.175	-2.3021	-2.4417	-2.1937	-2.3625	-2.3708	-2.0833	-2.4958	-2.325	387.495	229.526	308.552	175.740	276.984	346.996	429.081	139.844	292.818	306.959	368.827	378.654	252.658	167.628	253.405	288.008	0.00051388	0.00023865	7.8656e-05	160.6	2.1723e-06	2.5182e-06	255.67	71.023	6.1339e-07	1.0847e-06	114.52	65.669	43.145	20.286	1.9297e-06	32.946	0.00014289	0.00013245	3.717e-05	166.29	1.4814e-06	1.4543e-06	257.11	72.68	1.4584e-06	1.4632e-06	114.77	64.533	42.422	20.241	1.4437e-06	32.109	166.421	152.139	193.937	123.679	290.106	158.495	122.566	127.935	201.488	217.047	126.787	129.676	131.345	137.735	275.802	133.774	-8191	255	
1992.083	1	1	0	0	0.14278	0.24055	0.37989	0.19995	0.25252	0.33967	0.21886	0.17312	0.079072	0.3955	0.11743	0.10964	0.24755	0.17702	0.11232	0.040676	-1.8854	-2.4125	-1.9667	-2.4	-2.2833	-2.1833	-2.6	-2.1917	-2.475	-2.4229	-2.0792	-2.5146	-2.3167	-2.0167	-2.5521	-2.2417	382.124	375.211	121.066	314.193	374.587	374.260	136.790	337.623	290.100	430.773	206.195	447.974	464.893	118.125	213.891	139.625	0.00040153	0.00013496	0.0001804	160.42	8.9775e-07	1.3986e-07	254.23	71.444	3.3696e-06	3.4003e-06	114.99	66.429	42.62	20.356	3.6301e-06	32.558	0.00014346	0.00013483	3.7496e-05	165.96	1.4522e-06	1.4591e-06	256.47	72.83	1.461e-06	1.4556e-06	114.62	64.187	42.074	20.142	1.4446e-06	31.813	157.360	186.259	462.870	123.534	346.579	232.352	122.960	128.195	218.399	226.790	126.897	129.841	131.319	137.442	270.412	133.951	-8191	255	
1992.201	1	1	0	0	0.048312	0.033413	0.17274	0.21741	0.09274	0.04073	0.14544	0.25614	0.084872	0.30602	0.18168	0.11146	0.054212	0.23094	0.035843	0.087597	-1.7521	-2.6479	-2.2729	-2.4625	-2.425	-2.025	-2.5458	-2.0396	-2.0812	-2.2979	-2.2188	-2.2979	-2.2812	-1.9229	-2.5792	-2.4354	173.058	445.402	261.294	444.710	328.727	455.238	414.410	326.710	218.082	390.567	126.012	465.283	243.222	413.459	198.297	428.742	0.0004099	0.0001902	8.6129e-05	159.5	1.3736e-06	1.3262e-06	252.51	71.439	5.4476e-06	1.1177e-06	114.48	65.572	42.612	20.335	1.992e-06	32.566	0.00014054	0.00013117	3.7216e-05	165.15	1.4651e-06	1.4848e-06	254.76	72.859	1.4784e-06	1.4304e-06	114.28	63.766	41.928	20.099	1.4496e-06	31.749	147.667	238.426	189.600	123.262	125.738	211.414	122.411	128.072	214.090	350.588	126.605	130.012	130.981	137.702	183.478	133.795	-8191	255	
1992.298	1	1	0	0	0.26384	0.077709	0.13288	0.060921	0.32339	0.15149	0.048013	0.18379	0.31585	0.42033	0.13654	0.39112	0.10367	0.16672	0.086369	0.26453	-1.8937	-2.6146	-1.9958	-2.4146	-2.2083	-2.3187	-2.5729	-2.3042	-2.1583	-2.4562	-2.1771	-2.3542	-2.4667	-2.0146	-2.6333	-2.4417	318.891	425.385	299.905	259.999	355.259	260.826	118.380	195.481	402.784	147.135	183.151	431.882	313.821	150.023	344.249	387.506	0.00040971	6.9819e-05	7.9473e-05	157.59	2.1864e-06	2.6822e-06	251.6	71.275	4.32e-06	2.3108e-06	113.17	64.932	41.634	20.051	1.5802e-06	32.546	0.00014091	0.00013419	3.7262e-05	163.77	1.4584e-06	1.4671e-06	254.74	72.727	1.454e-06	1.4594e-06	113.6	63.587	41.528	20.035	1.4377e-06	31.886	165.097	194.251	172.651	124.107	223.124	200.699	122.818	128.782	247.912	248.075	126.753	129.779	131.644	137.952	223.211	133.573	-8191	255	
1992.394	1	1	0	0	0.15035	0.50674	0.31743	0.19032	0.08089	0.057691	0.089727	0.1854	0.1583	0.22369	0.23416	0.14673	0.16272	0.17432	0.096991	0.31213	-1.5375	-2.5312	-2.1688	-2.2646	-2.525	-2.0146	-2.3958	-2.2604	-2.1208	-2.5271	-2.3417	-2.1792	-2.5938	-2.1146	-2.3083	-2.3333	251.358	368.994	445.769	196.975	185.446	264.574	436.031	322.107	390.851	430.383	375.736	215.830	317.049	349.589	349.028	393.463	0.00042104	2.9482e-05	6.4947e-05	155.14	1.478e-06	1.2514e-06	252.05	72.133	4.1139e-06	1.1665e-06	114.09	65.164	41.947	20.379	5.8588e-06	32.54	0.00014167	0.00013441	3.6927e-05	161.72	1.4562e-06	1.4567e-06	254.82	72.694	1.4678e-06	1.4571e-06	114.25	63.751	41.46	20.118	1.4527e-06	31.975	157.186	332.129	125.530	124.172	252.448	459.004	123.419	128.699	210.119	178.304	126.916	130.107	131.310	137.771	216.122	134.450	-8191	255	
1992.490	1	1	0	0	0.24206	0.20593	0.24578	0.11904	0.17182	0.33074	0.36296	0.18757	0.40596	0.1316	0.3504	0.074409	0.30724	0.12635	0.052087	0.23988	-1.5042	-2.4833	-2.4562	-2.325	-2.6146	-2.2729	-2.4229	-2.5896	-1.9688	-2.5208	-2.3208	-2.1583	-2.5625	-2.1188	-2.3979	-2.5167	184.437	402.122	302.308	347.980	381.283	246.725	424.566	248.410	182.489	189.427	409.916	408.744	437.850	456.177	227.240	362.392	0.00041044	0.00020755	0.00011731	154.95	2.6963e-06	1.6957e-06	253.85	71.518	1.3744e-06	2.4336e-06	112.72	65.102	42.217	20.383	2.6706e-06	32.787	0.00014186	0.00013373	3.7675e-05	161.63	1.4653e-06	1.4753e-06	255.48	72.84	1.4903e-06	1.4767e-06	113.16	63.677	41.477	20.075	1.4656e-06	31.904	166.476	268.784	200.432	123.620	200.720	173.927	122.769	128.511	463.240	279.325	126.497	130.414	131.182	138.204	272.579	134.090	-8191	255	
1992.610	1	1	0	0	0.15856	0.13395	0.056765	0.39743	0.044481	0.16828	0.16991	0.033	0.22864	0.093441	0.23313	0.054023	0.24675	0.35197	0.29553	0.045847	-1.6354	-2.4562	-2.3583	-2.1479	-2.45	-2.0708	-2.4583	-2.4167	-2.0417	-2.3271	-2.2833	-2.1042	-2.6833	-2.2271	-2.0687	-2.4542	142.066	358.628	418.445	411.740	373.819	366.167	332.006	451.200	183.007	166.291	175.494	112.433	215.808	418.461	363.124	161.828	0.00048221	0.00012357	5.1373e-05	154.97	1.6889e-06	1.1988e-06	252.81	71.183	4.0731e-06	1.493e-06	113.01	64.675	41.382	20.119	2.1266e-06	32.737	0.00014058	0.00013455	3.7261e-05	160.88	1.4653e-06	1.4667e-06	255.08	72.299	1.4548e-06	1.4657e-06	113.17	63.314	40.976	19.918	1.448e-06	31.757	161.747	210.189	147.475	124.223	343.743	291.907	122.389	128.305	260.849	252.739	126.671	130.080	131.239	137.695	295.942	133.917	-8191	255	
1992.682	1	1	0	0	0.24354	0.11891	0.12927	0.18339	0.26883	0.11888	0.13761	0.14831	0.16488	0.27446	0.028161	0.14946	0.13209	0.37208	0.22838	0.059871	-1.7167	-2.5021	-2.4292	-2.0125	-2.4875	-2.3208	-2.3	-2.5854	-2.275	-2.4417	-2.3854	-2.0542	-2.625	-2.2167	-2.3312	-2.5667	187.248	165.953	137.966	314.006	135.406	317.227	243.642	300.434	237.778	235.104	468.837	212.821	386.606	127.111	318.258	156.710	0.00042488	0.00010596	5.2954e-05	153.71	5.2534e-07	2.5928e-06	252.62	71.089	3.8417e-06	4.5744e-06	113.77	64.83	41.582	20.223	5.3876e-06	32.584	0.00014049	0.00013561	3.7583e-05	160.36	1.4619e-06	1.4539e-06	254.27	71.841	1.4466e-06	1.4529e-06	112.91	63.325	41.03	20.013	1.4452e-06	31.792	155.076	258.208	180.556	123.797	216.901	208.997	122.832	128.628	233.667	217.863	126.269	130.252	131.548	137.792	254.042	134.011	-8191	255	
1992.803	1	1	0	0	0.14949	0.21397	0.20345	0.32127	0.17203	0.059732	0.078191	0.35645	0.13204	0.095823	0.45659	0.30825	0.067653	0.10188	0.17467	0.3412	-1.6375	-2.2583	-2.5396	-2.1312	-2.5833	-2.4583	-2.3854	-2.5896	-2.2417	-2.4667	-2.5958	-2.1042	-2.5167	-2.3292	-2.0604	-2.5583	245.592	342.573	192.462	451.961	144.170	408.020	450.144	365.186	221.142	305.192	432.903	435.717	454.171	437.593	302.208	129.777	0.00039507	0.00018525	0.00010516	156.54	1.2653e-06	4.717e-06	253.32	70.964	1.8926e-06	1.6779e-06	114.8	64.965	41.702	20.278	1.37e-06	33.134	0.00014192	0.00013404	3.7016e-05	161.97	1.4531e-06	1.4661e-06	254.94	72.381	1.4789e-06	1.48e-06	114.08	63.822	41.422	20.123	1.4681e-06	32.112	152.860	208.754	272.157	123.455	191.252	313.143	122.269	128.251	150.369	393.437	127.167	130.104	131.399	137.673	140.454	133.815	-8191	255	
1992.897	1	1	0	0	0.13557	0.10331	0.23479	0.065451	0.11667	0.17464	0.065292	0.10958	0.37306	0.18195	0.35561	0.11461	0.20168	0.20388	0.056729	0.21588	-1.6792	-2.4125	-2.5125	-1.8896	-2.4104	-2.4021	-2.1208	-2.7604	-2.1417	-2.2125	-2.5292	-1.9958	-2.4396	-2.3771	-2.0646	-2.5292	315.705	253.580	459.050	232.308	288.890	393.440	439.674	398.791	377.883	341.336	451.573	209.829	170.229	293.672	202.854	459.244	0.00043705	0.00016536	2.8901e-05	157.38	1.6358e-06	1.9312e-06	253.7	71.363	1.7935e-06	7.2741e-07	114.04	65.606	42.091	20.47	1.6363e-06	33.006	0.00014304	0.00013425	3.7026e-05	163.54	1.446e-06	1.4736e-06	255.87	72.523	1.4795e-06	1.4616e-06	114.84	64.276	41.725	20.292	1.4612e-06	32.26	161.479	160.545	373.766	124.176	285.675	272.364	122.648	128.550	149.086	346.349	127.156	129.988	131.114	138.219	312.575	133.893	-8191	255	
1992.993	1	1	0	0	0.075656	0.16596	0.20877	0.14377	0.1259	0.20822	0.20206	0.31335	0.26965	0.14492	0.11741	0.31345	0.16246	0.073094	0.15562	0.020898	-1.7979	-2.3479	-2.5312	-2.0563	-2.2771	-2.2896	-2.1271	-2.475	-2.375	-2.1958	-2.4396	-2.2062	-2.4021	-2.5521	-2.2667	-2.7042	233.344	203.223	322.525	140.084	357.266	203.410	435.786	456.439	204.084	357.634	288.952	467.064	394.706	277.068	418.411	318.526	0.00043376	0.00034553	5.3077e-05	155.21	2.9672e-06	2.4118e-06	250.47	70.462	2.5182e-06	3.9945e-06	113.16	65.202	42.356	20.273	3.5393e-06	32.765	0.00014465	0.00013438	3.7806e-05	162.92	1.474e-06	1.4663e-06	254.58	72.331	1.4702e-06	1.4743e-06	114.09	63.991	41.755	20.224	1.453e-06	32.052	159.176	198.105	180.449	123.369	220.950	241.577	122.134	128.003	348.993	240.221	126.208	130.303	131.513	137.634	311.667	133.644	-8191	255	
1993.089	1	1	0	0	0.22507	0.25271	0.24696	0.15338	0.026772	0.14611	0.31101	0.24726	0.13663	0.16513	0.06025	0.11669	0.13726	0.035283	0.19831	0.12956	-1.8396	-2.275	-2.6813	-2.1958	-2.3208	-2.4104	-2.0812	-2.4562	-2.3792	-2.1854	-2.7958	-2.0563	-2.2854	-2.3333	-2.0646	-2.5333	391.227	304.380	325.933	257.381	371.633	425.273	443.986	381.731	156.198	204.628	391.354	233.712	369.624	470.412	164.824	377.768	0.00039061	0.00021388	7.0738e-05	157.48	1.3636e-06	3.4546e-06	249.48	71.102	2.9647e-06	1.7878e-06	112.96	64.707	41.83	20.278	8.8188e-07	32.478	0.00014358	0.00013353	3.7385e-05	163.19	1.4569e-06	1.4724e-06	253.99	72.304	1.4753e-06	1.4567e-06	113.37	63.109	41.423	20.081	1.4607e-06	31.683	153.549	150.078	200.144	124.116	311.942	263.413	122.812	128.469	258.136	242.808	126.217	129.923	131.433	137.757	285.210	133.891	-8191	255	
1993.210	1	1	0	0	0.31547	0.16214	0.13848	0.32521	0.13424	0.13028	0.31072	0.19845	0.057823	0.11182	0.1887	0.1642	0.1118	0.12234	0.1875	0.44579	-1.9333	-2.3667	-2.3917	-2.1688	-2.2604	-2.575	-2.0271	-2.3688	-2.3812	-2.2979	-2.4875	-2.2562	-2.1146	-2.4271	-2.2438	-2.3812	308.939	313.166	157.324	440.660	216.269	467.794	408.392	264.565	158.145	262.544	264.666	441.463	174.626	411.001	139.531	409.505	0.00042671	0.0001101	4.9386e-05	158.04	4.2313e-06	4.9852e-06	248.96	70.766	9.5717e-07	4.6257e-06	112.5	64.574	42.123	20.158	3.7906e-06	32.302	0.00014258	0.00013567	3.7066e-05	163.32	1.4707e-06	1.4586e-06	253.79	72.007	1.475e-06	1.4693e-06	113.26	63.405	41.714	20.188	1.4433e-06	31.677	169.376	390.991	162.366	123.287	289.570	208.380	122.850	128.698	231.086	188.194	126.491	129.695	130.556	137.710	235.823	133.905	-8191	255	
1993.306	1	1	0	0	0.20571	0.30152	0.045346	0.16914	0.20438	0.12431	0.1045	0.12977	0.099008	0.29838	0.25249	0.14966	0.24172	0.2388	0.18525	0.1601	-1.925	-2.1188	-2.5	-2.2958	-2.1958	-2.5812	-2.0771	-2.3292	-2.3688	-2.2125	-2.6833	-2.5021	-2.4146	-2.5687	-2.2146	-2.5208	247.272	362.312	432.821	408.758	235.484	177.211	466.660	198.460	408.802	435.116	286.380	342.007	139.678	435.212	220.334	231.375	0.00041428	0.00025194	7.4766e-05	155.68	4.3695e-07	4.7379e-07	252.84	71.802	2.6391e-06	4.3119e-06	112.61	65.238	42.643	20.608	4.3708e-06	32.664	0.00014162	0.0001368	3.7656e-05	163.2	1.4936e-06	1.4789e-06	255.11	72.65	1.4771e-06	1.4873e-06	113.46	63.787	42.161	20.355	1.5029e-06	31.954	163.675	204.385	157.728	123.819	214.507	113.785	122.604	128.482	198.094	241.606	127.278	129.999	131.406	137.695	232.819	134.102	-8191	255	
1993.378	1	1	0	0	0.15879	0.24817	0.026775	0.14989	0.1405	0.095152	0.028972	0.21642	0.11566	0.10328	0.042933	0.18338	0.27999	0.07523	0.043093	0.24056	-1.8708	-1.9354	-2.5187	-2.2625	-2.1521	-2.6458	-2.3729	-2.3	-2.5542	-2.0333	-2.6	-2.4167	-2.0917	-2.6167	-2.1521	-2.2708	326.848	111.173	334.513	179.909	349.789	326.497	359.441	313.078	418.571	115.122	298.728	126.512	387.617	286.560	232.838	139.995	0.00037967	0.0001384	5.2997e-05	159.98	2.3476e-06	1.2336e-06	252.23	71.367	6.2825e-07	3.0807e-06	113.34	65.287	42.211	20.649	3.4496e-06	32.922	0.00014376	0.00013756	3.807e-05	166.92	1.4995e-06	1.4745e-06	255.87	72.398	1.5144e-06	1.4751e-06	114.14	64.112	42.006	20.46	1.4831e-06	32.132	160.426	249.080	175.873	123.255	263.464	324.717	123.071	128.508	271.735	244.343	126.463	129.750	131.670	137.742	259.381	134.014	-8191	255	
#DATA ENDS
