BOXY.EXE: ISS Imagent and Oximeter Data Acquisition Program Version 0.80
Ascii Record File

#ACQ INFORMATION
2  Detector Channels 
16  External MUX Channels 
1  Auxiliary Channels 
5000  Waveform (CCF) Frequency (Hz)
1  Waveforms Skipped 
30  Waveforms Averaged 
1  Cycles Averaged 
16  Acquisitions per Waveform 
10.0806  Updata Rate (Hz) 

#FILE INFORMATION
TRUE -- External MUX Channel results are PARSED.
FALSE -- AC DC and Phase are NOT grouped.
TRUE -- Companion Program Settings File CREATED.
FALSE -- AC data not excluded
FALSE -- DC data not excluded
FALSE -- Phase data not excluded
FALSE -- Auxillary Chn. data not excluded
Tab delimiters

#CALIBRATION STATE
TRUE -- Waveform Calibration Values APPLIED.


#AUX CALIBRATION VALUES
Val Type	aux-1	

Term	1.0000e+00	
Factor	0.0000e+00	


#WF CALIBRATION VALUES
A = Detector Channel
Val Type	A-AC1	A-AC2	A-AC3	A-AC4	A-AC5	A-AC6	A-AC7	A-AC8	A-AC9	A-AC10	A-AC11	A-AC12	A-AC13	A-AC14	A-AC15	A-AC16	A-DC1	A-DC2	A-DC3	A-DC4	A-DC5	A-DC6	A-DC7	A-DC8	A-DC9	A-DC10	A-DC11	A-DC12	A-DC13	A-DC14	A-DC15	A-DC16	A-Ph1	A-Ph2	A-Ph3	A-Ph4	A-Ph5	A-Ph6	A-Ph7	A-Ph8	A-Ph9	A-Ph10	A-Ph11	A-Ph12	A-Ph13	A-Ph14	A-Ph15	A-Ph16	

Term	0.00000e+00	0.00000e+00	0.00000e+00	0.00000e+00	0.00000e+00	0.00000e+00	0.00000e+00	0.00000e+00	0.00000e+00	0.00000e+00	0.00000e+00	0.00000e+00	0.00000e+00	0.00000e+00	0.00000e+00	0.00000e+00	0.00000e+00	0.00000e+00	0.00000e+00	0.00000e+00	0.00000e+00	0.00000e+00	0.00000e+00	0.00000e+00	0.00000e+00	0.00000e+00	0.00000e+00	0.00000e+00	0.00000e+00	0.00000e+00	0.00000e+00	0.00000e+00	0.00000e+00	0.00000e+00	0.00000e+00	0.00000e+00	0.00000e+00	0.00000e+00	0.00000e+00	0.00000e+00	0.00000e+00	0.00000e+00	0.00000e+00	0.00000e+00	0.00000e+00	0.00000e+00	0.00000e+00	0.00000e+00	
Factor	1.00000e+00	1.00000e+00	1.00000e+00	1.00000e+00	1.00000e+00	1.00000e+00	1.00000e+00	1.00000e+00	1.00000e+00	1.00000e+00	1.00000e+00	1.00000e+00	1.00000e+00	1.00000e+00	1.00000e+00	1.00000e+00	1.00000e+00	1.00000e+00	1.00000e+00	1.00000e+00	1.00000e+00	1.00000e+00	1.00000e+00	1.00000e+00	1.00000e+00	1.00000e+00	1.00000e+00	1.00000e+00	1.00000e+00	1.00000e+00	1.00000e+00	1.00000e+00	X	X	X	X	X	X	X	X	X	X	X	X	X	X	X	X	

B = Detector Channel
Val Type	B-AC1	B-AC2	B-AC3	B-AC4	B-AC5	B-AC6	B-AC7	B-AC8	B-AC9	B-AC10	B-AC11	B-AC12	B-AC13	B-AC14	B-AC15	B-AC16	B-DC1	B-DC2	B-DC3	B-DC4	B-DC5	B-DC6	B-DC7	B-DC8	B-DC9	B-DC10	B-DC11	B-DC12	B-DC13	B-DC14	B-DC15	B-DC16	B-Ph1	B-Ph2	B-Ph3	B-Ph4	B-Ph5	B-Ph6	B-Ph7	B-Ph8	B-Ph9	B-Ph10	B-Ph11	B-Ph12	B-Ph13	B-Ph14	B-Ph15	B-Ph16	

Term	0.00000e+00	0.00000e+00	0.00000e+00	0.00000e+00	0.00000e+00	0.00000e+00	0.00000e+00	0.00000e+00	0.00000e+00	0.00000e+00	0.00000e+00	0.00000e+00	0.00000e+00	0.00000e+00	0.00000e+00	0.00000e+00	0.00000e+00	0.00000e+00	0.00000e+00	0.00000e+00	0.00000e+00	0.00000e+00	0.00000e+00	0.00000e+00	0.00000e+00	0.00000e+00	0.00000e+00	0.00000e+00	0.00000e+00	0.00000e+00	0.00000e+00	0.00000e+00	-1.36660e+02	-1.60266e+02	-1.34086e+02	-1.83745e+02	-7.87698e+01	-1.00516e+02	-1.56747e+02	-1.62015e+02	-7.40872e+01	-9.28821e+01	-1.74571e+02	-1.71654e+02	-1.88132e+02	-1.77417e+02	-8.50884e+01	-1.50494e+02	
Factor	2.03993e-05	1.07868e-04	3.57229e-05	1.87245e-01	1.07033e-06	1.41399e-06	1.72526e-01	6.12020e-02	1.23551e-06	1.13726e-06	9.66703e-02	3.45722e-02	6.45775e-02	1.00719e-02	1.45188e-06	1.40147e-02	9.56666e-07	9.86707e-07	2.74933e-07	9.45559e-02	1.08021e-08	1.08257e-08	8.21921e-02	3.07922e-02	1.08017e-08	1.08237e-08	4.65095e-02	1.66970e-02	3.00134e-02	5.01095e-03	1.08182e-08	6.73353e-03	X	X	X	X	X	X	X	X	X	X	X	X	X	X	X	X	



#DISTANCE SETTINGS
A = Detector Channel
A-1	A-2	A-3	A-4	A-5	A-6	A-7	A-8	A-9	A-10	A-11	A-12	A-13	A-14	A-15	A-16	

2.5000e+00	3.0000e+00	2.5000e+00	3.0000e+00	2.0000e+00	3.0000e+00	1.5000e+00	3.0000e+00	3.0000e+00	3.0000e+00	3.0000e+00	3.0000e+00	3.0000e+00	3.0000e+00	1.5000e+00	3.0000e+00	

B = Detector Channel
B-1	B-2	B-3	B-4	B-5	B-6	B-7	B-8	B-9	B-10	B-11	B-12	B-13	B-14	B-15	B-16	

1.0000e+01	1.0000e+01	1.0000e+01	1.4400e+00	1.0000e+01	1.0000e+01	1.5100e+00	1.9400e+00	1.0000e+01	1.0000e+01	1.9900e+00	2.4900e+00	2.4100e+00	2.9000e+00	1.0000e+01	2.9800e+00	




#DATA BEGINS
time	group	step	mark	flag	A-AC1	A-AC2	A-AC3	A-AC4	A-AC5	A-AC6	A-AC7	A-AC8	A-AC9	A-AC10	A-AC11	A-AC12	A-AC13	A-AC14	A-AC15	A-AC16	A-DC1	A-DC2	A-DC3	A-DC4	A-DC5	A-DC6	A-DC7	A-DC8	A-DC9	A-DC10	A-DC11	A-DC12	A-DC13	A-DC14	A-DC15	A-DC16	A-Ph1	A-Ph2	A-Ph3	A-Ph4	A-Ph5	A-Ph6	A-Ph7	A-Ph8	A-Ph9	A-Ph10	A-Ph11	A-Ph12	A-Ph13	A-Ph14	A-Ph15	A-Ph16	B-AC1	B-AC2	B-AC3	B-AC4	B-AC5	B-AC6	B-AC7	B-AC8	B-AC9	B-AC10	B-AC11	B-AC12	B-AC13	B-AC14	B-AC15	B-AC16	B-DC1	B-DC2	B-DC3	B-DC4	B-DC5	B-DC6	B-DC7	B-DC8	B-DC9	B-DC10	B-DC11	B-DC12	B-DC13	B-DC14	B-DC15	B-DC16	B-Ph1	B-Ph2	B-Ph3	B-Ph4	B-Ph5	B-Ph6	B-Ph7	B-Ph8	B-Ph9	B-Ph10	B-Ph11	B-Ph12	B-Ph13	B-Ph14	B-Ph15	B-Ph16	aux-1	digaux	

870.558	1	1	0	256	0.14568	0.13716	0.15821	0.28268	0.093421	0.30452	0.066675	0.11096	0.18065	0.048827	0.20855	0.20024	0.078419	0.20255	0.25161	0.15543	-2.0187	-1.9729	-2.8146	-2.1729	-2.3187	-2.6875	-2.1021	-2.6521	-2.5167	-2.0667	-2.8771	-2.1833	-2.2062	-2.8563	-2.15	-2.7021	322.827	255.435	180.644	192.540	193.831	138.230	77.502	109.653	214.732	286.896	418.626	89.293	381.838	368.269	272.320	279.912	9.4154e-05	0.00027077	0.00022536	185.71	4.7569e-06	5.82e-06	219.3	77.485	6.18e-06	3.9081e-06	91.924	27.956	28.975	12.216	1.1009e-05	11.224	0.00061935	0.00063118	0.00017694	236.55	6.9513e-06	6.9251e-06	260.04	92.394	6.9646e-06	6.8483e-06	114.05	36.504	44.364	14.482	6.968e-06	14.484	141.724	140.371	319.976	72.885	312.109	229.218	70.662	78.342	370.837	288.809	74.711	78.745	81.659	86.926	160.516	81.866	-8191	255	
870.654	1	1	0	0	0.11842	0.12737	0.15906	0.096686	0.20324	0.056572	0.21318	0.074159	0.23079	0.30652	0.06916	0.13005	0.046516	0.23967	0.11113	0.18676	-2.1646	-1.8271	-2.9417	-2.4333	-2.2833	-2.8604	-2.1271	-2.3708	-2.5604	-2.0083	-2.8021	-2.3417	-1.9396	-2.6333	-1.9875	-2.375	213.713	359.424	76.382	93.868	110.720	313.250	220.579	251.988	415.729	138.906	146.863	314.330	248.973	64.765	390.270	241.933	7.5254e-05	0.00032878	0.00028299	187.83	2.512e-06	3.4747e-06	218.79	76.796	3.3726e-06	8.7476e-07	90.99	27.742	29.082	12.132	7.8636e-06	11.228	0.00061711	0.00062873	0.00017809	237.32	6.9318e-06	6.9807e-06	259.36	92.234	7.07e-06	7.0125e-06	114.16	36.592	44.576	14.447	7.0303e-06	14.556	205.073	192.163	233.578	72.467	231.790	225.797	70.422	77.868	213.008	331.875	74.495	78.350	82.084	86.421	102.071	81.547	-8191	255	
870.751	1	1	0	0	0.139	0.18303	0.20735	0.079677	0.078309	0.18979	0.20352	0.19364	0.14851	0.3392	0.10222	0.067564	0.28042	0.088839	0.087343	0.20568	-2.3375	-2.1583	-2.5521	-2.6708	-2.0167	-2.8333	-1.9896	-2.4062	-2.7146	-2.0021	-2.5229	-2.4542	-2.0083	-2.7521	-2.1646	-2.2771	226.976	374.435	305.727	90.046	86.528	192.037	372.519	87.879	394.518	320.034	220.237	115.495	114.057	363.586	106.059	71.092	0.00020424	0.00038007	0.00013418	188.05	4.2543e-06	2.6162e-06	219.37	77.048	5.1396e-06	1.7268e-06	91.752	27.787	29.064	12.139	1.0823e-05	11.022	0.00062875	0.00063755	0.00018059	237.64	7.0583e-06	7.0822e-06	260.78	92.529	7.0624e-06	6.9786e-06	115.22	36.77	44.78	14.545	7.0115e-06	14.522	214.990	153.395	375.374	73.207	204.108	217.575	71.383	78.496	406.856	264.686	74.326	77.406	82.639	87.161	174.082	82.141	-8191	255	
870.847	1	1	0	0	0.014599	0.090866	0.14899	0.25755	0.041095	0.099108	0.39891	0.095088	0.062624	0.065255	0.19167	0.17545	0.18082	0.11886	0.37421	0.25175	-2.3646	-1.825	-2.5187	-2.7438	-1.9562	-2.8896	-2.1729	-2.2604	-2.8854	-1.8896	-2.6146	-2.6333	-1.8917	-2.6417	-2.325	-2.0646	163.577	296.647	301.470	227.801	193.459	116.829	294.576	402.806	81.694	349.219	363.030	394.753	320.211	392.662	270.478	62.969	9.2035e-05	0.00011432	8.0711e-05	189.47	2.7285e-06	3.5367e-06	223.19	77.023	4.3668e-06	4.0985e-06	92.739	28.538	29.448	12.143	3.476e-06	11.203	0.00062739	0.0006436	0.00017997	239.9	7.0025e-06	7.0588e-06	263.23	92.749	7.0157e-06	7.0671e-06	115.68	36.956	44.749	14.577	7.0677e-06	14.59	222.983	263.509	364.312	72.215	273.909	183.660	70.807	78.446	278.959	95.759	75.001	78.174	82.787	86.442	60.726	82.018	-8191	255	
870.943	1	1	0	0	0.22079	0.31299	0.14607	0.21049	0.19488	0.07983	0.019247	0.14104	0.19886	0.28383	0.078811	0.26679	0.10168	0.13217	0.13347	0.15103	-2.2896	-1.8167	-2.2438	-2.6208	-1.9042	-2.6417	-2.5375	-1.8396	-2.9292	-2.0396	-2.425	-2.7125	-1.95	-2.65	-2.4458	-2.075	135.668	205.066	392.993	330.842	244.151	279.129	385.731	289.928	84.460	181.467	168.276	139.379	62.671	205.875	368.053	241.434	0.00011467	0.00032535	3.1611e-05	190.67	5.0511e-06	8.8503e-07	221.13	77.29	3.0284e-06	8.1866e-06	92.215	28.344	29.201	12.103	4.7418e-06	11.23	0.0006285	0.00063978	0.00018098	239.61	7.099e-06	7.1195e-06	261.52	92.915	7.066e-06	7.0818e-06	115.36	36.778	44.685	14.519	7.0851e-06	14.59	171.730	116.294	315.576	72.932	268.328	316.361	70.894	78.397	274.390	131.974	74.335	78.979	82.486	87.260	396.916	81.779	-8191	255	
871.063	1	1	0	0	0.13797	0.17609	0.24482	0.11271	0.05513	0.09516	0.095724	0.27487	0.13692	0.21477	0.038655	0.086185	0.070098	0.1259	0.043003	0.19293	-2.2417	-2.1542	-2.125	-2.7333	-2.1937	-2.5042	-2.4854	-2.0187	-2.9479	-2.1854	-2.3417	-2.7562	-2.0812	-2.4813	-2.4604	-1.9417	288.874	217.249	304.756	80.830	381.748	239.354	86.760	143.560	90.186	410.072	123.709	75.326	258.579	276.300	306.530	342.449	0.00012676	0.00043693	9.0747e-05	186.33	1.9036e-06	5.0196e-06	218.93	77.341	1.8417e-06	5.8159e-06	92.507	28.075	29.63	12.013	7.9223e-06	11.04	0.00063604	0.00065064	0.00017943	238.73	7.1199e-06	7.1595e-06	261	92.571	7.1375e-06	7.0818e-06	115	36.899	44.941	14.525	7.114e-06	14.499	147.673	234.927	277.059	72.489	330.255	218.019	71.268	78.696	256.148	360.489	74.184	78.316	82.069	86.802	235.148	81.211	-8191	255	
871.158	1	1	0	0	0.02958	0.054829	0.25737	0.34549	0.1033	0.17232	0.32589	0.1195	0.12399	0.081688	0.18256	0.12614	0.22128	0.28997	0.12987	0.15381	-2.3083	-2.2687	-2.0375	-2.7583	-1.8625	-2.4833	-2.6188	-1.8958	-2.7354	-2.6188	-1.9438	-2.8396	-2.0271	-2.4188	-2.5875	-1.9875	327.381	206.563	170.732	279.452	303.782	61.164	103.163	80.372	322.866	384.923	387.706	285.608	93.883	312.750	274.117	101.375	8.2652e-05	0.00036954	0.00024143	187.5	6.5736e-06	6.5052e-06	218.79	77.839	7.553e-06	5.7716e-06	92.368	28.338	29.795	12.092	8.3776e-06	11.013	0.00063793	0.00064866	0.00018041	239.61	7.1082e-06	7.1414e-06	262.18	93.061	7.2118e-06	7.1299e-06	115.39	37.074	45.202	14.587	7.1382e-06	14.535	110.905	315.033	134.323	72.378	256.241	326.150	71.336	79.096	386.478	125.779	74.835	78.075	82.636	86.753	198.335	82.122	-8191	255	
871.254	1	1	0	0	0.31838	0.16073	0.21273	0.034482	0.14926	0.082175	0.36319	0.15476	0.26878	0.30307	0.061509	0.28548	0.13234	0.047665	0.12479	0.18704	-2.4292	-2.3625	-2.1667	-2.6896	-1.9479	-2.3583	-2.8083	-2.0854	-2.7271	-2.4542	-2.2042	-2.7792	-2.1208	-2.05	-2.7104	-1.9771	100.093	72.800	265.760	63.368	346.059	122.609	91.945	161.783	414.064	146.740	358.446	289.000	403.645	150.184	417.255	359.117	0.0001298	7.2306e-05	1.7519e-05	190.36	1.8139e-06	7.2338e-06	223.2	77.076	4.8426e-06	1.545e-05	92.241	28.193	29.121	12.174	4.9776e-06	10.959	0.0006363	0.00065019	0.00018127	242.56	7.1525e-06	7.141e-06	265.26	93.317	7.2106e-06	7.1754e-06	115.59	37.214	45.489	14.565	7.2496e-06	14.568	213.293	365.415	115.643	73.371	228.791	214.224	70.462	78.493	324.820	116.409	74.779	78.478	81.613	86.701	223.591	81.089	-8191	255	
871.350	1	1	0	0	0.16221	0.29463	0.2617	0.067461	0.12974	0.3064	0.34033	0.1171	0.1791	0.19182	0.15788	0.23282	0.29381	0.12152	0.15708	0.1178	-2.0563	-2.4792	-1.9542	-2.9146	-2.1917	-2.2979	-2.95	-2.05	-2.6396	-2.55	-2.1104	-2.6604	-2.3229	-2.125	-2.8521	-2.0875	93.752	364.362	366.894	203.510	123.884	189.151	413.303	166.637	313.759	62.258	316.106	80.696	370.334	331.808	327.611	133.932	0.00010324	0.00047625	0.00013282	186.68	7.2158e-07	4.7362e-06	220.41	77.273	7.3855e-06	4.9216e-06	91.166	27.907	28.86	11.98	8.9635e-06	10.784	0.00064747	0.00065818	0.00018344	240.67	7.2392e-06	7.228e-06	263.22	93.448	7.2666e-06	7.272e-06	115.65	37.041	45.085	14.42	7.2536e-06	14.438	158.908	370.026	288.719	73.869	413.113	407.300	71.085	78.237	175.803	266.254	74.284	78.785	81.512	86.320	281.896	81.753	-8191	255	
871.446	1	1	0	0	0.30172	0.10183	0.42691	0.13089	0.17569	0.12519	0.1489	0.27681	0.12369	0.24366	0.10119	0.12482	0.218	0.15111	0.10411	0.094789	-2.1104	-2.7771	-1.8833	-2.6875	-2.5187	-2.0875	-2.9042	-2.2125	-2.4625	-2.6312	-1.9854	-2.6354	-2.4521	-2.0771	-2.8917	-2.1437	159.082	288.797	105.682	119.893	276.913	230.691	302.562	271.111	403.518	391.977	299.990	150.301	326.131	325.156	300.835	187.438	0.00015111	0.00051533	0.00019627	190.35	7.176e-06	4.5728e-06	221.06	77.136	3.4675e-06	4.658e-06	91.581	27.8	29.102	11.981	9.9934e-06	10.682	0.00064864	0.00065953	0.00018343	241.69	7.251e-06	7.2181e-06	264.03	93.626	7.2509e-06	7.2287e-06	115.6	36.864	44.936	14.418	7.3132e-06	14.363	214.823	222.438	202.427	73.279	246.464	108.758	71.135	78.685	216.721	301.159	74.495	77.691	82.143	86.637	106.558	81.903	-8191	255	
871.542	1	1	0	0	0.17429	0.052771	0.36605	0.15602	0.20093	0.11046	0.16745	0.14658	0.062323	0.20112	0.045473	0.13247	0.26774	0.15777	0.24049	0.12858	-1.9312	-2.6271	-1.9458	-2.5771	-2.5021	-2.1375	-2.8542	-2.2604	-2.2729	-2.8125	-1.9562	-2.4417	-2.3667	-1.8604	-2.8792	-2.2542	406.569	307.518	200.856	407.169	344.271	136.830	81.427	67.139	83.481	294.105	97.866	83.390	183.104	292.755	285.872	193.934	0.0001311	0.0011154	6.1309e-05	188.9	8.1255e-06	4.1202e-06	222.55	77.842	4.3599e-06	4.7078e-06	93.259	27.992	28.926	11.961	8.0273e-06	10.885	0.00063827	0.00065657	0.00018246	242.15	7.244e-06	7.2729e-06	264.88	93.663	7.2273e-06	7.2482e-06	116.08	37.229	45.409	14.421	7.3612e-06	14.437	171.815	358.810	73.904	72.615	162.975	300.805	71.226	78.710	243.724	200.235	74.776	78.560	82.189	86.550	182.264	81.708	-8191	255	
871.663	1	1	0	0	0.15329	0.35567	0.23137	0.11482	0.27079	0.11995	0.19325	0.21513	0.32251	0.23476	0.075085	0.22471	0.20903	0.078803	0.1194	0.093843	-1.6208	-2.6979	-2.1396	-2.4021	-2.5312	-2.0208	-2.8271	-2.1771	-2.1583	-2.7938	-2.1854	-2.3708	-2.8458	-2.0125	-2.7562	-2.4	328.376	407.014	313.104	295.489	95.418	261.260	267.440	274.146	402.319	64.962	315.659	341.854	163.539	176.346	392.243	85.453	0.00010315	0.00055787	9.4778e-05	189.29	5.3172e-06	5.7037e-06	219.74	77.644	7.9775e-06	1.9317e-06	91.994	28.121	29.337	11.861	1.7116e-06	10.681	0.00064802	0.00066589	0.00018476	241.27	7.2438e-06	7.2054e-06	263.55	93.039	7.1989e-06	7.2832e-06	115.4	37.001	45.321	14.373	7.3477e-06	14.302	394.495	115.199	235.195	73.146	155.067	314.221	71.302	77.765	419.223	121.743	74.122	79.010	81.576	86.424	386.964	81.986	-8191	255	
871.759	1	1	0	0	0.29339	0.086463	0.16817	0.18242	0.11597	0.11555	0.23278	0.12837	0.41845	0.30247	0.17528	0.16837	0.086801	0.082252	0.10259	0.10274	-1.8542	-2.7854	-2.2521	-2.3479	-2.6708	-2.0292	-2.7375	-2.4854	-2.2062	-2.7375	-2.025	-2.2167	-2.5979	-2.0896	-2.5167	-2.5792	128.377	120.076	201.296	134.346	66.483	318.154	207.867	329.595	193.028	307.197	398.229	363.896	62.272	339.083	300.208	417.763	0.00010317	0.00049484	4.4357e-05	186.99	4.0282e-06	1.0724e-05	218.12	76.737	7.3921e-07	8.9249e-07	90.666	27.741	29.519	11.846	1.3515e-05	10.526	0.00064368	0.00066781	0.0001859	240.66	7.3186e-06	7.2967e-06	261.22	93.079	7.245e-06	7.2446e-06	114.55	36.646	45.392	14.315	7.2333e-06	14.168	151.931	406.393	320.029	73.113	122.931	168.005	71.463	78.117	227.093	361.736	73.455	78.703	81.703	86.905	364.201	80.891	-8191	255	
871.855	1	1	0	0	0.1443	0.24202	0.069331	0.071385	0.3632	0.15413	0.23441	0.15939	0.16846	0.084166	0.041867	0.17891	0.11011	0.14704	0.24733	0.19802	-1.4813	-2.725	-2.1562	-2.3104	-2.6958	-2.0333	-2.5104	-2.6667	-1.8979	-2.8083	-2.0771	-2.1104	-2.7333	-1.9917	-2.4396	-2.5812	176.417	339.969	111.456	395.715	334.844	243.920	319.853	67.461	210.961	249.447	358.854	235.221	175.460	170.120	325.344	172.423	0.00013283	0.00015817	0.00010839	189.19	3.6747e-06	1.9167e-06	220.83	76.75	6.3312e-06	8.0536e-06	91.294	27.631	29.097	11.649	9.3859e-06	10.417	0.00064213	0.00066617	0.00018306	241.37	7.2545e-06	7.2778e-06	264	93.455	7.3278e-06	7.3329e-06	115.39	36.767	45.311	14.321	7.3259e-06	14.147	162.744	391.045	260.275	72.433	295.975	123.170	71.241	78.279	95.112	203.917	74.451	79.159	82.894	87.378	300.019	82.309	-8191	255	
871.952	1	1	0	0	0.33767	0.04688	0.38536	0.20119	0.11515	0.11461	0.2313	0.21805	0.16209	0.33953	0.14888	0.078638	0.19735	0.21723	0.055303	0.22309	-1.6646	-2.6458	-2.3521	-2.1542	-2.8708	-2.3104	-2.6125	-2.8	-2.0021	-2.8083	-2.5917	-2.1188	-2.9333	-2.2479	-2.45	-2.8146	323.176	74.097	352.938	376.776	152.649	219.181	76.988	411.158	111.544	67.220	83.915	84.821	217.756	204.203	115.525	365.354	7.7426e-05	0.00034205	0.00022987	187.83	8.0975e-06	3.3682e-06	222.47	77.206	1.2047e-05	5.6064e-07	91.341	27.807	29.401	11.759	1.0441e-05	10.464	0.00064004	0.00066551	0.00018495	240.1	7.2863e-06	7.2754e-06	264.6	93.418	7.2864e-06	7.4047e-06	115.52	36.948	46.087	14.322	7.3894e-06	14.246	135.588	313.895	286.094	73.612	390.227	92.425	71.070	78.532	120.798	274.228	74.356	78.336	82.990	86.914	258.679	81.425	-8191	255	
872.023	1	1	0	0	0.19049	0.30039	0.18862	0.49965	0.066962	0.07876	0.23091	0.18546	0.22074	0.24922	0.34807	0.17094	0.17475	0.19833	0.15282	0.066123	-1.8042	-2.6521	-2.6521	-2.0417	-2.7625	-2.2938	-2.3417	-2.8479	-2.1437	-2.6396	-2.5646	-2.075	-2.7729	-2.2667	-2.2917	-2.8417	419.875	262.595	210.329	359.034	408.736	280.779	150.678	173.175	86.880	120.369	413.363	234.275	311.598	112.717	391.360	367.485	0.00016491	0.0009639	0.00015712	185.72	2.8269e-06	2.2426e-06	220.32	77.061	6.338e-06	5.8752e-06	90.986	27.508	28.903	11.787	1.535e-06	10.378	0.0006551	0.00067778	0.00018692	240.44	7.3818e-06	7.3817e-06	263.64	93.628	7.3741e-06	7.4268e-06	115.14	36.915	45.95	14.268	7.4869e-06	14.21	132.735	406.188	289.449	73.049	182.140	91.328	71.013	78.318	179.465	135.852	73.436	78.372	82.134	86.551	155.424	82.572	-8191	255	
872.142	1	1	0	0	0.24888	0.018117	0.14456	0.080799	0.10858	0.18073	0.054436	0.29691	0.14854	0.26517	0.15498	0.10998	0.28356	0.26993	0.2973	0.099329	-1.7313	-2.5625	-2.6542	-2.1292	-2.725	-2.4625	-2.25	-2.6813	-2.2333	-2.4396	-2.7042	-2.1271	-2.6583	-2.4313	-2.0792	-2.7271	344.084	223.998	128.049	359.882	272.587	332.997	122.047	416.938	180.523	346.100	283.421	246.327	322.283	383.018	77.173	64.729	0.00018788	0.00066386	0.00031334	189.08	5.5646e-06	8.8536e-06	219.93	77.098	5.1445e-06	9.0773e-06	91.064	27.511	28.983	11.682	7.1464e-06	10.391	0.00066695	0.00068715	0.00019226	243.06	7.5627e-06	7.555e-06	264.39	94.252	7.512e-06	7.5128e-06	116.07	36.84	46.131	14.253	7.3991e-06	14.239	194.621	396.877	332.405	73.086	294.896	206.555	71.390	78.702	74.915	121.368	73.983	78.720	83.632	86.663	387.845	81.942	-8191	255	
872.238	1	1	0	0	0.087703	0.16748	0.049524	0.24375	0.21516	0.25553	0.063752	0.21541	0.16019	0.08524	0.20866	0.15138	0.23852	0.18079	0.073827	0.095999	-1.8	-2.2854	-2.8396	-2.1542	-2.8125	-2.5438	-2.2188	-2.7292	-2.2396	-2.4729	-2.8708	-2.0583	-2.6083	-2.5938	-2.0833	-2.8208	409.428	351.245	73.858	276.765	219.745	138.636	411.056	341.315	364.915	95.447	104.560	366.094	355.711	261.626	383.628	234.077	0.00022375	0.00031845	0.00010538	191.31	1.9252e-06	3.2708e-06	220.01	77.91	8.2842e-07	3.8974e-06	92.105	28.222	29.557	11.796	8.8043e-06	10.396	0.00066404	0.00068268	0.00018959	244.67	7.5225e-06	7.513e-06	266.25	94.639	7.5017e-06	7.525e-06	116.58	37.268	46.24	14.374	7.494e-06	14.227	157.972	117.606	149.445	73.308	326.593	237.190	70.900	78.788	250.594	212.187	74.465	78.395	83.381	86.876	250.156	82.785	-8191	255	
872.336	1	1	0	0	0.017251	0.13607	0.1014	0.031679	0.041686	0.24024	0.16105	0.30759	0.20793	0.3031	0.18266	0.29987	0.21177	0.14581	0.19183	0.22886	-1.8062	-2.4271	-2.8521	-2.0646	-2.4688	-2.6625	-2.0542	-2.7604	-2.2542	-2.2604	-2.9396	-1.9562	-2.4562	-2.575	-1.9188	-2.7792	115.883	358.500	231.420	336.298	374.131	392.005	84.328	99.586	236.120	262.053	273.083	335.164	372.222	201.499	227.689	333.689	8.9437e-05	0.00053806	0.0002551	190.03	5.7584e-06	6.8321e-06	222.14	78.332	8.1736e-06	4.626e-06	92.054	27.995	28.924	11.856	7.4059e-06	10.4	0.00066556	0.00067921	0.00019036	243.45	7.5054e-06	7.4906e-06	267.47	94.935	7.4286e-06	7.4153e-06	116.67	37.215	46.013	14.416	7.4183e-06	14.307	102.257	292.920	351.677	73.248	237.356	301.636	71.195	78.274	148.861	107.694	74.559	77.521	83.060	86.535	223.284	81.531	-8191	255	
872.455	1	1	0	0	0.20805	0.092998	0.030244	0.14815	0.074107	0.13369	0.15812	0.085287	0.099656	0.39947	0.12806	0.13949	0.13321	0.17898	0.17724	0.26056	-2.0479	-2.2104	-2.6625	-2.1312	-2.4354	-2.7354	-2.0146	-2.6937	-2.5	-2.1937	-2.8792	-2.2188	-2.2271	-2.7021	-1.9771	-2.6854	246.112	207.380	155.342	238.169	78.803	203.804	321.955	287.850	312.597	76.703	149.534	315.975	416.431	64.133	407.625	182.623	0.00010741	0.00045532	0.00013844	189.24	6.7862e-06	5.398e-06	220.39	77.936	7.3856e-07	3.2624e-06	91.608	27.164	29.62	11.579	7.0977e-06	10.295	0.00066586	0.00068432	0.00019187	243.56	7.488e-06	7.4275e-06	265.07	94.488	7.4711e-06	7.4412e-06	116.21	36.794	45.958	14.297	7.4161e-06	14.166	170.765	64.342	151.667	72.903	353.387	142.629	71.283	78.443	208.804	157.834	74.205	77.745	82.587	86.664	239.954	81.760	-8191	255	
872.551	1	1	0	0	0.28873	0.092995	0.14677	0.28377	0.086897	0.13364	0.097754	0.23035	0.013253	0.16898	0.072126	0.36172	0.10521	0.15552	0.099009	0.179	-2.1	-2.0417	-2.7854	-2.0083	-2.3	-2.7562	-1.9583	-2.75	-2.7271	-1.9417	-2.7458	-2.2229	-2.1896	-2.8729	-2.1188	-2.6417	409.167	85.235	227.894	368.175	274.717	238.119	323.891	415.150	392.527	387.014	117.889	388.771	159.383	121.672	318.919	72.397	3.212e-05	0.00016308	0.00013111	189.28	9.751e-07	2.6893e-06	220.74	77.484	2.188e-06	9.7374e-06	91.839	27.904	29.622	11.781	7.5986e-06	10.409	0.00065616	0.00067866	0.00018982	243.26	7.3888e-06	7.4568e-06	266.01	94.38	7.3912e-06	7.4106e-06	116.34	36.913	45.572	14.358	7.3401e-06	14.131	314.480	223.869	385.311	73.040	120.448	247.612	71.211	78.418	233.828	98.482	74.004	77.943	84.109	87.415	172.502	82.059	-8191	255	
872.623	1	1	0	0	0.22323	0.2719	0.3153	0.17393	0.12834	0.10939	0.1865	0.22906	0.15998	0.018464	0.17777	0.19232	0.21108	0.10249	0.16642	0.15716	-2.1937	-2.0833	-2.6542	-2.2938	-2.0812	-2.9208	-2.2708	-2.4958	-2.7938	-2.0083	-2.7438	-2.4875	-1.9396	-2.8875	-2.0333	-2.325	100.979	341.389	291.169	316.934	374.844	311.629	313.737	259.238	185.953	73.668	371.416	110.317	312.066	146.504	151.898	167.095	0.00011057	0.0011742	0.00028332	192.7	7.5367e-06	8.283e-06	223.06	77.411	5.7256e-06	4.1661e-06	91.519	27.789	29.659	11.772	9.2613e-06	10.521	0.00065253	0.0006658	0.00018781	244.21	7.3434e-06	7.4223e-06	266.59	94.259	7.3557e-06	7.3975e-06	116.44	36.941	45.414	14.35	7.2854e-06	14.162	328.306	118.945	141.595	72.802	241.261	117.732	70.926	78.594	195.122	293.317	74.234	78.118	83.532	87.119	124.653	81.115	-8191	255	
872.743	1	1	0	0	0.026652	0.17224	0.062835	0.32413	0.23255	0.22237	0.33563	0.051355	0.1471	0.1802	0.169	0.12593	0.19095	0.32139	0.059316	0.03863	-2.4125	-1.9813	-2.8021	-2.3958	-2.0687	-2.7083	-2.0958	-2.3125	-2.9667	-2.0563	-2.7667	-2.6604	-2.0187	-2.8354	-2.1208	-2.3292	223.800	318.499	70.868	307.491	86.015	130.502	80.378	86.704	364.542	147.103	276.849	268.277	139.514	330.148	85.949	64.334	6.7537e-05	0.00023703	0.00019731	192.55	4.7096e-06	1.2149e-05	222.45	77.866	2.3574e-06	6.2234e-06	92.743	28.053	29.155	11.846	2.7317e-06	10.376	0.00064251	0.00066093	0.00018548	243.44	7.3157e-06	7.393e-06	266.01	94.026	7.3199e-06	7.3096e-06	116.17	36.801	45.333	14.339	7.263e-06	14.034	103.163	249.186	379.654	73.404	127.911	194.660	71.237	78.329	211.791	106.473	74.277	78.947	82.361	86.897	211.341	81.934	-8191	255	
872.840	1	1	0	0	0.23232	0.1827	0.038027	0.19868	0.012295	0.24562	0.14889	0.075318	0.10828	0.11633	0.22996	0.23517	0.10103	0.23471	0.37255	0.0883	-2.4875	-2.1917	-2.6813	-2.4813	-1.9021	-2.7875	-2.2792	-2.2313	-2.9229	-2.1312	-2.5979	-2.6604	-1.8937	-2.7458	-2.4208	-2.1417	250.217	351.217	98.434	396.080	136.235	275.976	369.087	81.900	361.055	81.709	416.040	297.963	170.772	231.525	332.969	329.525	0.00012002	0.00033754	0.00018377	192.78	3.9645e-06	3.3202e-06	220.64	78.329	5.6361e-06	4.4213e-06	92.287	27.518	29.306	11.67	8.7035e-06	10.432	0.0006391	0.0006547	0.00018442	242.16	7.2039e-06	7.2817e-06	263.46	93.571	7.2143e-06	7.1582e-06	115.26	36.475	45.041	14.238	7.162e-06	13.963	158.611	291.461	387.239	72.977	239.194	203.414	71.060	79.295	115.368	264.230	73.954	78.096	82.683	87.253	206.390	81.861	-8191	255	
872.936	1	1	0	0	0.050355	0.051738	0.043366	0.072432	0.21	0.064267	0.055624	0.19441	0.25716	0.10154	0.21889	0.1802	0.13512	0.058186	0.26991	0.13609	-2.3937	-2.2146	-2.6208	-2.7354	-2	-2.7687	-2.3563	-2.0729	-2.8063	-2.0271	-2.2771	-2.7104	-1.8604	-2.4938	-2.4646	-1.9979	124.103	159.484	286.506	267.797	311.518	239.878	289.690	376.391	276.052	102.927	197.390	69.172	349.441	231.068	73.726	315.816	0.00018683	0.00051563	0.00011547	192.87	4.659e-06	9.3253e-06	222.96	77.144	1.6854e-06	2.0117e-06	91.193	27.641	29.286	11.584	5.5897e-06	10.313	0.00063636	0.00065998	0.00018235	243.45	7.2109e-06	7.2202e-06	264.91	93.568	7.2063e-06	7.1667e-06	114.69	36.665	45.241	14.21	7.1993e-06	13.954	138.035	243.661	216.834	72.686	167.215	211.620	71.044	78.714	175.825	112.634	74.288	77.911	83.011	86.000	205.698	82.018	-8191	255	
873.056	1	1	0	0	0.13146	0.16709	0.10204	0.19545	0.085026	0.32093	0.095853	0.30244	0.011016	0.1144	0.20092	0.10988	0.2018	0.19933	0.080738	0.29437	-2.4104	-2.0917	-2.3625	-2.8438	-2.0396	-2.6125	-2.5354	-2.0833	-2.6729	-2.2292	-2.3729	-2.9604	-1.8125	-2.5458	-2.5917	-2.1146	311.051	280.725	396.166	233.093	206.391	261.430	112.872	87.821	405.064	124.324	402.996	114.731	217.415	320.310	333.265	379.304	0.00012381	0.00051921	0.00032877	191.34	3.952e-06	5.6918e-06	224.41	78.808	2.8061e-06	3.529e-06	92.412	28.029	28.987	11.539	7.298e-06	10.167	0.00064416	0.00066024	0.00018398	243.74	7.2664e-06	7.3e-06	266.66	94.216	7.2304e-06	7.2075e-06	115.46	36.705	45.099	14.127	7.1685e-06	13.861	159.762	258.180	115.583	73.177	367.265	295.369	71.302	77.684	400.804	284.479	74.212	77.823	82.313	86.456	318.745	81.632	-8191	255	
873.151	1	1	0	0	0.080018	0.080469	0.061887	0.2087	0.21739	0.29779	0.20518	0.21997	0.2613	0.2378	0.33305	0.31114	0.1258	0.19823	0.02916	0.31507	-2.5667	-2.1937	-2.1958	-2.8438	-1.8458	-2.3708	-2.7313	-1.8729	-2.7708	-2.3833	-2.1521	-2.7229	-2.1688	-2.3708	-2.5375	-1.9896	88.009	317.177	266.536	377.988	236.081	379.276	355.578	141.137	209.237	131.365	409.283	234.851	190.002	345.938	160.175	100.584	0.00014466	0.00032418	6.3975e-05	193.07	3.4415e-06	3.8051e-06	221.46	78.09	7.6133e-06	1.943e-06	92.062	27.146	28.942	11.496	2.4762e-06	10.177	0.00064308	0.0006562	0.00018232	243.3	7.1693e-06	7.2742e-06	263.99	94.019	7.3692e-06	7.2339e-06	114.67	36.322	45.206	14.006	7.098e-06	13.713	149.461	161.253	193.239	72.557	209.668	297.294	70.922	78.263	164.500	380.244	74.107	78.917	81.568	86.818	215.939	81.307	-8191	255	
873.224	1	1	0	0	0.203	0.10749	0.1288	0.15837	0.14483	0.12533	0.15117	0.10146	0.11516	0.34932	0.0099703	0.12347	0.029321	0.20564	0.070506	0.059006	-2.4875	-2.3312	-2.0875	-2.6958	-2.0167	-2.4021	-2.7479	-1.9854	-2.8625	-2.6729	-2.0083	-2.9292	-2.1125	-2.3271	-2.7417	-1.9208	314.703	355.776	234.876	239.006	133.828	415.549	296.893	90.328	325.513	276.377	290.809	341.296	213.259	377.157	348.623	410.583	9.8981e-05	0.00061523	0.00012442	191.56	8.3555e-06	9.807e-06	222.52	77.004	2.2507e-06	6.7782e-06	90.482	27.091	28.833	11.548	5.4715e-06	10.022	0.00063521	0.00064676	0.00017981	242.69	7.0721e-06	7.1513e-06	264.77	93.331	7.272e-06	7.2196e-06	114.46	36.386	44.845	14.007	7.1811e-06	13.669	204.064	96.377	271.895	73.031	233.343	145.173	70.974	78.477	300.810	335.924	74.161	78.447	82.841	86.201	412.319	82.021	-8191	255	
873.343	1	1	0	0	0.075106	0.051218	0.28995	0.11993	0.040878	0.13262	0.081855	0.11967	0.28184	0.15465	0.1559	0.075727	0.060415	0.094138	0.18215	0.29332	-2.1646	-2.4625	-1.8708	-2.6875	-2.4229	-2.0604	-2.8083	-2.2104	-2.5604	-2.7771	-2.0229	-2.7292	-2.1063	-2.1437	-2.7562	-2.0396	197.005	129.023	285.579	251.233	228.308	346.488	95.280	419.354	126.192	300.812	316.163	76.707	187.273	164.432	113.903	202.663	0.00014631	0.00041686	6.5564e-05	187.59	5.4823e-06	5.3531e-06	223.27	78.172	1.2688e-06	6.1647e-06	91.353	27.644	28.743	11.585	7.1578e-06	10.088	0.00064443	0.00065799	0.00018242	243.12	7.1599e-06	7.1776e-06	266.31	93.525	7.2278e-06	7.2024e-06	114.29	36.6	44.847	14.062	7.2856e-06	13.724	158.590	414.088	64.442	72.942	392.340	81.634	70.282	78.376	324.622	235.336	74.243	78.894	83.231	86.682	226.795	82.174	-8191	255	
873.439	1	1	0	0	0.14118	0.13591	0.1049	0.21035	0.20484	0.21836	0.040431	0.20525	0.1604	0.12073	0.057214	0.20426	0.091795	0.06969	0.2213	0.28154	-2.1771	-2.4313	-2.0667	-2.675	-2.2458	-1.9646	-2.6875	-2.1917	-2.3104	-2.5833	-2.0875	-2.4729	-2.4313	-1.9417	-2.7875	-2.1562	98.824	227.725	276.034	280.559	113.585	277.314	187.753	385.508	185.781	127.308	249.049	139.430	383.737	66.876	289.588	317.823	4.6279e-05	0.00088888	0.00015702	192.99	4.6515e-06	3.3851e-06	226.24	78.372	9.9189e-06	3.8916e-06	91.511	27.787	29.508	11.481	4.7827e-06	9.9542	0.00064593	0.00065555	0.00018331	243.99	7.2437e-06	7.2754e-06	266.65	94.06	7.2415e-06	7.2667e-06	114.95	36.616	45.267	14.095	7.2704e-06	13.695	181.922	149.105	123.689	73.120	280.712	118.507	71.500	78.271	175.131	372.835	74.915	77.637	82.882	86.536	225.715	81.614	-8191	255	
873.535	1	1	0	0	0.26204	0.25623	0.12714	0.17845	0.2221	0.052617	0.28652	0.25616	0.085972	0.23212	0.39573	0.25726	0.21445	0.19504	0.13003	0.23235	-1.9438	-2.8375	-2.1312	-2.7583	-2.5292	-1.8854	-2.6958	-2.2438	-2.2125	-2.8417	-2.1458	-2.5917	-2.5438	-1.9083	-3.0229	-2.1167	140.770	176.468	297.275	278.512	223.930	327.371	330.170	67.942	392.090	341.729	409.157	105.122	358.306	309.853	160.508	289.829	0.00019425	0.00037513	4.0355e-05	192.71	3.6137e-06	5.1166e-06	223.39	77.788	7.2462e-06	2.9259e-06	91.135	27.182	28.971	11.525	8.5346e-06	10.072	0.00064573	0.00066292	0.0001838	244.24	7.2131e-06	7.1926e-06	265.87	93.661	7.2207e-06	7.2447e-06	114.62	36.385	45.279	14.038	7.3793e-06	13.699	141.696	295.863	297.349	73.235	203.972	238.952	70.885	78.306	180.669	112.073	74.108	78.143	83.663	87.404	71.334	82.133	-8191	255	
873.632	1	1	0	0	0.12506	0.098554	0.25873	0.084543	0.1276	0.1323	0.11629	0.14186	0.14632	0.15612	0.13981	0.062551	0.13015	0.33684	0.06272	0.10572	-1.7854	-2.7917	-1.9875	-2.4062	-2.3833	-2.0896	-2.725	-2.2021	-2.1479	-2.8375	-2.1708	-2.4437	-2.6396	-2.0187	-2.7271	-2.3083	216.855	306.945	378.876	376.441	405.730	296.557	378.461	197.314	119.803	322.668	331.434	344.575	208.662	348.749	287.332	194.907	0.00013071	9.452e-05	0.00029848	192.07	1.656e-06	5.8442e-06	223.9	78.318	3.5279e-06	6.8068e-06	91.332	27.798	29.059	11.549	1.1406e-05	9.9688	0.00064385	0.00066195	0.00018489	244.29	7.2624e-06	7.2495e-06	267.39	93.979	7.2979e-06	7.345e-06	114.76	36.644	45.449	14.063	7.2702e-06	13.766	173.245	133.541	81.472	73.906	283.444	397.952	70.800	78.709	92.471	122.737	74.218	77.474	82.664	87.018	97.318	82.243	-8191	255	
873.728	1	1	0	0	0.20477	0.14478	0.32956	0.14312	0.094435	0.25373	0.077836	0.19178	0.22034	0.26431	0.22803	0.16643	0.072905	0.23431	0.20292	0.25397	-1.9	-2.5771	-2.0917	-2.4208	-2.6833	-2.0292	-2.5979	-2.5667	-1.9021	-2.7687	-2.3438	-2.3646	-2.8271	-1.95	-2.6021	-2.5125	286.632	207.073	122.043	137.516	297.828	338.690	325.669	155.798	346.466	280.746	108.276	383.265	264.148	297.147	352.695	409.096	0.00015612	0.00010437	7.0965e-05	193.41	7.0355e-07	2.1942e-06	226.14	78.487	5.0992e-06	4.1278e-06	91.771	28.001	29.765	11.514	8.2596e-06	10.069	0.00064211	0.00066902	0.00018521	244.88	7.3779e-06	7.3803e-06	269.26	94.839	7.3401e-06	7.4214e-06	116.06	36.804	45.518	14.142	7.3071e-06	13.807	119.221	260.634	290.726	73.853	234.588	85.381	70.822	78.840	150.028	282.037	74.687	79.056	83.645	87.212	80.938	82.047	-8191	255	
873.848	1	1	0	0	0.19662	0.060942	0.15882	0.12811	0.10366	0.21909	0.3151	0.29934	0.08041	0.12559	0.14584	0.24637	0.16567	0.18109	0.15906	0.43396	-1.6729	-2.9208	-2.1333	-2.2	-2.7104	-2.0667	-2.5417	-2.5812	-1.9438	-2.8812	-2.375	-2.0917	-2.7438	-2.0062	-2.4667	-2.4875	195.504	164.056	118.872	377.199	193.045	263.951	357.119	371.849	119.763	350.785	155.943	406.810	299.982	90.197	343.504	216.585	0.00019154	0.00045866	0.0001731	190.33	6.2672e-06	3.6005e-06	226.04	78.921	1.5293e-06	1.1769e-06	92.07	27.693	29.455	11.474	4.3106e-06	10.006	0.00064895	0.00067185	0.00018626	244.08	7.3429e-06	7.35e-06	268.14	95.066	7.3199e-06	7.3841e-06	115.61	36.799	45.904	14.117	7.3357e-06	13.818	137.162	322.515	319.871	73.214	183.507	107.521	71.433	78.297	277.562	290.708	74.815	78.694	83.374	86.927	256.885	82.074	-8191	255	
873.920	1	1	0	0	0.30542	0.018844	0.20253	0.36466	0.37434	0.020741	0.20294	0.40162	0.2126	0.14705	0.073928	0.1296	0.30854	0.080886	0.2279	0.1318	-1.6479	-2.6937	-2.4646	-2.0333	-2.9354	-2.0583	-2.4729	-2.7146	-2.025	-2.9021	-2.2562	-2.1229	-2.8104	-2.0812	-2.2417	-2.8396	126.879	282.147	76.493	64.580	347.332	142.827	284.085	372.387	362.328	347.249	396.076	169.216	388.824	163.241	175.569	235.509	1.4192e-05	0.00035102	0.0001798	190.99	7.1189e-06	2.4074e-06	225.16	79.249	2.0867e-06	4.3285e-06	92.223	27.554	28.95	11.611	7.8465e-06	10.074	0.00065196	0.00067556	0.00018821	245.07	7.423e-06	7.3286e-06	267.71	94.734	7.2943e-06	7.3604e-06	115.7	36.761	45.841	14.142	7.3992e-06	13.893	250.677	77.785	383.245	73.892	249.988	341.336	71.809	79.084	375.246	374.554	74.383	78.739	82.709	86.886	209.274	81.790	-8191	255	
874.016	1	1	0	0	0.37012	0.25586	0.18798	0.20145	0.089332	0.17817	0.16998	0.10663	0.20056	0.13923	0.25413	0.017661	0.097078	0.086718	0.15417	0.2073	-1.5583	-2.6729	-2.4125	-2.0792	-2.7604	-2.0792	-2.3333	-2.6937	-2.0792	-2.4958	-2.4979	-1.9479	-2.6771	-2.1417	-2.1354	-2.7479	64.960	132.088	193.517	375.478	133.204	220.985	334.672	395.245	301.690	393.265	248.496	397.892	271.392	116.660	285.628	380.834	0.0002926	0.00031133	0.00029706	191.88	3.7032e-06	7.2331e-06	224.92	78.943	1.7521e-06	2.5919e-07	91.443	28.066	29.578	11.575	5.1022e-06	10.311	0.00065318	0.0006742	0.00018817	245.38	7.3462e-06	7.3066e-06	268.49	95.207	7.4116e-06	7.4115e-06	116.2	36.908	45.93	14.185	7.3777e-06	14.046	154.121	377.680	257.366	73.402	161.549	247.190	70.791	78.575	357.831	178.232	74.574	78.545	83.360	86.545	417.813	81.988	-8191	255	
874.137	1	1	0	0	0.25987	0.14207	0.23671	0.14789	0.22176	0.13348	0.037533	0.17528	0.07326	0.39878	0.15638	0.33276	0.12776	0.30292	0.18165	0.21827	-1.6083	-2.65	-2.4125	-1.925	-2.8	-2.4417	-2.2333	-2.8521	-2.1146	-2.4313	-2.6896	-1.9667	-2.7333	-2.5792	-2.3167	-2.8438	114.450	401.972	68.909	385.159	211.231	259.864	120.744	80.342	269.623	221.487	317.259	222.578	276.512	69.591	347.721	367.468	6.1304e-05	0.00032405	4.4163e-05	191.85	1.7698e-06	5.8335e-06	228.55	79.497	7.7051e-06	7.6364e-06	93.181	27.599	29.845	11.45	4.7618e-06	10.191	0.00065445	0.00067766	0.00018719	246.32	7.4176e-06	7.3599e-06	269.99	96.069	7.3737e-06	7.4123e-06	116.52	36.994	46.331	14.188	7.4069e-06	13.981	139.474	146.817	413.264	73.333	215.754	292.654	71.274	78.511	190.485	216.999	74.570	77.941	82.950	86.754	233.254	81.960	-8191	255	
874.231	1	1	0	0	0.29679	0.056863	0.20428	0.2198	0.10268	0.23153	0.039078	0.13321	0.19591	0.099694	0.14321	0.044947	0.15625	0.18306	0.10216	0.13128	-1.6792	-2.3646	-2.775	-2.0771	-2.6958	-2.4604	-2.0792	-2.7208	-2.0896	-2.2438	-2.7062	-2.1583	-2.7313	-2.5417	-1.9729	-2.8146	195.555	237.180	176.359	236.876	168.110	328.172	296.103	347.250	308.191	237.647	356.140	353.582	403.598	61.996	190.967	355.817	0.00010565	0.00055065	6.2318e-05	191.26	3.506e-06	2.2798e-06	224.8	78.706	7.3967e-06	6.1068e-06	90.849	28.011	29.72	11.375	2.7227e-06	10.213	0.00065083	0.00067484	0.0001879	245.3	7.4009e-06	7.3923e-06	268.04	95.474	7.3573e-06	7.368e-06	116.07	36.934	46.101	14.12	7.3838e-06	13.952	178.726	134.992	231.935	73.047	189.565	62.785	70.977	78.383	336.836	408.811	74.261	78.395	82.121	86.546	175.826	81.689	-8191	255	
874.327	1	1	0	0	0.084046	0.27749	0.08047	0.16308	0.096141	0.31501	0.10006	0.28519	0.20001	0.08086	0.12623	0.12156	0.30461	0.13855	0.12958	0.25563	-1.9104	-2.2042	-2.5812	-1.9562	-2.5896	-2.5375	-2.0104	-2.575	-2.1583	-2.1063	-2.6354	-1.9604	-2.5729	-2.5438	-1.8937	-2.6354	210.410	368.803	302.121	336.809	332.289	305.441	331.702	373.641	114.138	135.015	303.627	120.650	125.931	355.330	134.513	283.122	0.00011668	0.00020046	0.0001044	193.54	1.6457e-06	5.0496e-06	229.21	78.637	5.973e-06	5.9607e-06	92.025	27.761	30.173	11.607	5.5502e-06	10.081	0.00065777	0.00066991	0.00018737	246.27	7.3661e-06	7.3268e-06	270.03	95.599	7.3545e-06	7.3494e-06	116.5	36.92	45.989	14.174	7.329e-06	13.923	137.229	311.830	100.114	73.038	178.145	231.509	71.340	78.144	361.038	77.420	73.928	77.498	82.754	86.838	196.039	81.247	-8191	255	
874.423	1	1	0	0	0.13376	0.089327	0.26735	0.14838	0.24901	0.1312	0.067859	0.17335	0.10603	0.12047	0.24267	0.2527	0.25382	0.26967	0.23056	0.17551	-1.8958	-2.3312	-2.8312	-2.0479	-2.4833	-2.8229	-2.2292	-2.9	-2.2958	-2.2417	-2.8833	-2.3063	-2.3333	-2.6417	-2.0062	-2.7042	279.794	352.549	274.426	346.442	197.802	193.511	141.882	292.921	95.596	225.988	334.681	144.404	312.747	358.016	79.644	412.815	6.899e-05	0.00033817	5.4104e-05	192.63	5.659e-06	1.0415e-05	227.28	79.199	7.401e-06	2.7954e-06	91.993	28.01	29.306	11.592	6.5783e-06	10.229	0.00065201	0.00067141	0.00018784	245.98	7.3661e-06	7.3868e-06	270.06	95.755	7.3754e-06	7.3988e-06	116.32	36.995	46.086	14.266	7.3977e-06	14.01	139.620	165.648	113.306	73.625	380.158	147.592	71.046	78.512	293.174	375.878	74.601	78.460	82.527	86.451	170.456	81.419	-8191	255	
874.520	1	1	0	0	0.1953	0.12324	0.25181	0.22906	0.054799	0.11906	0.15399	0.12979	0.22216	0.099034	0.22293	0.28632	0.12776	0.091146	0.03389	0.013932	-2.1813	-2.0687	-2.7708	-2.0812	-2.4208	-2.7792	-2.0521	-2.6437	-2.4292	-2.1667	-2.9688	-2.3208	-2.0521	-2.8521	-2.0542	-2.6188	386.097	126.780	311.661	277.044	233.805	416.308	418.130	403.656	396.204	397.315	396.631	285.635	90.796	237.519	362.547	230.219	4.7384e-05	0.00050073	0.00011818	194.27	4.3304e-06	4.7794e-06	227.25	80.262	1.5546e-06	3.2705e-06	92.72	27.52	29.58	11.587	1.178e-05	10.136	0.00065976	0.00067353	0.00018996	247.29	7.3941e-06	7.3915e-06	269.91	95.854	7.3929e-06	7.3887e-06	117.03	36.941	45.969	14.208	7.4113e-06	13.929	122.992	385.118	347.304	74.068	403.148	192.122	71.278	78.565	172.414	287.400	73.847	78.216	82.252	86.716	222.360	81.302	-8191	255	
874.616	1	1	0	0	0.065635	0.091756	0.21688	0.25682	0.21558	0.1326	0.28679	0.27793	0.054251	0.1163	0.087158	0.12734	0.050136	0.17808	0.15689	0.16408	-2.3187	-1.9042	-2.8438	-2.2354	-2.2062	-2.8937	-2.1396	-2.6104	-2.4479	-2.2	-2.8979	-2.3563	-2.2229	-2.8042	-2.2229	-2.625	70.052	115.812	311.263	323.646	219.685	137.399	383.896	234.042	224.650	295.427	105.846	262.143	225.994	334.436	202.510	242.677	0.00013349	4.7285e-05	0.00014126	191.38	1.7857e-06	2.888e-06	224.98	77.907	3.0733e-06	3.1876e-06	92.854	27.763	29.698	11.524	8.5387e-06	10.205	0.00066195	0.00067669	0.00019112	245.16	7.4437e-06	7.4578e-06	268.08	95.127	7.3856e-06	7.3992e-06	116.79	37.017	46.04	14.19	7.4034e-06	13.92	117.666	267.899	277.352	73.593	101.247	157.503	71.329	78.848	137.465	237.159	74.038	78.461	82.868	86.486	151.814	81.349	-8191	255	
874.736	1	1	0	0	0.1209	0.2979	0.10841	0.33068	0.2881	0.12927	0.059651	0.18326	0.16924	0.041781	0.058798	0.096977	0.081535	0.10021	0.28314	0.27952	-2.2438	-2.0792	-2.7354	-2.4437	-2.0729	-2.8896	-2.2375	-2.4188	-2.7125	-1.9875	-2.7188	-2.4958	-2.2062	-2.6521	-2.2417	-2.2792	162.982	94.930	344.780	84.427	182.896	252.143	76.370	411.979	130.518	320.256	132.013	170.380	89.170	66.049	71.583	311.427	3.1463e-05	0.00049532	0.00013248	194.38	7.5105e-06	6.9587e-06	228.38	79.414	8.9109e-06	4.4867e-06	91.467	27.715	29.944	11.646	9.3239e-06	10.332	0.00066181	0.00067845	0.0001909	246.41	7.4126e-06	7.479e-06	269.65	95.569	7.4568e-06	7.4115e-06	116.6	36.999	46.217	14.292	7.3859e-06	14.064	226.610	413.177	416.763	72.294	257.815	166.776	71.054	78.338	380.922	253.055	74.158	78.463	83.152	86.879	149.554	82.070	-8191	255	
874.833	1	1	0	0	0.076882	0.092701	0.074088	0.21348	0.27866	0.02147	0.069998	0.20735	0.11815	0.20852	0.10525	0.10814	0.1885	0.25748	0.057576	0.17104	-2.4083	-2.0208	-2.5021	-2.5583	-2.1292	-2.7958	-2.3604	-2.2625	-2.7604	-2.0938	-2.4729	-2.6083	-2.1354	-2.8979	-2.2521	-2.2104	97.010	97.712	350.731	83.395	225.863	130.786	404.847	84.618	218.938	115.573	207.420	276.501	302.217	386.917	246.230	202.684	0.00019288	0.00042693	8.1019e-05	195.32	1.042e-05	5.1545e-06	226.74	79.282	7.464e-06	1.5031e-06	92.123	27.997	29.603	11.708	3.9222e-06	10.316	0.00066249	0.00067719	0.00018973	247.85	7.447e-06	7.4682e-06	270.52	95.695	7.4442e-06	7.4006e-06	116.4	36.949	46.103	14.375	7.4069e-06	14.03	174.679	181.582	175.981	73.200	158.302	305.302	70.912	78.368	102.802	345.191	74.259	78.362	82.013	87.448	398.181	81.042	-8191	255	
874.929	1	1	0	0	0.048836	0.15053	0.28593	0.12722	0.15661	0.16628	0.17313	0.098354	0.13366	0.23501	0.27914	0.024557	0.13691	0.057687	0.2343	0.16074	-2.5104	-1.9021	-2.5396	-2.6646	-1.7771	-2.5938	-2.4167	-2.1167	-2.9188	-2.2292	-2.4521	-2.6208	-1.9333	-2.7833	-2.4396	-2.1104	63.396	124.800	160.682	121.020	330.029	361.801	207.667	174.011	192.676	118.366	327.228	393.788	372.743	271.018	376.638	119.400	0.000184	0.00031334	6.2029e-05	192.54	5.9874e-06	6.5773e-06	223.87	79.493	3.6219e-06	5.0831e-06	92.531	27.781	29.975	11.746	3.2565e-06	10.191	0.0006598	0.00067605	0.00018739	246.8	7.445e-06	7.412e-06	269.19	95.712	7.4232e-06	7.3582e-06	116.25	36.999	46.1	14.259	7.3481e-06	13.954	129.093	250.247	378.609	72.769	136.024	255.318	71.081	78.291	137.993	131.738	74.278	78.682	82.700	86.800	333.769	81.591	-8191	255	
875.025	1	1	0	0	0.11721	0.06203	0.13475	0.061623	0.15962	0.058228	0.062376	0.13045	0.17965	0.19307	0.16116	0.015499	0.054213	0.2141	0.20221	0.17708	-2.5292	-2	-2.4917	-2.7354	-2.1458	-2.8917	-2.5896	-2.0104	-2.8	-2.1333	-2.1437	-2.9188	-2.0771	-2.5938	-2.4646	-2.1833	408.382	124.328	250.026	182.457	171.063	400.314	95.894	378.828	61.946	237.884	237.069	242.989	138.479	308.845	270.273	340.167	0.00010036	0.00084775	0.00012357	192.46	3.4283e-06	1.4831e-06	224.96	78.855	8.9405e-06	1.2266e-05	91.172	27.843	29.876	11.7	6.1778e-07	10.279	0.00066194	0.00067642	0.00018987	245.81	7.3941e-06	7.4742e-06	267.49	95.281	7.4497e-06	7.4308e-06	115.73	37.026	46.201	14.281	7.4185e-06	14.071	407.379	163.818	332.677	73.013	87.386	164.681	71.432	78.965	215.011	354.500	73.784	78.512	82.999	87.191	412.931	82.267	-8191	255	
875.144	1	1	0	0	0.26323	0.15174	0.36157	0.19012	0.10291	0.22122	0.25585	0.3269	0.2983	0.22144	0.036557	0.22142	0.19617	0.1886	0.21717	0.16555	-2.55	-2.3604	-2.2	-2.8375	-2.1688	-2.7562	-2.7146	-2.1937	-2.6229	-2.325	-2.2458	-2.8854	-2.2021	-2.5292	-2.7375	-1.9604	268.555	334.681	375.915	69.008	112.024	339.614	147.885	336.825	91.904	273.747	395.339	156.593	275.710	66.861	62.634	397.761	6.9078e-05	0.00053625	7.4459e-05	195.17	3.7368e-06	3.7549e-06	227.06	79.7	4.1056e-06	3.0822e-06	93.206	27.935	30.05	11.756	4.17e-07	10.355	0.00066279	0.00067866	0.00018947	246.68	7.3778e-06	7.4298e-06	269.79	95.912	7.4162e-06	7.3546e-06	116.95	37.055	45.872	14.298	7.3623e-06	14.088	137.865	244.787	376.655	73.302	263.185	404.140	70.973	78.313	203.549	209.774	74.406	78.805	82.122	86.720	309.631	82.485	-8191	255	
875.215	1	1	0	0	0.014365	0.18774	0.078259	0.13079	0.069705	0.14626	0.16095	0.32765	0.053706	0.11764	0.21307	0.11726	0.13791	0.29795	0.17403	0.045623	-2.5021	-2.375	-1.9604	-2.8438	-2.1292	-2.2458	-3	-2.0854	-2.7875	-2.6437	-2.0708	-2.85	-2.1042	-2.2708	-2.7562	-2.1042	192.751	214.570	264.201	229.525	331.415	176.349	67.743	144.743	210.907	197.733	322.445	323.388	408.694	118.847	250.749	323.785	0.00020617	0.00033762	7.2194e-05	194.39	6.6085e-06	6.1402e-06	228.29	78.959	8.4955e-06	6.9615e-06	92.54	28.06	30.082	11.732	2.5064e-06	10.407	0.00065553	0.00066574	0.00018872	246.42	7.3881e-06	7.3617e-06	270.68	95.509	7.389e-06	7.3797e-06	116.77	37.285	45.947	14.379	7.3723e-06	14.075	158.989	283.062	91.402	73.213	194.843	209.050	71.416	78.556	393.822	373.739	75.222	78.832	83.590	87.257	227.150	82.135	-8191	255	
875.312	1	1	0	0	0.26041	0.08707	0.078955	0.15023	0.24577	0.23787	0.13053	0.2137	0.083272	0.038737	0.15817	0.061136	0.1479	0.25064	0.21931	0.16399	-2.2875	-2.4771	-2.1083	-2.7875	-2.2313	-2.1521	-2.9313	-1.9396	-2.5083	-2.5896	-2.1625	-2.7771	-2.1771	-2.2854	-2.8646	-2.1854	356.992	348.780	289.392	352.918	200.368	413.920	175.585	139.683	371.316	271.750	381.171	292.675	178.036	240.856	260.875	405.351	6.9901e-05	0.00060403	0.00016874	194.07	3.9503e-06	9.3241e-06	221.47	78.854	8.1375e-06	2.1507e-06	91.954	28.291	29.157	11.714	1.2242e-05	10.404	0.00065484	0.00067081	0.00018583	246.06	7.2705e-06	7.2799e-06	267.32	95.477	7.372e-06	7.3245e-06	116.22	37.176	45.656	14.317	7.3967e-06	14.044	151.585	210.589	118.370	73.041	247.167	332.171	71.368	77.776	109.762	85.094	74.702	78.263	82.372	86.879	246.468	81.563	-8191	255	
875.408	1	1	0	0	0.17042	0.11563	0.20915	0.29467	0.2504	0.066361	0.174	0.23422	0.065002	0.04831	0.1506	0.2584	0.053044	0.054284	0.24486	0.069442	-2.2604	-2.4271	-1.9167	-2.7438	-2.2479	-2.1937	-2.7792	-1.9896	-2.5104	-2.6562	-2.1396	-2.6854	-2.3167	-2.0146	-2.7979	-2.075	216.038	120.779	71.713	332.163	161.974	329.485	65.773	398.966	288.765	315.631	399.551	365.986	340.156	276.007	213.491	100.877	0.00021873	0.00076251	0.0003679	192.68	1.8352e-06	8.1434e-06	226.67	79.991	1.1403e-05	1.0532e-06	92.987	28.454	29.066	11.89	5.6701e-06	10.541	0.00064986	0.00066831	0.00018617	245.24	7.2649e-06	7.2879e-06	268.68	95.412	7.3479e-06	7.3043e-06	116.24	37.224	45.828	14.376	7.3245e-06	14.144	109.896	402.466	159.767	72.900	361.639	271.617	71.408	78.251	156.717	96.815	74.578	78.647	82.143	87.040	212.536	82.075	-8191	255	
875.528	1	1	0	0	0.23923	0.23744	0.13779	0.079739	0.27511	0.20674	0.11338	0.10593	0.18815	0.10546	0.17175	0.24196	0.24868	0.10289	0.21369	0.11743	-2.0042	-2.6354	-1.9625	-2.5833	-2.4458	-2.0125	-2.7958	-2.2229	-2.1375	-2.8167	-2.2687	-2.6729	-2.575	-1.925	-2.7333	-2.2146	337.097	151.853	364.708	262.622	63.855	118.206	241.969	299.085	89.319	295.189	414.754	393.658	87.282	403.620	212.369	389.057	0.00021553	0.00069138	0.00027999	194.71	4.0303e-06	6.4088e-06	228.87	79.577	5.7845e-06	5.5276e-06	93.163	28.182	29.929	11.834	2.0941e-06	10.455	0.00064695	0.00067215	0.00018507	245.61	7.2977e-06	7.2903e-06	269.41	95.741	7.2712e-06	7.3415e-06	116.75	37.369	45.99	14.384	7.3089e-06	14.188	193.573	60.979	214.098	73.388	86.552	67.327	71.159	77.974	128.428	241.366	74.232	78.441	83.269	87.096	257.179	80.752	-8191	255	
875.624	1	1	0	0	0.059705	0.14401	0.068311	0.1989	0.042278	0.19404	0.19153	0.27733	0.31321	0.15194	0.22588	0.16756	0.27385	0.22274	0.1024	0.078523	-1.7313	-2.6958	-1.9396	-2.4583	-2.5646	-1.8312	-2.8458	-2.3	-1.9458	-2.6937	-2.0833	-2.3646	-2.7313	-2.0375	-2.7229	-2.4062	280.052	348.896	228.383	342.787	282.636	322.642	271.415	109.378	395.497	121.648	329.420	202.544	156.273	227.567	230.405	234.363	8.8113e-05	0.00038513	0.00010273	194.58	2.4979e-06	7.0214e-06	223.91	79.943	3.2176e-06	2.9274e-06	92.144	27.951	29.4	11.897	5.2289e-06	10.501	0.00065394	0.00066286	0.00018423	245	7.3242e-06	7.2559e-06	267.83	95.499	7.2812e-06	7.2843e-06	115.96	37.114	45.853	14.38	7.2765e-06	14.15	235.695	121.447	416.757	73.213	300.338	365.703	71.219	78.822	210.381	66.864	74.724	78.544	82.459	86.972	156.776	81.861	-8191	255	
875.721	1	1	0	0	0.13202	0.24228	0.17819	0.085022	0.13187	0.19375	0.06481	0.11221	0.058113	0.15716	0.14021	0.18586	0.22379	0.13386	0.11006	0.2366	-1.5542	-2.6625	-2.0375	-2.4125	-2.8	-2.0271	-2.6771	-2.4271	-1.9625	-3.0354	-2.2146	-2.4458	-2.7542	-1.9813	-2.5583	-2.6208	348.145	401.872	118.011	246.982	218.132	286.591	371.558	95.030	402.193	404.596	255.728	90.178	330.924	68.296	72.519	196.388	0.0001206	0.0005879	0.00011848	193.66	1.4547e-06	5.3928e-06	226.83	79.419	6.2074e-06	5.4592e-06	91.47	28.443	30.629	11.787	7.9558e-06	10.514	0.00064697	0.00066356	0.00018303	245	7.2551e-06	7.2117e-06	266.41	94.998	7.1915e-06	7.2432e-06	115.58	37.085	45.692	14.33	7.2095e-06	14.125	417.724	411.592	259.308	73.751	150.490	103.746	71.561	78.051	303.066	92.335	74.802	79.201	83.293	86.284	76.288	81.930	-8191	255	
875.817	1	1	0	0	0.07684	0.18946	0.16202	0.14561	0.10227	0.25272	0.29014	0.24759	0.14245	0.080998	0.3915	0.25064	0.11192	0.19243	0.23313	0.013639	-1.7396	-2.5521	-2.0479	-2.2271	-2.775	-1.9062	-2.7104	-2.6292	-1.9167	-2.9208	-2.2062	-2.2062	-2.7833	-1.9917	-2.675	-2.6562	106.414	98.660	280.630	284.209	161.827	305.165	299.653	108.615	350.606	288.182	366.963	159.309	359.879	225.293	209.177	139.314	0.00010685	0.0010207	0.00024793	192.64	3.5087e-06	9.5239e-06	224.16	79.202	4.1163e-06	2.0421e-06	92.202	28.67	29.982	11.999	5.9655e-06	10.718	0.00064097	0.00065714	0.00018229	244.73	7.2096e-06	7.2386e-06	267.74	95.124	7.252e-06	7.2793e-06	116.14	37.393	46.07	14.498	7.205e-06	14.345	151.558	320.841	89.493	72.627	411.527	216.003	70.969	78.640	284.650	319.545	74.700	78.631	82.832	86.384	190.889	82.566	-8191	255	
875.913	1	1	0	0	0.24717	0.15993	0.14028	0.39915	0.087345	0.12769	0.086701	0.096074	0.26832	0.035097	0.24214	0.16579	0.2964	0.082019	0.15319	0.25223	-1.5375	-2.7188	-2.3167	-2.0604	-2.8708	-2.0458	-2.5979	-2.6042	-2.1188	-2.7396	-2.4833	-2.05	-2.7667	-2.275	-2.5021	-2.6021	313.427	416.976	243.128	324.683	102.326	93.600	376.303	64.487	113.189	150.375	400.663	276.816	282.982	384.682	326.122	309.966	0.00012512	0.00041842	0.00016656	193.68	3.8242e-06	3.6161e-06	227.32	79.872	3.7764e-06	8.4825e-06	93.022	28.192	30.028	12.03	4.4639e-06	10.687	0.00064535	0.00066199	0.00018195	245.08	7.1953e-06	7.1826e-06	268.89	95.724	7.1469e-06	7.2635e-06	116.85	37.557	45.887	14.523	7.2037e-06	14.352	156.435	122.183	218.210	73.575	276.751	261.672	70.990	78.185	199.457	154.788	74.162	78.601	83.423	86.688	401.395	81.566	-8191	255	
876.009	1	1	0	0	0.22467	0.20288	0.12003	0.079481	0.28695	0.26683	0.20487	0.14176	0.19697	0.31906	0.14289	0.2169	0.1478	0.085752	0.30132	0.14412	-1.5667	-2.4938	-2.4458	-2.1229	-2.6729	-2.0438	-2.2271	-2.7167	-2.0479	-2.6479	-2.6688	-2.0187	-2.6229	-2.1542	-2.3167	-2.9688	104.929	154.157	317.425	108.448	323.400	347.766	205.254	77.947	310.519	296.601	263.977	320.372	76.716	393.432	288.657	61.828	0.00015443	0.00036392	0.00019166	192.19	5.5157e-06	4.9793e-06	226.01	80.218	7.6395e-06	6.1012e-06	92.689	28.358	30.106	12.001	2.3545e-06	10.837	0.00063958	0.00066105	0.00018427	244.18	7.312e-06	7.2011e-06	267.13	95.77	7.1589e-06	7.2675e-06	116.18	37.216	46.105	14.507	7.1888e-06	14.42	154.835	353.110	278.049	72.885	133.112	399.536	70.725	77.997	208.461	136.966	74.641	78.231	82.139	86.952	110.384	81.200	-8191	255	
876.105	1	1	0	0	0.14575	0.22303	0.19597	0.044769	0.13348	0.12609	0.15297	0.055198	0.17461	0.20277	0.091603	0.22062	0.020966	0.14126	0.15193	0.06177	-1.5562	-2.6458	-2.4229	-1.9479	-2.6896	-2.1229	-2.1708	-2.8979	-2.1833	-2.6333	-2.6104	-2.15	-2.7167	-2.1729	-2.2021	-2.8875	315.994	310.827	90.209	200.348	360.906	393.937	77.619	111.026	289.987	315.471	414.380	373.516	339.216	103.926	261.021	221.741	0.00017986	0.0009717	0.00027998	191.29	8.902e-06	7.1799e-06	221.69	79.883	2.8037e-06	4.6477e-06	93.42	28.488	29.84	11.978	5.5867e-06	10.89	0.00064066	0.00065824	0.0001838	244.19	7.2168e-06	7.1787e-06	267.44	95.839	7.1946e-06	7.2436e-06	116.87	37.314	45.693	14.503	7.1561e-06	14.421	129.175	156.841	194.997	73.150	308.464	232.801	70.892	78.071	204.564	118.631	74.013	78.361	82.467	86.123	327.869	81.162	-8191	255	
876.226	1	1	0	0	0.1488	0.19429	0.15672	0.16996	0.16254	0.085369	0.27007	0.36113	0.16595	0.20969	0.28518	0.19088	0.12268	0.18909	0.2108	0.12439	-1.6875	-2.5312	-2.6083	-1.9229	-2.5	-2.3854	-2.0417	-2.7333	-1.975	-2.3354	-2.7521	-2.0187	-2.5333	-2.4917	-1.8771	-2.8937	189.757	84.074	288.106	140.628	371.228	343.769	358.567	411.533	327.969	368.030	315.612	81.938	340.872	60.131	143.771	83.865	0.00010068	0.00059599	0.00010395	194.5	4.098e-06	5.7688e-06	224.82	79.879	9.8079e-07	2.8772e-06	94.144	28.815	29.658	12.066	4.7726e-06	10.997	0.00063509	0.00065424	0.00018281	244.75	7.2527e-06	7.1598e-06	268.76	95.793	7.146e-06	7.2797e-06	117.37	37.492	45.935	14.568	7.2085e-06	14.53	156.573	126.262	324.653	72.943	380.818	170.678	70.793	77.810	314.800	188.546	73.999	78.369	81.101	86.339	414.926	81.399	-8191	255	
876.320	1	1	0	0	0.25285	0.18613	0.22991	0.10118	0.11746	0.16246	0.089593	0.061649	0.092913	0.14069	0.16505	0.24341	0.17239	0.1273	0.2527	0.13082	-1.8354	-2.2229	-2.6833	-1.8646	-2.5625	-2.5875	-1.9729	-2.675	-2.0708	-2.1958	-2.5729	-1.6562	-2.4688	-2.6083	-2.0563	-2.7104	413.594	270.300	156.427	112.169	387.115	327.441	68.374	378.575	222.995	359.098	174.147	138.902	398.778	263.950	222.148	62.018	7.4623e-05	0.00042464	0.00014917	192.78	5.5142e-06	9.1691e-06	227.79	81.019	2.4113e-06	1.294e-06	94.231	28.735	30.596	11.958	8.0753e-06	10.861	0.00064038	0.00065484	0.00018342	245.1	7.2839e-06	7.2932e-06	270.41	96.863	7.1546e-06	7.2911e-06	117.79	37.76	46.125	14.637	7.2794e-06	14.556	163.383	379.569	215.941	73.336	285.966	115.322	71.251	77.623	371.757	354.062	74.283	78.386	82.540	86.175	323.617	80.821	-8191	255	
876.416	1	1	0	0	0.12294	0.20474	0.17058	0.063082	0.099056	0.21417	0.14124	0.11327	0.13175	0.074224	0.16282	0.23132	0.092446	0.34441	0.10166	0.2559	-1.7417	-2.0417	-2.6229	-2.1833	-2.325	-2.6562	-2.0146	-2.5729	-2.1083	-2.0104	-2.8104	-2.1521	-2.3125	-2.7729	-1.8563	-2.6333	213.535	215.312	416.759	122.924	341.282	180.688	62.809	153.142	123.281	390.905	395.898	386.042	244.437	348.119	384.763	320.666	0.00019986	0.0003748	0.00013106	192.86	4.7739e-06	3.8034e-06	226.29	80.908	4.8053e-06	3.103e-06	93.543	28.659	30.66	12.062	7.7626e-06	10.947	0.00064242	0.00066119	0.00018369	244.62	7.2298e-06	7.273e-06	268.35	96.661	7.2988e-06	7.233e-06	117.3	37.524	46.06	14.62	7.2375e-06	14.52	170.879	205.501	245.749	72.852	124.615	108.917	70.516	78.159	147.552	240.856	73.368	77.813	81.620	85.493	236.963	81.487	-8191	255	
876.513	1	1	0	0	0.18822	0.18346	0.017012	0.036131	0.19293	0.12565	0.10809	0.14745	0.17538	0.044891	0.1291	0.38767	0.13913	0.06852	0.033483	0.22038	-1.9083	-2.0812	-2.7708	-1.9146	-2.2792	-2.6229	-1.7208	-2.6583	-2.3521	-1.8438	-2.7958	-1.9604	-2.2667	-2.4604	-2.0125	-2.5312	214.152	239.712	269.188	217.245	142.797	177.028	368.039	135.893	311.214	341.364	82.228	308.656	209.218	105.230	369.920	370.287	6.7165e-05	0.00081877	0.0003389	193.32	9.0956e-06	7.9911e-06	224.74	80.034	4.3756e-06	3.4986e-06	92.937	28.354	30.29	12.15	8.0625e-06	10.8	0.00064055	0.00065597	0.00018374	244.45	7.1923e-06	7.2633e-06	268.43	96.057	7.1996e-06	7.2253e-06	117.07	37.397	46.03	14.637	7.2501e-06	14.485	236.424	98.369	210.001	73.031	151.633	113.039	71.107	77.925	374.154	242.971	74.007	78.004	81.543	86.411	277.534	81.049	-8191	255	
876.609	1	1	0	0	0.17018	0.059253	0.13124	0.2959	0.10706	0.16237	0.11298	0.09462	0.18885	0.033794	0.27378	0.11188	0.084862	0.35753	0.16118	0.067978	-2.0646	-2.0333	-2.7292	-2.2021	-2.2687	-2.7292	-1.9792	-2.2604	-2.5479	-1.6896	-2.7583	-2.2542	-1.9271	-2.5979	-1.9562	-2.2958	196.853	239.400	83.061	69.998	196.899	255.372	346.979	193.557	397.357	305.238	105.133	279.710	385.387	343.044	266.133	116.979	0.00020144	0.00072713	0.00018109	192.4	6.5513e-06	3.1004e-06	227.47	81.194	4.4511e-06	7.6554e-06	94.213	28.678	29.714	12.177	5.5607e-06	10.902	0.00064358	0.0006565	0.00018393	244.79	7.2036e-06	7.1981e-06	269.15	96.61	7.2242e-06	7.2038e-06	117.81	37.657	46.049	14.684	7.2181e-06	14.601	128.441	115.940	169.640	72.506	116.994	143.656	70.729	77.851	123.873	293.589	74.278	78.643	82.505	86.225	304.230	81.720	-8191	255	
876.705	1	1	0	0	0.28304	0.074077	0.079051	0.16557	0.12175	0.047983	0.045687	0.091604	0.26092	0.16179	0.152	0.21027	0.11148	0.11158	0.11773	0.1691	-2.2479	-1.7083	-2.5604	-2.4021	-2.0812	-2.7208	-2.0604	-2.4271	-2.5729	-2.0042	-2.7333	-2.3875	-1.9958	-2.6167	-2.0625	-2.1813	117.093	357.109	83.298	152.543	226.154	276.305	402.607	226.772	411.454	134.755	403.864	418.697	321.372	393.155	77.426	393.773	0.0001122	0.00084115	0.00013378	193.8	6.4974e-06	2.1054e-06	226.24	80.768	5.436e-06	3.1923e-06	93.741	28.434	30.308	12.151	8.5279e-06	10.923	0.00064804	0.00065653	0.000185	244.88	7.2065e-06	7.1855e-06	267.43	96.23	7.1446e-06	7.1243e-06	117.25	37.387	45.945	14.641	7.1045e-06	14.457	163.959	382.008	84.662	73.185	230.498	75.943	70.639	77.924	124.125	399.881	74.983	77.818	82.947	86.082	359.625	81.074	-8191	255	
876.825	1	1	0	0	0.14454	0.058719	0.1588	0.10077	0.30576	0.12236	0.17763	0.22607	0.061326	0.086928	0.10929	0.043109	0.13433	0.15592	0.10411	0.17039	-2.2708	-2.0021	-2.4667	-2.4854	-1.8917	-2.7479	-2.0958	-2.1458	-2.7667	-1.8875	-2.3979	-2.5375	-2.0042	-2.825	-2.2458	-2.0438	302.010	120.727	199.098	394.855	132.787	144.114	194.211	174.010	229.912	112.676	144.089	61.768	368.131	60.992	417.135	117.133	9.3715e-05	0.00054972	2.2422e-05	193.41	2.8226e-06	8.0448e-06	225.84	80.861	4.8992e-06	2.8113e-06	93.637	28.626	29.727	12.077	7.9168e-06	10.916	0.0006379	0.00065264	0.0001836	243.47	7.1961e-06	7.2307e-06	267.31	96.176	7.1754e-06	7.1673e-06	116.58	37.522	45.739	14.583	7.0737e-06	14.427	146.587	288.055	223.899	72.494	196.050	180.925	70.740	78.013	185.277	386.601	74.355	78.336	81.727	86.345	193.301	81.119	-8191	255	
876.922	1	1	0	0	0.057852	0.042755	0.15545	0.14133	0.18837	0.22332	0.042206	0.0045689	0.20456	0.089767	0.19894	0.12744	0.1716	0.034856	0.12851	0.2614	-2.3792	-2.0542	-2.3688	-2.6542	-1.8896	-2.8438	-2.2792	-2.2354	-2.8521	-2.1167	-2.3521	-2.7604	-1.9792	-2.6125	-2.4375	-2.0167	247.515	304.985	411.355	382.772	326.472	90.468	385.585	95.496	356.617	169.817	320.757	124.822	197.886	327.166	264.729	349.605	8.6797e-05	0.00076232	0.0001274	193.35	1.439e-06	1.1158e-05	225.98	79.943	1.1696e-05	5.0788e-06	94.427	29.121	30.114	11.998	6.755e-06	10.907	0.00063836	0.00065154	0.00018178	244.69	7.1364e-06	7.2227e-06	268.17	96.097	7.1849e-06	7.1602e-06	117.32	37.514	45.751	14.623	7.1785e-06	14.576	181.913	192.639	382.787	73.169	247.041	418.964	70.937	78.203	176.504	154.701	73.949	77.636	82.092	86.568	205.680	81.791	-8191	255	
877.018	1	1	0	0	0.10941	0.20405	0.11669	0.062397	0.085049	0.35793	0.35075	0.097383	0.23724	0.15012	0.22541	0.094796	0.13815	0.19833	0.17905	0.16082	-2.3063	-2.0854	-2.2646	-2.7188	-1.9062	-2.7188	-2.5292	-2.0167	-2.7062	-2.1521	-2.3479	-2.6646	-1.9438	-2.5354	-2.4667	-2.0208	172.138	374.317	129.435	120.852	73.866	410.446	73.834	369.643	281.015	254.819	333.430	256.458	216.332	154.240	406.007	255.389	5.5857e-05	0.0004577	0.00013478	193.82	6.1204e-06	5.4679e-06	229.32	81.196	7.0447e-07	1.1948e-06	94.174	28.913	29.975	12.216	3.5405e-06	11.118	0.00063925	0.00065467	0.00018294	245.24	7.1923e-06	7.2791e-06	268.87	96.681	7.1821e-06	7.1517e-06	117.78	37.754	45.926	14.733	7.2001e-06	14.618	217.228	379.661	286.679	72.633	100.613	388.422	70.834	78.254	364.758	207.456	73.995	78.550	82.263	86.385	205.031	81.283	-8191	255	
877.089	1	1	0	0	0.16819	0.11072	0.25301	0.14685	0.30443	0.021131	0.19399	0.14091	0.095918	0.0249	0.065578	0.12379	0.24466	0.17455	0.21284	0.19748	-2.2792	-2.1792	-2.3	-2.9042	-1.8896	-2.5271	-2.4667	-1.7729	-2.675	-2.0792	-2.1292	-2.8563	-1.8937	-2.3979	-2.6229	-1.8167	363.837	300.778	326.401	271.897	176.994	157.898	352.339	119.289	290.684	76.655	190.917	87.874	85.919	119.239	227.907	282.131	0.00012012	0.00066362	0.00011159	193.64	2.4655e-06	3.6141e-06	224.85	80.824	2.3415e-06	4.7973e-06	94.557	28.734	29.538	12.14	7.6547e-06	10.995	0.00064634	0.00065614	0.00018521	244.21	7.1537e-06	7.2456e-06	267.64	95.952	7.1892e-06	7.1439e-06	117.14	37.41	45.646	14.632	7.1973e-06	14.483	156.242	92.569	327.476	72.148	89.905	190.228	70.520	77.782	320.134	110.657	73.829	77.572	82.184	86.896	195.066	81.223	-8191	255	
877.208	1	1	0	0	0.15792	0.080507	0.14254	0.16577	0.3841	0.38488	0.11059	0.181	0.18593	0.19598	0.1396	0.15989	0.19887	0.16379	0.25569	0.19781	-2.2583	-2.2771	-2.0062	-2.7292	-1.975	-2.2917	-2.7646	-1.8375	-2.7271	-2.2875	-1.9896	-2.7833	-1.9854	-2.1792	-2.525	-1.9625	90.492	310.401	341.959	359.101	375.243	322.494	254.651	362.832	218.581	403.413	127.467	251.602	301.290	305.223	378.005	374.775	8.6934e-05	0.00072086	0.00011034	192.26	5.851e-06	1.3328e-05	225.44	79.93	4.0847e-06	7.1723e-06	93.231	29.095	30.673	11.917	4.2965e-06	11.026	0.00064166	0.00065164	0.0001826	244.43	7.1337e-06	7.1848e-06	267.62	95.968	7.1895e-06	7.2049e-06	117.1	37.505	46.013	14.595	7.2247e-06	14.476	87.472	309.666	164.262	73.208	231.502	182.144	70.929	78.405	96.553	207.868	73.604	78.011	81.974	86.839	121.734	80.676	-8191	255	
877.304	1	1	0	0	0.17746	0.24625	0.11712	0.10487	0.32982	0.15721	0.070184	0.2222	0.24166	0.13107	0.038663	0.32182	0.21095	0.070055	0.059869	0.051229	-2.2313	-2.4708	-2.1021	-2.6708	-2.2083	-2.0833	-2.6167	-2.0625	-2.5354	-2.4396	-1.8271	-2.7125	-2.2646	-2.1688	-2.7521	-2.0771	61.211	115.736	120.754	122.134	197.791	340.568	290.970	323.633	113.360	206.801	284.725	73.520	186.787	383.503	239.789	257.479	9.8058e-05	0.00060954	2.039e-05	192.14	6.6453e-06	6.743e-06	225.8	81.04	5.204e-06	5.1924e-06	94.389	28.977	30.449	12.121	8.9874e-06	10.888	0.00064313	0.00065313	0.00018182	245.06	7.1341e-06	7.1702e-06	268.72	96.279	7.2115e-06	7.2079e-06	117.59	37.749	46.015	14.709	7.2545e-06	14.581	117.319	61.712	403.229	72.924	397.756	196.798	71.145	77.813	66.304	236.142	74.651	78.580	84.196	86.506	302.228	81.964	-8191	255	
877.401	1	1	0	0	0.10162	0.1988	0.12081	0.12434	0.22231	0.14722	0.10835	0.10131	0.19008	0.062117	0.28188	0.22447	0.26005	0.11004	0.13573	0.10268	-2.0312	-2.6	-2	-2.7292	-2.2208	-2.1396	-2.65	-1.7771	-2.4854	-2.5646	-1.7917	-2.7333	-2.0875	-2.075	-2.775	-2.0167	251.236	368.028	204.683	418.099	277.560	170.369	162.537	152.673	87.257	99.719	70.411	303.008	80.858	76.433	258.814	321.217	0.00017977	0.00019331	0.00014957	194.43	2.7492e-06	7.8247e-06	228.71	79.896	4.7519e-06	2.1145e-06	93.854	28.935	29.524	12.245	1.0732e-05	10.903	0.00064455	0.00066065	0.00018175	244.8	7.2678e-06	7.2068e-06	269.62	95.732	7.1876e-06	7.1892e-06	116.96	37.709	45.957	14.685	7.2137e-06	14.53	140.042	145.205	65.867	73.179	365.866	371.557	71.080	78.362	281.431	262.405	73.939	78.452	81.959	87.013	100.712	82.111	-8191	255	
877.497	1	1	0	0	0.18811	0.30018	0.23483	0.21221	0.20301	0.10849	0.25862	0.11931	0.13377	0.033004	0.2524	0.16577	0.23774	0.10166	0.15933	0.11531	-1.8625	-2.575	-1.6542	-2.5875	-2.4604	-2.1042	-2.6771	-2.0979	-2.1021	-2.7208	-2.125	-2.4333	-2.5771	-1.9458	-2.6917	-2.1458	200.568	152.632	324.859	340.840	166.423	111.385	245.570	178.821	260.458	416.853	168.862	368.215	419.062	95.201	307.319	387.548	2.6952e-05	0.00064278	0.00016635	190.14	4.5214e-06	3.7641e-07	225.45	80.224	2.736e-06	8.0308e-06	92.492	28.462	30.009	12.268	2.2144e-06	10.891	0.00064415	0.00065924	0.00018329	244.96	7.1618e-06	7.231e-06	266.76	95.7	7.2439e-06	7.22e-06	116.7	37.439	45.923	14.637	7.2221e-06	14.43	321.501	143.515	95.603	72.992	295.787	370.442	70.741	78.290	143.211	203.125	73.983	78.260	81.999	86.152	351.060	81.285	-8191	255	
877.617	1	1	0	0	0.11287	0.056704	0.20647	0.13251	0.057112	0.22025	0.088772	0.12792	0.11589	0.26284	0.22858	0.26824	0.088687	0.13658	0.17945	0.02847	-2.025	-2.8229	-1.9854	-2.6063	-2.5333	-2.0854	-2.8292	-2.1271	-2.0333	-2.7833	-2.0583	-2.5083	-2.6542	-1.9167	-2.7	-2.3917	213.795	347.419	66.500	239.026	258.764	192.357	174.839	226.080	221.997	89.421	192.871	113.681	185.391	319.973	235.369	373.810	0.00011583	0.00038982	0.00013099	193.2	2.5506e-06	1.2625e-06	224.28	80.757	4.2003e-06	1.4294e-06	93.036	28.472	30.315	12.061	7.0451e-06	10.831	0.00064585	0.00066291	0.00018262	244.62	7.2113e-06	7.2414e-06	267.25	96.222	7.2374e-06	7.3121e-06	117.01	37.548	46.596	14.586	7.297e-06	14.487	166.477	232.373	391.780	74.071	347.378	350.548	71.005	78.656	286.862	297.102	74.069	78.180	83.066	86.328	189.040	81.705	-8191	255	
877.689	1	1	0	0	0.24232	0.30727	0.1257	0.1489	0.13686	0.25577	0.10784	0.14583	0.4129	0.17661	0.18561	0.21123	0.38383	0.14572	0.15698	0.025779	-1.6146	-2.8625	-1.8292	-2.4583	-2.5187	-1.9792	-2.8063	-2.2583	-1.825	-2.7979	-2.0042	-2.1917	-2.6813	-1.8521	-2.8667	-2.3979	277.948	136.359	234.651	166.536	411.291	79.028	236.057	67.748	392.567	292.317	384.153	299.188	230.767	179.000	253.534	402.984	0.00020165	0.00056471	0.00019276	195.55	4.8214e-06	3.8596e-06	227.16	80.719	1.4169e-06	2.46e-06	94.549	28.96	30.267	12.166	1.28e-05	11.059	0.00064737	0.00066397	0.0001837	246.08	7.3038e-06	7.2803e-06	269.64	96.474	7.2275e-06	7.2793e-06	117.55	37.807	46.275	14.572	7.2979e-06	14.542	102.341	96.845	91.483	73.661	144.663	106.299	70.916	78.175	406.900	110.466	74.538	78.508	82.814	85.763	394.272	82.153	-8191	255	
877.785	1	1	0	0	0.25499	0.039157	0.056343	0.05412	0.18458	0.49374	0.12884	0.11886	0.31025	0.16443	0.21147	0.13544	0.21108	0.33564	0.13892	0.078397	-1.6083	-2.85	-2.0938	-2.3708	-2.6375	-2.075	-2.7292	-2.3625	-1.8687	-2.7792	-2.1937	-2.1896	-2.6937	-1.7292	-2.7542	-2.3812	250.991	257.338	335.510	317.845	362.006	299.575	375.230	371.870	275.547	99.290	89.322	143.155	209.723	151.321	180.400	326.970	4.8716e-06	0.00040281	0.00013278	195.45	8.0944e-06	6.0658e-06	226.99	79.641	9.3703e-06	5.2233e-06	92.874	28.547	29.723	11.981	1.4243e-05	10.967	0.00064601	0.00066403	0.00018452	246.18	7.2811e-06	7.3188e-06	269	96.031	7.2395e-06	7.2994e-06	116.75	37.347	45.828	14.49	7.2334e-06	14.384	193.929	195.290	245.490	73.911	171.360	247.395	71.186	78.330	74.298	168.904	74.094	78.777	83.365	86.508	107.696	81.755	-8191	255	
877.906	1	1	0	0	0.19335	0.28307	0.059313	0.13596	0.29702	0.22716	0.36841	0.17389	0.11479	0.077551	0.18947	0.13416	0.12192	0.31777	0.1125	0.028263	-1.4229	-2.6771	-2.3937	-2.0812	-2.7562	-2.0292	-2.5792	-2.6042	-2.05	-2.7021	-2.475	-2.0604	-2.6646	-2	-2.4979	-2.6312	194.768	393.097	360.401	195.750	392.694	125.384	157.342	398.463	332.952	307.181	237.856	324.730	286.219	169.949	318.808	166.464	0.00018465	0.00025837	9.02e-05	193.38	4.1491e-06	6.4635e-06	225.58	81.099	6.3815e-06	1.2543e-05	92.145	28.394	29.762	11.876	3.014e-06	10.771	0.00063851	0.00066069	0.00018346	244.04	7.2693e-06	7.2122e-06	268.78	95.688	7.1947e-06	7.2584e-06	115.85	37.417	45.966	14.456	7.2905e-06	14.325	163.527	192.771	370.536	72.820	119.227	256.548	70.975	78.648	129.493	411.590	74.330	78.560	82.720	86.100	310.949	81.543	-8191	255	
878.002	1	1	0	0	0.13555	0.11063	0.31445	0.19424	0.10088	0.090572	0.26668	0.29011	0.18187	0.20055	0.29359	0.13596	0.06746	0.30276	0.064571	0.28628	-1.5896	-2.5167	-2.375	-2.0187	-2.8688	-1.9312	-2.3875	-2.5771	-2.1583	-2.6688	-2.4562	-2.1229	-2.7708	-2.2854	-2.4271	-2.7083	332.321	373.478	263.119	410.777	344.689	63.571	118.353	126.079	167.910	101.698	98.857	261.050	354.949	78.944	342.265	230.757	0.00016613	0.00025468	0.00014381	191.68	1.4773e-06	6.3e-06	229.77	79.952	2.5119e-06	4.1282e-06	94.044	28.58	29.566	11.947	4.4567e-06	10.81	0.00064046	0.00065744	0.00018313	244.28	7.2022e-06	7.1086e-06	268.62	95.879	7.1491e-06	7.1652e-06	116.38	37.304	45.663	14.468	7.2057e-06	14.397	103.974	309.696	240.888	73.154	197.421	216.150	71.247	78.360	73.803	121.507	73.432	78.446	82.860	86.627	181.678	81.591	-8191	255	
878.098	1	1	0	0	0.13594	0.072386	0.32297	0.096047	0.039423	0.27704	0.10672	0.30245	0.19423	0.12203	0.23707	0.064056	0.11267	0.19547	0.066118	0.19134	-1.5042	-2.6	-2.6667	-2.0625	-2.7083	-2.2458	-2.1063	-2.9	-1.9688	-2.7667	-2.5875	-1.8813	-2.8333	-2.15	-2.1875	-2.6646	188.452	325.445	282.317	389.409	217.428	257.156	141.616	200.832	393.185	365.102	328.468	137.830	323.672	95.120	243.888	233.113	0.00014112	0.00071129	0.00023843	192.68	3.5938e-06	2.1264e-06	227.65	80.028	6.0944e-06	1.1929e-05	93.539	28.78	30.858	12.098	5.9318e-06	10.778	0.00063375	0.0006628	0.00018302	244.58	7.2182e-06	7.1708e-06	270.07	95.818	7.1711e-06	7.1984e-06	116.97	37.317	45.727	14.527	7.1533e-06	14.303	135.910	164.622	76.161	72.915	243.256	417.813	72.123	78.522	389.928	242.811	73.823	78.934	83.626	87.265	297.921	81.362	-8191	255	
878.217	1	1	0	0	0.19526	0.3056	0.30026	0.13002	0.22084	0.15389	0.19051	0.29262	0.14856	0.19758	0.21933	0.1176	0.13858	0.21777	0.04111	0.11615	-1.7542	-2.4146	-2.4854	-1.825	-2.6375	-2.3208	-2.0146	-2.8021	-2.0083	-2.3688	-2.7771	-2.0438	-2.7792	-2.4125	-1.8896	-2.8583	289.971	359.602	284.867	191.630	138.249	372.103	242.834	292.250	102.852	194.202	376.696	115.419	106.779	124.339	91.032	360.243	0.00012318	0.00063779	0.00010967	193.99	4.0094e-06	7.19e-06	224.43	80.011	8.9554e-06	1.3335e-06	91.809	28.304	29.657	11.92	1.2582e-05	10.791	0.00063227	0.00065694	0.00018036	243.56	7.1968e-06	7.1489e-06	268.18	95.407	7.1121e-06	7.1878e-06	116.54	37.146	46.053	14.437	7.1891e-06	14.253	149.386	320.295	140.644	73.060	391.946	244.637	71.436	78.106	165.263	129.759	73.989	79.258	83.447	86.663	185.645	81.399	-8191	255	
878.313	1	1	0	0	0.22444	0.042532	0.13712	0.18921	0.15908	0.13542	0.074182	0.28039	0.31342	0.080945	0.10743	0.023881	0.064197	0.21916	0.236	0.082131	-1.7354	-2.1375	-2.5563	-1.8937	-2.3417	-2.3042	-2.1208	-2.6083	-2.1375	-2.4521	-2.5708	-1.95	-2.4354	-2.4854	-2.05	-2.8187	81.251	241.078	118.798	153.362	216.757	219.938	412.363	287.442	155.368	236.431	200.094	61.269	293.486	370.804	207.816	81.786	0.00012168	0.00078314	1.8502e-05	194.14	4.5128e-06	1.0068e-05	226	80.524	3.8362e-06	1.769e-06	92.568	28.291	30.143	11.793	1.0699e-06	10.614	0.00063546	0.00065619	0.00018272	243.51	7.1607e-06	7.194e-06	267.27	95.778	7.1681e-06	7.1622e-06	116.05	37.126	45.629	14.368	7.1725e-06	14.251	171.474	83.549	314.155	73.174	218.842	351.583	70.549	77.996	139.871	238.223	74.725	78.665	82.349	86.355	207.985	81.668	-8191	255	
878.385	1	1	0	0	0.35582	0.055352	0.066137	0.27914	0.16665	0.17697	0.077519	0.19544	0.17872	0.14699	0.22229	0.31181	0.37846	0.090603	0.21261	0.11065	-1.9667	-2.2521	-2.65	-1.9021	-2.4104	-2.6625	-1.9146	-2.9875	-2.1229	-2.1979	-2.625	-1.9542	-2.3708	-2.6208	-1.9688	-2.8812	175.601	274.306	140.854	415.066	256.493	172.974	370.495	64.353	232.127	141.346	382.729	297.468	72.505	286.546	112.991	217.769	0.00014934	0.00011962	7.2539e-05	192.72	6.3865e-06	5.1626e-06	228.95	79.591	6.0808e-06	4.2166e-06	93.814	28.269	30.232	11.892	5.1034e-06	10.757	0.00064469	0.00066192	0.00018478	245.3	7.2126e-06	7.242e-06	271.07	95.712	7.1703e-06	7.2345e-06	117.06	37.357	45.85	14.393	7.2077e-06	14.307	148.216	181.638	153.972	73.594	193.280	139.214	71.034	78.354	233.305	373.381	74.405	78.186	82.147	86.131	119.571	82.139	-8191	255	
878.505	1	1	0	0	0.43309	0.25585	0.088315	0.1542	0.059104	0.15362	0.3494	0.21961	0.34268	0.148	0.115	0.10635	0.10812	0.20328	0.15383	0.16682	-1.9646	-1.9271	-2.7625	-2.0896	-2.2396	-2.6333	-1.8667	-2.5854	-2.3187	-2.0938	-2.6667	-2.15	-2.3479	-2.6104	-2.0208	-2.5729	110.247	307.178	87.608	362.464	244.776	247.941	169.317	342.915	182.846	316.900	379.275	297.906	417.005	60.216	268.979	368.653	9.6191e-05	0.00057687	0.00014418	195.15	8.7632e-06	9.0534e-06	228.77	79.065	1.549e-06	5.8237e-06	91.796	28.573	30.143	11.782	2.7915e-06	10.497	0.00064911	0.00066449	0.00018545	246.62	7.3269e-06	7.3665e-06	272.64	96.257	7.4211e-06	7.3239e-06	116.83	37.475	46.302	14.352	7.3676e-06	14.225	151.842	346.879	308.255	72.110	399.654	357.730	71.040	78.161	147.009	251.282	73.310	78.461	81.746	86.476	395.057	81.225	-8191	255	
878.602	1	1	0	0	0.14262	0.11505	0.054533	0.38762	0.1128	0.10186	0.07421	0.06177	0.042842	0.26387	0.2724	0.011221	0.12608	0.09208	0.20941	0.17032	-2.0729	-1.8958	-2.8	-2.2	-2.125	-2.775	-1.9188	-2.3958	-2.525	-1.8167	-2.8208	-2.2479	-2.1104	-2.7708	-1.9813	-2.5125	342.026	281.299	332.438	357.734	210.144	413.830	119.464	161.366	417.467	222.312	397.481	347.706	267.074	187.076	339.995	60.371	0.00014047	0.00062988	0.00022344	194.16	3.129e-06	4.7049e-06	225.3	79.866	5.1092e-06	1.0285e-05	92.123	28.158	30.045	11.733	2.1454e-06	10.351	0.0006609	0.00067681	0.00018953	247.46	7.4411e-06	7.4653e-06	270.99	96.368	7.4381e-06	7.4653e-06	117.2	37.45	46.339	14.371	7.4547e-06	14.128	192.581	294.828	163.902	72.522	199.246	379.157	70.537	78.138	130.051	166.439	74.019	77.366	82.554	86.206	250.887	81.173	-8191	255	
878.698	1	1	0	0	0.065223	0.11793	0.16377	0.12737	0.13124	0.030274	0.16667	0.21384	0.16237	0.091713	0.14015	0.2052	0.098134	0.13305	0.11029	0.068662	-2.3479	-1.9208	-2.7396	-2.2188	-2.125	-2.7687	-1.9937	-2.5708	-2.6063	-1.7854	-2.5312	-2.2271	-2.0042	-2.6917	-1.9896	-2.2208	189.964	268.618	86.485	76.045	221.643	285.250	178.299	391.217	329.490	408.348	397.886	61.797	216.538	149.755	147.427	211.568	0.0001136	0.00044838	0.00016619	193.68	3.1641e-06	1.3944e-05	229.42	79.796	4.4822e-06	1.1804e-06	92.172	27.895	29.285	11.797	5.0721e-06	10.314	0.0006616	0.00067685	0.00019038	248.64	7.4229e-06	7.4796e-06	273.18	96.43	7.4406e-06	7.4651e-06	117.68	37.588	46.476	14.401	7.4703e-06	14.201	318.418	183.340	415.427	73.364	121.563	245.250	71.106	78.457	123.682	238.283	73.654	78.202	82.802	86.268	60.638	80.654	-8191	255	
878.794	1	1	0	0	0.11201	0.060017	0.082701	0.22991	0.23784	0.22128	0.26207	0.14888	0.097693	0.17712	0.1625	0.26699	0.092018	0.10131	0.1232	0.10742	-2.3542	-2	-2.6188	-2.4437	-2.0042	-2.8917	-2.0833	-2.1208	-2.7792	-1.8375	-2.5354	-2.3	-2.0042	-2.7729	-2.1188	-2.3271	67.881	85.400	139.208	174.450	395.864	90.575	367.079	351.290	95.383	377.952	357.540	251.918	188.116	269.905	106.440	226.463	0.00017658	0.00047633	0.00020044	193.75	3.615e-06	4.4546e-06	231.12	80.216	3.1379e-06	1.3388e-06	93.795	28.63	29.58	11.741	1.9212e-06	10.463	0.0006657	0.0006801	0.00019033	248.3	7.4221e-06	7.4957e-06	274.47	96.681	7.4983e-06	7.4578e-06	118.56	37.875	46.468	14.474	7.465e-06	14.254	161.643	356.598	268.147	71.938	162.255	346.299	70.826	78.343	315.805	353.960	73.464	78.520	81.624	86.333	346.848	82.045	-8191	255	
878.890	1	1	0	0	0.13169	0.2134	0.17624	0.33959	0.2605	0.1853	0.01125	0.17733	0.23462	0.14916	0.17816	0.28318	0.21794	0.077271	0.22074	0.211	-2.3229	-1.8312	-2.5812	-2.4375	-1.9771	-2.7	-2.1813	-2.0271	-2.7313	-1.8312	-2.6396	-2.6208	-1.9188	-2.8979	-2.2313	-2.0833	402.437	328.672	410.513	419.578	385.911	212.751	133.512	334.295	402.820	291.227	301.228	64.568	370.669	219.905	392.399	130.498	0.00012982	0.00047177	0.00012437	193.84	6.8596e-06	6.9967e-06	230.04	80.486	9.3202e-06	1.0589e-05	93.462	28.278	29.841	11.736	1.2327e-05	10.523	0.00067081	0.00068146	0.00019104	247.68	7.49e-06	7.5514e-06	274	96.577	7.5295e-06	7.523e-06	118.03	37.607	46.532	14.425	7.5086e-06	14.272	192.399	327.882	152.494	73.047	134.656	244.226	71.006	78.433	400.700	255.520	74.311	77.556	81.650	86.597	381.447	80.945	-8191	255	
878.986	1	1	0	0	0.069776	0.29847	0.1431	0.12899	0.01887	0.32253	0.14935	0.13917	0.22589	0.13362	0.043133	0.21554	0.070205	0.025524	0.1008	0.23762	-2.4083	-2.0083	-2.3208	-2.5896	-1.9667	-2.8146	-2.4604	-2.0979	-2.9167	-2.1167	-2.2667	-2.6229	-1.8229	-2.7021	-2.3854	-2.025	130.839	377.850	81.452	412.396	319.557	111.547	276.251	414.100	324.411	148.948	61.403	165.330	420.084	149.098	200.983	162.459	0.00020501	0.00049512	0.00025116	192.52	8.6276e-06	5.2468e-06	229.06	79.407	1.3709e-05	3.4789e-06	93.337	28.121	29.634	11.697	2.0499e-07	10.367	0.00067493	0.00068566	0.00019228	248.06	7.5483e-06	7.5844e-06	273.89	96.309	7.4952e-06	7.4061e-06	117.74	37.574	46.583	14.37	7.4554e-06	14.202	192.101	178.462	189.704	73.069	234.960	125.935	70.642	78.377	218.205	132.410	73.715	78.746	81.454	86.445	241.944	82.064	-8191	255	
879.082	1	1	0	0	0.096149	0.23126	0.10081	0.059166	0.18765	0.20282	0.06892	0.26766	0.12244	0.18273	0.1973	0.33799	0.14946	0.26218	0.062677	0.087899	-2.3708	-2.1562	-2.3875	-2.6813	-1.8104	-2.5938	-2.4229	-1.7479	-2.9271	-2.2667	-2.1146	-2.8146	-2.1042	-2.5917	-2.6167	-1.9354	326.166	311.750	350.255	141.375	272.700	344.739	162.261	188.271	90.352	219.202	394.535	165.536	400.179	139.998	196.148	87.425	0.00015505	0.00042833	9.5531e-05	195.16	3.9489e-06	1.0416e-05	231.61	80.495	7.0911e-06	5.1436e-06	93.963	28.704	29.541	11.751	2.2004e-06	10.598	0.00066551	0.0006776	0.00019069	248.68	7.3542e-06	7.4649e-06	274.06	96.815	7.391e-06	7.3681e-06	117.76	37.656	46.182	14.409	7.39e-06	14.269	113.244	127.314	323.080	72.943	404.971	335.659	70.304	77.997	174.558	194.591	74.767	77.746	83.221	86.439	91.589	81.559	-8191	255	
879.179	1	1	0	0	0.20183	0.10858	0.26131	0.2394	0.23722	0.10197	0.2355	0.047744	0.21558	0.05738	0.15053	0.19005	0.098648	0.075877	0.28998	0.13293	-2.2375	-2.0792	-2.1437	-2.7125	-1.9208	-2.4479	-2.6604	-1.7979	-2.5229	-2.325	-2.1146	-2.6604	-2.0438	-2.2625	-2.6854	-1.8354	153.632	212.571	264.292	390.798	60.651	247.057	392.178	148.886	233.425	405.367	234.733	362.322	297.779	114.929	374.142	306.034	0.00014392	0.00010465	0.00024185	195.74	4.0167e-06	7.2784e-06	231.61	81.95	3.5957e-06	5.1841e-06	93.967	28.439	29.696	11.832	6.9658e-06	10.512	0.00066233	0.00067171	0.00018827	248.74	7.3962e-06	7.3919e-06	274.53	96.77	7.3575e-06	7.3825e-06	117.86	37.705	46.297	14.428	7.3141e-06	14.173	168.559	185.440	156.192	72.810	73.382	191.116	71.026	78.158	245.205	276.914	73.887	78.201	81.586	86.840	214.278	81.131	-8191	255	
879.297	1	1	0	0	0.26549	0.1902	0.17724	0.20896	0.16389	0.042512	0.22796	0.31436	0.15963	0.081425	0.16777	0.20791	0.22715	0.20605	0.20011	0.2088	-2.1729	-2.2792	-1.975	-2.7208	-1.9312	-2.3875	-2.5187	-1.7875	-2.4396	-2.2375	-2.1125	-2.6521	-1.9875	-2.1979	-2.8771	-1.9604	213.764	68.953	74.309	158.850	103.022	162.722	396.688	364.724	148.536	417.440	331.465	347.539	315.598	61.827	125.601	348.651	0.00014016	0.00029889	0.00016457	193.7	4.6296e-06	3.1953e-06	228.58	79.508	1.0169e-05	6.7188e-06	92.556	28.317	29.242	11.695	2.8442e-06	10.66	0.0006516	0.00066317	0.00018399	246.42	7.2651e-06	7.3638e-06	270.93	95.976	7.3385e-06	7.2806e-06	116.7	37.424	45.966	14.332	7.2591e-06	14.193	198.358	112.696	128.240	72.247	285.900	318.745	70.697	78.413	171.577	328.414	74.360	77.904	82.365	85.707	145.715	81.867	-8191	255	
879.394	1	1	0	0	0.11882	0.19296	0.28296	0.15848	0.41284	0.15226	0.058246	0.097337	0.18319	0.27236	0.15353	0.097795	0.10232	0.14001	0.16076	0.16132	-2.0458	-2.3792	-1.6479	-2.7021	-2.3312	-2.0667	-2.6625	-1.9688	-2.4688	-2.5229	-2.0187	-2.7687	-2.1312	-1.9167	-2.7167	-2	105.080	410.842	312.539	359.057	357.261	71.540	164.612	286.417	112.696	149.479	68.003	293.143	131.699	69.183	126.313	127.267	0.00011288	0.000176	0.00019209	191.2	2.0568e-06	8.0645e-06	228.12	80.023	3.0079e-06	5.6323e-06	92.724	28.412	30.22	11.957	5.0983e-06	10.502	0.00064517	0.00066116	0.00018326	244.68	7.1895e-06	7.2153e-06	271.02	95.793	7.2698e-06	7.2631e-06	116.77	37.376	45.74	14.426	7.2496e-06	14.154	150.831	226.139	156.628	73.249	287.757	280.315	70.413	78.471	76.653	197.287	74.430	78.403	82.256	86.397	376.368	81.388	-8191	255	
879.490	1	1	0	0	0.34598	0.047704	0.10718	0.12203	0.17382	0.33332	0.17622	0.058797	0.14038	0.20985	0.11819	0.24231	0.2092	0.19453	0.094126	0.17217	-1.9417	-2.5542	-1.8708	-2.7625	-2.4562	-1.775	-2.6875	-1.9583	-2.3229	-2.7792	-2.0208	-2.6833	-2.3375	-1.7292	-2.5896	-2.2417	268.131	312.638	159.345	281.033	127.537	157.325	385.871	266.375	383.729	157.198	121.887	375.402	232.171	410.658	256.353	385.607	0.00017081	0.00096265	0.0002318	194.8	4.3781e-06	2.3237e-06	230.41	80.039	3.9846e-06	2.431e-06	93.77	29.071	30.623	12.019	4.2596e-06	10.743	0.00064249	0.00065329	0.00018299	247.11	7.1646e-06	7.1684e-06	272.07	96.409	7.2327e-06	7.2129e-06	117.07	37.756	46.195	14.479	7.3084e-06	14.381	103.105	199.572	397.196	73.192	416.218	210.002	70.835	78.138	311.740	203.203	73.516	78.405	82.163	86.828	408.819	81.824	-8191	255	
879.586	1	1	0	0	0.34391	0.029988	0.059641	0.27221	0.089346	0.44653	0.079243	0.099376	0.17753	0.089727	0.35692	0.17101	0.17753	0.038959	0.16775	0.22067	-1.9604	-2.7146	-1.8583	-2.4125	-2.6417	-2.0208	-2.8354	-2.1521	-2.1396	-2.6458	-1.9896	-2.4979	-2.4354	-1.8167	-2.5771	-2.1188	182.259	238.155	163.007	255.828	122.457	368.368	314.129	324.505	336.217	329.121	348.081	418.444	346.577	218.746	145.634	177.126	0.00015761	0.00026492	7.1236e-05	194.73	3.8346e-06	4.0531e-06	229.63	80.377	3.8855e-06	7.9979e-06	94.023	28.91	29.957	11.847	9.7067e-06	10.746	0.00064987	0.00066435	0.00018447	247.56	7.2754e-06	7.2635e-06	271.42	96.163	7.206e-06	7.2562e-06	117.36	37.588	46.067	14.504	7.3595e-06	14.275	136.015	74.711	386.509	73.207	290.652	274.858	70.744	77.826	261.969	248.947	73.781	78.560	82.348	86.718	400.528	81.084	-8191	255	
879.682	1	1	0	0	0.17206	0.23984	0.32512	0.1476	0.15993	0.24657	0.16614	0.11149	0.090266	0.071662	0.16638	0.33319	0.27026	0.095554	0.13657	0.068597	-1.7375	-2.5979	-1.9521	-2.6521	-2.4875	-1.95	-2.6667	-2.3271	-2.0396	-2.7604	-1.9042	-2.5062	-2.6021	-1.8687	-2.5792	-2.4396	221.558	304.515	251.466	167.898	394.665	85.050	338.618	152.630	159.494	232.454	214.710	297.628	63.243	282.036	148.276	83.077	0.00011094	0.0001836	9.6337e-05	193.3	6.0949e-06	1.8147e-06	227.83	80.046	1.1234e-05	4.2877e-06	92.361	28.928	30.601	11.963	7.6507e-06	10.734	0.00064321	0.00066868	0.00018444	245.02	7.2203e-06	7.3132e-06	270.98	96.134	7.2285e-06	7.259e-06	116.74	37.525	45.926	14.468	7.2433e-06	14.366	228.314	135.966	139.983	72.693	294.515	108.982	71.390	78.209	173.866	187.671	74.343	78.576	81.679	86.933	120.078	81.404	-8191	255	
879.778	1	1	0	0	0.21439	0.12538	0.093078	0.022784	0.13474	0.058332	0.17538	0.10832	0.1249	0.077513	0.13243	0.32636	0.15908	0.058687	0.21013	0.21484	-1.475	-2.7812	-1.9896	-2.4625	-2.6167	-1.8104	-2.675	-2.2292	-1.8667	-2.8792	-2.1479	-2.2521	-2.5979	-1.9021	-2.5167	-2.3958	346.381	277.473	133.127	143.441	418.192	282.597	336.709	400.259	237.537	71.632	291.357	116.563	206.788	262.058	274.182	271.920	0.00019298	0.00087063	0.00019667	194.03	4.0387e-06	3.9923e-06	229.3	81.148	4.3719e-06	4.0934e-06	94.223	28.787	30.48	12.102	1.7261e-06	10.887	0.00063757	0.00066279	0.00018257	245.57	7.2221e-06	7.2021e-06	271.71	96.68	7.208e-06	7.2191e-06	117.47	37.618	46.223	14.608	7.2616e-06	14.433	129.249	207.784	327.396	72.493	400.414	102.068	70.699	78.234	101.665	296.303	73.767	78.463	81.757	86.523	404.698	81.641	-8191	255	
879.899	1	1	0	0	0.04046	0.12072	0.15749	0.11667	0.42812	0.085651	0.14968	0.20641	0.038804	0.044703	0.15594	0.21087	0.09076	0.065389	0.18539	0.17849	-1.3708	-2.7271	-2.1875	-2.0875	-2.65	-1.8875	-2.5625	-2.5563	-1.8813	-2.6771	-2.2333	-2.1125	-2.6333	-2.0312	-2.4458	-2.4313	124.570	405.321	223.161	95.818	317.655	107.939	266.728	272.321	303.671	222.206	206.293	235.277	220.942	372.899	367.233	150.709	0.00017034	0.00023296	5.256e-05	195.04	4.1562e-06	4.6639e-06	230.25	80.76	4.5482e-06	4.0297e-06	94.713	28.823	30.341	12.025	9.1692e-06	11.03	0.00064507	0.00066523	0.00018293	245.17	7.1724e-06	7.2105e-06	272.73	96.797	7.1226e-06	7.2593e-06	117.28	37.703	45.974	14.567	7.2996e-06	14.582	81.118	363.051	238.812	72.717	264.904	243.230	71.167	78.039	369.374	419.680	73.805	78.629	83.600	86.158	108.624	82.300	-8191	255	
879.995	1	1	0	0	0.043996	0.060899	0.088577	0.1139	0.17272	0.18137	0.21583	0.14771	0.15377	0.095824	0.10452	0.16324	0.097867	0.19374	0.22868	0.16111	-1.7229	-2.6562	-2.1729	-2.2521	-2.7729	-1.9188	-2.475	-2.5208	-1.8833	-2.4688	-2.4167	-1.8563	-2.7854	-2.1562	-2.2188	-2.7354	87.108	78.391	125.955	167.981	187.659	212.295	363.770	379.404	269.097	366.009	207.754	65.839	271.179	352.533	329.713	336.764	0.00012192	0.00044185	8.2533e-05	193.3	4.6204e-06	2.9148e-06	227.43	80.97	4.366e-06	4.4588e-06	93.272	28.519	30.435	12.076	6.6553e-06	10.94	0.00064851	0.00066627	0.00018428	246.42	7.2947e-06	7.2651e-06	271.68	96.617	7.2597e-06	7.3238e-06	117.12	37.575	45.971	14.556	7.2689e-06	14.457	116.006	157.009	305.744	72.782	389.328	139.829	70.989	78.027	178.845	148.195	73.531	78.525	82.031	86.356	86.261	81.574	-8191	255	
880.091	1	1	0	0	0.082831	0.2187	0.080787	0.4095	0.15	0.070802	0.11915	0.13561	0.23021	0.17081	0.26017	0.29493	0.23556	0.33824	0.23899	0.099807	-1.4708	-2.5125	-2.4646	-2.1167	-2.8083	-1.9979	-2.2167	-2.5687	-1.9	-2.6854	-2.4938	-1.8229	-2.8083	-1.9146	-2.0417	-2.7417	386.938	148.466	226.991	348.656	351.103	126.858	168.257	252.572	373.241	129.789	334.545	363.276	302.783	347.292	295.661	120.106	0.00025776	1.4895e-05	0.00014274	191.92	1.292e-05	6.3138e-06	228.47	80.301	9.4541e-07	5.5649e-06	93.314	28.631	30.426	12.042	9.6816e-06	10.971	0.00063782	0.00065977	0.00018363	245.21	7.2136e-06	7.2436e-06	271.26	96.351	7.2847e-06	7.3114e-06	118.09	37.804	46.369	14.598	7.2561e-06	14.576	123.558	288.863	237.333	73.490	121.750	307.168	70.838	78.001	86.612	262.938	73.679	78.780	83.604	86.886	264.602	81.407	-8191	255	
880.187	1	1	0	0	0.042749	0.096933	0.15548	0.045303	0.29202	0.27325	0.042737	0.2115	0.34379	0.13645	0.052995	0.09705	0.23231	0.18383	0.042782	0.24493	-1.6208	-2.6646	-2.6562	-1.8771	-2.6625	-2.4167	-2.0854	-2.7417	-1.9937	-2.4167	-2.4979	-1.9813	-2.5583	-2.2562	-2.1396	-2.8167	236.352	173.582	88.419	203.309	307.041	271.902	129.411	293.487	279.119	207.502	261.290	140.338	316.015	124.439	247.283	212.848	0.00014686	0.0008833	0.00025751	193.54	6.626e-06	3.4685e-06	232.58	81.229	6.4243e-06	3.9604e-06	95.144	29.071	30.332	12.251	3.0056e-06	10.895	0.0006444	0.0006596	0.00018203	245.32	7.2613e-06	7.2341e-06	271.97	96.716	7.24e-06	7.2108e-06	118.01	37.651	46.416	14.646	7.1784e-06	14.663	228.838	178.834	268.240	73.633	255.748	202.179	70.730	78.336	206.236	293.049	73.801	77.557	81.999	86.496	133.240	81.257	-8191	255	
880.282	1	1	0	0	0.18779	0.21634	0.17441	0.087582	0.091897	0.034862	0.055941	0.12067	0.094427	0.1145	0.10966	0.22827	0.10108	0.28748	0.21541	0.26017	-1.7208	-2.5271	-2.6833	-1.9458	-2.7021	-2.3771	-1.9646	-2.8438	-2.0292	-2.3563	-2.6708	-2.0917	-2.4625	-2.3438	-2.0896	-2.6604	175.073	367.904	306.214	175.076	322.276	215.275	188.113	186.347	98.112	330.831	229.549	137.255	332.139	93.185	216.316	224.176	0.00028129	0.00055252	0.0001228	195.98	3.0337e-06	2.5599e-06	229.98	80.699	9.5998e-06	1.5318e-06	93.208	29.196	30.779	12.074	7.4443e-06	11.052	0.00064648	0.00066342	0.00018375	246.49	7.2798e-06	7.2197e-06	272.67	96.761	7.1908e-06	7.2459e-06	117.49	37.735	46.322	14.668	7.1679e-06	14.653	152.311	287.843	211.197	72.814	184.577	184.154	70.727	77.806	200.219	400.595	74.087	78.185	82.134	86.129	289.595	81.317	-8191	255	
880.378	1	1	0	0	0.29356	0.093829	0.090007	0.15603	0.10297	0.24489	0.20617	0.18385	0.063158	0.1356	0.030291	0.17586	0.10436	0.23773	0.10132	0.072196	-1.6833	-2.1813	-2.8208	-1.9396	-2.6312	-2.3438	-2.0146	-2.8646	-2.1813	-2.1562	-2.7708	-1.9917	-2.3917	-2.7083	-2.1042	-2.675	283.347	389.974	98.304	408.129	212.493	187.382	357.194	292.960	110.809	245.513	223.460	160.669	115.544	398.004	376.634	412.334	0.00020684	0.00081771	0.00017195	194	4.9423e-06	1.5972e-05	229.49	81.111	3.1728e-06	7.9673e-06	94.256	29.006	29.909	12.181	3.6911e-06	11.114	0.00064043	0.00065642	0.00018425	244.85	7.2126e-06	7.2052e-06	270.75	96.673	7.211e-06	7.2131e-06	117.66	37.53	46.284	14.619	7.2135e-06	14.605	138.867	160.649	180.973	73.117	412.231	233.137	70.803	78.370	90.926	71.185	74.119	77.981	82.635	86.442	94.328	81.636	-8191	255	
#DATA ENDS
