BOXY.EXE: ISS Imagent and Oximeter Data Acquisition Program Version 0.80
Ascii Record File

#ACQ INFORMATION
2  Detector Channels 
16  External MUX Channels 
1  Auxiliary Channels 
5000  Waveform (CCF) Frequency (Hz)
1  Waveforms Skipped 
30  Waveforms Averaged 
1  Cycles Averaged 
16  Acquisitions per Waveform 
10.0806  Updata Rate (Hz) 

#FILE INFORMATION
TRUE -- External MUX Channel results are PARSED.
FALSE -- AC DC and Phase are NOT grouped.
TRUE -- Companion Program Settings File CREATED.
FALSE -- AC data not excluded
FALSE -- DC data not excluded
FALSE -- Phase data not excluded
FALSE -- Auxillary Chn. data not excluded
Tab delimiters

#CALIBRATION STATE
TRUE -- Waveform Calibration Values APPLIED.


#AUX CALIBRATION VALUES
Val Type	aux-1	

Term	1.0000e+00	
Factor	0.0000e+00	


#WF CALIBRATION VALUES
A = Detector Channel
Val Type	A-AC1	A-AC2	A-AC3	A-AC4	A-AC5	A-AC6	A-AC7	A-AC8	A-AC9	A-AC10	A-AC11	A-AC12	A-AC13	A-AC14	A-AC15	A-AC16	A-DC1	A-DC2	A-DC3	A-DC4	A-DC5	A-DC6	A-DC7	A-DC8	A-DC9	A-DC10	A-DC11	A-DC12	A-DC13	A-DC14	A-DC15	A-DC16	A-Ph1	A-Ph2	A-Ph3	A-Ph4	A-Ph5	A-Ph6	A-Ph7	A-Ph8	A-Ph9	A-Ph10	A-Ph11	A-Ph12	A-Ph13	A-Ph14	A-Ph15	A-Ph16	

Term	0.00000e+00	0.00000e+00	0.00000e+00	0.00000e+00	0.00000e+00	0.00000e+00	0.00000e+00	0.00000e+00	0.00000e+00	0.00000e+00	0.00000e+00	0.00000e+00	0.00000e+00	0.00000e+00	0.00000e+00	0.00000e+00	0.00000e+00	0.00000e+00	0.00000e+00	0.00000e+00	0.00000e+00	0.00000e+00	0.00000e+00	0.00000e+00	0.00000e+00	0.00000e+00	0.00000e+00	0.00000e+00	0.00000e+00	0.00000e+00	0.00000e+00	0.00000e+00	0.00000e+00	0.00000e+00	0.00000e+00	0.00000e+00	0.00000e+00	0.00000e+00	0.00000e+00	0.00000e+00	0.00000e+00	0.00000e+00	0.00000e+00	0.00000e+00	0.00000e+00	0.00000e+00	0.00000e+00	0.00000e+00	
Factor	1.00000e+00	1.00000e+00	1.00000e+00	1.00000e+00	1.00000e+00	1.00000e+00	1.00000e+00	1.00000e+00	1.00000e+00	1.00000e+00	1.00000e+00	1.00000e+00	1.00000e+00	1.00000e+00	1.00000e+00	1.00000e+00	1.00000e+00	1.00000e+00	1.00000e+00	1.00000e+00	1.00000e+00	1.00000e+00	1.00000e+00	1.00000e+00	1.00000e+00	1.00000e+00	1.00000e+00	1.00000e+00	1.00000e+00	1.00000e+00	1.00000e+00	1.00000e+00	X	X	X	X	X	X	X	X	X	X	X	X	X	X	X	X	

B = Detector Channel
Val Type	B-AC1	B-AC2	B-AC3	B-AC4	B-AC5	B-AC6	B-AC7	B-AC8	B-AC9	B-AC10	B-AC11	B-AC12	B-AC13	B-AC14	B-AC15	B-AC16	B-DC1	B-DC2	B-DC3	B-DC4	B-DC5	B-DC6	B-DC7	B-DC8	B-DC9	B-DC10	B-DC11	B-DC12	B-DC13	B-DC14	B-DC15	B-DC16	B-Ph1	B-Ph2	B-Ph3	B-Ph4	B-Ph5	B-Ph6	B-Ph7	B-Ph8	B-Ph9	B-Ph10	B-Ph11	B-Ph12	B-Ph13	B-Ph14	B-Ph15	B-Ph16	

Term	0.00000e+00	0.00000e+00	0.00000e+00	0.00000e+00	0.00000e+00	0.00000e+00	0.00000e+00	0.00000e+00	0.00000e+00	0.00000e+00	0.00000e+00	0.00000e+00	0.00000e+00	0.00000e+00	0.00000e+00	0.00000e+00	0.00000e+00	0.00000e+00	0.00000e+00	0.00000e+00	0.00000e+00	0.00000e+00	0.00000e+00	0.00000e+00	0.00000e+00	0.00000e+00	0.00000e+00	0.00000e+00	0.00000e+00	0.00000e+00	0.00000e+00	0.00000e+00	-1.36660e+02	-1.60266e+02	-1.34086e+02	-1.83745e+02	-7.87698e+01	-1.00516e+02	-1.56747e+02	-1.62015e+02	-7.40872e+01	-9.28821e+01	-1.74571e+02	-1.71654e+02	-1.88132e+02	-1.77417e+02	-8.50884e+01	-1.50494e+02	
Factor	2.03993e-05	1.07868e-04	3.57229e-05	1.87245e-01	1.07033e-06	1.41399e-06	1.72526e-01	6.12020e-02	1.23551e-06	1.13726e-06	9.66703e-02	3.45722e-02	6.45775e-02	1.00719e-02	1.45188e-06	1.40147e-02	9.56666e-07	9.86707e-07	2.74933e-07	9.45559e-02	1.08021e-08	1.08257e-08	8.21921e-02	3.07922e-02	1.08017e-08	1.08237e-08	4.65095e-02	1.66970e-02	3.00134e-02	5.01095e-03	1.08182e-08	6.73353e-03	X	X	X	X	X	X	X	X	X	X	X	X	X	X	X	X	



#DISTANCE SETTINGS
A = Detector Channel
A-1	A-2	A-3	A-4	A-5	A-6	A-7	A-8	A-9	A-10	A-11	A-12	A-13	A-14	A-15	A-16	

2.5000e+00	3.0000e+00	2.5000e+00	3.0000e+00	2.0000e+00	3.0000e+00	1.5000e+00	3.0000e+00	3.0000e+00	3.0000e+00	3.0000e+00	3.0000e+00	3.0000e+00	3.0000e+00	1.5000e+00	3.0000e+00	

B = Detector Channel
B-1	B-2	B-3	B-4	B-5	B-6	B-7	B-8	B-9	B-10	B-11	B-12	B-13	B-14	B-15	B-16	

1.0000e+01	1.0000e+01	1.0000e+01	1.4400e+00	1.0000e+01	1.0000e+01	1.5100e+00	1.9400e+00	1.0000e+01	1.0000e+01	1.9900e+00	2.4900e+00	2.4100e+00	2.9000e+00	1.0000e+01	2.9800e+00	




#DATA BEGINS
time	group	step	mark	flag	A-AC1	A-AC2	A-AC3	A-AC4	A-AC5	A-AC6	A-AC7	A-AC8	A-AC9	A-AC10	A-AC11	A-AC12	A-AC13	A-AC14	A-AC15	A-AC16	A-DC1	A-DC2	A-DC3	A-DC4	A-DC5	A-DC6	A-DC7	A-DC8	A-DC9	A-DC10	A-DC11	A-DC12	A-DC13	A-DC14	A-DC15	A-DC16	A-Ph1	A-Ph2	A-Ph3	A-Ph4	A-Ph5	A-Ph6	A-Ph7	A-Ph8	A-Ph9	A-Ph10	A-Ph11	A-Ph12	A-Ph13	A-Ph14	A-Ph15	A-Ph16	B-AC1	B-AC2	B-AC3	B-AC4	B-AC5	B-AC6	B-AC7	B-AC8	B-AC9	B-AC10	B-AC11	B-AC12	B-AC13	B-AC14	B-AC15	B-AC16	B-DC1	B-DC2	B-DC3	B-DC4	B-DC5	B-DC6	B-DC7	B-DC8	B-DC9	B-DC10	B-DC11	B-DC12	B-DC13	B-DC14	B-DC15	B-DC16	B-Ph1	B-Ph2	B-Ph3	B-Ph4	B-Ph5	B-Ph6	B-Ph7	B-Ph8	B-Ph9	B-Ph10	B-Ph11	B-Ph12	B-Ph13	B-Ph14	B-Ph15	B-Ph16	aux-1	digaux	

885.252	1	1	0	256	0.14092	0.16576	0.22284	0.0984	0.20567	0.14	0.096068	0.23868	0.2039	0.066526	0.067949	0.10411	0.17265	0.138	0.042067	0.092334	-2.3083	-2.0208	-2.0958	-2.6437	-1.7313	-2.475	-2.4125	-1.7771	-2.5708	-2.0979	-1.8875	-2.5958	-1.7771	-2.4729	-2.3333	-1.6875	81.628	88.472	341.952	372.570	239.586	119.355	413.772	382.980	318.094	190.735	355.221	372.498	310.154	318.443	320.873	369.683	0.00015784	0.00032414	0.00033477	190.16	1.7317e-06	3.2383e-06	217.22	79.801	3.386e-06	5.6719e-06	89.868	27.914	29.941	11.758	1.9953e-06	9.5591	0.00045599	0.00046449	0.00012957	226.38	5.0607e-06	5.0973e-06	245.34	89.849	5.0998e-06	5.0983e-06	104.42	33.337	39.971	13.308	5.0674e-06	11.934	211.908	336.198	99.502	72.081	410.859	259.974	71.013	78.243	271.827	230.855	74.359	77.426	80.960	86.289	77.878	81.785	-8191	255	
885.348	1	1	0	0	0.050777	0.073646	0.11588	0.061359	0.039336	0.27599	0.1221	0.14831	0.14463	0.14022	0.32193	0.2491	0.11673	0.2629	0.13299	0.15496	-2.0521	-2.1417	-1.8042	-2.5375	-1.8396	-2.2812	-2.2958	-1.7812	-2.3833	-2.275	-1.8813	-2.6167	-1.9542	-1.9708	-2.6917	-1.6417	398.890	164.246	286.677	312.191	247.316	137.648	406.550	93.057	150.812	370.572	160.810	340.267	352.047	141.575	262.645	404.592	0.00012878	0.00039262	8.3489e-06	192.5	1.3947e-06	4.4945e-06	218.62	80.204	1.2909e-06	2.1424e-06	89.313	27.273	30.414	11.613	3.7667e-06	9.595	0.00045366	0.00046115	0.00013084	226.6	5.1159e-06	5.0718e-06	245.59	89.659	5.133e-06	5.0912e-06	104.08	33.105	39.743	13.279	5.121e-06	11.915	142.082	160.506	89.653	72.627	220.309	374.222	70.281	77.764	388.160	328.318	74.182	77.613	81.940	86.126	263.797	80.809	-8191	255	
885.444	1	1	0	0	0.12661	0.2146	0.27637	0.31939	0.069506	0.28703	0.12181	0.15606	0.094584	0.071309	0.05054	0.12519	0.14248	0.14882	0.065228	0.267	-2.1229	-2.1625	-2.025	-2.6292	-2.0854	-2.1979	-2.625	-1.8854	-2.4792	-2.55	-2.0042	-2.7333	-2.025	-1.95	-2.5604	-1.9292	281.309	191.066	103.714	80.165	215.259	333.206	66.400	260.886	297.197	336.239	273.100	95.647	169.718	275.041	396.162	220.222	7.7093e-05	0.00017348	0.00023634	194.16	3.6557e-06	8.5836e-06	217.26	79.584	7.6565e-06	1.6154e-06	89.629	27.129	29.806	11.645	2.6676e-06	9.4667	0.00045212	0.00046127	0.00012807	226.25	5.0572e-06	5.0714e-06	244.66	89.287	5.0633e-06	5.041e-06	103.48	32.905	39.664	13.207	5.0241e-06	11.827	136.804	280.358	65.400	72.341	408.718	188.333	70.299	77.757	102.860	417.064	72.973	77.735	81.759	86.212	236.290	80.882	-8191	255	
885.540	1	1	0	0	0.086244	0.13469	0.063802	0.20279	0.23176	0.2264	0.36806	0.22402	0.30243	0.12049	0.39149	0.15683	0.1388	0.21394	0.077787	0.14054	-1.9792	-2.4083	-2.0104	-2.6937	-2.125	-2.1375	-2.6937	-1.8104	-2.4083	-2.5958	-1.9208	-2.5312	-2.2	-1.9833	-2.7062	-2.1833	192.968	333.176	370.319	399.991	297.812	208.556	416.060	216.857	274.494	325.256	196.500	353.473	385.706	79.250	346.870	316.055	5.0761e-05	0.00045308	0.00015861	194.01	1.6752e-06	6.9349e-06	216.29	80.018	5.5313e-07	6.8387e-06	89.476	27.002	29.372	11.437	1.6494e-05	9.3101	0.00045377	0.00046447	0.00012826	226.76	5.0748e-06	5.0473e-06	243.14	89.405	5.0573e-06	5.0484e-06	103.74	32.876	39.374	13.14	5.0764e-06	11.835	162.759	85.111	176.310	72.583	240.640	267.846	70.804	78.274	373.429	406.258	73.806	78.497	81.582	86.505	374.396	81.162	-8191	255	
885.636	1	1	0	0	0.22251	0.17997	0.27163	0.095407	0.016934	0.21659	0.16075	0.075433	0.03698	0.09589	0.11008	0.23408	0.096193	0.20488	0.064038	0.11135	-1.7833	-2.425	-1.6979	-2.4271	-2.2833	-2.0271	-2.7583	-1.8521	-2.1188	-2.575	-1.7396	-2.55	-2.3688	-1.85	-2.5604	-2.1458	143.324	217.893	74.949	398.054	153.769	247.754	146.719	136.249	65.940	350.373	223.430	95.522	398.852	114.540	411.305	83.425	0.00016966	0.00032573	6.5984e-05	192.66	7.5752e-06	8.3842e-06	218.59	79.847	1.1118e-06	4.8655e-06	90.684	27.656	29.895	11.676	6.1138e-06	9.6647	0.00044903	0.00046503	0.00012824	227.5	5.086e-06	5.0417e-06	244.89	89.718	5.0439e-06	5.0602e-06	104.14	33.218	39.867	13.214	5.0949e-06	11.905	143.379	342.132	281.648	72.504	107.625	288.086	70.823	78.269	140.167	66.343	74.162	77.480	81.513	85.959	264.256	80.857	-8191	255	
885.732	1	1	0	0	0.14707	0.38418	0.26175	0.034474	0.15905	0.1776	0.17192	0.14801	0.3377	0.19734	0.15287	0.29515	0.16058	0.28614	0.22514	0.10537	-1.5854	-2.6562	-1.9125	-2.3625	-2.2208	-1.7667	-2.5771	-2.2125	-1.9312	-2.6437	-1.9312	-2.5354	-2.5729	-2.0042	-2.5958	-2.15	238.371	325.046	83.497	408.421	194.943	352.558	231.993	256.301	102.255	261.185	214.901	384.764	199.493	270.325	222.741	70.226	9.5333e-05	0.00054981	6.4981e-05	194.74	1.4552e-06	5.0664e-06	219.71	80.563	4.4451e-06	2.3672e-06	88.41	27.206	29.853	11.717	3.5657e-06	9.3179	0.00044829	0.00046349	0.00012776	226.65	5.0484e-06	5.0254e-06	245.02	89.661	5.0667e-06	5.0321e-06	103.44	32.858	39.815	13.218	5.0978e-06	11.831	132.567	122.395	396.579	73.539	391.773	290.653	70.906	77.622	315.162	254.508	73.831	78.659	81.358	85.791	368.459	80.979	-8191	255	
885.853	1	1	0	0	0.20665	0.1262	0.2217	0.21843	0.12794	0.13204	0.1301	0.052007	0.17723	0.093606	0.045292	0.15639	0.097512	0.16838	0.27512	0.11117	-1.6521	-2.7083	-1.6979	-2.3625	-2.4729	-1.7125	-2.6063	-2.1417	-2.0146	-2.7146	-2.0312	-2.3229	-2.7271	-1.7229	-2.6521	-2.3375	346.067	181.664	189.278	62.303	68.900	318.012	237.697	159.773	359.425	98.007	207.934	118.644	223.059	350.406	111.593	105.163	8.2561e-05	0.00052933	0.00020023	192.96	1.6841e-06	3.0951e-06	218.99	79.889	1.3514e-06	2.0918e-06	88.976	27.365	29.866	11.689	1.7297e-06	9.5245	0.00045285	0.00046629	0.00012929	226.71	5.08e-06	5.1161e-06	244.92	89.479	5.0932e-06	5.0902e-06	103.4	32.911	39.91	13.165	5.0518e-06	11.895	249.134	68.192	160.177	73.035	293.789	129.467	70.944	77.884	211.125	133.545	74.290	78.177	81.205	85.859	140.001	81.505	-8191	255	
885.925	1	1	0	0	0.15241	0.058195	0.29169	0.17377	0.42685	0.2372	0.16503	0.11395	0.2201	0.29394	0.24062	0.19077	0.18746	0.26491	0.2765	0.14765	-1.3729	-2.6896	-1.8917	-2.2354	-2.5687	-1.95	-2.6625	-2.1937	-1.8458	-2.65	-2.05	-2.1979	-2.6958	-1.7542	-2.4271	-2.5354	259.010	296.745	282.865	273.499	255.419	86.840	107.813	370.289	194.758	321.297	418.344	412.675	308.534	154.413	62.805	288.163	7.7643e-05	0.00047883	0.00018	193.32	7.6673e-06	2.562e-06	215.23	79.291	1.6934e-06	2.6387e-06	88.805	27.539	29.588	11.709	2.2913e-06	9.5279	0.00044727	0.00046195	0.00012912	226.08	5.0838e-06	5.0626e-06	244.36	89.504	5.0409e-06	5.0919e-06	103.36	33.088	39.824	13.249	5.0891e-06	11.908	172.707	403.101	76.170	72.662	244.855	101.013	70.993	78.094	98.896	138.234	74.005	78.136	80.969	86.945	187.991	81.765	-8191	255	
886.021	1	1	0	0	0.24732	0.2342	0.15176	0.10766	0.19413	0.11963	0.15744	0.41367	0.10179	0.095921	0.16601	0.075029	0.11677	0.1573	0.066462	0.26079	-1.4333	-2.3688	-2.0833	-1.9583	-2.5521	-1.9667	-2.3792	-2.3146	-1.8271	-2.6229	-2.1271	-1.9104	-2.6104	-1.9542	-2.4667	-2.6937	180.224	94.061	150.205	410.254	373.931	412.848	82.666	377.496	121.243	110.638	314.776	136.626	62.037	224.538	324.018	114.443	0.00010685	0.00059822	5.4405e-05	194.17	6.7396e-07	4.7669e-06	219.97	80.627	4.3242e-06	5.0157e-06	89.019	27.284	29.686	11.749	6.2631e-06	9.6426	0.00045016	0.00046703	0.0001291	227.48	5.0666e-06	5.075e-06	245.7	90.062	5.0794e-06	5.0927e-06	104.26	33.081	39.838	13.277	5.0818e-06	11.963	198.354	101.366	211.428	72.762	330.140	77.533	70.744	77.904	210.705	363.247	73.785	77.440	81.762	86.322	189.332	81.630	-8191	255	
886.142	1	1	0	0	0.24411	0.10716	0.13847	0.096966	0.29636	0.16134	0.10171	0.1982	0.1398	0.14208	0.15451	0.12011	0.062913	0.067041	0.06554	0.23935	-1.4542	-2.4729	-1.9562	-1.8479	-2.6917	-1.8729	-2.1354	-2.5875	-1.7208	-2.5417	-2.3354	-2.1604	-2.4708	-2.0438	-2.0687	-2.5104	103.732	111.870	212.904	364.960	248.317	101.913	121.836	144.274	309.888	216.846	220.184	91.861	309.021	410.111	206.667	306.145	0.00010666	0.00058963	0.00011952	194.96	1.9988e-06	3.1829e-06	219.12	79.961	1.5295e-06	4.2954e-06	89.912	27.044	29.956	11.603	6.6996e-06	9.5831	0.00045195	0.00046752	0.00012993	227.37	5.0845e-06	5.0716e-06	244.18	90.185	5.0763e-06	5.0912e-06	104.18	32.98	39.823	13.236	5.0519e-06	11.948	181.470	153.859	158.884	72.942	313.042	154.951	70.645	78.141	240.868	211.301	72.687	77.459	82.270	85.674	326.035	81.943	-8191	255	
886.236	1	1	0	0	0.39325	0.11223	0.21209	0.032807	0.19569	0.099286	0.064617	0.22401	0.10993	0.16314	0.064996	0.11033	0.070758	0.24256	0.23285	0.17321	-1.3833	-2.5458	-2.3458	-1.8604	-2.6458	-2.0229	-2	-2.6937	-1.7417	-2.2146	-2.3458	-1.8188	-2.4833	-2.1542	-1.9937	-2.8625	123.952	79.539	352.214	164.569	287.803	260.285	291.640	253.820	61.630	249.153	307.738	165.057	154.565	214.605	334.707	382.983	0.00010278	0.00047932	8.389e-05	194.11	5.5299e-06	2.068e-06	217.26	80.859	4.0079e-06	6.6604e-07	89.686	27.558	30.228	11.893	5.0544e-06	9.5304	0.00044978	0.00046322	0.00012884	227.34	5.1138e-06	5.0739e-06	244.8	90.316	5.1168e-06	5.1381e-06	104.41	33.269	40.081	13.351	5.0951e-06	11.929	170.248	312.047	73.758	72.580	397.833	235.743	70.972	78.194	179.979	168.081	74.135	78.123	82.207	86.729	93.203	81.806	-8191	255	
886.332	1	1	0	0	0.077036	0.14635	0.17853	0.055442	0.064808	0.086396	0.22355	0.12528	0.05741	0.24497	0.15396	0.25297	0.24164	0.11683	0.19451	0.25155	-1.3396	-2.3021	-2.4417	-1.8208	-2.6375	-2.1646	-1.9208	-2.8333	-1.7958	-2.3771	-2.4813	-1.9521	-2.6896	-2.3271	-2.0833	-2.6833	308.191	233.656	262.736	164.650	99.283	409.030	71.251	127.244	413.992	245.299	158.752	350.686	87.073	305.684	321.338	86.697	8.77e-05	0.00028221	0.00014708	195.37	7.4146e-06	1.1535e-06	220.98	81.065	6.2147e-06	3.3484e-06	89.99	27.682	30.16	11.77	4.2218e-06	9.6036	0.00045124	0.00047086	0.00013081	227.03	5.1994e-06	5.1548e-06	247.04	90.387	5.102e-06	5.1306e-06	104.51	33.365	39.911	13.346	5.0857e-06	11.991	83.627	250.211	128.442	72.602	292.765	290.719	71.312	78.138	221.094	202.803	73.192	79.026	81.830	86.367	111.363	81.206	-8191	255	
886.430	1	1	0	0	0.11939	0.20058	0.19414	0.016694	0.10745	0.24745	0.06397	0.13946	0.10691	0.092883	0.22048	0.2453	0.054686	0.15383	0.10295	0.17328	-1.4021	-2.2958	-2.5854	-1.8729	-2.5896	-2.3375	-2.0792	-2.8063	-2.0896	-2.3167	-2.5958	-1.9292	-2.4458	-2.4625	-1.7854	-2.6333	187.028	263.637	309.586	201.096	291.026	82.751	98.481	151.521	347.487	293.255	243.932	226.735	158.232	196.485	404.640	87.063	7.3348e-05	0.00079593	7.0583e-05	192.45	4.8064e-06	3.174e-06	218.93	79.683	3.2202e-06	2.4607e-06	89.658	27.266	29.833	11.79	5.0315e-06	9.5177	0.00045167	0.00046996	0.0001301	227.42	5.1489e-06	5.1674e-06	245.93	90.03	5.0733e-06	5.133e-06	104.64	33.168	39.871	13.317	5.1181e-06	11.906	144.290	264.184	348.012	72.553	170.963	118.395	70.968	78.103	372.233	199.255	73.777	77.328	82.170	86.305	184.607	80.987	-8191	255	
886.549	1	1	0	0	0.047617	0.1036	0.29248	0.093765	0.10353	0.14478	0.15089	0.16755	0.19617	0.1903	0.22232	0.20203	0.17497	0.087083	0.22935	0.20294	-1.6146	-1.9771	-2.7604	-1.9312	-2.6104	-2.4396	-1.8792	-2.7562	-2.2271	-1.975	-2.6937	-1.9917	-2.4708	-2.5604	-1.6729	-2.7438	301.810	121.118	307.680	61.120	162.202	76.324	206.543	375.993	292.512	365.165	130.005	216.252	233.272	325.912	359.724	135.344	0.00015333	0.00034497	0.00010321	192.65	4.9304e-06	3.4155e-06	215.9	80.457	1.5804e-06	6.4277e-06	88.972	27.196	30.064	11.758	2.1792e-06	9.6773	0.00045681	0.00046809	0.00012906	226.55	5.1267e-06	5.1335e-06	244.22	89.722	5.0697e-06	5.0641e-06	104.11	32.943	39.824	13.353	5.0641e-06	11.929	165.363	86.540	210.526	72.257	148.034	299.096	71.024	78.198	339.178	284.911	73.644	78.574	82.461	86.103	272.766	81.815	-8191	255	
886.621	1	1	0	0	0.11917	0.12736	0.17497	0.15832	0.085554	0.24457	0.33309	0.052229	0.23232	0.038618	0.18247	0.26025	0.30409	0.1846	0.14226	0.29901	-1.8271	-2.0229	-2.575	-1.9854	-2.3354	-2.6312	-1.9542	-2.6021	-2.2771	-1.8896	-2.65	-1.9271	-1.9021	-2.7146	-1.7	-2.6417	412.618	122.184	344.582	144.037	190.374	284.170	188.293	173.593	203.139	119.422	269.116	399.156	417.423	404.441	276.716	372.243	4.2771e-05	0.00039075	0.00014675	194.67	6.1032e-06	5.9718e-06	218.63	79.989	3.5903e-06	1.0779e-06	88.97	27.357	30.085	11.768	8.4447e-06	9.5661	0.00044949	0.00046315	0.00012902	226.76	5.1159e-06	5.0811e-06	244.28	89.658	5.0897e-06	5.1155e-06	103.99	33.122	39.938	13.325	5.0729e-06	11.939	122.871	193.893	211.997	72.093	187.173	79.674	70.311	78.443	234.700	217.754	74.325	77.469	83.222	86.471	81.977	81.790	-8191	255	
886.741	1	1	0	0	0.19772	0.13607	0.091889	0.13403	0.1396	0.16197	0.080605	0.13354	0.22253	0.070262	0.14785	0.17714	0.17905	0.26317	0.11555	0.36326	-1.8438	-1.6938	-2.6542	-2.0438	-2.0167	-2.5104	-1.8062	-2.5417	-2.5375	-1.8354	-2.7333	-2.1083	-2.2042	-2.6729	-1.7958	-2.3646	366.488	200.334	379.883	383.898	328.110	376.984	190.214	353.865	232.729	165.348	392.971	335.766	348.240	316.107	351.280	259.791	0.00019062	0.00049696	0.00011764	192.59	4.3192e-06	2.4136e-06	218.78	80.331	5.1826e-06	7.4802e-06	89.893	27.287	30.39	11.784	7.0123e-06	9.4432	0.00045741	0.00046211	0.00012972	226.64	5.0655e-06	5.088e-06	244.6	90.177	5.1161e-06	5.0608e-06	104.16	33.137	40.024	13.339	5.0764e-06	11.93	168.543	323.929	192.018	72.383	134.917	324.842	70.956	77.892	357.105	355.210	75.029	77.772	82.601	86.494	144.460	81.909	-8191	255	
886.837	1	1	0	0	0.15365	0.15045	0.035869	0.13204	0.096505	0.32736	0.096641	0.18283	0.18204	0.24185	0.045023	0.14624	0.32503	0.08334	0.10514	0.13736	-2.1229	-1.7938	-2.5604	-2.2396	-1.9312	-2.6083	-2.0208	-2.4396	-2.4188	-1.8333	-2.6417	-2.2188	-1.8542	-2.7687	-1.8062	-2.2729	355.741	335.814	105.990	319.358	102.003	191.386	147.117	271.761	259.959	103.227	357.264	373.377	402.032	410.947	83.837	325.664	6.0605e-05	0.00049322	0.00024059	193.93	2.29e-06	4.34e-06	217.59	79.23	7.2002e-06	4.4574e-06	88.733	27.403	29.797	11.681	2.3716e-06	9.6033	0.00045604	0.00046227	0.00013053	226.19	5.1113e-06	5.1311e-06	243.5	89.831	5.13e-06	5.0789e-06	103.53	32.925	39.804	13.325	5.1167e-06	11.92	136.856	81.451	273.826	71.990	298.265	341.398	70.837	77.714	374.024	128.653	74.301	77.459	83.470	86.596	395.194	81.643	-8191	255	
886.933	1	1	0	0	0.10034	0.182	0.14389	0.19042	0.02378	0.078264	0.1268	0.17073	0.10349	0.099232	0.26342	0.021615	0.1914	0.20914	0.069806	0.15425	-2.1458	-1.775	-2.5208	-2.2146	-1.8458	-2.6625	-1.9167	-2.2271	-2.5958	-1.7771	-2.6417	-2.4583	-1.9813	-2.6375	-2.1063	-1.9604	349.157	265.920	227.300	102.873	112.649	307.260	134.237	400.142	175.994	242.292	94.291	100.574	324.262	100.876	142.861	92.967	6.3599e-05	0.00042081	0.00014182	192.89	2.6957e-06	5.1801e-06	216.64	79.604	7.8904e-07	1.2183e-06	89.313	27.916	29.708	11.717	8.708e-06	9.6202	0.00045362	0.00046559	0.00013027	226.54	5.0862e-06	5.1013e-06	243.18	89.51	5.1182e-06	5.1029e-06	103.84	32.921	39.903	13.331	5.1503e-06	11.939	155.568	102.800	380.353	72.642	323.503	208.838	71.572	78.136	91.650	112.753	73.729	78.713	81.810	86.272	290.945	81.932	-8191	255	
887.030	1	1	0	0	0.30176	0.30508	0.18417	0.30079	0.12147	0.26025	0.10966	0.23433	0.16311	0.26895	0.26303	0.12166	0.098067	0.22896	0.060095	0.11807	-2.2375	-1.8479	-2.4646	-2.2646	-1.7042	-2.6688	-1.9854	-2.0958	-2.6396	-1.9542	-2.5438	-2.3896	-1.7521	-2.5583	-2.1583	-1.9729	385.829	167.639	232.779	216.227	323.324	60.298	270.669	259.780	248.861	355.812	392.068	354.374	196.300	100.759	378.412	187.014	0.00011531	0.00031477	7.5146e-05	191.62	5.3936e-06	6.0853e-06	215.02	80.056	4.806e-07	3.0935e-06	89.453	27.198	30.054	11.924	5.5055e-06	9.5807	0.00045859	0.00046266	0.00013214	226.27	5.0913e-06	5.1555e-06	243.61	89.53	5.1252e-06	5.1065e-06	104.13	33.126	39.974	13.446	5.119e-06	11.972	128.281	267.382	284.488	73.034	183.448	111.925	70.966	77.979	66.164	319.423	74.330	78.090	83.016	86.851	117.049	81.787	-8191	255	
887.150	1	1	0	0	0.059981	0.14422	0.17	0.28331	0.22036	0.083927	0.17343	0.10199	0.050681	0.1609	0.19071	0.13416	0.27668	0.11516	0.14577	0.13041	-2.0604	-2.0083	-2.4062	-2.5042	-1.8208	-2.4896	-2.3625	-1.9354	-2.6396	-1.9104	-2.3312	-2.6104	-1.8542	-2.5833	-2.2729	-1.9354	292.016	328.089	288.984	240.255	419.133	329.192	120.035	285.936	373.698	183.434	281.141	123.224	396.486	346.175	223.116	180.955	0.00010772	0.00012173	0.00019833	191.24	3.6369e-06	3.792e-06	215.43	80.866	3.4726e-06	2.2717e-06	89.346	27.827	29.969	11.815	1.971e-06	9.5781	0.00045704	0.00046534	0.00013215	226.68	5.095e-06	5.1608e-06	244.05	90.245	5.1099e-06	5.1391e-06	103.49	33.137	39.88	13.349	5.0988e-06	11.905	152.106	307.566	73.433	72.783	252.327	262.051	70.746	78.272	98.257	176.052	73.982	77.554	82.970	86.697	106.123	80.922	-8191	255	
887.222	1	1	0	0	0.25068	0.061439	0.14447	0.10488	0.2007	0.11287	0.19192	0.075226	0.038691	0.12837	0.035649	0.053529	0.20451	0.026865	0.11346	0.11184	-2.2562	-2.1104	-2.1625	-2.7167	-1.6792	-2.5167	-2.4313	-1.8229	-2.5375	-1.8854	-1.9688	-2.6958	-1.7646	-2.3187	-2.3187	-1.7375	347.781	193.583	176.947	390.129	62.356	318.525	358.230	395.569	352.132	253.153	135.259	224.194	150.974	380.854	219.867	263.820	0.00010414	0.00081529	2.9348e-05	190.92	6.2034e-06	4.0962e-06	216.56	79.026	5.4437e-06	3.3006e-06	88.911	26.929	29.764	11.801	1.09e-05	9.5768	0.00045877	0.00046758	0.00012932	225.48	5.0744e-06	5.0928e-06	242.36	89.136	5.0784e-06	5.0705e-06	103.29	32.763	39.651	13.311	5.0868e-06	11.896	83.572	357.141	154.764	72.285	247.410	181.976	70.870	77.916	208.768	409.646	73.516	77.428	81.808	86.674	259.802	81.520	-8191	255	
887.316	1	1	0	0	0.06506	0.25529	0.18878	0.26144	0.032838	0.082772	0.072641	0.052983	0.41651	0.10992	0.1489	0.21211	0.19513	0.10279	0.13058	0.26015	-2.2	-2.0292	-2.125	-2.6292	-1.9417	-2.4188	-2.4313	-1.7167	-2.5938	-2.15	-2.0708	-2.6833	-1.9813	-2.3417	-2.5104	-1.8792	259.381	107.387	311.582	397.516	63.799	208.692	314.207	388.062	314.277	145.415	133.934	65.467	187.449	408.654	186.532	155.139	0.0001818	0.00018849	0.00011566	191.66	2.7261e-06	1.2783e-06	216.72	80.077	4.1398e-06	4.7755e-07	89.291	27.352	29.995	11.997	5.8614e-06	9.6199	0.00045373	0.00046192	0.00012755	225.24	5.0749e-06	5.0687e-06	242.85	89.602	5.0931e-06	5.0829e-06	103.47	32.871	39.816	13.405	5.0868e-06	11.956	177.981	265.309	194.800	73.264	410.317	69.285	70.875	78.269	118.401	404.417	73.864	77.160	82.566	86.050	359.034	81.532	-8191	255	
887.412	1	1	0	0	0.14573	0.19123	0.1526	0.14514	0.10206	0.1206	0.024237	0.36491	0.022563	0.19024	0.18354	0.17197	0.27163	0.12238	0.30005	0.11317	-2.1646	-2.125	-1.8167	-2.6896	-2.0542	-2.3729	-2.5458	-1.7521	-2.4479	-2.4167	-1.9396	-2.6375	-2.0542	-2.0104	-2.6167	-1.9813	246.872	151.003	419.108	419.156	315.122	108.043	211.173	406.473	253.244	98.457	246.046	353.960	59.705	93.188	148.520	375.354	3.5832e-05	0.00071968	0.00013322	193.9	2.2557e-06	6.9889e-06	218.3	79.815	5.7337e-06	7.1174e-06	88.017	27.742	29.67	11.965	3.75e-06	9.6386	0.00045243	0.0004683	0.00012943	225.88	5.0887e-06	5.0802e-06	243.67	89.34	5.0918e-06	5.1079e-06	103.28	33.319	39.812	13.396	5.0811e-06	11.946	120.471	93.322	105.078	72.653	271.364	107.022	70.051	77.354	70.160	194.112	73.731	77.816	80.625	86.034	295.478	81.185	-8191	255	
887.533	1	1	0	0	0.091449	0.22259	0.18054	0.26727	0.054839	0.10126	0.27169	0.11782	0.27774	0.16936	0.054246	0.057609	0.14583	0.12147	0.066395	0.23854	-2.0458	-2.5167	-1.9208	-2.7062	-1.8833	-2.1312	-2.5354	-1.8521	-2.2375	-2.3604	-1.8062	-2.5146	-2.0917	-1.8667	-2.575	-2.025	354.442	340.975	151.386	149.265	363.450	314.680	359.964	214.056	281.520	123.104	382.563	313.137	335.753	72.556	345.161	181.534	0.00010377	0.0001774	0.00017108	192.79	6.4329e-06	4.2367e-06	215.91	79.072	4.4771e-06	5.2976e-06	86.991	27.175	29.291	11.852	1.412e-06	9.6476	0.00045952	0.00046711	0.00012873	225.92	5.0944e-06	5.1079e-06	241.86	89.332	5.0591e-06	5.0517e-06	102.34	32.784	39.403	13.343	5.0609e-06	11.886	152.642	311.119	167.138	72.755	95.883	241.530	70.614	78.051	105.774	272.537	74.035	78.022	81.080	85.626	347.675	82.214	-8191	255	
887.629	1	1	0	0	0.11487	0.073392	0.038291	0.054785	0.26044	0.1532	0.07016	0.23835	0.24603	0.37237	0.29444	0.14783	0.23254	0.11307	0.23832	0.14768	-1.7333	-2.4104	-1.8417	-2.4417	-2.2229	-1.8521	-2.575	-1.9021	-1.8979	-2.6688	-1.8542	-2.4437	-2.225	-1.7875	-2.5521	-2.0938	288.981	217.193	96.489	415.478	258.378	349.827	81.641	267.883	218.449	353.154	390.914	129.798	93.664	108.107	403.159	193.344	0.00010419	0.00012128	0.00015878	191.52	2.3199e-06	4.4529e-06	215.65	79.999	7.3622e-06	3.6285e-06	87.323	27.592	29.866	11.937	1.3887e-06	9.5115	0.00044792	0.00045275	0.00012653	224.95	4.9976e-06	5.0379e-06	241.12	89.056	5.0397e-06	5.0214e-06	102.91	32.917	39.593	13.368	5.0097e-06	11.847	240.513	221.334	170.367	72.972	323.447	394.048	70.382	77.757	392.292	332.240	73.015	78.167	81.774	86.565	337.450	81.059	-8191	255	
887.725	1	1	0	0	0.15437	0.28848	0.15489	0.12435	0.17923	0.27005	0.021294	0.22215	0.14549	0.057431	0.11587	0.36911	0.11596	0.41497	0.18611	0.21855	-1.6354	-2.5792	-1.7208	-2.5271	-2.3146	-1.85	-2.6771	-1.9688	-2.0729	-2.6562	-1.8354	-2.2667	-2.1604	-1.9146	-2.5396	-2.1125	367.594	390.402	368.625	396.126	397.543	70.008	272.379	115.014	244.294	259.086	110.047	378.644	82.857	207.264	318.631	190.904	3.0346e-05	0.00083726	8.1343e-05	194.3	2.6354e-06	5.6113e-06	218.34	80.172	1.3687e-06	2.9161e-06	88.807	27.263	30.245	12.072	7.1108e-06	9.6185	0.0004473	0.00045514	0.00012623	225.52	4.9668e-06	4.9744e-06	242.38	89.355	4.9764e-06	5.0155e-06	103.32	33.035	39.843	13.429	5.0428e-06	11.949	98.605	405.056	355.531	72.404	115.394	138.365	70.965	78.171	212.915	265.428	74.137	78.707	81.827	85.543	219.736	81.609	-8191	255	
887.822	1	1	0	0	0.18726	0.14531	0.14467	0.10087	0.091082	0.22864	0.29916	0.15102	0.34262	0.22556	0.1395	0.33738	0.28957	0.067254	0.046689	0.16232	-1.5167	-2.5938	-1.7875	-2.3958	-2.3229	-1.8687	-2.5187	-2.0375	-1.8521	-2.6562	-1.9208	-2.4583	-2.3542	-1.7917	-2.6437	-2.2479	245.090	240.674	346.634	414.785	277.213	278.245	237.973	175.472	412.971	236.499	319.660	375.614	329.794	131.565	187.892	294.226	0.00015255	0.00042984	0.00022372	192.51	1.5649e-06	7.1728e-06	216.52	79.807	4.7506e-06	2.0038e-06	89.418	27.427	30.037	12.018	3.2819e-06	9.6949	0.00044599	0.00045555	0.000127	225.11	5.01e-06	4.9991e-06	243.63	89.5	5.0145e-06	5.0208e-06	104.25	33.118	39.578	13.438	5.0735e-06	11.977	190.600	188.284	120.217	72.779	307.757	372.789	70.259	77.608	171.833	406.673	74.314	78.447	82.977	86.585	419.156	81.255	-8191	255	
887.916	1	1	0	0	0.17195	0.1822	0.16628	0.2463	0.09283	0.30283	0.18343	0.080674	0.19981	0.13713	0.47326	0.33657	0.23596	0.26474	0.083717	0.24657	-1.4333	-2.6375	-1.7625	-2.1104	-2.4938	-1.7646	-2.6208	-2.2042	-1.8521	-2.8896	-2.0083	-2.2125	-2.5667	-1.6729	-2.4896	-2.3271	83.032	60.619	388.302	340.510	372.181	274.039	74.670	273.165	69.532	261.933	414.478	233.689	251.786	243.266	253.290	146.424	0.00017781	0.0001964	1.6504e-05	190.05	8.2355e-06	8.5102e-06	215.83	79.025	2.7618e-06	3.1417e-06	87.922	27.36	29.719	11.829	3.7915e-06	9.5868	0.00044894	0.00045788	0.00012729	223.73	4.994e-06	4.9854e-06	240.85	88.84	4.975e-06	5.0754e-06	102.89	32.695	39.408	13.374	4.99e-06	11.874	154.457	404.123	151.634	73.064	227.103	208.651	70.868	78.546	345.120	298.138	74.447	78.284	82.498	86.015	396.764	80.765	-8191	255	
888.012	1	1	0	0	0.15553	0.18767	0.051886	0.24007	0.066852	0.11257	0.13238	0.16954	0.14446	0.062712	0.27012	0.25999	0.16675	0.085946	0.072994	0.11177	-1.5333	-2.6333	-1.9729	-2.1417	-2.6958	-1.8479	-2.4354	-2.4083	-1.8333	-2.6021	-2.0312	-2.0833	-2.6312	-1.9438	-2.4813	-2.5312	367.982	274.980	237.673	347.450	188.520	151.546	208.363	386.233	164.936	399.361	383.290	291.492	255.348	395.492	276.719	321.982	8.9796e-05	0.00071231	2.2606e-05	191.75	4.1201e-06	1.8085e-06	215.19	79.728	5.6039e-06	4.9748e-06	88.033	27.179	29.409	11.777	7.2844e-06	9.5686	0.00044225	0.00046092	0.00012751	223.67	4.9651e-06	5.038e-06	240.88	88.823	4.9812e-06	5e-06	102.46	32.62	39.42	13.348	4.9975e-06	11.814	131.111	151.499	282.436	72.111	110.061	395.028	70.603	78.318	419.091	301.220	73.654	78.373	82.580	85.716	323.925	81.043	-8191	255	
888.133	1	1	0	0	0.19075	0.26843	0.07765	0.22893	0.051328	0.055079	0.30762	0.19514	0.34144	0.20426	0.17368	0.080536	0.11613	0.19478	0.052592	0.24178	-1.2583	-2.5271	-2.1729	-1.9354	-2.5625	-1.9875	-2.3479	-2.4104	-2.025	-2.6021	-2.1271	-2.0271	-2.6479	-2.0646	-2.2771	-2.4479	371.682	97.402	180.585	280.198	255.019	346.809	351.440	101.908	159.358	339.887	308.510	199.991	157.812	166.595	372.999	368.782	0.00014761	0.00034226	5.9891e-05	191.67	3.423e-06	2.4548e-06	214.45	78.786	3.7047e-06	5.4931e-06	88.513	27.512	29.485	12.038	9.7074e-06	9.7187	0.00044339	0.00045814	0.00012714	223.94	5.0357e-06	4.9839e-06	240.85	88.706	5.0147e-06	5.0425e-06	102.69	32.852	39.318	13.446	4.9723e-06	11.946	92.552	90.404	310.644	71.960	163.621	389.878	71.535	77.748	104.068	110.538	73.367	78.192	82.746	86.678	247.303	81.887	-8191	255	
888.229	1	1	0	0	0.21007	0.12534	0.12069	0.15979	0.34338	0.16065	0.18857	0.11862	0.089567	0.15063	0.11347	0.099269	0.15446	0.1327	0.1497	0.30731	-1.4146	-2.5563	-2.3458	-1.9292	-2.6854	-1.9688	-1.9833	-2.4167	-1.8583	-2.3396	-2.4625	-1.8458	-2.7021	-2.2646	-2.1604	-2.7438	200.247	400.810	267.723	136.819	365.691	259.302	300.953	281.634	150.791	196.302	277.426	192.673	285.949	402.010	107.114	403.563	0.00010615	0.0004308	0.00011829	190.33	1.2019e-06	3.8219e-06	213.9	79.394	4.0196e-06	3.5016e-06	87.849	27.276	29.307	11.983	5.0917e-06	9.6968	0.00044368	0.00045999	0.00012563	223.28	4.9532e-06	4.9604e-06	240.03	88.723	4.9698e-06	4.9608e-06	102.43	32.665	39.353	13.354	4.9684e-06	11.916	168.853	174.093	151.362	73.295	409.487	351.277	71.340	78.160	156.869	336.347	73.441	77.438	82.334	86.629	167.230	81.663	-8191	255	
888.325	1	1	0	0	0.13598	0.065233	0.15918	0.16601	0.11541	0.14842	0.14991	0.18642	0.10207	0.2001	0.18919	0.0936	0.081237	0.038497	0.057438	0.16993	-1.4208	-2.375	-2.3937	-1.8208	-2.5479	-2.1167	-2.1562	-2.8187	-1.7229	-2.2896	-2.6167	-1.9021	-2.4896	-2.2771	-1.9625	-2.7229	243.643	125.110	374.410	281.876	410.710	191.881	180.426	301.602	315.940	358.764	408.218	238.889	62.567	141.718	380.735	247.891	0.00012945	0.00060397	0.00016005	191.23	2.9034e-06	2.8764e-06	212.81	79.448	4.3159e-06	1.5757e-06	88.815	27.089	29.761	12.032	9.566e-06	9.6064	0.00044146	0.00045696	0.00012677	222.82	4.9878e-06	4.9409e-06	237.8	88.622	4.9439e-06	4.9982e-06	102.61	32.616	39.446	13.407	4.9724e-06	11.897	209.584	188.496	375.611	73.173	82.334	134.231	70.890	78.027	252.167	176.861	73.931	77.872	82.576	86.400	351.214	81.993	-8191	255	
888.421	1	1	0	0	0.19192	0.13757	0.18754	0.15387	0.17055	0.1689	0.037451	0.28694	0.19056	0.1188	0.15674	0.16973	0.14157	0.094386	0.13491	0.13258	-1.4708	-2.2083	-2.5292	-1.9042	-2.5229	-2.1646	-1.8146	-2.8333	-2.0167	-2.2375	-2.55	-1.8792	-2.5667	-2.3688	-1.8312	-2.5625	288.872	184.633	67.682	60.498	204.952	170.138	145.924	409.186	133.901	402.505	261.526	407.388	375.917	232.636	415.287	412.015	8.0294e-05	0.00073244	0.00022137	188.56	3.6701e-06	4.5896e-06	212.93	79.695	6.0163e-06	5.5586e-06	87.773	27.282	29.533	11.954	7.6608e-07	9.6719	0.00044168	0.00045417	0.00012682	222.52	5.0043e-06	5.002e-06	239.88	89.054	5.0061e-06	5.0225e-06	102.38	32.867	39.359	13.426	5.0122e-06	12.058	198.478	105.596	334.219	73.315	368.516	265.120	70.822	77.945	267.396	71.183	73.990	78.201	82.275	86.411	388.155	82.149	-8191	255	
888.517	1	1	0	0	0.026847	0.17962	0.2333	0.21054	0.18909	0.19299	0.14302	0.18278	0.21985	0.30754	0.092057	0.086912	0.10314	0.24368	0.16596	0.0514	-1.7729	-2.2833	-2.4229	-2.0146	-2.4188	-2.4542	-1.8292	-2.8104	-2.275	-2.1625	-2.8271	-1.6688	-2.3354	-2.4604	-1.9604	-2.7021	202.740	108.780	72.643	353.441	180.654	364.405	289.485	340.390	352.277	252.323	102.883	101.420	365.953	386.489	105.360	366.501	0.00011883	0.00047022	0.00013523	192.12	4.6242e-06	2.5968e-06	215.16	79.668	3.5308e-06	2.0155e-06	89.272	27.07	29.713	11.98	2.6239e-06	9.7906	0.00044492	0.00045859	0.00012897	223.45	5.0753e-06	5.0012e-06	241.99	89.341	4.9877e-06	5.0045e-06	103.88	32.876	39.562	13.493	5.0421e-06	12.051	131.584	317.931	262.247	72.683	146.370	364.277	70.814	77.812	158.163	275.375	73.849	78.008	82.863	86.877	264.410	81.494	-8191	255	
888.613	1	1	0	0	0.030448	0.24117	0.048201	0.1912	0.071706	0.20413	0.11375	0.15517	0.42246	0.11285	0.16124	0.12864	0.26559	0.1472	0.04286	0.098229	-1.6187	-1.9396	-2.5354	-1.8396	-2.1833	-2.5083	-2.0187	-2.5979	-2.2542	-2.0917	-2.6146	-1.9708	-2.0938	-2.4667	-1.9042	-2.6437	239.650	322.060	135.440	392.683	258.862	401.045	350.009	177.080	214.523	293.130	383.102	267.729	87.369	131.006	371.771	262.283	6.7361e-05	0.00017735	0.00012106	192.44	7.4149e-06	8.4681e-06	215.53	80.163	7.6826e-06	2.1705e-06	87.952	27.217	29.74	11.94	4.2655e-06	9.702	0.0004427	0.00045707	0.00012775	224.13	5.048e-06	5.0464e-06	240.53	89.266	5.0033e-06	4.9985e-06	102.88	32.688	39.306	13.416	5.0199e-06	11.965	158.173	95.197	231.451	73.045	233.673	169.166	70.928	78.091	167.303	264.123	73.717	78.505	82.321	86.758	187.419	82.477	-8191	255	
888.732	1	1	0	0	0.24189	0.35987	0.16603	0.20432	0.14939	0.17423	0.10058	0.058472	0.22085	0.063639	0.064335	0.081907	0.13961	0.19326	0.22294	0.21474	-1.6979	-1.7021	-2.9083	-1.8563	-2.1937	-2.6312	-1.65	-2.5438	-2.3896	-1.8667	-2.8667	-1.9354	-2.1208	-2.7521	-1.775	-2.2271	183.392	278.590	88.427	391.435	311.966	308.714	355.184	269.383	405.008	358.040	232.401	97.656	248.918	225.453	317.367	394.841	0.00021735	0.00043323	5.3678e-05	189.24	5.222e-06	3.145e-06	212.28	79.5	3.4937e-07	4.0115e-06	88.476	26.951	29.881	11.877	1.2146e-06	9.5288	0.00044567	0.00045911	0.0001283	222.5	5.0256e-06	4.9791e-06	239.67	88.874	4.9479e-06	5.0097e-06	102.48	32.723	39.273	13.417	4.9521e-06	11.882	148.692	147.328	390.876	72.952	309.099	143.285	71.073	77.732	303.854	102.476	73.314	78.534	82.839	86.613	218.292	81.348	-8191	255	
888.829	1	1	0	0	0.027479	0.1726	0.16335	0.10312	0.12594	0.30343	0.069531	0.3648	0.12875	0.10423	0.042889	0.050226	0.31003	0.21313	0.26363	0.15958	-1.9271	-1.7979	-2.5875	-2.0187	-2.0833	-2.7354	-1.9375	-2.2958	-2.4208	-1.85	-2.5271	-2.0938	-2.0479	-2.5833	-2.0542	-2.4062	250.792	264.384	355.922	79.546	176.820	347.756	394.683	323.918	336.990	225.665	96.226	124.483	134.568	303.681	215.598	147.478	0.00015639	0.00029357	0.00010214	190.06	2.0729e-06	3.1849e-06	214.87	80.428	6.2667e-06	5.1545e-06	89.108	27.254	29.459	11.926	9.6586e-06	9.6759	0.0004445	0.00044938	0.00012703	221.85	4.9787e-06	4.9987e-06	240.51	89.081	5.0117e-06	5.04e-06	102.69	32.897	39.285	13.462	4.9605e-06	11.94	186.606	371.784	155.413	72.976	101.748	366.059	71.822	78.427	187.463	202.497	74.156	78.490	81.509	86.409	175.978	82.356	-8191	255	
888.925	1	1	0	0	0.32617	0.089534	0.10335	0.068957	0.27469	0.17841	0.18359	0.09722	0.091796	0.14083	0.28735	0.063132	0.019099	0.091545	0.1869	0.1625	-2.0646	-1.8833	-2.6042	-2.2854	-1.9979	-2.6229	-1.9896	-2.15	-2.5542	-1.7437	-2.45	-2.1375	-1.9896	-2.6813	-1.9917	-2.3146	199.682	192.453	116.374	69.684	75.510	336.353	325.586	313.738	201.976	107.649	344.246	95.693	352.602	340.545	390.662	324.911	0.00010516	0.0002297	8.0404e-05	192.39	4.7756e-06	7.2735e-06	215.19	79.775	3.5887e-06	1.2847e-06	87.729	27.42	29.816	11.888	1.0603e-05	9.6256	0.00044676	0.0004544	0.00012814	223.47	4.9757e-06	5.0067e-06	240.47	88.734	4.9477e-06	4.9686e-06	102.87	32.784	39.458	13.422	4.9412e-06	11.914	121.395	132.743	173.894	72.839	359.164	251.805	70.457	78.480	95.952	214.216	73.368	77.879	83.020	86.616	165.570	81.950	-8191	255	
889.021	1	1	0	0	0.157	0.11309	0.10717	0.18091	0.38865	0.1781	0.13849	0.22056	0.27611	0.11977	0.23068	0.07849	0.18127	0.21773	0.26399	0.26686	-2.3979	-1.7437	-2.3729	-2.3646	-1.7542	-2.7667	-1.9979	-2.2854	-2.5875	-2.0917	-2.5646	-2.2792	-1.8792	-2.5833	-2.2667	-2.0458	82.213	352.825	166.505	414.945	361.229	225.171	206.550	281.075	196.814	106.985	354.427	74.069	298.531	378.953	126.284	392.015	7.7811e-05	0.0004793	0.00013422	188.88	3.5022e-06	1.043e-05	212.07	78.864	3.6115e-06	1.3078e-06	87.576	27.455	29.879	11.838	6.6707e-06	9.6436	0.00044484	0.00045343	0.00012688	221.61	4.9578e-06	4.9681e-06	238.1	88.409	4.9431e-06	4.9583e-06	102.13	32.577	39.143	13.328	4.9391e-06	11.845	159.819	207.921	119.465	73.440	238.326	198.921	71.547	78.570	256.602	217.167	73.972	78.391	82.647	86.657	235.283	80.988	-8191	255	
889.092	1	1	0	0	0.21425	0.057072	0.18771	0.042163	0.052068	0.36674	0.30906	0.11832	0.12131	0.23316	0.18019	0.25949	0.076028	0.22445	0.082492	0.086794	-2.2625	-1.7771	-2.5396	-2.5604	-1.625	-2.8271	-2.0604	-2.2271	-2.6479	-2.1688	-2.2646	-2.6188	-1.9562	-2.4583	-2.0417	-2.0312	373.718	325.326	366.873	142.060	110.336	336.901	198.876	161.339	343.228	148.581	416.481	347.956	329.678	262.522	274.286	120.543	7.9511e-05	3.9971e-05	7.5889e-05	189.47	3.6497e-06	2.6804e-06	214.31	78.777	7.9428e-06	2.0648e-06	88.729	26.995	29.746	11.884	2.99e-06	9.6436	0.00044343	0.00045145	0.00012638	222.15	4.9967e-06	5.0107e-06	238.28	88.045	4.9714e-06	4.9661e-06	102.62	32.634	39.257	13.421	4.926e-06	11.93	125.771	229.879	213.328	72.144	360.045	214.647	70.832	78.801	131.528	301.081	74.611	77.670	81.962	86.513	409.995	81.706	-8191	255	
889.213	1	1	0	0	0.20695	0.21537	0.08744	0.22397	0.13703	0.061625	0.12919	0.26445	0.10325	0.11237	0.21148	0.16697	0.29827	0.25066	0.11459	0.08771	-2.2396	-2.0021	-2.3208	-2.5854	-1.7854	-2.6625	-2.3646	-1.8875	-2.5146	-2.1208	-2.2188	-2.65	-1.7875	-2.6833	-2.3646	-1.7938	398.477	201.663	346.676	154.146	403.160	298.430	355.542	92.290	376.562	227.397	157.337	385.588	89.750	399.199	226.904	107.196	0.00016106	0.00064027	0.00015831	191.16	4.8822e-06	6.1302e-06	211.7	79.34	5.5902e-06	3.0294e-06	87.514	27.063	29.439	11.952	3.3281e-06	9.743	0.00044498	0.00045112	0.00012806	223.03	4.9921e-06	5.0291e-06	240.07	88.847	5.0046e-06	5.0102e-06	102.39	32.777	39.201	13.479	4.9524e-06	11.989	136.935	117.555	346.582	72.688	309.572	75.923	71.217	78.637	192.232	222.077	74.063	78.378	82.525	86.538	104.269	82.008	-8191	255	
889.309	1	1	0	0	0.058822	0.20761	0.11088	0.23191	0.23664	0.1198	0.14161	0.085928	0.2388	0.38684	0.26033	0.32654	0.15175	0.13165	0.26357	0.036777	-2.2521	-1.8792	-2.1437	-2.7104	-1.8729	-2.4146	-2.5229	-2.0083	-2.6292	-2.3479	-1.9458	-2.5667	-2.1188	-2.3667	-2.4333	-1.7896	393.402	362.470	417.826	232.897	358.932	157.065	369.226	361.275	227.745	114.609	391.280	346.099	73.746	262.449	380.767	99.289	9.5088e-05	0.00035658	4.8139e-05	188.25	4.6737e-06	5.7445e-06	212.24	78.819	4.8223e-06	2.6474e-06	87.884	27.056	29.584	11.788	9.4896e-06	9.5957	0.00044559	0.00045436	0.00012585	222.22	4.9623e-06	5.0047e-06	238.26	88.174	4.9735e-06	4.9437e-06	102.18	32.542	39.032	13.367	4.9344e-06	11.915	178.244	197.228	96.825	72.931	79.720	380.777	71.004	77.885	244.309	216.633	73.598	77.969	82.586	85.855	200.372	81.492	-8191	255	
889.405	1	1	0	0	0.19578	0.11312	0.17546	0.06328	0.23768	0.1314	0.10645	0.087883	0.0572	0.25504	0.11037	0.13505	0.18489	0.067619	0.053289	0.23193	-2.2104	-2.2083	-1.9188	-2.8042	-1.8146	-2.3583	-2.5875	-1.7667	-2.4313	-2.1521	-1.8958	-2.6958	-1.9646	-2.1271	-2.6583	-1.8188	370.363	380.244	260.521	419.927	157.749	399.038	265.013	411.876	131.934	93.227	79.455	320.906	245.160	107.571	304.528	260.169	6.4596e-06	0.00084928	8.508e-05	189.04	1.7445e-06	6.9682e-06	213.18	78.173	1.865e-06	2.889e-06	86.85	27.076	29.648	11.86	1.453e-05	9.3499	0.00044377	0.00044855	0.00012573	221.22	4.9581e-06	4.9974e-06	238.18	87.523	4.9672e-06	4.8785e-06	101.36	32.634	39.134	13.357	4.9534e-06	11.751	276.585	377.506	228.316	73.359	88.968	371.058	70.871	78.709	187.706	147.514	74.937	78.668	82.248	85.711	236.962	81.271	-8191	255	
889.502	1	1	0	0	0.11342	0.33012	0.072687	0.2936	0.20146	0.03043	0.10152	0.10113	0.1016	0.065674	0.1614	0.14468	0.16155	0.18833	0.29173	0.035497	-2.1229	-2.2667	-1.8667	-2.6958	-1.8417	-2.2396	-2.5896	-1.9937	-2.4125	-2.4875	-1.9083	-2.6042	-2.0583	-1.9896	-2.5938	-1.8687	366.896	70.864	368.399	361.499	72.419	291.282	175.257	293.239	183.120	373.522	362.272	311.936	363.814	280.584	95.790	63.858	2.4628e-05	0.00030115	2.8477e-05	191.42	4.2428e-06	8.0627e-06	211.34	79.15	5.4576e-06	4.4922e-06	87.974	27.017	28.738	11.866	5.1183e-06	9.36	0.00044135	0.00045042	0.00012471	222.44	4.9693e-06	4.9281e-06	237.5	88.019	5.0006e-06	4.9352e-06	101.35	32.446	38.962	13.331	4.99e-06	11.754	395.789	155.767	101.695	72.972	201.647	205.722	71.554	77.997	281.763	226.745	74.247	78.399	82.432	85.972	153.267	81.902	-8191	255	
889.620	1	1	0	0	0.23271	0.12422	0.10578	0.12342	0.086001	0.11062	0.058368	0.25602	0.070672	0.074348	0.030057	0.072392	0.0078415	0.28169	0.23183	0.091915	-2.2	-2.3646	-1.925	-2.6292	-2.1146	-2.0875	-2.7146	-1.8771	-2.55	-2.6646	-1.825	-2.6729	-2.2854	-1.9854	-2.6063	-1.9354	95.265	104.962	247.738	380.394	385.930	411.159	158.125	203.768	163.208	223.569	117.209	281.168	340.551	416.067	130.737	304.026	0.00013866	0.00051625	0.00031563	188.98	8.0182e-06	6.0022e-06	211.81	77.818	1.2836e-06	2.8596e-06	86.5	26.862	29.353	11.815	1.4711e-06	9.4547	0.00044296	0.00044801	0.00012525	222.05	4.9137e-06	4.9587e-06	237.55	87.473	4.9448e-06	4.9411e-06	101.27	32.503	38.96	13.288	4.9818e-06	11.779	198.634	272.694	176.624	72.720	279.614	300.803	70.960	78.222	146.385	385.174	74.091	78.751	82.924	86.395	302.200	82.480	-8191	255	
889.717	1	1	0	0	0.12146	0.25636	0.30189	0.1406	0.11614	0.1478	0.064479	0.11914	0.14367	0.0946	0.36792	0.41278	0.024959	0.15464	0.069061	0.32919	-1.9375	-2.5687	-1.8542	-2.4688	-2.3333	-1.9062	-2.6292	-2.1625	-2.2708	-2.5625	-1.9271	-2.5604	-2.4604	-1.8979	-2.6417	-2.1	117.216	290.645	402.198	215.407	314.818	90.362	85.121	204.946	226.750	81.751	262.856	297.773	148.416	121.014	182.419	82.060	0.00013075	0.00070434	5.4102e-05	191.91	1.592e-06	1.8637e-06	210.18	78.225	1.28e-06	4.1184e-06	86.604	26.575	28.206	11.734	4.4886e-07	9.3663	0.0004386	0.00045061	0.00012611	222.17	4.9074e-06	4.9205e-06	235.74	87.323	4.9024e-06	4.9104e-06	100.58	32.157	38.665	13.183	4.9648e-06	11.636	122.586	266.487	121.798	72.819	257.387	125.251	71.136	78.001	128.446	298.482	73.793	78.262	82.287	86.880	151.935	80.609	-8191	255	
889.813	1	1	0	0	0.30207	0.097132	0.10136	0.18299	0.089479	0.24107	0.021036	0.12984	0.11207	0.20413	0.065483	0.14692	0.21095	0.20146	0.13432	0.16515	-1.7188	-2.7167	-1.9833	-2.5833	-2.3521	-1.9833	-2.7667	-2.3937	-2.1042	-2.7104	-1.8583	-2.3917	-2.625	-1.8937	-2.6688	-2.35	367.210	196.702	120.572	396.076	229.853	299.414	107.951	359.661	76.561	397.996	259.554	319.819	118.291	350.379	185.742	198.697	0.00015948	0.00023519	0.00022281	188.17	2.5007e-06	2.4539e-06	211.02	77.7	4.5347e-07	1.8663e-06	85.192	26.632	29.48	11.65	5.7282e-07	9.3625	0.00044055	0.00044267	0.00012474	220.71	4.8805e-06	4.9346e-06	235.91	86.767	4.9317e-06	4.9634e-06	100.42	32.147	38.741	13.214	4.961e-06	11.62	135.113	68.459	186.141	73.365	83.930	82.250	71.219	77.985	359.323	206.245	74.044	79.217	81.513	86.106	317.268	81.119	-8191	255	
889.909	1	1	0	0	0.16532	0.1715	0.085913	0.22805	0.25986	0.2724	0.11507	0.20463	0.082054	0.042657	0.24279	0.040102	0.0092687	0.17844	0.27615	0.22601	-1.675	-2.8021	-1.9438	-2.3438	-2.7583	-1.8354	-2.6354	-2.4062	-2.1292	-2.6854	-1.8167	-2.2812	-2.6167	-1.9667	-2.5396	-2.2521	85.009	93.182	268.300	137.532	314.836	205.546	132.374	249.969	83.807	67.402	218.998	200.441	300.255	375.603	222.957	190.512	6.664e-05	0.0003646	0.00023915	187.97	3.559e-06	7.4848e-06	211.45	78.032	4.5187e-06	1.6617e-06	85.43	26.493	29.321	11.785	7.3393e-06	9.5009	0.00043631	0.0004483	0.00012405	220.67	4.8723e-06	4.8926e-06	236.61	87.174	4.8869e-06	4.9559e-06	100.53	32.245	38.891	13.278	4.9669e-06	11.691	169.289	374.321	167.408	72.452	301.977	198.567	71.311	78.016	158.025	106.836	74.124	77.891	81.762	86.270	93.257	81.373	-8191	255	
890.005	1	1	0	0	0.0727	0.13523	0.17128	0.11835	0.18349	0.13503	0.054902	0.038498	0.22526	0.049531	0.14581	0.19683	0.14243	0.13508	0.31935	0.19907	-1.4417	-2.6542	-2.1646	-2.3375	-2.7375	-2.1	-2.6458	-2.4625	-1.9875	-2.8458	-2.1833	-2.2208	-2.6396	-1.8021	-2.3125	-2.3896	388.723	338.292	155.177	268.775	225.664	306.036	279.491	263.085	164.461	94.490	99.379	376.617	278.549	339.317	326.333	265.849	0.00016228	0.00052522	6.4727e-05	189.46	5.6771e-06	5.712e-06	210.98	78.953	5.6891e-06	4.3316e-06	86.688	26.793	29.9	11.631	4.3771e-06	9.3571	0.00043713	0.00045065	0.00012516	220.37	4.9024e-06	4.9289e-06	237.53	87.744	4.9177e-06	4.9145e-06	100.82	32.328	39.038	13.197	4.9392e-06	11.626	139.085	159.023	351.715	72.910	355.086	340.876	70.176	77.971	265.817	418.370	73.733	78.095	82.223	86.461	220.459	81.372	-8191	255	
890.101	1	1	0	0	0.059872	0.053025	0.063463	0.02364	0.076888	0.12804	0.29242	0.10122	0.16602	0.25579	0.31223	0.30094	0.055429	0.068894	0.17304	0.13645	-1.5	-2.5646	-2.1688	-2.2521	-2.4333	-1.8687	-2.2958	-2.4521	-1.8146	-2.5542	-2.1625	-2.1167	-2.6	-1.9562	-2.3083	-2.525	68.107	326.713	268.240	356.782	203.054	390.905	240.354	330.917	103.157	277.727	361.069	142.468	107.614	332.923	172.805	87.023	4.8726e-05	0.00038226	0.00014538	189.26	5.1548e-06	6.2079e-06	210.56	78.089	9.3184e-06	3.7755e-06	85.759	26.607	29.922	11.802	5.3794e-06	9.3928	0.00043964	0.00045469	0.00012537	221	4.9647e-06	4.9384e-06	236.13	87.683	4.9483e-06	4.969e-06	100.55	32.171	39.115	13.224	4.9317e-06	11.676	199.923	255.789	147.376	72.902	163.886	152.216	71.011	78.362	268.514	345.876	73.630	78.079	83.028	86.608	188.918	81.728	-8191	255	
890.222	1	1	0	0	0.043073	0.052928	0.3724	0.1976	0.028013	0.084385	0.20785	0.25281	0.16784	0.15201	0.13636	0.13096	0.12327	0.20468	0.25593	0.12156	-1.5083	-2.5208	-2.1229	-2.0604	-2.5396	-1.9312	-2.0417	-2.7167	-1.7896	-2.6042	-2.3625	-1.8167	-2.8208	-2.1188	-2.1958	-2.4688	356.303	95.123	335.177	309.505	346.937	122.460	406.241	307.205	246.628	198.259	63.214	271.290	161.771	68.408	330.076	293.116	8.5168e-05	0.0004441	0.00013719	188.62	1.2894e-06	2.7651e-06	211.2	78.402	2.6362e-06	3.0646e-06	86.691	26.643	29.122	11.594	9.1401e-07	9.5183	0.00043506	0.00045022	0.00012468	220.39	4.9605e-06	4.9208e-06	236.31	87.531	4.9157e-06	4.9954e-06	101	32.29	38.737	13.233	5.0027e-06	11.735	187.984	321.044	179.676	73.118	139.799	280.801	70.685	77.888	87.859	381.759	73.731	78.943	82.077	86.871	274.527	80.950	-8191	255	
890.318	1	1	0	0	0.23256	0.40596	0.30541	0.39431	0.032863	0.14236	0.15649	0.24221	0.11818	0.16723	0.15935	0.26354	0.21373	0.17084	0.29388	0.15146	-1.4646	-2.3604	-2.475	-1.8146	-2.7229	-2.1146	-2.3208	-2.7313	-1.875	-2.5646	-2.6375	-2.0604	-2.7562	-2.0875	-2.2188	-2.7604	224.999	155.262	206.617	115.633	393.913	235.408	217.737	307.530	242.065	383.956	388.752	322.129	85.191	396.855	83.808	373.692	0.0001342	0.00058945	0.00013588	190.13	2.3384e-06	4.494e-06	212.55	77.746	2.2362e-06	4.6371e-06	86.744	26.702	29.155	11.936	2.3067e-06	9.4685	0.00043815	0.00044789	0.00012443	221.74	5.003e-06	4.9301e-06	237.43	87.552	4.902e-06	4.9243e-06	100.77	32.268	39.122	13.313	4.9761e-06	11.781	163.241	167.313	380.136	73.323	226.212	312.696	71.091	78.079	376.524	312.053	74.537	78.106	82.016	86.482	261.199	81.682	-8191	255	
890.390	1	1	0	0	0.29709	0.11627	0.11291	0.11456	0.17488	0.024014	0.21469	0.27658	0.21776	0.14201	0.31872	0.10656	0.11645	0.13786	0.17619	0.10414	-1.4604	-2.4458	-2.6833	-1.7917	-2.7104	-2.1979	-2.0521	-2.7875	-1.9062	-2.2313	-2.6042	-1.8479	-2.475	-2.3896	-1.9396	-2.6396	108.985	270.504	406.091	247.128	313.907	195.475	75.407	295.255	350.438	332.648	367.339	228.025	393.100	94.021	282.455	99.665	5.5314e-05	0.00052146	0.00015953	192.38	3.6027e-06	2.4061e-06	214.04	78.375	5.1564e-06	3.2119e-06	85.71	26.497	29.167	11.82	2.6983e-06	9.4955	0.00043991	0.00045232	0.00012627	222.29	4.9779e-06	4.8804e-06	236.98	87.866	4.9077e-06	4.9056e-06	100.3	32.203	38.791	13.231	4.9356e-06	11.762	252.300	266.728	205.470	72.588	174.550	126.209	71.242	77.582	176.190	247.376	73.732	78.917	83.306	86.093	308.124	81.378	-8191	255	
890.510	1	1	0	0	0.1233	0.058788	0.08304	0.11562	0.41695	0.036388	0.25525	0.04456	0.089097	0.14462	0.047648	0.16293	0.15564	0.18572	0.059687	0.045353	-1.5333	-2.375	-2.7271	-1.8271	-2.5958	-2.3833	-1.8833	-2.7396	-1.9813	-2.225	-2.6833	-1.8833	-2.475	-2.4458	-1.9542	-2.575	146.654	204.112	68.878	194.643	265.234	136.244	123.762	77.225	335.582	109.540	178.420	323.467	374.674	416.919	138.938	216.739	0.00026294	0.00030594	4.2197e-05	187.75	2.5793e-06	6.886e-06	211.64	78.465	8.4553e-06	3.0472e-06	87.092	26.978	29.34	11.731	8.3351e-06	9.503	0.00044217	0.00044926	0.00012655	221.24	4.9573e-06	4.9195e-06	237.02	87.741	4.9369e-06	4.9236e-06	100.98	32.313	38.957	13.275	4.9603e-06	11.773	140.809	123.099	160.889	72.625	371.679	158.299	71.580	78.271	136.719	277.917	73.813	78.487	82.437	86.018	143.871	81.212	-8191	255	
890.606	1	1	0	0	0.079718	0.076955	0.070824	0.026668	0.2264	0.22362	0.16173	0.050058	0.098715	0.2017	0.24457	0.069607	0.25963	0.17524	0.086586	0.096146	-1.7354	-2.1146	-2.7396	-2.0021	-2.5417	-2.6625	-1.9021	-2.6188	-2.1271	-2.1813	-2.8167	-1.775	-2.35	-2.5146	-1.9708	-2.7125	395.033	291.268	399.362	225.479	296.944	240.945	250.054	136.203	355.505	386.562	65.105	165.805	120.634	291.313	281.220	373.406	7.8976e-05	0.00046069	0.0001472	188.99	6.1686e-06	4.4218e-06	212.82	78.724	4.0385e-06	5.1137e-06	87.4	27.157	29.505	11.92	4.4565e-06	9.5401	0.00044453	0.00045709	0.00012721	221.17	5.0307e-06	4.9996e-06	238.73	88.139	4.9994e-06	4.9718e-06	101.74	32.496	39.33	13.363	5.0039e-06	11.864	103.756	169.816	120.359	72.618	417.139	283.694	70.925	78.029	412.622	300.112	74.334	78.039	81.309	86.549	257.595	82.647	-8191	255	
890.701	1	1	0	0	0.15845	0.15408	0.24844	0.15395	0.11328	0.20616	0.078341	0.18073	0.15067	0.12353	0.30313	0.14481	0.12356	0.15473	0.22829	0.037166	-1.9562	-1.975	-2.7562	-2.1083	-2.5104	-2.7708	-1.8875	-2.6333	-2.2083	-1.9521	-2.6271	-2.2271	-2.3229	-2.6813	-1.9104	-2.5833	84.698	233.873	360.516	414.470	347.004	267.280	381.212	383.320	89.077	301.514	99.910	374.676	214.562	223.518	123.588	89.265	0.00011811	0.00036197	5.2156e-05	190.55	3.1736e-06	7.2997e-06	212.7	79.131	3.0405e-06	4.2428e-06	87.97	27.066	29.167	11.877	5.2808e-06	9.5459	0.00044748	0.0004566	0.00012738	223.04	4.9737e-06	5.0352e-06	238.53	88.652	4.9832e-06	4.9836e-06	102.24	32.563	39.257	13.358	4.9109e-06	11.845	176.874	245.347	316.588	72.497	290.993	76.655	70.483	78.192	93.809	257.419	74.141	78.002	81.816	86.517	276.887	82.389	-8191	255	
890.797	1	1	0	0	0.15341	0.1495	0.31343	0.071904	0.042413	0.18041	0.31572	0.11173	0.2573	0.10548	0.23597	0.11145	0.33994	0.26683	0.37918	0.12041	-2.1229	-2.1667	-2.8167	-2.3208	-2.2812	-2.6625	-2.1667	-2.5917	-2.525	-1.8917	-2.9146	-2.2625	-2.2562	-2.925	-1.8771	-2.4646	303.283	402.486	272.360	319.946	375.078	73.669	286.278	209.831	283.801	348.540	266.443	109.516	255.589	336.498	416.990	315.966	0.00015563	0.00041326	6.1109e-05	190.03	5.5117e-06	6.4526e-06	211.15	78.639	1.7173e-06	2.0175e-06	86.031	26.996	29.172	11.763	1.1042e-05	9.5276	0.00044077	0.00045392	0.00012648	221.6	4.9865e-06	4.97e-06	237.75	88.312	4.9667e-06	4.9385e-06	101.21	32.397	39.299	13.314	4.943e-06	11.873	163.713	297.414	127.393	72.921	255.047	341.862	71.373	78.479	69.954	170.734	74.322	77.196	82.710	86.558	173.547	81.415	-8191	255	
890.918	1	1	0	0	0.20493	0.1534	0.093292	0.19547	0.1277	0.076083	0.092719	0.20293	0.17991	0.1983	0.2747	0.26768	0.12578	0.033893	0.22476	0.054293	-2.1354	-2.1708	-2.5187	-2.2396	-2.1271	-2.825	-2.2521	-2.6583	-2.6375	-1.9917	-2.8812	-2.525	-1.9958	-2.7021	-1.9062	-2.4604	137.727	208.003	259.396	288.099	340.112	352.640	126.141	97.443	419.673	419.292	384.351	62.151	116.138	206.999	199.382	357.310	9.6122e-05	4.5478e-05	0.0002208	187.82	3.6509e-06	3.4377e-06	210.99	78.619	3.8624e-06	3.2928e-06	87.168	26.776	29.815	11.952	2.6269e-06	9.495	0.00044534	0.000451	0.00012619	221.63	4.953e-06	4.9789e-06	236.81	88.21	5.0044e-06	4.9932e-06	101.73	32.343	39.146	13.374	4.9025e-06	11.862	125.648	404.547	190.585	72.982	224.639	107.710	70.808	77.839	180.873	360.402	74.209	78.604	81.904	86.691	220.373	81.936	-8191	255	
891.014	1	1	0	0	0.10463	0.070849	0.05378	0.15213	0.05658	0.236	0.1039	0.094282	0.12737	0.064905	0.13607	0.16941	0.11617	0.054426	0.019952	0.1275	-2.2583	-1.8062	-2.5938	-2.3958	-2.0375	-2.7562	-2.0167	-2.0771	-2.5792	-1.9708	-2.6833	-2.5563	-1.8083	-2.7958	-2.0896	-2.4	72.923	385.743	345.529	190.876	226.604	412.236	410.043	241.396	367.879	407.159	251.494	414.100	239.252	355.653	376.201	386.633	3.2496e-05	0.00012262	0.0001276	190.28	2.1681e-06	6.9539e-06	212.49	78.807	5.6583e-06	3.1386e-06	88.081	26.95	29.442	11.902	4.3344e-06	9.6935	0.00044018	0.00044783	0.00012557	222.96	4.9165e-06	4.9387e-06	237.96	88.557	4.9443e-06	4.9372e-06	102.33	32.655	39.347	13.489	4.9518e-06	11.957	84.850	101.652	155.777	73.350	218.216	98.702	71.160	78.635	167.743	210.398	74.441	78.026	82.237	85.776	99.315	81.025	-8191	255	
891.085	1	1	0	0	0.27356	0.25466	0.17411	0.10389	0.2431	0.096304	0.28547	0.023546	0.25958	0.024841	0.093353	0.14609	0.087578	0.04112	0.33609	0.081567	-2.3583	-1.9333	-2.7354	-2.6146	-2.0062	-2.6646	-2.3292	-2.1333	-2.6708	-2.025	-2.4896	-2.6229	-2.0187	-2.7896	-2.2646	-2.2167	174.311	209.811	337.572	327.237	280.252	417.639	392.321	147.188	87.330	135.001	103.903	133.986	232.889	205.278	331.617	120.272	2.7287e-05	0.00045908	0.00015594	190.33	4.6452e-06	2.3244e-06	215.17	79.44	3.601e-06	8.6365e-06	88.301	27.451	29.799	12.035	5.7276e-06	9.8712	0.00044214	0.00044877	0.00012679	221.97	4.9449e-06	4.9724e-06	239.37	88.699	4.9875e-06	4.9007e-06	102.39	32.769	39.162	13.516	4.9492e-06	11.996	171.781	310.366	130.430	72.444	295.986	271.484	70.985	78.238	244.881	136.163	74.319	78.139	83.168	86.615	82.784	82.471	-8191	255	
891.182	1	1	0	0	0.15726	0.26233	0.12436	0.16651	0.063424	0.087702	0.15878	0.091039	0.1559	0.071309	0.16454	0.082761	0.22263	0.32259	0.1858	0.38487	-2.2687	-1.9375	-2.4354	-2.7583	-2.1396	-2.6479	-2.4271	-2.0438	-2.7417	-2.0375	-2.4292	-2.6875	-2.1354	-2.7083	-2.5479	-2.0854	191.102	348.531	143.918	267.427	340.757	122.655	412.279	219.746	165.786	209.891	290.321	402.361	341.724	317.777	132.997	288.882	0.00014227	0.00083192	0.00020826	189.16	1.9279e-06	1.2471e-06	215.43	79.756	8.1732e-06	1.2699e-06	88.117	27.136	29.381	11.976	4.7165e-06	9.582	0.00043776	0.00044907	0.00012651	221.5	4.9153e-06	4.9507e-06	238.63	88.738	4.9737e-06	4.9452e-06	102.29	32.722	39.288	13.433	4.9039e-06	11.912	121.949	380.466	79.676	72.920	80.746	307.536	71.130	78.100	221.308	154.579	73.492	77.788	82.925	86.357	178.015	81.982	-8191	255	
891.302	1	1	0	0	0.32093	0.22608	0.13855	0.17781	0.1542	0.086024	0.14821	0.090539	0.18416	0.46592	0.045582	0.082944	0.14051	0.19171	0.18893	0.14822	-2.4354	-1.9125	-2.2083	-2.6083	-1.9375	-2.7062	-2.6417	-2.0271	-2.7417	-2.1833	-2.2833	-2.9354	-1.9958	-2.6042	-2.6	-1.9625	296.240	281.772	310.646	189.323	96.642	138.594	331.605	416.837	108.719	165.866	370.873	303.150	389.881	91.634	265.084	65.485	0.00017612	0.00025689	0.00017053	189.21	9.9206e-07	7.5775e-06	211.07	78.722	6.6113e-06	4.4925e-06	88.314	27.215	29.799	11.897	2.9999e-06	9.7757	0.00044134	0.00044832	0.00012568	222.05	4.9136e-06	4.9957e-06	238.27	88.511	5.009e-06	4.9891e-06	101.94	32.817	39.514	13.497	4.9518e-06	12.028	125.012	369.112	315.603	72.350	192.114	192.311	71.704	78.258	228.660	173.138	73.929	77.812	82.261	86.657	237.520	81.374	-8191	255	
891.398	1	1	0	0	0.14742	0.28801	0.080227	0.042281	0.24708	0.13802	0.11905	0.20692	0.27311	0.24514	0.091432	0.081801	0.13163	0.11631	0.069215	0.32698	-2.3333	-2.1625	-2.1729	-2.7229	-1.7354	-2.4979	-2.6479	-1.8104	-2.7333	-2.2687	-2.1937	-2.9375	-1.975	-2.3729	-2.725	-2.125	417.234	267.735	345.364	117.285	112.836	265.566	228.291	303.201	113.052	305.090	367.776	410.225	360.104	389.540	85.496	302.917	0.0001682	0.00077751	0.00033669	191.72	4.4758e-06	6.3775e-06	212.87	79.242	3.8015e-06	4.3162e-06	88.042	27.416	29.737	12.077	8.7551e-06	9.817	0.00044442	0.00045155	0.0001273	223.25	4.9822e-06	5e-06	239.84	88.933	5.0084e-06	4.9965e-06	102.73	33.056	39.392	13.524	4.9864e-06	12.062	184.778	142.842	129.743	73.218	244.422	188.707	71.047	78.040	156.068	190.845	74.540	77.814	82.161	86.086	127.944	80.833	-8191	255	
891.494	1	1	0	0	0.17439	0.12215	0.35977	0.14628	0.11535	0.26172	0.27433	0.12115	0.15448	0.1067	0.064216	0.15127	0.087981	0.1295	0.051518	0.13276	-2.3312	-2.3708	-2.1708	-2.8063	-1.9979	-2.3187	-2.7562	-2.0229	-2.5812	-2.3604	-2.1604	-2.8458	-2.2812	-2.3667	-2.6625	-1.8813	303.777	137.697	167.433	246.707	321.525	396.094	275.885	199.060	393.987	409.784	265.494	264.867	78.596	338.105	308.145	314.691	8.6111e-05	0.00033587	0.00031162	192.37	4.4899e-06	3.7896e-06	213.11	78.241	4.9485e-06	3.1332e-06	88.229	27.336	29.216	12.127	9.2457e-06	9.7284	0.00044317	0.0004482	0.00012622	222.73	4.9611e-06	4.9729e-06	239.26	88.634	4.9887e-06	4.9617e-06	102.18	32.964	39.175	13.529	5.0475e-06	11.976	175.571	87.030	348.325	73.266	250.822	252.502	70.943	78.578	241.011	208.741	74.219	77.669	83.005	85.890	182.274	81.802	-8191	255	
891.615	1	1	0	0	0.10617	0.15847	0.17669	0.20149	0.22408	0.10371	0.12698	0.1623	0.1042	0.2349	0.15901	0.085825	0.091921	0.20165	0.2249	0.33818	-2.2917	-2.5625	-1.8667	-2.8729	-2.0771	-2.1312	-2.5708	-1.8979	-2.5208	-2.5833	-1.8563	-2.7687	-2.2333	-2.0958	-2.7375	-1.9875	63.986	137.776	244.608	355.731	167.597	170.731	407.024	327.614	337.529	152.215	78.905	85.690	345.970	320.291	383.672	141.299	7.8218e-05	0.00035012	0.00013728	190.57	3.9151e-06	5.9921e-06	215.09	79.352	2.811e-06	3.2618e-06	88.195	27.447	30.225	11.997	5.5038e-06	9.6682	0.0004449	0.00044983	0.00012467	221.79	4.9583e-06	4.9661e-06	238.54	88.712	4.9665e-06	4.9596e-06	101.96	32.78	39.633	13.505	5.0339e-06	11.998	145.574	138.492	378.532	73.756	112.645	103.324	71.279	78.219	259.541	341.266	74.548	78.532	81.908	86.296	181.175	81.582	-8191	255	
891.687	1	1	0	0	0.12757	0.1619	0.097351	0.21381	0.14459	0.029163	0.27139	0.162	0.069052	0.052236	0.13651	0.1124	0.10129	0.11512	0.24	0.12352	-2.1063	-2.4688	-1.9417	-2.7333	-2.2771	-2.0354	-2.6333	-1.9583	-2.5167	-2.6854	-1.9104	-2.6417	-2.2458	-1.9604	-2.7854	-1.9667	210.961	377.252	337.888	323.864	168.261	410.267	356.637	372.296	237.234	203.583	411.428	257.414	232.217	329.673	342.254	357.826	0.00011638	0.00064863	0.00027171	193.24	2.8519e-06	7.312e-06	212.74	79.046	7.894e-06	5.0973e-06	88.429	27.383	30.221	12.14	5.9691e-06	9.7141	0.00044519	0.00045924	0.00012721	222.84	4.9752e-06	4.978e-06	239.33	88.706	4.9867e-06	4.9879e-06	102.62	32.973	39.457	13.529	5.0269e-06	12.024	152.663	67.668	380.955	72.995	255.947	83.239	71.410	78.553	200.226	302.916	74.783	78.374	81.425	86.780	236.522	81.052	-8191	255	
891.783	1	1	0	0	0.22236	0.092895	0.10945	0.35626	0.13139	0.36916	0.042679	0.18092	0.11389	0.026825	0.055316	0.11837	0.11147	0.2403	0.2883	0.073119	-1.9708	-2.7146	-1.9292	-2.6562	-2.5438	-1.8229	-2.9083	-1.9583	-2.1104	-2.75	-1.9062	-2.6646	-2.5062	-1.9813	-2.7062	-2.2625	214.747	125.714	399.006	403.781	396.277	78.833	137.384	215.906	323.403	370.940	105.951	370.599	336.059	280.920	83.852	286.200	9.4881e-05	0.00018393	6.0846e-05	188.25	2.0528e-06	6.3456e-06	216.25	79.669	1.0534e-05	5.6681e-06	88.866	27.385	30.01	11.958	5.0755e-06	9.7739	0.00044388	0.00045743	0.00012755	223.18	5.0331e-06	4.9749e-06	241.2	88.904	5.0061e-06	5.015e-06	103.03	33.121	39.721	13.484	5.0204e-06	12.025	108.084	397.713	63.651	73.307	135.105	322.835	71.378	78.373	251.827	263.581	73.906	78.224	82.395	86.358	393.087	81.871	-8191	255	
891.902	1	1	0	0	0.37577	0.059243	0.15753	0.075295	0.11575	0.15355	0.037476	0.069625	0.080111	0.060723	0.15308	0.16302	0.20261	0.16431	0.092748	0.11418	-1.7	-2.7458	-1.8167	-2.4958	-2.5271	-2.0938	-2.9	-2.2083	-2.0354	-2.8021	-2.025	-2.3729	-2.5979	-1.8438	-2.7917	-2.3438	108.112	208.435	389.191	331.146	66.974	335.927	375.655	221.862	71.243	135.040	281.966	346.467	157.143	377.835	240.616	78.564	0.00011241	0.00049681	0.000115	191.21	6.3849e-06	4.1327e-06	213.87	79.246	3.9259e-06	4.6199e-06	87.101	27.513	29.938	12.027	3.9154e-06	9.654	0.00044392	0.00045679	0.00012575	222.51	4.9831e-06	4.9797e-06	239.48	88.571	5.0008e-06	5.012e-06	102.4	32.974	39.427	13.428	4.9867e-06	11.951	106.984	280.599	67.787	73.476	173.794	62.740	71.182	78.331	179.180	194.787	73.898	78.182	82.168	87.162	226.111	81.271	-8191	255	
891.998	1	1	0	0	0.18001	0.02487	0.11267	0.27883	0.088742	0.1089	0.25398	0.067823	0.16998	0.18132	0.013599	0.13858	0.096055	0.19472	0.20747	0.135	-1.6333	-2.8146	-1.9438	-2.4417	-2.8521	-1.95	-2.8042	-2.475	-2.0229	-2.8396	-2.2979	-2.3375	-2.7812	-1.9104	-2.6188	-2.4583	275.638	329.994	247.483	408.970	365.794	66.533	339.349	218.584	395.254	94.726	90.030	249.601	381.717	322.552	100.823	417.449	7.5954e-05	0.00016146	5.9458e-05	190.42	5.9883e-06	5.7374e-06	212.25	79.57	3.9365e-06	3.4613e-06	87.417	27.145	30.335	12.069	3.6395e-06	9.6673	0.00044571	0.00045316	0.00012613	222.82	5.003e-06	4.9617e-06	239.64	89.01	4.9203e-06	4.9456e-06	102.17	32.834	39.421	13.486	4.9404e-06	11.973	156.527	75.120	383.934	72.322	406.858	397.545	71.141	78.113	387.902	372.921	74.458	78.650	81.920	86.271	146.055	82.607	-8191	255	
892.094	1	1	0	0	0.13838	0.061268	0.2328	0.37927	0.21711	0.28672	0.10714	0.093137	0.23269	0.11183	0.31555	0.10023	0.11415	0.10611	0.30229	0.066229	-1.7292	-2.6125	-2.2062	-2.1562	-2.6083	-1.8979	-2.5083	-2.7562	-2.0938	-2.6229	-2.1688	-2.3417	-2.7875	-2.0062	-2.5979	-2.6688	117.291	122.916	116.906	256.971	248.913	338.665	303.354	71.425	84.653	124.638	381.445	399.739	255.740	188.182	68.018	246.309	0.00012626	0.0002933	0.000101	190.17	7.3687e-06	7.3174e-06	214.66	79.496	7.7851e-06	5.9192e-06	87.727	27.353	30.56	12.099	2.7563e-06	9.8592	0.00043901	0.00045866	0.00012618	222.61	5.0058e-06	4.9115e-06	239.84	89.061	4.9368e-06	4.9557e-06	102.47	32.956	39.671	13.538	4.9239e-06	12.097	174.418	114.132	180.861	72.425	313.356	208.483	71.213	78.305	225.390	365.608	74.397	77.884	81.667	86.866	98.573	82.226	-8191	255	
892.215	1	1	0	0	0.22758	0.27743	0.069061	0.32518	0.19973	0.26785	0.14199	0.089388	0.090238	0.22181	0.3286	0.31676	0.23899	0.082749	0.19408	0.13285	-1.5375	-2.7604	-2.1771	-2.1188	-2.8	-2.0354	-2.4479	-2.6625	-1.9354	-2.5479	-2.4062	-2.0146	-2.7938	-2.0979	-2.3875	-2.6354	357.222	259.799	244.185	105.056	357.775	306.314	298.816	256.559	406.554	252.616	272.364	358.361	75.726	294.901	399.735	419.581	2.7648e-05	0.00088676	9.4573e-05	191.01	2.6953e-06	6.0546e-06	214.02	80.229	2.1381e-06	4.1354e-06	88.214	27.679	29.779	12.029	6.8041e-06	9.6802	0.00043766	0.00045377	0.00012493	222.88	5.0122e-06	4.9395e-06	239.88	89.087	4.9666e-06	4.9684e-06	102.75	32.982	39.488	13.501	4.9996e-06	11.996	388.559	187.713	409.119	73.173	326.230	284.477	71.126	78.437	250.214	75.819	74.304	78.703	81.593	86.076	381.896	81.561	-8191	255	
892.286	1	1	0	0	0.17634	0.07375	0.20932	0.15352	0.10957	0.016258	0.013891	0.35933	0.037794	0.26931	0.069804	0.24115	0.21313	0.15737	0.18609	0.056348	-1.6375	-2.7938	-2.4333	-1.7958	-2.7208	-2.2458	-2.2417	-2.7292	-2.0438	-2.6146	-2.4458	-2.3125	-2.7667	-2.1021	-1.85	-2.725	68.023	197.610	396.983	248.472	277.016	73.754	330.831	61.897	321.329	346.953	136.623	178.125	167.359	388.517	134.015	317.517	8.5589e-05	0.00024832	0.00012549	189.15	6.2916e-06	5.4828e-06	211.37	80.157	1.6195e-06	4.8559e-06	89.634	27.462	29.938	12.058	6.626e-06	9.7563	0.00044043	0.00045614	0.00012594	221.44	5.0191e-06	4.9483e-06	238.22	89.247	4.9211e-06	4.9545e-06	102.78	32.718	39.461	13.47	4.9388e-06	11.968	156.956	187.837	94.651	73.637	281.146	128.381	71.061	77.972	208.968	370.367	73.842	78.136	81.828	86.801	178.632	81.083	-8191	255	
892.383	1	1	0	0	0.077441	0.14026	0.16503	0.090363	0.18444	0.13542	0.20984	0.2114	0.068637	0.16144	0.30173	0.26867	0.13776	0.15987	0.20845	0.11043	-1.5729	-2.5312	-2.2833	-2.0167	-2.7354	-2.3542	-2.2542	-2.7979	-1.7854	-2.5042	-2.4437	-1.9854	-2.7396	-2.1646	-2.0333	-2.7854	264.409	96.153	403.478	259.250	384.677	309.915	160.387	395.826	373.476	81.434	318.365	77.524	348.536	183.923	304.919	407.156	0.00015175	0.00024861	0.0001115	191.14	2.1279e-06	4.608e-06	213.73	79.584	6.5243e-06	3.6579e-06	87.64	27.458	30.061	12.011	2.3959e-06	9.8608	0.00043718	0.00044969	0.00012548	222.56	4.9233e-06	4.9675e-06	239.68	88.997	4.9307e-06	4.9576e-06	102.57	32.95	39.588	13.459	4.9403e-06	12.016	136.832	345.708	196.448	72.818	267.874	174.723	70.248	78.339	194.817	316.341	73.782	78.011	82.629	86.220	399.516	81.367	-8191	255	
892.479	1	1	0	0	0.1882	0.31676	0.20741	0.19223	0.076629	0.30583	0.28335	0.0085399	0.10925	0.16179	0.14606	0.22944	0.15926	0.059916	0.14294	0.16871	-1.6938	-2.0208	-2.5354	-1.9625	-2.6792	-2.275	-1.9625	-2.6542	-1.9104	-2.2583	-2.6375	-1.9937	-2.4083	-2.3021	-1.7271	-2.6167	336.721	239.413	138.854	100.956	89.361	352.807	255.203	304.208	187.222	155.878	415.964	290.083	102.185	308.840	360.552	315.736	3.9917e-05	0.00069461	2.6717e-06	189.73	2.8354e-06	7.8912e-06	213.48	80.145	5.1167e-06	3.1108e-06	88.622	27.338	30.249	12.121	4.0802e-06	9.8162	0.00043541	0.00044697	0.00012555	222.16	4.9192e-06	4.9262e-06	239.97	89.108	4.9005e-06	4.9838e-06	102.85	33.075	39.611	13.523	4.9968e-06	12.064	168.247	172.185	256.622	72.517	184.302	214.954	70.741	78.531	211.711	129.331	74.104	77.953	81.850	86.346	60.617	81.460	-8191	255	
892.575	1	1	0	0	0.22048	0.31458	0.30759	0.21363	0.073253	0.035911	0.28562	0.11342	0.1001	0.1365	0.1431	0.30826	0.25408	0.19573	0.31904	0.18451	-1.5708	-2.0479	-2.7667	-2.1021	-2.5625	-2.3958	-2.2396	-2.6437	-2.0396	-2.0729	-2.7687	-2.1333	-2.5563	-2.5917	-1.925	-2.5708	346.454	262.244	304.658	370.594	405.055	191.544	332.169	87.812	102.210	242.951	390.360	374.162	235.418	146.287	245.709	381.655	4.686e-05	0.00032	3.542e-05	190.57	3.741e-06	1.7282e-05	211.87	79.262	7.6854e-06	4.4983e-06	87.146	27.297	29.613	11.974	1.0137e-05	9.4855	0.00044145	0.00045055	0.00012708	222.13	4.9994e-06	4.979e-06	238.76	88.389	4.9436e-06	4.9491e-06	101.98	32.753	39.15	13.403	4.925e-06	11.896	114.239	106.312	214.642	73.192	78.421	230.578	71.318	78.320	99.785	244.587	73.946	78.085	81.918	86.498	143.927	81.526	-8191	255	
892.694	1	1	0	0	0.062437	0.24269	0.16337	0.14769	0.12123	0.17347	0.15558	0.13624	0.21931	0.086638	0.12338	0.28039	0.27213	0.067661	0.18519	0.13089	-1.7958	-2.0771	-2.6458	-1.8875	-2.3146	-2.5875	-1.8937	-2.5896	-2.2042	-1.9896	-2.7146	-1.9083	-2.3542	-2.5687	-1.7896	-2.4771	194.063	247.997	225.354	154.290	358.866	118.333	61.608	229.346	213.416	77.949	352.121	248.874	89.884	231.360	127.027	195.632	0.00016716	0.00076449	0.00018575	191.1	1.6135e-06	6.3098e-06	213.72	79.554	2.7237e-06	1.9696e-06	87.295	27.156	30.214	11.91	8.9415e-06	9.5722	0.00044146	0.00045586	0.00012578	221.24	4.9806e-06	4.9691e-06	237.86	88.744	4.9175e-06	4.9356e-06	101.77	32.509	39.189	13.36	4.9145e-06	11.908	184.309	223.863	398.605	73.108	398.501	253.563	70.538	78.810	195.457	213.218	74.232	78.340	82.495	86.001	171.399	81.326	-8191	255	
892.790	1	1	0	0	0.24265	0.22199	0.22249	0.10565	0.11275	0.30782	0.086938	0.17216	0.15982	0.20255	0.15304	0.12988	0.16852	0.20387	0.29292	0.20055	-1.8417	-1.8	-2.6167	-1.8917	-2.1125	-2.6188	-1.8958	-2.6042	-2.3125	-1.9146	-2.7208	-2.1813	-2.0542	-2.6333	-1.85	-2.4938	253.429	103.943	193.954	86.684	188.445	266.643	419.344	61.802	231.215	223.659	319.605	395.529	281.619	279.461	254.875	300.343	0.00013471	0.00022422	4.9466e-05	190	1.0535e-06	1.5681e-06	215.3	79.503	3.5219e-06	8.5101e-07	88.495	26.613	29.674	11.833	5.2398e-06	9.5753	0.00043916	0.00045132	0.0001263	221.66	4.9517e-06	4.9622e-06	239.33	88.975	4.9415e-06	4.9648e-06	102.27	32.461	39.523	13.379	4.9898e-06	11.91	161.498	382.482	373.142	73.071	222.197	254.676	71.428	78.189	333.987	346.134	74.077	78.924	82.148	86.628	240.511	81.077	-8191	255	
892.886	1	1	0	0	0.15973	0.13573	0.16632	0.074697	0.36743	0.081839	0.12463	0.10323	0.14359	0.24833	0.17022	0.12617	0.21941	0.16807	0.20247	0.13095	-2.1583	-1.7417	-2.5625	-2.0896	-2.1917	-2.7333	-1.8458	-2.2438	-2.5646	-1.9354	-2.7042	-2.175	-1.8813	-2.6813	-1.5979	-2.3354	308.157	364.260	288.521	378.655	267.571	326.866	355.341	290.472	360.538	221.437	351.064	259.916	382.770	172.164	215.593	398.647	8.924e-05	0.00032947	0.0001308	188.59	6.334e-07	1.0774e-05	214.32	79.809	5.011e-06	7.3797e-06	88.759	26.907	29.929	11.816	1.8919e-06	9.6986	0.0004459	0.00045604	0.00012732	222.79	4.9871e-06	5.0309e-06	239.88	89.171	5.0334e-06	4.9752e-06	102.49	32.494	39.614	13.383	4.985e-06	11.912	94.058	247.508	143.434	73.020	241.700	263.532	71.186	77.976	168.765	264.835	74.231	78.064	83.225	86.673	292.623	81.394	-8191	255	
892.982	1	1	0	0	0.24549	0.17946	0.17023	0.019044	0.23607	0.11685	0.26501	0.12473	0.085808	0.13434	0.11573	0.1602	0.079151	0.18456	0.040402	0.13828	-2.1771	-1.7958	-2.6042	-2.1292	-1.9333	-2.7	-1.9396	-2.4	-2.6813	-1.6604	-2.4833	-2.1688	-1.9792	-2.6771	-2.1188	-2.1562	385.702	178.078	308.840	188.888	327.056	385.474	89.104	297.278	240.090	372.575	80.868	195.445	249.456	120.778	289.536	232.771	0.00018293	0.0004398	0.00018217	191.63	2.5685e-06	4.4005e-06	216.01	79.32	6.1426e-06	1.1315e-06	86.976	26.916	29.285	11.848	2.9106e-06	9.5207	0.00044972	0.00045823	0.00012857	222.7	5.0572e-06	5.041e-06	238.98	88.928	5.0531e-06	5.0452e-06	102.03	32.52	39.289	13.367	5.0375e-06	11.845	163.096	317.881	196.972	72.548	390.568	243.357	70.756	78.133	358.538	105.597	74.603	78.155	82.300	86.838	121.163	80.897	-8191	255	
893.078	1	1	0	0	0.14559	0.15772	0.32065	0.10152	0.092484	0.25981	0.21964	0.11486	0.18457	0.37217	0.30848	0.025286	0.24686	0.26365	0.12615	0.14492	-2.1521	-2.0521	-2.6479	-2.325	-1.9958	-2.5438	-2.0979	-2.2104	-2.6375	-1.725	-2.4542	-2.5208	-1.8042	-2.625	-2.1958	-2.1896	213.939	398.770	158.536	243.348	408.954	121.541	293.947	329.767	113.959	292.510	366.564	128.677	341.746	285.626	212.365	326.982	9.9514e-05	0.00029806	0.00012445	188.16	2.2164e-06	2.5908e-06	211.9	78.655	3.2478e-06	2.8494e-06	87.288	26.935	29.754	11.827	4.326e-06	9.5873	0.00045041	0.00045869	0.00012957	222.25	4.9864e-06	5.0829e-06	238.31	88.795	5.034e-06	5.0066e-06	101.93	32.7	39.414	13.353	5.0393e-06	11.892	168.149	345.158	131.988	72.604	262.814	203.584	70.886	78.233	162.667	79.191	74.758	78.087	82.333	86.699	179.758	80.820	-8191	255	
893.174	1	1	0	0	0.15958	0.34418	0.17569	0.090962	0.14433	0.066048	0.16585	0.30039	0.052888	0.28115	0.22303	0.2784	0.21944	0.18735	0.26187	0.20131	-2.325	-2	-2.2583	-2.5563	-1.775	-2.7458	-2.1312	-2.0438	-2.7604	-1.9583	-2.3083	-2.5375	-1.9208	-2.7667	-2.4417	-2.0438	352.311	413.653	350.755	192.409	380.582	98.939	222.117	216.979	398.351	218.543	143.062	259.788	260.035	373.789	396.718	117.607	4.495e-05	0.00067071	0.00024338	189.73	5.5134e-06	9.6895e-06	213.22	79.389	4.5234e-06	2.0895e-06	88.14	27.036	29.817	11.796	1.655e-06	9.7607	0.00045793	0.00046236	0.00012848	224.09	5.0304e-06	5.0837e-06	241.26	89.161	5.0411e-06	5.0414e-06	102.62	32.937	39.801	13.427	5.1181e-06	11.971	220.567	403.168	129.111	72.720	123.389	230.405	71.409	77.706	251.419	401.350	74.106	78.348	83.689	86.791	403.663	81.221	-8191	255	
893.295	1	1	0	0	0.084906	0.063749	0.15569	0.10271	0.1178	0.2082	0.1205	0.30502	0.11369	0.15587	0.090761	0.13984	0.16076	0.39633	0.19437	0.16282	-2.3625	-2.0625	-2.2188	-2.5917	-1.8479	-2.5958	-2.4708	-2.0958	-2.6396	-2.1333	-2.3479	-2.5542	-1.7792	-2.55	-2.4437	-1.8208	61.969	212.577	370.805	309.369	207.433	259.679	372.722	361.789	390.332	291.222	397.716	230.514	288.428	384.124	313.447	337.315	0.00011145	0.00042157	7.9656e-05	190.05	6.3125e-06	6.3115e-06	216.63	79.186	2.5923e-06	2.8745e-06	87.375	26.847	29.596	11.828	4.0128e-06	9.5351	0.00045718	0.00046273	0.00013051	223.44	5.0826e-06	5.1497e-06	241.43	89.095	5.1398e-06	5.1176e-06	102.53	32.753	39.721	13.423	5.1306e-06	11.886	96.813	81.822	419.588	72.425	140.553	139.463	70.870	78.104	101.762	86.443	74.409	77.792	82.150	86.341	201.053	81.664	-8191	255	
893.391	1	1	0	0	0.10181	0.11952	0.11717	0.16272	0.13842	0.047385	0.12822	0.22166	0.15051	0.02774	0.14471	0.10311	0.21208	0.27186	0.12813	0.13319	-2.1667	-2.0062	-2.0625	-2.5542	-1.8521	-2.4979	-2.6396	-1.8438	-2.6458	-2.0146	-2.1417	-2.5708	-1.8687	-2.4062	-2.7687	-1.9521	118.034	66.074	289.784	271.846	261.094	86.745	204.001	109.172	321.029	149.363	339.057	292.806	289.300	341.359	98.193	299.482	4.8795e-05	0.00067369	7.1665e-05	191.53	1.9658e-06	5.0009e-06	211.01	79.456	2.7444e-06	5.5529e-06	87.296	26.867	29.731	11.811	5.7849e-06	9.516	0.00045868	0.00046925	0.00013071	223.51	5.1493e-06	5.1657e-06	239.46	89.203	5.1019e-06	5.1034e-06	101.91	32.586	39.568	13.328	5.0767e-06	11.882	188.972	166.236	205.180	72.343	213.527	323.370	70.735	77.808	88.796	224.729	73.785	78.411	82.654	86.207	362.363	81.538	-8191	255	
893.487	1	1	0	0	0.073379	0.24274	0.16542	0.29391	0.2682	0.08411	0.17966	0.18007	0.13826	0.2762	0.048644	0.36485	0.18052	0.12317	0.18704	0.20963	-2.4604	-2.3146	-1.9875	-2.725	-1.925	-2.2625	-2.5021	-1.9354	-2.8417	-2.425	-2.1562	-2.8125	-2.1562	-2.2042	-2.6146	-1.8979	227.385	225.134	319.790	385.431	350.608	185.973	341.853	92.344	127.613	395.514	372.409	74.130	282.684	313.593	248.144	91.291	3.0127e-05	0.00018275	5.321e-05	190.21	1.6997e-06	3.0298e-06	213.83	79.026	4.5743e-06	3.4964e-06	87.053	26.897	29.657	11.857	8.0456e-07	9.5466	0.00045449	0.00046236	0.00012862	223.32	5.0437e-06	5.0901e-06	240.79	89.052	5.0995e-06	5.0905e-06	102.34	32.7	39.669	13.37	5.1139e-06	11.904	405.690	138.218	344.219	72.595	101.502	355.713	71.041	78.714	218.431	237.486	73.983	78.367	81.459	86.834	350.607	81.805	-8191	255	
893.584	1	1	0	0	0.092183	0.24803	0.10415	0.23621	0.075219	0.12958	0.17093	0.11153	0.030747	0.20926	0.29182	0.11096	0.31301	0.28086	0.074318	0.17553	-2.2604	-2.5062	-2.0875	-2.8458	-2.0167	-2.0875	-2.65	-2.0125	-2.425	-2.4708	-1.8771	-2.7104	-2.0625	-2.1125	-2.6875	-1.8104	160.543	392.333	397.625	314.742	154.068	348.392	334.973	316.163	97.324	312.923	340.858	412.125	71.441	312.471	100.125	174.365	0.00012942	0.0003574	0.00012866	190.72	2.1083e-06	7.1388e-06	213.75	79.916	8.1398e-07	6.7292e-06	89.462	27.092	30.017	11.819	3.0741e-07	9.5938	0.00045626	0.00046496	0.00013027	224.14	5.0603e-06	5.0909e-06	241.44	89.097	5.1183e-06	5.0751e-06	102.83	32.883	39.704	13.368	5.1118e-06	11.861	139.910	67.242	335.350	72.436	199.180	112.706	71.071	77.860	215.127	197.109	73.823	78.315	81.754	86.959	212.121	81.671	-8191	255	
893.678	1	1	0	0	0.096348	0.067956	0.18873	0.18583	0.163	0.057555	0.1056	0.22045	0.32287	0.093182	0.1372	0.07497	0.087302	0.076578	0.24028	0.26252	-2.2062	-2.6188	-1.8354	-2.6958	-2.1708	-2.0333	-2.9	-1.9208	-2.4271	-2.5833	-1.8625	-2.55	-2.2271	-1.9292	-2.7896	-2.0958	256.109	227.491	227.249	140.281	81.545	316.599	340.482	371.907	326.159	378.558	316.806	396.140	354.862	342.236	204.303	75.237	0.00014372	0.00034962	0.00016872	190.58	5.3977e-07	7.0518e-06	214.74	78.76	6.3356e-06	7.0865e-06	86.909	27.113	29.352	11.838	2.6006e-06	9.5077	0.00045152	0.00046565	0.00012936	224.15	5.0749e-06	5.0718e-06	240.51	88.734	5.1491e-06	5.1285e-06	102.13	32.803	39.762	13.324	5.1681e-06	11.905	172.624	392.296	80.242	73.130	67.845	244.883	71.000	78.566	325.338	397.033	74.178	77.591	82.429	86.445	211.360	81.880	-8191	255	
893.774	1	1	0	0	0.082402	0.19669	0.26313	0.13729	0.10766	0.27873	0.064636	0.028248	0.30095	0.086436	0.18439	0.12149	0.39238	0.097142	0.13794	0.18969	-1.9146	-2.4625	-2.0312	-2.575	-2.3812	-1.9333	-2.6917	-2.1792	-2.375	-2.4542	-1.9521	-2.5771	-2.6479	-1.8312	-2.65	-2.2875	88.262	418.209	167.819	236.762	328.768	228.690	410.530	265.729	81.873	269.813	296.701	301.993	406.693	213.181	194.882	315.115	0.00011972	0.00059098	7.7402e-05	191.12	5.8615e-06	1.8406e-06	214.23	79.236	4.032e-06	6.5715e-06	87.464	26.945	29.901	11.844	4.6957e-06	9.5773	0.0004567	0.00047181	0.00013017	224.65	5.1175e-06	5.1006e-06	240.71	88.8	5.1168e-06	5.1057e-06	101.97	32.742	39.714	13.325	5.092e-06	11.959	131.332	135.042	327.397	73.080	219.181	168.624	71.444	78.100	253.834	305.082	73.494	78.332	81.422	86.478	342.058	80.714	-8191	255	
893.895	1	1	0	0	0.26595	0.047668	0.18594	0.12359	0.32275	0.031792	0.10145	0.099596	0.16485	0.045971	0.057506	0.12102	0.23704	0.10536	0.18827	0.21584	-2	-2.6063	-1.8354	-2.6333	-2.5958	-1.8375	-2.8875	-2.2646	-2.2042	-2.6167	-1.9375	-2.4729	-2.5938	-1.8792	-2.7708	-2.2125	171.835	198.071	178.581	80.730	286.326	333.659	131.739	356.395	338.831	328.222	286.873	316.002	125.222	91.111	114.344	410.788	8.7642e-05	0.00016047	0.00012735	190.89	4.6289e-06	3.2831e-06	212.02	78.421	4.4363e-06	3.6986e-06	88.228	27.113	29.94	11.994	4.1623e-06	9.7023	0.00045602	0.00046886	0.00013047	223.75	5.1156e-06	5.1058e-06	241.17	88.934	5.094e-06	5.0848e-06	102.74	32.958	39.679	13.437	5.0888e-06	11.93	138.307	234.673	204.389	73.149	378.744	197.140	71.122	77.905	407.124	349.328	73.376	78.180	80.230	86.102	378.016	81.418	-8191	255	
893.991	1	1	0	0	0.31532	0.12242	0.096929	0.17796	0.092483	0.059969	0.11484	0.1798	0.05827	0.068697	0.1829	0.18747	0.27621	0.10425	0.085854	0.088988	-1.7167	-2.6792	-2.15	-2.3979	-2.6146	-1.9312	-2.8229	-2.2792	-1.9667	-2.7667	-2.0062	-2.2313	-2.4938	-1.8292	-2.6188	-2.4062	366.788	186.971	231.364	105.240	265.529	174.117	162.097	337.296	194.507	273.608	314.791	356.323	373.970	89.330	200.140	130.968	2.0011e-05	0.00059189	5.213e-05	189.31	4.9005e-06	4.9863e-06	215.09	79.881	1.886e-06	1.2828e-06	87.73	27.322	30.03	11.825	5.0994e-06	9.6222	0.00045436	0.00046533	0.00012964	224.32	5.0825e-06	5.101e-06	241.4	89.214	5.045e-06	5.0612e-06	102.39	32.916	39.738	13.422	5.1269e-06	11.937	119.498	300.288	292.490	73.180	330.436	116.564	71.633	78.711	194.301	189.775	74.533	78.689	82.905	86.437	363.862	81.709	-8191	255	
894.087	1	1	0	0	0.25307	0.16288	0.068368	0.081063	0.17753	0.065162	0.12605	0.0063481	0.16304	0.17728	0.09935	0.23894	0.22085	0.11952	0.24386	0.192	-1.6167	-2.6458	-2.0229	-2.3063	-2.6667	-1.9146	-2.6167	-2.425	-1.9542	-2.7417	-2.2729	-2.0896	-2.8333	-1.8667	-2.55	-2.6083	60.665	61.787	288.265	169.568	154.402	70.308	402.362	62.501	393.440	385.477	355.756	283.668	263.274	70.986	265.935	300.974	0.00012445	0.00056348	0.00014216	190.48	4.4291e-06	1.8414e-06	211.25	79.665	2.7892e-06	6.2044e-06	87.101	26.98	28.997	11.866	1.0446e-05	9.5946	0.00045652	0.00047004	0.00012878	223.58	5.086e-06	5.0725e-06	239.61	88.946	5.1333e-06	5.1113e-06	102.26	32.807	39.511	13.409	5.1426e-06	11.895	151.121	78.395	101.331	73.323	229.960	368.139	71.389	77.623	183.023	190.200	74.529	78.849	82.819	86.282	138.523	81.506	-8191	255	
894.183	1	1	0	0	0.21621	0.23465	0.14344	0.23668	0.16769	0.099883	0.11478	0.16945	0.14097	0.047077	0.31362	0.36029	0.27474	0.034561	0.10186	0.19212	-1.5333	-2.5542	-2.3208	-2.2667	-2.8146	-2.0062	-2.4062	-2.5646	-1.8417	-2.7896	-2.4958	-1.9562	-2.6229	-2.0438	-2.325	-2.6083	175.682	258.413	384.059	325.694	192.968	131.382	282.935	104.937	341.714	250.290	62.801	289.911	160.307	346.104	68.541	121.614	9.1795e-05	0.00053307	7.8078e-05	190.94	5.3177e-06	5.7189e-06	213.57	79.182	5.0734e-06	5.4068e-06	86.339	26.731	29.021	11.803	4.8941e-06	9.6253	0.0004509	0.00046795	0.00012964	224.08	5.1e-06	5.1014e-06	240.16	88.86	5.1202e-06	5.1604e-06	101.79	32.698	39.516	13.359	5.194e-06	11.977	192.398	233.138	326.246	72.274	416.385	203.585	71.235	78.627	358.020	214.993	74.024	78.505	83.144	85.964	247.608	81.288	-8191	255	
894.255	1	1	0	0	0.2155	0.063807	0.25097	0.25092	0.30111	0.36831	0.15058	0.2747	0.1407	0.13708	0.18375	0.17029	0.10191	0.10537	0.18636	0.16754	-1.5438	-2.7042	-2.5417	-1.9125	-2.5771	-2.1375	-2.3667	-2.8167	-1.9813	-2.5812	-2.3854	-2.1437	-2.7771	-2.1729	-2.1229	-2.8208	270.840	393.787	63.740	78.337	177.156	151.323	202.276	85.730	303.787	327.632	369.738	81.049	168.276	105.367	195.123	192.602	1.8141e-05	0.00030744	0.00013085	190.91	4.2729e-06	2.1597e-06	214.38	79.902	6.2939e-06	7.1562e-07	88.999	26.926	29.284	11.831	5.4747e-06	9.6904	0.00045335	0.00046278	0.00013016	223.21	5.0736e-06	5.0653e-06	241.16	89.067	5.0667e-06	5.0688e-06	102.49	32.827	39.575	13.366	5.0463e-06	11.981	151.501	188.361	359.620	73.688	301.936	134.284	72.042	78.032	241.981	292.952	74.323	78.825	82.256	86.801	174.664	82.089	-8191	255	
894.375	1	1	0	0	0.17177	0.13106	0.077514	0.078574	0.11146	0.20067	0.14423	0.15954	0.24579	0.14229	0.18901	0.036658	0.16196	0.048736	0.14674	0.3219	-1.5417	-2.5896	-2.5854	-1.9979	-2.7271	-2.2313	-2.2417	-2.7771	-1.9562	-2.3917	-2.6083	-2.1146	-2.5458	-2.3271	-2.1583	-2.7958	409.981	220.272	139.430	401.408	232.747	148.083	156.772	197.067	301.792	407.807	388.496	389.361	354.012	253.207	98.526	336.078	6.8172e-05	0.00028511	8.052e-05	191.25	2.2044e-06	9.1671e-06	214.27	80.145	4.6003e-06	4.6622e-06	87.012	27.526	29.889	11.902	6.2611e-06	9.6281	0.0004476	0.00045925	0.00012631	223.1	4.9935e-06	5.047e-06	240.57	89.118	5.0366e-06	5.063e-06	102.13	32.781	39.683	13.381	5.0322e-06	11.894	152.715	390.947	370.800	73.325	288.481	164.485	71.252	78.570	220.459	222.656	74.162	78.764	82.031	87.208	69.203	82.038	-8191	255	
894.472	1	1	0	0	0.15526	0.20462	0.11183	0.19636	0.0184	0.12435	0.22185	0.12703	0.057747	0.15273	0.24136	0.1083	0.015523	0.43048	0.13697	0.059367	-1.4062	-2.5521	-2.5479	-2	-2.6979	-2.4062	-2.3021	-2.7167	-2.15	-2.4333	-2.725	-1.8583	-2.6104	-2.3979	-1.9979	-2.8896	109.509	240.352	73.713	382.577	280.635	240.976	334.390	130.657	88.757	61.603	76.102	310.985	173.071	362.949	67.505	215.449	9.4817e-05	0.0002264	9.3861e-05	188.66	4.7636e-06	4.1873e-06	213.45	79.086	3.0491e-06	5.5718e-06	85.882	27.12	29.073	11.841	2.6067e-06	9.553	0.00044832	0.00045948	0.00012876	222.74	5.0351e-06	5.0565e-06	239.8	88.704	5.0343e-06	5.0162e-06	101.99	32.671	39.542	13.372	4.978e-06	11.941	66.190	144.344	318.638	73.887	283.739	184.266	71.172	78.393	220.184	317.896	73.861	78.135	82.902	86.512	301.533	82.324	-8191	255	
894.568	1	1	0	0	0.080127	0.39976	0.20879	0.21552	0.23751	0.10399	0.09667	0.10786	0.058382	0.19353	0.038136	0.11665	0.16548	0.12271	0.054854	0.17136	-1.7625	-2.3458	-2.5604	-1.7917	-2.7146	-2.3604	-2.0333	-2.5958	-2.0563	-2.3271	-2.7292	-2.2792	-2.6937	-2.5187	-1.9021	-2.9688	132.928	175.964	344.149	96.849	167.905	327.299	158.630	392.370	220.674	125.882	314.760	95.524	413.542	284.526	71.325	70.111	4.4977e-05	0.00055277	0.00014715	188.3	3.0902e-06	8.4769e-06	213.39	78.233	1.87e-06	3.4872e-06	89.463	26.717	29.666	11.803	4.3331e-06	9.6473	0.00044267	0.00045976	0.00012849	221.63	4.9959e-06	4.9744e-06	239.84	88.587	4.9874e-06	5.0053e-06	102.03	32.573	39.497	13.372	4.9316e-06	11.919	205.872	367.750	291.368	72.811	79.052	64.313	71.461	78.446	293.272	145.145	73.856	78.335	82.123	86.335	125.462	81.982	-8191	255	
894.664	1	1	0	0	0.18363	0.20892	0.0085222	0.11674	0.18695	0.18054	0.10977	0.11399	0.10668	0.13987	0.17209	0.17743	0.084998	0.44823	0.17624	0.082122	-1.8604	-2.1708	-2.8167	-2.0917	-2.5458	-2.4771	-1.9854	-2.5854	-2.1229	-2.0354	-2.8396	-2.1021	-2.3937	-2.5	-1.9604	-2.7708	107.720	111.679	413.869	208.447	120.267	110.726	342.378	175.911	249.848	206.064	112.222	309.817	333.716	98.557	68.291	155.331	4.4128e-05	0.00013481	0.00021927	190.98	5.2632e-06	6.1387e-06	213.28	79.611	5.5682e-06	2.8687e-06	87.551	27.657	30.065	11.859	1.0139e-06	9.6003	0.00044077	0.00045288	0.00012539	222.81	4.9944e-06	4.9625e-06	239.23	89.072	4.9715e-06	4.9426e-06	101.88	32.803	39.436	13.375	4.9522e-06	11.91	283.443	238.633	94.690	73.656	73.277	271.105	71.068	79.205	172.917	161.696	74.104	78.278	82.412	86.575	127.872	82.024	-8191	255	
894.783	1	1	0	0	0.15508	0.17049	0.14956	0.28116	0.13373	0.17695	0.093724	0.17082	0.13374	0.10015	0.17331	0.090303	0.17388	0.22174	0.15163	0.2033	-1.9479	-2.1083	-2.7021	-2.1063	-2.3417	-2.7562	-1.9188	-2.6958	-2.3292	-1.975	-2.8708	-1.9208	-2.3083	-2.5583	-1.9208	-2.7313	136.744	331.076	389.242	197.931	372.994	407.868	80.969	246.708	77.194	354.082	303.540	129.560	378.779	415.733	360.516	326.439	0.00011337	0.00024568	0.00019968	189.95	2.8539e-06	4.4811e-06	210.14	78.966	2.6595e-06	2.0858e-06	85.727	27.271	29.527	11.876	2.3725e-06	9.5148	0.00043819	0.00045349	0.00012659	221.77	4.9194e-06	4.9148e-06	236.63	88.49	4.9196e-06	4.9058e-06	101.12	32.405	38.927	13.299	4.8874e-06	11.769	132.046	266.026	226.239	72.583	276.285	314.861	71.197	78.515	164.610	137.100	73.979	77.554	82.366	86.377	299.787	82.381	-8191	255	
894.856	1	1	0	0	0.14893	0.3321	0.064164	0.24089	0.14565	0.14804	0.25475	0.14643	0.23254	0.31185	0.084547	0.051373	0.18994	0.2462	0.079143	0.22837	-2.1917	-1.9083	-2.75	-1.9396	-2.2104	-2.5458	-2.0292	-2.7042	-2.4917	-1.9	-2.6063	-2.3271	-2.2854	-2.6979	-2.0375	-2.5	317.246	91.820	63.310	92.861	411.598	321.045	82.833	303.260	249.495	198.171	123.360	338.622	368.537	198.253	274.857	111.211	0.00010557	0.00053817	0.00014138	189	5.4489e-06	3.9631e-06	213.28	78.686	4.1551e-06	2.4008e-06	86.449	26.846	28.965	11.703	1.9202e-06	9.4122	0.00043601	0.00044524	0.0001249	220.88	4.9375e-06	4.9239e-06	237.36	87.949	4.9093e-06	4.8843e-06	101.15	32.295	38.843	13.256	4.8995e-06	11.786	168.546	115.368	151.802	72.623	257.358	413.580	71.212	78.879	192.467	120.753	73.886	77.587	81.678	86.456	150.325	82.005	-8191	255	
894.975	1	1	0	0	0.27576	0.15611	0.082847	0.23374	0.15925	0.15943	0.23043	0.080683	0.076174	0.080607	0.30307	0.26554	0.10553	0.14522	0.045945	0.02153	-2.2083	-1.8167	-2.8333	-2.1771	-2.1042	-2.7667	-1.9896	-2.3854	-2.5125	-1.875	-2.5771	-2.2708	-2.1063	-2.7375	-2.1667	-2.4229	419.874	368.914	137.605	246.924	282.093	304.988	291.847	397.928	183.987	257.051	312.577	100.378	228.762	259.573	210.288	355.294	4.1666e-05	0.00036409	3.2886e-05	188.85	2.0966e-06	5.6336e-06	211.33	78.161	6.8754e-06	4.5498e-06	86.41	27.191	29.409	11.76	7.4183e-06	9.4134	0.00044087	0.00044798	0.00012476	220.92	4.8601e-06	4.8991e-06	236.82	87.672	4.9107e-06	4.9024e-06	100.63	32.387	38.854	13.229	4.9092e-06	11.782	201.717	95.869	129.211	72.564	107.622	272.735	70.838	78.347	221.232	303.211	74.294	78.743	83.843	86.197	293.225	81.263	-8191	255	
895.071	1	1	0	0	0.17431	0.097295	0.14587	0.11563	0.26969	0.28348	0.1541	0.29145	0.12346	0.088636	0.074742	0.09821	0.033666	0.10015	0.17989	0.1724	-2.225	-1.9646	-2.6771	-2.3312	-1.9229	-2.6729	-2.0625	-2.2521	-2.6792	-1.9438	-2.6146	-2.3833	-1.9396	-2.8042	-2.3021	-2.3125	136.188	193.287	198.562	385.202	371.020	158.034	378.386	333.786	371.883	152.354	363.338	188.060	404.312	276.850	333.769	209.500	0.00013554	0.00039585	0.00016176	190.21	2.1044e-06	5.2487e-06	213.33	78.838	3.9768e-06	7.0569e-06	86.711	26.689	28.993	11.657	5.0354e-06	9.531	0.00043694	0.00044362	0.00012623	221.68	4.8907e-06	4.913e-06	237.41	88.091	4.8768e-06	4.887e-06	100.62	32.328	38.682	13.198	4.9001e-06	11.715	159.469	258.449	81.014	72.881	402.508	171.649	71.160	78.037	340.925	251.987	73.770	78.175	83.038	86.648	292.529	81.242	-8191	255	
#DATA ENDS
