BOXY.EXE: ISS Imagent and Oximeter Data Acquisition Program Version 0.80
Ascii Record File

#ACQ INFORMATION
2  Detector Channels 
16  External MUX Channels 
1  Auxiliary Channels 
5000  Waveform (CCF) Frequency (Hz)
1  Waveforms Skipped 
30  Waveforms Averaged 
1  Cycles Averaged 
16  Acquisitions per Waveform 
10.0806  Updata Rate (Hz) 

#FILE INFORMATION
TRUE -- External MUX Channel results are PARSED.
FALSE -- AC DC and Phase are NOT grouped.
TRUE -- Companion Program Settings File CREATED.
FALSE -- AC data not excluded
FALSE -- DC data not excluded
FALSE -- Phase data not excluded
FALSE -- Auxillary Chn. data not excluded
Tab delimiters

#CALIBRATION STATE
TRUE -- Waveform Calibration Values APPLIED.


#AUX CALIBRATION VALUES
Val Type	aux-1	

Term	1.0000e+00	
Factor	0.0000e+00	


#WF CALIBRATION VALUES
A = Detector Channel
Val Type	A-AC1	A-AC2	A-AC3	A-AC4	A-AC5	A-AC6	A-AC7	A-AC8	A-AC9	A-AC10	A-AC11	A-AC12	A-AC13	A-AC14	A-AC15	A-AC16	A-DC1	A-DC2	A-DC3	A-DC4	A-DC5	A-DC6	A-DC7	A-DC8	A-DC9	A-DC10	A-DC11	A-DC12	A-DC13	A-DC14	A-DC15	A-DC16	A-Ph1	A-Ph2	A-Ph3	A-Ph4	A-Ph5	A-Ph6	A-Ph7	A-Ph8	A-Ph9	A-Ph10	A-Ph11	A-Ph12	A-Ph13	A-Ph14	A-Ph15	A-Ph16	

Term	0.00000e+00	0.00000e+00	0.00000e+00	0.00000e+00	0.00000e+00	0.00000e+00	0.00000e+00	0.00000e+00	0.00000e+00	0.00000e+00	0.00000e+00	0.00000e+00	0.00000e+00	0.00000e+00	0.00000e+00	0.00000e+00	0.00000e+00	0.00000e+00	0.00000e+00	0.00000e+00	0.00000e+00	0.00000e+00	0.00000e+00	0.00000e+00	0.00000e+00	0.00000e+00	0.00000e+00	0.00000e+00	0.00000e+00	0.00000e+00	0.00000e+00	0.00000e+00	0.00000e+00	0.00000e+00	0.00000e+00	0.00000e+00	0.00000e+00	0.00000e+00	0.00000e+00	0.00000e+00	0.00000e+00	0.00000e+00	0.00000e+00	0.00000e+00	0.00000e+00	0.00000e+00	0.00000e+00	0.00000e+00	
Factor	1.00000e+00	1.00000e+00	1.00000e+00	1.00000e+00	1.00000e+00	1.00000e+00	1.00000e+00	1.00000e+00	1.00000e+00	1.00000e+00	1.00000e+00	1.00000e+00	1.00000e+00	1.00000e+00	1.00000e+00	1.00000e+00	1.00000e+00	1.00000e+00	1.00000e+00	1.00000e+00	1.00000e+00	1.00000e+00	1.00000e+00	1.00000e+00	1.00000e+00	1.00000e+00	1.00000e+00	1.00000e+00	1.00000e+00	1.00000e+00	1.00000e+00	1.00000e+00	X	X	X	X	X	X	X	X	X	X	X	X	X	X	X	X	

B = Detector Channel
Val Type	B-AC1	B-AC2	B-AC3	B-AC4	B-AC5	B-AC6	B-AC7	B-AC8	B-AC9	B-AC10	B-AC11	B-AC12	B-AC13	B-AC14	B-AC15	B-AC16	B-DC1	B-DC2	B-DC3	B-DC4	B-DC5	B-DC6	B-DC7	B-DC8	B-DC9	B-DC10	B-DC11	B-DC12	B-DC13	B-DC14	B-DC15	B-DC16	B-Ph1	B-Ph2	B-Ph3	B-Ph4	B-Ph5	B-Ph6	B-Ph7	B-Ph8	B-Ph9	B-Ph10	B-Ph11	B-Ph12	B-Ph13	B-Ph14	B-Ph15	B-Ph16	

Term	0.00000e+00	0.00000e+00	0.00000e+00	0.00000e+00	0.00000e+00	0.00000e+00	0.00000e+00	0.00000e+00	0.00000e+00	0.00000e+00	0.00000e+00	0.00000e+00	0.00000e+00	0.00000e+00	0.00000e+00	0.00000e+00	0.00000e+00	0.00000e+00	0.00000e+00	0.00000e+00	0.00000e+00	0.00000e+00	0.00000e+00	0.00000e+00	0.00000e+00	0.00000e+00	0.00000e+00	0.00000e+00	0.00000e+00	0.00000e+00	0.00000e+00	0.00000e+00	-1.36660e+02	-1.60266e+02	-1.34086e+02	-1.83745e+02	-7.87698e+01	-1.00516e+02	-1.56747e+02	-1.62015e+02	-7.40872e+01	-9.28821e+01	-1.74571e+02	-1.71654e+02	-1.88132e+02	-1.77417e+02	-8.50884e+01	-1.50494e+02	
Factor	2.03993e-05	1.07868e-04	3.57229e-05	1.87245e-01	1.07033e-06	1.41399e-06	1.72526e-01	6.12020e-02	1.23551e-06	1.13726e-06	9.66703e-02	3.45722e-02	6.45775e-02	1.00719e-02	1.45188e-06	1.40147e-02	9.56666e-07	9.86707e-07	2.74933e-07	9.45559e-02	1.08021e-08	1.08257e-08	8.21921e-02	3.07922e-02	1.08017e-08	1.08237e-08	4.65095e-02	1.66970e-02	3.00134e-02	5.01095e-03	1.08182e-08	6.73353e-03	X	X	X	X	X	X	X	X	X	X	X	X	X	X	X	X	



#DISTANCE SETTINGS
A = Detector Channel
A-1	A-2	A-3	A-4	A-5	A-6	A-7	A-8	A-9	A-10	A-11	A-12	A-13	A-14	A-15	A-16	

2.5000e+00	3.0000e+00	2.5000e+00	3.0000e+00	2.0000e+00	3.0000e+00	1.5000e+00	3.0000e+00	3.0000e+00	3.0000e+00	3.0000e+00	3.0000e+00	3.0000e+00	3.0000e+00	1.5000e+00	3.0000e+00	

B = Detector Channel
B-1	B-2	B-3	B-4	B-5	B-6	B-7	B-8	B-9	B-10	B-11	B-12	B-13	B-14	B-15	B-16	

1.0000e+01	1.0000e+01	1.0000e+01	1.4400e+00	1.0000e+01	1.0000e+01	1.5100e+00	1.9400e+00	1.0000e+01	1.0000e+01	1.9900e+00	2.4900e+00	2.4100e+00	2.9000e+00	1.0000e+01	2.9800e+00	




#DATA BEGINS
time	group	step	mark	flag	A-AC1	A-AC2	A-AC3	A-AC4	A-AC5	A-AC6	A-AC7	A-AC8	A-AC9	A-AC10	A-AC11	A-AC12	A-AC13	A-AC14	A-AC15	A-AC16	A-DC1	A-DC2	A-DC3	A-DC4	A-DC5	A-DC6	A-DC7	A-DC8	A-DC9	A-DC10	A-DC11	A-DC12	A-DC13	A-DC14	A-DC15	A-DC16	A-Ph1	A-Ph2	A-Ph3	A-Ph4	A-Ph5	A-Ph6	A-Ph7	A-Ph8	A-Ph9	A-Ph10	A-Ph11	A-Ph12	A-Ph13	A-Ph14	A-Ph15	A-Ph16	B-AC1	B-AC2	B-AC3	B-AC4	B-AC5	B-AC6	B-AC7	B-AC8	B-AC9	B-AC10	B-AC11	B-AC12	B-AC13	B-AC14	B-AC15	B-AC16	B-DC1	B-DC2	B-DC3	B-DC4	B-DC5	B-DC6	B-DC7	B-DC8	B-DC9	B-DC10	B-DC11	B-DC12	B-DC13	B-DC14	B-DC15	B-DC16	B-Ph1	B-Ph2	B-Ph3	B-Ph4	B-Ph5	B-Ph6	B-Ph7	B-Ph8	B-Ph9	B-Ph10	B-Ph11	B-Ph12	B-Ph13	B-Ph14	B-Ph15	B-Ph16	aux-1	digaux	

629.566	1	1	0	768	0.28818	0.12303	0.16427	0.25573	0.1768	0.1025	0.059904	0.13327	0.099396	0.11639	0.2278	0.17954	0.13469	0.22539	0.12532	0.12202	-2.0438	-2.7042	-2.85	-2.4938	-2.8708	-2.7375	-2.4708	-3.2271	-2.2438	-2.7354	-3.075	-2.3167	-3.1	-2.9	-2.1896	-3.1312	406.872	308.551	166.643	408.772	132.385	252.865	405.581	472.651	326.710	484.957	341.389	158.778	435.890	453.764	271.508	132.779	0.00060118	0.00059819	0.00032584	1357.1	2.4279e-06	6.2727e-06	1358.5	368.68	3.8432e-06	3.6379e-06	421.61	140.26	121.08	41.801	9.602e-06	51.584	0.00055276	0.00055396	0.00015387	1376.5	6.0895e-06	6.0499e-06	1377.9	374.66	6.0635e-06	6.0456e-06	427.36	143.18	124.19	42.882	6.0402e-06	53.028	176.283	224.212	236.690	139.790	254.776	442.807	139.494	144.108	231.595	159.317	143.406	147.769	148.334	153.272	230.750	152.428	-8191	255	
629.662	1	1	0	0	0.096287	0.25364	0.036658	0.1637	0.11985	0.12326	0.41244	0.08082	0.10228	0.13791	0.24874	0.13182	0.18551	0.34038	0.086127	0.23252	-2.0062	-2.5646	-3.0979	-2.6646	-2.8708	-3.0604	-2.4167	-3.0979	-2.6437	-2.2479	-3.1896	-2.4417	-3.1042	-2.8708	-2.1708	-3.0958	368.789	191.854	251.612	131.995	483.560	294.598	436.379	375.651	431.996	315.461	459.052	432.335	397.843	453.361	186.347	391.975	0.00059807	0.0001241	0.00017382	1352.9	6.2604e-06	4.0111e-06	1361.5	368.49	6.8726e-06	2.1531e-06	419.71	139.67	121.53	41.807	4.1023e-06	51.547	0.00055424	0.00055454	0.00015297	1377.3	6.0918e-06	6.0183e-06	1379	374.26	6.0256e-06	6.0755e-06	427.21	143.09	124.26	42.93	6.1033e-06	53.189	180.249	143.628	248.470	139.698	250.215	252.347	139.486	144.215	345.714	307.443	143.708	147.958	148.338	153.017	177.468	152.206	-8191	255	
629.758	1	1	0	0	0.079982	0.14884	0.044736	0.096585	0.20564	0.14434	0.19706	0.24199	0.060089	0.25933	0.16047	0.45809	0.10295	0.12293	0.18394	0.12857	-2.2208	-2.2958	-3.0979	-2.4771	-2.6542	-3.025	-2.4125	-3.2354	-2.6396	-2.4458	-3.3125	-2.4271	-2.6292	-3.0938	-2.0687	-2.9062	387.269	163.430	281.224	443.242	437.782	259.008	422.934	458.400	275.461	274.731	449.866	128.406	401.058	291.707	241.881	202.221	0.00063028	0.00013109	0.00011661	1352.2	7.934e-06	1.0723e-05	1356	366.62	8.0884e-06	8.9242e-06	420.54	139.68	121.79	41.738	6.2565e-06	51.464	0.00055395	0.00055224	0.00015414	1377.1	6.0943e-06	6.0508e-06	1377.1	373.89	6.073e-06	6.0897e-06	427.24	143.09	124.44	42.899	6.0917e-06	53.126	167.948	287.027	223.586	139.707	245.529	283.397	139.205	144.268	269.160	215.437	143.676	147.537	147.915	152.887	271.424	152.376	-8191	255	
629.854	1	1	0	0	0.1608	0.12657	0.30401	0.49394	0.32097	0.2301	0.39242	0.21435	0.27022	0.045746	0.18755	0.30624	0.17144	0.35359	0.38655	0.13536	-2.35	-2.0458	-3.1042	-2.7	-2.3896	-3.0563	-2.3458	-3.1813	-2.675	-2.4208	-3.2604	-2.5542	-2.4625	-3.0729	-2.3583	-2.8979	311.415	359.330	353.540	433.929	205.876	342.740	383.402	446.107	154.876	390.737	171.514	455.553	427.541	380.624	482.322	378.010	0.00065747	0.00013319	3.9604e-05	1355	5.1719e-06	2.5422e-06	1355.9	367.29	4.426e-06	2.1227e-06	419.34	139.94	121.33	41.805	1.0478e-05	51.79	0.00055793	0.00055581	0.00015498	1376.9	6.086e-06	6.0953e-06	1377.9	374	6.1035e-06	6.0745e-06	427.05	143.12	124.3	42.948	6.1273e-06	53.235	176.103	334.723	209.996	139.732	285.860	251.709	139.233	144.102	237.627	307.006	143.757	147.556	148.241	153.030	217.249	152.467	-8191	255	
629.950	1	1	0	0	0.17462	0.1654	0.091113	0.2282	0.12256	0.26457	0.32855	0.196	0.059209	0.26525	0.11849	0.16013	0.10101	0.06673	0.17515	0.1916	-2.2667	-2.4833	-2.9021	-2.7792	-2.3937	-3.0708	-2.5958	-2.9	-2.9979	-2.4521	-3.2021	-2.7104	-2.4188	-3.0604	-2.6729	-2.8604	321.596	446.704	293.858	150.010	207.301	198.927	389.255	456.333	142.686	382.656	413.514	432.094	361.916	485.467	207.401	162.574	0.0005563	0.0009358	4.9666e-05	1357.6	8.5343e-06	8.7655e-06	1354.5	368.15	7.9996e-06	2.0054e-06	419.38	140.07	121.45	41.637	1.9263e-06	51.38	0.00055876	0.00055563	0.00015514	1379.2	6.1458e-06	6.1495e-06	1379.6	374.67	6.1321e-06	6.1731e-06	427.69	143.09	124.4	42.872	6.21e-06	53.193	177.474	162.379	176.997	139.642	265.501	267.244	139.348	144.095	279.465	362.011	143.474	147.672	147.972	153.089	181.351	152.296	-8191	255	
630.046	1	1	0	0	0.051792	0.11775	0.028609	0.20144	0.13992	0.13066	0.27024	0.053742	0.036953	0.12628	0.041325	0.11942	0.062427	0.19684	0.032298	0.23597	-2.5229	-2.3	-2.8896	-2.8708	-2.2687	-3.0479	-2.5875	-2.7979	-2.9979	-2.2708	-3.1396	-2.8875	-2.225	-3.3021	-2.3146	-2.8104	146.197	187.257	381.419	440.032	390.342	195.628	129.776	224.326	224.083	166.705	337.408	403.019	474.076	164.550	480.047	269.115	0.00056465	0.00044254	7.1942e-05	1353.8	3.4669e-06	4.9025e-06	1352	367.28	8.3222e-06	7.6959e-06	419.21	140.65	121.81	41.773	6.3059e-06	51.68	0.00057085	0.00056958	0.00015814	1376.7	6.2865e-06	6.2182e-06	1375.5	374.55	6.262e-06	6.2739e-06	428.19	143.42	124.86	42.973	6.2159e-06	53.163	182.233	252.530	266.643	139.492	260.997	241.594	139.456	144.117	299.528	176.419	143.689	148.021	147.979	153.093	260.995	152.485	-8191	255	
630.167	1	1	0	0	0.10407	0.11252	0.23614	0.029604	0.30393	0.20843	0.15798	0.39767	0.13155	0.15562	0.28021	0.2656	0.12558	0.20295	0.062258	0.084729	-2.5438	-2.2208	-2.7229	-2.9208	-2.2438	-2.8937	-2.6042	-2.5229	-3.0875	-2.2917	-2.8625	-3.0938	-2.2562	-3.1667	-2.5396	-2.6208	142.022	418.396	263.189	246.119	172.521	267.380	344.626	431.934	226.059	390.871	378.381	173.967	272.323	383.002	390.533	145.106	0.00060103	0.00026872	0.00018764	1356	1.707e-06	5.7796e-07	1354.1	366.79	8.6937e-06	2.0646e-06	419.06	139.12	121.72	41.646	3.6276e-06	51.303	0.00057418	0.00057569	0.00015927	1378.4	6.2673e-06	6.2992e-06	1378.2	373.91	6.3502e-06	6.3537e-06	427.68	142.9	124.87	42.954	6.2563e-06	53.055	185.211	180.851	185.125	139.524	280.781	226.006	139.121	144.257	223.908	278.363	143.640	147.627	148.121	153.145	283.477	152.425	-8191	255	
630.261	1	1	0	0	0.19196	0.26061	0.048653	0.21721	0.10936	0.15821	0.24515	0.46052	0.24174	0.058764	0.094214	0.27531	0.11078	0.20792	0.1069	0.11155	-2.6437	-2.2313	-2.7833	-3.0229	-2.3583	-3.0104	-2.5896	-2.4292	-3.0792	-2.375	-2.8542	-2.95	-2.3354	-3.1708	-2.5396	-2.4333	285.989	361.501	450.986	431.891	443.124	237.823	474.569	417.051	355.582	365.394	139.962	471.576	328.383	271.874	301.152	130.872	0.00074881	0.00068657	0.000131	1349.4	6.8749e-06	8.2886e-06	1357.8	365.45	6.3903e-06	6.5872e-06	418.51	139.39	121.56	41.664	8.4552e-06	51.508	0.00057606	0.00057678	0.00016104	1376	6.3261e-06	6.3094e-06	1378.3	374.08	6.2922e-06	6.3629e-06	427.18	143.16	124.87	42.848	6.2699e-06	53.178	184.865	273.212	267.643	139.743	284.434	289.212	139.349	144.292	259.668	345.525	143.878	147.581	148.053	153.180	187.549	152.424	-8191	255	
630.357	1	1	0	0	0.31958	0.090288	0.10823	0.053365	0.23349	0.22701	0.096499	0.40816	0.25844	0.16805	0.25905	0.32209	0.074611	0.20033	0.11508	0.079096	-2.6688	-2.4437	-2.6958	-3.1229	-2.1979	-2.9896	-2.9813	-2.5979	-3.0833	-2.5375	-2.8875	-3.0542	-2.3812	-3.1417	-2.925	-2.5396	280.245	428.476	315.897	385.196	477.387	457.633	412.306	424.785	306.777	401.496	466.566	485.268	364.503	458.134	397.828	194.400	0.00055304	0.00066642	0.00011479	1354.7	6.8852e-06	1.198e-05	1353.4	367.25	6.5811e-07	2.7326e-06	419.43	139.9	121.09	41.802	1.2e-05	51.274	0.00057749	0.00058088	0.00016057	1376.5	6.3353e-06	6.3121e-06	1376.7	374.24	6.3117e-06	6.3548e-06	428.29	142.99	124.61	42.941	6.3281e-06	53.061	171.536	215.079	163.057	139.603	284.098	219.963	139.283	144.018	310.869	208.874	143.875	147.829	147.914	153.387	280.571	152.515	-8191	255	
630.455	1	1	0	0	0.018183	0.064413	0.24921	0.14614	0.0049076	0.11844	0.2233	0.32314	0.08902	0.050006	0.02541	0.14079	0.29211	0.12413	0.15221	0.042314	-2.5917	-2.3583	-2.5583	-3.0333	-2.1917	-2.7625	-3.1479	-2.5729	-2.9229	-2.6688	-2.6167	-3.0938	-2.1375	-2.7396	-2.8688	-2.2438	188.266	142.201	416.602	172.353	460.163	482.712	389.302	424.561	373.001	226.587	321.074	163.235	466.323	344.210	185.238	418.181	0.00049745	0.0004827	0.00011724	1358.1	2.1414e-06	4.0071e-06	1353.2	365.91	1.9989e-06	5.3209e-06	418.98	139.47	120.82	41.681	5.5985e-06	51.018	0.00057723	0.00057663	0.00016169	1376.8	6.325e-06	6.3317e-06	1377.1	373.73	6.3104e-06	6.3033e-06	427.36	143	124.73	42.938	6.3369e-06	52.907	172.827	154.634	189.017	139.531	182.006	204.628	139.220	144.111	275.820	199.399	143.587	147.804	147.737	153.106	238.117	152.255	-8191	255	
630.550	1	1	0	0	0.12044	0.13481	0.16809	0.21431	0.12083	0.15245	0.30235	0.31711	0.15438	0.065975	0.27669	0.14163	0.15026	0.27166	0.084124	0.20069	-2.4938	-2.525	-2.3542	-3.3479	-2.3917	-2.5583	-3.2062	-2.3438	-3.0062	-2.7667	-2.4813	-3.225	-2.5875	-2.6667	-2.9833	-2.5187	266.670	458.872	218.948	426.647	408.777	129.135	427.399	397.830	164.927	303.030	162.652	164.141	403.270	420.159	370.663	362.364	0.00045206	0.00028937	0.00022196	1354.4	6.2758e-06	5.3802e-06	1352.6	366.9	1.3076e-05	5.378e-06	419.38	139.52	120.62	41.468	6.3068e-06	51.25	0.00058063	0.00057898	0.00016058	1376.5	6.2811e-06	6.3179e-06	1377	373.65	6.2899e-06	6.2902e-06	427.68	143.08	124.53	42.794	6.2539e-06	53.069	171.309	221.550	163.745	139.502	242.998	298.425	139.384	144.153	272.007	324.974	143.632	147.654	148.132	152.981	373.070	152.413	-8191	255	
630.646	1	1	0	0	0.18652	0.088074	0.14628	0.35994	0.043455	0.22975	0.19285	0.091668	0.19414	0.052619	0.018975	0.12961	0.04434	0.28258	0.049551	0.0016785	-2.5583	-2.5958	-2.3167	-3.2333	-2.5563	-2.5687	-3.2375	-2.2208	-3.0396	-2.6312	-2.3333	-3.1833	-2.525	-2.6542	-3.0438	-2.2792	136.834	410.829	466.399	460.028	358.241	164.909	440.390	440.369	285.599	172.550	244.477	455.686	219.025	443.190	330.997	180.000	0.00064708	0.00024846	0.00020909	1354.5	9.2486e-06	7.1176e-06	1350.3	367.87	1.5197e-06	6.8458e-06	418.57	139.18	121.08	41.626	3.956e-06	51.405	0.00057682	0.00057606	0.00015877	1377	6.2693e-06	6.2553e-06	1374.9	373.71	6.2195e-06	6.2055e-06	426.71	143.05	124.37	42.82	6.1904e-06	53.155	170.694	222.880	224.771	139.507	218.464	279.378	139.239	143.909	314.807	266.125	143.505	147.890	148.025	152.931	293.570	152.382	-8191	255	
630.742	1	1	0	0	0.073176	0.098152	0.10953	0.12961	0.24802	0.13182	0.29262	0.21208	0.081787	0.24773	0.14916	0.18651	0.25954	0.27237	0.077558	0.21066	-2.4729	-2.7875	-2.2667	-3.0958	-2.5896	-2.1896	-3.1875	-2.3854	-2.8667	-2.8979	-2.25	-2.9521	-2.6375	-2.4667	-3.1125	-2.6083	326.097	231.527	340.611	183.306	358.787	161.153	414.290	429.143	216.202	274.090	154.668	475.104	171.549	137.911	140.145	458.753	0.0005791	7.9396e-05	0.00013986	1356.8	7.5617e-06	7.7681e-06	1350.3	367.18	1.3337e-06	2.3971e-06	419.5	139.89	121.44	41.879	1.6631e-06	51.389	0.0005679	0.00056413	0.00015704	1375.3	6.198e-06	6.1723e-06	1374.9	373.88	6.1276e-06	6.1529e-06	427.4	143.25	124.38	42.931	6.0999e-06	53.085	174.696	367.640	235.570	139.605	258.469	185.398	139.128	143.894	378.745	435.554	143.530	147.941	148.213	152.962	479.697	152.301	-8191	255	
630.863	1	1	0	0	0.15464	0.26051	0.23253	0.25182	0.14503	0.17565	0.28654	0.29877	0.16003	0.099049	0.26654	0.23733	0.19832	0.19269	0.053249	0.36521	-2.3271	-2.7583	-2.2708	-3.1208	-2.8292	-2.2313	-3.2438	-2.4396	-2.5875	-3.0729	-2.375	-2.9562	-2.5583	-2.3833	-2.9479	-2.65	470.216	383.328	416.400	447.933	157.390	470.529	406.725	443.940	461.163	368.667	467.674	333.445	173.815	469.868	237.854	389.716	0.00056637	0.00050936	0.00018492	1348.6	1.4322e-06	2.4319e-06	1353.7	367.04	7.5727e-06	5.4801e-06	419.08	139.85	122.26	41.614	1.23e-05	51.52	0.00056049	0.00055568	0.00015399	1373.3	6.0783e-06	6.0883e-06	1376.2	373.81	6.1053e-06	6.0607e-06	427.62	143.17	124.41	42.85	6.0762e-06	53.098	175.104	188.685	243.855	139.702	277.508	323.171	139.335	144.086	271.591	200.751	143.617	147.459	148.003	152.941	224.541	152.377	-8191	255	
630.959	1	1	0	0	0.15345	0.19148	0.2064	0.39985	0.087375	0.15255	0.20935	0.17018	0.034722	0.11236	0.21509	0.39837	0.17343	0.11835	0.23131	0.16252	-2.1375	-3.1146	-2.1604	-3.0146	-3.0146	-2.2979	-3.1667	-2.6792	-2.5604	-2.9646	-2.5458	-2.825	-3.0563	-2.35	-3.2833	-2.8812	375.447	235.044	423.688	381.644	319.786	475.736	368.746	472.279	328.711	439.427	142.838	390.774	152.643	235.192	222.199	482.813	0.00059124	0.00036079	0.00010975	1352.6	8.3774e-06	9.7939e-06	1352.6	367.61	6.4679e-06	6.9709e-06	420.33	139.58	122.07	41.686	8.8477e-06	51.428	0.0005554	0.00055274	0.00015451	1374	6.027e-06	6.084e-06	1374.2	374.15	6.024e-06	6.0438e-06	427.67	142.9	124.45	42.881	6.0632e-06	53.003	177.657	128.727	166.982	139.594	192.082	186.804	139.145	143.949	215.225	263.341	143.566	147.622	147.866	152.981	164.072	152.259	-8191	255	
631.055	1	1	0	0	0.1509	0.19566	0.12186	0.33212	0.18494	0.16667	0.10268	0.32438	0.12461	0.24139	0.13415	0.31787	0.21087	0.080021	0.069107	0.20392	-1.9833	-3.0979	-2.3167	-3.0167	-2.9813	-2.4229	-3.175	-2.6813	-2.3688	-3.1167	-2.4021	-2.8479	-2.9938	-2.4167	-2.8458	-2.9833	232.817	240.818	314.999	402.901	411.267	263.295	458.213	432.938	262.843	153.994	326.705	437.754	418.550	137.370	451.908	454.811	0.00062341	0.00067935	7.5874e-05	1354.6	4.0279e-06	1.2192e-05	1354.3	367.57	7.098e-06	6.7613e-06	418.54	139.31	121.53	41.73	5.5114e-06	51.544	0.00055558	0.00055574	0.00015422	1375.3	6.0941e-06	6.0713e-06	1375.2	373.71	6.1338e-06	6.0887e-06	427.08	142.76	124.26	42.939	6.0718e-06	53.118	174.458	181.925	169.951	139.673	236.365	276.763	139.441	144.002	298.193	211.263	143.647	147.737	147.714	152.946	274.586	152.381	-8191	255	
631.127	1	1	0	0	0.080546	0.054061	0.26627	0.2676	0.20169	0.12584	0.05869	0.054387	0.15319	0.093471	0.22483	0.29288	0.28784	0.27439	0.15962	0.17318	-2.0208	-3.1604	-2.4	-2.7458	-2.8625	-2.3563	-3.0458	-2.8812	-2.2958	-3.15	-2.6562	-2.6896	-2.9583	-2.4292	-2.8688	-2.8396	244.982	346.048	248.510	469.283	201.069	243.941	425.882	145.748	465.891	134.140	413.364	127.918	262.902	127.507	315.836	396.225	0.0006566	0.00045047	0.0002472	1355.5	2.9317e-06	8.2112e-06	1354.4	369.04	8.2454e-06	6.1461e-06	419.79	139.53	121.72	41.852	1.1121e-05	51.286	0.00055595	0.00055358	0.00015415	1374.3	6.0579e-06	6.0461e-06	1374.1	374.28	6.0505e-06	6.0363e-06	427.17	142.79	124.13	42.898	6.0645e-06	53.011	172.097	211.751	157.346	139.557	305.117	229.862	139.360	144.024	321.143	297.332	143.392	147.744	148.097	153.150	258.834	152.377	-8191	255	
631.247	1	1	0	0	0.064868	0.27603	0.18066	0.11122	0.063431	0.076814	0.21062	0.086595	0.072544	0.10215	0.2209	0.22075	0.10539	0.057676	0.0992	0.27125	-1.875	-3.1562	-2.5938	-2.5646	-3.0979	-2.2917	-3.2208	-3.0812	-2.2896	-3.1063	-2.7271	-2.4729	-3.2042	-2.3979	-2.8125	-3.0396	227.770	331.835	358.105	297.740	224.439	388.730	415.770	451.608	203.311	344.727	402.395	448.236	448.792	364.579	191.937	386.318	0.00067424	0.00014242	0.00013838	1355.2	6.3511e-06	2.5957e-06	1348.1	366.56	7.9316e-06	2.6669e-06	418.59	139.34	121.44	41.833	5.1102e-06	51.45	0.00055367	0.00055009	0.00015259	1376.1	6.0191e-06	6.0308e-06	1373.4	373.77	6.0573e-06	6.0597e-06	426.41	143.08	124.2	42.837	6.0789e-06	53.021	164.921	214.007	141.840	139.618	280.579	227.233	139.399	144.148	297.075	366.438	143.677	148.025	147.942	153.002	265.396	152.483	-8191	255	
631.343	1	1	0	0	0.14481	0.24265	0.22746	0.34323	0.08055	0.060466	0.19971	0.31313	0.09711	0.2169	0.12502	0.16925	0.13721	0.14269	0.19892	0.040279	-1.8458	-3.0875	-2.6125	-2.5729	-3.1667	-2.5104	-2.8438	-3.1375	-2.3167	-3.0333	-2.9542	-2.4604	-3.1333	-2.3792	-2.7458	-3.1312	136.016	398.053	191.433	462.486	270.964	151.646	369.791	473.077	353.031	386.919	323.126	474.983	396.558	233.218	250.352	435.503	0.00068175	0.00010717	0.00013112	1357.2	6.9642e-06	7.9038e-06	1349.9	365.98	6.7946e-06	5.439e-06	418.42	139.51	121.94	41.59	1.4368e-05	51.634	0.00055752	0.00055362	0.00015352	1374.9	6.0415e-06	6.09e-06	1373.7	373.47	6.0255e-06	6.0613e-06	426.77	142.88	124.42	42.851	6.0841e-06	53.073	181.504	130.194	269.584	139.598	213.124	462.477	139.536	143.986	287.388	280.120	143.617	147.569	148.360	153.003	274.042	152.451	-8191	255	
631.438	1	1	0	0	0.3326	0.13309	0.021614	0.073703	0.38275	0.22013	0.31028	0.11343	0.025457	0.097209	0.090433	0.23428	0.061432	0.27057	0.25173	0.21446	-1.9917	-2.7438	-2.9708	-2.4896	-3.0687	-2.5354	-2.6937	-3.0875	-2.2792	-2.9458	-2.9792	-2.5312	-3.0833	-2.4729	-2.6104	-3.1792	363.278	460.296	216.399	406.666	233.707	188.823	148.191	421.024	333.382	350.331	140.351	375.280	221.518	476.010	232.941	198.676	0.00060125	0.0006478	4.0407e-05	1351.1	5.59e-06	2.0969e-06	1351.3	367.61	6.8788e-06	7.0844e-06	417.12	140.03	121.24	41.657	9.661e-06	51.83	0.00055817	0.00055557	0.00015371	1372.6	6.1156e-06	6.0496e-06	1373.2	373.98	6.0994e-06	6.1106e-06	426.1	143.01	124.31	42.83	6.096e-06	53.089	180.870	174.509	238.493	139.798	254.434	274.790	139.368	144.104	304.498	265.494	143.387	147.856	148.084	153.249	219.870	152.184	-8191	255	
631.536	1	1	0	0	0.097929	0.20481	0.12602	0.35186	0.068345	0.058191	0.24501	0.23774	0.091905	0.037603	0.24348	0.22345	0.14133	0.13072	0.31508	0.047118	-2.0958	-2.8708	-2.7146	-2.3854	-3.0542	-2.7188	-2.6729	-3.1833	-2.4521	-2.6813	-3.0792	-2.4583	-3.2104	-2.5854	-2.6229	-3.2708	139.031	166.577	413.464	139.022	213.132	379.957	386.109	435.307	436.458	136.304	131.435	408.045	304.595	466.059	198.770	332.658	0.00060777	0.00024713	5.0459e-05	1351.9	6.5616e-06	7.8644e-06	1348.6	366.38	3.0797e-06	4.8582e-06	419.51	138.86	121.62	41.577	9.2782e-06	51.515	0.00055904	0.00055334	0.00015416	1373.8	6.0622e-06	6.0893e-06	1372.2	373.32	6.1004e-06	6.0583e-06	426.34	142.59	124.31	42.77	6.1022e-06	53.087	178.643	196.477	130.730	139.483	210.871	280.977	139.552	144.095	367.790	281.691	143.878	147.657	148.485	153.124	206.763	152.251	-8191	255	
631.655	1	1	0	0	0.079121	0.074629	0.20136	0.348	0.395	0.17838	0.40147	0.11192	0.05047	0.11463	0.09981	0.094193	0.23549	0.26083	0.096887	0.20139	-2.0125	-2.7708	-3.0646	-2.5771	-3.0771	-2.9333	-2.6458	-3.0208	-2.6583	-2.7521	-3.0708	-2.3958	-3.0187	-3.0333	-2.2812	-3.0771	218.688	411.944	183.406	384.570	207.783	131.201	437.765	401.082	219.026	198.635	390.240	126.788	137.759	432.800	311.547	458.562	0.00055736	0.00015598	0.00010951	1357.1	4.1257e-06	9.9533e-06	1353.4	367.34	6.6513e-06	6.6471e-06	418.09	139.8	120.77	41.702	6.3582e-06	51.395	0.00055536	0.00055062	0.000155	1375	6.0664e-06	6.0796e-06	1373.5	373.85	6.0479e-06	6.0774e-06	426.64	142.86	124.58	42.824	6.1377e-06	53.04	175.284	400.488	144.851	139.665	233.453	311.981	139.493	144.068	276.637	271.908	143.656	147.617	147.985	153.085	282.998	152.137	-8191	255	
631.726	1	1	0	0	0.16372	0.088319	0.073521	0.21356	0.076321	0.093398	0.36535	0.19835	0.21615	0.093194	0.14716	0.18614	0.088132	0.091443	0.11693	0.14812	-2.2917	-2.5646	-3.1167	-2.6292	-2.7333	-2.8792	-2.6312	-3.225	-2.5104	-2.4708	-3.2458	-2.4229	-2.8542	-2.9708	-2.1104	-3.1167	188.212	406.503	133.404	405.680	480.714	416.518	408.990	412.965	465.189	400.128	135.867	455.505	402.470	461.673	404.651	448.424	0.00062759	0.00038578	0.00016042	1352.9	3.2918e-06	6.5666e-06	1351.3	364.84	1.7905e-06	5.9804e-06	420.77	139.47	121.11	41.669	9.4065e-06	51.441	0.0005545	0.00055468	0.00015617	1373.3	6.1081e-06	6.0502e-06	1372.1	373.17	6.0888e-06	6.1299e-06	427.21	142.95	124.23	42.858	6.1428e-06	53.071	175.420	421.786	211.324	139.771	239.744	262.480	139.352	144.019	328.865	270.039	143.472	147.732	148.405	153.184	297.992	152.478	-8191	255	
631.847	1	1	0	0	0.015135	0.17179	0.11255	0.15644	0.070912	0.071401	0.16912	0.29423	0.13004	0.17074	0.043957	0.37679	0.15102	0.047816	0.17169	0.23503	-2.2313	-2.325	-3.1729	-2.425	-2.7083	-2.8417	-2.3729	-3.0708	-2.7417	-2.1104	-3.2229	-2.3667	-2.7562	-3.1063	-2.325	-3.0792	317.131	472.395	393.223	444.053	450.312	236.420	437.032	471.579	432.993	149.462	421.971	373.665	374.569	340.414	368.382	129.917	0.00061366	0.00027923	0.00010557	1356.4	2.2349e-06	5.1547e-06	1346	366.99	5.7001e-06	4.6296e-06	417.94	139.76	121.21	41.665	8.7117e-06	51.39	0.00056262	0.00056119	0.00015515	1374	6.0946e-06	6.0717e-06	1372.4	373.91	6.1406e-06	6.1075e-06	426.93	142.61	124.43	42.883	6.1582e-06	53.033	173.783	423.747	229.454	139.524	177.064	285.090	139.503	143.935	257.074	207.242	143.550	147.901	148.179	153.085	186.531	152.786	-8191	255	
631.943	1	1	0	0	0.19994	0.080625	0.1237	0.59428	0.36834	0.21667	0.29791	0.22696	0.19744	0.1955	0.25301	0.26493	0.074458	0.12807	0.16225	0.21577	-2.3354	-2.1979	-3.2438	-2.4542	-2.4708	-3.0979	-2.2896	-3.0083	-2.6542	-2.2792	-3.1188	-2.4688	-2.6312	-2.8375	-2.3104	-2.9396	350.101	266.469	362.836	460.635	270.087	372.913	450.535	398.398	220.331	432.049	445.229	362.686	447.476	395.030	456.846	385.287	0.00048692	0.00059652	0.00024174	1354.5	4.408e-06	6.1812e-06	1353.4	366.72	5.5858e-06	5.4457e-06	417.6	138.79	120.96	41.569	1.0205e-05	51.227	0.00055621	0.00055948	0.00015606	1373.1	6.1583e-06	6.0781e-06	1373.8	373.75	6.1349e-06	6.1456e-06	426.44	142.57	124.33	42.766	6.1675e-06	53.016	180.894	203.504	266.266	139.592	273.753	225.512	139.428	144.243	267.966	258.417	143.699	147.484	148.731	153.102	250.911	152.814	-8191	255	
632.039	1	1	0	0	0.26228	0.13462	0.16506	0.18972	0.1799	0.11984	0.55333	0.22372	0.18734	0.13865	0.25486	0.19169	0.19759	0.14213	0.17814	0.43601	-2.4125	-2.3792	-3.0062	-2.7562	-2.3458	-3.0958	-2.5271	-3.1229	-2.9604	-2.3583	-3.2083	-2.7146	-2.5646	-3.3167	-2.2333	-2.9625	200.660	181.321	396.083	459.595	407.462	423.742	409.941	434.166	387.925	335.536	411.246	386.488	248.053	163.491	383.661	381.239	0.00057477	0.00014262	7.2212e-05	1350.3	7.6396e-06	4.9004e-06	1350.1	366.84	4.5842e-06	7.5341e-06	420.26	139.26	121.25	41.606	7.0499e-06	51.771	0.00056593	0.00056172	0.00015708	1372.5	6.1921e-06	6.1598e-06	1372.7	373.66	6.1666e-06	6.1843e-06	427.45	142.64	124.58	42.855	6.1512e-06	53.158	178.711	303.563	272.951	139.699	250.884	204.566	139.479	144.253	331.142	205.834	143.528	147.556	148.489	153.008	227.257	152.653	-8191	255	
632.135	1	1	0	0	0.19634	0.26667	0.26717	0.16987	0.069864	0.20233	0.31601	0.16836	0.026471	0.087673	0.20503	0.025405	0.10481	0.096326	0.13758	0.26072	-2.4708	-2.3729	-2.9979	-2.8333	-2.5583	-2.9271	-2.6667	-2.7271	-2.9688	-2.5521	-3.0292	-2.9271	-2.2667	-3.1354	-2.6604	-2.6625	360.472	127.069	453.263	450.307	188.541	187.698	438.120	429.676	129.982	315.062	375.042	409.195	167.190	369.035	228.416	151.943	0.00063776	0.00066185	5.858e-05	1354.4	4.4454e-06	3.3332e-06	1354.5	367.29	1.0481e-05	1.0641e-05	418.1	138.87	121.53	41.827	3.0261e-06	51.339	0.00056524	0.00056118	0.00015607	1375.1	6.1382e-06	6.1071e-06	1375.5	373.87	6.2166e-06	6.1393e-06	427	142.47	124.44	42.889	6.1446e-06	53.031	180.994	225.156	138.641	139.504	384.793	326.609	139.254	144.194	230.616	177.229	143.921	147.585	148.174	153.469	288.249	152.617	-8191	255	
632.256	1	1	0	0	0.24238	0.072268	0.2668	0.055285	0.068652	0.23876	0.20489	0.11855	0.039084	0.11756	0.10479	0.38497	0.32425	0.1245	0.22999	0.10372	-2.6083	-2.2	-2.7854	-2.775	-2.35	-3.2438	-2.6688	-2.5917	-3.1188	-2.4188	-3.1083	-2.7521	-2.2667	-3.3125	-2.4792	-2.8438	423.403	325.845	325.800	210.452	195.525	132.092	482.563	190.513	480.934	364.772	146.392	484.435	471.134	410.230	132.898	414.480	0.00058758	0.0004436	0.00019944	1356.8	5.0312e-06	8.4957e-06	1353.5	367.89	1.0794e-05	4.2876e-06	419.47	139.93	121.27	41.742	7.8782e-06	51.176	0.00056131	0.00055953	0.00015538	1374.2	6.0957e-06	6.1015e-06	1373.3	374	6.1171e-06	6.1204e-06	427.31	142.76	124.43	42.897	6.0996e-06	52.985	185.496	481.277	148.379	139.574	320.745	226.521	139.295	143.929	263.515	269.633	143.667	147.704	148.396	153.197	270.470	152.623	-8191	255	
632.350	1	1	0	0	0.29917	0.14966	0.030371	0.1515	0.18772	0.18705	0.44421	0.051188	0.23055	0.07539	0.13511	0.15107	0.067797	0.29682	0.12148	0.054718	-2.7583	-2.3	-2.8375	-3.1	-2.3896	-3.125	-2.675	-2.5438	-3.1771	-2.4562	-2.8187	-3.0646	-2.2896	-3.0875	-2.7458	-2.3708	393.166	237.500	475.319	237.495	326.336	293.767	407.126	366.391	148.309	263.317	301.203	127.666	137.339	429.851	197.628	137.079	0.00059791	0.00019927	0.00014211	1349.9	4.9861e-06	4.2169e-06	1351.6	365.89	1.1523e-05	6.4189e-06	419.13	139.62	121.38	41.641	5.3384e-06	51.608	0.0005652	0.00056092	0.00015625	1373.5	6.1298e-06	6.1448e-06	1373.4	373.41	6.1069e-06	6.1254e-06	427.29	142.9	124.59	42.848	6.1723e-06	53.175	177.789	384.183	211.971	139.673	237.776	208.826	139.314	144.263	241.625	276.543	143.597	147.942	147.989	153.281	161.171	152.413	-8191	255	
632.424	1	1	0	0	0.27058	0.17676	0.0169	0.20275	0.014251	0.16534	0.21259	0.37058	0.14428	0.0081902	0.15009	0.25903	0.13704	0.060771	0.3138	0.22938	-2.8875	-2.2812	-2.5062	-3.1417	-2.4792	-3.225	-3.0167	-2.3729	-3.0292	-2.45	-2.7333	-3.25	-2.2938	-3.3271	-2.9	-2.2438	126.869	471.052	256.699	140.996	387.650	384.639	438.561	446.547	137.396	236.641	475.239	405.674	458.985	243.329	218.565	450.211	0.00055212	0.00050065	0.00020615	1353.6	1.7476e-06	2.7887e-06	1353.3	367.16	9.8358e-06	4.6235e-06	419.55	139.15	121.48	41.598	1.3197e-06	51.46	0.00056396	0.00056121	0.00015619	1374.4	6.174e-06	6.152e-06	1374.3	373.25	6.1557e-06	6.1688e-06	427.75	142.82	124.63	42.822	6.222e-06	52.992	174.905	153.769	199.525	139.626	267.347	288.595	139.392	144.059	265.621	169.096	143.730	147.821	148.061	153.269	131.177	152.484	-8191	255	
632.543	1	1	0	0	0.17922	0.30705	0.13776	0.232	0.016801	0.14111	0.12901	0.23394	0.10128	0.17205	0.16526	0.1834	0.29768	0.2077	0.22267	0.17762	-2.8	-2.5563	-2.3354	-3.3104	-2.3104	-2.6688	-3.1833	-2.4813	-2.9292	-2.4875	-2.55	-3.2062	-2.325	-2.8083	-2.7313	-2.2896	422.479	353.606	379.118	469.984	303.611	273.756	408.730	444.148	417.797	182.899	440.837	315.452	146.787	334.194	217.270	420.736	0.00057554	0.00019714	0.00017926	1352.5	3.577e-06	8.1361e-06	1348.7	365.37	4.917e-06	1.7699e-06	418.47	139.53	121.05	41.503	4.7522e-06	51.517	0.00056933	0.00056543	0.00015853	1374	6.2787e-06	6.2483e-06	1373.7	373.47	6.3241e-06	6.3217e-06	427.26	143.03	124.82	42.809	6.3613e-06	53.177	179.921	322.784	215.690	139.655	262.241	230.296	139.424	144.262	229.356	358.480	143.756	147.641	148.009	153.556	181.064	152.446	-8191	255	
632.639	1	1	0	0	0.2262	0.073322	0.1665	0.13189	0.096594	0.10141	0.22752	0.2715	0.23696	0.19431	0.27024	0.11006	0.17539	0.19656	0.10191	0.26185	-2.6479	-2.6458	-2.3187	-3.1771	-2.4083	-2.4958	-2.9521	-2.4396	-3.0042	-2.5417	-2.5792	-3.275	-2.5917	-2.625	-2.8396	-2.3	444.255	167.089	458.913	478.421	297.478	270.857	443.044	455.388	473.735	429.811	422.187	203.444	439.370	425.181	300.791	393.075	0.00058016	0.00052685	5.6846e-05	1351.6	5.7736e-06	7.1429e-06	1349.4	365.49	9.1934e-06	7.6652e-06	417.78	139.55	121.18	41.551	8.4821e-06	51.527	0.00058379	0.00058293	0.00016244	1374.7	6.3543e-06	6.3379e-06	1373.6	373.92	6.3774e-06	6.3388e-06	427.42	142.96	124.77	42.903	6.331e-06	53.07	174.245	184.893	282.395	139.686	246.940	247.863	139.437	144.528	219.372	258.986	143.836	147.802	148.195	153.331	266.298	152.478	-8191	255	
632.735	1	1	0	0	0.2677	0.15541	0.11129	0.34408	0.079891	0.19536	0.018775	0.13787	0.15363	0.1267	0.032449	0.33236	0.25804	0.2565	0.39463	0.052776	-2.7083	-2.4875	-2.4625	-3.0938	-2.3187	-2.5354	-3	-2.4854	-2.7417	-2.8521	-2.2417	-3.1604	-2.4479	-2.625	-3.0438	-2.4125	210.900	210.906	421.297	392.459	441.785	370.087	407.376	404.553	238.762	221.648	270.053	438.185	349.162	127.369	440.825	233.296	0.00061618	0.00056104	7.3278e-05	1352	7.1187e-06	5.5674e-06	1354.3	366.04	3.2311e-06	2.6723e-06	419.24	139.59	120.97	41.382	1.1553e-05	51.455	0.00057545	0.00057469	0.00016062	1374.9	6.3309e-06	6.2832e-06	1373.2	373.03	6.2654e-06	6.3166e-06	427.83	143.06	124.34	42.731	6.3222e-06	53.016	178.100	223.737	194.221	139.641	146.075	219.429	139.553	144.240	399.577	477.085	144.098	147.827	147.818	153.324	283.627	152.437	-8191	255	
632.831	1	1	0	0	0.052538	0.12566	0.050034	0.25124	0.16539	0.047086	0.18164	0.10007	0.26601	0.033803	0.19278	0.17729	0.082159	0.22685	0.33884	0.26335	-2.3708	-2.9479	-2.2104	-3.0583	-2.6646	-2.5042	-3.15	-2.5146	-2.7208	-2.8479	-2.2687	-3.0125	-2.5333	-2.2562	-3.0604	-2.2562	314.370	320.013	138.567	158.425	362.463	348.355	434.442	411.961	173.622	230.500	426.679	206.766	130.889	128.574	344.946	423.533	0.0005274	0.0002256	2.8021e-05	1349.3	7.4514e-06	9.4065e-06	1344.1	366.04	7.654e-06	6.5416e-06	418.86	138.88	120.63	41.537	8.473e-06	51.243	0.00058427	0.00058504	0.00016404	1373.3	6.4527e-06	6.4715e-06	1373.7	373.5	6.4392e-06	6.4544e-06	427.56	142.82	125.13	42.914	6.3813e-06	53.091	184.247	144.116	476.174	139.786	191.966	245.382	139.493	143.926	208.286	420.375	143.555	147.717	147.826	153.437	225.247	152.395	-8191	255	
632.952	1	1	0	0	0.20732	0.10552	0.26727	0.10912	0.18472	0.17446	0.45146	0.17747	0.3692	0.28691	0.16736	0.20435	0.18006	0.13085	0.12932	0.1856	-2.2646	-2.85	-2.2625	-3.1354	-2.4729	-2.3833	-3.3229	-2.5229	-2.6646	-2.9729	-2.3417	-3.1896	-2.6146	-2.65	-3.0271	-2.775	151.918	130.315	289.586	432.372	205.744	350.348	420.677	377.512	275.395	417.475	254.859	167.200	292.287	448.773	393.312	440.683	0.00053358	0.00049489	0.00025971	1357.7	6.4615e-06	9.2723e-06	1348.9	366.3	6.4181e-06	4.6369e-06	418.26	139.18	121.77	41.547	6.7182e-06	51.552	0.00058269	0.00057971	0.00016153	1376.5	6.2682e-06	6.2713e-06	1373.7	373.41	6.1952e-06	6.1637e-06	426.82	142.68	124.23	42.866	6.1809e-06	53.188	175.960	232.596	175.973	139.707	302.745	242.237	139.326	143.980	270.016	256.197	143.691	147.850	148.365	153.324	278.116	152.350	-8191	255	
633.023	1	1	0	0	0.14929	0.097165	0.13496	0.17528	0.076658	0.17833	0.42738	0.47	0.12364	0.15877	0.19405	0.047933	0.2805	0.42564	0.26721	0.17911	-2.1813	-2.9146	-2.2	-3.1958	-2.7708	-2.1958	-3.1479	-2.7083	-2.4667	-2.9667	-2.4479	-3.0375	-2.9688	-2.4167	-3.0938	-2.8667	321.595	323.494	363.707	135.663	390.006	197.326	452.688	456.048	467.662	266.301	475.071	362.622	415.755	479.331	214.073	171.245	0.00047964	0.0003723	0.00014819	1350.3	1.3598e-06	9.0673e-06	1348.1	365.38	9.1046e-06	3.818e-06	418.46	139.05	120.79	41.643	1.3187e-05	50.987	0.00057062	0.00056827	0.00015923	1372.2	6.2789e-06	6.3981e-06	1372.9	373.41	6.4162e-06	6.4356e-06	427.05	142.74	124.66	42.9	6.4464e-06	52.98	177.139	455.168	185.286	139.572	137.876	170.761	139.768	143.992	238.788	284.942	143.652	147.934	148.195	153.235	323.421	152.220	-8191	255	
633.120	1	1	0	0	0.15836	0.041758	0.020061	0.14293	0.12389	0.23091	0.051287	0.22824	0.22966	0.29114	0.14568	0.033869	0.27744	0.046769	0.27824	0.16683	-2.0687	-3.0083	-2.2917	-2.8875	-2.9958	-2.1083	-3.2208	-2.7125	-2.2396	-3.1063	-2.6583	-2.8	-2.8187	-2.4979	-3.0563	-2.6813	375.767	368.363	432.927	423.152	349.889	305.072	127.756	454.871	323.834	431.570	415.466	210.806	177.836	367.797	144.436	435.176	0.00058977	7.0211e-05	0.00014674	1342	3.9877e-06	4.4485e-06	1349.5	366.18	5.2601e-06	2.5997e-06	417.83	140.06	121.19	41.556	9.1871e-06	51.253	0.00058449	0.00058525	0.00016193	1370.7	6.3628e-06	6.3627e-06	1372	373.19	6.3109e-06	6.3151e-06	426.89	143.14	124.58	42.93	6.2311e-06	52.982	182.483	230.725	254.191	139.790	235.178	217.022	139.332	144.030	282.821	314.586	143.656	147.812	148.126	153.356	319.306	152.248	-8191	255	
633.216	1	1	0	0	0.023586	0.11222	0.18731	0.4187	0.20188	0.047707	0.060073	0.2104	0.35625	0.078698	0.32354	0.10201	0.12587	0.16157	0.1445	0.17315	-2.2083	-3.1042	-2.3854	-2.6979	-3.0292	-2.225	-3.0812	-2.7687	-2.3917	-2.8979	-2.6042	-2.7521	-3.0667	-2.2938	-2.7896	-2.925	335.725	382.718	337.825	161.534	383.774	355.196	388.078	463.600	331.579	150.476	465.371	485.764	472.455	354.829	222.685	193.020	0.00062465	0.00021587	5.4424e-05	1348.5	6.384e-06	5.9037e-06	1345.3	367.58	5.6046e-06	3.2604e-06	417.87	139.1	120.8	41.391	6.6592e-06	51.418	0.00056549	0.00055958	0.00015719	1371.4	6.1456e-06	6.149e-06	1369.3	373.17	6.1823e-06	6.1507e-06	426.29	142.7	124.4	42.822	6.2944e-06	53.084	168.376	203.808	296.526	139.688	324.165	201.871	139.563	144.213	248.094	314.725	143.805	147.750	148.366	153.195	196.545	152.498	-8191	255	
633.335	1	1	0	0	0.14034	0.17221	0.063512	0.18524	0.066043	0.056162	0.1771	0.21208	0.10873	0.14286	0.16063	0.21988	0.052246	0.211	0.24983	0.082702	-1.8771	-3.1417	-2.5083	-2.7167	-3.1813	-2.5	-3.0708	-2.9917	-2.325	-2.9854	-2.6729	-2.5104	-3.0646	-2.2396	-2.8458	-3.0042	447.167	382.079	237.052	428.084	247.181	332.498	396.515	443.145	135.058	186.717	385.061	434.919	325.142	154.358	423.522	172.982	0.00056575	0.00021174	0.00026109	1349.1	2.8616e-06	8.0861e-06	1351.3	365.93	7.7918e-06	3.7177e-06	418.5	139.89	121.11	41.58	5.565e-06	51.539	0.00057599	0.00057889	0.00016228	1372.6	6.3308e-06	6.3292e-06	1373.5	373.44	6.3237e-06	6.3218e-06	427.92	143.19	124.64	42.883	6.2631e-06	53.126	170.740	173.208	206.081	139.709	238.845	276.768	139.603	144.125	300.663	205.545	143.766	147.766	148.387	153.283	254.484	152.462	-8191	255	
633.431	1	1	0	0	0.31749	0.042933	0.17908	0.2521	0.1881	0.23999	0.4791	0.20331	0.10106	0.14466	0.2157	0.10304	0.074966	0.13756	0.1066	0.13629	-1.7437	-2.8479	-2.7875	-2.6417	-3.0604	-2.5604	-2.8688	-3.0625	-2.1896	-3.0271	-2.9062	-2.5083	-3.0542	-2.4271	-2.7938	-3.2104	329.794	131.189	470.454	156.370	395.814	456.557	407.083	457.620	246.204	287.732	204.832	256.664	128.421	422.559	283.766	145.710	0.00057894	0.00044936	0.00011356	1352.9	7.9114e-06	9.5059e-06	1346.9	366.15	9.1702e-06	4.7707e-06	420.58	139.39	120.99	41.752	9.6561e-06	51.713	0.00056839	0.00057076	0.00015889	1374.1	6.2321e-06	6.24e-06	1372.6	373.86	6.2169e-06	6.2887e-06	427.66	142.99	124.48	42.96	6.2466e-06	53.203	183.153	277.147	240.476	140.064	290.051	212.453	139.626	144.472	269.684	179.556	143.819	147.940	148.370	153.163	276.373	152.512	-8191	255	
633.529	1	1	0	0	0.27323	0.16264	0.27464	0.33962	0.16683	0.22903	0.2827	0.34051	0.11661	0.060705	0.38234	0.20405	0.3131	0.023947	0.11775	0.030505	-1.9375	-2.8375	-2.8271	-2.3979	-3.0958	-2.425	-2.4979	-3.1542	-2.0771	-2.7708	-2.9854	-2.4083	-2.9875	-2.5521	-2.4375	-3.0021	211.033	246.399	393.426	126.600	429.767	208.783	477.951	439.339	392.935	177.703	469.199	465.313	170.120	430.373	323.651	284.201	0.00053011	0.00049505	1.872e-05	1352.1	1.4597e-06	2.5131e-06	1355.3	367.73	8.694e-06	5.0627e-06	419.65	139.9	121.53	41.582	6.6789e-06	51.391	0.00057127	0.0005696	0.00015849	1374.7	6.2568e-06	6.2144e-06	1376.2	374.58	6.2727e-06	6.3091e-06	427.65	143.28	124.96	42.921	6.441e-06	53.11	178.905	188.818	475.381	139.757	246.773	199.696	139.504	144.356	264.884	242.191	143.865	147.922	148.150	153.329	322.446	152.736	-8191	255	
633.623	1	1	0	0	0.16979	0.2141	0.07809	0.11195	0.25228	0.12971	0.30758	0.079916	0.14244	0.14674	0.44374	0.11288	0.19727	0.28619	0.13788	0.16875	-1.9542	-2.6937	-2.7167	-2.6854	-2.8771	-2.5729	-2.6229	-3.1479	-2.2917	-2.775	-2.8875	-2.4875	-2.7687	-2.8417	-2.5146	-3.0646	428.596	273.362	152.318	456.379	379.820	323.867	443.834	462.843	402.369	483.179	470.676	373.262	156.698	463.744	419.933	261.560	0.00054856	0.0005038	3.0543e-05	1349.7	5.341e-06	5.3888e-06	1346.5	366.87	5.7863e-06	5.2224e-06	417.97	139.52	120.61	41.624	5.3885e-06	51.324	0.00059156	0.00059119	0.00016576	1375.5	6.5151e-06	6.5478e-06	1373.7	374.93	6.5736e-06	6.556e-06	428.26	143.21	125.54	43.004	6.5456e-06	53.162	175.974	179.645	166.571	139.886	226.966	244.305	139.608	144.176	313.625	247.274	143.775	147.835	148.210	153.321	436.358	152.657	-8191	255	
633.719	1	1	0	0	0.054607	0.18417	0.084571	0.32728	0.35119	0.20593	0.24833	0.12875	0.25929	0.30397	0.048792	0.21778	0.22807	0.023007	0.091935	0.061485	-2.1	-2.4125	-2.9479	-2.4021	-2.7458	-2.6354	-2.5563	-3.0875	-2.3729	-2.6854	-3.1063	-2.4688	-2.8604	-2.6292	-2.4708	-3.125	428.661	335.599	356.237	469.297	481.113	139.567	336.144	362.002	215.956	305.998	152.049	439.376	283.468	286.834	382.896	451.722	0.00054232	0.00025894	7.9195e-05	1350.9	9.4155e-06	7.5866e-06	1352	366.57	4.1688e-06	4.2925e-06	418.08	139.22	120.72	41.687	2.6532e-06	51.192	0.00060084	0.00060264	0.00016716	1376.8	6.558e-06	6.5801e-06	1377.7	374.72	6.5069e-06	6.5574e-06	428.09	143.06	125.05	43.001	6.6019e-06	53.111	174.296	303.533	340.159	139.574	197.776	250.499	139.536	144.270	290.794	196.779	143.664	147.687	148.409	153.260	161.906	152.467	-8191	255	
633.815	1	1	0	0	0.10337	0.21951	0.11645	0.20663	0.089579	0.19347	0.3024	0.25633	0.081493	0.17136	0.21432	0.1297	0.22166	0.0753	0.16436	0.1831	-2.0708	-2.6583	-2.9	-2.5333	-2.7208	-2.7458	-2.3625	-3.2313	-2.6292	-2.4083	-3.1125	-2.4604	-2.9104	-2.9437	-2.3563	-2.9917	309.721	391.143	236.870	454.945	226.281	365.757	411.478	399.617	275.997	328.819	405.351	415.655	276.768	405.600	212.514	227.624	0.00052999	0.00064002	0.00037432	1347.1	4.328e-06	4.804e-06	1357.3	367.58	3.5044e-06	1.2397e-05	417.86	139.28	121.31	41.581	3.5513e-06	51.347	0.00059852	0.00060177	0.00016705	1375.9	6.5769e-06	6.5401e-06	1378.4	374.72	6.5553e-06	6.559e-06	428.82	143.57	125.69	42.945	6.6117e-06	53.264	180.361	304.446	241.158	139.726	215.926	197.154	139.517	144.358	192.330	242.918	143.586	147.818	148.539	153.136	182.466	152.454	-8191	255	
633.936	1	1	0	0	0.25033	0.15019	0.16819	0.27113	0.25787	0.15068	0.068777	0.12872	0.091321	0.081558	0.1176	0.17242	0.22468	0.064896	0.11355	0.21234	-2.2438	-2.5667	-2.9583	-2.5729	-2.8875	-3.0417	-2.4271	-3.1833	-2.475	-2.4833	-3.2	-2.4938	-2.8125	-3.0854	-2.4104	-3.0917	475.458	406.195	221.507	484.688	186.369	465.593	129.043	453.845	288.227	298.907	170.396	449.017	242.546	457.297	482.496	355.239	0.00049157	0.0002568	0.00020621	1349.6	4.4434e-06	4.0753e-06	1355	366.89	7.5028e-06	5.176e-06	418.12	138.81	121.74	41.501	4.7227e-06	51.616	0.0006039	0.00060361	0.00016846	1377.1	6.596e-06	6.6318e-06	1377.4	374.9	6.5769e-06	6.6209e-06	428.39	142.99	125.38	42.995	6.5922e-06	53.342	182.700	459.008	193.666	139.991	205.323	249.121	139.689	144.364	221.649	406.075	143.714	147.912	148.629	153.356	271.638	152.518	-8191	255	
634.032	1	1	0	0	0.036935	0.058582	0.27692	0.44967	0.073128	0.29357	0.12542	0.12681	0.11135	0.1053	0.30658	0.16816	0.26113	0.097022	0.15508	0.13735	-2.2167	-2.2812	-3.3	-2.5812	-2.475	-3.1042	-2.4604	-3.1188	-2.9104	-2.3646	-3.1667	-2.5187	-2.5521	-3.125	-2.2417	-2.9396	246.052	391.876	452.679	464.164	410.007	439.819	452.458	361.171	159.893	177.076	409.760	126.524	167.037	165.825	363.700	342.919	0.00054656	0.00072255	8.0111e-05	1352.2	7.1509e-06	9.3729e-06	1349.7	366.39	9.2431e-06	8.0448e-06	421.1	139.61	120.46	41.662	4.4581e-06	51.386	0.00059874	0.00059513	0.00016616	1378.6	6.5323e-06	6.471e-06	1378	375.13	6.4845e-06	6.5086e-06	428.74	143.31	125.29	43.056	6.5193e-06	53.328	161.241	213.124	463.849	139.866	311.259	233.291	139.477	144.403	244.669	203.085	143.984	147.970	148.473	153.310	192.281	152.699	-8191	255	
634.128	1	1	0	0	0.18337	0.20199	0.11395	0.2068	0.16967	0.16975	0.061924	0.078015	0.1635	0.34648	0.15327	0.084435	0.15421	0.053927	0.14249	0.092006	-2.5479	-2.1417	-2.9292	-2.8208	-2.3563	-3.0312	-2.4854	-2.8875	-2.7729	-2.3438	-3.2375	-2.6625	-2.2167	-3.2833	-2.5187	-3.0062	458.718	238.446	407.433	404.942	271.415	370.404	458.367	482.510	370.710	207.328	429.143	157.829	248.508	423.520	181.732	163.293	0.00058838	0.00086022	0.00010867	1354.4	1.7942e-06	6.5904e-06	1354.5	366.22	8.7105e-06	1.7194e-06	417.89	139.56	121.69	41.514	4.1125e-06	51.427	0.00059589	0.00059612	0.00016619	1379.5	6.557e-06	6.5511e-06	1378.8	374.88	6.5667e-06	6.5966e-06	428.47	143.52	125.77	42.949	6.6544e-06	53.396	173.951	249.024	381.396	139.788	364.121	311.677	139.834	144.445	262.956	431.048	143.823	147.927	148.465	153.392	314.478	152.663	-8191	255	
634.249	1	1	0	0	0.23428	0.19051	0.2198	0.32866	0.26312	0.154	0.35475	0.1306	0.19696	0.10004	0.072299	0.33032	0.1813	0.14864	0.34613	0.087292	-2.6354	-2.3604	-2.9396	-2.7625	-2.3375	-3.0417	-2.5917	-2.825	-2.7854	-2.4521	-3.0083	-2.7417	-2.5146	-3.1667	-2.3208	-2.6167	208.770	275.757	236.611	472.228	398.910	138.337	404.179	474.189	479.036	291.437	243.629	471.183	151.016	421.443	127.998	206.941	0.00050069	0.00061024	0.0001382	1359.8	2.4096e-06	1.5236e-05	1350.6	366.47	7.9587e-06	5.1403e-07	419.55	139.22	121.79	41.709	7.2625e-06	51.248	0.00060944	0.00060886	0.00016966	1379.5	6.7062e-06	6.6914e-06	1376.1	375.11	6.7096e-06	6.6769e-06	429.84	143.36	125.71	43.029	6.6796e-06	53.265	180.811	186.804	407.829	140.116	387.949	255.799	139.608	144.709	228.127	314.135	144.015	148.241	148.670	153.632	358.921	152.956	-8191	255	
634.321	1	1	0	0	0.21696	0.2456	0.25919	0.1161	0.11232	0.2447	0.18353	0.29931	0.078607	0.060177	0.2179	0.28835	0.076741	0.12882	0.23447	0.15949	-2.7687	-2.2188	-2.8604	-2.9313	-2.3542	-3.0687	-2.7646	-2.6229	-3.2687	-2.4771	-2.8333	-3.0021	-2.3042	-3.0833	-2.65	-2.6125	373.680	160.470	169.209	380.169	269.863	324.139	384.740	408.332	237.320	456.960	458.923	368.276	311.320	382.128	127.851	401.337	0.00060037	0.00019643	0.00023424	1345.7	9.6571e-06	5.6629e-06	1348.3	365.53	5.6529e-06	2.1116e-06	418.69	139.12	121.94	41.581	5.212e-06	51.34	0.00060519	0.00060758	0.00017025	1376.1	6.6332e-06	6.6783e-06	1376.2	374.43	6.5956e-06	6.641e-06	429.1	143.08	125.62	42.996	6.6316e-06	53.258	182.195	451.547	223.364	139.803	238.535	204.524	139.515	144.477	256.543	176.888	143.987	147.783	148.822	153.496	265.726	152.928	-8191	255	
634.415	1	1	0	0	0.15293	0.31279	0.11342	0.32363	0.072103	0.12718	0.31561	0.13107	0.065434	0.17989	0.11692	0.26623	0.094033	0.2679	0.12266	0.22728	-2.6688	-2.1917	-2.8271	-2.7854	-2.3812	-3.0208	-2.5646	-2.6188	-3.1333	-2.3979	-2.9417	-3.2812	-2.2458	-3.1458	-2.6542	-2.5896	450.708	259.618	401.326	135.931	343.325	277.790	391.184	435.884	237.530	295.424	411.994	434.124	132.929	451.125	288.930	425.778	0.00053304	5.289e-05	0.00016648	1353.8	8.0351e-07	1.0874e-05	1349.6	366.91	4.2617e-06	4.9478e-06	419.81	139.25	121.31	41.569	3.437e-06	51.584	0.00060464	0.00060855	0.0001685	1376.8	6.6251e-06	6.6164e-06	1377.8	375.05	6.7051e-06	6.6844e-06	429.27	143.18	125.61	43.041	6.6576e-06	53.291	180.720	297.422	182.838	139.944	287.386	255.684	139.804	144.579	260.351	194.255	144.081	148.005	148.698	153.562	474.161	152.681	-8191	255	
634.511	1	1	0	0	0.077127	0.019107	0.073323	0.080039	0.078878	0.24408	0.045088	0.35408	0.27396	0.15876	0.043055	0.14119	0.13734	0.15103	0.25261	0.026785	-2.8229	-2.4146	-2.7417	-3.2521	-2.2	-3.0167	-2.9396	-2.5271	-3.1396	-2.4771	-2.7146	-3.1458	-2.4375	-2.9271	-2.8563	-2.4229	389.494	222.791	197.363	479.571	263.272	181.296	339.704	411.340	438.763	372.554	467.572	468.895	177.237	405.657	238.023	453.719	0.00060273	0.00080099	0.00023574	1354.4	2.8388e-06	7.0007e-06	1350.2	366.67	4.5458e-06	1.9787e-06	417.45	139.44	121.24	41.641	6.0496e-06	51.468	0.00060821	0.000609	0.00016922	1378.5	6.6451e-06	6.6468e-06	1377.3	374.9	6.6354e-06	6.626e-06	429.01	143.27	125.23	43.042	6.6711e-06	53.323	179.121	480.306	211.454	139.898	135.353	226.327	139.650	144.538	223.103	219.441	144.157	147.948	148.074	153.610	249.666	152.704	-8191	255	
634.632	1	1	0	0	0.11424	0.19876	0.10947	0.16859	0.18493	0.28282	0.19039	0.24804	0.24429	0.15193	0.28519	0.14881	0.17038	0.16427	0.28372	0.093876	-2.6271	-2.5729	-2.4104	-3.1333	-2.1813	-2.6896	-3.0938	-2.4271	-2.8896	-2.7667	-2.5958	-2.9667	-2.4958	-2.7083	-2.725	-2.45	199.552	456.927	467.615	404.425	305.180	266.037	385.883	437.540	350.646	400.238	427.462	140.441	337.951	436.694	440.671	442.688	0.00056497	0.00044835	4.7683e-05	1351.8	5.4131e-06	1.323e-05	1348.9	365.72	3.7482e-06	6.1939e-06	416.54	139.4	121.27	41.848	4.9371e-06	51.212	0.00060378	0.00060552	0.00016891	1378	6.6539e-06	6.6411e-06	1376	374.36	6.6523e-06	6.6263e-06	428.38	143.22	125.7	43.037	6.621e-06	53.189	188.828	201.191	165.632	139.957	221.201	178.685	139.658	144.454	298.774	243.830	144.035	147.935	148.132	153.344	180.595	152.777	-8191	255	
634.728	1	1	0	0	0.22476	0.22129	0.11675	0.19382	0.13149	0.065229	0.15132	0.27785	0.21811	0.48939	0.10886	0.10514	0.2342	0.17816	0.13846	0.20895	-2.6042	-2.6729	-2.4021	-3.1042	-2.35	-2.7062	-3.1396	-2.325	-3.1042	-2.6854	-2.4667	-3.2104	-2.4917	-2.7062	-2.8708	-2.5	409.712	305.590	471.425	143.562	359.610	202.579	361.129	456.871	358.556	263.682	338.579	140.370	180.531	152.507	360.397	466.862	0.00061442	0.00035656	0.00024356	1350.3	1.1701e-06	2.643e-06	1351.7	366.28	9.7711e-06	2.1517e-06	418.79	139.54	121.28	41.554	5.8581e-06	51.281	0.00060769	0.00060336	0.00016909	1377.1	6.6349e-06	6.5958e-06	1374.7	374.53	6.6485e-06	6.6851e-06	428.46	143.48	125.61	42.973	6.7047e-06	53.222	168.648	208.899	195.823	139.911	255.157	179.534	139.813	144.335	138.747	139.313	144.098	148.012	148.549	153.618	252.698	152.906	-8191	255	
634.824	1	1	0	0	0.10015	0.11417	0.095654	0.13847	0.093393	0.1609	0.2048	0.21763	0.11579	0.049105	0.056928	0.20108	0.079066	0.34347	0.022694	0.034463	-2.6667	-2.6583	-2.3604	-3.3104	-2.3208	-2.5542	-3.2542	-2.3396	-2.9646	-2.8812	-2.35	-3.2562	-2.8688	-2.475	-3.2104	-2.4771	136.347	449.378	298.663	405.765	385.398	336.884	486.219	311.998	368.278	405.244	360.435	383.465	436.286	406.740	407.059	150.664	0.00054635	0.00045998	0.00014147	1351.3	2.8225e-06	1.699e-06	1350.8	366.19	4.3643e-06	6.1229e-06	417.86	139.48	121.49	41.567	3.7734e-06	51.342	0.00061082	0.00061164	0.0001711	1379.3	6.7059e-06	6.7153e-06	1377.8	374.74	6.7292e-06	6.6698e-06	428.39	143.42	125.8	43.017	6.7203e-06	53.273	178.478	188.044	266.286	139.963	235.042	252.910	139.706	144.345	375.602	404.302	143.774	148.038	148.585	153.619	293.163	152.631	-8191	255	
634.896	1	1	0	0	0.12125	0.060107	0.17837	0.19748	0.18062	0.17286	0.28471	0.45671	0.11083	0.22284	0.25307	0.077699	0.1879	0.12905	0.14214	0.063243	-2.4104	-2.8917	-2.2229	-3.1104	-2.7854	-2.4854	-3.2188	-2.3875	-2.6729	-3.075	-2.3812	-3.125	-2.7854	-2.3708	-3.1104	-2.5792	482.656	234.639	433.442	372.978	174.090	173.138	372.244	416.177	398.437	245.709	466.601	345.391	342.823	468.289	232.193	294.220	0.00068322	0.00046517	0.00025298	1355.4	5.2302e-06	6.2056e-06	1350.5	366.76	1.0402e-05	8.825e-06	420.2	139.12	120.4	41.652	6.3638e-06	51.365	0.00061449	0.00061198	0.0001707	1380.8	6.6781e-06	6.7026e-06	1378	374.68	6.673e-06	6.6498e-06	428.98	143.38	125.11	43.015	6.6925e-06	53.235	187.395	201.202	170.436	140.049	290.642	253.503	139.718	144.440	312.031	201.604	144.017	148.066	148.139	153.387	304.921	152.555	-8191	255	
635.016	1	1	0	0	0.17978	0.1484	0.14756	0.080558	0.13503	0.013663	0.20836	0.040594	0.23745	0.055566	0.45432	0.32605	0.096765	0.24674	0.04356	0.1738	-2.1521	-3.0563	-2.3958	-3.0104	-2.7562	-2.45	-3.2958	-2.6458	-2.5542	-2.9979	-2.3458	-3.0833	-2.8146	-2.3729	-3.1375	-2.5812	442.071	271.771	243.517	476.430	370.381	346.808	405.498	433.197	184.765	258.267	436.027	126.332	459.886	150.827	201.145	464.004	0.00054044	0.00070459	0.00019919	1349.1	3.5553e-06	1.7579e-06	1350.9	366.63	7.827e-06	5.5521e-06	418.18	139.94	121.65	41.609	1.0772e-05	51.552	0.00060627	0.00060307	0.00016954	1378.4	6.6184e-06	6.6602e-06	1376.6	374.48	6.632e-06	6.6573e-06	428.69	143.66	125.49	43.069	6.6588e-06	53.418	192.304	131.649	154.807	140.123	261.791	134.170	139.582	144.302	198.734	306.130	143.790	148.401	148.214	153.334	244.915	152.709	-8191	255	
635.113	1	1	0	0	0.11216	0.15876	0.12582	0.23256	0.13154	0.13311	0.17182	0.30636	0.10281	0.10964	0.034511	0.19981	0.34457	0.21243	0.25173	0.047909	-2.3333	-3.0854	-2.3708	-3.1458	-2.8125	-2.1937	-3.2687	-2.7042	-2.3396	-2.9813	-2.4313	-2.7771	-2.9667	-2.4667	-3.0396	-2.5833	283.072	329.062	316.633	166.929	478.147	243.433	480.543	462.681	475.338	308.887	268.154	356.449	479.115	425.121	272.314	468.134	0.00061322	0.00042074	8.5141e-05	1356.5	4.0177e-06	1.1219e-06	1348.5	366.07	7.9648e-06	5.6674e-06	419.21	139.75	121.69	41.73	1.3715e-06	50.921	0.00060112	0.00060102	0.0001675	1378.8	6.5757e-06	6.5877e-06	1377.4	374.66	6.5695e-06	6.5619e-06	428.3	143.61	125.6	43.086	6.5687e-06	53.115	180.927	228.553	368.036	139.790	291.757	434.838	139.610	144.161	298.327	235.728	143.696	147.910	148.082	153.352	294.145	152.552	-8191	255	
635.209	1	1	0	0	0.32038	0.34397	0.062052	0.075679	0.1945	0.092485	0.14283	0.19663	0.24052	0.18493	0.16895	0.13796	0.14555	0.17314	0.069181	0.25055	-1.9104	-3.0583	-2.2292	-2.8458	-3.1063	-2.5271	-3.1813	-2.7938	-2.7354	-3.0187	-2.4521	-2.9104	-3.0292	-2.3354	-3.0833	-2.8271	305.782	248.771	390.829	144.905	345.768	326.964	462.040	459.786	270.121	313.697	425.964	264.623	146.459	146.569	215.043	362.294	0.00049843	0.00040825	0.00016557	1352.6	6.2349e-06	3.7811e-06	1354.8	366.19	8.0243e-07	1.8344e-06	419.19	139.64	121.39	41.713	6.5747e-06	51.527	0.00059837	0.00060175	0.00016714	1378.7	6.592e-06	6.608e-06	1378.5	374.52	6.6773e-06	6.6383e-06	429.05	143.43	125.64	43.148	6.6702e-06	53.362	165.079	168.573	197.638	139.876	247.380	235.975	139.633	144.122	314.216	378.462	143.500	148.005	148.529	153.307	241.928	152.314	-8191	255	
635.329	1	1	0	0	0.25352	0.084339	0.17732	0.15989	0.056531	0.1406	0.17901	0.33404	0.21368	0.039569	0.28361	0.17247	0.13045	0.32495	0.1747	0.095685	-1.9937	-3.1208	-2.3312	-2.8396	-3.0354	-2.3833	-3.125	-2.9021	-2.2396	-3.1729	-2.5896	-2.6625	-3.2417	-2.4229	-2.9021	-3.0333	199.451	412.194	356.295	356.695	465.748	256.650	324.192	436.906	250.530	207.476	483.288	473.710	131.968	459.445	188.840	459.102	0.00069536	0.00077325	3.9207e-05	1351.1	4.013e-06	8.4969e-06	1354.9	366.99	9.2625e-06	4.7522e-06	418.47	139.34	120.55	41.644	6.0802e-06	51.49	0.00061067	0.00061197	0.00016967	1377	6.6873e-06	6.6943e-06	1379.1	374.75	6.6903e-06	6.6606e-06	429.11	143.43	125.63	43.079	6.6464e-06	53.339	177.723	176.456	228.638	139.840	309.647	151.178	139.759	144.278	274.406	209.467	143.885	148.054	148.507	153.292	259.713	152.762	-8191	255	
635.424	1	1	0	0	0.34852	0.086025	0.071088	0.20645	0.17737	0.073636	0.19674	0.19299	0.2466	0.055294	0.11575	0.27692	0.20183	0.15419	0.2836	0.17373	-1.9021	-2.9354	-2.6396	-2.7125	-3.0333	-2.3521	-3.0083	-3.0979	-2.3104	-3.025	-2.8521	-2.6833	-3.3187	-2.4458	-2.7417	-2.9854	382.057	468.301	422.642	484.692	470.579	272.663	343.188	372.944	306.662	438.258	464.228	159.089	157.626	408.538	460.659	386.522	0.00065234	0.00055382	0.00011331	1354.8	1.0224e-05	5.9648e-06	1355.1	366.45	1.2406e-05	1.1071e-05	420.2	139.76	120.94	41.726	9.9929e-06	51.358	0.00060853	0.00060663	0.00016843	1378.1	6.5587e-06	6.6029e-06	1376.7	374.71	6.5707e-06	6.56e-06	428.56	143.48	125.6	43.054	6.5606e-06	53.327	171.998	200.661	315.438	140.084	268.925	314.209	139.670	144.542	248.401	186.687	143.971	148.073	148.502	153.409	249.440	152.535	-8191	255	
635.520	1	1	0	0	0.11871	0.09263	0.2404	0.033394	0.20224	0.17168	0.14687	0.25432	0.033424	0.22819	0.20756	0.036818	0.29457	0.20717	0.22083	0.25731	-1.9021	-2.9833	-2.5687	-2.6	-3.2208	-2.3521	-2.9729	-3.0417	-2.5333	-2.9396	-2.7438	-2.525	-2.9875	-2.4729	-2.3833	-3.1896	395.599	453.297	315.391	437.314	389.244	410.736	394.450	432.096	219.269	348.706	420.960	173.359	355.183	473.024	145.684	432.082	0.00054122	0.00013972	0.00016677	1352.8	4.5707e-06	4.0616e-06	1352.5	366.38	6.4631e-06	3.586e-06	418.96	138.93	121.64	41.573	9.5245e-06	51.43	0.00060382	0.00060256	0.00016597	1375.7	6.5618e-06	6.5866e-06	1376	374.91	6.5276e-06	6.6067e-06	428.25	143.24	125.36	42.979	6.5956e-06	53.288	183.757	212.398	208.089	140.005	293.704	475.671	139.526	144.209	164.233	330.330	144.029	147.982	148.708	153.465	218.921	152.627	-8191	255	
635.616	1	1	0	0	0.028312	0.19119	0.25111	0.31048	0.046634	0.14924	0.19081	0.2757	0.20792	0.21069	0.32598	0.16866	0.059513	0.3036	0.14771	0.22139	-1.7542	-2.8896	-2.6125	-2.5583	-2.9792	-2.5583	-2.7438	-2.9958	-2.2208	-2.9854	-2.85	-2.05	-3.0438	-2.3979	-2.3208	-3.1958	149.285	242.636	304.646	160.705	225.548	354.415	425.207	454.142	333.008	349.117	446.487	352.991	219.511	442.035	169.534	374.853	0.00056194	0.000697	0.00011268	1353.1	2.3667e-06	7.6709e-06	1346.7	365.99	6.4239e-06	6.6006e-06	417.66	139.37	121.57	41.721	8.5863e-06	51.509	0.00059673	0.00059969	0.00016665	1377.7	6.518e-06	6.5839e-06	1376.1	374.62	6.563e-06	6.5651e-06	428.39	143.19	125.38	43.044	6.575e-06	53.28	179.753	176.603	259.351	139.995	165.160	271.743	139.764	144.427	254.397	251.533	143.697	148.222	148.476	153.649	199.844	152.625	-8191	255	
635.712	1	1	0	0	0.15739	0.17776	0.16917	0.084123	0.098214	0.27784	0.21578	0.18404	0.13254	0.18514	0.32481	0.16673	0.17215	0.26094	0.10588	0.20223	-1.9562	-2.7062	-3.0167	-2.4292	-2.9271	-2.525	-2.5271	-3.2021	-2.3292	-2.6625	-2.9375	-2.3333	-3.0917	-2.7125	-2.1688	-3.2083	213.495	410.837	419.782	323.669	299.371	322.916	410.736	430.430	311.854	378.851	130.446	463.326	413.844	390.324	486.227	134.638	0.00056455	0.00024839	0.00019977	1350.7	6.0762e-06	6.9635e-06	1348.3	366.78	6.7352e-06	5.058e-06	417.77	139.1	121.67	41.628	6.2872e-06	51.701	0.00059697	0.00059447	0.0001658	1375.8	6.5339e-06	6.5355e-06	1374.4	374.56	6.5556e-06	6.494e-06	428.55	143.16	125.45	43.029	6.5357e-06	53.35	180.046	146.980	230.923	139.901	277.923	291.748	139.710	144.611	296.636	290.181	143.939	148.157	148.377	153.430	176.833	152.639	-8191	255	
635.808	1	1	0	0	0.20344	0.23607	0.23832	0.52349	0.066645	0.14588	0.20168	0.14596	0.30084	0.22453	0.069562	0.12609	0.077185	0.19753	0.1279	0.1635	-1.9229	-2.5146	-3.0042	-2.4083	-2.6729	-2.7479	-2.5146	-3.1396	-2.1625	-2.5333	-3.1063	-2.425	-2.8521	-2.8604	-2.3812	-3.0833	382.351	261.118	290.626	471.875	311.249	229.956	486.492	464.487	432.343	174.587	474.669	454.917	250.692	156.119	269.800	372.829	0.00058564	0.00079409	0.00022002	1352.7	6.9288e-06	2.9941e-06	1351	366.29	4.7235e-06	2.3614e-06	418.2	138.54	120.6	41.554	1.8149e-06	51.349	0.00059689	0.00059648	0.00016566	1374.9	6.4756e-06	6.5669e-06	1375	374.8	6.554e-06	6.5838e-06	427.86	143.14	125.28	42.974	6.5723e-06	53.237	179.319	485.967	232.369	139.970	253.087	253.744	139.632	144.500	240.132	479.727	143.872	147.857	148.051	153.420	229.371	152.875	-8191	255	
635.929	1	1	0	0	0.13367	0.14276	0.086488	0.13081	0.11965	0.040058	0.51978	0.3058	0.19515	0.24985	0.094786	0.075139	0.045348	0.21139	0.36507	0.084612	-2.1521	-2.3438	-2.8729	-2.4562	-2.6979	-2.8187	-2.4417	-2.9021	-2.4417	-2.5938	-3.2021	-2.3021	-2.675	-2.7375	-2.2687	-3.025	206.110	240.883	256.005	188.899	283.843	128.675	415.429	396.265	311.896	331.137	477.456	484.333	361.234	437.034	371.421	480.029	0.00047265	0.00063923	0.0002728	1353.4	1.4503e-06	8.7224e-06	1356.6	366.69	1.0406e-05	1.7907e-06	420.75	139.31	121.66	41.688	5.9103e-06	51.543	0.00059729	0.00059868	0.00016693	1375.6	6.5439e-06	6.5347e-06	1376.4	374.79	6.5048e-06	6.534e-06	428.4	143.42	125.67	43.018	6.4903e-06	53.326	183.067	163.909	285.812	139.851	186.493	359.981	139.859	144.500	221.845	268.870	143.966	147.968	148.747	153.631	174.310	152.743	-8191	255	
636.025	1	1	0	0	0.31892	0.18719	0.10717	0.21953	0.17745	0.17737	0.21914	0.10869	0.075176	0.22172	0.15114	0.24505	0.23565	0.11921	0.27442	0.18979	-2.4417	-2.3646	-2.9083	-2.2833	-2.7438	-2.8896	-2.4146	-3.0854	-2.675	-2.3917	-3.0479	-2.2375	-2.65	-3.2687	-2.1333	-3.0792	239.918	136.038	434.194	410.576	376.118	243.594	447.670	320.878	166.263	399.881	445.837	159.719	466.159	192.112	444.986	145.157	0.00061389	0.00040279	0.0001814	1349.7	2.8919e-06	1.9821e-06	1350.5	366.79	5.1634e-06	6.1311e-06	420.24	139.56	121.26	41.463	2.3172e-06	51.487	0.00059544	0.00059729	0.00016534	1375.2	6.5467e-06	6.5253e-06	1375.8	374.98	6.5252e-06	6.546e-06	429.23	143.46	125.55	42.912	6.5567e-06	53.351	177.162	385.286	199.259	140.032	258.782	289.364	139.780	144.536	263.157	193.977	144.232	148.076	148.383	153.589	480.939	152.991	-8191	255	
636.121	1	1	0	0	0.086441	0.3588	0.41134	0.40235	0.072025	0.11441	0.037443	0.26502	0.26011	0.14233	0.33766	0.21123	0.10337	0.14473	0.083752	0.095883	-2.2167	-1.9312	-3.0104	-2.4042	-2.4333	-3.0146	-2.4542	-2.8896	-2.9792	-2.2771	-3.0646	-2.6333	-2.3208	-3.1167	-2.2271	-2.9875	235.553	389.245	345.978	386.969	177.678	287.332	472.528	478.472	360.102	394.096	443.923	262.085	449.905	226.076	434.783	138.531	0.00061827	0.00054371	0.00015673	1347.3	8.4164e-06	5.6857e-06	1352.6	365.75	6.6158e-06	5.2258e-06	418.67	139.78	120.08	41.916	5.078e-06	51.372	0.00059785	0.00059877	0.00016596	1374.1	6.5811e-06	6.5425e-06	1377.3	374.46	6.5408e-06	6.5582e-06	429.14	143.52	124.98	43.12	6.6049e-06	53.315	186.963	208.248	261.710	140.298	331.841	274.431	139.848	144.728	322.855	174.925	144.271	148.187	148.585	153.714	204.435	153.332	-8191	255	
636.193	1	1	0	0	0.030607	0.32442	0.119	0.037677	0.071895	0.28441	0.44884	0.17007	0.10659	0.13497	0.1	0.20901	0.135	0.21514	0.09009	0.20538	-2.6479	-2.0542	-2.9854	-2.6479	-2.3333	-3.1646	-2.5792	-2.7833	-2.9896	-2.3646	-3.0479	-2.6354	-2.5375	-3.2458	-2.2708	-2.8479	293.168	236.343	335.943	361.909	222.772	322.353	438.842	413.463	299.063	149.387	426.536	447.809	195.075	444.229	261.255	372.823	0.00066022	0.00066866	0.00011396	1347.4	3.3645e-06	3.7855e-06	1349.8	366.28	3.2709e-06	5.2805e-07	419.73	139.59	122.52	41.54	5.7356e-06	51.804	0.00059202	0.00060169	0.00016734	1372.6	6.5544e-06	6.5295e-06	1375.2	374.55	6.5179e-06	6.5564e-06	428.6	143.23	125.56	43.061	6.5359e-06	53.389	168.550	237.641	255.867	140.134	370.507	207.604	139.920	144.519	296.223	465.431	144.295	148.457	148.587	153.994	203.419	152.862	-8191	255	
636.289	1	1	0	0	0.046556	0.23841	0.089037	0.18645	0.1625	0.076072	0.065779	0.039134	0.086553	0.13033	0.14556	0.29506	0.13062	0.16723	0.16987	0.086697	-2.8167	-2.1937	-2.9729	-2.7812	-2.35	-3.0396	-2.5979	-2.8667	-2.9917	-2.0438	-2.8833	-2.7792	-2.2042	-3.1396	-2.3771	-2.675	325.388	133.994	197.704	451.352	231.519	223.178	208.873	397.154	157.116	151.448	481.047	465.870	287.011	229.083	132.668	441.074	0.00054457	0.00083264	0.00012106	1355.6	4.16e-06	2.3314e-06	1347.6	367.01	5.1016e-06	5.1076e-06	417.15	138.61	121.66	41.646	5.7661e-06	51.549	0.00059503	0.00059949	0.00016613	1376.1	6.5873e-06	6.5625e-06	1373.2	374.81	6.5725e-06	6.6361e-06	428.6	143.12	125.4	43.049	6.583e-06	53.313	178.114	225.527	233.288	140.132	244.371	210.751	139.927	144.720	240.718	280.962	144.380	148.375	149.057	153.695	342.195	153.115	-8191	255	
636.408	1	1	0	0	0.046314	0.28892	0.12166	0.20333	0.2964	0.20947	0.30234	0.096077	0.11875	0.089838	0.19179	0.04748	0.20222	0.094721	0.21985	0.051184	-2.5729	-2.2271	-2.95	-2.8333	-2.3292	-3.1417	-2.5646	-2.7375	-3.1312	-2.3333	-2.8792	-3.0521	-2.4083	-3.225	-2.5479	-2.4562	343.625	184.000	203.259	169.527	351.982	426.339	469.560	457.004	285.944	446.005	472.036	370.624	252.843	351.287	450.854	437.040	0.00062541	0.00041846	0.00027379	1351.5	4.8535e-06	5.9731e-06	1347.8	366.42	3.6517e-06	4.9627e-06	419.13	138.79	121.47	41.741	8.509e-06	51.369	0.00059945	0.00060183	0.00016677	1375.4	6.613e-06	6.5789e-06	1372.8	374.39	6.5524e-06	6.5983e-06	428.57	143.09	125.4	43.054	6.5189e-06	53.253	181.516	468.760	224.952	140.239	198.936	350.810	139.914	144.954	270.207	229.655	144.440	148.351	148.781	153.701	193.685	153.261	-8191	255	
636.504	1	1	0	0	0.19109	0.19588	0.075835	0.20413	0.064868	0.12577	0.39423	0.21088	0.14815	0.16857	0.1117	0.082408	0.14458	0.1161	0.070504	0.21472	-2.7229	-2.4562	-2.6813	-3.1167	-2.5771	-2.9688	-2.8771	-2.5542	-3.1292	-2.4417	-2.7917	-2.9521	-2.4813	-2.9437	-2.6542	-2.5354	392.038	333.455	418.190	137.540	257.808	276.019	432.814	486.789	343.947	208.189	259.670	140.342	263.638	375.012	434.374	434.111	0.00062733	0.00028616	0.00015086	1357.1	7.5002e-06	8.3088e-06	1350.2	367.08	5.4994e-06	2.5525e-06	418.27	139.58	121.64	41.396	4.9004e-06	51.428	0.00059526	0.00059926	0.00016597	1377	6.517e-06	6.4788e-06	1374.3	374.52	6.4999e-06	6.5087e-06	428.08	143.31	125.43	42.946	6.5203e-06	53.314	177.486	188.820	217.117	140.156	286.317	160.769	139.884	144.993	327.455	184.014	144.403	148.540	148.484	153.478	254.483	152.950	-8191	255	
636.600	1	1	0	0	0.23243	0.047172	0.16961	0.25698	0.16404	0.042085	0.25977	0.2791	0.23209	0.20393	0.098826	0.2448	0.24191	0.18292	0.15693	0.22864	-2.8896	-2.525	-2.5229	-3.1083	-2.2833	-2.9292	-2.7646	-2.4396	-2.8312	-2.6063	-2.6396	-3.1042	-2.1583	-2.8604	-2.8354	-2.2917	368.659	409.963	155.631	472.194	461.156	341.302	457.318	432.392	380.928	385.026	479.006	465.333	237.331	134.645	405.072	142.151	0.00064459	0.00063356	0.00012283	1354.5	9.3438e-06	4e-06	1354.1	365.06	2.8616e-06	5.2418e-06	418.88	139.05	120.55	41.534	6.743e-06	51.635	0.00059419	0.00059728	0.00016565	1378.8	6.5436e-06	6.5156e-06	1376.7	374.59	6.5106e-06	6.5067e-06	428.73	143.33	125.41	42.92	6.511e-06	53.21	183.291	141.590	272.567	140.086	258.837	252.662	139.604	144.296	422.048	208.928	143.830	148.151	148.520	153.303	260.981	152.357	-8191	255	
636.696	1	1	0	0	0.233	0.086533	0.19157	0.23932	0.042737	0.11915	0.18035	0.21364	0.30198	0.10754	0.12993	0.30574	0.15263	0.13543	0.077544	0.095264	-2.5729	-2.3292	-2.3292	-3.2062	-2.3875	-2.9688	-3.075	-2.4229	-2.9437	-2.6437	-2.3917	-2.9958	-2.3896	-3.0125	-3.0563	-2.3667	433.909	405.825	229.994	129.318	332.527	315.212	444.106	143.500	440.888	431.989	433.603	341.363	433.014	203.995	191.141	406.000	0.00049987	0.00061498	0.00017053	1352.3	2.2842e-06	5.644e-06	1343.9	366.85	5.0771e-06	2.5327e-06	419.1	139.04	121.13	41.618	5.5806e-06	51.555	0.0005957	0.0005934	0.00016528	1377.1	6.5069e-06	6.5004e-06	1374.3	374.49	6.5212e-06	6.5104e-06	428.8	143.11	125.03	43.01	6.5073e-06	53.211	176.654	171.308	171.194	139.776	420.385	274.304	139.557	144.468	233.672	341.417	143.499	147.562	148.479	153.058	282.142	152.520	-8191	255	
636.793	1	1	0	0	0.028468	0.14861	0.12912	0.34801	0.17726	0.36348	0.1984	0.20896	0.038508	0.20979	0.13301	0.20933	0.17021	0.13309	0.17165	0.23754	-2.6604	-2.6896	-2.2833	-3.1896	-2.3917	-2.6646	-3.0146	-2.4208	-2.9688	-2.7208	-2.3292	-3.2667	-2.6229	-2.7417	-2.8979	-2.1458	280.453	373.536	315.116	430.892	356.550	212.672	482.148	368.738	172.164	175.664	446.566	139.633	224.299	179.143	231.298	422.217	0.00068823	0.00044786	0.00010252	1353.9	1.8118e-06	2.8585e-06	1351.6	366.02	2.6207e-06	7.7104e-06	418.66	139.4	121.43	41.814	4.2061e-06	51.086	0.00059608	0.00059297	0.00016468	1375.6	6.4844e-06	6.4548e-06	1373.6	374.07	6.4885e-06	6.4826e-06	428.65	143.2	125.22	43.083	6.5376e-06	53.162	179.321	171.671	477.690	139.609	141.945	253.351	139.344	144.209	378.172	288.089	143.924	147.653	147.977	153.392	213.434	152.327	-8191	255	
636.889	1	1	0	0	0.1685	0.044146	0.1642	0.073993	0.24579	0.33136	0.40257	0.19043	0.11937	0.14389	0.3241	0.31826	0.092185	0.14351	0.090357	0.24865	-2.5312	-2.6104	-2.1708	-3.1979	-2.4708	-2.4062	-3.3833	-2.3896	-2.7896	-2.8688	-2.5104	-3.2	-2.575	-2.6396	-3.0917	-2.3521	272.290	324.066	451.862	404.604	426.510	440.338	391.000	195.025	224.741	329.661	129.813	158.574	185.860	446.142	407.647	128.657	0.00055809	0.00030775	0.00017202	1347.3	3.0507e-06	7.9504e-06	1349.8	366.44	7.5887e-06	1.0958e-05	420.64	139.82	122.44	41.83	1.1958e-05	51.387	0.00059867	0.00059417	0.00016711	1376.3	6.5699e-06	6.5223e-06	1373.7	374.68	6.5374e-06	6.4807e-06	428.77	143.28	125.43	43.051	6.4974e-06	53.15	177.098	246.737	211.691	139.672	444.169	256.624	139.417	144.258	253.461	249.721	143.298	147.958	147.919	153.116	263.745	152.354	-8191	255	
637.009	1	1	0	0	0.24086	0.38181	0.27303	0.1829	0.16112	0.16925	0.1226	0.15334	0.15127	0.14613	0.16446	0.2312	0.05019	0.052144	0.1398	0.23509	-2.5729	-2.7396	-2.0208	-3.2625	-2.5479	-2.5062	-3.3521	-2.4271	-2.8083	-3.0604	-2.525	-3.0104	-2.7875	-2.4396	-2.9146	-2.3667	463.784	186.429	372.635	415.416	481.933	376.988	195.705	424.278	328.388	218.777	135.335	418.174	314.002	152.563	321.420	385.350	0.00064552	0.00068659	0.00022443	1345.5	5.605e-06	5.9208e-06	1352.2	366.18	1.1033e-05	2.2314e-06	417.09	139.07	122.17	41.564	8.5406e-06	51.619	0.00059371	0.000593	0.00016565	1374.2	6.5012e-06	6.4963e-06	1377	374.45	6.502e-06	6.5223e-06	428.13	143.12	125.24	42.966	6.5123e-06	53.32	176.089	243.372	195.027	139.777	179.952	378.943	139.413	144.150	272.544	292.367	143.774	148.029	148.070	153.345	251.484	152.303	-8191	255	
637.105	1	1	0	0	0.20968	0.27198	0.19455	0.063181	0.16315	0.22803	0.33947	0.1434	0.1934	0.2365	0.27731	0.28547	0.22235	0.095885	0.13569	0.20078	-2.1979	-2.7271	-2.0833	-3.1042	-2.725	-2.1167	-3.0833	-2.5917	-2.6125	-3.0292	-2.2583	-3.0875	-2.7333	-2.3792	-2.9104	-2.5375	390.326	399.749	135.180	391.335	139.124	146.049	439.942	427.375	241.228	460.552	446.124	354.159	437.934	434.960	230.002	170.089	0.00048661	0.0001215	0.00024016	1351.1	8.4046e-06	4.9632e-06	1348.1	366.89	8.0524e-06	5.9991e-06	419.19	139.65	121.95	41.621	3.161e-06	51.524	0.00059825	0.0005954	0.00016601	1375.5	6.5187e-06	6.5497e-06	1374.9	374.38	6.4883e-06	6.5195e-06	428.05	143.45	125.57	42.976	6.4968e-06	53.336	177.176	458.781	212.337	139.697	285.976	429.245	139.448	144.095	257.904	225.398	143.747	148.002	148.110	153.138	339.734	152.554	-8191	255	
637.202	1	1	0	0	0.11046	0.10215	0.076264	0.20832	0.083296	0.12405	0.069854	0.086297	0.099616	0.21941	0.307	0.20025	0.11504	0.27833	0.031995	0.097818	-2.125	-3.1146	-2.2771	-2.8042	-2.8688	-2.0062	-3.1354	-2.6667	-2.3604	-3.1437	-2.3729	-2.7854	-2.8771	-2.2896	-3.0104	-2.6562	176.520	276.560	437.100	395.283	257.448	452.904	132.514	210.078	323.899	204.203	438.694	162.247	481.173	462.162	397.807	327.035	0.0005397	0.00055304	0.00010973	1352.4	2.1931e-06	1.0808e-06	1352.6	364.53	6.3087e-06	6.3179e-06	416.7	139.03	121.33	41.561	8.9151e-06	51.423	0.00059433	0.00059235	0.00016434	1374.8	6.52e-06	6.5263e-06	1374.6	374.17	6.5657e-06	6.629e-06	427.5	143.35	125.69	43.003	6.5765e-06	53.316	183.662	197.474	476.138	139.490	179.287	258.111	139.335	144.142	248.039	278.796	143.676	147.692	147.945	153.194	234.502	152.062	-8191	255	
637.298	1	1	0	0	0.31569	0.29629	0.10867	0.11258	0.39	0.24616	0.039651	0.33793	0.26791	0.17287	0.037006	0.14351	0.09502	0.29074	0.11029	0.22342	-1.9937	-3.2021	-2.45	-2.9333	-2.9729	-2.3854	-3.2313	-2.5542	-2.4167	-3.2375	-2.625	-2.6437	-2.9	-2.3917	-3.0542	-2.7104	193.240	287.963	212.030	171.309	217.193	197.767	375.983	428.549	360.722	244.708	251.749	199.615	450.180	431.742	130.346	367.585	0.00059992	0.00077443	0.0002034	1353.4	6.8493e-06	4.1125e-06	1351	366.19	9.3083e-06	3.7712e-06	416.36	138.79	120.38	41.516	1.2554e-05	51.392	0.00060383	0.00059946	0.000169	1377.1	6.6202e-06	6.6025e-06	1376.5	374.55	6.598e-06	6.5929e-06	427.9	143.3	125.21	43.027	6.6156e-06	53.278	188.696	169.072	187.711	139.664	212.814	477.330	139.439	144.191	304.118	264.944	143.666	147.861	147.965	153.210	247.527	152.222	-8191	255	
637.417	1	1	0	0	0.11645	0.36934	0.03641	0.34641	0.15108	0.081432	0.071348	0.18991	0.10871	0.17141	0.22614	0.16409	0.30423	0.23336	0.23538	0.12632	-1.8896	-3.0792	-2.4437	-2.7667	-3.1042	-2.1833	-2.9729	-2.8458	-2.3833	-3.1646	-2.4562	-2.4771	-3.0833	-2.2667	-2.7438	-2.8583	152.400	213.342	193.560	454.134	214.208	406.622	468.602	408.095	269.731	365.351	396.416	194.596	440.931	333.771	416.906	134.808	0.00050536	0.00035077	0.00037277	1350.4	5.9595e-06	3.5939e-06	1349.9	368.2	2.8506e-06	5.247e-06	418.47	139.8	120.68	41.46	6.7142e-06	51.325	0.00060101	0.00060051	0.00016815	1377.5	6.5946e-06	6.6126e-06	1375.7	375.04	6.5986e-06	6.6486e-06	428.78	143.58	125.67	43.014	6.7167e-06	53.293	172.880	193.812	170.808	139.596	198.631	169.736	139.202	144.072	418.091	308.288	143.383	147.628	147.870	153.034	190.384	152.264	-8191	255	
637.488	1	1	0	0	0.23163	0.094894	0.13284	0.19869	0.14438	0.12475	0.25005	0.14159	0.093199	0.13935	0.168	0.064284	0.097011	0.21516	0.22497	0.38458	-1.9042	-3.0938	-2.4958	-2.7333	-3.1146	-2.1125	-2.9562	-2.9938	-2.275	-2.9271	-2.8333	-2.4458	-3.0854	-2.4083	-2.7208	-2.9375	128.618	252.283	362.402	409.548	348.714	290.912	463.452	411.729	275.815	193.788	274.507	285.998	385.436	134.506	217.844	383.417	0.00059099	0.00066032	0.0001814	1350.7	6.8259e-06	4.8755e-06	1350.1	365.56	8.1238e-06	6.9455e-06	417.5	138.73	120.32	41.54	6.4809e-06	51.317	0.00060597	0.00061476	0.00017062	1377.9	6.7581e-06	6.795e-06	1377.3	375.13	6.82e-06	6.8339e-06	429.03	143.63	125.76	43.086	6.8593e-06	53.356	178.835	219.798	161.867	139.570	283.222	272.250	139.356	144.033	222.106	343.450	143.740	147.789	148.209	153.009	239.035	152.521	-8191	255	
637.609	1	1	0	0	0.043863	0.16134	0.22962	0.23343	0.11858	0.34304	0.077204	0.32598	0.15968	0.19968	0.18827	0.40934	0.024595	0.10855	0.0877	0.076337	-1.8146	-3.0062	-2.5521	-2.4729	-3.0563	-2.2917	-2.8063	-3.1625	-2.2104	-2.8812	-2.9479	-2.3875	-3.1021	-2.5271	-2.6437	-3.0167	208.754	450.407	204.615	424.834	209.694	449.307	445.073	400.102	398.507	135.103	346.832	442.131	130.312	165.519	148.939	210.623	0.00049744	0.00073683	0.00011921	1349.8	1.8771e-06	6.3387e-06	1353	366.28	3.9143e-06	2.7624e-06	419.38	139.21	120.94	41.548	6.5169e-06	51.197	0.00062102	0.00062361	0.00017378	1378.8	6.8123e-06	6.8357e-06	1376.8	374.53	6.8446e-06	6.8636e-06	429.34	143.67	126.1	43.087	6.8853e-06	53.389	183.138	153.752	203.949	139.622	301.447	214.143	139.471	143.981	267.785	313.029	143.566	147.667	147.887	153.075	248.783	152.377	-8191	255	
637.705	1	1	0	0	0.10608	0.13099	0.036285	0.51094	0.15861	0.24068	0.1697	0.081662	0.054577	0.1504	0.2375	0.076228	0.19126	0.15267	0.28325	0.1409	-1.8771	-3.0375	-2.7562	-2.1937	-3.0958	-2.4771	-2.8229	-3.1375	-2.1229	-2.8229	-2.9833	-2.2458	-3.0708	-2.5479	-2.6312	-3.0417	380.607	302.933	273.330	432.676	232.348	374.416	400.480	189.770	186.389	228.741	203.016	441.305	169.939	456.886	165.745	130.113	0.00060917	0.00079612	0.00013272	1353.9	3.8206e-06	9.2442e-06	1346.6	367.41	4.1245e-06	3.9461e-06	418.52	138.85	121.48	41.352	6.8526e-06	51.144	0.00062377	0.00062732	0.00017431	1377.2	6.8574e-06	6.8654e-06	1375.4	374.87	6.9117e-06	6.8995e-06	429.24	143.23	126.04	43.003	6.9048e-06	53.34	181.136	143.422	226.802	139.631	290.351	183.045	139.427	143.965	274.669	262.679	143.564	147.590	148.339	152.989	259.737	152.384	-8191	255	
637.801	1	1	0	0	0.21348	0.20078	0.1244	0.34047	0.17666	0.19424	0.15119	0.1588	0.17362	0.067776	0.30952	0.33247	0.33145	0.45796	0.18852	0.092443	-1.7854	-2.6625	-2.85	-2.3729	-2.8979	-2.5521	-2.6417	-3.0563	-2.2562	-2.8042	-2.9938	-2.1937	-2.9271	-2.8354	-2.3063	-3.1146	405.010	229.988	324.207	415.773	259.439	148.251	483.280	416.062	350.134	293.251	160.376	473.976	145.268	438.368	328.433	282.742	0.00056857	0.00040848	0.0002275	1347.1	3.4094e-06	6.2747e-06	1349.9	365.32	9.4887e-06	2.4771e-06	417.02	138.92	121.5	41.557	3.257e-06	51.611	0.0006311	0.00062329	0.00017528	1376.9	6.8878e-06	6.8466e-06	1375.5	374.85	6.8708e-06	6.9174e-06	428.58	143.29	126.37	43.032	6.9091e-06	53.342	188.123	220.088	333.664	139.507	224.085	260.797	139.400	144.069	210.557	367.840	143.470	147.363	147.794	153.248	337.672	152.587	-8191	255	
637.897	1	1	0	0	0.17545	0.080952	0.067251	0.29731	0.059551	0.18851	0.25819	0.079371	0.27477	0.17758	0.14023	0.23396	0.32656	0.1926	0.12318	0.24143	-1.9708	-2.4104	-3	-2.2917	-2.8042	-2.9104	-2.5271	-3.1813	-2.3229	-2.6271	-3.1708	-2.1854	-3.0312	-2.7875	-2.2146	-3.0708	477.936	381.736	277.936	462.653	349.186	137.997	432.708	437.578	438.458	395.740	480.851	163.116	161.000	191.956	383.148	134.972	0.00056879	0.00081943	0.00032164	1352.1	5.7406e-06	2.1063e-06	1340.8	365.36	1.175e-05	2.0187e-06	420.09	138.6	120.69	41.329	5.0919e-06	51.052	0.00063092	0.0006314	0.00017594	1377.4	6.9152e-06	6.893e-06	1373.7	374.85	6.8919e-06	6.929e-06	429.5	143.49	125.97	42.967	6.9422e-06	53.313	182.098	183.599	257.990	139.849	203.445	254.108	139.418	144.105	245.786	264.069	143.484	147.899	148.002	153.184	222.409	152.341	-8191	255	
638.018	1	1	0	0	0.05848	0.24583	0.14681	0.18523	0.25659	0.14336	0.14267	0.17311	0.10176	0.29372	0.26656	0.10491	0.28261	0.048498	0.42661	0.031345	-2.2229	-2.4479	-3.0687	-2.5229	-2.8479	-3.0708	-2.4333	-3.0521	-2.5771	-2.425	-3.0312	-2.1958	-2.8792	-2.9542	-2.2667	-3.2667	135.698	362.387	332.272	175.184	324.572	396.079	456.242	464.090	229.054	242.853	398.743	457.332	215.302	420.706	340.632	213.521	0.00057366	0.0004295	6.5279e-05	1346.4	2.5547e-06	2.0701e-06	1350	364.92	5.0134e-06	7.5379e-06	419.57	138.65	121.8	41.37	4.893e-06	51.123	0.00063015	0.00063563	0.00017614	1376.4	6.847e-06	6.9084e-06	1374.9	375.01	6.9341e-06	6.9294e-06	428.92	143.3	126.2	42.998	6.9092e-06	53.288	173.008	141.431	212.700	139.527	136.945	191.519	139.351	144.123	134.009	275.079	143.659	147.796	147.967	152.931	300.362	152.516	-8191	255	
638.090	1	1	0	0	0.2928	0.19817	0.15172	0.077969	0.17966	0.16075	0.082985	0.28828	0.057306	0.16918	0.062189	0.037296	0.081887	0.13867	0.081813	0.10591	-2.25	-2.2771	-3.05	-2.3792	-2.8417	-2.9146	-2.4667	-3.2333	-2.7625	-2.3396	-3.1979	-2.5646	-2.5312	-3.1042	-2.3333	-2.9688	166.232	443.795	223.310	474.065	449.469	412.269	153.394	459.086	201.218	247.854	288.499	370.160	194.400	162.223	340.767	199.800	0.00047811	0.0006541	0.00016205	1349.6	4.538e-06	6.9565e-06	1346.3	365.36	1.1753e-05	4.5733e-06	417.35	138.06	120.39	41.394	4.9636e-06	51.385	0.00062604	0.0006243	0.00017348	1374.9	6.8945e-06	6.8418e-06	1375.6	374.44	6.8197e-06	6.8392e-06	428.73	143.14	125.69	42.994	6.7899e-06	53.349	175.738	162.427	238.237	139.587	235.130	251.022	139.193	144.312	253.798	156.664	143.711	147.790	147.906	153.093	197.085	152.438	-8191	255	
638.186	1	1	0	0	0.13322	0.24828	0.2238	0.24281	0.077603	0.17187	0.19737	0.30245	0.10794	0.085693	0.049811	0.26379	0.10806	0.27629	0.12686	0.082958	-2.2854	-2.3104	-3.1208	-2.7896	-2.6167	-2.8958	-2.6125	-3.0208	-2.8187	-2.2667	-3.2375	-2.5979	-2.5563	-3.1604	-2.3125	-2.9062	460.479	204.218	239.007	335.617	128.734	392.319	377.634	444.298	208.397	249.865	264.683	444.312	454.667	128.455	272.182	322.063	0.00058526	0.00084265	0.00020372	1349.7	6.6068e-06	8.1025e-06	1346.5	365.28	2.2718e-06	3.1798e-06	417.82	139.34	121	41.65	5.5133e-06	51.335	0.00061686	0.00061519	0.00017072	1373.5	6.743e-06	6.667e-06	1374.3	374.69	6.631e-06	6.6065e-06	428.41	143.45	125.31	43.068	6.6405e-06	53.309	168.687	175.592	379.782	139.631	246.451	197.406	139.352	144.275	372.654	217.339	143.734	147.857	148.410	153.156	222.960	152.886	-8191	255	
638.282	1	1	0	0	0.32661	0.24449	0.030985	0.10138	0.14109	0.19163	0.30681	0.068861	0.12764	0.12395	0.041188	0.18057	0.16555	0.2125	0.095049	0.16838	-2.4917	-2.2062	-3.1292	-2.7875	-2.3292	-3.2667	-2.4562	-2.7646	-3.0833	-2.1583	-3.0271	-2.8125	-2.5062	-3.2833	-2.5125	-2.5563	220.501	313.019	253.703	384.378	450.780	423.693	412.848	446.585	194.850	156.554	186.433	345.952	132.187	184.975	176.520	480.318	0.00057651	0.00059356	0.00035141	1344.6	6.4406e-06	1.0736e-05	1344	365.26	5.0529e-06	2.6774e-06	417.2	138.94	121.01	41.506	6.4393e-06	51.333	0.00059981	0.00060762	0.00016671	1375	6.5746e-06	6.5795e-06	1373.1	374.36	6.6109e-06	6.6175e-06	428.46	143.45	125.28	43.035	6.6115e-06	53.343	180.837	240.608	176.498	139.487	262.926	277.803	139.389	144.255	282.462	160.891	143.939	147.897	148.312	153.194	237.139	152.339	-8191	255	
638.378	1	1	0	0	0.17841	0.089285	0.066046	0.13993	0.13647	0.1625	0.12339	0.28573	0.1997	0.22669	0.33514	0.31808	0.26548	0.13677	0.21312	0.3054	-2.6063	-2.1896	-3.0062	-2.8438	-2.3646	-3.1771	-2.6292	-2.7375	-3.0458	-2.25	-3.1083	-2.8458	-2.45	-3.0875	-2.2354	-2.65	466.292	476.734	245.865	401.817	131.465	173.561	420.242	405.679	454.361	267.612	396.522	368.076	146.629	136.787	210.486	432.462	0.00065886	0.0002737	0.00010883	1349.7	7.8538e-06	4.3586e-06	1346.6	366.53	7.6792e-06	3.8186e-06	417.73	139.16	121.41	41.628	7.7258e-06	51.194	0.00060404	0.0006022	0.00016679	1373.7	6.6016e-06	6.5919e-06	1373.7	374.21	6.5729e-06	6.5753e-06	428.46	143.17	125.47	43.015	6.546e-06	53.192	176.429	130.921	258.159	139.630	208.038	320.426	139.298	144.251	209.216	251.559	143.754	147.734	148.108	153.248	281.269	152.276	-8191	255	
638.497	1	1	0	0	0.18776	0.068766	0.16393	0.3353	0.23971	0.087145	0.2307	0.30156	0.18751	0.093834	0.10107	0.30932	0.093878	0.12771	0.20699	0.18024	-2.6917	-2.1813	-2.7375	-2.9542	-2.2229	-3.1333	-2.6813	-2.5521	-2.9229	-2.25	-3.0458	-2.9542	-2.3792	-3.0854	-2.6167	-2.4771	285.507	170.883	146.254	168.652	479.993	273.429	146.005	398.374	244.637	267.001	442.248	463.823	214.102	243.291	378.996	415.774	0.00052448	0.0012273	0.00014287	1345.6	2.8791e-06	6.3996e-06	1346.9	367.1	3.1483e-06	4.0804e-06	417.69	139.06	121.49	41.51	8.2724e-06	51.299	0.00059571	0.00059288	0.00016633	1371.7	6.5154e-06	6.5186e-06	1373	374.79	6.4741e-06	6.5304e-06	428.73	143.29	125.21	43.008	6.5617e-06	53.331	177.292	472.770	207.781	139.585	364.468	299.137	139.398	144.243	353.486	208.205	143.839	147.738	148.644	153.317	287.580	152.597	-8191	255	
638.593	1	1	0	0	0.1094	0.2129	0.34716	0.38563	0.16323	0.087567	0.077598	0.08489	0.22469	0.055821	0.31841	0.07351	0.10778	0.30562	0.060871	0.1963	-2.6437	-2.2188	-2.8167	-3.0438	-2.5354	-3.0208	-2.7542	-2.3979	-2.9354	-2.2562	-2.6125	-3.1104	-2.175	-2.8	-2.5958	-2.3229	457.214	456.447	283.223	431.299	242.524	481.181	446.326	358.226	365.723	319.971	485.755	446.700	181.562	372.213	484.768	166.960	0.00054239	0.00090497	9.4322e-05	1353.9	6.0573e-06	2.5141e-06	1349.1	366.99	3.2371e-06	9.1484e-06	419.4	138.86	121.46	41.598	1.1981e-05	51.69	0.00059976	0.00059699	0.00016657	1374.4	6.5321e-06	6.5272e-06	1373.9	374.85	6.5299e-06	6.5644e-06	429.24	143.4	125.33	43.103	6.5186e-06	53.365	162.344	170.486	143.348	139.796	298.568	272.116	139.368	144.137	223.213	245.838	143.544	147.769	147.980	153.247	244.543	152.218	-8191	255	
638.689	1	1	0	0	0.13031	0.12443	0.11041	0.24791	0.083899	0.17172	0.10785	0.1193	0.12753	0.1218	0.14312	0.052627	0.17415	0.29445	0.10795	0.13456	-2.6396	-2.2958	-2.8042	-3.0417	-2.2479	-2.875	-2.9729	-2.4604	-3.075	-2.4479	-2.4729	-3.0917	-2.2375	-3.0896	-2.7313	-2.5062	152.832	128.414	259.722	392.603	403.538	149.549	402.135	181.526	483.673	283.696	451.570	271.800	142.819	482.122	149.154	199.746	0.00053784	0.00044308	0.0001897	1353.9	4.9447e-06	7.9171e-06	1353.3	366.87	1.9188e-06	3.697e-06	419.97	139.12	120.64	41.865	8.6903e-06	51.637	0.00059137	0.00059751	0.00016633	1377.1	6.5217e-06	6.5143e-06	1376.3	375.06	6.5193e-06	6.5258e-06	429.18	143.44	125.21	43.14	6.5226e-06	53.394	171.985	269.418	202.849	139.471	350.331	377.711	139.360	144.367	304.436	457.816	143.818	147.767	148.191	153.382	284.465	152.523	-8191	255	
638.785	1	1	0	0	0.2085	0.24023	0.22065	0.15353	0.12516	0.15175	0.061368	0.18177	0.085214	0.12792	0.18495	0.2484	0.12521	0.10992	0.095342	0.22325	-2.7021	-2.6437	-2.3417	-3.2271	-2.2083	-2.8	-2.9625	-2.3479	-2.7896	-2.575	-2.4292	-2.9833	-2.3521	-2.9729	-2.9104	-2.3833	146.033	453.073	299.747	469.847	219.200	165.635	428.950	447.871	260.215	447.798	229.058	409.570	136.329	477.468	202.589	374.323	0.00062683	0.00054895	0.00024062	1350.5	4.6164e-06	1.0343e-06	1356	367.13	3.2401e-06	5.8115e-06	420.69	139.94	120.43	41.595	1.3292e-05	51.329	0.00059655	0.0005914	0.00016503	1375.7	6.4696e-06	6.5083e-06	1376.4	374.94	6.4644e-06	6.4462e-06	429.54	143.37	125.11	43.054	6.4415e-06	53.29	174.944	204.011	222.996	139.601	296.526	357.265	139.426	144.245	253.203	311.141	143.519	147.647	148.277	153.333	250.782	152.281	-8191	255	
638.882	1	1	0	0	0.16278	0.049279	0.12507	0.13491	0.23388	0.31649	0.34823	0.16407	0.17006	0.065014	0.12557	0.33843	0.22671	0.1814	0.11107	0.35958	-2.35	-2.8563	-2.3375	-3.3125	-2.2979	-2.6292	-2.9833	-2.5062	-2.975	-2.7458	-2.4125	-3.1229	-2.35	-2.6896	-2.8729	-2.4792	340.749	373.962	461.945	162.155	410.985	265.490	444.544	403.634	237.486	412.448	225.323	477.762	145.524	161.128	229.180	369.296	0.00059928	0.00065273	0.00016463	1355.6	9.0254e-06	1.0252e-05	1351.1	367.14	1.3879e-05	2.8177e-06	419.53	139.57	120.67	41.718	7.9119e-06	51.654	0.00058945	0.00059231	0.00016547	1377.4	6.5087e-06	6.452e-06	1375.7	375.13	6.4483e-06	6.4418e-06	428.74	143.61	125.19	43.085	6.4265e-06	53.292	176.075	484.363	167.143	139.767	257.011	323.127	139.519	144.134	304.694	477.714	143.849	147.819	148.117	153.125	285.803	152.590	-8191	255	
638.978	1	1	0	0	0.24301	0.16894	0.20396	0.2406	0.30507	0.20321	0.081107	0.093382	0.046373	0.32895	0.032041	0.055441	0.11981	0.11646	0.22436	0.19948	-2.6229	-2.7938	-2.2083	-3.3333	-2.3708	-2.6292	-3.3021	-2.3021	-2.9729	-2.9833	-2.3875	-3.2896	-2.3083	-2.5146	-3.0479	-2.4167	429.508	444.206	278.502	381.168	157.504	247.174	410.421	441.067	211.521	413.960	430.850	300.953	356.504	433.226	418.103	407.835	0.00060266	0.00034039	0.00021173	1347.3	7.677e-06	4.7063e-06	1350.1	367.34	4.9708e-06	8.065e-06	419.15	140.17	122.06	41.731	7.3735e-06	51.673	0.00058666	0.00058638	0.0001653	1374.1	6.4892e-06	6.4412e-06	1376	375.06	6.4462e-06	6.4305e-06	427.95	143.77	125.38	43.079	6.4472e-06	53.329	175.890	207.308	189.382	139.576	269.732	463.273	139.411	144.151	291.799	278.070	143.734	147.769	147.696	153.204	283.373	152.484	-8191	255	
639.098	1	1	0	0	0.29611	0.15476	0.1963	0.20185	0.068248	0.1475	0.2264	0.084456	0.18244	0.16505	0.063836	0.10822	0.071969	0.13106	0.080832	0.04611	-2.4104	-2.8063	-2.3083	-2.9792	-2.4417	-2.2812	-3.3021	-2.3708	-2.5938	-2.9896	-2.4271	-3.1375	-2.7687	-2.3937	-2.8979	-2.5438	322.446	388.918	289.448	476.034	312.074	346.052	147.813	451.822	405.274	394.661	309.245	394.043	481.729	411.739	143.587	424.669	0.00061034	0.00047434	0.00017434	1354	3.5572e-06	6.2078e-06	1349.2	367.23	3.504e-06	3.1186e-06	419.29	139.63	121.09	41.597	3.7293e-06	51.436	0.0005855	0.00058353	0.0001625	1377.9	6.4284e-06	6.4416e-06	1375.4	374.56	6.4086e-06	6.4254e-06	428.04	143.5	125.07	43.005	6.417e-06	53.384	176.285	177.417	248.064	139.580	268.370	287.962	139.478	144.042	282.327	176.834	143.568	147.843	147.983	153.267	219.249	152.663	-8191	255	
639.195	1	1	0	0	0.083127	0.30258	0.18644	0.17862	0.11748	0.072441	0.13411	0.31733	0.23066	0.27719	0.14112	0.26353	0.13538	0.29256	0.14368	0.18814	-2.2792	-3.0604	-2.1063	-2.9292	-2.5354	-2.4458	-3.0667	-2.5792	-2.6229	-3.1646	-2.4562	-3.0687	-2.8708	-2.4833	-3.1208	-2.3812	448.338	281.034	388.980	169.059	185.040	173.928	400.145	454.727	308.251	221.156	483.294	391.335	178.001	469.359	390.061	410.607	0.00065898	0.00079443	0.00013747	1352.9	3.9651e-06	4.1812e-06	1351.5	366.54	6.2801e-06	4.9504e-06	419.19	139.72	121.74	41.643	3.9757e-06	51.489	0.00058731	0.00059097	0.00016386	1375.4	6.4737e-06	6.4614e-06	1374.2	374.28	6.412e-06	6.4458e-06	427.73	143.54	125.33	42.94	6.492e-06	53.273	169.968	182.578	139.979	139.756	284.067	199.084	139.529	144.197	280.832	276.968	144.079	147.981	147.996	153.505	156.733	152.510	-8191	255	
639.291	1	1	0	0	0.15303	0.066958	0.14215	0.075681	0.23542	0.11897	0.18105	0.23814	0.20072	0.18763	0.14865	0.222	0.023452	0.34845	0.18802	0.079316	-2.0583	-3.075	-2.2396	-3	-2.7292	-2.3521	-3.2125	-2.8021	-2.3812	-2.9792	-2.4188	-2.8458	-3.0187	-2.2417	-3.075	-2.625	174.405	247.440	400.682	128.525	406.753	357.875	426.986	375.331	272.869	376.133	153.660	371.087	221.516	446.076	191.484	150.894	0.00059996	0.00041267	6.8601e-05	1354.3	3.7968e-06	8.7547e-06	1352.5	365.74	4.9117e-06	7.0937e-06	418.56	139.7	121.13	41.8	5.6054e-06	51.64	0.00058708	0.00058504	0.00016376	1375	6.4752e-06	6.4623e-06	1376.6	373.93	6.4689e-06	6.4469e-06	428.18	143.46	125.32	43.055	6.4813e-06	53.303	167.930	139.493	212.857	139.843	406.920	313.286	139.332	144.276	252.291	273.925	143.573	147.901	148.102	153.632	268.847	152.590	-8191	255	
639.385	1	1	0	0	0.2128	0.19619	0.14512	0.13507	0.21647	0.06102	0.24224	0.28868	0.26504	0.18082	0.25128	0.32437	0.19822	0.36396	0.25063	0.26744	-2.0896	-2.9958	-2.3083	-2.9271	-3.025	-2.4021	-3.0375	-2.8979	-2.2979	-3.2333	-2.3771	-2.8771	-2.9417	-2.2771	-2.8708	-2.7333	220.139	417.815	432.651	407.215	335.646	130.372	430.522	452.829	332.893	404.558	136.095	485.879	304.123	407.143	194.363	445.903	0.00045379	0.00070169	0.000266	1353	1.8824e-06	4.2598e-06	1351.9	364.75	3.6859e-06	2.9085e-06	419.41	139.59	120.99	41.675	4.4953e-06	51.623	0.00059257	0.00059252	0.0001647	1374.9	6.4615e-06	6.5127e-06	1376.2	374.36	6.5107e-06	6.4487e-06	428.59	143.52	125.36	43.081	6.5093e-06	53.23	178.366	320.981	195.081	139.773	443.303	365.381	139.510	144.424	241.031	350.495	143.743	147.990	148.191	153.384	434.196	152.363	-8191	255	
#DATA ENDS
