BOXY.EXE: ISS Imagent and Oximeter Data Acquisition Program Version 0.80
Ascii Record File

#ACQ INFORMATION
2  Detector Channels 
16  External MUX Channels 
1  Auxiliary Channels 
5000  Waveform (CCF) Frequency (Hz)
1  Waveforms Skipped 
30  Waveforms Averaged 
1  Cycles Averaged 
16  Acquisitions per Waveform 
10.0806  Updata Rate (Hz) 

#FILE INFORMATION
TRUE -- External MUX Channel results are PARSED.
FALSE -- AC DC and Phase are NOT grouped.
TRUE -- Companion Program Settings File CREATED.
FALSE -- AC data not excluded
FALSE -- DC data not excluded
FALSE -- Phase data not excluded
FALSE -- Auxillary Chn. data not excluded
Tab delimiters

#CALIBRATION STATE
TRUE -- Waveform Calibration Values APPLIED.


#AUX CALIBRATION VALUES
Val Type	aux-1	

Term	1.0000e+00	
Factor	0.0000e+00	


#WF CALIBRATION VALUES
A = Detector Channel
Val Type	A-AC1	A-AC2	A-AC3	A-AC4	A-AC5	A-AC6	A-AC7	A-AC8	A-AC9	A-AC10	A-AC11	A-AC12	A-AC13	A-AC14	A-AC15	A-AC16	A-DC1	A-DC2	A-DC3	A-DC4	A-DC5	A-DC6	A-DC7	A-DC8	A-DC9	A-DC10	A-DC11	A-DC12	A-DC13	A-DC14	A-DC15	A-DC16	A-Ph1	A-Ph2	A-Ph3	A-Ph4	A-Ph5	A-Ph6	A-Ph7	A-Ph8	A-Ph9	A-Ph10	A-Ph11	A-Ph12	A-Ph13	A-Ph14	A-Ph15	A-Ph16	

Term	0.00000e+00	0.00000e+00	0.00000e+00	0.00000e+00	0.00000e+00	0.00000e+00	0.00000e+00	0.00000e+00	0.00000e+00	0.00000e+00	0.00000e+00	0.00000e+00	0.00000e+00	0.00000e+00	0.00000e+00	0.00000e+00	0.00000e+00	0.00000e+00	0.00000e+00	0.00000e+00	0.00000e+00	0.00000e+00	0.00000e+00	0.00000e+00	0.00000e+00	0.00000e+00	0.00000e+00	0.00000e+00	0.00000e+00	0.00000e+00	0.00000e+00	0.00000e+00	0.00000e+00	0.00000e+00	0.00000e+00	0.00000e+00	0.00000e+00	0.00000e+00	0.00000e+00	0.00000e+00	0.00000e+00	0.00000e+00	0.00000e+00	0.00000e+00	0.00000e+00	0.00000e+00	0.00000e+00	0.00000e+00	
Factor	1.00000e+00	1.00000e+00	1.00000e+00	1.00000e+00	1.00000e+00	1.00000e+00	1.00000e+00	1.00000e+00	1.00000e+00	1.00000e+00	1.00000e+00	1.00000e+00	1.00000e+00	1.00000e+00	1.00000e+00	1.00000e+00	1.00000e+00	1.00000e+00	1.00000e+00	1.00000e+00	1.00000e+00	1.00000e+00	1.00000e+00	1.00000e+00	1.00000e+00	1.00000e+00	1.00000e+00	1.00000e+00	1.00000e+00	1.00000e+00	1.00000e+00	1.00000e+00	X	X	X	X	X	X	X	X	X	X	X	X	X	X	X	X	

B = Detector Channel
Val Type	B-AC1	B-AC2	B-AC3	B-AC4	B-AC5	B-AC6	B-AC7	B-AC8	B-AC9	B-AC10	B-AC11	B-AC12	B-AC13	B-AC14	B-AC15	B-AC16	B-DC1	B-DC2	B-DC3	B-DC4	B-DC5	B-DC6	B-DC7	B-DC8	B-DC9	B-DC10	B-DC11	B-DC12	B-DC13	B-DC14	B-DC15	B-DC16	B-Ph1	B-Ph2	B-Ph3	B-Ph4	B-Ph5	B-Ph6	B-Ph7	B-Ph8	B-Ph9	B-Ph10	B-Ph11	B-Ph12	B-Ph13	B-Ph14	B-Ph15	B-Ph16	

Term	0.00000e+00	0.00000e+00	0.00000e+00	0.00000e+00	0.00000e+00	0.00000e+00	0.00000e+00	0.00000e+00	0.00000e+00	0.00000e+00	0.00000e+00	0.00000e+00	0.00000e+00	0.00000e+00	0.00000e+00	0.00000e+00	0.00000e+00	0.00000e+00	0.00000e+00	0.00000e+00	0.00000e+00	0.00000e+00	0.00000e+00	0.00000e+00	0.00000e+00	0.00000e+00	0.00000e+00	0.00000e+00	0.00000e+00	0.00000e+00	0.00000e+00	0.00000e+00	-7.21242e+01	-1.36190e+02	-1.31975e+02	-1.84208e+02	-5.78500e+01	-7.12383e+01	-1.57919e+02	-1.62015e+02	-5.00457e+01	-6.58011e+01	-1.73678e+02	-1.74622e+02	-1.83192e+02	-1.77394e+02	-5.50764e+01	-1.50270e+02	
Factor	1.50587e-05	1.53820e-04	4.27858e-05	1.63141e-01	1.38621e-06	1.57826e-06	1.57083e-01	5.08700e-02	1.06407e-06	1.56460e-06	8.91376e-02	3.09256e-02	2.10338e-02	7.86656e-03	1.28744e-06	1.15860e-02	1.22195e-05	2.56875e-05	7.18329e-06	8.46512e-02	2.51754e-07	2.89162e-07	7.65242e-02	2.66035e-02	2.46997e-07	2.91659e-07	4.50603e-02	1.56519e-02	1.11339e-02	4.15076e-03	2.61534e-07	5.90229e-03	X	X	X	X	X	X	X	X	X	X	X	X	X	X	X	X	



#DISTANCE SETTINGS
A = Detector Channel
A-1	A-2	A-3	A-4	A-5	A-6	A-7	A-8	A-9	A-10	A-11	A-12	A-13	A-14	A-15	A-16	

2.5000e+00	3.0000e+00	2.5000e+00	3.0000e+00	2.0000e+00	3.0000e+00	1.5000e+00	3.0000e+00	3.0000e+00	3.0000e+00	3.0000e+00	3.0000e+00	3.0000e+00	3.0000e+00	1.5000e+00	3.0000e+00	

B = Detector Channel
B-1	B-2	B-3	B-4	B-5	B-6	B-7	B-8	B-9	B-10	B-11	B-12	B-13	B-14	B-15	B-16	

1.0000e+01	1.0000e+01	1.0000e+01	1.4400e+00	1.0000e+01	1.0000e+01	1.5100e+00	1.9400e+00	1.0000e+01	1.0000e+01	1.9900e+00	2.4900e+00	2.4100e+00	2.9000e+00	1.0000e+01	2.9800e+00	




#DATA BEGINS
time	group	step	mark	flag	A-AC1	A-AC2	A-AC3	A-AC4	A-AC5	A-AC6	A-AC7	A-AC8	A-AC9	A-AC10	A-AC11	A-AC12	A-AC13	A-AC14	A-AC15	A-AC16	A-DC1	A-DC2	A-DC3	A-DC4	A-DC5	A-DC6	A-DC7	A-DC8	A-DC9	A-DC10	A-DC11	A-DC12	A-DC13	A-DC14	A-DC15	A-DC16	A-Ph1	A-Ph2	A-Ph3	A-Ph4	A-Ph5	A-Ph6	A-Ph7	A-Ph8	A-Ph9	A-Ph10	A-Ph11	A-Ph12	A-Ph13	A-Ph14	A-Ph15	A-Ph16	B-AC1	B-AC2	B-AC3	B-AC4	B-AC5	B-AC6	B-AC7	B-AC8	B-AC9	B-AC10	B-AC11	B-AC12	B-AC13	B-AC14	B-AC15	B-AC16	B-DC1	B-DC2	B-DC3	B-DC4	B-DC5	B-DC6	B-DC7	B-DC8	B-DC9	B-DC10	B-DC11	B-DC12	B-DC13	B-DC14	B-DC15	B-DC16	B-Ph1	B-Ph2	B-Ph3	B-Ph4	B-Ph5	B-Ph6	B-Ph7	B-Ph8	B-Ph9	B-Ph10	B-Ph11	B-Ph12	B-Ph13	B-Ph14	B-Ph15	B-Ph16	aux-1	digaux	

757.010	1	1	0	768	0.38861	0.072129	0.13014	0.22864	0.13201	0.1307	0.25686	0.035714	0.084386	0.066107	0.35039	0.22821	0.062674	0.28079	0.20207	0.10826	-2.0917	-3.0438	-3.0021	-2.7396	-3.2438	-2.6417	-3.0917	-3.3542	-2.5896	-3.0312	-2.8958	-2.7104	-3.2667	-2.9042	-2.6104	-3.1021	117.383	48.238	66.900	372.567	58.129	157.826	326.545	349.413	175.412	378.060	325.532	389.842	188.586	370.184	215.204	308.944	0.00040585	0.00044892	0.00016836	1357.9	6.283e-06	4.6846e-06	1361.4	365.76	4.694e-06	5.5147e-06	418.95	140.35	121.62	41.773	4.976e-06	51.956	0.00054364	0.00055094	0.00015366	1372.4	6.0442e-06	6.2971e-06	1371.9	373.18	6.2166e-06	6.1862e-06	426.37	143.28	124.28	42.914	6.267e-06	53.107	211.351	132.643	142.223	60.762	213.547	202.909	60.745	65.821	229.040	190.601	64.811	69.812	69.849	74.186	227.629	74.012	-8191	255	
757.106	1	1	0	0	0.18226	0.19387	0.1441	0.25199	0.14198	0.18538	0.34253	0.26611	0.044685	0.030191	0.11099	0.31184	0.11113	0.38797	0.12257	0.15953	-2.1833	-2.875	-3.0167	-2.7333	-3.3333	-2.6208	-2.9521	-3.3688	-2.3771	-3.1333	-3.1729	-2.7271	-3.1542	-3.0979	-2.5479	-3.3042	345.814	321.533	201.674	343.040	74.188	104.716	374.675	65.837	270.938	302.984	370.768	352.478	400.508	399.724	143.943	162.546	0.00037865	0.00057	0.00013191	1360.5	6.1919e-06	5.2308e-06	1361.8	366.26	5.0819e-06	4.9825e-06	420.14	140.12	121.59	41.877	4.4354e-06	52.072	0.00052004	0.00055522	0.00015118	1374.2	6.1512e-06	5.829e-06	1372	373.3	5.93e-06	5.9486e-06	427.09	143.06	124.14	42.88	6.1335e-06	53.201	215.215	119.733	145.852	60.540	212.103	190.112	60.682	65.863	213.679	193.570	65.165	69.892	70.199	74.493	208.513	73.700	-8191	255	
757.201	1	1	0	0	0.0087765	0.06876	0.21842	0.27762	0.093322	0.16521	0.13833	0.24822	0.072219	0.28051	0.16507	0.14388	0.23473	0.13027	0.19532	0.11947	-2.275	-2.7229	-3.1646	-2.6458	-3.1479	-2.6917	-2.9188	-3.2667	-2.6292	-2.6917	-3.2792	-2.7542	-3.1625	-3.0875	-2.5229	-3.2396	120.823	91.276	370.645	297.312	204.570	300.151	289.137	382.545	322.138	338.115	95.463	116.319	123.590	277.361	255.178	405.824	0.00042879	0.00064417	0.00018758	1353.9	6.7049e-06	6.1051e-06	1362.2	365.72	4.3433e-06	3.739e-06	420.91	139.33	121.69	41.853	4.1431e-06	51.969	0.00052579	0.00054944	0.00015966	1372.8	5.8868e-06	6.0194e-06	1375.5	373.03	6.0247e-06	6.1601e-06	427.16	142.98	124.38	42.894	6.1564e-06	53.11	211.939	139.094	138.033	60.794	215.292	202.291	60.894	65.632	220.259	174.503	64.899	69.960	70.196	74.310	203.169	73.668	-8191	255	
757.298	1	1	0	0	0.1043	0.077096	0.15564	0.16976	0.067282	0.02612	0.17175	0.188	0.14776	0.12493	0.20204	0.16662	0.28545	0.28222	0.20141	0.15465	-2.1792	-2.6875	-3.0354	-2.8438	-3.0271	-3.0229	-2.6917	-3.375	-2.7729	-2.6667	-3.1896	-2.6562	-3.1042	-3.175	-2.4688	-3.2771	402.043	227.368	197.242	218.794	278.263	184.651	343.325	347.986	395.452	79.913	260.206	226.489	70.022	343.150	94.884	167.148	0.00041185	0.00053612	0.00015698	1359.5	6.682e-06	3.9707e-06	1353.7	365.67	3.9751e-06	6.321e-06	420.53	139.62	121.38	41.855	3.6743e-06	52.088	0.00053559	0.00057385	0.00015812	1375	6.0683e-06	6.0471e-06	1372.6	373.21	5.7437e-06	6.4603e-06	427.49	142.79	124.17	42.887	5.8458e-06	53.218	211.659	129.150	134.284	60.925	219.584	203.298	60.891	65.824	226.067	193.606	64.910	70.206	70.128	74.252	230.718	73.789	-8191	255	
757.393	1	1	0	0	0.11727	0.11181	0.14356	0.26316	0.29554	0.14593	0.38027	0.31439	0.25785	0.10616	0.19016	0.27807	0.24337	0.10211	0.19275	0.34887	-2.5042	-2.5521	-3.1646	-2.8979	-2.825	-3.0542	-2.8146	-3.2729	-3.0646	-2.8708	-3.3438	-2.6937	-2.9313	-3.2917	-2.7042	-3.1021	153.698	362.030	64.890	358.239	159.088	207.495	377.617	298.372	240.706	394.880	365.333	51.458	107.428	159.193	113.310	385.726	0.00038988	0.00054422	0.00015568	1351.6	5.4643e-06	5.8405e-06	1351.4	365.44	3.0375e-06	3.3549e-06	418.5	139.26	121.13	41.737	4.5341e-06	51.648	0.00050581	0.00052959	0.00015016	1371.9	6.019e-06	5.8881e-06	1369.8	372.44	5.7365e-06	6.2555e-06	426.69	142.79	124.04	42.902	6.0572e-06	53.072	210.711	129.221	129.280	60.945	207.683	196.479	61.160	65.827	218.323	213.811	65.250	70.037	70.066	74.651	212.645	73.732	-8191	255	
757.489	1	1	0	0	0.10006	0.15197	0.10935	0.06835	0.16027	0.24857	0.15953	0.38225	0.16256	0.056096	0.075776	0.086833	0.24631	0.26559	0.17104	0.042499	-2.6708	-2.4521	-3.3167	-2.7271	-2.9229	-3.1896	-2.6271	-3.1792	-2.8229	-2.5771	-3.4104	-2.8812	-2.8292	-3.2313	-2.3875	-3.0187	117.342	394.117	196.182	84.451	237.736	92.950	362.103	372.753	205.320	95.029	235.462	52.211	97.142	68.071	113.064	106.457	0.00038164	0.00036719	0.00012419	1351.3	4.6424e-06	5.2131e-06	1355.2	364.73	3.7021e-06	5.4059e-06	418.91	138.35	120.39	41.483	4.3194e-06	51.691	0.000525	0.00054479	0.00015288	1370.7	5.7494e-06	5.9164e-06	1369	372.55	5.8544e-06	6.0531e-06	426.61	142.45	123.79	42.777	5.8475e-06	53.103	209.727	128.483	132.367	60.898	216.589	187.359	60.891	65.628	223.370	214.234	65.248	70.221	70.452	74.512	209.892	74.017	-8191	255	
757.610	1	1	0	0	0.10706	0.20846	0.20957	0.26545	0.16993	0.26214	0.34674	0.16739	0.14459	0.19417	0.11752	0.1378	0.24911	0.29808	0.10935	0.14054	-2.6896	-2.3625	-3.0687	-2.8833	-2.8104	-3.2	-2.6479	-3.1646	-2.85	-2.5646	-3.0271	-2.9875	-2.7625	-3.2625	-2.6792	-3.0458	388.763	140.138	255.773	360.067	97.957	337.351	372.162	312.738	388.715	110.017	305.660	100.134	57.312	346.135	208.890	96.461	0.00038318	0.00047288	0.00017771	1349.8	6.667e-06	5.9489e-06	1348.5	362.08	4.5231e-06	4.9752e-06	416.18	138.66	119.79	41.44	5.5235e-06	51.414	0.00050889	0.00053366	0.00014747	1370.2	5.858e-06	5.8248e-06	1367.9	371.51	5.912e-06	6.1856e-06	425.62	142.52	123.53	42.774	6.0109e-06	52.883	210.527	128.008	126.698	61.285	199.931	195.367	61.236	66.260	232.363	205.073	65.483	70.489	70.406	74.997	228.843	73.913	-8191	255	
757.706	1	1	0	0	0.40025	0.22676	0.22687	0.19104	0.035277	0.14415	0.16296	0.16116	0.16013	0.1468	0.18901	0.091871	0.17389	0.069293	0.21062	0.15518	-2.6958	-2.5708	-3.05	-3.0333	-2.525	-3.1917	-2.7792	-3.0812	-3.0229	-2.6292	-3.1458	-3.1208	-2.6792	-3.3021	-2.6729	-2.8958	283.588	261.078	297.516	99.276	144.379	74.392	53.968	388.374	119.845	250.091	61.761	99.018	235.823	112.177	336.148	58.020	0.00039075	0.0006652	0.00015738	1337.9	6.2938e-06	5.7346e-06	1346.1	362.9	4.1971e-06	5.0033e-06	414.92	138.81	119.78	41.263	3.4743e-06	51.411	0.00051329	0.00054629	0.0001536	1365.6	5.848e-06	5.7826e-06	1369.2	371.98	5.8513e-06	6.0209e-06	424.51	142.29	123.53	42.779	5.7439e-06	52.894	211.985	129.698	124.027	61.696	212.319	194.393	61.550	66.176	245.098	207.916	65.372	70.167	70.677	74.817	206.785	73.952	-8191	255	
757.802	1	1	0	0	0.084815	0.23867	0.19832	0.29308	0.11059	0.41882	0.13354	0.10286	0.12389	0.083142	0.40953	0.052171	0.1082	0.12089	0.44232	0.18023	-2.7396	-2.575	-3.0104	-3.1792	-2.6937	-3.2292	-2.8625	-2.9396	-3.1937	-2.6854	-3.1208	-3.3042	-2.5333	-3.1771	-2.9208	-2.5979	263.149	194.862	258.604	339.042	362.529	399.936	187.329	133.986	157.761	88.255	404.448	359.969	204.104	113.095	124.344	294.293	0.00040235	0.00042121	0.00011584	1342	5.8167e-06	5.1788e-06	1342	361.75	4.9658e-06	4.6155e-06	413.65	137.75	119.82	41.136	5.619e-06	51.53	0.00051816	0.00054243	0.00015083	1367.9	6.094e-06	5.7525e-06	1366.7	371.91	6.0411e-06	5.9316e-06	424.93	142.25	123.59	42.717	5.7984e-06	52.948	209.127	135.425	134.212	61.666	209.423	194.583	61.772	66.558	219.663	202.715	65.867	70.813	70.830	74.961	214.112	73.932	-8191	255	
757.898	1	1	0	0	0.23121	0.19069	0.068654	0.077226	0.16137	0.22741	0.15148	0.12573	0.054822	0.36214	0.057738	0.2427	0.32135	0.13888	0.28308	0.10678	-2.7042	-2.4938	-3.0438	-3.4021	-2.4938	-3.1083	-3.125	-2.5667	-3.2417	-2.525	-3.0375	-3.1375	-2.6333	-3.0167	-2.7271	-2.5646	210.117	161.989	250.410	367.876	123.214	181.374	88.188	385.011	132.206	64.551	366.774	325.487	389.284	365.655	398.974	249.302	0.00040646	0.00047652	0.00019546	1345.5	6.5109e-06	4.71e-06	1345.5	361.26	3.7989e-06	4.8002e-06	414.22	138.83	120.28	41.325	6.392e-06	51.319	0.00051938	0.00055908	0.00015194	1369.3	5.9818e-06	5.7646e-06	1367.1	370.87	5.5456e-06	5.9128e-06	424.47	142.37	123.54	42.696	5.7527e-06	52.803	212.370	122.469	131.624	61.464	225.543	191.724	61.510	66.074	241.277	205.337	65.440	70.592	70.653	75.021	230.338	74.036	-8191	255	
757.994	1	1	0	0	0.25855	0.1631	0.24032	0.10022	0.1856	0.14673	0.15772	0.16724	0.34001	0.13146	0.21495	0.020855	0.15266	0.21306	0.16102	0.13598	-2.85	-2.5479	-2.7938	-3.2313	-2.625	-3.0729	-3.1792	-2.6312	-3.1729	-2.7938	-2.9917	-3.2438	-2.8063	-3.1	-2.9562	-2.7521	153.080	229.406	100.874	355.946	192.256	389.187	268.529	358.614	281.540	109.606	282.956	294.404	374.167	106.270	356.076	348.230	0.00039903	0.00052153	0.00012727	1343.6	4.6744e-06	4.8174e-06	1343.7	361.59	5.171e-06	4.6579e-06	414.62	138.06	119.96	41.221	5.6388e-06	51.148	0.00051408	0.00055266	0.00014462	1368.2	5.6687e-06	5.7766e-06	1366.3	370.95	5.5188e-06	6.1084e-06	424.3	142.06	123.51	42.636	5.9619e-06	52.828	212.340	136.978	145.499	61.424	210.429	196.623	61.509	66.264	245.263	199.413	65.295	70.448	70.702	75.005	217.779	74.185	-8191	255	
758.090	1	1	0	0	0.11583	0.11832	0.12137	0.099624	0.12621	0.10994	0.19598	0.12737	0.33968	0.12917	0.25394	0.17649	0.24968	0.2326	0.18488	0.057269	-2.7687	-2.8354	-2.6479	-3.4542	-2.4771	-2.9521	-3.0438	-2.8187	-3.2	-2.8688	-2.7292	-2.9396	-2.8187	-2.8375	-3.2458	-2.7021	403.464	154.467	312.418	340.780	388.870	124.360	211.599	385.426	277.143	350.994	277.324	282.040	395.451	399.428	185.567	222.511	0.00039537	0.00050941	0.00011707	1343.7	5.818e-06	4.3197e-06	1342.3	362.54	3.9388e-06	5.8864e-06	416.95	139.72	120.44	41.591	4.7194e-06	51.454	0.00050823	0.00052274	0.0001511	1367.3	5.9923e-06	5.8381e-06	1366.6	371.69	5.7293e-06	6.2555e-06	425.56	142.61	123.63	42.733	5.9025e-06	52.883	211.999	121.860	132.819	61.610	223.474	204.163	61.720	66.741	236.881	206.328	65.009	70.080	70.146	74.332	221.612	74.006	-8191	255	
758.211	1	1	0	0	0.34709	0.067752	0.22153	0.43327	0.23297	0.075393	0.25961	0.021657	0.069321	0.16581	0.09114	0.082344	0.080298	0.14882	0.12825	0.24367	-2.55	-2.9375	-2.6167	-3.3771	-2.5938	-3	-3.2208	-2.7021	-3.2125	-2.9208	-2.7438	-3.4229	-2.7021	-3.1021	-3.1479	-2.6625	352.059	192.180	347.417	60.741	113.193	179.873	373.843	358.035	398.691	206.022	141.792	383.544	307.667	346.426	134.219	351.131	0.0004069	0.00040137	0.00017596	1348.8	5.6164e-06	4.6314e-06	1352	363.52	4.0388e-06	4.7465e-06	417.55	139.35	120.51	41.622	4.1652e-06	51.324	0.00051795	0.00054639	0.00015393	1369.2	5.9257e-06	6.0001e-06	1369.1	371.4	5.7494e-06	6.01e-06	426.07	142.7	123.8	42.749	6.1319e-06	52.954	211.874	118.841	145.724	61.259	212.873	199.931	61.126	66.057	231.606	197.165	65.039	70.043	70.268	74.346	198.441	73.933	-8191	255	
758.305	1	1	0	0	0.1155	0.039516	0.28281	0.16781	0.18543	0.056399	0.35827	0.24542	0.35305	0.18161	0.37599	0.31193	0.21996	0.16754	0.27278	0.14585	-2.7208	-2.8812	-2.3937	-3.4646	-2.6333	-2.7979	-3.4146	-2.8979	-2.9042	-3.1583	-2.6813	-3.3479	-2.8604	-2.8312	-3.0792	-2.8458	312.275	148.407	257.123	403.043	366.084	90.800	349.777	341.147	277.169	67.509	382.093	386.995	79.114	79.938	83.247	369.133	0.0003968	0.00040116	0.00017462	1347.8	6.7921e-06	4.1192e-06	1350.3	361.65	4.7274e-06	5.6304e-06	415.57	138.13	119.91	41.371	4.2652e-06	51.523	0.00051551	0.00054816	0.00015224	1369.9	6.0547e-06	5.7754e-06	1369.5	370.99	5.8024e-06	6.23e-06	424.61	142.37	123.5	42.712	5.8159e-06	52.892	211.928	140.211	142.454	61.383	218.007	192.392	61.495	66.269	216.296	212.390	65.618	70.575	70.779	74.723	211.590	73.940	-8191	255	
758.402	1	1	0	0	0.072117	0.10808	0.2145	0.14503	0.058418	0.23048	0.12126	0.22365	0.014437	0.26662	0.053966	0.21017	0.089286	0.34653	0.028942	0.28119	-2.6021	-3.0604	-2.4271	-3.3125	-2.925	-2.4688	-3.4229	-2.6688	-2.8063	-3.1208	-2.7062	-3.1625	-3.0958	-2.7125	-3.2083	-2.5917	178.606	331.277	383.592	317.424	156.969	131.537	285.392	351.025	299.362	391.978	121.080	297.127	271.345	300.846	264.763	370.698	0.00040797	0.00066735	0.0001446	1354.9	7.3691e-06	3.7189e-06	1349.1	364.04	5.1016e-06	4.5516e-06	415.65	139	120.55	41.385	4.4583e-06	51.454	0.00051721	0.00055271	0.00015645	1371	5.826e-06	6.0893e-06	1368.1	371.69	5.8199e-06	5.8605e-06	424.93	142.37	123.67	42.684	5.7407e-06	52.903	211.961	117.752	155.441	60.765	220.742	179.898	60.876	65.793	239.109	209.914	65.277	70.480	70.709	74.712	231.840	74.080	-8191	255	
758.498	1	1	0	0	0.19933	0.079715	0.15063	0.23738	0.25033	0.13077	0.22099	0.15882	0.1697	0.21424	0.13864	0.21641	0.039638	0.046207	0.14687	0.052089	-2.5333	-2.9729	-2.4229	-3.1604	-2.8146	-2.5729	-3.5375	-2.7646	-2.9604	-3.0438	-2.8604	-3.0792	-2.9583	-2.8271	-3.2479	-2.8583	267.975	183.081	122.687	397.923	187.329	292.410	362.305	387.086	354.045	58.414	318.859	284.850	343.609	345.824	101.254	55.543	0.00037948	0.00059484	0.00013463	1344	7.6327e-06	4.9757e-06	1344.1	362.48	4.5076e-06	5.4056e-06	414.87	138.48	119.8	41.25	5.9592e-06	51.364	0.00049435	0.00054928	0.00015247	1367.7	6.0631e-06	6.2935e-06	1368.1	371.63	5.8152e-06	5.9845e-06	424.34	142.44	123.48	42.64	5.8082e-06	52.773	212.187	114.742	128.556	61.525	222.254	193.619	61.330	66.404	251.370	197.425	65.564	70.706	70.622	74.817	225.832	74.028	-8191	255	
758.594	1	1	0	0	0.11802	0.15497	0.32356	0.23619	0.25706	0.22639	0.32126	0.068779	0.2194	0.27195	0.17678	0.2146	0.2755	0.38054	0.16907	0.24187	-2.3146	-3.1417	-2.5354	-3.3354	-3.0229	-2.6688	-3.3042	-2.9354	-2.5542	-3.3104	-2.4125	-3.1333	-3.2	-2.9021	-3.0271	-2.9688	348.644	214.145	401.786	385.473	275.988	302.483	364.316	390.086	60.912	104.933	306.396	83.335	99.517	61.642	94.934	335.933	0.00041555	0.0004202	0.00016501	1345.8	5.0716e-06	4.8609e-06	1350.3	363.49	4.5318e-06	3.6881e-06	415.56	138.29	120.04	41.296	4.7475e-06	51.452	0.00052251	0.00053965	0.00015948	1369.5	6.0615e-06	5.7495e-06	1368	371.89	5.8559e-06	6.1564e-06	425.07	142.37	123.58	42.596	5.7695e-06	52.935	209.871	125.436	132.326	61.280	219.768	223.541	61.527	66.147	227.154	217.012	65.317	70.222	70.779	74.802	222.096	74.134	-8191	255	
758.690	1	1	0	0	0.080472	0.13329	0.16739	0.11464	0.11138	0.06673	0.24621	0.19505	0.24309	0.098879	0.38395	0.18476	0.204	0.14152	0.1516	0.20095	-2.3458	-3.2021	-2.6208	-3.1875	-3.1688	-2.5646	-3.2625	-3.0563	-2.6854	-3.2333	-2.7938	-3.0417	-3.2812	-2.4854	-3.1792	-3.0208	364.400	233.586	159.095	347.217	299.126	102.328	311.528	290.433	116.542	323.102	223.360	91.513	71.787	69.219	317.142	352.689	0.00040767	0.00054561	0.00014821	1342.6	5.3524e-06	4.5927e-06	1346.3	361.84	4.9979e-06	4.7797e-06	415.29	138.46	120.04	41.343	6.0188e-06	51.12	0.00052139	0.00054623	0.00015604	1367.7	5.9021e-06	6.0489e-06	1368.6	370.86	6.0144e-06	5.5452e-06	424.79	142.4	123.71	42.715	5.9216e-06	52.874	213.961	112.479	136.851	61.408	226.736	192.282	61.628	66.426	225.014	194.282	65.786	70.470	70.622	74.785	218.539	73.921	-8191	255	
758.786	1	1	0	0	0.10549	0.16368	0.1479	0.23321	0.19782	0.24981	0.20665	0.17305	0.13199	0.12233	0.22508	0.044783	0.19514	0.21906	0.071108	0.14467	-2.2104	-3.0083	-2.6937	-2.9854	-3.1	-2.5542	-3.175	-3.1417	-2.5729	-3.3333	-2.9146	-2.7417	-3.3354	-2.6562	-3.0458	-3.0979	370.550	287.300	88.254	375.266	311.843	177.105	400.735	183.201	340.437	223.070	375.860	321.470	314.306	82.932	184.341	322.001	0.00039041	0.0005849	0.00013305	1348	4.5195e-06	6.4009e-06	1346.6	363.41	4.1719e-06	4.4962e-06	414.93	138.29	120.06	41.213	4.7551e-06	51.325	0.00051604	0.00054404	0.00015347	1368.9	5.9891e-06	6.0061e-06	1369	371.91	6.2526e-06	5.8301e-06	424.52	142.38	123.71	42.666	5.9537e-06	52.903	213.741	132.974	147.695	61.318	200.914	193.693	61.403	66.316	227.734	211.663	65.762	70.320	70.539	74.677	235.499	74.011	-8191	255	
758.882	1	1	0	0	0.13463	0.12361	0.10731	0.13648	0.098752	0.32785	0.15527	0.23075	0.13091	0.25126	0.26593	0.11134	0.22191	0.26718	0.14047	0.042095	-2.2562	-3.0687	-2.6625	-2.8417	-3.1292	-2.35	-3.1146	-3.1167	-2.3812	-2.9854	-2.925	-2.6125	-3.1896	-2.7771	-2.8583	-3.2292	131.152	97.347	206.161	76.474	210.912	206.954	379.117	387.082	398.289	323.691	276.358	53.518	76.695	394.534	125.080	249.016	0.00038632	0.0005488	0.00016117	1341.9	7.2928e-06	6.1401e-06	1342.5	363.09	3.9948e-06	3.3735e-06	416.55	138.8	120.5	41.407	4.7813e-06	51.522	0.00052269	0.00054511	0.00015363	1367.1	6.1087e-06	6.179e-06	1366.4	372.02	6.105e-06	5.9693e-06	425.77	142.46	123.87	42.778	5.8551e-06	52.949	209.209	146.606	125.819	61.400	206.977	197.694	61.477	66.441	218.530	203.504	65.634	70.031	70.809	74.768	207.078	74.036	-8191	255	
758.978	1	1	0	0	0.12911	0.23067	0.094196	0.24717	0.17858	0.22429	0.25508	0.38202	0.23006	0.026181	0.18623	0.13515	0.075814	0.091637	0.12599	0.20687	-2.2062	-3.0625	-2.7167	-2.7896	-3.1208	-2.7875	-2.8729	-3.4667	-2.3875	-3.0687	-3	-2.7792	-3.4062	-2.7604	-2.8708	-3.3479	221.002	347.853	142.048	340.658	387.184	336.798	331.449	402.682	83.642	214.784	395.938	322.683	84.223	379.319	249.807	194.751	0.00040015	0.00055664	0.00016303	1347.2	4.693e-06	6.2541e-06	1347	365.32	4.5169e-06	2.9849e-06	415.35	138.48	120.89	41.557	4.2887e-06	51.849	0.00052788	0.00055367	0.0001554	1370	5.848e-06	6.0694e-06	1366.3	372.71	6.0525e-06	6.0167e-06	424.63	142.23	123.84	42.759	6.1351e-06	52.952	214.286	134.008	130.888	61.122	217.462	194.301	61.160	66.161	210.374	183.067	65.564	70.055	70.525	74.919	225.860	73.737	-8191	255	
759.099	1	1	0	0	0.1819	0.19329	0.03214	0.21379	0.012315	0.08057	0.075794	0.17018	0.25536	0.059422	0.057267	0.16412	0.19339	0.15941	0.27417	0.27861	-2.4437	-2.8271	-2.9521	-2.5312	-3.2458	-2.8458	-2.9083	-3.3917	-2.45	-3.0333	-3.0458	-2.6063	-3.2021	-2.8646	-2.6104	-3.3417	244.557	112.543	94.586	406.954	58.688	184.489	162.217	164.942	302.389	307.312	302.730	306.734	326.431	344.768	372.749	337.054	0.00040058	0.00059416	0.00017287	1346.4	5.9989e-06	3.9217e-06	1345.6	364.08	4.3671e-06	5.5697e-06	417.11	139.37	120.97	41.451	4.9483e-06	51.382	0.00052055	0.00054982	0.00014669	1368.2	5.8134e-06	5.9989e-06	1366.9	371.89	6.0406e-06	5.8332e-06	425.43	142.46	123.95	42.626	6.0883e-06	52.934	211.747	120.736	140.309	61.198	215.492	213.865	61.067	66.170	231.925	191.537	65.329	70.165	70.596	74.643	218.424	74.115	-8191	255	
759.171	1	1	0	0	0.16758	0.25047	0.23138	0.16445	0.23092	0.06987	0.076608	0.1887	0.076777	0.10253	0.29668	0.20511	0.16351	0.20522	0.099004	0.11142	-2.225	-2.9938	-3.0979	-2.7583	-3.0812	-2.8146	-2.7604	-3.2771	-2.6708	-2.6646	-3.175	-2.3875	-2.9813	-3.15	-2.5687	-3.2104	214.400	366.458	210.337	378.363	399.554	257.546	269.016	285.787	132.433	351.628	136.726	325.347	319.152	51.019	233.675	365.599	0.00040903	0.00043629	0.00015413	1346.6	3.8e-06	4.743e-06	1350.6	364.34	4.4284e-06	7.4068e-06	418.84	138.71	120.52	41.331	5.3092e-06	51.478	0.00052088	0.00055539	0.00015549	1367.4	6.0636e-06	6.0573e-06	1368.8	372.03	6.2511e-06	6.2087e-06	426.41	142.39	123.71	42.736	6.1787e-06	52.925	216.509	130.641	136.980	61.039	219.360	191.402	60.734	66.143	225.946	199.377	65.259	70.284	70.690	74.898	220.512	73.986	-8191	255	
759.291	1	1	0	0	0.16446	0.041062	0.12681	0.20809	0.20197	0.11104	0.10322	0.11514	0.10794	0.11855	0.18599	0.15827	0.20526	0.21132	0.19071	0.30176	-2.1333	-2.7812	-3.1625	-2.7333	-3.1937	-2.9646	-2.6896	-3.2687	-2.7479	-2.7729	-3.1437	-2.7458	-3.0521	-3.1583	-2.5583	-3.2188	342.125	141.876	106.337	311.680	167.583	250.568	379.944	108.801	253.383	56.638	60.175	345.282	379.221	52.520	155.810	394.963	0.00039635	0.00046954	0.0001946	1348.7	5.5598e-06	5.4527e-06	1342.4	364.37	5.0636e-06	5.1896e-06	415.63	138.54	119.63	41.327	4.9932e-06	51.601	0.00051737	0.00054131	0.00015526	1368.3	5.7447e-06	5.7212e-06	1364.8	372.4	5.6593e-06	6.134e-06	425.08	142.28	123.53	42.677	6.2387e-06	52.921	212.568	140.874	139.256	61.288	209.897	201.453	61.377	66.547	230.610	181.495	65.459	70.400	70.656	75.073	227.204	74.307	-8191	255	
759.386	1	1	0	0	0.12837	0.178	0.089364	0.52457	0.25828	0.086565	0.29584	0.017469	0.22529	0.19414	0.31962	0.16752	0.098137	0.23795	0.11241	0.060368	-2.3917	-2.5417	-3.2313	-2.7938	-2.8937	-2.9521	-2.7542	-3.2833	-2.9229	-2.5417	-3.4188	-2.5708	-3.1396	-3.2562	-2.575	-3.2375	262.694	367.727	378.316	404.447	369.451	190.904	402.810	343.772	206.196	250.306	56.266	86.895	57.549	88.401	159.683	299.214	0.00040112	0.00057796	0.00019187	1345.2	6.7996e-06	3.4185e-06	1347.7	363.25	4.1604e-06	5.0809e-06	416.3	138.42	119.95	41.444	4.8693e-06	51.493	0.00051416	0.00056052	0.0001551	1367.6	5.965e-06	6.0959e-06	1368.9	371.67	5.9449e-06	6.0987e-06	425.16	142.21	123.5	42.753	5.9128e-06	52.95	211.333	129.470	134.692	61.340	217.187	207.526	61.204	66.122	241.424	189.146	65.603	70.414	70.491	74.894	227.624	74.197	-8191	255	
759.482	1	1	0	0	0.045825	0.075702	0.31729	0.025237	0.10818	0.26362	0.086608	0.21465	0.12553	0.091587	0.099702	0.075273	0.28173	0.17749	0.29311	0.27606	-2.55	-2.6854	-3.1833	-2.9375	-2.7854	-2.9833	-2.7562	-3.0458	-2.7792	-2.675	-3.2125	-2.8854	-2.7375	-3.1437	-2.6542	-3.0687	142.537	244.832	305.902	119.709	374.848	168.702	394.398	373.089	364.136	275.211	381.921	137.608	55.735	49.721	313.929	378.417	0.00037601	0.00039349	0.00017066	1337.9	5.7252e-06	4.8069e-06	1339.8	360.43	3.8669e-06	5.1864e-06	414.67	138.07	120.24	41.495	5.9853e-06	51.599	0.00050197	0.00055763	0.00013951	1365.2	5.9194e-06	6.1266e-06	1367.4	371.63	5.8688e-06	6.4037e-06	424.92	142.25	123.55	42.727	6.261e-06	53.016	211.350	116.043	125.700	61.527	226.652	195.448	61.610	66.596	223.729	207.077	65.833	70.567	70.620	74.969	213.827	74.208	-8191	255	
759.578	1	1	0	0	0.20489	0.078933	0.05318	0.051911	0.26359	0.12719	0.26585	0.16412	0.12021	0.079449	0.11478	0.2355	0.070552	0.12635	0.16973	0.2719	-2.6979	-2.575	-3.0792	-2.8104	-2.6875	-3.4313	-2.6792	-3.0479	-3.0417	-2.5812	-3.1771	-2.8187	-2.7958	-3.35	-2.5187	-3.0521	202.729	65.560	322.515	179.139	223.657	175.305	357.510	343.617	275.719	398.592	304.267	404.302	91.009	348.129	204.786	351.325	0.00040646	0.00064106	0.00015185	1342.4	5.5168e-06	4.8836e-06	1343.2	363.46	4.7345e-06	5.6571e-06	413.61	138.57	119.7	41.317	4.5089e-06	51.282	0.00052208	0.00056759	0.0001491	1366.8	6.0641e-06	5.7977e-06	1366.2	371.58	5.9084e-06	6.1109e-06	425.33	142.15	123.41	42.723	5.8366e-06	52.892	213.337	136.943	121.443	61.394	206.522	185.143	61.361	65.934	232.349	207.909	65.688	70.658	70.809	75.226	227.835	74.417	-8191	255	
759.699	1	1	0	0	0.32819	0.12372	0.20699	0.14645	0.10888	0.11583	0.23362	0.20982	0.21982	0.36355	0.047039	0.038714	0.10893	0.2111	0.15326	0.28408	-2.5979	-2.7229	-2.9042	-3.0167	-2.3583	-3.2917	-2.7604	-3.0563	-3.1354	-2.6708	-3.2229	-3.0771	-2.7667	-3.4229	-2.6437	-2.925	311.677	185.678	210.816	391.783	98.531	219.917	365.819	346.706	162.109	216.338	72.593	323.805	126.205	366.031	108.821	352.828	0.00040211	0.00050863	0.00012858	1337.9	5.4877e-06	3.2723e-06	1342.6	362.48	3.6794e-06	4.4868e-06	416.48	137.84	119.49	41.24	3.0091e-06	51.327	0.00052378	0.00054752	0.00015302	1365.9	6.2708e-06	5.8646e-06	1366.5	371.83	5.9212e-06	6.264e-06	425.72	142.27	123.37	42.661	6.0349e-06	52.91	210.848	126.460	115.037	61.566	208.019	197.518	61.420	66.334	221.661	214.671	65.731	70.678	70.898	75.232	213.682	74.201	-8191	255	
759.795	1	1	0	0	0.17161	0.091821	0.15889	0.29078	0.28121	0.087144	0.53946	0.34418	0.12698	0.16822	0.28602	0.36808	0.070424	0.14511	0.082917	0.20175	-2.7792	-2.3625	-2.9417	-3.0208	-2.6937	-3.2271	-2.8875	-2.6708	-3.1437	-2.7167	-3.1583	-3.125	-2.7521	-3.1896	-2.6896	-2.7896	142.501	356.924	315.836	403.757	206.460	65.028	370.741	401.131	130.439	191.018	352.365	53.528	156.841	403.352	298.059	363.258	0.00041499	0.00050164	0.00018829	1339.2	6.2785e-06	4.5938e-06	1343.2	362.29	5.2392e-06	5.6531e-06	413.64	138.34	119.67	41.395	5.1632e-06	51.287	0.00052376	0.00056523	0.00015079	1365.4	5.9603e-06	5.77e-06	1364.9	371.3	5.8024e-06	6.0264e-06	424.74	142.41	123.35	42.708	6.145e-06	52.812	213.983	152.554	142.745	61.548	222.471	181.489	61.630	66.162	224.289	193.757	65.459	70.383	70.609	75.123	229.140	74.044	-8191	255	
759.867	1	1	0	0	0.073683	0.15691	0.12466	0.24709	0.11677	0.27472	0.16833	0.2805	0.022801	0.15189	0.27816	0.257	0.074697	0.22955	0.32076	0.080853	-2.8625	-2.4271	-3.075	-3.2375	-2.6104	-3.2083	-3.1354	-2.5354	-3.3438	-2.5104	-3.0542	-3.2375	-2.7396	-3.3167	-2.7687	-2.8125	242.550	255.401	281.381	343.085	321.258	262.234	367.299	363.481	324.257	288.247	396.474	370.861	245.515	374.916	195.622	70.342	0.00039809	0.00063467	0.00013902	1344.4	5.3993e-06	4.9888e-06	1341.5	361.38	4.15e-06	2.6089e-06	416.49	137.83	120.02	41.447	4.4604e-06	51.306	0.00052027	0.00055929	0.00014929	1367.7	6.0258e-06	5.7248e-06	1364.8	370.69	5.9948e-06	6.2822e-06	425.15	142.14	123.55	42.748	5.9276e-06	52.939	210.841	132.908	136.549	61.567	218.564	177.170	61.586	66.330	221.811	193.664	65.687	70.516	70.802	74.759	217.615	74.139	-8191	255	
759.987	1	1	0	0	0.02035	0.096902	0.25834	0.099841	0.31384	0.18687	0.18093	0.29184	0.14053	0.14359	0.15458	0.37021	0.26407	0.10235	0.36665	0.16208	-2.9417	-2.5771	-2.8333	-3.3312	-2.5729	-3.0042	-3.3354	-2.7438	-3.2771	-2.6396	-2.7229	-3.125	-2.6146	-3.225	-3.1375	-2.6188	130.183	203.317	294.116	165.747	101.897	407.769	369.572	331.888	53.207	285.006	343.383	395.612	336.060	386.831	309.668	273.804	0.00040046	0.00046099	0.00017536	1341.7	6.7919e-06	4.5749e-06	1342.4	361.74	5.0964e-06	6.2368e-06	414.69	138.27	120.3	41.374	5.9729e-06	51.403	0.000511	0.00054163	0.00015423	1366.6	6.0898e-06	5.7838e-06	1364.1	371.27	5.8513e-06	6.0635e-06	425.09	142.23	123.58	42.649	5.8769e-06	52.884	213.014	123.339	140.605	61.434	199.255	205.335	61.560	66.297	231.561	197.640	65.590	70.405	70.455	74.940	204.600	73.992	-8191	255	
760.083	1	1	0	0	0.25333	0.3387	0.031866	0.085829	0.18405	0.20931	0.20325	0.22377	0.29622	0.13121	0.2099	0.061456	0.31826	0.07982	0.11099	0.28248	-2.95	-2.6521	-2.6604	-3.3375	-2.5229	-3.125	-3.2979	-2.8604	-3	-2.9813	-2.6813	-3.4062	-2.5938	-3.1937	-3.1396	-2.6458	250.324	100.279	362.591	303.438	231.927	136.424	389.520	341.902	125.202	165.483	388.111	320.180	398.177	293.969	198.883	363.364	0.00037813	0.0004214	0.00016816	1342.7	5.8391e-06	5.0538e-06	1341.3	361.81	5.8769e-06	4.1841e-06	416.81	139.22	120.39	41.548	4.8389e-06	51.917	0.00050612	0.00055453	0.00014979	1367.7	6.2115e-06	5.8646e-06	1366.5	371.38	5.8019e-06	5.7633e-06	425.05	142.56	123.59	42.711	5.8736e-06	52.96	212.825	121.040	111.833	61.196	214.172	210.059	61.770	66.216	231.002	187.021	65.435	70.010	70.543	74.846	217.577	73.680	-8191	255	
760.179	1	1	0	0	0.048537	0.21289	0.15305	0.07886	0.14944	0.14163	0.10362	0.15509	0.055978	0.21111	0.095224	0.15132	0.29065	0.11217	0.13217	0.12259	-2.9479	-2.7917	-2.8	-3.3625	-2.55	-2.7167	-3.3854	-2.6688	-2.975	-2.9979	-2.7188	-3.3187	-2.6354	-2.7896	-3.2375	-2.6354	389.608	63.063	204.921	341.319	396.814	228.615	73.625	132.434	160.596	141.748	272.266	335.243	355.009	356.840	51.234	335.684	0.00037147	0.00046158	0.00015062	1348.9	4.6696e-06	3.1689e-06	1347	364.89	4.7428e-06	4.609e-06	413.64	138.74	120.22	41.362	4.8308e-06	51.614	0.00050446	0.00052563	0.00015475	1369.8	5.9786e-06	6.0603e-06	1367.8	371.93	5.6712e-06	5.7086e-06	424.21	142.44	123.53	42.694	5.8649e-06	52.934	212.383	149.079	134.977	61.088	194.901	243.656	61.384	66.106	233.889	187.654	65.198	70.400	70.424	74.723	208.358	74.239	-8191	255	
760.274	1	1	0	0	0.13537	0.15826	0.18402	0.10485	0.093044	0.06239	0.094439	0.1782	0.032387	0.061944	0.17354	0.17695	0.080919	0.08574	0.11293	0.17679	-2.7562	-2.8688	-2.6312	-3.2417	-2.8063	-2.7458	-3.2458	-2.6333	-2.8333	-3.1792	-2.7875	-3.3563	-2.8583	-2.9208	-3.0896	-2.8063	221.890	289.538	136.104	124.773	118.308	156.319	338.020	386.826	329.047	400.337	296.255	77.342	356.719	55.692	114.362	394.182	0.00037184	0.00053979	0.00012203	1346.1	5.7103e-06	4.4986e-06	1353.1	363.13	2.9729e-06	3.7489e-06	415.97	138.88	120.49	41.324	6.5709e-06	51.681	0.00049975	0.00057021	0.0001478	1367.3	5.9267e-06	6.1531e-06	1367.2	371.74	5.6943e-06	5.8836e-06	424.6	142.31	123.76	42.696	6.109e-06	52.895	211.952	143.697	138.996	61.241	226.049	199.022	61.378	66.010	259.718	194.410	65.267	70.388	70.597	74.612	208.760	73.831	-8191	255	
760.395	1	1	0	0	0.11769	0.11717	0.18336	0.24033	0.1213	0.16429	0.086839	0.29564	0.12324	0.19049	0.082573	0.22475	0.23472	0.1034	0.040724	0.047148	-2.5625	-3.0521	-2.4958	-3.3875	-2.6479	-2.8042	-3.2583	-2.6	-2.8833	-3.225	-2.5708	-3.1604	-3.0479	-2.5521	-3.1083	-2.6542	195.384	87.990	132.326	53.218	174.603	312.510	377.245	52.910	113.325	328.338	358.850	54.004	100.986	109.012	360.072	108.392	0.00040079	0.00041299	0.00011269	1348.3	6.2443e-06	4.7483e-06	1353.9	364.85	4.545e-06	5.7449e-06	416.2	139.26	120.46	41.576	4.7825e-06	51.689	0.00052236	0.00053376	0.00015291	1367	5.8968e-06	5.8748e-06	1367.2	371.79	5.841e-06	5.9061e-06	424.35	142.44	123.68	42.76	5.806e-06	53.008	211.426	145.783	144.122	61.058	204.100	201.753	61.345	66.189	222.873	205.406	65.207	70.072	70.612	74.496	240.643	73.633	-8191	255	
760.466	1	1	0	0	0.04257	0.18077	0.17027	0.14182	0.07779	0.20503	0.25041	0.40651	0.21267	0.15382	0.17792	0.14297	0.13812	0.16603	0.11331	0.12941	-2.5708	-2.9813	-2.5396	-3.3396	-2.9292	-2.8	-3.5687	-2.7146	-2.7396	-3.525	-2.7229	-3.3187	-3.3458	-2.7562	-3.2208	-2.7771	389.412	312.995	179.899	224.738	364.615	333.138	337.324	369.821	107.935	136.354	363.834	389.555	191.748	102.270	156.325	337.198	0.00037795	0.00075957	0.00018544	1348.4	7.1642e-06	3.937e-06	1352.7	361.85	4.6315e-06	5.5192e-06	414.48	138.62	120.46	41.43	5.6112e-06	51.498	0.00051194	0.00055009	0.00016209	1366	5.9687e-06	6.1495e-06	1368.8	371.4	5.8945e-06	5.8472e-06	424.1	142.27	123.75	42.657	5.7875e-06	52.858	210.273	142.772	140.042	61.320	212.510	164.636	61.367	66.141	232.563	196.300	65.242	70.169	70.679	74.625	227.123	74.176	-8191	255	
760.562	1	1	0	0	0.099617	0.12622	0.24836	0.35328	0.061351	0.20696	0.34732	0.13954	0.1838	0.24839	0.11899	0.32023	0.32982	0.14467	0.26154	0.10991	-2.3521	-3.1917	-2.4062	-3.1417	-3.1104	-2.5812	-3.45	-2.8292	-2.8604	-3.2229	-2.6708	-3.0604	-3.2479	-2.6917	-2.9792	-2.9646	83.788	265.439	382.412	322.381	171.939	351.367	359.306	51.034	103.788	304.196	65.379	89.219	307.750	274.881	222.520	279.785	0.00040944	0.00051693	0.00015952	1331.7	6.0698e-06	3.5016e-06	1345.5	360.19	4.6086e-06	3.9532e-06	411.69	137.33	119.28	41.032	4.6381e-06	51.053	0.00051841	0.0005457	0.00015233	1363.9	5.8653e-06	5.9405e-06	1365.2	370.68	5.8893e-06	5.8684e-06	423.5	141.99	123.12	42.577	5.9063e-06	52.767	214.044	127.797	148.716	61.616	230.285	164.207	61.695	66.518	217.305	205.553	66.096	70.694	71.198	75.070	223.159	74.609	-8191	255	
760.658	1	1	0	0	0.07548	0.23921	0.2628	0.090264	0.12578	0.096365	0.44797	0.22012	0.2732	0.091668	0.042134	0.14696	0.11667	0.14798	0.12223	0.22161	-2.1083	-3.075	-2.5083	-3.1188	-3.2313	-2.6667	-3.15	-3.1958	-2.6042	-3.1833	-2.6	-2.9396	-3.1813	-2.7188	-3	-2.9646	227.244	151.964	372.818	166.318	253.717	77.461	269.230	301.314	376.866	140.862	299.293	371.943	51.897	390.641	127.874	349.443	0.00040991	0.00057689	0.00017049	1336.7	6.6892e-06	5.3271e-06	1341.1	361.08	4.5688e-06	5.728e-06	414.23	138.67	120.15	41.356	5.3671e-06	51.591	0.00052493	0.00053451	0.00014971	1364.3	5.7442e-06	5.9242e-06	1364.5	370.68	5.7952e-06	5.9219e-06	424.4	142.05	123.51	42.657	5.8763e-06	52.861	210.202	130.661	121.670	61.550	220.136	189.238	61.538	66.378	226.576	184.646	65.681	70.276	70.556	74.622	230.333	74.235	-8191	255	
760.779	1	1	0	0	0.092675	0.30783	0.18649	0.30717	0.30454	0.12739	0.47933	0.097997	0.097145	0.093982	0.02628	0.11522	0.028902	0.094682	0.02751	0.17174	-2.4125	-2.9833	-2.5542	-2.8792	-3.0854	-2.5542	-3.3438	-3.0458	-2.5021	-3.2229	-2.9104	-2.775	-3.3292	-2.625	-3.0979	-2.8833	361.927	336.686	363.439	402.538	163.046	75.554	376.121	332.282	340.635	321.152	125.869	393.463	98.962	98.427	376.007	369.241	0.00040885	0.00052597	0.00016852	1343.6	6.199e-06	3.0199e-06	1346.7	362.9	4.2184e-06	5.7327e-06	414.92	138.79	119.99	41.46	4.6989e-06	51.396	0.00051693	0.00051129	0.00015342	1364.8	5.8643e-06	6.0838e-06	1365	371.41	5.8276e-06	6.151e-06	424.77	142.02	123.6	42.698	5.9771e-06	52.846	214.128	137.068	128.706	61.251	214.385	192.277	61.362	66.431	222.455	198.849	65.771	70.097	70.561	74.960	213.371	74.180	-8191	255	
760.875	1	1	0	0	0.12523	0.056017	0.088694	0.11142	0.16082	0.18878	0.35668	0.27541	0.27916	0.19305	0.041374	0.115	0.076672	0.31041	0.24843	0.15258	-2.1167	-3.2083	-2.7271	-2.8604	-3.1708	-2.5646	-3.1875	-3.2	-2.6729	-3.1188	-2.8833	-2.7146	-3.2625	-2.5667	-2.8958	-3.1792	365.410	173.687	302.362	238.369	151.206	195.080	328.364	396.125	402.205	184.940	289.496	292.402	373.015	354.304	287.788	333.066	0.00039192	0.00056435	0.00015181	1345.5	6.3196e-06	3.8228e-06	1345.1	363.32	3.0575e-06	4.3383e-06	415.18	137.8	120.13	41.403	4.6327e-06	51.136	0.00051584	0.00053462	0.00015181	1366.5	5.8722e-06	5.8652e-06	1365.1	371.41	5.7092e-06	5.6345e-06	424.17	141.84	123.44	42.667	5.9259e-06	52.762	211.803	122.484	115.721	61.090	207.141	202.342	61.281	66.407	228.149	203.316	65.525	70.256	70.632	74.955	226.087	74.237	-8191	255	
760.971	1	1	0	0	0.17745	0.20591	0.18899	0.4303	0.11931	0.29332	0.36048	0.12399	0.12598	0.24483	0.11146	0.11372	0.22807	0.16953	0.1214	0.40094	-2.0542	-2.9042	-2.8792	-2.5583	-3.1375	-2.5854	-3.1333	-3.2542	-2.7271	-3.2938	-3.2271	-2.6896	-3.2479	-2.7896	-2.675	-3.1083	317.942	202.583	157.090	395.872	248.113	241.821	395.433	132.970	54.378	127.727	307.104	214.099	62.615	391.064	78.102	318.490	0.00042143	0.00073181	0.00015264	1337	5.9369e-06	5.0636e-06	1341.7	360.05	5.6644e-06	4.3349e-06	414.24	137.32	119	41.163	4.1687e-06	51.215	0.00051945	0.00055881	0.00014385	1364.4	5.9419e-06	5.8549e-06	1363.2	370.3	5.806e-06	5.787e-06	424.44	141.79	123.22	42.58	5.9063e-06	52.798	213.207	139.173	131.386	61.379	208.308	197.984	61.344	66.520	231.980	195.238	66.085	70.549	71.122	75.487	230.904	74.245	-8191	255	
761.068	1	1	0	0	0.051593	0.03009	0.18354	0.11117	0.084712	0.17104	0.17989	0.42392	0.084207	0.1934	0.13389	0.40501	0.17314	0.14723	0.31882	0.11261	-2.1979	-2.8438	-3.0542	-2.5563	-3.1396	-2.7333	-2.8354	-3.3208	-2.5938	-3.1125	-3.0021	-2.575	-3.2979	-2.875	-2.6354	-3.2146	274.512	211.556	183.048	51.161	216.360	402.271	356.190	339.893	99.912	104.452	345.046	70.757	48.799	61.012	387.295	89.931	0.00039942	0.000491	0.00010775	1334	5.0802e-06	5.659e-06	1338.7	360.72	4.5462e-06	5.5227e-06	411.94	137.66	119.56	41.238	4.4739e-06	51.572	0.00051721	0.00052643	0.00014166	1363.1	5.8318e-06	5.8435e-06	1364	370.44	5.9176e-06	5.79e-06	423.63	141.94	123.36	42.641	5.89e-06	52.926	213.057	123.860	121.831	61.537	205.256	196.989	61.509	66.630	213.085	214.861	65.821	70.795	70.825	75.200	226.806	73.961	-8191	255	
761.164	1	1	0	0	0.49054	0.12811	0.18103	0.21374	0.16957	0.28153	0.34628	0.31271	0.081613	0.1296	0.13804	0.21531	0.15226	0.21627	0.078749	0.23578	-2.1833	-3.1562	-3.0563	-2.6771	-2.9396	-2.925	-2.8708	-3.4354	-2.7208	-3.0375	-3.1458	-2.6229	-3.3104	-2.8771	-2.4958	-3.175	365.116	266.338	224.476	303.280	352.615	205.536	348.336	69.540	320.657	134.235	405.405	313.879	391.682	373.971	351.150	273.872	0.00038776	0.00044535	0.0001306	1341.6	4.8083e-06	6.2602e-06	1338.2	361.87	5.7935e-06	4.0139e-06	414.84	137.84	119.82	41.062	4.3163e-06	51.139	0.00052248	0.00054131	0.00014805	1365.2	5.9519e-06	5.9537e-06	1363.5	371.11	6.0252e-06	6.1479e-06	424.77	142.01	123.35	42.567	6.182e-06	52.809	211.147	127.568	146.240	61.374	208.112	177.837	61.496	66.301	231.192	192.213	65.836	70.331	70.959	75.093	204.286	74.472	-8191	255	
761.260	1	1	0	0	0.22051	0.16153	0.1745	0.15915	0.021615	0.055862	0.47383	0.12111	0.33985	0.12311	0.19564	0.18633	0.1463	0.1265	0.15409	0.22926	-2.2042	-2.8937	-3.0667	-2.7938	-3.0938	-3.1875	-2.7812	-3.2062	-2.7542	-2.7812	-3.3792	-2.6229	-3.125	-3.1667	-2.4896	-3.2208	223.068	130.587	92.127	315.174	102.363	344.965	323.658	341.387	391.867	88.511	388.912	382.514	254.342	280.495	271.753	56.166	0.00041355	0.00048337	0.00015212	1345.1	5.5259e-06	5.2815e-06	1337.2	361.17	4.3646e-06	2.9582e-06	413.28	137.38	119.01	41.087	3.9643e-06	51.393	0.00052406	0.00053874	0.00015024	1365.4	6.0227e-06	5.8615e-06	1363.5	370.59	5.7622e-06	5.9201e-06	424.02	141.82	123.14	42.63	5.975e-06	52.819	212.827	137.706	123.168	61.287	212.102	183.627	61.509	66.571	221.163	196.562	65.925	70.768	70.853	75.153	219.181	74.326	-8191	255	
761.379	1	1	0	0	0.28546	0.14271	0.18907	0.089023	0.050843	0.23234	0.15642	0.11179	0.12236	0.14637	0.1434	0.18191	0.092603	0.24816	0.07011	0.04722	-2.3312	-2.6979	-3.0667	-2.7729	-3.0021	-3.2667	-2.6167	-3.275	-2.6875	-3.0167	-3.2854	-2.7958	-2.9896	-3.3417	-2.3563	-3.2729	278.430	142.506	103.177	71.816	197.837	59.765	295.430	388.160	164.143	369.433	296.108	267.941	115.958	334.239	381.279	106.304	0.00039303	0.00052082	0.00017347	1335.7	5.3092e-06	5.3939e-06	1340.6	362.55	4.5253e-06	3.2155e-06	413.93	138.11	119.65	41.368	4.0327e-06	51.282	0.00051398	0.00056898	0.00015326	1364.8	6.1979e-06	5.9844e-06	1364.1	371.44	5.8204e-06	6.2294e-06	424.81	141.94	123.44	42.646	6.3095e-06	52.742	212.447	124.398	129.732	61.597	215.281	203.320	61.475	66.512	231.889	204.442	65.733	70.537	70.824	74.998	209.888	74.281	-8191	255	
761.475	1	1	0	0	0.21229	0.27575	0.37122	0.15191	0.19644	0.10741	0.19199	0.15442	0.20449	0.10192	0.14924	0.15651	0.10355	0.2735	0.17738	0.056175	-2.4708	-2.6958	-3.4083	-2.7125	-3.0146	-3.0708	-2.775	-3.1854	-2.8271	-2.65	-3.15	-2.7562	-2.7833	-3.1021	-2.5229	-3.2229	169.909	120.369	204.421	319.227	154.566	363.877	371.951	364.294	203.692	124.342	294.948	278.176	72.622	52.298	134.637	140.379	0.00040626	0.00053493	0.00012206	1340.5	7.2428e-06	4.0704e-06	1337.9	360.27	4.4684e-06	5.4784e-06	413.45	136.85	119.5	41.394	6.0369e-06	51.498	0.00052908	0.00055827	0.00016013	1366.9	6.0647e-06	5.779e-06	1364.7	370.94	5.9218e-06	6.2178e-06	423.89	141.86	123.26	42.658	6.2452e-06	52.866	210.812	132.896	134.398	61.614	218.966	208.464	61.784	66.812	226.468	197.007	65.903	70.860	71.043	75.139	215.988	73.953	-8191	255	
761.571	1	1	0	0	0.092322	0.10729	0.12692	0.15214	0.16694	0.24938	0.1369	0.066502	0.063624	0.03887	0.14922	0.26365	0.1725	0.16736	0.22952	0.065448	-2.6375	-2.6646	-3.1188	-2.8187	-2.9125	-3.1896	-2.6854	-3.2938	-2.8021	-2.6083	-3.3229	-2.8917	-2.8833	-3.2583	-2.5187	-3.1208	61.806	372.951	312.209	373.295	112.356	172.018	336.728	401.382	279.959	368.940	335.202	70.679	375.410	339.906	227.700	271.684	0.00038428	0.00041898	0.00012789	1346.9	6.7446e-06	5.559e-06	1347.7	364.31	5.3498e-06	6.3399e-06	418.17	138.01	120.32	41.436	3.5978e-06	51.465	0.00051602	0.00057454	0.00015393	1367	6.0416e-06	6.0387e-06	1365	372.24	6.211e-06	6.3448e-06	425.81	142.1	123.45	42.709	6.1711e-06	52.751	209.180	121.661	141.882	61.072	212.144	191.199	61.151	65.929	214.850	208.873	65.399	70.200	70.239	74.871	219.867	74.052	-8191	255	
761.692	1	1	0	0	0.21725	0.33446	0.16013	0.060345	0.094641	0.056979	0.20082	0.35237	0.086323	0.2776	0.4577	0.1832	0.065366	0.17767	0.013613	0.20698	-2.7771	-2.5667	-3.0563	-2.8688	-2.575	-3.1542	-2.7646	-3.2333	-3.2021	-2.5042	-3.1437	-2.9979	-2.7208	-3.3812	-2.7687	-2.8042	311.379	259.237	186.844	385.748	132.717	316.963	330.216	367.761	229.659	156.154	327.263	90.188	301.101	164.370	360.864	366.386	0.00039332	0.000552	0.00011987	1345.2	7.9363e-06	3.8569e-06	1342	363.2	5.246e-06	5.7769e-06	417.12	138.48	120.32	41.427	4.9366e-06	51.328	0.00052134	0.00058482	0.00015505	1367.9	6.3856e-06	6.0188e-06	1366	371.27	6.0442e-06	6.3697e-06	425.89	142.25	123.43	42.649	6.3525e-06	52.78	210.459	126.861	141.807	61.254	221.421	191.871	61.292	66.252	220.295	190.589	65.482	70.262	70.464	74.676	188.482	74.159	-8191	255	
761.763	1	1	0	0	0.32024	0.39117	0.32169	0.37807	0.216	0.23012	0.13971	0.052599	0.21436	0.20618	0.17181	0.19601	0.086093	0.18699	0.30749	0.37606	-2.8229	-2.3146	-2.9917	-3.2333	-2.5583	-3.2917	-2.975	-2.7271	-3.2875	-2.6208	-3.1979	-2.9313	-2.5563	-3.3688	-2.8104	-2.7646	286.649	142.073	170.395	405.234	292.125	74.041	359.535	236.862	355.836	401.513	61.753	64.873	142.744	359.627	78.429	67.851	0.00041644	0.00054897	0.00015388	1346.7	5.5604e-06	4.9661e-06	1348.6	364.45	5.0823e-06	3.8853e-06	415.98	139.09	120.15	41.448	4.2661e-06	51.326	0.00053391	0.00056603	0.00015799	1367.3	6.1575e-06	6.1109e-06	1366	372.34	5.9238e-06	6.2853e-06	424.74	142.59	123.39	42.739	5.9984e-06	52.82	212.317	124.115	124.938	61.494	213.107	199.611	61.199	66.065	241.218	180.870	65.238	70.595	70.673	74.680	215.523	73.643	-8191	255	
761.859	1	1	0	0	0.18072	0.127	0.055646	0.072139	0.51047	0.24196	0.23657	0.10569	0.097705	0.12858	0.20097	0.051431	0.030362	0.12635	0.067233	0.14817	-2.5604	-2.6042	-2.6167	-3.0146	-2.4938	-3.2938	-3.075	-2.6208	-3.175	-2.2083	-2.9562	-3.2188	-2.6688	-3.1646	-2.8083	-2.7562	395.398	326.573	170.266	376.434	121.712	270.393	361.105	120.320	65.025	97.426	376.490	71.337	49.572	381.460	318.324	329.909	0.0004076	0.0006378	0.00015751	1341.2	6.7503e-06	4.9523e-06	1341.1	363.7	4.0184e-06	3.5715e-06	415.67	138.28	119.98	41.326	3.9765e-06	51.306	0.00052388	0.00058252	0.00015737	1367.9	6.2786e-06	5.8465e-06	1367.2	371.9	6.0417e-06	6.4754e-06	425.17	142.25	123.49	42.644	5.939e-06	52.873	211.622	132.790	125.473	61.401	202.543	206.626	61.379	66.393	215.731	194.762	65.293	70.586	70.759	74.700	222.323	73.997	-8191	255	
761.956	1	1	0	0	0.087387	0.057165	0.043105	0.24828	0.1465	0.080036	0.38484	0.17772	0.1693	0.065902	0.23216	0.14638	0.095918	0.14819	0.1874	0.16203	-2.6667	-2.5229	-2.5375	-3.3063	-2.6437	-2.9417	-3.1833	-2.6708	-3.0208	-2.5687	-2.9167	-3.2375	-2.6271	-3.0812	-2.8021	-2.575	53.037	184.608	164.821	366.513	224.513	75.796	337.820	329.140	259.890	341.931	248.075	297.902	347.579	323.511	206.508	408.058	0.00039578	0.00047603	0.00011249	1345.1	5.3902e-06	5.2864e-06	1349.4	362.84	3.7408e-06	3.6735e-06	414.18	139.05	120.23	41.478	4.6008e-06	51.27	0.00052241	0.00057133	0.00015073	1368.8	6.2314e-06	6.1411e-06	1367.3	371.51	5.7808e-06	6.2373e-06	424.57	142.54	123.36	42.666	6.1193e-06	52.825	212.574	129.200	153.400	61.390	225.308	199.994	61.593	66.165	226.930	228.141	65.540	70.487	70.365	74.686	224.847	74.059	-8191	255	
762.076	1	1	0	0	0.27945	0.088922	0.14549	0.18126	0.15803	0.037555	0.18346	0.20641	0.11888	0.066724	0.22991	0.2962	0.05319	0.066886	0.085057	0.13937	-2.7687	-2.8	-2.7479	-3.3208	-2.2792	-2.9875	-3.1458	-2.5917	-3.1104	-2.7771	-2.7479	-3.2979	-2.7938	-2.9938	-3.0917	-2.5125	264.786	188.656	174.492	50.177	194.349	377.421	322.540	339.098	141.082	168.390	277.221	381.440	364.293	344.768	58.852	327.213	0.00039995	0.00071146	0.00020337	1340.5	5.3985e-06	5.024e-06	1344.9	364.1	5.9021e-06	4.6801e-06	415.23	138.08	119.82	41.215	5.5208e-06	51.431	0.0005204	0.00056957	0.00015453	1365.6	6.029e-06	5.9706e-06	1367.2	371.68	5.9218e-06	6.3156e-06	424.97	142.14	123.23	42.643	5.933e-06	52.923	212.327	139.089	131.582	61.381	221.152	190.143	61.549	66.365	236.890	212.845	65.550	70.322	70.592	75.030	209.336	74.221	-8191	255	
762.172	1	1	0	0	0.11327	0.17852	0.19057	0.1911	0.090302	0.11499	0.1347	0.32202	0.06521	0.10277	0.19473	0.13863	0.25214	0.21521	0.18644	0.32646	-2.875	-2.6875	-2.5271	-3.3812	-2.5958	-2.9396	-3.1167	-2.8375	-3.0896	-2.8604	-2.9292	-3.0625	-2.6854	-2.7917	-2.9688	-2.6188	79.274	103.105	107.291	377.342	172.621	347.522	326.202	383.322	180.706	406.550	75.774	254.679	320.543	345.281	165.202	56.831	0.00038909	0.00052594	0.00011915	1343.7	4.6481e-06	4.5111e-06	1351.3	361.9	4.8488e-06	4.3356e-06	415.2	138.24	120.28	41.6	4.6273e-06	51.621	0.00052875	0.00055795	0.00015342	1366.1	5.9524e-06	5.9079e-06	1367.8	371.17	5.8765e-06	6.1413e-06	425.03	142.46	123.5	42.747	5.872e-06	52.919	207.523	142.392	131.580	61.441	196.717	203.216	61.465	66.261	236.124	204.154	65.422	70.003	70.570	74.597	223.231	73.718	-8191	255	
762.267	1	1	0	0	0.14684	0.052021	0.1169	0.34402	0.2128	0.18231	0.3604	0.23673	0.044637	0.38537	0.17944	0.22245	0.16104	0.3885	0.16303	0.27386	-2.8458	-3.0771	-2.3937	-3.4458	-2.6104	-2.8	-3.2062	-2.575	-2.9271	-3.0938	-2.5833	-3.275	-2.8583	-2.8104	-3.2729	-2.6021	336.317	408.107	400.733	392.830	370.932	116.414	389.934	286.464	235.741	187.127	69.307	357.140	62.560	360.788	99.596	381.633	0.00039236	0.00053643	0.00010691	1346.1	4.4819e-06	3.4341e-06	1350.2	363.24	4.2099e-06	4.6613e-06	415.17	138.44	120.25	41.517	5.18e-06	51.472	0.00050769	0.00054998	0.00015784	1368.7	6.3159e-06	6.1965e-06	1369.8	371.82	5.9212e-06	6.3132e-06	425.14	142.49	123.63	42.757	5.9096e-06	52.876	209.305	142.189	136.312	61.301	223.337	196.988	61.529	66.387	222.633	210.691	65.378	70.471	70.468	74.775	231.934	74.379	-8191	255	
762.340	1	1	0	0	0.054436	0.11687	0.21571	0.28288	0.098179	0.07452	0.3121	0.21011	0.39338	0.2648	0.24445	0.38056	0.23888	0.1402	0.24403	0.22512	-2.4708	-2.8604	-2.2979	-3.3021	-2.7042	-2.5667	-3.3896	-2.7188	-2.8792	-3.0771	-2.6896	-3.1729	-2.9729	-2.6896	-3.3125	-2.5333	296.236	69.761	282.703	407.305	311.336	277.405	344.027	360.795	205.666	215.092	54.840	350.423	370.864	320.227	155.744	53.215	0.00038421	0.00057938	0.0001949	1356.7	5.6009e-06	5.1336e-06	1360.4	366.18	4.1147e-06	5.6751e-06	417.9	139.2	120.27	41.554	5.5786e-06	51.458	0.00052271	0.00055303	0.00015951	1371.4	6.0898e-06	6.1158e-06	1372.3	372.14	5.8513e-06	6.1261e-06	425.65	142.67	123.46	42.701	5.684e-06	52.842	210.882	122.804	119.953	60.895	200.246	191.397	60.993	65.831	230.501	208.537	65.035	69.898	70.516	74.705	229.541	74.294	-8191	255	
762.459	1	1	0	0	0.11539	0.32423	0.053602	0.13441	0.15201	0.24523	0.099016	0.12076	0.30349	0.10898	0.11996	0.15733	0.011598	0.10231	0.059357	0.10715	-2.4792	-3.0229	-2.4562	-3.2938	-2.8708	-2.4188	-3.1854	-2.7208	-2.9437	-3.0792	-2.7271	-2.9979	-3.0771	-2.6479	-3.1792	-2.5979	167.328	263.667	294.644	382.405	274.686	237.699	179.970	366.290	99.420	371.947	326.000	353.941	406.791	378.676	325.684	213.615	0.0003988	0.00041561	0.00013152	1344.8	6.1458e-06	5.0776e-06	1343.1	363.14	3.957e-06	3.763e-06	414.81	138.14	120.14	41.431	4.1759e-06	51.287	0.0005109	0.00052097	0.00015481	1367.5	6.0484e-06	5.8917e-06	1367.2	371.52	5.86e-06	5.9936e-06	425.1	142.05	123.5	42.708	5.769e-06	52.83	211.652	140.423	149.588	61.394	212.803	193.129	61.431	66.240	221.798	199.566	65.208	70.612	70.622	74.676	217.279	74.029	-8191	255	
762.555	1	1	0	0	0.12029	0.10673	0.077452	0.19284	0.21349	0.18879	0.28606	0.18317	0.29632	0.10182	0.090347	0.26726	0.23745	0.235	0.23106	0.26223	-2.3375	-3.0687	-2.4896	-3.2812	-2.9062	-2.4188	-3.3083	-2.7667	-2.8521	-2.9458	-2.6813	-3.0833	-3.2042	-2.4979	-3.2438	-2.8292	83.223	217.658	200.159	71.676	399.019	386.730	358.340	229.258	121.957	340.166	171.607	354.476	374.941	355.442	51.021	377.104	0.00040319	0.000717	0.00017501	1347.5	5.1046e-06	4.558e-06	1352.5	364.3	3.3466e-06	5.2336e-06	417.81	138.63	119.87	41.316	6.078e-06	51.366	0.0005302	0.00055271	0.00015305	1368.3	5.686e-06	6.0471e-06	1368.7	371.92	5.9465e-06	5.9061e-06	425.66	142.06	123.34	42.633	5.9908e-06	52.842	214.717	123.228	134.335	61.038	204.635	176.059	61.217	66.113	233.996	198.966	65.470	70.258	70.699	74.944	221.170	74.030	-8191	255	
762.651	1	1	0	0	0.18404	0.23729	0.019454	0.24042	0.16263	0.051939	0.084799	0.073251	0.10744	0.21379	0.075745	0.21327	0.22231	0.14522	0.2405	0.080359	-2.4854	-3.3333	-2.4688	-2.9646	-2.95	-2.6396	-3.3271	-2.8146	-2.5875	-3.0958	-2.6562	-3.0875	-3.2146	-2.625	-3.0208	-2.9437	52.664	172.284	228.459	401.381	147.036	135.022	313.349	341.053	158.931	190.663	186.618	329.585	118.490	56.538	87.229	366.440	0.00040465	0.00052673	0.00011152	1350.9	7.5657e-06	5.9581e-06	1356.3	365.6	4.4821e-06	4.2029e-06	417.91	139.39	120.82	41.647	5.582e-06	51.522	0.00051309	0.00053933	0.0001522	1368.1	5.9823e-06	6.0013e-06	1369.3	371.66	5.8502e-06	6.0489e-06	425.11	142.52	123.55	42.75	5.757e-06	52.88	209.609	130.667	153.068	60.958	210.591	194.338	60.913	65.774	235.163	215.537	65.063	69.891	70.094	74.298	219.378	73.689	-8191	255	
762.772	1	1	0	0	0.17075	0.053752	0.15344	0.15635	0.097905	0.090875	0.3068	0.23701	0.28835	0.067142	0.098611	0.3504	0.26703	0.24887	0.18522	0.22377	-2.0042	-3.0333	-2.7438	-2.8563	-3.1937	-2.5917	-3.2021	-3.1208	-2.5292	-3.15	-2.6896	-2.7771	-3.1708	-2.6271	-2.9354	-3.2562	77.871	349.738	370.879	371.719	396.962	203.779	135.824	389.643	126.587	163.381	365.994	355.504	355.780	322.184	401.575	121.868	0.00040605	0.00061741	0.00011219	1351.6	4.9793e-06	5.8937e-06	1355.5	365.01	5.2536e-06	4.8598e-06	418.09	139.36	120.71	41.515	4.9174e-06	52.124	0.0005246	0.00054249	0.00015176	1367.5	5.9299e-06	5.8417e-06	1369.4	371.69	5.9912e-06	6.0793e-06	425.04	142.35	123.48	42.66	5.9526e-06	53.08	210.661	124.805	137.604	60.959	230.632	183.439	60.730	66.076	228.981	200.613	65.157	69.965	70.240	74.289	219.452	73.918	-8191	255	
762.868	1	1	0	0	0.10518	0.16176	0.15338	0.094843	0.11412	0.12387	0.082925	0.26369	0.11205	0.037456	0.27042	0.15144	0.18154	0.38435	0.076531	0.10834	-2.15	-3.2896	-2.5062	-2.8479	-3.1312	-2.7	-3.0583	-3.2625	-2.6896	-3.1792	-2.9854	-2.6958	-3.3646	-2.55	-2.6771	-3.2646	292.619	403.979	64.879	307.018	77.459	275.535	289.534	367.126	219.942	242.030	370.651	190.929	295.269	393.377	397.734	381.404	0.00039461	0.00052951	0.0001343	1353.5	5.4605e-06	5.9393e-06	1353.7	365.4	3.8476e-06	3.7471e-06	418.51	139.32	120.78	41.542	5.0498e-06	51.681	0.00053083	0.00052445	0.00015607	1368.5	6.0201e-06	5.9899e-06	1369.7	372.01	5.9917e-06	5.88e-06	425.5	142.13	123.75	42.661	5.7636e-06	52.836	208.818	125.102	130.951	60.829	213.288	193.295	60.898	65.968	232.362	201.544	65.120	70.198	70.246	74.533	218.483	73.822	-8191	255	
762.964	1	1	0	0	0.22273	0.11317	0.21245	0.26074	0.091718	0.10306	0.16573	0.22336	0.23552	0.098722	0.093412	0.28158	0.17058	0.095648	0.17196	0.063569	-2.1521	-3.1437	-2.8896	-2.8	-3.3312	-2.5979	-2.8833	-3.3792	-2.4958	-3.1375	-3.1521	-2.5667	-3.4396	-2.8729	-2.7938	-3.2458	113.489	205.886	295.150	359.077	390.541	240.564	405.096	331.637	67.184	80.593	377.648	382.681	194.827	327.660	298.421	84.211	0.00038888	0.00049016	0.00015929	1345.2	6.7488e-06	7.4746e-06	1351	363.69	4.7451e-06	4.727e-06	417.69	138.83	120.53	41.441	4.196e-06	51.423	0.00051497	0.00052857	0.00014655	1366.1	5.8307e-06	5.9917e-06	1367	371.43	5.8929e-06	5.945e-06	425.58	142.14	123.57	42.604	5.8126e-06	52.874	208.418	144.696	119.111	60.889	213.666	192.310	61.116	65.978	229.347	211.307	65.128	70.080	70.449	74.584	221.126	74.031	-8191	255	
763.060	1	1	0	0	0.26472	0.20822	0.093874	0.08013	0.01586	0.094278	0.13453	0.23349	0.22163	0.055401	0.23117	0.30734	0.33302	0.086244	0.28703	0.095113	-1.8438	-2.95	-2.9688	-2.9188	-2.9958	-2.6417	-2.9833	-3.4104	-2.4042	-3.0271	-3.2208	-2.5229	-3.3792	-3.0312	-2.5062	-3.1625	52.321	249.608	209.288	363.337	87.920	161.440	353.472	129.184	378.058	224.337	394.271	48.829	64.283	282.047	55.087	81.628	0.00038968	0.0004266	0.00017238	1343.1	5.8525e-06	3.9377e-06	1338.1	362.5	3.758e-06	5.1665e-06	413.07	137.9	119.52	41.195	5.5044e-06	51.263	0.00051818	0.00052188	0.00014687	1364.2	5.8244e-06	5.8194e-06	1362.7	371.1	5.8724e-06	5.8733e-06	423.54	141.94	122.98	42.548	5.611e-06	52.739	210.178	139.793	132.092	61.179	219.296	193.066	61.485	66.502	225.947	207.930	65.782	70.585	70.629	74.789	216.080	74.430	-8191	255	
763.157	1	1	0	0	0.05309	0.10581	0.13268	0.1824	0.21087	0.05817	0.2723	0.054896	0.18438	0.077206	0.052067	0.13432	0.11032	0.22232	0.083328	0.12346	-2.0271	-2.9542	-3.1667	-2.6792	-3.1521	-2.9396	-2.8542	-3.2896	-2.7	-2.85	-3.2146	-2.6521	-3.175	-2.9792	-2.7396	-3.3563	347.887	69.276	127.719	325.802	348.957	403.868	377.002	367.549	247.470	250.498	361.056	104.301	92.240	54.263	390.575	106.589	0.00040725	0.00046387	0.00014627	1336.3	6.47e-06	4.2969e-06	1335.8	362.15	4.3387e-06	5.4309e-06	414.92	137.62	119.85	41.402	3.8502e-06	51.238	0.00052276	0.00052991	0.00015212	1361.9	5.8145e-06	5.5899e-06	1362.5	370.74	5.8935e-06	6.2288e-06	424.41	141.75	123.33	42.619	5.678e-06	52.744	212.794	130.339	131.410	61.393	210.832	179.094	61.650	66.448	218.141	221.601	65.761	70.489	70.665	74.862	231.880	74.262	-8191	255	
763.253	1	1	0	0	0.15262	0.28388	0.2994	0.20254	0.25979	0.17508	0.18496	0.26369	0.26767	0.14479	0.22925	0.13863	0.20289	0.21716	0.38311	0.20382	-2.375	-2.8708	-3.075	-2.6375	-3.2438	-2.8854	-2.6958	-3.3979	-2.6458	-2.8896	-3.3854	-2.5417	-3.3604	-3.0417	-2.5229	-3.1875	53.201	285.283	274.037	337.391	225.688	373.023	326.495	368.505	369.457	113.851	347.044	320.372	363.009	365.308	100.267	350.287	0.00040661	0.00060938	0.00016283	1330.7	6.0479e-06	4.6805e-06	1339.9	359.9	3.4149e-06	4.8551e-06	411.62	137.14	119.33	40.964	4.5938e-06	50.793	0.00051485	0.00051391	0.00014616	1360.2	5.9498e-06	5.5519e-06	1360.2	370.64	5.6923e-06	5.9061e-06	423.15	141.74	123.17	42.481	5.8398e-06	52.636	214.059	134.844	141.303	61.631	215.036	193.389	61.618	66.628	219.553	208.591	65.755	70.806	71.033	75.320	223.921	74.461	-8191	255	
763.372	1	1	0	0	0.04018	0.063025	0.34402	0.1837	0.23773	0.21794	0.23164	0.13896	0.16749	0.20319	0.20951	0.26191	0.17732	0.075076	0.16507	0.14711	-2.4146	-2.575	-3.3104	-2.7854	-2.8396	-2.9979	-2.8542	-3.2333	-2.6979	-2.7188	-3.4125	-2.5792	-3.0646	-3.1875	-2.4771	-3.5187	85.100	308.329	283.766	71.492	343.961	256.975	89.876	406.177	243.506	340.949	86.362	382.228	387.152	392.249	191.370	375.505	0.00041053	0.00054728	0.00010388	1328	5.8371e-06	5.3565e-06	1333.9	360.12	4.9148e-06	5.8646e-06	410.31	137.09	119.26	41.054	3.7349e-06	50.952	0.00051263	0.00051439	0.00014465	1361.1	5.7075e-06	5.9043e-06	1360.4	370.64	5.6984e-06	5.815e-06	423.58	141.46	123.19	42.538	5.8137e-06	52.651	211.799	131.331	126.467	61.762	219.242	202.072	61.870	66.536	224.944	202.614	66.132	70.672	71.024	75.015	221.475	74.523	-8191	255	
763.468	1	1	0	0	0.017128	0.18013	0.15441	0.29193	0.20067	0.2221	0.29176	0.19298	0.1551	0.24907	0.13893	0.12271	0.17066	0.2665	0.025971	0.23562	-2.4417	-2.5729	-3.2083	-2.7854	-2.8146	-3.2479	-2.625	-3.1083	-2.9771	-2.5438	-3.3292	-2.7146	-2.8208	-3.2646	-2.3917	-3.1729	114.840	60.574	159.824	78.584	282.540	268.333	287.412	333.517	153.607	350.520	326.963	288.127	207.638	67.711	387.683	114.139	0.00037782	0.00058046	0.00014735	1345.3	4.6042e-06	3.3844e-06	1338.2	360.85	5.17e-06	4.7779e-06	413.39	137.7	119.61	41.264	4.9413e-06	51.146	0.00049771	0.00054152	0.00014389	1363.9	5.7316e-06	5.764e-06	1360.7	370.26	5.9773e-06	6.0051e-06	423.68	141.72	123	42.632	5.9875e-06	52.708	215.298	126.459	123.504	61.648	216.277	197.038	61.415	66.213	230.756	210.299	65.733	70.601	70.571	75.040	226.837	74.177	-8191	255	
763.564	1	1	0	0	0.2256	0.41832	0.25589	0.1304	0.12757	0.059385	0.15256	0.23505	0.10838	0.2183	0.28112	0.15342	0.36104	0.12079	0.10456	0.20732	-2.5125	-2.7125	-3.1875	-2.7125	-2.7375	-3.225	-2.6833	-3.1208	-2.9625	-2.5	-3.3271	-2.9146	-2.7792	-3.4437	-2.5812	-3.1375	127.614	225.258	374.817	262.165	347.299	66.109	87.360	317.135	339.248	51.293	340.434	51.270	334.882	274.852	402.474	384.469	0.00041296	0.00047496	0.00017628	1328	5.0802e-06	4.6441e-06	1337.9	360.91	4.7889e-06	5.5728e-06	410.91	137.52	119.6	40.965	5.1488e-06	50.817	0.0005192	0.00056582	0.00014816	1359.5	5.8533e-06	5.6748e-06	1360.8	370.49	5.6377e-06	6.109e-06	423.09	141.84	122.92	42.517	6.0834e-06	52.617	211.878	134.829	133.003	61.722	227.401	203.917	61.592	66.722	227.555	188.832	65.854	70.958	70.695	75.165	217.403	74.442	-8191	255	
763.636	1	1	0	0	0.10854	0.10576	0.11796	0.39756	0.16124	0.20547	0.036867	0.16206	0.24332	0.2356	0.26129	0.24192	0.16718	0.14561	0.158	0.07144	-2.7521	-2.6521	-3.1188	-3.025	-2.6583	-3.0083	-2.9125	-3.0292	-2.9792	-2.6208	-3.3458	-2.95	-2.6813	-3.4437	-2.5417	-2.975	170.734	141.176	192.551	370.391	394.932	180.035	318.024	345.898	382.579	183.704	251.832	375.470	375.711	221.435	195.501	390.021	0.00041091	0.00057225	0.00013531	1335.4	4.9806e-06	6.4634e-06	1340.9	360.85	4.3357e-06	6.7631e-06	411.54	137.52	118.94	40.967	4.6927e-06	50.848	0.00050955	0.00051589	0.00014899	1362.9	5.9886e-06	5.9664e-06	1363.7	370.64	5.5276e-06	6.1564e-06	423.47	141.83	122.86	42.529	5.9417e-06	52.666	212.199	141.190	130.743	61.921	197.591	180.141	61.857	66.397	236.335	218.083	66.252	70.745	71.125	75.443	210.367	74.936	-8191	255	
763.756	1	1	0	0	0.22453	0.12994	0.21401	0.12348	0.17447	0.21387	0.23129	0.1546	0.24676	0.1811	0.060082	0.31633	0.13236	0.20217	0.12092	0.19689	-2.8688	-2.5229	-3.0646	-3.0458	-2.3708	-3.0938	-2.8083	-2.8312	-3.0729	-2.5583	-3.3187	-3.125	-2.7208	-3.4583	-2.7313	-2.9667	212.431	229.494	309.908	49.350	232.374	228.389	337.534	329.158	193.044	152.908	117.843	389.177	233.163	121.931	324.017	386.839	0.00039576	0.00055234	0.00017197	1333.2	6.7221e-06	4.0195e-06	1340.6	362.39	5.4979e-06	5.5743e-06	414.38	137.14	119.3	41.17	4.7193e-06	51.167	0.00050283	0.00054099	0.0001517	1360	5.9283e-06	5.7013e-06	1362.2	370.87	5.8595e-06	6.1145e-06	423.34	141.63	123.03	42.555	5.9728e-06	52.798	211.220	130.607	136.179	61.574	202.458	198.444	61.519	66.579	213.721	195.261	65.734	70.462	70.852	75.018	219.049	74.507	-8191	255	
763.852	1	1	0	0	0.056833	0.053319	0.17607	0.13894	0.14336	0.039544	0.43736	0.046332	0.13722	0.249	0.20684	0.20479	0.15742	0.40068	0.19226	0.20618	-2.7104	-2.5854	-3.225	-3.2667	-2.4375	-3.2833	-3.0042	-2.8146	-3.1188	-2.6521	-3.1417	-3.1167	-2.6437	-3.1396	-2.7979	-2.8896	280.081	80.401	404.268	373.942	201.899	271.443	368.094	93.103	225.989	143.149	360.002	79.492	353.011	368.431	145.453	336.524	0.0003856	0.00049123	0.00013295	1330.3	6.1776e-06	4.5732e-06	1338.9	358.73	4.9861e-06	5.3605e-06	410.18	136.82	118.82	41.007	4.5453e-06	50.99	0.00050153	0.00055164	0.00014389	1361.3	5.8973e-06	5.7284e-06	1361.2	369.6	5.6712e-06	5.5561e-06	423.01	141.31	122.96	42.48	5.8551e-06	52.673	212.869	120.123	139.028	61.936	216.772	185.601	62.017	66.517	224.827	216.202	66.260	71.107	71.018	75.231	218.623	74.376	-8191	255	
763.949	1	1	0	0	0.19158	0.14861	0.12856	0.31628	0.28372	0.10641	0.23543	0.41532	0.11581	0.042389	0.10504	0.012807	0.077731	0.3324	0.079308	0.41006	-2.9104	-2.5979	-2.8771	-3.0229	-2.5104	-3.0458	-3.1708	-3.0104	-2.9625	-2.7771	-3.025	-3.1042	-2.6813	-3.1188	-2.8854	-2.7667	208.573	83.541	210.326	360.182	100.017	316.383	392.648	369.276	238.809	130.597	371.913	278.026	288.612	394.638	59.924	363.343	0.00038867	0.0007265	0.00016416	1334.9	4.3005e-06	4.8891e-06	1335.3	359.94	4.1682e-06	5.7615e-06	412.3	138.13	118.93	40.996	5.4807e-06	50.756	0.00050884	0.00054206	0.00015097	1361.9	5.8837e-06	5.8603e-06	1361	370.32	5.6794e-06	5.7979e-06	423.61	141.91	122.93	42.491	6.0196e-06	52.605	214.679	125.653	146.074	62.128	207.185	182.195	61.957	66.788	223.427	193.690	65.834	70.589	70.799	75.272	207.478	74.473	-8191	255	
764.045	1	1	0	0	0.10461	0.16933	0.21321	0.14251	0.16415	0.24579	0.15005	0.14863	0.33287	0.10801	0.12879	0.19062	0.15478	0.13074	0.27654	0.093846	-2.6896	-2.4521	-2.7354	-3.35	-2.4417	-3.0646	-3.0271	-2.8292	-3.2458	-2.6708	-2.8146	-3.3854	-2.6333	-3.0625	-2.8312	-2.7188	161.212	248.579	83.016	194.511	289.970	119.946	326.613	332.859	101.646	178.700	349.483	331.124	387.538	187.711	186.475	179.350	0.00039838	0.00054119	0.00018773	1343	6.3669e-06	3.9869e-06	1346.3	359.9	4.5711e-06	5.8439e-06	414.2	137.62	119.55	41.221	5.2879e-06	51.505	0.00051836	0.0005259	0.00014887	1362.1	5.8942e-06	5.8519e-06	1364.5	370.01	5.8168e-06	5.8101e-06	423.86	141.78	123.04	42.582	5.6916e-06	52.799	212.892	133.818	132.204	61.349	224.669	212.309	61.443	66.190	223.700	213.167	65.476	70.335	70.574	74.743	228.200	73.745	-8191	255	
764.141	1	1	0	0	0.040554	0.20594	0.23125	0.21179	0.048119	0.32265	0.18056	0.2385	0.24989	0.13032	0.041773	0.089052	0.22591	0.15008	0.27625	0.10102	-2.9396	-2.6667	-2.7542	-3.3625	-2.6375	-3	-3.2188	-2.7083	-3.0708	-2.9146	-2.5708	-3.2292	-2.7229	-2.7667	-3.2375	-2.8187	214.178	121.641	252.956	395.787	66.014	148.117	371.535	347.083	289.652	124.466	80.956	58.428	53.398	335.244	337.813	98.550	0.00040279	0.000651	0.0001658	1340.7	4.0713e-06	6.5789e-06	1346.9	361.05	4.3259e-06	4.4524e-06	416.08	138.63	120.19	41.437	4.0753e-06	51.255	0.00052108	0.00052665	0.00015357	1363.4	6.1161e-06	5.9513e-06	1364.8	369.84	5.6382e-06	5.9341e-06	424.43	142.04	123.1	42.637	5.7897e-06	52.664	211.249	137.766	141.405	61.448	201.038	202.646	61.454	66.208	236.477	189.139	65.249	70.136	70.626	74.722	230.194	73.930	-8191	255	
764.237	1	1	0	0	0.16515	0.2329	0.091156	0.096151	0.23805	0.08308	0.17212	0.12666	0.12349	0.10153	0.13007	0.36784	0.1244	0.27764	0.23681	0.090748	-2.6333	-2.8792	-2.5875	-3.3875	-2.7771	-2.8125	-3.3771	-2.75	-2.8396	-2.9729	-2.675	-3.1729	-2.8812	-2.8708	-3.1854	-2.4437	118.608	192.266	126.319	369.046	58.514	234.193	394.511	237.211	63.447	142.022	203.665	382.229	282.333	372.720	182.646	154.754	0.00038949	0.00041905	0.00018009	1337.6	5.4976e-06	4.793e-06	1350.3	362.6	4.6127e-06	4.4325e-06	417.42	138.88	120.3	41.409	4.9642e-06	51.753	0.00051182	0.00051263	0.00014774	1361.2	5.8003e-06	5.8615e-06	1363.5	370.48	5.5868e-06	5.6442e-06	424.15	142.22	123.15	42.574	5.5886e-06	52.825	213.471	122.043	138.538	61.511	219.452	195.316	61.172	66.246	227.098	193.922	65.378	70.015	70.298	74.393	228.624	73.788	-8191	255	
764.333	1	1	0	0	0.28029	0.030153	0.057799	0.29709	0.10806	0.24839	0.084639	0.083193	0.13051	0.078684	0.070326	0.13436	0.10225	0.11778	0.076513	0.36119	-2.5687	-2.8833	-2.7021	-3.3646	-2.75	-2.7708	-3.4208	-2.675	-2.7917	-2.9458	-2.8375	-3.1917	-2.9188	-2.7958	-3.0687	-2.8958	159.581	166.731	359.658	50.042	239.354	391.235	186.742	215.152	388.322	181.937	307.258	70.215	171.837	333.181	379.720	342.549	0.00041718	0.00048306	8.5091e-05	1352.1	4.1769e-06	4.2867e-06	1352.8	364.03	4.4168e-06	5.0365e-06	417.01	138.83	119.86	41.392	4.3809e-06	51.558	0.00050036	0.00052467	0.00015137	1364.9	5.8554e-06	5.7314e-06	1363.8	370.63	5.7767e-06	5.9784e-06	424.16	142.24	123.02	42.548	5.9428e-06	52.675	211.832	129.030	138.155	60.867	203.061	190.837	60.826	65.749	232.774	188.894	65.136	70.106	70.330	74.718	221.373	73.677	-8191	255	
764.452	1	1	0	0	0.16332	0.14356	0.14553	0.090316	0.054646	0.16256	0.18223	0.24756	0.21732	0.13465	0.062173	0.079957	0.13015	0.38715	0.39062	0.23818	-2.5208	-3.1688	-2.5563	-3.2542	-2.9854	-2.5979	-3.3458	-2.8167	-2.9188	-3.1854	-2.6937	-3	-3.0521	-2.5854	-3.05	-2.8063	310.639	71.038	209.813	149.707	98.097	309.833	261.059	386.311	87.110	356.092	359.630	350.161	174.432	390.646	163.949	379.609	0.00037238	0.00041906	0.0001323	1341.3	5.7048e-06	6.6003e-06	1343.6	362.08	3.2452e-06	2.9196e-06	416.9	137.86	120.03	41.314	5.6801e-06	51.369	0.00050454	0.0005252	0.00014652	1362.1	6.0017e-06	5.9109e-06	1360.6	370.05	5.7669e-06	5.6594e-06	424.07	141.72	122.94	42.533	5.8682e-06	52.673	214.017	135.043	132.881	61.256	208.412	190.653	61.088	66.025	231.875	205.289	65.082	70.120	70.310	74.372	232.018	74.087	-8191	255	
764.548	1	1	0	0	0.14555	0.12385	0.21937	0.044852	0.082519	0.065252	0.32682	0.29431	0.066299	0.10823	0.10812	0.20933	0.16174	0.1915	0.25011	0.23874	-2.2708	-3.0292	-2.5167	-3.05	-3.0458	-2.6042	-3.2979	-2.9375	-2.9604	-3.1333	-2.8438	-3.1167	-3.175	-2.6167	-2.9229	-2.8937	325.079	329.689	266.983	377.455	365.071	163.095	377.849	377.028	379.881	286.327	373.698	73.000	386.266	337.385	203.495	338.652	0.00037798	0.00059279	0.00018208	1338.8	5.7953e-06	4.9378e-06	1343.2	361.4	4.5283e-06	5.6027e-06	414.14	138	119.96	41.366	5.566e-06	51.19	0.00050693	0.00052279	0.000158	1360.9	5.805e-06	5.7013e-06	1363.4	369.98	5.5924e-06	5.7214e-06	423.36	141.71	122.98	42.521	5.5434e-06	52.718	211.710	151.229	120.908	61.199	227.613	204.147	61.274	66.013	229.321	195.498	65.277	70.126	70.338	74.575	235.569	74.022	-8191	255	
764.644	1	1	0	0	0.41334	0.17696	0.11378	0.18596	0.16097	0.14773	0.23449	0.035811	0.16583	0.1751	0.16266	0.19373	0.27713	0.21071	0.054021	0.17179	-2.3896	-2.9437	-2.6604	-2.925	-3.0563	-2.7208	-3.4313	-3.0458	-2.7771	-3.3146	-2.5417	-3.0646	-3.3042	-2.5812	-3.1875	-2.8958	48.617	270.302	114.732	380.297	265.965	150.120	321.762	78.115	131.902	206.601	370.744	90.646	370.689	395.018	278.369	101.014	0.00042321	0.00052112	0.00014538	1343.3	6.1951e-06	4.3942e-06	1342	362.29	4.6532e-06	4.8181e-06	414.65	138.97	119.76	41.274	3.7707e-06	51.47	0.0005176	0.00050353	0.00015508	1362	5.7169e-06	5.764e-06	1360.8	370.49	5.7767e-06	6.0106e-06	424.05	141.98	122.92	42.563	5.8251e-06	52.752	211.827	117.061	132.713	61.132	210.354	188.382	61.405	66.199	226.888	209.543	65.108	69.976	70.743	74.487	201.864	73.917	-8191	255	
764.741	1	1	0	0	0.24507	0.039154	0.32523	0.1845	0.12988	0.21849	0.50172	0.20027	0.23867	0.11953	0.35105	0.34554	0.43057	0.13554	0.03426	0.19434	-2.3229	-3.0979	-2.6021	-2.8604	-3.0833	-2.7958	-3.2646	-3.2229	-2.6083	-3.2083	-2.7542	-3.0458	-3.3646	-2.6917	-3.0708	-3.1	239.156	239.821	71.815	382.564	185.404	135.747	362.639	357.269	99.093	117.527	292.016	395.698	377.380	393.001	198.142	323.375	0.00039331	0.00058695	0.00014991	1344.9	4.6067e-06	5.564e-06	1337.3	361.42	4.289e-06	4.7831e-06	413.61	138.05	119.81	41.294	5.1231e-06	51.48	0.00051296	0.00052713	0.00014943	1362.6	5.5428e-06	5.923e-06	1360.4	370.26	5.9917e-06	5.7038e-06	423.52	141.62	123.02	42.529	5.9074e-06	52.727	210.516	138.819	130.551	61.188	224.345	189.245	61.328	66.378	220.268	193.986	65.193	70.251	70.658	74.737	213.502	74.049	-8191	255	
764.861	1	1	0	0	0.17302	0.021488	0.044609	0.29107	0.177	0.29919	0.17317	0.46955	0.078073	0.10031	0.38922	0.15026	0.28188	0.47662	0.15324	0.041228	-2.0833	-3.2292	-2.8208	-3.0042	-3.1854	-2.675	-3.0625	-3.2167	-2.6083	-3.2333	-2.9771	-2.8729	-3.2125	-2.6333	-2.9625	-3.2208	131.397	244.470	164.600	401.117	63.319	353.554	396.151	345.853	407.340	156.871	346.572	382.467	403.435	384.000	323.113	101.577	0.00040573	0.00043166	0.00014161	1340.9	6.1558e-06	5.5215e-06	1339.2	361.97	3.5601e-06	5.8816e-06	415.22	137.49	119.69	41.427	4.9321e-06	51.388	0.00051892	0.00052285	0.00015083	1360.6	6.1103e-06	5.9555e-06	1362	370.21	5.7442e-06	5.5093e-06	423.57	141.55	122.89	42.535	5.6884e-06	52.727	213.362	118.205	156.804	61.344	220.345	222.469	61.313	66.049	232.954	198.398	65.482	70.305	70.723	74.785	222.420	74.084	-8191	255	
764.933	1	1	0	0	0.16229	0.25084	0.23604	0.3508	0.16169	0.17562	0.29795	0.010599	0.12687	0.12526	0.083389	0.081413	0.1591	0.26301	0.023082	0.023597	-2.1813	-3.0938	-2.7333	-2.8688	-3.3438	-2.6063	-3.0563	-3.35	-2.6813	-3.1667	-3.075	-2.6688	-3.3354	-2.8583	-2.7646	-3.1125	322.985	86.639	379.199	390.128	63.802	129.752	369.944	316.225	216.703	333.364	60.973	64.129	357.771	391.750	153.679	140.308	0.00041392	0.00056188	0.00018657	1337.2	6.3322e-06	3.8342e-06	1339.1	361.09	4.3656e-06	5.8531e-06	413.67	137.98	119.14	41.174	5.3122e-06	51.193	0.00051235	0.00052991	0.00015528	1360	5.7096e-06	5.7326e-06	1360.8	370.13	5.9825e-06	5.9833e-06	423.47	141.65	122.85	42.48	5.7908e-06	52.742	212.225	125.639	134.014	61.151	217.077	205.465	61.284	66.171	231.405	211.946	65.602	70.031	70.564	74.622	217.603	73.940	-8191	255	
765.053	1	1	0	0	0.21892	0.19247	0.070158	0.09356	0.13915	0.076172	0.22079	0.24703	0.090147	0.25995	0.1457	0.085954	0.41048	0.2107	0.18523	0.14413	-2.0146	-3.1667	-3.0646	-2.7771	-3.1979	-2.7833	-2.9167	-3.1479	-2.5125	-3.2583	-3.1125	-2.8542	-3.2562	-2.825	-2.8229	-3.3604	193.236	370.744	207.184	308.560	144.815	235.058	354.886	380.747	78.394	138.535	363.257	320.163	82.092	365.647	239.337	74.750	0.00039369	0.00055832	0.00010959	1337.6	5.7388e-06	6.3908e-06	1345.2	362.52	3.9789e-06	5.0219e-06	414.77	138.51	120.11	41.279	6.126e-06	51.365	0.00051818	0.00051134	0.00014584	1360.5	5.837e-06	5.8254e-06	1360.1	370.35	5.8544e-06	5.6934e-06	423.44	141.83	123.03	42.551	5.8976e-06	52.74	213.183	121.196	142.080	61.188	219.426	181.880	61.273	66.335	232.585	209.611	65.411	70.352	70.646	74.716	220.219	74.173	-8191	255	
765.150	1	1	0	0	0.21441	0.14884	0.11913	0.17394	0.10894	0.12709	0.11256	0.094405	0.17464	0.11911	0.20644	0.0096226	0.28933	0.32725	0.22095	0.030951	-2.0187	-2.8417	-3.0958	-2.6292	-3.0375	-2.9042	-2.6562	-3.4521	-2.5083	-2.8063	-2.9604	-2.6854	-3.0812	-2.9813	-2.5792	-3.3833	240.381	121.447	234.631	70.226	125.767	146.950	232.613	353.092	124.225	64.392	344.209	168.713	387.640	381.544	105.718	240.471	0.000408	0.00044251	0.00013393	1345.9	6.6535e-06	4.2194e-06	1344.1	362.83	3.858e-06	4.1621e-06	416.4	138.5	120.01	41.324	3.5786e-06	51.609	0.00051413	0.00050942	0.00014121	1363.1	5.7426e-06	5.8646e-06	1362.5	370.94	5.9804e-06	5.8289e-06	423.72	141.81	122.98	42.518	5.9128e-06	52.801	211.142	118.295	117.761	61.179	218.910	180.903	60.996	66.000	235.438	208.218	65.459	70.279	70.518	74.783	205.292	74.049	-8191	255	
765.244	1	1	0	0	0.093722	0.070781	0.12592	0.23104	0.18186	0.24189	0.17019	0.11662	0.092541	0.10927	0.23094	0.20848	0.072861	0.12491	0.094209	0.11599	-2.4313	-2.7188	-3.0563	-2.7458	-3.1	-3.1146	-2.7646	-3.3729	-2.6813	-2.7271	-3.4396	-2.7021	-3.075	-3.225	-2.4833	-3.4125	373.447	371.151	74.757	52.336	155.861	220.954	349.374	278.235	227.880	174.446	366.408	345.896	125.670	350.850	348.042	111.169	0.00040802	0.00044049	0.00014227	1334.7	6.4791e-06	4.1285e-06	1340.2	363.14	4.0769e-06	4.2082e-06	414.97	137.68	119.7	41.286	4.665e-06	51.236	0.00051235	0.00052001	0.00015279	1360.8	5.9624e-06	5.8718e-06	1361.2	370.64	5.7751e-06	5.9091e-06	423.5	141.45	123.12	42.515	5.9646e-06	52.71	212.007	140.272	143.388	61.154	217.927	173.742	61.433	66.271	229.034	201.864	65.491	70.380	70.533	74.843	224.736	74.070	-8191	255	
765.340	1	1	0	0	0.13745	0.11723	0.073509	0.26823	0.060984	0.095921	0.18154	0.094087	0.020365	0.16695	0.066417	0.11781	0.093825	0.078528	0.13316	0.24229	-2.1375	-2.9583	-3.0563	-2.7292	-2.9688	-2.7292	-2.9313	-3.1333	-2.7229	-2.6979	-3.2438	-2.4333	-3.2438	-3.0958	-2.4938	-3.2771	211.272	295.975	182.634	404.776	187.903	403.684	335.242	344.226	211.823	119.415	246.859	346.548	271.853	365.038	142.406	327.141	0.00039794	0.00045894	0.00012963	1342.2	5.8895e-06	4.7598e-06	1343.5	362.12	4.1155e-06	3.0912e-06	413.5	138.12	119.74	41.438	4.7444e-06	51.465	0.00052964	0.00052922	0.00014917	1362.5	5.8743e-06	5.6658e-06	1362.1	370.54	5.7736e-06	5.942e-06	423.49	141.85	122.97	42.496	5.7608e-06	52.739	210.892	132.321	119.314	61.167	224.888	200.520	61.226	66.006	233.558	180.877	65.249	70.284	70.602	75.002	221.425	74.083	-8191	255	
765.461	1	1	0	0	0.28694	0.41955	0.19115	0.16962	0.15751	0.11953	0.12169	0.16422	0.2911	0.065671	0.17355	0.37079	0.17823	0.089008	0.18154	0.10515	-2.5	-2.4062	-3.2354	-2.6667	-2.8688	-2.9979	-2.6708	-3.125	-2.7917	-2.4875	-3.4625	-2.7021	-2.8917	-3.2604	-2.5104	-3.1688	86.499	185.552	190.333	329.278	163.184	81.058	376.679	379.412	115.750	290.002	168.539	89.182	115.335	55.760	387.441	226.640	0.00038709	0.00045827	0.00018165	1342.5	7.071e-06	5.3736e-06	1342.6	361.79	4.0213e-06	3.2492e-06	417.74	137.6	119.53	41.055	4.3345e-06	51.484	0.00051673	0.00052975	0.00014625	1360.4	5.9713e-06	5.7085e-06	1360.9	370.24	5.7592e-06	5.931e-06	423.91	141.53	122.9	42.495	5.9978e-06	52.733	210.967	150.786	130.015	61.286	222.709	197.268	61.395	65.930	217.118	202.606	65.297	70.239	70.588	74.990	219.321	74.303	-8191	255	
765.532	1	1	0	0	0.16269	0.052268	0.22849	0.45257	0.18889	0.16188	0.17471	0.26467	0.2228	0.32934	0.1119	0.22493	0.19745	0.071036	0.069257	0.34114	-2.4938	-2.5625	-3.0667	-2.8021	-2.6667	-3.1021	-2.5854	-3.1979	-2.9042	-2.6896	-3.1958	-2.8604	-2.7396	-3.2417	-2.4375	-3.1125	335.045	201.765	144.704	50.023	217.091	76.748	342.369	344.697	69.058	324.512	94.905	75.019	306.083	338.170	270.053	259.230	0.00038666	0.00056599	0.00018538	1336.4	4.6464e-06	4.8781e-06	1335.4	362.1	4.808e-06	5.8001e-06	413.21	137.3	119.19	41.063	4.7797e-06	51.316	0.00051128	0.00052777	0.00014444	1358.5	5.9183e-06	5.5706e-06	1358.7	370.41	5.6326e-06	5.9201e-06	423.01	141.44	122.82	42.487	5.7472e-06	52.76	212.047	120.585	136.759	61.168	222.174	197.268	61.388	66.184	215.340	213.388	65.686	70.512	70.661	74.869	208.860	74.190	-8191	255	
765.629	1	1	0	0	0.34887	0.26577	0.16562	0.12656	0.1238	0.086575	0.15746	0.13135	0.14586	0.21175	0.33983	0.21279	0.11737	0.043399	0.095985	0.36269	-2.5604	-2.6417	-3.1292	-2.7521	-2.4938	-3.2167	-2.8229	-2.8896	-2.9729	-2.5958	-3.2583	-2.9771	-2.5917	-3.4458	-2.4938	-2.7479	208.228	193.336	184.890	373.390	263.057	151.703	320.595	386.824	131.604	122.875	371.162	173.431	367.767	320.776	139.781	374.117	0.00039591	0.00059255	0.00015975	1336.2	6.062e-06	5.7227e-06	1336.4	361.39	4.978e-06	5.1586e-06	413.05	137.24	119.53	41.149	6.7785e-06	51.186	0.00050438	0.00053484	0.00014566	1360.6	6.3494e-06	5.6332e-06	1360.8	369.72	5.8852e-06	6.1899e-06	424.11	141.38	122.83	42.462	6.1444e-06	52.703	212.075	124.971	145.539	61.370	210.929	186.178	61.320	66.346	230.661	210.492	65.466	70.557	70.679	74.780	203.085	73.970	-8191	255	
765.725	1	1	0	0	0.12924	0.13766	0.15376	0.10817	0.076998	0.14012	0.21361	0.10763	0.069547	0.090014	0.18056	0.26557	0.26714	0.177	0.24249	0.23289	-2.9375	-2.5354	-3.0958	-2.9271	-2.7	-3.2583	-2.825	-3.0542	-3.1271	-2.4917	-3.0833	-2.9229	-2.525	-3.1063	-2.5125	-2.8187	212.509	78.805	205.951	311.906	126.337	203.061	341.834	67.773	371.149	398.876	388.774	65.176	48.836	160.037	280.956	70.320	0.00040319	0.0006038	0.000138	1340.4	6.2655e-06	5.7441e-06	1337.7	360.73	4.9003e-06	4.3264e-06	413.18	137.02	119.43	40.964	5.3973e-06	51.116	0.00050864	0.00053912	0.00015233	1359.6	5.9996e-06	5.7387e-06	1361.2	370.08	6.0262e-06	6.0361e-06	423.46	141.53	122.89	42.436	6.1684e-06	52.667	211.668	127.640	139.429	61.478	226.132	180.057	61.455	66.141	226.271	220.305	65.815	70.765	70.930	74.847	216.860	74.543	-8191	255	
765.821	1	1	0	0	0.19121	0.07384	0.14799	0.16461	0.08466	0.13589	0.30821	0.14095	0.16857	0.17192	0.036561	0.25498	0.22907	0.20282	0.15601	0.18918	-2.6979	-2.5354	-2.9583	-3.0729	-2.5417	-3.1937	-2.7313	-2.9708	-3.0625	-2.6188	-2.8958	-3.1625	-2.7083	-3.0875	-2.8125	-2.6104	56.981	318.744	176.316	337.411	386.404	401.323	379.195	273.461	52.683	72.310	183.927	56.310	71.964	258.070	392.299	385.729	0.00039694	0.00048817	0.00016459	1338.4	5.9087e-06	4.6286e-06	1342.6	361.11	4.6403e-06	3.6565e-06	414.53	137.71	119.45	41.117	3.965e-06	51.209	0.00051538	0.00056807	0.00015456	1361.8	6.0568e-06	5.9646e-06	1361.4	369.48	5.7514e-06	6.1157e-06	423.29	141.6	122.91	42.491	6.1695e-06	52.619	212.055	150.061	127.144	61.451	207.012	193.257	61.581	66.294	235.517	212.673	65.434	70.812	70.523	74.730	228.009	73.879	-8191	255	
765.942	1	1	0	0	0.07264	0.1295	0.069514	0.1633	0.043242	0.22772	0.26223	0.27564	0.065779	0.22842	0.15847	0.074449	0.086568	0.13735	0.1634	0.10162	-2.8812	-2.4188	-2.9	-3.2479	-2.4229	-3.1729	-2.9667	-2.7417	-3.125	-2.5271	-2.8979	-3.0646	-2.6771	-3.2125	-2.7917	-2.6625	144.351	407.648	290.407	347.681	367.605	294.890	378.099	337.076	52.259	60.307	57.427	49.878	248.945	370.625	157.824	330.114	0.00037818	0.00055242	0.00015109	1347	5.8734e-06	4.7623e-06	1342.7	362.53	4.5618e-06	4.9332e-06	414.91	138.13	119.92	41.222	5.3711e-06	51.325	0.00051841	0.0005693	0.00015242	1365.5	5.9996e-06	6.0646e-06	1363.2	370.29	6.125e-06	6.3819e-06	424.44	141.85	123.25	42.549	6.1395e-06	52.852	213.330	130.700	144.964	61.327	210.816	196.507	61.219	65.919	226.964	186.514	65.167	70.292	70.455	75.009	221.474	73.845	-8191	255	
766.038	1	1	0	0	0.15937	0.15552	0.21049	0.20123	0.23256	0.086737	0.23134	0.26368	0.10064	0.12029	0.21127	0.24126	0.32413	0.39944	0.15028	0.10608	-2.95	-2.4938	-2.6125	-3.3083	-2.5875	-3.1562	-3.0208	-2.7854	-3.1125	-2.8083	-2.7812	-3.3896	-2.5229	-3.0104	-2.8312	-2.5979	384.604	136.657	214.507	300.294	115.177	282.353	335.370	373.549	259.922	271.630	101.064	374.683	405.540	100.562	306.594	357.129	0.00040966	0.00043022	0.00011689	1346.4	4.7868e-06	3.9082e-06	1340.6	362.71	4.04e-06	6.4695e-06	415.02	137.5	119.49	41.252	4.9253e-06	51.074	0.00053778	0.00057197	0.00015715	1370.9	6.2682e-06	6.4049e-06	1364.1	371.42	5.9434e-06	6.1273e-06	424.06	141.68	123.04	42.585	5.8812e-06	52.642	209.548	132.448	129.252	61.269	227.408	195.949	61.397	66.094	234.380	200.760	65.450	70.316	70.807	74.752	228.988	74.643	-8191	255	
766.134	1	1	0	0	0.225	0.12717	0.18721	0.26095	0.27371	0.049208	0.22663	0.36243	0.061143	0.26061	0.21748	0.057443	0.069997	0.19095	0.37793	0.062447	-3.0375	-2.4562	-2.6479	-3.1917	-2.3896	-3.0042	-3.0792	-2.4667	-3.1562	-2.7625	-2.75	-3.2292	-2.6979	-2.8667	-3.0687	-2.5687	284.298	119.945	84.419	350.474	118.260	157.960	350.471	325.376	235.786	333.703	372.682	360.129	289.556	78.516	100.538	229.274	0.00038991	0.00047361	0.00019354	1333.5	6.6063e-06	6.7764e-06	1331.8	360.41	4.5173e-06	5.0775e-06	412.66	137.06	118.84	41.081	3.7482e-06	51.146	0.0005177	0.00052493	0.00015573	1364.3	6.3484e-06	6.2953e-06	1360.7	370.24	5.7977e-06	6.1765e-06	423.5	141.68	122.82	42.546	6.1324e-06	52.682	213.953	121.503	130.760	61.870	220.049	192.152	61.856	66.533	230.727	198.633	65.909	70.988	70.986	75.187	227.448	74.254	-8191	255	
766.230	1	1	0	0	0.081394	0.14706	0.3427	0.15576	0.089191	0.054036	0.23357	0.21998	0.10224	0.35584	0.19349	0.13737	0.063493	0.1498	0.095487	0.086499	-2.55	-2.7958	-2.3187	-3.5563	-2.5854	-2.7562	-3.2562	-2.625	-3.0563	-2.7792	-2.7354	-3.3229	-2.5979	-2.8187	-3.1271	-2.6437	169.080	317.449	377.083	75.316	398.858	326.319	321.861	297.769	200.989	265.027	340.735	344.985	362.433	72.596	256.981	328.381	0.00038965	0.00060155	0.00016898	1335.8	6.575e-06	4.4591e-06	1338.3	361.3	3.8149e-06	3.9551e-06	413.69	137.78	119.62	41.188	3.8508e-06	51.118	0.00052534	0.00055699	0.00016299	1363.8	6.2556e-06	6.1881e-06	1363.4	370.99	5.9943e-06	6.2433e-06	424.72	141.94	123.2	42.615	5.9161e-06	52.768	210.843	120.474	129.935	61.387	218.753	192.720	61.597	66.503	236.116	205.467	65.489	70.523	70.756	75.084	227.522	74.476	-8191	255	
766.324	1	1	0	0	0.30496	0.038789	0.18892	0.19933	0.15357	0.12754	0.15329	0.20494	0.074307	0.17568	0.090948	0.21852	0.15517	0.13979	0.026072	0.061394	-2.5396	-2.8646	-2.3292	-3.3979	-2.625	-2.7333	-3.2417	-2.6833	-2.95	-2.8729	-2.5771	-3.375	-2.8229	-2.7562	-3.2792	-2.6729	184.884	385.936	75.796	390.268	389.482	276.907	366.802	312.477	224.462	293.602	351.538	68.268	392.568	361.635	156.102	352.279	0.00041239	0.00044441	0.00012548	1333.9	4.9037e-06	5.4452e-06	1334.6	360.13	5.054e-06	3.7379e-06	412.33	136.53	119.12	41.022	6.4081e-06	50.741	0.00053269	0.00054356	0.00015341	1363.2	6.2189e-06	6.0025e-06	1365	370.31	5.8626e-06	5.9444e-06	423.48	141.74	122.97	42.531	5.8987e-06	52.613	213.704	126.365	124.693	61.698	216.017	199.084	62.157	66.724	238.129	219.706	65.994	71.068	71.062	75.454	202.008	74.583	-8191	255	
766.422	1	1	0	0	0.05669	0.072529	0.27131	0.20639	0.18154	0.12576	0.35313	0.15062	0.13315	0.13597	0.087889	0.074961	0.1175	0.27916	0.055441	0.080402	-2.2354	-3.0958	-2.4917	-3.225	-2.7333	-2.6125	-3.3667	-2.6	-3.0229	-3.0354	-2.4104	-3.1542	-2.8479	-2.7479	-3.1375	-2.5354	347.918	102.137	77.000	344.064	310.002	270.202	346.296	170.875	272.954	260.083	308.377	70.801	68.973	59.041	112.850	291.368	0.00037401	0.00051924	0.00016902	1328.5	5.0188e-06	5.0396e-06	1333.8	360.85	5.0748e-06	5.3231e-06	412.03	137.47	118.68	40.919	4.9095e-06	50.751	0.00050965	0.00054548	0.0001605	1362.1	6.1129e-06	6.2941e-06	1363.9	370.46	5.912e-06	6.1364e-06	423.49	141.97	122.84	42.489	5.982e-06	52.655	212.907	140.570	129.061	62.245	208.168	193.423	61.719	66.318	222.639	190.676	65.977	70.606	71.282	75.234	217.189	74.647	-8191	255	
766.541	1	1	0	0	0.10726	0.06419	0.27835	0.28565	0.14691	0.1026	0.024407	0.14474	0.24057	0.10762	0.11417	0.17148	0.13627	0.089277	0.067602	0.062147	-2.3312	-3.1437	-2.4417	-3.2104	-2.7	-2.6542	-3.2729	-2.7167	-2.6979	-3.0375	-2.7375	-3.0292	-3.0875	-2.6063	-2.8854	-2.8021	92.272	56.729	89.546	391.896	161.470	391.148	204.287	75.244	175.235	57.933	149.880	403.090	361.494	377.267	247.737	116.665	0.00040889	0.00060555	0.00014244	1332.4	6.2726e-06	5.7117e-06	1339.6	360.63	3.8111e-06	6.3158e-06	414.46	137.59	119.75	41.046	4.5409e-06	50.836	0.00053096	0.00054864	0.00015663	1363.8	5.9251e-06	6.0025e-06	1363.7	370.26	5.8754e-06	6.1929e-06	424.53	141.85	122.94	42.518	5.9188e-06	52.63	211.162	137.750	125.602	61.886	218.918	194.399	61.742	66.512	241.465	223.146	65.455	70.327	70.775	74.927	224.710	74.257	-8191	255	
766.637	1	1	0	0	0.24564	0.13533	0.011277	0.27607	0.11359	0.08728	0.19864	0.082757	0.28692	0.067066	0.2257	0.12344	0.14939	0.19348	0.09236	0.18895	-2.4979	-3.1188	-2.5167	-3.0729	-2.9833	-2.6083	-3.3896	-2.8312	-2.7333	-3.2729	-2.4708	-2.9896	-2.9688	-2.8458	-3.2229	-2.7562	236.968	241.674	352.618	374.152	226.453	156.276	346.074	58.347	133.559	181.095	401.703	356.906	108.831	377.171	234.487	384.271	0.00038883	0.00061985	0.00016167	1338.7	5.7432e-06	4.6688e-06	1339.5	362.32	4.6107e-06	5.0089e-06	412.92	137.69	119.37	41.076	4.738e-06	51.018	0.00051737	0.00055292	0.00015311	1362.9	5.8139e-06	6.1375e-06	1363.7	370.22	5.6676e-06	5.722e-06	422.89	141.74	122.93	42.462	5.5985e-06	52.628	214.216	130.702	156.946	61.551	219.089	200.877	61.698	66.442	227.416	197.804	65.515	70.328	70.419	75.009	204.744	74.233	-8191	255	
766.733	1	1	0	0	0.13201	0.064795	0.2886	0.30104	0.10915	0.11823	0.14934	0.25862	0.050446	0.16192	0.22706	0.12561	0.095505	0.22576	0.12065	0.21176	-2.2542	-3.2062	-2.5542	-3.175	-3.2333	-2.7292	-3.3354	-3.0708	-2.6063	-3.2542	-2.7375	-2.9333	-3.1437	-2.4813	-3.1146	-3.0125	144.017	201.677	119.004	392.163	195.490	164.251	293.084	392.628	240.475	274.613	367.378	99.850	395.914	50.043	133.370	254.450	0.00039352	0.00053917	0.00012544	1338	5.1403e-06	5.0574e-06	1340.7	361.34	5.3046e-06	5.0307e-06	416.16	138.1	119.92	41.055	4.3475e-06	51.515	0.00049975	0.00053387	0.00014902	1360.8	5.4531e-06	5.9019e-06	1361.1	369.98	5.7149e-06	5.7834e-06	423.78	141.67	123.11	42.494	5.6224e-06	52.816	213.927	119.578	132.798	61.319	207.996	204.706	61.342	66.375	234.536	217.988	65.597	70.367	70.559	75.011	229.110	74.100	-8191	255	
766.830	1	1	0	0	0.13021	0.10321	0.19044	0.18631	0.11916	0.1591	0.25123	0.46906	0.2387	0.16711	0.081212	0.24843	0.37587	0.18229	0.046456	0.32202	-2.0396	-3.1042	-2.6979	-3.0312	-3.2021	-2.5625	-3.2854	-3.0542	-2.4646	-3.1458	-2.9625	-2.7396	-3.2625	-2.7	-3	-3.175	169.714	131.879	402.732	393.109	68.673	284.787	337.635	382.347	245.502	140.440	57.817	329.922	408.376	63.839	304.657	349.701	0.00039865	0.00038289	0.0001317	1338.9	6.9976e-06	4.4187e-06	1344.4	361.34	3.7247e-06	5.438e-06	412.77	138.02	119.88	41.351	5.7158e-06	51.305	0.00051945	0.00054688	0.00016088	1362.9	6.0054e-06	5.9194e-06	1365.3	370.46	5.9135e-06	5.8526e-06	423.88	141.76	123.08	42.588	5.7189e-06	52.784	210.566	140.403	130.893	61.181	213.226	195.864	61.358	66.441	223.683	186.942	65.652	70.620	70.832	74.907	223.696	74.045	-8191	255	
#DATA ENDS
