BOXY.EXE: ISS Imagent and Oximeter Data Acquisition Program Version 0.80
Ascii Record File

#ACQ INFORMATION
2  Detector Channels 
16  External MUX Channels 
1  Auxiliary Channels 
5000  Waveform (CCF) Frequency (Hz)
1  Waveforms Skipped 
30  Waveforms Averaged 
1  Cycles Averaged 
16  Acquisitions per Waveform 
10.0806  Updata Rate (Hz) 

#FILE INFORMATION
TRUE -- External MUX Channel results are PARSED.
FALSE -- AC DC and Phase are NOT grouped.
TRUE -- Companion Program Settings File CREATED.
FALSE -- AC data not excluded
FALSE -- DC data not excluded
FALSE -- Phase data not excluded
FALSE -- Auxillary Chn. data not excluded
Tab delimiters

#CALIBRATION STATE
TRUE -- Waveform Calibration Values APPLIED.


#AUX CALIBRATION VALUES
Val Type	aux-1	

Term	1.0000e+00	
Factor	0.0000e+00	


#WF CALIBRATION VALUES
A = Detector Channel
Val Type	A-AC1	A-AC2	A-AC3	A-AC4	A-AC5	A-AC6	A-AC7	A-AC8	A-AC9	A-AC10	A-AC11	A-AC12	A-AC13	A-AC14	A-AC15	A-AC16	A-DC1	A-DC2	A-DC3	A-DC4	A-DC5	A-DC6	A-DC7	A-DC8	A-DC9	A-DC10	A-DC11	A-DC12	A-DC13	A-DC14	A-DC15	A-DC16	A-Ph1	A-Ph2	A-Ph3	A-Ph4	A-Ph5	A-Ph6	A-Ph7	A-Ph8	A-Ph9	A-Ph10	A-Ph11	A-Ph12	A-Ph13	A-Ph14	A-Ph15	A-Ph16	

Term	0.00000e+00	0.00000e+00	0.00000e+00	0.00000e+00	0.00000e+00	0.00000e+00	0.00000e+00	0.00000e+00	0.00000e+00	0.00000e+00	0.00000e+00	0.00000e+00	0.00000e+00	0.00000e+00	0.00000e+00	0.00000e+00	0.00000e+00	0.00000e+00	0.00000e+00	0.00000e+00	0.00000e+00	0.00000e+00	0.00000e+00	0.00000e+00	0.00000e+00	0.00000e+00	0.00000e+00	0.00000e+00	0.00000e+00	0.00000e+00	0.00000e+00	0.00000e+00	0.00000e+00	0.00000e+00	0.00000e+00	0.00000e+00	0.00000e+00	0.00000e+00	0.00000e+00	0.00000e+00	0.00000e+00	0.00000e+00	0.00000e+00	0.00000e+00	0.00000e+00	0.00000e+00	0.00000e+00	0.00000e+00	
Factor	1.00000e+00	1.00000e+00	1.00000e+00	1.00000e+00	1.00000e+00	1.00000e+00	1.00000e+00	1.00000e+00	1.00000e+00	1.00000e+00	1.00000e+00	1.00000e+00	1.00000e+00	1.00000e+00	1.00000e+00	1.00000e+00	1.00000e+00	1.00000e+00	1.00000e+00	1.00000e+00	1.00000e+00	1.00000e+00	1.00000e+00	1.00000e+00	1.00000e+00	1.00000e+00	1.00000e+00	1.00000e+00	1.00000e+00	1.00000e+00	1.00000e+00	1.00000e+00	X	X	X	X	X	X	X	X	X	X	X	X	X	X	X	X	

B = Detector Channel
Val Type	B-AC1	B-AC2	B-AC3	B-AC4	B-AC5	B-AC6	B-AC7	B-AC8	B-AC9	B-AC10	B-AC11	B-AC12	B-AC13	B-AC14	B-AC15	B-AC16	B-DC1	B-DC2	B-DC3	B-DC4	B-DC5	B-DC6	B-DC7	B-DC8	B-DC9	B-DC10	B-DC11	B-DC12	B-DC13	B-DC14	B-DC15	B-DC16	B-Ph1	B-Ph2	B-Ph3	B-Ph4	B-Ph5	B-Ph6	B-Ph7	B-Ph8	B-Ph9	B-Ph10	B-Ph11	B-Ph12	B-Ph13	B-Ph14	B-Ph15	B-Ph16	

Term	0.00000e+00	0.00000e+00	0.00000e+00	0.00000e+00	0.00000e+00	0.00000e+00	0.00000e+00	0.00000e+00	0.00000e+00	0.00000e+00	0.00000e+00	0.00000e+00	0.00000e+00	0.00000e+00	0.00000e+00	0.00000e+00	0.00000e+00	0.00000e+00	0.00000e+00	0.00000e+00	0.00000e+00	0.00000e+00	0.00000e+00	0.00000e+00	0.00000e+00	0.00000e+00	0.00000e+00	0.00000e+00	0.00000e+00	0.00000e+00	0.00000e+00	0.00000e+00	-6.21754e+01	-1.29907e+02	-1.24308e+02	-1.80762e+02	-5.26411e+01	-6.17388e+01	-1.54848e+02	-1.62015e+02	-4.22166e+01	-7.04166e+01	-1.70366e+02	-1.69164e+02	-1.78724e+02	-1.75805e+02	-5.78430e+01	-1.48156e+02	
Factor	1.71954e-05	1.67617e-04	4.33893e-05	1.54313e-01	1.43465e-06	1.59009e-06	1.64624e-01	6.03797e-02	1.16268e-06	1.56915e-06	8.76266e-02	2.82588e-02	2.37562e-02	8.66378e-03	1.59200e-06	1.25101e-02	5.98073e-06	7.73180e-06	2.16888e-06	7.96205e-02	8.16941e-08	8.55453e-08	7.98241e-02	3.12165e-02	8.23015e-08	8.55736e-08	4.39271e-02	1.42219e-02	1.24740e-02	4.52282e-03	8.38410e-08	6.30525e-03	X	X	X	X	X	X	X	X	X	X	X	X	X	X	X	X	



#DISTANCE SETTINGS
A = Detector Channel
A-1	A-2	A-3	A-4	A-5	A-6	A-7	A-8	A-9	A-10	A-11	A-12	A-13	A-14	A-15	A-16	

2.5000e+00	3.0000e+00	2.5000e+00	3.0000e+00	2.0000e+00	3.0000e+00	1.5000e+00	3.0000e+00	3.0000e+00	3.0000e+00	3.0000e+00	3.0000e+00	3.0000e+00	3.0000e+00	1.5000e+00	3.0000e+00	

B = Detector Channel
B-1	B-2	B-3	B-4	B-5	B-6	B-7	B-8	B-9	B-10	B-11	B-12	B-13	B-14	B-15	B-16	

1.0000e+01	1.0000e+01	1.0000e+01	1.4400e+00	1.0000e+01	1.0000e+01	1.5100e+00	1.9400e+00	1.0000e+01	1.0000e+01	1.9900e+00	2.4900e+00	2.4100e+00	2.9000e+00	1.0000e+01	2.9800e+00	




#DATA BEGINS
time	group	step	mark	flag	A-AC1	A-AC2	A-AC3	A-AC4	A-AC5	A-AC6	A-AC7	A-AC8	A-AC9	A-AC10	A-AC11	A-AC12	A-AC13	A-AC14	A-AC15	A-AC16	A-DC1	A-DC2	A-DC3	A-DC4	A-DC5	A-DC6	A-DC7	A-DC8	A-DC9	A-DC10	A-DC11	A-DC12	A-DC13	A-DC14	A-DC15	A-DC16	A-Ph1	A-Ph2	A-Ph3	A-Ph4	A-Ph5	A-Ph6	A-Ph7	A-Ph8	A-Ph9	A-Ph10	A-Ph11	A-Ph12	A-Ph13	A-Ph14	A-Ph15	A-Ph16	B-AC1	B-AC2	B-AC3	B-AC4	B-AC5	B-AC6	B-AC7	B-AC8	B-AC9	B-AC10	B-AC11	B-AC12	B-AC13	B-AC14	B-AC15	B-AC16	B-DC1	B-DC2	B-DC3	B-DC4	B-DC5	B-DC6	B-DC7	B-DC8	B-DC9	B-DC10	B-DC11	B-DC12	B-DC13	B-DC14	B-DC15	B-DC16	B-Ph1	B-Ph2	B-Ph3	B-Ph4	B-Ph5	B-Ph6	B-Ph7	B-Ph8	B-Ph9	B-Ph10	B-Ph11	B-Ph12	B-Ph13	B-Ph14	B-Ph15	B-Ph16	aux-1	digaux	

479.346	1	1	0	256	0.16764	0.21026	0.10062	0.057062	0.16135	0.12339	0.38639	0.065921	0.1024	0.20758	0.20852	0.069687	0.21165	0.11215	0.0229	0.22823	-2.1542	-2.2292	-2.85	-2.5479	-2.2292	-2.75	-2.6417	-2.6229	-2.6458	-2.2479	-2.7042	-2.625	-2.3958	-2.6146	-2.4146	-2.4396	62.878	157.665	98.634	386.651	290.081	110.205	359.530	187.496	381.085	51.591	397.034	101.725	378.324	373.458	327.080	336.341	0.00044166	0.00059551	0.00011412	1452.6	6.6382e-06	4.0999e-06	1461.6	385.86	5.8724e-06	5.1412e-06	441.11	148.59	129.45	43.521	5.7247e-06	53.913	0.00029233	0.00022917	6.4926e-05	1465.2	2.5715e-06	2.5266e-06	1473	390.08	2.6184e-06	2.5335e-06	444.83	150.99	131.67	44.475	2.5654e-06	54.985	224.097	127.665	134.741	62.524	227.548	193.176	62.678	67.630	232.845	205.926	66.854	71.646	72.280	76.132	201.505	75.495	-8191	255	
479.466	1	1	0	0	0.21497	0.21971	0.18082	0.32473	0.15785	0.019723	0.17993	0.15898	0.16361	0.10822	0.12151	0.15145	0.28676	0.28055	0.2127	0.20197	-2.1562	-2.1875	-2.5	-2.5396	-2.3542	-2.7104	-2.3792	-2.4354	-2.7812	-2.2604	-2.6729	-2.65	-2.3625	-2.5625	-2.2521	-2.4958	409.813	135.158	338.932	387.842	272.259	83.381	98.616	85.494	327.196	211.380	391.775	404.779	352.325	76.206	143.840	333.961	0.00043437	0.00062036	0.00014287	1449.5	4.3306e-06	3.8469e-06	1462.2	383.79	4.1385e-06	6.283e-06	438.48	148.84	129.38	43.555	6.9763e-06	54.044	0.00029045	0.00023094	6.3376e-05	1465.8	2.686e-06	2.5172e-06	1471.4	389.83	2.6194e-06	2.4622e-06	444.32	151.31	131.71	44.589	2.6389e-06	55.02	224.984	141.728	135.892	62.538	242.302	187.928	62.646	67.808	233.429	197.239	66.757	71.668	72.278	76.061	215.252	75.585	-8191	255	
479.538	1	1	0	0	0.21579	0.28462	0.31976	0.30761	0.26689	0.11476	0.21042	0.29079	0.21854	0.22781	0.2646	0.11331	0.069254	0.15187	0.36195	0.2736	-2.1896	-2.2313	-2.2542	-2.5563	-2.3104	-2.7438	-2.6667	-2.375	-2.675	-2.4479	-2.8438	-2.7188	-2.2646	-2.7542	-2.4521	-2.4354	137.435	407.636	289.910	401.875	180.048	189.387	334.742	408.721	378.936	77.313	407.262	318.775	210.417	395.973	166.645	290.228	0.00043605	0.00046261	0.00014799	1453.2	5.5321e-06	4.6668e-06	1460.1	385.33	3.9969e-06	3.4741e-06	439.78	148.72	129.56	43.501	5.8847e-06	53.811	0.00029932	0.00022785	6.4104e-05	1465.5	2.7211e-06	2.4838e-06	1473.6	390.21	2.6244e-06	2.602e-06	445.57	151.19	131.76	44.384	2.9185e-06	54.801	222.011	133.967	139.384	62.772	218.304	212.435	62.799	67.626	241.660	207.310	66.850	71.850	72.238	76.208	213.044	75.594	-8191	255	
479.659	1	1	0	0	0.078327	0.20494	0.092872	0.080144	0.1445	0.23057	0.39136	0.052011	0.25949	0.16651	0.25021	0.31921	0.15794	0.30241	0.22779	0.33243	-2.3146	-2.3146	-2.6562	-2.8187	-2.1896	-2.3563	-2.6458	-2.5521	-2.5771	-2.3292	-2.4021	-2.7083	-2.4854	-2.8854	-2.7104	-2.2812	233.981	143.291	171.787	117.885	175.646	218.118	358.805	242.140	292.775	248.176	403.734	61.835	312.411	55.891	139.103	369.297	0.00042381	0.00069886	0.00018565	1457.6	3.5636e-06	4.9876e-06	1465	384.21	3.7917e-06	4.8972e-06	441.32	148.65	129.1	43.346	5.5079e-06	53.569	0.00031552	0.00026133	7.0236e-05	1469.3	2.9619e-06	2.72e-06	1474.6	389.13	2.8502e-06	2.6767e-06	445.16	150.77	131.15	44.368	2.9154e-06	54.741	221.658	124.648	129.655	62.652	236.829	195.026	62.651	67.485	248.315	183.871	66.925	71.628	72.419	75.994	225.071	75.413	-8191	255	
479.755	1	1	0	0	0.14727	0.3017	0.20408	0.015798	0.12982	0.061298	0.061114	0.38132	0.14194	0.20488	0.10786	0.19123	0.10213	0.048581	0.2136	0.14916	-2.0208	-2.4542	-2.4167	-2.8708	-2.425	-2.7375	-2.8563	-2.4292	-2.8063	-2.425	-2.5062	-2.7292	-2.3271	-2.5604	-2.8021	-2.525	338.987	58.505	152.358	191.005	377.926	191.878	338.402	65.427	68.915	226.397	337.687	409.076	229.064	380.914	322.428	334.934	0.00042623	0.00061998	0.00013713	1458.1	5.9832e-06	4.0667e-06	1470.9	386.32	4.7851e-06	4.6624e-06	441.21	148.57	129.47	43.55	7.3882e-06	54.42	0.00031477	0.00025281	7.0448e-05	1470.5	2.8986e-06	2.7027e-06	1478.9	390.11	2.8377e-06	2.6861e-06	446.49	151.11	131.68	44.51	2.7713e-06	55.169	219.899	130.225	148.120	62.683	228.281	200.726	62.786	67.548	234.572	193.526	67.048	71.605	72.283	76.153	218.635	75.624	-8191	255	
479.851	1	1	0	0	0.12016	0.12056	0.055904	0.3315	0.1381	0.30351	0.27778	0.12023	0.022689	0.27818	0.15752	0.32696	0.17932	0.19649	0.21591	0.27744	-2.3396	-2.1833	-2.2833	-2.9562	-2.2292	-2.4021	-2.8417	-2.5187	-2.4292	-2.375	-2.5771	-2.7313	-2.2708	-2.4	-2.8333	-2.4021	78.975	202.645	208.524	349.998	287.741	295.515	367.060	50.989	261.827	70.455	72.898	391.046	360.953	326.953	270.704	262.025	0.00042425	0.00059829	0.00013721	1458.4	4.5751e-06	4.1932e-06	1467.7	384.77	3.4066e-06	3.8702e-06	441.35	149.14	130.03	43.643	4.1312e-06	54.293	0.00030638	0.00024252	6.8948e-05	1471.2	2.732e-06	2.6779e-06	1476.4	390.3	2.7393e-06	2.6332e-06	446.95	151.61	132.26	44.687	2.7923e-06	55.175	226.625	128.319	143.830	62.449	215.129	173.222	62.858	67.589	227.842	191.395	66.785	71.632	72.164	76.213	215.748	75.497	-8191	255	
479.947	1	1	0	0	0.28377	0.16949	0.35803	0.27222	0.16519	0.059884	0.30216	0.27479	0.20123	0.36149	0.24656	0.083152	0.28494	0.18338	0.15069	0.26301	-2.1083	-2.5438	-2.1021	-2.75	-2.4771	-2.4604	-2.8	-2.35	-2.7313	-2.625	-2.35	-2.6125	-2.5042	-2.575	-2.6625	-2.2562	293.597	299.278	391.941	380.278	176.997	89.950	378.321	334.229	374.595	368.822	382.087	386.310	360.435	320.542	86.981	375.837	0.00042047	0.0004311	0.00015404	1457.5	6.1442e-06	4.5271e-06	1467.1	384.95	4.1615e-06	6.1966e-06	440.74	149.01	129.78	43.647	7.7293e-06	54.292	0.00030823	0.00024639	7.0403e-05	1472.5	2.942e-06	2.7344e-06	1477.6	390.87	2.826e-06	2.6856e-06	447.06	151.63	132.19	44.689	2.736e-06	55.331	219.664	155.537	129.778	62.601	224.175	196.268	62.905	67.574	223.923	206.568	67.042	71.743	71.936	76.164	215.815	75.535	-8191	255	
480.068	1	1	0	0	0.091265	0.071743	0.10359	0.33235	0.11477	0.13057	0.38026	0.22916	0.074198	0.22664	0.21997	0.061483	0.29314	0.1121	0.017395	0.41027	-1.9708	-2.5812	-2.2417	-2.7708	-2.4375	-2.4437	-2.7083	-2.3729	-2.5312	-2.5979	-2.4417	-2.8042	-2.6729	-2.5042	-2.5021	-2.3417	324.905	140.926	105.169	386.546	344.798	272.100	336.306	345.422	239.082	334.517	62.681	252.107	325.585	91.112	162.058	400.763	0.00043319	0.00067527	0.0001787	1459.9	5.91e-06	4.581e-06	1467.6	387.06	4.8664e-06	5.2953e-06	440.25	149.82	130.44	44.006	7.2056e-06	54.541	0.00030746	0.00023936	6.602e-05	1474.6	2.7613e-06	2.5803e-06	1478.1	391.96	2.6671e-06	2.5469e-06	446.82	152.24	132.56	44.988	2.6672e-06	55.324	223.816	130.955	150.053	62.530	222.006	211.000	62.738	67.584	239.205	174.000	66.683	71.564	72.246	76.147	215.658	75.340	-8191	255	
480.139	1	1	0	0	0.25342	0.12249	0.28586	0.16676	0.24764	0.025024	0.10898	0.22032	0.21386	0.057625	0.46088	0.085883	0.21331	0.14624	0.22389	0.16651	-2.2062	-2.5854	-2.2542	-2.8583	-2.5229	-2.1583	-2.8937	-2.4854	-2.3458	-2.6417	-2.2833	-2.6167	-2.4625	-2.4583	-2.8104	-2.3729	68.104	262.887	143.401	332.478	88.061	267.291	295.292	62.953	351.977	293.950	345.907	330.398	388.775	283.874	104.466	357.391	0.00045002	0.00055112	0.00016412	1456.9	5.6478e-06	6.4533e-06	1467.5	387.37	3.4153e-06	4.9422e-06	440.52	149.77	130.48	43.935	5.986e-06	54.648	0.00029808	0.00022905	6.5035e-05	1471.4	2.6687e-06	2.5346e-06	1477.2	391.7	2.5913e-06	2.4503e-06	446.4	152.26	132.7	44.979	2.5816e-06	55.331	223.365	143.986	162.484	62.732	224.343	207.989	62.970	67.498	224.738	194.147	66.816	71.603	72.195	75.945	204.204	75.286	-8191	255	
480.234	1	1	0	0	0.21392	0.28858	0.31314	0.44939	0.14416	0.026387	0.30156	0.28748	0.11971	0.1581	0.26483	0.22917	0.085724	0.30439	0.054284	0.043046	-2.0687	-2.5125	-2.1604	-2.7021	-2.4208	-2.35	-2.7042	-2.525	-2.6208	-2.6625	-2.375	-2.6437	-2.7146	-2.175	-2.4833	-2.5375	383.277	294.732	179.910	399.814	289.243	151.802	326.360	325.606	388.487	355.984	391.395	69.225	379.424	366.980	88.498	83.658	0.00045793	0.00067794	0.00016269	1454.4	6.3719e-06	5.0804e-06	1460.7	386.85	4.3998e-06	3.7906e-06	441.93	149.53	130.5	44.155	6.9376e-06	54.471	0.00029784	0.00023664	6.5586e-05	1469	2.7245e-06	2.3716e-06	1474.6	391.11	2.5339e-06	2.4221e-06	446.72	152.32	132.88	45.068	2.5044e-06	55.514	223.398	141.045	132.414	62.612	215.342	220.434	62.762	67.411	227.771	187.643	67.039	71.869	72.334	76.169	215.002	75.488	-8191	255	
480.330	1	1	0	0	0.23526	0.24282	0.36809	0.22653	0.24176	0.13982	0.29952	0.15987	0.36162	0.14193	0.15644	0.32376	0.062504	0.25771	0.19169	0.098574	-1.8813	-2.5438	-1.975	-2.65	-2.5896	-2.1167	-2.7083	-2.6167	-2.5333	-2.5646	-2.4542	-2.5646	-2.6021	-2.3458	-2.5062	-2.6688	362.472	368.360	349.950	381.930	78.580	304.896	310.530	303.151	69.758	212.612	362.447	52.941	70.361	361.581	377.669	324.856	0.00045178	0.00042283	0.00015015	1454	4.4416e-06	3.6911e-06	1463	385.48	3.8209e-06	4.4872e-06	441.92	150.13	130.52	43.911	5.0907e-06	54.33	0.00029818	0.00022105	6.3517e-05	1469.1	2.5856e-06	2.3919e-06	1473.6	390.69	2.4939e-06	2.3713e-06	446.19	152.36	132.71	44.928	2.4785e-06	55.404	224.501	136.115	144.862	62.456	220.235	201.118	62.850	67.591	237.476	187.478	66.743	71.569	72.350	76.098	220.015	75.387	-8191	255	
480.450	1	1	0	0	0.18021	0.21178	0.2865	0.4024	0.2755	0.080193	0.21973	0.24635	0.19303	0.046763	0.10659	0.11847	0.15094	0.093718	0.093563	0.22557	-1.775	-2.5958	-2.2375	-2.6188	-2.6021	-2.4479	-2.775	-2.5646	-2.4375	-2.7417	-2.2083	-2.5229	-2.6771	-2.1875	-2.6229	-2.9479	368.185	100.473	316.677	355.440	346.509	351.116	323.204	337.595	92.096	184.641	81.791	378.204	87.015	104.498	136.185	261.124	0.00043237	0.00061622	0.00014523	1454.4	7.2446e-06	4.894e-06	1467.6	385.89	4.6412e-06	5.787e-06	438.11	150.08	130.61	44.164	7.2806e-06	54.543	0.00029461	0.0002195	6.1339e-05	1466.6	2.6232e-06	2.3969e-06	1474.3	390.78	2.576e-06	2.4403e-06	445.52	152.43	132.7	45.054	2.5072e-06	55.462	224.370	132.349	140.110	62.617	203.177	200.912	62.766	67.294	237.534	188.247	67.128	71.703	72.102	76.081	217.693	75.412	-8191	255	
480.547	1	1	0	0	0.091849	0.034696	0.030421	0.38781	0.12575	0.24746	0.22324	0.093163	0.068525	0.072049	0.34497	0.3367	0.38074	0.19147	0.11622	0.14505	-1.7437	-2.525	-2.4104	-2.6146	-2.4583	-2.0708	-2.6958	-2.625	-2.1396	-2.8083	-2.4542	-2.3792	-2.8625	-2.5771	-2.5563	-2.5875	354.625	322.161	368.685	338.236	381.810	315.640	268.233	66.190	330.199	113.515	51.246	367.964	52.207	53.822	215.836	373.112	0.00044065	0.00065626	0.00013304	1449.7	7.2425e-06	4.3924e-06	1461.2	384.36	3.5989e-06	4.4237e-06	441.66	149.83	130.66	44.192	4.7597e-06	54.646	0.00029568	0.00021457	6.1809e-05	1465.5	2.5521e-06	2.447e-06	1471.6	389.62	2.4119e-06	2.3139e-06	446.21	152.34	132.92	45.064	2.3987e-06	55.571	223.669	142.017	128.820	62.589	220.434	195.474	62.919	67.599	227.799	201.221	67.036	71.811	72.160	76.254	229.778	75.508	-8191	255	
480.643	1	1	0	0	0.084226	0.15838	0.12951	0.277	0.066483	0.11552	0.1091	0.18446	0.17389	0.32148	0.015865	0.27925	0.15969	0.14543	0.18262	0.18402	-1.8979	-2.6562	-2.425	-2.8125	-2.5875	-2.3125	-2.7521	-2.7417	-2.0438	-2.4875	-2.5625	-2.4542	-2.5958	-2.5958	-2.3688	-2.6688	314.539	84.942	395.870	391.918	167.205	274.788	327.963	392.093	185.397	186.876	167.598	317.933	351.465	71.638	280.238	339.689	0.00043682	0.00058222	0.00014633	1453.1	3.7691e-06	5.9138e-06	1464.4	385.13	5.0121e-06	4.7203e-06	440.82	150.21	131	44.06	5.6652e-06	54.511	0.00029135	0.00021311	6.0485e-05	1465.4	2.4556e-06	2.4122e-06	1472.5	390.19	2.5426e-06	2.3529e-06	446.01	152.65	132.91	45.036	2.482e-06	55.487	225.963	140.826	152.772	62.800	224.308	207.657	62.579	67.545	222.527	185.295	66.595	71.734	72.043	76.170	227.318	75.148	-8191	255	
480.739	1	1	0	0	0.086395	0.21886	0.31371	0.089859	0.0567	0.21888	0.18945	0.36539	0.040838	0.10928	0.3742	0.15413	0.095616	0.24612	0.0585	0.14157	-1.8	-2.5479	-2.5667	-2.5938	-2.6521	-2.4458	-2.5271	-2.8604	-2.2438	-2.5542	-2.6896	-2.3271	-2.775	-2.4771	-2.5625	-2.7271	146.916	165.166	383.297	350.419	65.530	336.661	357.895	53.909	265.018	336.483	377.671	331.126	65.164	392.418	187.617	356.306	0.00044298	0.00061262	0.00015888	1453.8	4.73e-06	5.653e-06	1459.8	384.98	4.9804e-06	4.4481e-06	438.84	149.73	130.48	44.033	7.0708e-06	54.331	0.00028168	0.00021655	5.9617e-05	1466.6	2.498e-06	2.3564e-06	1470.7	390.15	2.4336e-06	2.3492e-06	444.67	152.33	132.47	44.96	2.5212e-06	55.299	222.610	142.314	133.638	62.699	220.607	196.532	62.738	67.642	242.313	196.857	66.999	71.513	71.955	76.050	216.712	75.522	-8191	255	
480.833	1	1	0	0	0.13049	0.13273	0.15768	0.03764	0.25038	0.28403	0.17489	0.25036	0.027466	0.19516	0.01393	0.14428	0.09126	0.17177	0.1255	0.10929	-1.7979	-2.6167	-2.7562	-2.4854	-2.7271	-2.6146	-2.6729	-2.7521	-2.2229	-2.5396	-2.7562	-2.2729	-2.8063	-2.6146	-2.3979	-2.7562	401.262	174.263	85.860	381.381	376.572	81.915	325.680	347.059	318.779	310.591	147.734	126.874	173.961	330.094	168.226	326.388	0.00040236	0.00024708	0.00014615	1449	6.6436e-06	4.3618e-06	1462.1	383.97	5.5065e-06	2.3339e-06	437.46	149.64	129.97	43.877	5.6711e-06	54.251	0.00028305	0.00021583	6.0367e-05	1463.8	2.531e-06	2.3739e-06	1471.3	389.5	2.5191e-06	2.2809e-06	444.19	151.73	132.13	44.751	2.4798e-06	55.297	228.118	105.010	143.633	62.651	211.702	202.861	62.784	67.697	225.714	199.675	66.921	71.508	72.215	76.203	212.374	75.440	-8191	255	
480.929	1	1	0	0	0.25702	0.1733	0.22201	0.35259	0.31985	0.08994	0.33577	0.47387	0.046296	0.085021	0.30973	0.20238	0.25654	0.31483	0.13921	0.25452	-1.7687	-2.475	-2.5375	-2.4	-2.8312	-2.3375	-2.4625	-2.9313	-2.3396	-2.3292	-2.5708	-2.4021	-2.5708	-2.7396	-2.3417	-2.7708	217.390	84.816	123.176	400.113	161.864	398.712	308.650	368.429	101.398	364.890	393.662	153.478	64.602	55.780	61.172	303.156	0.00041234	0.00064923	0.00013907	1448.9	4.5868e-06	7.3019e-06	1463.3	383.53	4.7949e-06	4.4827e-06	438.08	148.23	129.87	43.699	5.0045e-06	54.207	0.00028614	0.00022549	5.9753e-05	1463.1	2.5489e-06	2.3726e-06	1470.5	389.05	2.6306e-06	2.4734e-06	444.22	151.46	132.04	44.669	2.5416e-06	55.032	224.479	146.061	139.823	62.686	228.943	208.774	62.915	67.597	243.423	200.655	66.954	71.523	72.203	76.279	193.956	75.420	-8191	255	
481.050	1	1	0	0	0.15154	0.036535	0.20688	0.19132	0.081797	0.31198	0.23143	0.27637	0.43392	0.38814	0.26224	0.18415	0.37848	0.14867	0.086459	0.051973	-2.1063	-2.4646	-2.5583	-2.35	-2.6333	-2.4042	-2.4167	-2.7542	-2.2854	-2.3438	-2.6208	-2.3875	-2.5229	-2.6208	-2.025	-2.7104	125.458	209.502	206.317	310.784	237.058	63.333	393.989	326.162	151.870	275.712	353.411	71.059	341.957	406.335	84.532	320.573	0.00042965	0.00066969	0.00011689	1442.4	6.7009e-06	3.8374e-06	1452.5	381.82	5.0035e-06	4.7613e-06	437.64	148.75	129.68	43.583	5.2539e-06	54.324	0.00029238	0.00022371	6.0656e-05	1460.1	2.6367e-06	2.3717e-06	1464.4	387.97	2.5092e-06	2.4064e-06	443.97	151.38	131.81	44.679	2.5271e-06	55.161	222.539	149.242	139.886	62.725	217.114	198.387	62.909	67.526	230.531	188.659	66.967	71.733	72.340	75.905	235.319	75.738	-8191	255	
481.146	1	1	0	0	0.21237	0.42916	0.012706	0.16483	0.10945	0.13345	0.14573	0.25844	0.11266	0.2577	0.062182	0.4107	0.28375	0.30477	0.15032	0.3648	-2.0438	-2.4292	-2.5438	-2.6375	-2.4708	-2.7354	-2.2583	-2.6854	-2.5104	-2.4042	-2.8458	-2.1521	-2.4271	-2.9146	-2.2313	-2.6188	166.496	208.556	317.697	380.104	111.220	361.598	361.930	354.874	167.062	51.776	263.012	400.622	362.104	83.753	251.719	307.955	0.00042846	0.00064934	0.00014273	1445.6	6.2714e-06	5.1492e-06	1454.4	386	4.7945e-06	7.4814e-06	441.71	150.68	130.91	44.426	6.03e-06	54.888	0.00028412	0.00021915	6.1257e-05	1461.1	2.54e-06	2.2652e-06	1467.2	390.65	2.4459e-06	2.4082e-06	446.58	153.07	133.29	45.331	2.5053e-06	55.876	224.110	140.617	138.717	62.581	206.588	192.160	62.827	67.616	221.048	184.574	66.917	71.457	72.179	75.940	216.492	75.334	-8191	255	
481.242	1	1	0	0	0.23961	0.16561	0.28975	0.26962	0.2125	0.040653	0.34724	0.30445	0.090607	0.10183	0.018783	0.24791	0.21169	0.2591	0.11552	0.18848	-2.1396	-2.1729	-2.5646	-2.4396	-2.5729	-2.8271	-2.6104	-2.6604	-2.575	-2.1146	-2.8208	-2.4875	-2.5854	-2.6542	-2.2417	-2.6417	169.432	99.215	134.083	313.922	233.011	397.602	374.874	351.777	376.166	267.977	299.386	54.697	52.031	350.263	219.168	286.636	0.00043077	0.000556	0.00016125	1457.6	5.4116e-06	4.0913e-06	1459.4	386.46	4.7603e-06	4.9864e-06	440.92	150.51	130.7	44.107	5.569e-06	54.47	0.00028724	0.00022123	6.0223e-05	1467.2	2.5763e-06	2.2065e-06	1471.5	391.44	2.4749e-06	2.3936e-06	446.07	152.85	132.83	45.064	2.5388e-06	55.504	224.147	134.766	134.964	62.761	226.724	222.107	62.844	67.777	231.559	218.401	66.906	71.685	72.160	75.877	215.314	75.648	-8191	255	
481.339	1	1	0	0	0.1528	0.16479	0.10235	0.35829	0.27578	0.21971	0.57811	0.21395	0.1988	0.083174	0.2231	0.18277	0.081114	0.17882	0.15845	0.28902	-2.4104	-2.2792	-2.7729	-2.4604	-2.4562	-2.8937	-2.4188	-2.5708	-2.6479	-2.2104	-2.6292	-2.3583	-2.3417	-2.975	-2.1854	-2.4188	244.753	72.098	66.743	58.936	304.235	93.023	384.588	303.736	120.927	202.310	344.693	363.912	54.390	337.434	246.851	69.792	0.0004228	0.00066065	0.00018757	1450.7	5.1086e-06	3.5072e-06	1456.5	384.88	5.6383e-06	5.491e-06	439.87	150.03	130.4	43.817	5.9552e-06	54.137	0.00029112	0.00022558	6.1095e-05	1464	2.5826e-06	2.342e-06	1468.7	390.15	2.6306e-06	2.4711e-06	445.31	152.16	132.55	44.807	2.6391e-06	55.282	220.166	128.614	140.079	62.838	218.165	206.564	62.850	67.592	239.241	201.719	66.872	71.677	72.045	76.103	216.053	75.429	-8191	255	
481.435	1	1	0	0	0.20383	0.080868	0.20809	0.42057	0.1545	0.14982	0.30192	0.4132	0.16764	0.20594	0.22974	0.40203	0.45955	0.18219	0.10487	0.16764	-1.9333	-2.1854	-2.5604	-2.6875	-2.1937	-2.475	-2.4229	-2.5417	-2.7062	-2.1437	-2.6021	-2.4667	-2.4604	-2.8021	-2.2687	-2.3688	332.677	342.774	56.260	387.586	368.356	119.069	355.780	304.971	205.552	75.745	374.795	342.518	387.790	400.665	135.212	322.828	0.00044596	0.00066488	0.00017361	1446.7	5.4443e-06	4.5813e-06	1460.2	383.8	3.9795e-06	5.0907e-06	439.81	149.23	130.04	43.716	6.5216e-06	54.329	0.00029323	0.00022873	6.2925e-05	1459.7	2.5916e-06	2.453e-06	1469.7	389.06	2.5311e-06	2.5298e-06	444.21	151.79	132.23	44.729	2.499e-06	55.28	222.145	139.141	133.941	62.668	221.563	195.687	62.743	67.713	239.178	213.555	66.908	71.606	72.174	76.193	226.615	75.381	-8191	255	
481.531	1	1	0	0	0.081538	0.16905	0.16696	0.34252	0.2781	0.29062	0.39616	0.26118	0.16546	0.1372	0.26364	0.17743	0.28326	0.2393	0.29141	0.0851	-2.0854	-2.2	-2.6542	-2.8063	-2.3	-2.6458	-2.5521	-2.5729	-2.6417	-2.2604	-2.6229	-2.7896	-2.4125	-2.5729	-2.5271	-2.7062	267.860	89.679	200.823	359.891	235.539	74.471	331.061	405.164	111.086	376.808	245.439	343.179	66.163	342.508	280.115	155.771	0.00042492	0.00072594	0.00013799	1445.4	6.6002e-06	5.6211e-06	1455.5	383.04	5.1168e-06	4.7573e-06	439.02	149.8	129.75	43.881	6.877e-06	54.103	0.00028988	0.00023021	6.2138e-05	1460.4	2.6334e-06	2.401e-06	1467.9	388.75	2.5459e-06	2.4847e-06	444.28	151.99	132.18	44.852	2.5779e-06	55.192	226.158	152.086	152.819	62.761	236.906	188.977	62.607	67.787	224.978	198.200	67.009	71.700	72.238	76.174	197.110	75.411	-8191	255	
481.650	1	1	0	0	0.23607	0.17878	0.19262	0.18951	0.24183	0.11546	0.28291	0.43883	0.22885	0.15308	0.088369	0.31857	0.076803	0.16645	0.13041	0.18525	-2.1	-2.2083	-2.4813	-2.8896	-2.1437	-2.6625	-2.7438	-2.4896	-2.5396	-2.3708	-2.6208	-2.65	-2.5083	-2.675	-2.3792	-2.2188	55.281	339.616	101.318	318.103	358.971	393.124	324.535	320.175	323.663	190.206	350.637	347.666	361.323	355.866	340.933	380.798	0.00043893	0.00067435	0.00013187	1448.1	5.5301e-06	4.298e-06	1460	384.33	3.999e-06	5.0788e-06	438.66	149.27	130.11	43.835	5.7126e-06	54.392	0.00029202	0.00023432	6.1357e-05	1462.3	2.6745e-06	2.4412e-06	1468.9	389.44	2.5472e-06	2.5207e-06	444.15	151.97	132.49	44.857	2.5594e-06	55.331	222.149	141.732	135.359	62.710	223.851	225.405	62.906	67.717	241.174	178.589	67.022	71.622	72.192	76.243	210.566	75.387	-8191	255	
481.746	1	1	0	0	0.19117	0.23358	0.14048	0.16331	0.12258	0.10435	0.37703	0.38722	0.12517	0.075403	0.053175	0.059007	0.20187	0.2546	0.28647	0.38164	-2.1937	-2.3792	-2.3083	-2.7396	-2.3604	-2.5938	-2.7146	-2.6813	-2.7146	-2.3438	-2.3688	-2.8854	-2.5687	-2.6396	-2.4542	-2.2812	326.128	156.924	327.927	383.680	322.913	125.534	295.352	388.356	75.076	289.252	346.046	223.318	297.690	327.750	98.719	382.139	0.00041699	0.00055943	0.00017327	1449.3	4.8486e-06	5.5579e-06	1459.7	385.18	5.0872e-06	7.0923e-06	437.05	148.52	129.47	43.649	6.126e-06	54.094	0.00029257	0.0002325	6.5997e-05	1461.9	2.7039e-06	2.4172e-06	1468.9	389.33	2.6496e-06	2.5488e-06	444.38	151.37	131.87	44.603	2.6468e-06	55.078	221.050	124.210	136.130	62.892	238.428	197.014	62.853	67.462	222.858	202.978	66.633	71.597	72.074	76.140	204.184	75.353	-8191	255	
481.842	1	1	0	0	0.12099	0.19871	0.14623	0.25406	0.17159	0.045016	0.26868	0.21553	0.023064	0.093042	0.3027	0.1474	0.22408	0.19273	0.13822	0.15561	-2.1562	-2.6146	-2.2271	-2.8646	-2.125	-2.6688	-2.9625	-2.3021	-2.6396	-2.4271	-2.6292	-2.6729	-2.4542	-2.5167	-2.5271	-2.2979	250.048	152.252	76.040	369.950	209.841	329.986	326.651	283.437	264.905	158.276	359.650	86.381	123.964	173.321	186.380	65.970	0.00044547	0.00047597	0.00013188	1447.6	5.4182e-06	4.1692e-06	1457.4	383.02	5.3305e-06	4.719e-06	437.71	148.68	129.44	43.716	6.5627e-06	54.353	0.00029405	0.00023292	6.6878e-05	1461.7	2.7058e-06	2.4553e-06	1465.6	388.8	2.6842e-06	2.505e-06	443.47	151.5	131.91	44.672	2.6109e-06	55.142	224.540	166.796	140.600	62.799	215.290	194.247	62.856	67.446	231.200	211.808	67.138	71.407	72.282	76.236	209.220	75.564	-8191	255	
481.938	1	1	0	0	0.067745	0.12374	0.12671	0.11517	0.039617	0.22058	0.0499	0.018393	0.31669	0.091806	0.15194	0.098049	0.18516	0.10337	0.094312	0.33336	-2.125	-2.4375	-2.2708	-2.875	-2.3208	-2.5208	-2.9437	-2.1417	-2.4562	-2.5333	-2.2375	-2.7	-2.4833	-2.3542	-2.5708	-2.5042	371.826	124.023	307.795	405.388	350.461	342.521	342.449	243.805	370.266	332.298	295.118	292.020	390.740	390.419	98.607	378.684	0.00041836	0.00048682	0.00011298	1448.8	6.5571e-06	4.1333e-06	1460.3	382.34	5.7417e-06	2.5312e-06	441.21	149.92	130.39	43.988	5.5323e-06	54.422	0.00029697	0.000236	6.6729e-05	1463.3	2.6625e-06	2.504e-06	1472.1	388.48	2.6733e-06	2.4961e-06	445.92	152.2	132.49	44.955	2.6108e-06	55.35	223.275	124.642	151.831	62.739	213.009	213.691	62.674	67.606	239.201	168.424	67.108	71.836	72.281	76.096	213.794	75.679	-8191	255	
482.010	1	1	0	0	0.11108	0.14226	0.093698	0.12061	0.29548	0.25398	0.26795	0.0491	0.2928	0.16131	0.2653	0.27237	0.14767	0.33975	0.29184	0.19522	-1.9917	-2.4271	-2.3167	-2.825	-2.3083	-2.3958	-2.9771	-2.4417	-2.5854	-2.4562	-2.3646	-2.8958	-2.5396	-2.3312	-2.6292	-2.2542	245.520	75.666	341.842	74.294	189.079	372.805	293.514	300.894	184.938	61.728	311.603	386.312	386.601	55.896	268.003	398.868	0.00042591	0.00056067	0.00011328	1448.5	6.9746e-06	4.3145e-06	1462.5	386.37	3.0905e-06	3.407e-06	440.35	150.65	130.56	43.905	4.9363e-06	54.526	0.00029306	0.00021991	6.4506e-05	1462.8	2.6086e-06	2.425e-06	1470.9	390.29	2.5282e-06	2.4189e-06	445.03	152.57	132.7	44.986	2.5458e-06	55.428	222.659	153.509	130.391	62.612	232.766	193.816	62.801	67.673	215.085	205.523	66.980	71.567	72.423	76.147	226.254	75.510	-8191	255	
482.130	1	1	0	0	0.14422	0.19355	0.16915	0.1576	0.20023	0.26658	0.098004	0.17844	0.10508	0.12063	0.17635	0.17017	0.20799	0.16521	0.23584	0.37796	-2.1354	-2.4792	-2.0542	-2.9167	-2.5208	-2.2188	-2.7917	-2.4625	-2.5583	-2.6792	-2.3583	-2.8688	-2.8063	-2.2729	-2.6479	-2.4833	147.440	246.182	272.000	251.682	173.543	110.470	285.075	298.497	79.423	55.713	386.692	49.797	159.239	382.462	353.970	232.463	0.00041492	0.00070496	0.00013885	1452.2	6.1063e-06	6.3646e-06	1458.3	385.56	4.8564e-06	4.5049e-06	438.69	149.85	130.25	43.747	4.6331e-06	54.415	0.00029255	0.0002281	6.2735e-05	1464.9	2.6135e-06	2.4316e-06	1469.6	390.52	2.5009e-06	2.4091e-06	444.77	152.32	132.64	44.883	2.4677e-06	55.239	225.980	142.040	143.509	62.722	242.926	212.773	62.806	67.704	233.845	186.089	66.880	71.626	72.323	76.282	203.136	75.636	-8191	255	
482.227	1	1	0	0	0.11461	0.2868	0.22042	0.068782	0.19787	0.11502	0.3531	0.35553	0.14389	0.22887	0.33014	0.08227	0.30979	0.14724	0.19438	0.20685	-2.0187	-2.6813	-2.0542	-2.5667	-2.475	-2.1375	-2.7458	-2.3583	-2.4396	-2.6875	-2.2938	-2.5563	-2.6396	-2.4354	-2.4979	-2.5875	235.874	55.387	123.826	285.125	69.276	106.830	360.679	348.076	207.114	108.021	377.142	343.134	49.790	320.210	286.075	371.658	0.00042809	0.00051318	0.00014819	1445.4	5.739e-06	5.8375e-06	1462	383.25	4.3613e-06	5.4252e-06	438.41	149.25	129.74	43.706	4.2961e-06	53.806	0.00029136	0.0002191	6.4664e-05	1460.7	2.5788e-06	2.37e-06	1469.6	389.21	2.5657e-06	2.415e-06	443.68	151.78	131.75	44.711	2.5592e-06	55.021	226.223	153.080	124.836	62.766	209.901	204.671	62.731	67.757	219.026	208.033	66.904	71.718	72.169	76.118	212.657	75.772	-8191	255	
482.323	1	1	0	0	0.14146	0.083543	0.10014	0.17181	0.13523	0.034113	0.36738	0.28091	0.36393	0.16238	0.163	0.17405	0.060561	0.099733	0.27665	0.1902	-1.7625	-2.7083	-2.2812	-2.7229	-2.4562	-2.2875	-2.6813	-2.475	-2.2812	-2.7875	-2.3688	-2.725	-2.7271	-2.1063	-2.5229	-2.6562	249.856	391.142	408.487	321.515	220.808	98.895	383.344	381.266	234.307	344.277	62.704	345.581	171.934	302.607	372.516	70.180	0.00040888	0.00041296	0.00015316	1445.1	5.3632e-06	6.7889e-06	1452.3	382.58	3.4283e-06	4.5946e-06	436.76	148.87	129.46	43.63	5.4771e-06	53.837	0.00028817	0.00022479	6.3905e-05	1459.7	2.6013e-06	2.3837e-06	1465.3	387.49	2.5795e-06	2.4741e-06	442.87	151.23	131.65	44.534	2.51e-06	54.903	222.512	128.462	135.557	62.759	237.491	194.335	62.896	67.760	227.715	225.058	66.888	71.821	72.210	76.087	211.165	75.346	-8191	255	
482.419	1	1	0	0	0.13123	0.14755	0.16847	0.095416	0.33361	0.040685	0.32871	0.10189	0.042043	0.13785	0.22679	0.11694	0.21596	0.30527	0.11225	0.17652	-1.5875	-2.6792	-2.4562	-2.4333	-2.6896	-2.1312	-2.7896	-2.6	-2.0104	-2.75	-2.4479	-2.5354	-2.6	-2.3208	-2.7083	-2.7208	402.627	371.103	364.342	406.115	90.952	355.939	348.580	239.186	252.736	343.858	356.722	294.846	72.745	364.825	175.351	165.305	0.00043255	0.00066674	0.00016388	1448.4	5.8039e-06	6.3602e-06	1454.6	383.98	4.5262e-06	4.2314e-06	436.29	148.93	129.75	43.697	5.2614e-06	54	0.00028927	0.00022509	6.0476e-05	1459.5	2.5805e-06	2.4004e-06	1464.9	387.77	2.5573e-06	2.3991e-06	442.64	151.33	131.79	44.551	2.573e-06	54.957	224.864	134.422	169.481	62.817	238.252	202.661	62.726	67.660	223.784	199.286	66.911	71.856	72.188	75.915	236.170	75.406	-8191	255	
482.538	1	1	0	0	0.039195	0.20818	0.074149	0.29726	0.37321	0.083342	0.11012	0.33762	0.15426	0.16612	0.20487	0.09343	0.21853	0.099925	0.014517	0.30523	-1.7083	-2.6896	-2.1479	-2.5062	-2.6292	-2.2812	-2.65	-2.6562	-2.1625	-2.4208	-2.5729	-2.6188	-2.7854	-2.3688	-2.5854	-2.7021	149.873	352.229	133.691	367.887	193.101	315.632	179.187	382.067	356.419	210.541	335.057	303.178	354.882	399.778	240.932	112.605	0.00042771	0.00060795	0.00013912	1441.6	6.2254e-06	5.3789e-06	1452.6	382.43	3.9963e-06	4.3374e-06	437.48	148.5	129.71	43.556	6.8116e-06	53.979	0.00029453	0.00022016	6.3042e-05	1458.8	2.5499e-06	2.3981e-06	1463.4	387.56	2.5575e-06	2.4563e-06	443.1	151.26	131.72	44.477	2.4581e-06	54.938	224.015	135.859	137.052	62.658	222.774	215.834	62.800	67.579	223.179	209.512	66.664	71.670	72.163	76.260	216.723	75.256	-8191	255	
482.634	1	1	0	0	0.026883	0.075902	0.049763	0.24885	0.28117	0.16276	0.36224	0.096956	0.20909	0.1015	0.15504	0.25982	0.40831	0.2003	0.12058	0.082398	-1.7188	-2.6271	-2.4229	-2.5833	-2.4396	-2.425	-2.6042	-2.6708	-2.3583	-2.6937	-2.4021	-2.2521	-2.8229	-2.4354	-2.5	-2.9979	159.501	326.649	351.463	333.592	350.462	204.528	373.162	396.560	138.228	391.346	402.088	393.284	409.008	402.593	283.459	359.374	0.00044407	0.00063718	0.00019159	1447.4	7.3849e-06	6.6243e-06	1453.1	381.23	3.9647e-06	6.8223e-06	439.45	148.63	129.57	43.647	5.9795e-06	53.968	0.00028973	0.00022371	6.1325e-05	1458	2.6132e-06	2.4158e-06	1462.9	386.91	2.5505e-06	2.421e-06	443.31	151.25	131.59	44.588	2.535e-06	54.889	224.331	132.586	159.297	62.656	212.423	209.894	62.902	67.631	217.697	186.951	67.013	71.538	72.027	75.958	212.039	75.273	-8191	255	
482.730	1	1	0	0	0.22415	0.31516	0.20685	0.22342	0.1597	0.27299	0.15027	0.16276	0.26088	0.094322	0.34434	0.22834	0.23688	0.16339	0.14328	0.30529	-1.575	-2.5708	-2.4688	-2.4354	-2.65	-2.5625	-2.6208	-2.6625	-1.9625	-2.6188	-2.6896	-2.1729	-2.6083	-2.5667	-2.5083	-2.6729	244.702	367.331	174.098	364.231	165.207	366.924	400.984	235.791	372.717	380.486	84.173	395.211	370.095	169.740	248.952	79.890	0.00043317	0.00046688	0.00013396	1439.6	5.2713e-06	5.3024e-06	1450.7	381.37	4.0427e-06	4.8097e-06	436.97	149.24	129.2	43.695	6.288e-06	54.186	0.00029116	0.00021262	6.3187e-05	1455.5	2.522e-06	2.4395e-06	1461	386.67	2.5243e-06	2.4196e-06	442.92	151.35	131.66	44.587	2.5937e-06	55.022	220.740	135.379	136.252	62.736	217.321	214.938	62.893	67.486	230.013	196.225	67.028	71.914	72.130	76.163	210.340	75.419	-8191	255	
482.826	1	1	0	0	0.11552	0.30161	0.19839	0.1715	0.11237	0.20498	0.16452	0.22773	0.037801	0.18359	0.069334	0.14335	0.24808	0.02485	0.16149	0.23886	-1.7917	-2.5083	-2.6042	-2.2208	-2.5812	-2.6271	-2.6229	-2.7062	-2.2479	-2.4958	-2.6229	-2.3812	-2.8625	-2.5146	-2.1437	-2.7667	104.470	183.377	114.992	247.774	265.441	91.490	299.435	362.509	409.169	256.243	58.117	399.479	344.197	157.004	285.237	352.839	0.00043071	0.00045327	0.0001443	1448.7	4.8032e-06	4.5262e-06	1448.1	381.58	4.1642e-06	6.2405e-06	436.03	148.71	129.32	43.387	6.3532e-06	53.661	0.00029174	0.00022509	6.0805e-05	1457.9	2.4299e-06	2.4151e-06	1460.9	386.72	2.5519e-06	2.3718e-06	441.87	151.06	131.37	44.4	2.5268e-06	54.717	223.525	127.463	123.024	62.704	212.184	203.534	62.894	67.652	241.452	201.885	66.793	71.604	72.065	76.093	218.273	75.712	-8191	255	
482.922	1	1	0	0	0.11108	0.34969	0.20527	0.1213	0.064368	0.096821	0.11502	0.03721	0.19474	0.11491	0.029799	0.19093	0.13848	0.30062	0.2356	0.20952	-2.0083	-2.6188	-2.4979	-2.2771	-2.575	-2.5771	-2.4188	-2.8125	-2.3604	-2.3646	-2.7208	-2.3458	-2.5729	-2.6917	-2.2687	-2.5542	166.385	136.466	156.276	320.951	185.112	393.523	348.143	342.769	174.814	341.087	206.242	311.736	340.866	346.868	67.906	103.427	0.00041582	0.00041318	0.00014732	1439.1	5.8046e-06	5.2617e-06	1451	380.73	4.532e-06	5.0626e-06	437.13	147.75	128.54	43.335	5.66e-06	53.591	0.00028649	0.00022221	6.2694e-05	1454.4	2.5795e-06	2.44e-06	1460.9	386.22	2.5232e-06	2.4838e-06	441.78	150.5	130.64	44.277	2.4766e-06	54.737	222.078	124.706	137.054	62.650	222.748	210.959	62.887	67.648	233.228	220.098	66.957	71.681	72.208	76.080	211.018	75.393	-8191	255	
483.019	1	1	0	0	0.033617	0.32335	0.22643	0.46534	0.16362	0.11364	0.16257	0.12103	0.023024	0.095847	0.16675	0.15849	0.18963	0.19728	0.13708	0.13047	-1.7812	-2.2958	-2.7062	-2.6458	-2.6	-2.575	-2.7062	-2.7542	-2.4896	-2.5708	-2.9646	-2.3479	-2.6458	-2.725	-2.0938	-2.6688	126.245	245.610	129.856	357.265	123.037	117.680	368.939	306.033	119.103	189.604	248.160	163.609	335.093	250.325	206.829	70.662	0.00042686	0.00054984	0.00015644	1438.3	5.8393e-06	4.7721e-06	1443.6	380.1	5.5434e-06	5.2473e-06	435.55	148.87	129	43.303	6.3304e-06	53.649	0.00029517	0.00023004	6.2003e-05	1452	2.5335e-06	2.4038e-06	1457.9	385.39	2.5877e-06	2.3041e-06	441.16	150.94	131.14	44.362	2.5554e-06	54.791	222.803	153.169	108.347	62.902	222.645	209.443	62.885	67.733	233.643	208.496	66.902	71.751	72.231	76.080	205.112	75.529	-8191	255	
483.139	1	1	0	0	0.024406	0.027579	0.15901	0.067872	0.10686	0.17545	0.26737	0.26817	0.10032	0.1239	0.1419	0.14821	0.22423	0.29367	0.14882	0.079561	-2.0646	-2.3208	-2.625	-2.5687	-2.5812	-2.5333	-2.375	-2.7375	-2.4729	-2.3458	-2.7792	-2.3875	-2.5646	-2.8979	-2.25	-2.7729	195.043	125.689	156.917	279.637	321.880	261.710	390.986	335.394	171.640	258.558	112.388	388.405	197.404	381.461	205.711	165.463	0.00042868	0.00063574	0.0001545	1439.2	5.7341e-06	3.6109e-06	1448.7	380.72	3.5022e-06	6.8201e-06	434.27	148.45	128.7	43.509	6.2983e-06	53.974	0.00028587	0.00022606	5.9897e-05	1452.7	2.5313e-06	2.3459e-06	1459.2	385.91	2.4879e-06	2.4107e-06	440.91	150.52	131.03	44.397	2.5578e-06	54.777	221.336	137.938	136.045	62.603	227.147	188.519	62.878	67.802	237.661	195.657	66.981	71.823	72.216	76.213	198.446	75.476	-8191	255	
483.235	1	1	0	0	0.11973	0.37646	0.21947	0.1189	0.14159	0.37002	0.19385	0.19232	0.29049	0.22246	0.2783	0.28223	0.058483	0.169	0.24417	0.19421	-2.0083	-2.1646	-2.6396	-2.5896	-2.3875	-2.8958	-2.45	-2.6833	-2.55	-2.2896	-2.7958	-2.4792	-2.4208	-2.6625	-2.2271	-2.5417	50.554	332.692	159.402	394.683	368.139	247.754	303.371	387.035	300.729	94.403	355.947	393.119	307.904	403.969	384.426	338.712	0.00041801	0.0003615	0.00012235	1435.4	4.7022e-06	4.8396e-06	1450.8	380.63	3.6516e-06	4.0433e-06	435.29	148.4	129.26	43.627	6.9442e-06	53.924	0.00027979	0.00021815	6.1664e-05	1451	2.6132e-06	2.3135e-06	1457.6	385.86	2.5387e-06	2.3424e-06	441.3	150.82	131.28	44.456	2.5434e-06	54.837	227.831	149.466	135.128	62.724	210.321	190.749	62.786	67.527	217.367	198.773	67.032	71.499	72.476	76.262	202.837	75.274	-8191	255	
483.307	1	1	0	0	0.1692	0.28386	0.1215	0.1957	0.28249	0.2368	0.20911	0.044981	0.16737	0.17821	0.083409	0.21954	0.18935	0.29394	0.045507	0.25499	-2.0021	-2.2771	-2.5771	-2.5521	-2.1771	-2.8458	-2.3187	-2.6521	-2.3937	-2.5	-2.4979	-2.5521	-2.3729	-2.5	-2.3187	-2.6479	88.191	301.613	314.295	318.540	389.067	360.912	376.403	104.945	178.516	154.292	319.426	276.609	350.599	393.506	303.923	338.942	0.0004132	0.0005454	0.00014324	1437.4	5.3841e-06	5.1748e-06	1447.8	380.55	4.1319e-06	4.5202e-06	437.34	148.55	129.14	43.342	5.8373e-06	53.724	0.0002836	0.0002177	6.0507e-05	1452.3	2.6047e-06	2.335e-06	1457.5	385.9	2.5008e-06	2.3763e-06	441.6	150.64	131.16	44.366	2.5259e-06	54.681	223.996	142.812	135.257	62.695	219.279	207.305	62.762	67.754	225.732	205.312	66.846	71.944	72.352	76.260	209.078	75.511	-8191	255	
483.428	1	1	0	0	0.13207	0.033858	0.20757	0.33827	0.27686	0.2258	0.29961	0.3126	0.03798	0.077039	0.035627	0.20587	0.32005	0.093887	0.21277	0.097218	-2.2979	-2.0563	-2.6146	-2.7083	-2.3625	-2.4292	-2.5292	-2.7167	-2.5604	-2.2792	-2.5938	-2.6167	-2.5687	-2.7625	-2.4229	-2.5542	317.456	277.738	139.099	68.491	284.977	246.260	355.809	351.337	112.890	114.574	130.985	278.327	308.062	315.558	178.224	299.637	0.00042009	0.00047227	0.0001259	1435.3	5.1548e-06	5.9328e-06	1447.9	382.05	3.9759e-06	4.772e-06	433.32	147.89	128.73	43.452	6.061e-06	53.767	0.00028888	0.00023121	6.1135e-05	1450.6	2.5883e-06	2.3773e-06	1456.3	386.49	2.5959e-06	2.4312e-06	440.75	150.41	130.94	44.27	2.5743e-06	54.693	224.105	139.100	147.751	62.769	222.623	213.398	62.917	67.585	224.297	186.236	66.983	71.744	72.193	76.129	227.161	75.519	-8191	255	
483.524	1	1	0	0	0.13192	0.14894	0.050857	0.19013	0.18315	0.12621	0.16447	0.14386	0.17912	0.036755	0.18041	0.23285	0.097686	0.18489	0.014852	0.17394	-2.1562	-2.2375	-2.4188	-2.7146	-2.2354	-2.7604	-2.3271	-2.325	-2.7271	-2.0292	-2.6354	-2.6625	-2.3417	-2.7062	-2.5083	-2.5042	152.105	385.271	282.737	306.810	221.443	243.539	375.849	361.468	283.561	317.774	405.949	394.366	211.615	405.301	168.679	337.483	0.00043806	0.00050691	0.00016254	1438.2	6.9307e-06	5.5154e-06	1446.7	382.17	3.9753e-06	4.4813e-06	434.76	148.02	128.74	43.388	5.0255e-06	53.685	0.00028911	0.00022226	6.0769e-05	1452	2.5904e-06	2.3589e-06	1456	386.5	2.4788e-06	2.3925e-06	440.65	150.49	130.91	44.347	2.4703e-06	54.728	221.429	132.957	144.096	62.907	228.359	204.385	62.880	67.793	232.338	197.405	67.067	71.743	72.321	76.251	188.087	75.471	-8191	255	
483.618	1	1	0	0	0.2696	0.24159	0.23318	0.34226	0.24824	0.0064507	0.47647	0.42764	0.096112	0.22776	0.24278	0.21424	0.23928	0.098064	0.1548	0.061432	-2.0396	-2.2521	-2.4708	-2.6542	-2.1437	-2.8229	-2.5938	-2.2375	-2.4896	-2.2771	-2.5604	-2.5354	-2.4396	-2.6708	-2.2938	-2.2979	349.747	355.468	203.014	370.529	126.027	399.759	311.378	328.976	325.100	379.254	99.075	390.831	403.008	310.203	79.331	205.417	0.0004271	0.00066073	0.00016032	1435	4.3612e-06	3.6879e-06	1446.5	381.4	4.5694e-06	4.4766e-06	435.12	147.17	128.88	43.123	6.609e-06	53.492	0.00028861	0.00021399	6.029e-05	1451.4	2.5179e-06	2.3586e-06	1456.7	386.06	2.5033e-06	2.4733e-06	440.18	150.18	130.9	44.171	2.4539e-06	54.604	224.625	146.647	146.246	62.672	229.437	192.683	62.982	67.807	229.516	208.864	66.937	71.629	72.278	76.186	236.927	75.869	-8191	255	
483.714	1	1	0	0	0.15528	0.18175	0.10976	0.23266	0.13045	0.21005	0.17314	0.30067	0.17805	0.19203	0.21836	0.083542	0.24397	0.22417	0.11602	0.075729	-2.4042	-2.2375	-2.1188	-2.8042	-2.3146	-2.4792	-2.7042	-2.3875	-2.5417	-2.4896	-2.4229	-2.6021	-2.3563	-2.7438	-2.5854	-2.3146	344.828	78.581	85.189	357.143	115.616	285.435	362.482	323.853	367.407	380.302	373.029	73.932	408.933	391.480	73.732	327.113	0.00042697	0.00053846	0.00014027	1432.7	5.8606e-06	5.4562e-06	1447.6	380.63	4.7582e-06	4.9738e-06	433.7	147.26	128.27	43.149	5.9512e-06	53.593	0.00028751	0.00021718	6.2382e-05	1448.3	2.5278e-06	2.4154e-06	1455.6	385.55	2.4802e-06	2.3986e-06	439.86	149.91	130.64	44.095	2.5322e-06	54.474	222.075	137.780	138.780	62.798	225.486	193.839	62.868	67.648	238.624	206.452	67.038	71.746	72.384	76.138	213.773	75.685	-8191	255	
483.835	1	1	0	0	0.052497	0.085078	0.26098	0.23751	0.16399	0.2809	0.39858	0.13964	0.21333	0.29789	0.33321	0.34506	0.13469	0.25365	0.031122	0.14606	-2.3792	-2.1833	-2.3771	-2.8729	-2.3792	-2.4062	-2.9417	-2.4417	-2.5208	-2.4875	-2.4042	-2.825	-2.5229	-2.5604	-2.5917	-2.55	116.176	126.113	87.764	326.278	363.748	60.381	374.126	270.539	254.588	261.417	375.428	337.124	104.501	70.148	232.168	405.825	0.00040692	0.00067808	0.00016161	1436.7	5.9764e-06	5.4675e-06	1448.4	378.75	5.0011e-06	5.7956e-06	434.28	147.8	128.39	43.082	5.6754e-06	53.529	0.00028771	0.00022359	6.3648e-05	1449.3	2.532e-06	2.4981e-06	1454.9	384.62	2.5577e-06	2.408e-06	440.27	150.22	130.5	44.112	2.4894e-06	54.491	222.216	132.728	148.136	62.731	215.176	188.886	62.849	67.573	224.853	203.392	67.032	71.673	72.231	76.304	219.334	75.601	-8191	255	
483.931	1	1	0	0	0.23967	0.2631	0.23642	0.23296	0.071379	0.17515	0.35662	0.38723	0.18286	0.059563	0.074669	0.22682	0.11111	0.14021	0.16504	0.16882	-2.0896	-2.5104	-2.2833	-2.7646	-2.3583	-2.4938	-2.6167	-2.2687	-2.4958	-2.5083	-2.525	-2.675	-2.5167	-2.5229	-2.5792	-2.3312	348.993	175.051	320.633	381.422	312.902	118.543	395.174	402.417	329.415	381.880	55.253	368.848	268.844	71.942	228.955	385.207	0.00045931	0.00052892	0.00013691	1438.1	6.1474e-06	6.0653e-06	1449.1	381	4.1513e-06	5.9225e-06	435.46	147.7	128.23	43.172	6.0471e-06	53.651	0.00028782	0.00022377	6.2667e-05	1450.1	2.5002e-06	2.3231e-06	1455.3	384.93	2.5565e-06	2.339e-06	439.92	150.01	130.4	44.119	2.433e-06	54.527	221.806	135.516	137.059	62.554	221.953	193.999	62.852	67.491	236.331	185.424	66.893	71.857	72.291	76.349	215.149	75.555	-8191	255	
484.003	1	1	0	0	0.14322	0.031585	0.31298	0.19312	0.10842	0.23733	0.38531	0.1991	0.18074	0.1353	0.077918	0.14011	0.12562	0.16252	0.067042	0.36811	-2.1667	-2.7479	-2.2062	-2.7729	-2.2917	-2.3563	-2.8187	-2.2875	-2.6063	-2.2938	-2.5646	-2.7646	-2.5229	-2.2708	-2.6792	-2.3917	391.124	304.977	276.641	319.684	265.497	59.935	352.525	105.572	63.135	321.644	108.830	154.833	56.985	51.518	143.338	88.209	0.00043446	0.00062859	0.00018139	1433.3	6.7445e-06	4.4401e-06	1442.8	379.46	5.0555e-06	3.0942e-06	433.44	147.06	128.09	43.054	5.746e-06	53.413	0.00028805	0.00021722	6.2568e-05	1448	2.5524e-06	2.453e-06	1453.3	383.87	2.5757e-06	2.4344e-06	439.38	149.69	130.23	43.985	2.3998e-06	54.416	220.862	138.521	153.647	62.600	211.911	213.941	62.803	67.859	233.738	216.150	66.925	71.635	72.275	76.195	216.909	75.369	-8191	255	
484.099	1	1	0	0	0.23833	0.1973	0.06763	0.36983	0.083933	0.10678	0.14794	0.1648	0.064899	0.1594	0.20634	0.079281	0.20854	0.18925	0.17121	0.2011	-1.9	-2.6792	-2.0458	-2.7729	-2.6437	-2.0542	-2.8	-2.4188	-2.4042	-2.6375	-2.1229	-2.6813	-2.6417	-2.4333	-2.5521	-2.3812	117.123	206.808	121.326	57.279	170.750	233.894	338.711	55.542	108.715	185.341	363.805	407.670	389.448	98.630	281.645	357.250	0.00043898	0.00042178	0.00017633	1429.8	5.3119e-06	5.6526e-06	1443.3	380.46	3.3797e-06	2.8378e-06	434.05	147.81	128	43.301	5.6464e-06	53.595	0.0002833	0.00021652	6.2211e-05	1446.4	2.4811e-06	2.3504e-06	1451.9	385.05	2.4663e-06	2.2957e-06	439.44	150.07	130.55	44.223	2.4698e-06	54.478	223.516	134.696	139.364	62.589	241.456	196.237	62.783	67.578	221.509	175.752	66.854	71.803	72.357	76.242	221.255	75.647	-8191	255	
484.220	1	1	0	0	0.095106	0.15277	0.094287	0.1612	0.14992	0.10595	0.20824	0.28857	0.18447	0.072557	0.21738	0.16552	0.31223	0.24205	0.10986	0.11595	-1.8583	-2.5625	-2.3125	-2.6896	-2.4771	-2.2083	-2.7604	-2.4354	-2.4062	-2.4583	-2.4729	-2.7333	-2.4667	-2.1958	-2.5938	-2.3458	291.738	307.726	231.920	62.974	209.838	218.157	377.670	368.197	84.013	362.062	384.287	380.939	85.790	58.042	139.535	176.071	0.00043073	0.00057763	0.00017432	1428.4	6.085e-06	4.5647e-06	1439.3	378.18	4.5153e-06	4.6177e-06	434.79	148.19	127.91	42.971	4.2001e-06	53.33	0.00028636	0.00021338	6.0345e-05	1445.4	2.5043e-06	2.2543e-06	1449.9	383.84	2.5172e-06	2.2902e-06	439.28	150.03	130.4	44.09	2.3545e-06	54.477	222.323	128.478	151.917	62.591	222.446	210.908	62.764	67.768	244.374	224.804	66.994	71.576	72.373	76.181	227.959	75.581	-8191	255	
484.316	1	1	0	0	0.14192	0.38817	0.18359	0.27281	0.24275	0.043054	0.33437	0.38008	0.059306	0.14922	0.074533	0.37071	0.18955	0.28306	0.12019	0.10788	-1.9104	-2.6854	-2.1167	-2.7667	-2.7021	-2.0812	-2.9375	-2.4938	-2.1208	-2.7542	-2.5208	-2.4458	-2.7687	-2.2854	-2.5708	-2.3688	329.482	408.742	167.747	382.000	154.981	90.762	407.894	296.265	135.451	294.644	119.455	353.611	389.797	316.689	359.681	335.556	0.00045292	0.00069675	0.00014659	1433.1	6.9877e-06	5.9682e-06	1448.6	378.66	5.4487e-06	5.2221e-06	433.47	147.62	128.26	43.02	4.0049e-06	53.594	0.000288	0.00021728	6.1248e-05	1445.9	2.4978e-06	2.3407e-06	1452.1	383.89	2.4392e-06	2.3231e-06	439.64	149.99	130.56	44.067	2.3626e-06	54.488	222.985	153.521	154.353	62.876	213.969	210.499	62.931	67.648	230.397	190.477	66.894	71.669	72.309	76.344	219.745	75.492	-8191	255	
484.412	1	1	0	0	0.098624	0.13757	0.064298	0.18793	0.11503	0.21432	0.38236	0.19778	0.17899	0.24545	0.40911	0.040831	0.17643	0.1681	0.15968	0.30496	-1.825	-2.6396	-2.1958	-2.5896	-2.5875	-2.0896	-2.7354	-2.5167	-2.3458	-2.8125	-2.3771	-2.3229	-2.6646	-2.3354	-2.3438	-2.4396	341.565	373.800	255.904	377.555	244.545	109.007	356.492	391.140	76.176	195.221	370.385	285.531	310.127	84.024	345.905	343.601	0.00042505	0.00042988	6.3771e-05	1430.2	5.3733e-06	3.8856e-06	1443	377.84	4.4292e-06	5.3699e-06	434.06	147.21	127.8	43.139	6.3612e-06	53.542	0.00028017	0.00021106	5.9721e-05	1445.2	2.5487e-06	2.3274e-06	1453.4	384.05	2.4646e-06	2.3164e-06	439.34	149.74	130.22	44.041	2.4424e-06	54.435	227.252	138.094	125.017	62.837	217.347	212.151	62.770	67.706	226.657	191.522	66.817	71.785	72.421	76.046	198.452	75.554	-8191	255	
484.532	1	1	0	0	0.11271	0.137	0.26524	0.030906	0.37448	0.040458	0.3053	0.23319	0.30828	0.28398	0.25493	0.17943	0.039843	0.11639	0.16756	0.1283	-1.6354	-2.6042	-2.4271	-2.6542	-2.7583	-2.5521	-2.7021	-2.7979	-2.4208	-2.6063	-2.5167	-2.6792	-2.8812	-2.2833	-2.6396	-2.8125	388.922	69.442	245.641	298.262	297.427	365.716	283.381	364.563	225.460	271.728	378.564	339.371	57.958	319.565	91.304	55.909	0.00041659	0.00050209	0.00015483	1429	4.5647e-06	4.6926e-06	1440	379.4	4.5845e-06	3.6574e-06	433.08	147.44	128.15	43.181	4.2677e-06	53.336	0.00027832	0.00021635	5.9653e-05	1444.5	2.4425e-06	2.3475e-06	1451.2	384.13	2.4366e-06	2.2962e-06	438.59	149.78	130.29	44.042	2.3944e-06	54.385	224.058	131.363	136.622	62.796	212.268	219.485	62.986	67.529	233.915	176.617	66.932	71.704	72.024	76.361	218.319	75.535	-8191	255	
484.604	1	1	0	0	0.28647	0.067772	0.046505	0.36476	0.19074	0.091766	0.45001	0.014278	0.33203	0.21808	0.075096	0.31657	0.13447	0.11343	0.17945	0.24458	-1.7104	-2.7188	-2.3208	-2.5146	-2.6458	-2.2188	-2.6479	-2.8417	-1.8687	-2.7833	-2.4979	-2.3104	-2.8479	-2.4333	-2.475	-2.6271	258.545	319.589	105.191	399.730	60.946	71.844	315.302	267.021	197.001	190.982	72.956	307.233	308.645	233.810	344.635	63.336	0.00041707	0.00054437	0.00015094	1432.3	6.0174e-06	4.5308e-06	1441.1	379.72	3.42e-06	5.4273e-06	434.64	147.36	128.98	43.115	5.0525e-06	53.294	0.00028331	0.00021035	5.9707e-05	1444.8	2.483e-06	2.3938e-06	1450.8	383.74	2.5205e-06	2.2565e-06	438.82	149.87	130.42	43.997	2.4779e-06	54.397	223.299	136.299	147.267	62.958	218.145	182.307	62.825	67.702	223.148	191.398	66.817	71.653	72.367	76.115	231.637	75.322	-8191	255	
484.700	1	1	0	0	0.18538	0.10234	0.061536	0.27918	0.20309	0.06734	0.11886	0.12516	0.25546	0.18977	0.12789	0.18104	0.11079	0.25426	0.054285	0.17606	-1.7646	-2.5583	-2.3563	-2.5479	-2.7979	-2.2646	-2.3125	-2.9375	-2.3479	-2.6521	-2.4542	-2.6729	-2.9188	-2.2792	-2.2646	-2.6979	74.643	371.085	407.034	391.659	207.530	172.972	346.645	65.899	74.626	73.707	282.516	390.116	272.302	344.096	253.720	74.497	0.00042445	0.00068714	0.00012224	1432.3	6.7583e-06	5.2541e-06	1439.4	378.37	3.2358e-06	3.4259e-06	433.39	147.48	128.03	43.097	5.2003e-06	53.415	0.0002822	0.00021747	6.0417e-05	1446.3	2.509e-06	2.3001e-06	1449.7	383.47	2.4214e-06	2.2807e-06	438.66	149.83	130.18	44.034	2.4644e-06	54.349	222.762	129.942	124.747	62.794	223.048	206.685	62.853	67.793	226.575	203.457	66.843	71.629	72.300	76.353	202.423	75.667	-8191	255	
484.819	1	1	0	0	0.087352	0.12115	0.084519	0.28903	0.16642	0.21949	0.061926	0.30164	0.1035	0.29439	0.2169	0.11397	0.27774	0.26152	0.22892	0.15368	-1.4979	-2.4292	-2.5292	-2.4479	-2.4625	-2.4708	-2.4813	-2.9271	-2.1708	-2.5083	-2.7875	-2.2917	-2.8417	-2.3896	-2.3958	-2.9667	375.802	314.604	56.116	379.571	313.521	311.913	284.384	334.563	213.277	142.555	311.228	390.351	381.710	404.226	281.963	378.348	0.00043538	0.00047907	0.00019336	1431.4	5.5923e-06	4.7332e-06	1444.2	378.63	4.9081e-06	5.0944e-06	431.72	147.13	128.19	42.973	6.3917e-06	53.438	0.00027884	0.00021667	6.0028e-05	1445.3	2.4908e-06	2.3111e-06	1452.1	383.97	2.4804e-06	2.2668e-06	438.04	149.69	130.24	44.001	2.5151e-06	54.321	225.717	144.161	141.537	62.790	227.930	190.497	62.791	67.876	245.196	189.157	67.055	71.917	72.251	76.388	206.775	75.592	-8191	255	
484.915	1	1	0	0	0.15351	0.20978	0.17329	0.3458	0.18679	0.1561	0.14602	0.16822	0.27257	0.27379	0.17656	0.22114	0.29913	0.23281	0.2901	0.24468	-1.8854	-2.2021	-2.5667	-2.4333	-2.5292	-2.4708	-2.3792	-2.8688	-2.4854	-2.3312	-2.7562	-2.3354	-2.5417	-2.3979	-2.425	-2.9062	59.939	287.671	361.522	382.853	288.086	90.301	350.869	300.377	379.677	206.040	404.732	51.749	369.570	378.911	245.522	364.337	0.00043307	0.00037237	0.00015971	1433.9	5.2685e-06	3.8487e-06	1441.9	378.6	4.6313e-06	2.4498e-06	433.33	147.24	128.3	43.06	7.6959e-06	53.655	0.00028321	0.00021404	6.1754e-05	1445.7	2.4833e-06	2.3445e-06	1451.3	383.6	2.5143e-06	2.3848e-06	438.42	149.63	130.04	44.007	2.4417e-06	54.421	225.652	151.513	152.154	62.767	217.768	201.348	63.100	67.821	240.104	206.450	67.145	71.657	72.342	76.241	219.618	75.657	-8191	255	
485.012	1	1	0	0	0.22523	0.075938	0.097184	0.4171	0.023073	0.085261	0.15153	0.091282	0.2996	0.028124	0.082806	0.31509	0.16805	0.099742	0.21772	0.13295	-1.8292	-2.2833	-2.6146	-2.2708	-2.5729	-2.5375	-2.4354	-2.6604	-2.3583	-2.3396	-2.7313	-2.2979	-2.5812	-2.7646	-2.1229	-2.7833	220.223	236.885	288.727	347.950	158.418	103.966	300.880	88.492	393.555	185.551	367.004	372.162	351.283	180.632	127.014	318.167	0.00042008	0.00036954	0.00012929	1434.1	5.6376e-06	3.4965e-06	1440.4	379.44	4.156e-06	4.3875e-06	433.59	147.12	128.08	43.246	5.3671e-06	53.47	0.00028097	0.00021575	5.7706e-05	1446.3	2.4901e-06	2.3267e-06	1449.9	384.14	2.4888e-06	2.3215e-06	438.71	149.55	130.4	44.09	2.4681e-06	54.369	224.272	146.167	143.988	62.700	221.323	200.209	62.836	67.635	228.985	212.232	67.184	71.836	72.145	76.341	214.404	75.506	-8191	255	
485.132	1	1	0	0	0.20537	0.089212	0.145	0.21603	0.19959	0.18946	0.22436	0.57577	0.084103	0.29682	0.17056	0.28343	0.09059	0.064993	0.37768	0.19755	-2.0479	-2.3125	-2.6437	-2.5729	-2.2521	-2.6375	-2.4833	-2.7021	-2.5125	-2.2521	-2.6646	-2.5167	-2.6125	-2.7354	-2.1792	-2.7917	363.384	182.548	151.233	392.447	175.809	49.621	335.523	291.806	67.383	106.230	376.147	380.807	260.774	163.168	406.372	65.291	0.00041444	0.00059607	0.0001309	1434.5	6.1238e-06	4.1506e-06	1443	380.7	4.4422e-06	4.1264e-06	433.96	146.81	127.97	42.987	5.653e-06	53.3	0.00028243	0.00021973	5.9653e-05	1445.2	2.4319e-06	2.3136e-06	1451.1	384.24	2.5001e-06	2.3784e-06	438.77	149.45	130.1	43.883	2.5154e-06	54.289	220.899	136.010	142.122	62.823	213.988	183.839	62.976	67.584	218.014	206.229	67.009	71.859	72.427	76.229	202.260	75.695	-8191	255	
485.204	1	1	0	0	0.037474	0.048811	0.25451	0.27886	0.039465	0.23306	0.35544	0.17092	0.25352	0.26531	0.11195	0.35733	0.23817	0.24429	0.051466	0.16684	-2.1604	-2.2542	-2.7208	-2.4979	-2.1875	-2.4479	-2.7083	-2.6771	-2.2417	-2.35	-2.675	-2.5021	-2.5042	-2.6021	-2.1312	-2.7729	244.588	365.477	247.337	328.781	64.719	398.160	363.342	298.337	258.260	64.910	304.891	367.879	383.783	353.497	267.970	306.594	0.00041889	0.00053259	0.00016658	1431.9	4.789e-06	5.9304e-06	1439.2	378.2	4.6104e-06	4.8858e-06	434.85	147.03	128.32	42.99	4.8129e-06	53.26	0.0002857	0.00021976	6.0923e-05	1445.8	2.4813e-06	2.3274e-06	1450	383.42	2.5196e-06	2.3925e-06	438.59	149.39	130.28	43.96	2.455e-06	54.207	223.406	113.220	136.783	62.766	227.854	199.261	62.902	67.629	226.096	198.189	66.929	71.893	72.291	76.046	200.175	75.806	-8191	255	
485.300	1	1	0	0	0.16756	0.3079	0.10105	0.35161	0.1102	0.086389	0.48386	0.17314	0.16857	0.1908	0.06621	0.27621	0.13826	0.14956	0.21606	0.16636	-2.0792	-2.0875	-2.7229	-2.5104	-2.3771	-2.5687	-2.3563	-2.625	-2.4958	-2.4021	-2.7271	-2.2979	-2.4208	-2.9354	-2.1167	-2.4396	85.140	142.869	159.566	361.927	255.796	264.829	355.313	376.677	111.283	298.796	365.727	347.173	78.631	67.747	387.767	390.941	0.00041501	0.00062941	0.00016325	1432.9	4.1467e-06	3.7727e-06	1437.4	378.79	4.0981e-06	4.2639e-06	431.33	146.84	127.57	42.999	4.7128e-06	53.204	0.000283	0.00021971	5.9527e-05	1446	2.548e-06	2.3149e-06	1449	383.35	2.5344e-06	2.4068e-06	437.63	149.2	129.85	43.845	2.5446e-06	54.187	222.518	140.224	131.227	62.653	222.340	203.375	62.785	67.866	230.415	182.563	66.982	71.818	72.324	76.330	216.917	75.693	-8191	255	
485.396	1	1	0	0	0.069543	0.13595	0.17648	0.13911	0.26521	0.084587	0.30237	0.14236	0.17746	0.089013	0.070361	0.16474	0.25	0.41525	0.18024	0.35976	-2.0167	-2.3125	-2.5146	-2.5771	-2.6188	-2.6083	-2.425	-2.5208	-2.6208	-2.0792	-2.8896	-2.4083	-2.2021	-2.8271	-2.3792	-2.3187	334.084	389.892	403.831	367.664	217.085	82.393	351.369	357.714	141.895	302.130	147.386	367.540	60.177	377.531	146.610	245.494	0.00042511	0.00058522	0.00015437	1431.5	5.2377e-06	2.8075e-06	1436.8	376.24	4.3878e-06	4.1015e-06	433.27	146.7	128.03	42.839	7.5214e-06	53.284	0.00028101	0.00021982	6.1705e-05	1444.9	2.5768e-06	2.245e-06	1447.4	382.41	2.5039e-06	2.3301e-06	437.77	149.14	129.91	43.832	2.4911e-06	54.212	223.348	122.018	140.333	62.827	224.182	205.166	62.888	67.641	221.104	198.280	66.892	71.844	72.300	76.212	202.002	75.751	-8191	255	
485.492	1	1	0	0	0.072922	0.093531	0.20994	0.36748	0.23451	0.096928	0.40559	0.40645	0.088894	0.096905	0.24717	0.076526	0.17729	0.19879	0.1902	0.2476	-2.0792	-2.2812	-2.5167	-2.4833	-2.075	-2.7062	-2.4562	-2.4313	-2.5958	-2.2875	-2.6937	-2.4188	-2.6063	-2.5958	-2.3063	-2.575	74.502	225.004	135.735	407.999	280.076	302.694	354.897	356.759	243.275	318.911	331.896	62.142	112.095	395.378	315.075	301.577	0.00044113	0.00060664	0.00014872	1426.5	4.633e-06	4.5811e-06	1439.5	378.6	4.9395e-06	4.7939e-06	433.11	146.99	127.49	42.898	7.6521e-06	53.42	0.00028608	0.00022245	6.1528e-05	1440.8	2.5701e-06	2.3578e-06	1448.5	383.42	2.5388e-06	2.3042e-06	438.67	149.46	129.91	43.927	2.4773e-06	54.312	219.245	148.439	148.360	62.791	235.091	210.728	62.853	67.506	220.432	183.924	66.880	71.758	72.386	76.286	217.942	75.876	-8191	255	
485.611	1	1	0	0	0.2632	0.21391	0.1836	0.31781	0.20547	0.29458	0.18352	0.3171	0.11235	0.085654	0.10609	0.215	0.25811	0.20115	0.19602	0.18188	-2.3771	-2.35	-2.1979	-2.7083	-2.2458	-2.5646	-2.4542	-2.4917	-2.5604	-2.3854	-2.6917	-2.7458	-2.2729	-2.55	-2.3083	-2.4146	408.347	82.164	252.045	350.492	375.244	196.822	399.728	399.036	215.787	182.055	245.276	84.220	82.888	357.653	63.241	231.181	0.00042779	0.000589	0.00016838	1423.9	5.7501e-06	4.8082e-06	1439.3	379.34	4.4709e-06	5.3862e-06	432.39	147.44	128.25	42.988	5.6483e-06	53.238	0.00028438	0.00022203	6.2685e-05	1441.4	2.4512e-06	2.3801e-06	1449.2	383.36	2.3638e-06	2.3784e-06	437.81	149.48	130	43.906	2.4759e-06	54.235	223.133	131.419	148.349	62.586	220.068	241.368	62.914	67.758	225.540	193.129	67.049	71.909	72.167	76.239	228.854	75.419	-8191	255	
485.707	1	1	0	0	0.057542	0.23689	0.20465	0.11381	0.229	0.13978	0.23391	0.24157	0.19817	0.38168	0.19699	0.19912	0.18919	0.37302	0.030875	0.11146	-2.2396	-2.2354	-2.4646	-2.7292	-2.175	-2.6417	-2.6208	-2.2	-2.4833	-2.3646	-2.4938	-2.6208	-2.3458	-2.6625	-2.5854	-2.1271	174.810	82.784	331.927	315.539	53.410	146.010	326.651	396.438	148.296	119.413	176.100	293.936	147.126	401.345	116.564	355.125	0.00042726	0.00072311	0.00017375	1430	6.0575e-06	3.7226e-06	1435.9	378.51	4.4495e-06	6.7636e-06	432.26	146.74	127.94	42.951	5.1316e-06	53.156	0.00027633	0.00022433	6.1144e-05	1443.7	2.5504e-06	2.2937e-06	1447.3	383.25	2.4212e-06	2.4048e-06	437.72	149.38	129.85	43.949	2.3961e-06	54.23	220.193	136.859	147.893	62.632	218.549	212.649	62.905	67.732	239.651	190.433	67.067	71.602	72.077	76.289	218.347	75.478	-8191	255	
485.803	1	1	0	0	0.14575	0.12336	0.28098	0.27473	0.1675	0.1067	0.18008	0.23197	0.11895	0.078738	0.22705	0.33362	0.31805	0.1379	0.087187	0.2127	-2.2042	-2.4125	-2.3125	-2.7438	-2.1875	-2.5208	-2.5292	-2.4	-2.7229	-2.3042	-2.3667	-2.9	-2.175	-2.6937	-2.6646	-2.125	171.623	381.213	160.234	386.689	179.998	230.647	384.776	370.626	123.730	301.170	323.611	321.684	397.190	126.166	103.737	86.572	0.00042648	0.00059099	0.00017712	1427.1	5.9753e-06	6.4964e-06	1440.6	377.16	4.2279e-06	4.8529e-06	432.95	146.68	127	42.888	6.1283e-06	53.229	0.0002817	0.0002046	6.142e-05	1441.7	2.5529e-06	2.3742e-06	1448.9	382.84	2.4402e-06	2.4085e-06	437.59	149.2	129.58	43.892	2.5158e-06	54.164	226.077	139.533	123.273	62.706	226.224	209.893	63.048	67.724	231.613	196.103	66.865	71.648	72.247	76.289	212.902	75.650	-8191	255	
485.900	1	1	0	0	0.16019	0.079393	0.25557	0.080673	0.1658	0.1307	0.17845	0.55304	0.072693	0.072253	0.2581	0.45983	0.19527	0.12419	0.093521	0.30662	-2.0917	-2.2229	-2.4771	-2.9271	-2.4146	-2.2604	-2.8396	-2.1542	-2.7188	-2.3458	-2.1854	-2.6875	-2.3333	-2.3458	-2.6083	-2.4208	337.977	65.072	62.381	375.698	380.903	177.239	379.775	367.458	170.755	270.074	315.076	383.001	366.131	327.600	380.927	383.759	0.00042418	0.0004049	0.00013547	1431.4	6.3676e-06	4.3536e-06	1436.9	378.26	4.1763e-06	3.6447e-06	431.77	146.31	127.8	42.941	4.5824e-06	53.176	0.00027852	0.00021858	5.9956e-05	1443.2	2.4604e-06	2.4222e-06	1447.4	383.18	2.4781e-06	2.3731e-06	437.58	148.88	129.93	43.888	2.3785e-06	54.254	223.993	152.605	158.335	62.853	215.927	206.220	62.979	67.892	230.691	204.311	67.020	71.622	72.413	76.244	220.712	75.602	-8191	255	
485.996	1	1	0	0	0.09665	0.18982	0.21689	0.19295	0.12588	0.096722	0.24697	0.18809	0.22519	0.12412	0.29584	0.4364	0.096414	0.37446	0.047769	0.12067	-1.8292	-2.5958	-2.3063	-2.6708	-2.3438	-2.2354	-2.8458	-2.4417	-2.3979	-2.6437	-2.4646	-2.7479	-2.1875	-2.55	-2.8604	-2.2979	276.353	226.572	70.308	391.530	52.831	68.247	306.856	82.123	95.258	202.886	316.172	327.147	317.502	357.677	269.479	353.471	0.00043112	0.00037404	0.0001793	1427	6.6346e-06	5.8399e-06	1440.7	376.38	4.6612e-06	5.1415e-06	429.96	146.98	127.82	42.738	6.4653e-06	53.457	0.00028441	0.00022094	5.8546e-05	1441.5	2.5489e-06	2.263e-06	1448.2	382.49	2.4979e-06	2.2991e-06	436.4	149.11	129.92	43.812	2.4179e-06	54.223	224.215	137.711	131.977	62.837	227.934	214.093	62.869	67.756	235.386	196.148	67.237	71.728	72.219	76.493	215.295	75.852	-8191	255	
486.092	1	1	0	0	0.22553	0.10697	0.27753	0.37771	0.16491	0.12073	0.35224	0.059191	0.08863	0.27304	0.10815	0.19404	0.22506	0.18705	0.24723	0.29775	-2.1854	-2.4688	-2.1688	-2.7771	-2.45	-2.525	-2.8208	-2.3042	-2.7625	-2.5021	-2.2771	-2.6375	-2.5125	-2.4062	-2.4417	-2.4833	355.287	407.478	84.640	334.252	140.582	355.572	357.435	345.227	65.437	225.939	361.682	360.370	404.466	54.659	249.940	324.841	0.00043657	0.00055422	0.00014512	1428.4	6.1475e-06	2.907e-06	1437.7	377.41	5.2033e-06	3.6934e-06	431.27	146.56	127.36	42.891	4.5398e-06	53.041	0.00029018	0.00021852	6.0805e-05	1440.8	2.442e-06	2.3849e-06	1446.9	382.53	2.4634e-06	2.265e-06	436.64	149.17	129.54	43.836	2.3841e-06	54.211	224.792	119.494	134.935	62.580	219.205	204.219	62.883	67.699	237.461	202.053	66.955	71.759	72.330	76.206	212.299	75.617	-8191	255	
486.213	1	1	0	0	0.076159	0.13607	0.31421	0.069671	0.18332	0.11407	0.20383	0.045428	0.19268	0.16145	0.36644	0.27664	0.096923	0.088893	0.06074	0.15686	-1.9083	-2.5021	-2.3083	-2.6771	-2.3292	-2.5167	-2.8083	-2.5458	-2.5062	-2.5458	-2.3708	-2.6542	-2.7292	-2.3125	-2.7521	-2.7375	88.118	69.188	187.321	232.349	200.296	368.646	349.066	324.895	131.812	189.406	373.832	62.432	340.457	55.106	227.336	315.626	0.00041928	0.00057111	0.0001617	1428.2	5.6345e-06	5.8357e-06	1441.3	376.34	4.0349e-06	5.8139e-06	433.83	146.93	127.62	42.921	6.8288e-06	53.076	0.00028651	0.00021586	6.0674e-05	1442.9	2.4638e-06	2.347e-06	1447.9	382.61	2.4678e-06	2.3128e-06	438.41	149.47	129.86	43.914	2.4314e-06	54.23	221.596	132.294	146.667	62.726	218.283	183.519	62.849	67.768	226.274	188.975	66.737	71.893	72.201	76.076	231.487	75.653	-8191	255	
486.309	1	1	0	0	0.10811	0.14284	0.071879	0.34868	0.38364	0.22718	0.20211	0.13314	0.17854	0.10129	0.11852	0.38378	0.078222	0.11661	0.087585	0.21906	-1.8542	-2.6646	-2.3438	-2.6521	-2.5312	-2.1771	-2.9479	-2.55	-2.3458	-2.7542	-2.15	-2.775	-2.5417	-2.2687	-2.6521	-2.6104	277.172	327.536	91.955	331.199	396.677	235.281	319.191	354.045	325.393	231.637	395.011	370.595	192.190	67.855	265.990	274.421	0.00041323	0.00059648	0.00015321	1425.7	5.4427e-06	3.5457e-06	1437.1	378.7	5.1572e-06	4.7419e-06	430.6	147	127.67	42.931	4.2692e-06	53.189	0.0002791	0.00021477	5.9472e-05	1442.2	2.509e-06	2.3302e-06	1448.7	383.4	2.4169e-06	2.3039e-06	437.54	149.28	129.71	43.888	2.4204e-06	54.235	223.334	143.743	144.357	62.920	219.491	211.766	62.902	67.735	242.307	173.426	67.081	71.933	72.261	76.419	222.024	75.830	-8191	255	
486.405	1	1	0	0	0.33224	0.071975	0.055335	0.40217	0.20875	0.23453	0.1375	0.33061	0.11361	0.045951	0.19238	0.31975	0.19859	0.16946	0.04258	0.25841	-1.7208	-2.6896	-2.25	-2.4333	-2.5979	-2.1792	-2.6562	-2.5542	-2.4479	-2.5687	-2.3125	-2.725	-2.6875	-2.1333	-2.6979	-2.5646	292.676	229.614	401.252	352.335	361.922	207.935	325.358	352.773	407.718	350.323	58.506	348.546	384.461	312.969	58.853	378.478	0.00042421	0.00056974	0.00013095	1434.1	4.4429e-06	4.6971e-06	1441.4	378.62	4.3287e-06	4.9731e-06	431.83	146.65	127.67	43.031	7.2095e-06	53.142	0.00028359	0.00020795	5.8695e-05	1443.3	2.5041e-06	2.3229e-06	1448.7	382.88	2.5003e-06	2.3798e-06	437.66	149.21	129.72	43.939	2.4724e-06	54.21	227.075	143.908	146.619	62.867	225.472	188.196	62.755	67.689	237.520	177.576	66.935	71.969	72.418	76.652	221.164	75.797	-8191	255	
486.501	1	1	0	0	0.25253	0.026119	0.11597	0.28135	0.28511	0.021507	0.37153	0.07138	0.065665	0.22782	0.4218	0.26303	0.31508	0.21585	0.18411	0.061687	-1.6708	-2.6604	-2.1375	-2.6833	-2.7896	-2.0583	-2.8729	-2.7562	-2.1437	-2.7438	-2.5833	-2.5563	-2.8729	-2.4583	-2.2812	-2.5729	320.624	78.981	232.997	356.983	163.936	180.772	336.680	74.716	98.099	324.033	349.176	168.776	89.063	380.269	97.868	344.774	0.00041709	0.00041108	9.0607e-05	1426	5.6345e-06	5.0261e-06	1436	375.87	4.4315e-06	3.4589e-06	431.7	146.81	128.19	42.93	4.5552e-06	53.291	0.00028271	0.00021338	6.2003e-05	1442.5	2.4614e-06	2.4215e-06	1447.5	382.07	2.4905e-06	2.3595e-06	436.7	149.27	129.96	43.888	2.4129e-06	54.239	223.992	135.029	140.155	62.689	220.814	215.230	63.017	67.860	241.745	197.272	67.045	71.951	72.302	76.400	208.245	75.479	-8191	255	
486.595	1	1	0	0	0.17422	0.11568	0.058649	0.29224	0.054621	0.25798	0.45196	0.30125	0.18742	0.22047	0.30694	0.24451	0.27724	0.2213	0.089506	0.28762	-1.9292	-2.5312	-2.5062	-2.3979	-2.7646	-2.2958	-2.5729	-2.5062	-2.2479	-2.6063	-2.3646	-2.5667	-2.65	-2.2375	-2.4062	-2.65	255.316	374.071	275.953	394.664	209.417	300.750	316.567	401.141	349.044	97.536	371.685	397.117	68.980	344.965	383.042	331.214	0.00042545	0.00037353	0.00015563	1424.6	4.1523e-06	4.4331e-06	1439.9	378.03	5.1742e-06	6.1526e-06	431.94	147.28	127.6	42.825	5.1389e-06	53.214	0.00028482	0.00021775	6.1086e-05	1440.1	2.4718e-06	2.3192e-06	1447.4	382.92	2.4195e-06	2.3231e-06	437.68	149.47	129.7	43.846	2.5303e-06	54.169	220.101	145.123	129.347	62.756	211.095	210.252	62.861	67.662	239.438	208.394	67.172	71.812	72.295	76.294	211.912	75.191	-8191	255	
486.692	1	1	0	0	0.17592	0.057857	0.38139	0.16523	0.064435	0.22946	0.1749	0.11847	0.098297	0.061794	0.32707	0.275	0.13494	0.099223	0.12012	0.23987	-1.6646	-2.6729	-2.2646	-2.4042	-2.6104	-2.1771	-2.6437	-2.8292	-1.975	-2.7375	-2.6063	-2.6229	-2.6583	-2.45	-2.2938	-2.8625	112.578	83.568	146.905	351.795	57.974	107.690	349.153	339.252	338.777	289.570	308.575	344.576	124.814	80.303	98.548	295.657	0.00043097	0.00067942	0.00013884	1431.9	4.2414e-06	5.4679e-06	1442	376.18	4.9098e-06	4.7074e-06	433.27	147.25	127.65	42.693	4.8943e-06	53.116	0.00029237	0.00021361	6.1126e-05	1442	2.4934e-06	2.3602e-06	1448.9	381.9	2.5159e-06	2.3838e-06	438.09	149.23	129.7	43.776	2.5248e-06	54.038	227.151	137.480	158.903	62.643	225.689	190.800	62.885	67.688	232.242	215.948	67.141	71.794	72.329	76.345	210.095	75.448	-8191	255	
486.812	1	1	0	0	0.32559	0.29465	0.19641	0.41279	0.29468	0.064494	0.20009	0.059255	0.12649	0.1061	0.02801	0.10574	0.25801	0.079395	0.089687	0.32928	-1.7938	-2.2958	-2.3208	-2.3417	-2.7313	-2.5333	-2.5083	-2.7583	-2.3125	-2.5792	-2.675	-2.2646	-2.5458	-2.3479	-2.4167	-2.5958	110.898	247.351	364.274	371.106	146.112	175.922	321.863	74.901	56.214	264.413	393.027	63.106	379.819	187.195	78.534	297.224	0.00040977	0.00063253	0.00010732	1423.2	5.8249e-06	4.1952e-06	1431.6	376.86	4.9893e-06	4.0821e-06	429.79	146.93	127.68	42.611	5.1821e-06	52.95	0.00028386	0.00021846	6.0986e-05	1440	2.5541e-06	2.3776e-06	1444.5	381.61	2.5688e-06	2.3823e-06	436.57	149.04	129.57	43.649	2.5011e-06	54.02	223.595	128.424	149.821	62.849	221.489	225.734	62.941	67.664	231.401	190.330	66.964	71.966	72.211	76.516	214.333	75.761	-8191	255	
486.908	1	1	0	0	0.30318	0.12995	0.11544	0.38817	0.065205	0.14448	0.17616	0.088559	0.25208	0.10724	0.13304	0.31667	0.31108	0.12188	0.076224	0.093967	-1.8687	-2.4188	-2.3646	-2.4792	-2.7167	-2.5292	-2.5417	-2.8688	-2.3229	-2.2625	-2.7042	-2.3438	-2.5833	-2.5083	-2.25	-2.4646	155.442	291.852	314.329	381.164	385.053	89.648	75.153	240.885	352.947	307.363	312.016	85.543	375.346	217.814	75.874	113.801	0.00042012	0.00049774	0.0001144	1427.1	5.3598e-06	5.1344e-06	1437.4	378.62	4.8563e-06	4.373e-06	432.23	146.91	127.52	42.92	5.9513e-06	52.783	0.00028665	0.00021552	6.0905e-05	1440.6	2.409e-06	2.3204e-06	1446.2	382.6	2.4771e-06	2.3139e-06	437.34	149.22	129.61	43.762	2.4906e-06	54.035	221.604	173.810	157.654	62.898	219.994	197.799	62.776	67.659	224.307	198.411	67.085	71.700	72.301	76.297	205.492	75.768	-8191	255	
487.004	1	1	0	0	0.13243	0.21219	0.030798	0.4209	0.28591	0.073689	0.24329	0.28836	0.20421	0.071485	0.1387	0.20504	0.21988	0.098212	0.17615	0.15375	-1.9438	-2.4479	-2.4896	-2.1542	-2.4979	-2.5021	-2.5687	-2.6604	-2.3896	-2.5667	-2.8125	-2.1958	-2.5979	-2.7396	-2.0792	-2.825	210.610	126.500	376.829	378.265	365.202	235.507	379.440	93.831	98.348	128.520	379.885	121.459	296.711	57.920	115.787	370.099	0.00041116	0.00063721	0.00016167	1425.8	7.2009e-06	5.1102e-06	1435.2	378.64	3.3489e-06	5.7445e-06	432.48	146.61	127.4	42.87	4.9706e-06	53.305	0.0002848	0.0002161	5.8786e-05	1439.8	2.4878e-06	2.3655e-06	1446.4	382.48	2.4546e-06	2.3269e-06	436.98	149.03	129.63	43.774	2.4878e-06	54.167	225.014	137.180	157.472	62.826	228.281	196.597	62.731	67.491	246.917	182.407	66.938	71.800	72.356	76.216	236.213	75.608	-8191	255	
487.101	1	1	0	0	0.14089	0.16469	0.38697	0.25434	0.053949	0.17966	0.28968	0.23967	0.28776	0.097324	0.093789	0.23695	0.13901	0.080455	0.099331	0.11526	-1.8271	-2.1271	-2.6458	-2.4896	-2.2896	-2.6167	-2.4562	-2.625	-2.4229	-2.3187	-2.9042	-2.3021	-2.7562	-2.8458	-2.1646	-2.8438	274.951	154.871	376.376	352.799	79.231	108.611	355.919	359.358	158.441	313.219	61.050	390.961	211.110	362.402	79.214	198.627	0.00042217	0.00053986	0.00014065	1421.1	6.1914e-06	4.9744e-06	1439	376.61	4.5739e-06	3.7099e-06	433.2	145.82	127.07	42.799	5.4934e-06	53.008	0.00027966	0.00021773	6.0182e-05	1439	2.4719e-06	2.2547e-06	1446.4	381.96	2.4759e-06	2.3879e-06	437.28	148.68	129.5	43.702	2.4635e-06	54.033	223.097	153.198	143.541	62.873	214.437	213.387	63.026	67.756	242.720	193.390	67.030	71.860	72.531	76.397	202.689	75.494	-8191	255	
487.172	1	1	0	0	0.30383	0.057608	0.023285	0.36874	0.051367	0.20171	0.35305	0.13559	0.19405	0.071652	0.10323	0.22154	0.15229	0.080801	0.21423	0.20649	-1.9771	-2.1479	-2.6208	-2.5958	-2.4354	-2.7396	-2.4521	-2.5708	-2.4917	-2.1354	-2.5854	-2.4188	-2.7521	-2.4688	-2.3208	-2.4938	51.205	212.596	181.964	400.421	308.774	278.857	288.552	73.127	239.399	408.187	57.717	376.671	58.217	354.114	218.606	211.675	0.0004445	0.00035388	0.00014127	1426	6.9565e-06	4.366e-06	1439.1	377.44	3.8633e-06	4.2799e-06	430.04	146.88	127.57	42.75	3.5875e-06	53.097	0.00028501	0.00021924	5.846e-05	1439.3	2.5591e-06	2.2994e-06	1445.7	382.28	2.4965e-06	2.3123e-06	436.48	149.16	129.6	43.779	2.4906e-06	54.131	223.046	145.447	156.231	62.806	220.394	210.208	63.024	67.686	233.531	199.832	66.897	71.613	72.216	76.341	235.693	75.746	-8191	255	
487.293	1	1	0	0	0.17577	0.07918	0.13196	0.46924	0.036305	0.064656	0.13622	0.24592	0.20926	0.12925	0.12397	0.11218	0.26987	0.29018	0.094867	0.30797	-2.2146	-2.2208	-2.4917	-2.5917	-2.4917	-2.5938	-2.3187	-2.6146	-2.5146	-2.3312	-2.8396	-2.4562	-2.5021	-2.5687	-2.1146	-2.4271	86.719	348.717	88.232	398.563	208.854	215.184	330.833	360.045	371.089	401.026	78.682	103.701	343.835	62.189	363.605	347.925	0.00043264	0.00046189	0.00017104	1424.4	4.8118e-06	3.8974e-06	1439.6	377.07	4.6341e-06	5.8035e-06	433.2	146.83	127.75	42.825	6.1167e-06	52.913	0.00028132	0.00021953	5.9459e-05	1441.5	2.4942e-06	2.3144e-06	1446.4	382.25	2.4288e-06	2.3707e-06	437.74	149.12	129.8	43.758	2.4721e-06	53.99	222.916	149.874	151.802	62.806	209.605	201.760	62.847	67.704	231.554	184.240	66.891	71.759	72.179	76.223	217.489	75.657	-8191	255	
487.389	1	1	0	0	0.21953	0.2595	0.26648	0.14981	0.25567	0.20618	0.14453	0.34159	0.097044	0.069237	0.18556	0.24489	0.097957	0.16447	0.24185	0.20076	-2.0083	-2.0187	-2.5812	-2.4938	-2.3063	-2.6042	-2.5417	-2.3792	-2.7125	-2.2771	-2.7062	-2.5104	-2.2875	-2.825	-2.3625	-2.5667	129.806	320.015	381.117	400.264	68.316	187.259	335.487	337.782	90.769	220.460	340.490	370.699	374.329	365.881	214.340	65.249	0.00042158	0.00042737	0.00013729	1425.7	4.9074e-06	5.1448e-06	1440.4	376.47	4.9188e-06	4.8535e-06	429.28	146.78	127.23	42.733	3.8746e-06	53.113	0.00028088	0.00021736	5.9685e-05	1437	2.629e-06	2.3459e-06	1445.7	381.64	2.4936e-06	2.3627e-06	435.51	148.83	129.36	43.682	2.4426e-06	54.078	223.273	167.528	137.191	62.983	224.086	225.295	62.884	67.634	214.483	202.450	66.775	71.653	72.598	76.160	227.280	75.544	-8191	255	
487.485	1	1	0	0	0.043785	0.13618	0.24192	0.24814	0.1456	0.051152	0.066406	0.20561	0.16334	0.33644	0.20653	0.1171	0.2636	0.1247	0.031658	0.084901	-2.0958	-2.0271	-2.6667	-2.4625	-2.2333	-2.7938	-2.7292	-2.4458	-2.6833	-2.2083	-2.5229	-2.6521	-2.3	-2.725	-2.375	-2.5417	199.908	259.771	168.243	390.472	115.801	169.593	172.441	355.321	128.096	379.125	78.760	335.397	389.076	358.722	311.707	271.839	0.00042788	0.00056913	0.00010759	1424.1	4.7892e-06	5.5553e-06	1435.4	376.07	4.2969e-06	5.1769e-06	432.1	146.38	127.75	42.828	4.8739e-06	53.077	0.00028269	0.00021457	5.8962e-05	1439.3	2.6328e-06	2.3019e-06	1444.7	382.12	2.4022e-06	2.3795e-06	436.69	148.72	129.69	43.792	2.4927e-06	54.131	223.942	123.780	158.109	62.880	217.628	202.641	62.875	67.670	215.781	197.433	67.107	71.655	72.570	76.221	211.077	75.695	-8191	255	
487.581	1	1	0	0	0.056919	0.12717	0.32284	0.33168	0.029055	0.17716	0.22669	0.17316	0.060617	0.045628	0.21802	0.27853	0.24453	0.23831	0.21075	0.26419	-2.0938	-2.1042	-2.4062	-2.8271	-2.2292	-2.475	-2.4854	-2.4542	-2.6625	-2.2708	-2.6021	-2.6562	-2.2729	-2.8146	-2.5062	-2.2687	157.179	292.959	177.486	401.815	287.339	317.750	344.565	400.841	207.836	261.912	309.237	87.530	64.011	347.474	397.524	72.243	0.00040632	0.00065449	0.00011478	1421.3	7.3245e-06	4.9465e-06	1434.6	377.51	4.0911e-06	3.7122e-06	430.17	146.29	127.36	42.902	5.7903e-06	52.982	0.00028099	0.00021686	5.9924e-05	1439.1	2.5145e-06	2.3937e-06	1445.3	381.72	2.5375e-06	2.3682e-06	436.04	148.82	129.56	43.862	2.4389e-06	54.046	221.810	149.162	123.487	62.778	219.593	192.372	62.783	67.680	237.934	189.727	67.016	71.733	72.272	76.320	207.056	75.454	-8191	255	
487.700	1	1	0	0	0.11314	0.22879	0.1808	0.41584	0.32429	0.046742	0.40523	0.24333	0.22828	0.26146	0.13677	0.2783	0.14627	0.32859	0.12635	0.058637	-2.3104	-2.2146	-2.2396	-2.8958	-2.1083	-2.4167	-2.7917	-2.3187	-2.725	-2.4437	-2.5542	-2.7396	-2.4479	-2.6208	-2.7333	-2.3333	150.421	256.165	362.857	341.627	408.510	204.640	348.288	289.224	201.685	81.985	339.397	348.969	347.913	391.302	157.331	102.771	0.00041317	0.00054279	0.00013126	1424.8	6.057e-06	3.8824e-06	1438.6	377.21	4.1769e-06	3.9438e-06	429.56	145.84	127.32	42.77	6.3621e-06	53.236	0.000284	0.00021749	6.2861e-05	1438.4	2.573e-06	2.394e-06	1445.5	381.54	2.454e-06	2.3506e-06	435.66	148.47	129.53	43.706	2.4929e-06	54.087	220.970	135.175	132.364	62.719	214.414	194.009	62.626	67.738	245.986	187.653	66.913	71.877	72.605	76.432	217.123	75.419	-8191	255	
487.774	1	1	0	0	0.14618	0.073753	0.27088	0.3821	0.12816	0.11953	0.27071	0.39731	0.15586	0.18092	0.23495	0.077732	0.16763	0.25129	0.22607	0.23987	-2.2854	-2.4604	-2.4021	-2.7917	-2.4271	-2.5542	-2.6562	-2.2854	-2.7313	-2.5208	-2.5708	-2.6354	-2.4875	-2.6271	-2.6042	-2.4458	231.614	262.482	62.917	377.586	280.108	65.529	337.292	359.719	210.573	85.401	90.455	94.868	353.116	188.002	211.819	372.018	0.00039626	0.0006428	0.00015239	1424.8	6.4439e-06	3.8906e-06	1433.4	375.31	5.0386e-06	3.6938e-06	429.89	146.24	127.06	42.72	5.1256e-06	53.175	0.00028232	0.0002132	6.2256e-05	1438.6	2.5708e-06	2.4054e-06	1444.5	381.5	2.5081e-06	2.3752e-06	436.05	148.67	129.44	43.697	2.5048e-06	54.148	222.824	149.841	139.154	62.791	214.376	193.243	62.782	67.707	231.133	173.183	66.853	71.775	72.212	76.023	219.797	75.525	-8191	255	
487.893	1	1	0	0	0.12117	0.12521	0.067588	0.20701	0.1909	0.20841	0.48973	0.22521	0.045635	0.20316	0.13874	0.10516	0.25781	0.08359	0.14829	0.053286	-2.1729	-2.0646	-2.2167	-3.1146	-2.2583	-2.3729	-2.9625	-2.2292	-2.5	-2.3583	-2.4875	-2.6646	-2.3937	-2.6896	-2.5667	-2.0646	277.218	203.106	171.014	402.748	163.586	337.302	309.100	320.234	116.099	375.295	354.766	302.627	76.263	303.096	203.381	377.003	0.0004143	0.00050352	0.00012017	1423.9	4.987e-06	4.2156e-06	1435.4	377.12	3.7741e-06	5.5279e-06	431.29	146.32	127.39	42.875	6.7627e-06	53.205	0.000283	0.00021647	6.1248e-05	1437.9	2.5792e-06	2.3122e-06	1442.5	382.11	2.4931e-06	2.3731e-06	436.21	148.94	129.31	43.733	2.4129e-06	54.157	223.659	134.472	148.767	62.739	219.589	202.220	62.894	67.647	229.143	188.487	67.407	71.741	72.330	76.231	228.726	75.585	-8191	255	
487.989	1	1	0	0	0.19525	0.2874	0.079552	0.049021	0.21105	0.19557	0.25266	0.29469	0.14531	0.1528	0.29218	0.078734	0.091625	0.051229	0.095579	0.098224	-2.2	-2.4271	-2.1312	-2.8833	-2.4938	-2.3021	-2.7229	-2.4458	-2.375	-2.5521	-2.3167	-2.7979	-2.5396	-2.4417	-2.6167	-2.2667	191.283	172.980	320.358	331.841	277.387	173.809	52.898	376.903	159.385	386.323	362.245	285.830	339.577	339.785	249.840	366.538	0.00041062	0.00030869	0.00016898	1425	5.6579e-06	5.2504e-06	1434.4	376.95	4.8358e-06	5.7691e-06	430.02	146.77	127.32	42.642	7.634e-06	53.205	0.00028132	0.00021509	6.0426e-05	1437.9	2.5296e-06	2.3509e-06	1444.1	381.55	2.4979e-06	2.3463e-06	435.77	148.88	129.4	43.697	2.485e-06	54.115	221.642	130.670	148.805	62.763	223.274	210.185	62.914	67.713	233.618	210.451	66.971	71.611	72.387	76.397	222.586	75.816	-8191	255	
488.085	1	1	0	0	0.044139	0.092527	0.078262	0.37081	0.067481	0.16927	0.32499	0.11779	0.06173	0.36482	0.15867	0.15197	0.2303	0.36142	0.24316	0.1695	-2.1146	-2.4208	-2.2438	-2.8708	-2.5229	-2.2313	-2.8917	-2.4708	-2.5667	-2.5521	-2.1625	-2.7646	-2.6063	-2.2104	-2.5292	-2.1958	201.789	219.806	215.202	376.809	138.189	152.373	351.844	95.547	245.972	321.079	342.327	388.685	398.220	83.445	349.261	390.643	0.00041686	0.00070262	0.0001357	1424.2	6.2777e-06	5.9991e-06	1437.6	377.37	4.4799e-06	6.4572e-06	432.07	146.52	127.45	42.881	4.6727e-06	53.722	0.0002818	0.00021504	6.147e-05	1438.8	2.5296e-06	2.4168e-06	1446	382.1	2.3987e-06	2.3178e-06	437.26	148.85	129.66	43.855	2.4223e-06	54.284	223.803	148.249	132.449	62.959	232.656	203.956	62.938	67.631	237.447	191.361	66.936	71.682	72.066	76.476	216.449	75.840	-8191	255	
488.181	1	1	0	0	0.18287	0.1818	0.15479	0.20295	0.21919	0.050384	0.39403	0.33442	0.23359	0.20443	0.084004	0.074095	0.13754	0.064229	0.22211	0.3669	-1.9771	-2.5771	-2.2188	-2.7938	-2.4958	-2.3375	-2.8792	-2.3812	-2.5479	-2.5354	-2.3542	-2.7562	-2.6396	-2.2958	-2.5271	-2.6813	223.996	333.518	156.108	399.026	296.013	401.632	377.192	332.503	191.055	323.538	62.422	86.174	330.745	409.571	323.798	262.796	0.00044831	0.00061463	0.00020498	1428.9	5.5124e-06	4.2109e-06	1438.1	376.61	4.1829e-06	5.3885e-06	432.96	146.42	127.84	42.767	7.6646e-06	53.253	0.00028172	0.00021113	5.9902e-05	1440.7	2.4401e-06	2.3448e-06	1447.2	382.02	2.4365e-06	2.3062e-06	436.69	148.92	129.74	43.821	2.4878e-06	54.149	223.234	137.220	135.244	62.867	222.472	203.386	62.885	67.723	229.258	180.500	66.845	71.845	72.365	76.381	214.314	75.707	-8191	255	
488.302	1	1	0	0	0.16566	0.27029	0.050588	0.16005	0.076942	0.36031	0.20234	0.061939	0.12336	0.13176	0.27242	0.2496	0.20123	0.38402	0.21926	0.051143	-1.8792	-2.4979	-2.3146	-2.4667	-2.5625	-2.3021	-2.7667	-2.5208	-2.2625	-2.4792	-2.4833	-2.7104	-2.4667	-2.1167	-2.7271	-2.3333	135.193	93.386	231.265	70.323	105.587	55.883	51.026	367.559	97.388	315.709	409.331	348.048	382.570	383.669	175.853	191.331	0.00041459	0.0003921	0.00010499	1423.4	6.5724e-06	4.1457e-06	1431.4	375.74	3.5939e-06	3.7508e-06	433.24	147.24	127.83	42.834	5.9025e-06	53.243	0.00027722	0.00021383	6.0042e-05	1439.4	2.4455e-06	2.3192e-06	1443.2	381.25	2.4324e-06	2.2533e-06	437.14	149.38	129.75	43.916	2.437e-06	54.182	226.216	155.317	141.157	62.796	225.164	204.124	63.068	67.750	224.076	209.050	66.783	71.828	72.182	76.325	214.538	75.614	-8191	255	
488.373	1	1	0	0	0.16918	0.22503	0.034215	0.26136	0.20892	0.057808	0.038023	0.33492	0.12126	0.20671	0.16923	0.36529	0.47964	0.33361	0.10018	0.086486	-1.8521	-2.6875	-2.3104	-2.6354	-2.4729	-2.3271	-2.8083	-2.6562	-2.3417	-2.7625	-2.4146	-2.6292	-2.7896	-2.2604	-2.5792	-2.6479	137.756	357.224	210.899	373.479	399.093	174.694	379.801	401.461	188.149	298.144	374.815	311.811	404.006	60.757	233.490	342.160	0.00041977	0.00052001	0.00013466	1419.8	5.7148e-06	5.2793e-06	1437.7	377.39	2.5264e-06	5.0642e-06	432.14	146.94	127.36	42.875	5.3675e-06	53.033	0.00028085	0.00021633	5.8519e-05	1438.7	2.4438e-06	2.3673e-06	1445.6	382.27	2.4673e-06	2.2679e-06	437.09	149.36	129.72	43.845	2.4468e-06	54.141	224.048	150.825	157.316	62.919	230.179	201.415	62.904	67.730	234.180	204.698	67.266	71.565	72.418	76.335	225.548	75.778	-8191	255	
488.469	1	1	0	0	0.19533	0.14924	0.16325	0.35312	0.17317	0.17489	0.44407	0.28614	0.14669	0.069298	0.23457	0.084901	0.19429	0.096271	0.060845	0.16888	-1.6979	-2.7292	-2.1813	-2.6542	-2.6271	-2.2042	-2.9021	-2.5375	-2.2229	-2.6208	-2.4917	-2.5604	-2.775	-2.2042	-2.7271	-2.6729	273.444	60.589	159.189	408.172	330.794	209.412	331.931	376.019	335.132	106.519	60.219	261.600	393.640	145.064	88.005	373.072	0.00042678	0.00053502	0.00014656	1430	6.5167e-06	3.4175e-06	1433.3	376.74	4.7119e-06	4.4097e-06	432.02	146.5	127.73	42.92	5.3822e-06	53.436	0.00028583	0.00021631	6.0512e-05	1439.7	2.4956e-06	2.2983e-06	1445.7	381.92	2.5189e-06	2.3329e-06	437.28	149.14	129.76	43.877	2.4693e-06	54.174	220.892	142.363	149.316	62.893	210.145	193.383	62.891	67.866	221.174	198.153	66.881	71.707	72.344	76.321	214.934	75.753	-8191	255	
488.590	1	1	0	0	0.11997	0.092538	0.20924	0.28594	0.18993	0.055679	0.3267	0.15865	0.076235	0.090889	0.062391	0.19997	0.065767	0.10928	0.047281	0.14793	-1.5833	-2.7021	-2.25	-2.7	-2.5271	-2.3042	-2.7479	-2.6583	-2.3083	-2.5396	-2.5854	-2.3854	-2.7687	-2.4562	-2.5417	-2.7188	399.521	149.861	164.131	398.768	296.285	291.196	356.580	179.983	293.862	91.290	175.725	53.255	100.312	397.623	101.883	55.374	0.0004322	0.00053901	0.0001389	1429.9	5.3348e-06	5.8486e-06	1434.5	376.06	5.2319e-06	4.8321e-06	432.43	146.43	127.35	42.848	5.1229e-06	53.228	0.0002864	0.00021554	6.2093e-05	1441.1	2.4677e-06	2.3605e-06	1445.9	381.97	2.4576e-06	2.2743e-06	436.68	149.12	129.61	43.804	2.4338e-06	54.132	224.405	163.602	137.096	62.968	220.525	199.942	63.028	67.867	227.707	174.904	67.038	72.000	72.372	76.178	211.786	75.703	-8191	255	
488.684	1	1	0	0	0.24975	0.10019	0.10447	0.29681	0.10112	0.075067	0.56599	0.26654	0.19057	0.068585	0.30866	0.13051	0.24725	0.23789	0.13319	0.36215	-1.9042	-2.5146	-2.3896	-2.3125	-2.6958	-2.4396	-2.4625	-2.7542	-2.2396	-2.5917	-2.4958	-2.0271	-2.9979	-2.1792	-2.4854	-2.5646	276.995	106.881	207.580	75.574	103.365	179.355	377.061	339.007	344.396	231.104	298.601	357.521	390.772	73.103	118.141	339.259	0.00041891	0.00052413	0.00017133	1424.4	5.9723e-06	4.3527e-06	1438.5	375.18	3.9335e-06	3.5993e-06	432	146.62	127.45	42.851	4.2961e-06	53.041	0.00028301	0.00021549	5.959e-05	1438.5	2.4925e-06	2.2919e-06	1445.3	381.56	2.538e-06	2.3706e-06	436.93	149.01	129.71	43.787	2.4875e-06	54.149	223.126	123.885	131.718	62.838	206.750	204.211	63.056	67.827	219.053	204.346	67.114	71.939	72.231	76.041	212.791	75.485	-8191	255	
488.781	1	1	0	0	0.075182	0.082988	0.17379	0.41995	0.10635	0.057465	0.068378	0.16148	0.061269	0.13885	0.18485	0.18109	0.18707	0.22481	0.18572	0.2039	-1.7958	-2.5187	-2.3625	-2.5667	-2.5333	-2.2979	-2.7042	-2.5917	-2.125	-2.4813	-2.5396	-2.1208	-2.8604	-2.4792	-2.3375	-2.8021	245.806	407.026	139.953	406.605	298.685	345.059	281.246	378.469	341.271	65.679	75.939	348.282	388.115	50.598	143.976	324.351	0.00044882	0.00063889	0.00012099	1424	7.5692e-06	5.7172e-06	1433.3	376.57	4.5738e-06	5.0262e-06	430.7	147.44	128.29	42.985	5.0707e-06	53.529	0.00028332	0.00021612	6.0882e-05	1439.9	2.4798e-06	2.4838e-06	1446.2	382.35	2.5059e-06	2.2397e-06	436.35	149.24	129.86	43.896	2.456e-06	54.319	223.808	137.734	163.222	62.885	224.394	203.556	63.002	67.706	234.650	203.645	67.232	71.835	72.407	76.329	233.199	75.785	-8191	255	
488.877	1	1	0	0	0.093015	0.13378	0.21985	0.31552	0.23771	0.18741	0.22111	0.27147	0.084875	0.01336	0.12199	0.3715	0.038229	0.074608	0.097583	0.28552	-1.7667	-2.425	-2.3333	-2.3292	-2.4417	-2.3854	-2.2625	-2.8146	-2.5104	-2.4333	-2.4875	-2.3167	-2.6896	-2.4896	-1.9542	-2.8979	213.934	239.585	94.675	358.444	86.658	130.592	324.526	352.487	87.657	250.621	291.796	408.627	78.142	312.433	71.095	389.456	0.0004435	0.0004632	0.00013987	1429.3	6.3241e-06	4.2573e-06	1436.5	377.41	4.7599e-06	3.8854e-06	431.11	147.54	127.95	43.133	6.1967e-06	53.469	0.00028524	0.00020964	6.1058e-05	1440.5	2.4173e-06	2.2662e-06	1447.1	382.42	2.5063e-06	2.31e-06	438.05	149.79	130.27	44.056	2.3984e-06	54.51	221.471	135.731	136.515	62.770	227.027	199.092	62.785	67.754	211.120	180.924	67.083	71.544	72.245	76.154	215.853	75.545	-8191	255	
488.997	1	1	0	0	0.27981	0.2022	0.032357	0.21386	0.28791	0.20121	0.14831	0.23111	0.19014	0.23369	0.057262	0.40016	0.074739	0.22769	0.16235	0.21933	-1.7875	-2.2917	-2.5896	-2.2	-2.6042	-2.4833	-2.1021	-2.6458	-2.1896	-2.1542	-2.6229	-2.4583	-2.4917	-2.3812	-2.2292	-2.7771	243.571	284.529	258.793	364.090	275.128	152.735	377.180	380.874	194.784	159.198	109.477	348.960	233.809	398.176	393.445	324.277	0.0004415	0.00056815	0.00021269	1427.7	6.6644e-06	5.2503e-06	1438	378.17	4.6381e-06	4.0876e-06	432.83	147.24	128.24	43.338	5.84e-06	53.673	0.00028208	0.00021709	5.9427e-05	1443.4	2.4619e-06	2.2981e-06	1448.4	382.81	2.4363e-06	2.3338e-06	437.82	149.77	130.48	44.199	2.456e-06	54.538	223.962	131.541	136.150	62.725	228.086	204.197	62.960	67.775	242.855	182.577	67.167	71.755	72.387	76.300	203.633	75.683	-8191	255	
489.069	1	1	0	0	0.12397	0.05834	0.048285	0.25257	0.20359	0.094888	0.35237	0.25243	0.14825	0.084414	0.3242	0.21088	0.20865	0.23709	0.17261	0.25718	-1.7021	-2.0729	-2.5604	-2.525	-2.55	-2.4167	-2.3875	-2.6208	-2.3146	-2.1625	-2.6063	-2.4292	-2.4479	-2.6583	-2.1875	-2.6937	311.936	183.407	165.160	409.921	50.195	185.825	294.355	356.370	387.220	316.718	299.154	355.384	61.304	324.509	290.555	343.727	0.00043782	0.00055369	0.0001203	1431.5	6.3085e-06	3.957e-06	1439.1	379.53	3.3883e-06	4.5083e-06	432.31	147.35	128.02	43.072	5.5882e-06	53.399	0.00028023	0.00021517	5.9924e-05	1444.3	2.5681e-06	2.3514e-06	1447.8	383.88	2.4209e-06	2.3444e-06	437.45	149.68	130.25	44.064	2.4613e-06	54.424	224.975	147.982	129.609	62.913	217.070	217.939	62.951	67.949	251.374	198.477	67.088	71.933	72.331	76.303	225.598	75.488	-8191	255	
489.165	1	1	0	0	0.18795	0.24259	0.07541	0.24555	0.093135	0.082029	0.36394	0.14791	0.06062	0.29965	0.18968	0.17874	0.28076	0.17055	0.095123	0.17757	-1.6083	-2.1958	-2.6521	-2.2896	-2.4333	-2.6813	-2.2687	-2.6083	-2.3896	-2.0917	-2.5979	-2.3354	-2.325	-2.6771	-2.0125	-2.6146	251.518	90.514	372.226	367.470	180.819	111.179	327.666	79.002	133.335	268.950	378.772	171.198	399.693	389.274	289.988	120.040	0.00041402	0.00085815	0.00015045	1430.1	6.6633e-06	5.0194e-06	1436.3	379.35	4.0376e-06	5.962e-06	433.42	148.07	128.33	43.396	6.6992e-06	53.682	0.00028553	0.0002206	6.0634e-05	1443.3	2.4798e-06	2.3609e-06	1448.4	383.52	2.475e-06	2.3936e-06	438.83	150.28	130.66	44.283	2.4555e-06	54.61	220.983	131.743	154.468	62.736	205.424	210.982	62.929	68.096	242.480	199.005	66.935	71.809	72.511	76.325	212.226	75.553	-8191	255	
#DATA ENDS
