BOXY.EXE: ISS Imagent and Oximeter Data Acquisition Program Version 0.80
Ascii Record File

#ACQ INFORMATION
2  Detector Channels 
16  External MUX Channels 
1  Auxiliary Channels 
5000  Waveform (CCF) Frequency (Hz)
1  Waveforms Skipped 
30  Waveforms Averaged 
1  Cycles Averaged 
16  Acquisitions per Waveform 
10.0806  Updata Rate (Hz) 

#FILE INFORMATION
TRUE -- External MUX Channel results are PARSED.
FALSE -- AC DC and Phase are NOT grouped.
TRUE -- Companion Program Settings File CREATED.
FALSE -- AC data not excluded
FALSE -- DC data not excluded
FALSE -- Phase data not excluded
FALSE -- Auxillary Chn. data not excluded
Tab delimiters

#CALIBRATION STATE
TRUE -- Waveform Calibration Values APPLIED.


#AUX CALIBRATION VALUES
Val Type	aux-1	

Term	1.0000e+00	
Factor	0.0000e+00	


#WF CALIBRATION VALUES
A = Detector Channel
Val Type	A-AC1	A-AC2	A-AC3	A-AC4	A-AC5	A-AC6	A-AC7	A-AC8	A-AC9	A-AC10	A-AC11	A-AC12	A-AC13	A-AC14	A-AC15	A-AC16	A-DC1	A-DC2	A-DC3	A-DC4	A-DC5	A-DC6	A-DC7	A-DC8	A-DC9	A-DC10	A-DC11	A-DC12	A-DC13	A-DC14	A-DC15	A-DC16	A-Ph1	A-Ph2	A-Ph3	A-Ph4	A-Ph5	A-Ph6	A-Ph7	A-Ph8	A-Ph9	A-Ph10	A-Ph11	A-Ph12	A-Ph13	A-Ph14	A-Ph15	A-Ph16	

Term	0.00000e+00	0.00000e+00	0.00000e+00	0.00000e+00	0.00000e+00	0.00000e+00	0.00000e+00	0.00000e+00	0.00000e+00	0.00000e+00	0.00000e+00	0.00000e+00	0.00000e+00	0.00000e+00	0.00000e+00	0.00000e+00	0.00000e+00	0.00000e+00	0.00000e+00	0.00000e+00	0.00000e+00	0.00000e+00	0.00000e+00	0.00000e+00	0.00000e+00	0.00000e+00	0.00000e+00	0.00000e+00	0.00000e+00	0.00000e+00	0.00000e+00	0.00000e+00	0.00000e+00	0.00000e+00	0.00000e+00	0.00000e+00	0.00000e+00	0.00000e+00	0.00000e+00	0.00000e+00	0.00000e+00	0.00000e+00	0.00000e+00	0.00000e+00	0.00000e+00	0.00000e+00	0.00000e+00	0.00000e+00	
Factor	1.00000e+00	1.00000e+00	1.00000e+00	1.00000e+00	1.00000e+00	1.00000e+00	1.00000e+00	1.00000e+00	1.00000e+00	1.00000e+00	1.00000e+00	1.00000e+00	1.00000e+00	1.00000e+00	1.00000e+00	1.00000e+00	1.00000e+00	1.00000e+00	1.00000e+00	1.00000e+00	1.00000e+00	1.00000e+00	1.00000e+00	1.00000e+00	1.00000e+00	1.00000e+00	1.00000e+00	1.00000e+00	1.00000e+00	1.00000e+00	1.00000e+00	1.00000e+00	X	X	X	X	X	X	X	X	X	X	X	X	X	X	X	X	

B = Detector Channel
Val Type	B-AC1	B-AC2	B-AC3	B-AC4	B-AC5	B-AC6	B-AC7	B-AC8	B-AC9	B-AC10	B-AC11	B-AC12	B-AC13	B-AC14	B-AC15	B-AC16	B-DC1	B-DC2	B-DC3	B-DC4	B-DC5	B-DC6	B-DC7	B-DC8	B-DC9	B-DC10	B-DC11	B-DC12	B-DC13	B-DC14	B-DC15	B-DC16	B-Ph1	B-Ph2	B-Ph3	B-Ph4	B-Ph5	B-Ph6	B-Ph7	B-Ph8	B-Ph9	B-Ph10	B-Ph11	B-Ph12	B-Ph13	B-Ph14	B-Ph15	B-Ph16	

Term	0.00000e+00	0.00000e+00	0.00000e+00	0.00000e+00	0.00000e+00	0.00000e+00	0.00000e+00	0.00000e+00	0.00000e+00	0.00000e+00	0.00000e+00	0.00000e+00	0.00000e+00	0.00000e+00	0.00000e+00	0.00000e+00	0.00000e+00	0.00000e+00	0.00000e+00	0.00000e+00	0.00000e+00	0.00000e+00	0.00000e+00	0.00000e+00	0.00000e+00	0.00000e+00	0.00000e+00	0.00000e+00	0.00000e+00	0.00000e+00	0.00000e+00	0.00000e+00	7.69092e+01	-1.57133e+02	-1.40298e+02	-1.83357e+02	-8.57923e+01	-9.61485e+01	-1.57811e+02	-1.62015e+02	-9.63076e+01	-7.94854e+01	-1.71773e+02	-1.76027e+02	-1.90442e+02	-1.78137e+02	-7.55781e+01	-1.51514e+02	
Factor	7.25629e-05	1.26310e-04	3.84968e-05	1.60158e-01	1.49291e-06	1.25563e-06	1.65719e-01	6.68398e-02	1.67473e-06	1.13955e-06	1.04063e-01	3.34377e-02	7.91682e-02	9.59968e-03	1.29691e-06	1.37347e-02	1.37806e-06	1.41268e-06	3.92199e-07	8.14832e-02	1.54144e-08	1.55321e-08	7.93246e-02	3.36794e-02	1.54806e-08	1.54730e-08	5.04826e-02	1.61872e-02	3.66616e-02	4.85886e-03	1.54390e-08	6.71243e-03	X	X	X	X	X	X	X	X	X	X	X	X	X	X	X	X	



#DISTANCE SETTINGS
A = Detector Channel
A-1	A-2	A-3	A-4	A-5	A-6	A-7	A-8	A-9	A-10	A-11	A-12	A-13	A-14	A-15	A-16	

2.5000e+00	3.0000e+00	2.5000e+00	3.0000e+00	2.0000e+00	3.0000e+00	1.5000e+00	3.0000e+00	3.0000e+00	3.0000e+00	3.0000e+00	3.0000e+00	3.0000e+00	3.0000e+00	1.5000e+00	3.0000e+00	

B = Detector Channel
B-1	B-2	B-3	B-4	B-5	B-6	B-7	B-8	B-9	B-10	B-11	B-12	B-13	B-14	B-15	B-16	

1.0000e+01	1.0000e+01	1.0000e+01	1.4400e+00	1.0000e+01	1.0000e+01	1.5100e+00	1.9400e+00	1.0000e+01	1.0000e+01	1.9900e+00	2.4900e+00	2.4100e+00	2.9000e+00	1.0000e+01	2.9800e+00	




#DATA BEGINS
time	group	step	mark	flag	A-AC1	A-AC2	A-AC3	A-AC4	A-AC5	A-AC6	A-AC7	A-AC8	A-AC9	A-AC10	A-AC11	A-AC12	A-AC13	A-AC14	A-AC15	A-AC16	A-DC1	A-DC2	A-DC3	A-DC4	A-DC5	A-DC6	A-DC7	A-DC8	A-DC9	A-DC10	A-DC11	A-DC12	A-DC13	A-DC14	A-DC15	A-DC16	A-Ph1	A-Ph2	A-Ph3	A-Ph4	A-Ph5	A-Ph6	A-Ph7	A-Ph8	A-Ph9	A-Ph10	A-Ph11	A-Ph12	A-Ph13	A-Ph14	A-Ph15	A-Ph16	B-AC1	B-AC2	B-AC3	B-AC4	B-AC5	B-AC6	B-AC7	B-AC8	B-AC9	B-AC10	B-AC11	B-AC12	B-AC13	B-AC14	B-AC15	B-AC16	B-DC1	B-DC2	B-DC3	B-DC4	B-DC5	B-DC6	B-DC7	B-DC8	B-DC9	B-DC10	B-DC11	B-DC12	B-DC13	B-DC14	B-DC15	B-DC16	B-Ph1	B-Ph2	B-Ph3	B-Ph4	B-Ph5	B-Ph6	B-Ph7	B-Ph8	B-Ph9	B-Ph10	B-Ph11	B-Ph12	B-Ph13	B-Ph14	B-Ph15	B-Ph16	aux-1	digaux	

7262.274	1	1	0	256	0.35012	0.10828	0.24033	0.29901	0.079537	0.26908	0.21318	0.28378	0.19868	0.2047	0.18093	0.14873	0.17359	0.21194	0.061535	0.043529	-2.1396	-2.0062	-2.8438	-2.375	-2.2875	-2.8875	-2.1396	-2.6917	-2.5521	-2.3146	-2.7146	-2.3854	-2.2083	-2.7396	-1.9708	-2.6021	95.178	123.311	94.224	351.353	37.527	124.657	340.256	290.397	216.250	343.538	334.058	330.853	368.559	385.399	348.958	331.157	0.0014335	0.00024446	0.00020964	1446.3	1.2097e-06	4.5047e-06	1447.3	396.18	8.0272e-06	3.956e-06	450.49	147.08	130.62	43.72	6.1988e-06	53.884	0.00057957	0.00053946	0.00017647	1476.9	6.1099e-06	6.1035e-06	1471.8	405.26	6.2354e-06	6.0036e-06	461.85	150.84	131.27	45.036	7.0563e-06	55.784	360.714	122.067	153.924	49.710	326.658	204.337	49.732	54.309	160.959	157.680	53.802	58.369	59.050	63.309	176.617	61.981	-8191	255	
7262.395	1	1	0	0	0.27466	0.10491	0.26467	0.18939	0.20686	0.18932	0.26349	0.17038	0.076368	0.22773	0.14329	0.22219	0.083776	0.15379	0.10648	0.12348	-2.2708	-2.1333	-2.8333	-2.5563	-2.1042	-2.625	-2.3875	-2.7562	-2.55	-2.0042	-2.8208	-2.6375	-2.2104	-2.8875	-2.1562	-2.45	348.367	302.292	386.968	344.990	316.175	122.927	385.999	335.521	37.064	121.608	348.237	317.153	114.596	154.771	224.108	372.196	0.0015121	0.00042717	0.00027956	1448.4	5.6199e-06	7.8981e-06	1438.6	396.96	6.2115e-06	4.4034e-06	447.9	146.16	130.83	43.769	2.1516e-07	54.22	0.0005746	0.00056307	0.00018059	1475.4	5.9277e-06	6.4368e-06	1470.1	404.41	6.1116e-06	6.4163e-06	461.12	150.05	130.54	45.129	7.0664e-06	55.578	356.064	128.321	91.336	49.852	162.056	187.792	49.369	54.597	87.149	155.404	53.901	58.301	58.897	63.179	149.827	62.215	-8191	255	
7262.491	1	1	0	0	0.31418	0.23879	0.074287	0.3457	0.11118	0.16748	0.31915	0.10961	0.15224	0.15572	0.1774	0.14059	0.37997	0.077564	0.11449	0.25556	-2.3104	-1.9604	-2.6333	-2.5708	-2.1312	-2.7792	-2.475	-2.5521	-2.8146	-2.0042	-2.5125	-2.6688	-2.0187	-2.7562	-2.3479	-2.2938	145.406	70.229	69.790	394.668	126.855	197.227	320.896	324.824	313.596	42.582	205.764	331.219	263.345	130.865	203.206	281.889	0.0011961	0.00059231	0.00016951	1448	8.8705e-06	4.1968e-06	1443.8	397.95	1.4533e-05	3.238e-06	449.22	146.58	130.08	43.676	5.0804e-06	53.748	0.00056063	0.00060452	0.00017537	1472.1	5.8482e-06	6.7898e-06	1466.5	404.04	5.9711e-06	6.7708e-06	460.12	149.77	130.31	45.226	6.7411e-06	55.428	374.736	87.419	52.273	49.844	167.347	140.147	49.626	54.515	139.807	195.640	53.869	58.462	59.228	63.383	89.107	62.404	-8191	255	
7262.587	1	1	0	0	0.34251	0.46267	0.28487	0.37394	0.23849	0.12771	0.30393	0.35344	0.1808	0.048017	0.23145	0.31004	0.1652	0.11119	0.094357	0.085786	-2.4542	-1.85	-2.5958	-2.75	-1.9542	-2.8542	-2.4688	-2.3104	-2.7583	-1.8708	-2.5354	-2.6437	-2.1333	-2.8125	-2.4583	-2.225	76.583	344.339	92.948	49.335	294.914	171.258	285.665	393.125	295.728	210.309	91.492	46.846	338.079	346.344	349.312	349.942	0.0017161	0.00030365	0.00023187	1447.3	8.0221e-06	4.0108e-06	1437.1	396.34	2.7484e-06	5.1778e-06	447.98	146.69	130.57	43.674	4.9721e-06	53.581	0.00056015	0.00063436	0.00016715	1469.6	5.9766e-06	6.9689e-06	1462.9	402.45	6.1717e-06	7.0169e-06	457.06	149.51	131.04	45.115	6.4216e-06	55.196	363.145	92.643	84.463	49.965	188.869	160.463	49.770	54.491	135.203	209.254	53.594	58.535	59.483	63.073	245.717	62.313	-8191	255	
7262.684	1	1	0	0	0.11323	0.20474	0.035196	0.067748	0.30675	0.14209	0.08162	0.047252	0.10983	0.16131	0.063695	0.14665	0.17877	0.070351	0.20385	0.34156	-2.3875	-2.0896	-2.2958	-2.9479	-2.1937	-2.6542	-2.4896	-2.1688	-2.7896	-2.1708	-2.5563	-2.8583	-1.9562	-2.5833	-2.4854	-2.2854	330.187	328.123	341.632	360.507	358.181	393.071	381.745	123.272	191.808	170.506	71.193	63.179	342.375	393.691	187.250	283.582	0.0015451	0.00029625	0.00015575	1444.5	1.0893e-05	5.8708e-06	1439	395.68	1.1727e-05	4.8741e-06	449.71	145.93	130.46	43.74	8.9664e-06	53.764	0.00058385	0.00064391	0.00015647	1467.6	6.361e-06	6.8559e-06	1460.6	402.23	6.6046e-06	6.9311e-06	456.63	149.16	132.02	45.06	6.2473e-06	55.17	353.680	49.735	159.031	49.840	192.589	174.863	49.630	54.356	184.795	195.893	53.877	58.669	59.394	63.185	196.482	62.306	-8191	255	
7262.802	1	1	0	0	0.28834	0.22996	0.25606	0.074064	0.26172	0.31847	0.29213	0.25564	0.28669	0.13863	0.17473	0.19146	0.30568	0.15006	0.28136	0.32176	-2.3125	-2.0187	-2.1771	-2.9771	-2.0875	-2.6625	-2.7625	-2.2146	-2.6813	-2.225	-2.5229	-2.8438	-2.1333	-2.5083	-2.5479	-2.1625	65.356	149.564	243.638	279.650	185.613	82.962	283.238	379.272	304.792	124.282	255.154	318.388	317.118	340.712	103.956	96.895	0.0015122	0.00027683	0.00022838	1442.5	1.0804e-05	1.7267e-06	1435.4	395.12	1.1233e-05	2.2638e-06	446.16	146.11	129.29	43.469	4.5715e-06	53.779	0.00062358	0.00061746	0.00015246	1464.9	6.8091e-06	6.5782e-06	1458.9	401.89	6.9176e-06	6.5695e-06	454.18	149.25	132.23	44.885	6.0573e-06	55.249	352.168	170.551	130.649	49.947	202.668	256.604	49.503	54.299	158.317	247.100	53.514	58.474	59.207	63.159	201.754	62.190	-8191	255	
7262.899	1	1	0	0	0.14144	0.19792	0.16894	0.3008	0.13651	0.13931	0.43844	0.23392	0.064032	0.028064	0.31201	0.07644	0.26617	0.28385	0.096262	0.18856	-2.4396	-2.3792	-2.0917	-2.8854	-2.125	-2.5875	-2.9188	-2.2875	-2.8771	-2.4375	-2.3375	-2.8812	-2.2833	-2.4604	-2.7042	-2.2354	45.326	74.132	45.354	336.545	333.923	202.870	320.016	330.933	254.322	51.792	321.799	379.590	382.592	387.158	180.540	322.237	0.0014624	0.00028965	0.0001117	1441	7.2359e-06	6.8298e-06	1437.3	395.7	3.2026e-06	1.0094e-06	446.65	146.45	129.85	43.351	2.1934e-06	53.749	0.00064309	0.00058845	0.00014709	1466.8	6.9372e-06	6.1493e-06	1456.3	401.93	6.9102e-06	6.2855e-06	453.51	149.64	132.4	44.662	5.8908e-06	55.493	364.207	125.613	84.984	49.867	159.773	130.660	49.806	54.464	217.387	246.279	53.600	58.350	59.152	63.110	128.154	62.415	-8191	255	
7262.972	1	1	0	0	0.23369	0.16484	0.18156	0.26274	0.2368	0.10206	0.25818	0.38111	0.35001	0.17086	0.4678	0.059945	0.25951	0.21446	0.25315	0.15952	-2.1833	-2.3667	-2.1562	-3	-2.1229	-2.3542	-2.8833	-2.175	-2.5833	-2.4896	-2.05	-2.8521	-2.3167	-2.4292	-2.7167	-1.9854	61.924	161.924	202.649	376.932	242.188	270.335	298.320	358.849	267.991	223.842	333.126	378.031	295.109	57.114	262.636	122.393	0.001253	0.00031178	0.00012831	1440.9	3.128e-06	5.6196e-06	1436.4	393.71	1.0364e-05	1.8217e-06	445.26	145.99	128.83	43.317	4.3972e-06	53.818	0.00062235	0.00056443	0.00014352	1469	6.7674e-06	5.9438e-06	1456.2	402.95	6.6883e-06	6.2285e-06	453.89	149.82	131.76	44.62	5.923e-06	55.598	353.544	326.916	249.622	49.620	136.329	194.884	49.601	54.243	162.979	217.016	53.406	58.433	59.318	62.745	204.816	62.260	-8191	255	
7263.091	1	1	0	0	0.025712	0.071046	0.13107	0.13712	0.15988	0.15915	0.28053	0.1813	0.085455	0.17833	0.13576	0.16351	0.12082	0.035585	0.083989	0.034923	-2.0563	-2.6021	-2.0458	-3.1312	-2.4104	-2.2396	-3.1604	-2.3292	-2.4604	-2.6833	-2.2917	-2.6896	-2.4229	-2.3125	-2.7062	-2.2646	249.912	192.666	154.955	179.853	93.032	61.304	279.762	338.079	206.960	327.188	326.619	323.208	227.114	207.636	107.623	93.991	0.0012722	0.00077448	0.00023547	1435.4	2.6909e-06	1.2935e-06	1431.9	394.19	4.5377e-06	1.7697e-06	447.45	146.37	128.79	43.392	8.3358e-06	53.41	0.00060049	0.00055646	0.00014855	1469.4	6.5547e-06	5.8009e-06	1455.3	403.48	6.3202e-06	5.9271e-06	454.73	150	130.49	44.54	6.2086e-06	55.459	344.429	391.664	133.428	49.970	154.639	219.525	49.497	54.264	84.546	102.234	53.499	58.466	59.091	62.838	187.081	62.141	-8191	255	
7263.187	1	1	0	0	0.23885	0.20075	0.13276	0.27145	0.14427	0.068455	0.2245	0.13752	0.11525	0.17931	0.21971	0.29031	0.16649	0.15526	0.056084	0.1347	-1.9188	-2.6188	-2.125	-2.9542	-2.6208	-2.25	-2.9792	-2.4125	-2.3812	-2.6354	-2.1167	-2.8187	-2.3417	-2.2458	-2.8312	-2.3479	148.144	168.099	115.644	358.932	276.351	366.057	353.082	171.967	223.644	288.378	58.279	307.649	251.102	254.248	319.724	301.816	0.0012674	0.00028268	9.8427e-05	1434.7	1.6494e-06	8.3491e-06	1435	393.59	6.2717e-06	3.1333e-06	445.48	145.82	129.25	43.192	8.1404e-06	53.748	0.00056254	0.00053993	0.00015633	1465.2	6.189e-06	5.6193e-06	1455.7	402.57	5.9534e-06	5.8184e-06	455.35	149.64	130.03	44.432	6.5882e-06	55.408	354.556	110.421	219.425	49.635	229.242	194.999	49.637	54.203	219.182	289.206	53.682	58.344	59.153	63.092	219.318	62.032	-8191	255	
7263.283	1	1	0	0	0.10196	0.20147	0.15651	0.27698	0.19872	0.17826	0.29999	0.26504	0.09365	0.19671	0.15993	0.27267	0.2477	0.17745	0.15229	0.028166	-2.0187	-2.7313	-2.0479	-2.7396	-2.4521	-2.0542	-2.9771	-2.3312	-2.2208	-2.6708	-2.3667	-2.5917	-2.6813	-2.0917	-2.6937	-2.3542	303.338	231.643	220.123	61.658	387.283	239.379	335.225	294.025	237.635	175.587	190.783	379.283	356.496	287.788	382.588	78.929	0.0017363	0.00070685	0.00021032	1432.7	1.0481e-05	6.7741e-06	1435.3	392.34	9.6775e-06	6.0549e-06	444.5	146.45	128.92	43.157	8.0429e-06	53.502	0.00054364	0.00053463	0.0001667	1462.7	6.0454e-06	5.7193e-06	1456.9	401.21	5.859e-06	5.8588e-06	455.44	148.99	129.69	44.459	6.8003e-06	55.177	350.865	41.328	148.939	49.514	188.619	190.876	49.442	54.205	168.662	183.102	53.740	58.084	59.511	62.979	169.774	62.459	-8191	255	
7263.379	1	1	0	0	0.12051	0.10117	0.13078	0.41861	0.25179	0.081206	0.16749	0.37343	0.1551	0.11297	0.20591	0.13691	0.25924	0.26775	0.077049	0.31459	-1.7	-2.7104	-2.0687	-2.6312	-2.5125	-1.9646	-2.9917	-2.4708	-2.1229	-2.8354	-2.2542	-2.5375	-2.5146	-2.2438	-2.7083	-2.6562	308.280	39.865	197.069	388.632	345.110	275.967	53.475	38.401	340.202	86.846	347.917	283.648	367.824	278.153	233.049	344.197	0.0015634	0.00047507	0.00022022	1431.8	4.6088e-06	4.836e-06	1433	392.76	7.3257e-06	2.6301e-06	445.96	145.84	128.7	43.149	2.6822e-06	53.434	0.00052601	0.00054867	0.00017284	1460.2	5.8408e-06	5.9715e-06	1456.1	400.24	5.5919e-06	6.1748e-06	455.69	148.61	129.01	44.544	6.6988e-06	55.035	345.624	146.228	138.576	49.705	152.475	137.686	49.477	54.426	146.188	235.256	53.622	58.333	58.820	63.078	245.915	62.231	-8191	255	
7263.500	1	1	0	0	0.2789	0.083265	0.11551	0.24188	0.11894	0.034546	0.062301	0.16873	0.26481	0.20084	0.23562	0.14255	0.11511	0.072972	0.14253	0.037762	-1.7229	-2.6292	-2.2542	-2.6146	-2.6875	-2.0833	-2.9271	-2.7396	-2.0792	-2.8646	-2.2896	-2.3771	-2.7917	-2.1375	-2.5896	-2.6375	226.692	340.246	152.092	324.254	257.330	49.463	76.601	315.041	353.290	339.635	44.848	384.993	167.706	226.701	337.464	107.843	0.0013495	0.0005606	0.00014487	1435.6	5.6262e-06	1.5714e-06	1423.9	391.18	9.4696e-06	6.2949e-06	442.96	145.58	128.7	43.227	2.9302e-06	53.371	0.00051743	0.00058754	0.00017023	1459.3	5.7524e-06	6.4756e-06	1452.2	399.4	5.5669e-06	6.5564e-06	454.34	148.32	128.77	44.687	6.3461e-06	54.94	361.402	82.931	84.416	49.650	206.918	217.447	49.350	54.432	193.526	178.765	53.491	58.017	59.460	63.192	328.435	62.229	-8191	255	
7263.572	1	1	0	0	0.17838	0.098197	0.1657	0.25499	0.091892	0.090656	0.18284	0.14186	0.10601	0.090983	0.24443	0.089522	0.10046	0.15423	0.036478	0.29997	-1.7167	-2.9104	-2.1854	-2.3229	-2.8563	-2.0958	-2.8458	-2.8	-2.0812	-2.7583	-2.5708	-2.3833	-2.8458	-2.3729	-2.5792	-2.7313	87.513	251.107	188.786	339.212	165.091	203.750	369.036	120.052	120.565	260.086	42.931	42.482	316.311	322.901	150.229	290.255	0.0016592	0.0008419	0.00028483	1435.5	1.0741e-05	6.4326e-06	1427.4	392.3	1.2948e-05	1.297e-06	442.46	144.57	127.76	43.132	2.3728e-06	53.326	0.00053009	0.00061251	0.00016247	1455.8	5.8957e-06	6.7429e-06	1449.8	398.98	5.8228e-06	6.7862e-06	452.87	147.66	129.53	44.627	6.0389e-06	54.876	348.874	136.414	37.682	49.639	184.545	196.488	49.507	54.443	158.726	224.190	53.886	58.497	59.394	63.376	261.552	62.422	-8191	255	
7263.692	1	1	0	0	0.21852	0.11245	0.059749	0.19696	0.19347	0.17308	0.2077	0.3372	0.25286	0.077314	0.11358	0.15258	0.30072	0.22162	0.15597	0.15406	-1.4667	-2.7458	-2.4521	-2.3667	-2.7896	-2.1	-2.5438	-3.0292	-2.2229	-2.7583	-2.4333	-2.2146	-2.8542	-2.2146	-2.4729	-2.8542	246.142	278.613	59.387	166.517	132.688	298.915	285.692	335.440	302.090	129.790	365.624	95.861	76.505	332.604	276.636	153.656	0.0015568	0.00030754	0.00010414	1431.3	1.2379e-05	8.4302e-06	1426.4	391.46	1.5667e-05	1.7951e-06	441.72	144.44	128.96	43.147	1.9192e-06	53.382	0.00056457	0.00062473	0.00015725	1451.9	6.3621e-06	6.815e-06	1445.1	398.06	6.3212e-06	6.6466e-06	451.93	147.35	130.38	44.611	5.8997e-06	54.757	356.000	324.880	189.125	49.701	181.968	145.015	49.523	54.735	220.556	115.927	53.993	58.299	59.485	63.282	217.514	62.124	-8191	255	
7263.788	1	1	0	0	0.16447	0.26631	0.14313	0.26683	0.21894	0.055378	0.085059	0.041688	0.037845	0.1995	0.26102	0.3156	0.052499	0.099619	0.15184	0.099882	-1.6	-2.5021	-2.5667	-2.1896	-2.8542	-2.2271	-2.4042	-2.8187	-2.0333	-2.6604	-2.8	-2.1521	-2.8083	-2.4021	-2.3104	-2.8542	59.148	210.090	136.335	344.968	121.184	208.101	276.404	95.316	115.552	209.932	274.434	386.962	233.515	354.581	80.052	306.959	0.0018553	0.00027011	0.00013004	1428.9	3.5657e-06	3.8088e-06	1429.9	391.47	6.5646e-06	1.951e-06	443.22	145.19	128.63	43.027	3.3096e-06	53.108	0.00060399	0.00059518	0.000152	1451.4	6.6766e-06	6.5861e-06	1446.1	398.34	6.7361e-06	6.3643e-06	451.76	147.83	131.24	44.464	5.7364e-06	54.728	357.326	90.180	116.233	49.741	140.196	57.166	49.526	54.425	168.214	189.666	53.711	58.346	59.327	63.375	176.577	62.420	-8191	255	
7263.883	1	1	0	0	0.27173	0.22174	0.097142	0.28712	0.13503	0.21472	0.16804	0.1225	0.30904	0.31133	0.14657	0.15173	0.090003	0.24177	0.20461	0.17218	-1.6729	-2.3354	-2.7875	-2.3208	-2.5417	-2.3312	-2.2729	-2.9125	-2.1188	-2.4354	-2.8167	-2.1146	-2.7271	-2.4167	-2.3125	-2.85	73.618	84.795	86.672	80.338	95.097	342.996	370.037	73.136	74.911	248.417	369.637	322.187	323.906	37.802	131.014	349.353	0.001354	0.0004957	5.7686e-05	1426.6	6.0232e-06	4.1946e-06	1424.7	393.22	3.0795e-06	4.4126e-06	444.56	145.59	128.24	43.03	2.8039e-06	53.172	0.00063049	0.00056956	0.00015027	1452.8	6.8728e-06	6.2752e-06	1443.5	399.76	6.8714e-06	6.0498e-06	451.52	148.25	131.05	44.367	5.6258e-06	54.924	368.176	151.526	194.044	49.762	129.131	167.188	49.675	54.526	104.049	203.481	53.901	58.542	59.498	63.299	167.137	62.537	-8191	255	
7263.979	1	1	0	0	0.25842	0.13712	0.13501	0.17347	0.096555	0.19051	0.10538	0.32064	0.11355	0.18085	0.25986	0.27215	0.22863	0.17424	0.11492	0.27295	-1.7646	-2.3479	-2.7438	-2.2854	-2.6479	-2.3708	-2.3187	-2.8208	-2.1188	-2.2208	-2.8333	-2.1625	-2.6854	-2.6396	-2.0521	-2.9458	131.974	187.171	157.677	315.586	178.361	56.757	379.022	358.719	85.242	383.966	371.239	351.705	249.957	157.060	353.964	328.201	0.0012422	0.00012063	5.4811e-05	1426.6	2.7328e-06	5.7608e-06	1423.1	391.45	3.486e-06	2.9434e-06	442.44	144.47	129.12	43.079	7.9288e-06	53.532	0.00062959	0.00054799	0.00014821	1454.7	6.6584e-06	6.1275e-06	1441.7	399.96	6.6898e-06	5.8586e-06	450.85	148.31	130.68	44.294	5.7091e-06	55.23	357.030	59.336	96.749	49.800	142.428	207.102	49.522	54.432	209.236	340.639	53.923	58.423	59.313	63.083	200.478	62.260	-8191	255	
7264.100	1	1	0	0	0.056931	0.14662	0.22992	0.26616	0.11253	0.32453	0.40757	0.11291	0.14469	0.23954	0.056082	0.22771	0.3822	0.15363	0.11967	0.076536	-1.7875	-2.1792	-2.6813	-2.1854	-2.525	-2.6042	-2.2771	-2.925	-2.4229	-2.2292	-2.8292	-2.2375	-2.4313	-2.825	-1.9979	-2.7729	316.631	224.292	367.885	308.876	295.682	39.262	349.715	44.398	378.869	307.669	44.409	301.055	54.477	376.803	339.045	127.350	0.0010643	0.0006497	0.0001501	1425.3	4.9675e-06	2.3051e-06	1427.5	392.41	4.8186e-06	4.3447e-06	444.97	145.09	128.2	43	8.9238e-06	53.169	0.00060777	0.00053612	0.00014978	1455.5	6.3565e-06	5.9787e-06	1445	400.57	6.4456e-06	5.7312e-06	451.64	149.06	129.43	44.276	5.9502e-06	55.085	357.541	129.395	103.375	49.769	123.370	202.409	49.478	54.595	61.843	241.617	53.661	58.375	59.169	63.087	198.779	62.317	-8191	255	
7264.171	1	1	0	0	0.10191	0.083972	0.33516	0.1699	0.14766	0.10468	0.35056	0.098528	0.34373	0.048899	0.20338	0.075778	0.079903	0.18895	0.058035	0.30463	-1.9312	-2.3	-2.7771	-2.4021	-2.5896	-2.6146	-2.4437	-2.8438	-2.5458	-2.2021	-2.8708	-2.3812	-2.2875	-2.6021	-2.1146	-2.7208	267.291	75.289	101.622	332.906	347.836	360.545	331.303	61.896	139.247	144.180	291.019	299.797	309.117	284.095	278.282	99.421	0.0015733	0.00018602	0.00011584	1424.5	1.3861e-06	1.079e-06	1425.4	390.09	2.6858e-06	4.9921e-06	441.96	144.48	128.1	43.061	7.0129e-06	53.084	0.00057648	0.00051822	0.0001581	1455.3	6.0217e-06	5.8294e-06	1445.9	399.15	6.1873e-06	5.5691e-06	452.36	148.52	128.97	44.238	6.4407e-06	54.949	348.272	107.126	135.876	49.498	59.444	308.381	49.557	54.228	152.307	184.167	53.561	58.341	59.162	63.254	224.675	62.165	-8191	255	
7264.267	1	1	0	0	0.1424	0.038215	0.057889	0.20449	0.26339	0.16166	0.36111	0.21862	0.12417	0.041758	0.15635	0.07418	0.27028	0.40736	0.14631	0.057211	-2.0646	-2.2042	-2.9042	-2.5312	-2.3104	-2.8438	-2.2354	-2.7271	-2.5708	-1.9562	-2.9562	-2.3125	-2.1208	-2.8604	-2.0979	-2.7354	121.345	322.419	311.363	65.209	55.118	145.404	349.478	358.122	145.835	67.377	317.697	350.428	83.859	359.165	173.911	350.096	0.0013004	0.00013897	0.00013637	1427.8	9.4067e-06	5.3292e-06	1424	392.06	1.0985e-06	3.5769e-06	443.11	144.33	127.35	42.83	5.2724e-06	53.106	0.00056644	0.00051136	0.00016827	1453.6	5.8337e-06	5.8703e-06	1447.3	399.27	6.1329e-06	5.7153e-06	453.95	148.11	128.49	44.246	6.8814e-06	54.874	359.494	334.432	172.672	49.458	178.487	127.999	49.491	54.170	203.359	183.527	54.085	58.314	59.212	63.188	178.151	61.948	-8191	255	
7264.364	1	1	0	0	0.0893	0.08656	0.27284	0.25748	0.1348	0.23479	0.2571	0.050715	0.21286	0.10819	0.34333	0.060686	0.23936	0.25464	0.1181	0.25289	-1.8833	-1.975	-2.8187	-2.5958	-2.2562	-2.7896	-2.525	-2.6	-2.8417	-2.175	-2.7271	-2.7146	-2.2229	-2.9708	-2.2875	-2.4	282.510	271.265	212.244	378.707	108.797	106.610	346.418	122.623	325.126	389.350	362.065	61.066	74.742	352.356	368.532	336.173	0.0017157	0.00093917	5.4766e-05	1424.7	6.5997e-06	1.0666e-05	1425.4	391.03	2.9545e-07	1.8048e-06	443.58	145.19	128.89	42.892	6.9818e-06	53.117	0.00056071	0.00054123	0.00017501	1451.2	5.809e-06	6.2002e-06	1447.6	398.33	5.9585e-06	6.1142e-06	453.96	148.01	128.68	44.407	6.8976e-06	54.742	345.404	105.887	385.428	49.682	180.803	191.393	49.431	54.311	201.704	211.288	53.787	58.315	59.231	62.949	170.200	62.169	-8191	255	
7264.484	1	1	0	0	0.18911	0.16748	0.07508	0.44921	0.12273	0.22042	0.11048	0.12893	0.38156	0.14124	0.055052	0.26336	0.23363	0.11981	0.20855	0.12387	-2.2604	-2.0792	-2.6167	-2.6375	-2.1	-2.9771	-2.6104	-2.3896	-2.7542	-2.0479	-2.6813	-2.5917	-2.0896	-2.9146	-2.3708	-2.4479	274.662	305.511	48.820	369.687	338.286	153.996	58.663	64.600	217.766	230.767	321.029	334.083	344.612	93.861	386.964	227.445	0.0015944	0.00093304	0.00018679	1425.3	4.1237e-06	7.3236e-06	1420.4	390.38	5.5356e-06	7.4994e-06	442.15	144.57	127.29	42.914	1.7234e-06	53.415	0.00054695	0.00058497	0.0001709	1451.1	5.6677e-06	6.6072e-06	1444.7	397.4	5.8647e-06	6.5735e-06	452.23	147.72	127.89	44.476	6.5568e-06	54.65	357.115	156.458	58.938	49.768	199.589	143.458	49.553	54.281	183.711	207.375	53.739	58.447	59.023	63.160	60.790	62.050	-8191	255	
7264.580	1	1	0	0	0.1489	0.046997	0.21673	0.22803	0.13252	0.17604	0.16803	0.22961	0.054884	0.23138	0.24718	0.11563	0.35905	0.14132	0.17285	0.20103	-2.2875	-1.9271	-2.5354	-2.725	-1.85	-2.7354	-2.6125	-2.3792	-2.8104	-2.1292	-2.5938	-2.7188	-2.1417	-2.8604	-2.4875	-2.3208	219.677	333.161	279.861	330.658	112.382	332.600	327.365	382.792	298.102	307.118	315.820	324.421	132.032	77.363	241.392	156.126	0.0015878	0.00029232	0.00014535	1425.2	7.4972e-06	9.8996e-06	1421.4	390.43	1.2147e-05	4.2713e-06	441.6	144.4	128.48	43.072	5.3091e-06	52.855	0.00054888	0.00061646	0.00016302	1449.7	5.8549e-06	6.8373e-06	1444.2	397.4	6.0238e-06	6.9335e-06	452.06	147.56	128.82	44.554	6.2335e-06	54.49	353.662	223.931	110.997	49.767	223.691	183.033	49.575	54.469	179.894	116.139	53.683	58.394	58.877	63.475	171.242	62.436	-8191	255	
7264.676	1	1	0	0	0.068197	0.24698	0.15904	0.23618	0.15449	0.19805	0.22411	0.17376	0.037763	0.1645	0.20612	0.12036	0.23308	0.18063	0.19037	0.21704	-2.4083	-2.2	-2.4417	-2.9396	-2.1479	-2.7229	-2.4729	-2.3771	-2.8375	-2.3667	-2.5021	-2.9833	-2.2896	-2.8937	-2.4104	-2.1708	372.796	341.655	375.783	389.201	246.626	232.761	319.111	256.988	352.830	104.609	330.877	66.856	296.583	360.552	365.770	331.801	0.0014417	0.00045293	0.00015606	1420.5	1.2752e-05	5.7707e-06	1418.7	391.29	1.2026e-05	4.886e-06	442.32	144.71	127.75	42.757	6.2337e-06	53.314	0.00056754	0.00062315	0.00015398	1446.1	6.2075e-06	6.7908e-06	1441.4	396.94	6.4343e-06	6.698e-06	450.49	147.19	129.57	44.356	6.0565e-06	54.522	359.053	58.028	64.154	49.840	193.342	91.746	49.706	54.456	135.590	159.421	53.704	58.498	59.309	63.055	207.401	62.156	-8191	255	
7264.773	1	1	0	0	0.17566	0.18944	0.19124	0.10668	0.090402	0.089367	0.28502	0.20325	0.12066	0.14132	0.12237	0.19327	0.22897	0.29514	0.046367	0.20254	-2.4979	-2.3292	-2.2854	-2.8167	-2.1979	-2.6667	-2.7896	-2.2354	-2.8292	-2.4958	-2.5271	-2.85	-2.0083	-2.6042	-2.7479	-2.0396	254.136	247.975	358.943	345.046	143.120	51.973	336.557	297.304	147.837	389.009	323.421	57.053	106.025	377.650	113.902	226.874	0.0016086	0.00065879	0.00016048	1425.4	7.403e-06	2.5532e-06	1424.1	390.59	1.0704e-05	3.4593e-06	443.1	144.44	126.93	42.918	3.3167e-06	53.325	0.000607	0.00060573	0.00014857	1449.6	6.652e-06	6.3813e-06	1441.4	397.46	6.7249e-06	6.4814e-06	451.01	147.42	130.33	44.315	5.923e-06	54.661	352.995	50.561	93.885	49.908	167.304	44.648	49.876	54.501	95.390	262.826	53.780	58.641	59.106	63.154	146.841	62.522	-8191	255	
7264.869	1	1	0	0	0.059347	0.11765	0.23531	0.43133	0.10929	0.048108	0.31484	0.2123	0.24859	0.1874	0.24739	0.163	0.2308	0.32058	0.3813	0.19246	-2.1396	-2.3021	-2.2792	-2.9625	-2.1521	-2.4271	-2.8937	-2.2708	-2.7042	-2.3583	-2.3292	-2.7104	-2.0833	-2.5021	-2.7354	-2.25	174.059	205.610	291.628	382.084	85.453	395.757	376.363	350.347	111.894	134.598	357.061	390.393	111.940	323.866	57.122	364.205	0.001432	0.00060441	0.0002087	1424.6	6.6318e-06	7.4247e-06	1420	391.14	9.6973e-06	2.0758e-06	441.04	144.22	127.64	43.148	3.2369e-06	52.969	0.00062611	0.00057732	0.00014513	1449.3	6.7906e-06	6.138e-06	1441.1	398.04	6.7665e-06	6.1522e-06	449.08	147.67	130.59	44.325	5.7641e-06	54.711	363.043	48.426	66.287	49.922	177.960	62.595	49.847	54.367	183.302	136.284	53.850	58.682	59.317	62.826	201.226	62.029	-8191	255	
7264.965	1	1	0	0	0.34494	0.10694	0.14994	0.44209	0.17809	0.3843	0.24023	0.19838	0.13106	0.057057	0.21175	0.25673	0.18416	0.026699	0.28278	0.10827	-2.3271	-2.325	-2.1312	-3.1667	-2.1229	-2.3208	-2.9854	-2.1354	-2.7042	-2.4667	-2.15	-2.8187	-2.2812	-2.4167	-2.8146	-2.3125	309.145	141.360	391.046	393.875	342.694	76.645	75.538	301.940	69.776	79.617	341.925	261.317	153.199	119.363	379.967	148.136	0.001228	0.00035311	0.00017754	1424	6.3802e-06	4.6712e-06	1418.9	390.36	4.8338e-06	7.078e-06	440.74	144.72	127.75	42.848	6.9552e-06	52.949	0.0006148	0.00055297	0.0001404	1452.2	6.7032e-06	5.8772e-06	1438.5	397.92	6.527e-06	5.9941e-06	448.58	148.26	130.12	44.07	5.7397e-06	54.91	350.945	284.346	188.640	49.896	57.981	157.959	49.539	54.433	136.344	139.985	53.888	58.254	59.252	63.087	168.507	62.201	-8191	255	
7265.061	1	1	0	0	0.13532	0.10093	0.2203	0.088017	0.17208	0.10042	0.041415	0.39321	0.32772	0.045263	0.31164	0.1108	0.17733	0.2771	0.11989	0.11761	-2.3125	-2.5375	-2.1562	-3.1229	-2.1271	-2.1396	-2.9146	-2.3396	-2.5187	-2.6604	-2.1479	-2.9854	-2.4813	-2.4229	-2.7938	-2.3542	221.969	122.577	129.968	378.248	182.504	227.142	64.333	355.622	254.447	122.600	379.945	87.549	140.881	351.119	286.089	395.445	0.0012967	0.00010148	0.0001888	1426.4	4.7714e-06	4.2566e-06	1416.5	390.53	7.0907e-06	3.6399e-06	440.47	144.72	127.84	42.722	6.8338e-06	53.202	0.00058412	0.00053987	0.00014469	1452.4	6.3842e-06	5.7151e-06	1438.4	399.17	6.199e-06	5.8449e-06	449.99	148.4	129.13	43.985	6.0653e-06	55.013	357.572	369.980	92.708	49.801	233.214	102.206	49.675	54.360	185.866	172.133	53.462	58.388	59.135	63.165	208.697	62.286	-8191	255	
7265.180	1	1	0	0	0.17268	0.11194	0.05192	0.15565	0.16258	0.027466	0.24818	0.14833	0.17694	0.045037	0.062418	0.085611	0.24961	0.1285	0.04472	0.18935	-2.0646	-2.7729	-1.9292	-2.8979	-2.3688	-2.3458	-3.2188	-2.3063	-2.4813	-2.8604	-2.0125	-2.8812	-2.6146	-2.3021	-3.0438	-2.3583	252.138	112.629	343.738	107.307	318.607	119.486	361.059	390.201	309.298	77.027	143.440	316.299	376.850	341.726	121.644	184.466	0.0013875	0.00021148	9.5323e-05	1419.7	5.0387e-06	2.2571e-06	1419.1	389.98	1.5559e-06	3.3789e-06	445.07	144.88	127.42	42.769	8.2499e-06	53.1	0.0005612	0.00052983	0.00015437	1451.2	6.1201e-06	5.6103e-06	1442	399.06	5.8986e-06	5.7265e-06	452.03	148.28	128.78	43.973	6.4863e-06	54.826	356.110	119.588	110.843	49.764	173.233	118.834	49.592	54.449	232.683	173.288	53.628	58.007	59.008	63.160	167.849	62.051	-8191	255	
7265.276	1	1	0	0	0.21103	0.20938	0.1297	0.048178	0.10073	0.22964	0.23196	0.089443	0.30353	0.1788	0.26397	0.019566	0.22875	0.21613	0.21271	0.053332	-2.0312	-2.775	-2.0354	-2.6646	-2.6729	-2.0187	-3.0062	-2.3312	-2.4646	-2.7583	-2.3708	-2.7396	-2.8396	-2.3292	-2.7562	-2.2458	169.438	123.830	394.563	331.228	197.651	68.842	380.495	117.949	374.791	103.966	293.916	311.642	111.383	366.180	127.690	328.585	0.0014598	0.00015312	0.00021337	1417.1	1.0792e-05	3.0389e-06	1418.9	389.5	5.4458e-06	3.0259e-06	440.02	144.08	128.27	42.881	8.5395e-06	53.059	0.00054164	0.00051762	0.00016427	1447.6	5.9604e-06	5.5571e-06	1441	398.26	5.7397e-06	5.8059e-06	451.53	147.75	128.27	44.052	6.6991e-06	54.695	357.375	225.519	118.870	49.395	158.983	95.261	49.597	54.373	164.215	147.218	53.713	58.166	58.952	63.178	196.740	62.010	-8191	255	
7265.372	1	1	0	0	0.25051	0.098786	0.14028	0.19025	0.04886	0.21119	0.1544	0.22704	0.11375	0.24273	0.22839	0.31286	0.23607	0.064004	0.13414	0.11892	-1.9333	-2.6479	-2.1042	-2.5812	-2.6208	-1.9708	-2.9354	-2.5396	-2.2604	-2.875	-2.3521	-2.2479	-2.6646	-2.1833	-2.8229	-2.6083	143.309	68.167	52.859	383.263	290.328	202.707	230.562	65.200	119.981	104.769	383.273	328.136	152.712	62.654	198.929	320.475	0.0011403	0.00021834	0.00011423	1419.6	3.2441e-06	5.751e-06	1415.9	389.91	1.7976e-06	6.6079e-06	441.71	144.7	128.24	42.851	2.6538e-06	52.874	0.00052753	0.00054644	0.00017113	1447.9	5.8432e-06	5.924e-06	1442.2	397.76	5.594e-06	6.1362e-06	452.82	147.3	128.13	44.198	6.6658e-06	54.518	359.866	263.450	74.436	49.642	87.583	161.238	49.445	54.247	239.771	189.311	53.759	58.205	59.140	62.982	111.858	62.095	-8191	255	
7265.468	1	1	0	0	0.20999	0.33921	0.14312	0.30166	0.099004	0.30395	0.17606	0.10321	0.047695	0.23775	0.14477	0.26844	0.32315	0.2794	0.1691	0.27654	-1.7354	-2.7979	-2.075	-2.7062	-2.7	-2.1479	-2.9021	-2.4875	-2.2562	-3.0167	-2.3333	-2.5687	-2.8917	-2.3417	-2.6375	-2.7729	244.188	216.584	373.026	81.192	237.610	196.948	368.480	175.783	90.961	337.129	252.724	359.751	345.793	81.585	71.815	214.773	0.0012657	0.00037591	7.2556e-05	1419.2	7.3956e-06	6.187e-06	1416.8	389.46	7.9847e-06	6.2527e-06	440.58	144.23	127.79	42.927	5.587e-06	53.024	0.00051962	0.00057917	0.00017028	1444.5	5.7599e-06	6.357e-06	1440.4	396.83	5.572e-06	6.5225e-06	451.41	147.26	128.06	44.344	6.3537e-06	54.553	363.037	86.061	64.713	49.536	169.787	181.103	49.357	54.330	221.636	120.683	53.597	58.122	59.243	63.046	215.098	62.301	-8191	255	
7265.565	1	1	0	0	0.13281	0.041961	0.079088	0.2466	0.20757	0.35332	0.23768	0.27909	0.12254	0.14411	0.25488	0.32609	0.14096	0.073268	0.12932	0.16663	-1.7646	-2.9313	-2.1083	-2.4708	-2.7667	-2.2188	-2.7	-2.9333	-2.3104	-2.7396	-2.2833	-2.3667	-2.8583	-2.3063	-2.6104	-2.6042	166.866	198.575	390.345	81.345	114.455	355.559	369.311	323.268	90.442	230.225	376.675	297.406	193.546	288.952	396.166	348.142	0.0013353	0.00093238	0.00013217	1418.6	4.6389e-06	5.4846e-06	1419.3	391.21	2.8591e-06	4.517e-06	441.59	143.88	128.08	42.705	4.8934e-06	52.889	0.00052528	0.00060775	0.00016304	1442.8	5.8551e-06	6.7302e-06	1439.4	397.19	5.8006e-06	6.7243e-06	450.64	146.9	128.46	44.326	6.0883e-06	54.424	347.485	63.733	77.116	49.415	171.005	150.434	49.333	54.165	160.944	223.045	53.612	58.340	58.798	62.782	210.720	61.966	-8191	255	
7265.661	1	1	0	0	0.064617	0.23322	0.055399	0.16015	0.16007	0.014295	0.33336	0.078292	0.10808	0.10767	0.08981	0.269	0.31399	0.094808	0.071546	0.096033	-1.5917	-2.7083	-2.3917	-2.3896	-2.7375	-2.0604	-2.6854	-2.75	-2.0271	-2.7896	-2.6688	-2.0896	-2.8521	-2.3187	-2.3771	-2.8458	149.515	349.970	338.471	311.126	390.560	254.453	344.726	188.687	289.845	284.684	259.139	252.519	323.373	314.040	57.582	334.558	0.0016734	0.00022264	0.00012363	1419.9	1.0313e-05	4.1645e-06	1416.2	389.65	5.779e-06	2.5467e-06	440.92	143.96	128.15	42.76	1.2181e-06	52.885	0.00055807	0.00062031	0.00015815	1443.4	6.2538e-06	6.8592e-06	1436.2	396.49	6.2779e-06	6.6821e-06	449.63	146.8	129.76	44.375	5.9065e-06	54.37	358.885	185.255	247.846	49.504	164.575	163.747	49.409	54.442	172.745	281.502	53.488	58.197	59.299	62.948	320.621	62.180	-8191	255	
7265.781	1	1	0	0	0.16201	0.099472	0.30565	0.31501	0.11498	0.022866	0.17596	0.15973	0.13849	0.095733	0.051796	0.11587	0.17678	0.26464	0.1071	0.13112	-1.6646	-2.7521	-2.5521	-2.1292	-2.8	-2.3458	-2.4729	-2.9104	-1.9583	-2.6208	-2.7854	-2.3396	-2.7708	-2.4417	-2.2792	-2.825	194.666	113.908	362.828	393.431	221.921	246.219	345.167	316.765	206.384	113.093	57.164	47.312	40.974	95.202	75.491	124.340	0.0016811	0.00063632	0.00010725	1418.9	9.9343e-06	6.4657e-06	1417	390.82	8.8897e-06	5.3509e-06	441.25	144.13	128.31	42.716	3.9088e-06	53.064	0.00059754	0.00059723	0.00015387	1444	6.645e-06	6.5816e-06	1435.8	396.76	6.6722e-06	6.2885e-06	449.51	146.94	130.27	44.221	5.7658e-06	54.475	369.056	58.564	146.424	49.566	202.292	96.274	49.404	54.271	148.257	163.288	53.666	58.148	59.057	63.219	173.321	62.525	-8191	255	
7265.876	1	1	0	0	0.22719	0.22601	0.20503	0.22995	0.11698	0.19101	0.24843	0.15068	0.36501	0.19238	0.22314	0.18987	0.24998	0.23973	0.13316	0.34631	-1.6292	-2.4437	-2.4854	-2.2146	-2.7833	-2.2771	-2.3312	-3.0917	-2.1604	-2.3854	-2.8937	-2.2167	-2.8083	-2.5771	-2.1042	-2.9396	223.898	55.759	150.782	256.973	90.073	107.533	344.427	378.430	51.469	328.489	285.092	346.921	282.772	67.499	120.231	325.665	0.0018226	0.00056679	0.00011938	1422.4	7.3227e-06	1.3776e-06	1419.1	389.74	6.8093e-06	1.4882e-06	440.76	144.26	127.84	42.76	4.2862e-06	53.029	0.00062676	0.00056827	0.00015019	1445.4	6.8256e-06	6.3124e-06	1435.6	397.26	6.8883e-06	6.1217e-06	449.03	147.27	130.59	44.148	5.6741e-06	54.67	356.101	92.725	390.322	49.433	182.645	93.179	49.210	54.394	189.330	115.232	53.769	58.241	58.774	63.291	146.984	62.141	-8191	255	
7265.972	1	1	0	0	0.10376	0.24994	0.072026	0.29694	0.041714	0.07048	0.31393	0.13857	0.1292	0.21946	0.11124	0.22597	0.10604	0.23113	0.085555	0.21374	-1.7375	-2.3896	-2.6625	-2.3646	-2.6562	-2.4854	-2.5292	-2.8958	-2.3708	-2.4042	-2.9708	-2.3812	-2.5687	-2.625	-2.1063	-2.9646	345.911	257.609	99.150	368.227	119.429	274.186	341.433	185.058	136.546	264.450	353.654	338.348	313.288	370.711	127.454	313.026	0.0015688	0.00044344	8.5644e-05	1414.8	5.0289e-06	5.249e-06	1413.8	389.41	2.2673e-06	5.5919e-06	440.83	144.05	128.25	42.714	6.0013e-06	53.121	0.00062624	0.00054529	0.00014766	1446.1	6.6099e-06	6.0913e-06	1433.3	397.55	6.6562e-06	5.9127e-06	448.6	147.76	129.68	44.06	5.656e-06	54.816	349.620	72.211	147.933	49.610	181.551	171.875	49.218	54.397	140.621	227.583	53.915	58.178	58.905	63.167	195.210	61.945	-8191	255	
7266.068	1	1	0	0	0.24871	0.24347	0.1777	0.24808	0.24967	0.13156	0.31129	0.37809	0.134	0.30981	0.14855	0.092851	0.16562	0.30074	0.20688	0.24378	-1.975	-2.0583	-2.8937	-2.3708	-2.4542	-2.7104	-2.15	-3.0229	-2.425	-2.4917	-3.0667	-2.2958	-2.5229	-2.8229	-2.0812	-2.9292	164.527	359.641	360.700	307.670	370.686	321.383	347.191	368.903	103.945	169.274	254.872	146.464	126.871	367.334	44.382	330.998	0.001549	0.00073639	0.00012386	1422	3.4563e-06	1.391e-06	1416	390.5	4.6395e-06	5.0572e-06	437.92	144.24	127.59	42.817	9.6243e-06	52.972	0.00060447	0.00053015	0.00015009	1447.1	6.3234e-06	5.9924e-06	1434.1	398.52	6.2979e-06	5.7153e-06	448.52	147.87	128.86	44.06	5.8742e-06	54.774	366.470	111.336	48.863	49.617	153.926	323.203	49.413	54.276	358.660	155.346	53.772	58.333	59.012	63.271	217.473	62.245	-8191	255	
7266.164	1	1	0	0	0.31078	0.28829	0.12545	0.10404	0.05944	0.32375	0.068841	0.19936	0.075479	0.091527	0.17119	0.19979	0.29132	0.046428	0.1768	0.13356	-1.8542	-2.0021	-2.8	-2.1521	-2.3396	-2.8396	-2.3771	-3.0312	-2.3896	-2.0958	-2.8438	-2.4313	-2.5771	-2.8812	-2.0708	-2.7208	137.888	322.961	64.927	354.091	216.216	375.796	352.048	335.703	132.645	361.844	254.856	95.385	178.970	148.154	178.274	383.060	0.0012424	0.00028371	7.155e-05	1419.7	2.9852e-06	6.3027e-06	1418.9	389.46	3.2285e-06	2.6429e-07	438.9	143.96	127.24	42.698	7.8104e-06	53.139	0.00057361	0.00051682	0.00015625	1447.1	5.9976e-06	5.7732e-06	1436	397.38	6.1058e-06	5.5795e-06	449.74	147.72	128.02	43.967	6.3891e-06	54.781	351.665	136.534	152.382	49.692	125.982	134.585	49.694	54.287	245.095	236.055	53.676	58.185	59.230	63.224	175.168	62.365	-8191	255	
7266.260	1	1	0	0	0.20706	0.081527	0.12844	0.037674	0.1451	0.11445	0.24429	0.20844	0.054629	0.061074	0.11272	0.033194	0.071471	0.16409	0.074328	0.12505	-2.0771	-1.8333	-2.6813	-2.4833	-2.4792	-2.7708	-2.2833	-2.7438	-2.6375	-2.0958	-3	-2.6854	-2.2104	-2.9646	-2.2958	-2.8771	151.958	119.220	152.762	274.278	335.059	73.287	345.722	278.807	242.082	86.588	363.366	362.235	122.329	92.398	66.572	313.215	0.0016402	0.00053085	0.00028541	1415.6	1.0199e-05	7.6978e-06	1416.8	390.92	6.4995e-06	3.026e-06	441.13	143.87	127.33	42.848	1.5859e-06	52.648	0.00056465	0.00051234	0.00016607	1445.2	5.9012e-06	5.7857e-06	1437.8	397.95	6.0333e-06	5.5915e-06	451.64	147.61	127.9	44.015	6.7484e-06	54.537	360.700	75.624	163.084	49.637	200.574	163.627	49.695	54.465	88.265	120.002	53.613	58.458	59.424	63.204	171.485	62.190	-8191	255	
7266.356	1	1	0	0	0.031044	0.24075	0.1163	0.28625	0.10956	0.18255	0.20885	0.35136	0.22828	0.1221	0.23719	0.24104	0.13711	0.32783	0.1201	0.18256	-2.2646	-2.075	-2.8438	-2.65	-2.3375	-2.9021	-2.3063	-2.7583	-2.5958	-2.0417	-2.8375	-2.4583	-2.2417	-2.9667	-2.2479	-2.5479	57.199	357.847	362.278	385.406	355.027	65.777	389.769	333.743	61.920	66.504	380.971	52.192	303.853	48.350	190.442	345.148	0.0015422	0.00071555	0.00030324	1419	4.2738e-06	8.3457e-06	1415.9	390.1	4.9578e-06	3.8207e-06	439.72	144.33	127.39	42.889	5.3462e-06	53.028	0.00055132	0.00052773	0.00017144	1444.2	5.7491e-06	6.0305e-06	1438.9	396.39	5.8764e-06	5.9959e-06	451.74	147.33	127.46	44.123	6.7934e-06	54.534	365.717	93.166	129.414	49.884	208.840	203.866	49.661	54.254	206.109	246.496	53.906	58.498	59.230	63.469	225.401	62.124	-8191	255	
7266.453	1	1	0	0	0.10652	0.13605	0.059413	0.18823	0.26792	0.051254	0.36368	0.22543	0.087983	0.13829	0.17042	0.09555	0.28532	0.28913	0.2046	0.20391	-2.45	-1.9875	-2.675	-2.5938	-2.0812	-2.7771	-2.2458	-2.5312	-2.775	-2.1667	-2.7792	-2.7479	-2.2188	-2.8646	-2.1271	-2.2562	117.488	74.113	305.658	331.884	149.872	374.828	301.185	285.732	128.440	353.866	254.496	132.525	395.800	361.065	107.896	365.228	0.0015573	0.00088422	0.00010179	1414.6	9.317e-06	7.2974e-06	1413.7	390.16	1.1305e-05	6.5553e-06	439.25	144.27	127.86	42.706	6.4061e-06	53.01	0.00054038	0.00056904	0.00016806	1441.5	5.6378e-06	6.4464e-06	1438.3	396.3	5.8163e-06	6.4995e-06	450.83	147.1	127.5	44.261	6.4945e-06	54.373	363.180	54.158	148.626	49.624	181.659	207.853	49.624	54.510	132.517	199.038	53.726	58.516	59.133	63.289	187.318	61.990	-8191	255	
7266.573	1	1	0	0	0.077447	0.21701	0.18731	0.28657	0.10704	0.19583	0.2829	0.17793	0.022328	0.27062	0.065623	0.1513	0.077154	0.01558	0.1002	0.24122	-2.3833	-1.9979	-2.5604	-2.7104	-1.9833	-2.9542	-2.5083	-2.4021	-2.7729	-2.3417	-2.7771	-2.6813	-2.0396	-2.8583	-2.3583	-2.4062	287.534	128.698	369.977	384.968	61.841	87.857	328.613	72.940	195.141	372.860	129.566	60.713	350.420	332.475	226.249	352.779	0.0014277	0.00076823	0.00011034	1416.9	1.0596e-05	1.0098e-05	1412.9	390.42	1.3854e-05	2.7929e-06	438.82	143.51	127.85	42.764	4.3458e-06	52.937	0.00054009	0.00060453	0.00016126	1441.4	5.7077e-06	6.712e-06	1435.1	395.4	5.8721e-06	6.7351e-06	449.38	146.44	127.94	44.336	6.1496e-06	54.344	353.873	96.601	66.537	49.837	204.892	141.719	49.689	54.421	179.436	157.983	53.857	58.407	59.299	63.069	199.045	62.147	-8191	255	
7266.669	1	1	0	0	0.18578	0.15355	0.24762	0.051845	0.23886	0.19478	0.1189	0.3302	0.27141	0.28217	0.27436	0.22399	0.21516	0.17762	0.19408	0.37829	-2.4375	-2.1167	-2.5417	-2.9854	-2.1437	-2.8542	-2.5917	-2.4167	-2.925	-2.275	-2.5438	-2.8771	-2.1021	-2.7292	-2.4771	-2.3438	268.952	235.129	262.963	364.277	156.494	261.708	394.862	303.189	168.697	37.609	112.956	213.379	227.154	319.295	66.736	345.654	0.0017206	0.0001317	0.0001737	1415.7	9.2604e-06	3.4946e-06	1417.3	390.35	1.5723e-05	3.6153e-06	439.57	143.01	126.96	42.79	7.7395e-06	52.885	0.00056639	0.00061628	0.00015244	1439.1	6.0768e-06	6.7274e-06	1434.3	395.5	6.299e-06	6.7284e-06	448.19	146.25	128.96	44.236	6.0798e-06	54.29	364.656	153.899	84.186	49.861	173.613	179.703	49.637	54.493	175.046	151.120	53.898	58.603	59.169	63.262	188.291	62.469	-8191	255	
7266.741	1	1	0	0	0.18006	0.28338	0.047434	0.41149	0.071778	0.11114	0.067459	0.2286	0.24209	0.085653	0.30456	0.12993	0.25303	0.27313	0.18218	0.15709	-2.5229	-2.075	-2.4	-3.0062	-2.0187	-2.7	-2.7021	-2.1	-3.0146	-2.275	-2.2687	-2.8063	-2.1375	-2.7	-2.6583	-2.1729	340.530	321.806	318.323	355.287	101.459	235.500	341.667	250.829	72.192	183.713	362.478	100.593	339.265	57.706	177.920	114.659	0.0020503	0.00029345	0.00019273	1418	8.4694e-06	1.9762e-06	1407.6	387.72	9.7941e-06	7.0865e-06	440.49	143.3	127.21	42.82	1.959e-06	52.899	0.00060078	0.0006053	0.00014802	1439.2	6.5707e-06	6.479e-06	1431.7	394.94	6.6683e-06	6.4667e-06	447.94	146.6	130.3	44.166	5.9305e-06	54.299	355.307	396.410	81.192	49.852	152.559	213.885	49.889	54.576	143.338	64.520	53.680	58.565	58.752	63.150	61.106	62.382	-8191	255	
7266.862	1	1	0	0	0.063217	0.12911	0.14206	0.2618	0.095995	0.30355	0.049083	0.21602	0.36388	0.076005	0.11909	0.18698	0.082786	0.18176	0.1688	0.13953	-2.3729	-2.3083	-2.1937	-3.0125	-2.0521	-2.4583	-2.8438	-2.4104	-2.9396	-2.4	-2.3896	-2.9396	-2.2833	-2.5979	-2.7771	-2.2083	165.171	303.548	363.400	386.798	139.126	357.347	63.420	357.350	153.378	128.470	228.895	376.689	316.237	245.635	341.813	364.999	0.0017687	0.00069343	0.00011337	1415.4	8.7985e-06	6.114e-06	1412.6	388.23	8.2868e-06	3.8328e-06	439.64	143.49	127.53	42.883	6.1268e-06	52.704	0.00062889	0.00058105	0.00014545	1441	6.7691e-06	6.216e-06	1431.5	395.2	6.7774e-06	6.1992e-06	447.12	146.72	130.33	44.035	5.7704e-06	54.43	362.584	274.210	78.638	49.967	189.612	131.934	49.603	54.585	162.910	153.403	53.827	58.475	59.614	63.087	222.062	62.586	-8191	255	
7266.958	1	1	0	0	0.21439	0.10724	0.040343	0.18461	0.051786	0.093358	0.17142	0.2283	0.19311	0.08292	0.015563	0.19941	0.24292	0.23666	0.29394	0.039567	-2.2729	-2.3167	-2.1396	-3.1188	-2.125	-2.4562	-2.9688	-2.2625	-2.6646	-2.5042	-2.1979	-2.6813	-2.2188	-2.3333	-2.8312	-2.175	42.342	165.137	112.557	283.095	37.708	250.474	71.320	355.791	87.840	127.630	242.989	338.637	103.883	278.444	395.874	336.198	0.0014701	0.0004127	8.461e-05	1415.2	5.6543e-06	4.4802e-06	1412.7	388.6	2.3605e-06	5.8246e-06	439.83	142.86	127.11	42.65	5.8404e-07	53.169	0.00061836	0.00055682	0.00014248	1443.3	6.735e-06	6.0004e-06	1429.8	395.98	6.5679e-06	6.0642e-06	447	147.12	129.64	43.947	5.7931e-06	54.709	357.063	70.190	156.400	49.750	176.331	283.788	49.491	54.419	207.154	84.763	53.585	58.460	59.247	63.212	163.447	62.568	-8191	255	
7267.054	1	1	0	0	0.22063	0.14239	0.11026	0.32611	0.21212	0.23777	0.36599	0.20497	0.17209	0.049039	0.14802	0.1935	0.16751	0.26677	0.10328	0.22128	-2.1104	-2.5104	-2.2333	-3.025	-2.2521	-2.2646	-3.0104	-2.1708	-2.6208	-2.5521	-2.1188	-2.8854	-2.3875	-2.3104	-2.6521	-2.2104	54.663	352.948	193.500	381.288	348.839	371.890	329.408	323.719	253.553	88.924	386.302	387.786	256.952	370.910	332.606	359.429	0.0012617	0.00032453	0.00032581	1418.8	4.9165e-06	3.8903e-06	1413.7	390.91	7.7861e-06	3.8632e-06	439.28	143.75	127.14	42.759	9.2961e-06	53.046	0.00059567	0.00054656	0.00014455	1444.6	6.4362e-06	5.7947e-06	1431.9	397.78	6.2937e-06	5.9661e-06	447.3	147.77	129.12	43.895	6.0611e-06	54.828	364.793	323.925	116.369	49.869	356.763	129.380	49.570	54.345	181.356	181.529	53.868	58.250	59.127	62.964	183.202	62.434	-8191	255	
7267.173	1	1	0	0	0.29095	0.23891	0.11534	0.28175	0.22202	0.15487	0.1341	0.20858	0.20339	0.10627	0.25176	0.2031	0.084089	0.37024	0.17799	0.063748	-2.1667	-2.5958	-1.9438	-3.0479	-2.1688	-2.075	-2.9479	-2.0792	-2.3792	-2.825	-2.0042	-2.7729	-2.6167	-2.35	-2.5458	-2.1979	63.164	395.066	268.355	86.504	174.095	352.483	340.305	45.995	322.904	203.478	41.959	100.298	347.715	394.568	84.063	271.942	0.0012679	0.00022338	0.00030425	1415	3.3535e-07	3.5769e-06	1413.1	388.83	5.9955e-06	9.907e-07	439.43	143.16	127.57	42.526	8.3757e-06	52.862	0.00056795	0.00054168	0.0001525	1444.4	6.185e-06	5.6799e-06	1432.6	397.34	6.0539e-06	5.9083e-06	448.74	147.19	128.54	43.855	6.4754e-06	54.656	345.062	160.568	110.904	49.922	186.666	188.546	49.570	54.659	264.320	155.952	53.763	58.418	58.879	62.926	230.750	62.568	-8191	255	
7267.269	1	1	0	0	0.20749	0.18584	0.11047	0.3583	0.14793	0.2713	0.22116	0.19158	0.1967	0.10371	0.29054	0.13573	0.35242	0.20595	0.13116	0.18161	-1.8937	-2.4062	-1.9438	-2.9375	-2.6917	-1.9979	-2.9958	-2.4229	-2.4792	-2.7417	-2.1458	-2.6583	-2.6063	-2.1333	-2.7333	-2.3396	369.516	279.484	211.605	368.637	170.689	95.393	393.368	326.199	394.491	84.091	60.101	187.785	347.457	371.795	168.844	290.097	0.0018362	0.00017868	0.00018141	1417.4	5.8567e-06	4.0322e-06	1410.9	388.46	9.3678e-06	2.765e-06	438.49	143.62	127.7	42.77	2.6379e-06	52.721	0.00055184	0.00052985	0.00016496	1442.5	6.0796e-06	5.686e-06	1434.6	396.45	5.9232e-06	5.8451e-06	450.3	147.23	128.26	43.899	6.7758e-06	54.558	361.081	66.886	119.102	49.688	238.477	150.979	49.707	54.478	279.156	124.115	53.720	58.396	59.599	63.197	173.974	62.233	-8191	255	
7267.341	1	1	0	0	0.28781	0.14483	0.15806	0.2535	0.12617	0.26859	0.34669	0.24	0.10174	0.23033	0.21071	0.15248	0.057705	0.36277	0.040683	0.37505	-1.7542	-2.725	-2.0167	-2.6937	-2.6375	-2.1458	-2.8854	-2.4479	-2.2	-2.7479	-2.1646	-2.5542	-2.6542	-2.1125	-2.7958	-2.4083	179.986	86.457	143.718	354.363	212.029	146.478	368.921	362.119	84.548	185.276	348.810	388.206	320.954	371.242	171.444	361.901	0.0015843	0.00073474	0.00016688	1417.8	1.1624e-05	7.82e-06	1407.5	387.86	6.4153e-06	6.9093e-06	438.64	143.84	127.01	42.682	6.9744e-06	52.62	0.00053859	0.00054091	0.00017327	1440.9	5.9617e-06	5.9264e-06	1433.9	395.21	5.7813e-06	6.1382e-06	449.8	146.73	127.73	43.971	6.8016e-06	54.403	351.808	125.135	132.260	49.838	176.762	169.532	49.505	54.492	176.117	157.460	53.769	58.174	58.931	63.012	151.723	62.469	-8191	255	
7267.461	1	1	0	0	0.17993	0.23474	0.332	0.47498	0.11097	0.36715	0.44609	0.17502	0.44226	0.06996	0.056677	0.3249	0.08211	0.22145	0.19617	0.17466	-1.6792	-2.6875	-1.9958	-2.6333	-2.9104	-2.2479	-2.8875	-2.6917	-2.1542	-2.8042	-2.3563	-2.3812	-2.7542	-2.1083	-2.725	-2.6375	278.526	388.608	114.998	366.281	216.990	208.922	376.464	367.785	293.688	328.188	125.328	374.511	140.377	383.310	267.806	102.314	0.0014581	0.00050857	9.5745e-05	1407.2	8.7955e-06	5.3633e-06	1405.7	387.78	6.3292e-06	8.3594e-06	440.94	143.89	126.96	42.65	9.1949e-06	52.664	0.00052722	0.00057897	0.00017168	1434.2	5.8022e-06	6.3749e-06	1432.2	395.53	5.6341e-06	6.5464e-06	450.02	146.52	127.55	44.103	6.5076e-06	54.343	365.350	88.868	202.131	49.765	168.732	175.194	49.667	54.735	120.722	195.454	54.197	58.672	59.440	63.101	145.285	62.500	-8191	255	
7267.557	1	1	0	0	0.29325	0.10049	0.19514	0.20796	0.11802	0.21052	0.10201	0.091807	0.15347	0.21053	0.099199	0.090288	0.098519	0.052296	0.091864	0.1599	-1.6708	-2.6542	-2.3021	-2.4729	-2.7958	-2.0479	-2.8854	-2.7479	-2.1167	-2.6729	-2.2854	-2.5438	-2.8937	-2.1667	-2.5917	-2.7271	160.842	136.954	323.860	377.757	307.939	80.352	288.920	377.615	256.510	325.418	128.914	364.100	363.006	364.205	391.382	195.639	0.0015105	0.00063878	5.4298e-05	1412.3	7.4569e-06	3.2758e-06	1405.6	388.44	5.4256e-06	4.5448e-06	439.32	142.76	127.54	42.665	5.6834e-06	52.559	0.00052558	0.00061379	0.00016487	1436.2	5.8642e-06	6.708e-06	1429.9	395.01	5.7961e-06	6.741e-06	448.47	146.05	127.92	44.168	6.118e-06	54.192	360.810	86.816	97.612	49.809	184.604	104.582	49.885	54.647	149.983	141.698	53.874	58.306	59.406	63.385	163.929	62.597	-8191	255	
7267.654	1	1	0	0	0.12728	0.050319	0.1822	0.14464	0.26956	0.36222	0.097914	0.15081	0.42956	0.18343	0.31206	0.079288	0.22268	0.2242	0.17963	0.21862	-1.7333	-2.7896	-2.35	-2.5833	-2.8104	-2.025	-2.5646	-2.7438	-2.1771	-2.7167	-2.5896	-2.325	-2.5521	-2.2313	-2.4104	-2.775	253.405	195.057	178.531	284.656	273.657	60.665	334.842	332.654	340.814	287.148	59.302	340.694	41.768	80.884	40.599	210.034	0.00164	4.1227e-05	0.00011888	1407.6	9.0479e-06	2.2174e-06	1406.6	387.93	1.458e-05	5.2224e-06	438.6	143.31	127.62	42.763	6.7004e-06	53.167	0.00054517	0.00060947	0.00015652	1433	6.0612e-06	6.7716e-06	1426	394.74	6.1789e-06	6.628e-06	447.53	146.03	128.77	44.066	5.8912e-06	54.262	361.286	291.964	49.446	49.785	202.576	153.027	49.741	54.590	166.069	128.322	54.064	58.283	59.117	63.370	170.854	62.462	-8191	255	
7267.750	1	1	0	0	0.34929	0.036217	0.25937	0.33929	0.16164	0.22168	0.35334	0.25803	0.17887	0.22541	0.085831	0.39338	0.09337	0.3123	0.11455	0.10716	-1.6854	-2.7333	-2.5354	-2.4667	-2.7875	-2.2958	-2.3917	-2.7042	-2.1479	-2.5417	-2.7313	-2.3458	-2.9667	-2.4042	-2.1771	-2.8542	282.806	70.911	191.462	58.735	176.256	327.566	330.733	384.149	240.068	65.482	352.901	48.488	393.116	91.440	132.739	285.047	0.0016021	0.00061368	8.2758e-05	1411.5	7.9687e-06	2.5174e-06	1406	388.7	1.3744e-05	2.2086e-06	439.14	143.44	127.53	42.714	5.3796e-06	52.829	0.00058647	0.00059742	0.00015337	1433.2	6.5025e-06	6.5848e-06	1424.9	394.71	6.5652e-06	6.3566e-06	447.06	146.03	129.6	44.042	5.7371e-06	54.252	351.420	93.099	343.828	49.879	189.227	383.190	49.694	54.505	161.513	143.375	53.679	58.349	58.963	63.173	188.842	62.197	-8191	255	
7267.869	1	1	0	0	0.12685	0.24146	0.17571	0.22959	0.096385	0.17677	0.25211	0.29164	0.10844	0.23164	0.22016	0.15352	0.089677	0.080485	0.24257	0.096173	-1.5	-2.5521	-2.6063	-2.3833	-2.7313	-2.3187	-2.2646	-3.0104	-2.2625	-2.6125	-2.8167	-2.2833	-2.8063	-2.4083	-2.1688	-2.8833	47.613	393.936	313.496	379.102	39.628	271.744	341.950	54.161	130.150	299.417	365.969	321.656	44.630	284.116	292.493	94.420	0.0015397	0.00058537	0.00016305	1412.8	8.3634e-06	4.3999e-06	1405	387.87	9.3171e-06	3.2425e-06	438.74	143.22	126.98	42.521	1.9681e-06	52.715	0.00061441	0.00056627	0.00014904	1434	6.6866e-06	6.2296e-06	1426.4	394.98	6.7172e-06	6.048e-06	446.79	146.39	129.84	43.887	5.5482e-06	54.419	356.562	112.592	126.376	49.691	136.896	103.992	49.643	54.558	179.804	140.739	53.754	58.484	59.113	63.186	116.942	62.397	-8191	255	
7267.965	1	1	0	0	0.095917	0.095899	0.16677	0.21132	0.25633	0.12428	0.21613	0.17145	0.24894	0.1525	0.28594	0.27937	0.23362	0.32405	0.29402	0.42486	-1.7729	-2.45	-2.725	-2.3229	-2.5708	-2.5187	-2.2458	-2.8875	-2.1417	-2.2604	-2.6625	-2.0583	-2.725	-2.5708	-2.0833	-2.8167	260.935	347.510	346.779	297.323	162.457	161.741	356.309	318.537	91.257	221.958	45.546	383.512	288.370	76.722	121.126	303.556	0.0012152	0.00013591	0.00030476	1415.6	5.2658e-06	5.2192e-06	1404.8	387.66	3.8958e-06	2.3398e-06	438.47	143.15	127.46	42.665	4.5927e-06	52.751	0.00061814	0.00054134	0.00014423	1435.5	6.5646e-06	6.0453e-06	1425	395.97	6.635e-06	5.7936e-06	446.7	146.6	129.3	43.928	5.5799e-06	54.598	355.464	108.063	120.335	49.781	193.474	203.895	49.460	54.649	103.426	157.514	54.016	58.531	58.904	63.276	171.762	62.376	-8191	255	
7268.038	1	1	0	0	0.089278	0.44338	0.12008	0.26354	0.15359	0.31854	0.24687	0.54873	0.10933	0.11422	0.35898	0.21524	0.21369	0.062549	0.19775	0.17278	-1.625	-2.2438	-2.8521	-2.2021	-2.7833	-2.7521	-2.4271	-2.9229	-2.1375	-2.225	-2.9167	-2.2292	-2.4521	-2.8292	-2.1458	-2.8167	339.509	372.441	350.787	378.266	252.985	353.874	314.418	344.257	210.904	108.249	297.291	144.961	316.200	353.868	323.066	70.661	0.0012653	0.0004944	8.1763e-05	1410.3	2.4966e-06	1.6781e-06	1406.3	387.77	7.5936e-06	5.9718e-06	437.72	143.3	127.37	42.616	7.5164e-06	52.601	0.00059718	0.0005258	0.00014526	1439	6.2732e-06	5.9468e-06	1427.4	396.35	6.3132e-06	5.6838e-06	446.63	147.15	128.55	43.894	5.7451e-06	54.577	358.644	71.819	57.345	49.786	179.583	123.247	49.733	54.479	101.556	141.329	54.004	58.435	59.488	63.294	169.817	62.130	-8191	255	
7268.134	1	1	0	0	0.09989	0.12135	0.11067	0.24079	0.052621	0.13583	0.39352	0.17096	0.18691	0.28221	0.049596	0.1936	0.13192	0.26451	0.13346	0.11025	-2.1292	-2.3604	-2.8625	-2.3542	-2.4708	-2.6667	-2.2146	-2.9813	-2.5187	-2.1354	-2.9979	-2.2917	-2.3854	-2.9667	-2.0792	-2.6458	277.252	41.212	165.610	324.339	127.875	57.609	376.749	361.506	214.437	116.048	279.760	100.241	136.823	353.016	377.097	168.060	0.0012901	0.00028085	0.00021791	1412	6.2858e-06	3.7365e-06	1406.3	386.49	2.1218e-06	6.8615e-06	438.64	143.65	127.24	42.827	5.8827e-06	52.628	0.00057197	0.00051122	0.0001509	1439.4	5.9688e-06	5.812e-06	1427.4	395.82	6.0988e-06	5.5053e-06	447.87	147.06	127.38	43.819	6.1406e-06	54.517	364.288	91.616	165.824	49.858	228.908	153.876	49.580	54.525	80.036	164.024	53.836	58.462	59.093	63.340	193.660	62.534	-8191	255	
7268.253	1	1	0	0	0.045636	0.029785	0.1362	0.23249	0.11172	0.052485	0.29248	0.08282	0.36408	0.067388	0.15212	0.1142	0.29021	0.0654	0.20575	0.16799	-2.1104	-2.075	-2.8333	-2.4979	-2.35	-2.6417	-2.3833	-2.6375	-2.4917	-2.2229	-3.0167	-2.3	-2.5271	-2.9437	-2.1771	-2.6792	87.117	312.917	182.067	199.809	105.852	335.308	338.049	338.893	124.105	191.119	324.329	365.963	245.697	266.167	246.610	312.869	0.0015223	0.00013254	0.00018359	1404.9	5.5666e-06	9.08e-07	1403.4	388.22	5.0888e-07	8.1542e-06	440.1	143.16	126.51	42.527	1.5532e-06	52.635	0.00055662	0.00049872	0.00016152	1435.4	5.7742e-06	5.6715e-06	1427.6	396.17	5.9292e-06	5.5269e-06	449.73	146.76	127.35	43.784	6.5514e-06	54.445	356.878	190.050	96.585	49.791	151.416	279.764	49.470	54.372	42.703	206.636	53.809	58.328	59.247	63.107	235.867	62.175	-8191	255	
7268.349	1	1	0	0	0.27799	0.043321	0.034002	0.17507	0.17569	0.17464	0.29847	0.3281	0.18496	0.060291	0.13478	0.19718	0.16068	0.10958	0.12567	0.21642	-2.3063	-2.2583	-2.7833	-2.5854	-2.1854	-2.8646	-2.2667	-2.6292	-2.4521	-2.1125	-2.8021	-2.4479	-2.1896	-2.7687	-2.1813	-2.6021	154.393	283.074	333.672	347.875	237.905	174.475	336.783	339.117	251.876	91.470	389.909	138.551	264.024	55.401	317.322	299.779	0.0013251	0.0005876	0.00022346	1410.7	7.0666e-06	8.5276e-06	1406.4	386.97	1.1527e-05	6.8746e-06	436.58	143.68	127.1	42.606	7.067e-06	52.726	0.00054959	0.00051412	0.00016729	1435.6	5.6038e-06	5.8998e-06	1430.7	394.41	5.806e-06	5.7949e-06	448.72	146.62	127.03	43.927	6.6701e-06	54.316	362.925	103.577	175.366	49.725	332.284	176.461	49.454	54.413	201.511	183.741	53.899	58.401	59.068	63.364	216.158	62.474	-8191	255	
7268.446	1	1	0	0	0.21717	0.10418	0.22823	0.15506	0.18866	0.033144	0.070338	0.33236	0.23348	0.16596	0.14014	0.16518	0.17795	0.19304	0.08088	0.23003	-2.3396	-1.9354	-2.6521	-2.6458	-2.2333	-2.7854	-2.325	-2.475	-2.8	-2.0771	-2.8958	-2.7271	-2.2667	-3.0479	-2.1083	-2.4479	170.802	289.101	224.434	204.073	40.562	159.570	264.724	372.089	224.106	93.062	315.083	125.911	193.728	271.649	236.405	295.626	0.0013652	0.00055115	8.3773e-05	1414.8	6.7458e-06	2.5964e-06	1403.8	386.67	1.3949e-05	1.1835e-05	438.45	142.74	127.92	42.632	3.1192e-06	52.707	0.00052967	0.00054894	0.00016722	1436.9	5.5061e-06	6.2393e-06	1431.1	394	5.7438e-06	6.2609e-06	449.17	146.14	126.91	44.043	6.531e-06	54.232	369.196	150.771	52.005	49.737	207.451	139.390	49.575	54.531	192.248	157.915	53.476	58.163	59.273	63.331	168.839	62.480	-8191	255	
7268.542	1	1	0	0	0.14018	0.10563	0.14802	0.086809	0.21698	0.15371	0.29904	0.12411	0.041546	0.25172	0.19522	0.022963	0.13549	0.2397	0.1497	0.13372	-2.4375	-2.1896	-2.5271	-2.6917	-2.1063	-2.6771	-2.5458	-2.3729	-2.6708	-2.0229	-2.6688	-2.6437	-2.2083	-2.8125	-2.3854	-2.2521	343.607	37.278	356.955	335.212	40.722	97.201	353.790	355.867	38.296	195.693	369.394	167.845	315.094	374.470	232.385	245.219	0.0016404	0.00043335	6.03e-05	1412.7	1.0837e-05	4.9481e-06	1405.8	388.82	1.1025e-05	6.3187e-06	438.74	143.6	126.32	42.438	5.0601e-06	52.658	0.00053606	0.00059099	0.00016057	1435.6	5.613e-06	6.6579e-06	1428.5	394.21	5.8135e-06	6.6121e-06	447.78	146.48	127.19	44.117	6.2789e-06	54.105	357.376	94.789	63.333	49.643	178.607	152.431	49.446	54.398	185.686	219.701	53.842	58.434	59.367	63.314	197.222	62.391	-8191	255	
7268.638	1	1	0	0	0.19686	0.14628	0.28793	0.28756	0.13437	0.21548	0.22184	0.31095	0.10942	0.24052	0.092301	0.15402	0.24481	0.2631	0.12941	0.26687	-2.45	-2.1354	-2.2771	-2.8396	-2.1667	-2.7562	-2.625	-2.2167	-2.8104	-2.2562	-2.5812	-2.9062	-2.0958	-2.9854	-2.4938	-2.4958	250.203	360.740	231.380	63.937	125.850	265.195	381.950	359.624	386.625	214.105	174.773	179.509	71.111	392.288	338.228	356.984	0.0016261	0.00045867	1.6911e-05	1412.5	1.0285e-05	9.6751e-07	1404.6	386.75	1.1035e-05	2.4318e-06	439.43	143.42	125.97	42.652	7.7819e-07	52.846	0.00055202	0.00061303	0.00015171	1433	5.9266e-06	6.6635e-06	1427.5	393.53	6.1276e-06	6.6721e-06	447.35	146.15	127.59	44.1	6.01e-06	54.146	349.697	49.484	366.798	49.780	220.633	175.191	49.331	54.344	158.360	305.375	53.897	58.567	59.698	63.183	74.578	62.376	-8191	255	
7268.734	1	1	0	0	0.10177	0.19136	0.12348	0.3613	0.25871	0.14093	0.13134	0.092622	0.1329	0.10678	0.074293	0.22991	0.10816	0.096762	0.19466	0.075577	-2.4042	-2.35	-2.4396	-2.8021	-1.9604	-2.6583	-2.7	-2.2562	-2.8708	-2.4229	-2.3875	-2.8167	-2.1021	-2.6896	-2.6562	-2.0771	131.369	40.565	60.564	344.055	104.955	184.989	309.935	91.394	246.554	38.068	219.219	259.573	77.013	256.777	266.325	353.668	0.0016941	0.00038891	0.00011694	1409.9	1.0518e-05	4.6422e-06	1404.9	387.54	6.9241e-06	5.6692e-06	436.99	143.51	126.04	42.708	2.2715e-06	52.699	0.00057948	0.00060128	0.00014879	1433.6	6.3628e-06	6.5039e-06	1426.1	393.36	6.5544e-06	6.4553e-06	445.92	146.19	129.08	44.081	5.8865e-06	54.061	360.057	378.976	101.270	49.696	200.571	125.919	49.554	54.519	178.201	175.277	53.727	58.408	58.954	63.108	43.000	62.408	-8191	255	
7268.855	1	1	0	0	0.19375	0.29009	0.11655	0.27656	0.14232	0.046971	0.23441	0.13284	0.22805	0.1961	0.30002	0.37451	0.1276	0.2217	0.086772	0.084605	-2.3333	-2.0979	-2.2333	-3.0646	-2.1021	-2.6583	-2.9146	-2.325	-2.8521	-2.2521	-2.4437	-2.8375	-2.2229	-2.5771	-2.7479	-2.1771	92.379	121.533	331.082	317.798	119.190	199.809	367.642	142.705	68.427	118.193	70.435	370.904	366.216	382.575	115.091	360.501	0.0014721	9.1725e-05	7.5826e-05	1410.2	1.5151e-05	3.4175e-06	1405.4	387.75	7.0953e-06	3.2179e-06	437.16	143.22	126.05	42.514	1.7833e-06	52.61	0.00061235	0.00058228	0.00014492	1436.5	6.6251e-06	6.1459e-06	1425.4	394.12	6.7027e-06	6.1449e-06	444.86	146.29	129.46	43.901	5.7695e-06	54.178	351.983	279.529	81.253	49.891	146.804	187.273	49.589	54.434	143.682	216.234	53.787	58.385	59.026	63.226	231.435	62.442	-8191	255	
7268.949	1	1	0	0	0.043415	0.10239	0.12555	0.20424	0.16165	0.26713	0.11982	0.20786	0.1377	0.08509	0.22092	0.24102	0.14026	0.095654	0.05346	0.29029	-2.4458	-2.4292	-2.1375	-2.9813	-2.1625	-2.475	-3.0583	-2.1625	-2.6458	-2.5	-2.3125	-2.9271	-2.2354	-2.4729	-2.7188	-2.1458	106.580	172.170	280.990	348.684	168.952	240.825	89.473	135.744	353.893	388.659	371.603	41.161	259.726	393.419	52.422	315.027	0.0012718	0.00074193	0.00012604	1414.8	4.7587e-06	2.6322e-06	1404.8	386.68	4.4734e-06	4.953e-06	439.16	143.22	126.33	42.725	5.7489e-06	52.262	0.00061508	0.00055267	0.00013987	1437.6	6.61e-06	5.9131e-06	1425.5	394.06	6.5929e-06	6.0145e-06	445.12	146.68	129.06	43.851	5.6724e-06	54.38	354.240	381.889	140.121	50.032	144.661	353.072	49.675	54.541	181.140	220.928	53.514	58.713	59.409	63.331	100.097	62.427	-8191	255	
7269.045	1	1	0	0	0.16925	0.099381	0.018953	0.2808	0.14635	0.21173	0.29778	0.15598	0.37909	0.1303	0.11559	0.13219	0.26361	0.17227	0.23018	0.13202	-2.3542	-2.5896	-2.1625	-3	-2.2062	-2.2979	-2.9333	-2.1354	-2.575	-2.6979	-2.4771	-2.8396	-2.225	-2.3729	-2.7396	-2.3542	222.268	148.023	102.763	309.435	181.974	49.957	352.261	236.137	333.446	103.347	343.740	333.961	372.566	55.322	323.930	103.869	0.0013148	0.00051896	0.00016977	1408.9	6.4758e-06	2.4958e-06	1407.2	386.26	5.4621e-06	1.5288e-06	438.64	143.6	127.01	42.558	8.9021e-06	52.591	0.0005996	0.00054357	0.00014161	1438.9	6.4521e-06	5.8001e-06	1426.1	395.53	6.2916e-06	5.8579e-06	446	147.24	128.59	43.76	5.8905e-06	54.609	353.791	99.680	189.795	49.955	203.298	149.049	49.817	54.609	152.421	62.880	53.857	58.473	59.409	63.032	204.534	62.359	-8191	255	
7269.141	1	1	0	0	0.32651	0.068151	0.086521	0.31094	0.18618	0.13578	0.24473	0.11855	0.27166	0.21959	0.1869	0.10922	0.2231	0.34043	0.069786	0.1142	-1.8854	-2.6229	-2.1771	-2.9146	-2.2396	-2.2604	-3.2292	-2.3688	-2.4292	-2.5917	-2.1604	-2.8229	-2.6083	-2.1854	-2.9062	-2.2938	128.050	381.306	290.214	369.423	314.567	141.123	318.247	319.483	384.317	368.906	379.650	130.649	120.660	370.625	217.278	282.267	0.00105	0.00049805	0.00030412	1415.5	5.364e-06	4.5209e-07	1404.9	385.83	3.6039e-06	4.7632e-06	437.44	142.78	126.05	42.473	6.5878e-06	52.55	0.00056359	0.00053002	0.00014893	1440.9	6.2288e-06	5.6516e-06	1425.8	395.4	6.0541e-06	5.7627e-06	447	146.91	127.68	43.747	6.2977e-06	54.48	367.488	95.410	123.116	49.972	189.070	70.433	49.762	54.531	131.209	175.770	53.997	58.527	59.407	63.458	183.464	62.466	-8191	255	
7269.262	1	1	0	0	0.10269	0.22079	0.2227	0.17664	0.20168	0.050619	0.31125	0.18487	0.26915	0.3415	0.23397	0.090244	0.2617	0.097897	0.2103	0.2157	-1.8792	-2.6729	-2	-2.8854	-2.5125	-2.3563	-2.9958	-2.1583	-2.4521	-2.7854	-2.1104	-2.6979	-2.5875	-2.1979	-2.8542	-2.3292	88.280	345.307	231.185	374.163	363.073	253.272	302.892	338.233	373.849	166.712	367.636	231.072	368.977	66.693	39.792	320.521	0.001526	0.00021653	0.00024628	1408.6	8.7856e-06	3.906e-06	1403.8	385.99	4.0566e-06	1.6475e-06	440.6	143.07	127.52	42.375	5.4797e-06	52.898	0.00054236	0.00052553	0.00015897	1438.2	5.9946e-06	5.5539e-06	1428.9	395.01	5.8524e-06	5.6878e-06	448.1	146.67	127.41	43.666	6.61e-06	54.458	364.929	105.995	126.508	50.062	151.115	184.075	50.072	54.632	91.024	363.686	54.026	58.650	59.480	63.369	179.339	62.761	-8191	255	
7269.334	1	1	0	0	0.15311	0.25697	0.17009	0.28701	0.22202	0.15567	0.42195	0.030015	0.1186	0.17915	0.063453	0.099073	0.045047	0.16247	0.17767	0.20649	-1.975	-2.8396	-2.0729	-2.7271	-2.6688	-2.0458	-3.0021	-2.4813	-2.2146	-2.7208	-2.1875	-2.4896	-2.5833	-2.1271	-2.6896	-2.8	326.921	121.072	249.023	318.884	115.830	172.850	356.992	186.598	158.033	353.381	49.811	70.390	174.044	332.272	91.041	260.007	0.0014371	0.0010638	0.0001685	1413.3	7.7524e-06	4.4963e-06	1399.7	386.79	7.0101e-06	6.6769e-06	437.59	142.7	127.19	42.704	4.1467e-06	52.759	0.00052919	0.0005303	0.00016843	1435.4	5.9125e-06	5.7063e-06	1428.8	395.12	5.6592e-06	5.9427e-06	449.22	146.21	127.29	43.765	6.6986e-06	54.386	367.080	102.602	144.014	50.121	200.509	205.694	49.911	54.864	221.211	184.992	53.833	58.653	59.739	63.360	273.804	62.833	-8191	255	
7269.430	1	1	0	0	0.18686	0.17725	0.14882	0.13662	0.34015	0.11622	0.18302	0.078067	0.1585	0.13652	0.29254	0.11783	0.22897	0.07287	0.037662	0.2415	-1.8	-3.0292	-2.2542	-2.6063	-2.6646	-2.2333	-3.0687	-2.5938	-2.075	-2.95	-2.3792	-2.3875	-2.7542	-2.2667	-2.5938	-2.45	51.262	57.023	175.740	306.350	128.011	158.420	341.250	123.153	138.994	389.866	330.385	378.419	116.886	97.865	139.230	347.535	0.0016715	0.00093786	9.8974e-05	1414.2	7.1564e-06	7.5871e-06	1405.3	386.17	5.9981e-06	1.3211e-05	437.37	143.51	126.67	42.342	2.5549e-06	52.767	0.00052229	0.00056103	0.00017142	1434.1	5.7747e-06	6.1202e-06	1428.7	394.03	5.5681e-06	6.2748e-06	448.24	146.18	127.08	43.85	6.4094e-06	54.168	363.263	103.475	124.991	50.149	87.459	193.358	49.920	54.816	244.355	198.683	53.881	58.619	59.498	63.665	186.593	62.593	-8191	255	
7269.526	1	1	0	0	0.30193	0.13579	0.11708	0.15994	0.14342	0.057706	0.16133	0.31619	0.19173	0.12384	0.39084	0.23219	0.19194	0.073606	0.1776	0.058786	-1.8813	-2.7729	-2.1854	-2.5375	-2.7687	-2.1146	-2.9271	-2.6167	-2.2	-2.9042	-2.5187	-2.375	-2.9083	-2.1583	-2.4813	-2.7375	125.131	275.494	162.044	350.338	87.766	148.808	308.641	317.685	339.600	88.218	78.038	265.950	365.419	308.585	180.707	338.445	0.0014443	0.00015238	0.00013867	1405.6	1.5504e-06	2.1844e-06	1405.8	386.81	1.1767e-05	7.1255e-06	439.89	143.26	126.13	42.493	3.3454e-06	52.785	0.00051382	0.00059223	0.0001637	1430.2	5.7381e-06	6.5535e-06	1426.5	393.59	5.5462e-06	6.6525e-06	447.99	145.84	127.08	44.007	6.1035e-06	54.146	364.793	380.970	396.123	49.793	382.229	222.308	49.496	54.626	204.128	199.624	53.987	58.605	59.317	63.298	324.231	62.249	-8191	255	
7269.647	1	1	0	0	0.199	0.091109	0.15689	0.14571	0.11408	0.089527	0.31228	0.16346	0.092937	0.22449	0.13572	0.12701	0.061343	0.18867	0.070604	0.30399	-1.6625	-2.8208	-2.3479	-2.45	-2.8854	-2.1604	-2.725	-2.6833	-2.1521	-2.6125	-2.3479	-2.3208	-2.8438	-2.3688	-2.4604	-2.9583	91.697	66.950	157.371	363.541	344.973	261.809	337.647	374.948	68.246	305.748	145.433	369.943	41.857	87.056	252.390	260.401	0.0016245	0.00028791	6.1062e-05	1415.5	7.4991e-06	9.1098e-06	1402.5	386.55	1.0088e-05	5.4354e-06	438.19	142.47	126.84	42.408	6.2948e-06	52.699	0.00053219	0.00060857	0.00015711	1431.6	5.9766e-06	6.7068e-06	1425.4	393.59	5.9517e-06	6.6315e-06	445.8	145.38	128.4	44.065	5.9169e-06	54.145	364.506	119.250	92.021	49.698	212.204	158.137	49.573	54.582	165.443	113.709	54.005	58.429	59.411	63.231	283.395	62.504	-8191	255	
7269.743	1	1	0	0	0.23086	0.22835	0.13479	0.33918	0.025086	0.12752	0.11949	0.40917	0.19479	0.10618	0.31097	0.2254	0.24517	0.17979	0.064288	0.17777	-1.7354	-2.5375	-2.4896	-2.4521	-2.7417	-2.2479	-2.7625	-2.9875	-2.0917	-2.7812	-2.6542	-2.1708	-2.7271	-2.3125	-2.2792	-2.8312	155.545	300.934	134.270	361.786	266.595	110.870	306.530	336.797	94.304	172.587	301.019	325.901	361.817	372.360	39.792	50.492	0.0017061	0.00043129	7.0104e-05	1409.2	1.1662e-05	5.3315e-06	1407.1	386.76	1.5951e-05	1.2544e-06	438.1	142.95	126.77	42.491	4.4906e-06	52.655	0.00057115	0.00059309	0.00015136	1430.2	6.3474e-06	6.5657e-06	1424.1	393.37	6.3433e-06	6.4334e-06	445.68	145.52	129.04	44.011	5.7296e-06	54.223	373.067	70.333	155.299	49.609	191.543	210.935	49.442	54.346	193.654	249.884	53.678	58.092	59.217	63.144	166.367	62.174	-8191	255	
7269.839	1	1	0	0	0.26966	0.20337	0.14424	0.19965	0.15569	0.13706	0.17363	0.11975	0.039172	0.3122	0.2116	0.134	0.22401	0.19385	0.083191	0.051237	-1.7708	-2.6479	-2.7167	-2.3229	-2.7146	-2.25	-2.3208	-2.8792	-2.0396	-2.4625	-2.5854	-2.0792	-2.6896	-2.3542	-2.3167	-2.9021	189.663	183.158	136.036	382.775	56.945	326.890	380.617	58.185	324.721	225.828	47.708	117.304	109.855	130.500	274.549	47.936	0.0015097	0.00024955	0.00012605	1401.4	7.2642e-06	4.4254e-06	1407.3	386.94	3.9615e-06	3.5915e-06	438.07	143.06	126.85	42.71	7.2263e-06	52.858	0.00060324	0.00057197	0.00014859	1430	6.6367e-06	6.2966e-06	1424.7	394.09	6.6993e-06	6.1357e-06	445.81	145.69	129.46	43.893	5.6536e-06	54.282	359.998	67.463	66.858	49.657	127.313	164.902	49.419	54.406	211.627	276.159	53.744	58.125	59.073	63.117	119.430	62.503	-8191	255	
7269.935	1	1	0	0	0.129	0.174	0.24862	0.093579	0.070987	0.043713	0.25319	0.22639	0.16345	0.11305	0.12608	0.14496	0.12755	0.28902	0.29307	0.14434	-1.7563	-2.4896	-2.6979	-2.3958	-2.6083	-2.3812	-2.2812	-2.9188	-2.1375	-2.2667	-2.8396	-2.0312	-2.6396	-2.5958	-2.0833	-3.0771	201.667	255.724	324.485	87.997	53.742	175.238	326.402	92.186	256.509	209.325	393.810	354.279	52.487	57.061	125.542	370.140	0.0018663	0.00039274	8.3161e-05	1405.7	9.1122e-06	5.796e-06	1403.9	387.85	3.0095e-06	7.3524e-07	436.59	143.08	127.68	42.63	8.3844e-06	52.913	0.0006213	0.00055193	0.00014771	1432	6.6918e-06	6.1549e-06	1423.8	394.84	6.7408e-06	5.9495e-06	444.89	146.41	129.32	43.814	5.5529e-06	54.511	352.471	388.245	98.500	49.483	202.741	99.569	49.464	54.380	44.293	190.498	54.015	58.216	58.750	63.231	185.860	62.609	-8191	255	
7270.031	1	1	0	0	0.19899	0.093159	0.17677	0.23095	0.35287	0.11105	0.20643	0.19361	0.042488	0.050488	0.22299	0.16057	0.27857	0.2066	0.27689	0.10067	-1.9354	-2.2146	-2.8083	-2.2667	-2.75	-2.5708	-2.1937	-2.9271	-2.2604	-2.1937	-2.8458	-2.2229	-2.5979	-2.7083	-2.1521	-2.8812	38.183	117.022	133.793	323.039	66.517	331.642	351.964	276.798	393.922	285.703	229.915	298.213	46.428	386.006	348.651	367.181	0.0017814	0.00019092	0.00014502	1408.1	8.047e-06	6.216e-06	1403.5	386.83	1.0083e-05	3.318e-06	438.22	142.77	125.85	42.45	5.5701e-06	52.841	0.00061639	0.00053887	0.00014621	1434.7	6.4465e-06	6.0505e-06	1421.7	395.82	6.5355e-06	5.8112e-06	446.08	146.73	128.35	43.774	5.7898e-06	54.647	348.805	342.060	79.534	49.389	221.744	79.838	49.442	54.231	124.482	147.693	53.733	58.066	59.115	63.317	216.264	62.559	-8191	255	
7270.126	1	1	0	0	0.11164	0.1061	0.025393	0.23876	0.06695	0.1087	0.29599	0.17396	0.10515	0.048033	0.18909	0.19385	0.15928	0.29666	0.13855	0.13401	-1.9729	-2.2771	-2.6063	-2.4417	-2.5104	-2.7958	-2.1146	-3.0458	-2.5083	-2.25	-2.7625	-2.1312	-2.2938	-2.7667	-2.0125	-2.7521	178.487	109.910	86.503	54.592	219.570	225.790	358.499	369.732	349.594	284.225	361.355	47.193	374.968	368.764	225.921	202.976	0.0012098	0.00032624	0.00016832	1408.1	4.3636e-06	1.5779e-06	1403.6	387.31	3.7851e-06	2.4961e-06	437.33	143.23	126.35	42.429	5.9508e-06	52.699	0.00059111	0.00052728	0.00015188	1437.2	6.2227e-06	5.9527e-06	1424.3	395.76	6.2543e-06	5.6858e-06	446.8	146.86	127.91	43.678	6.1969e-06	54.586	354.619	142.846	146.245	49.587	146.063	100.213	49.345	54.412	105.489	190.367	53.638	58.377	59.374	62.992	252.177	62.232	-8191	255	
7270.223	1	1	0	0	0.27333	0.31862	0.049367	0.12024	0.22052	0.24606	0.2605	0.088029	0.15017	0.10527	0.25759	0.073957	0.21238	0.11942	0.1364	0.21209	-2.15	-2.25	-2.7333	-2.2021	-2.3083	-2.575	-2.2771	-2.7021	-2.45	-2.0917	-2.8708	-2.4667	-2.3083	-2.9021	-2.0833	-2.7958	86.703	318.525	360.344	39.342	156.159	317.058	318.003	297.354	333.315	76.715	370.844	283.934	319.863	282.099	251.562	306.585	0.001448	0.00037244	0.0002744	1403.4	3.5361e-06	3.9717e-06	1405.2	387.56	3.7915e-06	4.0697e-06	436.64	142.53	126.59	42.439	8.2016e-06	52.738	0.00057429	0.00052366	0.00016363	1435.3	5.959e-06	5.8247e-06	1425.8	395.7	6.1383e-06	5.6264e-06	447.85	146.51	127.24	43.764	6.5956e-06	54.495	359.113	388.297	123.791	49.558	245.663	144.722	49.446	54.237	246.300	139.091	53.484	58.466	59.245	63.226	202.794	62.234	-8191	255	
7270.342	1	1	0	0	0.30448	0.093111	0.20893	0.39365	0.23359	0.17845	0.18977	0.26881	0.089307	0.1883	0.17334	0.11328	0.23811	0.26505	0.12349	0.12007	-2.0979	-1.9542	-2.6917	-2.4333	-2.2458	-2.7146	-2.2958	-2.7104	-2.4208	-2.2833	-2.7979	-2.3312	-2.2	-2.825	-2.0417	-2.5729	103.610	300.619	86.668	49.974	278.716	81.190	346.905	373.061	131.154	259.232	349.764	306.439	84.112	77.341	288.461	334.840	0.0014335	0.00048024	0.00018056	1409.2	8.1088e-06	5.714e-06	1404.5	386.52	6.3353e-06	4.8184e-06	435.85	142.97	126.72	42.201	3.9751e-06	52.581	0.00056505	0.00052239	0.00017116	1433.9	5.8659e-06	5.9487e-06	1427	394.64	6.0167e-06	5.8303e-06	447.89	146.25	127.18	43.692	6.8828e-06	54.249	357.284	66.884	136.211	49.973	184.508	174.656	49.461	54.268	180.878	157.152	53.809	58.196	59.203	63.058	193.330	61.755	-8191	255	
7270.438	1	1	0	0	0.28898	0.18111	0.14487	0.16223	0.25572	0.045975	0.17099	0.056701	0.16147	0.088205	0.21089	0.15933	0.10687	0.29183	0.24619	0.17514	-2.1625	-1.8042	-2.7417	-2.5938	-2.0312	-2.9437	-2.2729	-2.5062	-2.5792	-2.1229	-2.775	-2.4708	-2.2021	-2.9396	-2.2062	-2.2458	289.360	135.675	194.431	284.853	214.181	90.085	82.388	97.435	314.304	334.058	301.010	241.542	151.036	290.866	109.569	355.934	0.0016853	0.0010653	0.00018214	1405	1.4412e-06	7.3257e-06	1406.2	386.37	1.704e-06	8.3711e-06	435.7	142.67	126.84	42.366	2.8578e-06	52.866	0.00055187	0.00055429	0.0001741	1430.6	5.7525e-06	6.3139e-06	1427.5	393.98	5.8623e-06	6.3004e-06	447.88	145.8	126.8	43.917	6.7499e-06	54.15	360.729	95.618	156.590	49.674	37.760	178.363	49.429	54.196	298.505	179.236	53.589	58.386	59.059	62.840	184.120	62.144	-8191	255	
7270.535	1	1	0	0	0.22636	0.20186	0.026746	0.404	0.079443	0.18505	0.080203	0.44893	0.058314	0.14294	0.37519	0.34939	0.10669	0.19333	0.28132	0.24142	-2.2854	-2.0062	-2.6229	-2.8333	-1.9396	-2.9542	-2.4979	-2.3958	-2.7542	-2.025	-2.5021	-2.7	-2.0042	-2.8104	-2.325	-2.3125	327.745	320.036	367.316	60.236	83.224	58.434	109.180	357.940	322.362	348.935	373.216	322.171	62.639	313.481	377.357	385.036	0.0016204	0.0007783	0.00012926	1400	1.1848e-05	8.2163e-06	1397.5	386.8	1.029e-05	5.1396e-06	436.81	143.66	127.22	42.421	6.3872e-06	52.695	0.00054202	0.00059694	0.00016785	1428.2	5.6817e-06	6.7018e-06	1424.2	393.75	5.8812e-06	6.682e-06	447.05	145.97	127.11	44.027	6.4413e-06	54.126	354.103	147.545	184.663	49.666	163.992	154.091	49.306	54.375	181.005	151.421	53.702	58.137	59.194	63.027	223.184	62.075	-8191	255	
7270.631	1	1	0	0	0.29024	0.19126	0.27153	0.46763	0.067274	0.12531	0.58376	0.077897	0.041139	0.087559	0.12165	0.077497	0.041197	0.2567	0.2845	0.24429	-2.2917	-2.0271	-2.5417	-2.9729	-1.9104	-2.8458	-2.5521	-2.3271	-2.8	-2.0438	-2.7521	-2.8396	-2.1208	-2.8375	-2.4833	-2.1083	156.110	99.553	384.370	351.688	337.799	206.253	349.543	375.519	120.451	285.443	344.446	61.871	283.322	62.627	47.408	136.433	0.0017409	0.00055099	0.00028415	1405	5.6362e-06	1.1699e-05	1398.5	385.26	1.2455e-05	3.9758e-06	436.35	142.97	126.2	42.393	4.4736e-06	52.516	0.00055306	0.00062159	0.00015999	1428.7	5.9499e-06	6.8379e-06	1422.8	392.32	6.1434e-06	6.8293e-06	446.04	145.83	127.88	44.082	6.2422e-06	53.999	359.592	91.265	101.501	49.674	158.002	160.366	49.560	54.492	208.370	187.441	53.525	57.964	59.149	63.188	182.363	62.005	-8191	255	
7270.727	1	1	0	0	0.13032	0.098257	0.14533	0.22419	0.14343	0.1215	0.26934	0.26549	0.070906	0.085059	0.24374	0.2401	0.037057	0.090484	0.11237	0.035262	-2.325	-2.1063	-2.3792	-2.7958	-2.0521	-2.6042	-2.7188	-2.3	-2.7812	-2.1896	-2.3625	-2.9125	-1.9479	-2.7146	-2.7021	-2.1771	380.420	151.494	50.260	385.424	76.602	365.716	245.350	66.226	317.776	267.059	333.617	66.907	329.306	50.102	104.443	294.127	0.0016386	0.00019102	0.00021373	1396.2	1.3502e-05	3.9109e-06	1400.8	387.91	1.0643e-05	3.564e-06	437.67	142.4	126.66	42.394	6.2971e-06	52.758	0.00058579	0.00062742	0.00015359	1426.4	6.3556e-06	6.7911e-06	1420.9	393.44	6.5227e-06	6.7219e-06	445.9	145.64	128.78	43.857	6.0728e-06	53.983	361.383	115.922	83.701	49.675	181.381	66.421	49.435	54.201	186.604	142.455	53.775	58.169	58.869	63.376	222.552	62.210	-8191	255	
7270.823	1	1	0	0	0.21605	0.10301	0.2619	0.16912	0.034157	0.15689	0.13267	0.30035	0.2101	0.070212	0.085056	0.18627	0.30627	0.30786	0.079612	0.22005	-2.4	-2.4417	-2.1688	-2.9188	-2.0687	-2.6063	-2.7167	-2.1771	-2.6854	-2.2708	-2.3396	-2.9437	-2.1479	-2.5938	-2.6229	-2.1854	113.059	71.013	282.223	362.423	388.257	354.687	356.475	322.773	146.005	194.087	53.477	169.477	62.896	386.711	124.292	344.179	0.0012833	9.6195e-05	5.0018e-05	1400.6	4.503e-06	3.1214e-06	1402.7	385.43	6.8744e-06	4.9605e-06	437.82	142.44	126.12	42.171	1.1912e-06	52.433	0.000618	0.00060512	0.00014925	1427.3	6.731e-06	6.4356e-06	1420.6	392.77	6.8024e-06	6.5309e-06	444.3	145.79	129.33	43.763	5.9721e-06	54.022	365.593	207.866	133.161	49.744	132.576	186.082	49.532	54.330	209.845	127.515	53.645	58.384	59.465	63.094	364.875	62.200	-8191	255	
7270.944	1	1	0	0	0.12622	0.22116	0.25641	0.5495	0.20067	0.089534	0.23352	0.070309	0.28266	0.061837	0.15618	0.083363	0.14907	0.18197	0.090051	0.2207	-2.4458	-2.2125	-2.1458	-2.7917	-2.0104	-2.0854	-2.8042	-2.0896	-2.5875	-2.4104	-2.1875	-2.6312	-2.2854	-2.5146	-2.6771	-1.9937	230.189	36.971	48.815	360.321	360.137	61.466	74.060	299.883	97.531	54.303	68.366	188.800	394.373	60.565	119.175	248.232	0.0013894	0.00055516	7.5632e-05	1401.4	1.271e-05	7.3539e-06	1396.6	384.37	7.433e-06	3.343e-06	437.53	142.26	126.98	42.387	4.5879e-06	52.372	0.00063641	0.00058081	0.00014593	1429.6	6.8625e-06	6.1143e-06	1417.9	393.57	6.8137e-06	6.1725e-06	444.8	145.98	129.67	43.735	5.8079e-06	54.229	362.737	55.702	121.106	49.796	154.892	142.543	49.634	54.399	194.652	129.645	53.615	58.463	59.294	62.848	162.588	62.100	-8191	255	
7271.038	1	1	0	0	0.35825	0.046551	0.13184	0.31477	0.09268	0.11814	0.32361	0.061744	0.030684	0.16546	0.14844	0.064151	0.33559	0.16973	0.2618	0.1059	-2.2729	-2.5187	-2.1354	-3.0646	-2.4646	-2.2604	-3.0312	-2.1896	-2.6896	-2.4688	-2.1437	-2.9229	-2.4396	-2.2958	-2.6771	-2.1708	308.197	184.389	265.946	394.096	72.507	180.441	295.430	203.360	169.061	207.248	48.091	140.080	315.147	331.181	388.213	377.339	0.0015943	0.00047748	0.00025923	1402.8	4.8319e-06	6.7584e-06	1399.2	385.81	1.7001e-06	1.8765e-06	436.83	143.37	126.18	42.334	4.3862e-06	52.649	0.00061558	0.00056454	0.00014393	1431	6.6731e-06	5.946e-06	1418.9	395.09	6.5263e-06	6.0184e-06	443.79	146.55	128.56	43.693	5.8779e-06	54.465	362.048	90.207	129.009	49.726	88.212	181.092	49.649	54.255	286.413	157.584	53.527	58.260	59.452	63.350	241.545	62.251	-8191	255	
7271.134	1	1	0	0	0.20238	0.12649	0.32156	0.31404	0.20196	0.21466	0.15137	0.11565	0.21882	0.077355	0.24128	0.17042	0.16023	0.065798	0.15986	0.23176	-2.2417	-2.6562	-2.0354	-3.0125	-2.3833	-2.3271	-3.0875	-2.3312	-2.5583	-2.7125	-2.325	-2.9979	-2.3854	-2.3021	-2.7271	-2.2812	180.613	291.859	329.680	331.868	85.718	367.987	358.156	150.761	208.828	227.330	298.438	379.498	163.737	245.716	325.348	301.847	0.0016885	0.00035903	0.0002436	1401.6	4.0044e-06	2.4501e-06	1405.2	385.56	2.9824e-06	4.3498e-06	436.03	142.19	125.67	42.24	7.129e-06	52.462	0.00058378	0.00054505	0.00014738	1432.4	6.4547e-06	5.8221e-06	1421	395.19	6.2403e-06	5.9124e-06	444.04	146.47	127.9	43.632	6.1338e-06	54.426	359.708	56.723	138.467	49.680	82.360	196.244	49.527	54.467	110.345	206.436	53.474	58.159	59.118	63.015	196.746	62.113	-8191	255	
7271.206	1	1	0	0	0.11057	0.22839	0.17055	0.27751	0.20711	0.17756	0.30927	0.29924	0.11116	0.02152	0.17929	0.25888	0.12135	0.25175	0.17813	0.34182	-2.0542	-2.825	-2.0542	-2.8292	-2.3875	-2.2521	-3.025	-2.3458	-2.3375	-2.8271	-2.2313	-2.7208	-2.4313	-2.2667	-2.7854	-2.1896	380.521	281.555	61.035	377.946	71.131	84.718	290.725	371.415	271.243	340.521	83.610	332.340	53.564	369.685	83.666	340.313	0.0015045	0.00048115	0.00026109	1401.3	2.8578e-06	4.5925e-06	1397.6	385.61	3.5991e-06	2.7554e-06	435.23	142.94	126.55	42.28	9.93e-06	52.663	0.00056166	0.00053479	0.00015773	1432.3	6.1166e-06	5.6252e-06	1423	394.98	5.9498e-06	5.7936e-06	445.77	146.44	127.44	43.488	6.5658e-06	54.361	370.020	38.921	104.690	49.633	118.503	193.531	49.473	54.197	174.650	199.208	53.673	58.184	58.805	62.990	196.882	62.172	-8191	255	
7271.327	1	1	0	0	0.059292	0.046903	0.12096	0.21642	0.1927	0.15798	0.14504	0.41786	0.21189	0.26523	0.23144	0.45096	0.15153	0.12251	0.24783	0.094106	-1.7833	-2.6479	-2.0479	-2.7354	-2.6896	-2.1604	-2.7687	-2.4917	-2.375	-2.7917	-2.1458	-2.6542	-2.6333	-2.0125	-2.8417	-2.4521	296.686	85.132	361.607	338.873	46.420	267.833	337.714	346.065	243.322	93.090	82.115	363.696	130.717	93.685	227.895	341.472	0.0017823	0.00053311	0.00022462	1399.9	3.6562e-06	5.3204e-06	1401.2	385.59	8.9295e-06	6.9065e-06	436.53	142.9	126.35	42.371	9.069e-06	52.42	0.00054134	0.00052776	0.00016746	1430.2	5.9615e-06	5.7335e-06	1426.5	393.96	5.8381e-06	5.8274e-06	447.41	146.25	127.26	43.624	6.7485e-06	54.238	364.932	41.948	121.345	49.516	281.535	136.683	49.570	54.198	199.084	192.825	53.502	58.159	58.842	62.737	181.380	62.305	-8191	255	
7271.423	1	1	0	0	0.2395	0.18518	0.27067	0.17381	0.14727	0.19254	0.28751	0.27783	0.18269	0.17456	0.51686	0.34833	0.099641	0.25694	0.027225	0.2022	-1.8708	-2.7833	-2.1458	-2.6437	-2.6458	-2.0104	-2.9042	-2.3604	-2.0292	-2.7958	-2.3292	-2.4604	-2.8021	-2.0563	-2.7042	-2.4521	224.255	313.548	366.977	325.335	162.706	84.226	78.973	376.353	265.714	169.308	337.390	314.529	395.219	373.137	113.603	328.167	0.0015828	0.00057963	0.00014875	1406.9	7.4613e-06	4.8143e-06	1401	386.87	6.381e-06	7.4595e-06	434.3	142.04	126.52	42.406	8.9111e-06	52.237	0.0005292	0.00054892	0.0001732	1432.5	5.8491e-06	6.0421e-06	1425.8	393.62	5.6775e-06	6.1565e-06	447.63	145.66	126.87	43.823	6.6413e-06	54.101	359.152	95.493	206.186	49.420	207.726	143.921	49.435	54.364	155.181	184.300	53.674	58.240	58.996	63.181	135.320	62.276	-8191	255	
7271.519	1	1	0	0	0.10567	0.13559	0.14222	0.44354	0.1768	0.078316	0.088947	0.15505	0.11879	0.20278	0.17814	0.18411	0.088883	0.091774	0.28936	0.067017	-1.5458	-2.6688	-2.2479	-2.4854	-2.8229	-2.1271	-2.9542	-2.6125	-2.1583	-2.9646	-2.1542	-2.3812	-2.7708	-2.125	-2.3208	-2.6063	244.057	127.373	146.199	375.995	311.774	238.636	44.152	334.887	364.898	202.777	395.198	393.010	351.943	69.766	226.985	378.505	0.0015927	0.00040327	0.0002538	1398	4.3822e-06	9.3323e-06	1403.5	385.78	1.062e-06	5.236e-06	437.62	143.13	126.68	42.388	4.1796e-06	52.432	0.00052095	0.0005842	0.00017013	1427	5.7797e-06	6.4514e-06	1424.5	393.38	5.6189e-06	6.5736e-06	447.25	145.9	126.86	43.958	6.426e-06	54.1	358.133	388.349	149.116	49.813	177.627	172.801	49.241	54.348	148.075	126.462	53.774	58.276	58.851	62.794	165.891	62.020	-8191	255	
7271.615	1	1	0	0	0.24512	0.21118	0.085599	0.50954	0.058669	0.089357	0.23212	0.30604	0.20756	0.023434	0.12993	0.10257	0.25625	0.08792	0.21098	0.1053	-1.7812	-2.8438	-2.1854	-2.325	-2.8271	-2.0292	-2.6875	-2.7562	-1.8792	-2.8542	-2.4729	-2.1771	-2.9271	-2.2646	-2.3375	-2.6229	126.860	248.578	141.215	370.784	274.027	320.893	280.073	362.762	192.974	305.110	336.104	62.027	323.567	78.238	332.593	204.285	0.0016767	0.00063218	0.00014374	1409.3	8.3875e-06	5.7016e-06	1403	385.52	1.5619e-05	5.0898e-06	436.85	142.7	126.45	42.301	3.6216e-06	52.602	0.00053101	0.00061286	0.00016245	1429.7	5.9083e-06	6.7634e-06	1424	392.79	5.885e-06	6.7308e-06	446.53	145.43	127.47	43.925	6.0551e-06	54.059	350.543	141.156	54.999	49.681	194.965	156.345	49.354	54.240	181.077	140.576	53.777	58.123	59.360	62.629	159.491	62.461	-8191	255	
7271.736	1	1	0	0	0.1019	0.18908	0.1274	0.073335	0.12361	0.25157	0.26416	0.058709	0.11048	0.040743	0.34436	0.1979	0.26845	0.26232	0.33006	0.006488	-1.6104	-2.5812	-2.3771	-2.3167	-2.6854	-2.1583	-2.8104	-2.6854	-2.1479	-2.7146	-2.6437	-2.3104	-2.8875	-2.45	-2.3354	-2.7542	233.378	329.800	228.697	65.388	334.984	262.350	312.573	240.475	353.843	214.867	383.533	367.754	309.166	71.972	212.061	385.356	0.0017145	0.00021139	5.541e-05	1404.6	1.3716e-05	3.695e-06	1407	385.67	9.3557e-06	1.8141e-06	438.28	142.22	126.49	42.327	1.3183e-06	52.482	0.00055778	0.00061622	0.00015664	1428.2	6.2631e-06	6.7873e-06	1423.1	393.18	6.304e-06	6.6588e-06	446.09	145.46	128.46	43.83	5.9496e-06	54.036	352.363	78.341	50.172	49.542	184.623	192.113	49.429	54.293	183.754	52.899	53.811	58.361	58.586	63.056	113.771	62.291	-8191	255	
7271.807	1	1	0	0	0.28637	0.2956	0.25896	0.24347	0.13803	0.14684	0.10798	0.18222	0.13945	0.066443	0.22106	0.24786	0.3628	0.10734	0.12917	0.07449	-1.65	-2.6271	-2.55	-2.2438	-2.7458	-2.3771	-2.5604	-2.7896	-2.1229	-2.4188	-2.7708	-2.1833	-2.7708	-2.5604	-2.2854	-2.9188	332.186	107.669	134.972	380.339	300.547	281.102	325.007	373.439	206.911	322.424	312.554	44.141	37.272	246.534	94.852	322.341	0.0015408	0.00075191	0.00012022	1404.5	1.0125e-05	4.3284e-06	1403.2	387.57	1.09e-05	3.8646e-06	437.67	143.43	126.77	42.475	1.7293e-06	52.511	0.00059691	0.00059479	0.00015402	1428.7	6.579e-06	6.5572e-06	1424.3	393.01	6.668e-06	6.353e-06	445.66	145.96	129.18	43.833	5.7392e-06	54.116	350.543	46.594	47.396	49.798	193.143	72.190	49.300	54.164	192.746	179.204	53.458	57.959	59.200	63.029	112.192	62.211	-8191	255	
7271.903	1	1	0	0	0.058073	0.052432	0.29789	0.27491	0.065599	0.23251	0.34633	0.25652	0.024362	0.15336	0.085314	0.088356	0.06604	0.077073	0.17688	0.093731	-1.6542	-2.3167	-2.5521	-2.1021	-2.7792	-2.5292	-2.5208	-2.9437	-2.1125	-2.5146	-2.8438	-2.1083	-2.675	-2.4729	-2.1708	-2.8208	152.209	91.822	339.126	371.025	230.861	248.228	336.951	368.035	245.322	366.463	377.074	360.067	319.596	64.775	238.512	207.026	0.0014875	0.00027962	0.00022556	1404.4	6.487e-06	4.275e-06	1400.4	386.65	1.0778e-05	5.0645e-07	437.56	143.02	126.89	42.383	6.9352e-06	52.497	0.00062653	0.00056666	0.00014872	1431.1	6.7938e-06	6.2487e-06	1421.3	393.61	6.8606e-06	6.0824e-06	445.56	145.92	129.59	43.731	5.682e-06	54.276	356.263	261.321	51.272	49.543	197.494	107.571	49.149	54.388	170.829	113.457	53.844	58.232	58.846	63.105	137.724	62.137	-8191	255	
7272.024	1	1	0	0	0.0031599	0.069261	0.1784	0.16424	0.29325	0.026278	0.24845	0.29548	0.14071	0.14693	0.089785	0.12703	0.085763	0.11103	0.073334	0.11985	-1.7229	-2.275	-2.725	-2.2188	-2.5208	-2.4542	-2.3958	-2.8375	-2.3875	-2.3521	-2.9188	-2.0812	-2.7854	-2.6437	-2.1375	-2.9188	267.754	44.118	129.950	304.273	392.469	194.594	301.878	346.887	160.297	345.510	338.834	184.061	312.900	279.487	331.859	281.035	0.001366	0.00022677	0.00017519	1402.8	1.9984e-06	2.4609e-06	1404	386.91	4.1281e-06	2.1477e-06	437.49	143.27	127.22	42.346	3.8508e-06	52.659	0.0006245	0.00055037	0.00014561	1432.7	6.5649e-06	6.0428e-06	1421.5	395.04	6.6834e-06	5.8955e-06	445.18	146.7	129.06	43.682	5.6837e-06	54.445	357.742	131.988	90.346	49.577	312.078	224.575	49.378	54.267	171.810	87.701	53.845	58.072	59.113	63.104	244.494	62.023	-8191	255	
7272.118	1	1	0	0	0.39093	0.31829	0.1877	0.34647	0.1288	0.27099	0.497	0.17085	0.11897	0.24553	0.033315	0.087587	0.083187	0.099784	0.074344	0.1398	-2.0687	-2.2313	-2.7896	-2.2896	-2.5104	-2.4729	-2.2917	-3.0042	-2.2125	-2.3	-3.0083	-2.1271	-2.6229	-2.6854	-2.1729	-2.8958	395.861	384.146	239.753	379.128	320.326	185.891	319.442	299.964	241.529	89.700	232.411	56.495	313.397	330.872	247.232	99.406	0.001254	0.00073314	0.00027725	1406.1	7.8837e-06	3.6405e-06	1401.6	385.59	2.6389e-06	2.1725e-06	437.69	143.13	126.36	42.373	6.2035e-06	52.593	0.00060464	0.0005293	0.00014878	1435.3	6.2943e-06	5.9494e-06	1422.7	395.07	6.3847e-06	5.7346e-06	445.58	146.6	128.02	43.679	5.9313e-06	54.489	361.554	138.949	130.493	49.659	111.308	167.210	49.337	54.216	72.850	367.484	53.635	58.285	58.719	63.141	203.999	62.211	-8191	255	
#DATA ENDS
