BOXY.EXE: ISS Imagent and Oximeter Data Acquisition Program Version 0.80
Ascii Record File

#ACQ INFORMATION
2  Detector Channels 
16  External MUX Channels 
1  Auxiliary Channels 
5000  Waveform (CCF) Frequency (Hz)
1  Waveforms Skipped 
30  Waveforms Averaged 
1  Cycles Averaged 
16  Acquisitions per Waveform 
10.0806  Updata Rate (Hz) 

#FILE INFORMATION
TRUE -- External MUX Channel results are PARSED.
FALSE -- AC DC and Phase are NOT grouped.
TRUE -- Companion Program Settings File CREATED.
FALSE -- AC data not excluded
FALSE -- DC data not excluded
FALSE -- Phase data not excluded
FALSE -- Auxillary Chn. data not excluded
Tab delimiters

#CALIBRATION STATE
TRUE -- Waveform Calibration Values APPLIED.


#AUX CALIBRATION VALUES
Val Type	aux-1	

Term	1.0000e+00	
Factor	0.0000e+00	


#WF CALIBRATION VALUES
A = Detector Channel
Val Type	A-AC1	A-AC2	A-AC3	A-AC4	A-AC5	A-AC6	A-AC7	A-AC8	A-AC9	A-AC10	A-AC11	A-AC12	A-AC13	A-AC14	A-AC15	A-AC16	A-DC1	A-DC2	A-DC3	A-DC4	A-DC5	A-DC6	A-DC7	A-DC8	A-DC9	A-DC10	A-DC11	A-DC12	A-DC13	A-DC14	A-DC15	A-DC16	A-Ph1	A-Ph2	A-Ph3	A-Ph4	A-Ph5	A-Ph6	A-Ph7	A-Ph8	A-Ph9	A-Ph10	A-Ph11	A-Ph12	A-Ph13	A-Ph14	A-Ph15	A-Ph16	

Term	0.00000e+00	0.00000e+00	0.00000e+00	0.00000e+00	0.00000e+00	0.00000e+00	0.00000e+00	0.00000e+00	0.00000e+00	0.00000e+00	0.00000e+00	0.00000e+00	0.00000e+00	0.00000e+00	0.00000e+00	0.00000e+00	0.00000e+00	0.00000e+00	0.00000e+00	0.00000e+00	0.00000e+00	0.00000e+00	0.00000e+00	0.00000e+00	0.00000e+00	0.00000e+00	0.00000e+00	0.00000e+00	0.00000e+00	0.00000e+00	0.00000e+00	0.00000e+00	0.00000e+00	0.00000e+00	0.00000e+00	0.00000e+00	0.00000e+00	0.00000e+00	0.00000e+00	0.00000e+00	0.00000e+00	0.00000e+00	0.00000e+00	0.00000e+00	0.00000e+00	0.00000e+00	0.00000e+00	0.00000e+00	
Factor	1.00000e+00	1.00000e+00	1.00000e+00	1.00000e+00	1.00000e+00	1.00000e+00	1.00000e+00	1.00000e+00	1.00000e+00	1.00000e+00	1.00000e+00	1.00000e+00	1.00000e+00	1.00000e+00	1.00000e+00	1.00000e+00	1.00000e+00	1.00000e+00	1.00000e+00	1.00000e+00	1.00000e+00	1.00000e+00	1.00000e+00	1.00000e+00	1.00000e+00	1.00000e+00	1.00000e+00	1.00000e+00	1.00000e+00	1.00000e+00	1.00000e+00	1.00000e+00	X	X	X	X	X	X	X	X	X	X	X	X	X	X	X	X	

B = Detector Channel
Val Type	B-AC1	B-AC2	B-AC3	B-AC4	B-AC5	B-AC6	B-AC7	B-AC8	B-AC9	B-AC10	B-AC11	B-AC12	B-AC13	B-AC14	B-AC15	B-AC16	B-DC1	B-DC2	B-DC3	B-DC4	B-DC5	B-DC6	B-DC7	B-DC8	B-DC9	B-DC10	B-DC11	B-DC12	B-DC13	B-DC14	B-DC15	B-DC16	B-Ph1	B-Ph2	B-Ph3	B-Ph4	B-Ph5	B-Ph6	B-Ph7	B-Ph8	B-Ph9	B-Ph10	B-Ph11	B-Ph12	B-Ph13	B-Ph14	B-Ph15	B-Ph16	

Term	0.00000e+00	0.00000e+00	0.00000e+00	0.00000e+00	0.00000e+00	0.00000e+00	0.00000e+00	0.00000e+00	0.00000e+00	0.00000e+00	0.00000e+00	0.00000e+00	0.00000e+00	0.00000e+00	0.00000e+00	0.00000e+00	0.00000e+00	0.00000e+00	0.00000e+00	0.00000e+00	0.00000e+00	0.00000e+00	0.00000e+00	0.00000e+00	0.00000e+00	0.00000e+00	0.00000e+00	0.00000e+00	0.00000e+00	0.00000e+00	0.00000e+00	0.00000e+00	-9.79731e+01	-1.51110e+02	-1.48278e+02	-1.83448e+02	-5.34448e+01	-6.77178e+01	-1.57755e+02	-1.62015e+02	-6.78385e+01	-8.00273e+01	-1.71774e+02	-1.76003e+02	-1.83875e+02	-1.78385e+02	-8.03336e+01	-1.51247e+02	
Factor	1.72716e-05	1.08364e-04	2.35574e-05	1.64628e-01	9.14833e-07	9.24298e-07	1.74037e-01	6.72243e-02	8.50146e-07	9.37821e-07	1.07004e-01	3.49173e-02	8.96992e-02	9.94107e-03	8.23456e-07	1.46099e-02	5.92069e-07	6.06723e-07	1.68767e-07	7.92231e-02	6.62530e-09	6.65167e-09	7.88438e-02	3.17782e-02	6.63681e-09	6.66765e-09	4.75826e-02	1.56308e-02	3.49643e-02	4.63239e-03	6.66332e-09	6.49438e-03	X	X	X	X	X	X	X	X	X	X	X	X	X	X	X	X	



#DISTANCE SETTINGS
A = Detector Channel
A-1	A-2	A-3	A-4	A-5	A-6	A-7	A-8	A-9	A-10	A-11	A-12	A-13	A-14	A-15	A-16	

2.5000e+00	3.0000e+00	2.5000e+00	3.0000e+00	2.0000e+00	3.0000e+00	1.5000e+00	3.0000e+00	3.0000e+00	3.0000e+00	3.0000e+00	3.0000e+00	3.0000e+00	3.0000e+00	1.5000e+00	3.0000e+00	

B = Detector Channel
B-1	B-2	B-3	B-4	B-5	B-6	B-7	B-8	B-9	B-10	B-11	B-12	B-13	B-14	B-15	B-16	

1.0000e+01	1.0000e+01	1.0000e+01	1.4400e+00	1.0000e+01	1.0000e+01	1.5100e+00	1.9400e+00	1.0000e+01	1.0000e+01	1.9900e+00	2.4900e+00	2.4100e+00	2.9000e+00	1.0000e+01	2.9800e+00	




#DATA BEGINS
time	group	step	mark	flag	A-AC1	A-AC2	A-AC3	A-AC4	A-AC5	A-AC6	A-AC7	A-AC8	A-AC9	A-AC10	A-AC11	A-AC12	A-AC13	A-AC14	A-AC15	A-AC16	A-DC1	A-DC2	A-DC3	A-DC4	A-DC5	A-DC6	A-DC7	A-DC8	A-DC9	A-DC10	A-DC11	A-DC12	A-DC13	A-DC14	A-DC15	A-DC16	A-Ph1	A-Ph2	A-Ph3	A-Ph4	A-Ph5	A-Ph6	A-Ph7	A-Ph8	A-Ph9	A-Ph10	A-Ph11	A-Ph12	A-Ph13	A-Ph14	A-Ph15	A-Ph16	B-AC1	B-AC2	B-AC3	B-AC4	B-AC5	B-AC6	B-AC7	B-AC8	B-AC9	B-AC10	B-AC11	B-AC12	B-AC13	B-AC14	B-AC15	B-AC16	B-DC1	B-DC2	B-DC3	B-DC4	B-DC5	B-DC6	B-DC7	B-DC8	B-DC9	B-DC10	B-DC11	B-DC12	B-DC13	B-DC14	B-DC15	B-DC16	B-Ph1	B-Ph2	B-Ph3	B-Ph4	B-Ph5	B-Ph6	B-Ph7	B-Ph8	B-Ph9	B-Ph10	B-Ph11	B-Ph12	B-Ph13	B-Ph14	B-Ph15	B-Ph16	aux-1	digaux	

1044.178	1	1	0	256	0.11056	0.14974	0.081011	0.070745	0.12195	0.081421	0.24554	0.14768	0.13865	0.20465	0.064334	0.089355	0.27368	0.28169	0.11784	0.12189	-2.5167	-2.1104	-2.325	-2.9521	-2.1021	-2.7875	-2.9458	-2.2104	-2.7938	-2.2812	-2.3604	-2.8063	-2.1083	-2.5438	-2.8417	-2.2562	69.169	283.473	288.108	387.371	323.185	392.909	330.231	223.879	239.521	98.613	175.061	213.544	391.653	109.644	183.610	300.038	0.00028142	9.2978e-05	8.2724e-05	1088.9	3.494e-06	3.8638e-06	1191.2	225.24	1.712e-06	5.5083e-06	289.83	81.648	66.462	18.96	2.3928e-06	26.664	0.00026501	0.00026924	6.8266e-05	1044.1	2.9512e-06	2.8925e-06	1139.7	219.7	2.9212e-06	2.8581e-06	275.09	79.619	64.567	19.128	2.5707e-06	26.44	191.928	190.010	375.925	64.377	275.754	348.813	64.603	71.887	154.538	250.558	71.659	78.786	82.043	85.323	99.029	85.264	-8191	255	
1044.274	1	1	0	0	0.10074	0.14538	0.08969	0.38096	0.22566	0.2345	0.13374	0.097811	0.27279	0.082915	0.27637	0.20283	0.23246	0.28592	0.32327	0.28075	-2.6854	-2.4083	-2.2583	-2.8396	-2.0396	-2.6833	-2.8917	-2.2	-2.8208	-2.4667	-2.1604	-2.8167	-2.3479	-2.5479	-2.6688	-2.1688	386.221	269.141	277.704	404.845	274.422	329.937	404.213	175.777	275.143	178.328	70.988	141.455	337.202	224.286	296.182	122.091	0.00021201	0.00010781	1.0546e-05	1089.4	6.764e-06	3.1462e-06	1181.7	226.45	9.8764e-07	7.0256e-06	287.44	81.669	65.213	18.882	2.8904e-06	26.802	0.0002657	0.00024958	6.3119e-05	1043.5	2.9277e-06	2.665e-06	1135.6	219.58	2.8648e-06	2.642e-06	274.19	79.886	64.329	19.05	2.5072e-06	26.692	179.280	304.325	124.185	64.596	202.765	270.719	64.716	71.988	380.524	250.688	70.977	78.775	82.425	85.694	217.446	84.575	-8191	255	
1044.345	1	1	0	0	0.12233	0.17543	0.025954	0.24511	0.12404	0.05036	0.34813	0.026695	0.11257	0.12249	0.047296	0.1747	0.10692	0.084709	0.18047	0.030905	-2.5083	-2.5854	-2.2625	-3.075	-2.2104	-2.5729	-3.1688	-2.3146	-2.7667	-2.5917	-2.575	-2.9708	-2.1958	-2.4688	-2.9167	-2.1604	77.783	327.906	61.294	403.258	151.224	262.342	337.486	223.849	208.240	399.620	132.481	405.038	256.616	276.033	393.104	260.155	0.00025897	0.00045064	4.8203e-05	1090.4	5.5776e-06	7.568e-07	1189.8	226.34	2.4794e-06	2.4134e-06	287.96	81.689	65.146	19.011	4.2127e-06	26.507	0.0002639	0.00024335	6.3119e-05	1046.3	2.8975e-06	2.615e-06	1139	220.7	2.8269e-06	2.5871e-06	273.94	80.393	63.574	19.009	2.419e-06	26.63	196.263	167.951	139.797	63.310	308.649	269.244	63.459	70.363	351.262	192.480	70.230	77.444	81.371	84.479	194.868	84.367	-8191	255	
1044.466	1	1	0	0	0.11862	0.10824	0.28439	0.32757	0.1486	0.16797	0.26333	0.12287	0.092436	0.064998	0.068463	0.215	0.29728	0.055173	0.16311	0.14205	-2.3	-2.575	-2.1	-2.8604	-2.2438	-2.2625	-2.9479	-2.2604	-2.6167	-2.7271	-2.3771	-2.9958	-2.3021	-2.4	-2.9146	-2.3854	238.459	119.391	236.247	378.946	187.025	156.235	381.983	218.873	172.492	293.076	95.154	100.261	328.953	164.581	193.462	65.621	0.00016774	0.00014416	0.0001236	1087	2.9604e-06	3.2493e-06	1189.5	225.77	3.3427e-06	3.6488e-06	287.96	81.556	65.552	18.941	1.0614e-06	26.57	0.00024221	0.00022539	6.1598e-05	1044.8	2.6674e-06	2.4297e-06	1138.2	220.64	2.6059e-06	2.4849e-06	274.1	80.538	63.028	18.983	2.5844e-06	26.772	202.275	149.915	161.460	63.005	156.214	316.305	63.332	70.880	239.173	156.265	69.903	77.279	80.725	83.979	304.817	83.430	-8191	255	
1044.562	1	1	0	0	0.09081	0.14158	0.16686	0.18057	0.26332	0.16409	0.26052	0.43429	0.21223	0.20283	0.45927	0.32858	0.16347	0.17566	0.1451	0.19471	-2.1167	-2.6104	-1.9958	-3.0625	-2.375	-2.1063	-2.8333	-2.1937	-2.4479	-2.7625	-2.0792	-2.9667	-2.5125	-2.2313	-2.8438	-2.3625	312.924	201.089	177.218	77.879	91.128	388.797	329.468	377.507	219.682	141.937	94.914	361.769	367.244	121.983	339.102	377.803	0.0001749	0.000423	0.00014294	1087	3.5247e-06	3.7798e-07	1194	225.71	4.6098e-06	1.2415e-06	287.97	81.973	65.863	18.917	6.2238e-06	26.651	0.00023987	0.0002296	6.7631e-05	1047.6	2.6443e-06	2.4784e-06	1142.9	221.18	2.6056e-06	2.4996e-06	277.19	80.738	62.743	18.999	2.7737e-06	26.662	189.067	168.410	116.660	63.056	294.022	90.235	63.114	70.656	263.419	260.760	70.167	77.176	80.348	83.970	191.482	83.571	-8191	255	
1044.658	1	1	0	0	0.1171	0.086078	0.081535	0.10424	0.29448	0.068784	0.25781	0.22104	0.082721	0.030247	0.037364	0.20985	0.3703	0.097163	0.22933	0.074909	-2.0229	-2.7729	-2.1979	-2.9437	-2.4854	-2.1396	-3.0563	-2.3542	-2.3063	-2.8521	-2.2396	-2.75	-2.6125	-2.1813	-2.9562	-2.4562	263.239	332.459	385.752	377.945	236.609	329.389	407.502	283.626	338.979	404.858	154.076	383.525	160.638	398.006	275.809	137.064	0.00014098	0.00016299	3.8651e-05	1086.5	5.0421e-06	2.5897e-06	1187.6	225.33	3.7728e-06	5.4562e-06	286.15	81.913	65.851	19.001	3.9543e-06	26.69	0.00023387	0.00022247	7.0779e-05	1047.2	2.5256e-06	2.3931e-06	1143.3	220.16	2.4309e-06	2.3632e-06	275.79	79.985	61.812	18.944	2.7039e-06	26.476	184.109	173.811	361.811	62.868	210.393	191.938	63.073	70.489	222.600	208.547	69.992	76.958	80.820	83.812	260.803	83.992	-8191	255	
1044.753	1	1	0	0	0.1249	0.18879	0.17582	0.16676	0.086926	0.25801	0.21563	0.12138	0.098419	0.21245	0.3121	0.04609	0.044134	0.12528	0.20048	0.13659	-2.0021	-2.8729	-2.0792	-2.8812	-2.7458	-2.15	-3.2188	-2.4625	-2.2521	-2.9021	-2.3187	-2.5479	-2.7708	-2.1354	-2.9479	-2.5625	114.903	266.924	266.919	357.994	173.271	60.530	330.925	308.787	354.017	88.403	163.349	190.595	253.178	164.285	374.951	67.086	0.00021514	0.00064473	0.00011439	1087.1	1.2067e-06	3.3363e-06	1190.7	227.35	8.3927e-07	3.469e-06	286.11	81.71	65.487	19.011	8.0099e-07	26.705	0.00021519	0.00021888	7.0374e-05	1040.1	2.3749e-06	2.4281e-06	1142.5	219.86	2.3502e-06	2.5318e-06	276.6	79.614	61.706	19.119	2.7726e-06	26.51	181.632	104.731	131.330	62.701	257.207	106.636	62.933	70.504	231.336	292.286	69.940	77.095	81.419	83.858	195.864	83.988	-8191	255	
1044.873	1	1	0	0	0.22689	0.1411	0.074277	0.30138	0.006844	0.20441	0.37928	0.095587	0.26091	0.12767	0.32516	0.065579	0.14184	0.025449	0.25867	0.0068497	-1.6104	-2.8146	-2.0792	-2.6188	-2.7708	-2.0729	-2.875	-2.4521	-2.3417	-2.6667	-2.1771	-2.4188	-2.6625	-1.9354	-2.4646	-2.5875	200.628	235.132	169.659	83.933	339.871	136.924	365.362	336.489	277.513	69.731	360.730	66.728	265.769	98.394	108.342	245.993	0.0002152	0.00045187	6.7024e-05	1088.4	3.5309e-06	4.6621e-06	1189.2	227.23	3.4357e-06	5.6554e-06	287.54	82.077	66.668	19.213	2.3765e-06	26.872	0.00021856	0.00024485	7.2061e-05	1043.7	2.4742e-06	2.8087e-06	1144.6	220.84	2.5397e-06	2.9004e-06	277.99	80.296	63.072	19.516	2.9252e-06	26.759	187.342	124.469	354.639	62.646	274.495	253.760	62.894	70.432	219.545	154.254	69.952	76.968	80.783	83.368	393.411	83.452	-8191	255	
1044.945	1	1	0	0	0.28494	0.14749	0.055776	0.22577	0.11704	0.11705	0.074119	0.1283	0.32511	0.13218	0.1248	0.10086	0.094913	0.23073	0.33836	0.16875	-1.8042	-2.725	-2.2313	-2.4604	-2.8042	-1.9375	-2.7854	-2.5604	-1.9208	-2.8792	-2.3479	-2.0958	-2.7167	-1.9708	-2.3979	-2.5938	359.610	272.783	389.992	353.180	389.128	210.069	340.904	403.431	159.563	95.001	270.777	230.350	345.886	357.281	410.304	82.805	0.00022652	0.00064786	7.0355e-05	1092.3	2.741e-06	7.0304e-06	1199.2	229.18	2.8955e-06	6.5871e-06	289.93	82.311	66.042	19.181	4.2143e-06	26.842	0.00023226	0.00026987	7.1701e-05	1045.7	2.5416e-06	2.9032e-06	1146.3	221.7	2.4302e-06	2.7695e-06	277.04	79.786	62.058	19.277	2.4428e-06	26.42	184.153	118.700	184.816	62.561	133.732	263.539	62.957	70.292	184.104	311.224	69.851	77.032	80.730	83.567	211.790	83.483	-8191	255	
1045.041	1	1	0	0	0.28855	0.1083	0.19479	0.21303	0.16224	0.15389	0.1589	0.12144	0.026618	0.097795	0.1856	0.066848	0.080602	0.12026	0.18445	0.13349	-1.5333	-2.775	-2.2687	-2.3229	-2.9813	-2.0375	-2.8083	-2.8646	-2.0729	-2.7458	-2.4313	-2.4375	-2.8312	-2.2333	-2.4292	-2.6875	235.587	151.719	412.197	322.630	143.413	334.039	390.643	390.292	218.925	271.169	122.230	140.109	358.565	381.156	167.008	254.964	0.00024621	0.00017711	6.9562e-05	1094.3	4.9259e-06	4.0876e-06	1195.5	228.72	5.3569e-06	8.0297e-07	289.21	82.049	66.311	18.988	2.7914e-06	26.633	0.00021925	0.00024259	6.184e-05	1043.2	2.4785e-06	2.6835e-06	1142.1	220.64	2.5358e-06	2.6787e-06	276.41	79.811	62.946	19.276	2.4201e-06	26.399	207.625	242.733	76.587	62.645	243.880	219.394	62.854	70.419	268.473	58.701	69.952	76.948	80.359	83.478	197.283	83.113	-8191	255	
1045.162	1	1	0	0	0.24895	0.045303	0.28729	0.092058	0.23424	0.20056	0.34156	0.2639	0.28945	0.17795	0.19007	0.25395	0.13907	0.25425	0.10513	0.059188	-1.55	-2.6875	-2.4979	-2.1729	-2.6646	-2.4104	-2.7188	-2.9042	-2.0521	-2.5479	-2.7333	-2.1833	-2.7646	-2.2958	-2.3021	-2.8833	132.767	75.982	106.566	54.670	227.414	118.608	84.399	406.054	110.441	133.583	331.840	245.648	235.808	114.641	247.137	346.261	0.00025691	5.9012e-05	0.00011195	1095	2.6542e-06	1.9862e-06	1190.3	228.95	2.9594e-06	6.7015e-07	288.6	82.865	66.306	19.19	3.142e-06	26.944	0.00023928	0.00023927	6.1478e-05	1044.1	2.6352e-06	2.6382e-06	1141.7	220.87	2.6501e-06	2.5726e-06	275.69	79.872	63.547	19.251	2.3824e-06	26.501	173.375	206.283	158.852	62.499	194.608	218.161	62.577	70.149	175.128	109.389	70.106	76.789	80.296	83.351	263.369	83.643	-8191	255	
1045.258	1	1	0	0	0.27019	0.13583	0.067398	0.23475	0.18793	0.074885	0.11267	0.33316	0.091184	0.15696	0.073005	0.25709	0.10615	0.23836	0.33328	0.20011	-1.5146	-2.7042	-2.6188	-2.2333	-2.7771	-2.4771	-2.4042	-2.8542	-2.0146	-2.4417	-2.6688	-2.1208	-2.9604	-2.4583	-2.1292	-2.8375	231.328	239.396	75.160	398.341	356.214	409.282	401.768	402.944	246.396	177.740	203.738	342.347	55.392	257.395	400.391	373.571	0.0002636	0.00013076	6.3843e-05	1095.6	1.8622e-06	4.1759e-06	1194.3	228.81	2.8436e-06	2.8186e-06	290.74	82.269	66.201	19.12	3.5621e-06	26.83	0.00024871	0.00023229	6.0755e-05	1046.8	2.6968e-06	2.4978e-06	1140	221.64	2.7202e-06	2.4786e-06	275.21	80.157	63.508	19.18	2.3302e-06	26.667	189.521	208.509	304.505	62.614	214.101	408.092	63.036	70.707	111.469	219.650	70.008	77.378	80.474	83.971	242.438	83.600	-8191	255	
1045.354	1	1	0	0	0.17306	0.14969	0.076421	0.31788	0.099192	0.19671	0.16247	0.13625	0.18795	0.23291	0.13066	0.17506	0.39192	0.1486	0.35005	0.10021	-1.7062	-2.4542	-2.8312	-2.2021	-2.5021	-2.4042	-2.4604	-2.8333	-2.1729	-2.4271	-2.7646	-2.0667	-2.5521	-2.6562	-2.1792	-2.8979	159.899	278.775	329.981	69.168	199.232	125.258	298.966	403.831	329.611	109.127	84.223	53.493	151.409	394.837	389.208	351.860	0.00029659	0.0001899	7.8047e-05	1092.4	2.7011e-06	3.6277e-06	1196.4	230.05	4.9777e-06	9.7646e-07	288.92	81.845	66.341	19.193	2.1015e-06	26.965	0.00025047	0.00022792	5.9741e-05	1048.8	2.7249e-06	2.5034e-06	1143.2	223.32	2.7282e-06	2.5079e-06	275.79	80.938	63.722	19.218	2.4073e-06	26.882	182.220	296.442	145.717	62.510	221.370	198.544	62.769	70.384	187.668	156.933	69.862	76.864	80.192	83.260	221.270	83.660	-8191	255	
1045.450	1	1	0	0	0.13013	0.28929	0.087138	0.48649	0.17462	0.14177	0.2102	0.31663	0.27807	0.192	0.039899	0.093395	0.19743	0.22809	0.10992	0.12888	-1.7854	-2.2042	-2.7625	-2.1833	-2.4646	-2.6979	-2.2667	-2.9625	-2.0875	-2.3042	-2.8271	-2.2417	-2.5604	-2.6229	-2.0604	-2.8063	343.738	383.760	70.094	70.739	138.800	282.094	368.884	291.391	366.281	57.623	255.737	301.442	122.285	408.770	320.011	212.231	0.00020849	0.00030224	8.6506e-05	1092.9	3.0972e-06	1.6917e-06	1194.9	229.32	1.9859e-06	4.468e-06	288.83	82.309	66.446	19.099	3.7703e-06	26.928	0.00024536	0.0002267	6.1583e-05	1051.8	2.6712e-06	2.4926e-06	1146.8	223.95	2.6994e-06	2.4789e-06	277.38	81.358	63.643	19.212	2.6148e-06	27.028	202.602	225.127	165.885	62.709	52.962	123.663	62.658	70.519	294.151	150.714	69.993	76.798	80.632	83.482	188.854	83.584	-8191	255	
1045.546	1	1	0	0	0.18295	0.13532	0.19637	0.26944	0.16133	0.22213	0.26576	0.14001	0.081349	0.14834	0.038834	0.28831	0.19642	0.15304	0.12759	0.23401	-2.0083	-2.2313	-2.8208	-2.5187	-2.6312	-2.7479	-2.2438	-2.9188	-2.5625	-2.1729	-2.9521	-2.0792	-2.3937	-2.6042	-2.2479	-2.6396	138.996	86.310	295.132	393.243	194.775	174.675	362.541	318.044	190.582	130.869	55.114	364.726	72.723	283.731	86.819	259.521	0.00018421	0.00025431	7.626e-05	1094.7	2.4345e-06	1.801e-06	1196	229.07	2.1644e-06	2.0445e-06	289.39	82.738	66.749	19.056	4.2701e-06	27.113	0.00024429	0.00022769	6.6944e-05	1053.9	2.6299e-06	2.4937e-06	1147.8	223.92	2.6053e-06	2.4526e-06	278.77	81.406	63.187	19.183	2.7643e-06	26.935	193.169	245.416	91.822	62.562	206.276	393.834	62.875	70.125	330.281	276.567	69.709	76.829	80.652	83.610	208.512	83.247	-8191	255	
1045.643	1	1	0	0	0.24458	0.24181	0.28828	0.23596	0.21808	0.15809	0.27603	0.10395	0.16918	0.1261	0.12648	0.16861	0.10125	0.071706	0.19817	0.066055	-2.05	-2.2396	-2.7042	-2.2125	-2.3354	-2.8542	-2.1771	-2.8833	-2.55	-2.275	-2.8625	-2.1604	-2.3729	-2.8812	-1.9917	-2.6875	139.487	328.033	218.348	399.335	80.384	326.157	394.493	259.521	403.686	334.163	361.150	83.342	284.243	70.047	88.840	220.577	0.00016191	0.00044893	0.0002047	1093.4	2.4704e-06	2.2112e-06	1199	231.07	2.7779e-06	2.1154e-06	291.15	82.151	66.866	19.238	5.5094e-06	26.803	0.00023479	0.00022179	7.0099e-05	1052.8	2.528e-06	2.4241e-06	1150.1	223.7	2.5233e-06	2.461e-06	279.17	80.811	62.697	19.175	2.8205e-06	26.755	214.575	130.388	166.883	62.586	150.549	107.438	62.732	70.248	355.964	262.848	69.796	76.777	80.455	83.694	188.634	83.285	-8191	255	
1045.763	1	1	0	0	0.1323	0.22104	0.22294	0.23019	0.21853	0.16161	0.13364	0.23844	0.15669	0.052629	0.22405	0.20604	0.13637	0.082498	0.11605	0.10288	-2.1792	-2.15	-2.8479	-2.4896	-2.0646	-2.7521	-2.3812	-2.6333	-2.7562	-1.9958	-2.6646	-2.4042	-2.3063	-2.7604	-2.2104	-2.5229	158.056	157.616	56.830	62.936	207.038	96.406	409.857	340.925	101.475	54.291	70.832	326.940	199.456	262.084	187.635	95.290	0.00018737	0.00040406	0.00012906	1097.9	3.3328e-06	6.8743e-06	1195.2	229.84	3.02e-06	4.6894e-06	289.7	82.246	65.469	19.14	3.7035e-06	26.906	0.00022667	0.00022524	7.1794e-05	1051.2	2.4322e-06	2.5158e-06	1149.9	222.99	2.4514e-06	2.5573e-06	278.75	80.388	62.044	19.308	2.8384e-06	26.69	170.323	122.918	83.550	62.766	262.952	228.626	62.852	70.019	113.498	183.369	70.090	76.920	81.002	83.291	216.410	83.474	-8191	255	
1045.858	1	1	0	0	0.17633	0.16431	0.063045	0.076999	0.22936	0.17885	0.27484	0.10214	0.34876	0.26884	0.14023	0.1519	0.22078	0.19544	0.3002	0.022764	-2.2792	-2.175	-2.4917	-2.4271	-2.1542	-2.7875	-2.3583	-2.3292	-2.7167	-2.1708	-2.6	-2.5687	-2.0146	-2.9354	-2.0146	-2.3646	331.907	185.626	358.199	120.679	62.414	139.888	62.562	387.773	182.507	336.992	381.924	259.439	192.865	367.166	360.128	258.578	0.00025481	0.00040205	8.4482e-05	1093.7	3.3666e-06	6.2374e-06	1196.9	229.32	1.1327e-06	5.0329e-06	291.12	81.54	66.507	19.181	1.3292e-06	26.94	0.00021876	0.00024046	7.0353e-05	1049.6	2.3737e-06	2.6705e-06	1150.8	222.63	2.4046e-06	2.7245e-06	279.57	80.21	62.022	19.37	2.7463e-06	26.538	195.337	128.009	209.643	62.669	223.786	330.638	62.618	70.276	59.488	179.862	69.680	76.810	80.734	83.490	378.451	83.457	-8191	255	
1045.954	1	1	0	0	0.14937	0.1245	0.0829	0.29232	0.088443	0.082192	0.048024	0.15584	0.30816	0.043498	0.149	0.17393	0.34229	0.24485	0.22522	0.11984	-2.4292	-1.7667	-2.6708	-2.6042	-2.1104	-2.9188	-2.4208	-2.4458	-2.825	-2.225	-2.6604	-2.6417	-2.1104	-2.9313	-2.1792	-2.2812	378.509	181.582	164.752	402.271	385.000	301.754	383.452	296.408	359.300	266.106	92.739	68.979	74.402	325.476	335.210	52.505	0.00019206	0.00048808	5.7372e-05	1094.5	8.8418e-06	6.4832e-07	1200.7	229.66	1.3644e-06	3.0864e-06	289.8	82.293	65.596	19.063	1.5724e-06	27.004	0.00022371	0.00025526	6.8738e-05	1049.7	2.4619e-06	2.8056e-06	1149.6	222.37	2.4805e-06	2.8122e-06	277.91	80.052	62.272	19.338	2.5646e-06	26.461	223.961	109.531	55.434	62.895	245.366	71.307	62.633	70.278	180.694	261.931	70.190	77.206	80.490	83.317	108.558	83.513	-8191	255	
1046.050	1	1	0	0	0.25967	0.30414	0.34071	0.2064	0.15851	0.17595	0.076365	0.093793	0.15421	0.08566	0.20813	0.076171	0.2051	0.2172	0.18806	0.18681	-2.2875	-1.9167	-2.4188	-2.9167	-2.1417	-2.7729	-2.5646	-2.3458	-2.8125	-2.4042	-2.3458	-2.7479	-2.0062	-2.5771	-2.3354	-2.2562	81.660	212.296	371.746	162.246	109.528	213.472	344.298	361.908	219.844	88.178	367.542	307.028	324.823	406.178	239.537	378.581	0.00026695	0.00062092	1.7576e-05	1095.1	3.1494e-06	5.2674e-06	1195.6	228.73	3.3192e-06	7.7504e-06	293.03	82.419	65.845	19.069	3.3467e-06	26.978	0.00022475	0.00025116	6.3308e-05	1046.5	2.5425e-06	2.7279e-06	1144.4	221.22	2.5587e-06	2.746e-06	277.26	79.859	63.006	19.267	2.4411e-06	26.446	180.155	272.623	262.970	62.633	263.627	163.229	62.859	70.214	252.931	227.366	69.855	77.145	80.711	83.953	217.448	83.539	-8191	255	
1046.170	1	1	0	0	0.20105	0.087087	0.25159	0.2491	0.11846	0.14088	0.093966	0.084071	0.042762	0.055218	0.17904	0.16262	0.12014	0.11146	0.021517	0.048623	-2.5	-2.1312	-2.3688	-2.9583	-2.0958	-2.5646	-2.6979	-2.2958	-2.7938	-2.2104	-2.5458	-2.7646	-2.1542	-2.6479	-2.5229	-2.2521	255.771	188.488	265.372	59.521	397.176	330.795	389.239	336.204	293.222	222.565	247.318	299.826	136.177	223.384	57.575	57.789	0.00021702	0.00028885	0.00012815	1093.2	2.7137e-06	2.9729e-06	1197.2	228.55	2.7738e-06	3.0478e-06	290.07	82.359	66.641	19.095	9.3251e-07	26.824	0.00023565	0.00024301	6.0953e-05	1047	2.5847e-06	2.5517e-06	1143.8	221.04	2.6088e-06	2.5412e-06	274.91	79.749	63.409	19.072	2.3325e-06	26.355	184.387	241.885	168.946	62.500	305.788	228.505	62.801	69.994	196.625	340.699	69.744	76.772	80.442	83.546	344.498	83.393	-8191	255	
1046.242	1	1	0	0	0.11382	0.030845	0.14062	0.14117	0.10076	0.21467	0.22265	0.21291	0.13646	0.15187	0.088442	0.18278	0.035654	0.06245	0.16789	0.085462	-2.5312	-2.2958	-2.0667	-2.7208	-2.2021	-2.2521	-2.7875	-2.3833	-2.7854	-2.4375	-2.4188	-2.8896	-2.1708	-2.7375	-2.6646	-2.3063	69.171	365.523	326.310	67.912	357.208	282.396	82.793	330.031	381.384	245.292	373.279	189.407	341.042	174.733	88.488	150.195	0.00025651	0.00053611	8.7407e-05	1093.7	3.638e-06	4.5679e-06	1198.9	229.48	4.8942e-06	3.3068e-06	289.05	81.912	66.003	19.023	3.106e-06	26.768	0.00024215	0.0002261	5.801e-05	1046.7	2.6409e-06	2.4245e-06	1142.9	220.89	2.6185e-06	2.4281e-06	274.47	79.803	63.265	19.042	2.2716e-06	26.462	199.194	95.285	156.709	62.626	209.329	382.246	63.055	70.457	241.118	192.194	70.114	77.293	80.673	83.618	226.338	83.560	-8191	255	
1046.338	1	1	0	0	0.29176	0.071124	0.19916	0.1771	0.13633	0.11205	0.3931	0.24545	0.31788	0.15655	0.10903	0.076582	0.037524	0.1816	0.051682	0.1657	-2.6188	-2.4646	-2.1833	-3.1208	-2.0375	-2.5583	-2.975	-2.0292	-2.7313	-2.4625	-2.2646	-2.8125	-2.3042	-2.4208	-2.7521	-2.0104	395.175	410.225	370.368	304.637	272.672	266.261	318.079	83.375	243.856	90.754	79.447	170.915	187.872	285.726	78.460	293.979	0.00012972	0.00061917	5.7065e-05	1096.7	1.0789e-06	4.6063e-06	1192.2	228.43	2.9827e-06	3.5142e-06	288.8	82.112	64.54	18.909	1.4512e-06	26.736	0.00023705	0.00021557	5.6719e-05	1048.7	2.5832e-06	2.3544e-06	1140.6	221	2.5657e-06	2.3506e-06	274.01	80.012	62.083	18.92	2.2603e-06	26.467	196.347	62.086	80.905	62.496	90.531	231.924	62.694	70.538	264.940	162.310	70.114	76.663	81.078	83.682	205.937	84.026	-8191	255	
1046.434	1	1	0	0	0.22894	0.17129	0.075395	0.23554	0.065959	0.085713	0.24879	0.16379	0.15725	0.18561	0.16529	0.15597	0.23116	0.16232	0.15896	0.097591	-2.2104	-2.4583	-2.1458	-2.8354	-2.2625	-2.5687	-2.8792	-2.0479	-2.5729	-2.5938	-2.1312	-2.8375	-2.2583	-2.4813	-2.7146	-2.1021	271.779	379.799	358.152	61.076	61.199	269.214	335.955	282.484	276.108	167.077	131.996	212.088	200.655	89.829	397.946	187.853	0.00018472	0.00030258	8.4601e-05	1088.7	4.1664e-06	1.6462e-06	1193.6	227.01	9.1693e-07	2.8428e-06	289.13	81.108	66.068	18.984	3.1137e-06	26.497	0.0002253	0.00020812	5.6152e-05	1046.4	2.4364e-06	2.2427e-06	1140.5	220.82	2.3764e-06	2.2268e-06	273.06	79.875	61.343	18.828	2.2528e-06	26.403	176.425	223.999	129.053	62.680	162.155	73.351	63.068	70.227	226.726	384.243	70.099	77.006	81.232	83.849	215.793	83.480	-8191	255	
1046.555	1	1	0	0	0.23923	0.11899	0.41626	0.16462	0.24142	0.19054	0.21932	0.1238	0.2057	0.26015	0.2212	0.12208	0.1994	0.10106	0.21662	0.24135	-2.0375	-2.5646	-2.0583	-3.0917	-2.4271	-2.1375	-3.0479	-2.2479	-2.4708	-2.7354	-2.1083	-2.6208	-2.425	-2.0312	-2.7938	-2.2896	241.113	187.878	159.063	344.480	181.191	300.691	373.276	258.194	394.429	397.234	107.080	105.580	136.743	404.991	253.577	76.235	0.00020657	0.00029038	7.4599e-05	1096.3	6.1344e-06	4.1154e-06	1192.2	225.81	1.0716e-06	1.9623e-06	289.48	81.437	65.85	18.917	5.8697e-06	26.768	0.00020812	0.00019691	5.7664e-05	1045.5	2.2801e-06	2.1133e-06	1138.1	219.94	2.2159e-06	2.1253e-06	273.69	79.308	60.833	18.715	2.3295e-06	26.305	188.404	131.212	185.569	62.619	206.788	146.144	62.952	70.427	390.057	132.264	70.100	77.088	81.538	83.970	205.012	83.931	-8191	255	
1046.649	1	1	0	0	0.25302	0.17462	0.38142	0.50908	0.17607	0.18272	0.041332	0.18455	0.15266	0.20155	0.15366	0.25326	0.042647	0.07494	0.18456	0.20678	-2.0208	-2.7583	-2.2833	-2.8604	-2.4688	-2.2542	-3.1021	-2.3625	-2.4896	-2.7729	-2.1354	-2.8646	-2.6667	-2.2646	-2.8396	-2.2146	189.468	361.133	159.807	404.212	141.424	397.498	239.844	256.686	323.070	121.209	92.949	99.519	260.464	409.989	167.431	353.807	0.0002694	0.00042812	7.2888e-05	1089.4	4.0012e-06	3.1695e-06	1189.6	226.4	3.6663e-06	7.3321e-07	289.14	81.298	66.211	18.883	1.438e-06	26.584	0.00019874	0.0001894	6.0154e-05	1042.5	2.1899e-06	2.0584e-06	1137.9	218.56	2.1323e-06	2.0957e-06	273.74	78.968	60.25	18.599	2.4267e-06	26.08	201.442	96.194	174.211	62.705	218.477	216.804	62.920	70.279	311.158	228.116	70.104	76.902	79.603	83.547	156.641	83.341	-8191	255	
1046.746	1	1	0	0	0.12133	0.14512	0.24598	0.16375	0.16488	0.036923	0.17315	0.21158	0.074664	0.11167	0.073436	0.047339	0.22171	0.12154	0.2605	0.0677	-2.0187	-2.8312	-2.1542	-2.7417	-2.4562	-2.2854	-2.9854	-2.4104	-2.3375	-2.8708	-2.3896	-2.5563	-2.6562	-2.3417	-2.7188	-2.4542	112.225	267.256	111.834	54.402	302.115	406.837	354.918	406.346	114.444	369.492	396.050	285.514	381.872	392.910	322.002	57.144	0.00013075	0.00064215	6.1378e-05	1090.3	4.5156e-06	2.5636e-06	1189.7	225.17	1.509e-06	1.2925e-07	286.82	81.311	64.925	18.969	1.5815e-06	26.65	0.00019264	0.00019611	6.2064e-05	1040.3	2.1514e-06	2.1662e-06	1138	218.18	2.1051e-06	2.2137e-06	274.26	78.944	59.984	18.783	2.4532e-06	26.126	165.826	151.289	104.723	62.475	319.787	170.211	63.000	70.388	302.661	98.303	69.785	76.707	80.855	83.482	283.310	83.515	-8191	255	
1046.844	1	1	0	0	0.25036	0.077048	0.14708	0.2087	0.08394	0.20245	0.065349	0.14842	0.1823	0.21979	0.22474	0.22921	0.14881	0.22005	0.17714	0.1426	-1.9792	-2.8812	-2.0896	-2.4333	-2.7771	-2.0875	-2.7292	-2.3729	-2.0646	-2.9083	-2.1208	-2.6	-2.7583	-2.2417	-2.6125	-2.6	61.405	398.438	207.568	344.153	357.316	151.656	279.404	351.540	193.156	304.004	390.499	358.827	228.691	104.481	274.229	382.755	0.00017767	0.00033023	8.1333e-05	1083.7	2.8399e-06	5.4556e-06	1184.1	226.44	2.4549e-06	2.635e-06	288.53	81.765	65.626	18.902	1.4764e-06	26.59	0.00019154	0.00020834	6.1911e-05	1037.4	2.0819e-06	2.2903e-06	1135.8	217.96	2.0274e-06	2.3053e-06	273.45	78.715	59.684	18.811	2.2932e-06	25.959	170.411	145.661	372.688	62.502	287.904	205.364	62.946	70.534	202.222	251.446	69.693	76.892	80.790	83.718	208.304	83.315	-8191	255	
1046.938	1	1	0	0	0.088748	0.17391	0.24299	0.41002	0.17996	0.10234	0.10781	0.14003	0.16147	0.2188	0.23847	0.045768	0.1406	0.20681	0.34177	0.21997	-1.7646	-2.5979	-2.2375	-2.4792	-2.9083	-2.2583	-2.8583	-2.5812	-2.0521	-2.7938	-2.2625	-2.2104	-2.7812	-2.025	-2.4208	-2.7271	360.277	80.226	301.027	355.860	242.436	125.220	391.057	122.839	346.133	205.747	340.123	396.066	296.362	115.010	57.277	229.536	0.00022653	0.00043216	8.5762e-05	1087.7	2.6737e-06	2.5978e-06	1190.3	225.11	2.4978e-06	3.5017e-06	287.44	81.517	65.802	19.105	3.6189e-06	26.595	0.00018833	0.00021652	5.8542e-05	1037.4	2.0861e-06	2.4028e-06	1136.8	217.45	2.1078e-06	2.4043e-06	273.07	78.635	60.114	18.914	2.1797e-06	25.931	197.051	168.376	172.272	62.302	264.604	255.420	62.815	70.269	194.350	106.467	70.264	76.856	80.321	83.781	307.150	83.395	-8191	255	
1047.034	1	1	0	0	0.27329	0.11301	0.17244	0.07471	0.11058	0.22112	0.17903	0.24874	0.30006	0.33536	0.20717	0.09779	0.060756	0.24298	0.22269	0.1678	-1.4833	-2.7333	-2.2833	-2.2188	-2.8646	-2.0708	-2.4771	-2.8708	-2.2958	-2.7938	-2.4896	-2.2	-2.7271	-2.0021	-2.3063	-2.8792	107.619	91.792	319.938	94.163	126.677	366.503	382.073	407.780	236.673	303.579	56.352	360.766	181.070	102.338	285.612	217.537	0.00025521	0.00029442	5.5118e-05	1087	7.2009e-06	1.5387e-06	1189.2	226.35	2.3808e-06	3.5558e-06	287.37	81.357	66.051	18.974	1.0465e-06	26.445	0.00019229	0.00021666	5.5401e-05	1036.8	2.1755e-06	2.3625e-06	1133.8	217.11	2.2179e-06	2.3304e-06	271.68	78.248	60.892	18.852	2.1146e-06	25.888	201.972	341.827	180.637	62.783	233.101	271.488	62.696	70.207	207.954	231.463	69.845	77.318	80.577	84.203	246.066	83.744	-8191	255	
1047.130	1	1	0	0	0.18181	0.034331	0.074645	0.095205	0.3524	0.30429	0.099708	0.077193	0.093681	0.21936	0.1512	0.15758	0.24494	0.064593	0.3304	0.10316	-1.6917	-2.5917	-2.3563	-1.9833	-2.7667	-2.1417	-2.6083	-2.7146	-1.9062	-2.7583	-2.6604	-2.1021	-2.7271	-2.2	-2.3521	-2.8229	73.700	93.259	342.708	153.024	77.910	66.935	311.707	112.779	64.186	166.932	401.645	260.388	98.615	221.421	364.322	316.654	0.00020116	0.00052917	8.099e-05	1087.6	1.2945e-06	1.2685e-06	1189.7	224.8	5.1e-07	1.8113e-06	287.24	81.683	65.161	18.774	3.43e-06	26.636	0.00020774	0.00021219	5.3923e-05	1036.1	2.2977e-06	2.3059e-06	1133.4	216.78	2.3442e-06	2.2654e-06	271.94	78.501	61.105	18.8	2.0694e-06	25.914	180.921	365.278	354.428	62.511	200.176	276.631	62.954	70.669	278.635	127.418	69.969	76.690	81.786	83.782	227.282	83.751	-8191	255	
1047.251	1	1	0	0	0.11729	0.12423	0.13612	0.22477	0.071264	0.25308	0.20483	0.17618	0.26378	0.092625	0.30162	0.23074	0.05856	0.27304	0.10099	0.10066	-1.5146	-2.5667	-2.5833	-2.175	-2.6729	-2.2146	-2.3563	-2.9437	-2.1813	-2.4271	-2.6708	-2.1021	-2.8583	-2.1312	-2.3146	-2.7521	287.207	222.502	178.654	309.594	396.732	99.397	381.645	299.037	94.392	387.960	85.426	176.805	369.802	92.674	222.860	158.067	0.00024409	0.00067495	0.00010958	1085.8	2.3634e-06	2.9928e-06	1184.9	226.55	2.0434e-06	1.9607e-06	287.46	81.636	65.315	18.922	6.3085e-07	26.61	0.00021711	0.00020078	5.2512e-05	1035.2	2.3405e-06	2.1878e-06	1131.1	217.5	2.3627e-06	2.1725e-06	271.01	78.664	61.139	18.714	2.0131e-06	26.093	176.925	169.531	170.236	62.913	256.458	66.444	62.827	70.409	245.872	185.076	70.027	77.517	80.876	83.917	198.748	83.653	-8191	255	
1047.347	1	1	0	0	0.18064	0.24555	0.090796	0.24144	0.069646	0.13994	0.277	0.067998	0.2629	0.24021	0.15399	0.099704	0.15971	0.34806	0.21304	0.028455	-1.8333	-2.4021	-2.6021	-2.1646	-2.6312	-2.5333	-2.3604	-2.8271	-2.3333	-2.4271	-2.6813	-2.1396	-2.6917	-2.5104	-2.1667	-2.9542	168.584	186.488	230.012	408.410	90.201	304.189	326.161	305.220	246.922	273.636	233.585	109.625	167.362	292.297	161.641	118.744	0.00023599	0.00019124	8.7467e-05	1085.5	4.4843e-06	1.755e-06	1182.6	225.51	2.9157e-06	2.9001e-06	286.41	81.258	66.056	18.825	1.0411e-06	26.827	0.00021242	0.000192	5.0978e-05	1036.4	2.3383e-06	2.1328e-06	1130.1	218.07	2.3203e-06	2.0928e-06	271.11	78.966	60.926	18.657	1.9795e-06	26.132	208.059	352.695	66.516	62.630	252.924	261.518	62.787	70.476	79.322	95.865	69.822	77.043	80.785	83.434	342.469	83.879	-8191	255	
1047.443	1	1	0	0	0.16871	0.23432	0.12121	0.25591	0.21221	0.16046	0.065266	0.25848	0.24642	0.12821	0.28482	0.23328	0.087898	0.019107	0.23262	0.19294	-1.6938	-2.4167	-2.7146	-2.1937	-2.7625	-2.5083	-2.2333	-2.9396	-2.3396	-2.3167	-2.875	-2.0021	-2.6188	-2.5708	-2.1167	-2.8937	142.443	287.186	109.967	311.115	53.470	116.682	254.149	401.173	283.039	312.929	392.113	69.394	235.309	66.852	261.009	291.391	0.0001364	0.0003025	3.5274e-05	1087.3	3.9746e-06	2.4366e-06	1185.2	225.63	2.9891e-06	2.4549e-07	287.33	81.558	65.825	19.041	9.1462e-07	26.647	0.00020466	0.00018655	5.1387e-05	1040.2	2.2105e-06	2.0851e-06	1131.8	218.34	2.252e-06	2.0642e-06	271.04	79.2	60.459	18.668	2.0997e-06	26.202	191.946	132.279	127.732	62.378	184.358	235.018	62.786	70.430	222.668	215.886	70.114	77.064	81.616	83.785	201.867	83.831	-8191	255	
1047.539	1	1	0	0	0.057179	0.14044	0.17946	0.32661	0.046809	0.1182	0.48739	0.073321	0.22036	0.2102	0.07669	0.28886	0.081417	0.10864	0.14735	0.28969	-2.0812	-2.0312	-2.7417	-2.2687	-2.325	-2.4792	-2.1542	-2.9333	-2.35	-2.1708	-2.9604	-2.0875	-2.4396	-2.7208	-2.0167	-2.8208	175.758	373.761	403.256	371.323	118.836	260.835	286.319	137.774	351.695	122.049	253.262	211.209	162.257	335.133	230.620	271.295	0.00023112	0.00042669	8.857e-05	1082.8	3.5136e-06	1.8482e-06	1186.2	225.64	2.36e-06	3.6581e-06	286.45	81.333	64.763	18.979	2.2988e-06	26.694	0.00019746	0.00018233	5.3783e-05	1036.4	2.1208e-06	1.9897e-06	1132.3	218.48	2.1145e-06	1.9692e-06	271.71	78.906	59.643	18.608	2.2111e-06	26.128	175.952	85.203	131.689	62.823	216.048	370.598	62.741	70.321	252.443	217.640	70.025	77.052	80.781	83.515	232.487	83.945	-8191	255	
1047.635	1	1	0	0	0.12404	0.16345	0.12121	0.24673	0.087724	0.23326	0.3839	0.043334	0.26031	0.27448	0.39221	0.23291	0.033815	0.13692	0.16532	0.05495	-2.1646	-2.0917	-2.75	-2.3792	-2.3937	-2.8375	-2.3312	-2.7333	-2.4479	-2.2438	-2.8708	-2.4979	-2.2875	-2.7521	-1.9208	-2.6021	363.226	248.584	158.941	337.737	115.972	235.083	379.496	394.177	235.560	338.969	85.151	395.848	76.648	317.300	65.252	369.710	0.00016723	0.00045782	0.0001077	1084.7	3.3705e-06	3.1379e-06	1186	225.22	3.359e-06	3.7449e-06	287.6	80.842	65.77	18.79	2.8053e-06	26.633	0.00019245	0.00017944	5.7964e-05	1037.3	2.0846e-06	1.9886e-06	1134.4	217.81	2.0653e-06	1.999e-06	272.57	78.866	59.694	18.602	2.3403e-06	26.034	198.600	133.348	162.305	62.787	257.227	149.944	63.087	70.213	251.193	216.933	69.877	77.169	81.107	83.908	286.479	83.545	-8191	255	
1047.732	1	1	0	0	0.066979	0.12896	0.13005	0.14825	0.24127	0.11555	0.099576	0.3309	0.17628	0.32349	0.056873	0.07873	0.35401	0.21656	0.24657	0.15751	-2.3854	-2.1167	-2.8271	-2.4062	-2.2562	-2.7167	-2.1625	-2.5438	-2.6792	-1.975	-2.8604	-2.2313	-2.0312	-2.8271	-2.275	-2.5458	382.353	399.012	384.329	411.390	209.371	179.856	342.403	343.053	114.884	131.548	352.081	245.211	61.648	97.608	202.419	281.332	0.00021471	0.00022385	9.625e-06	1081.2	1.0469e-06	9.2457e-07	1191	226.13	6.7889e-06	3.2832e-06	287.19	81.366	65.481	19.003	1.2502e-06	26.703	0.00018668	0.00018604	5.8594e-05	1034.7	2.0339e-06	2.0665e-06	1135	217.34	2.0305e-06	2.1125e-06	272.96	78.688	59.367	18.746	2.36e-06	25.913	198.360	171.605	90.273	62.536	216.190	278.442	63.061	70.585	224.721	259.813	69.829	76.918	81.077	83.728	90.566	83.302	-8191	255	
1047.851	1	1	0	0	0.15329	0.15788	0.22301	0.12292	0.28791	0.072793	0.019098	0.16548	0.10967	0.20454	0.37435	0.27591	0.12512	0.20464	0.28927	0.093208	-2.3208	-2.0604	-2.6833	-2.4125	-2.2875	-2.8979	-2.3563	-2.6292	-2.7229	-2.0875	-2.7458	-2.4792	-2.1333	-2.9375	-2.075	-2.5479	216.304	95.567	66.651	333.860	199.890	295.777	246.038	216.591	291.737	66.430	101.649	93.044	250.731	76.391	113.540	158.340	0.00018957	0.00071928	2.0794e-05	1083.3	5.3733e-06	6.1197e-06	1195.1	226.49	2.9487e-06	4.9437e-06	287.52	81.168	65.054	18.799	1.0985e-06	26.629	0.0001824	0.00019545	5.787e-05	1034.7	1.9458e-06	2.1712e-06	1135.1	216.8	1.9708e-06	2.2361e-06	272.87	78.318	59.38	18.802	2.2803e-06	25.895	166.239	175.384	206.223	62.523	203.804	229.736	62.808	70.771	208.143	186.733	69.950	77.277	80.730	83.904	224.321	83.526	-8191	255	
1047.947	1	1	0	0	0.10041	0.24114	0.14546	0.21599	0.026961	0.04673	0.23343	0.055742	0.069842	0.14246	0.22418	0.046496	0.07988	0.2861	0.056076	0.086828	-2.4479	-2.0812	-2.5812	-2.7333	-1.9833	-2.9062	-2.4021	-2.4062	-2.7896	-1.9083	-2.5271	-2.6604	-2.2438	-2.8312	-2.2229	-2.2667	402.190	206.694	61.755	325.693	361.690	129.999	296.678	207.887	256.073	380.218	164.111	78.460	190.624	319.391	58.227	63.390	0.00025059	0.0003791	9.1603e-05	1085.7	9.2433e-07	3.5484e-06	1184.6	225.62	2.1025e-06	2.2633e-06	288.69	80.552	64.596	18.948	2.3649e-06	26.391	0.0001864	0.00021244	5.7319e-05	1035.8	2.0587e-06	2.3501e-06	1135.1	217.02	2.0708e-06	2.3855e-06	272.52	78.338	59.928	18.893	2.2036e-06	25.92	190.659	132.002	61.069	62.703	256.345	212.165	62.941	70.460	221.381	220.660	69.847	77.336	81.299	83.879	132.559	83.510	-8191	255	
1048.043	1	1	0	0	0.16102	0.14443	0.20413	0.17636	0.22696	0.28395	0.44892	0.18563	0.14992	0.19525	0.17563	0.34596	0.25607	0.23052	0.10595	0.10967	-2.4042	-1.9896	-2.6	-2.7292	-2.0271	-2.7958	-2.5187	-2.3375	-2.8688	-2.2396	-2.7104	-2.75	-2.0333	-2.7917	-2.5208	-2.2562	120.505	312.441	215.644	70.794	322.450	107.515	394.992	207.138	275.070	295.119	96.966	395.212	324.910	318.352	359.224	372.324	0.00021502	0.00025498	1.5631e-05	1086.7	5.3633e-06	3.4034e-06	1187.3	225.96	4.3396e-06	4.7339e-06	289.09	81.135	65.568	18.829	2.0715e-06	26.526	0.00019634	0.00021854	5.5355e-05	1037.9	2.1863e-06	2.3994e-06	1134.3	216.73	2.2167e-06	2.3755e-06	272.22	78.317	60.556	18.819	2.1511e-06	25.827	183.276	388.029	240.764	62.800	266.197	138.464	62.734	70.264	225.353	241.918	69.888	77.188	80.227	83.569	207.849	83.369	-8191	255	
1048.114	1	1	0	0	0.27756	0.19707	0.28384	0.2076	0.18092	0.064013	0.37643	0.092959	0.23268	0.1095	0.14948	0.16156	0.14061	0.13031	0.18349	0.090113	-2.3125	-2.1271	-2.4979	-2.7167	-2.1896	-2.6833	-2.3688	-2.0604	-2.8146	-2.1583	-2.3271	-2.9437	-2.2958	-2.5042	-2.6562	-2.2875	273.202	354.752	102.813	268.315	325.502	156.036	323.610	392.317	352.396	57.828	117.954	294.761	229.905	118.815	112.924	85.319	0.00025007	0.0004356	1.5018e-05	1081.1	4.7404e-06	2.2256e-06	1187.7	226.06	3.8324e-06	1.1606e-06	286.68	81.325	65.539	19.047	2.4883e-06	26.543	0.00020897	0.00021336	5.3852e-05	1033.4	2.3379e-06	2.321e-06	1133.5	216.99	2.3428e-06	2.3005e-06	270.54	78.256	61.438	18.809	2.1296e-06	25.833	199.513	335.046	260.414	62.464	232.801	251.978	62.772	70.488	215.608	184.092	69.587	76.785	80.566	83.398	82.064	83.716	-8191	255	
1048.211	1	1	0	0	0.078496	0.20967	0.033081	0.22993	0.57796	0.20826	0.088265	0.33583	0.16156	0.12538	0.23547	0.15664	0.064455	0.13006	0.15886	0.24626	-2.5521	-2.1688	-2.3083	-2.9167	-1.9396	-2.6292	-2.6458	-2.1771	-2.7542	-2.3375	-2.4458	-2.9271	-2.2292	-2.4521	-2.7125	-2.1292	282.077	351.045	141.020	281.768	327.269	320.015	273.786	368.266	384.310	93.489	366.177	351.403	301.718	294.242	152.383	226.032	0.00019031	0.00067447	0.00010243	1085.7	2.6514e-06	2.6461e-06	1189.4	225.13	1.0058e-06	4.2164e-06	286.52	81.393	65.457	19.076	2.0646e-06	26.765	0.00021774	0.00020582	5.2356e-05	1035	2.3766e-06	2.1802e-06	1132.1	217.11	2.3748e-06	2.1781e-06	270.81	78.682	61.507	18.738	2.0564e-06	26.039	198.165	150.157	214.825	62.908	170.306	177.956	63.140	70.299	241.013	405.955	69.947	76.952	80.763	83.586	300.871	83.847	-8191	255	
1048.331	1	1	0	0	0.012832	0.25157	0.19051	0.25608	0.12845	0.058883	0.23973	0.31574	0.17606	0.074624	0.17554	0.17335	0.073522	0.045295	0.11592	0.1691	-2.475	-2.4583	-2.1708	-2.8292	-1.9896	-2.3375	-2.8042	-2.025	-2.6625	-2.3396	-2.1875	-2.7875	-2.2792	-2.375	-2.6479	-1.9375	287.433	52.744	184.778	396.076	326.464	383.767	348.998	58.777	268.852	201.083	271.236	311.051	382.814	299.668	268.234	236.040	0.00023276	0.00053443	0.00011787	1090.4	3.4742e-07	3.7045e-06	1185.5	227.22	2.6727e-06	3.8924e-06	288.01	81.659	65.576	18.819	3.2272e-06	26.651	0.00021429	0.00019592	5.0589e-05	1039.4	2.3778e-06	2.1304e-06	1130.8	218.28	2.3076e-06	2.1629e-06	270.86	79.022	61.249	18.71	2.0553e-06	26.165	185.370	222.562	164.547	62.744	86.933	243.743	62.843	70.562	203.874	72.687	69.706	77.442	80.633	83.597	176.369	83.521	-8191	255	
1048.427	1	1	0	0	0.19436	0.21601	0.10698	0.33998	0.17205	0.1703	0.13874	0.12901	0.16513	0.022077	0.26861	0.216	0.022116	0.10535	0.31659	0.15422	-2.4208	-2.5021	-2.1583	-2.9583	-2.4521	-2.1437	-2.9354	-2.1583	-2.7729	-2.6083	-2.3229	-2.9833	-2.3729	-2.2625	-2.7875	-2.1083	218.668	217.623	353.694	384.602	182.917	177.283	65.879	301.948	115.194	348.277	193.559	366.103	391.028	338.590	256.915	320.982	0.00014152	0.00033352	0.00013684	1085.5	1.5988e-06	1.346e-06	1190.1	224.91	2.2077e-06	2.5147e-06	287.17	81.876	65.342	18.92	2.906e-06	26.328	0.00021062	0.00019246	5.1935e-05	1039.4	2.2988e-06	2.1233e-06	1133.9	218.31	2.2539e-06	2.1143e-06	270.73	79.318	60.777	18.667	2.1122e-06	26.105	176.920	85.421	63.595	62.800	71.618	187.436	62.928	70.659	142.818	381.066	70.176	76.826	80.466	83.666	168.363	83.544	-8191	255	
1048.524	1	1	0	0	0.073931	0.24645	0.22435	0.26715	0.082852	0.13821	0.28554	0.14372	0.20916	0.23678	0.10428	0.035813	0.29805	0.13763	0.076922	0.11721	-2.2	-2.6271	-2.0583	-2.925	-2.4292	-2.3312	-3.0979	-2.3146	-2.3563	-2.7021	-2.1542	-2.7792	-2.3729	-2.2812	-2.8104	-2.0979	118.280	352.606	112.434	100.650	309.393	185.569	336.770	206.457	296.540	274.148	171.267	103.041	80.624	383.247	89.186	79.920	0.00021163	0.00023825	0.00010473	1086.1	3.1998e-06	1.9559e-06	1185.7	225.77	2.631e-07	2.2451e-06	287.47	81.374	65.533	18.917	6.6118e-06	26.599	0.00019796	0.00018756	5.4388e-05	1039.3	2.148e-06	1.9711e-06	1131.3	217.88	2.1238e-06	2.0072e-06	272.21	79.01	59.936	18.601	2.2353e-06	26.114	167.668	337.173	147.803	62.569	304.990	244.568	62.922	70.942	212.207	409.079	69.794	76.982	80.189	83.800	240.799	83.388	-8191	255	
1048.644	1	1	0	0	0.17276	0.082637	0.078925	0.21683	0.051756	0.11996	0.14163	0.28128	0.036098	0.20301	0.25498	0.043477	0.23873	0.21826	0.16429	0.061356	-1.9208	-2.8021	-1.9208	-2.9	-2.6625	-2.2625	-2.8688	-2.3396	-2.3563	-2.6562	-2.2833	-2.6583	-2.35	-2.2458	-2.7667	-2.1833	82.062	148.088	325.439	314.364	387.331	386.219	370.553	338.896	140.672	192.856	118.070	127.618	160.406	221.683	117.026	217.236	0.00023045	0.00021545	0.00010078	1079.3	3.0422e-06	2.743e-06	1187.9	225.59	4.186e-06	8.4946e-07	287.16	81.115	65.03	18.913	3.7875e-06	26.475	0.00019062	0.00018436	5.7087e-05	1035.9	2.0806e-06	1.9821e-06	1135.9	217.43	2.0478e-06	1.9591e-06	272.3	78.598	59.609	18.605	2.313e-06	26.017	190.416	214.073	73.278	62.598	377.274	142.599	62.951	70.364	288.057	208.410	70.034	77.064	80.461	83.585	233.592	83.544	-8191	255	
1048.716	1	1	0	0	0.19586	0.26511	0.13297	0.10161	0.1854	0.11934	0.34703	0.20415	0.070126	0.071556	0.3336	0.1351	0.32915	0.066378	0.058242	0.13073	-1.8979	-2.7292	-1.9208	-2.95	-2.6917	-2.2167	-2.85	-2.325	-2.2479	-2.8896	-1.9458	-2.7146	-2.7208	-2.0458	-2.775	-2.3083	308.983	278.322	358.823	57.404	364.318	80.295	380.138	64.738	326.069	124.355	321.449	341.362	110.466	54.955	319.846	339.144	0.00021983	0.00077849	0.00011561	1085.9	1.1325e-06	3.0673e-06	1191.4	224.69	3.0116e-06	2.9203e-06	286.17	81.417	64.824	18.994	2.0801e-06	26.544	0.0001869	0.00018836	5.9757e-05	1037.1	2.0568e-06	2.0723e-06	1136.6	217.13	2.0028e-06	2.0896e-06	272.66	78.452	59.235	18.69	2.3459e-06	25.893	189.340	130.424	162.773	62.599	315.608	197.780	62.915	70.334	131.452	228.717	70.133	77.328	81.559	83.487	193.672	83.557	-8191	255	
1048.812	1	1	0	0	0.081798	0.20437	0.26446	0.22449	0.12508	0.36728	0.31972	0.18807	0.15143	0.17102	0.1033	0.1444	0.25103	0.21272	0.078462	0.10592	-1.8	-2.9479	-2.3187	-2.5771	-2.8229	-2.1437	-2.7896	-2.4458	-2.0583	-2.9521	-2.1813	-2.4083	-2.8104	-2.0208	-2.9062	-2.5271	396.664	124.321	97.889	80.798	160.001	244.674	388.681	296.591	81.499	219.445	388.743	262.456	394.860	64.389	163.868	296.452	0.00016748	0.0002954	8.4532e-05	1089.2	3.8898e-06	9.9492e-07	1184.3	225.4	2.3657e-06	2.886e-06	284.96	81.617	65.516	18.928	2.2957e-06	26.579	0.00018333	0.00019962	5.9014e-05	1036.6	2.0136e-06	2.2318e-06	1134	216.97	2.0081e-06	2.274e-06	272.53	78.472	59.48	18.774	2.3055e-06	25.955	171.805	77.769	101.624	62.588	269.000	101.720	62.743	70.405	304.089	263.108	70.350	77.440	80.270	83.762	239.823	83.584	-8191	255	
1048.931	1	1	0	0	0.08316	0.023005	0.16398	0.17015	0.11076	0.11972	0.28402	0.41593	0.36044	0.23834	0.31646	0.12897	0.054753	0.21502	0.23742	0.020585	-1.7604	-2.9146	-2.1063	-2.4562	-2.9938	-2.2458	-2.6396	-2.7479	-2.3792	-2.7646	-2.3021	-2.2896	-2.6542	-2.1479	-2.5062	-2.6708	81.576	408.261	244.693	380.415	92.689	410.664	313.636	326.011	244.371	307.739	93.173	273.415	176.401	54.735	308.041	336.311	0.00019871	0.00026033	1.2883e-05	1086.5	3.3455e-06	2.1193e-06	1185.8	226.59	4.719e-07	2.1311e-06	287.78	81.5	65.331	18.82	1.1517e-06	26.451	0.00018499	0.0002123	5.7608e-05	1034.8	2.0369e-06	2.3315e-06	1133.1	217.27	2.0425e-06	2.3792e-06	272.27	78.305	60.052	18.852	2.2035e-06	25.849	187.341	163.471	297.200	62.562	275.134	367.351	62.678	70.381	198.621	268.402	69.571	76.908	81.467	83.608	217.686	83.590	-8191	255	
1049.027	1	1	0	0	0.026782	0.389	0.17301	0.064095	0.23167	0.1243	0.31454	0.22596	0.028843	0.024972	0.30347	0.25586	0.072934	0.034852	0.17339	0.025697	-1.5562	-2.9125	-2.3563	-2.5292	-2.9417	-2.1333	-2.7729	-2.6063	-2.0458	-2.7042	-2.4167	-2.1688	-2.85	-2.3208	-2.3917	-2.7125	388.409	57.356	232.908	66.389	357.806	203.464	370.991	381.395	282.182	91.224	390.771	404.164	140.991	358.626	180.975	339.177	0.0002623	0.00037519	6.4911e-05	1086.9	5.3191e-06	1.337e-06	1182.6	226.22	2.6838e-06	1.6443e-06	285.55	81.782	65.941	18.998	2.9886e-06	26.668	0.00019585	0.00021713	5.5117e-05	1035.8	2.159e-06	2.3552e-06	1132	216.66	2.1467e-06	2.3327e-06	271.22	78.179	60.776	18.827	2.1015e-06	25.857	182.594	346.076	267.448	62.365	218.712	272.871	62.602	70.459	216.918	56.272	70.263	76.856	80.950	83.946	293.066	83.838	-8191	255	
1049.123	1	1	0	0	0.06644	0.15371	0.086056	0.15682	0.13954	0.1022	0.16633	0.22366	0.22464	0.16052	0.14915	0.1575	0.17671	0.067157	0.17377	0.081	-1.8813	-2.7188	-2.4542	-2.3958	-2.7917	-2.2687	-2.4479	-3.0208	-2.0854	-2.5563	-2.65	-2.1167	-3.0375	-2.3312	-2.425	-2.9813	393.092	93.960	128.253	86.648	371.103	342.979	402.827	94.482	271.428	342.076	252.515	313.471	218.644	355.502	236.866	306.149	0.0001641	0.00042861	0.00013446	1085.9	2.8691e-06	2.3623e-06	1187	224.76	1.9781e-06	2.7121e-06	287.24	81.774	65.564	18.895	2.46e-06	26.609	0.00020502	0.00020605	5.3717e-05	1034.7	2.2756e-06	2.2887e-06	1132.6	216.23	2.3036e-06	2.2575e-06	270.99	78.179	61.077	18.75	2.0473e-06	25.938	174.936	399.388	112.411	62.633	204.338	78.545	62.861	70.553	256.136	318.383	70.060	76.959	80.891	83.537	405.716	83.889	-8191	255	
1049.244	1	1	0	0	0.31276	0.031469	0.16039	0.4205	0.21248	0.20873	0.13733	0.040086	0.19808	0.086777	0.22346	0.17919	0.077521	0.12563	0.085074	0.27581	-1.7604	-2.7375	-2.5229	-2.2146	-2.8375	-2.3521	-2.5833	-2.55	-2.1167	-2.5958	-2.6833	-2.1917	-2.9562	-2.5062	-2.2771	-2.8521	410.522	58.237	54.627	282.140	339.702	405.787	330.582	294.155	301.080	216.811	114.359	107.662	406.246	195.478	219.308	74.924	0.00023999	0.00020265	1.0237e-05	1085.2	2.8475e-06	8.9883e-07	1188.1	226.79	7.3847e-07	3.1577e-06	287.44	81.151	65.593	18.86	2.4196e-06	26.695	0.00021316	0.00019829	5.1847e-05	1035.2	2.3367e-06	2.1738e-06	1130.2	217.28	2.3542e-06	2.1453e-06	270.74	78.653	61.422	18.657	1.9906e-06	26.001	184.616	252.098	295.697	62.441	253.248	392.098	62.620	70.601	314.019	103.563	70.098	77.244	80.964	84.017	260.644	83.846	-8191	255	
1049.340	1	1	0	0	0.44131	0.15237	0.098372	0.26977	0.15676	0.33342	0.12638	0.084309	0.17871	0.13907	0.22925	0.28771	0.17248	0.059467	0.24744	0.028554	-1.6667	-2.5667	-2.8167	-2.0708	-2.6396	-2.5187	-2.2271	-2.8458	-2.2687	-2.2729	-2.9979	-2.2854	-2.8458	-2.3646	-2.2646	-2.8917	307.134	328.623	191.398	57.454	54.111	137.243	66.854	266.464	143.817	143.585	136.343	64.053	98.332	331.591	174.717	365.104	0.00023028	0.00075491	6.3019e-05	1088.8	1.6816e-06	4.7112e-06	1189	225.32	2.0448e-06	4.2499e-06	286.45	81.199	65.034	18.825	2.5064e-06	26.489	0.00021237	0.00019091	4.999e-05	1036.7	2.2791e-06	2.0778e-06	1130.1	217.53	2.2663e-06	2.0725e-06	270.06	78.728	60.587	18.602	1.9683e-06	26.049	175.337	125.244	223.726	62.895	165.162	366.300	62.596	70.606	59.209	154.802	69.826	76.661	80.682	84.059	157.415	83.802	-8191	255	
1049.412	1	1	0	0	0.16096	0.062966	0.18898	0.18802	0.12456	0.12422	0.19403	0.40406	0.22565	0.31175	0.12221	0.20501	0.23836	0.033707	0.23825	0.091024	-1.9146	-2.4625	-2.7708	-2.3896	-2.7292	-2.6667	-2.4	-2.7583	-2.3063	-2.2646	-3.0729	-2.1958	-2.5062	-2.7812	-2.2958	-2.9562	254.729	343.424	377.008	354.271	76.157	204.762	80.834	182.373	162.172	127.051	291.783	351.697	180.656	301.094	404.578	114.096	0.0001987	0.0003517	0.00010612	1088.1	2.4815e-06	6.1273e-07	1185.3	226.55	2.0619e-06	2.9269e-06	287.3	81.28	65.205	18.884	4.3073e-06	26.531	0.00020107	0.00018332	4.9842e-05	1038.1	2.1895e-06	2.0246e-06	1131.4	218.28	2.1743e-06	1.9917e-06	270.38	78.949	59.967	18.54	2.0336e-06	26.098	187.876	70.601	132.102	62.475	265.389	366.942	62.666	70.808	281.582	216.044	69.941	77.059	81.391	83.742	246.508	83.851	-8191	255	
1049.508	1	1	0	0	0.054472	0.20868	0.21016	0.30157	0.14898	0.048802	0.25507	0.20406	0.12412	0.058866	0.12649	0.17411	0.15192	0.25552	0.36022	0.13422	-1.8375	-2.2833	-2.8563	-2.325	-2.5875	-2.6292	-2.1479	-2.9479	-2.5854	-2.3167	-3.0438	-2.25	-2.475	-2.7188	-2.1542	-2.8854	77.937	203.094	306.563	406.181	82.993	98.501	73.531	60.185	335.508	268.953	410.056	349.558	283.111	378.862	280.011	104.419	8.7086e-05	0.00013862	7.7936e-05	1083.2	1.9352e-06	6.7498e-07	1187.5	225.47	4.0479e-06	5.951e-07	287.19	81.097	65.215	18.935	5.0762e-06	26.511	0.0001913	0.00017784	5.218e-05	1037.4	2.0515e-06	1.9486e-06	1132.1	217.75	2.0865e-06	1.9723e-06	271.32	78.838	59.848	18.549	2.1815e-06	26.085	206.327	80.500	159.470	62.604	60.920	136.499	62.945	70.360	188.211	256.922	70.086	76.867	80.927	83.952	163.484	83.714	-8191	255	
1049.628	1	1	0	0	0.19798	0.08509	0.084006	0.24157	0.23915	0.077495	0.11585	0.22974	0.13119	0.083219	0.11548	0.13151	0.20677	0.18807	0.026807	0.11207	-2.2271	-2.1604	-2.9917	-2.3646	-2.3312	-2.8229	-2.3521	-2.6417	-2.5812	-2.2542	-3.0354	-2.3521	-2.3104	-2.8375	-2.2438	-2.5812	242.833	371.272	244.365	378.700	141.118	319.098	347.587	254.519	56.751	122.299	220.554	162.426	400.711	255.758	206.938	146.238	0.00020039	0.00012742	0.000129	1082	1.7571e-06	2.0353e-06	1187.2	225.21	2.5482e-06	2.9441e-06	288.85	81.102	66.079	18.944	4.6298e-06	26.645	0.00019006	0.000177	5.644e-05	1035.8	2.0695e-06	1.9792e-06	1133.5	217.78	2.069e-06	1.9985e-06	272.6	78.52	59.876	18.614	2.3424e-06	26.037	189.373	171.278	163.229	62.485	352.720	70.534	62.786	70.227	320.819	167.859	69.933	77.114	80.959	83.956	201.748	84.132	-8191	255	
1049.723	1	1	0	0	0.24639	0.19205	0.048669	0.095271	0.31535	0.16516	0.1138	0.26534	0.26555	0.19537	0.13311	0.05545	0.28077	0.12782	0.082793	0.21741	-2.2687	-2.1146	-3.0396	-2.5187	-2.4854	-2.8146	-2.2333	-2.5333	-2.85	-2.1042	-2.9042	-2.4292	-2.2042	-3.0333	-2.2875	-2.5729	388.063	380.215	191.550	55.067	411.620	177.577	271.832	82.102	142.786	67.606	68.321	251.037	174.285	223.205	124.097	128.057	0.00016689	0.0002177	5.875e-05	1083.5	3.3402e-06	2.3358e-06	1188.2	224.94	3.151e-06	1.7881e-06	286.99	81.102	65.976	18.831	1.1127e-06	26.722	0.00018876	0.0001848	5.8943e-05	1036	2.0301e-06	2.0339e-06	1134.7	216.72	1.9929e-06	2.0613e-06	272.36	78.374	59.262	18.629	2.2995e-06	25.933	164.376	81.187	184.881	62.653	284.858	139.060	62.724	70.526	161.754	385.881	70.317	77.026	81.275	83.978	293.396	83.373	-8191	255	
1049.819	1	1	0	0	0.21012	0.079514	0.33499	0.34088	0.057537	0.16492	0.031378	0.035611	0.31596	0.19579	0.32673	0.11069	0.15041	0.28585	0.207	0.16675	-2.2438	-1.9729	-2.6562	-2.5896	-2.0687	-2.9521	-2.3479	-2.3583	-2.6333	-2.2354	-2.7208	-2.45	-2.2583	-2.9271	-2.2792	-2.4062	333.958	170.668	101.552	356.212	136.907	241.875	370.156	58.258	225.601	356.855	396.737	312.688	64.049	166.341	97.385	68.325	0.00027071	0.00048	8.975e-05	1080.2	4.7671e-06	9.3957e-07	1184.7	225.6	3.0768e-06	4.8151e-06	286.8	80.835	65.402	18.803	4.1576e-06	26.651	0.00018268	0.0001955	5.775e-05	1033.5	1.9441e-06	2.1936e-06	1133.8	216.4	1.9783e-06	2.2151e-06	272.08	78.274	59.137	18.741	2.2816e-06	25.856	187.793	111.075	276.070	62.678	284.864	334.278	62.800	70.584	242.694	208.206	70.267	76.768	81.426	83.802	280.474	83.474	-8191	255	
1049.915	1	1	0	0	0.24429	0.058142	0.17946	0.087617	0.14373	0.28101	0.11987	0.16211	0.10935	0.16543	0.1462	0.17836	0.023265	0.039396	0.23348	0.10666	-2.6333	-2.0563	-2.6354	-2.675	-2.0729	-2.9521	-2.3438	-2.3937	-2.7354	-2.1896	-2.7062	-2.4167	-2.125	-2.9708	-2.3375	-2.1917	254.775	388.003	203.751	159.418	341.588	70.630	379.585	70.028	219.992	327.061	324.577	105.865	238.282	357.667	181.878	278.159	0.00019652	0.00052737	5.6812e-05	1081.2	2.994e-06	2.7612e-06	1188.2	225.04	2.8473e-06	2.6708e-06	285.41	81.166	65.98	18.891	3.1471e-06	26.428	0.0001841	0.00021093	5.6079e-05	1033.8	1.9994e-06	2.3292e-06	1132.7	216.42	2.0534e-06	2.3469e-06	270.79	78.162	59.807	18.809	2.1795e-06	25.782	198.211	84.521	401.749	62.654	227.280	206.608	62.963	70.270	294.459	214.998	70.192	77.133	80.665	83.726	158.310	83.426	-8191	255	
1050.011	1	1	0	0	0.094972	0.15321	0.21266	0.35215	0.07492	0.15127	0.52519	0.24193	0.065911	0.12158	0.013018	0.088129	0.23193	0.27392	0.12831	0.11775	-2.6125	-2.1021	-2.5021	-2.7333	-2.2104	-2.8229	-2.3833	-2.2708	-2.8521	-2.3875	-2.6979	-2.775	-2.2167	-2.7604	-2.3937	-2.2833	108.233	275.609	212.446	398.081	105.286	178.169	361.835	343.661	123.753	123.199	164.489	327.134	319.008	219.603	152.960	358.376	0.00019558	3.3594e-05	2.7167e-05	1083.7	6.1229e-06	5.131e-06	1188.2	225.23	1.723e-06	4.0455e-06	285.91	81.171	65.835	18.706	2.1767e-06	26.568	0.00019309	0.00021397	5.4115e-05	1034.1	2.1288e-06	2.3387e-06	1131.3	215.93	2.1693e-06	2.347e-06	270.96	78.09	60.598	18.761	2.1133e-06	25.832	197.487	233.684	193.596	62.829	186.108	258.229	62.995	70.389	198.639	117.625	69.949	76.859	81.163	83.975	343.071	83.638	-8191	255	
1050.107	1	1	0	0	0.19348	0.37334	0.20302	0.30596	0.067359	0.086501	0.13087	0.12879	0.068581	0.09792	0.42292	0.24153	0.34411	0.3009	0.22029	0.15431	-2.3542	-2.0896	-2.4521	-2.9417	-2.1312	-2.8125	-2.7	-2.1083	-2.8458	-2.2	-2.3771	-2.6792	-2.1396	-2.7792	-2.6562	-2.1521	291.702	408.437	219.962	350.059	301.223	149.126	323.790	297.884	341.501	139.390	205.443	248.896	396.394	132.347	241.227	143.365	0.00024935	0.00027576	2.4855e-05	1088.5	4.9592e-06	3.2218e-06	1189.1	225.26	1.6698e-06	3.2507e-07	287.61	81.488	64.984	18.872	2.4712e-06	26.692	0.00020729	0.00020996	5.3312e-05	1035.1	2.306e-06	2.2802e-06	1131.8	216.58	2.3289e-06	2.2916e-06	270.7	78.241	60.961	18.752	2.0895e-06	25.881	191.683	198.039	169.952	62.880	216.201	195.637	62.850	70.245	247.043	176.249	69.909	77.303	80.254	83.380	226.863	83.349	-8191	255	
1050.204	1	1	0	0	0.18165	0.096001	0.43358	0.17758	0.04371	0.10101	0.18799	0.17435	0.24007	0.096297	0.039591	0.091761	0.28566	0.29859	0.12443	0.11249	-2.2646	-2.225	-2.3187	-3.0396	-2.1167	-2.6542	-2.9292	-2.3854	-2.7479	-2.4417	-2.3688	-3.1083	-2.0917	-2.6104	-2.7	-2.1	412.051	336.937	203.253	337.714	315.698	137.607	314.845	70.147	405.958	227.987	358.255	344.920	310.386	384.752	337.433	355.669	0.00022587	0.00025098	7.3726e-05	1084.3	4.3051e-06	1.5283e-06	1186.3	224.26	2.5063e-07	1.2533e-06	288.26	81.516	65.003	18.886	3.0947e-06	26.675	0.00021254	0.00020027	5.1548e-05	1035.2	2.3415e-06	2.1367e-06	1130.2	216.24	2.3269e-06	2.1245e-06	270.23	78.368	61.052	18.657	2.0131e-06	25.938	197.803	118.141	113.709	62.590	281.299	121.138	63.073	70.394	261.497	81.486	69.793	77.626	80.515	83.502	194.577	83.524	-8191	255	
1050.324	1	1	0	0	0.3028	0.10409	0.23675	0.34528	0.161	0.11337	0.1259	0.13261	0.33716	0.24834	0.07058	0.11937	0.26732	0.14441	0.077856	0.08796	-2.5542	-2.4458	-2.2333	-2.9625	-2.1937	-2.4875	-2.875	-2.2875	-2.5146	-2.5146	-2.175	-2.8625	-2.2583	-2.3708	-2.7	-2.1562	236.635	345.552	155.668	389.957	121.127	117.877	315.871	85.926	70.837	90.480	390.434	394.012	73.291	59.381	325.063	375.976	0.00029653	0.00026425	6.8813e-05	1086.9	2.8849e-06	2.5672e-06	1186.3	225.38	4.9572e-06	1.3979e-06	287.11	81.987	65.188	18.762	2.5561e-06	26.442	0.00021098	0.00019213	5.0446e-05	1035.4	2.2884e-06	2.0636e-06	1130.2	217.4	2.2271e-06	2.0709e-06	270.25	78.674	60.687	18.567	1.992e-06	26.04	197.092	224.547	142.044	62.549	235.927	262.934	63.161	70.664	266.225	252.803	69.928	76.797	81.036	83.802	254.669	83.609	-8191	255	
1050.420	1	1	0	0	0.18339	0.11414	0.052016	0.22391	0.081998	0.21215	0.19397	0.085693	0.26066	0.23058	0.20654	0.22431	0.121	0.15193	0.065113	0.23676	-2.2708	-2.6771	-2.1583	-2.9396	-2.3833	-2.4896	-2.9437	-2.1604	-2.6646	-2.55	-2.1458	-2.8896	-2.1896	-2.3083	-2.9042	-2.2021	224.999	391.322	99.710	404.544	175.118	408.235	207.618	79.100	186.603	137.750	359.003	400.088	381.968	319.542	216.782	378.839	0.00024145	0.00019468	9.6092e-05	1080.8	1.3435e-06	3.2352e-06	1184.2	225.36	1.0518e-06	2.2637e-06	286.17	80.636	65.585	18.838	6.8898e-06	26.662	0.00020055	0.00018716	5.0238e-05	1035.9	2.2026e-06	2.0263e-06	1130	217.3	2.1486e-06	2.024e-06	269.94	78.891	60.208	18.592	2.0784e-06	26.197	185.966	135.569	185.890	62.714	234.689	190.688	62.941	70.130	73.001	347.720	69.988	76.863	80.545	83.999	209.246	83.447	-8191	255	
1050.516	1	1	0	0	0.14797	0.053933	0.099156	0.21123	0.077025	0.048322	0.23588	0.16387	0.22614	0.098399	0.046983	0.19202	0.060442	0.11841	0.24162	0.28838	-2.2396	-2.5542	-1.9646	-3.0875	-2.4479	-2.1875	-2.9854	-2.1542	-2.4875	-2.7021	-1.9958	-2.7833	-2.5729	-2.0521	-2.7167	-2.1771	175.020	291.587	198.840	296.050	236.398	386.411	353.796	117.707	219.370	64.038	234.922	337.087	171.381	343.270	324.278	149.171	0.00018394	0.00037103	9.9825e-05	1091.8	1.2512e-06	4.603e-06	1186.9	224.9	1.7713e-06	2.3026e-06	287.98	81.029	64.994	18.925	2.7113e-06	26.579	0.00019362	0.00018209	5.3213e-05	1039	2.11e-06	1.9649e-06	1133.5	217.65	2.1109e-06	1.9955e-06	271.74	78.894	59.805	18.546	2.2243e-06	26.107	225.645	116.215	188.248	62.717	208.589	261.705	62.879	70.575	294.331	150.218	69.834	76.843	80.674	84.111	228.960	83.681	-8191	255	
1050.613	1	1	0	0	0.12047	0.09366	0.061773	0.069899	0.082143	0.071949	0.18134	0.19	0.30812	0.10209	0.23511	0.21931	0.29915	0.066016	0.087478	0.31077	-2.1292	-2.7458	-1.8979	-2.8187	-2.4958	-2.3625	-2.8146	-2.4625	-2.3625	-2.9313	-1.9729	-2.725	-2.3958	-2.2188	-3.1167	-2.2271	129.803	299.113	268.775	172.037	263.345	83.356	295.129	370.605	112.223	150.554	350.718	69.535	63.362	135.771	225.140	325.392	0.00027709	0.00011663	5.2558e-05	1085.4	2.2178e-06	1.6594e-06	1180.1	225.09	8.4891e-07	4.526e-07	286.49	81.087	65.467	18.708	3.1638e-06	26.519	0.00018821	0.00018184	5.7342e-05	1036.8	2.0629e-06	1.9664e-06	1132.1	217.01	2.027e-06	1.9739e-06	272.16	78.449	59.791	18.486	2.2974e-06	25.955	186.726	357.571	208.677	62.792	409.484	233.937	63.035	70.535	254.210	412.417	69.959	77.159	80.888	83.603	220.950	83.475	-8191	255	
1050.707	1	1	0	0	0.13056	0.045927	0.27479	0.17139	0.1016	0.30185	0.14	0.25676	0.19867	0.17186	0.11695	0.065502	0.17858	0.16262	0.23276	0.076348	-1.85	-2.875	-2.1604	-2.8187	-2.7458	-2.1375	-2.9375	-2.6354	-2.3063	-2.6604	-2.025	-2.3792	-2.5312	-2.2083	-2.8417	-2.4396	205.971	174.516	102.799	102.578	394.747	287.481	299.897	365.579	203.247	162.645	278.994	130.815	96.100	109.311	206.217	113.450	0.00027468	0.00057859	0.00010911	1086.3	4.3423e-07	4.4771e-06	1187.9	224.59	2.0483e-06	5.3333e-06	286.72	80.515	64.922	18.84	2.7961e-06	26.721	0.00018462	0.00018581	5.8896e-05	1035.7	2.0063e-06	2.0592e-06	1134.6	216.28	1.9756e-06	2.0879e-06	272.34	78.171	58.972	18.596	2.2943e-06	25.912	185.842	93.020	360.325	62.735	62.330	196.197	63.017	70.686	326.320	172.539	70.131	76.885	81.366	83.614	76.812	83.856	-8191	255	
1050.803	1	1	0	0	0.33369	0.13553	0.27409	0.24538	0.23455	0.18294	0.23437	0.18993	0.1653	0.24535	0.27936	0.11127	0.2444	0.17425	0.11006	0.14956	-1.7271	-2.8458	-2.2083	-2.6271	-2.7896	-2.0833	-2.8917	-2.5917	-2.1688	-2.9333	-2.2479	-2.3917	-2.7687	-2.1104	-2.7271	-2.6063	302.550	339.530	376.004	91.838	314.689	267.449	387.546	61.728	370.298	279.545	376.879	378.799	306.563	170.431	351.476	197.529	0.00022292	0.00016619	5.2773e-05	1086.2	1.005e-06	3.2012e-06	1188.6	224.4	1.9485e-06	5.2113e-06	285.16	81.168	64.857	18.823	1.9259e-06	26.404	0.00017929	0.00019417	5.7669e-05	1034.6	1.9622e-06	2.1794e-06	1133.2	215.87	1.9238e-06	2.2232e-06	270.76	78.031	58.809	18.684	2.1922e-06	25.824	190.630	411.194	91.459	62.510	244.291	239.116	63.057	70.547	61.289	200.101	70.074	76.628	81.608	83.847	223.371	83.587	-8191	255	
1050.924	1	1	0	0	0.2174	0.059376	0.14555	0.26538	0.12002	0.092719	0.26569	0.32128	0.14367	0.13335	0.14967	0.080681	0.075792	0.38186	0.1705	0.08913	-1.5312	-2.8458	-2.4333	-2.4542	-2.7146	-2.0396	-2.8312	-2.6229	-2.2708	-2.8167	-2.5292	-2.3438	-2.8521	-2.0354	-2.6417	-2.8375	318.106	332.964	133.872	318.346	353.574	153.834	333.602	307.328	311.757	407.278	205.942	133.458	166.566	395.136	349.645	77.706	0.00024746	0.00049794	7.6976e-05	1082.7	1.7417e-06	2.0458e-06	1180.8	225.42	6.2913e-06	2.5951e-06	287.74	81.125	65.154	18.801	3.073e-06	26.717	0.00017872	0.000204	5.5377e-05	1032.1	1.9629e-06	2.2477e-06	1130.6	215.74	1.9895e-06	2.2672e-06	271.01	77.955	59.431	18.772	2.1023e-06	25.777	190.001	101.261	390.617	62.756	221.528	124.333	62.994	70.646	204.687	194.978	69.800	76.843	81.147	84.075	155.880	83.568	-8191	255	
1051.020	1	1	0	0	0.33456	0.093066	0.22041	0.19249	0.11982	0.061202	0.21258	0.27872	0.083669	0.14489	0.11252	0.30953	0.043863	0.15526	0.17802	0.12232	-1.6083	-2.8125	-2.3125	-2.175	-2.8792	-2.3854	-2.7479	-2.7646	-2.1646	-2.6188	-2.5375	-2.3521	-2.9062	-2.3354	-2.5125	-2.6417	191.345	151.138	98.516	59.070	310.430	188.919	68.776	364.631	366.445	336.856	331.454	104.996	378.465	401.985	320.132	99.280	0.00024092	0.00012767	5.9196e-05	1088	1.4978e-06	4.032e-06	1188.3	224.56	2.7459e-06	1.0684e-06	286.51	81.138	65.646	18.9	1.3288e-06	26.131	0.00018924	0.0002084	5.3422e-05	1034.2	2.0923e-06	2.2945e-06	1131.1	215.59	2.1175e-06	2.2611e-06	270.91	77.82	59.966	18.742	2.0467e-06	25.611	221.550	65.490	89.282	62.696	189.410	232.968	63.007	70.539	257.038	392.734	70.003	77.209	81.251	83.649	250.029	83.673	-8191	255	
1051.114	1	1	0	0	0.20145	0.040663	0.23644	0.053961	0.32241	0.15606	0.15472	0.13302	0.075241	0.0456	0.35342	0.091385	0.082195	0.15528	0.1272	0.19469	-1.6646	-2.7562	-2.675	-2.2708	-2.8771	-2.3187	-2.6104	-2.7542	-1.9771	-2.7375	-2.7042	-2.2042	-2.8688	-2.3979	-2.3563	-2.8812	189.902	371.941	209.954	284.497	67.989	56.781	378.284	295.414	140.281	296.779	71.166	155.167	197.837	332.067	79.098	370.926	0.00026101	0.00048973	2.6385e-05	1083.3	1.5743e-06	3.3459e-06	1181.7	226.6	3.8048e-06	2.7765e-06	286.07	81.334	65.459	18.859	1.2959e-06	26.582	0.00019931	0.0002004	5.1343e-05	1029.9	2.1815e-06	2.1764e-06	1128.3	215.58	2.2213e-06	2.1398e-06	269.88	77.904	60.613	18.59	1.9752e-06	25.723	190.173	388.594	87.007	62.373	245.362	152.855	62.928	70.422	338.576	251.885	69.785	77.271	80.492	83.660	175.631	83.864	-8191	255	
1051.211	1	1	0	0	0.062377	0.25951	0.17044	0.32502	0.075287	0.15919	0.27549	0.16586	0.10646	0.23378	0.16934	0.19249	0.29565	0.025492	0.086053	0.28913	-1.7313	-2.5667	-2.5604	-2.3563	-2.7938	-2.3708	-2.375	-2.7104	-2.2042	-2.6083	-2.7708	-2.1021	-2.6917	-2.3354	-2.1729	-2.975	131.871	259.943	68.494	375.909	110.804	185.006	386.633	111.363	291.622	144.107	295.207	268.875	128.546	184.367	407.645	96.503	0.00021616	6.0293e-05	8.7481e-05	1080.3	5.1183e-06	3.0673e-06	1182.4	224.92	1.4105e-06	3.2439e-06	286.68	81.305	66.221	18.769	1.2654e-06	26.445	0.00020554	0.00019275	5.0067e-05	1031.3	2.2292e-06	2.0735e-06	1128.3	215.45	2.2116e-06	2.0233e-06	268.6	77.93	60.722	18.519	1.889e-06	25.804	194.042	407.616	103.293	62.483	259.963	146.128	62.742	70.600	333.765	100.732	70.065	77.284	81.046	83.964	267.295	83.734	-8191	255	
1051.307	1	1	0	0	0.13746	0.038433	0.30928	0.38914	0.28568	0.20125	0.15086	0.18138	0.20874	0.21892	0.39184	0.25202	0.030068	0.21352	0.11899	0.0726	-1.7646	-2.5854	-2.6854	-2.2479	-2.6625	-2.4208	-2.4417	-2.8812	-2.1792	-2.4646	-2.7646	-2.1458	-2.6646	-2.6021	-2.1854	-2.8667	224.885	392.362	317.181	60.994	204.863	181.333	353.857	369.117	303.142	311.723	323.592	361.990	204.686	298.759	256.685	336.549	0.00020476	5.6551e-05	4.066e-05	1080.4	3.7621e-06	2.0702e-06	1185.2	223.23	2.2385e-06	1.333e-06	286.07	80.666	63.765	18.861	1.6133e-06	26.484	0.00020186	0.00018271	4.7829e-05	1032.8	2.1879e-06	1.9768e-06	1127.7	216.17	2.1726e-06	1.9935e-06	268.82	78.093	59.652	18.535	1.8928e-06	25.956	194.412	341.386	390.920	62.556	175.296	155.713	62.729	70.577	215.148	263.420	70.217	76.933	80.710	84.038	189.982	83.548	-8191	255	
1051.403	1	1	0	0	0.19552	0.17847	0.047792	0.092003	0.18549	0.26576	0.18318	0.11023	0.10982	0.098865	0.16276	0.2072	0.081933	0.13792	0.32861	0.075969	-1.8833	-2.2146	-2.9583	-2.0938	-2.7104	-2.6354	-2.1	-2.8521	-2.2188	-2.3917	-2.6937	-2.0333	-2.6583	-2.6583	-2.0854	-2.8896	183.371	182.564	411.348	157.041	99.574	100.682	329.666	351.513	92.497	57.766	377.029	282.419	207.512	189.690	263.699	291.109	0.0001369	0.00018261	7.8522e-05	1084.7	3.2972e-06	3.1009e-06	1183.4	224.39	3.2178e-07	2.3919e-06	286.44	81.107	65.936	18.876	1.9961e-06	26.604	0.00019463	0.00017494	4.7875e-05	1034.2	2.075e-06	1.9449e-06	1126.5	216.36	2.0951e-06	1.936e-06	268.87	78.454	59.593	18.471	1.9676e-06	25.953	168.905	162.124	106.560	62.427	283.831	116.759	63.056	70.828	227.211	286.011	69.727	76.618	81.060	84.060	176.929	83.759	-8191	255	
1051.499	1	1	0	0	0.17164	0.035171	0.19859	0.37226	0.13776	0.23321	0.094598	0.087311	0.30198	0.11685	0.12282	0.054737	0.0050279	0.13259	0.066621	0.078885	-2.0062	-2.175	-2.8375	-2.1729	-2.4938	-2.8229	-2.1688	-2.7146	-2.4313	-2.3896	-2.9562	-2.1896	-2.4604	-2.9604	-1.9792	-2.8	216.008	257.119	60.436	387.735	334.676	317.804	217.014	204.771	389.863	228.978	121.817	401.995	179.987	105.616	386.037	177.339	0.00021251	0.00030676	4.3702e-05	1083	2.7128e-06	3.1533e-06	1186.2	225.43	5.8752e-06	3.319e-06	286.65	80.861	64.697	18.845	4.7705e-06	26.768	0.00018673	0.00017174	5.067e-05	1033.6	1.9819e-06	1.8922e-06	1126.9	216.9	2.004e-06	1.8703e-06	269.85	78.296	58.953	18.411	2.0986e-06	25.962	192.510	72.036	75.190	62.780	66.977	249.753	62.733	70.324	170.117	235.035	70.044	77.034	81.101	83.845	178.194	83.588	-8191	255	
1051.595	1	1	0	0	0.086439	0.36974	0.091572	0.1311	0.12106	0.066675	0.26644	0.20886	0.12014	0.13065	0.16422	0.21157	0.18696	0.060499	0.2144	0.32647	-1.9979	-2.0792	-2.7271	-2.2208	-2.4521	-2.7708	-2.3146	-2.7271	-2.4562	-2.4417	-2.9542	-2.2062	-2.4417	-2.8375	-2.2979	-2.425	225.641	65.834	229.837	271.904	150.575	378.347	259.728	395.989	141.385	333.385	183.559	82.267	202.140	58.617	356.882	306.985	0.00019471	0.00019994	4.4912e-05	1077.5	1.9261e-06	2.7113e-06	1180.2	224.77	1.6316e-06	3.1599e-06	286.67	81.038	65.467	18.911	2.4796e-06	26.383	0.00018336	0.00016821	5.366e-05	1031.2	1.9282e-06	1.8654e-06	1127.2	215.92	1.9212e-06	1.877e-06	270.16	78.175	58.591	18.419	2.1684e-06	25.753	182.409	162.861	172.966	62.763	240.700	124.899	62.796	70.646	86.385	184.192	70.091	77.123	81.433	83.977	104.813	83.231	-8191	255	
1051.716	1	1	0	0	0.11	0.16098	0.33238	0.22633	0.09133	0.10297	0.26182	0.22486	0.086386	0.0436	0.11765	0.22698	0.40165	0.21913	0.060966	0.041519	-2.0146	-2.1	-2.9604	-2.5458	-2.2604	-2.9417	-2.1021	-2.5896	-2.6479	-1.9562	-2.8312	-2.5417	-2.3667	-2.8458	-2.0062	-2.6479	268.914	231.713	365.755	76.477	65.129	152.149	356.216	325.023	323.053	364.027	383.649	118.335	307.205	399.605	321.704	80.445	0.00018976	0.00039777	3.2454e-05	1080.4	1.7781e-06	5.3736e-06	1183	224.16	2.2863e-06	2.716e-06	285.77	80.82	65.349	18.799	1.9964e-06	26.56	0.00017463	0.00017424	5.5194e-05	1029.2	1.8713e-06	1.8973e-06	1127.7	214.9	1.8668e-06	1.9509e-06	270.3	77.535	58.05	18.462	2.1575e-06	25.647	192.781	220.730	132.286	62.589	249.211	234.149	62.902	70.564	136.311	223.967	69.830	76.992	80.143	83.719	174.969	83.778	-8191	255	
1051.812	1	1	0	0	0.33634	0.1459	0.13307	0.25132	0.075572	0.025632	0.36454	0.17358	0.034355	0.20246	0.20884	0.30039	0.30207	0.10598	0.22486	0.26225	-2.3667	-2.0438	-2.7542	-2.7146	-2.2396	-2.725	-2.4583	-2.5187	-2.8333	-2.1417	-2.6625	-2.7167	-2.275	-2.8688	-2.0125	-2.4667	386.070	138.506	365.103	389.439	251.807	85.241	348.658	133.806	371.730	69.170	178.786	340.722	96.083	345.593	330.809	319.258	0.0001594	0.00046372	3.1655e-05	1082.8	2.5054e-06	3.1436e-06	1184.4	224.01	1.8657e-06	4.2142e-06	284.98	81.083	65.645	18.95	1.04e-06	26.137	0.00016921	0.00018296	5.3968e-05	1029.3	1.8193e-06	2.02e-06	1127.2	214.69	1.796e-06	2.0277e-06	269.09	77.631	58.202	18.587	2.0107e-06	25.554	187.037	154.971	158.204	62.585	264.716	121.183	62.761	70.397	200.021	244.851	70.464	76.803	81.018	84.215	373.245	83.408	-8191	255	
1051.884	1	1	0	0	0.23234	0.17954	0.1582	0.082749	0.1969	0.1036	0.33223	0.17854	0.14191	0.13069	0.11862	0.078258	0.01545	0.027897	0.24578	0.30011	-2.4229	-2.1625	-2.6792	-2.7438	-2.1083	-2.8083	-2.5167	-2.4167	-2.8937	-2.35	-2.6333	-2.7125	-2.2125	-2.9521	-2.4708	-2.3438	386.247	392.591	299.751	273.214	93.118	124.630	391.870	313.156	74.521	365.193	333.602	403.020	326.276	121.320	177.269	289.635	0.00022507	0.00014124	0.00016184	1084.2	2.8907e-06	4.0468e-06	1181.8	224.23	4.6626e-06	4.384e-06	285.55	80.336	65.019	18.767	3.146e-06	26.505	0.00016549	0.0001893	5.0954e-05	1027.5	1.7775e-06	2.0844e-06	1124	213.9	1.8314e-06	2.1013e-06	268.36	77.139	58.209	18.554	1.919e-06	25.499	201.033	159.197	371.058	62.735	173.358	152.637	62.936	70.517	204.308	185.192	69.608	77.035	81.237	83.984	214.402	83.361	-8191	255	
1052.004	1	1	0	0	0.15591	0.17567	0.1445	0.24282	0.3201	0.29315	0.10465	0.10761	0.23511	0.1232	0.16017	0.16222	0.25543	0.086769	0.19638	0.26775	-2.4958	-1.9875	-2.5438	-2.8875	-2.1875	-2.8896	-2.5167	-2.2438	-2.8833	-1.9875	-2.7854	-2.7125	-2.0729	-2.7188	-2.5458	-2.2854	116.001	189.112	377.212	64.168	355.096	288.367	397.244	332.677	373.241	154.415	238.134	108.946	67.049	164.801	392.236	304.439	0.00030938	0.00041357	8.8513e-05	1079.8	3.6864e-06	4.7092e-06	1180.3	222.62	2.3852e-06	4.9995e-06	283.47	80.377	65.836	18.744	2.5881e-06	26.37	0.00017099	0.00018831	4.7634e-05	1024.6	1.8636e-06	2.0422e-06	1121.9	213.22	1.9077e-06	2.0402e-06	267.25	77.012	58.945	18.461	1.8403e-06	25.324	184.597	125.133	58.643	62.903	225.556	215.508	62.956	70.481	352.618	167.096	69.739	77.171	81.214	84.238	104.841	83.995	-8191	255	
1052.100	1	1	0	0	0.089174	0.15177	0.45434	0.080404	0.11167	0.19039	0.14268	0.19595	0.049207	0.10475	0.044633	0.34585	0.32132	0.044323	0.13029	0.24529	-2.6375	-2.375	-2.2875	-2.9271	-2.1208	-2.7667	-2.6396	-2.2875	-2.6417	-2.3021	-2.6312	-2.8125	-2.275	-2.7229	-2.6937	-2.2417	392.168	302.071	230.374	354.291	359.466	115.248	284.977	315.718	259.368	334.114	143.945	344.794	364.733	113.328	329.088	290.308	0.00020072	0.000183	5.042e-05	1073.7	1.4235e-06	1.2247e-06	1176.4	223.71	3.6897e-06	1.1955e-06	283.42	80.619	65.263	18.7	1.3045e-06	26.415	0.00017662	0.00017949	4.5334e-05	1022.8	1.918e-06	1.9217e-06	1118.9	212.95	1.9559e-06	1.9026e-06	266.36	76.949	58.8	18.337	1.7348e-06	25.413	202.540	128.303	70.663	62.739	239.087	317.316	62.908	70.649	248.879	354.025	70.082	76.936	80.997	83.762	159.012	83.576	-8191	255	
1052.196	1	1	0	0	0.19272	0.051049	0.18048	0.2539	0.37198	0.14824	0.2322	0.10791	0.14693	0.18593	0.13391	0.010449	0.20061	0.34249	0.11372	0.30268	-2.4521	-2.2229	-2.1208	-2.8604	-2.1937	-2.3792	-2.8667	-2.1937	-2.8333	-2.4604	-2.2083	-2.9021	-2.0208	-2.3042	-2.7313	-2.1604	83.227	102.957	267.613	340.776	109.027	257.900	319.567	326.839	308.722	375.094	112.969	130.047	103.522	87.085	96.675	332.236	0.00020069	0.00049954	6.847e-05	1077.7	3.4357e-06	8.7444e-07	1179.4	221.56	2.7275e-06	3.1416e-06	283.63	80.82	64.311	18.751	2.4031e-06	26.26	0.00018148	0.00016971	4.3874e-05	1023.5	2.001e-06	1.8463e-06	1119.8	212.6	2.0044e-06	1.842e-06	265.98	77.176	58.934	18.299	1.7106e-06	25.429	195.483	119.775	139.355	62.810	257.388	257.264	62.960	70.569	110.000	222.019	69.830	77.125	81.178	84.077	374.474	83.613	-8191	255	
1052.315	1	1	0	0	0.21563	0.15877	0.058554	0.16211	0.15478	0.15176	0.11948	0.14824	0.11551	0.1312	0.079421	0.053654	0.064486	0.16923	0.26259	0.089629	-2.3958	-2.3792	-2.2	-3.1708	-2.2021	-2.4625	-2.9271	-2.2042	-2.6229	-2.5792	-2.2583	-2.8312	-2.0333	-2.4062	-2.8917	-2.1937	80.798	199.697	174.011	341.232	287.190	207.749	352.668	77.944	305.436	212.211	393.349	150.219	136.211	383.867	102.768	382.293	0.00019559	0.00047677	2.8924e-05	1079.8	4.4276e-06	2.9899e-06	1168.9	222.86	2.7513e-06	3.7828e-07	283.98	80.322	63.636	18.635	4.1086e-06	26.316	0.00018114	0.00016538	4.3369e-05	1024.5	1.9976e-06	1.8028e-06	1115.7	213.79	2.0055e-06	1.8599e-06	265.65	77.531	58.938	18.282	1.7919e-06	25.634	196.010	173.504	207.142	62.701	265.365	115.091	63.243	70.325	354.514	312.465	69.989	76.820	80.814	84.085	193.514	83.585	-8191	255	
1052.412	1	1	0	0	0.20407	0.086589	0.3311	0.13932	0.23738	0.25944	0.3688	0.22356	0.079023	0.051914	0.19265	0.17053	0.12224	0.076932	0.052773	0.21911	-2.5062	-2.5812	-2.1708	-3.0146	-2.1937	-2.4271	-3.0396	-2.2125	-2.7042	-2.7375	-2.1542	-3.0208	-2.2646	-2.2938	-2.9042	-2.1688	386.787	270.990	391.293	374.979	231.130	68.723	339.649	411.370	118.100	201.919	124.760	353.256	262.803	372.690	56.258	357.243	0.00014725	0.00031785	7.803e-05	1073.5	3.1861e-06	1.7269e-06	1179.6	220.71	2.1351e-06	2.5227e-06	285.27	80.275	64.407	18.74	3.078e-06	26.101	0.00018133	0.00016539	4.4907e-05	1024.2	1.9348e-06	1.772e-06	1117.2	213.04	1.8649e-06	1.7458e-06	266.29	77.536	57.89	18.185	1.753e-06	25.531	182.278	371.672	212.734	62.738	70.250	178.410	62.962	70.537	204.707	290.983	69.906	77.147	80.838	83.843	221.125	83.942	-8191	255	
1052.508	1	1	0	0	0.10258	0.057265	0.19616	0.39438	0.24055	0.19373	0.13261	0.16136	0.034767	0.24506	0.047028	0.19399	0.21255	0.083607	0.15795	0.11124	-2.3208	-2.4458	-2.0542	-3.0625	-2.5125	-2.2292	-2.9854	-2.0833	-2.7438	-2.7146	-2.0979	-2.7	-2.5312	-2.1625	-2.7708	-2.4271	338.238	223.171	321.418	382.634	186.850	173.983	350.064	329.145	400.016	270.234	396.497	381.758	93.807	144.490	63.582	111.623	0.00018333	0.0001504	7.5408e-05	1073.1	2.1249e-06	2.1537e-06	1176.4	222.42	2.5904e-06	1.501e-06	282.39	80.485	65.21	18.522	5.9378e-06	26.1	0.00016331	0.00015359	4.3888e-05	1022.4	1.7321e-06	1.6074e-06	1115	212.88	1.6842e-06	1.5697e-06	264.63	77.043	56.912	18.033	1.7446e-06	25.284	173.143	169.753	139.845	62.840	269.465	191.302	63.032	70.632	224.097	232.185	70.021	77.023	81.368	83.793	225.569	83.284	-8191	255	
1052.604	1	1	0	0	0.16031	0.22055	0.19468	0.30711	0.19707	0.10655	0.14221	0.10342	0.1018	0.15772	0.11367	0.19535	0.18761	0.23426	0.075601	0.21027	-1.9375	-2.5021	-2.0146	-2.6979	-2.3208	-2.1875	-3.1521	-2.3667	-2.1625	-2.7646	-2.3063	-2.6292	-2.5604	-2.2146	-2.7125	-2.2979	123.471	114.191	65.502	408.309	210.860	257.453	310.081	233.575	367.795	167.744	139.699	323.699	159.525	285.018	258.241	330.648	0.00021524	0.00029446	0.00011131	1070.7	3.0686e-06	2.9034e-06	1170.8	222.15	6.4998e-07	1.1385e-06	284.96	81.049	63.258	18.617	3.3524e-06	26.488	0.00015041	0.00014385	4.5642e-05	1018.5	1.6563e-06	1.59e-06	1115	212.07	1.6606e-06	1.6469e-06	266.56	77.076	56.858	18.108	1.9101e-06	25.423	188.985	151.733	110.200	62.841	253.604	258.380	62.984	70.676	345.906	255.770	69.747	76.912	80.375	83.926	124.004	84.042	-8191	255	
1052.700	1	1	0	0	0.29568	0.12623	0.091221	0.1702	0.1382	0.1374	0.40309	0.34247	0.16562	0.12504	0.18244	0.096419	0.29425	0.20619	0.22714	0.15386	-1.8062	-2.6562	-2.1813	-2.6708	-2.45	-2.15	-2.9958	-2.4083	-2.3312	-3.0583	-2.1958	-2.6208	-2.7625	-2.0875	-2.7646	-2.425	335.660	399.266	399.011	401.491	52.881	156.011	355.239	336.711	243.043	226.886	155.856	292.343	126.673	380.684	301.723	340.174	0.00017421	0.0002644	0.00014914	1067.4	3.3167e-06	4.6941e-06	1171.3	221.68	2.554e-07	3.1865e-06	281.71	79.919	64.281	18.701	1.2029e-06	26.152	0.00015301	0.00015303	4.8976e-05	1017.8	1.6972e-06	1.716e-06	1116.3	211.82	1.6446e-06	1.7669e-06	266.42	76.727	57.126	18.21	1.947e-06	25.353	204.069	148.638	95.339	62.815	194.001	232.285	62.915	70.634	142.830	118.498	70.084	76.973	80.843	83.798	83.952	83.809	-8191	255	
1052.796	1	1	0	0	0.16566	0.21111	0.059413	0.19959	0.31683	0.22535	0.18577	0.34805	0.15383	0.17657	0.2921	0.093034	0.30897	0.046011	0.10031	0.14437	-1.8062	-2.8875	-2.0667	-2.4667	-2.8625	-2.2021	-2.8979	-2.4021	-2.2375	-2.9604	-2.4167	-2.25	-2.9771	-2.1188	-2.7438	-2.7479	410.238	402.437	261.768	397.487	263.471	401.540	338.401	272.974	278.627	304.424	389.851	354.294	362.613	92.899	63.576	191.794	0.00021253	0.00035654	5.8065e-05	1074	4.7814e-07	2.1859e-06	1173.1	223.25	6.0348e-07	4.1941e-06	283.3	80.439	63.978	18.503	2.9989e-06	26.08	0.00015413	0.00016639	4.9257e-05	1019	1.6474e-06	1.8316e-06	1116.1	212.38	1.6421e-06	1.9038e-06	266.34	76.636	57.324	18.277	1.9094e-06	25.26	190.001	133.077	260.398	62.864	168.590	224.149	62.918	70.412	173.422	149.128	69.933	76.926	81.133	83.861	145.509	84.265	-8191	255	
1052.892	1	1	0	0	0.21084	0.14468	0.05587	0.089608	0.13447	0.262	0.29672	0.20267	0.16061	0.077747	0.11914	0.098688	0.12369	0.29938	0.050236	0.14385	-1.925	-2.8646	-2.2208	-2.4479	-2.8958	-2.1979	-2.65	-2.6833	-2.1479	-2.85	-2.3312	-2.4667	-3.0729	-2.1937	-2.5917	-2.7292	119.075	109.995	308.845	288.443	110.876	76.813	405.682	384.275	212.014	122.041	69.931	241.938	120.510	372.551	382.849	342.071	0.00025051	0.00035445	6.802e-05	1067.7	4.3668e-06	2.5747e-06	1167.2	222	3.5503e-06	3.6262e-06	283.06	80.507	64.721	18.694	3.4571e-06	26.21	0.00015762	0.00017837	4.8243e-05	1015.8	1.707e-06	1.9898e-06	1113.6	211.47	1.7214e-06	1.9804e-06	265.34	76.547	57.355	18.352	1.8189e-06	25.117	189.992	166.736	56.219	62.671	286.164	205.648	62.952	70.835	212.644	125.302	70.389	77.109	82.014	84.247	349.219	84.130	-8191	255	
1053.013	1	1	0	0	0.37017	0.16802	0.086323	0.087966	0.051053	0.040649	0.11459	0.10127	0.079205	0.21773	0.17087	0.0862	0.22919	0.22557	0.087582	0.18796	-1.5688	-2.6063	-2.4479	-2.2604	-2.7562	-2.2833	-2.7042	-2.7375	-2.0583	-2.7708	-2.6271	-2.1729	-2.9062	-2.1958	-2.4396	-2.8563	64.210	252.441	352.509	374.582	150.662	107.748	270.605	54.595	363.633	206.537	128.296	61.545	347.535	291.537	130.117	84.518	0.0002159	5.3276e-05	4.8232e-05	1071.5	2.1383e-06	9.3961e-07	1170.4	221.67	6.0682e-06	3.8444e-06	282.36	80.459	65.668	18.579	2.7048e-06	26.326	0.00016333	0.00018102	4.5852e-05	1016.6	1.8409e-06	1.9707e-06	1114.4	211.31	1.8508e-06	1.9453e-06	264.85	76.605	58.127	18.269	1.7243e-06	25.18	185.675	93.144	89.958	62.780	221.635	82.105	62.759	70.383	188.850	149.772	70.221	76.924	80.921	84.173	267.255	83.735	-8191	255	
1053.107	1	1	0	0	0.13998	0.073391	0.09082	0.27823	0.0577	0.2313	0.29121	0.0054221	0.11836	0.094389	0.099074	0.15695	0.11174	0.15091	0.087089	0.056324	-1.875	-2.8271	-2.5187	-2.2396	-2.9146	-2.2083	-2.4938	-2.7646	-2.1562	-2.5792	-2.6437	-2.2958	-3.0104	-2.2146	-2.3812	-2.9688	405.995	311.978	314.967	59.240	231.071	123.807	337.632	411.264	106.263	389.287	372.130	406.781	233.058	383.193	243.183	300.003	0.00024122	0.00015944	0.00012039	1070	3.9653e-06	2.2704e-06	1171.7	221.92	2.669e-06	1.7934e-06	284.08	80.208	64.679	18.538	3.007e-06	26.266	0.00016946	0.00016948	4.36e-05	1016.6	1.8684e-06	1.8644e-06	1113.3	211.49	1.9544e-06	1.8867e-06	265.75	76.545	59.139	18.263	1.8076e-06	25.337	200.503	188.698	204.221	62.719	190.305	297.557	62.888	70.633	145.236	72.976	69.972	76.819	81.240	83.894	180.018	83.493	-8191	255	
1053.181	1	1	0	0	0.27772	0.056819	0.093534	0.27249	0.20746	0.20176	0.12162	0.13126	0.22921	0.07493	0.14269	0.029813	0.19455	0.33312	0.028517	0.16095	-1.4792	-2.4562	-2.6625	-2.2083	-2.8937	-2.3792	-2.375	-2.7875	-2.1167	-2.6708	-2.7438	-2.25	-2.9979	-2.2771	-2.1771	-2.8	335.028	252.750	103.495	382.280	287.279	133.605	336.657	358.870	388.707	341.638	382.398	352.455	337.123	278.322	264.739	278.585	0.00018195	0.00036176	6.7641e-05	1066.1	5.9391e-06	2.21e-06	1171.2	222.28	2.7436e-06	7.4999e-07	283.29	80.324	64.552	18.652	1.0072e-06	26.262	0.00019171	0.00017576	4.6005e-05	1017.6	2.1063e-06	1.916e-06	1115.5	212.38	2.0706e-06	1.8641e-06	265.83	76.984	58.8	18.271	1.73e-06	25.417	193.951	119.862	218.755	62.684	193.025	109.951	62.980	70.812	272.342	290.008	70.227	76.924	81.091	83.732	109.882	83.668	-8191	255	
1053.277	1	1	0	0	0.098891	0.26251	0.21672	0.30349	0.17355	0.055447	0.12683	0.062093	0.21586	0.11605	0.17637	0.38102	0.069441	0.26802	0.10531	0.20499	-1.7792	-2.5521	-2.6604	-2.2375	-2.6354	-2.6125	-2.4625	-2.8396	-2.1688	-2.5667	-2.7771	-2.0729	-2.6688	-2.6396	-2.0625	-2.8271	161.953	62.349	192.877	396.703	405.864	347.428	349.182	293.598	305.595	354.524	186.732	116.142	329.948	248.024	113.250	344.565	0.00018181	0.00027156	6.7372e-05	1072	2.0327e-06	4.0923e-06	1173.4	221.06	8.0536e-07	2.699e-06	284.87	80.548	63.983	18.556	4.6228e-06	26.316	0.00018766	0.00016808	4.468e-05	1021.9	2.0462e-06	1.883e-06	1114.6	213.07	2.0453e-06	1.8797e-06	265.72	77.497	58.872	18.315	1.8032e-06	25.634	193.948	167.282	229.074	62.566	280.430	199.344	62.896	70.599	300.122	166.967	70.173	77.053	80.537	83.842	227.299	83.916	-8191	255	
1053.396	1	1	0	0	0.17234	0.24305	0.096372	0.15422	0.077137	0.14842	0.1725	0.19794	0.20315	0.042487	0.23439	0.26249	0.2219	0.1774	0.19883	0.14508	-1.8458	-2.3146	-2.775	-2.2542	-2.7313	-2.4396	-2.2896	-2.9229	-2.0042	-2.4396	-2.875	-2.125	-2.6396	-2.6875	-2.0229	-2.9146	75.685	358.293	262.680	341.875	270.271	119.244	69.361	397.065	190.263	160.776	390.806	75.747	260.480	331.171	99.375	288.073	0.00026552	0.00023622	0.00012374	1078.4	2.5043e-06	2.7975e-06	1172.6	222.13	4.7523e-06	2.5628e-07	284.66	80.614	63.779	18.563	3.9561e-06	26.195	0.00018414	0.00016899	4.6546e-05	1024.4	2.0092e-06	1.8573e-06	1116.8	214.45	1.9918e-06	1.8541e-06	266.18	77.66	58.364	18.255	1.9103e-06	25.653	204.940	201.937	125.761	62.641	225.958	196.268	62.795	70.411	275.483	77.750	70.013	77.046	81.050	83.523	197.439	84.250	-8191	255	
1053.492	1	1	0	0	0.23152	0.096441	0.11542	0.16213	0.19206	0.065547	0.4935	0.10432	0.032667	0.082057	0.055385	0.050763	0.19611	0.20537	0.13316	0.037127	-1.7521	-2.2104	-2.7354	-2.1354	-2.3958	-2.6792	-2.0896	-2.7917	-2.3354	-2.2833	-2.7625	-2.3312	-2.3083	-2.8271	-2.1188	-2.9104	214.051	300.091	411.096	369.071	250.785	77.543	365.236	289.235	94.511	254.459	344.272	259.889	172.155	384.202	272.045	128.413	0.00021269	0.00035497	6.9893e-05	1071.6	2.7216e-06	4.0795e-06	1173.7	223.28	1.3328e-06	1.8538e-06	282.83	80.294	64.312	18.68	2.6227e-06	26.183	0.00017864	0.00016426	4.8444e-05	1022.8	1.9239e-06	1.8172e-06	1117.3	213.88	1.8893e-06	1.7718e-06	266.67	77.591	58.069	18.263	1.9928e-06	25.538	195.311	198.852	111.514	62.879	247.169	325.074	62.960	70.527	292.588	78.141	70.290	76.954	81.118	84.055	304.906	83.474	-8191	255	
1053.588	1	1	0	0	0.16363	0.20215	0.093629	0.11769	0.092145	0.12264	0.20362	0.12639	0.089556	0.081253	0.28958	0.2178	0.20367	0.11846	0.2065	0.024956	-2.1417	-2.1729	-2.8187	-2.1396	-2.3854	-2.8187	-2.3312	-2.8083	-2.7125	-2.1604	-2.8917	-2.175	-2.3479	-2.775	-2.1458	-2.7104	198.385	333.910	367.508	171.107	71.390	337.315	408.071	337.158	342.445	257.252	203.917	250.519	364.987	110.767	76.752	178.014	0.00020841	0.00026862	8.7667e-05	1074.5	3.6969e-06	3.8548e-06	1175.6	223.39	6.3898e-07	1.6539e-06	283.36	80.962	65.014	18.755	1.9045e-06	26.501	0.00017088	0.00016098	5.1111e-05	1023.1	1.8425e-06	1.7858e-06	1119.9	213.58	1.8467e-06	1.795e-06	267.86	77.67	57.824	18.289	2.1119e-06	25.556	181.298	88.034	195.780	62.944	247.372	217.506	62.930	70.336	280.660	341.568	69.693	76.964	81.095	84.066	374.309	83.515	-8191	255	
1053.684	1	1	0	0	0.10666	0.04139	0.02824	0.30472	0.21677	0.15354	0.32799	0.051658	0.16065	0.21043	0.13317	0.15016	0.087896	0.16799	0.13121	0.11932	-2.325	-2.1083	-2.7833	-2.5229	-2.3333	-2.8542	-2.2	-2.5563	-2.7188	-1.9833	-2.8958	-2.3979	-2.1917	-2.8812	-2.0229	-2.5292	249.113	303.316	62.130	78.855	354.546	124.207	385.372	200.796	221.078	383.958	395.348	410.117	402.003	100.101	377.345	292.821	0.00017008	0.00065431	8.6618e-05	1072.1	2.7291e-06	4.2157e-06	1175.2	221.91	3.1873e-06	1.2959e-06	282.51	80.394	64.91	18.638	1.7898e-06	26.254	0.00016648	0.00016797	5.1947e-05	1021.1	1.7778e-06	1.8333e-06	1119.2	212.43	1.7261e-06	1.8237e-06	266.97	77	57.161	18.216	1.9596e-06	25.323	189.557	135.023	113.934	62.682	210.567	225.990	63.100	70.588	167.477	395.288	70.132	77.288	81.629	83.727	196.134	83.397	-8191	255	
1053.805	1	1	0	0	0.28677	0.23417	0.17661	0.25049	0.07481	0.091778	0.207	0.057154	0.11967	0.1483	0.18654	0.11956	0.28872	0.095209	0.069893	0.24651	-2.3854	-2.1604	-2.7	-2.5187	-2.2646	-2.7792	-2.3833	-2.2167	-2.5375	-1.9708	-2.6729	-2.5646	-2.1583	-2.9083	-2.3771	-2.2188	124.999	85.420	317.728	350.477	401.009	107.871	362.132	112.121	225.279	142.995	306.515	300.459	223.949	79.940	235.254	393.252	0.0001804	0.00058101	4.4934e-05	1075.6	3.1748e-06	6.4766e-06	1171.6	222.16	2.7965e-06	5.699e-06	284.94	80.499	63.875	18.698	7.8268e-07	26.354	0.00015303	0.00016509	4.7715e-05	1020	1.6381e-06	1.852e-06	1116.9	212.1	1.6493e-06	1.8736e-06	266.3	76.743	56.811	18.299	1.8572e-06	25.276	197.515	113.724	95.183	62.747	236.861	228.766	62.940	70.340	209.521	182.294	69.917	77.166	81.096	83.860	357.551	83.418	-8191	255	
1053.876	1	1	0	0	0.15346	0.13511	0.065335	0.22491	0.17865	0.19329	0.14736	0.044776	0.15585	0.17919	0.19343	0.25945	0.2171	0.32416	0.12907	0.11913	-2.3	-1.9688	-2.5208	-2.7542	-2.1333	-2.7	-2.4	-2.4813	-2.9042	-2.0833	-2.7771	-2.6833	-2.0271	-2.8542	-2.4792	-2.2271	262.336	201.444	210.658	61.407	147.541	210.500	363.850	113.560	56.786	127.755	73.000	113.540	211.378	67.615	272.735	280.805	0.00023913	0.0002792	6.8161e-05	1073.2	1.0831e-06	2.1953e-06	1169.9	223.83	5.6208e-06	2.941e-06	283.28	80.354	65.142	18.616	2.2654e-06	26.211	0.00015225	0.00017486	4.6538e-05	1016.6	1.7039e-06	1.9265e-06	1114.6	212.11	1.7279e-06	1.9528e-06	265.47	76.707	57.612	18.313	1.8043e-06	25.23	194.264	75.571	238.898	62.987	234.718	200.041	62.897	70.224	195.294	220.591	69.787	77.679	80.725	83.982	182.243	83.387	-8191	255	
1053.997	1	1	0	0	0.14779	0.1258	0.10525	0.18958	0.036661	0.18375	0.011084	0.20978	0.22541	0.087284	0.18516	0.27653	0.15376	0.21563	0.082946	0.22844	-2.5312	-2.1854	-2.45	-2.9146	-2.1479	-2.9229	-2.6604	-2.275	-2.8812	-2.0438	-2.4938	-2.8771	-2.1667	-2.5417	-2.4771	-2.1396	318.588	297.835	197.277	341.155	368.947	160.946	275.372	306.895	54.758	405.127	357.181	363.057	131.037	328.535	302.910	70.134	0.00020917	0.00023864	6.1048e-05	1071.3	6.0257e-06	2.4463e-06	1167.3	222.22	3.2021e-06	2.3317e-06	284.25	80.483	65.485	18.641	3.6339e-06	26.151	0.00016353	0.00017991	4.5206e-05	1018	1.8052e-06	1.9327e-06	1113.5	211.99	1.8433e-06	1.9457e-06	265.36	76.544	58.039	18.306	1.7381e-06	25.209	197.970	166.835	113.848	62.885	227.128	75.688	63.008	70.357	236.329	92.923	69.674	77.403	81.476	83.958	154.455	83.219	-8191	255	
#DATA ENDS
