BOXY.EXE: ISS Imagent and Oximeter Data Acquisition Program Version 0.80
Ascii Record File

#ACQ INFORMATION
2  Detector Channels 
16  External MUX Channels 
1  Auxiliary Channels 
5000  Waveform (CCF) Frequency (Hz)
1  Waveforms Skipped 
30  Waveforms Averaged 
1  Cycles Averaged 
16  Acquisitions per Waveform 
10.0806  Updata Rate (Hz) 

#FILE INFORMATION
TRUE -- External MUX Channel results are PARSED.
FALSE -- AC DC and Phase are NOT grouped.
TRUE -- Companion Program Settings File CREATED.
FALSE -- AC data not excluded
FALSE -- DC data not excluded
FALSE -- Phase data not excluded
FALSE -- Auxillary Chn. data not excluded
Tab delimiters

#CALIBRATION STATE
TRUE -- Waveform Calibration Values APPLIED.


#AUX CALIBRATION VALUES
Val Type	aux-1	

Term	1.0000e+00	
Factor	0.0000e+00	


#WF CALIBRATION VALUES
A = Detector Channel
Val Type	A-AC1	A-AC2	A-AC3	A-AC4	A-AC5	A-AC6	A-AC7	A-AC8	A-AC9	A-AC10	A-AC11	A-AC12	A-AC13	A-AC14	A-AC15	A-AC16	A-DC1	A-DC2	A-DC3	A-DC4	A-DC5	A-DC6	A-DC7	A-DC8	A-DC9	A-DC10	A-DC11	A-DC12	A-DC13	A-DC14	A-DC15	A-DC16	A-Ph1	A-Ph2	A-Ph3	A-Ph4	A-Ph5	A-Ph6	A-Ph7	A-Ph8	A-Ph9	A-Ph10	A-Ph11	A-Ph12	A-Ph13	A-Ph14	A-Ph15	A-Ph16	

Term	0.00000e+00	0.00000e+00	0.00000e+00	0.00000e+00	0.00000e+00	0.00000e+00	0.00000e+00	0.00000e+00	0.00000e+00	0.00000e+00	0.00000e+00	0.00000e+00	0.00000e+00	0.00000e+00	0.00000e+00	0.00000e+00	0.00000e+00	0.00000e+00	0.00000e+00	0.00000e+00	0.00000e+00	0.00000e+00	0.00000e+00	0.00000e+00	0.00000e+00	0.00000e+00	0.00000e+00	0.00000e+00	0.00000e+00	0.00000e+00	0.00000e+00	0.00000e+00	0.00000e+00	0.00000e+00	0.00000e+00	0.00000e+00	0.00000e+00	0.00000e+00	0.00000e+00	0.00000e+00	0.00000e+00	0.00000e+00	0.00000e+00	0.00000e+00	0.00000e+00	0.00000e+00	0.00000e+00	0.00000e+00	
Factor	1.00000e+00	1.00000e+00	1.00000e+00	1.00000e+00	1.00000e+00	1.00000e+00	1.00000e+00	1.00000e+00	1.00000e+00	1.00000e+00	1.00000e+00	1.00000e+00	1.00000e+00	1.00000e+00	1.00000e+00	1.00000e+00	1.00000e+00	1.00000e+00	1.00000e+00	1.00000e+00	1.00000e+00	1.00000e+00	1.00000e+00	1.00000e+00	1.00000e+00	1.00000e+00	1.00000e+00	1.00000e+00	1.00000e+00	1.00000e+00	1.00000e+00	1.00000e+00	X	X	X	X	X	X	X	X	X	X	X	X	X	X	X	X	

B = Detector Channel
Val Type	B-AC1	B-AC2	B-AC3	B-AC4	B-AC5	B-AC6	B-AC7	B-AC8	B-AC9	B-AC10	B-AC11	B-AC12	B-AC13	B-AC14	B-AC15	B-AC16	B-DC1	B-DC2	B-DC3	B-DC4	B-DC5	B-DC6	B-DC7	B-DC8	B-DC9	B-DC10	B-DC11	B-DC12	B-DC13	B-DC14	B-DC15	B-DC16	B-Ph1	B-Ph2	B-Ph3	B-Ph4	B-Ph5	B-Ph6	B-Ph7	B-Ph8	B-Ph9	B-Ph10	B-Ph11	B-Ph12	B-Ph13	B-Ph14	B-Ph15	B-Ph16	

Term	0.00000e+00	0.00000e+00	0.00000e+00	0.00000e+00	0.00000e+00	0.00000e+00	0.00000e+00	0.00000e+00	0.00000e+00	0.00000e+00	0.00000e+00	0.00000e+00	0.00000e+00	0.00000e+00	0.00000e+00	0.00000e+00	0.00000e+00	0.00000e+00	0.00000e+00	0.00000e+00	0.00000e+00	0.00000e+00	0.00000e+00	0.00000e+00	0.00000e+00	0.00000e+00	0.00000e+00	0.00000e+00	0.00000e+00	0.00000e+00	0.00000e+00	0.00000e+00	7.69092e+01	-1.57133e+02	-1.40298e+02	-1.83357e+02	-8.57923e+01	-9.61485e+01	-1.57811e+02	-1.62015e+02	-9.63076e+01	-7.94854e+01	-1.71773e+02	-1.76027e+02	-1.90442e+02	-1.78137e+02	-7.55781e+01	-1.51514e+02	
Factor	7.25629e-05	1.26310e-04	3.84968e-05	1.60158e-01	1.49291e-06	1.25563e-06	1.65719e-01	6.68398e-02	1.67473e-06	1.13955e-06	1.04063e-01	3.34377e-02	7.91682e-02	9.59968e-03	1.29691e-06	1.37347e-02	1.37806e-06	1.41268e-06	3.92199e-07	8.14832e-02	1.54144e-08	1.55321e-08	7.93246e-02	3.36794e-02	1.54806e-08	1.54730e-08	5.04826e-02	1.61872e-02	3.66616e-02	4.85886e-03	1.54390e-08	6.71243e-03	X	X	X	X	X	X	X	X	X	X	X	X	X	X	X	X	



#DISTANCE SETTINGS
A = Detector Channel
A-1	A-2	A-3	A-4	A-5	A-6	A-7	A-8	A-9	A-10	A-11	A-12	A-13	A-14	A-15	A-16	

2.5000e+00	3.0000e+00	2.5000e+00	3.0000e+00	2.0000e+00	3.0000e+00	1.5000e+00	3.0000e+00	3.0000e+00	3.0000e+00	3.0000e+00	3.0000e+00	3.0000e+00	3.0000e+00	1.5000e+00	3.0000e+00	

B = Detector Channel
B-1	B-2	B-3	B-4	B-5	B-6	B-7	B-8	B-9	B-10	B-11	B-12	B-13	B-14	B-15	B-16	

1.0000e+01	1.0000e+01	1.0000e+01	1.4400e+00	1.0000e+01	1.0000e+01	1.5100e+00	1.9400e+00	1.0000e+01	1.0000e+01	1.9900e+00	2.4900e+00	2.4100e+00	2.9000e+00	1.0000e+01	2.9800e+00	




#DATA BEGINS
time	group	step	mark	flag	A-AC1	A-AC2	A-AC3	A-AC4	A-AC5	A-AC6	A-AC7	A-AC8	A-AC9	A-AC10	A-AC11	A-AC12	A-AC13	A-AC14	A-AC15	A-AC16	A-DC1	A-DC2	A-DC3	A-DC4	A-DC5	A-DC6	A-DC7	A-DC8	A-DC9	A-DC10	A-DC11	A-DC12	A-DC13	A-DC14	A-DC15	A-DC16	A-Ph1	A-Ph2	A-Ph3	A-Ph4	A-Ph5	A-Ph6	A-Ph7	A-Ph8	A-Ph9	A-Ph10	A-Ph11	A-Ph12	A-Ph13	A-Ph14	A-Ph15	A-Ph16	B-AC1	B-AC2	B-AC3	B-AC4	B-AC5	B-AC6	B-AC7	B-AC8	B-AC9	B-AC10	B-AC11	B-AC12	B-AC13	B-AC14	B-AC15	B-AC16	B-DC1	B-DC2	B-DC3	B-DC4	B-DC5	B-DC6	B-DC7	B-DC8	B-DC9	B-DC10	B-DC11	B-DC12	B-DC13	B-DC14	B-DC15	B-DC16	B-Ph1	B-Ph2	B-Ph3	B-Ph4	B-Ph5	B-Ph6	B-Ph7	B-Ph8	B-Ph9	B-Ph10	B-Ph11	B-Ph12	B-Ph13	B-Ph14	B-Ph15	B-Ph16	aux-1	digaux	

7227.271	1	1	0	256	0.14179	0.11346	0.18665	0.24323	0.22681	0.20429	0.21989	0.26054	0.17429	0.13642	0.10708	0.2399	0.25505	0.17141	0.09263	0.30241	-2.1875	-2.5938	-2.25	-2.9813	-2.1813	-2.2792	-2.925	-2.2979	-2.4375	-2.6354	-2.2687	-2.7604	-2.3875	-2.4417	-2.7979	-2.3396	382.873	355.545	42.214	323.269	188.731	148.438	344.311	394.374	156.412	297.314	387.926	51.258	354.786	300.337	310.532	280.189	0.0014003	0.00031167	0.00018814	1496.4	1.0987e-05	2.0318e-06	1491.8	413.84	3.8235e-06	6.4319e-06	464.66	155.77	137.99	46.691	1.1937e-05	57.43	0.0010081	0.00092871	0.00024052	1549	1.1128e-05	9.9502e-06	1531.3	431.11	1.0925e-05	1.016e-05	485.93	163.87	150.1	49.338	1.0041e-05	61.408	355.096	183.124	111.270	49.405	394.579	234.621	49.310	54.129	191.362	150.446	53.200	58.182	58.710	62.761	225.213	61.961	-8191	255	
7227.367	1	1	0	0	0.14997	0.17331	0.082369	0.051993	0.18853	0.25339	0.22162	0.14414	0.019022	0.10932	0.079821	0.30172	0.093354	0.27797	0.12264	0.10427	-2.1646	-2.4708	-2.0396	-2.9062	-2.2583	-2.4646	-3.15	-2.2854	-2.3958	-2.8292	-2.0958	-2.8688	-2.5125	-2.2125	-2.9479	-2.4854	345.407	108.790	316.936	385.793	263.904	130.393	350.224	38.896	254.258	53.037	292.737	51.976	317.897	370.027	123.240	83.355	0.0018176	0.00090507	0.00013974	1497.7	4.4227e-06	3.8497e-06	1493.2	413.6	5.7576e-06	7.3717e-06	467.12	155.29	138.65	46.534	1.1828e-05	57.182	0.00097295	0.00092664	0.00025632	1553.3	1.0685e-05	9.7711e-06	1537.5	432.56	1.034e-05	9.9077e-06	488.51	163.79	148.93	49.131	1.0646e-05	61.264	342.372	102.250	168.964	49.258	137.319	164.264	49.198	54.154	177.830	168.028	53.453	58.005	59.219	62.832	194.963	62.020	-8191	255	
7227.463	1	1	0	0	0.38811	0.047626	0.11683	0.337	0.17813	0.080077	0.18892	0.14773	0.11754	0.25441	0.14687	0.035992	0.25835	0.11469	0.072403	0.22821	-1.9604	-2.5104	-2.0646	-3.0687	-2.5062	-2.1896	-3.1646	-2.3854	-2.3417	-2.7792	-2.1167	-2.6958	-2.6437	-2.2646	-2.8396	-2.4396	283.867	130.332	328.087	320.696	129.063	240.619	81.057	74.849	225.887	98.870	320.247	49.278	46.209	347.782	252.253	360.856	0.0014041	0.00033706	0.00029437	1498	6.866e-06	8.36e-06	1495	412.56	4.2067e-06	7.1392e-06	468.76	154.82	138.27	46.84	5.6674e-06	57.347	0.00092325	0.00089298	0.00027263	1551.4	1.0227e-05	9.4973e-06	1538.5	430.94	9.9167e-06	9.6541e-06	491.44	163.26	147.59	49.182	1.1111e-05	60.971	351.351	132.254	179.651	49.397	171.053	178.495	49.268	54.066	281.522	237.415	53.242	58.027	58.959	62.801	239.905	61.998	-8191	255	
7227.559	1	1	0	0	0.12017	0.18544	0.22791	0.52262	0.20746	0.058171	0.42883	0.30439	0.16957	0.27543	0.19961	0.19937	0.23619	0.19198	0.14352	0.17183	-1.9	-2.725	-2.1542	-2.8021	-2.5938	-2.1479	-3.0458	-2.4375	-2.2333	-2.7042	-2.2208	-2.6375	-2.5812	-2.3354	-2.6771	-2.5104	67.360	53.856	318.339	368.626	166.100	232.291	348.731	352.522	124.607	266.618	83.285	370.942	243.340	342.221	260.364	51.404	0.0019258	0.00010453	0.00032714	1498.2	4.8189e-06	8.794e-06	1494.6	412.42	7.1215e-06	3.851e-06	466.3	154.76	138.66	46.933	4.543e-06	57.642	0.00088467	0.00088534	0.00028174	1545.5	9.907e-06	9.6031e-06	1540.4	429.92	9.6045e-06	9.9003e-06	491.97	162.43	147.18	49.251	1.1262e-05	60.815	355.977	78.856	147.368	49.287	162.125	166.992	49.550	54.262	176.975	171.882	53.422	58.006	58.863	63.235	125.516	61.982	-8191	255	
7227.655	1	1	0	0	0.18492	0.099364	0.16642	0.18564	0.22939	0.090171	0.22823	0.12606	0.23729	0.32829	0.11454	0.41723	0.088993	0.054096	0.06684	0.036523	-1.8479	-2.8667	-2.2646	-2.675	-2.6979	-2.0812	-3.1562	-2.5917	-1.9208	-2.6333	-2.4083	-2.7104	-2.7583	-2.1729	-2.75	-2.4833	304.055	48.184	253.823	363.812	201.101	381.122	327.384	312.214	294.742	79.625	117.021	379.865	59.458	395.649	93.938	347.687	0.0012759	0.00028212	0.00010581	1497	5.6459e-06	4.1673e-06	1489.2	412.89	4.4523e-06	1.4218e-05	466.28	154.84	137.88	46.791	4.7475e-06	57.179	0.00084872	0.00091707	0.00028341	1541.1	9.5483e-06	1.0066e-05	1538.4	428.84	9.2658e-06	1.0462e-05	490.57	161.87	145.94	49.376	1.0762e-05	60.433	362.117	80.445	144.926	49.549	373.420	134.176	49.256	54.097	190.680	181.689	53.440	57.920	59.037	62.973	48.573	62.048	-8191	255	
7227.776	1	1	0	0	0.098261	0.13875	0.31172	0.2877	0.04378	0.046966	0.21895	0.14429	0.19264	0.036256	0.023432	0.11879	0.07977	0.024089	0.23864	0.16617	-1.5812	-2.9792	-2.2146	-2.65	-2.8167	-2.1146	-2.8146	-2.9188	-2.1292	-2.7958	-2.5042	-2.4083	-2.6354	-2.2042	-2.5167	-2.9146	192.860	231.295	184.356	375.840	79.380	184.611	54.790	248.999	103.180	137.968	127.523	153.948	364.450	337.332	356.026	329.632	0.0015996	0.00092743	0.00015494	1497.6	1.1635e-05	8.1725e-06	1493	411.57	2.1242e-05	8.4187e-06	464.75	155.91	138.12	46.633	4.7815e-07	57.317	0.00083189	0.00097159	0.00027088	1538.8	9.2049e-06	1.0522e-05	1536.8	427.15	8.9904e-06	1.0603e-05	487.83	161.48	145.77	49.4	9.8546e-06	60.265	359.337	149.936	96.439	49.475	132.924	203.438	49.245	54.164	156.641	206.700	53.573	57.853	59.473	62.810	258.426	62.085	-8191	255	
7227.870	1	1	0	0	0.16872	0.13625	0.054215	0.2545	0.1413	0.13208	0.049588	0.071189	0.23123	0.21838	0.27106	0.1773	0.18707	0.16903	0.081203	0.27666	-1.7729	-2.6646	-2.3688	-2.4562	-2.7208	-2.0354	-2.7667	-2.6896	-2.1167	-2.6854	-2.5125	-2.2333	-2.9625	-2.2146	-2.4521	-2.6625	50.989	108.304	227.904	352.991	342.008	206.338	390.458	64.414	386.268	124.892	36.454	81.982	326.229	362.451	325.510	291.769	0.0015569	0.00092784	7.0905e-05	1489.6	1.2991e-05	6.3931e-06	1487.3	414.48	1.1627e-05	6.9851e-06	464.58	154.89	137.94	46.83	3.04e-06	57.204	0.00083133	0.00097065	0.00025042	1533.7	9.3555e-06	1.0694e-05	1529.2	427.08	9.3751e-06	1.0544e-05	485.62	160.81	146.78	49.5	9.2722e-06	60.065	359.937	97.280	340.948	49.320	168.711	156.970	49.407	54.072	227.390	160.043	53.590	57.982	59.191	62.888	172.496	61.821	-8191	255	
7227.966	1	1	0	0	0.1317	0.10113	0.25102	0.39498	0.055026	0.16266	0.089683	0.25871	0.18168	0.039033	0.075057	0.15264	0.14614	0.3362	0.099261	0.2877	-1.7021	-2.8875	-2.3688	-2.3771	-2.8042	-2.3646	-2.4292	-3.1021	-2.1021	-2.6146	-2.6479	-2.1917	-2.9188	-2.3896	-2.2604	-2.9729	230.992	380.339	213.290	362.090	251.098	151.629	74.167	339.991	377.252	148.062	347.819	208.023	340.918	372.967	146.097	319.289	0.0018303	0.00050717	5.8255e-05	1498.2	1.5943e-05	5.4091e-06	1493.8	414.34	1.2508e-05	5.6623e-06	463.3	155.06	139.01	46.63	1.0937e-05	57.412	0.00088847	0.00095556	0.00024269	1533	1.006e-05	1.0606e-05	1529.4	426.9	1.0127e-05	1.0323e-05	484.7	160.66	148.63	49.362	9.0437e-06	60.114	354.932	122.885	163.339	49.437	192.669	326.328	49.284	54.072	169.495	353.431	53.215	57.979	58.603	62.886	135.101	61.995	-8191	255	
7228.040	1	1	0	0	0.074229	0.27612	0.049326	0.38493	0.037755	0.224	0.10854	0.23423	0.24793	0.47682	0.20602	0.26099	0.08184	0.062482	0.13874	0.13539	-1.7125	-2.525	-2.475	-2.4375	-2.7896	-2.3021	-2.5042	-2.8333	-2.0812	-2.4688	-2.7562	-2.2167	-2.85	-2.3917	-2.4521	-2.9125	205.109	50.837	195.920	339.921	118.525	227.975	289.663	40.525	108.198	211.364	328.213	74.259	68.245	334.745	346.925	200.447	0.0016004	0.00075338	9.7992e-05	1496.6	1.8463e-05	5.5785e-06	1492.1	411.5	1.8971e-06	7.9564e-06	464.83	155.35	137.77	46.64	1.887e-06	57.27	0.00094883	0.00090718	0.0002374	1534.5	1.039e-05	1.0001e-05	1526.1	426.6	1.0559e-05	9.5508e-06	483.44	161.07	148.69	49.155	8.767e-06	60.293	362.726	344.292	296.209	49.448	159.754	172.101	49.078	54.277	214.528	325.108	53.491	58.018	59.024	62.905	147.864	62.204	-8191	255	
7228.159	1	1	0	0	0.03476	0.11563	0.079332	0.21814	0.32075	0.073462	0.21289	0.23948	0.15974	0.13005	0.025606	0.18728	0.33412	0.31295	0.10128	0.26077	-1.8813	-2.5646	-2.7562	-2.3604	-2.6771	-2.3146	-2.4521	-2.8063	-2.275	-2.4458	-2.7667	-2.1229	-2.7146	-2.6125	-2.2542	-2.8187	256.985	260.515	314.261	38.999	209.057	131.993	382.171	39.255	288.071	213.217	214.540	330.205	56.324	113.354	180.523	347.307	0.0010788	0.00056988	0.00025525	1492.3	2.8171e-06	3.0654e-06	1487.4	412.35	9.0753e-07	4.0373e-06	465.07	154.18	137.72	46.551	8.1206e-06	57.402	0.00096761	0.00086188	0.00023155	1533.2	1.0471e-05	9.6397e-06	1523.4	427.32	1.0586e-05	9.2699e-06	482.24	161.25	148.21	48.962	8.8128e-06	60.608	361.403	114.635	207.643	49.683	255.398	112.017	49.123	54.056	116.214	43.222	53.364	58.090	59.014	62.724	159.369	61.957	-8191	255	
7228.255	1	1	0	0	0.063935	0.096367	0.2124	0.23388	0.12302	0.025594	0.23624	0.071423	0.19653	0.31895	0.28785	0.16114	0.1272	0.064736	0.095723	0.18655	-1.8813	-2.5167	-2.5417	-2.0792	-2.6833	-2.6	-2.3792	-2.9229	-2.2979	-2.2479	-3.0104	-2.1562	-2.5792	-2.6688	-2.0542	-2.8792	350.737	228.497	133.999	377.496	44.846	91.190	299.186	344.500	195.094	355.780	162.845	317.536	390.993	38.834	343.016	219.138	0.0012074	0.00077674	0.00012216	1490.4	8.3961e-06	5.9686e-06	1488.2	411.59	4.9806e-06	6.3929e-07	465.5	154.57	137.21	46.586	6.0672e-06	57.057	0.00096451	0.00085091	0.00023424	1538.1	1.0289e-05	9.6498e-06	1524.2	429.56	1.04e-05	9.1859e-06	482.79	162.31	147.17	48.938	9.091e-06	60.804	368.182	68.460	190.818	49.532	310.776	91.665	49.189	54.267	189.922	132.303	53.750	57.996	58.943	62.759	178.895	62.270	-8191	255	
7228.351	1	1	0	0	0.090142	0.20155	0.16668	0.14193	0.16581	0.16127	0.33364	0.20016	0.16637	0.17655	0.24666	0.13598	0.095339	0.10135	0.14107	0.057897	-1.8	-2.2208	-2.7625	-2.4208	-2.6354	-2.6292	-2.2625	-2.8854	-2.4437	-2.2417	-2.9083	-2.2042	-2.425	-2.8771	-1.9937	-2.8187	362.738	218.109	311.524	379.493	58.095	155.319	391.543	393.354	124.745	188.005	51.251	322.164	85.588	162.159	158.765	345.396	0.0014639	0.00020668	0.00012156	1487.6	1.7637e-06	9.7621e-06	1485.5	412.32	4.8267e-06	4.5494e-06	463.4	154.12	137.37	46.47	5.5942e-06	57.082	0.00092616	0.00082365	0.00023968	1540.5	9.6873e-06	9.4238e-06	1523.9	430.18	9.8766e-06	8.9171e-06	484.47	162.03	145.56	48.786	9.6117e-06	60.679	354.993	130.603	121.436	49.518	370.259	156.353	49.391	53.902	187.603	138.215	53.618	57.914	58.954	62.890	205.482	61.951	-8191	255	
7228.447	1	1	0	0	0.073901	0.036159	0.11387	0.15701	0.11701	0.24533	0.46941	0.19327	0.12077	0.22343	0.06837	0.14565	0.20304	0.26247	0.16126	0.20028	-2.1437	-2.1813	-2.8542	-2.5167	-2.3229	-2.7979	-2.3083	-2.8667	-2.5438	-2.3208	-2.9104	-2.2812	-2.3292	-2.9562	-2.15	-2.7229	226.373	158.030	182.605	133.107	387.475	100.046	343.844	237.600	160.953	138.616	365.584	305.719	99.983	291.889	350.263	266.905	0.00099298	0.0004315	0.00014491	1489.7	2.9458e-06	4.0816e-06	1483.8	413.6	3.3943e-06	5.5449e-06	463.96	154.37	138.43	46.466	2.6045e-06	57.105	0.00087605	0.00079245	0.00024903	1538.4	9.1419e-06	8.9367e-06	1527.3	428.69	9.3896e-06	8.6399e-06	485.52	161.37	145.05	48.741	1.016e-05	60.384	353.933	357.055	105.006	49.469	203.105	142.808	49.239	54.064	172.604	187.849	53.483	58.133	59.203	63.055	130.131	62.044	-8191	255	
7228.568	1	1	0	0	0.17103	0.26843	0.16349	0.45789	0.068958	0.14577	0.078448	0.1766	0.24404	0.090888	0.365	0.26243	0.20764	0.20705	0.11791	0.21387	-2.2458	-2.2062	-2.6604	-2.5896	-2.4729	-2.75	-2.3521	-2.6771	-2.7521	-2.1562	-2.7438	-2.4833	-2.2146	-2.7958	-2.2	-2.6271	145.734	162.855	185.457	365.262	79.592	267.099	346.079	293.723	370.605	182.152	347.306	350.424	148.203	371.530	264.009	43.122	0.0015219	0.0010398	0.00027376	1488.7	1.0912e-06	9.1023e-06	1479.5	413.37	6.663e-06	9.6739e-06	462.65	154.16	137.87	46.408	1.053e-05	57.244	0.00084977	0.00080227	0.00026373	1533.3	8.9097e-06	9.0752e-06	1527.1	426.81	9.1959e-06	9.0149e-06	485.25	160.99	143.81	48.764	1.0546e-05	60.085	370.823	94.896	81.047	49.565	91.030	165.389	49.219	53.929	332.893	239.420	53.457	58.295	58.627	62.934	205.737	62.389	-8191	255	
7228.639	1	1	0	0	0.095213	0.038253	0.13463	0.12008	0.26873	0.10648	0.27063	0.28856	0.20201	0.13261	0.18471	0.18789	0.28083	0.38088	0.18616	0.37569	-2.2687	-2.1562	-2.6875	-2.4229	-2.1792	-2.8479	-2.5375	-2.6875	-2.4958	-2.3187	-2.7917	-2.6312	-2.2229	-2.9562	-2.0833	-2.4208	97.978	393.729	376.305	332.831	137.962	137.229	364.616	298.427	193.027	193.379	362.292	349.386	348.279	72.950	169.044	304.607	0.0015074	0.00071805	0.00010921	1484.9	1.7392e-06	4.0024e-06	1481	411.27	5.8096e-06	6.9464e-06	459.14	154.38	137.16	46.502	4.2504e-06	56.995	0.00083437	0.00084947	0.00026537	1527.1	8.7832e-06	9.6998e-06	1525.7	425.36	9.1196e-06	9.6883e-06	483.6	160.55	143.5	48.974	1.049e-05	59.912	368.631	104.065	341.833	49.449	250.349	272.761	49.381	54.146	227.377	224.850	53.344	58.143	58.545	62.858	174.882	62.016	-8191	255	
7228.735	1	1	0	0	0.20923	0.33756	0.26238	0.35816	0.071754	0.1203	0.29245	0.2916	0.22284	0.09202	0.096948	0.48868	0.11581	0.22613	0.15813	0.26867	-2.2333	-2.0708	-2.6229	-2.7146	-1.8729	-2.9042	-2.375	-2.3208	-2.7854	-2.2417	-2.6708	-2.5875	-2.1708	-2.8771	-2.3604	-2.3937	153.934	356.327	232.332	73.155	252.061	54.160	364.937	321.925	260.362	182.669	77.634	390.672	235.580	41.373	321.355	327.205	0.0017549	0.00061157	0.00021664	1485.3	2.3805e-06	6.1298e-06	1483	410.01	1.5662e-05	6.8383e-06	460.91	154.21	136.66	46.359	3.543e-06	56.692	0.00083077	0.0009248	0.00025958	1526.4	8.7753e-06	1.0344e-05	1524.5	424.7	9.0611e-06	1.0336e-05	482.03	159.99	143.37	48.996	9.8548e-06	59.685	349.217	102.298	201.101	49.527	190.100	197.008	49.277	54.170	135.838	128.668	53.394	58.081	58.796	63.037	338.788	61.977	-8191	255	
7228.856	1	1	0	0	0.21539	0.27526	0.12159	0.033382	0.11805	0.15139	0.0484	0.07485	0.055805	0.28358	0.21314	0.27604	0.27715	0.098802	0.33149	0.23468	-2.4188	-1.9458	-2.6333	-3.0438	-2.2146	-2.8021	-2.6542	-2.3937	-3.0625	-2.3104	-2.5208	-2.8937	-2.1896	-2.8042	-2.5896	-2.2417	282.644	83.306	231.798	375.250	202.455	177.073	153.542	278.504	355.738	99.090	334.061	65.022	286.910	48.954	119.650	334.985	0.001874	0.0010771	0.00018587	1480.6	9.5011e-06	1.4414e-05	1477.7	410.13	6.8892e-06	5.2565e-06	460.11	153.77	137.24	46.319	1.3871e-05	56.951	0.00084212	0.0009556	0.00024345	1523.5	9.0338e-06	1.0471e-05	1521.7	423.72	9.3754e-06	1.0577e-05	479.41	159.58	145.01	49.023	9.492e-06	59.658	350.909	98.078	56.905	49.633	226.204	188.301	49.454	54.009	159.382	122.371	53.258	58.185	58.961	62.794	192.212	61.846	-8191	255	
7228.951	1	1	0	0	0.17408	0.27029	0.12965	0.40433	0.073653	0.091483	0.14831	0.22009	0.02219	0.089127	0.068503	0.34553	0.28791	0.22652	0.19833	0.14184	-2.4354	-2.1604	-2.4625	-2.8792	-1.9937	-2.7646	-2.6583	-2.2042	-2.7771	-2.3063	-2.4021	-2.7771	-2.0854	-2.725	-2.6021	-2.1896	256.108	245.719	211.205	324.290	315.551	138.341	44.316	274.191	366.027	52.316	385.578	339.746	338.019	329.704	62.319	64.821	0.0018018	0.00032956	0.00011105	1481	9.5148e-06	2.7461e-06	1479.9	410.18	1.0429e-05	1.8763e-06	459.93	153.14	138.04	46.328	5.9063e-06	57.186	0.00088893	0.00094844	0.000232	1521.2	9.635e-06	1.0234e-05	1515.7	422.76	9.945e-06	1.0205e-05	478.01	159.32	146.16	48.867	9.263e-06	59.58	349.060	247.635	82.459	49.651	220.486	195.102	49.486	54.212	169.446	63.150	53.587	58.182	59.150	62.992	209.246	61.877	-8191	255	
7229.048	1	1	0	0	0.1849	0.21562	0.16213	0.14364	0.11967	0.079877	0.17606	0.14131	0.19458	0.093803	0.051315	0.056318	0.30146	0.28367	0.17197	0.1198	-2.4917	-2.3604	-2.1562	-2.9896	-2.1979	-2.7917	-2.7188	-2.1813	-2.7687	-2.3917	-2.2333	-2.8396	-2.2271	-2.5979	-2.6417	-2.1979	72.790	320.197	99.615	360.001	223.321	316.844	380.328	361.978	303.039	286.394	58.999	370.550	389.906	369.820	268.628	73.285	0.0020939	0.00015828	0.00012436	1486.8	1.4367e-05	1.5648e-06	1472.3	410.68	1.001e-05	4.4575e-06	457.4	152.92	135.77	46.21	2.0066e-06	56.823	0.00093153	0.00091167	0.00022688	1520.8	1.0346e-05	9.8261e-06	1512.2	423.62	1.0427e-05	9.8119e-06	476	159.22	146.82	48.61	8.9721e-06	59.692	367.667	115.389	315.696	49.480	157.310	299.624	49.370	54.069	222.055	153.856	53.372	58.112	59.161	62.927	123.095	62.034	-8191	255	
7229.167	1	1	0	0	0.15054	0.16622	0.034006	0.28604	0.031014	0.039641	0.17379	0.34714	0.096753	0.19578	0.1053	0.17753	0.056959	0.21685	0.13334	0.16417	-2.4042	-2.2667	-2.0417	-2.9271	-1.8917	-2.4458	-2.8688	-2.2104	-2.525	-2.4875	-2.2375	-2.9437	-2.2292	-2.6396	-2.7729	-2.0583	341.663	81.622	189.181	340.744	237.554	133.132	47.863	352.359	299.061	118.448	260.788	38.368	331.619	361.981	141.846	289.715	0.001383	2.6539e-05	4.7553e-05	1483	3.389e-06	8.1293e-06	1474.5	411.46	8.4077e-06	2.5036e-06	457.85	153.22	135.6	46.236	7.6279e-06	56.776	0.00094515	0.00086814	0.00021902	1521.5	1.0307e-05	9.2091e-06	1510	424.26	1.019e-05	9.2483e-06	474.39	159.76	146.16	48.458	8.7367e-06	59.938	363.264	325.008	219.627	49.581	232.090	54.531	49.347	54.148	211.212	167.738	53.591	58.104	58.979	63.097	172.169	61.883	-8191	255	
7229.239	1	1	0	0	0.31995	0.06287	0.30297	0.21495	0.095612	0.038966	0.010816	0.31463	0.23866	0.16439	0.1467	0.34106	0.12669	0.23219	0.16018	0.16161	-2.3583	-2.6625	-2.0271	-3.0583	-2.3063	-2.3625	-3.0417	-2.2479	-2.4021	-2.5667	-2.2521	-2.9042	-2.1458	-2.4708	-2.8375	-2.3312	226.263	368.600	73.342	65.912	330.275	168.266	128.140	297.686	322.221	255.001	73.635	379.707	251.938	38.772	270.933	318.386	0.0013764	0.00073817	0.0002094	1474.9	8.3631e-06	6.9589e-06	1478.2	408.68	4.5727e-06	5.1355e-06	455.64	153.38	138.34	45.926	1.3942e-05	56.857	0.0009124	0.00084255	0.00021443	1522.9	1.003e-05	8.9311e-06	1511.7	425.06	9.8278e-06	9.1564e-06	474.4	160.41	146	48.265	8.9007e-06	60.154	365.382	90.031	154.835	49.609	194.847	177.943	49.307	54.250	179.277	185.686	53.366	58.141	59.220	62.793	216.219	62.164	-8191	255	
7229.335	1	1	0	0	0.079021	0.11014	0.1084	0.37227	0.48545	0.11484	0.18262	0.22081	0.15938	0.18878	0.22222	0.1513	0.053988	0.16701	0.10628	0.1225	-2.1542	-2.5375	-2.1813	-3.1208	-2.3417	-2.2812	-3.2417	-2.2771	-2.5021	-2.8479	-2.3438	-2.8417	-2.4667	-2.2729	-2.8312	-2.3708	39.029	350.859	78.876	329.870	47.122	155.945	358.179	40.821	349.552	326.541	369.993	43.548	290.719	364.058	305.747	86.998	0.001702	0.00081106	0.00026573	1479.9	8.7137e-06	4.0627e-06	1478.2	410.46	1.7714e-06	5.7629e-06	459.44	153.22	135.96	46.146	9.8072e-06	56.425	0.00087085	0.0008203	0.00022294	1526	9.5069e-06	8.6582e-06	1510.8	426.25	9.2861e-06	8.9019e-06	477.22	160.09	144.18	48.206	9.4461e-06	60.029	353.599	385.683	118.216	49.522	159.566	374.851	49.566	54.200	160.402	142.817	53.551	58.464	58.680	62.896	230.176	61.885	-8191	255	
7229.456	1	1	0	0	0.099084	0.17716	0.12766	0.30113	0.1512	0.11644	0.098577	0.068789	0.32465	0.18349	0.23538	0.19394	0.1949	0.028778	0.23034	0.1033	-2.0187	-2.6625	-2.1188	-3	-2.4271	-2.1375	-3	-2.4396	-2.4188	-2.8125	-2.1917	-2.7625	-2.5438	-2.2521	-2.6771	-2.1979	91.192	288.543	276.414	344.476	95.749	96.579	376.618	273.498	311.483	90.804	301.998	312.201	155.492	47.315	274.814	302.914	0.0017217	0.00056868	0.0002298	1475.7	4.6673e-06	7.0914e-06	1472.9	409.87	7.5433e-06	3.6759e-06	455.19	152.89	136.38	46.062	7.6017e-06	56.547	0.00083529	0.0008016	0.00024023	1524.4	9.2223e-06	8.4876e-06	1513.8	425.74	8.9899e-06	8.755e-06	478.2	159.99	143.75	48.176	1.0004e-05	60.017	345.560	101.325	135.169	49.618	214.303	186.669	49.435	54.205	185.616	186.489	53.466	58.087	58.964	62.814	150.692	62.019	-8191	255	
7229.552	1	1	0	0	0.34772	0.13437	0.10774	0.18845	0.10557	0.24064	0.28282	0.17687	0.061324	0.12784	0.066207	0.25476	0.14917	0.22236	0.064058	0.15768	-1.95	-2.6354	-2.1083	-2.8646	-2.5396	-1.975	-2.8979	-2.4292	-2.3021	-2.6854	-2.1875	-2.725	-2.6479	-2.2458	-2.6063	-2.5583	321.744	386.468	357.677	367.203	44.550	184.986	345.618	352.667	395.943	358.955	48.285	359.989	204.531	330.642	211.274	41.123	0.001349	0.00035877	6.7751e-05	1477.1	8.2732e-06	5.3733e-06	1471.2	408.29	7.9032e-06	5.7571e-06	457.82	152.88	136.18	45.906	6.5091e-06	56.432	0.00080656	0.00080571	0.0002566	1521.4	9.0573e-06	8.6777e-06	1516.3	424.03	8.7643e-06	8.9201e-06	480.37	159.54	143.1	48.282	1.0242e-05	59.631	347.409	182.647	326.413	49.730	127.303	166.952	49.344	54.246	136.903	162.770	53.617	58.074	58.920	62.816	164.414	61.838	-8191	255	
7229.648	1	1	0	0	0.11578	0.25176	0.060767	0.19472	0.10657	0.075509	0.4049	0.18153	0.39607	0.31244	0.23626	0.49248	0.096159	0.086632	0.28994	0.074597	-1.8146	-2.7667	-2.4229	-2.8229	-2.75	-2.0625	-2.9688	-2.625	-2.3312	-2.8125	-2.375	-2.375	-2.6875	-2.2917	-2.7833	-2.6917	166.160	47.061	143.149	366.534	93.735	325.761	307.478	363.237	304.326	321.136	344.861	318.225	143.330	282.831	341.235	359.707	0.0013971	0.0010091	2.6918e-05	1475.5	1.9606e-06	6.3863e-06	1472.5	409.24	7.3378e-06	7.3107e-06	457.09	152.65	135.98	46.051	5.7788e-06	56.603	0.00079012	0.00083716	0.00026044	1518.2	8.8258e-06	9.2099e-06	1516.7	423.54	8.4757e-06	9.452e-06	479.09	158.77	142.52	48.502	1.0005e-05	59.592	353.781	100.621	154.518	49.502	53.845	164.347	49.321	54.269	201.396	206.266	53.656	57.794	59.126	62.888	91.044	62.266	-8191	255	
7229.744	1	1	0	0	0.16397	0.067003	0.13723	0.095571	0.2245	0.07435	0.09546	0.32811	0.20842	0.19781	0.076377	0.13975	0.19314	0.12916	0.15987	0.32007	-1.7583	-2.8688	-2.0667	-2.4938	-2.8563	-1.9917	-2.7333	-2.5625	-2.1437	-2.8021	-2.4896	-2.4042	-2.8417	-2.2667	-2.5062	-2.5563	171.484	125.597	126.664	76.849	271.834	199.925	384.497	334.042	312.172	375.371	142.195	248.447	72.921	338.798	375.439	43.859	0.0016969	0.00045475	0.00027401	1472.9	1.971e-07	1.5103e-05	1466.1	407.97	7.4318e-06	4.0295e-06	455.14	152.98	135.89	46.156	4.1549e-06	56.587	0.00077384	0.00088673	0.00025608	1515.6	8.701e-06	9.8305e-06	1510	421.85	8.4728e-06	9.9934e-06	476.14	158.28	142.27	48.624	9.4919e-06	59.357	355.926	144.673	55.800	49.594	162.755	178.265	49.414	54.307	141.500	182.824	53.616	57.957	58.832	62.706	126.613	62.153	-8191	255	
7229.863	1	1	0	0	0.011935	0.25847	0.31011	0.16305	0.26353	0.038158	0.28857	0.20887	0.16301	0.17364	0.20019	0.090331	0.033826	0.15813	0.1408	0.24608	-1.8146	-2.5958	-2.3521	-2.4625	-2.8063	-2.1625	-2.8625	-2.8312	-2.0375	-2.7104	-2.475	-2.3083	-2.8563	-2.5042	-2.3667	-2.7458	336.182	160.946	287.787	231.333	161.208	73.151	349.751	380.163	312.316	386.841	290.648	327.931	364.416	373.273	288.355	385.940	0.0018837	0.00046219	5.5722e-05	1466.3	1.4724e-05	7.2828e-06	1471	409.48	1.4857e-06	6.0487e-06	454.54	152.32	135.43	45.937	3.0503e-06	56.792	0.00078701	0.00092231	0.00024153	1509.5	8.8337e-06	1.0137e-05	1508.9	421.27	8.7617e-06	1.0105e-05	474.11	157.8	142.84	48.559	8.918e-06	59.334	362.655	68.356	180.527	49.509	200.273	134.029	49.455	54.244	139.368	134.373	53.858	58.124	59.033	62.835	250.034	61.941	-8191	255	
7229.936	1	1	0	0	0.20235	0.11655	0.14336	0.32297	0.17037	0.039977	0.24249	0.23609	0.091694	0.07765	0.18897	0.17822	0.095702	0.16469	0.20185	0.19182	-1.5417	-2.5792	-2.2771	-2.4375	-2.8854	-2.2292	-2.5729	-2.8667	-1.9792	-2.6958	-2.5833	-2.3167	-2.6646	-2.4604	-2.3729	-2.8375	240.504	360.068	328.864	381.483	390.334	118.258	274.852	63.782	61.481	263.957	358.033	159.135	113.664	55.881	363.582	393.488	0.0018668	0.00081296	7.6804e-05	1474.1	1.1326e-05	2.311e-06	1464.9	408.24	1.6548e-05	1.7482e-06	456.16	152.74	136.31	46.214	4.1834e-06	56.569	0.0008302	0.0009063	0.00022942	1508	9.2952e-06	1.0025e-05	1502.5	420.77	9.4933e-06	9.7618e-06	473.78	157.6	144.45	48.532	8.6078e-06	59.177	364.243	392.308	51.499	49.486	185.878	270.079	49.209	54.219	183.193	103.104	53.678	57.946	59.528	63.024	210.252	62.118	-8191	255	
7230.033	1	1	0	0	0.085919	0.084779	0.27172	0.1342	0.18315	0.27519	0.059783	0.13254	0.11817	0.14805	0.13515	0.19326	0.15429	0.05993	0.11202	0.27489	-1.7458	-2.6958	-2.6021	-2.6333	-2.8771	-2.3812	-2.6688	-3.0583	-2.0271	-2.6604	-2.8396	-2.4104	-2.8604	-2.3667	-2.2792	-2.9917	193.078	259.313	164.054	379.038	359.986	198.883	334.222	279.371	73.276	269.133	345.094	377.252	134.581	362.948	122.273	337.097	0.0021437	0.00039816	3.2568e-06	1472.6	1.4601e-05	3.9089e-06	1463.4	407.83	8.9637e-06	4.3674e-06	454.32	152.7	135.03	46.056	5.6138e-06	56.4	0.00088715	0.00087445	0.00022418	1509.1	9.8596e-06	9.5219e-06	1499.8	420.08	9.9029e-06	9.1817e-06	472.03	157.89	144.81	48.307	8.4022e-06	59.261	364.894	340.913	359.070	49.526	204.147	368.683	49.318	54.030	170.275	165.787	53.666	58.188	59.294	63.126	158.341	61.919	-8191	255	
7230.129	1	1	0	0	0.20797	0.12889	0.26419	0.30252	0.027393	0.14591	0.34555	0.079573	0.21757	0.14111	0.15244	0.14581	0.12811	0.055276	0.022429	0.15038	-1.7833	-2.4542	-2.7417	-2.3896	-2.75	-2.3146	-2.4	-2.9	-2.1833	-2.5375	-2.8083	-2.1063	-2.6333	-2.5687	-2.3333	-3.0771	274.711	53.533	277.839	316.551	79.269	72.724	347.291	252.849	113.344	279.576	375.351	392.148	54.490	46.035	60.886	319.985	0.0013731	0.00020536	0.00018284	1472.6	1.2175e-05	5.0695e-06	1468	409.42	1.1321e-06	2.8645e-06	454.47	151.77	135.27	45.922	6.0731e-06	56.586	0.00091683	0.00081936	0.00021698	1511.4	9.9647e-06	9.1362e-06	1499.9	422.3	9.9744e-06	8.7624e-06	471.55	158.09	144.9	48.167	8.2594e-06	59.597	365.482	261.271	164.961	49.601	209.269	108.514	49.552	54.325	381.551	315.666	53.799	58.105	59.073	63.036	203.488	62.212	-8191	255	
7230.248	1	1	0	0	0.066479	0.028	0.18573	0.43212	0.16338	0.061695	0.33579	0.14259	0.14382	0.13266	0.43815	0.090388	0.038585	0.093999	0.17013	0.15276	-1.6771	-2.4354	-2.5229	-2.2458	-2.8354	-2.5958	-2.4062	-3.0958	-2.0542	-2.2875	-2.7771	-2.1875	-2.4896	-2.7562	-2.1792	-2.9833	351.821	262.812	97.272	332.468	124.293	342.546	314.815	109.890	47.291	371.817	367.471	224.476	360.826	54.418	108.810	333.888	0.0015316	0.0006333	0.00016759	1465.3	7.5949e-06	1.5325e-06	1466	408.26	4.256e-06	6.973e-06	455.57	150.96	134.31	45.891	4.9964e-06	56.693	0.0008987	0.00078872	0.00021513	1512	9.6136e-06	8.9055e-06	1497.5	422.83	9.594e-06	8.5666e-06	470.86	158.66	143.21	48.069	8.3264e-06	59.764	357.748	74.982	96.560	49.619	85.761	355.131	49.264	54.284	132.390	212.831	53.601	58.093	59.207	63.003	278.837	62.110	-8191	255	
7230.344	1	1	0	0	0.13031	0.10118	0.20088	0.17251	0.11958	0.13373	0.5309	0.40702	0.1767	0.23824	0.14437	0.051332	0.37682	0.22448	0.17861	0.17111	-1.8083	-2.3771	-2.8833	-2.2667	-2.5271	-2.6479	-2.2583	-2.8479	-2.3229	-2.2375	-2.9333	-2.3438	-2.6271	-2.7417	-1.9521	-2.8104	182.308	75.422	301.287	312.316	396.303	222.869	321.000	300.712	92.332	308.136	65.744	139.760	356.785	112.935	205.744	341.891	0.0012489	0.00019114	0.00014281	1462.1	8.3695e-06	6.3377e-06	1465.2	406.71	1.6791e-06	9.758e-07	455.36	151.61	135.17	45.834	8.0619e-06	56.563	0.00086119	0.00076264	0.0002195	1512.4	9.0976e-06	8.6546e-06	1499.3	422.81	9.1937e-06	8.2736e-06	472.21	158.8	142.18	48.022	8.9371e-06	59.794	365.755	337.343	166.908	49.670	184.634	90.015	49.270	54.385	79.452	113.819	53.663	58.151	59.113	62.970	240.649	62.040	-8191	255	
7230.440	1	1	0	0	0.19216	0.32377	0.036373	0.15681	0.18433	0.24693	0.29945	0.10509	0.14285	0.15583	0.093689	0.23721	0.072579	0.17255	0.072806	0.1086	-1.8229	-2.0812	-2.6937	-2.4667	-2.3312	-2.7417	-2.1875	-2.6979	-2.5167	-2.2562	-2.7958	-2.3292	-2.2958	-2.9479	-2.2021	-2.6792	219.456	391.567	218.370	313.898	297.071	196.609	343.794	97.311	160.162	111.916	337.749	357.514	366.639	340.926	250.509	85.529	0.0014726	0.00082624	0.00017638	1466.2	9.8293e-06	4.757e-06	1460	407.22	6.7666e-06	4.5354e-06	453.74	151.81	135.21	45.835	8.5844e-06	56.775	0.00083286	0.00075532	0.00023428	1512.8	8.7458e-06	8.5158e-06	1500	422.52	8.9353e-06	8.2204e-06	473.87	158.68	141.33	47.872	9.5462e-06	59.502	353.572	108.680	164.974	49.698	195.595	242.437	49.210	54.243	175.357	175.493	53.715	58.062	58.701	63.211	165.945	62.089	-8191	255	
7230.536	1	1	0	0	0.18657	0.1829	0.30345	0.37207	0.22863	0.12736	0.15333	0.34529	0.19192	0.26691	0.094294	0.097043	0.11603	0.13415	0.30208	0.17297	-2.1792	-2.0917	-2.5875	-2.5146	-2.3	-2.9062	-2.3375	-2.6688	-2.7354	-2.0667	-2.9146	-2.4375	-2.2729	-2.7167	-2.1083	-2.7687	386.308	264.020	214.924	391.242	365.615	219.182	222.947	330.389	120.055	245.752	339.092	256.341	125.476	37.291	58.803	62.498	0.0015133	0.0009367	0.00012149	1463	3.1516e-06	7.973e-06	1464.5	406.24	5.2492e-07	6.195e-06	453.55	151.02	134.99	45.75	1.1158e-05	55.946	0.00080548	0.00074923	0.00024628	1508.8	8.4258e-06	8.4903e-06	1502.5	420.45	8.692e-06	8.3543e-06	474.36	157.65	140.45	47.91	9.9136e-06	59.048	347.815	94.347	93.225	49.574	168.902	188.405	49.470	54.165	43.762	176.142	53.548	58.443	59.426	63.186	170.604	61.815	-8191	255	
7230.632	1	1	0	0	0.13066	0.11029	0.12618	0.31992	0.18498	0.18217	0.20899	0.22166	0.19804	0.46581	0.11874	0.075155	0.21636	0.11594	0.18146	0.22709	-2.3312	-2.1437	-2.9646	-2.4979	-2.4042	-2.8333	-2.4167	-2.5646	-2.6542	-2.1063	-2.8208	-2.5708	-2.0146	-2.9938	-1.9625	-2.4458	351.049	128.588	251.290	49.638	77.927	285.140	352.467	354.096	141.255	253.627	384.448	115.438	334.647	362.857	331.735	39.850	0.0015492	0.001288	0.00026382	1464.5	1.0777e-05	1.0563e-05	1461.2	405.91	6.8432e-06	9.3276e-06	451.38	150.92	133.99	45.772	4.8051e-06	55.992	0.00079044	0.00079028	0.00025232	1506.1	8.324e-06	9.0804e-06	1502.4	420.22	8.6259e-06	9.0983e-06	473.35	157.31	140.11	48.128	1.0098e-05	59.054	355.782	128.359	90.346	49.794	197.137	113.162	49.341	54.073	167.158	198.754	53.725	58.233	59.179	63.205	92.138	62.082	-8191	255	
7230.728	1	1	0	0	0.20337	0.10176	0.12664	0.44238	0.19835	0.19406	0.4167	0.3472	0.12263	0.30739	0.081347	0.2846	0.2785	0.15233	0.097649	0.21889	-2.3854	-1.9188	-2.6875	-2.6458	-2.0542	-2.9688	-2.3917	-2.4771	-2.7229	-2.0687	-2.8688	-2.5271	-2.0438	-2.9646	-2.1479	-2.3688	265.901	118.378	92.077	372.688	318.932	308.424	328.603	357.604	216.146	292.062	51.015	322.502	288.269	390.384	204.342	267.452	0.001597	0.0010581	0.00016127	1462.3	7.0084e-06	7.5662e-06	1456.7	406.97	9.2395e-06	6.2348e-06	449.15	151.35	134.22	45.706	6.5353e-07	55.939	0.00079511	0.00087405	0.0002506	1501.6	8.4062e-06	9.9137e-06	1498.4	419.8	8.8355e-06	1.0032e-05	471.88	157.34	140.95	48.333	9.9083e-06	58.933	355.422	122.639	140.598	49.555	205.507	167.507	49.436	54.143	189.776	241.741	53.620	58.308	59.096	63.330	240.596	62.156	-8191	255	
7230.849	1	1	0	0	0.096984	0.10635	0.11333	0.27469	0.26385	0.052328	0.26578	0.12015	0.32877	0.11997	0.10938	0.14394	0.23296	0.16652	0.26897	0.051922	-2.3063	-1.9646	-2.55	-2.8229	-2.2208	-2.8396	-2.7604	-2.2438	-2.7625	-2.1458	-2.65	-2.9479	-2.0417	-2.7604	-2.3958	-2.1562	169.398	133.762	250.641	55.287	232.284	270.458	266.890	356.502	249.803	224.509	284.359	362.731	205.516	55.282	139.957	384.563	0.0017363	0.00084886	8.3001e-05	1458.3	1.3358e-05	6.1311e-06	1454.4	407.24	1.5335e-05	6.1882e-06	449.92	150.92	134.31	45.682	7.3255e-06	56.004	0.00082329	0.00093877	0.0002457	1500.7	8.8779e-06	1.041e-05	1495.3	419.17	9.1908e-06	1.037e-05	469.84	156.98	141.74	48.365	9.422e-06	58.709	373.422	118.970	127.033	49.701	196.183	114.289	49.444	54.258	156.564	117.545	53.519	58.383	59.336	63.177	228.760	61.946	-8191	255	
7230.943	1	1	0	0	0.18184	0.11273	0.38619	0.33021	0.12652	0.27757	0.37934	0.066766	0.13403	0.26385	0.28211	0.072961	0.023718	0.34719	0.033413	0.22216	-2.4458	-2.1854	-2.3583	-2.9625	-2.0312	-2.6729	-2.7125	-2.1479	-2.95	-2.3271	-2.525	-2.7188	-2.2896	-2.8979	-2.5187	-2.2667	198.258	111.598	360.918	331.609	314.149	211.152	332.120	391.849	193.263	388.778	340.272	218.811	222.849	96.001	47.116	352.417	0.0017517	0.00055099	0.00013032	1457.8	1.2166e-05	5.9698e-06	1452.8	404.54	8.8778e-06	4.9542e-06	448.35	150.11	134.28	45.528	2.9666e-06	55.849	0.0008608	0.00094798	0.00022986	1496.3	9.4351e-06	1.0183e-05	1491	418.24	9.7472e-06	1.0212e-05	468.64	156.45	143.1	48.109	9.087e-06	58.549	370.213	76.133	304.999	49.772	198.899	263.720	49.547	54.323	160.309	113.795	53.481	58.194	59.042	62.853	381.266	62.212	-8191	255	
7231.040	1	1	0	0	0.29131	0.059368	0.25894	0.32172	0.25054	0.12361	0.14198	0.38469	0.17945	0.34955	0.36402	0.087803	0.062725	0.25337	0.14848	0.229	-2.5187	-2.2562	-2.2604	-2.8187	-2.0625	-2.6354	-2.8667	-2.3771	-2.7667	-2.2167	-2.375	-2.8875	-2.0292	-2.6167	-2.7625	-2.2854	246.422	94.820	281.659	346.066	175.725	131.803	351.423	311.752	378.945	192.739	132.812	71.864	83.434	379.727	260.207	391.001	0.0020764	0.00054866	0.00012422	1457.4	1.4209e-05	4.3834e-06	1458.7	405.38	8.7077e-06	1.0087e-06	448.02	150.85	133.93	45.593	8.4273e-06	56.185	0.00091612	0.00091126	0.00022343	1497.8	1.0104e-05	9.7055e-06	1489.6	418.58	1.0168e-05	9.7619e-06	465.96	156.72	143.98	47.923	8.9038e-06	58.906	347.992	335.733	312.642	49.758	183.373	383.438	49.336	54.301	228.819	281.129	53.568	58.263	58.702	63.089	187.681	62.216	-8191	255	
7231.136	1	1	0	0	0.36335	0.35381	0.11798	0.095974	0.16906	0.10712	0.15573	0.096275	0.099223	0.034515	0.21944	0.42263	0.30141	0.3099	0.059064	0.031338	-2.2438	-2.2812	-2.1958	-2.9208	-2.1854	-2.5458	-2.8937	-2.2854	-2.6083	-2.5792	-2.3312	-2.8583	-2.1312	-2.55	-2.6937	-2.1083	387.474	348.067	169.544	393.101	354.778	153.112	340.224	48.573	386.229	246.331	220.894	354.521	60.183	289.542	384.196	366.489	0.0017817	0.000111	0.00031473	1457.1	5.4942e-06	4.5518e-06	1450	405.07	9.0647e-06	1.6104e-06	447.84	151.17	133.28	45.607	5.5537e-06	56.022	0.0009357	0.00086002	0.0002169	1498.8	1.0342e-05	9.1665e-06	1488.2	419.17	1.0292e-05	9.3244e-06	465.15	157.51	144.28	47.8	8.8734e-06	59.234	361.876	63.018	103.215	49.743	273.106	227.851	49.411	54.379	171.161	390.237	53.591	58.277	59.651	63.277	206.073	62.198	-8191	255	
7231.232	1	1	0	0	0.23208	0.17417	0.22745	0.2539	0.27732	0.1315	0.29444	0.14999	0.024776	0.15574	0.082181	0.25726	0.07625	0.28771	0.12172	0.21815	-2.225	-2.5729	-2.1979	-3.1437	-2.1354	-2.3792	-2.9896	-2.0938	-2.6208	-2.5687	-2.2625	-2.9229	-2.3625	-2.325	-2.7083	-2.2771	365.279	362.026	342.851	46.137	181.456	323.140	368.830	329.890	241.067	342.544	372.970	50.065	95.323	53.572	372.414	57.912	0.0017178	0.00049382	0.00013467	1457.9	5.783e-06	8.9857e-06	1451.2	404.82	5.5604e-06	5.8181e-06	447.76	150.92	133.96	45.625	1.0151e-05	56.199	0.00093395	0.00085216	0.00021937	1505.7	1.0198e-05	9.0952e-06	1489.6	421.31	9.9864e-06	9.2197e-06	466.27	158.05	143.79	47.798	8.9745e-06	59.52	353.322	135.536	87.971	49.696	168.705	135.632	49.552	54.378	378.694	195.164	53.698	58.293	58.750	63.097	208.088	62.176	-8191	255	
7231.328	1	1	0	0	0.17565	0.11533	0.19312	0.43379	0.21839	0.21843	0.4634	0.16024	0.14935	0.12272	0.19442	0.089937	0.099556	0.2339	0.10512	0.26915	-2.1	-2.4479	-2.0333	-2.9313	-2.3458	-2.2313	-2.9583	-2.3271	-2.5729	-2.6104	-2.0896	-2.9292	-2.3625	-2.2604	-2.8771	-2.3	350.205	338.963	276.567	393.350	302.003	177.083	384.626	313.711	110.984	344.956	325.877	320.038	115.680	363.677	131.647	73.277	0.0014931	0.00066362	0.00038744	1457.4	1.0071e-05	4.0833e-06	1455.5	407.16	7.8838e-06	6.6231e-07	450.28	151.06	134.09	45.514	1.3925e-05	55.766	0.00088574	0.00083166	0.00022651	1508.9	9.8443e-06	8.9326e-06	1493.7	423.65	9.5799e-06	9.199e-06	468.41	158.72	143.35	47.734	9.553e-06	59.535	361.438	72.393	109.011	49.625	73.675	177.604	49.625	54.425	375.970	243.354	54.049	58.463	59.694	63.195	199.551	62.061	-8191	255	
7231.424	1	1	0	0	0.18969	0.1928	0.013609	0.45673	0.051831	0.25365	0.31662	0.3363	0.022051	0.15451	0.27753	0.082052	0.039984	0.14373	0.29445	0.24303	-2.0646	-2.8292	-2.1042	-2.9083	-2.5083	-2.15	-2.9333	-2.3354	-2.3167	-2.8812	-2.2396	-2.8229	-2.5521	-2.1958	-2.7604	-2.5938	211.189	143.564	260.618	57.491	86.018	63.616	322.520	387.596	165.867	188.211	385.639	270.784	260.390	358.315	269.635	91.470	0.0014884	0.00076259	0.00028052	1459.1	1.3128e-05	9.5774e-07	1460.4	407.55	1.481e-05	5.9722e-06	446.71	151.38	134.21	45.715	8.6123e-06	56.142	0.00084769	0.00081823	0.00024207	1511.7	9.3609e-06	8.6604e-06	1500.8	423.19	9.127e-06	8.8443e-06	470.05	158.2	142.6	47.852	1.012e-05	59.531	353.658	53.992	117.671	49.547	245.889	154.272	49.605	54.296	163.546	101.967	53.795	58.199	59.366	63.157	161.902	61.880	-8191	255	
7231.545	1	1	0	0	0.15078	0.31717	0.10906	0.20869	0.085972	0.23327	0.1477	0.10417	0.25801	0.19046	0.11816	0.2108	0.25862	0.16504	0.12844	0.12655	-1.9688	-2.6792	-2.0354	-2.7625	-2.5958	-2.1458	-3.1854	-2.3375	-2.2167	-2.7917	-2.3083	-2.7167	-2.6396	-2.0729	-2.8042	-2.3979	306.213	373.283	111.858	348.839	223.319	113.147	326.297	56.466	195.460	278.797	42.901	42.177	92.235	81.688	305.414	318.191	0.0019263	0.00026829	0.00021238	1461.7	3.4765e-06	5.7555e-06	1462.5	406.32	9.9276e-06	9.7126e-06	449.21	150.79	134.01	45.541	4.2051e-06	55.884	0.00082724	0.00082189	0.00025888	1509.9	9.3469e-06	8.7815e-06	1506.5	422.14	9.0705e-06	9.1505e-06	473.37	157.79	142.33	47.897	1.0744e-05	59.378	351.733	97.728	122.095	49.599	225.259	173.439	49.403	54.350	242.195	177.204	53.785	58.045	59.299	63.050	214.114	62.201	-8191	255	
7231.641	1	1	0	0	0.04931	0.15315	0.028985	0.029918	0.18599	0.15363	0.098961	0.22295	0.098044	0.30011	0.22474	0.37621	0.093314	0.21378	0.15882	0.15702	-1.9104	-2.8125	-2.3021	-2.6688	-2.7146	-2.0583	-2.9146	-2.4938	-2.3875	-2.5979	-2.45	-2.6042	-2.8312	-2.2354	-2.7396	-2.6458	326.802	307.122	336.193	155.171	386.138	338.054	277.762	321.887	193.427	362.154	98.356	394.182	344.752	354.305	98.423	126.584	0.001335	0.00082075	0.00041537	1464.2	1.1453e-05	3.4069e-06	1463.3	406.29	1.1606e-05	6.8227e-06	449.54	150.5	134.01	45.6	6.5751e-06	56.145	0.00082447	0.00086637	0.00027453	1509.3	9.2945e-06	9.5335e-06	1507.6	421.65	8.9257e-06	9.8229e-06	474.36	157.49	142.03	48.154	1.0627e-05	59.205	341.864	116.557	132.692	49.544	151.286	166.533	49.309	54.647	172.932	163.860	53.763	58.104	59.781	62.863	180.671	62.326	-8191	255	
7231.737	1	1	0	0	0.14631	0.2629	0.3193	0.072784	0.19963	0.066212	0.23941	0.12129	0.059785	0.18739	0.27136	0.19138	0.15542	0.031485	0.093762	0.16444	-1.575	-2.8604	-2.3167	-2.5667	-2.7604	-2.1646	-2.9146	-2.7438	-2.0917	-2.8229	-2.2625	-2.2625	-2.7521	-2.1458	-2.8354	-2.7417	285.894	389.947	59.285	41.721	360.133	61.707	347.161	259.144	204.884	39.001	364.125	142.325	394.458	72.605	206.978	290.245	0.0016089	0.00083728	3.9744e-05	1463.1	7.8888e-06	6.4718e-06	1459.1	406.99	1.2957e-05	1.8208e-06	449	150.77	133.59	45.571	7.9384e-06	56.129	0.00082158	0.00093468	0.00027107	1507.5	9.1399e-06	1.034e-05	1505.4	421.36	8.9398e-06	1.0544e-05	472.53	156.95	142.05	48.324	1.021e-05	59.065	351.053	105.536	332.594	49.569	194.383	170.036	49.435	54.481	186.926	210.961	53.604	58.266	59.765	62.933	251.767	62.373	-8191	255	
7231.809	1	1	0	0	0.28965	0.15224	0.20419	0.31072	0.19419	0.24649	0.28763	0.092481	0.12711	0.083057	0.18775	0.022443	0.18304	0.23898	0.10803	0.18158	-1.5604	-2.7313	-2.1625	-2.4188	-2.6688	-2.2833	-2.825	-2.8271	-2.1729	-2.7542	-2.45	-2.2146	-2.8958	-2.2792	-2.5312	-2.9042	316.547	49.418	139.132	323.391	121.638	256.551	344.899	324.817	370.734	342.020	341.268	100.367	367.669	339.270	255.659	372.005	0.0016141	0.00058558	0.00018361	1471.1	9.0355e-06	7.845e-06	1459	406.65	5.7822e-06	1.0176e-05	448.06	150.91	134.13	45.554	7.4546e-06	56.169	0.00083576	0.00098735	0.00026049	1508.4	9.4078e-06	1.082e-05	1501.9	420.93	9.4004e-06	1.0842e-05	471.14	156.83	142.71	48.366	9.6564e-06	59.015	356.271	76.048	147.576	49.536	165.180	58.266	49.405	54.575	188.575	154.457	53.740	58.398	58.991	63.148	152.793	62.080	-8191	255	
7231.929	1	1	0	0	0.1271	0.18758	0.22908	0.169	0.16262	0.15832	0.20323	0.20521	0.16068	0.10576	0.15217	0.12404	0.062185	0.11489	0.12386	0.25033	-1.7333	-2.7604	-2.3625	-2.3812	-2.8708	-2.225	-2.6521	-2.8729	-2.1917	-2.7375	-2.5583	-2.2604	-2.8958	-2.2146	-2.4313	-2.8	301.289	293.703	37.835	342.874	359.273	329.618	361.500	60.755	386.343	118.230	327.003	349.860	56.004	291.417	199.526	327.484	0.0019021	0.00080729	6.1809e-05	1463.3	8.2029e-06	5.7251e-06	1463	406.97	1.9841e-05	1.7058e-06	449.6	150.58	134.45	45.591	8.6008e-06	55.981	0.00088492	0.00099003	0.00024857	1505.2	1.0031e-05	1.0872e-05	1499.9	420.7	1.002e-05	1.0618e-05	470.22	156.87	145.06	48.409	9.3612e-06	59	365.702	392.005	367.501	49.665	159.776	138.589	49.411	54.319	175.744	248.131	53.717	58.160	59.214	63.302	152.093	62.081	-8191	255	
7232.024	1	1	0	0	0.18267	0.041985	0.17902	0.32974	0.12655	0.34898	0.18863	0.11681	0.12964	0.087928	0.28569	0.16437	0.17564	0.22004	0.10546	0.008516	-1.5521	-2.5583	-2.5104	-2.3104	-2.8583	-2.2375	-2.5396	-2.8646	-2.0833	-2.5083	-2.7583	-2.2583	-2.8521	-2.5542	-2.3375	-2.8229	90.157	137.415	80.851	387.261	341.546	55.535	101.336	113.962	284.810	208.982	87.992	368.705	144.268	347.766	241.749	102.507	0.0017689	0.00033435	0.00017411	1465.8	1.465e-05	8.4295e-07	1456.7	406.21	5.2701e-06	2.1228e-06	448.7	149.84	135.47	45.424	4.8004e-06	56.484	0.00096428	0.00095258	0.00024579	1504.9	1.0672e-05	1.0442e-05	1497.7	420.49	1.0742e-05	1.0049e-05	468.33	156.8	146.08	48.175	9.0974e-06	59.152	343.724	165.875	333.390	49.566	218.024	308.098	49.373	54.471	176.010	64.586	53.808	58.335	59.594	63.212	179.628	62.333	-8191	255	
7232.120	1	1	0	0	0.2003	0.12159	0.22832	0.25055	0.062173	0.17986	0.1813	0.11251	0.17183	0.2342	0.081231	0.19244	0.15921	0.090459	0.12702	0.24076	-1.6917	-2.5563	-2.5563	-2.175	-2.7104	-2.3563	-2.4813	-3.0896	-2.0667	-2.3708	-2.7354	-2.1562	-2.6896	-2.4062	-2.0729	-2.8771	166.750	367.644	55.350	283.475	284.490	108.668	334.147	297.792	348.562	383.734	283.814	75.919	78.594	178.857	59.182	294.700	0.0017764	0.00033015	0.00018228	1462.5	7.7506e-06	1.9589e-06	1455.6	406.31	6.2343e-06	9.8896e-07	448.03	150.41	133.56	45.378	4.8327e-06	55.966	0.00099709	0.00089941	0.0002375	1506.2	1.0844e-05	1.0115e-05	1495.1	422.26	1.0875e-05	9.6182e-06	467.96	157.38	145.36	48.039	8.9803e-06	59.392	354.205	351.482	192.465	49.621	63.444	358.089	49.327	54.408	245.391	363.115	53.811	58.361	58.930	63.043	134.905	62.261	-8191	255	
7232.218	1	1	0	0	0.29285	0.17921	0.24155	0.26523	0.26748	0.084639	0.031144	0.26374	0.24427	0.15713	0.17251	0.058402	0.23181	0.20496	0.16133	0.32124	-1.6938	-2.3458	-2.7938	-2.1896	-2.7313	-2.5854	-2.4021	-2.8812	-2.2313	-2.2062	-2.9125	-2.2104	-2.7333	-2.7083	-2.1667	-2.8167	305.664	243.579	177.059	41.355	211.112	112.216	203.032	40.204	40.126	60.897	88.639	285.157	124.048	85.976	293.172	335.053	0.0014578	0.00032077	0.00012906	1466.6	8.6097e-06	6.6971e-06	1455.9	406.73	8.1913e-06	7.4522e-06	450.87	150.07	133.65	45.623	5.5386e-06	56.255	0.00098767	0.00086954	0.00023475	1511.3	1.0567e-05	9.8487e-06	1495.5	424.27	1.0714e-05	9.4763e-06	468.67	158.18	144.47	47.969	9.1913e-06	59.725	353.299	216.181	89.266	49.739	169.008	74.114	49.429	54.382	198.295	114.799	53.595	58.387	59.332	63.184	227.214	62.264	-8191	255	
7232.337	1	1	0	0	0.28639	0.025988	0.14492	0.054718	0.16472	0.039616	0.2253	0.37589	0.16392	0.12793	0.04655	0.20047	0.34628	0.047193	0.2073	0.1237	-1.9229	-2.2292	-2.9896	-2.3208	-2.4979	-2.7646	-2.5812	-3.0938	-2.2917	-1.9729	-2.9396	-2.1312	-2.4542	-2.7354	-2.1188	-2.9708	312.687	156.656	377.395	389.970	301.806	90.536	292.251	304.801	122.175	285.265	292.644	385.816	339.031	80.661	362.917	343.026	0.0016087	0.00044869	9.4714e-05	1459.7	6.6078e-06	3.1212e-06	1457.4	409.05	7.6232e-06	5.4831e-06	449.58	149.71	134.09	45.361	8.1611e-06	55.875	0.00095012	0.00085181	0.000241	1511.8	9.9833e-06	9.5298e-06	1496.9	425.12	1.0124e-05	9.0654e-06	469.8	158.43	143.03	47.804	9.565e-06	59.66	351.285	126.874	160.641	49.524	129.471	188.652	49.251	54.341	61.166	147.626	53.699	58.652	59.414	63.272	213.446	61.966	-8191	255	
7232.408	1	1	0	0	0.08692	0.23969	0.04211	0.47573	0.041593	0.087863	0.27002	0.086379	0.10338	0.21384	0.23626	0.18876	0.081669	0.18615	0.30316	0.19015	-2.1167	-2.1333	-2.7417	-2.5104	-2.4188	-2.7917	-2.2875	-2.9208	-2.5667	-2.1979	-2.9729	-2.2167	-2.4771	-2.9354	-1.9521	-2.8438	313.852	106.850	146.966	356.897	297.420	186.242	359.563	85.742	151.104	67.349	295.749	245.627	325.691	88.357	277.626	353.088	0.0013634	0.00031122	0.00023354	1463.2	2.1937e-06	5.905e-06	1457.1	407.28	3.4524e-06	3.0673e-06	449.36	150.18	133.74	45.332	1.2322e-05	55.698	0.000906	0.00082486	0.00025438	1513.1	9.5853e-06	9.2767e-06	1499.8	424.53	9.8328e-06	8.9784e-06	471.25	158.26	142.59	47.827	1.0532e-05	59.427	350.158	157.903	123.681	49.651	203.067	125.988	49.436	54.187	195.595	228.437	53.498	58.274	58.828	63.068	169.371	62.095	-8191	255	
7232.529	1	1	0	0	0.1143	0.33312	0.20381	0.030297	0.11487	0.15492	0.20406	0.11998	0.20966	0.12483	0.14385	0.20217	0.19279	0.25115	0.12559	0.11198	-2.075	-2.0667	-2.8229	-2.4375	-2.2333	-2.7188	-2.5625	-2.7208	-2.6354	-2.0208	-2.7667	-2.5333	-2.375	-2.95	-2.0771	-2.6104	246.958	341.191	360.304	133.318	326.327	36.417	316.980	336.066	390.748	367.980	334.097	377.236	380.936	57.684	365.760	260.576	0.0013467	0.00032548	0.00022223	1459.7	3.2196e-06	3.8593e-06	1453.2	405.88	1.2122e-05	6.9255e-06	446.35	149.54	132.97	45.53	9.9025e-06	56.215	0.00089444	0.00083082	0.00027195	1511.7	9.4885e-06	9.504e-06	1501.4	422.95	9.7502e-06	9.3333e-06	473.35	157.58	141.63	47.916	1.1082e-05	59.288	359.081	66.557	155.172	49.806	245.327	182.011	49.484	54.338	164.533	197.419	53.943	58.359	59.166	63.287	177.052	61.977	-8191	255	
7232.625	1	1	0	0	0.15369	0.0086467	0.40383	0.16768	0.13419	0.093638	0.45445	0.065127	0.094513	0.30711	0.14948	0.24433	0.27183	0.27099	0.38467	0.12328	-2.3229	-2.0729	-2.6896	-2.4188	-2.1708	-2.7812	-2.4604	-2.6729	-2.7958	-2.0042	-2.9271	-2.6083	-2.3	-2.8167	-2.225	-2.7583	266.837	119.716	341.294	384.581	317.669	211.735	344.814	142.831	373.943	215.013	343.249	323.611	389.636	393.516	391.423	337.852	0.0017258	0.0012092	0.00033941	1456.8	1.5192e-05	5.0498e-06	1455.4	406.97	3.7588e-06	8.1045e-06	448.82	149.46	135.14	45.462	2.6597e-07	55.762	0.00087812	0.0008766	0.00028272	1508	9.1999e-06	9.9079e-06	1503.9	422.04	9.4777e-06	9.9395e-06	473.18	157.1	141.74	48.03	1.0896e-05	58.991	363.084	112.343	134.456	49.693	221.068	176.973	49.647	54.356	230.032	190.277	53.434	58.286	58.891	63.148	290.448	61.929	-8191	255	
7232.721	1	1	0	0	0.30835	0.06488	0.17631	0.36354	0.22067	0.16419	0.16903	0.4561	0.035571	0.2217	0.39182	0.1794	0.16219	0.22191	0.05186	0.09536	-2.3063	-2.3521	-2.7854	-2.6208	-2.1896	-2.8438	-2.5271	-2.5146	-2.8792	-2.1354	-2.6896	-2.6688	-2.1417	-2.9188	-2.4729	-2.3688	215.301	377.667	70.618	356.566	319.678	299.240	317.835	347.803	334.934	258.119	393.474	389.744	49.182	51.314	123.012	380.832	0.0013167	0.0018002	0.00014934	1458.6	9.7438e-06	1.0949e-05	1456.1	406.17	9.0824e-06	1.0657e-05	448.03	149.91	133.75	45.548	6.9215e-06	55.797	0.00085179	0.00093515	0.00027147	1503.9	9.137e-06	1.0565e-05	1501.1	421.35	9.4283e-06	1.0663e-05	471.85	156.95	141.47	48.284	1.0686e-05	58.88	349.243	142.902	249.256	49.600	201.946	162.646	49.358	54.116	161.636	197.088	53.662	58.318	59.097	63.176	388.393	61.917	-8191	255	
7232.817	1	1	0	0	0.066547	0.14001	0.070304	0.18967	0.1222	0.053303	0.22534	0.19352	0.14913	0.17569	0.12088	0.10104	0.18401	0.1431	0.24471	0.034402	-2.4333	-2.0625	-2.6854	-2.7687	-2.1708	-2.7458	-2.5812	-2.3042	-2.8604	-2.3	-2.5938	-2.7542	-2.0729	-2.6646	-2.4313	-2.3083	172.913	255.935	95.123	325.744	42.898	80.045	64.140	142.821	73.621	249.748	394.426	151.345	335.668	194.796	380.985	346.023	0.001918	0.00059961	0.00014874	1454.1	9.0852e-06	1.102e-05	1449.2	406.92	1.9153e-05	2.4857e-06	447.29	149.56	134.01	45.175	3.3238e-06	55.776	0.00087903	0.0010081	0.00026159	1502.2	9.449e-06	1.1119e-05	1497.2	421.17	9.8062e-06	1.1169e-05	468.97	156.8	142.76	48.301	1.0157e-05	58.747	356.618	61.816	265.027	49.719	186.092	153.597	49.611	54.368	166.420	228.562	53.665	58.252	59.516	63.256	40.907	62.043	-8191	255	
7232.938	1	1	0	0	0.11006	0.15715	0.11285	0.26899	0.22413	0.21173	0.1081	0.24201	0.10678	0.11049	0.11067	0.21977	0.099725	0.060135	0.16122	0.09008	-2.4729	-2.2771	-2.4333	-2.8896	-1.9729	-2.6771	-2.7375	-2.2417	-2.8479	-2.1521	-2.5208	-2.8271	-2.25	-2.8271	-2.6208	-2.2188	69.401	80.046	70.762	366.884	255.900	74.200	316.012	310.405	84.952	169.758	234.481	320.042	302.624	55.882	209.094	93.092	0.0018443	0.00037024	0.00014373	1459.6	1.4057e-05	8.5471e-07	1453	406.69	5.7485e-06	1.2444e-06	449.77	149.74	134.74	45.384	5.1573e-06	55.756	0.00092519	0.0010247	0.00024894	1500.9	1.0186e-05	1.1037e-05	1495.5	420.68	1.0503e-05	1.1048e-05	469.47	156.4	144.62	48.235	9.9685e-06	58.768	354.926	391.811	127.989	49.693	193.716	42.368	49.593	54.340	200.308	320.786	53.546	58.349	58.949	63.179	132.603	62.066	-8191	255	
7233.033	1	1	0	0	0.093295	0.35558	0.1227	0.25936	0.26569	0.10739	0.23882	0.39633	0.27889	0.11731	0.24121	0.25811	0.023863	0.13831	0.20922	0.10545	-2.5417	-2.3104	-2.2	-2.7771	-2.2917	-2.7042	-2.9062	-2.3583	-2.8312	-2.3312	-2.5167	-2.7875	-2.0792	-2.7375	-2.6646	-2.15	45.059	233.571	275.842	60.500	119.534	365.195	366.233	285.566	159.145	200.401	388.913	309.162	200.235	394.770	99.158	378.988	0.0015682	0.00024197	2.9558e-05	1459	1.8372e-05	8.871e-06	1452.4	406.73	1.63e-05	2.6226e-06	446.87	150.92	133.33	45.225	5.1002e-06	55.755	0.00098283	0.00099121	0.00024393	1505.1	1.0917e-05	1.0654e-05	1494.5	420.92	1.1127e-05	1.0693e-05	467.33	157.18	146.02	48.029	9.7496e-06	58.99	365.913	351.454	208.271	49.934	205.392	53.491	49.551	54.390	180.161	60.139	53.727	58.377	58.978	63.024	178.840	62.351	-8191	255	
7233.104	1	1	0	0	0.13639	0.11005	0.18972	0.11678	0.040528	0.13647	0.24164	0.21676	0.052867	0.07793	0.23999	0.35784	0.015616	0.26775	0.22161	0.29439	-2.4792	-2.1937	-2.2812	-3.075	-2.1604	-2.5625	-2.8	-2.2042	-2.7208	-2.4688	-2.1312	-2.8354	-2.2208	-2.4229	-2.8021	-2.1937	225.407	134.602	71.270	85.295	249.621	339.987	322.537	314.889	109.194	366.722	363.399	347.822	393.717	383.959	169.002	106.774	0.0016843	0.00038621	0.00015719	1459.8	5.0749e-06	9.464e-06	1456.6	406.55	8.5352e-06	2.935e-06	446.86	150.02	132.7	45.558	1.0689e-05	55.877	0.0010299	0.00095826	0.00023923	1505.9	1.13e-05	1.0073e-05	1492.9	422.68	1.1211e-05	1.0172e-05	467.02	157.39	145.86	47.972	9.5693e-06	59.289	354.571	119.931	84.777	49.921	98.831	172.688	49.557	54.279	67.028	169.715	53.710	58.428	58.722	63.244	187.223	62.159	-8191	255	
7233.225	1	1	0	0	0.22151	0.25044	0.066852	0.30153	0.13514	0.21514	0.32885	0.11686	0.13211	0.019578	0.22702	0.19787	0.14942	0.18195	0.074222	0.25837	-2.1354	-2.5042	-2.1021	-3.1521	-2.3646	-2.3354	-2.9333	-2.325	-2.6813	-2.5938	-2.0896	-2.8896	-2.3729	-2.4062	-2.8125	-2.1646	286.630	268.043	280.827	336.372	276.092	274.561	333.743	331.057	189.835	256.651	331.690	279.795	260.902	292.563	176.685	350.655	0.0014837	0.00037249	0.00026956	1460.9	4.8901e-06	1.664e-06	1449.3	407.04	9.1433e-06	1.3287e-06	448.25	149.89	134.67	45.28	6.2449e-06	55.955	0.0010121	0.00092026	0.00023568	1509.9	1.1094e-05	9.8198e-06	1491	423.94	1.0827e-05	9.9521e-06	467.17	158.15	145.73	47.831	9.6806e-06	59.715	364.699	135.191	110.748	49.686	359.483	164.020	49.465	54.456	231.368	175.940	53.857	58.296	59.070	63.268	192.460	62.352	-8191	255	
7233.321	1	1	0	0	0.12265	0.05701	0.25737	0.11684	0.093187	0.11868	0.080713	0.23331	0.18755	0.36485	0.25783	0.04102	0.25194	0.36265	0.21419	0.066992	-2.0917	-2.5792	-2.0167	-2.8604	-2.3229	-2.1937	-3.0625	-2.1896	-2.3917	-2.5417	-2.3396	-2.925	-2.3937	-2.0792	-2.7917	-2.4	325.392	301.356	272.682	327.881	292.799	270.706	254.205	331.862	277.790	316.890	126.552	134.533	356.761	345.902	79.263	312.313	0.0014468	0.00048508	0.00035858	1462.7	8.0965e-06	4.0412e-06	1456.2	407.6	3.1629e-06	1.7968e-06	445.43	150.05	133.07	45.449	7.4345e-06	56.052	0.00096477	0.00090547	0.00024648	1512.7	1.0675e-05	9.6988e-06	1498.4	425.69	1.0319e-05	9.8232e-06	468.7	158.66	144	47.808	1.0165e-05	59.701	366.990	51.286	144.320	49.735	178.103	123.196	49.680	54.309	253.313	57.220	53.896	58.397	59.030	63.235	215.549	62.143	-8191	255	
7233.417	1	1	0	0	0.11771	0.14357	0.098129	0.23208	0.063915	0.11978	0.16	0.13576	0.28818	0.14096	0.049107	0.075878	0.13453	0.0033699	0.094143	0.090074	-2.0333	-2.7146	-2.025	-3.0187	-2.5479	-2.1625	-2.9896	-2.375	-2.4062	-2.9125	-2.1708	-2.8646	-2.6312	-2.2667	-2.8917	-2.2687	48.270	142.922	301.947	343.349	359.356	231.474	282.411	318.871	70.821	112.439	386.025	385.216	235.499	80.656	225.069	39.305	0.0014988	0.00041949	0.00033197	1457.3	1.0202e-05	5.9226e-06	1450.7	407.49	4.6262e-06	2.9757e-06	447.54	149.65	133.93	45.192	1.2721e-05	55.686	0.00091757	0.00088477	0.00025968	1513.9	1.0159e-05	9.3491e-06	1499	425.37	9.8985e-06	9.6061e-06	471.55	158.17	143.42	47.698	1.0928e-05	59.531	353.207	68.825	114.458	49.796	219.408	211.399	49.574	54.521	229.987	114.455	53.643	58.261	59.340	63.170	182.129	62.437	-8191	255	
7233.513	1	1	0	0	0.15319	0.19583	0.22758	0.29861	0.1205	0.10561	0.31995	0.27398	0.036385	0.14499	0.39448	0.17142	0.23135	0.098344	0.14118	0.18925	-1.9833	-2.8125	-2.1625	-2.6437	-2.625	-2.2958	-3.0125	-2.3833	-2.375	-2.6917	-2.0563	-2.5458	-2.6771	-2.3021	-2.6771	-2.3417	350.533	292.659	67.968	327.536	310.095	224.929	309.691	381.558	63.758	189.285	333.543	336.941	177.438	91.289	233.390	64.148	0.0013384	0.00037343	9.8792e-05	1462.4	4.8869e-06	3.1911e-06	1452.3	405.42	7.1241e-06	1.0746e-05	446.72	149.82	132.31	45.302	9.0659e-06	55.993	0.00089704	0.00088651	0.00028094	1511.6	9.9745e-06	9.4754e-06	1501.8	423.58	9.6408e-06	9.7084e-06	473.05	157.52	142.96	47.81	1.1248e-05	59.389	364.604	68.421	203.664	49.682	393.928	152.584	49.523	54.427	138.637	169.768	53.928	58.576	58.944	63.076	194.300	62.296	-8191	255	
7233.634	1	1	0	0	0.17121	0.090729	0.11035	0.60547	0.012773	0.091708	0.23575	0.22093	0.195	0.031293	0.31296	0.17501	0.17488	0.25536	0.19267	0.14573	-1.9271	-2.85	-1.7563	-2.6667	-2.7188	-2.0146	-2.9375	-2.5542	-2.0312	-2.8208	-2.2438	-2.3729	-2.6813	-2.2021	-2.7229	-2.6292	292.850	135.971	194.327	341.542	47.124	244.512	378.445	393.380	188.056	266.962	68.622	71.219	42.459	319.817	259.963	151.012	0.0013927	0.00096651	0.00010188	1455.9	9.471e-06	7.2942e-06	1452.5	406.35	3.0924e-06	9.0693e-06	449.1	150.15	133.76	45.406	3.6035e-06	55.783	0.00087072	0.00091991	0.00028742	1506.4	9.7288e-06	1.0026e-05	1502	423.13	9.392e-06	1.0442e-05	474.12	157.25	142.54	48.038	1.1156e-05	59.112	354.248	99.459	240.010	49.598	205.263	158.731	49.558	54.486	40.856	204.461	53.687	58.202	59.375	63.107	157.726	62.213	-8191	255	
7233.706	1	1	0	0	0.14831	0.23154	0.25388	0.023216	0.15813	0.20389	0.23347	0.15826	0.14619	0.20053	0.25814	0.22348	0.06079	0.07895	0.1987	0.37733	-1.9771	-2.6479	-2.2021	-2.6188	-2.7229	-2.1063	-2.9208	-2.5271	-2.1708	-2.7333	-2.4021	-2.625	-2.7458	-2.1	-2.4688	-2.6125	266.914	309.140	361.750	264.579	107.700	215.981	337.178	336.311	138.946	369.269	48.828	366.731	67.871	89.530	149.411	355.623	0.001615	0.00077606	0.00014205	1463.9	1.2854e-05	1.0192e-05	1454.7	407.55	1.6626e-05	8.4823e-06	447.34	150.04	133.76	45.298	7.3291e-06	56.099	0.00085934	0.00097795	0.00028569	1505.3	9.6548e-06	1.0897e-05	1500.9	422.8	9.469e-06	1.114e-05	472.5	156.89	142.37	48.308	1.0726e-05	59.099	364.613	100.838	91.625	49.667	221.462	162.880	49.436	54.290	189.902	165.218	53.967	58.129	59.189	63.433	77.120	62.198	-8191	255	
7233.802	1	1	0	0	0.21563	0.088898	0.15515	0.30935	0.056691	0.18134	0.39062	0.11785	0.14287	0.11809	0.14467	0.32714	0.28264	0.10574	0.14892	0.084156	-1.6479	-2.6271	-2.3667	-2.2458	-2.7188	-2.2625	-2.6562	-2.6458	-1.9562	-2.7604	-2.4771	-2.1479	-2.7208	-2.1521	-2.4833	-2.7938	193.784	382.354	178.887	51.939	226.170	71.456	71.888	343.278	379.166	364.093	298.971	341.645	261.129	122.940	149.985	309.637	0.0017251	0.0010297	9.1062e-05	1458.6	8.1628e-06	6.2366e-06	1449.9	405.47	1.0744e-05	2.6429e-06	448.98	150.37	133.42	45.236	7.2839e-06	55.662	0.00088032	0.0010392	0.00027357	1503.4	9.9305e-06	1.1517e-05	1497.4	421.97	9.9113e-06	1.1505e-05	470.98	156.69	143.94	48.335	1.021e-05	58.916	356.160	79.509	68.761	49.456	188.019	212.691	49.421	54.507	205.842	125.634	53.696	58.197	59.085	63.114	135.790	61.894	-8191	255	
7233.898	1	1	0	0	0.23936	0.084346	0.16148	0.20771	0.13433	0.14693	0.39404	0.36096	0.22783	0.036949	0.057503	0.33973	0.11185	0.13882	0.18967	0.28111	-1.7563	-2.5729	-2.3354	-2.4375	-2.8	-2.0958	-2.4833	-2.7521	-2.1271	-2.7458	-2.5667	-2.0708	-2.5771	-2.2083	-2.2708	-2.8667	223.526	42.131	322.851	368.934	236.558	48.737	335.100	389.215	214.718	148.143	355.400	325.240	95.500	98.968	42.262	371.630	0.0018412	4.9285e-05	0.00013193	1455.9	2.038e-05	2.312e-06	1453.6	406.16	1.6452e-05	5.2336e-06	446.18	149.99	133.29	45.303	5.7891e-06	55.664	0.00093959	0.0010424	0.00026373	1499.9	1.0575e-05	1.1412e-05	1495.1	421.63	1.0626e-05	1.1286e-05	469.66	156.29	145.53	48.25	9.9407e-06	58.906	345.867	103.076	393.125	49.622	212.279	78.494	49.381	54.305	158.453	158.723	53.715	58.205	59.106	62.796	383.296	61.936	-8191	255	
7234.018	1	1	0	0	0.11385	0.096268	0.13146	0.12194	0.16804	0.091829	0.15316	0.058934	0.062686	0.040024	0.18112	0.38839	0.23837	0.3515	0.29107	0.1552	-1.7583	-2.5708	-2.4604	-2.2062	-2.8625	-2.1833	-2.6688	-2.8917	-2.1833	-2.6063	-2.6375	-2.1083	-2.8625	-2.3104	-2.1146	-2.9354	193.859	316.653	105.360	242.943	293.248	394.738	71.756	204.165	105.288	237.196	38.172	383.341	75.605	379.107	135.444	321.838	0.0020707	0.0008445	0.00020144	1455.1	1.9082e-05	2.7133e-06	1452.6	406.21	1.2357e-05	6.9201e-06	446.56	149.88	133.71	45.338	8.3025e-06	55.69	0.0010128	0.0010024	0.00025784	1500.5	1.1166e-05	1.1059e-05	1494.7	422.23	1.1366e-05	1.0651e-05	469.17	156.63	146.98	48.136	9.7009e-06	59.163	365.605	370.091	65.611	49.568	184.472	368.873	49.379	54.442	148.192	223.444	53.774	58.378	58.981	63.106	388.220	62.281	-8191	255	
7234.113	1	1	0	0	0.042065	0.22188	0.19404	0.34104	0.30469	0.20987	0.35478	0.2726	0.22304	0.13388	0.016109	0.13402	0.084849	0.30544	0.074278	0.17949	-1.7625	-2.5271	-2.65	-2.3625	-2.6729	-2.2875	-2.4292	-2.9437	-2.0563	-2.45	-2.6604	-2.3479	-2.725	-2.6042	-2.2521	-2.9729	307.583	203.388	345.296	363.612	108.850	59.482	343.803	295.156	125.268	47.786	211.676	374.877	383.456	370.378	294.860	134.530	0.0016705	0.00028026	0.00024663	1460	1.0478e-05	4.4766e-06	1449.9	407.44	5.27e-06	2.6638e-06	446.84	149.99	132.05	45.215	7.8564e-06	55.584	0.0010541	0.00095351	0.00025406	1505.2	1.1509e-05	1.0636e-05	1490.8	423.78	1.1561e-05	1.0271e-05	468.66	157.17	146.52	48.054	9.4956e-06	59.391	360.414	79.464	118.691	49.685	180.749	71.662	49.317	54.462	139.575	145.126	54.108	58.398	59.073	62.974	231.338	62.369	-8191	255	
7234.209	1	1	0	0	0.089021	0.075314	0.20236	0.19026	0.073416	0.068121	0.18131	0.31182	0.0922	0.18306	0.13032	0.22856	0.048306	0.15669	0.30361	0.10898	-1.8354	-2.2229	-2.825	-2.2521	-2.7562	-2.7542	-2.4646	-3.0375	-2.3479	-2.425	-2.8083	-2.1104	-2.5729	-2.7729	-2.1854	-2.7396	359.036	165.630	346.425	331.163	57.413	74.395	306.891	275.136	229.370	394.320	71.830	172.328	356.858	319.411	43.072	214.015	0.0014718	0.00027616	0.0001953	1453.5	6.2939e-06	2.6638e-06	1448.3	408.82	1.1969e-05	4.7952e-06	446.44	149.82	133.44	45.407	9.0785e-06	55.994	0.0010467	0.00092396	0.00024861	1507.3	1.114e-05	1.034e-05	1490.9	425.44	1.1268e-05	9.8523e-06	468.33	158.11	145.22	47.947	9.5178e-06	59.745	348.431	51.345	220.717	49.638	162.940	159.730	49.431	54.329	200.262	259.131	53.521	58.234	58.943	63.022	209.963	62.096	-8191	255	
7234.330	1	1	0	0	0.17797	0.1616	0.08071	0.30859	0.18421	0.12783	0.1712	0.22042	0.13136	0.17033	0.097587	0.030178	0.22335	0.15503	0.07047	0.10048	-1.9562	-2.1604	-2.7292	-2.3354	-2.5312	-2.725	-2.3542	-3.0292	-2.3771	-2.3083	-2.8	-2.1021	-2.4583	-2.6312	-1.9458	-2.7958	387.090	192.836	282.650	395.810	305.851	104.863	387.301	330.913	172.167	315.551	102.363	130.219	290.537	148.526	358.135	51.710	0.0017332	0.00065216	0.00013068	1457.8	1.8642e-06	4.2518e-06	1448.1	406.94	6.5287e-06	1.219e-06	447.9	150.19	132.4	45.31	9.7626e-06	55.807	0.00099672	0.00088953	0.00025001	1510.5	1.0456e-05	9.9544e-06	1493.5	425.43	1.0678e-05	9.5472e-06	469.78	158.67	143.87	47.891	1.0121e-05	59.682	355.431	115.759	105.558	49.567	106.095	133.162	49.380	54.500	65.928	373.849	53.653	58.291	58.643	63.120	199.671	62.055	-8191	255	
7234.401	1	1	0	0	0.091868	0.33171	0.10438	0.49266	0.14548	0.028845	0.34974	0.014831	0.045737	0.23205	0.3439	0.078767	0.13652	0.3928	0.14999	0.38838	-1.8083	-2.0625	-2.8646	-2.5521	-2.5021	-2.8187	-2.3042	-2.9479	-2.4708	-2.2438	-2.9375	-2.5292	-2.5208	-2.8958	-2.0563	-2.8688	57.586	299.142	238.058	376.894	55.972	231.384	370.516	266.169	77.148	327.298	315.441	296.771	131.676	48.175	146.072	376.761	0.0016464	0.00021182	0.00040164	1458.6	6.5132e-06	6.486e-06	1451.3	406.76	7.8177e-06	1.1055e-05	449.3	149.57	132.82	45.472	8.5808e-06	55.805	0.00094341	0.00085785	0.00026433	1510.9	9.87e-06	9.7109e-06	1496.8	425.2	1.0076e-05	9.3204e-06	471.3	158.04	142.21	47.783	1.0834e-05	59.359	363.392	230.016	106.724	49.561	200.820	79.359	49.482	54.533	284.659	145.711	53.780	58.086	58.895	63.071	209.871	62.074	-8191	255	
7234.498	1	1	0	0	0.13459	0.14849	0.057781	0.19246	0.055157	0.27138	0.11929	0.22034	0.16514	0.082089	0.13871	0.24437	0.077575	0.05881	0.0093146	0.16577	-2.275	-2.1521	-2.8438	-2.4167	-2.4104	-2.7521	-2.3708	-2.7771	-2.6667	-1.9854	-2.9354	-2.475	-2.2771	-2.9854	-2.1896	-2.5146	363.629	298.044	385.220	380.482	146.663	279.662	90.953	322.371	365.113	133.477	302.688	359.653	217.488	157.408	245.892	382.291	0.0016732	0.0013336	0.00028502	1453.7	3.61e-06	1.1489e-05	1452	406.19	4.9273e-06	9.1999e-06	446.37	150.09	133.17	45.383	1.6188e-06	55.722	0.00091933	0.00085305	0.00027867	1508.2	9.6799e-06	9.725e-06	1498	423.64	9.9245e-06	9.5143e-06	473	157.58	141.85	47.899	1.1282e-05	59.15	366.057	182.362	187.631	49.542	217.074	171.255	49.390	54.326	211.780	177.052	53.745	58.305	58.843	63.026	190.454	62.083	-8191	255	
7234.618	1	1	0	0	0.12767	0.2013	0.21241	0.1841	0.10581	0.074928	0.1176	0.18371	0.057935	0.29835	0.21849	0.25208	0.14966	0.21325	0.29068	0.059991	-2.1958	-2.1667	-2.9458	-2.5854	-2.3646	-2.8583	-2.5271	-2.5312	-2.675	-2.0687	-2.8958	-2.6813	-2.3146	-2.8458	-2.2854	-2.5104	126.695	374.006	138.604	331.187	222.392	239.229	316.577	297.854	392.745	65.743	326.872	71.180	338.321	100.113	322.337	281.553	0.0014988	0.0011992	0.00041201	1453.4	8.8929e-06	7.0201e-06	1449.4	405.95	6.118e-06	9.2981e-06	445.98	149.58	133.77	45.421	2.5808e-06	55.754	0.00089165	0.00089418	0.00028419	1503.1	9.3729e-06	1.0113e-05	1498.6	421.96	9.6501e-06	1.0114e-05	472.24	156.94	141.26	48.025	1.104e-05	58.871	356.658	99.868	63.601	49.598	140.078	168.700	49.364	54.237	37.681	183.276	53.705	58.399	58.799	63.125	108.223	62.286	-8191	255	
7234.714	1	1	0	0	0.12729	0.11459	0.13906	0.26283	0.11431	0.35064	0.13052	0.3064	0.22943	0.1291	0.21566	0.23736	0.21994	0.059515	0.2138	0.45413	-2.4583	-2.2167	-2.6437	-2.8875	-2.2042	-2.825	-2.3708	-2.4396	-2.7938	-2.1437	-2.6188	-2.7167	-2.0042	-2.9896	-2.2792	-2.2354	114.760	354.287	297.345	59.929	229.322	148.932	66.590	314.467	352.670	329.231	217.878	132.475	249.349	156.284	120.398	338.944	0.0016427	0.0007945	0.00031256	1449.8	1.4254e-05	6.1388e-06	1450.7	405.63	2.1904e-06	3.6084e-06	444.51	149.28	133.28	45.341	7.3476e-06	55.623	0.00086701	0.00094967	0.00027333	1498.3	9.1305e-06	1.0672e-05	1495	420.7	9.3419e-06	1.0568e-05	469.23	156.1	140.47	48.064	1.0338e-05	58.536	363.121	122.933	150.247	49.551	178.615	206.431	49.406	54.262	122.220	39.910	53.489	58.462	58.802	62.904	163.594	61.930	-8191	255	
7234.810	1	1	0	0	0.097374	0.06403	0.14896	0.2542	0.2944	0.019569	0.18509	0.19828	0.24687	0.20229	0.19987	0.33544	0.35806	0.27616	0.20398	0.091122	-2.4437	-2.3042	-2.4521	-2.6479	-2.1833	-2.8458	-2.6208	-2.375	-2.9083	-2.05	-2.625	-2.8042	-2.1063	-2.7938	-2.4771	-2.3542	156.941	83.322	355.848	109.251	122.496	391.856	356.852	388.428	53.661	104.009	383.390	394.675	182.651	91.257	326.908	305.115	0.001829	0.00089819	7.8724e-05	1448.7	1.2974e-05	6.2008e-06	1448	405.08	1.1019e-05	1.0315e-05	445.6	149.23	132.76	45.245	1.1745e-05	55.714	0.00085144	0.00098105	0.00025469	1496	9.2411e-06	1.079e-05	1489.9	419.4	9.4259e-06	1.0742e-05	467.01	155.47	141.3	48.069	9.7915e-06	58.395	339.267	140.209	152.113	49.715	209.161	135.975	49.470	54.245	165.960	190.423	53.618	58.139	59.219	63.221	79.199	61.918	-8191	255	
7234.929	1	1	0	0	0.25624	0.27867	0.05593	0.13903	0.065089	0.26257	0.17281	0.37226	0.12184	0.056972	0.14442	0.20653	0.23347	0.23658	0.10216	0.094761	-2.3792	-2.0333	-2.4771	-2.9479	-2.0958	-2.7667	-2.7917	-2.1542	-2.9792	-2.4104	-2.5125	-2.8354	-2.1833	-2.7625	-2.5396	-2.1813	275.186	310.144	120.536	39.495	56.294	214.784	64.908	355.757	57.017	218.744	336.364	73.627	80.163	75.373	339.369	255.615	0.0018204	0.00070499	0.00027532	1451.5	1.2247e-05	7.9714e-06	1447.1	404.72	1.1232e-05	7.3613e-06	444.76	148.98	133.34	45.244	1.1589e-06	55.634	0.00089107	0.00097906	0.00024063	1493.8	9.7811e-06	1.0584e-05	1486	418.4	1.0026e-05	1.0465e-05	464.96	155.31	143.07	47.937	9.4842e-06	58.365	354.222	328.088	379.948	49.445	198.558	91.972	49.407	54.268	172.821	185.017	53.752	58.422	58.805	62.889	104.645	62.433	-8191	255	
7235.001	1	1	0	0	0.1811	0.049646	0.20193	0.13549	0.28472	0.24527	0.12292	0.1661	0.039948	0.1513	0.26898	0.07924	0.1012	0.058459	0.11171	0.075497	-2.3854	-2.2687	-2.1146	-2.9875	-2.0438	-2.5542	-2.7687	-2.2438	-2.875	-2.3438	-2.5563	-2.9542	-2.2896	-2.6604	-2.6271	-2.3542	130.961	54.078	365.479	381.976	74.719	282.905	355.917	284.857	227.999	99.064	362.125	380.168	269.284	361.810	277.872	309.559	0.0015672	0.00049619	5.5034e-05	1458.1	1.4916e-05	3.3116e-06	1453	403.74	8.9251e-06	3.5269e-06	446.04	149.51	132.62	45.153	3.1796e-06	55.588	0.00094504	0.00094493	0.00023213	1496.1	1.0344e-05	1.0066e-05	1488.6	418.56	1.0505e-05	1.0042e-05	464.28	155.48	144.01	47.695	9.1164e-06	58.524	359.450	381.353	255.255	49.864	195.925	107.926	49.417	54.299	201.321	321.851	53.613	58.468	59.054	63.174	196.669	62.329	-8191	255	
7235.097	1	1	0	0	0.16899	0.3128	0.17277	0.23803	0.18961	0.25474	0.44652	0.070924	0.1718	0.10145	0.31341	0.12274	0.099962	0.090838	0.16923	0.19238	-2.5208	-2.4354	-2.1896	-2.9562	-2.1104	-2.5208	-2.9	-2.1937	-2.6854	-2.4813	-2.2917	-3.1333	-2.1583	-2.5458	-2.7687	-2.125	178.965	206.044	279.309	367.767	58.765	59.545	275.565	154.583	94.638	325.942	395.573	84.244	160.721	48.581	52.868	233.791	0.0017292	0.00069505	2.6035e-05	1449.1	1.4831e-05	4.6364e-06	1445.4	404.93	8.7473e-06	3.1883e-06	446.47	148.29	133.18	45.122	2.459e-06	55.497	0.00096706	0.00089263	0.00022492	1494.1	1.0553e-05	9.4023e-06	1484.5	419.52	1.0476e-05	9.5067e-06	463.55	155.91	144.04	47.528	8.8925e-06	58.723	354.125	361.338	168.378	49.633	154.660	45.511	49.486	54.226	117.992	336.087	53.663	58.337	59.027	63.117	275.904	62.387	-8191	255	
7235.193	1	1	0	0	0.15526	0.053349	0.086295	0.042439	0.24469	0.037923	0.18419	0.11478	0.31649	0.19555	0.061863	0.082877	0.12412	0.27964	0.1866	0.1383	-2.2667	-2.4688	-2.1188	-2.9896	-2.4083	-2.2958	-3.0354	-2.2208	-2.6646	-2.6875	-2.2417	-2.9146	-2.2458	-2.5146	-2.7229	-2.35	172.723	182.476	342.478	281.868	211.088	129.232	198.377	319.526	69.841	133.431	363.919	322.586	288.902	295.857	104.936	383.461	0.0015075	0.00023432	0.00021622	1445.8	8.7176e-06	1.6156e-06	1446	404.88	8.3329e-06	1.1117e-06	445.26	149.94	133.17	45.182	1.294e-05	55.629	0.00093789	0.00085372	0.00021998	1496.6	1.0195e-05	9.0603e-06	1482.6	420.78	9.9733e-06	9.1968e-06	461.98	156.89	142.62	47.457	8.8671e-06	58.9	354.871	349.191	126.945	49.648	115.714	81.255	49.479	54.414	174.569	265.775	53.608	58.178	58.781	63.118	226.814	62.114	-8191	255	
7235.289	1	1	0	0	0.16236	0.1671	0.094483	0.15704	0.20735	0.095785	0.27755	0.065646	0.28209	0.21076	0.096443	0.32489	0.031525	0.18058	0.27283	0.11984	-2.3208	-2.5917	-2.0104	-3.0646	-2.1375	-2.1146	-2.9229	-2.3563	-2.5729	-2.6437	-2.275	-2.8333	-2.5125	-2.3438	-2.8958	-2.2521	306.683	141.849	328.399	324.510	243.877	317.765	324.007	374.969	247.369	164.652	94.240	393.110	328.952	361.655	226.630	356.695	0.0014102	0.00063283	0.00024639	1451.5	9.0079e-06	4.3973e-06	1450.7	404.61	3.8518e-06	2.1996e-06	444.96	149.64	132.81	45.378	3.1659e-06	55.583	0.00088272	0.00083052	0.00022069	1499.6	9.5918e-06	8.7253e-06	1484.8	421.33	9.2599e-06	8.9282e-06	463.17	156.93	141.46	47.38	9.1985e-06	58.913	345.172	99.588	91.957	49.584	231.246	168.035	49.641	54.304	93.009	94.858	53.735	58.146	59.018	62.922	231.703	62.162	-8191	255	
7235.410	1	1	0	0	0.23614	0.1979	0.037593	0.23919	0.2221	0.18164	0.10745	0.17327	0.16103	0.16041	0.13977	0.26009	0.072869	0.019876	0.33275	0.10388	-1.9708	-2.5583	-2.0396	-2.8792	-2.4417	-2.2792	-3.0187	-2.5521	-2.5667	-2.8625	-2.2604	-2.6667	-2.5062	-2.2958	-2.7125	-2.3479	295.431	186.443	168.244	47.492	338.693	201.918	42.232	356.491	313.705	348.438	136.471	225.852	279.144	66.164	145.346	363.360	0.0015741	0.00072417	0.00011159	1450	5.1581e-06	1.7037e-06	1443.3	405	2.1863e-06	4.1209e-06	444.02	149.51	132.63	45.282	1.0464e-05	55.529	0.00082551	0.0007912	0.00023578	1497	9.1551e-06	8.4529e-06	1484.2	421.03	8.9465e-06	8.6504e-06	465.05	156.39	140.71	47.308	9.7981e-06	58.756	351.573	39.739	94.333	49.598	204.148	162.583	49.413	54.365	378.638	167.512	53.736	58.495	59.192	63.026	233.322	62.236	-8191	255	
7235.506	1	1	0	0	0.027409	0.17791	0.12763	0.029412	0.041628	0.13729	0.23231	0.27009	0.014616	0.094273	0.10311	0.096253	0.17539	0.32486	0.13201	0.044435	-1.8958	-2.7375	-2.1146	-2.7479	-2.4208	-2.2	-3.0687	-2.5208	-2.3583	-2.925	-2.3438	-2.5312	-2.6292	-2.1083	-2.8479	-2.5771	121.291	153.475	373.471	231.369	184.531	90.103	358.778	352.168	288.747	208.895	370.848	292.906	346.936	343.514	200.554	346.301	0.0016812	0.00048506	0.00040934	1447.8	8.8724e-06	8.643e-06	1444.2	405.19	1.1739e-05	1.5964e-06	444.53	149.08	133.74	45.223	1.2342e-05	55.507	0.00080583	0.00079119	0.00025121	1495.6	8.8986e-06	8.4574e-06	1487.5	419.54	8.5667e-06	8.6794e-06	466.17	155.58	139.95	47.336	1.0061e-05	58.488	358.438	74.695	75.223	49.451	141.968	215.516	49.460	54.202	191.636	246.069	53.580	57.976	59.394	62.950	203.541	61.988	-8191	255	
7235.578	1	1	0	0	0.10437	0.092014	0.10123	0.09259	0.2191	0.26125	0.015784	0.24415	0.1135	0.17958	0.13793	0.090354	0.15993	0.2275	0.02733	0.22136	-1.8146	-2.625	-2.2833	-2.5812	-2.8083	-2.1417	-3.0812	-2.5083	-2.1875	-2.7417	-2.3438	-2.5625	-2.8312	-2.3917	-2.6333	-2.6063	303.253	174.438	133.056	365.881	256.053	60.665	325.687	267.582	333.482	279.916	315.917	71.389	246.503	60.543	354.966	254.016	0.0013983	0.00050378	0.00019013	1450.2	2.3005e-06	1.4999e-06	1446.7	404.64	7.6504e-06	6.4631e-06	445.5	149.1	131.83	45.234	4.9338e-06	55.494	0.00078132	0.00081248	0.00025832	1491.1	8.6705e-06	8.9741e-06	1488.1	417.77	8.357e-06	9.1964e-06	467	155.14	138.96	47.485	9.9021e-06	58.311	368.108	53.467	85.018	49.471	207.772	120.398	49.475	54.351	224.647	196.181	53.674	58.184	59.268	63.052	155.178	62.056	-8191	255	
7235.699	1	1	0	0	0.10446	0.050406	0.14649	0.16552	0.138	0.084745	0.37645	0.35807	0.057932	0.28957	0.19548	0.10443	0.073795	0.18861	0.11728	0.049509	-1.5812	-2.8396	-2.125	-2.6167	-2.7833	-2.15	-2.9562	-2.5979	-2.0563	-2.7938	-2.4958	-2.3583	-2.6312	-2.2604	-2.6229	-3.0812	266.363	243.289	103.070	327.581	285.797	36.764	321.576	354.809	78.037	340.479	81.780	349.393	72.091	133.520	84.870	113.263	0.0015339	0.0013187	0.00015515	1448.8	4.399e-06	5.4287e-06	1447.5	403.43	1.1498e-05	1.1919e-05	443.22	149.07	132.27	45.124	3.7819e-06	55.512	0.0007653	0.0008648	0.00025314	1487.8	8.5861e-06	9.6668e-06	1486.1	417.35	8.3143e-06	9.8211e-06	465.25	154.84	139.32	47.704	9.4332e-06	58.259	352.377	126.115	93.830	49.471	193.388	210.472	49.296	54.345	184.843	191.269	53.842	58.191	59.369	63.074	354.547	61.947	-8191	255	
7235.795	1	1	0	0	0.08033	0.17469	0.12518	0.19884	0.19063	0.14256	0.38059	0.19235	0.089912	0.11579	0.072497	0.3048	0.09417	0.040336	0.29912	0.19172	-1.7687	-2.8583	-2.2292	-2.3646	-2.6958	-2.1271	-2.8396	-2.7021	-2.2458	-2.7125	-2.5708	-2.2833	-2.9396	-2.3229	-2.6188	-2.7438	390.744	277.094	257.740	63.427	48.356	107.166	301.645	384.622	209.971	295.518	113.649	39.539	216.554	358.415	183.799	224.656	0.0015694	0.0011865	0.00020451	1447.1	1.0543e-05	6.5366e-06	1440.2	404.39	4.459e-06	3.1416e-06	441.72	148.98	133.31	45.296	5.1488e-06	55.406	0.00077342	0.00091263	0.00024084	1487.9	8.7553e-06	1.0045e-05	1479.5	417.4	8.7025e-06	1.0056e-05	462.9	154.58	140.42	47.783	8.8574e-06	58.105	368.692	96.765	123.356	49.696	157.056	162.729	49.414	54.179	197.737	195.498	53.743	58.144	58.896	63.219	166.165	61.985	-8191	255	
7235.891	1	1	0	0	0.17158	0.11178	0.21521	0.084287	0.06078	0.36804	0.30015	0.25318	0.048333	0.15092	0.071407	0.19576	0.15615	0.10763	0.32319	0.1491	-1.4417	-2.8396	-2.2875	-2.3917	-2.8187	-2.1125	-2.6417	-2.8312	-2.2604	-2.6854	-2.6292	-2.3583	-2.8417	-2.4042	-2.2625	-2.8479	207.424	75.771	57.828	63.614	205.361	315.750	293.329	312.087	303.591	93.625	44.045	395.650	83.850	198.486	204.027	314.263	0.0015489	0.00032991	0.00017423	1449	1.5512e-05	1.9276e-06	1444.1	404.03	1.3086e-05	1.8795e-06	444.59	148.88	132.86	45.417	2.9395e-06	55.595	0.00082465	0.00090015	0.00023018	1488	9.2092e-06	1.0027e-05	1481.8	416.8	9.3706e-06	9.7728e-06	462.5	154.36	141.9	47.641	8.5925e-06	58.177	367.875	62.639	174.349	49.555	203.028	378.614	49.387	54.501	173.070	92.712	53.603	58.119	58.948	63.029	276.633	62.526	-8191	255	
7236.011	1	1	0	0	0.12194	0.14027	0.14381	0.076179	0.30539	0.24702	0.14083	0.27178	0.22099	0.082691	0.15996	0.19754	0.24242	0.39337	0.24049	0.1231	-1.6812	-2.5542	-2.6083	-2.2812	-2.8563	-2.2833	-2.4792	-3.0167	-2.0958	-2.7083	-2.5917	-2.2292	-2.8958	-2.5	-2.1792	-2.8312	248.734	384.801	244.836	345.273	338.199	349.755	255.424	302.549	68.701	293.631	66.720	392.378	57.498	323.023	156.011	270.546	0.0019612	0.00053062	6.4626e-05	1446.3	9.3851e-06	7.9343e-06	1445.5	404.1	1.5187e-05	1.2467e-06	443.76	148.6	133.07	45.121	5.1676e-06	55.568	0.00087942	0.00087427	0.00022358	1484.2	9.7551e-06	9.5595e-06	1478.2	417.11	9.8983e-06	9.2212e-06	461.48	154.46	142.45	47.503	8.3844e-06	58.324	364.837	357.058	335.656	49.517	150.486	143.317	49.441	54.592	162.967	207.072	53.820	58.234	59.224	63.000	319.590	62.120	-8191	255	
7236.106	1	1	0	0	0.15566	0.016782	0.025369	0.26031	0.098538	0.11877	0.18351	0.11727	0.25825	0.14758	0.16278	0.20027	0.05255	0.23133	0.024573	0.098174	-1.7062	-2.6021	-2.5396	-2.2417	-2.6229	-2.2458	-2.375	-2.8771	-2.0021	-2.4771	-2.8104	-2.0521	-2.6437	-2.4875	-2.1146	-2.8479	285.518	322.707	304.647	357.505	267.314	362.410	305.805	366.929	101.263	68.090	287.731	76.770	369.759	148.655	244.280	82.686	0.0017562	0.00048596	0.00016131	1448.5	1.662e-05	2.1819e-06	1447	405.02	1.1557e-05	1.6853e-06	444.52	149.64	132.28	45.286	1.272e-06	55.616	0.00091526	0.0008246	0.00021931	1489.2	9.9615e-06	9.1802e-06	1477.9	418.36	1.0086e-05	8.9401e-06	461.57	155.44	142.43	47.473	8.3163e-06	58.72	357.102	332.358	81.567	49.374	174.878	170.110	49.160	54.318	156.084	131.427	53.630	58.170	59.416	63.027	207.486	62.193	-8191	255	
7236.202	1	1	0	0	0.09654	0.23326	0.08729	0.17467	0.18024	0.25053	0.3412	0.20299	0.1886	0.1616	0.21301	0.090681	0.10417	0.15084	0.1344	0.35885	-1.6771	-2.4938	-2.5208	-2.3312	-2.4813	-2.6208	-2.3958	-3.1271	-2.1354	-2.4	-2.9667	-2.2771	-2.6479	-2.7021	-2.0521	-2.8042	179.997	332.719	110.293	301.148	154.306	60.003	391.834	48.532	386.538	181.415	329.978	191.300	330.318	368.298	316.504	303.844	0.0014086	0.00043398	8.1039e-05	1446.2	9.7853e-06	2.7204e-06	1444.2	405.88	4.8271e-06	4.9829e-06	442.91	149.53	131.65	45.012	1.6409e-06	55.893	0.00092274	0.00081494	0.00021971	1492.8	9.8477e-06	9.13e-06	1479.6	420.62	9.9624e-06	8.8639e-06	461.47	156.45	141.63	47.401	8.6054e-06	58.973	349.707	335.310	292.719	49.512	109.904	362.498	49.370	54.439	238.123	94.422	53.676	58.406	58.963	63.224	220.300	62.119	-8191	255	
7236.298	1	1	0	0	0.075402	0.099127	0.15684	0.53348	0.31004	0.26558	0.13456	0.27592	0.22957	0.10767	0.080215	0.047447	0.17859	0.16139	0.22068	0.13469	-1.9167	-2.1667	-2.8979	-2.4083	-2.4125	-2.5708	-2.3375	-2.7625	-2.1729	-2.3167	-2.9417	-2.2812	-2.5	-2.7479	-2.1458	-2.8167	144.459	131.510	237.586	339.239	195.507	94.430	299.734	322.412	176.018	379.083	147.019	190.435	94.354	378.532	71.279	358.553	0.0015978	0.00012081	7.1826e-05	1454	2.5331e-06	1.8853e-06	1445	404.94	4.1046e-06	2.1312e-06	444.55	149.66	133.31	45.197	5.3013e-06	55.442	0.00089395	0.00080316	0.00022645	1496.8	9.4711e-06	8.9889e-06	1481.9	421.63	9.5701e-06	8.6637e-06	463.83	156.66	141.07	47.359	9.2575e-06	59.025	342.802	355.241	196.707	49.575	86.936	371.896	49.388	54.410	81.112	147.444	54.011	58.114	58.859	63.076	203.796	62.001	-8191	255	
7236.394	1	1	0	0	0.072081	0.15263	0.061531	0.42436	0.1068	0.10268	0.11275	0.26349	0.1527	0.20056	0.12083	0.13787	0.14289	0.25689	0.29535	0.062629	-2.0646	-2.1729	-2.55	-2.3625	-2.4042	-2.7708	-2.4313	-2.7417	-2.4583	-2.1896	-2.9062	-2.2479	-2.3542	-2.6875	-2.0083	-2.5667	339.556	138.778	103.109	346.976	173.513	343.528	322.731	330.176	184.070	384.558	283.598	65.013	326.239	113.871	60.469	214.886	0.0012319	0.0007673	0.0001964	1446.8	5.7656e-06	1.023e-05	1442.8	404.33	8.7434e-06	2.4081e-06	445.73	149.3	132.94	45.143	1.4297e-05	55.351	0.00085513	0.00078987	0.00024402	1496.5	9.1578e-06	8.8054e-06	1485.2	420.79	9.4107e-06	8.635e-06	466.66	156.75	140.38	47.365	1.0077e-05	58.874	352.366	95.081	112.003	49.747	276.744	131.473	49.305	54.486	158.954	138.510	53.807	58.119	58.931	63.031	180.655	62.219	-8191	255	
7236.490	1	1	0	0	0.18971	0.12548	0.043945	0.085975	0.083216	0.096555	0.2513	0.39847	0.22319	0.24116	0.19994	0.070792	0.27876	0.20679	0.19512	0.10224	-2.2812	-2.2	-2.875	-2.4417	-2.2917	-2.7583	-2.3438	-2.8417	-2.7708	-2.2979	-2.9313	-2.5125	-2.3104	-2.9688	-2.1729	-2.5917	159.243	377.462	172.268	209.999	376.208	259.212	336.520	360.305	240.278	173.368	365.825	371.289	89.237	338.566	161.372	219.119	0.0012392	0.00078363	0.00039039	1442.8	3.7179e-06	5.0304e-06	1446.4	403.23	6.9227e-06	9.3554e-06	446.13	148.43	132.48	45.153	1.0607e-05	55.345	0.00085471	0.00079386	0.00026031	1494.1	9.0158e-06	9.058e-06	1487.6	419.36	9.298e-06	8.9905e-06	468.33	155.86	140	47.457	1.0616e-05	58.61	346.047	87.593	150.274	49.719	151.246	273.185	49.258	54.173	116.144	202.260	53.671	58.435	58.721	63.096	211.954	62.131	-8191	255	
7236.587	1	1	0	0	0.12295	0.033656	0.18858	0.29354	0.18175	0.093418	0.24108	0.20223	0.12576	0.13643	0.25632	0.25649	0.12676	0.17979	0.24924	0.28274	-2.2875	-2.2708	-2.8271	-2.75	-2.3792	-2.7687	-2.5687	-2.7687	-2.9229	-2.2292	-2.9167	-2.7083	-2.4667	-3.0583	-2.4396	-2.5979	178.576	199.967	195.790	384.759	154.237	302.117	369.011	287.639	211.748	341.784	149.694	388.863	41.164	49.522	41.572	341.708	0.0016229	0.00098093	5.8428e-05	1445.1	1.0568e-05	3.644e-06	1440.1	405.46	8.6613e-06	7.8208e-06	443.89	148.7	132.34	45.236	9.3075e-06	55.623	0.00084228	0.00084688	0.00027052	1492.1	8.8901e-06	9.6587e-06	1487.5	419.96	9.1326e-06	9.7048e-06	467.75	155.79	139.44	47.664	1.0493e-05	58.59	374.006	96.020	203.703	49.740	150.192	96.718	49.248	54.201	141.269	167.544	53.521	58.226	58.904	63.140	121.251	61.933	-8191	255	
7236.707	1	1	0	0	0.35506	0.10484	0.33377	0.14385	0.077251	0.23349	0.094157	0.12126	0.19873	0.17428	0.20876	0.052798	0.18916	0.22506	0.14178	0.36186	-2.3958	-2.1479	-2.6521	-2.7896	-1.8896	-2.8417	-2.6521	-2.6458	-2.7979	-2.3042	-2.75	-2.8958	-2.2917	-3.0833	-2.4104	-2.5667	43.569	386.148	51.508	316.452	59.034	141.926	273.250	333.257	133.725	53.396	368.224	81.572	305.282	79.073	211.639	367.865	0.0013014	0.00051689	0.00019675	1443.5	1.6173e-06	8.1394e-06	1440.4	402.54	1.439e-05	9.9515e-06	443.64	148.63	132.96	45.166	2.4227e-06	55.638	0.00082882	0.00090956	0.00026187	1488	8.8649e-06	1.0291e-05	1486.1	418.2	9.083e-06	1.0315e-05	466.6	155.39	139.88	47.961	1.0172e-05	58.482	362.301	157.164	324.657	49.802	45.767	169.284	49.316	54.242	136.716	184.595	53.896	58.467	59.412	62.731	145.827	62.176	-8191	255	
7236.803	1	1	0	0	0.13016	0.16903	0.18112	0.44519	0.082855	0.037725	0.067337	0.059533	0.088723	0.060697	0.063762	0.30055	0.10192	0.14137	0.036497	0.38576	-2.5375	-2.2229	-2.6021	-2.8979	-2.25	-3.0938	-2.7875	-2.5375	-2.9854	-2.3271	-2.7812	-2.7854	-2.1396	-3.0208	-2.4792	-2.4292	111.909	110.263	297.064	315.468	90.499	111.627	164.555	383.226	64.470	180.083	65.643	82.201	264.911	242.607	349.171	371.072	0.0018529	0.00096512	2.3242e-05	1450.2	8.8902e-06	1.2056e-05	1440.6	405.3	1.6621e-05	5.4357e-06	444.36	149.15	132.27	45.25	4.9668e-06	55.357	0.00084664	0.00097109	0.00025048	1491.3	9.1542e-06	1.0751e-05	1484.9	418.27	9.4551e-06	1.0713e-05	465.25	155.21	141.07	48.005	9.6829e-06	58.288	364.453	100.098	284.728	49.689	159.395	186.520	49.323	54.104	177.859	374.501	53.808	58.240	58.901	63.153	141.251	62.143	-8191	255	
7236.875	1	1	0	0	0.10921	0.15161	0.03433	0.5314	0.24447	0.1082	0.10111	0.15562	0.23181	0.062468	0.1877	0.31214	0.15277	0.21307	0.12227	0.1929	-2.5812	-2.2042	-2.3708	-2.8583	-2.0604	-2.6188	-2.8187	-2.3896	-2.9292	-2.0917	-2.6292	-2.9625	-2.2	-2.8208	-2.4417	-2.3208	292.177	340.477	205.285	361.429	252.102	48.243	373.104	338.020	386.763	307.008	51.897	338.936	326.504	59.644	222.028	380.017	0.001535	0.0013323	6.417e-05	1441.7	1.2801e-05	5.3391e-06	1446.2	403.23	1.4379e-05	8.0864e-06	442.23	149.36	132.87	45.25	5.4454e-07	55.48	0.0008892	0.0009741	0.00023899	1487	9.7331e-06	1.0588e-05	1481.4	416.77	1.0075e-05	1.0452e-05	463.73	155.19	142.53	47.879	9.4149e-06	58.239	358.886	123.897	377.822	49.696	183.071	82.756	49.494	54.237	177.464	142.256	53.579	58.159	59.533	63.030	220.250	62.212	-8191	255	
7236.971	1	1	0	0	0.23272	0.12961	0.10654	0.17342	0.084116	0.25308	0.16273	0.12115	0.13516	0.3435	0.064702	0.18076	0.17105	0.091639	0.2317	0.1658	-2.5208	-2.2354	-2.0042	-2.9146	-2.0021	-2.6208	-2.9458	-2.3	-2.8854	-2.4333	-2.2958	-2.875	-2.0646	-2.6021	-2.6958	-2.1625	385.600	330.667	374.647	374.556	84.797	159.674	359.603	110.030	381.042	79.461	42.406	345.812	53.325	121.044	384.940	66.192	0.0017883	0.00059111	0.00016367	1446.9	1.3067e-05	7.5548e-06	1446.4	404.27	3.7568e-06	5.6357e-06	443.46	148.93	133.09	45.192	4.4535e-06	55.698	0.00093491	0.00092917	0.00022968	1487.6	1.0205e-05	9.8313e-06	1481.1	416.59	1.0332e-05	9.8692e-06	461.88	155.16	143.23	47.548	9.0092e-06	58.326	363.812	146.444	90.881	49.667	182.732	389.197	49.642	54.476	130.807	174.801	53.391	58.377	59.291	63.102	207.552	62.389	-8191	255	
7237.090	1	1	0	0	0.17195	0.24074	0.17908	0.17146	0.044196	0.23826	0.35426	0.28602	0.14464	0.12785	0.071662	0.13138	0.29169	0.078132	0.34501	0.20725	-2.5646	-2.2438	-2.3375	-3.0854	-2.1146	-2.6125	-2.9417	-2.2521	-2.6729	-2.45	-2.15	-2.95	-2.0667	-2.5896	-2.6188	-2.075	204.372	57.879	394.361	71.690	279.758	193.836	383.285	339.169	393.447	367.899	338.036	179.573	390.604	49.776	109.313	138.851	0.0017167	0.00054185	0.00028637	1448	3.5957e-06	3.5684e-06	1436.6	404.95	3.7544e-06	2.2257e-06	444.73	148.68	132.84	45.224	9.1278e-06	55.803	0.00095334	0.00087595	0.00022109	1489.6	1.0414e-05	9.2882e-06	1475.6	418.7	1.0307e-05	9.391e-06	461.54	155.72	143.5	47.476	8.864e-06	58.631	356.452	375.832	145.924	49.766	125.243	194.482	49.600	54.478	349.160	240.429	53.691	58.472	59.675	62.839	209.475	62.072	-8191	255	
#DATA ENDS
