BOXY.EXE: ISS Imagent and Oximeter Data Acquisition Program Version 0.80
Ascii Record File

#ACQ INFORMATION
2  Detector Channels 
16  External MUX Channels 
1  Auxiliary Channels 
5000  Waveform (CCF) Frequency (Hz)
1  Waveforms Skipped 
30  Waveforms Averaged 
1  Cycles Averaged 
16  Acquisitions per Waveform 
10.0806  Updata Rate (Hz) 

#FILE INFORMATION
TRUE -- External MUX Channel results are PARSED.
FALSE -- AC DC and Phase are NOT grouped.
TRUE -- Companion Program Settings File CREATED.
FALSE -- AC data not excluded
FALSE -- DC data not excluded
FALSE -- Phase data not excluded
FALSE -- Auxillary Chn. data not excluded
Tab delimiters

#CALIBRATION STATE
TRUE -- Waveform Calibration Values APPLIED.


#AUX CALIBRATION VALUES
Val Type	aux-1	

Term	1.0000e+00	
Factor	0.0000e+00	


#WF CALIBRATION VALUES
A = Detector Channel
Val Type	A-AC1	A-AC2	A-AC3	A-AC4	A-AC5	A-AC6	A-AC7	A-AC8	A-AC9	A-AC10	A-AC11	A-AC12	A-AC13	A-AC14	A-AC15	A-AC16	A-DC1	A-DC2	A-DC3	A-DC4	A-DC5	A-DC6	A-DC7	A-DC8	A-DC9	A-DC10	A-DC11	A-DC12	A-DC13	A-DC14	A-DC15	A-DC16	A-Ph1	A-Ph2	A-Ph3	A-Ph4	A-Ph5	A-Ph6	A-Ph7	A-Ph8	A-Ph9	A-Ph10	A-Ph11	A-Ph12	A-Ph13	A-Ph14	A-Ph15	A-Ph16	

Term	0.00000e+00	0.00000e+00	0.00000e+00	0.00000e+00	0.00000e+00	0.00000e+00	0.00000e+00	0.00000e+00	0.00000e+00	0.00000e+00	0.00000e+00	0.00000e+00	0.00000e+00	0.00000e+00	0.00000e+00	0.00000e+00	0.00000e+00	0.00000e+00	0.00000e+00	0.00000e+00	0.00000e+00	0.00000e+00	0.00000e+00	0.00000e+00	0.00000e+00	0.00000e+00	0.00000e+00	0.00000e+00	0.00000e+00	0.00000e+00	0.00000e+00	0.00000e+00	0.00000e+00	0.00000e+00	0.00000e+00	0.00000e+00	0.00000e+00	0.00000e+00	0.00000e+00	0.00000e+00	0.00000e+00	0.00000e+00	0.00000e+00	0.00000e+00	0.00000e+00	0.00000e+00	0.00000e+00	0.00000e+00	
Factor	1.00000e+00	1.00000e+00	1.00000e+00	1.00000e+00	1.00000e+00	1.00000e+00	1.00000e+00	1.00000e+00	1.00000e+00	1.00000e+00	1.00000e+00	1.00000e+00	1.00000e+00	1.00000e+00	1.00000e+00	1.00000e+00	1.00000e+00	1.00000e+00	1.00000e+00	1.00000e+00	1.00000e+00	1.00000e+00	1.00000e+00	1.00000e+00	1.00000e+00	1.00000e+00	1.00000e+00	1.00000e+00	1.00000e+00	1.00000e+00	1.00000e+00	1.00000e+00	X	X	X	X	X	X	X	X	X	X	X	X	X	X	X	X	

B = Detector Channel
Val Type	B-AC1	B-AC2	B-AC3	B-AC4	B-AC5	B-AC6	B-AC7	B-AC8	B-AC9	B-AC10	B-AC11	B-AC12	B-AC13	B-AC14	B-AC15	B-AC16	B-DC1	B-DC2	B-DC3	B-DC4	B-DC5	B-DC6	B-DC7	B-DC8	B-DC9	B-DC10	B-DC11	B-DC12	B-DC13	B-DC14	B-DC15	B-DC16	B-Ph1	B-Ph2	B-Ph3	B-Ph4	B-Ph5	B-Ph6	B-Ph7	B-Ph8	B-Ph9	B-Ph10	B-Ph11	B-Ph12	B-Ph13	B-Ph14	B-Ph15	B-Ph16	

Term	0.00000e+00	0.00000e+00	0.00000e+00	0.00000e+00	0.00000e+00	0.00000e+00	0.00000e+00	0.00000e+00	0.00000e+00	0.00000e+00	0.00000e+00	0.00000e+00	0.00000e+00	0.00000e+00	0.00000e+00	0.00000e+00	0.00000e+00	0.00000e+00	0.00000e+00	0.00000e+00	0.00000e+00	0.00000e+00	0.00000e+00	0.00000e+00	0.00000e+00	0.00000e+00	0.00000e+00	0.00000e+00	0.00000e+00	0.00000e+00	0.00000e+00	0.00000e+00	-2.63813e+02	-1.35610e+02	-1.20718e+02	-1.83142e+02	-1.03639e+02	-7.76492e+01	-1.58739e+02	-1.62015e+02	-6.67048e+01	-5.05097e+01	-1.74416e+02	-1.69969e+02	-1.82317e+02	-1.77446e+02	-7.21603e+01	-1.50100e+02	
Factor	6.34764e-05	1.25928e-04	3.90822e-05	1.62229e-01	1.76456e-06	1.41241e-06	1.55923e-01	5.22478e-02	2.01247e-06	1.74817e-06	8.59677e-02	2.68576e-02	3.53234e-02	8.80985e-03	1.52861e-06	1.26090e-02	2.79852e-06	2.94799e-06	8.21211e-07	8.30312e-02	3.20143e-08	3.23669e-08	7.47397e-02	2.68061e-02	3.19947e-08	3.24091e-08	4.26679e-02	1.33414e-02	1.79389e-02	4.54378e-03	3.21625e-08	6.28425e-03	X	X	X	X	X	X	X	X	X	X	X	X	X	X	X	X	



#DISTANCE SETTINGS
A = Detector Channel
A-1	A-2	A-3	A-4	A-5	A-6	A-7	A-8	A-9	A-10	A-11	A-12	A-13	A-14	A-15	A-16	

2.5000e+00	3.0000e+00	2.5000e+00	3.0000e+00	2.0000e+00	3.0000e+00	1.5000e+00	3.0000e+00	3.0000e+00	3.0000e+00	3.0000e+00	3.0000e+00	3.0000e+00	3.0000e+00	1.5000e+00	3.0000e+00	

B = Detector Channel
B-1	B-2	B-3	B-4	B-5	B-6	B-7	B-8	B-9	B-10	B-11	B-12	B-13	B-14	B-15	B-16	

1.0000e+01	1.0000e+01	1.0000e+01	1.4400e+00	1.0000e+01	1.0000e+01	1.5100e+00	1.9400e+00	1.0000e+01	1.0000e+01	1.9900e+00	2.4900e+00	2.4100e+00	2.9000e+00	1.0000e+01	2.9800e+00	




#DATA BEGINS
time	group	step	mark	flag	A-AC1	A-AC2	A-AC3	A-AC4	A-AC5	A-AC6	A-AC7	A-AC8	A-AC9	A-AC10	A-AC11	A-AC12	A-AC13	A-AC14	A-AC15	A-AC16	A-DC1	A-DC2	A-DC3	A-DC4	A-DC5	A-DC6	A-DC7	A-DC8	A-DC9	A-DC10	A-DC11	A-DC12	A-DC13	A-DC14	A-DC15	A-DC16	A-Ph1	A-Ph2	A-Ph3	A-Ph4	A-Ph5	A-Ph6	A-Ph7	A-Ph8	A-Ph9	A-Ph10	A-Ph11	A-Ph12	A-Ph13	A-Ph14	A-Ph15	A-Ph16	B-AC1	B-AC2	B-AC3	B-AC4	B-AC5	B-AC6	B-AC7	B-AC8	B-AC9	B-AC10	B-AC11	B-AC12	B-AC13	B-AC14	B-AC15	B-AC16	B-DC1	B-DC2	B-DC3	B-DC4	B-DC5	B-DC6	B-DC7	B-DC8	B-DC9	B-DC10	B-DC11	B-DC12	B-DC13	B-DC14	B-DC15	B-DC16	B-Ph1	B-Ph2	B-Ph3	B-Ph4	B-Ph5	B-Ph6	B-Ph7	B-Ph8	B-Ph9	B-Ph10	B-Ph11	B-Ph12	B-Ph13	B-Ph14	B-Ph15	B-Ph16	aux-1	digaux	

6373.511	1	1	0	768	0.085829	0.28778	0.15154	0.12636	0.15654	0.10456	0.17936	0.26475	0.024776	0.04502	0.23054	0.090768	0.075294	0.13306	0.16422	0.29301	-2.0438	-2.075	-2.7458	-2.3667	-2.3875	-2.7875	-2.2583	-2.6937	-2.5229	-2.0708	-2.7125	-2.2896	-2.3208	-2.6979	-1.9937	-2.5375	281.668	208.749	59.027	242.419	179.823	377.895	379.588	406.769	201.505	169.857	331.427	395.246	259.342	157.631	105.680	314.711	0.0012945	0.00037309	0.00013509	1354.7	7.9785e-06	6.0868e-06	1357.5	366.16	1.1341e-05	6.4048e-06	417.38	140.21	122.65	41.469	7.9544e-06	51.38	0.0005915	0.00056999	0.00015741	1378.9	6.2771e-06	6.2425e-06	1377.6	374.07	6.2193e-06	6.3662e-06	427.25	143.22	124.82	42.913	6.2514e-06	53.227	377.153	127.663	166.168	65.477	231.415	134.724	65.228	70.194	232.231	175.221	69.215	73.594	74.035	79.042	208.463	77.801	-8191	255	
6373.607	1	1	0	0	0.29484	0.0060117	0.04496	0.36132	0.12704	0.14273	0.27038	0.31701	0.017006	0.22928	0.12962	0.38435	0.21384	0.096487	0.087496	0.16905	-2.0292	-1.9167	-2.8146	-2.4979	-2.3583	-2.6625	-2.2667	-2.6813	-2.5521	-2.0625	-2.7792	-2.5604	-2.2854	-2.8271	-1.9333	-2.5104	347.285	295.576	350.173	325.302	52.026	84.565	332.832	407.301	192.597	220.156	375.551	315.214	273.918	148.553	105.665	345.376	0.0014532	0.00043264	0.00011763	1352.7	8.1368e-06	6.856e-06	1353.7	367.72	1.0699e-05	6.7768e-06	418.52	140.19	122.3	41.619	7.3297e-06	51.496	0.00058822	0.0005727	0.00016012	1379	6.2761e-06	6.1952e-06	1376.9	375.3	6.204e-06	6.2186e-06	428.19	143.58	124.99	43.017	6.1828e-06	53.216	383.772	142.156	125.321	65.093	173.854	164.395	64.726	69.740	256.166	191.341	69.268	73.541	74.322	78.669	188.353	78.057	-8191	255	
6373.703	1	1	0	0	0.11935	0.12846	0.21522	0.23318	0.15491	0.12163	0.26392	0.50711	0.1983	0.057838	0.34028	0.15753	0.086786	0.059235	0.42556	0.094348	-2.1813	-1.9062	-2.4729	-2.5292	-2.0312	-2.4771	-2.4458	-2.3708	-2.5979	-1.9562	-2.7188	-2.6583	-2.2417	-2.9396	-2.2417	-2.4604	315.277	112.791	213.254	93.238	231.252	193.577	382.697	318.935	173.710	279.882	66.276	83.100	351.074	344.931	350.191	383.324	0.0015957	0.00017485	0.00022666	1353.8	6.6724e-06	6.8926e-06	1355.2	366.92	5.3804e-06	2.2306e-06	417.89	140.46	122.26	41.605	1.6009e-06	51.609	0.00059273	0.00056808	0.00015818	1381.8	6.3246e-06	6.1931e-06	1379.5	375.42	6.23e-06	6.3092e-06	428.6	143.54	125.03	42.991	6.3222e-06	53.194	390.296	72.839	118.906	65.331	142.953	196.928	65.184	70.008	199.707	147.012	69.426	74.091	74.528	78.866	156.343	78.009	-8191	255	
6373.797	1	1	0	0	0.22261	0.081805	0.36156	0.12721	0.080146	0.088283	0.20722	0.075318	0.26003	0.076189	0.12073	0.29767	0.31597	0.37033	0.043181	0.05348	-2.4854	-2.1688	-2.6708	-2.6167	-2.2062	-2.7854	-2.6146	-2.4375	-2.6229	-1.9937	-2.5854	-2.5563	-1.9896	-2.7208	-2.4208	-2.325	230.691	109.471	333.558	388.134	118.072	369.596	61.929	155.499	214.081	160.193	376.188	400.797	100.028	364.970	184.993	216.385	0.0014837	0.00016106	0.00012015	1353.4	9.2723e-06	5.1944e-06	1355.5	367.39	5.5671e-06	1.7662e-06	418.19	140.3	122.33	41.48	8.8547e-06	51.53	0.00058936	0.00056564	0.00015842	1380.3	6.2807e-06	6.2437e-06	1380.1	375.19	6.1879e-06	6.2914e-06	427.86	143.46	124.7	42.929	6.3142e-06	53.141	385.484	125.958	135.387	65.280	189.084	163.427	65.146	70.098	187.665	193.773	69.415	74.097	74.498	78.725	180.421	77.777	-8191	255	
6373.893	1	1	0	0	0.062327	0.060893	0.030603	0.1671	0.21524	0.046291	0.40892	0.43914	0.19281	0.10451	0.2361	0.22482	0.039199	0.14117	0.13647	0.21404	-2.3271	-1.9542	-2.4625	-2.6813	-2.0396	-2.7625	-2.5417	-2.3729	-2.7062	-2.0729	-2.2583	-2.8396	-2.025	-2.6333	-2.4313	-2.025	241.958	385.928	164.107	298.036	220.482	176.987	363.462	313.774	293.076	331.365	351.044	400.377	234.520	272.178	58.770	280.837	0.0015418	0.00063041	0.00018865	1352.8	8.2927e-06	6.5578e-06	1358.9	366.21	6.1203e-06	5.6827e-06	418.09	140.76	122.15	41.508	1.2639e-05	51.299	0.00059186	0.00056864	0.00015941	1379.7	6.2925e-06	6.2849e-06	1380.3	374.81	6.2419e-06	6.2499e-06	428.68	143.71	124.83	43.008	6.3188e-06	53.168	382.206	162.912	163.942	65.131	183.095	182.256	64.618	69.419	196.910	291.977	69.015	73.788	74.062	78.886	225.474	77.981	-8191	255	
6373.990	1	1	0	0	0.20817	0.12254	0.19996	0.097684	0.16288	0.07496	0.24631	0.10493	0.04866	0.087697	0.10964	0.13133	0.26316	0.070833	0.13805	0.2145	-2.5438	-2.1896	-2.3812	-2.6792	-1.9208	-2.5104	-2.6063	-2.25	-2.6021	-2.1688	-2.3312	-2.6708	-2.0521	-2.5417	-2.5354	-2.1375	313.189	390.958	165.580	346.505	204.811	230.868	361.450	193.562	89.920	379.773	312.997	92.513	63.855	364.650	329.615	346.605	0.0015183	0.00065111	0.00016585	1357.2	4.1454e-06	3.0381e-06	1357.4	366.41	1.4982e-05	3.9323e-06	418.76	140.39	122.2	41.608	8.7055e-06	51.604	0.00058769	0.0005696	0.00015939	1381.5	6.2375e-06	6.2467e-06	1379.2	374.52	6.1616e-06	6.2305e-06	427.54	143.36	124.85	42.971	6.2319e-06	53.212	384.835	195.193	189.691	65.634	162.115	159.114	65.131	70.214	227.807	297.743	69.475	74.494	74.875	79.228	205.331	78.376	-8191	255	
6374.110	1	1	0	0	0.11296	0.16558	0.19156	0.22593	0.099311	0.1184	0.14959	0.37997	0.30671	0.050356	0.23939	0.18107	0.16888	0.20537	0.27958	0.091568	-2.2687	-2.0646	-2.0667	-2.7708	-1.975	-2.5875	-2.75	-2.1375	-2.6188	-2.4333	-2.3021	-2.7896	-2.0229	-2.4896	-2.5563	-2.1125	250.256	346.364	289.278	62.116	87.964	125.250	380.355	405.859	137.364	368.961	67.592	315.804	213.201	396.234	253.984	266.044	0.0014238	0.00067157	7.9302e-05	1350.8	6.1312e-06	2.4803e-06	1356.2	366.38	6.8279e-06	9.8003e-06	417.63	140.01	122.46	41.721	4.4337e-06	51.601	0.00058792	0.00057593	0.00015785	1377.7	6.2607e-06	6.2731e-06	1379.7	374.51	6.2422e-06	6.1461e-06	428.25	143.54	124.92	43.077	6.1905e-06	53.176	384.794	116.065	122.839	65.063	209.006	193.034	65.231	69.926	211.142	243.561	69.024	73.831	74.213	78.792	209.907	77.977	-8191	255	
6374.206	1	1	0	0	0.13391	0.071795	0.13751	0.2486	0.093576	0.21972	0.036265	0.2528	0.23939	0.13212	0.19567	0.25089	0.1087	0.22365	0.059246	0.092614	-2.1792	-2.1792	-2.0979	-2.8146	-1.9042	-2.4708	-2.8812	-2.2354	-2.6479	-2.5271	-2.3083	-2.9292	-2.1208	-2.5646	-2.6167	-2.0833	192.217	238.507	78.222	383.541	213.089	129.123	322.183	394.452	408.001	281.062	360.052	360.323	280.570	377.730	345.025	193.595	0.001437	0.00056672	0.00018923	1357.4	1.0549e-05	6.2988e-06	1354.9	366.85	4.0409e-06	1.336e-06	416.69	139.67	121.41	41.506	5.5663e-06	51.583	0.00058553	0.00056262	0.00015288	1381.2	6.1169e-06	6.12e-06	1379.4	374.44	6.0681e-06	6.0863e-06	427.16	143.58	124.55	42.958	6.0772e-06	53.151	385.808	136.359	156.037	65.402	174.255	214.336	65.307	70.244	190.734	224.805	69.389	74.157	74.846	79.203	218.756	78.305	-8191	255	
6374.303	1	1	0	0	0.14012	0.13328	0.10892	0.28534	0.24475	0.20519	0.10383	0.33685	0.070947	0.26261	0.1751	0.11363	0.16082	0.16673	0.065048	0.18523	-2.1063	-2.4875	-2.0021	-2.9437	-2.2833	-2.3583	-2.9208	-2.0563	-2.4188	-2.4188	-2.1104	-2.6917	-2.3271	-2.4708	-2.5333	-2.2083	358.266	250.004	253.448	381.965	219.026	245.968	147.825	312.581	277.509	66.251	96.124	292.254	240.366	164.133	181.534	398.453	0.0016032	0.00072482	9.6463e-05	1354.5	2.8427e-06	5.9893e-06	1356.1	365.9	8.5054e-06	1.6735e-06	417.17	140.7	122.44	41.533	5.7167e-06	51.623	0.00057556	0.00056734	0.00015703	1380.2	6.2576e-06	6.237e-06	1378.6	374.16	6.185e-06	6.2469e-06	427.8	143.48	124.77	42.955	6.2565e-06	53.191	380.456	142.902	184.493	65.636	190.167	159.877	65.537	70.268	165.394	240.686	69.679	74.403	75.084	79.099	209.120	78.569	-8191	255	
6374.399	1	1	0	0	0.088955	0.055452	0.30393	0.32734	0.16916	0.026875	0.1611	0.13729	0.16321	0.087909	0.15763	0.19446	0.068955	0.062028	0.05935	0.16109	-2.0167	-2.6292	-1.9875	-2.7667	-2.2188	-2.1646	-2.9208	-2.1604	-2.4313	-2.6354	-2.2854	-2.8521	-2.2458	-2.2708	-2.6292	-2.3271	214.210	56.351	335.741	343.307	306.989	100.059	54.831	291.702	104.520	108.841	373.440	390.110	363.726	354.175	365.592	183.558	0.0015838	0.00063217	0.00011236	1357.1	4.4267e-06	4.9808e-06	1356.9	366.05	7.6888e-06	6.8398e-06	418.39	140.41	122.74	41.502	7.7261e-06	51.5	0.00058584	0.00056542	0.00015756	1380.8	6.1477e-06	6.1919e-06	1379.3	374.37	6.1452e-06	6.102e-06	428	143.46	125.02	42.915	6.1984e-06	53.156	380.031	111.574	144.759	65.139	163.461	176.200	64.863	69.755	208.049	256.878	69.116	73.612	74.506	78.655	184.517	77.586	-8191	255	
6374.495	1	1	0	0	0.094062	0.30515	0.13428	0.3469	0.13088	0.12609	0.026463	0.24596	0.02416	0.15058	0.077637	0.19466	0.062088	0.1196	0.078417	0.17248	-1.7938	-2.8	-2.0146	-2.7062	-2.5104	-2.1521	-2.9437	-2.4167	-2.3125	-2.6083	-2.1646	-2.5604	-2.5563	-2.0854	-2.7188	-2.075	123.962	185.836	332.183	337.857	188.217	135.185	254.094	362.103	63.507	60.052	134.255	276.882	128.685	310.711	84.521	341.579	0.0015372	0.00050107	0.00014431	1355.5	9.0048e-06	6.7216e-06	1357.3	366.99	7.3945e-06	3.1481e-06	418.34	140.4	122.2	41.46	6.7079e-06	51.269	0.00057959	0.00056429	0.00015581	1379.2	6.1714e-06	6.1775e-06	1379.5	374.49	6.0937e-06	6.1034e-06	427.07	143.42	124.78	42.874	6.1592e-06	53.022	386.715	146.403	173.409	64.979	161.450	178.000	64.951	69.957	223.670	196.571	68.909	73.714	74.430	78.610	182.673	78.104	-8191	255	
6374.591	1	1	0	0	0.03248	0.28611	0.093047	0.19109	0.21263	0.079953	0.056065	0.26842	0.14913	0.322	0.15633	0.22515	0.089951	0.30336	0.20047	0.21784	-1.8146	-2.5375	-2.1021	-2.5563	-2.425	-2.1437	-2.8667	-2.3854	-2.1958	-2.7021	-2.2625	-2.5729	-2.5792	-2	-2.6042	-2.4354	144.568	190.486	359.305	105.974	396.118	66.006	302.004	382.469	170.190	312.711	180.304	62.088	265.809	84.339	216.834	60.792	0.0014338	0.00049103	0.00019602	1350.7	7.4365e-06	5.3185e-06	1355.4	365.29	1.3167e-05	7.0613e-06	415.02	140.19	122.23	41.319	5.1717e-06	51.481	0.00057932	0.00055649	0.00015463	1377.3	6.1996e-06	6.0237e-06	1377.1	373.89	6.1005e-06	6.086e-06	426.74	143.21	124.62	42.796	6.0425e-06	53.12	382.044	152.716	149.620	65.029	169.474	185.330	64.976	69.948	209.628	254.328	68.925	73.524	74.589	78.618	238.579	78.256	-8191	255	
6374.712	1	1	0	0	0.18889	0.11595	0.14753	0.094641	0.093026	0.032619	0.37414	0.19732	0.20659	0.10117	0.079016	0.34288	0.19108	0.14791	0.26348	0.25188	-1.7208	-2.4375	-2.1229	-2.6	-2.5667	-2.025	-3.025	-2.5042	-2.1125	-2.9042	-2.1854	-2.3896	-2.6979	-2.125	-2.5354	-2.4896	206.074	268.819	233.569	98.126	170.449	162.814	325.209	294.151	320.181	118.719	273.725	347.215	87.349	308.817	343.832	360.927	0.0012557	0.00080603	0.00014968	1350.3	7.0906e-06	4.3453e-06	1355.5	364.32	9.146e-06	5.0647e-06	417.42	140.02	121.86	41.534	1.8468e-06	51.616	0.00057024	0.00054412	0.00015493	1376	6.0417e-06	6.0145e-06	1375.1	373.51	6.0442e-06	5.9816e-06	426.34	143.16	124.3	42.823	5.985e-06	53.032	390.491	151.228	149.307	65.068	192.900	162.483	64.992	69.920	222.072	199.076	69.260	73.624	74.216	78.659	162.161	77.512	-8191	255	
6374.806	1	1	0	0	0.18329	0.12308	0.068463	0.1431	0.18395	0.040559	0.1453	0.18114	0.095363	0.050757	0.24638	0.088667	0.11924	0.19233	0.12	0.20326	-1.7583	-2.6146	-2.2	-2.4521	-2.7771	-1.9688	-2.8208	-2.6458	-2.0625	-2.7729	-2.4417	-2.4188	-2.6688	-2.1354	-2.4917	-2.4396	268.051	245.825	379.749	386.960	240.235	182.610	319.516	378.338	167.556	306.770	301.080	360.504	321.530	359.783	144.470	65.784	0.0016108	0.00044333	0.00021097	1352.8	1.0514e-05	8.5544e-07	1350.7	364.53	1.3291e-05	3.7553e-06	415.72	139.91	121.56	41.516	1.0161e-05	51.424	0.00056237	0.00054443	0.00015061	1375.1	5.9332e-06	5.9405e-06	1374.6	372.75	5.9322e-06	5.9064e-06	425.36	142.8	124.03	42.779	5.8812e-06	52.975	387.247	204.477	144.642	65.146	153.875	170.570	64.885	70.013	229.091	199.687	69.323	73.577	74.198	78.632	200.390	78.162	-8191	255	
6374.902	1	1	0	0	0.14311	0.3734	0.17431	0.27156	0.11787	0.090044	0.32769	0.27104	0.10022	0.15212	0.10775	0.259	0.1684	0.2469	0.21791	0.22197	-1.6417	-2.6917	-2.2896	-2.3667	-2.6937	-2.25	-2.7646	-2.7	-2.1271	-2.7792	-2.375	-2.3208	-2.9021	-2.0542	-2.4125	-2.7333	397.732	281.129	314.649	394.024	55.750	311.832	364.932	76.016	182.166	179.043	392.820	356.595	256.636	215.740	397.987	82.574	0.0013374	0.00048654	0.00027239	1352.9	6.9331e-06	2.7735e-06	1353	365.38	1.1998e-05	6.1664e-06	416.94	139.72	121.48	41.256	8.7644e-06	51.273	0.00056113	0.00054175	0.00015139	1374.5	5.9052e-06	5.8224e-06	1373.9	372.63	5.8548e-06	5.8706e-06	425.5	142.64	123.83	42.671	5.8923e-06	52.903	383.689	144.132	164.056	65.249	185.530	133.060	64.882	70.077	251.992	180.146	69.187	73.859	74.205	78.804	185.650	78.062	-8191	255	
6374.998	1	1	0	0	0.25156	0.20763	0.20147	0.011624	0.089256	0.14978	0.31483	0.21356	0.021812	0.1797	0.37939	0.17122	0.23956	0.19983	0.12737	0.089257	-1.6917	-2.5167	-2.3229	-2.175	-2.8271	-2.0938	-2.7104	-2.8167	-1.7938	-2.7146	-2.4562	-2.3	-2.6229	-2.2979	-2.2125	-2.8333	339.317	104.216	81.315	362.190	406.223	350.643	384.730	407.880	372.608	367.284	401.952	365.186	299.013	358.592	381.512	168.642	0.001487	0.00084539	7.0786e-05	1349.9	5.5728e-06	5.468e-06	1350.4	365.1	5.8861e-06	9.4315e-06	415.34	139.39	121.31	41.467	4.9306e-06	51.273	0.00054928	0.00053147	0.00014585	1373	5.7657e-06	5.7889e-06	1371.5	372.37	5.8152e-06	5.7686e-06	425.02	142.52	123.64	42.623	5.8512e-06	52.864	382.122	150.640	182.007	65.216	184.116	174.172	64.964	69.918	217.946	240.752	69.138	73.762	74.462	78.378	245.384	78.353	-8191	255	
6375.072	1	1	0	0	0.080634	0.14092	0.22094	0.11061	0.027464	0.31233	0.11691	0.10142	0.18315	0.02808	0.13274	0.17458	0.22313	0.36631	0.17966	0.076697	-1.6833	-2.5667	-2.3125	-2.3708	-2.8187	-2.3	-2.5104	-2.7979	-2.0396	-2.3771	-2.4437	-2.0458	-2.7896	-2.3708	-2.0542	-2.6771	169.223	221.889	248.468	341.718	157.152	313.453	174.919	148.706	411.117	216.064	73.568	259.311	398.388	365.530	206.398	365.580	0.0014393	0.00040753	7.751e-05	1352.6	7.1376e-06	5.8997e-06	1352.9	364.92	1.2523e-05	5.3051e-06	416.08	139.22	121.36	41.475	9.1008e-06	51.128	0.00054759	0.00052673	0.00014829	1373.2	5.7398e-06	5.6585e-06	1372.9	372.62	5.6588e-06	5.7064e-06	425.14	142.45	123.8	42.602	5.6773e-06	52.844	388.058	191.950	215.175	65.038	155.857	188.244	65.078	69.816	198.296	220.962	69.428	73.839	74.193	78.808	188.876	77.836	-8191	255	
6375.191	1	1	0	0	0.20737	0.037528	0.14278	0.062496	0.28538	0.14128	0.20134	0.084784	0.14315	0.16619	0.084459	0.29275	0.20156	0.12126	0.226	0.049694	-1.6021	-2.3312	-2.4208	-2.0417	-2.6833	-2.3187	-2.3021	-2.7333	-1.9229	-2.3333	-2.7625	-2.2062	-2.7458	-2.4625	-2.1354	-2.8604	254.342	285.894	98.869	321.391	204.420	191.707	370.755	80.706	370.843	296.178	264.007	325.773	76.330	410.591	339.825	379.768	0.0016108	0.00058472	0.00019575	1352.4	1.1049e-05	5.532e-06	1354.4	364.69	7.5763e-06	8.6561e-06	416.14	139.49	121.61	41.367	4.1524e-06	51.227	0.00054276	0.00052458	0.00014559	1372.8	5.7477e-06	5.6628e-06	1373	372.57	5.7347e-06	5.7486e-06	425.25	142.49	123.7	42.664	5.741e-06	52.856	385.679	156.465	159.089	64.854	197.827	166.103	64.947	70.148	220.312	215.321	69.131	73.381	74.574	78.703	226.122	78.137	-8191	255	
6375.287	1	1	0	0	0.29951	0.13137	0.25619	0.41796	0.070312	0.23588	0.070812	0.13749	0.17981	0.062034	0.015679	0.13543	0.085277	0.48359	0.097136	0.12375	-1.5938	-2.1417	-2.5292	-2.1542	-2.5438	-2.3688	-2.3583	-2.8396	-2.1042	-2.3312	-2.8479	-2.1688	-2.6875	-2.6104	-2.0583	-2.8521	133.414	325.812	318.285	333.818	103.632	367.329	332.909	375.928	245.186	144.452	364.354	270.932	356.355	407.002	379.317	124.062	0.0014178	0.00055742	0.00014587	1345.5	8.8235e-06	7.931e-06	1354.7	364.14	7.0608e-06	7.3792e-06	417.3	139.27	121.44	41.37	5.6108e-06	51.279	0.00055011	0.00052591	0.00014845	1371.3	5.8329e-06	5.813e-06	1373.2	372.29	5.7548e-06	5.8185e-06	425.57	142.62	123.98	42.712	5.887e-06	52.885	387.385	133.941	177.403	65.197	171.898	184.137	65.154	69.941	215.480	227.214	69.406	73.687	74.497	78.811	204.376	77.996	-8191	255	
6375.383	1	1	0	0	0.085306	0.12595	0.32268	0.20881	0.11853	0.11747	0.39921	0.24236	0.18674	0.24177	0.22097	0.10977	0.14494	0.26409	0.22289	0.12113	-1.75	-2.1312	-2.5729	-2.225	-2.4146	-2.6937	-2.325	-2.9896	-2.3792	-2.0417	-2.8896	-2.2562	-2.5458	-2.6875	-2.1188	-2.8104	79.359	142.361	341.678	346.075	167.250	81.216	375.185	56.355	408.329	284.190	374.586	203.126	59.882	375.805	78.977	67.755	0.0017658	0.00044952	0.00010347	1350.1	8.5287e-06	4.2708e-06	1353.8	365.96	1.0802e-05	6.2334e-06	413.9	139.87	121.39	41.445	4.0484e-06	51.328	0.00055348	0.00053645	0.00014938	1373.3	5.8829e-06	5.8421e-06	1376.1	373.08	5.8094e-06	5.8425e-06	425.62	142.9	124.03	42.707	5.8248e-06	52.898	390.435	92.308	182.253	65.165	155.562	160.422	65.146	69.921	198.307	206.822	69.361	73.725	74.366	79.009	143.519	78.001	-8191	255	
6375.479	1	1	0	0	0.20705	0.051781	0.20931	0.3011	0.22781	0.051277	0.2461	0.12565	0.31098	0.13334	0.3779	0.34552	0.025872	0.24822	0.12512	0.3607	-1.825	-2.1229	-2.5958	-2.2188	-2.2938	-2.5938	-2.0958	-2.6646	-2.2938	-2.0958	-2.8146	-2.2292	-2.4437	-2.6354	-1.9625	-2.7417	201.469	341.697	241.930	395.049	306.228	89.097	240.598	377.908	108.610	113.846	53.854	192.771	226.270	56.608	340.769	64.980	0.0016558	0.00061306	0.00019406	1354	5.2716e-06	2.4645e-06	1352.8	366.27	1.2333e-05	9.5088e-06	417.58	139.8	121.69	41.431	7.9316e-06	51.542	0.00055675	0.0005432	0.0001496	1376.3	5.9091e-06	5.8255e-06	1376.1	373.07	5.7831e-06	5.8773e-06	426.37	143.06	124.52	42.786	5.8309e-06	52.97	383.473	139.901	174.243	65.015	195.644	162.530	65.148	70.031	219.698	222.338	69.293	73.726	74.432	78.659	165.081	77.907	-8191	255	
6375.600	1	1	0	0	0.22767	0.14926	0.16394	0.14409	0.18563	0.032526	0.3244	0.18527	0.094177	0.11802	0.038187	0.18731	0.18304	0.10879	0.23363	0.18637	-2.0354	-2.1021	-2.6896	-2.2938	-2.0938	-2.5333	-2.0833	-2.6958	-2.3563	-1.975	-2.8625	-2.3354	-2.35	-2.7812	-2.0667	-2.725	126.111	53.470	320.905	358.339	337.892	286.578	364.688	326.102	389.528	55.953	404.524	107.195	223.260	317.400	253.867	333.137	0.0013586	0.00060306	0.00021084	1352.1	4.1113e-06	2.9549e-06	1352.5	364.28	1.3229e-05	8.6372e-06	416.51	140.41	122.26	41.655	6.0334e-06	51.582	0.00055337	0.00053582	0.00015131	1375.9	5.9176e-06	5.8989e-06	1374.3	372.94	5.9059e-06	5.8988e-06	426.1	143.01	124.64	42.905	5.9781e-06	53.004	389.064	142.037	172.304	65.329	151.719	157.627	65.065	69.810	225.234	187.530	69.301	73.894	74.568	78.843	210.014	78.121	-8191	255	
6375.671	1	1	0	0	0.12895	0.15032	0.10729	0.15835	0.099186	0.20424	0.11558	0.22985	0.18223	0.19016	0.31647	0.22614	0.39471	0.26259	0.27216	0.22309	-2.2042	-1.8667	-2.6042	-2.5167	-2.0604	-2.65	-2.3521	-2.5563	-2.5729	-2.0417	-2.5542	-2.3708	-2.1458	-2.6625	-2.0729	-2.3937	400.548	131.788	295.148	193.872	395.403	251.994	319.924	387.497	81.972	211.216	55.959	58.967	54.087	405.275	170.638	131.862	0.0013536	0.00037692	6.7227e-05	1354	4.6837e-06	6.9647e-06	1354.3	366.25	6.9999e-06	8.3997e-06	418.16	139.76	122.07	41.373	5.7014e-06	51.695	0.00056633	0.00054295	0.0001517	1378.5	6.0274e-06	5.9747e-06	1377.6	373.85	6.0094e-06	6.041e-06	427.06	142.99	124.44	42.787	5.978e-06	53.035	387.197	180.053	189.206	65.215	167.110	205.021	64.888	69.939	243.307	221.759	69.215	73.791	74.303	78.939	213.945	77.917	-8191	255	
6375.792	1	1	0	0	0.024316	0.15153	0.20967	0.17137	0.10817	0.19891	0.07298	0.27686	0.2323	0.32471	0.076752	0.20645	0.37046	0.27337	0.0083176	0.073288	-2.3333	-2.0938	-2.4667	-2.5271	-2.1583	-2.75	-2.3146	-2.2646	-2.9	-1.9625	-2.9146	-2.325	-1.9062	-2.5792	-2.175	-2.2646	193.225	77.980	259.258	349.477	388.575	356.971	327.573	326.910	364.552	114.545	256.111	404.852	366.980	82.950	110.164	149.381	0.0016263	0.00038623	7.0069e-05	1354.5	3.3774e-06	8.226e-06	1353.1	366.58	8.0254e-06	5.1287e-06	416.01	141.01	122.69	41.543	4.587e-06	51.331	0.00055897	0.00054419	0.00015089	1377.8	5.8696e-06	5.9413e-06	1376.9	373.89	5.9468e-06	5.9724e-06	426.64	143.31	124.58	42.933	5.9253e-06	53.033	389.957	133.894	151.858	65.271	187.717	184.631	65.036	69.896	231.726	228.481	69.168	74.205	73.838	78.254	187.240	77.820	-8191	255	
6375.886	1	1	0	0	0.31971	0.22739	0.34985	0.041374	0.093228	0.1677	0.28772	0.20171	0.26045	0.24593	0.27892	0.17916	0.077524	0.19894	0.33448	0.3042	-2.1646	-2.0396	-2.3792	-2.6146	-1.8917	-2.5938	-2.2833	-2.3	-2.7354	-2.1	-2.5271	-2.5812	-2.1896	-2.5021	-2.225	-2.4354	345.397	384.406	61.568	257.433	252.770	198.470	345.688	55.225	359.745	172.755	387.721	78.624	400.824	394.154	339.990	387.721	0.0014913	0.00045578	6.3332e-05	1357.4	6.6577e-06	1.6573e-06	1360	367.29	9.3812e-06	3.186e-06	417.23	140.63	122.42	41.799	7.3519e-06	51.509	0.00055125	0.00054319	0.00015391	1380.2	5.9642e-06	6.0598e-06	1380	374.9	6.0727e-06	6.1706e-06	428	143.89	124.97	43.038	6.0664e-06	53.195	387.842	145.813	172.396	65.065	147.978	224.686	65.181	69.890	227.885	254.024	69.374	73.964	74.542	79.050	220.099	78.011	-8191	255	
6375.983	1	1	0	0	0.15245	0.089382	0.28429	0.18817	0.022956	0.16418	0.17377	0.20184	0.21388	0.19225	0.34844	0.20735	0.19782	0.20665	0.12138	0.091005	-2.2896	-1.7875	-2.4688	-2.7271	-1.9958	-2.5187	-2.4875	-2.1396	-2.5438	-2.1208	-2.4	-2.8583	-2.1188	-2.5875	-2.1729	-2.2292	332.997	149.591	313.693	66.449	153.341	102.104	398.818	353.547	164.323	104.040	402.271	62.780	291.545	375.923	350.242	259.520	0.0015314	0.00093224	0.00012263	1355.3	6.1324e-06	2.7403e-06	1356.1	365.77	9.6378e-06	2.6338e-06	416.43	140.34	122.66	41.517	7.4808e-06	51.763	0.00057225	0.00056008	0.00015673	1381.7	6.059e-06	6.1007e-06	1380.7	374.72	6.1459e-06	6.1995e-06	427.74	143.57	125.08	42.956	6.2474e-06	53.288	385.795	153.869	186.353	63.864	198.703	222.041	63.619	68.484	210.597	254.773	68.356	73.182	73.641	78.507	203.946	77.687	-8191	255	
6376.079	1	1	0	0	0.15147	0.15998	0.10459	0.24279	0.21319	0.019314	0.11457	0.16586	0.19751	0.20333	0.28934	0.22424	0.068474	0.079837	0.20695	0.25771	-2.2729	-2.0917	-2.0687	-2.8125	-1.8687	-2.5333	-2.6271	-2.0625	-2.7854	-2.075	-2.3167	-2.7583	-2.1937	-2.4167	-2.3479	-2.0687	345.385	161.032	291.862	409.833	378.091	159.092	358.045	313.378	161.746	53.729	105.835	304.461	259.868	321.787	274.221	342.336	0.001583	0.00048472	0.00011304	1363.3	9.1051e-06	3.2862e-06	1360.5	367.92	8.8528e-06	5.3628e-06	418.83	140.68	122.67	41.697	3.8643e-06	51.567	0.00058288	0.00056502	0.00015758	1385.1	6.1033e-06	6.1076e-06	1383.1	375.6	6.184e-06	6.1868e-06	428.62	144.01	125.16	43.067	6.1975e-06	53.325	382.902	159.193	146.617	65.079	197.698	226.440	65.260	70.001	205.030	227.931	69.336	74.350	74.893	78.924	188.820	77.989	-8191	255	
6376.199	1	1	0	0	0.11489	0.18098	0.2756	0.29696	0.10387	0.11466	0.047891	0.10156	0.10738	0.035125	0.058404	0.37463	0.12673	0.16611	0.092574	0.019769	-2.1917	-2.0521	-2.1979	-2.7188	-1.8333	-2.3708	-2.7833	-2.1688	-2.7396	-2.1292	-2.2125	-2.6979	-2.2333	-2.3125	-2.4229	-2.0229	293.207	362.508	253.148	379.411	342.811	129.034	378.229	345.043	290.775	100.799	383.813	401.185	323.189	131.834	354.661	251.017	0.0014336	0.00060078	0.00019777	1361.4	6.3255e-06	7.9296e-06	1359.5	369.46	8.5318e-06	5.521e-06	419.97	141.04	122.53	41.625	7.3458e-06	51.925	0.00058543	0.00056936	0.00016036	1383.3	6.2737e-06	6.2815e-06	1382.1	376.11	6.3989e-06	6.4337e-06	429.44	144.25	125.39	43.146	6.4722e-06	53.452	387.891	90.933	111.249	65.467	168.117	186.304	65.146	70.046	226.217	263.746	69.309	73.878	74.463	78.928	219.685	77.897	-8191	255	
6376.295	1	1	0	0	0.14978	0.086682	0.22684	0.21235	0.058036	0.20018	0.24485	0.31385	0.17323	0.16746	0.19626	0.21736	0.17005	0.19539	0.053093	0.081571	-2.1292	-2.2458	-2.05	-2.6521	-1.9104	-2.4167	-2.7875	-1.9958	-2.5146	-2.4208	-2.2542	-2.6417	-2.1583	-2.5938	-2.8396	-1.975	122.074	89.420	147.474	61.855	116.915	70.254	334.739	349.098	130.944	375.848	289.484	359.634	317.626	372.623	382.492	302.895	0.0014591	0.00041521	0.00015775	1361	3.4754e-06	3.2886e-06	1360.2	367.5	1.2746e-05	6.196e-06	419.06	140.93	122.7	41.753	8.6196e-06	51.835	0.00059299	0.00058618	0.00016342	1385.9	6.3174e-06	6.3613e-06	1383	375.8	6.3424e-06	6.4019e-06	428.82	144.16	125.31	43.211	6.3322e-06	53.506	385.452	132.680	157.620	65.339	174.063	176.109	65.111	70.009	188.133	222.400	69.133	74.018	74.484	78.882	175.527	77.996	-8191	255	
6376.392	1	1	0	0	0.19069	0.27868	0.09941	0.17291	0.31267	0.12731	0.24353	0.21344	0.018299	0.14717	0.11977	0.20645	0.21223	0.1388	0.056652	0.06374	-2.2625	-2.3354	-1.9542	-3.0083	-2.2125	-2.3021	-2.7792	-2.0646	-2.6417	-2.4583	-1.8937	-2.7875	-2.3187	-2.1792	-2.7854	-2.2604	402.306	93.617	314.805	394.795	390.649	384.155	390.829	314.319	209.904	230.538	372.354	315.514	379.957	349.399	194.907	57.900	0.0014435	0.00077571	0.00019273	1363.3	4.8816e-06	1.9772e-06	1361.9	368.73	1.0752e-05	8.6396e-06	423.15	141.35	122.78	41.932	6.4534e-06	52.019	0.0006013	0.00058322	0.00015918	1388.6	6.4105e-06	6.3678e-06	1385.3	377.23	6.4353e-06	6.3533e-06	431.77	144.69	125.9	43.301	6.5045e-06	53.567	385.684	138.441	175.848	65.335	161.315	126.336	65.173	69.869	198.239	198.258	69.227	73.833	74.458	78.705	171.867	78.218	-8191	255	
6376.488	1	1	0	0	0.23474	0.21624	0.24408	0.19134	0.044469	0.16043	0.31376	0.11311	0.21387	0.21229	0.11039	0.045064	0.28354	0.071146	0.2098	0.33089	-2.0438	-2.375	-1.9083	-2.9188	-2.175	-2.1625	-2.9062	-2.2896	-2.2313	-2.5583	-2.2188	-2.7708	-2.3604	-2.1375	-2.4583	-2.075	292.996	282.759	193.514	404.164	284.118	343.193	404.083	242.914	325.882	409.662	378.885	219.092	346.177	105.251	144.469	77.768	0.0014031	0.00062028	0.0001305	1360.1	7.3029e-06	8.324e-06	1364.5	370.12	9.0992e-06	4.3573e-06	421.42	141.87	124.2	41.921	2.2476e-06	51.772	0.00061209	0.00059106	0.00016553	1388.7	6.5492e-06	6.5167e-06	1387.9	378.29	6.5874e-06	6.5825e-06	431.83	145.04	126.32	43.437	6.5426e-06	53.61	379.247	177.572	133.326	65.340	144.142	216.787	65.201	70.036	210.407	261.874	69.266	74.053	74.250	78.915	218.236	78.047	-8191	255	
6376.584	1	1	0	0	0.26001	0.11393	0.15525	0.24181	0.14459	0.26907	0.42595	0.082257	0.17677	0.08795	0.32706	0.14956	0.21121	0.054469	0.37972	0.23335	-1.8417	-2.4396	-1.8354	-2.6729	-2.4792	-2.075	-2.7812	-2.0312	-2.2542	-2.7583	-2.2896	-2.8021	-2.3521	-2.1583	-2.7271	-2.375	333.207	91.741	354.368	350.266	282.972	314.229	304.943	184.221	371.488	159.939	353.726	370.597	351.542	221.759	295.995	77.698	0.0015229	0.00048925	5.8043e-05	1365.1	6.958e-06	6.1449e-06	1367.3	368.82	1.1397e-05	3.368e-06	421.11	142.17	124.21	42.056	8.4818e-06	52.24	0.00062313	0.00060131	0.00016723	1391.3	6.6024e-06	6.6068e-06	1390.3	378.12	6.5804e-06	6.6114e-06	431.64	145.23	126.57	43.56	6.503e-06	53.936	392.310	162.809	107.279	65.380	159.315	194.895	65.194	69.986	203.585	286.044	69.297	73.799	74.442	79.107	190.402	77.879	-8191	255	
6376.678	1	1	0	0	0.10746	0.068957	0.028533	0.22481	0.14565	0.16818	0.2068	0.18186	0.26229	0.040884	0.13356	0.24435	0.17569	0.27873	0.11439	0.18594	-1.6729	-2.6375	-2.125	-2.8042	-2.6792	-2.0833	-2.9604	-2.2792	-2.1146	-2.7	-2.1292	-2.525	-2.5854	-2.1958	-2.7313	-2.2854	293.608	267.731	237.344	351.632	121.762	87.879	375.347	332.623	250.894	295.641	119.164	320.214	403.469	93.449	382.694	323.742	0.001449	0.00032781	7.4344e-05	1368.8	5.9628e-06	5.3352e-06	1369.2	372.86	1.0498e-05	4.9252e-06	423.72	142.43	123.91	42.293	2.3301e-06	52.016	0.00061738	0.00059952	0.00016644	1394.5	6.4989e-06	6.5099e-06	1392.9	380.25	6.5092e-06	6.4971e-06	433.31	145.42	126.34	43.563	6.3093e-06	53.775	390.265	164.753	172.828	65.319	224.911	160.394	65.263	70.156	213.514	190.154	69.757	73.836	74.291	78.613	222.291	78.241	-8191	255	
6376.774	1	1	0	0	0.12767	0.11021	0.42764	0.19246	0.13345	0.14418	0.24158	0.056647	0.13335	0.25607	0.043818	0.29029	0.15765	0.11733	0.07682	0.25626	-1.7875	-2.6104	-2.1417	-2.5667	-2.7562	-1.9833	-2.8792	-2.5479	-2.1354	-2.6625	-2.1354	-2.3396	-2.5375	-2.0354	-2.4062	-2.4604	149.360	265.849	341.823	311.744	80.216	317.899	374.960	327.492	215.671	327.753	402.113	327.303	361.670	110.748	368.588	260.382	0.0013619	0.00028528	0.000223	1369	9.2987e-06	4.5621e-06	1368.7	371.26	1.1447e-05	5.7511e-06	421.36	142.05	124.12	41.926	5.905e-06	52.032	0.00059968	0.00058936	0.00016055	1393.2	6.2755e-06	6.2543e-06	1391	378.44	6.2978e-06	6.3353e-06	431.49	145.01	126.21	43.374	6.3645e-06	53.749	388.570	99.158	182.001	65.345	173.760	206.222	65.057	69.966	218.096	200.841	69.315	73.900	74.754	79.033	181.720	78.248	-8191	255	
6376.895	1	1	0	0	0.082057	0.056652	0.14885	0.29539	0.11349	0.16403	0.23458	0.37697	0.15553	0.092699	0.037154	0.10799	0.31474	0.072936	0.075995	0.084584	-1.7125	-2.8042	-2.2146	-2.3833	-2.6562	-1.9937	-2.7083	-2.7542	-1.9729	-2.6042	-2.3646	-2.2979	-2.7375	-2.0208	-2.4437	-2.4396	239.605	106.128	359.702	382.410	71.417	218.767	343.611	364.305	163.456	410.951	344.978	337.611	292.434	70.058	180.213	244.846	0.0014335	0.00018106	0.00017062	1363.7	1.2055e-05	5.4545e-06	1370.7	372.48	1.1253e-05	8.0555e-06	423.91	142.14	124.82	42.095	4.1096e-06	52.223	0.00060128	0.00058861	0.00016582	1391.2	6.5038e-06	6.5763e-06	1391.8	379.78	6.5796e-06	6.5647e-06	433.72	145.55	127.22	43.635	6.5844e-06	53.968	379.569	139.890	147.239	65.262	174.904	176.374	65.251	70.162	191.847	225.659	69.384	73.845	74.678	78.809	238.227	77.901	-8191	255	
6376.967	1	1	0	0	0.20862	0.037308	0.032279	0.10205	0.16441	0.18761	0.20776	0.13127	0.088002	0.22401	0.099671	0.22116	0.098806	0.027021	0.14203	0.1806	-1.7875	-2.6375	-2.1583	-2.3625	-2.6458	-2.1042	-2.7042	-2.4917	-1.9542	-2.8708	-2.5771	-2.2729	-2.7042	-2.25	-2.3417	-2.6625	399.808	274.072	407.254	113.766	299.232	107.807	318.456	303.883	149.138	336.775	270.124	281.039	101.306	176.409	191.859	383.707	0.0016508	0.00069047	9.097e-05	1370.8	8.6675e-06	1.0509e-05	1365.7	371.13	8.5377e-06	6.2939e-06	421.43	142.29	124.23	41.988	9.4924e-06	51.953	0.00061766	0.00059383	0.00016597	1394.3	6.4191e-06	6.4586e-06	1391.8	379.74	6.4248e-06	6.4644e-06	433.09	145.11	126.71	43.493	6.5426e-06	53.886	384.695	124.740	198.547	65.447	217.050	196.056	65.255	70.030	160.268	174.589	68.727	73.398	74.036	78.595	205.145	78.039	-8191	255	
6377.063	1	1	0	0	0.11989	0.081791	0.063536	0.10951	0.1878	0.12743	0.11791	0.38641	0.062103	0.33853	0.14335	0.13395	0.38858	0.3634	0.085651	0.051493	-1.6458	-2.4083	-2.2667	-2.4208	-2.5958	-2.1604	-2.4583	-2.6792	-2.1708	-2.5438	-2.5146	-2.0771	-2.6583	-2.1167	-2.3708	-2.7875	250.173	228.479	225.167	305.506	284.533	340.435	369.512	58.009	344.143	192.819	361.927	355.391	369.591	405.809	386.809	56.348	0.0015948	0.00031097	0.00012753	1369.8	1.0166e-05	5.7043e-06	1372.2	371.32	1.304e-05	9.7981e-06	423.56	142.29	124.35	42.333	1.0047e-05	51.908	0.0006118	0.00060186	0.00016858	1395.3	6.6102e-06	6.6232e-06	1394.5	380.17	6.6543e-06	6.6624e-06	433.6	145.64	126.95	43.668	6.6582e-06	53.87	384.779	163.789	115.496	65.486	136.117	200.881	65.206	70.183	212.690	205.860	69.214	73.549	74.636	78.965	208.770	78.139	-8191	255	
6377.159	1	1	0	0	0.24196	0.16359	0.156	0.1993	0.15381	0.021508	0.42915	0.30896	0.19055	0.11837	0.3336	0.12678	0.10756	0.024965	0.16326	0.13937	-1.6167	-2.4417	-2.4729	-2.1854	-2.5979	-2.0958	-2.4042	-2.7167	-2.0271	-2.5042	-2.7125	-2.0542	-2.8063	-2.3917	-2.1562	-2.9021	192.208	59.364	360.731	70.260	408.315	111.008	363.761	382.196	258.872	198.769	403.696	72.040	394.508	327.229	351.429	342.179	0.0012468	0.00038458	9.3005e-05	1371.4	5.3374e-06	4.1461e-06	1369.6	373.38	9.4614e-06	5.4116e-06	424.89	142.18	123.73	42.208	3.9107e-06	52.302	0.00061859	0.00060309	0.00016687	1396.4	6.5466e-06	6.5517e-06	1393.8	380.56	6.5041e-06	6.5813e-06	434.08	145.59	126.77	43.65	6.5692e-06	53.877	387.325	137.775	149.367	65.343	144.445	150.455	65.032	70.112	194.268	197.621	69.555	74.116	74.606	79.043	211.787	78.413	-8191	255	
6377.280	1	1	0	0	0.15012	0.27592	0.12679	0.10421	0.17339	0.22531	0.14194	0.070197	0.22215	0.19238	0.05558	0.17078	0.34318	0.19204	0.10763	0.36932	-1.5333	-2.3917	-2.6562	-2.0938	-2.6562	-2.4042	-2.3271	-2.8583	-2.1813	-2.4042	-2.5687	-2.0563	-2.6958	-2.3563	-2.2188	-2.6521	97.693	288.686	220.982	347.562	358.095	53.015	392.888	58.795	175.189	369.818	380.078	315.261	407.225	403.328	109.500	379.963	0.0015443	0.00038371	0.00011958	1370.4	1.0837e-05	6.8032e-06	1369.5	372.21	9.7968e-06	5.627e-06	425.12	142.25	124.41	42.13	1.0732e-05	51.999	0.00062519	0.00059705	0.00016673	1394.4	6.513e-06	6.6196e-06	1394.1	380.61	6.5736e-06	6.6125e-06	434.39	145.35	126.7	43.659	6.6093e-06	53.802	390.517	162.116	116.903	65.508	213.563	223.371	65.189	70.083	168.717	247.774	69.651	73.865	74.626	79.145	203.618	78.290	-8191	255	
6377.376	1	1	0	0	0.14619	0.026485	0.10592	0.14616	0.33109	0.064691	0.21447	0.23755	0.14762	0.063462	0.22691	0.1444	0.1378	0.16421	0.27259	0.32573	-1.6646	-2.15	-2.6229	-1.9042	-2.5187	-2.3458	-2.3187	-2.8729	-2.1667	-2.2438	-2.5708	-2.0938	-2.4167	-2.6167	-2.125	-2.7542	273.887	162.077	272.538	383.713	144.154	409.316	331.542	379.087	397.320	209.808	98.975	369.866	262.453	359.898	303.505	320.424	0.0013771	0.00035618	0.00019985	1366.2	1.2431e-05	7.8388e-06	1369.8	373.21	1.2997e-05	7.465e-06	422.5	142.1	124.53	42.024	1.9575e-06	52.046	0.0006209	0.00061266	0.00016718	1395.5	6.6098e-06	6.5968e-06	1392.8	380.1	6.5611e-06	6.5844e-06	432.99	145.24	126.71	43.525	6.5165e-06	53.845	388.419	140.173	119.924	65.332	194.027	245.040	65.192	70.132	221.761	237.180	69.570	74.109	74.380	79.036	231.323	78.317	-8191	255	
6377.472	1	1	0	0	0.23474	0.25595	0.094836	0.32953	0.14503	0.1999	0.29181	0.26277	0.21675	0.16531	0.23045	0.25457	0.062897	0.2221	0.0043682	0.21246	-1.7292	-2.175	-2.6271	-2.1729	-2.3417	-2.4583	-2.05	-2.7313	-2.1292	-2.0583	-2.6917	-2.05	-2.4667	-2.6167	-2.0458	-2.6604	281.068	351.628	398.481	305.785	213.486	301.856	403.875	57.414	158.698	187.020	380.728	386.474	225.040	57.004	279.901	303.052	0.0014646	0.00042232	0.00016686	1372.8	9.3776e-06	2.8825e-06	1364.4	369.57	6.5405e-06	9.2212e-06	421.69	140.88	123.47	41.952	6.1805e-06	51.932	0.00061253	0.00058819	0.0001613	1393.7	6.3825e-06	6.3987e-06	1389.2	378.29	6.2912e-06	6.3374e-06	431.43	144.45	125.83	43.351	6.24e-06	53.598	384.919	104.982	135.186	65.369	182.090	185.539	65.177	70.220	195.427	199.350	69.596	73.913	74.362	79.260	225.230	78.096	-8191	255	
6377.568	1	1	0	0	0.12878	0.23019	0.0167	0.35444	0.32381	0.2158	0.22186	0.17194	0.092509	0.2494	0.32599	0.2816	0.085814	0.24695	0.15389	0.18686	-1.7792	-2.0333	-2.5521	-2.1917	-2.1917	-2.5187	-2.1625	-2.7979	-2.3208	-2.0333	-2.8833	-2.1354	-2.2792	-2.6104	-1.8687	-2.3771	297.413	260.862	300.685	386.197	402.827	181.467	377.118	389.397	87.804	143.995	410.368	408.607	361.546	401.582	127.791	304.044	0.0014553	0.00071299	0.00017473	1362.9	7.912e-06	4.377e-06	1365.3	368.29	9.5117e-06	4.6797e-06	423.23	141.21	123.68	41.985	6.7383e-06	51.795	0.00059394	0.00057439	0.00015896	1389.4	6.3601e-06	6.2952e-06	1389.1	378.11	6.2782e-06	6.2858e-06	432.1	144.59	126.09	43.344	6.3272e-06	53.633	388.920	132.421	146.825	64.922	130.291	209.825	64.653	69.861	208.400	160.648	69.363	73.935	74.231	79.266	243.194	78.310	-8191	255	
6377.664	1	1	0	0	0.1897	0.12646	0.14064	0.39065	0.36493	0.15699	0.23908	0.15694	0.19088	0.28514	0.34125	0.55985	0.22276	0.24992	0.16653	0.20585	-1.8625	-1.9771	-2.5083	-2.3354	-2.1312	-2.6042	-2.2854	-2.7979	-2.4271	-1.8813	-2.7917	-2.2333	-2.2833	-2.7917	-2.0417	-2.5104	411.580	333.348	206.055	376.859	161.712	203.299	256.093	358.944	167.854	325.434	359.291	370.199	60.640	350.269	91.567	346.615	0.0014336	0.00079571	5.6777e-05	1368.8	1.2376e-05	7.5855e-06	1364.4	370.83	1.1096e-05	5.4182e-06	422.14	141.93	123.42	41.949	9.5344e-06	52.077	0.00059124	0.00057333	0.00015971	1390.6	6.3749e-06	6.3127e-06	1388.8	378.32	6.2642e-06	6.3225e-06	431.46	144.61	126.08	43.353	6.3859e-06	53.595	389.880	146.300	180.064	65.554	187.439	218.964	65.270	70.224	174.127	141.341	69.681	74.255	74.438	79.035	218.571	78.149	-8191	255	
6377.760	1	1	0	0	0.040203	0.090169	0.20066	0.18493	0.21161	0.18917	0.09591	0.11629	0.1489	0.23021	0.29071	0.1918	0.25005	0.22771	0.095175	0.20648	-2.0333	-1.9792	-2.6354	-2.4688	-2.1229	-2.7313	-2.3187	-2.5708	-2.5667	-1.9792	-2.7062	-2.5875	-2.2479	-2.6063	-2.1271	-2.4062	401.754	386.476	111.428	384.400	410.723	86.328	411.711	392.506	384.527	346.069	402.882	358.165	409.540	69.985	212.827	292.671	0.0012623	0.00053563	0.00021973	1365.4	5.1235e-06	8.7877e-06	1364	369.48	7.6889e-06	4.9769e-06	419.67	141.15	123.1	41.817	7.3304e-06	51.939	0.00059885	0.00058114	0.0001628	1386.7	6.3979e-06	6.3208e-06	1385.1	377.56	6.3041e-06	6.3453e-06	430.4	144.35	125.66	43.18	6.2622e-06	53.499	386.448	155.860	127.035	65.407	236.074	178.292	65.520	70.270	235.412	244.685	69.593	74.086	75.012	79.125	197.579	78.192	-8191	255	
6377.879	1	1	0	0	0.11925	0.21092	0.067553	0.32813	0.12672	0.20588	0.40169	0.22839	0.053867	0.086512	0.15398	0.08494	0.16288	0.24971	0.16535	0.28568	-2.2083	-2.0417	-2.4708	-2.4979	-2.15	-2.725	-2.2604	-2.4208	-2.5021	-1.7563	-2.6979	-2.5958	-2.1312	-2.8	-2.2062	-2.3021	239.960	390.096	182.460	371.503	318.372	97.480	371.561	382.198	392.459	221.740	399.897	352.192	283.567	70.090	336.004	271.534	0.0014262	0.00042388	0.00014279	1362.9	8.7957e-06	5.1392e-06	1369.2	368.75	8.4969e-06	8.9051e-06	419.37	140.98	122.79	41.906	3.8288e-06	51.634	0.0005821	0.00056726	0.00015743	1384.7	6.1866e-06	6.1685e-06	1385.4	376.73	6.0973e-06	6.1566e-06	429.87	144.06	125.42	43.214	6.171e-06	53.298	382.113	170.752	108.497	65.722	166.258	295.334	65.412	70.166	199.626	268.903	69.365	74.286	74.721	79.072	186.476	78.278	-8191	255	
6377.975	1	1	0	0	0.035793	0.073975	0.29126	0.085945	0.19415	0.24373	0.45079	0.11225	0.14087	0.10585	0.13114	0.18579	0.11761	0.091321	0.18602	0.078239	-2.1917	-1.975	-2.4875	-2.7375	-1.8833	-2.5375	-2.3125	-2.1375	-2.4854	-1.8937	-2.4583	-2.5458	-1.8708	-2.4333	-2.1917	-2.2229	408.373	374.485	152.007	358.410	134.069	358.324	384.937	234.953	145.742	345.962	239.067	319.884	367.758	316.586	299.981	399.935	0.0015563	0.00041786	0.00012795	1359.5	7.5676e-06	6.292e-06	1361	368.6	5.5115e-06	4.8232e-06	420.08	140.52	122.5	41.584	3.8116e-06	51.774	0.00058319	0.00056538	0.00015305	1383.2	6.1279e-06	6.1198e-06	1382.2	375.83	6.0551e-06	6.0834e-06	428.76	143.71	125.22	43.061	6.1363e-06	53.31	390.026	86.913	136.827	65.453	156.621	190.892	65.367	70.134	222.291	155.493	69.511	74.192	74.898	79.143	176.738	78.149	-8191	255	
6378.072	1	1	0	0	0.15306	0.24912	0.22709	0.1703	0.20468	0.14237	0.37018	0.14176	0.041193	0.2873	0.26857	0.29337	0.20619	0.22238	0.13515	0.45103	-2.2438	-1.7188	-2.1667	-2.7417	-1.7646	-2.6792	-2.3833	-2.2125	-2.5208	-1.9708	-2.4104	-2.7396	-2.0125	-2.6813	-2.2375	-2.1042	180.238	109.025	254.640	368.603	223.650	167.196	316.620	208.504	100.784	251.850	340.652	340.243	348.123	404.678	157.514	368.449	0.0013849	0.00061062	0.00020728	1361.4	2.2008e-06	1.8522e-06	1360.2	368.83	4.5242e-06	9.8016e-06	418.04	140.59	122.39	41.788	8.9176e-06	51.695	0.00057577	0.00055866	0.00015523	1384.8	6.0949e-06	6.0254e-06	1383.3	376.5	6.0041e-06	6.0517e-06	428.2	143.8	124.98	43.04	5.9968e-06	53.353	383.965	145.187	133.966	65.379	120.185	148.509	65.473	70.165	158.845	153.536	69.637	74.409	75.199	78.903	211.601	78.409	-8191	255	
6378.192	1	1	0	0	0.18053	0.12628	0.23621	0.38272	0.082933	0.1225	0.39241	0.16507	0.1773	0.1218	0.20496	0.21636	0.21135	0.11246	0.22717	0.086874	-2.3583	-2.2562	-2.3396	-2.7562	-1.9542	-2.5167	-2.5604	-2.1958	-2.7375	-2.3167	-2.2292	-2.7333	-2.1417	-2.5042	-2.4437	-2.1792	343.101	243.992	118.362	380.825	154.535	224.583	390.490	359.032	130.883	249.179	330.388	326.200	335.878	188.727	143.805	281.623	0.0014855	0.00059049	0.00014681	1361.4	7.8615e-06	1.3549e-06	1363.2	368.66	9.945e-06	3.4914e-06	419.69	140.43	123.24	41.764	7.1363e-06	51.657	0.0005605	0.00054529	0.0001498	1382.8	5.9034e-06	5.9204e-06	1383.1	376.04	5.9284e-06	5.9807e-06	429.22	143.7	125.04	43.09	5.8995e-06	53.236	386.561	144.165	184.324	65.485	204.940	216.525	65.498	69.874	226.462	223.471	69.508	74.172	74.548	79.128	161.730	78.222	-8191	255	
6378.264	1	1	0	0	0.17126	0.10334	0.18242	0.23687	0.19832	0.21071	0.43161	0.2476	0.19448	0.30074	0.38546	0.18649	0.072787	0.14816	0.054792	0.19917	-2.3312	-2.2562	-2.0146	-2.7229	-1.8333	-2.3833	-2.5917	-2.1125	-2.4708	-2.3396	-2.25	-2.8229	-2.1937	-2.5687	-2.4771	-1.9625	208.978	390.637	342.067	375.642	285.653	341.406	55.592	343.441	351.159	309.057	403.902	402.877	208.920	391.405	64.086	147.415	0.0015429	0.00031301	0.00010774	1361.4	4.513e-06	5.2474e-06	1360	367.75	1.1215e-05	4.5302e-06	419.95	140.44	122.57	41.92	6.0987e-06	51.766	0.00055681	0.00054265	0.00015044	1385.1	5.886e-06	5.9074e-06	1382.6	375.06	5.8633e-06	5.8453e-06	429.25	143.61	124.81	43.181	5.8705e-06	53.248	382.930	128.604	173.678	65.509	130.469	151.806	65.463	70.277	216.285	246.312	69.615	74.212	74.771	79.141	215.871	78.261	-8191	255	
6378.360	1	1	0	0	0.30154	0.14326	0.042716	0.24855	0.071638	0.036627	0.11831	0.22273	0.25272	0.2234	0.37771	0.15407	0.26703	0.34224	0.23487	0.27022	-2.2292	-2.2354	-1.9688	-2.8292	-1.9729	-2.3833	-2.6937	-2.2125	-2.4792	-2.3854	-2.225	-2.6292	-2.2021	-2.2875	-2.7229	-2.0583	251.051	339.149	347.619	243.222	169.450	389.955	312.431	408.739	150.963	344.021	401.359	90.294	399.640	65.573	115.360	57.375	0.001523	0.00063039	0.00015911	1362.4	5.3846e-06	5.8547e-06	1362.3	366.98	9.3556e-06	1.7791e-06	419.04	140.23	122.79	41.697	6.265e-06	51.606	0.00055063	0.00053956	0.00014995	1384.4	5.8387e-06	5.8529e-06	1381.3	375.31	5.8749e-06	5.8754e-06	428.34	143.67	125.13	43.076	5.9949e-06	53.222	383.260	114.251	132.473	65.373	142.095	229.684	65.526	70.227	201.706	403.458	69.820	74.332	74.751	78.843	225.022	78.244	-8191	255	
6378.456	1	1	0	0	0.2297	0.092971	0.26308	0.24718	0.033869	0.26973	0.33562	0.31985	0.23128	0.16001	0.072984	0.14371	0.22522	0.33388	0.12387	0.23376	-2.1271	-2.4062	-1.8521	-2.8958	-2.225	-2.2396	-2.7396	-2.1562	-2.3563	-2.675	-2.1813	-2.8375	-2.3896	-2.2562	-2.7	-2.4313	102.203	349.659	210.272	395.941	98.354	233.820	343.611	383.523	165.206	341.319	64.013	271.146	134.967	352.104	99.771	297.622	0.0015121	0.00063419	0.00020697	1362.6	1.1039e-05	2.8489e-06	1364	368.72	1.4067e-05	8.6441e-06	421.18	141.36	123.13	41.783	6.0534e-06	51.866	0.00056687	0.000551	0.00015388	1386.4	6.0337e-06	6.074e-06	1385.1	376.32	6.0003e-06	6.016e-06	429.89	144.15	125.29	43.145	6.195e-06	53.409	386.951	107.573	171.666	65.547	200.038	163.843	65.481	70.286	243.992	197.092	69.603	73.896	74.581	78.576	173.652	78.291	-8191	255	
6378.577	1	1	0	0	0.054521	0.15794	0.31518	0.12098	0.090929	0.25905	0.2473	0.17286	0.21097	0.051982	0.26539	0.1481	0.15463	0.28268	0.062227	0.31278	-1.8167	-2.5479	-2.0292	-2.7854	-2.5417	-1.9854	-2.7292	-2.3146	-2.4583	-2.65	-2.0771	-2.7958	-2.4521	-2.1104	-2.8479	-2.1083	310.686	165.678	271.914	117.509	173.052	227.707	305.009	334.552	156.345	386.202	403.395	217.447	303.272	318.533	91.028	345.891	0.0014668	0.00050937	0.00028519	1362.6	8.2921e-06	5.1896e-06	1362.4	368.03	1.0606e-05	6.5422e-06	422.02	141.65	123.09	41.817	4.132e-06	51.797	0.00057668	0.00055822	0.00015424	1387.3	6.0428e-06	6.1631e-06	1385.3	377.11	6.1187e-06	6.1191e-06	430.53	144.52	125.6	43.298	6.0443e-06	53.423	377.551	182.525	129.691	65.652	153.824	212.956	65.464	70.341	234.046	192.160	69.596	74.169	74.546	79.050	204.465	78.409	-8191	255	
6378.671	1	1	0	0	0.16388	0.10413	0.31323	0.25948	0.26708	0.1533	0.17341	0.39529	0.11946	0.16657	0.17525	0.26592	0.18963	0.33164	0.253	0.074985	-1.8604	-2.4792	-2.1229	-2.9688	-2.2771	-2.0792	-2.8854	-2.4208	-2.2875	-2.5417	-2.1792	-2.7708	-2.4271	-2.1437	-2.8771	-2.3833	141.223	257.009	271.127	314.911	56.124	131.477	73.424	353.896	160.249	388.281	411.756	103.136	356.476	59.560	208.009	295.693	0.0014874	0.00080952	0.00011913	1361.5	1.3718e-05	7.9435e-06	1364.1	368.61	9.2404e-06	5.7861e-06	418.8	141.06	123.01	41.757	1.0806e-05	51.868	0.00057385	0.0005517	0.00015254	1386.5	5.9933e-06	5.9629e-06	1384.4	376.38	5.9315e-06	5.9209e-06	428.91	144.12	125.16	43.081	5.9465e-06	53.364	386.956	144.789	166.193	65.437	186.943	212.014	65.206	70.343	225.740	214.808	69.634	74.058	74.803	78.963	221.860	78.392	-8191	255	
6378.767	1	1	0	0	0.11651	0.043438	0.11689	0.30889	0.13692	0.32014	0.26086	0.17371	0.18479	0.26004	0.18144	0.14555	0.18665	0.11626	0.12216	0.16469	-1.6042	-2.6667	-1.7938	-2.6375	-2.4917	-2.0917	-2.825	-2.4229	-2.0792	-2.6229	-2.1875	-2.5479	-2.5563	-2.0042	-2.8917	-2.1896	201.406	360.902	171.782	384.836	355.669	82.638	59.111	52.865	286.541	396.125	369.528	308.275	304.759	67.275	299.163	357.585	0.001528	0.00096735	0.00014624	1360.6	7.2613e-06	2.5552e-06	1363.1	369.39	7.9048e-06	7.5339e-06	419.59	140.74	123.26	41.873	3.8507e-06	51.843	0.00056013	0.00054339	0.00015246	1384.2	6.0192e-06	6.0059e-06	1384.2	376.83	5.966e-06	6.0864e-06	429.29	144.21	125.52	43.239	6.0479e-06	53.422	384.235	157.368	183.036	65.703	160.331	206.890	64.889	70.046	267.629	235.566	69.768	74.215	74.772	78.989	188.348	78.251	-8191	255	
6378.841	1	1	0	0	0.32837	0.21688	0.080085	0.1975	0.22839	0.15849	0.15345	0.28404	0.28342	0.23669	0.12558	0.25043	0.18629	0.15907	0.35971	0.048444	-1.8417	-2.75	-2.0979	-2.6063	-2.6458	-2.0917	-2.8292	-2.4188	-2.0375	-2.6688	-2.2542	-2.3646	-2.5708	-2.1354	-2.4354	-2.6479	217.996	401.637	189.858	384.816	188.696	225.909	319.271	59.416	320.534	261.749	131.712	264.465	405.165	406.494	235.764	215.689	0.0014519	0.00042422	0.00020842	1362.9	8.9835e-06	5.6935e-06	1362.7	368.72	1.0556e-05	2.9155e-06	418.67	141.74	122.96	41.864	8.4595e-06	51.749	0.00056746	0.00054284	0.00015107	1387.4	5.9621e-06	5.9546e-06	1386.5	376.82	5.9766e-06	5.914e-06	429.7	144.53	125.62	43.18	6.0517e-06	53.4	377.665	174.869	175.787	65.287	198.873	219.652	63.238	68.396	214.164	228.394	67.931	73.027	73.699	78.343	191.595	77.722	-8191	255	
6378.960	1	1	0	0	0.069348	0.16362	0.075676	0.30611	0.066134	0.10405	0.29673	0.39799	0.14005	0.11977	0.31613	0.10214	0.25499	0.096407	0.049473	0.14621	-1.6208	-2.8354	-2.1354	-2.3354	-2.5167	-1.9021	-2.7146	-2.5563	-2.1292	-2.7	-2.3833	-2.1854	-2.7167	-2.1417	-2.5042	-2.5542	387.162	77.918	185.344	52.333	207.742	138.947	57.204	329.955	171.249	360.399	366.946	51.625	63.060	298.397	114.401	320.319	0.0012846	0.00052064	0.00024154	1362.7	7.108e-06	1.0152e-06	1366.2	367.94	7.7724e-06	4.2373e-06	419.03	141.13	123.36	41.828	9.5379e-06	51.605	0.0005666	0.00053496	0.00014929	1385.3	5.8847e-06	5.8273e-06	1386	376.23	5.8181e-06	5.8357e-06	429.38	144.19	125.35	43.074	5.9484e-06	53.252	385.332	122.220	158.560	64.850	187.321	384.476	64.983	69.451	197.067	231.076	68.878	73.410	74.058	78.482	172.739	77.902	-8191	255	
6379.056	1	1	0	0	0.20543	0.24422	0.098449	0.31083	0.23729	0.11051	0.23819	0.12133	0.092349	0.24925	0.1199	0.047928	0.17721	0.10759	0.23343	0.10704	-1.3792	-2.7292	-2.2854	-2.15	-2.6937	-2.0333	-2.5833	-2.7667	-2.0167	-2.6854	-2.25	-2.3604	-2.7125	-2.1583	-2.3042	-2.7354	153.879	252.414	379.850	387.318	306.145	331.615	344.885	328.324	62.035	65.192	329.867	281.560	291.540	332.928	253.465	250.526	0.0014984	0.00028599	0.00013077	1360.7	9.8882e-06	7.392e-06	1358.8	366.93	8.8576e-06	8.336e-06	419.23	140.58	123.37	41.942	3.7124e-06	51.692	0.00055727	0.00053301	0.00015202	1385	5.8928e-06	5.8891e-06	1383.2	376.11	5.9477e-06	5.9649e-06	429.37	143.91	125.48	43.136	5.9483e-06	53.193	378.615	176.665	169.951	64.672	186.408	163.559	64.679	69.661	230.695	198.149	69.093	73.663	74.310	78.766	222.737	77.863	-8191	255	
6379.152	1	1	0	0	0.14074	0.22991	0.18336	0.21878	0.16192	0.18949	0.14939	0.20422	0.18738	0.19919	0.071189	0.11118	0.085163	0.15715	0.16891	0.16073	-1.7354	-2.6583	-2.2854	-2.2458	-2.5979	-2.2229	-2.4521	-2.7125	-1.9417	-2.6229	-2.6375	-2.1833	-2.9062	-2.0708	-2.1229	-2.7313	410.344	304.082	287.564	350.597	360.146	212.587	56.040	391.250	174.720	272.038	358.004	53.419	343.463	352.779	317.894	401.098	0.0014893	0.00060411	0.0001344	1364.1	1.2136e-05	6.2221e-06	1357.5	368.65	4.8611e-06	7.4333e-06	418.99	140.97	123.41	41.863	9.539e-06	51.471	0.00056444	0.00054115	0.00015032	1385.2	6.0267e-06	6.0074e-06	1382	375.97	6.0361e-06	6.0932e-06	428.91	143.84	125.53	43.212	6.0589e-06	53.31	379.473	133.197	126.491	65.042	178.938	198.662	64.845	69.864	233.936	211.823	69.250	73.580	74.285	78.710	227.377	77.833	-8191	255	
6379.273	1	1	0	0	0.23718	0.065517	0.078353	0.27382	0.029318	0.19843	0.26987	0.16915	0.29847	0.057918	0.29755	0.16555	0.03384	0.14803	0.20226	0.081734	-1.5167	-2.5625	-2.4208	-2.2708	-2.5375	-2.2521	-2.5625	-2.8729	-2.0604	-2.3917	-2.5667	-2.2021	-2.6771	-2.2771	-2.15	-2.6937	321.855	145.622	270.136	296.163	266.407	118.800	286.584	384.582	226.194	280.974	400.273	305.791	384.429	303.201	61.751	244.437	0.001603	0.00031647	0.00012005	1359.5	6.895e-06	5.528e-06	1360.9	368.13	8.2843e-06	9.5618e-06	420.82	141.21	122.61	41.59	7.6609e-06	51.356	0.0005777	0.00054963	0.00015623	1383.8	6.0451e-06	6.0078e-06	1384.2	375.99	5.948e-06	5.9897e-06	430.03	143.97	124.96	43.049	5.9801e-06	53.198	383.938	109.870	191.159	64.988	138.646	191.417	64.931	69.919	181.593	202.964	69.427	73.731	74.347	78.953	226.370	78.190	-8191	255	
6379.369	1	1	0	0	0.083973	0.13309	0.3121	0.27598	0.19511	0.079811	0.3338	0.063467	0.15117	0.14788	0.13376	0.076815	0.095742	0.31867	0.35519	0.18051	-1.5125	-2.5312	-2.4875	-2.125	-2.7375	-2.4271	-2.2188	-2.9917	-2.1875	-2.4208	-2.6771	-2.0833	-2.7417	-2.4521	-2.0354	-2.7438	274.990	180.473	252.316	334.542	198.819	248.522	372.050	338.952	383.655	320.184	401.104	137.782	389.190	77.259	211.042	317.414	0.0015524	0.00053487	0.00020735	1364.5	1.1948e-05	4.1125e-06	1362	368.68	1.0754e-05	7.5105e-06	421.03	141.18	122.81	41.712	6.677e-06	51.499	0.00057028	0.00054418	0.00015178	1385.2	5.9365e-06	5.9633e-06	1384.2	376.37	5.9191e-06	5.9396e-06	428.77	143.95	125.17	43.127	5.9788e-06	53.213	382.501	108.625	138.332	65.148	152.696	179.835	65.086	69.783	215.209	221.969	69.255	73.956	74.655	79.052	158.528	77.876	-8191	255	
6379.465	1	1	0	0	0.17771	0.20564	0.062067	0.19177	0.084455	0.1058	0.2854	0.26253	0.049103	0.11424	0.19684	0.042693	0.10176	0.21649	0.15276	0.034343	-1.6729	-2.2396	-2.6083	-2.0271	-2.7146	-2.3875	-2.2396	-2.7396	-2.0479	-2.1979	-2.9125	-2.1229	-2.4333	-2.5938	-1.9917	-2.6833	121.416	58.488	323.716	323.183	291.033	305.341	330.200	393.367	94.230	254.996	137.914	235.532	340.367	381.099	209.420	55.397	0.0013707	0.00033466	0.00013801	1365	5.0934e-06	5.5244e-06	1361.5	369.5	1.2813e-05	6.4044e-06	420.45	140.68	122.73	41.906	3.8467e-06	51.897	0.00056286	0.00054787	0.00015278	1385.6	5.9608e-06	5.9509e-06	1386.2	376.02	5.9815e-06	6.0135e-06	429.27	143.92	125.1	43.221	6.0099e-06	53.409	390.683	117.202	146.025	64.933	139.557	175.022	64.937	69.805	200.932	214.694	69.654	73.887	74.592	78.717	208.473	78.041	-8191	255	
6379.561	1	1	0	0	0.043398	0.065366	0.15562	0.27157	0.22484	0.18794	0.172	0.073294	0.1707	0.057382	0.13855	0.060988	0.18883	0.20779	0.27291	0.15913	-1.6417	-2.2375	-2.7875	-2.1354	-2.6729	-2.5417	-2.5583	-2.6937	-2.3333	-2.2313	-2.8583	-2.3042	-2.5208	-2.6604	-1.9021	-2.7875	295.421	288.366	222.374	382.864	65.836	54.512	324.852	399.849	120.005	175.247	151.084	286.115	95.550	371.223	91.419	317.550	0.0016919	0.00037789	0.00017641	1361.4	9.1432e-06	2.6613e-06	1367	370.44	1.0186e-05	1.0765e-05	420.44	140.37	123.54	41.918	2.8383e-06	51.814	0.00057199	0.00055659	0.00015464	1386.8	6.0556e-06	6.1132e-06	1385.3	377.05	6.036e-06	6.0724e-06	429.77	144.06	125.69	43.238	6.1115e-06	53.34	383.197	99.358	149.308	65.397	175.960	198.220	65.073	70.127	218.960	198.751	68.954	73.459	74.291	78.781	253.697	77.933	-8191	255	
6379.657	1	1	0	0	0.19882	0.13003	0.19209	0.26025	0.27689	0.16172	0.32702	0.21921	0.025436	0.10778	0.32217	0.27886	0.23241	0.43268	0.14478	0.28983	-1.9771	-2.0021	-2.7021	-2.3688	-2.175	-2.5312	-2.3104	-2.75	-2.4521	-2.0979	-2.8458	-2.0917	-2.2708	-2.8917	-2.0479	-2.5792	92.614	347.432	411.705	353.821	124.699	55.851	352.282	334.128	145.773	68.369	331.729	357.798	371.637	375.862	320.868	67.067	0.0014614	0.00010009	0.00014377	1363.1	8.6364e-06	6.6673e-06	1365.8	369.35	6.8007e-06	4.3207e-07	419.24	141.31	122.96	41.939	6.5837e-06	51.818	0.000572	0.00055671	0.00015529	1387.3	6.1272e-06	6.1248e-06	1386.2	377.25	6.1526e-06	6.1186e-06	429.44	144.4	125.72	43.331	6.1042e-06	53.513	384.876	109.304	189.057	65.167	145.712	179.306	64.821	69.815	227.016	365.624	69.307	73.721	74.505	78.678	214.472	78.041	-8191	255	
6379.753	1	1	0	0	0.14867	0.0678	0.21033	0.3076	0.31002	0.073709	0.037029	0.14827	0.15407	0.0094466	0.35667	0.0081143	0.20517	0.35932	0.14852	0.13741	-1.9854	-1.9438	-2.5563	-2.3979	-2.0938	-2.7	-2.4104	-2.4833	-2.3042	-2.0292	-2.5958	-2.5938	-2.1208	-2.7958	-2.0333	-2.2917	307.155	135.387	327.133	53.869	188.072	179.349	380.339	363.335	303.309	351.982	344.371	289.671	112.008	410.642	134.964	380.687	0.0014589	0.00037034	0.00012492	1364.6	5.4434e-06	5.0403e-06	1365.9	370.24	9.8049e-06	3.5552e-06	420.56	141.6	122.98	41.888	8.3162e-06	51.834	0.00058744	0.00056794	0.00015636	1386.8	6.1656e-06	6.02e-06	1386.7	378.19	6.092e-06	6.1912e-06	429.88	144.47	125.82	43.295	6.0887e-06	53.414	386.901	131.084	157.129	65.247	201.637	158.899	64.963	69.989	216.185	173.836	69.349	73.936	74.354	79.051	216.352	78.199	-8191	255	
6379.872	1	1	0	0	0.17035	0.18279	0.18952	0.45175	0.14879	0.030748	0.42705	0.2257	0.031743	0.26237	0.13708	0.40363	0.15179	0.10248	0.31209	0.27705	-2.1042	-1.8625	-2.6021	-2.2729	-2.2979	-2.8521	-2.1833	-2.6417	-2.6562	-2.0104	-2.775	-2.6792	-2.0521	-2.8917	-2.1229	-2.3125	341.184	254.231	406.485	391.236	180.332	217.980	337.357	329.155	231.547	289.458	336.645	61.255	381.495	56.870	194.422	381.803	0.0015054	0.00013337	0.00010994	1359.7	7.0125e-06	4.4791e-06	1364.9	367.69	7.2897e-06	1.962e-06	420.34	141.06	123.32	41.94	6.9794e-06	51.867	0.00056157	0.00053684	0.00014992	1384.2	5.927e-06	5.8687e-06	1384.6	376.09	5.8189e-06	5.886e-06	429.4	144.24	125.25	43.229	5.8842e-06	53.361	383.860	149.341	178.449	65.049	225.010	233.132	65.103	70.113	183.362	245.488	69.232	74.112	74.316	78.857	215.258	78.069	-8191	255	
6379.968	1	1	0	0	0.13469	0.1477	0.0085956	0.1567	0.31156	0.13009	0.29377	0.2249	0.13676	0.070579	0.26634	0.077578	0.11101	0.4151	0.2094	0.26154	-2.2646	-2.1479	-2.6146	-2.5854	-2.0292	-2.8563	-2.3688	-2.4188	-2.7167	-2.1292	-2.7417	-2.4292	-2.2771	-2.85	-2.1312	-2.3292	397.261	58.139	275.709	327.617	85.274	236.617	373.913	115.818	309.867	409.567	57.670	314.753	202.471	388.846	72.631	284.758	0.0015249	0.00074766	0.00018839	1365.4	6.6778e-06	4.7722e-06	1363.6	368.82	1.0621e-05	6.5438e-06	420.96	141.8	123.58	41.916	7.2945e-06	51.99	0.00056046	0.0005457	0.00015051	1387.6	6.019e-06	5.9548e-06	1384.5	376.39	5.9376e-06	6.0224e-06	430.04	144.43	125.61	43.36	6.0717e-06	53.591	379.075	104.051	165.165	65.507	141.164	166.378	65.347	69.776	201.197	222.596	69.397	73.737	74.565	79.047	206.366	78.032	-8191	255	
6380.065	1	1	0	0	0.20372	0.22729	0.086551	0.28672	0.18819	0.12611	0.39461	0.25486	0.13819	0.13136	0.11724	0.23485	0.29528	0.050807	0.37479	0.21744	-2.3479	-2.0896	-2.4104	-2.65	-1.9125	-2.8	-2.4125	-2.4646	-2.7375	-2.0292	-2.55	-2.7708	-2.0292	-2.6458	-2.1271	-2.1083	61.759	102.534	255.307	406.680	199.138	306.186	54.925	368.029	357.866	166.149	137.635	123.928	356.057	367.385	274.945	371.526	0.0015235	0.00084566	0.00020742	1362.8	6.6235e-06	2.4904e-06	1362.6	367.43	7.4241e-06	7.077e-06	420.96	141.44	123.75	41.858	3.1701e-06	52.039	0.00058117	0.00055575	0.00015491	1387.2	6.0702e-06	6.03e-06	1384.1	376.22	6.0618e-06	6.0637e-06	429.45	144.34	125.7	43.283	6.0989e-06	53.488	388.450	148.438	160.914	65.562	178.768	157.754	65.319	70.338	171.337	191.072	69.374	74.086	74.501	78.951	189.772	78.062	-8191	255	
6380.136	1	1	0	0	0.12753	0.21834	0.1828	0.27064	0.2455	0.15108	0.063401	0.0063484	0.14108	0.14562	0.15702	0.22657	0.17252	0.1117	0.16816	0.13998	-2.3292	-2.0396	-2.4375	-2.7604	-1.9479	-2.5438	-2.5187	-2.2146	-2.8042	-2.0812	-2.5583	-2.8042	-2.0708	-2.5708	-2.4021	-2.2854	240.934	77.862	221.111	385.021	327.519	134.178	68.004	241.925	177.413	165.230	398.341	323.394	325.467	340.712	221.210	346.338	0.0015636	0.00014078	0.00013599	1361.6	1.0529e-05	8.8237e-06	1364.4	368.26	1.2625e-05	7.1512e-06	419.5	140.72	123.41	42.107	9.8672e-06	51.859	0.00057255	0.00056122	0.00015622	1385.2	6.0682e-06	6.0622e-06	1385.2	376.28	6.0873e-06	6.2003e-06	429.44	144.15	125.79	43.316	6.104e-06	53.505	385.476	74.036	153.850	65.365	185.345	177.695	65.230	69.926	228.284	232.015	69.491	74.038	74.559	78.784	213.128	78.154	-8191	255	
6380.257	1	1	0	0	0.21125	0.20721	0.14332	0.20585	0.24305	0.17473	0.07791	0.39009	0.19664	0.26355	0.22206	0.25189	0.19829	0.10351	0.014261	0.28066	-2.3646	-2.2458	-2.2083	-2.7875	-1.9646	-2.6167	-2.8979	-2.1396	-2.5854	-2.1437	-2.4021	-2.8	-2.0458	-2.5667	-2.5375	-2.1083	349.428	125.520	345.353	310.835	294.304	135.336	71.780	357.257	196.038	255.116	341.800	402.084	288.950	62.150	289.464	400.718	0.0014704	0.00021046	0.00018716	1361.3	1.2145e-05	4.6317e-06	1362.1	368.77	1.4744e-05	8.9099e-06	419.73	142.12	123.19	41.957	6.0194e-06	51.929	0.00058075	0.00055555	0.00015615	1386.7	6.1016e-06	6.1311e-06	1386.5	376.32	6.1538e-06	6.1494e-06	429.63	144.48	125.64	43.329	6.0988e-06	53.494	381.484	103.411	137.381	65.396	168.070	185.996	65.437	70.182	229.382	228.771	69.487	74.114	74.282	78.880	220.886	77.853	-8191	255	
6380.353	1	1	0	0	0.32706	0.2606	0.16435	0.28469	0.033422	0.17927	0.36933	0.22027	0.157	0.1417	0.087271	0.25043	0.31217	0.22959	0.085748	0.30762	-2.1729	-2.2354	-2.1708	-2.7438	-1.8896	-2.4979	-2.7875	-2.2833	-2.7396	-2.3646	-2.3375	-2.8125	-2.0292	-2.3354	-2.7354	-2.1437	169.468	210.627	328.584	52.076	296.335	345.025	341.264	344.780	88.240	357.636	61.509	335.550	370.827	321.655	220.960	220.656	0.0014737	0.00042098	0.00012178	1364.9	1.1039e-05	7.3468e-06	1371.5	369.36	9.5569e-06	5.64e-06	421.94	141.33	123.29	41.91	5.1936e-06	52.066	0.00057368	0.00055296	0.00015584	1387.7	6.0873e-06	6.0838e-06	1387.2	376.81	6.0577e-06	6.1594e-06	429.62	144.37	125.66	43.262	6.1692e-06	53.538	387.065	113.665	151.701	65.348	194.424	185.522	65.282	69.987	238.955	250.369	69.406	74.127	74.813	78.896	236.072	78.148	-8191	255	
6380.449	1	1	0	0	0.25455	0.082718	0.071257	0.22899	0.20954	0.14078	0.13024	0.2189	0.33784	0.13805	0.18022	0.03727	0.26186	0.17338	0.31263	0.043732	-2.2188	-2.3396	-2.0792	-2.6125	-2.0208	-2.2896	-2.7229	-2.1375	-2.4625	-2.4417	-2.2979	-2.7458	-2.1354	-2.3708	-2.7438	-2.15	90.125	83.473	261.851	344.278	279.947	267.244	327.432	368.240	394.236	388.503	242.299	408.166	88.715	98.719	398.993	191.389	0.0016687	0.00012803	0.00011205	1365.7	9.3917e-06	5.5015e-06	1365.5	370.09	7.0201e-06	6.8139e-06	422.41	141.46	123.51	42.214	2.3285e-06	51.998	0.00058407	0.00056658	0.0001594	1387.5	6.1584e-06	6.226e-06	1386.3	376.33	6.208e-06	6.1236e-06	429.84	144.62	125.78	43.449	6.1648e-06	53.642	383.488	109.069	199.922	65.194	167.733	145.048	64.978	69.680	199.731	217.644	69.157	73.889	74.387	78.847	230.911	77.895	-8191	255	
6380.545	1	1	0	0	0.23871	0.34992	0.23734	0.28101	0.23415	0.15522	0.22606	0.28813	0.17401	0.21842	0.12615	0.21072	0.35923	0.23903	0.16239	0.37633	-2.1021	-2.5917	-2.1229	-2.9208	-2.1958	-2.1125	-2.9708	-2.1104	-2.5708	-2.5854	-2.1937	-2.7687	-2.2271	-2.4521	-2.9042	-2.2687	302.154	302.809	282.122	322.868	399.091	76.475	343.992	328.670	59.220	343.147	81.238	341.544	389.600	72.244	142.928	394.601	0.0014069	0.00081548	0.00014545	1362.6	6.6883e-06	3.4836e-06	1361.3	369.21	8.0349e-06	3.3941e-06	419.72	141.82	124.34	41.958	6.9275e-06	51.929	0.00058221	0.00057254	0.00015907	1387.2	6.2252e-06	6.2086e-06	1385.4	377.23	6.2237e-06	6.1488e-06	429.89	144.7	125.82	43.383	6.2665e-06	53.531	388.071	141.002	172.548	65.438	179.154	197.655	65.512	70.157	162.107	195.846	69.571	73.904	74.684	79.057	171.858	78.223	-8191	255	
6380.664	1	1	0	0	0.065122	0.10524	0.088028	0.35281	0.24717	0.14001	0.41006	0.21405	0.14018	0.19957	0.3701	0.17019	0.23249	0.16395	0.21806	0.080207	-2.3063	-2.6875	-1.9937	-2.7896	-2.3292	-2.1792	-2.8667	-2.3271	-2.2938	-2.6083	-1.9979	-2.6813	-2.5979	-2.1625	-2.6188	-2.1896	376.911	309.965	345.541	368.859	135.337	307.203	360.636	336.617	55.559	222.693	377.610	407.511	395.291	349.774	300.074	277.608	0.0014463	0.00068338	0.00016125	1360.1	8.7607e-06	4.5491e-06	1370	369.65	7.1376e-06	1.5744e-06	421.8	141.6	123.46	42.046	8.0512e-06	52.015	0.00059475	0.00057029	0.00015936	1387.3	6.2628e-06	6.3219e-06	1388.1	377.5	6.2707e-06	6.2924e-06	430.03	144.79	125.82	43.405	6.2299e-06	53.663	382.229	149.127	125.823	65.468	195.742	221.274	65.407	70.144	222.453	184.425	69.367	74.011	74.892	79.074	181.096	78.105	-8191	255	
6380.738	1	1	0	0	0.22437	0.21688	0.25516	0.42918	0.19237	0.047493	0.11444	0.29442	0.21747	0.069301	0.11093	0.25767	0.10051	0.1765	0.017491	0.1275	-1.9333	-2.5646	-1.9646	-2.7583	-2.4083	-2.1833	-2.9729	-2.2708	-2.3625	-2.6458	-2.0646	-2.6667	-2.7167	-2.125	-2.6958	-2.3688	276.759	253.459	226.924	53.550	200.035	261.183	279.653	331.651	128.578	297.203	143.942	292.467	374.826	324.729	291.658	401.416	0.0014838	0.00105	0.00017667	1364.4	7.9896e-06	5.8477e-06	1369.8	369.41	9.8449e-06	4.7959e-06	421.3	141.42	123.4	42.116	7.7829e-06	52.129	0.00059714	0.00057658	0.00015841	1387.6	6.2819e-06	6.2422e-06	1388.7	377.27	6.2034e-06	6.1937e-06	429.76	144.51	125.84	43.421	6.2943e-06	53.587	383.902	144.011	142.112	65.518	155.321	209.703	65.539	70.036	237.745	327.394	69.029	73.834	74.535	78.876	238.648	78.087	-8191	255	
6380.834	1	1	0	0	0.32618	0.071699	0.13815	0.24935	0.12641	0.18801	0.38659	0.24847	0.17399	0.095598	0.13267	0.17077	0.073439	0.51826	0.30498	0.086192	-1.9417	-2.6458	-1.9833	-2.8417	-2.5417	-2.1521	-3.0187	-2.3625	-2.1437	-2.85	-2.0979	-2.4521	-2.6396	-2.0417	-2.6188	-2.4271	100.548	353.270	171.791	412.004	398.801	212.666	363.928	349.039	65.873	363.998	336.820	411.893	298.082	403.895	270.697	73.983	0.001493	0.0004752	0.00019822	1362.7	6.6244e-06	3.9177e-06	1370.1	370.82	1.0685e-05	1.2965e-06	419.61	141.51	123.28	42.054	5.8091e-06	51.994	0.00058993	0.00056501	0.00016226	1388.5	6.3101e-06	6.254e-06	1388.3	377.63	6.2552e-06	6.1836e-06	430.21	144.81	125.69	43.412	6.1829e-06	53.645	385.711	118.703	139.951	65.360	143.917	156.876	65.368	70.262	204.180	243.055	69.510	74.112	73.897	78.471	195.021	77.809	-8191	255	
6380.953	1	1	0	0	0.091389	0.20187	0.27659	0.30436	0.22581	0.34411	0.16154	0.1693	0.06666	0.26961	0.22378	0.11807	0.090341	0.23708	0.084752	0.055639	-1.7062	-2.6958	-1.925	-2.3896	-2.6375	-2.1083	-2.8542	-2.5021	-2.1125	-2.8896	-2.2479	-2.2917	-2.5604	-2.1417	-2.3729	-2.6458	183.186	94.655	231.012	384.083	360.840	169.231	321.980	52.114	249.183	320.942	88.082	293.632	359.268	257.914	312.182	267.646	0.0015829	0.00025698	0.00012829	1366.4	1.0888e-05	4.3018e-06	1364.4	369.19	1.0325e-05	8.3674e-06	421.79	141.37	123.33	42.156	5.8676e-06	52.287	0.00058155	0.00055415	0.00015575	1388.2	6.0404e-06	6.1026e-06	1387.5	377.27	6.0623e-06	6.029e-06	429.82	144.71	125.66	43.456	6.0343e-06	53.71	384.915	121.414	98.190	64.794	152.960	213.255	65.329	70.074	243.749	216.803	69.395	73.852	74.458	78.719	228.485	78.130	-8191	255	
6381.049	1	1	0	0	0.2862	0.1262	0.11386	0.13085	0.10235	0.35094	0.25848	0.15944	0.11631	0.05598	0.10696	0.1088	0.24801	0.20315	0.11975	0.35224	-1.7146	-2.5771	-2.2854	-2.3438	-2.7292	-2.0125	-2.5771	-2.7	-2	-2.6521	-2.2188	-2.4333	-2.7687	-2.0625	-2.4667	-2.5396	402.457	286.580	122.312	360.459	73.344	303.021	330.933	332.891	83.045	160.197	291.118	336.677	128.598	105.710	229.050	67.656	0.0014872	0.00053066	0.00012376	1362.4	9.5621e-06	2.2806e-06	1367.3	370.09	5.821e-06	1.1829e-05	420.71	141.36	123.86	41.939	7.9862e-06	52.16	0.00056472	0.00054567	0.00015313	1388.8	5.9708e-06	6.0822e-06	1388.9	377.42	6.0123e-06	6.1049e-06	430.21	144.77	126.12	43.393	6.1893e-06	53.654	389.696	157.642	124.458	65.318	126.263	165.599	65.293	70.178	209.067	225.764	69.333	73.900	74.429	78.885	187.406	77.912	-8191	255	
6381.145	1	1	0	0	0.040794	0.17426	0.20841	0.18646	0.28533	0.19036	0.39266	0.26074	0.13718	0.10267	0.16633	0.13043	0.21503	0.42528	0.18201	0.038775	-1.6063	-2.8208	-2.3042	-2.45	-2.725	-2.0167	-2.7333	-2.7562	-2.0979	-2.6125	-2.4896	-2.1562	-2.8083	-2.1667	-2.2646	-2.6771	58.153	391.128	179.167	285.621	153.697	368.731	337.586	391.523	233.685	159.490	296.117	402.359	204.617	76.988	61.043	163.148	0.0014387	0.00045314	0.0001907	1364.1	1.1195e-05	6.0189e-06	1366.9	369.14	1.0031e-05	1.2658e-06	420.75	142.17	124.11	42.117	3.1787e-06	51.84	0.00057868	0.00057052	0.00015793	1388.6	6.2647e-06	6.3189e-06	1386.3	377.4	6.3237e-06	6.3198e-06	430.61	145.11	126.25	43.569	6.3501e-06	53.719	383.303	140.952	167.654	65.407	164.014	224.457	65.066	70.179	211.128	200.871	69.283	73.645	74.326	78.871	141.166	78.420	-8191	255	
6381.241	1	1	0	0	0.14488	0.11887	0.24455	0.2521	0.080923	0.17394	0.27758	0.15747	0.096604	0.081069	0.22273	0.24132	0.14095	0.10104	0.017154	0.016015	-1.5562	-2.3792	-2.2229	-2.2313	-2.7354	-2.3583	-2.6437	-2.6229	-1.9396	-2.5875	-2.5062	-2.2833	-2.6437	-2.2271	-2.3375	-2.6708	163.113	213.498	399.025	401.660	297.243	163.643	366.108	327.754	69.665	410.796	173.004	309.420	116.216	297.282	351.175	317.751	0.0015814	0.0004454	0.00014777	1369.1	1.0394e-05	3.2351e-06	1370.5	369.38	1.3627e-05	4.5046e-06	422.23	142.43	123.55	42.169	5.7443e-06	52.14	0.00059836	0.00058526	0.00016376	1389.8	6.3428e-06	6.4227e-06	1389	377.12	6.4017e-06	6.3634e-06	431.22	145.23	126.14	43.46	6.4746e-06	53.735	380.600	120.683	178.086	65.190	218.735	198.696	64.980	70.123	197.980	165.274	69.461	73.763	74.428	78.816	204.855	78.193	-8191	255	
6381.362	1	1	0	0	0.16167	0.22769	0.043522	0.20219	0.049014	0.324	0.12252	0.093634	0.23496	0.040659	0.28783	0.42784	0.328	0.14698	0.029645	0.2389	-1.5521	-2.5042	-2.6188	-2.1979	-2.6979	-2.1208	-2.5521	-2.8479	-2.2188	-2.3438	-2.6437	-2.1229	-2.8146	-2.4437	-2.2313	-2.8521	175.335	111.040	200.546	334.201	95.750	228.430	64.213	371.719	400.467	299.895	368.138	342.500	107.945	352.423	345.344	300.522	0.0015075	0.00041565	0.00021059	1366.8	1.0703e-05	5.416e-06	1371.4	370.67	1.0594e-05	8.3426e-06	421.49	141.91	123.83	42.047	9.5387e-06	52.094	0.00060202	0.00057743	0.00016163	1389.9	6.3672e-06	6.4017e-06	1390.4	378.09	6.3931e-06	6.3938e-06	431.18	145.08	126.28	43.442	6.3751e-06	53.745	384.565	103.552	170.772	65.368	149.569	148.861	65.149	70.138	185.605	235.056	69.520	73.916	74.589	78.971	211.992	78.170	-8191	255	
6381.433	1	1	0	0	0.27372	0.019808	0.039923	0.19194	0.14802	0.25806	0.24898	0.18592	0.18221	0.14819	0.35425	0.24225	0.23407	0.11231	0.040722	0.19807	-1.6479	-2.3875	-2.3917	-2.1979	-2.7125	-2.4521	-2.2875	-2.9604	-2.0125	-2.5583	-2.875	-2.0208	-2.7229	-2.4167	-2.1083	-2.9083	52.536	253.913	162.890	302.057	142.036	271.088	230.411	381.701	290.292	364.989	389.783	92.836	318.293	104.496	232.409	64.332	0.0012612	0.00041926	0.00010197	1362.7	6.2486e-06	8.0142e-06	1367.9	369.97	9.3214e-06	8.424e-06	423.44	141.36	123.74	42.036	8.2733e-06	52.16	0.00059697	0.00058858	0.00016035	1389.2	6.3782e-06	6.4061e-06	1387.9	377.78	6.4173e-06	6.3768e-06	431.37	144.6	126.05	43.458	6.4251e-06	53.716	389.577	183.209	175.299	65.426	145.713	197.351	65.247	70.213	220.813	241.958	69.552	74.005	74.604	78.781	204.783	78.313	-8191	255	
6381.554	1	1	0	0	0.26407	0.13428	0.10951	0.38162	0.25444	0.22474	0.17338	0.10715	0.14694	0.10237	0.11627	0.10337	0.21288	0.2738	0.15635	0.20407	-1.7104	-2.1562	-2.4333	-2.2604	-2.5312	-2.5521	-2.2562	-2.8479	-2.3521	-2.2125	-2.7979	-2.2292	-2.5479	-2.4458	-2.0938	-2.6625	341.057	362.485	136.007	370.685	265.136	154.918	313.696	379.385	238.720	149.489	90.741	403.325	403.664	106.243	399.740	95.608	0.0014224	0.00044201	1.9164e-05	1370.3	7.2791e-06	6.1392e-06	1370.3	371.46	8.606e-06	7.0028e-06	422.07	141.9	123.7	42.16	9.6343e-06	52.02	0.00060223	0.00058667	0.00016145	1389	6.3916e-06	6.3937e-06	1388.8	378.54	6.4023e-06	6.4004e-06	431.66	145.16	126.32	43.499	6.3477e-06	53.665	383.757	87.151	401.736	65.432	164.838	201.414	65.254	70.027	201.381	218.402	69.542	74.113	74.512	79.182	214.787	78.062	-8191	255	
6381.650	1	1	0	0	0.1158	0.26301	0.29235	0.20249	0.13881	0.112	0.31509	0.31482	0.30968	0.14423	0.2024	0.14032	0.091271	0.22472	0.074125	0.22918	-1.7792	-2.1	-2.525	-2.2667	-2.2375	-2.5646	-2.1854	-2.7958	-2.1979	-2.2167	-2.7812	-2.2021	-2.3854	-2.6417	-2.1312	-2.4896	144.277	165.084	352.877	396.689	337.494	341.017	367.162	79.299	410.167	388.670	332.077	318.736	237.517	78.673	365.651	373.888	0.0013859	0.00040731	0.00020907	1363.2	6.6965e-06	7.8974e-06	1367.8	370.93	8.0033e-06	3.2699e-06	421.54	141.23	123.61	42.089	2.7652e-06	52.063	0.00059807	0.00058706	0.00016025	1389.2	6.324e-06	6.2924e-06	1388.1	378.44	6.2984e-06	6.4013e-06	431.44	144.88	126.38	43.555	6.4282e-06	53.739	384.184	122.640	161.640	65.591	172.490	229.243	65.341	69.921	265.893	244.513	69.588	73.930	74.774	79.195	209.667	78.352	-8191	255	
6381.745	1	1	0	0	0.069588	0.32111	0.1959	0.34183	0.12891	0.11051	0.30695	0.10636	0.13111	0.25912	0.20449	0.33587	0.056822	0.21242	0.0625	0.27256	-1.9604	-2.1667	-2.7042	-2.2854	-2.175	-2.6937	-2.1083	-2.6083	-2.25	-1.9	-2.8333	-2.1917	-2.4167	-2.7146	-2.1063	-2.5042	181.851	113.867	204.611	392.971	322.222	305.150	361.602	374.041	74.131	80.347	400.361	380.557	127.402	102.518	396.936	369.442	0.0014995	0.00042208	0.00015732	1370.6	4.8213e-06	6.2736e-06	1365.9	370.59	8.0789e-06	4.8905e-06	422.3	141.5	124.16	42.148	3.7391e-06	52.333	0.00059615	0.00058605	0.00015949	1389.9	6.3892e-06	6.3577e-06	1387.3	377.91	6.3848e-06	6.4053e-06	431.57	144.94	126.39	43.515	6.4445e-06	53.786	390.919	78.360	143.284	65.380	215.075	200.212	65.419	69.939	227.038	208.515	69.549	74.093	74.534	79.018	228.538	78.110	-8191	255	
6381.841	1	1	0	0	0.090972	0.37389	0.1097	0.42632	0.1794	0.24098	0.32274	0.3477	0.18	0.036354	0.31695	0.10795	0.41965	0.24353	0.27808	0.096424	-1.8125	-1.8667	-2.5104	-2.2687	-2.1104	-2.575	-2.3146	-2.6667	-2.4188	-1.9667	-2.6146	-2.2771	-2.3604	-2.7021	-1.9937	-2.525	291.942	312.014	372.865	356.676	231.361	276.507	379.706	359.380	98.519	299.468	383.107	306.734	380.076	63.504	129.045	272.663	0.0015719	0.00045219	0.00013875	1368.5	9.0088e-06	2.3654e-06	1368.7	370.64	8.9736e-06	6.177e-06	422.92	142.01	123.65	42.109	2.4824e-06	52.01	0.00060711	0.00058668	0.0001634	1389.7	6.5217e-06	6.4923e-06	1390.7	378.65	6.4914e-06	6.5206e-06	431.58	145.16	126.54	43.579	6.3874e-06	53.853	382.246	169.909	111.668	65.377	151.375	155.882	65.260	70.157	207.704	160.874	69.722	74.017	74.629	78.681	202.217	77.850	-8191	255	
6381.961	1	1	0	0	0.14846	0.25627	0.027408	0.0764	0.036503	0.084891	0.16351	0.10645	0.066885	0.21129	0.43156	0.15674	0.19523	0.19003	0.078076	0.32759	-1.9771	-1.8646	-2.7167	-2.4646	-2.2833	-2.6146	-2.2396	-2.6688	-2.6104	-2.1042	-2.7375	-2.4604	-2.2	-2.6562	-2.1271	-2.3312	393.079	214.855	344.490	129.917	148.347	142.523	66.589	357.036	152.147	111.405	74.657	263.601	132.993	381.872	178.061	323.307	0.0017103	0.00022724	0.00011305	1364.4	4.6468e-06	3.0875e-06	1370.6	371.58	8.3109e-06	6.3567e-06	422.75	142.19	123.64	41.934	1.1234e-05	52.066	0.00060182	0.00057894	0.00015886	1388.2	6.3079e-06	6.2747e-06	1389.4	378.53	6.1882e-06	6.1729e-06	430.91	144.76	126.07	43.47	6.1797e-06	53.684	381.880	237.083	113.955	65.461	202.237	166.639	65.244	70.143	225.892	200.414	69.530	73.932	74.649	78.612	188.014	77.903	-8191	255	
6382.033	1	1	0	0	0.12404	0.12801	0.12821	0.3549	0.14969	0.21336	0.29656	0.21712	0.1772	0.090026	0.25007	0.072158	0.24579	0.085984	0.25223	0.042903	-2.0646	-1.8875	-2.6375	-2.3292	-2.0521	-2.5729	-2.3542	-2.4146	-2.7896	-2.0083	-2.625	-2.4271	-2.2375	-2.9667	-2.1583	-2.2958	148.854	370.476	296.360	371.032	147.872	163.298	380.133	54.145	67.368	405.132	58.786	359.076	394.396	279.891	111.306	265.904	0.0015981	0.00068759	0.00018328	1366.4	1.1842e-05	3.3714e-06	1366	371.22	1.2675e-05	4.0722e-06	422.09	142.06	123.63	42.122	5.4461e-06	51.849	0.00057993	0.00056859	0.00015773	1387.6	6.1689e-06	6.1223e-06	1387.3	377.91	6.2244e-06	6.219e-06	430.57	144.75	125.92	43.463	6.208e-06	53.557	380.286	173.294	178.238	65.680	131.634	180.400	65.364	70.302	219.931	253.442	69.648	74.133	74.851	79.166	178.232	76.384	-8191	255	
6382.129	1	1	0	0	0.072671	0.25213	0.21255	0.20767	0.25425	0.068303	0.061107	0.074875	0.038559	0.20177	0.42148	0.10915	0.22421	0.15224	0.16276	0.18529	-2.2667	-2.0417	-2.5375	-2.7167	-2.0667	-2.6354	-2.5062	-2.2917	-2.6562	-1.9896	-2.5729	-2.6646	-2.0521	-2.8458	-2.2854	-2.3833	100.953	184.450	165.982	375.616	277.511	301.938	370.501	83.701	154.232	112.366	371.370	297.782	369.310	401.256	128.605	352.292	0.0015169	0.0009636	9.9197e-05	1361.2	7.5915e-06	3.8723e-06	1363	369.37	7.7668e-06	7.0037e-06	421.41	142.44	123.3	42.181	1.0706e-05	51.929	0.00058947	0.00056841	0.00016001	1386	6.3911e-06	6.3573e-06	1385.4	377.96	6.3825e-06	6.4622e-06	431.2	145.25	126.22	43.536	6.461e-06	53.738	389.142	135.146	113.364	63.913	148.496	172.878	64.217	69.178	194.839	222.466	69.023	73.500	74.377	79.045	226.803	78.197	-8191	255	
6382.225	1	1	0	0	0.098283	0.13122	0.22698	0.10182	0.018094	0.13574	0.04878	0.35936	0.035236	0.091997	0.035771	0.14081	0.28643	0.14998	0.19001	0.33603	-2.3271	-2.1292	-2.45	-2.7521	-2.0896	-2.85	-2.6667	-2.3042	-2.9208	-2.0792	-2.4688	-2.7021	-2.0687	-2.6312	-2.2687	-2.3708	138.185	314.062	57.639	375.337	368.048	116.838	236.095	388.310	263.753	343.679	287.953	336.101	382.160	364.589	133.130	364.855	0.0015924	0.00075579	9.1874e-05	1361.2	7.1623e-06	1.6593e-06	1364	370.36	7.8702e-06	8.185e-06	421.8	141.99	124.06	42.229	7.8622e-06	52.165	0.00060093	0.00057865	0.00016357	1386.4	6.4104e-06	6.5355e-06	1386.7	377.93	6.3317e-06	6.4412e-06	431.34	145.02	126.25	43.578	6.4888e-06	53.756	383.204	154.847	183.517	65.589	147.067	145.880	65.496	70.315	222.054	184.576	69.452	74.105	74.522	79.095	219.983	78.100	-8191	255	
6382.321	1	1	0	0	0.093594	0.25331	0.10704	0.29501	0.24235	0.23791	0.23752	0.16819	0.15555	0.1789	0.34261	0.26265	0.12978	0.25978	0.21335	0.088107	-2.2542	-2.1271	-2.5396	-3.0687	-1.9667	-2.5042	-2.6979	-2.1917	-2.7979	-2.1146	-2.1979	-2.8021	-2.0604	-2.6333	-2.4792	-2.2	87.235	308.576	248.872	381.125	411.025	58.887	376.911	71.568	359.717	138.234	365.647	69.103	205.434	137.315	191.493	143.253	0.001422	0.00060183	0.00014163	1366.5	9.4104e-06	2.6642e-06	1372.4	370.33	1.0148e-05	8.8763e-06	419.28	141.59	123.68	41.88	5.1577e-06	51.967	0.00060218	0.00059038	0.0001625	1388.5	6.3644e-06	6.4617e-06	1390.1	377.83	6.3673e-06	6.4045e-06	430.74	144.66	126.09	43.424	6.3613e-06	53.703	382.643	116.664	144.329	65.692	145.511	313.392	65.406	70.243	223.811	219.913	69.540	74.359	74.636	78.946	167.884	78.224	-8191	255	
6382.442	1	1	0	0	0.084785	0.22829	0.31194	0.15312	0.05621	0.28675	0.25275	0.31329	0.31664	0.23466	0.2892	0.1172	0.18886	0.10134	0.15973	0.32937	-2.2687	-2.15	-2.15	-2.8896	-1.9771	-2.2229	-2.7854	-2.0417	-2.5479	-2.3021	-2.1167	-2.8375	-2.125	-2.4562	-2.4479	-2.1271	171.390	217.511	271.732	364.491	136.370	104.300	354.979	303.274	140.236	241.510	56.847	382.988	82.693	232.262	208.391	63.549	0.0014978	0.0007963	0.00017979	1364.6	4.0539e-06	9.7285e-07	1365.2	368.84	4.5808e-06	6.6781e-06	421.02	141.39	122.82	42.282	9.2358e-06	52.127	0.000604	0.0005759	0.00016092	1387.4	6.3809e-06	6.382e-06	1385.7	377.27	6.3394e-06	6.3618e-06	430.71	144.82	125.95	43.521	6.2786e-06	53.689	390.552	152.925	182.185	65.457	151.338	293.140	64.818	69.801	203.578	236.942	69.460	74.311	74.898	79.122	205.120	78.211	-8191	255	
6382.538	1	1	0	0	0.1603	0.14095	0.17847	0.37991	0.16664	0.15715	0.25242	0.097152	0.17369	0.27279	0.1088	0.040073	0.23318	0.21707	0.18839	0.28863	-2.3396	-2.3688	-2.1437	-2.9938	-2.0292	-2.4479	-2.9042	-2.0771	-2.6437	-2.4979	-2.2458	-2.7854	-2.3042	-2.2854	-2.7333	-1.9729	394.941	153.958	136.283	341.379	321.875	82.309	356.000	217.615	302.780	163.866	273.209	348.544	382.594	368.101	84.215	399.269	0.0015584	0.00045273	4.3503e-05	1370.1	5.5993e-06	6.2694e-06	1367.2	369.89	6.6301e-06	9.0938e-06	422.25	141.86	123.51	42.032	3.7705e-06	52.155	0.00059585	0.00058118	0.00016217	1388.9	6.3324e-06	6.3755e-06	1387.9	377.66	6.3528e-06	6.4092e-06	431.01	144.99	126.17	43.538	6.2858e-06	53.663	383.191	119.621	98.004	65.769	162.923	192.528	65.406	70.427	199.032	212.058	69.522	74.174	74.810	79.195	162.851	78.381	-8191	255	
6382.634	1	1	0	0	0.06919	0.1552	0.28459	0.13064	0.1906	0.142	0.28157	0.15528	0.23117	0.25155	0.33471	0.1434	0.17123	0.12538	0.14716	0.24335	-2.0917	-2.4562	-2.0958	-3.0417	-2.1667	-2.1667	-2.7104	-2.2729	-2.6146	-2.4104	-2.1813	-2.8854	-2.2375	-2.2625	-2.575	-2.0563	397.810	270.526	223.655	351.598	141.053	268.758	391.530	359.357	381.192	403.625	350.237	60.172	404.181	365.229	345.178	376.987	0.0014036	0.00066314	9.0952e-05	1367.3	7.2572e-06	7.2032e-06	1370.3	370.24	8.8212e-06	7.4939e-06	421.81	141.39	124	42.182	3.5895e-06	52.124	0.00059809	0.00057659	0.00016105	1388.6	6.3346e-06	6.313e-06	1390.5	377.86	6.2434e-06	6.3434e-06	430.86	144.86	126.3	43.524	6.4235e-06	53.765	386.729	167.425	133.554	65.857	178.920	205.258	65.447	70.557	244.151	225.516	69.949	74.227	74.808	79.106	213.163	78.424	-8191	255	
6382.731	1	1	0	0	0.028487	0.19621	0.15027	0.30309	0.14995	0.15451	0.21541	0.079098	0.25853	0.31949	0.060907	0.22783	0.14124	0.33512	0.094939	0.25634	-1.9271	-2.4833	-1.9375	-2.8042	-2.275	-1.9688	-2.8354	-2.25	-2.325	-2.6854	-2.1333	-2.75	-2.3729	-2.3104	-2.6979	-2.2938	208.746	235.323	152.046	328.658	287.955	317.941	362.845	71.092	77.070	129.455	405.163	353.592	384.045	57.497	279.460	331.906	0.0013799	0.00058318	0.00015294	1364.2	6.3565e-06	4.9919e-06	1371.2	370.44	8.5116e-06	1.5925e-06	421.67	142.71	123.94	42.217	5.6675e-06	52.109	0.0006035	0.00058562	0.0001633	1388.3	6.5161e-06	6.4387e-06	1389.1	378.11	6.4549e-06	6.5124e-06	431.21	145.33	126.29	43.57	6.4994e-06	53.768	383.344	167.615	163.572	65.828	168.127	193.649	65.546	70.537	201.052	205.809	69.689	74.375	74.954	79.187	186.386	78.368	-8191	255	
6382.825	1	1	0	0	0.22619	0.17307	0.20362	0.22171	0.33069	0.10488	0.051656	0.13265	0.14855	0.19593	0.21888	0.22969	0.34044	0.21194	0.087556	0.40147	-1.9375	-2.5417	-2.0708	-2.7292	-2.5042	-2.1917	-2.9188	-2.225	-2.3625	-2.5458	-2.075	-2.5729	-2.5021	-2.0896	-2.6771	-2.2875	332.201	263.529	404.409	388.855	314.182	225.125	202.534	409.677	342.341	282.984	315.039	394.448	103.365	151.909	203.446	342.565	0.0016046	0.00079372	0.00018703	1365.8	7.824e-06	6.4586e-06	1372.6	370.37	1.3403e-05	8.5962e-06	421.54	142.27	124.11	42.119	3.9081e-06	52.1	0.00061363	0.00059793	0.00016673	1390.4	6.5241e-06	6.5405e-06	1390.4	378.14	6.5471e-06	6.5095e-06	431.3	145.42	126.63	43.625	6.5499e-06	53.883	383.857	118.604	150.132	65.685	206.501	230.272	65.665	70.366	199.431	237.078	69.619	74.262	74.894	79.360	221.446	78.677	-8191	255	
6382.923	1	1	0	0	0.12359	0.11407	0.08343	0.32858	0.21385	0.1702	0.18513	0.31225	0.035368	0.16299	0.39048	0.26327	0.24319	0.16373	0.097683	0.142	-1.6542	-2.6042	-2.0979	-2.7292	-2.4375	-2	-2.9	-2.3542	-1.9896	-2.9167	-2.1708	-2.625	-2.6063	-1.9854	-2.6688	-2.2958	215.021	313.887	83.011	346.895	145.891	92.768	340.566	386.185	317.757	308.924	378.759	360.318	90.855	392.214	98.350	396.298	0.0014034	0.00079265	0.00012707	1369.1	7.3245e-06	5.1719e-06	1368.6	370.64	6.7766e-06	4.2533e-06	421.34	142.18	124.12	42.217	4.815e-06	52.021	0.00062166	0.00059648	0.00016677	1391.7	6.5555e-06	6.5792e-06	1390.4	378.59	6.5737e-06	6.5182e-06	432.25	145.15	126.67	43.663	6.5575e-06	53.824	382.539	123.593	165.335	65.603	163.695	176.848	65.585	70.506	196.681	188.974	70.037	74.041	74.700	79.216	244.578	78.476	-8191	255	
6383.042	1	1	0	0	0.37859	0.11941	0.070029	0.18575	0.040442	0.20867	0.18312	0.10968	0.21339	0.095997	0.13584	0.11653	0.084732	0.30071	0.29772	0.26657	-1.65	-2.5667	-2.0833	-2.4292	-2.6417	-1.9729	-2.8812	-2.4917	-2.1042	-2.7292	-2.0854	-2.5771	-2.6667	-2.0958	-2.6521	-2.6021	272.134	281.090	148.660	409.735	112.699	276.472	358.375	326.945	193.733	240.189	326.210	337.076	349.937	62.405	357.180	345.299	0.0014686	0.00056273	0.00015478	1368	6.8393e-06	2.7115e-06	1373.1	371.29	1.0128e-05	8.411e-06	423.55	142.69	124.09	42.09	5.6347e-06	52.081	0.00062076	0.0006045	0.00016697	1390.7	6.5513e-06	6.5672e-06	1391	378.86	6.583e-06	6.5412e-06	431.84	145.47	126.7	43.642	6.5373e-06	53.788	380.075	117.296	167.399	65.666	172.714	269.626	65.686	70.617	235.574	230.337	69.800	74.274	75.116	79.457	192.886	78.343	-8191	255	
6383.138	1	1	0	0	0.13905	0.15969	0.3719	0.44745	0.19081	0.045344	0.40078	0.23382	0.13347	0.032694	0.25627	0.064259	0.18714	0.25436	0.18578	0.22248	-1.6333	-2.5771	-2.0979	-2.4146	-2.4771	-2.0292	-2.8458	-2.6833	-1.9625	-2.8729	-2.2208	-2.3458	-2.7354	-2.3042	-2.4313	-2.55	260.517	380.522	130.290	72.385	170.833	298.543	327.190	74.357	364.590	205.340	89.579	401.531	328.725	373.430	98.215	328.407	0.0013937	0.00020629	0.00022866	1364.6	9.6296e-06	4.7507e-06	1371.6	370.41	5.8999e-06	1.1664e-06	421.44	141.93	123.83	42.317	4.7932e-06	52.04	0.00061833	0.00060661	0.00016893	1390.1	6.5757e-06	6.627e-06	1391.4	378.81	6.5914e-06	6.6316e-06	431.24	145.18	126.57	43.664	6.5834e-06	53.782	388.867	222.014	139.714	65.727	165.304	206.188	65.634	70.531	215.321	220.551	69.833	74.349	75.090	79.372	250.542	78.417	-8191	255	
6383.234	1	1	0	0	0.15636	0.25161	0.087996	0.21524	0.093853	0.24935	0.15204	0.38433	0.13669	0.22129	0.21761	0.30491	0.16461	0.15028	0.33217	0.28741	-1.4229	-2.5896	-2.2188	-2.325	-2.7167	-2.0708	-2.5083	-2.7729	-1.9354	-2.7792	-2.4729	-2.1729	-2.7646	-2.2562	-2.5896	-2.7188	217.714	292.802	161.468	397.081	183.791	243.345	239.395	379.090	56.062	156.396	388.129	346.858	289.042	402.387	203.026	365.371	0.0014594	0.00019377	0.00020671	1365.7	6.1787e-06	2.6958e-06	1368.5	370.32	1.2133e-05	8.6692e-06	420.33	141.71	124.77	42.222	1.0177e-05	52.106	0.00062018	0.00059989	0.00016715	1389.1	6.5611e-06	6.5196e-06	1387.9	378.21	6.5003e-06	6.5098e-06	431.53	145.05	126.52	43.643	6.4821e-06	53.758	383.292	157.958	172.017	65.677	173.770	238.274	65.570	70.561	204.046	217.409	69.816	74.402	75.014	79.470	201.105	78.566	-8191	255	
6383.330	1	1	0	0	0.086096	0.070607	0.17523	0.30385	0.15679	0.21101	0.37282	0.22331	0.17201	0.17809	0.18	0.11246	0.32509	0.17992	0.12682	0.33202	-1.2875	-2.5563	-2.3563	-2.1562	-2.7812	-2.2812	-2.4875	-2.6729	-1.9167	-2.5375	-2.4062	-2.1604	-2.8125	-2.3625	-2.3396	-2.7792	123.641	398.558	382.392	114.767	379.226	198.107	384.307	398.143	369.128	335.981	81.358	65.770	75.146	119.454	207.052	382.398	0.0015484	0.00067797	0.00011169	1367.2	9.0539e-06	4.2554e-06	1368.4	372.29	1.0723e-05	9.1087e-06	422.93	141.62	125.1	42.236	4.6311e-06	52.179	0.00061008	0.00058823	0.00016294	1388.8	6.4022e-06	6.4923e-06	1389.6	378.88	6.5281e-06	6.5734e-06	432	144.9	126.85	43.645	6.5632e-06	53.825	388.176	137.212	131.291	65.868	164.956	191.914	65.677	70.794	201.333	176.436	69.817	74.214	75.052	79.492	163.936	78.764	-8191	255	
#DATA ENDS
