BOXY.EXE: ISS Imagent and Oximeter Data Acquisition Program Version 0.80
Ascii Record File

#ACQ INFORMATION
2  Detector Channels 
16  External MUX Channels 
1  Auxiliary Channels 
5000  Waveform (CCF) Frequency (Hz)
1  Waveforms Skipped 
30  Waveforms Averaged 
1  Cycles Averaged 
16  Acquisitions per Waveform 
10.0806  Updata Rate (Hz) 

#FILE INFORMATION
TRUE -- External MUX Channel results are PARSED.
FALSE -- AC DC and Phase are NOT grouped.
TRUE -- Companion Program Settings File CREATED.
FALSE -- AC data not excluded
FALSE -- DC data not excluded
FALSE -- Phase data not excluded
FALSE -- Auxillary Chn. data not excluded
Tab delimiters

#CALIBRATION STATE
TRUE -- Waveform Calibration Values APPLIED.


#AUX CALIBRATION VALUES
Val Type	aux-1	

Term	1.0000e+00	
Factor	0.0000e+00	


#WF CALIBRATION VALUES
A = Detector Channel
Val Type	A-AC1	A-AC2	A-AC3	A-AC4	A-AC5	A-AC6	A-AC7	A-AC8	A-AC9	A-AC10	A-AC11	A-AC12	A-AC13	A-AC14	A-AC15	A-AC16	A-DC1	A-DC2	A-DC3	A-DC4	A-DC5	A-DC6	A-DC7	A-DC8	A-DC9	A-DC10	A-DC11	A-DC12	A-DC13	A-DC14	A-DC15	A-DC16	A-Ph1	A-Ph2	A-Ph3	A-Ph4	A-Ph5	A-Ph6	A-Ph7	A-Ph8	A-Ph9	A-Ph10	A-Ph11	A-Ph12	A-Ph13	A-Ph14	A-Ph15	A-Ph16	

Term	0.00000e+00	0.00000e+00	0.00000e+00	0.00000e+00	0.00000e+00	0.00000e+00	0.00000e+00	0.00000e+00	0.00000e+00	0.00000e+00	0.00000e+00	0.00000e+00	0.00000e+00	0.00000e+00	0.00000e+00	0.00000e+00	0.00000e+00	0.00000e+00	0.00000e+00	0.00000e+00	0.00000e+00	0.00000e+00	0.00000e+00	0.00000e+00	0.00000e+00	0.00000e+00	0.00000e+00	0.00000e+00	0.00000e+00	0.00000e+00	0.00000e+00	0.00000e+00	0.00000e+00	0.00000e+00	0.00000e+00	0.00000e+00	0.00000e+00	0.00000e+00	0.00000e+00	0.00000e+00	0.00000e+00	0.00000e+00	0.00000e+00	0.00000e+00	0.00000e+00	0.00000e+00	0.00000e+00	0.00000e+00	
Factor	1.00000e+00	1.00000e+00	1.00000e+00	1.00000e+00	1.00000e+00	1.00000e+00	1.00000e+00	1.00000e+00	1.00000e+00	1.00000e+00	1.00000e+00	1.00000e+00	1.00000e+00	1.00000e+00	1.00000e+00	1.00000e+00	1.00000e+00	1.00000e+00	1.00000e+00	1.00000e+00	1.00000e+00	1.00000e+00	1.00000e+00	1.00000e+00	1.00000e+00	1.00000e+00	1.00000e+00	1.00000e+00	1.00000e+00	1.00000e+00	1.00000e+00	1.00000e+00	X	X	X	X	X	X	X	X	X	X	X	X	X	X	X	X	

B = Detector Channel
Val Type	B-AC1	B-AC2	B-AC3	B-AC4	B-AC5	B-AC6	B-AC7	B-AC8	B-AC9	B-AC10	B-AC11	B-AC12	B-AC13	B-AC14	B-AC15	B-AC16	B-DC1	B-DC2	B-DC3	B-DC4	B-DC5	B-DC6	B-DC7	B-DC8	B-DC9	B-DC10	B-DC11	B-DC12	B-DC13	B-DC14	B-DC15	B-DC16	B-Ph1	B-Ph2	B-Ph3	B-Ph4	B-Ph5	B-Ph6	B-Ph7	B-Ph8	B-Ph9	B-Ph10	B-Ph11	B-Ph12	B-Ph13	B-Ph14	B-Ph15	B-Ph16	

Term	0.00000e+00	0.00000e+00	0.00000e+00	0.00000e+00	0.00000e+00	0.00000e+00	0.00000e+00	0.00000e+00	0.00000e+00	0.00000e+00	0.00000e+00	0.00000e+00	0.00000e+00	0.00000e+00	0.00000e+00	0.00000e+00	0.00000e+00	0.00000e+00	0.00000e+00	0.00000e+00	0.00000e+00	0.00000e+00	0.00000e+00	0.00000e+00	0.00000e+00	0.00000e+00	0.00000e+00	0.00000e+00	0.00000e+00	0.00000e+00	0.00000e+00	0.00000e+00	-8.63402e+01	-1.28301e+02	-1.03800e+02	-1.75865e+02	-1.14073e+01	-9.31957e+01	-1.64450e+02	-1.61923e+02	-3.25388e+01	-6.50733e+01	-1.79394e+02	-1.69306e+02	-1.75795e+02	-1.70708e+02	-7.57699e+01	-1.59905e+02	
Factor	3.75157e-04	1.23413e-03	3.18699e-04	1.70450e-01	4.10421e-06	1.94945e-05	2.78808e-01	2.32519e-01	9.50602e-06	1.69483e-05	5.42727e+00	2.80746e-01	2.09241e-01	2.33913e-01	1.51734e-05	3.71430e-01	3.15923e-05	3.36516e-05	9.32732e-06	6.64208e-02	3.05018e-07	3.68882e-07	1.02746e-01	9.20121e-02	3.49895e-07	3.70854e-07	1.93302e+00	1.06642e-01	8.34840e-02	9.01328e-02	3.70025e-07	1.37825e-01	X	X	X	X	X	X	X	X	X	X	X	X	X	X	X	X	



#DISTANCE SETTINGS
A = Detector Channel
A-1	A-2	A-3	A-4	A-5	A-6	A-7	A-8	A-9	A-10	A-11	A-12	A-13	A-14	A-15	A-16	

1.0000e+01	1.0000e+01	1.0000e+01	1.4500e+00	1.0000e+01	1.0000e+01	1.5100e+00	1.9500e+00	1.0000e+01	1.0000e+01	2.0100e+00	2.5000e+00	2.4400e+00	2.9500e+00	1.0000e+01	3.0100e+00	

B = Detector Channel
B-1	B-2	B-3	B-4	B-5	B-6	B-7	B-8	B-9	B-10	B-11	B-12	B-13	B-14	B-15	B-16	

1.0000e+01	1.0000e+01	1.0000e+01	1.4500e+00	1.0000e+01	1.0000e+01	1.5100e+00	1.9500e+00	1.0000e+01	1.0000e+01	2.0100e+00	2.5000e+00	2.4400e+00	2.9500e+00	1.0000e+01	3.0100e+00	




#DATA BEGINS
time	group	step	mark	flag	A-AC1	A-AC2	A-AC3	A-AC4	A-AC5	A-AC6	A-AC7	A-AC8	A-AC9	A-AC10	A-AC11	A-AC12	A-AC13	A-AC14	A-AC15	A-AC16	A-DC1	A-DC2	A-DC3	A-DC4	A-DC5	A-DC6	A-DC7	A-DC8	A-DC9	A-DC10	A-DC11	A-DC12	A-DC13	A-DC14	A-DC15	A-DC16	A-Ph1	A-Ph2	A-Ph3	A-Ph4	A-Ph5	A-Ph6	A-Ph7	A-Ph8	A-Ph9	A-Ph10	A-Ph11	A-Ph12	A-Ph13	A-Ph14	A-Ph15	A-Ph16	B-AC1	B-AC2	B-AC3	B-AC4	B-AC5	B-AC6	B-AC7	B-AC8	B-AC9	B-AC10	B-AC11	B-AC12	B-AC13	B-AC14	B-AC15	B-AC16	B-DC1	B-DC2	B-DC3	B-DC4	B-DC5	B-DC6	B-DC7	B-DC8	B-DC9	B-DC10	B-DC11	B-DC12	B-DC13	B-DC14	B-DC15	B-DC16	B-Ph1	B-Ph2	B-Ph3	B-Ph4	B-Ph5	B-Ph6	B-Ph7	B-Ph8	B-Ph9	B-Ph10	B-Ph11	B-Ph12	B-Ph13	B-Ph14	B-Ph15	B-Ph16	aux-1	digaux	

928.983	1	1	0	768	0.30031	0.12104	0.32074	0.078308	0.2721	0.12206	0.22313	0.18131	0.1092	0.148	0.19774	0.23762	0.19017	0.068136	0.20183	0.10355	-2.4479	-2.3854	-2.4688	-2.9417	-2.1625	-2.7917	-2.7458	-2.175	-2.8167	-2.1813	-2.3875	-2.6667	-1.975	-2.6229	-2.5687	-2.1229	320.597	88.594	272.839	92.650	384.311	345.013	68.305	133.471	301.078	401.151	237.797	338.936	59.020	385.111	381.737	121.824	0.00039843	0.00039744	0.00019685	1449	6.2186e-06	8.6358e-06	1888.2	308.35	6.2955e-07	3.054e-06	438.77	124.65	79.438	21.332	1.98e-06	36.163	0.00074064	0.00078633	0.00021849	1440.7	8.3289e-06	8.4728e-06	1881.9	311.91	8.2677e-06	8.5984e-06	452.6	126.6	81.636	22.837	8.5769e-06	38.29	179.675	320.146	143.746	61.708	288.470	234.255	61.675	69.442	227.245	261.864	67.715	74.920	76.921	83.619	204.133	81.352	-8191	255	
929.079	1	1	0	0	0.36207	0.28121	0.095748	0.50618	0.21617	0.3069	0.10334	0.10381	0.14368	0.094555	0.2761	0.10238	0.23301	0.13777	0.19618	0.37593	-2.1729	-2.2333	-2.3292	-2.9396	-1.9292	-2.6479	-2.6188	-2.1208	-2.6208	-2.5438	-2.0896	-2.8604	-2.0208	-2.4583	-2.6437	-1.9583	338.266	276.404	165.145	386.251	106.371	393.048	337.319	135.489	243.542	156.738	397.127	73.761	245.604	225.234	399.088	105.875	0.00057047	0.00080254	0.00010534	1458.3	6.1341e-06	2.6173e-06	1893.5	308.94	2.7034e-06	5.2472e-06	440.92	124.95	80.027	21.28	1.3519e-06	36.071	0.00075532	0.00079151	0.00021875	1441.8	8.3899e-06	8.5342e-06	1883	311.91	8.3443e-06	8.6849e-06	452.45	126.68	81.685	22.828	8.5067e-06	38.279	194.029	105.148	158.446	61.397	289.241	270.835	61.537	69.221	266.100	198.245	67.995	75.110	76.846	83.051	262.326	80.992	-8191	255	
929.175	1	1	0	0	0.19283	0.21028	0.070524	0.20503	0.016787	0.1209	0.10374	0.3585	0.12698	0.11679	0.12517	0.17539	0.27587	0.087313	0.074793	0.082854	-2.3229	-2.4771	-2.0417	-2.8	-2.0625	-2.4646	-2.9479	-2.0542	-2.6625	-2.4458	-2.3083	-2.7313	-2.1437	-2.4396	-2.6875	-2.025	367.766	222.505	220.464	356.529	182.561	326.915	343.092	399.627	394.536	259.733	73.836	115.119	266.596	274.236	103.004	407.339	0.00034361	0.0002985	0.00015497	1456.8	6.9892e-06	5.1465e-06	1882.7	306.98	3.4698e-06	5.9367e-06	440.65	124.48	79.898	21.483	1.6197e-06	36.203	0.00075328	0.00078457	0.00022135	1442	8.245e-06	8.568e-06	1881.9	311.78	8.3275e-06	8.5853e-06	453.05	126.72	81.578	22.846	8.5306e-06	38.289	171.814	129.151	151.001	61.471	274.740	300.435	61.799	69.673	267.352	194.630	68.553	75.256	76.794	83.614	193.421	81.504	-8191	255	
929.271	1	1	0	0	0.15399	0.095839	0.059845	0.38232	0.19194	0.11335	0.14708	0.18375	0.16472	0.10176	0.18718	0.078436	0.13018	0.116	0.21927	0.093056	-2.1792	-2.475	-2.0271	-3.0083	-2.2687	-2.2542	-2.9458	-1.9708	-2.7292	-2.4458	-2.0708	-2.8167	-2.2667	-2.4021	-2.7125	-2.3292	165.639	173.778	184.018	362.262	227.237	340.882	284.951	328.458	196.399	95.213	71.661	283.252	409.693	89.702	219.092	183.179	0.00029517	0.00085619	0.00026527	1458.3	5.2146e-06	6.1128e-06	1881.5	308.31	1.8012e-06	4.0031e-06	443.87	123.56	79.437	21.141	7.5577e-06	35.639	0.00076203	0.00077707	0.00021878	1442	8.3003e-06	8.6326e-06	1882	312.08	8.2932e-06	8.4964e-06	453.13	126.54	81.509	22.873	8.2955e-06	38.171	217.438	83.867	145.891	61.343	290.506	238.444	61.867	69.364	274.786	372.326	68.395	75.233	77.349	83.791	203.146	81.751	-8191	255	
929.367	1	1	0	0	0.27736	0.26396	0.21809	0.33693	0.22335	0.18546	0.089818	0.26435	0.11626	0.12255	0.17425	0.044729	0.07581	0.18831	0.18707	0.065192	-2.0854	-2.5708	-1.9521	-2.9042	-2.1896	-2.1021	-2.9896	-2.0979	-2.55	-2.5542	-2.0542	-2.6042	-2.2896	-2.2229	-2.7438	-2.05	298.323	411.155	217.476	407.948	217.547	57.222	373.301	394.977	278.373	144.410	82.052	178.867	331.648	250.778	329.421	391.015	0.0004328	0.00030264	0.00010165	1445.8	6.7024e-06	9.7189e-06	1862.4	303.27	4.0523e-06	3.6405e-06	434.92	121.93	77.717	20.778	4.3153e-06	35.595	0.00075525	0.00077973	0.00022012	1441	8.2152e-06	8.6303e-06	1879.8	311.45	8.3851e-06	8.4732e-06	452.61	126.48	81.339	22.838	8.3618e-06	38.217	183.567	100.278	146.520	61.817	292.326	144.027	62.582	70.738	276.361	152.969	69.572	76.344	78.504	85.284	157.343	83.344	-8191	255	
929.463	1	1	0	0	0.12648	0.18541	0.1501	0.19879	0.18548	0.1384	0.28427	0.32879	0.12154	0.2376	0.04817	0.040981	0.083487	0.0828	0.24602	0.15754	-2.0979	-2.5667	-2.0563	-2.9417	-2.4458	-2.2854	-3.0229	-2.1917	-2.5854	-2.7396	-2.0229	-2.5625	-2.5875	-2.1625	-2.6688	-2.3167	294.447	148.632	241.933	360.602	201.466	59.171	317.582	354.650	81.900	248.171	269.176	394.797	308.805	212.952	99.564	306.865	0.00028625	0.00045465	0.00016754	1415.6	5.5092e-06	5.8529e-06	1859	302.23	3.9791e-06	7.3209e-06	432.58	120.57	78.049	20.586	7.2651e-06	34.804	0.00076012	0.00077861	0.00021987	1436.5	8.1478e-06	8.6257e-06	1879.7	311.15	8.4004e-06	8.4114e-06	451.34	126.15	81.336	22.771	8.3302e-06	37.981	212.046	152.317	116.796	63.131	281.847	80.808	62.740	70.538	290.187	141.587	69.813	77.189	78.074	85.079	246.438	83.551	-8191	255	
929.582	1	1	0	0	0.17469	0.078632	0.18727	0.23327	0.1183	0.22642	0.12033	0.15346	0.10186	0.20574	0.35229	0.25062	0.088309	0.29783	0.21072	0.077869	-2.0021	-2.6125	-2.225	-2.8708	-2.5979	-2.1708	-3.0396	-2.2771	-2.4313	-2.8042	-2.0708	-2.675	-2.5208	-2.1771	-2.9625	-2.4375	381.392	401.886	194.684	371.742	140.793	310.155	321.942	321.126	283.647	224.465	262.326	321.721	132.013	247.825	392.196	194.810	0.0002999	0.00054785	0.0002567	1444.8	7.8847e-06	2.9188e-06	1872	304.96	3.4099e-06	4.3505e-06	433.44	122.19	77.736	20.581	2.9342e-06	34.926	0.00075045	0.00077041	0.00021964	1440	8.151e-06	8.5135e-06	1879	311.56	8.4397e-06	8.4555e-06	451.24	126.27	81.33	22.745	8.378e-06	38.162	216.670	115.660	176.077	61.760	284.003	138.117	62.103	70.159	291.382	173.078	69.541	76.112	78.349	85.952	153.232	83.769	-8191	255	
929.678	1	1	0	0	0.083132	0.32844	0.12372	0.077474	0.37105	0.13874	0.11739	0.077048	0.21154	0.075218	0.14911	0.13498	0.1101	0.053679	0.12065	0.17918	-1.9688	-2.7208	-1.9958	-2.8083	-2.4667	-2.0083	-3.1146	-2.2833	-2.2208	-2.8646	-2.2167	-2.35	-2.6146	-2.025	-2.7062	-2.35	193.986	323.665	209.223	263.696	262.073	369.478	311.935	136.447	101.558	275.586	175.368	358.115	94.713	183.530	226.435	106.052	0.00039673	0.00086877	9.3983e-05	1408.9	5.6955e-06	2.6049e-06	1825.2	297.75	3.377e-06	1.0304e-05	421.8	120.93	77.278	20.59	4.5213e-06	35.942	0.00075894	0.00076698	0.00021789	1436.6	8.1319e-06	8.6403e-06	1875.8	310.7	8.4609e-06	8.4516e-06	450.37	126.19	81.26	22.688	8.3579e-06	38.197	200.170	129.841	136.077	63.565	289.876	135.482	63.978	71.898	299.845	284.708	70.741	76.995	78.916	86.188	236.183	82.349	-8191	255	
929.775	1	1	0	0	0.028494	0.26252	0.11726	0.23764	0.05405	0.19954	0.11483	0.070481	0.13667	0.27177	0.1771	0.15329	0.28446	0.085207	0.24129	0.1652	-1.825	-2.7687	-2.0854	-2.6979	-2.8312	-2.0396	-2.8	-2.5854	-2.125	-2.7188	-2.3083	-2.3083	-2.7021	-1.9604	-2.4646	-2.55	352.264	115.723	408.000	347.889	220.405	228.818	244.628	80.835	52.944	294.214	391.040	101.421	235.701	128.054	169.534	336.773	0.00037198	0.00046061	9.8396e-05	1448.5	5.7024e-06	2.5836e-06	1884.5	307.2	3.6705e-06	5.0561e-06	436.35	123.84	79.833	21.068	2.1539e-06	36.164	0.00076697	0.00077728	0.00021688	1441.1	8.0557e-06	8.6272e-06	1881.8	311.67	8.5017e-06	8.3434e-06	450.11	126.52	81.581	22.758	8.5638e-06	38.166	205.453	163.553	147.725	61.656	280.298	304.822	61.796	69.678	323.247	227.674	68.249	75.254	76.940	83.600	196.190	81.552	-8191	255	
929.871	1	1	0	0	0.12119	0.046074	0.10717	0.14779	0.20696	0.22299	0.3164	0.11867	0.2092	0.056414	0.21143	0.15546	0.21438	0.24377	0.16559	0.19	-1.7854	-2.8125	-2.1917	-2.3729	-2.5542	-2.1958	-2.6792	-2.6208	-2.0563	-2.6375	-2.3146	-2.2604	-2.5979	-2.0979	-2.2687	-2.5062	371.190	161.761	244.541	373.709	97.568	263.531	342.774	195.191	102.801	240.902	294.438	238.234	134.149	240.189	354.853	298.147	0.00037151	0.00077342	0.00014445	1451.1	6.2585e-06	3.2554e-06	1886.2	307.77	6.6349e-06	6.1154e-06	441.64	124.01	79.64	21.109	3.4902e-06	35.886	0.00075789	0.00077742	0.00021758	1440.5	8.1078e-06	8.588e-06	1883.2	311.9	8.4828e-06	8.4392e-06	451.65	126.53	81.58	22.798	8.5884e-06	38.085	210.228	113.030	148.827	61.548	288.962	100.166	61.721	69.604	235.407	172.301	68.412	75.189	77.090	83.693	83.878	81.194	-8191	255	
929.967	1	1	0	0	0.10014	0.2124	0.12971	0.23226	0.071035	0.11662	0.22188	0.21127	0.17488	0.14906	0.17023	0.28585	0.088387	0.40696	0.21378	0.14583	-1.5583	-2.6667	-2.2833	-2.3438	-2.8187	-2.1312	-2.5833	-2.7479	-2.1521	-2.4479	-2.3479	-2.1437	-2.6917	-2.2146	-2.3146	-2.5146	273.227	386.453	184.534	334.957	367.054	88.922	255.816	189.632	250.893	112.539	177.801	149.270	361.896	399.549	339.282	232.273	0.00033245	0.00047987	0.00024524	1455.6	6.5905e-06	4.3567e-06	1893.8	308.74	1.4728e-06	7.3642e-06	445.31	124.69	79.697	21.046	5.3096e-06	36.356	0.00075736	0.00077343	0.00021597	1441.2	8.1459e-06	8.6441e-06	1881.5	311.65	8.4179e-06	8.5219e-06	449.98	126.64	81.445	22.758	8.5738e-06	38.248	210.487	116.804	153.125	61.317	284.176	260.626	61.400	69.438	290.512	216.177	67.935	74.784	76.809	83.196	257.521	80.939	-8191	255	
930.063	1	1	0	0	0.27368	0.25015	0.14186	0.45964	0.14274	0.18958	0.22135	0.15408	0.043646	0.43165	0.32968	0.32859	0.065885	0.089286	0.18781	0.18734	-1.4646	-2.5604	-2.3792	-2.3125	-2.6229	-2.1771	-2.6063	-2.7104	-2.0021	-2.5542	-2.3917	-2.1208	-2.6562	-2.3812	-2.05	-2.6083	120.661	246.716	130.905	336.410	324.684	367.473	361.520	154.697	300.023	218.548	366.582	358.505	255.510	102.605	327.781	374.531	0.0003475	3.7282e-05	0.00011957	1461.2	5.2617e-06	3.5396e-06	1900.1	310.11	4.0003e-06	3.4455e-06	436.56	124.09	79.698	21.436	5.0473e-06	36.357	0.00076717	0.0007742	0.00021729	1442	8.0798e-06	8.5173e-06	1882.3	311.78	8.4755e-06	8.5381e-06	450.91	126.53	81.506	22.823	8.6154e-06	38.215	211.571	149.105	96.580	61.188	262.265	186.223	61.170	69.280	271.242	142.976	68.302	74.674	76.833	83.689	213.768	81.319	-8191	255	
930.184	1	1	0	0	0.15099	0.19082	0.18199	0.36856	0.0435	0.14573	0.31704	0.19566	0.16389	0.1529	0.18654	0.32899	0.27911	0.14478	0.10193	0.059095	-1.5292	-2.2271	-2.6312	-2.2875	-2.7917	-2.4354	-2.2708	-2.7125	-2.0625	-2.4167	-2.5125	-1.9813	-2.7375	-2.2812	-1.9917	-2.6688	192.898	276.048	302.321	372.882	387.772	120.490	377.141	54.672	359.016	127.616	182.083	327.732	303.449	110.157	395.231	86.143	0.00036471	6.0047e-05	0.00012603	1461.2	5.423e-06	4.307e-06	1900.2	310.48	6.1188e-06	5.567e-06	442.25	124.93	80.276	21.354	3.8924e-07	36.308	0.00076302	0.00077525	0.0002133	1441.8	8.0995e-06	8.4874e-06	1882.8	312.25	8.536e-06	8.4879e-06	450.12	126.57	81.633	22.797	8.4952e-06	38.079	205.868	156.544	204.478	61.142	276.643	115.541	61.192	69.316	196.766	284.079	67.082	74.795	76.685	83.637	130.312	81.175	-8191	255	
930.280	1	1	0	0	0.11067	0.13411	0.085218	0.069157	0.073137	0.072506	0.26915	0.088322	0.13891	0.23165	0.21103	0.14052	0.16202	0.15806	0.1479	0.10206	-1.6875	-2.2542	-2.4417	-2.1854	-2.5542	-2.2917	-2.2479	-2.7062	-2.2188	-2.2542	-2.6063	-2.0542	-2.6	-2.2604	-2.2021	-2.6937	167.308	336.060	135.276	186.086	251.072	142.149	308.503	402.972	193.379	284.750	317.838	333.766	323.097	152.090	201.330	352.941	0.0004376	0.00082295	8.5808e-05	1461.7	7.45e-06	8.1115e-07	1899	309.84	4.2889e-06	4.2963e-06	444.93	125.01	80.036	21.284	1.9195e-06	36.52	0.00075473	0.00078093	0.00021377	1441.2	8.0989e-06	8.5181e-06	1881.6	311.9	8.4091e-06	8.491e-06	451.12	126.66	81.522	22.842	8.59e-06	38.217	197.357	155.650	141.311	61.036	285.355	65.912	61.146	69.236	313.683	235.750	67.856	74.635	76.711	83.174	173.479	80.946	-8191	255	
930.376	1	1	0	0	0.06029	0.14743	0.12936	0.21238	0.28051	0.1562	0.24387	0.076254	0.12589	0.1746	0.080765	0.098137	0.16655	0.06671	0.092531	0.15164	-1.7021	-2.2833	-2.7062	-2.2167	-2.5896	-2.4792	-2.4125	-2.7667	-2.2812	-2.5438	-2.6979	-2.2354	-2.5458	-2.5312	-2.075	-2.6646	322.260	192.514	206.415	333.398	406.029	267.598	316.036	132.874	267.808	297.242	63.830	393.411	61.413	395.026	206.153	116.774	0.00029234	0.00014247	0.00019493	1461.4	4.5969e-06	1.1103e-05	1899.6	309.98	1.1236e-06	4.2933e-06	437.69	124.4	79.672	21.17	3.7998e-06	36.279	0.0007617	0.0007838	0.00021562	1441.2	8.1116e-06	8.4858e-06	1880.7	311.89	8.3304e-06	8.6641e-06	449.58	126.43	81.486	22.793	8.5291e-06	38.103	206.719	124.872	114.086	61.138	287.195	183.683	61.211	69.165	346.336	276.719	67.717	74.919	76.959	83.612	182.173	80.975	-8191	255	
930.470	1	1	0	0	0.056037	0.2606	0.084787	0.10995	0.18796	0.12814	0.20957	0.12574	0.25112	0.16179	0.14122	0.25203	0.19501	0.14797	0.09267	0.177	-1.8208	-2.1729	-2.7	-2.375	-2.3229	-2.5396	-2.0667	-2.625	-2.2083	-1.9875	-2.9646	-2.2021	-2.3417	-2.6	-2.1042	-2.6333	63.625	251.551	277.888	332.266	126.380	105.198	385.852	166.205	201.129	377.256	308.340	242.087	108.081	192.768	198.005	366.255	0.0001862	0.00048828	0.00014618	1451.1	5.1328e-06	6.6076e-06	1888	309.33	2.5651e-06	6.7258e-06	441.98	123.65	78.828	21.32	4.0509e-06	35.614	0.00075216	0.00078268	0.00021245	1439.9	8.0658e-06	8.4328e-06	1880	311.59	8.3326e-06	8.5528e-06	450.7	126.47	81.402	22.728	8.5599e-06	38.056	226.196	99.508	168.199	61.592	291.882	227.904	61.574	69.287	289.268	225.975	67.381	75.244	77.520	84.378	144.192	81.996	-8191	255	
930.544	1	1	0	0	0.06204	0.21029	0.11606	0.10261	0.17413	0.29539	0.16979	0.18119	0.23401	0.21262	0.17448	0.27222	0.10424	0.15906	0.11572	0.20707	-1.8042	-2.0458	-2.7021	-2.3771	-2.3479	-2.575	-2.3167	-2.6042	-2.3542	-2.0625	-2.6854	-2.1646	-2.2458	-2.6771	-1.8937	-2.6188	407.156	59.682	295.239	394.105	140.906	187.660	371.692	343.638	165.211	362.504	216.045	321.207	143.520	84.143	82.474	336.272	0.00026434	0.00024143	0.00023238	1461.4	6.1241e-06	8.4461e-06	1903.9	311.04	6.1528e-06	3.2188e-06	447.28	125.33	80.168	21.388	5.3591e-06	36.342	0.00074742	0.00078625	0.00021227	1440.6	8.231e-06	8.4159e-06	1880.2	312.05	8.3355e-06	8.6046e-06	451.67	126.59	81.624	22.773	8.5653e-06	38.189	184.725	107.725	118.772	61.175	277.902	260.820	61.073	68.887	240.100	207.051	67.669	74.565	76.425	83.381	343.344	81.412	-8191	255	
930.663	1	1	0	0	0.21434	0.1181	0.045621	0.060669	0.2001	0.25847	0.1729	0.26888	0.13392	0.19813	0.23868	0.10782	0.26121	0.10043	0.1673	0.16511	-1.9542	-1.8375	-2.7125	-2.4354	-2.2458	-2.6271	-2.3167	-2.6	-2.6021	-2.1188	-2.6333	-2.3396	-2.0958	-2.7146	-2.1188	-2.5417	142.258	258.772	153.786	398.783	207.165	95.532	349.792	352.722	182.961	104.514	392.825	90.424	397.944	228.000	126.359	406.580	0.00027605	0.00054071	0.00027384	1458.7	4.6909e-06	7.1988e-06	1889.7	308.08	4.3352e-06	2.4318e-06	445.75	125.37	79.778	21.151	2.688e-06	35.996	0.00075328	0.00079775	0.00021478	1441.4	8.2628e-06	8.2729e-06	1879.6	311.78	8.2808e-06	8.661e-06	452.15	126.74	81.547	22.791	8.62e-06	38.19	180.412	144.379	161.923	61.338	292.640	195.068	61.608	69.346	318.804	340.004	67.636	74.870	76.364	83.639	106.027	82.123	-8191	255	
930.759	1	1	0	0	0.20771	0.30544	0.072549	0.18305	0.11035	0.047942	0.11577	0.12792	0.21783	0.35698	0.059853	0.043956	0.087527	0.12934	0.17825	0.097684	-2.2896	-1.9312	-2.6708	-2.7021	-2.175	-2.5896	-2.425	-2.5021	-2.5667	-2.0938	-2.6896	-2.5833	-2.1937	-2.7625	-2.1813	-2.3063	390.903	202.386	200.528	356.440	172.536	76.482	70.428	347.840	224.566	375.027	394.557	205.920	267.233	278.176	94.137	117.335	0.00035208	0.00098947	0.00019195	1430.9	4.6978e-06	5.4995e-06	1856.2	302.32	6.357e-07	6.5169e-07	429.71	120.62	77.326	20.473	9.4074e-07	34.976	0.00074874	0.00079852	0.00021618	1437	8.2819e-06	8.3798e-06	1875.9	310.95	8.2561e-06	8.6393e-06	450.38	126.08	81.288	22.704	8.5036e-06	38.124	190.474	89.400	178.068	62.474	291.703	193.994	62.633	70.634	266.361	242.092	68.849	76.864	78.648	85.326	75.853	83.608	-8191	255	
930.855	1	1	0	0	0.052777	0.10125	0.12181	0.39693	0.1902	0.16312	0.23964	0.114	0.15638	0.21613	0.11625	0.073291	0.29107	0.090864	0.32546	0.1656	-2.3	-1.9146	-2.6417	-2.6583	-2.0979	-2.75	-2.4583	-2.3083	-2.9042	-2.1354	-2.4625	-2.5104	-2.0938	-2.6646	-2.3187	-2.4417	55.588	399.840	266.344	73.869	73.368	279.490	387.319	151.133	142.248	268.432	158.130	167.889	113.093	369.629	78.764	236.377	0.00035325	0.00047502	0.0002154	1416.1	5.7355e-06	4.0706e-06	1867.3	302.8	2.7641e-06	5.2303e-06	432.96	121.16	77.043	20.678	1.2891e-05	34.98	0.00075216	0.00078654	0.00021733	1435.3	8.2654e-06	8.419e-06	1876	310.69	8.3515e-06	8.6981e-06	450.28	126.15	81.265	22.72	8.5661e-06	38.133	198.160	154.102	164.308	63.201	289.338	235.719	62.178	70.392	288.276	215.554	68.688	76.653	79.193	85.314	253.905	83.539	-8191	255	
930.951	1	1	0	0	0.082911	0.29535	0.18312	0.13128	0.27494	0.21335	0.073595	0.008728	0.032236	0.069323	0.50347	0.049785	0.10462	0.060416	0.20592	0.08946	-2.3708	-2.1125	-2.5583	-2.8583	-1.9583	-2.8417	-2.775	-2.1188	-2.8708	-2.1437	-2.3104	-2.5771	-2.1375	-2.6792	-2.4917	-2.0875	275.793	301.619	288.368	352.584	207.153	59.673	320.648	175.996	188.971	298.265	59.450	231.587	127.515	204.390	305.345	210.170	0.00035883	0.00037922	0.00021721	1423.2	4.4131e-06	4.4222e-06	1829.7	298.59	1.6723e-06	4.9934e-06	426.07	120.32	77.259	20.669	4.972e-06	35.215	0.00075282	0.00079102	0.00021783	1436.1	8.3499e-06	8.4827e-06	1871.9	310.34	8.2903e-06	8.7012e-06	449.3	125.96	81.157	22.77	8.4882e-06	38.175	198.864	131.784	183.657	62.695	288.312	123.549	63.754	71.480	235.522	265.230	69.831	77.176	78.920	85.931	210.126	82.789	-8191	255	
931.072	1	1	0	0	0.15275	0.10316	0.25387	0.073691	0.13277	0.056894	0.19424	0.056114	0.11821	0.12185	0.042913	0.081236	0.11205	0.071102	0.27921	0.26304	-2.3625	-2.1896	-2.3354	-2.8729	-2.0583	-2.6917	-2.675	-2.1708	-2.7917	-2.2792	-2.3312	-2.7062	-2.1458	-2.4479	-2.4146	-1.9604	318.379	129.655	260.352	300.377	103.934	113.842	59.106	280.209	70.925	140.477	263.504	137.857	245.465	88.079	237.067	358.479	0.00043636	0.00012845	0.00013226	1439	5.3666e-06	1.2594e-06	1857.1	302.41	3.1354e-06	7.1599e-06	427.41	119.91	77.47	20.774	4.3006e-06	35.16	0.00076579	0.00079747	0.00022304	1438.4	8.4484e-06	8.5219e-06	1875.6	310.69	8.4798e-06	8.6942e-06	451.59	126.04	81.286	22.826	8.7064e-06	38.158	190.735	83.763	147.882	62.095	298.068	373.976	62.679	70.335	116.203	186.301	69.946	77.608	78.834	85.741	230.336	83.269	-8191	255	
931.143	1	1	0	0	0.10307	0.24856	0.13524	0.29115	0.078723	0.16808	0.081114	0.056006	0.090517	0.084252	0.38891	0.31264	0.12654	0.13506	0.16825	0.21965	-2.2271	-2.1333	-2.3937	-3.0104	-2.0687	-2.6312	-2.975	-2.1271	-2.7146	-2.2062	-2.2333	-2.5812	-2.0792	-2.5979	-2.7021	-2.0979	141.662	301.265	374.852	381.652	280.289	233.224	149.964	120.127	357.418	208.802	369.900	66.080	134.964	196.459	252.267	192.967	0.00036175	0.00066089	0.00028607	1408.2	6.0333e-06	6.0375e-06	1865.6	302.22	3.5764e-06	6.7826e-06	428.38	121.13	78.148	20.6	1.0772e-05	35.622	0.00076322	0.00079095	0.00022259	1434.7	8.5202e-06	8.6518e-06	1877.4	310.88	8.5148e-06	8.6996e-06	452.14	126.24	81.352	22.838	8.7495e-06	38.278	197.008	118.261	150.220	63.511	282.050	97.210	62.315	70.702	207.881	179.619	70.173	76.986	78.214	85.958	212.716	82.984	-8191	255	
931.264	1	1	0	0	0.13552	0.15762	0.25467	0.20152	0.059393	0.12565	0.13606	0.046865	0.24142	0.12304	0.11439	0.19297	0.080008	0.080086	0.22324	0.083523	-2.275	-2.2333	-2.1688	-2.8667	-2.1146	-2.4396	-3.0312	-2.0354	-2.8146	-2.2375	-2.0979	-2.8375	-2.3375	-2.2854	-2.6917	-2.3354	273.924	53.049	106.011	409.345	119.323	256.865	67.672	235.336	357.130	174.596	322.961	324.316	172.425	252.319	261.806	307.188	0.00025518	0.00024382	0.0001962	1431.4	5.6104e-06	6.2283e-06	1836.3	299.85	2.4882e-06	4.7904e-06	434.84	123.27	78.454	20.602	1.8438e-06	35.393	0.00077092	0.00079684	0.00022578	1438.5	8.4967e-06	8.7525e-06	1875.3	310.74	8.5629e-06	8.8881e-06	453.17	126.59	81.493	22.81	8.8143e-06	38.301	211.513	67.353	162.385	62.380	288.001	230.818	63.445	71.078	259.406	270.357	68.877	75.453	77.538	84.511	352.500	83.531	-8191	255	
931.360	1	1	0	0	0.1208	0.055124	0.088391	0.14029	0.26897	0.19733	0.22796	0.43227	0.16156	0.22248	0.21494	0.26908	0.20052	0.089403	0.27247	0.020157	-2.1646	-2.3729	-2.0146	-3.0875	-2.4771	-2.35	-2.95	-2.0521	-2.4583	-2.5542	-2.1229	-2.675	-2.125	-2.0417	-2.7271	-1.9562	144.469	58.707	148.928	286.372	401.103	253.339	100.331	340.098	229.223	84.539	303.042	59.796	277.714	155.658	337.786	331.635	0.00032839	0.0006729	0.00021435	1428.5	6.1614e-06	5.5038e-06	1870.6	305.36	3.5235e-06	4.816e-06	439.14	123.7	79.121	21.151	1.513e-06	36.132	0.0007825	0.00081276	0.00022774	1438.6	8.4839e-06	9.0007e-06	1879.3	311.11	8.8232e-06	8.9414e-06	453.68	126.59	81.461	22.946	8.9253e-06	38.334	185.418	106.760	144.285	62.612	261.649	204.376	62.118	69.999	270.967	266.522	68.399	75.463	77.416	83.430	407.178	81.162	-8191	255	
931.456	1	1	0	0	0.1084	0.2202	0.15083	0.093848	0.20318	0.030023	0.25542	0.20656	0.24805	0.049036	0.15821	0.12382	0.029502	0.1435	0.059097	0.077495	-2.0979	-2.5333	-2.0583	-3.0229	-2.4208	-2.1854	-3.1042	-2.0021	-2.3	-2.6604	-2.0271	-2.6875	-2.3167	-2.2417	-2.6833	-2.0646	280.583	64.011	263.875	386.520	129.834	259.635	356.108	361.042	192.187	263.789	235.111	201.687	257.590	189.326	276.041	245.590	0.00036387	0.00047811	0.00020851	1451.4	4.953e-06	7.2335e-06	1884.8	306.7	3.3627e-06	4.5097e-06	435.19	124.08	79.253	21.188	6.5654e-06	35.837	0.00079711	0.00082327	0.00023279	1439	8.6549e-06	9.1598e-06	1878.1	311.32	8.8851e-06	9.1724e-06	454.82	126.65	81.605	22.977	9.0633e-06	38.524	226.710	96.799	112.515	61.517	282.291	325.737	61.644	69.711	228.634	62.704	68.898	75.598	77.419	84.332	260.079	81.792	-8191	255	
931.552	1	1	0	0	0.10741	0.14366	0.15774	0.14578	0.010836	0.22037	0.25415	0.10356	0.15485	0.18968	0.050761	0.083659	0.12983	0.10576	0.19331	0.069734	-1.9521	-2.5083	-1.9958	-2.9167	-2.425	-2.1771	-3.0729	-2.4125	-2.1937	-2.75	-1.9917	-2.7167	-2.5479	-2.1708	-2.5583	-2.3438	101.660	162.840	281.357	347.353	362.610	250.253	350.641	362.904	268.667	373.503	413.420	99.507	153.292	400.230	109.437	201.973	0.00050403	0.00036132	0.00018856	1424.8	6.4065e-06	6.2705e-06	1831.2	297.88	3.66e-06	6.441e-06	432.12	120.43	77.107	20.508	5.9046e-06	34.722	0.00082193	0.00083316	0.00023618	1435.9	8.714e-06	9.3473e-06	1873.3	310.32	9.1607e-06	9.1446e-06	456.23	126.32	81.398	22.935	9.2637e-06	38.443	199.987	146.534	119.396	62.757	283.374	169.282	63.673	71.701	264.419	264.448	69.229	76.906	79.013	86.745	263.455	83.048	-8191	255	
931.671	1	1	0	0	0.16547	0.15269	0.13087	0.033409	0.14744	0.12564	0.29116	0.31364	0.076174	0.25435	0.15316	0.11948	0.14041	0.14513	0.27577	0.31352	-1.9271	-2.6292	-2.0333	-2.7125	-2.5875	-2.0771	-2.8646	-2.3542	-2.3042	-2.8458	-2.125	-2.45	-2.3875	-2.0271	-2.6437	-1.9583	411.734	308.785	189.499	308.898	162.116	55.571	388.005	101.662	397.576	348.002	332.128	109.576	170.696	268.777	286.489	104.879	0.00050759	0.00061168	0.00011297	1439.9	7.1977e-06	7.3723e-06	1872.1	305.28	2.8826e-06	3.8342e-06	435.33	122.38	78.145	20.646	2.3885e-06	35.803	0.00084865	0.00086085	0.00024232	1439.4	9.005e-06	9.5963e-06	1880.3	311.62	9.5077e-06	9.5757e-06	457.22	126.77	81.608	22.989	9.5466e-06	38.524	190.470	84.365	140.422	62.059	289.775	129.777	62.114	70.094	271.346	168.524	69.370	76.239	78.157	84.942	366.788	83.756	-8191	255	
931.767	1	1	0	0	0.23199	0.084085	0.21895	0.33407	0.18547	0.10486	0.18502	0.064452	0.024209	0.11896	0.081318	0.16184	0.17581	0.39329	0.27685	0.059347	-1.5771	-2.65	-2.1083	-2.7	-2.8271	-2.0125	-2.7771	-2.3896	-2.1125	-2.8292	-2.1146	-2.5292	-2.5083	-2.0812	-2.5667	-2.4708	188.251	204.420	127.345	363.625	206.074	83.558	384.997	67.390	70.625	317.055	245.993	141.113	147.229	412.028	332.646	132.367	0.0005107	0.00044534	0.00019974	1413.6	5.2928e-06	6.5494e-06	1857	300	3.0311e-06	3.5391e-06	425.85	122.45	78.378	20.669	3.246e-06	35.117	0.00086115	0.00086204	0.00024521	1436.7	8.9783e-06	9.717e-06	1876.8	310.73	9.4996e-06	9.6708e-06	457.1	126.83	81.566	23.025	9.5251e-06	38.583	189.713	107.254	124.342	63.363	291.266	159.107	62.577	71.176	254.974	122.476	70.460	76.211	78.128	85.448	183.308	82.850	-8191	255	
931.864	1	1	0	0	0.10384	0.30331	0.1761	0.21242	0.035468	0.15923	0.35204	0.28918	0.1525	0.17	0.24232	0.28712	0.12619	0.071426	0.15548	0.11475	-1.6375	-2.7896	-2.2562	-2.7375	-2.7708	-1.9917	-2.9667	-2.4938	-2.2479	-2.7188	-2.3354	-2.2708	-2.45	-2.1562	-2.6208	-2.3771	325.737	380.658	95.946	383.965	376.913	264.978	289.823	384.994	289.690	375.512	65.311	334.253	88.980	176.492	155.218	344.783	0.00034651	0.00052344	0.00022481	1427.7	5.9411e-06	2.8815e-06	1871.9	305.06	4.0672e-06	3.1835e-06	431.26	121.82	77.314	20.679	4.7293e-06	35.72	0.00086372	0.00087824	0.00024558	1438.9	9.0438e-06	9.6347e-06	1880.3	311.64	9.5529e-06	9.6376e-06	456.77	126.83	81.586	22.973	9.6607e-06	38.541	202.587	118.817	155.210	62.546	287.488	157.157	62.104	70.073	289.348	224.819	70.097	76.442	78.718	85.239	235.478	81.957	-8191	255	
931.960	1	1	0	0	0.20199	0.20201	0.069099	0.4633	0.17795	0.258	0.14855	0.26334	0.079086	0.089401	0.079333	0.15887	0.20732	0.04392	0.079227	0.19572	-1.5583	-2.5083	-2.1979	-2.3542	-2.5771	-2.1604	-2.5625	-2.5854	-2.1583	-2.8271	-2.3104	-1.9958	-2.8854	-1.9354	-2.5146	-2.4875	147.630	206.435	221.811	344.744	231.651	348.945	356.015	370.767	94.550	385.846	297.412	180.899	394.121	292.197	212.286	94.052	0.00047274	0.00068775	0.00024419	1435.5	6.9847e-06	5.3922e-06	1863.1	301.6	5.0236e-06	4.0815e-06	425.71	120.96	77.501	20.67	1.0133e-05	35.328	0.00086681	0.00088721	0.00024737	1438.9	9.1537e-06	9.6862e-06	1878.8	311	9.504e-06	9.6128e-06	456.2	126.66	81.559	23.02	9.7926e-06	38.717	194.002	100.254	139.518	62.142	284.067	167.236	62.480	71.089	248.939	179.809	69.630	76.908	78.809	85.768	219.953	82.588	-8191	255	
932.056	1	1	0	0	0.19386	0.13282	0.084108	0.21411	0.070964	0.087153	0.15421	0.14282	0.034712	0.12017	0.092823	0.30561	0.26923	0.32385	0.14122	0.18342	-1.6875	-2.4771	-2.3417	-2.4875	-2.6979	-2.1167	-2.6083	-2.6521	-2.0083	-2.7812	-2.4542	-2.1771	-2.6729	-2.3542	-2.3	-2.9313	397.988	239.856	107.164	336.950	280.678	326.545	352.805	279.110	237.378	275.311	250.290	310.407	170.452	66.575	156.426	282.667	0.00036139	0.0011433	0.00020693	1430.6	6.5513e-06	4.8433e-06	1840.3	300.17	3.6423e-06	5.8168e-06	428.93	121.29	77.955	20.527	1.3522e-06	35.151	0.00086543	0.00088896	0.00024506	1439.1	9.148e-06	9.6501e-06	1876.8	310.99	9.6483e-06	9.6801e-06	456.53	126.68	81.64	23.027	9.7887e-06	38.625	184.901	122.526	149.869	62.485	269.342	316.871	63.304	71.382	246.305	267.765	69.885	76.759	78.461	85.358	398.003	82.600	-8191	255	
932.152	1	1	0	0	0.22418	0.196	0.21565	0.18761	0.14277	0.18053	0.44556	0.056216	0.080476	0.16478	0.1693	0.13711	0.28988	0.17523	0.22611	0.10537	-1.8271	-2.5792	-2.3875	-2.5438	-2.6937	-2.2104	-2.4313	-2.7042	-1.8813	-2.5625	-2.4792	-2.1271	-2.5854	-2.3708	-2.2292	-2.8458	213.522	54.396	75.391	368.544	131.151	412.100	360.625	144.925	253.308	96.438	91.656	350.981	236.017	275.224	267.411	341.336	0.00040857	0.00050273	0.00021568	1417.9	6.401e-06	7.7571e-06	1864	304.44	7.4327e-06	1.0425e-06	437.6	122.24	78.241	21.034	6.0618e-06	35.562	0.00086938	0.00088027	0.00024869	1437.2	9.1677e-06	9.727e-06	1878.6	311.31	9.5682e-06	9.7318e-06	458.26	126.81	81.668	23.063	9.808e-06	38.628	194.315	111.781	127.756	63.043	280.318	368.002	62.419	70.248	267.304	140.219	68.608	76.240	77.689	83.487	237.571	82.621	-8191	255	
932.248	1	1	0	0	0.26083	0.052626	0.14418	0.24664	0.046027	0.22776	0.18708	0.18454	0.13394	0.095693	0.16689	0.10072	0.15361	0.1005	0.19575	0.21482	-1.7646	-2.3542	-2.5583	-2.3042	-2.875	-2.2021	-2.4375	-2.7854	-1.9792	-2.3479	-2.5896	-2.0021	-2.6458	-2.325	-1.9562	-2.6229	330.289	68.166	73.329	379.076	254.591	60.367	259.794	375.742	275.505	363.619	193.052	81.145	264.648	381.844	301.853	278.594	0.00023203	0.00082183	4.1364e-05	1435.8	5.641e-06	8.2124e-06	1833.3	299.41	3.4995e-06	3.1555e-06	433.1	122.78	78.965	21.073	4.1766e-06	36.141	0.00086793	0.00089906	0.00024498	1441.1	9.0819e-06	9.6586e-06	1877.9	311.24	9.5798e-06	9.711e-06	458.69	126.97	81.722	23.069	9.8403e-06	38.736	189.463	177.425	130.304	62.207	282.407	148.131	63.528	71.538	308.824	225.087	69.198	75.885	77.393	83.576	238.646	81.261	-8191	255	
932.367	1	1	0	0	0.07533	0.10571	0.12794	0.10923	0.059078	0.01768	0.21991	0.13849	0.16868	0.29437	0.14175	0.12449	0.071765	0.18454	0.19572	0.14111	-1.6646	-2.2208	-2.5854	-2.3292	-2.5646	-2.5521	-2.4813	-2.7729	-2.1958	-2.2292	-2.4625	-1.9625	-2.5104	-2.3937	-1.9979	-2.7271	94.326	272.600	388.223	173.071	204.318	327.573	351.808	324.123	348.186	230.894	112.020	363.111	117.166	132.030	102.138	114.952	0.00028146	0.00061435	0.00012161	1452.7	4.8354e-06	5.3915e-06	1886.7	307.17	4.6053e-06	6.6078e-06	433.73	123.53	79.042	21.208	1.1821e-05	35.513	0.00085938	0.00089576	0.00024362	1441.4	9.1518e-06	9.6678e-06	1882.1	311.77	9.4902e-06	9.6028e-06	456.85	126.99	81.799	23.13	9.6654e-06	38.591	197.547	119.009	120.189	61.447	273.287	311.804	61.629	69.688	265.590	181.468	67.896	75.533	77.607	84.674	235.094	82.351	-8191	255	
932.441	1	1	0	0	0.082171	0.12292	0.13454	0.14142	0.19611	0.14171	0.49374	0.05012	0.20133	0.15288	0.18049	0.034666	0.098159	0.1778	0.27306	0.085205	-1.7896	-2.1229	-2.6979	-2.2271	-2.5479	-2.7271	-2.3021	-2.7167	-2.3146	-2.3312	-2.8229	-2.0938	-2.5396	-2.525	-2.0396	-2.6604	372.340	372.620	379.513	287.473	392.172	274.438	371.863	347.819	231.775	334.336	148.342	107.369	56.663	409.194	158.362	337.894	0.00019251	0.00050283	0.00015395	1434.9	6.6745e-06	3.0626e-06	1846.2	300.69	6.451e-06	6.6603e-07	428.34	121.35	77.818	20.502	1.6712e-06	35.215	0.00085892	0.00089072	0.00024094	1440	9.0114e-06	9.4203e-06	1880.1	311.22	9.3138e-06	9.6244e-06	456.54	126.92	81.535	23.008	9.5913e-06	38.596	160.998	128.321	140.368	62.351	280.410	292.276	63.018	71.106	253.859	283.160	69.559	76.560	78.009	85.967	194.352	83.211	-8191	255	
932.537	1	1	0	0	0.3052	0.025962	0.098007	0.038716	0.069086	0.082939	0.040049	0.12942	0.092491	0.071445	0.25093	0.33546	0.25359	0.23168	0.26933	0.13153	-1.9583	-2.2104	-2.6208	-2.3208	-2.4521	-2.5875	-2.2917	-2.7354	-2.4104	-2.1333	-2.775	-2.1479	-2.2604	-2.5979	-2.0125	-2.5667	235.501	106.535	255.439	287.323	237.018	331.919	178.585	355.013	382.040	335.781	170.673	91.569	192.326	339.810	102.343	336.637	0.00046437	0.00015639	0.00020372	1444.6	4.5635e-06	4.352e-06	1841.5	300.47	4.3242e-06	4.519e-06	433.29	121.87	77.937	20.786	5.223e-06	35.74	0.00084226	0.00087151	0.00024045	1443.5	8.8989e-06	9.239e-06	1882.1	311.54	9.1672e-06	9.4722e-06	456.37	127.22	81.765	23.066	9.4626e-06	38.779	183.024	134.368	147.284	62.069	288.790	168.958	63.473	71.259	249.829	213.339	69.976	76.791	78.398	85.570	186.226	82.090	-8191	255	
932.633	1	1	0	0	0.17101	0.27242	0.17899	0.21273	0.13534	0.12397	0.122	0.066957	0.23639	0.06771	0.39546	0.25407	0.088414	0.17151	0.11804	0.092567	-2.0479	-2.0292	-2.7021	-2.3667	-2.5	-2.6458	-2.1854	-2.5021	-2.4979	-2.0729	-2.4521	-2.0979	-2.0563	-2.7062	-1.9396	-2.4646	253.447	318.188	282.219	392.744	320.594	67.885	111.343	401.575	331.269	371.818	58.132	404.746	338.270	281.934	311.940	397.312	0.00036656	0.0002156	0.00014746	1452.2	4.2996e-06	4.8652e-06	1897.5	309.92	5.978e-06	6.3616e-06	439.91	125.53	80.39	21.419	3.2943e-06	37.05	0.0008189	0.00084949	0.00022976	1446.8	8.8811e-06	9.0883e-06	1889.3	312.95	8.7773e-06	9.2304e-06	456.99	127.45	82.063	23.095	9.1334e-06	38.794	205.604	111.031	115.629	61.718	288.400	124.750	61.475	69.370	253.479	228.893	68.002	74.843	76.602	83.471	230.370	81.148	-8191	255	
932.752	1	1	0	0	0.1946	0.041157	0.11912	0.35676	0.12522	0.12963	0.2706	0.14008	0.29455	0.048752	0.13218	0.14996	0.19943	0.13245	0.083311	0.11541	-2.0333	-1.9917	-2.675	-2.55	-2.1562	-2.7542	-2.1437	-2.2604	-2.7875	-2.1125	-2.5833	-2.2708	-1.9917	-2.6625	-2.0979	-2.3521	395.366	229.274	379.367	342.905	170.627	226.048	351.129	174.924	109.149	216.203	253.820	128.120	158.942	198.948	249.096	341.096	0.00033988	0.00064232	0.00023075	1466.2	6.3009e-06	7.3792e-06	1902.8	309.1	6.5077e-06	4.8845e-06	438.95	124.18	79.459	21.322	5.3408e-07	36.387	0.00079112	0.00083736	0.00022576	1448.6	8.707e-06	8.7325e-06	1890.9	313.05	8.5564e-06	8.994e-06	454.73	127.38	82.024	22.986	8.7865e-06	38.639	201.635	130.436	176.678	61.273	276.085	241.909	61.443	69.371	256.885	201.668	69.172	75.676	77.518	84.211	328.187	82.300	-8191	255	
932.848	1	1	0	0	0.16047	0.29177	0.15577	0.35659	0.3436	0.12425	0.15609	0.1283	0.15214	0.081916	0.10851	0.11861	0.15263	0.20651	0.081976	0.10711	-2.3688	-1.95	-2.5479	-2.5938	-1.9417	-2.7062	-2.3896	-2.4292	-2.5625	-1.9312	-2.4813	-2.3458	-2.125	-2.7083	-2.0062	-2.2646	180.150	73.812	91.313	363.759	376.496	149.392	350.535	360.623	357.834	111.539	347.829	396.608	349.603	142.873	296.923	208.782	0.00045377	0.0009566	0.00019782	1447	6.7394e-06	7.1369e-06	1895.2	305.87	2.8747e-06	5.0417e-06	433.28	121.9	78.559	21.037	3.5252e-06	36.694	0.00076625	0.0008075	0.00022042	1448.1	8.4045e-06	8.5773e-06	1892.2	312.73	8.4179e-06	8.7359e-06	453.23	127.25	81.871	22.93	8.6378e-06	38.66	197.872	113.856	125.654	62.072	283.506	230.061	61.748	69.802	307.642	272.621	69.594	76.690	77.999	84.087	154.957	81.179	-8191	255	
932.944	1	1	0	0	0.085972	0.14543	0.1457	0.30063	0.13922	0.39916	0.17168	0.090817	0.1551	0.01075	0.14601	0.19222	0.15681	0.33321	0.20846	0.18514	-2.2479	-1.8896	-2.6125	-2.7708	-2.2062	-2.6792	-2.3396	-2.2167	-2.7458	-1.9542	-2.4208	-2.5271	-1.9521	-2.5375	-2.1729	-2.1312	189.338	352.675	120.226	324.279	145.622	115.890	321.308	269.434	334.029	360.686	284.526	401.737	149.395	285.302	287.439	361.108	0.00046668	0.00060273	0.0002219	1468.7	5.9667e-06	3.1365e-06	1910.2	310.96	2.2833e-06	5.2984e-06	447.14	125.89	80.153	21.66	4.2348e-07	36.551	0.00075111	0.00079775	0.00021533	1450.6	8.3308e-06	8.4382e-06	1894	313.54	8.2218e-06	8.6355e-06	454	127.52	81.928	22.967	8.5399e-06	38.58	212.893	175.176	154.178	61.232	281.530	220.053	61.305	69.053	394.558	299.240	68.412	75.006	76.930	83.938	192.473	82.184	-8191	255	
933.040	1	1	0	0	0.12619	0.13634	0.082511	0.1085	0.21964	0.1801	0.23283	0.20876	0.23186	0.076452	0.15373	0.14906	0.16981	0.048657	0.17896	0.22872	-2.2708	-2.0104	-2.2938	-2.8917	-1.9729	-2.6813	-2.5292	-2.2188	-2.7542	-2.0104	-2.3812	-2.5833	-2.0521	-2.6	-2.5167	-2.0687	56.061	314.168	101.916	349.221	279.657	116.359	354.920	53.323	93.423	63.880	206.828	139.634	207.664	253.612	90.094	189.260	0.00051703	0.00055629	0.00013788	1458.8	6.7793e-06	2.7023e-06	1884.5	306.15	5.473e-06	6.7072e-06	430.26	122.68	78.437	21.363	3.9227e-06	36.647	0.00074038	0.00077981	0.00021181	1449.3	8.2406e-06	8.2906e-06	1891.4	312.91	8.213e-06	8.5598e-06	451.15	127.27	81.913	23.013	8.3888e-06	38.605	203.551	174.237	207.584	61.654	287.606	143.306	62.197	70.114	291.969	172.351	69.676	76.254	78.222	83.578	284.120	81.517	-8191	255	
933.136	1	1	0	0	0.24968	0.10515	0.14141	0.13376	0.1475	0.16474	0.24773	0.15803	0.13335	0.15171	0.062989	0.077977	0.22064	0.093412	0.22681	0.34654	-2.1875	-1.9958	-2.1646	-2.8688	-1.8979	-2.5375	-2.6646	-1.9604	-2.7	-2.2812	-2.1354	-2.4146	-2.0021	-2.3937	-2.4667	-1.8271	377.596	71.861	141.226	121.526	178.955	238.847	395.085	319.687	240.740	316.327	242.542	142.369	200.980	174.125	198.051	70.428	0.00045455	0.00049696	0.00011013	1472.2	5.4131e-06	5.8876e-06	1913.4	311.5	6.9249e-06	1.3699e-06	444.66	126.27	80.663	21.516	6.2267e-06	36.684	0.00072063	0.00077581	0.00020963	1451	8.0925e-06	8.2714e-06	1894.3	313.4	8.1132e-06	8.4701e-06	453.28	127.75	82.175	22.963	8.2739e-06	38.668	205.918	90.945	162.943	61.095	290.250	232.812	61.279	69.199	286.825	77.358	67.408	74.782	76.505	83.669	159.670	81.173	-8191	255	
933.232	1	1	0	0	0.3061	0.34303	0.17599	0.060759	0.081469	0.072509	0.13222	0.21144	0.1866	0.077434	0.13045	0.054948	0.23522	0.16218	0.12554	0.25733	-2.3521	-2.2125	-2.1458	-2.8875	-1.8813	-2.5563	-2.8375	-2.0583	-2.6146	-2.3833	-2.1042	-2.7021	-2.0563	-2.3521	-2.6125	-2.1083	169.695	75.780	240.942	388.736	136.086	108.493	410.087	289.612	309.055	354.329	117.546	307.456	317.867	176.946	256.099	73.318	0.00036573	0.00040426	0.00015867	1467.1	4.4335e-06	3.343e-06	1901	309.16	3.1736e-06	1.0453e-05	439.27	124.75	79.961	21.227	3.6205e-06	35.966	0.00072649	0.00076698	0.0002102	1451	8.0239e-06	8.3452e-06	1894.1	313.18	8.0855e-06	8.4516e-06	452.06	127.6	82.118	22.907	8.1328e-06	38.518	200.372	88.840	140.630	61.322	280.231	107.731	61.594	69.364	282.868	220.380	68.237	75.258	77.304	83.806	177.146	81.437	-8191	255	
933.353	1	1	0	0	0.041634	0.16391	0.10504	0.2307	0.11292	0.11674	0.31973	0.11841	0.077927	0.1452	0.13249	0.071668	0.1737	0.13454	0.19662	0.14245	-2.4	-2.2792	-2.1854	-3.0583	-2.0979	-2.6063	-2.9104	-1.9438	-2.7438	-2.4708	-2.1333	-2.8312	-2.125	-2.3771	-2.4729	-1.9875	224.146	298.846	226.551	403.325	376.567	162.273	316.020	385.747	121.534	243.053	207.608	154.325	200.286	222.610	123.944	376.207	0.0003612	0.00027506	0.00011785	1430.2	6.9537e-06	6.1053e-06	1849.5	302.5	3.0949e-06	3.8512e-06	427.34	121.62	78.166	21.094	9.0646e-06	36.009	0.00072149	0.00074475	0.00020611	1448.3	7.9476e-06	8.1546e-06	1889.9	312.67	8.0374e-06	8.2476e-06	451.78	127.34	81.923	22.887	8.1413e-06	38.499	212.518	127.666	203.309	63.167	283.304	145.916	63.495	71.211	317.261	228.568	69.691	76.998	78.954	85.596	158.775	83.089	-8191	255	
933.447	1	1	0	0	0.049681	0.1766	0.01874	0.13094	0.073571	0.089535	0.035342	0.074845	0.2741	0.029099	0.074625	0.26054	0.11724	0.24701	0.28427	0.044037	-1.9542	-2.3479	-1.8417	-2.9708	-2.1271	-2.3688	-3.0146	-2.0792	-2.4375	-2.5958	-2.125	-2.8625	-2.3958	-2.1542	-2.6896	-2.0292	332.365	220.365	285.102	94.555	127.651	177.592	320.166	235.772	128.668	177.312	174.246	224.363	366.786	297.244	408.449	353.397	0.00035826	0.00036048	0.00021537	1423.3	4.7174e-06	3.4095e-06	1891	308.17	3.6991e-06	7.3976e-06	438.02	122.02	78.536	21.03	7.2909e-06	35.32	0.0007105	0.00074104	0.00020718	1447.3	7.9019e-06	8.2468e-06	1893.1	313.28	8.0097e-06	8.0939e-06	453.8	127.25	82.081	22.939	8.055e-06	38.529	181.445	398.594	196.848	63.409	287.345	361.967	61.901	69.593	319.760	189.066	69.361	76.877	78.718	84.941	261.095	82.816	-8191	255	
933.544	1	1	0	0	0.20787	0.039864	0.086792	0.19338	0.072094	0.21597	0.071455	0.096243	0.058292	0.24226	0.064989	0.22999	0.13718	0.28042	0.082054	0.17594	-2.0563	-2.5	-2.1896	-2.8208	-2.3042	-2.2604	-3.0479	-2.1729	-2.3937	-2.6146	-2.3125	-2.6229	-2.2583	-2.1521	-2.5208	-2.0417	296.167	375.583	165.748	374.878	362.864	272.676	158.968	344.287	327.650	231.504	392.824	361.905	81.687	306.461	241.025	269.850	0.00028435	0.00059252	5.1266e-05	1451.3	6.7658e-06	1.8343e-06	1855.5	299.68	3.229e-06	1.2913e-05	426.88	123.5	79.367	21.404	7.5112e-06	36.395	0.00072945	0.00073466	0.00020781	1450.5	7.8224e-06	8.2145e-06	1891.3	312.4	8.0636e-06	8.1503e-06	451.59	127.73	82.136	23.002	8.0835e-06	38.65	186.296	160.672	178.165	61.991	287.669	280.631	63.393	71.854	261.349	242.952	70.646	76.196	77.342	84.052	182.179	81.671	-8191	255	
933.664	1	1	0	0	0.20001	0.14875	0.07366	0.15416	0.14818	0.17477	0.25583	0.16461	0.083405	0.27028	0.1494	0.033838	0.090808	0.13614	0.2	0.068639	-1.8062	-2.5854	-1.8229	-2.8354	-2.3312	-2.1229	-3.1271	-2.2208	-2.2521	-2.6458	-2.075	-2.5167	-2.4458	-1.975	-2.7604	-2.1688	97.813	342.791	196.750	67.630	127.677	408.396	55.938	388.092	126.839	337.167	239.361	236.679	114.261	132.774	274.573	144.228	0.00043818	0.00012814	2.5887e-05	1445.6	5.5164e-06	2.1407e-06	1857.7	303.32	1.0604e-06	5.4472e-06	440.64	125.65	80.08	21.343	5.3703e-06	36.347	0.00072485	0.00073241	0.00020672	1451.7	7.7576e-06	8.2668e-06	1892.1	313.32	8.0906e-06	8.097e-06	453.04	127.78	82.256	22.997	8.1429e-06	38.55	220.571	153.602	148.998	62.359	282.964	181.868	63.211	70.996	251.865	166.078	67.685	75.125	77.238	84.777	188.759	81.701	-8191	255	
933.736	1	1	0	0	0.029476	0.10763	0.20391	0.31183	0.13457	0.082325	0.053152	0.059616	0.077443	0.073352	0.10763	0.13389	0.12351	0.15696	0.32466	0.2329	-1.7208	-2.8312	-1.9979	-2.7729	-2.5	-2.3167	-2.8396	-2.4188	-2.2625	-2.7271	-2.0375	-2.5375	-2.6708	-2.0292	-2.5542	-2.325	99.227	395.409	273.867	374.061	186.756	182.872	380.764	355.995	86.927	318.454	291.582	147.969	215.431	117.020	173.608	267.287	0.00018717	0.00040476	6.9583e-05	1447.7	5.0704e-06	7.5015e-06	1870.7	302.56	4.2596e-06	3.6673e-06	432.62	122.36	78.329	20.952	2.5608e-06	36.369	0.00072162	0.00073907	0.00020398	1452.4	7.7799e-06	8.17e-06	1893.1	312.93	8.1387e-06	8.107e-06	451.25	127.65	81.998	22.871	7.9833e-06	38.475	168.685	151.993	354.522	62.150	274.568	137.571	62.752	71.284	254.875	139.052	70.009	76.536	78.791	84.818	296.898	81.993	-8191	255	
933.832	1	1	0	0	0.17116	0.20712	0.28358	0.03808	0.018182	0.099837	0.16838	0.11963	0.22486	0.093772	0.22758	0.15573	0.17502	0.19139	0.11284	0.18722	-1.7812	-2.675	-2.1458	-2.7083	-2.8396	-1.9979	-2.925	-2.4125	-2.0438	-2.7875	-2.2229	-2.1917	-2.6688	-1.8396	-2.5438	-2.625	357.201	169.763	348.641	348.733	108.834	107.919	354.322	350.398	175.505	391.916	322.617	66.343	355.049	128.192	220.037	183.551	0.00044585	0.00056068	0.00020509	1461.5	5.051e-06	3.7878e-06	1895.6	308.42	5.2206e-06	2.2084e-06	439.14	123.72	78.682	21.095	5.4582e-06	36.003	0.0007259	0.0007348	0.0002061	1453.3	7.7608e-06	8.2599e-06	1896	313.79	8.1292e-06	7.9865e-06	452.18	127.6	82.018	22.964	8.1105e-06	38.474	192.724	125.298	159.090	61.567	274.988	77.518	61.774	69.898	252.737	264.678	68.589	75.799	78.058	85.068	272.924	83.113	-8191	255	
933.928	1	1	0	0	0.18834	0.22498	0.058654	0.19069	0.1366	0.14901	0.14014	0.1987	0.33498	0.18395	0.12875	0.10535	0.27661	0.25623	0.25349	0.18008	-1.8646	-2.7	-2.2083	-2.6896	-2.7542	-2.2417	-2.725	-2.5521	-2.1	-2.9375	-2.3063	-2.3917	-2.5938	-2.0333	-2.4583	-2.4646	390.539	149.639	397.813	306.168	394.893	406.853	345.006	274.044	411.438	69.687	378.301	174.093	324.324	107.634	217.740	362.637	0.00050372	0.00027548	0.00016728	1440.9	6.8703e-06	1.1512e-05	1851.6	301.73	4.5806e-06	1.9238e-06	431.32	123.04	78.987	21.27	2.8444e-06	36.085	0.00071669	0.00072127	0.00020442	1451.1	7.6655e-06	8.183e-06	1893	313.07	8.1679e-06	7.9556e-06	452.61	127.73	82.263	22.997	8.2639e-06	38.373	218.478	113.364	245.479	62.580	294.941	132.718	63.516	71.572	245.539	87.864	68.937	76.559	78.266	85.078	219.115	82.090	-8191	255	
934.049	1	1	0	0	0.15266	0.076138	0.10478	0.44197	0.024124	0.1934	0.44009	0.066374	0.12635	0.0030025	0.042178	0.19894	0.23546	0.085076	0.026486	0.26563	-1.6625	-2.6208	-2.1417	-2.4562	-2.6437	-2.1479	-2.6271	-2.7313	-2.2042	-2.7729	-2.4313	-2.1646	-2.6646	-2.0792	-2.3396	-2.5354	260.256	309.361	358.385	354.313	216.740	393.147	380.200	314.052	83.784	309.201	168.639	341.381	389.797	198.680	218.967	168.457	0.00031948	0.00034071	0.00012367	1450.2	6.3601e-06	6.0377e-06	1880.5	302.99	5.929e-06	1.1506e-05	431.26	121.74	78.21	21.272	7.2208e-06	36.234	0.00072557	0.00072204	0.00020236	1453.2	7.654e-06	8.0647e-06	1897.6	313.12	8.0906e-06	8.0352e-06	450.75	127.48	82.109	22.935	8.1629e-06	38.462	206.350	180.870	210.064	62.148	262.724	213.276	62.499	71.037	258.772	250.478	70.494	76.968	78.668	84.721	244.200	81.951	-8191	255	
934.145	1	1	0	0	0.068496	0.054965	0.088584	0.15302	0.087428	0.14883	0.13045	0.12866	0.27829	0.024345	0.29141	0.13532	0.28889	0.31291	0.2777	0.21875	-1.6667	-2.6917	-2.1583	-2.2917	-2.7812	-2.0667	-2.7292	-2.6958	-2.1229	-2.7687	-2.6146	-2.1937	-2.6979	-2.25	-2.4104	-2.6063	340.159	89.837	268.087	272.268	57.495	135.467	68.676	143.096	269.346	136.882	297.407	348.559	171.806	103.061	159.168	112.957	0.00024513	0.00023526	4.6524e-05	1454.5	5.9872e-06	6.715e-06	1875.5	304.34	3.7556e-06	6.6978e-06	429.06	121.54	77.827	20.698	1.4905e-06	35.483	0.00072096	0.00073031	0.00020087	1454.2	7.6299e-06	8.1085e-06	1895.4	313.39	8.0308e-06	8.1047e-06	451.69	127.33	82.024	22.892	8.1644e-06	38.42	204.389	107.391	166.431	61.934	287.075	220.807	62.565	70.746	290.730	218.435	69.316	77.099	78.982	86.003	363.254	82.926	-8191	255	
934.241	1	1	0	0	0.18279	0.22945	0.18573	0.37273	0.14809	0.20231	0.21085	0.39538	0.23233	0.28879	0.19723	0.50407	0.029816	0.17467	0.042531	0.1273	-1.6958	-2.5479	-2.5167	-2.3187	-2.825	-2.2167	-2.5479	-2.7146	-2.2958	-2.5417	-2.7604	-2.0563	-2.55	-2.4167	-2.2438	-2.6646	113.438	100.067	322.390	380.440	285.320	152.394	58.205	351.372	357.637	409.623	58.655	286.072	370.135	102.046	68.709	267.839	0.00040845	0.00062175	0.00010858	1438	6.2548e-06	2.3708e-06	1880	306.27	3.5812e-06	4.1954e-06	439.35	124.11	80.008	21.521	6.6884e-06	36.283	0.00071813	0.00072786	0.00019988	1452.2	7.6617e-06	7.974e-06	1896	313.65	8.0425e-06	8.1302e-06	451.55	127.92	82.331	22.945	8.1729e-06	38.468	198.587	117.280	149.825	62.719	282.818	69.139	62.296	70.393	244.725	63.463	68.991	75.813	77.213	83.973	218.912	81.509	-8191	255	
934.313	1	1	0	0	0.21513	0.25171	0.070347	0.27038	0.14565	0.19905	0.34767	0.24162	0.11673	0.18382	0.18835	0.24385	0.089956	0.072106	0.27957	0.090282	-1.6063	-2.3542	-2.5979	-2.3458	-2.4688	-2.3937	-2.2938	-2.8688	-1.9562	-2.225	-2.6521	-1.8937	-2.75	-2.4125	-2.1958	-2.6771	364.114	178.669	385.416	382.368	172.864	262.410	388.838	280.302	297.129	337.770	277.323	79.495	96.498	342.843	270.877	277.697	0.00031775	0.00025657	0.0001143	1469.2	7.376e-06	4.4516e-06	1901.6	307.1	5.61e-06	9.8121e-06	436.87	123.34	79.002	20.739	5.7446e-06	35.986	0.00071655	0.00073143	0.00020065	1455.1	7.7068e-06	8.1292e-06	1898.1	313.98	7.9783e-06	8.1132e-06	452.41	127.84	82.215	22.886	8.1922e-06	38.409	198.258	106.478	400.128	61.450	278.020	55.725	61.665	70.269	270.078	233.597	69.115	76.106	78.330	85.652	79.023	82.533	-8191	255	
934.433	1	1	0	0	0.11134	0.24608	0.3194	0.30549	0.15868	0.36236	0.08796	0.20877	0.2443	0.080361	0.20157	0.066083	0.16541	0.16216	0.18309	0.19942	-1.8438	-2.3792	-2.6167	-2.375	-2.6854	-2.5125	-2.3646	-2.9	-2.0833	-2.2313	-2.5312	-1.8312	-2.6896	-2.3667	-2.0271	-2.7729	393.466	218.082	386.779	360.268	145.222	82.912	249.158	69.470	371.182	201.415	165.220	236.450	86.369	70.373	58.099	400.705	0.00034451	0.00022595	0.00010001	1432.2	7.0236e-06	4.9485e-06	1870.4	304.91	2.9767e-06	4.6875e-06	433.37	122.47	79.13	21.041	1.1734e-06	36.131	0.00071399	0.00073893	0.00020038	1452.3	7.7468e-06	7.9248e-06	1896	313.55	7.974e-06	8.2608e-06	451.92	127.79	82.34	22.897	8.3078e-06	38.482	185.328	139.465	213.053	63.103	286.875	172.115	62.664	70.611	312.798	265.554	69.644	76.651	78.329	84.685	186.411	81.837	-8191	255	
934.530	1	1	0	0	0.17126	0.20507	0.05068	0.12085	0.17154	0.121	0.32168	0.1796	0.16788	0.0066267	0.15524	0.12773	0.13829	0.18993	0.16562	0.19207	-1.9104	-2.1125	-2.5792	-2.2729	-2.4958	-2.5479	-2.2479	-2.8354	-2.1875	-2.3521	-2.6937	-2.05	-2.5875	-2.6188	-1.8229	-2.6333	253.738	146.139	341.888	299.246	309.660	84.586	353.573	116.986	55.217	331.766	250.438	208.958	268.717	144.969	320.690	59.145	0.00028364	0.0003733	0.00010124	1474.5	5.4904e-06	7.0197e-06	1920.4	313.01	7.4777e-06	7.6421e-06	451.48	126.48	81.368	21.64	5.4324e-06	36.919	0.00072537	0.0007308	0.00020028	1456.7	7.7767e-06	7.9317e-06	1901.7	314.69	8.006e-06	8.2561e-06	453.5	128.26	82.536	22.95	8.0365e-06	38.588	214.287	166.950	122.488	61.175	282.553	184.835	61.254	69.157	282.985	301.254	67.889	74.536	76.516	82.937	227.279	81.295	-8191	255	
934.626	1	1	0	0	0.18813	0.14093	0.15663	0.11052	0.14835	0.15111	0.17725	0.096855	0.20219	0.12526	0.032698	0.11148	0.048594	0.050925	0.14775	0.056181	-1.8312	-1.9646	-2.7458	-2.4167	-2.3896	-2.6896	-2.2313	-2.7542	-2.5646	-2.1646	-2.7521	-2.0417	-2.3292	-2.6104	-2.0771	-2.4542	256.084	59.663	330.482	338.777	309.029	290.231	366.396	370.000	199.564	335.177	72.248	150.970	300.820	268.694	207.318	402.875	0.00038866	0.00093163	0.00010325	1482.7	7.0549e-06	7.0492e-06	1923.4	314.02	7.0507e-06	3.3382e-06	446.53	126.88	81.198	21.521	4.2252e-06	37.242	0.00071024	0.00075169	0.00020118	1457.9	7.7926e-06	7.9463e-06	1901.7	315.03	7.8683e-06	8.2391e-06	453.37	128.03	82.549	22.957	8.2739e-06	38.647	201.829	122.627	163.310	60.931	285.130	131.821	61.045	69.034	302.434	170.660	67.808	74.545	76.491	83.137	169.384	81.280	-8191	255	
934.745	1	1	0	0	0.071319	0.14616	0.18064	0.25213	0.35004	0.090447	0.12129	0.39942	0.14316	0.072214	0.096736	0.17013	0.093212	0.30962	0.063344	0.22196	-2.0708	-2.1667	-2.7417	-2.4167	-2.2604	-2.7396	-2.325	-2.5229	-2.4521	-2.1063	-2.5708	-2.1146	-2.1896	-2.5187	-2.05	-2.3833	74.447	163.828	153.774	52.644	101.496	297.258	386.244	404.830	121.406	323.793	321.701	384.845	135.057	361.395	374.274	81.327	0.00041046	0.00042914	0.00016923	1484.2	5.8698e-06	6.5639e-06	1925.5	314.04	3.2914e-06	3.4233e-06	446.85	126.97	81.176	21.627	1.2665e-06	37.079	0.00069891	0.0007397	0.00019968	1457.8	7.8726e-06	7.8756e-06	1901	314.77	7.9783e-06	8.2716e-06	453.71	128.05	82.496	23.014	8.2932e-06	38.664	203.065	95.204	105.943	60.917	283.505	168.284	61.080	68.903	280.051	288.492	67.444	74.401	76.464	82.985	382.922	81.050	-8191	255	
934.841	1	1	0	0	0.11687	0.21428	0.050514	0.044983	0.064041	0.14153	0.34338	0.052975	0.10741	0.2303	0.15938	0.13584	0.05637	0.15945	0.11778	0.15821	-2.2833	-1.9125	-2.6917	-2.5375	-2.2292	-2.9021	-2.3583	-2.4375	-2.6458	-2.1583	-2.5979	-2.3646	-1.9562	-2.9042	-1.9521	-2.2292	150.897	313.247	57.455	179.738	256.099	335.705	50.785	304.429	154.467	302.877	260.661	351.920	66.599	213.920	280.018	243.929	0.00022885	0.0006034	3.0267e-05	1483.5	7.7999e-06	9.2608e-07	1930.9	314.37	4.4756e-06	6.1029e-06	455.28	127.92	81.821	21.696	6.4667e-06	37.052	0.00071149	0.00073627	0.000199	1457.2	7.8453e-06	7.8157e-06	1901	314.64	7.9142e-06	8.2051e-06	454.3	128.11	82.499	22.915	8.1128e-06	38.632	195.990	177.045	164.459	60.936	286.383	142.335	60.866	68.740	278.747	206.871	67.271	74.739	76.029	83.110	141.937	81.175	-8191	255	
934.937	1	1	0	0	0.13811	0.17103	0.35504	0.29671	0.10036	0.13763	0.32902	0.30291	0.097332	0.033751	0.17987	0.080727	0.16249	0.35234	0.099219	0.32078	-2.1312	-1.8896	-2.4625	-2.6771	-2.1875	-2.7708	-2.3688	-2.0687	-2.5583	-1.9271	-2.6521	-2.3729	-2.1917	-2.5604	-2.2542	-2.0542	78.787	237.228	128.349	369.965	173.044	127.305	348.790	68.262	309.524	71.225	382.565	343.251	170.334	211.488	220.583	119.208	0.00027297	0.00041646	0.00020841	1486.5	7.4545e-06	7.1885e-07	1934.2	315.87	6.1994e-06	5.6755e-06	450.76	127.55	81.682	21.524	5.2456e-06	37.128	0.00070563	0.00074622	0.00020073	1457.5	7.8351e-06	7.9963e-06	1900.8	314.88	7.9842e-06	8.2778e-06	453.97	128.06	82.526	22.939	8.2446e-06	38.596	183.145	114.777	188.054	60.897	274.504	141.229	60.811	68.594	282.306	115.168	67.628	74.349	76.374	82.819	254.170	80.289	-8191	255	
935.033	1	1	0	0	0.063903	0.088249	0.031084	0.19745	0.16212	0.16101	0.21833	0.20202	0.031172	0.061282	0.17963	0.16911	0.26711	0.087373	0.17492	0.079188	-2.5292	-1.85	-2.3542	-2.7	-1.9979	-2.6396	-2.3979	-2.3021	-2.6542	-1.9979	-2.4792	-2.5417	-1.8604	-2.6167	-2.2479	-2.2208	305.017	301.853	203.568	383.469	75.268	137.990	391.753	290.993	132.062	155.559	382.659	240.934	63.781	167.132	196.844	68.645	0.00027877	0.00034163	6.377e-05	1489.3	6.0807e-06	3.3263e-06	1930.5	315.34	2.9962e-06	6.6205e-06	451.56	127.62	81.569	21.681	5.7299e-06	36.899	0.00070352	0.00073487	0.00020456	1457.9	7.9425e-06	7.9056e-06	1900.6	314.87	7.9411e-06	8.2669e-06	454.95	128.25	82.458	22.979	8.1698e-06	38.644	200.347	115.482	193.581	60.749	278.870	157.108	60.906	68.560	319.868	399.486	67.542	74.496	76.289	82.723	237.077	80.778	-8191	255	
935.129	1	1	0	0	0.26078	0.073781	0.13796	0.14262	0.077724	0.21049	0.27987	0.07682	0.090515	0.16636	0.10201	0.16558	0.18611	0.1259	0.10497	0.086506	-2.3375	-2.0104	-2.3542	-2.925	-2.0021	-2.5125	-2.6125	-2.2896	-2.7167	-2.2896	-2.5396	-2.6479	-2.2396	-2.5312	-2.3187	-1.9479	400.927	291.673	235.832	298.217	392.422	74.061	311.343	168.594	360.405	150.145	81.042	333.047	107.436	62.671	393.235	219.121	0.00032031	0.00052678	4.3957e-05	1489.8	5.2485e-06	3.9569e-06	1935.9	315.87	4.5671e-06	5.8557e-06	447.57	127.3	81.339	21.796	4.9724e-06	36.962	0.00071188	0.00073935	0.00020299	1459.1	7.9114e-06	7.8733e-06	1902.3	315.09	7.8967e-06	8.1518e-06	454.34	128.21	82.355	22.987	8.1814e-06	38.657	208.361	106.316	130.244	60.778	291.251	149.284	60.804	68.706	223.925	309.463	67.925	74.523	76.217	83.250	244.327	80.467	-8191	255	
935.225	1	1	0	0	0.12146	0.11568	0.11258	0.27035	0.02696	0.15966	0.097896	0.064265	0.13247	0.13545	0.13739	0.068592	0.0091492	0.19357	0.28271	0.16544	-2.3042	-2.1167	-2.3542	-2.8146	-2.0208	-2.6312	-2.7083	-2.0979	-2.7729	-2.4062	-2.1937	-2.7333	-1.9875	-2.4688	-2.5062	-2.0792	394.424	91.946	274.474	408.889	210.859	124.745	318.754	157.766	270.795	279.937	291.246	364.440	310.931	198.189	113.347	60.946	0.00046551	0.00015381	0.00012987	1484.5	7.1821e-06	7.6078e-06	1928.9	314.28	3.3132e-06	2.3975e-06	449.76	126.75	81.2	21.822	1.0912e-06	36.861	0.00071471	0.00074047	0.00020372	1457.9	7.8155e-06	8.0409e-06	1901.2	314.79	7.9178e-06	8.0777e-06	454.4	128.02	82.456	22.959	8.0611e-06	38.645	178.344	187.389	227.486	60.942	274.603	148.094	61.144	68.838	259.071	234.506	66.885	74.616	76.584	83.113	262.639	81.719	-8191	255	
935.346	1	1	0	0	0.16058	0.12514	0.089308	0.27306	0.08561	0.16561	0.29544	0.12337	0.10499	0.24271	0.1715	0.16858	0.17174	0.16394	0.1044	0.039293	-2.2562	-2.25	-2.1458	-2.8854	-2.2958	-2.3812	-2.75	-2.1042	-2.5896	-2.2458	-2.1437	-2.7062	-1.9917	-2.3604	-2.4792	-1.9458	126.435	328.324	263.106	344.577	64.833	127.806	315.818	362.625	380.849	390.228	357.526	313.346	167.188	242.758	192.380	249.630	0.00028744	0.00063527	6.6859e-05	1478	6.1677e-06	2.0089e-06	1914.9	311.37	6.1929e-06	3.6197e-06	448.34	126.62	80.633	21.666	3.0025e-06	36.364	0.00070662	0.00073676	0.00020402	1457.8	7.8529e-06	7.9824e-06	1901	314.62	7.8741e-06	8.1356e-06	453.74	128.17	82.383	22.937	8.0974e-06	38.568	193.792	155.633	228.497	61.163	291.272	189.743	61.380	69.247	249.760	235.596	68.018	74.947	76.928	83.727	153.632	81.710	-8191	255	
935.440	1	1	0	0	0.16916	0.25454	0.17297	0.072964	0.14478	0.15618	0.044336	0.16684	0.057125	0.19396	0.45102	0.31268	0.15609	0.14503	0.05099	0.078882	-2.1688	-2.1813	-1.9979	-3.0021	-2.125	-2.2146	-2.7917	-2.0812	-2.4646	-2.45	-1.9937	-2.6604	-2.0333	-2.3979	-2.5938	-1.8375	316.758	110.127	174.205	227.102	123.579	277.070	352.839	268.103	234.208	384.076	307.028	390.278	250.279	343.563	134.261	280.378	0.00034069	0.00056585	7.9991e-05	1484.1	6.4435e-06	1.2931e-05	1926.3	314.66	4.5412e-06	9.553e-07	447.92	127.36	81.598	21.825	2.3319e-06	37.006	0.00071063	0.00073606	0.00020712	1458.3	7.8224e-06	8.1108e-06	1901.4	314.75	7.947e-06	8.0985e-06	453.64	128.04	82.488	22.997	7.9964e-06	38.711	206.204	146.870	137.606	60.953	278.848	159.158	61.146	68.967	286.226	58.709	67.110	74.441	76.215	83.273	78.678	80.016	-8191	255	
935.537	1	1	0	0	0.28391	0.032158	0.054623	0.18774	0.094649	0.057998	0.36761	0.19351	0.14162	0.15356	0.26679	0.095962	0.17514	0.061957	0.12818	0.18549	-1.9396	-2.3646	-2.0167	-2.9292	-2.1667	-2.1896	-2.8375	-2.1937	-2.3979	-2.4708	-1.8875	-2.6375	-2.1	-2.0521	-2.7104	-2.0146	65.689	380.681	263.725	363.328	304.712	130.791	376.361	359.329	232.888	326.410	159.144	213.689	293.819	96.729	93.164	397.203	0.00034245	0.0004382	7.6179e-05	1492.3	5.8217e-06	7.9149e-06	1935.9	315.14	6.3861e-06	2.9435e-06	449.86	127.87	81.527	21.811	9.8072e-06	37.418	0.00070635	0.00072141	0.00020518	1458.7	7.8498e-06	8.0923e-06	1902.7	314.71	7.9637e-06	8.1232e-06	455.86	128.17	82.435	23.105	8.0203e-06	38.584	194.955	84.590	190.166	60.647	274.025	121.243	60.894	68.584	271.322	328.511	67.423	74.512	76.299	82.449	241.342	80.278	-8191	255	
935.610	1	1	0	0	0.17304	0.088844	0.29405	0.088722	0.23235	0.064904	0.37888	0.23192	0.11829	0.12432	0.079306	0.2885	0.24753	0.022684	0.090806	0.069303	-2.0792	-2.7833	-2.1167	-2.8833	-2.3333	-2.1542	-2.7854	-2.0458	-2.3063	-2.6083	-2.0438	-2.5062	-2.3417	-2.0333	-2.6792	-2.025	145.477	396.646	293.244	107.482	140.711	350.278	339.169	173.625	210.031	77.451	407.730	269.737	352.485	149.463	390.942	302.365	0.00035655	0.00059392	0.00017447	1491.3	5.7533e-06	3.4159e-06	1935	315.3	3.0632e-06	9.189e-06	448.44	127.76	81.681	21.827	8.1122e-06	37.117	0.00071537	0.00072807	0.00020635	1458.5	7.7227e-06	8.0147e-06	1901.8	314.87	8.0111e-06	8.0043e-06	454.56	128.25	82.493	23.052	8.0342e-06	38.623	210.559	121.239	151.429	60.569	282.264	302.787	60.648	68.423	248.287	261.652	67.336	74.269	76.124	82.118	221.258	80.745	-8191	255	
935.706	1	1	0	0	0.16273	0.052201	0.11941	0.098285	0.33739	0.12188	0.4182	0.1034	0.17128	0.16797	0.19893	0.081097	0.059747	0.2443	0.20943	0.21839	-1.9042	-2.5125	-1.9688	-2.7292	-2.4188	-1.9813	-2.9188	-2.3	-2.2042	-2.5979	-1.9375	-2.6312	-2.4188	-2.0646	-2.6229	-2.2708	150.062	331.533	88.505	148.478	137.943	187.118	352.549	260.176	99.730	53.385	335.317	215.074	228.530	287.632	187.043	310.010	0.00032336	0.00052725	0.00019197	1489.8	5.4137e-06	2.7131e-06	1935.7	314.96	5.2327e-06	1.051e-06	448.89	127.78	81.523	21.539	2.0036e-06	37.286	0.00071912	0.00071979	0.00020423	1458.7	7.7157e-06	8.1369e-06	1902.5	314.8	8.0673e-06	7.9525e-06	454.26	128.09	82.416	22.951	8.0411e-06	38.605	221.590	152.292	108.728	60.513	272.044	66.950	60.756	68.718	269.801	386.187	67.161	74.290	76.184	82.827	272.470	80.830	-8191	255	
935.825	1	1	0	0	0.19469	0.078593	0.11606	0.26539	0.054541	0.070471	0.37001	0.14735	0.094684	0.36202	0.18515	0.12849	0.009141	0.26924	0.12551	0.11476	-1.7396	-2.5667	-1.8438	-2.5417	-2.6417	-1.825	-2.9813	-2.4062	-1.9458	-2.7062	-1.9646	-2.2771	-2.6396	-1.9729	-2.6792	-2.3146	385.777	120.908	186.225	359.719	149.140	96.805	314.547	402.981	252.771	266.110	152.941	121.800	133.916	179.982	62.119	258.445	0.00038817	0.00021859	8.4825e-05	1486.8	7.371e-06	4.619e-06	1929.5	314.32	2.5891e-06	4.5449e-06	445.82	126.17	80.688	21.258	6.2764e-06	36.768	0.00071491	0.00071692	0.00020361	1458.9	7.7112e-06	8.1361e-06	1901.2	314.78	8.0235e-06	8.0073e-06	454.73	128.03	82.33	23.013	7.9756e-06	38.647	206.358	260.648	211.276	60.761	287.254	298.504	60.979	68.991	261.229	235.580	68.101	74.786	76.802	83.812	186.483	81.463	-8191	255	
935.921	1	1	0	0	0.3377	0.058467	0.17024	0.19167	0.14046	0.13354	0.11373	0.091525	0.17389	0.26226	0.12815	0.12299	0.094582	0.17449	0.33404	0.26181	-1.6958	-2.4813	-1.9438	-2.6437	-2.6521	-1.9292	-2.8833	-2.3146	-2.1312	-2.6667	-2.0458	-2.1312	-2.6375	-1.7812	-2.7208	-2.4437	224.969	191.195	326.200	297.724	59.055	362.307	341.616	115.402	295.210	394.125	241.108	349.811	126.652	108.090	216.914	234.889	0.000282	0.00037644	0.00010331	1473.7	5.6309e-06	8.5727e-06	1900.2	309.94	3.9846e-06	6.2301e-07	443.17	125.68	80.679	21.474	9.1814e-06	36.612	0.00072195	0.00071664	0.00020378	1457.1	7.6985e-06	7.9917e-06	1901.2	314.66	7.9995e-06	8.0429e-06	453.29	127.92	82.439	22.978	8.0002e-06	38.517	240.479	128.831	187.604	61.266	271.216	141.211	61.860	70.036	251.785	203.685	67.772	74.792	76.922	83.504	201.062	81.177	-8191	255	
936.017	1	1	0	0	0.16997	0.13829	0.18251	0.44856	0.19667	0.2742	0.3509	0.079066	0.24976	0.23875	0.24141	0.14461	0.28084	0.1055	0.14736	0.18521	-1.7521	-2.6625	-2.2625	-2.5479	-2.675	-1.8667	-2.6083	-2.5021	-2.1312	-2.7458	-2.1208	-2.1208	-2.475	-1.9542	-2.5062	-2.3771	65.195	204.760	83.118	390.580	223.110	308.187	407.361	55.689	79.763	148.329	165.430	310.849	342.335	384.431	213.659	93.802	0.00026905	0.00050529	0.00010444	1458.2	5.6138e-06	7.765e-06	1891.4	308.26	4.8474e-06	4.6996e-06	441.16	124.68	79.901	21.17	2.9621e-06	36.026	0.00072202	0.0007172	0.00020182	1456.2	7.6369e-06	8.0916e-06	1900.6	314.34	8.1154e-06	8.0862e-06	453.62	128.03	82.25	22.964	8.0403e-06	38.527	213.758	120.066	75.771	61.947	283.242	93.038	62.162	70.123	267.594	212.361	68.602	75.718	77.436	84.883	251.126	82.885	-8191	255	
936.113	1	1	0	0	0.18901	0.20779	0.23926	0.19544	0.10134	0.17258	0.17981	0.1374	0.17191	0.025568	0.10079	0.24899	0.17458	0.13315	0.28561	0.11637	-1.5667	-2.5625	-2.0917	-2.3312	-2.6188	-2.0312	-2.5458	-2.5896	-1.8396	-2.6271	-2.3271	-2.0812	-2.5563	-2.1333	-2.3438	-2.6063	55.913	90.609	254.412	94.103	385.912	369.102	323.777	360.382	398.010	309.997	130.895	377.062	246.150	52.325	83.837	350.318	0.00023774	0.00048353	0.00019729	1465.3	4.8432e-06	7.0351e-06	1917.4	310.93	6.7553e-06	1.3962e-06	445.57	125.68	79.843	21.267	9.7904e-06	36.861	0.00071859	0.00071587	0.00020225	1456.3	7.7042e-06	8.0447e-06	1901.3	314.42	8.0775e-06	8.0004e-06	452.19	127.89	82.355	22.946	7.9555e-06	38.609	166.891	78.455	160.545	61.691	274.640	194.186	61.333	69.610	306.643	376.946	67.869	75.031	77.677	83.782	224.244	81.952	-8191	255	
936.210	1	1	0	0	0.091142	0.11233	0.076577	0.14511	0.032306	0.29032	0.41779	0.14538	0.2107	0.24027	0.25896	0.009302	0.20524	0.067471	0.2851	0.027075	-1.5938	-2.3917	-2.1562	-2.3	-2.6729	-2.2833	-2.5563	-2.4271	-2.1771	-2.6979	-2.425	-2.0167	-2.6771	-1.9	-2.3292	-2.6146	150.802	402.554	355.220	129.893	61.978	123.020	364.758	270.850	312.230	299.113	82.533	212.837	155.699	239.115	113.318	250.988	0.00011147	0.00053833	6.0679e-05	1454.9	4.5816e-06	4.4253e-06	1876.4	305.3	3.2588e-06	5.574e-06	440.48	123.63	79.326	21.273	1.0236e-05	36.137	0.00072439	0.00073227	0.00019906	1455.8	7.6013e-06	7.9832e-06	1898.4	314.04	8.0913e-06	7.9417e-06	453.02	127.88	82.296	22.969	8.0542e-06	38.477	185.462	150.409	132.163	62.089	278.111	304.051	62.605	70.451	279.838	124.116	68.852	76.083	77.887	84.763	187.672	82.062	-8191	255	
936.306	1	1	0	0	0.18134	0.061103	0.041184	0.17143	0.10889	0.24326	0.25162	0.11255	0.23803	0.060958	0.25606	0.14893	0.16775	0.1845	0.27199	0.14328	-1.3062	-2.3	-2.2896	-2.1854	-2.7792	-2.2167	-2.4562	-2.6583	-2.0438	-2.425	-2.4583	-1.8854	-2.4646	-2.1042	-2.0938	-2.5979	70.179	214.892	61.855	52.983	154.340	353.055	293.790	361.334	144.954	378.178	336.756	202.789	299.915	323.318	68.461	366.727	0.00021879	0.0006936	7.6375e-05	1449.5	5.9303e-06	7.4086e-06	1931.1	315.74	6.7786e-06	2.152e-06	450.46	127.16	81.573	21.839	3.794e-06	37.349	0.00071129	0.00072652	0.0002004	1454.1	7.6871e-06	7.9148e-06	1902.7	315.13	8.0111e-06	8.0923e-06	453.73	127.99	82.483	23.053	8.1968e-06	38.614	218.152	112.793	116.739	62.254	298.005	132.006	60.806	68.839	303.704	260.555	67.296	74.091	76.069	82.948	272.417	80.878	-8191	255	
936.426	1	1	0	0	0.078894	0.17416	0.42074	0.13162	0.075324	0.15326	0.1967	0.0742	0.28946	0.24162	0.23887	0.19137	0.053749	0.38674	0.033981	0.088838	-1.5604	-2.4104	-2.5187	-2.0417	-2.6875	-2.1521	-2.2542	-2.5708	-2.0354	-2.3771	-2.575	-1.9458	-2.5396	-2.4167	-2.0583	-2.6146	382.311	155.407	126.762	399.401	360.875	365.723	351.044	106.253	101.535	239.055	313.495	171.303	343.579	390.511	372.617	279.868	0.00038199	0.00028532	8.1929e-05	1490.3	6.1675e-06	5.2393e-06	1935.5	315.84	4.2023e-06	6.105e-06	452.64	127.13	81.786	21.704	7.183e-06	37.073	0.00071616	0.0007247	0.0001991	1458	7.7176e-06	8.0163e-06	1903	315.13	8.0082e-06	8.2221e-06	453.74	128.18	82.581	23.007	8.2084e-06	38.638	177.144	212.670	200.381	60.529	271.984	172.490	60.609	68.565	232.152	228.515	67.398	74.068	76.071	83.207	124.276	80.240	-8191	255	
936.523	1	1	0	0	0.089354	0.21103	0.17282	0.24287	0.14689	0.07283	0.21136	0.40795	0.1154	0.18113	0.10934	0.1786	0.26473	0.1777	0.2715	0.15152	-1.5396	-2.275	-2.6167	-2.2667	-2.5771	-2.3604	-2.175	-2.625	-2.0563	-2.1542	-2.6063	-1.8875	-2.4062	-2.3396	-2.0625	-2.4083	392.701	175.402	287.338	372.257	297.217	84.927	63.964	381.414	221.219	78.542	108.682	287.710	188.031	69.301	378.268	167.130	0.0002981	0.00057821	1.3156e-05	1488.4	6.839e-06	7.4616e-06	1936.1	315.46	5.2219e-06	4.2521e-06	452.46	127.53	81.401	21.758	9.984e-06	37.258	0.00072096	0.0007376	0.00020015	1458.5	7.8231e-06	7.9479e-06	1902.4	315.19	8.0563e-06	8.2546e-06	453.4	128.17	82.413	22.971	8.2832e-06	38.564	218.528	100.888	86.243	60.472	282.282	169.437	60.610	68.642	278.313	210.181	67.570	73.928	75.893	82.735	177.954	79.634	-8191	255	
936.617	1	1	0	0	0.21748	0.13604	0.05933	0.27501	0.15691	0.088711	0.19112	0.12757	0.25358	0.19094	0.028257	0.15695	0.14549	0.2178	0.14676	0.11832	-1.7479	-2.1437	-2.6271	-2.3917	-2.2062	-2.5292	-2.1542	-2.6937	-2.25	-2.3104	-2.6625	-1.9396	-2.2167	-2.4354	-2.0854	-2.5438	299.123	408.973	217.995	372.399	276.957	116.698	407.673	180.785	400.402	184.067	51.126	248.784	304.190	358.268	343.858	232.955	0.0004058	0.00080135	0.0001525	1490.5	6.0782e-06	6.7779e-06	1936.6	315.35	4.1408e-06	5.8547e-06	447.34	127.98	81.655	21.797	3.5262e-06	37.271	0.00071655	0.00073984	0.00019937	1458.1	7.7246e-06	7.9417e-06	1902.4	315.26	7.9849e-06	8.321e-06	453.52	128.29	82.613	22.989	8.2384e-06	38.517	209.157	104.747	112.858	60.459	280.988	203.733	60.489	68.513	237.830	188.605	67.095	74.069	75.941	82.633	246.830	80.205	-8191	255	
936.715	1	1	0	0	0.092515	0.071856	0.21357	0.36746	0.23026	0.048782	0.16253	0.26151	0.049041	0.17457	0.25845	0.23059	0.24814	0.26888	0.18642	0.098618	-1.8854	-2.0333	-2.6562	-2.1542	-2.3229	-2.5104	-2.2854	-2.6521	-2.3646	-1.7979	-2.7917	-2.0583	-2.2938	-2.5125	-1.7854	-2.4938	197.975	239.054	96.789	328.329	348.681	51.738	344.747	107.881	73.164	284.015	365.717	216.478	335.152	217.848	362.471	360.190	0.00037645	0.00056854	0.00011986	1490	5.1355e-06	8.9071e-06	1935.3	315.23	5.3574e-06	2.2938e-06	453.3	127.54	81.835	21.823	6.1053e-06	37.697	0.00071135	0.00074706	0.0002026	1457.7	7.7907e-06	7.9748e-06	1902.3	314.93	8.0002e-06	8.3882e-06	453.93	128.03	82.524	22.994	8.3017e-06	38.657	213.939	108.044	182.697	60.524	276.566	157.037	60.605	68.414	255.110	147.886	67.616	73.798	75.897	83.231	230.694	80.256	-8191	255	
936.834	1	1	0	0	0.056588	0.069161	0.17777	0.15357	0.10264	0.14311	0.24572	0.16064	0.080393	0.21071	0.097718	0.15406	0.27575	0.32082	0.1869	0.21006	-2.0979	-1.8312	-2.6604	-2.3208	-2.1625	-2.5354	-2.3521	-2.5104	-2.4854	-2.0333	-2.6625	-2.125	-2.0833	-2.6604	-2.1021	-2.4625	226.513	84.290	341.923	65.847	250.420	303.650	339.093	346.152	133.236	140.112	156.212	66.926	364.009	400.520	190.751	186.268	0.00037567	0.0002429	6.7811e-05	1490.8	5.8321e-06	4.6089e-06	1931.7	314.89	5.5365e-06	4.2172e-06	452.52	127.35	81.802	21.876	4.0848e-06	36.954	0.00071576	0.00074461	0.00019914	1458	7.8625e-06	7.8764e-06	1901.2	314.99	7.8595e-06	8.2113e-06	453.89	128.04	82.582	22.96	8.2523e-06	38.494	196.994	184.427	214.807	60.496	274.867	168.604	60.593	68.560	253.198	405.067	66.753	74.159	76.014	82.369	327.795	80.500	-8191	255	
936.905	1	1	0	0	0.10661	0.24655	0.18891	0.2852	0.0583	0.11363	0.21274	0.065235	0.063535	0.076253	0.18745	0.18792	0.23558	0.34567	0.20719	0.47585	-2.2667	-1.9521	-2.6146	-2.6	-2.0375	-2.8729	-2.1979	-2.5271	-2.7354	-2.0938	-2.5646	-2.4917	-1.875	-2.7292	-2.1229	-2.2562	394.922	306.797	372.132	375.025	121.224	303.961	316.714	275.642	102.375	161.573	120.417	285.108	302.328	188.016	301.261	369.691	0.00045405	0.00049556	0.00013222	1489.2	5.7453e-06	6.0235e-06	1933.6	314.9	3.3057e-06	4.7498e-06	450	127.32	81.504	21.615	5.2306e-07	37.257	0.00070819	0.00074875	0.00020108	1457.3	7.9159e-06	7.9932e-06	1900.6	314.69	7.9703e-06	8.1426e-06	453.39	127.97	82.481	22.996	8.1351e-06	38.661	181.361	116.543	92.052	60.554	277.021	143.164	60.610	68.505	280.995	303.146	67.213	74.402	76.008	82.831	292.264	80.569	-8191	255	
937.026	1	1	0	0	0.093588	0.048404	0.13537	0.13729	0.050944	0.13221	0.15499	0.24352	0.2395	0.23712	0.17831	0.19429	0.18159	0.19096	0.29854	0.19239	-2.3937	-1.9958	-2.4604	-2.6875	-2.1958	-2.5938	-2.4333	-2.3146	-2.7979	-2.0104	-2.5646	-2.2479	-2.1063	-2.7458	-2.0646	-2.1479	374.712	146.715	59.238	311.680	129.591	255.319	362.023	138.654	107.474	393.873	310.932	243.808	110.243	252.060	221.769	255.831	0.00039913	0.00075947	0.00026621	1489.9	6.4794e-06	6.6046e-06	1936.4	315.33	4.1553e-06	5.2171e-06	448.43	127.86	81.506	21.743	1.9573e-06	37.299	0.00070418	0.0007409	0.00020124	1457.4	7.9438e-06	7.9279e-06	1902	314.86	7.9003e-06	8.2144e-06	453.12	128.17	82.469	22.948	8.1606e-06	38.667	235.391	101.989	181.354	60.672	272.270	216.087	60.763	68.587	273.706	136.217	67.360	74.099	75.856	82.628	72.265	80.144	-8191	255	
937.122	1	1	0	0	0.12352	0.13593	0.21059	0.35055	0.16899	0.20268	0.2382	0.084845	0.12605	0.088837	0.066516	0.2241	0.34212	0.18742	0.27057	0.17382	-2.275	-1.9917	-2.4167	-2.9979	-2.0104	-2.8	-2.4229	-2.1104	-2.5479	-2.2313	-2.4062	-2.6792	-1.9396	-2.4313	-2.4	-2.1125	60.436	214.140	165.244	374.881	132.502	90.687	388.874	195.396	240.451	102.605	399.008	197.368	87.187	271.006	295.345	158.878	0.00030285	0.00033402	0.00015262	1490.4	5.7153e-06	1.9935e-06	1929.3	313.59	3.7911e-06	5.4648e-06	448.08	126.68	80.849	21.469	3.4857e-06	37.323	0.00071451	0.00074054	0.00019978	1457.6	7.8809e-06	7.8948e-06	1900.6	314.76	7.9324e-06	8.294e-06	453.01	127.85	82.339	22.979	8.102e-06	38.641	207.797	162.914	113.300	60.746	283.563	216.082	61.008	68.822	292.822	199.110	67.954	74.912	76.910	84.090	281.514	80.852	-8191	255	
937.218	1	1	0	0	0.096116	0.23757	0.31169	0.13099	0.078424	0.11082	0.21288	0.264	0.1136	0.051073	0.35558	0.39582	0.22979	0.060082	0.19356	0.12922	-2.2042	-2.0708	-2.3563	-2.9	-2.1708	-2.5375	-2.6333	-2.1271	-2.8333	-2.0896	-2.3396	-2.5208	-1.9854	-2.8646	-2.5021	-2.075	214.644	198.586	315.461	409.052	147.807	330.995	366.575	392.436	142.011	136.401	236.796	180.372	81.668	393.688	394.776	355.433	0.00028688	0.00058338	0.00013327	1475.1	4.7684e-06	7.0809e-06	1898.3	309.46	7.2805e-06	3.0175e-06	444.61	125.23	80.012	21.274	2.2147e-06	36.161	0.00070734	0.00073816	0.00020407	1456.7	7.8873e-06	7.9156e-06	1898.9	314.26	7.8814e-06	8.1201e-06	452.24	127.76	82.397	22.956	8.0365e-06	38.564	173.974	147.335	231.157	61.258	283.812	126.443	61.939	69.848	290.240	396.139	68.024	75.232	77.609	85.133	144.655	82.340	-8191	255	
937.314	1	1	0	0	0.17538	0.17944	0.14173	0.25358	0.094633	0.15339	0.17567	0.28254	0.089018	0.23381	0.070858	0.079949	0.07288	0.23815	0.082937	0.21311	-2.1583	-2.0979	-2.1458	-2.9437	-2.0833	-2.6188	-2.6604	-2.0563	-2.8396	-2.3937	-2.0854	-2.8	-1.9958	-2.5979	-2.5187	-2.0604	139.971	85.566	218.184	399.919	156.518	105.369	307.261	56.468	161.892	136.927	266.499	56.437	375.297	186.469	180.474	130.233	0.00043806	0.00047174	0.00014916	1446.7	5.9821e-06	5.7513e-06	1870.6	304.05	2.0299e-06	5.1186e-06	431.55	123.58	79.101	20.995	5.1276e-06	36.302	0.00070819	0.00073508	0.00020322	1455	7.8612e-06	7.997e-06	1897.7	314.08	7.842e-06	8.1681e-06	452.21	127.71	82.16	22.915	7.8969e-06	38.656	192.423	140.669	161.080	62.599	287.057	199.288	62.904	71.053	324.188	297.432	69.345	76.178	78.448	85.058	96.559	81.854	-8191	255	
937.411	1	1	0	0	0.21753	0.17354	0.067684	0.069466	0.3016	0.12909	0.13244	0.32503	0.13358	0.38201	0.38435	0.26254	0.26126	0.098501	0.011328	0.22399	-2.1562	-2.2292	-1.9188	-2.9604	-2.2271	-2.5729	-3.0042	-1.9667	-2.5792	-2.2979	-2.0583	-2.5938	-2.0896	-2.4	-2.6	-1.9667	360.315	197.922	223.480	371.100	113.855	186.923	340.699	382.140	99.261	309.383	193.418	77.379	79.866	115.938	311.756	100.640	0.00045821	0.00046566	0.00010863	1456.8	5.0233e-06	8.6343e-06	1868.8	305.34	1.0367e-06	1.5791e-06	444.93	125.29	80.988	21.726	4.7171e-06	36.604	0.00071181	0.00072884	0.00020491	1455.1	7.846e-06	7.9924e-06	1896.5	314.16	7.8464e-06	8.1163e-06	453.83	127.76	82.344	23.007	7.9417e-06	38.593	208.549	189.562	182.395	62.003	268.235	252.400	62.943	70.948	279.856	382.750	68.353	75.058	76.714	83.487	222.263	80.986	-8191	255	
937.505	1	1	0	0	0.066006	0.2288	0.21075	0.21773	0.11178	0.086099	0.37856	0.35903	0.15807	0.091422	0.27977	0.31778	0.15205	0.21443	0.16327	0.28138	-2.1792	-2.4042	-1.8417	-2.7792	-2.2333	-2.4083	-2.9375	-2.0771	-2.4854	-2.4667	-2.1896	-2.7604	-2.1083	-2.1771	-2.7083	-2.0083	160.509	238.104	132.817	355.338	187.203	184.160	405.616	141.898	234.763	410.332	186.242	375.536	193.450	128.528	161.512	153.905	0.00030975	0.00039872	3.8929e-05	1473.5	7.1512e-06	8.2877e-06	1904.4	311.12	2.0709e-06	2.3735e-06	435.15	124.99	79.752	21.408	1.0274e-05	36.326	0.00070405	0.00072786	0.00020279	1456.1	7.8358e-06	8.0239e-06	1898.5	314.43	7.9288e-06	8.0568e-06	452.25	127.92	82.255	22.976	7.8892e-06	38.515	186.807	122.338	216.165	61.302	279.492	195.887	61.680	69.476	244.272	178.722	68.607	75.862	77.469	85.185	206.141	82.784	-8191	255	
937.601	1	1	0	0	0.098027	0.18127	0.10712	0.23688	0.042298	0.18343	0.33632	0.019911	0.24765	0.16846	0.073679	0.16802	0.16334	0.11579	0.062194	0.05689	-2.0062	-2.3521	-1.9562	-3.0458	-1.9896	-2.2562	-2.9167	-2.05	-2.3812	-2.4	-1.9937	-2.7333	-2.35	-2.1625	-2.6667	-2.1417	372.484	311.554	196.047	364.785	145.198	196.303	317.999	179.202	257.091	240.858	301.257	370.992	384.191	263.309	235.427	176.018	0.00036822	0.0003675	0.00016346	1438.4	6.0853e-06	5.6916e-06	1883.6	304.85	8.7142e-06	7.1711e-06	432.57	123.56	79.143	21.241	4.7944e-06	36.171	0.00071162	0.00073066	0.00020297	1453.3	7.811e-06	8.014e-06	1897	313.88	7.8362e-06	8.158e-06	452.95	127.82	82.255	22.918	7.9332e-06	38.56	214.085	173.492	157.693	62.840	279.624	137.942	62.364	70.733	269.945	267.761	69.431	76.066	77.732	84.720	190.119	82.314	-8191	255	
937.697	1	1	0	0	0.26392	0.09154	0.33436	0.084908	0.11624	0.24444	0.33412	0.15571	0.1002	0.16917	0.11083	0.25316	0.2753	0.073527	0.242	0.14217	-2.0854	-2.4938	-2.0417	-2.8271	-2.325	-2.2396	-2.8208	-2.1	-2.2104	-2.6604	-2.1042	-2.55	-2.2979	-1.8667	-2.7167	-2.325	158.989	212.877	129.292	395.126	344.451	284.834	344.173	290.990	259.567	109.912	177.145	199.851	406.426	60.142	396.031	113.890	0.0004287	0.00053851	0.0002595	1469.7	5.8952e-06	1.0947e-05	1909.6	311.1	4.6391e-06	8.2422e-06	440.77	124.98	79.727	21.393	1.0546e-06	36.207	0.00071899	0.00072309	0.00020332	1457.3	7.7443e-06	8.0908e-06	1901	314.3	7.9266e-06	8.0128e-06	453.83	127.83	82.349	22.97	8.0272e-06	38.472	220.124	137.082	161.802	61.514	283.354	200.251	61.602	69.494	259.949	176.833	68.040	75.413	77.772	84.944	321.763	82.091	-8191	255	
937.818	1	1	0	0	0.199	0.33422	0.14438	0.27662	0.33738	0.22697	0.14447	0.11993	0.2531	0.056955	0.14442	0.087469	0.26116	0.32997	0.37822	0.26658	-1.6854	-2.6771	-2.0542	-2.8583	-2.4979	-2.0312	-2.9458	-2.2125	-2.2208	-2.8042	-1.9583	-2.5146	-2.625	-2.0479	-2.6083	-2.3125	274.979	385.423	201.240	384.833	403.241	252.932	403.489	264.792	89.241	72.193	243.765	179.925	342.418	129.003	381.097	136.517	0.00025976	0.00018185	0.00015778	1445.7	5.3718e-06	5.742e-06	1889	309.52	1.4849e-06	3.0104e-06	436.44	124.12	78.931	21.298	2.5381e-06	36.382	0.00071339	0.00071432	0.00020351	1454.2	7.6934e-06	8.0685e-06	1898.4	314.37	7.9142e-06	7.9378e-06	451.86	127.9	82.207	22.934	7.9856e-06	38.516	205.426	99.451	102.111	62.501	292.645	83.418	62.184	69.813	283.916	228.792	68.945	75.843	78.341	84.335	313.216	82.642	-8191	255	
937.914	1	1	0	0	0.079103	0.059474	0.047625	0.22874	0.25473	0.19483	0.20657	0.11395	0.30594	0.28585	0.03506	0.12922	0.13889	0.18206	0.29176	0.13243	-1.6625	-2.5062	-1.825	-2.8229	-2.45	-1.8687	-2.8667	-2.275	-2.125	-2.725	-2.0521	-2.4771	-2.6688	-1.8917	-2.5042	-2.3604	404.186	272.496	161.670	323.033	247.505	77.855	310.259	384.078	390.543	294.644	377.141	271.712	328.794	307.964	358.402	93.764	0.00041714	0.0003729	0.00011826	1444	6.1738e-06	7.9095e-06	1908.7	309.69	3.6937e-06	3.1873e-06	436.26	124.4	79.432	21.293	4.9281e-06	36.351	0.00071135	0.00071468	0.0002059	1455.1	7.7144e-06	8.014e-06	1900.8	314.21	7.9798e-06	7.9973e-06	452.64	127.82	82.206	22.985	7.9871e-06	38.435	209.005	134.749	122.632	62.600	270.520	162.615	61.515	69.706	304.158	230.921	69.673	75.986	78.089	84.388	204.663	81.812	-8191	255	
938.010	1	1	0	0	0.24125	0.16095	0.31843	0.13089	0.027843	0.082552	0.21616	0.331	0.12104	0.25344	0.15912	0.19749	0.20129	0.21608	0.12946	0.12002	-1.6833	-2.5375	-2.0604	-2.8583	-2.5187	-1.9979	-2.7479	-2.4604	-2.0833	-2.7771	-2.0854	-2.2729	-2.6333	-2.0604	-2.2354	-2.5292	352.627	301.727	79.540	392.304	362.038	133.942	364.718	120.273	261.285	289.103	67.405	410.138	399.476	118.293	57.297	55.139	0.00030548	0.00058412	7.3593e-05	1471.6	6.0987e-06	9.0888e-06	1900.6	309.07	5.7577e-06	6.9852e-06	430.13	124.16	80.16	21.502	2.0369e-06	36.631	0.00071721	0.00072021	0.00020293	1456.3	7.729e-06	8.1069e-06	1898.7	314.23	7.9987e-06	7.9146e-06	450.84	127.94	82.431	23.014	8.1105e-06	38.481	181.108	117.678	137.094	61.288	285.999	126.820	61.743	69.906	266.576	253.423	69.671	75.807	77.180	83.504	186.679	81.440	-8191	255	
938.106	1	1	0	0	0.3327	0.11595	0.013333	0.18566	0.15359	0.25618	0.28938	0.14759	0.20048	0.061887	0.12352	0.24926	0.059184	0.066154	0.26324	0.1276	-1.7479	-2.7521	-2.1125	-2.3979	-2.6083	-1.9458	-2.5479	-2.5667	-2.2917	-2.6479	-2.2125	-2.0938	-2.6146	-2.0271	-2.3958	-2.4729	257.728	255.554	310.978	359.415	85.660	178.382	375.215	374.405	227.603	210.770	93.994	86.384	112.072	194.481	226.621	403.068	0.00034346	0.00060443	0.00019109	1474.7	5.6835e-06	2.8144e-06	1914.4	312.61	2.8151e-06	7.6283e-06	445.11	126.16	80.85	21.696	3.8771e-06	36.896	0.00071675	0.00071881	0.00020269	1456.4	7.6801e-06	8.057e-06	1899.1	314.66	8.0505e-06	7.9749e-06	453.44	127.96	82.409	22.947	7.9995e-06	38.541	186.143	151.964	132.302	61.225	283.874	194.415	61.311	69.243	244.390	269.400	68.544	74.699	76.771	83.516	337.358	81.113	-8191	255	
938.203	1	1	0	0	0.084492	0.13332	0.11223	0.11093	0.093876	0.12879	0.2235	0.13698	0.32532	0.17351	0.040167	0.084352	0.010395	0.033413	0.22309	0.18663	-1.5688	-2.5563	-2.1604	-2.3521	-2.7208	-2.1271	-2.4562	-2.4833	-2.2229	-2.5521	-2.4396	-2.0938	-2.525	-2.0833	-2.4167	-2.55	365.194	75.567	406.766	206.545	399.273	331.853	366.596	255.162	117.813	370.099	82.941	84.448	376.200	340.864	256.824	244.733	0.00029827	0.00042501	0.00017446	1462.7	6.6336e-06	3.5531e-06	1889.2	309.59	3.0454e-06	3.2121e-06	439.79	124.61	80.344	21.459	4.7623e-06	36.448	0.00071675	0.00071874	0.00020334	1455.6	7.7106e-06	8.1361e-06	1897.3	314.31	8.0272e-06	8.0552e-06	451.91	127.88	82.344	23.024	8.0557e-06	38.456	206.201	141.034	155.823	61.702	277.245	209.448	62.055	69.953	293.736	273.486	68.571	75.618	77.150	83.825	178.538	81.979	-8191	255	
938.299	1	1	0	0	0.18811	0.032082	0.16155	0.33595	0.077771	0.29512	0.18826	0.13658	0.10319	0.15983	0.25083	0.17197	0.17272	0.16345	0.11969	0.29278	-1.6271	-2.5979	-2.2979	-2.3646	-2.7792	-2.1292	-2.4313	-2.6583	-1.9583	-2.5333	-2.4333	-1.9854	-2.5875	-2.0812	-2.1667	-2.55	356.698	120.524	387.071	360.371	113.079	157.948	273.858	402.679	239.566	259.014	389.058	327.542	164.397	157.820	253.724	117.040	0.00032434	0.00046776	0.00020784	1450.4	6.5356e-06	1.227e-05	1899.2	310.01	4.3882e-06	1.7389e-06	448.08	126.33	80.935	21.518	5.6755e-06	36.899	0.00071432	0.00072042	0.00019984	1453.7	7.5613e-06	7.9502e-06	1897.7	314.29	8.1467e-06	8.1356e-06	453.19	128.19	82.443	22.934	8.0742e-06	38.513	208.130	223.075	126.997	62.216	278.740	120.591	61.812	69.593	279.096	292.077	67.539	74.882	76.524	83.432	216.418	80.982	-8191	255	
938.419	1	1	0	0	0.21607	0.30181	0.21111	0.32604	0.12922	0.082159	0.085809	0.21536	0.0054262	0.17282	0.12496	0.14642	0.23236	0.14532	0.080266	0.22576	-1.6063	-2.2708	-2.4208	-2.1146	-2.475	-2.1437	-2.4479	-2.6771	-1.9292	-2.4375	-2.6417	-1.9604	-2.5292	-2.2542	-2.1167	-2.5792	122.958	51.609	380.076	321.131	333.390	168.219	170.685	374.921	107.708	403.160	394.767	136.413	388.626	64.400	403.580	145.732	0.00030457	0.0002447	0.00016406	1478.3	5.1984e-06	1.0117e-06	1920	312.74	6.953e-06	1.2078e-06	449.44	126.92	81.421	21.805	8.4242e-06	37.127	0.00072116	0.00072905	0.00019925	1456.8	7.6706e-06	7.9648e-06	1900	314.6	8.0381e-06	8.0985e-06	452.24	128.08	82.434	23.022	8.1421e-06	38.565	204.740	55.146	211.456	61.098	275.281	155.333	61.091	69.093	259.404	241.583	67.511	74.597	76.240	82.811	216.265	80.531	-8191	255	
938.515	1	1	0	0	0.15377	0.11031	0.10771	0.088105	0.085227	0.084275	0.16213	0.18601	0.16344	0.15819	0.099212	0.08638	0.29282	0.069163	0.090004	0.092266	-1.5375	-2.3542	-2.4188	-2.2021	-2.4042	-2.2708	-2.275	-2.6854	-2.1354	-2.2375	-2.5687	-2.0854	-2.5146	-2.2104	-2.1354	-2.875	341.280	282.320	119.662	390.870	141.400	102.628	295.425	253.210	154.426	406.292	408.512	323.221	406.465	364.183	63.260	181.405	0.00041241	0.00064546	6.8897e-05	1488.3	5.5653e-06	2.168e-06	1930.5	315.59	5.9631e-06	6.4314e-06	448.56	127.63	80.97	22.038	7.7573e-06	37.155	0.00071293	0.00072821	0.00020128	1457.1	7.7176e-06	7.9225e-06	1900.2	314.81	8.0381e-06	8.1016e-06	451.61	128	82.353	23.024	8.1999e-06	38.622	192.167	129.868	153.204	60.732	271.120	209.507	60.763	68.679	304.800	250.767	67.348	74.189	76.291	83.533	193.804	80.778	-8191	255	
938.610	1	1	0	0	0.30888	0.17092	0.17428	0.33486	0.098806	0.12483	0.26107	0.1102	0.19771	0.07193	0.17797	0.14001	0.1289	0.093882	0.070341	0.36582	-1.5729	-2.25	-2.4604	-2.3375	-2.3229	-2.3458	-2.1771	-2.7812	-2.2271	-2.0979	-2.6021	-2.0771	-2.4104	-2.4625	-2.1312	-2.8479	113.979	403.419	111.343	371.653	233.522	130.738	291.876	203.639	78.799	137.215	167.965	306.441	120.873	182.316	129.091	156.843	0.00037319	0.00045804	0.0001087	1483.5	5.7451e-06	1.1124e-05	1926.5	314.19	5.8495e-06	4.482e-06	452.71	127.34	80.89	21.697	1.3137e-06	37.06	0.00070457	0.00073501	0.00020091	1456.8	7.7506e-06	7.8887e-06	1899.5	314.57	7.9929e-06	8.1124e-06	453.78	128.06	82.366	22.884	8.3009e-06	38.539	204.172	145.936	162.782	60.905	275.877	175.863	61.014	68.982	275.117	211.951	67.691	74.593	76.148	82.672	232.597	81.127	-8191	255	
938.706	1	1	0	0	0.030469	0.14001	0.17467	0.36898	0.042878	0.2221	0.23937	0.16318	0.21575	0.14188	0.13483	0.11902	0.040459	0.4122	0.33485	0.26734	-1.7583	-2.1354	-2.5812	-2.4938	-2.3	-2.5333	-2.2958	-2.6875	-2.4813	-2.0896	-2.725	-2.0229	-2.1958	-2.4979	-1.9292	-2.8	185.576	400.468	266.007	368.934	363.821	179.226	292.572	218.391	113.678	232.950	55.542	392.453	153.617	370.987	380.407	313.289	0.00029725	0.00041146	0.0001292	1490.4	3.7102e-06	4.2348e-07	1929.7	314.17	3.2433e-06	2.4635e-06	452.01	127.57	81.485	21.691	8.4036e-06	37.089	0.00070385	0.00073788	0.00019927	1457.4	7.7824e-06	7.8618e-06	1899.8	314.52	7.9288e-06	8.2129e-06	453.61	128	82.356	22.922	8.2115e-06	38.534	218.226	142.367	151.336	60.741	287.129	313.799	60.870	68.782	296.195	314.493	67.192	74.273	76.264	82.838	206.606	80.742	-8191	255	
938.802	1	1	0	0	0.04537	0.093984	0.091883	0.20003	0.1317	0.18704	0.39856	0.063245	0.33427	0.17427	0.076313	0.071703	0.18881	0.20206	0.11268	0.11905	-1.8854	-2.1792	-2.5708	-2.3771	-2.2375	-2.5708	-2.3167	-2.5333	-2.3521	-1.875	-2.6979	-2.05	-2.1688	-2.5417	-1.9208	-2.4104	99.162	337.353	261.446	393.419	217.533	198.369	300.121	259.737	195.226	138.323	86.740	395.429	202.552	196.423	242.913	100.164	0.00038908	0.00042493	7.3646e-05	1489	5.9316e-06	7.1852e-06	1932.4	315.58	2.3713e-06	4.5084e-06	449.32	127.68	81.629	21.903	3.0384e-06	36.729	0.00071372	0.00073949	0.00019667	1456.8	7.7627e-06	7.8948e-06	1900.7	314.79	7.9805e-06	8.2608e-06	452.21	128.04	82.457	23.018	8.1328e-06	38.456	220.469	286.501	98.753	60.625	274.516	183.142	60.708	68.626	227.572	221.835	67.080	74.276	75.874	82.634	286.020	80.357	-8191	255	
#DATA ENDS
