BOXY.EXE: ISS Imagent and Oximeter Data Acquisition Program Version 0.80
Ascii Record File

#ACQ INFORMATION
2  Detector Channels 
16  External MUX Channels 
1  Auxiliary Channels 
5000  Waveform (CCF) Frequency (Hz)
1  Waveforms Skipped 
30  Waveforms Averaged 
1  Cycles Averaged 
16  Acquisitions per Waveform 
10.0806  Updata Rate (Hz) 

#FILE INFORMATION
TRUE -- External MUX Channel results are PARSED.
FALSE -- AC DC and Phase are NOT grouped.
TRUE -- Companion Program Settings File CREATED.
FALSE -- AC data not excluded
FALSE -- DC data not excluded
FALSE -- Phase data not excluded
FALSE -- Auxillary Chn. data not excluded
Tab delimiters

#CALIBRATION STATE
TRUE -- Waveform Calibration Values APPLIED.


#AUX CALIBRATION VALUES
Val Type	aux-1	

Term	1.0000e+00	
Factor	0.0000e+00	


#WF CALIBRATION VALUES
A = Detector Channel
Val Type	A-AC1	A-AC2	A-AC3	A-AC4	A-AC5	A-AC6	A-AC7	A-AC8	A-AC9	A-AC10	A-AC11	A-AC12	A-AC13	A-AC14	A-AC15	A-AC16	A-DC1	A-DC2	A-DC3	A-DC4	A-DC5	A-DC6	A-DC7	A-DC8	A-DC9	A-DC10	A-DC11	A-DC12	A-DC13	A-DC14	A-DC15	A-DC16	A-Ph1	A-Ph2	A-Ph3	A-Ph4	A-Ph5	A-Ph6	A-Ph7	A-Ph8	A-Ph9	A-Ph10	A-Ph11	A-Ph12	A-Ph13	A-Ph14	A-Ph15	A-Ph16	

Term	0.00000e+00	0.00000e+00	0.00000e+00	0.00000e+00	0.00000e+00	0.00000e+00	0.00000e+00	0.00000e+00	0.00000e+00	0.00000e+00	0.00000e+00	0.00000e+00	0.00000e+00	0.00000e+00	0.00000e+00	0.00000e+00	0.00000e+00	0.00000e+00	0.00000e+00	0.00000e+00	0.00000e+00	0.00000e+00	0.00000e+00	0.00000e+00	0.00000e+00	0.00000e+00	0.00000e+00	0.00000e+00	0.00000e+00	0.00000e+00	0.00000e+00	0.00000e+00	0.00000e+00	0.00000e+00	0.00000e+00	0.00000e+00	0.00000e+00	0.00000e+00	0.00000e+00	0.00000e+00	0.00000e+00	0.00000e+00	0.00000e+00	0.00000e+00	0.00000e+00	0.00000e+00	0.00000e+00	0.00000e+00	
Factor	1.00000e+00	1.00000e+00	1.00000e+00	1.00000e+00	1.00000e+00	1.00000e+00	1.00000e+00	1.00000e+00	1.00000e+00	1.00000e+00	1.00000e+00	1.00000e+00	1.00000e+00	1.00000e+00	1.00000e+00	1.00000e+00	1.00000e+00	1.00000e+00	1.00000e+00	1.00000e+00	1.00000e+00	1.00000e+00	1.00000e+00	1.00000e+00	1.00000e+00	1.00000e+00	1.00000e+00	1.00000e+00	1.00000e+00	1.00000e+00	1.00000e+00	1.00000e+00	X	X	X	X	X	X	X	X	X	X	X	X	X	X	X	X	

B = Detector Channel
Val Type	B-AC1	B-AC2	B-AC3	B-AC4	B-AC5	B-AC6	B-AC7	B-AC8	B-AC9	B-AC10	B-AC11	B-AC12	B-AC13	B-AC14	B-AC15	B-AC16	B-DC1	B-DC2	B-DC3	B-DC4	B-DC5	B-DC6	B-DC7	B-DC8	B-DC9	B-DC10	B-DC11	B-DC12	B-DC13	B-DC14	B-DC15	B-DC16	B-Ph1	B-Ph2	B-Ph3	B-Ph4	B-Ph5	B-Ph6	B-Ph7	B-Ph8	B-Ph9	B-Ph10	B-Ph11	B-Ph12	B-Ph13	B-Ph14	B-Ph15	B-Ph16	

Term	0.00000e+00	0.00000e+00	0.00000e+00	0.00000e+00	0.00000e+00	0.00000e+00	0.00000e+00	0.00000e+00	0.00000e+00	0.00000e+00	0.00000e+00	0.00000e+00	0.00000e+00	0.00000e+00	0.00000e+00	0.00000e+00	0.00000e+00	0.00000e+00	0.00000e+00	0.00000e+00	0.00000e+00	0.00000e+00	0.00000e+00	0.00000e+00	0.00000e+00	0.00000e+00	0.00000e+00	0.00000e+00	0.00000e+00	0.00000e+00	0.00000e+00	0.00000e+00	-5.24022e+01	-1.64169e+02	-9.76990e+01	-1.80969e+02	-5.66720e+01	-9.77327e+01	-1.56073e+02	-1.62015e+02	-2.91745e+01	-6.44927e+01	-1.73276e+02	-1.70265e+02	-1.82009e+02	-1.76771e+02	-6.96488e+01	-1.50163e+02	
Factor	1.86859e-05	9.78118e-05	2.79070e-05	1.67683e-01	9.76611e-07	1.10387e-06	1.73110e-01	5.09591e-02	1.07639e-06	1.05178e-06	1.04153e-01	2.91335e-02	3.50756e-02	9.31146e-03	9.58455e-07	1.36155e-02	6.11716e-07	6.27859e-07	1.75053e-07	7.79073e-02	6.84918e-09	6.89061e-09	7.55109e-02	2.36384e-02	6.84905e-09	6.88618e-09	4.50172e-02	1.28399e-02	1.55609e-02	4.22386e-03	6.88738e-09	5.88561e-03	X	X	X	X	X	X	X	X	X	X	X	X	X	X	X	X	



#DISTANCE SETTINGS
A = Detector Channel
A-1	A-2	A-3	A-4	A-5	A-6	A-7	A-8	A-9	A-10	A-11	A-12	A-13	A-14	A-15	A-16	

2.5000e+00	3.0000e+00	2.5000e+00	3.0000e+00	2.0000e+00	3.0000e+00	1.5000e+00	3.0000e+00	3.0000e+00	3.0000e+00	3.0000e+00	3.0000e+00	3.0000e+00	3.0000e+00	1.5000e+00	3.0000e+00	

B = Detector Channel
B-1	B-2	B-3	B-4	B-5	B-6	B-7	B-8	B-9	B-10	B-11	B-12	B-13	B-14	B-15	B-16	

1.0000e+01	1.0000e+01	1.0000e+01	1.4400e+00	1.0000e+01	1.0000e+01	1.5100e+00	1.9400e+00	1.0000e+01	1.0000e+01	1.9900e+00	2.4900e+00	2.4100e+00	2.9000e+00	1.0000e+01	2.9800e+00	




#DATA BEGINS
time	group	step	mark	flag	A-AC1	A-AC2	A-AC3	A-AC4	A-AC5	A-AC6	A-AC7	A-AC8	A-AC9	A-AC10	A-AC11	A-AC12	A-AC13	A-AC14	A-AC15	A-AC16	A-DC1	A-DC2	A-DC3	A-DC4	A-DC5	A-DC6	A-DC7	A-DC8	A-DC9	A-DC10	A-DC11	A-DC12	A-DC13	A-DC14	A-DC15	A-DC16	A-Ph1	A-Ph2	A-Ph3	A-Ph4	A-Ph5	A-Ph6	A-Ph7	A-Ph8	A-Ph9	A-Ph10	A-Ph11	A-Ph12	A-Ph13	A-Ph14	A-Ph15	A-Ph16	B-AC1	B-AC2	B-AC3	B-AC4	B-AC5	B-AC6	B-AC7	B-AC8	B-AC9	B-AC10	B-AC11	B-AC12	B-AC13	B-AC14	B-AC15	B-AC16	B-DC1	B-DC2	B-DC3	B-DC4	B-DC5	B-DC6	B-DC7	B-DC8	B-DC9	B-DC10	B-DC11	B-DC12	B-DC13	B-DC14	B-DC15	B-DC16	B-Ph1	B-Ph2	B-Ph3	B-Ph4	B-Ph5	B-Ph6	B-Ph7	B-Ph8	B-Ph9	B-Ph10	B-Ph11	B-Ph12	B-Ph13	B-Ph14	B-Ph15	B-Ph16	aux-1	digaux	

3582.528	1	1	0	256	0.24449	0.15295	0.17263	0.47885	0.028402	0.25583	0.22141	0.3156	0.24188	0.20259	0.16807	0.14164	0.152	0.17352	0.27046	0.02584	-2.2042	-2.8542	-2.6146	-3.0062	-2.7854	-2.6437	-2.9562	-2.7562	-2.6521	-2.8417	-2.5062	-2.8771	-2.7625	-2.7583	-2.8583	-2.9854	414.831	115.407	106.596	368.674	167.021	392.051	369.263	300.158	183.412	93.308	268.560	90.540	75.715	342.185	137.020	377.870	0.00051673	0.00087593	0.00022969	546.52	1.7145e-05	2.0744e-05	748.09	214.09	3.0079e-05	1.6069e-05	308.95	131.66	94.457	50.681	3.5578e-05	71.49	0.0048082	0.0044626	0.0011828	1110.3	5.3479e-05	4.8803e-05	1199.5	383.78	5.2511e-05	4.8317e-05	579.01	220.15	200.89	76.183	4.6867e-05	110.13	237.131	324.364	252.849	78.521	386.194	303.048	76.926	85.351	80.869	415.730	82.043	85.929	90.187	92.808	232.686	89.261	-8191	255	
3582.649	1	1	0	0	0.29873	0.087047	0.045203	0.3615	0.18867	0.082352	0.27024	0.16013	0.18723	0.12154	0.17936	0.33271	0.28526	0.033152	0.13083	0.11485	-2.0833	-3.0208	-2.65	-2.8438	-2.6042	-2.4521	-3.0792	-2.7167	-2.6667	-3.0625	-2.6292	-2.8042	-2.9104	-2.7958	-2.8625	-2.8458	195.868	137.352	141.474	346.089	316.458	76.891	321.428	413.987	279.025	333.428	228.745	395.273	99.238	342.277	164.552	397.721	0.00042601	0.0017634	0.00095589	548.4	2.593e-05	2.0363e-05	756.06	212.06	4.566e-05	1.2189e-05	312.37	129.68	93.916	50.784	5.5178e-05	70.741	0.004538	0.0042906	0.0011968	1121.4	5.0119e-05	4.6862e-05	1212.3	386.61	5.0018e-05	4.7177e-05	594.99	221.59	196.62	75.69	5.0382e-05	111.02	229.232	236.101	181.257	78.174	401.546	336.600	76.988	84.919	419.882	348.310	81.698	86.071	89.822	92.602	197.867	89.145	-8191	255	
3582.720	1	1	0	0	0.036647	0.042801	0.061196	0.080819	0.33978	0.24435	0.20246	0.054939	0.1528	0.27798	0.17287	0.083837	0.10781	0.017695	0.1	0.16927	-2.2354	-2.825	-2.2917	-2.7042	-2.7687	-2.4813	-2.9062	-2.8458	-2.5646	-2.9479	-2.6813	-2.9021	-2.8458	-2.6	-2.8417	-2.8729	426.568	423.665	78.492	356.437	124.889	328.821	424.011	363.230	321.947	324.773	135.301	404.818	148.945	133.581	326.215	395.369	0.00041873	0.0011372	0.0011499	540.72	1.8846e-05	3.6395e-06	746.81	212.2	1.9954e-05	1.0511e-05	308.39	128.52	93.578	50.913	3.5327e-05	70.529	0.0044328	0.0042591	0.0012934	1122.8	4.899e-05	4.6192e-05	1250.8	382.76	4.8462e-05	4.6441e-05	616.46	218.11	193.89	75.412	5.3765e-05	109.84	226.114	363.143	183.142	78.539	385.327	343.234	77.287	85.034	271.433	72.599	81.973	86.002	89.514	92.988	196.701	88.644	-8191	255	
3582.816	1	1	0	0	0.13877	0.30142	0.20601	0.2133	0.16293	0.087949	0.1004	0.094385	0.27105	0.11433	0.30932	0.041348	0.25706	0.14545	0.13378	0.46466	-2.2417	-2.8771	-2.5542	-2.8438	-2.95	-2.6021	-2.9021	-2.9125	-2.3667	-3.0604	-2.6646	-2.6583	-2.9938	-2.5438	-2.8417	-3.0229	295.542	352.650	133.109	232.300	311.592	324.144	127.678	411.057	270.232	422.672	410.767	236.742	386.088	411.437	73.988	352.785	0.00053766	0.0016024	0.0012516	541.06	1.8439e-05	2.2772e-05	748.47	210.64	1.3326e-05	2.1322e-05	309.48	128.26	93.358	51.244	1.9476e-05	69.842	0.0044291	0.004384	0.0014352	1137.1	5.1561e-05	5.0762e-05	1341.9	395.38	5.3188e-05	5.3008e-05	681.08	227.87	206.31	80.771	6.3964e-05	114.24	255.468	101.115	186.280	78.489	347.397	137.391	76.924	84.513	142.634	259.287	81.765	85.851	89.548	92.678	196.011	89.009	-8191	255	
3582.935	1	1	0	0	0.21813	0.10884	0.1929	0.31386	0.14274	0.22045	0.062619	0.21815	0.1794	0.19732	0.098266	0.23016	0.31401	0.24609	0.038579	0.21788	-2.175	-2.8521	-2.6792	-2.5438	-2.9021	-2.6542	-2.8729	-2.8104	-2.6854	-3.0042	-2.7708	-2.65	-2.7896	-2.9208	-2.7562	-3.0812	123.543	232.493	128.868	369.478	424.180	142.785	319.580	382.322	270.829	345.466	353.887	319.647	421.322	386.825	323.273	338.468	8.8697e-05	0.0037938	0.00079114	542.9	2.5391e-05	5.9589e-05	748.79	209.34	1.5149e-05	5.5912e-05	303.27	128.23	93.928	51.134	2.8872e-05	70.184	0.0048878	0.0051613	0.0016547	1173.9	5.4818e-05	5.7424e-05	1397.6	395.8	5.3815e-05	5.7643e-05	687.31	222.66	202.13	82.353	6.2025e-05	110.79	114.671	108.475	310.413	78.292	416.580	194.861	76.342	84.524	91.390	217.335	81.611	85.733	89.962	93.078	402.581	89.326	-8191	255	
3583.032	1	1	0	0	0.057401	0.14938	0.11591	0.22873	0.12552	0.11062	0.12678	0.075734	0.053302	0.18465	0.28723	0.24182	0.15877	0.16755	0.17251	0.17632	-2.0563	-3.0062	-2.8229	-2.5583	-3.0125	-2.7375	-2.6979	-2.7396	-2.5563	-2.9021	-2.8854	-2.6854	-3.0333	-2.8854	-2.7375	-3.0708	372.961	260.663	109.753	336.815	261.225	388.523	115.404	315.831	282.014	236.249	324.453	397.075	83.056	410.676	95.098	183.238	0.00044077	0.0059564	0.00040822	542.19	2.263e-05	5.4775e-05	740.89	210.04	6.6466e-06	3.5678e-05	300.5	127.51	93.235	51.032	1.1671e-05	69.673	0.0046376	0.0052886	0.0015466	1120	5.0889e-05	5.7946e-05	1334.7	378.5	5.0296e-05	5.8112e-05	651.25	214.78	196.22	82.863	5.7652e-05	107.71	261.185	132.554	294.735	78.387	245.883	172.297	76.723	84.563	195.588	231.098	81.302	86.211	89.968	93.226	401.944	89.044	-8191	255	
3583.128	1	1	0	0	0.20245	0.092012	0.10156	0.26591	0.12897	0.054206	0.11543	0.049321	0.17008	0.099253	0.12324	0.11742	0.21158	0.30634	0.073796	0.26505	-1.9625	-2.8104	-2.8542	-2.6437	-3.0396	-2.7042	-2.7833	-2.9458	-2.6063	-2.8792	-2.7479	-2.5396	-3.0208	-2.8563	-2.5875	-2.9854	373.169	425.441	102.296	397.358	84.715	264.232	390.309	178.055	233.088	369.373	412.921	135.921	404.435	389.229	383.778	320.241	0.00078392	0.0025062	0.0010693	541.5	2.6982e-05	3.2367e-05	744.81	210.55	4.2088e-05	2.0973e-05	300.77	126.99	95.12	50.392	1.6747e-05	69.842	0.0045702	0.0054357	0.001456	1098.6	5.1308e-05	5.9973e-05	1302.6	372.31	5.1155e-05	5.9291e-05	626.73	209.85	198.1	82.518	5.3249e-05	104.91	242.586	95.773	341.916	78.065	220.286	193.349	76.839	84.718	257.154	252.384	81.656	86.156	90.031	93.128	388.097	89.162	-8191	255	
3583.224	1	1	0	0	0.13505	0.11675	0.019544	0.17007	0.22156	0.13426	0.11202	0.1802	0.099184	0.23853	0.25874	0.072947	0.49381	0.36803	0.068035	0.10591	-2.0917	-2.6917	-2.7854	-2.4875	-2.7958	-2.9625	-2.7667	-3.1917	-2.7604	-2.7542	-2.8333	-2.5896	-3.0271	-2.9875	-2.5042	-2.9604	211.189	259.937	255.152	285.391	364.862	392.285	243.458	121.556	370.827	245.435	371.409	82.621	377.818	417.967	347.658	388.269	0.0015763	0.0013503	0.00073965	545.09	5.4303e-05	1.5308e-05	742.21	209.09	5.2897e-05	2.8977e-05	299.42	127.74	94.211	49.952	3.1642e-05	69.86	0.0046058	0.0052845	0.0013336	1056.6	5.1909e-05	5.7585e-05	1249.9	361.11	5.2765e-05	5.7094e-05	604.1	205.3	202.67	80.572	4.9991e-05	102.58	211.382	255.924	317.542	78.522	239.438	67.137	76.861	85.092	254.875	67.590	81.412	85.843	89.918	93.175	407.262	89.385	-8191	255	
3583.320	1	1	0	0	0.15741	0.18865	0.0081997	0.17612	0.032888	0.17215	0.067084	0.019288	0.21818	0.084033	0.037212	0.2067	0.28944	0.25503	0.063553	0.26622	-2.3563	-2.5021	-2.8875	-2.475	-2.7667	-2.9125	-2.7083	-3.0125	-2.6021	-2.6229	-2.9042	-2.5833	-2.5938	-2.8271	-2.5542	-3.0833	101.263	362.025	397.032	79.715	74.175	411.502	328.833	366.894	393.356	274.870	318.665	406.186	67.321	415.852	96.252	385.176	0.001027	0.0042903	0.00035889	543.04	3.3164e-05	3.2026e-05	739.13	209.41	1.8909e-05	2.2885e-05	299.65	127.32	93.424	49.642	1.4733e-05	69.544	0.0047391	0.0049061	0.0012291	1018	5.1927e-05	5.2127e-05	1199.4	349.9	5.2215e-05	5.1116e-05	572.02	198.55	198.11	76.115	4.5084e-05	99.786	243.104	280.653	363.558	78.742	249.615	358.281	76.976	85.217	253.279	362.667	81.656	86.187	89.690	93.156	410.843	89.576	-8191	255	
3583.416	1	1	0	0	0.10094	0.18391	0.24932	0.096507	0.14633	0.065483	0.1396	0.16637	0.36131	0.22547	0.19365	0.16105	0.17315	0.092508	0.2677	0.23201	-2.1167	-2.7646	-2.8063	-2.4708	-2.8646	-2.8979	-2.6063	-3.0812	-2.5187	-2.5833	-3.1	-2.4688	-2.7542	-3.0208	-2.4146	-2.9167	308.618	352.838	260.756	156.341	200.230	271.706	294.576	130.798	277.924	253.904	420.192	304.293	108.183	98.397	240.688	392.536	0.0010741	0.0036475	0.00035923	552.12	1.9963e-05	3.7098e-05	743.08	210.95	4.6603e-06	2.4978e-05	300.31	127.61	92.278	49.586	1.7711e-05	68.996	0.0045719	0.0043666	0.0011215	1000.8	5.044e-05	4.6588e-05	1151	344.65	4.9576e-05	4.51e-05	543.51	196.53	192.31	72.882	4.1503e-05	99.741	251.745	289.153	362.115	78.409	240.182	341.149	77.035	85.254	263.209	71.668	81.495	86.319	90.013	93.576	379.029	89.825	-8191	255	
3583.512	1	1	0	0	0.21125	0.035883	0.054063	0.19583	0.27162	0.070936	0.064074	0.20455	0.39304	0.11118	0.21025	0.25541	0.32406	0.24578	0.1031	0.22041	-2.2771	-2.5854	-3.0812	-2.6479	-2.8146	-2.9604	-2.6146	-3.0479	-2.9271	-2.5771	-2.9437	-2.6792	-2.6146	-2.9854	-2.3979	-2.8438	419.634	364.119	267.636	377.153	135.346	252.906	334.910	328.389	427.360	127.631	78.579	423.140	426.018	183.737	281.115	309.858	0.00037362	0.001052	0.00013717	551.02	1.1225e-05	7.6814e-06	739.48	213.36	1.328e-05	8.3173e-06	302.42	128.13	91.652	49.8	1.6048e-05	69.695	0.0043788	0.0040184	0.0010522	1016.2	4.8373e-05	4.3891e-05	1131.9	352.73	4.7856e-05	4.3091e-05	536.26	201.72	188.27	71.96	4.1013e-05	102.24	255.266	324.417	331.186	78.896	355.381	91.107	76.921	85.667	412.348	198.963	81.983	86.730	90.042	93.772	239.923	89.824	-8191	255	
3583.608	1	1	0	0	0.33938	0.30342	0.15243	0.15717	0.13713	0.092007	0.20041	0.17715	0.22696	0.15712	0.19605	0.13595	0.021109	0.34166	0.27163	0.31649	-2.4042	-2.4875	-2.9479	-2.7771	-2.5917	-2.9229	-2.5979	-2.9792	-2.8333	-2.6	-3.0771	-2.725	-2.6542	-3.1208	-2.5854	-3.0563	283.715	72.581	266.290	394.152	412.899	211.401	378.292	314.044	322.931	109.281	383.401	137.787	399.869	382.123	302.147	371.797	0.00020484	0.0017909	0.00046386	548.71	3.5134e-05	3.0107e-05	743.71	212.04	1.3414e-05	1.9966e-05	303.12	127.67	91.801	49.786	1.8064e-05	69.61	0.004208	0.0039138	0.0010522	1048.9	4.6556e-05	4.3024e-05	1138.2	360.71	4.5897e-05	4.2202e-05	541.81	205.99	183.74	71.437	4.2387e-05	104.16	203.949	255.111	121.455	78.543	378.202	339.418	76.869	85.531	69.662	384.170	81.899	86.573	89.770	93.403	232.559	89.697	-8191	255	
3583.727	1	1	0	0	0.28231	0.1193	0.16038	0.09114	0.062659	0.093539	0.18593	0.18018	0.13454	0.065344	0.13053	0.28233	0.082255	0.14879	0.079018	0.027239	-2.4333	-2.3021	-2.9062	-2.7604	-2.5667	-3	-2.6625	-2.9938	-2.9062	-2.6813	-2.8625	-2.8625	-2.5521	-3.0396	-2.7625	-2.8479	417.583	150.510	307.794	277.515	125.996	362.586	408.351	377.432	102.327	395.491	244.702	322.664	370.953	288.520	395.121	292.702	0.00047329	0.00068425	0.00092753	542.17	3.766e-05	4.5925e-06	746.01	209.62	2.043e-05	1.8247e-05	305.13	126.54	91.443	49.72	4.2243e-05	69.292	0.0040303	0.0038469	0.001103	1063.7	4.4678e-05	4.2271e-05	1168.2	364.83	4.4518e-05	4.1817e-05	561.33	207.06	181.12	70.916	4.5544e-05	103.8	272.968	336.619	182.108	78.696	401.942	121.108	77.466	85.191	406.804	390.672	82.052	86.126	89.799	93.608	201.581	89.406	-8191	255	
3583.823	1	1	0	0	0.19887	0.065668	0.15411	0.28119	0.18093	0.10733	0.18031	0.044967	0.088083	0.084017	0.23786	0.14346	0.12119	0.29443	0.080202	0.099026	-2.4688	-2.5771	-2.7125	-2.775	-2.6833	-3.1188	-2.6021	-2.7729	-2.7729	-2.55	-2.9667	-2.9521	-2.6521	-3.1646	-2.5312	-2.7188	278.785	405.160	254.475	409.300	424.992	164.864	397.050	94.390	133.792	420.627	330.054	395.648	348.121	371.652	166.826	104.338	0.00058356	0.0010578	0.0011166	540.42	1.0592e-05	1.7128e-05	749.43	207.27	1.5678e-05	3.1785e-06	303.03	125.39	90.797	49.533	1.6322e-05	68.719	0.0039267	0.0037807	0.0011812	1054.9	4.38e-05	4.1762e-05	1206.3	359.68	4.385e-05	4.2101e-05	582.58	203.63	178.84	70.88	4.8422e-05	101.66	193.576	244.545	157.672	78.388	385.456	238.832	76.807	85.085	76.112	164.886	81.656	86.093	90.315	93.695	240.261	89.560	-8191	255	
3583.920	1	1	0	0	0.10108	0.070273	0.10402	0.2507	0.031846	0.224	0.25905	0.36289	0.24277	0.057553	0.21495	0.29824	0.15327	0.32244	0.25976	0.13988	-2.4604	-2.6229	-2.8187	-2.8375	-2.6688	-3.0625	-2.6937	-2.7333	-3.0646	-2.5604	-2.7562	-3.0604	-2.5792	-3.0479	-2.8083	-2.7271	417.169	72.340	186.009	416.441	382.982	93.668	301.924	384.377	301.111	386.002	410.465	388.702	84.016	371.089	378.113	110.812	0.0003704	0.00090235	0.00091768	539.41	1.1063e-05	9.4998e-06	747.79	207.81	1.3049e-05	2.4487e-05	300.84	125.64	91.066	49.888	6.6436e-06	68.698	0.0038372	0.0038072	0.0012389	1027.8	4.2408e-05	4.2465e-05	1224.9	351.59	4.2654e-05	4.3159e-05	594.79	200.18	177.36	72.412	5.0196e-05	100.49	224.296	132.709	217.361	78.213	103.748	131.002	76.704	84.845	321.457	184.955	82.275	86.267	89.638	93.709	318.980	89.277	-8191	255	
3584.016	1	1	0	0	0.23638	0.052124	0.10086	0.14918	0.13087	0.089501	0.15792	0.25222	0.20379	0.15572	0.15241	0.19258	0.29171	0.18058	0.20243	0.2201	-2.5333	-2.6333	-2.7583	-2.9417	-2.3771	-2.825	-2.9271	-2.7729	-2.9792	-2.5812	-2.7417	-3.0354	-2.6354	-2.8792	-2.6104	-2.6708	140.937	424.777	314.195	146.962	394.972	95.453	367.878	72.188	349.811	393.285	72.615	412.155	426.655	385.066	372.580	388.088	0.00045266	0.0050325	8.5194e-05	543.82	1.0018e-05	3.8248e-05	741.82	208.43	1.9448e-05	3.0997e-05	298.08	126.68	91.618	49.639	1.4316e-05	69.245	0.0037992	0.0040659	0.0012687	1012.2	4.1617e-05	4.5009e-05	1227	344.67	4.1393e-05	4.5603e-05	587.1	195.84	173.78	73.732	4.8505e-05	98.961	241.579	109.503	406.451	78.715	352.930	192.497	76.609	85.115	350.570	210.091	81.621	86.452	90.028	93.575	413.734	89.704	-8191	255	
3584.112	1	1	0	0	0.042245	0.10723	0.28321	0.038968	0.24401	0.21693	0.15672	0.1026	0.13195	0.12842	0.25175	0.25506	0.11576	0.19148	0.084763	0.17847	-2.3792	-2.5479	-2.6854	-2.7479	-2.4188	-2.7562	-2.9562	-2.7208	-2.9188	-2.6271	-2.6604	-3.0583	-2.5521	-2.9646	-2.9583	-2.7708	313.914	144.168	82.270	112.968	379.382	139.471	115.545	406.399	377.926	259.542	152.460	82.288	376.734	103.419	178.787	356.022	0.00061272	0.0039266	9.1932e-05	541.92	1.9364e-05	3.6102e-05	742.98	206.44	2.6955e-05	3.2055e-05	301.09	123.86	91.918	49.941	2.4428e-05	68.789	0.0036937	0.0043176	0.001228	992.23	4.1403e-05	4.7903e-05	1206.1	340.35	4.1345e-05	4.8272e-05	572.41	193.25	174.7	75.29	4.6355e-05	97.989	244.300	91.510	301.038	78.571	202.399	206.314	76.600	85.313	246.962	233.817	81.440	86.196	90.310	93.571	396.879	89.484	-8191	255	
3584.208	1	1	0	0	0.22578	0.037535	0.25554	0.17898	0.10973	0.065419	0.13407	0.12124	0.20725	0.19595	0.1391	0.15916	0.23294	0.23786	0.21178	0.3045	-2.5792	-2.6958	-2.7188	-2.9313	-2.5583	-2.8396	-2.9	-2.5083	-3.05	-2.5917	-2.6604	-2.9958	-2.6521	-2.8292	-2.9271	-2.6813	122.006	308.776	107.555	380.794	254.114	361.203	397.106	357.760	294.780	258.337	369.580	395.053	112.442	97.443	365.617	296.927	0.0013883	0.0032542	0.00042101	538.04	2.563e-05	2.4491e-05	738.37	207.17	4.8605e-05	1.2368e-05	296.55	124.71	92.556	49.315	5.0565e-06	68.462	0.0037635	0.0044852	0.0011677	977.11	4.2561e-05	4.9247e-05	1176.9	335.64	4.2688e-05	4.893e-05	555.44	190.22	178.54	75.073	4.3453e-05	96.121	236.045	86.169	347.162	78.443	232.959	186.949	76.646	85.162	281.214	365.043	82.090	86.109	89.733	93.622	193.940	89.582	-8191	255	
3584.329	1	1	0	0	0.18549	0.17418	0.24184	0.16776	0.13955	0.019299	0.14372	0.19571	0.13434	0.27107	0.24982	0.25593	0.12141	0.17733	0.19498	0.12034	-2.5208	-2.6021	-2.4417	-2.9417	-2.4521	-2.6937	-2.7708	-2.4625	-2.7854	-2.625	-2.3208	-2.9125	-2.6604	-2.9292	-2.8021	-2.5167	280.450	118.885	419.924	368.695	69.297	288.259	396.352	345.041	369.664	315.320	78.447	359.798	316.028	321.193	204.046	407.942	0.0014902	0.0019035	0.00044258	543.65	3.5909e-05	2.8317e-05	741.25	207.55	5.3633e-05	2.0055e-05	298.95	125.85	92.65	49.278	2.0977e-05	68.904	0.0039099	0.0043982	0.0011064	960.99	4.4834e-05	4.8409e-05	1158.4	333.09	4.5623e-05	4.8213e-05	548.86	189.79	185.93	74.52	4.2854e-05	96.333	237.566	272.921	274.812	78.489	221.842	322.138	76.618	85.286	282.116	330.244	81.607	86.588	89.689	93.549	92.864	89.909	-8191	255	
3584.425	1	1	0	0	0.15642	0.19707	0.2438	0.31187	0.038647	0.11522	0.28688	0.30438	0.2146	0.083994	0.13338	0.083721	0.10637	0.32194	0.10567	0.17685	-2.625	-2.8417	-2.5521	-2.9729	-2.5812	-2.6688	-2.9	-2.7	-2.825	-2.9604	-2.5667	-2.9271	-2.7208	-2.8063	-2.9458	-2.6625	298.863	186.666	144.621	359.226	305.409	127.186	365.774	297.900	344.374	173.094	105.970	327.384	311.968	407.781	209.009	350.173	0.0013484	0.0032319	4.4803e-05	539.48	3.2187e-05	2.9456e-05	738.42	208.12	2.4907e-05	3.5207e-05	299.1	126.8	92.132	49.473	2.2999e-05	68.974	0.0041863	0.0042717	0.0010854	962.59	4.7563e-05	4.6558e-05	1149.9	335	4.8342e-05	4.6568e-05	543.37	192.26	191.36	73.464	4.218e-05	97.96	230.010	270.326	228.033	78.676	222.568	349.133	76.786	85.485	271.905	109.823	81.331	86.176	90.118	93.493	380.632	89.993	-8191	255	
3584.521	1	1	0	0	0.22482	0.10338	0.11805	0.11598	0.30008	0.084832	0.51097	0.10318	0.085442	0.094483	0.21253	0.21955	0.10476	0.22165	0.12751	0.21028	-2.4896	-2.7854	-2.5208	-3.0271	-2.6813	-2.6042	-3.0812	-2.6688	-2.9042	-2.725	-2.35	-2.9667	-2.8375	-2.7208	-3.0438	-2.775	427.377	357.282	98.337	317.587	114.183	332.767	386.695	309.879	326.712	129.666	373.123	389.305	170.981	401.981	87.669	369.672	0.00076529	0.0027227	0.00022686	544.14	4.1735e-06	3.9264e-05	744.39	208.49	1.3812e-05	1.984e-05	300.74	127.37	90.809	48.931	9.4933e-06	69.703	0.0043724	0.004129	0.0010652	988.31	4.8881e-05	4.4603e-05	1140.3	343.76	4.8808e-05	4.44e-05	536.91	197.37	191.41	72.402	4.1713e-05	101.13	252.334	285.116	341.824	78.870	82.337	366.945	76.971	85.447	104.886	383.199	81.702	86.443	90.676	93.310	87.597	89.916	-8191	255	
3584.617	1	1	0	0	0.10818	0.14249	0.32751	0.11954	0.18848	0.080652	0.13004	0.22012	0.23729	0.051841	0.37007	0.18858	0.018857	0.17019	0.087132	0.22403	-2.3958	-2.8625	-2.3875	-2.8042	-2.7792	-2.5312	-3.3167	-2.7333	-2.5542	-3.0167	-2.5187	-2.8187	-2.9	-2.6583	-2.8937	-2.8	77.397	214.134	278.303	191.632	410.048	345.375	137.003	344.555	202.931	248.902	385.032	193.408	75.802	395.055	91.596	362.951	0.00068501	0.0012131	0.00041923	547.63	2.2992e-05	5.9432e-06	741.27	209	1.3722e-05	2.3649e-05	300.23	127.39	90.3	49.177	2.3911e-05	68.868	0.0043708	0.0040535	0.0010602	1030.5	4.8611e-05	4.3939e-05	1133.3	354.78	4.7714e-05	4.3536e-05	534.6	202.74	187.05	71.511	4.1192e-05	102.57	236.352	263.208	290.542	78.959	393.426	307.139	76.662	85.030	403.282	364.231	81.645	86.464	89.574	93.765	230.757	89.696	-8191	255	
3584.713	1	1	0	0	0.062745	0.041797	0.10818	0.22997	0.11557	0.07015	0.29998	0.064679	0.071237	0.099811	0.18806	0.10641	0.41662	0.16733	0.19586	0.14752	-2.1	-2.8479	-2.4083	-2.8271	-2.7833	-2.5646	-2.9271	-2.7062	-2.7521	-2.8958	-2.6354	-2.8896	-2.6958	-2.6042	-2.8854	-2.925	179.732	275.843	272.599	146.934	173.171	162.743	308.740	387.781	240.780	416.188	148.549	295.178	422.503	108.184	123.357	384.920	0.00035101	0.00037738	0.00030868	543.31	3.7768e-05	1.61e-05	743.55	208.44	1.9139e-05	1.2712e-05	302.5	124.82	89.027	49.274	3.7086e-05	69.735	0.0041476	0.0039058	0.0010611	1050.6	4.6323e-05	4.2829e-05	1146.9	363	4.5947e-05	4.3095e-05	549.48	206.88	183.96	71.457	4.4027e-05	104.79	284.436	307.353	202.988	78.764	396.437	371.322	77.193	85.378	69.938	127.151	81.389	86.216	89.712	93.374	246.207	89.624	-8191	255	
3584.809	1	1	0	0	0.25661	0.22369	0.17823	0.13389	0.43699	0.18	0.21495	0.02371	0.036126	0.1855	0.12805	0.16393	0.062111	0.24387	0.06942	0.081101	-2.2125	-2.8	-2.5125	-2.8271	-2.7687	-2.6021	-2.9354	-2.725	-2.6458	-3.05	-2.4917	-2.8854	-3.0062	-2.5021	-3.0354	-2.7375	325.694	312.416	268.487	135.271	401.411	347.908	311.209	212.814	172.106	82.590	121.949	306.384	363.847	375.918	192.695	237.224	0.0002517	0.0018935	0.0011922	537.9	2.6989e-06	7.7323e-06	750.1	208.42	8.7151e-06	9.9825e-06	302.6	126.12	90.91	49.428	4.6738e-05	69.106	0.0040301	0.0038693	0.0011341	1061.8	4.4579e-05	4.193e-05	1175.6	361.43	4.3369e-05	4.0925e-05	557.75	201.81	175.7	69.594	4.4234e-05	101.28	186.969	401.545	189.103	78.446	396.079	290.653	76.794	85.164	377.817	112.430	82.579	86.679	89.903	93.895	212.304	89.209	-8191	255	
3584.906	1	1	0	0	0.10501	0.10084	0.07722	0.26257	0.029733	0.35522	0.17955	0.34216	0.10968	0.15547	0.25238	0.24452	0.15466	0.11257	0.15127	0.14764	-2.1833	-2.9417	-2.5521	-2.6875	-2.7812	-2.5542	-3.0104	-2.9021	-2.4333	-2.9125	-2.6521	-2.7229	-2.9021	-2.7125	-2.7854	-2.7875	207.930	89.791	171.545	114.136	321.755	393.047	376.622	394.325	115.153	286.016	76.971	395.034	79.601	110.545	132.895	347.491	0.00052106	0.00081341	0.0011222	536.55	1.1643e-05	9.2306e-06	746.65	208.72	2.1977e-05	1.0421e-05	305.85	126.09	91.451	49.777	1.8804e-05	69.548	0.0037158	0.0035993	0.0011438	1014	4.1158e-05	3.936e-05	1181.2	348.06	4.0522e-05	3.9553e-05	568.61	197.33	172.98	69.846	4.6542e-05	100.45	205.111	197.187	183.602	77.978	81.381	155.618	77.138	85.086	73.552	261.817	82.066	85.864	90.073	93.619	211.807	89.446	-8191	255	
3585.024	1	1	0	0	0.25727	0.3198	0.1884	0.092598	0.16428	0.068554	0.29757	0.17276	0.2471	0.14545	0.23038	0.16427	0.057631	0.12558	0.14162	0.16065	-2.05	-2.7438	-2.6333	-2.6417	-2.9042	-2.4188	-2.8875	-2.9854	-2.7062	-3.0021	-2.7208	-2.6063	-2.9271	-2.5667	-2.8458	-2.7896	212.558	340.869	91.327	359.577	149.727	374.596	275.279	413.365	313.377	169.207	388.844	361.739	397.845	300.398	89.203	284.796	0.00046821	0.0038221	0.00027452	535.61	1.1085e-05	4.8032e-05	748.58	207.41	5.6007e-06	6.1296e-05	301.04	125.5	90.997	49.863	7.8693e-06	69.607	0.0036781	0.0037789	0.0012308	1011.6	4.2126e-05	4.2901e-05	1228.7	349.86	4.2263e-05	4.4337e-05	597.95	199.44	177.75	73.771	5.1274e-05	101.82	201.886	117.841	163.794	78.329	71.576	193.163	76.752	85.408	389.991	215.525	82.077	86.335	90.252	93.511	361.674	89.567	-8191	255	
3585.121	1	1	0	0	0.22377	0.057538	0.33414	0.21017	0.29188	0.0993	0.1711	0.16173	0.16653	0.041809	0.19471	0.1216	0.038762	0.21151	0.10056	0.23338	-2.0458	-2.7625	-2.5042	-2.7333	-2.8646	-2.6875	-2.7646	-2.8104	-2.475	-2.8458	-2.6188	-2.5021	-3.1667	-2.4542	-2.6604	-3.0917	83.831	339.594	292.281	408.392	222.793	378.805	288.893	375.778	244.948	426.139	404.387	355.298	192.253	67.935	126.392	411.134	0.00061832	0.0033444	0.00027729	535.6	1.2263e-05	5.8578e-05	744	207.3	1.5039e-05	5.7179e-05	297.77	125.3	91.24	50.064	2.2915e-05	69.289	0.0038897	0.0043159	0.001314	1021.4	4.3789e-05	4.9053e-05	1255.2	354.02	4.4237e-05	5.0369e-05	609.13	201.96	182	77.379	5.1632e-05	102.5	258.582	134.438	423.790	78.491	207.373	168.756	76.680	85.155	395.208	231.429	81.555	86.018	89.668	93.439	417.652	89.238	-8191	255	
3585.192	1	1	0	0	0.24497	0.28705	0.17162	0.075266	0.14898	0.089544	0.23393	0.14366	0.1668	0.25774	0.069542	0.14342	0.07981	0.20111	0.11295	0.32744	-2.1271	-2.8563	-2.5396	-2.6271	-2.8542	-2.5	-2.7333	-2.9375	-2.4333	-2.6104	-3.0271	-2.6729	-2.875	-2.7021	-2.5854	-3.0208	213.581	124.652	210.625	401.567	422.241	99.133	422.125	89.288	302.887	143.882	254.754	243.449	239.327	375.019	152.846	368.402	0.00086053	0.0034786	0.00071075	537.55	1.0419e-05	3.6965e-05	740.03	207.58	2.1067e-05	4.243e-05	297.1	125.5	92.294	50.32	1.9543e-05	69.319	0.0040109	0.004743	0.0013068	1024.5	4.4601e-05	5.1884e-05	1231.5	349.82	4.4474e-05	5.2001e-05	589.99	198.32	182.47	78.086	4.8316e-05	100.66	247.464	108.070	389.739	78.411	221.416	189.042	76.754	84.735	292.793	181.084	81.212	86.421	90.392	92.992	365.958	89.290	-8191	255	
3585.288	1	1	0	0	0.11519	0.10676	0.05172	0.29598	0.09986	0.0089875	0.065882	0.18621	0.19632	0.12266	0.1197	0.35056	0.12238	0.17499	0.17537	0.25911	-2.1896	-2.7125	-2.925	-2.5625	-2.925	-2.7313	-2.5708	-3.1625	-2.6208	-2.8604	-2.6854	-2.5417	-2.9313	-2.7188	-2.6854	-3.0812	250.978	255.529	170.896	270.314	201.643	243.889	415.966	342.881	292.450	293.696	411.923	390.840	321.970	347.432	277.225	365.872	0.0013141	0.0024777	0.00058232	535.85	1.5943e-05	4.7903e-06	743.65	206.56	5.9012e-05	8.3866e-06	296.82	126.21	92.075	49.721	1.3118e-05	69.445	0.004067	0.0047709	0.0012252	1000.7	4.5968e-05	5.245e-05	1201.6	343.42	4.6422e-05	5.1727e-05	571.25	195.29	186.47	77.15	4.5868e-05	99.265	230.096	176.297	368.895	78.636	229.641	362.924	76.718	84.873	256.849	349.096	81.664	86.247	90.069	93.287	75.240	89.312	-8191	255	
3585.409	1	1	0	0	0.14045	0.13866	0.22872	0.17271	0.30441	0.16921	0.21905	0.12601	0.20783	0.09909	0.14807	0.17279	0.22909	0.28117	0.25047	0.3258	-2.1333	-2.7458	-2.9625	-2.6063	-2.8	-2.7062	-2.6854	-3.2812	-2.6771	-2.7396	-2.9	-2.5583	-2.9146	-2.7646	-2.4625	-2.9854	255.378	204.143	261.116	246.007	142.708	206.209	399.554	411.014	292.242	91.138	83.998	411.112	367.580	128.797	80.078	366.142	0.0016432	0.0016513	0.00081868	535.42	5.2709e-05	1.8714e-05	737.73	207.18	5.0951e-05	2.5663e-05	301.29	127.15	93.892	49.494	1.5281e-05	69.751	0.0042837	0.0046823	0.0011789	991.66	4.9237e-05	5.1453e-05	1189.8	343.99	5.0581e-05	5.1379e-05	573.67	198.3	198.35	77.243	4.6638e-05	100.81	228.944	325.812	356.360	78.468	232.346	401.447	76.949	85.048	251.779	372.047	81.647	86.321	90.428	93.242	87.894	89.316	-8191	255	
3585.505	1	1	0	0	0.14288	0.093833	0.068856	0.096286	0.15325	0.27857	0.14221	0.10294	0.13185	0.18406	0.09037	0.31477	0.072017	0.12996	0.054204	0.18049	-2.3083	-2.6	-2.775	-2.4938	-2.8792	-2.7021	-2.6354	-2.9292	-2.4354	-2.6937	-2.9646	-2.475	-2.7229	-2.9562	-2.4396	-3.1312	365.171	341.622	161.490	82.038	359.654	390.235	321.045	381.351	341.598	342.708	93.067	67.700	169.992	417.643	107.086	121.463	0.0011486	0.0030454	0.00013228	541.94	1.0001e-05	3.5929e-05	740.29	208.36	3.9073e-05	2.4283e-05	300.13	127.87	93.422	49.685	5.1723e-06	70.332	0.0046844	0.0046134	0.0011814	1010.1	5.2374e-05	4.9733e-05	1183.1	350.18	5.2929e-05	4.9462e-05	568.33	202.53	203.21	76.24	4.6302e-05	103.34	229.753	280.886	228.244	78.581	229.158	373.561	76.608	85.256	244.182	423.421	81.751	86.113	89.778	93.124	133.734	89.665	-8191	255	
3585.601	1	1	0	0	0.080033	0.21198	0.17793	0.33509	0.10966	0.29837	0.11339	0.12008	0.070363	0.033861	0.10445	0.21034	0.15619	0.24297	0.25628	0.13613	-2.2854	-2.6208	-2.8479	-2.5167	-2.5604	-2.8896	-2.6396	-2.8917	-2.8688	-2.5875	-3.0625	-2.7562	-2.7771	-3.1083	-2.3271	-3.05	144.926	245.198	360.010	327.547	302.371	173.280	391.407	329.981	257.142	285.839	353.921	88.512	273.758	355.069	281.707	129.585	0.00040321	0.003144	0.00053217	544.39	1.6106e-05	1.8441e-05	740.93	209.58	2.4581e-05	6.7252e-06	300.31	127.82	90.713	49.62	1.669e-05	70.139	0.0048376	0.004482	0.0011678	1048.7	5.3447e-05	4.8414e-05	1172.9	360.33	5.2333e-05	4.7154e-05	557.9	206.5	197.96	74.387	4.4291e-05	105.09	203.752	271.322	308.841	78.910	138.339	380.809	76.541	85.365	188.837	404.609	81.579	86.156	89.975	93.280	129.889	89.784	-8191	255	
3585.697	1	1	0	0	0.032667	0.14821	0.31526	0.1786	0.23215	0.20957	0.29873	0.12855	0.11427	0.14807	0.23323	0.18291	0.2767	0.1214	0.16507	0.26824	-2.2708	-2.6229	-2.8375	-2.8167	-2.5458	-3.0542	-2.6979	-2.8479	-2.7729	-2.5646	-3.0187	-2.725	-2.6646	-3.0979	-2.7333	-3.0312	395.299	126.628	220.056	131.730	274.976	320.506	308.686	402.265	292.855	175.107	348.931	411.150	360.195	386.969	407.800	381.435	0.00022253	0.0011589	0.00021378	548.2	3.6491e-05	9.9515e-06	738.78	208.84	1.9642e-05	7.6095e-06	302.54	126.98	90.81	49.557	9.5381e-06	69.668	0.0046162	0.0042711	0.0011359	1076.4	5.1098e-05	4.6882e-05	1169.2	369.82	5.0492e-05	4.6157e-05	559.6	211.94	193.53	73.8	4.4917e-05	106.96	201.558	307.664	211.203	78.814	421.367	312.693	76.848	85.745	86.273	367.162	82.041	86.066	89.933	93.614	222.271	89.897	-8191	255	
3585.818	1	1	0	0	0.16987	0.26771	0.078609	0.12352	0.060522	0.036124	0.22635	0.063039	0.03452	0.27287	0.20567	0.13717	0.26486	0.11741	0.30938	0.2113	-2.3937	-2.3875	-2.9875	-2.8521	-2.8229	-3.0896	-2.6896	-2.9271	-2.775	-2.5854	-2.9396	-2.875	-2.75	-3.1375	-2.6604	-2.9083	417.489	174.049	285.789	137.193	236.270	320.333	355.076	99.592	420.954	396.719	372.319	71.833	72.918	94.221	136.490	357.451	0.00043043	0.0016173	0.00082349	544.37	1.353e-05	8.8123e-06	748.18	207.18	2.4027e-05	9.1067e-06	302.51	126.67	90.393	49.35	3.9296e-05	69.154	0.0044063	0.0041625	0.0011649	1100.7	4.8894e-05	4.5956e-05	1193.9	375.7	4.8604e-05	4.5385e-05	575.91	214.48	189.54	73.339	4.835e-05	107.8	164.623	269.939	205.467	78.463	403.810	295.764	77.421	85.281	93.989	282.048	81.739	86.144	89.270	93.228	197.556	89.367	-8191	255	
3585.890	1	1	0	0	0.11984	0.15151	0.080378	0.34141	0.21442	0.15837	0.15904	0.2521	0.26148	0.19629	0.04862	0.22977	0.26339	0.080192	0.20474	0.38285	-2.6208	-2.4125	-3.0062	-2.8229	-2.7125	-3.0875	-2.8583	-2.8771	-2.9042	-2.6479	-2.8854	-2.7146	-2.8292	-3.0979	-2.6375	-2.9229	312.890	80.654	418.766	342.318	114.441	213.136	328.646	343.676	218.587	337.260	358.098	250.335	408.505	395.156	198.404	353.609	0.00048434	0.0010013	0.0013793	539.77	1.4445e-05	1.4892e-05	749.02	205.64	9.859e-06	1.3508e-05	303.88	125.49	91.801	49.465	5.6149e-05	68.928	0.0042871	0.0041254	0.0012512	1101.6	4.7336e-05	4.502e-05	1233.3	372.55	4.7071e-05	4.4607e-05	596.42	210.97	185.49	72.492	5.0791e-05	105.42	286.625	76.930	196.133	78.538	71.684	352.425	77.377	84.570	324.831	393.584	81.806	86.044	89.737	93.526	211.269	89.745	-8191	255	
3586.009	1	1	0	0	0.16696	0.16653	0.19093	0.27813	0.05645	0.13922	0.068716	0.036083	0.22341	0.06864	0.10666	0.20374	0.17924	0.1127	0.44825	0.24967	-2.5458	-2.5083	-2.7021	-2.6354	-2.6688	-2.9667	-2.8604	-2.7208	-2.8979	-2.4542	-2.8625	-3.0771	-2.6042	-2.9417	-2.8438	-2.7687	349.114	302.101	319.473	207.216	194.251	319.900	212.104	402.813	339.625	226.344	417.368	400.908	116.487	205.483	244.300	385.008	0.00024387	0.0021462	0.00089925	535.05	2.5956e-06	1.5337e-05	746.09	206.79	1.0523e-05	2.8329e-05	301.82	124.36	90.802	49.378	2.3562e-05	68.29	0.0041167	0.0040384	0.0013019	1066.2	4.5346e-05	4.4329e-05	1248.4	360.42	4.4531e-05	4.3952e-05	598.11	202.43	177.91	71.883	5.0358e-05	100.88	260.151	423.488	196.611	78.566	241.552	177.981	77.155	85.036	308.120	218.064	81.997	85.929	90.057	93.611	224.287	89.774	-8191	255	
3586.105	1	1	0	0	0.20795	0.13792	0.12884	0.27518	0.22084	0.18447	0.16972	0.19707	0.12341	0.037712	0.069543	0.074039	0.18143	0.19818	0.047856	0.26199	-2.4375	-2.3042	-2.7938	-2.6937	-2.6042	-2.9188	-2.7583	-2.5458	-2.8333	-2.7083	-2.7042	-2.9813	-2.6271	-3.05	-2.725	-2.6396	113.399	421.743	212.904	377.999	376.355	134.739	323.902	174.347	311.182	172.085	195.303	290.660	85.449	395.313	187.117	161.230	0.00069047	0.0029276	9.3635e-05	533.84	1.1146e-05	4.6589e-05	740.95	207.08	1.5946e-05	4.4357e-05	300.81	124.88	91.121	49.188	2.6416e-05	68.571	0.0038206	0.0039907	0.0012666	1010.8	4.1886e-05	4.4155e-05	1230.2	345.83	4.2173e-05	4.5168e-05	592.3	197.72	175.65	73.589	4.9936e-05	99.943	248.280	97.086	72.919	78.347	319.088	223.182	76.805	85.292	110.641	220.294	81.788	86.059	89.706	93.621	403.912	89.948	-8191	255	
3586.201	1	1	0	0	0.15712	0.21619	0.12511	0.14624	0.13123	0.16943	0.29729	0.059958	0.20842	0.18617	0.29199	0.11804	0.26385	0.14537	0.04935	0.10599	-2.4771	-2.5062	-2.6937	-2.9437	-2.5979	-2.9958	-2.7229	-2.5708	-2.7479	-2.5687	-2.7625	-2.8479	-2.4396	-3.0271	-2.5771	-2.5604	410.734	415.578	284.836	130.193	259.391	368.168	387.223	77.831	200.886	299.569	104.668	341.399	78.993	221.584	291.785	305.572	0.00064981	0.0033652	0.0010498	535.29	1.6467e-05	4.2369e-05	740.83	206.58	1.004e-05	4.6529e-05	297.84	124.97	91.526	49.433	2.0699e-05	68.4	0.003771	0.0042728	0.0012441	993.99	4.0995e-05	4.6823e-05	1208.3	339.15	4.0895e-05	4.7235e-05	575.42	193.99	173.63	74.739	4.7501e-05	98.25	256.585	105.946	426.826	78.310	89.051	180.667	76.744	85.288	217.054	211.598	81.331	86.376	90.312	93.802	367.793	89.593	-8191	255	
3586.297	1	1	0	0	0.21423	0.3884	0.18597	0.25482	0.050007	0.051467	0.35313	0.025632	0.21048	0.006025	0.1587	0.4204	0.11231	0.1586	0.10239	0.28291	-2.6042	-2.6354	-2.6167	-2.8875	-2.4604	-2.8729	-2.8417	-2.6042	-2.9688	-2.6333	-2.8542	-3.0333	-2.7125	-2.8979	-3.0104	-2.5896	256.050	327.633	402.439	204.316	365.594	178.426	392.142	409.750	351.533	306.304	372.382	347.713	110.203	391.870	277.743	337.241	0.0010778	0.0028961	0.00059889	536.88	2.5244e-05	2.3444e-05	738.45	206.88	2.9386e-05	9.8202e-06	298.71	125.02	92.288	48.962	2.1448e-05	68.304	0.0037529	0.004462	0.0011908	981.96	4.184e-05	4.8594e-05	1181.5	334.8	4.1465e-05	4.8028e-05	553.68	189.16	173.53	74.065	4.3426e-05	95.516	230.742	101.396	357.169	78.066	266.775	169.506	76.766	85.216	250.953	280.326	81.769	85.815	90.360	93.655	369.279	89.645	-8191	255	
3586.418	1	1	0	0	0.30749	0.010075	0.075471	0.32341	0.10568	0.26832	0.17641	0.18619	0.20792	0.064113	0.035791	0.11565	0.32231	0.24213	0.14146	0.16993	-2.3333	-2.6729	-2.7188	-3.1167	-2.4521	-2.7125	-2.7875	-2.7375	-3.0187	-2.7667	-2.5979	-3.1583	-2.775	-2.8396	-2.7896	-2.525	79.391	313.866	272.012	360.008	331.653	99.246	392.507	188.562	212.691	246.488	304.881	376.584	360.874	423.206	155.071	76.751	0.0011993	0.00033625	0.00065528	540.31	3.789e-05	1.0931e-05	746.03	207.14	3.2965e-05	1.2045e-06	299.74	125.49	92.378	48.944	1.1391e-05	69.016	0.0037783	0.004365	0.0010972	956.06	4.3308e-05	4.7934e-05	1160.9	332.7	4.4537e-05	4.813e-05	545.98	188.92	182.4	74.187	4.296e-05	95.758	242.451	383.661	322.090	78.410	233.447	406.180	76.624	85.356	243.410	314.424	81.942	86.659	90.149	93.663	422.179	89.613	-8191	255	
3586.489	1	1	0	0	0.1485	0.30819	0.086546	0.11619	0.34215	0.049849	0.11773	0.29405	0.1165	0.072285	0.090064	0.26717	0.19637	0.13729	0.049737	0.21273	-2.3917	-2.7271	-2.3917	-2.9854	-2.6396	-2.9458	-3.0729	-2.7125	-2.7833	-2.8146	-2.5458	-3.1042	-2.7333	-2.8458	-2.9458	-2.5583	280.659	243.304	233.463	286.774	425.266	424.369	98.198	410.180	79.415	403.218	374.279	70.809	396.981	281.561	247.407	273.975	0.0011624	0.0026949	0.0002237	539.96	3.7062e-05	8.725e-06	745.73	207.89	5.0425e-05	3.6668e-05	298.44	126.5	92.661	48.821	2.0008e-05	69.115	0.0040733	0.0042693	0.001083	957.32	4.6355e-05	4.6529e-05	1148.9	331.88	4.701e-05	4.6647e-05	543.58	190.7	189.34	73.204	4.2303e-05	97.037	236.347	312.279	352.952	78.893	209.367	306.589	76.678	85.144	270.182	402.357	82.151	86.617	90.528	93.717	366.114	90.194	-8191	255	
3586.586	1	1	0	0	0.30961	0.13009	0.11485	0.17803	0.18456	0.14491	0.18161	0.12288	0.1293	0.043474	0.10413	0.15044	0.14175	0.44103	0.02917	0.21388	-2.2979	-2.7271	-2.5583	-2.9938	-2.7396	-2.6604	-2.9646	-2.4521	-2.6417	-2.8	-2.5979	-2.9771	-2.4917	-2.725	-2.8396	-2.5687	167.356	182.683	80.100	111.313	151.046	321.619	235.500	270.897	68.718	104.086	303.757	296.638	327.806	386.832	217.112	333.777	0.00085616	0.0031132	0.00056398	547.87	1.1274e-05	2.5309e-05	744.53	210.01	1.5122e-05	2.3617e-05	301.24	127.46	91.183	49.035	9.1531e-06	69.167	0.004296	0.0041316	0.0010621	971	4.7889e-05	4.4253e-05	1135.6	337.84	4.7894e-05	4.4058e-05	534.98	194.23	189.28	71.64	4.0933e-05	98.852	246.782	295.776	358.391	78.642	154.573	327.681	76.628	85.619	418.661	385.706	81.716	86.759	90.213	93.671	355.654	90.177	-8191	255	
3586.682	1	1	0	0	0.10266	0.096905	0.073021	0.23077	0.061889	0.076015	0.020929	0.07257	0.0659	0.30081	0.21502	0.031945	0.21854	0.16885	0.17926	0.21508	-2.4292	-2.6958	-2.3312	-2.8396	-2.7333	-2.7104	-2.9437	-2.7938	-2.8021	-2.75	-2.3729	-2.9208	-2.8708	-2.6188	-2.8625	-2.7292	155.149	333.284	204.167	122.214	249.157	325.383	414.097	383.158	307.420	100.835	83.100	407.940	87.504	371.360	109.759	298.520	0.00062621	0.00099764	0.00022523	548.56	2.2133e-05	2.6295e-06	742.9	211.35	3.445e-05	5.7624e-06	301.98	127.69	91.045	49.082	1.9467e-05	69.367	0.004283	0.0039711	0.0010428	1009.7	4.8061e-05	4.3553e-05	1137.2	351.81	4.7879e-05	4.3895e-05	538.61	202.54	188.99	71.699	4.1314e-05	102.02	324.785	276.662	218.947	78.938	420.183	260.951	76.799	85.383	75.773	278.836	81.845	86.326	89.653	93.562	258.883	89.935	-8191	255	
3586.801	1	1	0	0	0.29962	0.31034	0.059656	0.31821	0.11713	0.15089	0.16318	0.084256	0.10559	0.09865	0.12164	0.29544	0.35885	0.1471	0.22496	0.2153	-2.2917	-3.0125	-2.3563	-2.7188	-2.7792	-2.5062	-3.1542	-2.7333	-2.7687	-2.8063	-2.6479	-2.8354	-2.5667	-2.6188	-2.9042	-2.6604	376.711	212.307	269.536	381.606	163.859	122.860	326.446	361.016	88.393	400.088	379.558	124.446	385.892	310.797	94.012	301.373	0.00050668	0.00072452	0.00067298	545.74	2.6453e-05	1.5906e-05	746.89	208.94	9.9482e-06	1.64e-05	306.01	127.14	90.377	49.067	2.3563e-05	69.079	0.0041889	0.003912	0.0010449	1039	4.6084e-05	4.2286e-05	1133.8	357.52	4.5224e-05	4.2172e-05	540.19	205.08	183.31	70.968	4.242e-05	103.77	246.125	396.586	200.893	78.494	410.758	375.426	76.930	85.630	106.251	385.592	82.300	86.091	90.266	93.238	236.625	89.851	-8191	255	
3586.897	1	1	0	0	0.14124	0.056791	0.27655	0.351	0.052185	0.13945	0.27535	0.078944	0.12506	0.2423	0.36377	0.077634	0.21444	0.45515	0.19732	0.22099	-1.9771	-2.9	-2.4458	-2.7	-2.6542	-2.5167	-3.0604	-2.8583	-2.5167	-2.8896	-2.6104	-2.8458	-2.8583	-2.5042	-2.9271	-2.9604	309.404	130.580	94.004	343.548	96.521	374.595	381.004	69.335	317.764	121.643	368.236	119.957	397.362	74.181	99.932	377.696	0.00040143	0.0004251	0.00090155	536.25	1.6125e-05	1.9548e-05	751.52	208.68	8.1391e-06	9.1956e-06	306.56	125.4	90.463	49.03	3.3339e-05	68.545	0.0040361	0.003841	0.0010995	1054.7	4.4234e-05	4.1478e-05	1162.5	360.49	4.3702e-05	4.1196e-05	556.49	204.48	178.45	70.1	4.478e-05	102.73	239.816	219.388	159.896	78.200	410.444	370.673	77.495	84.883	99.207	393.057	82.185	86.192	90.176	93.834	182.804	89.477	-8191	255	
3586.993	1	1	0	0	0.1259	0.094511	0.15122	0.1387	0.15262	0.25671	0.10584	0.15177	0.22237	0.19284	0.14579	0.23753	0.097782	0.34991	0.016344	0.034585	-2.2687	-2.8187	-2.4125	-2.7146	-2.8354	-2.5104	-2.9729	-2.7417	-2.6104	-2.8958	-2.725	-2.7125	-2.7854	-2.6583	-2.8563	-2.9167	105.852	116.453	171.987	135.825	421.105	246.590	421.268	88.133	177.105	268.306	343.286	265.172	267.479	424.620	364.163	70.867	0.00027277	0.0019162	0.00085625	536.12	2.6781e-05	1.2899e-05	751.93	206.46	6.8354e-06	1.1087e-05	304.57	125.31	90.778	49.165	2.8603e-05	68.61	0.0038456	0.0037158	0.0011582	1037.2	4.2649e-05	4.0563e-05	1190.7	353.32	4.217e-05	4.0671e-05	573.9	201.08	176.3	70.133	4.7635e-05	101.69	257.225	236.117	198.867	78.329	313.254	334.457	77.175	84.872	333.847	290.841	82.248	86.263	90.115	93.638	216.469	89.271	-8191	255	
3587.089	1	1	0	0	0.032949	0.07508	0.20204	0.33861	0.42929	0.16609	0.22065	0.26505	0.19878	0.13468	0.22559	0.16975	0.10127	0.43688	0.14861	0.13046	-2.1146	-2.9167	-2.5979	-2.7208	-3.0708	-2.4208	-2.7771	-2.8958	-2.675	-2.8854	-2.8021	-2.6333	-2.75	-2.5208	-2.8458	-3.0938	138.705	293.824	207.323	389.880	412.381	207.431	340.781	283.586	169.606	256.535	92.598	114.900	179.322	72.864	423.546	318.052	0.00029983	0.0024854	0.00056949	529.88	1.9097e-05	2.2795e-05	745.3	206.64	1.9671e-05	1.1567e-05	301.67	125.4	91.335	48.983	2.6357e-05	68.555	0.00381	0.0038123	0.0012424	1021.8	4.2464e-05	4.2292e-05	1219.3	348.2	4.1602e-05	4.2132e-05	583.42	195.5	172.16	70.645	4.7611e-05	98.374	220.012	155.545	181.395	78.201	396.119	167.445	76.749	84.994	392.300	233.040	81.882	86.202	90.085	93.339	310.679	89.659	-8191	255	
3587.185	1	1	0	0	0.16784	0.1586	0.23063	0.10669	0.11746	0.094966	0.15291	0.064018	0.16631	0.16468	0.27534	0.28455	0.097432	0.14086	0.11618	0.17434	-2.0938	-2.7188	-2.6604	-2.7125	-2.8354	-2.6146	-2.8	-2.9813	-2.5792	-3	-2.7292	-2.5229	-2.9667	-2.6729	-2.7375	-2.9896	225.632	257.769	76.602	379.294	337.316	320.002	80.217	359.538	134.641	87.260	296.761	408.013	413.650	105.225	175.891	75.866	0.00054487	0.0026505	0.0005753	537.26	1.3748e-05	3.899e-05	742.78	206.72	1.2291e-05	5.008e-05	299.46	125.32	90.98	49.379	2.4061e-05	68.779	0.0036052	0.0038943	0.0012142	985.99	4.033e-05	4.4016e-05	1212.4	340.26	4.0278e-05	4.4682e-05	580.01	193.47	171.36	72.638	4.6956e-05	97.84	225.782	117.760	406.552	78.405	340.920	184.323	76.527	85.110	72.439	218.431	81.871	86.165	89.893	93.516	370.247	89.731	-8191	255	
3587.281	1	1	0	0	0.097256	0.076833	0.1035	0.20135	0.046454	0.21241	0.33169	0.12076	0.085736	0.26974	0.25822	0.14903	0.23927	0.16385	0.064288	0.33137	-1.9417	-2.7604	-2.7604	-2.5583	-2.9042	-2.4188	-2.8167	-2.9604	-2.5625	-2.7875	-2.7375	-2.4188	-2.9562	-2.6729	-2.6188	-2.825	342.073	90.005	85.668	180.594	337.613	277.067	344.141	142.630	267.442	231.881	353.315	319.839	380.138	91.163	330.933	322.971	0.00071795	0.0024533	7.3509e-05	535.67	2.1207e-05	4.3552e-05	745.58	207.8	1.8831e-05	3.2752e-05	299.36	125.3	90.99	49.074	1.2103e-05	68.602	0.0036044	0.0041913	0.0011938	977.88	4.0401e-05	4.6757e-05	1191.8	336.87	4.0283e-05	4.6865e-05	564.34	190.59	170.68	73.534	4.3877e-05	96.126	244.774	122.226	353.989	78.707	251.849	203.332	76.955	85.232	296.482	193.982	81.509	86.241	90.334	93.374	400.488	89.440	-8191	255	
3587.400	1	1	0	0	0.27905	0.10524	0.29239	0.16901	0.088617	0.12579	0.34084	0.29445	0.12993	0.20767	0.11055	0.27683	0.19182	0.2126	0.22469	0.19627	-1.8979	-2.7396	-2.825	-2.35	-2.8438	-2.6708	-2.8167	-2.9333	-2.5896	-2.7562	-2.8021	-2.6688	-2.8896	-2.8625	-2.5396	-2.9396	75.553	224.465	209.797	361.182	102.445	210.050	315.834	343.038	333.433	347.779	414.481	138.944	215.293	397.315	73.757	334.613	0.0012008	0.0012539	0.00055136	538.71	3.9977e-05	8.572e-06	745.4	207.58	3.4259e-05	3.4628e-06	302.32	126.06	92.442	48.738	2.3927e-05	68.57	0.0035942	0.0042619	0.0011142	953.61	4.0618e-05	4.7139e-05	1160.1	330.7	4.1485e-05	4.7509e-05	550.98	189	176.19	74.096	4.2324e-05	95.298	233.474	183.354	349.664	78.722	225.849	316.580	76.526	85.259	255.115	232.612	81.803	86.260	89.515	93.541	367.943	89.597	-8191	255	
3587.496	1	1	0	0	0.37509	0.074383	0.044078	0.15234	0.14132	0.11714	0.15996	0.34136	0.040703	0.17238	0.029727	0.19919	0.15523	0.15822	0.064083	0.25865	-2.1688	-2.6125	-2.7396	-2.4146	-2.8458	-2.8167	-2.7521	-3.1104	-2.8104	-2.7062	-2.825	-2.5625	-2.9771	-2.7208	-2.5021	-2.9292	69.715	158.143	116.794	100.500	406.311	388.040	360.093	386.975	148.134	159.496	256.830	214.797	409.029	357.613	86.734	342.004	0.0011285	0.0020767	0.00064555	533.3	3.8948e-05	1.3818e-05	741.2	206.66	4.5514e-05	2.4473e-05	301.93	125.38	91.743	48.876	9.3136e-06	68.364	0.0037998	0.004202	0.0010542	937.77	4.2594e-05	4.5626e-05	1129.8	324.15	4.2651e-05	4.4447e-05	530.46	184.19	178.07	71.839	3.9832e-05	93.566	233.786	290.451	325.114	78.773	218.245	426.903	76.611	85.389	259.452	417.995	82.102	86.212	90.233	93.558	87.189	89.869	-8191	255	
3587.593	1	1	0	0	0.14293	0.1081	0.18781	0.35388	0.09634	0.142	0.22618	0.057602	0.13915	0.23393	0.33502	0.23261	0.070085	0.38777	0.072675	0.26767	-2.1729	-2.6021	-2.8354	-2.5125	-2.7979	-2.8292	-2.7167	-3.0667	-2.6167	-2.6146	-2.8271	-2.6437	-2.7604	-2.7854	-2.3729	-2.9313	397.069	270.676	350.126	387.552	400.914	252.494	361.534	355.829	350.745	103.927	378.025	379.266	367.781	96.042	370.083	391.424	0.0010265	0.0021218	0.00029019	539.4	1.7104e-05	1.054e-05	741.84	209.05	3.0265e-05	1.3585e-05	296.85	126.47	91.194	48.5	2.4112e-05	68.465	0.0039273	0.0039779	0.0010197	934.4	4.476e-05	4.3835e-05	1122.4	327.24	4.5687e-05	4.3692e-05	530.03	188.03	184.68	71.569	4.0023e-05	95.65	216.076	341.011	237.663	78.615	252.617	360.949	76.596	85.414	272.958	391.378	81.728	86.554	90.193	93.547	385.808	89.660	-8191	255	
3587.689	1	1	0	0	0.062148	0.14121	0.12739	0.27355	0.18495	0.34572	0.22712	0.24853	0.20224	0.23218	0.095502	0.49231	0.063524	0.34457	0.10166	0.09121	-1.9958	-2.4229	-2.8333	-2.2771	-2.75	-2.7792	-2.6042	-2.9562	-2.4854	-2.4292	-2.9083	-2.5396	-2.775	-2.9625	-2.5354	-2.8271	412.158	227.798	258.049	151.342	178.789	97.630	356.202	194.643	178.438	79.753	367.230	378.907	291.733	392.798	175.239	277.150	0.0010143	0.0024961	0.0002911	544.21	2.0695e-06	1.2531e-05	744.4	208.75	1.8238e-05	6.1926e-06	302.06	126.64	90.698	48.605	1.0774e-05	69.276	0.0041424	0.003873	0.0010078	962.16	4.6146e-05	4.2144e-05	1114.8	334.81	4.6065e-05	4.1877e-05	524.38	193.06	184.22	70.444	3.9155e-05	98.376	225.532	314.763	349.470	78.942	306.636	300.118	76.753	85.699	277.766	78.249	81.445	86.543	90.034	93.902	203.737	90.012	-8191	255	
3587.785	1	1	0	0	0.27788	0.015452	0.20106	0.11622	0.14123	0.12663	0.085837	0.20502	0.10261	0.20767	0.16934	0.24065	0.11746	0.29989	0.12463	0.19626	-2.2354	-2.3875	-2.7938	-2.5187	-2.8063	-2.7875	-2.4104	-2.8604	-2.5875	-2.4625	-3.0687	-2.7896	-2.7854	-3.0438	-2.525	-2.9458	287.088	101.227	376.042	357.599	402.104	349.611	187.306	309.126	418.661	235.090	375.813	383.449	299.855	83.153	125.104	70.118	0.00069715	0.0013678	0.00016343	544.82	2.5733e-05	1.6279e-05	745.7	207.85	1.9544e-05	1.4989e-05	300.54	126.56	90.745	48.617	1.7424e-05	69.011	0.0041133	0.0037924	0.00099812	997.09	4.5097e-05	4.1027e-05	1106.6	343.45	4.4078e-05	4.0215e-05	519.03	196.92	179.27	69.495	3.9039e-05	100.22	313.008	310.648	266.003	78.952	385.618	409.101	76.834	85.321	426.893	83.786	82.055	86.498	89.553	93.632	246.907	89.689	-8191	255	
3587.881	1	1	0	0	0.29252	0.13386	0.23336	0.094207	0.36495	0.18057	0.21062	0.091632	0.036316	0.18547	0.050767	0.11789	0.0843	0.12343	0.1466	0.31976	-2.1729	-2.5271	-2.8833	-2.7521	-2.5187	-3.0021	-2.7062	-2.9083	-3.0125	-2.4333	-2.8146	-2.75	-2.5167	-3.0292	-2.6354	-2.8854	195.195	376.514	278.739	258.183	127.077	126.956	229.536	312.158	98.479	240.781	348.280	212.227	282.117	84.933	185.893	381.062	0.00044136	0.0016398	0.00039259	540.48	1.6877e-05	1.5788e-05	748.28	209.37	1.7272e-05	2.259e-05	305.09	126.6	90.06	48.832	1.962e-05	78.529	0.0039373	0.0037045	0.0010151	1025.8	4.4049e-05	4.1085e-05	1130.3	354.59	4.3738e-05	4.0863e-05	537.72	202.21	177.1	69.422	3.9718e-05	113.15	285.063	282.834	224.153	78.243	81.040	268.091	77.217	85.428	375.713	406.158	82.079	86.130	89.944	93.516	210.037	84.965	-8191	255	
3587.977	1	1	0	0	0.47507	0.21431	0.27312	0.19945	0.27644	0.18928	0.072135	0.19713	0.30155	0.15752	0.28095	0.15505	0.15439	0.23855	0.19661	0.34038	-2.2979	-2.35	-2.7958	-2.7021	-2.5375	-2.8667	-2.6292	-2.7812	-2.8396	-2.5062	-2.9646	-2.8521	-2.6063	-2.9542	-2.5458	-2.7604	363.041	70.952	341.733	356.905	131.333	420.618	220.691	401.083	183.756	130.123	318.392	347.035	337.183	419.792	245.200	420.248	0.00055222	0.0010161	0.0012058	628.92	3.5501e-05	1.3285e-05	879.82	242.63	9.7838e-06	2.4403e-05	356.81	147.38	105.61	57.214	4.0138e-05	80.438	0.0043101	0.0041407	0.0012313	1183.2	4.8103e-05	4.5969e-05	1335.8	407.69	4.8623e-05	4.6168e-05	642.59	233.1	202.75	80.078	5.2266e-05	117.06	223.636	335.432	176.608	77.085	404.902	361.244	75.853	83.852	404.706	377.938	80.777	84.868	88.552	91.876	208.144	87.983	-8191	255	
3588.098	1	1	0	0	0.03873	0.12446	0.11911	0.22492	0.30557	0.20437	0.23598	0.11572	0.30744	0.087417	0.26292	0.27159	0.16868	0.084254	0.22887	0.33979	-2.5146	-2.4688	-2.6	-2.9917	-2.525	-3.0917	-2.7542	-2.7479	-2.9667	-2.5271	-3.0229	-2.8667	-2.5271	-3.0938	-2.5125	-2.7687	317.264	335.699	177.155	110.798	119.192	289.954	421.635	173.406	127.094	299.819	332.900	349.764	355.056	214.309	299.885	362.504	0.00062157	0.0010018	0.0011745	620.84	7.2629e-06	2.5946e-06	881.95	242.48	2.5863e-05	8.6718e-06	358.52	147.91	106.47	57.547	2.2942e-05	80.403	0.0043752	0.0042439	0.0013532	1179.9	4.8635e-05	4.6665e-05	1383.3	404.8	4.8227e-05	4.7192e-05	667.17	230.77	201.32	80.962	5.5544e-05	116.13	246.201	79.329	187.587	77.133	168.913	294.766	76.028	83.835	334.045	190.695	80.398	84.415	88.460	92.220	194.485	88.183	-8191	255	
3588.192	1	1	0	0	0.17395	0.12573	0.091114	0.16607	0.11392	0.029403	0.15183	0.067911	0.016651	0.11137	0.10944	0.13682	0.45024	0.19194	0.14463	0.14774	-2.4875	-2.5208	-2.7812	-2.9688	-2.6771	-2.8875	-2.8875	-2.6604	-2.9771	-2.65	-2.7708	-2.9375	-2.4437	-3.1521	-2.8521	-2.7104	363.021	406.034	254.477	125.268	316.105	375.583	398.598	406.309	207.362	218.101	187.715	182.501	89.849	122.837	110.930	369.724	0.00041743	0.002256	0.00084837	625.77	1.2783e-05	5.3626e-05	873.24	241.34	7.3234e-06	3.1007e-05	352.25	147.47	105.82	58.043	4.6541e-06	80.597	0.0043489	0.0044625	0.0014405	1167.5	4.8428e-05	4.9673e-05	1414.5	398.52	4.7968e-05	5.0247e-05	679.99	228.23	201.4	83.7	5.7311e-05	115.42	255.361	101.060	249.360	77.259	386.686	195.531	76.053	83.576	164.984	205.077	80.328	85.079	88.705	92.013	314.158	87.934	-8191	255	
3588.288	1	1	0	0	0.18625	0.090492	0.039791	0.2626	0.20412	0.078421	0.19797	0.13383	0.16823	0.30808	0.29551	0.25439	0.25193	0.073317	0.046167	0.20416	-2.4083	-2.6479	-2.7104	-3.0292	-2.5396	-2.9729	-2.95	-2.6958	-3.0104	-2.7438	-2.8146	-3.05	-2.5042	-3.0854	-2.7625	-2.5771	414.485	233.676	141.503	406.681	333.827	84.516	97.965	349.754	358.167	138.908	398.697	98.879	331.045	324.303	375.033	364.701	0.00050517	0.0037571	0.00033845	629.07	7.9123e-06	7.5808e-05	871.43	240.89	3.0844e-05	4.2915e-05	350.51	148.85	106.72	57.939	3.6221e-05	80.495	0.0043567	0.0048633	0.0014697	1163.4	4.8888e-05	5.459e-05	1426.5	399.97	4.9038e-05	5.5773e-05	684.92	229.34	203.67	87.017	5.713e-05	115.31	281.559	108.562	339.655	77.412	253.698	188.628	75.387	83.399	358.029	203.866	80.304	84.558	88.657	92.083	391.171	88.122	-8191	255	
3588.362	1	1	0	0	0.085404	0.15096	0.02654	0.28725	0.15492	0.17768	0.024136	0.19555	0.27723	0.1816	0.19007	0.34625	0.18338	0.32012	0.2548	0.22851	-2.4708	-2.5125	-2.6396	-2.9583	-2.5	-2.9917	-2.8417	-2.3667	-2.8896	-2.6667	-2.7271	-3.1208	-2.4667	-2.8833	-2.9437	-2.5833	386.412	246.716	241.968	332.226	349.048	187.178	270.279	276.802	65.883	138.544	323.196	328.006	367.861	420.808	409.532	276.608	0.0010652	0.0031955	0.0012263	629.24	2.8037e-05	4.0937e-05	874.16	242.23	4.1332e-05	2.5569e-05	351.18	147.19	108.06	58.332	2.0187e-05	80.967	0.0044505	0.0052669	0.0014494	1162.6	5.0334e-05	5.9146e-05	1422.1	401.4	5.164e-05	6.0641e-05	682.2	231.17	211.71	90.107	5.7169e-05	116.61	249.482	112.277	346.834	77.279	259.148	190.801	75.095	83.600	268.958	164.680	80.079	84.697	88.915	92.010	358.600	87.965	-8191	255	
3588.481	1	1	0	0	0.046881	0.089404	0.057737	0.23633	0.17221	0.22903	0.27167	0.19203	0.22285	0.026133	0.2217	0.10448	0.07373	0.23019	0.093065	0.36889	-2.4167	-2.6833	-2.5354	-3.0667	-2.3333	-2.7396	-2.9146	-2.6312	-2.8229	-2.8333	-2.7875	-3	-2.5229	-2.8563	-2.8125	-2.7229	329.938	148.398	225.001	383.557	175.299	73.196	356.344	233.174	85.839	273.318	310.747	389.855	358.878	362.573	298.736	366.562	0.0013985	0.0014477	0.00044695	627.92	5.4192e-05	2.9571e-06	871.53	242.75	4.9116e-05	1.6506e-05	355.6	148.13	108.59	57.919	1.2697e-06	81.221	0.0048367	0.0056748	0.0014403	1169.1	5.4701e-05	6.1874e-05	1408.1	400.94	5.5509e-05	6.174e-05	671.45	229.44	220.98	90.337	5.5738e-05	116.34	228.214	189.523	350.630	77.105	231.992	304.670	75.295	83.565	258.134	361.966	80.114	85.020	88.605	92.282	99.929	88.036	-8191	255	
3588.577	1	1	0	0	0.06855	0.235	0.36354	0.23358	0.059934	0.24427	0.24769	0.22048	0.18978	0.29393	0.074114	0.050418	0.059694	0.25502	0.18733	0.11335	-2.5083	-2.7979	-2.6333	-3.0292	-2.6104	-2.7313	-2.9479	-2.5875	-2.8896	-2.8375	-2.7417	-3.1063	-2.7708	-2.7917	-3.0229	-2.8208	295.022	160.489	177.177	407.210	196.399	144.635	338.265	74.668	278.843	238.003	280.220	415.441	240.617	108.344	129.066	402.238	0.0016426	0.0011442	0.00074562	625.6	4.9581e-05	1.5267e-05	876.97	242.49	3.8999e-05	2.8996e-05	352.3	148.17	107.59	57.76	2.6385e-05	81.404	0.0052047	0.005657	0.0014226	1169.8	5.9793e-05	6.2035e-05	1410.1	405.17	6.1139e-05	6.1996e-05	676.96	232.28	233.03	89.738	5.5525e-05	117.56	233.833	310.313	327.320	77.111	234.494	373.357	75.445	83.934	260.006	396.440	80.430	84.493	88.835	91.953	81.596	87.976	-8191	255	
3588.673	1	1	0	0	0.093154	0.2139	0.096206	0.13537	0.00889	0.12119	0.19695	0.1094	0.13453	0.1455	0.28636	0.31159	0.23535	0.25997	0.13559	0.23108	-2.4604	-2.8021	-2.6792	-2.975	-2.7438	-2.7167	-3.15	-2.7438	-2.9833	-2.9437	-2.7042	-3.0354	-2.6396	-2.875	-2.9688	-2.8063	236.622	95.830	188.435	80.250	238.460	370.335	391.746	419.159	185.387	154.711	351.072	70.894	353.252	395.811	132.897	401.455	0.0010321	0.0052977	0.00065487	633.06	2.6835e-05	4.243e-05	868.54	242.14	3.0975e-05	3.2481e-05	351.72	149.33	106.85	57.447	8.0445e-06	81.851	0.0055383	0.0054513	0.001397	1179	6.1983e-05	5.8365e-05	1379.5	405.75	6.1872e-05	5.7708e-05	659.12	234.5	234.57	87.578	5.395e-05	119.81	209.596	301.311	336.226	77.090	225.848	370.699	75.520	84.087	199.864	403.058	79.978	84.867	87.945	91.900	173.748	88.051	-8191	255	
3588.769	1	1	0	0	0.064981	0.16157	0.11207	0.24745	0.24231	0.20238	0.18513	0.2936	0.20284	0.13488	0.21664	0.29326	0.14327	0.14845	0.21196	0.041139	-2.4646	-2.8312	-2.5438	-3.0917	-2.8292	-2.5917	-3.1146	-2.8292	-2.725	-2.9729	-2.575	-2.9896	-2.7625	-2.6813	-3.0333	-2.7625	206.664	327.552	341.954	126.700	417.243	312.510	416.043	382.304	252.871	267.600	342.010	415.028	385.311	89.138	352.594	350.579	0.0010136	0.0021112	0.00042061	633.34	1.4718e-05	1.9016e-05	867.39	243.89	2.9781e-05	2.0493e-05	349.96	150.12	106.02	57.862	4.3183e-06	81.417	0.0056516	0.0052758	0.0013782	1224	6.3471e-05	5.7537e-05	1377.5	422.7	6.2545e-05	5.6702e-05	655.89	242.85	233.59	86.678	5.3067e-05	123.1	223.831	296.981	293.471	77.476	394.444	67.946	75.039	84.042	131.364	424.741	80.307	84.989	88.510	91.561	363.319	88.606	-8191	255	
3588.890	1	1	0	0	0.13486	0.11318	0.10712	0.31741	0.49071	0.20425	0.14078	0.21375	0.10353	0.21358	0.12196	0.27757	0.15031	0.1569	0.0078737	0.084603	-2.3271	-2.8167	-2.475	-2.8979	-2.7604	-2.6792	-3.1479	-2.7333	-2.7646	-3.1021	-2.6625	-3.0083	-2.7792	-2.7896	-3.0021	-2.9208	404.854	315.435	112.526	382.684	349.449	353.462	363.258	375.214	363.543	291.217	111.320	85.382	319.746	271.140	159.455	308.578	0.00036634	0.0012794	0.00047437	640.1	3.878e-05	1.1163e-05	866.28	244.29	3.7271e-05	2.5131e-05	354.33	149.4	106.62	57.618	3.1072e-05	81.405	0.0054902	0.0051134	0.0013623	1267.8	6.1073e-05	5.5728e-05	1372.3	434.55	5.989e-05	5.5048e-05	657	247.62	226.19	85.331	5.3398e-05	124.91	291.482	387.857	285.297	77.165	68.989	66.254	75.721	83.904	104.791	393.910	80.528	85.062	88.716	91.976	228.403	88.217	-8191	255	
3588.986	1	1	0	0	0.1351	0.0984	0.095043	0.21099	0.1791	0.20524	0.024398	0.17408	0.12735	0.22939	0.17861	0.28246	0.094571	0.28296	0.10148	0.041123	-2.1937	-2.9813	-2.5417	-2.8958	-2.9771	-2.5458	-3.0104	-2.7313	-2.5021	-3.0354	-2.7396	-2.8312	-2.7771	-2.6458	-3.0667	-2.9083	84.477	371.901	218.182	330.193	356.360	86.881	76.170	386.257	112.449	116.798	314.946	367.690	363.676	79.590	310.315	120.022	0.00060695	0.0023292	0.0011114	638.77	3.8703e-05	1.0766e-05	876.64	242.36	1.9888e-05	1.5635e-05	357.79	147.64	106.16	57.773	4.2915e-05	81.446	0.0051587	0.0049082	0.0013765	1279.1	5.7333e-05	5.3803e-05	1390.8	438.1	5.6974e-05	5.3609e-05	673.78	249.05	219.93	84.493	5.6428e-05	125.21	234.404	335.356	200.928	77.326	424.869	385.638	75.771	83.616	408.729	96.008	80.409	84.584	88.888	92.157	228.449	88.153	-8191	255	
3589.082	1	1	0	0	0.20108	0.1522	0.044308	0.11653	0.18544	0.13202	0.18239	0.087943	0.21714	0.13136	0.13169	0.19316	0.19522	0.1812	0.18469	0.28092	-2.2062	-2.9437	-2.4875	-2.8917	-2.975	-2.5438	-2.9854	-2.925	-2.4437	-2.9083	-2.7562	-2.7417	-3.2083	-2.7667	-2.8667	-2.9396	399.426	340.494	327.620	112.706	301.869	350.461	398.749	393.611	249.682	116.179	336.153	94.825	402.346	394.576	254.118	389.057	0.00062166	0.0012976	0.0012523	624.96	1.7931e-05	1.633e-05	880.52	240.07	1.7044e-05	2.032e-05	356.04	147.57	105.84	57.725	4.4131e-05	81.124	0.0049838	0.0048229	0.0014737	1279.1	5.595e-05	5.2921e-05	1437.2	433.6	5.5403e-05	5.2961e-05	701.88	247.07	219.02	85.094	6.1846e-05	124.79	254.313	282.569	169.671	76.763	68.396	191.383	75.986	83.476	407.062	88.425	80.761	84.823	88.710	92.012	197.624	87.941	-8191	255	
3589.178	1	1	0	0	0.14335	0.22356	0.28089	0.1288	0.21271	0.18869	0.21836	0.30848	0.10704	0.18565	0.30627	0.21455	0.19927	0.14111	0.097124	0.080597	-2.0521	-2.9167	-2.6083	-2.6396	-2.8563	-2.4458	-2.85	-2.8917	-2.4896	-2.9771	-2.8979	-2.6875	-3.05	-2.7062	-2.8479	-3.0917	254.532	278.576	387.925	413.704	129.647	297.706	383.999	394.857	207.398	279.478	180.957	389.848	410.433	356.425	156.345	147.898	0.00058846	0.0039804	0.0011551	627.9	1.9554e-05	2.46e-05	875.48	239.73	1.377e-05	3.8291e-05	355.31	146.97	105.64	58.239	2.5168e-05	81.261	0.0050471	0.0049827	0.0016135	1273.1	5.6386e-05	5.5309e-05	1492.6	432.3	5.6028e-05	5.5748e-05	732.41	245.1	219.28	86.974	6.5204e-05	123.39	255.894	133.877	188.651	76.483	80.685	205.936	75.939	83.451	299.896	233.429	80.456	84.409	88.922	92.035	198.997	87.657	-8191	255	
3589.273	1	1	0	0	0.15068	0.22866	0.28502	0.11299	0.16476	0.11732	0.13674	0.21245	0.13444	0.26887	0.15157	0.086381	0.18164	0.14327	0.27395	0.20138	-2.0354	-2.8625	-2.8417	-2.725	-2.8688	-2.575	-2.8563	-2.7979	-2.6	-2.9583	-2.8979	-2.8	-3.05	-2.7396	-2.8	-3.2167	200.092	279.452	197.764	70.015	149.850	386.200	319.630	415.171	292.651	311.551	319.121	374.130	90.912	151.556	372.147	378.053	0.0002654	0.0036209	0.00059663	625.01	2.2105e-05	5.905e-05	872.32	240.66	2.5366e-05	3.3191e-05	350.99	147.67	105.34	58.902	3.5322e-05	80.905	0.0049788	0.0052472	0.0016747	1249.5	5.5744e-05	5.9216e-05	1519	426.26	5.5589e-05	6.021e-05	742.46	243.62	218.95	90.482	6.5917e-05	122.86	263.308	135.599	214.277	76.961	391.490	182.411	75.207	83.533	125.841	211.569	80.344	84.958	88.528	92.043	359.136	88.012	-8191	255	
3589.370	1	1	0	0	0.038172	0.10126	0.20485	0.14657	0.34296	0.13117	0.23851	0.22882	0.22276	0.19227	0.087783	0.25232	0.14759	0.22854	0.11374	0.10114	-2.0417	-2.9313	-2.8125	-2.6771	-2.9792	-2.7167	-2.8208	-2.9042	-2.375	-3.0667	-2.9896	-2.7375	-3.0438	-2.9083	-2.8625	-3.0833	381.575	268.329	329.638	398.968	344.077	152.711	420.262	402.046	213.182	99.538	325.965	271.384	118.385	356.160	385.292	318.927	0.00065897	0.0048254	0.0011404	626.1	1.9853e-05	7.2428e-05	870.77	239.44	1.8217e-05	6.6175e-05	350.34	147.35	107.06	58.542	2.5598e-05	81.5	0.0049949	0.0057182	0.0016726	1241.4	5.5471e-05	6.3506e-05	1501.7	420.6	5.5158e-05	6.366e-05	723.7	239.75	218.3	92.311	6.2921e-05	121.34	220.712	112.167	339.485	77.044	271.972	191.528	75.271	83.413	287.262	223.693	80.401	84.859	89.033	91.895	390.404	88.255	-8191	255	
3589.489	1	1	0	0	0.044739	0.17396	0.096061	0.21871	0.28325	0.23683	0.21858	0.069374	0.081066	0.11293	0.11295	0.1845	0.26444	0.066758	0.09377	0.071095	-1.9792	-2.7354	-2.5292	-2.5729	-3.0062	-2.4833	-2.9458	-2.8792	-2.4021	-2.8937	-2.8896	-2.6437	-3.0583	-3.0062	-2.6063	-3.1792	366.587	203.348	250.550	122.653	111.747	287.624	313.767	358.576	384.808	168.245	143.984	79.039	411.595	65.936	305.171	340.882	0.0012751	0.00366	0.0007046	624.21	5.7887e-05	3.6502e-05	869.89	239.69	6.4224e-05	9.6099e-06	347.81	146.66	107.58	58.425	2.6049e-05	80.56	0.0050217	0.0059954	0.001601	1225.9	5.6956e-05	6.6532e-05	1471.8	416.68	5.6939e-05	6.5807e-05	704.55	236.66	223.09	93.284	5.9883e-05	119.49	236.074	108.981	366.891	76.935	228.120	179.107	75.118	83.751	257.242	302.932	80.271	84.884	89.136	91.887	71.998	87.847	-8191	255	
3589.585	1	1	0	0	0.1665	0.10595	0.31638	0.10806	0.046337	0.23236	0.1947	0.30145	0.17322	0.14006	0.18514	0.047118	0.27382	0.41623	0.11527	0.13714	-2.1042	-2.6208	-2.9437	-2.5979	-2.8417	-2.8375	-2.6479	-2.9938	-2.6333	-2.775	-3.0771	-2.5583	-2.9646	-3.0083	-2.5812	-3	358.127	209.685	173.479	79.298	179.670	328.125	384.579	326.160	95.058	265.520	290.546	258.606	125.539	390.836	195.594	313.517	0.0014556	0.0011094	0.00095239	619.29	5.2473e-05	5.8706e-06	868.22	241.94	4.5621e-05	3.9629e-05	348.15	146.79	108.94	57.483	2.1327e-05	81.067	0.0052519	0.0060022	0.0015152	1204.7	5.9525e-05	6.567e-05	1435.2	409.39	6.0222e-05	6.472e-05	686.83	232.72	229.75	91.287	5.6772e-05	117.2	240.284	338.289	417.675	77.168	207.105	102.386	75.127	83.718	247.259	347.265	80.705	84.572	88.549	91.877	87.070	87.924	-8191	255	
3589.657	1	1	0	0	0.11426	0.1082	0.15409	0.20311	0.082033	0.12211	0.23279	0.12011	0.31853	0.15301	0.073054	0.090627	0.13219	0.039054	0.20406	0.18036	-2.1312	-2.7146	-2.825	-2.6729	-2.9646	-2.7854	-2.5896	-2.9042	-2.7125	-2.5917	-3.1021	-2.5708	-2.775	-2.8042	-2.5271	-2.9604	233.858	139.070	373.148	406.094	368.954	352.380	349.391	307.046	306.933	403.752	103.189	380.993	83.512	402.129	359.772	348.962	0.0012651	0.0035854	0.00096713	623.98	5.444e-05	3.243e-05	861.39	240.34	4.0788e-05	3.5333e-05	350.57	146.96	107.06	56.861	3.3924e-06	81.264	0.0054362	0.0056473	0.0014252	1171.8	6.0762e-05	6.0861e-05	1394.3	400.79	6.0819e-05	5.9355e-05	660.38	228.81	229.8	87.729	5.3446e-05	116.16	208.509	292.237	347.904	77.128	201.154	401.941	75.612	83.970	254.620	75.832	80.281	84.843	88.888	92.226	307.052	88.593	-8191	255	
3589.778	1	1	0	0	0.18483	0.33203	0.1538	0.037101	0.14215	0.16541	0.24871	0.13556	0.15192	0.18025	0.15006	0.2834	0.24243	0.10431	0.22265	0.31298	-2.3833	-2.9375	-2.8854	-2.6937	-2.7771	-2.9562	-2.7021	-3.0021	-2.7208	-2.6229	-3.0604	-2.6688	-2.6437	-2.9375	-2.3771	-3.0438	83.373	114.263	375.103	401.308	236.022	115.380	378.787	74.986	305.009	185.554	70.225	72.816	370.282	256.187	68.353	341.084	0.00088545	0.0051004	0.00032946	632.05	1.233e-05	3.1665e-05	860.12	242.87	1.247e-05	2.9037e-05	348.59	148.45	105.9	57.11	3.02e-05	81.257	0.0054637	0.0052288	0.0013474	1174.1	6.0908e-05	5.673e-05	1362.9	406.19	6.1248e-05	5.6059e-05	648.57	233.96	230.92	85.824	5.1789e-05	118.53	234.340	304.111	244.029	77.346	198.919	371.030	75.331	83.764	99.422	397.363	79.996	84.884	88.206	92.237	339.982	88.659	-8191	255	
3589.874	1	1	0	0	0.31119	0.23067	0.15095	0.13341	0.12769	0.1571	0.28453	0.091996	0.15318	0.053968	0.27444	0.25146	0.24394	0.048624	0.20994	0.39465	-2.2938	-2.6167	-2.975	-2.7354	-2.75	-2.8729	-2.5354	-3.0479	-2.8563	-2.6063	-2.9813	-2.7583	-2.8354	-3.0125	-2.4437	-2.975	119.271	131.874	74.500	311.929	146.230	148.964	336.219	265.390	187.503	259.855	112.472	66.166	367.297	403.245	119.920	366.992	0.00053674	0.0013185	0.00047981	631.02	1.8006e-05	6.771e-06	863.01	244.05	3.2342e-05	1.1336e-05	350.78	148.91	104.05	57.053	7.6764e-06	80.873	0.0053719	0.0049393	0.001296	1204	5.9476e-05	5.3698e-05	1341.9	413.72	5.8702e-05	5.369e-05	636.31	239.29	224.93	84.693	5.1033e-05	121.16	204.386	260.540	315.912	77.685	420.609	289.899	75.791	83.869	68.517	349.752	80.329	84.938	88.096	92.047	182.168	88.507	-8191	255	
3589.970	1	1	0	0	0.10917	0.31713	0.11836	0.19936	0.20185	0.312	0.25731	0.059714	0.19126	0.34737	0.12588	0.15772	0.4045	0.26256	0.14495	0.35735	-2.2979	-2.5	-3.0896	-2.7625	-2.5812	-2.9896	-2.6229	-2.9646	-3.0333	-2.5771	-3	-2.8167	-2.6312	-3.0167	-2.5229	-2.8854	408.026	411.623	391.665	422.795	314.653	284.302	397.416	283.804	312.924	111.331	106.623	322.374	332.557	86.924	284.275	401.161	0.000185	0.0025606	0.00070751	626.19	4.1035e-05	2.5305e-05	872.94	242.21	2.7701e-05	1.6196e-05	352.02	146.2	104.24	56.973	3.2212e-05	80.877	0.0051936	0.0048482	0.0012921	1237.9	5.6835e-05	5.2388e-05	1345.5	422.63	5.571e-05	5.1627e-05	636.06	240.38	214.71	82.363	5.1001e-05	120.82	409.810	251.846	200.816	77.513	406.187	352.436	75.485	83.854	415.127	134.486	80.469	84.996	88.657	92.085	242.951	87.942	-8191	255	
3590.066	1	1	0	0	0.1941	0.29092	0.09105	0.1058	0.38555	0.18027	0.069139	0.29215	0.16822	0.11191	0.11535	0.25647	0.15298	0.15735	0.15285	0.27851	-2.4313	-2.4771	-2.8271	-2.7896	-2.5521	-3.1729	-2.5479	-2.9104	-2.8625	-2.6542	-2.8979	-2.9229	-2.525	-3.0354	-2.4792	-2.9813	235.219	414.454	231.450	333.966	133.379	77.472	391.063	410.601	307.305	184.549	135.009	413.291	185.095	89.949	173.935	376.727	0.00014196	0.00095985	0.0015565	622.68	1.3346e-05	8.1395e-06	870.74	239.8	3.6021e-05	2.1459e-05	349.61	147.06	105.24	56.802	4.3545e-05	80.021	0.0048106	0.0045697	0.0013182	1235.7	5.3209e-05	4.9991e-05	1364.7	421.98	5.2722e-05	4.9734e-05	654.52	239.64	209.52	81.57	5.401e-05	120.04	262.845	240.037	181.485	77.367	368.924	237.414	75.875	83.582	422.138	388.478	80.756	84.896	88.730	91.885	206.114	88.265	-8191	255	
3590.185	1	1	0	0	0.33651	0.1403	0.26102	0.26016	0.138	0.064445	0.14215	0.20416	0.18427	0.26045	0.38738	0.1636	0.17027	0.26509	0.18095	0.16311	-2.3187	-2.5812	-2.8125	-2.8375	-2.5333	-3	-2.6813	-3.0104	-2.7917	-2.4604	-2.9188	-2.9208	-2.6625	-3.0062	-2.6146	-2.7896	109.193	312.824	383.147	81.618	180.296	244.398	114.320	327.520	344.601	360.775	66.805	385.413	397.771	378.074	396.227	345.842	0.00078859	0.0016801	0.0012724	627.61	7.0682e-06	1.9165e-05	876.27	239.05	1.807e-05	9.8293e-06	354.12	146.53	105.42	57.077	2.5755e-05	80.136	0.0046418	0.0044864	0.0014076	1225.6	5.2224e-05	4.9896e-05	1415.2	419.37	5.2406e-05	5.0437e-05	685.01	237.89	208.83	82.036	5.775e-05	118.38	223.283	275.838	202.233	76.737	358.467	267.849	75.929	83.451	137.331	187.387	80.672	84.406	88.579	92.111	225.247	88.121	-8191	255	
3590.281	1	1	0	0	0.16372	0.13606	0.1089	0.12761	0.068561	0.18811	0.27547	0.13713	0.10075	0.062728	0.29358	0.2386	0.010177	0.28967	0.30761	0.0067979	-2.4042	-2.4437	-2.7875	-2.8646	-2.3417	-2.9229	-2.7125	-2.6542	-2.8688	-2.55	-2.85	-2.9417	-2.7021	-3.0521	-2.6479	-2.8917	90.816	78.099	340.982	87.702	159.304	182.102	343.280	385.131	152.904	404.721	421.199	337.886	176.476	414.484	413.867	262.131	0.0006789	0.0042094	0.0013898	621.21	7.0853e-06	3.2157e-05	872.39	239.37	9.4318e-06	1.9693e-05	352.42	146.66	103.72	57.714	1.4785e-05	80.556	0.0045406	0.0045374	0.0014673	1193.6	5.0438e-05	5.043e-05	1435	408.56	5.0929e-05	5.2035e-05	701.21	234.99	208.17	84.492	6.0448e-05	117.72	255.918	99.694	204.401	77.023	346.858	188.500	75.427	83.609	137.342	196.218	79.759	84.775	88.284	92.314	320.928	88.421	-8191	255	
3590.355	1	1	0	0	0.068223	0.15237	0.12503	0.22109	0.32279	0.19321	0.32006	0.1465	0.12486	0.22576	0.15457	0.17172	0.04583	0.20377	0.12837	0.22341	-2.5417	-2.6604	-2.9417	-2.9437	-2.4396	-2.9938	-2.825	-2.5875	-2.9604	-2.6854	-2.7396	-2.8937	-2.6	-3.0229	-2.8333	-2.7646	122.018	184.527	224.697	364.523	355.998	163.209	155.517	337.041	161.355	114.242	387.995	238.193	75.353	82.502	321.233	388.696	0.00055569	0.0051724	0.00079933	621.23	2.3867e-05	6.3383e-05	869.71	240.51	1.2648e-05	3.8475e-05	348.58	147.23	105.91	57.805	2.2374e-05	80.561	0.0045605	0.004913	0.0015303	1181	5.053e-05	5.4857e-05	1449.8	405.52	5.0717e-05	5.6585e-05	703.5	233.18	208.24	87.477	6.0599e-05	117.32	258.185	101.605	324.699	76.634	342.737	162.486	75.415	83.767	133.123	229.682	80.321	84.663	88.584	92.398	396.070	87.719	-8191	255	
3590.451	1	1	0	0	0.16722	0.27282	0.19586	0.11898	0.23106	0.17429	0.2714	0.15747	0.10411	0.28236	0.22306	0.37339	0.19534	0.28417	0.099138	0.1121	-2.5771	-2.6479	-2.5667	-2.975	-2.3917	-2.85	-2.9333	-2.5062	-2.9521	-2.8438	-2.7896	-3.2417	-2.6208	-2.9583	-2.725	-2.6312	238.793	161.478	354.514	66.068	198.822	390.757	367.422	333.291	146.886	229.969	129.651	404.548	78.889	380.967	302.975	398.425	0.00092381	0.006341	0.0012295	619.23	1.7004e-05	5.9832e-05	867.12	240.29	2.2973e-05	4.9224e-05	349.88	146.78	106.94	57.826	2.8007e-05	80.099	0.004618	0.005392	0.0015264	1184.5	5.1752e-05	5.9857e-05	1441.5	405.53	5.1888e-05	6.0779e-05	691.52	232.22	211.14	89.984	5.8811e-05	117.19	263.979	125.617	378.154	77.214	222.894	212.201	75.528	84.002	257.171	189.879	79.888	84.858	88.863	92.269	356.376	87.764	-8191	255	
3590.570	1	1	0	0	0.056636	0.054217	0.1467	0.092768	0.18399	0.18886	0.23861	0.13403	0.074299	0.062383	0.042796	0.33776	0.15327	0.099064	0.16769	0.16011	-2.5271	-2.8625	-2.8667	-3.1	-2.4854	-2.7375	-3.0646	-2.5479	-2.8937	-2.7354	-2.7083	-3.0542	-2.6104	-2.9646	-2.7979	-2.7583	131.369	108.511	412.684	392.947	420.136	331.375	352.767	387.196	401.160	353.604	69.357	362.252	313.228	241.220	409.462	387.573	0.001515	0.0030062	0.0008607	625.26	5.5354e-05	3.1359e-05	866.22	240.41	7.8251e-05	7.6935e-06	351.46	146.85	107.9	57.489	1.7242e-05	80.773	0.00481	0.0057368	0.0014846	1178.8	5.4379e-05	6.2725e-05	1418.1	402.28	5.4314e-05	6.2088e-05	673.74	229.09	217.06	89.814	5.556e-05	115.27	248.081	142.194	376.585	77.029	217.023	173.506	75.240	83.682	248.055	214.171	80.147	85.007	88.626	91.875	368.937	88.072	-8191	255	
3590.666	1	1	0	0	0.16545	0.018883	0.17725	0.11222	0.21242	0.10849	0.089534	0.22604	0.090698	0.10964	0.3556	0.069549	0.23997	0.13091	0.083462	0.11165	-2.4625	-2.6604	-2.6479	-3.0979	-2.4979	-2.6229	-3.0104	-2.5979	-2.9437	-2.8833	-2.5896	-2.9146	-2.5083	-2.7792	-2.9688	-2.6188	99.377	87.321	198.358	268.262	186.973	401.563	307.197	382.438	171.895	232.152	387.556	360.592	91.147	290.007	167.242	374.991	0.0015999	0.0027548	0.00061692	623.18	3.6334e-05	1.0064e-05	867.11	241.13	7.4088e-05	4.2561e-05	350.67	148.61	108.05	57.067	1.4279e-05	80.849	0.0050104	0.0056073	0.0014051	1155.6	5.7148e-05	6.1035e-05	1389.2	396.9	5.7201e-05	5.9704e-05	658.95	226.32	222.51	87.535	5.2747e-05	113.62	227.717	318.891	323.284	77.279	202.935	253.012	75.551	83.841	266.427	401.417	80.288	85.191	88.549	91.923	69.681	88.188	-8191	255	
3590.762	1	1	0	0	0.18272	0.065335	0.21914	0.14922	0.064486	0.13157	0.11589	0.22739	0.11542	0.15752	0.1773	0.023443	0.1742	0.24405	0.21681	0.37886	-2.3667	-2.7167	-2.5354	-2.975	-2.7042	-2.6542	-3.0875	-2.7083	-2.7708	-2.9021	-2.6271	-3.0542	-2.7479	-2.6729	-2.9375	-2.5896	155.829	262.724	175.671	104.454	199.205	223.154	293.855	68.954	160.615	174.862	289.305	255.654	379.907	387.149	168.490	329.998	0.0015094	0.0029636	0.00053612	628.71	2.8253e-05	8.4432e-06	869.2	241.85	3.5428e-05	1.1544e-05	349.66	147.37	106.48	56.789	2.3383e-05	80.665	0.0051459	0.0052314	0.0013316	1139.6	5.8462e-05	5.7151e-05	1359.7	395.63	5.9297e-05	5.6807e-05	648.78	227.22	226.92	85.717	5.1435e-05	114.52	228.948	330.010	315.693	77.168	218.198	396.535	75.705	84.100	258.613	409.141	80.944	85.073	88.807	91.874	385.604	88.277	-8191	255	
3590.883	1	1	0	0	0.13477	0.099585	0.16987	0.18214	0.071175	0.27501	0.17245	0.32833	0.1408	0.14387	0.29371	0.24006	0.06108	0.036272	0.24724	0.15724	-2.3312	-2.8271	-2.4229	-2.8583	-2.5917	-2.5833	-3.0625	-2.7521	-2.7667	-2.8542	-2.6688	-3.05	-2.7729	-2.7792	-3.0625	-2.4958	314.840	153.576	106.303	305.296	347.235	310.520	330.916	394.686	191.404	70.740	274.012	390.260	336.438	305.651	425.723	68.282	0.00085051	0.0045621	0.00036347	633.68	7.287e-06	3.1279e-05	874.71	242.14	1.3595e-05	1.872e-05	352.32	147.89	105.07	56.66	1.0752e-05	80.511	0.005246	0.0049215	0.0012705	1154	5.8215e-05	5.2995e-05	1329.5	399.92	5.7869e-05	5.2849e-05	630.34	230.59	223.23	83.362	4.8975e-05	116.55	242.052	306.100	378.298	77.444	260.840	368.284	75.514	84.137	281.793	387.728	80.086	85.144	89.185	92.139	206.943	88.631	-8191	255	
3590.954	1	1	0	0	0.097976	0.21016	0.15255	0.06965	0.17811	0.21046	0.46239	0.11344	0.087608	0.065123	0.20247	0.37696	0.19117	0.19472	0.1257	0.12842	-2.3083	-2.7167	-2.2771	-3.0417	-2.6854	-2.6188	-2.9583	-2.75	-2.7979	-2.9146	-2.5187	-2.9562	-3.0563	-2.675	-2.8479	-2.7	82.667	188.973	326.157	292.758	267.742	202.791	410.210	231.355	239.720	349.070	382.439	354.792	367.329	395.397	382.522	377.623	0.00020358	0.0030655	0.00022358	635.97	3.2941e-05	1.6602e-05	868.57	242.62	2.2015e-05	3.5017e-06	350.6	149.19	104.81	56.424	2.6428e-05	80.833	0.0050681	0.0046894	0.0012379	1184.7	5.5944e-05	5.0909e-05	1313.3	408.87	5.5017e-05	5.0597e-05	622.21	234.88	215.77	81.895	4.8121e-05	118.53	246.236	255.896	174.839	77.861	412.565	262.681	75.276	83.953	369.436	384.861	80.297	85.277	88.418	91.941	204.397	88.575	-8191	255	
3591.050	1	1	0	0	0.18776	0.24071	0.0858	0.12645	0.32619	0.19387	0.14576	0.1247	0.19092	0.017678	0.27427	0.1159	0.094053	0.20613	0.13759	0.22764	-2.1312	-2.9354	-2.5438	-3	-2.7708	-2.6083	-3.1667	-2.8042	-2.65	-2.8854	-2.6875	-3.0875	-2.925	-2.6479	-3.1125	-2.9208	141.051	250.679	343.184	207.359	412.408	422.620	375.863	293.448	93.156	180.693	86.800	370.419	392.228	99.108	314.035	378.421	0.00035537	0.0027491	0.00073503	631.83	3.6157e-05	2.388e-05	875.91	241.43	2.8883e-05	1.6109e-06	355.45	147.31	105.65	56.462	1.0817e-05	79.868	0.0047886	0.0045042	0.0012281	1204.6	5.309e-05	4.9232e-05	1324.9	416.12	5.2525e-05	4.9143e-05	634.16	238.09	210.16	81.132	5.035e-05	119.74	235.860	338.000	194.003	77.364	418.324	330.553	76.101	84.127	405.158	339.131	80.840	85.097	88.437	92.160	213.516	88.119	-8191	255	
3591.171	1	1	0	0	0.18275	0.1054	0.062747	0.4188	0.11614	0.18307	0.31912	0.22739	0.15936	0.091251	0.15001	0.13829	0.12889	0.20023	0.1039	0.26514	-2.1521	-3.0938	-2.5083	-2.8146	-2.8229	-2.4833	-2.8917	-2.8333	-2.6583	-2.8854	-2.6479	-2.9	-3.0167	-2.6792	-2.8292	-2.8771	160.836	403.364	234.354	396.378	397.750	371.855	341.813	349.653	166.906	275.037	160.908	91.445	68.352	103.910	115.399	353.233	0.00011356	0.00078479	0.0020232	625.59	2.6954e-05	2.153e-05	879.09	240.62	2.2069e-05	1.4204e-05	356.12	147.16	105.72	56.491	3.8907e-05	79.72	0.004603	0.0044246	0.0013029	1214.4	5.0909e-05	4.8114e-05	1357.9	413.88	5.0052e-05	4.7377e-05	649.19	234.3	203.39	79.839	5.2398e-05	117.03	311.339	265.087	197.295	77.027	345.813	350.231	76.217	84.089	419.277	68.381	80.672	84.987	88.760	92.369	213.410	88.126	-8191	255	
3591.265	1	1	0	0	0.3008	0.1479	0.18116	0.078969	0.19144	0.24437	0.028785	0.27176	0.29203	0.30146	0.17393	0.050801	0.16521	0.054656	0.10066	0.051919	-2.1875	-2.7479	-2.575	-2.7938	-2.9083	-2.675	-2.9021	-2.75	-2.6688	-3.1979	-2.7667	-2.8104	-3.0521	-2.7667	-2.7438	-2.9021	175.219	92.611	397.988	324.538	366.049	255.378	153.613	254.763	326.870	408.903	423.005	266.452	419.791	418.827	288.788	288.027	0.00041304	0.00093777	0.00097997	623.51	1.4106e-05	1.6818e-05	878.68	242.38	1.8287e-05	2.7798e-05	356.07	147	105.71	57.014	3.2636e-06	79.699	0.004367	0.0042666	0.0013628	1186.6	4.9368e-05	4.7844e-05	1395.9	408.25	4.9898e-05	4.8332e-05	676.68	232.8	203.7	81.185	5.641e-05	116.34	263.033	200.264	175.473	77.317	417.808	176.847	75.936	83.311	90.712	213.879	80.910	84.720	88.548	92.216	161.126	87.817	-8191	255	
3591.362	1	1	0	0	0.165	0.16032	0.18964	0.25056	0.11446	0.016709	0.38734	0.11665	0.14509	0.018029	0.023553	0.099531	0.033951	0.071665	0.22516	0.25113	-2.0771	-2.8146	-2.7146	-2.7167	-2.9938	-2.6208	-3.1042	-2.9021	-2.5875	-2.9521	-2.7229	-2.9604	-2.9354	-2.3896	-2.6542	-2.9354	371.664	123.307	317.611	311.238	78.349	207.290	360.124	406.739	237.650	221.304	411.739	370.575	209.665	141.735	104.942	401.074	0.00060068	0.0023984	0.00014538	621.44	1.2608e-05	4.5722e-05	879.41	240.41	7.0386e-06	4.5834e-05	350.92	147.17	104.97	57.439	1.3071e-05	80.206	0.0043861	0.0044552	0.0014425	1169.2	4.8846e-05	5.0038e-05	1421.2	401.69	4.9202e-05	5.149e-05	691.39	230.19	203.32	83.738	5.8103e-05	115.32	258.065	106.637	160.460	77.161	418.270	177.630	75.714	83.588	364.039	190.693	80.267	84.918	88.783	92.034	350.641	88.004	-8191	255	
3591.482	1	1	0	0	0.12932	0.16986	0.10992	0.18973	0.09106	0.12502	0.19645	0.12243	0.25753	0.40915	0.11133	0.024486	0.19314	0.28863	0.078872	0.26819	-1.875	-2.8479	-2.7521	-2.7417	-2.825	-2.5958	-2.6208	-2.9042	-2.4188	-3.0229	-2.8458	-2.6917	-2.8417	-2.6958	-2.8271	-2.9813	189.237	310.224	116.053	374.654	160.456	86.186	340.687	300.947	239.731	228.723	309.420	242.691	115.767	398.347	106.792	386.507	0.00041439	0.006459	0.00058712	626.04	1.6248e-05	7.6798e-05	878.12	239.72	3.2153e-05	5.3894e-05	349.12	147.41	105.68	57.845	3.2453e-05	80.833	0.0043543	0.0047998	0.0014573	1150.7	4.806e-05	5.3719e-05	1419.6	396.9	4.8969e-05	5.5404e-05	687.39	229.28	204.53	87.108	5.8032e-05	116.42	211.638	109.204	344.697	77.278	81.506	183.358	75.502	83.545	301.244	258.093	80.171	84.608	89.171	92.268	400.036	88.138	-8191	255	
3591.554	1	1	0	0	0.38005	0.13813	0.1998	0.080564	0.063046	0.1559	0.18846	0.14849	0.020255	0.21468	0.14472	0.097493	0.28161	0.17219	0.16501	0.39333	-2.025	-2.6458	-2.9333	-2.65	-2.9979	-2.9354	-2.5938	-2.9229	-2.475	-2.8083	-2.8708	-2.6125	-2.7854	-2.7521	-2.7375	-2.9688	324.595	414.040	83.105	353.100	127.494	406.174	373.425	397.206	232.659	345.870	278.434	409.599	363.904	73.976	289.420	70.863	0.0013222	0.0038465	0.00084652	623.37	3.048e-05	2.7854e-05	875.54	239.73	2.341e-05	1.8614e-05	354.32	146.72	105.9	57.438	2.0698e-05	80.324	0.0045135	0.0053268	0.0014672	1162.7	4.9956e-05	5.8296e-05	1406.2	396.1	4.994e-05	5.8027e-05	667.93	225.29	205.34	87.703	5.4462e-05	113.94	227.619	115.478	316.659	76.926	273.598	171.389	75.345	83.532	251.699	128.299	79.761	85.217	88.981	92.291	384.748	88.270	-8191	255	
3591.650	1	1	0	0	0.02754	0.19751	0.042156	0.34469	0.13624	0.0054114	0.086522	0.23199	0.047239	0.34727	0.19056	0.1852	0.093393	0.29902	0.18051	0.12001	-2.1271	-2.9271	-2.7792	-2.5958	-3.1375	-2.7292	-2.6167	-2.9271	-2.5833	-2.7042	-2.8583	-2.5625	-2.9792	-2.8833	-2.4437	-3.025	160.992	243.938	176.905	334.738	293.678	364.145	330.259	342.165	124.401	411.721	277.933	77.362	370.607	386.998	215.734	94.791	0.0011048	0.0010748	0.00084095	619.55	3.0116e-05	1.9154e-05	869.14	240.81	4.9519e-05	2.8302e-05	350.85	147.33	108.76	56.973	2.5349e-05	80.224	0.0045864	0.0054034	0.0013892	1144.3	5.2713e-05	6.0206e-05	1387.8	394.58	5.3887e-05	6.0076e-05	662.81	226.51	216.55	88.802	5.4093e-05	114.27	246.479	362.743	368.622	76.781	207.808	183.659	75.563	83.579	270.584	69.784	80.390	84.432	88.380	92.098	374.684	87.957	-8191	255	
3591.746	1	1	0	0	0.20467	0.21459	0.13478	0.14892	0.34208	0.15187	0.13619	0.28805	0.15402	0.0592	0.21448	0.1599	0.22265	0.37156	0.11615	0.37018	-2.0521	-2.6208	-2.9437	-2.4958	-3.0667	-2.9417	-2.5583	-3.0833	-2.7229	-2.7958	-2.8583	-2.6667	-2.9979	-2.9292	-2.4375	-3.1771	140.606	332.779	312.998	172.751	398.556	375.243	82.424	338.726	201.038	114.855	375.521	424.922	354.780	403.316	205.118	362.907	0.0016416	0.0018051	0.00059937	625.57	6.1194e-05	2.2813e-05	868.04	242.51	6.4977e-05	2.9554e-05	351.47	148.07	107.82	56.793	1.5981e-05	80.581	0.0050153	0.0054625	0.001376	1149.9	5.696e-05	5.9593e-05	1379.8	394.29	5.7536e-05	5.8487e-05	654.92	225.63	223.11	86.909	5.2307e-05	113.57	232.925	324.212	396.721	77.474	213.646	406.932	75.451	83.374	235.335	372.966	80.074	85.300	88.373	91.952	69.121	88.366	-8191	255	
3591.842	1	1	0	0	0.12905	0.22561	0.11571	0.15308	0.23686	0.19632	0.16442	0.14037	0.034562	0.02217	0.051231	0.10919	0.26368	0.18663	0.15117	0.2436	-2.1208	-2.6792	-2.775	-2.7	-2.6667	-2.9958	-2.5771	-3.0646	-2.7938	-2.6188	-3.0292	-2.6479	-2.6312	-2.8438	-2.4771	-3.1375	242.821	132.003	371.148	414.547	99.654	120.971	337.282	367.141	107.905	270.113	354.420	411.548	85.790	396.096	423.861	354.731	0.00096049	0.001601	0.00088081	630.65	2.3364e-05	4.1791e-05	870.15	242.46	1.9982e-05	2.0008e-05	352.47	150.32	107.16	57.17	2.0633e-05	81.153	0.0052	0.0051458	0.0013223	1148.6	5.9096e-05	5.6628e-05	1363.9	398.99	6.0172e-05	5.6362e-05	648.04	231.05	229.16	86.034	5.1916e-05	116.85	246.976	265.122	355.747	77.250	225.259	327.636	75.384	83.957	303.216	382.182	80.283	85.247	88.807	92.005	414.022	88.361	-8191	255	
3591.963	1	1	0	0	0.11616	0.21784	0.22728	0.076921	0.24388	0.22295	0.36712	0.092006	0.24631	0.1761	0.088077	0.26918	0.36035	0.10185	0.3787	0.31809	-2.4313	-2.6917	-3.0396	-2.6146	-2.8229	-2.9667	-2.4479	-2.8937	-2.7646	-2.5458	-3.1542	-2.7854	-2.5583	-2.9792	-2.5396	-2.9	158.053	373.553	276.259	415.680	261.085	251.726	322.991	327.529	108.873	221.412	319.673	351.752	67.172	109.974	338.814	392.102	0.00080985	0.00090318	0.0007957	633.69	1.0302e-05	2.6402e-05	874.3	243.65	1.4409e-05	1.2827e-05	350.85	148.39	105.39	56.973	5.7902e-06	81.18	0.0053828	0.0050201	0.0013092	1190.8	6.0345e-05	5.4932e-05	1356	411.84	6.0288e-05	5.4726e-05	642.15	237.41	227.73	84.9	5.0819e-05	119.48	246.082	269.443	384.806	77.419	326.835	334.412	75.380	84.035	119.068	71.041	80.430	84.919	88.664	92.050	328.792	88.430	-8191	255	
3592.059	1	1	0	0	0.18612	0.12379	0.25971	0.22549	0.075463	0.028019	0.18073	0.30805	0.117	0.25511	0.22726	0.20119	0.12812	0.24602	0.13122	0.48554	-2.4104	-2.4646	-3.0438	-2.5917	-2.675	-2.8896	-2.6521	-2.9875	-2.8917	-2.8604	-3.2396	-2.5792	-3.0292	-3.0062	-2.5604	-2.975	90.600	72.466	222.240	116.474	326.439	275.317	382.862	359.072	213.718	325.210	261.945	77.334	329.218	375.169	286.701	412.857	0.00025971	0.0021458	0.00029779	630.98	1.458e-05	8.9033e-06	867.13	244.71	3.5611e-05	4.8595e-06	350.32	147.72	104.98	57.092	3.4055e-05	80.419	0.0052419	0.0048483	0.0012786	1223.9	5.8056e-05	5.3162e-05	1347.1	422.42	5.7933e-05	5.3428e-05	643.05	242.57	222.2	83.928	5.1775e-05	121.77	258.811	309.896	138.966	77.328	422.423	335.188	75.626	83.938	420.813	75.086	80.519	84.954	88.932	92.170	219.953	88.142	-8191	255	
3592.155	1	1	0	0	0.24624	0.28387	0.1341	0.17332	0.20105	0.11166	0.20151	0.20736	0.095352	0.096765	0.029116	0.20536	0.11992	0.25002	0.19961	0.13057	-2.3604	-2.4688	-2.8354	-2.7042	-2.7562	-3.1375	-2.6	-3.0521	-2.9396	-2.4333	-2.9354	-2.8958	-2.5812	-3.0875	-2.5187	-2.9208	75.160	406.767	87.366	338.061	190.874	386.395	387.325	376.238	66.256	243.729	246.124	375.862	348.738	321.591	388.633	105.461	0.00038749	0.0014092	0.0006313	631.81	2.514e-05	1.1066e-05	876.05	241.05	1.9047e-05	1.6121e-05	355.94	147.79	103.78	56.273	4.3593e-05	80.592	0.0050156	0.0047397	0.001308	1243.5	5.4728e-05	5.0891e-05	1355.7	422.59	5.3573e-05	5.0612e-05	646.06	241.65	212.33	82.047	5.3099e-05	121.22	258.232	290.270	235.653	77.325	402.468	382.957	75.857	83.730	420.482	421.132	80.457	85.149	88.732	92.629	223.423	88.044	-8191	255	
3592.251	1	1	0	0	0.21014	0.21101	0.24085	0.078476	0.21205	0.092192	0.23899	0.073254	0.15511	0.18464	0.10419	0.36775	0.046762	0.27548	0.12838	0.075085	-2.2333	-2.4875	-2.7708	-2.9729	-2.6958	-2.8896	-2.6479	-2.9	-2.975	-2.4854	-3.0146	-2.8667	-2.6229	-3.1167	-2.5479	-2.9813	285.371	273.096	220.157	365.607	287.326	309.281	387.502	318.310	190.593	328.138	319.353	90.887	267.983	73.044	114.473	390.492	0.00048023	0.0010784	0.0010876	623.3	1.7107e-05	8.3468e-06	879.58	240.92	2.252e-05	2.5886e-05	359.73	146.9	104.24	57.088	3.7945e-05	79.787	0.0047514	0.004578	0.0013768	1240.8	5.2912e-05	5.0008e-05	1399.1	421.51	5.2454e-05	5.0036e-05	674.17	239.59	210.01	81.798	5.6801e-05	119.56	229.342	216.389	200.678	77.505	154.870	286.883	76.046	83.967	83.550	167.209	80.818	84.888	89.239	92.206	185.074	88.062	-8191	255	
3592.346	1	1	0	0	0.20667	0.15699	0.13898	0.14281	0.15203	0.099643	0.071685	0.23945	0.12778	0.13176	0.080706	0.28773	0.22213	0.10657	0.0013134	0.21266	-2.55	-2.3604	-2.8896	-2.875	-2.4229	-2.9062	-2.8187	-2.8812	-2.8375	-2.5896	-2.8125	-2.8479	-2.5458	-2.9958	-2.6604	-2.8208	394.769	86.664	65.922	350.962	363.232	160.509	134.466	397.583	356.641	287.350	352.368	388.199	72.517	85.360	180.000	317.300	0.00057157	0.001977	0.00086308	622.85	1.3797e-05	3.606e-05	880.71	239.59	9.8981e-06	4.123e-05	358.61	146.81	104.91	56.929	3.5296e-05	79.38	0.0046187	0.0045124	0.0014422	1204.5	5.0691e-05	4.9053e-05	1417.9	407.89	4.9879e-05	4.9289e-05	681.79	231.61	203.76	81.462	5.7472e-05	115.85	205.227	109.788	187.786	77.235	387.642	210.585	75.992	83.645	402.292	231.369	80.627	84.773	88.084	92.403	183.824	88.320	-8191	255	
#DATA ENDS
