BOXY.EXE: ISS Imagent and Oximeter Data Acquisition Program Version 0.80
Ascii Record File

#ACQ INFORMATION
2  Detector Channels 
16  External MUX Channels 
1  Auxiliary Channels 
5000  Waveform (CCF) Frequency (Hz)
1  Waveforms Skipped 
30  Waveforms Averaged 
1  Cycles Averaged 
16  Acquisitions per Waveform 
10.0806  Updata Rate (Hz) 

#FILE INFORMATION
TRUE -- External MUX Channel results are PARSED.
FALSE -- AC DC and Phase are NOT grouped.
TRUE -- Companion Program Settings File CREATED.
FALSE -- AC data not excluded
FALSE -- DC data not excluded
FALSE -- Phase data not excluded
FALSE -- Auxillary Chn. data not excluded
Tab delimiters

#CALIBRATION STATE
TRUE -- Waveform Calibration Values APPLIED.


#AUX CALIBRATION VALUES
Val Type	aux-1	

Term	1.0000e+00	
Factor	0.0000e+00	


#WF CALIBRATION VALUES
A = Detector Channel
Val Type	A-AC1	A-AC2	A-AC3	A-AC4	A-AC5	A-AC6	A-AC7	A-AC8	A-AC9	A-AC10	A-AC11	A-AC12	A-AC13	A-AC14	A-AC15	A-AC16	A-DC1	A-DC2	A-DC3	A-DC4	A-DC5	A-DC6	A-DC7	A-DC8	A-DC9	A-DC10	A-DC11	A-DC12	A-DC13	A-DC14	A-DC15	A-DC16	A-Ph1	A-Ph2	A-Ph3	A-Ph4	A-Ph5	A-Ph6	A-Ph7	A-Ph8	A-Ph9	A-Ph10	A-Ph11	A-Ph12	A-Ph13	A-Ph14	A-Ph15	A-Ph16	

Term	0.00000e+00	0.00000e+00	0.00000e+00	0.00000e+00	0.00000e+00	0.00000e+00	0.00000e+00	0.00000e+00	0.00000e+00	0.00000e+00	0.00000e+00	0.00000e+00	0.00000e+00	0.00000e+00	0.00000e+00	0.00000e+00	0.00000e+00	0.00000e+00	0.00000e+00	0.00000e+00	0.00000e+00	0.00000e+00	0.00000e+00	0.00000e+00	0.00000e+00	0.00000e+00	0.00000e+00	0.00000e+00	0.00000e+00	0.00000e+00	0.00000e+00	0.00000e+00	0.00000e+00	0.00000e+00	0.00000e+00	0.00000e+00	0.00000e+00	0.00000e+00	0.00000e+00	0.00000e+00	0.00000e+00	0.00000e+00	0.00000e+00	0.00000e+00	0.00000e+00	0.00000e+00	0.00000e+00	0.00000e+00	
Factor	1.00000e+00	1.00000e+00	1.00000e+00	1.00000e+00	1.00000e+00	1.00000e+00	1.00000e+00	1.00000e+00	1.00000e+00	1.00000e+00	1.00000e+00	1.00000e+00	1.00000e+00	1.00000e+00	1.00000e+00	1.00000e+00	1.00000e+00	1.00000e+00	1.00000e+00	1.00000e+00	1.00000e+00	1.00000e+00	1.00000e+00	1.00000e+00	1.00000e+00	1.00000e+00	1.00000e+00	1.00000e+00	1.00000e+00	1.00000e+00	1.00000e+00	1.00000e+00	X	X	X	X	X	X	X	X	X	X	X	X	X	X	X	X	

B = Detector Channel
Val Type	B-AC1	B-AC2	B-AC3	B-AC4	B-AC5	B-AC6	B-AC7	B-AC8	B-AC9	B-AC10	B-AC11	B-AC12	B-AC13	B-AC14	B-AC15	B-AC16	B-DC1	B-DC2	B-DC3	B-DC4	B-DC5	B-DC6	B-DC7	B-DC8	B-DC9	B-DC10	B-DC11	B-DC12	B-DC13	B-DC14	B-DC15	B-DC16	B-Ph1	B-Ph2	B-Ph3	B-Ph4	B-Ph5	B-Ph6	B-Ph7	B-Ph8	B-Ph9	B-Ph10	B-Ph11	B-Ph12	B-Ph13	B-Ph14	B-Ph15	B-Ph16	

Term	0.00000e+00	0.00000e+00	0.00000e+00	0.00000e+00	0.00000e+00	0.00000e+00	0.00000e+00	0.00000e+00	0.00000e+00	0.00000e+00	0.00000e+00	0.00000e+00	0.00000e+00	0.00000e+00	0.00000e+00	0.00000e+00	0.00000e+00	0.00000e+00	0.00000e+00	0.00000e+00	0.00000e+00	0.00000e+00	0.00000e+00	0.00000e+00	0.00000e+00	0.00000e+00	0.00000e+00	0.00000e+00	0.00000e+00	0.00000e+00	0.00000e+00	0.00000e+00	-1.80303e+02	-1.38097e+02	-1.19944e+02	-1.80819e+02	-7.90061e+01	-8.11867e+01	-1.57378e+02	-1.62015e+02	-8.94823e+01	-7.32125e+01	-1.71564e+02	-1.71541e+02	-1.83671e+02	-1.76147e+02	-9.09538e+01	-1.49257e+02	
Factor	2.87017e-05	1.45962e-04	4.30770e-05	1.57142e-01	1.46671e-06	1.61965e-06	1.59980e-01	4.53428e-02	1.43660e-06	1.32136e-06	7.50420e-02	2.82269e-02	3.42424e-02	8.08152e-03	1.41912e-06	1.17899e-02	2.86743e-06	3.12586e-06	8.73151e-07	7.88825e-02	3.38613e-08	3.44756e-08	7.56613e-02	2.28643e-02	3.41259e-08	3.46871e-08	3.65790e-02	1.37491e-02	1.70758e-02	4.08423e-03	3.47117e-08	5.78306e-03	X	X	X	X	X	X	X	X	X	X	X	X	X	X	X	X	



#DISTANCE SETTINGS
A = Detector Channel
A-1	A-2	A-3	A-4	A-5	A-6	A-7	A-8	A-9	A-10	A-11	A-12	A-13	A-14	A-15	A-16	

2.5000e+00	3.0000e+00	2.5000e+00	3.0000e+00	2.0000e+00	3.0000e+00	1.5000e+00	3.0000e+00	3.0000e+00	3.0000e+00	3.0000e+00	3.0000e+00	3.0000e+00	3.0000e+00	1.5000e+00	3.0000e+00	

B = Detector Channel
B-1	B-2	B-3	B-4	B-5	B-6	B-7	B-8	B-9	B-10	B-11	B-12	B-13	B-14	B-15	B-16	

1.0000e+01	1.0000e+01	1.0000e+01	1.4400e+00	1.0000e+01	1.0000e+01	1.5100e+00	1.9400e+00	1.0000e+01	1.0000e+01	1.9900e+00	2.4900e+00	2.4100e+00	2.9000e+00	1.0000e+01	2.9800e+00	




#DATA BEGINS
time	group	step	mark	flag	A-AC1	A-AC2	A-AC3	A-AC4	A-AC5	A-AC6	A-AC7	A-AC8	A-AC9	A-AC10	A-AC11	A-AC12	A-AC13	A-AC14	A-AC15	A-AC16	A-DC1	A-DC2	A-DC3	A-DC4	A-DC5	A-DC6	A-DC7	A-DC8	A-DC9	A-DC10	A-DC11	A-DC12	A-DC13	A-DC14	A-DC15	A-DC16	A-Ph1	A-Ph2	A-Ph3	A-Ph4	A-Ph5	A-Ph6	A-Ph7	A-Ph8	A-Ph9	A-Ph10	A-Ph11	A-Ph12	A-Ph13	A-Ph14	A-Ph15	A-Ph16	B-AC1	B-AC2	B-AC3	B-AC4	B-AC5	B-AC6	B-AC7	B-AC8	B-AC9	B-AC10	B-AC11	B-AC12	B-AC13	B-AC14	B-AC15	B-AC16	B-DC1	B-DC2	B-DC3	B-DC4	B-DC5	B-DC6	B-DC7	B-DC8	B-DC9	B-DC10	B-DC11	B-DC12	B-DC13	B-DC14	B-DC15	B-DC16	B-Ph1	B-Ph2	B-Ph3	B-Ph4	B-Ph5	B-Ph6	B-Ph7	B-Ph8	B-Ph9	B-Ph10	B-Ph11	B-Ph12	B-Ph13	B-Ph14	B-Ph15	B-Ph16	aux-1	digaux	

7516.078	1	1	0	768	0.18062	0.22423	0.1922	0.20373	0.13583	0.33636	0.19466	0.24141	0.1599	0.15149	0.17761	0.17102	0.17278	0.11013	0.044575	0.31082	-2.2313	-2.725	-2.9875	-2.7521	-2.8146	-2.6875	-2.7167	-2.95	-2.7292	-2.7104	-2.8958	-2.575	-2.7146	-2.8312	-2.6875	-3.0375	236.668	229.729	156.575	358.685	349.682	326.996	289.759	18.479	260.975	66.007	297.611	310.761	274.667	287.845	228.047	314.388	0.00049884	0.00025738	0.00022733	1285.1	5.1237e-06	6.6053e-06	1287.3	345.17	6.36e-06	3.6152e-06	398.16	132.92	115.23	39.262	6.1744e-06	49.49	0.00033598	0.00031722	8.8252e-05	1295.8	3.515e-06	3.4974e-06	1299.2	350.04	3.4806e-06	3.5308e-06	403.05	135.15	116.15	40.07	3.5609e-06	50.344	86.967	86.330	107.026	18.939	181.295	138.356	18.768	23.578	166.249	150.016	23.115	27.600	28.210	32.621	169.797	32.005	-8191	255	
7516.174	1	1	0	0	0.12056	0.038592	0.24681	0.38932	0.28266	0.20323	0.28453	0.15462	0.18154	0.063881	0.24757	0.30894	0.1222	0.11497	0.24588	0.45266	-2.1833	-2.7042	-2.9708	-2.8271	-2.6958	-2.8438	-2.775	-3.1375	-2.7479	-2.7208	-3.0479	-2.6104	-2.8187	-2.9375	-2.6813	-3.0917	298.419	319.499	172.603	290.399	51.196	53.146	296.799	334.263	193.166	190.628	309.992	330.351	147.383	336.728	352.499	341.118	0.00047596	0.00061807	0.00017421	1283.9	7.4164e-06	2.9566e-06	1286	346.28	3.0428e-06	3.4727e-06	397.22	133.13	114.76	39.368	3.7661e-06	49.187	0.00033791	0.00031178	8.6822e-05	1296.3	3.4977e-06	3.4065e-06	1299.4	350.23	3.5168e-06	3.4856e-06	402.7	135.16	116.1	40.063	3.5357e-06	50.269	93.339	81.899	90.911	19.059	163.048	107.619	18.838	23.745	150.349	118.204	23.090	27.502	28.159	32.637	162.095	31.900	-8191	255	
7516.270	1	1	0	0	0.32024	0.25343	0.12019	0.12705	0.18088	0.025996	0.29362	0.068841	0.12076	0.086996	0.34386	0.028212	0.24012	0.11593	0.15422	0.19584	-2.2583	-2.4479	-2.7708	-2.6437	-2.8167	-2.7917	-2.8146	-2.9562	-2.5729	-2.6333	-3.0583	-2.8354	-2.8542	-3.0604	-2.5687	-2.8937	88.427	74.688	175.784	350.658	211.799	244.334	348.519	248.203	320.429	363.832	335.307	69.897	257.737	18.275	113.203	248.770	0.00047401	0.00063814	0.0001524	1282.8	4.0799e-06	3.9536e-06	1286.7	345.76	3.8243e-06	4.9105e-06	398.72	132.66	114.65	39.137	7.1427e-06	49.323	0.0003338	0.00032067	8.8012e-05	1295.4	3.5556e-06	3.4922e-06	1300.6	350.42	3.6682e-06	3.5813e-06	403.27	135.02	116.08	39.979	3.738e-06	50.269	94.664	81.459	78.640	18.841	154.320	97.986	18.723	23.600	175.751	166.885	23.088	27.770	28.192	32.699	151.803	31.857	-8191	255	
7516.366	1	1	0	0	0.11237	0.11043	0.049802	0.37472	0.30911	0.033346	0.17093	0.0524	0.11434	0.24945	0.1519	0.052628	0.13834	0.0086371	0.14014	0.24672	-2.2292	-2.5875	-2.9896	-2.6583	-2.5521	-3.0417	-2.7687	-2.8833	-2.825	-2.6104	-3.0646	-2.8667	-2.7667	-2.7458	-2.5646	-2.7792	98.162	278.934	295.478	273.112	103.929	87.393	264.054	265.692	40.901	205.585	258.621	90.025	143.404	91.415	8.653	348.243	0.00057992	0.00067412	0.00014393	1286.4	5.3586e-06	6.272e-06	1288.6	345.28	4.4987e-06	2.1376e-06	398.3	132.58	114.8	39.105	6.2946e-06	49.188	0.00034812	0.00033378	9.3345e-05	1298.5	3.7174e-06	3.6243e-06	1301.5	350.43	3.7324e-06	3.7076e-06	403.01	134.97	116.04	39.949	3.8163e-06	50.161	87.915	84.963	110.858	19.046	188.416	155.184	18.685	23.672	161.924	132.584	22.958	27.620	28.079	32.781	131.019	31.895	-8191	255	
7516.462	1	1	0	0	0.04491	0.23883	0.20587	0.27383	0.17717	0.10275	0.18707	0.50954	0.44829	0.22604	0.33791	0.31255	0.30529	0.15853	0.090503	0.16366	-2.2708	-2.4375	-2.9708	-2.9146	-2.4729	-3.0375	-2.7125	-2.9958	-2.775	-2.5583	-3.0771	-2.9	-2.7667	-2.9833	-2.5833	-2.9813	350.150	315.720	214.061	306.515	194.189	109.175	293.704	294.123	77.069	217.599	293.602	6.066	362.600	338.726	315.499	329.507	0.00052668	0.00065893	0.00012311	1284.1	4.6516e-06	5.2846e-06	1287.7	346.33	4.4725e-06	5.3582e-06	398.36	132.65	114.16	38.956	4.7766e-06	49.066	0.00035652	0.00034635	9.473e-05	1297.6	3.7865e-06	3.7928e-06	1301.8	350.68	3.7847e-06	3.7639e-06	403.5	134.86	115.73	39.882	3.9237e-06	50.104	92.921	83.632	54.225	18.744	164.973	125.081	18.772	23.637	132.597	166.996	22.941	27.494	28.137	32.748	135.804	31.912	-8191	255	
7516.559	1	1	0	0	0.06332	0.12949	0.047495	0.16397	0.28374	0.29079	0.19418	0.082901	0.096516	0.19855	0.38015	0.14957	0.2097	0.16771	0.15093	0.18579	-2.4646	-2.5125	-3.1271	-3.0938	-2.7396	-3.1021	-2.6437	-2.9792	-2.9646	-2.4625	-2.8937	-2.95	-2.6021	-3.1354	-2.7833	-2.7062	198.291	273.558	274.237	288.831	145.772	361.635	320.448	321.844	303.723	229.879	349.184	208.818	363.054	230.516	190.561	256.337	0.00049045	0.00051974	0.00013606	1290.4	5.732e-06	6.8492e-06	1289	345.36	3.4006e-06	4.5804e-06	397.81	132.57	114.41	39.02	4.8502e-06	49.044	0.00036262	0.00034999	9.9798e-05	1299.4	3.872e-06	3.8876e-06	1303.1	350.84	3.9685e-06	3.9326e-06	404	134.78	116.07	39.88	3.989e-06	50.086	87.515	91.269	65.215	18.935	157.282	142.306	18.845	23.682	126.794	152.210	22.993	27.786	28.161	32.836	141.583	32.020	-8191	255	
7516.679	1	1	0	0	0.062736	0.15747	0.12082	0.09155	0.23315	0.17529	0.20619	0.28092	0.093487	0.24017	0.27908	0.030338	0.086674	0.081415	0.33791	0.055972	-2.6396	-2.8042	-2.8937	-2.9	-2.5708	-2.9354	-2.725	-2.9396	-2.8583	-2.5854	-2.9354	-2.8479	-2.6479	-3.0062	-2.8042	-2.7292	289.662	107.201	188.697	38.448	78.417	29.600	317.379	344.257	122.555	148.438	298.952	302.856	299.895	255.218	123.907	97.653	0.00052812	0.00043396	0.00013713	1284.9	3.515e-06	4.068e-06	1290.4	347.62	2.7678e-06	6.4414e-06	397.12	132.57	114.21	38.915	5.6735e-06	49.073	0.00037621	0.00035474	9.8732e-05	1301	3.9089e-06	3.8957e-06	1304	351.57	3.8858e-06	3.9269e-06	403.75	134.81	115.84	39.849	3.9737e-06	50.146	87.118	78.232	162.911	18.926	202.848	150.026	18.812	23.771	173.851	141.986	23.185	27.748	28.139	32.887	156.430	31.975	-8191	255	
7516.774	1	1	0	0	0.045015	0.010397	0.17244	0.32539	0.1573	0.082523	0.26236	0.19713	0.12487	0.21533	0.33088	0.16664	0.066953	0.16713	0.066324	0.084253	-2.4813	-2.7083	-2.8167	-2.8771	-2.6208	-2.8729	-2.8688	-2.7646	-2.8125	-2.5062	-2.8667	-2.8625	-2.7562	-2.9083	-2.8833	-2.6417	317.469	218.928	166.491	311.420	73.487	231.012	348.824	281.411	37.536	213.097	317.499	288.610	50.065	243.518	314.989	36.732	0.00048777	0.00057284	0.00013078	1290	6.4755e-06	5.0547e-06	1291.1	347	5.559e-06	3.8433e-06	399.92	132.55	114.59	39.006	2.6076e-06	49.069	0.00037301	0.00035751	9.9465e-05	1301.4	3.8846e-06	3.9179e-06	1304.7	351.43	3.9852e-06	3.9491e-06	404.23	135.01	116.1	39.894	3.9615e-06	50.132	94.574	82.342	135.997	18.857	119.462	107.426	18.983	23.495	146.639	152.737	22.955	27.545	28.113	32.703	89.013	31.948	-8191	255	
7516.870	1	1	0	0	0.1833	0.22049	0.076554	0.36015	0.14871	0.080077	0.1344	0.24456	0.12313	0.11261	0.16861	0.14267	0.2256	0.092459	0.12928	0.12991	-2.5042	-2.425	-2.7083	-2.9729	-2.4833	-2.8438	-2.9708	-2.8729	-2.8167	-2.6021	-2.7125	-3.0521	-2.8	-2.8167	-2.7125	-2.6146	124.871	235.933	162.272	282.045	337.610	135.451	347.774	358.879	18.377	33.283	43.113	267.756	69.900	189.794	157.947	222.284	0.0004533	0.00042948	0.00018504	1289	3.6266e-06	7.5139e-06	1289.5	346.16	6.6967e-06	4.6614e-06	398.61	132.92	114.4	38.999	6.2638e-06	49.183	0.00037146	0.00035522	9.8208e-05	1302.3	3.93e-06	3.9586e-06	1304.9	351.36	3.9568e-06	3.9083e-06	403.94	135.05	115.94	39.939	3.9562e-06	50.208	93.498	62.473	116.829	18.910	210.380	112.828	18.782	23.701	119.047	156.527	23.184	27.555	28.157	32.910	139.333	31.928	-8191	255	
7516.966	1	1	0	0	0.23949	0.21215	0.25994	0.28181	0.19615	0.16928	0.29547	0.4582	0.14752	0.14189	0.1401	0.16885	0.15628	0.017378	0.22895	0.15658	-2.4938	-2.8417	-2.6146	-3.0083	-2.7292	-2.8917	-2.9938	-2.8187	-2.9167	-2.55	-2.8271	-2.9646	-2.5563	-2.8563	-2.8604	-2.6813	284.120	251.813	38.602	308.035	123.002	319.244	9.390	317.308	309.948	121.984	40.129	303.413	95.040	179.675	206.573	261.103	0.00048631	0.00045918	0.00013288	1288.3	3.8107e-06	1.2897e-06	1294.9	346.67	4.0716e-06	3.8958e-06	397.76	132.87	114.72	39.048	4.9065e-06	49.14	0.00036849	0.00035086	9.8872e-05	1302.5	3.8918e-06	3.802e-06	1306.8	351.47	3.9615e-06	3.8318e-06	404.03	135.1	116.22	39.927	3.9393e-06	50.118	83.827	82.152	120.148	18.982	167.312	128.480	18.849	23.407	170.906	146.014	23.037	27.705	28.224	32.775	183.635	31.814	-8191	255	
7517.062	1	1	0	0	0.1346	0.046558	0.21459	0.31841	0.20223	0.10775	0.36772	0.18564	0.15539	0.02893	0.11043	0.20623	0.12063	0.34173	0.16315	0.12316	-2.5062	-2.6458	-2.4188	-3.2875	-2.6229	-2.7333	-2.9417	-2.6813	-2.8729	-2.8167	-2.7667	-2.975	-2.6979	-2.7667	-2.9146	-2.8708	322.621	349.373	359.208	357.259	329.005	82.570	302.788	329.846	141.289	33.480	303.394	325.280	318.427	306.211	63.762	13.483	0.0005082	0.00026951	0.00011331	1289.6	5.7861e-06	2.9913e-06	1292.6	346.93	3.1941e-06	5.1774e-06	399.35	133.34	114.28	39.119	7.1137e-06	49.222	0.0003659	0.00035134	9.8748e-05	1304.2	3.9274e-06	3.8725e-06	1305.5	351.85	3.9477e-06	3.855e-06	404.31	135.17	116.18	39.985	3.9764e-06	50.238	91.427	80.929	92.711	18.807	142.384	140.361	18.770	23.431	182.290	129.877	22.977	27.522	28.032	32.587	142.610	31.810	-8191	255	
7517.158	1	1	0	0	0.15219	0.035991	0.084592	0.35723	0.18125	0.18728	0.24034	0.22587	0.22532	0.093588	0.069801	0.18051	0.17588	0.30605	0.050818	0.23166	-2.5146	-2.6458	-2.5062	-2.9167	-2.6063	-2.4229	-2.8729	-2.7062	-2.6708	-2.7562	-2.7208	-3.0271	-2.6208	-2.6333	-2.9021	-2.6833	284.117	149.596	84.554	283.631	169.660	293.758	321.367	294.705	314.675	215.458	197.293	197.394	331.608	320.280	91.773	279.696	0.0004503	0.00038343	0.00015234	1289	3.5519e-06	5.205e-06	1293	346.23	2.3911e-06	3.9095e-06	398.33	132.86	114.56	39.042	5.5963e-06	49.271	0.00036717	0.00035409	0.00010043	1303.6	3.9268e-06	3.9026e-06	1306.2	351.81	4.0013e-06	3.959e-06	404.33	135.16	116.07	39.89	4.1112e-06	50.275	101.681	91.561	104.958	18.917	145.195	156.416	18.652	23.603	87.821	145.577	23.014	27.550	28.220	32.943	120.399	31.882	-8191	255	
7517.254	1	1	0	0	0.23401	0.052216	0.082184	0.31174	0.12662	0.15663	0.31282	0.2791	0.11406	0.091807	0.048239	0.47823	0.12988	0.14882	0.12933	0.18975	-2.2667	-2.7375	-2.3917	-2.9813	-2.7542	-2.6562	-3.2	-2.7188	-2.7583	-2.9146	-2.6521	-2.9521	-2.6688	-2.5604	-2.7729	-2.5333	219.403	184.627	46.660	279.154	265.371	265.752	352.058	5.898	223.741	220.580	33.624	321.755	99.974	55.964	135.579	329.657	0.00050265	0.00046911	0.00018141	1293.1	5.5429e-06	6.5425e-06	1293.8	345.59	6.7262e-06	3.7547e-06	399.03	132.64	114.35	39.057	7.5631e-06	49.082	0.00037597	0.00036965	0.00010316	1303.6	4.0236e-06	4.0592e-06	1307.3	351.64	4.1041e-06	4.0268e-06	405.12	135.15	116.28	39.937	4.1506e-06	50.19	94.015	93.094	89.252	18.766	171.694	141.067	18.869	23.624	175.484	166.314	22.783	27.724	28.082	32.723	148.417	31.850	-8191	255	
7517.375	1	1	0	0	0.099532	0.25485	0.28451	0.44929	0.18786	0.10827	0.15215	0.28103	0.1086	0.2405	0.20223	0.1879	0.25359	0.054113	0.4219	0.20342	-2.0771	-2.6646	-2.4208	-2.9375	-2.7833	-2.4771	-3.1042	-2.8083	-2.8396	-2.975	-2.7292	-2.925	-2.9208	-2.7271	-2.9333	-2.8979	244.419	128.095	68.321	361.456	327.657	325.025	323.291	284.454	221.465	338.563	240.184	334.250	155.308	46.957	184.792	339.768	0.0005204	0.00052502	0.00017588	1293.3	5.096e-06	7.3291e-06	1296.9	347	2.3099e-06	3.0657e-06	399.1	133.12	115.11	39.187	3.2406e-06	49.47	0.00038315	0.00036973	0.00010522	1305.7	4.0636e-06	4.1547e-06	1310.3	351.9	4.1511e-06	4.199e-06	404.92	135.43	116.56	40.09	4.3655e-06	50.413	93.861	97.076	68.933	18.687	145.752	166.366	18.839	23.536	162.071	113.107	23.015	27.882	28.185	32.780	130.671	31.795	-8191	255	
7517.471	1	1	0	0	0.14661	0.094654	0.3282	0.15564	0.082283	0.21087	0.18225	0.30288	0.29443	0.34414	0.25499	0.053603	0.16749	0.056361	0.16925	0.30709	-2.1646	-2.8563	-2.4833	-2.75	-2.7729	-2.6229	-3.1625	-2.9625	-2.5542	-3.0125	-2.6354	-2.9625	-2.6854	-2.825	-2.7771	-2.7729	134.403	12.839	71.061	134.944	344.527	272.134	323.813	37.450	49.124	84.028	14.453	312.502	11.183	265.646	36.433	303.646	0.0004956	0.00058605	0.0001089	1300.8	4.8368e-06	4.2563e-06	1307.8	349.78	2.7343e-06	4.6582e-06	402.85	134	116.03	39.767	4.2762e-06	49.725	0.00040516	0.00039461	0.00010896	1314.9	4.2623e-06	4.2612e-06	1320	355.1	4.3427e-06	4.3149e-06	408.51	136.63	117.83	40.571	4.2306e-06	50.866	90.149	71.134	58.674	18.865	158.958	169.323	18.912	23.535	165.849	131.025	23.069	27.448	27.985	32.800	116.348	31.876	-8191	255	
7517.567	1	1	0	0	0.13414	0.20182	0.17067	0.17265	0.20084	0.04988	0.19633	0.27665	0.088243	0.1024	0.079083	0.17832	0.17944	0.21517	0.050129	0.079358	-2.2646	-2.9979	-2.5354	-2.75	-2.9646	-2.7667	-2.95	-2.7958	-2.6771	-2.975	-3.0062	-2.9271	-2.9833	-2.6625	-2.7667	-2.7333	61.227	29.047	288.977	312.106	265.248	37.434	20.312	271.715	111.906	72.898	359.074	290.057	356.700	360.000	166.464	10.461	0.00048154	0.00041919	0.00022915	1313.6	3.451e-06	2.7653e-06	1311.5	349.93	6.1092e-06	3.5993e-06	402.96	134.48	116.44	39.563	3.407e-06	49.376	0.00038497	0.00037193	0.00010451	1327.1	4.0678e-06	4.1054e-06	1326.5	356.27	4.1459e-06	4.1362e-06	409.07	136.93	117.76	40.462	4.2631e-06	50.627	101.112	90.425	99.783	18.793	182.189	140.949	18.644	23.490	176.157	160.076	22.937	27.642	28.198	32.621	156.139	31.715	-8191	255	
7517.663	1	1	0	0	0.45397	0.12124	0.16788	0.21912	0.12055	0.032507	0.092411	0.27117	0.15436	0.066908	0.21827	0.097777	0.24441	0.1476	0.041552	0.16457	-2.2687	-2.9396	-2.7146	-2.8688	-2.9292	-2.5604	-2.9208	-2.9625	-2.5146	-2.9271	-2.9667	-2.75	-3.1104	-2.6813	-2.9604	-2.8333	321.840	101.125	288.883	340.246	170.808	300.681	240.900	300.054	312.946	23.692	330.001	281.982	353.406	299.287	300.254	163.367	0.00044364	0.00075049	0.00013477	1302	6.9615e-06	5.8539e-06	1303	349.42	6.0017e-06	5.4271e-06	402.04	133.7	115.04	39.425	2.6965e-06	49.53	0.00039398	0.00038552	0.00010704	1315.4	4.2324e-06	4.2593e-06	1317.8	354.34	4.2871e-06	4.2411e-06	407.46	136.04	117.13	40.289	4.3384e-06	50.481	92.601	84.800	107.926	18.829	166.221	137.663	18.903	23.652	184.476	192.693	23.186	27.699	28.075	32.561	153.227	31.993	-8191	255	
7517.758	1	1	0	0	0.12478	0.15356	0.26214	0.30451	0.24152	0.40955	0.21508	0.30771	0.041654	0.12683	0.21567	0.41413	0.18121	0.10121	0.030998	0.16901	-2.2792	-2.9292	-2.7792	-2.9896	-2.8771	-2.6042	-2.9583	-3.1167	-2.6937	-2.6562	-2.9125	-2.6396	-2.9604	-2.8312	-2.8979	-3.0729	98.053	246.281	58.248	315.678	203.693	358.773	271.794	276.548	257.885	322.608	262.770	329.297	249.375	309.899	163.571	263.059	0.00050634	0.00061985	0.00017736	1299.4	6.1413e-06	5.6804e-06	1306.8	350.64	7.3679e-06	4.3898e-06	402.57	134.15	115.86	39.547	7.3017e-06	49.614	0.00041065	0.00040761	0.00011364	1313	4.6283e-06	4.6752e-06	1318.4	355.51	4.8846e-06	4.8881e-06	409.47	136.78	118.05	40.543	4.9049e-06	50.701	89.817	85.445	115.606	18.790	137.442	155.817	18.826	23.658	162.485	102.909	22.835	27.582	27.978	32.680	150.988	31.823	-8191	255	
7517.854	1	1	0	0	0.22451	0.13112	0.089057	0.43968	0.17839	0.098402	0.20215	0.1102	0.40156	0.088359	0.27771	0.13766	0.12841	0.15241	0.1397	0.063434	-2.2521	-2.7667	-2.6146	-2.8729	-2.8375	-2.6771	-2.9833	-2.9417	-2.4958	-2.7271	-2.8563	-2.7042	-3.0292	-2.7917	-2.825	-3.0604	315.604	279.453	137.001	328.996	316.156	222.753	297.602	287.932	354.346	166.523	311.072	212.695	48.498	263.310	54.219	317.275	0.00053614	0.00050686	0.00016248	1301.7	4.9293e-06	4.9746e-06	1298.2	349.13	1.3897e-06	4.2314e-06	402.64	133.27	114.89	39.256	5.942e-06	49.379	0.0004386	0.00042122	0.00011524	1316.2	4.4457e-06	4.2893e-06	1314.2	354.2	4.263e-06	4.1655e-06	407.12	135.6	116.61	40.169	4.2205e-06	50.434	89.482	116.940	98.430	18.951	145.085	129.306	18.628	23.547	183.148	141.209	23.014	27.212	28.141	32.708	126.890	31.865	-8191	255	
7517.950	1	1	0	0	0.23783	0.1047	0.20498	0.18898	0.19376	0.25472	0.28592	0.20703	0.12631	0.11416	0.076866	0.26842	0.25897	0.27899	0.07175	0.10487	-2.3146	-2.8229	-2.6167	-2.7292	-2.8667	-2.8083	-2.7625	-3.1396	-2.7125	-2.9896	-3.0229	-2.6104	-3.025	-2.8688	-2.7229	-2.9042	91.552	25.341	266.066	322.008	48.567	318.002	199.214	273.268	345.636	104.010	72.825	333.481	167.140	263.963	278.783	226.326	0.00050284	0.00047216	0.00012083	1296.9	6.5235e-06	6.2079e-06	1301.7	348.38	3.5585e-06	3.6303e-06	400.59	133.34	115.04	39.562	3.4052e-06	49.443	0.00039883	0.00038374	0.00010881	1312.7	4.3157e-06	4.3389e-06	1315.3	353.78	4.4992e-06	4.5286e-06	406.97	135.98	117.02	40.365	4.7185e-06	50.692	95.644	94.266	128.888	18.967	162.346	151.704	18.712	23.505	156.440	138.917	22.859	27.630	27.905	32.615	175.662	31.788	-8191	255	
7518.046	1	1	0	0	0.056847	0.059249	0.22357	0.21002	0.084561	0.13105	0.1753	0.23436	0.25121	0.085954	0.21649	0.027882	0.023117	0.021414	0.065862	0.27911	-2.2333	-2.7125	-2.8021	-2.8146	-2.8521	-2.6708	-2.9104	-3.2146	-2.4896	-2.75	-2.9729	-2.7562	-3.0042	-2.8167	-2.4979	-2.9292	329.397	81.025	99.092	222.654	361.681	16.762	145.317	303.549	43.032	35.700	11.213	135.119	114.808	25.680	316.781	319.994	0.00042249	0.00047344	0.00022746	1308.6	4.2516e-06	3.3189e-06	1311.2	350.59	5.5801e-06	4.5963e-06	404.39	134.35	116.38	39.748	2.6073e-06	49.587	0.00043658	0.0004376	0.00012317	1317.6	4.8493e-06	4.8544e-06	1322.8	356.72	4.9333e-06	4.8665e-06	410.18	136.84	118.09	40.631	4.7523e-06	50.771	93.537	74.975	115.228	18.865	122.012	169.456	18.712	23.418	112.655	83.247	23.008	27.422	27.875	32.457	96.190	32.064	-8191	255	
7518.167	1	1	0	0	0.11413	0.2423	0.36115	0.26128	0.20449	0.18226	0.1166	0.23949	0.12366	0.11619	0.017758	0.13626	0.1499	0.3384	0.046246	0.062114	-2.1729	-2.5417	-2.8792	-2.7708	-2.9104	-2.7604	-2.8417	-3.2167	-2.775	-2.6896	-3.1437	-2.6	-2.8146	-3.0062	-2.6271	-3.0854	59.592	164.126	23.102	343.396	42.886	28.262	342.430	309.247	359.518	337.144	340.458	333.068	357.438	98.190	350.874	82.554	0.00046951	0.00061278	0.00017333	1309.7	5.051e-06	9.4403e-06	1309.2	351.26	1.7773e-06	3.1794e-06	403.14	133.57	115.26	39.414	5.8314e-06	49.366	0.00043254	0.00040822	0.00011363	1323.9	4.3568e-06	4.3298e-06	1323.8	355.9	4.177e-06	4.1226e-06	408.25	136.07	116.92	40.219	4.1141e-06	50.436	86.391	90.355	104.082	18.735	138.921	140.017	18.865	23.537	201.437	111.962	22.982	27.393	28.234	32.917	142.935	31.595	-8191	255	
7518.239	1	1	0	0	0.017376	0.080897	0.09149	0.20458	0.1196	0.26556	0.26803	0.20748	0.12168	0.10573	0.26412	0.14457	0.11597	0.12196	0.12498	0.12185	-2.2854	-2.6063	-2.9813	-2.8271	-2.6146	-2.6917	-2.7542	-3.0563	-2.6604	-2.7104	-3.1104	-2.9167	-2.7146	-3.0875	-2.6458	-3.0375	350.818	321.996	82.719	265.123	25.258	347.153	296.442	31.992	131.207	281.357	313.787	311.842	170.629	64.658	153.885	286.029	0.00044338	0.00044323	0.00021083	1298.8	6.721e-06	5.4731e-06	1298.7	349.38	7.7511e-06	3.4245e-06	399.88	133.16	114.75	39.405	5.5182e-06	49.356	0.00037541	0.00036451	0.00010084	1314.1	4.0619e-06	4.0711e-06	1314.7	354.05	4.2175e-06	4.2084e-06	406.66	135.7	116.86	40.272	4.4091e-06	50.462	93.866	53.952	126.584	18.755	164.994	145.936	18.678	23.638	147.686	150.797	22.868	27.371	27.923	32.662	166.032	32.029	-8191	255	
7518.359	1	1	0	0	0.1598	0.17428	0.10674	0.28431	0.13125	0.025602	0.37686	0.22425	0.10446	0.17204	0.14933	0.31375	0.32355	0.15828	0.20157	0.27073	-2.2771	-2.4604	-2.9396	-2.8292	-2.7	-2.85	-2.9542	-3.1417	-2.6771	-2.6479	-3.1375	-2.7917	-2.6417	-2.9083	-2.5167	-2.7729	56.790	309.496	189.482	349.693	281.599	259.129	309.311	333.586	155.439	17.758	289.275	353.481	64.295	355.521	203.103	212.203	0.0005108	0.00049223	4.6827e-05	1305	5.5973e-06	5.638e-06	1304.6	350.36	3.5956e-06	2.1717e-06	401.03	133.98	115.13	39.376	3.3145e-06	49.492	0.0004077	0.00039789	0.00011006	1318.1	4.2989e-06	4.2806e-06	1319.2	355.32	4.3101e-06	4.3014e-06	408.42	136.35	117.31	40.315	4.2912e-06	50.626	99.437	122.017	121.916	18.895	142.593	175.627	18.906	23.687	174.295	126.235	22.882	27.435	27.942	32.642	147.548	31.781	-8191	255	
7518.455	1	1	0	0	0.16654	0.25088	0.1681	0.080895	0.22294	0.29799	0.10555	0.3029	0.16768	0.094506	0.12169	0.24474	0.23656	0.26438	0.35784	0.19674	-2.0875	-2.6396	-2.9042	-2.9396	-2.6771	-2.9313	-2.775	-2.9979	-2.9229	-2.5563	-3.1625	-2.7542	-2.7833	-3.1146	-2.5563	-2.8875	254.085	221.666	294.017	135.445	268.009	274.541	250.798	301.166	91.720	355.972	263.427	241.075	120.518	15.802	272.226	13.111	0.00044976	0.0003415	0.00014457	1309.4	3.2046e-06	3.6578e-06	1308.5	351.04	3.53e-06	6.8909e-06	402.68	134.18	115.88	39.539	4.0558e-06	49.408	0.00040161	0.00039062	0.00010802	1322.3	4.2481e-06	4.2005e-06	1323.1	356.19	4.3405e-06	4.2786e-06	408.76	136.39	117.52	40.414	4.2844e-06	50.641	99.244	109.158	105.430	18.918	184.289	164.327	18.752	23.770	151.721	153.666	23.165	27.470	28.152	32.802	145.002	31.902	-8191	255	
7518.552	1	1	0	0	0.12521	0.19644	0.21495	0.28599	0.23002	0.1223	0.12432	0.10518	0.066562	0.06924	0.14558	0.45821	0.19925	0.064562	0.11551	0.073293	-2.3104	-2.5083	-2.6708	-2.7417	-2.5229	-2.7958	-2.8688	-2.8583	-2.8292	-2.6	-3.1188	-2.8458	-2.5438	-3.0146	-2.4521	-2.7333	9.115	215.922	348.176	338.492	334.021	170.562	133.193	324.840	182.586	121.573	230.730	5.772	123.151	22.227	26.950	194.805	0.00052216	0.00037121	9.3536e-05	1309.2	7.0992e-06	7.8606e-06	1310.7	350.94	5.0378e-06	5.3579e-06	405.42	135.14	116.62	39.703	6.4475e-06	49.857	0.00039386	0.00037902	0.00010412	1324	4.116e-06	4.1333e-06	1324.6	356.84	4.1027e-06	4.0886e-06	410.54	137.2	118.13	40.528	4.1728e-06	50.872	95.369	52.760	89.802	18.829	156.235	145.723	18.584	23.605	173.275	160.693	23.068	27.428	28.169	32.679	131.612	31.724	-8191	255	
7518.648	1	1	0	0	0.5131	0.25703	0.13395	0.060793	0.10298	0.17338	0.32406	0.39618	0.16476	0.12431	0.16909	0.24978	0.15221	0.084761	0.11303	0.15102	-2.2708	-2.525	-2.7417	-2.8146	-2.6083	-3.0542	-3	-2.7562	-2.8417	-2.4458	-2.8812	-3.0229	-2.7646	-3.0229	-2.6708	-2.8229	15.769	318.307	364.798	198.505	31.748	82.422	350.570	291.339	109.930	349.026	36.519	36.999	354.084	359.915	34.260	320.044	0.00046072	0.00053821	9.2999e-05	1308.9	6.2352e-06	4.9e-06	1313.8	350.99	3.8456e-06	3.7744e-06	403.39	134.3	115.78	39.655	4.2568e-06	49.521	0.00038682	0.00037105	0.00010548	1325.1	4.2511e-06	4.2129e-06	1328.2	356.85	4.3341e-06	4.3331e-06	409.27	136.76	117.79	40.516	4.551e-06	50.754	83.397	86.177	137.987	18.795	162.799	161.596	18.721	23.640	186.358	105.841	23.048	27.331	28.109	32.597	155.626	31.666	-8191	255	
7518.767	1	1	0	0	0.18403	0.10298	0.3181	0.24348	0.11416	0.074787	0.35829	0.080928	0.25758	0.18848	0.26088	0.16344	0.21734	0.069769	0.14028	0.12427	-2.5417	-2.65	-2.8521	-3.1312	-2.7062	-2.8146	-3.0125	-2.7708	-2.8271	-2.6167	-2.9958	-2.9938	-2.6104	-3.0833	-2.825	-2.6063	76.475	109.678	206.906	308.197	353.602	302.978	314.799	250.673	189.564	274.268	330.878	333.628	364.803	347.484	83.294	174.191	0.00048529	0.00068783	6.5554e-05	1312.1	6.5982e-06	4.4323e-06	1303.7	351.02	2.9571e-06	1.718e-06	405.04	134.03	116.01	39.533	5.3737e-06	49.499	0.00041765	0.00040594	0.00011243	1322.4	4.5051e-06	4.4718e-06	1321.3	356.38	4.5156e-06	4.4837e-06	410.09	136.54	117.69	40.477	4.5519e-06	50.73	92.224	82.027	84.301	18.773	135.905	142.409	18.727	23.518	157.840	92.800	22.938	27.486	27.926	32.676	158.988	31.779	-8191	255	
7518.863	1	1	0	0	0.20033	0.27088	0.26269	0.37179	0.18251	0.27187	0.1164	0.26041	0.086551	0.095215	0.40547	0.13373	0.062095	0.24378	0.045967	0.35922	-2.5292	-2.4562	-2.7125	-3.15	-2.7167	-2.5854	-2.9542	-2.8083	-2.9729	-2.65	-2.8354	-3.0458	-2.5479	-2.8688	-2.7083	-2.9271	186.435	86.344	209.416	22.503	56.225	337.583	266.850	292.476	343.196	59.464	309.748	300.130	14.746	13.536	68.373	300.299	0.00050586	0.00047372	0.00020677	1308.1	5.2628e-06	7.1829e-06	1306	351.48	4.6799e-06	3.1322e-06	404.45	134.53	116.47	39.937	5.6326e-06	49.757	0.00041689	0.00040288	0.00011263	1321.3	4.5117e-06	4.5547e-06	1322.8	356.64	4.6802e-06	4.5767e-06	410.57	137.05	118.41	40.757	4.8173e-06	51.084	91.998	127.965	85.867	18.702	135.889	128.044	18.696	23.603	151.073	60.569	23.041	27.327	27.966	32.619	184.889	31.731	-8191	255	
7518.934	1	1	0	0	0.14926	0.059423	0.30641	0.33773	0.10249	0.090473	0.03676	0.41632	0.18234	0.40264	0.23872	0.096265	0.15338	0.067733	0.065329	0.24541	-2.2583	-2.5396	-2.625	-3.0854	-2.6917	-2.8083	-3.0354	-2.6833	-2.7458	-2.875	-2.6896	-3.0062	-2.7188	-2.7604	-2.8417	-2.6729	193.942	137.150	163.010	329.796	54.701	16.574	73.723	290.255	227.838	145.150	304.913	30.914	268.617	190.865	192.934	337.403	0.00056358	0.00068769	0.0001794	1312.2	3.0744e-06	5.9932e-06	1321.4	352.91	4.699e-06	4.3814e-06	405.65	135.87	117.87	40.338	4.6729e-06	50.369	0.00044612	0.00043272	0.00012452	1326.7	4.9563e-06	4.9308e-06	1333.7	359.21	5.1854e-06	5.1784e-06	412.98	138.48	119.85	41.365	5.4435e-06	51.655	90.906	107.796	102.759	18.804	154.744	173.635	18.806	23.394	127.596	111.367	22.983	27.429	27.756	32.566	142.410	31.913	-8191	255	
7519.055	1	1	0	0	0.27023	0.29073	0.076104	0.29885	0.015103	0.17182	0.13983	0.22556	0.14538	0.2083	0.23992	0.10933	0.28742	0.15345	0.12463	0.28276	-2.3438	-2.6208	-2.5208	-3.1854	-2.7042	-2.9521	-3.1208	-2.9021	-2.8646	-2.7042	-2.7687	-2.7729	-2.7229	-2.7375	-2.8458	-2.75	29.073	353.122	142.077	321.860	237.701	275.018	251.155	315.461	342.758	353.127	74.014	65.807	72.192	269.216	151.844	312.768	0.00054228	0.00050526	8.4912e-05	1323.1	7.9879e-06	2.0996e-06	1324.8	356.54	7.0667e-06	2.8531e-06	410.2	136.62	118.98	40.815	3.2481e-06	50.927	0.00049791	0.00049506	0.00014058	1338.5	5.5183e-06	5.5391e-06	1342.7	362.86	5.5333e-06	5.5124e-06	416.45	139.81	121.18	41.92	5.512e-06	52.182	91.279	79.142	107.586	18.666	161.708	124.457	18.758	23.481	140.963	188.460	22.872	27.377	28.208	32.295	201.573	31.715	-8191	255	
7519.151	1	1	0	0	0.1999	0.14363	0.22318	0.087399	0.11489	0.25375	0.19168	0.098404	0.14799	0.14512	0.054955	0.27178	0.17182	0.18	0.094081	0.15223	-2.4208	-2.7021	-2.5417	-2.9479	-2.5333	-2.75	-3.1167	-2.8875	-2.7604	-2.9062	-2.675	-3	-2.6354	-2.6854	-2.9542	-2.6937	17.256	140.871	306.898	42.462	224.060	21.798	313.947	293.031	140.332	140.022	183.703	322.862	327.225	76.837	139.614	242.589	0.00044851	0.00074485	0.00011199	1329	3.7667e-06	4.578e-06	1331.4	357.89	5.5937e-06	4.1817e-06	411.08	137.72	119.47	41.116	5.0548e-06	51.186	0.0005033	0.00048941	0.00013784	1345.8	5.2488e-06	5.1912e-06	1346.6	363.59	5.0845e-06	5.0731e-06	417.01	140.3	121.55	42.142	5.1305e-06	52.468	96.792	82.880	108.606	18.931	130.708	131.922	18.710	23.567	164.553	151.894	23.067	27.334	27.719	32.399	143.025	31.673	-8191	255	
7519.247	1	1	0	0	0.16467	0.36125	0.12149	0.46246	0.16547	0.12294	0.26805	0.23428	0.3985	0.17026	0.15836	0.29211	0.19446	0.21036	0.10048	0.16946	-2.3292	-2.7354	-2.5812	-2.9938	-2.6729	-2.5312	-3.0229	-2.8688	-2.6104	-2.9188	-2.7479	-2.8667	-2.9521	-2.5958	-2.8854	-2.7188	276.236	131.961	212.365	344.786	8.623	100.900	279.875	341.037	80.783	331.891	288.150	339.608	339.294	332.583	35.747	113.712	0.00058604	0.00061084	7.224e-05	1332.1	7.7795e-06	5.6461e-06	1337.3	360.68	6.0578e-06	3.6807e-06	412.59	138.97	121.05	41.629	6.6401e-06	51.43	0.00046441	0.00046219	0.00013174	1348.6	5.2113e-06	5.1967e-06	1353.7	366.52	5.4085e-06	5.3431e-06	419.33	141.95	123.04	42.784	5.7283e-06	52.927	90.011	71.336	137.292	18.996	154.002	152.972	18.870	23.490	141.482	172.602	22.891	27.431	27.766	32.049	144.057	31.437	-8191	255	
7519.343	1	1	0	0	0.22052	0.12485	0.22635	0.34758	0.064977	0.11017	0.32392	0.1348	0.061083	0.083717	0.42491	0.065575	0.15346	0.30152	0.21121	0.11576	-2.3563	-2.6667	-2.6188	-2.8979	-2.5354	-2.6021	-3.0542	-2.7812	-2.6104	-2.8563	-2.9021	-2.875	-2.7938	-2.7021	-2.9646	-2.8312	214.179	157.022	173.817	280.153	145.768	9.207	287.754	330.454	349.723	203.880	306.297	231.472	24.852	323.931	279.499	172.582	0.00053305	0.00054279	0.00013559	1340.2	7.3689e-06	5.7035e-06	1338.7	360.3	7.6395e-06	4.4437e-06	413.63	139.26	121.18	41.926	5.5747e-06	51.764	0.00052117	0.00051356	0.00014391	1356.5	5.7379e-06	5.8101e-06	1357.9	367.36	5.9642e-06	6.0272e-06	421.78	142.64	123.87	43.024	6.2404e-06	53.234	86.464	72.646	133.878	18.933	155.211	173.714	18.684	23.490	120.680	149.395	22.725	27.409	27.891	31.895	144.522	31.560	-8191	255	
7519.464	1	1	0	0	0.22174	0.07621	0.13279	0.014532	0.19534	0.097858	0.40393	0.10723	0.1134	0.29518	0.22049	0.16102	0.20742	0.24	0.087545	0.094922	-2.3563	-2.7333	-2.6604	-3.2604	-2.8417	-2.55	-3.0125	-2.8604	-2.5958	-2.9562	-2.5521	-2.8229	-2.9625	-2.5896	-2.8563	-2.7042	210.013	197.727	61.295	309.355	361.552	43.450	286.561	322.031	254.547	256.158	168.442	327.917	340.085	348.364	172.429	284.752	0.00055443	0.00055674	0.00025982	1344.2	4.7466e-06	4.6252e-06	1343.9	364.46	1.1404e-06	4.3026e-06	416.89	140.87	122.91	42.609	5.1475e-06	52.568	0.00056335	0.00057668	0.0001619	1362.2	6.3726e-06	6.4665e-06	1366.3	370.98	6.7046e-06	6.8089e-06	425.18	144.58	126	43.871	7.2599e-06	54.045	88.947	96.699	90.981	18.896	155.753	156.958	18.743	23.574	212.598	159.774	23.018	27.548	27.704	32.213	182.177	31.444	-8191	255	
7519.536	1	1	0	0	0.13038	0.10445	0.12485	0.2619	0.045307	0.088854	0.53081	0.11374	0.013694	0.088756	0.0037095	0.14254	0.16058	0.2179	0.15421	0.028339	-2.275	-3.0667	-2.575	-2.8125	-2.9625	-2.5729	-3.05	-3.1292	-2.6042	-3.1021	-2.825	-2.9583	-2.9104	-2.6521	-2.8563	-2.8333	240.799	154.674	109.329	244.659	252.065	87.615	312.642	304.038	234.152	327.564	133.803	268.064	228.785	297.816	12.005	81.125	0.00060606	0.00062318	0.00015954	1347.9	5.8181e-06	3.2938e-06	1351	364.43	7.1316e-06	6.0355e-06	415.41	140.77	123.46	42.56	8.9644e-06	52.396	0.00065054	0.00065508	0.00018372	1369.1	7.2046e-06	7.2582e-06	1373.6	372.3	7.2336e-06	7.2471e-06	425.01	144.55	126.05	43.853	7.2082e-06	53.889	88.109	132.636	99.674	18.812	128.103	98.758	18.799	23.408	184.307	141.301	23.152	27.243	27.748	32.107	132.501	31.581	-8191	255	
7519.632	1	1	0	0	0.035819	0.29718	0.22053	0.22066	0.16707	0.15033	0.18454	0.21064	0.011227	0.10964	0.13766	0.11399	0.10339	0.32532	0.25203	0.22528	-2.2042	-2.9708	-2.6562	-2.9396	-2.8479	-2.4271	-3.0333	-3.0167	-2.4104	-2.9521	-2.8292	-2.7146	-3.0125	-2.5771	-2.9271	-2.8688	177.288	240.752	289.742	339.848	103.339	150.307	337.096	328.351	161.202	295.088	54.179	238.295	158.290	277.511	243.232	320.261	0.00048444	0.00078312	0.00017783	1348	6.3555e-06	5.8988e-06	1348.2	365.75	6.9635e-06	5.0227e-06	418.54	141.57	123.48	42.874	7.23e-06	52.715	0.00063484	0.00064272	0.00018009	1368.3	7.064e-06	7.1275e-06	1372.7	372.76	7.1566e-06	7.1745e-06	426.96	145.43	126.82	44.125	7.2268e-06	54.318	86.310	89.737	52.848	19.121	153.969	137.793	18.668	23.376	161.181	101.165	23.071	27.221	27.787	32.253	170.633	31.475	-8191	255	
7519.728	1	1	0	0	0.08124	0.27867	0.21044	0.096098	0.21602	0.073701	0.092876	0.25321	0.21298	0.14202	0.045837	0.20689	0.16123	0.17296	0.20366	0.24465	-2.0708	-2.9125	-2.7229	-2.9688	-2.9313	-2.575	-3.1063	-2.9979	-2.5687	-2.9542	-2.9333	-2.7167	-3.1312	-2.6917	-2.7583	-3.0604	137.963	288.811	284.434	9.714	82.788	215.347	9.743	299.166	184.435	162.536	256.695	68.186	148.968	342.146	63.198	255.243	0.00048142	0.00037484	0.00013322	1355.7	4.043e-06	6.41e-06	1358.6	367.67	4.4531e-06	3.4792e-06	421.33	142.48	124.66	43.045	6.2791e-06	52.859	0.00064262	0.00064626	0.00018061	1375.2	7.1426e-06	7.2203e-06	1378.8	374.95	7.2297e-06	7.1888e-06	429.33	146.13	127.71	44.463	7.1346e-06	54.529	90.193	55.005	99.592	18.873	158.849	183.990	18.861	23.312	143.218	134.411	22.847	27.308	27.735	31.951	151.978	31.308	-8191	255	
7519.847	1	1	0	0	0.023263	0.077071	0.13911	0.31092	0.1696	0.15681	0.11105	0.28744	0.04724	0.34989	0.18947	0.40914	0.25371	0.14203	0.1617	0.35306	-2.1229	-2.7438	-2.7104	-2.7583	-2.9104	-2.5917	-3.0542	-3.2396	-2.5708	-2.9625	-2.9604	-2.5687	-3.0438	-2.7938	-2.8125	-3.0646	332.821	71.985	192.560	291.665	335.620	91.376	320.865	15.492	177.166	364.254	300.070	6.797	8.871	330.588	256.080	50.863	0.00048051	0.00062687	0.00022036	1356.5	9.7151e-06	4.8932e-06	1356.9	368.47	7.004e-06	5.6922e-06	420.76	142.18	125.01	42.977	4.2438e-06	52.844	0.00064527	0.0006452	0.00018041	1378.8	7.0436e-06	7.1058e-06	1380.1	375.77	7.0279e-06	6.9983e-06	428.88	146.13	127.64	44.382	6.8706e-06	54.379	92.990	83.768	111.414	18.879	149.790	113.342	18.715	23.478	147.166	174.627	23.212	27.226	27.697	31.974	143.002	31.435	-8191	255	
7519.943	1	1	0	0	0.098198	0.13225	0.10046	0.39166	0.14463	0.17925	0.15737	0.14433	0.35139	0.18285	0.13561	0.074913	0.30071	0.2254	0.11301	0.041361	-2.2542	-2.7562	-2.7646	-2.8146	-2.8708	-2.7792	-2.9562	-3.0458	-2.5417	-2.8	-2.8583	-2.6375	-2.7896	-2.8042	-2.3937	-2.9	164.230	335.237	320.716	316.710	169.125	360.156	305.589	288.909	102.150	6.980	310.765	100.064	187.064	292.342	94.342	319.024	0.00052753	0.00080224	0.00020052	1351.5	7.6365e-06	4.9027e-06	1352.5	365.94	5.0929e-06	3.4571e-06	417.95	141.49	123.15	42.498	3.6537e-06	52.436	0.00060774	0.00060562	0.00016856	1372.9	6.4813e-06	6.4806e-06	1372	372.94	6.4175e-06	6.4405e-06	425.79	144.76	126.11	43.857	6.4794e-06	53.964	93.279	107.030	79.152	18.822	163.174	159.364	18.900	23.560	173.150	239.054	22.969	27.282	27.737	32.141	157.171	31.501	-8191	255	
7520.039	1	1	0	0	0.18567	0.16962	0.0688	0.26556	0.15197	0.069988	0.022699	0.40201	0.15144	0.1599	0.069539	0.13194	0.16558	0.15829	0.19042	0.068379	-2.0854	-2.75	-2.9354	-2.7104	-2.9042	-2.8375	-2.7396	-3.2167	-2.6833	-2.6063	-2.8958	-2.6292	-2.9125	-2.8958	-2.7021	-2.9542	236.814	303.207	22.988	8.860	25.655	202.018	17.860	285.344	236.286	205.691	35.035	82.970	54.885	148.644	225.465	125.981	0.00055574	0.00050948	0.00012169	1348.2	5.3087e-06	6.703e-06	1346.5	364.65	5.2752e-06	4.85e-06	416.57	141.52	122.36	42.486	4.9389e-06	52.207	0.00057647	0.0005733	0.00016004	1366.7	6.2083e-06	6.2708e-06	1367.4	371.59	6.1515e-06	6.1278e-06	424.17	144.29	125.41	43.597	5.9079e-06	53.599	96.139	74.664	105.732	18.833	148.839	153.234	18.841	23.517	152.995	169.652	22.800	27.293	27.867	32.101	122.032	31.556	-8191	255	
7520.135	1	1	0	0	0.27853	0.053946	0.041503	0.055664	0.22261	0.12175	0.39346	0.24877	0.22936	0.1862	0.16064	0.18311	0.1609	0.13121	0.29865	0.15349	-2.275	-2.675	-2.7708	-2.6604	-2.7417	-2.7646	-2.7521	-2.9938	-2.7271	-2.6562	-3.1104	-2.6708	-3.0375	-2.9646	-2.5917	-3.0458	138.148	302.818	206.179	362.851	330.905	245.437	334.526	321.511	275.587	325.366	290.123	242.552	278.002	42.822	133.187	42.664	0.00051953	0.00036507	0.00018737	1341.4	8.0385e-06	8.0744e-06	1346.8	363.61	7.6152e-06	6.3409e-06	416.69	140.09	121.33	42.023	6.3874e-06	52.092	0.00051429	0.0005097	0.00014055	1357.9	5.4704e-06	5.4859e-06	1360.3	369.16	5.3659e-06	5.361e-06	422.49	143.05	123.82	43.107	5.187e-06	53.223	98.410	112.758	54.382	18.814	184.513	138.034	18.811	23.416	170.693	135.457	22.903	27.170	27.890	32.389	123.347	31.476	-8191	255	
7520.232	1	1	0	0	0.062537	0.016426	0.059889	0.27547	0.60563	0.067855	0.10743	0.16938	0.06892	0.15168	0.15578	0.15277	0.1509	0.30463	0.24767	0.16032	-2.2438	-2.5958	-2.8771	-2.9292	-2.8563	-2.9771	-2.6792	-3.2646	-2.8271	-2.4542	-3	-2.7583	-2.6167	-2.9354	-2.5021	-2.9833	24.074	340.404	102.975	24.442	67.348	295.045	349.956	278.394	192.835	262.863	324.981	278.171	45.638	292.766	224.120	265.142	0.0005183	0.00059735	0.00010746	1339.6	4.4266e-06	1.8073e-06	1332.8	361.87	5.202e-06	2.982e-06	414.9	139.6	120.59	41.858	5.5965e-06	51.797	0.00047151	0.00045274	0.00012599	1354.3	4.9374e-06	4.9702e-06	1354.2	367.8	4.9772e-06	4.9669e-06	421.04	142.15	123.29	42.853	5.0208e-06	53.055	87.697	104.916	110.595	18.907	156.760	132.238	18.703	23.486	129.628	130.863	22.848	27.080	27.835	32.176	144.423	31.764	-8191	255	
7520.328	1	1	0	0	0.1296	0.15325	0.11817	0.17543	0.22266	0.099489	0.44369	0.11376	0.20398	0.064909	0.096932	0.19508	0.25108	0.42568	0.14595	0.30983	-2.0396	-2.6021	-2.7625	-2.7917	-2.8854	-2.8958	-2.6312	-2.9917	-2.8375	-2.5292	-2.9104	-2.75	-2.5938	-3.0563	-2.4771	-3.1875	279.057	80.623	92.046	304.558	112.911	346.134	310.102	273.571	327.892	160.468	61.040	120.680	312.066	336.144	227.761	13.852	0.00047845	0.00055593	0.00016865	1335.9	4.5109e-06	4.7591e-06	1337.8	360.62	5.6796e-06	5.5548e-06	415.14	139.59	121.09	41.596	2.6736e-06	51.524	0.00044526	0.00043781	0.00012184	1351	4.6872e-06	4.7611e-06	1352.3	366.63	4.7731e-06	4.8219e-06	419.97	142.04	122.85	42.645	4.697e-06	52.808	87.797	93.957	107.825	18.878	189.615	147.977	18.703	23.507	155.538	149.720	22.852	27.365	27.901	32.203	120.620	31.554	-8191	255	
7520.448	1	1	0	0	0.25642	0.21717	0.15774	0.21077	0.101	0.053537	0.44037	0.32348	0.16632	0.024828	0.074526	0.17802	0.26304	0.218	0.10153	0.17232	-2.5479	-2.5917	-2.8771	-2.8604	-2.6437	-3.0417	-2.7271	-2.9875	-2.7667	-2.5062	-3.0312	-3.0062	-2.7042	-2.7562	-2.7125	-2.8625	350.841	38.148	344.108	337.691	313.185	100.174	340.845	318.422	59.455	238.322	186.227	106.644	42.699	339.360	287.052	220.823	0.00054252	0.00066071	0.0001595	1325.4	5.7125e-06	5.8601e-06	1328.6	358.34	5.8018e-06	2.2639e-06	412.26	138.73	120.28	41.504	3.8805e-06	51.443	0.0004282	0.00041741	0.00011419	1343.7	4.4973e-06	4.389e-06	1346.5	364.37	4.447e-06	4.4144e-06	417.87	141.04	122.19	42.395	4.3468e-06	52.546	94.804	78.082	113.635	18.692	159.213	170.018	18.666	23.502	155.777	166.032	22.965	27.337	27.922	32.358	138.670	31.561	-8191	255	
7520.544	1	1	0	0	0.076567	0.2095	0.067853	0.16023	0.22969	0.16331	0.42323	0.18523	0.12792	0.16244	0.27735	0.22341	0.21135	0.23512	0.11584	0.1879	-2.475	-2.3646	-2.7354	-2.8396	-2.4083	-2.7979	-2.7062	-2.8375	-2.9333	-2.6083	-3.0042	-2.8604	-2.5979	-3.1271	-2.5542	-2.775	276.871	192.477	354.231	265.944	52.292	30.293	314.136	326.961	234.510	12.379	328.856	29.064	357.362	10.315	174.934	284.643	0.00056431	0.0004101	0.00011107	1326.5	5.9115e-06	3.2028e-06	1327.7	357.77	5.035e-06	2.4926e-06	410.53	138.21	119.76	41.302	7.3883e-06	51.359	0.00039646	0.00037756	0.00010599	1338.9	4.0571e-06	4.0747e-06	1340.3	363.03	4.0375e-06	4.0647e-06	415.49	140.58	121.09	42.115	4.0494e-06	52.363	92.336	92.088	96.985	18.871	165.256	121.847	18.648	23.569	154.985	163.605	23.199	27.295	27.790	32.721	150.180	31.671	-8191	255	
7520.639	1	1	0	0	0.031678	0.2345	0.11199	0.143	0.15882	0.2492	0.23114	0.14606	0.15183	0.093914	0.060575	0.054308	0.047911	0.073533	0.089256	0.017876	-2.7229	-2.5125	-2.8667	-2.8792	-2.6021	-2.8896	-2.875	-2.8979	-2.8917	-2.6604	-2.9	-2.9437	-2.5979	-2.9	-2.7438	-2.7542	55.112	61.271	99.572	342.294	50.816	59.344	263.308	269.746	285.778	138.033	344.087	290.971	165.025	223.258	178.644	196.216	0.00050878	0.00036899	0.0001733	1316.3	8.1613e-06	8.4493e-06	1317.9	356.21	5.117e-06	5.3708e-06	408.61	137.92	119.3	41.089	5.7905e-06	51.159	0.00037672	0.00036131	0.00010117	1329.8	4.0301e-06	3.9582e-06	1333.9	361.09	4.1398e-06	4.0838e-06	414.61	139.96	120.94	42.013	4.2363e-06	52.297	96.260	89.717	103.514	18.620	153.306	115.415	18.701	23.497	166.988	120.393	23.043	27.217	27.770	32.348	157.673	31.619	-8191	255	
7520.759	1	1	0	0	0.13827	0.16667	0.10012	0.17708	0.20041	0.095209	0.15265	0.054421	0.2521	0.028612	0.072987	0.27849	0.4039	0.15962	0.25103	0.23852	-2.5917	-2.6063	-2.7667	-3.0938	-2.5208	-2.8937	-3.0833	-2.7562	-2.8812	-2.6813	-2.9125	-2.9188	-2.6937	-2.9125	-2.8563	-2.8021	154.398	96.035	129.066	346.912	97.568	77.282	16.834	236.174	179.425	331.076	65.245	341.865	45.386	39.225	244.351	256.070	0.00053433	0.00049252	0.00011542	1319.3	3.9448e-06	6.1159e-06	1318.9	356.42	2.1782e-06	6.7059e-06	410.12	137.78	119.42	40.969	6.1202e-06	50.979	0.0003908	0.00037249	0.00010461	1331.9	4.1259e-06	4.0001e-06	1334.5	361.41	4.0229e-06	4.0179e-06	414.57	140	120.79	41.923	3.8766e-06	52.125	90.899	101.225	94.039	18.737	158.235	149.176	18.799	23.326	207.560	155.516	23.092	27.395	27.947	32.413	168.934	31.716	-8191	255	
7520.831	1	1	0	0	0.16218	0.18511	0.025296	0.33381	0.10838	0.22798	0.21346	0.2255	0.21236	0.14689	0.056026	0.15588	0.12688	0.1087	0.30092	0.37182	-2.4229	-2.5771	-2.7	-2.9104	-2.5354	-2.7708	-2.9625	-2.7	-2.9458	-2.7354	-2.8208	-3.0438	-2.6854	-2.8438	-2.7667	-2.6292	212.356	194.868	249.596	300.113	44.726	163.952	351.302	267.750	365.246	269.118	157.161	323.435	258.304	177.277	96.767	288.767	0.00049686	0.0004675	0.00018609	1307.9	5.2593e-06	2.2075e-06	1302.8	352.31	6.3321e-06	5.9801e-06	406.15	136.11	118.25	40.564	6.7816e-06	50.739	0.00035581	0.00033446	9.2709e-05	1320.5	3.6276e-06	3.5661e-06	1318.1	357.58	3.6027e-06	3.5592e-06	409.94	138.71	119.46	41.396	3.634e-06	51.705	92.740	72.789	73.162	18.797	134.111	178.630	18.732	23.478	150.720	136.316	22.881	27.574	28.031	32.545	134.317	31.758	-8191	255	
7520.927	1	1	0	0	0.0078967	0.10501	0.11944	0.10649	0.19045	0.068179	0.16681	0.10969	0.25658	0.18211	0.03174	0.19099	0.1217	0.28105	0.148	0.49689	-2.2479	-2.6625	-2.5833	-3.0042	-2.4625	-2.8708	-3.0417	-2.6875	-2.9062	-2.6792	-2.625	-3.0104	-2.6771	-2.8521	-2.9375	-2.5792	208.233	137.183	141.538	251.784	161.555	112.513	295.648	15.260	317.847	110.250	215.253	335.385	306.665	364.382	41.561	259.773	0.00049884	0.00070178	9.3817e-05	1303.9	7.2503e-06	5.03e-06	1305.3	353.36	6.6854e-06	4.7263e-06	404.62	136.68	118.15	40.761	2.5262e-06	50.844	0.00034304	0.000327	9.0908e-05	1315.2	3.6125e-06	3.6e-06	1318.6	357.54	3.6015e-06	3.5615e-06	409.73	138.95	119.5	41.535	3.5836e-06	51.784	91.462	115.978	125.482	18.732	153.791	142.905	18.761	23.610	160.373	133.026	22.914	27.431	27.803	32.389	158.820	31.737	-8191	255	
7521.023	1	1	0	0	0.18362	0.17181	0.2116	0.12164	0.18821	0.069458	0.15027	0.2182	0.29218	0.090746	0.42074	0.17146	0.16843	0.32735	0.2698	0.14761	-2.4479	-2.5771	-2.5458	-2.8833	-2.7667	-2.625	-2.9313	-2.8229	-2.7917	-2.5729	-2.8542	-2.9792	-2.4417	-2.7229	-2.8417	-2.7271	104.791	316.592	103.565	315.042	296.930	267.182	319.722	313.823	157.441	347.171	23.801	11.731	221.084	324.444	170.790	230.923	0.00042495	0.00051441	0.00017579	1295.7	4.5621e-06	4.1595e-06	1299.2	350.47	4.1693e-06	5.8634e-06	404.54	136.29	117.35	40.654	3.7374e-06	50.665	0.00033225	0.00031877	8.9387e-05	1307.9	3.5408e-06	3.4918e-06	1311.1	355.6	3.5879e-06	3.6517e-06	408.54	138.29	118.9	41.42	3.7572e-06	51.715	95.552	63.419	108.763	18.784	139.695	121.451	18.677	23.446	147.130	162.132	23.007	27.321	27.836	32.401	123.836	31.884	-8191	255	
7521.144	1	1	0	0	0.18829	0.19033	0.27076	0.23756	0.025128	0.026083	0.11611	0.26399	0.12446	0.28105	0.094556	0.21116	0.36052	0.2884	0.13495	0.11455	-2.3563	-2.6104	-2.4313	-2.8979	-2.5917	-2.7583	-2.9792	-2.8	-2.8438	-2.7271	-2.7958	-3.0479	-2.6063	-2.775	-2.9562	-2.6042	143.256	337.706	92.899	358.375	213.732	201.526	284.960	334.148	209.593	213.478	129.460	280.556	45.238	355.833	190.575	316.835	0.00051802	0.00026287	0.00018554	1294.2	4.0285e-06	5.236e-06	1301.6	351.07	3.4905e-06	4.8425e-06	404.96	136.63	117.93	40.944	7.2525e-06	51.176	0.00035864	0.0003391	9.7649e-05	1309	3.8347e-06	3.8775e-06	1315.1	356.65	3.9701e-06	3.8702e-06	410.36	139.18	119.88	41.68	3.9187e-06	52.017	90.706	32.746	131.017	18.887	139.286	134.162	18.842	23.550	147.594	141.191	22.982	27.368	27.944	32.372	138.637	31.679	-8191	255	
7521.240	1	1	0	0	0.20724	0.054684	0.088042	0.054033	0.16307	0.22642	0.40998	0.28693	0.16645	0.11038	0.067117	0.26653	0.04786	0.11437	0.18228	0.24606	-2.2104	-2.7917	-2.5646	-3.2229	-2.7208	-2.8146	-3.2292	-2.7417	-2.6562	-2.9208	-2.6333	-2.8875	-2.8417	-2.6104	-2.7833	-2.5938	272.532	359.284	30.751	14.347	265.108	166.051	341.084	321.616	204.935	205.922	105.186	278.470	18.987	265.628	164.569	341.916	0.00052364	0.00061212	0.00021054	1303	5.9104e-06	3.8864e-06	1306.5	352.66	2.0407e-06	3.5587e-06	405.82	136.81	118.71	40.888	3.9747e-06	50.896	0.00037057	0.000356	9.8852e-05	1316.3	3.8897e-06	3.8778e-06	1322.5	357.57	3.992e-06	3.9022e-06	411.35	139.24	120.16	41.735	3.9676e-06	51.969	97.083	61.621	53.914	18.932	154.102	160.627	18.809	23.487	152.740	169.323	23.009	27.630	27.873	32.244	151.462	31.732	-8191	255	
7521.336	1	1	0	0	0.18626	0.095778	0.073463	0.29316	0.10958	0.2885	0.095627	0.13822	0.18534	0.24471	0.22582	0.1899	0.54409	0.09853	0.015687	0.31968	-2.1667	-2.6583	-2.4396	-2.9396	-2.75	-2.5604	-3.1458	-2.9083	-2.7125	-2.8167	-2.6937	-3.0292	-2.825	-2.4813	-2.8125	-2.7458	114.901	239.999	247.241	274.038	86.513	207.206	220.596	331.717	258.244	222.544	301.856	295.987	35.839	284.325	169.854	298.999	0.00052217	0.00041773	0.00020007	1301.7	4.4104e-06	5.7877e-06	1309.9	352.75	4.8772e-06	6.1855e-06	405.61	138.14	118.34	40.969	5.3935e-06	51.052	0.00037515	0.00035708	0.0001003	1316.3	3.961e-06	3.9827e-06	1322.9	358.03	3.9373e-06	3.9249e-06	411.26	139.69	120.17	41.89	3.943e-06	52.127	83.075	68.480	92.503	18.906	181.647	149.154	18.707	23.390	132.193	158.142	23.234	27.392	28.026	32.399	131.575	31.424	-8191	255	
7521.408	1	1	0	0	0.0063067	0.15863	0.25088	0.15641	0.28829	0.31176	0.10181	0.081774	0.10223	0.091355	0.036523	0.071014	0.14585	0.28261	0.13495	0.079158	-2.125	-2.6979	-2.6104	-2.7958	-2.7062	-2.5208	-2.9333	-2.7979	-2.6292	-2.7708	-2.6625	-2.8271	-2.7583	-2.6375	-2.7396	-2.7146	80.147	44.556	289.511	317.776	175.229	50.788	316.914	193.675	284.059	196.486	188.991	277.558	307.626	316.195	260.516	141.402	0.00054645	0.00066119	8.5488e-05	1306.8	5.206e-06	4.8048e-06	1302.8	351.78	6.3751e-06	3.7281e-06	405.41	136.6	118.47	41.017	5.8916e-06	50.756	0.00036985	0.0003436	9.7878e-05	1318.7	3.8109e-06	3.7879e-06	1318.2	357.73	3.8599e-06	3.7547e-06	410.35	139.1	119.8	41.685	3.8122e-06	51.861	92.170	105.731	70.825	18.724	144.355	151.628	18.755	23.390	154.000	105.730	22.929	27.454	27.868	32.383	131.618	31.624	-8191	255	
7521.529	1	1	0	0	0.1856	0.27003	0.063155	0.37897	0.16194	0.14445	0.040545	0.056636	0.19793	0.1126	0.14648	0.059308	0.14836	0.22568	0.12151	0.11295	-2.0917	-2.8396	-2.4479	-2.9437	-2.9042	-2.5229	-2.9854	-2.7729	-2.6271	-2.8042	-2.7354	-2.8458	-2.8479	-2.5375	-2.75	-2.8167	75.674	123.940	298.782	335.387	318.488	60.627	359.417	313.144	161.118	200.310	271.651	286.272	306.828	349.847	177.217	231.097	0.00053156	0.00055045	0.00015816	1297.5	4.9333e-06	3.4647e-06	1305.7	350.87	6.6455e-06	2.6654e-06	404.5	136.44	118.11	40.683	6.8417e-06	50.757	0.00035704	0.00033895	9.3936e-05	1311.9	3.7684e-06	3.6941e-06	1316.5	356.21	3.687e-06	3.658e-06	409.25	138.7	119.47	41.529	3.7795e-06	51.757	94.712	82.676	121.197	18.785	176.498	125.887	18.669	23.534	122.791	149.762	23.013	27.473	27.846	32.556	126.237	31.559	-8191	255	
7521.625	1	1	0	0	0.12965	0.34361	0.1452	0.11709	0.11454	0.068414	0.18896	0.28479	0.21479	0.096093	0.19206	0.30025	0.17244	0.056122	0.15382	0.34653	-2.1333	-2.8458	-2.7542	-2.7188	-2.9229	-2.4729	-2.8354	-3.0729	-2.5375	-2.6458	-2.7333	-2.6521	-2.8063	-2.5062	-2.8708	-2.9667	13.897	12.562	272.730	47.519	80.465	143.407	298.420	346.844	52.196	239.157	348.865	308.772	237.872	295.975	174.880	77.214	0.00052005	0.00056425	0.00017059	1299.3	6.7358e-06	4.5104e-06	1299.5	350.28	7.4969e-06	4.4418e-06	402.79	135.65	117.34	40.56	4.5292e-06	50.603	0.0003476	0.00032817	9.3544e-05	1310	3.6392e-06	3.5692e-06	1311.7	355.13	3.6641e-06	3.5274e-06	407.64	138.05	118.81	41.272	3.6447e-06	51.538	89.063	58.911	111.298	18.926	167.240	124.546	18.714	23.390	157.688	154.060	23.010	27.584	27.982	32.653	113.574	31.590	-8191	255	
7521.721	1	1	0	0	0.1642	0.18863	0.069231	0.28125	0.23319	0.098318	0.19823	0.14814	0.1339	0.097994	0.13112	0.25965	0.23549	0.22362	0.27657	0.58423	-2.1125	-2.7854	-2.5438	-2.6542	-2.8667	-2.4854	-2.8917	-3.0021	-2.4896	-2.9625	-2.7062	-2.5583	-2.5896	-2.5604	-2.6396	-2.9479	115.035	276.394	198.682	282.196	205.807	63.994	9.846	257.963	338.999	127.347	356.342	255.702	17.386	358.612	277.404	188.029	0.00051542	0.00051119	0.00017929	1293	5.8671e-06	3.75e-06	1291.5	350.43	3.9931e-06	4.7443e-06	401.84	135.74	117.24	40.467	6.2267e-06	50.481	0.00034438	0.00032498	8.998e-05	1304.1	3.6162e-06	3.5844e-06	1308.2	354.83	3.6637e-06	3.5469e-06	407.31	137.98	118.61	41.286	3.6568e-06	51.462	90.410	76.002	106.326	18.876	140.671	128.499	18.854	23.770	141.690	168.012	22.933	27.438	28.227	32.675	156.099	31.829	-8191	255	
7521.840	1	1	0	0	0.18201	0.13756	0.10867	0.24515	0.27708	0.029928	0.17883	0.28448	0.043709	0.11115	0.23458	0.27116	0.073768	0.2766	0.25953	0.1782	-1.9104	-2.7167	-2.4896	-2.8042	-2.9104	-2.5938	-2.6875	-3.1375	-2.4958	-2.675	-2.7083	-2.725	-2.8646	-2.6104	-2.4979	-2.6813	200.782	344.895	38.895	96.889	233.744	342.495	338.866	326.961	255.808	311.783	340.065	296.937	177.248	199.304	34.310	329.598	0.0004151	0.00046129	0.00016811	1290.2	3.3144e-06	5.1488e-06	1296	349.83	8.4392e-06	7.207e-06	402.37	136.02	117.31	40.307	4.2941e-06	50.477	0.00033713	0.00032457	8.89e-05	1303.2	3.6595e-06	3.5669e-06	1308.3	354.18	3.6852e-06	3.6541e-06	407.84	138.1	118.79	41.265	3.7505e-06	51.457	92.088	77.200	132.832	18.915	106.844	146.622	18.820	23.442	138.692	137.046	23.039	27.496	28.067	32.336	130.515	31.816	-8191	255	
7521.936	1	1	0	0	0.10456	0.18367	0.23688	0.25746	0.079962	0.092046	0.20699	0.44854	0.087797	0.11645	0.4882	0.088656	0.24063	0.17224	0.367	0.27203	-1.9542	-2.7896	-2.6937	-2.6396	-2.9333	-2.6083	-2.7021	-2.9313	-2.4333	-2.3896	-2.825	-2.5208	-2.7146	-2.8312	-2.5271	-2.9229	209.482	269.133	347.593	27.272	67.353	106.362	292.207	348.716	135.632	159.713	288.396	343.982	75.643	332.033	95.086	258.894	0.00046749	0.00085989	0.00016086	1296.4	6.5202e-06	4.0329e-06	1292.2	350.28	3.5461e-06	5.0299e-06	404.15	136.06	117.57	40.598	3.7796e-06	50.475	0.00034965	0.00033464	9.3682e-05	1305.2	3.6811e-06	3.6355e-06	1310.5	354.75	3.7526e-06	3.7536e-06	408.29	138.19	118.73	41.31	3.7609e-06	51.551	92.884	79.059	73.720	18.930	181.009	143.829	18.833	23.563	183.728	165.659	23.078	27.354	27.916	32.669	149.814	31.639	-8191	255	
7522.032	1	1	0	0	0.069701	0.2822	0.20992	0.16439	0.26583	0.092667	0.18211	0.14951	0.036135	0.18261	0.13555	0.10174	0.076755	0.15157	0.40501	0.3256	-2.2521	-2.6333	-2.8438	-2.7458	-2.7979	-2.675	-2.7042	-3.0333	-2.5458	-2.6125	-2.8125	-2.5542	-2.8229	-2.7562	-2.6604	-2.9875	114.130	190.700	135.980	75.190	29.370	214.331	294.222	296.821	183.410	136.525	175.307	184.294	205.628	274.824	75.428	302.240	0.00049063	0.00057364	0.00020688	1297.3	6.9006e-06	4.8391e-06	1295.2	350	4.8307e-06	6.3745e-06	404.88	135.95	118.07	40.371	5.8147e-06	50.752	0.00035161	0.00033179	9.2889e-05	1305.7	3.6256e-06	3.6353e-06	1309.4	354.82	3.6889e-06	3.6496e-06	408.74	138.12	119.25	41.357	3.7601e-06	51.588	91.316	92.122	89.581	18.975	172.336	135.586	18.945	23.640	147.121	148.188	22.831	27.359	27.936	32.497	123.663	31.706	-8191	255	
7522.128	1	1	0	0	0.18935	0.054884	0.1952	0.39822	0.27485	0.17332	0.41064	0.23484	0.23321	0.07625	0.1087	0.099629	0.09275	0.12549	0.23337	0.21125	-1.9021	-2.575	-2.7229	-2.6354	-2.7354	-2.6979	-2.5104	-2.9771	-2.4938	-2.7521	-2.9167	-2.6021	-2.95	-2.6063	-2.4646	-2.675	252.549	74.438	166.096	234.957	237.961	73.952	260.568	307.743	336.720	218.687	297.237	339.282	306.314	24.809	93.826	291.279	0.0005255	0.00057874	0.00020682	1294.2	3.6472e-06	5.9079e-06	1294.9	349.18	3.9473e-06	2.5784e-06	403.66	135.93	117.86	40.576	6.7725e-06	50.451	0.00035174	0.00032746	9.1333e-05	1306.3	3.6332e-06	3.5938e-06	1309.9	354.84	3.6324e-06	3.6392e-06	408.54	138.12	119.18	41.305	3.6971e-06	51.564	93.367	83.788	102.528	18.627	167.308	144.577	18.698	23.532	146.568	171.952	23.018	27.348	27.936	32.491	148.135	31.578	-8191	255	
7522.224	1	1	0	0	0.27717	0.047366	0.24201	0.19572	0.13404	0.21102	0.16365	0.31759	0.1	0.17901	0.28961	0.37526	0.21655	0.31173	0.098883	0.13994	-1.9229	-2.425	-2.775	-2.4938	-2.75	-2.7833	-2.6458	-2.9688	-2.5438	-2.4396	-2.9292	-2.75	-2.7188	-2.9354	-2.5396	-2.8104	290.365	68.523	60.319	333.422	340.117	364.439	319.352	316.986	170.455	228.031	15.182	295.675	348.344	351.900	285.384	136.352	0.00046855	0.00061197	0.00013733	1294.7	5.3408e-06	4.7165e-06	1298.6	349.94	5.443e-06	2.8224e-06	402.89	136.49	117.81	40.587	4.2818e-06	50.588	0.00034633	0.00032361	8.906e-05	1306.5	3.5185e-06	3.5605e-06	1310.5	355.16	3.5609e-06	3.5676e-06	408.68	138.45	119.06	41.427	3.5718e-06	51.616	94.764	91.192	102.796	18.807	196.915	160.399	18.759	23.504	184.828	139.182	22.939	27.582	28.140	32.410	125.647	31.598	-8191	255	
7522.321	1	1	0	0	0.23556	0.16343	0.082806	0.11336	0.19786	0.22498	0.31027	0.20377	0.073458	0.13099	0.19842	0.18534	0.029594	0.083946	0.31217	0.2527	-2.0792	-2.6354	-2.7771	-2.6979	-2.6125	-2.7208	-2.6646	-2.9479	-2.7667	-2.45	-2.825	-2.7375	-2.6	-2.8042	-2.4896	-2.8312	123.254	194.552	306.327	291.365	263.988	130.177	294.834	298.967	318.646	271.940	20.573	261.046	254.256	242.924	148.382	306.446	0.00049129	0.00062989	0.00012784	1295.2	8.1623e-06	6.0399e-06	1299.1	350.02	5.6374e-06	3.3307e-06	403.38	136.36	117.5	40.657	5.4925e-06	50.734	0.0003382	0.00031951	8.8536e-05	1307.3	3.5115e-06	3.464e-06	1311.7	355.29	3.4949e-06	3.4905e-06	408.4	138.46	119.08	41.489	3.5299e-06	51.678	88.869	107.895	133.517	18.865	152.273	152.467	18.671	23.549	155.372	131.334	23.116	27.454	28.035	32.496	124.472	31.758	-8191	255	
7522.441	1	1	0	0	0.12364	0.050804	0.049947	0.12944	0.15848	0.12872	0.2051	0.19224	0.16775	0.18814	0.46186	0.2249	0.18593	0.1965	0.1775	0.054638	-2.2125	-2.4521	-2.7417	-2.7667	-2.4792	-2.85	-2.675	-2.8812	-2.7896	-2.4104	-2.9396	-2.6979	-2.6708	-2.7792	-2.5896	-2.8042	57.267	132.702	174.775	300.717	347.665	233.449	337.618	306.186	115.924	197.281	330.815	293.883	258.388	278.822	181.210	7.290	0.00052082	0.00065483	2.6759e-05	1296.7	8.8818e-06	5.9976e-06	1299.8	350.99	5.3587e-06	6.0845e-06	402.69	136.23	117.68	40.676	4.803e-06	50.804	0.00032931	0.00030833	8.6693e-05	1307.6	3.4484e-06	3.3782e-06	1311.8	355.63	3.4065e-06	3.3476e-06	408.02	138.4	119	41.477	3.4206e-06	51.684	93.789	74.069	132.702	18.800	171.334	160.003	18.680	23.625	156.566	161.612	22.881	27.456	28.246	32.203	144.566	31.572	-8191	255	
7522.537	1	1	0	0	0.25951	0.38124	0.083216	0.25548	0.13835	0.18757	0.17508	0.11733	0.042397	0.069572	0.43301	0.18093	0.24357	0.25301	0.15331	0.19159	-2.3	-2.4542	-2.6458	-2.9625	-2.6437	-2.8917	-2.7729	-2.7729	-2.7	-2.5958	-2.8458	-2.8229	-2.5542	-3.0646	-2.6312	-2.6188	202.077	109.392	37.405	334.258	92.867	206.845	230.815	286.487	254.722	301.402	351.193	320.583	168.865	275.866	328.974	279.117	0.00055999	0.00061889	0.00012931	1297.1	4.1774e-06	1.3221e-06	1299.5	350.86	4.5054e-06	6.6974e-06	403.68	137.06	117.39	40.622	4.6271e-06	50.44	0.00032556	0.00030574	8.5598e-05	1308	3.3591e-06	3.3383e-06	1312.2	355.81	3.385e-06	3.3808e-06	408.45	138.77	118.89	41.455	3.4302e-06	51.618	90.409	118.519	117.871	18.824	141.967	174.838	18.757	23.418	149.581	133.838	23.217	27.506	28.176	32.584	152.329	31.649	-8191	255	
7522.632	1	1	0	0	0.19436	0.023325	0.15528	0.20711	0.16874	0.23708	0.30343	0.051577	0.18754	0.35942	0.10251	0.19798	0.15406	0.25818	0.16801	0.09537	-2.425	-2.3771	-2.6437	-2.8146	-2.5687	-2.8333	-2.7396	-2.8375	-2.8125	-2.6312	-2.8479	-2.8521	-2.6521	-2.8917	-2.6146	-2.6479	157.712	306.281	75.284	13.392	118.048	358.885	268.681	97.343	324.219	237.485	337.153	52.557	32.002	341.454	191.653	222.628	0.00051854	0.00045012	0.00012232	1292.4	3.993e-06	4.9551e-06	1298.7	351.03	3.6686e-06	5.0833e-06	404.99	136.59	117.54	40.723	4.1021e-06	50.783	0.00032695	0.0003031	8.7097e-05	1305.6	3.4313e-06	3.4113e-06	1312.3	355.61	3.4433e-06	3.4696e-06	408.62	138.66	119.08	41.516	3.5649e-06	51.665	93.087	85.852	130.409	18.793	184.010	143.855	18.912	23.458	122.679	124.335	22.999	27.323	27.804	32.404	167.054	31.554	-8191	255	
7522.705	1	1	0	0	0.079085	0.25998	0.18949	0.22774	0.18804	0.35502	0.2019	0.32706	0.054441	0.20671	0.028665	0.20802	0.21662	0.14026	0.25347	0.16677	-2.3583	-2.4854	-2.7625	-3.0125	-2.6458	-2.8708	-2.8688	-2.8646	-2.8208	-2.6417	-2.825	-2.8875	-2.5021	-2.8521	-2.5458	-2.5396	186.828	177.556	342.072	333.227	356.197	67.461	307.468	246.841	138.739	115.148	19.391	346.558	364.795	319.402	165.444	345.906	0.0005126	0.00051946	0.00011694	1296.4	7.2884e-06	6.2429e-06	1298.9	350.84	5.0157e-06	5.4748e-06	404.02	136.58	118.04	40.765	6.2462e-06	50.928	0.00033725	0.00031612	8.7879e-05	1309.5	3.5388e-06	3.4557e-06	1313.1	355.88	3.5544e-06	3.5016e-06	408.79	138.73	119.43	41.589	3.4761e-06	51.743	96.150	96.442	95.265	18.966	140.075	158.979	18.759	23.346	156.426	162.559	23.081	27.280	27.883	32.265	139.296	31.743	-8191	255	
7522.824	1	1	0	0	0.12146	0.11807	0.20728	0.3589	0.16446	0.0074701	0.03486	0.19458	0.39146	0.11897	0.16162	0.16341	0.15882	0.13187	0.1325	0.14141	-2.375	-2.5646	-2.6312	-3.0438	-2.5542	-2.7896	-2.8646	-2.6771	-2.9292	-2.5896	-2.8458	-2.8542	-2.6604	-2.8521	-2.6083	-2.6542	182.835	299.059	262.197	12.576	51.335	128.668	191.525	27.145	308.867	292.730	339.773	107.340	85.838	311.816	150.366	331.163	0.00052138	0.00017791	0.00016368	1296.6	4.5429e-06	7.3494e-06	1304.7	351.95	7.3158e-06	3.8825e-06	405.19	136.43	117.8	40.635	6.4946e-06	50.989	0.00033235	0.00031188	8.811e-05	1310.3	3.5091e-06	3.4462e-06	1315.3	356.04	3.4914e-06	3.4848e-06	409.35	138.67	119.26	41.548	3.5369e-06	51.793	87.637	124.841	103.173	18.901	172.540	107.811	18.759	23.626	153.818	116.244	22.952	27.445	27.951	32.568	154.664	31.768	-8191	255	
7522.920	1	1	0	0	0.073602	0.14827	0.16037	0.42459	0.19252	0.19712	0.49531	0.30213	0.29451	0.12091	0.1419	0.10522	0.1283	0.26741	0.30799	0.19531	-2.3958	-2.675	-2.4833	-2.8917	-2.5521	-2.9604	-3.1229	-2.8187	-2.6917	-2.8271	-2.7083	-3.0396	-2.6875	-2.85	-2.6854	-2.4583	111.370	295.682	154.285	311.183	303.673	141.405	322.609	321.130	61.368	112.861	287.076	250.732	280.489	356.520	115.609	260.475	0.00050599	0.00047451	0.00025075	1293.6	4.7829e-06	3.6779e-06	1302.7	350.95	5.184e-06	5.0844e-06	403.49	136.85	117.81	40.588	3.6268e-06	50.788	0.00033345	0.00031716	8.8741e-05	1307.4	3.4651e-06	3.4889e-06	1312.9	355.48	3.4309e-06	3.5001e-06	408.67	138.64	119.17	41.433	3.4988e-06	51.669	99.199	98.075	90.217	18.862	175.392	131.564	18.791	23.399	143.292	163.237	23.008	27.561	28.152	32.270	130.076	31.693	-8191	255	
7523.016	1	1	0	0	0.42955	0.33652	0.20037	0.19009	0.042199	0.28872	0.19733	0.12898	0.31397	0.16906	0.31172	0.30549	0.21788	0.12543	0.13521	0.17061	-2.525	-2.6479	-2.5771	-3.0917	-2.4583	-2.6771	-2.9875	-2.7938	-2.6896	-2.6479	-2.7	-2.9562	-2.6292	-2.6354	-2.7979	-2.5729	120.855	234.285	91.182	360.139	106.610	98.441	267.488	354.598	14.036	159.695	293.857	309.891	63.774	356.909	72.890	280.412	0.00047934	0.00023889	0.00017408	1292.3	4.4006e-06	7.1882e-06	1296.1	350.29	6.6932e-06	3.9098e-06	403.02	136.01	117.43	40.593	1.0633e-06	50.667	0.00033513	0.00031406	8.835e-05	1305.5	3.4445e-06	3.5001e-06	1309.9	355.09	3.515e-06	3.4439e-06	407.73	138.34	118.91	41.391	3.4491e-06	51.649	89.266	53.627	106.642	18.903	145.426	157.734	18.882	23.399	147.890	164.904	22.981	27.725	28.057	32.613	190.341	31.712	-8191	255	
7523.113	1	1	0	0	0.1883	0.24479	0.086569	0.29347	0.089735	0.098394	0.33472	0.29541	0.088923	0.20823	0.28016	0.074611	0.36687	0.17272	0.12407	0.192	-2.5417	-2.6479	-2.4271	-2.8312	-2.5	-2.5896	-3.1167	-2.5625	-2.8042	-2.6708	-2.7083	-2.9542	-2.6125	-2.7188	-2.8292	-2.6083	276.693	168.421	94.031	17.288	35.448	275.545	340.253	338.730	19.963	12.614	334.233	12.622	274.475	307.604	158.781	219.571	0.00048047	0.00044578	0.00011622	1292.6	5.1604e-06	6.4814e-06	1296.1	348.91	2.6003e-06	4.4599e-06	402.76	136.07	117.25	40.607	7.0208e-06	50.6	0.00033082	0.00031479	8.6702e-05	1304	3.5382e-06	3.4876e-06	1307.7	354.44	3.5327e-06	3.4551e-06	407.08	138.01	118.88	41.359	3.5605e-06	51.544	93.961	85.721	73.635	18.794	161.767	127.700	18.767	23.469	154.185	170.062	23.167	27.421	27.936	32.507	149.004	31.684	-8191	255	
7523.209	1	1	0	0	0.31313	0.16647	0.21495	0.28266	0.14808	0.19018	0.3857	0.19555	0.30836	0.12904	0.2301	0.079791	0.1154	0.054113	0.1695	0.18129	-2.4458	-2.6979	-2.6854	-3	-2.5146	-2.6792	-3.0604	-2.7208	-2.8146	-2.8146	-2.5854	-3.0292	-2.8021	-2.7021	-2.9	-2.7188	188.610	25.270	298.738	353.939	146.494	92.540	299.634	242.908	300.434	338.180	50.688	362.213	362.656	187.012	351.136	281.485	0.00054722	0.00063167	0.00014928	1289.6	7.1675e-06	5.8701e-06	1291.9	349.99	3.9798e-06	2.0064e-06	403.43	135.92	117.27	40.429	4.4188e-06	50.921	0.00033198	0.00031275	8.8301e-05	1302	3.4922e-06	3.5075e-06	1306	353.96	3.6134e-06	3.4592e-06	407.38	138.14	118.7	41.311	3.5394e-06	51.636	90.263	84.507	113.536	18.907	154.441	122.841	18.703	23.597	130.134	166.092	23.042	27.571	27.996	32.549	112.364	31.858	-8191	255	
7523.305	1	1	0	0	0.20777	0.053966	0.36069	0.083691	0.068592	0.076197	0.27574	0.29232	0.069807	0.24356	0.20545	0.1832	0.31791	0.048773	0.18856	0.23326	-2.2208	-2.7938	-2.4875	-3.0958	-2.7438	-2.4917	-3.1167	-2.775	-2.5729	-2.8187	-2.5583	-2.9021	-2.7646	-2.7396	-2.825	-2.5646	198.890	22.445	62.877	209.189	248.474	235.030	306.849	313.849	313.223	282.445	314.369	358.410	279.591	309.247	84.373	302.652	0.00049926	0.00036671	0.00012518	1290.5	4.1212e-06	5.8767e-06	1290.6	347.94	6.2946e-06	3.6727e-06	403.62	135.78	117.14	40.403	2.3851e-06	50.507	0.00033677	0.00031793	8.8947e-05	1302.4	3.4636e-06	3.4456e-06	1305.3	353.45	3.6105e-06	3.4468e-06	407.03	138.08	118.83	41.375	3.5403e-06	51.569	92.371	85.655	112.315	18.889	158.623	128.125	18.793	23.621	168.301	140.694	22.919	27.369	27.967	32.499	142.317	31.600	-8191	255	
7523.401	1	1	0	0	0.091388	0.2166	0.21281	0.25096	0.05598	0.1314	0.32701	0.21157	0.10795	0.2311	0.31951	0.23692	0.13898	0.32631	0.12378	0.28874	-2.025	-2.8187	-2.4271	-2.9437	-2.8896	-2.7542	-2.875	-2.7938	-2.6063	-2.8583	-2.65	-2.7875	-2.8563	-2.6792	-2.7229	-2.7958	329.454	76.135	275.419	312.537	89.783	302.702	331.393	72.290	354.828	71.632	346.890	254.755	20.823	332.817	170.743	13.155	0.00045909	0.00054145	0.00010506	1288.5	5.6807e-06	4.0144e-06	1294.5	348.82	4.7154e-06	4.6728e-06	403.86	135.55	117.71	40.543	5.0634e-06	50.741	0.00033704	0.00031546	8.9844e-05	1302.3	3.4767e-06	3.4683e-06	1307.3	353.89	3.5787e-06	3.4883e-06	407.46	137.94	118.89	41.372	3.6016e-06	51.602	89.115	93.982	71.871	19.031	198.740	137.148	18.753	23.499	159.134	189.275	23.227	27.441	28.039	32.403	129.522	31.603	-8191	255	
7523.522	1	1	0	0	0.2358	0.083217	0.12359	0.24412	0.19991	0.1095	0.3747	0.10565	0.22811	0.25854	0.045193	0.25199	0.20428	0.028831	0.19757	0.14771	-2.075	-2.8604	-2.5146	-2.8771	-2.7104	-2.4667	-2.9521	-2.8625	-2.4437	-2.9292	-2.6042	-2.775	-3.0521	-2.4625	-2.8458	-2.8833	37.691	322.148	207.678	311.405	266.687	307.345	312.743	325.903	120.940	113.899	153.914	305.749	216.549	36.895	251.665	343.461	0.00054636	0.00045263	0.00011731	1287.4	5.5543e-06	5.3175e-06	1291.3	349.63	4.1327e-06	5.1204e-06	402.44	136.19	117.42	40.413	6.4731e-06	50.486	0.00033977	0.00031895	8.956e-05	1301.2	3.5812e-06	3.5004e-06	1306.1	354.09	3.5895e-06	3.5588e-06	407.33	138.17	118.66	41.237	3.6349e-06	51.488	88.245	100.630	63.600	18.874	145.721	157.928	18.738	23.573	173.650	151.675	23.102	27.649	27.805	32.492	134.151	31.775	-8191	255	
7523.618	1	1	0	0	0.23119	0.17872	0.085026	0.26892	0.069712	0.23784	0.36341	0.11825	0.095911	0.094538	0.23777	0.1092	0.077617	0.37946	0.14032	0.13464	-2.0583	-2.8396	-2.6125	-2.8	-2.6833	-2.525	-3.0396	-2.7188	-2.3896	-2.8563	-2.8312	-2.7562	-2.9938	-2.7062	-2.8417	-2.7958	234.982	240.388	67.242	24.151	125.530	239.353	313.798	310.731	311.584	273.934	327.836	19.201	308.541	258.746	67.915	33.092	0.00049859	0.0005889	0.00016066	1292	4.0339e-06	5.4476e-06	1291.7	348.45	3.3255e-06	4.6138e-06	401.49	135.94	117.14	40.502	6.2312e-06	50.602	0.0003444	0.00032017	9.0744e-05	1303.1	3.5254e-06	3.5809e-06	1305.6	354.01	3.6345e-06	3.5461e-06	407.35	138.07	118.56	41.323	3.6404e-06	51.634	82.018	85.193	80.382	18.913	161.464	150.124	18.831	23.638	175.713	122.530	22.962	27.401	28.021	32.563	124.900	31.690	-8191	255	
7523.712	1	1	0	0	0.11786	0.18367	0.12743	0.11337	0.083401	0.29985	0.06924	0.2819	0.1535	0.20743	0.22658	0.016997	0.076502	0.20583	0.12788	0.1153	-2.1479	-2.8979	-2.5896	-2.8771	-2.8479	-2.55	-2.9917	-3.0521	-2.4167	-2.8312	-2.6375	-2.7438	-2.7375	-2.6271	-2.7333	-2.9	251.102	297.400	167.720	349.789	328.155	234.405	81.470	298.066	218.999	241.572	61.438	243.395	70.122	42.928	341.556	340.762	0.00045284	0.00053091	0.00011968	1291	4.7085e-06	6.2578e-06	1294.4	350.16	7.1203e-06	4.3581e-06	402.56	136.32	117.73	40.637	3.1776e-06	50.511	0.00033989	0.00032326	8.98e-05	1304.4	3.5549e-06	3.5767e-06	1309	354.46	3.5955e-06	3.5246e-06	407.28	138.35	118.92	41.398	3.6144e-06	51.564	83.456	95.484	135.840	18.717	139.955	142.072	18.841	23.626	122.648	161.704	22.877	27.598	28.192	32.447	120.999	31.762	-8191	255	
7523.810	1	1	0	0	0.13883	0.14766	0.094712	0.053276	0.28151	0.14581	0.20782	0.026164	0.11884	0.216	0.061404	0.1035	0.29989	0.11102	0.24073	0.19161	-2.175	-2.9104	-2.75	-2.6562	-2.7938	-2.5146	-2.8396	-2.875	-2.5479	-2.8479	-2.7438	-2.3979	-2.9625	-2.6396	-2.6458	-3.0271	95.925	294.608	102.601	47.157	12.210	77.920	329.644	134.599	160.106	164.550	327.265	288.969	335.927	35.901	331.042	31.040	0.00059009	0.00046535	0.00012906	1289.2	4.086e-06	6.0591e-06	1300.3	350.03	4.8323e-06	3.5575e-06	401.59	136.08	117.38	40.602	5.071e-06	50.742	0.00034179	0.00031932	9.0751e-05	1303.4	3.5987e-06	3.5331e-06	1308.8	354.63	3.5782e-06	3.5616e-06	407.6	138.39	119.14	41.367	3.65e-06	51.58	87.054	61.053	101.428	19.014	167.009	184.794	18.803	23.492	176.330	147.247	23.100	27.552	28.103	32.518	163.544	31.653	-8191	255	
7523.929	1	1	0	0	0.1009	0.04873	0.12645	0.34439	0.080922	0.037646	0.25082	0.088809	0.33622	0.12793	0.062601	0.3529	0.10282	0.12184	0.16035	0.076715	-2.1146	-2.9125	-2.6604	-2.6396	-2.9813	-2.5938	-2.6833	-3.1146	-2.5542	-2.7729	-2.9333	-2.6708	-3.0312	-2.7562	-2.575	-2.8604	29.434	60.887	250.897	329.152	358.349	328.407	335.290	292.258	139.822	327.832	252.931	328.092	316.193	22.890	145.441	304.347	0.00050297	0.00068675	0.00017871	1294.1	5.2709e-06	6.8339e-06	1294	349.98	5.424e-06	4.12e-06	403.48	136.01	117.57	40.665	2.1441e-06	50.689	0.00034255	0.00032475	8.9764e-05	1304.1	3.5816e-06	3.5395e-06	1308.8	354.76	3.6215e-06	3.5055e-06	407.58	138.33	118.72	41.414	3.6279e-06	51.56	89.523	106.795	113.985	19.020	166.932	127.651	18.826	23.524	129.574	129.365	23.070	27.569	28.109	32.416	104.184	31.684	-8191	255	
7524.001	1	1	0	0	0.12394	0.077774	0.082137	0.35368	0.14582	0.20419	0.21035	0.028641	0.085152	0.17896	0.28751	0.43445	0.36962	0.11247	0.14079	0.14202	-2.1375	-2.6	-2.5333	-2.675	-2.7646	-2.6604	-2.6188	-3.0312	-2.7292	-2.4583	-2.8146	-2.4771	-2.8896	-2.8521	-2.4792	-2.8833	213.975	101.168	99.976	316.699	228.314	199.741	348.231	31.223	65.817	63.711	46.566	356.397	302.546	6.947	87.770	348.133	0.0004939	0.00037288	0.00019967	1294.1	5.9581e-06	9.8375e-06	1295	350.12	5.1901e-06	2.9378e-06	402.72	135.84	116.94	40.5	4.3883e-06	50.719	0.00034472	0.00032081	8.91e-05	1304.8	3.5874e-06	3.512e-06	1309.5	354.42	3.6348e-06	3.5335e-06	407.32	138.22	118.74	41.373	3.6622e-06	51.636	94.491	73.736	89.691	18.801	157.678	166.172	18.830	23.535	189.289	197.780	23.027	27.545	28.109	32.489	158.937	31.779	-8191	255	
7524.121	1	1	0	0	0.29425	0.26886	0.17036	0.21416	0.15306	0.15625	0.177	0.3002	0.18416	0.11969	0.14707	0.23023	0.22337	0.18543	0.086764	0.085957	-2.1771	-2.5062	-2.8375	-2.4313	-2.7625	-2.7375	-2.8396	-2.9625	-2.6208	-2.6479	-2.7667	-2.5542	-2.7354	-2.8792	-2.375	-2.8458	148.249	78.683	45.576	10.595	359.034	346.721	362.094	311.280	106.705	41.503	37.656	351.652	300.512	41.537	77.780	236.394	0.00051832	0.00049326	0.00010828	1296.6	4.3044e-06	3.7979e-06	1295.5	350.91	5.1343e-06	2.9863e-06	401.98	136.27	117.5	40.626	5.4044e-06	50.656	0.0003448	0.00032189	9.0418e-05	1306.6	3.5968e-06	3.519e-06	1310	355.12	3.6432e-06	3.5032e-06	407.26	138.29	118.78	41.363	3.5602e-06	51.591	94.450	128.390	79.855	18.725	166.570	185.279	18.986	23.471	182.545	125.643	23.051	27.496	28.099	32.583	155.477	31.696	-8191	255	
7524.217	1	1	0	0	0.17798	0.11444	0.20563	0.15676	0.22639	0.22439	0.3411	0.19073	0.21485	0.076877	0.23234	0.38279	0.33591	0.45463	0.22658	0.30352	-2.1792	-2.6542	-2.7417	-2.8146	-2.5896	-2.6479	-2.7292	-2.8812	-2.5938	-2.6583	-2.9292	-2.6021	-2.6167	-2.7625	-2.5667	-2.8312	59.670	195.711	271.781	24.321	320.463	229.660	335.439	345.711	202.489	189.296	195.821	272.339	45.779	358.903	183.147	314.772	0.00057999	0.00035111	0.00018191	1294.8	2.5817e-06	6.2156e-06	1297.3	349.91	8.1316e-06	3.927e-06	402.44	136.1	117.51	40.647	4.2335e-06	50.61	0.00034232	0.00031762	9.0044e-05	1307.1	3.5918e-06	3.524e-06	1311	354.78	3.6077e-06	3.5183e-06	407.94	138.3	119	41.472	3.5962e-06	51.669	90.290	83.417	122.877	18.770	178.307	141.937	18.740	23.487	168.163	175.220	22.821	27.527	28.109	32.364	131.901	31.624	-8191	255	
7524.314	1	1	0	0	0.08528	0.1595	0.15832	0.25515	0.27627	0.053847	0.30585	0.19351	0.24542	0.30463	0.030717	0.26527	0.24542	0.037721	0.10686	0.054399	-2.1125	-2.3896	-2.6646	-2.5708	-2.6458	-2.7896	-2.725	-2.8208	-2.6896	-2.4688	-3.0896	-2.5854	-2.6292	-2.7958	-2.6021	-2.8854	74.924	223.650	52.043	299.844	278.039	42.457	356.467	346.734	230.199	44.134	135.962	328.564	276.189	46.838	143.874	329.770	0.00048078	0.00066832	0.00011561	1294.8	4.1054e-06	6.1718e-06	1296.8	351.25	5.5992e-06	3.4874e-06	403.54	136.86	117.72	40.569	4.2941e-06	50.693	0.00033699	0.00032113	8.8978e-05	1308.3	3.553e-06	3.4993e-06	1312.7	355.7	3.5762e-06	3.466e-06	408.55	138.74	119.14	41.429	3.5555e-06	51.677	94.193	107.064	70.941	18.944	157.722	137.073	18.708	23.403	111.367	169.360	23.074	27.328	28.050	32.488	145.313	31.732	-8191	255	
7524.410	1	1	0	0	0.24904	0.23227	0.19408	0.054571	0.078139	0.042852	0.19858	0.30626	0.11691	0.15639	0.16604	0.096998	0.22847	0.26583	0.043751	0.13769	-2.3625	-2.3771	-2.9292	-2.8042	-2.65	-2.8854	-2.7396	-2.9896	-2.7062	-2.5854	-2.8979	-2.7583	-2.4896	-2.8542	-2.5833	-2.8354	150.379	87.570	88.135	362.763	229.761	158.955	301.184	364.795	207.324	32.337	289.537	170.939	349.510	26.774	144.441	274.669	0.00052488	0.00057388	7.1228e-05	1297.9	3.6382e-06	6.5813e-06	1304.2	349.6	6.0072e-06	4.8758e-06	402.95	135.99	117.39	40.349	4.2217e-06	50.294	0.00033527	0.00032168	8.7959e-05	1308.9	3.5013e-06	3.448e-06	1313.2	354.88	3.5887e-06	3.5076e-06	408.11	138.15	118.86	41.271	3.7092e-06	51.43	95.877	57.052	64.797	18.940	154.206	153.434	18.838	23.544	123.965	177.236	22.976	27.492	28.107	32.697	142.110	31.841	-8191	255	
7524.530	1	1	0	0	0.09743	0.15189	0.11166	0.36436	0.082343	0.065675	0.39762	0.38285	0.10806	0.15154	0.35863	0.13429	0.14129	0.38733	0.27018	0.40107	-2.3229	-2.3208	-2.7875	-2.9167	-2.5229	-2.8063	-2.7771	-2.8042	-2.8187	-2.4833	-2.725	-2.6688	-2.6479	-2.8917	-2.4354	-2.7208	287.736	223.374	213.514	341.365	77.929	26.946	340.483	321.542	107.946	32.969	346.698	313.350	302.240	334.232	249.607	236.024	0.00053484	0.00051456	0.00018779	1291.3	4.8516e-06	6.5155e-06	1296.9	349.85	5.5709e-06	5.4159e-06	402.48	135.67	116.71	40.288	3.77e-06	50.511	0.00035027	0.00032477	9.3693e-05	1305.4	3.7358e-06	3.6918e-06	1312.4	354.74	3.8077e-06	3.8246e-06	408.17	137.98	118.73	41.136	3.891e-06	51.436	83.339	63.091	103.399	18.805	193.582	148.014	18.706	23.517	140.977	150.305	22.952	27.361	27.771	32.482	112.595	31.546	-8191	255	
7524.602	1	1	0	0	0.097849	0.11318	0.042796	0.11789	0.22523	0.071584	0.50978	0.3748	0.21769	0.10792	0.35636	0.14335	0.28996	0.1625	0.077322	0.23363	-2.3042	-2.4083	-2.8792	-2.9062	-2.525	-2.9313	-2.8563	-2.7417	-2.8729	-2.4562	-2.8812	-2.8458	-2.5062	-2.725	-2.7125	-2.6792	114.683	8.248	45.843	289.204	215.758	100.334	303.888	354.176	82.546	176.584	260.631	153.464	360.601	6.585	182.603	215.714	0.00045963	0.00052299	0.00015651	1294.8	5.9098e-06	7.0279e-06	1300	351.09	5.2226e-06	2.472e-06	404.42	135.25	117.2	40.263	3.9966e-06	50.49	0.00035856	0.00034631	9.6798e-05	1309.3	3.8077e-06	3.8174e-06	1313	355.69	3.9103e-06	3.8813e-06	409.2	137.79	118.66	41.138	3.8858e-06	51.416	91.616	89.773	117.984	18.909	153.481	161.540	18.688	23.689	146.169	194.575	22.877	27.180	27.996	32.650	139.679	31.928	-8191	255	
7524.698	1	1	0	0	0.30166	0.078627	0.20781	0.25285	0.42451	0.092683	0.23074	0.28745	0.16178	0.13851	0.19743	0.18437	0.18635	0.13357	0.035748	0.099708	-2.4625	-2.4562	-2.6208	-2.7604	-2.3396	-2.925	-2.5687	-2.7896	-2.8896	-2.4917	-2.8229	-2.7417	-2.5958	-2.8021	-2.6292	-2.6188	68.346	150.846	180.878	323.415	263.774	92.609	327.614	257.835	199.887	129.428	349.823	312.269	340.240	276.242	196.883	191.940	0.00050045	0.00060371	0.0001066	1294.6	5.8233e-06	5.9665e-06	1297	351.12	3.2068e-06	2.4274e-06	403.87	135.79	117.49	40.362	7.73e-06	50.308	0.00035651	0.00035353	9.8331e-05	1309.8	3.8666e-06	3.8784e-06	1312.9	355.85	3.9287e-06	3.9213e-06	408.68	137.85	118.84	41.117	3.9883e-06	51.326	93.178	107.972	45.863	18.935	165.321	133.660	18.836	23.647	141.042	192.743	23.068	27.542	28.218	32.565	162.569	31.655	-8191	255	
7524.794	1	1	0	0	0.10059	0.12877	0.27949	0.29259	0.1653	0.1607	0.2139	0.2771	0.15225	0.095156	0.21605	0.10165	0.23447	0.2197	0.025495	0.18279	-2.3875	-2.6458	-2.7104	-3.0646	-2.5708	-2.8625	-2.9396	-2.8521	-2.75	-2.4208	-2.6958	-2.9042	-2.6208	-2.9292	-2.7417	-2.575	176.275	124.297	91.906	17.876	76.897	70.870	310.115	312.461	276.348	71.747	302.150	44.152	268.945	318.132	139.066	15.941	0.0005312	0.00050748	6.3448e-05	1299.5	4.7248e-06	8.4615e-06	1302.5	350.31	4.8008e-06	3.4923e-06	404.5	136.03	117.2	40.235	5.5417e-06	50.331	0.00036862	0.00035943	9.7069e-05	1310.5	3.9187e-06	3.9064e-06	1317.3	356.19	4.062e-06	3.9413e-06	409.66	138.23	118.86	41.142	3.9404e-06	51.403	88.266	83.188	95.363	18.968	194.503	120.465	18.720	23.625	136.508	114.875	23.080	27.384	28.146	32.578	145.954	31.930	-8191	255	
7524.890	1	1	0	0	0.12519	0.10587	0.35509	0.16707	0.29219	0.03698	0.14005	0.23667	0.02145	0.11064	0.033144	0.25456	0.25663	0.093626	0.26609	0.24231	-2.3208	-2.4417	-2.7542	-3.0333	-2.4354	-2.8167	-2.9771	-2.5729	-2.8375	-2.7625	-2.5896	-3.0896	-2.4417	-2.8958	-2.7021	-2.5729	84.713	60.136	39.181	300.708	218.737	173.285	306.677	311.561	147.587	282.021	137.762	269.601	292.656	214.066	127.621	331.526	0.00052446	7.1728e-05	0.00022211	1296.9	4.8893e-06	7.5048e-06	1299.4	351.53	5.5457e-06	3.2214e-06	402.58	135.89	116.96	40.134	4.2795e-06	50.353	0.00037013	0.00035759	9.8239e-05	1310.6	3.9833e-06	3.9353e-06	1313.3	356.01	3.9141e-06	3.8806e-06	408.48	137.89	118.62	41.038	3.9422e-06	51.381	94.657	134.940	104.717	19.102	173.373	110.375	18.738	23.640	144.343	144.345	22.927	27.524	27.782	32.634	138.738	31.828	-8191	255	
7525.009	1	1	0	0	0.27119	0.34492	0.3291	0.26815	0.15977	0.080733	0.057099	0.27216	0.16209	0.23834	0.36812	0.33006	0.12571	0.22947	0.062497	0.096193	-2.45	-2.6417	-2.275	-2.9229	-2.625	-2.5187	-2.9167	-2.6146	-2.8646	-2.6333	-2.6437	-2.9354	-2.5583	-2.6958	-2.9042	-2.7812	289.790	275.790	47.258	42.097	131.455	255.073	54.949	223.811	41.155	139.098	317.192	23.152	165.551	321.561	296.504	40.064	0.00051028	0.00035703	0.00018394	1300.4	5.5645e-06	4.8892e-06	1300.3	351.22	4.116e-06	4.7838e-06	404.67	136.58	116.76	40.397	5.1611e-06	50.403	0.00036869	0.00035197	9.9425e-05	1311.7	3.9309e-06	3.9378e-06	1316.6	356.26	3.9337e-06	3.9212e-06	409.8	138.2	118.89	41.184	3.9803e-06	51.425	96.405	70.632	85.636	18.763	163.869	148.489	18.720	23.540	176.383	205.638	22.916	27.288	27.774	32.553	152.543	31.767	-8191	255	
7525.105	1	1	0	0	0.045882	0.072708	0.37937	0.2587	0.18015	0.23833	0.3875	0.20341	0.2309	0.070837	0.16022	0.069151	0.1921	0.23483	0.079294	0.16902	-2.1458	-2.7292	-2.5604	-3.0208	-2.6083	-2.4917	-3.025	-2.5708	-2.5917	-2.6583	-2.6833	-2.8208	-2.5958	-2.7833	-2.8229	-2.6146	177.556	17.339	117.270	315.487	350.976	125.021	307.149	330.155	302.402	273.349	340.827	127.154	121.914	327.620	8.888	259.526	0.00051672	0.00050993	0.00015878	1300.2	6.2641e-06	4.6584e-06	1302.7	351.46	4.6068e-06	3.7814e-06	405.12	136.26	117.27	40.336	4.4282e-06	50.474	0.00037469	0.00035101	9.8761e-05	1314	3.9319e-06	3.8218e-06	1316.7	356.63	3.913e-06	3.8753e-06	409.95	138.28	118.98	41.281	3.954e-06	51.469	86.644	67.378	126.599	18.929	138.013	101.308	18.778	23.634	197.262	153.811	22.799	27.453	28.156	32.187	141.955	31.625	-8191	255	
7525.202	1	1	0	0	0.28971	0.087556	0.044096	0.27779	0.25748	0.11151	0.5259	0.19561	0.14218	0.070436	0.074554	0.13033	0.15398	0.22893	0.085605	0.16599	-2.2812	-2.7708	-2.2687	-2.9917	-2.75	-2.5729	-3.0104	-2.6125	-2.8104	-2.8292	-2.6479	-2.925	-2.6542	-2.6542	-2.9542	-2.5146	120.287	87.941	270.274	322.701	252.594	104.596	306.175	345.801	297.580	131.833	125.414	56.991	194.794	351.063	35.417	273.288	0.00050561	0.0006128	0.00018603	1304	5.0212e-06	7.535e-06	1310	352.2	5.7601e-06	3.4694e-06	404.84	136.58	117.7	40.628	3.9941e-06	50.484	0.00037299	0.00034903	0.00010084	1317.7	3.9196e-06	3.8818e-06	1321.1	357.28	3.9818e-06	3.9582e-06	410.76	138.78	119.4	41.445	4.0522e-06	51.625	91.063	113.968	91.010	18.871	179.053	120.086	18.810	23.642	152.628	136.730	22.890	27.237	27.879	32.367	154.524	31.692	-8191	255	
7525.298	1	1	0	0	0.23978	0.13092	0.27897	0.35896	0.23014	0.11719	0.17461	0.22697	0.15132	0.17424	0.14662	0.22821	0.24524	0.3201	0.1869	0.1273	-2.2729	-2.7083	-2.3917	-2.9396	-2.5812	-2.5333	-3.0229	-2.7562	-2.6312	-2.7042	-2.6271	-2.8208	-2.7687	-2.4688	-2.7687	-2.775	88.557	220.647	300.381	305.633	26.548	128.827	257.840	324.696	43.298	298.774	283.871	324.937	30.282	335.939	170.167	287.284	0.00050911	0.00043829	0.00013995	1307.6	5.292e-06	3.3235e-06	1315.6	352.78	4.346e-06	7.0732e-06	404.14	136.65	118.04	40.659	5.7472e-06	50.703	0.0003704	0.00036071	9.8535e-05	1320.7	3.9319e-06	3.9347e-06	1324.6	357.92	4.0035e-06	3.9275e-06	411.14	138.85	119.62	41.48	3.9347e-06	51.722	91.664	94.532	96.563	18.991	170.240	144.928	18.650	23.596	177.708	146.638	23.140	27.588	27.766	32.378	142.739	31.374	-8191	255	
7525.394	1	1	0	0	0.27522	0.097955	0.29731	0.22309	0.066235	0.072354	0.047734	0.20606	0.15	0.11503	0.058458	0.23143	0.17932	0.35875	0.24526	0.27505	-2.0375	-2.6604	-2.4292	-2.7938	-2.6542	-2.4896	-2.9417	-2.6479	-2.5312	-2.6646	-2.6562	-2.725	-2.9104	-2.7458	-2.7687	-2.5417	272.319	229.689	288.500	36.274	44.959	103.533	216.028	103.370	202.102	48.158	317.567	297.747	341.610	358.949	217.010	40.363	0.00055354	0.00070067	0.00021523	1309.9	4.6859e-06	7.6626e-06	1310.2	353.23	5.6575e-06	3.1869e-06	406.59	136.26	117.78	40.802	2.8804e-06	50.631	0.00036832	0.00034982	9.8439e-05	1320.4	3.8139e-06	3.8265e-06	1324.6	358.31	3.8324e-06	3.8101e-06	411.43	138.84	119.37	41.491	3.863e-06	51.701	92.033	94.543	113.153	18.983	159.394	141.478	18.593	23.464	150.969	116.144	23.118	27.444	27.803	32.582	133.286	31.405	-8191	255	
7525.490	1	1	0	0	0.11682	0.17967	0.25015	0.26578	0.1934	0.077755	0.044921	0.27694	0.2702	0.14358	0.052366	0.23845	0.17829	0.10754	0.28434	0.033607	-2.2	-2.6958	-2.4146	-2.7208	-2.6146	-2.6542	-2.95	-2.6229	-2.4979	-2.7667	-2.7021	-2.6042	-2.675	-2.4333	-2.6875	-2.8438	53.407	227.029	183.913	276.725	224.876	161.656	270.652	310.936	205.376	181.288	19.178	332.252	103.202	253.411	162.294	148.600	0.00048783	0.00040424	0.00016411	1307.3	6.4964e-06	7.6516e-06	1310.1	352.81	5.8566e-06	2.8583e-06	404.03	136.32	117.35	40.471	3.3778e-06	50.589	0.00035416	0.000341	9.7045e-05	1318.5	3.6881e-06	3.7861e-06	1320.9	357.54	3.83e-06	3.7696e-06	410.62	138.56	119.17	41.395	3.8142e-06	51.514	95.727	69.207	112.010	18.900	148.600	159.688	18.710	23.426	154.405	139.203	23.000	27.500	27.926	32.410	182.636	31.597	-8191	255	
7525.611	1	1	0	0	0.097808	0.18049	0.042829	0.29529	0.083488	0.2467	0.3338	0.084185	0.037866	0.22165	0.12049	0.20398	0.16274	0.18045	0.11245	0.038517	-2.1312	-2.7208	-2.6167	-2.7729	-2.7521	-2.5896	-2.9208	-2.8104	-2.525	-2.7521	-2.7375	-2.6333	-2.9271	-2.6042	-2.7896	-3.0167	219.546	263.528	339.934	286.707	284.769	124.272	293.167	298.572	109.213	110.036	90.201	302.018	8.469	50.536	284.799	364.790	0.000494	0.0002772	0.00013213	1304.6	6.3459e-06	6.3793e-06	1305.6	353.39	4.938e-06	1.7503e-06	404.2	136.35	117.06	40.406	4.7164e-06	50.535	0.00036207	0.00034022	9.6723e-05	1317	3.7378e-06	3.7315e-06	1320	357.3	3.7797e-06	3.7014e-06	409.64	138.59	119.16	41.336	3.7523e-06	51.539	92.602	114.448	138.268	18.925	163.805	139.159	18.662	23.521	164.254	126.245	23.025	27.341	27.935	32.627	136.483	31.745	-8191	255	
7525.705	1	1	0	0	0.093396	0.10905	0.40656	0.17625	0.21564	0.17139	0.32669	0.34413	0.11482	0.11645	0.077806	0.085421	0.16881	0.41135	0.13849	0.10118	-1.975	-2.7979	-2.6521	-2.7479	-2.8479	-2.6646	-3.0833	-2.9	-2.5146	-2.7146	-2.7375	-2.5812	-2.925	-2.6417	-2.5625	-2.8271	61.256	347.209	237.008	355.422	144.489	28.946	341.330	23.049	75.041	355.416	176.160	246.364	62.484	335.093	152.353	13.606	0.00052939	0.00066354	0.00017584	1300.7	6.6378e-06	4.1486e-06	1305.2	352.47	2.52e-06	5.208e-06	405.79	136.25	117.38	40.371	3.6844e-06	50.438	0.00035255	0.00033763	9.2831e-05	1314.1	3.723e-06	3.6807e-06	1318.5	356.79	3.7246e-06	3.7387e-06	410.06	138.41	119.17	41.282	3.7911e-06	51.556	90.147	90.944	95.321	18.918	142.530	148.916	18.795	23.527	167.950	162.682	22.999	27.579	28.233	32.486	128.515	31.728	-8191	255	
7525.801	1	1	0	0	0.20509	0.28528	0.20664	0.1112	0.046628	0.2407	0.16482	0.12699	0.058591	0.1226	0.097184	0.15908	0.20163	0.047928	0.19041	0.098152	-2.1667	-2.7458	-2.6542	-2.8021	-2.8979	-2.6417	-2.7333	-2.9958	-2.4437	-2.7667	-2.85	-2.6	-2.8021	-2.6292	-2.5438	-2.7708	102.498	321.781	8.244	347.753	229.806	235.392	298.502	352.473	304.143	166.542	347.756	109.024	343.651	8.061	338.700	14.293	0.00052218	0.00028616	0.00021292	1299.7	4.1727e-06	3.7884e-06	1300.6	351.77	6.5927e-06	3.1128e-06	405.68	136.73	117.12	40.459	5.9348e-06	50.544	0.00035205	0.00033417	9.2638e-05	1313.2	3.7284e-06	3.7135e-06	1316.5	356.62	3.7261e-06	3.6881e-06	410.2	138.37	118.96	41.284	3.7139e-06	51.573	91.811	74.676	129.268	18.874	208.612	106.307	18.805	23.359	164.736	182.615	22.868	27.563	28.083	32.398	155.175	31.568	-8191	255	
7525.897	1	1	0	0	0.2037	0.20412	0.14247	0.035684	0.13311	0.19643	0.10492	0.30026	0.056662	0.14566	0.19023	0.050522	0.1253	0.26236	0.21821	0.048008	-2.0542	-2.6146	-2.5583	-2.5187	-2.9458	-2.6667	-2.8375	-3.0521	-2.4833	-2.6375	-2.8646	-2.6604	-2.6979	-2.7958	-2.5792	-3.0208	77.575	311.132	319.978	281.067	212.366	171.112	310.687	341.989	290.075	207.902	270.301	17.523	215.242	355.010	119.729	195.429	0.00047196	0.00045953	0.00012592	1303.7	4.0605e-06	6.3358e-06	1310.2	351.72	7.6449e-06	5.5681e-06	404.87	136.23	117.3	40.373	5.0693e-06	50.612	0.00035358	0.00033451	9.2396e-05	1314.9	3.7204e-06	3.6788e-06	1320.7	356.83	3.787e-06	3.7086e-06	409.58	138.53	118.99	41.259	3.7707e-06	51.494	90.533	100.561	111.209	18.826	183.912	149.284	18.803	23.517	145.286	161.045	23.055	27.393	27.679	32.658	165.596	31.727	-8191	255	
#DATA ENDS
