BOXY.EXE: ISS Imagent and Oximeter Data Acquisition Program Version 0.80
Ascii Record File

#ACQ INFORMATION
2  Detector Channels 
16  External MUX Channels 
1  Auxiliary Channels 
5000  Waveform (CCF) Frequency (Hz)
1  Waveforms Skipped 
30  Waveforms Averaged 
1  Cycles Averaged 
16  Acquisitions per Waveform 
10.0806  Updata Rate (Hz) 

#FILE INFORMATION
TRUE -- External MUX Channel results are PARSED.
FALSE -- AC DC and Phase are NOT grouped.
TRUE -- Companion Program Settings File CREATED.
FALSE -- AC data not excluded
FALSE -- DC data not excluded
FALSE -- Phase data not excluded
FALSE -- Auxillary Chn. data not excluded
Tab delimiters

#CALIBRATION STATE
TRUE -- Waveform Calibration Values APPLIED.


#AUX CALIBRATION VALUES
Val Type	aux-1	

Term	1.0000e+00	
Factor	0.0000e+00	


#WF CALIBRATION VALUES
A = Detector Channel
Val Type	A-AC1	A-AC2	A-AC3	A-AC4	A-AC5	A-AC6	A-AC7	A-AC8	A-AC9	A-AC10	A-AC11	A-AC12	A-AC13	A-AC14	A-AC15	A-AC16	A-DC1	A-DC2	A-DC3	A-DC4	A-DC5	A-DC6	A-DC7	A-DC8	A-DC9	A-DC10	A-DC11	A-DC12	A-DC13	A-DC14	A-DC15	A-DC16	A-Ph1	A-Ph2	A-Ph3	A-Ph4	A-Ph5	A-Ph6	A-Ph7	A-Ph8	A-Ph9	A-Ph10	A-Ph11	A-Ph12	A-Ph13	A-Ph14	A-Ph15	A-Ph16	

Term	0.00000e+00	0.00000e+00	0.00000e+00	0.00000e+00	0.00000e+00	0.00000e+00	0.00000e+00	0.00000e+00	0.00000e+00	0.00000e+00	0.00000e+00	0.00000e+00	0.00000e+00	0.00000e+00	0.00000e+00	0.00000e+00	0.00000e+00	0.00000e+00	0.00000e+00	0.00000e+00	0.00000e+00	0.00000e+00	0.00000e+00	0.00000e+00	0.00000e+00	0.00000e+00	0.00000e+00	0.00000e+00	0.00000e+00	0.00000e+00	0.00000e+00	0.00000e+00	0.00000e+00	0.00000e+00	0.00000e+00	0.00000e+00	0.00000e+00	0.00000e+00	0.00000e+00	0.00000e+00	0.00000e+00	0.00000e+00	0.00000e+00	0.00000e+00	0.00000e+00	0.00000e+00	0.00000e+00	0.00000e+00	
Factor	1.00000e+00	1.00000e+00	1.00000e+00	1.00000e+00	1.00000e+00	1.00000e+00	1.00000e+00	1.00000e+00	1.00000e+00	1.00000e+00	1.00000e+00	1.00000e+00	1.00000e+00	1.00000e+00	1.00000e+00	1.00000e+00	1.00000e+00	1.00000e+00	1.00000e+00	1.00000e+00	1.00000e+00	1.00000e+00	1.00000e+00	1.00000e+00	1.00000e+00	1.00000e+00	1.00000e+00	1.00000e+00	1.00000e+00	1.00000e+00	1.00000e+00	1.00000e+00	X	X	X	X	X	X	X	X	X	X	X	X	X	X	X	X	

B = Detector Channel
Val Type	B-AC1	B-AC2	B-AC3	B-AC4	B-AC5	B-AC6	B-AC7	B-AC8	B-AC9	B-AC10	B-AC11	B-AC12	B-AC13	B-AC14	B-AC15	B-AC16	B-DC1	B-DC2	B-DC3	B-DC4	B-DC5	B-DC6	B-DC7	B-DC8	B-DC9	B-DC10	B-DC11	B-DC12	B-DC13	B-DC14	B-DC15	B-DC16	B-Ph1	B-Ph2	B-Ph3	B-Ph4	B-Ph5	B-Ph6	B-Ph7	B-Ph8	B-Ph9	B-Ph10	B-Ph11	B-Ph12	B-Ph13	B-Ph14	B-Ph15	B-Ph16	

Term	0.00000e+00	0.00000e+00	0.00000e+00	0.00000e+00	0.00000e+00	0.00000e+00	0.00000e+00	0.00000e+00	0.00000e+00	0.00000e+00	0.00000e+00	0.00000e+00	0.00000e+00	0.00000e+00	0.00000e+00	0.00000e+00	0.00000e+00	0.00000e+00	0.00000e+00	0.00000e+00	0.00000e+00	0.00000e+00	0.00000e+00	0.00000e+00	0.00000e+00	0.00000e+00	0.00000e+00	0.00000e+00	0.00000e+00	0.00000e+00	0.00000e+00	0.00000e+00	-9.29970e+01	-1.31392e+02	-1.23755e+02	-1.81317e+02	-5.33619e+01	-6.48182e+01	-1.56949e+02	-1.62015e+02	-5.50886e+01	-6.87642e+01	-1.71959e+02	-1.70284e+02	-1.79234e+02	-1.77030e+02	-6.24173e+01	-1.49880e+02	
Factor	2.02525e-05	2.04927e-04	5.47415e-05	1.73521e-01	1.61479e-06	2.15799e-06	2.08365e-01	7.47178e-02	1.46152e-06	2.09857e-06	1.03330e-01	3.53755e-02	3.43424e-02	1.15752e-02	1.82063e-06	1.65684e-02	1.86485e-05	4.58517e-05	1.28386e-05	8.54534e-02	4.13224e-07	5.17627e-07	9.68864e-02	3.69658e-02	4.35134e-07	5.18470e-07	4.97831e-02	1.71989e-02	1.73445e-02	5.78419e-03	4.58961e-07	8.02566e-03	X	X	X	X	X	X	X	X	X	X	X	X	X	X	X	X	



#DISTANCE SETTINGS
A = Detector Channel
A-1	A-2	A-3	A-4	A-5	A-6	A-7	A-8	A-9	A-10	A-11	A-12	A-13	A-14	A-15	A-16	

2.5000e+00	3.0000e+00	2.5000e+00	3.0000e+00	2.0000e+00	3.0000e+00	1.5000e+00	3.0000e+00	3.0000e+00	3.0000e+00	3.0000e+00	3.0000e+00	3.0000e+00	3.0000e+00	1.5000e+00	3.0000e+00	

B = Detector Channel
B-1	B-2	B-3	B-4	B-5	B-6	B-7	B-8	B-9	B-10	B-11	B-12	B-13	B-14	B-15	B-16	

1.0000e+01	1.0000e+01	1.0000e+01	1.4400e+00	1.0000e+01	1.0000e+01	1.5100e+00	1.9400e+00	1.0000e+01	1.0000e+01	1.9900e+00	2.4900e+00	2.4100e+00	2.9000e+00	1.0000e+01	2.9800e+00	




#DATA BEGINS
time	group	step	mark	flag	A-AC1	A-AC2	A-AC3	A-AC4	A-AC5	A-AC6	A-AC7	A-AC8	A-AC9	A-AC10	A-AC11	A-AC12	A-AC13	A-AC14	A-AC15	A-AC16	A-DC1	A-DC2	A-DC3	A-DC4	A-DC5	A-DC6	A-DC7	A-DC8	A-DC9	A-DC10	A-DC11	A-DC12	A-DC13	A-DC14	A-DC15	A-DC16	A-Ph1	A-Ph2	A-Ph3	A-Ph4	A-Ph5	A-Ph6	A-Ph7	A-Ph8	A-Ph9	A-Ph10	A-Ph11	A-Ph12	A-Ph13	A-Ph14	A-Ph15	A-Ph16	B-AC1	B-AC2	B-AC3	B-AC4	B-AC5	B-AC6	B-AC7	B-AC8	B-AC9	B-AC10	B-AC11	B-AC12	B-AC13	B-AC14	B-AC15	B-AC16	B-DC1	B-DC2	B-DC3	B-DC4	B-DC5	B-DC6	B-DC7	B-DC8	B-DC9	B-DC10	B-DC11	B-DC12	B-DC13	B-DC14	B-DC15	B-DC16	B-Ph1	B-Ph2	B-Ph3	B-Ph4	B-Ph5	B-Ph6	B-Ph7	B-Ph8	B-Ph9	B-Ph10	B-Ph11	B-Ph12	B-Ph13	B-Ph14	B-Ph15	B-Ph16	aux-1	digaux	

42758.289	1	1	0	512	0.25451	0.14958	0.21451	0.077504	0.059837	0.070205	0.16401	0.22871	0.11072	0.067199	0.22821	0.21356	0.13028	0.052083	0.3836	0.17619	-1.6521	-1.9	-2.2292	-2.0917	-2.0396	-2.3229	-1.8083	-2.2604	-2.0438	-1.8917	-2.0708	-1.925	-1.9937	-2.1979	-1.7875	-2.1625	298.074	353.401	332.345	265.573	164.521	97.204	317.143	340.100	171.771	109.450	67.956	65.522	338.986	108.425	171.224	289.075	0.00013575	0.00014623	4.4848e-05	355.78	1.1454e-06	1.9978e-06	339.57	150.08	1.223e-06	2.3027e-06	147.26	51.867	54.027	20.96	1.4125e-06	19.534	0.00021935	0.00027654	7.0104e-05	347.39	2.5818e-06	2.9925e-06	331.67	147.12	2.7441e-06	3.1659e-06	144.33	51.122	53.315	20.733	3.1898e-06	19.145	193.376	144.173	163.721	71.373	232.740	217.807	69.180	74.625	227.389	202.990	71.656	76.495	79.028	82.278	203.622	78.920	-8191	255	
42758.410	1	1	0	0	0.29013	0.051779	0.017486	0.13089	0.14885	0.066621	0.18231	0.13373	0.1352	0.1801	0.25348	0.13399	0.33033	0.064534	0.15212	0.23902	-1.6646	-1.8292	-2.05	-1.8188	-1.9417	-2.4229	-1.8604	-2.2313	-2.0625	-1.9312	-2.3083	-1.975	-1.9458	-2.4917	-1.9333	-2.2396	172.253	297.884	274.680	330.514	365.641	72.084	341.723	380.578	102.780	344.219	161.188	218.729	334.303	263.331	216.335	57.404	0.00013992	0.00021733	2.4974e-05	357.02	1.5129e-06	1.0585e-06	342.07	149.07	1.8332e-06	2.3401e-06	147.99	51.688	54.156	20.881	1.9936e-06	19.467	0.00020599	0.00027415	7.7059e-05	347.57	2.6317e-06	2.8502e-06	332.9	147.04	2.7178e-06	3.0503e-06	144.11	51.126	53.396	20.744	3.2156e-06	19.285	195.173	135.782	175.703	71.338	234.991	256.761	69.571	75.153	233.494	208.413	72.051	75.700	78.757	82.609	236.945	78.944	-8191	255	
42758.508	1	1	0	0	0.18218	0.07395	0.10451	0.20002	0.073974	0.36241	0.19534	0.32723	0.14413	0.14333	0.099231	0.45924	0.039916	0.15223	0.093236	0.21931	-1.9125	-1.7854	-2.3146	-2.1229	-2.0438	-2.4437	-2.0604	-2.1708	-2.2708	-1.9771	-2.2958	-1.9937	-2.0208	-2.5062	-1.7583	-2.1375	93.570	67.701	236.129	57.481	77.746	392.230	273.072	282.164	71.325	349.127	175.607	68.522	415.683	287.138	90.089	123.411	0.00013985	0.00022646	5.7512e-05	358.65	1.5205e-06	2.5957e-06	341.73	150.44	2.0008e-06	1.8105e-06	147.3	51.764	54.241	21.046	2.6165e-06	19.561	0.0002145	0.00027989	7.3501e-05	348.58	2.6085e-06	2.8771e-06	332.5	147.61	2.8121e-06	3.207e-06	144.44	51.252	53.505	20.839	2.8532e-06	19.183	192.452	147.384	154.257	70.986	205.480	226.956	69.146	75.294	255.075	225.440	72.011	76.425	78.462	82.468	235.919	78.872	-8191	255	
42758.602	1	1	0	0	0.1575	0.089096	0.07049	0.17103	0.16405	0.14507	0.32846	0.085883	0.033451	0.24371	0.061552	0.38552	0.12735	0.0318	0.037648	0.1494	-1.7687	-1.6313	-2.2438	-2.1375	-1.9708	-2.1958	-1.9708	-2.0958	-2.3792	-1.7208	-2.3208	-2.2417	-1.7104	-2.2667	-1.925	-2.1146	406.487	161.261	360.934	344.704	339.526	144.806	267.063	175.641	157.698	415.471	313.963	306.093	383.369	225.405	121.575	265.305	0.00013942	0.00017261	3.7566e-05	355.92	2.0578e-06	2.0501e-06	337.5	149.08	1.3772e-06	2.3933e-06	146.16	51.514	53.715	20.749	2.3162e-06	19.384	0.00021384	0.00030262	6.6333e-05	347.23	2.7238e-06	2.9321e-06	330.24	146.46	2.8084e-06	3.181e-06	142.98	50.736	53.061	20.539	2.793e-06	18.991	196.968	134.999	120.739	71.505	238.673	213.708	68.972	74.784	217.601	195.917	71.837	75.882	78.750	82.074	213.838	79.465	-8191	255	
42758.699	1	1	0	0	0.028814	0.20419	0.040136	0.15839	0.37288	0.12611	0.13033	0.12223	0.23388	0.16927	0.17123	0.19776	0.31333	0.076262	0.20751	0.37424	-1.8333	-1.8521	-2.0417	-2.0208	-1.9542	-2.2896	-2.1083	-1.875	-2.4354	-1.9354	-2.1354	-2.1729	-1.9229	-2.3583	-1.9813	-2.0104	307.774	73.618	298.200	377.051	182.272	237.680	143.009	390.155	390.663	93.662	106.195	403.626	309.203	281.324	78.203	372.148	0.00015166	0.00017712	5.0036e-05	355.1	2.4122e-06	1.7139e-06	335.63	148.43	1.3378e-06	1.1174e-06	145.19	50.884	53.531	20.674	1.8424e-06	19.243	0.00021454	0.0002733	7.211e-05	345.76	3.0518e-06	2.6938e-06	328.74	145.63	2.6643e-06	2.9888e-06	142.61	50.38	52.895	20.432	2.9287e-06	18.922	193.596	130.333	166.311	71.251	222.035	208.001	69.321	74.681	201.111	208.340	71.802	75.762	78.687	82.550	230.757	78.997	-8191	255	
42758.793	1	1	0	0	0.17126	0.22794	0.27129	0.20081	0.15291	0.36522	0.093571	0.22418	0.17127	0.04378	0.067217	0.13592	0.17526	0.14967	0.18605	0.10736	-1.8896	-1.7979	-1.9958	-1.8875	-1.8771	-2.3083	-2.0667	-1.8604	-2.4125	-1.9625	-1.9479	-2.3354	-1.9146	-2.2521	-2.4396	-1.7	157.087	176.425	312.402	353.374	319.576	269.661	363.471	77.164	91.246	308.637	127.373	230.614	271.795	380.654	189.342	110.940	0.00014256	0.00018506	5.4441e-05	353.95	2.4108e-06	2.7349e-06	335.49	149.29	1.3672e-06	1.8025e-06	145.44	51.545	53.478	20.751	1.1653e-06	19.423	0.00021236	0.00027024	7.318e-05	346.08	2.9503e-06	2.7294e-06	328.73	145.97	2.7205e-06	2.8786e-06	143.09	50.807	53.022	20.559	2.8217e-06	19.089	195.777	141.917	150.544	71.121	247.250	220.797	69.294	74.715	207.486	209.077	71.828	76.536	78.740	82.240	190.934	78.861	-8191	255	
42758.891	1	1	0	0	0.051172	0.25748	0.21287	0.2495	0.11759	0.16027	0.099028	0.15585	0.076099	0.22855	0.10304	0.099609	0.15525	0.30039	0.2503	0.066585	-1.7729	-1.9813	-2.0208	-2.3708	-1.9396	-2.2021	-2.0396	-1.9208	-2.1792	-1.9438	-1.9708	-2.2604	-1.9062	-2.2021	-2.2771	-1.7062	386.549	290.939	92.621	394.078	349.873	116.246	205.472	121.983	402.371	389.177	272.795	384.337	59.428	214.340	180.359	407.668	0.00014675	0.00018538	5.9592e-05	353.22	1.5191e-06	2.1281e-06	338.36	149.48	1.9629e-06	2.7954e-06	146.84	52.081	54.353	20.938	2.3207e-06	19.495	0.00021562	0.00027091	7.1522e-05	345.78	2.7402e-06	2.6647e-06	330.28	146.34	2.851e-06	2.9499e-06	143.75	51.27	53.533	20.713	3.0387e-06	19.216	194.118	139.716	141.564	71.501	217.196	189.949	69.576	74.701	230.781	208.793	72.022	76.036	78.863	82.515	237.591	79.137	-8191	255	
42758.988	1	1	0	0	0.17215	0.30362	0.14311	0.16046	0.1878	0.091328	0.040149	0.14834	0.2005	0.073806	0.067453	0.18365	0.22373	0.39645	0.14129	0.15847	-1.7563	-1.9312	-1.8854	-2.4792	-2.0563	-2.1417	-2.3312	-1.7417	-2.2708	-2.15	-2.0938	-2.4521	-1.8854	-2.0458	-2.3563	-1.8937	364.182	391.168	350.168	172.530	310.170	204.878	100.393	366.088	279.472	278.011	209.475	405.682	235.421	87.084	302.172	202.400	0.00014409	0.00036078	6.1236e-05	355.36	7.067e-07	2.6211e-06	338.04	149.55	2.6341e-06	1.4465e-06	145.88	51.355	53.624	20.766	2.5789e-06	19.314	0.00021147	0.00024808	7.8342e-05	347.14	2.5525e-06	2.7855e-06	329.37	146.62	2.706e-06	2.83e-06	142.62	50.719	53.088	20.486	2.9412e-06	18.939	197.737	116.986	147.900	71.335	165.965	194.869	69.433	74.918	226.386	208.225	71.642	76.283	78.996	82.240	222.307	79.414	-8191	255	
42759.105	1	1	0	0	0.019425	0.2786	0.074003	0.072321	0.075337	0.13792	0.17041	0.1574	0.082698	0.2995	0.26305	0.35295	0.15464	0.17629	0.15047	0.11348	-1.7563	-2.1875	-1.9354	-2.2854	-1.9125	-2.2	-2.2792	-1.8917	-2.3479	-2.1417	-2.0292	-2.3771	-2.0667	-2.1271	-2.3292	-1.9292	268.377	305.000	279.625	395.014	282.537	268.435	80.834	84.318	306.660	242.742	405.414	407.411	228.881	142.904	207.961	339.486	0.00014891	9.6071e-05	3.938e-05	356.58	1.5501e-06	7.6214e-07	339.18	149.53	2.1517e-06	1.6552e-06	146.14	50.779	53.405	20.663	2.5442e-06	19.286	0.00020832	0.00028543	7.4518e-05	346.35	2.3967e-06	3.0734e-06	328.92	145.92	2.8918e-06	3.0449e-06	142.26	50.545	52.931	20.43	3.0444e-06	18.918	195.599	186.294	143.121	71.187	216.424	205.781	69.499	74.979	224.882	210.861	72.027	75.959	78.883	82.271	217.579	79.118	-8191	255	
42759.203	1	1	0	0	0.13446	0.23698	0.14933	0.11098	0.13198	0.053734	0.14479	0.12927	0.24002	0.025954	0.19978	0.27464	0.28345	0.11544	0.036595	0.20356	-1.9708	-2.1104	-1.9979	-2.3958	-2.1042	-2.0583	-2.5354	-1.8792	-2.3021	-2.2562	-2.0062	-2.3083	-1.9375	-2.0625	-2.2167	-1.8875	307.535	257.781	77.641	380.083	370.179	218.489	164.346	71.960	368.687	244.997	73.347	282.860	94.403	360.767	198.753	341.953	0.0001287	0.00026637	5.9088e-05	352.17	2.2841e-06	2.6341e-06	336.08	148.88	1.6095e-06	1.7577e-06	146.54	51.499	53.083	20.626	1.9174e-06	19.28	0.00020358	0.0002603	7.77e-05	344.86	2.3984e-06	3.0421e-06	328.2	146.13	2.6978e-06	2.7133e-06	142.83	50.647	52.816	20.377	2.989e-06	19.038	197.922	142.165	150.366	71.748	242.417	185.202	69.095	74.652	235.774	187.982	72.031	76.302	78.705	82.572	193.300	79.135	-8191	255	
42759.297	1	1	0	0	0.12843	0.12685	0.16757	0.0096965	0.11477	0.14424	0.1758	0.17471	0.11431	0.18202	0.18552	0.13266	0.24677	0.21602	0.12403	0.1168	-1.8479	-2.1854	-1.7208	-2.4771	-2.175	-2.0042	-2.4292	-1.9542	-2.1896	-2.2062	-1.8312	-2.3458	-1.9937	-2.0812	-2.2938	-2.0083	271.322	393.531	335.634	233.230	280.999	410.650	244.225	414.497	385.090	262.051	351.688	210.286	386.729	204.077	371.547	280.072	0.00016466	0.00021773	5.4415e-05	353.3	1.8095e-06	1.6928e-06	337.46	149	9.6279e-07	1.9126e-06	147.13	51.484	54.06	20.868	2.9058e-06	19.599	0.00021601	0.00025534	8.1204e-05	345.15	2.6025e-06	3.081e-06	329.21	146.2	2.7241e-06	2.9304e-06	143.74	50.938	53.182	20.578	2.9431e-06	19.202	196.994	178.613	159.834	71.286	237.409	242.477	69.267	75.080	217.412	213.619	71.966	75.934	79.068	82.195	223.533	79.171	-8191	255	
42759.395	1	1	0	0	0.1529	0.24036	0.060344	0.091458	0.26227	0.13089	0.20006	0.29951	0.15819	0.23319	0.04001	0.15172	0.066183	0.045188	0.22439	0.16437	-1.7479	-2.2333	-1.7958	-2.2917	-2.2	-1.9813	-2.425	-2.0208	-2.2021	-2.3167	-1.8563	-2.2917	-2.0083	-1.9333	-2.1792	-1.9854	138.111	147.903	102.424	210.095	79.904	170.976	87.559	353.725	300.336	399.315	182.725	288.065	97.975	366.528	145.947	239.840	0.00015824	0.00019951	5.9317e-05	356.12	1.2207e-06	3.4491e-06	338.07	149.08	2.3901e-06	1.5934e-06	147.63	51.886	54.371	20.76	1.903e-06	19.29	0.00022168	0.00026202	7.7727e-05	347.88	2.6774e-06	3.2319e-06	330.14	146.66	3.1221e-06	2.7641e-06	144.16	50.998	53.469	20.571	2.7911e-06	19.015	194.796	141.241	153.699	71.225	221.974	195.818	69.192	74.886	213.647	230.268	71.785	76.032	78.778	82.351	209.878	78.446	-8191	255	
42759.488	1	1	0	0	0.21013	0.26346	0.16371	0.11242	0.15994	0.13389	0.090631	0.18519	0.23091	0.17443	0.21972	0.11072	0.13917	0.11751	0.1727	0.1096	-1.4729	-2.3563	-1.825	-2.1729	-2.2438	-1.9021	-2.2062	-1.8958	-2.0417	-2.2562	-2.0979	-2.3688	-2.2208	-1.6375	-2.3333	-2.0792	102.127	271.373	209.532	388.260	232.860	283.533	159.228	111.793	172.509	370.126	96.687	326.240	294.100	309.290	186.038	196.447	0.0001528	0.00025588	7.1639e-05	354.38	2.4964e-06	2.2346e-06	337.92	150.22	2.0786e-06	2.1103e-06	146.94	51.262	53.599	20.581	2.1047e-06	19.142	0.00023365	0.00024894	8.2221e-05	346.48	2.6868e-06	3.0691e-06	329.83	146.55	2.9761e-06	2.8289e-06	143.17	50.712	52.936	20.401	2.7538e-06	18.888	195.728	143.246	142.911	71.233	260.017	198.773	69.318	74.940	222.092	182.891	71.891	75.592	78.611	82.060	209.205	78.943	-8191	255	
42759.586	1	1	0	0	0.18454	0.079862	0.1365	0.079356	0.13572	0.10613	0.18336	0.092936	0.10957	0.19103	0.24869	0.34863	0.042457	0.2793	0.072236	0.41393	-1.3813	-2.4188	-1.9979	-2.2313	-2.4146	-1.9333	-2.4313	-2.0854	-2.1063	-2.3438	-2.0792	-2.0375	-2.525	-1.9896	-2.2083	-2.1708	308.483	200.289	382.752	333.623	368.445	341.410	69.286	383.562	298.680	198.190	376.980	245.929	361.877	315.499	312.907	326.002	0.00015251	0.00027432	4.5379e-05	354.11	1.9274e-06	1.3713e-06	338.25	148.97	1.1688e-06	1.5994e-06	146.38	51.208	53.826	20.687	1.9458e-06	19.198	0.00022471	0.00026709	7.8797e-05	345.68	2.6446e-06	3.0076e-06	328.15	146.06	3.0432e-06	2.8926e-06	142.86	50.624	52.998	20.452	2.6591e-06	18.914	188.412	137.713	176.416	71.333	215.167	207.004	69.308	75.056	189.858	187.061	72.052	75.857	79.101	82.356	231.572	79.232	-8191	255	
42759.707	1	1	0	0	0.12973	0.15186	0.15014	0.13394	0.19944	0.058451	0.3096	0.092338	0.34835	0.050678	0.16984	0.043137	0.12824	0.32141	0.067662	0.27931	-1.3542	-2.3542	-2.1437	-2.1354	-2.5458	-1.9417	-2.1437	-2.2208	-1.8833	-2.4167	-2.0479	-2.0604	-2.4542	-1.7354	-2.2313	-2.0896	199.327	235.431	115.511	92.363	380.819	141.030	388.819	361.973	208.876	97.080	360.446	92.855	84.786	221.107	175.131	258.152	0.0001539	0.00018884	5.8132e-05	353.88	2.3481e-06	1.3621e-06	339.53	149.27	1.4605e-06	2.882e-06	146.02	51.727	53.419	20.707	2.5769e-06	19.42	0.00022537	0.00025495	7.8182e-05	346.6	2.6928e-06	2.7251e-06	330.4	146.5	2.9453e-06	2.8678e-06	143.25	50.98	52.976	20.477	2.8733e-06	19.108	196.913	139.433	114.471	71.617	232.737	229.257	69.558	74.840	207.346	184.691	71.764	75.923	78.794	82.704	203.053	79.227	-8191	255	
42759.801	1	1	0	0	0.10214	0.16244	0.20836	0.023177	0.29008	0.29585	0.14947	0.16301	0.22028	0.11436	0.30174	0.087991	0.29424	0.15352	0.15745	0.061108	-1.5958	-2.3292	-2.0417	-2.0021	-2.5563	-1.8333	-2.1813	-2.2	-2.0292	-2.2771	-1.9792	-1.8167	-2.35	-2.0021	-2.2625	-2.3396	280.079	193.596	259.448	300.926	194.682	62.387	402.819	315.209	394.757	335.411	134.233	174.781	361.595	97.745	100.723	183.772	0.00013563	0.00025367	5.2686e-05	353.68	1.6989e-06	2.0108e-06	341.73	149.86	1.2905e-06	9.3078e-07	147.78	51.902	54.301	20.832	1.9097e-06	19.465	0.00021928	0.00024531	7.5882e-05	346.21	2.6532e-06	2.8771e-06	331.74	146.81	3.1674e-06	2.7144e-06	144.03	51.198	53.497	20.613	3.1181e-06	19.174	195.708	142.641	169.649	71.429	194.672	219.961	68.963	75.007	225.415	165.973	71.907	75.874	78.881	82.327	176.069	79.087	-8191	255	
42759.898	1	1	0	0	0.11414	0.12702	0.2106	0.13959	0.090254	0.29861	0.34662	0.090171	0.24446	0.12853	0.21717	0.31669	0.14854	0.32585	0.069308	0.020214	-1.4792	-2.1021	-2.1833	-2.05	-2.3625	-2.1854	-2.2917	-2.3083	-1.9396	-2.4083	-2.0563	-2.0875	-2.6104	-2.1875	-2.0292	-2.4729	303.801	219.557	176.845	153.654	187.771	66.754	371.519	226.771	244.201	154.005	83.429	339.779	232.656	350.690	397.459	261.759	0.00014191	0.00028531	7.9016e-05	354.83	2.2071e-06	2.1958e-06	337.5	149.24	2.2837e-06	1.3498e-06	146.31	51.546	53.522	20.431	1.3998e-06	19.299	0.00021621	0.00027091	7.9546e-05	346.84	2.4019e-06	2.9785e-06	329.62	146.62	3.113e-06	2.7803e-06	143.47	50.772	52.994	20.418	3.0741e-06	18.997	201.872	174.824	148.635	71.439	218.534	203.249	69.224	74.926	215.164	227.342	72.106	76.081	79.032	82.553	194.401	78.879	-8191	255	
42759.969	1	1	0	0	0.10312	0.12931	0.10284	0.12392	0.26643	0.15224	0.14567	0.06906	0.10279	0.17394	0.26083	0.1911	0.25691	0.20326	0.073039	0.21771	-1.5958	-2.2	-2.2313	-1.8708	-2.4958	-2.0771	-2.0563	-2.325	-1.9125	-2.1917	-2.3521	-2.0375	-2.4521	-2.1646	-2.2458	-2.3688	75.383	344.768	277.598	307.873	216.339	71.193	214.673	280.880	352.252	336.338	376.112	336.284	310.693	395.133	148.185	245.815	0.00014501	0.00027986	7.1682e-05	356.21	1.9865e-06	1.6889e-06	340.29	149.01	2.2092e-06	1.65e-06	146.85	51.548	54.197	20.586	1.9375e-06	19.237	0.00021015	0.00027482	7.3688e-05	347.67	2.2547e-06	2.9019e-06	331.08	146.26	2.9181e-06	2.8807e-06	143.39	50.551	53.145	20.358	2.945e-06	19.016	193.580	126.352	131.136	71.322	225.323	208.081	69.352	74.859	215.882	201.158	71.523	75.981	79.200	82.309	208.695	79.253	-8191	255	
42760.090	1	1	0	0	0.15991	0.15711	0.13696	0.045964	0.24314	0.10979	0.25115	0.33063	0.27743	0.26853	0.14854	0.082222	0.11797	0.070388	0.19852	0.16079	-1.5417	-2.0229	-2.1042	-1.7604	-2.2125	-2.1417	-1.9646	-2.4292	-2.0271	-2.1854	-2.3854	-1.9667	-2.3979	-2.025	-2.0479	-2.3063	163.797	315.910	268.677	187.042	114.690	135.164	127.351	190.734	328.105	71.371	363.727	384.663	119.109	86.429	140.140	128.121	0.00014162	0.00029299	5.8288e-05	354.6	2.0057e-06	2.7214e-06	339.03	148.7	1.3287e-06	1.7978e-06	146.36	51.246	53.524	20.417	1.5142e-06	19.291	0.00021015	0.00027358	7.5186e-05	346.09	2.3881e-06	3.1511e-06	329.86	145.99	2.8148e-06	2.9736e-06	143.15	50.767	52.944	20.366	3.098e-06	19.017	197.637	145.577	137.025	71.555	218.038	205.425	69.326	74.890	195.552	197.058	71.710	76.183	78.561	82.506	211.208	79.119	-8191	255	
42760.188	1	1	0	0	0.053716	0.048553	0.28935	0.21338	0.10583	0.33168	0.096499	0.18128	0.27251	0.19859	0.26106	0.17522	0.25398	0.10762	0.31575	0.086048	-1.6458	-2.1833	-2.1146	-1.8604	-2.1354	-2.1271	-1.8229	-2.2354	-1.9458	-1.8708	-2.1583	-1.8604	-2.4083	-2.1479	-1.8729	-2.3187	239.087	60.972	344.190	416.074	129.428	189.094	273.843	310.634	188.866	227.037	336.237	77.748	289.224	103.484	356.005	187.134	0.00014395	0.00026278	6.1243e-05	355.66	1.6614e-06	2.1776e-06	338.2	149.8	1.8616e-06	1.0192e-06	145.38	51.182	53.441	20.612	1.9398e-06	19.122	0.00021737	0.00027521	6.9489e-05	346.06	2.4673e-06	2.8448e-06	329.09	146.18	2.9689e-06	3.1e-06	142.71	50.555	52.747	20.377	3.0397e-06	18.918	192.847	142.448	153.739	71.613	216.117	209.031	69.554	74.644	223.198	219.218	71.939	76.387	79.311	82.211	196.944	79.127	-8191	255	
42760.281	1	1	0	0	0.1034	0.10761	0.17644	0.074655	0.1067	0.065022	0.075072	0.1745	0.16157	0.20278	0.21684	0.34361	0.1157	0.084634	0.20573	0.25301	-1.6708	-1.9271	-2.3021	-1.9833	-2.2667	-2.3208	-1.8333	-2.2708	-1.9	-2.0958	-2.5146	-2.0667	-2.1729	-2.2292	-1.8563	-2.1208	120.403	103.605	356.259	72.404	406.705	364.995	247.862	283.251	137.779	288.463	366.662	399.044	288.561	293.101	237.573	408.671	0.00014937	0.00012783	6.1389e-05	351.78	2.1023e-06	2.6574e-06	336.07	147.03	1.2244e-06	2.5141e-06	144.49	50.187	52.882	20.229	2.7726e-06	18.861	0.00021772	0.00028896	7.2993e-05	344.26	2.655e-06	3.1165e-06	327.56	144.42	3.016e-06	3.1227e-06	141.02	49.755	52.161	20.009	3.163e-06	18.568	193.166	127.218	123.014	71.184	248.997	180.500	69.391	74.982	226.578	188.186	72.151	75.849	78.760	82.033	216.561	78.735	-8191	255	
42760.379	1	1	0	0	0.20978	0.072964	0.027084	0.1173	0.17159	0.17016	0.14064	0.21808	0.094647	0.42051	0.10279	0.18423	0.26879	0.042444	0.12518	0.20737	-1.6208	-2.05	-2.2042	-1.8167	-2.1417	-2.3958	-1.8854	-2.3333	-2.0792	-1.9125	-2.25	-2.0729	-2.1792	-2.3958	-1.9354	-2.2542	151.268	289.009	266.756	102.192	201.118	117.338	59.997	306.195	412.325	90.758	261.718	61.346	344.195	195.519	220.846	288.829	0.00015397	0.00012541	7.0271e-05	351.34	2.2691e-06	3.1858e-06	333.06	146.06	2.3387e-06	1.7809e-06	142.63	49.822	52.121	20.107	2.8185e-06	18.625	0.000215	0.00030721	7.3822e-05	342.23	2.5086e-06	3.0896e-06	324.88	143.52	2.9952e-06	3.1475e-06	139.87	49.232	51.569	19.876	3.2118e-06	18.393	196.632	159.588	150.283	71.196	215.466	234.196	69.584	74.870	229.022	163.996	71.831	76.278	78.864	81.944	218.340	78.805	-8191	255	
42760.500	1	1	0	0	0.13769	0.24666	0.15225	0.087353	0.21601	0.05927	0.049347	0.16675	0.30186	0.10224	0.18707	0.29271	0.19568	0.061466	0.21412	0.12607	-1.6292	-1.8687	-2.2229	-2.0875	-1.9792	-2.4	-1.8896	-2.2375	-2.05	-1.9667	-2.2542	-2.0104	-2.1937	-2.3063	-1.7667	-2.2062	386.761	202.896	122.881	367.049	205.769	370.669	145.604	70.551	197.680	99.062	118.648	344.470	305.328	310.080	400.530	297.192	0.00013191	0.0002241	6.0063e-05	351.47	1.8587e-06	2.2886e-06	332.91	145.02	2.1498e-06	1.372e-06	143.25	49.444	51.657	19.889	1.8552e-06	18.51	0.0002164	0.00028848	7.2913e-05	341.54	2.8728e-06	2.9915e-06	324.34	142.35	3.0895e-06	3.1e-06	139.3	48.98	51.247	19.686	3.1085e-06	18.275	196.838	127.886	178.247	71.638	230.088	206.252	69.464	75.026	227.276	193.617	72.108	75.966	79.238	82.465	255.087	79.083	-8191	255	
42760.570	1	1	0	0	0.19361	0.25614	0.031205	0.2051	0.46653	0.11522	0.42396	0.22815	0.10741	0.29532	0.29256	0.064469	0.32236	0.16821	0.15533	0.24225	-1.7604	-1.8708	-2.3229	-2.1542	-1.9792	-2.1937	-2.0396	-2.15	-2.1417	-1.8813	-2.45	-1.9125	-1.9625	-2.1104	-1.8062	-2.1312	231.332	262.292	62.329	250.978	154.812	266.422	351.313	369.771	58.269	192.268	352.206	271.678	184.490	151.858	228.101	252.138	0.00013397	0.00025757	6.1782e-05	348.59	1.2517e-06	2.2542e-06	331.43	143.95	1.733e-06	1.0888e-06	142.82	49.531	51.349	19.776	1.5703e-06	18.707	0.00021943	0.00029727	7.0265e-05	339.59	2.9175e-06	2.8771e-06	322.81	142.21	2.9272e-06	3.342e-06	138.63	48.818	51.094	19.618	3.0311e-06	18.353	188.609	156.052	141.492	71.384	225.157	226.855	69.467	74.806	237.521	197.001	71.609	75.770	78.880	82.211	200.817	78.257	-8191	255	
42760.668	1	1	0	0	0.37411	0.23346	0.30749	0.33384	0.31646	0.30069	0.21176	0.17416	0.057603	0.094002	0.14546	0.18329	0.39072	0.12667	0.092292	0.16234	-1.6333	-1.9062	-2.1208	-2.0354	-1.7313	-2.3604	-2.0729	-2.1854	-2.1875	-1.9062	-2.1583	-2.1854	-1.7833	-2.3917	-1.9833	-2.1458	113.845	373.930	301.637	216.542	160.603	168.064	69.184	311.211	135.072	78.910	80.255	126.528	169.339	373.768	411.713	309.521	0.00012915	0.00019109	8.4852e-05	347.39	1.6374e-06	1.2506e-06	332.33	143.73	1.4747e-06	2.2628e-06	142.42	49.519	51.604	19.857	2.039e-06	18.645	0.00021185	0.00028801	7.2458e-05	339.47	2.9546e-06	2.9203e-06	322.5	142.16	2.9127e-06	3.2102e-06	138.88	48.686	51.169	19.555	3.1276e-06	18.27	199.139	145.499	187.857	71.254	215.252	203.002	69.079	74.763	222.811	181.590	71.964	75.838	78.458	82.175	221.047	79.024	-8191	255	
42760.785	1	1	0	0	0.14431	0.37768	0.18464	0.062302	0.0090593	0.037559	0.16001	0.16771	0.33472	0.2086	0.074844	0.27989	0.14229	0.041272	0.01563	0.28486	-1.5958	-1.8188	-2.1167	-2.1125	-1.8062	-2.2521	-2.0625	-1.9479	-2.1875	-1.8062	-2.2562	-2.2604	-2.0563	-2.3396	-2.1937	-1.9688	270.443	149.767	231.225	98.615	122.139	346.285	123.814	312.365	105.246	144.219	334.976	113.188	286.536	351.720	225.230	386.001	0.00015535	0.00019183	4.9705e-05	346.64	1.9885e-06	2.2772e-06	329.23	145.26	1.9858e-06	2.1378e-06	141.7	49.799	51.789	19.652	1.0521e-06	18.557	0.00021504	0.00028304	7.8851e-05	338.53	3.026e-06	2.9332e-06	321.7	141.72	2.8311e-06	3.1097e-06	138.63	48.665	50.869	19.479	3.1773e-06	18.172	195.343	141.106	156.844	71.123	227.948	215.967	69.396	75.046	228.025	212.410	72.217	75.931	79.085	82.560	164.814	79.131	-8191	255	
42760.883	1	1	0	0	0.047184	0.1626	0.1289	0.14058	0.084757	0.26872	0.19978	0.19946	0.016134	0.10011	0.21413	0.027729	0.063178	0.089723	0.10372	0.304	-1.8521	-1.7625	-2.2875	-2.3021	-1.8563	-2.3271	-1.9354	-2.1958	-2.3375	-1.9875	-2.1167	-2.3458	-2.0646	-2.3083	-2.1	-1.9	107.873	239.088	66.828	194.866	291.531	266.388	57.641	380.799	365.489	342.700	163.375	307.578	125.272	94.356	217.970	128.961	0.00013566	0.00019462	5.8673e-05	346.64	2.0814e-06	2.5446e-06	328.46	144.47	1.4267e-06	1.8018e-06	141.55	49.488	51.693	19.677	1.9028e-06	18.54	0.00020987	0.00027721	7.9813e-05	338.35	2.9993e-06	3.1263e-06	320.85	141.68	2.7577e-06	3.1918e-06	138.6	48.831	51.088	19.449	3.2376e-06	18.23	193.946	156.717	120.479	71.177	183.990	214.911	69.370	74.835	215.139	231.485	71.767	76.072	78.503	82.059	220.709	79.337	-8191	255	
42760.977	1	1	0	0	0.27422	0.1727	0.18967	0.35085	0.39631	0.075574	0.029999	0.026016	0.23807	0.28228	0.082773	0.024736	0.25688	0.24767	0.022202	0.23189	-2.0354	-1.7875	-1.9583	-2.3187	-1.9333	-2.2021	-2.125	-2.0438	-2.3438	-2.1188	-1.9188	-2.0958	-1.8854	-2.4188	-2.2083	-1.925	407.624	69.061	333.337	390.676	251.372	294.473	328.482	354.703	66.716	235.246	348.182	313.233	292.647	113.391	199.184	121.458	0.00014714	0.00022706	4.7621e-05	346.77	1.0319e-06	1.6483e-06	332.08	145.15	1.7648e-06	1.6216e-06	143.27	50.422	52.062	19.738	2.3419e-06	18.772	0.00021438	0.0003158	8.4681e-05	338.93	2.8073e-06	2.9947e-06	323.18	142.28	2.8429e-06	3.2437e-06	140.12	49.416	51.419	19.626	3.317e-06	18.448	194.288	127.317	187.986	71.055	227.526	230.499	69.338	75.232	214.871	224.031	71.656	76.370	79.019	82.692	215.714	79.448	-8191	255	
42761.098	1	1	0	0	0.11159	0.10821	0.22947	0.1012	0.098524	0.32063	0.16851	0.18732	0.26502	0.061192	0.24114	0.080503	0.053258	0.21353	0.08865	0.20712	-1.8479	-1.8583	-1.9167	-2.2083	-2.1708	-2.1688	-2.2021	-1.8312	-2.5125	-2.0333	-2.0271	-2.4	-2.0917	-2.25	-2.3146	-1.925	125.727	72.010	160.434	245.295	321.247	103.625	395.258	264.088	247.377	391.200	241.518	379.841	215.798	124.065	241.916	413.147	0.00013134	0.0001311	4.9489e-05	347.82	1.828e-06	1.7954e-06	331.49	145.5	1.9686e-06	1.7612e-06	144.54	50.712	52.529	20.089	1.5978e-06	18.909	0.00019931	0.00030014	8.4467e-05	340.22	2.7944e-06	3.027e-06	323.95	143.37	2.7268e-06	3.3063e-06	141.21	49.94	51.949	19.828	2.9431e-06	18.623	197.663	179.938	139.137	71.317	214.027	212.648	69.600	74.584	221.282	218.965	71.218	75.897	78.928	81.987	206.982	79.378	-8191	255	
42761.195	1	1	0	0	0.19743	0.11792	0.11407	0.27829	0.14104	0.095342	0.18441	0.20059	0.25487	0.11533	0.093945	0.067566	0.13095	0.22598	0.022473	0.18945	-1.9312	-2.0167	-2.0875	-2.4729	-2.1125	-2.2458	-2.3063	-1.9208	-2.2604	-2.0708	-2.1396	-2.6854	-1.95	-2.2708	-2.1	-2.0146	163.390	154.012	294.857	348.975	244.270	233.527	376.983	362.168	246.422	375.620	363.407	399.553	127.338	236.027	398.238	363.092	0.00013636	0.00013538	7.4054e-05	349.19	1.8418e-06	1.6928e-06	332.57	146.05	2.3173e-06	3.074e-06	143.78	50.285	52.572	19.806	1.3587e-06	18.792	0.00021834	0.00029727	8.3531e-05	341.35	2.9175e-06	3.2686e-06	324.67	143.62	2.803e-06	3.3603e-06	140.7	49.521	51.784	19.643	2.7203e-06	18.423	196.652	126.310	155.691	71.187	232.749	205.382	68.991	74.820	221.627	221.650	72.059	76.286	78.954	82.261	209.714	79.302	-8191	255	
42761.266	1	1	0	0	0.24804	0.044278	0.2266	0.18472	0.38141	0.17344	0.20546	0.059139	0.11706	0.15953	0.2425	0.13078	0.14444	0.15681	0.17801	0.10447	-1.9	-2.0563	-1.9062	-2.3583	-1.9521	-2.1208	-2.1937	-1.8979	-2.2396	-2.3396	-2.0479	-2.3375	-1.9542	-2.0062	-2.5125	-1.8646	299.813	363.724	86.488	275.369	395.543	353.494	250.462	73.545	138.747	181.417	317.424	64.808	177.251	378.589	205.789	335.873	0.00015328	0.00023422	7.2779e-05	349.99	9.7909e-07	1.4801e-06	332.86	145.48	2.488e-06	9.901e-07	143.28	50.163	52.081	19.683	2.3455e-06	18.626	0.00021741	0.00028953	7.6604e-05	340.54	3.1112e-06	3.4757e-06	324.08	143.33	3.2544e-06	2.9996e-06	140.24	49.457	51.588	19.584	2.813e-06	18.391	196.790	149.203	128.391	71.103	238.342	210.251	69.175	74.694	213.237	254.276	72.012	76.186	78.480	82.227	227.162	79.247	-8191	255	
42761.387	1	1	0	0	0.10619	0.23432	0.18885	0.28818	0.072488	0.031152	0.41173	0.25691	0.22071	0.19598	0.27259	0.15164	0.14122	0.076516	0.082446	0.23479	-1.525	-2.2292	-1.8312	-2.2833	-2.0708	-1.8104	-2.2542	-2.0604	-2.3729	-2.2083	-1.8646	-2.3937	-2.1875	-2.075	-2.3458	-1.9979	130.493	160.842	387.277	379.590	340.777	341.017	365.319	57.947	395.175	335.178	145.485	402.758	317.823	235.679	375.146	134.732	0.00014495	0.00030308	5.119e-05	351.19	1.3693e-06	2.5736e-06	332.26	146.56	1.4091e-06	1.8948e-06	144.98	50.354	52.361	19.606	1.5651e-06	18.895	0.00022234	0.00029393	7.8289e-05	341.75	2.7652e-06	3.4465e-06	324.67	143.64	2.997e-06	2.8861e-06	141.67	49.652	51.725	19.575	2.9268e-06	18.607	194.550	180.585	176.307	71.334	217.994	212.136	69.202	74.769	254.452	210.501	72.200	76.032	79.159	82.238	184.575	79.325	-8191	255	
42761.484	1	1	0	0	0.18214	0.082607	0.13087	0.26741	0.12694	0.053758	0.35773	0.023173	0.17834	0.15123	0.22199	0.23081	0.22609	0.26987	0.32218	0.39269	-1.8354	-2.2521	-1.8354	-2.3063	-1.9438	-1.8188	-2.2104	-2.0438	-2.1792	-2.1083	-1.9167	-2.1417	-2.125	-1.8104	-2.2792	-1.8375	196.552	84.341	252.915	409.268	373.963	297.015	72.306	179.146	357.458	395.808	136.802	188.733	389.277	312.409	349.806	229.684	0.00013945	0.00021341	6.9976e-05	350.12	1.8785e-06	1.8293e-06	332.93	147.86	2.0611e-06	1.546e-06	144.6	50.955	52.811	19.849	1.951e-06	19.026	0.00021807	0.00026279	7.7406e-05	341.3	2.859e-06	3.1252e-06	325.23	144.46	3.2327e-06	2.8948e-06	141.78	50.117	52.038	19.715	2.9766e-06	18.709	190.273	147.170	146.533	71.007	213.342	191.339	69.498	75.215	210.584	190.234	71.971	75.952	78.712	82.329	222.077	79.175	-8191	255	
42761.578	1	1	0	0	0.26679	0.4358	0.20106	0.17748	0.25536	0.43448	0.29576	0.11803	0.18573	0.066521	0.097797	0.14846	0.0080726	0.34069	0.019702	0.27776	-1.7167	-2.2583	-1.8354	-2.3479	-2.1646	-1.8542	-2.3271	-2.0979	-2.0812	-2.3146	-1.9	-2.1771	-2.2271	-1.8792	-2.3583	-2.225	207.843	66.666	352.369	384.994	196.948	149.232	307.331	337.841	240.197	142.016	391.681	369.205	311.415	341.559	414.670	171.647	0.00014175	0.00027428	6.016e-05	352.88	1.5683e-06	2.5556e-06	336.04	146.79	1.4195e-06	7.4937e-07	144.61	50.26	52.945	19.85	2.5464e-06	18.892	0.00022281	0.00027922	8.4173e-05	342.77	2.7557e-06	3.2503e-06	327.02	144.38	2.9988e-06	2.8667e-06	141.77	50.025	51.95	19.703	2.9249e-06	18.561	193.655	135.156	121.524	71.199	220.972	205.059	69.524	75.139	209.242	187.267	71.812	76.227	78.470	82.398	209.646	79.475	-8191	255	
42761.676	1	1	0	0	0.038032	0.34091	0.053037	0.1625	0.068709	0.18014	0.027453	0.15842	0.17033	0.1294	0.28322	0.28443	0.12746	0.073704	0.22357	0.078063	-1.6417	-2.2979	-1.9083	-2.1792	-2.2604	-1.9354	-2.2646	-2.0479	-1.8042	-2.4021	-1.8833	-2.0625	-2.15	-1.9562	-2.3	-2.0729	372.379	217.863	286.685	264.320	312.676	360.439	303.620	393.186	312.289	407.119	99.830	78.773	298.643	114.835	195.157	351.976	0.00013632	0.00027685	5.9627e-05	349.74	2.2308e-06	1.4814e-06	334.78	146.76	2.0893e-06	2.1119e-06	145.3	50.017	52.077	19.737	2.4062e-06	18.717	0.00021671	0.00026498	7.8048e-05	341.37	2.7918e-06	3.0648e-06	325.03	143.72	3.1094e-06	2.9348e-06	141.32	49.438	51.619	19.504	2.9919e-06	18.459	197.104	133.104	148.306	71.149	216.406	200.939	69.296	75.185	233.586	237.169	72.467	75.814	78.831	82.560	174.115	79.251	-8191	255	
42761.770	1	1	0	0	0.22203	0.21161	0.22538	0.10067	0.15397	0.15693	0.15315	0.23138	0.19574	0.5226	0.067435	0.11991	0.10722	0.24085	0.37333	0.24968	-1.6688	-2.2167	-1.6771	-2.0625	-2.1562	-1.9	-2.2667	-2.2917	-2.0187	-2.4854	-2.0583	-2.2667	-2.3833	-1.7604	-2.425	-2.1479	90.815	327.683	182.531	59.942	228.938	323.889	283.057	109.139	311.373	260.110	236.132	76.829	143.259	359.454	345.417	226.395	0.0001384	0.00024821	4.2902e-05	348.96	2.0901e-06	1.3521e-06	331.84	146.75	1.6455e-06	1.201e-06	143.8	50.538	52.183	19.637	1.7762e-06	18.818	0.00021306	0.00027406	8.2194e-05	340.25	2.457e-06	3.2524e-06	324.48	143.72	2.9208e-06	2.7663e-06	141.47	49.765	51.686	19.53	2.9766e-06	18.527	195.321	147.612	139.324	71.331	225.945	205.077	69.029	74.883	224.864	203.628	71.990	76.166	78.871	82.072	200.937	78.874	-8191	255	
42761.867	1	1	0	0	0.1036	0.034203	0.081354	0.11997	0.33432	0.13733	0.11203	0.13979	0.17611	0.11819	0.14776	0.20208	0.10283	0.092633	0.24516	0.09927	-1.4479	-2.2417	-1.9917	-2.0854	-2.175	-1.8792	-2.2812	-2.1708	-1.9333	-2.4667	-2.1292	-2.0083	-2.3354	-1.9604	-2.2938	-2.1271	97.006	360.904	59.226	256.579	200.438	403.965	139.189	386.782	158.657	166.387	223.713	73.345	221.592	92.336	369.288	259.801	0.00013067	0.00013982	7.3123e-05	348.77	1.444e-06	1.6052e-06	331.65	146.53	1.0747e-06	2.0147e-06	144.93	50.416	52.921	19.806	1.7929e-06	19.029	0.0002232	0.00026174	8.5083e-05	341.47	2.5792e-06	3.3053e-06	325.22	144.06	2.9263e-06	2.9758e-06	142.25	50.005	51.955	19.607	3.0951e-06	18.717	200.745	145.031	137.600	71.147	210.284	215.097	69.500	74.964	225.663	209.080	71.519	75.936	78.587	82.736	218.515	79.091	-8191	255	
42761.961	1	1	0	0	0.027595	0.081744	0.23402	0.17961	0.21412	0.22546	0.098663	0.22869	0.17397	0.033339	0.2479	0.13105	0.26254	0.081638	0.21155	0.076951	-1.4042	-2.2542	-2.1792	-2.0687	-2.1729	-1.8646	-2.2854	-2.2521	-1.7604	-2.475	-2.2625	-1.8729	-2.4271	-1.7625	-2.1833	-2.2396	67.975	63.521	118.877	166.627	360.161	340.162	342.898	113.497	199.632	315.373	287.962	57.760	386.935	335.892	396.753	159.223	0.00013809	0.00036074	8.2542e-05	351.41	2.2335e-06	2.8864e-06	336.9	148.17	2.0532e-06	1.3469e-06	146.11	51.065	52.923	19.907	2.2732e-06	19.058	0.0002131	0.00029125	7.5587e-05	342.35	2.7333e-06	3.2805e-06	328.47	145.51	3.0786e-06	2.9672e-06	142.85	50.475	52.364	19.806	3.0129e-06	18.779	195.678	137.765	137.011	71.307	218.659	199.126	69.112	75.107	238.485	224.272	72.102	76.139	78.879	82.424	244.028	78.945	-8191	255	
42762.059	1	1	0	0	0.18641	0.051784	0.15083	0.20376	0.28811	0.021797	0.059771	0.18371	0.2541	0.057267	0.38787	0.12768	0.22746	0.38847	0.18014	0.23924	-1.3854	-2.375	-1.9917	-1.8167	-2.3521	-1.9438	-2.0563	-2.275	-1.8646	-2.3396	-2.1271	-2.0396	-2.3271	-2.2	-1.9479	-2.3708	271.700	346.972	263.031	323.402	339.265	209.083	392.281	167.420	98.159	224.739	348.489	378.500	395.840	99.771	149.834	170.646	0.00014643	0.00016138	5.5419e-05	351.2	1.8966e-06	1.8152e-06	335.56	147.88	8.5838e-07	2.4878e-06	144.99	50.451	52.698	19.823	2.3368e-06	18.865	0.0002321	0.00028686	8.1525e-05	343.58	2.7531e-06	3.4724e-06	327.3	145.06	3.2345e-06	3.0989e-06	142.57	50.017	52.086	19.639	3.3303e-06	18.585	197.193	100.368	128.748	70.763	213.028	182.962	69.432	74.794	208.950	204.654	72.153	75.818	79.064	82.359	200.979	78.927	-8191	255	
42762.180	1	1	0	0	0.14746	0.053307	0.15015	0.35994	0.29292	0.097013	0.12504	0.1328	0.097042	0.22025	0.14823	0.28143	0.048946	0.3066	0.11049	0.20437	-1.4354	-2.2812	-2.2542	-1.9438	-2.2583	-2.1667	-1.9854	-2.1833	-1.8917	-2.2354	-2.2687	-1.7771	-2.1042	-1.8542	-2.0125	-2.4542	327.865	80.258	304.854	401.746	169.471	131.729	333.607	320.474	283.905	276.996	322.038	377.139	328.222	87.480	353.203	236.071	0.00013655	0.00023353	5.794e-05	352.66	1.5388e-06	1.8277e-06	336.59	147.53	1.4755e-06	1.7194e-06	146.41	50.746	52.568	19.735	2.0587e-06	18.853	0.00022312	0.00029135	7.8637e-05	344.03	2.7049e-06	3.1737e-06	328.25	144.9	3.123e-06	3.1756e-06	142.9	50.095	52.08	19.562	2.9966e-06	18.577	194.308	137.959	144.189	70.953	206.499	218.594	69.356	75.083	238.397	188.177	72.340	75.610	78.857	82.039	229.467	78.963	-8191	255	
42762.273	1	1	0	0	0.10994	0.29229	0.091311	0.18214	0.25625	0.26776	0.28877	0.31116	0.27013	0.14011	0.18848	0.27615	0.25741	0.26319	0.03702	0.036166	-1.5938	-1.95	-2.4292	-1.9	-2.3396	-2.1458	-1.9542	-2.4271	-1.9083	-2.05	-2.2938	-1.8646	-2.2396	-2.0417	-1.8271	-2.3812	162.169	333.534	153.858	279.084	320.289	338.037	77.354	90.449	356.623	236.926	365.130	328.984	60.002	372.806	407.066	385.911	0.00014325	0.00017603	6.5512e-05	353.08	1.825e-06	1.5174e-06	336.37	147.38	1.9344e-06	3.3537e-06	145.87	51.065	52.967	19.819	2.5639e-06	18.926	0.00023132	0.00030052	7.6122e-05	344.59	2.7187e-06	3.0163e-06	329.67	145.22	3.1883e-06	3.194e-06	142.99	50.292	52.233	19.667	2.9861e-06	18.704	196.730	155.184	153.429	71.235	195.351	179.289	69.330	75.077	186.876	182.827	72.209	75.749	78.985	82.551	193.261	79.287	-8191	255	
42762.371	1	1	0	0	0.060506	0.21731	0.20702	0.18868	0.067655	0.021335	0.050987	0.33639	0.050098	0.15467	0.2249	0.12981	0.01944	0.50882	0.058437	0.15384	-1.5125	-2.1521	-2.2458	-1.9688	-2.1375	-2.1146	-1.8542	-2.3063	-1.9438	-1.9792	-2.3021	-1.85	-2.1875	-1.9771	-1.9292	-2.1937	316.049	282.273	235.690	75.153	412.457	128.578	181.993	357.643	85.142	145.325	57.847	334.769	89.713	93.739	316.598	87.070	0.00013729	0.00018838	4.9426e-05	348.47	2.0037e-06	2.927e-06	337	148.57	9.4827e-07	2.3784e-06	148.39	51.23	53.166	19.835	1.5179e-06	19.225	0.00022277	0.00028867	7.4972e-05	343.96	2.8779e-06	3.1155e-06	329.18	145.45	2.9816e-06	3.167e-06	144.04	50.625	52.622	19.789	3.119e-06	18.952	199.393	152.072	125.657	71.573	211.101	195.435	69.159	75.119	266.287	197.241	72.185	75.904	78.813	82.365	211.640	79.424	-8191	255	
42762.469	1	1	0	0	0.12173	0.19797	0.073704	0.092967	0.3059	0.14846	0.16101	0.26428	0.16806	0.079121	0.32322	0.17628	0.054344	0.33473	0.18539	0.28174	-1.5583	-1.9833	-2.3083	-1.9542	-2.1562	-2.1979	-1.9479	-2.175	-2.0812	-1.9312	-2.2229	-2.0167	-2.1042	-2.1271	-1.7354	-2.0604	265.239	199.934	267.342	357.084	98.868	241.979	319.603	384.447	197.717	107.532	235.751	357.722	242.669	81.821	102.664	117.381	0.00015545	0.00025788	7.1058e-05	355.32	1.1841e-06	2.2085e-06	338.12	148.37	1.9477e-06	2.0642e-06	146.9	51.117	53	19.926	1.4975e-06	18.994	0.00023182	0.00029899	7.3421e-05	345.86	2.766e-06	3.0928e-06	329.22	146.04	3.0795e-06	3.0482e-06	143.35	50.385	52.417	19.68	3.2911e-06	18.662	194.718	134.036	168.357	70.846	192.528	196.704	68.832	74.908	224.746	193.347	72.092	75.945	78.848	81.991	180.443	78.538	-8191	255	
42762.562	1	1	0	0	0.28626	0.10609	0.081291	0.34903	0.19326	0.19605	0.01898	0.18146	0.10127	0.087021	0.24394	0.33972	0.18919	0.052144	0.28224	0.071987	-1.55	-1.9833	-2.2708	-1.8	-2.2354	-2.325	-1.9354	-2.2833	-2.1896	-1.8896	-2.3542	-1.9292	-2.2771	-2.2583	-1.9896	-2.4688	73.883	231.673	322.500	115.109	63.416	59.648	76.081	232.666	57.180	292.920	106.170	304.220	135.316	124.672	253.585	121.772	0.00014056	0.00023803	1.6638e-05	354.16	1.9499e-06	2.1314e-06	336.39	148.26	1.8661e-06	2.3096e-06	145.5	50.764	52.818	19.729	3.0195e-06	18.916	0.00022203	0.00029794	7.7941e-05	344.53	2.7686e-06	2.9375e-06	327.96	145.13	2.9707e-06	3.0514e-06	142.78	50.084	52.067	19.503	3.2548e-06	18.526	194.166	175.194	103.490	71.356	232.381	233.585	69.343	74.834	236.191	201.069	71.848	75.903	79.071	82.562	224.463	79.513	-8191	255	
42762.656	1	1	0	0	0.1319	0.1752	0.051016	0.11927	0.23651	0.19689	0.31818	0.15335	0.27176	0.058488	0.12537	0.1793	0.13952	0.20819	0.29893	0.1533	-1.7354	-1.8479	-2.3812	-1.8896	-2.0917	-2.3792	-1.925	-2.3521	-2.3375	-1.9188	-2.2333	-2.1667	-2.1708	-2.4271	-1.7625	-2.2458	239.860	196.803	58.958	386.926	413.303	342.786	282.083	335.864	343.941	299.749	271.719	223.250	399.930	90.441	183.971	91.428	0.0001452	0.0001782	3.9752e-05	352.47	2.2208e-06	1.8927e-06	336.93	147.64	1.9576e-06	1.7365e-06	146.11	50.773	52.606	19.692	1.5428e-06	19.076	0.00020385	0.00028829	7.5801e-05	343.46	2.7858e-06	2.7952e-06	327.81	144.94	3.0695e-06	3.1454e-06	142.59	50.242	52.122	19.508	3.0875e-06	18.703	203.618	163.196	154.778	71.465	213.162	208.039	69.213	74.589	218.583	173.773	71.687	76.147	78.884	82.325	192.970	78.694	-8191	255	
42762.777	1	1	0	0	0.22912	0.40398	0.065735	0.31024	0.13664	0.18955	0.2113	0.17133	0.088037	0.27673	0.1512	0.11176	0.1171	0.045007	0.10223	0.22421	-1.7146	-1.9708	-2.4896	-2.0875	-1.9625	-2.3958	-2.0354	-2.3792	-2.2542	-2.1771	-2.2562	-2.2521	-1.9188	-2.4333	-2.0979	-2.0708	412.429	310.739	350.299	74.077	321.602	219.858	102.992	137.649	353.803	250.292	72.432	173.273	58.283	275.958	101.555	372.611	0.00014356	0.00023915	4.5786e-05	353.45	1.4525e-06	1.6533e-06	339.86	148.59	1.4276e-06	1.8019e-06	147.04	51.388	53.254	19.859	2.4508e-06	19.208	0.00021069	0.00031332	7.7005e-05	345.13	2.7118e-06	2.8502e-06	329.54	145.96	2.9435e-06	3.4608e-06	143.63	50.603	52.545	19.698	3.185e-06	18.851	199.440	175.866	160.410	71.403	220.112	193.851	69.252	74.718	218.701	190.414	72.072	75.743	78.698	82.402	221.615	79.327	-8191	255	
42762.875	1	1	0	0	0.076133	0.15596	0.19345	0.19692	0.057816	0.12515	0.18874	0.10393	0.20536	0.12239	0.39541	0.1644	0.2738	0.17799	0.064504	0.11792	-1.9021	-1.75	-2.2729	-2.1729	-1.8917	-2.5042	-2.1708	-2.0542	-2.4208	-1.8646	-2.2562	-2.1083	-1.9417	-2.3854	-1.9958	-2.0396	243.642	182.903	342.904	78.395	81.821	284.546	259.310	408.171	404.701	96.025	355.834	88.211	385.554	385.735	270.260	293.516	0.00013686	0.00018336	6.2391e-05	355.56	2.1352e-06	2.1272e-06	338.16	149.44	2.2188e-06	2.2486e-06	147.68	51.114	52.8	19.906	2.6802e-06	19.064	0.00021485	0.00029851	8.0215e-05	347.22	2.7023e-06	2.8976e-06	331.13	146.48	2.9109e-06	3.3409e-06	144.12	50.584	52.389	19.692	3.3552e-06	18.691	201.720	152.504	143.354	71.193	208.648	198.275	69.187	74.722	233.707	214.662	71.874	76.314	78.796	82.304	206.732	79.329	-8191	255	
42762.973	1	1	0	0	0.20922	0.40398	0.23432	0.13334	0.046515	0.078278	0.14074	0.35361	0.19434	0.11528	0.31118	0.15876	0.05632	0.28537	0.083287	0.13298	-1.8792	-1.8625	-2.2396	-2.1021	-1.9146	-2.225	-2.1417	-2.1104	-2.1875	-1.9104	-2.3125	-2.1771	-1.9833	-2.2021	-1.9771	-2.1271	89.741	315.378	160.804	79.151	310.082	172.000	196.945	369.293	174.846	255.188	341.142	335.901	245.700	349.030	58.057	325.291	0.00013234	0.00022516	5.9123e-05	355.66	1.9275e-06	2.4493e-06	336.47	148.76	1.5793e-06	2.1007e-06	146.79	50.611	52.755	19.681	3.0009e-06	18.84	0.00022841	0.00031771	7.9787e-05	347.02	2.884e-06	3.0357e-06	329.13	145.84	3.0958e-06	3.2005e-06	143.28	50.209	52.22	19.542	3.2405e-06	18.601	190.835	127.914	113.652	71.088	249.429	231.586	69.280	75.130	229.918	233.108	71.479	75.766	78.896	82.766	239.586	79.138	-8191	255	
42763.066	1	1	0	0	0.074829	0.08619	0.021202	0.144	0.12948	0.20064	0.34155	0.095445	0.30372	0.21754	0.26192	0.052568	0.07451	0.16401	0.15948	0.088489	-2.0729	-1.9417	-2.1146	-2.3396	-2.0833	-2.2458	-1.9521	-1.9896	-2.2458	-1.9937	-2.0708	-2.325	-1.9917	-2.275	-2.1833	-1.9521	181.242	155.226	360.932	90.455	407.233	383.432	146.065	95.673	282.974	182.187	147.489	186.535	414.386	157.706	408.118	359.794	0.00013821	0.00035093	8.2936e-05	352.36	2.3921e-06	2.808e-06	335.43	148.01	1.2359e-06	1.7203e-06	145.83	50.987	52.806	19.604	1.8039e-06	18.824	0.00021252	0.00032192	7.5561e-05	343.95	2.9795e-06	2.9117e-06	328.09	145.45	2.9399e-06	3.2988e-06	143.03	50.071	52.19	19.417	2.9469e-06	18.606	192.390	149.441	144.422	71.239	245.447	240.906	68.971	74.947	221.232	197.478	72.128	76.090	78.656	82.343	224.965	79.024	-8191	255	
42763.160	1	1	0	0	0.086163	0.19914	0.22504	0.10121	0.13189	0.21209	0.37932	0.3747	0.04349	0.21294	0.14491	0.11112	0.046066	0.31326	0.11702	0.20501	-1.9104	-1.8	-2.0958	-2.1833	-1.9771	-2.2458	-2.2188	-1.8229	-2.3375	-2.1417	-2.0021	-2.2396	-1.825	-2.2167	-2.3042	-1.9438	69.561	75.075	321.937	252.465	399.327	299.716	294.874	383.362	389.131	397.410	351.070	174.460	237.152	368.424	281.795	116.229	0.00014389	0.00015858	7.2512e-05	351.77	1.2316e-06	1.5313e-06	336.88	149.33	1.2817e-06	1.9154e-06	146.9	51.143	52.961	19.782	2.5425e-06	19.113	0.00021795	0.00030262	7.853e-05	344.04	3.0157e-06	3.2362e-06	329.08	146.16	2.9453e-06	3.006e-06	143.75	50.43	52.389	19.553	3.2232e-06	18.769	195.399	156.516	157.116	71.107	214.931	193.402	69.704	74.909	214.742	207.147	71.952	75.833	79.155	82.468	232.152	79.431	-8191	255	
42763.258	1	1	0	0	0.11163	0.21453	0.15469	0.14069	0.30347	0.087295	0.16719	0.13153	0.24779	0.26252	0.2514	0.16375	0.19067	0.17332	0.064973	0.045294	-1.9708	-1.9292	-2.0896	-2.3063	-1.9	-2.2625	-2.1667	-1.7625	-2.2625	-2.0167	-2.1417	-2.2062	-1.9292	-2.0958	-2.3208	-1.7896	314.708	414.439	335.873	407.657	173.491	210.833	412.507	246.639	162.301	104.695	385.055	252.307	134.612	302.856	87.167	338.829	0.00013	0.00026854	8.4452e-05	353.1	1.8757e-06	2.2111e-06	337.2	148.82	1.7037e-06	1.5098e-06	147.41	51.125	53.314	19.84	1.7229e-06	19.239	0.00021768	0.00031533	7.5668e-05	345.67	3.0604e-06	2.9451e-06	329.93	146.57	3.0251e-06	2.9877e-06	144.88	50.755	52.868	19.702	2.9775e-06	18.863	192.360	127.448	148.727	71.663	217.139	242.825	69.410	74.956	243.084	225.608	72.037	76.016	78.969	82.425	222.755	79.152	-8191	255	
42763.355	1	1	0	0	0.27346	0.10718	0.14266	0.32959	0.13018	0.057806	0.2463	0.22424	0.04119	0.20399	0.077679	0.091896	0.094445	0.16703	0.27096	0.26846	-1.7062	-1.9854	-1.8729	-2.3646	-1.8125	-2.0646	-2.25	-1.7292	-2.125	-2.1958	-1.9104	-2.3021	-2.0208	-2.1604	-2.1937	-1.9104	263.241	309.875	75.183	400.686	295.088	271.600	381.503	145.120	400.550	224.171	335.995	131.659	280.058	91.506	176.699	193.329	0.00015198	5.2752e-05	1.7146e-05	352.53	1.8516e-06	6.2721e-07	334.42	149.17	1.4661e-06	2.7338e-06	146.45	51.259	53.133	19.533	1.7207e-06	18.799	0.00023011	0.00030969	8.5671e-05	345.86	2.9838e-06	3.0119e-06	328.04	146.34	3.0115e-06	3.0644e-06	143.56	50.268	52.436	19.415	3.1429e-06	18.564	191.160	112.999	131.547	71.809	200.791	175.567	69.350	74.965	254.621	238.209	71.821	76.149	78.662	82.531	224.594	79.062	-8191	255	
42763.449	1	1	0	0	0.081636	0.14582	0.16146	0.1963	0.22373	0.24743	0.20487	0.07401	0.24674	0.27443	0.13411	0.082546	0.10501	0.13424	0.16075	0.0506	-1.8229	-2.0167	-1.8729	-2.35	-1.8208	-2.125	-2.1979	-1.9188	-2.1917	-2.2521	-2.0167	-2.4229	-1.8208	-2.0417	-2.275	-1.9604	209.576	312.897	199.632	154.777	186.779	180.351	196.037	60.358	183.013	69.087	336.017	360.860	369.036	264.003	188.529	278.300	0.00015015	0.00026524	7.4093e-05	351.69	2.2339e-06	2.8493e-06	337.15	147.43	1.7229e-06	1.7504e-06	146.43	50.99	53.008	19.613	2.068e-06	18.811	0.00022724	0.00028304	8.7356e-05	344.64	3.0053e-06	3.4174e-06	328.46	145.33	3.1139e-06	2.8149e-06	143.01	50.251	52.182	19.4	2.9364e-06	18.55	195.596	159.575	160.682	71.129	225.762	222.054	69.302	74.893	239.360	187.320	71.836	75.989	78.796	82.595	218.221	79.124	-8191	255	
42763.570	1	1	0	0	0.30047	0.19636	0.11307	0.083932	0.23522	0.079035	0.36565	0.25926	0.23699	0.14464	0.33243	0.034543	0.44459	0.36528	0.38723	0.014737	-1.6562	-2.2479	-2.0917	-2.3396	-2.0896	-1.9875	-2.5312	-1.9375	-2.2042	-2.1417	-1.9104	-2.4479	-1.7521	-1.7229	-2.4146	-1.9542	242.317	383.535	301.853	283.415	168.639	186.122	230.706	102.662	103.645	239.981	252.727	307.429	78.999	369.418	172.773	273.299	0.00014474	0.00015251	4.7567e-05	356.28	2.9543e-06	3.4351e-06	338.81	148.57	1.4345e-06	1.5716e-06	147.4	50.66	53.029	19.578	2.067e-06	19.07	0.00021523	0.00026479	8.5323e-05	345.57	2.828e-06	3.191e-06	328.88	145.93	2.9072e-06	2.8008e-06	143.59	50.375	52.349	19.438	2.8589e-06	18.674	197.451	110.882	170.852	71.309	207.131	205.919	69.341	75.286	223.883	194.140	72.101	75.813	78.816	82.401	212.533	79.135	-8191	255	
42763.668	1	1	0	0	0.23026	0.14862	0.20683	0.18461	0.017827	0.10955	0.22079	0.11503	0.065177	0.1314	0.1842	0.15109	0.32449	0.21195	0.2068	0.23697	-1.4875	-2.2604	-2.0062	-2.3333	-2.2271	-2.0479	-2.4437	-1.9542	-2.1875	-2.3958	-2.1146	-2.3312	-2.0979	-2.0271	-2.3417	-1.8979	202.963	353.747	202.614	407.922	188.165	140.411	211.820	69.922	235.907	245.673	88.422	385.475	355.342	410.112	307.463	135.576	0.00014504	0.00023262	5.0399e-05	355.76	1.3812e-06	2.7969e-06	336.04	149.41	1.7846e-06	2.5105e-06	148.29	51.406	53.417	19.832	2.4455e-06	19.12	0.0002213	0.0002689	9.0405e-05	346.76	2.7884e-06	3.4703e-06	329.16	146.36	2.8782e-06	3.0417e-06	144.66	50.635	52.664	19.595	3.1554e-06	18.88	196.077	135.252	167.561	71.380	235.984	225.642	68.921	74.722	216.758	192.758	72.121	76.422	79.034	82.658	188.857	78.937	-8191	255	
42763.738	1	1	0	0	0.070099	0.065807	0.082433	0.19081	0.29983	0.13279	0.21813	0.21383	0.25375	0.11936	0.08185	0.18769	0.16031	0.16439	0.16564	0.2514	-1.7	-2.2958	-1.9021	-2.2812	-2.2938	-1.8146	-2.1021	-2.1188	-2.0271	-2.3708	-1.8167	-2.2146	-2.3125	-1.9354	-2.1854	-2.1917	124.226	140.576	357.938	389.908	155.103	276.469	338.364	362.070	153.377	261.691	125.667	186.389	228.176	133.386	192.681	341.239	0.00013363	0.00022468	2.2966e-05	355.33	9.7993e-07	3.1163e-06	340.44	149.7	9.4624e-07	2.1629e-06	147.15	51.58	53.269	19.703	2.3209e-06	19.013	0.00021046	0.00028285	8.4735e-05	347.2	2.698e-06	3.2772e-06	330.34	147.39	3.094e-06	3.1313e-06	144.31	50.564	52.614	19.531	3.1009e-06	18.621	194.436	116.842	185.462	71.140	215.156	204.572	69.083	75.300	221.376	196.858	72.009	75.997	78.790	82.434	206.897	79.453	-8191	255	
42763.859	1	1	0	0	0.1957	0.11202	0.13467	0.12303	0.055726	0.18602	0.26283	0.34246	0.084398	0.28972	0.26955	0.23803	0.21059	0.17139	0.13736	0.21199	-1.5708	-2.3125	-1.9688	-2.1979	-2.2771	-1.825	-2.3208	-2.1333	-2.0292	-2.4562	-1.9813	-2.0917	-2.2208	-1.9375	-2.4146	-2.1708	89.289	328.280	386.284	268.140	165.136	173.264	310.404	71.844	306.990	92.681	403.737	61.912	346.952	366.096	71.522	395.838	0.00012667	0.00032419	6.4215e-05	356.37	1.8085e-06	2.0929e-06	336.76	149.01	1.5847e-06	1.9299e-06	145.63	50.673	53.083	19.435	1.6924e-06	18.864	0.00021648	0.00026852	8.8266e-05	346.76	2.7574e-06	3.3355e-06	328.95	146.18	3.1973e-06	3.2685e-06	143.37	50.224	52.27	19.326	3.0846e-06	18.565	206.178	141.750	167.320	71.063	229.541	169.786	69.643	74.659	231.858	209.761	72.132	76.111	78.914	82.454	215.028	79.130	-8191	255	
42763.953	1	1	0	0	0.12506	0.10027	0.011555	0.068727	0.16234	0.14358	0.22145	0.088669	0.15835	0.035753	0.068164	0.067531	0.12837	0.28127	0.15041	0.11696	-1.475	-2.1521	-2.0229	-2.0167	-2.2125	-1.8854	-2.175	-2.2188	-1.9229	-2.3292	-1.9979	-1.95	-2.3271	-1.8896	-2.1604	-2.0292	365.943	77.528	64.722	347.503	178.725	223.338	276.566	245.804	217.392	129.798	383.012	310.550	194.859	75.788	160.712	395.906	0.00014053	0.00024136	4.2936e-05	353.12	2.0133e-06	2.0645e-06	337.16	148.77	1.3732e-06	1.4645e-06	146.91	51.206	53.029	19.613	1.6713e-06	18.915	0.00022743	0.00027339	7.4651e-05	345.54	2.735e-06	3.4789e-06	329.22	146.08	3.21e-06	3.3009e-06	144.02	50.393	52.279	19.404	2.8025e-06	18.635	199.619	158.796	122.479	71.229	236.956	185.522	69.526	74.868	214.370	215.822	71.816	76.123	79.184	82.535	216.914	79.144	-8191	255	
42764.051	1	1	0	0	0.3099	0.20085	0.13377	0.053362	0.13708	0.41478	0.031758	0.070538	0.12537	0.13289	0.34442	0.038538	0.21206	0.1803	0.12772	0.26228	-1.3646	-2.1292	-1.9417	-2.0125	-2.2458	-1.8354	-2.0208	-2.1521	-1.8229	-2.4167	-2.0146	-2.0979	-2.3625	-1.7021	-2.1146	-2.4271	196.962	266.360	157.091	256.341	410.273	110.820	181.269	357.646	372.192	163.934	165.551	343.391	86.380	385.245	292.998	317.564	0.00012542	0.00032629	4.6525e-05	353.8	1.1354e-06	1.0747e-06	338.43	149.49	1.9374e-06	2.5473e-06	146.9	51.562	53.216	19.785	2.2294e-06	19.078	0.00022114	0.00028476	7.9038e-05	346.91	2.7402e-06	3.3236e-06	330.14	146.62	3.3641e-06	3.2437e-06	144.16	50.695	52.675	19.546	3.0043e-06	18.834	195.356	144.761	147.303	71.327	229.751	233.918	69.328	74.876	217.558	172.363	71.803	76.163	79.094	82.146	206.290	79.232	-8191	255	
42764.148	1	1	0	0	0.2411	0.11295	0.19269	0.15572	0.25485	0.082358	0.074035	0.33497	0.12029	0.014771	0.14283	0.24293	0.20569	0.23256	0.11854	0.019524	-1.4771	-2.2896	-2.0625	-2.0042	-2.3125	-2.0375	-2.0833	-2.1292	-1.7146	-2.1667	-2.0021	-1.9021	-2.175	-1.7917	-2.1125	-2.3396	155.341	189.144	378.347	360.571	331.299	106.463	339.637	398.969	214.610	182.048	259.074	352.052	177.978	136.020	415.887	252.450	0.00014226	0.00017587	6.875e-05	359.12	2.8682e-06	1.7658e-06	341.24	150.29	2.5227e-06	2.0662e-06	146.99	51.593	53.676	19.547	3.4733e-06	18.955	0.00021865	0.00028858	7.869e-05	349.13	2.6946e-06	3.3387e-06	331.83	147.62	3.3814e-06	2.9229e-06	144.74	50.958	52.908	19.533	3.206e-06	18.747	195.801	136.789	165.029	71.388	211.388	190.184	69.607	75.012	218.589	195.758	71.698	76.423	79.011	82.267	218.245	78.961	-8191	255	
42764.266	1	1	0	0	0.20585	0.20505	0.21065	0.27963	0.17277	0.16291	0.33506	0.15038	0.014127	0.056305	0.12199	0.19353	0.14747	0.24017	0.25154	0.14332	-1.4937	-2.1229	-2.0667	-1.8354	-2.2271	-2.0729	-2.0583	-2.2208	-1.7896	-2.2208	-2.2854	-1.9542	-2.1542	-1.8667	-1.9	-2.2104	265.955	375.779	257.824	401.264	346.609	174.085	336.422	371.926	337.586	121.491	394.670	303.498	265.293	355.920	191.181	377.497	0.00013546	0.00016193	5.4766e-05	355.94	1.6974e-06	1.5173e-06	338.43	149.65	1.9099e-06	2.105e-06	146.75	50.846	52.629	19.426	1.87e-06	18.854	0.00022495	0.00027664	8.0295e-05	347.25	2.8986e-06	3.1392e-06	329.62	146.53	3.1729e-06	2.9024e-06	143.54	50.347	52.191	19.303	3.1687e-06	18.564	200.674	166.433	109.354	71.447	208.778	179.660	69.307	74.625	211.724	192.539	71.839	75.581	79.094	82.436	194.476	79.177	-8191	255	
42764.363	1	1	0	0	0.31188	0.26615	0.12611	0.24155	0.045883	0.17763	0.28156	0.21241	0.10314	0.11168	0.24837	0.17482	0.12986	0.13059	0.068384	0.1531	-1.4729	-2.1625	-2.1688	-1.8104	-2.1646	-2.0479	-1.875	-2.3812	-1.8062	-2.1958	-2.2479	-1.7771	-2.1937	-2.2917	-1.7792	-2.3063	60.566	258.838	237.102	387.504	369.663	314.403	321.865	392.744	194.885	160.511	81.972	108.527	282.498	333.723	259.085	61.776	0.00014467	0.00031556	3.7933e-05	352.88	1.6464e-06	2.9133e-06	336.51	148.77	1.7592e-06	1.2309e-06	146.8	50.613	52.995	19.532	2.0673e-06	18.728	0.00022708	0.00026527	8.3585e-05	344.81	2.7075e-06	2.9375e-06	328.31	145.65	3.2209e-06	3.1562e-06	143.21	50.036	52.146	19.326	3.3399e-06	18.498	200.265	129.788	188.287	71.092	227.390	213.002	69.520	74.763	222.499	202.267	71.939	76.274	78.757	82.580	193.522	78.886	-8191	255	
42764.457	1	1	0	0	0.11499	0.061118	0.2497	0.10786	0.27714	0.16103	0.1968	0.39261	0.091548	0.27389	0.22374	0.12023	0.21314	0.09491	0.1426	0.13186	-1.3625	-2.0208	-2.1708	-1.5917	-2.1854	-2.0604	-2.1167	-2.2146	-1.9312	-2.0771	-2.3021	-2.0687	-2.1771	-2.0208	-1.6917	-2.2854	253.096	190.862	262.234	80.224	368.009	375.151	197.795	316.529	233.372	319.930	212.096	284.176	287.188	163.612	326.868	282.773	0.00016427	0.00014909	4.6547e-05	350.27	1.7678e-06	2.9704e-06	337.11	147	1.5164e-06	1.7738e-06	146.38	50.765	52.53	19.485	2.5842e-06	18.903	0.00023237	0.00026298	8.2702e-05	343.75	2.7023e-06	3.2147e-06	328.76	144.59	3.1257e-06	3.356e-06	142.69	50.112	51.844	19.312	3.4881e-06	18.544	199.902	134.305	154.369	71.250	225.812	175.439	69.519	75.022	231.632	180.863	72.038	76.062	78.995	82.483	213.109	78.738	-8191	255	
42764.555	1	1	0	0	0.11404	0.20028	0.25237	0.10451	0.2712	0.16161	0.18653	0.071605	0.13335	0.25149	0.16275	0.31114	0.2147	0.1423	0.22751	0.30286	-1.4667	-1.9458	-2.2229	-1.9542	-2.1646	-2.1333	-1.9083	-2.1542	-2.0812	-1.9792	-2.3583	-1.9062	-2.0792	-2.2229	-1.8062	-2.2417	87.962	222.669	251.815	254.443	363.258	204.282	202.645	197.814	224.819	398.262	128.555	327.804	359.092	331.155	80.129	111.700	0.00013009	0.00022347	6.984e-05	351.62	2.1616e-06	1.5749e-06	335.92	147.7	1.389e-06	2.2348e-06	146.3	50.648	51.907	19.495	2.0106e-06	18.752	0.00022503	0.00029507	8.0215e-05	342.82	2.7824e-06	3.095e-06	326.73	144.45	3.1429e-06	3.2944e-06	142.43	49.877	51.635	19.23	3.3801e-06	18.406	191.716	178.828	140.951	71.030	233.075	206.824	69.244	74.967	227.236	219.717	71.685	76.385	78.779	82.446	200.591	79.626	-8191	255	
42764.652	1	1	0	0	0.28259	0.095313	0.1236	0.090646	0.039584	0.19386	0.089868	0.088676	0.20392	0.24197	0.10353	0.24338	0.10353	0.38801	0.18749	0.31671	-1.5896	-1.8479	-2.3167	-2.0792	-2.1625	-2.0104	-1.9104	-2.2167	-2.1354	-2.025	-2.3083	-1.9083	-2.0479	-2.0042	-1.8458	-2.2667	371.060	83.627	228.551	222.022	177.866	299.426	386.832	336.393	363.563	106.382	285.541	265.681	123.348	101.893	89.858	346.630	0.00013814	0.00016572	6.4484e-05	350.52	2.2328e-06	2.5482e-06	335.9	147.27	1.879e-06	3.4169e-06	144.59	50.369	52.035	19.129	1.1318e-06	18.387	0.00021652	0.00029966	8.1231e-05	342.65	2.6928e-06	3.2373e-06	326.7	143.94	3.0006e-06	3.3247e-06	140.73	49.19	51.259	19.025	3.4231e-06	18.117	195.768	159.921	147.920	71.682	204.837	198.285	69.237	74.734	230.341	187.884	71.347	75.824	79.045	82.228	225.624	79.053	-8191	255	
42764.746	1	1	0	0	0.24979	0.28052	0.0091097	0.04995	0.29271	0.11979	0.16004	0.085817	0.073633	0.32183	0.14888	0.13416	0.26681	0.26105	0.17981	0.17687	-1.5396	-1.7917	-2.2062	-1.7354	-1.9167	-2.0854	-1.9896	-2.2229	-1.9896	-1.8917	-2.1312	-1.8687	-1.9125	-2.3271	-1.9208	-2.0979	129.566	382.656	406.260	222.863	66.415	286.119	371.018	362.752	116.937	397.705	95.889	407.024	264.757	251.519	397.183	89.829	0.00012725	0.00014969	6.1343e-05	350.2	1.8926e-06	2.2875e-06	332.81	145.38	1.8238e-06	1.8117e-06	142.8	49.425	51.154	19.269	2.0774e-06	18.446	0.00021516	0.00032679	8.3103e-05	341.02	2.921e-06	3.2654e-06	324.51	142.62	3.0958e-06	3.544e-06	140.08	48.791	50.632	18.95	3.4068e-06	18.033	194.892	159.844	141.780	71.311	223.395	217.315	69.171	75.283	220.416	185.598	71.983	75.999	78.757	82.416	190.740	79.147	-8191	255	
42764.867	1	1	0	0	0.26303	0.1858	0.14421	0.19293	0.1212	0.15441	0.03527	0.22037	0.1191	0.10353	0.1233	0.096717	0.22523	0.14761	0.10831	0.14734	-1.7188	-1.8396	-2.1875	-2.0458	-1.9521	-2.3833	-1.7792	-2.1083	-2.2021	-1.7375	-2.4292	-2.0396	-1.9542	-2.2667	-1.8646	-1.9979	338.644	357.706	319.055	157.478	292.903	275.021	124.545	384.686	338.628	261.551	66.189	104.239	248.435	370.221	112.871	146.584	0.00013103	0.00027011	6.7963e-05	348.94	1.5969e-06	2.3817e-06	333.69	143.74	1.7708e-06	6.9783e-07	142.58	49.173	51.121	18.967	9.3236e-07	18.422	0.00021869	0.00031733	8.1071e-05	340.18	3.1491e-06	3.1899e-06	323.81	141.72	3.307e-06	3.4673e-06	139.23	48.539	50.607	18.803	3.3103e-06	18.014	188.135	125.258	150.083	71.133	216.262	221.259	69.337	74.590	201.380	200.454	72.050	76.257	78.684	82.194	180.989	78.829	-8191	255	
42764.965	1	1	0	0	0.1582	0.073695	0.35825	0.24104	0.20327	0.055739	0.20379	0.05365	0.32117	0.32938	0.2019	0.36354	0.17073	0.16969	0.27876	0.2548	-1.75	-1.7521	-2.2354	-2.15	-1.95	-2.3833	-1.9396	-2.2146	-2.3354	-1.8062	-2.2771	-2.1042	-1.8333	-2.3312	-1.9833	-2.0187	190.981	277.651	181.985	390.426	162.869	235.673	399.630	190.123	78.996	82.716	134.665	410.390	63.341	295.672	175.550	320.162	0.00014485	0.00011403	6.4412e-05	347.09	2.0437e-06	2.7921e-06	331.48	144.53	1.5012e-06	2.8153e-06	142.05	49.9	51.121	18.958	9.5531e-07	18.417	0.00022774	0.0003159	7.5293e-05	339.84	2.9778e-06	3.1974e-06	323.93	141.83	3.1484e-06	3.2912e-06	139.45	48.977	50.584	18.812	3.0225e-06	18.084	194.375	132.910	140.399	71.655	227.173	200.558	69.296	75.026	212.971	208.670	71.615	75.760	78.862	82.116	200.681	79.481	-8191	255	
42765.035	1	1	0	0	0.078212	0.12212	0.23563	0.11687	0.20401	0.10641	0.04345	0.23225	0.17564	0.12242	0.20487	0.1912	0.049358	0.03512	0.29512	0.38347	-1.725	-1.9167	-2.1708	-2.1333	-1.9125	-2.3625	-2.1188	-2.1021	-2.2542	-1.7542	-2.1771	-2.0146	-1.7625	-2.4229	-1.9771	-2.1125	362.984	413.502	331.162	299.271	206.393	107.926	141.898	398.234	209.651	343.944	102.508	366.782	135.492	349.984	120.551	78.637	0.00012342	0.00030699	7.2979e-05	349.86	1.0311e-06	1.0502e-06	332.28	145.7	1.952e-06	2.7139e-06	142.41	49.468	51.408	18.859	2.3233e-06	18.449	0.0002213	0.00031284	7.6871e-05	341.54	3.2894e-06	3.1241e-06	324.7	142.54	2.9816e-06	3.3625e-06	139.42	48.798	50.889	18.852	3.1353e-06	18.025	188.920	139.929	146.403	70.996	180.133	229.394	69.465	74.559	253.116	215.527	71.950	76.053	79.008	81.987	226.452	79.070	-8191	255	
42765.133	1	1	0	0	0.2387	0.1598	0.19227	0.17844	0.11741	0.066114	0.17537	0.12854	0.29123	0.27196	0.09642	0.071638	0.046996	0.21936	0.086955	0.17472	-1.7979	-1.8896	-2.1625	-2.1604	-1.9125	-2.4	-1.9458	-1.7646	-2.3063	-1.9479	-2.2208	-2.0771	-1.9292	-2.1479	-2.0521	-2.0125	146.551	226.617	396.668	368.625	203.960	305.003	132.329	233.614	130.650	378.099	90.409	255.228	329.450	409.331	320.713	409.814	0.00013046	0.00030062	4.3065e-05	350.18	2.0968e-06	1.993e-06	331.17	144.23	2.2603e-06	3.2622e-06	142.35	49.038	50.914	18.836	2.68e-06	18.053	0.00021784	0.00028925	7.9492e-05	340.74	3.0828e-06	2.93e-06	323.51	141.73	2.958e-06	3.4241e-06	138.81	48.545	50.504	18.713	3.1649e-06	17.88	198.104	122.498	169.240	70.811	229.249	201.594	68.923	74.737	210.893	198.778	72.021	76.001	78.784	82.511	206.186	79.157	-8191	255	
42765.250	1	1	0	0	0.17644	0.26913	0.18571	0.21515	0.098656	0.25928	0.17417	0.2264	0.035561	0.12402	0.2059	0.087196	0.22498	0.15947	0.2216	0.18638	-1.9438	-1.7	-1.975	-2.0667	-1.9417	-2.3542	-2.0917	-1.8292	-2.2458	-1.9771	-2.1188	-2.2167	-1.6833	-2.1729	-1.9937	-1.9937	270.952	391.880	235.788	79.698	88.807	321.305	348.681	87.573	315.781	385.618	75.037	238.965	179.048	89.347	198.036	58.614	0.00013526	0.00015557	6.3217e-05	347.77	2.4154e-06	1.8239e-06	330.66	144.89	2.1191e-06	1.2681e-06	142.25	49.25	51.304	18.839	1.3771e-06	18.133	0.00021928	0.00029144	8.4922e-05	340.11	3.0277e-06	3.0777e-06	323.14	141.94	2.9834e-06	3.3495e-06	138.94	48.752	50.63	18.764	3.1821e-06	17.956	188.826	158.271	139.596	71.620	222.320	211.734	69.120	74.897	247.293	199.301	71.809	76.036	78.784	81.993	209.025	79.117	-8191	255	
42765.348	1	1	0	0	0.17321	0.17261	0.19543	0.16899	0.13003	0.082633	0.078706	0.074346	0.3002	0.086869	0.20099	0.15729	0.28246	0.1227	0.17509	0.23459	-1.95	-2.0438	-2.1208	-2.1167	-1.9229	-2.1542	-2.1125	-1.8375	-2.3521	-1.9479	-2.0625	-2.1229	-1.7854	-1.9958	-2.2104	-1.7604	203.625	94.549	320.091	123.331	235.005	132.870	99.902	122.811	324.671	313.145	228.502	69.177	374.007	174.689	239.729	287.578	0.00013563	0.00019359	4.2467e-05	348.03	1.172e-06	1.1296e-06	334.18	143.97	1.9999e-06	2.03e-06	142.81	49.682	51.458	19.05	2.2131e-06	18.444	0.0002084	0.00026804	8.2435e-05	340.5	2.9279e-06	3.1068e-06	325.12	141.81	3.0178e-06	3.2242e-06	139.89	49.025	50.817	18.88	3.0865e-06	18.151	197.775	155.831	138.961	70.961	230.222	200.888	69.227	74.794	217.366	201.851	71.968	76.552	78.770	82.300	227.077	79.227	-8191	255	
42765.441	1	1	0	0	0.082065	0.15514	0.11247	0.42707	0.17134	0.073147	0.31086	0.19075	0.25447	0.31094	0.18549	0.15416	0.29043	0.15947	0.20512	0.14107	-1.8708	-2.0146	-1.8771	-2.35	-1.7583	-2.1667	-2.2562	-1.9708	-2.3271	-2.1521	-1.8729	-2.2562	-1.9354	-2.1604	-2.2583	-1.925	191.851	82.976	207.184	118.885	405.771	103.541	365.469	359.525	334.244	347.130	176.781	99.633	389.400	151.773	337.469	403.410	0.00012791	0.00025837	8.5006e-05	351.81	1.6651e-06	2.6138e-06	335.48	146.87	1.567e-06	3.5344e-06	144.6	50.232	51.871	19.163	1.9548e-06	18.788	0.00021108	0.00028753	8.0295e-05	343.19	2.7609e-06	3.2255e-06	328.18	143.49	2.7314e-06	3.2728e-06	141.25	49.532	51.277	19.022	3.0703e-06	18.324	198.381	159.725	177.641	71.319	239.834	212.751	68.995	75.020	229.171	190.996	72.176	76.159	78.955	82.327	213.652	79.363	-8191	255	
42765.539	1	1	0	0	0.17471	0.11475	0.092526	0.1265	0.15498	0.23505	0.23697	0.32978	0.096492	0.15144	0.076157	0.36864	0.18214	0.34217	0.083209	0.072693	-1.7313	-1.9708	-2.0292	-2.2604	-1.9958	-2.2104	-2.2917	-1.8729	-2.25	-2.1	-1.5875	-2.1583	-1.8542	-1.9521	-2.3667	-1.875	224.728	331.677	280.490	369.190	298.462	224.857	276.942	367.215	59.149	122.018	115.818	156.469	114.972	353.615	344.731	253.852	0.00013188	0.00031602	5.2195e-05	351.86	2.5314e-06	1.4322e-06	336.3	146.33	1.5149e-06	1.7479e-06	143.27	49.755	51.429	18.921	1.9282e-06	18.503	0.00021158	0.00029813	8.5083e-05	342.88	2.9993e-06	3.3549e-06	327.8	143.04	2.9526e-06	3.4791e-06	140.57	49.085	50.948	18.807	2.9775e-06	18.136	196.721	152.294	152.667	71.225	220.591	259.796	69.680	74.745	185.976	219.169	72.020	76.564	79.179	82.276	237.627	78.845	-8191	255	
42765.660	1	1	0	0	0.15227	0.081622	0.1321	0.20547	0.13381	0.17849	0.053625	0.14815	0.050602	0.31796	0.049283	0.16026	0.1264	0.24428	0.26765	0.15098	-1.6292	-2.0208	-1.8167	-2.1792	-1.9521	-1.9771	-2.2479	-1.9375	-2.2167	-2.2875	-1.8875	-2.1813	-2.0187	-1.8458	-2.2313	-1.9333	229.376	335.276	386.473	385.546	343.154	177.502	140.891	112.603	330.230	131.435	186.431	397.495	414.526	339.440	331.205	194.364	0.00014368	0.0001278	7.9893e-05	350.68	2.594e-06	2.8304e-06	339.09	144.56	1.4519e-06	9.2649e-07	144.7	49.904	51.432	18.867	1.1683e-06	18.316	0.00021885	0.00027759	8.1231e-05	342.54	3.0157e-06	3.2578e-06	327.57	142.14	3.1212e-06	3.1033e-06	140.88	49.126	50.747	18.768	2.9526e-06	18.11	196.779	84.612	158.168	70.912	232.690	239.405	69.385	74.782	247.852	281.585	71.532	75.894	78.730	82.461	204.326	79.237	-8191	255	
42765.730	1	1	0	0	0.19569	0.19502	0.12278	0.18508	0.047868	0.24431	0.23775	0.15201	0.089936	0.19346	0.097279	0.27134	0.19778	0.32715	0.3105	0.26389	-1.7667	-2.1729	-1.75	-2.3187	-2.0125	-1.9146	-2.35	-1.9583	-1.9854	-2.3208	-1.6437	-2.2625	-2.1292	-1.8875	-2.2875	-1.9542	313.349	85.287	215.019	274.558	345.070	109.805	141.974	291.065	93.976	398.503	382.783	376.728	266.510	292.486	403.857	271.518	0.00015433	2.2802e-05	5.6743e-05	351.5	1.679e-06	1.8536e-06	335.26	147.37	2.9114e-06	2.8715e-06	145	50.412	51.708	18.986	2.416e-06	18.615	0.00022942	0.00028161	8.5163e-05	342.91	2.8822e-06	3.536e-06	328.32	143.86	3.2445e-06	3.3085e-06	141.69	49.597	51.163	18.945	3.0444e-06	18.322	194.738	232.031	146.640	71.285	261.478	207.379	69.143	74.997	231.224	222.587	71.923	76.011	79.084	82.329	207.331	78.563	-8191	255	
42765.828	1	1	0	0	0.28933	0.32786	0.23064	0.15493	0.25683	0.18078	0.074707	0.074382	0.054798	0.10643	0.10758	0.14475	0.099848	0.099694	0.25876	0.10293	-1.6562	-2.0979	-1.7021	-2.1063	-2.1063	-1.925	-2.35	-1.8375	-1.9562	-2.2979	-1.7333	-2.0771	-2.0229	-1.7167	-2.0563	-1.9292	287.167	108.086	180.865	283.118	190.602	88.917	72.099	58.789	282.522	296.738	288.395	318.563	297.225	89.665	94.627	75.040	0.00015684	0.00016373	6.3021e-05	351.67	1.5101e-06	2.4607e-06	339.34	146.7	1.5427e-06	2.4146e-06	146.45	50.457	52.845	19.302	2.5965e-06	18.757	0.00022448	0.00030921	8.3237e-05	345.05	2.9063e-06	3.5382e-06	330.22	144.18	3.1003e-06	3.2804e-06	142.92	49.941	51.857	19.145	2.8934e-06	18.504	190.635	143.814	151.342	71.038	198.424	234.460	69.172	74.855	197.439	200.685	72.233	76.187	79.172	82.241	179.758	79.160	-8191	255	
42765.949	1	1	0	0	0.16834	0.1709	0.16271	0.067389	0.13208	0.22084	0.11543	0.25861	0.25336	0.14666	0.064777	0.28957	0.055803	0.29309	0.18185	0.16567	-1.6313	-2.3	-1.9542	-2.1083	-2.1063	-1.9479	-2.3312	-2.2375	-1.9646	-2.2521	-1.9333	-2.025	-2.2354	-1.6375	-2.2062	-2.1417	131.380	164.784	371.371	95.061	347.302	70.904	147.780	137.368	174.912	296.445	406.468	302.691	151.794	286.902	288.332	350.299	0.00013653	0.0003075	5.0322e-05	353.28	1.524e-06	1.4846e-06	339.27	147.3	6.9875e-07	2.1212e-06	146.14	50.543	52.745	19.162	1.07e-06	18.606	0.00022141	0.00028409	8.1739e-05	346.48	3.0165e-06	3.3085e-06	330.58	144.72	3.1801e-06	2.9747e-06	142.71	49.911	51.765	19.021	2.8704e-06	18.324	193.227	123.517	134.370	71.156	240.435	185.139	69.522	74.562	242.499	202.980	71.356	75.644	78.697	82.157	226.655	79.227	-8191	255	
42766.043	1	1	0	0	0.070218	0.24035	0.3402	0.13521	0.13064	0.079118	0.2167	0.30542	0.094926	0.1574	0.26392	0.19166	0.13433	0.11973	0.068546	0.22114	-1.3208	-2.1146	-1.8208	-1.9937	-2.325	-1.8854	-2.2125	-2.0687	-1.975	-2.5583	-1.9167	-1.9667	-2.0521	-1.9083	-2.1542	-2.1104	301.917	204.488	287.454	113.218	87.057	109.851	341.449	252.919	332.267	198.528	406.762	150.294	405.061	126.514	264.516	379.754	0.00014117	0.00032724	2.9051e-05	351.89	1.4077e-06	2.3968e-06	335.32	147.32	1.5676e-06	2.0603e-06	145.24	50.183	52.313	19.025	2.7966e-06	18.379	0.00023155	0.00027597	8.0322e-05	344.95	2.7609e-06	3.453e-06	329.64	144.41	3.1257e-06	2.9056e-06	142.11	49.535	51.506	18.916	3.0349e-06	18.189	198.759	155.853	155.365	71.176	176.814	213.837	68.953	74.888	235.995	212.356	71.572	75.916	79.100	82.450	215.269	78.988	-8191	255	
42766.141	1	1	0	0	0.13269	0.36194	0.15672	0.2309	0.0068918	0.047753	0.18878	0.11931	0.11886	0.13104	0.18557	0.17191	0.011318	0.098905	0.10083	0.1117	-1.3417	-2.125	-1.7646	-1.9917	-2.2896	-1.8	-2.2792	-2.1542	-1.8583	-2.3563	-1.8625	-2.0875	-2.3375	-1.8292	-2.3042	-2.125	264.750	378.900	250.487	236.686	147.298	127.888	402.315	288.047	155.915	294.337	298.975	294.481	390.142	118.977	99.590	264.312	0.00014277	0.00019653	6.359e-05	354.1	2.1044e-06	1.6348e-06	338.94	147.21	1.9149e-06	1.9434e-06	145.47	50.55	51.963	19.001	1.7065e-06	18.616	0.00023124	0.00027664	7.984e-05	345.5	2.7927e-06	3.1284e-06	330.34	144.38	3.0523e-06	3.005e-06	142.31	49.732	51.494	18.907	3.2577e-06	18.363	196.463	152.403	151.203	70.991	216.305	203.436	69.845	74.703	243.485	202.129	71.815	76.226	78.972	82.210	240.117	78.912	-8191	255	
42766.258	1	1	0	0	0.37245	0.40488	0.19604	0.17923	0.24414	0.035633	0.21784	0.24925	0.11616	0.13232	0.22532	0.20894	0.15766	0.32511	0.13369	0.036651	-1.4083	-2.3021	-2.0375	-1.8979	-2.1813	-1.9375	-2.3771	-2.1958	-1.7833	-2.2479	-2.075	-1.9396	-2.5	-2.1	-2.1771	-2.3125	90.276	196.933	414.574	138.852	392.346	64.562	319.779	113.251	167.880	84.432	410.561	383.032	387.515	360.375	216.633	93.253	0.00013004	0.00025296	5.746e-05	355.64	2.6557e-06	2.0054e-06	338.33	148.03	1.1424e-06	1.4784e-06	145.73	50.855	52.641	19.334	2.1101e-06	18.813	0.00022067	0.00026451	7.8958e-05	346.03	2.6558e-06	3.4498e-06	331.07	145.26	3.094e-06	3.1843e-06	143.14	50.135	51.956	19.153	3.272e-06	18.551	200.826	126.142	134.974	70.995	229.255	210.657	69.345	74.227	217.315	200.595	71.547	75.586	78.571	82.558	234.362	79.035	-8191	255	
42766.332	1	1	0	0	0.12852	0.33057	0.12734	0.25738	0.1776	0.17512	0.10761	0.066129	0.093295	0.057606	0.062154	0.1242	0.10959	0.12886	0.14717	0.16365	-1.2729	-2.3417	-2.1437	-1.9417	-2.3312	-1.9792	-2.0979	-2.2021	-1.8542	-2.1083	-2.1479	-1.6833	-2.2667	-2.0104	-2.0625	-2.1688	316.211	239.021	249.900	355.523	189.620	398.160	229.331	380.330	78.519	147.127	334.253	284.873	415.511	317.797	271.724	399.463	0.00014701	0.00027877	2.1353e-05	355.84	2.2668e-06	2.0942e-06	340.93	148.7	7.9687e-07	2.2746e-06	148.36	50.732	53.108	19.351	2.2645e-06	18.742	0.00023373	0.00028122	8.8132e-05	348.25	2.6352e-06	3.0648e-06	333.4	146.25	3.1783e-06	3.1259e-06	144.11	50.21	52.302	19.186	3.2844e-06	18.484	191.409	150.409	204.886	71.100	205.420	228.418	69.252	74.952	235.232	182.207	71.790	75.769	78.745	82.461	197.947	79.084	-8191	255	
42766.426	1	1	0	0	0.18038	0.1521	0.28124	0.15105	0.15824	0.10591	0.050544	0.19483	0.073752	0.13777	0.29462	0.16849	0.18329	0.2335	0.47241	0.21096	-1.4458	-1.9708	-2.1104	-1.6979	-2.1896	-2.0146	-1.8417	-2.1688	-1.65	-1.9667	-2.2687	-1.9083	-2.25	-1.825	-1.8708	-2.2854	211.012	220.749	257.030	127.879	123.756	159.901	89.510	348.499	268.885	300.522	281.353	352.077	408.242	196.041	137.811	243.389	0.00014028	0.00017881	8.6987e-05	355.35	1.6743e-06	2.3037e-06	338.89	148.35	1.6992e-06	1.1615e-06	146	50.621	52.464	19.171	2.571e-06	18.526	0.00021753	0.0002774	8.4173e-05	347.51	2.7858e-06	3.219e-06	330.94	145.36	2.9344e-06	3.14e-06	142.63	49.864	51.743	19.004	3.3131e-06	18.254	190.263	152.540	121.628	71.084	225.144	204.481	69.020	75.227	216.069	219.707	71.629	76.214	79.065	82.249	212.351	79.633	-8191	255	
42766.547	1	1	0	0	0.15421	0.25951	0.29637	0.074648	0.073829	0.097147	0.054812	0.20792	0.08064	0.055121	0.022776	0.15781	0.34256	0.21779	0.11812	0.11301	-1.3021	-2.0917	-2.2854	-1.9312	-2.2104	-2.2604	-2.0146	-2.4146	-2.0833	-2.1792	-2.2	-1.8021	-2.2229	-2.0167	-1.9604	-2.3812	240.226	319.302	137.597	108.721	230.487	414.001	187.544	362.197	295.387	104.498	234.873	327.908	403.901	360.265	391.609	325.086	0.00015263	0.00023612	4.0125e-05	354.6	2.2634e-06	2.0772e-06	337.38	147.86	1.7537e-06	1.6173e-06	145.58	50.492	52.232	19.248	2.7449e-06	18.654	0.00023567	0.00030568	7.3956e-05	346.61	2.6877e-06	3.3905e-06	329.69	144.91	3.074e-06	3.2556e-06	142.84	49.854	51.712	18.974	3.1142e-06	18.328	193.528	141.033	127.524	70.996	184.153	246.481	69.145	75.046	223.041	219.884	71.635	75.964	78.949	82.087	240.743	79.247	-8191	255	
42766.645	1	1	0	0	0.020876	0.25331	0.084936	0.19448	0.068466	0.028185	0.16901	0.13834	0.24636	0.27547	0.081043	0.1272	0.18323	0.090549	0.19894	0.11134	-1.4146	-1.9813	-2.1	-1.8729	-2.0938	-2.2396	-1.9521	-2.2396	-1.8729	-2.0417	-2.4521	-1.9125	-2.2	-2.1125	-1.8917	-2.4354	245.660	342.496	247.216	60.477	302.648	371.131	402.659	319.758	412.195	341.152	88.128	364.836	304.794	350.591	58.399	225.274	0.00014306	0.00018036	4.168e-05	353.79	2.1923e-06	1.2682e-06	343.16	147.91	1.2742e-06	1.3767e-06	146.87	50.551	52.26	19.153	2.1997e-06	18.57	0.00023159	0.00029441	7.5828e-05	346.39	2.8659e-06	3.3063e-06	331.77	144.89	3.2245e-06	3.4673e-06	143.45	49.987	51.624	18.974	3.119e-06	18.39	192.689	182.566	140.146	71.316	202.636	256.913	69.284	75.026	246.662	205.376	72.290	76.072	78.935	82.374	212.599	78.937	-8191	255	
42766.738	1	1	0	0	0.27819	0.11495	0.21536	0.24821	0.22159	0.15474	0.17462	0.18155	0.045178	0.22073	0.088768	0.2458	0.04466	0.11068	0.089821	0.25675	-1.5187	-1.9396	-2.1604	-1.8167	-2.0854	-2.1688	-1.8375	-2.1458	-1.9583	-1.8583	-2.3792	-1.7833	-2.1083	-2.2	-1.9917	-2.3708	181.182	309.352	377.889	332.143	69.735	147.809	237.133	179.046	272.553	290.066	150.646	257.483	281.173	301.167	165.899	174.814	0.00013038	0.00023331	6.5363e-05	355.55	1.5744e-06	9.1633e-07	338.88	148.06	1.5794e-06	1.3349e-06	146.89	51.027	52.637	19.313	1.9283e-06	18.742	0.000215	0.00029746	7.8984e-05	346.98	2.9227e-06	3.2427e-06	331.23	145.11	3.1792e-06	3.2426e-06	143.93	50.332	52.091	19.081	3.2232e-06	18.463	199.278	140.237	154.587	71.218	218.570	141.461	69.495	74.958	231.806	180.277	71.887	75.610	78.954	82.073	234.805	79.254	-8191	255	
42766.836	1	1	0	0	0.18556	0.15787	0.13986	0.2298	0.3358	0.087049	0.038255	0.16185	0.13747	0.10422	0.23463	0.11543	0.24806	0.072927	0.16487	0.15765	-1.6896	-1.8687	-2.2375	-1.9146	-2.125	-2.175	-1.9	-2.2438	-2.0208	-1.8125	-2.2979	-1.7938	-2.1583	-2.2313	-1.9542	-2.2146	179.820	172.833	394.914	206.902	78.280	96.824	270.783	414.798	164.059	314.228	389.038	392.668	201.072	320.220	141.296	312.902	0.00014556	0.0002252	6.041e-05	357.06	1.2045e-06	1.8786e-06	338.84	148.01	1.339e-06	1.1494e-06	145.23	50.221	52.204	18.983	1.2569e-06	18.494	0.00022887	0.00031208	7.2806e-05	347.89	2.9003e-06	2.9602e-06	330.49	145.38	3.142e-06	3.1691e-06	142.75	49.742	51.75	18.853	3.1334e-06	18.254	198.551	129.525	162.104	71.084	230.270	215.691	69.032	75.178	231.320	232.789	71.699	76.154	78.747	82.167	207.441	78.989	-8191	255	
42766.906	1	1	0	0	0.13815	0.26586	0.18814	0.12764	0.24916	0.11871	0.23495	0.13994	0.010962	0.1626	0.20935	0.20385	0.080387	0.2261	0.1818	0.23117	-1.7563	-1.8833	-2.0938	-1.6792	-2.0479	-2.3104	-1.8625	-2.0229	-2.1979	-1.9146	-2.15	-1.8729	-1.9438	-2.3792	-1.8208	-2.1521	315.491	330.273	152.229	71.021	178.963	284.489	276.711	208.820	185.549	378.682	356.373	123.235	277.761	344.136	261.543	351.777	0.00015182	0.00022816	5.7458e-05	353.44	1.2692e-06	2.3361e-06	337.15	147.79	2.1477e-06	2.5143e-06	145.05	50.131	52.262	18.831	1.7686e-06	18.382	0.00022918	0.00028237	7.8503e-05	345.24	2.9718e-06	2.9774e-06	329.45	144.61	3.0351e-06	3.1681e-06	142.27	49.601	51.414	18.728	3.2988e-06	18.174	195.655	155.661	168.855	71.396	232.929	229.945	69.381	75.137	233.828	184.542	71.973	75.792	78.756	82.399	177.294	79.044	-8191	255	
42767.027	1	1	0	0	0.10715	0.2214	0.41449	0.081385	0.12004	0.06265	0.20618	0.15693	0.10812	0.16816	0.31795	0.36548	0.32838	0.13313	0.037224	0.074606	-1.7708	-1.8167	-2.1771	-1.8563	-1.9292	-2.1542	-1.9083	-2.1125	-2.1125	-1.9062	-2.2313	-2.2687	-1.8438	-2.1937	-1.9125	-2.0625	155.875	392.167	153.772	281.475	64.214	132.952	400.901	339.166	130.427	374.556	76.538	411.447	292.671	269.054	409.219	61.800	0.00013378	0.00016539	3.4036e-05	354.56	2.0442e-06	2.7404e-06	339.4	147.26	1.5538e-06	8.4248e-07	145.41	50.548	52.272	18.916	2.4028e-06	18.639	0.00022083	0.00030186	7.9011e-05	345.76	2.8667e-06	2.9462e-06	330.77	144.5	2.8837e-06	3.1529e-06	142.38	49.779	51.485	18.802	3.295e-06	18.335	197.636	151.025	178.108	71.224	227.687	182.624	69.178	74.743	209.209	223.392	71.900	76.152	78.891	82.282	226.298	79.119	-8191	255	
42767.125	1	1	0	0	0.16623	0.016694	0.17492	0.17879	0.39294	0.059268	0.028809	0.19056	0.29538	0.1614	0.056683	0.17602	0.10071	0.18215	0.2095	0.086954	-1.6562	-1.6625	-2.1354	-2.0812	-1.8083	-2.0563	-1.9417	-1.9479	-2.2292	-1.7729	-2.3	-2.1771	-1.7896	-2.2542	-2.1083	-1.9583	241.212	153.445	59.913	360.832	339.024	368.326	266.783	368.027	292.555	211.075	72.867	294.952	140.199	317.868	406.258	282.313	0.00012299	0.00023223	7.9597e-05	354.32	1.1697e-06	1.7965e-06	340.34	147.69	1.5117e-06	1.407e-06	146.19	50.709	52.083	19.079	2.3037e-06	18.573	0.00020956	0.00031141	8.0589e-05	346.57	3.1569e-06	3.1662e-06	331.03	144.89	2.851e-06	3.4273e-06	142.91	49.96	51.532	18.881	3.337e-06	18.393	201.467	142.240	151.671	71.368	201.694	192.659	69.256	75.129	216.340	214.488	72.148	75.680	78.756	82.612	243.453	79.087	-8191	255	
42767.223	1	1	0	0	0.16915	0.28682	0.18012	0.025231	0.26399	0.091854	0.097424	0.063704	0.13878	0.23388	0.17283	0.14691	0.039111	0.10561	0.039675	0.19602	-1.9438	-1.9333	-2.1333	-2.1292	-1.8479	-2.1854	-1.8229	-1.9854	-2.3229	-1.8646	-2.1667	-2.0875	-1.7437	-2.2833	-2.2146	-1.9917	119.782	75.431	146.410	340.957	320.184	238.320	291.041	94.216	151.271	151.368	234.571	173.043	63.519	177.924	319.936	373.059	0.00013529	0.00025174	6.0964e-05	356.93	1.5394e-06	2.1505e-06	338.68	147.78	1.6964e-06	2.4837e-06	146.6	49.857	51.87	18.71	2.0012e-06	18.476	0.00021018	0.00031523	8.2114e-05	347.63	2.896e-06	3.0109e-06	330.8	145.01	2.9589e-06	3.3722e-06	142.78	49.377	51.383	18.714	3.3208e-06	18.128	194.009	151.158	125.425	70.879	197.092	177.788	69.355	75.041	230.522	188.809	72.060	76.133	78.956	82.354	208.955	79.428	-8191	255	
42767.340	1	1	0	0	0.19757	0.067242	0.21729	0.3032	0.16719	0.12377	0.26337	0.10899	0.18175	0.32148	0.13059	0.12344	0.08639	0.38382	0.20428	0.23477	-1.9562	-1.9312	-1.9917	-2.0187	-1.9521	-2.225	-2.0292	-1.8333	-2.3021	-1.9667	-2	-2.1208	-1.8	-2.1292	-2.1667	-1.8104	401.756	59.281	178.344	307.571	70.697	249.617	369.529	357.232	362.795	92.244	88.934	369.142	297.790	329.258	234.081	195.985	0.00013645	0.0002444	6.7751e-05	353.5	2.0248e-06	2.5403e-06	337.17	145.97	2.3477e-06	2.7804e-06	143.77	49.786	51.676	18.566	2.5436e-06	18.379	0.00020983	0.00029842	8.1606e-05	344.89	2.9425e-06	3.2416e-06	328.87	143.94	2.8411e-06	3.3376e-06	141.6	49.172	50.885	18.509	3.2892e-06	18.025	194.904	116.791	170.726	71.404	227.233	205.004	69.183	74.977	217.756	225.193	72.053	75.608	78.585	81.920	215.648	79.114	-8191	255	
42767.438	1	1	0	0	0.061962	0.095535	0.34831	0.17515	0.13569	0.076144	0.22651	0.15534	0.31036	0.18104	0.11895	0.079866	0.026777	0.30345	0.036659	0.34438	-1.9813	-2.025	-1.8438	-2.3604	-1.6917	-2.2208	-2.0792	-1.7458	-2.0187	-2.1792	-2.2125	-2.3917	-1.8813	-1.9937	-2.2292	-1.8937	189.361	137.500	173.562	346.597	279.280	59.235	321.850	369.099	271.932	119.036	157.200	246.723	196.429	100.634	372.709	149.348	0.0001396	0.00026152	3.0065e-05	353.78	1.9836e-06	1.0498e-06	338.07	146.54	2.1674e-06	1.877e-06	143.99	49.723	51.709	18.832	2.1394e-06	18.362	0.00021586	0.00032832	8.5484e-05	344.7	2.8349e-06	3.0357e-06	328.91	143.76	3.1366e-06	3.4208e-06	141.38	49.231	50.974	18.545	3.2586e-06	18.047	195.044	157.716	192.766	71.181	221.829	210.884	69.315	75.178	240.687	207.182	71.925	75.928	79.012	82.521	217.610	79.225	-8191	255	
42767.531	1	1	0	0	0.12977	0.42506	0.044399	0.041725	0.20445	0.16722	0.19081	0.34517	0.12089	0.2693	0.1504	0.32316	0.092148	0.10855	0.35708	0.15445	-1.7521	-1.9833	-1.9396	-2.3146	-1.9417	-2.2479	-2.1625	-1.8687	-2.1958	-2	-1.9042	-2.3021	-1.6542	-2.0438	-2.3167	-1.8958	340.169	138.339	203.263	69.702	340.668	298.040	387.505	188.671	220.228	415.181	253.459	412.790	374.762	160.484	260.292	322.367	0.00012386	0.00024968	5.2871e-05	353.04	2.0884e-06	2.7877e-06	337.86	147.56	1.958e-06	1.7659e-06	144.99	50.423	51.765	18.852	2.8197e-06	18.374	0.00021135	0.0003265	8.2782e-05	344.53	3.1388e-06	3.1694e-06	330.09	144.31	3.0378e-06	3.3517e-06	142.72	49.601	51.209	18.658	3.0502e-06	18.187	197.735	159.385	135.522	70.957	241.954	225.815	69.578	74.901	237.099	193.618	71.684	76.498	78.322	82.496	209.653	79.408	-8191	255	
42767.629	1	1	0	0	0.2168	0.1555	0.19886	0.20833	0.19339	0.23487	0.29398	0.074725	0.24203	0.39912	0.28308	0.038887	0.10665	0.21175	0.099174	0.24099	-1.8917	-1.8458	-1.7896	-2.3229	-1.9917	-2.0417	-2.2667	-1.7458	-2.3104	-2.0833	-1.9354	-2.2896	-1.9083	-2.1104	-2.3646	-1.8937	302.718	288.642	67.349	234.885	86.839	163.037	243.836	268.941	308.330	334.057	400.357	199.060	78.912	409.503	82.853	205.427	0.00012156	0.00023039	7.8309e-05	353.66	2.1953e-06	1.2332e-06	340.94	147.26	2.3028e-06	1.815e-06	147.33	50.785	52.054	18.825	1.9183e-06	18.428	0.0002176	0.00029765	8.5912e-05	345.22	2.9744e-06	3.2643e-06	332.29	144.64	3.0641e-06	3.0341e-06	143.21	49.728	51.397	18.675	2.7366e-06	18.158	200.677	148.177	162.206	71.327	206.504	214.056	68.848	74.822	208.944	185.737	71.822	75.860	79.232	82.590	209.699	79.232	-8191	255	
42767.723	1	1	0	0	0.064677	0.17985	0.097351	0.33033	0.20135	0.15504	0.038234	0.30705	0.15376	0.02523	0.18673	0.10723	0.2869	0.02753	0.16604	0.30659	-1.9	-2.0125	-1.8062	-2.2792	-1.8958	-1.9125	-2.1146	-1.8937	-2.2292	-2.2292	-1.9771	-2.3604	-1.9521	-2.0479	-2.1562	-2.0292	274.939	249.054	223.886	75.826	205.225	259.552	122.575	393.511	387.627	74.414	129.494	134.370	59.687	100.746	98.952	168.102	0.00014599	0.00016904	6.8903e-05	352.18	1.0286e-06	1.5486e-06	341.43	147.18	1.7746e-06	1.5758e-06	145.67	49.643	51.632	18.674	3.1357e-06	18.225	0.00022977	0.00029765	8.5805e-05	345.55	2.8745e-06	3.246e-06	331.41	144.5	3.1973e-06	3.0493e-06	141.9	49.083	50.936	18.456	3.0435e-06	17.902	197.360	112.262	163.678	71.233	222.443	196.560	69.160	74.883	232.138	201.372	71.946	75.772	78.940	82.684	228.855	78.778	-8191	255	
42767.820	1	1	0	0	0.11583	0.09833	0.35242	0.30536	0.087161	0.02894	0.3305	0.14552	0.24566	0.39199	0.16004	0.14286	0.31811	0.12045	0.096926	0.35418	-1.7292	-2.1229	-1.6313	-2.2938	-2.0812	-2.0208	-2.2854	-1.95	-1.8646	-2.2792	-1.8583	-2.3146	-1.95	-2.1479	-2.4313	-1.9021	405.990	404.438	201.558	339.820	416.679	103.002	100.157	294.437	363.387	177.231	197.092	64.034	64.014	104.884	381.112	286.963	0.00012092	0.00020058	4.0943e-05	354.62	2.888e-06	1.6726e-06	337.51	146.45	1.5778e-06	2.9786e-06	145.8	49.94	51.633	18.695	1.4252e-06	18.19	0.00021131	0.00028294	8.4334e-05	346.28	2.964e-06	3.3376e-06	330.38	143.88	3.2816e-06	2.8645e-06	142.01	49.187	50.877	18.502	3.0693e-06	17.964	197.154	144.132	146.401	71.046	226.165	213.778	69.385	74.892	226.625	192.717	71.688	76.506	79.082	82.267	224.027	79.034	-8191	255	
42767.941	1	1	0	0	0.13265	0.24444	0.2103	0.10124	0.20021	0.18514	0.22515	0.29231	0.11516	0.068923	0.262	0.16327	0.073098	0.27045	0.12798	0.15775	-1.625	-2.2188	-1.8479	-2.2583	-2.0812	-1.9667	-2.2521	-1.7646	-2.0438	-2.3458	-1.7708	-2.1229	-2.0187	-1.8062	-2.3271	-2.0375	311.822	112.128	64.089	344.889	386.642	92.306	404.112	356.276	88.000	88.429	359.280	238.559	387.296	108.837	413.855	95.481	0.00013202	0.00022548	6.4624e-05	355.5	1.9084e-06	1.9434e-06	341.75	147.21	2.3828e-06	1.8817e-06	145.74	49.993	51.774	18.703	1.6109e-06	18.285	0.00021613	0.00026938	8.4735e-05	346.38	2.7497e-06	3.1489e-06	332.23	144.6	3.0233e-06	2.7976e-06	142.41	49.424	51.165	18.557	3.142e-06	18.071	199.794	153.409	149.259	71.562	244.458	205.747	69.376	74.783	214.548	223.972	71.970	76.183	78.881	82.738	248.332	79.031	-8191	255	
42768.035	1	1	0	0	0.14627	0.022906	0.056911	0.091271	0.17701	0.17241	0.020782	0.24891	0.15234	0.16259	0.10386	0.34217	0.28905	0.086959	0.11621	0.074332	-1.3604	-2.2812	-1.6104	-2.2687	-2.0417	-1.9542	-2.3438	-1.9604	-1.8417	-2.1979	-1.9646	-2.2104	-2.2417	-1.8104	-2.3354	-2.0625	385.974	138.716	206.090	368.109	195.065	405.787	356.394	371.516	63.071	66.419	204.498	386.683	379.593	71.336	182.129	64.332	0.00013976	0.00013395	5.5699e-05	356.39	3.0885e-06	1.9395e-06	340.88	147.98	1.5959e-06	1.6702e-06	146.4	50.592	52.506	18.99	2.332e-06	18.762	0.0002206	0.00027396	9.2839e-05	347.83	3.0053e-06	3.3861e-06	333.22	145.2	3.0813e-06	2.8116e-06	143.46	49.957	51.519	18.783	2.9966e-06	18.321	196.409	121.428	163.711	71.009	221.710	183.392	69.206	74.900	213.968	211.366	72.050	76.254	78.630	82.196	206.435	78.951	-8191	255	
42768.133	1	1	0	0	0.076321	0.3066	0.11388	0.2372	0.2307	0.19147	0.19879	0.21645	0.067496	0.35528	0.111	0.18527	0.46742	0.21073	0.16333	0.11134	-1.6771	-2.1208	-1.8583	-2.0646	-2.1875	-1.9375	-2.3625	-2.1729	-1.6875	-2.2938	-1.9896	-2.1146	-2.2896	-1.8854	-2.0542	-2.2792	187.520	250.584	119.407	363.146	301.424	107.752	251.136	59.876	183.056	362.592	390.747	335.838	104.061	379.404	416.545	178.401	0.00013932	0.0001303	4.2208e-05	356.43	1.9403e-06	2.5996e-06	341.59	148.23	1.569e-06	9.8534e-07	145.46	50.221	51.575	18.597	2.5971e-06	18.346	0.00022165	0.00026623	9.1636e-05	348.86	2.7032e-06	3.3355e-06	332.14	145.07	3.0876e-06	3.3279e-06	142.82	49.397	51.148	18.52	3.2194e-06	18.002	191.880	169.323	155.956	71.305	255.375	183.163	69.136	74.846	241.737	220.442	71.772	76.276	78.880	82.710	207.718	78.989	-8191	255	
#DATA ENDS
