BOXY.EXE: ISS Imagent and Oximeter Data Acquisition Program Version 0.80
Ascii Record File

#ACQ INFORMATION
2  Detector Channels 
16  External MUX Channels 
1  Auxiliary Channels 
5000  Waveform (CCF) Frequency (Hz)
1  Waveforms Skipped 
30  Waveforms Averaged 
1  Cycles Averaged 
16  Acquisitions per Waveform 
10.0806  Updata Rate (Hz) 

#FILE INFORMATION
TRUE -- External MUX Channel results are PARSED.
FALSE -- AC DC and Phase are NOT grouped.
TRUE -- Companion Program Settings File CREATED.
FALSE -- AC data not excluded
FALSE -- DC data not excluded
FALSE -- Phase data not excluded
FALSE -- Auxillary Chn. data not excluded
Tab delimiters

#CALIBRATION STATE
TRUE -- Waveform Calibration Values APPLIED.


#AUX CALIBRATION VALUES
Val Type	aux-1	

Term	1.0000e+00	
Factor	0.0000e+00	


#WF CALIBRATION VALUES
A = Detector Channel
Val Type	A-AC1	A-AC2	A-AC3	A-AC4	A-AC5	A-AC6	A-AC7	A-AC8	A-AC9	A-AC10	A-AC11	A-AC12	A-AC13	A-AC14	A-AC15	A-AC16	A-DC1	A-DC2	A-DC3	A-DC4	A-DC5	A-DC6	A-DC7	A-DC8	A-DC9	A-DC10	A-DC11	A-DC12	A-DC13	A-DC14	A-DC15	A-DC16	A-Ph1	A-Ph2	A-Ph3	A-Ph4	A-Ph5	A-Ph6	A-Ph7	A-Ph8	A-Ph9	A-Ph10	A-Ph11	A-Ph12	A-Ph13	A-Ph14	A-Ph15	A-Ph16	

Term	0.00000e+00	0.00000e+00	0.00000e+00	0.00000e+00	0.00000e+00	0.00000e+00	0.00000e+00	0.00000e+00	0.00000e+00	0.00000e+00	0.00000e+00	0.00000e+00	0.00000e+00	0.00000e+00	0.00000e+00	0.00000e+00	0.00000e+00	0.00000e+00	0.00000e+00	0.00000e+00	0.00000e+00	0.00000e+00	0.00000e+00	0.00000e+00	0.00000e+00	0.00000e+00	0.00000e+00	0.00000e+00	0.00000e+00	0.00000e+00	0.00000e+00	0.00000e+00	0.00000e+00	0.00000e+00	0.00000e+00	0.00000e+00	0.00000e+00	0.00000e+00	0.00000e+00	0.00000e+00	0.00000e+00	0.00000e+00	0.00000e+00	0.00000e+00	0.00000e+00	0.00000e+00	0.00000e+00	0.00000e+00	
Factor	1.00000e+00	1.00000e+00	1.00000e+00	1.00000e+00	1.00000e+00	1.00000e+00	1.00000e+00	1.00000e+00	1.00000e+00	1.00000e+00	1.00000e+00	1.00000e+00	1.00000e+00	1.00000e+00	1.00000e+00	1.00000e+00	1.00000e+00	1.00000e+00	1.00000e+00	1.00000e+00	1.00000e+00	1.00000e+00	1.00000e+00	1.00000e+00	1.00000e+00	1.00000e+00	1.00000e+00	1.00000e+00	1.00000e+00	1.00000e+00	1.00000e+00	1.00000e+00	X	X	X	X	X	X	X	X	X	X	X	X	X	X	X	X	

B = Detector Channel
Val Type	B-AC1	B-AC2	B-AC3	B-AC4	B-AC5	B-AC6	B-AC7	B-AC8	B-AC9	B-AC10	B-AC11	B-AC12	B-AC13	B-AC14	B-AC15	B-AC16	B-DC1	B-DC2	B-DC3	B-DC4	B-DC5	B-DC6	B-DC7	B-DC8	B-DC9	B-DC10	B-DC11	B-DC12	B-DC13	B-DC14	B-DC15	B-DC16	B-Ph1	B-Ph2	B-Ph3	B-Ph4	B-Ph5	B-Ph6	B-Ph7	B-Ph8	B-Ph9	B-Ph10	B-Ph11	B-Ph12	B-Ph13	B-Ph14	B-Ph15	B-Ph16	

Term	0.00000e+00	0.00000e+00	0.00000e+00	0.00000e+00	0.00000e+00	0.00000e+00	0.00000e+00	0.00000e+00	0.00000e+00	0.00000e+00	0.00000e+00	0.00000e+00	0.00000e+00	0.00000e+00	0.00000e+00	0.00000e+00	0.00000e+00	0.00000e+00	0.00000e+00	0.00000e+00	0.00000e+00	0.00000e+00	0.00000e+00	0.00000e+00	0.00000e+00	0.00000e+00	0.00000e+00	0.00000e+00	0.00000e+00	0.00000e+00	0.00000e+00	0.00000e+00	-9.29970e+01	-1.31392e+02	-1.23755e+02	-1.81317e+02	-5.33619e+01	-6.48182e+01	-1.56949e+02	-1.62015e+02	-5.50886e+01	-6.87642e+01	-1.71959e+02	-1.70284e+02	-1.79234e+02	-1.77030e+02	-6.24173e+01	-1.49880e+02	
Factor	2.02525e-05	2.04927e-04	5.47415e-05	1.73521e-01	1.61479e-06	2.15799e-06	2.08365e-01	7.47178e-02	1.46152e-06	2.09857e-06	1.03330e-01	3.53755e-02	3.43424e-02	1.15752e-02	1.82063e-06	1.65684e-02	1.86485e-05	4.58517e-05	1.28386e-05	8.54534e-02	4.13224e-07	5.17627e-07	9.68864e-02	3.69658e-02	4.35134e-07	5.18470e-07	4.97831e-02	1.71989e-02	1.73445e-02	5.78419e-03	4.58961e-07	8.02566e-03	X	X	X	X	X	X	X	X	X	X	X	X	X	X	X	X	



#DISTANCE SETTINGS
A = Detector Channel
A-1	A-2	A-3	A-4	A-5	A-6	A-7	A-8	A-9	A-10	A-11	A-12	A-13	A-14	A-15	A-16	

2.5000e+00	3.0000e+00	2.5000e+00	3.0000e+00	2.0000e+00	3.0000e+00	1.5000e+00	3.0000e+00	3.0000e+00	3.0000e+00	3.0000e+00	3.0000e+00	3.0000e+00	3.0000e+00	1.5000e+00	3.0000e+00	

B = Detector Channel
B-1	B-2	B-3	B-4	B-5	B-6	B-7	B-8	B-9	B-10	B-11	B-12	B-13	B-14	B-15	B-16	

1.0000e+01	1.0000e+01	1.0000e+01	1.4400e+00	1.0000e+01	1.0000e+01	1.5100e+00	1.9400e+00	1.0000e+01	1.0000e+01	1.9900e+00	2.4900e+00	2.4100e+00	2.9000e+00	1.0000e+01	2.9800e+00	




#DATA BEGINS
time	group	step	mark	flag	A-AC1	A-AC2	A-AC3	A-AC4	A-AC5	A-AC6	A-AC7	A-AC8	A-AC9	A-AC10	A-AC11	A-AC12	A-AC13	A-AC14	A-AC15	A-AC16	A-DC1	A-DC2	A-DC3	A-DC4	A-DC5	A-DC6	A-DC7	A-DC8	A-DC9	A-DC10	A-DC11	A-DC12	A-DC13	A-DC14	A-DC15	A-DC16	A-Ph1	A-Ph2	A-Ph3	A-Ph4	A-Ph5	A-Ph6	A-Ph7	A-Ph8	A-Ph9	A-Ph10	A-Ph11	A-Ph12	A-Ph13	A-Ph14	A-Ph15	A-Ph16	B-AC1	B-AC2	B-AC3	B-AC4	B-AC5	B-AC6	B-AC7	B-AC8	B-AC9	B-AC10	B-AC11	B-AC12	B-AC13	B-AC14	B-AC15	B-AC16	B-DC1	B-DC2	B-DC3	B-DC4	B-DC5	B-DC6	B-DC7	B-DC8	B-DC9	B-DC10	B-DC11	B-DC12	B-DC13	B-DC14	B-DC15	B-DC16	B-Ph1	B-Ph2	B-Ph3	B-Ph4	B-Ph5	B-Ph6	B-Ph7	B-Ph8	B-Ph9	B-Ph10	B-Ph11	B-Ph12	B-Ph13	B-Ph14	B-Ph15	B-Ph16	aux-1	digaux	

42775.359	1	1	0	256	0.13182	0.17625	0.23033	0.12352	0.079434	0.22304	0.25245	0.25213	0.10744	0.14023	0.066277	0.035806	0.54765	0.24003	0.12865	0.21016	-1.7292	-1.8375	-2.2708	-1.9104	-2.1312	-2.1937	-1.9042	-2.2021	-2.2812	-1.9792	-2.2479	-2.0187	-1.8875	-2.2313	-1.775	-2.1292	107.826	82.136	158.781	363.957	151.527	168.018	117.406	388.771	249.790	289.763	301.438	232.924	362.697	372.426	399.548	283.738	0.0001255	0.00010858	6.1612e-05	353.15	2.5545e-06	1.7541e-06	346	140.48	1.8538e-06	2.1767e-06	143.41	47.751	48.273	16.879	2.0719e-06	17.47	0.00021574	0.00034265	9.0539e-05	344.12	3.2034e-06	3.618e-06	337.16	137.85	3.2363e-06	3.5526e-06	139.69	47.164	47.496	16.653	3.6019e-06	17.034	197.381	133.150	138.612	70.842	223.799	236.253	69.268	74.782	228.302	191.567	71.915	75.904	78.716	82.385	211.214	79.575	-8191	255	
42775.453	1	1	0	0	0.12757	0.16788	0.31145	0.30946	0.24446	0.036185	0.079305	0.13713	0.26905	0.19476	0.22197	0.18136	0.10434	0.15264	0.25042	0.1028	-1.7354	-1.6292	-2.1521	-2.0146	-2.175	-2.3354	-1.9312	-2.0896	-2.1312	-1.8604	-2.2562	-2.0875	-1.975	-2.425	-1.8438	-2.15	85.934	270.235	298.195	374.489	344.884	253.807	326.268	242.249	260.230	210.596	76.330	247.695	82.942	71.604	350.540	253.222	0.00013157	0.00020341	5.3536e-05	354.9	1.685e-06	1.4416e-06	349.5	142.58	1.5132e-06	2.7617e-06	142.76	47.78	48.145	16.832	2.4092e-06	17.003	0.00021628	0.00036806	8.8025e-05	346.39	3.3342e-06	3.5792e-06	340.49	138.86	3.1076e-06	3.7427e-06	139.77	47.26	47.648	16.734	3.4518e-06	16.907	199.862	147.422	140.689	71.380	221.892	205.464	69.369	74.938	213.294	186.915	72.126	76.612	78.673	82.180	210.230	79.209	-8191	255	
42775.574	1	1	0	0	0.15768	0.079052	0.037396	0.23955	0.13234	0.20708	0.30187	0.48271	0.11612	0.16543	0.23828	0.25403	0.017853	0.18768	0.074952	0.21253	-1.9	-1.7771	-2.2125	-2.1875	-2.0104	-2.1792	-2.0521	-2.1458	-2.2021	-1.6	-2.1854	-2.1333	-1.8854	-2.1479	-1.8583	-2.0083	127.435	148.482	277.597	100.674	390.080	413.124	269.709	299.646	150.997	125.742	205.366	371.894	72.922	88.859	255.867	258.297	0.00013254	0.00020698	3.0199e-05	357.56	1.3965e-06	2.1775e-06	344.89	141.06	1.2105e-06	2.0419e-06	142.25	47.34	47.741	16.638	2.5823e-06	16.974	0.00022868	0.00035936	8.3719e-05	346.84	3.1672e-06	3.3419e-06	338.3	138.37	3.1221e-06	3.8734e-06	138.91	46.868	47.256	16.475	3.4824e-06	16.707	197.149	143.269	141.951	71.307	210.155	211.285	69.369	74.915	238.106	167.407	71.496	76.062	78.728	82.803	185.825	79.612	-8191	255	
42775.672	1	1	0	0	0.21102	0.21435	0.18062	0.15811	0.032998	0.15296	0.1268	0.20052	0.13441	0.085732	0.17525	0.093832	0.14122	0.14644	0.2153	0.16719	-1.6625	-1.8792	-2.0271	-2.1896	-1.8563	-2.1354	-1.825	-2.025	-2.3646	-2.0229	-2.0729	-2.1875	-1.7604	-2.2687	-1.95	-1.875	80.457	96.144	289.234	60.438	296.180	353.309	324.979	170.232	97.068	215.313	175.842	212.441	360.855	285.759	241.380	362.799	0.00012064	0.00015899	6.7583e-05	350.91	1.9092e-06	1.3352e-06	346.61	139.72	1.9697e-06	7.0631e-07	140.78	46.831	47.049	16.121	9.9461e-07	16.59	0.00021407	0.00036242	8.6233e-05	344.96	3.3523e-06	3.5112e-06	337.24	137.35	3.3814e-06	3.8712e-06	137.45	46.086	46.378	15.963	3.5177e-06	16.26	199.840	154.933	115.699	71.048	208.547	234.120	69.150	74.633	229.699	217.079	72.197	76.130	79.052	82.338	212.288	79.827	-8191	255	
42775.766	1	1	0	0	0.12298	0.050544	0.12341	0.13091	0.17699	0.083665	0.16719	0.19838	0.26156	0.17447	0.18874	0.11152	0.11248	0.13415	0.077924	0.097777	-1.9062	-1.7771	-2.0729	-2.1958	-1.8167	-2.5292	-1.9729	-2.075	-2.3667	-1.8542	-2.0417	-2.2854	-1.8687	-2.0583	-2.0604	-1.9271	388.588	381.329	222.118	307.354	74.449	351.789	109.178	268.226	392.691	184.004	308.536	132.807	264.866	317.822	82.608	247.432	0.00012193	0.00019358	6.3576e-05	350.61	2.4869e-06	1.5001e-06	344.24	138.12	1.9281e-06	1.4116e-06	139.07	46.81	46.489	15.907	1.6142e-06	16.45	0.00022561	0.00037426	9.2385e-05	342.31	3.5649e-06	3.8283e-06	333.07	135.74	3.5074e-06	4.0365e-06	136.44	45.856	46.146	15.861	3.5751e-06	16.224	194.475	171.666	177.109	71.065	232.702	185.643	69.090	74.623	210.006	198.244	71.621	76.055	78.893	82.954	216.200	79.231	-8191	255	
42775.863	1	1	0	0	0.088469	0.072257	0.25375	0.35907	0.036174	0.059529	0.04789	0.36627	0.093399	0.17422	0.19841	0.23696	0.055686	0.27437	0.10602	0.21641	-1.7333	-1.8042	-2.1	-2.125	-1.7125	-2.1771	-2.1583	-1.8146	-2.2438	-2.0563	-1.9188	-2.3792	-1.8062	-2.0729	-2.2979	-1.975	182.677	365.846	290.612	178.221	220.917	211.553	145.735	280.362	199.070	93.142	411.970	389.386	172.682	342.386	156.428	365.152	0.00013209	0.00013289	4.2017e-05	348.13	1.0322e-06	1.0157e-06	340.85	137.21	1.1489e-06	2.5881e-06	139.8	46.43	46.738	16.098	2.1308e-06	16.562	0.00024235	0.00035382	9.4712e-05	340.87	3.5994e-06	3.8175e-06	332.45	135.39	3.8274e-06	3.9015e-06	137.26	45.947	46.329	15.954	3.5875e-06	16.259	188.457	184.011	154.994	71.213	249.018	265.381	69.016	75.019	224.934	192.401	71.713	76.210	79.173	83.039	215.361	79.461	-8191	255	
42775.961	1	1	0	0	0.19669	0.26311	0.062131	0.056751	0.21193	0.2055	0.080823	0.052348	0.067213	0.2635	0.043677	0.33071	0.095943	0.20372	0.23212	0.30851	-1.7771	-2.1292	-1.7979	-2.2833	-1.6562	-1.8792	-2.2729	-1.7854	-2.2521	-2.1042	-1.7917	-2.4396	-1.7208	-2.0896	-2.0187	-1.7125	306.269	208.593	413.269	278.651	332.001	115.359	162.482	247.473	209.640	302.532	143.344	261.418	57.416	371.322	362.464	206.280	0.00012716	0.00010038	6.6945e-05	349.76	1.6831e-06	2.1473e-06	340.63	138	1.6783e-06	1.9251e-06	139.58	45.937	46.09	15.809	1.8689e-06	16.181	0.00023248	0.00034866	0.00010667	341.51	3.5494e-06	3.6439e-06	331.96	135.41	3.6977e-06	3.8907e-06	135.76	45.278	45.796	15.721	3.5388e-06	15.9	196.587	109.242	152.055	71.493	274.551	261.090	69.326	74.954	229.270	211.676	72.121	76.629	79.268	82.851	183.126	79.711	-8191	255	
42776.055	1	1	0	0	0.0050171	0.13463	0.20619	0.058493	0.065954	0.11377	0.11747	0.20903	0.095978	0.11728	0.41264	0.20875	0.19758	0.36494	0.14599	0.43188	-1.7292	-2.0396	-1.8583	-2.4437	-1.7792	-2.0438	-2.3667	-1.8417	-2.2396	-2.0438	-1.8458	-2.225	-2.0667	-2.0583	-2.3438	-1.7729	260.809	342.494	384.118	188.734	322.078	67.942	327.347	391.845	154.053	365.431	79.644	65.661	368.713	118.181	335.713	272.729	0.00012837	0.00015867	6.2469e-05	348.25	2.044e-06	1.586e-06	337.46	136.71	1.1596e-06	2.8827e-06	137.59	45.8	46.206	15.832	2.9565e-06	16.241	0.00023229	0.00034102	9.9767e-05	339.54	3.8309e-06	3.9286e-06	329.92	134.8	3.7313e-06	3.8896e-06	135.33	45.13	45.689	15.703	3.9585e-06	15.942	199.600	152.480	161.344	71.219	211.625	215.841	69.481	75.041	208.810	183.152	72.090	76.248	78.817	82.261	213.594	79.132	-8191	255	
42776.152	1	1	0	0	0.11814	0.086553	0.094745	0.32983	0.010091	0.21277	0.045839	0.13169	0.23488	0.10098	0.1346	0.094658	0.072656	0.21013	0.084499	0.11032	-1.6854	-1.9875	-1.5667	-2.2354	-2	-1.8917	-2.0708	-1.7583	-2.1958	-2.1083	-1.9438	-2.4188	-2.1333	-2.0917	-2.1708	-2.0542	295.164	227.873	402.722	295.499	77.789	410.779	386.045	360.000	151.718	100.474	157.596	308.103	103.113	399.500	381.699	187.196	0.00012651	0.0002922	6.3122e-05	346.25	1.8283e-06	1.301e-06	336.55	137.74	1.335e-06	1.8558e-06	136.98	45.603	46.006	15.847	2.0898e-06	16.227	0.00022541	0.00036595	0.00010383	337.78	3.447e-06	3.9534e-06	328.02	134.55	3.676e-06	3.7892e-06	134.51	45.034	45.536	15.703	3.8199e-06	15.964	197.003	154.241	179.359	70.978	231.292	177.161	69.072	74.733	244.389	253.483	71.893	75.798	78.451	82.686	184.833	79.397	-8191	255	
42776.270	1	1	0	0	0.21725	0.21453	0.29239	0.099534	0.19283	0.16942	0.0056234	0.34879	0.076186	0.13085	0.095392	0.071056	0.12834	0.19615	0.01974	0.33733	-1.6125	-2.0875	-1.8479	-2.3271	-2.0375	-1.9604	-2.2667	-1.8875	-2.1021	-2.2583	-1.8333	-2.1646	-1.9917	-2.0229	-2.425	-1.9271	273.475	105.965	310.396	337.394	344.907	59.247	375.058	412.992	152.563	311.479	299.347	399.330	80.673	268.817	171.911	66.757	0.00012605	0.00015135	2.286e-05	345.85	1.3325e-06	2.4255e-06	334.49	136.96	1.6521e-06	2.0852e-06	138.04	45.712	46.264	15.976	2.4722e-06	16.431	0.00022844	0.00033281	0.00010455	336.77	3.3523e-06	4.1949e-06	327.35	134.98	3.5019e-06	3.8183e-06	135.16	45.22	45.711	15.805	3.7883e-06	16.129	191.867	86.493	181.095	71.155	206.393	235.200	69.132	74.843	242.451	172.243	72.077	76.191	78.791	82.514	214.700	79.558	-8191	255	
42776.367	1	1	0	0	0.38307	0.34766	0.099061	0.15754	0.27851	0.14992	0.26053	0.16674	0.078716	0.19164	0.19148	0.10586	0.30774	0.33453	0.077153	0.072393	-1.5875	-2.2771	-1.6125	-2.2854	-2.0667	-1.9062	-2.3292	-1.9854	-1.8833	-2.2062	-1.9979	-2.2167	-2.2062	-1.775	-2.3229	-2.0542	185.270	357.359	311.481	307.802	93.920	133.105	380.201	397.363	126.547	162.804	357.302	63.826	104.811	63.446	194.985	388.734	0.00011698	0.00020155	4.815e-05	344.36	1.5043e-06	1.8083e-06	337.96	138.15	1.4709e-06	1.1487e-06	136.35	45.181	45.811	15.875	1.5639e-06	16.156	0.00022701	0.00036423	0.00010635	337.12	3.2309e-06	3.9976e-06	328.25	134.82	3.6488e-06	3.922e-06	134.11	44.824	45.435	15.723	3.6487e-06	15.833	188.899	124.725	147.779	71.299	220.638	205.663	69.373	75.141	236.750	193.952	72.110	76.208	78.999	82.600	208.796	79.372	-8191	255	
42776.465	1	1	0	0	0.12305	0.11261	0.27266	0.13087	0.046773	0.13764	0.085707	0.064094	0.19154	0.15887	0.1514	0.010549	0.01946	0.20081	0.17069	0.20603	-1.4083	-2.1896	-1.7729	-2.1229	-2.325	-1.8271	-2.2687	-1.8958	-1.8729	-2.3917	-1.8708	-2.1167	-2.2	-1.7771	-2.275	-2.0875	368.362	67.446	368.796	132.676	102.997	371.546	344.402	228.697	92.675	218.255	231.879	269.713	223.226	395.011	210.998	384.006	0.00011101	6.2947e-05	2.8323e-05	343.95	1.6413e-06	6.349e-07	335.42	136.39	1.6378e-06	9.6693e-07	136.1	44.949	45.646	15.752	1.4402e-06	16.156	0.00021714	0.00034456	0.00010284	335.37	3.2025e-06	4.0785e-06	326.6	133.86	3.7349e-06	3.8183e-06	133.57	44.692	45.297	15.656	3.4154e-06	15.844	197.918	160.402	186.375	71.277	191.773	210.346	69.277	74.854	225.903	206.724	71.859	75.994	79.066	82.662	179.464	78.960	-8191	255	
42776.559	1	1	0	0	0.022371	0.036714	0.055014	0.050834	0.15493	0.11681	0.29206	0.27493	0.28459	0.25583	0.045559	0.1908	0.063971	0.16646	0.043026	0.15701	-1.4417	-2.2146	-1.7542	-2.0708	-2.1688	-1.875	-2.2104	-2.0229	-2.0563	-2.3375	-1.9167	-2.0042	-2.3917	-1.5625	-2.0792	-2.1688	119.259	228.777	154.899	136.918	56.568	390.751	285.765	98.792	226.119	314.807	145.043	375.885	112.650	85.284	67.618	78.591	0.00011961	0.00019072	7.0121e-05	343.6	8.9525e-07	1.5298e-06	333.69	137.82	1.6573e-06	2.6975e-06	137.66	45.398	46.043	15.964	2.1531e-06	16.223	0.00023913	0.00032708	9.9018e-05	334.96	3.4866e-06	4.0299e-06	324.69	134.21	3.6542e-06	3.6682e-06	134.05	44.87	45.394	15.759	3.2892e-06	15.941	189.344	147.118	140.613	71.118	194.009	182.503	69.229	74.518	228.948	210.980	71.802	76.363	78.966	82.629	220.632	79.350	-8191	255	
42776.656	1	1	0	0	0.24408	0.20629	0.2106	0.37917	0.25765	0.27161	0.36487	0.34528	0.11105	0.14298	0.070723	0.30171	0.2627	0.084164	0.10501	0.078397	-1.1396	-2.1437	-1.9188	-2.1104	-2.2042	-1.8833	-2.1729	-2.1708	-1.8375	-2.3104	-1.95	-2.0146	-2.1979	-1.9188	-2.05	-2.025	302.101	397.861	66.755	368.104	72.288	187.022	413.435	100.629	265.536	150.902	412.611	100.401	117.756	257.850	108.726	160.559	0.00011233	0.00015916	2.9286e-05	346.17	1.5587e-06	8.9742e-07	334.81	137.54	1.6802e-06	2.232e-06	138.5	45.606	46.387	15.976	2.0222e-06	16.29	0.00023761	0.00033682	9.1796e-05	336.58	3.3376e-06	3.8757e-06	326.37	134.33	3.8836e-06	3.6757e-06	135.17	45.225	45.804	15.889	3.4212e-06	16.167	191.949	136.680	166.896	71.340	204.699	199.314	69.111	75.055	221.450	216.275	72.124	76.205	78.467	82.759	221.774	79.581	-8191	255	
42776.754	1	1	0	0	0.22876	0.23054	0.27715	0.28915	0.199	0.04815	0.12384	0.1374	0.1246	0.17462	0.1132	0.18866	0.13898	0.20093	0.12577	0.062579	-1.4771	-2.2167	-1.9292	-2.0104	-2.15	-1.9562	-2.2354	-2.0812	-1.7938	-2.3917	-1.9104	-2.0187	-2.2562	-1.9208	-1.8937	-2.0979	262.732	70.665	313.158	100.404	226.074	252.362	194.789	295.188	359.513	291.790	274.970	172.340	346.488	318.007	150.158	364.624	0.00010845	0.00013874	5.6732e-05	344.57	1.3061e-06	2.1669e-06	338.77	137.83	2.2447e-06	3.2248e-06	139.94	45.957	46.579	16.108	1.6315e-06	16.488	0.00024655	0.00033348	9.2358e-05	337.1	3.2197e-06	3.7161e-06	329.69	135.05	3.9633e-06	3.7578e-06	136.25	45.625	46.113	15.985	3.4116e-06	16.253	189.026	146.991	170.617	71.043	222.226	194.870	69.166	74.972	250.357	213.025	71.800	75.875	78.752	82.675	171.315	79.526	-8191	255	
42776.871	1	1	0	0	0.35114	0.034596	0.096728	0.12343	0.17068	0.29847	0.1531	0.1016	0.23316	0.15541	0.17539	0.033431	0.15307	0.021975	0.19094	0.17269	-1.3542	-2.2021	-1.9792	-1.8521	-2.2125	-1.9354	-2.0229	-2.1646	-1.7604	-2.2333	-2.0396	-1.8792	-2.2833	-2	-1.975	-2.4021	303.993	177.390	255.105	288.557	127.447	137.298	365.891	124.878	213.861	324.223	62.834	385.445	362.074	253.185	402.868	177.813	0.00011738	0.0001983	5.4744e-05	346.6	1.5336e-06	1.9966e-06	338.4	136.9	1.8836e-06	9.3878e-07	138.8	45.767	46.556	16.04	2.431e-06	16.243	0.0002345	0.00032459	9.4845e-05	338.06	3.1276e-06	3.7528e-06	329.69	135.18	3.6243e-06	3.733e-06	135.33	45.354	45.912	15.883	3.6373e-06	16.078	193.386	152.347	159.280	70.941	257.373	203.960	69.538	74.940	235.496	223.586	72.171	75.969	79.253	82.646	209.015	78.881	-8191	255	
42776.969	1	1	0	0	0.11401	0.24237	0.16685	0.089003	0.23502	0.11961	0.065401	0.22534	0.093462	0.18846	0.19238	0.11714	0.078895	0.13674	0.19988	0.17189	-1.5479	-2.1792	-2.1167	-1.8438	-2.3208	-1.8604	-2.1333	-2.5563	-1.9542	-2.0979	-2.2229	-1.8354	-2.2562	-2.2521	-1.9625	-2.3917	181.130	408.558	82.954	260.695	316.315	167.885	369.611	65.607	267.313	99.759	112.052	218.335	362.768	371.162	380.296	377.682	0.00011608	0.00021926	8.2276e-05	344.91	1.5352e-06	1.4205e-06	337.76	137.41	1.8616e-06	1.4376e-06	137.79	45.749	46.089	15.818	1.6941e-06	16.352	0.00022417	0.00027903	9.2438e-05	336.96	3.1629e-06	3.5598e-06	329.12	134.46	3.5618e-06	3.3949e-06	134.93	45.255	45.713	15.817	3.7874e-06	16.113	192.797	125.264	191.032	71.131	239.889	225.828	69.386	74.699	225.458	174.322	71.600	75.650	78.729	82.410	209.820	79.589	-8191	255	
42777.066	1	1	0	0	0.30491	0.31835	0.11888	0.15258	0.30729	0.23574	0.050506	0.19753	0.15516	0.099461	0.17749	0.16521	0.13786	0.29384	0.32046	0.32168	-1.4792	-2.025	-2.2521	-1.7396	-2.2625	-2.0958	-2.0458	-2.1937	-1.9146	-2.0187	-2.3354	-1.8792	-2.3458	-2.0125	-1.9646	-2.3708	204.279	214.189	193.647	187.149	208.438	192.018	407.834	386.403	169.227	286.811	174.856	96.709	299.112	262.009	296.577	240.185	0.0001266	0.00011804	6.1086e-05	346.04	1.5057e-06	2.099e-06	339.05	137.53	1.0539e-06	1.8566e-06	137.78	46.07	46.5	16.045	1.384e-06	16.553	0.0002354	0.00030902	8.7169e-05	337.65	2.9503e-06	3.4109e-06	330.01	134.91	3.5065e-06	3.6833e-06	135.59	45.577	45.88	15.91	3.8524e-06	16.254	193.531	127.003	120.778	71.097	218.978	220.785	69.021	74.794	203.756	218.669	71.558	76.340	78.577	82.400	193.428	79.491	-8191	255	
42777.137	1	1	0	0	0.13679	0.18232	0.15391	0.061588	0.14213	0.17526	0.22485	0.15425	0.16982	0.041644	0.043102	0.10842	0.12115	0.18342	0.17055	0.40607	-1.3958	-2.1604	-2.1458	-1.6875	-2.1813	-2.1896	-1.9667	-2.2812	-1.875	-1.9958	-2.1208	-1.9792	-2.1937	-2.0375	-1.9354	-2.1292	84.117	283.728	84.405	267.409	409.489	84.657	353.918	262.004	255.822	80.504	73.539	102.345	316.837	357.630	341.893	68.851	0.00012927	0.00023186	4.6166e-05	348.73	1.4885e-06	1.8843e-06	339.69	137.96	7.8418e-07	2.8306e-06	138.66	46.647	46.733	16.053	2.4529e-06	16.615	0.00022091	0.00033262	8.9362e-05	338.88	3.0932e-06	3.5015e-06	331.12	135.49	3.5237e-06	3.7546e-06	136.38	46.061	46.283	16.047	4.0542e-06	16.424	193.979	159.384	156.761	71.100	196.784	217.298	69.421	74.674	201.202	208.064	71.841	76.382	78.869	82.654	194.264	79.326	-8191	255	
42777.254	1	1	0	0	0.098177	0.22916	0.26336	0.27202	0.12994	0.21293	0.030314	0.31971	0.16663	0.022943	0.069978	0.0366	0.14282	0.23575	0.10105	0.17373	-1.525	-1.8146	-2.1625	-1.8833	-2.0708	-2.1312	-1.775	-2.4104	-2.0708	-1.9083	-2.1521	-1.6854	-2.1292	-2.3063	-1.7625	-2.3354	179.404	382.776	304.092	332.111	351.355	277.516	186.199	108.291	348.782	324.861	202.351	365.301	395.881	144.789	94.539	383.398	0.00012664	0.00022266	4.9438e-05	348.76	1.7784e-06	2.3004e-06	343.15	138.52	1.4531e-06	2.6106e-06	138.97	46.102	46.832	16.004	2.7577e-06	16.399	0.00021962	0.00033663	8.8266e-05	341.29	3.0536e-06	3.5123e-06	333.47	135.68	3.4466e-06	3.6855e-06	136.32	45.835	46.241	15.964	3.6965e-06	16.235	195.957	146.709	130.244	71.062	245.185	199.252	68.965	74.857	253.039	211.133	72.135	76.216	79.358	82.897	214.689	79.519	-8191	255	
42777.352	1	1	0	0	0.20472	0.20185	0.21446	0.12842	0.31812	0.31599	0.20073	0.087641	0.29811	0.045504	0.16796	0.15452	0.24161	0.17893	0.076778	0.18345	-1.5229	-1.7771	-2.1854	-1.8813	-2.1	-2.1729	-1.9125	-2.3688	-2.1625	-1.9771	-2.3937	-1.8979	-1.8833	-2.1417	-1.8625	-2.1729	100.035	273.870	189.036	289.794	146.884	101.930	83.636	343.691	72.898	68.550	356.164	404.805	131.846	291.232	368.841	225.755	0.00011833	0.00020675	4.9061e-05	347.64	2.268e-06	2.0979e-06	338.68	137.73	1.5187e-06	1.6838e-06	138.27	46.106	46.31	15.859	1.8208e-06	16.389	0.00022013	0.00034045	8.7918e-05	339.39	3.0441e-06	3.4767e-06	330.8	134.86	3.4919e-06	3.8842e-06	135.4	45.474	45.784	15.804	3.5378e-06	16.157	201.825	154.752	142.528	70.749	242.750	221.929	69.074	74.376	205.691	213.369	71.384	75.963	78.988	82.349	228.167	79.264	-8191	255	
42777.445	1	1	0	0	0.11991	0.10074	0.038006	0.14538	0.10766	0.14043	0.32388	0.055449	0.12009	0.19311	0.1088	0.40985	0.089707	0.169	0.02408	0.21734	-1.6854	-1.9417	-2.1396	-1.9104	-1.9729	-2.2938	-2.075	-2.1312	-2.1688	-1.975	-2.2292	-1.9333	-1.9042	-2.3479	-1.8062	-2.1896	375.449	207.441	124.872	180.896	120.557	381.497	247.331	80.185	279.935	76.479	107.584	100.346	395.557	406.697	205.053	299.586	0.00011768	7.3779e-05	5.2019e-05	346.02	1.8505e-06	1.2828e-06	339.68	136.17	2.1345e-06	1.6947e-06	139.17	46.119	46.265	15.897	2.4096e-06	16.387	0.00023338	0.00034876	8.5671e-05	337.47	3.3247e-06	3.4519e-06	331.18	134.48	3.5518e-06	3.7395e-06	135.84	45.562	45.724	15.776	3.4699e-06	16.221	192.071	349.285	132.173	70.905	222.931	190.798	69.134	75.129	197.548	189.509	71.769	76.345	79.212	83.009	229.184	79.583	-8191	255	
42777.543	1	1	0	0	0.23009	0.25645	0.16492	0.064379	0.35978	0.25168	0.10564	0.14717	0.29118	0.27316	0.098719	0.21602	0.26753	0.10682	0.33145	0.15873	-1.6333	-1.9021	-2.3063	-2.0375	-2.0333	-2.3333	-2.0396	-1.9896	-2.0438	-1.8521	-2.2854	-2.0521	-1.7896	-2.35	-1.8292	-2.0708	262.160	280.283	270.237	104.607	162.494	211.445	268.765	364.265	367.441	388.325	246.442	253.577	162.880	250.958	317.546	227.353	0.00012926	0.00019316	5.1819e-05	347.87	1.1367e-06	2.4665e-06	339.3	137.63	1.6996e-06	1.6122e-06	139.79	46.572	46.197	15.915	2.9814e-06	16.673	0.00022615	0.00033252	8.5644e-05	339.08	3.2309e-06	3.4951e-06	332.45	134.97	3.3832e-06	3.9112e-06	136.1	45.807	45.831	15.836	3.6e-06	16.376	191.832	150.754	178.645	71.266	244.144	194.578	68.736	74.729	181.220	178.833	72.229	76.506	78.694	82.543	213.923	79.446	-8191	255	
42777.664	1	1	0	0	0.21768	0.091146	0.23055	0.10931	0.15285	0.21832	0.18253	0.13196	0.18403	0.074965	0.067622	0.23604	0.33265	0.030014	0.17077	0.12342	-1.6854	-1.7646	-2.2792	-2.2146	-1.9458	-2.3	-1.9146	-1.8229	-2.3521	-2.0104	-2.275	-2.1312	-2.1417	-2.2687	-1.7354	-1.8687	199.529	69.946	215.438	311.286	193.294	362.606	317.048	130.888	324.550	212.961	166.413	176.321	232.331	300.791	105.763	312.269	0.00012698	0.00026215	5.9311e-05	348.03	1.3991e-06	2.3446e-06	343.34	139.31	2.2282e-06	1.5738e-06	140.6	46.365	46.612	16.021	1.6785e-06	16.605	0.0002197	0.00035898	9.1341e-05	340.5	3.3945e-06	3.5317e-06	334.57	136.16	3.2825e-06	3.612e-06	136.94	45.865	46.182	15.935	3.2816e-06	16.338	198.004	131.525	168.939	70.868	208.429	210.229	68.910	74.335	213.596	195.601	72.141	76.254	78.595	82.832	177.970	79.155	-8191	255	
42777.734	1	1	0	0	0.062738	0.0070703	0.24208	0.12529	0.13224	0.13933	0.074543	0.24298	0.0043303	0.21416	0.063361	0.14639	0.23922	0.025808	0.17932	0.098625	-1.8312	-1.8479	-2.225	-2.1708	-1.8937	-2.275	-1.975	-1.8917	-2.275	-1.7146	-2.3146	-2.0771	-1.8875	-2.3083	-2.0792	-2	128.418	286.127	307.612	110.409	325.834	130.541	144.757	344.063	349.229	358.159	125.718	132.365	321.027	294.646	253.893	392.388	0.00012176	0.00013156	6.2266e-05	348.3	2.2941e-06	2.2165e-06	342.53	137.64	1.5116e-06	1.9767e-06	139.8	45.9	46.381	15.778	2.3131e-06	16.344	0.00022083	0.00034217	9.0726e-05	339.38	3.3824e-06	3.2912e-06	331.91	135.02	3.1783e-06	3.8302e-06	135.82	45.489	45.593	15.74	3.1773e-06	16.135	189.885	155.210	152.850	71.116	220.346	180.724	69.262	74.838	225.937	214.744	72.065	76.286	78.896	82.517	217.614	79.780	-8191	255	
42777.832	1	1	0	0	0.31119	0.027005	0.33978	0.059495	0.24324	0.21508	0.4039	0.13253	0.067327	0.078	0.071758	0.27615	0.1535	0.24495	0.13858	0.32585	-1.875	-1.9396	-2.1854	-2.3104	-1.8937	-2.4667	-2.0604	-1.8625	-2.4917	-2.2062	-2.1771	-2.4333	-1.9917	-2.2812	-2.1354	-1.9958	256.800	166.474	325.616	202.451	277.703	115.277	352.549	403.652	145.281	186.126	334.806	403.927	183.554	276.285	376.285	238.303	0.00011984	0.00022702	5.4306e-05	348.68	2.1011e-06	2.3526e-06	339.46	136.82	1.4327e-06	1.4754e-06	139.05	46.034	45.653	15.673	2.2971e-06	16.21	0.00021213	0.00032192	9.0084e-05	338.52	3.3239e-06	3.2147e-06	330.81	134.24	3.4684e-06	3.6358e-06	135.76	45.249	45.459	15.624	3.5474e-06	16.061	195.327	154.808	134.483	71.329	226.114	200.687	69.457	74.774	224.665	219.491	71.888	76.190	78.603	82.182	233.013	79.717	-8191	255	
42777.953	1	1	0	0	0.30141	0.30172	0.14139	0.11507	0.30495	0.10535	0.24546	0.053325	0.086267	0.15213	0.14294	0.065754	0.16927	0.10494	0.040184	0.27068	-2.0875	-2.275	-1.8458	-2.2917	-2.0333	-2.2354	-2.1458	-1.9604	-2.2875	-2.0125	-2.0479	-2.4813	-1.8875	-2.1521	-2.1104	-2.0396	411.202	88.544	279.723	57.058	402.709	302.742	408.727	311.319	178.312	130.038	389.110	196.694	224.878	184.048	235.584	369.483	0.00012678	0.00021846	5.8565e-05	344.2	1.5143e-06	1.8282e-06	339.5	135.88	1.2799e-06	1.4059e-06	136.98	45.767	45.885	15.797	1.4659e-06	16.34	0.00021551	0.0002988	9.4551e-05	336.26	3.3514e-06	3.5285e-06	330.26	134.08	3.365e-06	3.3852e-06	135.08	45.29	45.415	15.631	3.6918e-06	16.13	198.918	157.525	162.316	70.996	226.952	213.474	69.030	74.807	216.482	206.429	71.866	76.142	78.904	82.346	208.418	79.225	-8191	255	
42778.051	1	1	0	0	0.3196	0.50172	0.033054	0.048811	0.068236	0.26079	0.0958	0.12891	0.16391	0.12459	0.21139	0.10602	0.21153	0.36369	0.04286	0.17557	-1.8687	-1.95	-2.1625	-2.4229	-2.1396	-2.15	-2.2792	-1.9562	-2.4792	-2.0979	-1.8875	-2.3271	-1.8062	-2.15	-2.35	-1.9062	259.090	287.885	293.149	69.023	302.192	75.310	396.432	401.720	61.987	232.374	81.903	116.590	315.449	107.935	264.865	357.475	0.00013261	0.00011929	6.6352e-05	343	2.0563e-06	2.1213e-06	337.7	136.81	1.7207e-06	1.1574e-06	138.53	46.078	46.083	15.798	1.9902e-06	16.251	0.00022604	0.0003244	9.8938e-05	336.24	3.3549e-06	3.6309e-06	329.32	134.55	3.3514e-06	3.5666e-06	135.74	45.501	45.615	15.679	3.5732e-06	16.091	194.952	182.781	147.326	71.093	206.409	225.837	69.341	74.899	227.434	174.673	71.935	76.121	78.922	82.910	223.902	79.992	-8191	255	
42778.145	1	1	0	0	0.15975	0.16465	0.35454	0.18044	0.28419	0.19483	0.14877	0.11946	0.22978	0.10862	0.17746	0.11354	0.1657	0.091725	0.11512	0.2397	-1.8229	-1.9729	-1.9479	-2.4083	-1.9958	-2.1375	-2.3042	-1.8917	-2.2833	-2.0917	-1.9521	-2.2938	-1.9896	-2.0271	-2.3396	-1.9396	174.592	90.895	281.280	223.134	394.419	137.638	318.495	249.042	363.442	169.754	330.833	274.376	414.026	152.063	152.189	391.077	0.00011064	0.00016398	6.0784e-05	341.97	1.9067e-06	2.3104e-06	334.21	135.56	1.365e-06	2.0852e-06	136.38	45.515	45.34	15.414	1.9467e-06	16.091	0.00022017	0.00031781	9.7761e-05	334.92	3.1681e-06	3.6482e-06	327.39	133.07	3.3261e-06	3.5224e-06	133.71	44.811	44.866	15.345	3.4852e-06	15.806	193.020	138.505	137.532	70.448	243.506	201.225	69.178	74.682	218.799	239.932	71.898	76.185	78.442	82.437	204.089	79.510	-8191	255	
42778.266	1	1	0	0	0.075681	0.066621	0.090243	0.13379	0.10221	0.21311	0.06579	0.15866	0.052399	0.023833	0.11079	0.15655	0.12996	0.18372	0.078895	0.1276	-1.7604	-2.1333	-1.5938	-2.4208	-2.0458	-2.0521	-2.2833	-1.8833	-2.1521	-2.1792	-1.9188	-2.3125	-2.2604	-1.8188	-2.3063	-1.9	357.551	175.844	266.734	395.814	146.761	415.007	220.256	84.119	65.317	202.321	387.734	326.335	93.481	318.544	103.580	381.953	0.00011873	0.00013175	5.3507e-05	342.87	2.5388e-06	1.0652e-06	334.02	134.42	1.4886e-06	1.5002e-06	136.14	45.228	45.01	15.444	1.243e-06	15.852	0.00021994	0.00033223	9.4872e-05	333.53	3.3161e-06	3.9307e-06	325.62	132.15	3.3868e-06	3.8129e-06	133.32	44.473	44.674	15.316	3.3581e-06	15.671	195.265	179.105	149.574	70.949	225.620	200.194	69.193	74.562	234.468	235.122	72.108	76.301	78.503	82.577	198.978	79.627	-8191	255	
42778.359	1	1	0	0	0.28489	0.14705	0.16459	0.28598	0.14586	0.29982	0.012651	0.04957	0.13182	0.2582	0.023811	0.054512	0.32486	0.30298	0.14451	0.11208	-1.5792	-2.4396	-1.7083	-2.2896	-1.9917	-2.0396	-2.35	-2.0625	-2.0958	-2.3667	-1.8479	-2.1208	-2.0354	-1.8854	-2.4896	-2.0583	306.258	200.418	156.726	397.846	252.568	112.053	321.101	73.277	277.834	158.637	101.583	147.827	318.678	325.776	279.507	140.929	0.00012147	9.0551e-05	3.4903e-05	339.53	2.111e-06	2.1629e-06	333.42	133.89	1.2264e-06	2.6255e-06	136.21	45.18	44.744	15.504	2.2224e-06	16.039	0.00022316	0.00031504	9.5675e-05	331.67	3.4341e-06	3.8067e-06	325.7	131.96	3.5436e-06	3.545e-06	133.18	44.536	44.561	15.354	3.4393e-06	15.832	194.041	129.183	147.382	71.137	206.900	232.387	69.319	75.100	224.829	205.098	71.777	76.189	78.750	83.034	205.842	79.658	-8191	255	
42778.434	1	1	0	0	0.13157	0.20614	0.21992	0.28207	0.11722	0.34669	0.050556	0.20391	0.12042	0.090326	0.13826	0.13203	0.10537	0.042086	0.14474	0.078518	-1.7521	-2.2958	-2.0792	-2.1208	-2.2771	-1.7979	-2.3875	-1.9083	-2.1063	-2.1229	-1.9583	-2.3667	-2.1333	-1.8333	-2.3479	-2.1479	127.601	359.521	81.374	382.943	157.199	273.021	247.754	113.987	339.345	201.448	256.083	309.771	95.299	253.847	205.485	169.815	0.00011829	0.0002482	6.5097e-05	338.72	1.5571e-06	1.8782e-06	331.89	134.2	1.2148e-06	1.8155e-06	136.82	45.323	45.901	15.515	2.0581e-06	16.265	0.00022176	0.00033768	9.4337e-05	332.04	3.2137e-06	3.9555e-06	325.02	131.97	3.3641e-06	3.4878e-06	133.77	44.789	44.981	15.414	3.2376e-06	16.012	191.875	136.324	144.546	71.138	212.221	179.931	69.253	75.046	201.788	225.116	71.969	76.494	78.569	82.600	224.267	79.759	-8191	255	
42778.551	1	1	0	0	0.19758	0.1082	0.32617	0.07641	0.067314	0.084026	0.27337	0.16424	0.091659	0.038345	0.35867	0.11455	0.22065	0.14127	0.075128	0.1665	-1.6	-2.4188	-1.9417	-2.2292	-2.3271	-1.8687	-2.3625	-2.1167	-2.0521	-2.4437	-2.075	-2.3104	-2.1646	-1.8542	-2.4146	-2.1979	281.248	87.357	237.753	155.693	233.025	324.783	114.487	308.026	75.594	132.548	344.192	357.590	288.623	108.528	240.843	351.810	0.00011418	0.00029771	4.6174e-05	339.96	1.8537e-06	1.6597e-06	335.67	135.6	1.7152e-06	2.4291e-06	137.15	45.052	45.212	15.559	2.6115e-06	16.174	0.00022464	0.0003373	9.2197e-05	333.07	3.3204e-06	3.5598e-06	326.99	132.7	3.4693e-06	3.6314e-06	133.57	44.711	45.04	15.472	3.1181e-06	15.863	191.635	144.342	181.531	70.802	239.233	234.615	69.231	74.683	210.092	175.433	71.881	76.157	78.923	82.576	239.581	79.629	-8191	255	
42778.648	1	1	0	0	0.087294	0.075213	0.024285	0.16679	0.16225	0.21711	0.10569	0.27498	0.11349	0.26093	0.20485	0.06158	0.11708	0.22938	0.09167	0.31764	-1.6333	-2.2875	-2.1125	-1.9875	-2.3583	-2.0563	-2.3417	-1.9688	-1.9833	-2.3646	-1.9104	-2.1875	-2.3583	-2.0458	-2.2729	-2.1708	149.634	157.474	278.492	308.287	212.172	219.753	220.996	335.672	217.012	171.306	384.283	333.804	408.924	239.074	209.261	336.627	0.00012374	0.00015235	6.2814e-05	340.01	2.6072e-06	2.4574e-06	333.22	134.01	1.7477e-06	1.4874e-06	135.89	45.05	45.031	15.432	2.0276e-06	16.034	0.00023093	0.00030386	9.2171e-05	332.27	3.3024e-06	3.5932e-06	324.54	132.06	3.5318e-06	3.571e-06	133.03	44.514	44.679	15.342	3.3074e-06	15.813	195.188	166.053	158.613	71.023	216.094	193.003	69.214	74.737	261.820	207.664	72.335	75.952	79.242	82.680	229.487	79.713	-8191	255	
42778.746	1	1	0	0	0.1271	0.12928	0.18214	0.17082	0.06286	0.1271	0.17357	0.15838	0.27204	0.20271	0.13626	0.21189	0.088186	0.27014	0.21648	0.073188	-1.4688	-2.2104	-2.0479	-2.1125	-2.0917	-1.7167	-2.2771	-2.1583	-1.8729	-2.3438	-2.0125	-2	-2.4813	-1.9708	-2.1958	-2.2604	193.453	315.698	252.490	64.977	318.896	75.314	330.312	61.442	407.557	269.169	77.858	299.029	394.463	316.537	400.296	399.670	0.00012842	0.00018923	5.437e-05	339.32	1.8667e-06	2.8587e-06	333.32	135.09	1.2054e-06	2.7589e-06	136.81	45.383	45.12	15.393	2.0295e-06	16.278	0.00023598	0.00031599	9.4952e-05	331.89	3.2481e-06	3.7657e-06	324.7	132.19	3.2907e-06	3.4197e-06	133.6	44.715	44.723	15.387	3.5407e-06	15.957	194.824	132.744	149.340	71.022	233.569	213.456	69.110	75.134	237.889	197.063	72.377	76.282	79.292	82.809	243.040	79.584	-8191	255	
42778.840	1	1	0	0	0.087545	0.24105	0.17877	0.23878	0.17171	0.2635	0.15759	0.12398	0.13088	0.17307	0.087464	0.30491	0.27042	0.24935	0.066258	0.13785	-1.4375	-2.3833	-1.8958	-1.95	-2.2646	-2.0771	-2.1562	-2.1188	-1.9271	-2.3896	-2.1	-1.9125	-2.2875	-1.8958	-2.2375	-2.2521	158.761	415.534	348.848	319.283	285.906	388.922	64.684	240.962	120.620	75.467	234.550	97.832	343.326	412.452	130.509	416.094	0.00011885	8.9502e-05	4.9003e-05	339.46	1.1053e-06	1.2298e-06	332.51	134.64	1.237e-06	3.0418e-06	136.52	45.489	45.261	15.603	2.0723e-06	16.152	0.0002328	0.00030854	9.0539e-05	332.8	3.1836e-06	3.838e-06	325.52	132.24	3.4729e-06	3.4716e-06	134	44.89	45.066	15.526	3.6076e-06	16.067	194.175	116.930	155.248	70.825	247.824	278.157	69.305	75.258	216.362	211.329	71.794	76.335	79.138	82.737	202.201	79.453	-8191	255	
42778.961	1	1	0	0	0.17243	0.11087	0.12174	0.073995	0.074837	0.1026	0.11671	0.1842	0.19928	0.036976	0.15717	0.06895	0.22187	0.21005	0.14738	0.2034	-1.5333	-2.2562	-2.175	-1.925	-2.3354	-2.1125	-2.2083	-2.2062	-1.8292	-2.325	-2.2167	-1.8333	-2.35	-1.8771	-2.125	-2.2562	117.586	249.146	114.098	140.868	275.405	283.887	109.024	287.280	294.941	210.503	66.444	332.382	373.068	99.283	146.954	304.826	0.00011885	0.00020277	6.2335e-05	341.54	1.8375e-06	2.9703e-06	336.79	136.45	1.1638e-06	1.8016e-06	138.16	45.557	45.801	15.807	1.7046e-06	16.529	0.00023691	0.00031141	9.3936e-05	334.4	2.822e-06	3.7431e-06	328.78	133.25	3.3768e-06	3.6336e-06	134.51	45.231	45.417	15.692	3.5015e-06	16.181	190.850	149.313	187.114	71.091	207.847	227.618	69.163	74.604	240.604	186.211	72.308	76.532	79.050	82.525	227.721	79.449	-8191	255	
42779.031	1	1	0	0	0.075822	0.083831	0.047579	0.35596	0.35944	0.16271	0.13242	0.051523	0.21799	0.086684	0.22715	0.11227	0.24736	0.17225	0.18113	0.27908	-1.6479	-2.3083	-1.9979	-1.9208	-2.4229	-2.0021	-2.0021	-2.325	-1.9813	-2.1771	-2.2896	-1.8708	-2.2938	-1.9479	-2.0938	-2.4083	310.412	222.500	276.734	316.971	57.685	364.081	252.804	100.411	214.211	210.313	144.775	240.474	106.930	279.802	259.035	119.867	0.0001176	0.00023906	4.9925e-05	346.93	1.5889e-06	1.3322e-06	334.38	136.48	1.1392e-06	2.1604e-06	136.55	45.403	45.336	15.495	1.9535e-06	16.272	0.00022759	0.00032736	9.2706e-05	336.91	2.9434e-06	3.4099e-06	328.29	133.45	3.2155e-06	3.4111e-06	133.76	44.849	44.97	15.49	3.6879e-06	15.982	194.755	138.755	96.813	70.964	205.771	251.274	69.195	74.777	213.922	196.176	71.968	76.193	79.020	82.695	212.323	79.468	-8191	255	
42779.129	1	1	0	0	0.06007	0.075952	0.24214	0.090871	0.22958	0.13366	0.32948	0.22596	0.42284	0.1714	0.23123	0.159	0.13892	0.37919	0.1821	0.25275	-1.6958	-2.2125	-2.2188	-2.0062	-2.3021	-2.0563	-2.0021	-2.4688	-1.9521	-2.1729	-2.0938	-1.875	-2.1625	-1.9833	-1.9937	-2.4333	355.081	128.136	267.480	358.905	190.938	386.165	311.605	340.270	235.822	267.468	387.762	162.738	124.873	156.739	209.006	296.846	0.0001179	0.0001795	1.5441e-05	343.02	1.7845e-06	2.1001e-06	336.09	135.18	1.9347e-06	1.8012e-06	136.5	45.566	45.627	15.687	2.6002e-06	16.1	0.00022316	0.00033968	8.4253e-05	334.96	2.9305e-06	3.6374e-06	326.78	132.7	3.54e-06	3.6239e-06	133.42	44.796	45.019	15.465	3.5866e-06	15.968	200.316	81.616	131.656	71.258	224.380	193.764	69.425	74.921	246.324	253.620	72.107	76.245	78.738	82.334	211.551	79.514	-8191	255	
42779.227	1	1	0	0	0.11771	0.33714	0.159	0.25357	0.084485	0.090645	0.18987	0.17817	0.26382	0.096421	0.2863	0.01011	0.1363	0.17072	0.12474	0.17922	-1.5375	-1.9708	-2.1167	-1.8521	-2.1208	-2.3146	-1.8604	-2.3042	-2.0229	-2.1021	-2.3979	-1.9062	-2.2708	-1.9792	-1.9	-2.2729	95.456	406.705	337.867	337.146	369.915	157.616	350.621	336.054	60.720	63.545	366.398	414.857	416.122	85.680	243.613	75.144	0.00012765	0.00021051	7.5215e-05	341.84	2.2256e-06	1.7719e-06	339.68	135.06	1.1832e-06	2.3233e-06	136.46	45.401	45.342	15.657	3.0855e-06	16.288	0.00023602	0.00035401	9.1716e-05	335.51	3.2808e-06	3.5975e-06	327.97	132.6	3.4031e-06	3.5472e-06	134.03	44.919	45.005	15.502	3.4948e-06	16.074	194.244	148.035	166.459	70.882	197.917	206.952	69.242	74.616	233.969	187.349	72.170	76.029	79.367	82.715	218.253	79.163	-8191	255	
42779.348	1	1	0	0	0.16269	0.30833	0.20511	0.085099	0.074311	0.30376	0.12001	0.10504	0.1532	0.11882	0.15571	0.17237	0.33048	0.20115	0.18993	0.16585	-1.3438	-1.8083	-2.1937	-1.9208	-2.1312	-2.1208	-1.8375	-2.3063	-1.8312	-1.9312	-2.3333	-1.9813	-1.9979	-2.1083	-1.5917	-2.3771	196.938	296.807	333.563	258.985	176.947	227.939	339.610	374.101	119.791	221.675	384.957	413.819	339.516	317.977	400.306	126.616	0.00012965	0.00016527	4.7517e-05	344.11	1.5402e-06	1.835e-06	337.61	135.85	1.2571e-06	1.8987e-06	137.93	45.886	45.885	15.744	1.705e-06	16.464	0.0002253	0.00033615	8.2916e-05	335.59	3.261e-06	3.5274e-06	329.27	133.15	3.5046e-06	3.6304e-06	135.1	45.286	45.468	15.695	3.5139e-06	16.215	193.701	113.806	192.110	71.125	178.674	184.202	69.274	75.262	223.130	192.467	72.276	76.445	78.655	82.446	232.732	78.888	-8191	255	
42779.441	1	1	0	0	0.084646	0.19318	0.27823	0.11314	0.078631	0.26358	0.23139	0.12033	0.18547	0.053605	0.22503	0.177	0.10784	0.07543	0.25466	0.21425	-1.4792	-1.8875	-2.1542	-1.8917	-2.1292	-2.1875	-1.8271	-2.2229	-1.9333	-1.8167	-2.4125	-1.7771	-1.9792	-2.2604	-1.6583	-2.1729	362.373	92.890	100.633	64.288	294.715	73.920	325.191	396.741	301.027	127.926	375.032	383.469	242.850	92.905	99.232	362.191	0.00012264	0.00018272	3.9959e-05	346.62	1.7244e-06	2.0882e-06	338.45	136.69	1.3497e-06	1.9882e-06	138.37	45.243	45.765	15.803	1.6303e-06	16.234	0.00023532	0.00034465	8.9576e-05	338.17	3.2137e-06	3.4304e-06	329.5	133.91	3.3777e-06	3.6217e-06	134.59	44.846	45.428	15.631	3.4307e-06	15.992	197.414	115.805	164.332	70.822	240.336	257.413	69.432	74.860	222.503	191.542	71.856	76.234	78.766	82.691	248.412	79.328	-8191	255	
42779.535	1	1	0	0	0.38772	0.11403	0.14372	0.093701	0.092266	0.15626	0.18834	0.18262	0.090794	0.10893	0.13666	0.048131	0.27589	0.17917	0.12829	0.26108	-1.6292	-1.8687	-2.3625	-1.9896	-2.0042	-2.2125	-1.8083	-2.1354	-2.3563	-1.9604	-2.4708	-1.9562	-2.0083	-2.1729	-1.7875	-2.1854	400.868	141.635	96.278	190.078	362.674	358.554	110.040	115.204	383.393	264.979	351.720	74.007	387.721	98.569	200.776	63.844	0.00012197	0.00025863	2.2971e-05	346.84	1.9138e-06	2.3349e-06	336.35	135.66	1.8566e-06	1.4166e-06	136.39	44.897	45.408	15.441	1.7197e-06	16.135	0.00022728	0.00034771	8.2381e-05	337.79	3.2447e-06	3.3743e-06	328.7	133.16	3.4176e-06	3.8453e-06	134.01	44.551	44.94	15.41	3.3676e-06	15.891	193.161	120.225	141.163	70.909	200.900	193.749	68.997	74.864	234.844	208.684	71.734	76.100	79.165	82.526	210.076	79.285	-8191	255	
42779.633	1	1	0	0	0.18916	0.13644	0.030326	0.22905	0.48676	0.092751	0.11196	0.25148	0.22067	0.31825	0.13331	0.091501	0.25035	0.28154	0.16022	0.22919	-1.7917	-1.8542	-2.2146	-2.1417	-2.0583	-2.2062	-1.9271	-2.1188	-2.1333	-1.8333	-2.4042	-1.9937	-1.8958	-2.425	-1.9167	-2.1333	206.390	214.608	110.006	67.715	269.197	61.938	353.551	88.102	170.731	364.417	387.886	146.743	359.157	406.699	314.361	152.310	0.00011723	0.00026773	4.967e-05	345.11	1.3024e-06	1.6277e-06	337.85	135.82	1.6589e-06	1.8881e-06	137.91	45.202	45.623	15.517	2.5856e-06	16.242	0.00022176	0.00034694	8.765e-05	336.87	3.4134e-06	3.2654e-06	328.83	133.27	3.1738e-06	3.6023e-06	133.85	44.81	44.944	15.484	3.5742e-06	15.976	193.436	167.229	172.366	71.122	226.703	215.496	69.178	74.596	219.553	202.352	72.195	76.059	78.923	82.500	206.914	80.113	-8191	255	
42779.730	1	1	0	0	0.094576	0.17861	0.16457	0.23865	0.30855	0.27819	0.14873	0.12937	0.052195	0.19105	0.15612	0.10698	0.031975	0.086639	0.099267	0.14063	-1.7271	-1.8146	-2.3	-2.0583	-1.8229	-2.2562	-1.9271	-2.0896	-2.225	-1.9333	-2.0854	-2.15	-1.9354	-2.1271	-1.9583	-1.9562	255.165	337.749	62.785	346.439	188.002	355.888	389.567	395.845	352.438	67.205	229.593	169.195	253.044	334.654	400.473	366.643	0.00012423	0.0002486	3.479e-05	345.78	2.1771e-06	2.2516e-06	340.19	135.75	1.6343e-06	1.9901e-06	137.79	45.633	45.554	15.746	2.3247e-06	16.275	0.00022627	0.00032593	8.4976e-05	337.97	3.0966e-06	3.4357e-06	329.85	133.42	3.1203e-06	3.6865e-06	134.61	45.068	45.223	15.58	3.5407e-06	16.115	196.204	160.184	93.055	71.264	236.909	238.954	69.195	74.973	235.369	197.994	71.943	76.306	79.532	82.638	237.433	79.644	-8191	255	
42779.824	1	1	0	0	0.11651	0.13115	0.13557	0.23839	0.026249	0.053614	0.10789	0.32958	0.19858	0.1944	0.19944	0.057659	0.20128	0.048039	0.19002	0.3353	-1.6979	-1.8479	-2.1396	-2.1542	-1.7146	-2.2896	-1.9667	-2.2438	-2.2354	-1.9875	-2.1021	-2.1396	-1.7292	-2.1479	-2.1	-1.6667	127.551	141.437	266.804	400.959	387.093	69.051	353.544	367.107	204.853	295.452	151.223	121.901	88.574	307.665	147.211	306.611	0.00012721	0.00022439	7.7578e-05	347.47	1.8845e-06	1.9781e-06	338.98	137.1	1.697e-06	2.2436e-06	137.88	45.691	46.021	15.69	1.8749e-06	16.328	0.00021457	0.00034437	8.8426e-05	338.67	3.1732e-06	3.2244e-06	330.64	134.19	3.2218e-06	3.6379e-06	134.52	45.127	45.333	15.576	3.7157e-06	15.997	193.111	144.623	175.407	70.694	209.136	219.562	68.987	74.946	212.958	199.411	71.841	76.287	78.792	82.707	232.239	79.258	-8191	255	
42779.945	1	1	0	0	0.13176	0.36312	0.1492	0.072156	0.102	0.075825	0.12096	0.07185	0.1399	0.058395	0.27798	0.11158	0.42371	0.10374	0.075455	0.19138	-1.8229	-1.7771	-2.025	-2.3063	-1.9625	-2.0896	-1.9083	-1.9562	-2.1312	-1.8604	-2.0479	-2.2229	-1.6583	-2.25	-2.1063	-1.8813	236.465	327.385	357.550	237.916	211.267	114.101	308.237	335.761	409.763	85.089	345.512	363.495	299.948	97.034	243.290	148.373	0.00012536	0.0001397	5.1585e-05	345.02	2.0106e-06	2.196e-06	337.58	135.74	1.7085e-06	2.2434e-06	136.16	45.384	45.557	15.718	1.5633e-06	16.021	0.00021399	0.0003564	9.3963e-05	338.06	3.1224e-06	3.5813e-06	329.84	133.55	3.2182e-06	3.8486e-06	133.5	44.588	45.193	15.512	3.5962e-06	15.843	195.862	160.843	165.111	70.957	198.905	221.171	69.267	75.011	234.048	229.056	72.104	76.476	79.171	82.932	215.675	79.425	-8191	255	
42780.039	1	1	0	0	0.40602	0.21895	0.096542	0.075325	0.14526	0.17106	0.17599	0.13705	0.017106	0.3169	0.076444	0.075768	0.28769	0.10726	0.03601	0.20811	-1.7458	-1.8312	-2.2042	-2.1208	-1.7979	-2.25	-2.2354	-1.7083	-2.3917	-1.8958	-2.1229	-2.1208	-1.775	-1.9771	-1.9062	-1.9979	203.696	132.661	84.190	214.443	169.711	198.466	343.755	207.549	379.673	405.031	388.106	310.887	218.140	75.495	245.905	285.406	0.00011004	0.00033831	4.2234e-05	347.4	1.0988e-06	2.2976e-06	335.82	135.55	1.9266e-06	2.5836e-06	136.02	45.322	45.022	15.622	9.2064e-07	16.072	0.00021182	0.00033262	8.9041e-05	336.9	3.3661e-06	3.6579e-06	328.07	133.3	3.2127e-06	3.4867e-06	133.59	44.612	44.9	15.492	3.3734e-06	15.903	194.962	151.507	129.731	71.442	225.780	212.189	69.061	75.143	215.929	222.094	72.215	76.165	78.917	82.767	261.062	79.950	-8191	255	
42780.137	1	1	0	0	0.079151	0.20681	0.24997	0.040465	0.22826	0.26207	0.097174	0.27709	0.19985	0.20236	0.21422	0.17202	0.26788	0.16055	0.19976	0.1837	-1.8021	-1.8021	-1.9792	-2.2333	-1.6854	-2.1625	-2.1229	-1.8667	-2.1312	-1.9833	-1.8687	-2.2854	-1.775	-2.0438	-2.0604	-1.8458	375.172	118.814	304.097	347.405	61.282	317.813	367.952	302.920	372.730	301.109	57.262	408.043	356.138	250.310	252.202	131.705	0.00013183	0.00015344	2.7388e-05	347.43	1.3746e-06	2.382e-06	337.08	135.95	1.5372e-06	1.6776e-06	137.44	45.457	45.476	15.811	2.8908e-06	16.344	0.00022996	0.00033873	9.7707e-05	337.54	3.3876e-06	3.9307e-06	329.7	133.54	3.3551e-06	3.6844e-06	134.32	45.017	45.138	15.608	3.3179e-06	16.129	194.938	151.605	139.471	71.127	205.697	227.356	69.249	74.851	250.657	211.449	71.954	75.931	79.206	82.835	194.749	79.573	-8191	255	
42780.258	1	1	0	0	0.16516	0.11441	0.16061	0.10657	0.2382	0.26297	0.1156	0.17158	0.23439	0.11003	0.21712	0.096665	0.33788	0.066021	0.090826	0.18189	-1.85	-1.9396	-2.0854	-2.4083	-1.8813	-1.9854	-1.9771	-1.7458	-2.1042	-2.0833	-2.0938	-2.3958	-2.0417	-2.05	-2.1813	-1.8563	174.220	169.359	328.639	378.140	177.982	268.110	392.551	206.547	162.349	113.395	301.754	363.204	197.196	265.922	173.554	313.839	0.0001148	0.00017463	3.7657e-05	346.32	2.3278e-06	1.6688e-06	338.61	137.2	1.6788e-06	1.2453e-06	137.64	45.54	46.543	15.959	2.3201e-06	16.311	0.00022153	0.00035822	9.0165e-05	337.71	3.3032e-06	3.6773e-06	330.6	134.29	3.3514e-06	3.5591e-06	135.21	45.293	45.726	15.733	3.2682e-06	16.145	192.914	104.688	159.074	71.148	210.343	178.126	68.991	75.033	215.198	162.414	71.881	76.310	79.211	82.083	217.831	79.707	-8191	255	
42780.328	1	1	0	0	0.2151	0.17599	0.14543	0.13214	0.030365	0.32907	0.16064	0.29465	0.077025	0.14839	0.19231	0.26077	0.075098	0.20382	0.093228	0.15784	-1.7667	-1.9312	-1.85	-2.3667	-1.9729	-1.9062	-2.4688	-1.7938	-2.2271	-2.0958	-1.7896	-2.1083	-1.8167	-1.8708	-2.3312	-1.7271	283.623	389.456	349.310	344.296	323.843	289.927	400.885	189.701	218.705	92.962	284.932	387.919	78.981	412.125	68.927	74.373	0.00012582	0.00012349	6.338e-05	346.97	2.2272e-06	1.2504e-06	336.44	135.77	2.0314e-06	9.9275e-07	138.28	45.285	45.826	15.698	2.0097e-06	16.101	0.00023159	0.00033348	8.5671e-05	339.08	3.2412e-06	3.5371e-06	328.7	134.01	3.3959e-06	3.504e-06	134.84	44.853	45.245	15.579	3.2146e-06	15.923	194.496	127.667	144.505	71.059	219.679	179.759	69.000	74.567	228.712	179.368	72.061	76.356	79.188	82.458	218.712	79.682	-8191	255	
42780.426	1	1	0	0	0.21558	0.18757	0.27818	0.13412	0.18922	0.21635	0.060517	0.10127	0.15815	0.13252	0.16745	0.26639	0.306	0.22782	0.17875	0.082629	-1.625	-2.0792	-1.7812	-2.0833	-2.1021	-1.8042	-2.4021	-1.9104	-2.1562	-2.2583	-1.7437	-2.1792	-2.1542	-1.8563	-2.2146	-1.975	161.697	63.637	299.186	248.424	134.114	153.647	94.883	276.794	296.417	80.061	248.136	115.966	360.831	263.659	244.433	390.370	0.00012757	0.00011727	7.3979e-05	346.76	3.0108e-06	1.2831e-06	332.28	136.24	1.1824e-06	7.9428e-07	136.21	45.092	45.61	15.593	2.2139e-06	16.075	0.00022301	0.00030348	9.2224e-05	337.4	3.3747e-06	3.5867e-06	326.26	133.17	3.4838e-06	3.1324e-06	133.75	44.534	44.93	15.469	3.2538e-06	15.865	196.912	156.708	154.756	70.883	231.807	250.565	69.427	74.863	257.328	196.693	71.960	76.137	79.145	82.807	188.762	79.825	-8191	255	
42780.520	1	1	0	0	0.17104	0.053652	0.21927	0.32338	0.21726	0.10822	0.063648	0.12241	0.14293	0.10277	0.20343	0.24613	0.017114	0.054959	0.18022	0.16435	-1.375	-2.0771	-1.775	-2.1354	-1.9292	-1.8875	-2.3292	-2.0521	-2.0021	-2.2021	-1.7062	-2.1437	-2.1458	-1.8125	-2.2229	-1.9542	411.088	182.930	337.139	221.534	300.078	135.245	262.441	240.573	339.121	212.567	93.974	270.844	246.246	130.051	373.926	218.557	0.00012023	0.00010609	4.8147e-05	343.32	2.2727e-06	1.6308e-06	336.5	135.21	1.5528e-06	1.2833e-06	137.05	45.413	45.449	15.596	1.3862e-06	16.188	0.00022242	0.00030768	9.0084e-05	336.03	3.1792e-06	3.5533e-06	328.49	132.8	3.4058e-06	3.4241e-06	134.17	44.786	44.999	15.501	3.4403e-06	15.969	198.476	120.668	189.802	70.946	234.553	219.587	69.076	75.083	194.190	205.601	71.807	76.498	79.057	82.188	200.100	79.748	-8191	255	
42780.617	1	1	0	0	0.29725	0.35163	0.21201	0.15082	0.29615	0.1489	0.21958	0.17607	0.038893	0.041634	0.15331	0.22268	0.31179	0.14883	0.12154	0.34864	-1.6187	-2.3854	-1.7646	-2.1104	-2.2104	-1.85	-2.2958	-1.9083	-1.9646	-2.3083	-1.95	-2.1604	-2.2396	-1.8708	-2.2583	-2.0417	194.338	117.182	258.701	300.704	276.063	65.043	93.232	358.282	400.469	144.009	337.330	97.367	118.517	375.056	286.428	136.307	0.00011562	0.00016533	3.6151e-06	343.73	1.4505e-06	1.8807e-06	335.89	135.96	1.3444e-06	1.9221e-06	136.87	45.577	46.062	15.801	2.1089e-06	16.361	0.00021123	0.0003245	9.2839e-05	337.51	3.2516e-06	3.5058e-06	328.66	133.45	3.5763e-06	3.2361e-06	134.51	45.066	45.375	15.656	3.3619e-06	16.209	199.787	137.514	213.383	70.939	243.236	193.245	69.555	75.104	223.049	232.782	72.476	76.277	79.124	82.862	224.192	79.480	-8191	255	
42780.734	1	1	0	0	0.15668	0.095656	0.07923	0.10918	0.013221	0.18736	0.3283	0.094782	0.065703	0.3143	0.0048919	0.26793	0.073942	0.23815	0.17749	0.23857	-1.4562	-2.15	-1.7792	-2.125	-2.1083	-1.8167	-2.0958	-2.1208	-1.9854	-2.2646	-1.9083	-2.0687	-2.3271	-1.8792	-2.1917	-2.1271	326.992	382.081	247.281	368.356	416.423	179.690	196.575	85.357	293.778	215.153	268.716	80.911	137.430	407.134	266.437	213.263	0.00012891	4.2724e-05	2.527e-05	346.21	2.2729e-06	1.3845e-06	336.98	136.39	2.2445e-06	1.2414e-06	137.16	45.816	45.825	15.704	1.3088e-06	16.206	0.00022829	0.00031332	9.6477e-05	338.42	3.026e-06	3.8455e-06	329.48	134	3.4521e-06	3.0309e-06	134.2	45.022	45.391	15.584	3.2749e-06	15.964	188.230	173.435	111.266	70.947	226.858	169.899	69.392	74.868	235.484	225.619	71.725	76.236	78.682	82.688	209.853	79.414	-8191	255	
42780.832	1	1	0	0	0.24021	0.034976	0.23155	0.2951	0.26749	0.12218	0.27136	0.051155	0.095516	0.076012	0.43821	0.12693	0.21796	0.41267	0.01738	0.18291	-1.4688	-2.4021	-1.8937	-1.9417	-2.475	-1.9896	-2.2375	-2.0146	-2.0604	-2.3063	-2.0521	-2.0563	-2.3937	-1.6542	-2.1042	-2.3083	228.768	106.946	346.700	135.122	126.026	243.149	110.222	214.350	81.658	286.247	355.826	230.606	282.817	327.747	307.500	384.027	9.5684e-05	0.00023448	7.2204e-06	344.8	2.4311e-06	2.1469e-06	335.61	135.05	1.6516e-06	1.2113e-06	135.9	45.303	45.273	15.472	1.4767e-06	16.082	0.00021442	0.00030845	9.5273e-05	336.69	3.0053e-06	3.7043e-06	327.4	132.94	3.433e-06	3.464e-06	133.18	44.61	44.891	15.391	3.5445e-06	15.854	197.656	158.500	200.784	71.122	232.325	187.689	69.030	74.735	237.708	226.720	72.034	76.104	78.903	82.366	217.131	79.365	-8191	255	
42780.906	1	1	0	0	0.078926	0.1902	0.11226	0.37885	0.083499	0.25791	0.13497	0.027774	0.12782	0.13316	0.15225	0.027242	0.086579	0.2552	0.26999	0.027329	-1.2458	-2.1688	-1.9354	-1.8104	-2.2354	-1.8292	-2.2146	-2.2438	-1.9125	-2.2667	-2.0687	-1.7833	-2.3271	-1.8167	-2.0917	-2.1375	302.480	241.541	214.597	375.421	262.226	261.990	289.173	319.818	354.994	373.202	154.546	66.556	350.653	376.806	77.328	178.211	0.00011599	0.0001453	2.4175e-05	342.64	2.1909e-06	2.2866e-06	338.77	135.28	1.5306e-06	1.912e-06	136.72	45.557	45.008	15.435	1.594e-06	16.222	0.00020816	0.0003031	8.8961e-05	335.71	2.9597e-06	3.7086e-06	327.53	132.66	3.5953e-06	3.8993e-06	133.61	44.784	44.808	15.356	3.3992e-06	15.877	197.270	150.028	181.154	70.847	211.196	239.915	69.402	74.802	209.692	192.592	71.980	76.242	79.059	82.480	232.950	79.291	-8191	255	
42781.023	1	1	0	0	0.13478	0.085871	0.047671	0.012975	0.26734	0.13542	0.1869	0.20856	0.052003	0.34098	0.099194	0.12453	0.18408	0.26054	0.26553	0.071213	-1.0667	-2.2125	-2.1188	-1.95	-2.3083	-1.9813	-1.8479	-2.2667	-1.7521	-2.4458	-1.9625	-1.9271	-2.3875	-1.9583	-2.1083	-2.075	371.772	323.411	115.749	247.693	386.047	118.832	285.475	345.656	250.623	379.779	98.464	183.680	334.118	237.039	111.207	274.174	0.00012363	0.0003076	2.8258e-05	346.03	1.9574e-06	2.0272e-06	335.94	136.08	1.6695e-06	1.976e-06	137.8	45.546	45.573	15.512	1.7902e-06	16.116	0.00023419	0.00032211	9.1957e-05	336.87	3.0312e-06	3.7021e-06	329.43	133.29	3.6397e-06	3.5137e-06	134.1	44.978	45.128	15.48	3.3141e-06	15.906	199.069	145.903	146.591	71.174	218.197	197.281	69.459	74.950	232.933	210.969	71.825	76.506	79.248	82.374	218.745	79.652	-8191	255	
42781.121	1	1	0	0	0.14512	0.13598	0.053138	0.14447	0.11852	0.10572	0.13886	0.20546	0.32971	0.19114	0.35055	0.13211	0.2064	0.12147	0.15348	0.13907	-1.3271	-2.3979	-2.1854	-1.8563	-2.2771	-2.0583	-1.925	-2.2896	-1.8563	-2.2646	-2.1604	-1.6646	-2.1	-1.9229	-1.8292	-2.3021	289.203	183.011	208.242	162.678	197.230	263.503	256.683	189.690	387.755	122.563	385.095	117.399	221.836	263.006	99.149	294.257	0.00012676	0.00022914	4.8013e-05	346.42	2.1707e-06	1.5531e-06	344.15	136.97	2.1411e-06	2.2841e-06	137.93	45.728	45.841	15.633	1.6958e-06	16.183	0.00022965	0.00032698	8.8373e-05	338.92	3.2326e-06	3.5587e-06	332.68	134.32	3.6161e-06	3.491e-06	134.87	45.035	45.47	15.57	3.2883e-06	15.96	187.584	141.875	141.819	71.120	229.487	157.950	69.167	74.643	214.960	186.568	72.174	76.398	78.655	83.074	222.341	79.648	-8191	255	
42781.219	1	1	0	0	0.13057	0.20128	0.11223	0.015207	0.28126	0.075497	0.11963	0.11581	0.068548	0.3363	0.1284	0.032145	0.2066	0.14204	0.040606	0.12978	-1.4083	-2.1292	-1.9542	-1.8229	-2.3896	-2.2771	-1.9688	-2.2479	-1.9771	-1.9479	-2.4062	-1.6333	-2.275	-2.0438	-1.7917	-2.3083	63.877	275.125	253.949	383.859	319.286	389.970	385.406	376.011	225.341	62.261	248.593	170.498	323.661	217.106	256.164	407.257	0.00010883	0.00017651	1.3862e-05	346.5	1.0442e-06	2.4335e-06	339.23	136.59	7.6692e-07	1.6398e-06	137.02	45.325	45.487	15.594	1.03e-06	15.929	0.00022549	0.00031542	8.5671e-05	338.11	2.9718e-06	3.5058e-06	329.2	133.74	3.5953e-06	3.5774e-06	134.31	44.777	45.069	15.455	3.4785e-06	15.774	192.423	141.403	109.613	70.646	282.794	238.855	69.478	75.077	204.746	199.581	72.516	75.857	79.188	82.863	259.884	79.346	-8191	255	
42781.336	1	1	0	0	0.28312	0.1906	0.10487	0.14084	0.14818	0.26885	0.26499	0.20529	0.10898	0.30716	0.34235	0.3347	0.15958	0.047572	0.14882	0.12045	-1.4625	-2.0438	-2.1292	-1.8312	-2.2167	-1.9042	-1.8708	-2.1479	-1.7396	-2.0187	-2.3208	-1.75	-2.1542	-2.0646	-1.8604	-2.25	77.918	401.980	377.954	287.013	239.670	267.989	271.333	408.289	406.159	340.919	110.470	265.797	339.902	105.105	300.130	118.681	0.00013053	0.00024447	4.9873e-05	343.76	2.843e-06	1.8687e-06	336.51	135.91	1.6664e-06	1.6501e-06	137.06	45.129	45.342	15.465	1.7936e-06	16.043	0.0002293	0.00031351	7.9733e-05	336.35	3.2421e-06	3.4077e-06	328.32	133.18	3.6986e-06	3.5569e-06	133.64	44.583	44.95	15.386	3.3284e-06	15.833	197.308	151.699	146.047	71.288	216.461	243.495	69.219	74.774	210.851	198.645	72.139	76.415	79.002	82.732	215.876	79.458	-8191	255	
42781.434	1	1	0	0	0.050115	0.18146	0.27284	0.12504	0.15308	0.1876	0.076314	0.24231	0.076446	0.17351	0.14725	0.080797	0.087527	0.25146	0.24107	0.076078	-1.6042	-2.0667	-2.0812	-1.8583	-2.1958	-2.0521	-1.8979	-2.3125	-2.0333	-2.0229	-2.2375	-1.7542	-2.2229	-2.2979	-1.8146	-2.2896	301.715	322.422	214.233	332.142	273.724	113.129	292.201	395.250	183.590	166.582	409.259	233.053	278.046	328.891	150.339	303.675	0.00014382	0.00024143	7.0117e-05	344.43	1.261e-06	2.4812e-06	336.43	135.77	1.7303e-06	9.4295e-07	136.73	45.393	45.724	15.714	6.3977e-07	16.283	0.00022231	0.0003309	8.987e-05	336.89	3.243e-06	3.398e-06	328.19	133.56	3.2553e-06	3.5461e-06	134.14	44.886	45.196	15.539	3.7855e-06	16.05	193.865	151.917	167.619	71.193	203.351	211.579	69.595	74.671	220.945	161.968	72.021	76.542	78.613	82.543	218.006	79.071	-8191	255	
42781.527	1	1	0	0	0.14133	0.090798	0.23591	0.19391	0.25199	0.27272	0.11685	0.092666	0.13986	0.26196	0.29948	0.060953	0.33365	0.21975	0.23396	0.22711	-1.6688	-1.9896	-2.2542	-2.1354	-2.0896	-2.2188	-1.9917	-2.3063	-2.2958	-1.7771	-2.2979	-1.9792	-2.1833	-2.2333	-1.8521	-2.3479	107.532	218.797	257.324	416.234	403.043	344.816	363.266	67.663	296.323	134.245	398.762	323.043	59.551	67.043	209.117	313.236	0.00012035	0.00021313	1.3574e-05	344.53	2.0156e-06	2.6309e-06	337.78	136.28	2.6266e-06	1.8069e-06	137.54	45.996	45.833	15.731	2.4162e-06	16.376	0.00022347	0.00030386	8.3745e-05	337.41	3.1087e-06	3.2675e-06	329.48	133.88	3.2789e-06	3.585e-06	134.69	45.256	45.512	15.677	3.7845e-06	16.158	193.834	164.134	133.424	70.837	226.899	199.887	69.083	74.784	244.337	221.783	71.847	76.531	79.008	82.912	230.644	79.855	-8191	255	
42781.625	1	1	0	0	0.12038	0.063362	0.17632	0.17254	0.04179	0.077241	0.21538	0.2425	0.22857	0.20361	0.21779	0.10132	0.21359	0.20673	0.093145	0.049959	-1.7875	-1.6417	-2.3625	-1.8188	-1.9813	-2.3979	-1.9	-2.2438	-2.2062	-1.9271	-2.4583	-1.9188	-1.65	-2.35	-2.0208	-2.1125	319.689	376.202	190.767	140.366	305.950	196.180	356.723	238.075	261.766	372.576	240.358	347.447	336.546	381.417	217.551	290.938	0.00012376	0.0002484	5.4956e-05	345.27	1.8246e-06	3.0712e-06	335.6	137.03	1.5565e-06	1.4503e-06	136.81	45.216	45.726	15.781	2.4825e-06	16.022	0.00022254	0.00033653	8.7624e-05	337.25	3.0536e-06	3.5123e-06	327.79	133.95	3.3088e-06	3.6736e-06	133.86	44.627	45.17	15.573	3.6679e-06	15.847	193.577	171.294	138.224	70.763	253.606	202.073	68.928	75.150	187.668	218.656	71.937	76.110	78.853	82.682	213.735	79.374	-8191	255	
42781.719	1	1	0	0	0.23119	0.38233	0.1227	0.10682	0.10681	0.24114	0.14145	0.080583	0.16843	0.22365	0.25832	0.087135	0.25179	0.094181	0.10816	0.20412	-1.7854	-1.8937	-2.4	-2.0687	-2.0083	-2.2	-1.9896	-2.0979	-2.0938	-1.8479	-2.2271	-2.1562	-1.8937	-2.4333	-1.9646	-2.0104	254.145	359.087	61.148	317.905	138.549	202.559	134.393	86.261	396.641	135.027	156.870	213.029	205.672	207.753	135.888	278.338	0.00012599	0.00023938	6.6533e-05	344.76	1.2425e-06	2.8349e-06	335.81	134.61	1.6501e-06	1.5033e-06	135.69	44.945	45.116	15.526	2.035e-06	16.02	0.00021722	0.00036223	9.1502e-05	335.81	3.0406e-06	3.48e-06	326.12	132.64	3.2445e-06	3.8442e-06	132.92	44.295	44.763	15.445	3.7597e-06	15.752	194.810	141.913	121.574	71.327	218.237	165.792	69.170	75.062	203.013	259.777	71.857	76.702	78.935	82.572	200.495	79.331	-8191	255	
42781.816	1	1	0	0	0.13943	0.044938	0.20912	0.21686	0.082108	0.14026	0.25667	0.15499	0.097228	0.16415	0.1709	0.21668	0.24819	0.13274	0.074226	0.15296	-1.7729	-1.6146	-2.1104	-2.1417	-1.9979	-2.2667	-2.125	-2.1167	-2.2	-1.9417	-2.1958	-2.2104	-1.8438	-2.3438	-1.9521	-2.1458	408.603	199.993	94.387	377.773	299.703	361.795	99.623	355.746	279.461	223.876	65.571	79.949	270.623	121.343	337.455	150.719	0.0001353	0.00017797	6.8781e-05	343.64	2.0076e-06	3.0007e-06	331.2	133.76	7.4404e-07	1.0357e-06	134.63	44.585	45.408	15.45	2.4692e-06	15.85	0.00021438	0.00034494	8.5725e-05	333.67	3.224e-06	3.535e-06	324.33	131.96	3.2309e-06	3.7675e-06	132.01	44.005	44.642	15.347	3.4441e-06	15.688	197.212	128.065	163.696	71.082	198.932	209.077	69.149	74.942	229.439	191.602	71.737	76.330	78.753	83.231	215.196	79.493	-8191	255	
42781.910	1	1	0	0	0.061089	0.30272	0.27395	0.077562	0.15162	0.34291	0.12176	0.088333	0.15015	0.16288	0.097445	0.11656	0.12337	0.12787	0.13292	0.22271	-1.9646	-1.8583	-2.1937	-2.2104	-2.0708	-2.2479	-2.3438	-1.9792	-2.2896	-1.9958	-2.0167	-2.15	-1.7604	-2.2542	-2.0083	-2.0917	282.876	373.663	256.506	404.030	288.812	167.280	220.587	361.731	396.537	156.721	171.566	359.535	351.398	70.069	158.224	372.996	0.00011903	8.5111e-05	8.0973e-05	342.97	2.1886e-06	2.0128e-06	333.54	133.32	2.2278e-06	1.0579e-06	134.51	44.686	45.108	15.424	1.4e-06	15.833	0.0002197	0.00033959	9.193e-05	333.67	3.4917e-06	3.8649e-06	323.1	131.12	3.4765e-06	3.8583e-06	131.3	43.953	44.568	15.325	3.4805e-06	15.653	196.185	142.015	166.327	71.179	242.382	237.327	69.426	74.921	231.544	193.212	72.080	76.310	78.697	82.384	212.271	79.527	-8191	255	
42782.031	1	1	0	0	0.19057	0.19026	0.19612	0.13656	0.08625	0.093982	0.1036	0.13579	0.052858	0.02535	0.37726	0.083907	0.17153	0.26808	0.14731	0.11841	-1.7188	-1.8042	-1.9562	-2.2271	-1.7729	-2.1271	-1.9979	-1.9229	-2.3229	-1.7583	-1.9333	-2.325	-1.7188	-2.3146	-1.8188	-2.1958	280.489	200.231	319.170	106.690	333.378	371.428	366.795	363.113	204.115	87.294	188.046	316.293	103.536	251.941	341.179	339.533	0.00011884	0.00015436	6.0406e-05	343.47	1.3831e-06	2.4591e-06	327.73	133.35	2.6562e-06	1.734e-06	133.3	43.255	44.363	15.186	2.0056e-06	15.561	0.00021624	0.00034379	9.744e-05	333.76	3.4246e-06	3.6255e-06	321.05	130.67	3.4212e-06	3.7816e-06	129.91	43.096	43.879	15.071	3.338e-06	15.286	196.101	148.105	120.236	70.864	225.761	165.738	69.458	75.035	229.554	199.693	71.649	75.731	78.632	82.108	201.979	79.353	-8191	255	
42782.129	1	1	0	0	0.1021	0.11559	0.097679	0.17858	0.30435	0.22133	0.29045	0.15172	0.20158	0.13879	0.26676	0.25877	0.16019	0.15923	0.057872	0.12315	-1.8542	-1.8	-1.9375	-2.0771	-2.0167	-2.1729	-1.9604	-1.8333	-2.0896	-2.0604	-2.0479	-2.2854	-1.7042	-1.8854	-2.1583	-1.9146	148.252	304.374	73.841	366.642	182.524	142.674	348.170	207.427	233.883	107.995	286.360	161.020	277.747	278.821	66.259	130.621	0.00012824	0.00021552	5.8834e-05	337.82	1.57e-06	1.362e-06	326.74	133.38	1.3599e-06	2.9295e-06	130.85	43.23	44.003	15.017	7.8904e-07	15.418	0.00022794	0.00035497	8.8907e-05	329.65	3.6493e-06	3.5457e-06	317.31	130.04	3.3741e-06	3.5904e-06	128.53	42.793	43.617	14.957	3.1735e-06	15.177	192.726	158.617	140.275	70.951	236.842	216.882	68.883	74.827	214.660	193.110	71.632	76.023	78.671	82.338	191.848	79.141	-8191	255	
42782.199	1	1	0	0	0.23567	0.31358	0.19946	0.3247	0.22023	0.11111	0.28287	0.27898	0.14687	0.19198	0.13816	0.23071	0.23243	0.20158	0.29666	0.16188	-1.7167	-1.9646	-1.9083	-2.2833	-1.8687	-2.2188	-2.1188	-1.9354	-2.2313	-2.0938	-1.9167	-2.3167	-1.8458	-2.1813	-2.3312	-1.8687	381.905	352.909	273.450	338.321	397.253	219.121	88.021	135.344	200.758	148.277	357.468	94.261	217.695	378.774	189.124	348.963	0.00011251	0.00021822	5.6759e-05	336.64	7.0625e-07	2.56e-06	326.41	131.33	1.6611e-06	1.7766e-06	131.92	43.74	44.349	15.105	2.2076e-06	15.43	0.00022592	0.00032163	9.0111e-05	328.82	3.4651e-06	3.481e-06	318.02	129.28	3.3542e-06	3.558e-06	129	43.07	43.81	14.98	3.3208e-06	15.318	198.166	129.149	120.631	71.081	256.439	213.917	69.365	74.694	234.084	188.192	71.577	76.343	79.030	82.173	221.278	79.256	-8191	255	
42782.297	1	1	0	0	0.033404	0.040936	0.33827	0.13397	0.1326	0.078861	0.13086	0.17857	0.11682	0.12952	0.22839	0.23847	0.15762	0.17249	0.14071	0.3123	-1.9	-2.1479	-1.7062	-2.225	-1.8438	-2.2	-2.2604	-1.8542	-2.1792	-2.15	-1.7917	-2.3063	-1.8875	-1.9	-2.15	-1.7646	297.740	396.808	289.992	213.960	66.589	338.776	380.808	105.728	349.301	276.782	338.619	82.783	158.506	104.721	75.076	345.119	0.00010813	0.00017169	2.8127e-05	339.03	1.6551e-06	2.9775e-06	326.78	132.72	9.5392e-07	1.4889e-06	133.58	43.77	44.364	15.235	2.2105e-06	15.654	0.0002206	0.0003117	9.3187e-05	331.1	3.2059e-06	3.5943e-06	319.56	130.34	3.1937e-06	3.4057e-06	130.11	43.297	44.196	15.169	3.3074e-06	15.443	201.071	145.958	181.295	70.888	223.614	189.451	69.485	75.232	227.746	208.103	71.886	76.471	79.025	82.751	234.706	79.594	-8191	255	
42782.418	1	1	0	0	0.079442	0.11132	0.26851	0.13262	0.1453	0.10355	0.11527	0.30273	0.0639	0.10952	0.032499	0.15168	0.16819	0.20461	0.023498	0.41032	-1.6833	-1.9771	-1.7042	-2.0438	-2.0312	-1.9667	-2.125	-1.9042	-2.0687	-2.2333	-1.8646	-2.0938	-2.1188	-1.9229	-2.4875	-1.9729	259.612	318.524	327.793	290.720	94.903	365.581	131.372	296.931	96.733	72.284	294.860	253.221	171.758	381.838	235.431	91.551	0.00011741	0.00013818	4.0059e-05	341.57	1.3001e-06	1.1073e-06	330.97	134.06	1.82e-06	1.6363e-06	132.81	44.078	44.625	15.396	2.3117e-06	15.69	0.00021644	0.00029527	8.9309e-05	332.49	3.0759e-06	3.5371e-06	322.03	131.43	3.1194e-06	3.3517e-06	130.5	43.652	44.125	15.206	3.229e-06	15.472	196.673	168.565	155.149	71.203	211.409	223.118	69.128	75.056	220.494	154.355	72.254	76.197	78.614	82.362	219.840	79.673	-8191	255	
42782.516	1	1	0	0	0.1188	0.22257	0.081377	0.082906	0.10545	0.072327	0.098985	0.21114	0.080855	0.17388	0.036607	0.34962	0.27082	0.060475	0.24513	0.34126	-1.6792	-2.0812	-1.6896	-2.2479	-1.9625	-1.9917	-2.2146	-1.9229	-2.1771	-2.3396	-1.8583	-2.1667	-2.1417	-1.8813	-2.3458	-1.7563	197.493	215.476	104.618	164.189	194.674	350.195	360.574	56.979	340.874	299.099	250.431	252.420	233.920	382.985	394.690	411.122	0.00010443	0.00030615	3.8715e-05	340.04	1.7178e-06	2.9107e-06	328.64	132.64	1.2806e-06	2.8123e-06	132.9	43.924	44.753	15.273	1.9636e-06	15.658	0.0002068	0.0003222	8.9817e-05	332.85	3.1594e-06	3.7043e-06	320.32	130.71	3.2146e-06	3.2847e-06	130.16	43.296	44.22	15.169	3.1133e-06	15.37	190.484	160.114	121.287	71.420	292.775	236.361	68.999	74.570	235.735	242.947	72.192	76.188	79.305	82.563	243.718	79.598	-8191	255	
42782.609	1	1	0	0	0.11099	0.046336	0.14379	0.086706	0.22939	0.049967	0.19066	0.16668	0.27461	0.19077	0.31667	0.10596	0.13601	0.21839	0.21902	0.10961	-1.6292	-2.3729	-1.7083	-2.2958	-2.0333	-1.8583	-2.1042	-1.8563	-2.0208	-2.3021	-1.925	-2.3271	-2.1813	-2.0062	-2.3563	-2.0771	306.996	194.765	201.588	214.393	206.232	224.813	204.563	308.255	75.138	150.869	398.003	312.144	61.410	372.595	241.432	246.663	0.00010287	0.00013616	7.73e-05	339.65	1.4231e-06	2.1873e-06	325.76	132.3	1.3587e-06	1.3068e-06	131.42	43.635	44.267	15.214	2.1723e-06	15.546	0.00020677	0.00030663	9.4685e-05	331.87	2.9459e-06	3.5695e-06	319.14	130.21	3.3895e-06	3.3452e-06	129.32	43.084	43.878	15.07	3.2596e-06	15.286	194.234	113.367	151.338	70.915	250.482	200.824	69.449	75.154	200.863	234.661	72.108	76.329	79.230	82.380	235.788	79.494	-8191	255	
42782.707	1	1	0	0	0.13513	0.20578	0.11086	0.20807	0.070827	0.13373	0.089508	0.13752	0.21367	0.17739	0.2197	0.24514	0.23743	0.12076	0.070483	0.17849	-1.325	-2.3917	-1.8458	-2.1792	-2.2333	-1.9604	-2.2875	-1.9646	-1.8563	-2.3875	-1.8083	-2.2229	-2.125	-1.8375	-2.2146	-2.1771	339.167	190.945	99.233	76.733	211.363	184.734	337.761	369.041	216.506	270.574	390.583	289.735	261.030	176.504	251.453	333.162	0.0001193	0.00010625	5.3109e-05	341.71	1.304e-06	1.6911e-06	328.91	132.64	1.6708e-06	1.0124e-06	131.53	43.914	44.309	15.184	1.3954e-06	15.693	0.00021259	0.00031619	9.1127e-05	332.63	2.9864e-06	4.127e-06	320.9	130.58	3.1629e-06	3.5418e-06	129.98	43.286	43.963	15.068	3.2395e-06	15.446	191.788	109.399	147.513	70.874	217.015	193.133	69.037	74.832	215.101	199.658	71.989	75.933	79.033	82.568	190.048	79.931	-8191	255	
42782.801	1	1	0	0	0.18994	0.10598	0.078776	0.2375	0.27141	0.13081	0.28742	0.062993	0.23158	0.34197	0.21113	0.098391	0.12166	0.22668	0.076157	0.098098	-1.4771	-2.2083	-1.9333	-2.2354	-2.1625	-1.6458	-2.3312	-2.1958	-1.7771	-2.4688	-1.8521	-2.1958	-2.1479	-1.9667	-2.1271	-2.1271	270.940	118.275	72.986	258.112	411.773	394.630	283.769	126.653	75.693	407.115	409.658	403.750	391.394	68.689	243.390	63.134	0.00011272	0.00010035	6.4502e-05	340.88	8.8338e-07	2.2299e-06	330.61	133.88	2.316e-06	5.6168e-07	134.31	44.287	44.777	15.447	1.6271e-06	15.845	0.00021376	0.0003223	9.3561e-05	333.32	2.9701e-06	3.8294e-06	322.67	131.35	3.3922e-06	3.2134e-06	131.14	43.815	44.313	15.258	3.2127e-06	15.61	192.560	132.295	168.670	71.188	210.123	200.141	68.794	74.628	214.579	245.408	72.342	76.590	79.103	82.279	220.575	79.205	-8191	255	
42782.898	1	1	0	0	0.2554	0.080551	0.27749	0.27902	0.38545	0.38821	0.15212	0.22507	0.17603	0.15001	0.14904	0.096482	0.046649	0.17141	0.035658	0.1871	-1.4396	-2.3146	-1.9312	-2.1271	-2.3896	-1.7104	-2.3646	-2.2333	-1.8479	-2.3688	-1.8792	-1.9958	-2.1771	-1.8937	-2.0646	-2.1208	410.803	230.507	396.648	367.811	149.548	344.248	139.875	255.010	324.318	80.207	330.931	326.673	373.626	314.052	240.393	59.397	0.00011603	0.00017716	4.3028e-05	343.21	1.5321e-06	2.342e-06	331.44	133.8	1.1616e-06	1.8549e-06	131.92	44.047	44.784	15.284	1.9448e-06	15.596	0.00021854	0.00031571	9.2411e-05	334.79	3.0329e-06	3.6051e-06	322.09	131.17	3.3623e-06	3.3387e-06	129.83	43.428	44.103	15.117	3.3944e-06	15.343	189.384	157.236	145.292	70.868	261.041	226.685	68.833	74.762	203.174	167.193	71.955	76.494	78.800	82.655	192.817	79.894	-8191	255	
42783.016	1	1	0	0	0.22305	0.32708	0.11142	0.067635	0.26338	0.16744	0.24144	0.11338	0.31738	0.089992	0.10303	0.12513	0.15603	0.24582	0.11258	0.053703	-1.25	-2.325	-2.2792	-1.9062	-2.2917	-1.95	-2.2604	-2.1813	-1.7812	-2.3229	-2.1562	-1.9083	-2.2458	-1.9125	-2.0375	-2.1375	262.911	90.533	314.625	336.033	273.822	172.367	102.348	370.670	149.870	310.229	150.862	399.964	253.391	102.370	111.291	140.515	0.00011088	0.00021582	2.9995e-05	340.34	1.2651e-06	1.6764e-06	329.48	132.36	2.0979e-06	1.8494e-06	132.2	43.498	44.076	15.044	1.7192e-06	15.338	0.00022188	0.00031141	8.7864e-05	331.7	3.0381e-06	3.6579e-06	321.39	129.93	3.433e-06	3.2966e-06	129.53	42.895	43.58	14.91	3.2414e-06	15.162	198.937	172.397	93.145	71.080	232.164	219.394	69.299	74.808	199.045	196.488	71.850	76.285	79.095	82.330	187.958	79.425	-8191	255	
42783.113	1	1	0	0	0.25362	0.21794	0.23101	0.22433	0.20725	0.11944	0.22165	0.18855	0.24675	0.071366	0.15349	0.3332	0.062925	0.066057	0.1165	0.28214	-1.2333	-2.2083	-1.9021	-1.9646	-2.2667	-1.8104	-1.8438	-2.0333	-1.5583	-2.2083	-2.0312	-1.8125	-2.2604	-2.0062	-1.8625	-2.2583	64.889	309.770	342.310	70.308	322.652	324.472	292.528	97.408	125.003	209.143	294.875	59.360	316.545	189.102	263.022	360.694	0.00011525	0.00032626	4.9901e-05	338.84	2.0585e-06	2.001e-06	331.14	131.99	9.6707e-07	9.3985e-07	132.32	43.948	44.151	15.027	2.3644e-06	15.639	0.00022409	0.00032163	8.6714e-05	331.16	3.001e-06	3.4584e-06	320.5	129.82	3.2753e-06	3.4133e-06	129.62	43.165	43.646	14.951	3.2003e-06	15.344	196.833	178.106	158.142	71.308	231.990	196.612	69.327	74.571	280.408	186.872	72.002	76.235	79.009	82.327	230.453	79.939	-8191	255	
42783.211	1	1	0	0	0.21239	0.26011	0.2773	0.10564	0.12464	0.26712	0.14467	0.28589	0.26349	0.17512	0.14085	0.35389	0.20668	0.16015	0.015612	0.28073	-1.3479	-2.2854	-1.95	-1.8708	-2.175	-1.9417	-2.0354	-2.2604	-1.9417	-2.2396	-2.0479	-1.8542	-2.3458	-1.9021	-1.9396	-2.2687	342.578	359.060	327.801	363.993	195.212	226.531	242.194	369.516	108.184	137.045	278.330	347.221	70.185	343.874	351.628	285.530	0.00010683	0.00021275	4.8391e-05	340.85	2.3176e-06	1.2074e-06	331	132.56	1.9755e-06	1.9245e-06	133.8	43.703	44.56	15.12	2.64e-06	15.774	0.00022126	0.00029756	8.642e-05	332.78	3.1095e-06	3.2891e-06	322.8	130.56	3.4693e-06	3.3841e-06	130.42	43.396	44.089	14.999	3.5244e-06	15.498	194.283	152.307	146.597	71.117	242.844	257.660	69.001	75.143	237.027	226.291	71.719	76.065	79.009	82.779	221.407	79.656	-8191	255	
42783.305	1	1	0	0	0.18117	0.12711	0.2654	0.031851	0.060462	0.38455	0.18279	0.25201	0.2891	0.11501	0.30031	0.057458	0.10815	0.24963	0.25333	0.16861	-1.4875	-2.0438	-2.1896	-1.8125	-2.1917	-1.9125	-1.9312	-2.2583	-1.8604	-2.075	-2.0417	-1.6812	-2.0646	-1.9896	-1.8583	-2.3271	186.394	383.727	220.036	172.783	164.328	200.053	76.087	247.590	358.641	232.388	356.111	384.552	403.978	127.305	106.888	139.320	0.00012375	8.9391e-05	7.5519e-05	343.06	1.5383e-06	8.9667e-07	332.29	133.8	9.597e-07	1.2386e-06	133.71	43.853	44.661	15.152	1.2798e-06	15.66	0.00022238	0.00030186	8.543e-05	335.38	2.9589e-06	3.577e-06	324.9	131.32	3.3215e-06	3.3366e-06	131.19	43.428	44.203	15.089	3.5187e-06	15.401	187.260	105.182	174.680	70.899	247.094	205.088	68.925	74.586	237.275	211.288	72.151	76.086	78.893	82.414	238.522	79.759	-8191	255	
42783.426	1	1	0	0	0.13407	0.18209	0.04063	0.10453	0.27524	0.19439	0.36656	0.07546	0.1811	0.19583	0.11763	0.10734	0.27969	0.13374	0.18815	0.1099	-1.5625	-2.2083	-2.3354	-1.8917	-2.2208	-2.1458	-1.9646	-2.4167	-2.0604	-2.1292	-2.2625	-1.8479	-2.2604	-2.1667	-1.7458	-2.2875	191.795	95.522	218.419	356.449	323.611	128.498	265.796	242.021	183.072	266.430	68.242	81.318	350.410	134.123	405.990	97.526	0.00012518	0.00011146	4.4949e-05	341.6	1.7528e-06	2.2352e-06	332.14	133.53	2.1295e-06	2.1354e-06	133.42	43.714	44.579	15.012	3.36e-07	15.401	0.0002176	0.00031886	8.4815e-05	333.69	2.8926e-06	3.1791e-06	323.77	130.94	3.113e-06	3.5418e-06	130.32	43.359	43.965	14.947	3.4479e-06	15.26	193.946	152.486	158.465	71.383	201.306	181.956	69.155	74.566	213.953	170.767	71.858	76.548	79.128	82.339	65.013	79.475	-8191	255	
42783.496	1	1	0	0	0.26506	0.12602	0.10403	0.28004	0.15036	0.075036	0.17608	0.19077	0.17539	0.24777	0.12681	0.031988	0.12097	0.19142	0.36592	0.20467	-1.3875	-2.0479	-2.2313	-1.8813	-2.2583	-2.2625	-1.7583	-2.275	-2.0896	-1.9292	-2.3854	-2.0125	-2.2167	-2.1792	-1.875	-2.3542	116.629	298.901	354.664	224.605	372.133	233.184	128.653	89.383	186.644	131.714	276.164	315.708	107.676	122.111	308.893	341.991	0.00010935	0.00028056	2.103e-05	342.07	1.6659e-06	1.8973e-06	331.66	133.52	2.2023e-06	1.9637e-06	132.86	43.828	44.297	14.991	1.4008e-06	15.565	0.00020358	0.00034914	8.6072e-05	333.72	3.0475e-06	3.3689e-06	322.9	130.83	3.0976e-06	3.7395e-06	130.32	43.301	43.93	14.931	3.3437e-06	15.283	198.813	132.696	125.104	70.841	223.909	212.620	69.051	74.884	222.971	196.842	72.081	76.352	79.381	82.883	177.590	79.423	-8191	255	
42783.594	1	1	0	0	0.094122	0.058733	0.12829	0.18613	0.18214	0.04977	0.1227	0.20379	0.1204	0.23355	0.080387	0.27818	0.32737	0.24125	0.14446	0.19333	-1.5167	-1.7729	-2.2396	-2.0062	-1.9854	-2.15	-1.9729	-2.1042	-2.0146	-2.1021	-2.3312	-1.775	-1.9125	-2.2083	-1.7812	-2.1854	275.966	321.402	333.343	375.125	126.749	115.290	148.684	400.852	356.694	326.445	361.361	116.141	315.391	324.203	370.284	398.143	0.00011451	0.00026275	4.499e-05	340.34	1.461e-06	1.9461e-06	331.68	133.14	1.9798e-06	8.756e-07	134.18	44.199	44.484	15.071	1.2083e-06	15.566	0.00021562	0.00032755	8.1044e-05	333.34	3.0932e-06	3.3764e-06	323.84	130.83	3.3723e-06	3.9166e-06	130.6	43.438	44.063	15.035	3.4068e-06	15.432	189.378	146.393	167.909	70.797	209.964	218.483	69.271	74.785	226.598	236.742	72.110	76.107	79.190	82.473	145.214	79.345	-8191	255	
42783.715	1	1	0	0	0.19633	0.17527	0.17947	0.19184	0.09005	0.2081	0.20956	0.23423	0.1839	0.11868	0.12553	0.047843	0.14496	0.185	0.20871	0.21998	-1.7458	-1.7333	-2.2812	-2.0542	-1.85	-2.3708	-1.9	-2.1917	-1.9833	-1.6354	-2.2938	-2.1063	-2.0771	-2.2604	-1.7812	-2.1229	271.336	325.481	80.810	393.686	101.158	274.509	103.860	395.818	380.989	296.311	390.350	389.605	92.852	230.849	252.794	151.183	0.00011798	0.00019969	6.5335e-05	344.57	1.692e-06	3.1566e-06	333.32	133.84	9.99e-07	8.07e-07	134.69	44.598	45.006	15.484	2.6853e-06	15.834	0.00020983	0.00034971	8.9095e-05	334.79	3.1233e-06	3.2902e-06	325.37	131.52	3.2336e-06	3.6865e-06	131.95	43.925	44.547	15.258	3.1735e-06	15.571	194.090	156.601	132.014	71.178	219.497	205.846	68.837	74.907	205.896	183.286	71.550	76.470	78.905	82.314	218.857	79.379	-8191	255	
42783.809	1	1	0	0	0.38452	0.13114	0.13466	0.18719	0.35333	0.19963	0.17281	0.14285	0.31011	0.23486	0.16244	0.18311	0.16226	0.1473	0.28199	0.10276	-1.6562	-1.8417	-2.2938	-2.1104	-1.8833	-2.1854	-1.9833	-2.1063	-1.9521	-1.7812	-2.2	-2.0125	-1.8625	-2.0896	-1.8958	-2.2417	289.722	373.917	74.344	412.719	156.452	136.673	264.441	227.795	193.764	398.525	378.030	222.981	179.113	91.048	265.738	239.494	0.0001218	8.2192e-05	4.9571e-05	342.83	1.4451e-06	1.8256e-06	332.41	134.25	1.0115e-06	8.5524e-07	133.98	43.94	44.488	15.276	1.0198e-06	15.667	0.00022211	0.00033596	8.2702e-05	335.27	3.0604e-06	3.5166e-06	324.31	131.67	3.4249e-06	3.7513e-06	130.75	43.413	44.101	15.051	3.2232e-06	15.363	194.700	148.297	112.748	70.977	245.639	218.924	69.387	74.883	250.029	207.278	71.768	76.432	79.265	83.011	223.466	79.518	-8191	255	
42783.906	1	1	0	0	0.08715	0.098839	0.17758	0.14627	0.058583	0.2099	0.30815	0.24801	0.23736	0.14933	0.090533	0.22167	0.14935	0.067191	0.14737	0.2432	-1.6562	-1.8083	-2.2417	-2	-1.8896	-2.2854	-1.8521	-1.8771	-2.1896	-1.8479	-2.2917	-1.8604	-1.8646	-2.3104	-1.7625	-2.025	186.897	218.264	230.355	116.950	331.625	380.353	232.680	308.993	92.751	199.137	292.406	307.103	237.171	88.058	101.386	220.947	0.00012541	0.00010983	3.9768e-05	342.06	1.9594e-06	2.0595e-06	331.25	133.25	1.6152e-06	4.1726e-07	134.16	43.573	44.625	15.023	2.1225e-06	15.578	0.00022048	0.00033204	8.2328e-05	333.24	3.3015e-06	3.3344e-06	323.02	130.51	3.2726e-06	3.477e-06	130.56	43.131	43.953	14.966	3.3743e-06	15.306	189.585	127.644	179.559	70.790	201.951	230.379	69.082	74.635	221.875	250.605	72.333	76.480	78.987	82.435	230.837	79.906	-8191	255	
42784.000	1	1	0	0	0.14022	0.21971	0.15771	0.036847	0.1194	0.27984	0.20963	0.17891	0.18493	0.095813	0.19428	0.090946	0.02282	0.16418	0.10539	0.2778	-1.7979	-1.8521	-1.9625	-2.1583	-1.9625	-2.3375	-2.1042	-2.0854	-2.2938	-1.7646	-1.8979	-2.0458	-1.8687	-2.2354	-2.0187	-1.8417	254.706	326.573	272.454	93.399	285.402	317.433	376.601	351.477	148.762	416.769	116.592	347.060	338.600	371.262	170.716	217.129	0.00011416	0.00022172	5.3448e-05	339.57	1.1055e-06	1.4386e-06	332.58	133.12	2.6529e-06	1.4916e-06	134.63	44.058	44.42	15.027	1.3511e-06	15.631	0.00021729	0.000335	8.971e-05	333.65	3.3032e-06	3.2373e-06	323.64	131.12	3.3387e-06	3.3441e-06	130.82	43.483	44.104	14.961	3.3026e-06	15.457	195.341	179.372	148.174	70.663	226.720	221.114	69.557	74.827	221.711	210.694	71.961	76.267	78.910	82.522	193.484	79.610	-8191	255	
42784.098	1	1	0	0	0.25864	0.26964	0.10813	0.26779	0.090037	0.13609	0.37298	0.11442	0.13454	0.43298	0.21943	0.23538	0.11404	0.12472	0.069099	0.13519	-1.7729	-1.8792	-1.9937	-2.0563	-1.6792	-2.1875	-2.15	-1.8417	-2.3333	-1.8542	-2.0479	-2.1875	-1.8271	-2.0271	-2.0521	-1.8563	96.242	151.706	184.471	336.060	185.653	246.103	369.657	262.078	85.806	178.361	326.008	365.800	240.701	329.524	414.219	133.759	0.00012523	0.00011879	2.2884e-05	345.34	1.7666e-06	1.3335e-06	334.67	134.02	1.0156e-06	2.8957e-06	134.71	44.48	44.926	15.341	2.1018e-06	15.969	0.00021504	0.00031217	8.2889e-05	335.28	3.2584e-06	3.2362e-06	325.48	131.62	3.4348e-06	3.3322e-06	131.45	43.838	44.459	15.2	3.3581e-06	15.661	196.481	133.053	147.847	70.857	209.402	211.919	69.409	74.684	223.674	197.439	72.274	76.225	79.170	82.691	225.569	80.030	-8191	255	
42784.195	1	1	0	0	0.13715	0.3646	0.18817	0.052401	0.064541	0.45517	0.028698	0.12563	0.056806	0.36829	0.092501	0.24116	0.17679	0.23776	0.26118	0.19601	-1.8729	-1.8479	-1.9146	-2.2938	-1.8021	-2.1625	-1.9688	-1.9146	-2.2708	-2.1021	-1.8417	-2.1771	-1.7271	-2.0583	-2.2292	-1.9146	325.459	218.957	161.057	294.201	276.146	138.402	244.012	404.965	166.748	256.715	399.338	411.419	369.361	359.298	268.894	118.904	0.00012357	0.00015368	5.0432e-05	346.93	1.4915e-06	1.7606e-06	333.52	134.44	1.9336e-06	1.3446e-06	134.5	43.694	45.042	15.096	2.0896e-06	15.519	0.00020603	0.00031657	8.9148e-05	337.78	3.1999e-06	3.4034e-06	326.63	131.96	3.0097e-06	3.3409e-06	131.71	43.584	44.391	15.082	3.1563e-06	15.407	194.532	134.067	142.854	70.918	204.892	191.044	69.394	74.644	195.104	203.738	71.966	76.312	79.121	82.727	227.093	79.411	-8191	255	
42784.289	1	1	0	0	0.25835	0.35666	0.22296	0.083443	0.24365	0.25188	0.17882	0.22362	0.093571	0.10649	0.23304	0.12976	0.25974	0.15211	0.31416	0.1886	-1.8	-1.8146	-1.9771	-2.1813	-1.6437	-2.1875	-2.175	-1.825	-2.1708	-1.9333	-1.8896	-2.5146	-1.7229	-2.0646	-2.3104	-1.8167	159.144	86.008	293.896	291.281	363.337	165.624	285.141	302.883	343.915	133.936	68.372	407.286	173.873	367.059	164.019	225.340	9.8557e-05	0.00028147	3.9167e-05	343.04	2.9875e-06	1.8432e-06	332.6	134.14	2.069e-06	1.9668e-06	134.52	43.7	44.556	15.096	1.687e-06	15.596	0.00020109	0.00030348	8.9202e-05	334.83	3.1526e-06	3.3559e-06	324.84	131.35	3.2399e-06	3.464e-06	131.21	43.27	43.994	14.975	3.293e-06	15.31	196.316	175.299	154.426	71.002	229.575	202.130	69.223	74.907	205.736	229.580	72.089	76.490	79.088	82.366	203.677	79.326	-8191	255	
42784.387	1	1	0	0	0.18292	0.18577	0.032428	0.17751	0.13405	0.2359	0.11502	0.043525	0.20128	0.15737	0.23561	0.13724	0.19749	0.077915	0.25964	0.18173	-1.9354	-2.1021	-1.6333	-1.9729	-1.9271	-2.1937	-2.2396	-1.7042	-2.2604	-1.8708	-1.8521	-2.3438	-1.8312	-1.9583	-2.225	-1.6833	194.847	223.281	181.033	386.548	211.232	108.547	185.435	322.377	334.250	158.602	385.754	252.681	357.128	193.184	335.612	66.812	0.00010511	0.00021325	5.5286e-05	342.16	1.3304e-06	1.4748e-06	329.48	132.81	1.3608e-06	1.6013e-06	135.05	44.025	44.675	14.94	1.3089e-06	15.69	0.00021442	0.00030998	9.6664e-05	334.55	3.1448e-06	3.5393e-06	323.53	130.62	3.3043e-06	3.4403e-06	131.39	43.486	44.026	14.93	3.1754e-06	15.388	196.574	162.641	150.290	70.759	242.624	237.006	69.202	75.222	245.783	189.118	71.988	76.424	78.883	82.532	207.877	79.334	-8191	255	
42784.508	1	1	0	0	0.20805	0.1179	0.1902	0.20527	0.17427	0.091951	0.065699	0.20083	0.37165	0.10284	0.1114	0.26168	0.16989	0.16119	0.101	0.29326	-1.6146	-1.95	-1.625	-2.2333	-2.1521	-2.0938	-2.3083	-1.7333	-2.2313	-2.1646	-1.8833	-2.2375	-1.8687	-1.875	-2.1958	-1.8854	139.789	279.694	401.464	264.275	288.860	78.031	242.872	360.161	120.604	306.821	178.493	323.285	125.799	141.867	289.438	178.354	0.00012391	0.00017615	6.7044e-05	342.04	1.405e-06	1.8847e-06	334.42	135.13	8.9015e-07	2.9039e-06	133.39	44.509	44.744	15.167	7.978e-07	15.735	0.00020832	0.000303	9.3428e-05	334.54	2.989e-06	3.4271e-06	324.87	131.55	3.1203e-06	3.4943e-06	130.9	43.545	44.187	15.051	3.1448e-06	15.462	196.485	147.064	162.356	71.244	243.496	251.722	69.405	74.796	231.198	223.295	71.708	76.140	78.569	82.877	272.322	79.913	-8191	255	
42784.602	1	1	0	0	0.042149	0.20023	0.14942	0.11627	0.21209	0.26443	0.092049	0.03737	0.14163	0.10241	0.039679	0.21385	0.16838	0.1453	0.32817	0.13311	-1.8125	-1.95	-1.7812	-2.3292	-2.1146	-1.8542	-2.1729	-1.8396	-2.0104	-2.0979	-1.7417	-2.2	-2.0167	-1.9625	-2.2938	-2.0917	184.954	240.364	99.037	86.738	113.492	65.913	182.867	369.216	331.921	233.223	145.675	339.543	64.927	139.025	361.451	293.524	0.00011738	0.00021756	6.6201e-05	342.85	1.1624e-06	1.1971e-06	333.37	134.22	1.8092e-06	2.2782e-06	134.14	44.638	44.921	15.331	1.3092e-06	15.845	0.00020999	0.00032268	9.3321e-05	335.15	2.9537e-06	3.6406e-06	325.83	131.71	3.4611e-06	3.437e-06	131.66	43.96	44.306	15.2	3.1095e-06	15.507	193.395	133.652	112.567	70.943	226.767	224.148	69.317	75.180	230.889	188.787	72.009	76.286	78.743	82.703	205.871	79.324	-8191	255	
42784.699	1	1	0	0	0.17666	0.13249	0.22672	0.18641	0.10414	0.3026	0.28394	0.21323	0.10916	0.073098	0.24904	0.13569	0.12523	0.11104	0.10308	0.41094	-1.5938	-2.1292	-1.8042	-2.1229	-2.1208	-2.0208	-2.1688	-1.8917	-1.8937	-2.3625	-1.7958	-2.0312	-1.9	-1.7146	-2.275	-2.1542	331.141	150.800	161.058	294.968	142.714	142.077	307.602	367.193	236.169	313.250	414.183	260.778	409.855	171.427	134.082	154.119	0.00011075	0.00017171	3.1077e-05	345.61	1.9752e-06	2.7684e-06	333.57	133.37	1.2037e-06	2.1729e-06	133.28	43.763	44.507	15.165	1.8093e-06	15.503	0.00021403	0.00029154	8.9068e-05	335.91	3.0053e-06	3.645e-06	323.91	131.14	3.2118e-06	3.4122e-06	130.73	43.329	44.027	14.988	3.098e-06	15.306	202.362	153.124	228.027	70.804	228.148	198.281	69.225	74.878	214.437	177.739	72.245	76.181	78.574	82.546	242.491	79.531	-8191	255	
42784.797	1	1	0	0	0.14752	0.18861	0.12468	0.1666	0.17271	0.18511	0.067918	0.21903	0.05323	0.1068	0.11465	0.13536	0.17023	0.13	0.28083	0.13104	-1.525	-2.2521	-1.9354	-2.1562	-2.1854	-1.5458	-2.0875	-1.9042	-1.7917	-2.3479	-1.7854	-2.0229	-2.0563	-1.9271	-2.3979	-1.8937	106.843	164.404	115.875	217.931	63.407	354.010	269.096	205.759	337.611	402.441	115.138	73.856	341.975	404.734	111.081	272.589	0.00011014	0.00030345	5.791e-05	342.73	1.6179e-06	2.2717e-06	331.43	133.52	1.3933e-06	1.3673e-06	132.98	43.519	44.319	14.988	1.1076e-06	15.525	0.00021411	0.00029364	9.3214e-05	334.48	3.2662e-06	3.6601e-06	323.32	130.55	3.3687e-06	3.5321e-06	129.93	43.25	43.833	14.973	3.0894e-06	15.294	195.102	144.605	157.332	70.949	233.295	209.219	69.246	74.687	238.565	192.762	71.676	76.019	78.961	82.829	203.670	79.354	-8191	255	
42784.891	1	1	0	0	0.24586	0.261	0.35277	0.13006	0.15642	0.13143	0.043015	0.090515	0.096758	0.18497	0.20159	0.08294	0.15199	0.14911	0.30813	0.2824	-1.4438	-2.4479	-1.8625	-2.0958	-2.3167	-1.9042	-2.2292	-1.9813	-1.9375	-2.3333	-1.8104	-2.1354	-2.1875	-1.6562	-2.1771	-2.0438	191.310	383.119	68.718	365.913	221.329	95.580	246.710	69.886	140.060	257.853	85.791	404.693	378.947	86.918	340.938	209.528	0.00011245	9.0752e-05	3.112e-05	342.99	1.6937e-06	2.0591e-06	333.09	133.04	1.4314e-06	2.486e-06	133.23	44.175	44.745	15.083	2.6476e-06	15.74	0.00022098	0.00028944	8.8159e-05	334.29	3.1138e-06	3.4142e-06	324.13	130.84	3.4566e-06	3.1983e-06	130.49	43.4	44.121	14.99	3.3667e-06	15.451	195.589	70.931	170.090	70.852	229.469	214.942	68.611	74.846	235.880	200.248	71.798	76.088	79.376	82.957	214.353	79.628	-8191	255	
42784.984	1	1	0	0	0.13174	0.1787	0.21424	0.052128	0.039989	0.079421	0.21237	0.17998	0.086928	0.252	0.018714	0.13499	0.10651	0.33041	0.060318	0.1333	-1.4229	-2.3042	-1.8958	-2.1021	-2.3646	-1.7521	-2.1104	-2.0979	-1.7938	-2.3042	-2.1437	-1.8958	-2.0771	-1.7396	-2.1146	-2.0812	372.428	326.467	371.440	107.293	313.075	263.516	372.770	287.275	236.003	253.774	365.135	327.337	127.651	110.392	110.838	256.412	0.00012355	0.00021224	6.5783e-05	341.96	1.1244e-06	2.0199e-06	334.01	133.43	1.8105e-06	1.5385e-06	133.94	44.841	44.783	15.44	1.4692e-06	15.839	0.00021395	0.0002817	8.5083e-05	334	2.9804e-06	3.6622e-06	324.28	131.03	3.3886e-06	2.9747e-06	131.75	43.997	44.452	15.215	3.1343e-06	15.536	193.135	136.379	169.348	71.212	217.306	186.371	69.227	74.492	220.376	174.077	71.807	76.417	78.779	82.806	235.928	79.525	-8191	255	
42785.105	1	1	0	0	0.1927	0.30769	0.24253	0.37942	0.1633	0.13532	0.18098	0.20608	0.40584	0.16303	0.16555	0.072937	0.089053	0.17963	0.20897	0.11055	-1.4229	-2.2583	-2.0417	-1.8917	-2.3771	-1.8625	-2.0938	-2.1208	-1.7687	-2.2229	-1.9875	-1.8208	-2.0542	-2.0417	-1.9042	-2.1542	360.458	88.680	276.806	355.440	216.649	398.537	227.257	347.507	316.967	265.748	379.017	69.927	364.826	138.630	243.881	267.706	0.00012917	0.00022983	6.5316e-05	346.81	1.6195e-06	2.4087e-06	332.52	133.79	8.5113e-07	1.3703e-06	133.39	44.04	44.84	15.041	1.1523e-06	15.476	0.00022172	0.00027263	8.7704e-05	336.87	2.9726e-06	3.0917e-06	324.33	131.15	3.3496e-06	3.1097e-06	130.67	43.363	44.224	15	3.3973e-06	15.318	195.114	154.721	147.735	71.263	199.647	209.686	69.361	75.058	231.632	192.548	71.635	76.036	79.327	82.422	202.093	79.213	-8191	255	
42785.203	1	1	0	0	0.16434	0.083819	0.15443	0.17222	0.13594	0.31512	0.2215	0.22797	0.19416	0.056025	0.13171	0.17278	0.38314	0.08389	0.25985	0.38511	-1.3417	-2.1354	-2.0708	-1.7792	-2.4083	-2.0312	-2.0521	-2.2833	-1.7479	-2.1229	-2.2146	-1.8667	-2.1896	-2.0521	-1.9292	-2.2458	133.647	84.715	96.408	96.594	208.197	136.797	329.380	164.151	60.991	106.762	144.150	362.847	104.599	372.186	236.713	366.602	0.00011568	0.00021823	2.1308e-05	339.97	1.1402e-06	2.2197e-06	329.63	133.58	1.8509e-06	2.2509e-06	132.62	43.927	44.407	15.074	2.2879e-06	15.48	0.00020945	0.00030835	8.4066e-05	334.02	2.8056e-06	3.5188e-06	322.59	130.78	3.1049e-06	3.2318e-06	130.14	43.17	43.894	14.925	3.4747e-06	15.278	193.995	146.041	101.197	70.998	224.417	185.300	69.333	75.057	206.742	181.273	72.154	76.032	78.728	82.479	213.343	79.580	-8191	255	
#DATA ENDS
