BOXY.EXE: ISS Imagent and Oximeter Data Acquisition Program Version 0.80
Ascii Record File

#ACQ INFORMATION
2  Detector Channels 
16  External MUX Channels 
1  Auxiliary Channels 
5000  Waveform (CCF) Frequency (Hz)
1  Waveforms Skipped 
30  Waveforms Averaged 
1  Cycles Averaged 
16  Acquisitions per Waveform 
10.0806  Updata Rate (Hz) 

#FILE INFORMATION
TRUE -- External MUX Channel results are PARSED.
FALSE -- AC DC and Phase are NOT grouped.
TRUE -- Companion Program Settings File CREATED.
FALSE -- AC data not excluded
FALSE -- DC data not excluded
FALSE -- Phase data not excluded
FALSE -- Auxillary Chn. data not excluded
Tab delimiters

#CALIBRATION STATE
TRUE -- Waveform Calibration Values APPLIED.


#AUX CALIBRATION VALUES
Val Type	aux-1	

Term	1.0000e+00	
Factor	0.0000e+00	


#WF CALIBRATION VALUES
A = Detector Channel
Val Type	A-AC1	A-AC2	A-AC3	A-AC4	A-AC5	A-AC6	A-AC7	A-AC8	A-AC9	A-AC10	A-AC11	A-AC12	A-AC13	A-AC14	A-AC15	A-AC16	A-DC1	A-DC2	A-DC3	A-DC4	A-DC5	A-DC6	A-DC7	A-DC8	A-DC9	A-DC10	A-DC11	A-DC12	A-DC13	A-DC14	A-DC15	A-DC16	A-Ph1	A-Ph2	A-Ph3	A-Ph4	A-Ph5	A-Ph6	A-Ph7	A-Ph8	A-Ph9	A-Ph10	A-Ph11	A-Ph12	A-Ph13	A-Ph14	A-Ph15	A-Ph16	

Term	0.00000e+00	0.00000e+00	0.00000e+00	0.00000e+00	0.00000e+00	0.00000e+00	0.00000e+00	0.00000e+00	0.00000e+00	0.00000e+00	0.00000e+00	0.00000e+00	0.00000e+00	0.00000e+00	0.00000e+00	0.00000e+00	0.00000e+00	0.00000e+00	0.00000e+00	0.00000e+00	0.00000e+00	0.00000e+00	0.00000e+00	0.00000e+00	0.00000e+00	0.00000e+00	0.00000e+00	0.00000e+00	0.00000e+00	0.00000e+00	0.00000e+00	0.00000e+00	0.00000e+00	0.00000e+00	0.00000e+00	0.00000e+00	0.00000e+00	0.00000e+00	0.00000e+00	0.00000e+00	0.00000e+00	0.00000e+00	0.00000e+00	0.00000e+00	0.00000e+00	0.00000e+00	0.00000e+00	0.00000e+00	
Factor	1.00000e+00	1.00000e+00	1.00000e+00	1.00000e+00	1.00000e+00	1.00000e+00	1.00000e+00	1.00000e+00	1.00000e+00	1.00000e+00	1.00000e+00	1.00000e+00	1.00000e+00	1.00000e+00	1.00000e+00	1.00000e+00	1.00000e+00	1.00000e+00	1.00000e+00	1.00000e+00	1.00000e+00	1.00000e+00	1.00000e+00	1.00000e+00	1.00000e+00	1.00000e+00	1.00000e+00	1.00000e+00	1.00000e+00	1.00000e+00	1.00000e+00	1.00000e+00	X	X	X	X	X	X	X	X	X	X	X	X	X	X	X	X	

B = Detector Channel
Val Type	B-AC1	B-AC2	B-AC3	B-AC4	B-AC5	B-AC6	B-AC7	B-AC8	B-AC9	B-AC10	B-AC11	B-AC12	B-AC13	B-AC14	B-AC15	B-AC16	B-DC1	B-DC2	B-DC3	B-DC4	B-DC5	B-DC6	B-DC7	B-DC8	B-DC9	B-DC10	B-DC11	B-DC12	B-DC13	B-DC14	B-DC15	B-DC16	B-Ph1	B-Ph2	B-Ph3	B-Ph4	B-Ph5	B-Ph6	B-Ph7	B-Ph8	B-Ph9	B-Ph10	B-Ph11	B-Ph12	B-Ph13	B-Ph14	B-Ph15	B-Ph16	

Term	0.00000e+00	0.00000e+00	0.00000e+00	0.00000e+00	0.00000e+00	0.00000e+00	0.00000e+00	0.00000e+00	0.00000e+00	0.00000e+00	0.00000e+00	0.00000e+00	0.00000e+00	0.00000e+00	0.00000e+00	0.00000e+00	0.00000e+00	0.00000e+00	0.00000e+00	0.00000e+00	0.00000e+00	0.00000e+00	0.00000e+00	0.00000e+00	0.00000e+00	0.00000e+00	0.00000e+00	0.00000e+00	0.00000e+00	0.00000e+00	0.00000e+00	0.00000e+00	5.94720e+01	-1.33281e+02	-1.24008e+02	-1.83669e+02	-7.49398e+01	-7.46865e+01	-1.55903e+02	-1.62015e+02	-6.56920e+01	-5.76036e+01	-1.71186e+02	-1.71014e+02	-1.82886e+02	-1.77178e+02	-6.18822e+01	-1.49311e+02	
Factor	6.16829e-05	1.64324e-04	4.66421e-05	1.74362e-01	2.06590e-06	1.82496e-06	1.63678e-01	5.30398e-02	3.37277e-06	1.77242e-06	9.18026e-02	2.93873e-02	3.59135e-02	9.27610e-03	2.08424e-06	1.33759e-02	6.85272e-06	8.02413e-06	2.24270e-06	9.05141e-02	8.55606e-08	8.89427e-08	7.96729e-02	2.75538e-02	8.49966e-08	8.88765e-08	4.61873e-02	1.47366e-02	1.84319e-02	4.86892e-03	8.63507e-08	6.78635e-03	X	X	X	X	X	X	X	X	X	X	X	X	X	X	X	X	



#DISTANCE SETTINGS
A = Detector Channel
A-1	A-2	A-3	A-4	A-5	A-6	A-7	A-8	A-9	A-10	A-11	A-12	A-13	A-14	A-15	A-16	

2.5000e+00	3.0000e+00	2.5000e+00	3.0000e+00	2.0000e+00	3.0000e+00	1.5000e+00	3.0000e+00	3.0000e+00	3.0000e+00	3.0000e+00	3.0000e+00	3.0000e+00	3.0000e+00	1.5000e+00	3.0000e+00	

B = Detector Channel
B-1	B-2	B-3	B-4	B-5	B-6	B-7	B-8	B-9	B-10	B-11	B-12	B-13	B-14	B-15	B-16	

1.0000e+01	1.0000e+01	1.0000e+01	1.4400e+00	1.0000e+01	1.0000e+01	1.5100e+00	1.9400e+00	1.0000e+01	1.0000e+01	1.9900e+00	2.4900e+00	2.4100e+00	2.9000e+00	1.0000e+01	2.9800e+00	




#DATA BEGINS
time	group	step	mark	flag	A-AC1	A-AC2	A-AC3	A-AC4	A-AC5	A-AC6	A-AC7	A-AC8	A-AC9	A-AC10	A-AC11	A-AC12	A-AC13	A-AC14	A-AC15	A-AC16	A-DC1	A-DC2	A-DC3	A-DC4	A-DC5	A-DC6	A-DC7	A-DC8	A-DC9	A-DC10	A-DC11	A-DC12	A-DC13	A-DC14	A-DC15	A-DC16	A-Ph1	A-Ph2	A-Ph3	A-Ph4	A-Ph5	A-Ph6	A-Ph7	A-Ph8	A-Ph9	A-Ph10	A-Ph11	A-Ph12	A-Ph13	A-Ph14	A-Ph15	A-Ph16	B-AC1	B-AC2	B-AC3	B-AC4	B-AC5	B-AC6	B-AC7	B-AC8	B-AC9	B-AC10	B-AC11	B-AC12	B-AC13	B-AC14	B-AC15	B-AC16	B-DC1	B-DC2	B-DC3	B-DC4	B-DC5	B-DC6	B-DC7	B-DC8	B-DC9	B-DC10	B-DC11	B-DC12	B-DC13	B-DC14	B-DC15	B-DC16	B-Ph1	B-Ph2	B-Ph3	B-Ph4	B-Ph5	B-Ph6	B-Ph7	B-Ph8	B-Ph9	B-Ph10	B-Ph11	B-Ph12	B-Ph13	B-Ph14	B-Ph15	B-Ph16	aux-1	digaux	

983.458	1	1	0	256	0.20256	0.13401	0.15049	0.18991	0.20982	0.15266	0.041588	0.02409	0.18734	0.22471	0.26151	0.079617	0.1647	0.1731	0.079926	0.19421	-1.3333	-1.5938	-1.0146	-2.0167	-1.2604	-1.325	-1.9396	-1.325	-1.7229	-1.7917	-1.2354	-1.9875	-1.4708	-1.4021	-2.0146	-1.2583	237.119	228.092	434.114	340.307	355.305	138.090	391.274	230.170	352.496	274.003	117.291	353.472	380.458	295.698	400.757	382.375	0.0011025	0.00046207	0.00033991	1108.8	2.8122e-06	7.5215e-06	1228.1	234.61	1.3462e-05	3.2962e-06	296.36	83.092	65.51	18.72	9.4136e-06	25.981	0.0013319	0.0014835	0.00041992	1113.2	1.6447e-05	1.6858e-05	1224	237.62	1.6549e-05	1.7199e-05	303.81	85.68	68.756	19.935	1.7195e-05	27.605	357.323	129.433	217.960	99.805	131.683	234.347	99.808	107.848	245.279	299.177	107.825	114.133	114.438	121.989	268.984	120.873	-8191	255	
983.554	1	1	0	0	0.15195	0.069027	0.33186	0.11846	0.24887	0.21505	0.24568	0.24628	0.056656	0.11757	0.15038	0.1033	0.11708	0.11531	0.13066	0.13431	-1.2292	-1.7938	-1.0167	-2.0583	-1.4813	-1.2083	-2.1625	-1.4979	-1.6333	-1.9208	-1.2437	-1.9562	-1.575	-1.325	-1.9167	-1.2354	390.005	198.398	261.587	419.952	284.228	92.817	355.314	440.298	296.398	191.319	115.138	366.120	337.165	340.763	242.566	347.593	0.00078543	0.00054195	9.5536e-05	1117.7	4.4134e-06	8.2499e-06	1225.1	235.75	8.9291e-06	4.7557e-06	296.6	84.058	66.324	18.847	6.7574e-06	26.096	0.0014582	0.0016132	0.00045133	1120.3	1.7256e-05	1.7733e-05	1224.9	238.95	1.691e-05	1.7542e-05	303.96	85.99	69.053	19.974	1.6788e-05	27.598	372.421	146.920	163.328	99.950	170.959	233.996	100.095	107.592	234.979	222.415	107.270	113.629	114.534	122.026	253.329	120.629	-8191	255	
983.650	1	1	0	0	0.18938	0.20693	0.23765	0.27801	0.081276	0.074239	0.18738	0.20499	0.14235	0.11843	0.34601	0.076892	0.32605	0.20782	0.23504	0.20589	-1.1	-1.8104	-1.0417	-1.8729	-1.5229	-1.1646	-1.9083	-1.3208	-1.3146	-1.8438	-1.2875	-1.6958	-1.6958	-1.2729	-1.9521	-1.5438	278.607	246.425	288.719	169.848	230.744	113.427	126.482	380.571	195.099	315.561	420.388	392.422	394.135	361.196	290.935	238.302	0.0010686	0.00036495	0.00023646	1120.2	1.1499e-05	3.0978e-06	1227.3	235.66	1.4291e-05	8.1803e-06	298.72	83.557	66.565	18.796	5.9857e-06	26.061	0.0013911	0.0015353	0.00043239	1121.6	1.6596e-05	1.6937e-05	1225.8	238.95	1.6515e-05	1.6894e-05	304.81	85.904	69.224	20.014	1.6679e-05	27.689	355.385	159.698	163.589	99.794	245.526	390.829	99.935	107.636	258.957	262.086	107.317	114.086	114.282	121.034	271.454	120.980	-8191	255	
983.746	1	1	0	0	0.035724	0.21022	0.23421	0.029669	0.16056	0.26801	0.027887	0.20639	0.20248	0.1156	0.19736	0.3322	0.35084	0.10278	0.28062	0.29515	-0.89167	-1.9625	-1.2625	-1.8646	-1.7938	-1.1542	-2.0708	-1.6271	-1.3271	-2.1813	-1.2667	-1.6208	-1.9188	-1.2375	-1.9375	-1.7146	430.579	297.473	127.155	289.314	129.937	393.622	297.938	391.341	127.693	450.026	359.553	376.599	223.152	359.376	414.992	342.838	0.00097442	0.00037902	5.6294e-05	1116.8	6.8182e-06	6.6633e-06	1224.7	237	3.8605e-06	2.3092e-06	296.68	84.408	65.974	18.855	3.4802e-06	26.078	0.0013919	0.0015503	0.0004365	1119.5	1.6624e-05	1.7207e-05	1226.6	239.37	1.6404e-05	1.7192e-05	304.69	86.113	69.052	19.98	1.6527e-05	27.701	355.738	219.659	172.227	99.907	235.553	234.203	100.016	108.020	253.986	94.420	106.995	114.297	114.197	122.171	280.281	120.138	-8191	255	
983.841	1	1	0	0	0.25991	0.19594	0.26162	0.14601	0.17214	0.21739	0.19466	0.16829	0.093085	0.4149	0.11643	0.25362	0.2239	0.24274	0.27951	0.26204	-0.8625	-1.9438	-1.3146	-1.6604	-1.8521	-1.1458	-2.0208	-1.7292	-1.1125	-2.0438	-1.4083	-1.4521	-1.8646	-1.1542	-1.9021	-1.75	345.684	90.053	112.426	410.862	98.078	351.992	402.878	440.646	187.592	383.670	180.777	120.930	118.779	372.330	385.331	252.679	0.0010649	0.00055345	3.4629e-06	1115.4	6.2954e-06	5.4945e-06	1225.5	236.02	7.832e-06	1.8639e-06	297.63	83.595	66.493	19.007	7.5921e-06	25.937	0.0013854	0.0015436	0.00042961	1117.6	1.6315e-05	1.7085e-05	1224.9	239.09	1.6314e-05	1.7164e-05	304.94	85.931	69.143	20.096	1.702e-05	27.651	370.298	171.932	206.900	99.796	272.776	233.861	99.571	107.100	318.328	316.885	106.892	114.090	114.700	120.759	311.156	120.494	-8191	255	
983.937	1	1	0	0	0.16856	0.20343	0.11553	0.083941	0.050412	0.25136	0.18087	0.40601	0.3451	0.033195	0.261	0.065353	0.15149	0.27489	0.099078	0.26708	-0.69375	-1.9062	-1.2771	-1.4062	-1.9354	-1.2354	-2.0104	-1.8687	-1.3021	-1.9396	-1.5812	-1.4708	-1.8646	-1.2667	-1.7375	-1.9521	334.528	428.802	139.704	234.314	213.877	139.402	91.296	404.509	276.631	259.715	415.207	334.015	364.978	143.072	165.133	438.814	0.0009536	0.00036349	8.4349e-05	1118.5	1.6268e-06	4.9773e-06	1224.2	234.67	4.4383e-06	9.6669e-06	297.41	83.595	66.744	18.913	7.3292e-06	26.209	0.0014169	0.0015723	0.00044814	1119.3	1.7118e-05	1.7703e-05	1225.9	239.24	1.7193e-05	1.7693e-05	304.96	85.985	69.262	20.102	1.7815e-05	27.789	373.999	257.862	113.245	99.677	346.731	172.559	99.401	107.012	156.342	231.989	106.790	113.740	114.186	121.248	250.868	120.543	-8191	255	
984.033	1	1	0	0	0.1487	0.27535	0.23563	0.23683	0.11307	0.13873	0.15352	0.25774	0.25032	0.16722	0.068709	0.095088	0.19369	0.06445	0.20392	0.16807	-0.86042	-1.9312	-1.5833	-1.4333	-2.1042	-1.3333	-1.7708	-1.9333	-0.99375	-1.7792	-1.5896	-1.1917	-1.8458	-1.3563	-1.475	-1.9208	238.393	104.486	347.155	331.509	352.982	399.527	391.094	408.800	360.176	384.744	397.732	293.868	296.467	365.805	331.363	364.789	0.00099153	0.0002859	9.9238e-05	1112.9	4.9048e-06	1.8027e-06	1227.5	236.63	7.9855e-06	4.6599e-06	298.13	83.968	66.064	19.01	9.3975e-06	26.069	0.0015012	0.0016862	0.00047128	1118.7	1.8248e-05	1.8804e-05	1228.8	239.67	1.799e-05	1.8734e-05	306.05	86.202	69.525	20.158	1.8678e-05	27.825	368.916	108.700	283.457	100.242	327.834	220.263	100.163	107.602	270.792	246.086	107.044	114.307	114.741	121.834	285.184	121.016	-8191	255	
984.154	1	1	0	0	0.12353	0.3249	0.2008	0.27911	0.12726	0.22135	0.050953	0.37592	0.21312	0.18047	0.10432	0.11624	0.20039	0.03938	0.10492	0.11544	-0.66458	-1.75	-1.4792	-1.325	-1.9083	-1.3417	-1.6479	-1.9333	-1.0146	-1.7479	-1.5521	-1.2229	-1.9604	-1.3917	-1.2292	-2.0083	153.815	291.072	172.306	372.126	295.003	366.148	99.230	405.304	399.248	225.379	433.439	443.799	96.288	180.248	196.767	103.793	0.00096025	0.0009695	8.6128e-05	1117.8	6.1772e-06	4.5848e-06	1228.8	237.12	9.183e-06	5.398e-06	298.69	84.009	66.367	18.848	9.2384e-06	26.127	0.0015627	0.001728	0.00048478	1124.8	1.9188e-05	1.9667e-05	1229.6	240.17	1.9011e-05	1.9853e-05	306.77	86.83	69.859	20.221	1.9516e-05	27.986	359.922	174.844	201.086	99.871	133.299	227.152	100.012	107.386	225.362	213.152	106.339	114.011	114.214	121.159	308.466	120.201	-8191	255	
984.250	1	1	0	0	0.10461	0.085961	0.30939	0.41536	0.1077	0.40209	0.38742	0.29253	0.085751	0.21276	0.1935	0.13204	0.15771	0.26413	0.38003	0.014011	-0.74375	-1.6437	-1.7354	-1.5708	-1.6021	-1.55	-1.5104	-1.9729	-1.1271	-1.5729	-1.8854	-1.1417	-2.0208	-1.7125	-1.2875	-1.9479	312.501	382.489	222.858	416.495	373.568	269.801	390.888	443.916	116.204	299.353	401.608	342.390	133.031	374.659	160.634	206.485	0.00094499	0.00031191	0.00023502	1121.2	9.3656e-06	5.3252e-06	1237.1	237.48	3.1149e-06	6.0589e-06	298.43	84.011	67.329	19.028	5.1037e-06	26.082	0.0016167	0.0018222	0.00050927	1126.4	1.9336e-05	1.9963e-05	1236.7	241.86	1.9441e-05	2.0322e-05	307.85	86.918	70.305	20.304	1.946e-05	27.967	362.767	187.746	219.800	99.970	210.909	274.187	100.342	107.794	228.726	280.184	106.961	114.003	114.543	121.535	262.712	120.787	-8191	255	
984.346	1	1	0	0	0.13173	0.086231	0.31604	0.52533	0.20082	0.10952	0.21016	0.15514	0.077334	0.13769	0.20421	0.078571	0.1741	0.18971	0.26366	0.15205	-0.79375	-1.6917	-1.8937	-1.1604	-1.9417	-1.5708	-1.2375	-1.8271	-1.3125	-1.4875	-1.9854	-1.1938	-1.7833	-1.5771	-1.2958	-2.2104	208.479	96.665	280.179	135.448	212.524	135.193	383.701	365.150	420.281	445.298	105.221	192.833	420.416	448.413	423.884	385.236	0.00081367	0.00027167	6.3467e-05	1122	4.8226e-06	3.4344e-06	1233.9	238.53	1.0134e-05	3.3802e-06	302.58	84.093	66.31	19.067	3.1696e-06	26.265	0.0016347	0.0018225	0.00050015	1129.2	1.9518e-05	1.9905e-05	1236.9	242.02	1.9017e-05	1.9716e-05	308.74	86.948	70.001	20.308	1.937e-05	28.008	356.209	194.989	122.472	99.977	154.262	286.304	99.898	107.642	166.922	203.524	106.399	114.133	114.851	121.215	265.588	120.560	-8191	255	
984.442	1	1	0	0	0.038119	0.13321	0.051097	0.15204	0.19307	0.1854	0.19208	0.27709	0.068582	0.22449	0.16852	0.42665	0.067728	0.21176	0.1645	0.14207	-0.94167	-1.5146	-1.9396	-1.3563	-1.6896	-1.6479	-1.5187	-1.9833	-1.4562	-1.3375	-1.9521	-1.1313	-1.8958	-1.7646	-1.1917	-1.9146	94.816	106.145	437.038	428.120	129.817	145.735	97.158	377.195	443.324	231.306	406.892	427.600	447.811	205.525	177.776	170.044	0.00080815	0.00023831	0.00025675	1121.6	8.488e-06	3.3087e-06	1235.6	236.71	6.9202e-06	7.969e-06	299.61	84.254	66.801	19.203	7.1782e-06	26.297	0.0016058	0.0017855	0.00050139	1129.6	1.9266e-05	1.9844e-05	1239.1	241.4	1.9234e-05	2.0152e-05	308.37	87.182	70.307	20.354	1.9296e-05	28.061	358.558	289.624	229.945	99.666	235.732	241.271	99.588	106.781	183.113	265.399	106.396	113.448	113.710	121.267	251.654	120.334	-8191	255	
984.538	1	1	0	0	0.2445	0.098663	0.12739	0.2218	0.13973	0.19573	0.15772	0.090211	0.13838	0.22614	0.24351	0.16655	0.13262	0.074378	0.17595	0.13619	-1.0562	-1.2333	-1.9062	-1.3312	-1.7042	-1.8958	-1.3792	-1.9813	-1.5354	-1.2875	-2.0396	-1.3271	-1.6229	-1.8125	-1.0979	-1.7104	208.171	296.295	308.086	121.944	331.711	179.033	439.757	154.281	344.705	204.311	426.220	93.633	356.729	337.946	295.494	409.322	0.0010293	0.00081458	0.00024426	1128.6	6.5296e-06	2.7439e-06	1234	239.55	1.2555e-05	8.2297e-06	300.48	83.841	66.989	19.135	2.254e-06	26.347	0.0015835	0.0017878	0.00049382	1131.8	1.9005e-05	1.9546e-05	1240.4	242.59	1.8776e-05	1.9457e-05	308.56	86.975	70.148	20.294	1.8826e-05	28.122	365.500	181.247	123.330	99.775	345.158	322.766	100.124	107.476	219.231	207.262	107.196	114.153	114.649	121.573	322.986	120.579	-8191	255	
984.634	1	1	0	0	0.17953	0.26969	0.21801	0.29055	0.13215	0.21224	0.48979	0.22165	0.21981	0.22032	0.085609	0.13953	0.13232	0.13992	0.11986	0.16357	-1.1437	-1.2396	-2.0083	-1.6187	-1.3854	-2.025	-1.4667	-1.7771	-1.8188	-1.3937	-2.0396	-1.3646	-1.2979	-1.9833	-1.2313	-1.8188	264.532	171.714	349.078	399.626	141.675	197.387	89.896	248.885	309.953	419.179	291.294	401.622	356.387	174.203	397.301	98.737	0.00068131	0.00017984	0.0001267	1129.2	7.3516e-06	6.1925e-06	1245	239.85	3.5815e-06	7.5152e-06	300.09	84.983	66.717	18.97	4.7005e-06	26.481	0.0015495	0.0017394	0.00048663	1132.8	1.868e-05	1.9087e-05	1242.3	243.05	1.8333e-05	1.966e-05	308.69	87.224	70.19	20.336	1.9458e-05	28.163	365.792	234.185	226.375	100.063	253.372	192.951	99.963	107.540	226.437	258.995	107.128	114.021	114.831	121.612	253.223	120.759	-8191	255	
984.755	1	1	0	0	0.14515	0.32396	0.15476	0.26692	0.12437	0.35071	0.12338	0.17954	0.2911	0.096238	0.051017	0.089192	0.21571	0.093654	0.19648	0.12942	-1.3896	-1.3458	-1.9458	-1.6729	-1.3542	-1.9396	-1.4312	-1.5021	-1.7521	-1.175	-1.9583	-1.6771	-1.2396	-1.9958	-1.2083	-1.8292	316.836	116.263	302.822	443.495	138.842	376.252	387.373	395.314	199.387	239.052	278.140	429.151	390.452	146.508	191.185	330.506	0.0011395	0.00078591	0.00020316	1130.1	4.1717e-06	6.8502e-06	1244.3	239.86	1.458e-05	7.4317e-06	299.28	84.519	67.211	19.092	1.9775e-06	26.484	0.0016041	0.0018133	0.00050508	1134.5	1.9319e-05	1.9948e-05	1242.1	243.14	1.927e-05	1.9704e-05	308.88	87.332	70.262	20.333	1.9104e-05	28.211	353.457	141.543	158.029	100.349	221.382	199.452	99.905	107.329	313.518	165.570	107.025	114.259	114.622	121.519	223.049	120.571	-8191	255	
984.849	1	1	0	0	0.24951	0.16656	0.25698	0.15374	0.2498	0.17202	0.41888	0.081762	0.13488	0.5629	0.082908	0.061797	0.077006	0.22633	0.25639	0.27965	-1.3583	-1.1854	-1.8937	-1.5562	-1.0938	-1.9229	-1.4792	-1.6646	-1.8875	-1.1458	-1.8104	-1.6812	-1.3208	-2.0917	-1.3958	-1.4562	349.374	323.142	129.807	122.827	166.983	189.957	335.068	187.364	230.874	130.631	216.274	330.672	358.763	445.338	312.964	371.687	0.00098777	0.00037303	0.00017055	1132.6	9.6397e-06	2.4915e-06	1244.9	239.26	1.672e-05	1.8723e-06	301.8	84.601	67.221	19.21	7.0283e-06	26.066	0.0015716	0.0017588	0.00049292	1135.1	1.8869e-05	1.9457e-05	1244	243.1	1.882e-05	1.9841e-05	309.74	87.309	70.448	20.394	1.952e-05	28.069	370.528	132.583	199.552	100.189	205.794	223.225	99.929	107.370	255.990	196.442	107.010	113.777	114.360	121.777	219.395	120.938	-8191	255	
984.946	1	1	0	0	0.49143	0.069428	0.0052701	0.15931	0.16515	0.12478	0.23217	0.16886	0.28487	0.25636	0.43511	0.26688	0.28307	0.15233	0.13159	0.12506	-1.4937	-1.2396	-1.8458	-1.9271	-1.2104	-1.9271	-1.6521	-1.5812	-2.0771	-1.2521	-1.8125	-1.8146	-1.1583	-1.9771	-1.4062	-1.4167	430.602	415.058	389.693	355.723	304.591	231.748	369.468	423.716	335.607	320.916	369.843	405.083	436.148	202.271	228.527	97.017	0.00091488	0.00029119	0.00016539	1129	3.7559e-06	3.0947e-06	1242.7	239.72	1.2593e-05	1.6585e-06	300.83	84.996	66.807	19.06	6.0468e-06	26.447	0.0015977	0.0017744	0.00049669	1135.9	1.9149e-05	1.9289e-05	1243.4	243.62	1.8502e-05	1.9367e-05	309.14	87.276	70.264	20.33	1.9016e-05	28.189	353.184	274.565	177.579	100.226	138.185	258.025	99.761	107.529	271.198	257.518	106.873	114.073	114.949	121.329	260.329	120.671	-8191	255	
985.042	1	1	0	0	0.13375	0.20632	0.06187	0.12181	0.24931	0.2793	0.2216	0.09859	0.15223	0.07284	0.051518	0.18052	0.34609	0.13315	0.046166	0.059644	-1.6375	-1.25	-1.5917	-2.0292	-1.2917	-1.9438	-1.625	-1.5167	-2.2042	-1.2188	-1.5792	-1.9771	-1.2542	-1.8771	-1.5875	-1.225	377.304	243.172	218.359	370.664	438.788	189.485	410.530	277.192	418.141	413.711	445.039	330.990	97.772	202.983	257.315	101.273	0.001013	8.2776e-05	9.4546e-06	1136.2	4.9507e-06	4.2886e-06	1242.8	239.12	1.006e-05	6.7528e-06	300.39	84.196	66.986	19.207	1.5004e-05	26.415	0.0015675	0.001741	0.00049421	1136.1	1.9158e-05	1.9595e-05	1243.3	243.52	1.9052e-05	1.9552e-05	309.67	87.033	70.27	20.361	1.9036e-05	28.147	385.118	142.613	293.347	99.999	214.340	348.994	99.768	107.110	163.952	222.661	107.324	113.966	114.395	121.853	234.143	121.007	-8191	255	
985.138	1	1	0	0	0.16703	0.17588	0.061517	0.23303	0.15686	0.13151	0.24088	0.13043	0.088884	0.21592	0.10892	0.22023	0.13989	0.17543	0.26025	0.16648	-1.6354	-1.3312	-1.5562	-2.0792	-1.2875	-1.8708	-1.9333	-1.2333	-2.1396	-1.4708	-1.6667	-1.9708	-1.2396	-1.7625	-1.7458	-1.2042	363.250	383.326	161.357	174.086	171.340	90.994	431.802	413.118	439.414	378.913	100.717	381.531	191.036	427.494	434.004	116.786	0.00082562	0.00045305	7.4258e-05	1129.3	4.3947e-06	7.3385e-06	1247	240.02	1.4364e-05	4.1373e-06	300.62	84.549	66.725	18.919	2.2012e-06	26.341	0.0015734	0.0017691	0.00049	1135.6	1.8891e-05	1.9127e-05	1243.7	243.02	1.8398e-05	1.9341e-05	309.34	87.206	70.111	20.322	1.888e-05	28.119	351.188	102.969	96.826	99.227	418.603	192.622	100.214	107.653	288.834	255.840	107.130	114.437	114.371	121.499	370.198	120.617	-8191	255	
985.234	1	1	0	0	0.10422	0.31818	0.13822	0.17399	0.061215	0.07911	0.36643	0.14832	0.091505	0.10774	0.047569	0.18678	0.18972	0.31453	0.22629	0.19957	-1.5583	-1.3458	-1.5083	-1.9208	-1.2458	-1.6833	-1.9521	-1.2208	-1.7979	-1.5167	-1.4917	-2.0417	-1.3292	-1.6333	-1.8042	-1.2958	364.360	120.331	348.624	397.932	249.023	314.850	376.318	108.447	380.377	329.633	133.154	94.536	389.491	422.865	196.292	358.946	0.00078341	0.00058195	0.00023986	1129.2	5.4816e-06	4.494e-06	1244.2	239.76	1.9154e-05	7.5636e-06	300.09	84.749	67.132	19.175	4.8212e-06	26.345	0.0015614	0.0017329	0.00047717	1135.6	1.8582e-05	1.9148e-05	1242.4	243.3	1.8171e-05	1.8858e-05	309.24	87.261	70.141	20.397	1.8488e-05	28.129	365.797	257.490	179.415	99.976	285.802	230.882	99.869	107.678	218.822	272.937	107.145	113.946	113.843	121.763	265.201	120.776	-8191	255	
985.355	1	1	0	0	0.19301	0.18094	0.19315	0.16415	0.21222	0.23604	0.33799	0.16432	0.12048	0.29588	0.2935	0.15524	0.17216	0.16582	0.18531	0.077382	-1.2417	-1.4417	-1.5146	-2.0771	-1.2854	-1.35	-2.0792	-1.2667	-1.7146	-1.8646	-1.3958	-2.1125	-1.4854	-1.6812	-1.8854	-1.2458	415.077	442.233	374.637	388.793	103.882	168.897	417.222	388.421	117.284	136.058	392.578	99.907	351.482	411.978	401.793	113.578	0.00086803	0.00058999	0.00024905	1134	3.1717e-06	9.9596e-06	1244.7	240.07	1.8435e-05	6.2694e-06	302.96	84.523	66.666	19.191	3.1176e-06	26.273	0.0015237	0.0017011	0.00048099	1136	1.8605e-05	1.902e-05	1241.9	243.52	1.8475e-05	1.9041e-05	310.78	87.157	70.094	20.406	1.8606e-05	28.113	351.680	214.554	169.441	99.906	242.572	241.385	99.010	106.846	185.736	138.712	106.589	113.532	113.155	121.227	302.651	120.550	-8191	255	
985.451	1	1	0	0	0.16616	0.075659	0.13821	0.11964	0.23286	0.072981	0.13298	0.1843	0.022989	0.17154	0.13924	0.2701	0.15497	0.043851	0.17164	0.19232	-1.2708	-1.6583	-1.0167	-2.0125	-1.4229	-1.4792	-2.1979	-1.2	-1.8167	-1.8396	-1.3687	-1.9021	-1.4562	-1.4708	-1.95	-1.1958	210.192	341.422	170.876	121.875	251.732	212.616	421.863	370.933	123.199	158.291	186.942	148.517	234.136	293.301	328.691	280.552	0.00086393	0.000638	0.00022119	1131.6	9.0478e-06	7.2359e-06	1238.3	238.43	1.13e-05	4.7992e-06	300	84.606	66.458	19.176	1.8472e-06	26.155	0.0015391	0.0017149	0.00047886	1136.2	1.8497e-05	1.8772e-05	1240.4	242.73	1.8115e-05	1.8802e-05	308.96	87.123	69.989	20.353	1.8378e-05	28.056	370.687	123.732	268.730	99.611	265.272	245.443	99.975	107.649	251.053	308.674	106.995	114.040	114.489	121.524	241.213	120.577	-8191	255	
985.522	1	1	0	0	0.18561	0.13926	0.12844	0.48362	0.086446	0.045165	0.23212	0.10154	0.067139	0.2107	0.087459	0.060426	0.073049	0.14352	0.051348	0.11284	-1.2958	-1.7687	-1.0667	-2.0458	-1.5792	-1.3479	-2.1896	-1.4875	-1.7354	-1.8542	-1.3708	-2.0625	-1.5021	-1.0958	-1.8458	-1.225	281.084	104.135	393.321	424.511	163.164	134.643	418.806	257.585	328.857	432.561	283.080	90.617	264.658	403.839	108.954	426.200	0.0010233	0.00030647	7.8861e-05	1128.3	4.9119e-06	7.504e-06	1238.8	239.66	1.81e-05	7.7932e-06	300.09	84.316	66.849	19.067	9.1821e-06	26.334	0.0015342	0.0016847	0.00047539	1135	1.8504e-05	1.8997e-05	1240.8	243.21	1.8441e-05	1.9252e-05	309.22	87.03	70.046	20.348	1.8611e-05	28.035	377.999	157.111	339.372	99.629	186.438	260.003	100.013	107.449	185.711	267.259	107.197	114.373	114.387	121.426	223.317	120.119	-8191	255	
985.619	1	1	0	0	0.2634	0.22847	0.18782	0.051457	0.25543	0.47844	0.11041	0.12585	0.13721	0.14146	0.21316	0.13511	0.24768	0.13142	0.12656	0.087516	-0.99375	-1.8438	-1.1938	-2.0896	-1.525	-1.2354	-2.0792	-1.2542	-1.2479	-1.8687	-1.3917	-1.8458	-1.7021	-1.2396	-1.8625	-1.2271	260.237	89.899	329.628	441.194	284.147	179.571	423.121	311.534	191.576	312.801	320.353	410.204	119.556	354.997	431.603	97.392	0.0011502	0.00038093	7.7384e-05	1128.5	3.5064e-06	3.8839e-06	1244.8	238.44	1.7831e-06	5.7565e-06	300.66	83.61	67.015	19.063	7.5081e-06	26.202	0.0015379	0.0017014	0.00047645	1134.8	1.8244e-05	1.8878e-05	1242.4	243.07	1.8346e-05	1.8802e-05	308.72	86.884	70.27	20.345	1.8459e-05	28.11	364.409	180.940	232.134	100.136	247.444	366.290	99.692	107.396	383.691	264.825	106.697	114.197	114.326	121.349	173.743	119.993	-8191	255	
985.715	1	1	0	0	0.12982	0.050511	0.23725	0.39662	0.1839	0.38923	0.39836	0.10064	0.18232	0.1308	0.12423	0.15649	0.071078	0.16971	0.12863	0.16113	-1.1021	-2	-1.0396	-1.7729	-1.6313	-1.0729	-2.125	-1.625	-1.2917	-1.8875	-1.2687	-1.5812	-1.6688	-1.1979	-1.8083	-1.7521	253.564	442.514	152.928	92.887	434.976	425.169	377.947	390.367	369.462	161.593	186.598	173.907	325.890	407.132	390.564	326.722	0.0011913	0.00042704	0.00018913	1131	6.9384e-06	6.3501e-06	1238.6	240.3	1.5465e-05	2.334e-06	300.78	84.45	67.199	19.167	1.0169e-05	26.141	0.0015301	0.0017246	0.00048605	1134.5	1.8478e-05	1.9024e-05	1239.9	243.24	1.8693e-05	1.9194e-05	308.57	86.989	70.197	20.366	1.8546e-05	27.985	371.395	363.725	169.425	100.174	192.841	237.223	99.813	107.142	283.261	421.440	107.099	114.049	114.613	121.434	244.421	121.036	-8191	255	
985.834	1	1	0	0	0.2959	0.092974	0.17884	0.22135	0.20417	0.001037	0.26803	0.06568	0.16551	0.1523	0.18243	0.36644	0.098219	0.17317	0.11197	0.086359	-0.82708	-1.8854	-1.2146	-1.6104	-1.6833	-1.1604	-1.9188	-1.5812	-1.1354	-1.9333	-1.3563	-1.5021	-1.9333	-1.2042	-1.7375	-1.8542	443.566	332.469	171.907	378.448	168.115	180.000	387.577	389.806	252.981	199.217	170.238	163.266	345.312	405.349	289.916	289.186	0.00072963	0.00027154	0.00010538	1131	5.1485e-06	4.8014e-06	1240.6	239.84	1.0492e-05	6.1947e-06	300.1	83.953	66.884	19.018	6.4075e-06	26.086	0.0015454	0.0017282	0.00047969	1134.7	1.8387e-05	1.9026e-05	1240.8	243.35	1.7959e-05	1.8583e-05	307.9	86.791	70.038	20.276	1.7676e-05	27.945	374.846	118.370	431.640	100.170	249.029	150.977	99.843	107.489	238.915	182.538	106.842	114.166	114.303	121.374	296.861	120.503	-8191	255	
985.930	1	1	0	0	0.15055	0.18321	0.23604	0.25275	0.18597	0.12146	0.106	0.056326	0.21523	0.1591	0.36841	0.26456	0.12504	0.26931	0.13058	0.2958	-0.82917	-1.9208	-1.4292	-1.6729	-2.0333	-1.1	-1.9417	-1.4625	-1.2646	-1.9958	-1.5167	-1.6208	-2.0021	-1.2667	-1.7583	-1.7563	420.892	97.616	237.051	271.919	119.349	175.982	323.754	161.095	136.588	166.845	131.180	395.229	133.954	133.357	362.326	428.032	0.00089474	0.0002168	0.00012086	1128.6	7.4235e-06	7.058e-06	1238.9	238.31	4.0444e-06	5.6332e-07	301.46	83.87	66.911	19.034	6.7285e-06	26.474	0.0014833	0.0016365	0.00045783	1131.6	1.7534e-05	1.8494e-05	1238.5	242.15	1.7946e-05	1.8395e-05	308.64	86.7	69.922	20.267	1.8061e-05	27.996	355.374	293.599	146.112	100.037	288.575	238.461	100.240	107.136	220.066	96.000	107.605	114.157	114.417	122.235	291.144	121.203	-8191	255	
986.026	1	1	0	0	0.17374	0.19837	0.29526	0.14984	0.18063	0.22507	0.41141	0.1371	0.12049	0.19655	0.22936	0.29993	0.03478	0.046714	0.1076	0.09911	-0.72083	-2.125	-1.4792	-1.4292	-1.9	-1.0542	-1.85	-1.7396	-1.05	-1.9667	-1.5979	-1.3125	-2.0729	-1.3229	-1.4104	-1.9542	170.161	193.588	210.587	435.195	278.491	198.462	436.888	166.195	429.055	401.568	424.133	131.427	366.727	139.894	356.380	273.681	0.00089289	0.00033398	0.00013558	1124.3	1.2868e-05	5.9796e-06	1239.8	239.54	1.6127e-05	1.7184e-06	300.97	84.027	66.811	19.16	3.5712e-06	26.284	0.001515	0.0016829	0.00046911	1129.2	1.7965e-05	1.8502e-05	1239.5	242.53	1.7889e-05	1.8461e-05	308.68	86.998	69.954	20.3	1.8211e-05	28.006	372.243	162.779	216.994	100.457	230.889	269.336	100.108	107.610	255.195	277.502	106.889	113.957	113.650	121.075	174.636	120.549	-8191	255	
986.147	1	1	0	0	0.085232	0.1269	0.10303	0.085954	0.19194	0.33457	0.21697	0.32363	0.11798	0.093364	0.13492	0.039553	0.23514	0.12971	0.13168	0.1195	-0.75625	-1.8167	-1.6104	-1.3125	-2.0896	-1.4375	-1.6854	-2.1083	-1.2437	-1.8417	-1.7667	-1.3417	-1.975	-1.3833	-1.3604	-2.0958	188.900	213.542	425.382	147.895	345.223	309.701	123.600	127.914	165.368	233.801	224.026	203.855	356.806	381.616	103.516	325.468	0.00082035	0.00072721	0.00019827	1128.2	8.1834e-06	7.0271e-06	1241.4	238.68	9.7262e-06	2.8899e-06	299.62	83.904	67.452	19.162	4.7325e-06	26.171	0.0015255	0.0016689	0.00046921	1133	1.8236e-05	1.8705e-05	1239.7	241.99	1.7689e-05	1.8609e-05	307.98	86.831	70.025	20.276	1.8033e-05	27.961	351.386	203.199	222.159	100.062	240.293	333.741	100.273	107.409	252.913	337.472	107.480	114.354	114.813	122.130	346.804	120.728	-8191	255	
986.218	1	1	0	0	0.010837	0.12972	0.26463	0.19643	0.18003	0.24548	0.27865	0.34692	0.13488	0.20278	0.20694	0.088264	0.14807	0.14865	0.17407	0.057555	-1	-1.8438	-1.6396	-1.2104	-1.9771	-1.4792	-1.6063	-1.9875	-1.0917	-1.6917	-1.875	-1.2542	-2.2854	-1.5562	-1.3458	-1.9333	341.502	430.097	115.692	382.411	118.884	295.241	387.244	100.152	353.233	118.545	154.566	422.461	163.989	147.416	282.705	360.736	0.00080658	0.00024096	0.00010302	1125.6	7.6054e-06	3.5363e-06	1236.5	239.49	1.5283e-05	3.7423e-06	301.96	83.975	67.578	19.109	1.3452e-06	26.472	0.0014941	0.0016644	0.00046584	1132.4	1.7815e-05	1.84e-05	1237.8	242.66	1.7786e-05	1.8093e-05	308.41	86.662	70.082	20.312	1.8014e-05	28.027	360.413	393.255	176.813	100.315	235.336	200.197	100.294	107.589	230.898	225.811	107.066	114.049	114.883	121.982	258.488	120.995	-8191	255	
986.314	1	1	0	0	0.04023	0.15166	0.14211	0.2047	0.34852	0.2824	0.022609	0.22668	0.20281	0.14853	0.072985	0.14455	0.34827	0.19773	0.2035	0.012574	-0.91042	-1.675	-1.7458	-1.2625	-1.7542	-1.6271	-1.2708	-2.0187	-1.0792	-1.7833	-1.8937	-1.35	-1.775	-1.6958	-1.2583	-1.9417	438.026	187.699	120.249	111.973	409.172	351.338	362.680	396.429	135.321	229.975	436.042	399.037	416.583	271.164	163.103	169.871	0.0010535	0.00012184	0.00018802	1126.3	8.491e-06	3.8019e-06	1241.2	239.26	1.1134e-05	5.8007e-06	299.67	85.125	67.079	19.103	6.1528e-06	26.285	0.0015027	0.0016896	0.00047089	1131.7	1.8513e-05	1.9128e-05	1238.8	242.62	1.866e-05	1.9523e-05	309.79	87.162	70.103	20.374	1.9153e-05	28.152	358.047	314.934	188.605	100.180	212.724	297.519	100.038	107.270	227.305	234.299	107.896	114.350	114.670	121.175	294.953	120.634	-8191	255	
986.435	1	1	0	0	0.14855	0.11123	0.21507	0.083396	0.1619	0.15687	0.08998	0.04943	0.13645	0.16151	0.20216	0.12154	0.26698	0.21419	0.095348	0.18792	-0.92083	-1.2188	-1.9479	-1.1771	-1.8667	-1.675	-1.2146	-2.0375	-1.25	-1.4937	-1.9833	-1.2042	-1.8375	-1.5708	-0.99792	-1.8833	385.235	335.653	250.076	283.277	374.944	395.489	228.409	284.459	237.792	121.150	407.981	245.729	400.103	267.198	230.819	388.007	0.00082456	0.00048868	0.00012968	1125.3	2.9404e-06	6.9353e-06	1239	239.7	1.5545e-05	5.1176e-07	300.67	84.423	67.523	19.128	3.3825e-06	26.072	0.0015736	0.0017334	0.00049484	1132.7	1.8978e-05	1.9372e-05	1241.1	242.85	1.8609e-05	1.9454e-05	309.38	86.963	70.293	20.355	1.9395e-05	28.079	364.870	166.192	206.026	99.860	181.025	171.693	100.085	107.679	217.175	197.088	107.066	114.264	114.373	121.568	204.199	120.758	-8191	255	
986.531	1	1	0	0	0.22082	0.19698	0.19987	0.34994	0.10997	0.043511	0.27379	0.15405	0.083551	0.12616	0.0093592	0.068701	0.16466	0.23328	0.18067	0.33295	-0.93333	-1.2208	-1.9167	-1.1854	-1.5042	-1.8062	-1.4562	-1.9104	-1.4688	-1.3333	-2.2833	-1.3042	-1.6417	-1.7563	-1.1417	-1.9854	443.962	183.178	136.516	416.039	372.590	371.563	414.968	441.917	246.765	111.075	315.136	104.040	252.092	121.477	289.291	165.586	0.00081469	0.00057032	4.9539e-05	1126.4	6.771e-06	1.8536e-06	1239.1	239.08	2.8861e-05	5.6881e-06	300.12	84.287	67.191	19.083	6.7774e-06	26.109	0.0015705	0.0017634	0.00050061	1132.8	1.9172e-05	1.9623e-05	1240.7	243.24	1.8707e-05	1.9859e-05	309.37	87.048	70.241	20.351	1.8999e-05	28.05	382.534	415.387	146.246	100.326	206.273	245.200	100.011	107.760	212.748	239.604	107.262	114.623	114.881	121.536	283.865	120.347	-8191	255	
986.627	1	1	0	0	0.096023	0.07881	0.31514	0.052981	0.18207	0.0019873	0.41532	0.14121	0.14958	0.20651	0.16178	0.22866	0.32844	0.10521	0.13236	0.054989	-1.2604	-1.3292	-1.8083	-1.5729	-1.6562	-2.0812	-1.2625	-1.9646	-1.6063	-1.2958	-1.9354	-1.3729	-1.5229	-2.0479	-1.0667	-1.7708	385.879	106.131	363.183	165.580	239.577	180.000	414.904	395.161	383.644	341.940	361.506	434.411	365.771	374.238	319.822	317.335	0.00092292	0.00092944	0.00018473	1129	1.3816e-05	2.4448e-06	1236.5	237.62	3.5122e-06	5.7528e-06	301.97	84.396	66.46	19.175	6.1922e-06	26.218	0.0015569	0.0017485	0.00048181	1132.4	1.8675e-05	1.9306e-05	1237.5	242.28	1.8211e-05	1.9019e-05	308.41	86.955	69.939	20.346	1.8512e-05	28.085	350.604	179.753	255.848	100.205	234.031	306.553	100.493	108.151	247.777	218.665	107.347	114.163	114.688	121.972	169.409	121.494	-8191	255	
986.746	1	1	0	0	0.22837	0.16693	0.12251	0.17304	0.25873	0.11864	0.26726	0.087163	0.29011	0.1346	0.25131	0.38883	0.19049	0.10195	0.14935	0.29715	-1.2708	-1.0521	-1.8813	-1.4729	-1.3292	-1.9083	-1.4188	-1.5771	-1.6958	-1.2354	-2.0333	-1.4937	-1.4896	-1.7354	-1.1271	-1.7396	232.416	273.841	149.235	119.055	404.851	412.107	314.223	202.852	217.944	150.501	94.548	408.509	374.106	393.719	294.973	106.125	0.0010955	0.00010153	0.00027792	1124	8.1689e-06	3.1906e-06	1238	239.82	5.3945e-06	6.8604e-06	300.39	84.338	67.087	19.119	5.9679e-06	26.223	0.001549	0.0017193	0.00048279	1131.7	1.8639e-05	1.947e-05	1239.7	243.12	1.8629e-05	1.9678e-05	309.03	86.966	70.445	20.377	1.8833e-05	28.084	364.348	186.774	122.560	100.304	210.784	125.385	100.406	108.003	312.411	259.341	107.018	114.555	115.038	121.967	248.617	121.510	-8191	255	
986.818	1	1	0	0	0.25047	0.17797	0.13077	0.36972	0.13489	0.075222	0.32066	0.11449	0.26615	0.055477	0.12831	0.23422	0.045282	0.22632	0.3195	0.15247	-1.4167	-1.0542	-1.7958	-1.5958	-1.2917	-1.9146	-1.3104	-1.6875	-1.8813	-1.0917	-1.8875	-1.5208	-1.2062	-2.0938	-1.3062	-1.6021	263.598	195.759	205.408	439.646	252.410	292.505	346.303	351.850	160.737	414.620	245.397	250.535	138.670	416.694	425.171	359.661	0.0010395	0.00042755	0.00014456	1125.1	1.3794e-05	6.2174e-06	1239.8	239.87	2.2639e-05	4.6751e-06	301.47	84.685	66.901	19.036	1.2384e-05	26.105	0.0015791	0.0017558	0.00049146	1133.1	1.8961e-05	1.9382e-05	1238.9	243.48	1.8926e-05	1.9499e-05	310.04	87.17	70.359	20.4	1.9141e-05	28.035	353.274	158.928	191.031	99.975	202.419	244.262	99.701	107.492	237.746	272.202	107.304	114.068	114.266	121.891	205.432	121.263	-8191	255	
986.914	1	1	0	0	0.31503	0.32054	0.29374	0.49555	0.14399	0.13768	0.28113	0.13245	0.27691	0.20156	0.094816	0.10142	0.34661	0.18265	0.22667	0.17155	-1.3354	-1.0396	-1.7542	-1.7229	-1.0312	-2.0604	-1.5938	-1.6667	-1.9833	-1.0146	-1.7208	-1.8208	-1.2479	-2.0917	-1.5312	-1.3979	244.243	403.560	282.870	442.093	272.624	124.546	365.495	221.698	105.718	95.260	98.866	336.621	438.515	367.725	425.896	436.658	0.0010233	0.00073392	0.00011965	1130	9.1093e-06	6.1089e-06	1246.2	240.43	7.4342e-06	4.0322e-06	304.1	84.338	67.289	19.002	1.5092e-06	26.262	0.0015811	0.0017452	0.00049274	1135.9	1.9199e-05	1.9584e-05	1241.4	243.48	1.8972e-05	1.9711e-05	310.36	87.199	70.384	20.371	1.9133e-05	28.164	366.138	146.381	169.388	100.094	223.290	294.285	100.251	107.650	205.584	266.544	107.224	114.193	114.699	121.710	213.104	121.105	-8191	255	
987.010	1	1	0	0	0.15883	0.29573	0.10895	0.13056	0.13133	0.098016	0.35481	0.1176	0.2648	0.16628	0.090286	0.25401	0.1801	0.21477	0.20753	0.26658	-1.5917	-1.2354	-1.55	-1.7396	-1.3062	-1.7021	-1.725	-1.3542	-1.8646	-1.1729	-1.7833	-1.8896	-1.1896	-1.9958	-1.6333	-1.4312	441.613	123.749	244.283	419.062	410.276	376.755	392.777	431.222	243.224	153.558	387.806	412.858	131.610	351.754	286.453	275.242	0.00096692	0.0008878	0.00018449	1125.1	6.7467e-06	6.378e-06	1231.4	239.73	7.4782e-06	1.8755e-06	303.14	84.281	67.256	19.219	4.8001e-06	26.275	0.001594	0.0017959	0.00050423	1133.6	1.9293e-05	2.0016e-05	1240.3	243.22	1.9314e-05	1.9955e-05	310.41	87.088	70.352	20.437	1.9271e-05	28.148	367.369	177.665	239.978	100.367	219.309	261.982	100.523	108.307	143.613	385.588	107.153	114.667	114.720	122.027	236.397	121.361	-8191	255	
987.131	1	1	0	0	0.23355	0.17562	0.1474	0.094402	0.13854	0.043395	0.2184	0.24901	0.14963	0.18122	0.32443	0.23789	0.20586	0.21635	0.013175	0.14125	-1.5562	-1.3062	-1.475	-1.9042	-1.2854	-1.7687	-1.8208	-1.2667	-2.0229	-1.2396	-1.5229	-2.0687	-1.3062	-1.8729	-1.6271	-1.1542	153.389	116.786	283.218	309.397	436.662	183.067	410.928	378.198	437.348	389.480	412.547	267.698	439.376	327.036	277.113	412.833	0.00093178	0.0004226	0.00031036	1125	5.7799e-06	4.9947e-06	1233.2	240.12	1.9163e-05	5.3975e-06	300.73	84.497	66.534	19.087	7.1489e-06	26.176	0.0015935	0.0017677	0.00049408	1132.9	1.8926e-05	1.9175e-05	1239.9	243.18	1.8353e-05	1.8893e-05	308.63	87.077	70.077	20.351	1.8054e-05	27.976	370.004	204.385	200.332	99.987	233.154	261.320	100.148	107.932	234.759	299.983	107.418	114.214	114.462	121.699	292.832	121.364	-8191	255	
987.227	1	1	0	0	0.084538	0.34122	0.11126	0.14992	0.25057	0.19882	0.1767	0.049466	0.49563	0.014068	0.054529	0.20673	0.092227	0.22429	0.1727	0.32991	-1.5312	-1.325	-1.2375	-2.0542	-1.1917	-1.7521	-1.8417	-1.2458	-2.0687	-1.5417	-1.4646	-2.1167	-1.2563	-1.7833	-1.7833	-1.2583	444.159	231.161	188.758	437.469	297.677	168.777	410.881	387.896	181.222	90.945	159.851	123.352	227.574	396.204	92.107	444.476	0.00095572	0.00027963	0.00022236	1125.8	8.2298e-06	6.5437e-06	1246.5	239.97	8.5694e-06	1.3944e-06	300.78	84.658	66.977	18.947	1.3508e-05	26.347	0.0014976	0.0016556	0.00047106	1132.2	1.8152e-05	1.8327e-05	1241.8	242.89	1.7848e-05	1.855e-05	309.35	86.832	70.252	20.269	1.8193e-05	28.047	359.698	137.313	195.103	100.055	198.610	193.439	99.940	107.912	328.393	278.189	107.084	113.705	114.362	121.398	240.786	120.971	-8191	255	
987.323	1	1	0	0	0.35073	0.10669	0.20977	0.022747	0.043805	0.11205	0.2659	0.20665	0.12135	0.25561	0.084523	0.35805	0.07487	0.13774	0.17337	0.39608	-1.5125	-1.45	-1.3229	-2.2292	-1.2042	-1.5854	-1.9146	-1.1875	-1.7729	-1.5229	-1.3479	-2.0896	-1.075	-1.4208	-1.8458	-1.1688	251.587	262.476	385.319	148.587	123.566	311.690	413.784	407.273	416.564	168.014	117.565	388.096	340.770	337.988	226.372	364.404	0.00068152	0.00088008	0.00011807	1133.9	1.0071e-05	4.1213e-06	1236.2	238.07	4.1112e-06	4.1795e-06	299.88	83.947	66.599	18.988	1.0332e-05	26.341	0.0015156	0.0016916	0.00047026	1134.6	1.8122e-05	1.8669e-05	1239.4	242.37	1.7716e-05	1.8624e-05	308.42	86.693	69.994	20.284	1.7977e-05	28.005	368.675	166.350	236.026	100.012	194.025	124.107	100.273	107.676	252.650	202.385	107.237	114.173	114.813	122.031	220.818	120.729	-8191	255	
987.419	1	1	0	0	0.22653	0.4874	0.15315	0.18531	0.090511	0.078204	0.16344	0.10265	0.065842	0.12861	0.17761	0.12727	0.057824	0.24158	0.10316	0.14304	-1.3312	-1.5438	-1.0458	-2.0667	-1.2896	-1.3708	-2.1583	-1.4583	-1.6437	-1.9479	-1.3292	-1.9292	-1.5187	-1.2792	-2.0687	-1.1688	294.707	258.214	232.692	398.987	203.635	124.272	425.132	189.266	327.828	279.487	423.155	184.049	158.809	189.382	266.574	124.629	0.00062187	0.0009351	5.5071e-05	1129.5	1.016e-05	7.3184e-06	1235.9	239.16	6.2315e-06	5.7486e-06	301.81	84.3	67.202	18.872	7.4273e-06	26.297	0.001495	0.0016727	0.00046523	1133.7	1.8078e-05	1.8325e-05	1237.9	242.37	1.758e-05	1.8186e-05	309.24	86.643	70.017	20.192	1.7312e-05	27.941	370.792	167.929	188.106	100.203	199.251	298.237	99.811	107.220	268.390	262.691	106.999	113.724	114.214	121.618	200.287	120.604	-8191	255	
987.515	1	1	0	0	0.14896	0.14484	0.34559	0.24116	0.18125	0.20925	0.1349	0.27302	0.10604	0.24864	0.20885	0.12644	0.014134	0.29034	0.32034	0.10523	-1.3813	-1.6875	-1.1562	-2.2042	-1.5354	-1.4417	-2.1063	-1.1958	-1.7292	-1.7208	-1.3438	-1.7458	-1.5458	-1.4771	-1.8354	-1.4312	298.316	185.857	416.448	446.882	428.080	98.559	415.985	397.714	375.054	434.261	432.436	298.292	318.929	434.187	414.189	268.486	0.0010444	0.0008613	0.00013543	1129.7	4.7563e-06	1.7155e-06	1240.6	238.83	6.3355e-06	1.7623e-06	302.22	84.055	66.994	19.118	4.0954e-06	26.394	0.0014694	0.0016189	0.00045399	1132.6	1.7482e-05	1.8214e-05	1237.6	242.37	1.7523e-05	1.8405e-05	308.77	86.953	69.927	20.299	1.8214e-05	28.056	360.675	190.313	161.081	100.143	193.469	195.449	100.239	107.536	205.894	262.347	107.145	114.753	114.401	121.618	274.485	121.293	-8191	255	
987.612	1	1	0	0	0.12156	0.14571	0.23056	0.58075	0.40151	0.070288	0.24352	0.2283	0.23114	0.14028	0.22516	0.080827	0.22073	0.17229	0.03498	0.12711	-1.0896	-1.9104	-1.0667	-1.8833	-1.5625	-1.2188	-2.025	-1.3146	-1.2833	-1.8646	-1.2646	-1.8208	-1.9167	-1.2062	-2.1583	-1.2896	214.001	387.724	434.296	405.697	363.940	232.732	352.935	355.480	128.887	290.088	380.202	232.469	443.799	150.694	367.665	422.595	0.00092009	0.0004032	0.00016731	1125.1	9.5808e-06	1.0657e-05	1237.2	237.99	3.1238e-06	2.7633e-06	300.15	84.007	66.978	19.082	4.7439e-06	26.33	0.0015304	0.0017032	0.00048154	1132.9	1.8361e-05	1.8831e-05	1239.5	242.05	1.7966e-05	1.8576e-05	308.92	86.653	70.031	20.289	1.8018e-05	28.078	367.556	116.626	93.429	100.390	199.244	234.421	100.001	107.491	91.880	157.278	106.547	114.245	114.693	122.047	252.992	121.033	-8191	255	
987.708	1	1	0	0	0.16627	0.16673	0.33999	0.24657	0.23874	0.11291	0.31952	0.13507	0.27641	0.15691	0.23532	0.16987	0.14276	0.049265	0.18512	0.15372	-1.0354	-1.925	-1.2375	-1.8646	-1.85	-1.3542	-2.0208	-1.4875	-1.1604	-1.9771	-1.2958	-1.8458	-1.8792	-1.3354	-1.8771	-1.5646	305.726	122.333	191.913	418.179	334.582	171.030	352.338	334.843	404.634	141.507	422.740	217.230	238.116	226.242	168.374	411.739	0.00099884	0.00033704	0.00017101	1129.5	9.363e-06	3.1665e-06	1239.9	238.59	4.603e-06	3.7703e-06	301.05	84.891	67.254	19.094	5.1636e-06	26.147	0.0015237	0.0017073	0.00047671	1133.6	1.8334e-05	1.9107e-05	1241.8	242.3	1.8627e-05	1.9283e-05	308.89	87.17	70.322	20.312	1.8489e-05	28.065	361.152	268.448	230.130	99.874	205.720	131.539	100.243	107.746	441.941	329.379	107.365	114.483	114.801	121.676	124.219	120.710	-8191	255	
987.827	1	1	0	0	0.045612	0.26823	0.19487	0.38953	0.040787	0.29996	0.069251	0.19815	0.14811	0.18887	0.41423	0.10575	0.24759	0.071038	0.036287	0.17568	-0.82083	-1.7938	-1.1875	-1.8208	-2.0396	-1.1479	-1.9188	-1.7208	-1.3042	-1.975	-1.5396	-1.7	-1.9312	-1.0771	-1.8583	-1.5771	327.394	409.511	415.420	383.322	404.241	446.189	323.282	151.854	293.825	350.728	350.792	123.046	140.642	353.269	159.617	357.985	0.0010337	0.00059458	0.00012872	1123.4	2.4289e-06	5.5398e-06	1238.4	238.11	1.6585e-05	9.2795e-06	299.99	84.196	67.165	19.019	4.0835e-06	26.273	0.0015746	0.0017504	0.00048533	1133.3	1.8917e-05	1.9601e-05	1241.2	242.58	1.8542e-05	1.9329e-05	309.12	87.074	70.163	20.374	1.8831e-05	28.048	349.396	248.067	257.206	100.292	264.027	251.536	100.322	107.881	185.351	236.202	107.696	114.687	114.765	121.842	284.767	120.856	-8191	255	
987.923	1	1	0	0	0.1194	0.17048	0.20318	0.1439	0.089899	0.12458	0.31203	0.3371	0.31913	0.2465	0.23886	0.13194	0.18094	0.21137	0.073031	0.08801	-0.725	-2.0042	-1.2812	-1.4937	-1.8917	-1.2896	-1.9229	-1.7917	-1.2354	-1.9021	-1.475	-1.4417	-1.8312	-1.15	-1.8292	-1.8833	247.032	359.377	292.357	434.314	136.648	212.007	414.140	434.133	379.641	140.735	414.386	384.713	333.013	169.052	392.468	200.743	0.0010448	0.00019857	0.00012765	1127.7	3.3904e-06	8.5685e-06	1241.6	237.9	5.4462e-06	5.5665e-06	299.51	83.994	66.357	18.959	8.4983e-06	26.473	0.0015672	0.0017299	0.00048467	1132.8	1.862e-05	1.8962e-05	1242.1	242.23	1.7915e-05	1.8223e-05	307.69	86.764	69.846	20.178	1.7154e-05	27.902	359.959	171.012	191.606	100.464	130.018	222.490	100.162	108.121	159.371	332.885	106.783	114.112	115.133	122.130	192.081	120.589	-8191	255	
988.019	1	1	0	0	0.14395	0.1415	0.21882	0.21509	0.11062	0.094851	0.19564	0.12969	0.1808	0.28042	0.19095	0.12426	0.03063	0.043455	0.32608	0.18294	-0.8375	-1.9042	-1.3833	-1.375	-1.8667	-1.3917	-1.9271	-1.7458	-1.2396	-1.875	-1.5854	-1.2458	-1.9229	-1.3062	-1.6604	-2.1083	98.692	345.612	346.801	426.137	181.895	316.630	359.096	400.509	372.693	427.215	136.808	206.706	211.976	125.178	433.604	324.332	0.00099776	0.00010167	0.00013636	1121.3	6.6921e-06	3.8159e-06	1230.6	237.24	8.1959e-06	5.8271e-06	300.11	84.281	66.885	18.945	5.2782e-06	26.353	0.0013777	0.0015045	0.000423	1125.2	1.5772e-05	1.6124e-05	1229.7	240.24	1.5515e-05	1.6068e-05	306.07	86.312	69.19	20.103	1.6175e-05	27.778	371.875	143.934	118.710	100.325	240.443	258.717	100.075	106.984	168.294	419.213	106.868	113.771	113.904	121.205	158.403	120.440	-8191	255	
988.115	1	1	0	0	0.10056	0.15416	0.2195	0.29207	0.11765	0.39244	0.22088	0.20822	0.19242	0.23575	0.080263	0.21473	0.18513	0.36394	0.19158	0.18056	-0.8625	-2.05	-1.6	-1.4688	-1.9688	-1.4396	-1.7437	-2.1104	-1.1458	-1.9521	-1.7479	-1.1896	-2.1188	-1.2458	-1.3042	-1.8958	388.987	342.757	202.731	390.635	376.765	222.843	403.389	339.256	102.756	333.300	328.983	371.021	152.748	131.862	325.710	273.052	0.00093477	2.3015e-05	7.8377e-05	1114.5	1.3817e-05	3.9171e-06	1231.8	236.9	1.1267e-05	6.1594e-06	298.28	83.831	66.532	19.04	5.7599e-06	26.254	0.0013612	0.0014959	0.00041706	1122.2	1.6163e-05	1.6902e-05	1231.1	240.54	1.6039e-05	1.6974e-05	305.57	86.179	69.172	20.115	1.6073e-05	27.73	353.882	433.550	188.326	99.796	209.932	230.264	99.881	107.620	294.357	272.178	107.215	114.025	114.750	121.536	115.031	120.702	-8191	255	
988.211	1	1	0	0	0.061503	0.29385	0.22783	0.28661	0.28431	0.27025	0.28158	0.038301	0.18522	0.023893	0.040143	0.050359	0.25712	0.090542	0.40436	0.27056	-0.75833	-1.6812	-1.5438	-1.2375	-1.9688	-1.4479	-1.4813	-1.9646	-1.1938	-1.5604	-1.8146	-1.3833	-1.9396	-1.4771	-1.3604	-1.8771	157.089	365.726	428.659	118.245	282.917	425.490	362.760	407.301	412.756	291.206	355.254	441.849	232.942	241.013	298.398	269.142	0.00094194	0.00034725	0.00013252	1117.1	1.5907e-06	1.1787e-05	1234.7	236.7	5.7337e-06	2.095e-06	297.63	83.83	66.489	19.046	5.024e-06	26.009	0.0013469	0.0014891	0.0004165	1121.2	1.5737e-05	1.6459e-05	1230.1	240.19	1.5531e-05	1.6198e-05	305.26	86.117	69.241	20.048	1.5755e-05	27.717	360.942	114.563	210.792	99.649	244.253	243.158	100.264	107.534	182.955	396.094	107.177	114.277	114.614	121.815	215.064	120.924	-8191	255	
988.307	1	1	0	0	0.17611	0.28646	0.1432	0.076043	0.13924	0.14186	0.33649	0.24393	0.11508	0.2061	0.18167	0.15958	0.24217	0.22879	0.15242	0.21544	-0.89375	-1.7354	-1.8354	-1.2521	-1.9688	-1.6479	-1.4417	-2.2708	-1.4	-1.475	-1.9833	-1.3042	-1.9229	-1.5604	-1.25	-2.15	324.186	283.840	399.701	445.732	247.313	390.475	381.272	147.105	364.259	221.509	444.941	93.741	140.144	375.779	164.592	104.785	0.00083697	0.0005367	4.8433e-05	1115.3	1.2922e-05	5.3695e-06	1229.8	237.27	5.714e-06	3.8425e-06	297.04	83.468	66.289	18.927	2.1721e-06	26.002	0.001313	0.0014682	0.00041181	1120.8	1.5975e-05	1.6375e-05	1227.4	240.2	1.6011e-05	1.6504e-05	305.14	85.996	69.266	20.057	1.6042e-05	27.704	357.283	211.354	283.409	100.175	255.517	199.009	99.320	107.479	188.266	349.499	107.409	113.976	114.495	121.336	274.450	121.092	-8191	255	
988.428	1	1	0	0	0.19792	0.12736	0.273	0.18081	0.20055	0.07741	0.1255	0.15376	0.11597	0.27682	0.22714	0.16417	0.14588	0.1036	0.056155	0.33084	-0.79583	-1.3625	-1.8229	-1.2854	-1.7583	-1.7396	-1.4542	-2.05	-1.4271	-1.3687	-2.0563	-1.2062	-1.6708	-1.7917	-1	-1.9042	164.618	342.525	312.011	161.504	397.567	269.993	102.871	385.444	328.783	99.759	370.792	109.702	101.727	110.620	330.901	128.990	0.00085812	0.00088042	6.8413e-05	1118.9	9.557e-06	7.4039e-06	1228.1	236.85	5.928e-06	1.2072e-06	296.6	83.193	66.488	18.963	7.8495e-06	26.005	0.0013471	0.001515	0.0004177	1120.6	1.6165e-05	1.7002e-05	1227.9	240.24	1.6405e-05	1.7023e-05	305.37	86.159	69.228	20.1	1.6793e-05	27.772	361.318	144.286	448.344	100.193	288.590	196.631	100.250	107.932	272.901	219.352	107.120	114.120	114.627	121.035	212.967	120.457	-8191	255	
988.524	1	1	0	0	0.16159	0.15393	0.17316	0.24818	0.083823	0.27031	0.21174	0.23051	0.16322	0.24557	0.24937	0.063402	0.2171	0.18346	0.31039	0.077322	-1.0042	-1.2646	-2.0896	-1.2812	-1.6917	-1.8062	-1.3417	-2.0187	-1.4875	-1.2687	-2.1625	-1.2437	-1.5229	-1.7771	-1.2542	-1.8771	405.188	422.025	355.733	371.851	410.968	371.152	112.664	355.655	274.590	202.715	435.765	223.601	410.247	270.113	263.024	443.706	0.0011192	0.0005401	0.00019821	1117.4	5.2725e-06	6.0674e-06	1226.5	235.67	1.0657e-05	4.5234e-06	297.34	83.775	67.129	18.921	2.8841e-06	26.06	0.0013987	0.0015598	0.00042936	1120.2	1.6956e-05	1.7445e-05	1227.8	240.57	1.6797e-05	1.7543e-05	306.24	86.199	69.468	20.128	1.685e-05	27.836	367.653	199.273	157.970	99.344	168.378	415.951	99.636	107.593	230.196	326.485	107.430	114.309	114.640	121.884	103.260	120.720	-8191	255	
988.620	1	1	0	0	0.15031	0.019971	0.090526	0.27419	0.24301	0.13015	0.051674	0.27268	0.012802	0.11677	0.10267	0.16244	0.16918	0.37179	0.11947	0.11843	-1.0771	-1.1417	-2.0125	-1.625	-1.3542	-1.9979	-1.2687	-1.8354	-1.5271	-1.1437	-2.0417	-1.6208	-1.3771	-1.9021	-1.0625	-1.8229	385.815	331.913	265.939	136.123	256.881	425.642	103.281	295.157	161.905	151.151	116.625	376.953	319.972	98.151	303.038	217.093	0.00083822	0.00080792	0.00014096	1119.4	1.1578e-05	7.2953e-06	1221.7	236.01	1.178e-05	3.7327e-06	297.02	83.542	66.508	18.825	9.103e-06	26.011	0.0013945	0.0015732	0.00042732	1121.5	1.672e-05	1.6925e-05	1228.1	240.1	1.6708e-05	1.7326e-05	306.29	86.142	69.443	20.085	1.6921e-05	27.829	351.549	162.088	447.958	100.091	268.480	225.956	100.140	107.716	260.106	218.158	107.211	113.647	114.628	121.752	248.566	121.122	-8191	255	
988.692	1	1	0	0	0.17335	0.17441	0.14088	0.1947	0.27244	0.22962	0.03472	0.2471	0.21865	0.1377	0.13813	0.056291	0.21545	0.24987	0.19817	0.38551	-1.3146	-1.1146	-2.0521	-1.6	-1.45	-2.0521	-1.3042	-1.8042	-1.6896	-1.0417	-1.975	-1.6979	-1.3542	-2.1042	-1.2583	-1.7104	351.126	214.334	300.552	118.180	139.019	168.719	324.107	399.833	339.394	130.943	370.129	283.400	399.031	190.857	133.712	170.014	0.00097309	0.00019766	8.4024e-05	1110.7	4.2741e-06	2.5054e-06	1221.6	236.83	1.4112e-05	1.7686e-06	297.8	83.529	66.768	18.915	7.6681e-06	25.935	0.0013953	0.0015826	0.00043645	1119.5	1.6575e-05	1.6809e-05	1226.1	240.24	1.6429e-05	1.7176e-05	305.85	86.002	69.388	20.099	1.7052e-05	27.861	356.342	91.881	137.359	100.286	211.667	429.978	100.252	107.277	208.628	170.884	106.895	114.042	114.842	121.621	232.694	120.601	-8191	255	
988.811	1	1	0	0	0.18465	0.1853	0.1553	0.20152	0.15433	0.12244	0.30974	0.23707	0.042646	0.19603	0.10783	0.33498	0.20657	0.10287	0.22126	0.15188	-1.1354	-1.0729	-1.9521	-1.7667	-1.1521	-2.0042	-1.4167	-1.6333	-1.8354	-1.2625	-1.7958	-1.4271	-1.2125	-1.9438	-1.2875	-1.4958	295.659	387.627	405.969	435.601	264.572	152.416	419.929	426.420	118.563	216.306	128.677	408.893	332.547	332.911	152.137	441.091	0.00080496	0.00052906	0.0001303	1110.8	4.9058e-06	1.9819e-06	1217.2	234.47	1.1072e-05	3.7567e-06	296.85	83.421	66.439	18.758	6.1459e-06	26.079	0.0014351	0.0015894	0.00045066	1118.9	1.7207e-05	1.768e-05	1225.8	240.49	1.7335e-05	1.8056e-05	306.19	86.262	69.453	20.131	1.7486e-05	27.902	359.859	260.508	211.801	100.251	279.353	96.516	100.209	107.887	232.201	166.625	107.230	114.449	114.001	121.131	332.048	120.379	-8191	255	
988.907	1	1	0	0	0.27318	0.16093	0.072094	0.27206	0.099268	0.041347	0.15543	0.17837	0.13239	0.019059	0.19235	0.21505	0.058938	0.14608	0.093694	0.16925	-1.5333	-1.0458	-1.7542	-1.875	-1.0229	-1.9146	-1.5771	-1.3667	-1.9833	-1.1187	-2.0375	-1.8813	-1.1187	-1.9604	-1.4167	-1.6271	109.232	431.290	282.593	395.256	320.483	438.507	411.903	165.259	171.262	407.029	447.476	330.210	199.597	365.294	441.909	205.840	0.00083214	0.00047257	0.00015742	1106.4	1.079e-05	3.0704e-06	1218.5	235.67	7.4856e-06	3.8362e-07	297.24	83.51	66.217	18.753	8.3499e-06	25.919	0.001461	0.001626	0.00045549	1119.1	1.7625e-05	1.782e-05	1226.5	240.71	1.7037e-05	1.804e-05	306.22	86.154	69.422	20.063	1.7015e-05	27.808	368.159	170.575	196.294	100.113	228.986	213.034	99.589	107.557	174.471	97.772	107.070	113.854	114.020	121.648	288.203	121.273	-8191	255	
989.003	1	1	0	0	0.060698	0.27555	0.17217	0.089041	0.25325	0.099138	0.26332	0.17396	0.13597	0.1591	0.16784	0.097477	0.045765	0.23017	0.265	0.37447	-1.6812	-1.1437	-1.6604	-1.925	-1.1896	-1.675	-1.7042	-1.5083	-1.8229	-1.2437	-1.6604	-1.8563	-1.1812	-1.8937	-1.5771	-1.3167	385.688	253.374	202.252	406.037	212.569	354.093	404.716	446.451	259.867	435.667	405.905	372.347	267.098	99.361	403.258	390.388	0.00101	0.00037157	0.0001278	1107.6	7.8149e-06	7.5599e-07	1218.2	235.48	9.7536e-06	5.7446e-06	298.04	83.805	66.9	19.048	1.0103e-05	25.984	0.0014413	0.0015837	0.00044784	1120.1	1.7397e-05	1.7732e-05	1226.3	240.6	1.7163e-05	1.7685e-05	306.66	86.232	69.51	20.195	1.7164e-05	27.859	360.135	231.133	158.940	99.996	217.686	255.197	99.737	107.133	218.134	209.380	107.039	113.814	114.692	122.076	222.462	121.125	-8191	255	
989.099	1	1	0	0	0.145	0.13307	0.27798	0.34932	0.12854	0.15907	0.40694	0.18913	0.027538	0.15521	0.15777	0.30616	0.11955	0.11262	0.25933	0.24862	-1.6792	-1.2229	-1.5271	-1.8375	-1.1479	-2.0854	-1.9062	-1.4958	-1.9813	-1.5125	-1.6187	-1.9958	-1.2604	-2.0208	-1.7396	-1.325	367.465	390.078	181.581	434.856	350.549	211.885	112.332	363.880	351.469	179.725	375.591	405.250	377.555	307.962	379.108	156.543	0.00092127	0.0008683	0.00013841	1113.5	9.5966e-06	3.9699e-06	1224.8	237.16	3.2272e-06	5.5331e-07	297.65	83.551	66.413	18.976	4.3834e-06	26.051	0.0014336	0.0015984	0.00044933	1121.5	1.7611e-05	1.7893e-05	1227.2	241.02	1.7329e-05	1.8016e-05	306.19	86.311	69.477	20.2	1.7825e-05	27.917	354.294	203.419	158.046	100.477	190.818	97.646	99.726	108.009	341.219	293.163	107.432	114.096	114.422	121.202	218.326	121.077	-8191	255	
989.220	1	1	0	0	0.19017	0.14892	0.085079	0.1479	0.25972	0.25059	0.23339	0.27928	0.20535	0.17674	0.04194	0.11716	0.045861	0.059364	0.16694	0.21818	-1.7042	-1.3979	-1.175	-1.9125	-1.1042	-1.75	-1.9646	-1.2	-2.05	-1.3333	-1.3917	-1.9208	-1.0438	-1.5979	-1.6979	-1.3229	445.027	385.946	108.688	150.576	405.083	239.068	377.092	389.671	171.097	269.791	321.669	95.543	433.975	329.957	154.325	98.440	0.00096461	0.00042227	0.00017127	1111	6.1819e-06	1.6852e-06	1222.7	237.41	1.2781e-05	3.8373e-06	297.55	83.281	66.429	18.945	2.6126e-06	26.068	0.0014741	0.0016562	0.00046527	1123.4	1.7881e-05	1.8706e-05	1227.9	241.37	1.8101e-05	1.8597e-05	306.72	86.399	69.805	20.202	1.8076e-05	27.882	363.232	182.565	237.141	100.001	199.749	288.326	99.949	107.570	263.064	228.644	106.862	113.700	114.285	121.405	227.347	119.811	-8191	255	
989.316	1	1	0	0	0.1459	0.21722	0.086146	0.10128	0.15347	0.11221	0.36361	0.032443	0.03673	0.13721	0.15575	0.037622	0.16107	0.094229	0.24868	0.092079	-1.5708	-1.45	-1.4896	-2.05	-1.4458	-1.6208	-2.1708	-1.1979	-2.0042	-1.6667	-1.3021	-2.2125	-1.5438	-1.4667	-1.9458	-1.0125	314.093	190.804	243.711	279.338	277.645	355.784	385.422	271.306	262.691	348.319	448.801	255.596	367.814	300.918	377.552	107.836	0.00087249	0.00084707	0.00014197	1118.2	6.2888e-06	6.893e-06	1228.1	236.41	9.5647e-06	2.8359e-06	298.47	82.945	66.845	18.998	2.4382e-06	25.951	0.0015067	0.0016925	0.00047773	1124.5	1.798e-05	1.8714e-05	1233	241.4	1.8138e-05	1.8616e-05	307.27	86.344	69.715	20.283	1.8294e-05	27.943	362.556	130.395	143.891	99.402	235.452	252.664	99.542	107.506	257.048	224.849	107.020	113.801	113.752	121.552	208.556	120.758	-8191	255	
989.388	1	1	0	0	0.32684	0.15918	0.24009	0.28549	0.26466	0.055343	0.21015	0.088243	0.089796	0.17408	0.17468	0.21795	0.080055	0.28798	0.10513	0.11724	-1.225	-1.5146	-1.2292	-2.2479	-1.3312	-1.3708	-1.9438	-1.2521	-1.8979	-1.8354	-1.3854	-1.9375	-1.4937	-1.5917	-1.9875	-1.2292	435.725	149.963	183.017	365.114	128.281	241.479	411.230	418.319	155.170	356.411	112.848	409.576	351.305	222.758	348.279	288.547	0.0010114	0.00034886	0.00016897	1116.1	8.6679e-06	3.7065e-06	1230.3	237.46	6.2426e-06	6.7688e-07	299.1	84.356	66.506	18.871	6.5537e-06	25.894	0.0015154	0.001696	0.00047288	1124.9	1.8439e-05	1.8955e-05	1232	241.29	1.8105e-05	1.9051e-05	307.57	86.926	69.828	20.274	1.8677e-05	27.926	355.626	224.465	191.512	99.718	232.901	105.736	99.720	107.543	314.623	410.562	106.755	113.753	114.628	121.047	183.870	120.014	-8191	255	
989.508	1	1	0	0	0.063887	0.13133	0.076225	0.34704	0.1749	0.227	0.25182	0.075729	0.22728	0.089313	0.12457	0.022329	0.11038	0.051685	0.094292	0.035844	-1.4188	-1.6917	-1.1979	-2.1396	-1.5583	-1.2292	-2.1667	-1.1208	-1.55	-1.6958	-1.1646	-1.9813	-1.6042	-1.2437	-1.8563	-1.2625	275.165	304.856	422.901	441.825	342.492	97.544	397.872	96.199	317.212	378.402	438.229	398.011	160.095	413.020	315.124	357.727	0.00085733	0.0002822	0.00013793	1110.6	2.5961e-06	5.2256e-06	1232.4	236.23	8.4222e-06	1.9419e-06	298.87	82.992	66.349	18.858	3.385e-06	25.877	0.0015555	0.0017254	0.00048676	1125	1.8792e-05	1.9138e-05	1234.3	241.62	1.841e-05	1.9024e-05	307.51	86.577	69.67	20.225	1.8305e-05	27.945	357.238	223.361	181.299	99.752	212.415	200.513	99.792	107.337	161.086	293.173	106.512	113.922	113.572	121.312	270.169	120.459	-8191	255	
989.604	1	1	0	0	0.25749	0.17993	0.2047	0.2255	0.29936	0.15443	0.17559	0.21229	0.2449	0.16938	0.25513	0.052329	0.25975	0.18115	0.21347	0.31249	-1.1479	-1.8479	-1.0083	-1.7313	-1.5646	-1.2667	-2.1375	-1.4042	-1.3813	-1.8292	-1.3208	-1.7542	-1.8667	-1.2521	-1.8813	-1.4542	218.576	397.771	195.192	378.016	111.590	421.392	206.503	109.746	156.301	337.890	429.688	279.229	239.894	209.993	211.412	394.575	0.0010217	0.00043144	8.5655e-05	1110.9	1.2719e-05	1.8573e-06	1226.5	236.72	1.6205e-05	3.364e-06	293.62	83.105	65.869	18.824	3.9101e-06	25.846	0.0015461	0.0016985	0.00048099	1124.6	1.8519e-05	1.9206e-05	1230	241.49	1.8059e-05	1.8544e-05	305.88	86.486	69.459	20.204	1.7548e-05	27.797	363.262	155.345	198.527	99.821	210.268	154.593	99.401	106.788	257.768	281.024	106.081	113.955	113.974	121.597	200.046	120.328	-8191	255	
989.701	1	1	0	0	0.20458	0.14936	0.233	0.2777	0.17719	0.1529	0.16497	0.13089	0.10426	0.050125	0.12079	0.0089585	0.10361	0.094449	0.24231	0.42005	-1.0458	-1.8979	-0.97917	-1.8104	-1.6604	-1.025	-2.0667	-1.5292	-1.25	-1.9688	-1.3438	-1.5667	-2.1146	-1.3042	-2.0854	-1.4333	141.930	382.740	384.908	133.922	429.872	343.210	90.799	235.851	244.202	177.055	100.751	441.738	292.487	120.559	155.052	112.042	0.000835	0.00053093	0.00025433	1116.2	2.363e-06	7.1094e-06	1225.8	235.92	1.2077e-05	1.0732e-05	297.42	83.765	66.79	18.863	6.6947e-06	25.769	0.0014575	0.0016406	0.00045692	1125	1.7689e-05	1.7974e-05	1229	240.41	1.7632e-05	1.8105e-05	306.93	86.475	69.905	20.178	1.8011e-05	27.831	367.343	239.753	194.594	99.865	107.648	193.736	99.945	107.634	206.148	258.618	106.469	113.609	114.781	120.928	252.540	120.266	-8191	255	
989.797	1	1	0	0	0.25699	0.16517	0.065807	0.06949	0.27261	0.24377	0.19144	0.27584	0.12156	0.27771	0.24309	0.1166	0.25221	0.28264	0.051797	0.18905	-0.90833	-2.1146	-1.225	-1.8396	-1.8062	-1.1792	-2.0938	-1.7687	-1.2437	-1.9896	-1.4125	-1.5458	-1.775	-1.2729	-2	-1.6042	186.543	398.720	335.129	167.773	259.233	110.162	153.247	140.424	379.555	366.430	143.248	136.238	358.472	169.394	238.944	420.633	0.00084483	0.00069254	0.00017741	1114.2	8.6248e-06	6.6535e-06	1223.3	235.72	7.4154e-06	2.6316e-06	296.44	83.918	66.775	19.172	7.4509e-06	25.974	0.0015128	0.0016945	0.000474	1126.3	1.8536e-05	1.9403e-05	1231.3	241.07	1.9033e-05	1.8981e-05	306.82	86.763	69.826	20.295	1.8553e-05	27.982	358.170	206.718	197.431	99.561	143.063	206.404	99.863	107.262	156.737	230.054	107.140	114.301	114.488	121.297	230.047	120.233	-8191	255	
989.916	1	1	0	0	0.090425	0.1124	0.042475	0.12148	0.15564	0.33427	0.31327	0.077394	0.25912	0.046115	0.33964	0.088339	0.065736	0.32496	0.01663	0.30005	-0.86667	-1.9792	-1.4125	-1.5938	-1.9562	-1.3146	-1.9208	-1.7771	-1.1938	-1.8708	-1.4708	-1.3042	-1.9458	-1.2979	-1.6708	-1.8521	363.160	253.601	188.579	314.796	142.373	174.032	386.773	359.841	197.325	367.859	350.930	361.664	161.554	120.997	346.702	432.479	0.00087506	0.00060819	0.00026129	1113.4	8.5719e-06	1.2519e-06	1223.5	235.01	9.7651e-06	8.8197e-06	296.75	83.737	65.789	18.786	5.5611e-06	25.734	0.0015758	0.0017273	0.00047916	1123.6	1.8269e-05	1.8996e-05	1229.7	240.67	1.8215e-05	1.8945e-05	306.89	86.598	69.735	20.203	1.8616e-05	27.849	369.468	175.392	180.993	99.940	170.377	346.022	99.354	107.420	218.868	272.572	106.761	113.367	113.469	120.982	266.127	119.684	-8191	255	
989.987	1	1	0	0	0.20115	0.17418	0.079762	0.055008	0.31068	0.022606	0.20396	0.17505	0.21705	0.13358	0.24546	0.18186	0.11726	0.31439	0.11346	0.18243	-0.75	-1.825	-1.2896	-1.4646	-1.9438	-1.1625	-1.9	-1.8208	-1.2917	-1.8792	-1.5729	-1.3771	-2.0354	-1.1938	-1.5167	-1.8542	287.307	300.555	171.701	383.622	224.703	158.290	170.764	320.326	114.701	349.350	424.632	408.955	173.003	353.514	340.904	322.493	0.00062393	0.00023233	0.00015233	1104.7	1.6029e-05	5.8129e-06	1217.7	233.56	9.1603e-06	1.4523e-06	297.38	83.265	66.033	18.587	4.1351e-06	25.742	0.0015315	0.0017063	0.00047475	1122.4	1.7977e-05	1.8713e-05	1230.6	240.62	1.8103e-05	1.8426e-05	307.03	86.431	69.522	20.116	1.7998e-05	27.831	343.503	228.099	196.041	99.369	217.614	193.141	99.431	107.611	217.384	217.219	107.022	114.424	114.440	121.343	176.397	120.489	-8191	255	
990.108	1	1	0	0	0.16556	0.50228	0.19196	0.34632	0.19574	0.25733	0.31984	0.1387	0.1974	0.25576	0.36699	0.22542	0.15359	0.39514	0.068429	0.1061	-0.65208	-1.7646	-1.6708	-1.4188	-1.7583	-1.1792	-1.8229	-2.1063	-1.1958	-1.7833	-1.475	-1.2729	-1.9	-1.1542	-1.5479	-1.95	297.099	227.108	366.936	447.810	121.868	293.059	378.118	448.830	124.459	366.976	102.298	400.935	343.904	441.009	142.180	316.185	0.0011075	0.00065214	7.2404e-05	1112.7	2.6254e-06	8.1055e-06	1220.4	235.6	3.8874e-06	4.0335e-06	295.44	82.444	66.715	18.782	5.5846e-06	25.85	0.0014863	0.0016455	0.00046304	1124.2	1.8001e-05	1.8643e-05	1231.7	241.3	1.7931e-05	1.8776e-05	306.62	86.281	69.852	20.174	1.842e-05	27.899	348.962	221.808	255.937	99.202	135.130	269.562	99.483	106.949	328.147	149.820	106.429	113.729	114.711	120.496	288.088	120.324	-8191	255	
990.204	1	1	0	0	0.15936	0.1304	0.28896	0.30666	0.066187	0.10957	0.32365	0.07302	0.15174	0.21122	0.4	0.064586	0.10234	0.1444	0.096334	0.12184	-0.68125	-1.4792	-1.7104	-1.375	-1.9146	-1.225	-1.4396	-2.0396	-1.225	-1.7354	-1.7875	-1.2167	-1.9	-1.3792	-1.2542	-1.8125	110.586	152.438	447.547	443.709	113.314	257.396	376.614	316.273	447.536	228.136	439.083	125.890	393.314	435.284	313.945	331.529	0.00076444	0.00057082	0.00010046	1105.4	4.7244e-06	7.9625e-06	1221.8	233.59	6.011e-06	2.6693e-06	297.11	82.929	65.952	18.794	2.3833e-06	25.875	0.0015074	0.001692	0.00047099	1123.3	1.8207e-05	1.9083e-05	1232.7	240.69	1.8542e-05	1.9552e-05	307.9	86.609	69.868	20.231	1.8964e-05	27.928	366.218	96.575	312.054	99.779	195.912	202.720	99.461	107.529	199.515	115.157	107.092	114.127	113.738	120.884	203.525	120.020	-8191	255	
990.300	1	1	0	0	0.04108	0.2871	0.11494	0.32745	0.35302	0.36656	0.30211	0.078352	0.13757	0.2044	0.11268	0.070383	0.35206	0.248	0.24816	0.24332	-0.91042	-1.5083	-1.8062	-1.175	-1.8375	-1.5146	-1.3042	-1.9813	-1.1229	-1.5792	-1.9292	-1.2437	-1.8604	-1.6625	-1.3667	-2.0833	348.104	398.328	216.609	420.417	305.293	131.349	329.380	242.766	352.021	397.475	116.260	421.769	294.677	305.463	204.504	292.589	0.00092877	0.000312	0.00013259	1104.7	9.684e-06	6.5624e-06	1215.3	234.47	1.7539e-05	4.7315e-06	295.82	82.832	66.504	18.832	1.9277e-06	26.037	0.0015785	0.0017727	0.00049029	1123.7	1.9098e-05	1.9667e-05	1230.9	241.21	1.9054e-05	2.0036e-05	307.3	86.582	70.038	20.271	1.971e-05	28.069	353.957	438.648	178.006	99.790	193.007	249.791	99.129	106.733	229.055	274.790	106.436	114.293	114.305	121.491	209.820	120.466	-8191	255	
990.396	1	1	0	0	0.16442	0.31372	0.18765	0.21029	0.15104	0.21285	0.23727	0.093843	0.24521	0.083037	0.32731	0.27516	0.069251	0.14257	0.05798	0.12447	-0.83958	-1.4875	-1.8083	-1.3396	-1.7146	-1.6021	-1.2146	-1.8021	-1.3833	-1.2125	-2.0583	-1.1542	-1.5833	-1.6604	-1.1125	-1.9979	197.127	288.631	227.615	436.145	286.050	167.361	378.928	294.772	344.542	431.037	150.130	389.974	449.230	425.832	425.625	176.218	0.00087976	0.0005775	2.0462e-05	1118.2	5.3445e-06	7.3806e-06	1226.4	235.5	6.418e-06	7.7707e-06	296.63	83.377	67.175	18.98	1.2598e-05	26.337	0.0016389	0.001842	0.00051415	1129.1	1.9799e-05	2.0052e-05	1233.9	241.82	1.9363e-05	2.0343e-05	307.65	86.863	70.462	20.343	1.9789e-05	28.148	351.860	432.637	167.232	99.256	204.337	251.319	100.092	107.536	334.051	270.148	106.722	113.502	114.053	121.292	216.282	120.431	-8191	255	
990.517	1	1	0	0	0.26574	0.10934	0.16367	0.25528	0.15839	0.18514	0.30347	0.25912	0.057239	0.073041	0.21006	0.099701	0.20267	0.062494	0.107	0.27534	-0.88333	-1.4083	-1.8188	-1.3208	-1.6271	-1.9646	-1.3312	-1.9188	-1.4625	-1.2333	-1.9354	-1.2188	-1.5792	-1.9688	-1.0854	-1.8417	267.847	141.273	344.945	414.457	383.406	188.801	398.393	398.765	444.551	244.042	322.590	99.292	98.924	212.369	234.821	418.188	0.00093532	0.00044007	7.4802e-05	1120.7	1.5039e-05	1.2167e-06	1231.7	237.3	1.2235e-05	6.5436e-06	298.45	83.932	66.876	18.841	9.2667e-06	26.089	0.0016669	0.0018689	0.00052088	1130.4	2.0079e-05	2.069e-05	1237.7	242.53	2.0012e-05	2.1085e-05	308.53	87.195	70.459	20.336	2.0003e-05	28.106	346.365	152.483	169.143	100.233	203.829	300.239	99.987	107.378	226.045	330.752	107.191	114.030	115.066	122.354	99.439	120.744	-8191	255	
990.611	1	1	0	0	0.25948	0.13603	0.27705	0.23696	0.18751	0.1483	0.19608	0.1845	0.11447	0.30811	0.271	0.12853	0.22455	0.15385	0.065314	0.23023	-1.0229	-1.0312	-1.9125	-1.3417	-1.3708	-1.6812	-1.3438	-2.0271	-1.7	-1.1417	-2.1146	-1.3979	-1.4062	-2.0396	-1.1187	-1.75	257.465	319.950	114.403	409.679	313.178	142.060	396.706	368.359	93.035	399.618	433.326	382.527	371.953	96.196	257.737	398.398	0.00078423	0.00054112	4.6523e-05	1122.3	1.5614e-06	6.3729e-06	1231.5	237.91	2.0933e-05	5.5035e-06	300.8	83.689	66.021	18.887	1.0063e-06	26.058	0.001668	0.0018742	0.00052535	1130.7	2.046e-05	2.0907e-05	1238	242.82	2.0262e-05	2.1177e-05	309.52	87.049	70.328	20.379	2.059e-05	28.127	374.840	111.039	434.540	100.295	318.927	200.254	99.602	107.430	274.356	198.122	107.235	113.927	114.388	121.651	423.640	120.823	-8191	255	
990.685	1	1	0	0	0.053502	0.10956	0.24425	0.30042	0.076006	0.215	0.36588	0.073596	0.12155	0.2334	0.059632	0.18538	0.19102	0.18516	0.15921	0.12926	-1.3625	-1	-1.8188	-1.4292	-1.3104	-1.8417	-1.4	-1.6729	-1.6708	-1.2437	-2.0521	-1.3896	-1.3396	-1.8813	-1.2854	-1.6229	180.730	231.638	143.779	446.562	339.505	172.220	398.985	376.435	367.752	252.307	185.435	406.246	347.005	379.907	150.401	333.687	0.00066921	0.00048918	0.00014457	1122.9	9.0206e-06	6.1488e-06	1231.3	237.13	3.8741e-07	7.3249e-06	300.85	83.656	66.77	19.076	5.4371e-06	26.109	0.0016974	0.0019022	0.00053453	1131.8	2.051e-05	2.101e-05	1240.8	242.59	1.9862e-05	2.1031e-05	309.74	87.062	70.496	20.452	2.0422e-05	28.204	360.609	182.423	157.896	99.751	195.405	239.219	98.988	106.759	392.983	111.431	107.065	113.446	114.327	121.339	225.679	120.859	-8191	255	
990.781	1	1	0	0	0.08047	0.040994	0.18071	0.13726	0.27027	0.10624	0.1994	0.42488	0.22765	0.15831	0.23903	0.31967	0.12825	0.18636	0.12694	0.16926	-1.3687	-1.2146	-1.7979	-1.5854	-1.3458	-1.8813	-1.3625	-1.7188	-2.0396	-0.93542	-1.8042	-1.5979	-1.1333	-1.9229	-1.3958	-1.5979	175.074	397.670	281.800	232.634	305.240	351.783	384.313	418.741	369.704	362.968	431.597	345.032	108.907	89.632	108.850	299.302	0.00091911	0.00096552	0.00012838	1121.2	9.2042e-06	2.9698e-06	1226.8	236.62	8.8023e-06	9.1505e-06	297.83	83.608	66.154	19.097	2.7071e-06	26.081	0.00169	0.0018682	0.00052613	1133	2.0287e-05	2.0606e-05	1238.6	242.86	1.9931e-05	2.0653e-05	308.47	86.939	70.315	20.365	2.0028e-05	28.121	354.383	115.687	234.244	99.649	210.146	400.474	99.822	107.441	278.185	256.922	106.305	113.618	114.387	121.014	301.541	120.109	-8191	255	
990.900	1	1	0	0	0.21591	0.26755	0.10293	0.19529	0.16305	0.19237	0.094634	0.29052	0.14346	0.17897	0.17682	0.048641	0.091519	0.44428	0.28748	0.082303	-1.4562	-1.2542	-1.9375	-1.7979	-1.1104	-1.975	-1.5562	-1.3521	-1.9937	-1.175	-1.625	-1.7396	-1.2437	-2.0208	-1.1458	-1.4458	323.401	427.136	249.133	407.329	193.912	207.773	363.668	345.540	135.860	210.876	391.614	153.041	271.951	376.674	402.328	256.336	0.00097886	0.00056654	0.00032285	1115.7	1.1268e-05	2.7166e-06	1225.6	235.3	1.767e-05	4.7397e-06	297.86	83.018	66.239	18.84	5.3856e-06	25.895	0.0016405	0.0018386	0.00051562	1129.7	1.9936e-05	2.0446e-05	1236.6	241.98	1.9427e-05	2.0207e-05	309.36	86.859	70.043	20.304	1.9915e-05	28.056	370.054	190.530	263.589	99.843	210.234	406.821	99.698	107.408	238.849	321.501	106.179	113.071	113.803	121.566	282.843	120.167	-8191	255	
990.996	1	1	0	0	0.078788	0.15451	0.011471	0.06434	0.06575	0.085751	0.18064	0.19549	0.23906	0.11513	0.22262	0.09912	0.1297	0.16715	0.2895	0.02819	-1.4813	-1.1562	-1.5292	-1.8917	-1.0333	-2.0354	-1.7333	-1.2812	-1.8875	-1.2292	-1.6021	-1.7875	-1.0458	-1.7583	-1.5979	-1.3083	367.290	240.435	249.660	421.383	178.128	373.054	407.810	246.804	136.363	299.462	149.178	392.383	279.098	295.888	322.056	353.110	0.00096083	0.00042705	0.00018916	1114.7	5.2974e-06	8.0647e-06	1220.9	236.24	1.1512e-05	2.7697e-06	297.01	82.784	65.472	18.839	1.247e-05	25.794	0.0016427	0.0018361	0.00050766	1130.1	1.9468e-05	2.0209e-05	1234.1	241.92	1.9059e-05	1.9686e-05	308.07	86.907	69.802	20.292	1.9141e-05	27.985	365.182	198.152	193.649	99.922	249.075	234.995	99.595	107.384	205.658	398.239	106.729	113.449	113.470	120.833	203.859	119.649	-8191	255	
991.092	1	1	0	0	0.15699	0.22523	0.29377	0.22279	0.16665	0.19309	0.10808	0.14506	0.16456	0.11391	0.35441	0.1751	0.27575	0.18591	0.20812	0.29898	-1.2708	-1.1208	-1.2833	-1.9083	-1.15	-1.9646	-1.5542	-1.275	-1.8542	-1.1437	-1.4854	-1.825	-1.1896	-1.7687	-1.5	-1.3771	279.748	179.973	243.507	394.495	382.257	274.617	365.286	105.592	372.107	159.347	372.758	92.447	107.285	387.134	413.645	302.744	0.00091512	0.00025897	7.7472e-05	1114.7	3.6112e-06	6.8827e-06	1228.2	234.71	2.3594e-05	8.2632e-06	296.22	83.033	66.29	18.858	7.023e-06	26.023	0.001561	0.0017863	0.00049111	1129.3	1.9144e-05	1.9508e-05	1236.8	241.5	1.8897e-05	1.9366e-05	307.92	86.667	69.871	20.284	1.8835e-05	27.996	358.902	271.684	379.228	100.067	169.709	90.024	99.873	107.377	250.840	316.313	106.322	113.121	113.802	121.625	196.085	119.593	-8191	255	
991.188	1	1	0	0	0.065955	0.16669	0.1371	0.090145	0.25485	0.12015	0.21146	0.12921	0.1731	0.0088819	0.23399	0.14688	0.059514	0.15727	0.13916	0.10901	-1.5333	-1.225	-1.3458	-1.9333	-1.15	-1.6688	-1.7729	-1.1021	-1.9021	-1.225	-1.2604	-1.8042	-1.0333	-1.7062	-1.8188	-1.1667	170.489	235.705	102.027	446.697	299.913	192.446	384.081	390.781	119.389	161.989	391.456	292.452	173.860	420.855	260.808	100.200	0.00088748	0.0001223	0.00026595	1114.6	1.0048e-05	5.0856e-06	1217.8	234.65	1.0241e-05	1.6031e-06	294.62	83.559	66.576	18.746	4.3246e-06	25.705	0.0015498	0.0017188	0.00048831	1127.8	1.8606e-05	1.9097e-05	1234.5	241.57	1.8513e-05	1.9267e-05	306.95	86.922	70.156	20.231	1.874e-05	27.873	354.038	248.504	165.085	99.006	200.109	216.273	98.929	106.468	297.833	268.760	106.145	113.054	113.417	120.654	254.704	119.262	-8191	255	
991.284	1	1	0	0	0.12247	0.23439	0.15079	0.28395	0.28714	0.30366	0.041455	0.27818	0.18147	0.097051	0.3408	0.24347	0.095395	0.3466	0.009496	0.25595	-1.4854	-1.4188	-1.0875	-2.0146	-1.175	-1.4146	-2.0854	-1.1458	-1.875	-1.6104	-1.2646	-1.9833	-1.225	-1.5708	-1.6958	-1.0979	200.629	386.118	332.137	364.210	405.212	387.667	129.370	346.462	169.802	150.128	429.843	351.418	90.778	353.804	325.856	345.730	0.00099302	0.00046589	0.00010105	1105.3	9.7866e-06	3.3368e-06	1216.1	234.99	9.3234e-06	3.2518e-06	296.71	82.506	65.621	18.717	1.7841e-06	25.871	0.001568	0.0017374	0.00048651	1126.3	1.8402e-05	1.9286e-05	1232.2	241.69	1.8303e-05	1.8974e-05	308.02	86.508	69.648	20.223	1.8062e-05	27.905	364.459	112.810	117.171	98.950	199.961	209.801	98.935	106.912	249.904	235.570	106.264	113.246	113.465	120.454	202.662	119.953	-8191	255	
991.381	1	1	0	0	0.1476	0.10076	0.15357	0.20875	0.30807	0.20713	0.32167	0.078445	0.49819	0.23621	0.24935	0.14817	0.063791	0.11266	0.15187	0.2152	-1.1854	-1.5208	-1.2104	-2.1271	-1.1812	-1.4562	-2.1312	-1.1938	-1.7313	-1.7188	-1.1958	-1.9167	-1.3146	-1.3	-1.8104	-1.0625	105.681	245.560	390.026	113.850	117.508	200.516	442.526	189.198	260.906	131.229	258.614	133.116	310.107	111.733	354.308	122.342	0.00098865	0.00070154	0.00010491	1105.8	4.8615e-06	8.2855e-06	1208.3	234.22	1.1199e-05	4.5984e-06	297.23	83.989	66.089	18.976	1.0668e-05	25.912	0.0015	0.0016571	0.00046424	1125.1	1.7612e-05	1.818e-05	1229.1	240.82	1.7623e-05	1.8322e-05	307.13	86.529	69.754	20.271	1.7638e-05	27.866	360.729	224.559	175.136	99.376	208.938	252.217	99.161	106.739	266.518	275.012	106.769	113.712	114.310	121.466	214.914	120.447	-8191	255	
991.477	1	1	0	0	0.22218	0.20995	0.080391	0.098553	0.15486	0.26002	0.3965	0.13501	0.15811	0.12293	0.083519	0.17932	0.19116	0.35828	0.19055	0.061717	-1.1896	-1.7167	-1.0104	-2.1354	-1.425	-1.525	-2.0229	-1.2729	-1.6229	-1.6917	-1.1854	-1.9604	-1.6667	-1.1333	-1.8312	-1.0688	115.639	312.703	287.342	425.202	264.791	414.035	410.301	378.669	189.767	266.772	155.680	340.038	412.815	97.123	349.075	443.027	0.0009371	0.00059056	1.4806e-05	1114.7	3.9036e-06	9.5913e-07	1229.8	235.01	1.6839e-05	4.6494e-06	295.47	83.46	66.66	18.986	1.3133e-05	25.702	0.0014991	0.0016367	0.00046175	1128.6	1.7435e-05	1.8311e-05	1235.2	240.95	1.745e-05	1.7921e-05	306.29	86.297	69.801	20.207	1.7392e-05	27.776	368.047	187.454	107.637	99.503	230.855	311.108	99.226	107.170	258.508	270.799	107.053	113.454	114.224	121.344	216.957	120.577	-8191	255	
991.597	1	1	0	0	0.30952	0.14323	0.13805	0.32416	0.19483	0.038926	0.27116	0.12185	0.12769	0.15099	0.21436	0.14168	0.13198	0.13394	0.30877	0.13909	-1.2083	-2.0417	-1.2521	-2.0792	-1.4562	-1.2396	-2.1271	-1.3146	-1.5875	-1.8292	-1.1562	-1.7479	-1.6271	-1.2271	-2.0354	-1.3979	337.573	413.910	294.407	333.587	423.016	396.874	385.854	285.868	340.692	246.044	414.202	241.763	145.988	242.502	309.955	102.838	0.00089902	0.00056105	0.00010771	1109.6	5.8346e-06	5.3359e-06	1220.6	235.03	8.0145e-06	5.7647e-06	296.81	83.138	66.259	18.812	3.987e-06	25.972	0.0014968	0.0016468	0.0004526	1125.4	1.7387e-05	1.7843e-05	1231	240.85	1.6922e-05	1.7241e-05	306.13	86.251	69.648	20.148	1.6495e-05	27.738	358.189	228.715	123.845	99.525	185.261	207.884	99.572	106.750	296.361	260.515	106.835	113.581	114.416	121.800	267.530	120.899	-8191	255	
991.694	1	1	0	0	0.30396	0.29143	0.27957	0.177	0.19051	0.045495	0.13043	0.18798	0.1482	0.2512	0.36688	0.22083	0.2228	0.15159	0.16213	0.24199	-0.91667	-1.8396	-1.3229	-1.9062	-1.675	-1.0958	-2.0187	-1.6083	-1.4104	-1.8896	-1.2396	-1.7104	-1.8479	-1.025	-1.9583	-1.5125	98.674	183.506	181.122	107.534	394.733	256.617	261.258	131.701	413.524	326.725	445.008	298.720	348.125	378.819	204.468	103.192	0.00096145	0.00036606	0.0001176	1114.6	4.6129e-06	4.2577e-06	1218.6	234.89	9.6762e-07	6.3236e-06	297.7	82.827	66.431	18.836	4.565e-06	25.8	0.0013695	0.0014876	0.00042098	1123.7	1.616e-05	1.6744e-05	1228.8	240.23	1.6058e-05	1.6509e-05	306.01	85.999	69.219	20.079	1.6538e-05	27.676	362.727	235.877	227.203	99.963	182.745	287.867	100.037	107.205	251.908	289.945	106.202	113.618	114.284	121.726	111.256	120.982	-8191	255	
991.790	1	1	0	0	0.26733	0.070027	0.081359	0.025936	0.10565	0.19222	0.16003	0.11085	0.064526	0.29232	0.22247	0.25915	0.088415	0.2982	0.30171	0.1444	-0.63125	-1.8208	-1.2417	-1.6667	-1.6542	-1.2104	-2.2104	-1.6417	-1.025	-1.9354	-1.3062	-1.4479	-1.8792	-1.1625	-1.7646	-1.7125	242.207	363.294	244.518	241.275	221.640	396.849	437.251	386.789	175.324	160.442	406.464	191.575	335.633	427.066	240.172	266.084	0.00096959	0.00066929	7.6342e-05	1107	1.0387e-05	2.8313e-06	1220.2	235.35	9.716e-06	5.1577e-06	295.19	83.391	66.466	18.802	1.2462e-05	26.029	0.0013976	0.0015489	0.00043656	1121.7	1.6546e-05	1.7164e-05	1228.3	240.3	1.6693e-05	1.7402e-05	305.72	86.145	69.549	20.135	1.7039e-05	27.819	357.927	162.050	299.848	99.995	217.472	288.958	99.926	107.068	229.798	232.548	106.082	113.225	113.577	121.006	284.674	120.785	-8191	255	
991.886	1	1	0	0	0.12449	0.28833	0.16013	0.245	0.18276	0.11199	0.094179	0.34301	0.26612	0.16059	0.14357	0.21012	0.25216	0.25135	0.12108	0.15011	-0.91667	-1.9396	-1.1021	-1.6771	-1.9229	-1.1271	-2.0833	-1.5771	-1.2479	-1.9146	-1.5208	-1.5542	-2.0396	-1.3333	-1.6667	-1.8312	285.485	411.115	369.994	387.030	288.814	355.134	367.272	389.555	400.840	164.844	298.456	114.466	381.914	432.752	152.432	128.305	0.00093362	0.00053385	0.00010082	1113.3	6.9133e-06	6.8418e-06	1226.4	235.14	5.2524e-06	5.914e-06	294.57	83.067	66.278	18.777	8.8557e-06	25.958	0.001417	0.0015765	0.0004292	1123	1.6595e-05	1.7182e-05	1230.9	240.04	1.6271e-05	1.6876e-05	305.23	86.057	69.325	20.012	1.6296e-05	27.678	351.031	219.564	93.298	99.125	90.345	295.695	99.141	106.915	348.972	259.882	107.431	113.716	113.937	120.849	315.225	120.420	-8191	255	
991.980	1	1	0	0	0.01278	0.045642	0.087765	0.11567	0.011548	0.33886	0.10616	0.10986	0.27968	0.1351	0.051793	0.049421	0.12972	0.19509	0.2674	0.23015	-0.78125	-1.825	-1.3917	-1.6833	-2.0583	-1.1063	-1.8354	-1.7458	-1.0667	-2.0646	-1.4937	-1.3792	-1.9875	-1.3854	-1.5604	-1.6146	290.107	201.370	438.293	194.441	282.031	219.395	408.486	395.244	101.178	385.018	221.101	253.813	361.329	421.291	352.143	340.807	0.00083756	0.00025061	3.3655e-05	1105.6	5.8052e-06	3.1638e-06	1222.6	234.82	1.9446e-05	8.5096e-06	295.85	82.911	66.315	18.717	8.6605e-06	25.972	0.0013705	0.0015131	0.00042513	1121.6	1.6124e-05	1.6788e-05	1228.6	239.98	1.623e-05	1.6855e-05	305.44	86.093	69.535	20.116	1.6518e-05	27.733	361.013	412.031	206.202	99.810	272.306	220.218	99.180	106.670	286.439	186.528	106.335	114.400	113.579	120.443	246.314	120.740	-8191	255	
992.076	1	1	0	0	0.19978	0.14076	0.26139	0.25894	0.10697	0.15726	0.17239	0.03039	0.23945	0.38639	0.074791	0.14776	0.1208	0.079576	0.15811	0.24647	-0.70208	-1.7812	-1.6667	-1.1917	-1.8542	-1.2646	-1.7188	-2.0062	-0.88125	-1.9458	-1.4958	-1.1437	-2.05	-1.3521	-1.4479	-1.8875	272.135	212.803	256.285	334.661	329.971	279.821	358.566	142.808	384.025	333.333	344.955	97.830	426.516	248.046	176.315	414.718	0.0010965	0.00052594	0.00014054	1115.6	4.9911e-06	1.09e-05	1223.7	234.69	1.2492e-05	4.5201e-06	295.2	83.107	66.334	18.741	1.1169e-05	25.979	0.0013799	0.0015331	0.00043045	1125.1	1.6517e-05	1.712e-05	1231.2	239.62	1.6282e-05	1.6974e-05	305.09	86.163	69.256	20.065	1.6496e-05	27.781	362.266	92.721	376.873	99.582	257.847	270.155	100.092	107.577	218.536	282.286	107.281	113.494	113.800	121.794	264.619	120.300	-8191	255	
992.173	1	1	0	0	0.16422	0.34924	0.18408	0.33598	0.26202	0.32522	0.36384	0.21527	0.37874	0.020383	0.16777	0.11216	0.32456	0.43247	0.14335	0.14364	-0.71667	-1.7479	-1.5312	-1.2292	-1.9771	-1.4354	-1.5708	-2.0333	-1.1479	-1.7125	-1.8542	-1.1896	-1.9	-1.2646	-1.4146	-1.9604	443.946	235.101	324.584	89.386	296.278	97.197	349.229	373.495	378.607	285.834	196.695	342.155	404.427	443.822	97.832	400.716	0.00080919	0.000272	0.00018192	1120.6	8.6602e-06	2.3084e-06	1235	236.97	5.9893e-06	7.1468e-06	296.65	84.055	66.369	19.063	3.7758e-06	25.981	0.0013699	0.0015028	0.00042042	1126.3	1.5968e-05	1.6612e-05	1232.4	240.57	1.626e-05	1.6684e-05	305.81	86.274	69.479	20.148	1.6443e-05	27.746	354.661	109.663	178.964	100.233	226.955	127.809	100.078	107.291	248.761	227.898	106.943	114.171	114.706	121.652	303.270	120.698	-8191	255	
992.293	1	1	0	0	0.11156	0.28058	0.42286	0.24794	0.1846	0.10454	0.028584	0.24482	0.25658	0.1473	0.047574	0.1086	0.17862	0.16142	0.33511	0.26227	-0.81458	-1.6208	-1.5833	-1.1875	-1.8896	-1.3542	-1.5104	-1.9083	-1.1479	-1.5688	-1.9813	-1.2083	-1.8583	-1.4708	-0.97917	-1.9688	236.853	384.692	257.735	436.938	365.902	401.867	102.051	145.647	434.531	361.402	422.109	135.972	398.943	406.986	252.419	447.995	0.00084641	0.00036616	0.00013611	1117.1	3.8109e-06	7.6125e-06	1228.3	236.58	8.3024e-06	4.2786e-06	296.5	83.382	66.208	18.907	1.4497e-06	26.104	0.0013585	0.0014865	0.0004205	1123.5	1.6221e-05	1.6772e-05	1230.1	240.07	1.6182e-05	1.6558e-05	305.69	85.977	69.347	20.084	1.6129e-05	27.707	364.168	152.545	150.926	99.891	193.723	249.500	100.170	107.346	204.978	348.493	106.806	114.485	114.715	121.354	394.858	120.616	-8191	255	
992.389	1	1	0	0	0.42664	0.10097	0.26028	0.14705	0.16421	0.20429	0.05599	0.17023	0.1712	0.33541	0.37807	0.24045	0.12768	0.10682	0.047547	0.14348	-0.96042	-1.6896	-1.8479	-1.2313	-1.7875	-1.6667	-1.4729	-2.05	-1.125	-1.3771	-2.1021	-1.1792	-1.8375	-1.6708	-1.2667	-1.8333	225.654	130.099	400.454	405.778	321.705	138.582	406.934	335.368	369.104	355.151	105.965	414.229	112.487	129.623	177.750	369.982	0.00078821	0.00020196	5.0714e-05	1115.8	5.9471e-06	2.8387e-06	1227.5	237.9	1.0328e-05	3.7764e-06	297.43	82.951	67.165	18.837	5.3733e-06	25.971	0.001333	0.0014857	0.00041533	1122.7	1.6114e-05	1.6434e-05	1230.3	240.56	1.5836e-05	1.6467e-05	305.33	85.898	69.366	20.055	1.5913e-05	27.772	372.353	203.932	283.957	99.517	213.926	277.500	99.980	107.801	261.090	111.012	106.850	114.336	114.493	121.879	275.414	120.108	-8191	255	
992.485	1	1	0	0	0.16665	0.19582	0.20512	0.2681	0.099695	0.062823	0.010621	0.34199	0.12925	0.03014	0.21793	0.20296	0.11353	0.076535	0.066463	0.26166	-1.1187	-1.3021	-1.8042	-1.3563	-1.6375	-1.7313	-1.5021	-1.9917	-1.4104	-1.3646	-1.8417	-1.1958	-1.6479	-2.0396	-1.2375	-1.8417	258.259	154.554	309.290	126.284	244.656	299.840	367.307	444.181	357.767	92.240	285.135	190.050	102.911	389.409	406.593	98.619	0.00088221	0.00070071	0.00013721	1116.6	5.3418e-06	7.1924e-06	1223.1	235.67	1.1994e-05	4.3284e-06	297.61	83.218	66.287	19.036	4.2139e-06	25.968	0.0013346	0.0015026	0.00041909	1120.6	1.6226e-05	1.6554e-05	1227.2	239.9	1.6034e-05	1.6744e-05	305.73	85.888	69.25	20.117	1.6236e-05	27.635	350.304	182.493	104.906	100.258	277.530	176.500	99.796	107.224	255.316	379.062	106.756	114.349	114.411	121.456	135.468	120.735	-8191	255	
992.557	1	1	0	0	0.11189	0.12287	0.25392	0.16045	0.16453	0.24379	0.070371	0.15309	0.040804	0.25371	0.1365	0.073592	0.18307	0.27777	0.24528	0.13184	-1.1667	-1.0417	-2.0938	-1.3937	-1.6604	-1.8917	-1.3854	-2.0417	-1.5521	-1.1	-1.9271	-1.6437	-1.5417	-1.7542	-1.1917	-1.9417	213.049	431.560	379.070	424.515	227.979	335.161	389.159	385.164	101.153	124.527	353.098	136.477	282.224	380.279	321.698	247.776	0.00081402	0.00020425	0.00026058	1115.5	1.5071e-06	8.4269e-06	1218.7	235.13	9.5587e-06	2.8324e-06	295.93	83.452	66.217	18.802	5.6299e-06	26.004	0.0013468	0.0015024	0.00041699	1120.1	1.5858e-05	1.6354e-05	1225.4	239.79	1.6155e-05	1.6588e-05	304.8	85.927	69.183	19.994	1.6079e-05	27.695	363.344	90.484	114.062	99.833	198.990	164.534	100.033	107.117	202.013	413.972	106.554	112.973	113.733	120.791	206.506	120.265	-8191	255	
992.678	1	1	0	0	0.22367	0.24318	0.14728	0.054662	0.23359	0.19593	0.050765	0.11304	0.17652	0.2801	0.38176	0.10375	0.067821	0.1229	0.22606	0.21319	-1.2687	-1.2062	-1.9	-1.5396	-1.5646	-2.0563	-1.3458	-1.9896	-1.7542	-1.1688	-2.0479	-1.4792	-1.0896	-2.0896	-1.3958	-1.5479	146.950	237.430	130.053	145.120	285.420	314.102	174.403	413.208	401.404	352.760	406.001	212.469	98.745	244.893	235.425	430.316	0.00097106	3.1926e-05	0.00017057	1105.9	1.4284e-05	6.1231e-06	1215.6	234.69	1.0111e-05	4.8285e-06	296.32	82.478	65.527	18.699	1.0472e-05	25.801	0.0013461	0.0014813	0.00041557	1117.2	1.6364e-05	1.6677e-05	1224	239.63	1.592e-05	1.6359e-05	304.57	85.711	68.923	19.979	1.6049e-05	27.594	357.666	197.964	158.182	99.389	230.624	231.801	99.213	106.925	268.496	223.411	106.591	113.445	113.700	121.204	252.473	120.288	-8191	255	
992.774	1	1	0	0	0.1654	0.35832	0.090888	0.23254	0.25856	0.098181	0.090903	0.28691	0.29111	0.15706	0.18489	0.16121	0.060579	0.13637	0.12681	0.23293	-1.3042	-1.1083	-1.7125	-1.5438	-1.3104	-1.9312	-1.3854	-1.6042	-1.6688	-1.2083	-1.7354	-1.6021	-1.2	-2.0062	-1.3958	-1.4688	268.704	319.935	353.816	91.781	252.243	266.561	414.588	90.800	200.597	378.936	96.311	298.144	341.168	359.034	286.439	426.496	0.0009037	0.00015401	0.00010053	1104.5	4.2596e-06	6.6704e-06	1219.1	236.16	1.5308e-05	7.8432e-06	298.21	82.725	66.013	18.945	1.0873e-05	25.896	0.0013166	0.001452	0.0004064	1115.5	1.5541e-05	1.6021e-05	1222.8	239.63	1.5543e-05	1.6482e-05	304.7	85.724	68.964	20.001	1.5959e-05	27.632	356.453	130.769	230.855	99.373	186.783	241.473	99.440	107.278	308.371	170.779	106.878	113.380	114.433	120.910	259.246	120.665	-8191	255	
992.870	1	1	0	0	0.11832	0.2254	0.1089	0.3722	0.25246	0.34289	0.10348	0.31282	0.081452	0.051169	0.22675	0.18539	0.17073	0.042301	0.12509	0.11738	-1.3917	-1.2208	-1.8396	-1.7958	-1.0312	-1.9417	-1.4375	-1.5854	-1.7271	-1.1896	-1.8104	-1.8208	-1.0083	-1.9292	-1.4708	-1.5417	189.318	218.835	446.297	359.515	227.331	394.333	397.574	97.804	405.930	106.726	108.176	370.002	267.910	344.778	413.328	146.512	0.00088206	0.00092046	0.00020751	1111.6	1.1951e-05	4.86e-06	1218.5	235.16	1.1246e-05	3.2804e-06	294.19	82.64	65.974	18.711	1.094e-05	25.98	0.0013118	0.001454	0.00039964	1118	1.5607e-05	1.6142e-05	1221.2	239.09	1.5358e-05	1.5923e-05	303.58	85.515	68.929	20.001	1.6099e-05	27.596	357.129	195.382	216.014	99.713	214.826	204.991	99.571	107.605	264.180	257.923	106.978	113.722	114.295	121.471	267.336	120.458	-8191	255	
992.989	1	1	0	0	0.051103	0.10795	0.075524	0.1525	0.27335	0.16986	0.26342	0.4021	0.28089	0.1571	0.16336	0.30777	0.14727	0.037337	0.094359	0.21043	-1.6708	-1.1833	-1.6875	-1.8896	-1.2417	-1.8292	-1.5	-1.4083	-2.0292	-1.2292	-1.7458	-1.6958	-1.2354	-1.7646	-1.3563	-1.3687	172.660	330.152	172.806	124.587	218.050	218.145	125.680	425.374	301.919	319.542	369.693	425.924	371.317	406.209	331.460	319.736	0.00084853	0.00045518	4.4292e-05	1105.6	1.6084e-06	1.4194e-06	1210.2	233.5	7.0961e-06	5.5286e-06	295.3	83.219	65.223	18.751	1.0701e-05	25.86	0.0013411	0.0014727	0.00041386	1113.9	1.5725e-05	1.636e-05	1220	238.67	1.5706e-05	1.6458e-05	304.1	85.7	68.718	20.003	1.6047e-05	27.583	373.020	409.630	280.907	99.721	247.127	300.713	99.535	107.303	259.823	269.987	107.044	113.557	113.834	120.555	259.949	119.971	-8191	255	
993.085	1	1	0	0	0.16444	0.31854	0.24597	0.37355	0.088003	0.087704	0.14724	0.17502	0.20287	0.095887	0.16048	0.14962	0.31319	0.090865	0.051957	0.35411	-1.5417	-1.3917	-1.5354	-2.1417	-1.1958	-1.7708	-1.7167	-1.2729	-1.9937	-1.2479	-1.5167	-2.0771	-1.0771	-1.6	-1.6271	-1.2104	378.817	365.866	131.743	423.593	386.506	404.856	430.363	148.631	289.980	167.874	380.964	131.178	127.468	426.727	403.104	388.935	0.00090337	0.000318	6.4477e-05	1110.8	8.103e-06	2.6997e-06	1218.3	235.61	9.9345e-06	8.2144e-06	294.34	82.898	65.452	18.733	2.7351e-06	25.594	0.0013507	0.0015156	0.000416	1117.9	1.6282e-05	1.6837e-05	1224.5	239.28	1.609e-05	1.6915e-05	304.45	85.69	68.905	19.967	1.6503e-05	27.539	370.650	184.560	177.508	99.844	222.899	275.198	99.782	107.900	185.717	264.973	106.952	113.876	113.970	121.227	420.886	120.275	-8191	255	
993.157	1	1	0	0	0.12249	0.3449	0.15368	0.149	0.30166	0.22717	0.32079	0.13075	0.08567	0.23699	0.28975	0.1755	0.031273	0.2027	0.096601	0.074684	-1.5208	-1.3833	-1.3396	-1.9208	-1.0458	-1.6688	-1.7146	-1.0458	-1.9438	-1.2167	-1.3312	-1.8937	-1.3021	-1.6437	-1.7563	-1.2563	142.751	285.351	356.903	121.080	296.656	205.662	363.320	442.984	174.200	106.784	382.155	90.559	239.305	404.470	162.453	317.745	0.000902	0.00032964	0.00015342	1109.4	5.5819e-06	4.2109e-06	1215.8	233.45	8.2823e-06	5.3247e-06	295.59	82.659	65.818	18.702	5.8342e-06	25.931	0.0013538	0.0015135	0.00042752	1116.7	1.6464e-05	1.6589e-05	1221.8	238.96	1.5873e-05	1.6452e-05	303.99	85.567	68.996	19.931	1.5987e-05	27.58	364.932	115.164	157.190	99.837	207.382	156.542	99.747	107.199	250.415	257.148	106.330	113.614	114.138	121.192	340.854	120.644	-8191	255	
993.277	1	1	0	0	0.1486	0.061034	0.084182	0.29997	0.21381	0.169	0.21083	0.2217	0.34697	0.32806	0.20045	0.054847	0.20819	0.17698	0.11582	0.26706	-1.3146	-1.4771	-1.1313	-2.1354	-1.2021	-1.3458	-2.0021	-1.1646	-1.9167	-1.5104	-1.4	-1.9375	-1.2167	-1.4688	-1.8188	-1.3771	269.335	350.975	108.514	362.042	405.675	330.287	380.734	333.237	248.089	127.890	425.048	215.885	414.863	341.557	213.384	397.962	0.0010542	0.00043309	0.00011093	1105.2	5.6951e-06	4.7119e-06	1217.1	234.77	1.9195e-05	1.4431e-06	296.55	82.752	65.953	18.73	7.9219e-06	26.057	0.0013246	0.0014765	0.00041037	1114.9	1.6011e-05	1.6689e-05	1222.2	238.75	1.5935e-05	1.647e-05	304.63	85.648	68.896	19.929	1.5783e-05	27.635	358.311	208.210	204.397	99.729	153.961	205.635	99.206	107.188	226.554	173.795	107.018	113.506	113.918	120.544	294.444	120.219	-8191	255	
#DATA ENDS
