BOXY.EXE: ISS Imagent and Oximeter Data Acquisition Program Version 0.80
Ascii Record File

#ACQ INFORMATION
2  Detector Channels 
16  External MUX Channels 
1  Auxiliary Channels 
5000  Waveform (CCF) Frequency (Hz)
1  Waveforms Skipped 
30  Waveforms Averaged 
1  Cycles Averaged 
16  Acquisitions per Waveform 
10.0806  Updata Rate (Hz) 

#FILE INFORMATION
TRUE -- External MUX Channel results are PARSED.
FALSE -- AC DC and Phase are NOT grouped.
TRUE -- Companion Program Settings File CREATED.
FALSE -- AC data not excluded
FALSE -- DC data not excluded
FALSE -- Phase data not excluded
FALSE -- Auxillary Chn. data not excluded
Tab delimiters

#CALIBRATION STATE
TRUE -- Waveform Calibration Values APPLIED.


#AUX CALIBRATION VALUES
Val Type	aux-1	

Term	1.0000e+00	
Factor	0.0000e+00	


#WF CALIBRATION VALUES
A = Detector Channel
Val Type	A-AC1	A-AC2	A-AC3	A-AC4	A-AC5	A-AC6	A-AC7	A-AC8	A-AC9	A-AC10	A-AC11	A-AC12	A-AC13	A-AC14	A-AC15	A-AC16	A-DC1	A-DC2	A-DC3	A-DC4	A-DC5	A-DC6	A-DC7	A-DC8	A-DC9	A-DC10	A-DC11	A-DC12	A-DC13	A-DC14	A-DC15	A-DC16	A-Ph1	A-Ph2	A-Ph3	A-Ph4	A-Ph5	A-Ph6	A-Ph7	A-Ph8	A-Ph9	A-Ph10	A-Ph11	A-Ph12	A-Ph13	A-Ph14	A-Ph15	A-Ph16	

Term	0.00000e+00	0.00000e+00	0.00000e+00	0.00000e+00	0.00000e+00	0.00000e+00	0.00000e+00	0.00000e+00	0.00000e+00	0.00000e+00	0.00000e+00	0.00000e+00	0.00000e+00	0.00000e+00	0.00000e+00	0.00000e+00	0.00000e+00	0.00000e+00	0.00000e+00	0.00000e+00	0.00000e+00	0.00000e+00	0.00000e+00	0.00000e+00	0.00000e+00	0.00000e+00	0.00000e+00	0.00000e+00	0.00000e+00	0.00000e+00	0.00000e+00	0.00000e+00	0.00000e+00	0.00000e+00	0.00000e+00	0.00000e+00	0.00000e+00	0.00000e+00	0.00000e+00	0.00000e+00	0.00000e+00	0.00000e+00	0.00000e+00	0.00000e+00	0.00000e+00	0.00000e+00	0.00000e+00	0.00000e+00	
Factor	1.00000e+00	1.00000e+00	1.00000e+00	1.00000e+00	1.00000e+00	1.00000e+00	1.00000e+00	1.00000e+00	1.00000e+00	1.00000e+00	1.00000e+00	1.00000e+00	1.00000e+00	1.00000e+00	1.00000e+00	1.00000e+00	1.00000e+00	1.00000e+00	1.00000e+00	1.00000e+00	1.00000e+00	1.00000e+00	1.00000e+00	1.00000e+00	1.00000e+00	1.00000e+00	1.00000e+00	1.00000e+00	1.00000e+00	1.00000e+00	1.00000e+00	1.00000e+00	X	X	X	X	X	X	X	X	X	X	X	X	X	X	X	X	

B = Detector Channel
Val Type	B-AC1	B-AC2	B-AC3	B-AC4	B-AC5	B-AC6	B-AC7	B-AC8	B-AC9	B-AC10	B-AC11	B-AC12	B-AC13	B-AC14	B-AC15	B-AC16	B-DC1	B-DC2	B-DC3	B-DC4	B-DC5	B-DC6	B-DC7	B-DC8	B-DC9	B-DC10	B-DC11	B-DC12	B-DC13	B-DC14	B-DC15	B-DC16	B-Ph1	B-Ph2	B-Ph3	B-Ph4	B-Ph5	B-Ph6	B-Ph7	B-Ph8	B-Ph9	B-Ph10	B-Ph11	B-Ph12	B-Ph13	B-Ph14	B-Ph15	B-Ph16	

Term	0.00000e+00	0.00000e+00	0.00000e+00	0.00000e+00	0.00000e+00	0.00000e+00	0.00000e+00	0.00000e+00	0.00000e+00	0.00000e+00	0.00000e+00	0.00000e+00	0.00000e+00	0.00000e+00	0.00000e+00	0.00000e+00	0.00000e+00	0.00000e+00	0.00000e+00	0.00000e+00	0.00000e+00	0.00000e+00	0.00000e+00	0.00000e+00	0.00000e+00	0.00000e+00	0.00000e+00	0.00000e+00	0.00000e+00	0.00000e+00	0.00000e+00	0.00000e+00	5.94720e+01	-1.33281e+02	-1.24008e+02	-1.83669e+02	-7.49398e+01	-7.46865e+01	-1.55903e+02	-1.62015e+02	-6.56920e+01	-5.76036e+01	-1.71186e+02	-1.71014e+02	-1.82886e+02	-1.77178e+02	-6.18822e+01	-1.49311e+02	
Factor	6.16829e-05	1.64324e-04	4.66421e-05	1.74362e-01	2.06590e-06	1.82496e-06	1.63678e-01	5.30398e-02	3.37277e-06	1.77242e-06	9.18026e-02	2.93873e-02	3.59135e-02	9.27610e-03	2.08424e-06	1.33759e-02	6.85272e-06	8.02413e-06	2.24270e-06	9.05141e-02	8.55606e-08	8.89427e-08	7.96729e-02	2.75538e-02	8.49966e-08	8.88765e-08	4.61873e-02	1.47366e-02	1.84319e-02	4.86892e-03	8.63507e-08	6.78635e-03	X	X	X	X	X	X	X	X	X	X	X	X	X	X	X	X	



#DISTANCE SETTINGS
A = Detector Channel
A-1	A-2	A-3	A-4	A-5	A-6	A-7	A-8	A-9	A-10	A-11	A-12	A-13	A-14	A-15	A-16	

2.5000e+00	3.0000e+00	2.5000e+00	3.0000e+00	2.0000e+00	3.0000e+00	1.5000e+00	3.0000e+00	3.0000e+00	3.0000e+00	3.0000e+00	3.0000e+00	3.0000e+00	3.0000e+00	1.5000e+00	3.0000e+00	

B = Detector Channel
B-1	B-2	B-3	B-4	B-5	B-6	B-7	B-8	B-9	B-10	B-11	B-12	B-13	B-14	B-15	B-16	

1.0000e+01	1.0000e+01	1.0000e+01	1.4400e+00	1.0000e+01	1.0000e+01	1.5100e+00	1.9400e+00	1.0000e+01	1.0000e+01	1.9900e+00	2.4900e+00	2.4100e+00	2.9000e+00	1.0000e+01	2.9800e+00	




#DATA BEGINS
time	group	step	mark	flag	A-AC1	A-AC2	A-AC3	A-AC4	A-AC5	A-AC6	A-AC7	A-AC8	A-AC9	A-AC10	A-AC11	A-AC12	A-AC13	A-AC14	A-AC15	A-AC16	A-DC1	A-DC2	A-DC3	A-DC4	A-DC5	A-DC6	A-DC7	A-DC8	A-DC9	A-DC10	A-DC11	A-DC12	A-DC13	A-DC14	A-DC15	A-DC16	A-Ph1	A-Ph2	A-Ph3	A-Ph4	A-Ph5	A-Ph6	A-Ph7	A-Ph8	A-Ph9	A-Ph10	A-Ph11	A-Ph12	A-Ph13	A-Ph14	A-Ph15	A-Ph16	B-AC1	B-AC2	B-AC3	B-AC4	B-AC5	B-AC6	B-AC7	B-AC8	B-AC9	B-AC10	B-AC11	B-AC12	B-AC13	B-AC14	B-AC15	B-AC16	B-DC1	B-DC2	B-DC3	B-DC4	B-DC5	B-DC6	B-DC7	B-DC8	B-DC9	B-DC10	B-DC11	B-DC12	B-DC13	B-DC14	B-DC15	B-DC16	B-Ph1	B-Ph2	B-Ph3	B-Ph4	B-Ph5	B-Ph6	B-Ph7	B-Ph8	B-Ph9	B-Ph10	B-Ph11	B-Ph12	B-Ph13	B-Ph14	B-Ph15	B-Ph16	aux-1	digaux	

2012.888	1	1	0	512	0.080817	0.22638	0.19649	0.18516	0.15749	0.038258	0.23411	0.17736	0.26655	0.065332	0.2155	0.055526	0.15319	0.16397	0.24983	0.15172	-1.6854	-1.4896	-1.5271	-2.0792	-1.2771	-1.8438	-1.8438	-1.3479	-2.1437	-1.5375	-1.25	-2.0271	-1.3854	-1.7	-1.9104	-1.2687	260.712	435.631	474.386	156.454	468.951	207.363	399.647	398.939	483.430	429.977	361.441	422.382	315.933	376.835	476.674	444.344	0.00048108	0.00034439	0.00018557	598.7	5.6418e-06	7.2124e-06	650.08	145.41	2.7123e-06	2.4087e-06	160.12	48.574	40.474	17.206	2.0459e-05	15.521	0.0012166	0.0013734	0.0003861	541.67	1.4903e-05	1.5558e-05	582.44	134.14	1.5116e-05	1.5316e-05	149.33	45.203	38.723	16.208	1.4763e-05	14.881	405.572	497.655	187.391	152.603	338.423	330.734	150.148	158.320	390.145	436.479	154.862	158.721	162.108	166.797	300.370	162.437	-8191	255	
2012.984	1	1	0	0	0.29034	0.11376	0.21412	0.16368	0.27075	0.13312	0.18921	0.10729	0.075011	0.29579	0.069845	0.051529	0.099076	0.20264	0.13857	0.19329	-1.4542	-1.6292	-1.4542	-2.1458	-1.2	-1.7708	-2.2083	-1.3312	-2.0042	-1.775	-1.3625	-2.0083	-1.3687	-1.5292	-2.0062	-1.3583	470.235	436.766	203.122	159.998	375.402	391.389	435.477	367.060	418.688	487.226	376.653	213.280	489.684	303.210	292.044	425.962	0.00049599	0.00066751	0.00014384	594	7.6093e-06	8.0495e-06	646.79	146.54	7.6102e-06	4.9215e-06	160.45	48.834	40.838	17.06	1.6141e-05	15.336	0.0012181	0.0014008	0.00039258	540.08	1.4878e-05	1.5449e-05	583.25	134.39	1.4763e-05	1.5283e-05	148.89	45.39	39.066	16.206	1.5146e-05	14.948	367.479	305.247	377.535	152.487	457.999	242.888	149.921	158.696	173.078	497.748	154.292	158.704	162.482	166.729	257.882	161.762	-8191	255	
2013.080	1	1	0	0	0.36204	0.14032	0.29819	0.32183	0.11907	0.15989	0.38503	0.20871	0.16208	0.11154	0.27153	0.23442	0.076453	0.1793	0.18512	0.30196	-1.6167	-1.7104	-1.35	-2.0667	-1.5688	-1.7958	-2.1479	-1.1542	-1.8854	-1.8771	-1.4479	-2.0979	-1.7167	-1.3875	-2	-1.3083	149.459	481.874	473.548	491.090	241.988	216.296	476.732	443.296	373.002	463.199	325.051	148.744	316.389	283.114	430.528	167.680	0.00067417	0.00025128	0.00023422	598.28	5.8927e-06	6.0327e-06	647.29	146.31	1.4975e-05	5.0973e-06	160.83	48.859	40.447	17.142	5.1037e-06	15.894	0.0012263	0.0014063	0.00039729	543.11	1.4794e-05	1.5681e-05	584.76	134.44	1.497e-05	1.5205e-05	149.75	45.325	39.001	16.29	1.5003e-05	15.162	408.203	300.140	180.935	152.719	248.072	251.209	150.548	158.248	238.927	159.632	154.456	158.605	161.188	166.214	246.143	162.179	-8191	255	
2013.176	1	1	0	0	0.21915	0.1834	0.18264	0.18536	0.12553	0.20535	0.23922	0.1716	0.063689	0.20262	0.033786	0.10389	0.18905	0.21969	0.11518	0.21524	-1.2875	-1.9083	-1.3021	-2.1437	-1.4667	-1.6021	-2.2792	-1.5271	-1.8625	-1.9479	-1.2542	-1.9292	-1.5354	-1.4604	-2.0438	-1.4458	313.527	319.876	163.582	305.085	330.076	412.051	412.533	499.825	444.851	274.442	403.527	252.945	146.593	361.191	388.372	343.473	0.00051043	0.00056998	2.902e-05	594.37	2.6799e-06	2.7951e-06	650.99	148.06	6.121e-06	4.059e-06	161.07	48.359	40.544	17.265	6.6921e-06	15.595	0.0012164	0.0014157	0.00039392	540.44	1.5088e-05	1.5708e-05	586.1	135.16	1.4915e-05	1.5567e-05	150.32	45.539	38.757	16.325	1.5007e-05	15.029	388.371	143.686	287.068	152.909	329.239	470.517	150.607	158.716	310.184	433.126	154.972	159.173	162.312	166.954	476.912	162.114	-8191	255	
2013.272	1	1	0	0	0.084286	0.13205	0.13693	0.19037	0.1223	0.1812	0.14266	0.22134	0.077497	0.20381	0.34994	0.20616	0.26612	0.047833	0.19353	0.23284	-1.1833	-2.0021	-1.3583	-2.0438	-1.675	-1.2313	-2.0979	-1.5875	-1.7146	-2.0958	-1.3	-2.0042	-1.7708	-1.6063	-2.1146	-1.5333	334.802	279.001	290.593	199.196	249.746	373.089	495.477	432.751	247.355	176.075	473.963	442.533	197.562	307.749	496.229	219.043	0.00065892	0.00035092	0.00019323	595.42	2.7133e-06	5.0416e-06	640.46	147.66	2.5785e-06	6.1872e-06	156.93	48.115	40.268	16.895	6.5973e-06	15.415	0.0012186	0.001396	0.0003946	541.1	1.5003e-05	1.5758e-05	583.38	133.88	1.5042e-05	1.5281e-05	148.02	45.203	38.844	16.12	1.5291e-05	14.903	387.825	330.142	217.511	152.788	157.220	158.829	149.869	158.628	336.396	305.641	155.825	159.321	161.846	166.698	252.747	161.316	-8191	255	
2013.393	1	1	0	0	0.33412	0.13757	0.18821	0.063536	0.18571	0.13906	0.056309	0.10905	0.27197	0.10631	0.10805	0.13644	0.087801	0.19379	0.17165	0.21725	-1.3229	-1.9125	-1.3729	-1.9937	-1.6604	-1.1917	-2.2271	-1.5688	-1.4958	-2.0125	-1.425	-1.725	-1.8062	-1.3021	-2.1333	-1.6896	255.825	181.374	205.855	490.953	422.235	312.048	188.479	196.197	237.973	182.716	426.884	433.909	141.870	440.963	332.118	437.806	0.00050311	0.00039846	0.00016841	580.07	3.1593e-06	4.3826e-06	642.97	144.65	6.0694e-06	8.3532e-06	155.54	48.604	40.807	16.879	1.1275e-05	15.407	0.0012211	0.0014183	0.00038202	536.64	1.494e-05	1.5534e-05	578.98	133.54	1.4637e-05	1.5462e-05	147.31	45.236	38.785	16.13	1.5266e-05	14.968	380.948	208.014	281.503	153.153	328.040	349.638	149.952	158.914	353.438	354.842	155.072	158.981	161.792	166.409	268.272	161.455	-8191	255	
2013.489	1	1	0	0	0.19947	0.12998	0.2222	0.26611	0.13407	0.1441	0.44339	0.19111	0.046687	0.19835	0.37194	0.15887	0.062905	0.23755	0.17827	0.037978	-0.92083	-2.0167	-1.3917	-1.7188	-1.9688	-1.2646	-2.1396	-1.7833	-1.375	-2.275	-1.4354	-1.7563	-2.1125	-1.2687	-2.0333	-1.8188	414.103	373.994	167.517	480.676	409.022	392.841	142.037	472.536	151.084	326.045	450.654	259.892	471.976	167.917	216.855	253.275	0.00055932	0.0004172	0.0002728	594.3	1.3728e-05	3.5593e-06	640.44	142.68	8.4469e-06	8.5118e-06	157.92	47.93	40.323	16.799	6.1891e-06	15.35	0.0012273	0.0013778	0.00038152	540.79	1.5142e-05	1.5228e-05	581.7	133.25	1.509e-05	1.5422e-05	148.4	44.858	38.555	16.128	1.5336e-05	14.909	381.734	172.129	251.921	153.085	300.051	324.499	150.746	158.817	268.613	324.820	154.778	159.141	162.155	166.929	223.812	161.769	-8191	255	
2013.585	1	1	0	0	0.3627	0.14008	0.098495	0.27187	0.27312	0.15772	0.081487	0.14597	0.12475	0.063144	0.15988	0.24874	0.15197	0.12154	0.1488	0.35416	-0.85625	-2.0333	-1.2854	-1.7792	-2.2125	-1.3438	-1.8833	-1.775	-1.4083	-2.1063	-1.4833	-1.5708	-1.9167	-1.2563	-1.875	-1.8479	376.607	361.228	218.027	467.784	267.840	319.296	386.930	151.282	433.876	435.829	431.240	342.704	201.254	459.401	376.754	491.196	0.00071029	0.00036254	4.2293e-05	586	6.1685e-06	6.418e-06	631.65	144.18	6.0706e-06	8.9585e-06	159.45	48.976	40.459	17.201	6.5976e-06	15.404	0.0012368	0.0013645	0.00038774	540.79	1.4906e-05	1.5188e-05	582.62	133.84	1.4958e-05	1.5272e-05	149.45	45.566	38.764	16.209	1.4702e-05	15.005	373.277	153.187	157.532	153.660	212.981	474.925	150.788	159.177	311.301	352.577	154.422	158.972	162.562	166.548	390.340	162.126	-8191	255	
2013.681	1	1	0	0	0.15708	0.24424	0.06678	0.2487	0.19533	0.19508	0.20387	0.21834	0.20163	0.22667	0.13627	0.33106	0.19844	0.40609	0.072842	0.19221	-0.82917	-1.9375	-1.5479	-1.4583	-2.0854	-1.3729	-1.9479	-1.9875	-1.1979	-1.9438	-1.5354	-1.4688	-2.1437	-1.4146	-1.5958	-1.8354	155.623	182.628	419.594	346.748	498.052	358.493	329.044	164.047	359.200	152.504	411.499	389.563	360.404	452.151	210.009	356.751	0.0008165	0.00036267	0.00014032	590.78	6.1666e-06	1.0901e-05	649.09	146.2	1.1167e-05	6.536e-06	156.74	48.133	40.253	17.022	6.917e-06	15.221	0.0012258	0.0013952	0.00038787	539.64	1.506e-05	1.5274e-05	585.39	134.73	1.4873e-05	1.5194e-05	147.64	44.814	38.49	16.09	1.5314e-05	14.796	393.391	429.371	388.813	153.089	427.841	326.918	150.417	158.307	209.960	246.400	154.761	158.809	162.251	166.676	269.782	161.728	-8191	255	
2013.776	1	1	0	0	0.092089	0.1074	0.25351	0.040339	0.31963	0.1542	0.48068	0.17358	0.28538	0.25797	0.20292	0.22059	0.18093	0.11631	0.2099	0.17181	-0.93958	-2.0417	-1.5979	-1.4042	-2.1396	-1.5375	-1.6771	-1.9771	-1.1458	-1.9667	-1.9521	-1.5	-2.1604	-1.4625	-1.6354	-1.8813	349.548	418.300	366.544	410.859	477.171	199.829	478.353	490.869	379.327	473.060	432.755	184.871	443.767	243.085	494.399	453.889	0.00057584	0.00068667	3.2985e-05	588.2	5.2568e-06	3.7063e-06	643.39	143.87	1.7553e-05	3.9855e-06	157.37	47.369	40.844	17.03	3.1785e-06	15.122	0.0012438	0.0014216	0.00039276	540.34	1.4892e-05	1.5475e-05	584.55	133.37	1.5046e-05	1.5523e-05	148.27	44.843	38.781	16.124	1.5354e-05	14.786	393.725	306.947	318.238	152.854	280.298	263.256	150.486	158.793	485.521	465.900	154.823	159.673	161.312	167.121	322.624	161.376	-8191	255	
2013.872	1	1	0	0	0.41163	0.10455	0.20263	0.50507	0.12907	0.13851	0.14452	0.034828	0.13414	0.20531	0.23677	0.36626	0.19037	0.12898	0.22164	0.26387	-0.71875	-1.775	-1.7271	-1.4229	-1.975	-1.5396	-1.6083	-2.1562	-1.3792	-1.9146	-1.8583	-1.2771	-2.0938	-1.675	-1.3979	-1.9042	400.988	278.648	357.229	435.208	330.702	479.697	256.237	185.423	437.523	155.045	474.932	357.466	216.278	347.556	300.083	449.646	0.00042834	0.00056277	0.00020634	590.64	1.1836e-05	1.0091e-06	650.77	146.71	6.2928e-06	9.7793e-06	160.19	48.322	40.296	17.122	5.8887e-06	15.436	0.001256	0.0014066	0.0003849	538.41	1.4955e-05	1.5594e-05	586.69	134.03	1.4989e-05	1.5489e-05	149.31	45.203	38.819	16.207	1.5141e-05	15.032	383.437	201.302	206.988	153.409	269.474	164.738	150.395	158.090	298.345	389.291	154.487	158.414	162.805	166.381	351.600	162.562	-8191	255	
2013.993	1	1	0	0	0.16497	0.19952	0.15646	0.26679	0.096639	0.24409	0.067979	0.37533	0.25202	0.43199	0.20033	0.1347	0.059169	0.2925	0.10282	0.097207	-0.89375	-1.5521	-1.8792	-1.2354	-1.9208	-1.7542	-1.3708	-2.025	-1.375	-1.6979	-2.1521	-1.425	-2.1229	-1.6542	-1.3083	-2.2125	412.385	444.573	469.505	414.810	478.954	288.411	227.452	430.326	359.838	464.274	278.006	307.193	270.674	376.678	184.280	191.802	0.00064832	0.00013468	0.00025881	596.74	5.9188e-06	6.3386e-06	652.07	147.94	1.6224e-05	3.8458e-06	160.31	48.371	41.026	17.25	1.0031e-05	15.479	0.0012361	0.0013989	0.00039395	541.24	1.48e-05	1.5689e-05	587.9	134.85	1.5193e-05	1.5458e-05	149.67	45.45	38.818	16.284	1.5341e-05	14.999	387.805	249.226	284.348	152.638	351.281	232.558	150.267	158.226	318.907	285.265	154.341	158.609	161.980	166.424	192.924	161.252	-8191	255	
2014.089	1	1	0	0	0.24459	0.070314	0.20085	0.20982	0.21953	0.07416	0.1448	0.29941	0.1659	0.22637	0.14371	0.13909	0.11847	0.16317	0.11179	0.258	-1.1	-1.7417	-1.9021	-1.4729	-1.8438	-1.7917	-1.4188	-2.125	-1.5812	-1.6958	-2.3167	-1.2812	-1.9562	-1.6688	-1.1542	-2.0667	371.544	454.259	142.117	176.554	238.536	365.613	457.630	420.766	282.979	359.129	172.097	471.793	306.984	252.470	194.757	178.521	0.00042686	0.00040076	2.8698e-05	596.67	5.3047e-06	5.7864e-06	652.32	146.71	6.3115e-06	5.9014e-06	159.97	48.399	40.278	17.099	4.6053e-06	15.419	0.0012471	0.0014184	0.00038901	541.14	1.4893e-05	1.5431e-05	584.77	134.32	1.4748e-05	1.5335e-05	148.82	45.024	38.761	16.204	1.5166e-05	14.861	394.292	156.727	272.272	152.569	329.699	208.544	150.203	158.684	223.787	377.661	154.125	158.680	162.199	165.665	228.837	162.070	-8191	255	
2014.185	1	1	0	0	0.15771	0.090185	0.20288	0.37758	0.10274	0.058097	0.069818	0.047192	0.1532	0.34382	0.17072	0.14801	0.35616	0.25235	0.11217	0.065467	-0.97083	-1.3771	-2.1167	-1.3125	-1.8625	-1.875	-1.1479	-1.9937	-1.5229	-1.4958	-2.1312	-1.2167	-1.7729	-2.0438	-1.4312	-2.0125	203.227	422.594	450.942	491.600	492.523	489.229	202.197	395.173	493.812	479.705	292.186	253.352	148.225	267.440	251.205	389.526	0.0007169	0.00041141	0.00032724	586.31	1.5521e-06	6.7701e-06	641.8	144.69	4.7335e-06	1.1602e-05	157.97	48.393	40.627	17.296	7.8467e-06	15.152	0.0012526	0.001383	0.00038878	537.35	1.5384e-05	1.5352e-05	580.91	133.51	1.5146e-05	1.5455e-05	147.85	44.887	38.644	16.159	1.5064e-05	14.815	401.936	268.954	179.359	152.791	254.045	473.904	150.420	158.615	334.221	305.439	154.860	158.426	161.063	166.044	240.735	161.071	-8191	255	
2014.281	1	1	0	0	0.13797	0.16275	0.20094	0.33954	0.15351	0.17315	0.22281	0.14737	0.10328	0.12978	0.077926	0.096538	0.31286	0.15571	0.17682	0.28851	-1.3062	-1.4396	-2.0833	-1.3833	-1.75	-1.9937	-1.2417	-1.9292	-1.725	-1.5438	-2.1312	-1.3646	-1.7583	-2.1	-1.3854	-2.075	325.120	174.424	363.392	140.414	428.653	294.042	432.664	422.215	146.493	319.346	414.724	291.353	277.659	405.534	358.095	444.957	0.00046963	0.00068639	9.0767e-05	589.29	5.4463e-06	6.8391e-06	645.16	147.53	1.8887e-05	6.1741e-06	156.01	48.049	40.282	17.074	4.288e-07	15.522	0.0012541	0.0013916	0.000399	536.37	1.512e-05	1.5436e-05	581.71	133.97	1.4763e-05	1.5305e-05	147.34	44.763	38.696	16.105	1.5139e-05	14.955	402.552	333.502	257.063	152.932	383.797	331.065	149.982	158.124	213.515	421.055	154.466	158.917	162.482	166.371	365.808	161.448	-8191	255	
2014.377	1	1	0	0	0.40622	0.13443	0.10804	0.32884	0.028265	0.25658	0.3117	0.12767	0.20142	0.13973	0.041927	0.045371	0.1715	0.085972	0.29285	0.29458	-1.2042	-1.325	-2.1021	-1.5625	-1.7521	-1.9688	-1.4875	-1.9854	-1.8917	-1.3354	-2.0542	-1.6292	-1.4458	-2.1271	-1.3	-1.8438	267.741	451.674	393.107	481.365	178.948	266.148	436.211	359.707	445.552	252.316	213.942	265.014	202.686	446.084	322.537	143.690	0.00050722	0.00039575	0.0001504	592.05	4.2616e-06	7.4477e-06	651.54	147.31	7.6856e-06	8.0848e-06	158.02	48.274	39.691	17.133	6.907e-06	15.378	0.0012278	0.0014211	0.00038806	538.03	1.5119e-05	1.5326e-05	585.66	134.59	1.4867e-05	1.5201e-05	148.8	45.283	38.576	16.149	1.5275e-05	14.968	387.885	415.441	208.714	152.709	470.500	374.929	150.000	158.405	227.081	316.533	154.948	159.221	161.768	166.153	263.826	161.351	-8191	255	
2014.473	1	1	0	0	0.279	0.13129	0.087631	0.50454	0.045334	0.037287	0.24099	0.1814	0.063043	0.07472	0.10981	0.26718	0.16946	0.3895	0.11236	0.18039	-1.6437	-1.1667	-1.9188	-1.45	-1.5542	-2.0854	-1.4542	-1.95	-2.0354	-1.1354	-2.0229	-1.6833	-1.3146	-2.1229	-1.2083	-1.9438	181.525	459.602	200.894	472.125	299.108	377.057	468.039	384.201	457.422	486.819	450.995	436.136	283.491	463.043	228.094	307.443	0.00071693	0.0001787	0.00029101	593.97	7.2014e-06	8.5347e-06	650.96	146.43	1.0072e-05	5.8193e-06	157.02	47.987	39.693	17.053	8.2639e-06	15.106	0.001268	0.0014003	0.00039201	539.79	1.4819e-05	1.5574e-05	587.71	134.49	1.4731e-05	1.562e-05	149	44.711	38.548	16.067	1.5023e-05	14.812	385.958	318.431	274.525	152.986	199.254	203.243	150.175	159.041	169.429	365.529	154.244	158.638	162.278	166.431	296.951	160.884	-8191	255	
2014.569	1	1	0	0	0.20223	0.197	0.25855	0.1837	0.14731	0.12782	0.22932	0.20142	0.086712	0.11284	0.15458	0.25228	0.20217	0.063055	0.057877	0.18159	-1.5417	-1.1604	-1.9937	-1.7521	-1.3062	-2.1437	-1.5729	-1.8083	-1.8125	-1.5125	-1.9667	-1.7563	-1.4208	-2.0563	-1.575	-1.7771	309.835	230.917	472.932	424.608	322.268	242.200	340.211	373.917	156.992	500.014	475.299	196.806	307.613	274.931	295.889	353.767	0.00054521	0.00045881	0.00021652	593.07	6.9561e-06	3.1338e-06	643.73	144.71	5.5873e-06	4.5059e-06	157.72	47.193	39.792	17.05	5.0847e-06	15.294	0.0012334	0.0014286	0.00039437	540.26	1.5098e-05	1.5422e-05	583.7	133.84	1.4948e-05	1.5695e-05	148.23	44.456	38.38	16.06	1.4989e-05	14.802	387.595	194.588	141.767	152.590	342.915	276.948	149.546	158.852	335.888	303.318	154.890	158.531	162.571	166.622	157.957	161.491	-8191	255	
2014.666	1	1	0	0	0.17063	0.1868	0.070029	0.087734	0.16808	0.28512	0.26739	0.20545	0.16499	0.030496	0.23514	0.12407	0.48018	0.29442	0.21261	0.044911	-1.7271	-1.1771	-1.8729	-1.8625	-1.3813	-1.9833	-1.5604	-1.6021	-2.1229	-1.3646	-1.9688	-1.925	-1.3438	-2.1021	-1.6	-1.4396	370.852	169.011	223.367	452.478	308.771	453.680	435.576	452.625	335.938	317.475	384.625	370.768	344.353	389.864	372.423	192.516	0.00071656	0.0006094	0.00027473	593.71	2.4875e-06	2.0101e-06	643.86	146.72	1.4207e-05	3.0169e-06	157.44	47.997	40.185	16.921	5.7517e-06	15.317	0.0012353	0.0014024	0.00039022	539.6	1.515e-05	1.5414e-05	584.4	134.61	1.4684e-05	1.5698e-05	148.55	44.718	38.505	16.094	1.5121e-05	14.888	378.295	496.158	170.242	152.809	150.501	263.021	150.341	158.623	268.661	439.165	155.106	158.994	161.944	166.304	261.301	161.730	-8191	255	
2014.784	1	1	0	0	0.20817	0.1823	0.30133	0.22389	0.32676	0.048234	0.17863	0.24059	0.21466	0.20539	0.12549	0.095234	0.017546	0.22931	0.16856	0.042828	-1.5042	-1.4667	-1.8104	-1.8813	-1.4062	-2.1083	-1.7458	-1.5542	-2.3729	-1.4813	-1.9104	-2.1375	-1.2062	-2.2271	-1.7313	-1.3354	334.768	219.948	465.692	467.413	493.399	420.101	469.526	468.421	169.822	403.598	418.968	252.572	284.955	484.480	448.817	224.264	0.00097892	0.00035546	0.00023486	589.34	7.3693e-06	1.954e-06	653.71	148.1	2.4905e-05	4.3612e-06	159.03	47.996	40.245	17.274	4.7531e-06	15.543	0.0012437	0.0013969	0.00039318	539.04	1.5202e-05	1.5226e-05	587.1	135.06	1.4807e-05	1.5702e-05	148.69	44.864	38.526	16.282	1.4967e-05	15.095	368.831	223.496	183.018	153.079	260.029	181.459	150.239	158.371	268.420	248.237	154.269	158.586	162.611	166.683	170.140	161.832	-8191	255	
2014.881	1	1	0	0	0.16803	0.15143	0.31844	0.23749	0.18459	0.16293	0.1526	0.21113	0.16232	0.34822	0.24792	0.2313	0.30257	0.13013	0.16343	0.25155	-1.7146	-1.4625	-1.7687	-1.9896	-1.4042	-2.0104	-1.8208	-1.1708	-2.1	-1.4979	-1.6688	-2.1188	-1.3771	-2.0229	-2.0271	-1.3708	197.473	292.659	325.567	281.600	265.791	218.339	197.309	410.058	430.879	175.192	169.399	337.915	464.887	350.771	190.638	318.075	0.00064627	0.00026873	0.00013209	595.63	7.9335e-06	1.4618e-06	648.86	147.45	2.9252e-05	2.425e-06	159.3	47.406	40.154	17.081	1.001e-06	15.344	0.001227	0.001402	0.00039025	542.33	1.5136e-05	1.5319e-05	586	135.42	1.4722e-05	1.564e-05	148.26	44.735	38.526	16.201	1.4804e-05	14.906	371.067	295.089	256.008	152.505	408.495	355.083	149.743	158.492	235.753	251.328	154.737	158.400	162.108	166.266	377.006	161.606	-8191	255	
2014.954	1	1	0	0	0.31848	0.15003	0.24117	0.11822	0.22265	0.14499	0.14345	0.12552	0.1382	0.35087	0.14106	0.084265	0.14951	0.13317	0.098671	0.026812	-2.0021	-1.5125	-1.5396	-2.2542	-1.2792	-1.9729	-2.0271	-1.3979	-2.1583	-1.7104	-1.5229	-2.0479	-1.2896	-1.9875	-1.8917	-1.4354	299.293	444.139	490.833	201.611	482.880	193.749	456.493	215.639	254.844	140.851	265.859	169.314	483.606	190.198	189.308	307.007	0.00056413	0.00076922	0.00029376	590.67	5.6321e-06	5.8883e-06	639.98	146.86	1.3189e-05	6.424e-06	157.67	47.417	40.001	17.141	4.9332e-06	15.352	0.0012342	0.0014321	0.00038898	537.53	1.4804e-05	1.5433e-05	581.59	134.96	1.4646e-05	1.545e-05	147.48	44.34	38.326	16.094	1.4525e-05	14.81	393.558	154.709	214.278	152.999	485.592	232.937	150.516	157.842	212.071	442.518	154.631	158.214	162.597	166.677	284.358	161.025	-8191	255	
2015.073	1	1	0	0	0.091258	0.14326	0.20214	0.053205	0.34366	0.31674	0.1117	0.062657	0.084008	0.31655	0.24549	0.058824	0.09207	0.23931	0.23266	0.19447	-1.7125	-1.675	-1.2833	-2.2188	-1.425	-1.7542	-2.1083	-1.3125	-2.1458	-1.8687	-1.4125	-2.1417	-1.4708	-1.6104	-2.0708	-1.4667	499.713	498.043	212.090	478.232	482.421	295.617	453.062	151.643	298.635	423.092	406.130	415.019	366.267	451.142	398.433	453.410	0.00052421	0.00076094	6.499e-05	590.31	7.8116e-06	5.4723e-06	636.55	145.9	1.2226e-05	5.2753e-06	159.16	47.46	39.922	16.902	8.8871e-06	15.404	0.0011943	0.001402	0.00038733	538.75	1.515e-05	1.5625e-05	580.15	134.18	1.4514e-05	1.5261e-05	148.13	44.315	38.39	16.102	1.5024e-05	14.9	356.795	337.994	393.270	153.255	159.241	449.876	149.966	158.332	293.757	304.957	155.082	159.212	161.852	166.292	200.962	161.995	-8191	255	
2015.169	1	1	0	0	0.033023	0.12592	0.14459	0.14443	0.22993	0.16534	0.18393	0.15321	0.38306	0.41131	0.16434	0.14638	0.15139	0.1828	0.15743	0.19487	-1.5917	-1.8312	-1.3813	-2.1688	-1.5125	-1.5104	-2.1979	-1.4125	-1.9958	-2.0667	-1.5	-1.95	-1.5646	-1.5917	-2.1979	-1.4125	402.816	475.933	263.797	448.862	495.234	479.502	416.635	397.675	311.179	387.237	365.967	300.545	491.972	168.591	400.255	441.507	0.00053575	0.00038557	5.0781e-05	589.66	6.6402e-06	6.5693e-06	649.55	148.53	1.8243e-05	1.0081e-05	158.85	47.702	39.499	16.823	9.3542e-06	15.147	0.0012184	0.0013604	0.00038958	537.62	1.4922e-05	1.5323e-05	585.09	135.44	1.4941e-05	1.5738e-05	148.33	44.401	38.257	16.059	1.5058e-05	14.844	367.414	195.359	194.301	152.894	272.327	175.250	149.530	158.635	306.392	303.594	154.102	158.733	162.073	166.434	242.758	161.878	-8191	255	
2015.265	1	1	0	0	0.19609	0.25944	0.24433	0.31021	0.071898	0.14589	0.17505	0.27234	0.16142	0.13767	0.14973	0.20143	0.12225	0.22994	0.093056	0.25749	-1.3333	-1.7708	-1.3708	-2.05	-1.5396	-1.5458	-2.2604	-1.65	-1.7896	-1.9937	-1.4146	-2.0042	-1.6229	-1.6167	-2.1437	-1.4146	456.771	300.363	166.948	290.212	403.646	366.860	193.693	433.936	260.943	426.268	301.218	316.197	303.016	237.312	337.008	500.380	0.00054056	0.00047899	7.7006e-05	594.46	9.8082e-06	6.8728e-06	649.62	147.51	8.9126e-06	2.442e-06	160.66	48.087	39.966	17.128	1.1696e-05	15.069	0.0012323	0.0014018	0.00038893	541.04	1.4713e-05	1.5444e-05	588.73	135.48	1.4753e-05	1.558e-05	149.62	44.602	38.341	16.097	1.4818e-05	14.787	385.888	477.308	260.088	152.478	332.157	249.727	150.350	158.414	275.448	358.284	154.516	158.513	162.641	165.832	275.744	161.198	-8191	255	
2015.386	1	1	0	0	0.012176	0.14133	0.4098	0.025478	0.13462	0.14818	0.20462	0.14167	0.1563	0.099713	0.036887	0.17985	0.12774	0.2648	0.17711	0.26012	-1.1875	-1.9583	-1.2542	-1.9167	-1.8354	-1.3583	-2.025	-1.4417	-1.5542	-2.1312	-1.3042	-1.8708	-1.7938	-1.375	-2.1312	-1.4125	398.043	433.953	153.660	239.452	349.236	431.734	339.132	300.088	402.206	438.030	214.946	433.147	464.665	339.660	173.985	356.437	0.00052774	0.0004618	0.0002117	594.95	1.1967e-05	6.6344e-06	647.09	147.01	1.544e-05	6.8067e-06	158.76	46.942	39.888	16.953	5.3281e-06	15.161	0.0012346	0.0013875	0.00039169	541.22	1.5103e-05	1.5672e-05	584.63	134.93	1.4934e-05	1.5114e-05	147.74	44.109	38.291	16.016	1.5029e-05	14.714	354.368	325.850	300.481	152.930	250.569	408.457	150.142	158.156	498.832	388.877	155.223	158.814	161.580	166.687	255.566	161.137	-8191	255	
2015.482	1	1	0	0	0.12688	0.08117	0.14115	0.11719	0.19955	0.26111	0.12047	0.3894	0.18022	0.31927	0.20748	0.38714	0.28213	0.4066	0.084673	0.12876	-1.125	-2.0187	-1.3271	-1.8687	-1.8312	-1.2271	-2.2125	-1.5792	-1.4354	-2.0958	-1.4833	-1.8375	-2.0479	-1.2	-2.125	-1.725	288.159	493.416	384.950	216.725	378.551	183.518	365.490	419.949	294.136	223.041	243.970	480.655	175.992	490.549	320.215	196.555	0.00052114	0.00057083	9.5047e-05	593	6.1085e-06	5.1879e-06	649.04	146.64	5.3934e-06	6.277e-06	157.32	46.998	39.552	16.912	1.2291e-05	15.462	0.0012388	0.0013867	0.00038589	539.2	1.4722e-05	1.5211e-05	584.72	134.71	1.4798e-05	1.5158e-05	147.62	44.289	38.281	16.079	1.4883e-05	14.926	367.053	245.229	427.701	152.614	251.038	300.189	149.865	158.471	150.697	257.831	155.342	159.429	162.009	166.539	321.995	161.556	-8191	255	
2015.554	1	1	0	0	0.348	0.17175	0.20108	0.075875	0.073401	0.25161	0.22058	0.23268	0.10669	0.24345	0.24041	0.24395	0.12508	0.10301	0.21757	0.10233	-0.95833	-2.0167	-1.4479	-1.9	-2.0062	-1.35	-2.1771	-1.7167	-1.2646	-2.2604	-1.5333	-1.6479	-2.0833	-1.1063	-2.0229	-1.6063	405.891	421.789	268.632	187.773	354.184	227.723	162.033	472.564	333.400	274.236	299.966	239.133	339.899	259.929	269.828	373.508	0.00043726	0.00021108	0.00016753	592.32	2.8786e-06	6.51e-06	647.83	146.93	6.9021e-06	4.0373e-06	159.04	47.214	40.138	16.986	7.9378e-06	15.252	0.0012222	0.0013696	0.00038958	540	1.482e-05	1.5529e-05	586.05	135.22	1.475e-05	1.4987e-05	148.35	44.466	38.379	16.164	1.5309e-05	14.95	361.803	494.982	201.447	152.707	179.388	478.246	150.211	158.297	344.011	198.282	154.537	158.780	161.001	166.799	248.464	162.223	-8191	255	
2015.674	1	1	0	0	0.21083	0.16411	0.061699	0.17141	0.16419	0.35401	0.22082	0.17834	0.087196	0.16643	0.17175	0.057376	0.072541	0.18489	0.035914	0.25521	-0.88125	-2.2229	-1.325	-1.7542	-2.0521	-1.3583	-1.9604	-1.8333	-1.3542	-2.0854	-1.4	-1.6854	-2.2625	-1.3542	-1.8375	-1.9125	232.362	269.784	149.883	321.135	311.161	430.237	489.408	155.752	454.430	198.335	427.147	306.881	161.455	185.614	223.805	479.088	0.00085718	0.00039022	0.00013626	592.85	1.0496e-06	4.6156e-06	654.28	147.92	2.0998e-05	2.5114e-06	160.32	47.826	40.518	16.999	1.0886e-06	15.285	0.0012074	0.0013614	0.00039778	539.79	1.5048e-05	1.553e-05	589.05	135.32	1.4865e-05	1.5392e-05	148.85	44.46	38.321	16.122	1.5094e-05	14.836	384.077	175.515	252.883	152.514	306.785	391.821	150.080	158.197	305.585	344.051	154.854	159.199	161.159	166.499	321.025	162.019	-8191	255	
2015.769	1	1	0	0	0.077389	0.12839	0.14279	0.14079	0.16023	0.26713	0.11805	0.15872	0.066436	0.41487	0.257	0.089835	0.01124	0.1962	0.24511	0.24315	-0.96042	-2.1146	-1.6479	-1.6021	-2.2167	-1.3667	-1.8208	-2.0604	-1.3958	-1.9688	-1.6	-1.6667	-2.0563	-1.4167	-1.85	-2.0625	471.141	298.241	496.980	391.949	205.623	479.009	165.320	459.705	167.926	176.293	330.467	315.445	255.356	310.771	458.251	495.088	0.00045743	0.00068088	8.4492e-05	595.11	1.18e-05	6.32e-06	644.84	145.07	1.3185e-05	5.8528e-06	156.06	46.891	39.705	16.74	3.8452e-06	15.254	0.0012199	0.001375	0.00038416	540.97	1.5014e-05	1.5125e-05	583.62	133.99	1.4545e-05	1.5449e-05	146.12	43.746	38.142	15.974	1.4637e-05	14.7	380.028	221.269	186.042	152.739	211.956	428.034	150.461	158.164	270.987	269.047	154.133	158.614	161.813	166.727	302.114	161.761	-8191	255	
2015.865	1	1	0	0	0.042428	0.084509	0.059862	0.16487	0.024457	0.26837	0.205	0.31743	0.10764	0.16064	0.34735	0.075779	0.11561	0.19415	0.1198	0.031888	-0.95417	-1.95	-1.7604	-1.4104	-2.0958	-1.45	-1.8563	-1.9813	-1.125	-1.8771	-1.6229	-1.3958	-2.1521	-1.3875	-1.6875	-2.2562	464.198	201.398	380.032	477.501	455.128	186.620	182.148	434.797	403.831	474.004	145.143	477.686	203.303	404.702	446.808	320.815	0.00056103	0.00080674	0.00010063	592.46	6.7273e-06	5.0415e-06	644.99	146.65	1.1736e-05	5.3379e-06	157.3	47.182	39.599	17.088	1.1802e-05	15.119	0.0012288	0.0013852	0.00038239	538.21	1.4517e-05	1.5275e-05	581.78	134.81	1.4741e-05	1.5228e-05	146.8	44.02	38.132	16.071	1.4817e-05	14.665	356.864	202.494	142.254	152.920	150.974	486.850	150.117	158.396	261.278	269.112	154.119	158.660	161.494	166.058	320.612	161.759	-8191	255	
2015.961	1	1	0	0	0.12332	0.085428	0.30673	0.28477	0.11866	0.21897	0.08699	0.027184	0.12461	0.15456	0.15736	0.17969	0.1664	0.24885	0.16532	0.15861	-1.0083	-1.8021	-1.9937	-1.4208	-2.2833	-1.5271	-1.725	-2.1771	-1.3271	-2.1104	-1.9188	-1.2021	-2.0333	-1.6562	-1.6625	-2.1667	202.626	290.879	384.734	154.127	164.728	487.954	420.068	401.093	458.036	164.076	161.575	344.081	367.517	496.456	400.784	321.924	0.00050548	0.00037374	0.00020542	595.72	3.3197e-07	8.9106e-06	649.52	147.78	2.8437e-05	7.0032e-06	160.53	46.826	40.185	17.033	6.4978e-06	15.46	0.0012041	0.0013908	0.00037916	538.91	1.4683e-05	1.5283e-05	584.6	135.38	1.4667e-05	1.5114e-05	148.67	43.91	38.05	16.029	1.5196e-05	14.797	422.072	372.058	281.889	152.536	368.913	250.362	150.299	158.501	235.637	224.018	154.430	158.782	161.286	166.048	380.141	161.248	-8191	255	
2016.082	1	1	0	0	0.030921	0.024045	0.10257	0.28856	0.11807	0.19198	0.28952	0.10124	0.052086	0.30768	0.20581	0.23868	0.082112	0.2401	0.037129	0.20134	-1.1146	-1.9062	-1.9458	-1.4458	-2.0312	-1.6792	-1.7104	-2.1667	-1.5625	-1.7729	-2.0167	-1.3937	-2.0792	-1.6583	-1.3458	-2.1063	334.656	374.158	167.495	456.455	369.897	449.943	399.486	426.451	482.944	358.192	450.253	259.056	294.319	436.939	430.485	387.938	0.00045046	0.00038735	7.1863e-05	598.72	3.0598e-06	5.404e-06	653.49	148.58	8.7146e-06	1.9463e-06	160.51	47.317	39.72	17.268	1.1361e-05	15.214	0.0012161	0.0013757	0.00038465	541.7	1.4769e-05	1.4991e-05	590.08	136.21	1.4877e-05	1.5099e-05	149.45	44.048	38.254	16.107	1.4852e-05	14.769	386.806	437.977	280.270	153.032	320.647	468.498	149.939	158.333	284.597	304.952	154.643	158.471	161.690	166.307	409.433	161.296	-8191	255	
2016.178	1	1	0	0	0.17418	0.25579	0.043909	0.055346	0.14884	0.41832	0.091649	0.16548	0.14926	0.12472	0.081456	0.070206	0.16858	0.13144	0.14208	0.098514	-1.1437	-1.6667	-2.0458	-1.1875	-1.9854	-2.0146	-1.5854	-2.0458	-1.4542	-1.65	-2.1646	-1.2583	-2.0938	-1.8396	-1.5542	-2.0312	207.708	423.569	223.034	182.336	221.701	212.501	300.850	373.297	296.626	291.278	268.464	273.295	141.864	215.135	187.085	184.348	0.00028951	0.00045561	0.00015306	593.26	5.9855e-06	1.355e-05	648.41	148.54	1.4696e-05	5.9262e-06	158.48	47.158	39.937	16.768	1.0089e-05	15.149	0.0012313	0.0013689	0.00037706	539.71	1.4449e-05	1.527e-05	584.43	135.23	1.4434e-05	1.5242e-05	147.22	43.444	37.848	15.873	1.4753e-05	14.613	395.217	143.475	197.914	152.280	440.152	288.883	150.067	157.883	276.864	274.873	154.497	158.819	162.029	165.796	252.589	161.242	-8191	255	
2016.249	1	1	0	0	0.38079	0.08893	0.16103	0.21698	0.23864	0.20862	0.21378	0.051327	0.07401	0.13722	0.071777	0.19593	0.13191	0.13606	0.19149	0.24943	-1.2125	-1.5688	-2.1333	-1.3667	-2.0479	-1.8479	-1.4021	-2.1188	-1.7292	-1.4937	-2.0563	-1.3833	-2.0229	-2.0396	-1.6313	-2.1188	411.150	441.207	245.397	141.403	451.634	392.031	418.355	418.570	161.573	384.862	214.496	342.609	287.952	390.932	144.267	398.729	0.00044027	0.00034489	0.00031508	589.51	1.2381e-05	1.0521e-05	644.71	147.45	1.6394e-05	2.4833e-06	156.99	46.688	40.253	16.753	5.656e-06	15.257	0.0012056	0.0013385	0.00037943	537.47	1.4334e-05	1.5194e-05	582.96	135.38	1.4682e-05	1.5123e-05	147.03	43.587	38.023	15.805	1.4575e-05	14.641	351.444	320.557	153.820	152.809	281.055	377.718	150.378	158.396	252.328	171.711	154.312	158.735	161.882	166.114	341.399	161.586	-8191	255	
2016.346	1	1	0	0	0.32991	0.073234	0.11452	0.004249	0.16448	0.082395	0.29777	0.21133	0.2701	0.070846	0.1446	0.40676	0.1331	0.30876	0.27664	0.27051	-1.2313	-1.4979	-2.0333	-1.3687	-1.7437	-2.0729	-1.4729	-2.1229	-1.6854	-1.4625	-2.1458	-1.4271	-1.8396	-1.9792	-1.4083	-1.9	143.856	305.927	264.731	144.415	237.899	288.652	469.132	173.901	206.548	348.724	485.910	468.165	418.795	475.158	289.375	164.182	0.00042691	0.0010666	0.00011732	591.26	4.0092e-06	5.3348e-06	645.51	148.23	1.1507e-05	6.1147e-06	157.56	46.653	40.013	16.971	4.3887e-06	15.249	0.0011972	0.0013566	0.00038545	538.01	1.4489e-05	1.4936e-05	583.03	135.15	1.4467e-05	1.5215e-05	147.35	43.41	38.065	15.994	1.5109e-05	14.697	368.149	215.722	195.853	152.822	320.360	410.766	150.098	158.217	282.769	253.508	155.174	159.335	161.299	166.588	243.216	161.878	-8191	255	
2016.466	1	1	0	0	0.23285	0.17553	0.27242	0.1467	0.032675	0.37313	0.18541	0.35611	0.33926	0.31409	0.083688	0.1786	0.13598	0.078537	0.14101	0.13618	-1.3958	-1.2875	-2.1229	-1.7125	-1.5312	-2.2438	-1.4958	-2.0292	-1.8896	-1.2479	-2.2313	-1.6896	-1.625	-2.0812	-1.4688	-2.0125	362.003	488.141	477.273	472.924	296.445	357.129	448.401	444.523	473.812	261.512	418.763	245.868	412.824	174.971	421.445	224.460	0.00065938	0.00091904	0.0002022	588.2	1.878e-05	5.0605e-06	652.42	148.85	9.8971e-06	1.2968e-06	156.77	47.089	39.735	17.131	8.1158e-06	15.304	0.0011932	0.0013625	0.00037883	535.55	1.4586e-05	1.5085e-05	584.81	135.75	1.4365e-05	1.5106e-05	147.95	43.948	37.979	16.109	1.473e-05	14.771	384.565	256.812	188.902	152.870	142.553	154.738	150.099	158.395	362.102	191.020	154.504	158.783	161.760	166.070	305.502	161.141	-8191	255	
2016.562	1	1	0	0	0.076291	0.077494	0.13229	0.14985	0.15273	0.17602	0.14451	0.21447	0.1058	0.071741	0.14936	0.087866	0.21863	0.36614	0.096033	0.1391	-1.4937	-1.4	-1.975	-1.6792	-1.4688	-2.1792	-1.4958	-1.8813	-1.9	-1.3188	-2.1562	-1.7854	-1.5854	-2.2938	-1.4833	-1.9188	262.433	247.376	290.451	441.085	196.603	145.642	481.021	363.496	160.445	402.378	488.493	473.455	321.056	153.468	479.212	390.053	0.00059901	0.00080309	0.0001148	588.35	6.0234e-06	8.3599e-06	647.02	146.86	5.9033e-06	6.7449e-06	156.73	46.442	39.437	16.919	1.1253e-05	15.117	0.0011982	0.0013708	0.00038328	534.22	1.4351e-05	1.5115e-05	580.38	134.45	1.437e-05	1.4761e-05	145.96	43.019	37.562	15.916	1.45e-05	14.534	393.263	276.771	360.415	152.751	175.378	202.554	150.231	158.663	342.326	247.266	155.102	159.227	161.971	166.405	291.529	162.048	-8191	255	
2016.657	1	1	0	0	0.20521	0.17835	0.01735	0.21984	0.029212	0.11679	0.2574	0.15048	0.021221	0.12737	0.15266	0.092771	0.1197	0.060464	0.22373	0.057845	-1.6375	-1.4125	-2.1917	-1.7479	-1.5229	-2.2771	-1.4354	-1.6229	-2.1167	-1.3708	-2.0333	-1.7958	-1.4125	-2.125	-1.3104	-1.5938	268.070	416.559	165.085	498.160	388.188	266.633	473.370	462.319	495.070	498.625	268.272	250.996	471.498	322.014	163.020	212.598	0.00034927	0.0010816	7.378e-05	584.48	9.1336e-06	2.4354e-06	638.88	145.6	2.2056e-05	7.8533e-06	153.9	46.22	39.547	16.708	3.3456e-06	14.789	0.0011747	0.0013626	0.00037686	531.55	1.4437e-05	1.4705e-05	576.76	134.14	1.384e-05	1.4786e-05	145.13	42.954	37.655	15.838	1.4442e-05	14.497	360.547	260.706	433.162	152.828	177.217	278.587	150.439	158.368	391.047	486.510	155.144	158.929	162.251	166.481	261.419	161.734	-8191	255	
2016.755	1	1	0	0	0.08233	0.17302	0.039538	0.065938	0.2774	0.13373	0.17942	0.24874	0.32214	0.11935	0.079205	0.15039	0.33562	0.10857	0.11675	0.25863	-1.7167	-1.3813	-1.9458	-1.9021	-1.1812	-2.2167	-1.6229	-1.6354	-2.0563	-1.3104	-2.0563	-1.9	-1.2188	-1.9979	-1.5458	-1.5521	428.086	405.888	320.466	333.397	433.618	433.315	417.207	461.247	423.413	401.419	380.331	142.963	190.035	451.575	285.069	407.294	0.00053449	0.0011011	9.2674e-05	585.7	1.2967e-05	6.7133e-06	640.68	146.19	2.1464e-05	9.2652e-07	155.46	45.602	39.131	16.702	8.8524e-06	15.055	0.0011817	0.0013568	0.00037144	532.39	1.4552e-05	1.479e-05	577.71	133.59	1.4023e-05	1.4711e-05	146.25	43.147	37.474	15.936	1.4446e-05	14.556	376.371	252.475	488.076	152.543	325.343	267.258	150.220	158.785	329.579	253.080	154.451	158.585	162.975	166.570	392.475	161.092	-8191	255	
2016.849	1	1	0	0	0.23668	0.15626	0.11971	0.097815	0.01053	0.143	0.1692	0.20229	0.2823	0.24164	0.30768	0.10664	0.32587	0.17414	0.050307	0.17713	-1.7292	-1.3813	-1.7229	-2.0271	-1.2896	-2.1583	-1.5917	-1.5083	-1.9417	-1.2563	-1.9479	-2.0875	-1.3146	-1.9167	-1.7604	-1.6625	238.330	247.721	354.186	270.979	175.395	408.630	408.088	145.494	155.410	183.860	500.142	180.022	484.311	141.596	249.937	469.237	0.00062606	0.00087168	0.00017134	586.04	2.051e-06	2.4678e-06	639.56	147.06	1.302e-05	3.9165e-06	158.33	45.841	39.162	16.889	8.3213e-06	15.219	0.0011807	0.0013691	0.00037323	535.35	1.4422e-05	1.5017e-05	581.73	134.61	1.4234e-05	1.4709e-05	147.39	43.152	37.777	15.934	1.4477e-05	14.685	382.444	274.344	267.323	153.005	327.755	169.072	149.871	158.666	313.448	272.979	155.074	159.278	161.983	166.068	193.305	161.567	-8191	255	
2016.945	1	1	0	0	0.088977	0.11921	0.20453	0.19	0.1352	0.13997	0.10992	0.26941	0.066145	0.024759	0.15448	0.049971	0.23316	0.13057	0.25764	0.34325	-1.6333	-1.4146	-1.5562	-2.0104	-1.2542	-2.0583	-1.7229	-1.3583	-2.2562	-1.5083	-1.8979	-2.0187	-1.3167	-1.9688	-1.8479	-1.3333	200.966	270.545	254.368	146.085	165.762	406.208	467.117	370.894	398.503	373.937	459.026	485.695	484.448	443.506	370.316	411.253	0.00049939	0.00033777	0.00022544	590.49	7.0483e-06	3.7711e-06	639.64	143.86	8.3808e-06	4.9864e-06	154.39	45.914	38.588	16.376	1.4442e-05	14.956	0.0012309	0.0013525	0.00037875	536.32	1.4382e-05	1.4938e-05	578.86	133.82	1.463e-05	1.4753e-05	145.75	42.891	37.429	15.667	1.4386e-05	14.423	391.289	188.022	432.264	152.797	234.190	300.091	150.435	158.995	321.870	272.820	154.500	158.852	162.365	166.529	264.886	161.419	-8191	255	
2017.066	1	1	0	0	0.10418	0.072204	0.17093	0.21579	0.26543	0.22018	0.36208	0.28354	0.11819	0.30533	0.22209	0.42627	0.20053	0.21424	0.16808	0.2955	-1.7146	-1.5271	-1.3229	-2.2354	-1.3854	-1.8229	-2.0375	-1.3979	-2.0646	-1.6396	-1.5604	-2.0187	-1.3208	-1.75	-2.0292	-1.3667	448.369	480.039	427.909	412.989	403.822	297.732	362.145	456.331	343.719	161.107	164.483	164.227	423.847	385.942	320.551	406.006	0.00041152	1.315e-05	0.00014493	581.37	1.0681e-05	2.372e-06	630.47	146.06	1.6038e-05	9.5223e-06	154.88	45.629	38.295	16.433	1.3601e-05	14.678	0.0012177	0.0013364	0.00036988	532.97	1.4691e-05	1.4752e-05	574.27	133.67	1.4494e-05	1.4767e-05	145.45	42.693	37.112	15.629	1.4491e-05	14.346	379.717	478.653	259.494	152.654	303.227	490.828	149.946	158.241	304.361	281.890	155.031	159.581	162.271	166.498	405.412	161.208	-8191	255	
2017.162	1	1	0	0	0.041392	0.15725	0.1127	0.30151	0.066603	0.045477	0.1113	0.29956	0.16064	0.25702	0.1223	0.21516	0.02689	0.27323	0.051464	0.22868	-1.4542	-1.6812	-1.4042	-2.2938	-1.5187	-1.8354	-2.0938	-1.2188	-2.0396	-1.8729	-1.3687	-2.2479	-1.5833	-1.625	-1.9854	-1.3188	271.261	498.986	429.120	149.195	270.394	404.306	312.732	221.516	160.083	215.421	428.239	358.155	394.226	214.934	306.798	431.397	0.00059307	0.00046292	0.00027181	581.1	3.6941e-06	5.008e-06	634.93	145.22	1.6403e-05	1.558e-06	155.35	45.636	38.334	16.833	1.8531e-05	15.145	0.0011878	0.0013397	0.0003723	529.89	1.4539e-05	1.5015e-05	575.38	133.73	1.4075e-05	1.4461e-05	145.64	42.75	37.407	15.889	1.4653e-05	14.581	397.851	454.627	197.095	152.725	161.845	265.399	150.355	158.105	188.751	192.886	154.856	159.226	162.263	166.198	260.079	161.930	-8191	255	
2017.258	1	1	0	0	0.13479	0.13291	0.34674	0.17053	0.12175	0.27249	0.14201	0.021982	0.13807	0.20963	0.20104	0.13685	0.029796	0.066447	0.12415	0.22313	-1.5729	-1.7625	-1.2812	-2.1542	-1.5187	-1.5792	-2.1312	-1.4	-1.9625	-1.7479	-1.3583	-2.1937	-1.525	-1.525	-2.15	-1.275	384.571	297.510	348.270	381.223	422.894	284.750	419.754	159.309	406.481	497.216	491.186	450.019	314.987	404.375	266.867	192.856	0.00034907	0.00035539	0.00016898	584.4	1.8137e-06	1.0283e-05	639.39	146.06	1.4671e-05	2.4836e-06	157.03	45.806	39.329	16.852	3.0186e-06	15.197	0.0011885	0.0013041	0.00037514	533.09	1.4433e-05	1.4707e-05	580.17	133.93	1.4378e-05	1.495e-05	146.91	43.116	37.589	15.889	1.4678e-05	14.598	352.090	342.460	189.352	152.827	447.177	386.837	150.750	158.141	348.831	476.970	154.638	159.107	162.550	166.670	412.090	162.777	-8191	255	
2017.354	1	1	0	0	0.30792	0.23399	0.080256	0.089219	0.079486	0.23969	0.18985	0.22033	0.13646	0.19871	0.19272	0.26008	0.12958	0.22315	0.16993	0.17283	-1.5333	-1.9521	-1.4188	-1.9854	-1.5458	-1.4958	-2.2125	-1.6	-1.8312	-1.9958	-1.4271	-2.0646	-1.5354	-1.3667	-2.0938	-1.3458	441.782	401.059	201.414	231.658	390.393	145.536	480.053	171.992	437.474	298.294	492.268	434.392	384.485	327.237	345.692	185.066	0.00059979	0.00091091	0.00027985	585.54	1.4745e-05	1.2348e-06	642.79	146.55	9.0608e-06	4.4615e-06	154.91	46.378	38.661	16.637	8.4679e-06	14.636	0.0011895	0.0013268	0.00037395	534.51	1.4402e-05	1.487e-05	580.34	134.47	1.4345e-05	1.4586e-05	145.76	43.047	37.404	15.789	1.467e-05	14.443	386.478	232.525	253.938	152.752	302.587	353.857	150.644	158.241	256.571	289.850	155.003	158.684	161.819	166.614	195.641	161.599	-8191	255	
2017.475	1	1	0	0	0.30333	0.071657	0.12729	0.22695	0.11861	0.17908	0.15264	0.19676	0.34145	0.23398	0.2253	0.13546	0.19588	0.12303	0.085988	0.27095	-1.2646	-1.9604	-1.1771	-1.9125	-1.7979	-1.4042	-2.1979	-1.4813	-1.7437	-1.9833	-1.4771	-2.1958	-1.7375	-1.5729	-2.1667	-1.5146	245.302	319.905	367.702	413.466	444.966	481.659	457.072	238.937	247.076	296.805	403.224	370.998	345.276	485.621	382.182	155.795	0.00052001	0.00073766	0.00012099	577.58	3.1907e-06	1.5398e-06	636.59	145.72	1.2214e-05	4.7937e-06	156.13	46.232	39.705	16.97	4.9241e-06	14.752	0.0011913	0.0013617	0.00037819	531.36	1.4453e-05	1.5074e-05	577.26	133.7	1.4327e-05	1.4714e-05	146.03	42.963	37.658	15.888	1.4591e-05	14.452	375.247	169.103	185.929	153.200	224.429	244.918	150.193	158.637	229.854	294.150	154.096	158.526	161.033	166.277	341.807	161.915	-8191	255	
2017.547	1	1	0	0	0.25485	0.10677	0.31791	0.10315	0.043343	0.22856	0.16321	0.11603	0.26298	0.088863	0.01587	0.031312	0.16958	0.10228	0.2275	0.02441	-1.2188	-2.1646	-1.4042	-1.9625	-1.6958	-1.4104	-2.0604	-1.6042	-1.5063	-1.9583	-1.3375	-1.7646	-1.9208	-1.1313	-2.0687	-1.6104	465.959	394.912	184.229	285.652	491.997	306.101	410.104	407.019	215.989	195.349	489.162	301.605	384.229	349.306	301.857	259.336	0.00052657	0.00096979	8.0165e-05	585.8	4.072e-06	8.5261e-06	636.14	147.93	9.8848e-06	6.1493e-06	155.49	46.371	39.552	17.021	2.0889e-06	15.235	0.0012083	0.0013635	0.00038441	532.47	1.4574e-05	1.5372e-05	576.09	134.53	1.4527e-05	1.4976e-05	146.04	43.112	37.69	15.906	1.5065e-05	14.621	400.107	237.884	342.400	152.413	282.864	216.403	150.319	158.249	181.442	489.374	154.871	158.472	161.555	166.056	279.877	161.676	-8191	255	
2017.643	1	1	0	0	0.19215	0.10766	0.15839	0.13925	0.084951	0.10576	0.26541	0.13321	0.1248	0.095311	0.084283	0.020774	0.14859	0.18179	0.23648	0.06806	-1.15	-2.1104	-1.3771	-1.9271	-2.0521	-1.3521	-1.9208	-1.7042	-1.3896	-2.0396	-1.4188	-1.8229	-2.0542	-1.325	-1.8104	-1.8125	298.380	422.759	224.195	432.143	490.130	305.417	308.560	452.021	266.887	275.846	301.204	168.414	177.941	381.879	289.492	470.522	0.00070845	0.0002309	9.7569e-05	589.93	8.8577e-06	8.8346e-06	640.99	144.57	6.3888e-06	2.439e-06	157.16	46.095	39.905	16.604	1.0999e-05	15.263	0.0012015	0.0013891	0.00036924	533.31	1.4528e-05	1.5122e-05	579.62	133.91	1.441e-05	1.4771e-05	147.18	43.18	37.881	15.852	1.4412e-05	14.678	348.077	494.150	378.192	152.812	208.568	186.044	150.366	158.268	186.153	414.057	153.392	158.510	161.100	166.276	280.671	161.808	-8191	255	
2017.739	1	1	0	0	0.14694	0.11094	0.21256	0.12987	0.2562	0.32978	0.19248	0.1649	0.33066	0.234	0.11214	0.3724	0.11399	0.16151	0.078227	0.17071	-1.0042	-2.0667	-1.6646	-1.575	-2.0563	-1.2563	-2.125	-1.8042	-1.2479	-1.9167	-1.5562	-1.5792	-1.9708	-1.4104	-2.0187	-1.8687	235.055	463.405	381.451	322.719	404.963	156.239	144.371	476.968	298.400	466.415	270.996	142.903	481.869	475.829	226.428	455.237	0.0003662	0.00025102	0.0001279	594.7	1.5696e-05	6.6955e-06	647.03	147.49	1.78e-05	4.0684e-06	158.37	46.753	39.491	16.873	9.138e-06	14.961	0.0012046	0.0013471	0.00037931	535.59	1.4599e-05	1.5189e-05	582.05	134.8	1.4368e-05	1.5048e-05	147.02	43.215	37.537	15.948	1.4444e-05	14.524	384.774	216.183	228.848	152.657	273.185	299.981	150.058	157.935	311.184	306.979	154.513	158.738	161.160	166.789	186.847	161.073	-8191	255	
2017.858	1	1	0	0	0.25856	0.16169	0.34775	0.1385	0.083668	0.28844	0.088268	0.23894	0.32828	0.099774	0.26467	0.1943	0.16354	0.18109	0.23865	0.24988	-1.0417	-2.125	-1.5125	-1.475	-2.0458	-1.3375	-2.0167	-2.0729	-1.2896	-2.1354	-1.8083	-1.3687	-2.1229	-1.4917	-1.8542	-1.8854	376.391	201.753	207.326	145.288	351.106	244.263	328.956	412.999	278.800	356.781	435.230	484.127	279.424	325.764	326.115	442.427	0.00054465	0.0006896	3.8433e-05	586.46	1.2314e-05	4.338e-06	646.16	147.9	1.8215e-05	6.4081e-06	155.12	46.023	39.337	16.619	1.0337e-05	14.961	0.0012179	0.0013424	0.00037758	533.89	1.4726e-05	1.5274e-05	577.3	134.26	1.4642e-05	1.5362e-05	145.09	42.747	37.495	15.8	1.448e-05	14.428	375.642	289.554	349.846	153.034	180.654	240.743	150.019	158.328	296.888	342.607	154.492	159.059	161.327	166.390	279.728	161.743	-8191	255	
2017.954	1	1	0	0	0.15252	0.045058	0.052303	0.20171	0.020875	0.127	0.057362	0.16538	0.13316	0.037106	0.077067	0.17135	0.16946	0.17227	0.093339	0.15838	-0.88958	-1.9292	-1.7125	-1.4729	-2.1146	-1.4896	-1.7604	-1.7313	-1.2458	-1.9292	-1.7625	-1.4958	-2.1958	-1.5562	-1.6292	-1.9521	321.468	412.409	352.843	176.857	358.907	143.648	347.838	175.318	164.660	431.611	468.687	260.848	156.016	340.549	265.330	470.701	0.00038589	0.00052498	0.00023924	592.29	7.7852e-06	5.9401e-06	638.52	146.58	7.6735e-06	7.0832e-06	156.7	45.359	38.594	16.528	7.7623e-06	14.828	0.0012174	0.0013648	0.00037582	531.04	1.4702e-05	1.4922e-05	574.24	134.45	1.4238e-05	1.5299e-05	145.58	42.534	37.437	15.784	1.4337e-05	14.511	369.793	431.541	368.220	152.460	180.091	312.116	150.132	158.030	262.163	220.051	154.155	158.955	162.242	167.117	152.714	161.483	-8191	255	
2018.050	1	1	0	0	0.17028	0.14367	0.17808	0.149	0.17378	0.093624	0.14695	0.11232	0.086685	0.29248	0.1714	0.097564	0.23973	0.090618	0.080484	0.039926	-0.9	-1.8333	-1.7125	-1.6042	-2.1292	-1.7354	-1.6229	-2.0271	-1.3563	-2.0062	-2.0938	-1.4396	-2.0438	-1.5979	-1.5146	-2.1396	466.109	340.235	405.322	245.763	264.462	254.720	467.725	162.537	244.061	435.237	260.645	358.184	140.465	218.338	418.113	487.255	0.00050866	0.00082278	4.8531e-05	574.52	1.2623e-05	3.4873e-06	629.48	147.61	3.0027e-06	1.0275e-05	158.19	45.708	39.622	16.577	9.9438e-06	14.925	0.0011993	0.0014003	0.00037769	529.11	1.4686e-05	1.4841e-05	573.19	134.63	1.4298e-05	1.5177e-05	146.66	42.896	37.741	15.799	1.4695e-05	14.622	400.678	463.649	272.748	153.162	370.816	249.902	150.283	157.838	496.267	393.387	154.341	159.010	162.702	165.731	294.777	161.778	-8191	255	
2018.146	1	1	0	0	0.1861	0.216	0.04285	0.18829	0.087049	0.35526	0.2339	0.061272	0.087951	0.24723	0.21035	0.2727	0.06184	0.20173	0.16266	0.1083	-0.89583	-1.5708	-1.8021	-1.2854	-2.0375	-1.5562	-1.3417	-2.1771	-1.3792	-1.6917	-2.0771	-1.3354	-2.0125	-1.8396	-1.4229	-2.1979	356.080	353.183	319.100	186.062	313.104	396.291	395.513	367.033	151.430	159.135	450.140	209.058	299.532	458.563	189.794	452.223	0.00053444	0.00040443	0.00010771	580.69	8.8676e-06	1.4539e-05	633.14	146.66	1.1423e-05	5.1716e-06	157.31	45.912	38.642	16.636	3.7882e-06	14.915	0.0012084	0.0013736	0.00037843	528.98	1.4474e-05	1.4991e-05	573.26	134.79	1.4602e-05	1.4983e-05	146.02	42.709	37.35	15.824	1.4273e-05	14.461	388.405	211.787	377.269	152.601	302.370	260.718	150.703	158.288	373.515	245.911	154.601	158.541	161.976	166.313	457.870	161.366	-8191	255	
2018.242	1	1	0	0	0.11933	0.29767	0.12572	0.10822	0.13253	0.1536	0.30237	0.054767	0.23169	0.20786	0.09297	0.10769	0.081942	0.15652	0.040886	0.15744	-0.98542	-1.4937	-1.9271	-1.3521	-2.0875	-2.0083	-1.3896	-2.125	-1.5833	-1.6833	-2.025	-1.3771	-2	-1.7708	-1.3792	-2.225	341.412	197.335	353.095	153.599	403.259	336.042	190.624	307.666	359.389	258.556	383.689	376.604	462.632	235.374	300.093	141.184	0.00025603	0.00058197	0.00015315	573.69	1.2218e-05	4.1675e-06	628.04	143.03	2.0214e-05	2.9696e-06	154.28	45.745	38.392	16.552	9.5352e-06	14.78	0.001194	0.0013651	0.00037216	526.22	1.4662e-05	1.5119e-05	570.99	133.26	1.4498e-05	1.4801e-05	144.3	42.401	37.323	15.71	1.4555e-05	14.388	380.070	490.636	449.872	153.247	487.830	364.318	150.224	158.563	212.927	397.909	155.078	159.751	162.179	166.666	296.049	161.205	-8191	255	
2018.339	1	1	0	0	0.017777	0.11855	0.033986	0.28992	0.32357	0.40728	0.13649	0.18485	0.1616	0.17657	0.14484	0.049981	0.19029	0.0602	0.0069476	0.19436	-1.1229	-1.5542	-2.0521	-1.3854	-1.9083	-1.8021	-1.3771	-2.1188	-1.7313	-1.6083	-2.2104	-1.3771	-1.7708	-1.8917	-1.3813	-2.1104	350.826	411.079	296.174	499.946	235.163	455.223	201.380	149.639	331.849	296.871	493.579	269.727	246.177	434.230	431.493	154.772	0.00054225	0.00066443	6.9338e-05	572.3	7.9755e-06	3.2559e-06	621.8	144.77	1.7748e-05	1.0785e-05	153.9	45.46	38.757	16.318	7.1523e-06	14.877	0.0011961	0.0013614	0.00037568	526.18	1.447e-05	1.47e-05	569.59	134.13	1.4559e-05	1.4874e-05	144.41	42.318	37.342	15.659	1.4593e-05	14.491	414.563	238.153	318.813	153.600	280.306	459.432	150.545	158.480	206.356	329.082	155.013	158.748	162.548	166.680	267.408	161.312	-8191	255	
2018.435	1	1	0	0	0.17411	0.014752	0.070236	0.038068	0.094195	0.020206	0.071556	0.084569	0.29942	0.084392	0.14669	0.36098	0.025992	0.44258	0.22255	0.36699	-1.2125	-1.4417	-2.0083	-1.3937	-1.7771	-2.1021	-1.5792	-2.0354	-1.7104	-1.3438	-2.2375	-1.5	-1.7875	-2.0479	-1.3062	-2.1646	257.219	270.923	406.787	362.347	493.682	412.314	446.515	471.254	445.985	242.234	424.831	176.258	323.742	480.683	206.312	346.663	0.0003587	0.00069149	0.00018624	575.63	1.2284e-05	6.1298e-06	628.49	144.83	9.5537e-06	2.097e-06	154.78	45.556	38.995	16.719	1.0443e-05	14.971	0.0011854	0.0013375	0.00037074	527.55	1.4426e-05	1.4962e-05	570.14	133.96	1.422e-05	1.5269e-05	145.29	42.645	37.537	15.886	1.4618e-05	14.547	399.304	369.045	232.393	153.163	206.270	282.514	150.611	158.963	293.517	333.626	154.436	158.935	161.752	166.234	491.330	161.290	-8191	255	
2018.555	1	1	0	0	0.1437	0.11202	0.24739	0.15049	0.2009	0.24548	0.039049	0.22527	0.1111	0.32882	0.099867	0.17916	0.13479	0.084699	0.037055	0.17753	-1.3937	-1.3271	-2.2292	-1.3792	-1.5708	-2.1188	-1.5438	-1.9854	-1.9292	-1.3438	-2.0021	-1.6437	-1.6792	-1.9896	-1.4813	-1.9792	456.490	266.128	352.729	341.445	211.968	148.441	304.595	420.862	349.357	168.431	436.820	448.111	187.010	166.982	161.065	424.159	0.00050303	0.00075384	0.0001391	582.06	2.821e-06	1.0976e-05	634.62	145.38	8.7353e-06	1.9603e-06	155.79	45.344	38.765	16.774	1.3761e-05	14.722	0.0011958	0.0013601	0.00037821	528.62	1.461e-05	1.5028e-05	573.71	134.19	1.4526e-05	1.4679e-05	145.67	42.622	37.408	15.906	1.4739e-05	14.469	366.915	339.472	313.043	152.751	167.904	226.778	150.483	158.743	276.097	164.627	154.322	159.066	162.553	166.975	312.767	162.003	-8191	255	
2018.650	1	1	0	0	0.16854	0.11744	0.13855	0.079023	0.13475	0.29669	0.25948	0.20381	0.16222	0.10846	0.24733	0.35245	0.1435	0.30339	0.21804	0.13112	-1.6854	-1.2938	-2.0542	-1.7458	-1.5125	-2.0958	-1.2938	-1.8687	-1.8792	-1.1292	-1.9479	-1.6729	-1.425	-2.1208	-1.425	-1.7771	318.468	396.863	151.023	152.089	436.615	315.481	338.267	388.659	257.861	252.429	479.640	146.252	432.464	478.636	330.845	252.150	0.00047929	0.00030086	8.4038e-06	571.9	1.0121e-05	1.1623e-05	626.54	145.82	1.2672e-05	6.5324e-06	154.03	44.623	38.634	16.682	5.6205e-06	14.831	0.0012153	0.0013801	0.00037566	524.31	1.4398e-05	1.5173e-05	568.12	134.06	1.4402e-05	1.5087e-05	144.23	42.187	37.306	15.729	1.4915e-05	14.458	411.105	397.225	193.156	152.859	297.864	315.076	150.670	158.671	159.576	286.272	154.347	158.796	162.383	166.823	267.183	162.411	-8191	255	
2018.748	1	1	0	0	0.15215	0.20612	0.24189	0.057861	0.19076	0.17046	0.11036	0.34023	0.14152	0.08471	0.048286	0.087075	0.34043	0.21702	0.44215	0.23261	-1.6625	-1.2354	-1.8104	-1.6896	-1.4333	-2.0771	-1.6333	-1.7938	-2.1375	-1.3729	-2.0771	-1.7188	-1.3417	-2.0042	-1.4333	-1.65	427.660	441.516	440.570	485.856	274.346	150.429	329.557	454.791	392.431	154.530	441.535	218.263	460.668	409.090	368.643	356.150	0.00031278	0.00080959	0.00023762	579.83	1.6495e-06	2.446e-06	624.02	145.37	7.7451e-06	1.0203e-05	154.74	44.805	38.572	16.309	3.0789e-06	14.902	0.0012009	0.001372	0.00037987	527.01	1.4678e-05	1.4894e-05	567.25	134.01	1.4308e-05	1.5055e-05	144.94	42.356	37.149	15.71	1.4542e-05	14.515	355.679	455.113	165.597	152.698	337.969	422.542	149.991	158.589	488.901	493.126	154.477	158.696	162.808	166.725	337.392	161.254	-8191	255	
2018.842	1	1	0	0	0.058709	0.32189	0.28929	0.071058	0.20217	0.11071	0.1024	0.42154	0.060229	0.39845	0.0034974	0.10891	0.062505	0.29056	0.15759	0.1054	-1.4208	-1.1479	-1.7479	-1.7292	-1.2917	-1.9729	-1.6292	-1.4271	-2.125	-1.2896	-1.9292	-2.0167	-1.3542	-1.9417	-1.5417	-1.5771	481.012	358.446	383.783	494.695	298.195	431.034	275.946	494.327	254.700	220.360	357.338	231.874	170.760	194.753	483.963	371.711	0.00069939	0.00034866	0.00013504	570.67	4.3931e-06	3.9475e-06	624.55	146.76	1.7563e-05	3.496e-06	153.39	44.897	38.618	16.76	5.3195e-06	15.328	0.0011964	0.00135	0.0003793	524.97	1.4731e-05	1.5294e-05	569.8	134.41	1.444e-05	1.4844e-05	144.59	42.653	37.538	15.877	1.4643e-05	14.687	386.924	280.728	478.138	153.348	457.521	267.400	150.361	157.716	396.227	356.505	155.290	159.125	162.531	166.379	393.109	161.336	-8191	255	
2018.938	1	1	0	0	0.099768	0.10742	0.14182	0.11435	0.18178	0.16657	0.11541	0.24349	0.099046	0.26059	0.20771	0.28682	0.16296	0.23012	0.19883	0.025636	-1.7625	-1.4479	-1.7896	-1.8854	-1.1021	-2.1667	-1.7708	-1.6146	-2.3063	-1.3417	-1.6729	-2.0333	-1.4937	-2.025	-1.5187	-1.3479	271.314	274.908	326.862	457.054	425.171	429.740	442.940	442.695	198.969	298.489	385.623	426.431	420.995	480.725	390.841	361.585	0.00038118	4.1297e-05	5.8401e-05	577.19	3.1392e-06	5.0283e-06	638.48	144.17	2.9345e-06	4.0058e-06	153.83	45.77	39.133	16.845	7.6646e-06	15.093	0.0011925	0.0013513	0.00037237	527.77	1.4787e-05	1.5122e-05	574.74	134.08	1.4043e-05	1.502e-05	145.45	42.801	37.694	15.949	1.4679e-05	14.656	366.980	324.081	415.421	152.666	391.476	254.007	150.600	158.815	457.006	384.826	155.054	158.551	162.657	166.756	288.301	161.642	-8191	255	
2019.034	1	1	0	0	0.11798	0.10816	0.13268	0.12513	0.21872	0.11596	0.1837	0.18301	0.10962	0.13684	0.34169	0.15633	0.23288	0.22838	0.12845	0.22486	-1.6958	-1.3417	-1.5854	-2.05	-1.2083	-2.0333	-1.6646	-1.3021	-2.0938	-1.4562	-1.5708	-2.0729	-1.3042	-1.8771	-2.0042	-1.2625	477.833	482.589	479.009	144.312	486.361	477.426	412.372	481.476	497.867	419.972	407.772	325.809	159.426	406.925	345.352	186.156	0.00047536	0.0006201	8.8788e-05	582.19	7.9656e-06	9.1437e-06	629.03	146.17	1.2361e-05	3.9607e-06	154.12	45.582	39.18	16.484	1.2881e-05	14.664	0.0011933	0.0013537	0.00038268	529.42	1.4696e-05	1.506e-05	570.19	134.41	1.4562e-05	1.4906e-05	144.72	42.611	37.299	15.79	1.4509e-05	14.34	390.387	160.686	316.016	152.628	289.527	364.462	150.101	158.530	157.866	251.555	155.167	159.217	162.567	165.998	292.235	162.047	-8191	255	
2019.155	1	1	0	0	0.16357	0.076052	0.12989	0.23735	0.19289	0.093325	0.16796	0.022587	0.064648	0.021933	0.29938	0.05032	0.18694	0.18725	0.46347	0.15943	-1.8062	-1.4688	-1.6042	-2.1208	-1.3375	-1.85	-1.9813	-1.3042	-2.1583	-1.6688	-1.4167	-2.2562	-1.45	-2.0521	-2.0521	-1.1292	376.248	321.110	274.369	470.489	170.457	324.331	457.814	171.196	422.453	238.755	147.992	358.342	338.441	422.996	141.422	377.112	0.00036125	0.00058526	6.1135e-05	574.89	1.2877e-05	1.2905e-06	637.89	146.67	1.5799e-05	3.0274e-06	152.96	45.461	38.686	16.541	7.1942e-06	15.208	0.0011949	0.0013626	0.00038132	525.43	1.4387e-05	1.4991e-05	572.11	134.41	1.4468e-05	1.5158e-05	144.5	42.535	37.389	15.823	1.4807e-05	14.726	366.086	266.821	454.398	152.818	209.410	314.898	150.044	158.148	336.230	436.137	154.376	159.128	161.476	167.056	216.867	162.331	-8191	255	
2019.251	1	1	0	0	0.054197	0.22373	0.22459	0.088629	0.22445	0.20297	0.12867	0.095592	0.036585	0.26912	0.21328	0.30233	0.095458	0.2006	0.047353	0.081766	-1.4521	-1.6917	-1.375	-1.9896	-1.4583	-1.7604	-2.1562	-1.3854	-2.0625	-1.6542	-1.3396	-2.3125	-1.6417	-1.6896	-2.1521	-1.3125	147.679	387.288	334.873	200.709	352.096	490.714	364.613	325.664	415.468	200.342	485.126	455.132	226.458	343.575	235.002	274.691	0.00063122	0.00029571	0.00015408	570.44	3.6282e-06	5.4908e-06	631.37	145.13	7.7167e-06	2.8161e-06	153.84	45.561	38.416	16.627	6.8147e-06	15.022	0.001206	0.001365	0.00038331	525.01	1.4418e-05	1.4987e-05	573.08	134.19	1.4487e-05	1.4958e-05	144.93	42.708	37.384	15.89	1.4695e-05	14.655	368.217	338.801	221.330	153.567	328.830	375.649	150.044	158.092	199.223	274.080	155.209	159.168	162.381	166.853	379.821	162.149	-8191	255	
2019.347	1	1	0	0	0.20194	0.21279	0.42262	0.42078	0.23193	0.17431	0.14267	0.091359	0.096873	0.11086	0.27228	0.18047	0.093796	0.078034	0.062315	0.23093	-1.5854	-1.9646	-1.4167	-2.2125	-1.4625	-1.8396	-2.3271	-1.5812	-1.9062	-1.7667	-1.1083	-2.2917	-1.7042	-1.4688	-2.0208	-1.5	162.240	236.413	392.815	433.072	355.541	367.885	160.261	359.655	402.169	335.020	261.164	492.799	147.389	218.042	154.955	275.209	0.00055709	0.00070682	0.0001551	571.44	2.5736e-06	2.9595e-06	635.89	146.29	2.2051e-05	4.5668e-06	156.24	46.182	38.763	17.031	5.0042e-06	15.358	0.0011855	0.0013491	0.00038575	527.85	1.4361e-05	1.5132e-05	574.77	134.59	1.4169e-05	1.5055e-05	146.15	42.937	37.52	16.011	1.4591e-05	14.776	359.882	233.988	218.432	152.819	336.180	440.513	150.038	158.038	251.497	328.619	154.794	158.544	161.008	166.247	192.677	161.387	-8191	255	
2019.419	1	1	0	0	0.15525	0.21889	0.19395	0.21376	0.082779	0.11939	0.069448	0.15101	0.20522	0.36484	0.049372	0.083362	0.27926	0.26115	0.11662	0.27544	-1.3667	-2.0854	-1.3104	-2.1896	-1.5542	-1.5521	-2.3771	-1.3583	-1.7583	-1.9542	-1.2958	-2.0521	-1.6271	-1.6083	-2.3771	-1.4271	368.620	382.553	370.800	418.305	393.503	140.725	276.382	288.890	348.337	460.883	165.519	232.897	428.281	471.570	414.133	172.448	0.00051073	0.00050442	8.4084e-05	585.12	9.5095e-06	1.0576e-05	636.32	146.39	1.678e-05	9.422e-06	156.07	45.85	39.132	16.798	5.7517e-06	15.183	0.0012044	0.0013444	0.00038246	529.57	1.4626e-05	1.5147e-05	574.22	134.4	1.4463e-05	1.4969e-05	145.45	42.801	37.37	15.938	1.4589e-05	14.548	375.311	278.539	464.209	152.600	311.717	328.861	150.334	158.428	424.232	268.887	154.445	158.786	162.060	166.411	272.799	160.270	-8191	255	
2019.540	1	1	0	0	0.30227	0.059581	0.30341	0.17497	0.26761	0.18864	0.04278	0.18463	0.33948	0.23746	0.10143	0.097195	0.2734	0.09517	0.1355	0.079177	-1.2125	-2.0833	-1.4542	-2.1312	-1.7771	-1.525	-2.2333	-1.3937	-1.8104	-1.9062	-1.3687	-1.9813	-1.8917	-1.6146	-2.0646	-1.4542	249.190	309.031	424.020	468.128	430.217	332.573	359.496	444.434	152.242	169.285	222.462	247.619	140.583	371.179	266.198	433.976	0.00065317	0.0015061	0.0001978	585.68	6.8601e-06	2.9087e-06	645.01	146.27	1.26e-05	1.1195e-06	157.41	45.968	38.681	16.918	5.4714e-06	15.269	0.0011883	0.0013452	0.00038441	531.64	1.4524e-05	1.5517e-05	577.82	134.2	1.4998e-05	1.5285e-05	145.91	42.903	37.374	15.977	1.4926e-05	14.643	362.755	356.603	365.943	152.691	240.634	172.049	150.436	158.186	330.310	334.339	154.487	158.128	161.410	166.506	239.909	160.894	-8191	255	
2019.634	1	1	0	0	0.12337	0.20468	0.26956	0.25832	0.16849	0.34675	0.11269	0.095406	0.25763	0.17758	0.13351	0.26822	0.17411	0.086482	0.1137	0.29185	-1.2708	-2.0938	-1.05	-1.7917	-1.7229	-1.3271	-2.2729	-1.6417	-1.6063	-2.3479	-1.4688	-1.9396	-1.9083	-1.2792	-2.125	-1.5625	237.408	363.751	156.394	281.544	270.321	261.147	419.390	381.474	301.734	414.131	143.963	214.432	401.406	205.523	304.911	340.666	0.00083147	0.00056665	0.00010149	586.87	1.3781e-05	3.5747e-06	643.66	148.65	7.4946e-06	8.0573e-06	157.27	46.289	39.476	17.032	5.3977e-06	15.412	0.0012413	0.0013725	0.0003852	533.12	1.4509e-05	1.5449e-05	581.04	135.25	1.5087e-05	1.5292e-05	147.02	43.219	37.763	16.007	1.5033e-05	14.827	402.490	187.063	196.779	152.729	308.394	336.821	149.920	158.076	401.646	247.674	153.887	158.216	161.197	165.733	181.278	161.517	-8191	255	
2019.732	1	1	0	0	0.015848	0.087284	0.022826	0.1512	0.098641	0.092381	0.1137	0.15539	0.27254	0.26107	0.15764	0.25597	0.18005	0.11368	0.073556	0.26712	-0.86458	-2.0854	-1.3854	-1.9229	-1.9917	-1.2687	-2.2229	-1.6771	-1.4354	-2.2771	-1.3771	-1.5938	-2.0563	-1.3958	-2.025	-1.7479	217.626	223.520	494.013	499.732	143.418	229.178	283.294	376.474	494.332	148.351	460.939	161.129	434.214	392.752	441.129	450.439	0.00062718	0.00064995	0.00014629	592.65	5.8252e-06	3.4742e-06	649.58	148.43	4.6603e-06	4.6658e-06	158.42	46.771	39.538	17.196	8.5764e-06	15.366	0.0012584	0.0013896	0.00038587	537.95	1.5099e-05	1.5496e-05	584.3	135	1.4854e-05	1.5224e-05	148.09	43.57	37.782	16.133	1.494e-05	14.902	400.971	247.122	299.054	152.559	234.553	272.596	149.943	158.022	493.767	286.176	153.999	158.852	161.472	165.891	450.079	161.147	-8191	255	
2019.828	1	1	0	0	0.18762	0.10167	0.11064	0.21588	0.084345	0.24637	0.11443	0.074827	0.1921	0.25542	0.21143	0.1967	0.36255	0.078069	0.14337	0.058402	-1.0125	-1.925	-1.2896	-1.8687	-1.9562	-1.2708	-2.0833	-1.6896	-1.3521	-2.1021	-1.5354	-1.6396	-1.9479	-1.4937	-2.0396	-2.0396	403.202	291.223	306.435	476.573	455.246	324.802	255.897	170.828	220.451	431.171	224.832	195.676	379.294	209.295	207.954	202.016	0.00041401	0.00024766	0.00025938	588.54	5.5819e-06	1.9199e-06	640.2	148.41	1.9612e-05	6.4747e-06	156.91	46.552	38.695	16.866	4.5882e-06	15.215	0.0012497	0.0013658	0.00038408	534.45	1.4868e-05	1.5304e-05	581.79	135.57	1.4817e-05	1.5184e-05	147.01	43.273	37.456	15.981	1.4814e-05	14.759	392.758	154.932	239.314	152.990	374.213	189.516	150.828	158.430	179.146	396.237	154.630	158.185	162.786	166.102	263.623	162.354	-8191	255	
2019.947	1	1	0	0	0.22899	0.29091	0.023307	0.071119	0.074515	0.12684	0.13424	0.042861	0.14823	0.31036	0.1824	0.19365	0.16282	0.065949	0.051699	0.13824	-0.81875	-2.0792	-1.5542	-1.5958	-2.0771	-1.1437	-1.9646	-1.925	-1.3312	-2.0604	-1.5875	-1.3625	-2.1063	-1.5229	-1.7563	-2.1292	260.121	143.165	485.225	213.490	343.791	463.077	389.873	350.634	499.163	166.151	320.179	316.327	190.953	261.014	147.711	499.148	0.00033991	0.00042171	8.835e-05	581.58	1.3452e-05	7.2797e-06	642.31	146.01	7.1702e-06	1.8379e-06	158.97	46.597	38.928	16.93	5.5576e-06	15.081	0.0012388	0.0013818	0.0003922	533.48	1.4827e-05	1.5368e-05	579.77	134.65	1.4547e-05	1.5366e-05	147.73	43.348	37.499	16.057	1.499e-05	14.842	365.308	312.778	491.500	152.649	376.042	440.551	150.635	158.176	185.376	308.100	154.948	158.897	162.037	166.426	264.914	161.435	-8191	255	
2020.019	1	1	0	0	0.09282	0.23694	0.18041	0.15707	0.10667	0.25649	0.36205	0.10318	0.37486	0.042204	0.21882	0.14403	0.16805	0.19978	0.25766	0.19478	-1.0875	-2.1167	-1.6875	-1.3438	-2.0812	-1.6479	-1.7542	-2.0104	-1.3208	-1.9917	-1.6562	-1.1229	-2.0187	-1.3896	-1.8937	-2.0896	255.725	289.571	345.560	215.724	175.087	313.051	289.213	433.873	156.470	156.364	294.071	494.881	266.581	191.261	363.424	450.768	0.0005529	0.00037675	0.00012773	587.74	5.5114e-06	4.9856e-06	644.15	148.42	7.8304e-06	9.6638e-06	156.85	46.223	39.054	16.956	3.598e-06	15.323	0.0012183	0.0014001	0.00038454	534.49	1.4708e-05	1.5568e-05	582.2	135.62	1.4627e-05	1.507e-05	147.8	43.316	37.631	16.025	1.5069e-05	14.919	362.088	241.608	200.766	153.059	336.253	278.320	150.306	158.350	296.260	306.648	154.889	158.703	161.534	166.784	484.796	162.427	-8191	255	
2020.115	1	1	0	0	0.1779	0.15156	0.045785	0.25783	0.17566	0.28294	0.049529	0.13098	0.14875	0.2353	0.13343	0.094334	0.2177	0.12948	0.2064	0.17913	-1.0229	-1.9208	-1.825	-1.2708	-2.0187	-1.4854	-1.6688	-2.0104	-1.2812	-1.8854	-1.8229	-1.3146	-1.9792	-1.6479	-1.6104	-2.0667	203.708	246.415	425.750	202.514	339.500	240.388	423.480	405.144	406.476	457.457	435.792	427.873	261.339	180.691	325.526	159.871	0.00043207	0.00056664	0.00021965	584.75	8.1053e-06	4.5059e-06	640.33	146.8	3.9924e-06	5.4051e-06	159.09	46.141	39.204	16.899	6.091e-06	15.785	0.0012244	0.0014033	0.00038101	533.73	1.4712e-05	1.5766e-05	581.74	135.55	1.489e-05	1.5637e-05	148.74	43.544	37.767	16.038	1.507e-05	15.125	371.206	189.674	311.404	152.696	230.318	271.541	150.101	158.626	322.317	188.353	154.439	158.555	161.186	166.607	182.545	161.376	-8191	255	
2020.235	1	1	0	0	0.4743	0.19974	0.23768	0.13279	0.17518	0.26142	0.13157	0.29789	0.084982	0.18242	0.045823	0.14127	0.036567	0.17357	0.13508	0.067743	-0.86458	-1.5979	-1.7479	-1.55	-1.9875	-1.7333	-1.5625	-2.1875	-1.325	-1.8479	-2.0938	-1.2979	-2.2417	-1.7625	-1.5042	-2.2083	287.878	415.899	163.046	290.762	471.117	150.682	161.632	417.448	279.833	183.953	405.593	458.762	494.300	437.535	343.065	212.992	0.00066517	0.0008714	0.0002072	580.57	8.6616e-06	4.5223e-06	648.31	147.56	1.8623e-05	1.2259e-05	157.4	45.784	38.933	16.802	6.9558e-06	15.253	0.001209	0.0013763	0.00038152	534.39	1.508e-05	1.5017e-05	582.62	135.43	1.5003e-05	1.5403e-05	147.64	43.094	37.829	16.022	1.5195e-05	14.786	417.627	204.400	231.181	152.828	181.595	447.085	150.446	158.703	379.709	216.216	154.852	158.982	161.467	166.114	235.736	162.112	-8191	255	
2020.331	1	1	0	0	0.048624	0.1551	0.12717	0.10533	0.081093	0.29997	0.15283	0.12496	0.20103	0.15149	0.12606	0.15632	0.14726	0.061367	0.093679	0.30392	-0.99583	-1.7167	-2.1146	-1.3667	-2.0229	-2.0542	-1.4229	-2.1229	-1.4875	-1.7021	-2.0542	-1.425	-1.7938	-1.8979	-1.2792	-2.1813	368.878	348.939	391.823	289.711	491.221	352.886	406.343	409.276	256.322	234.641	493.725	454.753	398.586	193.927	377.035	170.015	0.000586	0.0012463	4.1492e-05	584.25	9.1639e-06	2.3365e-06	633.48	146.26	1.8956e-05	7.8713e-06	156.28	45.936	39.084	16.823	5.2632e-06	15.474	0.0012197	0.0013764	0.00039261	530.72	1.4855e-05	1.5635e-05	575.48	134.28	1.5055e-05	1.5234e-05	146.67	43.045	37.633	16	1.5035e-05	14.855	361.018	354.223	209.114	152.998	222.078	484.146	150.437	158.462	200.460	304.947	155.250	158.286	161.905	165.566	366.901	161.566	-8191	255	
2020.428	1	1	0	0	0.21242	0.11968	0.13609	0.013745	0.20051	0.1458	0.16374	0.17047	0.11489	0.15142	0.05333	0.061096	0.038966	0.079761	0.1582	0.062148	-1.1521	-1.6479	-2.0667	-1.3833	-1.8396	-1.9438	-1.4854	-2.0792	-1.4688	-1.5187	-2.15	-1.3708	-1.8896	-1.8542	-1.4667	-2.0458	359.887	153.774	203.337	228.377	472.229	368.936	451.402	334.983	162.601	145.182	314.686	179.558	478.462	446.660	204.205	192.281	0.00070014	0.00063015	0.00031181	580.55	3.8649e-06	3.6982e-06	637.99	145.44	1.016e-05	6.3684e-06	157.87	45.546	38.561	16.864	7.0402e-06	15.084	0.0012326	0.0014032	0.00037818	530.86	1.4887e-05	1.527e-05	576.72	133.46	1.4659e-05	1.5237e-05	146.9	42.656	37.451	15.996	1.486e-05	14.731	394.499	347.177	258.499	152.986	163.149	303.118	150.168	158.492	404.643	297.600	155.041	158.883	162.735	166.621	390.374	161.863	-8191	255	
2020.548	1	1	0	0	0.082758	0.068199	0.18326	0.31941	0.30359	0.18202	0.26296	0.12507	0.1314	0.10423	0.22728	0.039615	0.11576	0.29638	0.12418	0.16278	-1.2771	-1.4813	-2.1208	-1.4729	-1.5646	-1.9542	-1.5583	-1.9188	-1.7292	-1.4542	-2.1562	-1.5229	-1.5812	-2.1437	-1.2812	-1.9771	144.215	243.873	210.719	486.485	301.992	426.846	400.692	492.074	238.277	245.408	181.352	436.055	274.519	189.958	493.263	413.449	0.0006434	0.0001676	0.00014607	586.94	1.8112e-05	9.7172e-06	639.74	147.42	5.2015e-06	3.0216e-06	157.92	46.17	39.235	16.733	2.3497e-06	15.536	0.0012356	0.0013894	0.00038409	531.71	1.4879e-05	1.4822e-05	577.04	134.52	1.4758e-05	1.5197e-05	146.96	43.006	37.637	15.989	1.4839e-05	14.858	363.945	444.346	170.395	152.953	283.722	234.128	150.330	158.699	198.186	286.028	154.067	158.963	162.192	166.459	321.139	161.761	-8191	255	
2020.644	1	1	0	0	0.11675	0.2745	0.19402	0.081669	0.28141	0.12988	0.15519	0.29349	0.11699	0.073242	0.12225	0.16349	0.14261	0.22399	0.14192	0.097817	-1.4458	-1.3917	-2.0146	-1.4396	-1.4937	-2.1146	-1.5833	-2.0312	-1.7437	-1.3125	-2.2146	-1.5438	-1.6646	-2.0021	-1.4604	-1.9917	204.995	245.187	214.982	188.258	442.329	280.158	320.902	387.125	229.818	452.799	303.073	326.908	440.242	155.972	285.929	178.927	0.00060952	0.00042471	0.00017235	576.21	6.388e-06	9.1459e-06	638.58	145.1	1.6332e-05	5.9123e-06	154.98	45.572	38.691	16.664	3.0675e-06	15.033	0.0012011	0.0013663	0.00039854	528.5	1.4768e-05	1.5109e-05	578.16	133.68	1.4536e-05	1.5304e-05	146.23	42.816	37.253	15.859	1.4376e-05	14.707	370.402	222.058	499.963	153.024	397.241	269.255	150.561	158.709	278.154	190.662	154.807	158.813	162.831	166.637	364.480	161.718	-8191	255	
2020.716	1	1	0	0	0.15877	0.12718	0.063122	0.26469	0.15933	0.23444	0.2746	0.32738	0.26762	0.070328	0.072993	0.059778	0.048081	0.033553	0.27203	0.31253	-1.4229	-1.3042	-2.0563	-1.5125	-1.3708	-2.0958	-1.3687	-1.6792	-1.8937	-1.4438	-2.0771	-1.6854	-1.5562	-2.0958	-1.4292	-1.7375	459.261	347.863	294.964	460.167	473.063	170.397	390.374	441.975	306.225	392.019	155.885	188.217	253.268	146.385	341.997	289.165	0.00063843	0.0005766	0.00025257	576.28	1.0366e-05	3.973e-06	631.69	146.15	7.3703e-06	4.958e-06	155.7	45.053	39	16.66	9.6041e-06	15.393	0.0012049	0.0014082	0.0003754	526.69	1.4756e-05	1.5261e-05	573.26	134.2	1.4263e-05	1.5114e-05	145.42	42.463	37.052	15.873	1.4985e-05	14.771	372.323	216.626	310.281	152.903	424.890	364.081	150.277	158.289	475.875	216.016	154.267	158.687	161.296	166.097	306.970	161.598	-8191	255	
2020.835	1	1	0	0	0.25353	0.22547	0.22145	0.152	0.21432	0.11402	0.19847	0.33284	0.076892	0.19595	0.16855	0.08967	0.20956	0.15534	0.012888	0.27426	-1.5354	-1.2125	-2.025	-1.7708	-1.5229	-1.9896	-1.5125	-1.7458	-1.9521	-1.4021	-2.1958	-1.7771	-1.3646	-1.9937	-1.4438	-1.6771	380.139	451.562	161.230	469.979	300.601	354.061	490.660	244.476	263.609	201.794	177.335	294.400	434.192	486.268	239.738	385.919	0.00044518	0.00061844	0.00010798	579.49	1.8849e-05	8.9444e-06	634.43	145.17	5.2456e-06	2.5801e-06	156.04	46.142	37.722	16.72	3.5801e-06	15.162	0.0012259	0.001379	0.0003786	527.47	1.4671e-05	1.4998e-05	572.65	134.01	1.45e-05	1.5299e-05	145.47	42.826	37.056	15.956	1.4888e-05	14.74	406.014	373.526	339.398	153.256	268.479	356.342	150.425	158.487	357.355	413.143	154.967	159.190	162.228	166.557	330.919	161.770	-8191	255	
2020.931	1	1	0	0	0.12245	0.15213	0.19097	0.16253	0.12728	0.1331	0.093093	0.19028	0.067641	0.12064	0.20771	0.29827	0.12349	0.263	0.29207	0.1109	-1.5854	-1.3792	-1.7437	-1.8125	-1.35	-2.0563	-1.6354	-1.5667	-2.0625	-1.3083	-1.7354	-1.9271	-1.2771	-2.275	-1.6896	-1.4458	455.891	354.924	438.590	375.826	308.596	306.661	410.121	472.925	314.754	346.143	393.386	491.174	420.471	199.230	437.544	172.671	0.00053007	0.00076902	0.00030907	576.61	2.675e-06	1.3191e-05	632.87	144.96	7.1299e-06	5.7047e-06	156.22	45.26	38.605	16.814	1.7998e-05	15.137	0.0011863	0.0013805	0.00038264	528.49	1.5109e-05	1.4993e-05	576.41	134.11	1.4011e-05	1.5247e-05	146.88	42.714	37.347	16.04	1.4521e-05	14.935	379.011	211.644	191.848	153.038	331.413	263.484	150.279	158.570	453.536	334.082	155.061	158.217	162.337	166.583	318.549	161.896	-8191	255	
2021.027	1	1	0	0	0.11104	0.12059	0.082353	0.209	0.41286	0.13899	0.13032	0.22851	0.18518	0.13058	0.18246	0.088548	0.21728	0.23683	0.29954	0.080763	-1.7708	-1.5479	-1.7771	-1.8604	-1.2437	-2.1604	-1.6708	-1.4479	-2.1	-1.375	-1.7958	-1.8333	-1.2396	-1.9062	-1.8333	-1.4542	380.540	422.024	305.979	405.411	316.552	150.025	319.914	390.109	243.037	328.347	190.457	163.348	251.513	398.472	153.834	440.884	0.00065853	0.00010387	2.4765e-05	576.14	5.2371e-06	4.9628e-06	634.88	145.88	2.4697e-06	1.8862e-06	156.07	46.021	39.107	16.782	4.4954e-07	15.058	0.0012158	0.0013323	0.0003809	528.5	1.4766e-05	1.5422e-05	577.5	134.8	1.4653e-05	1.5316e-05	147.3	43.094	37.464	16.001	1.4905e-05	14.836	375.484	423.999	402.225	152.817	222.393	400.181	149.956	158.451	218.739	159.535	155.299	158.472	162.408	166.780	432.951	160.834	-8191	255	
2021.123	1	1	0	0	0.090342	0.061881	0.28966	0.30958	0.18958	0.29406	0.30387	0.17571	0.057963	0.23571	0.10439	0.14818	0.054274	0.13321	0.26594	0.2665	-1.7313	-1.2854	-1.6396	-2.15	-1.2375	-1.9521	-1.9625	-1.475	-2.0479	-1.5021	-1.4521	-1.9688	-1.2479	-2.0604	-1.9771	-1.4667	489.250	354.816	287.995	408.269	187.236	249.647	149.527	460.777	439.051	219.894	150.981	180.410	367.333	331.599	190.722	470.162	0.00049507	0.00065127	0.00013665	582.22	9.6837e-06	9.2815e-06	629.31	146.99	2.6831e-05	5.5811e-06	155.23	45.073	38.751	16.884	1.2062e-06	15.412	0.0012266	0.0013869	0.00038307	529.77	1.4827e-05	1.5365e-05	572.97	134.48	1.4813e-05	1.535e-05	145.59	42.537	37.277	15.984	1.4972e-05	14.717	381.397	209.249	298.677	152.746	307.079	303.671	150.099	158.174	233.234	481.743	154.492	159.236	162.397	166.376	492.327	161.114	-8191	255	
2021.244	1	1	0	0	0.28761	0.074801	0.18291	0.16513	0.20271	0.075797	0.15962	0.16444	0.12255	0.24754	0.010016	0.032335	0.10747	0.078826	0.32256	0.30964	-1.6187	-1.4229	-1.5938	-2.1396	-1.3271	-1.9042	-2.0458	-1.3979	-2.1917	-1.6938	-1.4417	-2.2479	-1.325	-1.8312	-2.0312	-1.3146	283.423	370.766	339.809	309.535	331.549	207.815	218.065	224.744	397.635	414.710	451.234	408.411	461.749	490.504	489.405	467.936	0.0006278	0.00041304	0.00030414	576.47	4.8123e-06	9.105e-06	638.02	146.91	1.388e-05	9.6855e-07	156.96	45.949	38.242	16.813	7.1633e-06	15.043	0.0012194	0.0013674	0.00038975	526.56	1.4715e-05	1.5427e-05	573.69	134.07	1.4508e-05	1.5417e-05	146.49	42.622	37.265	16.017	1.5006e-05	14.785	351.458	187.854	318.698	152.876	358.921	312.534	150.235	158.377	289.140	322.583	155.027	158.857	161.709	166.578	178.984	161.315	-8191	255	
2021.316	1	1	0	0	0.10526	0.27608	0.11891	0.43313	0.31117	0.3745	0.16042	0.22566	0.13945	0.091819	0.093974	0.080931	0.31718	0.45945	0.058113	0.075978	-1.6812	-1.7729	-1.375	-2.1708	-1.6646	-1.7604	-2.1646	-1.3896	-2.0229	-1.8	-1.6771	-2.1354	-1.3188	-1.6292	-2.1	-1.4042	320.426	375.293	363.886	458.013	182.230	158.112	465.488	496.858	253.028	443.386	344.555	173.658	237.545	194.499	268.591	171.707	0.00042272	0.00081832	0.00027513	580.37	1.8032e-05	5.0199e-06	634.44	147.08	2.7486e-05	1.0327e-05	158.58	46.092	39.014	17.055	2.5339e-06	15.409	0.0012187	0.0013537	0.00038784	527.26	1.4874e-05	1.5276e-05	574.08	134.06	1.4755e-05	1.5391e-05	147.82	42.986	37.387	15.972	1.4928e-05	14.906	421.539	368.251	341.951	152.098	254.263	481.154	149.724	157.879	274.725	357.733	155.034	158.260	161.776	166.243	468.816	161.502	-8191	255	
2021.412	1	1	0	0	0.20223	0.2348	0.14675	0.1368	0.062978	0.15734	0.13252	0.18185	0.16267	0.099022	0.32101	0.15113	0.54032	0.10272	0.14607	0.11937	-1.5812	-1.8104	-1.2625	-2.0542	-1.6437	-1.7042	-2.0938	-1.5417	-1.8188	-1.975	-1.3458	-2.1979	-1.5792	-1.6812	-2.1792	-1.4042	224.012	405.706	461.845	153.862	484.208	338.233	415.404	345.841	436.373	147.040	392.735	404.396	439.175	148.269	466.256	174.427	0.0007376	0.00027952	0.00013074	580.44	1.163e-05	2.9353e-06	642.76	146.66	1.7402e-05	2.3634e-06	156.83	46.552	38.909	16.76	2.6279e-06	15.383	0.0012416	0.0013622	0.00038044	526.99	1.4895e-05	1.566e-05	575.82	134	1.4616e-05	1.5151e-05	147.29	43.166	37.16	15.952	1.4847e-05	14.848	371.758	226.503	243.633	152.802	268.967	483.444	150.366	158.521	268.327	421.622	154.082	158.937	161.168	166.268	417.057	162.475	-8191	255	
2021.508	1	1	0	0	0.049318	0.096524	0.18534	0.11125	0.20467	0.29368	0.043222	0.23372	0.33133	0.27533	0.14108	0.36734	0.050948	0.18423	0.20312	0.28264	-1.4104	-1.8083	-1.4125	-1.9292	-1.7354	-1.3583	-2.2062	-1.35	-1.6396	-2.1437	-1.2938	-2.2146	-1.7583	-1.3042	-2.0667	-1.4604	440.242	479.735	146.404	405.255	252.237	496.462	215.290	229.549	436.174	455.629	252.973	176.636	311.478	361.034	263.212	448.020	0.000629	0.00029937	0.00021771	574.33	6.5558e-06	1.1501e-05	629.81	145.72	1.934e-05	2.7837e-06	156.55	44.753	38.492	16.747	2.3178e-06	15.166	0.0012491	0.001372	0.00038739	525.36	1.4965e-05	1.5349e-05	570.42	133.56	1.473e-05	1.5232e-05	145.65	42.364	37.052	15.871	1.5091e-05	14.71	360.592	299.480	472.830	152.914	273.629	229.604	149.909	158.151	364.946	375.760	153.888	159.488	162.305	166.329	368.407	161.448	-8191	255	
2021.627	1	1	0	0	0.30848	0.03076	0.25903	0.294	0.14456	0.22229	0.057536	0.18469	0.14933	0.11607	0.074334	0.05672	0.20445	0.19339	0.19542	0.1526	-1.3583	-2.0542	-1.3021	-2.1813	-1.7875	-1.4875	-2.1813	-1.4625	-1.5583	-2.1229	-1.4604	-1.8417	-1.7125	-1.3917	-2.0333	-1.7042	176.855	327.471	448.774	425.895	216.170	382.150	461.388	499.961	289.132	391.440	336.540	288.649	166.169	441.706	425.163	145.595	0.00068334	0.00059393	6.5056e-05	580.47	4.4317e-06	1.2741e-05	628.48	146.62	5.6064e-06	6.5443e-06	156.99	46.127	38.424	16.827	6.1041e-06	15.322	0.0012183	0.0013936	0.00038717	525.52	1.4593e-05	1.5432e-05	570.05	134.07	1.4391e-05	1.5242e-05	145.57	42.669	37.094	15.834	1.4993e-05	14.68	394.037	241.572	328.409	152.747	442.746	355.965	150.552	158.483	416.290	225.214	154.222	159.239	161.989	166.769	293.353	161.316	-8191	255	
2021.723	1	1	0	0	0.11282	0.14732	0.24042	0.2103	0.1326	0.18375	0.30657	0.19727	0.12328	0.20707	0.074852	0.04956	0.22901	0.087083	0.33151	0.19212	-0.99375	-2.0604	-1.4688	-2.0292	-1.9458	-1.2938	-2.1854	-1.8062	-1.4042	-2.1792	-1.3958	-2.075	-2.0604	-1.4521	-2.1917	-1.6125	164.836	153.045	381.586	436.704	380.254	494.592	465.047	231.694	231.449	282.089	390.650	358.864	211.752	298.662	440.244	437.533	0.00037248	0.00040066	0.00016609	581.52	7.776e-06	1.2424e-05	638.87	146.07	1.7978e-05	2.5788e-06	155.45	45.367	39.322	16.757	1.1537e-05	15.436	0.0012183	0.0013854	0.00039207	526.92	1.4835e-05	1.5512e-05	573.53	133.43	1.482e-05	1.5173e-05	146.05	42.591	37.308	15.968	1.4763e-05	14.839	359.331	268.658	229.201	152.840	227.384	266.944	149.926	158.237	324.216	225.487	154.001	159.511	161.878	166.748	285.805	161.293	-8191	255	
2021.819	1	1	0	0	0.10725	0.16111	0.17169	0.17964	0.082607	0.28041	0.22688	0.068876	0.16351	0.10521	0.061476	0.14722	0.16258	0.12595	0.06547	0.29402	-1.2375	-2.1937	-1.3937	-1.8937	-2.125	-1.3146	-2	-1.7604	-1.4688	-2.0479	-1.5521	-1.8271	-2.2833	-1.0604	-2.05	-1.6354	204.613	181.203	336.883	481.682	261.559	463.027	434.458	385.383	354.646	388.737	459.355	392.479	164.753	395.804	142.463	383.471	0.000505	0.00012881	0.00018857	576.06	6.3293e-06	1.0104e-05	630.95	145.78	1.0513e-05	1.1104e-05	157.24	45.91	38.524	16.719	1.0666e-05	15.1	0.0012096	0.0013797	0.00039157	526.39	1.4707e-05	1.5603e-05	572.45	133.94	1.4832e-05	1.4982e-05	146.5	42.82	37.145	15.94	1.4991e-05	14.853	359.740	420.820	425.147	152.531	193.287	234.537	150.340	158.592	350.878	276.729	154.570	158.987	161.824	166.506	396.235	161.265	-8191	255	
2021.915	1	1	0	0	0.20096	0.21173	0.14223	0.20835	0.082697	0.15456	0.22121	0.14508	0.32272	0.1417	0.18656	0.087083	0.1076	0.079886	0.17791	0.28041	-0.98125	-2.0479	-1.4625	-1.6708	-2.1188	-1.4292	-1.8854	-1.8833	-1.2958	-2.2229	-1.7271	-1.5979	-2.1458	-1.3875	-1.8792	-1.8	442.099	353.004	474.120	498.937	190.167	244.971	240.662	370.860	228.298	264.279	400.911	432.483	310.408	165.747	218.658	144.757	0.00020657	0.0008223	0.00013791	573.33	3.352e-06	8.1693e-06	627.96	143.99	1.5776e-05	9.3232e-06	156	45.459	38.08	16.798	1.7852e-06	15.154	0.0012284	0.0013727	0.00039052	523.94	1.4782e-05	1.5156e-05	570.95	133.16	1.4584e-05	1.5151e-05	145.53	42.426	36.969	15.842	1.4841e-05	14.596	382.648	230.971	416.949	153.572	418.994	191.987	150.535	158.403	355.353	238.973	154.888	158.547	161.347	165.797	355.911	161.115	-8191	255	
2022.011	1	1	0	0	0.22887	0.28903	0.12821	0.19201	0.13055	0.13808	0.18738	0.30305	0.055836	0.33469	0.14997	0.21516	0.051754	0.17813	0.10974	0.24939	-0.92708	-2.0167	-1.6688	-1.6	-2.1104	-1.3792	-1.9083	-1.9188	-1.3062	-2.1083	-1.6417	-1.5729	-1.9979	-1.4	-1.95	-1.9917	280.309	455.945	160.896	211.354	248.202	459.274	174.510	415.665	353.767	198.666	298.230	283.448	473.336	481.028	144.561	493.833	0.00049246	0.00092733	3.5412e-05	579.68	1.4269e-05	5.6939e-06	632.78	145.59	1.8937e-05	7.1926e-06	153.91	45.614	38.129	17.025	6.4199e-06	14.985	0.0012678	0.0013929	0.00038087	526.03	1.4934e-05	1.5119e-05	569.02	133.57	1.4795e-05	1.5208e-05	145.01	42.519	36.974	15.897	1.5052e-05	14.63	401.789	338.711	296.098	152.574	250.005	408.769	150.245	158.087	301.828	200.946	154.106	158.605	161.847	165.760	217.783	161.587	-8191	255	
2022.108	1	1	0	0	0.028665	0.24971	0.17642	0.17525	0.081355	0.13308	0.12295	0.13481	0.31124	0.0814	0.076855	0.14815	0.053404	0.26299	0.1583	0.048033	-1.0979	-1.9188	-1.8687	-1.4354	-2.0854	-1.5208	-1.7687	-2.1104	-1.2958	-1.9542	-1.7271	-1.3521	-2.2167	-1.7521	-1.7021	-2.0062	369.777	242.055	317.898	364.817	457.188	417.107	419.689	327.704	257.058	417.908	266.680	164.219	294.207	169.126	246.011	219.321	0.00048446	0.00065947	0.00011692	571.99	7.1234e-06	1.5183e-06	626.64	145.86	9.6994e-06	2.7903e-06	156.24	45.497	39.213	16.905	3.8195e-06	15.194	0.0012484	0.0013834	0.00038582	523.44	1.4784e-05	1.5574e-05	567.85	133.96	1.4484e-05	1.5285e-05	145.71	42.46	37.184	15.898	1.5033e-05	14.688	392.078	225.480	194.380	153.027	197.001	238.513	150.283	158.058	210.589	207.752	154.072	158.465	162.130	165.774	269.849	161.637	-8191	255	
2022.228	1	1	0	0	0.089696	0.27952	0.080958	0.21599	0.27644	0.18386	0.13914	0.11443	0.2761	0.06051	0.23175	0.13016	0.20319	0.34348	0.10506	0.24137	-0.92292	-1.8479	-1.725	-1.3438	-2.0875	-1.5812	-1.6437	-2.2229	-1.3479	-2.0187	-1.7583	-1.4396	-2.1083	-1.6688	-1.6437	-2.0563	324.530	433.373	241.348	460.264	332.499	170.907	225.895	189.055	496.110	152.510	433.523	159.179	366.122	406.962	264.526	180.373	0.00034782	0.00050716	5.7861e-05	576.77	4.0113e-06	3.8635e-06	632.94	147.38	1.3016e-05	3.6032e-06	155.21	45.89	38.21	16.925	1.1889e-06	15.214	0.0012199	0.001398	0.00038734	524.71	1.4806e-05	1.5195e-05	571.26	134.11	1.4647e-05	1.5208e-05	146.21	42.764	36.861	15.883	1.4713e-05	14.743	314.716	218.957	175.136	152.355	463.790	271.278	150.232	157.555	247.399	351.723	154.105	159.188	161.620	166.294	166.960	161.562	-8191	255	
2022.324	1	1	0	0	0.11413	0.070489	0.14237	0.17996	0.29757	0.061113	0.022988	0.072206	0.13683	0.027926	0.12856	0.087388	0.12535	0.22822	0.12219	0.23877	-0.95625	-1.8687	-2.1	-1.5063	-2.0729	-1.6583	-1.675	-1.9875	-1.5833	-1.7708	-2.0187	-1.3188	-2.0167	-1.6667	-1.3792	-2.2354	378.760	208.508	409.749	236.728	363.579	356.279	369.296	425.082	402.899	270.489	191.506	208.997	444.083	151.752	344.668	274.471	0.00066052	0.00078391	8.5743e-05	575.62	9.762e-06	7.0669e-06	629.91	145.69	2.8947e-05	9.0348e-06	156.36	44.606	38.643	16.736	9.9312e-06	14.865	0.0012137	0.0014016	0.00038148	521.66	1.4786e-05	1.5306e-05	567.59	133.62	1.463e-05	1.5381e-05	144.72	41.922	36.858	15.74	1.4757e-05	14.484	368.044	489.391	497.555	152.454	245.810	479.320	150.044	158.194	343.813	404.955	154.233	158.837	161.681	165.428	326.575	161.774	-8191	255	
2022.421	1	1	0	0	0.14669	0.16877	0.10244	0.16714	0.18019	0.14096	0.32504	0.27532	0.13926	0.074079	0.20829	0.30683	0.15841	0.042939	0.16343	0.16136	-1.0229	-1.7812	-1.9708	-1.4062	-1.9875	-1.6354	-1.3583	-2.1792	-1.4625	-1.6854	-2.0958	-1.4333	-1.9229	-1.7229	-1.4875	-2.0833	446.704	352.799	298.496	394.835	463.780	167.906	149.588	205.455	342.588	168.905	405.326	173.183	150.599	151.159	228.385	398.728	0.00069309	0.00032812	6.8408e-05	578.3	6.6821e-06	7.7813e-06	628.44	146.11	1.3885e-05	4.2305e-06	155.03	45.275	37.968	16.406	3.2935e-08	15.282	0.0012281	0.0013689	0.00038487	522.44	1.4875e-05	1.4995e-05	565.07	133.84	1.4633e-05	1.529e-05	144.1	42.058	36.531	15.677	1.4672e-05	14.624	366.414	194.275	499.755	153.156	201.166	169.819	150.402	158.134	247.894	331.458	154.631	159.130	162.496	166.336	459.980	162.138	-8191	255	
2022.517	1	1	0	0	0.29384	0.30736	0.33926	0.20601	0.075501	0.2311	0.16329	0.1952	0.070402	0.16341	0.2791	0.37687	0.28813	0.14843	0.079292	0.075834	-1.0896	-1.7021	-2.0458	-1.3062	-1.9125	-1.9771	-1.5146	-2.1542	-1.5667	-1.6833	-2.15	-1.2521	-1.85	-1.9146	-1.3438	-2.1542	168.055	391.087	275.077	440.388	202.130	384.026	495.188	488.496	222.189	400.329	141.456	186.197	461.151	396.699	219.387	441.179	0.00046461	0.00076095	0.00019197	574.27	1.5664e-05	4.2093e-06	630.18	145.09	2.0096e-05	5.7579e-06	155.78	45.115	39.027	16.699	1.37e-05	15.335	0.0012127	0.0014134	0.00038599	521.14	1.4999e-05	1.5391e-05	566.68	133.57	1.4474e-05	1.5417e-05	145.35	42.274	37.119	15.747	1.5093e-05	14.705	378.671	497.950	168.355	153.142	244.000	237.571	149.798	158.250	241.620	357.316	154.406	158.927	162.141	166.210	347.225	162.015	-8191	255	
2022.613	1	1	0	0	0.092362	0.25697	0.12661	0.069811	0.12644	0.25413	0.20213	0.10838	0.14001	0.05652	0.35791	0.22181	0.045123	0.22959	0.12986	0.078389	-1.1896	-1.5021	-2.0438	-1.6125	-1.6646	-2.1208	-1.2417	-2.0938	-1.8687	-1.5167	-2.2812	-1.4583	-1.8396	-2.0021	-1.1083	-2.0667	171.232	481.260	403.721	409.893	363.101	291.686	153.157	361.131	331.640	486.603	326.634	173.338	379.688	172.174	347.443	346.282	0.00068738	0.00053417	6.6917e-05	578.82	3.4876e-06	6.1453e-06	635.54	147.02	1.8004e-05	1.1055e-05	155.45	45.383	38.406	16.674	7.1696e-06	15.344	0.0012095	0.001404	0.00038341	522.97	1.503e-05	1.5259e-05	572.53	134.27	1.4472e-05	1.5158e-05	146.23	42.605	37.018	15.819	1.4729e-05	14.792	383.535	273.385	179.463	152.620	309.459	485.141	150.161	157.870	172.582	198.674	154.506	158.790	160.861	166.565	397.794	161.230	-8191	255	
2022.709	1	1	0	0	0.13185	0.19232	0.13273	0.18315	0.23281	0.23404	0.12364	0.051109	0.10685	0.19716	0.011186	0.24713	0.1483	0.13944	0.057009	0.42966	-1.3708	-1.3583	-2.0104	-1.5708	-1.7167	-2.1437	-1.3979	-2.0417	-1.7958	-1.4104	-2.3333	-1.7396	-1.6688	-2.1521	-1.4771	-2.0125	292.320	250.230	182.557	418.318	208.034	422.206	179.024	385.614	199.534	340.288	431.182	190.881	472.184	432.224	298.803	445.238	0.00037998	0.00054832	0.00022796	581.29	2.5345e-06	9.4187e-06	630.09	146.7	7.776e-06	6.3331e-06	156	45.248	38.124	16.658	6.1042e-06	15.066	0.0012245	0.001383	0.00038641	526.18	1.509e-05	1.5316e-05	569.99	133.71	1.4659e-05	1.533e-05	145.51	42.115	36.823	15.733	1.4872e-05	14.579	374.619	299.576	466.961	152.745	155.498	316.552	150.243	158.264	414.382	144.547	154.176	158.949	161.547	166.929	339.124	161.453	-8191	255	
#DATA ENDS
