BOXY.EXE: ISS Imagent and Oximeter Data Acquisition Program Version 0.80
Ascii Record File

#ACQ INFORMATION
2  Detector Channels 
16  External MUX Channels 
1  Auxiliary Channels 
5000  Waveform (CCF) Frequency (Hz)
1  Waveforms Skipped 
30  Waveforms Averaged 
1  Cycles Averaged 
16  Acquisitions per Waveform 
10.0806  Updata Rate (Hz) 

#FILE INFORMATION
TRUE -- External MUX Channel results are PARSED.
FALSE -- AC DC and Phase are NOT grouped.
TRUE -- Companion Program Settings File CREATED.
FALSE -- AC data not excluded
FALSE -- DC data not excluded
FALSE -- Phase data not excluded
FALSE -- Auxillary Chn. data not excluded
Tab delimiters

#CALIBRATION STATE
TRUE -- Waveform Calibration Values APPLIED.


#AUX CALIBRATION VALUES
Val Type	aux-1	

Term	1.0000e+00	
Factor	0.0000e+00	


#WF CALIBRATION VALUES
A = Detector Channel
Val Type	A-AC1	A-AC2	A-AC3	A-AC4	A-AC5	A-AC6	A-AC7	A-AC8	A-AC9	A-AC10	A-AC11	A-AC12	A-AC13	A-AC14	A-AC15	A-AC16	A-DC1	A-DC2	A-DC3	A-DC4	A-DC5	A-DC6	A-DC7	A-DC8	A-DC9	A-DC10	A-DC11	A-DC12	A-DC13	A-DC14	A-DC15	A-DC16	A-Ph1	A-Ph2	A-Ph3	A-Ph4	A-Ph5	A-Ph6	A-Ph7	A-Ph8	A-Ph9	A-Ph10	A-Ph11	A-Ph12	A-Ph13	A-Ph14	A-Ph15	A-Ph16	

Term	0.00000e+00	0.00000e+00	0.00000e+00	0.00000e+00	0.00000e+00	0.00000e+00	0.00000e+00	0.00000e+00	0.00000e+00	0.00000e+00	0.00000e+00	0.00000e+00	0.00000e+00	0.00000e+00	0.00000e+00	0.00000e+00	0.00000e+00	0.00000e+00	0.00000e+00	0.00000e+00	0.00000e+00	0.00000e+00	0.00000e+00	0.00000e+00	0.00000e+00	0.00000e+00	0.00000e+00	0.00000e+00	0.00000e+00	0.00000e+00	0.00000e+00	0.00000e+00	0.00000e+00	0.00000e+00	0.00000e+00	0.00000e+00	0.00000e+00	0.00000e+00	0.00000e+00	0.00000e+00	0.00000e+00	0.00000e+00	0.00000e+00	0.00000e+00	0.00000e+00	0.00000e+00	0.00000e+00	0.00000e+00	
Factor	1.00000e+00	1.00000e+00	1.00000e+00	1.00000e+00	1.00000e+00	1.00000e+00	1.00000e+00	1.00000e+00	1.00000e+00	1.00000e+00	1.00000e+00	1.00000e+00	1.00000e+00	1.00000e+00	1.00000e+00	1.00000e+00	1.00000e+00	1.00000e+00	1.00000e+00	1.00000e+00	1.00000e+00	1.00000e+00	1.00000e+00	1.00000e+00	1.00000e+00	1.00000e+00	1.00000e+00	1.00000e+00	1.00000e+00	1.00000e+00	1.00000e+00	1.00000e+00	X	X	X	X	X	X	X	X	X	X	X	X	X	X	X	X	

B = Detector Channel
Val Type	B-AC1	B-AC2	B-AC3	B-AC4	B-AC5	B-AC6	B-AC7	B-AC8	B-AC9	B-AC10	B-AC11	B-AC12	B-AC13	B-AC14	B-AC15	B-AC16	B-DC1	B-DC2	B-DC3	B-DC4	B-DC5	B-DC6	B-DC7	B-DC8	B-DC9	B-DC10	B-DC11	B-DC12	B-DC13	B-DC14	B-DC15	B-DC16	B-Ph1	B-Ph2	B-Ph3	B-Ph4	B-Ph5	B-Ph6	B-Ph7	B-Ph8	B-Ph9	B-Ph10	B-Ph11	B-Ph12	B-Ph13	B-Ph14	B-Ph15	B-Ph16	

Term	0.00000e+00	0.00000e+00	0.00000e+00	0.00000e+00	0.00000e+00	0.00000e+00	0.00000e+00	0.00000e+00	0.00000e+00	0.00000e+00	0.00000e+00	0.00000e+00	0.00000e+00	0.00000e+00	0.00000e+00	0.00000e+00	0.00000e+00	0.00000e+00	0.00000e+00	0.00000e+00	0.00000e+00	0.00000e+00	0.00000e+00	0.00000e+00	0.00000e+00	0.00000e+00	0.00000e+00	0.00000e+00	0.00000e+00	0.00000e+00	0.00000e+00	0.00000e+00	5.94720e+01	-1.33281e+02	-1.24008e+02	-1.83669e+02	-7.49398e+01	-7.46865e+01	-1.55903e+02	-1.62015e+02	-6.56920e+01	-5.76036e+01	-1.71186e+02	-1.71014e+02	-1.82886e+02	-1.77178e+02	-6.18822e+01	-1.49311e+02	
Factor	6.16829e-05	1.64324e-04	4.66421e-05	1.74362e-01	2.06590e-06	1.82496e-06	1.63678e-01	5.30398e-02	3.37277e-06	1.77242e-06	9.18026e-02	2.93873e-02	3.59135e-02	9.27610e-03	2.08424e-06	1.33759e-02	6.85272e-06	8.02413e-06	2.24270e-06	9.05141e-02	8.55606e-08	8.89427e-08	7.96729e-02	2.75538e-02	8.49966e-08	8.88765e-08	4.61873e-02	1.47366e-02	1.84319e-02	4.86892e-03	8.63507e-08	6.78635e-03	X	X	X	X	X	X	X	X	X	X	X	X	X	X	X	X	



#DISTANCE SETTINGS
A = Detector Channel
A-1	A-2	A-3	A-4	A-5	A-6	A-7	A-8	A-9	A-10	A-11	A-12	A-13	A-14	A-15	A-16	

2.5000e+00	3.0000e+00	2.5000e+00	3.0000e+00	2.0000e+00	3.0000e+00	1.5000e+00	3.0000e+00	3.0000e+00	3.0000e+00	3.0000e+00	3.0000e+00	3.0000e+00	3.0000e+00	1.5000e+00	3.0000e+00	

B = Detector Channel
B-1	B-2	B-3	B-4	B-5	B-6	B-7	B-8	B-9	B-10	B-11	B-12	B-13	B-14	B-15	B-16	

1.0000e+01	1.0000e+01	1.0000e+01	1.4400e+00	1.0000e+01	1.0000e+01	1.5100e+00	1.9400e+00	1.0000e+01	1.0000e+01	1.9900e+00	2.4900e+00	2.4100e+00	2.9000e+00	1.0000e+01	2.9800e+00	




#DATA BEGINS
time	group	step	mark	flag	A-AC1	A-AC2	A-AC3	A-AC4	A-AC5	A-AC6	A-AC7	A-AC8	A-AC9	A-AC10	A-AC11	A-AC12	A-AC13	A-AC14	A-AC15	A-AC16	A-DC1	A-DC2	A-DC3	A-DC4	A-DC5	A-DC6	A-DC7	A-DC8	A-DC9	A-DC10	A-DC11	A-DC12	A-DC13	A-DC14	A-DC15	A-DC16	A-Ph1	A-Ph2	A-Ph3	A-Ph4	A-Ph5	A-Ph6	A-Ph7	A-Ph8	A-Ph9	A-Ph10	A-Ph11	A-Ph12	A-Ph13	A-Ph14	A-Ph15	A-Ph16	B-AC1	B-AC2	B-AC3	B-AC4	B-AC5	B-AC6	B-AC7	B-AC8	B-AC9	B-AC10	B-AC11	B-AC12	B-AC13	B-AC14	B-AC15	B-AC16	B-DC1	B-DC2	B-DC3	B-DC4	B-DC5	B-DC6	B-DC7	B-DC8	B-DC9	B-DC10	B-DC11	B-DC12	B-DC13	B-DC14	B-DC15	B-DC16	B-Ph1	B-Ph2	B-Ph3	B-Ph4	B-Ph5	B-Ph6	B-Ph7	B-Ph8	B-Ph9	B-Ph10	B-Ph11	B-Ph12	B-Ph13	B-Ph14	B-Ph15	B-Ph16	aux-1	digaux	

964.899	1	1	0	256	0.098886	0.095949	0.21349	0.33573	0.043301	0.26612	0.32054	0.33153	0.25245	0.12843	0.32478	0.39139	0.29988	0.047222	0.14981	0.28616	-1.3333	-0.95833	-1.8146	-1.2375	-1.4667	-1.9125	-1.2437	-1.6958	-1.6604	-0.91875	-1.675	-1.4229	-1.2417	-1.9125	-0.93333	-1.7208	238.355	367.301	123.783	438.880	157.640	203.167	422.879	352.849	376.126	206.431	409.486	401.425	85.289	211.392	218.747	396.765	0.0016225	0.00042621	0.00019014	1387	1.3456e-05	3.693e-06	1389	372.96	2.0363e-05	6.2844e-06	424.43	142.78	124.83	42.053	9.6654e-06	52.123	0.00094084	0.00093933	0.00026035	1422.6	1.0058e-05	1.0259e-05	1422.9	383.54	9.5956e-06	1.0036e-05	438.1	147.56	128.32	43.874	9.452e-06	54.408	357.941	129.300	187.024	96.506	209.489	228.277	96.130	101.229	225.233	267.697	100.750	105.327	105.659	109.866	247.591	109.161	-8191	255	
964.995	1	1	0	0	0.18575	0.14718	0.19487	0.10591	0.21885	0.15147	0.15951	0.13912	0.26555	0.14405	0.15948	0.21214	0.23549	0.19292	0.18122	0.11412	-1.2604	-0.97083	-1.6688	-1.5792	-1.1	-1.7771	-1.5229	-1.5458	-1.8	-1.0875	-1.7896	-1.6187	-1.2396	-1.9937	-1.1313	-1.4708	394.220	105.915	151.239	399.711	380.219	221.441	415.821	90.800	267.602	129.370	435.706	108.692	322.954	391.156	94.927	100.397	0.0015685	0.00028887	0.0001289	1381	9.3025e-06	8.3567e-06	1383.9	371.06	1.0592e-05	2.6379e-06	422.01	143.19	124.41	41.933	4.4799e-06	52.341	0.0008671	0.00086868	0.00024171	1416.9	9.3561e-06	9.4333e-06	1415.3	381.6	9.0691e-06	9.3646e-06	436.05	147.15	127.99	43.8	9.2559e-06	54.404	356.107	155.377	169.685	96.320	206.679	243.504	96.354	101.258	250.609	228.535	100.730	105.069	105.534	110.168	253.086	109.047	-8191	255	
965.091	1	1	0	0	0.18474	0.20877	0.26653	0.17225	0.11547	0.16213	0.19155	0.29249	0.16587	0.10157	0.19979	0.13864	0.035521	0.12683	0.12552	0.20152	-1.2542	-1.0812	-1.5	-1.7875	-1.0812	-1.7854	-1.5146	-1.3292	-1.8604	-1.0375	-1.6521	-1.8854	-1.1875	-1.7563	-1.4604	-1.3083	372.086	360.603	402.140	436.386	402.491	179.605	305.727	400.683	261.896	289.964	313.594	421.946	219.329	102.563	256.271	367.861	0.0016965	0.00048227	0.00011088	1371	9.3397e-06	8.1754e-06	1381.5	370.59	1.7695e-05	1.6324e-06	423.47	143.14	123.91	42.092	1.0252e-05	52.204	0.00086154	0.00085138	0.00023119	1411.1	9.2546e-06	9.3442e-06	1414	381.59	8.95e-06	9.2967e-06	436.3	147.01	127.72	43.787	8.9263e-06	54.286	359.984	193.254	185.298	96.358	236.775	220.939	96.219	101.257	267.493	204.849	100.405	105.110	105.983	110.109	226.487	109.257	-8191	255	
965.188	1	1	0	0	0.2774	0.093417	0.32221	0.45019	0.23483	0.19431	0.23477	0.27714	0.12159	0.30245	0.14843	0.22647	0.16988	0.06733	0.25514	0.23549	-1.2458	-1.0646	-1.6354	-1.7479	-0.97917	-1.7083	-1.5958	-1.4125	-1.7563	-1.1333	-1.6542	-1.9104	-0.93125	-1.8583	-1.5292	-1.1646	121.487	395.379	297.452	87.405	354.150	428.491	385.627	434.725	306.602	105.144	269.138	416.502	425.088	218.741	385.421	333.112	0.0017695	0.00045063	0.00016047	1370.2	4.0269e-06	5.453e-06	1374.4	370.49	1.4087e-05	4.9615e-06	420.55	142.15	124.31	42.079	6.6464e-06	51.742	0.00084975	0.00082272	0.00022416	1408.6	8.8218e-06	8.983e-06	1408.6	380.5	8.6767e-06	8.9943e-06	434.16	146.44	127.66	43.794	8.9432e-06	54.081	359.983	122.849	183.718	96.560	232.824	205.238	96.155	101.421	237.497	244.178	100.512	105.390	105.609	110.083	213.790	109.322	-8191	255	
965.282	1	1	0	0	0.04339	0.21542	0.034202	0.37553	0.16358	0.20216	0.063444	0.33595	0.31035	0.15536	0.26235	0.253	0.22469	0.10321	0.22803	0.22541	-1.5021	-1.2021	-1.3813	-1.9854	-0.91667	-1.7437	-2.0062	-1.0958	-1.7479	-1.3563	-1.4125	-1.9354	-1.0917	-1.6833	-1.6021	-1.125	126.574	152.698	161.791	429.597	182.878	103.921	405.325	321.446	412.327	290.256	321.958	400.003	126.939	111.520	325.270	361.374	0.0018074	0.0006084	0.00016037	1370.3	7.8241e-06	7.4738e-06	1372	369.19	1.3511e-05	6.1948e-06	418.71	141.32	123.94	42.101	7.2902e-06	52.024	0.0008347	0.00081368	0.00022784	1407.1	8.9628e-06	8.963e-06	1404.6	379.77	8.9023e-06	9.0087e-06	433.17	146.25	127.23	43.731	8.9573e-06	54.156	361.989	133.577	175.601	96.597	227.245	245.055	96.309	101.419	223.652	220.220	101.029	105.454	106.060	110.726	250.605	109.460	-8191	255	
965.378	1	1	0	0	0.11773	0.2352	0.25711	0.045947	0.32325	0.14397	0.062921	0.2182	0.11554	0.16154	0.26002	0.29516	0.15038	0.20786	0.12932	0.24682	-1.3667	-1.3083	-1.25	-1.8937	-1.1083	-1.4375	-1.7854	-1.2792	-1.6938	-1.3104	-1.3479	-1.9438	-1.2229	-1.7208	-1.7083	-1.0167	169.634	107.938	246.613	372.273	137.417	425.690	350.103	402.873	304.202	380.100	372.925	381.146	397.401	420.648	441.850	421.861	0.0017608	0.0003124	0.00013396	1368	1.232e-05	7.035e-06	1373	368.26	1.0349e-05	2.8029e-06	419.67	142.63	123.33	41.929	8.0684e-06	51.821	0.00084855	0.00081005	0.00022645	1405.9	8.925e-06	9.1754e-06	1405.1	378.99	8.8913e-06	9.135e-06	433.16	146.29	127	43.63	8.8423e-06	54.036	357.020	154.452	149.529	96.940	222.102	240.086	96.764	101.453	232.391	228.535	101.268	105.659	106.206	110.815	240.996	109.828	-8191	255	
965.476	1	1	0	0	0.23674	0.24115	0.15363	0.23419	0.12141	0.25561	0.41609	0.22708	0.24684	0.063097	0.21349	0.15743	0.25045	0.11616	0.18894	0.19527	-1.2792	-1.2812	-1.075	-2.1042	-1.0479	-1.5583	-1.9521	-1.3208	-1.7875	-1.4062	-1.1146	-2.0187	-1.1229	-1.5729	-1.7917	-1.1375	373.826	235.349	225.678	410.381	253.776	95.077	415.123	370.577	159.539	368.829	341.606	86.081	402.336	164.737	304.001	416.495	0.0017204	0.00066469	0.00017538	1368.7	5.716e-06	7.0353e-06	1376.8	368.54	1.6459e-05	5.1413e-06	419.16	142.26	123.63	41.858	6.5112e-06	51.73	0.00084281	0.00082028	0.00023003	1404.3	9.0072e-06	9.1055e-06	1406.3	379.09	9.1113e-06	9.1167e-06	433.14	146.09	127.29	43.586	9.1104e-06	54.001	361.168	141.763	200.032	97.190	224.056	224.279	96.959	101.731	229.954	257.300	101.115	105.818	106.146	110.426	201.651	109.573	-8191	255	
965.595	1	1	0	0	0.19073	0.048471	0.13682	0.24603	0.093147	0.079229	0.09826	0.14596	0.20468	0.32044	0.058886	0.15538	0.28563	0.1757	0.16457	0.017289	-1.0333	-1.6562	-0.93958	-1.9542	-1.2917	-1.3021	-2.0604	-1.25	-1.5021	-1.6271	-1.1187	-2.2042	-1.3979	-1.3729	-1.9312	-1.4125	301.996	310.240	362.493	428.161	281.834	188.853	443.473	316.969	359.195	116.687	118.461	438.208	162.369	427.952	427.445	384.367	0.001611	0.00040911	0.00017483	1365.8	1.1999e-05	7.5661e-06	1369.3	369.24	1.8662e-05	6.7286e-06	417.97	141.8	122.9	41.725	9.5549e-06	51.751	0.00086074	0.00083727	0.00023144	1404.8	9.0878e-06	9.2437e-06	1403.6	378.66	8.9887e-06	9.1234e-06	433.47	145.81	126.83	43.519	9.2199e-06	53.988	360.710	177.606	170.672	96.977	208.507	255.288	96.740	102.003	238.066	236.542	101.291	105.930	106.310	111.099	254.799	109.867	-8191	255	
965.691	1	1	0	0	0.12861	0.19209	0.066316	0.17528	0.074922	0.17635	0.23847	0.42967	0.053997	0.056984	0.043331	0.21252	0.17383	0.32616	0.11981	0.085377	-0.9875	-1.5667	-1.0396	-1.9792	-1.475	-1.2854	-2.0646	-1.2188	-1.525	-1.9083	-1.3667	-1.6625	-1.3771	-1.15	-1.6833	-1.4708	176.614	147.379	300.524	388.413	159.507	223.817	342.811	409.724	380.085	149.955	204.748	405.017	144.198	379.055	240.819	413.756	0.0016272	0.00030315	0.00024728	1363.8	7.3614e-06	2.7551e-06	1364.4	368.93	1.4651e-05	5.8532e-06	418.05	141.1	123.41	41.526	1.5095e-05	51.671	0.0008478	0.00084743	0.00023976	1402.6	9.2058e-06	9.3104e-06	1400.6	378.82	9.2158e-06	9.2215e-06	432.28	145.6	126.78	43.418	9.2665e-06	53.892	358.472	175.132	209.825	97.204	258.121	254.303	96.806	101.906	202.300	180.305	101.112	105.883	106.309	110.714	261.652	109.951	-8191	255	
965.787	1	1	0	0	0.15306	0.19275	0.3378	0.31178	0.17248	0.069031	0.092145	0.42973	0.16546	0.26927	0.25896	0.10941	0.13212	0.14507	0.20997	0.25766	-1.0792	-1.8646	-1.1979	-1.9792	-1.4375	-1.0958	-2.1771	-1.3771	-1.3896	-1.7042	-1.2354	-1.8458	-1.6	-1.2354	-1.8583	-1.55	178.637	396.019	416.519	425.283	328.292	293.029	350.838	427.323	130.259	367.346	93.227	332.607	318.968	395.007	188.158	421.913	0.0016972	0.00088702	0.00011946	1363.2	6.0952e-06	4.2687e-06	1367.1	366.69	1.7194e-05	5.2114e-06	419.2	142.43	123.44	41.632	8.3523e-06	51.729	0.00085529	0.00084375	0.00023834	1400.3	9.3714e-06	9.4303e-06	1400.7	378.33	9.4707e-06	9.5774e-06	433.42	146.05	126.95	43.463	9.6617e-06	53.904	359.237	163.652	211.507	97.229	232.069	200.608	96.831	101.670	271.242	235.378	100.983	106.004	106.288	110.751	243.940	109.399	-8191	255	
965.883	1	1	0	0	0.26911	0.21296	0.1494	0.15884	0.0654	0.13215	0.10775	0.31973	0.26822	0.18346	0.12763	0.11866	0.084014	0.18064	0.040833	0.065868	-0.7875	-1.8292	-1.1583	-1.4667	-1.7125	-1.1417	-1.9083	-1.4208	-1.1083	-1.8604	-1.3188	-1.8417	-1.6646	-1.0917	-1.85	-1.5271	252.575	277.350	127.952	399.688	380.779	278.452	386.429	387.014	426.423	431.882	114.798	374.791	333.171	406.980	292.159	131.632	0.0016769	0.00094642	0.000208	1367.2	6.4453e-06	7.1935e-06	1367.1	369.3	1.6717e-05	4.8524e-06	417.13	141.56	123.71	41.535	6.573e-06	51.55	0.00087603	0.00087119	0.00024205	1402.4	9.466e-06	9.3001e-06	1402.2	378.67	9.1837e-06	9.268e-06	431.93	146.02	126.87	43.461	9.2163e-06	53.818	358.684	165.387	184.017	96.991	224.517	229.858	96.994	101.943	221.608	180.904	101.363	105.967	106.535	110.754	257.738	109.675	-8191	255	
965.979	1	1	0	0	0.013267	0.1938	0.10607	0.16909	0.11017	0.067915	0.24896	0.11183	0.17518	0.25845	0.36765	0.093381	0.2776	0.15303	0.39683	0.11823	-0.80208	-1.9271	-1.2292	-1.5396	-1.7208	-1.0354	-2.2104	-1.6375	-1.0333	-1.8708	-1.2354	-1.4521	-1.8833	-1.225	-1.6313	-1.7062	424.124	255.684	406.330	411.528	364.510	265.008	400.382	387.209	296.624	133.666	428.257	319.166	85.495	115.595	340.128	315.477	0.0017156	0.00055772	0.00010586	1362	9.4586e-06	3.8342e-06	1367.5	366.72	1.5164e-05	1.5938e-06	419.82	141.67	122.69	41.765	5.1039e-06	51.548	0.00084781	0.00083396	0.00023142	1399.4	9.1505e-06	9.319e-06	1399.5	378.06	9.0914e-06	9.3548e-06	432.96	145.9	126.71	43.438	9.1618e-06	53.865	359.927	182.176	167.615	97.296	250.270	246.461	96.923	101.882	236.145	223.688	101.081	105.964	106.081	111.025	246.430	109.676	-8191	255	
966.076	1	1	0	0	0.28052	0.26483	0.092588	0.16541	0.265	0.060458	0.026799	0.27372	0.18444	0.20111	0.29751	0.22181	0.16858	0.030274	0.22875	0.014512	-0.60417	-1.9062	-1.2479	-1.3646	-1.8563	-1.1479	-1.8167	-1.9583	-1.1458	-1.8708	-1.3813	-1.2938	-2.1333	-1.1458	-1.7708	-1.8042	228.712	143.843	419.702	129.931	229.604	331.803	349.214	426.045	213.298	132.515	330.637	368.212	373.232	142.762	307.587	206.515	0.001784	0.00080743	0.00016078	1364.5	1.5803e-06	5.7654e-06	1367.6	366.87	1.2436e-05	7.685e-06	418.14	142.13	123.13	41.463	1.0424e-05	51.737	0.0008616	0.00083837	0.00023786	1397.9	9.1033e-06	9.2651e-06	1400.4	377.83	9.2398e-06	9.2395e-06	431.37	145.99	126.73	43.42	9.146e-06	53.858	356.685	174.229	161.201	97.320	212.577	209.777	96.999	101.880	233.246	221.177	100.929	105.544	105.917	110.455	253.174	109.610	-8191	255	
966.196	1	1	0	0	0.17089	0.15152	0.26363	0.18842	0.29457	0.014636	0.025307	0.28456	0.23385	0.14359	0.33967	0.13527	0.19857	0.34567	0.13011	0.13771	-0.68333	-1.8937	-1.3354	-1.4104	-1.8396	-1.0125	-1.7042	-1.9875	-0.95625	-1.7479	-1.6042	-1.2604	-1.9667	-1.1646	-1.2667	-1.9208	400.297	393.592	404.897	360.912	411.882	358.595	376.094	101.814	429.822	148.559	99.165	96.808	86.128	364.174	411.053	425.876	0.0017758	0.00067703	0.00013062	1358.6	1.0614e-05	4.4902e-06	1367.3	366.61	1.6461e-05	5.1488e-06	417.66	141.98	123.7	41.529	1.0439e-05	51.67	0.00085399	0.00083416	0.00023522	1398.3	9.2309e-06	9.2638e-06	1401	378.13	9.2487e-06	9.3398e-06	431.85	145.89	126.84	43.419	9.1947e-06	53.827	356.812	178.672	188.156	97.026	246.004	193.256	96.630	101.753	247.623	274.094	101.132	105.774	106.371	110.929	248.487	109.632	-8191	255	
966.291	1	1	0	0	0.17825	0.10699	0.16452	0.27889	0.16971	0.3095	0.45934	0.50834	0.19225	0.13197	0.07668	0.086398	0.18404	0.0682	0.24731	0.23846	-0.76667	-1.65	-1.5875	-1.2792	-1.7896	-1.1208	-1.6729	-2.0375	-1.1521	-1.6542	-1.8271	-1.1333	-1.9396	-1.3896	-1.2729	-1.8563	193.936	203.280	350.747	419.773	265.184	175.929	399.616	407.094	310.926	151.090	167.951	307.913	197.995	349.313	243.423	87.241	0.0016773	0.00067031	0.00013409	1358.6	7.117e-06	5.9465e-06	1370.8	367.83	9.7672e-06	5.7195e-06	418.19	141.76	122.55	41.777	1.0235e-05	51.713	0.00087719	0.00085173	0.00023764	1397.7	9.2496e-06	9.4192e-06	1400.8	378.53	9.2882e-06	9.2415e-06	432.84	145.8	126.63	43.513	9.3171e-06	53.929	359.558	155.079	180.377	97.205	245.761	254.169	96.855	101.640	251.960	225.430	100.937	105.619	106.216	110.789	246.136	109.623	-8191	255	
966.387	1	1	0	0	0.363	0.14352	0.10442	0.097582	0.21207	0.1227	0.34874	0.23735	0.13264	0.078844	0.033048	0.33408	0.11571	0.19471	0.21221	0.23148	-0.7375	-1.5833	-1.4417	-1.2979	-1.7458	-1.3042	-1.4021	-1.8833	-1.2333	-1.6625	-1.7687	-1.1521	-1.9688	-1.6063	-1.2437	-1.8729	164.119	212.531	229.238	117.399	214.168	134.990	362.580	415.406	405.838	398.098	233.352	410.859	392.596	378.669	352.120	364.923	0.0017319	0.00050275	0.00016843	1360.1	1.025e-05	8.4466e-06	1365.8	367.96	2.16e-05	5.6093e-06	419.56	141.56	123.48	41.576	9.8372e-06	51.969	0.0008689	0.00084655	0.00024152	1398.5	9.2584e-06	9.4513e-06	1399.6	378.24	9.4012e-06	9.2235e-06	432.77	145.79	126.94	43.506	9.4811e-06	54.021	357.808	159.558	146.386	96.924	226.273	230.990	96.757	101.829	215.711	201.374	101.164	105.694	106.101	110.773	254.103	109.431	-8191	255	
966.458	1	1	0	0	0.14689	0.02018	0.19733	0.24259	0.3761	0.011665	0.11629	0.1428	0.26827	0.2572	0.19092	0.068439	0.26588	0.18839	0.23305	0.29293	-0.625	-1.5187	-1.6063	-1.3937	-1.6313	-1.2479	-1.3917	-1.9771	-1.1104	-1.3958	-1.8896	-1.1562	-1.6958	-1.4958	-1.15	-1.925	440.277	105.299	208.078	413.320	344.625	386.386	306.648	346.818	441.368	241.070	441.196	137.079	111.142	380.310	197.207	372.920	0.001625	0.00046442	0.0001622	1357.9	1.1761e-05	4.994e-06	1366.5	367.89	2.4595e-05	4.0938e-06	418.06	141.64	122.96	41.823	9.9849e-06	51.681	0.00087947	0.00085308	0.00023645	1396.5	9.2737e-06	9.3488e-06	1400.3	378.3	9.1687e-06	9.1952e-06	432.01	145.85	126.91	43.529	9.1598e-06	53.935	360.673	119.688	167.374	97.101	226.179	241.832	96.771	101.968	245.220	256.842	100.904	105.473	106.316	110.476	238.051	109.356	-8191	255	
966.579	1	1	0	0	0.1795	0.11683	0.23064	0.24856	0.23398	0.11182	0.59625	0.17658	0.24952	0.35374	0.36166	0.20681	0.19425	0.39599	0.11354	0.047421	-0.78125	-1.2917	-1.8021	-1.1542	-1.5729	-1.6313	-1.275	-2.0458	-1.1833	-1.2	-2.1979	-1.2458	-1.7729	-1.8229	-0.96875	-1.8104	268.411	93.654	187.910	365.162	214.640	120.073	393.945	342.394	195.542	114.797	365.029	110.520	408.219	393.214	275.416	173.989	0.0015897	0.00055901	0.00013583	1360.9	9.1464e-06	5.4482e-06	1368.2	369.14	1.9889e-05	7.326e-06	417.87	141.59	123.08	41.595	7.7219e-06	51.605	0.00085983	0.00085004	0.00023154	1397.4	9.2423e-06	9.0975e-06	1399.2	378.04	8.9951e-06	9.2028e-06	431.82	145.67	126.51	43.471	9.1579e-06	53.822	360.238	144.940	124.485	96.672	231.724	220.367	96.416	101.596	229.562	216.674	101.009	105.727	106.281	110.717	224.072	109.668	-8191	255	
966.675	1	1	0	0	0.14186	0.10063	0.20291	0.52377	0.15442	0.22525	0.33152	0.34353	0.005522	0.19641	0.094847	0.13225	0.22978	0.15208	0.20499	0.26118	-0.88125	-1.3333	-1.8417	-1.5271	-1.4146	-1.7292	-1.3542	-2.0729	-1.4667	-1.3146	-2.2146	-1.375	-1.6167	-1.9708	-1.0021	-1.8062	320.203	102.165	170.597	378.336	370.514	260.787	100.798	421.869	340.877	431.363	401.693	116.962	360.089	434.146	102.178	399.734	0.0015963	0.00046186	0.00022822	1362.4	1.0018e-05	7.2776e-06	1367.2	368.15	1.1504e-05	6.1084e-06	420.2	141.3	123.42	41.599	9.638e-06	51.748	0.00085766	0.00083535	0.00022923	1398.7	9.0427e-06	9.0401e-06	1399.2	378.11	9.0534e-06	9.2574e-06	432.82	145.55	126.91	43.433	9.1431e-06	53.911	350.576	175.518	188.645	97.110	220.664	184.953	96.998	101.871	229.679	213.608	101.537	105.885	106.357	111.074	242.221	110.167	-8191	255	
966.771	1	1	0	0	0.093	0.030143	0.091985	0.10628	0.1269	0.30977	0.15989	0.32291	0.33525	0.34163	0.15284	0.15078	0.067822	0.11367	0.084228	0.083592	-1.1479	-1.1625	-1.7604	-1.45	-1.5479	-1.9354	-1.3333	-1.9188	-1.6479	-1.3104	-2.125	-1.3625	-1.2583	-1.9979	-1.0417	-1.875	358.717	256.526	283.643	228.422	336.745	264.143	418.395	427.537	154.852	330.091	434.784	226.254	352.301	331.344	262.364	270.516	0.0017031	0.00073777	0.00024574	1361.7	8.4074e-06	4.5543e-06	1363.1	367.68	1.8403e-05	5.0954e-06	419.5	141.37	124.27	41.554	8.0406e-06	51.802	0.0008339	0.00083832	0.00022775	1396.8	8.9789e-06	9.0777e-06	1396.1	377.61	8.828e-06	9.1932e-06	431.93	145.49	126.91	43.39	8.8968e-06	53.897	363.457	154.383	176.746	97.326	213.550	201.188	97.149	102.305	244.878	252.322	101.232	105.789	106.563	110.657	250.696	109.922	-8191	255	
966.868	1	1	0	0	0.18936	0.035307	0.21826	0.021731	0.11078	0.21728	0.081182	0.38557	0.21125	0.22815	0.31213	0.20482	0.3762	0.1378	0.15503	0.27222	-1.2833	-0.99583	-1.9375	-1.6146	-1.2667	-1.9375	-1.3583	-1.8687	-1.7208	-1.1979	-1.9937	-1.5375	-1.3208	-2.1875	-1.0708	-1.6292	345.834	183.372	438.203	348.128	280.707	285.392	430.282	428.514	342.153	114.722	370.311	392.951	86.391	357.963	206.215	359.067	0.0015576	0.0006129	0.00016121	1361.6	5.812e-06	3.228e-06	1364.2	366.96	1.4436e-05	6.5714e-06	417.9	141.42	123.1	41.676	6.581e-06	51.443	0.00082788	0.00080948	0.00022601	1395.1	8.8186e-06	9.1131e-06	1395.6	377.15	8.8627e-06	8.9578e-06	431.73	145.71	126.68	43.458	8.8787e-06	53.83	359.342	159.350	143.456	97.509	232.383	181.417	97.258	102.216	245.114	223.782	101.029	105.616	106.401	110.971	276.227	109.903	-8191	255	
966.988	1	1	0	0	0.32821	0.18403	0.25403	0.1067	0.076988	0.26277	0.37763	0.087378	0.096081	0.1585	0.22315	0.43236	0.13161	0.28401	0.0847	0.2442	-1.3917	-1.0479	-1.7771	-1.5375	-0.99792	-1.9312	-1.6792	-1.6896	-1.6792	-1.2354	-1.9854	-1.6646	-1.2958	-1.9083	-1.2417	-1.7333	144.154	289.558	296.908	428.280	124.983	221.539	325.707	361.889	349.560	225.279	414.730	382.417	152.745	373.005	190.189	340.787	0.0016498	0.00054323	0.00011874	1355.1	1.1229e-05	7.5745e-06	1362.4	365.96	1.1557e-05	5.8873e-06	419.17	141.4	123.38	41.561	6.5418e-06	51.844	0.00081926	0.00080935	0.0002267	1392.4	8.7254e-06	8.85e-06	1393.4	376.69	8.7307e-06	8.8521e-06	431.16	145.32	126.67	43.377	8.7741e-06	53.897	357.548	168.655	202.102	97.230	229.888	229.773	97.061	102.175	220.306	223.461	101.717	106.275	106.941	111.067	215.072	110.254	-8191	255	
967.084	1	1	0	0	0.10967	0.18316	0.036428	0.14026	0.10513	0.12807	0.090992	0.30569	0.12449	0.27062	0.12491	0.078171	0.099524	0.11685	0.32067	0.22703	-1.2479	-1.0542	-1.6604	-1.8563	-1.1917	-1.9312	-1.5063	-1.3646	-1.9792	-1.2521	-1.6875	-1.8396	-1.0812	-1.7979	-1.3979	-1.5583	93.851	184.644	274.844	383.239	311.252	134.057	406.350	382.513	270.934	402.415	422.987	92.109	137.910	370.026	316.820	280.386	0.0016512	0.00075389	0.00014293	1352.5	1.1294e-05	5.9277e-06	1357	366.4	1.7967e-05	3.4695e-06	415.92	141.76	122.59	41.654	8.9736e-06	51.768	0.0008144	0.00081139	0.00022205	1392.1	8.7491e-06	8.832e-06	1391.8	376.4	8.7623e-06	8.9976e-06	430.29	145.44	126.25	43.366	8.5525e-06	53.838	362.230	180.419	125.176	97.473	238.391	243.205	97.353	102.298	226.962	224.176	101.196	105.766	106.383	110.634	246.891	109.980	-8191	255	
967.156	1	1	0	0	0.13238	0.089318	0.044037	0.1354	0.27976	0.13119	0.41649	0.30837	0.021617	0.23184	0.14229	0.092427	0.37889	0.061645	0.20503	0.13522	-1.7104	-1.2271	-1.4854	-1.9208	-1.2042	-1.8125	-1.6604	-1.4146	-1.9333	-1.1604	-1.7437	-1.8375	-1.0271	-1.925	-1.4979	-1.2479	305.511	253.104	352.337	90.184	443.442	249.056	368.880	392.049	429.377	118.273	208.859	411.772	378.921	354.538	342.466	427.394	0.0017446	0.00035024	0.00013628	1356.4	7.6571e-06	3.6653e-06	1356	365.8	1.9732e-05	7.4619e-06	415.52	141.7	122.42	41.525	7.664e-06	51.756	0.0008188	0.00079934	0.00022199	1390.1	8.8272e-06	8.7151e-06	1391.2	376.26	8.5563e-06	8.8619e-06	429.78	145.29	126.16	43.339	8.6568e-06	53.902	355.859	185.325	193.406	97.297	223.187	189.181	97.139	102.115	251.138	219.663	101.539	105.881	106.656	110.897	247.712	109.767	-8191	255	
967.277	1	1	0	0	0.1031	0.3306	0.28089	0.17906	0.19861	0.17995	0.20744	0.034308	0.07986	0.13553	0.20713	0.19143	0.1396	0.3672	0.020143	0.30881	-1.6	-1.2563	-1.4042	-1.9042	-1.0458	-1.625	-1.9771	-1.3563	-1.9	-1.3667	-1.4896	-2.0042	-1.0875	-1.8333	-1.5833	-1.2021	240.885	211.154	96.990	122.071	127.323	369.174	359.140	350.338	302.481	328.892	171.184	382.580	424.377	280.655	182.665	377.536	0.0015858	0.00053279	0.00020167	1352.2	9.1861e-06	5.0293e-06	1362	365.84	2.0585e-05	6.8195e-06	417.89	141.31	122.43	41.577	6.8639e-06	51.394	0.00081407	0.00079915	0.00021881	1391.3	8.653e-06	8.6569e-06	1393.9	376.44	8.502e-06	8.6906e-06	430.55	145.19	126.27	43.348	8.6547e-06	53.656	355.773	172.192	178.164	97.022	226.087	240.233	96.727	102.134	214.152	281.980	101.546	105.978	106.361	110.851	244.722	110.080	-8191	255	
967.371	1	1	0	0	0.068111	0.48633	0.26262	0.50347	0.12604	0.10513	0.2846	0.39594	0.11499	0.36018	0.31794	0.33503	0.10702	0.21115	0.042894	0.37831	-1.4958	-1.3875	-1.2812	-2.1813	-1.1833	-1.7146	-2.0438	-1.3917	-1.9729	-1.4292	-1.6854	-2.0292	-1.3625	-1.6167	-1.6479	-1.1917	419.226	284.732	284.795	423.113	354.293	266.569	442.426	421.471	325.534	354.699	389.597	346.660	86.192	346.860	296.344	350.519	0.0017598	0.00046412	0.00025316	1351.8	7.9217e-06	6.6841e-06	1361.2	365.75	1.5566e-05	5.1949e-06	414.88	141.08	122.5	41.443	1.0563e-06	51.562	0.00081002	0.0007923	0.00022173	1390.4	8.5648e-06	8.6628e-06	1391.2	375.89	8.434e-06	8.5586e-06	429.27	144.93	126.09	43.291	8.3409e-06	53.651	356.552	178.618	167.358	97.212	223.555	276.705	97.030	102.122	269.203	280.630	101.530	105.906	106.372	110.756	289.145	109.488	-8191	255	
967.467	1	1	0	0	0.16702	0.23641	0.16308	0.14145	0.37882	0.1332	0.11254	0.26002	0.29151	0.24062	0.12674	0.14677	0.19194	0.080474	0.14396	0.25907	-1.4375	-1.5771	-1.1667	-2.1083	-1.1979	-1.5104	-1.9604	-1.2604	-1.7104	-1.5333	-1.2437	-1.9333	-1.4167	-1.625	-2.0167	-1.2208	372.829	194.394	129.248	397.372	259.863	379.961	417.161	85.668	186.594	176.067	346.896	431.505	361.621	389.559	246.867	271.733	0.0016911	0.00060618	0.00018378	1350.9	9.6829e-06	4.7759e-06	1357.6	365.16	1.6913e-05	4.8896e-06	415.87	141.1	122.71	41.412	4.8347e-06	51.585	0.00080284	0.00077289	0.00022029	1388.7	8.4709e-06	8.6034e-06	1390.8	376	8.4249e-06	8.5938e-06	429.45	145.09	126.25	43.282	8.5946e-06	53.699	358.883	154.027	169.012	96.930	204.002	216.418	96.745	101.930	221.058	221.735	101.000	105.416	106.313	110.852	246.780	109.703	-8191	255	
967.588	1	1	0	0	0.23569	0.1306	0.11123	0.19025	0.30478	0.11444	0.18528	0.25328	0.11713	0.043088	0.24114	0.27567	0.30879	0.085168	0.20704	0.22275	-1.5604	-1.6792	-1.0792	-2.1667	-1.4146	-1.4708	-2.3125	-1.3521	-1.6708	-1.7042	-1.2542	-2.0208	-1.475	-1.3646	-1.9021	-1.4604	380.760	92.600	268.372	351.643	388.675	281.473	353.023	400.168	288.116	225.004	334.883	394.644	373.876	310.598	400.511	398.441	0.0017123	0.00041333	0.00016348	1352.1	9.2623e-06	8.119e-06	1359.3	365.63	1.7934e-05	6.3932e-06	413.91	141.5	123.63	41.714	8.671e-06	51.267	0.00081357	0.00080114	0.00022355	1387.8	8.5999e-06	8.8819e-06	1389	375.81	8.7208e-06	8.8628e-06	429.22	145.22	126.31	43.328	8.6779e-06	53.628	356.477	148.216	172.144	97.330	210.696	230.700	96.666	101.756	209.426	254.884	101.023	105.996	106.458	111.445	249.603	109.565	-8191	255	
967.684	1	1	0	0	0.05563	0.13515	0.18363	0.093457	0.33732	0.087242	0.3529	0.2338	0.20535	0.13507	0.24268	0.24614	0.030229	0.24518	0.34138	0.20255	-1.4292	-1.7104	-1.0479	-1.9417	-1.4708	-1.4583	-2.2104	-1.5917	-1.5479	-1.8604	-1.2604	-1.8813	-1.6479	-1.2375	-1.9979	-1.7479	269.827	236.559	387.233	392.208	411.807	161.351	410.275	393.787	102.859	173.679	316.599	399.987	360.662	249.427	210.776	134.376	0.0015406	0.00056437	0.00012211	1351.7	6.9249e-06	2.9476e-06	1353.7	365.32	9.8822e-06	2.6759e-06	416.66	141.24	122.29	41.558	5.4129e-06	51.489	0.00081707	0.00078787	0.0002252	1388.1	8.7559e-06	8.7597e-06	1390.2	375.41	8.8372e-06	8.9304e-06	430.16	145.34	125.99	43.348	8.9488e-06	53.7	355.016	183.738	204.228	97.491	202.538	219.288	97.011	102.130	256.171	232.642	101.334	105.559	106.417	110.802	220.421	110.357	-8191	255	
967.756	1	1	0	0	0.18115	0.21005	0.20047	0.23171	0.25755	0.17287	0.23914	0.25909	0.11167	0.16279	0.17961	0.030694	0.22814	0.04931	0.21132	0.08431	-1.1917	-1.9062	-1.1354	-2.175	-1.7208	-1.2854	-2.2875	-1.5875	-1.4708	-2	-1.2771	-1.6896	-1.8396	-1.2896	-2	-1.6708	119.966	306.959	98.059	425.641	341.450	285.333	360.431	440.518	234.332	226.285	96.786	359.428	411.933	414.177	132.047	255.574	0.0015737	0.00069515	0.00019366	1353.5	6.1144e-06	5.5614e-06	1359.7	365.76	1.8482e-05	5.9661e-06	417.67	141.48	122.39	41.538	8.5843e-06	51.137	0.0008445	0.00082043	0.00023037	1388.7	8.9293e-06	8.9979e-06	1390.9	375.81	8.786e-06	8.9497e-06	429.81	145.1	126.1	43.243	8.6754e-06	53.605	357.836	153.344	206.904	97.287	237.399	159.406	97.093	101.923	234.866	215.720	101.738	106.247	106.657	111.101	253.567	110.075	-8191	255	
967.876	1	1	0	0	0.19473	0.10208	0.22643	0.12693	0.48391	0.2044	0.3283	0.30296	0.28111	0.19857	0.1655	0.24571	0.16136	0.01828	0.12388	0.19601	-1.0083	-1.7938	-1.1979	-1.75	-1.7833	-1.1562	-2.1021	-1.4875	-1.4937	-2.0896	-1.3646	-1.6958	-1.975	-1.2188	-1.7313	-1.6646	404.395	136.334	439.359	287.697	174.469	301.121	95.675	395.592	327.414	244.915	348.257	400.373	408.518	280.735	311.147	285.318	0.0016874	0.00034278	0.0002626	1354.3	5.4327e-06	4.1641e-06	1359.5	365.16	1.2624e-05	2.5737e-06	414.09	140.69	122.37	41.234	7.2179e-06	51.529	0.00082407	0.00080221	0.00022417	1388.7	8.7652e-06	8.7924e-06	1390.3	375.5	8.6383e-06	8.8003e-06	428.66	145.06	125.87	43.164	8.5525e-06	53.582	362.126	149.058	169.993	97.247	273.849	243.383	97.364	101.867	252.200	269.611	101.393	106.009	106.314	110.769	243.703	109.644	-8191	255	
967.972	1	1	0	0	0.26532	0.18893	0.16101	0.097882	0.015283	0.12155	0.32373	0.37945	0.15783	0.1102	0.30734	0.25467	0.084437	0.095903	0.026852	0.3517	-0.74375	-1.8604	-1.2542	-1.6604	-2.0438	-1.1729	-2.0729	-1.7375	-1.2604	-2.1063	-1.3396	-1.725	-1.9083	-1.3521	-1.7979	-1.8021	295.455	439.705	321.996	349.522	164.571	117.498	366.611	432.485	372.514	163.637	87.887	111.871	116.350	233.886	269.135	379.391	0.0017541	0.00076626	0.00017579	1351.5	8.6961e-06	4.007e-06	1353	364.65	9.6515e-06	5.2605e-06	414.22	140.72	122.42	41.264	1.0253e-05	51.31	0.00081372	0.00079069	0.00022309	1386.9	8.5103e-06	8.7486e-06	1385.9	374.47	8.5542e-06	8.4764e-06	429.01	144.76	125.91	43.206	8.3866e-06	53.591	357.232	179.492	157.746	97.405	244.583	223.712	97.225	102.169	213.079	241.626	101.389	106.353	106.393	111.185	228.197	109.854	-8191	255	
968.069	1	1	0	0	0.121	0.19831	0.16597	0.24704	0.17545	0.026055	0.29157	0.12877	0.14212	0.16123	0.19269	0.12875	0.2321	0.14648	0.14087	0.22744	-0.675	-1.6396	-1.3896	-1.6604	-1.8438	-1.2188	-2.05	-1.8687	-1.0604	-1.9125	-1.7583	-1.4583	-2.1	-1.1313	-1.6562	-1.9813	218.913	170.069	415.680	430.403	215.068	152.617	347.153	393.306	317.269	178.748	441.182	305.739	185.683	416.033	111.981	370.354	0.0015694	0.00040877	0.00022242	1349.7	7.2396e-06	6.8009e-06	1355.9	364.43	1.5469e-05	7.2089e-06	415.34	141.07	122.61	41.316	7.2213e-06	51.246	0.00079519	0.00077876	0.000218	1386.8	8.4291e-06	8.6504e-06	1387.4	374.63	8.4963e-06	8.5499e-06	429	145.14	125.94	43.159	8.6462e-06	53.553	358.797	175.086	164.157	97.551	218.757	246.387	97.186	102.067	223.960	268.114	101.263	106.178	106.783	111.023	244.508	109.805	-8191	255	
968.165	1	1	0	0	0.059339	0.13727	0.33541	0.051455	0.24174	0.11069	0.25211	0.15107	0.15338	0.16578	0.1523	0.11832	0.1115	0.093922	0.14553	0.2023	-0.60833	-1.9062	-1.525	-1.4479	-2.05	-1.2812	-1.8833	-1.8937	-1.1	-2.0187	-1.7396	-1.3458	-1.9062	-1.2604	-1.5896	-1.8729	197.099	133.080	364.208	434.840	364.654	193.869	266.966	88.056	171.845	256.824	395.724	408.082	312.248	370.154	248.343	390.624	0.0016992	0.00057911	0.00014354	1351.3	9.6269e-06	7.0491e-06	1357.6	366.45	1.854e-05	2.9268e-06	417.45	141.26	122.65	41.455	9.371e-06	51.497	0.00082864	0.00079777	0.00022116	1388.9	8.7994e-06	8.8276e-06	1390.1	376.34	8.7557e-06	8.8014e-06	429.46	145.33	126.26	43.27	8.6664e-06	53.682	361.251	185.276	150.962	97.156	278.148	208.322	97.204	101.962	264.528	238.765	100.940	105.718	106.827	111.548	216.159	109.984	-8191	255	
968.284	1	1	0	0	0.1852	0.2197	0.25872	0.22282	0.075059	0.2047	0.12614	0.14554	0.19292	0.25595	0.020825	0.14715	0.035594	0.32216	0.31673	0.28744	-0.5625	-1.7812	-1.5354	-1.2375	-2.1542	-1.25	-1.6979	-1.9854	-1.0896	-1.7625	-1.8604	-1.3208	-2.0312	-1.5375	-1.3563	-1.9896	341.390	302.239	281.223	422.025	399.671	396.269	174.215	425.704	169.636	264.160	322.808	416.137	247.372	383.975	351.015	380.104	0.0016507	0.00029827	0.00026925	1354.8	9.4298e-06	7.2974e-06	1357.8	365.58	1.7041e-05	6.4933e-06	415.29	140.76	122.28	41.527	7.1859e-06	51.529	0.00082	0.0007989	0.00022428	1391.1	8.727e-06	8.8428e-06	1389.7	375.56	8.7927e-06	9.0395e-06	429.1	145.02	126.09	43.257	8.9249e-06	53.666	354.568	169.147	177.964	97.535	250.110	227.045	97.185	102.346	233.576	252.842	101.394	106.543	106.846	111.181	247.062	109.810	-8191	255	
968.380	1	1	0	0	0.14411	0.090135	0.055218	0.32216	0.10079	0.1235	0.30508	0.21773	0.13004	0.18298	0.041089	0.33592	0.1108	0.14279	0.13499	0.15597	-0.75208	-1.4854	-1.5562	-1.1313	-1.7229	-1.4833	-1.6021	-2.0583	-1.1292	-1.6896	-1.9042	-1.3104	-2.0958	-1.3167	-1.3604	-2.0958	323.990	213.678	363.283	405.198	339.575	217.794	362.789	404.108	145.887	102.406	424.779	394.192	122.803	419.043	271.106	104.304	0.001722	0.00069974	0.00014264	1351.2	1.071e-05	3.8422e-06	1359.9	365.02	1.409e-05	4.8206e-06	416.21	140.63	123.05	41.495	8.3133e-06	51.549	0.00085229	0.00081555	0.00023107	1387.6	9.0281e-06	9.1003e-06	1390.1	375.27	9.0838e-06	9.1304e-06	429.4	145.12	126.4	43.286	9.2165e-06	53.785	356.538	166.246	178.085	97.377	235.742	261.500	97.357	102.099	253.244	275.413	101.144	106.294	106.390	110.863	263.314	110.124	-8191	255	
968.451	1	1	0	0	0.30636	0.28569	0.17265	0.20332	0.14049	0.38359	0.30977	0.091153	0.33816	0.21497	0.1644	0.12094	0.11179	0.067385	0.080954	0.061213	-0.9875	-1.6021	-1.7229	-1.4125	-1.7333	-1.6167	-1.4125	-2.1437	-1.275	-1.5667	-1.9813	-1.3	-1.9375	-1.8896	-1.2417	-2.0854	101.831	172.815	338.871	334.383	250.794	356.412	374.185	86.476	254.183	369.260	412.456	249.840	93.556	275.254	277.275	279.745	0.0016767	0.00056157	0.00016083	1354.7	8.2268e-06	6.3291e-06	1352.4	364.05	1.3147e-05	6.0395e-06	414.57	141.33	122.72	41.434	9.8927e-06	51.616	0.00085316	0.00083979	0.00023797	1388.6	9.1894e-06	9.1087e-06	1390.2	375.86	9.0511e-06	9.3344e-06	429.56	145.17	126.34	43.261	9.0449e-06	53.75	357.603	146.614	176.253	97.280	220.176	224.628	97.154	102.035	253.457	220.783	101.413	106.070	106.926	111.058	226.906	109.923	-8191	255	
968.549	1	1	0	0	0.065488	0.11624	0.20409	0.20443	0.15076	0.14718	0.28839	0.19641	0.17059	0.17528	0.10321	0.35983	0.29595	0.092933	0.078032	0.0485	-1.0021	-1.4	-1.6854	-1.4208	-1.5562	-1.8292	-1.5729	-1.9833	-1.4	-1.2687	-2.2562	-1.5125	-1.8896	-1.8146	-1.2917	-1.95	317.735	100.559	406.084	388.893	364.590	136.585	342.751	104.106	267.346	324.762	100.992	378.376	112.719	138.790	384.995	323.079	0.0016038	0.00040039	0.00017685	1350.3	6.9158e-06	9.0406e-06	1361.1	365.87	1.5175e-05	5.689e-06	415.9	141.18	123.56	41.587	5.9333e-06	51.694	0.0008353	0.00082366	0.00022845	1389.9	8.6892e-06	9.0762e-06	1392.4	376.29	8.8352e-06	9.0156e-06	429.94	145.09	126.63	43.376	8.9242e-06	53.756	359.861	155.526	183.971	97.064	223.836	225.284	96.983	102.033	250.482	216.203	101.421	106.482	106.726	110.941	276.011	110.022	-8191	255	
968.668	1	1	0	0	0.1121	0.19198	0.11458	0.26588	0.1352	0.1904	0.09201	0.21036	0.23824	0.034528	0.30339	0.071923	0.14017	0.21598	0.16465	0.15977	-1.1979	-1.2708	-2.0938	-1.4438	-1.7	-1.8979	-1.3833	-2.0917	-1.4542	-1.2625	-2.0875	-1.3687	-1.5771	-2.1833	-1.1333	-1.9354	241.672	301.366	400.577	385.601	239.534	324.882	95.571	400.768	402.828	209.049	433.248	227.980	377.089	233.668	229.299	117.768	0.0017133	0.00018317	0.00016693	1350.7	6.1453e-06	5.6862e-06	1360.2	365.51	1.1207e-05	1.6399e-06	416.64	141.35	122.46	41.441	4.361e-06	51.69	0.00082103	0.00081463	0.00022653	1389.4	8.6908e-06	8.9465e-06	1392.5	376.25	8.6916e-06	8.8145e-06	429.49	145.22	126.2	43.321	8.5027e-06	53.734	358.202	194.457	161.014	97.512	236.856	260.658	97.365	102.523	233.094	217.411	101.635	105.942	106.976	111.223	213.575	110.082	-8191	255	
968.764	1	1	0	0	0.16469	0.39294	0.063992	0.43354	0.20362	0.15794	0.29863	0.25297	0.047302	0.11084	0.17247	0.21604	0.241	0.17445	0.045429	0.13133	-1.0667	-1.3729	-1.8917	-1.5604	-1.3021	-1.9333	-1.4229	-1.8563	-1.6729	-1.2375	-2.1188	-1.4333	-1.4458	-2.1063	-1.2042	-1.725	246.323	440.559	144.894	421.418	314.479	96.810	357.674	356.024	346.877	322.631	356.111	434.952	156.660	275.781	217.994	104.948	0.0015518	0.00038463	0.00015789	1348.1	7.9655e-06	9.8488e-06	1358.6	365.48	7.0204e-06	4.6643e-06	415.96	141.62	122.6	41.494	6.4903e-06	51.446	0.00082014	0.00080231	0.00022057	1388	8.6548e-06	8.7262e-06	1389.6	375.39	8.6866e-06	8.7414e-06	429.5	145.38	126.26	43.248	8.6696e-06	53.674	351.445	179.733	199.378	97.361	240.590	234.056	97.219	102.331	233.529	238.165	101.924	106.216	106.865	111.012	224.867	110.399	-8191	255	
968.860	1	1	0	0	0.18444	0.10814	0.21734	0.085263	0.16953	0.16282	0.46457	0.32491	0.093223	0.11115	0.22366	0.33648	0.30847	0.16864	0.21507	0.087981	-1.3687	-1.0312	-1.9083	-1.575	-1.3438	-2.1333	-1.3833	-1.6812	-1.8813	-1.1063	-2.1188	-1.8062	-1.3563	-2.2833	-1.2854	-1.6958	296.859	407.299	144.942	373.394	163.810	129.113	412.455	380.878	237.955	360.832	377.862	373.426	416.661	403.388	348.441	332.873	0.0016876	0.00036191	0.00018068	1349.1	1.2059e-05	3.8236e-06	1357.5	364.62	1.1898e-05	7.0745e-06	415.97	141.18	123.15	41.53	7.1566e-06	51.533	0.00080075	0.00077705	0.00021887	1386.3	8.5085e-06	8.5057e-06	1388	374.96	8.3667e-06	8.4314e-06	429.47	144.82	126.35	43.206	8.2636e-06	53.632	359.105	165.603	181.704	97.811	213.997	184.280	97.279	102.449	213.854	228.854	102.079	106.235	106.627	111.230	226.666	110.267	-8191	255	
968.957	1	1	0	0	0.12161	0.15243	0.051718	0.30581	0.063425	0.086116	0.095798	0.20213	0.1519	0.2165	0.12191	0.23026	0.35132	0.082902	0.092565	0.08657	-1.4104	-1.1458	-1.7229	-1.9333	-1.225	-1.8563	-1.5604	-1.5021	-1.9896	-1.1958	-1.8021	-1.6812	-1.2729	-2.0146	-1.2604	-1.4854	369.657	280.593	216.982	109.589	152.977	331.179	341.071	342.185	301.165	438.475	84.628	339.875	426.755	422.628	269.332	259.330	0.0016639	0.00061558	0.00023524	1350.6	9.918e-06	4.2127e-06	1357	364.07	1.619e-05	3.6119e-06	415.16	140.86	122.9	41.518	6.9811e-06	51.523	0.00077087	0.00075181	0.00020585	1386.5	8.1639e-06	8.2961e-06	1387.4	375.38	7.9222e-06	8.2287e-06	428.02	144.94	125.89	43.205	7.8678e-06	53.618	359.160	220.457	170.481	97.361	246.895	238.069	97.142	102.305	225.815	244.402	101.913	106.000	107.059	111.054	258.006	109.848	-8191	255	
969.053	1	1	0	0	0.12863	0.20392	0.089163	0.47108	0.20893	0.11768	0.31321	0.21072	0.089553	0.10448	0.26798	0.19899	0.05211	0.20023	0.40629	0.24801	-1.5292	-1.2354	-1.7354	-1.7896	-1.1667	-1.9083	-1.6021	-1.4896	-2.0729	-1.2812	-1.8	-1.95	-1.2042	-1.9792	-1.5875	-1.4833	363.568	385.398	291.507	372.938	299.820	367.149	341.338	323.385	162.828	419.155	401.850	326.271	102.324	306.022	287.003	124.864	0.001608	0.00065884	0.00024019	1348.7	8.5931e-06	8.5336e-06	1351.7	363.71	1.6428e-05	6.0947e-06	414.3	141.23	122.45	41.439	3.5476e-06	51.359	0.00075434	0.00073784	0.00020527	1384	7.9643e-06	7.9969e-06	1383	374.32	8.0671e-06	8.0574e-06	428.5	144.89	125.72	43.246	7.8266e-06	53.567	355.297	163.945	172.703	97.580	238.006	253.031	97.329	102.364	234.255	212.159	101.239	105.865	106.884	111.101	209.069	109.900	-8191	255	
969.149	1	1	0	0	0.22793	0.088843	0.21596	0.2589	0.15528	0.13365	0.31462	0.10353	0.11348	0.039742	0.22887	0.22449	0.28238	0.1665	0.27536	0.12071	-1.5333	-1.1458	-1.4479	-2.0104	-1.2604	-1.9896	-1.6396	-1.4396	-1.8375	-1.0604	-1.7917	-1.9875	-1.0896	-1.7354	-1.5688	-1.1313	122.302	293.751	219.976	365.648	311.513	92.652	390.669	210.638	232.877	120.066	340.126	427.573	86.653	102.737	360.944	408.971	0.0017347	0.0004845	0.00013052	1349.5	4.0427e-06	3.6529e-06	1351.3	363.72	5.7203e-06	3.6601e-06	415.64	141.59	122.59	41.531	4.0841e-06	51.588	0.00074669	0.00073337	0.00020235	1383.5	7.9914e-06	7.8926e-06	1383.4	374	7.8884e-06	8.1013e-06	427.91	144.91	125.76	43.185	7.9921e-06	53.556	360.523	173.542	188.540	97.250	228.589	227.120	97.109	102.381	247.221	254.021	100.933	105.947	106.572	111.110	286.727	110.030	-8191	255	
969.270	1	1	0	0	0.19224	0.19841	0.3311	0.33954	0.20301	0.17116	0.22185	0.36	0.083792	0.25897	0.22174	0.09779	0.26844	0.069327	0.071813	0.13923	-1.3375	-1.3042	-1.5312	-2.0542	-1.1	-1.6646	-1.6917	-1.2896	-1.8604	-1.4354	-1.5812	-2.0938	-1.1437	-1.4958	-1.5229	-1.3521	145.559	310.555	428.835	362.537	400.618	298.632	395.566	369.511	200.724	327.140	151.511	433.832	84.425	108.153	140.105	326.417	0.001717	0.00047419	0.00020497	1350.7	9.9422e-06	4.1632e-06	1347.5	365.06	1.6678e-05	6.9502e-06	412.96	140.81	122.36	41.449	7.8024e-06	51.343	0.00075394	0.00072152	0.00020506	1383.2	7.8864e-06	7.8405e-06	1383.4	374.67	7.5957e-06	7.9548e-06	427	144.72	125.71	43.204	7.8563e-06	53.6	358.042	143.535	180.281	97.492	198.783	237.423	97.511	102.147	247.487	248.858	101.309	105.967	106.720	110.967	254.986	109.948	-8191	255	
969.364	1	1	0	0	0.18197	0.2007	0.28089	0.19697	0.17628	0.12109	0.062678	0.1467	0.064427	0.19843	0.41274	0.14638	0.24827	0.030911	0.33764	0.17645	-1.6146	-1.3604	-1.4438	-2.275	-1.025	-1.6625	-2.0312	-1.175	-1.9604	-1.2979	-1.3583	-2.1188	-1.4	-1.7062	-1.5792	-1.1229	289.081	179.298	404.128	143.908	94.248	336.049	272.567	399.629	136.710	347.704	379.216	416.064	96.009	347.276	320.179	216.524	0.0017261	0.00067489	0.00014028	1349.8	8.2358e-06	2.2925e-06	1353.3	364.32	1.2471e-05	7.7423e-06	415.12	141.39	122.74	41.417	5.0666e-06	51.57	0.00075801	0.00071829	0.00020541	1383	8.0751e-06	8.0045e-06	1385.7	374.71	8.0092e-06	8.2585e-06	427.99	144.79	125.93	43.244	8.0085e-06	53.66	358.309	206.146	165.526	97.500	220.107	231.752	96.932	102.216	214.361	231.794	101.604	105.905	106.877	111.189	229.078	110.167	-8191	255	
969.460	1	1	0	0	0.23541	0.13113	0.36273	0.28803	0.32724	0.14741	0.15816	0.024667	0.06666	0.14804	0.36551	0.38354	0.40089	0.25432	0.077623	0.19516	-1.4542	-1.5958	-1.15	-1.9833	-1.2167	-1.3042	-2.125	-1.1375	-1.7563	-1.4708	-1.1479	-1.8479	-1.2437	-1.4521	-1.9562	-1.1979	145.417	292.698	294.703	441.149	105.591	442.605	362.506	102.754	90.546	160.698	425.953	393.617	192.682	100.762	382.662	199.885	0.0016862	0.00025246	0.00020245	1347.5	8.2836e-06	3.7764e-06	1347.5	364.59	1.0249e-05	7.6361e-06	415.73	141	122.47	41.387	9.9358e-06	51.584	0.00076622	0.00074068	0.00020501	1383.4	8.0322e-06	8.0525e-06	1382.4	374.28	7.9086e-06	8.1583e-06	428.18	144.98	125.85	43.233	7.7761e-06	53.681	361.003	131.581	149.963	97.511	235.582	236.775	96.981	101.931	215.085	232.502	101.640	105.986	106.772	110.951	247.262	110.170	-8191	255	
969.556	1	1	0	0	0.14946	0.1679	0.19681	0.36829	0.00939	0.11322	0.10918	0.02523	0.1031	0.18907	0.33407	0.3129	0.15144	0.34924	0.10727	0.24095	-1.2	-1.625	-1.1104	-1.95	-1.325	-1.1938	-2.1333	-1.35	-1.7104	-1.7938	-1.2729	-2.0333	-1.3229	-1.4271	-1.8729	-1.3979	256.374	147.925	189.404	401.820	113.010	119.900	140.291	347.304	340.971	237.650	336.405	419.491	93.906	132.247	110.621	114.971	0.001703	0.00063045	0.00011264	1348.3	7.7243e-06	2.1766e-06	1354.3	363.52	1.894e-05	6.6974e-06	414.73	141.13	122.48	41.622	7.2856e-06	51.685	0.00074669	0.00071881	0.00020223	1383.5	7.6997e-06	7.7858e-06	1383.9	374.64	7.6667e-06	7.6924e-06	427.98	145.06	125.99	43.314	7.3321e-06	53.724	361.709	141.076	182.969	97.250	238.961	305.315	97.101	102.231	246.300	229.112	101.077	105.399	106.393	111.389	269.674	109.890	-8191	255	
969.652	1	1	0	0	0.21256	0.2546	0.054088	0.37237	0.12965	0.20238	0.12971	0.2034	0.22021	0.37011	0.077479	0.32652	0.17081	0.10638	0.30778	0.1149	-1.1479	-1.65	-1.3813	-2.2854	-1.4708	-1.2625	-1.9979	-1.3396	-1.6854	-1.9833	-1.1771	-1.9604	-1.6187	-1.4917	-1.9833	-1.4833	223.255	220.201	274.699	87.130	414.788	388.577	427.881	368.671	148.888	336.350	84.356	109.370	411.348	226.185	412.506	145.835	0.0016443	0.00028786	0.00017553	1345.2	1.0516e-05	3.5685e-06	1350.8	362.59	2.4253e-05	5.1372e-06	415.83	140.99	122.29	41.573	7.5852e-06	51.177	0.0007118	0.00067692	0.00019117	1382	7.4466e-06	7.5034e-06	1382.5	373.41	7.4484e-06	7.4817e-06	427.12	144.78	125.64	43.294	7.4807e-06	53.411	360.167	171.866	180.673	97.080	211.955	229.066	96.763	101.903	250.239	236.262	101.334	105.861	106.225	110.494	247.062	109.991	-8191	255	
969.749	1	1	0	0	0.27337	0.10371	0.13507	0.099679	0.067458	0.12118	0.29519	0.2958	0.077144	0.22876	0.14375	0.15376	0.13738	0.15615	0.11977	0.14845	-1.0583	-1.775	-1.4417	-2.2104	-1.4479	-1.2167	-2.2167	-1.6458	-1.4542	-1.9375	-1.2583	-1.9271	-1.8167	-1.1542	-1.8917	-1.4312	348.848	236.518	162.588	132.169	132.029	219.348	351.367	86.792	121.228	244.421	98.955	330.088	138.311	389.083	231.290	396.906	0.0017078	0.00067414	0.00016695	1338.5	7.1767e-06	6.8644e-06	1342.6	362.78	1.364e-05	7.9296e-06	412.95	140.02	121.39	41.379	7.1419e-06	50.984	0.00074358	0.00070477	0.00019771	1380.4	7.7669e-06	7.8825e-06	1382.8	373.52	7.8315e-06	7.7158e-06	427.11	144.62	125.46	43.254	7.7048e-06	53.423	356.634	166.863	184.864	97.022	240.424	221.993	97.294	101.960	238.910	250.075	101.160	106.122	106.170	110.691	229.773	109.045	-8191	255	
969.845	1	1	0	0	0.19539	0.10098	0.18291	0.17918	0.12072	0.15286	0.30772	0.20701	0.15697	0.14704	0.27403	0.19858	0.21104	0.18652	0.10344	0.25688	-0.89583	-2.1854	-1.1375	-1.7354	-1.8229	-1.3417	-2.0438	-1.5875	-1.275	-1.9833	-1.4854	-1.6833	-1.9042	-1.2313	-1.8188	-1.6	325.697	397.726	346.940	405.831	155.020	376.450	394.889	379.789	175.843	313.280	329.688	333.423	420.970	323.013	275.727	438.853	0.0017294	0.00049973	0.00016577	1335.5	9.8704e-06	2.888e-06	1344.8	360.9	1.414e-05	5.4966e-06	411.43	139.76	121.94	41.45	8.8414e-06	51.034	0.00072921	0.00069591	0.00019515	1378.6	7.5548e-06	7.6759e-06	1381.5	372.77	7.3727e-06	7.2945e-06	426.13	144.37	125.33	43.154	7.2795e-06	53.46	356.098	141.544	168.711	97.281	237.637	239.412	96.778	101.986	262.328	256.767	101.265	105.894	106.391	110.915	255.355	109.687	-8191	255	
969.965	1	1	0	0	0.44599	0.15573	0.16142	0.23073	0.030458	0.3323	0.15276	0.20021	0.04157	0.11583	0.15782	0.15415	0.082555	0.15363	0.37228	0.10831	-0.76458	-1.9854	-1.2104	-1.7521	-1.7458	-1.1458	-2.075	-1.7125	-1.1854	-1.7792	-1.5312	-1.5958	-2.0438	-1.3	-1.8542	-1.6229	276.366	369.753	345.687	357.394	315.194	217.923	366.639	383.896	361.907	258.205	428.255	252.632	275.356	371.552	385.130	293.360	0.0015634	0.00014718	0.00013903	1339.3	8.4521e-06	8.7146e-06	1339.8	361.14	5.767e-06	5.8909e-06	411.5	139.99	121.75	41.32	4.6541e-06	51.142	0.00071231	0.00067411	0.00018904	1378.1	7.403e-06	7.4899e-06	1378.6	372.99	7.5202e-06	7.558e-06	426.81	144.44	125.49	43.158	7.5409e-06	53.532	356.168	153.663	177.037	97.035	239.458	225.500	97.075	101.671	227.070	249.642	101.027	105.746	106.477	110.488	215.592	109.805	-8191	255	
970.061	1	1	0	0	0.10979	0.24854	0.22827	0.17259	0.055598	0.028343	0.14289	0.26191	0.16043	0.073877	0.19802	0.20444	0.20176	0.18542	0.18931	0.50575	-0.70833	-1.7521	-1.2917	-1.3188	-1.8833	-1.2	-1.9312	-1.7917	-1.2979	-1.8104	-1.4562	-1.4729	-2.0875	-1.2979	-1.475	-1.9417	327.159	351.871	119.596	425.284	309.680	379.754	396.708	384.666	277.552	365.528	329.403	406.743	99.004	127.648	276.337	393.250	0.0016208	0.00060713	0.00019545	1335.8	9.5907e-06	5.7185e-06	1347.2	360	1.5769e-05	5.7831e-06	411.27	140.06	121.73	41.225	1.0443e-05	50.936	0.00073384	0.00069205	0.0001923	1380.7	7.6456e-06	7.7734e-06	1382	372.65	7.624e-06	7.6641e-06	426.29	144.58	125.61	43.131	7.6877e-06	53.434	353.136	170.942	146.688	96.790	222.601	221.714	96.816	101.556	243.242	223.410	101.185	105.694	106.118	110.780	280.806	109.932	-8191	255	
970.156	1	1	0	0	0.202	0.097428	0.27357	0.30288	0.026808	0.086276	0.28916	0.091535	0.081764	0.048079	0.20291	0.17722	0.085869	0.075791	0.33597	0.18273	-0.63542	-1.9979	-1.4396	-1.4937	-1.9542	-1.1583	-1.8396	-2.0521	-1.2729	-1.8625	-1.6	-1.1646	-1.9146	-1.2333	-1.6771	-1.975	395.190	381.738	223.334	419.078	433.010	261.260	294.874	393.868	259.765	400.547	421.423	179.626	133.971	406.874	372.090	101.945	0.0016704	0.00072306	0.00013468	1336.2	1.1001e-05	4.2062e-06	1340.5	362.09	1.5947e-05	5.6922e-06	410.01	139.86	121.53	41.344	8.4066e-06	51.035	0.00073108	0.00069491	0.00019704	1377.8	7.603e-06	7.5872e-06	1379.1	372.99	7.5774e-06	7.5117e-06	426.36	144.52	125.34	43.097	7.3868e-06	53.427	357.621	173.245	203.746	96.736	208.163	223.551	96.797	101.581	245.891	243.494	101.366	105.998	105.951	110.188	251.481	109.859	-8191	255	
970.252	1	1	0	0	0.18585	0.3301	0.22607	0.34729	0.20103	0.16436	0.37461	0.23833	0.23164	0.39536	0.17227	0.072585	0.19381	0.2318	0.14483	0.23928	-0.75	-1.6458	-1.6958	-1.2479	-1.775	-1.3125	-1.6604	-2.1083	-1.0604	-1.8062	-1.7354	-1.3896	-1.8771	-1.3875	-1.3	-2.1375	269.213	322.371	404.372	365.338	184.309	432.319	336.930	392.277	371.473	291.874	410.647	139.995	84.970	413.052	338.662	184.222	0.0016399	0.00042853	0.00012781	1331.8	5.7991e-06	1.5467e-06	1343.2	361.93	1.6453e-05	3.8387e-06	411.22	139.83	121.53	41.277	9.3969e-06	51.244	0.00071577	0.00067356	0.00018998	1374.8	7.2816e-06	7.5118e-06	1377.5	372.42	7.4014e-06	7.4775e-06	426.13	144.3	125.3	43.113	7.4206e-06	53.477	356.171	196.651	163.222	97.059	229.908	159.682	96.829	101.801	227.761	213.082	100.633	105.283	105.532	110.341	241.139	109.094	-8191	255	
970.348	1	1	0	0	0.28298	0.23816	0.062338	0.29093	0.16042	0.14594	0.27637	0.13595	0.20916	0.079884	0.39288	0.31995	0.27485	0.30683	0.25503	0.1559	-0.74167	-1.8	-1.9104	-1.3687	-1.9604	-1.3312	-1.5083	-1.8583	-1.1958	-1.7437	-2.0312	-1.1083	-1.7188	-1.5771	-1.2396	-2.1396	345.509	344.340	413.303	406.931	246.080	221.882	417.851	116.189	275.492	347.448	393.859	415.995	357.637	108.292	420.994	274.810	0.0015975	0.00067915	0.0001488	1332.9	9.6571e-06	2.9557e-06	1336.8	360.07	1.0795e-05	5.2982e-06	410.68	139.8	121.12	41.06	5.7267e-06	51.322	0.00070236	0.00067274	0.00018843	1374.7	7.3133e-06	7.4091e-06	1376.8	372.07	7.3334e-06	7.3734e-06	425.74	144.23	125.4	43.117	7.3929e-06	53.462	356.559	166.320	163.981	96.952	220.875	208.769	97.132	101.724	234.474	226.722	100.799	105.670	106.061	110.385	234.536	109.537	-8191	255	
970.444	1	1	0	0	0.21986	0.11659	0.25557	0.28695	0.06594	0.10592	0.20769	0.19007	0.050379	0.057959	0.28654	0.082532	0.25978	0.25605	0.4105	0.08315	-0.85417	-1.4146	-1.8146	-1.2687	-1.7104	-1.5104	-1.5542	-2.1813	-1.3396	-1.4729	-1.95	-1.2646	-1.8417	-1.6313	-1.2146	-2.1208	175.606	163.219	194.797	382.549	419.735	209.028	379.054	424.600	203.841	378.323	430.770	130.236	122.514	122.006	149.210	440.907	0.0017249	0.00039996	0.0001896	1329.7	9.4659e-06	4.1662e-06	1337.3	360.84	7.6156e-06	5.9943e-06	411.44	139.31	122.15	41.23	1.1446e-05	51.218	0.0007123	0.00067033	0.00018521	1372.9	7.2965e-06	7.3567e-06	1375.8	371.9	7.3081e-06	7.363e-06	425.3	143.98	125.51	43.036	7.2425e-06	53.457	358.741	186.043	176.312	96.791	231.143	228.877	96.839	101.543	235.008	247.891	100.848	105.592	106.108	110.487	238.846	109.632	-8191	255	
970.540	1	1	0	0	0.026124	0.18746	0.30885	0.24804	0.08189	0.10361	0.39994	0.24039	0.2852	0.14347	0.26496	0.10463	0.37786	0.2144	0.11255	0.062343	-0.97917	-1.4333	-1.8375	-1.4104	-1.8687	-1.7646	-1.3333	-2.0292	-1.5292	-1.4	-2.0938	-1.3021	-1.8729	-1.9583	-1.0958	-2.2083	296.559	245.735	439.599	363.633	332.104	421.244	361.762	382.554	163.347	235.791	122.309	104.705	406.064	320.743	132.328	314.685	0.0014755	0.00065684	9.5558e-05	1327.1	1.1299e-05	3.8473e-06	1335.9	361.53	1.5816e-05	3.1139e-06	411.15	139.99	121.81	41.078	8.8513e-06	50.887	0.0006907	0.00066196	0.00017929	1369	7.0652e-06	7.1263e-06	1372.9	371.92	7.1471e-06	7.0944e-06	424.72	143.83	125.25	43.006	7.1784e-06	53.367	362.583	181.816	215.523	97.069	238.103	206.676	96.749	101.734	251.706	263.738	101.116	105.589	106.050	110.843	256.115	109.779	-8191	255	
970.637	1	1	0	0	0.28231	0.043163	0.20423	0.37319	0.11261	0.27121	0.28006	0.060517	0.25573	0.14832	0.35742	0.17118	0.22193	0.47096	0.27031	0.33676	-1.0417	-1.2604	-1.8146	-1.3042	-1.5375	-1.9125	-1.0625	-1.8896	-1.7646	-1.075	-2.1312	-1.3292	-1.5042	-2.2313	-1.3333	-2.0812	217.893	163.083	301.679	392.020	116.177	343.734	362.286	371.566	300.840	319.865	295.477	413.614	184.830	430.127	308.508	346.025	0.0016163	0.00087688	0.00021906	1329.2	8.9965e-06	8.8987e-06	1334.7	359.08	1.7773e-05	5.8817e-06	411.35	139.63	121.64	41.098	8.7226e-06	50.988	0.00070015	0.00066201	0.00017878	1370.9	7.1883e-06	7.1699e-06	1373.8	371.26	7.2033e-06	7.2968e-06	425.21	143.96	125.24	43.051	7.4013e-06	53.387	360.005	167.929	169.326	97.356	249.089	212.149	96.963	102.107	252.476	244.045	101.040	105.746	106.107	111.064	231.639	109.925	-8191	255	
970.757	1	1	0	0	0.15013	0.35604	0.058334	0.092202	0.18878	0.23365	0.28727	0.15987	0.2676	0.074387	0.25865	0.12263	0.034812	0.23547	0.080511	0.038274	-1.1771	-1.05	-1.9271	-1.3104	-1.5167	-2.0083	-1.3292	-1.9729	-1.6063	-1.0979	-2.0958	-1.5333	-1.4583	-2.0833	-1.1771	-1.6437	269.930	270.576	441.350	384.899	394.970	185.060	372.909	106.245	156.293	192.219	420.142	329.755	274.069	428.852	156.468	329.061	0.0016604	0.000747	0.0001817	1329.4	7.6952e-06	2.4133e-06	1330.8	360.93	2.2431e-05	7.3442e-06	411.87	139.2	121.19	41.323	7.2888e-06	51.01	0.00070474	0.00067864	0.00018346	1370.7	7.4333e-06	7.3876e-06	1371.3	371.45	7.2601e-06	7.206e-06	425.11	143.97	124.92	43.071	7.1792e-06	53.388	363.514	134.400	182.152	97.155	238.930	206.191	96.925	101.776	244.164	245.299	101.093	105.783	106.329	110.902	241.789	110.098	-8191	255	
970.853	1	1	0	0	0.081195	0.30384	0.14003	0.056894	0.065981	0.27425	0.42031	0.078669	0.1384	0.14259	0.18013	0.27531	0.062912	0.19172	0.12561	0.12117	-1.2375	-1.1583	-1.9417	-1.6958	-1.3979	-1.8	-1.2896	-1.7062	-1.8646	-1.1313	-1.8854	-1.5875	-1.5125	-1.9688	-0.97917	-1.5438	387.631	216.544	306.844	308.844	193.744	305.319	378.343	255.787	337.401	123.485	258.804	377.453	215.558	399.282	98.080	196.598	0.001795	0.00057195	7.7565e-05	1330.6	5.4045e-06	3.807e-06	1333.5	359.56	1.2185e-05	5.5475e-06	408.8	139.84	121.25	41.194	9.1386e-06	51.101	0.00070423	0.00064506	0.00018446	1370	7.3347e-06	7.1584e-06	1372.2	371.14	7.2589e-06	7.3119e-06	424.41	143.99	124.81	43.026	7.2479e-06	53.4	361.315	150.449	164.455	97.254	231.411	179.735	96.932	101.848	225.103	247.372	100.775	105.401	106.353	110.822	229.177	109.717	-8191	255	
970.950	1	1	0	0	0.11559	0.12643	0.22909	0.20905	0.10402	0.20396	0.41733	0.36485	0.27018	0.13838	0.19538	0.20868	0.092826	0.1463	0.052074	0.18256	-1.4896	-1.0104	-1.7	-1.625	-1.2354	-1.9292	-1.4896	-1.5812	-1.9771	-1.0938	-1.8604	-1.9083	-1.2333	-2.0604	-1.4292	-1.6146	327.669	300.773	99.442	97.987	434.177	217.275	345.563	103.695	172.971	369.373	122.841	405.634	134.951	395.175	337.999	339.188	0.001618	0.0003759	0.00010026	1331.1	7.1876e-06	6.9923e-06	1337	360.21	1.2079e-05	8.0364e-06	410.4	139.28	121.39	41.119	6.0361e-06	50.986	0.0007118	0.00065975	0.00018152	1371.4	7.3621e-06	7.3003e-06	1372.4	371.41	7.1495e-06	7.4347e-06	424.9	143.91	125.04	43.018	7.3824e-06	53.376	362.789	166.604	185.280	96.897	252.054	227.872	96.921	102.121	235.560	245.253	100.861	105.299	106.067	110.290	213.457	109.281	-8191	255	
971.046	1	1	0	0	0.11344	0.086633	0.041417	0.18034	0.24113	0.14249	0.33231	0.44994	0.20667	0.08427	0.27031	0.10067	0.18452	0.075766	0.078792	0.11269	-1.5104	-1.1667	-1.7458	-1.8375	-1.1	-2.0187	-1.5896	-1.4375	-1.8729	-1.2687	-1.7708	-1.9167	-0.97292	-1.9813	-1.4292	-1.3875	422.650	123.241	294.034	135.440	337.527	202.355	423.665	441.262	167.555	394.444	88.842	306.894	119.635	131.158	335.824	296.985	0.0016721	0.00059393	0.00018518	1332.5	1.2149e-05	4.1205e-06	1332.7	358.67	1.4441e-05	8.9767e-06	408.85	139.33	121.67	41.363	5.6304e-06	50.894	0.00070944	0.00066533	0.00018677	1368.8	7.0842e-06	7.1743e-06	1368.7	370.42	7.0788e-06	7.1516e-06	423.37	143.87	124.85	43.065	6.969e-06	53.243	358.124	193.092	183.902	97.076	244.768	227.823	97.036	101.796	233.579	248.593	101.710	105.949	106.012	110.800	251.786	109.697	-8191	255	
971.142	1	1	0	0	0.071405	0.095005	0.14364	0.15805	0.1446	0.22978	0.38014	0.16119	0.1639	0.10234	0.28693	0.22898	0.33879	0.088162	0.27362	0.20468	-1.5625	-1.1896	-1.4354	-2.0312	-1.0458	-1.8167	-1.5917	-1.2583	-1.8563	-1.0979	-1.5167	-1.6979	-1.0708	-1.8646	-1.3813	-1.4708	307.342	345.453	380.401	400.458	408.159	400.170	342.508	411.251	144.212	167.376	178.998	98.127	401.491	332.301	407.870	374.674	0.0015963	0.00064361	0.00021474	1327.8	6.2453e-06	1.8754e-06	1333.9	359.76	1.8103e-05	6.2718e-06	409.73	139.56	121.33	41.408	8.9688e-06	50.877	0.00068294	0.00064992	0.00017922	1368.5	7.1124e-06	7.2433e-06	1370.8	370.51	6.952e-06	7.0638e-06	423.62	143.86	124.83	43.061	7.0804e-06	53.297	361.058	172.010	188.374	97.059	229.234	286.634	96.699	101.831	227.198	225.876	101.131	105.922	106.496	110.698	225.155	109.623	-8191	255	
971.238	1	1	0	0	0.12855	0.11025	0.047234	0.14052	0.10998	0.15721	0.20078	0.10714	0.070508	0.10964	0.24986	0.14617	0.22925	0.31251	0.24543	0.2744	-1.5542	-1.3813	-1.3646	-2.2104	-1.025	-1.8729	-1.7938	-1.3104	-2.0271	-1.5438	-1.5187	-2.0125	-1.1729	-1.8396	-1.5667	-1.1729	214.633	158.137	128.994	104.745	258.835	417.944	332.139	283.814	273.482	363.627	392.670	318.427	361.078	329.865	140.330	439.031	0.0016783	0.00070552	0.00015844	1328.3	7.6917e-06	3.9215e-06	1333.9	359.24	1.3911e-05	6.8451e-06	409.04	139.39	121.15	41.205	5.3533e-06	51.069	0.00069408	0.00064995	0.00018272	1367.1	7.3402e-06	7.2368e-06	1370.2	370.41	7.2029e-06	7.2451e-06	423.15	143.69	124.55	42.987	7.2317e-06	53.376	354.201	174.184	160.821	97.199	235.426	244.093	96.995	102.110	249.386	239.227	101.178	106.040	106.328	110.497	228.512	109.813	-8191	255	
971.357	1	1	0	0	0.12672	0.025691	0.094573	0.24905	0.16499	0.20084	0.28864	0.13118	0.076224	0.26514	0.047568	0.2408	0.0091006	0.27881	0.091657	0.15615	-1.4521	-1.3833	-1.1646	-1.9854	-1.1417	-1.6833	-1.8729	-1.1646	-1.9062	-1.4125	-1.1562	-1.975	-1.1646	-1.4479	-1.6313	-1.1229	401.260	96.935	349.832	116.125	188.004	338.239	345.360	437.306	166.577	216.230	245.521	196.596	239.953	354.714	116.447	351.506	0.0017416	0.0006612	0.0001641	1327.3	7.5782e-06	7.4613e-06	1330.2	358.79	1.6028e-05	5.6854e-06	408.25	139.12	121.35	41.052	2.4204e-06	50.932	0.00069935	0.00067951	0.0001886	1366.3	7.317e-06	7.3537e-06	1368.9	370.36	7.3356e-06	7.4658e-06	423.64	143.66	124.82	42.935	7.2893e-06	53.174	359.795	201.874	201.929	97.190	216.228	227.573	96.898	101.902	235.826	272.413	101.370	105.871	106.676	110.932	246.462	109.625	-8191	255	
971.453	1	1	0	0	0.23661	0.055628	0.25005	0.49994	0.24658	0.25477	0.45384	0.3535	0.33978	0.35412	0.011341	0.086844	0.22837	0.22522	0.15852	0.071636	-1.1938	-1.4438	-0.91875	-2	-1.2083	-1.5354	-2.0083	-1.175	-1.7396	-1.4229	-1.3542	-2.0917	-1.4792	-1.5729	-1.8875	-1.4417	182.958	395.771	158.487	395.243	420.566	101.407	371.055	115.483	420.752	99.201	293.596	137.618	393.530	374.667	327.601	322.538	0.0017139	0.0005918	8.5223e-05	1328.3	6.9628e-06	6.1209e-06	1335.1	359.31	1.22e-05	2.5915e-06	409.44	140.3	121.19	41.243	1.1482e-05	51.022	0.00070991	0.00066525	0.00018767	1367.8	7.416e-06	7.3435e-06	1370.8	369.95	7.4646e-06	7.4243e-06	423.65	144.19	124.63	43.063	7.4593e-06	53.301	357.403	185.088	154.512	96.756	215.434	257.876	97.064	102.032	203.868	235.659	101.701	105.849	106.075	110.955	256.190	110.173	-8191	255	
971.549	1	1	0	0	0.11164	0.20125	0.22391	0.31263	0.18317	0.28481	0.1109	0.24196	0.18237	0.26008	0.065493	0.18858	0.2017	0.21936	0.30908	0.14411	-1.3417	-1.6313	-1.1812	-2.0229	-1.5229	-1.4625	-2.0708	-1.3167	-1.775	-1.7729	-1.2354	-1.9354	-1.5708	-1.3188	-1.9896	-1.4875	361.635	230.713	383.573	417.730	435.759	314.099	291.108	440.200	118.423	237.980	158.311	167.191	109.565	437.298	141.980	254.948	0.0017485	0.00054461	0.00019478	1328.9	7.0377e-06	7.8042e-06	1334.8	358.52	1.1631e-05	6.7355e-06	410.04	139.33	120.99	41.013	5.9426e-06	50.848	0.00071345	0.0006769	0.0001907	1368.9	7.4015e-06	7.5038e-06	1370.9	370.55	7.3467e-06	7.5732e-06	423.58	143.79	124.68	42.917	7.3806e-06	53.162	359.417	149.259	166.108	97.600	263.043	227.700	97.050	101.867	219.008	260.814	101.143	105.679	105.777	110.383	248.928	109.622	-8191	255	
971.623	1	1	0	0	0.12876	0.10517	0.1411	0.11127	0.23774	0.27537	0.27655	0.2381	0.17704	0.22757	0.1748	0.13639	0.14803	0.045933	0.2366	0.18304	-1.1729	-1.6354	-1.2938	-1.9542	-1.4792	-1.4271	-2.1792	-1.3354	-1.5	-1.8458	-1.0771	-2.0812	-1.5875	-1.2208	-1.9188	-1.2854	318.060	395.444	332.988	424.607	320.120	425.354	374.405	407.014	298.494	213.240	271.373	425.706	391.977	315.601	196.133	385.479	0.0015321	0.00035348	0.00011661	1331.5	1.0444e-05	4.3799e-06	1336.4	360.69	1.3699e-05	6.3751e-06	409.21	139.43	121.16	41.223	6.9239e-06	50.864	0.00072523	0.00067326	0.00019235	1370.4	7.5274e-06	7.7126e-06	1372.5	370.79	7.6759e-06	7.6552e-06	423.94	143.78	124.81	42.983	7.4758e-06	53.287	360.926	167.924	173.033	97.527	239.187	259.310	96.746	101.688	236.552	258.694	101.040	105.975	106.305	110.924	233.746	109.520	-8191	255	
971.741	1	1	0	0	0.18081	0.16402	0.24017	0.35846	0.23026	0.18111	0.2625	0.34353	0.2614	0.1199	0.29056	0.15784	0.20837	0.11597	0.065676	0.071332	-0.9875	-1.8208	-1.1375	-1.9542	-1.6417	-1.0208	-2.2146	-1.4354	-1.4354	-1.9604	-1.3792	-1.7667	-1.5833	-1.2375	-1.8646	-1.425	124.278	259.975	386.664	367.157	148.937	339.565	394.371	389.639	378.179	421.146	435.747	153.867	364.627	106.260	328.627	160.293	0.0016818	0.00042761	0.00017281	1334.4	4.5446e-06	4.2777e-06	1338.1	359.46	8.4001e-06	6.5198e-06	409.85	139.69	121.34	41.059	9.9148e-06	50.913	0.00072757	0.00068468	0.00018851	1370.5	7.4958e-06	7.8429e-06	1372.3	370.73	7.592e-06	7.621e-06	423.91	143.81	124.86	42.99	7.5456e-06	53.272	356.734	150.927	200.051	97.272	213.477	202.252	96.912	101.880	224.231	231.927	101.072	105.832	106.358	110.746	238.057	109.498	-8191	255	
971.838	1	1	0	0	0.13416	0.22372	0.081193	0.025628	0.23712	0.075122	0.19243	0.25064	0.10106	0.11463	0.16231	0.047222	0.042143	0.21831	0.12697	0.32677	-0.9	-2.0146	-1.2437	-1.8062	-1.7938	-1.1417	-2.2604	-1.6979	-1.1646	-1.9688	-1.4479	-1.6979	-2.1063	-1.2646	-1.9854	-1.5896	271.213	374.993	352.353	410.440	348.821	174.979	191.520	377.075	134.182	423.956	404.209	290.331	303.548	101.464	295.478	420.259	0.0017627	0.00062214	0.00011563	1335.1	7.4903e-06	2.1316e-06	1338.2	359.63	1.0133e-05	5.3881e-06	411.33	139.17	121.15	41	7.8195e-06	51.182	0.00073867	0.00070301	0.00019621	1371.8	7.7685e-06	7.7569e-06	1373.5	371	7.6049e-06	7.7778e-06	424.38	143.69	124.66	43.014	7.6829e-06	53.304	352.486	189.720	197.997	97.232	216.371	286.420	96.458	101.360	224.021	251.203	101.021	105.782	105.905	110.325	248.035	109.487	-8191	255	
971.934	1	1	0	0	0.14579	0.10167	0.10156	0.36602	0.024029	0.24158	0.012569	0.27908	0.053894	0.043052	0.19418	0.18616	0.19472	0.21989	0.046382	0.21562	-0.85625	-1.925	-1.4375	-1.7313	-1.9667	-1.2896	-2.025	-1.7708	-1.4521	-1.8354	-1.6125	-1.5312	-1.7313	-1.1229	-1.8167	-1.9917	179.045	332.832	138.840	92.501	353.759	323.356	217.509	410.149	316.071	373.125	410.952	421.760	106.455	396.311	192.542	316.584	0.001544	0.00066686	9.088e-05	1331.4	6.4246e-06	5.5057e-06	1339.3	359.84	1.2782e-05	6.3381e-06	410.98	139.57	121.24	41.146	9.2734e-06	51.041	0.00073363	0.00070393	0.00019448	1370.5	7.6003e-06	7.8672e-06	1374	370.97	7.726e-06	7.7173e-06	424.71	143.86	124.75	43.014	7.7244e-06	53.279	357.722	158.137	150.040	97.418	247.650	217.734	97.034	101.722	210.502	248.640	100.757	105.905	106.475	110.807	235.563	109.158	-8191	255	
972.054	1	1	0	0	0.02394	0.21267	0.22067	0.28395	0.11492	0.20178	0.22527	0.039727	0.11558	0.31678	0.11997	0.20111	0.082585	0.32402	0.38497	0.095316	-0.7375	-1.975	-1.1938	-1.4354	-1.7333	-1.1917	-1.7229	-1.7625	-1.0646	-1.8917	-1.4312	-1.3167	-1.9104	-1.3563	-1.4271	-1.9917	129.778	233.678	400.348	389.003	264.122	241.047	400.077	320.424	344.148	424.162	401.211	385.736	174.995	148.581	124.815	406.355	0.0016008	0.00026128	0.0002263	1331.6	7.3923e-06	5.979e-06	1336.2	357.85	1.8076e-05	4.173e-06	410.2	139.41	121.3	41.119	9.0526e-06	50.819	0.00074972	0.00070765	0.00019916	1371.4	7.6801e-06	7.857e-06	1372.8	370.32	7.7381e-06	7.8074e-06	424.08	143.79	124.81	42.977	7.8403e-06	53.315	358.420	159.311	167.122	97.277	235.256	186.147	96.514	101.672	227.302	289.197	101.408	105.886	106.282	110.250	278.729	109.521	-8191	255	
972.149	1	1	0	0	0.04297	0.073102	0.06613	0.10014	0.12844	0.20974	0.27854	0.30498	0.05695	0.29246	0.090734	0.34302	0.16774	0.15044	0.094114	0.1877	-0.82083	-1.9146	-1.3083	-1.3312	-2.0146	-1.1375	-1.5104	-1.9312	-1.1333	-1.6625	-1.6625	-1.3062	-1.9625	-1.425	-1.5104	-1.8396	230.374	244.098	234.885	326.045	112.362	361.612	428.605	87.181	229.250	347.629	312.155	380.897	89.996	145.953	168.246	310.552	0.0016392	0.00033025	0.00018308	1323.7	1.1058e-05	4.7928e-06	1341.5	359.3	1.1095e-05	5.6835e-06	410.22	139.48	121.4	41.058	6.109e-06	51.155	0.00074235	0.00071224	0.00019782	1369	7.7006e-06	7.8079e-06	1374.4	370.49	7.7604e-06	7.7991e-06	424.33	143.94	124.87	42.95	7.9716e-06	53.396	357.816	164.993	182.780	97.260	226.602	245.162	96.859	101.643	213.090	247.957	100.407	105.492	106.509	110.834	262.135	109.481	-8191	255	
972.222	1	1	0	0	0.16768	0.22153	0.17111	0.34309	0.25095	0.083348	0.30251	0.39467	0.21474	0.080744	0.22914	0.19025	0.35724	0.21499	0.2293	0.047105	-0.74375	-1.6875	-1.65	-1.2271	-1.9042	-1.3687	-1.6063	-1.8937	-1.0479	-1.8292	-1.7125	-1.2854	-1.9521	-1.4792	-1.4479	-2.0438	440.693	159.806	271.395	404.431	408.545	104.724	385.603	107.476	274.830	110.742	135.899	391.271	378.013	423.809	380.592	312.667	0.0016685	0.00068446	7.3595e-05	1332.9	8.4414e-06	7.0733e-06	1338.8	359.19	1.2961e-05	5.138e-06	409.02	139.01	121.32	41.055	7.5268e-06	51.094	0.00074258	0.00072249	0.00020025	1370.3	7.7621e-06	7.9131e-06	1374.3	370.89	7.7968e-06	7.8237e-06	424.04	143.55	124.91	43	7.8097e-06	53.304	358.777	167.280	230.112	96.978	211.736	241.564	97.041	101.687	222.520	263.542	101.301	105.882	106.020	111.131	229.217	109.894	-8191	255	
972.318	1	1	0	0	0.014318	0.33292	0.13431	0.17537	0.041415	0.088284	0.44422	0.27824	0.19017	0.16031	0.20579	0.2448	0.079919	0.10802	0.22329	0.10872	-0.59792	-1.7583	-1.5958	-1.3854	-1.8958	-1.6958	-1.6042	-2.0208	-1.2687	-1.6417	-1.9083	-1.2833	-1.7771	-1.5396	-1.3917	-2.1729	126.009	355.588	239.190	400.985	95.357	148.079	409.931	341.759	411.459	403.160	86.690	90.227	411.904	440.394	299.525	139.713	0.0016759	0.00036334	0.00013179	1330	4.3417e-06	7.2742e-06	1338.4	359.24	1.3211e-05	5.7738e-06	410.83	140.16	121.57	41.162	6.6536e-06	50.982	0.00074172	0.00071896	0.00019523	1371.6	7.6128e-06	7.8127e-06	1373.4	370.88	7.6773e-06	7.823e-06	424.74	143.81	125.1	43.074	7.6699e-06	53.36	360.174	146.514	189.488	97.295	269.182	256.331	97.250	102.145	263.845	265.099	101.339	106.090	106.760	110.721	239.811	110.117	-8191	255	
972.437	1	1	0	0	0.11511	0.095775	0.14979	0.20747	0.038471	0.22117	0.21309	0.13546	0.22396	0.082629	0.27777	0.36816	0.032684	0.18126	0.29937	0.20777	-0.89167	-1.4396	-1.6187	-1.2375	-1.7958	-1.4542	-1.45	-2.1917	-1.3458	-1.4292	-1.7833	-1.3792	-1.75	-1.8458	-1.1833	-1.9438	376.323	396.189	425.825	376.579	181.508	361.301	329.132	113.171	324.164	433.832	375.002	389.518	403.427	410.088	161.517	374.548	0.0016269	0.0008086	0.00017579	1332.1	1.0505e-05	3.3216e-06	1333.2	361.15	1.1873e-05	4.872e-06	409.07	140.12	122.08	41.476	7.4066e-06	51.411	0.00073911	0.00071396	0.00019738	1372.8	7.6427e-06	7.6556e-06	1372.7	371.98	7.6892e-06	7.7835e-06	424.9	144	125.17	43.163	7.641e-06	53.44	357.773	166.814	178.660	97.402	221.738	227.993	96.517	101.229	222.527	237.397	100.462	105.140	105.938	110.473	238.823	109.578	-8191	255	
972.533	1	1	0	0	0.24469	0.13368	0.15326	0.37705	0.13741	0.16853	0.23313	0.015923	0.093704	0.17238	0.24456	0.21803	0.32434	0.099375	0.44864	0.13457	-0.94167	-1.5083	-1.9562	-1.3667	-1.6333	-1.5708	-1.1437	-1.8458	-1.3354	-1.4542	-2.0667	-1.3146	-1.65	-1.7687	-1.1	-1.9604	290.402	401.605	158.465	309.428	132.776	347.961	400.784	141.769	233.132	256.501	92.681	433.331	371.737	91.954	140.126	221.066	0.0016762	0.00072563	9.7482e-05	1337.2	1.0494e-05	3.1665e-06	1335.1	360.1	1.2294e-05	2.2357e-06	411.7	139.57	121.4	41.404	7.0199e-06	51.147	0.00074325	0.000708	0.00019955	1373.4	7.7737e-06	7.7552e-06	1374.5	371.27	7.5266e-06	7.6895e-06	424.96	143.87	125.23	43.063	7.5773e-06	53.401	356.922	159.577	168.163	97.436	214.330	234.138	97.158	102.168	230.674	222.096	100.992	105.803	106.586	110.537	285.645	109.928	-8191	255	
972.630	1	1	0	0	0.20283	0.10433	0.33568	0.15801	0.16863	0.17134	0.27679	0.21617	0.15474	0.2825	0.058983	0.27114	0.29295	0.073542	0.37728	0.075371	-1.1437	-1.2042	-1.8104	-1.4604	-1.4667	-1.9354	-1.3625	-1.8771	-1.3833	-1.3333	-2.0187	-1.4896	-1.6146	-1.8271	-0.86875	-1.8625	146.859	400.362	220.724	408.337	220.616	298.480	383.416	159.898	392.209	363.168	96.111	173.581	428.141	218.425	116.709	378.237	0.0017167	0.00050219	0.00012424	1334.1	8.2857e-06	6.2513e-06	1340.2	358.39	1.6379e-05	5.1044e-06	410.19	139.48	121.98	41.158	6.9039e-06	51.15	0.00071741	0.00068538	0.00018995	1371.6	7.5375e-06	7.4754e-06	1374.1	370.96	7.3673e-06	7.5588e-06	424.78	143.95	125.27	43.105	7.4521e-06	53.404	356.154	186.447	135.236	96.892	227.694	180.803	96.712	101.783	243.595	209.349	100.885	105.785	106.333	110.419	234.688	109.815	-8191	255	
972.750	1	1	0	0	0.10195	0.13165	0.059999	0.16177	0.12509	0.24067	0.2646	0.32996	0.17015	0.15825	0.33793	0.26954	0.14691	0.35034	0.25359	0.28938	-1.1917	-1.2417	-1.9854	-1.5938	-1.4312	-1.8687	-1.3458	-1.9979	-1.7083	-1.0083	-1.9438	-1.4646	-1.275	-2.0146	-1.1146	-1.6146	167.819	312.112	178.334	401.443	299.701	355.421	370.300	398.004	150.345	206.199	317.150	108.979	209.354	382.556	328.496	397.831	0.0017113	0.0003867	0.00017187	1330.6	8.9635e-06	5.3112e-06	1336.8	359.69	1.7047e-05	5.2499e-06	408.37	139.97	121.83	41.29	8.6213e-06	51.025	0.00072021	0.00068755	0.00019084	1370.5	7.6623e-06	7.5448e-06	1374.5	371.19	7.5757e-06	7.7119e-06	423.87	144.05	125.23	43.079	7.7001e-06	53.429	359.670	181.023	184.656	96.940	231.738	208.264	96.902	102.026	257.357	240.338	101.074	105.604	106.619	110.685	234.389	109.616	-8191	255	
972.822	1	1	0	0	0.024143	0.14307	0.17249	0.35892	0.0095418	0.041492	0.10662	0.21622	0.11521	0.38836	0.31846	0.26973	0.1375	0.17731	0.034311	0.08057	-1.25	-1.0917	-1.7188	-1.4438	-1.2812	-1.8833	-1.5438	-1.7062	-1.825	-0.88542	-2.1042	-1.6958	-1.3292	-2.0708	-1.2563	-1.5	173.872	216.347	420.345	415.542	94.495	100.667	313.920	439.713	286.111	286.979	86.044	98.904	384.016	230.273	192.166	397.837	0.0017345	0.0006585	7.6297e-05	1334.3	4.9338e-06	4.5242e-06	1341.9	361.95	1.8271e-05	5.0878e-06	411.04	139.63	121.25	41.315	5.522e-06	50.939	0.00072844	0.00070204	0.00019104	1371.6	7.6024e-06	7.5725e-06	1374.3	371.74	7.5075e-06	7.5743e-06	424.79	143.98	125	43.103	7.4814e-06	53.38	361.590	171.601	203.808	97.200	185.418	191.656	97.339	102.206	244.783	245.097	101.443	105.759	106.510	110.489	280.709	110.394	-8191	255	
972.918	1	1	0	0	0.062638	0.39804	0.045207	0.31607	0.15273	0.13652	0.37881	0.049149	0.018973	0.23971	0.21336	0.16076	0.37157	0.34329	0.094878	0.09825	-1.4771	-1.0458	-1.7354	-1.625	-1.2833	-1.8729	-1.3229	-1.7021	-1.8271	-1.0958	-2.0146	-1.7729	-1.2833	-2.0812	-1.4479	-1.4208	425.540	430.675	110.862	416.107	161.978	266.325	364.994	87.069	117.409	338.996	92.034	244.298	136.087	442.520	260.664	255.704	0.0018666	0.00094088	0.00017525	1334.1	4.3544e-06	6.3198e-06	1340.6	360.7	5.811e-06	4.4232e-06	408.9	139.84	121.95	41.398	5.9499e-06	51.276	0.00072055	0.00069036	0.00019213	1370.3	7.3903e-06	7.4786e-06	1374	371	7.4712e-06	7.561e-06	423.84	143.96	124.99	43.117	7.51e-06	53.431	360.019	150.834	144.331	97.528	233.460	191.989	97.485	102.192	274.076	236.011	101.734	105.668	106.495	110.874	233.861	110.067	-8191	255	
973.039	1	1	0	0	0.082974	0.075681	0.31563	0.11175	0.15036	0.06961	0.16873	0.15512	0.075557	0.21072	0.21713	0.13561	0.13997	0.18837	0.16254	0.11538	-1.4396	-1.1562	-1.6313	-1.8813	-1.2583	-1.8438	-1.5542	-1.4417	-2.0167	-1.1708	-1.55	-2.0312	-1.2687	-1.9708	-1.5312	-1.5604	305.365	239.081	349.804	106.782	390.345	441.915	240.446	164.631	321.857	156.747	312.125	386.151	131.132	304.786	380.928	332.331	0.0016323	0.0005853	8.4187e-05	1329	5.8852e-06	3.8704e-06	1342	360.75	1.6449e-05	3.9197e-06	412.01	139.78	121.33	41.294	9.7111e-06	51.079	0.00072386	0.00069193	0.00019365	1370.3	7.5568e-06	7.721e-06	1373.9	371.15	7.5562e-06	7.6563e-06	425.93	143.78	124.86	43.072	7.4913e-06	53.365	359.771	167.988	232.943	97.033	226.709	204.987	97.301	102.085	219.839	227.923	101.344	106.154	106.654	111.232	244.604	110.117	-8191	255	
973.135	1	1	0	0	0.17792	0.14281	0.30017	0.35656	0.16198	0.14795	0.18014	0.1704	0.17748	0.16095	0.1232	0.24083	0.10618	0.31552	0.10525	0.19422	-1.5063	-1.1437	-1.7833	-2.0229	-0.93333	-1.8479	-1.7062	-1.5562	-1.9083	-1.3396	-1.5333	-1.9375	-1.2021	-1.9604	-1.7062	-1.3771	297.574	188.486	397.616	360.604	92.601	223.689	431.613	152.704	377.529	367.986	404.205	377.405	377.318	86.518	130.746	417.967	0.0016931	0.00081027	0.00016971	1333	1.1328e-05	6.5636e-06	1339	358.89	1.8608e-05	1.6989e-06	410.31	140.02	121.2	41.235	5.4057e-06	51.36	0.00070791	0.00069855	0.00018941	1370.3	7.5252e-06	7.4091e-06	1372.7	370.22	7.5542e-06	7.5941e-06	423.9	143.81	124.8	43.027	7.4143e-06	53.422	359.172	169.975	175.127	97.375	233.555	254.094	96.999	102.189	253.419	201.988	101.155	106.038	106.315	111.084	247.258	110.047	-8191	255	
973.229	1	1	0	0	0.18121	0.11217	0.17127	0.19605	0.083622	0.17375	0.14266	0.18834	0.12321	0.31164	0.39917	0.34021	0.16919	0.17996	0.14363	0.21674	-1.6333	-1.1896	-1.3042	-2.0938	-1.1125	-1.7396	-1.7167	-1.4104	-1.8646	-1.5375	-1.5438	-1.9688	-1.2979	-1.8208	-1.8625	-1.4333	120.527	434.383	312.291	339.094	299.730	379.778	364.206	357.906	108.954	406.117	402.835	150.225	121.141	127.840	250.516	338.393	0.0017662	0.00052909	0.00019465	1331.1	4.0853e-06	7.2601e-06	1334.8	360.19	1.5863e-05	7.0934e-06	410.44	139.77	121.44	41.121	6.5725e-06	51.146	0.00072697	0.00067974	0.00019347	1368.2	7.6589e-06	7.6159e-06	1371.3	370.61	7.5041e-06	7.7e-06	423.91	143.81	124.63	42.992	7.4299e-06	53.483	360.736	187.422	157.162	97.592	203.157	248.415	97.177	102.253	243.500	232.580	101.722	105.457	106.732	110.581	225.963	110.033	-8191	255	
973.327	1	1	0	0	0.14521	0.037698	0.3563	0.37177	0.092788	0.23712	0.19807	0.26616	0.13683	0.11821	0.055826	0.1498	0.22215	0.30666	0.063961	0.24192	-1.4979	-1.5187	-1.4021	-2.1146	-1.0479	-1.6437	-1.7979	-1.3333	-1.7687	-1.5063	-1.4042	-2.0208	-1.3083	-1.6979	-1.85	-1.3167	176.907	347.770	405.692	435.576	173.482	267.987	390.931	428.294	288.094	284.689	172.770	92.945	118.994	334.399	148.857	354.323	0.0017004	0.00069152	5.0505e-05	1329.3	1.0131e-05	5.3259e-06	1338.8	360.34	1.9408e-05	4.136e-06	409.54	140.39	121.68	41.25	5.2886e-06	51.048	0.00072268	0.00068862	0.00019222	1371.3	7.5661e-06	7.5725e-06	1371.9	370.53	7.4471e-06	7.5938e-06	423.73	143.91	125.05	43.094	7.3519e-06	53.333	358.568	183.200	200.230	97.192	225.534	218.173	96.587	101.576	229.999	271.863	101.094	105.829	106.426	111.180	211.403	109.881	-8191	255	
973.446	1	1	0	0	0.038357	0.065171	0.088333	0.045378	0.33113	0.13622	0.37687	0.23483	0.053796	0.12278	0.12445	0.15899	0.22712	0.18115	0.25853	0.29272	-1.4729	-1.6313	-1.3208	-2.1063	-1.2417	-1.4271	-2.1042	-1.4958	-1.7333	-1.7667	-1.2833	-1.9833	-1.325	-1.6083	-1.7396	-1.2729	375.163	111.693	210.156	406.092	252.438	99.812	420.319	409.141	332.399	386.597	411.220	129.929	138.588	97.132	284.401	384.372	0.0016624	0.00052381	0.00018633	1333	1.0282e-05	5.5302e-06	1336.3	359.1	1.2076e-05	4.9731e-06	412.33	139.56	121.26	41.175	5.0851e-06	51.108	0.00072233	0.0006814	0.00019041	1371	7.5755e-06	7.6583e-06	1371.4	371.14	7.4363e-06	7.4967e-06	425.21	143.95	124.76	43.083	7.3375e-06	53.356	359.427	169.358	186.882	97.236	231.490	236.231	96.903	101.868	234.082	256.028	101.564	105.881	106.516	111.184	218.704	110.266	-8191	255	
973.518	1	1	0	0	0.056573	0.16861	0.20609	0.10911	0.20498	0.080389	0.33585	0.082453	0.13565	0.01956	0.073386	0.19203	0.14679	0.26923	0.08082	0.036718	-1.3333	-1.525	-1.0229	-2.1458	-1.2604	-1.3917	-2.0083	-1.3312	-1.6708	-1.7896	-1.3354	-1.975	-1.5667	-1.325	-2.1021	-1.4104	346.003	178.464	431.626	348.153	86.097	210.446	375.522	231.642	175.069	84.696	92.965	127.566	369.534	282.068	298.185	274.816	0.0016537	0.00068646	0.00011434	1330.6	6.9422e-06	7.4958e-06	1335.1	359.3	1.6541e-05	5.5107e-06	409.7	139.88	121.87	41.285	8.1472e-06	51.14	0.00072636	0.00068657	0.00019143	1370.8	7.5817e-06	7.607e-06	1371.2	370.62	7.5086e-06	7.5884e-06	423.61	143.75	125.04	43.05	7.2632e-06	53.31	365.664	182.499	221.160	97.256	211.705	224.167	96.985	101.886	240.831	228.298	101.073	106.327	106.716	111.329	276.391	110.259	-8191	255	
973.614	1	1	0	0	0.14119	0.32589	0.093932	0.15677	0.15793	0.30735	0.10343	0.39965	0.29342	0.083448	0.18485	0.30525	0.17514	0.21212	0.26132	0.2172	-1.2	-1.8104	-0.92083	-2.0687	-1.5187	-1.0958	-1.8813	-1.375	-1.5354	-1.725	-1.1271	-1.9917	-1.8167	-1.3604	-2.0521	-1.4438	383.732	369.970	386.636	439.040	252.220	405.613	372.495	339.579	403.707	283.867	402.065	367.210	340.535	436.243	372.894	433.091	0.0015252	0.00049961	9.6694e-05	1330.3	9.4101e-06	1.9543e-06	1332.5	359.85	1.1771e-05	4.9817e-06	411.55	139.45	121.57	41.111	6.8688e-06	50.912	0.00071221	0.00067195	0.00019191	1369.8	7.4459e-06	7.4338e-06	1370.7	370.76	7.411e-06	7.4691e-06	423.98	143.73	124.74	42.993	7.5179e-06	53.25	355.909	154.458	166.615	97.732	228.275	277.931	97.646	102.213	213.560	263.320	101.099	105.952	106.007	111.088	273.572	109.741	-8191	255	
973.710	1	1	0	0	0.11999	0.17133	0.35487	0.33276	0.20686	0.19173	0.33176	0.15322	0.21944	0.17337	0.24626	0.30365	0.31674	0.21357	0.25106	0.34261	-1.1958	-1.9354	-1.0396	-1.9167	-1.8	-1.1125	-2.0146	-1.6417	-1.4042	-2.1146	-1.1625	-1.8771	-1.8625	-1.2708	-1.9479	-1.4937	88.995	335.495	134.754	437.741	282.109	195.151	385.842	92.026	252.021	231.506	425.494	151.260	161.953	430.792	382.661	441.962	0.001536	0.00036184	9.9087e-05	1332.7	8.4741e-06	3.8281e-06	1336.2	358.71	6.6355e-06	5.5373e-06	410.38	139.74	120.83	41.168	8.9874e-06	50.995	0.00072766	0.00068483	0.00018975	1371	7.5766e-06	7.6922e-06	1371.6	370.18	7.5342e-06	7.6891e-06	423.8	143.98	124.5	42.956	7.5918e-06	53.207	351.985	178.164	170.386	97.377	221.519	207.914	96.726	102.200	260.709	244.166	101.360	105.818	106.736	110.801	230.921	109.640	-8191	255	
973.831	1	1	0	0	0.25956	0.26523	0.11474	0.20267	0.066181	0.14306	0.21456	0.20002	0.4439	0.25951	0.25421	0.086124	0.23137	0.20794	0.063558	0.27989	-0.83125	-1.8104	-1.1	-1.8667	-1.8271	-1.075	-2.0938	-1.7271	-1.1771	-1.7	-1.1958	-1.7771	-2.0187	-1.1167	-1.8542	-1.6917	389.988	100.127	379.564	373.171	112.929	152.488	346.288	390.915	332.196	190.569	290.178	398.789	352.874	370.913	401.425	388.871	0.0017146	0.00034012	0.00014425	1333.8	7.8981e-06	4.9978e-06	1339.3	358.97	1.9066e-05	5.1884e-06	409.23	139.7	121.43	41.078	6.6462e-06	51.298	0.00073377	0.00067346	0.00019645	1369.5	7.3716e-06	7.5246e-06	1370.8	370.51	7.3986e-06	7.493e-06	424	143.77	124.74	42.963	7.5019e-06	53.388	357.730	189.348	210.610	97.219	226.289	251.733	97.336	102.105	225.887	254.829	101.020	105.851	106.371	110.577	269.376	109.863	-8191	255	
973.927	1	1	0	0	0.22845	0.098733	0.1338	0.089908	0.061414	0.13751	0.15559	0.12402	0.33583	0.1146	0.26345	0.11901	0.33547	0.24928	0.084812	0.011896	-0.96042	-1.8792	-1.3146	-1.7479	-1.8062	-1.2771	-2.0958	-1.7771	-1.2479	-1.8792	-1.3208	-1.6167	-2.0833	-1.3792	-1.625	-1.7437	443.242	94.863	88.137	330.550	233.207	320.571	436.274	372.148	395.611	322.165	428.725	105.921	407.601	438.905	156.908	369.425	0.0017081	0.00063616	0.00021739	1334.7	9.9365e-06	2.867e-06	1337.6	358.89	1.7352e-05	3.7001e-06	410.55	139.35	120.64	41.209	9.8847e-06	51.032	0.00071786	0.00068315	0.00019072	1369.5	7.5192e-06	7.5145e-06	1370.3	370.13	7.4687e-06	7.6219e-06	423.53	143.49	124.71	42.945	7.6813e-06	53.258	359.162	162.497	172.036	97.140	204.632	214.064	96.911	102.087	238.470	223.236	100.911	105.604	106.104	110.745	250.082	109.552	-8191	255	
974.023	1	1	0	0	0.085578	0.082383	0.21562	0.29513	0.20153	0.11602	0.2541	0.14815	0.16185	0.20638	0.16703	0.23945	0.21826	0.25246	0.1923	0.18046	-0.775	-1.875	-1.225	-1.4479	-1.9875	-1.1771	-1.8479	-1.7625	-1.2229	-1.8021	-1.7354	-1.3188	-2.0125	-1.3729	-1.6979	-1.8292	287.266	331.213	115.026	84.213	262.091	139.763	433.001	378.899	148.104	174.410	369.938	347.933	370.851	432.231	257.810	408.313	0.0016087	0.00050697	0.00025298	1330.3	5.313e-06	5.4899e-06	1336.2	358.11	1.8011e-05	6.6053e-06	408.74	139.27	121.36	41.337	1.0062e-05	51.137	0.00072977	0.00070627	0.0001952	1368.9	7.3985e-06	7.7024e-06	1369.4	369.78	7.559e-06	7.7719e-06	423.46	143.42	124.6	43.009	7.616e-06	53.274	360.817	170.887	174.180	97.042	190.340	247.706	97.146	101.907	241.675	231.671	101.110	105.577	106.150	110.638	234.268	109.576	-8191	255	
974.119	1	1	0	0	0.25999	0.15928	0.10674	0.15399	0.12114	0.29646	0.18948	0.18962	0.28798	0.19766	0.29945	0.080638	0.14843	0.23669	0.14543	0.031407	-0.65	-1.7729	-1.5875	-1.2833	-1.8021	-1.2938	-1.8375	-2.0312	-1.1708	-1.7375	-1.6708	-1.4771	-1.9875	-1.2917	-1.5792	-2.0271	215.287	336.573	432.386	370.673	245.049	217.973	362.157	119.051	365.831	131.121	435.586	286.961	111.298	87.270	159.729	439.199	0.001754	0.00076886	5.2535e-05	1330.7	8.4661e-06	2.2423e-06	1336.9	359.21	1.4655e-05	6.4255e-06	409.53	139.28	121.76	41.16	7.6738e-06	51.147	0.00075181	0.00070061	0.00019244	1368	7.5552e-06	7.8651e-06	1368.5	370.37	7.5663e-06	7.6706e-06	423.36	143.53	124.78	42.934	7.639e-06	53.355	361.500	163.186	141.004	97.245	225.375	221.440	96.847	101.734	253.009	253.346	100.975	105.701	106.371	110.529	230.362	109.885	-8191	255	
974.215	1	1	0	0	0.30911	0.14232	0.2553	0.11693	0.11864	0.098291	0.24218	0.16342	0.10393	0.048885	0.03886	0.1177	0.37594	0.2879	0.24857	0.062534	-0.72292	-1.7896	-1.7542	-1.3208	-1.9521	-1.2917	-1.5438	-1.9062	-1.3458	-1.725	-1.8479	-1.1063	-2.0146	-1.6313	-1.3104	-2.0938	342.855	351.066	293.239	93.923	291.688	92.684	319.603	164.858	176.205	242.157	166.568	415.739	99.717	91.007	289.883	410.691	0.0016542	0.00039586	5.6639e-05	1331.4	7.5878e-06	1.9537e-06	1335.7	357.85	1.7579e-05	4.6506e-06	409.02	139.02	120.71	41.153	6.8808e-06	51.212	0.00074984	0.00070283	0.00019478	1367.1	7.7275e-06	7.8047e-06	1370.1	369.88	7.6754e-06	7.8326e-06	422.42	143.59	124.5	42.869	7.6796e-06	53.356	358.325	159.391	227.302	97.134	218.986	351.445	96.896	101.789	256.574	226.807	101.065	105.922	106.469	110.688	192.778	109.456	-8191	255	
974.311	1	1	0	0	0.36933	0.21271	0.31144	0.30155	0.19672	0.052916	0.1798	0.11876	0.28774	0.18726	0.11612	0.055851	0.39789	0.16527	0.29123	0.06606	-0.63958	-1.7667	-1.6646	-1.2125	-1.7917	-1.4396	-1.3729	-2.1	-1.0771	-1.6354	-1.9354	-1.3146	-1.8604	-1.6	-1.1187	-2.1271	178.035	408.368	106.550	427.747	388.189	114.566	396.572	108.028	378.284	89.788	180.880	358.511	96.675	443.208	397.420	129.352	0.0016977	0.00040478	0.0002047	1324.9	1.02e-05	3.657e-06	1331.1	358.64	1.5224e-05	7.0755e-06	408.92	139.38	121.07	40.962	7.6594e-06	50.909	0.00073998	0.0007104	0.00019756	1365.9	7.8169e-06	7.9042e-06	1368.8	369.78	7.7513e-06	7.8665e-06	423.93	143.65	124.72	42.899	7.7063e-06	53.233	358.294	165.744	179.779	97.144	228.126	209.921	96.853	101.678	219.056	234.604	101.292	105.773	106.407	110.459	248.689	109.658	-8191	255	
974.430	1	1	0	0	0.1346	0.21226	0.1477	0.22224	0.29781	0.14509	0.45564	0.32253	0.14183	0.16501	0.052609	0.3577	0.0428	0.31084	0.14998	0.27084	-0.87292	-1.3458	-1.8833	-1.2188	-1.6354	-1.5854	-1.5021	-2.1771	-1.4833	-1.4208	-2.0729	-1.2021	-1.8292	-1.9167	-1.05	-2.0396	276.407	132.750	117.804	415.122	275.101	397.825	388.415	397.843	279.775	126.551	124.854	405.018	377.349	140.215	137.072	349.754	0.0016511	0.00029326	0.00013644	1326.7	8.3255e-06	4.3617e-06	1330.6	359.68	8.3376e-06	6.459e-06	410.23	138.92	121.41	41.276	4.8065e-06	51.144	0.00074603	0.00071462	0.00019291	1367.2	7.5659e-06	7.6847e-06	1368.5	370.1	7.559e-06	7.5464e-06	423.72	143.5	124.84	42.963	7.6483e-06	53.327	362.570	160.043	157.105	97.266	218.577	205.659	97.035	101.864	219.367	230.125	101.306	105.900	106.401	111.034	254.773	109.720	-8191	255	
974.526	1	1	0	0	0.13656	0.26602	0.084926	0.28328	0.2016	0.1849	0.20963	0.15378	0.083557	0.051811	0.26888	0.15208	0.23524	0.083035	0.13227	0.10955	-1.0375	-1.3229	-1.7604	-1.4583	-1.6271	-1.7479	-1.2167	-2.1063	-1.4354	-1.2917	-2.15	-1.3125	-1.7104	-1.9562	-1.0312	-2.0563	251.855	165.650	202.056	405.229	219.586	153.588	322.737	385.084	185.916	92.701	90.845	308.682	359.048	426.995	170.715	380.795	0.0016324	0.00046461	0.00026359	1331.3	3.5316e-06	3.014e-06	1333.1	358.75	1.2495e-05	5.2264e-06	409.61	139.02	121.41	41.302	6.2393e-06	51.087	0.00073931	0.00071167	0.00019531	1368.8	7.5949e-06	7.8716e-06	1369.6	370.65	7.6791e-06	8.013e-06	423.89	143.3	124.66	42.997	7.8881e-06	53.382	358.053	146.290	193.457	97.203	192.733	217.615	96.878	102.315	249.193	238.124	101.274	106.047	106.367	110.853	197.260	109.986	-8191	255	
974.622	1	1	0	0	0.38754	0.1052	0.088787	0.25117	0.15128	0.18538	0.19724	0.48091	0.14616	0.34851	0.19622	0.15847	0.26123	0.098934	0.23848	0.044392	-0.9375	-1.2396	-1.9542	-1.4604	-1.4729	-1.7563	-1.3	-1.95	-1.6812	-1.3208	-2.125	-1.4083	-1.5229	-1.9792	-1.2917	-2.0021	93.926	167.443	355.643	390.135	92.621	357.255	360.021	387.560	267.286	121.338	376.101	420.300	152.836	130.879	421.903	165.262	0.0016908	0.00054013	0.00010083	1330.1	7.9566e-06	7.2765e-06	1338.4	360.08	1.4622e-05	3.0513e-06	409.53	139.97	120.89	41.24	1.0641e-05	51.065	0.00075536	0.00072107	0.00020345	1368.4	7.9397e-06	7.9518e-06	1372	370.85	7.9941e-06	8.0609e-06	424.29	143.76	124.61	42.992	7.9766e-06	53.283	359.757	153.071	158.046	97.467	238.429	211.865	97.069	102.295	264.538	259.424	101.427	105.705	106.723	110.958	256.866	109.928	-8191	255	
974.719	1	1	0	0	0.16083	0.076608	0.11797	0.010995	0.1751	0.22718	0.34422	0.24517	0.24361	0.14211	0.24274	0.19075	0.18823	0.1385	0.1756	0.064691	-1.1917	-1.2042	-1.8771	-1.4729	-1.5958	-1.8375	-1.3438	-1.8583	-1.5771	-1.1333	-1.9854	-1.2792	-1.4813	-2.1229	-1.1792	-1.7167	117.176	122.782	121.596	403.486	110.087	245.950	405.686	90.181	424.754	130.458	317.584	104.314	392.176	357.138	274.846	230.110	0.0017005	0.00043696	8.6935e-05	1333.8	5.6061e-06	6.262e-06	1337.8	358.6	1.3515e-05	3.3558e-06	409.25	139.62	121.73	41.39	8.9468e-06	51.218	0.00075116	0.00072366	0.00020052	1369.7	7.7983e-06	7.7832e-06	1372.4	370.55	7.6026e-06	7.74e-06	424.27	143.47	124.8	43.047	7.5613e-06	53.321	354.654	199.273	148.376	97.220	219.957	218.452	96.985	102.005	225.347	258.472	101.506	105.826	106.119	111.015	225.339	109.991	-8191	255	
#DATA ENDS
