BOXY.EXE: ISS Imagent and Oximeter Data Acquisition Program Version 0.80
Ascii Record File

#ACQ INFORMATION
2  Detector Channels 
16  External MUX Channels 
1  Auxiliary Channels 
5000  Waveform (CCF) Frequency (Hz)
1  Waveforms Skipped 
30  Waveforms Averaged 
1  Cycles Averaged 
16  Acquisitions per Waveform 
10.0806  Updata Rate (Hz) 

#FILE INFORMATION
TRUE -- External MUX Channel results are PARSED.
FALSE -- AC DC and Phase are NOT grouped.
TRUE -- Companion Program Settings File CREATED.
FALSE -- AC data not excluded
FALSE -- DC data not excluded
FALSE -- Phase data not excluded
FALSE -- Auxillary Chn. data not excluded
Tab delimiters

#CALIBRATION STATE
TRUE -- Waveform Calibration Values APPLIED.


#AUX CALIBRATION VALUES
Val Type	aux-1	

Term	1.0000e+00	
Factor	0.0000e+00	


#WF CALIBRATION VALUES
A = Detector Channel
Val Type	A-AC1	A-AC2	A-AC3	A-AC4	A-AC5	A-AC6	A-AC7	A-AC8	A-AC9	A-AC10	A-AC11	A-AC12	A-AC13	A-AC14	A-AC15	A-AC16	A-DC1	A-DC2	A-DC3	A-DC4	A-DC5	A-DC6	A-DC7	A-DC8	A-DC9	A-DC10	A-DC11	A-DC12	A-DC13	A-DC14	A-DC15	A-DC16	A-Ph1	A-Ph2	A-Ph3	A-Ph4	A-Ph5	A-Ph6	A-Ph7	A-Ph8	A-Ph9	A-Ph10	A-Ph11	A-Ph12	A-Ph13	A-Ph14	A-Ph15	A-Ph16	

Term	0.00000e+00	0.00000e+00	0.00000e+00	0.00000e+00	0.00000e+00	0.00000e+00	0.00000e+00	0.00000e+00	0.00000e+00	0.00000e+00	0.00000e+00	0.00000e+00	0.00000e+00	0.00000e+00	0.00000e+00	0.00000e+00	0.00000e+00	0.00000e+00	0.00000e+00	0.00000e+00	0.00000e+00	0.00000e+00	0.00000e+00	0.00000e+00	0.00000e+00	0.00000e+00	0.00000e+00	0.00000e+00	0.00000e+00	0.00000e+00	0.00000e+00	0.00000e+00	0.00000e+00	0.00000e+00	0.00000e+00	0.00000e+00	0.00000e+00	0.00000e+00	0.00000e+00	0.00000e+00	0.00000e+00	0.00000e+00	0.00000e+00	0.00000e+00	0.00000e+00	0.00000e+00	0.00000e+00	0.00000e+00	
Factor	1.00000e+00	1.00000e+00	1.00000e+00	1.00000e+00	1.00000e+00	1.00000e+00	1.00000e+00	1.00000e+00	1.00000e+00	1.00000e+00	1.00000e+00	1.00000e+00	1.00000e+00	1.00000e+00	1.00000e+00	1.00000e+00	1.00000e+00	1.00000e+00	1.00000e+00	1.00000e+00	1.00000e+00	1.00000e+00	1.00000e+00	1.00000e+00	1.00000e+00	1.00000e+00	1.00000e+00	1.00000e+00	1.00000e+00	1.00000e+00	1.00000e+00	1.00000e+00	X	X	X	X	X	X	X	X	X	X	X	X	X	X	X	X	

B = Detector Channel
Val Type	B-AC1	B-AC2	B-AC3	B-AC4	B-AC5	B-AC6	B-AC7	B-AC8	B-AC9	B-AC10	B-AC11	B-AC12	B-AC13	B-AC14	B-AC15	B-AC16	B-DC1	B-DC2	B-DC3	B-DC4	B-DC5	B-DC6	B-DC7	B-DC8	B-DC9	B-DC10	B-DC11	B-DC12	B-DC13	B-DC14	B-DC15	B-DC16	B-Ph1	B-Ph2	B-Ph3	B-Ph4	B-Ph5	B-Ph6	B-Ph7	B-Ph8	B-Ph9	B-Ph10	B-Ph11	B-Ph12	B-Ph13	B-Ph14	B-Ph15	B-Ph16	

Term	0.00000e+00	0.00000e+00	0.00000e+00	0.00000e+00	0.00000e+00	0.00000e+00	0.00000e+00	0.00000e+00	0.00000e+00	0.00000e+00	0.00000e+00	0.00000e+00	0.00000e+00	0.00000e+00	0.00000e+00	0.00000e+00	0.00000e+00	0.00000e+00	0.00000e+00	0.00000e+00	0.00000e+00	0.00000e+00	0.00000e+00	0.00000e+00	0.00000e+00	0.00000e+00	0.00000e+00	0.00000e+00	0.00000e+00	0.00000e+00	0.00000e+00	0.00000e+00	-1.93096e+02	-1.31651e+02	-1.26893e+02	-1.81391e+02	-8.12550e+01	-6.54229e+01	-1.56795e+02	-1.62015e+02	-8.71340e+01	-6.29356e+01	-1.74004e+02	-1.71240e+02	-1.79095e+02	-1.76490e+02	-7.82813e+01	-1.49299e+02	
Factor	3.61994e-05	1.37445e-04	4.05246e-05	1.50909e-01	1.47821e-06	1.56133e-06	1.51247e-01	4.83322e-02	1.61963e-06	1.49477e-06	8.33551e-02	2.69328e-02	2.70377e-02	8.24457e-03	1.53392e-06	1.18361e-02	1.83736e-05	3.60318e-05	1.01782e-05	8.04857e-02	3.42701e-07	4.15052e-07	7.58372e-02	2.58983e-02	3.41234e-07	4.10228e-07	4.32733e-02	1.39519e-02	1.46541e-02	4.46483e-03	3.66053e-07	6.20000e-03	X	X	X	X	X	X	X	X	X	X	X	X	X	X	X	X	



#DISTANCE SETTINGS
A = Detector Channel
A-1	A-2	A-3	A-4	A-5	A-6	A-7	A-8	A-9	A-10	A-11	A-12	A-13	A-14	A-15	A-16	

2.5000e+00	3.0000e+00	2.5000e+00	3.0000e+00	2.0000e+00	3.0000e+00	1.5000e+00	3.0000e+00	3.0000e+00	3.0000e+00	3.0000e+00	3.0000e+00	3.0000e+00	3.0000e+00	1.5000e+00	3.0000e+00	

B = Detector Channel
B-1	B-2	B-3	B-4	B-5	B-6	B-7	B-8	B-9	B-10	B-11	B-12	B-13	B-14	B-15	B-16	

1.0000e+01	1.0000e+01	1.0000e+01	1.4400e+00	1.0000e+01	1.0000e+01	1.5100e+00	1.9400e+00	1.0000e+01	1.0000e+01	1.9900e+00	2.4900e+00	2.4100e+00	2.9000e+00	1.0000e+01	2.9800e+00	




#DATA BEGINS
time	group	step	mark	flag	A-AC1	A-AC2	A-AC3	A-AC4	A-AC5	A-AC6	A-AC7	A-AC8	A-AC9	A-AC10	A-AC11	A-AC12	A-AC13	A-AC14	A-AC15	A-AC16	A-DC1	A-DC2	A-DC3	A-DC4	A-DC5	A-DC6	A-DC7	A-DC8	A-DC9	A-DC10	A-DC11	A-DC12	A-DC13	A-DC14	A-DC15	A-DC16	A-Ph1	A-Ph2	A-Ph3	A-Ph4	A-Ph5	A-Ph6	A-Ph7	A-Ph8	A-Ph9	A-Ph10	A-Ph11	A-Ph12	A-Ph13	A-Ph14	A-Ph15	A-Ph16	B-AC1	B-AC2	B-AC3	B-AC4	B-AC5	B-AC6	B-AC7	B-AC8	B-AC9	B-AC10	B-AC11	B-AC12	B-AC13	B-AC14	B-AC15	B-AC16	B-DC1	B-DC2	B-DC3	B-DC4	B-DC5	B-DC6	B-DC7	B-DC8	B-DC9	B-DC10	B-DC11	B-DC12	B-DC13	B-DC14	B-DC15	B-DC16	B-Ph1	B-Ph2	B-Ph3	B-Ph4	B-Ph5	B-Ph6	B-Ph7	B-Ph8	B-Ph9	B-Ph10	B-Ph11	B-Ph12	B-Ph13	B-Ph14	B-Ph15	B-Ph16	aux-1	digaux	

3393.720	1	1	0	256	0.10669	0.11872	0.067861	0.08958	0.24033	0.093188	0.2115	0.19069	0.23888	0.26459	0.02518	0.094739	0.26429	0.10043	0.22744	0.10616	-2.6312	-2.2188	-2.3937	-2.8542	-2.1146	-2.8396	-2.6813	-2.2354	-3.0625	-2.2271	-2.35	-2.9729	-2.1083	-2.9688	-2.7521	-2.2167	254.315	226.683	313.324	162.064	2.243	200.078	245.789	35.425	198.848	26.841	161.058	193.237	348.464	246.528	301.518	-3.100	9.0934e-05	0.00016258	2.7199e-05	128.24	1.7791e-06	9.854e-07	139.74	47.093	6.3592e-07	5.66e-07	59.745	22.283	20.24	8.8306	5.4732e-07	11.604	0.00055699	0.00097999	0.00027114	137.96	9.0252e-06	1.1211e-05	151.8	51.338	9.1131e-06	1.1319e-05	64.878	24.288	22.223	9.695	9.7667e-06	12.652	70.950	98.885	80.488	5.219	136.116	198.600	2.360	10.927	79.487	190.851	6.463	11.063	15.095	19.589	212.793	13.968	-8191	255	
3393.817	1	1	0	0	0.13456	0.089769	0.091485	0.050589	0.32003	0.38968	0.086593	0.3036	0.1346	0.10284	0.17939	0.13929	0.15205	0.13836	0.15141	0.094987	-2.625	-2.3688	-2.3417	-3.0104	-2.1958	-2.8812	-2.8208	-2.0938	-2.9896	-2.7042	-2.4938	-3.1292	-2.1562	-2.8604	-2.8042	-2.2729	182.684	71.981	316.335	93.553	214.282	79.108	199.473	339.269	14.458	91.448	159.376	226.014	148.937	276.447	111.273	149.384	0.00010589	6.8316e-05	5.9597e-05	128.13	8.3447e-07	2.1187e-06	144.29	47.796	1.9216e-06	1.5046e-06	60.699	22.499	20.46	8.7423	7.9965e-07	11.614	0.00056372	0.00097173	0.00028961	139.29	9.1273e-06	1.0843e-05	154.66	52.008	9.1749e-06	1.0939e-05	65.628	24.472	22.337	9.7036	9.7439e-06	12.636	70.153	349.434	98.493	4.960	134.900	103.378	2.962	10.958	116.076	146.384	6.253	11.235	14.704	19.478	191.927	13.785	-8191	255	
3393.913	1	1	0	0	0.058935	0.071184	0.070932	0.11173	0.34852	0.17628	0.20765	0.3295	0.08345	0.082263	0.066002	0.11645	0.068125	0.061851	0.079427	0.14483	-2.5875	-2.4104	-2.2896	-3.0771	-2.2896	-2.6792	-2.9562	-2.1562	-2.7729	-2.6833	-2.4083	-2.8958	-2.2875	-2.7021	-2.95	-2.1021	75.720	57.248	30.815	102.508	330.925	112.098	109.349	332.909	301.742	225.666	346.756	331.818	77.110	134.785	217.975	67.227	0.00013907	0.00012523	4.209e-05	127.92	1.358e-06	1.853e-06	141.64	47.359	1.2729e-06	1.3984e-06	59.56	22.147	20.189	8.746	1.594e-06	11.481	0.00054964	0.00097954	0.00027229	138.58	9.3386e-06	1.0896e-05	153.3	51.504	9.1607e-06	1.0759e-05	64.708	24.161	22.25	9.6826	9.8171e-06	12.548	82.386	64.385	117.223	5.431	110.718	166.102	3.146	10.625	80.339	183.121	6.346	11.038	14.888	19.751	146.652	13.767	-8191	255	
3394.032	1	1	0	0	0.10735	0.32751	0.084462	0.031516	0.069217	0.17502	0.05726	0.2299	0.18121	0.10844	0.30189	0.067077	0.24571	0.31195	0.066988	0.16625	-2.5792	-2.4229	-2.3146	-3.0687	-2.5604	-2.7604	-2.9	-2.1583	-2.8708	-2.8646	-2.3312	-2.9354	-2.2729	-2.5479	-3.0729	-2.2729	289.347	47.077	79.494	227.080	35.011	330.400	141.671	95.853	332.003	190.108	301.864	302.624	108.091	48.915	349.490	158.976	0.00010637	0.00012509	6.6434e-06	128.37	3.3423e-07	1.8695e-06	143.29	47.368	7.9485e-07	1.3467e-06	59.027	22.218	19.96	8.8016	2.8308e-06	11.575	0.00054481	0.00095717	0.00026981	138.51	9.0959e-06	1.1126e-05	153.33	51.589	9.1835e-06	1.085e-05	64.63	24.221	22.096	9.6828	9.7378e-06	12.591	79.250	65.782	63.768	5.353	99.010	124.244	2.553	10.967	175.110	136.160	6.719	11.341	14.720	19.594	87.496	13.554	-8191	255	
3394.128	1	1	0	0	0.24804	0.16265	0.20922	0.16718	0.20111	0.046343	0.20515	0.18303	0.32116	0.095971	0.070648	0.053602	0.048684	0.14822	0.21243	0.20934	-2.3708	-2.8812	-2.0958	-3.0146	-2.6937	-2.2229	-3.0729	-2.1917	-2.7708	-3.0708	-2.1354	-2.9437	-2.5958	-2.2313	-2.9979	-2.2771	289.452	66.431	238.840	74.888	300.028	25.605	189.858	100.859	177.711	198.444	236.901	330.490	67.351	226.148	93.267	173.717	0.00012601	7.6679e-05	3.9774e-05	128.01	7.6967e-07	1.6714e-06	142.65	47.284	2.1533e-06	6.5058e-07	60.094	22.463	20.167	8.8676	9.3705e-07	11.631	0.00053333	0.00094006	0.00027074	138.53	9.1044e-06	1.093e-05	153.81	51.782	9.1117e-06	1.0733e-05	65.054	24.481	22.383	9.764	9.3557e-06	12.747	65.740	156.078	13.444	5.017	153.888	169.141	3.466	10.732	129.237	36.784	6.367	11.676	14.911	19.819	125.881	13.933	-8191	255	
3394.226	1	1	0	0	0.13245	0.13857	0.065391	0.14276	0.17959	0.19384	0.060025	0.048299	0.10206	0.19291	0.41888	0.15248	0.23474	0.058049	0.080942	0.043685	-2.2208	-2.7521	-2.1917	-3.0208	-2.7542	-2.1979	-3.0333	-2.1312	-2.4333	-3.05	-2.0854	-2.9938	-2.675	-2.1396	-3.0812	-2.3625	21.162	87.418	237.943	326.114	292.263	37.425	268.737	72.550	300.081	335.673	337.302	2.993	269.419	291.854	336.546	165.696	0.00012663	6.6968e-05	2.2973e-05	128.94	1.1268e-06	2.0179e-06	144.78	48.173	9.0256e-07	6.2362e-07	59.792	22.558	20.412	8.8564	1.6812e-06	11.543	0.00056483	0.00094523	0.0002694	139.57	8.9902e-06	1.1106e-05	155.69	52.271	8.8778e-06	1.0257e-05	65.303	24.478	22.424	9.7482	9.3816e-06	12.643	68.320	316.594	181.432	5.510	106.673	127.066	2.739	10.655	237.005	108.771	6.223	11.777	15.377	19.643	101.416	14.320	-8191	255	
3394.320	1	1	0	0	0.17355	0.21055	0.054783	0.18731	0.12283	0.22619	0.079857	0.087158	0.10723	0.14445	0.22817	0.087135	0.091092	0.18296	0.082611	0.20783	-2.1562	-2.75	-1.8417	-2.9104	-2.7917	-2.2708	-2.975	-2.1875	-2.3896	-3.0917	-2.1208	-2.7646	-2.7104	-2.2583	-2.9396	-2.45	271.382	249.722	257.982	162.051	130.740	54.301	173.213	191.465	16.130	201.743	169.442	320.699	317.505	312.481	39.152	217.184	0.00012625	0.00017612	4.6885e-05	128.17	9.5473e-07	2.0938e-06	142.5	47.762	2.7418e-06	1.3494e-06	59.754	22.268	20.509	8.8825	2.3847e-07	11.644	0.00055385	0.0009634	0.0002708	139.33	9.0709e-06	1.1205e-05	153.66	51.931	9.5276e-06	1.0369e-05	64.919	24.33	22.482	9.8005	9.6386e-06	12.629	81.448	12.046	56.766	4.889	112.111	127.172	2.878	10.748	114.279	196.263	5.611	11.632	15.424	19.866	158.934	13.953	-8191	255	
3394.416	1	1	0	0	0.04771	0.2375	0.041226	0.194	0.36742	0.22798	0.32382	0.20725	0.098474	0.21296	0.12538	0.064051	0.33085	0.24055	0.12612	0.06366	-1.9438	-3.0896	-2.225	-2.5854	-2.8771	-2.0938	-2.8917	-2.5667	-2.2438	-2.9458	-2.0438	-2.4125	-2.8292	-2.0479	-2.675	-2.5229	93.723	182.102	251.501	51.635	270.651	112.814	309.963	331.424	41.343	111.090	315.542	171.146	226.020	325.525	231.075	217.840	0.00015487	0.00022776	2.7315e-05	130.34	1.6516e-06	1.2294e-06	142.73	47.563	1.3205e-06	2.3254e-07	59.191	22.472	20.374	8.8416	4.5736e-07	11.559	0.00056445	0.00095041	0.0002721	139.59	8.811e-06	1.1001e-05	152.96	51.849	9.1863e-06	1.0642e-05	64.793	24.332	22.365	9.7472	9.4884e-06	12.592	68.425	36.034	291.746	4.698	127.997	143.518	2.678	11.032	46.190	290.415	5.919	11.386	15.246	19.396	204.237	13.983	-8191	255	
3394.512	1	1	0	0	0.27937	0.17842	0.091833	0.34894	0.099493	0.22879	0.27836	0.1517	0.088062	0.10448	0.069696	0.26264	0.17053	0.33619	0.16918	0.13926	-1.6542	-2.8187	-2.3	-2.4875	-2.9083	-2.0104	-2.7271	-2.4854	-2.0542	-3.0438	-2.4083	-2.2771	-2.9208	-2.175	-2.7604	-2.6479	342.374	343.358	127.875	228.135	341.914	328.362	348.778	4.891	226.577	203.612	204.107	153.922	133.267	114.699	339.665	267.980	0.00014765	6.3074e-05	3.7343e-05	127.98	1.2657e-06	2.1671e-06	142.87	47.475	1.7147e-06	1.9894e-06	59.587	22.422	20.494	8.92	2.6618e-06	11.736	0.00054937	0.00090342	0.00026618	139.63	9.0752e-06	1.0927e-05	153.62	51.975	9.2539e-06	1.0727e-05	65.136	24.508	22.527	9.8056	9.6379e-06	12.761	68.524	67.293	71.707	4.749	153.662	74.635	3.039	10.770	145.098	102.532	6.563	11.448	15.128	19.738	157.947	13.882	-8191	255	
3394.633	1	1	0	0	0.10022	0.31648	0.19215	0.17399	0.24443	0.203	0.062784	0.22813	0.049779	0.030636	0.082423	0.10085	0.1352	0.02811	0.26166	0.10133	-1.6583	-2.9354	-2.4458	-2.2979	-3.1021	-2.2792	-2.5333	-2.6604	-2.1583	-2.8146	-2.4188	-2.1479	-3.0625	-2.1688	-2.6521	-2.8688	188.710	324.547	177.102	330.441	332.489	319.517	52.967	279.427	168.263	137.657	-1.524	26.753	56.497	151.806	109.481	60.350	9.9939e-05	5.259e-05	3.1375e-05	129.53	2.7654e-06	5.7247e-07	144.53	48.113	2.3945e-06	1.5902e-06	60.288	22.463	20.67	8.8544	1.1347e-06	11.54	0.00055209	0.00090162	0.00025886	140.6	8.8645e-06	1.063e-05	154.47	52.262	8.8508e-06	1.0512e-05	65.508	24.383	22.596	9.7996	9.4503e-06	12.694	58.968	317.050	69.600	4.708	165.293	72.390	2.983	10.439	133.161	185.748	6.448	11.571	15.072	19.351	72.996	13.868	-8191	255	
3394.729	1	1	0	0	0.18967	0.0806	0.098785	0.16393	0.10107	0.13219	0.44426	0.26825	0.16209	0.091734	0.26055	0.12351	0.083748	0.15354	0.034586	0.15068	-1.7104	-2.8271	-2.3583	-2.1875	-3.0271	-2.1813	-2.5062	-2.775	-2.2521	-2.9333	-2.6833	-2.3167	-2.8979	-2.2375	-2.5458	-3.1208	290.081	93.231	338.117	201.593	342.211	268.086	270.879	346.508	297.790	124.960	274.521	289.960	109.797	0.431	337.334	48.866	9.4859e-05	8.2892e-05	8.2274e-05	128.29	8.6909e-07	1.5359e-06	142.13	47.887	1.0788e-07	1.6799e-06	60.338	22.287	20.431	8.8611	2.0903e-06	11.626	0.00054539	0.00090027	0.00025823	139.27	8.741e-06	1.0788e-05	153.58	52.102	9.0249e-06	1.0243e-05	65.077	24.259	22.516	9.7915	9.6432e-06	12.632	81.588	92.980	75.388	5.250	109.120	134.057	2.984	10.760	41.891	181.576	6.316	11.236	15.443	19.716	92.794	13.900	-8191	255	
3394.825	1	1	0	0	0.32763	0.12386	0.074841	0.21527	0.054742	0.19759	0.15902	0.17283	0.27707	0.04981	0.26119	0.061973	0.19762	0.24345	0.18167	0.2309	-1.6021	-2.5896	-2.5167	-2	-3.1	-2.1667	-2.2938	-2.9771	-1.9646	-2.7562	-2.7687	-1.95	-2.8021	-2.4708	-2.3604	-3.0896	13.893	259.975	173.131	75.840	70.219	95.618	207.784	34.177	224.266	187.871	92.864	78.983	245.331	125.945	15.691	296.842	0.00012885	0.00027184	2.3198e-05	129.09	5.9722e-07	1.7312e-06	142.39	47.497	2.4105e-06	1.734e-06	59.911	22.518	20.71	8.9099	1.5069e-06	11.615	0.00055986	0.00093976	0.00026378	140.17	8.9052e-06	1.0601e-05	154.2	52.191	9.3121e-06	1.0387e-05	65.364	24.404	22.672	9.8506	9.48e-06	12.761	75.263	110.685	64.263	5.261	93.008	149.914	3.125	10.750	203.698	95.303	6.470	10.809	15.539	20.002	119.321	13.557	-8191	255	
3394.921	1	1	0	0	0.23482	0.21804	0.23661	0.11674	0.15819	0.11398	0.25858	0.25537	0.26567	0.20335	0.16587	0.23824	0.30159	0.17053	0.18814	0.11729	-1.6458	-2.625	-2.9271	-2.4042	-2.9479	-2.5875	-2.1083	-2.8896	-2.2771	-2.6271	-2.7854	-2.0229	-2.8833	-2.4917	-2.2708	-2.9604	63.304	49.542	18.277	199.013	12.876	157.061	242.632	256.458	215.629	143.695	27.419	283.143	237.968	307.735	-7.645	55.498	0.00010861	0.00012405	3.2849e-05	130.83	4.8268e-07	2.0671e-06	143.82	47.993	2.4288e-06	2.0719e-06	60.386	22.65	20.607	8.9815	1.4345e-06	11.75	0.00053942	0.00092174	0.00026779	140.68	8.8246e-06	1.083e-05	155.36	52.448	9.0228e-06	1.069e-05	65.807	24.794	22.69	9.9341	9.962e-06	12.882	76.887	105.941	94.156	5.122	162.164	145.364	3.443	10.245	116.134	180.736	6.964	10.845	15.404	19.544	136.221	14.169	-8191	255	
3395.018	1	1	0	0	0.13347	0.1402	0.10599	0.5408	0.11704	0.089488	0.046172	0.35737	0.33704	0.13664	0.17256	0.063405	0.05701	0.23685	0.10721	0.36559	-1.9188	-2.5625	-2.7896	-2.1542	-2.7583	-2.6437	-2.2479	-2.8854	-2.2208	-2.4813	-2.9542	-2.2313	-2.7333	-2.7229	-2.1583	-3.0583	38.798	316.036	96.900	159.365	316.228	12.550	298.665	297.546	292.294	329.635	33.648	342.218	299.364	207.599	208.223	245.153	0.00012271	2.377e-05	1.5832e-05	130.91	1.9514e-06	1.8911e-06	144.63	48.256	3.0411e-06	2.4994e-06	60.603	22.598	20.609	8.9192	1.1012e-06	11.59	0.00055783	0.00092722	0.00026105	141.52	8.9031e-06	1.0297e-05	155.93	52.515	8.8771e-06	1.0519e-05	65.774	24.631	22.678	9.8588	9.8857e-06	12.666	71.075	253.292	135.358	5.246	144.472	199.070	3.055	10.559	136.314	139.817	6.810	11.187	15.137	19.383	146.345	14.062	-8191	255	
3395.112	1	1	0	0	0.1009	0.14611	0.12961	0.23491	0.0077023	0.14087	0.54468	0.27774	0.15115	0.26393	0.20055	0.18678	0.15799	0.08171	0.27904	0.084175	-2.0167	-2.3021	-2.9625	-2.0667	-2.5938	-2.625	-2.0521	-2.9042	-2.4188	-2.3604	-3.0146	-2.2271	-2.4813	-2.8354	-2.0292	-2.8771	162.014	262.254	335.151	88.351	328.780	26.864	30.285	-2.759	245.232	76.357	100.654	233.734	12.537	252.289	200.100	227.349	0.00013232	0.00018889	3.6679e-05	131.44	8.7143e-07	2.4667e-06	143.39	48.235	8.4455e-07	1.0712e-06	60.097	22.26	20.465	8.9421	2.5379e-06	11.536	0.00055033	0.00095725	0.00025155	141.17	8.9531e-06	1.043e-05	154.1	52.4	8.8316e-06	1.0179e-05	65.177	24.332	22.574	9.8229	9.8377e-06	12.631	67.541	45.429	63.454	5.220	60.846	162.286	2.928	10.657	104.321	235.648	6.312	11.283	15.214	19.102	100.157	13.795	-8191	255	
3395.208	1	1	0	0	0.21237	0.047418	0.15808	0.17856	0.3226	0.093238	0.083436	0.28111	0.25071	0.11109	0.10316	0.10489	0.11325	0.11781	0.083699	0.17742	-2.2083	-2.3292	-3	-2.1813	-2.5312	-2.9979	-2.0271	-2.8375	-2.4042	-2.1562	-2.9792	-2.2292	-2.3312	-2.8458	-2.1229	-2.6188	153.404	122.110	285.595	281.417	238.494	139.434	214.757	142.878	310.200	33.109	102.817	63.218	253.028	265.157	65.260	143.426	0.000164	0.00013769	2.2235e-05	129.26	1.5774e-06	1.2205e-06	142.94	47.667	2.7235e-06	1.5805e-06	59.924	22.567	20.647	8.9925	2.6347e-06	11.756	0.00053046	0.00094103	0.0002538	140.47	8.9531e-06	1.0456e-05	154.34	52.341	8.9247e-06	1.0286e-05	65.518	24.54	22.652	9.9046	9.3542e-06	12.777	73.193	73.584	65.657	5.175	100.647	104.093	2.967	10.635	92.932	45.937	6.965	10.954	15.017	19.375	146.789	14.234	-8191	255	
3395.329	1	1	0	0	0.14415	0.1279	0.14458	0.15363	0.023756	0.17328	0.10355	0.11626	0.16157	0.27301	0.089737	0.059044	0.072919	0.16951	0.031357	0.15909	-2.3	-2.2271	-3.0312	-2.3917	-2.425	-2.9667	-2.2458	-2.9104	-2.7062	-2.0125	-2.9938	-2.5333	-2.4562	-3.1104	-2.1854	-2.6417	351.867	181.905	99.891	-3.181	291.667	81.620	286.670	142.318	344.421	315.301	151.080	183.064	302.487	103.094	215.167	91.943	0.00013147	0.00015658	2.8074e-05	131.07	3.9668e-07	2.2655e-06	145.29	48.683	1.5619e-06	9.6521e-07	61.205	22.816	20.808	9.0918	3.7517e-07	11.862	0.00052349	0.00092992	0.00024831	141.34	8.7325e-06	1.0349e-05	156.14	52.95	8.5408e-06	1.0614e-05	66.424	24.883	22.874	10.038	9.4953e-06	13.013	73.685	104.081	92.367	5.205	111.480	172.275	3.040	10.897	79.901	126.558	6.435	11.503	15.798	19.555	287.693	14.360	-8191	255	
3395.425	1	1	0	0	0.089446	0.38339	0.38234	0.058177	0.11704	0.16029	0.11847	0.24991	0.08379	0.13849	0.012626	0.1137	0.16182	0.16813	0.11318	0.20848	-2.3125	-2.0354	-2.8417	-2.4	-2.2667	-2.9333	-1.9833	-2.5042	-2.9	-2.2167	-2.9854	-2.4104	-2.2438	-2.9188	-2.3854	-2.4271	79.391	12.563	319.199	11.050	177.374	-6.338	276.921	166.183	129.368	30.840	81.311	104.114	271.863	180.480	335.097	31.948	0.00015427	9.5798e-05	4.1201e-05	131.32	5.2877e-07	1.915e-06	145.3	48.755	1.1815e-06	9.4796e-07	61.075	22.707	20.884	9.1318	6.3452e-07	11.747	0.00054309	0.00094321	0.00024973	141.99	8.7353e-06	1.0137e-05	156.57	53.131	8.752e-06	1.0287e-05	66.041	24.694	22.961	9.9987	9.4831e-06	12.851	71.402	233.578	63.633	4.965	177.228	166.728	2.819	10.998	198.774	280.739	6.548	11.045	15.337	19.937	68.134	14.312	-8191	255	
3395.497	1	1	0	0	0.10795	0.055048	0.22032	0.029361	0.11311	0.2412	0.14941	0.31642	0.13864	0.21603	0.24825	0.076505	0.22181	0.20985	0.14413	0.077454	-2.7	-2.1792	-2.7562	-2.5979	-2.0938	-3.0187	-2.1958	-2.475	-2.8125	-1.9937	-2.7062	-2.5062	-1.9229	-3.0729	-2.2542	-2.3042	47.927	249.004	351.448	21.096	283.411	192.402	186.648	330.928	91.007	78.750	284.915	151.984	186.298	264.102	88.569	215.605	9.365e-05	8.6121e-05	2.9824e-05	130.73	1.401e-06	2.2905e-07	144.73	48.152	1.2138e-06	1.2364e-06	60.813	22.682	20.817	9.0369	3.7325e-07	11.705	0.00053528	0.00091761	0.00025161	141.36	8.8481e-06	1.0357e-05	156.19	52.899	8.5294e-06	1.043e-05	66.069	24.668	22.865	9.997	9.4609e-06	12.828	76.440	157.606	96.597	5.422	129.419	-3.649	3.168	10.580	165.249	119.610	6.617	11.604	15.123	19.101	130.816	14.601	-8191	255	
3395.593	1	1	0	0	0.33054	0.19762	0.063464	0.077132	0.032834	0.15204	0.10541	0.14073	0.10446	0.04751	0.09544	0.26146	0.032056	0.17947	0.084303	0.24915	-2.475	-1.9521	-2.6854	-2.7771	-2.2271	-2.8896	-2.3896	-2.2438	-2.9146	-2.1083	-2.5563	-2.8625	-2.0667	-3.0625	-2.5563	-2.1646	50.795	162.017	226.558	153.170	208.800	175.390	156.417	324.297	275.795	247.894	164.285	41.644	41.699	281.921	70.869	43.394	0.00014908	6.4961e-05	4.2189e-05	130.3	6.4101e-07	2.3195e-06	146.13	48.595	8.335e-07	4.8362e-07	61.546	22.832	21.082	9.1718	2.7606e-06	11.985	0.00053134	0.00092256	0.00025331	141.71	8.9416e-06	1.0331e-05	156.86	53.184	8.6339e-06	1.03e-05	66.719	24.879	23.099	10.099	9.5441e-06	13.036	82.572	163.840	107.734	5.423	52.040	141.667	2.845	10.831	186.566	233.782	6.928	11.688	14.864	19.682	120.380	13.879	-8191	255	
3395.713	1	1	0	0	0.11946	0.12962	0.13846	0.10714	0.33668	0.098384	0.051972	0.14698	0.22264	0.068196	0.20275	0.083914	0.16342	0.35962	0.11244	0.15891	-2.6688	-2.1104	-2.4938	-2.7958	-2.0396	-2.9146	-2.5583	-2.2896	-3.0812	-2.3771	-2.5625	-2.8896	-2.0625	-2.7167	-2.7271	-2.2271	206.611	330.510	81.816	312.319	337.362	197.780	38.306	73.053	142.001	105.108	191.260	11.386	92.992	95.662	78.363	175.634	0.00014637	0.00015059	6.5524e-06	131.26	6.6628e-07	7.4107e-07	146.94	49.287	1.2317e-06	6.9165e-07	61.413	23.177	21.202	9.2305	8.2431e-07	12.057	0.00053199	0.00093345	0.00025422	142.57	8.6675e-06	1.0309e-05	158.3	53.622	8.378e-06	1.0379e-05	67.094	25.22	23.231	10.181	9.0956e-06	13.131	70.897	66.498	294.106	4.948	116.281	154.564	3.100	11.193	153.906	92.378	6.188	10.896	15.625	19.526	115.986	14.451	-8191	255	
3395.810	1	1	0	0	0.23443	0.14086	0.2272	0.04172	0.11432	0.015897	0.19289	0.11168	0.19226	0.13321	0.17437	0.15701	0.091006	0.20541	0.1419	0.10323	-2.5729	-2.2458	-2.3833	-2.9938	-2.0771	-2.9708	-2.6688	-2.1042	-2.95	-2.3812	-2.3708	-2.9042	-2.1771	-2.6	-2.8396	-2.1479	172.374	16.855	181.145	335.444	319.950	340.959	25.294	113.625	137.236	210.361	334.226	341.473	58.617	312.624	325.892	308.746	0.00011638	0.00014152	1.6624e-05	132.64	1.1796e-06	1.427e-06	146.39	49.351	1.5374e-06	1.6821e-06	60.972	22.816	21.063	9.119	6.738e-07	11.736	0.00052514	0.00093112	0.0002655	143.25	8.9274e-06	1.0254e-05	157.77	53.656	8.4541e-06	1.0114e-05	66.711	24.918	23.086	10.074	9.4541e-06	12.883	73.511	40.840	137.571	4.837	349.202	169.287	2.774	11.300	134.022	214.953	6.648	11.587	15.123	19.338	263.590	13.922	-8191	255	
3395.906	1	1	0	0	0.10854	0.11399	0.22526	0.10882	0.29416	0.15553	0.16256	0.20034	0.18663	0.12899	0.22486	0.23119	0.31688	0.33477	0.20032	0.06099	-2.5396	-2.4292	-2.0187	-2.9062	-2.1562	-2.7354	-2.8125	-1.9729	-2.9604	-2.5479	-2.2021	-3.0833	-2.3854	-2.3063	-2.9167	-2.2146	308.015	258.232	184.744	238.625	169.436	7.553	303.966	49.457	172.376	49.315	291.509	206.434	273.774	25.584	338.913	336.038	0.00011783	0.00015555	4.7854e-05	131.77	4.6282e-07	1.9653e-06	145.94	49.083	3.4965e-07	7.7115e-07	60.966	22.845	20.964	9.0082	2.0477e-06	11.753	0.00052326	0.00093503	0.00026281	142.32	8.8017e-06	1.0433e-05	156.69	53.363	8.4619e-06	1.0345e-05	66.241	24.686	22.956	9.9897	9.014e-06	12.801	82.163	43.689	62.262	5.374	134.532	109.470	3.168	11.193	176.886	87.246	6.537	11.275	15.430	19.942	138.410	14.442	-8191	255	
3396.026	1	1	0	0	0.30964	0.038656	0.16299	0.080264	0.13882	0.1108	0.1222	0.17887	0.27206	0.015257	0.19272	0.33913	0.12518	0.35335	0.19676	0.18572	-2.4354	-2.5208	-2.0062	-2.9146	-2.2562	-2.5646	-3.0208	-2.0958	-2.8521	-2.5667	-2.0604	-2.95	-2.2021	-2.3625	-2.9875	-2.0521	209.092	122.400	189.847	191.926	175.481	343.145	138.936	75.289	72.926	1.918	168.344	316.724	87.088	244.622	179.149	81.708	0.00010741	5.3045e-05	3.8262e-05	131.48	2.061e-06	5.6344e-07	145.86	48.958	2.6421e-06	2.1705e-06	61.016	22.755	20.974	9.0172	1.1634e-06	11.838	0.00053023	0.00092024	0.00026266	142.01	8.7517e-06	1.0616e-05	156.3	53.138	8.4136e-06	1.0118e-05	66.161	24.765	22.91	9.961	8.9233e-06	12.875	80.250	44.412	67.160	5.336	165.653	172.367	2.981	10.891	159.713	137.793	7.097	11.530	15.095	19.991	165.227	13.799	-8191	255	
3396.121	1	1	0	0	0.1919	0.32721	0.10258	0.098088	0.20378	0.10958	0.19805	0.10029	0.31749	0.36156	0.21412	0.30288	0.14863	0.17269	0.23857	0.21536	-2.4083	-2.7333	-2.1396	-3.0542	-2.3542	-2.4104	-3.1437	-2.1458	-2.7042	-2.9062	-2.1396	-3.0146	-2.5062	-2.1583	-2.8146	-2.2125	249.838	280.144	47.029	110.960	310.582	7.720	211.599	55.878	92.317	47.318	3.248	8.957	51.576	88.570	98.958	106.302	0.00014672	0.00014804	2.8931e-05	132.88	1.1101e-06	8.911e-07	145.96	48.928	1.9151e-06	1.7151e-06	61.135	23.011	21.03	9.1485	1.1253e-06	11.919	0.00051729	0.00090545	0.00025543	142.77	9.003e-06	1.0753e-05	157.15	53.222	8.8067e-06	1.0294e-05	66.456	25.012	23.1	10.106	9.1109e-06	12.973	80.081	114.306	69.708	5.376	128.631	306.947	2.878	10.890	148.207	98.866	6.818	10.797	15.209	20.002	260.008	14.259	-8191	255	
3396.194	1	1	0	0	0.20024	0.21593	0.13571	0.11241	0.15308	0.21297	0.096728	0.22572	0.054709	0.12913	0.11779	0.2598	0.086363	0.31943	0.17214	0.17119	-2.1875	-2.7875	-2.0146	-2.8542	-2.5333	-2.3292	-2.9271	-2.325	-2.3479	-2.8229	-2.1312	-2.9708	-2.5563	-2.1271	-3.1667	-2.3021	190.717	206.342	235.226	168.975	200.489	172.291	335.668	179.492	214.369	133.163	123.772	255.865	343.186	19.329	262.604	236.074	0.00012303	0.00017498	1.3514e-05	131.73	1.4651e-06	6.1456e-07	145.02	49.294	1.5571e-06	3.0788e-07	60.182	22.687	20.775	9.1156	3.0252e-07	11.665	0.00053368	0.00090748	0.00026419	142.45	8.7246e-06	1.0355e-05	156.24	53.267	8.7626e-06	1.0216e-05	65.995	24.627	22.914	10.029	9.1223e-06	12.748	68.074	129.192	142.492	5.181	122.123	122.357	2.686	11.193	110.825	167.151	6.515	11.613	15.147	19.725	247.213	14.069	-8191	255	
3396.313	1	1	0	0	0.027883	0.15693	0.083986	0.068546	0.21976	0.075036	0.027377	0.14107	0.39576	0.34121	0.17848	0.11419	0.13174	0.17771	0.17145	0.12353	-2.1562	-3.1708	-2.1667	-2.925	-2.7625	-2.3667	-2.9479	-2.4458	-2.4083	-3.1292	-2.1542	-2.7375	-2.5458	-2.2458	-2.8333	-2.3625	341.401	290.874	95.314	143.906	210.877	347.417	317.003	18.342	34.799	128.514	194.283	182.689	226.502	298.486	64.132	164.329	9.622e-05	0.00020568	1.4193e-05	130.59	6.2111e-07	2.4858e-07	145.38	49.166	6.6941e-07	1.7038e-06	60.398	22.593	21.007	9.2159	1.4331e-06	11.834	0.00052935	0.00091251	0.0002574	141.86	8.6753e-06	1.0885e-05	156.46	53.388	8.779e-06	1.0456e-05	65.975	24.74	23.128	10.111	9.0385e-06	12.899	62.563	165.840	332.733	5.702	146.344	78.164	2.841	11.176	81.633	121.255	6.838	11.561	15.527	19.698	134.191	14.615	-8191	255	
3396.409	1	1	0	0	0.20289	0.16566	0.089583	0.1427	0.10289	0.014134	0.048128	0.23395	0.26767	0.10971	0.11644	0.12572	0.077175	0.26838	0.081077	0.16609	-1.9917	-2.8187	-2.0104	-2.675	-2.7146	-2.125	-3.0833	-2.7146	-2.0146	-3.0687	-2.2167	-2.5917	-2.8312	-2	-2.9667	-2.6104	141.922	3.668	58.305	317.973	327.410	98.678	190.878	216.982	34.486	45.692	11.182	294.216	28.785	20.528	258.717	97.926	0.0001518	6.8179e-05	8.3129e-06	131.57	3.9962e-07	1.5038e-06	144.73	49.453	1.1119e-06	1.637e-06	61.169	22.943	21.153	9.1809	1.3533e-06	11.887	0.00053769	0.00089411	0.00025534	142.8	8.5547e-06	1.0896e-05	156.61	53.594	8.8849e-06	9.8549e-06	66.484	25.018	23.211	10.149	9.4342e-06	13.021	77.697	100.448	304.034	5.621	90.218	110.531	3.464	10.761	138.302	139.953	6.818	11.817	15.297	19.703	120.626	13.930	-8191	255	
3396.505	1	1	0	0	0.21345	0.20915	0.10426	0.22578	0.29446	0.081549	0.11005	0.20703	0.14871	0.18609	0.33606	0.21326	0.20766	0.26439	0.084154	0.16657	-1.8729	-3.0021	-2.1292	-2.5917	-2.8438	-2.1833	-2.9188	-2.5	-2.125	-2.975	-2.3167	-2.4958	-2.9896	-2.0854	-2.6458	-2.8646	277.892	332.944	250.325	116.222	155.837	2.217	41.899	90.810	-4.845	178.412	349.758	311.540	147.257	107.632	156.890	80.082	0.00015197	6.5819e-05	4.4701e-06	134.02	2.1572e-06	7.4491e-07	146.57	49.614	2.2509e-06	1.4756e-06	62.115	23.394	21.398	9.2151	1.4679e-06	12.026	0.00053494	0.00088533	0.0002588	143.79	8.6682e-06	1.0704e-05	158.34	53.907	8.9389e-06	1.0035e-05	67.26	25.328	23.401	10.19	9.4411e-06	13.098	76.441	92.959	33.048	5.264	87.705	210.547	2.963	10.696	156.749	131.241	6.976	11.490	15.257	19.973	137.626	14.270	-8191	255	
3396.626	1	1	0	0	0.082891	0.24892	0.063213	0.20656	0.089306	0.26457	0.17752	0.046288	0.14474	0.11759	0.43996	0.24603	0.11611	0.21813	0.069253	0.33968	-1.65	-3.0312	-2.3104	-2.2729	-2.9208	-2.1646	-2.7604	-2.9271	-2.0938	-2.8937	-2.5	-2.0979	-2.7979	-2.1125	-2.7667	-2.8125	182.499	306.640	231.950	265.322	155.924	118.582	245.896	27.348	322.322	-1.140	122.197	2.155	169.884	340.902	230.681	91.991	0.00014268	8.2657e-05	3.3736e-05	131.83	1.2434e-06	1.1888e-06	146.54	49.214	4.0765e-07	2.0463e-06	60.777	22.884	21.105	9.161	5.1811e-07	11.859	0.000546	0.00089787	0.00025596	143.07	8.4019e-06	1.0572e-05	157.57	53.726	9.1074e-06	1.0082e-05	66.426	24.912	23.247	10.154	9.3984e-06	12.915	67.129	62.741	58.917	5.362	125.312	183.992	3.232	10.215	272.347	169.013	6.257	11.500	14.558	19.134	143.639	13.506	-8191	255	
3396.722	1	1	0	0	0.11905	0.27543	0.19874	0.10315	0.15815	0.19425	0.12533	0.42207	0.15825	0.42777	0.16194	0.22638	0.2113	0.062062	0.20102	0.038441	-1.6833	-2.7417	-2.5312	-2.1688	-2.9625	-2.2792	-2.3	-2.6917	-2.1292	-2.6729	-2.6208	-1.95	-2.9729	-2.2917	-2.7062	-2.8104	35.737	320.903	176.521	251.800	243.650	105.501	349.380	255.874	-5.635	23.022	44.748	144.589	279.713	103.455	57.091	262.797	0.00013035	0.0001434	3.6817e-05	133	2.2094e-06	1.2189e-06	145.58	49.459	1.8844e-06	2.1804e-06	61.806	22.918	21.283	9.2658	2.2912e-06	11.836	0.00055477	0.00089336	0.00026107	143.45	8.6675e-06	1.0311e-05	156.71	53.819	8.6681e-06	9.9566e-06	66.611	24.922	23.247	10.183	9.5014e-06	12.969	80.322	100.374	105.755	5.275	124.172	108.513	2.827	10.410	96.583	141.102	6.459	11.128	14.836	19.636	163.740	13.793	-8191	255	
3396.794	1	1	0	0	0.41175	0.11757	0.06362	0.31412	0.18887	0.11376	0.071872	0.11293	0.23327	0.10999	0.18785	0.31996	0.16743	0.27656	0.21121	0.17129	-1.6833	-2.7792	-2.4854	-2.1604	-2.8812	-2.3312	-2.65	-2.8479	-2.0479	-2.7792	-2.6792	-2.1583	-3.0667	-2.4208	-2.3854	-2.9479	297.011	73.601	164.252	215.781	163.390	251.621	273.569	25.038	111.169	269.026	74.599	293.797	94.421	161.561	211.804	330.650	0.00015792	0.00013083	5.574e-05	132.11	2.2327e-06	2.9286e-07	146.2	49.119	3.2057e-07	2.5117e-07	61.159	22.899	21.265	9.2789	9.3067e-07	11.914	0.00055228	0.00086739	0.00025554	143.26	8.3619e-06	1.0427e-05	157.54	53.639	8.8003e-06	1.0181e-05	66.525	25.07	23.367	10.228	9.6966e-06	13.047	68.976	82.973	115.410	5.240	145.344	180.107	2.566	10.581	96.798	203.074	6.087	10.855	14.866	19.283	120.188	13.344	-8191	255	
3396.890	1	1	0	0	0.14017	0.2488	0.24801	0.29185	0.11849	0.147	0.086625	0.14922	0.18306	0.22224	0.19605	0.12397	0.38797	0.2142	0.15733	0.19886	-1.5375	-2.4271	-2.7042	-2.1562	-3.0271	-2.4729	-2.3875	-2.7708	-2.1312	-2.475	-2.7938	-1.9604	-2.7875	-2.5708	-2.0729	-3.1	84.942	261.292	129.762	215.057	251.580	240.065	227.946	0.937	101.570	42.069	336.916	319.880	351.681	331.579	38.327	47.565	0.0001487	3.1096e-05	4.0689e-05	133.67	7.0798e-07	1.4432e-06	147.56	49.854	1.05e-06	1.3834e-06	62.127	23.102	21.469	9.2424	2.1077e-07	11.918	0.00055059	0.00090245	0.00026499	144	8.5461e-06	1.0541e-05	158.89	54.166	8.9155e-06	1.0441e-05	67.345	25.197	23.539	10.244	9.4968e-06	13.054	84.564	49.123	86.034	4.852	118.245	146.673	3.118	10.573	215.966	159.363	6.475	11.285	14.727	19.542	93.252	13.304	-8191	255	
3396.986	1	1	0	0	0.12775	0.20055	0.075138	0.084439	0.13246	0.030618	0.32484	0.023149	0.14705	0.19098	0.059224	0.13531	0.042265	0.20597	0.27205	0.025233	-1.6104	-2.4417	-2.8083	-2.0021	-2.8875	-2.6542	-1.9667	-3.0646	-2.3042	-2.4104	-2.9	-1.9792	-2.6833	-2.3646	-2.1271	-3.025	99.284	130.425	223.531	42.663	78.285	68.779	301.076	133.328	84.319	144.772	8.975	52.506	192.893	13.858	57.716	210.635	0.0001401	6.291e-05	5.208e-05	132.97	1.3032e-06	7.2706e-07	145.8	49.61	1.1568e-06	2.1522e-06	61.148	22.848	21.229	9.2816	1.1253e-06	11.804	0.00054925	0.0009035	0.00026264	144.06	8.7953e-06	1.0415e-05	157.77	54.056	8.9666e-06	1.0557e-05	66.56	24.938	23.315	10.196	9.3603e-06	12.901	72.920	351.476	14.466	5.072	155.737	89.546	2.887	10.788	173.284	137.948	5.974	11.894	15.488	19.606	187.761	13.915	-8191	255	
3397.105	1	1	0	0	0.0877	0.19964	0.13005	0.16893	0.22234	0.13125	0.11706	0.25745	0.11215	0.11694	0.35344	0.19059	0.055396	0.072209	0.15019	0.17478	-1.8188	-2.3917	-2.8583	-2.1625	-2.7313	-2.825	-2.2167	-2.8708	-2.4729	-2.3792	-3.0979	-2.1833	-2.6396	-2.6479	-2.1813	-2.9979	172.600	319.350	90.914	308.757	212.104	352.420	275.908	173.782	131.945	81.961	162.340	62.506	88.206	230.949	115.619	23.833	0.00011714	0.00020063	3.1637e-05	133.07	9.1902e-07	8.1009e-07	147.11	49.394	1.76e-06	1.6394e-06	60.843	22.883	21.406	9.2437	1.3054e-06	11.843	0.00054784	0.00094141	0.00025132	143.59	8.6332e-06	1.0738e-05	156.95	53.835	8.8053e-06	1.0057e-05	66.136	24.861	23.333	10.182	9.8964e-06	12.915	80.749	107.554	94.834	5.054	195.343	138.363	2.892	11.032	142.193	153.378	6.592	11.396	15.267	19.514	151.392	14.364	-8191	255	
3397.201	1	1	0	0	0.041979	0.33746	0.13725	0.10069	0.11895	0.21609	0.14187	0.12016	0.15003	0.1735	0.1549	0.16185	0.075905	0.12214	0.15584	0.12974	-2.0083	-2.3208	-2.9396	-2.1479	-2.6396	-2.9583	-2.0229	-2.7521	-2.7083	-2.1958	-3.0938	-2.3458	-2.475	-3.0042	-2.325	-2.7792	171.257	135.408	40.563	153.970	183.189	264.896	282.659	0.144	38.035	0.981	27.596	311.072	316.458	93.366	136.387	171.098	0.0001125	5.8875e-05	8.9436e-05	131.56	2.5659e-07	1.9995e-06	146.04	49.491	1.9429e-06	6.8361e-07	60.758	22.766	21.307	9.1845	1.1067e-06	11.866	0.00055618	0.00092181	0.00024667	143.05	8.554e-06	1.0516e-05	157.27	53.633	9.0406e-06	1.0261e-05	66.396	24.834	23.381	10.176	9.6836e-06	12.986	85.792	32.010	35.549	5.277	237.270	130.391	3.089	10.694	137.561	251.299	7.011	11.030	15.273	20.045	175.591	13.759	-8191	255	
3397.297	1	1	0	0	0.27499	0.29831	0.034885	0.15723	0.29585	0.084489	0.11808	0.061387	0.069389	0.041274	0.13874	0.14477	0.099878	0.1924	0.027261	0.16208	-2.3083	-2.0938	-2.9708	-2.25	-2.5083	-2.9875	-2.0375	-2.9042	-2.7146	-2.0125	-3.0667	-2.3979	-2.4833	-2.7625	-2.1146	-2.6958	196.045	116.547	313.989	195.921	209.037	141.389	75.032	300.197	204.857	206.196	106.762	268.616	217.185	343.430	242.318	336.882	0.00010265	7.5708e-05	6.9946e-06	132.9	1.0755e-06	1.4394e-06	147.1	49.806	2.5858e-06	1.3866e-06	61.972	22.996	21.285	9.3382	1.9972e-06	11.965	0.00052694	0.00092354	0.00025174	143.64	8.5511e-06	1.0349e-05	158.04	53.979	8.8437e-06	1.0619e-05	67.124	25.041	23.407	10.242	9.5273e-06	12.989	84.937	87.954	-6.895	5.211	46.104	159.306	2.675	10.691	120.357	150.958	7.059	11.637	15.206	19.804	130.939	13.849	-8191	255	
3397.393	1	1	0	0	0.2853	0.070186	0.25636	0.28806	0.072112	0.1352	0.1111	0.13002	0.039629	0.18101	0.15182	0.044463	0.029429	0.31776	0.24987	0.17102	-2.3104	-2.1625	-2.9958	-2.4708	-2.2042	-3.0375	-2.1083	-2.7167	-2.8208	-2.0333	-2.8146	-2.5146	-2.375	-2.9813	-2.1458	-2.4813	348.820	259.072	199.762	70.037	3.678	306.231	53.743	112.303	268.103	348.919	254.726	129.962	319.804	234.069	319.866	291.031	0.00011786	0.00010684	4.2199e-05	132.25	1.9107e-06	8.3365e-07	144.58	49.91	1.506e-06	9.8857e-07	61.057	22.695	21.257	9.2039	1.0372e-06	11.802	0.00053019	0.00092332	0.00025036	143.13	8.846e-06	1.006e-05	156.34	53.872	8.5721e-06	1.0626e-05	66.243	24.693	23.348	10.168	9.4236e-06	12.89	68.952	179.082	83.628	5.132	162.859	156.344	3.591	10.491	103.291	73.864	6.382	10.876	15.445	19.727	172.184	14.448	-8191	255	
3397.490	1	1	0	0	0.10462	0.18551	0.15655	0.43885	0.12844	0.029871	0.22906	0.27347	0.086144	0.17837	0.12779	0.2078	0.22858	0.24078	0.11433	0.26514	-2.4208	-2.2229	-2.8646	-2.6771	-2.1312	-3.0375	-2.4146	-2.6896	-2.8042	-1.8062	-2.8104	-2.6479	-2.1458	-3.2083	-2.3458	-2.4646	0.173	325.863	278.557	325.288	21.867	159.054	2.655	242.069	198.988	118.688	347.253	125.195	87.106	331.038	263.691	84.978	0.00012349	0.00012797	3.3436e-05	131.99	1.1616e-06	4.1866e-07	145.57	49.611	1.6998e-06	2.1532e-06	61.34	22.814	21.286	9.3313	7.3063e-07	11.829	0.00053241	0.00090733	0.0002503	143.37	8.9716e-06	1.0223e-05	156.64	53.842	8.4157e-06	1.0632e-05	66.631	24.874	23.384	10.231	9.22e-06	12.965	84.588	69.436	60.104	5.267	126.429	113.171	3.291	11.188	121.486	159.018	6.649	11.217	15.505	19.785	159.267	14.355	-8191	255	
3397.586	1	1	0	0	0.10429	0.11099	0.14281	0.20156	0.22037	0.20375	0.16277	0.31412	0.16116	0.28679	0.21936	0.11407	0.2462	0.24709	0.0975	0.27627	-2.6125	-2.2687	-2.95	-2.8896	-1.9854	-3.0354	-2.5083	-2.4208	-2.9625	-2.2604	-2.7521	-2.6833	-2.2125	-3.0208	-2.4167	-2.4042	111.521	227.963	140.346	165.265	257.696	292.129	250.305	73.041	265.061	261.815	112.803	155.753	69.180	235.560	144.290	255.782	8.4657e-05	0.00011602	1.4731e-05	132.24	1.258e-06	1.8972e-06	145.95	49.629	1.0688e-06	1.7442e-06	62.102	23.108	21.667	9.4529	1.5063e-06	12.085	0.00054994	0.00092729	0.0002577	143.75	8.8346e-06	1.0635e-05	158.31	54.143	8.7804e-06	1.0732e-05	67.359	25.317	23.595	10.385	9.5326e-06	13.191	75.465	66.854	75.596	5.386	156.160	160.599	2.963	11.053	85.375	87.527	6.579	11.240	15.501	20.092	190.396	14.147	-8191	255	
3397.706	1	1	0	0	0.14439	0.21919	0.08014	0.15062	0.28865	0.071198	0.33028	0.2067	0.021307	0.25263	0.2533	0.1685	0.27082	0.064179	0.097752	0.27687	-2.6792	-2.2229	-2.6896	-2.7229	-2.0458	-2.8896	-2.6312	-2.3042	-2.8271	-2.0375	-2.5479	-2.8438	-1.9	-2.9917	-2.5271	-2.4021	239.437	295.135	266.682	300.183	288.149	237.192	294.721	274.616	335.065	162.852	321.792	92.877	275.311	81.901	221.606	347.643	0.00013406	0.00010122	7.8368e-05	134.09	2.5609e-06	4.4933e-07	149.64	49.867	1.3705e-06	1.1617e-06	62.279	23.11	21.466	9.4034	1.1851e-06	12.067	0.00054271	0.00094839	0.00026115	145.02	9.103e-06	1.0497e-05	160.45	54.617	8.6567e-06	1.058e-05	67.841	25.374	23.743	10.399	9.4403e-06	13.136	79.968	95.152	14.693	5.531	128.999	304.129	3.035	11.070	191.663	115.052	7.152	11.489	15.635	19.270	163.525	14.006	-8191	255	
3397.802	1	1	0	0	0.10278	0.37242	0.13271	0.15657	0.11086	0.21147	0.26716	0.21575	0.11634	0.14871	0.077905	0.16122	0.22858	0.41005	0.15998	0.26713	-2.5083	-2.2917	-2.5187	-2.9958	-2.2208	-2.8521	-2.4917	-2.2458	-3.0021	-2.3937	-2.3083	-2.8458	-2.0396	-2.6833	-2.6104	-2.0792	265.002	155.814	174.015	333.961	187.971	136.954	271.124	80.331	32.754	27.082	287.631	200.554	144.052	324.215	346.008	256.270	0.00015179	0.00012182	5.8547e-05	133.62	1.7994e-06	1.262e-06	147.66	49.917	1.5461e-06	1.2124e-06	62.356	23.098	21.556	9.4143	1.4634e-06	11.999	0.00054374	0.00094523	0.00025954	144.8	9.0802e-06	1.02e-05	158.81	54.465	8.533e-06	1.057e-05	67.358	25.158	23.71	10.372	9.5258e-06	13.082	72.338	50.965	123.365	4.889	81.328	265.292	2.828	10.928	83.686	186.422	6.485	10.830	15.689	20.174	139.481	14.098	-8191	255	
3397.899	1	1	0	0	0.18238	0.23402	0.080991	0.41057	0.22409	0.25389	0.065302	0.14719	0.21673	0.17312	0.43175	0.063757	0.15159	0.15701	0.16193	0.15506	-2.6917	-2.3708	-2.4042	-3.0104	-2.0979	-2.8063	-2.8375	-1.9542	-2.8958	-2.5563	-2.2687	-2.9604	-2.1146	-2.4625	-2.7833	-2.0875	344.342	106.145	149.492	63.730	62.390	290.095	75.477	89.842	25.493	262.818	279.105	71.581	153.373	329.828	-0.848	299.482	0.00011721	3.9382e-05	3.5631e-05	133.08	1.2869e-06	8.5371e-07	147.22	50.231	1.758e-06	5.5993e-07	61.687	23.185	21.613	9.3922	2.7748e-07	12.156	0.00053073	0.00091228	0.00026325	144.33	8.846e-06	1.0646e-05	158.6	54.54	8.3602e-06	1.0391e-05	67.077	25.218	23.578	10.358	9.4228e-06	13.127	74.216	135.827	192.281	5.782	109.788	97.550	3.135	11.134	190.472	209.270	6.915	11.245	15.559	20.131	172.843	14.401	-8191	255	
3397.995	1	1	0	0	0.1621	0.19103	0.33221	0.20445	0.17303	0.12782	0.072865	0.26396	0.24558	0.30584	0.065163	0.1864	0.19619	0.27834	0.32849	0.12941	-2.5812	-2.5396	-2.1458	-2.9229	-2.3167	-2.6688	-3.0167	-2.1417	-3.0271	-2.6729	-2.2458	-2.9562	-2.125	-2.4313	-2.9562	-1.9917	159.601	68.461	144.910	329.370	97.051	130.534	335.086	174.773	323.326	-0.473	82.066	177.492	23.859	240.767	72.289	341.207	0.00014726	6.304e-05	8.3844e-05	134.08	1.3896e-06	8.194e-07	148.44	50.349	5.4377e-07	6.8567e-07	62.129	23.351	21.459	9.4192	1.4723e-06	12.07	0.00052457	0.00094178	0.0002623	144.75	8.5732e-06	1.0589e-05	159.61	54.588	8.71e-06	1.0445e-05	67.4	25.349	23.621	10.356	9.1559e-06	13.184	77.047	176.358	77.202	5.026	148.596	177.504	3.299	10.699	178.520	95.465	6.237	10.919	14.555	19.182	131.941	13.666	-8191	255	
3398.089	1	1	0	0	0.20472	0.099523	0.16847	0.3592	0.17218	0.23878	0.24923	0.048345	0.2594	0.10266	0.0041266	0.20632	0.1808	0.20877	0.089031	0.027946	-2.4458	-2.3833	-2.1188	-2.8604	-2.2292	-2.4146	-3.0229	-2.1208	-2.6271	-2.6688	-1.9458	-2.7438	-2.3229	-2.325	-2.6771	-2.025	273.382	44.074	232.234	44.351	204.715	174.303	5.444	271.048	93.124	232.535	105.745	121.763	244.535	347.202	173.749	137.866	0.0001304	8.3936e-05	5.3472e-05	134.04	1.4972e-06	6.3229e-07	150.91	50.274	2.0211e-06	1.3121e-06	62.04	23.375	21.342	9.3509	1.3755e-06	11.97	0.00053088	0.00089411	0.00025956	145.09	8.7653e-06	1.0572e-05	161.17	54.597	8.582e-06	1.031e-05	67.61	25.272	23.594	10.345	8.963e-06	13.054	81.360	80.522	29.918	4.552	126.900	69.619	2.284	9.774	122.049	45.743	5.798	10.197	14.504	19.070	159.487	12.934	-8191	255	
3398.185	1	1	0	0	0.21206	0.1796	0.20196	0.10345	0.11132	0.046213	0.1729	0.062223	0.09332	0.20925	0.19501	0.1609	0.10066	0.2583	0.15459	0.33105	-2.3208	-2.7354	-1.9354	-2.8583	-2.4125	-2.3646	-3.0458	-2.2146	-2.6604	-3.0375	-2.0396	-2.8354	-2.4667	-2.0729	-2.8896	-2.2542	38.665	300.490	134.342	40.646	272.318	105.899	66.492	310.182	351.604	324.797	29.623	72.383	345.439	312.157	8.510	244.907	0.00013674	0.00019791	5.1024e-05	133.38	1.7955e-06	2.1485e-06	147.13	49.873	1.988e-06	1.7526e-06	61.969	23.02	21.487	9.2974	8.0248e-07	11.895	0.00052146	0.00088818	0.00025829	144.43	8.5997e-06	1.0215e-05	158.65	54.392	8.5785e-06	1.0016e-05	66.928	25.043	23.569	10.304	9.1513e-06	12.975	64.704	99.044	65.265	4.569	86.174	161.657	2.681	9.739	152.518	201.981	5.911	10.764	14.035	19.212	116.871	13.354	-8191	255	
3398.306	1	1	0	0	0.27032	0.13244	0.34641	0.12003	0.25622	0.051701	0.031924	0.096568	0.037706	0.23873	0.081804	0.10547	0.20545	0.08459	0.034769	0.055667	-2.1083	-2.8625	-1.9083	-2.7313	-2.6458	-2.0021	-2.9833	-2.2979	-2.4813	-2.9083	-2.0125	-2.7833	-2.4542	-2.1333	-2.8917	-2.4208	321.577	11.342	238.081	155.191	261.425	292.885	166.239	244.734	166.268	97.623	312.918	248.668	14.459	113.797	194.248	228.146	0.00013991	8.4226e-05	6.0118e-05	134.11	1.7699e-06	5.1135e-07	148.45	50.233	1.605e-06	1.5014e-06	62.153	23.159	21.578	9.4769	2.2473e-06	12.113	0.00052747	0.00088856	0.00025736	144.98	8.5961e-06	1.0338e-05	159.83	54.439	8.7235e-06	1.0216e-05	67.442	25.302	23.712	10.437	9.345e-06	13.231	77.513	99.581	72.453	4.208	130.476	283.896	2.153	9.935	173.918	248.282	6.005	10.942	14.476	19.176	112.400	13.037	-8191	255	
3398.402	1	1	0	0	0.37298	0.25862	0.24641	0.19028	0.26602	0.10547	0.11291	0.16359	0.085766	0.09593	0.30346	0.13784	0.13893	0.27374	0.22063	0.36031	-1.95	-2.8333	-2.125	-2.7333	-2.6167	-2.1208	-2.8917	-2.3333	-2.2729	-3.0417	-2.0646	-2.7333	-2.8104	-2.1958	-2.8792	-2.4896	252.871	75.784	14.676	215.995	18.982	215.960	280.933	53.860	257.986	275.877	17.759	328.545	21.511	151.691	252.448	111.409	0.00012125	6.7296e-05	3.6753e-05	134.95	9.0029e-07	1.5264e-06	150.38	50.81	1.7935e-06	1.4142e-06	62.378	23.782	21.664	9.5264	8.0798e-07	12.277	0.00054072	0.00090455	0.00026474	146.25	8.736e-06	1.0611e-05	160.85	55.027	8.8259e-06	9.9489e-06	67.879	25.775	23.965	10.551	9.4304e-06	13.36	71.226	44.470	59.955	4.499	167.684	184.986	2.752	10.402	238.467	182.140	5.950	10.894	14.088	18.829	126.670	13.365	-8191	255	
3398.498	1	1	0	0	0.14976	0.1501	0.041365	0.23967	0.12151	0.25579	0.10145	0.22599	0.19167	0.42324	0.13347	0.10827	0.15125	0.32895	0.081641	0.14832	-1.65	-3.0125	-1.9771	-2.5854	-2.7958	-1.9438	-2.9979	-2.4688	-2.1167	-2.9646	-2.325	-2.5333	-2.9688	-2.1437	-2.7354	-2.5125	310.306	107.595	141.074	19.437	101.370	252.529	256.718	347.542	226.140	124.507	161.956	55.116	232.986	225.373	299.646	208.284	0.00016263	0.00016979	3.0596e-05	136.04	2.2907e-07	6.8418e-07	150.97	51.17	7.4719e-07	2.2841e-06	62.677	23.665	22.078	9.5732	1.8505e-07	12.157	0.00055289	0.00086056	0.0002616	147.46	8.5325e-06	1.0714e-05	162.37	55.472	9.2005e-06	1.0135e-05	68.231	25.744	24.101	10.539	9.4556e-06	13.252	81.179	51.939	266.473	4.512	263.761	224.416	2.606	10.125	251.074	108.306	5.815	11.177	14.532	18.947	233.078	13.084	-8191	255	
3398.594	1	1	0	0	0.091606	0.12487	0.27597	0.062028	0.10843	0.24183	0.15495	0.20114	0.20628	0.21642	0.23899	0.22074	0.19363	0.12984	0.054361	0.1684	-1.8292	-2.7396	-2.1312	-2.3167	-2.8438	-2.0875	-2.6917	-2.5708	-2.1875	-2.9479	-2.3271	-2.2771	-2.7479	-2.0292	-2.7271	-2.7646	-7.340	307.464	218.892	171.374	212.608	267.082	302.695	217.026	207.092	337.866	4.085	56.127	37.088	303.502	-4.525	177.581	0.00012429	0.00024046	1.1369e-05	137.14	3.9648e-07	1.3408e-06	149.46	50.675	1.6456e-06	6.4761e-07	62.979	23.602	21.789	9.5175	1.9095e-06	12.002	0.00053027	0.00091093	0.00025942	147.09	8.5147e-06	1.0529e-05	160.95	55.29	8.9048e-06	1.0307e-05	68.325	25.595	23.991	10.497	9.0812e-06	13.168	58.866	101.506	302.922	4.705	278.658	311.614	2.107	9.825	149.464	105.073	5.751	10.545	14.319	18.914	117.811	13.301	-8191	255	
3398.666	1	1	0	0	0.2888	0.034079	0.15649	0.21265	0.24298	0.055207	0.31714	0.18718	0.12456	0.28869	0.15038	0.24254	0.02876	0.20783	0.13684	0.26443	-1.7396	-2.7917	-2.2979	-2.15	-2.9313	-2.1604	-2.6583	-2.875	-2.0708	-2.8833	-2.4333	-2.2313	-2.9854	-2.3229	-2.5	-2.9396	166.018	7.570	228.786	239.701	81.378	331.198	315.615	-7.483	259.831	223.528	75.871	97.641	57.259	71.713	36.142	-2.249	0.00012452	0.00010567	4.3509e-05	135.54	1.4821e-06	1.3282e-06	149.34	50.856	4.2824e-07	1.4487e-06	62.611	23.413	21.755	9.6125	3.0262e-06	12.149	0.00053318	0.00088879	0.00025477	146.8	8.5304e-06	1.0503e-05	161.04	55.243	8.9866e-06	1.0083e-05	68.209	25.663	23.932	10.538	9.3343e-06	13.275	79.377	55.359	101.575	4.093	180.009	157.215	2.011	10.219	291.599	252.221	5.999	10.834	14.376	18.762	167.231	12.835	-8191	255	
3398.787	1	1	0	0	0.21785	0.12346	0.077879	0.17729	0.24945	0.2848	0.15703	0.24446	0.36943	0.41699	0.065924	0.16106	0.13262	0.17476	0.11203	0.14223	-1.7146	-2.85	-2.4813	-2.1188	-2.9688	-2.3208	-2.525	-2.5792	-2.2708	-2.9042	-2.4562	-2.0833	-2.9708	-2.5667	-2.5	-3.1333	285.238	230.764	241.234	236.341	234.463	108.621	291.573	338.253	88.974	89.127	337.741	173.848	142.540	248.175	138.505	203.433	0.00010729	0.00015166	4.2193e-05	135.63	8.4065e-07	1.9386e-06	150.26	50.993	2.3226e-06	1.0378e-06	63.173	23.903	22.112	9.6748	2.1174e-06	12.317	0.00053065	0.00088811	0.00025045	146.65	8.6839e-06	1.0504e-05	162.39	55.397	8.7633e-06	1.0509e-05	68.689	25.968	24.19	10.664	9.5044e-06	13.51	71.319	87.221	33.684	4.393	119.818	134.421	2.550	10.039	58.628	198.356	5.702	10.541	14.587	19.036	84.519	12.953	-8191	255	
3398.883	1	1	0	0	0.20657	0.31117	0.095284	0.15157	0.40364	0.15307	0.068666	0.18291	0.019301	0.1483	0.2245	0.12409	0.34675	0.22945	0.21399	0.19887	-1.7979	-2.9208	-2.6417	-2.2958	-3.175	-2.4604	-2.5146	-3.1625	-2.3688	-2.8958	-2.9167	-2.3542	-3.0438	-2.7479	-2.3896	-3.0479	302.065	263.398	0.517	275.490	146.507	167.613	235.592	85.243	17.905	243.294	286.903	154.016	71.897	202.331	238.507	187.281	0.00015014	0.00012259	5.6091e-05	136.72	9.175e-07	1.3456e-06	150.81	51.001	5.2555e-07	1.5517e-06	63.051	23.868	22.066	9.6662	2.1706e-06	12.24	0.00052847	0.00089194	0.00025952	147.73	8.5047e-06	1.0374e-05	162.64	55.639	8.9247e-06	1.0134e-05	68.632	25.894	24.173	10.638	9.3969e-06	13.385	75.805	25.935	125.529	4.413	41.990	184.453	2.096	10.205	187.046	156.461	5.645	10.759	14.506	18.849	145.923	13.298	-8191	255	
3398.979	1	1	0	0	0.17074	0.13119	0.051461	0.036434	0.12963	0.099752	0.49796	0.13088	0.15689	0.081318	0.099273	0.23614	0.092555	0.18391	0.2697	0.12528	-1.8167	-2.6875	-2.9583	-2.2875	-3.0729	-2.6958	-2.3646	-3.0208	-2.4458	-2.8042	-3.0312	-2.3937	-2.8917	-2.7458	-2.3771	-3.0333	24.341	102.534	50.506	331.660	31.971	159.087	333.831	288.763	3.301	196.080	248.075	94.023	277.585	90.502	9.526	280.820	0.00015484	0.00012894	1.843e-05	136.48	7.079e-07	1.3821e-06	151	51.003	1.4713e-06	7.4654e-07	63.08	23.7	22.005	9.6679	2.4525e-06	12.234	0.00054455	0.00091626	0.00025619	147.11	8.5375e-06	1.0315e-05	162.01	55.65	8.5273e-06	1.0433e-05	68.452	25.783	24.138	10.638	9.6196e-06	13.343	69.184	55.189	50.753	4.775	286.077	147.618	2.153	9.695	191.718	21.859	6.311	10.685	14.789	18.669	135.581	12.996	-8191	255	
3399.075	1	1	0	0	0.18645	0.20524	0.041981	0.15941	0.2113	0.010297	0.24862	0.1696	0.056651	0.19772	0.18532	0.13175	0.31106	0.079915	0.24673	0.061904	-1.9896	-2.3688	-3.0438	-2.1417	-2.9833	-2.7542	-2.1813	-3.1437	-2.4917	-2.3771	-2.9979	-2.3125	-2.8979	-2.9	-2.3771	-3.0312	155.245	289.830	87.916	291.984	228.996	332.380	147.376	24.517	327.215	103.819	205.769	288.200	323.154	247.347	278.673	283.436	0.00013605	0.00019908	1.4632e-05	135.57	9.8837e-07	1.6297e-06	151.49	51.21	1.7268e-06	1.6603e-06	63.327	23.654	22.08	9.7111	2.6281e-06	12.284	0.00053743	0.0009077	0.00025448	147.17	8.4069e-06	1.0286e-05	162.15	55.663	8.6937e-06	1.0548e-05	68.891	25.85	24.226	10.668	9.4937e-06	13.454	79.944	70.600	61.379	4.985	189.850	347.251	2.308	10.300	182.033	130.058	6.297	10.800	13.792	19.146	104.857	13.243	-8191	255	
3399.194	1	1	0	0	0.12806	0.29943	0.20759	0.08358	0.076554	0.14715	0.088744	0.14279	0.12317	0.043481	0.2084	0.20341	0.13019	0.21155	0.037096	0.24198	-2.075	-2.2479	-3.0563	-2.2583	-2.7062	-2.8688	-2.1437	-2.9458	-2.5771	-2.625	-3.2313	-2.4292	-2.7021	-2.925	-2.2771	-2.9146	-0.435	192.108	17.159	236.004	10.606	85.796	61.710	1.160	247.929	33.219	-4.575	197.216	39.216	83.260	59.872	265.026	0.00010959	9.7172e-05	5.4019e-05	136.83	1.2473e-06	2.1424e-06	152.95	51.442	2.1705e-06	9.6712e-07	63.323	24.154	22.301	9.7761	1.2452e-06	12.489	0.00053835	0.00092819	0.00025295	147.99	8.4683e-06	1.039e-05	163.9	55.876	8.629e-06	1.0605e-05	69.187	26.25	24.447	10.776	9.5197e-06	13.677	97.545	83.981	83.486	4.286	185.583	110.360	2.743	10.534	106.270	126.149	6.290	10.674	14.703	19.163	152.181	13.515	-8191	255	
3399.290	1	1	0	0	0.18806	0.21863	0.1688	0.25318	0.061934	0.34106	0.20595	0.061134	0.059732	0.15033	0.29065	0.13297	0.09824	0.21204	0.13769	0.14599	-2.5375	-2.2896	-3.0792	-2.4042	-2.7083	-3.0438	-2.2167	-3.0062	-2.7271	-2.3042	-3.0917	-2.4833	-2.5979	-3.0146	-2.3	-2.9583	350.404	136.473	246.981	160.954	115.833	92.720	279.997	156.905	93.864	56.565	168.801	335.240	198.723	63.285	41.269	295.951	0.0001973	6.3554e-05	4.3007e-05	136.75	5.1398e-07	1.4092e-06	151.98	51.775	2.4157e-07	1.464e-06	63.483	23.889	22.15	9.6994	2.7261e-06	12.219	0.00054765	0.00095402	0.00025301	148.43	8.771e-06	1.0472e-05	164	56.187	8.5273e-06	1.0275e-05	68.904	26.035	24.276	10.709	9.5822e-06	13.359	71.735	93.695	32.782	4.566	115.455	41.720	2.474	10.090	337.706	217.588	6.524	10.591	14.327	18.859	181.033	13.204	-8191	255	
3399.386	1	1	0	0	0.10566	0.1528	0.10118	0.24725	0.20382	0.07252	0.14182	0.055958	0.18105	0.073355	0.10478	0.15788	0.24314	0.12442	0.33162	0.17363	-2.5958	-2.2583	-3.1146	-2.4083	-2.6979	-3.0563	-2.3417	-2.8208	-2.9292	-2.3167	-3.1437	-2.6292	-2.6125	-2.9354	-2.2333	-2.8021	343.444	336.697	305.177	165.534	23.521	248.273	-4.110	161.139	145.180	271.039	113.968	98.831	235.966	170.242	312.199	78.735	0.00014059	0.0001583	5.0041e-05	136.27	9.2901e-07	9.8449e-07	150.99	51.582	6.8093e-07	7.1132e-07	63.396	23.722	22.018	9.6469	2.8673e-07	12.224	0.00053345	0.00093488	0.00024544	147.53	8.5468e-06	1.0378e-05	162.47	55.961	8.5799e-06	1.0588e-05	68.797	25.813	24.201	10.664	9.3572e-06	13.339	70.266	48.778	131.946	5.044	76.380	8.367	2.565	10.442	106.286	302.639	5.849	11.044	14.991	19.056	193.073	13.278	-8191	255	
3399.482	1	1	0	0	0.19943	0.054854	0.2366	0.25924	0.21248	0.080772	0.27121	0.27621	0.13337	0.12033	0.20925	0.14813	0.26675	0.13194	0.12739	0.027628	-2.6875	-2.1729	-3.1437	-2.4583	-2.3063	-3.2708	-2.3688	-2.6521	-2.9479	-2.3375	-3.0771	-2.6958	-2.3833	-3.1	-2.4313	-2.6875	326.687	27.533	167.931	83.553	161.291	186.974	249.122	108.437	191.813	69.913	115.160	322.882	107.355	106.210	226.452	309.725	0.00013994	0.00016333	2.3125e-05	136.48	1.3586e-06	4.0664e-07	151.43	51.441	8.3412e-08	2.298e-07	63.255	23.883	22.467	9.7881	2.6835e-06	12.358	0.00054998	0.00092091	0.00025609	147.54	8.5875e-06	1.0001e-05	162.69	55.912	8.4356e-06	1.0541e-05	68.901	25.995	24.418	10.764	9.0705e-06	13.524	66.070	64.809	14.690	4.529	79.953	11.065	2.251	10.231	134.188	153.981	6.228	10.483	14.934	18.610	123.594	13.509	-8191	255	
3399.579	1	1	0	0	0.049833	0.29092	0.34532	0.23527	0.084111	0.18853	0.099518	0.065161	0.2631	0.2729	0.070322	0.062342	0.26388	0.12325	0.1018	0.27414	-2.6688	-2.125	-2.9188	-2.7146	-2.2875	-3.2417	-2.4458	-2.4083	-3.0792	-2.1229	-2.9833	-2.9667	-2.025	-3.0917	-2.6417	-2.5854	52.258	253.787	300.980	258.489	338.273	159.348	31.180	220.186	304.383	212.854	75.817	250.082	305.611	244.049	141.656	322.399	0.00015055	0.00020751	5.9889e-05	135.78	4.809e-07	7.8076e-07	152.25	51.754	2.2478e-06	1.2272e-06	63.444	24.086	22.179	9.7769	2.0551e-06	12.443	0.00052556	0.00089089	0.00025248	147.31	8.7417e-06	1.0141e-05	163.34	55.994	8.5892e-06	1.0067e-05	69.228	26.351	24.458	10.802	9.2413e-06	13.66	93.649	88.326	123.706	4.645	174.312	157.478	2.439	9.920	154.688	168.491	5.818	11.088	14.658	19.196	122.747	13.710	-8191	255	
3399.675	1	1	0	0	0.20479	0.19571	0.15395	0.13763	0.30984	0.22763	0.15277	0.079577	0.048054	0.052484	0.073887	0.15982	0.22641	0.04918	0.12125	0.20079	-2.8229	-2.2396	-2.8354	-3.0771	-2.4625	-3.1646	-2.45	-2.3125	-3.0479	-2.4896	-2.6604	-2.9208	-2.3146	-3.0604	-2.5187	-2.4146	60.883	13.672	10.148	302.900	197.989	269.045	85.885	296.984	65.079	61.738	352.273	6.298	162.034	197.387	116.312	56.727	0.00013951	0.00017425	3.3241e-05	136.83	1.3702e-06	9.8164e-07	150.28	51.349	1.0187e-06	5.1767e-07	64.023	23.966	22.281	9.8334	5.0368e-07	12.365	0.00053038	0.00092009	0.00025428	147.28	8.8217e-06	9.944e-06	162.43	56.04	8.6681e-06	1.0204e-05	69.181	26.024	24.526	10.837	9.3831e-06	13.52	87.975	41.621	49.868	4.827	137.421	160.498	2.448	10.439	156.945	-7.397	5.967	10.711	15.016	19.204	175.305	13.462	-8191	255	
3399.795	1	1	0	0	0.11941	0.20301	0.18621	0.20569	0.19912	0.1968	0.034165	0.29473	0.17249	0.11427	0.094787	0.152	0.17336	0.097642	0.15287	0.073845	-2.8312	-2.2562	-2.5187	-3.0208	-2.1896	-3.025	-2.8208	-2.4062	-3.1437	-2.4229	-2.5667	-2.9521	-2.4396	-2.9062	-2.8937	-2.3854	31.150	289.461	337.781	276.199	296.344	85.039	201.479	164.303	284.832	9.191	98.522	198.437	277.722	265.886	19.060	119.392	0.00013056	0.00015355	5.7991e-05	136.35	1.1045e-06	7.5133e-07	151	51.502	1.5338e-06	2.1475e-06	63.717	23.927	22.356	9.8225	1.6263e-06	12.338	0.00052514	0.00092467	0.00025863	147.35	8.5018e-06	1.044e-05	162.15	56.112	8.5536e-06	1.0418e-05	69.041	26.057	24.471	10.798	9.2863e-06	13.515	61.611	86.227	94.877	4.968	145.293	88.321	2.554	10.632	48.807	96.675	6.436	11.029	14.641	19.221	107.228	13.487	-8191	255	
3399.892	1	1	0	0	0.16023	0.20294	0.068783	0.03101	0.15976	0.28054	0.20906	0.052696	0.087316	0.3247	0.31012	0.28351	0.16788	0.040487	0.15042	0.16103	-2.8104	-2.5208	-2.4833	-2.9521	-2.2438	-2.7896	-2.7104	-2.1188	-3.0938	-2.6396	-2.5104	-3.0687	-2.1625	-2.725	-3.0042	-2.3292	3.583	170.950	232.190	24.405	296.805	291.578	279.474	182.755	185.416	255.332	307.577	273.565	95.820	50.703	70.522	306.472	0.00014731	0.00018474	5.355e-05	137.01	9.7527e-07	1.4624e-06	151.3	51.655	2.5831e-06	2.3497e-06	64.015	24.023	22.537	9.9273	1.7372e-06	12.577	0.00052717	0.00090725	0.00026033	147.78	8.6596e-06	1.0369e-05	163.25	56.167	8.4655e-06	1.0306e-05	69.621	26.302	24.64	10.947	9.3931e-06	13.75	84.095	104.975	81.166	5.098	155.505	160.677	2.604	10.224	109.537	154.227	5.919	10.384	14.943	19.324	131.887	13.872	-8191	255	
3399.963	1	1	0	0	0.010855	0.039754	0.078552	0.075195	0.22182	0.093817	0.089083	0.14866	0.1044	0.16541	0.12272	0.16062	0.095097	0.026696	0.30052	0.3649	-2.8104	-2.6562	-2.5167	-3.2	-2.1979	-2.8542	-3.1063	-2.0896	-3.0521	-2.7625	-2.3542	-3.0354	-2.2313	-2.8271	-3.2729	-2.1063	15.066	30.516	170.975	140.442	273.025	8.240	49.273	193.759	152.612	99.388	26.070	319.481	56.117	192.917	277.071	44.009	0.00011841	0.00013723	9.2556e-06	138.14	5.4575e-07	1.8536e-06	152.59	52.218	1.0935e-06	2.2056e-06	64.852	24.32	22.717	9.9642	1.5743e-06	12.616	0.00053884	0.00091543	0.00025367	149.04	8.8517e-06	1.0485e-05	164.49	56.723	8.7911e-06	1.0263e-05	70.505	26.549	24.779	10.986	9.4259e-06	13.815	81.407	76.629	0.955	4.806	101.810	119.771	2.655	10.572	34.310	148.318	6.641	10.626	14.808	19.158	103.082	13.780	-8191	255	
3400.084	1	1	0	0	0.0912	0.19477	0.22983	0.25019	0.10406	0.14315	0.27733	0.06757	0.056246	0.24103	0.068348	0.20187	0.044519	0.18664	0.070814	0.1799	-2.7104	-2.8521	-2.3187	-3.1521	-2.4813	-2.5458	-3.1729	-2.2104	-2.7625	-2.9354	-2.25	-3.1771	-2.5271	-2.5417	-3.1312	-2.375	176.361	101.532	289.468	212.077	340.363	236.142	211.572	172.975	210.551	293.109	97.332	343.598	55.183	259.568	146.121	308.640	0.00015644	9.429e-05	1.2433e-05	136.85	9.5706e-07	1.4376e-06	150.84	52.278	6.194e-07	1.9053e-06	63.306	24.159	22.459	9.8211	9.0577e-07	12.412	0.00053609	0.00093067	0.00025861	148.57	8.6796e-06	1.0419e-05	163.11	56.698	9.0001e-06	1.0414e-05	69.282	26.179	24.671	10.825	9.1772e-06	13.495	79.567	48.889	283.691	4.838	229.493	114.299	2.727	10.556	147.462	145.922	6.437	10.937	14.616	19.008	130.180	13.671	-8191	255	
3400.178	1	1	0	0	0.051814	0.1369	0.22164	0.31173	0.30391	0.27879	0.11817	0.064049	0.19016	0.11555	0.28257	0.17993	0.23387	0.21694	0.20422	0.15635	-2.5292	-3	-2.1333	-3.0396	-2.5417	-2.5146	-3.0875	-2.3417	-2.7396	-3.0646	-2.2771	-3.0083	-2.7708	-2.4083	-3.1542	-2.4875	-5.610	0.581	129.432	157.887	89.092	204.857	94.493	338.796	98.066	219.387	171.724	3.127	268.821	262.565	70.854	284.081	0.0001411	0.00012419	2.6294e-05	137.12	1.2883e-06	5.7946e-07	151.04	51.797	3.9451e-07	4.4369e-07	63.78	23.958	22.498	9.8719	1.4852e-06	12.374	0.00054168	0.00090222	0.00025918	148.23	8.9952e-06	1.0651e-05	162.58	56.288	8.7299e-06	1.0205e-05	69.281	26.182	24.595	10.871	9.496e-06	13.54	80.438	115.905	61.439	4.546	89.712	69.544	2.671	10.973	30.840	201.339	6.397	11.054	14.752	19.489	163.997	13.492	-8191	255	
3400.274	1	1	0	0	0.2497	0.073062	0.15595	0.1445	0.13917	0.16815	0.073542	0.15981	0.16989	0.087393	0.22572	0.21337	0.030421	0.13411	0.1126	0.008717	-2.5042	-2.9979	-2.3646	-2.9667	-2.6896	-2.2375	-3.1813	-2.4708	-2.5604	-3.0417	-2.1667	-3.0771	-2.9354	-2.3271	-3.2417	-2.4688	15.349	164.422	181.492	80.666	341.522	106.151	333.096	292.281	334.932	232.137	311.608	63.057	286.620	27.364	19.545	230.647	0.00013113	8.2439e-05	3.1819e-05	137.06	1.1335e-06	7.1405e-07	151.67	51.884	6.0868e-07	1.7356e-06	64.063	24.248	22.408	9.9015	1.1295e-06	12.484	0.0005408	0.00091063	0.00026158	148.5	8.6368e-06	1.0848e-05	163.26	56.305	8.9602e-06	1.0252e-05	69.443	26.215	24.59	10.873	9.1955e-06	13.658	69.464	73.371	141.998	5.036	71.676	88.681	2.651	10.371	35.525	133.473	6.572	10.929	14.689	19.009	182.003	13.829	-8191	255	
3400.371	1	1	0	0	0.16419	0.15809	0.19591	0.017866	0.39723	0.11339	0.099647	0.17587	0.24728	0.052148	0.11372	0.16756	0.2304	0.11096	0.23779	0.16091	-2.2625	-2.9875	-2.0896	-2.8979	-2.7083	-2.55	-3.0583	-2.5583	-2.5896	-3.1104	-2.2292	-2.7208	-2.8292	-2.1896	-3.0083	-2.5167	345.007	249.635	-1.931	311.686	259.165	53.119	214.375	249.692	255.351	228.211	212.246	256.393	40.598	210.086	77.957	310.900	0.00014302	0.00011679	3.8338e-05	137.8	5.0221e-07	2.1693e-06	153.05	52.187	1.1535e-06	9.9974e-07	64.309	24.245	22.529	9.9403	8.8992e-07	12.506	0.00054627	0.00090065	0.00025272	148.75	8.6839e-06	1.0794e-05	164.22	56.597	8.833e-06	1.0238e-05	69.78	26.404	24.725	10.905	9.0354e-06	13.673	70.465	100.970	139.779	5.030	139.144	118.902	2.653	10.751	136.770	186.962	5.819	11.380	15.095	19.407	150.726	13.691	-8191	255	
3400.491	1	1	0	0	0.37252	0.30625	0.20988	0.27134	0.15486	0.088552	0.23783	0.13729	0.20432	0.10357	0.18345	0.17886	0.14449	0.20166	0.21751	0.13306	-2.0604	-3.25	-2.2729	-2.8583	-2.9313	-2.4208	-3.3042	-2.6396	-2.3167	-3.1271	-2.4062	-2.6771	-3.1625	-2.3958	-3.0625	-2.7646	168.853	233.055	270.752	275.404	309.107	54.754	127.823	63.881	337.338	295.410	244.440	312.195	256.040	331.971	256.747	36.889	0.00016178	9.1463e-05	3.6326e-05	137.59	2.1531e-07	1.6793e-06	150.64	51.839	2.6018e-06	1.1818e-06	64.201	23.939	22.27	9.8309	1.5548e-06	12.378	0.00054397	0.00088068	0.00025833	148.46	8.8003e-06	1.0711e-05	162.82	56.399	8.8757e-06	9.9019e-06	69.507	26.028	24.581	10.812	9.2314e-06	13.471	63.155	125.220	59.431	5.166	134.481	113.421	3.111	10.899	126.632	186.555	6.254	11.707	15.188	18.998	206.929	13.802	-8191	255	
3400.587	1	1	0	0	0.16863	0.1516	0.10985	0.062995	0.17475	0.17887	0.089627	0.071896	0.022119	0.098882	0.12125	0.21208	0.17367	0.19289	0.022605	0.038113	-1.9667	-3.0438	-2.5583	-2.5417	-3.0875	-2.4562	-3.0687	-2.7083	-2.2771	-3.2188	-2.4083	-2.5104	-3.2375	-2.3333	-3.1208	-2.8979	240.188	198.671	32.766	0.160	64.621	321.246	313.471	212.903	59.536	204.746	59.782	89.691	305.075	31.952	130.345	197.054	0.00014426	0.00016531	1.7578e-05	136.42	1.9292e-06	1.3649e-06	150.64	51.013	2.4357e-06	2.4208e-06	64.228	23.977	22.616	9.8504	1.72e-06	12.32	0.00055385	0.00089907	0.00025651	148.24	8.5875e-06	1.056e-05	162.94	56.079	9.0434e-06	1.0217e-05	69.125	26.046	24.596	10.815	9.3618e-06	13.494	80.815	105.507	150.332	5.112	119.282	193.594	3.070	10.444	157.432	146.099	6.312	11.748	14.943	19.207	135.446	14.108	-8191	255	
3400.659	1	1	0	0	0.21886	0.067429	0.093188	0.172	0.01626	0.1753	0.1801	0.07519	0.12415	0.1332	0.031433	0.11167	0.13351	0.18218	0.23671	0.072266	-1.9	-3.1063	-2.5542	-2.4062	-3.0479	-2.2646	-2.9062	-2.9875	-2.4354	-3.2729	-2.4854	-2.4521	-3.0979	-2.3104	-2.8812	-3.0521	124.901	126.044	349.698	252.123	84.954	328.323	313.305	68.249	152.320	114.776	178.259	271.848	25.935	21.823	119.045	187.337	0.00012089	6.8996e-05	3.0445e-05	136.8	2.3936e-07	2.366e-06	150.99	51.863	3.8887e-07	1.0699e-06	63.281	24.253	22.364	9.8294	1.8194e-06	12.523	0.00054309	0.0009035	0.00025704	148.03	8.7689e-06	1.0733e-05	163.24	56.293	8.8621e-06	1.0156e-05	69.117	26.277	24.593	10.873	9.3519e-06	13.677	77.727	152.473	78.724	5.427	55.786	139.430	3.633	10.679	93.982	69.208	7.045	11.229	15.083	19.407	78.484	14.107	-8191	255	
3400.755	1	1	0	0	0.080432	0.041753	0.23572	0.3664	0.14064	0.16239	0.24986	0.10475	0.043447	0.081175	0.1645	0.013596	0.23668	0.24844	0.1691	0.030295	-1.9729	-3.0938	-2.6021	-2.2854	-3.1396	-2.3333	-2.6271	-3	-2.3812	-3.0417	-2.7833	-2.3396	-3.1125	-2.4083	-2.4896	-3.2646	229.690	32.313	36.801	-3.907	18.691	133.714	291.351	235.962	201.674	262.959	288.083	285.577	35.388	163.314	175.173	108.278	0.00010986	9.417e-05	1.1125e-05	137.15	1.2993e-06	1.2278e-06	153.58	51.749	1.5937e-06	2.2358e-06	64.443	24.089	22.418	9.729	6.4751e-07	12.519	0.00055121	0.00091003	0.00025511	148.56	8.5454e-06	1.0797e-05	164.48	56.411	9.079e-06	1.0049e-05	69.813	26.378	24.589	10.821	9.3709e-06	13.568	75.394	4.084	49.293	5.194	142.014	154.895	3.208	10.759	155.265	112.284	6.470	11.595	14.910	19.697	163.174	14.556	-8191	255	
3400.876	1	1	0	0	0.13785	0.091104	0.054763	0.16124	0.11521	0.076224	0.097481	0.058805	0.098863	0.44344	0.12116	0.11948	0.08508	0.25332	0.095566	0.084176	-1.9688	-2.8937	-2.9062	-2.2562	-3.1104	-2.5458	-2.7354	-3.0792	-2.2458	-2.7375	-2.8792	-2.2021	-3.1292	-2.3896	-2.4042	-3.0292	266.630	125.179	21.266	38.581	118.628	1.998	111.050	126.461	65.774	249.288	41.535	74.276	309.441	259.328	211.352	197.576	0.0001357	0.00016239	2.8714e-05	136.48	2.2832e-06	1.2865e-06	152.31	51.683	9.1006e-07	1.7004e-06	63.715	23.71	22.259	9.7203	1.1314e-06	12.305	0.00054382	0.00089141	0.000256	147.73	8.5811e-06	1.0185e-05	163.05	56.26	8.7349e-06	1.0048e-05	69.148	25.888	24.43	10.731	9.4975e-06	13.406	76.834	42.958	335.711	5.152	127.479	156.426	3.134	10.917	128.002	145.909	6.836	11.776	15.554	20.103	34.156	14.088	-8191	255	
3400.972	1	1	0	0	0.17129	0.17221	0.18487	0.16899	0.23264	0.15783	0.31916	0.20539	0.18141	0.10221	0.2292	0.22038	0.27923	0.19322	0.051448	0.15389	-1.9458	-2.9583	-2.9229	-2.0958	-3.0708	-2.6021	-2.5812	-3.2167	-2.4062	-2.9188	-3	-2.1396	-3.0521	-2.8333	-2.3417	-3.3292	40.951	231.289	39.616	31.734	35.039	152.065	196.975	221.568	11.657	29.622	316.827	271.714	304.507	317.227	0.961	44.472	0.00011426	0.00011271	3.8432e-05	136.34	1.9187e-06	1.2184e-06	151.49	51.554	1.9923e-06	1.0085e-06	64.198	23.959	22.365	9.8452	2.7959e-06	12.435	0.0005341	0.00089472	0.00024631	147.68	8.5861e-06	1.0264e-05	162.81	56.137	8.732e-06	1.0459e-05	69.347	26.072	24.537	10.807	9.6569e-06	13.538	78.337	26.682	16.869	4.915	161.286	109.850	3.007	10.905	86.631	237.446	6.315	10.853	14.551	19.837	114.091	13.779	-8191	255	
3401.068	1	1	0	0	0.37944	0.094679	0.16132	0.17049	0.057717	0.21298	0.12746	0.19922	0.03282	0.10107	0.17897	0.11113	0.059127	0.12059	0.1676	0.037848	-2.0042	-2.7667	-2.9104	-2.2854	-2.9813	-2.8375	-2.3063	-3.1333	-2.4604	-2.6771	-3.0729	-2.0792	-2.9813	-2.5896	-2.2917	-3.1729	90.340	103.412	245.530	148.877	209.664	273.855	14.483	107.985	251.563	215.715	91.273	202.560	312.861	243.703	299.909	95.051	0.00013017	0.00012448	2.533e-05	136.76	1.0255e-06	1.6282e-06	152.31	51.802	1.3849e-06	1.6845e-06	64.012	24.192	22.472	9.9536	4.3475e-07	12.586	0.00054508	0.00091784	0.00025594	147.99	8.5333e-06	1.032e-05	163.45	56.293	9.0008e-06	1.0383e-05	69.431	26.272	24.593	10.878	9.5967e-06	13.677	86.407	69.560	16.291	5.274	150.647	42.735	3.016	10.450	87.423	181.197	6.781	10.918	15.309	19.237	315.656	13.565	-8191	255	
3401.187	1	1	0	0	0.26877	0.1601	0.26274	0.094473	0.069465	0.18623	0.22532	0.29792	0.20869	0.26232	0.20626	0.02627	0.10884	0.28965	0.013745	0.13554	-2.1271	-2.4771	-3.1104	-2.3271	-2.8979	-2.8833	-2.1917	-3.3521	-2.4771	-2.4729	-3.1708	-2.5187	-2.7438	-2.9479	-2.2812	-3.2021	88.515	321.241	179.443	92.348	46.944	192.842	87.634	298.636	76.055	111.130	204.385	157.484	-0.069	37.207	42.220	13.002	9.5969e-05	0.00015051	5.6151e-05	137.97	1.6503e-06	1.4192e-06	153.32	51.982	2.2739e-06	1.1843e-06	64.114	24.166	22.243	9.8299	2.6109e-07	12.451	0.00054187	0.00089629	0.0002492	148.63	8.5268e-06	1.0427e-05	164.22	56.508	8.5159e-06	1.0637e-05	69.873	26.245	24.525	10.825	9.5578e-06	13.579	73.692	61.101	61.577	5.196	107.210	188.054	3.729	11.202	191.030	157.126	6.678	11.648	15.750	19.679	213.094	14.277	-8191	255	
3401.259	1	1	0	0	0.17609	0.042301	0.046392	0.16827	0.20617	0.17207	0.12835	0.054386	0.22204	0.27064	0.1004	0.17662	0.17169	0.22623	0.083241	0.34319	-2.3083	-2.4354	-3.2708	-2.3229	-2.6771	-3.0583	-2.3604	-3.0229	-2.8354	-2.3042	-3.1979	-2.2562	-2.6104	-3.0917	-2.3458	-3.1104	26.151	296.383	58.205	22.303	237.178	133.608	273.603	309.512	164.663	272.447	114.370	343.090	337.082	113.830	5.430	210.999	0.0001144	7.5081e-05	7.6019e-06	137.44	2.3036e-06	1.572e-06	151.65	52.144	1.3568e-06	8.3354e-07	63.558	23.792	22.326	9.8	1.3309e-06	12.245	0.00054462	0.00093983	0.0002521	147.8	8.6289e-06	1.0119e-05	163.38	56.486	8.5387e-06	1.0476e-05	69.092	25.992	24.413	10.777	9.5685e-06	13.404	81.258	89.436	18.430	5.577	98.456	135.343	3.442	11.487	143.137	139.490	7.017	11.569	15.358	19.930	140.712	14.154	-8191	255	
3401.357	1	1	0	0	0.099868	0.11749	0.14133	0.14349	0.212	0.13068	0.15928	0.019921	0.17618	0.095285	0.099958	0.144	0.1855	0.071851	0.21067	0.28405	-2.5583	-2.2104	-3.1771	-2.4458	-2.5146	-3.0271	-2.0667	-2.8729	-2.7479	-2.2146	-3.1083	-2.6083	-2.6188	-2.8958	-2.3229	-2.9562	135.183	47.701	158.194	140.883	164.937	23.139	186.956	155.339	4.486	205.499	288.195	29.085	286.897	10.359	38.418	312.210	0.00015036	5.1945e-05	4.2219e-06	136.25	2.233e-06	7.1614e-07	151.11	51.694	2.6747e-06	6.6464e-07	63.61	23.935	22.265	9.765	5.4951e-07	12.377	0.00054137	0.00091904	0.00024913	147.57	8.8074e-06	1.0275e-05	162.71	56.184	8.501e-06	1.0384e-05	69.161	26.012	24.408	10.769	9.2947e-06	13.46	71.110	103.693	44.729	5.400	76.781	160.007	2.769	10.506	158.079	202.311	7.046	11.444	15.021	20.177	165.507	14.033	-8191	255	
3401.475	1	1	0	0	0.17375	0.17643	0.19805	0.18808	0.19688	0.068989	0.2679	0.14366	0.040727	0.14572	0.22087	0.075275	0.26741	0.12864	0.25159	0.18794	-2.3583	-2.2854	-3.0021	-2.6375	-2.3979	-3.2854	-2.3563	-2.8063	-2.8688	-2.2729	-3.0563	-2.5583	-2.3354	-3.0458	-2.4625	-2.7812	247.269	81.312	121.812	291.487	232.873	9.556	116.542	57.198	291.943	293.960	290.791	182.551	67.207	154.919	18.879	-2.578	0.0001344	0.00016317	3.2223e-05	137.7	1.9738e-06	1.0273e-06	150.06	50.604	1.5906e-06	1.0388e-06	64.274	24.175	22.359	9.8087	4.655e-07	12.568	0.0005305	0.00091356	0.0002425	148.25	8.529e-06	1.0167e-05	163.03	56.044	8.6012e-06	1.0306e-05	69.813	26.298	24.549	10.83	9.2367e-06	13.629	71.122	63.217	69.961	6.291	114.726	209.178	4.537	12.216	110.395	161.086	5.972	10.752	14.781	19.708	66.912	14.443	-8191	255	
3401.572	1	1	0	0	0.25708	0.17888	0.29944	0.15662	0.23127	0.30465	0.016285	0.021798	0.37534	0.20165	0.18074	0.17067	0.14619	0.046217	0.24031	0.16584	-2.6937	-2.1271	-3.1167	-2.6125	-2.2667	-3.1396	-2.4	-2.5542	-3.1271	-2.2208	-3.1562	-2.9083	-2.3354	-3.2125	-2.5104	-2.7083	199.361	309.219	198.730	229.698	6.160	277.548	213.017	304.585	101.766	59.322	243.220	80.774	109.040	42.196	-3.378	98.344	0.00012518	8.0898e-05	4.2255e-05	138.15	1.198e-07	4.3336e-07	152.96	52.086	4.347e-07	1.4447e-06	64.281	23.751	22.04	9.7589	8.7607e-07	12.237	0.00052602	0.00087392	0.00024727	149.02	8.9624e-06	1.0135e-05	164.45	56.585	8.6645e-06	1.0055e-05	70.119	26.363	24.672	10.923	9.3328e-06	13.555	87.318	58.133	51.399	5.860	97.091	75.618	2.972	10.998	112.936	114.726	8.014	12.043	16.807	21.130	79.666	15.503	-8191	255	
3401.668	1	1	0	0	0.23402	0.15948	0.34921	0.30811	0.11872	0.18242	0.063051	0.20218	0.28941	0.24484	0.26291	0.046258	0.15774	0.024716	0.11161	0.17532	-2.7375	-2.2292	-2.7604	-2.6333	-2.2646	-3.1729	-2.6542	-2.4688	-3.2083	-2.3917	-2.925	-2.9083	-2.2292	-3.1271	-2.6104	-2.4792	204.381	38.421	293.728	93.161	326.705	151.009	323.516	337.113	75.571	212.714	289.311	272.142	314.093	286.414	157.652	251.712	0.0001076	0.0001732	4.7773e-05	134.3	1.4029e-06	2.4187e-06	150.91	51.635	6.5954e-07	1.6084e-06	63.936	23.994	22.611	9.9833	1.6791e-06	12.453	0.00054577	0.00091386	0.00025352	148.01	8.8188e-06	9.8497e-06	163.29	56.575	8.764e-06	1.0384e-05	69.903	26.349	24.806	10.958	9.2444e-06	13.588	77.548	14.901	1.217	6.205	124.322	124.550	4.148	12.126	55.216	150.165	7.078	12.433	15.206	19.359	155.375	14.121	-8191	255	
3401.788	1	1	0	0	0.14016	0.21962	0.030226	0.13298	0.1016	0.21914	0.16985	0.26865	0.23463	0.233	0.10941	0.22888	0.19882	0.0069744	0.22183	0.1202	-2.7292	-2.2167	-2.65	-2.9042	-2.1771	-3.0062	-2.5375	-2.3729	-3.2521	-2.4375	-2.6875	-3.0542	-2.3708	-2.9479	-2.8458	-2.4333	160.290	136.959	69.474	-3.074	56.844	47.538	338.415	120.847	209.285	313.579	234.027	281.887	83.686	241.059	226.216	17.856	0.00014636	6.9012e-05	6.1109e-05	137.21	9.7518e-07	1.7931e-06	153.26	52.463	2.5524e-06	7.688e-07	64.39	24.494	22.795	9.9832	8.7753e-07	12.477	0.00054095	0.00093127	0.00025647	149.13	8.9509e-06	1.0306e-05	164.56	56.8	8.3396e-06	1.0331e-05	70.167	26.586	24.913	10.997	9.271e-06	13.714	81.129	117.424	93.068	5.177	133.998	161.839	3.226	10.554	121.934	47.633	6.457	11.249	15.081	19.735	126.700	13.715	-8191	255	
3401.860	1	1	0	0	0.091608	0.24898	0.26291	0.04689	0.17233	0.10125	0.19369	0.2067	0.087796	0.30838	0.22574	0.081222	0.26333	0.25039	0.10949	0.24877	-2.6312	-2.5021	-2.6708	-3.1042	-2.3396	-3.0625	-2.9271	-2.4437	-3.0021	-2.6125	-2.4229	-3.1354	-2.4729	-3.1167	-2.8396	-2.275	127.141	29.731	178.841	345.260	278.056	251.345	235.600	246.421	262.167	61.385	352.020	318.125	57.585	335.152	88.928	294.698	0.00013837	7.7672e-05	5.7947e-05	138.07	7.2653e-07	2.2341e-06	152.19	52.17	9.9863e-07	1.0021e-06	65.516	24.394	22.676	9.9764	2.4851e-06	12.44	0.00053069	0.00088383	0.00025314	149.26	8.8781e-06	1.0326e-05	165.01	56.876	8.2252e-06	1.0374e-05	70.876	26.789	24.871	11.052	9.4708e-06	13.812	72.320	9.352	59.763	5.166	197.910	90.285	3.057	11.001	165.440	152.302	7.345	12.162	15.926	20.712	145.847	15.348	-8191	255	
3401.956	1	1	0	0	0.16433	0.18414	0.061609	0.21089	0.26235	0.20407	0.1556	0.21624	0.091662	0.1253	0.246	0.17895	0.059017	0.20407	0.17016	0.19591	-2.7771	-2.5938	-2.5083	-3.1542	-2.2771	-2.7604	-2.9	-2.3167	-3.1	-2.5583	-2.5479	-3.2833	-2.3708	-2.8104	-3.1479	-2.3187	158.723	44.409	288.704	106.788	227.903	301.486	156.402	18.126	324.597	324.766	66.220	94.031	36.236	97.881	123.595	45.840	0.00010339	0.00019967	5.6554e-05	137.56	1.573e-06	2.9003e-06	155.17	52.5	2.2959e-06	1.3307e-06	64.39	24.603	22.799	9.9695	1.3875e-06	12.586	0.00052728	0.00091243	0.00025204	149.66	8.7896e-06	1.0287e-05	165.78	56.947	8.592e-06	1.0028e-05	70.264	26.655	24.908	10.985	8.9797e-06	13.751	76.344	70.427	40.183	6.266	163.660	163.521	3.655	11.257	166.821	81.902	7.014	11.986	15.322	19.943	152.840	14.413	-8191	255	
3402.052	1	1	0	0	0.21101	0.055362	0.17376	0.020286	0.14275	0.23268	0.032538	0.06512	0.10604	0.20168	0.23173	0.14455	0.15599	0.29961	0.052972	0.14092	-2.6104	-2.7625	-2.4938	-3.1708	-2.4729	-2.7104	-2.9437	-2.1854	-3.1583	-2.6667	-2.2479	-3.0958	-2.6771	-2.6604	-3.0521	-2.2479	264.134	163.981	285.246	44.577	10.891	223.336	150.494	228.941	333.732	349.944	95.112	29.827	163.138	63.573	10.128	144.721	0.00014603	0.00010775	4.6783e-05	137.68	7.8717e-07	2.3844e-06	152.05	52.635	1.3621e-06	1.5452e-06	65.375	24.258	22.621	10.006	1.4333e-06	12.515	0.00052499	0.00089479	0.00025299	148.6	8.7453e-06	1.0309e-05	164.59	56.901	8.673e-06	1.0275e-05	70.331	26.473	24.827	10.971	9.1963e-06	13.679	68.483	88.756	74.578	5.675	204.817	88.929	3.024	11.094	210.152	124.419	6.952	11.220	15.101	19.416	84.874	14.395	-8191	255	
3402.171	1	1	0	0	0.063135	0.29212	0.26494	0.17168	0.054159	0.22332	0.076219	0.11699	0.09072	0.19893	0.0051793	0.0056591	0.081962	0.149	0.23004	0.11477	-2.6458	-2.8271	-2.3271	-3.0062	-2.5771	-2.65	-3.1813	-2.3458	-2.9333	-2.9354	-2.2687	-3.0958	-2.5687	-2.3312	-3.0438	-2.175	126.264	241.094	285.342	61.571	154.154	289.607	220.661	288.733	274.248	19.772	27.762	182.535	303.104	73.671	79.379	18.542	0.00015123	4.8186e-05	2.8154e-05	137.68	7.8978e-07	1.7612e-06	151.54	52.079	1.9859e-06	4.3839e-07	65.356	24.612	22.879	10.037	1.2051e-06	12.633	0.00052127	0.00089006	0.00026291	149.11	8.6496e-06	1.031e-05	164.29	56.792	8.7697e-06	1.0251e-05	70.712	26.675	24.985	11.078	8.9347e-06	13.813	87.427	62.752	37.542	5.870	135.440	70.263	3.799	11.540	46.313	122.182	7.270	11.678	15.612	20.199	181.279	14.660	-8191	255	
3402.267	1	1	0	0	0.074934	0.18879	0.20854	0.14965	0.20801	0.062662	0.325	0.44925	0.20026	0.1228	0.30466	0.077293	0.16031	0.028254	0.21423	0.21766	-2.3417	-2.925	-2.2604	-2.9875	-2.7646	-2.5354	-3.2938	-2.2188	-2.8021	-2.9562	-2.0687	-3.0167	-2.7083	-2.4938	-3.0479	-2.2313	200.632	181.031	8.844	-0.085	4.903	237.318	214.132	214.753	283.303	64.305	233.054	117.305	271.974	111.508	310.898	312.438	0.00012766	0.00016034	4.5082e-05	138.24	3.2949e-07	1.6373e-06	153.78	52.211	1.0412e-06	2.3811e-06	65.43	24.777	22.591	10.017	1.4724e-06	12.888	0.00053873	0.0008773	0.00025123	149.22	8.4683e-06	1.0385e-05	165.85	56.96	8.7953e-06	9.9882e-06	71.07	26.957	24.99	11.114	9.207e-06	14.024	80.761	51.042	76.612	5.896	19.854	169.660	3.700	11.472	106.738	176.275	7.464	11.631	16.044	20.635	104.286	14.380	-8191	255	
3402.363	1	1	0	0	0.036252	0.005673	0.027665	0.091633	0.17726	0.14541	0.061195	0.28074	0.23361	0.13832	0.17297	0.1855	0.25724	0.073907	0.062243	0.079568	-2.3542	-2.9771	-2.2396	-3.1437	-2.6917	-2.4146	-3.3375	-2.3937	-2.5687	-3.1146	-2.3271	-2.8729	-2.9146	-2.3854	-3.3104	-2.6	298.838	343.973	199.849	293.704	342.282	141.609	282.658	326.975	255.911	124.730	19.545	262.369	215.755	129.835	346.348	37.797	0.00014079	0.0001186	4.0353e-05	138.89	1.8094e-06	2.1734e-06	154.3	52.568	1.4359e-06	1.7958e-07	64.953	24.692	22.762	10.03	1.5399e-06	12.664	0.00052579	0.00090327	0.00027008	149.96	8.4783e-06	1.0443e-05	165.53	57.073	8.7775e-06	1.006e-05	70.677	26.714	24.899	11.02	9.0705e-06	13.768	79.197	114.807	97.180	6.035	99.344	75.885	3.265	11.638	189.327	141.602	7.122	11.707	14.885	19.884	132.807	14.664	-8191	255	
3402.460	1	1	0	0	0.16726	0.12757	0.17641	0.22839	0.055841	0.095792	0.20048	0.073216	0.070458	0.094954	0.32931	0.12738	0.15531	0.12028	0.019189	0.21241	-2.0312	-3.225	-2.2771	-2.8	-2.7958	-2.3396	-3.15	-2.3417	-2.3812	-3.175	-2.275	-2.6396	-2.9583	-2.2417	-3.1771	-2.6542	106.035	298.327	346.879	258.948	180.338	206.177	3.578	110.957	131.663	303.358	250.834	292.597	1.252	342.293	281.360	19.514	0.00014917	0.00018778	8.4636e-06	137.56	1.4101e-06	7.1499e-07	151.13	52.502	2.2014e-06	2.1145e-06	64.466	24.249	22.62	9.9731	2.3266e-06	12.487	0.00055132	0.00088721	0.00024937	148.52	8.3862e-06	1.0566e-05	163.86	56.906	8.7861e-06	1.0144e-05	70.152	26.428	24.797	10.963	8.9736e-06	13.649	81.395	22.922	97.147	6.241	94.440	97.993	3.909	11.261	142.921	77.506	6.947	11.773	15.599	20.958	142.147	13.897	-8191	255	
3402.556	1	1	0	0	0.19848	0.27393	0.16103	0.25227	0.043655	0.26408	0.06739	0.059328	0.13079	0.11042	0.22174	0.46237	0.24559	0.11759	0.091493	0.06191	-1.8479	-3.0375	-2.3604	-2.7854	-3.0667	-2.4083	-2.9417	-2.6312	-2.3396	-3.3167	-2.2958	-2.6729	-3.0958	-2.3	-2.9813	-2.7208	188.860	41.485	305.289	146.939	160.092	154.359	306.058	321.342	352.760	38.340	204.789	289.678	245.049	203.192	142.315	338.425	0.00014688	7.0242e-05	2.6866e-05	138.15	1.4166e-06	1.4047e-06	152.53	52.189	2.0813e-06	1.1351e-06	65.017	24.189	22.737	9.8565	1.489e-06	12.727	0.00054328	0.00085928	0.00025513	148.91	8.4547e-06	1.0403e-05	164.27	56.724	8.7591e-06	9.7087e-06	70.175	26.454	24.738	10.917	8.7952e-06	13.717	82.852	80.280	70.391	5.530	128.719	154.625	3.307	10.776	78.284	128.106	6.806	11.487	15.132	20.053	149.879	14.646	-8191	255	
3402.652	1	1	0	0	0.097033	0.10547	0.074827	0.32194	0.1941	0.19696	0.023072	0.10622	0.2428	0.25304	0.33944	0.15889	0.11692	0.09893	0.061236	0.29004	-2.0104	-3.1188	-2.4542	-2.8021	-3.1271	-2.2146	-2.775	-2.8625	-2.3458	-3.0333	-2.4583	-2.4292	-3.075	-2.2562	-2.8854	-2.9938	220.778	49.806	291.782	281.691	232.915	53.807	214.588	94.049	96.937	77.153	101.586	128.894	296.923	91.792	33.233	80.461	0.00015519	0.0001429	5.192e-05	137.44	1.3308e-06	6.4457e-07	153.09	52.082	1.6203e-06	2.1573e-06	65.02	24.556	22.58	9.9878	1.6554e-06	12.573	0.00054692	0.00086311	0.00025178	148.56	8.3812e-06	1.0573e-05	164.77	56.862	8.8437e-06	9.9378e-06	70.322	26.65	24.808	11.021	9.3732e-06	13.831	78.658	66.707	34.968	6.217	23.894	173.170	4.055	11.802	128.195	118.559	7.309	11.823	15.808	20.497	172.958	14.446	-8191	255	
3402.748	1	1	0	0	0.089813	0.023992	0.13029	0.30521	0.15988	0.14445	0.28156	0.18869	0.13958	0.17516	0.13044	0.10187	0.20818	0.16046	0.088625	0.14488	-1.8417	-3.1271	-2.6479	-2.3771	-3.2417	-2.4062	-2.8	-2.9583	-2.4729	-3.0604	-2.5854	-2.3167	-3.1896	-2.5708	-2.6813	-2.9958	168.718	162.986	118.067	290.816	32.661	301.918	117.598	64.382	83.438	36.613	4.284	139.254	325.481	279.973	99.264	101.671	0.000118	0.00016306	2.1435e-05	136.74	1.8755e-06	2.2769e-06	153.06	52.007	1.9234e-06	1.3539e-06	64.651	24.302	22.453	9.8671	8.9358e-07	12.505	0.00055266	0.00087032	0.00025785	148.8	8.2106e-06	1.0531e-05	164.36	56.681	8.7065e-06	9.966e-06	69.986	26.429	24.707	10.909	9.0194e-06	13.635	65.668	105.130	101.262	5.890	103.219	158.155	3.674	11.584	91.773	251.219	6.595	11.965	16.053	19.943	152.202	14.608	-8191	255	
3402.869	1	1	0	0	0.088367	0.21316	0.17698	0.080134	0.057001	0.072898	0.16078	0.1564	0.027302	0.36675	0.15907	0.045097	0.12752	0.13188	0.092703	0.19592	-2.0146	-3.1208	-2.6167	-2.425	-3.2458	-2.5	-2.75	-2.9938	-2.4354	-3.0396	-2.6854	-2.25	-3.075	-2.4437	-2.5271	-3.025	181.088	264.607	154.409	308.271	35.583	155.042	330.804	232.870	225.652	2.638	239.405	329.787	91.056	122.746	352.386	112.125	0.00014796	7.5973e-05	6.9715e-05	136.18	1.4605e-06	1.9882e-06	151.33	52.116	8.3384e-07	2.0713e-06	64.567	24.307	22.637	9.9935	1.6726e-06	12.537	0.00053681	0.00088406	0.00025371	148.07	8.4576e-06	1.0175e-05	163.32	56.666	8.5088e-06	9.8592e-06	69.908	26.409	24.76	10.947	9.6363e-06	13.594	73.398	93.571	43.878	5.932	177.690	161.657	3.469	11.234	64.486	106.180	6.464	11.788	15.690	19.768	120.479	14.566	-8191	255	
3402.965	1	1	0	0	0.24397	0.25414	0.21756	0.1096	0.13913	0.054641	0.22254	0.082282	0.15371	0.20085	0.12079	0.1809	0.015284	0.062681	0.099698	0.27122	-1.9479	-2.9562	-2.8979	-2.2875	-3.1583	-2.4437	-2.5208	-3.1208	-2.4688	-2.8563	-2.8896	-2.2042	-3.1771	-2.6813	-2.3042	-3.2354	185.902	278.686	32.437	137.306	261.238	110.393	270.393	28.370	158.782	241.279	228.219	235.270	-4.566	59.656	179.572	240.445	0.00017665	3.398e-05	2.9147e-05	136.44	1.3789e-06	2.0572e-06	151.11	51.938	6.6192e-07	1.6225e-07	64.577	24.56	22.69	9.9159	1.0475e-06	12.564	0.00053479	0.00089104	0.00024716	148.76	8.399e-06	1.0374e-05	164.14	56.747	8.6105e-06	9.972e-06	70.118	26.58	24.84	10.975	9.512e-06	13.748	74.466	74.242	261.142	6.115	84.248	38.414	3.650	11.240	178.651	157.478	7.594	11.662	15.572	20.051	178.410	14.829	-8191	255	
3403.059	1	1	0	0	0.16365	0.066835	0.28844	0.076249	0.13793	0.074233	0.17405	0.09085	0.054501	0.12295	0.18439	0.23655	0.20196	0.057939	0.095799	0.13637	-2.1125	-2.7	-2.9646	-2.2875	-3.1104	-2.7167	-2.3438	-3.0833	-2.3167	-2.5958	-3.1958	-2.325	-3.0292	-2.6125	-2.4083	-3.3104	199.394	57.479	334.567	38.899	333.603	214.787	322.148	271.199	21.133	135.318	30.421	215.612	317.801	288.149	108.080	0.023	0.00012936	0.00014929	3.1547e-05	137.92	1.0488e-06	9.7465e-07	153.55	52.474	1.7662e-06	1.6855e-06	65.116	24.831	22.901	10.011	1.9474e-06	12.737	0.00054378	0.00091746	0.00025308	149.43	8.5925e-06	1.0509e-05	165.75	56.966	8.7747e-06	1.0281e-05	70.748	26.894	25.017	11.084	9.4274e-06	13.907	54.278	141.701	71.878	5.866	121.536	219.582	3.728	10.830	107.131	182.602	6.673	11.222	15.176	19.944	111.712	14.004	-8191	255	
3403.157	1	1	0	0	0.45481	0.11746	0.14366	0.2095	0.040796	0.045408	0.030717	0.018252	0.11112	0.068239	0.16322	0.18834	0.05109	0.2171	0.12985	0.22566	-2.2292	-2.525	-3.0292	-2.1583	-2.9833	-2.8583	-2.2313	-3.25	-2.5417	-2.6688	-2.9146	-2.0833	-2.7333	-2.8312	-2.125	-3.1188	92.747	239.573	80.730	77.279	320.266	138.360	132.945	123.269	348.945	267.968	4.200	233.665	139.540	66.524	150.323	34.507	0.00013763	8.5544e-05	2.4418e-05	138.31	1.2603e-06	1.0287e-06	153.01	52.459	2.4095e-06	1.0774e-06	65.044	24.398	22.376	9.9674	2.4551e-06	12.573	0.00054213	0.00094554	0.0002521	149.11	8.4212e-06	1.0324e-05	164.99	56.953	8.7278e-06	1.0388e-05	70.427	26.488	24.618	10.989	9.4678e-06	13.621	89.444	174.871	23.472	5.531	63.978	147.476	3.296	10.722	95.748	190.581	6.559	11.296	14.757	19.437	178.704	13.983	-8191	255	
3403.252	1	1	0	0	0.33371	0.15669	0.22929	0.4256	0.079401	0.20793	0.19618	0.19153	0.25262	0.077151	0.079241	0.24194	0.034969	0.052873	0.05621	0.13309	-2.075	-2.4917	-3.1458	-2.2438	-2.9042	-3.0333	-2.1917	-3.0333	-2.6125	-2.6354	-3.2083	-2.2042	-2.775	-3.0771	-2.0479	-3.0292	135.629	192.663	1.633	29.690	240.585	72.197	302.906	124.557	224.127	283.945	163.621	54.039	250.188	63.619	31.201	330.741	0.00014763	3.3944e-05	2.9302e-05	137.2	2.9089e-06	1.3628e-06	151.57	51.97	7.7359e-07	2.1257e-07	64.01	24.053	22.585	9.8969	1.9208e-06	12.434	0.00054026	0.00091258	0.00025151	148.46	8.7346e-06	1.0398e-05	163.8	56.63	8.6496e-06	1.0151e-05	69.944	26.274	24.761	10.936	9.1628e-06	13.616	71.482	269.857	165.813	5.294	165.046	162.028	3.023	10.609	107.621	197.861	6.191	11.119	14.955	19.382	172.255	13.737	-8191	255	
3403.348	1	1	0	0	0.24428	0.13455	0.36335	0.13074	0.15991	0.080244	0.17173	0.14338	0.2651	0.072441	0.13787	0.036524	0.14376	0.20664	0.26533	0.26115	-2.2979	-2.4146	-3.0646	-2.3146	-2.6042	-3.0708	-2.1583	-2.9354	-2.7479	-2.3958	-2.9583	-2.4354	-2.4896	-3.2167	-2.0563	-3.0062	350.356	161.106	2.560	71.771	107.781	102.219	27.024	331.390	247.738	179.015	187.286	221.721	23.537	88.064	221.952	257.426	0.00011312	0.00018353	4.2142e-05	137.26	1.1007e-06	8.3208e-07	152.57	52.23	9.5453e-07	1.152e-06	64.986	24.498	22.414	9.9166	2.7416e-06	12.51	0.00053716	0.00088436	0.00024826	147.78	8.7782e-06	9.9846e-06	163.88	56.479	8.5451e-06	1.027e-05	70.04	26.435	24.648	10.915	9.4411e-06	13.661	67.485	37.943	112.208	5.018	140.433	68.564	2.745	10.887	128.668	162.791	6.335	10.877	14.433	18.918	146.794	13.433	-8191	255	
3403.468	1	1	0	0	0.14105	0.17565	0.22594	0.099965	0.058726	0.31436	0.15675	0.11417	0.095323	0.14634	0.24237	0.2314	0.05282	0.26079	0.15936	0.23609	-2.3604	-2.2896	-3.1917	-2.4542	-2.5458	-3.1437	-2.2521	-3.0208	-2.9437	-2.2375	-3.2021	-2.6	-2.3646	-3.0521	-2.3667	-2.7542	172.251	327.972	12.100	-1.140	345.145	220.337	273.238	198.441	348.892	197.306	280.220	340.799	20.208	302.926	119.905	301.220	0.00012147	0.00019127	4.2955e-05	138.2	4.1502e-07	1.8011e-06	154.14	52.414	4.473e-07	6.842e-07	64.66	24.563	22.536	10.008	1.4139e-06	12.652	0.00053685	0.00090102	0.00024847	148.58	8.7089e-06	1.0112e-05	164.85	56.731	8.3851e-06	1.0214e-05	70.148	26.604	24.846	11.016	9.3519e-06	13.772	69.983	53.570	54.132	5.098	-1.234	108.359	2.847	10.131	179.850	146.437	6.181	10.737	14.913	19.310	126.823	13.102	-8191	255	
3403.564	1	1	0	0	0.19245	0.097253	0.33437	0.062794	0.2255	0.15336	0.017056	0.17854	0.12757	0.11063	0.17721	0.13637	0.10222	0.11281	0.43169	0.026768	-2.5062	-2.2125	-3.175	-2.6312	-2.2333	-3.2438	-2.4042	-2.6604	-2.9917	-2.6063	-3.0396	-2.5375	-2.5729	-3.1688	-2.3646	-2.5625	296.376	210.166	195.950	292.357	249.528	303.623	256.751	108.663	82.343	230.300	182.772	219.206	296.915	236.590	305.191	300.290	0.00014883	2.2046e-05	5.298e-05	136.94	1.7022e-06	9.4823e-07	151.56	51.773	3.3412e-07	9.4796e-07	64.309	24.334	22.612	9.8857	8.8041e-07	12.457	0.00053348	0.00091919	0.0002492	148.37	8.5782e-06	1.0125e-05	163.65	56.624	8.5138e-06	1.0489e-05	70.052	26.494	24.784	10.949	9.4464e-06	13.605	74.205	57.920	45.870	5.084	165.350	134.876	2.868	10.408	192.512	146.191	5.974	10.779	14.441	19.100	329.651	13.714	-8191	255	
#DATA ENDS
