BOXY.EXE: ISS Imagent and Oximeter Data Acquisition Program Version 0.80
Ascii Record File

#ACQ INFORMATION
2  Detector Channels 
16  External MUX Channels 
1  Auxiliary Channels 
5000  Waveform (CCF) Frequency (Hz)
1  Waveforms Skipped 
30  Waveforms Averaged 
1  Cycles Averaged 
16  Acquisitions per Waveform 
10.0806  Updata Rate (Hz) 

#FILE INFORMATION
TRUE -- External MUX Channel results are PARSED.
FALSE -- AC DC and Phase are NOT grouped.
TRUE -- Companion Program Settings File CREATED.
FALSE -- AC data not excluded
FALSE -- DC data not excluded
FALSE -- Phase data not excluded
FALSE -- Auxillary Chn. data not excluded
Tab delimiters

#CALIBRATION STATE
TRUE -- Waveform Calibration Values APPLIED.


#AUX CALIBRATION VALUES
Val Type	aux-1	

Term	1.0000e+00	
Factor	0.0000e+00	


#WF CALIBRATION VALUES
A = Detector Channel
Val Type	A-AC1	A-AC2	A-AC3	A-AC4	A-AC5	A-AC6	A-AC7	A-AC8	A-AC9	A-AC10	A-AC11	A-AC12	A-AC13	A-AC14	A-AC15	A-AC16	A-DC1	A-DC2	A-DC3	A-DC4	A-DC5	A-DC6	A-DC7	A-DC8	A-DC9	A-DC10	A-DC11	A-DC12	A-DC13	A-DC14	A-DC15	A-DC16	A-Ph1	A-Ph2	A-Ph3	A-Ph4	A-Ph5	A-Ph6	A-Ph7	A-Ph8	A-Ph9	A-Ph10	A-Ph11	A-Ph12	A-Ph13	A-Ph14	A-Ph15	A-Ph16	

Term	0.00000e+00	0.00000e+00	0.00000e+00	0.00000e+00	0.00000e+00	0.00000e+00	0.00000e+00	0.00000e+00	0.00000e+00	0.00000e+00	0.00000e+00	0.00000e+00	0.00000e+00	0.00000e+00	0.00000e+00	0.00000e+00	0.00000e+00	0.00000e+00	0.00000e+00	0.00000e+00	0.00000e+00	0.00000e+00	0.00000e+00	0.00000e+00	0.00000e+00	0.00000e+00	0.00000e+00	0.00000e+00	0.00000e+00	0.00000e+00	0.00000e+00	0.00000e+00	0.00000e+00	0.00000e+00	0.00000e+00	0.00000e+00	0.00000e+00	0.00000e+00	0.00000e+00	0.00000e+00	0.00000e+00	0.00000e+00	0.00000e+00	0.00000e+00	0.00000e+00	0.00000e+00	0.00000e+00	0.00000e+00	
Factor	1.00000e+00	1.00000e+00	1.00000e+00	1.00000e+00	1.00000e+00	1.00000e+00	1.00000e+00	1.00000e+00	1.00000e+00	1.00000e+00	1.00000e+00	1.00000e+00	1.00000e+00	1.00000e+00	1.00000e+00	1.00000e+00	1.00000e+00	1.00000e+00	1.00000e+00	1.00000e+00	1.00000e+00	1.00000e+00	1.00000e+00	1.00000e+00	1.00000e+00	1.00000e+00	1.00000e+00	1.00000e+00	1.00000e+00	1.00000e+00	1.00000e+00	1.00000e+00	X	X	X	X	X	X	X	X	X	X	X	X	X	X	X	X	

B = Detector Channel
Val Type	B-AC1	B-AC2	B-AC3	B-AC4	B-AC5	B-AC6	B-AC7	B-AC8	B-AC9	B-AC10	B-AC11	B-AC12	B-AC13	B-AC14	B-AC15	B-AC16	B-DC1	B-DC2	B-DC3	B-DC4	B-DC5	B-DC6	B-DC7	B-DC8	B-DC9	B-DC10	B-DC11	B-DC12	B-DC13	B-DC14	B-DC15	B-DC16	B-Ph1	B-Ph2	B-Ph3	B-Ph4	B-Ph5	B-Ph6	B-Ph7	B-Ph8	B-Ph9	B-Ph10	B-Ph11	B-Ph12	B-Ph13	B-Ph14	B-Ph15	B-Ph16	

Term	0.00000e+00	0.00000e+00	0.00000e+00	0.00000e+00	0.00000e+00	0.00000e+00	0.00000e+00	0.00000e+00	0.00000e+00	0.00000e+00	0.00000e+00	0.00000e+00	0.00000e+00	0.00000e+00	0.00000e+00	0.00000e+00	0.00000e+00	0.00000e+00	0.00000e+00	0.00000e+00	0.00000e+00	0.00000e+00	0.00000e+00	0.00000e+00	0.00000e+00	0.00000e+00	0.00000e+00	0.00000e+00	0.00000e+00	0.00000e+00	0.00000e+00	0.00000e+00	-2.04106e+02	-1.47295e+02	-1.31471e+02	-1.83006e+02	-1.05308e+02	-9.56335e+01	-1.57489e+02	-1.62015e+02	-1.04563e+02	-3.96514e+01	-1.72066e+02	-1.71987e+02	-1.87133e+02	-1.76833e+02	-7.95936e+01	-1.54913e+02	
Factor	7.03256e-05	1.41041e-04	4.05673e-05	1.70326e-01	1.62816e-06	1.33254e-06	1.95207e-01	5.96007e-02	1.84989e-06	1.49910e-06	1.05898e-01	4.16366e-02	9.64820e-02	1.05399e-02	1.79118e-06	2.58797e-02	1.57653e-06	1.61043e-06	4.48186e-07	8.61403e-02	1.75392e-08	1.76000e-08	9.27146e-02	3.00841e-02	1.75714e-08	1.76740e-08	5.11745e-02	1.99295e-02	4.41448e-02	5.29322e-03	1.75939e-08	1.20619e-02	X	X	X	X	X	X	X	X	X	X	X	X	X	X	X	X	



#DISTANCE SETTINGS
A = Detector Channel
A-1	A-2	A-3	A-4	A-5	A-6	A-7	A-8	A-9	A-10	A-11	A-12	A-13	A-14	A-15	A-16	

2.5000e+00	3.0000e+00	2.5000e+00	3.0000e+00	2.0000e+00	3.0000e+00	1.5000e+00	3.0000e+00	3.0000e+00	3.0000e+00	3.0000e+00	3.0000e+00	3.0000e+00	3.0000e+00	1.5000e+00	3.0000e+00	

B = Detector Channel
B-1	B-2	B-3	B-4	B-5	B-6	B-7	B-8	B-9	B-10	B-11	B-12	B-13	B-14	B-15	B-16	

1.0000e+01	1.0000e+01	1.0000e+01	1.4400e+00	1.0000e+01	1.0000e+01	1.5100e+00	1.9400e+00	1.0000e+01	1.0000e+01	1.9900e+00	2.4900e+00	2.4100e+00	2.9000e+00	1.0000e+01	2.9800e+00	




#DATA BEGINS
time	group	step	mark	flag	A-AC1	A-AC2	A-AC3	A-AC4	A-AC5	A-AC6	A-AC7	A-AC8	A-AC9	A-AC10	A-AC11	A-AC12	A-AC13	A-AC14	A-AC15	A-AC16	A-DC1	A-DC2	A-DC3	A-DC4	A-DC5	A-DC6	A-DC7	A-DC8	A-DC9	A-DC10	A-DC11	A-DC12	A-DC13	A-DC14	A-DC15	A-DC16	A-Ph1	A-Ph2	A-Ph3	A-Ph4	A-Ph5	A-Ph6	A-Ph7	A-Ph8	A-Ph9	A-Ph10	A-Ph11	A-Ph12	A-Ph13	A-Ph14	A-Ph15	A-Ph16	B-AC1	B-AC2	B-AC3	B-AC4	B-AC5	B-AC6	B-AC7	B-AC8	B-AC9	B-AC10	B-AC11	B-AC12	B-AC13	B-AC14	B-AC15	B-AC16	B-DC1	B-DC2	B-DC3	B-DC4	B-DC5	B-DC6	B-DC7	B-DC8	B-DC9	B-DC10	B-DC11	B-DC12	B-DC13	B-DC14	B-DC15	B-DC16	B-Ph1	B-Ph2	B-Ph3	B-Ph4	B-Ph5	B-Ph6	B-Ph7	B-Ph8	B-Ph9	B-Ph10	B-Ph11	B-Ph12	B-Ph13	B-Ph14	B-Ph15	B-Ph16	aux-1	digaux	

1239.780	1	1	0	256	0.034954	0.33629	0.29281	0.20267	0.11814	0.18979	0.393	0.15466	0.041154	0.12519	0.35159	0.17121	0.13751	0.18993	0.17947	0.165	-1.9896	-2.0292	-2.4104	-2.5896	-1.9896	-2.1833	-2.3396	-2.3292	-2.5958	-2.2354	-2.4083	-2.2667	-2.1729	-2.2562	-2.0604	-2.1729	262.235	296.555	290.967	410.124	145.640	405.093	332.612	382.008	328.496	409.707	93.871	216.916	380.520	307.899	163.175	294.046	0.0018682	0.001475	0.00020533	806.79	1.3089e-05	1.6906e-05	1107.7	246.77	7.0978e-06	6.1161e-06	399.2	122.23	67.327	19.846	2.775e-05	50.499	0.0070129	0.0071039	0.0019599	1166.1	7.5069e-05	7.4995e-05	1490.4	372.5	7.5633e-05	7.6448e-05	606.76	202.5	245.38	41.637	7.2671e-05	96.629	85.868	150.297	209.842	78.453	89.760	137.473	78.332	83.206	377.830	201.518	82.283	87.600	88.901	92.633	240.926	91.716	-8191	255	
1239.901	1	1	0	0	0.037114	0.14189	0.15716	0.041664	0.16291	0.056432	0.083063	0.34096	0.13142	0.18799	0.27686	0.34421	0.094827	0.37756	0.12627	0.088752	-2.3271	-2.1667	-2.2562	-2.6083	-1.975	-2.4458	-2.3812	-2.2438	-2.3833	-2.125	-2.5187	-2.6958	-2.1604	-2.3417	-2.3625	-2.1208	407.580	74.233	268.024	330.165	233.201	291.419	347.194	348.414	381.885	231.739	392.185	345.188	379.412	411.784	261.920	323.405	0.0011882	0.0012502	0.00051647	796.56	1.8916e-05	1.3629e-06	1100.1	245.42	6.1109e-06	1.0742e-05	397.03	122.84	67.452	21.111	2.8042e-05	51.951	0.0063664	0.0064184	0.0017886	1130.1	7.1727e-05	7.4068e-05	1491.7	379.99	8.4784e-05	8.9211e-05	656.35	226.92	303.45	50.67	0.00010091	119.39	80.724	395.136	189.879	78.044	124.261	338.838	78.139	83.062	130.581	231.094	82.623	87.714	87.330	91.265	238.228	89.985	-8191	255	
1239.995	1	1	0	0	0.22867	0.30413	0.073472	0.26487	0.26767	0.15807	0.16625	0.090396	0.039107	0.12998	0.17174	0.079213	0.33781	0.28115	0.087818	0.26126	-2.2167	-2.2417	-2.0417	-2.5333	-2.0375	-2.55	-2.5292	-1.9958	-2.4521	-2.1521	-2.2375	-2.6292	-2.2042	-2.3854	-2.3667	-2.075	267.754	96.616	174.609	62.919	122.182	386.664	377.260	254.297	275.697	251.280	73.367	75.781	71.837	412.444	353.935	351.293	0.0023242	0.0010196	0.00041649	783.91	1.4881e-05	1.545e-05	1088.9	241.08	1.3523e-05	1.1702e-05	385.86	117.17	64.34	19.682	1.4283e-05	50.338	0.009173	0.0093714	0.0026249	1280.7	0.00010323	0.00010375	1615.6	411.93	0.000101	0.00010047	663.97	225.22	301.99	49.03	9.9079e-05	115.75	397.066	162.008	265.386	76.184	171.769	268.624	76.088	80.650	268.702	421.850	80.253	85.262	86.526	90.546	109.408	89.536	-8191	255	
1240.093	1	1	0	0	0.08753	0.25442	0.29303	0.30885	0.15689	0.12015	0.17155	0.082318	0.07084	0.19938	0.10564	0.19891	0.11013	0.057015	0.12239	0.1571	-2.0792	-2.2396	-2.025	-2.5563	-2.1604	-2.2583	-2.7	-2.0062	-2.3375	-2.1667	-2.2521	-2.8729	-2.0979	-2.4271	-2.4896	-1.9646	246.087	330.079	378.651	142.121	274.950	148.482	415.783	368.701	87.055	64.708	246.659	323.324	176.784	222.531	72.306	202.086	0.00098751	0.0015267	0.00033881	767.71	4.0027e-06	1.1536e-05	1058.7	235.23	5.3489e-06	2.6624e-05	384.48	122.07	64.391	22.191	5.4771e-05	56.38	0.008918	0.0090722	0.0025044	1235	9.4061e-05	9.2223e-05	1522.1	380.22	8.4905e-05	8.3442e-05	613.19	206.79	250.66	44.703	7.466e-05	103.69	88.125	414.484	99.606	75.932	149.898	64.797	75.878	80.602	248.891	272.195	80.533	84.754	85.166	91.057	248.291	89.572	-8191	255	
1240.188	1	1	0	0	0.15467	0.072508	0.038536	0.18014	0.38425	0.26147	0.23578	0.52565	0.18242	0.15966	0.053294	0.11021	0.12511	0.22843	0.053032	0.20385	-1.9375	-2.1208	-2.0396	-2.6292	-2.2229	-2.2625	-2.5917	-2.025	-2.4771	-2.3417	-2.0958	-2.5625	-2.0792	-2.1771	-2.4938	-2.0396	191.150	399.549	418.869	337.973	75.585	220.518	376.287	374.128	376.492	333.873	191.299	387.481	301.371	386.276	213.073	336.008	0.00093444	0.0012775	0.0003141	745.66	1.117e-05	2.144e-05	1032.9	233.93	2.4967e-05	1.8443e-05	388.51	128.38	68.271	24.633	1.7253e-05	60.389	0.0065232	0.0066268	0.0018435	1086.7	7.1684e-05	7.2567e-05	1401.8	355.71	7.5413e-05	7.8092e-05	609.74	215.93	268.58	49.931	8.6458e-05	117.35	125.557	314.258	116.861	76.205	194.242	142.320	76.020	80.781	101.442	279.724	80.435	85.668	86.599	90.001	260.956	89.016	-8191	255	
1240.284	1	1	0	0	0.098254	0.13445	0.26237	0.19567	0.11244	0.20743	0.21041	0.14234	0.30847	0.12925	0.081645	0.18219	0.038702	0.19503	0.12243	0.23456	-1.7167	-2.15	-1.9833	-2.6562	-2.2729	-2.2438	-2.5521	-2.0958	-2.1729	-2.2313	-2.2104	-2.8063	-2.35	-2.1979	-2.4021	-2.0354	194.380	394.590	289.946	406.143	79.426	355.606	370.849	402.344	297.777	181.812	348.870	144.253	168.215	93.486	331.929	337.847	0.0018785	0.00023427	0.00059055	734.7	1.5347e-05	1.504e-05	1021.9	231.34	1.6727e-05	9.4852e-06	377.67	121.55	65.473	22.335	3.6639e-05	53.451	0.0079356	0.0081528	0.0022838	1168.6	9.084e-05	9.235e-05	1498.5	387.61	9.4211e-05	9.5127e-05	644.44	223.83	289.86	49.333	9.0226e-05	111.1	78.880	181.707	74.773	76.052	106.517	214.421	76.664	81.860	181.417	148.093	81.344	87.440	87.143	92.847	363.543	91.758	-8191	255	
1240.380	1	1	0	0	0.025293	0.15074	0.09319	0.091004	0.25185	0.2974	0.22406	0.045432	0.044405	0.17333	0.26183	0.20882	0.095434	0.12448	0.24283	0.34047	-1.8604	-2.2562	-2.0771	-2.6354	-2.3187	-2.3167	-2.7125	-2.1583	-1.9854	-2.3542	-2.1083	-2.6208	-2.5958	-2.1292	-2.7062	-2.2	121.893	149.979	184.732	329.567	130.541	341.577	320.074	338.910	376.439	224.055	339.395	215.492	274.392	146.126	142.230	349.571	0.0017397	0.001517	0.00018535	741.17	1.1459e-05	8.6752e-06	1011.2	219.1	2.0564e-05	1.1425e-05	349.34	104.27	57.166	17.219	1.7437e-05	43.264	0.0078239	0.0078283	0.0021474	1134.8	8.212e-05	8.1929e-05	1421.1	349.16	7.7478e-05	7.6165e-05	551.5	179.88	219.13	36.46	6.2719e-05	82.789	102.422	206.815	240.575	78.634	349.206	274.306	78.108	83.290	136.138	300.595	82.551	87.604	89.329	92.877	387.957	92.068	-8191	255	
1240.501	1	1	0	0	0.17713	0.26332	0.14962	0.11748	0.11544	0.14552	0.42823	0.23914	0.096647	0.10182	0.32748	0.18774	0.047809	0.19889	0.071004	0.20671	-1.7917	-2.1917	-2.0292	-2.5917	-2.4188	-2.1229	-2.7417	-2.1896	-2.4354	-2.4042	-2.0229	-2.2562	-2.4042	-2.0062	-2.4708	-2.3312	349.582	112.509	324.738	420.410	281.752	324.967	380.306	338.784	266.856	92.879	208.929	369.765	336.699	404.885	115.195	94.453	0.0015968	0.0011383	0.00029969	741.53	1.7681e-05	8.7325e-06	1006.5	218.04	1.7029e-05	1.2258e-05	348.16	104.76	56.593	17.831	2.0603e-05	45.658	0.0053751	0.0053969	0.0014765	1012.5	5.7112e-05	5.6774e-05	1288.9	308.83	5.5532e-05	5.526e-05	496.09	161.29	183.7	33.509	5.3278e-05	79.88	136.238	231.508	161.117	77.113	80.937	166.880	75.732	80.430	163.846	374.235	80.208	85.632	85.651	90.905	123.796	88.891	-8191	255	
1240.597	1	1	0	0	0.11486	0.26756	0.058909	0.16254	0.29879	0.061937	0.10972	0.2073	0.29957	0.14107	0.10678	0.21389	0.21782	0.04627	0.24598	0.20922	-1.5667	-2.5146	-2.0146	-2.4437	-2.5792	-2.1312	-2.5125	-2.2938	-2.0833	-2.4313	-2.2146	-2.1875	-2.2792	-2.0687	-2.2354	-2.3583	108.573	299.592	154.388	393.217	140.071	93.590	340.898	372.449	359.629	272.675	312.532	290.244	103.256	200.163	99.919	84.366	0.0014099	0.0004714	7.6062e-05	742.16	5.7702e-06	6.5994e-06	1023.3	221.32	8.6438e-06	7.7574e-06	370.01	114.05	60.032	21.033	5.6526e-06	54.079	0.0047776	0.0047884	0.0013099	972.28	4.7782e-05	4.5729e-05	1231.3	287.38	3.9199e-05	3.7855e-05	463.83	149.36	140.1	30.874	3.4116e-05	74.305	420.530	365.351	169.312	75.796	206.116	232.672	75.449	80.548	193.777	331.109	79.927	85.001	85.766	90.329	202.883	89.302	-8191	255	
1240.693	1	1	0	0	0.27796	0.13952	0.15091	0.40986	0.1337	0.10379	0.1166	0.12822	0.12918	0.027645	0.22169	0.05436	0.33638	0.070339	0.19046	0.095315	-1.5792	-2.4708	-2.1042	-2.4854	-2.3729	-2.0208	-2.4646	-2.4458	-2.0604	-2.4833	-2.3583	-2.4542	-2.3521	-1.9729	-2.3979	-2.4	254.810	369.315	347.582	169.519	345.530	390.643	220.406	357.692	82.738	115.595	383.394	420.890	72.507	314.405	175.795	377.724	0.0013202	0.0012847	0.00025439	737.35	2.0341e-05	1.2263e-05	1038.2	229.78	3.4297e-06	1.2667e-05	389.38	125.77	65.592	25.41	7.132e-06	62.256	0.0030161	0.0030477	0.00083871	888.85	3.2674e-05	3.3006e-05	1192.6	283.42	3.4441e-05	3.551e-05	482.53	163.27	153.77	36.681	4.0211e-05	86.876	403.615	356.493	209.266	76.196	161.514	167.068	75.643	80.654	136.229	206.951	79.853	84.901	86.160	90.160	399.816	88.750	-8191	255	
1240.789	1	1	0	0	0.29388	0.12246	0.036691	0.089152	0.040195	0.12981	0.23322	0.1416	0.32	0.27541	0.20434	0.35518	0.1243	0.070515	0.08284	0.044234	-1.6313	-2.4167	-2.2583	-2.2146	-2.3312	-1.9896	-2.4125	-2.425	-2.1083	-2.3167	-2.1542	-2.0729	-2.5062	-2.1958	-2.4208	-2.4854	92.173	419.590	124.659	392.405	386.453	183.993	362.472	361.380	413.382	247.296	341.480	73.929	401.840	420.369	315.204	141.178	0.00098148	0.00024568	0.00023449	729.89	1.0851e-05	3.2352e-06	1024	231.91	2.1613e-05	7.7689e-06	390.71	129.08	67.613	26.747	3.2606e-05	64.496	0.0037316	0.003782	0.0010471	920.05	4.0493e-05	4.052e-05	1219.5	297.4	4.1568e-05	4.2758e-05	506.32	174.56	174.34	40.059	4.7224e-05	93.151	87.353	76.810	416.570	75.741	249.548	363.912	75.618	80.251	255.860	149.747	80.051	85.229	86.386	90.177	244.170	88.900	-8191	255	
1240.885	1	1	0	0	0.16615	0.30558	0.22523	0.12161	0.18268	0.088078	0.1516	0.067843	0.40478	0.22108	0.42233	0.23476	0.33846	0.18757	0.12979	0.20838	-1.5875	-2.4125	-1.9146	-2.3	-2.7875	-2.0646	-2.2875	-2.3833	-1.9792	-2.6396	-2.2208	-2.0375	-2.5062	-1.9729	-2.3208	-2.5333	191.669	302.999	322.499	221.983	315.699	219.115	390.276	414.919	223.154	105.882	401.099	70.543	395.320	387.865	182.900	342.736	0.0011016	0.00055262	0.0004103	740.81	2.7423e-05	8.5467e-06	1040.7	235.19	2.7119e-05	6.9087e-06	389.61	125.36	66.351	24.501	9.4501e-06	59.405	0.0042624	0.0043006	0.0011857	954.23	4.5155e-05	4.4758e-05	1252.4	304.58	4.3712e-05	4.3862e-05	505.53	169.74	168.63	37.455	4.5461e-05	87.516	419.321	149.013	109.080	78.879	146.876	91.811	78.868	83.505	131.999	68.887	81.073	85.933	85.880	89.779	119.567	89.218	-8191	255	
1240.980	1	1	0	0	0.10875	0.29848	0.13603	0.20071	0.20513	0.17223	0.25745	0.17627	0.1475	0.075534	0.26794	0.32201	0.10748	0.19861	0.28084	0.25438	-1.6187	-2.4146	-2.1188	-2.1354	-2.7542	-2.0771	-2.4313	-2.5979	-2.0625	-2.3375	-2.3521	-2.0521	-2.4688	-2.1937	-1.9292	-2.3917	285.718	389.940	342.314	379.405	407.166	175.938	413.143	414.076	389.397	382.444	180.502	324.091	307.395	83.794	356.429	345.228	0.0005135	0.00096178	6.4987e-05	752.54	9.8803e-06	1.3821e-05	1038.7	230.08	1.6774e-05	6.5678e-06	381.45	120.41	64.476	23.73	1.0624e-05	56.981	0.0042554	0.0044247	0.0012655	988.91	5.2016e-05	5.3382e-05	1305.1	320.63	5.5651e-05	5.6825e-05	536.77	180.53	200.83	40.631	5.9705e-05	95.639	87.874	207.207	237.135	77.229	424.736	110.637	78.594	83.411	382.599	347.779	82.854	88.048	87.955	92.526	226.563	88.348	-8191	255	
1241.076	1	1	0	0	0.073926	0.14974	0.10068	0.22589	0.12582	0.060304	0.16166	0.28528	0.15876	0.067651	0.1037	0.043267	0.20362	0.12564	0.072047	0.35471	-1.55	-2.2292	-2.1667	-2.1521	-2.325	-1.9792	-2.3042	-2.4979	-2.1417	-2.3812	-2.35	-1.9917	-2.6583	-1.9229	-2.1625	-2.6167	160.870	77.740	74.848	105.553	192.765	197.409	398.163	81.515	115.662	102.358	246.029	203.599	379.333	421.369	259.852	135.796	0.001173	0.00083131	0.0006448	740.45	1.1826e-05	1.3218e-05	1020.2	230	7.4244e-06	1.4496e-05	377.07	120.5	63.242	23.725	7.991e-06	57.818	0.0055141	0.0057016	0.001589	1036.4	6.1529e-05	6.1621e-05	1325.6	328.35	6.0241e-05	6.088e-05	544.73	185.64	211.84	42.305	6.46e-05	99.672	63.244	342.938	212.704	75.713	397.705	374.008	75.868	80.514	152.808	346.854	80.450	85.130	84.721	90.128	87.486	89.222	-8191	255	
1241.174	1	1	0	0	0.030601	0.23229	0.32549	0.15135	0.16223	0.19491	0.18961	0.067052	0.11028	0.19402	0.27964	0.039778	0.13447	0.023899	0.16111	0.14083	-1.8083	-2.1	-2.4	-2.2146	-2.4292	-2.1771	-2.3229	-2.5479	-2.2979	-2.2667	-2.4313	-2.15	-2.7188	-2.4583	-2.0938	-2.7396	243.848	270.438	353.029	363.624	194.370	298.865	407.042	322.741	196.831	301.633	401.378	307.894	88.528	258.462	164.468	78.329	0.0013633	0.00071	0.00052925	731.79	1.8531e-05	1.5589e-05	1002.7	225.82	2.3659e-05	1.0473e-05	370.9	117.7	63.191	22.987	1.9027e-05	56.272	0.0060819	0.0063352	0.0017987	1077.1	7.3831e-05	7.572e-05	1393.7	354.29	7.8843e-05	8.0067e-05	591.29	203.03	252.02	46.241	7.8374e-05	107.48	90.945	285.293	118.896	76.845	96.508	211.036	78.600	83.206	348.316	240.485	82.641	87.458	88.439	92.293	387.700	91.636	-8191	255	
1241.293	1	1	0	0	0.22815	0.051085	0.11315	0.096629	0.26083	0.39499	0.37472	0.082997	0.31339	0.2247	0.20266	0.092598	0.18985	0.26488	0.10421	0.24123	-1.825	-2.2042	-2.4042	-2.0875	-2.3042	-2.0979	-2.2208	-2.5708	-2.0375	-2.2125	-2.5208	-2.0354	-2.4375	-2.3979	-1.8937	-2.5792	280.908	134.386	395.903	116.720	179.705	142.781	413.770	384.914	397.137	396.128	358.151	365.761	345.710	195.662	355.086	394.798	0.0011919	0.00043476	0.00048594	714.32	3.246e-05	2.4938e-05	973.5	218.28	9.3735e-06	2.06e-05	364.92	116.21	61.522	22.792	1.3863e-05	56.07	0.0072114	0.0074881	0.0021241	1121.6	8.7088e-05	8.8999e-05	1437.9	370.87	9.129e-05	9.1472e-05	614.32	212.34	273.72	48.41	8.4692e-05	109.65	125.301	245.986	348.937	75.726	232.755	200.098	75.683	80.554	67.072	414.781	79.896	84.740	85.340	89.802	212.658	89.399	-8191	255	
1241.389	1	1	0	0	0.14175	0.14227	0.17935	0.29672	0.21366	0.071283	0.28071	0.14095	0.073649	0.14174	0.17545	0.20798	0.054953	0.059962	0.092291	0.11814	-1.8417	-2.2042	-2.4958	-1.975	-2.4375	-2.5729	-2.0333	-2.4	-2.225	-2.2396	-2.5417	-1.9333	-2.3146	-2.5125	-2.1521	-2.4938	175.818	219.263	416.065	349.841	149.366	118.577	419.756	237.172	268.568	175.470	95.030	334.325	242.235	342.802	261.485	382.206	0.0010417	0.00075028	0.00050779	714.52	8.108e-06	4.459e-06	976.64	220	1.5214e-05	4.3597e-06	364.29	115.99	61.645	22.698	7.8765e-06	55.061	0.0072534	0.0071963	0.0019456	1066.7	7.2954e-05	7.1491e-05	1326.3	331.88	6.6207e-05	6.4899e-05	536.27	181.16	206.18	40.066	5.9203e-05	92.52	402.815	215.874	222.321	77.404	393.967	414.394	78.931	83.138	162.503	382.405	83.246	88.123	87.518	92.549	74.893	91.017	-8191	255	
1241.460	1	1	0	0	0.27958	0.12486	0.15067	0.38517	0.12359	0.099907	0.36259	0.24149	0.21926	0.11154	0.039239	0.14768	0.17216	0.10367	0.072584	0.21179	-1.7437	-2.1396	-2.4271	-2.2021	-2.2646	-2.5167	-2.1208	-2.5021	-2.3	-2.2938	-2.5563	-2.0646	-2.4729	-2.6479	-1.9062	-2.675	277.159	398.394	74.801	395.954	146.890	160.171	119.839	367.641	138.847	343.025	293.432	294.330	240.585	65.638	204.519	352.802	0.0018652	0.0011081	0.00020938	699.39	1.7559e-05	2.366e-06	971.88	218.39	1.3726e-05	7.58e-06	361.17	114.61	61.894	22.262	1.0286e-05	55.27	0.0052972	0.0054112	0.0014989	978.17	5.8075e-05	5.7642e-05	1250.5	307.29	5.4047e-05	5.3294e-05	500.71	167.77	178.66	36.588	4.8569e-05	84.723	127.538	267.231	236.836	78.662	236.395	342.900	78.485	83.332	425.157	297.326	83.060	87.917	88.034	92.565	211.790	91.300	-8191	255	
1241.581	1	1	0	0	0.10287	0.24938	0.2311	0.0345	0.10967	0.2358	0.16132	0.1982	0.13175	0.25448	0.22975	0.053974	0.1351	0.057184	0.057675	0.26783	-1.7938	-1.8958	-2.5083	-2.2229	-2.0479	-2.6104	-2.0333	-2.1813	-2.3563	-2.0146	-2.6521	-2.2021	-2.0312	-2.5271	-2.1604	-2.4958	416.409	279.575	354.758	271.898	246.588	75.657	364.317	369.465	121.128	216.657	86.623	407.637	337.862	326.561	84.125	423.764	0.0006012	0.00058098	0.00031198	716.39	4.6783e-06	1.3758e-05	990.81	221.67	4.5914e-06	1.5506e-05	370.99	119.64	63.981	24.273	6.9618e-06	59.985	0.0042706	0.0042547	0.0011503	915.2	4.2638e-05	4.152e-05	1184	284.73	3.8982e-05	3.8779e-05	470.67	157.88	151.09	35.056	3.7915e-05	82.413	112.581	126.683	272.798	78.815	254.021	119.092	78.497	83.721	88.188	279.565	82.881	87.704	87.987	92.054	300.906	90.841	-8191	255	
1241.677	1	1	0	0	0.2025	0.13205	0.059074	0.16996	0.051223	0.14524	0.6339	0.19108	0.20185	0.12936	0.040668	0.35256	0.36633	0.36718	0.2286	0.20182	-1.9708	-1.9729	-2.5396	-2.4479	-1.9979	-2.5958	-2.2167	-2.4375	-2.0625	-1.9729	-2.4292	-2.1167	-1.9958	-2.6875	-2.3063	-2.275	195.298	337.555	318.041	125.121	406.380	195.624	364.468	396.864	65.670	389.192	322.693	300.069	412.998	397.869	332.042	294.501	0.0010932	0.0013239	0.00036023	711.87	5.8702e-06	5.2563e-06	991.21	228.25	9.0583e-06	7.321e-06	381.09	124.99	66.885	25.797	1.5878e-05	62.089	0.0034308	0.0034816	0.00096564	885.91	3.7758e-05	3.7875e-05	1170.2	287.01	3.7653e-05	3.751e-05	476.58	161.8	149.54	36.031	3.6408e-05	83.494	88.366	126.631	371.642	78.556	370.040	87.176	78.618	83.424	409.188	66.929	82.899	87.568	87.634	91.944	127.697	90.851	-8191	255	
1241.773	1	1	0	0	0.065353	0.19355	0.059283	0.23187	0.2914	0.070806	0.035109	0.21794	0.20568	0.16405	0.10639	0.23155	0.21603	0.28261	0.19497	0.2563	-2.0563	-2.0667	-2.4042	-2.425	-1.9229	-2.7	-2.3479	-2.3833	-2.5792	-2.2313	-2.4042	-2.4688	-2.2333	-2.6229	-2.1042	-2.3458	266.752	208.132	196.021	421.151	424.541	324.853	103.860	323.574	369.516	374.855	375.606	408.053	312.201	362.535	326.258	109.051	0.0013639	0.0015223	2.9491e-05	717.49	1.4147e-05	1.3387e-05	993.92	226.86	1.242e-05	1.6082e-05	375.67	121.13	63.826	24.504	1.0941e-05	59.135	0.0032828	0.0033273	0.00092815	882.96	3.6841e-05	3.7367e-05	1173.5	286.68	3.8959e-05	3.9815e-05	478.81	162.03	157.4	36.151	4.1059e-05	83.889	106.145	154.984	269.734	78.810	188.570	162.068	78.540	83.353	150.011	130.751	83.012	87.864	88.151	91.689	112.890	91.506	-8191	255	
1241.894	1	1	0	0	0.075141	0.034173	0.031414	0.16074	0.16535	0.17927	0.35371	0.35326	0.04382	0.06973	0.26114	0.20318	0.10133	0.050108	0.09799	0.21579	-2.1458	-2.1271	-2.3979	-2.5375	-2.1188	-2.6208	-2.5458	-2.425	-2.1688	-2.0021	-2.6083	-2.4917	-1.9354	-2.6125	-2.1896	-2.2917	131.632	71.432	195.317	83.180	109.585	226.836	402.316	403.065	181.022	386.417	398.467	369.262	228.599	243.986	246.516	288.318	0.0012973	0.00058302	0.000406	710.09	1.1332e-05	1.2866e-05	975.45	222.12	2.7436e-06	1.4503e-05	365.78	116.27	62.627	22.756	2.4658e-05	55.151	0.0037213	0.0037847	0.001061	896.67	4.1032e-05	4.1133e-05	1175.5	287.09	4.0848e-05	4.1372e-05	474.59	158.67	158.96	34.748	4.2313e-05	81.098	70.145	197.109	157.020	78.659	414.864	281.614	78.785	81.745	119.194	279.342	81.072	85.893	86.717	90.323	264.067	88.746	-8191	255	
1241.990	1	1	0	0	0.037685	0.25139	0.36852	0.33981	0.097108	0.012564	0.35422	0.35831	0.0090738	0.045996	0.12915	0.19134	0.34781	0.10323	0.09051	0.12001	-2.05	-2.1896	-2.3958	-2.4583	-1.9521	-2.4979	-2.3688	-1.9562	-2.5687	-2.2062	-2.2021	-2.4354	-2.1583	-2.2979	-2.2604	-2.1688	361.018	107.240	102.106	73.721	128.957	314.418	396.034	342.234	286.736	81.161	213.851	188.428	72.010	66.086	210.639	322.729	0.0014146	0.0010189	0.00028151	700.16	1.8993e-05	1.3395e-05	975.99	219.3	1.1694e-05	2.251e-05	363.18	116.1	61.553	22.614	1.3492e-05	56.617	0.0038149	0.0038656	0.0010749	895.31	4.0731e-05	4.0671e-05	1168.3	282.04	3.8883e-05	3.8598e-05	465.34	154.28	147.79	33.391	3.7246e-05	78.326	65.412	389.828	306.674	76.108	124.232	182.358	76.127	80.691	157.433	196.378	80.586	84.934	85.518	90.145	240.360	88.652	-8191	255	
1242.062	1	1	0	0	0.1263	0.1481	0.094073	0.03577	0.10382	0.080119	0.26797	0.18607	0.26224	0.26699	0.24154	0.17391	0.057378	0.011111	0.062633	0.29172	-1.9521	-2.0187	-2.1479	-2.575	-2.0958	-2.4271	-2.3021	-2.2979	-2.5896	-2.0333	-2.2896	-2.5542	-1.8521	-2.2792	-2.2812	-1.8667	99.041	336.245	170.778	208.715	317.032	251.945	379.738	138.733	156.113	185.594	359.880	226.512	398.077	332.650	86.221	302.825	0.0014984	0.00035059	0.00041629	704.02	1.1044e-05	9.2501e-06	977.37	220.95	1.9917e-05	6.0947e-06	366.82	117.53	61.899	23.328	5.8967e-06	57.292	0.0033132	0.0033576	0.00093136	869.32	3.5958e-05	3.5946e-05	1146.7	276.84	3.5794e-05	3.6114e-05	460.51	153.8	144.34	33.429	3.5658e-05	78.168	129.273	134.855	393.771	76.899	180.411	225.647	76.832	81.438	231.182	186.274	80.875	85.192	84.942	88.936	404.999	88.323	-8191	255	
1242.181	1	1	0	0	0.12923	0.012194	0.24672	0.20114	0.26647	0.10419	0.031574	0.24689	0.1261	0.069687	0.036609	0.25626	0.12882	0.16908	0.13781	0.14389	-1.8854	-2.1875	-2.1167	-2.4313	-2.0021	-2.3333	-2.3563	-2.1958	-2.2854	-2.2354	-2.2167	-2.4583	-2.0167	-2.4813	-2.4938	-2.1	105.824	160.296	77.419	66.760	418.101	192.864	251.680	415.975	223.481	184.026	143.260	86.700	319.677	81.841	415.464	164.514	0.00095688	0.0012463	0.00020375	698.15	2.1156e-05	7.913e-06	965.45	218.52	1.229e-05	1.4461e-05	364.73	118.77	62.022	23.507	2.7572e-06	57.58	0.0031618	0.0031968	0.00088457	851.14	3.417e-05	3.4467e-05	1127.1	272.95	3.4996e-05	3.5739e-05	458.49	154.2	145.96	33.98	3.7018e-05	80.022	407.622	307.475	200.591	76.369	276.115	289.712	76.819	81.593	116.098	257.398	80.977	85.862	87.215	90.195	87.425	89.210	-8191	255	
1242.277	1	1	0	0	0.20371	0.43107	0.17651	0.20499	0.17285	0.22956	0.10571	0.11495	0.15093	0.29435	0.03976	0.20485	0.18669	0.18886	0.19515	0.13678	-2.2938	-2.05	-1.9937	-2.5292	-2.0021	-2.2083	-2.5687	-2.1354	-2.2292	-2.475	-2.1521	-2.5687	-2.1688	-2.4021	-2.4604	-2.1333	318.823	119.501	182.649	364.305	187.700	301.185	389.044	344.022	129.201	74.846	413.381	405.542	170.343	92.717	91.938	81.149	0.0017309	0.00063752	0.00011411	683.84	6.966e-06	9.026e-06	954.23	218.15	2.2297e-05	1.3126e-05	366.16	118.84	63.354	23.627	2.2191e-05	57.92	0.0033449	0.0033947	0.00094023	852.23	3.6427e-05	3.6164e-05	1123.5	274	3.5117e-05	3.5133e-05	455.47	153.39	142.15	33.561	3.5371e-05	79.111	78.238	402.406	154.151	77.325	178.023	366.721	78.635	83.640	223.627	363.388	82.919	87.537	88.473	92.545	301.975	91.135	-8191	255	
1242.373	1	1	0	0	0.073856	0.16524	0.11477	0.077673	0.16209	0.063886	0.17865	0.24058	0.21699	0.12381	0.14149	0.34686	0.099601	0.17555	0.25339	0.24064	-1.8563	-2.4375	-1.9896	-2.4667	-2.0104	-2.0042	-2.5375	-1.9208	-2.1	-2.5146	-2.0417	-2.4021	-2.3146	-2.0312	-2.4688	-1.975	244.697	376.028	379.910	311.787	133.998	272.170	410.713	275.558	362.229	172.402	357.829	365.424	377.610	97.196	403.556	93.114	0.00092504	0.00049452	0.00050911	682.39	2.2465e-05	7.1128e-06	945.04	214.96	4.4186e-06	7.8911e-06	361.85	116.54	60.497	23.228	7.2455e-06	57.249	0.0033146	0.0034136	0.00096131	854.95	3.8683e-05	3.8858e-05	1131.4	277.12	3.8709e-05	3.8421e-05	460.22	154.56	147.36	33.831	3.6873e-05	79.195	107.537	216.410	273.386	78.803	217.187	141.888	78.838	81.982	239.122	374.159	82.918	87.636	87.752	92.300	141.135	91.314	-8191	255	
1242.469	1	1	0	0	0.24706	0.0249	0.14031	0.28001	0.23406	0.057527	0.34705	0.14261	0.092307	0.25593	0.10657	0.10902	0.06901	0.050716	0.096555	0.13733	-2.1542	-2.2958	-2.0229	-2.6437	-2.0833	-2.3354	-2.6083	-2.2771	-2.2292	-2.5417	-2.2208	-2.6271	-2.1771	-2.1521	-2.4854	-2.2417	377.010	156.600	256.584	390.531	195.718	343.068	385.531	353.854	164.693	409.261	372.623	377.552	87.676	78.779	166.486	170.434	0.00081848	0.00048137	0.00051052	677.78	8.3532e-06	1.3561e-05	946.11	217	1.1192e-05	1.5941e-05	365.69	120.44	63.861	24.165	1.5615e-05	59.504	0.0032882	0.0033114	0.00091247	838.38	3.5086e-05	3.4717e-05	1104.5	268.67	3.3153e-05	3.2811e-05	447.86	151.15	134.74	33.017	3.1401e-05	77.585	88.698	183.164	77.664	79.151	288.701	231.700	78.750	83.461	287.426	169.737	83.254	87.698	88.042	92.041	224.147	90.956	-8191	255	
1242.590	1	1	0	0	0.14917	0.077794	0.084029	0.14349	0.049846	0.067148	0.27303	0.19263	0.33799	0.17429	0.24183	0.15043	0.089821	0.16526	0.20868	0.10457	-2.0292	-2.2146	-1.925	-2.5708	-2.1771	-1.8583	-2.6479	-1.9771	-2.1729	-2.3417	-2.0729	-2.5667	-2.1708	-2.1688	-2.6292	-2.2562	223.471	77.398	134.778	416.783	254.887	123.467	118.619	310.028	106.036	383.611	384.844	418.382	191.995	422.112	112.424	361.567	0.00099571	0.00030682	0.00045989	672.15	1.3112e-05	2.2489e-06	934.23	217.53	1.1623e-05	8.4512e-06	371.36	122.85	64.41	25.293	1.7945e-05	62.378	0.0028461	0.0028925	0.00081598	817.42	3.2708e-05	3.3193e-05	1091.9	270.11	3.4122e-05	3.4168e-05	456.46	156.61	140.94	34.834	3.3375e-05	81.134	84.301	101.408	103.882	78.944	65.787	287.908	78.859	83.455	69.935	283.431	83.194	87.707	88.063	92.083	295.781	91.091	-8191	255	
1242.686	1	1	0	0	0.11651	0.18222	0.11475	0.20665	0.084982	0.21624	0.16966	0.18794	0.13728	0.20371	0.29704	0.13949	0.24596	0.2225	0.33012	0.32107	-1.6458	-2.6333	-1.9667	-2.5417	-2.4625	-1.9083	-2.5104	-2.325	-2.2208	-2.5667	-2.2979	-2.4417	-2.0604	-1.8417	-2.5979	-2.3729	293.209	223.593	425.321	161.148	310.283	83.095	376.641	203.760	69.460	115.347	342.334	300.817	235.140	416.238	165.015	122.017	0.0011443	0.00080521	0.00019781	671.15	9.503e-06	1.4512e-06	945.76	219.61	1.9636e-05	9.7561e-06	376.67	125.15	65.393	25.904	8.4853e-06	63.056	0.002978	0.0030143	0.00083528	821.06	3.2749e-05	3.2628e-05	1095.9	271.81	3.2572e-05	3.308e-05	458.71	157.7	140.75	35.393	3.3906e-05	82.549	70.772	280.643	379.974	78.950	173.430	238.029	79.075	83.859	196.772	111.108	82.943	87.966	89.341	91.756	236.331	90.940	-8191	255	
1242.758	1	1	0	0	0.18697	0.14402	0.19591	0.27615	0.11517	0.30815	0.3032	0.22367	0.1823	0.14992	0.07089	0.059064	0.17562	0.079601	0.17474	0.17965	-1.4937	-2.6146	-2.0687	-2.25	-2.2687	-2.1146	-2.6521	-2.2479	-2.1979	-2.3438	-2.1375	-2.3125	-2.3937	-2.0479	-2.4313	-2.1708	313.968	155.926	271.864	82.137	210.042	302.669	129.171	394.270	233.020	200.199	257.390	107.368	309.140	404.090	94.029	100.984	0.00096501	0.00097108	0.00011134	680.21	1.3062e-05	1.2684e-05	950.3	222.41	1.3619e-05	9.3844e-06	372.17	124.83	65.553	25.794	3.4233e-05	62.353	0.0030979	0.00315	0.00088371	836.58	3.4968e-05	3.5377e-05	1119.9	279.27	3.6252e-05	3.6943e-05	470.95	161.67	151.91	36.515	3.8112e-05	84.681	423.380	99.092	85.089	79.106	284.094	134.826	78.710	83.751	244.645	175.865	83.200	87.617	87.611	91.900	113.820	90.639	-8191	255	
1242.854	1	1	0	0	0.067182	0.12508	0.070466	0.026932	0.32344	0.11989	0.31217	0.21152	0.18846	0.16362	0.15594	0.23428	0.18719	0.10885	0.42896	0.5176	-1.7687	-2.35	-2.1729	-2.3042	-2.2812	-2.1479	-2.5187	-2.2396	-2.1958	-2.5729	-2.0958	-2.3083	-2.2708	-2.0229	-2.3917	-2.4083	377.671	278.361	204.204	273.047	289.862	367.029	114.331	374.091	140.920	422.375	354.905	290.277	392.318	352.443	371.507	416.373	0.0015262	6.5361e-05	0.00028432	688.01	1.2152e-05	2.8056e-06	963.23	223.37	2.0415e-05	1.8075e-05	375.71	124.45	66.329	25.774	1.6562e-05	61.964	0.0034449	0.0035009	0.00097726	864.58	3.7977e-05	3.8087e-05	1144	283.62	3.796e-05	3.8363e-05	475.37	163.37	155.1	37.082	4.0529e-05	86.427	75.815	311.316	400.654	79.051	281.013	353.791	78.662	83.424	183.834	286.433	82.870	87.440	87.808	92.132	128.366	90.979	-8191	255	
1242.974	1	1	0	0	0.14776	0.21467	0.053807	0.16001	0.09844	0.18618	0.17337	0.15201	0.15031	0.10781	0.2931	0.16333	0.13409	0.034343	0.11717	0.09792	-1.3542	-2.4813	-2.1917	-2.0896	-2.5563	-1.975	-2.3771	-2.3854	-2.1854	-2.4208	-2.0667	-2.1583	-2.3625	-2.1333	-2.3063	-2.5062	104.985	222.337	71.928	365.333	107.167	328.732	284.401	83.608	374.133	216.759	344.446	264.692	404.106	192.749	180.663	407.522	0.0015021	0.0013415	0.00049296	690.12	1.5743e-05	9.3507e-06	964.27	222.77	5.6498e-06	7.0824e-06	372.81	122.15	65.321	24.977	1.4942e-05	60.144	0.0037533	0.0038628	0.0010878	889.14	4.313e-05	4.3357e-05	1170.3	289.98	4.1996e-05	4.1778e-05	479.76	163.56	157.57	36.543	4.0065e-05	84.533	79.450	207.834	239.703	78.818	410.887	420.662	78.960	83.492	360.277	289.187	81.938	85.855	86.028	89.394	337.053	88.442	-8191	255	
1243.069	1	1	0	0	0.29461	0.20927	0.21586	0.12164	0.12792	0.20425	0.13048	0.43098	0.19716	0.26917	0.1299	0.25057	0.16735	0.19741	0.26884	0.17453	-1.6313	-2.225	-2.0312	-2.2646	-2.35	-2.1188	-2.2125	-2.2438	-2.1104	-2.3521	-2.2729	-2.0375	-2.2938	-2.0938	-2.2208	-2.3063	125.125	360.718	402.604	305.474	335.778	247.545	299.451	346.993	122.545	373.742	73.307	145.169	308.457	284.601	65.050	404.488	0.0012937	0.00096404	0.00035656	702.1	1.9998e-05	1.8636e-05	977.19	224.28	1.3073e-05	9.1248e-06	375.39	124.8	66.991	25.971	7.5239e-06	62.635	0.003636	0.0037366	0.0010487	892.29	4.1648e-05	4.2071e-05	1177.6	291.52	4.2234e-05	4.2825e-05	486.76	166.96	162.15	37.831	4.0753e-05	86.714	82.568	267.949	173.979	76.481	218.339	115.080	76.568	81.504	190.702	122.919	80.582	85.631	85.810	90.316	121.218	88.034	-8191	255	
1243.165	1	1	0	0	0.050902	0.11702	0.17985	0.18751	0.10845	0.1314	0.4	0.25352	0.21299	0.06284	0.17434	0.1117	0.10914	0.14391	0.096233	0.022641	-1.6271	-2.2771	-2.1688	-2.1083	-2.4208	-2.2438	-2.2042	-2.35	-1.9833	-2.2938	-2.3937	-1.8563	-2.3312	-2.0354	-2.0667	-2.6104	396.608	78.985	84.016	392.848	351.847	234.860	382.815	256.269	314.845	132.184	380.242	281.564	190.386	218.416	141.368	291.613	0.0012647	0.0010144	0.00048273	703.41	2.2212e-06	1.5542e-05	980.72	228.81	1.5237e-05	1.0719e-05	380.68	128.2	69.328	26.959	1.1841e-05	64.443	0.0036036	0.0036286	0.0010038	883.21	3.8886e-05	3.8883e-05	1165.8	290.28	3.8692e-05	3.9023e-05	483.95	167.4	157.37	38.12	3.902e-05	87.455	104.614	69.079	244.754	76.165	127.319	212.134	75.846	80.813	383.272	128.791	80.278	85.156	85.915	89.872	140.486	89.102	-8191	255	
1243.261	1	1	0	0	0.21588	0.06829	0.16971	0.35118	0.1927	0.17254	0.12358	0.39468	0.26164	0.085383	0.27203	0.15159	0.17536	0.091959	0.29715	0.24615	-1.5042	-2.3	-2.3021	-2.3083	-2.4958	-2.2812	-2.3479	-2.2708	-2.1292	-2.2771	-2.225	-2.2667	-2.3979	-2.0917	-1.9562	-2.4938	356.160	404.983	367.342	347.610	115.302	149.552	380.897	319.372	289.559	340.771	133.616	91.946	419.748	169.953	191.014	121.235	0.0013699	0.00062217	0.00025448	716.91	4.0288e-06	3.8849e-06	999.02	232.38	1.0415e-05	1.2733e-05	386.61	128.68	69.769	26.988	1.2983e-05	64.494	0.0035359	0.0036034	0.00099892	894.89	3.8713e-05	3.8623e-05	1182.7	292.81	3.8509e-05	3.8788e-05	486.79	167.68	157.57	37.949	3.8679e-05	87.126	77.767	163.708	198.626	78.947	293.526	126.974	76.152	81.086	415.221	303.487	80.327	84.579	85.381	89.384	258.671	88.077	-8191	255	
1243.357	1	1	0	0	0.20642	0.22498	0.14874	0.20622	0.039933	0.2589	0.29125	0.25445	0.17639	0.092667	0.13404	0.29865	0.18007	0.067096	0.12386	0.31439	-1.7542	-1.9813	-2.4833	-2.0396	-2.4083	-2.3792	-1.9937	-2.6583	-2.0938	-2.3021	-2.5271	-2.0271	-2.5687	-2.35	-2.0187	-2.6104	118.725	405.207	198.338	407.590	196.365	262.250	360.742	400.633	420.824	285.909	72.415	339.996	279.372	259.029	296.623	126.346	0.0015838	0.00065356	9.3366e-05	726.15	7.1615e-06	4.9288e-06	1005.9	232.99	8.6504e-06	2.2352e-05	388.28	129.58	68.912	27.111	9.4926e-06	64.337	0.0034945	0.0035769	0.0009994	907.86	3.9672e-05	4.04e-05	1201.9	298.58	4.1294e-05	4.186e-05	496.79	171.62	165.48	39.038	4.1716e-05	89.025	101.774	235.560	131.572	77.254	274.745	334.230	78.695	83.515	212.576	321.748	83.064	87.885	88.588	92.069	74.798	91.292	-8191	255	
1243.453	1	1	0	0	0.19061	0.0977	0.072723	0.20691	0.19899	0.078299	0.18428	0.066867	0.1954	0.31649	0.087827	0.2071	0.044585	0.16078	0.21686	0.14829	-1.6208	-2.1896	-2.7042	-2.0292	-2.4083	-2.5854	-2.1312	-2.55	-2.1375	-2.3333	-2.5354	-2.0479	-2.2875	-2.3542	-1.9375	-2.6542	129.191	243.729	102.425	308.136	220.282	335.390	330.875	401.727	71.913	209.547	380.889	381.098	141.046	370.419	301.809	166.252	0.0014314	0.001441	0.00024093	728.97	1.3753e-05	1.8345e-05	1010.4	235.06	5.6219e-06	9.8033e-06	390.94	130.64	70.63	27.772	1.5786e-05	65.373	0.0037494	0.0038037	0.0010573	919.61	4.1494e-05	4.1644e-05	1209.8	301.53	4.1742e-05	4.1835e-05	499.4	172.47	165.48	39.41	4.1353e-05	90.06	104.754	81.257	147.247	78.856	140.164	368.232	78.961	83.586	164.394	282.035	83.030	87.950	88.042	92.272	213.589	91.192	-8191	255	
1243.574	1	1	0	0	0.19402	0.21004	0.28239	0.21038	0.19348	0.10968	0.073608	0.3264	0.1489	0.12154	0.17076	0.36203	0.21291	0.067879	0.10844	0.18325	-1.6583	-1.9458	-2.3354	-2.0583	-2.5563	-2.3479	-1.9208	-2.6896	-2.3208	-2.2083	-2.7604	-2.2729	-2.0792	-2.6396	-1.8792	-2.6396	223.026	381.637	284.894	279.054	390.518	116.105	305.291	386.074	272.613	205.924	122.041	388.101	94.670	102.487	197.395	415.292	0.0016694	0.00054933	0.00055175	725.58	1.237e-05	6.4416e-06	1006.4	238.98	1.8495e-05	9.4379e-06	396.25	136.59	73.552	29.238	1.706e-05	68.997	0.003703	0.0037256	0.0010351	911.01	4.0043e-05	3.9841e-05	1194.4	300.12	3.9039e-05	3.903e-05	497.06	173.52	159.32	40.005	3.8085e-05	91.182	107.048	104.440	171.895	78.460	201.310	75.862	78.927	83.618	195.319	195.383	82.888	87.797	88.470	92.051	264.822	91.144	-8191	255	
1243.670	1	1	0	0	0.064934	0.20651	0.11635	0.10021	0.26721	0.099985	0.15226	0.27198	0.084134	0.24829	0.24179	0.11551	0.1438	0.069841	0.19841	0.1996	-1.9396	-2.025	-2.4083	-2.0687	-2.1625	-2.5625	-2.1542	-2.6396	-2.2396	-2.0458	-2.7354	-2.2062	-2.3479	-2.4271	-2.0646	-2.4229	138.351	304.352	148.852	373.253	390.356	405.729	285.090	230.021	333.497	187.994	312.861	105.603	342.780	253.188	350.092	100.877	0.0013949	0.0010817	0.00038591	728.91	3.771e-06	4.7355e-06	1009.4	241.39	1.2112e-05	1.0958e-06	403.03	137.23	73.781	29.863	4.4806e-06	69.221	0.003451	0.0035106	0.00098108	901.56	3.846e-05	3.8598e-05	1191	301.63	3.8704e-05	3.9181e-05	502.77	176.63	163.98	40.995	4.018e-05	92.779	74.466	73.846	399.964	79.224	308.713	307.010	78.802	83.658	409.986	110.694	83.235	87.748	87.769	92.095	284.465	90.846	-8191	255	
1243.766	1	1	0	0	0.23272	0.10436	0.21507	0.25869	0.32243	0.092927	0.26452	0.14764	0.11363	0.016365	0.32019	0.052083	0.27111	0.20549	0.23558	0.031207	-1.8958	-1.8521	-2.4354	-2.2188	-2.1896	-2.5854	-2.2792	-2.2896	-2.3271	-2.1458	-2.4833	-2.2583	-2.0104	-2.4354	-2.1188	-2.3812	328.092	149.976	249.430	341.857	175.766	85.905	340.254	358.993	132.379	411.888	414.898	246.577	75.770	69.417	409.233	208.300	0.0017803	0.00047689	0.00020607	725.34	1.4655e-05	1.1252e-05	1005.1	239.16	2.5929e-06	1.3372e-05	397.55	135.38	71.67	29.099	1.6663e-05	67.254	0.0036675	0.0037559	0.0010541	916.36	4.1974e-05	4.2545e-05	1210.8	308.66	4.3872e-05	4.4897e-05	515.46	180.73	178.26	42.198	4.6258e-05	95.037	104.952	151.988	164.099	78.985	181.943	279.884	78.436	83.732	82.963	267.543	83.070	87.616	89.038	92.121	138.824	91.167	-8191	255	
1243.862	1	1	0	0	0.13448	0.1719	0.34101	0.10179	0.17141	0.24178	0.2114	0.13837	0.26706	0.15312	0.14983	0.20911	0.18844	0.089288	0.13237	0.061547	-2.0542	-2.0312	-2.4292	-2.1729	-2.1917	-2.6292	-2.225	-2.4396	-2.2812	-2.2542	-2.5375	-2.3312	-2.0667	-2.4813	-1.975	-2.2188	89.672	329.713	401.498	336.570	114.670	157.372	407.403	345.318	223.766	335.759	289.135	357.015	210.737	425.070	113.965	353.658	0.0011535	0.0010746	0.0002303	722.23	1.0792e-05	2.9109e-06	999.43	236.47	1.4924e-05	8.986e-06	393.33	133.62	73.509	28.502	1.094e-05	67.224	0.0041252	0.0041904	0.0011577	931.43	4.4917e-05	4.505e-05	1217.5	308.31	4.4814e-05	4.5367e-05	512.79	179.56	177.49	41.591	4.5379e-05	94.374	112.309	346.671	242.219	78.747	127.796	78.628	78.737	83.631	120.402	248.812	83.330	87.719	88.405	92.007	135.673	91.030	-8191	255	
1243.981	1	1	0	0	0.27368	0.20316	0.23745	0.1864	0.12259	0.30289	0.27571	0.064789	0.06458	0.12698	0.23799	0.17144	0.14203	0.12059	0.10923	0.19386	-2.0187	-2.1854	-2.5771	-2.3583	-2.0854	-2.4667	-2.5271	-2.3667	-2.5542	-1.9271	-2.4229	-2.5875	-1.8375	-2.4021	-2.1417	-2.2396	179.359	172.732	383.156	350.919	80.630	291.381	392.752	141.639	164.162	376.534	366.680	289.411	280.415	224.067	270.865	327.905	0.0011895	0.0004766	0.00023207	720.19	1.3914e-05	1.6205e-05	992.02	238.26	7.9594e-06	7.6413e-06	396.07	136.05	72.058	29.208	5.9443e-06	68.632	0.0040735	0.0041496	0.0011532	927.83	4.5146e-05	4.5432e-05	1212.9	310.03	4.5193e-05	4.5759e-05	516.38	181.92	178.87	42.381	4.5963e-05	96.002	92.433	207.774	140.685	78.839	73.950	152.594	78.677	83.423	250.349	257.999	83.016	87.527	87.947	91.896	176.796	91.129	-8191	255	
1244.053	1	1	0	0	0.076129	0.21261	0.072318	0.022164	0.24767	0.26225	0.155	0.12628	0.035225	0.13034	0.13532	0.069007	0.1499	0.28844	0.12395	0.23304	-2.2188	-1.95	-2.4562	-2.6646	-1.9375	-2.475	-2.3833	-2.1458	-2.4375	-2.2583	-2.2812	-2.3958	-2.0292	-2.2542	-2.2458	-1.9646	137.966	147.119	365.863	96.917	115.055	130.605	353.663	255.674	345.324	244.208	95.130	240.479	281.619	74.312	389.294	387.502	0.0016378	0.0004562	0.00058989	711.6	1.4654e-05	8.5397e-06	990.72	235.87	1.1833e-05	1.0642e-05	393.71	135.5	72.844	28.767	1.3254e-05	68.118	0.0041553	0.0042193	0.001166	925.7	4.5372e-05	4.5467e-05	1209.8	308.89	4.4989e-05	4.544e-05	514.39	180.92	176.9	41.933	4.4883e-05	95.046	94.246	391.452	92.050	78.651	338.941	394.192	78.717	83.454	187.968	309.722	83.240	87.670	85.884	87.856	144.437	88.046	-8191	255	
1244.149	1	1	0	0	0.1222	0.12352	0.047234	0.1046	0.19109	0.039683	0.22836	0.23442	0.32334	0.14964	0.31389	0.12544	0.023408	0.15969	0.13087	0.48129	-2.1896	-1.9875	-2.2333	-2.2917	-1.7896	-2.4313	-2.1667	-2.1125	-2.5229	-1.8396	-2.1354	-2.2896	-1.9417	-2.4833	-2.1604	-2.1521	376.939	130.886	362.204	99.817	322.326	158.019	313.898	381.937	73.829	322.852	383.901	223.567	270.523	134.703	260.458	106.877	0.0018164	0.00052341	0.00010029	712.17	2.8919e-05	1.359e-05	985.56	236.46	1.4333e-05	1.2925e-05	394.35	135.11	73.797	29.259	7.892e-06	68.46	0.0040557	0.0041093	0.0011407	919.71	4.5026e-05	4.5211e-05	1205.7	308.18	4.4978e-05	4.5089e-05	511.62	180.54	174.8	41.911	4.3926e-05	94.571	85.890	209.945	381.729	75.764	77.198	167.154	75.911	81.011	95.147	192.443	80.313	84.537	85.005	88.752	254.686	88.164	-8191	255	
1244.245	1	1	0	0	0.10475	0.17011	0.21323	0.14768	0.03995	0.1382	0.18387	0.1401	0.35558	0.2964	0.064126	0.036584	0.14851	0.079013	0.26899	0.16403	-1.9312	-2.2271	-2.1417	-2.3979	-2	-2.3937	-2.4229	-2.1562	-2.4583	-2.1729	-2.25	-2.4667	-1.8312	-2.2271	-2.2979	-2.0771	224.742	254.182	410.020	320.387	114.935	376.488	395.117	363.770	223.659	353.336	394.270	325.148	124.809	286.878	313.567	352.696	0.0010036	0.0013478	5.7396e-05	701.74	8.4171e-06	1.0884e-05	981.07	233.56	1.7723e-05	1.7788e-05	390.81	135.69	72.169	29.706	1.5958e-05	69.021	0.0039396	0.0039928	0.0011128	906.36	4.3553e-05	4.3721e-05	1189.4	303.95	4.37e-05	4.3981e-05	505.65	179.95	171.67	41.784	4.2882e-05	94.525	421.607	164.131	288.424	76.158	181.431	207.395	75.944	80.576	304.616	287.554	80.403	84.859	86.459	89.315	241.313	88.248	-8191	255	
1244.366	1	1	0	0	0.17928	0.18432	0.11426	0.44096	0.30493	0.19497	0.15123	0.042031	0.011684	0.18935	0.17357	0.11829	0.20769	0.20684	0.149	0.31208	-1.9	-2.2313	-1.8563	-2.5229	-2.0958	-2.2333	-2.5667	-1.85	-2.3583	-2.15	-2.0083	-2.5146	-1.9083	-2.2812	-2.0438	-2.0271	346.320	189.607	407.618	411.890	132.103	232.726	141.248	338.142	180.812	401.519	359.227	339.123	391.978	389.297	300.389	345.972	0.0017424	0.0015947	0.00021818	686.17	1.4535e-05	1.0013e-05	943.73	226.56	2.259e-05	1.3977e-05	381.5	139.17	73.769	30.253	1.6612e-05	70.782	0.0038726	0.0039374	0.0010999	888.17	4.3758e-05	4.4176e-05	1165	299.43	4.4888e-05	4.5187e-05	503.15	186.03	178.07	43.175	4.5305e-05	97.678	79.276	173.772	89.008	75.937	164.593	141.546	75.522	80.551	213.381	138.107	80.277	84.962	85.711	89.016	250.983	88.744	-8191	255	
1244.462	1	1	0	0	0.072204	0.12366	0.14952	0.24851	0.17641	0.061046	0.33363	0.13109	0.18654	0.32311	0.078029	0.14013	0.12947	0.22165	0.27091	0.42304	-1.8479	-2.0729	-2.0604	-2.3833	-2.2125	-2.1458	-2.5833	-1.8542	-2.2687	-2.4083	-2.1354	-2.5583	-2.1104	-2.1229	-2.5708	-2.1604	71.358	349.712	219.776	69.857	421.875	213.719	394.737	404.828	168.299	290.638	127.760	282.092	391.717	306.267	397.685	319.520	0.0017453	0.00025067	0.00018676	630.14	5.9669e-06	9.8217e-06	882.4	212.41	6.0294e-06	4.3285e-06	371.14	141.58	72.593	29.916	4.9686e-06	70.447	0.0040832	0.0041509	0.0011547	840.5	4.4383e-05	4.4219e-05	1096	281.28	4.1258e-05	4.0136e-05	471.24	178.58	152.69	39.388	3.2748e-05	87.573	81.734	188.711	110.889	76.225	335.577	103.856	75.850	81.435	173.472	316.682	82.183	86.700	87.243	90.476	251.283	89.299	-8191	255	
1244.558	1	1	0	0	0.35307	0.26127	0.30456	0.36429	0.19309	0.085997	0.19564	0.38424	0.088121	0.24154	0.18105	0.015072	0.025818	0.3878	0.17261	0.38341	-1.8917	-2.2375	-1.9417	-2.7333	-2.0083	-2.0354	-2.55	-1.9646	-2.3333	-2.2167	-2.275	-2.6292	-2.1354	-1.9646	-2.4479	-2.0833	103.953	117.407	221.917	401.669	415.110	387.852	419.622	316.086	121.875	409.353	105.856	93.838	206.849	300.594	157.515	365.247	0.0008366	0.001127	0.0004496	589.61	9.4844e-06	1.0383e-05	840.01	199.31	7.2069e-06	1.3201e-05	354.83	140.25	69.976	28.505	7.9622e-06	68.828	0.0027037	0.002592	0.0006796	700.97	2.4179e-05	2.3363e-05	944.54	232.37	2.1094e-05	2.0818e-05	404.49	156.95	109.78	33.633	1.9052e-05	77.912	77.353	92.755	128.051	78.786	273.327	164.782	76.600	81.484	216.745	213.107	82.002	86.955	87.748	90.893	204.068	90.211	-8191	255	
1244.654	1	1	0	0	0.19299	0.020729	0.13225	0.21755	0.12954	0.12618	0.24041	0.010044	0.42397	0.17918	0.14872	0.15256	0.11237	0.059391	0.17201	0.107	-1.7896	-2.5021	-1.9979	-2.2938	-2.15	-2.1021	-2.4625	-2.0479	-2.3979	-2.2854	-2.125	-2.4437	-2.125	-1.9354	-2.5167	-2.0979	190.098	209.003	136.303	394.045	68.076	72.414	364.676	106.122	366.325	68.024	403.481	256.898	316.216	269.366	134.634	307.708	0.0012549	0.0006845	0.00011737	568.22	7.413e-06	5.1708e-06	822.2	195.5	5.6003e-06	5.8792e-06	360.55	143.6	71.641	29.739	9.1246e-06	73.121	0.0016744	0.0016492	0.00045014	638.98	1.6716e-05	1.6265e-05	890.13	217.15	1.5164e-05	1.4942e-05	390.32	153.65	96.439	33.107	1.3287e-05	77.885	67.888	71.554	371.717	77.024	94.615	269.521	77.024	81.876	213.732	397.956	82.027	86.635	87.114	91.311	142.770	90.431	-8191	255	
1244.750	1	1	0	0	0.34077	0.097648	0.098405	0.20944	0.18365	0.40166	0.040913	0.31032	0.27559	0.37376	0.086411	0.37284	0.089729	0.29717	0.1285	0.27762	-1.9188	-2.325	-1.8333	-2.325	-2.2146	-2.05	-2.5896	-2.2792	-2.075	-2.4333	-2.0062	-2.3688	-2.2083	-1.9542	-2.5083	-2.1354	383.127	81.939	260.344	305.314	88.436	119.716	154.141	189.614	88.557	195.310	353.073	367.819	194.544	84.326	169.601	308.458	0.0015474	0.00034409	0.00015314	556.19	2.2397e-06	6.9445e-06	825.87	198.23	3.2789e-06	1.1302e-06	367.65	147.88	72.685	30.707	1.3153e-05	74.115	0.0011738	0.0011707	0.00032477	606.68	1.2655e-05	1.2791e-05	876.6	215.5	1.3047e-05	1.3379e-05	393.67	156.4	97.175	33.938	1.3766e-05	79.089	87.305	164.205	155.176	78.772	225.848	141.253	79.039	84.214	159.946	271.833	83.590	88.057	89.095	92.779	161.335	91.602	-8191	255	
1244.847	1	1	0	0	0.1761	0.068809	0.14005	0.0873	0.16693	0.089866	0.0778	0.17128	0.11297	0.22123	0.11552	0.23004	0.19846	0.25779	0.10895	0.10117	-1.8563	-2.4979	-1.8521	-2.5521	-2.1875	-1.8937	-2.5292	-2.3021	-2.2583	-2.3312	-2.1292	-2.3458	-2.2875	-1.975	-2.4708	-2.3917	353.961	208.367	232.768	171.430	192.179	277.545	347.290	68.182	297.829	93.971	157.182	356.078	268.325	130.194	333.037	155.803	0.0017061	0.0008382	0.00018633	561.11	5.1939e-06	6.1178e-06	832.03	195.05	4.7353e-06	7.4572e-06	360.84	143.93	69.134	28.983	7.0288e-06	71.264	0.0012574	0.001262	0.00034855	615.19	1.3677e-05	1.3644e-05	884.73	214.18	1.3512e-05	1.3679e-05	388.47	152.58	93.823	32.175	1.3403e-05	76.084	81.886	115.824	163.753	78.914	132.771	176.729	79.263	84.356	139.194	269.755	83.727	88.692	88.919	92.991	155.123	90.744	-8191	255	
1244.943	1	1	0	0	0.088233	0.15591	0.26021	0.18569	0.13662	0.23642	0.31439	0.16465	0.27539	0.23001	0.2576	0.28826	0.027531	0.18999	0.14552	0.069163	-1.525	-2.1771	-1.9667	-2.1479	-2.3	-1.9438	-2.4667	-2.1375	-2.0125	-2.3875	-2.2333	-2.1312	-2.0729	-1.8396	-2.3688	-2.4625	73.135	211.330	320.130	249.301	180.977	267.589	372.526	145.736	241.280	413.318	240.863	388.386	303.938	126.032	141.096	392.150	0.0016041	0.00051117	0.00019742	562.42	2.0913e-06	7.6137e-06	833.84	188.76	9.3487e-06	1.8122e-06	348.83	135.59	65.997	26.59	1.1008e-05	67.358	0.0012597	0.0012836	0.00035889	620.1	1.4381e-05	1.4412e-05	889.99	210.13	1.4421e-05	1.4512e-05	380.27	146.34	93.479	30.216	1.4332e-05	72.843	85.978	127.167	85.643	76.756	186.617	247.097	77.013	81.686	216.844	380.387	81.807	86.499	87.446	90.893	213.568	90.405	-8191	255	
1245.062	1	1	0	0	0.13958	0.16386	0.24161	0.18775	0.20836	0.18448	0.32846	0.051809	0.076029	0.14252	0.37814	0.17125	0.22482	0.12741	0.28953	0.12003	-1.5771	-2.5146	-2.1125	-2.25	-2.3354	-2.1208	-2.3479	-2.3187	-1.9729	-2.6667	-2.1437	-2.3563	-2.3792	-2.0875	-2.2896	-2.2979	104.136	282.954	119.151	384.710	191.140	407.613	351.889	141.666	203.944	70.799	402.277	301.289	414.133	425.362	316.194	89.463	0.0011734	0.00047042	0.00019087	572.05	3.9417e-06	6.6039e-06	842.48	193.43	5.3854e-06	7.8711e-06	358.14	138.13	68.331	27.357	7.0253e-06	68.238	0.0012929	0.0012853	0.00035399	627.49	1.4015e-05	1.4073e-05	896.51	212.25	1.3824e-05	1.3614e-05	383.91	147.03	91.743	30.475	1.3147e-05	73.368	102.391	284.549	156.921	77.020	67.844	133.819	79.071	84.036	312.747	290.948	83.665	88.504	88.097	92.773	135.852	92.347	-8191	255	
1245.158	1	1	0	0	0.11557	0.031862	0.019782	0.084209	0.17218	0.12431	0.057936	0.13204	0.32997	0.14293	0.17705	0.14272	0.30998	0.21969	0.011166	0.17649	-1.5938	-2.2771	-2.0292	-2.2354	-2.2958	-1.9937	-2.3417	-2.375	-1.8979	-2.0875	-2.3729	-2.1833	-2.2583	-1.9833	-2.1792	-2.3937	141.489	88.193	396.989	370.023	317.582	126.165	141.277	399.110	241.315	361.759	397.278	404.685	390.586	189.331	106.364	289.952	0.0010735	0.00058224	9.283e-05	584.57	9.3595e-06	7.1542e-06	861.14	193.46	7.602e-06	2.7532e-06	355.26	133.51	65.34	25.447	7.7401e-06	65.02	0.0012005	0.0012087	0.00033466	637.49	1.3118e-05	1.3089e-05	911.93	212.13	1.2973e-05	1.3011e-05	383.07	142.92	90.557	28.832	1.3598e-05	71.095	75.967	139.777	164.899	77.137	108.792	77.263	76.586	81.231	204.702	246.202	80.962	85.665	86.349	90.078	204.347	89.345	-8191	255	
1245.254	1	1	0	0	0.13901	0.23566	0.10602	0.15313	0.2765	0.36292	0.29855	0.084445	0.10074	0.13987	0.044646	0.15726	0.32531	0.19857	0.10767	0.10092	-1.4167	-2.3271	-2.0667	-2.1521	-2.5292	-2.0042	-2.2625	-2.2562	-1.9333	-2.3604	-2.225	-2.0563	-2.3187	-2.1146	-2.0312	-2.4125	119.547	92.055	387.709	356.893	416.388	239.958	332.571	369.066	152.691	135.985	230.153	407.207	309.308	315.350	208.861	78.242	0.0011891	0.00063297	0.00026389	594.03	3.942e-06	4.8671e-06	872.42	197.23	8.9853e-06	3.5784e-06	361.07	131.31	65.107	24.74	6.5569e-06	64.113	0.0012644	0.0012715	0.00035514	651.56	1.3901e-05	1.4059e-05	927.32	216.71	1.3952e-05	1.3929e-05	389.08	142.61	92.014	28.47	1.4334e-05	70.383	85.561	410.903	214.029	76.118	70.033	239.440	76.461	81.247	397.233	198.357	81.114	86.131	86.345	90.995	271.290	90.342	-8191	255	
1245.350	1	1	0	0	0.17068	0.16217	0.11223	0.18505	0.079962	0.074387	0.11611	0.36165	0.091577	0.29307	0.088674	0.2158	0.031044	0.16369	0.19631	0.20175	-1.7125	-2.0687	-2.3167	-1.9021	-2.5396	-1.8542	-2.2	-2.4	-1.8604	-2.225	-2.1333	-1.9062	-2.2708	-2.0167	-1.9292	-2.3646	313.659	254.710	407.247	383.391	289.779	100.945	82.304	336.618	101.205	349.778	411.623	400.201	323.819	275.245	319.496	247.078	0.0011576	0.00061938	0.00021535	607.23	8.7844e-06	7.716e-06	880.9	198.85	3.9673e-06	1.5869e-06	360.42	129.2	63.433	23.819	6.4857e-06	62.149	0.0013214	0.0013355	0.00036955	664.77	1.472e-05	1.4845e-05	942.73	219.89	1.5106e-05	1.5316e-05	392.9	141.52	95.118	27.88	1.5735e-05	69.099	85.882	211.053	176.435	76.852	154.735	147.982	76.697	81.620	106.966	334.158	81.123	85.632	85.828	90.392	370.780	89.334	-8191	255	
1245.446	1	1	0	0	0.055939	0.4069	0.21463	0.13119	0.15031	0.11153	0.19035	0.094411	0.23696	0.19232	0.17736	0.20574	0.20944	0.11592	0.24043	0.13425	-1.6063	-2.1229	-2.2708	-2.2188	-2.2625	-2.2208	-2.05	-2.5521	-1.9354	-2.1146	-2.2229	-1.8125	-2.2208	-2.2313	-1.8208	-2.2917	422.721	214.411	104.780	68.062	341.533	84.559	71.199	376.470	113.542	301.404	271.460	354.850	391.662	138.079	303.115	73.702	0.00077897	0.00046869	0.00020029	611.03	4.8414e-06	4.8776e-06	892.18	203.97	8.6918e-06	3.0379e-06	368.66	133.48	66.415	24.782	1.1878e-05	64.701	0.001415	0.0014201	0.00039244	674.41	1.5313e-05	1.5285e-05	956.29	225.37	1.5246e-05	1.5503e-05	401.87	145.09	97.294	28.883	1.6088e-05	71.643	87.624	420.654	163.889	76.033	241.165	416.712	76.541	81.185	139.720	211.865	81.125	85.916	86.468	90.001	130.583	89.580	-8191	255	
1245.542	1	1	0	0	0.27735	0.20566	0.077675	0.041047	0.18292	0.055872	0.22012	0.1703	0.17929	0.17162	0.10948	0.2566	0.13182	0.21073	0.2521	0.22539	-1.6	-1.9896	-2.3146	-1.7188	-2.2667	-2.1979	-2.0521	-2.3771	-1.9708	-2.1125	-2.2354	-1.9021	-2.1854	-2.2021	-2.0167	-2.4938	133.773	77.297	385.191	408.338	374.459	186.686	353.333	72.763	132.226	317.286	153.228	236.315	116.882	365.200	180.922	365.227	0.001442	0.0018852	7.4249e-05	626.44	6.4673e-06	4.9022e-06	911.9	211.31	1.7845e-05	1.0524e-05	382.54	138.11	70.993	25.915	1.1729e-06	66.378	0.0014868	0.001525	0.00042969	697.78	1.7443e-05	1.7816e-05	989.84	238.3	1.8517e-05	1.8938e-05	425.97	153.98	109.01	31.127	1.9496e-05	76.105	106.004	117.202	172.369	76.365	64.727	422.364	76.466	81.538	167.796	384.235	80.882	85.681	85.632	89.929	328.706	89.552	-8191	255	
1245.663	1	1	0	0	0.27651	0.08959	0.20383	0.18758	0.099763	0.10124	0.073506	0.093885	0.18576	0.25068	0.13876	0.23074	0.062644	0.10918	0.028949	0.14736	-1.7646	-1.9229	-2.2083	-2.1229	-2.0667	-2.3854	-2.15	-2.4792	-2.0396	-1.8813	-2.5312	-2.0292	-2.1875	-2.0438	-1.6458	-2.4708	99.018	256.555	107.683	123.095	327.191	375.626	113.413	142.885	64.452	269.162	95.281	409.767	134.685	67.593	109.789	267.210	0.0014708	0.00030585	0.00023596	644.51	3.9985e-06	6.982e-06	946.04	227.96	6.3197e-06	8.5883e-06	405.7	146.3	76.937	28.644	1.5164e-05	71.026	0.0018033	0.0018383	0.00051375	734.44	2.0483e-05	2.0796e-05	1037.7	258.47	2.1473e-05	2.2062e-05	457.53	166.26	124.16	34.938	2.4056e-05	83.502	89.870	225.716	129.305	76.492	319.791	268.998	76.312	81.041	172.529	323.935	80.787	85.512	85.030	89.766	291.351	88.750	-8191	255	
1245.759	1	1	0	0	0.15077	0.085314	0.30127	0.17224	0.13961	0.17513	0.18715	0.29848	0.15465	0.17304	0.30132	0.13872	0.043622	0.19471	0.21388	0.21993	-1.6	-1.9521	-2.3896	-2.0958	-2.1167	-2.4708	-2.0771	-2.4688	-2.3583	-1.8833	-2.5083	-2.0687	-1.975	-2.4562	-1.9125	-2.4313	185.161	396.435	95.867	333.178	171.913	152.755	358.283	345.281	201.968	283.912	343.298	379.807	331.442	421.405	180.671	324.713	0.0017272	0.0010922	0.0001372	672.16	1.7966e-05	1.1707e-05	975.79	243.18	6.2808e-06	7.4067e-06	430.41	159.28	85.225	32.668	6.2651e-06	78.806	0.0022658	0.0023424	0.00066153	787.92	2.652e-05	2.7163e-05	1100.8	286.08	2.7982e-05	2.8364e-05	500.54	184.65	145.33	40.706	2.8591e-05	94.137	85.367	91.198	193.226	76.396	151.374	137.553	76.188	81.468	134.308	348.001	80.918	85.002	85.691	89.646	174.249	88.290	-8191	255	
1245.855	1	1	0	0	0.11271	0.15122	0.20829	0.31255	0.13746	0.068299	0.27339	0.055666	0.31052	0.24031	0.20364	0.10507	0.066039	0.26094	0.15027	0.13195	-1.9542	-1.7833	-2.4042	-2.1104	-2.0938	-2.3896	-2.225	-2.4354	-2.1	-2.05	-2.4458	-1.875	-2.0812	-2.7354	-1.975	-2.3396	318.606	146.277	138.832	410.077	309.499	316.279	273.344	364.981	394.747	141.046	401.503	270.861	394.141	361.397	398.527	167.218	0.0016906	0.00041149	0.00011813	695.47	4.2522e-06	5.4679e-06	1001.1	260.21	1.1781e-05	9.5729e-06	452.17	171.44	90.652	38.4	1.2717e-05	88.268	0.0026308	0.0027012	0.00075912	831.69	3.0302e-05	3.0627e-05	1137.9	306.99	3.0733e-05	3.1044e-05	528.7	199.51	159.93	47.361	3.2442e-05	105.3	101.265	314.631	302.259	76.478	310.676	264.348	76.570	81.478	179.608	118.368	80.581	84.855	85.852	89.132	355.297	88.210	-8191	255	
1245.927	1	1	0	0	0.099038	0.12321	0.12305	0.17322	0.15451	0.23462	0.31729	0.18966	0.015343	0.14941	0.10542	0.096769	0.13354	0.088393	0.36066	0.2228	-1.9937	-1.9583	-2.3146	-2.2146	-2.2292	-2.3563	-2.1542	-2.4083	-2.3125	-1.8396	-2.4667	-2.3208	-1.8542	-2.5062	-1.9958	-2.4083	230.729	343.546	419.270	112.839	334.838	397.650	392.509	345.993	337.564	218.442	332.840	94.956	74.003	378.518	203.686	306.355	0.0023146	0.00048117	0.00016401	705.78	9.472e-06	1.2416e-05	1016.4	267.64	9.4642e-06	2.1189e-05	464.54	175.29	94.294	39.763	4.3642e-06	89.328	0.0029384	0.0029626	0.00082221	851.83	3.1799e-05	3.1677e-05	1160.8	316.08	3.1117e-05	3.0917e-05	537.18	203.1	159.79	48.039	3.0613e-05	104.98	82.090	239.257	353.502	77.107	218.529	261.334	76.666	81.627	139.327	268.276	80.812	84.690	85.143	89.172	391.730	88.157	-8191	255	
1246.046	1	1	0	0	0.084956	0.10927	0.31351	0.06282	0.21195	0.18252	0.23026	0.23264	0.16648	0.16412	0.23005	0.050786	0.28924	0.22108	0.51449	0.24047	-1.8937	-2.0854	-2.1937	-2.1521	-1.9021	-2.2708	-2.2458	-2	-2.3792	-1.8854	-2.0958	-2.2625	-1.7979	-2.5417	-1.9875	-2.1854	134.221	335.990	322.530	332.102	407.827	74.936	316.471	384.152	224.389	73.829	115.575	345.317	373.757	418.898	166.038	258.233	0.0019139	0.00090024	0.00052674	740.42	6.3333e-06	1.4486e-05	1049.8	268.35	9.2203e-06	6.4101e-06	461	172.72	93.474	38.972	1.3513e-05	86.566	0.0027435	0.0027723	0.00075797	869.36	2.9104e-05	2.8557e-05	1176.3	310.45	2.7214e-05	2.7122e-05	523.39	196.49	148.36	46.132	2.6587e-05	99.652	86.125	354.808	116.522	76.807	98.762	401.927	76.338	81.427	184.959	173.428	80.683	84.790	85.297	88.362	180.415	87.287	-8191	255	
1246.142	1	1	0	0	0.16453	0.13631	0.16554	0.23668	0.0996	0.050797	0.18836	0.32524	0.10174	0.053505	0.076647	0.060285	0.11159	0.029236	0.2095	0.062179	-2.0458	-2.1063	-2.2104	-2.4542	-1.8292	-2.25	-2.4083	-2.1937	-2.2771	-1.9125	-2.2021	-2.4271	-1.7375	-2.5438	-1.9854	-1.9479	217.204	157.880	203.372	351.200	161.601	227.022	361.634	399.269	356.957	330.234	73.502	397.794	355.322	193.697	224.547	258.092	0.0018874	0.00038989	0.0002499	742.81	1.6656e-05	5.713e-06	1046.2	260.95	1.238e-05	6.2493e-06	449.49	169.05	90.852	38.016	9.0762e-06	84.478	0.0023801	0.0023875	0.00065776	854.1	2.4749e-05	2.4354e-05	1154.1	295.34	2.2815e-05	2.2754e-05	501.32	187.75	132.71	43.243	2.0379e-05	93.504	106.870	145.329	103.480	75.954	147.611	167.431	75.767	80.878	159.703	286.250	80.079	84.428	84.656	88.633	375.520	87.465	-8191	255	
1246.238	1	1	0	0	0.12089	0.10366	0.12135	0.099198	0.1562	0.08925	0.24065	0.24458	0.35554	0.21438	0.14909	0.32503	0.043626	0.26067	0.10933	0.13774	-2.05	-2.0229	-2.2375	-2.3583	-1.9625	-2.1813	-2.1312	-2.1729	-2.4583	-1.7792	-2	-2.4188	-1.9958	-2.2917	-1.9354	-2.0062	209.417	139.496	282.658	358.200	370.832	261.889	337.045	407.399	168.709	115.028	400.059	369.307	382.196	316.680	176.553	374.066	0.0011504	0.00082561	0.00016337	736.84	5.2768e-06	6.2178e-06	1056.4	259.81	6.0073e-06	2.155e-06	452.9	171.98	91.588	37.97	7.6254e-06	84.566	0.0017761	0.0017321	0.00047066	809.52	1.7217e-05	1.6868e-05	1120.2	282.01	1.602e-05	1.5901e-05	484.52	183.05	119.29	41.529	1.5321e-05	90.27	102.165	166.661	189.471	76.502	154.703	135.206	76.448	81.190	160.320	290.393	80.726	84.515	85.479	88.874	175.520	87.641	-8191	255	
1246.334	1	1	0	0	0.054894	0.055793	0.021125	0.14026	0.16645	0.19847	0.19794	0.33129	0.1251	0.23468	0.24137	0.4171	0.38014	0.35731	0.22639	0.27892	-2.1396	-1.9167	-2.0438	-2.1979	-1.9438	-2.2104	-2.3375	-1.9354	-2.4271	-2.0062	-2.3063	-2.5563	-1.8146	-2.2687	-2.3729	-1.9875	248.469	294.573	90.663	288.513	281.798	191.897	370.266	402.941	279.767	343.600	173.282	84.687	292.827	365.309	318.843	345.798	0.0018194	0.0012023	0.00017951	727.67	5.1543e-06	6.9547e-06	1049.1	256.54	1.2042e-05	9.374e-06	448.74	171.32	90.076	37.022	3.7174e-06	83.799	0.0013844	0.0013662	0.00037646	785.86	1.4369e-05	1.4143e-05	1103.3	274.73	1.3788e-05	1.3786e-05	473.73	179.39	112.59	40.155	1.3588e-05	88.569	84.166	114.278	377.415	76.363	252.079	102.071	76.171	81.236	166.002	250.441	80.456	84.708	85.588	88.863	186.326	87.990	-8191	255	
1246.455	1	1	0	0	0.2272	0.2435	0.11641	0.22703	0.1364	0.092231	0.25062	0.32839	0.092066	0.15001	0.19787	0.05804	0.18083	0.12175	0.23699	0.38638	-2.0542	-2.0896	-2.1417	-2.2458	-1.5792	-2.1708	-2.2	-1.8438	-2.2917	-2.0062	-2.2125	-2.2896	-1.9354	-2.4604	-2.1688	-2.1229	74.657	183.914	375.191	331.457	236.985	143.174	73.128	382.047	138.810	79.804	308.426	344.309	261.273	147.318	293.076	362.716	0.0013864	0.0010855	0.00033651	718.39	1.5638e-05	2.5693e-06	1037.8	255.57	8.4774e-06	6.3675e-06	447.73	169.25	89.687	36.752	1.0651e-06	83.365	0.0012386	0.0012451	0.00034799	772.52	1.3606e-05	1.3709e-05	1089.1	272.79	1.3606e-05	1.3765e-05	471.29	178.4	112.32	40.022	1.3812e-05	87.695	74.449	158.701	202.308	76.840	186.007	241.241	76.325	81.420	211.851	184.046	80.721	84.742	85.729	88.871	221.256	88.500	-8191	255	
1246.527	1	1	0	0	0.046552	0.2262	0.062272	0.18742	0.16722	0.17667	0.21838	0.39723	0.045266	0.082807	0.17364	0.22734	0.28016	0.24558	0.19136	0.19105	-1.9438	-1.9604	-2.1458	-2.5354	-1.8417	-2.2938	-2.4	-1.8958	-2.4437	-2.1958	-1.9792	-2.3521	-2.0771	-2.1604	-2.1104	-2.1854	375.758	196.137	396.288	393.596	72.946	251.478	332.210	398.887	225.145	423.230	408.984	322.197	114.602	86.597	358.501	368.744	0.0016489	0.0011657	0.00025755	704.77	2.1271e-06	8.2349e-06	1020.5	255.11	3.3527e-06	4.7898e-06	444.43	169.21	89.859	35.643	9.6465e-06	80.096	0.0012622	0.001269	0.0003534	759.59	1.3856e-05	1.3954e-05	1073.7	272.75	1.393e-05	1.4014e-05	471.3	177.87	112.81	38.876	1.3902e-05	85.156	80.736	385.449	300.075	76.935	341.591	119.040	76.606	81.881	288.827	414.721	81.314	85.248	85.700	89.361	304.446	88.858	-8191	255	
1246.623	1	1	0	0	0.46606	0.023748	0.10666	0.2184	0.22084	0.17383	0.16476	0.44921	0.14011	0.090804	0.3422	0.3689	0.31247	0.13157	0.19663	0.22001	-1.8125	-1.9396	-2.1521	-2.5083	-2.1188	-2.0896	-2.6271	-2.0854	-2.3542	-2.3125	-2.1521	-2.3	-2.0146	-2.1458	-2.3625	-2.075	305.308	276.126	177.894	69.262	258.915	169.296	73.690	300.631	256.606	286.043	379.994	406.104	122.917	94.564	219.514	291.075	0.0010324	0.00055674	0.00016143	705.1	7.8901e-06	6.9859e-07	1023.7	253.33	1.0333e-05	1.9439e-06	441.52	165.44	88.64	35.232	1.9632e-06	80.029	0.0012608	0.0012749	0.00035553	760.94	1.4156e-05	1.4308e-05	1079.6	273.64	1.4945e-05	1.5303e-05	472.07	176.95	118.54	39.52	1.6945e-05	86.971	77.118	184.256	383.283	77.287	128.952	378.352	77.212	82.131	130.937	248.996	81.610	85.621	86.402	89.959	359.283	89.220	-8191	255	
1246.743	1	1	0	0	0.31514	0.13868	0.20772	0.10419	0.14258	0.064698	0.18301	0.17101	0.12058	0.34566	0.083057	0.18614	0.23812	0.16912	0.26391	0.17584	-2.0333	-2.0542	-1.9458	-2.3104	-2.05	-2.2146	-2.6646	-2.0125	-2.2667	-2.4583	-2.0312	-2.5333	-2.3688	-2.1083	-2.4562	-2.0563	116.312	414.453	283.720	407.023	183.069	344.364	294.422	330.471	136.228	423.517	131.195	90.207	73.262	85.858	162.935	321.386	0.0016566	0.00050786	5.4819e-05	710.82	5.621e-06	2.9965e-06	1027.5	257.55	2.0102e-05	2.1728e-06	446.53	172.35	92.712	38.114	5.8487e-06	85.164	0.0015737	0.001592	0.00044473	781.85	1.7446e-05	1.7535e-05	1101	281.8	1.8308e-05	1.8981e-05	488.64	188.48	134.46	43.802	2.2837e-05	95.987	82.839	137.181	112.583	77.429	171.418	229.689	77.069	82.548	135.323	310.989	81.848	86.001	85.762	89.979	247.475	89.142	-8191	255	
1246.840	1	1	0	0	0.35044	0.031334	0.091681	0.48438	0.14003	0.21348	0.22205	0.17777	0.32729	0.25444	0.18951	0.2492	0.14014	0.12398	0.13224	0.18861	-1.7687	-2.1229	-2	-2.4813	-2.1583	-1.8417	-2.4688	-2.0187	-1.95	-2.4875	-2	-2.2687	-2.1312	-2.0125	-2.4542	-2.2583	95.065	307.417	276.142	65.199	147.432	372.842	145.391	364.530	64.243	223.752	402.859	89.935	366.471	330.532	244.361	404.937	0.0013779	0.00076726	0.00025319	724.34	1.0601e-05	6.7126e-06	1037	259.41	4.2034e-06	9.5309e-06	442.13	171.87	93.922	39.443	1.1182e-06	85.687	0.0021407	0.00218	0.0006082	828.48	2.3974e-05	2.4318e-05	1147.1	296.06	2.5421e-05	2.594e-05	505.94	195.89	150.01	46.826	2.8454e-05	100.72	81.028	107.221	97.335	77.556	76.989	115.582	76.172	81.369	220.308	313.369	80.631	84.700	85.366	88.594	293.038	87.937	-8191	255	
1246.936	1	1	0	0	0.040621	0.1595	0.16178	0.084962	0.093888	0.099109	0.20287	0.12553	0.047226	0.12202	0.12498	0.17713	0.045647	0.2338	0.11976	0.068218	-1.5604	-2.1792	-1.9458	-2.3958	-2.1979	-2.2021	-2.5	-2.0667	-1.9833	-2.5187	-1.9604	-2.2812	-2.3479	-1.8813	-2.2167	-2.1333	102.696	379.126	298.248	321.840	144.575	87.441	325.962	83.720	356.487	75.362	168.866	74.046	391.428	67.596	195.815	310.382	0.0018949	0.00095637	0.00025141	745.61	5.9208e-06	1.076e-05	1051.4	256.41	7.9861e-06	8.5825e-06	436.2	169.36	92.238	39.827	5.6335e-06	86.742	0.0026823	0.0027435	0.00077246	882.81	3.0951e-05	3.1275e-05	1198.4	306.33	3.2089e-05	3.2596e-05	516.85	200	163.95	49.096	3.4097e-05	105.53	88.325	111.387	419.024	76.620	157.696	178.374	75.820	81.005	132.197	352.950	80.088	84.583	85.362	88.399	187.969	87.681	-8191	255	
1247.055	1	1	0	0	0.27856	0.14458	0.21211	0.23527	0.11641	0.22702	0.11288	0.16571	0.20499	0.10339	0.27718	0.02028	0.26149	0.18919	0.20349	0.2539	-1.6208	-2.5729	-1.7625	-2.2521	-2.5229	-1.9667	-2.4188	-2.2896	-1.9854	-2.5896	-2.0542	-2.2271	-2.3958	-1.8125	-2.4021	-2.2479	289.236	165.434	309.778	392.938	99.005	257.661	387.536	407.456	308.448	392.728	205.027	268.750	80.689	372.792	160.088	134.373	0.0015095	0.0012365	0.00040508	741.49	1.1444e-05	1.7256e-06	1051.9	258.24	1.2652e-05	5.0198e-06	438.68	172.5	92.101	39.939	1.8321e-05	85.188	0.0031454	0.003201	0.00089768	903.79	3.5422e-05	3.5385e-05	1214.1	311.6	3.3521e-05	3.2893e-05	519.45	200.95	156.94	47.799	2.8221e-05	99.448	97.314	220.017	155.842	76.637	142.025	327.122	76.612	81.298	237.202	227.091	81.074	86.390	86.420	90.276	203.483	88.833	-8191	255	
1247.151	1	1	0	0	0.17451	0.093282	0.28447	0.058282	0.14109	0.11685	0.096596	0.45192	0.40102	0.087593	0.32673	0.038378	0.067494	0.11481	0.15769	0.16566	-1.475	-2.3958	-2.0125	-2.375	-2.2729	-2.1646	-2.2854	-2.2438	-2.0771	-2.3354	-2.0979	-2.3	-2.3312	-2.0229	-2.3625	-2.5812	89.316	152.060	156.070	140.599	161.506	206.869	322.981	383.752	388.610	293.312	332.538	328.392	185.617	347.933	227.729	339.681	0.0018677	0.0014813	0.00026211	735.75	6.5709e-06	1.1308e-05	1046.4	253.84	1.874e-05	5.2232e-06	429.52	163.79	90.148	38.149	1.9826e-06	81.374	0.0024933	0.0025164	0.00071297	862.85	2.9231e-05	3.0393e-05	1194.6	304.43	3.3335e-05	3.4226e-05	518.81	197.96	167.88	48.226	3.7198e-05	103.1	84.809	375.211	233.633	77.381	370.064	283.657	76.557	81.704	259.498	160.758	80.842	85.305	85.588	89.312	123.716	87.445	-8191	255	
1247.222	1	1	0	0	0.15273	0.011719	0.13205	0.21875	0.13657	0.091825	0.14107	0.073048	0.089307	0.24402	0.048149	0.27106	0.071854	0.2191	0.078811	0.22028	-1.5458	-2.4875	-2.0563	-2.3063	-2.2396	-1.9083	-2.5708	-2.3563	-1.9354	-2.5583	-2.3083	-2.1354	-2.3979	-2.3	-2.4104	-2.3063	406.654	220.843	381.633	382.076	180.258	221.966	286.020	411.087	186.816	228.939	79.337	421.513	221.437	89.544	410.856	398.017	0.0015314	0.00044106	0.00038325	724.49	8.075e-06	3.7468e-06	1025.8	250.4	1.5755e-05	6.3961e-06	422.73	163.98	87.394	39.029	7.4103e-06	83.061	0.0034757	0.0036108	0.001035	917.55	4.2733e-05	4.4375e-05	1252.7	325.33	4.7797e-05	4.9221e-05	555.65	214.99	206.34	53.807	5.3214e-05	115.46	90.090	374.989	198.745	76.488	416.569	226.537	76.479	81.615	207.808	324.649	80.745	84.971	85.809	89.180	231.043	88.079	-8191	255	
1247.343	1	1	0	0	0.26701	0.18042	0.16462	0.08473	0.081852	0.11327	0.26523	0.10419	0.25217	0.20584	0.2752	0.20458	0.28219	0.082687	0.22865	0.21484	-1.6292	-2.6208	-2.2375	-2.1646	-2.4667	-2.1958	-2.2729	-2.5083	-2.1146	-2.3646	-2.1604	-1.9688	-2.5146	-1.9833	-2.2042	-2.2542	202.515	271.511	233.366	359.877	93.728	84.071	332.055	111.475	388.358	275.665	329.568	395.929	392.398	243.377	152.132	268.025	0.0014923	0.0011164	0.00030465	725.83	6.9407e-06	1.6595e-05	1019.1	247.93	2.9077e-05	9.339e-06	417.66	162.33	87.234	38.315	1.7507e-05	81.971	0.0049526	0.0051133	0.0014436	995.8	5.7694e-05	5.9026e-05	1319.8	347.47	6.2091e-05	6.4046e-05	594.6	230.82	244.05	57.596	6.7067e-05	123.12	81.859	259.318	108.390	76.874	241.413	174.455	76.463	81.583	161.838	203.173	81.230	85.512	85.221	88.428	267.024	88.005	-8191	255	
1247.439	1	1	0	0	0.1082	0.35303	0.15643	0.11567	0.060121	0.072521	0.35865	0.18748	0.25734	0.12013	0.14706	0.19884	0.21923	0.17093	0.18643	0.24557	-1.65	-2.3521	-2.2875	-2.2687	-2.5312	-2.0396	-2.2167	-2.5312	-2.2333	-2.3417	-2.1583	-2.0729	-2.5833	-2.1542	-2.0625	-2.4354	315.800	225.849	297.466	395.674	166.021	331.346	327.362	95.096	232.281	335.539	420.755	67.338	369.327	380.487	133.949	342.572	0.0012845	0.00090633	0.00048565	722.67	8.2047e-06	1.3823e-05	1017.3	246.43	9.7931e-06	2.7212e-05	413.76	159.13	86.831	37.416	1.9107e-05	80.865	0.0060502	0.0061862	0.0017248	1050.3	6.7315e-05	6.7019e-05	1354.6	352.77	6.3461e-05	6.2721e-05	579.74	221.55	225.24	54.653	5.9349e-05	116.75	87.906	242.052	134.026	76.755	119.614	199.689	76.443	81.587	353.127	297.055	81.154	85.331	86.309	89.213	84.949	88.212	-8191	255	
1247.535	1	1	0	0	0.093745	0.094371	0.1873	0.096041	0.18182	0.22871	0.19608	0.25059	0.15254	0.36026	0.21662	0.23428	0.34501	0.078914	0.33446	0.13526	-1.4979	-2.3271	-2.6188	-2.0479	-2.3292	-2.2062	-2.3292	-2.625	-2.0812	-2.3771	-2.2979	-1.925	-2.675	-2.475	-2.1833	-2.6083	115.206	171.199	163.679	279.007	111.394	290.100	407.099	336.018	370.887	201.959	394.745	406.212	97.706	196.979	241.594	351.598	0.0016025	0.00099277	0.00019826	736.01	3.1638e-05	7.0754e-06	1022	247.16	1.6405e-05	3.2815e-06	414.76	161.45	89.028	38.185	1.1002e-05	80.256	0.0053171	0.0054129	0.0015022	1010.4	5.7539e-05	5.721e-05	1306.7	336.8	5.4894e-05	5.5092e-05	560.42	215.74	210.34	52.978	5.1837e-05	111.51	113.928	327.527	411.243	77.213	216.799	332.229	77.138	82.338	270.123	263.627	81.866	86.299	86.829	90.019	298.076	89.456	-8191	255	
1247.631	1	1	0	0	0.025949	0.095752	0.10265	0.32908	0.34018	0.028646	0.027534	0.090489	0.03644	0.27823	0.34105	0.24017	0.044858	0.057136	0.3242	0.11437	-1.6729	-2.3979	-2.3271	-2.0417	-2.4854	-2.2062	-2.2792	-2.45	-2.0521	-2.3187	-2.6917	-2.1917	-2.2396	-2.3729	-2.0479	-2.5479	153.549	72.465	130.897	401.064	247.766	351.061	181.953	78.388	408.751	195.623	82.747	331.222	359.133	216.266	152.940	115.081	0.0013558	0.0023111	0.00071965	731.27	1.0169e-05	1.2624e-05	1027.7	249.4	4.8671e-06	1.8088e-05	418.14	162.84	88.493	38.332	4.8137e-06	81.337	0.0045542	0.0045948	0.0012661	961.47	4.8962e-05	4.9387e-05	1265.8	327.37	4.9408e-05	5.0164e-05	551.98	214.02	205.54	52.841	5.1036e-05	111.45	93.872	223.157	418.801	77.928	368.211	109.715	77.400	82.779	359.192	207.211	81.829	86.114	87.252	90.073	327.353	88.954	-8191	255	
1247.752	1	1	0	0	0.29271	0.058454	0.19292	0.16853	0.049694	0.069138	0.12587	0.13142	0.28929	0.11802	0.073671	0.23561	0.054851	0.38154	0.26228	0.079585	-1.8729	-2.1063	-2.2458	-2.1583	-2.3312	-2.2583	-2.2313	-2.6396	-2.05	-2.0896	-2.5833	-2.4021	-2.3333	-2.4188	-2.1333	-2.3646	74.343	284.231	88.371	69.371	307.248	145.715	336.821	365.943	223.944	216.594	266.127	413.583	242.099	89.551	99.435	240.433	0.0020032	0.00081108	0.00015458	731.88	2.3405e-05	2.9175e-06	1023.6	246.24	8.5525e-06	1.0958e-05	416.29	159.81	85.955	37.155	1.1241e-05	78.798	0.0045361	0.0045628	0.0012609	958.57	4.9227e-05	4.9228e-05	1264.7	325.38	4.9311e-05	4.962e-05	545.64	209.45	199.7	51.337	4.9587e-05	108.66	112.164	186.404	341.159	77.642	64.824	215.560	77.322	82.608	136.710	389.443	82.037	86.222	85.549	89.228	358.467	87.834	-8191	255	
1247.824	1	1	0	0	0.14853	0.35835	0.26228	0.21369	0.19203	0.23112	0.15508	0.11145	0.22743	0.25482	0.27791	0.083199	0.067525	0.14579	0.033224	0.11481	-1.6104	-2.2271	-2.325	-2.1417	-2.4146	-2.2083	-1.8896	-2.4729	-2.0167	-1.9896	-2.7604	-2.1917	-2.3	-2.3625	-1.9188	-2.2667	410.202	66.965	321.786	359.555	183.602	247.783	300.971	88.202	335.389	422.279	376.085	154.342	98.042	363.603	176.820	376.357	0.0018774	0.0016795	0.00037093	729.7	1.455e-05	9.3722e-06	1016.1	242.91	3.2753e-05	1.2174e-05	405.42	154.86	83.089	36.389	1.4151e-05	77.57	0.004499	0.0045943	0.0012825	966.81	5.0684e-05	5.0953e-05	1272.7	327.14	5.1779e-05	5.2498e-05	546.64	208.87	206.2	51.237	5.2114e-05	109	76.406	193.279	344.100	77.269	273.850	88.076	76.348	81.484	238.945	401.337	81.284	85.585	85.832	89.166	142.671	88.080	-8191	255	
1247.920	1	1	0	0	0.15118	0.18168	0.2553	0.30896	0.3314	0.12659	0.1221	0.15862	0.14532	0.42686	0.15016	0.12002	0.11286	0.1952	0.04126	0.27175	-1.8208	-2.1063	-2.5938	-2.1813	-2.3042	-2.2708	-2.0542	-2.5979	-1.9917	-2.0938	-2.5187	-1.9896	-2.1937	-2.3854	-1.9229	-2.2729	260.805	290.842	332.777	100.672	265.897	401.203	78.385	93.707	153.822	190.439	362.409	317.149	319.034	77.458	346.060	126.797	0.0017994	0.00080578	0.00027398	734.79	9.6533e-06	8.5067e-06	1022.6	244.1	1.6288e-05	1.0141e-05	401.71	152.12	83.013	35.565	2.6865e-06	76.65	0.004646	0.0046841	0.0012986	971.96	5.0454e-05	5.0406e-05	1269.2	324	5.0298e-05	5.0469e-05	538.42	203.87	198.87	50.106	5.0511e-05	107.33	82.174	189.905	164.195	76.894	417.090	325.091	76.486	81.678	70.674	261.925	80.445	84.919	85.631	89.475	335.747	88.169	-8191	255	
1248.016	1	1	0	0	0.20756	0.12575	0.11133	0.2804	0.29848	0.33295	0.12418	0.22012	0.064749	0.16679	0.21962	0.19973	0.16936	0.10042	0.25813	0.07522	-1.7729	-2.1271	-2.3833	-2.2	-2.2562	-2.6021	-2.025	-2.2604	-2.5875	-2.3104	-2.3083	-2.1729	-2.2271	-2.4896	-1.9312	-2.4896	215.637	220.863	248.698	333.311	136.648	400.138	299.401	325.897	311.580	418.026	93.493	115.948	328.268	364.474	86.130	258.469	0.0010082	0.0015103	0.00040305	728.66	1.4798e-05	3.4955e-06	1010.8	240.13	2.8925e-05	1.3677e-05	400.08	150.42	80.736	35.246	1.357e-05	75.982	0.0045887	0.0046554	0.001306	967.17	5.1446e-05	5.1458e-05	1267.1	324.46	5.1754e-05	5.2134e-05	540.54	203.7	202.19	50.063	5.2289e-05	107.56	91.711	146.853	108.991	77.225	306.092	229.769	76.650	81.749	244.548	382.668	80.925	85.614	86.003	89.304	99.401	88.376	-8191	255	
1248.135	1	1	0	0	0.20587	0.02755	0.072325	0.24325	0.29093	0.1251	0.17545	0.1969	0.22822	0.13652	0.211	0.073941	0.065324	0.15079	0.15631	0.17627	-1.9708	-1.8729	-2.3958	-2.2875	-1.8667	-2.4062	-2.2604	-2.1292	-2.1396	-1.9771	-2.3771	-2.0229	-2.0687	-2.6854	-1.9042	-2.0667	69.717	251.627	245.256	404.386	343.091	188.532	66.790	135.711	396.579	366.122	375.253	403.781	191.492	406.785	223.859	352.967	0.001376	0.0010184	9.4121e-05	731.78	2.5883e-06	2.6991e-06	1013.9	239.2	1.2636e-05	3.1083e-05	396.05	148.94	81.501	35.002	1.1626e-05	75.215	0.0047496	0.0048341	0.0013497	977.75	5.2907e-05	5.3368e-05	1279.1	327.23	5.411e-05	5.4872e-05	546.83	205.93	210.3	51.034	5.6126e-05	109.69	421.087	281.583	79.768	77.305	394.174	74.343	76.476	81.774	296.715	366.847	81.240	85.098	85.499	88.599	228.805	87.571	-8191	255	
1248.231	1	1	0	0	0.089138	0.1209	0.033101	0.15149	0.15124	0.14174	0.15807	0.26832	0.35066	0.17066	0.24229	0.12455	0.21414	0.20161	0.058981	0.15657	-1.8417	-2.0771	-2.3833	-2.1063	-1.7729	-2.5792	-2.3167	-2.2396	-2.3187	-2.0792	-2.4167	-2.1271	-2.0812	-2.4854	-2.15	-2.1417	180.804	276.183	264.884	365.743	122.435	267.425	286.451	399.172	239.279	371.317	92.469	201.126	415.663	399.110	109.156	93.432	0.0014447	0.00095875	0.00022382	724.56	1.7107e-05	6.7967e-06	1005.2	238.67	2.847e-05	8.3328e-06	395.2	147.72	80.586	34.868	3.0407e-05	74.489	0.0050915	0.0052538	0.0014885	1002.3	5.8673e-05	5.9292e-05	1303.1	335.7	5.9578e-05	6.0028e-05	558.64	209.8	219.98	52.146	6.068e-05	112.46	418.279	359.954	205.015	76.401	210.953	149.528	76.307	81.601	231.146	161.903	80.835	85.060	85.761	88.809	218.919	88.023	-8191	255	
1248.327	1	1	0	0	0.18743	0.071371	0.12372	0.18451	0.20577	0.21592	0.23312	0.19725	0.14404	0.14048	0.15866	0.1366	0.14002	0.17983	0.11994	0.034888	-2.0125	-1.9271	-2.2854	-2.5563	-1.9625	-2.2833	-2.4938	-2.1813	-2.4271	-2.1167	-2.3917	-2.3333	-1.9583	-2.5708	-2.0375	-2.0646	355.049	317.816	274.418	375.492	245.649	99.298	386.656	160.763	132.412	402.293	171.852	99.435	189.523	396.583	383.786	339.840	0.001553	0.00076107	0.0002177	725.22	2.1276e-05	8.0845e-06	1006.7	237.1	1.4449e-05	1.3429e-05	393.22	145.92	80.941	34.322	4.945e-06	73.069	0.0055358	0.0056974	0.0015968	1024.6	6.3392e-05	6.395e-05	1331	343.7	6.4686e-05	6.5389e-05	571.99	215.06	235.46	53.518	6.6984e-05	115.04	87.411	125.588	108.699	76.744	401.070	210.817	76.349	81.562	201.656	377.367	80.728	85.398	85.195	89.058	137.251	88.028	-8191	255	
1248.423	1	1	0	0	0.10421	0.19195	0.086663	0.1999	0.19836	0.2495	0.096931	0.17843	0.045345	0.19876	0.33855	0.022732	0.19509	0.1556	0.092775	0.21328	-2.1521	-1.9896	-2.1521	-2.2229	-1.8979	-2.3896	-2.5938	-1.9354	-2.6083	-2.1104	-2.2188	-2.4292	-1.9958	-2.3312	-2.1875	-2.1063	202.524	211.384	364.197	90.753	187.388	410.445	252.515	348.240	144.002	227.630	422.119	175.239	97.504	80.880	180.087	369.727	0.0014343	0.0017359	0.00048268	729.72	2.2644e-05	8.6808e-06	1006.6	235.61	2.2455e-05	5.9586e-06	390.92	142.31	79.504	33.047	1.1775e-05	70.805	0.0060629	0.006203	0.0017272	1048.9	6.7424e-05	6.8229e-05	1351.4	347.65	6.7161e-05	6.743e-05	574.31	212.99	236.98	52.583	6.6984e-05	112.97	78.656	409.330	166.269	76.428	332.554	77.219	76.437	81.640	131.058	130.896	80.900	85.337	86.229	89.432	164.460	88.510	-8191	255	
1248.520	1	1	0	0	0.10426	0.083136	0.1608	0.20677	0.24709	0.0055467	0.13092	0.1866	0.19912	0.28039	0.22401	0.34537	0.21505	0.19884	0.19742	0.171	-2.1542	-2.0938	-2.3875	-2.4958	-1.8021	-2.5521	-2.5812	-1.9	-2.6437	-2.2562	-2.5646	-2.3479	-2.0438	-2.5354	-2.3604	-2.0438	270.341	78.712	348.329	352.998	66.125	219.233	83.290	376.519	184.162	388.940	390.470	366.476	177.470	323.661	349.150	343.650	0.0012685	0.0014484	0.00035724	739.61	1.7092e-05	6.1099e-06	1014.1	237.17	1.5279e-05	1.8982e-05	385.08	139.72	77.412	32.218	2.2617e-05	69.402	0.0060084	0.0061509	0.001711	1059.3	6.7144e-05	6.7688e-05	1355.1	346.44	6.7032e-05	6.7685e-05	571.09	209.72	234.17	51.355	6.558e-05	110.14	411.588	123.944	304.005	76.355	394.019	249.345	76.173	81.400	204.742	352.855	81.255	85.548	86.374	89.283	151.237	88.490	-8191	255	
1248.616	1	1	0	0	0.34527	0.10049	0.31436	0.26075	0.26851	0.035871	0.11001	0.23232	0.31661	0.092805	0.21419	0.16424	0.064574	0.13735	0.052365	0.31346	-2.0229	-2.3396	-1.9208	-2.3521	-1.8667	-2.6063	-2.4792	-1.925	-2.2188	-2.0854	-2.3042	-2.4042	-1.9396	-2.3458	-2.5125	-1.9354	414.617	322.383	182.845	296.311	165.449	127.148	395.893	310.309	231.762	165.890	371.813	399.171	86.244	400.113	138.692	99.482	0.0008567	0.0010916	0.00026701	747.97	1.9972e-05	2.8627e-06	1022.8	236.79	2.0443e-05	1.8729e-05	386.96	138.23	76.821	31.313	2.7068e-05	68.346	0.005838	0.0059455	0.001654	1052.9	6.4594e-05	6.505e-05	1347.5	342.82	6.467e-05	6.4773e-05	563.26	205.94	227.61	50.041	6.4335e-05	108.26	413.130	83.570	345.869	77.188	114.862	73.882	76.881	82.258	219.213	174.043	80.976	85.497	86.240	89.610	96.837	88.961	-8191	255	
1248.736	1	1	0	0	0.15186	0.14409	0.072952	0.053596	0.53522	0.24559	0.12646	0.21139	0.19572	0.16615	0.17599	0.20765	0.12242	0.18582	0.2041	0.21853	-1.9208	-2.2938	-1.8937	-2.5333	-2.2521	-2.4104	-2.4083	-2.4021	-2.5396	-2.3354	-2.2333	-2.6375	-2.0333	-2.3	-2.6667	-2.1208	76.844	112.343	364.551	395.619	347.336	406.163	89.876	360.201	166.967	77.957	373.652	106.763	195.375	367.545	101.538	78.334	0.00076394	0.0010232	0.0005658	744.6	1.4848e-05	3.046e-06	1013.3	233.53	1.0012e-05	1.4069e-05	383.36	135.61	76.418	30.279	7.1894e-06	65.828	0.0058329	0.0059283	0.0016415	1048.2	6.4037e-05	6.4445e-05	1335.3	338.26	6.3802e-05	6.4283e-05	557.51	203.28	225.88	48.838	6.3998e-05	106.19	411.164	229.383	406.897	77.244	272.016	409.871	77.499	82.228	213.850	90.197	81.777	86.286	87.120	91.934	149.525	90.854	-8191	255	
1248.832	1	1	0	0	0.0905	0.24765	0.24617	0.44766	0.13089	0.079563	0.31211	0.29651	0.26305	0.14411	0.1293	0.17117	0.17583	0.42095	0.052933	0.089227	-1.7708	-2.2021	-2.0229	-2.55	-1.9896	-2.0687	-2.5458	-1.9646	-2.3167	-2.5104	-2.0708	-2.4375	-2.3354	-2.1458	-2.2938	-2.2021	221.149	365.769	102.930	338.256	192.838	156.470	285.364	398.306	84.825	368.755	184.046	408.697	412.999	351.884	352.836	324.807	0.00089167	0.00091852	7.4332e-05	737.92	3.6243e-06	1.0901e-05	1007	230.04	7.4943e-07	1.4963e-06	378.26	134.73	74.398	29.285	1.6722e-05	63.982	0.0057553	0.0058374	0.0016255	1038.6	6.3039e-05	6.3304e-05	1324.5	335.17	6.3975e-05	6.4678e-05	555.42	202.12	228.87	48.459	6.5961e-05	105.73	426.065	158.033	302.113	79.523	105.965	319.066	79.107	84.422	246.265	341.771	83.383	88.007	88.504	91.911	123.393	90.861	-8191	255	
1248.929	1	1	0	0	0.23043	0.19209	0.20889	0.15425	0.14206	0.010941	0.28694	0.17863	0.27558	0.17789	0.24057	0.20193	0.18104	0.068864	0.09382	0.03759	-1.9875	-2.2167	-1.8583	-2.6063	-2.3917	-1.8896	-2.7354	-2.2521	-2.3812	-2.4313	-1.9417	-2.6167	-2.175	-2.1021	-2.6021	-2.4146	305.508	253.294	173.707	308.291	124.233	340.864	336.211	361.293	143.005	421.249	358.792	388.128	420.775	132.957	261.550	319.714	0.0019322	0.0014044	3.8808e-05	737.25	1.308e-05	4.9375e-06	1001	228.47	3.6445e-05	2.2151e-05	371.33	130.13	72.78	28.41	1.9557e-05	62.046	0.0059513	0.0060588	0.0016758	1049.4	6.4672e-05	6.46e-05	1324.2	333.66	6.3893e-05	6.4109e-05	547.2	197.7	221.74	46.442	6.2622e-05	101.35	423.093	390.711	283.996	79.046	160.409	217.310	79.221	84.021	200.331	327.823	83.637	88.383	87.942	91.888	164.529	91.328	-8191	255	
1249.025	1	1	0	0	0.18692	0.15636	0.15617	0.27356	0.21371	0.19112	0.47475	0.12544	0.13888	0.10597	0.20343	0.063401	0.11129	0.15755	0.29331	0.1489	-1.875	-2.125	-1.7792	-2.5042	-2.2438	-2.1146	-2.8167	-2.1437	-2.0042	-2.3792	-2.0771	-2.3917	-2.1625	-2.2146	-2.4958	-2.3417	347.095	68.793	94.430	335.865	154.903	255.393	292.986	376.551	105.607	264.794	95.177	220.469	112.634	337.914	369.514	209.099	0.0016193	0.0011002	0.00036267	738.71	4.9537e-06	8.1163e-06	991.72	225.59	1.1243e-05	2.2216e-05	369.09	129.33	72.042	27.812	1.9992e-05	61.526	0.0055424	0.0055871	0.0015442	1019.7	5.9371e-05	5.9461e-05	1287.5	321.61	5.8632e-05	5.8481e-05	527.86	189.6	203.86	43.893	5.4876e-05	95.522	426.332	183.292	331.941	79.248	85.521	177.380	79.068	84.490	191.719	303.853	83.582	87.918	88.176	92.003	198.839	91.099	-8191	255	
1249.119	1	1	0	0	0.29601	0.39045	0.047941	0.058826	0.17952	0.19149	0.021634	0.43864	0.13902	0.15168	0.047841	0.11694	0.070692	0.11655	0.053221	0.19541	-1.8833	-2.3458	-1.775	-2.375	-2.2625	-2.1167	-2.7375	-2.1854	-1.9479	-2.4875	-2.0292	-2.4708	-2.4	-1.8563	-2.2938	-2.1104	330.725	95.145	258.854	384.526	188.399	242.325	349.268	362.923	120.908	189.223	220.933	140.528	360.501	399.722	300.873	225.647	0.0011893	0.0015062	0.00076085	719.43	1.0265e-05	1.6694e-05	968.2	224.14	2.099e-05	1.6583e-05	373.77	133.17	72.212	28.003	4.0471e-06	62.098	0.0048466	0.0049018	0.0013549	968.26	5.2203e-05	5.2187e-05	1225.6	306.33	5.0106e-05	4.9824e-05	505.05	182.32	183.76	41.756	4.7335e-05	91.23	87.518	177.363	126.675	76.534	173.897	245.570	75.981	81.642	232.106	251.749	80.616	85.179	85.985	89.420	276.067	88.638	-8191	255	
1249.215	1	1	0	0	0.036497	0.034305	0.23727	0.18914	0.046166	0.26099	0.23292	0.17772	0.16105	0.072674	0.30969	0.10185	0.13128	0.14156	0.044169	0.23859	-1.6271	-2.4437	-1.9937	-2.3875	-2.35	-1.8792	-2.5896	-2.4562	-2.0521	-2.4125	-1.9958	-2.3146	-2.4667	-2.025	-2.3583	-2.1562	391.483	270.845	342.508	68.324	355.287	109.956	89.228	292.869	255.971	336.751	357.051	219.638	219.075	380.714	273.257	388.821	0.0010425	0.00054721	0.00029286	714.22	1.8522e-05	6.0708e-06	969.76	224.56	1.2518e-05	1.0742e-05	373.23	132.99	72.247	28.145	1.8371e-05	62.985	0.0042339	0.0043073	0.0011943	927.06	4.5925e-05	4.5843e-05	1189.2	296.79	4.4276e-05	4.4387e-05	490.31	177.46	172.69	40.656	4.321e-05	88.834	102.151	402.114	331.484	76.788	84.046	372.603	76.255	80.926	178.712	221.594	80.561	85.018	85.616	89.001	146.186	87.887	-8191	255	
1249.311	1	1	0	0	0.016864	0.083012	0.24569	0.27455	0.086202	0.16535	0.23845	0.16561	0.23527	0.024648	0.29141	0.15311	0.06117	0.29576	0.11079	0.26585	-1.4875	-2.2313	-2.0812	-2.2792	-2.3458	-1.925	-2.325	-2.1875	-1.8833	-2.4292	-2.2792	-2.3187	-2.3375	-1.8729	-2.3104	-2.5812	172.832	161.567	95.543	397.925	110.557	313.588	337.302	356.587	127.802	96.414	98.260	404.135	286.616	103.451	178.698	339.921	0.00097306	0.00080066	0.00026038	703.35	1.8868e-05	1.5963e-05	961.64	224.93	2.0964e-05	1.0291e-05	378.77	136.41	74.86	29.769	4.7352e-06	65.201	0.0038624	0.0039232	0.0010867	899.86	4.2042e-05	4.1921e-05	1162.7	291.91	4.093e-05	4.1037e-05	485.2	176.44	164.66	40.645	3.8918e-05	88.312	82.918	84.881	300.701	76.531	245.694	118.008	76.223	81.307	118.794	160.973	80.969	84.537	86.076	88.517	316.013	88.558	-8191	255	
1249.432	1	1	0	0	0.40598	0.10436	0.019574	0.068616	0.13413	0.17109	0.11035	0.17478	0.18984	0.072433	0.27594	0.2341	0.24326	0.14227	0.19365	0.15814	-1.4562	-2.2229	-1.9521	-2.0312	-2.2646	-1.9542	-2.3833	-2.1583	-1.9479	-2.5729	-2.1375	-2.1167	-2.4458	-1.9104	-2.15	-2.5125	351.211	323.188	324.188	351.464	311.204	326.132	332.041	304.341	352.724	78.299	385.765	410.917	414.154	294.652	249.143	272.444	0.0016145	0.0012448	0.00064587	696.32	1.6062e-05	7.0374e-06	964.65	228	6.4137e-06	1.8686e-05	385.22	137.89	76.207	30.178	8.1011e-06	66.844	0.0034756	0.0035201	0.00098096	873.31	3.8289e-05	3.8451e-05	1146.2	289.15	3.8059e-05	3.8195e-05	482.98	175.32	159.84	40.689	3.6977e-05	88.075	76.355	140.291	86.659	79.011	238.235	272.349	79.255	84.717	159.615	210.053	82.302	86.368	86.656	89.893	141.498	88.911	-8191	255	
1249.528	1	1	0	0	0.06361	0.03775	0.2046	0.13429	0.13092	0.10103	0.11527	0.2572	0.28825	0.21619	0.48024	0.15749	0.17564	0.18213	0.22018	0.041864	-1.4479	-2.1542	-2.3125	-2.1396	-2.2708	-2.0375	-2.1417	-2.2333	-1.8229	-2.4396	-2.2562	-1.8208	-2.4083	-2.0292	-2.0583	-2.3729	134.099	209.061	262.525	108.330	158.295	420.127	256.790	357.028	123.195	297.685	420.112	119.551	97.585	242.819	267.887	354.821	0.0010451	0.00014682	9.6619e-05	697.63	2.0978e-05	1.6687e-05	958.98	227.16	5.8059e-06	7.0474e-06	378.42	134.71	72.686	29.803	1.8956e-05	66.085	0.0033075	0.0033423	0.00092952	863.34	3.6446e-05	3.663e-05	1134.5	285.57	3.6889e-05	3.7256e-05	475.69	171.45	157.35	40.264	3.7529e-05	88.102	94.651	349.393	168.456	77.818	140.649	126.659	77.410	82.073	297.028	284.178	81.145	85.758	87.116	89.614	118.405	88.676	-8191	255	
1249.624	1	1	0	0	0.24973	0.12568	0.16237	0.21359	0.029689	0.10832	0.12199	0.38792	0.1701	0.084187	0.38026	0.23286	0.26521	0.39542	0.050664	0.068358	-1.4292	-2.3208	-2.2458	-1.9292	-2.2646	-2.0458	-2.2604	-2.2875	-2.0458	-2.2271	-2.3708	-2.0542	-2.4188	-2.0687	-2.2625	-2.5479	80.044	409.082	339.568	374.010	356.235	124.209	381.120	168.616	219.473	157.731	314.226	77.682	393.062	77.082	139.178	270.611	0.001783	0.00098626	0.00033648	696.5	7.0355e-06	1.6897e-05	954.35	225.24	7.9708e-06	1.3737e-05	378.26	135.61	72.448	31	5.3524e-06	68.211	0.0034308	0.003503	0.00097759	872.54	3.837e-05	3.8698e-05	1141.8	287.65	3.917e-05	3.9679e-05	482.91	175.87	165.16	42.463	4.0801e-05	92.799	102.738	399.459	110.629	77.298	228.116	101.715	77.330	81.800	194.768	410.358	81.349	86.020	86.854	89.150	162.848	88.595	-8191	255	
#DATA ENDS
