BOXY.EXE: ISS Imagent and Oximeter Data Acquisition Program Version 0.80
Ascii Record File

#ACQ INFORMATION
2  Detector Channels 
16  External MUX Channels 
1  Auxiliary Channels 
5000  Waveform (CCF) Frequency (Hz)
1  Waveforms Skipped 
30  Waveforms Averaged 
1  Cycles Averaged 
16  Acquisitions per Waveform 
10.0806  Updata Rate (Hz) 

#FILE INFORMATION
TRUE -- External MUX Channel results are PARSED.
FALSE -- AC DC and Phase are NOT grouped.
TRUE -- Companion Program Settings File CREATED.
FALSE -- AC data not excluded
FALSE -- DC data not excluded
FALSE -- Phase data not excluded
FALSE -- Auxillary Chn. data not excluded
Tab delimiters

#CALIBRATION STATE
TRUE -- Waveform Calibration Values APPLIED.


#AUX CALIBRATION VALUES
Val Type	aux-1	

Term	1.0000e+00	
Factor	0.0000e+00	


#WF CALIBRATION VALUES
A = Detector Channel
Val Type	A-AC1	A-AC2	A-AC3	A-AC4	A-AC5	A-AC6	A-AC7	A-AC8	A-AC9	A-AC10	A-AC11	A-AC12	A-AC13	A-AC14	A-AC15	A-AC16	A-DC1	A-DC2	A-DC3	A-DC4	A-DC5	A-DC6	A-DC7	A-DC8	A-DC9	A-DC10	A-DC11	A-DC12	A-DC13	A-DC14	A-DC15	A-DC16	A-Ph1	A-Ph2	A-Ph3	A-Ph4	A-Ph5	A-Ph6	A-Ph7	A-Ph8	A-Ph9	A-Ph10	A-Ph11	A-Ph12	A-Ph13	A-Ph14	A-Ph15	A-Ph16	

Term	0.00000e+00	0.00000e+00	0.00000e+00	0.00000e+00	0.00000e+00	0.00000e+00	0.00000e+00	0.00000e+00	0.00000e+00	0.00000e+00	0.00000e+00	0.00000e+00	0.00000e+00	0.00000e+00	0.00000e+00	0.00000e+00	0.00000e+00	0.00000e+00	0.00000e+00	0.00000e+00	0.00000e+00	0.00000e+00	0.00000e+00	0.00000e+00	0.00000e+00	0.00000e+00	0.00000e+00	0.00000e+00	0.00000e+00	0.00000e+00	0.00000e+00	0.00000e+00	0.00000e+00	0.00000e+00	0.00000e+00	0.00000e+00	0.00000e+00	0.00000e+00	0.00000e+00	0.00000e+00	0.00000e+00	0.00000e+00	0.00000e+00	0.00000e+00	0.00000e+00	0.00000e+00	0.00000e+00	0.00000e+00	
Factor	1.00000e+00	1.00000e+00	1.00000e+00	1.00000e+00	1.00000e+00	1.00000e+00	1.00000e+00	1.00000e+00	1.00000e+00	1.00000e+00	1.00000e+00	1.00000e+00	1.00000e+00	1.00000e+00	1.00000e+00	1.00000e+00	1.00000e+00	1.00000e+00	1.00000e+00	1.00000e+00	1.00000e+00	1.00000e+00	1.00000e+00	1.00000e+00	1.00000e+00	1.00000e+00	1.00000e+00	1.00000e+00	1.00000e+00	1.00000e+00	1.00000e+00	1.00000e+00	X	X	X	X	X	X	X	X	X	X	X	X	X	X	X	X	

B = Detector Channel
Val Type	B-AC1	B-AC2	B-AC3	B-AC4	B-AC5	B-AC6	B-AC7	B-AC8	B-AC9	B-AC10	B-AC11	B-AC12	B-AC13	B-AC14	B-AC15	B-AC16	B-DC1	B-DC2	B-DC3	B-DC4	B-DC5	B-DC6	B-DC7	B-DC8	B-DC9	B-DC10	B-DC11	B-DC12	B-DC13	B-DC14	B-DC15	B-DC16	B-Ph1	B-Ph2	B-Ph3	B-Ph4	B-Ph5	B-Ph6	B-Ph7	B-Ph8	B-Ph9	B-Ph10	B-Ph11	B-Ph12	B-Ph13	B-Ph14	B-Ph15	B-Ph16	

Term	0.00000e+00	0.00000e+00	0.00000e+00	0.00000e+00	0.00000e+00	0.00000e+00	0.00000e+00	0.00000e+00	0.00000e+00	0.00000e+00	0.00000e+00	0.00000e+00	0.00000e+00	0.00000e+00	0.00000e+00	0.00000e+00	0.00000e+00	0.00000e+00	0.00000e+00	0.00000e+00	0.00000e+00	0.00000e+00	0.00000e+00	0.00000e+00	0.00000e+00	0.00000e+00	0.00000e+00	0.00000e+00	0.00000e+00	0.00000e+00	0.00000e+00	0.00000e+00	-2.04106e+02	-1.47295e+02	-1.31471e+02	-1.83006e+02	-1.05308e+02	-9.56335e+01	-1.57489e+02	-1.62015e+02	-1.04563e+02	-3.96514e+01	-1.72066e+02	-1.71987e+02	-1.87133e+02	-1.76833e+02	-7.95936e+01	-1.54913e+02	
Factor	7.03256e-05	1.41041e-04	4.05673e-05	1.70326e-01	1.62816e-06	1.33254e-06	1.95207e-01	5.96007e-02	1.84989e-06	1.49910e-06	1.05898e-01	4.16366e-02	9.64820e-02	1.05399e-02	1.79118e-06	2.58797e-02	1.57653e-06	1.61043e-06	4.48186e-07	8.61403e-02	1.75392e-08	1.76000e-08	9.27146e-02	3.00841e-02	1.75714e-08	1.76740e-08	5.11745e-02	1.99295e-02	4.41448e-02	5.29322e-03	1.75939e-08	1.20619e-02	X	X	X	X	X	X	X	X	X	X	X	X	X	X	X	X	



#DISTANCE SETTINGS
A = Detector Channel
A-1	A-2	A-3	A-4	A-5	A-6	A-7	A-8	A-9	A-10	A-11	A-12	A-13	A-14	A-15	A-16	

2.5000e+00	3.0000e+00	2.5000e+00	3.0000e+00	2.0000e+00	3.0000e+00	1.5000e+00	3.0000e+00	3.0000e+00	3.0000e+00	3.0000e+00	3.0000e+00	3.0000e+00	3.0000e+00	1.5000e+00	3.0000e+00	

B = Detector Channel
B-1	B-2	B-3	B-4	B-5	B-6	B-7	B-8	B-9	B-10	B-11	B-12	B-13	B-14	B-15	B-16	

1.0000e+01	1.0000e+01	1.0000e+01	1.4400e+00	1.0000e+01	1.0000e+01	1.5100e+00	1.9400e+00	1.0000e+01	1.0000e+01	1.9900e+00	2.4900e+00	2.4100e+00	2.9000e+00	1.0000e+01	2.9800e+00	




#DATA BEGINS
time	group	step	mark	flag	A-AC1	A-AC2	A-AC3	A-AC4	A-AC5	A-AC6	A-AC7	A-AC8	A-AC9	A-AC10	A-AC11	A-AC12	A-AC13	A-AC14	A-AC15	A-AC16	A-DC1	A-DC2	A-DC3	A-DC4	A-DC5	A-DC6	A-DC7	A-DC8	A-DC9	A-DC10	A-DC11	A-DC12	A-DC13	A-DC14	A-DC15	A-DC16	A-Ph1	A-Ph2	A-Ph3	A-Ph4	A-Ph5	A-Ph6	A-Ph7	A-Ph8	A-Ph9	A-Ph10	A-Ph11	A-Ph12	A-Ph13	A-Ph14	A-Ph15	A-Ph16	B-AC1	B-AC2	B-AC3	B-AC4	B-AC5	B-AC6	B-AC7	B-AC8	B-AC9	B-AC10	B-AC11	B-AC12	B-AC13	B-AC14	B-AC15	B-AC16	B-DC1	B-DC2	B-DC3	B-DC4	B-DC5	B-DC6	B-DC7	B-DC8	B-DC9	B-DC10	B-DC11	B-DC12	B-DC13	B-DC14	B-DC15	B-DC16	B-Ph1	B-Ph2	B-Ph3	B-Ph4	B-Ph5	B-Ph6	B-Ph7	B-Ph8	B-Ph9	B-Ph10	B-Ph11	B-Ph12	B-Ph13	B-Ph14	B-Ph15	B-Ph16	aux-1	digaux	

1269.384	1	1	0	256	0.13108	0.23206	0.17037	0.12253	0.22582	0.23788	0.059657	0.32271	0.17383	0.33434	0.1701	0.17664	0.23683	0.21277	0.18604	0.20851	-1.9583	-2.3125	-2.4583	-2.2625	-2.1813	-2.4062	-2.2375	-2.5083	-2.4271	-2.2938	-2.5917	-2.0083	-2.5542	-2.6229	-2.0438	-2.6646	219.036	185.810	105.045	380.930	386.613	383.975	72.181	360.119	173.828	88.106	280.167	72.138	422.114	153.687	349.778	384.175	0.0019757	0.0014978	0.00039688	621.42	2.9848e-05	1.3798e-05	887.52	192.51	5.5837e-05	1.706e-05	340.73	129.55	64.719	24.4	1.7859e-05	59.389	0.016694	0.017071	0.0047456	1531.2	0.00018657	0.00018778	1871	512.45	0.00018885	0.00019044	889.42	340.9	533.74	81.317	0.00018933	187.22	412.725	193.621	404.148	78.997	100.361	286.287	79.114	84.523	67.374	322.187	83.905	88.219	90.762	93.074	266.824	93.105	-8191	255	
1269.456	1	1	0	0	0.13893	0.041359	0.11787	0.1419	0.14825	0.11629	0.11927	0.057758	0.30757	0.24489	0.24264	0.1561	0.053672	0.41586	0.15223	0.21376	-1.8854	-2.3375	-2.7583	-2.2208	-2.4792	-2.4437	-2.3167	-2.4938	-2.475	-2.3563	-2.7542	-2.3979	-2.1521	-2.6063	-2.3187	-2.5417	206.727	172.121	137.395	288.184	213.776	91.567	390.297	283.010	366.822	294.663	316.417	285.981	372.436	373.680	161.087	90.761	0.0015617	0.0037211	0.00054488	623.16	1.5366e-05	7.3391e-06	885.65	189.27	4.9052e-05	3.9587e-05	339.88	126.96	64.74	23.484	4.0063e-05	58.174	0.016982	0.017315	0.0048191	1552.9	0.00018969	0.00019125	1894.6	517	0.00019233	0.00019426	897.68	343.24	543.43	81.756	0.00019412	188.81	99.939	388.185	178.462	79.207	103.057	240.989	79.030	84.406	168.386	97.656	84.080	88.810	90.153	93.811	103.391	92.470	-8191	255	
1269.552	1	1	0	0	0.34722	0.12179	0.11517	0.072445	0.26805	0.082014	0.15741	0.1297	0.13355	0.17712	0.088447	0.3303	0.10177	0.045516	0.094123	0.063933	-2.0229	-2.225	-2.625	-2.3833	-2.3187	-2.9292	-2.3271	-2.6104	-2.2229	-1.9312	-2.7479	-2.2729	-2.2208	-2.6354	-2.275	-2.4188	261.515	92.111	297.921	141.432	394.227	299.211	98.335	307.321	351.194	211.454	342.387	387.435	244.164	181.554	391.940	262.770	0.0014943	0.0019667	0.00075638	628.5	2.3968e-05	3.3034e-06	899.12	187.67	3.2319e-05	1.3779e-05	337.91	122.4	60.985	22.487	2.4259e-05	56.261	0.017395	0.017639	0.0048952	1566.2	0.00019037	0.00019016	1889.6	510.79	0.00018855	0.00018895	878.05	332.48	522.47	78.084	0.00018467	180.03	414.561	314.379	147.095	78.703	76.684	382.125	78.179	81.668	201.027	77.311	81.605	86.427	88.930	91.611	79.926	90.331	-8191	255	
1269.671	1	1	0	0	0.05054	0.3146	0.0081988	0.12981	0.064696	0.01766	0.097754	0.35505	0.035869	0.12638	0.13584	0.15762	0.083108	0.15968	0.123	0.12347	-2.0146	-2.0062	-2.5979	-2.2229	-2.3833	-2.5646	-2.3187	-2.3438	-2.3292	-2.0229	-2.5854	-2.4375	-2.2646	-2.65	-1.9583	-2.3312	285.162	236.125	294.770	380.473	344.757	312.689	91.640	64.690	151.297	396.400	302.056	280.190	339.694	355.398	416.862	334.503	0.00040911	0.0025833	0.00046317	611.8	2.6882e-05	1.8195e-05	870.85	183.27	1.229e-05	2.9437e-05	330.21	120.31	59.553	21.519	3.4179e-05	54.924	0.016294	0.016444	0.0045243	1469.3	0.00017234	0.00017141	1771	474.05	0.00017172	0.00017317	828.61	313.55	486.39	73.202	0.00017216	170.21	275.949	139.581	106.631	76.233	186.380	87.381	76.013	80.931	71.558	260.795	81.171	86.499	87.333	91.380	177.853	90.190	-8191	255	
1269.767	1	1	0	0	0.11048	0.11562	0.18521	0.24806	0.16714	0.37423	0.44015	0.2223	0.17544	0.16444	0.256	0.15332	0.22048	0.26223	0.18878	0.20646	-2.0958	-2.2188	-2.5479	-2.3125	-2.05	-2.5333	-2.2854	-2.4729	-2.6792	-1.9771	-2.2833	-2.3646	-1.9229	-2.5062	-2.2021	-2.1771	216.867	202.313	70.634	389.961	296.365	183.187	341.454	399.132	183.920	185.727	119.210	214.095	399.496	372.972	288.951	406.471	0.00059442	0.0028483	0.00068018	612.31	1.2067e-05	2.6277e-05	885.19	184.18	2.6008e-05	2.5626e-05	331.5	117.43	57.928	20.61	1.6209e-05	52.331	0.015348	0.015679	0.0043653	1454.4	0.00017101	0.00017259	1792.9	478.46	0.00017317	0.00017414	827.7	309.55	480.86	71.71	0.00016993	165.92	397.527	363.321	166.415	76.614	66.927	67.739	77.444	83.039	123.784	277.085	81.904	86.074	86.121	90.652	220.903	90.277	-8191	255	
1269.863	1	1	0	0	0.013706	0.20339	0.0054249	0.19708	0.16118	0.10802	0.12141	0.2332	0.13901	0.16883	0.22649	0.20956	0.077136	0.092796	0.037248	0.056073	-1.8625	-2.0396	-2.0979	-2.5833	-2.1625	-2.5563	-2.1604	-2.2188	-2.4458	-2.3646	-2.5042	-2.5	-2.05	-2.4021	-2.0375	-2.1479	90.811	254.338	318.107	119.060	344.984	332.652	404.201	295.005	409.487	143.048	126.921	108.996	335.097	100.983	251.356	227.554	0.0017387	0.0013321	0.00012645	627.98	1.651e-05	2.3247e-05	886.43	180.8	3.1444e-05	2.9321e-05	324	113.97	54.576	19.508	2.3773e-05	50.071	0.01507	0.015315	0.0042487	1438.4	0.00016477	0.00016502	1753.4	459.84	0.00016238	0.00016298	787.11	290.84	444.46	66.639	0.00015577	154.03	112.091	171.009	123.134	75.983	91.604	135.428	75.935	81.045	375.688	200.025	80.800	86.075	85.573	91.139	331.443	90.862	-8191	255	
1269.959	1	1	0	0	0.24816	0.088298	0.18713	0.046977	0.209	0.11623	0.146	0.037119	0.22607	0.25739	0.28675	0.22194	0.16172	0.16351	0.0087463	0.22455	-2.0479	-2.0812	-2.2438	-2.3875	-2.1083	-2.4354	-2.2771	-2.1292	-2.5583	-2.1917	-2.5167	-2.5458	-1.8146	-2.3646	-2.275	-2.2042	188.397	276.556	134.725	75.050	134.259	385.128	351.001	81.650	77.883	143.175	390.994	267.744	257.086	73.760	381.073	91.703	0.0016258	0.0013062	0.00014402	619.57	2.7092e-05	2.1825e-05	884.41	178.9	1.6299e-05	2.8425e-05	320.15	110.78	55.91	19.067	1.5037e-05	49.02	0.013728	0.013944	0.0038508	1348.1	0.00014689	0.00014621	1642.5	420.49	0.00014028	0.0001404	714.58	263.11	388.8	59.598	0.00013496	139.05	131.892	72.704	117.588	75.735	101.913	189.905	75.887	81.198	152.723	200.882	80.680	85.696	84.804	91.635	402.719	90.454	-8191	255	
1270.055	1	1	0	0	0.17315	0.19399	0.074673	0.092347	0.14245	0.1249	0.12594	0.20319	0.22117	0.11989	0.20471	0.15605	0.32983	0.31826	0.057985	0.22746	-2.0979	-2.2292	-2.3667	-2.5083	-1.8896	-2.2146	-2.4146	-2.2021	-2.5146	-2.3521	-2.2646	-2.5125	-1.9979	-2.5563	-2.3312	-1.8625	116.175	335.463	266.379	137.781	64.291	131.192	290.625	353.716	275.711	385.758	137.448	368.975	338.199	423.361	213.245	86.076	0.00096474	0.002216	0.0006408	621.52	1.3421e-05	2.2483e-05	892.29	179.34	1.3886e-05	3.9566e-05	316.09	110.41	54.784	18.816	4.056e-05	50.003	0.012006	0.012288	0.0034192	1269.7	0.00013345	0.00013485	1591.2	407.03	0.00013483	0.00013603	704.98	260.46	386.34	59.564	0.00013528	139.95	103.060	89.294	106.051	75.677	351.407	283.167	76.311	81.354	155.834	334.381	83.502	88.568	89.267	93.308	100.475	93.022	-8191	255	
1270.152	1	1	0	0	0.12132	0.22754	0.20745	0.028239	0.13713	0.092244	0.3642	0.19585	0.083096	0.2974	0.10721	0.20245	0.066963	0.054792	0.019879	0.074375	-2.0667	-2.1562	-2.1063	-2.4229	-2.0917	-2.3083	-2.4771	-1.9813	-2.5062	-2.2938	-2.2229	-2.6354	-2.0167	-2.3979	-2.5479	-2.2521	285.188	110.223	364.335	414.903	120.300	138.587	79.089	364.733	324.060	419.036	101.433	410.891	231.726	256.730	251.136	81.713	0.0010863	0.00017228	0.00065041	615.56	1.6932e-05	1.4661e-05	884.31	178.35	4.8534e-05	2.0533e-05	319.18	112.12	55.198	19.778	5.9314e-06	51.211	0.012125	0.012443	0.0034612	1278.6	0.00013665	0.00013849	1609.3	414.08	0.00013951	0.00014104	722.17	268.09	398.92	61.438	0.00013911	144.26	422.421	170.658	237.662	78.329	314.195	120.535	78.398	83.973	196.628	206.889	83.506	88.479	88.684	93.122	94.784	89.566	-8191	255	
1270.248	1	1	0	0	0.24621	0.23934	0.20674	0.11163	0.11384	0.1091	0.25331	0.16974	0.07824	0.045377	0.09334	0.22431	0.11991	0.18129	0.15824	0.16402	-1.9542	-2.3771	-2.1875	-2.7125	-2.0312	-2.2646	-2.6229	-2.125	-2.5542	-2.2896	-2.1771	-2.5187	-2.0583	-2.3625	-2.5646	-1.9771	147.838	95.846	97.174	101.249	385.206	183.144	330.482	412.227	280.814	139.201	142.638	386.182	75.626	164.987	188.745	107.116	0.0017478	0.00065346	0.0010366	608.54	2.4986e-05	2.7956e-05	873.26	178.63	2.0534e-05	1.8123e-05	324	115.99	57.625	20.574	4.9768e-05	53.045	0.012523	0.012753	0.0035344	1278.3	0.00013781	0.00013871	1593.4	412.2	0.00013846	0.00013988	720.45	270.07	399.67	62.203	0.00013919	145.92	91.563	309.919	170.398	75.541	258.245	135.564	75.895	81.227	373.133	254.415	81.100	85.914	86.073	90.937	248.475	90.729	-8191	255	
1270.368	1	1	0	0	0.11704	0.13235	0.083697	0.098399	0.089817	0.20958	0.068802	0.20668	0.13182	0.33533	0.049859	0.18941	0.26356	0.22375	0.27284	0.25189	-1.9021	-2.2229	-1.8146	-2.5625	-2.3896	-2.2687	-2.6188	-2.0917	-2.4208	-2.3354	-2.0042	-2.5187	-2.2708	-2.2958	-2.5771	-2.0708	153.877	189.260	151.627	331.751	95.314	403.900	286.667	77.511	341.856	301.278	169.962	383.344	348.479	400.609	112.350	205.780	0.0024164	0.0008489	0.0006897	599.9	5.1985e-05	1.1525e-05	870.01	178.29	3.297e-05	2.8435e-05	323.15	117.1	57.179	20.363	1.3769e-05	52.589	0.012508	0.012759	0.0035499	1279.7	0.00013933	0.00013987	1597.8	415.09	0.00013974	0.00013971	718.42	269.47	395.12	61.664	0.00013721	144.85	421.092	363.900	373.683	76.458	210.595	360.203	76.692	83.690	86.054	169.974	83.290	88.555	86.912	93.632	304.442	93.434	-8191	255	
1270.465	1	1	0	0	0.12433	0.10385	0.11183	0.19951	0.17229	0.11527	0.10074	0.26386	0.20853	0.039576	0.19032	0.094679	0.2089	0.10086	0.067356	0.059877	-1.8813	-2.5708	-1.9438	-2.5187	-2.0917	-2.1646	-2.4917	-1.8458	-2.5438	-2.6042	-2.0062	-2.6458	-2.2229	-2.1625	-2.4313	-2.2417	302.362	406.233	374.518	402.457	130.874	350.409	422.394	85.104	126.439	233.068	393.339	147.348	168.697	120.682	140.994	402.147	6.7013e-05	0.0010308	0.00052588	609.81	1.0223e-05	1.7553e-05	879.3	178.9	4.8682e-06	2.0146e-05	321.12	114.71	55.681	19.708	2.798e-05	51.577	0.012347	0.012592	0.0035144	1285	0.00013922	0.00014068	1616.1	419.61	0.00014252	0.00014372	731.52	274.14	408.76	62.604	0.00014323	147.16	304.745	184.201	190.461	79.045	113.647	199.599	78.444	83.379	236.707	167.447	83.729	88.725	89.010	93.744	390.962	93.654	-8191	255	
1270.559	1	1	0	0	0.26142	0.050517	0.24708	0.14154	0.23668	0.063001	0.26653	0.32574	0.15763	0.088509	0.42005	0.33629	0.0293	0.077774	0.41713	0.019646	-1.7188	-2.5104	-2.0312	-2.5146	-2.3417	-2.1333	-2.6562	-2.2083	-2.15	-2.4437	-2.1583	-2.6375	-2.4292	-2.1854	-2.4542	-2.2375	167.821	371.811	176.930	350.425	244.308	334.805	67.261	300.226	231.344	251.366	368.946	417.214	224.639	410.474	67.047	175.834	0.002749	0.0013847	9.2966e-05	616.16	1.9147e-05	2.445e-05	881.25	178.39	3.0006e-05	4.513e-05	322.07	112.15	55.004	19.199	4.6244e-05	49.832	0.012859	0.013064	0.0036386	1317	0.00014369	0.00014547	1649.8	427.54	0.00014628	0.00014707	740.17	274.55	413.24	62.545	0.00014528	147.54	94.907	155.029	277.488	78.703	113.581	104.801	78.325	83.889	225.730	100.352	83.481	88.945	87.275	93.511	179.207	92.918	-8191	255	
1270.632	1	1	0	0	0.20404	0.036254	0.040015	0.27211	0.061918	0.1962	0.079353	0.1468	0.1848	0.1279	0.14476	0.15592	0.15211	0.13372	0.093117	0.23714	-1.8521	-2.4583	-2.1458	-2.4896	-2.4875	-2.1917	-2.4396	-2.2812	-2.2208	-2.5417	-2.2792	-2.5604	-2.4375	-2.1146	-2.375	-2.1479	230.109	191.571	245.011	348.624	70.208	297.184	410.288	411.668	286.747	333.837	289.112	68.703	363.001	152.438	409.637	408.624	0.00076066	0.0026568	0.00033212	621.26	1.9485e-05	3.8234e-05	884.08	179.08	5.1299e-05	9.5298e-06	317.07	110.91	54.694	19.068	1.3188e-05	49.927	0.013036	0.013334	0.0037296	1333.9	0.00014575	0.00014552	1650.6	426.06	0.00014565	0.00014641	737.97	273.57	412.43	62.561	0.00014535	147.26	89.144	135.211	425.921	78.661	346.717	155.197	78.349	84.074	299.398	388.923	83.610	88.779	88.614	93.348	287.054	92.720	-8191	255	
1270.753	1	1	0	0	0.31296	0.2262	0.068125	0.076398	0.12763	0.18942	0.20683	0.23622	0.058199	0.23501	0.22675	0.16055	0.26986	0.12849	0.070703	0.089732	-1.7	-2.4729	-2.1917	-2.4437	-2.6271	-2.1021	-2.5292	-2.1312	-1.9479	-2.4229	-2.0792	-2.3646	-2.4708	-2.0667	-2.4188	-2.4062	156.495	299.458	369.343	413.171	188.789	326.192	309.730	368.379	282.705	289.130	397.051	72.548	361.510	395.331	67.913	101.520	0.0019306	0.00090901	0.00075687	613.03	3.9959e-05	1.2835e-05	890.7	179.35	3.7205e-05	2.4055e-06	317.87	111.79	57.52	19.102	1.5471e-05	49.637	0.012972	0.013263	0.0037022	1331.9	0.00014538	0.00014674	1659.5	427.94	0.00014603	0.0001476	741.14	273.65	412.89	62.511	0.00014526	146.6	85.024	233.539	394.713	78.364	206.242	215.640	78.011	83.980	135.152	218.745	83.143	88.511	87.682	93.103	250.727	92.116	-8191	255	
1270.847	1	1	0	0	0.22427	0.077297	0.17702	0.34269	0.20563	0.048207	0.34604	0.12179	0.016112	0.15626	0.22245	0.12108	0.15658	0.099568	0.062741	0.12502	-1.65	-2.45	-2.2396	-2.4167	-2.3646	-1.9896	-2.6437	-2.3667	-1.9417	-2.6604	-2.2354	-2.3396	-2.5042	-2.2021	-2.5333	-2.4958	74.936	210.019	208.338	290.140	169.837	137.813	373.157	355.095	313.505	99.863	99.992	205.731	142.059	187.225	336.887	155.684	0.0019006	0.0024587	0.00058293	633.84	3.9205e-06	2.078e-05	907.91	180.05	1.5331e-05	3.8509e-05	317.91	109.45	54.203	18.485	1.1073e-05	48.246	0.012946	0.013285	0.0037005	1337.6	0.00014481	0.00014596	1666.8	425.85	0.00014431	0.00014529	733.28	269.91	408.55	61.716	0.00014478	144.82	133.149	128.599	81.479	78.353	134.641	341.367	78.240	83.902	149.850	225.095	83.516	88.462	86.430	93.599	349.267	92.556	-8191	255	
1270.944	1	1	0	0	0.21328	0.13584	0.13968	0.13132	0.15172	0.15987	0.17034	0.15203	0.063613	0.062507	0.068813	0.33593	0.11689	0.049622	0.30627	0.1587	-1.8188	-2.3854	-2.1646	-2.1771	-2.5667	-2.2833	-2.4813	-2.2854	-1.6417	-2.2354	-2.325	-2.2083	-2.5854	-2.3146	-2.3812	-2.4771	142.618	177.797	106.328	384.998	165.290	160.153	364.696	404.264	227.990	296.721	209.851	159.799	282.143	73.303	81.846	285.152	0.00075231	0.0022011	0.00040936	641.79	2.4984e-05	1.1451e-05	911.64	181.81	1.5592e-05	1.2989e-05	318.56	108.37	52.361	18.182	3.4384e-05	47.546	0.012907	0.013228	0.0036897	1346.2	0.00014485	0.00014639	1682.1	432.21	0.00014837	0.00015063	749.95	275.72	425.2	63.405	0.00015071	148.63	99.528	186.389	250.047	78.543	205.140	274.999	78.544	83.571	95.742	232.166	80.958	86.253	87.090	91.908	157.713	91.078	-8191	255	
1271.064	1	1	0	0	0.19444	0.16827	0.24967	0.30322	0.11038	0.12497	0.22634	0.45735	0.21067	0.074074	0.25134	0.27428	0.14696	0.11877	0.12418	0.15532	-1.4708	-2.4333	-2.1917	-2.2313	-2.55	-1.9875	-2.3958	-2.6396	-2.2188	-2.4625	-2.2667	-2.2375	-2.5604	-2.3083	-2.3333	-2.8104	363.754	311.173	149.948	78.729	370.076	292.784	134.946	417.888	100.716	362.700	302.297	89.839	419.146	137.169	297.249	420.476	0.0008287	0.002104	0.00064139	648.22	8.3945e-06	2.8243e-05	914.33	182.09	2.6296e-05	3.2433e-05	321.04	108.46	51.855	18.246	1.8735e-05	47.923	0.013468	0.013743	0.0037994	1367	0.00014824	0.00014835	1686	430.69	0.00014679	0.0001483	742.01	272.43	418.61	62.563	0.00014872	148.25	110.716	218.055	190.065	77.792	269.924	107.399	77.570	83.278	222.314	209.742	82.795	88.273	86.633	93.421	370.155	92.796	-8191	255	
1271.160	1	1	0	0	0.25111	0.22539	0.06738	0.053916	0.12595	0.18032	0.068466	0.22991	0.043797	0.13144	0.22398	0.16043	0.27538	0.15573	0.15513	0.30386	-1.8208	-2.4188	-2.1896	-2.0062	-2.3875	-2.0958	-2.375	-2.7604	-2.1	-2.3896	-2.4521	-2.2562	-2.3937	-2.2188	-2.2396	-2.5625	218.387	273.607	362.812	280.393	310.662	282.509	294.088	75.572	135.350	354.063	373.515	383.667	348.157	407.309	71.550	340.831	0.0017107	0.0019494	0.00068454	640.27	1.5685e-05	1.5614e-05	905.29	182.24	3.4334e-05	6.603e-06	321.12	112.28	53.742	18.909	2.0441e-06	49.73	0.013525	0.013874	0.0038643	1375.9	0.00015084	0.00015145	1690.9	434.25	0.00014893	0.00014996	748.65	278.01	426.86	64.536	0.00015278	153.37	401.118	400.505	331.256	78.526	148.678	124.933	78.792	83.233	159.127	255.514	83.238	88.461	88.716	93.490	423.593	92.268	-8191	255	
1271.256	1	1	0	0	0.18647	0.038298	0.22322	0.29663	0.10798	0.15097	0.12737	0.053112	0.19071	0.06111	0.21273	0.14864	0.33443	0.16447	0.24233	0.18163	-1.7687	-2.3875	-2.5125	-2.1521	-2.6208	-2.2542	-2.2313	-2.5958	-2.0771	-2.2625	-2.375	-2.0604	-2.5312	-2.2062	-1.8542	-2.3187	318.105	169.033	218.080	72.028	333.129	409.504	99.302	373.779	407.817	222.619	337.302	303.204	292.993	88.665	216.027	137.475	0.001284	0.0020104	0.00066406	629.36	3.2731e-05	1.9174e-05	900.85	180.35	3.3465e-05	9.2543e-06	321.54	111.99	55.032	19.266	1.2829e-05	49.736	0.013882	0.01424	0.0039562	1391.6	0.00015454	0.00015469	1707.7	440.42	0.00015201	0.00015269	753.44	278.68	423.24	63.479	0.00014748	148.55	100.368	392.318	168.686	76.538	265.080	177.528	75.464	80.738	105.424	337.673	80.525	85.623	85.998	90.658	364.651	89.539	-8191	255	
1271.353	1	1	0	0	0.027339	0.1503	0.25121	0.11887	0.15356	0.14742	0.17877	0.23949	0.23833	0.034127	0.058527	0.20216	0.29586	0.16441	0.19833	0.11711	-1.5625	-2.2104	-2.1021	-2.1	-2.2875	-2.1542	-2.1	-2.5292	-2.2583	-2.2625	-2.3167	-1.7854	-2.3729	-2.0271	-1.7396	-2.4875	418.246	334.151	99.126	157.921	374.119	326.476	360.313	376.593	225.964	228.791	415.558	405.067	310.453	101.090	247.536	267.958	0.00084458	0.0013597	0.00062756	629.31	6.791e-06	2.627e-05	907.66	181.33	1.075e-05	2.1289e-05	320.91	112.62	54.209	18.662	1.8021e-05	49.398	0.013232	0.013538	0.0037578	1349.9	0.00014756	0.00014807	1674.5	429.79	0.00014672	0.00014703	741.95	273.93	413.74	62.116	0.00014393	145.56	83.072	136.743	84.978	75.987	362.388	322.685	75.776	81.057	245.981	227.548	80.181	85.605	85.968	90.274	205.053	89.366	-8191	255	
1271.449	1	1	0	0	0.14575	0.041048	0.07243	0.089394	0.16218	0.23336	0.055609	0.38843	0.23905	0.21377	0.02844	0.066093	0.10873	0.12123	0.099045	0.11642	-1.6	-2.2854	-2.4833	-2.1229	-2.4271	-2.2833	-2.3854	-2.4292	-2.1208	-2.1729	-2.6083	-2.3063	-2.4	-2.4875	-2.0458	-2.6104	241.576	263.698	257.834	149.888	334.632	95.152	103.156	100.101	153.409	341.074	125.052	353.739	419.258	389.660	146.006	412.352	0.00039199	0.002092	0.00072601	634.83	2.9665e-05	1.9729e-05	914.01	180.45	4.7417e-05	2.0496e-05	321.02	111.74	53.078	18.855	2.7689e-05	49.254	0.012844	0.013055	0.003614	1324.8	0.00014074	0.00014122	1650.4	421.71	0.00014179	0.00014346	731.07	270.35	407.82	61.591	0.00014297	144.78	159.846	146.586	212.277	76.353	122.669	67.250	76.760	81.855	173.063	310.607	83.306	88.457	87.879	93.674	243.891	92.796	-8191	255	
1271.545	1	1	0	0	0.17721	0.25041	0.096191	0.13407	0.24545	0.30675	0.24392	0.13403	0.1605	0.18932	0.11974	0.057989	0.11796	0.12323	0.11058	0.18363	-1.95	-2.1542	-2.5062	-2.3458	-2.325	-2.5583	-2.2875	-2.6354	-2.5312	-2.3625	-2.6979	-2.1792	-2.3479	-2.7938	-1.9646	-2.5792	84.159	197.742	403.532	161.228	247.532	137.130	391.928	229.068	262.164	217.468	312.669	401.089	333.734	275.539	367.057	385.110	0.0011087	0.00021816	0.00074408	642.1	1.3179e-05	1.5066e-05	917.16	182.97	1.8718e-05	1.4734e-05	320.62	110.32	55.351	18.265	1.9851e-05	47.94	0.012837	0.013082	0.0036596	1340.7	0.00014334	0.00014437	1673.7	428.88	0.0001453	0.0001467	740.21	272.71	415.8	62.278	0.00014704	146.51	93.409	236.156	163.975	78.298	137.692	160.389	78.341	83.638	350.069	235.028	83.581	88.785	89.051	93.457	384.993	92.181	-8191	255	
1271.641	1	1	0	0	0.063589	0.077739	0.27213	0.17657	0.077378	0.03204	0.21767	0.07487	0.07809	0.10083	0.15194	0.080482	0.038626	0.18483	0.19437	0.070283	-2.0896	-2.0625	-2.3312	-2.2333	-2.2021	-2.6188	-2.1646	-2.5583	-2.4875	-2.2104	-2.7375	-2.325	-2.3083	-2.5333	-2.2146	-2.525	159.276	206.625	376.735	415.285	306.208	376.812	394.037	83.170	69.872	277.950	232.422	136.272	255.771	75.348	71.742	99.525	0.0007721	0.003076	0.00064318	653.31	2.088e-05	1.997e-05	919.84	182.15	3.8193e-05	3.7188e-06	323.69	110.63	55.695	18.306	1.9681e-05	48.632	0.013112	0.013388	0.0037197	1355.8	0.00014415	0.0001446	1673.5	427.54	0.00014458	0.00014609	739.61	272.92	415.83	62.39	0.00014749	147.79	143.907	121.746	215.346	78.902	281.852	219.083	78.254	83.973	362.728	387.973	83.084	88.100	89.522	93.247	136.900	92.285	-8191	255	
1271.760	1	1	0	0	0.23554	0.39569	0.30831	0.11357	0.0177	0.22101	0.25979	0.25066	0.068629	0.28637	0.14108	0.12153	0.27491	0.15531	0.15261	0.19086	-2.2229	-2.1042	-2.3563	-2.3583	-2.1146	-2.6771	-2.3604	-2.3937	-2.4708	-2.1125	-2.6146	-2.3542	-2.1437	-2.9	-2.2938	-2.6458	118.437	170.211	329.756	396.741	175.973	341.265	405.192	113.677	242.717	423.348	380.036	348.552	294.089	69.013	335.976	376.774	0.00030867	0.0036053	0.00080904	648.95	1.1106e-05	1.7885e-05	914.09	182.69	1.8288e-05	1.2711e-05	323.32	111.45	55.372	18.719	2.7214e-05	49.047	0.013275	0.013607	0.0037981	1371.1	0.00014849	0.00014929	1696.3	435.47	0.0001482	0.00014917	748.96	276.31	421.12	63.176	0.00014957	149.99	387.561	382.674	81.817	78.292	252.613	350.991	78.432	83.914	423.606	245.431	83.440	88.426	89.309	93.800	345.893	92.519	-8191	255	
1271.856	1	1	0	0	0.096637	0.29585	0.1263	0.14101	0.16192	0.23165	0.1279	0.21593	0.22347	0.2048	0.11392	0.27893	0.16021	0.11524	0.065597	0.30982	-2.0479	-1.9208	-2.4688	-2.2646	-2.1771	-2.3396	-2.3542	-2.1583	-2.3854	-1.8917	-2.4208	-2.2646	-1.9208	-2.5312	-2.0083	-2.2583	411.715	168.145	265.464	377.314	398.973	188.844	140.105	390.984	158.652	353.988	175.553	167.145	247.337	267.801	258.510	357.190	0.0025558	0.0018472	0.00099333	640.35	1.6473e-05	1.6614e-05	919.51	182.91	1.0358e-05	6.4504e-06	323.39	111.69	56.231	18.727	1.3321e-05	48.204	0.013557	0.013953	0.0039037	1391.9	0.00015407	0.0001553	1732.2	448.41	0.00015722	0.00015939	780.35	289.61	451.46	67.121	0.00016185	157.73	86.996	224.898	201.943	78.389	364.001	196.175	79.000	83.962	167.294	344.998	83.377	88.224	88.736	93.590	129.415	93.050	-8191	255	
1271.928	1	1	0	0	0.20134	0.17012	0.19054	0.33686	0.011457	0.076966	0.19763	0.27846	0.13266	0.17101	0.21139	0.11218	0.17156	0.30924	0.05385	0.16852	-1.9729	-1.9438	-2.3688	-2.3417	-2.1792	-2.5833	-2.2979	-2.2667	-2.6021	-2.1521	-2.3625	-2.2646	-1.8521	-2.4479	-2.1188	-2.1208	231.216	192.084	119.738	86.605	200.621	353.984	402.587	380.257	422.617	100.262	81.593	163.401	124.424	406.087	214.814	308.231	0.0016595	0.0018552	0.00022019	645.54	2.1061e-05	2.732e-05	913.76	181.99	1.4796e-05	4.4327e-05	323.85	112.54	54.545	18.854	1.0022e-05	48.778	0.014524	0.014809	0.0041279	1429.2	0.00016083	0.0001627	1767.9	460.72	0.0001645	0.00016668	801.2	297.35	464.77	68.531	0.00016513	159.56	80.178	284.770	402.089	78.685	405.467	265.945	76.764	81.631	229.971	362.087	81.311	85.742	85.878	90.289	157.642	90.776	-8191	255	
1272.024	1	1	0	0	0.15801	0.34813	0.16487	0.16547	0.12167	0.095845	0.3297	0.27766	0.11604	0.11552	0.287	0.2641	0.11289	0.098769	0.035383	0.19839	-2.0729	-2.1167	-2.4062	-2.3187	-2.0396	-2.3312	-2.475	-2.0938	-2.5187	-2.0271	-2.5521	-2.4813	-1.9917	-2.3604	-2.2562	-2.2604	380.290	90.518	339.569	337.624	83.443	275.843	371.823	313.915	216.260	359.572	409.172	63.615	171.209	162.379	419.144	419.158	0.0018463	0.0015592	0.0010297	643.43	3.1995e-05	2.4158e-05	913.88	182.94	2.5287e-05	2.3249e-05	323.98	112.59	56.363	18.969	1.3137e-05	49.838	0.014711	0.014998	0.0041658	1439.7	0.0001626	0.00016385	1778.1	462	0.00016446	0.00016559	798.4	295.93	461.34	68.272	0.00016463	160.64	102.033	124.510	140.532	76.067	181.079	246.176	75.873	81.041	132.309	255.106	80.574	85.350	85.176	90.465	172.170	90.181	-8191	255	
1272.145	1	1	0	0	0.15787	0.24328	0.15786	0.19132	0.085128	0.28474	0.22376	0.20545	0.059407	0.17561	0.14508	0.14838	0.092499	0.072747	0.19669	0.13374	-2.1833	-2.0646	-2.2167	-2.4625	-2.2333	-2.4521	-2.1354	-2.0271	-2.4125	-2.0917	-2.2729	-2.4396	-1.6771	-2.0896	-2.1688	-2.2854	332.766	176.184	207.688	420.765	77.945	114.490	372.035	206.545	120.913	86.246	100.106	400.779	63.917	207.249	287.653	181.463	0.001054	0.00091122	0.00038753	643.28	1.1119e-05	2.7455e-05	921.76	183.75	3.5587e-05	1.0822e-05	326.54	114.84	56.273	19.226	2.7039e-05	49.831	0.014797	0.01512	0.0042066	1453.2	0.00016474	0.00016586	1793.4	465.02	0.00016555	0.00016699	806.52	300.21	468.86	69.296	0.00016647	161.81	212.048	348.900	281.665	76.211	92.229	188.388	75.882	81.511	149.822	124.727	81.302	86.063	86.856	92.311	215.622	91.430	-8191	255	
1272.241	1	1	0	0	0.18444	0.09204	0.29792	0.11173	0.14039	0.19525	0.07273	0.19681	0.11187	0.21365	0.083558	0.12175	0.284	0.29858	0.21384	0.16616	-2.1729	-2.2521	-2.3438	-2.75	-2.0521	-2.5	-2.4917	-2.1875	-2.675	-2.2271	-2.2583	-2.3292	-1.9583	-2.2521	-2.6	-2.1979	112.627	334.895	281.451	225.654	105.200	327.855	414.723	318.726	300.274	403.289	83.559	66.611	142.225	89.843	94.150	201.087	0.00066806	0.0053291	0.00051114	656.75	1.0814e-05	6.5248e-06	937.06	187.28	1.2842e-05	4.7951e-06	329.2	114.18	54.024	19.324	3.1506e-05	49.201	0.01485	0.015093	0.0041917	1461.7	0.00016455	0.00016561	1806.2	468.31	0.0001662	0.0001669	808.13	299.14	467.53	68.699	0.00016586	160.55	418.926	150.756	331.034	78.708	150.425	409.704	78.440	84.052	307.640	315.399	83.156	88.075	87.880	92.310	187.073	92.769	-8191	255	
1272.337	1	1	0	0	0.27196	0.19746	0.39309	0.16999	0.18027	0.053045	0.18607	0.24578	0.24873	0.22227	0.19518	0.45984	0.3512	0.23135	0.10164	0.15683	-2.1875	-2.3396	-2.4125	-2.8	-2.275	-2.6375	-2.55	-2.2479	-2.5312	-2.475	-2.2729	-2.6813	-2.1562	-2.2729	-2.3104	-1.875	95.937	191.448	342.638	404.502	192.622	65.881	369.269	365.269	99.420	346.834	99.199	309.900	415.104	353.808	298.310	256.112	0.0017617	0.001375	0.00039065	663.47	2.2658e-05	2.0784e-05	942.99	185.84	1.623e-05	9.6377e-06	329.32	113.54	57.276	18.769	5.1387e-05	48.016	0.014845	0.015078	0.0041932	1464.6	0.00016346	0.00016378	1794.5	462.62	0.00016204	0.00016235	790.97	291.2	451.39	66.508	0.00015967	155.75	69.865	404.235	266.592	78.665	335.716	261.872	78.579	82.854	325.292	205.347	83.739	88.954	87.723	91.468	255.691	91.442	-8191	255	
1272.433	1	1	0	0	0.1015	0.1451	0.12486	0.14675	0.33749	0.21729	0.2055	0.05554	0.071274	0.35226	0.30045	0.16373	0.14871	0.17323	0.12105	0.20185	-2.0229	-2.0875	-2.0812	-2.5333	-2.0896	-2.2854	-2.5687	-1.9646	-2.3625	-2.3438	-2.3708	-2.8229	-2.3063	-2.4021	-2.5875	-2.2479	182.435	172.638	308.168	328.668	298.311	96.197	367.043	114.059	344.912	381.851	415.640	74.116	136.417	299.033	194.960	164.198	0.0014281	0.0022707	0.0005431	653.79	2.1388e-05	2.895e-05	939.54	186.29	9.2886e-06	8.6586e-06	325.83	113.43	55.791	18.915	7.0969e-06	48.472	0.014303	0.014588	0.0040642	1437.1	0.00015928	0.00016029	1778.8	459.42	0.00016192	0.00016322	795.12	294.29	458.36	67.601	0.0001627	158.47	147.185	340.708	342.729	78.801	213.667	215.654	78.424	83.093	201.582	219.510	82.897	88.155	86.043	93.719	303.937	92.465	-8191	255	
1272.552	1	1	0	0	0.13135	0.15727	0.22329	0.20115	0.10261	0.029445	0.24448	0.22378	0.11452	0.28911	0.12159	0.21963	0.17817	0.21324	0.24642	0.29571	-1.9896	-2.4583	-2.0146	-2.675	-2.2792	-2.1146	-2.6188	-1.9646	-2.5083	-2.5229	-2.2854	-2.5521	-2.3167	-2.3479	-2.5271	-2.3396	218.514	113.153	288.170	132.801	70.359	127.807	396.568	74.546	301.900	184.152	295.829	412.981	166.995	391.347	353.795	342.711	0.00081063	0.0012246	0.0005575	657.82	2.2003e-05	2.3294e-05	937.48	185.44	3.1376e-06	2.5253e-05	327.36	113.46	58.438	19.004	1.3973e-05	49.441	0.014637	0.014927	0.0041583	1454	0.00016117	0.00016148	1775.6	456.18	0.00015783	0.00015857	779.81	289	446.51	66.581	0.00015994	156.86	87.893	67.147	385.736	78.576	118.724	127.830	78.209	83.280	313.082	117.260	83.321	88.490	87.719	93.193	158.534	92.071	-8191	255	
1272.625	1	1	0	0	0.14965	0.1704	0.17025	0.23478	0.16358	0.11821	0.23391	0.11266	0.45929	0.17427	0.19241	0.18341	0.059732	0.13143	0.10869	0.17321	-2.1208	-2.7396	-2.1146	-2.4458	-2.3021	-2.0563	-2.5229	-1.9667	-2.4396	-2.5667	-2.1729	-2.5125	-2.2604	-2.0062	-2.475	-2.2313	91.756	415.661	175.910	392.498	169.761	289.080	377.490	127.220	260.937	387.976	184.610	347.910	197.848	303.585	325.228	260.318	0.00087397	0.0009965	0.00069756	666.97	2.6276e-05	1.0228e-05	941.47	186.46	1.7816e-05	3.0251e-05	329.09	111.51	54	18.599	2.6006e-05	48.723	0.014498	0.014868	0.0041356	1455.5	0.00016189	0.00016311	1797.6	464.17	0.00016344	0.00016489	801.25	295.5	461.95	68.19	0.00016539	160.24	88.321	238.535	318.747	78.602	177.993	168.614	78.526	83.353	254.240	283.738	80.080	85.215	86.194	90.510	344.613	89.676	-8191	255	
1272.744	1	1	0	0	0.13083	0.356	0.27324	0.18716	0.13575	0.10049	0.27166	0.051371	0.16191	0.25527	0.14188	0.078132	0.35223	0.11517	0.13124	0.12138	-1.7958	-2.4437	-1.8542	-2.0812	-2.2812	-2.1083	-2.5021	-2.075	-2.3396	-2.8292	-2.175	-2.5917	-2.1813	-2.0125	-2.4917	-2.2104	414.065	395.156	282.798	382.101	142.423	263.245	355.887	402.708	257.685	186.563	331.153	315.153	272.068	81.044	218.295	66.306	0.0013582	0.002365	0.00048221	664.95	1.1426e-06	1.0097e-05	938.3	186.74	4.2168e-05	1.8834e-05	329.49	113.74	55.531	18.867	4.8835e-05	49.199	0.014913	0.015293	0.0042731	1484.5	0.00016738	0.00016847	1824.5	472.26	0.00016753	0.0001689	811.12	299.55	470.05	68.905	0.00016716	161.15	361.562	151.890	165.310	75.303	96.764	254.247	75.881	81.072	85.851	303.430	80.534	85.896	85.744	90.749	128.414	91.225	-8191	255	
1272.840	1	1	0	0	0.043751	0.13834	0.17877	0.22306	0.1896	0.11953	0.18194	0.19393	0.099702	0.28382	0.30667	0.24786	0.29176	0.087656	0.067548	0.22859	-1.5854	-2.4625	-1.9146	-2.2542	-2.3563	-2.2062	-2.7792	-2.6437	-2.2854	-2.5438	-2.2604	-2.4583	-2.4125	-2.0854	-2.4	-2.2646	131.947	143.124	281.013	73.855	236.154	368.063	391.624	253.962	372.041	335.911	86.768	144.793	77.185	154.449	144.019	125.318	0.00162	0.001801	0.0003331	661.86	1.352e-05	1.1874e-05	941.15	186.27	2.0968e-05	2.652e-05	331.2	111.87	56.878	18.652	4.2346e-05	48.806	0.01501	0.015318	0.0042752	1479.9	0.00016757	0.00016866	1821.8	472.68	0.00016878	0.00017004	813.6	300.76	472.97	69.092	0.00016797	161.22	121.042	419.415	85.626	78.778	233.204	296.170	78.608	83.674	234.707	106.876	83.271	88.393	89.651	93.936	376.562	92.057	-8191	255	
1272.936	1	1	0	0	0.1411	0.1521	0.15015	0.15385	0.12795	0.15571	0.27605	0.27779	0.38371	0.062977	0.27137	0.097187	0.1845	0.25743	0.18699	0.12277	-1.7271	-2.425	-2.1625	-2.1521	-2.2667	-1.7542	-2.4708	-2.2354	-2.2271	-2.4437	-2.2396	-2.1979	-2.5479	-2.0604	-2.3854	-2.6271	188.007	100.570	155.796	307.863	206.975	260.412	328.166	367.583	247.927	309.501	396.302	91.599	239.508	208.477	149.657	246.740	0.0020304	0.0024762	0.00059573	664.21	2.0978e-05	1.7601e-05	942.22	186.7	1.3386e-05	1.8324e-05	328.4	112.67	56.514	18.619	1.4344e-05	47.778	0.015073	0.015396	0.0042761	1487.6	0.00016915	0.00017022	1837.5	477.79	0.00017106	0.00017257	818.72	302.32	475	69.134	0.00016744	160.46	68.825	131.484	172.170	78.827	323.341	67.970	78.374	83.181	304.059	415.322	83.337	88.596	88.975	93.382	73.609	92.607	-8191	255	
1273.033	1	1	0	0	0.18754	0.16628	0.17475	0.13064	0.23491	0.23729	0.14428	0.16485	0.31446	0.18599	0.080903	0.11472	0.064135	0.20905	0.12986	0.21487	-1.5458	-2.4146	-2.3104	-2.475	-2.6167	-2.2458	-2.6292	-2.5604	-2.1625	-2.5375	-2.2646	-2.3229	-2.4583	-2.0604	-2.3229	-2.3854	213.618	291.353	143.667	387.581	101.550	332.121	411.933	245.156	379.177	122.417	110.019	113.357	270.259	415.932	321.197	318.156	0.0018262	0.0015249	0.00064479	665	2.3113e-05	3.8251e-06	945.38	186.94	5.4139e-05	2.1875e-06	327.49	111.25	56.38	18.237	2.2586e-05	46.955	0.014983	0.015242	0.0042277	1476	0.00016464	0.00016481	1805.5	465.9	0.00016378	0.00016545	799.05	294.58	465.02	67.632	0.00016595	158.47	146.626	288.906	174.981	78.553	278.857	168.345	78.459	83.573	81.549	87.543	83.153	88.095	89.803	92.803	240.677	91.800	-8191	255	
1273.153	1	1	0	0	0.13182	0.16789	0.22441	0.097387	0.083352	0.12525	0.095433	0.15263	0.19072	0.02447	0.06995	0.24749	0.21457	0.17169	0.19784	0.079152	-1.9021	-2.6	-2.2375	-2.2333	-2.4437	-2.0646	-2.3063	-2.4854	-1.8646	-2.4542	-2.3125	-2.1604	-2.65	-2.2271	-2.3333	-2.5312	245.110	378.352	75.150	287.950	301.176	351.330	234.344	137.706	331.080	168.101	218.807	147.214	226.432	68.355	297.891	85.816	0.00067035	0.0025205	0.0010962	676.28	1.0047e-05	2.0505e-05	946.31	189.38	4.9577e-05	9.9177e-06	324.81	110.32	56.879	17.981	8.1699e-06	46.444	0.014894	0.015164	0.0042386	1484.6	0.00016508	0.00016551	1815	469.33	0.00016548	0.00016667	800.61	293.77	460.98	66.772	0.00016268	156	249.388	118.654	112.102	78.535	106.632	126.102	78.219	83.665	253.580	415.777	83.559	88.958	89.086	92.435	316.676	92.740	-8191	255	
1273.225	1	1	0	0	0.31739	0.25793	0.11585	0.26907	0.37651	0.32323	0.18807	0.048442	0.31743	0.15111	0.28892	0.45692	0.32299	0.13762	0.2958	0.34053	-1.5604	-2.5083	-2.3542	-2.1625	-2.7958	-2.2979	-2.4375	-2.5833	-2.1792	-2.5396	-2.6562	-2.2896	-2.6583	-2.3604	-2.2792	-2.7417	284.680	291.881	266.920	80.215	150.466	104.158	156.601	80.956	250.658	367.343	268.295	257.303	405.293	268.829	193.798	281.809	0.00075183	0.002793	0.00068479	670.92	2.5018e-05	7.8103e-06	937.87	187.21	1.7097e-05	1.9222e-05	325.5	110.49	57.242	18.459	1.8701e-05	47.166	0.014523	0.014785	0.0041158	1456.3	0.00016061	0.00016137	1783.2	460.82	0.00016129	0.00016294	790.9	291.86	458.31	67.047	0.00016359	157.1	402.906	299.961	164.107	78.323	247.315	197.840	78.650	83.726	142.061	311.738	82.837	88.381	88.831	92.683	272.525	92.576	-8191	255	
1273.321	1	1	0	0	0.108	0.13127	0.085114	0.11164	0.09705	0.19636	0.11584	0.19146	0.16309	0.19507	0.060175	0.1059	0.098129	0.10556	0.11584	0.28401	-1.7521	-2.5167	-2.4292	-2.0083	-2.5167	-2.3667	-2.5458	-2.7146	-2.0458	-2.5646	-2.6958	-2.0292	-2.5312	-2.2562	-2.1625	-2.4771	278.239	252.502	205.473	306.991	224.780	315.146	316.362	308.480	198.506	165.763	76.897	352.751	339.148	98.956	188.566	115.947	0.00078956	0.0013967	7.8914e-05	657.36	1.9571e-05	1.8262e-05	927.2	184.44	3.0727e-05	1.5498e-05	327.33	111.83	57.491	19.058	1.8196e-05	49.109	0.01458	0.014896	0.0041279	1446.9	0.00016185	0.00016315	1785.7	465.33	0.00016523	0.00016766	806.58	299.01	468.11	68.75	0.0001667	160.23	128.651	233.677	207.939	78.800	229.835	307.503	78.347	83.772	88.642	246.706	83.353	88.822	89.073	93.376	126.621	92.759	-8191	255	
1273.442	1	1	0	0	0.19173	0.034954	0.21072	0.21261	0.17559	0.18913	0.29524	0.20664	0.27115	0.059261	0.19441	0.12097	0.11603	0.23753	0.079305	0.11538	-1.825	-2.4813	-2.4208	-1.925	-2.4292	-2.2687	-2.1979	-2.7667	-2.2417	-2.5417	-2.5938	-2.2083	-2.3563	-2.2583	-2.075	-2.6021	129.273	156.429	213.329	255.652	293.292	369.272	353.187	374.099	185.592	244.245	241.420	303.805	222.229	350.296	188.923	407.206	0.0008899	0.0009048	5.0044e-05	645.52	2.2296e-05	2.1448e-05	923.52	186.15	1.9815e-05	2.9114e-05	326.61	113.06	57.845	18.726	2.7987e-05	48.772	0.014829	0.015172	0.0042415	1463.7	0.00016741	0.0001694	1819.7	476.86	0.00017222	0.00017529	831.25	308.78	491.96	71.8	0.0001775	168	175.529	210.983	284.438	79.021	163.291	138.212	78.622	83.954	244.716	378.453	83.232	88.380	89.284	93.157	209.189	92.146	-8191	255	
1273.538	1	1	0	0	0.17685	0.1871	0.097313	0.10586	0.28299	0.098489	0.15347	0.03423	0.12695	0.16477	0.31488	0.12023	0.16557	0.16714	0.1508	0.032307	-1.9458	-2.2812	-2.1562	-2.0604	-2.3875	-2.4708	-2.2625	-2.7479	-2.1792	-2.1562	-2.5417	-2.0167	-2.3937	-2.3521	-2.0979	-2.6417	287.842	219.068	106.213	316.308	160.280	166.217	262.456	400.346	332.781	152.295	352.312	291.910	247.941	140.510	304.571	194.841	0.00048051	0.0015714	0.000581	662.34	5.0906e-05	1.2687e-05	941.42	188.28	1.7771e-05	4.266e-05	327.85	111.96	57.105	17.996	1.6994e-05	46.609	0.015871	0.016275	0.0045153	1528.1	0.00017636	0.0001775	1872.6	488.01	0.00017664	0.00017837	835.49	307.8	493.08	71.063	0.00017589	164.43	111.634	425.401	217.346	78.573	121.018	316.978	78.438	83.786	349.954	265.982	83.245	88.218	89.728	93.177	217.567	92.663	-8191	255	
1273.632	1	1	0	0	0.22798	0.051794	0.26506	0.34545	0.11255	0.057732	0.36227	0.16107	0.13188	0.2251	0.094599	0.13743	0.21112	0.10519	0.026692	0.29462	-1.8083	-2.0708	-2.4813	-2.1167	-2.4021	-2.3563	-2.2188	-2.5792	-2.4292	-2.2479	-2.7208	-2.2125	-2.2792	-2.3917	-1.975	-2.4542	177.028	414.468	260.466	320.540	357.118	205.205	350.686	414.076	72.711	65.985	226.590	285.762	131.046	118.498	243.152	368.935	0.0010761	0.00074967	0.00069763	671.26	5.5354e-05	1.1075e-05	946.35	185.55	3.6809e-05	2.4454e-05	324.83	108.69	55.693	18.035	2.3151e-05	45.589	0.015649	0.015961	0.0044292	1515.2	0.00017227	0.00017268	1844.3	478.28	0.00016974	0.00016981	804.26	292.65	460.42	66.467	0.00016139	153.76	220.458	333.995	162.916	78.404	210.295	384.071	78.320	83.264	389.627	126.791	82.456	88.509	87.811	93.760	360.760	89.873	-8191	255	
1273.728	1	1	0	0	0.077916	0.26708	0.22535	0.22967	0.046272	0.11592	0.21177	0.18766	0.067582	0.25494	0.11256	0.21668	0.26968	0.081283	0.079189	0.15045	-1.8646	-2.0854	-2.55	-2.1792	-2.4292	-2.5396	-2.2542	-2.65	-2.4562	-2.1208	-2.4313	-2.0708	-2.2229	-2.5083	-2.0604	-2.5417	182.884	71.229	350.266	303.108	347.893	156.027	371.541	122.894	293.318	225.481	270.134	308.924	101.867	152.477	213.443	325.244	0.0015145	0.0011332	0.00065994	664.96	9.2227e-06	3.4098e-05	935.99	185.78	1.4059e-05	5.9927e-06	322.02	109.11	55.069	17.874	1.3827e-05	45.97	0.014394	0.014693	0.0040926	1449.4	0.00016021	0.00016078	1774.6	457.63	0.00015894	0.00015914	775.06	283.83	442.63	64.637	0.00015525	150.27	79.958	286.303	94.940	75.797	284.214	239.827	75.318	80.222	368.367	64.942	80.387	85.705	86.350	90.864	299.705	90.586	-8191	255	
1273.825	1	1	0	0	0.17553	0.13357	0.24267	0.16158	0.22536	0.16435	0.049073	0.19627	0.058493	0.059287	0.097752	0.25562	0.23479	0.10847	0.21303	0.17567	-2.1813	-2.2667	-2.8708	-2.4417	-2.3438	-2.4229	-2.2792	-2.5542	-2.5083	-2.1979	-2.5896	-2.1208	-2.0687	-2.675	-2.0667	-2.4542	142.464	331.218	157.516	401.823	181.493	204.584	368.264	304.178	376.860	253.770	241.595	391.711	367.217	186.741	76.199	303.055	0.0011578	0.0017062	0.00061307	668.46	2.8498e-05	1.8735e-05	940.65	186.21	7.0029e-06	3.4235e-05	326.78	109.92	55.727	18.281	1.3385e-05	46.418	0.013941	0.014239	0.0039616	1422.7	0.00015493	0.0001552	1746.7	449.3	0.00015442	0.00015468	763.81	281.13	434.75	64.063	0.00015281	149.12	117.384	201.132	275.884	78.640	243.348	328.396	78.482	83.560	224.527	344.280	83.663	88.252	88.741	93.888	262.806	92.699	-8191	255	
1273.921	1	1	0	0	0.11236	0.07929	0.26641	0.3037	0.063173	0.038255	0.19873	0.21601	0.11158	0.11787	0.22292	0.16364	0.18401	0.15829	0.10977	0.21603	-1.9937	-2.0938	-2.3292	-2.2438	-2.2271	-2.5417	-2.2792	-2.3937	-2.5229	-2.1854	-2.2438	-2.2104	-2.2562	-2.7667	-2.2896	-2.2958	274.873	390.098	407.309	308.633	161.521	143.346	371.607	335.620	101.817	185.330	67.654	201.892	242.071	119.981	140.208	326.549	0.001838	0.0012547	0.00067988	666.66	1.5682e-05	1.7713e-05	938.92	189.36	2.0855e-05	3.0331e-05	324.72	109.24	56.709	18.197	2.1513e-05	45.695	0.013708	0.013932	0.0038737	1411.1	0.00015274	0.00015387	1742.4	451.61	0.00015553	0.00015602	771.22	283.11	442.42	64.865	0.00015619	151.95	391.099	396.769	227.225	78.782	288.187	219.316	78.307	83.350	82.132	79.880	83.001	88.293	87.061	93.430	374.836	92.252	-8191	255	
1274.017	1	1	0	0	0.18486	0.24165	0.19241	0.34787	0.13326	0.055469	0.3686	0.066399	0.12077	0.14258	0.26773	0.41297	0.25722	0.11603	0.15749	0.28571	-2.1854	-2.0104	-2.5146	-2.325	-2.0021	-2.7146	-2.2854	-2.0646	-2.5938	-2.3854	-2.8417	-2.3792	-2.1833	-2.5021	-2.0521	-2.2646	172.680	68.583	389.471	378.480	330.073	143.739	400.350	260.805	238.908	104.904	179.250	348.450	177.798	328.007	143.675	358.112	0.00049321	0.0022549	0.00062488	678.33	5.6832e-06	2.1614e-05	945.14	188.24	2.9857e-05	2.5369e-05	322.78	110.54	56.821	17.551	2.6596e-05	44.997	0.014143	0.014482	0.0040461	1451	0.00015924	0.00016064	1785.4	464.22	0.00016179	0.00016262	790.55	289.81	457.34	66.401	0.00016218	154.91	199.494	233.291	305.084	78.431	402.888	387.981	78.364	83.047	141.222	317.957	82.929	88.071	86.429	93.267	408.218	92.365	-8191	255	
1274.113	1	1	0	0	0.17098	0.14571	0.2311	0.1178	0.18816	0.15896	0.31989	0.28785	0.22384	0.24851	0.1943	0.060666	0.072871	0.42753	0.042819	0.29701	-2.175	-2.1104	-2.4896	-2.4	-2.2125	-2.6271	-2.4979	-2.2021	-2.6375	-2.2854	-2.6917	-2.5187	-1.9375	-2.3208	-2.1646	-2.225	412.496	310.380	230.076	382.356	259.976	176.741	420.706	361.463	146.184	268.352	394.981	149.885	71.319	411.927	313.565	398.748	0.00056333	0.0025506	0.00036203	685.55	1.296e-05	2.4712e-05	957.4	193.55	7.1996e-06	2.1661e-05	324.46	109.6	56.594	17.6	4.975e-05	45.09	0.01461	0.014924	0.0041851	1487.3	0.00016476	0.00016637	1832.8	477.9	0.00016872	0.00017042	818.37	301.33	482.24	69.427	0.00017363	161.82	197.595	78.720	295.738	78.356	376.576	103.520	78.287	82.914	189.122	65.797	83.203	87.479	88.163	91.042	189.279	90.746	-8191	255	
1274.232	1	1	0	0	0.16917	0.14488	0.18094	0.20368	0.17705	0.18081	0.2243	0.14707	0.17364	0.095799	0.19626	0.13692	0.17485	0.11435	0.21537	0.22418	-2.1896	-2.2854	-2.4313	-2.5896	-2.0792	-2.5125	-2.4292	-2.1188	-2.3375	-2.2562	-2.4771	-2.4521	-2.0687	-2.6167	-2.4062	-2.1646	99.456	72.393	84.582	80.265	111.707	168.855	334.616	217.854	250.284	319.931	393.472	415.480	326.651	177.685	367.551	289.356	0.00080793	0.0024194	0.00050557	695.96	2.1814e-05	1.4468e-05	963.34	196.16	2.158e-05	6.1921e-06	328.64	110.88	56.926	18.324	1.9448e-05	45.315	0.015524	0.015791	0.0043886	1530.4	0.0001697	0.00016976	1854	482.27	0.00016793	0.00016859	814.03	298.55	474.35	68.72	0.00017063	160.62	70.289	351.632	158.968	76.532	317.104	225.283	75.751	81.198	193.766	291.588	80.729	85.565	86.287	90.647	328.103	91.483	-8191	255	
1274.328	1	1	0	0	0.22023	0.031404	0.15024	0.31145	0.19817	0.17146	0.14343	0.095146	0.13276	0.15324	0.10025	0.086339	0.31711	0.19099	0.23547	0.18995	-1.9042	-2.2542	-2.1437	-2.4167	-1.8354	-2.4021	-2.3896	-2.0979	-2.5792	-2.275	-2.3021	-2.5792	-1.9396	-2.3312	-2.4458	-1.9521	348.596	102.941	204.976	314.382	156.912	100.595	338.260	327.686	286.587	122.974	77.678	418.173	377.399	340.248	88.123	351.586	0.0021418	0.001246	0.00039899	688.2	5.1532e-05	4.1822e-05	961.88	197.06	1.7283e-05	3.5317e-06	331.48	110.96	59.47	18.299	5.0787e-05	45.476	0.015399	0.015806	0.0044266	1541.5	0.0001728	0.0001746	1885.5	493.4	0.00017457	0.00017626	837.78	307.47	491.03	70.647	0.00017577	163.85	103.181	297.554	255.758	76.681	187.121	224.125	76.627	81.297	306.685	72.828	81.535	87.423	87.681	91.570	114.533	90.667	-8191	255	
1274.424	1	1	0	0	0.15775	0.076937	0.078854	0.32821	0.19636	0.2398	0.20373	0.21044	0.097339	0.34039	0.27636	0.053707	0.043968	0.21394	0.14271	0.07396	-1.9542	-2.1417	-2.3396	-2.6375	-2.1875	-2.4	-2.4417	-2.0938	-2.6021	-2.2833	-2.2812	-2.5604	-2.1708	-2.3021	-2.5312	-2.0542	163.473	353.253	180.037	363.630	362.104	108.799	339.445	100.266	175.188	93.336	351.075	105.158	158.865	187.869	365.031	135.502	0.0013151	0.0022117	0.00050576	687.7	2.8126e-05	6.3515e-06	960.84	195.4	5.1935e-05	1.2129e-05	328.37	110.11	58.215	17.625	3.2073e-05	43.961	0.015788	0.01617	0.004503	1545	0.00017388	0.00017435	1876.4	489.19	0.000172	0.00017311	825.44	301.83	482.25	69.514	0.00017246	159.82	185.817	225.104	92.082	76.702	166.892	123.493	76.230	81.377	157.581	74.428	81.440	86.202	89.151	91.018	265.989	91.803	-8191	255	
1274.520	1	1	0	0	0.1401	0.047434	0.32423	0.22595	0.11023	0.225	0.12906	0.15458	0.25652	0.081439	0.1818	0.11299	0.12589	0.075926	0.10166	0.20094	-2.1396	-2.2062	-2.0458	-2.3667	-1.9312	-2.2979	-2.6875	-2.2458	-2.3833	-2.4646	-2.2104	-2.8229	-2.3812	-2.25	-2.4437	-2.2146	343.296	381.806	152.805	133.551	130.978	299.301	118.656	345.953	387.144	99.326	102.014	411.190	281.760	263.454	371.469	308.267	0.0017357	0.0029824	0.00016338	685.54	1.9131e-05	1.2798e-05	967.4	198.13	2.3006e-05	2.3356e-05	329.85	110.99	57.804	17.67	3.1416e-05	43.852	0.015315	0.015619	0.0043236	1512.3	0.00016679	0.00016735	1840.1	477.56	0.00016544	0.00016694	804.31	293.3	463.94	67.015	0.00016422	154.76	141.220	415.474	190.199	76.039	212.475	385.464	76.841	81.959	125.146	346.788	81.586	86.767	87.332	91.870	373.860	90.894	-8191	255	
1274.616	1	1	0	0	0.1682	0.13198	0.13877	0.078053	0.14744	0.12597	0.27594	0.19174	0.26212	0.027384	0.10103	0.25733	0.13395	0.18359	0.097264	0.13573	-1.9188	-2.2667	-2.0292	-2.7458	-2.2958	-2.3229	-2.65	-2.0896	-2.2333	-2.2833	-1.9833	-2.4292	-2.3583	-2.2458	-2.4792	-2.0792	417.941	75.621	376.653	179.341	163.298	275.223	404.524	77.625	86.180	213.858	139.677	404.281	120.527	73.408	185.679	414.419	0.0026064	0.0022602	0.00051891	685.04	1.1357e-05	3.3714e-05	952.72	195.75	6.6647e-06	3.0405e-05	329.13	111.51	57.677	18.092	3.045e-05	45.489	0.01476	0.015149	0.0042124	1491.4	0.00016521	0.00016669	1830.8	476.44	0.00016575	0.00016687	804.4	294.24	463.53	67.269	0.00016302	154.54	106.588	376.427	226.024	77.031	288.226	164.913	76.738	81.867	274.118	394.019	81.761	86.712	87.736	91.080	212.906	90.682	-8191	255	
1274.737	1	1	0	0	0.17781	0.2582	0.13545	0.25652	0.14607	0.3046	0.049965	0.11499	0.16583	0.17139	0.13198	0.33994	0.18413	0.37819	0.12338	0.19497	-1.9	-2.4271	-2.3333	-2.7854	-2.3604	-2.2687	-2.7188	-2.3792	-2.1521	-2.2583	-1.9792	-2.4042	-2.3604	-2.3667	-2.4417	-2.1083	80.109	304.018	416.772	359.967	384.199	279.423	328.932	360.061	86.495	85.491	376.588	122.259	178.041	99.520	336.638	150.405	0.00074677	0.0019643	0.00043378	667.04	1.3687e-05	6.4361e-05	948.99	192.82	3.6035e-05	3.6642e-06	327.61	111.87	59.178	17.994	2.3452e-05	45.636	0.014524	0.014714	0.0040726	1443.6	0.00015673	0.00015627	1750.4	452.23	0.00015257	0.00015248	761.31	279.61	433.59	63.891	0.0001533	149.17	68.642	291.639	206.166	76.838	142.972	138.118	77.009	82.311	198.958	330.092	81.886	86.659	88.717	91.694	330.434	90.814	-8191	255	
1274.833	1	1	0	0	0.28421	0.21814	0.30099	0.17034	0.27271	0.11377	0.10399	0.13018	0.13323	0.14143	0.25554	0.15379	0.15086	0.32929	0.030982	0.37674	-1.7979	-2.3646	-2.1542	-2.4354	-2.2708	-2.0021	-2.5771	-2.2083	-2.3438	-2.5833	-2.1208	-2.4417	-2.1375	-1.8979	-2.2479	-2.1083	204.313	178.301	233.448	213.475	393.781	346.793	236.117	206.160	242.549	262.582	397.095	230.996	161.669	235.410	117.229	304.955	0.0021009	0.0026976	0.00038397	673.86	4.9511e-05	1.6787e-05	946.65	194.36	3.2881e-05	6.9289e-06	328.42	111.43	57.302	17.99	3.2498e-05	44.713	0.01392	0.014249	0.0039684	1433.4	0.00015626	0.00015681	1766.1	459.79	0.00015701	0.00015767	776.78	285.06	444.92	64.837	0.00015657	150.95	86.840	381.496	243.441	76.242	220.441	173.894	77.417	82.235	92.307	113.172	81.956	86.776	87.372	91.459	136.485	90.906	-8191	255	
1274.929	1	1	0	0	0.13045	0.088579	0.091599	0.23421	0.21662	0.15105	0.067607	0.033485	0.10657	0.25246	0.1168	0.16134	0.39287	0.1571	0.089016	0.053145	-1.6854	-2.4458	-2.0979	-2.6021	-2.2583	-2.1542	-2.6292	-2.2417	-2.0833	-2.4688	-2.3771	-2.4625	-2.3521	-2.0125	-2.3458	-2.1229	312.055	258.646	349.046	334.111	141.907	161.055	382.056	87.041	287.501	113.146	192.473	71.199	148.738	402.215	313.560	291.307	0.0014985	0.0016428	0.00073875	679.4	1.7967e-05	8.1767e-06	959.68	193.54	2.9368e-05	3.7589e-05	327.82	109.65	57.734	17.947	1.5719e-05	44.102	0.014295	0.014681	0.0041171	1479	0.00016389	0.00016496	1823.5	476.76	0.00016618	0.00016649	803.31	294.61	468.55	67.901	0.00016723	158.05	95.673	92.288	387.937	76.498	339.937	284.012	76.793	81.671	83.405	80.627	80.604	86.610	87.648	91.046	120.584	91.038	-8191	255	
1275.024	1	1	0	0	0.16716	0.087828	0.2802	0.19615	0.16934	0.2656	0.239	0.41605	0.23646	0.12219	0.15345	0.19533	0.16875	0.32305	0.15186	0.13012	-1.5271	-2.4	-2.025	-2.35	-2.3896	-2.0312	-2.6021	-2.2812	-1.8937	-2.2729	-1.9688	-2.2313	-2.2833	-1.9312	-2.5958	-2.4271	108.281	236.979	239.079	105.397	94.915	65.346	350.335	378.806	118.819	203.122	388.569	101.058	74.563	393.087	270.001	405.172	0.0018047	0.0055637	0.00090011	682.95	3.1255e-05	1.8501e-05	966.49	194.8	4.2186e-05	1.1645e-05	325.24	110.32	57.424	17.768	3.225e-06	44.743	0.015185	0.015524	0.0043363	1518.3	0.00016971	0.00016966	1851.7	484.8	0.00016953	0.00017064	818.45	301.36	482.69	69.538	0.0001732	161.72	420.894	132.784	222.387	76.097	212.928	401.639	76.531	81.061	324.740	116.790	80.497	85.575	86.858	90.648	129.635	90.379	-8191	255	
1275.120	1	1	0	0	0.30076	0.22215	0.11602	0.113	0.18574	0.21677	0.15176	0.10263	0.28972	0.1375	0.043841	0.12669	0.014435	0.20991	0.33871	0.06935	-1.4688	-2.4208	-1.9417	-2.0917	-2.3854	-1.9542	-2.4625	-2.3063	-2.2313	-2.5396	-2.1958	-2.0792	-2.3812	-1.9625	-2.4437	-2.5438	370.462	405.398	141.086	361.924	314.402	93.293	159.672	68.979	375.482	330.705	413.094	361.498	167.031	111.130	185.860	95.495	0.00051153	0.0053384	0.00021395	685.52	1.5887e-05	4.5256e-05	963.66	196.49	2.7707e-05	1.1054e-05	330.63	110.47	60.251	18.029	3.943e-05	44.748	0.015474	0.015772	0.0043919	1526.2	0.00017123	0.00017131	1861.4	486.82	0.00017008	0.00017136	818.97	300.33	477.48	68.662	0.00016919	158.33	370.752	321.721	294.380	76.596	278.772	214.572	77.264	81.512	220.861	203.272	82.167	86.446	87.299	91.927	287.044	89.974	-8191	255	
1275.216	1	1	0	0	0.15238	0.2913	0.14983	0.19215	0.19439	0.30381	0.21297	0.079979	0.22177	0.060808	0.30806	0.2196	0.17707	0.15119	0.17555	0.089542	-1.7792	-2.5208	-2.3292	-2.3333	-2.6	-2.0021	-2.45	-2.2854	-1.7333	-2.3771	-2.3375	-2.3625	-2.5208	-2.1646	-2.2146	-2.4688	300.082	94.181	245.520	341.069	68.318	157.531	354.710	291.735	356.749	133.903	395.246	413.414	306.361	286.670	364.932	304.099	0.00075873	0.0012071	0.00057867	688.39	3.3029e-05	4.0389e-06	970.59	198.8	3.4014e-05	4.2702e-05	328.76	109.23	57.639	17.645	9.544e-06	43.721	0.015111	0.01543	0.0043201	1514.4	0.00016861	0.0001699	1863.2	486.14	0.00016995	0.00017199	822.8	302.11	482.4	69.555	0.00017372	160.97	136.616	332.785	306.130	76.167	353.827	238.594	75.865	80.967	177.276	355.252	80.763	85.857	84.281	92.498	142.428	90.769	-8191	255	
1275.312	1	1	0	0	0.24257	0.11291	0.1559	0.30693	0.16542	0.074035	0.2349	0.1163	0.17895	0.30528	0.039218	0.20097	0.1416	0.090677	0.23136	0.18159	-1.6833	-2.6896	-2.2667	-2.3354	-2.6583	-2.2125	-2.3688	-2.6146	-2.2229	-2.4625	-2.4458	-2.1854	-2.5417	-2.05	-2.2521	-2.4542	115.910	242.910	163.544	87.864	195.091	344.492	372.911	379.305	275.716	393.550	322.913	405.300	150.468	403.780	119.767	397.833	0.00061308	0.0032916	0.00095306	694.47	2.3425e-05	3.9274e-05	979.23	199.32	2.1648e-05	3.1395e-05	328.23	110.48	57.968	17.922	2.1593e-05	43.013	0.015504	0.015877	0.0044284	1539.6	0.00017175	0.00017295	1884.7	492.64	0.00017271	0.00017473	831.69	304.32	490.74	70.273	0.00017444	160.6	183.109	111.832	156.582	77.090	141.874	269.714	76.689	81.668	343.609	154.688	80.872	86.236	87.380	91.544	158.470	91.005	-8191	255	
1275.408	1	1	0	0	0.30079	0.080309	0.066484	0.037204	0.19136	0.21122	0.31096	0.10007	0.10802	0.18208	0.21538	0.097208	0.13421	0.15889	0.16171	0.1604	-1.5229	-2.2687	-2.3417	-2.1583	-2.6833	-2.4396	-2.4	-2.7854	-2.2167	-2.3396	-2.575	-2.0187	-2.3688	-2.05	-2.1583	-2.7229	170.531	357.968	176.805	242.489	269.989	355.497	226.360	259.083	319.010	117.330	360.515	297.428	194.509	366.343	210.475	134.482	0.0005843	0.0007488	0.00029006	692.52	2.4295e-05	2.7236e-05	969.8	197.53	2.2859e-05	2.7793e-05	328.61	109.11	58.71	17.893	6.0299e-06	43.914	0.015396	0.015684	0.0043593	1520.9	0.00016829	0.00016973	1865.5	486.92	0.00017039	0.00017304	825.43	302.25	486.52	70.063	0.00017414	162.03	374.549	76.281	223.252	77.564	192.249	174.340	76.471	81.976	370.723	335.048	81.355	86.790	86.743	91.583	390.539	91.234	-8191	255	
1275.529	1	1	0	0	0.12175	0.36408	0.20621	0.16711	0.055589	0.20654	0.4391	0.19499	0.051685	0.10177	0.036723	0.17127	0.061859	0.15094	0.28933	0.25245	-1.6354	-2.3146	-2.2979	-2.075	-2.4667	-2.3354	-2.3667	-2.675	-2.2833	-2.3979	-2.6333	-2.0521	-2.4375	-2.0687	-2.0417	-2.5875	237.138	394.632	95.649	363.167	299.797	424.425	364.798	251.363	176.745	187.678	231.848	403.024	248.603	320.505	347.815	358.976	0.0010435	0.0010309	0.00039761	694.54	2.9903e-05	7.8293e-06	980.69	199.35	3.9802e-05	2.515e-05	332.99	110.95	58.102	17.953	1.1061e-05	44.152	0.015661	0.01609	0.0044836	1545.5	0.00017497	0.00017584	1897.3	494.22	0.00017306	0.00017402	827.13	302.09	483.06	69.699	0.00017184	160.22	173.147	314.198	388.082	77.043	171.503	320.124	77.115	82.471	145.576	148.687	81.494	86.041	86.126	91.409	389.501	90.726	-8191	255	
1275.625	1	1	0	0	0.34081	0.14119	0.086033	0.29089	0.15089	0.13196	0.11705	0.072028	0.17293	0.29168	0.19113	0.041156	0.054063	0.076755	0.1224	0.16212	-1.7271	-2.2292	-2.4	-2.1083	-2.3458	-2.1125	-2.0167	-2.7854	-2.1292	-2.1917	-2.5396	-2.2896	-2.2833	-2.2271	-1.8333	-2.575	316.676	178.655	189.109	395.034	94.481	202.282	172.623	392.358	172.084	418.975	80.794	378.151	405.909	284.355	242.668	139.514	0.00063024	0.0034073	0.0005144	696.46	1.0356e-05	2.7752e-05	983.74	200.69	3.83e-05	2.9315e-05	332.93	111.89	58.249	18.092	3.1823e-05	45.185	0.015418	0.01574	0.0043636	1523.3	0.00017006	0.00017079	1870.1	487.64	0.00017021	0.00017166	823.93	301.77	481.58	69.353	0.00016962	158.85	381.389	198.362	285.021	77.341	341.657	282.729	76.973	81.946	188.145	399.979	81.734	86.376	87.460	91.871	106.518	90.908	-8191	255	
1275.721	1	1	0	0	0.068041	0.2246	0.062379	0.28455	0.29052	0.084889	0.34407	0.13655	0.15229	0.15111	0.26198	0.20503	0.035925	0.30086	0.10222	0.19694	-1.6938	-2.2479	-2.5896	-2.1146	-2.2896	-2.425	-2.2417	-2.35	-2.3063	-2.2812	-2.4917	-2.2313	-2.3625	-2.5104	-2.0417	-2.5208	319.285	170.898	316.360	343.066	166.123	226.657	339.383	402.719	193.986	84.190	340.674	100.185	311.474	122.137	358.392	184.193	0.00085682	0.0023449	0.00029966	696.8	2.3987e-05	2.0798e-05	979.11	200.4	5.2265e-05	5.2574e-06	332.27	111.06	61.234	18.117	1.1983e-05	43.946	0.015144	0.015452	0.0042738	1508.6	0.00016656	0.00016717	1854.6	484.04	0.00016701	0.00016833	810.11	296.63	469.86	67.881	0.00016571	156.53	71.622	126.082	267.149	75.787	318.844	114.463	76.227	81.538	234.315	389.075	81.188	86.204	86.206	91.755	204.323	90.079	-8191	255	
1275.817	1	1	0	0	0.061318	0.15805	0.20984	0.060832	0.29963	0.082971	0.27703	0.15162	0.091552	0.1501	0.18202	0.034177	0.1433	0.14805	0.068493	0.37063	-1.8458	-2.0354	-2.6958	-2.2625	-2.1792	-2.4688	-2.0875	-2.3875	-2.3271	-2.1542	-2.6917	-2.2625	-2.4104	-2.3896	-2.0729	-2.5396	366.083	267.073	184.391	403.003	342.978	301.892	356.711	371.340	344.525	307.958	330.130	354.462	165.772	386.025	243.393	359.422	0.0013234	0.0032996	9.7229e-05	696.97	1.1364e-05	2.2105e-05	990.63	200.28	2.5578e-05	3.2473e-05	333.41	110.81	59.585	18.134	2.6214e-05	44.779	0.015024	0.015357	0.0042833	1523.5	0.00016897	0.00016926	1873.1	488.65	0.00016857	0.0001686	814.84	298.4	473.42	68.304	0.0001668	157.39	389.000	356.390	370.657	77.022	91.647	77.928	76.918	81.132	165.929	200.156	81.666	86.219	86.691	91.351	186.780	90.620	-8191	255	
1275.914	1	1	0	0	0.17475	0.20397	0.16981	0.21292	0.040973	0.3005	0.14577	0.20037	0.20647	0.10589	0.2535	0.059265	0.18067	0.098327	0.17456	0.25932	-1.8625	-2.2167	-2.6229	-2.3312	-2.3771	-2.6729	-2.1208	-2.5042	-2.2833	-2.175	-2.5083	-2.3854	-2.2917	-2.7271	-2.3479	-2.1521	397.048	240.175	315.302	251.224	313.057	399.252	409.672	387.999	199.687	336.998	365.959	390.475	362.246	406.554	387.505	284.902	0.001586	0.002667	0.00068781	696.21	5.0765e-06	1.3786e-05	984.46	201.12	3.3106e-05	2.7323e-05	333.54	111.79	59.025	18.67	1.6574e-05	44.831	0.014988	0.015284	0.0042476	1513.4	0.00016716	0.00016757	1865.7	487.81	0.00016921	0.00017054	825.49	302.67	481.54	69.366	0.00017026	159.48	70.450	84.100	139.654	77.079	119.675	333.302	76.938	82.518	183.781	68.800	81.743	86.651	87.413	92.693	220.890	92.024	-8191	255	
1276.010	1	1	0	0	0.077413	0.12001	0.15583	0.11539	0.094553	0.03423	0.18919	0.091138	0.18453	0.21758	0.13416	0.13355	0.26535	0.13267	0.12962	0.18904	-1.8729	-1.9625	-2.5583	-2.2292	-2.0333	-2.5333	-2.1937	-2.175	-2.4917	-1.9917	-2.4771	-2.3833	-2.1583	-2.425	-2.325	-2.3146	416.796	399.398	128.567	292.392	237.512	214.747	314.548	303.759	352.568	398.776	142.855	333.453	268.666	147.800	291.263	146.938	0.00173	0.0025661	0.00045937	692.45	2.4349e-05	1.8621e-05	989.48	202.49	3.7387e-05	2.0495e-05	335.34	111.48	60.359	18.184	2.1477e-05	44.854	0.015159	0.0154	0.0042916	1521.2	0.0001681	0.0001685	1874.7	490.4	0.00016918	0.00017044	824.13	301.9	480.15	69.279	0.00017047	160.21	145.777	180.057	347.455	77.678	379.337	214.176	75.620	81.212	231.167	213.632	80.186	85.138	86.084	90.877	216.308	88.983	-8191	255	
1276.106	1	1	0	0	0.14363	0.12626	0.31625	0.17196	0.07489	0.32579	0.25499	0.28127	0.085387	0.12006	0.35541	0.017765	0.086204	0.20868	0.14084	0.018781	-1.9292	-1.95	-2.4625	-2.3021	-2.3708	-2.6146	-2.0396	-2.3271	-2.4458	-1.9354	-2.3729	-2.3042	-2.1854	-2.3458	-2.2625	-2.3146	266.064	319.952	354.580	319.330	404.090	343.092	381.814	400.474	311.974	75.570	405.475	264.273	256.448	362.157	331.438	304.555	0.0015419	0.0029436	0.00034729	699.49	1.5537e-05	1.6282e-05	997.18	204.29	2.4982e-05	1.353e-05	336.19	112.08	60.325	18.327	1.1708e-05	44.803	0.015329	0.015656	0.004377	1543.3	0.00017076	0.00017158	1898.7	495.9	0.00017123	0.00017268	834.16	305.28	487.69	70.327	0.00017438	162.05	147.832	379.067	110.731	75.894	227.596	84.974	75.790	80.653	148.147	177.591	80.936	85.687	85.643	90.636	201.367	90.298	-8191	255	
1276.225	1	1	0	0	0.1797	0.25544	0.23519	0.11987	0.19408	0.28784	0.19712	0.27455	0.015377	0.21235	0.14994	0.27456	0.18692	0.22434	0.29487	0.11574	-1.8771	-1.9708	-2.4896	-2.5625	-2.1271	-2.6229	-2.4188	-2.1792	-2.4542	-2.1125	-2.5521	-2.3167	-2.0104	-2.7521	-2.4125	-2.0146	371.347	340.048	372.054	73.768	283.418	144.303	324.422	375.014	91.501	89.948	349.282	402.881	83.162	222.167	96.394	113.636	0.0015633	0.0013532	0.00041992	707.65	2.8402e-05	2.7419e-05	999.81	205.25	2.5903e-05	1.2417e-05	334.73	112.41	60.106	18.241	1.6273e-05	44.655	0.015583	0.015918	0.0044444	1558.5	0.00017301	0.00017411	1914.3	500.48	0.00017308	0.00017409	835.93	304.73	485.39	69.973	0.00017285	160.5	109.292	253.850	71.409	76.318	324.209	265.115	75.325	80.547	239.086	90.870	80.567	85.807	86.496	91.184	71.025	90.043	-8191	255	
1276.321	1	1	0	0	0.13705	0.15948	0.16924	0.2337	0.12987	0.16783	0.13	0.04253	0.27889	0.24764	0.24946	0.33589	0.086189	0.22858	0.22177	0.17695	-2.0354	-1.9062	-2.4646	-2.3937	-1.85	-2.4729	-2.4667	-2.1625	-2.3292	-1.9188	-2.2292	-2.3833	-1.8792	-2.3208	-2.2333	-2.2396	321.128	320.136	127.673	70.409	100.519	297.943	268.579	311.008	403.378	312.505	290.410	339.417	383.054	350.883	210.031	360.159	0.0019934	0.0026199	0.00059252	700.2	5.4004e-06	1.6197e-06	989.38	203.49	4.036e-05	1.7162e-05	338.44	113.32	58.384	18.647	2.0342e-05	45.215	0.015364	0.01573	0.0043796	1538.5	0.00017045	0.00017197	1896.7	495.91	0.0001719	0.00017366	833.45	304.6	484.8	70.288	0.0001716	160.65	83.953	125.939	343.227	75.773	119.701	416.198	75.796	81.143	114.546	388.446	81.062	86.487	85.521	90.382	280.675	89.879	-8191	255	
1276.417	1	1	0	0	0.14911	0.094921	0.17432	0.12879	0.17678	0.08611	0.30529	0.12012	0.34315	0.2002	0.16681	0.10147	0.14295	0.050847	0.28172	0.14253	-2.1646	-2.0646	-2.2396	-2.5042	-2.025	-2.4854	-2.4417	-2.0458	-2.2125	-2.1125	-2.3125	-2.4021	-2.2604	-2.425	-2.2271	-2.2438	111.922	218.147	181.240	410.072	207.583	107.208	317.431	337.246	316.984	349.415	365.671	105.944	297.483	252.839	160.650	398.457	0.001625	0.0022645	0.00035806	697.53	1.7519e-05	1.976e-05	986.61	204.39	5.7027e-05	2.212e-05	337.4	114.39	61.408	18.574	7.1509e-06	45.812	0.015348	0.015748	0.0043882	1537	0.0001716	0.00017306	1895.7	494.98	0.00017206	0.00017298	829	303.8	481.96	69.988	0.00017156	161.41	64.777	236.689	94.354	76.250	417.222	341.841	76.138	81.530	182.518	324.633	81.740	87.281	86.193	93.678	185.471	92.011	-8191	255	
1276.513	1	1	0	0	0.021025	0.12578	0.14661	0.24842	0.2542	0.31376	0.037926	0.20755	0.12166	0.088188	0.095582	0.40934	0.11386	0.48938	0.048584	0.13982	-2.0479	-2.1292	-2.2083	-2.6437	-2.1354	-2.3167	-2.5292	-2.2458	-2.2292	-2.4583	-2.3604	-2.5042	-1.9312	-2.4917	-2.4938	-2.1583	276.554	228.317	224.960	379.963	234.270	391.884	233.279	272.561	424.418	87.667	390.795	327.211	171.772	417.315	153.743	389.245	0.00076548	0.00070264	3.0095e-05	690.32	2.3634e-05	1.2813e-05	987.18	201.5	1.7234e-05	1.338e-05	338.38	113.7	61.947	18.916	2.7268e-05	45.906	0.015481	0.015873	0.0044252	1539.6	0.00017276	0.00017316	1893.8	493.68	0.00017156	0.00017278	832.62	306.34	489.03	71.223	0.00017498	164.22	105.108	388.741	323.819	78.471	191.847	281.481	78.034	83.089	190.239	143.441	83.172	88.122	88.034	93.797	331.153	92.132	-8191	255	
1276.609	1	1	0	0	0.13108	0.23646	0.28962	0.22914	0.1604	0.2283	0.11709	0.088469	0.22065	0.28662	0.22646	0.12087	0.19885	0.12748	0.29602	0.091399	-2.2125	-2.2083	-2.1312	-2.7021	-2.2812	-2.4021	-2.725	-2.2854	-2.3333	-2.2854	-2.3958	-2.5167	-2.1833	-2.3229	-2.4271	-2.2104	153.486	421.412	184.789	366.770	368.520	265.306	298.935	291.229	258.001	193.077	381.976	384.093	78.069	134.126	303.950	132.243	0.00081985	0.00086726	0.00083725	695.59	1.4033e-05	3.2974e-05	994.5	204.74	2.5712e-05	1.308e-05	334.93	112.71	60.167	18.5	5.7313e-05	45.219	0.015801	0.016143	0.0044775	1559.3	0.00017569	0.00017625	1915.4	501.67	0.00017581	0.00017674	841.63	309.48	496.87	71.811	0.00017707	165.16	241.946	178.729	72.865	78.417	155.620	353.071	78.053	83.431	180.138	180.215	83.245	87.631	87.099	93.241	176.841	92.666	-8191	255	
1276.706	1	1	0	0	0.19776	0.17636	0.12614	0.27726	0.035681	0.14453	0.25071	0.26767	0.095954	0.088344	0.025209	0.22391	0.096052	0.15987	0.10698	0.18116	-1.95	-2.2062	-2.1063	-2.6021	-2.1125	-2.2854	-2.5	-2.0438	-2.5229	-2.2958	-2.1604	-2.4437	-2.0563	-2.2708	-2.5229	-2.2562	243.204	342.153	287.593	385.078	163.164	305.382	396.784	149.475	252.340	302.045	151.523	376.916	242.102	362.702	248.055	154.586	0.0009623	0.0035721	0.0005338	702.61	2.6055e-05	1.4388e-05	996.65	203.54	1.9307e-05	2.3702e-05	338.94	113.19	59.608	18.744	2.6171e-05	45.578	0.015979	0.016358	0.0045465	1574.1	0.00017838	0.00017911	1932	506.96	0.00017859	0.00017955	849.9	313.78	505.17	72.812	0.0001805	168.19	393.285	116.678	145.935	78.200	198.331	231.097	78.124	83.153	266.972	174.324	80.920	85.925	84.944	90.325	264.439	89.397	-8191	255	
1276.802	1	1	0	0	0.20183	0.13291	0.052345	0.23691	0.20078	0.26648	0.2367	0.21856	0.077088	0.084251	0.27772	0.14846	0.1704	0.049021	0.14966	0.26358	-1.8417	-2.3792	-2.0542	-2.6396	-1.9896	-2.2062	-2.6125	-2.0292	-2.425	-2.4625	-2.0312	-2.4042	-2.1625	-2.2458	-2.7208	-2.1333	415.405	315.350	225.281	353.478	160.823	292.391	414.093	300.801	127.760	399.702	174.255	152.241	154.140	263.469	167.405	355.860	0.0022198	0.0022273	0.00080074	702.9	5.349e-05	1.7482e-05	1004.7	203.22	5.0096e-05	3.5183e-06	335.7	111.86	61.876	18.778	2.739e-05	45.108	0.016322	0.016634	0.0046149	1583.9	0.00017973	0.00017955	1934.5	507.49	0.00017857	0.00017929	849.98	312.86	503.9	72.522	0.00017968	167.2	380.069	366.867	287.566	76.418	165.180	195.031	75.722	81.270	151.494	317.669	80.817	85.981	86.804	92.370	393.462	89.841	-8191	255	
1276.921	1	1	0	0	0.1348	0.066219	0.097775	0.16354	0.16941	0.2285	0.10797	0.1072	0.19156	0.2081	0.32912	0.33422	0.037666	0.17007	0.19752	0.17466	-1.5396	-2.1604	-2.2	-2.7125	-2.2062	-2.15	-2.7917	-2.2208	-2.2229	-2.75	-2.1083	-2.3792	-2.2604	-2.1542	-2.5875	-2.1583	80.484	297.479	313.813	338.392	295.456	337.286	307.016	186.637	363.098	382.559	376.007	291.749	417.375	131.693	343.492	150.700	0.0011405	0.0015231	0.0010168	709.04	5.1206e-06	1.2733e-05	994.75	205.2	3.9846e-05	2.2358e-05	336.79	113.9	60.468	18.665	2.1578e-05	44.889	0.016221	0.016563	0.0046123	1593.4	0.00018019	0.00018041	1944.4	510.76	0.00017929	0.00018019	851.18	312.58	501.12	72.103	0.00017856	165.69	124.954	228.691	282.153	77.155	107.663	198.452	76.895	82.688	254.827	340.636	81.340	87.679	88.123	90.968	177.961	90.476	-8191	255	
1276.994	1	1	0	0	0.20162	0.11147	0.022752	0.28682	0.17893	0.25956	0.18458	0.37856	0.23559	0.054104	0.019684	0.11268	0.048323	0.15794	0.17293	0.33356	-1.6938	-2.4354	-2.0771	-2.4813	-2.3438	-2.0396	-2.8312	-2.1208	-2.0938	-2.6604	-2.2313	-2.3333	-2.4188	-2.1375	-2.3583	-2.2271	144.289	238.186	186.538	152.347	286.604	146.981	337.908	364.940	266.119	374.242	349.889	234.710	77.762	185.292	350.512	254.338	0.0010863	0.0013386	0.00048558	701.91	2.4053e-05	2.8427e-05	989.15	201.87	2.2733e-05	2.0752e-05	334.88	113.69	60.132	18.727	1.9666e-05	46.01	0.016048	0.016375	0.0045651	1574.7	0.00017744	0.00017767	1917.9	503.38	0.00017585	0.00017709	843.92	310.42	497.71	71.949	0.00017853	165.82	380.903	388.532	360.936	76.734	358.202	203.736	76.529	81.767	284.000	211.269	81.922	86.352	85.765	91.946	396.715	90.547	-8191	255	
1277.090	1	1	0	0	0.28665	0.25946	0.060591	0.32158	0.26318	0.10939	0.18731	0.25285	0.10433	0.077294	0.095982	0.30004	0.13272	0.20773	0.18167	0.18083	-1.6125	-2.4583	-2.0812	-2.2125	-2.1896	-2.0938	-2.7271	-2.4583	-2.0292	-2.5979	-2.15	-2.1625	-2.3771	-2.3396	-2.3937	-2.3208	119.644	326.449	345.944	400.195	240.983	356.765	336.938	321.374	85.297	346.304	141.093	207.279	315.217	299.546	99.507	333.160	0.001285	0.0024238	0.0017473	697.25	2.067e-05	1.8619e-05	990.4	202.34	3.281e-05	2.1161e-05	333.39	113.03	61.859	18.917	1.4043e-05	45.013	0.016011	0.016354	0.0045523	1573.1	0.00017832	0.00017998	1937	511.91	0.00018213	0.00018436	867.46	319.57	517.32	74.476	0.00018585	170.95	91.136	148.953	338.713	76.547	418.267	66.057	76.074	81.357	142.626	198.954	81.024	86.275	85.376	90.979	116.652	90.287	-8191	255	
1277.186	1	1	0	0	0.26157	0.37242	0.26085	0.078449	0.28886	0.067436	0.046751	0.1984	0.1586	0.10858	0.12456	0.10865	0.34261	0.033758	0.1141	0.13632	-1.6271	-2.7875	-2.1229	-2.4167	-2.3146	-2.0938	-2.4792	-2.5542	-2.125	-2.3958	-2.2354	-2.325	-2.5312	-2.2146	-2.4146	-2.4437	122.360	176.934	108.151	95.375	78.118	241.001	72.787	366.084	174.790	275.620	356.264	229.872	334.621	102.563	397.795	184.707	0.0020188	0.0011234	0.0004712	700.12	8.4171e-07	5.3142e-06	992.66	204.2	1.7594e-05	1.7556e-05	338.3	113.56	59.565	18.876	4.7062e-05	45.056	0.016663	0.017082	0.0047793	1619	0.0001868	0.0001882	1983.7	523.9	0.00018696	0.00018862	875.01	320.93	519.06	74.52	0.00018582	169.96	63.966	140.224	176.795	77.059	273.305	247.848	76.639	81.827	264.003	199.366	81.209	85.796	87.276	91.526	308.322	89.970	-8191	255	
1277.305	1	1	0	0	0.27468	0.21732	0.1077	0.033327	0.12821	0.24559	0.30966	0.26339	0.34395	0.065702	0.13386	0.16646	0.30146	0.23888	0.13922	0.13134	-1.5271	-2.4229	-1.9771	-2.0625	-2.5438	-2.0583	-2.3667	-2.3229	-2.125	-2.6458	-2.525	-2.1667	-2.4333	-1.9	-2.3521	-2.5292	354.442	125.480	317.530	339.339	234.753	82.392	393.602	411.050	199.044	138.060	332.554	342.215	395.064	339.101	140.478	137.499	0.0015783	0.0045297	0.00038244	705.29	1.485e-05	8.489e-06	998.92	205.43	3.5359e-05	3.9982e-05	337.38	113.37	58.087	18.73	1.3506e-05	44.862	0.016563	0.016938	0.0047062	1604.6	0.00018285	0.00018301	1961.8	516.63	0.00018259	0.00018498	869.02	319.2	518.62	74.509	0.00018571	169.93	88.087	246.390	200.065	75.920	388.146	248.790	75.576	81.191	196.267	142.929	80.634	85.846	84.592	90.890	307.555	90.026	-8191	255	
1277.401	1	1	0	0	0.10901	0.18537	0.25699	0.25676	0.072997	0.28662	0.032512	0.10991	0.19985	0.090997	0.10334	0.17212	0.15219	0.2486	0.23031	0.13517	-1.6104	-2.3563	-2.3479	-2.3333	-2.6458	-2.0938	-2.4021	-2.4625	-2.0979	-2.6	-2.5	-2.0271	-2.5271	-2.3937	-2.3771	-2.5833	298.717	364.308	318.785	405.774	418.097	422.782	221.788	235.191	319.226	267.063	119.651	70.145	135.743	364.331	122.155	84.766	0.00021485	0.0033158	6.0783e-05	715.35	2.6584e-05	1.6295e-05	1011.7	208.11	6.4321e-06	3.8827e-05	342.32	113.51	64.348	19.063	4.9763e-05	45.643	0.016543	0.016859	0.0046819	1610.5	0.00018171	0.00018237	1963.6	516.8	0.00018132	0.00018299	866.97	317.85	515.76	74.143	0.00018364	169.42	372.753	111.814	115.391	76.123	88.233	150.422	75.990	81.366	289.868	423.352	80.644	86.317	85.803	91.421	237.888	91.010	-8191	255	
1277.497	1	1	0	0	0.13836	0.17565	0.13155	0.22209	0.037614	0.20663	0.14535	0.04832	0.23623	0.067567	0.052645	0.055061	0.33012	0.23371	0.076152	0.40005	-1.6771	-2.2854	-2.3271	-2.1854	-2.5271	-2.2625	-2.1833	-2.4396	-2.1583	-2.6437	-2.4708	-1.9979	-2.3042	-2.1021	-2.2271	-2.6479	79.935	360.714	360.707	273.139	350.124	223.789	330.185	170.290	167.447	226.135	70.687	269.824	263.204	417.298	376.984	85.733	0.00033767	0.0033022	0.00094924	712.98	2.2226e-05	3.3725e-05	1018.2	209.02	3.4058e-05	1.4867e-05	345.37	114.64	61.941	19.035	3.1571e-05	45.386	0.01644	0.016758	0.0046507	1608	0.00018131	0.00018229	1970.4	519.35	0.000182	0.00018369	869.72	318.71	514.23	73.814	0.00018223	168.17	144.874	217.707	153.494	76.749	162.188	181.077	76.080	81.780	146.870	179.293	81.093	85.681	84.654	91.385	202.929	90.251	-8191	255	
1277.618	1	1	0	0	0.09503	0.14204	0.12235	0.15285	0.20306	0.68157	0.13921	0.12701	0.16388	0.29654	0.31404	0.094038	0.30825	0.15297	0.18811	0.20703	-1.7396	-2.15	-2.2708	-2.0687	-2.45	-2.2958	-2.4083	-2.6688	-1.9833	-2.2333	-2.4042	-2.1688	-2.3875	-2.1083	-1.8875	-2.4333	238.816	297.475	351.264	360.079	126.338	81.961	121.539	399.782	382.020	204.897	337.094	324.314	393.147	216.305	369.612	227.643	0.0011169	0.001043	0.00082308	733.17	3.3498e-06	3.3126e-05	1031.1	213.89	3.1584e-05	2.201e-05	346.42	116.11	65.552	18.963	4.17e-05	45.618	0.016335	0.016678	0.0046312	1617.8	0.00018096	0.00018131	1983.4	521.74	0.00018071	0.00018265	871.43	319.09	515.15	73.914	0.00018286	168.5	146.493	71.560	162.684	76.332	202.982	217.968	75.832	81.171	232.678	340.847	80.949	85.941	87.382	91.366	195.576	90.238	-8191	255	
1277.690	1	1	0	0	0.11209	0.24043	0.095397	0.15212	0.10507	0.13433	0.17085	0.20586	0.26915	0.14959	0.14678	0.055658	0.21142	0.26938	0.32835	0.15902	-1.4875	-2.1458	-2.35	-2.1	-2.4479	-2.1875	-2.0833	-2.4604	-2.0146	-2.0583	-2.7042	-2.0833	-2.4042	-2.0563	-2.0187	-2.5104	186.982	220.242	417.720	95.126	126.597	125.161	382.177	126.511	135.382	408.412	299.951	374.523	359.257	65.843	314.708	410.564	0.00019452	0.0014007	0.00057409	732.82	1.4431e-05	1.6464e-05	1045.7	214.59	6.1609e-06	1.6768e-05	349.55	114.89	62.859	19.007	3.6567e-05	45.608	0.016304	0.016603	0.0045907	1615.1	0.00017808	0.000178	1968.9	516.02	0.00017743	0.00017933	861.93	314.86	504.72	72.709	0.00017855	166.13	217.325	116.817	315.968	77.127	132.446	144.321	76.638	81.634	280.029	421.312	81.094	86.162	87.896	92.562	126.352	91.846	-8191	255	
1277.786	1	1	0	0	0.27104	0.099273	0.095843	0.10096	0.23284	0.17102	0.077699	0.13959	0.089679	0.17388	0.17038	0.25597	0.07684	0.070818	0.17577	0.057564	-1.9458	-2.3229	-2.4875	-1.9896	-2.45	-2.5604	-2.1146	-2.6813	-2.1417	-2.1958	-2.5354	-2.0417	-2.3625	-2.4208	-1.9917	-2.475	139.788	119.841	240.819	373.410	114.743	366.901	311.818	214.578	352.761	89.191	320.314	231.147	415.701	77.747	399.612	284.746	0.00135	0.0026028	0.0012262	731.54	2.4971e-05	8.3217e-06	1033.8	212.27	5.6425e-05	1.935e-05	348.82	115.08	63.45	19.217	2.4313e-06	45.665	0.01604	0.01638	0.0045661	1605.4	0.00017921	0.00017974	1978.6	518.32	0.00017968	0.00018126	866.88	317.36	508.91	73.378	0.00018112	168.47	167.757	380.752	141.157	76.998	211.333	124.134	75.872	82.246	205.826	82.249	82.002	86.935	86.507	92.785	389.668	91.051	-8191	255	
1277.907	1	1	0	0	0.025898	0.21159	0.17953	0.40052	0.23982	0.18766	0.23042	0.17423	0.037866	0.094531	0.20184	0.1769	0.12145	0.10697	0.1801	0.085489	-1.8625	-2.1688	-2.4542	-2.1958	-2.0979	-2.4333	-2.175	-2.7229	-2.3875	-1.9667	-2.7146	-2.2417	-2.4333	-2.6521	-2.1417	-2.5333	168.727	276.384	410.425	378.440	200.237	92.379	361.939	323.551	70.526	400.661	75.191	310.785	339.504	107.145	264.209	239.817	0.0012802	0.0014991	0.0015879	730.23	7.2148e-06	2.1129e-05	1038.4	214.91	1.7937e-05	2.9029e-05	349.89	116.65	64.84	18.896	1.78e-05	44.856	0.016315	0.016704	0.0046646	1631.6	0.00018308	0.00018421	2010.4	530.85	0.00018583	0.00018803	891.87	326.95	532.77	76.146	0.00019059	174.09	92.267	334.933	177.588	75.957	204.857	165.818	76.016	80.834	362.914	230.854	80.176	85.564	86.153	90.870	209.582	90.572	-8191	255	
1278.001	1	1	0	0	0.12189	0.17864	0.27026	0.2195	0.20302	0.027001	0.14636	0.096833	0.41585	0.25395	0.066755	0.30497	0.20597	0.26672	0.099625	0.2042	-1.8875	-1.9417	-2.3875	-2.1479	-2.1854	-2.4437	-2.1333	-2.5854	-2.1937	-2.0604	-2.5854	-2.1083	-2.2583	-2.4542	-2.0021	-2.5187	369.363	163.855	99.968	331.454	382.533	320.712	229.194	330.524	211.220	201.961	385.407	387.170	413.134	373.929	178.036	76.123	0.0026464	0.0022902	0.00043217	745.17	3.664e-05	2.4712e-05	1047.9	217.57	2.0281e-05	2.1611e-05	351.14	114.46	64.209	19.392	4.3672e-05	44.122	0.01711	0.017478	0.0048614	1675.3	0.000188	0.00018803	2033.8	533.21	0.00018461	0.00018562	881.24	320.74	518.1	74.295	0.00018368	168.81	406.460	162.463	406.899	76.488	182.053	201.396	75.920	80.704	290.186	295.676	80.818	85.613	86.892	91.849	307.609	91.676	-8191	255	
1278.097	1	1	0	0	0.15722	0.19297	0.13693	0.21354	0.34295	0.18661	0.028056	0.072717	0.18722	0.18899	0.35773	0.16963	0.15959	0.097276	0.2172	0.13664	-2.0042	-2.05	-2.5833	-2.2646	-2.3125	-2.5958	-2.4604	-2.4333	-2.5021	-2.3042	-2.675	-2.3396	-1.9667	-2.5479	-1.8729	-2.3104	201.477	219.622	71.691	119.381	262.984	137.601	79.009	295.931	174.083	133.934	403.578	139.916	73.693	115.776	421.651	381.587	0.0015542	0.0021342	0.00077372	743.92	7.1157e-06	7.6485e-06	1042.4	217.22	4.5485e-05	1.9623e-05	350.86	114.91	62.618	19.166	5.9795e-05	43.901	0.016477	0.016789	0.0046744	1642.6	0.00018284	0.00018412	2016	530.37	0.00018365	0.00018465	881.2	319.39	514.78	73.671	0.00018174	166.96	369.717	204.124	360.529	76.548	249.216	78.520	75.602	80.787	247.846	411.859	80.895	86.049	88.620	90.925	172.475	89.759	-8191	255	
1278.218	1	1	0	0	0.4437	0.27069	0.25623	0.19332	0.1617	0.21365	0.13885	0.46738	0.35236	0.29759	0.16109	0.055277	0.27439	0.061268	0.13194	0.17588	-2.1646	-2	-2.6521	-2.4708	-2.1958	-2.3542	-2.2542	-2.0917	-2.4125	-1.9604	-2.5625	-2.3021	-1.8062	-2.3708	-2.05	-2.3688	325.986	310.632	188.903	373.661	116.150	105.095	326.849	380.797	302.748	98.001	190.065	189.568	242.699	231.269	116.157	90.420	0.0013239	0.0012435	0.0013994	744.18	1.7894e-05	2.3447e-05	1052.2	217.61	3.9764e-05	4.0227e-06	351.77	115.52	64.681	19.054	2.2414e-05	44.986	0.016254	0.016606	0.0046166	1623.2	0.00017924	0.0001795	1985.7	518.5	0.00017654	0.00017784	859.38	312.47	500.61	72.271	0.00017816	165.65	394.471	324.186	411.450	76.826	340.193	110.310	75.796	81.199	118.782	71.879	80.800	86.209	87.137	91.222	140.823	90.170	-8191	255	
1278.289	1	1	0	0	0.078632	0.17127	0.10788	0.18083	0.074024	0.084709	0.32242	0.081856	0.085603	0.051711	0.085561	0.25285	0.12232	0.2459	0.08351	0.21002	-2.1167	-2.0583	-2.2458	-2.3396	-2.1188	-2.6125	-2.1271	-2.3729	-2.4875	-2.2562	-2.6354	-2.4208	-1.9583	-2.55	-2.2458	-2.0708	355.068	102.889	401.801	408.606	299.491	333.618	310.087	349.783	129.828	207.552	333.071	191.491	213.744	83.047	106.828	234.445	0.0025737	0.0026918	0.00049829	733.47	9.9303e-06	1.6884e-05	1042.4	215.22	1.3904e-05	3.0477e-05	352.48	115.79	64.589	19.44	1.7965e-05	45.845	0.016147	0.016567	0.0046359	1626.9	0.00018093	0.00018163	1993.7	520.52	0.00017836	0.00017832	860.98	312.31	497.64	71.866	0.0001747	163.61	84.327	313.060	194.606	76.453	384.444	249.492	75.901	81.061	218.643	354.575	80.990	86.127	86.159	91.561	161.583	90.816	-8191	255	
1278.386	1	1	0	0	0.22718	0.14675	0.16009	0.058037	0.31044	0.21252	0.25304	0.1692	0.40609	0.26526	0.24314	0.13328	0.1694	0.093328	0.1172	0.1596	-2.1604	-2.1208	-2.2458	-2.2354	-1.7083	-2.4896	-2.2354	-2.0896	-2.4625	-2.1688	-2.4167	-2.3104	-2.4396	-2.5042	-2.2146	-2.2146	124.722	326.147	179.161	140.773	408.189	406.548	341.176	366.801	370.044	350.796	168.524	88.590	182.356	216.980	214.899	317.020	0.0010622	0.0013873	0.00091352	723.12	1.3185e-05	1.632e-05	1021.3	208.97	2.5991e-05	2.3599e-05	348.63	115.95	65.143	19.803	6.3101e-05	54.075	0.015671	0.015952	0.0044312	1570.6	0.00017341	0.0001749	1939.1	508.27	0.00017645	0.00017845	861.3	316.45	507.49	71.064	0.00019972	192.41	133.350	368.908	127.130	76.824	275.185	279.932	76.573	82.156	101.230	193.042	81.643	86.706	85.853	77.530	373.653	87.131	-8191	255	
1278.482	1	1	0	0	0.16205	0.21776	0.24282	0.095052	0.13639	0.2112	0.2554	0.27508	0.13485	0.078338	0.036056	0.10905	0.1532	0.16976	0.093696	0.092762	-2.1729	-2.0687	-2.3063	-2.3354	-2.0771	-2.5708	-2.5229	-2.1708	-2.7208	-2.3479	-2.475	-2.7	-2.0229	-2.5146	-2.3917	-2.0375	274.528	323.199	309.046	307.804	283.877	353.595	362.122	395.905	329.854	327.744	410.311	324.345	311.713	68.288	312.374	63.023	0.0027319	0.00067256	0.00047426	822.23	3.405e-05	2.1071e-05	1178	241.63	7.9411e-06	4.1351e-05	404.67	136.49	73.342	23.124	1.687e-05	54.908	0.018654	0.018985	0.0053038	1837.1	0.00020815	0.00021033	2275.1	600.75	0.00021374	0.00021739	1026.6	380.34	622.8	90.199	0.00022641	208.95	141.316	360.877	211.993	74.784	383.533	107.841	74.089	79.524	188.061	156.067	78.378	84.109	84.426	89.183	101.009	88.645	-8191	255	
1278.602	1	1	0	131072	0.098914	0.16805	0.17191	0.27818	0.062527	0.054844	0.27113	0.13698	0.058722	0.18597	0.049104	0.07809	0.25374	0.29688	0.26539	0.042863	-2.1521	-2.0938	-2.0312	-2.5854	-2.1042	-2.6833	-2.6896	-2.2083	-2.6583	-2.4604	-2.5229	-2.6854	-2.1083	-2.4125	-2.2333	-2.0208	361.535	174.494	126.012	373.766	191.883	145.055	339.747	364.543	400.465	82.839	102.621	72.805	343.323	74.100	100.673	262.126	0.0014571	0.0022291	0.00042084	815.18	3.3064e-05	1.7868e-05	1182.8	244.4	5.1043e-05	3.3882e-05	405.93	136.94	74.329	23.456	1.2896e-05	55.751	0.020726	0.021261	0.0059682	1963.6	0.00023546	0.00023701	2414.5	643.18	0.00023607	0.00023689	1078.4	398.4	654.86	94.005	0.00023815	217.1	151.330	115.634	260.835	75.499	209.396	123.418	75.092	79.490	283.755	321.780	79.518	84.446	84.634	90.641	295.303	88.626	-8191	255	
1278.698	1	1	0	131072	0.16945	0.25395	0.20093	0.26403	0.16076	0.18154	0.43307	0.12391	0.25168	0.11475	0.23082	0.11499	0.15297	0.22315	0.16448	0.25282	-2.1417	-2.3271	-2.1875	-2.7792	-2.3729	-2.3771	-2.6229	-2.2604	-2.6125	-2.3	-2.0729	-2.6021	-2.1	-2.425	-2.3958	-2.4	334.112	416.923	65.239	61.970	318.755	414.737	396.915	103.980	332.018	236.606	80.143	341.584	342.180	377.156	137.467	223.028	0.0018717	0.0015064	0.00096648	815.93	1.9523e-05	4.0825e-05	1172.9	241.89	1.4548e-05	3.1496e-05	407.74	137.2	75.234	23.433	4.5567e-05	55.881	0.02155	0.022089	0.0061709	1995.5	0.000242	0.00024396	2452.8	657.63	0.00024636	0.00024865	1118.9	414.44	687.7	97.982	0.00024921	224.51	379.921	245.285	93.068	74.819	362.075	264.049	74.323	78.913	183.774	382.333	78.603	83.938	85.557	88.689	286.651	87.952	-8191	255	
1278.795	1	1	0	131072	0.31021	0.056182	0.13513	0.21549	0.13308	0.27915	0.20253	0.39274	0.10288	0.34454	0.20849	0.18388	0.12059	0.28457	0.094931	0.104	-2.1479	-2.5312	-2.2458	-2.5792	-2.3479	-2.3312	-2.6333	-2.0458	-2.4354	-2.2438	-2.1875	-2.3479	-2.0667	-2.0812	-2.4271	-2.05	394.272	324.310	216.057	396.475	120.134	216.381	104.379	413.177	363.550	225.367	283.419	314.179	369.429	243.742	334.436	139.417	0.00079796	0.0035645	0.00058707	814.03	2.9111e-05	1.5347e-05	1131.1	242.75	7.1292e-05	4.6629e-05	409.95	139.66	73.794	23.56	5.2054e-05	57.192	0.022388	0.022931	0.0064302	2052.6	0.0002545	0.00025842	2528.6	686.02	0.00026286	0.00026604	1171.2	434.08	726.7	102.29	0.00026236	231.95	227.682	374.038	351.611	74.559	106.503	386.517	74.128	79.206	218.640	103.023	78.679	83.549	85.347	89.348	71.230	88.265	-8191	255	
1278.891	1	1	0	131072	0.1006	0.14754	0.35904	0.10786	0.20543	0.27065	0.11128	0.11695	0.18845	0.36286	0.061709	0.16737	0.1	0.079152	0.16654	0.16954	-1.7771	-2.1979	-2.0062	-2.4458	-2.2354	-2.25	-2.5917	-2.2625	-2.2167	-2.3896	-2.2458	-2.5583	-2.2062	-2.3417	-2.4771	-2.0125	98.074	105.134	340.274	213.886	223.344	305.077	205.304	366.718	194.468	409.530	383.707	244.603	357.917	77.726	93.684	351.362	0.00085693	0.0037974	0.00054669	808.99	1.4397e-05	3.552e-05	1162.7	239.48	5.9663e-05	2.1575e-05	398.48	132.93	70.757	22.942	4.6988e-05	54.37	0.023151	0.023317	0.0064365	2029.2	0.00024585	0.00024516	2436.4	644.99	0.00023807	0.00023819	1073.2	393.48	643.14	91.399	0.00022813	206.75	101.961	118.400	133.460	74.385	143.463	101.335	74.039	79.347	164.770	355.354	78.743	83.837	83.987	89.602	118.895	88.567	-8191	255	
1278.987	1	1	0	0	0.3354	0.024572	0.093904	0.23876	0.09923	0.13521	0.21691	0.17556	0.13221	0.10096	0.22637	0.26942	0.03363	0.068489	0.16488	0.2638	-1.7333	-2.1354	-1.9062	-2.4896	-2.2896	-2.1167	-2.5896	-2.1958	-2.1333	-2.4833	-2.0187	-2.5958	-2.1792	-2.0958	-2.7354	-2.2146	208.062	350.238	98.105	402.062	256.464	274.462	292.873	370.611	371.545	227.459	129.170	375.303	195.390	114.419	113.072	393.461	0.0014037	0.0033222	0.00074777	814.9	5.5579e-05	5.3632e-06	1180.4	240.8	3.0695e-05	4.0549e-05	398.95	132.17	74.801	21.898	2.6474e-05	52.698	0.02024	0.020674	0.0057212	1897.7	0.00022019	0.00022025	2304.5	601.61	0.00021096	0.00021071	989.35	359.99	577.2	83.391	0.00020457	189.65	103.171	63.082	218.320	74.291	180.642	258.212	73.711	78.823	261.144	213.551	78.613	83.217	82.707	89.178	172.543	88.468	-8191	255	
1279.081	1	1	0	0	0.21395	0.10122	0.032835	0.12372	0.097551	0.10128	0.22124	0.12032	0.26816	0.21375	0.22856	0.12473	0.097327	0.27601	0.16749	0.30645	-1.7208	-2.25	-1.7625	-2.4625	-2.2729	-1.9083	-2.7687	-2.3	-2.0271	-2.2646	-2.0271	-2.3646	-2.1771	-1.9125	-2.5292	-2.075	260.459	122.509	354.520	213.261	172.778	285.860	357.148	165.567	117.636	366.684	325.649	224.998	333.794	402.277	177.604	74.573	0.0013389	0.0016157	0.00020291	833.88	1.9554e-05	1.3558e-05	1190.8	246.97	4.0516e-05	4.1547e-05	397.4	133.07	72.784	22.072	1.2465e-05	52.028	0.018339	0.018736	0.0052221	1819.1	0.00020329	0.00020413	2243.1	585.41	0.00020258	0.0002042	979.66	357.73	574.44	82.885	0.00020309	188.97	86.044	142.556	374.827	74.767	185.096	118.843	74.675	79.837	209.625	227.324	79.111	84.544	84.097	89.666	95.251	90.018	-8191	255	
1279.179	1	1	0	0	0.22824	0.086607	0.1905	0.18206	0.22624	0.068883	0.04187	0.11912	0.087074	0.162	0.22882	0.13044	0.11506	0.17437	0.19365	0.30992	-1.7104	-2.2146	-1.9104	-2.3146	-2.2313	-1.9021	-2.4375	-2.2458	-2.2354	-2.5771	-2.3458	-2.3333	-2.3917	-1.9104	-2.3896	-2.1937	113.858	296.394	240.941	82.191	151.614	142.331	94.041	192.807	386.515	213.035	360.693	125.377	296.244	340.141	115.060	343.279	0.00065949	0.0017269	0.00044759	847.88	3.5676e-05	2.1315e-05	1213.4	249.34	3.0481e-05	2.1158e-05	408.17	134.65	72.81	22.826	1.6076e-05	53.017	0.018287	0.018675	0.0051879	1829.6	0.00020317	0.00020358	2257	589.08	0.0002017	0.00020316	980.25	357.36	570.18	82.537	0.00020169	188.34	320.737	281.600	198.577	75.502	142.869	384.310	76.770	81.888	359.240	74.218	81.179	86.336	88.211	92.477	228.326	90.569	-8191	255	
#DATA ENDS
