BOXY.EXE: ISS Imagent and Oximeter Data Acquisition Program Version 0.80
Ascii Record File

#ACQ INFORMATION
2  Detector Channels 
16  External MUX Channels 
1  Auxiliary Channels 
5000  Waveform (CCF) Frequency (Hz)
1  Waveforms Skipped 
30  Waveforms Averaged 
1  Cycles Averaged 
16  Acquisitions per Waveform 
10.0806  Updata Rate (Hz) 

#FILE INFORMATION
TRUE -- External MUX Channel results are PARSED.
FALSE -- AC DC and Phase are NOT grouped.
TRUE -- Companion Program Settings File CREATED.
FALSE -- AC data not excluded
FALSE -- DC data not excluded
FALSE -- Phase data not excluded
FALSE -- Auxillary Chn. data not excluded
Tab delimiters

#CALIBRATION STATE
TRUE -- Waveform Calibration Values APPLIED.


#AUX CALIBRATION VALUES
Val Type	aux-1	

Term	1.0000e+00	
Factor	0.0000e+00	


#WF CALIBRATION VALUES
A = Detector Channel
Val Type	A-AC1	A-AC2	A-AC3	A-AC4	A-AC5	A-AC6	A-AC7	A-AC8	A-AC9	A-AC10	A-AC11	A-AC12	A-AC13	A-AC14	A-AC15	A-AC16	A-DC1	A-DC2	A-DC3	A-DC4	A-DC5	A-DC6	A-DC7	A-DC8	A-DC9	A-DC10	A-DC11	A-DC12	A-DC13	A-DC14	A-DC15	A-DC16	A-Ph1	A-Ph2	A-Ph3	A-Ph4	A-Ph5	A-Ph6	A-Ph7	A-Ph8	A-Ph9	A-Ph10	A-Ph11	A-Ph12	A-Ph13	A-Ph14	A-Ph15	A-Ph16	

Term	0.00000e+00	0.00000e+00	0.00000e+00	0.00000e+00	0.00000e+00	0.00000e+00	0.00000e+00	0.00000e+00	0.00000e+00	0.00000e+00	0.00000e+00	0.00000e+00	0.00000e+00	0.00000e+00	0.00000e+00	0.00000e+00	0.00000e+00	0.00000e+00	0.00000e+00	0.00000e+00	0.00000e+00	0.00000e+00	0.00000e+00	0.00000e+00	0.00000e+00	0.00000e+00	0.00000e+00	0.00000e+00	0.00000e+00	0.00000e+00	0.00000e+00	0.00000e+00	0.00000e+00	0.00000e+00	0.00000e+00	0.00000e+00	0.00000e+00	0.00000e+00	0.00000e+00	0.00000e+00	0.00000e+00	0.00000e+00	0.00000e+00	0.00000e+00	0.00000e+00	0.00000e+00	0.00000e+00	0.00000e+00	
Factor	1.00000e+00	1.00000e+00	1.00000e+00	1.00000e+00	1.00000e+00	1.00000e+00	1.00000e+00	1.00000e+00	1.00000e+00	1.00000e+00	1.00000e+00	1.00000e+00	1.00000e+00	1.00000e+00	1.00000e+00	1.00000e+00	1.00000e+00	1.00000e+00	1.00000e+00	1.00000e+00	1.00000e+00	1.00000e+00	1.00000e+00	1.00000e+00	1.00000e+00	1.00000e+00	1.00000e+00	1.00000e+00	1.00000e+00	1.00000e+00	1.00000e+00	1.00000e+00	X	X	X	X	X	X	X	X	X	X	X	X	X	X	X	X	

B = Detector Channel
Val Type	B-AC1	B-AC2	B-AC3	B-AC4	B-AC5	B-AC6	B-AC7	B-AC8	B-AC9	B-AC10	B-AC11	B-AC12	B-AC13	B-AC14	B-AC15	B-AC16	B-DC1	B-DC2	B-DC3	B-DC4	B-DC5	B-DC6	B-DC7	B-DC8	B-DC9	B-DC10	B-DC11	B-DC12	B-DC13	B-DC14	B-DC15	B-DC16	B-Ph1	B-Ph2	B-Ph3	B-Ph4	B-Ph5	B-Ph6	B-Ph7	B-Ph8	B-Ph9	B-Ph10	B-Ph11	B-Ph12	B-Ph13	B-Ph14	B-Ph15	B-Ph16	

Term	0.00000e+00	0.00000e+00	0.00000e+00	0.00000e+00	0.00000e+00	0.00000e+00	0.00000e+00	0.00000e+00	0.00000e+00	0.00000e+00	0.00000e+00	0.00000e+00	0.00000e+00	0.00000e+00	0.00000e+00	0.00000e+00	0.00000e+00	0.00000e+00	0.00000e+00	0.00000e+00	0.00000e+00	0.00000e+00	0.00000e+00	0.00000e+00	0.00000e+00	0.00000e+00	0.00000e+00	0.00000e+00	0.00000e+00	0.00000e+00	0.00000e+00	0.00000e+00	-2.60428e+02	-1.10120e+02	-1.35771e+02	-1.82358e+02	-8.82290e+01	-8.01576e+01	-1.56915e+02	-1.62015e+02	-1.40806e+02	-6.49328e+01	-1.82532e+02	-1.70017e+02	-1.83467e+02	-1.76494e+02	-8.40987e+01	-1.49052e+02	
Factor	5.47524e-05	1.28517e-04	3.34994e-05	1.65911e-01	1.40518e-06	1.31051e-06	1.63629e-01	5.02796e-02	1.91554e-06	1.41169e-06	2.54980e-01	2.65488e-02	4.71564e-02	8.70794e-03	1.47822e-06	1.22069e-02	1.50795e-06	1.56019e-06	4.34946e-07	8.49721e-02	1.70309e-08	1.70813e-08	7.89962e-02	2.58188e-02	1.70192e-08	1.70604e-08	1.17178e-01	1.31686e-02	2.32700e-02	4.46970e-03	1.70381e-08	6.05392e-03	X	X	X	X	X	X	X	X	X	X	X	X	X	X	X	X	



#DISTANCE SETTINGS
A = Detector Channel
A-1	A-2	A-3	A-4	A-5	A-6	A-7	A-8	A-9	A-10	A-11	A-12	A-13	A-14	A-15	A-16	

2.5000e+00	3.0000e+00	2.5000e+00	3.0000e+00	2.0000e+00	3.0000e+00	1.5000e+00	3.0000e+00	3.0000e+00	3.0000e+00	3.0000e+00	3.0000e+00	3.0000e+00	3.0000e+00	1.5000e+00	3.0000e+00	

B = Detector Channel
B-1	B-2	B-3	B-4	B-5	B-6	B-7	B-8	B-9	B-10	B-11	B-12	B-13	B-14	B-15	B-16	

1.0000e+01	1.0000e+01	1.0000e+01	1.4400e+00	1.0000e+01	1.0000e+01	1.5100e+00	1.9400e+00	1.0000e+01	1.0000e+01	1.9900e+00	2.4900e+00	2.4100e+00	2.9000e+00	1.0000e+01	2.9800e+00	




#DATA BEGINS
time	group	step	mark	flag	A-AC1	A-AC2	A-AC3	A-AC4	A-AC5	A-AC6	A-AC7	A-AC8	A-AC9	A-AC10	A-AC11	A-AC12	A-AC13	A-AC14	A-AC15	A-AC16	A-DC1	A-DC2	A-DC3	A-DC4	A-DC5	A-DC6	A-DC7	A-DC8	A-DC9	A-DC10	A-DC11	A-DC12	A-DC13	A-DC14	A-DC15	A-DC16	A-Ph1	A-Ph2	A-Ph3	A-Ph4	A-Ph5	A-Ph6	A-Ph7	A-Ph8	A-Ph9	A-Ph10	A-Ph11	A-Ph12	A-Ph13	A-Ph14	A-Ph15	A-Ph16	B-AC1	B-AC2	B-AC3	B-AC4	B-AC5	B-AC6	B-AC7	B-AC8	B-AC9	B-AC10	B-AC11	B-AC12	B-AC13	B-AC14	B-AC15	B-AC16	B-DC1	B-DC2	B-DC3	B-DC4	B-DC5	B-DC6	B-DC7	B-DC8	B-DC9	B-DC10	B-DC11	B-DC12	B-DC13	B-DC14	B-DC15	B-DC16	B-Ph1	B-Ph2	B-Ph3	B-Ph4	B-Ph5	B-Ph6	B-Ph7	B-Ph8	B-Ph9	B-Ph10	B-Ph11	B-Ph12	B-Ph13	B-Ph14	B-Ph15	B-Ph16	aux-1	digaux	

1455.972	1	1	0	256	0.26554	0.13602	0.17905	0.12587	0.21096	0.16147	0.17625	0.30781	0.20126	0.15986	0.13174	0.13968	0.096704	0.1449	0.022887	0.2413	-2.3854	-2.0854	-3.2729	-2.4437	-2.4729	-3.2604	-2.2438	-3.1625	-2.7854	-2.1646	-3.3812	-2.4104	-2.5667	-3.4375	-2.0354	-3.0375	257.838	76.403	19.736	172.066	226.396	212.419	234.966	283.423	251.059	11.592	317.095	340.797	337.374	352.593	206.981	293.061	0.0014552	0.00053921	0.0003062	845.14	1.093e-05	6.0242e-06	915.27	323.67	1.0053e-05	2.8019e-06	415.82	171.82	133.33	62.865	5.9486e-06	87.089	0.0017687	0.001789	0.00050074	952.92	1.965e-05	1.9584e-05	1016.9	358.04	1.9672e-05	1.9573e-05	524.13	189.36	156.8	69.226	1.9689e-05	95.297	14.644	98.570	112.628	15.824	159.905	145.549	15.278	21.215	34.141	214.145	19.425	24.303	26.377	30.678	274.242	28.602	-8191	255	
1456.068	1	1	0	0	0.16115	0.195	0.20911	0.13692	0.066652	0.19135	0.26563	0.36879	0.17498	0.28044	0.073025	0.15866	0.045735	0.21012	0.35248	0.36842	-2.6688	-1.9271	-3.1333	-2.5042	-2.3688	-3.3438	-2.1958	-3.0229	-2.9542	-2.0604	-3.2583	-2.5479	-2.3771	-3.4062	-2.1375	-2.9313	78.447	73.073	249.999	69.232	18.016	37.140	322.085	337.254	177.393	290.541	192.790	291.473	11.477	9.339	49.548	351.883	0.0013457	0.001183	0.00030551	842.65	1.4639e-05	8.8423e-06	922.94	323.77	4.1922e-06	4.5444e-06	414.34	173.59	134.15	63.271	4.3754e-06	87.918	0.001777	0.0017985	0.0005048	955.09	1.9772e-05	1.9698e-05	1023.8	358.82	1.9596e-05	1.9634e-05	526.12	190.64	156.9	69.569	1.9544e-05	95.688	3.771	112.529	120.240	15.610	110.377	167.044	15.202	21.113	83.162	121.216	19.505	24.258	26.022	30.701	148.099	28.737	-8191	255	
1456.188	1	1	0	0	0.066714	0.20712	0.37126	0.27348	0.29876	0.079081	0.084645	0.29163	0.30187	0.27594	0.10451	0.18118	0.40094	0.31263	0.15333	0.25543	-2.8229	-2.1604	-3.1042	-2.8833	-2.2	-3.1854	-2.4104	-2.7979	-3.1271	-2.1292	-3.1771	-2.8229	-2.2313	-3.2646	-2.1688	-2.6125	207.700	81.620	245.647	329.100	210.428	177.232	123.235	276.124	82.631	287.836	335.147	323.623	307.603	346.196	242.648	325.310	0.0014442	0.00045805	0.00012313	845.49	1.2743e-05	9.7463e-06	912.07	323.46	1.2676e-05	6.6358e-06	415.77	171.67	133.89	62.828	1.2527e-05	87.087	0.0017519	0.0017846	0.00049827	952.55	1.9432e-05	1.9388e-05	1017.1	357.69	1.9402e-05	1.9454e-05	522.43	188.66	156.06	68.956	1.9437e-05	94.679	8.090	100.221	220.650	15.792	130.555	249.802	15.337	21.217	89.250	108.031	19.685	24.270	26.056	30.825	115.064	28.685	-8191	255	
1456.260	1	1	0	0	0.10527	0.39768	0.093753	0.028486	0.17612	0.082019	0.17186	0.27174	0.24617	0.23321	0.10004	0.30382	0.11319	0.29815	0.33232	0.37686	-2.9042	-2.0271	-2.8854	-2.9958	-2.1333	-3.3563	-2.3854	-2.4146	-3.2562	-2.075	-2.9375	-2.9437	-2.2042	-3.1708	-2.4875	-2.325	66.336	72.702	290.352	273.467	233.738	211.458	333.893	317.582	279.527	96.497	41.077	328.842	11.181	347.347	226.060	259.461	0.0015606	0.0007146	0.00027249	842.68	3.1512e-06	1.5777e-05	913.49	323.12	1.0885e-05	4.801e-06	410.81	171.96	133.62	63.151	1.4369e-05	87.06	0.0017581	0.0017728	0.00049984	950.56	1.9367e-05	1.947e-05	1015.5	357.6	1.9486e-05	1.9635e-05	522.46	188.91	156.4	69.364	1.9566e-05	95.045	5.126	164.270	103.481	15.750	165.402	136.194	15.134	21.122	39.520	94.910	19.837	24.526	26.151	30.951	134.835	28.678	-8191	255	
1456.356	1	1	0	0	0.05776	0.11878	0.041485	0.16667	0.071587	0.21952	0.033188	0.18027	0.14533	0.20429	0.11271	0.154	0.17973	0.086763	0.17905	0.19062	-3.1542	-2.0583	-2.8271	-3.1083	-2.0438	-3.2562	-2.575	-2.4292	-3.225	-2.2062	-2.8458	-3.3833	-2.1813	-3.2313	-2.6	-2.4458	109.556	20.836	150.670	81.896	256.767	302.350	357.731	185.891	71.556	144.735	321.660	351.441	329.853	303.208	200.332	300.972	0.0015326	0.00057122	0.00010307	845.28	4.6783e-06	6.7329e-06	915.37	323.85	2.9169e-06	9.5754e-06	411.15	172.95	133.88	63.526	2.1685e-06	87.868	0.0017563	0.001786	0.00049962	952.65	1.9493e-05	1.9677e-05	1017.9	358.49	1.9517e-05	1.9747e-05	523.89	190.18	157.25	69.83	1.9549e-05	95.849	8.836	5.878	101.733	16.020	38.123	174.898	15.478	21.433	128.497	187.803	20.258	24.767	26.594	31.022	133.205	29.192	-8191	255	
1456.477	1	1	0	0	0.12448	0.2414	0.015333	0.099202	0.060069	0.081034	0.19277	0.10158	0.055935	0.17679	0.24826	0.20304	0.11087	0.089337	0.14135	0.27232	-2.8875	-2.3312	-2.4583	-3.1646	-2.1521	-3.0438	-3.0375	-2.4062	-3.1437	-2.2458	-2.5875	-3.3375	-2.1417	-3.0521	-2.8563	-2.2833	247.060	201.662	87.247	283.786	165.021	236.472	292.149	289.625	272.431	139.068	277.824	8.034	184.585	268.500	154.997	275.865	0.0015394	0.00044119	8.4727e-05	846.96	5.6093e-06	7.9923e-06	915.85	325.06	1.5162e-05	5.4713e-06	416.88	174.11	134.87	63.909	7.3399e-06	88.203	0.0017644	0.0018	0.00050265	954.98	1.9485e-05	1.9657e-05	1021.4	359.39	1.9594e-05	1.9799e-05	527.37	191.21	158.13	70.151	1.9675e-05	96.421	22.821	172.393	207.570	16.453	167.618	165.723	15.936	21.922	101.433	112.860	20.371	24.926	26.638	31.449	65.083	29.172	-8191	255	
1456.571	1	1	0	0	0.089738	0.13073	0.27636	0.062459	0.026565	0.10772	0.21924	0.19837	0.17017	0.16442	0.39813	0.33286	0.34193	0.12194	0.16361	0.33939	-2.9813	-2.3854	-2.4542	-3.4	-2.0458	-2.9542	-3.1937	-2.1729	-3.2375	-2.6833	-2.2271	-3.3	-2.4167	-2.9979	-3.1	-2.3458	283.731	98.866	245.311	128.416	131.621	268.853	266.934	355.949	130.054	76.424	249.219	289.360	26.684	257.004	53.150	293.092	0.0011785	0.00088133	0.00014265	850.1	3.54e-06	8.5698e-06	926.29	326.26	6.3787e-06	2.8709e-06	415.57	174.77	134.87	63.833	4.3102e-06	88.212	0.0017829	0.0018267	0.00050601	957.4	1.992e-05	2.0028e-05	1027.2	361.61	1.9959e-05	1.9976e-05	528.65	192.03	158.64	70.27	1.9859e-05	96.386	34.298	216.855	361.712	16.606	104.541	181.099	15.654	21.679	189.792	43.744	20.464	24.655	26.393	31.297	181.378	28.842	-8191	255	
1456.667	1	1	0	0	0.18549	0.11109	0.15771	0.073829	0.067992	0.078142	0.19511	0.11411	0.14921	0.26441	0.044684	0.11232	0.15507	0.020631	0.11726	0.16139	-2.9813	-2.6854	-2.3	-3.3063	-2.3438	-2.5917	-3.4479	-2.2792	-3.1354	-2.6083	-2.3104	-3.3792	-2.3625	-2.725	-3.1521	-2.3646	330.537	202.871	259.602	331.421	297.988	337.642	112.140	103.603	139.551	346.541	31.909	211.205	199.074	42.125	348.585	268.229	0.0017629	0.0010407	0.00026377	847.12	1.0477e-05	1.6051e-06	914.79	325.06	2.293e-05	1.2629e-05	415.03	172.96	134.49	63.524	1.182e-05	87.305	0.0018031	0.0018144	0.00050438	956.1	1.9982e-05	1.9923e-05	1021.3	360.25	1.9875e-05	1.9788e-05	526.81	190.59	158.01	69.812	1.9643e-05	95.407	18.100	140.936	95.706	15.906	125.376	57.201	15.233	21.324	119.604	24.639	19.876	24.367	25.996	30.863	189.166	28.776	-8191	255	
1456.765	1	1	0	0	0.13408	0.12879	0.10161	0.17675	0.21627	0.15793	0.12469	0.18899	0.052448	0.060741	0.24515	0.29288	0.24433	0.32663	0.050515	0.17743	-2.8042	-2.8312	-2.1167	-3.4604	-2.4854	-2.4188	-3.2833	-2.1646	-2.9375	-2.9333	-2.0458	-3.3375	-2.3875	-2.6708	-3.2729	-2.0479	332.602	309.456	126.007	61.533	157.213	252.050	309.777	19.721	212.990	341.270	317.815	102.520	24.122	34.283	10.272	278.172	0.0014889	0.00062821	0.000222	844.19	6.5237e-06	4.8713e-06	916.27	324.44	1.7247e-05	2.5124e-06	411.32	172.97	134.99	63.676	6.0214e-06	87.736	0.0017885	0.0018059	0.00050222	954.81	1.9736e-05	1.9637e-05	1018.3	359.58	1.9683e-05	1.9635e-05	524.3	190.3	157.84	69.907	1.9591e-05	95.61	10.876	110.335	322.896	16.237	67.830	15.418	15.498	21.606	79.133	172.089	20.076	24.549	26.816	31.118	143.072	28.952	-8191	255	
1456.860	1	1	0	0	0.37442	0.15918	0.094092	0.06981	0.18803	0.22154	0.17338	0.43365	0.13781	0.15131	0.044288	0.14378	0.13282	0.30034	0.15357	0.098088	-2.4667	-2.9583	-2.0083	-3.1875	-2.4708	-2.3354	-3.2271	-2.3875	-2.8521	-2.9667	-2.1688	-3.3021	-2.8583	-2.3958	-3.3229	-2.4604	261.848	303.403	55.332	5.983	88.893	17.558	10.267	332.507	214.609	337.739	330.367	283.186	59.890	324.210	110.533	311.203	0.0015893	0.0008637	3.762e-05	841.82	2.7453e-06	1.6439e-05	915.19	324.08	9.9782e-06	4.0401e-06	412.31	172.76	134.18	63.605	1.0346e-05	87.665	0.0017846	0.0018022	0.00050307	953.81	1.9702e-05	1.9725e-05	1018.7	359.75	1.9654e-05	1.9655e-05	524.08	190.49	158.11	69.875	1.9792e-05	95.961	29.549	173.620	335.465	16.180	18.608	126.214	15.468	21.282	103.845	16.275	20.055	24.618	26.532	30.938	127.835	28.942	-8191	255	
1456.956	1	1	0	0	0.10513	0.18851	0.22055	0.30874	0.11701	0.23055	0.16798	0.11598	0.12343	0.27925	0.33062	0.11533	0.10896	0.14645	0.033536	0.19717	-2.4521	-3.1167	-1.8625	-3.15	-2.8958	-2.1937	-3.4667	-2.5708	-2.4521	-3.2542	-2.3333	-3.0687	-2.9833	-2.2854	-3.2708	-2.4938	330.632	243.948	315.965	305.596	300.771	145.060	267.158	254.748	336.242	25.586	30.979	315.463	221.183	302.201	247.005	217.897	0.0013731	0.00066546	0.0001074	843.51	6.4851e-06	3.0265e-07	920.55	324.15	8.7085e-06	9.1069e-06	410.68	173.57	134.23	63.054	9.9131e-06	86.916	0.0018033	0.0017994	0.00050582	955.51	1.9727e-05	1.9718e-05	1022.9	359.42	1.9595e-05	1.9639e-05	525.25	190.63	157.18	69.685	1.9505e-05	95.659	363.077	29.112	159.473	16.899	182.137	219.258	15.967	21.879	120.736	194.172	20.960	25.127	27.475	32.354	217.083	29.944	-8191	255	
1457.076	1	1	0	0	0.20738	0.050101	0.16913	0.23893	0.13761	0.086172	0.084764	0.11617	0.32417	0.23692	0.27277	0.54144	0.18635	0.10868	0.074067	0.26506	-2.0917	-3.4333	-2.0687	-3.2021	-2.9688	-2.1646	-3.4688	-2.6042	-2.3438	-3.25	-2.1979	-2.9583	-3.1063	-2.2146	-3.1896	-2.7646	348.749	353.689	171.561	348.571	152.244	304.380	42.205	25.783	316.711	275.825	6.646	330.348	315.617	318.012	271.984	347.151	0.0017007	0.00034639	0.00018478	851.04	5.6055e-06	1.1288e-05	917.56	326.52	9.0226e-06	6.4446e-06	415.73	173.54	134.24	63.516	8.3737e-06	87.442	0.0017703	0.0017839	0.00050099	957.14	1.9527e-05	1.9547e-05	1022.4	360.16	1.9449e-05	1.9584e-05	525.29	190.49	157.24	69.538	1.9503e-05	95.263	10.834	59.611	133.070	16.450	177.858	202.109	15.668	21.420	116.234	180.180	20.204	24.681	26.315	31.381	131.645	29.254	-8191	255	
1457.173	1	1	0	0	0.21045	0.11205	0.18322	0.25796	0.22676	0.059124	0.11988	0.29729	0.23198	0.13588	0.14563	0.32026	0.25494	0.087272	0.23246	0.1445	-2.1271	-3.2062	-2.2667	-2.7458	-3.15	-2.1292	-3.3979	-2.8875	-2.2938	-3.3438	-2.525	-2.7	-3.1437	-2.0979	-3.0875	-2.9813	134.840	20.383	277.613	355.913	214.152	22.163	234.702	286.196	146.174	221.265	148.991	349.439	113.021	33.107	121.729	305.296	0.0021391	0.00090438	0.00026293	844.05	4.0773e-06	1.219e-05	912.3	322.64	1.1264e-05	2.9647e-06	411.89	171.68	133.45	62.955	1.9127e-06	86.693	0.0017509	0.0017753	0.00049829	952.73	1.9269e-05	1.9419e-05	1016.8	357.82	1.9393e-05	1.929e-05	520.27	188.6	155.97	69.047	1.9118e-05	94.38	18.850	171.408	107.487	16.400	145.329	173.487	16.048	22.099	152.874	183.199	20.015	24.938	27.097	31.071	213.503	28.958	-8191	255	
1457.269	1	1	0	0	0.15621	0.21611	0.11685	0.16903	0.25449	0.19356	0.090193	0.23272	0.16259	0.14603	0.094981	0.32373	0.19637	0.15792	0.18505	0.11553	-1.8729	-3.4062	-2.2896	-2.5229	-3.2708	-2.1583	-3.1396	-3.0104	-2.0938	-3.4604	-2.6292	-2.7229	-3.3583	-2.3417	-2.9146	-3.3771	29.086	161.383	68.792	265.078	302.755	248.201	336.560	315.233	325.139	77.261	49.910	13.933	141.659	301.013	152.340	31.872	0.0016359	0.00035365	0.00014514	844.36	4.6813e-06	9.7518e-06	915.74	323.64	5.2642e-06	1.633e-05	414.19	171.38	133.36	62.989	8.0287e-06	86.876	0.0017147	0.0017478	0.00048986	949.98	1.9066e-05	1.9059e-05	1014.9	357.45	1.881e-05	1.8972e-05	519.86	188.19	155.89	69.122	1.9056e-05	94.638	8.828	193.792	297.314	16.535	137.438	132.975	15.746	21.547	140.965	163.390	19.965	24.640	26.557	31.019	125.515	28.666	-8191	255	
1457.365	1	1	0	0	0.29705	0.11993	0.078723	0.13616	0.059686	0.23566	0.21149	0.24488	0.21331	0.14161	0.074697	0.091659	0.23165	0.19096	0.26901	0.11068	-1.8771	-3.3146	-2.4688	-2.6063	-3.15	-2.2687	-2.9625	-3.2167	-1.9729	-3.2958	-2.7354	-2.4458	-3.5896	-2.2188	-2.8604	-3.4271	19.597	50.706	107.239	321.219	336.252	146.360	186.386	326.689	45.996	296.592	305.266	321.612	324.024	251.632	335.493	346.554	0.0014786	0.00030489	0.0002149	845.4	1.5714e-05	4.03e-06	916.96	323.4	8.3452e-06	8.9562e-06	414.94	172.66	134.12	63.575	1.7918e-06	87.511	0.0017139	0.0017426	0.00048693	949.88	1.8891e-05	1.9045e-05	1015.4	357.8	1.8821e-05	1.9044e-05	519.28	189.71	156.23	69.528	1.8995e-05	95.279	15.833	80.593	45.880	16.296	108.827	185.368	15.528	21.330	160.293	180.816	19.475	24.402	26.193	30.687	56.144	28.690	-8191	255	
1457.485	1	1	0	0	0.1022	0.070955	0.16354	0.067762	0.2736	0.019552	0.23884	0.46291	0.19695	0.15744	0.20928	0.14348	0.12061	0.049307	0.053366	0.2917	-1.775	-3.1875	-2.8271	-2.2958	-3.1583	-2.3104	-2.7458	-3.3625	-2.1604	-3.1813	-2.8667	-2.2875	-3.3979	-2.3979	-2.4479	-3.3187	177.172	320.460	104.334	321.681	48.439	353.876	261.087	351.893	224.097	132.106	141.967	301.763	201.636	78.783	187.300	307.807	0.0017752	0.00046555	0.00010628	845.7	2.7965e-06	1.0138e-05	915.96	324.98	6.8438e-06	2.8453e-06	414.21	173.51	134.62	63.677	1.3216e-05	88.007	0.0017189	0.0017417	0.00048497	950.43	1.9031e-05	1.9149e-05	1017.6	358.28	1.9049e-05	1.9101e-05	521.24	189.93	157.01	69.685	1.9186e-05	95.845	15.642	127.980	64.092	16.333	142.020	202.710	15.341	21.607	100.664	337.127	19.239	24.849	26.747	30.841	137.379	29.127	-8191	255	
1457.557	1	1	0	0	0.0954	0.08243	0.24274	0.10537	0.1868	0.24011	0.26929	0.1266	0.17209	0.11335	0.36896	0.057839	0.073317	0.26779	0.292	0.13315	-1.7896	-2.9354	-2.7458	-2.2708	-3.2104	-2.4333	-2.6271	-3.4229	-2.0292	-2.8583	-3.0729	-2.2188	-3.2479	-2.7958	-2.3063	-3.5	151.671	130.866	355.113	159.049	15.542	87.524	258.807	338.413	65.349	314.675	304.327	61.351	343.166	325.283	257.488	333.822	0.0016211	0.00062256	0.00020095	844.53	1.1821e-05	1.2234e-05	919.08	323.99	1.2177e-05	6.2946e-06	413.84	172.38	134.76	63.251	8.5196e-06	87.023	0.0017345	0.0017513	0.00048869	952.12	1.9248e-05	1.9274e-05	1018.4	358.77	1.9225e-05	1.9236e-05	521.62	189.45	156.89	69.433	1.9099e-05	95.025	28.186	46.458	42.844	16.787	157.351	101.014	15.986	21.745	53.254	100.806	20.465	24.719	26.452	31.142	235.758	28.666	-8191	255	
1457.653	1	1	0	0	0.13708	0.14944	0.034986	0.19531	0.27474	0.1764	0.22377	0.25608	0.17926	0.1145	0.16391	0.11739	0.24427	0.15657	0.076938	0.10345	-1.9417	-2.8979	-3.1333	-2.1542	-3.1021	-2.7812	-2.3167	-3.4146	-2.1958	-2.6437	-3.1375	-2.4833	-3.2583	-2.8042	-2.2542	-3.4625	87.161	185.988	295.169	197.491	3.861	248.839	349.137	321.136	38.190	287.807	254.097	243.267	55.445	57.322	256.015	332.295	0.0015704	0.00061405	4.6908e-05	844.01	1.2463e-05	4.0536e-06	913.11	325.2	7.4068e-06	4.7286e-06	414.94	172.38	134.74	63.336	5.6057e-06	87.187	0.001741	0.0017603	0.00048791	951.85	1.9271e-05	1.9317e-05	1015	358.57	1.9319e-05	1.9236e-05	520.85	189.09	157	69.343	1.8997e-05	94.858	10.569	181.070	44.451	16.057	124.435	14.054	15.727	21.803	108.420	321.578	21.065	24.980	26.818	31.215	177.467	28.925	-8191	255	
1457.748	1	1	0	0	0.084939	0.12013	0.1688	0.16335	0.21568	0.22204	0.044039	0.33148	0.10176	0.40578	0.22754	0.43022	0.10938	0.28318	0.16743	0.28434	-2.0292	-2.5583	-3.1937	-2.2646	-2.8812	-2.5646	-2.1958	-3.3604	-2.2229	-2.4479	-3.4208	-2.2083	-3.1146	-3.0833	-2.1604	-3.4	35.362	212.164	348.134	306.408	204.692	248.016	98.053	317.867	142.721	232.943	8.371	320.900	296.580	309.870	347.594	314.844	0.0015769	0.00053761	7.8188e-05	842.76	5.162e-06	1.0904e-05	910.42	324	1.4232e-05	1.0228e-05	414.24	171.97	134.19	63.619	1.4719e-05	87.463	0.0017231	0.0017387	0.00048407	948.83	1.8937e-05	1.8878e-05	1013.2	357.68	1.8969e-05	1.8881e-05	517.99	189.14	156.59	69.651	1.8877e-05	95.276	23.323	149.440	356.039	16.131	98.911	199.544	15.884	21.531	57.707	89.880	19.772	24.723	26.327	30.819	131.536	28.513	-8191	255	
1457.868	1	1	0	0	0.14104	0.012061	0.15624	0.13247	0.11651	0.06412	0.22037	0.16793	0.061531	0.058821	0.057905	0.40457	0.16648	0.24954	0.14399	0.056959	-2.0771	-2.3542	-3.0792	-2.3063	-2.9562	-2.7542	-2.3063	-3.3979	-2.3875	-2.3083	-3.5125	-2.2104	-2.7667	-3.1667	-2.0563	-3.3271	309.665	211.767	33.406	308.422	150.559	275.139	321.172	359.122	266.821	333.292	159.098	350.088	64.887	272.973	72.949	29.917	0.001973	0.00064562	0.00029262	844.64	7.3371e-06	8.6315e-06	914.05	325.39	4.0593e-06	1.5264e-05	415.66	173.16	134.09	63.594	4.9427e-06	87.685	0.0017228	0.0017309	0.0004839	950.1	1.9141e-05	1.9083e-05	1016.3	359.6	1.9123e-05	1.9088e-05	521.76	189.94	156.88	69.799	1.9073e-05	95.606	5.531	142.609	32.944	15.830	113.445	12.157	15.369	21.248	37.824	130.233	20.087	24.454	26.028	30.806	162.674	28.518	-8191	255	
1457.964	1	1	0	0	0.20135	0.0064103	0.11147	0.33804	0.29697	0.054291	0.2741	0.26376	0.35707	0.27881	0.27867	0.21376	0.26506	0.28469	0.095541	0.075896	-2.1979	-2.0479	-3.4229	-2.4542	-2.5083	-3.0667	-2.15	-3.0854	-2.7375	-2.1833	-3.2438	-2.4375	-2.5604	-3.2458	-2.0229	-3.2	18.282	303.514	202.584	268.934	119.824	163.449	272.093	268.490	314.507	217.152	58.437	272.675	330.689	324.421	34.607	241.981	0.0016716	0.00091772	0.00021009	844.06	3.7103e-06	3.7717e-06	917.04	325.13	2.3726e-06	4.7915e-06	413.17	173.03	134.22	63.497	1.5905e-05	87.878	0.0017269	0.0017376	0.00048472	951.05	1.8987e-05	1.8841e-05	1016.7	359.16	1.8855e-05	1.8824e-05	521.88	190.36	156.57	69.658	1.8767e-05	95.825	12.256	133.913	119.347	15.658	172.647	109.368	15.095	21.184	148.879	225.106	19.598	24.189	26.217	30.606	112.024	28.465	-8191	255	
1458.061	1	1	0	0	0.23969	0.063272	0.099048	0.033164	0.11703	0.19104	0.014285	0.20503	0.033668	0.035759	0.33303	0.30442	0.16108	0.31551	0.11247	0.21419	-2.675	-2.2354	-3.3646	-2.4229	-2.5146	-3.175	-2.0354	-3.0625	-2.9271	-1.9771	-3.4292	-2.5125	-2.2875	-3.3333	-1.9958	-2.9479	328.058	272.787	138.427	296.631	67.420	207.749	331.724	253.873	82.738	27.285	260.964	333.129	310.812	306.358	196.149	335.248	0.0014252	0.0006358	0.00030615	848.79	9.682e-06	5.6643e-07	916.46	325.79	8.088e-06	6.9462e-06	412.1	172.4	134.09	63.449	1.2165e-05	87.118	0.0016952	0.001718	0.0004807	951.25	1.8654e-05	1.8667e-05	1017.2	359.38	1.8594e-05	1.8461e-05	518.24	189.06	155.77	69.345	1.8637e-05	94.685	12.162	95.339	99.399	15.866	139.731	198.369	15.198	21.260	17.214	205.718	19.898	24.165	26.058	30.514	86.848	28.400	-8191	255	
1458.157	1	1	0	0	0.17972	0.036929	0.09131	0.17043	0.13683	0.19361	0.098243	0.14078	0.15021	0.22356	0.34358	0.16986	0.2967	0.19255	0.19059	0.32203	-2.7667	-1.9	-3.1021	-2.7125	-2.1542	-3.3396	-2.1229	-2.8521	-3.0604	-2.0646	-3.1542	-2.9417	-2.3	-3.3958	-2.1021	-2.5812	256.687	278.891	55.773	268.045	155.999	230.919	278.833	229.761	215.346	164.031	11.286	69.734	248.471	19.644	252.165	358.636	0.0012535	0.00078144	0.0002235	844.69	1.143e-05	1.2419e-05	911.72	325.29	1.4536e-05	4.8536e-06	412.99	171.76	133.71	63.276	1.2346e-05	86.732	0.0016776	0.0016997	0.00047392	948.81	1.8492e-05	1.8508e-05	1012.2	358.04	1.8366e-05	1.8455e-05	514.57	188.35	155.34	69.133	1.8429e-05	94.314	18.512	105.381	99.462	15.816	131.548	133.623	15.199	20.999	160.242	106.150	19.792	24.118	26.110	30.628	155.067	28.249	-8191	255	
1458.253	1	1	0	0	0.11193	0.020328	0.063344	0.11921	0.2019	0.041162	0.050135	0.030695	0.10252	0.26538	0.10811	0.29106	0.17394	0.29734	0.021362	0.27411	-2.8958	-2.0771	-3.1125	-2.825	-2.1667	-3.2375	-2.5708	-2.7062	-3.1458	-1.9813	-3.0958	-2.7708	-2.3167	-3.4896	-2.3458	-2.6458	340.219	167.432	166.895	161.762	163.729	246.218	339.716	294.500	350.877	162.797	316.876	316.519	8.295	300.596	295.592	305.975	0.0016741	0.00091938	0.0002589	845.09	5.4807e-06	5.3953e-06	911.29	324.32	4.5009e-06	8.6019e-06	415.24	172.33	134.08	63.496	5.2171e-06	86.983	0.0016497	0.0016756	0.00046895	947.82	1.8264e-05	1.8357e-05	1011.7	357.54	1.8272e-05	1.841e-05	516.7	188.76	155.83	69.353	1.8384e-05	94.673	20.805	81.558	129.743	15.406	289.905	197.571	14.900	21.067	208.005	199.116	19.512	23.983	25.765	30.483	207.183	28.170	-8191	255	
1458.349	1	1	0	0	0.35328	0.15114	0.20824	0.10109	0.040721	0.060579	0.20162	0.1029	0.12878	0.32132	0.094058	0.086968	0.089314	0.18051	0.054602	0.28998	-2.9542	-2.025	-2.95	-2.9667	-2.0563	-3.1625	-2.5542	-2.4708	-3.2104	-2.1188	-2.8521	-3.0646	-2.1271	-3.3708	-2.7646	-2.4688	178.730	146.193	201.111	296.893	219.082	356.032	88.221	294.770	66.696	88.075	304.900	178.648	49.760	314.913	165.224	354.583	0.0011378	0.00073287	0.00013522	844.68	8.183e-06	3.9545e-06	915.79	326.03	1.3435e-05	8.3855e-06	415.73	173.79	134.59	63.563	1.6116e-06	87.846	0.0016481	0.001677	0.00046917	947.24	1.8313e-05	1.8497e-05	1014.1	358.64	1.8157e-05	1.8297e-05	517.52	189.42	155.89	69.48	1.8088e-05	95.207	13.698	79.513	316.300	15.300	165.690	24.089	14.912	20.826	70.985	138.331	19.438	23.966	25.812	30.573	245.895	28.374	-8191	255	
1458.445	1	1	0	0	0.17713	0.2651	0.18733	0.1183	0.35421	0.09535	0.058569	0.26097	0.15403	0.089279	0.21448	0.20766	0.338	0.41505	0.25702	0.24266	-2.9521	-2.1458	-2.7	-3.1083	-1.9125	-3.0167	-2.8417	-2.3271	-3.1562	-2.3563	-2.6125	-3.3042	-2.2062	-3.1229	-2.7062	-2.2958	252.786	25.555	96.779	343.330	37.246	30.628	223.067	302.217	358.569	201.969	110.442	350.358	358.322	358.286	122.265	264.853	0.0015851	0.0014315	0.0005384	846.97	1.0601e-05	8.9437e-06	916.99	326.69	1.2002e-05	5.8355e-06	414.92	174.07	134.6	63.547	4.391e-06	88.174	0.0016324	0.0016636	0.00046428	947.87	1.8035e-05	1.8181e-05	1014.9	358.71	1.8032e-05	1.8111e-05	517.12	189.79	155.94	69.473	1.8039e-05	95.507	18.427	147.408	71.832	15.715	72.815	157.009	15.352	21.466	68.328	176.958	19.682	24.294	26.370	30.535	150.531	28.621	-8191	255	
1458.566	1	1	0	0	0.0079871	0.35769	0.2471	0.05952	0.041737	0.04223	0.26503	0.3426	0.08541	0.34345	0.16228	0.21174	0.18077	0.18041	0.12046	0.27931	-2.8833	-2.325	-2.5167	-3.4583	-2.25	-2.9083	-2.9625	-2.4583	-3.2	-2.1667	-2.4792	-3.4417	-2.0479	-2.925	-2.975	-2.0771	127.781	60.776	94.386	292.341	133.081	58.899	279.403	42.170	24.266	319.792	269.675	37.403	358.371	327.624	333.079	317.203	0.0015755	0.00059381	0.00010195	846.71	4.2939e-06	1.2524e-05	916.36	327.02	1.629e-05	1.2541e-05	417.5	172.87	134.07	63.728	1.388e-05	87.405	0.0016318	0.0016558	0.00046373	948.8	1.7953e-05	1.7948e-05	1012.4	359.23	1.7875e-05	1.8019e-05	514.19	188.55	155.02	69.391	1.7699e-05	94.533	359.614	73.582	123.306	16.097	169.692	155.007	15.342	21.359	130.201	74.138	19.172	24.001	25.793	30.602	184.858	28.353	-8191	255	
1458.660	1	1	0	0	0.43737	0.092574	0.089231	0.38781	0.25459	0.15463	0.020172	0.14978	0.18661	0.057901	0.23192	0.044506	0.11818	0.30012	0.10056	0.28779	-2.9021	-2.6354	-2.2833	-3.4521	-2.2	-2.6063	-3.1937	-1.9312	-3.2	-2.6813	-2.2417	-3.6146	-2.325	-2.7708	-3.0563	-2.2292	160.367	208.500	156.969	8.077	323.416	348.778	95.374	360.984	91.508	253.374	322.177	72.874	208.696	16.010	24.274	292.867	0.0020085	0.0010637	7.66e-05	846.46	2.1593e-06	8.426e-06	915.47	326.26	1.6222e-05	8.2184e-06	413.11	172.46	134.27	63.295	4.3169e-06	87.288	0.0016119	0.001627	0.00044986	943.82	1.7749e-05	1.7804e-05	1008.6	358.05	1.7801e-05	1.7796e-05	511.12	188.04	155.06	69.273	1.7707e-05	94.666	20.084	83.934	17.526	15.670	32.743	182.301	15.261	21.174	52.100	141.765	19.460	24.194	25.659	30.746	125.773	28.237	-8191	255	
1458.758	1	1	0	0	0.211	0.063692	0.15652	0.14097	0.3341	0.25446	0.19972	0.23258	0.18779	0.059229	0.12444	0.11772	0.26258	0.13353	0.14691	0.41188	-2.8312	-2.8146	-1.8521	-3.4542	-2.3021	-2.4271	-3.2417	-2.0729	-2.9792	-2.8	-2.2417	-3.3438	-2.4208	-2.5708	-3.1542	-2.1708	221.250	55.331	175.764	291.896	95.571	56.557	236.326	134.136	154.483	196.932	237.974	105.761	303.850	272.077	227.700	273.751	0.0014506	0.00043489	3.7938e-05	843.38	6.0281e-06	1.1652e-06	914.78	327.19	3.1053e-06	4.3376e-06	415.75	174.12	135.69	64.034	3.7364e-06	88.231	0.001621	0.0016176	0.00045058	944.97	1.7751e-05	1.7748e-05	1011	359.86	1.7822e-05	1.7844e-05	514.99	189.92	156.19	69.939	1.7786e-05	95.735	9.885	122.336	303.255	15.746	89.579	137.159	15.134	21.189	193.109	324.406	19.267	24.280	26.028	30.762	266.581	28.273	-8191	255	
1458.853	1	1	0	0	0.25725	0.38358	0.11958	0.11714	0.12241	0.21635	0.21728	0.051225	0.081986	0.20836	0.21021	0.20112	0.10262	0.23638	0.2272	0.20458	-2.5271	-2.5792	-2.025	-3.4792	-2.3937	-2.3708	-3.3083	-2.1833	-2.7292	-2.9792	-2.0187	-3.175	-2.5875	-2.5021	-3.2146	-2.5771	170.797	201.006	179.481	354.198	33.693	12.500	279.755	154.927	226.955	91.252	251.992	352.360	125.655	14.958	211.217	342.048	0.0016717	0.00085612	0.00035645	846.27	5.2798e-06	4.4743e-06	915.29	326.99	6.8358e-06	5.5444e-06	417.86	174.01	135.4	63.908	7.9645e-06	88.143	0.0016297	0.0016328	0.00045277	947.2	1.7749e-05	1.7732e-05	1012.7	360	1.7753e-05	1.775e-05	514.69	189.92	155.87	69.703	1.7658e-05	95.51	357.889	242.292	127.957	15.968	119.183	178.982	15.189	21.145	92.783	303.564	19.396	23.934	25.711	30.608	182.357	28.292	-8191	255	
1458.949	1	1	0	0	0.16629	0.17921	0.14458	0.18504	0.099283	0.18322	0.081008	0.1147	0.18289	0.11274	0.084804	0.24065	0.083997	0.2812	0.13223	0.051812	-2.6604	-3.125	-2.025	-3.2562	-2.5042	-2.1479	-3.4542	-2.1813	-2.6208	-3.0646	-2.1042	-3.2333	-2.7354	-2.2833	-3.4354	-2.6167	332.514	314.220	294.737	324.709	299.504	329.047	332.964	95.785	244.719	170.754	187.897	306.177	34.631	267.665	194.276	267.906	0.0015798	9.7787e-05	0.0001924	845.31	5.6384e-06	9.3375e-06	916.48	326.8	7.2963e-06	5.5914e-06	416.93	172.67	134.46	63.47	1.0478e-05	87.49	0.001613	0.0016137	0.0004499	948.77	1.7613e-05	1.769e-05	1013.5	358.71	1.7504e-05	1.75e-05	511.43	188.66	154.43	69.021	1.7446e-05	94.631	9.419	161.954	156.879	15.811	144.008	79.510	15.099	20.866	40.494	156.423	18.968	24.237	26.135	30.726	161.831	28.279	-8191	255	
1459.045	1	1	0	0	0.1925	0.014429	0.097908	0.16274	0.32873	0.32547	0.15588	0.31328	0.14771	0.099776	0.204	0.047204	0.17647	0.20483	0.14872	0.23012	-2.1458	-3.1604	-1.9479	-2.9958	-2.7396	-2.3458	-3.2958	-2.4771	-2.4813	-3.225	-2.2458	-3.2292	-3.0083	-2.2313	-3.1417	-2.6208	259.950	5.991	197.044	54.174	339.265	351.873	316.903	280.208	345.781	216.279	288.367	40.316	333.116	26.367	68.380	350.658	0.0013438	0.00090505	8.1833e-05	845.41	1.3531e-05	3.9711e-06	916.45	325.35	1.2132e-05	1.8944e-06	410.67	171.78	133.53	63.226	7.8907e-06	86.873	0.0015715	0.0015824	0.00044349	943.91	1.7266e-05	1.7466e-05	1008.9	357.02	1.7391e-05	1.7252e-05	509.08	187.25	153.76	68.727	1.7452e-05	93.949	13.379	116.893	71.608	15.837	161.713	151.883	15.273	20.934	68.956	314.699	19.436	24.323	26.005	30.418	177.638	28.162	-8191	255	
1459.165	1	1	0	0	0.12767	0.15511	0.085998	0.098799	0.19968	0.077857	0.032715	0.31899	0.18285	0.28305	0.12429	0.13782	0.040365	0.070485	0.2566	0.19433	-2.1562	-3.4229	-2.15	-3.0792	-3.1625	-2.1917	-3.4354	-2.6833	-2.2313	-3.1708	-2.3104	-2.9771	-3.0333	-2.1958	-3.2854	-2.8833	83.114	335.640	65.049	88.784	131.771	60.891	284.393	359.964	331.972	166.628	166.948	36.884	137.555	99.852	40.020	246.188	0.0016051	0.0011308	0.00013053	839.87	4.6711e-06	8.0686e-06	911.7	324.43	9.7609e-06	1.338e-06	410.22	171.22	133.38	62.911	5.7467e-06	86.592	0.0015722	0.0015921	0.00044565	942.26	1.7261e-05	1.7257e-05	1005.1	355.67	1.7022e-05	1.7109e-05	504.82	186.39	153.14	68.476	1.7172e-05	93.773	11.036	151.848	84.103	15.783	152.359	84.993	15.131	21.162	12.680	168.275	19.769	24.344	25.648	30.395	136.611	28.204	-8191	255	
1459.262	1	1	0	0	0.15609	0.16025	0.17547	0.21971	0.058163	0.2739	0.20897	0.28415	0.042592	0.21623	0.075865	0.18765	0.11701	0.2224	0.10386	0.20648	-2.0104	-3.4146	-2.3917	-2.7542	-3.15	-2.1104	-3.2792	-2.7042	-2.1917	-3.2583	-2.3042	-2.5375	-3.1875	-2.3021	-3.1125	-3.1146	203.538	272.850	241.024	327.561	282.560	152.395	259.335	292.523	184.650	60.191	352.896	272.302	297.153	318.134	194.626	267.919	0.001742	0.00041421	3.9048e-05	845.5	3.1296e-06	1.6848e-05	914.32	325.49	1.2271e-05	4.8272e-06	413.59	171.49	132.97	63.092	6.7058e-06	86.674	0.0015506	0.0015599	0.00043908	942.3	1.7108e-05	1.7144e-05	1005.7	356.36	1.6911e-05	1.7037e-05	507.83	186.68	153.15	68.711	1.6969e-05	93.895	14.181	167.707	284.818	15.301	144.262	61.099	15.110	20.802	41.929	155.840	19.599	24.154	25.937	30.493	108.449	28.151	-8191	255	
1459.358	1	1	0	0	0.067047	0.12846	0.22998	0.055244	0.16538	0.45384	0.29498	0.30206	0.26709	0.26083	0.19242	0.27892	0.055101	0.30373	0.045092	0.24676	-1.8583	-3.1937	-2.3292	-2.7604	-3.1813	-2.1	-3.0979	-3.2	-2.0708	-3.1833	-2.5104	-2.4667	-3.2146	-2.475	-2.8979	-3.1646	298.420	88.773	146.917	32.673	243.446	357.514	338.885	252.039	104.275	322.554	65.342	295.429	146.788	314.097	231.766	324.665	0.0013924	0.00043055	8.0064e-05	849.42	5.6339e-06	5.7063e-06	917.03	326.36	1.1063e-05	7.4123e-06	414.29	172.21	133.75	63.385	3.5359e-06	87.33	0.0015369	0.0015666	0.00043556	942.03	1.6918e-05	1.7056e-05	1009.2	356.98	1.6864e-05	1.6954e-05	508.07	187.77	153.56	68.902	1.6827e-05	94.453	19.123	235.719	23.023	15.690	100.846	115.691	15.113	20.876	80.405	161.806	19.464	24.105	25.719	30.252	60.443	28.251	-8191	255	
1459.429	1	1	0	0	0.21264	0.17887	0.19121	0.089657	0.157	0.14111	0.13317	0.17433	0.17677	0.16827	0.16487	0.31169	0.30121	0.11044	0.13205	0.21151	-1.6812	-3.1312	-2.6542	-2.1979	-3.2042	-2.2417	-2.7875	-3.2458	-2.0292	-2.9875	-2.6292	-2.2646	-3.1479	-2.2167	-2.7021	-3.3271	286.013	275.559	54.650	281.037	90.747	285.528	309.589	293.359	282.902	296.938	313.533	290.397	24.870	23.402	210.966	266.708	0.0015576	0.00026905	5.0908e-05	845.81	4.7767e-06	1.4108e-05	917.69	327.47	1.4474e-05	3.9184e-06	418.99	173.09	134.15	63.472	1.0363e-05	87.516	0.0015055	0.0015295	0.00042782	940.75	1.6623e-05	1.6663e-05	1009.3	357.48	1.6587e-05	1.6653e-05	507.11	187.86	153.66	68.903	1.6438e-05	94.461	14.368	50.929	69.089	15.714	87.673	126.733	15.020	20.801	81.738	154.316	19.236	24.428	26.027	30.584	168.757	28.291	-8191	255	
1459.550	1	1	0	0	0.21404	0.29622	0.043169	0.27581	0.18831	0.008882	0.048163	0.24251	0.23994	0.16497	0.14869	0.097509	0.16436	0.2151	0.11892	0.21538	-1.7354	-2.9708	-2.5687	-2.2375	-3.2479	-2.4313	-2.3625	-3.2583	-2.1708	-2.9771	-2.8187	-2.1458	-3.2958	-2.6125	-2.3271	-3.5458	79.292	51.447	50.267	22.129	67.453	97.473	341.348	280.487	174.381	325.541	348.610	22.232	122.016	343.834	164.582	341.666	0.0014051	0.00057206	0.00020781	845.15	6.0239e-06	1.5032e-06	915.67	326.58	9.7744e-06	1.254e-05	414.21	171.78	134.37	63.451	1.2919e-05	87.206	0.0014885	0.001503	0.00041722	939.32	1.6321e-05	1.6406e-05	1004.8	356.22	1.6215e-05	1.6216e-05	501.74	186.22	152.43	68.57	1.599e-05	93.703	13.472	117.897	84.610	15.687	326.409	111.864	15.069	20.984	121.939	117.096	19.538	24.074	25.892	30.234	224.190	28.140	-8191	255	
1459.644	1	1	0	0	0.18001	0.19383	0.15759	0.11229	0.042375	0.10175	0.26079	0.16593	0.22638	0.31212	0.16004	0.2761	0.15467	0.10081	0.16307	0.56296	-1.7812	-3	-2.8937	-2.1792	-3.125	-2.5604	-2.5938	-3.3396	-2.275	-2.6833	-3.1375	-2.2667	-3.1646	-2.5792	-2.0417	-3.3958	358.059	223.913	101.092	322.628	38.119	49.750	302.496	228.729	326.718	207.925	157.922	332.993	226.827	319.872	347.790	312.800	0.001758	0.00052434	0.00014387	847.67	1.307e-05	5.9108e-06	917.79	326.58	2.1263e-05	4.4033e-06	416.37	172.2	134.5	63.504	4.861e-06	87.659	0.0014566	0.0014663	0.00040764	937.49	1.5873e-05	1.587e-05	1002.2	355.79	1.5953e-05	1.5807e-05	499.43	186.37	152.32	68.663	1.5856e-05	94.068	6.765	158.110	88.401	15.664	131.834	177.897	15.163	21.021	106.916	183.529	19.507	23.811	25.892	30.471	191.579	28.195	-8191	255	
1459.741	1	1	0	0	0.043191	0.19438	0.21945	0.18722	0.22278	0.072779	0.19863	0.30549	0.11549	0.27898	0.37539	0.11608	0.21995	0.1457	0.059367	0.13072	-1.8979	-2.6333	-2.9104	-2.0812	-2.9396	-2.6917	-2.3917	-3.4396	-2.0958	-2.4583	-3.1604	-2.1167	-3.0604	-3.0792	-2.1708	-3.2792	360.093	319.000	322.362	289.243	125.131	47.911	181.371	3.800	271.933	351.826	293.727	313.795	360.916	304.584	97.222	290.938	0.0016184	0.00077341	2.6734e-05	849.52	8.9081e-06	4.8413e-06	915.16	328.34	9.3294e-06	6.9948e-06	415.94	172.93	134.83	63.889	8.5465e-06	87.868	0.0014433	0.0014537	0.00040294	938.67	1.5997e-05	1.5931e-05	1005.1	357.38	1.5963e-05	1.5909e-05	501.67	187.38	153.01	69.026	1.584e-05	94.401	7.092	46.193	244.156	15.601	216.989	119.719	14.956	20.856	130.761	117.388	19.379	23.728	25.453	30.336	233.281	28.402	-8191	255	
1459.837	1	1	0	0	0.20076	0.11435	0.26695	0.16398	0.11099	0.1327	0.15102	0.14571	0.14131	0.17967	0.19697	0.37206	0.051832	0.17046	0.21827	0.32087	-2.0396	-2.4437	-3.2562	-2.1417	-2.9938	-2.7938	-2.4062	-3.3833	-2.3792	-2.2792	-3.4375	-2.2958	-2.8917	-3.0812	-1.8958	-3.1917	190.988	40.246	78.657	74.898	276.213	96.439	263.375	284.803	124.113	353.611	278.418	341.261	62.646	344.497	205.014	317.333	0.0016673	0.00088627	0.00027478	851	1.9051e-06	1.2915e-05	920.97	327.83	5.28e-06	6.2732e-06	418.02	173.48	134.34	63.464	1.1718e-05	87.966	0.0014398	0.0014459	0.00040003	938.8	1.5682e-05	1.568e-05	1005.4	356.46	1.5669e-05	1.5703e-05	500.35	187.41	152.66	68.675	1.5678e-05	94.388	5.952	37.867	16.433	15.302	202.629	163.247	14.866	20.669	297.505	172.894	19.139	23.780	25.637	30.310	148.710	28.154	-8191	255	
1459.957	1	1	0	0	0.098495	0.19519	0.14966	0.14332	0.42301	0.1192	0.28872	0.36986	0.22926	0.2275	0.26392	0.14876	0.23102	0.12936	0.16897	0.27683	-2.0083	-2.0729	-3.1104	-2.2708	-2.6125	-3.0125	-2.1479	-3.1396	-2.5729	-2.1875	-3.1146	-2.2458	-2.6604	-3.1729	-2.1979	-3.1937	207.878	317.085	37.687	240.095	91.195	51.321	278.900	321.669	86.833	98.714	80.740	293.474	70.664	298.561	31.617	297.289	0.0016774	0.0003699	0.00013351	849.69	2.6003e-06	3.9478e-06	918.65	327.02	4.9329e-06	3.2741e-06	415.84	172.31	133.92	63.24	7.2547e-06	87.092	0.0014437	0.0014386	0.0004027	940	1.5768e-05	1.568e-05	1003.9	356.39	1.5679e-05	1.5615e-05	499.18	186.73	151.84	68.419	1.5684e-05	93.646	16.198	205.734	103.857	15.279	159.189	105.713	15.111	20.863	124.065	76.841	19.360	23.859	26.143	30.318	83.280	28.165	-8191	255	
1460.029	1	1	0	0	0.15911	0.20403	0.14185	0.32752	0.12667	0.16386	0.34885	0.25006	0.24166	0.27626	0.12856	0.22458	0.13768	0.22438	0.25017	0.13992	-2.5208	-2.0438	-3.2479	-2.3771	-2.5604	-2.9729	-2.4437	-3.3438	-2.9958	-2.0958	-3.3187	-2.6021	-2.5583	-3.4458	-2.0375	-3.1479	201.494	25.826	169.563	278.370	153.316	46.438	295.093	287.684	37.752	221.914	327.741	328.054	352.563	269.925	266.748	307.314	0.0014633	0.00075887	3.9687e-05	848.85	4.1931e-06	9.7128e-06	917.71	327.72	1.2132e-05	4.7804e-06	416.44	172.05	134.34	63.13	1.2927e-05	86.831	0.0014256	0.0014236	0.00039988	936.91	1.5596e-05	1.544e-05	1000.7	355.58	1.5302e-05	1.5298e-05	496.01	186.01	151.74	68.315	1.5303e-05	93.348	7.693	150.647	150.168	15.551	203.062	100.113	14.810	20.870	55.868	292.411	19.702	23.956	25.670	30.379	116.150	28.132	-8191	255	
1460.125	1	1	0	0	0.21936	0.2704	0.17653	0.067143	0.20015	0.10477	0.068984	0.41961	0.088873	0.029145	0.30405	0.26464	0.14274	0.28178	0.042979	0.14798	-2.7375	-1.9792	-3.1875	-2.4979	-2.3917	-3.1958	-2.1604	-2.8021	-2.8625	-1.9417	-3.1521	-2.5292	-2.2958	-3.2604	-1.9479	-2.8771	169.500	136.316	250.875	153.689	203.970	90.129	127.263	10.064	96.687	184.421	316.360	341.985	348.944	3.810	104.732	273.250	0.0014724	6.207e-05	0.00027656	845.39	5.0317e-06	5.8878e-06	915.95	327.74	1.5497e-05	8.045e-06	416.59	172.76	134.72	63.695	1.6009e-06	87.502	0.001397	0.0014003	0.00039294	934.55	1.5396e-05	1.5381e-05	1000.1	356.45	1.5423e-05	1.5387e-05	497.59	187.14	152.53	68.929	1.5538e-05	94.021	9.490	117.794	79.224	15.412	153.572	211.245	14.804	20.819	101.400	80.978	18.975	23.732	25.704	30.496	41.157	28.074	-8191	255	
1460.246	1	1	0	0	0.1	0.10075	0.09669	0.1489	0.26478	0.14008	0.16239	0.20475	0.097483	0.18522	0.21084	0.11716	0.29744	0.21845	0.18905	0.22364	-2.7771	-2.1063	-3.2229	-2.7896	-2.1167	-3.3583	-2.4667	-2.775	-3.225	-1.9729	-2.9813	-2.8271	-2.0167	-3.3979	-2.1646	-2.8104	117.807	307.856	140.060	288.684	48.559	124.371	10.065	311.592	233.834	196.660	99.519	228.796	266.788	299.423	90.954	322.206	0.001313	0.0013604	0.00035792	847.3	1.1342e-05	4.1894e-06	915.74	328.36	1.0196e-05	3.781e-06	415.73	174.03	135.49	64.335	2.1648e-06	88.579	0.0014	0.0014133	0.00039415	935.2	1.541e-05	1.547e-05	1002	357.54	1.5372e-05	1.5585e-05	499.88	188.46	153.17	69.469	1.5743e-05	95.076	16.739	91.823	59.868	15.556	142.131	197.795	14.832	20.916	75.971	335.584	19.193	23.789	25.676	30.228	132.454	28.177	-8191	255	
1460.342	1	1	0	0	0.15808	0.087891	0.08966	0.20415	0.081313	0.066575	0.26326	0.29218	0.10584	0.084746	0.19191	0.41837	0.0047366	0.34961	0.10644	0.041084	-3.0104	-2.1042	-2.8333	-2.9625	-2.3438	-3.2	-2.5479	-2.5771	-3.0708	-2.0854	-2.8354	-3.1042	-2.0938	-3.2271	-2.3104	-2.6	333.708	306.600	43.358	45.235	333.453	105.923	305.079	316.944	322.610	222.920	300.641	331.812	287.794	15.170	30.985	14.196	0.0015586	0.00035357	0.00017529	848.71	1.4955e-05	3.1752e-06	919.35	329.46	5.7509e-06	5.3957e-06	420.67	175.69	136.94	64.515	9.4834e-06	89.097	0.0014128	0.0014283	0.00040014	938.86	1.5571e-05	1.5578e-05	1006.6	358.88	1.5449e-05	1.5672e-05	503.88	189.98	154.56	70	1.5673e-05	95.73	357.336	53.777	84.292	15.531	122.185	141.416	15.148	21.134	112.984	180.271	20.392	24.051	26.017	30.436	103.321	28.514	-8191	255	
1460.438	1	1	0	0	0.11309	0.21161	0.18007	0.093384	0.18032	0.24167	0.35767	0.061482	0.048034	0.19447	0.32826	0.17321	0.091814	0.20658	0.21509	0.23323	-3.0042	-2.175	-2.825	-2.975	-1.9896	-3.1625	-2.7479	-2.45	-3.1375	-2.1021	-2.6729	-3.2146	-2.1625	-3.2792	-2.5771	-2.3438	93.311	158.918	260.291	111.734	225.427	68.681	280.774	236.574	83.406	56.419	335.818	338.656	65.747	357.202	59.659	273.002	0.001339	0.00084926	0.00024081	852.25	4.8945e-06	2.7534e-06	920.8	329.11	1.148e-05	6.9065e-06	420.14	174.37	136.09	64.363	1.792e-06	88.629	0.0014249	0.0014334	0.00039987	940.47	1.5637e-05	1.5686e-05	1006.1	358.78	1.5454e-05	1.5595e-05	502.09	188.82	153.52	69.671	1.5505e-05	95.08	358.467	122.267	74.676	15.332	159.731	361.300	15.059	20.893	149.695	158.541	20.218	23.935	25.794	30.501	174.312	28.090	-8191	255	
1460.559	1	1	0	0	0.04473	0.065568	0.056266	0.22619	0.20577	0.31576	0.028432	0.22167	0.20231	0.16903	0.13247	0.10341	0.2047	0.25174	0.063252	0.2369	-2.8208	-2.3542	-2.6125	-3.1396	-2.1792	-2.9083	-2.8937	-2.1229	-3.2479	-2.3042	-2.5125	-3.2188	-2.2125	-3.0771	-2.8458	-2.1667	116.279	348.793	37.618	51.524	357.476	334.268	159.154	304.385	39.478	99.996	147.754	220.750	174.819	42.464	34.499	203.498	0.0017374	0.00076502	0.00015955	848.35	5.2328e-06	9.8509e-06	914.46	329.35	8.9066e-06	6.5025e-06	416.14	173.94	135.43	64.24	1.5474e-06	87.841	0.0014072	0.001419	0.00039556	936.88	1.5346e-05	1.5565e-05	999.16	357.85	1.5331e-05	1.5476e-05	497.85	188.01	152.93	69.331	1.5322e-05	94.552	22.113	107.412	18.088	15.579	211.403	108.603	15.094	21.002	13.126	65.284	19.301	24.219	25.540	30.576	359.727	28.315	-8191	255	
1460.653	1	1	0	0	0.21709	0.078861	0.14421	0.057075	0.1185	0.1396	0.1767	0.28885	0.13834	0.09068	0.17147	0.22848	0.19719	0.261	0.18992	0.044214	-3.1	-2.3896	-2.4396	-3.2771	-2.2292	-2.8604	-3.1229	-2.3646	-3.2479	-2.4021	-2.5333	-3.3688	-2.2333	-2.9458	-3.05	-2.1542	272.778	242.918	350.664	65.759	24.430	151.324	336.130	287.128	330.829	316.532	297.967	308.283	311.437	245.169	158.226	275.764	0.001426	0.00065876	0.00030006	849.07	5.8471e-06	5.1839e-06	916.98	328.34	1.2801e-05	1.154e-05	417.65	174.09	136.55	64.293	4.4609e-06	88.186	0.0013969	0.0014037	0.00038936	934.72	1.5325e-05	1.5448e-05	1001.2	356.89	1.5364e-05	1.5335e-05	497.51	188.39	153.43	69.601	1.5236e-05	94.885	6.621	60.371	77.144	15.511	144.126	112.408	14.824	20.590	109.546	113.332	19.052	23.652	25.761	30.398	171.897	28.009	-8191	255	
1460.725	1	1	0	0	0.040462	0.069443	0.21308	0.1121	0.18206	0.016103	0.30906	0.32627	0.16974	0.19329	0.13686	0.27126	0.070884	0.054389	0.062979	0.26361	-3.0833	-2.5312	-2.0812	-3.4375	-2.2188	-2.6875	-3.075	-2.1458	-3.1021	-2.7188	-2.1333	-3.4562	-2.3271	-2.7792	-3.1271	-2.2479	128.585	13.972	349.749	344.829	328.984	62.541	351.285	23.007	295.221	292.150	253.118	31.899	29.415	261.270	277.549	347.779	0.0019654	0.00033054	0.00030597	849.77	9.7832e-06	4.5366e-06	915.17	328.89	9.0016e-06	1.2086e-05	420.23	174.63	136.47	64.598	2.4879e-06	89.037	0.0013905	0.0013986	0.00038907	936.04	1.5222e-05	1.5275e-05	1002.1	357.23	1.5259e-05	1.5152e-05	498.81	188.65	153.31	69.657	1.5065e-05	95.401	13.965	121.006	134.065	15.389	189.833	127.671	14.822	20.710	98.415	195.696	19.293	23.983	25.505	30.461	160.815	28.052	-8191	255	
1460.845	1	1	0	0	0.084841	0.087464	0.22336	0.24047	0.16184	0.23833	0.016013	0.24242	0.052243	0.11134	0.12152	0.30897	0.094763	0.35896	0.21493	0.31897	-2.7188	-2.7625	-2.0333	-3.2792	-2.2625	-2.5979	-3.325	-2.1625	-2.9583	-3.05	-2.1479	-3.4271	-2.4458	-2.5979	-3.0167	-2.2104	357.403	275.763	96.093	291.617	276.119	204.662	249.869	253.376	87.220	267.961	110.109	47.019	41.384	4.286	265.823	341.544	0.0016666	0.00080328	0.00029309	855.33	3.7311e-06	1.0847e-05	923.34	329.6	1.3527e-05	1.1016e-05	424.56	175.61	136.98	64.829	1.8617e-05	89.587	0.0013847	0.0013835	0.00038683	938.33	1.5134e-05	1.5106e-05	1005.1	358	1.503e-05	1.5025e-05	500.06	189.87	153.64	69.904	1.4939e-05	95.72	7.237	97.838	76.312	15.474	170.384	180.996	15.166	20.979	51.984	139.824	18.999	24.061	25.951	30.535	105.356	28.237	-8191	255	
1460.942	1	1	0	0	0.32807	0.15333	0.13895	0.11156	0.6889	0.2318	0.049501	0.1116	0.10693	0.1241	0.10568	0.16576	0.27423	0.33475	0.044237	0.28557	-2.475	-2.8958	-1.9917	-3.1708	-2.4188	-2.3625	-3.3937	-2.4542	-2.8479	-3.1125	-2.0125	-3.0854	-2.6542	-2.5083	-3.2729	-2.4021	157.831	220.984	48.304	136.695	53.501	198.710	5.483	15.794	188.093	340.982	266.177	298.283	295.436	55.583	157.369	354.414	0.001886	0.00050934	9.132e-05	852.35	4.8352e-06	3.275e-06	921.1	329.73	2.7869e-06	5.0164e-06	420.21	174.5	136.1	64.645	1.0366e-06	88.791	0.001367	0.0013676	0.00037802	936.14	1.4885e-05	1.4776e-05	1001.1	357.9	1.4809e-05	1.4665e-05	495.72	188.39	152.78	69.575	1.458e-05	94.907	8.405	182.317	142.976	15.455	88.007	46.180	14.890	20.772	170.194	255.298	19.372	23.963	25.844	30.149	326.097	27.915	-8191	255	
1461.038	1	1	0	0	0.1427	0.084161	0.067151	0.13585	0.19501	0.45406	0.22185	0.10847	0.35075	0.097777	0.16472	0.22427	0.28338	0.18553	0.1615	0.20816	-2.3958	-3.1354	-1.8583	-3.1208	-2.825	-2.075	-3.4	-2.6083	-2.1937	-3.1771	-2.0958	-3.0167	-2.8542	-2.1625	-3.2083	-2.4062	126.088	104.416	236.794	19.166	56.845	242.481	241.039	354.538	262.067	78.563	301.354	340.783	33.508	284.775	211.772	281.683	0.0017152	0.00020507	0.00017553	849.99	1.2872e-06	8.4799e-06	917.52	329.5	1.1956e-05	7.0491e-06	421.39	175.21	137.19	64.732	4.7939e-06	89.006	0.0013441	0.0013347	0.00037362	933.88	1.4625e-05	1.4685e-05	997.49	357.23	1.4602e-05	1.4524e-05	495.26	188.51	153.09	69.769	1.4558e-05	95.157	21.453	137.438	137.708	15.600	361.956	99.368	14.906	20.910	168.138	183.649	18.941	23.937	25.741	30.207	224.706	27.696	-8191	255	
1461.134	1	1	0	0	0.16762	0.26233	0.28504	0.14923	0.080121	0.070333	0.058023	0.22981	0.15544	0.060515	0.16678	0.25518	0.24055	0.036158	0.062598	0.06284	-2.0854	-3.1729	-2.175	-3.1208	-2.75	-1.9438	-3.2917	-2.6333	-2.225	-3.2333	-2.1896	-3.0042	-3.0125	-2.1833	-3.15	-2.7146	53.598	204.942	240.333	46.169	104.369	157.190	88.232	10.185	348.486	241.924	106.442	231.518	47.907	270.118	331.025	58.217	0.0015619	0.00049518	2.7233e-05	847.64	4.8265e-06	2.3364e-06	917.88	330.27	2.7049e-06	1.8167e-06	420.31	176.27	137.1	65.404	1.2181e-05	89.636	0.0013154	0.0013237	0.00037089	933.28	1.4496e-05	1.4575e-05	999.25	358.27	1.4624e-05	1.4615e-05	496.65	189.79	153.65	70.263	1.4788e-05	95.953	22.485	146.269	291.632	15.053	149.651	287.274	14.731	20.317	303.713	116.033	19.069	23.489	25.110	29.929	138.327	27.409	-8191	255	
1461.255	1	1	0	0	0.044165	0.29748	0.085273	0.2567	0.1528	0.36779	0.34016	0.41479	0.082656	0.179	0.20205	0.27475	0.13785	0.023796	0.13844	0.080949	-1.9937	-3.3458	-2.1479	-2.7417	-3.1125	-2.0458	-3.1667	-2.5375	-2.2854	-3.2562	-2.2313	-2.8604	-3.2333	-2.2729	-2.9979	-2.8979	154.244	12.212	74.631	335.655	26.630	65.299	306.291	266.332	76.080	153.252	152.669	218.858	265.847	54.079	62.629	198.480	0.0020788	0.00012498	0.00014315	851.43	2.1356e-06	1.1016e-06	919.82	331.09	2.644e-06	6.099e-06	421.29	175.99	137.75	65.456	6.4597e-06	89.978	0.0013393	0.0013556	0.00037907	936.16	1.4813e-05	1.4769e-05	1004.1	359.49	1.4739e-05	1.4754e-05	498.38	190.14	154.01	70.435	1.4864e-05	96.427	18.577	50.126	298.971	15.051	136.182	189.089	14.739	20.365	332.973	123.684	19.080	23.289	25.202	30.075	177.627	27.576	-8191	255	
1461.326	1	1	0	0	0.10255	0.20857	0.08122	0.084101	0.15377	0.22479	0.23565	0.12913	0.13464	0.2189	0.1308	0.046163	0.20256	0.27966	0.12194	0.074861	-1.725	-3.2958	-2.3563	-2.6604	-3.1813	-2.0083	-3.1042	-3.0187	-1.9625	-3.075	-2.5187	-2.5312	-3.2646	-2.1792	-2.6813	-3.2313	295.886	69.129	287.916	4.921	63.652	64.675	260.574	311.296	229.375	179.206	344.012	44.299	333.936	293.597	164.675	322.871	0.0015638	0.00078514	0.0001707	851.43	5.759e-06	5.2066e-06	920.07	332.29	7.1599e-06	1.318e-05	421.02	176.63	137.87	65.25	7.4023e-06	89.765	0.0013499	0.0013675	0.0003831	936.84	1.4961e-05	1.4975e-05	1004.6	359.84	1.4814e-05	1.4993e-05	500.72	190.48	154.3	70.311	1.4975e-05	96.013	4.951	118.269	102.697	15.333	131.680	198.970	14.710	20.409	35.370	153.089	19.135	23.572	25.868	30.216	144.302	27.733	-8191	255	
1461.422	1	1	0	0	0.1357	0.16995	0.1565	0.37355	0.072641	0.062154	0.28659	0.31862	0.090994	0.1009	0.26518	0.16613	0.16693	0.21812	0.12228	0.23462	-1.9125	-3.3354	-2.6771	-2.4229	-3.3896	-2.0979	-2.9938	-3.1437	-2.0146	-3.1208	-2.6	-2.3375	-3.2583	-2.3563	-2.6646	-3.3292	46.904	224.302	62.151	312.270	150.214	320.848	350.399	352.782	160.779	61.255	224.132	21.843	305.061	20.040	38.048	321.662	0.001576	0.00075541	0.00017077	848.92	9.1859e-06	5.2707e-06	917.82	331.15	3.5384e-06	1.4155e-06	417.37	174.43	136.71	64.78	8.6616e-06	88.539	0.0013566	0.0013747	0.00038059	935.22	1.4811e-05	1.5008e-05	999.15	357.91	1.4931e-05	1.4895e-05	495.19	188.12	153.18	69.784	1.488e-05	94.83	25.942	178.256	317.005	15.356	110.386	138.423	14.743	20.623	30.545	136.072	19.042	23.738	25.652	29.932	157.413	27.810	-8191	255	
1461.519	1	1	0	0	0.51258	0.19292	0.082989	0.17886	0.21653	0.25023	0.10032	0.32232	0.16171	0.1629	0.25871	0.52434	0.11105	0.066714	0.19585	0.16951	-1.8604	-3.1417	-2.6	-2.2229	-3.3708	-2.2875	-2.75	-3.3229	-2.0687	-3.0625	-2.975	-2.25	-3.3646	-2.3479	-2.2979	-3.2271	260.181	122.190	260.413	347.842	331.156	275.311	145.490	325.169	19.277	316.429	304.926	330.123	189.694	240.406	337.846	276.668	0.0016326	0.00079272	0.00016308	847.89	4.5027e-06	3.9672e-06	916.1	328.21	8.7736e-06	1.207e-05	419.16	173.9	136.07	64.763	9.6622e-06	88.353	0.0013474	0.0013621	0.00037975	931.66	1.4859e-05	1.4826e-05	995.59	356.36	1.4707e-05	1.4668e-05	494.16	187.33	152.52	69.637	1.4528e-05	94.546	4.172	82.971	89.160	15.100	84.069	78.705	14.816	20.480	146.171	127.403	18.739	23.698	25.547	29.933	162.190	27.926	-8191	255	
1461.637	1	1	0	0	0.15619	0.16363	0.3936	0.10364	0.13905	0.067684	0.11915	0.052955	0.13398	0.13958	0.20987	0.58831	0.10639	0.29153	0.074511	0.3085	-1.9271	-2.9896	-2.7979	-2.0354	-3.3167	-2.4354	-2.6479	-3.3729	-2.225	-2.8375	-3.1521	-2.4708	-3.1833	-2.6271	-2.2833	-3.3438	174.815	197.269	3.989	239.595	309.999	321.016	38.710	66.183	200.040	240.042	331.822	325.148	12.372	292.522	297.746	282.780	0.0014971	0.0006832	9.5398e-05	848.18	1.0208e-05	7.5466e-06	918.82	328.59	3.7449e-06	4.9793e-06	418.78	174.21	136.78	64.878	8.8514e-07	89.418	0.0013243	0.0013312	0.00037097	929.97	1.4552e-05	1.4677e-05	994.89	356.85	1.4636e-05	1.4743e-05	493.39	188.44	153.36	69.997	1.4619e-05	95.656	13.371	151.581	77.081	15.365	81.813	124.739	14.772	20.429	137.869	113.636	19.010	23.533	25.676	30.058	133.841	28.006	-8191	255	
1461.734	1	1	0	0	0.073626	0.20358	0.17819	0.1187	0.052212	0.21293	0.10985	0.10578	0.081756	0.2713	0.24714	0.23923	0.11785	0.065275	0.14785	0.14201	-1.8125	-2.7167	-2.9396	-2.1229	-3.0604	-2.6396	-2.3042	-3.45	-2.1729	-2.6917	-3.1312	-2.3417	-3.0854	-2.8104	-1.9604	-3.3979	223.707	253.474	355.788	99.969	160.894	20.476	296.268	229.738	347.362	274.357	109.388	300.366	128.823	261.515	203.334	297.596	0.0017565	0.00030702	0.00022434	850.21	8.685e-06	8.5629e-06	917.72	331.37	1.5477e-05	8.1047e-06	421.86	174.71	137.46	65.282	3.7759e-06	90.066	0.0013325	0.0013393	0.00036905	931.72	1.4527e-05	1.4523e-05	996.56	358	1.4551e-05	1.4516e-05	494.96	188.77	153.21	70.151	1.4477e-05	96.045	5.861	114.508	104.618	15.535	167.335	284.458	14.841	20.751	129.619	144.317	19.294	23.996	25.600	30.080	165.677	28.001	-8191	255	
1461.830	1	1	0	0	0.15447	0.14406	0.23243	0.16485	0.097822	0.21024	0.11489	0.054471	0.15377	0.26905	0.25314	0.19717	0.082361	0.15999	0.12479	0.14508	-2.0354	-2.5021	-3.3104	-2.15	-2.9771	-2.8104	-2.2833	-3.3646	-2.3833	-2.5042	-3.3458	-2.2	-2.9417	-2.9667	-2.0479	-3.1396	188.490	347.766	240.903	287.950	75.025	218.333	309.826	309.978	159.299	324.139	127.465	194.248	75.861	16.081	124.293	308.536	0.0017732	0.00093795	0.0001378	847.08	5.6627e-06	6.2527e-06	917.84	331.33	8.1795e-06	7.1578e-06	422.37	175.65	136.97	65.267	5.8307e-06	89.918	0.0013326	0.0013283	0.0003679	932.8	1.4607e-05	1.4522e-05	999.67	358.49	1.4504e-05	1.4518e-05	495.52	189.47	153.39	70.188	1.4399e-05	95.937	25.137	98.115	32.183	15.153	76.124	256.190	14.650	20.663	40.584	122.703	18.946	23.891	25.569	30.087	173.920	27.795	-8191	255	
1461.926	1	1	0	0	0.13723	0.12274	0.26322	0.1237	0.16214	0.24608	0.29866	0.29044	0.081349	0.28546	0.11502	0.33409	0.095024	0.24237	0.026022	0.2108	-1.9854	-2.3729	-3.2354	-2.2062	-2.8729	-2.8771	-2.2375	-3.3292	-2.4146	-2.2104	-3.3458	-2.3688	-2.8354	-3.2021	-1.9833	-3.2313	174.307	266.826	34.884	318.394	333.990	118.797	304.640	304.469	215.480	272.136	79.037	310.924	187.589	296.292	276.129	297.544	0.0015155	0.00046118	9.7333e-05	848.04	9.1675e-06	6.2585e-06	913.68	329.5	1.5835e-05	7.0675e-06	418.24	174.78	137.77	65.134	6.4169e-07	89.276	0.0013231	0.0013255	0.00036869	930.45	1.4551e-05	1.4486e-05	993.37	357.76	1.4655e-05	1.4653e-05	494.31	188.37	153.72	70.131	1.4547e-05	95.361	4.220	135.177	82.507	15.482	147.403	145.445	14.715	20.846	94.928	158.149	19.499	23.885	25.681	30.184	280.463	28.028	-8191	255	
1462.022	1	1	0	0	0.32698	0.17534	0.2187	0.19451	0.048819	0.23687	0.12164	0.33009	0.21414	0.069068	0.24419	0.34318	0.23701	0.43771	0.18826	0.40426	-2.2333	-2.2104	-3.1146	-2.2167	-2.5708	-3.0563	-2.0646	-3.1	-2.5583	-2.125	-3.3833	-2.4271	-2.6	-3.2354	-2.0896	-2.9479	96.854	227.362	13.075	336.402	15.561	20.645	82.672	299.212	344.934	74.604	354.499	13.529	49.232	22.790	90.440	280.492	0.0016752	0.00056172	0.0001622	844.31	4.182e-06	4.8753e-06	907.2	330.13	8.7559e-06	5.6632e-06	416.01	174.82	137.13	65.379	7.775e-06	89.6	0.0013371	0.001336	0.00037262	930.07	1.4625e-05	1.4682e-05	992.22	357.85	1.4799e-05	1.4764e-05	495.24	188.68	153.94	70.429	1.4949e-05	95.913	22.067	94.744	69.313	15.273	352.297	254.021	14.806	20.627	36.638	197.174	19.407	23.614	25.717	30.009	153.916	27.825	-8191	255	
1462.118	1	1	0	0	0.1854	0.36505	0.25312	0.051328	0.26585	0.17707	0.19304	0.21776	0.12384	0.15964	0.16147	0.14908	0.024079	0.21697	0.11552	0.039624	-2.4167	-2.0896	-3.2562	-2.4125	-2.3063	-3.1688	-2.2271	-2.9	-2.8333	-2.1896	-3.2646	-2.7583	-2.4979	-3.3667	-1.9729	-3.0021	306.603	202.039	311.573	212.919	335.476	244.348	294.713	330.380	220.385	12.483	263.871	314.596	258.951	312.638	301.152	58.320	0.0015592	0.00030709	0.00016195	847.34	1.7747e-06	6.068e-06	915.44	332.92	1.0723e-05	1.7447e-06	418.34	175.09	137	65.617	8.6199e-06	89.454	0.0013538	0.0013658	0.00038114	932.68	1.4902e-05	1.4915e-05	997.69	359.1	1.4906e-05	1.4984e-05	497.67	189.28	154.13	70.505	1.5058e-05	95.986	4.773	122.055	69.589	15.562	158.533	245.481	14.741	20.754	67.560	23.950	19.353	23.689	25.532	29.986	122.642	27.660	-8191	255	
1462.239	1	1	0	0	0.2832	0.27682	0.28214	0.27732	0.036454	0.043095	0.1818	0.11017	0.18895	0.15154	0.2494	0.091795	0.23718	0.14165	0.18298	0.2457	-2.7771	-2.0354	-3.025	-2.6646	-2.3021	-3.5208	-2.2729	-2.8438	-3.1167	-2.0333	-3.3208	-2.95	-2.3312	-3.5104	-2.2271	-2.7938	346.690	287.421	221.364	230.811	204.068	232.755	357.939	29.837	63.532	3.939	326.657	282.460	273.449	335.988	313.515	353.076	0.0018726	0.00053427	0.00013917	844.35	1.0383e-05	7.611e-06	914.75	330.74	1.1317e-05	7.9562e-06	419.53	176.76	138.07	65.727	5.5084e-06	90.38	0.0013645	0.0013763	0.00038351	932.63	1.499e-05	1.4964e-05	998.86	358.77	1.4883e-05	1.5012e-05	497.24	190.18	154.24	70.681	1.4887e-05	96.539	10.749	33.630	356.792	15.251	119.957	96.426	15.015	21.004	51.172	129.213	19.358	23.671	25.961	30.288	25.160	28.183	-8191	255	
1462.335	1	1	0	0	0.20289	0.20474	0.21262	0.011722	0.26773	0.082683	0.17562	0.29415	0.19087	0.29872	0.16618	0.044361	0.23647	0.4089	0.13651	0.37425	-2.9313	-2.1208	-3.0229	-2.9458	-2.0333	-3.2833	-2.5438	-2.7146	-3.2042	-1.8958	-3.1542	-3.1646	-2.2333	-3.3625	-2.4188	-2.5396	76.161	188.512	266.078	245.237	278.491	154.317	283.439	27.027	16.444	341.819	258.625	133.229	116.883	360.650	232.352	305.768	0.0016806	0.00078679	7.6032e-05	847.02	1.221e-05	2.8324e-06	917.07	329.73	1.2995e-05	6.365e-06	417.38	174.87	136.09	64.815	4.4017e-06	88.756	0.0013473	0.0013564	0.00038066	933.62	1.4759e-05	1.475e-05	998.82	358.04	1.4636e-05	1.4882e-05	496.44	188.75	152.87	69.979	1.4801e-05	95.228	11.324	92.202	313.966	15.572	131.104	210.929	15.104	21.037	127.958	240.411	19.193	23.957	25.659	30.298	159.388	28.131	-8191	255	
1462.431	1	1	0	0	0.26607	0.15055	0.12586	0.20861	0.047429	0.12705	0.18548	0.1386	0.11194	0.16401	0.17055	0.15869	0.08451	0.31593	0.13556	0.23533	-3.0938	-1.8979	-2.7938	-3.0312	-2.0625	-3.2292	-2.6104	-2.5729	-3.2479	-2.1146	-2.8125	-3.1208	-2.025	-3.2271	-2.5521	-2.4625	184.110	187.365	360.838	36.923	216.558	132.948	330.094	244.962	195.303	47.337	356.615	287.207	37.345	315.145	78.309	339.907	0.0019182	0.0006467	0.00020958	844.64	6.652e-06	1.4918e-06	908.91	329.01	8.8966e-06	1.1884e-05	415.03	173.32	135.77	64.66	1.8184e-06	88.247	0.0013339	0.0013491	0.00037664	928.33	1.4594e-05	1.472e-05	990.09	356.08	1.455e-05	1.4616e-05	492.43	186.47	152.19	69.506	1.4591e-05	94.282	11.310	82.617	35.255	15.366	171.000	68.593	14.855	20.816	96.543	153.217	19.234	23.944	25.358	30.240	186.483	28.258	-8191	255	
1462.527	1	1	0	0	0.18563	0.043947	0.19379	0.17561	0.18127	0.21771	0.25224	0.12356	0.17234	0.17152	0.1501	0.2966	0.038082	0.29372	0.17102	0.18189	-2.9437	-2.1375	-2.55	-3.1854	-1.7625	-3.2854	-2.825	-2.2146	-3.1792	-2.1917	-2.6292	-3.2438	-2.1063	-3.2562	-2.8417	-2.3167	185.453	41.147	346.361	293.078	338.484	161.220	332.327	67.134	82.837	320.576	14.947	311.223	195.196	337.867	181.015	327.085	0.0017799	0.00053571	0.00020012	843.76	3.0786e-06	9.607e-06	907.46	328.77	1.0666e-05	1.1048e-05	414.56	173.27	135.75	64.669	1.1426e-05	88.37	0.0013374	0.0013414	0.00037329	926.93	1.4646e-05	1.4678e-05	987.8	355.58	1.4579e-05	1.4626e-05	491.1	186.65	152.07	69.516	1.4721e-05	94.69	14.204	99.180	48.163	15.554	212.486	198.917	14.952	20.882	89.395	142.152	19.266	23.865	25.773	30.278	168.894	28.189	-8191	255	
1462.623	1	1	0	0	0.092805	0.14486	0.22589	0.11758	0.073452	0.085109	0.089352	0.27746	0.37191	0.28228	0.024514	0.19875	0.15354	0.33445	0.19553	0.2481	-3.0187	-2.2438	-2.5583	-3.2604	-2.2354	-3.0312	-2.8875	-2.1479	-3.2708	-2.5375	-2.5354	-3.3333	-2.1042	-2.8688	-3.0854	-2.2646	128.192	19.992	145.072	238.174	217.008	290.332	362.890	347.623	29.823	316.452	326.312	321.132	100.147	314.252	145.115	339.630	0.0016984	0.0011958	0.0001048	843.33	1.1989e-05	3.6053e-06	910.92	330.1	9.7634e-06	3.218e-06	417.04	174.28	137.44	65.086	1.4314e-05	89.237	0.0013342	0.0013594	0.00037399	927.68	1.468e-05	1.4667e-05	989.16	356.53	1.4685e-05	1.4729e-05	493.47	187.83	153.42	70.027	1.4785e-05	95.515	11.106	55.974	145.486	15.531	119.107	328.889	14.805	20.924	105.122	151.684	19.017	23.981	25.828	30.201	98.594	28.021	-8191	255	
1462.718	1	1	0	0	0.1233	0.080458	0.25531	0.056368	0.12466	0.27409	0.3206	0.43609	0.079029	0.087722	0.21537	0.093472	0.029583	0.11919	0.12559	0.10224	-2.9333	-2.4354	-2.2938	-3.5104	-2.1583	-2.6667	-3.2313	-2.1896	-3.2438	-2.5896	-2.35	-3.3479	-2.3292	-2.8521	-3.1021	-2.1875	356.091	90.115	69.693	270.475	125.884	224.221	283.305	303.006	347.321	207.543	331.566	355.123	182.158	270.019	165.791	344.474	0.001181	0.00096962	6.6882e-05	844.68	3.1248e-06	8.3955e-06	914.15	328.78	1.3738e-05	5.7411e-06	421.84	175.42	136.37	65.203	3.8578e-06	89.752	0.0013554	0.0013574	0.00037662	928.8	1.4812e-05	1.4891e-05	993.99	356.89	1.4861e-05	1.4842e-05	495.15	188.81	153.73	70.338	1.4887e-05	96.086	358.753	81.310	214.560	15.646	8.541	103.197	15.123	20.869	144.185	72.747	19.690	23.998	25.883	30.381	9.216	27.992	-8191	255	
1462.814	1	1	0	0	0.30055	0.081586	0.10017	0.070237	0.14035	0.19284	0.15612	0.32738	0.36915	0.11998	0.33834	0.2645	0.25198	0.27205	0.075298	0.19523	-3	-2.6667	-2.2083	-3.375	-2.2375	-2.5896	-3.4	-2.1917	-2.8792	-2.9021	-2.2938	-3.4042	-2.3083	-2.6542	-3.1771	-2.0938	195.979	160.868	351.559	232.158	116.120	19.003	304.837	287.298	143.037	110.661	331.838	316.521	152.966	15.475	104.201	212.684	0.0015586	0.00037035	0.00010152	843.64	1.3571e-05	1.0069e-05	909.32	329.9	1.3357e-05	6.6337e-06	416.31	175.04	136.68	65.112	7.5511e-06	89.041	0.0013658	0.0013695	0.00038103	931.84	1.4995e-05	1.5069e-05	992.98	357.79	1.5019e-05	1.4988e-05	494.44	188.45	153.24	70.147	1.4797e-05	95.305	360.334	277.469	106.848	15.490	120.610	138.840	15.067	20.888	76.598	105.986	19.459	23.772	25.699	30.469	162.256	28.003	-8191	255	
1462.935	1	1	0	0	0.16853	0.12021	0.18587	0.1845	0.1065	0.18508	0.093741	0.14555	0.051435	0.089195	0.24821	0.067201	0.11318	0.32372	0.29111	0.13136	-2.5833	-2.7917	-1.9	-3.2667	-2.3937	-2.3792	-3.4021	-2.2458	-2.8208	-2.8417	-1.9688	-3.1688	-2.6312	-2.4313	-3.1604	-2.4083	251.316	259.086	119.528	354.741	352.537	309.157	64.521	235.624	10.976	133.630	144.949	269.629	229.684	328.518	100.202	226.571	0.001979	5.5786e-05	1.3372e-05	843.13	3.1323e-06	2.8941e-06	907.06	329.44	8.1421e-06	1.3705e-05	416.53	173.64	135.68	64.991	1.4275e-06	88.599	0.0013606	0.0013658	0.00038185	929.01	1.4998e-05	1.505e-05	989.16	357.19	1.5023e-05	1.4977e-05	494.43	187.63	153.31	70.076	1.4891e-05	95.02	17.101	228.371	54.659	15.764	127.878	93.235	14.954	20.988	65.921	113.461	19.386	23.913	26.124	30.600	184.693	27.966	-8191	255	
1463.031	1	1	0	0	0.13088	0.14172	0.060576	0.17176	0.20091	0.13412	0.20663	0.06514	0.23709	0.21162	0.35398	0.095265	0.099092	0.18023	0.089085	0.12765	-2.5292	-2.9958	-2.0792	-3.125	-2.7375	-2.3021	-3.2896	-2.2792	-2.5104	-3.1042	-2.0979	-3.2875	-2.7083	-2.4188	-3.25	-2.5771	54.244	50.402	193.080	273.706	336.597	280.488	330.353	349.877	145.145	69.194	49.158	12.762	94.821	68.665	115.539	359.739	0.0015609	0.00045447	8.9225e-05	841.17	1.2984e-05	4.1975e-06	911.48	330.77	1.3355e-05	7.9099e-06	418.03	174.91	137.44	65.609	9.2573e-06	89.435	0.0013622	0.0013632	0.00038136	929.79	1.4926e-05	1.4882e-05	990.64	358.1	1.4863e-05	1.4871e-05	495.07	188.5	154.06	70.557	1.4991e-05	95.882	4.555	82.909	90.228	15.741	97.660	189.790	14.944	20.714	131.896	61.283	19.465	23.938	25.672	30.209	147.177	28.133	-8191	255	
1463.127	1	1	0	0	0.095514	0.039871	0.11296	0.15184	0.18033	0.12643	0.1111	0.17038	0.22297	0.056126	0.13334	0.13964	0.2166	0.12063	0.16549	0.088649	-2.1083	-3.2667	-2.0667	-3.1917	-2.7812	-2.1583	-3.2938	-2.4271	-2.2979	-3.25	-2.1521	-3.1333	-2.9917	-2.175	-3.1729	-2.5438	249.443	263.759	58.623	348.900	40.176	54.894	181.203	345.324	168.847	312.298	51.628	326.768	91.669	23.710	211.352	325.542	0.0014209	0.0010786	0.00031539	841.58	1.4336e-06	1.1739e-05	910.86	330.94	1.3468e-05	4.1365e-07	421.25	175.35	138.28	65.907	3.0434e-06	89.953	0.0013777	0.0013762	0.00038506	929.69	1.5133e-05	1.5158e-05	994.21	358.76	1.5134e-05	1.4977e-05	498.52	189.73	154.6	70.819	1.5142e-05	96.381	11.736	94.119	58.493	15.893	358.588	88.775	15.098	20.993	118.622	203.480	19.597	23.929	25.647	30.467	78.999	28.181	-8191	255	
1463.199	1	1	0	0	0.12554	0.19068	0.21968	0.31191	0.14616	0.36468	0.26148	0.27166	0.087398	0.045558	0.14917	0.19874	0.12984	0.46961	0.080226	0.16264	-2.1125	-3.1979	-1.925	-2.8104	-3.0771	-2.2667	-3.3083	-2.8292	-2.3	-3.35	-2.3479	-2.6583	-3.225	-2.1792	-2.95	-2.7667	261.112	36.949	10.699	331.075	52.654	355.043	308.184	278.214	231.894	331.563	362.535	318.716	353.646	333.930	229.924	259.120	0.0015527	0.0012905	0.00022455	846.93	7.2516e-06	6.0846e-06	912.52	330.93	4.8438e-06	1.2062e-05	420.51	176.42	137.48	65.712	9.9979e-06	90.144	0.0013743	0.0013847	0.00038754	933.27	1.5031e-05	1.513e-05	996.61	358.84	1.5165e-05	1.5182e-05	499.72	190.07	154.52	70.806	1.5292e-05	96.496	19.494	71.391	87.337	15.679	156.850	120.247	15.304	20.781	69.598	215.488	19.777	24.239	25.615	30.345	180.607	27.992	-8191	255	
1463.319	1	1	0	0	0.26536	0.035738	0.31121	0.03409	0.10301	0.12145	0.12536	0.23974	0.097923	0.15924	0.19112	0.12476	0.098264	0.30189	0.30505	0.26367	-1.9125	-3.2333	-2.3521	-2.6604	-3.1542	-1.9542	-3.1792	-2.8333	-2.0938	-3.25	-2.4688	-2.6542	-3.1833	-2.3833	-2.9146	-3.2979	326.255	182.743	108.113	271.754	153.087	38.516	296.652	325.977	172.740	319.708	227.502	3.393	24.316	142.156	302.004	302.613	0.001611	0.0011565	0.00026008	845.55	3.9522e-06	3.7037e-06	910.32	329.64	7.9226e-06	4.0411e-06	416.17	174.17	136.23	65.033	6.0951e-06	88.79	0.0013774	0.0013906	0.00039078	932.62	1.5145e-05	1.5153e-05	994.79	357.7	1.5059e-05	1.515e-05	496.37	188.05	153.38	70.078	1.5158e-05	95.191	18.005	96.573	82.015	15.521	133.944	100.301	14.953	20.672	97.780	52.989	19.633	23.837	25.778	30.132	134.092	27.974	-8191	255	
1463.415	1	1	0	0	0.21231	0.12895	0.30999	0.072283	0.095037	0.38842	0.40906	0.35485	0.11519	0.094484	0.085062	0.25073	0.21245	0.10768	0.17474	0.08503	-1.8479	-3.2021	-2.3312	-2.5187	-3.2854	-2.0229	-3.1333	-2.9938	-2.0792	-3.325	-2.6083	-2.4229	-3.1542	-2.3063	-2.6771	-3.2917	235.417	190.052	114.884	357.502	343.714	288.880	278.022	331.466	181.782	313.104	80.151	351.304	10.796	280.484	69.825	298.010	0.0016082	0.0011722	6.6899e-05	845.36	1.0278e-05	3.7632e-06	906.36	329.13	8.7674e-06	6.5315e-06	415.71	173.7	136.09	64.711	2.2061e-06	88.264	0.0013752	0.0013819	0.00038556	930.01	1.4925e-05	1.5036e-05	988.71	357.14	1.4781e-05	1.483e-05	492.74	187.08	152.86	69.798	1.4923e-05	94.596	15.876	132.787	5.084	15.766	118.994	210.824	15.096	20.803	125.798	182.106	19.084	23.769	25.682	30.280	122.165	27.935	-8191	255	
1463.511	1	1	0	0	0.14747	0.27443	0.31182	0.48397	0.15518	0.044909	0.22138	0.16348	0.17144	0.30328	0.084886	0.19724	0.27331	0.41443	0.13645	0.37192	-1.6812	-3.2042	-2.4667	-2.3417	-3.3208	-2.2313	-2.7229	-3.2667	-2.0875	-3.2625	-2.7	-2.3875	-3.3	-2.3708	-2.5917	-3.2687	300.824	275.906	86.088	261.691	309.976	286.777	319.711	237.944	148.195	312.226	316.627	255.450	155.822	317.228	84.383	331.874	0.0015064	0.00062568	0.0001065	844.12	2.5858e-06	7.2206e-06	906.05	328.98	5.5762e-06	3.7693e-06	416.4	173.75	136.96	65.037	5.8469e-06	89.127	0.0013577	0.0013714	0.0003805	927.82	1.4854e-05	1.4974e-05	989.37	356.15	1.4883e-05	1.4968e-05	493.23	187.44	153.55	69.98	1.4913e-05	95.308	11.657	70.949	8.816	15.641	143.881	174.506	15.226	20.984	76.313	138.999	19.388	24.134	25.616	30.505	167.362	28.170	-8191	255	
1463.608	1	1	0	0	0.17493	0.082566	0.25493	0.23727	0.12903	0.13095	0.081836	0.23851	0.11471	0.10307	0.15872	0.15255	0.27559	0.056511	0.30303	0.12843	-1.8687	-3.0542	-2.6979	-2.3021	-3.3333	-2.4917	-2.7021	-3.5438	-2.1458	-2.9604	-2.9583	-2.3854	-3.3063	-2.6271	-2.1583	-3.4333	39.822	283.728	216.214	313.050	100.008	99.756	288.716	299.264	231.807	169.346	22.958	292.241	284.189	226.885	15.699	54.265	0.0012135	0.00073825	5.7387e-05	844.78	9.1154e-06	6.89e-06	911.32	329.55	1.1948e-05	4.3907e-06	417.1	175.39	137.53	65.337	8.9468e-06	89.633	0.0013569	0.001381	0.0003805	931.09	1.4944e-05	1.5108e-05	992.27	357.51	1.5003e-05	1.5028e-05	495.4	188.78	154.01	70.32	1.4873e-05	95.804	5.543	135.981	39.409	15.864	180.810	190.626	15.295	21.008	153.710	146.521	19.510	24.118	26.124	30.473	160.263	28.288	-8191	255	
1463.726	1	1	0	0	0.089235	0.055668	0.088619	0.20259	0.12147	0.32734	0.031208	0.20841	0.17236	0.1178	0.46393	0.21494	0.10979	0.097499	0.10363	0.023043	-1.9229	-2.8937	-2.8312	-2.4479	-3.1354	-2.4208	-2.55	-3.4104	-2.1	-2.9833	-3.0042	-1.9583	-3.1646	-2.6146	-2.2917	-3.5979	353.310	273.413	254.601	87.002	91.645	27.876	9.895	308.999	116.864	305.264	290.345	359.193	13.172	347.768	135.923	338.534	0.0015094	0.00052387	0.00025311	846.02	1.4102e-05	6.9609e-06	909.92	330.75	1.6733e-05	1.2942e-05	417.41	175.9	138.4	65.352	1.8472e-05	89.461	0.0013566	0.0013676	0.00038137	930.41	1.4932e-05	1.5048e-05	994.32	358.63	1.4948e-05	1.5093e-05	496.14	189.45	154.66	70.518	1.4891e-05	96	13.694	78.953	177.228	15.734	147.061	124.763	15.242	21.039	78.622	163.451	19.529	24.199	26.245	30.657	58.000	28.185	-8191	255	
1463.823	1	1	0	0	0.087326	0.26013	0.078967	0.29785	0.087907	0.18216	0.15488	0.27174	0.10475	0.19304	0.2191	0.12323	0.14966	0.23608	0.12064	0.16149	-1.9271	-2.5292	-3.0604	-2.2	-2.9979	-2.6271	-2.2917	-3.3229	-2.1813	-2.5396	-3.1333	-2.0917	-3.2208	-2.6937	-2.1083	-3.3979	207.864	55.356	169.286	341.888	30.797	117.296	319.377	298.399	140.320	65.191	325.223	277.627	362.224	6.631	348.408	38.395	0.001601	0.00084806	0.00026298	848.37	1.1145e-05	2.1834e-06	914.1	330.56	6.4268e-06	5.8052e-06	415.48	173.73	137.96	65.244	1.0338e-05	89.186	0.0013738	0.0013829	0.00038234	931.48	1.5071e-05	1.5046e-05	992.31	357.76	1.507e-05	1.5017e-05	494.32	188.12	154.27	70.285	1.5011e-05	95.523	6.965	114.316	80.389	15.779	87.906	116.438	15.251	20.977	149.963	120.215	19.059	23.804	25.570	30.239	110.363	27.932	-8191	255	
1463.919	1	1	0	0	0.17745	0.10825	0.30444	0.26942	0.23483	0.39508	0.035148	0.056317	0.16201	0.23633	0.19719	0.16833	0.12826	0.085687	0.21505	0.10581	-2.0333	-2.4562	-3.0458	-2.2396	-2.8146	-3.0604	-2.2021	-3.3896	-2.2729	-2.3896	-3.2854	-2.3125	-2.925	-3.1104	-1.8292	-3.3729	85.986	22.159	64.914	34.510	217.836	170.516	16.896	246.375	155.337	119.922	323.397	249.265	127.214	316.080	327.551	333.374	0.0016334	0.0009025	9.8753e-05	843.61	6.956e-06	6.6968e-06	904.47	329.64	8.6326e-06	7.96e-06	414.01	174.01	137.32	65.365	4.2862e-06	88.852	0.0013749	0.0013747	0.00038411	931.53	1.5107e-05	1.4989e-05	989.25	358.01	1.5116e-05	1.5033e-05	494.53	187.86	154.14	70.331	1.5049e-05	95.282	362.150	129.383	96.705	15.685	78.768	52.545	15.023	20.992	69.136	123.797	19.407	24.154	26.144	30.569	124.579	28.322	-8191	255	
1464.015	1	1	0	0	0.27406	0.084666	0.059028	0.26078	0.22802	0.068433	0.11476	0.28105	0.20262	0.056468	0.21437	0.12169	0.13521	0.28291	0.0468	0.12327	-2.2833	-2.2042	-3.4146	-2.3354	-2.7479	-3.1042	-2.2396	-3.5146	-2.6521	-2.1854	-3.2208	-2.2333	-2.6042	-3.2208	-1.8521	-3.1813	178.298	284.760	29.461	288.832	147.118	140.377	290.017	312.260	92.405	360.243	273.794	316.061	95.564	11.078	302.285	271.591	0.0014391	0.00076196	0.00016409	841.55	1.8197e-06	3.016e-06	902.51	329.68	2.0793e-05	1.1027e-05	416.63	174.69	137.5	65.421	7.6909e-06	89.922	0.0013772	0.0013805	0.00038308	929.98	1.5195e-05	1.5212e-05	988.16	358.67	1.5337e-05	1.517e-05	497.51	188.97	154.8	70.625	1.521e-05	96.155	9.588	144.229	362.907	15.666	135.766	154.397	15.246	21.047	136.346	159.952	19.327	24.111	26.245	30.375	85.005	28.200	-8191	255	
1464.111	1	1	0	0	0.17239	0.21102	0.17911	0.35298	0.35747	0.15229	0.20659	0.03684	0.058882	0.097738	0.20113	0.18591	0.19034	0.31179	0.055078	0.36389	-2.425	-2.1833	-3.1458	-2.2979	-2.4521	-3.0521	-2.1917	-3.1104	-2.6896	-2.0708	-3.1583	-2.4062	-2.4229	-3.275	-2.1542	-3.1521	247.040	200.225	246.316	329.966	233.903	135.556	306.640	107.274	178.301	83.519	304.375	33.721	7.069	257.914	159.868	317.233	0.0010734	0.00068748	0.0002195	844.26	1.0932e-05	9.4056e-06	914.69	331.67	2.9933e-06	6.203e-06	420.66	175.58	136.95	65.55	1.5041e-05	90.252	0.0013876	0.001399	0.00039071	932.59	1.5157e-05	1.5257e-05	994.64	359.51	1.5244e-05	1.5235e-05	499.65	189.62	154.78	70.87	1.5377e-05	96.634	18.539	142.301	82.474	15.786	193.675	186.407	15.288	21.034	82.838	285.320	19.569	23.857	25.705	30.187	186.520	28.126	-8191	255	
1464.207	1	1	0	0	0.069006	0.29648	0.15347	0.041677	0.088719	0.19043	0.084487	0.27876	0.059375	0.15086	0.11571	0.10975	0.179	0.38415	0.06074	0.41978	-2.5833	-2.0292	-3.3229	-2.4562	-2.2958	-3.2896	-2.2417	-2.8396	-2.8771	-2.1771	-3.2479	-2.6604	-2.3708	-3.5625	-2.3021	-2.8542	220.478	23.177	310.280	107.565	124.568	47.832	210.005	316.301	362.325	80.386	360.149	301.559	276.951	300.777	112.621	7.540	0.0018301	0.00027892	0.00021269	847.91	7.6344e-06	1.6917e-06	915.3	332.15	7.428e-06	6.5935e-06	418.2	175.3	137.97	65.537	3.7556e-06	89.629	0.0013862	0.0014019	0.00039153	934.63	1.5337e-05	1.5281e-05	997.59	360.08	1.5292e-05	1.5273e-05	499.77	189.73	154.94	70.789	1.535e-05	96.177	18.653	315.913	119.861	15.639	140.749	150.955	14.738	20.975	155.559	238.407	19.638	24.262	25.868	30.516	125.448	28.091	-8191	255	
1464.328	1	1	0	0	0.13442	0.21107	0.32596	0.25503	0.17512	0.12539	0.11705	0.34946	0.15358	0.2012	0.080209	0.28216	0.047731	0.10241	0.1965	0.28104	-2.8083	-2.0271	-3.0854	-2.7083	-2.2604	-3.2646	-2.2313	-2.8208	-3.0542	-1.8646	-2.9167	-3.0104	-2.3438	-3.4813	-2.3375	-2.7917	226.710	5.565	188.213	211.268	191.287	142.862	185.781	280.597	227.822	53.092	47.886	354.714	342.234	297.839	252.256	256.049	0.0020704	0.00056114	0.00018792	841.23	1.0825e-05	6.819e-06	906.83	330.65	6.8417e-06	9.4628e-06	417.13	173.79	137.21	64.972	1.1584e-05	88.478	0.0013943	0.0014031	0.00039303	931.62	1.522e-05	1.5292e-05	990.42	358.52	1.5169e-05	1.5164e-05	495.77	187.82	154.01	70.206	1.5185e-05	94.804	10.528	10.893	40.104	15.616	144.803	164.702	14.839	20.844	81.173	113.721	19.446	23.788	25.488	30.441	154.123	28.068	-8191	255	
1464.424	1	1	0	0	0.11966	0.21836	0.20807	0.080937	0.40277	0.10388	0.2234	0.15995	0.16543	0.14253	0.10956	0.12044	0.077552	0.18648	0.076749	0.37926	-3	-2.0312	-3.0812	-2.9104	-1.9208	-3.2083	-2.45	-2.4854	-3.2229	-1.9958	-3.0833	-2.8771	-1.8708	-3.225	-2.6229	-2.3896	61.799	7.287	57.843	4.579	8.675	353.410	302.501	255.154	140.825	188.667	347.631	328.538	83.340	347.362	165.709	275.678	0.0017345	0.00077711	0.00015019	844.92	5.6965e-06	7.3353e-06	901.62	328.37	5.485e-06	7.6802e-06	415.59	173.06	137.03	65.006	9.3432e-06	88.921	0.0013757	0.0013917	0.00038712	929.55	1.5023e-05	1.5176e-05	986.37	356.94	1.5033e-05	1.5162e-05	493.78	186.95	153.46	70.048	1.5254e-05	95.098	355.464	71.420	105.790	15.706	147.936	157.566	15.217	21.068	102.724	118.320	19.637	23.904	25.940	30.643	156.361	28.358	-8191	255	
1464.496	1	1	0	0	0.099443	0.14669	0.14998	0.22853	0.06533	0.24273	0.074205	0.18002	0.088312	0.17997	0.16156	0.092801	0.13423	0.20028	0.16404	0.13608	-3.05	-2.1458	-2.6688	-3.2146	-1.9479	-3.1042	-2.6042	-2.425	-3.1646	-2.1854	-2.9437	-3.2167	-2.1771	-3.3083	-2.7062	-2.4604	354.562	19.614	55.221	76.879	280.721	230.241	295.637	5.930	344.699	74.835	189.616	312.932	345.274	356.308	40.678	236.379	0.0014024	0.00059209	8.1127e-05	842.57	1.3225e-05	5.5389e-06	905.62	329.02	1.0436e-05	5.0533e-06	414.06	174.38	137.27	65.432	1.3659e-05	89.376	0.001374	0.0013871	0.00038704	928.85	1.5039e-05	1.5117e-05	989.12	357.5	1.4923e-05	1.5051e-05	495.68	188.21	154.45	70.502	1.5088e-05	95.727	16.244	74.772	79.943	15.494	160.111	136.846	15.031	20.766	108.583	138.616	19.440	23.733	25.800	30.390	129.346	27.975	-8191	255	
1464.592	1	1	0	0	0.2538	0.047184	0.1669	0.076851	0.22486	0.30061	0.21132	0.21854	0.18116	0.18385	0.17636	0.16781	0.20085	0.19752	0.15594	0.17823	-2.8854	-2.2708	-2.6458	-3.3542	-2.0542	-3.0292	-2.9708	-2.375	-3.225	-2.25	-2.4813	-3.3896	-2.1479	-3.2083	-2.7396	-2.275	257.065	73.127	181.878	277.007	349.269	205.708	268.228	24.574	89.559	339.152	334.935	347.917	274.022	320.925	75.146	308.845	0.0015614	0.00089694	0.00023279	843.74	4.1516e-06	1.8037e-06	909.13	330.03	1.7122e-05	5.0508e-06	415.58	174.99	137.05	65.603	2.5383e-06	90.058	0.0013733	0.0013911	0.00038555	930.6	1.5112e-05	1.5248e-05	991.71	357.89	1.5224e-05	1.5228e-05	497.91	189.18	154.76	70.788	1.5246e-05	96.404	5.980	127.831	3.627	15.774	223.528	68.383	15.343	21.134	127.512	169.694	19.437	23.939	25.644	30.339	110.938	28.270	-8191	255	
1464.711	1	1	0	0	0.13541	0.43873	0.17848	0.18157	0.31777	0.17994	0.037821	0.46063	0.22478	0.089546	0.17123	0.090647	0.25953	0.061374	0.20003	0.19191	-2.6833	-2.3771	-2.3812	-3.2854	-1.9417	-2.9313	-3.075	-2.1417	-3.0312	-2.3583	-2.2708	-3.4792	-1.8271	-2.8354	-3.0208	-2.1167	62.321	122.701	300.838	8.804	170.567	145.293	201.743	319.224	85.946	113.303	8.873	289.830	47.092	28.571	6.776	282.865	0.0016192	0.0010933	0.00013821	844.28	6.7079e-06	8.9643e-06	907.37	331.4	1.2532e-05	5.8817e-06	418.94	175.55	137.45	65.513	5.045e-06	89.383	0.0013854	0.0014032	0.00038951	931.64	1.5342e-05	1.5349e-05	992.81	359.55	1.5414e-05	1.5456e-05	499.39	189.39	154.91	70.711	1.5279e-05	95.854	19.295	159.760	75.076	16.019	122.839	172.011	15.133	20.903	58.351	60.139	19.931	24.112	26.289	30.349	161.782	28.142	-8191	255	
1464.807	1	1	0	0	0.19767	0.10004	0.19467	0.12718	0.12303	0.16158	0.15264	0.35258	0.074052	0.15644	0.1202	0.38204	0.21722	0.48763	0.19803	0.1189	-2.7167	-2.5646	-2.1375	-3.3854	-2.1583	-2.7	-3.3125	-2.2479	-3.1917	-2.675	-2.25	-3.4	-2.4729	-2.7167	-3.125	-2.2125	26.644	14.303	286.755	299.668	231.085	356.465	47.790	303.661	131.750	31.227	323.526	345.648	281.663	266.496	63.885	256.599	0.0016017	0.00056843	0.00027499	841.02	1.2993e-05	7.9252e-06	905.79	330.37	5.6306e-06	1.2615e-05	414.76	173.97	137.26	65.466	4.3731e-06	89.05	0.0014044	0.0014059	0.00039182	931.34	1.535e-05	1.5429e-05	989.82	358.58	1.5206e-05	1.5334e-05	494.79	188.08	154.19	70.544	1.5198e-05	95.324	10.993	135.035	106.585	15.535	100.197	159.803	15.171	20.911	243.747	140.695	19.159	24.132	25.940	30.604	113.427	28.185	-8191	255	
1464.903	1	1	0	0	0.045334	0.19924	0.20734	0.24359	0.26328	0.27444	0.21441	0.29798	0.15064	0.1715	0.095733	0.13785	0.091682	0.20084	0.10394	0.12969	-2.7146	-2.75	-2.1125	-3.4396	-2.325	-2.4562	-3.3208	-2.3375	-2.9458	-2.8167	-2.0521	-3.3396	-2.5833	-2.6521	-3.0354	-2.4833	32.803	356.013	31.981	280.523	197.116	158.246	244.355	308.228	268.708	300.751	286.239	290.567	324.171	303.984	268.378	39.454	0.0014803	0.00010793	0.00030068	838.3	1.17e-05	3.1229e-06	901.79	329.24	1.3367e-06	3.4749e-06	418.83	174.85	137.3	65.624	1.0789e-05	89.675	0.0013902	0.0013931	0.00038705	928.83	1.5266e-05	1.5202e-05	985.84	357.84	1.5313e-05	1.5286e-05	496.49	189.06	155.2	70.98	1.54e-05	96.26	5.452	271.158	69.718	15.809	150.897	172.020	15.309	20.924	40.375	160.962	19.854	24.083	25.885	30.481	118.973	28.154	-8191	255	
1464.999	1	1	0	0	0.15053	0.28453	0.058319	0.19774	0.10254	0.13638	0.15398	0.26677	0.12035	0.25601	0.26585	0.062767	0.14402	0.090583	0.061132	0.056994	-2.5229	-3.0187	-2.0125	-3.3292	-2.3771	-2.2979	-3.2979	-2.2521	-2.7271	-3.0271	-1.9688	-3.2708	-2.7396	-2.4917	-3.1542	-2.4646	234.410	274.817	135.562	274.908	320.662	167.583	357.696	284.267	42.066	64.098	14.352	112.218	341.250	346.136	220.990	145.003	0.0016936	0.00088544	0.00014064	840.06	7.5732e-06	1.5236e-06	909.24	332.04	1.3094e-05	8.9436e-06	418.54	175.95	138.15	65.71	2.4655e-06	89.75	0.0014064	0.0014084	0.0003923	929.99	1.5367e-05	1.5242e-05	990.8	359.47	1.5264e-05	1.5171e-05	498.5	189.51	155.11	70.947	1.5206e-05	96.355	8.466	120.638	334.748	15.356	171.584	136.259	14.713	20.712	144.515	130.129	18.967	23.782	25.424	30.138	249.685	27.671	-8191	255	
1465.095	1	1	0	0	0.21302	0.11308	0.17486	0.021734	0.068442	0.2408	0.28277	0.17618	0.17324	0.24746	0.28024	0.12512	0.33581	0.35853	0.34486	0.065976	-2.3667	-3.0333	-2.0687	-3.1708	-2.7708	-2.2208	-3.4354	-2.3917	-2.4792	-3.1958	-2.0812	-3.1417	-2.7417	-2.3333	-3.3042	-2.4979	203.071	230.632	83.564	86.052	359.904	123.355	254.217	271.045	229.665	139.001	55.087	327.998	354.769	358.627	121.064	68.747	0.0016036	0.00049535	0.00014691	840.6	3.8158e-06	9.2127e-06	906.97	331.32	2.5887e-06	5.1485e-06	419.17	176.9	138.25	65.941	8.1307e-06	90.227	0.0013957	0.0014002	0.00039253	929.94	1.5404e-05	1.5364e-05	990.87	359.03	1.5437e-05	1.5437e-05	499.53	190.55	155.56	71.14	1.5345e-05	96.798	12.394	87.239	106.836	15.168	219.811	57.748	14.712	20.429	79.997	197.055	18.884	23.434	25.628	29.843	123.987	27.585	-8191	255	
1465.191	1	1	0	0	0.07571	0.14875	0.26631	0.1881	0.074672	0.22901	0.2893	0.095535	0.1822	0.21858	0.135	0.21877	0.12331	0.050623	0.2764	0.12104	-2.1292	-3.1792	-2.2125	-3.0563	-2.8438	-2.2375	-3.4521	-2.5938	-2.4458	-3.0271	-2.1479	-3.0354	-3.1083	-2.1667	-3.15	-2.7625	39.746	74.981	314.673	350.407	66.393	275.497	226.103	130.687	330.279	151.387	34.332	354.749	26.006	143.376	44.996	359.068	0.0016633	0.0010533	0.00018137	843.52	1.1703e-06	8.9261e-06	909.21	329.92	1.8944e-05	5.4582e-06	414.09	174.76	136.99	65.357	1.0199e-05	89.058	0.0013966	0.001399	0.00039346	932.65	1.531e-05	1.5262e-05	992.63	358.7	1.5263e-05	1.53e-05	497.86	188.72	154.15	70.466	1.5186e-05	95.57	17.094	81.258	171.638	15.152	252.799	175.282	14.420	20.431	73.755	166.763	18.878	23.592	25.228	29.945	126.716	27.642	-8191	255	
1465.288	1	1	0	0	0.017918	0.03439	0.20307	0.27673	0.20915	0.16044	0.16952	0.32831	0.11283	0.051142	0.072438	0.24884	0.3021	0.15245	0.094509	0.087104	-2.0792	-3.1979	-2.1333	-2.7875	-3.0979	-2.0208	-3.1896	-2.7771	-2.175	-3.275	-2.4	-2.8	-3.1792	-2.2792	-2.9667	-2.8042	162.210	123.339	152.343	341.683	45.743	232.503	242.555	317.280	130.424	171.736	348.029	312.651	18.682	15.701	20.739	119.655	0.001594	0.00097699	9.9348e-05	841.19	1.3156e-05	9.613e-06	902.62	327.64	9.2553e-06	4.9933e-06	413.01	173.17	136.03	64.94	3.4953e-06	88.286	0.0013775	0.0013836	0.00038617	928.28	1.5043e-05	1.5156e-05	984.21	356.47	1.5076e-05	1.5056e-05	493.73	186.93	153.12	70.012	1.5096e-05	94.734	13.981	135.506	137.965	15.040	132.406	86.776	14.485	20.412	100.483	276.381	18.400	23.616	25.110	29.873	191.060	27.527	-8191	255	
1465.408	1	1	0	0	0.071956	0.064085	0.15591	0.1049	0.1945	0.1173	0.29378	0.15022	0.30696	0.23897	0.1809	0.048177	0.18346	0.27647	0.33844	0.32419	-1.8896	-3.1646	-2.0521	-2.7687	-3.2708	-1.9458	-3.0875	-3.1208	-1.9604	-3.2021	-2.5229	-2.625	-3.2687	-2.2146	-2.9333	-2.9667	53.508	332.450	105.233	232.032	52.888	222.899	293.736	283.565	294.316	313.712	39.881	219.643	186.647	331.420	34.002	279.922	0.0014933	0.00078745	0.00017892	839.49	1.0288e-05	3.4564e-06	899.66	328.83	1.9767e-05	9.5607e-06	415.33	173.94	136.91	65.26	4.1141e-06	89.067	0.0013657	0.0013786	0.00038512	925.85	1.5005e-05	1.5147e-05	983.58	356.11	1.5045e-05	1.5081e-05	494.59	187.73	153.74	70.335	1.503e-05	95.393	8.428	102.055	105.649	15.413	174.736	66.125	14.780	20.366	95.985	183.729	18.779	23.647	25.481	29.864	67.946	27.794	-8191	255	
1465.504	1	1	0	0	0.062848	0.26432	0.2203	0.036051	0.10756	0.27196	0.22755	0.1567	0.21258	0.17963	0.10481	0.074133	0.13588	0.19602	0.080785	0.15887	-1.9292	-3.1875	-2.4125	-2.3396	-3.2354	-2.15	-3.0104	-3.1083	-2.0479	-3.175	-2.4688	-2.2708	-3.375	-2.3958	-2.8187	-3.1562	151.031	218.705	79.473	314.815	351.669	28.691	233.250	198.099	253.290	252.532	70.756	323.161	143.465	323.519	14.497	282.180	0.0016608	0.0004892	0.00020038	838.5	6.631e-06	5.46e-06	906.81	328.59	9.4986e-07	1.4461e-05	413.16	175.39	137.62	65.423	3.4747e-06	89.935	0.0013525	0.001375	0.0003818	926.01	1.4957e-05	1.506e-05	987.36	357.14	1.4916e-05	1.504e-05	493.62	188.61	154.11	70.587	1.4975e-05	96.028	20.456	20.176	147.676	15.293	170.971	121.660	14.469	20.299	180.626	155.670	19.319	23.410	24.981	29.720	234.996	27.605	-8191	255	
1465.601	1	1	0	0	0.33021	0.23924	0.22142	0.12329	0.030349	0.02516	0.16157	0.34746	0.20613	0.29185	0.097062	0.20229	0.086955	0.1535	0.13048	0.22662	-1.8146	-3.0375	-2.5062	-2.1896	-3.0833	-2.2083	-2.6708	-3.2146	-2.0271	-2.8583	-2.6271	-2.2646	-3.2021	-2.4708	-2.5812	-3.3521	206.106	318.980	206.735	61.037	23.411	75.905	159.883	2.869	210.578	158.498	266.188	275.028	345.486	64.808	70.403	361.297	0.0012203	0.00047214	0.00015923	843.03	9.76e-06	1.3267e-05	906.31	330.93	1.1701e-05	5.4235e-06	418.57	176.21	137.91	65.825	8.1153e-06	90.372	0.0013603	0.0013745	0.00038093	926.76	1.4957e-05	1.5105e-05	990.48	358.46	1.4989e-05	1.5017e-05	497.45	189.59	154.79	70.978	1.5021e-05	96.699	21.182	25.487	83.449	15.212	130.940	180.967	14.489	20.205	118.175	61.023	19.374	23.413	25.164	29.858	149.488	27.670	-8191	255	
1465.719	1	1	0	0	0.14881	0.058027	0.10789	0.16534	0.086903	0.33643	0.22728	0.060745	0.032064	0.16426	0.099006	0.24833	0.34445	0.18607	0.13574	0.20975	-1.7479	-3.0229	-2.7625	-2.1042	-3.1917	-2.4688	-2.6854	-3.3875	-2.1188	-2.8104	-3.0021	-2.0563	-3.1437	-2.6417	-2.4021	-3.4417	348.478	175.523	89.823	358.828	10.837	160.914	267.911	72.078	113.675	324.307	127.485	17.438	44.992	309.175	344.238	295.602	0.0019056	0.0010669	0.00027421	840.95	8.8399e-06	5.8449e-06	907.69	330.81	5.2167e-06	5.8237e-06	418.16	174.19	137.1	65.458	8.2527e-06	89.473	0.0013652	0.001376	0.00038023	927.05	1.4923e-05	1.496e-05	987.56	358.36	1.4811e-05	1.4868e-05	493.6	188.3	154.06	70.644	1.4866e-05	95.903	13.471	105.253	67.445	15.353	136.576	141.197	14.748	20.421	81.756	171.781	18.508	23.643	25.298	29.739	52.331	27.576	-8191	255	
1465.791	1	1	0	0	0.10317	0.19408	0.076758	0.41035	0.080587	0.13608	0.11506	0.27792	0.15978	0.21014	0.18873	0.15748	0.070468	0.080815	0.16825	0.28671	-1.7583	-2.6688	-2.9042	-2.1104	-3.0438	-2.6792	-2.2229	-3.4708	-2.0062	-2.6708	-3.1792	-2.0979	-3.2229	-2.7062	-2.2458	-3.4917	176.082	8.924	67.813	340.326	247.987	182.309	313.232	346.751	204.395	361.435	21.874	4.871	343.253	279.623	53.962	280.258	0.001759	0.00011142	0.00011566	843	2.3253e-06	6.5059e-06	901.51	331.77	1.9847e-05	3.8214e-06	414.39	173.74	137.38	65.273	1.1739e-05	89.34	0.0013649	0.001368	0.00038049	926.64	1.5077e-05	1.5019e-05	983.88	358.33	1.4952e-05	1.4951e-05	492.82	187.68	154.12	70.468	1.4875e-05	95.52	10.849	302.232	179.362	15.099	109.732	109.979	14.838	20.570	193.751	190.195	18.865	23.623	25.273	29.766	174.581	27.674	-8191	255	
#DATA ENDS
