BOXY.EXE: ISS Imagent and Oximeter Data Acquisition Program Version 0.80
Ascii Record File

#ACQ INFORMATION
2  Detector Channels 
16  External MUX Channels 
1  Auxiliary Channels 
5000  Waveform (CCF) Frequency (Hz)
1  Waveforms Skipped 
30  Waveforms Averaged 
1  Cycles Averaged 
16  Acquisitions per Waveform 
10.0806  Updata Rate (Hz) 

#FILE INFORMATION
TRUE -- External MUX Channel results are PARSED.
FALSE -- AC DC and Phase are NOT grouped.
TRUE -- Companion Program Settings File CREATED.
FALSE -- AC data not excluded
FALSE -- DC data not excluded
FALSE -- Phase data not excluded
FALSE -- Auxillary Chn. data not excluded
Tab delimiters

#CALIBRATION STATE
TRUE -- Waveform Calibration Values APPLIED.


#AUX CALIBRATION VALUES
Val Type	aux-1	

Term	1.0000e+00	
Factor	0.0000e+00	


#WF CALIBRATION VALUES
A = Detector Channel
Val Type	A-AC1	A-AC2	A-AC3	A-AC4	A-AC5	A-AC6	A-AC7	A-AC8	A-AC9	A-AC10	A-AC11	A-AC12	A-AC13	A-AC14	A-AC15	A-AC16	A-DC1	A-DC2	A-DC3	A-DC4	A-DC5	A-DC6	A-DC7	A-DC8	A-DC9	A-DC10	A-DC11	A-DC12	A-DC13	A-DC14	A-DC15	A-DC16	A-Ph1	A-Ph2	A-Ph3	A-Ph4	A-Ph5	A-Ph6	A-Ph7	A-Ph8	A-Ph9	A-Ph10	A-Ph11	A-Ph12	A-Ph13	A-Ph14	A-Ph15	A-Ph16	

Term	0.00000e+00	0.00000e+00	0.00000e+00	0.00000e+00	0.00000e+00	0.00000e+00	0.00000e+00	0.00000e+00	0.00000e+00	0.00000e+00	0.00000e+00	0.00000e+00	0.00000e+00	0.00000e+00	0.00000e+00	0.00000e+00	0.00000e+00	0.00000e+00	0.00000e+00	0.00000e+00	0.00000e+00	0.00000e+00	0.00000e+00	0.00000e+00	0.00000e+00	0.00000e+00	0.00000e+00	0.00000e+00	0.00000e+00	0.00000e+00	0.00000e+00	0.00000e+00	0.00000e+00	0.00000e+00	0.00000e+00	0.00000e+00	0.00000e+00	0.00000e+00	0.00000e+00	0.00000e+00	0.00000e+00	0.00000e+00	0.00000e+00	0.00000e+00	0.00000e+00	0.00000e+00	0.00000e+00	0.00000e+00	
Factor	1.00000e+00	1.00000e+00	1.00000e+00	1.00000e+00	1.00000e+00	1.00000e+00	1.00000e+00	1.00000e+00	1.00000e+00	1.00000e+00	1.00000e+00	1.00000e+00	1.00000e+00	1.00000e+00	1.00000e+00	1.00000e+00	1.00000e+00	1.00000e+00	1.00000e+00	1.00000e+00	1.00000e+00	1.00000e+00	1.00000e+00	1.00000e+00	1.00000e+00	1.00000e+00	1.00000e+00	1.00000e+00	1.00000e+00	1.00000e+00	1.00000e+00	1.00000e+00	X	X	X	X	X	X	X	X	X	X	X	X	X	X	X	X	

B = Detector Channel
Val Type	B-AC1	B-AC2	B-AC3	B-AC4	B-AC5	B-AC6	B-AC7	B-AC8	B-AC9	B-AC10	B-AC11	B-AC12	B-AC13	B-AC14	B-AC15	B-AC16	B-DC1	B-DC2	B-DC3	B-DC4	B-DC5	B-DC6	B-DC7	B-DC8	B-DC9	B-DC10	B-DC11	B-DC12	B-DC13	B-DC14	B-DC15	B-DC16	B-Ph1	B-Ph2	B-Ph3	B-Ph4	B-Ph5	B-Ph6	B-Ph7	B-Ph8	B-Ph9	B-Ph10	B-Ph11	B-Ph12	B-Ph13	B-Ph14	B-Ph15	B-Ph16	

Term	0.00000e+00	0.00000e+00	0.00000e+00	0.00000e+00	0.00000e+00	0.00000e+00	0.00000e+00	0.00000e+00	0.00000e+00	0.00000e+00	0.00000e+00	0.00000e+00	0.00000e+00	0.00000e+00	0.00000e+00	0.00000e+00	0.00000e+00	0.00000e+00	0.00000e+00	0.00000e+00	0.00000e+00	0.00000e+00	0.00000e+00	0.00000e+00	0.00000e+00	0.00000e+00	0.00000e+00	0.00000e+00	0.00000e+00	0.00000e+00	0.00000e+00	0.00000e+00	-2.60428e+02	-1.10120e+02	-1.35771e+02	-1.82358e+02	-8.82290e+01	-8.01576e+01	-1.56915e+02	-1.62015e+02	-1.40806e+02	-6.49328e+01	-1.82532e+02	-1.70017e+02	-1.83467e+02	-1.76494e+02	-8.40987e+01	-1.49052e+02	
Factor	5.47524e-05	1.28517e-04	3.34994e-05	1.65911e-01	1.40518e-06	1.31051e-06	1.63629e-01	5.02796e-02	1.91554e-06	1.41169e-06	2.54980e-01	2.65488e-02	4.71564e-02	8.70794e-03	1.47822e-06	1.22069e-02	1.50795e-06	1.56019e-06	4.34946e-07	8.49721e-02	1.70309e-08	1.70813e-08	7.89962e-02	2.58188e-02	1.70192e-08	1.70604e-08	1.17178e-01	1.31686e-02	2.32700e-02	4.46970e-03	1.70381e-08	6.05392e-03	X	X	X	X	X	X	X	X	X	X	X	X	X	X	X	X	



#DISTANCE SETTINGS
A = Detector Channel
A-1	A-2	A-3	A-4	A-5	A-6	A-7	A-8	A-9	A-10	A-11	A-12	A-13	A-14	A-15	A-16	

2.5000e+00	3.0000e+00	2.5000e+00	3.0000e+00	2.0000e+00	3.0000e+00	1.5000e+00	3.0000e+00	3.0000e+00	3.0000e+00	3.0000e+00	3.0000e+00	3.0000e+00	3.0000e+00	1.5000e+00	3.0000e+00	

B = Detector Channel
B-1	B-2	B-3	B-4	B-5	B-6	B-7	B-8	B-9	B-10	B-11	B-12	B-13	B-14	B-15	B-16	

1.0000e+01	1.0000e+01	1.0000e+01	1.4400e+00	1.0000e+01	1.0000e+01	1.5100e+00	1.9400e+00	1.0000e+01	1.0000e+01	1.9900e+00	2.4900e+00	2.4100e+00	2.9000e+00	1.0000e+01	2.9800e+00	




#DATA BEGINS
time	group	step	mark	flag	A-AC1	A-AC2	A-AC3	A-AC4	A-AC5	A-AC6	A-AC7	A-AC8	A-AC9	A-AC10	A-AC11	A-AC12	A-AC13	A-AC14	A-AC15	A-AC16	A-DC1	A-DC2	A-DC3	A-DC4	A-DC5	A-DC6	A-DC7	A-DC8	A-DC9	A-DC10	A-DC11	A-DC12	A-DC13	A-DC14	A-DC15	A-DC16	A-Ph1	A-Ph2	A-Ph3	A-Ph4	A-Ph5	A-Ph6	A-Ph7	A-Ph8	A-Ph9	A-Ph10	A-Ph11	A-Ph12	A-Ph13	A-Ph14	A-Ph15	A-Ph16	B-AC1	B-AC2	B-AC3	B-AC4	B-AC5	B-AC6	B-AC7	B-AC8	B-AC9	B-AC10	B-AC11	B-AC12	B-AC13	B-AC14	B-AC15	B-AC16	B-DC1	B-DC2	B-DC3	B-DC4	B-DC5	B-DC6	B-DC7	B-DC8	B-DC9	B-DC10	B-DC11	B-DC12	B-DC13	B-DC14	B-DC15	B-DC16	B-Ph1	B-Ph2	B-Ph3	B-Ph4	B-Ph5	B-Ph6	B-Ph7	B-Ph8	B-Ph9	B-Ph10	B-Ph11	B-Ph12	B-Ph13	B-Ph14	B-Ph15	B-Ph16	aux-1	digaux	

1471.553	1	1	0	256	0.3064	0.3517	0.10788	0.07073	0.08876	0.091106	0.11903	0.37915	0.16451	0.05935	0.0971	0.14729	0.1643	0.17865	0.15112	0.14884	-1.9396	-3.2521	-2.1562	-2.6667	-3.1896	-2.0812	-3.2562	-2.8333	-2.1292	-3.0354	-2.3979	-2.4729	-3.1604	-2.2438	-2.7938	-3.2687	280.555	156.623	173.840	37.846	17.879	142.422	208.142	350.807	147.337	97.538	76.463	194.610	26.846	343.293	321.951	310.020	0.001594	0.00029943	0.00031291	735.23	9.389e-06	2.5198e-06	801.26	314.05	1.1535e-05	4.468e-06	396.78	167.09	132.34	62.319	1.014e-05	89.365	0.0019745	0.0020092	0.00056003	857.62	2.1714e-05	2.188e-05	914.54	351.09	2.1616e-05	2.178e-05	521.93	186.19	157.89	69.164	2.1593e-05	98.161	360.901	242.846	126.055	15.890	161.030	233.770	15.238	20.857	35.965	146.350	18.842	23.960	25.903	30.415	244.075	27.847	-8191	255	
1471.649	1	1	0	0	0.071945	0.20488	0.13722	0.14527	0.053284	0.036982	0.24333	0.094392	0.26816	0.13382	0.061588	0.20131	0.086162	0.013589	0.15698	0.13058	-1.6896	-2.9604	-2.3937	-2.5583	-3.2667	-1.9479	-3.0312	-3.0646	-1.9229	-3.1833	-2.6875	-2.5687	-3.3708	-2.2438	-2.6792	-3.1458	278.668	23.145	102.775	335.773	299.070	20.110	339.486	237.541	254.124	33.882	23.315	345.109	348.038	175.696	354.431	289.506	0.0016269	0.00045188	0.00014813	743.14	1.0193e-05	2.286e-06	810.14	317.15	3.1526e-06	6.3419e-06	399.44	169.53	133.62	63.371	1.7392e-05	90.463	0.0019245	0.0019585	0.000546	860.85	2.1112e-05	2.1241e-05	918.89	354.5	2.1132e-05	2.1163e-05	523.56	188.13	159.21	69.938	2.1304e-05	98.974	27.725	54.375	138.071	15.935	75.006	216.635	15.247	20.996	361.173	130.511	19.747	24.100	25.790	30.295	170.814	27.867	-8191	255	
1471.745	1	1	0	0	0.14723	0.18179	0.15089	0.18685	0.15531	0.27743	0.20381	0.24685	0.21015	0.15707	0.15863	0.34553	0.21902	0.097636	0.043318	0.19313	-1.7687	-3.2771	-2.5875	-2.3438	-3.1583	-2.425	-2.7938	-3.2188	-2	-3.1333	-2.7146	-2.2792	-3.3667	-2.4396	-2.525	-3.1896	79.707	248.110	50.037	275.452	253.052	345.387	120.373	332.484	112.444	27.082	275.537	44.254	353.321	35.459	195.485	262.292	0.0013933	0.0010486	0.00016754	744.84	6.7114e-06	1.067e-05	809.86	318.57	1.2397e-05	1.4779e-05	401.33	170.4	133.38	63.468	6.4543e-06	90.859	0.0019238	0.0019616	0.00054567	862.3	2.1325e-05	2.1451e-05	923.61	355.26	2.1299e-05	2.1471e-05	525.37	189.08	159.79	70.011	2.1401e-05	99.568	7.638	102.442	155.564	15.886	106.183	109.304	15.434	21.100	51.501	132.677	19.812	24.318	25.603	30.389	92.078	28.268	-8191	255	
1471.842	1	1	0	0	0.18008	0.27065	0.051115	0.14155	0.14955	0.1511	0.23606	0.21237	0.1517	0.14798	0.19115	0.12396	0.15209	0.037213	0.16255	0.25984	-1.8292	-3.1	-2.8542	-2.2667	-3.1146	-2.3646	-2.5062	-3.3458	-2.0292	-2.9292	-2.9292	-2.525	-3.1063	-2.5792	-2.2396	-3.2042	320.724	229.258	128.467	311.821	316.452	42.249	289.711	294.552	230.164	254.119	243.315	33.928	195.925	269.508	197.191	359.316	0.0012639	0.001155	0.00013543	743.41	1.285e-05	1.2753e-05	809.1	318.23	5.579e-06	3.8259e-06	400.26	169.13	133.51	62.69	1.2029e-05	89.996	0.0019278	0.0019663	0.00054679	860.43	2.1525e-05	2.1646e-05	923.09	355.5	2.1527e-05	2.171e-05	524.88	188.12	159.36	69.57	2.1449e-05	98.456	4.982	111.409	320.018	16.081	198.471	153.885	15.747	21.335	157.967	174.804	20.199	24.278	25.914	30.632	9.476	28.190	-8191	255	
1471.962	1	1	0	0	0.1664	0.29117	0.10729	0.23125	0.34814	0.0093445	0.17989	0.16662	0.19702	0.13094	0.043289	0.32667	0.12584	0.1887	0.11376	0.14855	-1.8021	-2.9917	-2.9458	-1.9771	-3.1208	-2.5125	-2.2438	-3.3063	-2.2667	-2.4688	-3.0396	-2.2604	-3.2812	-2.6458	-2.1271	-3.3604	78.201	89.281	170.433	326.121	188.541	293.004	33.776	333.402	127.570	303.210	84.644	298.347	171.681	15.921	95.364	3.942	0.001631	0.00064091	0.00015518	739.57	7.5913e-06	7.9666e-06	804.31	316.18	1.0153e-05	2.7288e-06	396.3	166.57	131.86	62.038	6.6506e-06	89.005	0.0019494	0.0019829	0.00054724	859.05	2.1518e-05	2.1675e-05	914.77	353.33	2.1741e-05	2.1728e-05	522.21	185.87	158.53	69.043	2.1631e-05	97.8	18.871	125.044	30.802	16.422	108.617	136.590	15.489	21.433	185.680	261.585	19.660	24.371	26.180	30.545	142.690	28.199	-8191	255	
1472.058	1	1	0	0	0.12943	0.059572	0.14098	0.08423	0.044666	0.051757	0.25273	0.23425	0.028752	0.23245	0.060184	0.15455	0.059541	0.29183	0.12942	0.10097	-1.8542	-2.6458	-3.0396	-2.0729	-3.0438	-2.825	-2.2812	-3.5167	-2.1771	-2.5021	-3.2042	-2.1771	-3.0333	-3.0479	-2.1167	-3.4708	355.075	255.814	29.260	23.809	180.414	166.033	340.591	128.826	28.812	186.381	155.416	320.128	340.332	11.042	154.844	294.550	0.0014603	0.00070665	6.5844e-05	741.28	2.3939e-06	6.7897e-06	800.93	316.52	5.0341e-06	8.2026e-06	396.36	168.14	133.22	62.514	5.7113e-06	89.418	0.0019691	0.0020049	0.00055357	858.46	2.1847e-05	2.1821e-05	916.51	354.29	2.1889e-05	2.2065e-05	525.11	187.48	159.45	69.642	2.1993e-05	98.389	25.090	117.066	74.852	16.034	193.181	111.603	15.615	21.392	145.989	122.500	19.569	24.498	26.210	30.448	247.547	28.089	-8191	255	
1472.130	1	1	0	0	0.41023	0.27485	0.12678	0.17819	0.19252	0.18651	0.10362	0.15787	0.11593	0.10383	0.15901	0.18792	0.2894	0.34484	0.088878	0.27821	-2.0542	-2.4479	-3.15	-2.3208	-2.9625	-2.8604	-2.1729	-3.2521	-2.2625	-2.3625	-3.4042	-2.2104	-2.8646	-3.0625	-2.1792	-3.3063	198.184	169.757	241.990	18.877	107.859	308.386	306.342	234.161	58.397	17.070	344.089	286.936	114.702	342.447	55.828	287.370	0.0015548	0.0013684	0.00039597	741.61	1.3349e-05	4.1859e-06	806.56	317.01	1.3129e-05	6.8501e-06	400.75	168.54	133.74	62.797	7.2027e-06	90.143	0.0019922	0.0020177	0.00056041	862.48	2.2157e-05	2.2025e-05	921.12	355.6	2.2101e-05	2.2076e-05	528.22	188.22	159.91	69.78	2.1879e-05	99.071	19.906	118.304	70.714	15.983	91.291	167.027	15.516	21.264	83.319	199.194	19.808	24.115	25.797	30.572	120.342	28.321	-8191	255	
1472.251	1	1	0	0	0.24655	0.1147	0.22917	0.067515	0.035417	0.10641	0.29981	0.35545	0.10889	0.20804	0.052663	0.15522	0.13408	0.11988	0.17464	0.34103	-2.1813	-2.3604	-3.1917	-2.2188	-2.6896	-3.1437	-2.1562	-3.0854	-2.6271	-2.4042	-3.2583	-2.3521	-2.8396	-3.2396	-1.9937	-3.1042	152.153	236.529	338.199	325.728	118.481	41.414	299.661	243.551	77.444	67.992	60.287	40.726	8.202	351.584	153.440	280.665	0.0012304	0.00038475	0.00032189	749.02	2.1979e-06	1.4739e-05	811.47	318.17	1.0787e-05	1.028e-05	401.2	169.49	133.34	63.006	5.1207e-06	90.47	0.0019782	0.00201	0.00056186	866.09	2.2137e-05	2.2033e-05	926.99	356.71	2.2229e-05	2.2109e-05	530.08	188.94	160.18	70.059	2.2125e-05	99.49	16.735	101.516	85.311	16.099	356.063	117.163	15.528	21.701	116.675	177.409	20.193	24.506	26.054	30.651	177.410	28.183	-8191	255	
1472.345	1	1	0	0	0.17062	0.13111	0.018328	0.14512	0.13069	0.2538	0.22314	0.15076	0.27297	0.20348	0.10692	0.2965	0.0066856	0.077119	0.1248	0.26775	-2.1771	-2.1625	-3.0625	-2.4167	-2.5687	-3.2625	-2.225	-3.1521	-2.7792	-2.2042	-3.1729	-2.6021	-2.4625	-3.4354	-1.9646	-3.125	298.750	94.723	163.997	274.652	250.482	203.129	349.921	343.664	23.870	12.336	350.570	318.782	31.061	10.388	157.094	336.009	0.0017882	0.00082472	0.00023638	740.53	6.4892e-06	7.9541e-06	808.12	315.17	7.9916e-06	4.4098e-06	399.14	168.23	132.92	62.633	1.2924e-05	89.282	0.0019918	0.0020025	0.00056298	862.91	2.1941e-05	2.1796e-05	921.72	354.81	2.1706e-05	2.1687e-05	524.81	187.1	158.71	69.449	2.1917e-05	98.071	14.178	153.333	39.657	16.488	106.717	139.593	15.596	21.492	153.272	16.227	19.975	24.344	26.269	30.343	187.881	28.426	-8191	255	
1472.441	1	1	0	0	0.22177	0.42646	0.024505	0.21652	0.20875	0.20114	0.163	0.45997	0.09759	0.22878	0.19054	0.071146	0.16402	0.16948	0.25288	0.2344	-2.7083	-1.9396	-3.1521	-2.4958	-2.1979	-3.2229	-2.1312	-2.8792	-2.9604	-2.0729	-3.2604	-2.6375	-2.2062	-3.3854	-2.0542	-2.9167	316.668	258.723	88.837	8.125	34.412	50.281	250.435	332.115	100.489	184.993	326.428	217.332	14.559	38.971	328.918	239.840	0.0021834	0.00050729	0.00021071	743.48	9.544e-06	8.3345e-06	804.55	315.77	9.3299e-06	8.1258e-06	395.67	167.66	132.03	62.578	7.4376e-06	89.505	0.0019671	0.0019835	0.00055613	862.39	2.1604e-05	2.1704e-05	916.13	353.92	2.1523e-05	2.1623e-05	523.01	186.3	158.28	69.455	2.1731e-05	98.072	363.422	190.497	81.972	15.961	87.916	193.251	15.526	21.411	160.532	132.888	19.761	24.381	26.378	30.667	212.794	28.297	-8191	255	
1472.562	1	1	0	0	0.13883	0.04892	0.20715	0.17792	0.18502	0.025124	0.15054	0.1034	0.16629	0.17667	0.26054	0.079131	0.17001	0.054336	0.28079	0.13988	-2.7208	-2.1688	-3.1229	-2.5458	-2.1167	-3.1396	-2.4729	-2.8354	-3.0479	-1.8896	-2.9792	-2.825	-2.2125	-3.425	-2.15	-2.65	317.863	232.126	239.021	68.596	207.264	18.010	57.720	352.356	88.095	185.746	24.613	355.487	208.136	320.234	74.683	304.539	0.0017267	0.0003624	0.00015649	736.92	1.241e-05	8.1642e-06	805.5	317.17	1.0772e-05	4.891e-06	401.08	168.08	133.57	63.456	1.7055e-05	90.402	0.0019495	0.0019774	0.00055607	859.33	2.1468e-05	2.1674e-05	918.74	354.66	2.1519e-05	2.1605e-05	525.18	187.42	159.15	70.146	2.1618e-05	98.945	23.345	45.782	148.910	15.983	173.374	84.706	15.664	21.358	105.369	76.777	19.889	24.244	26.121	30.539	137.175	28.247	-8191	255	
1472.658	1	1	0	0	0.22318	0.26337	0.048041	0.13747	0.22739	0.25166	0.09588	0.11836	0.086882	0.23442	0.16971	0.084341	0.46873	0.26962	0.097116	0.24769	-2.8792	-2.0729	-2.8729	-2.8875	-1.9917	-3.1	-2.2708	-2.5708	-3.2646	-2.0563	-2.9521	-2.9229	-2.1625	-3.2521	-2.3771	-2.5354	184.562	269.442	201.228	83.711	200.009	313.696	131.676	22.756	50.671	71.313	277.775	348.455	47.636	298.047	349.897	343.352	0.0013117	0.00037389	0.00017156	745.06	1.3132e-05	1.1475e-05	811.82	319.41	4.7741e-06	9.1036e-06	403.53	169.72	133.78	63.574	3.339e-06	91.053	0.0019362	0.0019773	0.0005544	862.43	2.158e-05	2.1712e-05	923.58	356.15	2.1553e-05	2.1719e-05	529.4	189.05	159.85	70.536	2.1664e-05	99.756	7.230	158.383	124.965	16.132	134.156	103.867	15.427	21.498	100.345	176.277	20.172	24.141	26.138	30.639	224.378	28.155	-8191	255	
1472.730	1	1	0	0	0.098526	0.3211	0.32058	0.19621	0.18958	0.061167	0.065055	0.3242	0.21615	0.13504	0.25655	0.049242	0.064149	0.27801	0.13466	0.294	-2.9188	-2.0917	-2.7042	-3.0104	-2.0333	-3.2375	-2.7375	-2.4271	-3.3667	-2.0438	-2.6562	-3.3354	-2.1667	-3.2396	-2.5917	-2.4313	148.560	95.782	226.631	334.484	285.642	208.337	300.913	332.337	126.945	235.283	11.138	339.923	39.204	307.272	314.173	19.756	0.0015948	0.00090488	3.4317e-05	745.1	7.4146e-06	8.347e-06	812.47	319.6	4.8131e-06	4.6393e-06	402.73	170.56	135.01	63.57	6.2198e-06	90.439	0.0019437	0.0019728	0.00055226	862	2.1393e-05	2.1578e-05	924.76	357.6	2.1393e-05	2.149e-05	526.14	189.17	160.22	70.503	2.1324e-05	99.134	5.525	104.044	116.871	16.224	184.690	140.032	15.468	21.369	53.233	355.121	20.028	24.318	26.099	30.615	198.259	28.234	-8191	255	
1472.850	1	1	0	0	0.13174	0.1763	0.1657	0.088161	0.19329	0.067941	0.23349	0.26649	0.15778	0.19398	0.15094	0.23023	0.038392	0.29261	0.097067	0.3538	-3.0146	-2.1583	-2.6896	-3.1875	-2.0583	-3.0125	-2.95	-2.2542	-3.2229	-2.3271	-2.5875	-3.3542	-1.8625	-3.1979	-2.6896	-2.1271	256.088	214.350	266.178	320.074	31.965	329.024	262.659	307.527	180.564	298.013	350.673	317.837	355.700	318.115	213.625	261.260	0.0012706	0.0012289	0.00013621	744.46	2.4265e-06	1.0647e-05	802.6	316.92	2.2237e-06	9.5348e-06	397.02	168.82	133.32	63.422	5.7075e-06	90.009	0.0019268	0.0019595	0.00054512	859.7	2.1288e-05	2.1444e-05	915.42	355.41	2.1183e-05	2.1194e-05	520.79	187.45	159.11	70.132	2.105e-05	98.352	9.815	105.820	26.849	16.469	161.679	155.444	15.228	21.279	160.811	152.111	19.952	24.310	26.013	30.601	105.223	28.005	-8191	255	
1472.946	1	1	0	0	0.25137	0.071334	0.18742	0.093984	0.13693	0.24641	0.15088	0.20793	0.096448	0.059341	0.13811	0.18152	0.09971	0.45169	0.10641	0.24654	-3.0583	-2.2958	-2.4292	-3.3792	-2.1312	-2.7417	-3.1667	-2.0146	-3.3521	-2.5292	-2.3375	-3.3271	-1.95	-2.7333	-3.0854	-2.1771	358.165	224.638	251.709	81.744	62.031	146.724	349.230	315.136	68.306	125.442	233.343	319.251	28.797	362.553	356.156	334.867	0.001428	0.0011681	0.00030393	745.38	6.0641e-06	7.6061e-06	806.35	319.61	9.7533e-07	1.8663e-06	402.2	169.91	134.45	63.844	8.3876e-06	90.502	0.0019074	0.0019373	0.00053839	858.16	2.1066e-05	2.1093e-05	914.64	356.22	2.0986e-05	2.1024e-05	521.12	188.4	160.04	70.723	2.0928e-05	99.163	16.413	134.944	358.351	16.412	75.472	112.077	15.647	21.400	247.910	78.534	19.961	24.461	25.948	30.698	120.916	28.201	-8191	255	
1473.043	1	1	0	0	0.044919	0.091538	0.15357	0.36379	0.071725	0.11239	0.16834	0.11199	0.12557	0.16121	0.025027	0.1858	0.15592	0.49792	0.24795	0.40276	-2.8958	-2.5812	-2.3	-3.3604	-1.9438	-2.6063	-3.1167	-2.0354	-2.9062	-2.7083	-2.0896	-3.45	-2.2208	-2.6833	-3.0354	-2.2687	253.947	181.707	107.714	328.796	162.710	212.628	328.235	338.952	231.054	357.782	206.043	263.724	38.677	347.802	79.457	324.475	0.0015161	0.00062484	0.00020224	741.5	5.0857e-07	4.4638e-06	811.17	320.66	1.6408e-05	9.2837e-06	405.31	171.27	135.54	64.331	4.1555e-06	90.965	0.0018993	0.0019268	0.00053636	859.28	2.106e-05	2.1156e-05	918.93	357.7	2.0951e-05	2.1002e-05	523.65	189.48	160.86	71.039	2.1104e-05	99.813	10.942	106.767	116.383	16.291	188.216	222.627	15.612	21.283	111.402	166.259	19.669	24.474	26.144	30.660	178.888	27.902	-8191	255	
1473.139	1	1	0	0	0.14871	0.30246	0.19138	0.1979	0.16871	0.39065	0.23442	0.2357	0.24943	0.18011	0.1802	0.11899	0.25677	0.070758	0.18281	0.27124	-2.5354	-2.6625	-2.0646	-3.3563	-2.15	-2.6521	-3.3688	-2.275	-3.0021	-2.6646	-2.0792	-3.4479	-2.4792	-2.5292	-3.2042	-2.1479	325.666	21.723	221.134	23.840	235.771	25.156	204.441	302.716	353.474	160.197	73.075	304.660	321.270	328.464	232.039	314.001	0.0010123	0.00053774	0.00021741	745.9	5.5655e-06	2.5653e-06	810.82	320.91	8.9674e-06	7.628e-07	406.12	172.16	136.51	64.819	1.4726e-05	91.837	0.0019289	0.0019664	0.00054783	865.13	2.1713e-05	2.1581e-05	924.07	359.63	2.1677e-05	2.1607e-05	529.8	191.43	162.44	71.686	2.1634e-05	100.94	10.874	100.191	102.437	16.222	115.208	76.280	15.340	21.104	135.283	220.179	19.718	24.160	25.894	30.495	180.112	28.027	-8191	255	
1473.258	1	1	0	0	0.24782	0.24125	0.087379	0.15694	0.13167	0.20087	0.17257	0.26124	0.068916	0.21054	0.12226	0.295	0.24144	0.47867	0.084935	0.11519	-2.7438	-2.8896	-1.9646	-3.2792	-2.3312	-2.2188	-3.3563	-2.2313	-2.6188	-2.9271	-1.8917	-3.2125	-2.7167	-2.55	-3.0854	-2.4354	192.933	311.409	64.600	18.711	126.245	287.003	311.095	282.829	82.113	217.178	3.590	359.387	261.362	333.017	320.672	267.788	0.0018161	0.0010414	0.00012034	749.1	7.921e-06	7.7145e-06	812.01	321.99	6.1913e-06	7.6751e-06	405.78	171.18	135.59	64.401	6.8201e-06	90.881	0.0019684	0.0019821	0.00055268	866.3	2.1781e-05	2.1839e-05	924.16	359.88	2.1648e-05	2.1517e-05	529.25	189.86	161.64	71.141	2.1363e-05	99.727	13.059	87.513	30.804	16.099	172.020	115.873	15.385	20.981	178.537	184.562	19.533	23.971	25.932	30.302	199.934	27.790	-8191	255	
1473.354	1	1	0	0	0.24069	0.069491	0.080525	0.16816	0.2063	0.20657	0.2141	0.28468	0.077139	0.23765	0.19413	0.12053	0.074606	0.054444	0.23205	0.14623	-2.2833	-3.1042	-1.9667	-3.2562	-2.5187	-2.0771	-3.4271	-2.4188	-2.6458	-3.0479	-2.0083	-3.2292	-2.9875	-2.2583	-3.1271	-2.3729	302.129	184.641	274.599	23.857	359.730	286.189	328.388	335.446	71.664	267.038	296.183	303.585	196.826	311.519	179.049	285.779	0.0017359	0.00073376	0.00024578	745.66	9.1489e-06	7.5746e-06	805.95	319.25	2.8682e-06	2.6852e-06	400.89	169.25	134.22	63.914	1.5526e-05	90.251	0.0019328	0.0019504	0.00054709	862.99	2.1362e-05	2.1371e-05	916.65	357.66	2.1302e-05	2.1212e-05	523.29	187.9	160.52	70.686	2.1151e-05	98.978	14.647	172.872	119.176	16.216	77.905	136.636	15.378	21.294	105.765	174.306	19.274	24.139	25.607	30.343	168.072	27.967	-8191	255	
1473.425	1	1	0	0	0.309	0.11472	0.11581	0.1804	0.11659	0.048651	0.25417	0.16369	0.076637	0.18431	0.11231	0.16622	0.12663	0.22245	0.16509	0.11043	-2.1021	-3.2354	-2.0479	-3.0604	-2.8229	-2.0604	-3.475	-2.4979	-2.3333	-3.2896	-2.1354	-2.9813	-3.1333	-2.1625	-3.2208	-2.625	350.380	269.442	191.244	354.609	19.438	202.982	3.459	263.049	112.217	236.849	77.361	268.298	347.569	10.697	157.591	180.102	0.0015211	0.00096027	9.9298e-05	745.36	4.7549e-06	7.0698e-06	806.5	318.2	1.2709e-05	7.2045e-06	399.64	169.56	134.66	64.27	4.2747e-06	90.806	0.0019045	0.0019215	0.0005375	861.19	2.097e-05	2.094e-05	914.99	356.91	2.0831e-05	2.0921e-05	522.44	188.1	159.98	70.813	2.1099e-05	99.407	8.984	72.650	103.971	15.986	98.425	18.762	15.637	21.174	101.193	103.035	19.893	24.248	26.019	30.469	21.933	28.020	-8191	255	
1473.522	1	1	0	0	0.10301	0.099409	0.088618	0.062223	0.14074	0.070299	0.10365	0.070124	0.17684	0.085948	0.031717	0.36848	0.10497	0.339	0.16717	0.17402	-2.0167	-3.3271	-2.0396	-2.8458	-2.9604	-1.9833	-3.2687	-2.6375	-2.1771	-3.1458	-2.3063	-2.825	-3.1354	-2.2875	-3.075	-2.8833	114.823	86.596	255.200	40.406	351.799	323.675	227.429	279.312	207.652	144.325	327.007	302.991	4.201	324.855	310.203	340.096	0.0015062	0.00039489	0.0001803	745.67	7.8353e-06	8.0626e-06	807.08	320.53	2.4615e-05	1.3736e-05	402.06	170.21	135.54	64.154	2.0929e-05	90.784	0.0019	0.0019257	0.00053614	861.53	2.0916e-05	2.0959e-05	917.18	357.89	2.0913e-05	2.1035e-05	523.83	188.78	160.45	70.896	2.1127e-05	99.739	24.595	94.515	88.534	16.304	211.767	82.259	15.508	21.258	23.651	163.911	19.651	24.256	26.001	30.411	164.249	28.182	-8191	255	
1473.642	1	1	0	0	0.11245	0.061577	0.14578	0.21047	0.28839	0.17283	0.19764	0.32947	0.093194	0.14643	0.15446	0.029238	0.19632	0.37322	0.16744	0.3661	-1.8292	-3.3896	-2.275	-2.4542	-3.0729	-2.0458	-3.1188	-2.9708	-1.9521	-3.3063	-2.3563	-2.5417	-3.2938	-2.2833	-2.7562	-3.1	111.471	87.126	295.055	280.861	24.631	315.407	92.885	347.452	151.437	338.932	59.737	46.398	298.249	17.821	325.413	311.310	0.0016994	0.0012609	4.3069e-05	747.9	9.0918e-06	3.1854e-06	812.63	321.12	6.7376e-06	7.2756e-06	406.78	171.34	136.36	64.582	1.0678e-05	91.439	0.0019047	0.0019323	0.00054136	862.3	2.1065e-05	2.1095e-05	922.07	358.88	2.0977e-05	2.1084e-05	526.34	189.94	161.22	71.359	2.1011e-05	100.03	13.875	147.550	189.727	16.299	145.455	103.866	15.704	21.567	82.564	235.922	19.262	24.375	26.134	30.586	30.590	28.120	-8191	255	
1473.738	1	1	0	0	0.13411	0.27573	0.15929	0.064679	0.086288	0.17013	0.35524	0.14051	0.22347	0.013664	0.27208	0.53844	0.18326	0.28175	0.1203	0.33498	-1.8167	-3.1542	-2.3563	-2.425	-3.0938	-2.0646	-3.0417	-3.2271	-1.9396	-3.2396	-2.6667	-2.3375	-3.4583	-2.5271	-2.8021	-3.275	186.979	333.681	72.964	351.334	68.852	221.808	288.332	337.409	115.296	42.720	70.020	329.993	322.787	39.549	246.636	309.322	0.0015648	0.00073283	2.6717e-05	746.22	9.0914e-06	9.3813e-06	808.82	321.51	1.0821e-05	8.1327e-06	402.47	169.85	135.38	64.348	7.6661e-07	89.898	0.0018876	0.0019282	0.00053716	860.16	2.0874e-05	2.0917e-05	917.37	357.78	2.0853e-05	2.1007e-05	521.66	188.1	160.48	70.816	2.0996e-05	98.554	20.769	73.778	275.899	16.076	265.003	209.165	15.784	21.322	43.700	282.498	20.172	24.371	25.811	30.606	123.798	27.922	-8191	255	
1473.835	1	1	0	0	0.15832	0.21214	0.1296	0.0821	0.1804	0.11854	0.29334	0.41468	0.13121	0.12761	0.20829	0.3145	0.13514	0.083647	0.11762	0.082248	-1.8021	-3.2083	-2.5438	-2.3021	-3.25	-2.2021	-2.8146	-3.2708	-2.2229	-3.0646	-2.7479	-2.2521	-3.2938	-2.4896	-2.5667	-3.3812	321.226	180.222	244.360	133.059	77.432	305.845	325.913	235.624	240.959	183.633	14.649	300.658	5.005	83.150	154.036	190.381	0.0016496	0.00065977	0.00022985	746.26	3.027e-06	1.3568e-05	803.92	320.11	4.8712e-06	2.6621e-06	399.98	168.86	134.81	64.286	1.034e-05	90.288	0.0018998	0.0019271	0.00053633	858.9	2.0901e-05	2.1086e-05	913.08	357.04	2.0925e-05	2.1e-05	518.85	187.48	160.4	70.98	2.0815e-05	98.762	12.188	87.242	150.192	15.924	71.430	105.594	15.174	21.251	161.479	281.004	19.669	24.171	25.831	30.296	145.320	27.993	-8191	255	
1473.931	1	1	0	0	0.11013	0.26689	0.24998	0.31051	0.26051	0.13602	0.18557	0.27076	0.081911	0.15913	0.14292	0.23718	0.18273	0.20337	0.24929	0.27982	-1.8021	-3.0708	-2.8	-2.2479	-3.3292	-2.4896	-2.5229	-3.3438	-1.9104	-2.9813	-3.0563	-2.325	-3.2292	-2.4854	-2.4521	-3.4979	15.411	271.282	327.526	325.851	127.201	237.005	61.181	43.534	326.171	331.070	132.027	354.540	243.781	192.753	129.552	295.931	0.0017042	0.00095903	9.1319e-05	743.91	4.7827e-06	9.6737e-06	800.84	320.6	2.503e-05	4.3982e-06	396.76	169.69	135.76	64.332	8.015e-06	90.796	0.0018748	0.0019121	0.00052707	857.09	2.0729e-05	2.0836e-05	911.43	357.72	2.0695e-05	2.084e-05	518.55	188.19	161.02	71.218	2.0894e-05	99.559	10.157	165.859	24.499	16.178	166.863	165.050	15.813	21.400	77.118	227.845	19.877	24.274	25.956	30.504	136.843	27.895	-8191	255	
1474.027	1	1	0	0	0.11903	0.12363	0.01015	0.21536	0.15703	0.05096	0.2519	0.33682	0.16366	0.084054	0.096536	0.34501	0.10384	0.19389	0.19121	0.23474	-1.9688	-2.9146	-2.8104	-2.0229	-3.1979	-2.4958	-2.5667	-3.4938	-2.1167	-2.875	-2.9333	-2.3063	-3.1813	-2.9854	-2.1688	-3.4292	250.325	222.705	29.968	154.068	209.932	109.132	270.634	291.582	172.429	183.911	5.500	322.822	252.619	242.513	29.453	302.978	0.0017849	0.00094431	5.3317e-05	744.31	7.2649e-06	2.1729e-06	807.93	321.73	1.2636e-05	6.7994e-06	402.85	170.97	136.58	64.723	8.4449e-06	91.874	0.0018979	0.0019271	0.00053253	859.68	2.0874e-05	2.1035e-05	916.58	359.25	2.0894e-05	2.0973e-05	523.63	189.75	161.63	71.647	2.0889e-05	100.32	8.124	69.833	101.647	16.185	170.012	231.471	15.644	21.519	122.367	140.587	19.687	24.351	26.084	30.576	155.972	28.160	-8191	255	
1474.123	1	1	0	0	0.10977	0.05064	0.078447	0.19385	0.17621	0.080143	0.053682	0.17142	0.20474	0.33827	0.29167	0.20488	0.094405	0.095915	0.11156	0.085627	-2.0792	-2.6562	-3.2229	-2.2042	-3.1312	-2.7271	-2.1854	-3.2375	-2.1229	-2.6396	-3.2167	-2.1979	-2.9729	-3.0146	-2.05	-3.5479	37.568	75.161	296.251	347.261	328.726	10.295	275.252	348.130	11.028	322.502	341.804	61.401	81.626	6.553	211.204	277.841	0.0016092	0.00082541	0.00016484	746.32	3.1498e-06	4.5682e-06	808.15	322.11	6.811e-06	6.7278e-06	404.56	171.08	136.16	64.902	1.0191e-05	91.075	0.0019002	0.0019307	0.00053194	862.13	2.1068e-05	2.1052e-05	918.72	359.5	2.1137e-05	2.1005e-05	524.87	189.67	161.83	71.649	2.1064e-05	99.86	11.277	46.994	36.614	16.326	358.816	152.768	15.736	21.405	144.227	196.597	20.213	24.273	26.005	30.621	175.192	28.417	-8191	255	
1474.242	1	1	0	0	0.21371	0.28327	0.29184	0.07813	0.095573	0.0044165	0.11116	0.055203	0.28313	0.10891	0.16549	0.47839	0.23311	0.28394	0.32255	0.34456	-2.0708	-2.375	-3.1167	-2.3042	-2.8521	-3.0146	-2.2104	-3.2708	-2.5542	-2.2938	-3.1583	-2.1542	-2.7375	-3.0563	-1.9042	-3.2917	71.095	188.137	82.266	115.549	42.041	304.344	59.753	67.645	361.886	28.612	208.536	304.875	67.580	349.286	50.629	351.381	0.001666	0.0008311	0.00012153	746.44	1.2473e-05	5.0853e-06	801.52	321.56	7.6199e-06	6.9743e-06	396.17	169.18	135.91	64.615	2.9109e-06	90.133	0.0019208	0.0019429	0.00053817	860.95	2.1158e-05	2.1169e-05	912.93	359	2.1126e-05	2.1097e-05	518.88	187.72	161.31	71.171	2.1061e-05	98.75	9.340	146.035	66.280	16.493	178.594	280.660	15.793	21.631	191.414	189.811	20.097	24.275	26.224	30.591	336.471	28.308	-8191	255	
1474.338	1	1	0	0	0.10932	0.19356	0.14783	0.098579	0.051098	0.1954	0.32801	0.16117	0.10039	0.10005	0.20486	0.09271	0.23837	0.46316	0.091859	0.31287	-2.3458	-2.2687	-3.3167	-2.2521	-2.7375	-2.9958	-2.0354	-3.1437	-2.5438	-2.1854	-3.2417	-2.2896	-2.4896	-3.2229	-1.9625	-3.3146	62.008	144.157	126.334	312.619	119.504	77.636	320.151	47.896	126.408	230.358	326.973	223.708	225.666	9.596	303.617	336.612	0.0015853	0.00037532	0.00017831	745.37	1.2056e-05	9.3946e-06	798.54	320.41	1.0646e-05	9.6483e-06	398.32	169.24	135.39	64.417	1.2763e-05	90.529	0.0019064	0.0019258	0.00053763	859.12	2.1088e-05	2.1069e-05	909.3	358.16	2.0881e-05	2.0772e-05	519.2	187.45	160.71	71.115	2.0793e-05	98.921	15.428	206.285	85.551	16.462	189.113	131.262	15.637	21.343	54.091	100.067	20.018	24.096	25.669	30.546	80.979	27.998	-8191	255	
1474.434	1	1	0	0	0.29636	0.18082	0.13023	0.32058	0.044089	0.29227	0.20549	0.21118	0.28445	0.15834	0.23727	0.16243	0.25579	0.17691	0.17365	0.092226	-2.4167	-2.2708	-3.2479	-2.3375	-2.5333	-3.1542	-2.05	-2.9313	-2.7062	-2.0042	-3.2917	-2.5854	-2.3833	-3.3208	-2.0646	-3.1271	136.531	201.042	360.551	74.233	91.586	324.047	292.137	337.452	218.050	323.056	345.518	283.034	254.806	351.119	103.472	327.117	0.0016006	0.00051041	0.00019897	743.07	6.1437e-06	1.3544e-05	799.22	320.07	4.6033e-06	5.9857e-06	399.65	169.35	135.91	64.604	3.369e-06	90.579	0.0018757	0.0019034	0.00053364	856.62	2.0918e-05	2.0993e-05	910.58	357.42	2.1006e-05	2.0881e-05	519.75	187.78	160.83	71.251	2.095e-05	99.203	19.819	65.722	50.320	16.096	135.939	140.010	15.649	21.416	45.866	138.217	19.790	24.031	25.630	30.549	183.446	28.044	-8191	255	
1474.530	1	1	0	0	0.22753	0.1027	0.029514	0.22185	0.255	0.081085	0.043366	0.13057	0.09161	0.27751	0.29776	0.11268	0.20258	0.28391	0.092868	0.37113	-2.6208	-1.9833	-3.225	-2.5	-2.4708	-3.2521	-2.2	-2.8937	-2.9792	-2.0792	-3.0542	-2.6917	-2.3333	-3.5729	-2.1708	-2.9604	356.201	358.304	144.146	346.660	112.592	42.279	215.409	294.610	228.071	145.092	277.252	293.517	108.975	342.160	45.836	295.520	0.0019268	0.00061929	0.00019813	743.85	6.586e-06	7.8741e-06	804.9	321.12	8.5546e-06	8.9162e-06	403.63	170.24	136.74	64.806	1.0722e-05	91.185	0.0018857	0.001915	0.00053562	858.85	2.087e-05	2.0911e-05	913.92	358.17	2.0946e-05	2.1006e-05	523.13	188.73	161.41	71.497	2.1077e-05	99.8	30.455	96.679	24.096	16.178	157.928	111.372	15.587	21.496	151.611	132.446	20.387	24.237	26.433	30.690	194.077	28.504	-8191	255	
1474.626	1	1	0	0	0.2397	0.1507	0.137	0.13513	0.16793	0.031127	0.38474	0.19419	0.099814	0.38334	0.20556	0.15583	0.096658	0.32143	0.023753	0.29898	-2.9	-2.0521	-3.1146	-2.9979	-2.2542	-3.2479	-2.6312	-2.6458	-3.0458	-2.0958	-3.0312	-2.8042	-2.2167	-3.4479	-2.2729	-2.6937	329.540	153.207	338.770	318.449	152.437	40.821	302.142	12.955	282.681	46.663	210.379	100.671	178.500	19.066	268.282	342.792	0.0017386	0.0013034	0.0002474	745.74	1.1474e-05	2.6286e-06	803.62	321.31	1.1072e-05	1.8931e-06	399.99	169.76	135.88	64.556	6.2357e-06	90.496	0.0018936	0.0019235	0.00053763	860.64	2.0946e-05	2.1114e-05	913.41	358.36	2.0758e-05	2.0912e-05	520.46	187.99	160.51	71.259	2.1007e-05	98.816	11.990	141.341	199.026	15.943	178.157	133.639	15.736	21.493	157.540	9.521	19.807	24.146	26.029	30.624	267.957	28.280	-8191	255	
1474.723	1	1	0	0	0.12947	0.18221	0.15471	0.054443	0.25576	0.15405	0.20128	0.1783	0.078156	0.26828	0.058789	0.08101	0.17904	0.10894	0.16685	0.32894	-2.7417	-1.9021	-2.9771	-2.9333	-1.9167	-3.1771	-2.6042	-2.55	-3.2271	-2.0021	-3.1354	-3.3312	-2.1	-3.3375	-2.475	-2.4583	35.958	193.328	193.306	118.199	78.284	91.789	331.119	276.315	78.932	56.921	208.989	45.922	11.210	322.106	278.383	262.647	0.0017155	0.00036182	0.00024765	743.15	4.634e-06	2.2227e-06	798.43	319.59	1.3247e-05	6.2349e-06	398.39	168.22	135.2	64.364	1.133e-05	90.26	0.001888	0.0019147	0.00053918	857.21	2.0889e-05	2.0961e-05	907.35	356.58	2.0708e-05	2.0884e-05	517.81	186.55	160.37	71.131	2.0904e-05	98.498	12.511	87.757	37.119	16.181	176.596	92.480	15.738	21.679	76.306	57.160	20.058	24.304	26.365	30.664	121.526	28.049	-8191	255	
1474.819	1	1	0	0	0.13347	0.11201	0.18634	0.19559	0.067761	0.41159	0.28377	0.09489	0.054624	0.21887	0.070022	0.078464	0.37146	0.064276	0.068579	0.24613	-2.9062	-2.1021	-2.6292	-3.0438	-2.0458	-3.1063	-2.5354	-2.3458	-3.1667	-2.2479	-2.8083	-3.1583	-2.0333	-3.2833	-2.875	-2.3521	220.998	139.964	234.444	328.401	294.534	356.433	346.251	134.845	174.482	8.290	267.576	352.838	324.652	8.074	88.951	225.207	0.0016329	0.00023974	2.1017e-05	740.57	9.0544e-06	5.7236e-06	796.21	319.81	2.0878e-05	1.0613e-05	397.8	168.82	135.54	64.646	1.6369e-06	90.873	0.0018705	0.0019126	0.00053051	857.29	2.0769e-05	2.0781e-05	907.58	357.03	2.0728e-05	2.0835e-05	519.68	187.49	161.13	71.451	2.0892e-05	99.221	22.526	107.314	87.362	16.198	177.814	206.873	15.713	21.508	72.233	118.420	19.991	24.247	26.142	30.653	212.229	28.405	-8191	255	
1474.939	1	1	0	0	0.20615	0.034759	0.21136	0.17733	0.36041	0.19395	0.22393	0.3686	0.23719	0.15475	0.26907	0.18245	0.13638	0.17337	0.27491	0.12554	-3.1	-2.2104	-2.5917	-3.1771	-1.9667	-2.9333	-2.8438	-2.0104	-3.2708	-2.2896	-2.6688	-3.2438	-2.1104	-3.0646	-2.9771	-2.3396	111.055	38.989	349.839	96.814	113.133	271.849	52.840	285.014	111.241	220.312	296.846	309.371	129.180	330.184	234.607	312.303	0.0014494	0.00089401	0.00025533	743.17	8.9283e-06	1.6439e-05	798.47	320.44	1.2174e-05	1.1113e-05	401.57	170.45	136.66	65.311	7.7657e-06	91.281	0.0018887	0.0019271	0.00053354	857.81	2.0872e-05	2.1051e-05	910.45	358.2	2.0974e-05	2.11e-05	521.89	188.89	162.06	71.955	2.0992e-05	99.923	8.474	49.238	45.973	16.496	170.513	109.458	15.740	21.683	337.410	190.350	19.839	24.488	26.235	30.662	242.803	28.072	-8191	255	
1475.036	1	1	0	0	0.10461	0.1811	0.26137	0.027821	0.23041	0.18114	0.19567	0.076795	0.11764	0.10007	0.22145	0.25963	0.15311	0.20596	0.12902	0.17472	-2.9604	-2.3979	-2.5854	-3.425	-2.1354	-2.8792	-2.9958	-2.2687	-3.1104	-2.4792	-2.4229	-3.3625	-2.0563	-2.9771	-3.0917	-2.2354	279.917	266.295	133.904	302.152	30.635	300.703	313.742	21.154	30.869	339.760	361.460	21.635	8.408	275.835	233.632	320.961	0.0013563	0.0011845	0.00021637	748.78	9.0595e-06	1.0052e-05	805.64	322.95	1.0319e-05	1.7406e-06	399.49	171.22	137.67	65.536	8.6221e-06	91.565	0.0019028	0.0019375	0.00053992	861.2	2.1238e-05	2.1321e-05	915.31	360.11	2.1127e-05	2.1283e-05	525.12	190.02	162.78	72.308	2.1093e-05	100.29	10.793	51.634	194.059	16.463	220.938	112.285	15.642	21.352	129.972	169.665	19.805	24.252	26.050	30.508	200.064	28.097	-8191	255	
1475.130	1	1	0	0	0.30394	0.27057	0.073285	0.074124	0.062513	0.21938	0.16583	0.097858	0.11829	0.10167	0.12678	0.029196	0.13095	0.26168	0.11583	0.45565	-3.0083	-2.4667	-2.2792	-3.475	-2.0583	-2.5521	-3.3292	-2.0708	-3.1208	-2.7313	-2.2583	-3.3583	-2.3896	-2.6875	-3.1125	-2.4562	43.494	217.294	90.239	359.461	32.500	121.941	277.382	152.495	58.560	258.593	292.533	81.737	308.151	353.824	13.573	296.965	0.0019656	0.00087845	0.00010314	742.93	2.5957e-06	1.0508e-06	803.6	321.53	1.8184e-05	1.5978e-05	399.66	169.86	135.82	65.236	6.6341e-06	90.629	0.0019207	0.0019403	0.0005419	860.05	2.1276e-05	2.1379e-05	911.41	358.82	2.1332e-05	2.139e-05	522.25	188.17	161.78	71.928	2.1295e-05	99.141	5.974	62.931	58.596	16.386	151.762	195.110	15.477	21.341	104.032	113.081	20.550	24.290	25.890	30.769	155.720	28.149	-8191	255	
1475.226	1	1	0	0	0.16208	0.25856	0.094031	0.13239	0.087096	0.25794	0.080368	0.39486	0.23741	0.25293	0.04878	0.35769	0.08489	0.24999	0.191	0.38293	-2.7167	-2.4854	-2.1813	-3.1813	-2.15	-2.3708	-3.3333	-2.2542	-2.9417	-2.9146	-2.0917	-3.2208	-2.5479	-2.3417	-3.2167	-2.1937	281.256	175.066	318.898	12.610	111.686	20.593	211.493	4.337	280.546	313.446	27.874	294.924	92.489	304.392	129.748	29.012	0.0016112	0.00049008	0.00020636	743.78	5.5179e-06	4.8037e-06	799.54	321.22	2.3058e-05	7.9562e-06	398.51	169.77	136.22	65.173	2.8001e-06	90.408	0.0019342	0.0019557	0.00054288	858.6	2.1314e-05	2.1311e-05	909.22	359.11	2.1364e-05	2.1326e-05	520.48	188.44	162	71.858	2.1266e-05	99.202	5.605	225.189	107.792	16.286	167.574	101.087	16.041	21.300	132.766	111.522	19.240	24.260	26.096	30.638	200.339	28.506	-8191	255	
1475.322	1	1	0	0	0.097386	0.33814	0.22766	0.20551	0.11674	0.17148	0.071293	0.093008	0.26612	0.16501	0.15781	0.081044	0.17177	0.28036	0.21783	0.056697	-2.4083	-2.8875	-1.9833	-3.1688	-2.3854	-2.2042	-3.4375	-2.2417	-2.7438	-3.0167	-2.0417	-3.125	-2.65	-2.3229	-3.2854	-2.3521	96.311	183.111	197.650	315.410	208.330	253.675	316.616	250.832	199.040	13.507	310.153	76.406	337.410	318.620	294.362	341.174	0.0015518	0.00073572	4.6038e-05	746.83	1.304e-05	6.4203e-06	800.25	322.33	4.9826e-06	1.417e-05	399.54	169.96	136.15	65.376	2.4979e-06	90.868	0.0019326	0.0019495	0.0005468	860.85	2.1438e-05	2.152e-05	910.82	359.4	2.1563e-05	2.1401e-05	523.64	188.87	162.28	72.067	2.1393e-05	99.814	17.040	113.633	258.608	16.701	199.629	140.839	15.997	21.627	50.070	47.978	20.019	24.669	26.260	30.733	248.803	28.275	-8191	255	
1475.418	1	1	0	0	0.15276	0.16749	0.19639	0.075933	0.0619	0.29991	0.13186	0.17812	0.16262	0.076821	0.11779	0.59491	0.27113	0.077605	0.085452	0.058818	-2.3646	-3.2313	-2.05	-3.1729	-2.7021	-1.9688	-3.3396	-2.2917	-2.5333	-3.0979	-2.0354	-3.0687	-2.7396	-2.2313	-3.1479	-2.425	119.387	296.504	15.661	261.054	323.402	280.148	54.600	57.133	252.612	339.787	316.546	307.025	103.964	333.703	251.349	244.598	0.0016689	0.00053307	0.00010705	743.81	9.6669e-06	1.5446e-06	799.01	321.99	1.344e-05	9.2847e-06	400.89	170.01	136.64	65.076	1.2289e-05	91.011	0.0019452	0.0019668	0.00054927	862.36	2.1535e-05	2.1579e-05	912.9	360.01	2.1505e-05	2.1517e-05	525.79	189.28	162.37	71.993	2.1654e-05	100.08	5.221	163.760	57.314	16.422	71.982	317.950	15.820	21.561	37.652	77.075	20.001	24.433	26.074	30.698	227.564	28.279	-8191	255	
1475.515	1	1	0	0	0.18506	0.13998	0.16844	0.086927	0.14656	0.16165	0.14489	0.19821	0.14831	0.17786	0.052938	0.071589	0.11923	0.11221	0.25542	0.51261	-2.1958	-3.15	-2.0708	-3.075	-2.7396	-2.2229	-3.4	-2.525	-2.3896	-3.3271	-2.1729	-2.975	-3.0146	-2.1896	-3.0542	-2.5583	68.095	140.527	70.024	308.618	116.563	319.941	268.772	360.043	286.335	280.975	270.079	300.205	273.734	301.523	268.548	307.053	0.0017781	0.0010943	0.00022602	742.54	8.0322e-06	6.8802e-06	803.42	321.69	8.3745e-06	1.31e-05	400.93	170.07	137.11	64.973	3.3683e-06	90.994	0.0019561	0.001979	0.00055452	862.37	2.1693e-05	2.1569e-05	915.48	359.99	2.1522e-05	2.1465e-05	526.8	189.38	162.61	71.972	2.1578e-05	99.603	15.082	345.120	197.719	16.529	44.398	277.794	15.580	21.585	349.209	143.797	19.687	24.180	25.661	30.541	271.112	28.147	-8191	255	
1475.611	1	1	0	0	0.17312	0.21889	0.17369	0.16438	0.075259	0.31704	0.14427	0.44224	0.13327	0.052559	0.0433	0.23716	0.32042	0.37038	0.052508	0.040219	-2.0042	-3.0354	-2.0854	-2.8271	-2.9688	-2.1479	-3.15	-2.6375	-2.1229	-3.2188	-2.3354	-2.875	-3.2125	-2.1188	-2.8646	-2.8229	104.990	174.043	296.807	287.339	225.962	278.898	333.903	266.164	352.151	257.723	133.474	278.049	323.827	320.929	135.053	218.522	0.0017435	0.00093393	0.00025853	742.73	6.7552e-06	6.3307e-06	802.67	320.68	1.9815e-05	9.6737e-06	399.54	168.69	136.32	64.677	6.4464e-06	89.869	0.001947	0.0019757	0.00055342	861.52	2.1622e-05	2.1569e-05	912.06	358.71	2.1468e-05	2.1513e-05	522.85	187.56	161.95	71.527	2.1571e-05	98.655	20.665	64.163	90.150	16.107	221.742	163.774	15.869	21.244	149.073	186.046	20.019	24.383	26.017	30.358	184.881	27.926	-8191	255	
1475.731	1	1	0	0	0.037755	0.04552	0.04819	0.13007	0.043933	0.17853	0.19017	0.24467	0.3074	0.087916	0.28207	0.32696	0.098668	0.64042	0.19919	0.20167	-1.9833	-3.1937	-2.2625	-2.7438	-2.8438	-2.0458	-3.0833	-2.9583	-2.0917	-3.3438	-2.5271	-2.5687	-3.3417	-2.2375	-2.7479	-2.975	83.526	194.327	266.336	260.072	23.601	245.740	280.042	247.904	313.344	45.736	204.842	11.058	66.220	338.344	316.122	271.228	0.0014995	7.9879e-05	0.00016303	738.05	6.4889e-06	5.5803e-06	799.66	320.03	5.7423e-06	1.4066e-05	395.08	168.19	136.1	64.982	3.7395e-06	90.397	0.0019236	0.001965	0.00055206	857.89	2.1276e-05	2.1597e-05	908.43	358.2	2.1349e-05	2.1568e-05	522.63	187.45	162	71.761	2.1561e-05	98.863	8.726	225.758	78.058	16.364	165.315	89.535	15.631	21.473	90.969	237.905	19.688	24.218	25.802	30.233	88.116	27.846	-8191	255	
1475.827	1	1	0	0	0.065902	0.06142	0.18728	0.22069	0.20555	0.11172	0.23237	0.29535	0.11968	0.060113	0.18913	0.12286	0.226	0.12225	0.23121	0.16513	-1.7146	-2.9375	-2.5917	-2.2333	-3.2521	-2.1604	-3.0146	-3.2229	-1.9854	-3.1896	-2.5062	-2.5292	-3.3958	-2.4813	-2.9938	-3.4083	65.143	120.746	218.589	8.048	133.529	42.953	338.555	280.365	173.261	263.956	328.325	57.273	322.185	56.494	100.954	3.295	0.0014824	0.001254	0.00017678	738.88	1.6377e-05	5.7143e-06	798.19	321.35	8.8291e-06	2.7216e-06	396.66	170.19	137.83	65.453	1.5582e-06	90.891	0.0019231	0.0019511	0.00054838	858.11	2.1333e-05	2.157e-05	910.07	359.1	2.1397e-05	2.1572e-05	523.79	188.68	163.08	72.227	2.1562e-05	99.618	24.099	87.350	127.415	16.165	133.124	169.357	15.640	21.280	44.889	359.961	19.751	24.230	26.148	30.538	77.094	27.832	-8191	255	
1475.924	1	1	0	0	0.1978	0.16925	0.069825	0.46972	0.027927	0.023819	0.035581	0.1656	0.057561	0.21638	0.20394	0.098038	0.023309	0.47266	0.20007	0.076767	-1.8188	-3.2229	-2.5625	-2.4021	-3.3917	-2.2771	-2.8896	-3.1958	-2.0583	-3.1042	-2.7271	-2.3896	-3.3792	-2.3646	-2.5771	-3.4833	203.811	326.178	323.972	337.761	207.967	23.886	206.100	230.357	243.274	338.971	20.956	23.395	4.764	318.097	50.884	214.495	0.0017426	0.00028128	0.00039517	746.17	6.2589e-06	6.8918e-07	802.56	321.73	1.1314e-05	8.232e-06	399.04	170.95	138.04	65.776	4.2764e-06	91.577	0.0019399	0.0019646	0.00054808	861.5	2.1333e-05	2.1588e-05	914.55	360.54	2.1301e-05	2.153e-05	525.75	189.74	163.28	72.65	2.1513e-05	100.57	9.700	181.692	81.562	16.448	144.344	5.713	15.643	21.287	118.225	135.553	19.453	24.285	25.910	30.299	80.267	28.014	-8191	255	
1476.020	1	1	0	0	0.15062	0.29155	0.045702	0.11586	0.045789	0.15734	0.15307	0.17228	0.10909	0.20493	0.096225	0.30456	0.29673	0.17952	0.15609	0.15137	-1.7417	-2.9917	-2.7083	-2.1063	-3.1667	-2.3604	-2.55	-3.2375	-2.0292	-2.9938	-2.8479	-2.1562	-3.1792	-2.8458	-2.4229	-3.4792	226.564	53.810	280.585	283.598	22.299	182.847	285.445	24.957	63.722	317.673	117.948	21.008	336.754	340.811	360.786	11.492	0.0013522	0.00081437	0.00026102	746.28	1.0743e-05	7.6154e-06	806.09	323.53	4.7074e-06	5.2665e-07	399.85	171.08	138.63	65.528	4.2954e-06	91.43	0.0019468	0.0019933	0.00055307	862.65	2.169e-05	2.1896e-05	917.28	361.4	2.1715e-05	2.1758e-05	525.69	189.94	163.66	72.397	2.1408e-05	99.984	18.063	61.123	74.676	16.304	120.523	47.112	15.745	21.461	274.863	61.409	20.333	24.393	26.278	30.626	60.504	28.144	-8191	255	
1476.116	1	1	0	0	0.18436	0.1943	0.23211	0.086467	0.17529	0.095113	0.070071	0.28614	0.24194	0.1134	0.20744	0.405	0.203	0.18942	0.31952	0.19134	-1.7271	-2.8917	-3.1271	-2.2438	-3.0687	-2.55	-2.4021	-3.4188	-2.2438	-2.7708	-3.2354	-2.2542	-3.2271	-2.7896	-2.1417	-3.425	214.320	237.896	294.354	75.136	277.004	311.434	274.474	351.836	309.638	180.804	359.270	332.290	341.287	316.798	340.756	162.441	0.0016821	0.00099639	0.00010462	740.77	1.1541e-05	6.3787e-06	794.88	322.61	1.1474e-05	1.1143e-05	398.9	169.2	136.79	65.092	1.4507e-05	90.438	0.0019535	0.0019855	0.00054951	860.9	2.1506e-05	2.175e-05	909.86	360.04	2.1572e-05	2.1612e-05	522.86	188.25	162.83	72.114	2.134e-05	99.26	8.851	74.632	175.664	16.538	103.818	134.897	15.834	21.634	55.669	174.459	19.783	24.283	26.267	30.576	181.020	28.201	-8191	255	
1476.212	1	1	0	0	0.16603	0.21732	0.20703	0.22518	0.21158	0.18546	0.25278	0.070982	0.18112	0.094438	0.083196	0.13366	0.10874	0.21281	0.12817	0.15417	-1.9583	-2.6146	-3.1437	-1.9937	-3.0146	-2.6833	-2.3771	-3.2729	-2.2146	-2.5042	-3.0917	-2.4	-2.975	-3.0583	-2.0604	-3.5958	335.844	271.839	313.619	296.730	190.718	161.235	311.648	82.203	18.707	353.981	23.178	352.360	128.059	360.128	196.231	333.862	0.0016933	0.00076126	0.00014609	740.67	6.0112e-06	2.1366e-06	799.13	322.62	2.5192e-05	7.8972e-06	398.87	170.19	138.3	65.417	5.1862e-06	91.153	0.0019491	0.0019766	0.00054753	859.81	2.1479e-05	2.1396e-05	908.71	360.05	2.1409e-05	2.1439e-05	522.14	188.82	163.65	72.34	2.1442e-05	99.818	16.638	18.808	80.930	16.449	86.426	303.356	16.036	21.553	96.908	312.591	20.001	24.541	26.604	30.782	130.299	28.022	-8191	255	
1476.331	1	1	0	0	0.26204	0.21485	0.11825	0.21618	0.15556	0.22651	0.32307	0.31414	0.22298	0.042552	0.30757	0.32886	0.36471	0.47364	0.14539	0.28484	-2.075	-2.5542	-3.2146	-2.3542	-2.8312	-2.9375	-2.1167	-3.4854	-2.475	-2.425	-3.2792	-2.2687	-2.8875	-3.1063	-2.05	-3.2812	135.107	103.949	282.702	351.014	100.109	139.655	316.352	296.577	69.126	87.562	303.683	29.732	284.802	330.982	348.042	328.163	0.0017956	8.7862e-05	0.00032582	743.44	8.7984e-06	8.6125e-06	797.29	322.57	2.2469e-05	5.6565e-06	402	171.43	138.38	66.017	4.3898e-06	91.844	0.0019581	0.0019784	0.00055243	861.78	2.1837e-05	2.1732e-05	909.96	361.3	2.1757e-05	2.1624e-05	526.34	190.29	163.91	72.788	2.1548e-05	100.57	20.531	276.514	35.413	16.605	203.573	129.377	16.150	21.919	154.644	138.742	20.193	24.671	26.225	30.775	185.207	28.644	-8191	255	
1476.427	1	1	0	0	0.062754	0.25836	0.22557	0.13881	0.098558	0.34155	0.099261	0.15202	0.41411	0.19832	0.10399	0.22686	0.12696	0.078567	0.10217	0.17662	-2.325	-2.2812	-3.4062	-2.3187	-2.6979	-3.0833	-2.1958	-3.2417	-2.4646	-2.2146	-3.3625	-2.5042	-2.6833	-3.1708	-1.9958	-3.3729	309.459	329.399	30.807	307.870	7.929	243.440	346.777	229.057	215.748	295.992	152.791	261.422	352.977	293.188	229.273	256.035	0.0015982	0.00048803	0.00015259	743.09	7.1996e-06	1.5657e-05	803.36	323.19	1.2358e-05	6.3213e-06	401	171.67	138.49	65.899	9.6662e-06	91.996	0.0019544	0.0019702	0.00055208	861.73	2.1687e-05	2.1579e-05	914.36	362.26	2.1583e-05	2.1696e-05	528.09	190.88	164.26	72.904	2.166e-05	100.97	16.110	286.545	63.499	16.725	107.439	251.634	15.848	21.399	137.925	135.432	19.553	24.309	26.193	30.386	150.943	28.227	-8191	255	
1476.523	1	1	0	0	0.090519	0.18363	0.14884	0.093005	0.10312	0.30931	0.27222	0.22852	0.25831	0.07488	0.24739	0.12415	0.18961	0.20614	0.074226	0.36784	-2.4479	-2.0729	-3.1958	-2.4542	-2.7396	-3.2667	-2.2729	-3.1437	-2.8646	-2.1792	-3.3604	-2.4896	-2.4958	-3.3187	-2.0187	-3.1042	226.962	338.602	45.433	101.471	226.055	109.899	328.690	327.812	254.609	289.328	268.975	272.157	234.178	29.063	241.121	325.993	0.0021758	0.00039431	0.00031825	747.11	1.1713e-05	5.6474e-06	804.79	324.05	1.4271e-05	5.5518e-06	398.6	170.47	138.07	65.411	2.8251e-06	90.901	0.0019532	0.0019864	0.00055433	863.58	2.1717e-05	2.1669e-05	915.03	362.21	2.1557e-05	2.1613e-05	525.97	189.35	163.6	72.353	2.1621e-05	99.75	7.937	341.764	18.561	16.315	76.926	75.343	15.613	21.426	74.714	163.697	20.347	24.264	26.418	30.585	92.151	28.343	-8191	255	
1476.595	1	1	0	0	0.28003	0.22022	0.083981	0.18845	0.17818	0.30782	0.24953	0.29132	0.051511	0.13766	0.23509	0.13919	0.12897	0.18655	0.15341	0.24897	-2.6688	-2.1021	-3.1042	-2.5792	-2.3021	-3.3542	-2.1417	-3	-3.1354	-2.0771	-3.1667	-2.5417	-2.2	-3.5938	-2.2292	-2.8875	153.727	70.110	33.422	273.621	76.352	62.262	16.602	16.958	187.764	217.265	289.255	329.812	270.812	318.018	255.415	56.672	0.0014086	0.0003588	4.1411e-05	742.39	5.2742e-06	4.7001e-06	796.8	320.93	1.9573e-05	9.9725e-06	397.05	168.54	136.09	64.84	1.2426e-05	89.983	0.0019488	0.0019637	0.00055422	860.82	2.1492e-05	2.1438e-05	907.9	359.9	2.1269e-05	2.1415e-05	522.24	187.38	162.25	71.71	2.173e-05	98.72	15.220	27.319	105.965	16.250	22.879	293.018	15.462	21.591	81.988	104.259	19.944	24.054	26.294	30.520	170.072	28.254	-8191	255	
1476.716	1	1	0	0	0.067677	0.055845	0.11144	0.20634	0.12607	0.19746	0.3417	0.29223	0.04936	0.12418	0.15484	0.2632	0.19933	0.14992	0.23746	0.10529	-2.7354	-1.9396	-3.0604	-2.6729	-2.175	-3.1396	-2.3667	-2.6625	-3.1458	-2.1167	-3.1167	-2.8896	-2.2646	-3.4271	-2.2167	-2.6854	152.580	91.735	192.830	324.259	351.592	163.498	324.733	320.941	311.800	163.104	253.928	33.835	154.843	18.099	109.909	347.833	0.0018195	0.0013812	0.00030313	738.93	1.2822e-05	1.2376e-05	796.53	321.09	1.8824e-05	8.5811e-06	399.62	169.51	136.29	65.208	1.1291e-05	90.666	0.001955	0.0019839	0.00055456	859.33	2.1456e-05	2.1561e-05	907.2	359.14	2.1237e-05	2.1481e-05	522.34	188.09	162.43	72.026	2.1453e-05	99.285	17.568	93.145	123.895	16.529	83.673	84.631	15.822	21.674	73.824	38.643	19.805	24.636	25.985	30.965	196.527	28.558	-8191	255	
1476.812	1	1	0	0	0.24365	0.34388	0.2289	0.11827	0.086769	0.089692	0.14437	0.23873	0.28962	0.18663	0.32842	0.31906	0.11469	0.17265	0.14049	0.28458	-2.9583	-2.0917	-3.0104	-2.9958	-2.05	-2.9896	-2.5458	-2.5521	-2.95	-2.0104	-2.7896	-2.8583	-2.1646	-3.2604	-2.3979	-2.2208	184.357	176.446	5.051	245.058	179.855	342.569	299.644	286.265	307.291	77.535	331.864	314.080	14.204	350.208	209.136	245.044	0.0017559	0.0010941	0.00017767	741.31	5.1418e-06	5.0332e-06	798.21	323.22	1.4883e-05	2.5866e-06	400.49	169.68	136.84	65.717	1.0165e-05	91.073	0.0019299	0.0019779	0.00055282	858.83	2.1475e-05	2.1703e-05	909.47	360.36	2.1492e-05	2.1733e-05	526.24	188.88	163.11	72.425	2.1672e-05	99.78	7.881	78.287	83.462	16.334	77.778	79.395	15.990	21.730	86.487	266.058	20.513	24.599	26.141	30.955	146.476	28.322	-8191	255	
1476.908	1	1	0	0	0.094453	0.052132	0.26667	0.1739	0.071046	0.07259	0.064411	0.22315	0.28547	0.16328	0.077318	0.24225	0.15736	0.12701	0.14795	0.12753	-2.8792	-2.1167	-2.6562	-2.8792	-1.9354	-3.0854	-2.6146	-2.3312	-3.2812	-2.1479	-2.6667	-3.0458	-2.2667	-3.2833	-2.6396	-2.4917	158.595	147.367	12.092	262.353	158.710	238.623	186.973	333.158	350.732	125.051	345.359	332.869	268.644	34.517	130.321	267.371	0.0013719	0.00036716	0.00016931	740.92	1.1279e-05	6.5542e-06	798.15	322.51	1.7219e-05	1.3885e-05	404.21	171.28	138.2	65.844	4.7817e-06	91.384	0.0019487	0.001985	0.00055228	858.97	2.1522e-05	2.1646e-05	912	360.93	2.1527e-05	2.1835e-05	528.02	190.02	163.75	72.755	2.183e-05	100.24	362.344	135.582	342.026	16.762	124.738	153.699	16.079	21.990	128.377	120.121	19.827	24.480	26.397	30.985	362.002	28.677	-8191	255	
1477.004	1	1	0	0	0.24446	0.17206	0.14694	0.22975	0.18414	0.062862	0.17255	0.10201	0.17147	0.17791	0.046262	0.074012	0.24575	0.19285	0.079614	0.258	-2.85	-2.2146	-2.6521	-3.2438	-1.9375	-3.0521	-2.8604	-2.1521	-3.1896	-2.1604	-2.6854	-3.3229	-2.2354	-3.0042	-2.7583	-2.1667	95.617	98.246	57.432	5.175	8.485	47.789	183.571	16.319	242.676	359.900	41.036	108.354	359.571	25.479	352.468	278.322	0.0017639	0.00021793	6.6201e-05	742.31	7.3111e-06	6.7959e-06	799.4	322.97	9.1844e-06	8.3661e-06	398.87	170.18	137.97	65.559	1.3392e-05	90.709	0.0019591	0.0019942	0.00055324	859.9	2.1598e-05	2.1786e-05	910.33	361.03	2.1591e-05	2.1692e-05	523.36	189.05	163.47	72.535	2.1576e-05	99.484	10.726	165.183	85.444	16.831	224.494	87.036	16.061	21.779	99.955	117.804	20.037	24.501	26.078	30.831	212.366	28.299	-8191	255	
1477.123	1	1	0	0	0.040825	0.22185	0.13543	0.081083	0.12242	0.16298	0.15372	0.23809	0.068766	0.066008	0.13666	0.16726	0.20212	0.41496	0.031219	0.063293	-2.9	-2.4167	-2.3708	-3.2646	-2.1188	-2.8604	-2.9646	-2.1813	-3.1375	-2.2625	-2.4625	-3.3896	-2.3104	-2.9	-3.0771	-2.2604	318.290	360.032	280.424	186.562	214.869	282.959	343.430	262.633	7.127	259.738	305.966	86.176	23.124	22.158	90.602	266.141	0.0019204	0.00089886	0.00029369	736.86	1.0529e-05	7.3477e-06	793.89	321.9	1.239e-05	1.0045e-05	391.7	168.97	136.74	65.47	7.9912e-06	90.639	0.0019501	0.0019905	0.00055329	858.25	2.171e-05	2.1748e-05	906.46	359.26	2.1491e-05	2.1628e-05	520.91	187.9	163.12	72.286	2.1414e-05	99.23	16.715	118.680	88.700	16.578	181.710	150.083	15.606	21.578	124.347	143.754	20.142	24.121	26.027	30.737	212.458	28.355	-8191	255	
1477.196	1	1	0	0	0.12807	0.10396	0.16821	0.16857	0.028443	0.11876	0.099763	0.12189	0.080872	0.11376	0.16985	0.16972	0.054368	0.25097	0.061023	0.27268	-2.6854	-2.6021	-2.1958	-3.1688	-2.1854	-2.5354	-3.3	-2.3271	-3.1125	-2.4854	-2.3396	-3.1792	-2.3104	-2.8854	-3.2104	-2.2062	52.269	63.314	103.841	175.863	166.281	352.048	328.631	169.838	293.228	190.277	85.126	50.258	53.429	357.999	345.063	356.708	0.0014754	0.00017867	8.9085e-05	741.23	1.8357e-05	5.1946e-06	794.67	322.43	1.9213e-05	6.6565e-06	398.26	169.55	137.53	65.866	1.36e-05	91.278	0.0019374	0.0019777	0.00055002	858.8	2.1639e-05	2.1704e-05	907.95	360.48	2.1688e-05	2.1577e-05	524.24	189	163.72	72.602	2.1488e-05	99.915	24.876	311.081	227.480	16.339	179.828	173.729	15.778	21.814	252.228	211.517	20.391	24.414	26.275	30.897	109.841	28.397	-8191	255	
1477.292	1	1	0	0	0.18093	0.16156	0.2329	0.18186	0.089454	0.093765	0.13123	0.34685	0.24585	0.23878	0.079421	0.045406	0.11935	0.16234	0.14321	0.19964	-2.6604	-2.6104	-2.0854	-3.3875	-2.2938	-2.4167	-3.5125	-2.1979	-2.7979	-2.9229	-2.0438	-3.25	-2.5563	-2.4833	-3.0667	-2.3396	74.953	147.532	346.972	275.887	203.047	241.687	298.589	256.219	69.511	122.840	346.728	349.760	105.335	28.448	83.099	304.207	0.0019206	0.00044966	5.8757e-05	744.72	8.9806e-06	7.7849e-06	800.48	323.25	1.2323e-05	6.2995e-06	400.27	170.51	137.48	65.858	1.2062e-05	91.265	0.0019661	0.0019868	0.00054916	861.17	2.1753e-05	2.1713e-05	911.2	361.07	2.1893e-05	2.1866e-05	526.81	189.57	164.15	72.766	2.1752e-05	100.27	6.348	151.219	362.001	16.535	170.589	129.094	15.885	21.876	75.505	174.242	19.853	24.407	26.259	30.837	164.998	28.145	-8191	255	
1477.411	1	1	0	0	0.29393	0.15895	0.19388	0.15712	0.21124	0.061076	0.11041	0.19258	0.16534	0.29123	0.22162	0.31792	0.36698	0.1346	0.067021	0.11302	-2.5771	-2.9271	-2.0771	-3.325	-2.5729	-2.3833	-3.3875	-2.2062	-2.6167	-3.1229	-2.2625	-3.325	-2.5771	-2.5292	-3.3792	-2.3812	332.087	310.914	361.361	10.656	289.679	109.118	336.137	294.717	359.400	19.528	348.034	329.173	355.442	32.261	363.448	291.744	0.0016117	0.0010169	0.00032572	743.03	3.3746e-06	8.6004e-06	798.84	323.67	5.4948e-06	9.389e-06	402.7	170.8	137.4	65.565	7.1392e-06	91.459	0.0019698	0.0019841	0.00055582	863.49	2.1766e-05	2.1808e-05	914.64	362.09	2.1855e-05	2.1822e-05	527.13	190.3	164.01	72.624	2.1834e-05	100.37	16.695	72.968	40.808	16.684	68.868	142.385	15.907	21.864	116.342	156.101	20.140	24.678	26.164	30.910	139.936	28.268	-8191	255	
1477.507	1	1	0	0	0.27761	0.03529	0.36242	0.077607	0.25281	0.14956	0.16635	0.312	0.016307	0.17236	0.42692	0.37602	0.13471	0.45421	0.22764	0.22227	-2.2292	-3.2687	-1.9042	-3.1354	-2.5563	-2.3458	-3.3187	-2.4625	-2.5292	-3.1729	-2.1125	-3.1646	-2.8896	-2.3021	-3.1208	-2.5354	4.163	255.377	242.244	206.032	279.457	90.250	339.452	327.011	194.490	346.607	239.204	318.822	13.012	361.975	8.528	197.967	0.0017025	0.00073062	7.1074e-05	740.88	5.9839e-06	2.6546e-06	800.33	322.56	2.4014e-05	8.4668e-06	396.63	168.54	136.88	64.963	1.373e-05	89.882	0.0019788	0.0019871	0.00055865	861.71	2.1793e-05	2.177e-05	912.23	360.75	2.1557e-05	2.165e-05	522.38	187.8	162.55	71.905	2.173e-05	98.716	21.480	110.021	82.484	16.605	83.398	130.691	15.936	21.733	87.226	151.191	20.645	24.796	26.322	30.935	212.379	28.361	-8191	255	
1477.604	1	1	0	0	0.20409	0.17125	0.40617	0.20378	0.2775	0.14783	0.076197	0.13464	0.22194	0.051151	0.086528	0.080032	0.2818	0.3353	0.36235	0.21445	-2.2375	-3.0292	-2.2333	-2.9042	-2.9979	-2.0292	-3.2062	-2.6833	-2.325	-3.0771	-2.0896	-3.0479	-2.8438	-2.275	-3.0875	-2.7208	245.683	251.126	114.383	249.039	313.471	206.272	238.748	82.728	324.213	322.500	236.583	275.163	127.245	48.847	53.167	230.570	0.001837	0.00097168	0.00031122	745.89	6.599e-06	4.6198e-06	796.01	320.57	9.6238e-06	1.1182e-05	391.98	167.72	135.95	64.849	7.0278e-06	89.62	0.0019694	0.0019862	0.00055715	861.25	2.1795e-05	2.1761e-05	908.05	359.31	2.1664e-05	2.1699e-05	521.49	187.01	162.09	71.684	2.1639e-05	98.524	7.657	120.266	87.391	16.798	137.486	145.948	15.706	21.581	124.185	198.152	19.995	24.384	25.935	30.537	48.324	28.091	-8191	255	
1477.724	1	1	0	0	0.17672	0.10566	0.20808	0.19132	0.023546	0.20413	0.21506	0.025681	0.19252	0.28553	0.3416	0.22458	0.069769	0.24	0.13618	0.3692	-2.0583	-3.1375	-2.1708	-2.7271	-2.9354	-2.025	-3.2438	-2.6792	-2.0833	-3.1458	-2.1646	-2.9958	-3.175	-2.3063	-2.9125	-2.9104	182.939	22.017	108.231	23.629	242.956	358.636	314.920	76.417	181.834	183.649	317.433	316.707	83.456	349.085	160.160	280.774	0.0016926	0.00054537	0.00040372	739.86	8.8191e-06	1.091e-05	793.96	321.25	7.4638e-06	6.484e-06	396.43	169.85	136.54	65.222	9.0014e-06	90.476	0.0019563	0.0019766	0.00055257	858.36	2.1664e-05	2.1701e-05	907.96	359.79	2.1556e-05	2.1525e-05	522.99	187.95	162.82	72.11	2.1768e-05	99.203	24.716	138.378	76.846	16.211	152.906	109.747	15.332	21.412	54.898	162.932	19.644	24.315	25.874	30.530	124.435	28.061	-8191	255	
1477.796	1	1	0	0	0.19548	0.20649	0.10625	0.35655	0.15014	0.15115	0.18423	0.18119	0.060419	0.15446	0.22324	0.37763	0.24503	0.21885	0.17705	0.32851	-1.9312	-3.2854	-2.2875	-2.7042	-3.1396	-1.9896	-2.9208	-2.8937	-2.1271	-3.1146	-2.4458	-2.6083	-3.05	-2.0375	-2.7229	-3.0271	79.945	162.512	7.990	270.765	40.641	86.991	289.570	344.164	196.405	73.431	47.351	311.511	353.100	332.451	252.022	288.092	0.0014485	0.00052393	0.00014066	739.09	1.2337e-05	1.088e-05	800.17	323.59	9.0835e-06	6.6437e-06	399.56	169.3	136.95	65.677	1.0433e-06	91.189	0.0019522	0.0019852	0.00055769	860.52	2.1685e-05	2.1791e-05	912.76	360.25	2.1586e-05	2.1699e-05	525.24	188.99	163.48	72.488	2.1856e-05	99.924	15.143	163.780	58.839	16.402	157.346	197.494	15.707	21.327	360.270	187.726	19.966	24.308	26.046	30.594	57.604	27.974	-8191	255	
1477.892	1	1	0	0	0.25794	0.16443	0.22126	0.11476	0.10348	0.28412	0.31441	0.13159	0.138	0.21637	0.23103	0.081929	0.048807	0.12233	0.091561	0.096978	-1.8021	-3.0542	-2.5917	-2.5146	-3.1958	-2.0917	-2.9646	-2.95	-1.9167	-3.0875	-2.6583	-2.5042	-3.3458	-2.2583	-2.6542	-3.2396	45.675	132.520	113.129	326.201	204.929	343.988	331.711	284.710	303.786	207.561	353.445	343.698	103.931	314.749	336.503	260.962	0.0017653	0.0010522	0.00026008	740.9	1.2089e-05	1.9028e-06	801.21	322.23	5.2565e-06	7.9755e-06	397.85	170.74	137.78	65.562	1.4325e-05	91.21	0.0019694	0.0020082	0.00056045	861.35	2.176e-05	2.2006e-05	915.37	361.28	2.1891e-05	2.1972e-05	528.14	189.61	164.09	72.51	2.1963e-05	99.933	4.650	45.698	37.765	16.450	145.900	94.948	15.790	21.446	358.737	149.937	19.829	24.380	25.976	30.718	156.248	28.195	-8191	255	
1478.013	1	1	0	0	0.16285	0.17655	0.20527	0.23295	0.18532	0.19491	0.14491	0.3178	0.14451	0.34814	0.096664	0.24845	0.045019	0.1039	0.27592	0.11022	-1.7917	-3.075	-2.6875	-2.3542	-3.0458	-2.025	-2.7542	-3.1729	-2.0292	-2.9521	-2.6458	-2.3438	-3.3771	-2.45	-2.2625	-3.3563	83.138	266.278	241.511	340.497	200.825	340.197	228.853	22.349	304.189	122.248	345.231	3.781	258.372	257.020	125.420	361.633	0.0019062	0.0007784	0.0001218	742.52	6.1637e-06	7.2477e-06	794.25	320.97	1.6345e-05	1.2629e-05	393.88	168.58	137.05	65.051	3.9006e-06	89.788	0.0019813	0.0020063	0.00055917	860.46	2.1765e-05	2.2025e-05	909.57	360.01	2.1801e-05	2.1952e-05	523.19	187.81	163.17	72.084	2.1842e-05	98.811	19.777	103.864	92.908	16.230	219.956	256.532	15.768	21.364	114.113	140.370	19.361	24.104	25.875	30.367	64.402	27.597	-8191	255	
1478.107	1	1	0	0	0.19018	0.19748	0.12087	0.27693	0.24746	0.093268	0.10432	0.18353	0.13382	0.086145	0.2019	0.29912	0.23928	0.20924	0.098659	0.13771	-1.6042	-3.0458	-2.6	-2.2854	-3.1396	-2.3021	-2.4167	-3.3292	-2.1375	-2.95	-2.9854	-2.1854	-3.3063	-2.6417	-2.3583	-3.1417	11.664	320.990	129.049	325.094	169.410	43.712	316.591	275.887	269.541	324.281	295.635	298.135	248.727	248.526	353.805	226.213	0.0012241	0.001114	0.00011023	741	3.0501e-06	8.0992e-06	796.82	321.07	1.2612e-05	6.2804e-06	396.63	168.62	136.83	65.2	5.2173e-06	90.255	0.0019667	0.0019926	0.00055751	858.97	2.1888e-05	2.1893e-05	908.14	359.86	2.187e-05	2.192e-05	523.86	187.7	163.31	72.098	2.1752e-05	99.025	12.393	62.092	114.244	15.999	23.237	171.429	15.776	21.245	133.729	48.612	19.029	23.810	25.832	30.323	118.669	27.738	-8191	255	
1478.203	1	1	0	0	0.051878	0.080319	0.096568	0.27228	0.10091	0.2087	0.26838	0.073168	0.19852	0.33233	0.092271	0.054963	0.071605	0.31091	0.074886	0.31333	-1.825	-2.7146	-2.9375	-2.15	-3.1271	-2.5687	-2.3917	-3.4583	-1.8792	-2.6667	-2.9646	-2.2042	-3.1458	-2.7438	-2.275	-3.3833	86.326	352.697	71.768	320.224	208.462	38.797	226.292	246.404	151.261	301.149	217.559	175.186	145.404	302.614	261.372	311.918	0.0015195	0.00023183	0.0001366	740.27	8.6699e-06	3.2313e-06	793.77	321.25	1.3862e-05	7.6156e-06	401.21	169.31	137.29	65.481	8.1202e-06	90.901	0.0019816	0.0020218	0.00055795	859.02	2.1864e-05	2.1973e-05	907.95	360.13	2.1896e-05	2.2028e-05	525.6	188.47	164	72.436	2.1913e-05	99.855	12.897	137.957	135.039	16.035	117.140	10.520	15.478	21.187	52.880	120.206	19.364	24.104	26.103	30.442	141.767	28.093	-8191	255	
1478.299	1	1	0	0	0.034459	0.32964	0.14235	0.075501	0.054423	0.11893	0.26502	0.13815	0.12587	0.23752	0.067621	0.21896	0.36126	0.25387	0.35887	0.15456	-1.8729	-2.5812	-3.1562	-2.1729	-3.1896	-2.75	-2.2542	-3.3083	-2.3375	-2.5667	-3.3125	-2.1875	-3.1437	-3.0375	-2.1833	-3.3583	66.344	241.176	168.581	279.484	318.729	107.455	321.935	291.400	341.932	9.273	32.602	308.297	312.495	30.472	327.628	269.586	0.0019083	0.00066633	0.00017625	738.92	1.2779e-05	1.0188e-05	798.61	321.7	1.4326e-05	1.1582e-05	400.25	170.45	137.1	65.474	1.1053e-05	91.369	0.0020003	0.0020249	0.00056309	862.03	2.2111e-05	2.2279e-05	912.61	361.1	2.2167e-05	2.2154e-05	527.59	189.63	164.43	72.629	2.2048e-05	100.34	8.063	165.258	54.454	16.140	176.399	132.302	15.517	21.412	118.337	158.615	19.907	24.242	25.823	30.433	189.831	27.765	-8191	255	
1478.420	1	1	0	0	0.18288	0.038674	0.2362	0.20549	0.1161	0.19005	0.051677	0.28825	0.1544	0.29231	0.084448	0.16739	0.18531	0.45294	0.19223	0.42755	-1.8687	-2.6396	-3.3417	-2.3917	-2.9	-3.0604	-2.0875	-3.4583	-2.3146	-2.325	-3.1833	-2.3458	-2.9458	-3.0792	-2.0125	-3.3583	177.999	228.299	302.728	258.689	158.386	68.683	239.012	349.425	60.340	4.265	312.620	301.253	55.636	348.248	74.950	327.234	0.0015127	0.00065264	0.00033782	743.26	8.2983e-06	1.2063e-05	801.81	322.79	8.9469e-06	7.8351e-06	400.61	169.88	136.85	65.447	1.4136e-05	90.263	0.002002	0.0020247	0.00056611	863.55	2.2173e-05	2.2186e-05	914.92	361.92	2.2334e-05	2.2081e-05	526.56	189.17	164.03	72.415	2.2066e-05	99.479	22.113	82.729	93.257	16.113	114.141	138.835	15.519	21.495	6.857	127.563	19.421	24.098	25.982	30.415	128.461	27.960	-8191	255	
1478.492	1	1	0	0	0.081163	0.20321	0.21019	0.51443	0.13055	0.13534	0.091624	0.22817	0.15179	0.23843	0.069214	0.30393	0.22374	0.36264	0.14325	0.30366	-2.2687	-2.3479	-3.2958	-2.3083	-2.8187	-2.9917	-2.2854	-3.1063	-2.6937	-2.0479	-3.2271	-2.3792	-2.6146	-3.2521	-2.1042	-3.25	128.749	305.213	73.490	353.377	21.599	29.112	33.644	358.390	139.609	321.518	308.903	312.517	5.573	314.343	142.392	280.210	0.0015001	0.00025609	0.00022392	740.28	8.319e-06	3.411e-06	792.89	320.59	7.4006e-06	5.5855e-06	394.34	167.37	136.39	64.678	6.6233e-06	89.669	0.0019875	0.002025	0.00056357	862.35	2.2267e-05	2.2113e-05	909.69	359.66	2.2116e-05	2.2145e-05	523.08	186.99	162.96	71.691	2.198e-05	98.488	21.130	46.977	163.863	16.049	314.077	39.165	15.584	21.404	205.312	333.540	19.875	23.879	26.094	30.390	160.035	27.877	-8191	255	
1478.588	1	1	0	0	0.16889	0.046777	0.1889	0.2503	0.17097	0.24697	0.3281	0.21291	0.23404	0.22092	0.16218	0.29245	0.35238	0.17332	0.1443	0.1584	-2.5375	-2.1333	-3.175	-2.2833	-2.5042	-2.9104	-2.175	-3.0229	-2.65	-2.1917	-3.2229	-2.3771	-2.7583	-3.3271	-2.0958	-3.0271	139.775	46.324	268.479	55.595	13.019	141.122	299.549	73.936	302.266	112.407	219.171	326.166	299.340	49.528	249.763	239.187	0.0014694	0.00054475	0.00034709	736.98	3.6616e-06	4.4811e-07	794.17	320.76	1.1706e-05	4.3734e-06	396.22	168.04	136	64.648	7.2765e-06	89.634	0.0019918	0.0020203	0.00056144	859.79	2.2019e-05	2.1964e-05	906.01	359.26	2.1915e-05	2.1908e-05	523.96	187.18	162.84	71.648	2.207e-05	98.602	10.338	116.545	32.052	16.104	169.537	309.483	15.661	21.382	86.659	172.587	19.730	24.103	25.800	30.575	196.519	28.004	-8191	255	
1478.684	1	1	0	0	0.13416	0.15282	0.053428	0.1297	0.20335	0.12796	0.11415	0.14397	0.29333	0.12148	0.11197	0.050612	0.23308	0.29742	0.1566	0.1835	-2.5708	-1.8292	-3.0729	-2.325	-2.4313	-3.15	-2.2417	-2.9458	-2.9375	-2.0521	-3.0812	-2.6312	-2.4354	-3.2792	-2.1667	-2.8771	34.385	36.626	315.048	312.749	206.286	28.339	255.348	342.752	228.752	196.189	358.485	5.435	332.400	355.597	6.062	16.183	0.0017341	0.00065459	0.00025398	738.55	5.2892e-06	5.0566e-06	791.78	321.19	5.0761e-06	7.6144e-06	394.28	168.45	137.36	65.071	9.8188e-06	90.151	0.0019755	0.0020154	0.00056275	859	2.1958e-05	2.2065e-05	908.03	360.12	2.1821e-05	2.1858e-05	523.86	187.93	163.29	72.051	2.2121e-05	99.216	10.236	283.243	107.592	16.336	27.671	205.937	15.533	21.404	179.181	171.241	19.661	24.066	25.926	30.484	200.191	28.008	-8191	255	
1478.805	1	1	0	0	0.20386	0.086666	0.17735	0.24747	0.069792	0.18105	0.33339	0.15761	0.1125	0.11036	0.036066	0.24685	0.11503	0.22731	0.22836	0.061579	-2.75	-2.0896	-3.0792	-2.7167	-2.1333	-3.3167	-2.2687	-2.7104	-2.8438	-1.9958	-3.1312	-2.9229	-2.2042	-3.3229	-2.2792	-2.4708	256.991	14.700	223.905	126.201	180.722	88.267	297.912	318.733	117.882	170.127	239.866	300.857	358.665	81.835	188.108	238.188	0.0014258	0.00047432	0.00015355	740.31	5.66e-06	1.1379e-05	797.72	322.78	8.9041e-06	1.622e-06	400.27	169.48	137.1	65.455	6.2315e-06	90.931	0.0019869	0.0020164	0.00056609	861.52	2.2058e-05	2.2051e-05	912.64	361.31	2.1868e-05	2.2046e-05	526.82	189.03	163.96	72.452	2.226e-05	99.976	14.397	25.313	94.443	16.301	167.353	167.642	15.574	21.387	89.527	27.165	19.971	24.106	25.994	30.560	193.031	28.053	-8191	255	
1478.901	1	1	0	0	0.042478	0.12944	0.10669	0.17381	0.18556	0.15097	0.36324	0.088672	0.27108	0.14461	0.077435	0.18599	0.063578	0.025182	0.33996	0.28177	-2.9083	-1.9604	-2.8604	-2.95	-2.2604	-3.2125	-2.3812	-2.5521	-3.2729	-2.1917	-2.9667	-3.0958	-2.0708	-3.4542	-2.5375	-2.6542	309.859	222.214	216.303	344.525	68.664	190.037	331.131	313.884	138.892	315.065	43.478	41.438	304.483	252.651	360.818	302.761	0.0015507	0.00035174	0.00018483	740.89	6.9463e-06	3.8647e-06	797.78	323.5	1.9467e-05	1.0533e-05	399.1	169.4	137.52	65.272	7.8348e-06	90.567	0.002003	0.0020378	0.00056985	862.64	2.2211e-05	2.22e-05	913.69	362.07	2.2085e-05	2.218e-05	530.33	189.21	164.31	72.363	2.2348e-05	99.486	16.773	131.475	152.511	16.358	162.879	92.440	15.536	21.394	149.712	114.977	19.793	23.978	25.736	30.434	185.839	28.192	-8191	255	
1478.997	1	1	0	0	0.10915	0.095946	0.38448	0.11121	0.17101	0.1302	0.22766	0.34098	0.16955	0.20839	0.1585	0.26239	0.17368	0.23065	0.058001	0.32107	-3.0167	-1.8979	-2.9979	-3.3208	-2.0021	-3.0833	-2.5708	-2.4333	-3.1729	-1.9542	-2.875	-3.1688	-1.9479	-3.2167	-2.6896	-2.2958	227.801	105.555	307.298	233.256	80.823	98.563	5.876	17.208	23.322	74.814	7.079	348.761	281.828	12.639	268.000	293.063	0.0015688	0.00052302	0.00019145	737.22	8.2151e-06	9.7241e-06	794.91	320.85	3.6186e-06	1.5015e-05	397.88	169.16	136.92	65.239	2.4738e-06	89.957	0.0019985	0.002043	0.00056723	860.73	2.2136e-05	2.234e-05	909.09	360.31	2.2079e-05	2.238e-05	526.08	188.06	164.02	72.311	2.2185e-05	99.023	11.435	293.549	122.639	16.049	106.297	77.704	15.597	21.361	152.124	149.654	20.244	24.085	26.421	30.698	145.525	27.981	-8191	255	
1479.093	1	1	0	0	0.085705	0.17689	0.087521	0.10626	0.24292	0.33504	0.21497	0.087231	0.11488	0.14092	0.15181	0.18204	0.16597	0.16247	0.31459	0.34511	-2.8792	-2.2396	-2.4083	-3.1292	-1.9833	-2.9042	-2.8271	-2.2	-3.2562	-2.3021	-2.4729	-3.4188	-1.9604	-3.1063	-2.8042	-2.3417	220.262	53.582	147.632	153.105	42.898	9.299	261.000	126.907	201.454	208.851	355.547	329.280	318.416	285.269	95.272	281.007	0.0019474	0.00079405	0.00028246	738.31	1.3025e-05	9.92e-06	790.66	321.83	2.2571e-06	1.5013e-05	394.12	168.32	136.48	65.286	2.3101e-05	90.541	0.0020033	0.0020347	0.00056904	858.47	2.2076e-05	2.2342e-05	908.29	361.08	2.212e-05	2.2237e-05	525.11	187.97	164	72.402	2.2205e-05	99.437	16.342	167.069	105.331	16.104	167.238	147.804	15.414	21.339	156.149	82.903	20.037	24.095	25.726	30.578	149.738	28.102	-8191	255	
1479.189	1	1	0	0	0.075814	0.30697	0.10632	0.34032	0.18611	0.0076967	0.10401	0.12317	0.20198	0.075932	0.20858	0.17125	0.34528	0.06564	0.17357	0.33467	-2.9854	-2.1979	-2.6521	-3.2042	-1.8937	-3.0229	-3.0979	-2.1979	-3.2	-2.3458	-2.2542	-3.3417	-2.2687	-3.0896	-3.0438	-2.3958	89.876	188.272	295.204	299.075	155.438	258.854	219.460	260.172	291.856	246.376	118.623	275.189	8.249	5.762	251.363	340.056	0.0013694	0.00098256	6.49e-05	739.27	8.3334e-06	8.5549e-06	792.77	322.66	4.1682e-06	1.3615e-05	400.45	169.87	138.29	65.607	1.3184e-05	90.861	0.0020185	0.0020594	0.00057241	860.06	2.2478e-05	2.259e-05	910.22	362.04	2.2419e-05	2.2469e-05	529.6	189.6	165.07	72.805	2.2335e-05	100	10.927	64.597	45.495	16.481	141.705	102.891	15.365	21.344	132.154	140.034	20.272	24.164	25.813	30.548	105.473	27.926	-8191	255	
1479.285	1	1	0	0	0.064641	0.32028	0.14169	0.1945	0.16596	0.097865	0.17355	0.27156	0.2791	0.22545	0.050479	0.25426	0.28176	0.2265	0.22875	0.38554	-2.9708	-2.4667	-2.1813	-3.3708	-2.0563	-2.7083	-3.2396	-2.1354	-3.0479	-2.8104	-2.1333	-3.3187	-2.0021	-2.5167	-3.0271	-2.2188	363.082	59.561	332.550	304.140	101.568	198.311	307.498	328.549	214.521	236.789	210.733	309.109	53.525	21.569	318.071	237.519	0.0013057	0.0013592	0.00042638	741.23	4.4539e-06	6.2711e-06	797.74	322.17	5.3607e-06	3.4407e-06	398.91	170.87	137.97	65.86	4.8219e-06	91.337	0.0020185	0.0020556	0.00057118	863.22	2.254e-05	2.2572e-05	914.83	362.85	2.2553e-05	2.2549e-05	530.7	190.5	165.18	72.985	2.2495e-05	100.55	6.671	152.234	92.598	16.190	124.175	145.225	15.571	21.384	101.130	203.313	19.618	24.140	25.814	30.474	174.293	28.117	-8191	255	
1479.404	1	1	0	0	0.090472	0.15613	0.019794	0.40836	0.041029	0.10815	0.12919	0.33542	0.21692	0.11004	0.16452	0.29244	0.070315	0.21895	0.014957	0.20538	-2.7583	-2.6042	-2.0396	-3.2104	-2.3979	-2.4917	-3.3875	-2.1354	-3.1479	-2.7875	-2.2646	-3.3104	-2.4458	-2.5187	-3.25	-2.2167	226.665	53.357	135.873	336.696	159.014	268.491	272.350	289.574	43.943	281.303	359.122	306.203	255.416	347.029	330.218	244.332	0.0014813	0.00052492	0.00011218	739.05	5.76e-06	2.9566e-06	801.67	323.3	1.2577e-05	6.9224e-06	400.69	169.96	137.3	65.346	3.7678e-06	90.479	0.0020387	0.0020724	0.00057403	864.16	2.2526e-05	2.2572e-05	916.66	363.14	2.2535e-05	2.2509e-05	529.88	189.43	164.8	72.431	2.2321e-05	99.528	18.637	131.750	204.737	16.177	34.617	137.763	15.516	21.604	69.651	18.950	19.330	24.342	26.208	30.636	333.945	27.970	-8191	255	
1479.500	1	1	0	0	0.13819	0.17194	0.013167	0.20214	0.062299	0.10399	0.22852	0.10317	0.37174	0.035086	0.32425	0.34576	0.25776	0.12814	0.099968	0.34935	-2.5208	-2.7646	-1.9417	-3.2	-2.275	-2.0771	-3.4813	-2.2292	-2.6354	-2.9333	-2.0833	-3.2375	-2.5375	-2.3812	-3.2438	-2.2583	253.835	10.644	63.960	317.085	198.556	270.765	179.886	28.465	220.522	177.287	256.926	257.029	174.431	287.481	279.406	250.900	0.0015277	0.0012916	7.8034e-05	739.76	7.1069e-06	2.6582e-06	794.49	321.87	3.8672e-06	3.7226e-06	398.21	168.28	137.17	64.925	6.4915e-06	89.812	0.0020327	0.0020462	0.00057074	861.42	2.2476e-05	2.2314e-05	909.58	361.05	2.2269e-05	2.2194e-05	526.06	187.76	163.8	72.033	2.227e-05	98.74	13.238	102.714	32.309	16.454	242.671	241.402	15.488	21.477	63.669	118.667	19.864	24.322	25.949	30.465	89.271	28.001	-8191	255	
1479.597	1	1	0	0	0.30466	0.052694	0.19267	0.065955	0.20595	0.12833	0.27601	0.1839	0.20859	0.10983	0.025965	0.17802	0.091703	0.26504	0.15577	0.23735	-2.4208	-3.0104	-2.0292	-2.9125	-2.4979	-2.0417	-3.375	-2.1708	-2.45	-3.175	-1.9042	-3.0521	-2.75	-2.2708	-3.4188	-2.3771	78.781	87.928	205.849	130.741	341.907	348.687	293.494	39.935	346.591	124.565	316.521	289.428	305.058	53.007	218.312	245.019	0.0015022	0.00097274	0.00017364	740	7.7323e-06	4.8512e-06	794.64	320.78	1.469e-05	8.0394e-06	397.13	168.37	136.75	65.476	9.5584e-06	89.981	0.0020003	0.0020304	0.00056702	860.42	2.2184e-05	2.2176e-05	908.5	360.47	2.2084e-05	2.203e-05	526.4	187.88	163.58	72.133	2.2087e-05	99.157	6.114	124.497	183.608	16.161	46.592	141.708	15.654	21.330	127.151	178.975	19.421	24.251	25.845	30.447	262.544	28.112	-8191	255	
1479.693	1	1	0	0	0.088785	0.0048666	0.17636	0.063938	0.21155	0.39396	0.08771	0.25948	0.10033	0.14101	0.19	0.21487	0.09045	0.35023	0.11842	0.33926	-2.1437	-3.0896	-2.2146	-2.9208	-2.5917	-2.0208	-3.3146	-2.4313	-2.3896	-3.0125	-2.075	-2.95	-3.0146	-2.1542	-3.0146	-2.5833	343.226	207.235	231.087	115.881	279.218	231.907	315.083	359.079	299.245	26.282	223.563	280.165	176.511	337.320	123.606	295.737	0.0014512	0.0012826	0.00012725	740.4	1.2616e-05	1.5569e-05	794.08	322.7	1.0381e-05	5.8359e-06	400.14	169.67	137.57	65.459	1.2951e-05	90.803	0.0019924	0.0020158	0.00056424	861.58	2.2069e-05	2.2081e-05	910.3	361.54	2.2176e-05	2.2175e-05	528.65	189.24	164.3	72.547	2.2331e-05	99.965	9.308	118.802	51.587	16.282	54.446	98.084	15.843	21.484	52.074	120.893	19.829	24.258	25.829	30.419	145.892	28.107	-8191	255	
1479.789	1	1	0	0	0.22969	0.14126	0.067678	0.15777	0.12092	0.2645	0.28777	0.15584	0.27008	0.20607	0.076373	0.30418	0.18701	0.32129	0.18845	0.38058	-1.9146	-3.2687	-2.2021	-2.8958	-3.075	-1.9354	-3.0687	-2.8	-2.0417	-3.1521	-2.1625	-2.7104	-3.2146	-2.1229	-2.9333	-2.7562	29.905	335.535	323.186	38.806	76.818	120.567	284.966	331.042	207.108	176.626	7.783	343.269	234.855	32.348	285.386	286.052	0.0013155	0.0011488	0.00016984	740.72	4.9141e-06	1.0798e-05	797.81	324.09	2.0629e-05	4.1155e-06	404.8	171.85	138.58	65.827	8.8682e-06	91.782	0.0020052	0.0020302	0.00056965	860.91	2.2019e-05	2.2105e-05	913.22	362.88	2.2e-05	2.2017e-05	531.03	190.7	165.13	72.847	2.2295e-05	100.7	9.841	81.863	77.901	16.648	283.743	130.018	15.712	21.550	119.731	132.351	19.745	24.349	26.046	30.734	199.491	28.002	-8191	255	
1479.885	1	1	0	0	0.094162	0.1057	0.21311	0.24765	0.29949	0.1794	0.22259	0.22685	0.084529	0.081546	0.13397	0.30835	0.024988	0.2214	0.10972	0.097494	-1.8375	-3.2062	-2.2292	-2.7333	-3.1417	-2.2354	-3.2479	-2.9437	-1.9583	-3.3812	-2.1375	-2.5812	-3.1437	-2.3083	-2.8354	-3.1	24.059	173.613	324.036	311.358	106.784	23.980	323.868	241.196	92.646	248.832	15.839	324.385	359.120	37.783	206.316	10.369	0.0015605	0.0004461	0.00037441	743.59	1.0137e-05	7.3402e-06	803.63	324.12	5.6596e-06	8.6698e-06	396.61	170.41	137.9	65.824	1.319e-05	91.206	0.0020063	0.0020321	0.00057058	863.31	2.2211e-05	2.2352e-05	915.57	363.14	2.1962e-05	2.2208e-05	528.91	190	164.48	72.766	2.2069e-05	100.03	18.433	83.714	106.026	16.206	160.047	113.815	15.741	21.383	183.053	119.120	19.746	24.161	26.161	30.498	205.306	27.794	-8191	255	
1479.981	1	1	0	0	0.18497	0.18894	0.22878	0.21152	0.11832	0.24057	0.1089	0.26903	0.14433	0.086941	0.14023	0.13787	0.11763	0.12655	0.14702	0.097385	-1.8521	-3.1354	-2.4188	-2.3729	-3.25	-1.9167	-2.8542	-3.0625	-1.9729	-3.2021	-2.7083	-2.3271	-3.4458	-2.2417	-2.7146	-3.1896	261.809	152.980	156.497	48.396	163.906	68.507	145.572	282.665	301.299	97.579	167.628	8.766	160.053	320.732	19.620	276.385	0.0012623	0.0012997	0.00029866	740.6	4.9427e-06	1.1298e-05	797.55	322.59	9.7334e-06	8.9339e-06	395.28	169.83	138.54	65.217	3.3005e-06	90.534	0.0019812	0.0020254	0.00056437	860.98	2.2004e-05	2.2142e-05	910.82	361.37	2.1876e-05	2.1962e-05	525.44	188.91	164.38	72.369	2.2023e-05	99.409	13.177	176.099	141.836	16.327	317.338	116.476	15.878	21.399	64.314	214.003	19.363	24.242	25.598	30.392	89.983	28.067	-8191	255	
1480.100	1	1	0	0	0.20493	0.088727	0.034381	0.22317	0.07038	0.13277	0.01648	0.14388	0.21033	0.25013	0.18438	0.28954	0.10064	0.24158	0.22682	0.23364	-1.5875	-3.125	-2.625	-2.3229	-3.1146	-2.0833	-2.7438	-3.2708	-2.1458	-3.1417	-2.7271	-2.3375	-3.3083	-2.3729	-2.4917	-3.2896	359.019	3.877	4.692	44.057	40.193	192.514	306.966	343.290	167.521	70.536	231.154	21.145	57.222	354.565	129.622	342.892	0.0016767	0.00012693	3.422e-05	740.08	9.8325e-06	4.4115e-06	792.85	323.8	2.1036e-05	8.4386e-06	402.46	170.45	138.2	65.473	6.3839e-06	91.07	0.0019788	0.0020194	0.00056468	858.1	2.188e-05	2.2114e-05	909.7	362.24	2.1845e-05	2.1857e-05	526.07	189.2	164.4	72.606	2.1916e-05	100.02	21.212	16.540	18.209	16.162	150.250	68.957	15.806	21.350	107.940	221.467	19.554	24.300	25.760	30.460	202.963	27.980	-8191	255	
1480.196	1	1	0	0	0.18652	0.028927	0.1137	0.38548	0.077757	0.23837	0.26005	0.32651	0.14947	0.28258	0.062613	0.067123	0.26998	0.28399	0.16471	0.25039	-1.8646	-3.0021	-2.8063	-2.1146	-3.2958	-2.3896	-2.5708	-3.3	-1.8354	-2.9354	-2.8229	-2.3208	-3.2125	-2.4437	-2.2792	-3.3708	3.987	76.858	361.034	6.491	119.177	170.046	321.768	323.689	215.501	8.836	65.630	51.559	33.687	253.559	341.704	286.508	0.0017162	0.00066102	0.00020537	741.62	8.3353e-06	1.1569e-05	797.7	323.98	1.3002e-05	8.216e-06	400.84	171.61	137.82	66.061	9.5672e-06	91.497	0.0019897	0.0020265	0.00056441	863.28	2.2111e-05	2.2306e-05	913.61	363.13	2.2227e-05	2.2187e-05	529.44	190.51	165.11	72.964	2.2024e-05	100.46	6.328	123.496	63.751	16.323	174.435	115.408	15.748	21.375	85.249	205.368	19.475	24.263	25.725	30.605	165.673	28.140	-8191	255	
1480.292	1	1	0	0	0.33399	0.22478	0.14447	0.37348	0.1305	0.25935	0.29121	0.13891	0.10229	0.13123	0.084927	0.068148	0.23111	0.21667	0.27224	0.081651	-1.9021	-2.8729	-3.1063	-2.1667	-3.0687	-2.5479	-2.4729	-3.2854	-2.2562	-2.6771	-3.1979	-2.2083	-3.3958	-2.7104	-2.1958	-3.5438	314.261	205.458	100.763	228.127	288.826	169.564	264.497	21.693	220.067	248.478	309.339	297.901	254.666	322.623	92.392	241.201	0.0016481	0.0015678	0.00035207	742.27	7.4118e-06	1.0029e-05	799.64	324.44	1.052e-05	3.4223e-06	400.41	171.22	139.51	66.125	1.0241e-05	91.878	0.0019979	0.0020322	0.0005629	861.91	2.2144e-05	2.21e-05	915.59	363.46	2.2115e-05	2.2248e-05	531.42	191.04	165.53	73.027	2.2106e-05	100.91	7.539	108.446	126.677	16.396	141.981	95.701	15.750	21.514	225.881	117.116	19.658	24.181	26.150	30.641	108.543	28.156	-8191	255	
1480.366	1	1	0	0	0.0814	0.061405	0.22797	0.17068	0.15332	0.17216	0.28936	0.28602	0.12364	0.26818	0.2276	0.097727	0.091222	0.21138	0.35084	0.32078	-2.0833	-2.5167	-2.9188	-2.1458	-2.9813	-2.775	-2.2729	-3.5125	-2.3708	-2.5563	-2.9833	-2.2729	-3.0833	-2.8042	-2.1146	-3.4396	143.363	5.923	226.168	19.747	39.964	212.968	320.932	331.956	227.358	35.281	298.443	309.581	257.718	276.157	334.025	257.321	0.0017634	0.0011862	0.00014828	743.31	8.1853e-06	6.2023e-06	802.41	324.49	1.9576e-05	8.7929e-06	398.01	169.99	137.66	65.452	7.0575e-06	90.935	0.0020039	0.0020431	0.00056375	864.26	2.2286e-05	2.2324e-05	915.28	363.42	2.2116e-05	2.2044e-05	528.71	189.8	164.95	72.547	2.1989e-05	99.702	11.625	142.228	359.630	16.273	173.755	80.177	15.844	21.517	80.811	195.131	19.916	24.185	26.384	30.412	73.491	28.053	-8191	255	
1480.485	1	1	0	0	0.29868	0.17735	0.087789	0.22237	0.19377	0.31226	0.045119	0.16547	0.060249	0.27837	0.042884	0.38249	0.13085	0.36342	0.045169	0.17747	-2.0125	-2.5146	-3.0792	-2.2167	-2.8146	-2.9542	-2.0229	-3.4021	-2.5792	-2.3771	-3.2521	-2.1271	-2.8042	-3.0083	-2.0229	-3.3021	57.791	155.948	48.479	326.768	239.931	55.702	272.833	302.509	222.107	73.749	326.515	327.454	126.568	292.462	246.560	272.362	0.0016928	0.0012373	0.00010578	738.92	1.2144e-05	1.2274e-05	794.15	322.85	9.7545e-06	4.206e-06	398.32	169.11	136.97	65.127	6.8507e-06	90.457	0.0019976	0.0020138	0.00056025	859.87	2.2141e-05	2.2036e-05	908.75	361.39	2.1888e-05	2.186e-05	524.54	188.06	163.79	72.101	2.182e-05	99.159	9.618	147.372	38.906	16.426	134.811	163.088	15.899	21.538	116.348	168.336	19.806	24.238	25.999	30.436	202.440	28.379	-8191	255	
1480.581	1	1	0	0	0.14763	0.042023	0.2494	0.17723	0.25205	0.26546	0.062204	0.24286	0.13049	0.27803	0.16524	0.17362	0.13753	0.26281	0.14405	0.23927	-2.2396	-2.1833	-3.275	-2.2146	-2.7417	-2.9104	-2.225	-3.2938	-2.4604	-2.2167	-3.4	-2.3604	-2.6146	-3.3063	-1.9854	-3.0354	120.724	257.520	188.268	358.527	360.488	120.756	77.757	272.655	83.091	257.266	11.283	237.001	173.597	313.314	62.673	25.798	0.0019193	0.00013498	0.00029722	737.95	4.3754e-06	7.2027e-06	797.92	321.93	1.8413e-05	2.6024e-06	399.56	169.14	137.25	65.424	3.6455e-06	91.059	0.0019682	0.0019955	0.00055346	857.82	2.1774e-05	2.1739e-05	907.39	360.75	2.1756e-05	2.1655e-05	524.11	188.5	163.65	72.266	2.169e-05	99.675	11.015	132.356	79.234	16.409	158.071	18.747	15.607	21.874	96.839	46.781	19.588	24.216	26.291	30.557	261.297	28.103	-8191	255	
1480.677	1	1	0	0	0.13521	0.19196	0.044374	0.16457	0.14149	0.10604	0.31946	0.28018	0.22038	0.3522	0.07313	0.089362	0.30147	0.2524	0.34816	0.39379	-2.5563	-1.9917	-3.1188	-2.3958	-2.6542	-3.1854	-2.2	-3.1833	-2.6937	-1.8833	-3.1625	-2.3792	-2.3958	-3.45	-2.0833	-2.9583	226.830	276.504	103.957	288.137	71.569	328.809	11.950	303.817	143.120	210.590	354.899	336.637	274.015	360.753	220.319	343.873	0.0014806	0.00067096	0.00016164	739.87	1.2557e-05	6.7082e-06	798.89	323.13	1.8195e-05	4.6367e-06	397.27	170.14	138.41	65.76	8.6055e-06	91.355	0.0019686	0.0019881	0.000554	856.71	2.1609e-05	2.1572e-05	909.52	361.55	2.1597e-05	2.1651e-05	525.06	189.89	164.16	72.549	2.1856e-05	100.26	10.719	348.521	58.280	16.494	57.538	260.947	15.735	21.501	58.244	215.111	19.496	24.259	25.776	30.521	104.911	28.125	-8191	255	
1480.773	1	1	0	0	0.22423	0.064371	0.19851	0.15463	0.12009	0.099118	0.18681	0.03495	0.1006	0.41769	0.24057	0.17782	0.25636	0.13791	0.18952	0.31035	-2.4	-1.9854	-3.3167	-2.5771	-2.4708	-3.2938	-2.3271	-2.9583	-2.925	-2.1104	-3.2333	-2.65	-2.3167	-3.4292	-2.1208	-2.9583	99.144	9.350	247.496	5.167	204.737	121.423	246.240	160.729	9.344	351.203	302.066	294.222	180.118	358.663	255.581	349.255	0.0018579	0.0010585	6.6544e-05	739.43	5.7018e-06	1.0432e-05	799.65	325.21	1.0118e-05	4.3688e-06	399.64	171.64	138.47	66.158	9.1948e-06	91.971	0.0019646	0.0019921	0.00056046	860.24	2.1807e-05	2.18e-05	911.72	362.87	2.1681e-05	2.1833e-05	529.27	190.8	164.8	72.954	2.1912e-05	100.92	16.471	141.986	81.847	16.401	175.804	141.877	15.683	21.635	54.600	206.824	19.859	24.245	25.795	30.491	49.133	28.215	-8191	255	
1480.894	1	1	0	0	0.21152	0.12885	0.15932	0.053569	0.084146	0.093044	0.099344	0.33029	0.23108	0.19682	0.16674	0.093731	0.35186	0.097665	0.20017	0.06628	-2.6875	-2.0146	-3.1229	-2.5542	-2.1146	-3.2833	-2.3292	-2.5938	-3.0229	-2.1146	-3.0354	-2.8979	-2.025	-3.2667	-2.3312	-2.6604	69.675	122.130	211.183	52.968	276.951	255.110	142.525	265.564	45.929	156.244	275.408	29.467	282.477	122.509	86.726	341.280	0.0017996	0.00096325	0.00025904	740.88	3.0559e-06	5.9306e-06	799.52	325.1	1.8295e-05	1.6007e-06	403.2	170.88	137.99	65.785	6.1011e-06	91.246	0.0019653	0.0019981	0.00055917	860.9	2.171e-05	2.1812e-05	913.76	363.18	2.1598e-05	2.194e-05	529.02	190.12	164.18	72.718	2.1933e-05	100.16	20.844	102.268	125.193	16.190	193.765	261.782	15.719	21.582	33.332	24.443	20.070	24.138	25.612	30.204	291.489	27.736	-8191	255	
1480.965	1	1	0	0	0.15395	0.2419	0.065597	0.12726	0.10115	0.12014	0.13172	0.084863	0.17587	0.16162	0.22637	0.31975	0.17283	0.040425	0.063928	0.35345	-2.9	-1.9375	-2.9146	-2.9396	-2	-3.2687	-2.4125	-2.425	-3.0542	-2.175	-2.8979	-2.9688	-2.025	-3.4125	-2.5417	-2.5458	234.972	360.876	203.956	58.646	337.265	293.170	339.873	279.489	138.961	303.393	311.880	310.168	84.521	232.117	330.637	323.676	0.0015174	0.00025114	0.00015157	739.32	3.0347e-06	2.1133e-05	793.95	323.58	3.55e-06	1.0867e-05	395.36	169.8	138.75	65.519	9.6902e-06	90.698	0.0019683	0.0019953	0.00055784	858.68	2.1687e-05	2.1936e-05	907.88	361.97	2.1709e-05	2.1816e-05	524.69	188.84	164.04	72.418	2.1881e-05	99.693	15.487	131.455	101.803	16.278	339.635	156.184	15.195	21.176	61.563	165.090	19.387	24.005	25.629	30.322	221.108	27.747	-8191	255	
1481.086	1	1	0	0	0.097093	0.4136	0.11405	0.12516	0.1913	0.15169	0.10973	0.22148	0.18462	0.31987	0.39589	0.12632	0.18038	0.27038	0.39542	0.049198	-2.9958	-2.2771	-2.775	-3.0917	-1.9479	-3.1708	-2.6771	-2.4104	-3.2896	-2.2021	-2.7896	-3.2271	-2.0271	-3.2875	-2.7146	-2.3083	334.530	65.506	115.807	312.433	27.402	131.958	14.629	324.721	179.537	213.317	362.024	280.914	58.692	304.056	143.606	122.953	0.0015604	0.0012214	0.0002413	739.61	5.9821e-06	5.0265e-06	796.74	323.7	1.2009e-05	9.2369e-06	397.65	171.53	137.94	65.842	8.2321e-06	91.362	0.0019666	0.0020081	0.00056321	860.04	2.1971e-05	2.204e-05	909.66	362.51	2.1785e-05	2.1947e-05	526.57	189.97	164.31	72.8	2.1796e-05	100.37	12.000	140.022	79.995	16.181	107.130	168.115	15.557	21.151	31.568	200.247	19.269	24.102	25.595	30.265	205.861	27.762	-8191	255	
1481.180	1	1	0	0	0.15865	0.085649	0.013888	0.046454	0.2505	0.25878	0.11013	0.082501	0.17305	0.12378	0.33171	0.074149	0.098675	0.18339	0.030074	0.20051	-2.9229	-2.1646	-2.7979	-3.3333	-1.8729	-3.0896	-2.9229	-2.2062	-3.0542	-2.2542	-2.5542	-3.2542	-2.0333	-3.0938	-2.7062	-2.3979	23.138	109.955	225.686	133.623	211.102	321.864	49.502	26.281	248.972	27.992	335.906	271.169	356.240	303.194	134.710	333.567	0.0017287	0.00036993	0.00045615	740.77	7.8252e-06	7.9014e-06	798.86	324.79	1.4304e-05	6.2918e-06	401.16	171.06	138.53	66.218	1.0218e-05	91.869	0.0019528	0.0019952	0.00055679	860.26	2.1741e-05	2.2039e-05	912.29	363.15	2.1853e-05	2.212e-05	528.99	190.64	165.21	73.1	2.2034e-05	100.81	25.019	213.336	44.564	16.412	131.198	97.255	15.417	21.065	81.611	82.695	19.512	24.060	25.583	30.297	171.650	27.743	-8191	255	
1481.277	1	1	0	0	0.23265	0.10332	0.066843	0.049576	0.36069	0.16749	0.12895	0.18217	0.13865	0.093688	0.14398	0.38339	0.16382	0.25391	0.12774	0.027896	-2.9958	-2.4104	-2.2396	-3.3729	-1.9417	-2.7771	-3.0438	-2.4208	-3.2271	-2.2375	-2.3021	-3.25	-2.1	-3.0521	-2.8604	-2.2167	134.431	153.016	353.046	116.794	244.732	104.419	234.622	317.461	234.429	134.848	104.987	26.057	236.064	347.859	313.598	262.637	0.0014786	0.00090275	0.00018381	743.25	9.5813e-06	1.9032e-06	802.1	325.24	1.4231e-05	1.0623e-05	404.45	172.08	138.65	66.06	4.4455e-06	92.351	0.0019919	0.0020324	0.0005614	862.52	2.2023e-05	2.229e-05	915.97	363.75	2.1975e-05	2.202e-05	532.04	191.44	165.46	73.182	2.2009e-05	101.25	18.347	81.837	278.136	16.311	97.650	159.737	15.454	21.420	84.747	241.255	19.838	24.100	25.684	30.444	210.991	28.038	-8191	255	
1481.373	1	1	0	0	0.2712	0.1775	0.14492	0.21198	0.28441	0.16535	0.37861	0.29155	0.20694	0.048812	0.10004	0.29776	0.14019	0.32237	0.095777	0.066013	-2.8812	-2.5563	-2.0708	-3.3563	-2.0271	-2.7479	-3.2354	-2.1854	-3.0208	-2.8	-2.2271	-3.4667	-2.3479	-2.6292	-3.0771	-2.175	181.051	30.329	146.349	294.820	42.386	158.623	37.012	335.530	263.722	293.022	23.083	349.483	83.508	293.388	246.606	271.298	0.0016002	0.00065703	0.00025754	741.43	1.074e-05	4.3258e-06	797.82	323.19	1.0617e-05	3.2647e-06	401.07	171.01	137.92	65.537	4.5946e-06	91.02	0.0019975	0.0020185	0.00056336	863.67	2.2235e-05	2.2252e-05	913.99	362.21	2.2102e-05	2.2206e-05	527.15	189.92	164.42	72.454	2.1861e-05	99.936	16.636	156.808	74.180	16.045	158.759	138.975	15.434	21.161	156.552	271.744	19.886	24.049	26.224	30.217	134.834	27.925	-8191	255	
#DATA ENDS
