BOXY.EXE: ISS Imagent and Oximeter Data Acquisition Program Version 0.80
Ascii Record File

#ACQ INFORMATION
2  Detector Channels 
16  External MUX Channels 
1  Auxiliary Channels 
5000  Waveform (CCF) Frequency (Hz)
1  Waveforms Skipped 
30  Waveforms Averaged 
1  Cycles Averaged 
16  Acquisitions per Waveform 
10.0806  Updata Rate (Hz) 

#FILE INFORMATION
TRUE -- External MUX Channel results are PARSED.
FALSE -- AC DC and Phase are NOT grouped.
TRUE -- Companion Program Settings File CREATED.
FALSE -- AC data not excluded
FALSE -- DC data not excluded
FALSE -- Phase data not excluded
FALSE -- Auxillary Chn. data not excluded
Tab delimiters

#CALIBRATION STATE
TRUE -- Waveform Calibration Values APPLIED.


#AUX CALIBRATION VALUES
Val Type	aux-1	

Term	1.0000e+00	
Factor	0.0000e+00	


#WF CALIBRATION VALUES
A = Detector Channel
Val Type	A-AC1	A-AC2	A-AC3	A-AC4	A-AC5	A-AC6	A-AC7	A-AC8	A-AC9	A-AC10	A-AC11	A-AC12	A-AC13	A-AC14	A-AC15	A-AC16	A-DC1	A-DC2	A-DC3	A-DC4	A-DC5	A-DC6	A-DC7	A-DC8	A-DC9	A-DC10	A-DC11	A-DC12	A-DC13	A-DC14	A-DC15	A-DC16	A-Ph1	A-Ph2	A-Ph3	A-Ph4	A-Ph5	A-Ph6	A-Ph7	A-Ph8	A-Ph9	A-Ph10	A-Ph11	A-Ph12	A-Ph13	A-Ph14	A-Ph15	A-Ph16	

Term	0.00000e+00	0.00000e+00	0.00000e+00	0.00000e+00	0.00000e+00	0.00000e+00	0.00000e+00	0.00000e+00	0.00000e+00	0.00000e+00	0.00000e+00	0.00000e+00	0.00000e+00	0.00000e+00	0.00000e+00	0.00000e+00	0.00000e+00	0.00000e+00	0.00000e+00	0.00000e+00	0.00000e+00	0.00000e+00	0.00000e+00	0.00000e+00	0.00000e+00	0.00000e+00	0.00000e+00	0.00000e+00	0.00000e+00	0.00000e+00	0.00000e+00	0.00000e+00	0.00000e+00	0.00000e+00	0.00000e+00	0.00000e+00	0.00000e+00	0.00000e+00	0.00000e+00	0.00000e+00	0.00000e+00	0.00000e+00	0.00000e+00	0.00000e+00	0.00000e+00	0.00000e+00	0.00000e+00	0.00000e+00	
Factor	1.00000e+00	1.00000e+00	1.00000e+00	1.00000e+00	1.00000e+00	1.00000e+00	1.00000e+00	1.00000e+00	1.00000e+00	1.00000e+00	1.00000e+00	1.00000e+00	1.00000e+00	1.00000e+00	1.00000e+00	1.00000e+00	1.00000e+00	1.00000e+00	1.00000e+00	1.00000e+00	1.00000e+00	1.00000e+00	1.00000e+00	1.00000e+00	1.00000e+00	1.00000e+00	1.00000e+00	1.00000e+00	1.00000e+00	1.00000e+00	1.00000e+00	1.00000e+00	X	X	X	X	X	X	X	X	X	X	X	X	X	X	X	X	

B = Detector Channel
Val Type	B-AC1	B-AC2	B-AC3	B-AC4	B-AC5	B-AC6	B-AC7	B-AC8	B-AC9	B-AC10	B-AC11	B-AC12	B-AC13	B-AC14	B-AC15	B-AC16	B-DC1	B-DC2	B-DC3	B-DC4	B-DC5	B-DC6	B-DC7	B-DC8	B-DC9	B-DC10	B-DC11	B-DC12	B-DC13	B-DC14	B-DC15	B-DC16	B-Ph1	B-Ph2	B-Ph3	B-Ph4	B-Ph5	B-Ph6	B-Ph7	B-Ph8	B-Ph9	B-Ph10	B-Ph11	B-Ph12	B-Ph13	B-Ph14	B-Ph15	B-Ph16	

Term	0.00000e+00	0.00000e+00	0.00000e+00	0.00000e+00	0.00000e+00	0.00000e+00	0.00000e+00	0.00000e+00	0.00000e+00	0.00000e+00	0.00000e+00	0.00000e+00	0.00000e+00	0.00000e+00	0.00000e+00	0.00000e+00	0.00000e+00	0.00000e+00	0.00000e+00	0.00000e+00	0.00000e+00	0.00000e+00	0.00000e+00	0.00000e+00	0.00000e+00	0.00000e+00	0.00000e+00	0.00000e+00	0.00000e+00	0.00000e+00	0.00000e+00	0.00000e+00	-2.60428e+02	-1.10120e+02	-1.35771e+02	-1.82358e+02	-8.82290e+01	-8.01576e+01	-1.56915e+02	-1.62015e+02	-1.40806e+02	-6.49328e+01	-1.82532e+02	-1.70017e+02	-1.83467e+02	-1.76494e+02	-8.40987e+01	-1.49052e+02	
Factor	5.47524e-05	1.28517e-04	3.34994e-05	1.65911e-01	1.40518e-06	1.31051e-06	1.63629e-01	5.02796e-02	1.91554e-06	1.41169e-06	2.54980e-01	2.65488e-02	4.71564e-02	8.70794e-03	1.47822e-06	1.22069e-02	1.50795e-06	1.56019e-06	4.34946e-07	8.49721e-02	1.70309e-08	1.70813e-08	7.89962e-02	2.58188e-02	1.70192e-08	1.70604e-08	1.17178e-01	1.31686e-02	2.32700e-02	4.46970e-03	1.70381e-08	6.05392e-03	X	X	X	X	X	X	X	X	X	X	X	X	X	X	X	X	



#DISTANCE SETTINGS
A = Detector Channel
A-1	A-2	A-3	A-4	A-5	A-6	A-7	A-8	A-9	A-10	A-11	A-12	A-13	A-14	A-15	A-16	

2.5000e+00	3.0000e+00	2.5000e+00	3.0000e+00	2.0000e+00	3.0000e+00	1.5000e+00	3.0000e+00	3.0000e+00	3.0000e+00	3.0000e+00	3.0000e+00	3.0000e+00	3.0000e+00	1.5000e+00	3.0000e+00	

B = Detector Channel
B-1	B-2	B-3	B-4	B-5	B-6	B-7	B-8	B-9	B-10	B-11	B-12	B-13	B-14	B-15	B-16	

1.0000e+01	1.0000e+01	1.0000e+01	1.4400e+00	1.0000e+01	1.0000e+01	1.5100e+00	1.9400e+00	1.0000e+01	1.0000e+01	1.9900e+00	2.4900e+00	2.4100e+00	2.9000e+00	1.0000e+01	2.9800e+00	




#DATA BEGINS
time	group	step	mark	flag	A-AC1	A-AC2	A-AC3	A-AC4	A-AC5	A-AC6	A-AC7	A-AC8	A-AC9	A-AC10	A-AC11	A-AC12	A-AC13	A-AC14	A-AC15	A-AC16	A-DC1	A-DC2	A-DC3	A-DC4	A-DC5	A-DC6	A-DC7	A-DC8	A-DC9	A-DC10	A-DC11	A-DC12	A-DC13	A-DC14	A-DC15	A-DC16	A-Ph1	A-Ph2	A-Ph3	A-Ph4	A-Ph5	A-Ph6	A-Ph7	A-Ph8	A-Ph9	A-Ph10	A-Ph11	A-Ph12	A-Ph13	A-Ph14	A-Ph15	A-Ph16	B-AC1	B-AC2	B-AC3	B-AC4	B-AC5	B-AC6	B-AC7	B-AC8	B-AC9	B-AC10	B-AC11	B-AC12	B-AC13	B-AC14	B-AC15	B-AC16	B-DC1	B-DC2	B-DC3	B-DC4	B-DC5	B-DC6	B-DC7	B-DC8	B-DC9	B-DC10	B-DC11	B-DC12	B-DC13	B-DC14	B-DC15	B-DC16	B-Ph1	B-Ph2	B-Ph3	B-Ph4	B-Ph5	B-Ph6	B-Ph7	B-Ph8	B-Ph9	B-Ph10	B-Ph11	B-Ph12	B-Ph13	B-Ph14	B-Ph15	B-Ph16	aux-1	digaux	

678.576	1	1	0	768	0.30852	0.18071	0.16869	0.09818	0.14761	0.13426	0.16665	0.31444	0.033596	0.033297	0.19547	0.30305	0.10082	0.078759	0.12457	0.095568	-2.5	-3.2708	-2.2188	-3.4208	-2.9396	-2.1542	-3.6688	-2.675	-2.6542	-3.3333	-2.1896	-3.0083	-3.0854	-2.2646	-3.3958	-2.35	397.473	422.238	381.953	200.242	416.385	176.272	363.775	378.506	385.837	150.520	394.152	341.352	204.139	106.802	426.320	224.890	0.00066415	0.00040973	8.5446e-05	1054.9	3.2698e-06	3.2797e-06	1140.3	217.15	4.411e-06	1.8232e-06	280.14	76.151	60.966	17.437	2.0081e-06	24.656	9.5871e-05	8.0454e-05	2.3018e-05	1031	9.1917e-07	9.0228e-07	1114.7	213.26	9.3733e-07	8.9617e-07	259.77	75.127	58.06	17.424	9.0164e-07	24.471	395.782	189.291	154.825	89.255	214.666	215.855	89.501	97.017	191.039	263.611	97.055	103.471	103.471	110.890	164.722	110.394	-8191	255	
678.670	1	1	0	0	0.15282	0.0369	0.1427	0.23438	0.16393	0.062432	0.23102	0.33348	0.15719	0.15992	0.10902	0.20454	0.076419	0.16006	0.18959	0.056977	-2.4167	-3.2854	-2.1854	-3.1667	-3.1063	-2.2271	-3.5521	-2.5312	-2.5687	-3.2833	-2.3292	-2.8896	-3.2271	-2.3333	-3.2729	-2.5667	107.552	242.368	327.271	387.880	403.101	103.640	366.245	391.394	147.161	356.533	113.967	431.669	421.645	142.321	435.981	136.542	0.00083935	0.00033243	8.8106e-05	1058	3.174e-06	1.369e-06	1144.3	217.84	3.497e-06	3.946e-06	278.27	76.436	61.814	17.362	4.5979e-06	24.808	9.6839e-05	8.2791e-05	2.3224e-05	1031.8	9.3028e-07	9.104e-07	1116.5	213.86	9.6276e-07	8.8295e-07	261	75.283	58.309	17.406	9.4075e-07	24.529	400.990	179.416	165.675	89.380	205.772	201.120	89.249	97.103	143.897	219.253	96.483	103.298	104.184	111.655	225.223	110.262	-8191	255	
678.768	1	1	0	0	0.191	0.065118	0.044176	0.20979	0.10214	0.08421	0.29591	0.047788	0.0755	0.23274	0.16397	0.067787	0.25462	0.19886	0.51078	0.14304	-2.3104	-3.3979	-2.0958	-3.0771	-3.1854	-2.2313	-3.4292	-2.825	-2.3167	-3.4792	-2.4208	-2.9792	-3.2208	-2.2625	-3.1625	-2.7875	303.414	216.598	287.646	321.150	422.715	131.242	350.650	220.340	337.285	171.355	321.397	93.606	107.729	333.552	281.027	383.106	0.00077714	0.00021305	6.517e-05	1065.6	2.7835e-06	3.8737e-06	1148	217.02	5.307e-06	1.3659e-06	280.54	76.232	61.18	17.609	4.3085e-06	24.687	9.6905e-05	8.2251e-05	2.3348e-05	1035.2	9.2308e-07	9.1524e-07	1117.1	213.52	9.3347e-07	8.8295e-07	260.58	75.247	58.323	17.448	9.3667e-07	24.526	397.121	184.209	192.503	89.410	218.829	213.975	89.448	97.036	165.431	326.885	96.242	103.455	103.659	111.175	259.172	110.105	-8191	255	
678.863	1	1	0	0	0.15781	0.19002	0.14976	0.2631	0.10703	0.054248	0.15406	0.046438	0.28561	0.17932	0.21593	0.17311	0.12819	0.27011	0.20048	0.044959	-2.1667	-3.3417	-2.4188	-2.8104	-3.2917	-2.3438	-3.3438	-3.1604	-2.1833	-3.5	-2.5021	-2.5542	-3.35	-2.1958	-3.1771	-3.0042	297.207	251.520	221.535	409.302	97.604	249.829	360.504	195.632	170.479	216.021	205.155	90.043	153.065	82.131	291.119	106.237	0.00075698	0.00032412	6.0289e-05	1060.1	3.6395e-06	1.8039e-06	1143.6	217.61	5.3018e-06	1.0784e-06	278.68	76.442	61.6	17.517	3.2178e-06	24.817	9.5915e-05	8.2541e-05	2.4418e-05	1032.1	9.4295e-07	9.1036e-07	1114.5	213.43	9.4889e-07	8.8654e-07	260.36	75.426	58.301	17.41	8.9532e-07	24.548	399.818	206.089	174.501	89.401	222.653	158.817	89.297	97.004	156.399	351.931	96.448	103.133	103.658	111.263	301.296	110.080	-8191	255	
678.959	1	1	0	0	0.19688	0.052665	0.19045	0.14019	0.22851	0.079163	0.11938	0.045032	0.14902	0.2644	0.17523	0.059491	0.19235	0.38392	0.010966	0.053584	-1.9958	-3.3146	-2.6354	-2.6417	-3.3104	-2.5958	-3.1146	-3.3125	-2.3083	-3.2354	-2.8542	-2.4437	-3.3812	-2.125	-2.8583	-3.075	293.977	214.053	204.061	222.161	360.654	222.748	417.557	418.491	174.506	234.850	334.902	296.972	148.727	376.322	212.225	281.086	0.00077208	0.00015189	8.7991e-05	1062.3	4.1349e-06	1.8013e-06	1140.8	217.72	5.1911e-06	1.003e-06	281.21	77.19	61.513	17.54	4.0257e-06	24.497	9.6031e-05	8.088e-05	2.3078e-05	1031.9	9.1758e-07	8.8428e-07	1112.2	213.61	9.4379e-07	8.929e-07	259.92	75.405	58.179	17.405	9.0561e-07	24.493	391.922	132.554	151.884	89.653	200.736	233.337	89.417	97.144	133.988	179.971	96.693	103.470	103.642	111.137	203.905	110.479	-8191	255	
679.055	1	1	0	0	0.23151	0.054368	0.19368	0.28014	0.1171	0.13918	0.20476	0.10745	0.18302	0.17461	0.078214	0.42797	0.25582	0.13124	0.41893	0.19843	-1.8729	-3.2354	-2.8042	-2.5438	-3.4062	-2.4396	-3.1021	-3.4	-2.3083	-3.2104	-2.8937	-2.3042	-3.4292	-2.4979	-2.7229	-3.3958	106.330	421.187	271.835	377.756	434.863	151.735	247.070	416.348	362.841	201.122	247.605	316.061	154.420	83.621	337.271	375.485	0.0008458	0.00011443	0.00011888	1056.3	2.1712e-06	1.2842e-06	1142.9	217.6	6.0073e-06	1.4019e-06	279.2	76.61	61.679	17.563	3.9979e-06	24.661	9.381e-05	7.8731e-05	2.2535e-05	1030.5	9.1186e-07	8.9115e-07	1113.2	213.78	9.4418e-07	8.8579e-07	259.65	75.249	58.178	17.419	8.9212e-07	24.459	408.626	206.367	178.563	89.566	195.852	218.570	89.156	97.056	154.227	350.129	95.928	103.534	103.547	110.866	198.260	110.794	-8191	255	
679.176	1	1	0	0	0.35419	0.038833	0.12031	0.28931	0.076226	0.28122	0.16267	0.090832	0.2104	0.16228	0.28049	0.068855	0.17232	0.28509	0.13699	0.11323	-2.0021	-3.0396	-2.9417	-2.2042	-3.3646	-2.5042	-2.8229	-3.5375	-2.3021	-3.0271	-3.2458	-2.1271	-3.4667	-2.6458	-2.5375	-3.3625	405.152	179.491	380.542	378.962	87.577	211.582	416.707	329.581	172.926	221.374	214.776	232.489	109.992	92.022	414.037	385.008	0.00071209	0.00018225	5.8615e-05	1055.7	1.2968e-06	3.154e-06	1142.1	218.07	3.4633e-06	1.4659e-06	280.95	76.164	61.16	17.4	6.7599e-07	24.578	9.6402e-05	7.9336e-05	2.2683e-05	1029	9.1481e-07	9.0648e-07	1112.9	213.43	9.4191e-07	8.9109e-07	260.56	75.244	58.11	17.389	9.2372e-07	24.477	398.853	159.907	112.649	89.209	257.228	194.438	89.190	96.885	164.091	288.813	96.659	103.094	103.970	110.935	438.748	110.312	-8191	255	
679.272	1	1	0	0	0.31219	0.11495	0.047183	0.090402	0.14522	0.15308	0.20256	0.2124	0.28369	0.10312	0.084762	0.26374	0.1414	0.14869	0.022549	0.056777	-2.0958	-3.0604	-3.2667	-2.2875	-3.3083	-2.6958	-2.5312	-3.6208	-2.1896	-2.8312	-3.1542	-2.2188	-3.2417	-2.7833	-2.4313	-3.4875	103.071	84.272	143.067	100.915	118.754	201.207	341.365	436.163	132.708	303.314	327.842	124.058	138.130	147.059	340.005	414.445	0.00078348	0.00019724	3.6366e-05	1060.9	3.9834e-06	2.5274e-06	1138.5	218.52	4.2348e-06	2.9249e-06	281.05	76.533	61.198	17.398	2.64e-06	24.606	9.7618e-05	8.3912e-05	2.2747e-05	1030.8	9.2489e-07	9.1723e-07	1112.1	214	9.6517e-07	9.1312e-07	261	75.18	58.15	17.35	9.1853e-07	24.497	389.798	147.030	210.856	89.407	224.440	190.673	89.347	97.205	167.364	226.836	96.673	103.399	103.644	110.933	196.365	110.125	-8191	255	
679.368	1	1	0	0	0.25414	0.13168	0.1118	0.11802	0.15545	0.12518	0.16296	0.3347	0.08734	0.17694	0.033815	0.10125	0.10058	0.1458	0.073479	0.15133	-2.1458	-2.8646	-3.4667	-2.2938	-3.1833	-2.8542	-2.4208	-3.4938	-2.4333	-2.5083	-3.2604	-2.1479	-3.1417	-2.8604	-2.2104	-3.5	198.758	229.028	97.361	409.973	333.518	181.019	102.328	359.941	416.268	391.299	401.728	429.984	364.038	297.332	109.007	287.560	0.0008305	0.00020405	6.9803e-05	1056.8	3.0521e-06	4.5746e-06	1139.9	218.22	4.8195e-06	1.1561e-06	280.05	76.344	62.07	17.4	2.9272e-06	24.813	9.9305e-05	8.3197e-05	2.3494e-05	1030.2	9.3961e-07	9.3022e-07	1112.9	213.93	9.5176e-07	9.0022e-07	260.5	75.217	58.429	17.343	9.3813e-07	24.458	402.066	135.145	187.129	89.448	233.909	217.994	89.432	97.140	178.413	291.710	96.147	103.568	103.370	110.751	225.536	110.238	-8191	255	
679.464	1	1	0	0	0.068554	0.13831	0.13972	0.30275	0.16558	0.12544	0.30376	0.015897	0.060277	0.12857	0.089982	0.20331	0.11518	0.20529	0.15611	0.11745	-2.2479	-2.6083	-3.2896	-2.2354	-3.1146	-3.1437	-2.4896	-3.4646	-2.7271	-2.5979	-3.3458	-2.3333	-2.8646	-3.0729	-2.1958	-3.1625	87.055	185.799	432.537	400.594	194.360	184.162	372.097	131.162	102.136	130.597	266.132	401.372	399.834	100.556	199.519	190.717	0.00076991	0.00017568	5.4722e-05	1054.8	4.0516e-06	2.8534e-06	1136.5	217.86	4.1659e-06	1.4666e-06	281.31	76.726	61.151	17.481	1.3748e-06	24.456	9.7231e-05	8.4748e-05	2.247e-05	1029.7	9.7853e-07	9.3844e-07	1112	213.51	9.6261e-07	9.1138e-07	261.89	75.311	58.222	17.396	9.3976e-07	24.478	395.182	193.713	188.070	89.083	208.852	217.355	89.262	96.834	116.931	277.514	96.722	103.346	103.843	110.904	184.230	110.261	-8191	255	
679.560	1	1	0	0	0.25764	0.23245	0.17867	0.25254	0.2655	0.2811	0.33461	0.11265	0.12268	0.13749	0.36504	0.37463	0.10459	0.078701	0.16939	0.32254	-2.4667	-2.2292	-3.5146	-2.3042	-2.6542	-3.0458	-2.2604	-3.2938	-2.6833	-2.2313	-3.5021	-2.5271	-2.7396	-3.3521	-2.1229	-3.2917	88.585	413.105	270.708	364.690	335.092	108.356	372.265	401.945	299.076	92.752	91.088	364.349	317.539	363.105	199.672	285.353	0.00083901	0.00056101	2.2633e-05	1057.3	2.9319e-06	4.2046e-07	1144	217.07	4.5228e-06	1.7929e-06	281.92	76.281	61.148	17.599	1.9457e-06	24.522	9.8868e-05	8.5303e-05	2.2963e-05	1032.4	9.4738e-07	8.9374e-07	1112.2	213.44	9.5293e-07	9.1536e-07	259.66	75.303	58.076	17.441	9.1999e-07	24.501	393.274	177.186	176.526	89.186	213.227	231.869	89.400	96.965	152.117	260.774	96.656	103.641	104.244	110.886	270.598	110.571	-8191	255	
679.656	1	1	0	0	0.14536	0.13914	0.20033	0.18173	0.23232	0.11219	0.16776	0.23225	0.1834	0.28116	0.11858	0.32194	0.057461	0.020082	0.18788	0.16408	-2.6771	-2.2958	-3.375	-2.4729	-2.5812	-3.2521	-2.4208	-3.2271	-2.8521	-2.1979	-3.4708	-2.3812	-2.6688	-3.3229	-2.2438	-2.9354	218.176	86.568	124.762	275.490	176.560	332.354	413.655	365.288	194.988	85.348	85.299	90.337	397.880	334.212	195.830	85.257	0.00085058	0.00027289	8.0918e-05	1058.7	3.0125e-06	2.1682e-06	1134.9	219.04	5.9544e-06	1.9751e-06	281.32	76.358	61.364	17.598	5.0723e-06	24.854	9.731e-05	8.4949e-05	2.3439e-05	1031.7	9.4795e-07	8.973e-07	1111.7	214.21	9.3631e-07	9.2013e-07	260.17	75.308	58.227	17.458	9.3603e-07	24.572	399.963	174.163	184.327	89.276	210.824	179.281	89.141	97.124	188.858	250.868	96.040	103.076	104.384	111.390	232.062	110.703	-8191	255	
679.775	1	1	0	0	0.16788	0.17581	0.082627	0.16429	0.14614	0.10052	0.22736	0.14833	0.078132	0.23523	0.13298	0.075951	0.14875	0.22205	0.22168	0.083343	-2.6958	-2.3708	-3.1458	-2.6854	-2.3083	-3.2396	-2.6292	-3.0208	-3.0187	-2.1292	-3.225	-2.6667	-2.2333	-3.4271	-2.3438	-3.2292	309.745	228.212	144.407	320.972	268.442	377.750	364.263	195.759	110.964	339.188	434.410	315.649	231.524	94.407	395.727	160.057	0.00066881	5.8173e-05	4.1288e-05	1058	2.4285e-06	1.3497e-06	1146.6	218.73	2.7258e-06	9.6562e-07	281.03	76.399	61.533	17.6	2.538e-06	24.699	9.6327e-05	8.5541e-05	2.3128e-05	1032.9	9.6353e-07	9.0517e-07	1116.3	214.48	9.2826e-07	9.2112e-07	261.42	75.325	58.236	17.469	9.4498e-07	24.527	395.567	211.569	92.114	89.403	225.377	183.258	89.146	96.975	159.484	162.203	96.619	103.443	103.673	111.078	238.103	110.352	-8191	255	
679.871	1	1	0	0	0.062985	0.094292	0.26376	0.35778	0.176	0.036008	0.34093	0.029245	0.15076	0.21353	0.088997	0.16458	0.32787	0.19018	0.32434	0.15555	-2.7854	-2.2125	-3.1958	-2.7854	-2.5729	-3.4146	-2.5438	-2.8729	-3.1667	-2.1771	-3.2479	-2.8187	-2.3271	-3.4833	-2.3333	-2.8833	326.720	196.068	243.045	388.815	432.811	316.423	288.655	315.488	265.247	437.000	392.572	422.362	408.373	403.178	109.396	349.029	0.00085823	0.00026961	0.00012675	1061.4	2.6932e-06	3.6462e-06	1142	218.88	1.4898e-06	3.4983e-06	282.89	76.408	60.967	17.49	1.9252e-06	24.651	9.8485e-05	8.5391e-05	2.3541e-05	1032.2	9.5508e-07	9.1819e-07	1112.5	214.2	9.6506e-07	9.1707e-07	262.3	75.156	57.996	17.363	9.4413e-07	24.537	400.194	183.267	172.987	89.304	246.374	240.972	89.041	97.164	228.567	234.016	96.600	103.439	104.056	111.155	183.027	110.853	-8191	255	
679.967	1	1	0	0	0.21945	0.097582	0.10825	0.21905	0.1367	0.19129	0.24136	0.084036	0.12878	0.11669	0.092925	0.27131	0.16993	0.21164	0.1579	0.026005	-3.1167	-2.1312	-3.2938	-3.175	-2.2979	-3.2562	-2.7146	-2.6729	-3.2687	-2.2438	-2.9396	-3.1562	-2.4292	-3.3063	-2.5687	-2.7146	222.762	237.116	106.013	413.130	115.426	208.440	410.044	437.165	130.354	280.160	118.831	374.823	424.133	304.280	86.432	223.020	0.00082384	0.00021606	6.5512e-05	1057.4	3.0626e-06	3.5621e-06	1149.7	218.47	4.0091e-06	3.1321e-06	282.77	76.355	61.482	17.457	1.6715e-06	24.779	9.8177e-05	8.532e-05	2.3284e-05	1030.9	9.7428e-07	9.2378e-07	1115.9	213.94	9.4574e-07	9.165e-07	261.72	75.429	58.449	17.417	9.3532e-07	24.552	404.322	123.741	139.947	89.445	203.806	192.462	89.207	97.441	137.434	212.098	96.361	103.162	103.947	111.417	205.659	110.583	-8191	255	
680.064	1	1	0	0	0.13825	0.30704	0.093104	0.17408	0.078632	0.072916	0.25609	0.15152	0.10879	0.22566	0.26106	0.17343	0.18873	0.17175	0.16597	0.19247	-3.0583	-2.2542	-3.0375	-3.325	-2.2042	-3.1958	-2.7687	-2.4896	-3.3104	-2.2417	-3.0125	-3.1021	-2.2917	-3.2125	-2.5521	-2.4208	306.282	324.642	392.021	93.231	424.886	431.418	393.535	408.927	189.332	310.814	199.301	266.964	146.770	382.997	376.586	437.749	0.00068243	6.7194e-05	6.522e-05	1054.4	4.6952e-06	3.8086e-06	1141.4	217.87	2.8079e-06	1.7911e-06	285.18	76.779	61.975	17.556	1.3103e-06	24.625	9.6367e-05	8.6236e-05	2.3399e-05	1031	9.7105e-07	9.1908e-07	1114.7	213.85	9.4762e-07	9.5201e-07	261.8	75.563	58.567	17.444	9.6155e-07	24.53	396.947	226.195	158.282	89.300	195.864	239.130	89.027	96.864	131.317	274.667	96.546	102.971	103.766	111.409	237.936	109.925	-8191	255	
680.135	1	1	0	0	0.14284	0.15777	0.1115	0.24891	0.063496	0.17663	0.082547	0.28248	0.1399	0.29515	0.11204	0.13793	0.16193	0.14574	0.091077	0.068604	-3.2104	-2.2979	-2.8563	-3.0208	-2.1979	-3.0542	-2.9	-2.3812	-3.2958	-2.5229	-2.7333	-3.25	-2.1667	-3.0667	-2.7083	-2.3146	298.815	435.487	145.336	85.688	217.703	364.229	390.860	364.537	227.287	196.929	378.107	81.382	98.842	327.297	115.435	400.155	0.00096584	0.00033987	6.3139e-05	1059.1	4.2247e-06	3.3713e-06	1145	216.93	2.1478e-06	5.5937e-06	284.92	76.286	61.401	17.579	1.7047e-06	24.488	9.7373e-05	8.9847e-05	2.4069e-05	1034	1.0006e-06	9.5442e-07	1116.7	214.07	9.69e-07	9.5542e-07	263.15	75.521	58.416	17.477	9.4019e-07	24.516	400.122	203.276	158.844	89.288	232.674	256.428	89.336	97.215	219.067	251.128	96.510	103.409	103.514	111.401	240.100	110.306	-8191	255	
680.256	1	1	0	0	0.16899	0.21132	0.19267	0.19865	0.10348	0.11519	0.087731	0.097409	0.2061	0.25494	0.10591	0.25974	0.30487	0.090482	0.22804	0.32831	-2.9417	-2.3833	-2.7313	-3.1188	-1.9813	-3.0708	-3	-2.1979	-3.475	-2.525	-2.6875	-3.4521	-2.2646	-3.0187	-3.0125	-2.2875	327.663	159.701	290.652	369.727	187.253	135.874	300.259	404.673	259.869	286.451	230.143	233.499	424.122	126.688	85.996	269.538	0.00069467	0.00039591	5.8117e-05	1059.9	2.8303e-06	3.3781e-06	1145.8	219.24	4.8242e-06	3.2785e-06	281.79	76.581	61.532	17.553	3.9929e-06	24.847	9.7527e-05	8.7159e-05	2.4627e-05	1034.2	1.0162e-06	9.7936e-07	1117.8	214.1	9.9456e-07	9.7916e-07	262.15	75.574	58.509	17.496	9.8583e-07	24.601	400.301	195.025	171.763	89.161	217.336	199.686	89.260	97.446	148.426	255.796	96.585	103.404	104.013	111.282	210.965	110.598	-8191	255	
680.352	1	1	0	0	0.10021	0.26534	0.16099	0.27941	0.14947	0.2047	0.23464	0.28645	0.15611	0.16853	0.25922	0.067254	0.071926	0.098731	0.17738	0.17706	-2.9875	-2.5542	-2.3708	-3.375	-2.2042	-2.9208	-3.3021	-2.3083	-3.1021	-2.7188	-2.3771	-3.3208	-2.2583	-2.9292	-3.3854	-2.1625	291.592	348.780	297.768	365.456	400.825	251.730	186.502	382.269	174.194	308.662	207.246	299.880	213.565	132.480	158.097	357.277	0.00074666	0.00013513	9.6304e-05	1063.6	1.3126e-06	2.217e-06	1147.3	219.53	7.6634e-06	2.6315e-06	279.58	76.998	61.543	17.619	1.3393e-06	24.917	0.00010015	8.9243e-05	2.5561e-05	1035.9	1.0379e-06	9.8733e-07	1118.2	214.92	9.863e-07	9.7642e-07	261.84	75.736	58.531	17.501	9.744e-07	24.654	397.952	216.875	163.269	89.438	220.528	258.852	89.009	97.039	170.645	202.184	95.750	102.985	103.553	111.271	160.501	110.528	-8191	255	
680.448	1	1	0	0	0.053696	0.22301	0.039494	0.10525	0.24989	0.31587	0.21891	0.27634	0.1786	0.06541	0.020611	0.092332	0.028435	0.16674	0.028503	0.11555	-3.1375	-2.8771	-2.2438	-3.5687	-2.3583	-2.7167	-3.5312	-2.2896	-3.3	-2.7896	-2.2562	-3.35	-2.5312	-2.7062	-3.4062	-2.1104	224.592	216.761	331.511	84.438	211.345	291.916	422.553	358.790	204.459	238.838	345.787	431.872	212.476	330.513	288.585	428.239	0.00077392	0.00038624	2.5038e-05	1066.4	3.9988e-06	1.8872e-06	1148.8	219.74	5.0293e-06	1.5237e-06	285.26	76.741	62.256	17.68	3.0032e-06	24.877	0.00010251	8.9162e-05	2.5083e-05	1038.4	1.0226e-06	9.6815e-07	1120.7	215.38	1.0071e-06	9.5968e-07	262.99	75.748	58.707	17.571	9.8857e-07	24.66	400.544	190.193	122.367	89.586	218.668	316.515	89.181	96.958	131.241	184.650	96.268	103.021	103.655	110.980	203.222	110.038	-8191	255	
680.569	1	1	0	0	0.049548	0.30053	0.11547	0.2356	0.21951	0.13247	0.14804	0.15317	0.071369	0.055722	0.24745	0.12864	0.20306	0.16841	0.18269	0.11836	-2.8458	-2.6854	-2.3917	-3.6312	-2.6021	-2.5104	-3.5938	-2.2687	-2.9604	-2.8812	-2.1396	-3.3146	-2.6125	-2.4417	-3.2646	-2.4146	249.107	144.198	353.127	409.160	263.410	325.103	339.751	163.165	407.427	391.709	209.555	367.249	325.540	81.784	81.654	300.292	0.00068441	0.00019701	8.6678e-05	1066.5	3.6343e-06	1.2559e-06	1153	220.39	8.1244e-06	3.2761e-06	282.22	76.915	62.063	17.684	3.5137e-06	25.172	0.00010371	8.9074e-05	2.5302e-05	1039.9	1.0285e-06	9.8221e-07	1123.1	215.5	9.8148e-07	9.8282e-07	262.99	75.726	58.821	17.542	9.6315e-07	24.798	392.663	276.769	170.631	89.349	218.774	154.002	89.181	96.855	164.083	207.916	96.447	102.997	103.355	111.384	225.271	110.532	-8191	255	
680.663	1	1	0	0	0.36006	0.029884	0.074794	0.092226	0.07082	0.07816	0.20836	0.12201	0.11884	0.12079	0.27642	0.1138	0.19736	0.1153	0.4391	0.1071	-2.5792	-3.1833	-2.2292	-3.3875	-2.6937	-2.5396	-3.5375	-2.3292	-2.9125	-3.1437	-2.3271	-3.1542	-2.6875	-2.2562	-3.425	-2.3417	269.299	146.348	247.888	197.283	201.301	310.252	290.755	346.389	270.344	162.954	107.473	436.562	95.340	93.392	232.742	359.760	0.00074762	0.00011504	6.7155e-05	1069.6	1.3776e-06	8.1073e-07	1156.3	220.5	2.9226e-06	1.4646e-06	284.34	76.792	62.151	17.7	5.984e-06	24.677	0.0001026	8.9691e-05	2.4945e-05	1042.1	1.0248e-06	9.6118e-07	1126.6	215.93	1.0523e-06	9.7625e-07	264.1	75.962	58.846	17.594	9.9308e-07	24.65	396.315	96.794	175.853	89.135	154.414	197.260	89.038	96.791	100.423	249.683	95.960	103.179	103.550	111.062	211.866	109.791	-8191	255	
680.737	1	1	0	0	0.14017	0.040546	0.17417	0.135	0.28576	0.15453	0.025214	0.1001	0.22182	0.1659	0.16201	0.28339	0.24051	0.12336	0.33959	0.060501	-2.2792	-3.225	-2.1542	-3.4167	-2.8146	-2.2021	-3.5854	-2.3958	-2.5563	-3.3146	-2.2542	-2.9729	-2.9292	-2.2479	-3.175	-2.4875	385.614	292.238	201.862	296.466	170.357	399.845	86.440	283.757	397.651	84.740	424.901	294.651	418.241	101.038	300.819	186.138	0.00082419	3.2855e-05	9.7336e-05	1068.5	4.2739e-06	1.3449e-06	1156	219.67	6.6798e-06	2.3038e-06	285.51	77.449	61.766	17.581	4.8524e-06	24.907	0.00010401	8.82e-05	2.5772e-05	1043.9	1.0282e-06	9.9032e-07	1128.8	215.94	9.953e-07	9.825e-07	263.43	75.987	58.939	17.624	9.77e-07	24.776	395.842	242.723	119.806	89.395	237.166	164.001	89.174	96.732	171.013	203.793	96.387	103.527	103.544	110.922	255.919	110.097	-8191	255	
680.856	1	1	0	0	0.10841	0.2233	0.36567	0.11747	0.33648	0.15333	0.046677	0.26383	0.12777	0.1343	0.18504	0.14514	0.14195	0.36114	0.18036	0.20196	-2.1979	-3.4562	-2.2458	-3.1312	-3.0333	-2.1937	-3.5958	-2.7396	-2.2271	-3.4437	-1.9917	-2.9625	-3.1792	-2.3104	-3.2417	-2.7833	244.797	379.736	222.678	84.554	112.261	243.754	426.835	381.541	215.332	205.144	355.244	314.023	249.727	427.385	212.683	108.707	0.00066745	0.00011473	5.6807e-05	1072.1	3.3994e-06	4.232e-06	1155.3	220.76	2.3551e-06	2.047e-06	283.93	77.784	62.282	17.704	1.7798e-06	24.999	0.0001074	8.99e-05	2.6097e-05	1046.7	1.0202e-06	1.022e-06	1127.4	216.35	1.0442e-06	1.0005e-06	264.29	76.217	58.895	17.612	9.9705e-07	24.758	400.278	160.757	139.482	89.313	162.664	186.325	89.136	96.947	180.995	433.406	96.851	103.583	103.973	110.766	156.354	110.029	-8191	255	
680.952	1	1	0	0	0.12675	0.08792	0.22058	0.3327	0.13144	0.17061	0.19461	0.19144	0.19886	0.099735	0.15613	0.292	0.10056	0.22589	0.035192	0.17678	-2.1063	-3.3271	-2.4229	-2.8396	-3.0833	-2.15	-3.3063	-2.7792	-2.0646	-3.4229	-2.3708	-2.7021	-3.0687	-1.9021	-2.9562	-2.9521	114.203	339.578	200.237	94.194	414.970	261.290	337.771	116.115	324.317	202.275	350.850	363.139	145.059	239.352	372.189	428.909	0.0008447	0.0001143	1.632e-05	1072.7	3.029e-06	1.2617e-06	1159.1	219.62	4.8081e-06	2.4985e-06	286.05	77.143	62.142	17.744	3.1353e-06	24.993	0.00010562	9.1073e-05	2.6248e-05	1047	1.0356e-06	9.7427e-07	1129.4	216.2	1.0378e-06	9.5339e-07	264.62	76.242	58.961	17.65	9.7384e-07	24.826	400.105	228.047	200.913	88.983	222.264	306.798	89.135	96.875	136.424	208.073	96.451	103.508	103.434	111.258	211.259	109.759	-8191	255	
681.048	1	1	0	0	0.096703	0.15751	0.09371	0.2077	0.050895	0.059765	0.12778	0.13605	0.26416	0.17347	0.15785	0.052248	0.050891	0.070922	0.21571	0.066608	-1.9896	-3.3375	-2.4	-2.7229	-3.0333	-2.1875	-3.15	-3.1958	-2.0896	-3.3708	-2.6146	-2.5146	-3.3438	-2.1688	-2.8229	-2.9958	109.801	196.883	343.606	381.021	209.795	409.862	276.604	421.530	399.980	127.256	321.624	406.560	373.432	114.823	320.721	324.693	0.00084132	0.00046083	3.5423e-05	1073.9	2.4705e-06	4.0457e-06	1156.3	220.97	5.9707e-06	7.5607e-07	286.4	77.686	62.764	17.655	6.1563e-06	25.008	0.00010372	8.8804e-05	2.5556e-05	1047.3	9.906e-07	9.6356e-07	1131.2	216.85	1.0165e-06	9.6278e-07	264.99	76.178	59.127	17.629	9.8019e-07	24.742	394.514	195.942	270.859	89.273	242.068	192.891	89.214	97.094	199.885	274.868	96.107	103.255	103.603	111.021	200.273	110.464	-8191	255	
681.168	1	1	0	0	0.098077	0.15141	0.14315	0.14593	0.12443	0.22792	0.067673	0.056525	0.39099	0.06344	0.083655	0.17785	0.16548	0.062471	0.202	0.15238	-1.9792	-3.0604	-2.6083	-2.5812	-3.2583	-2.3958	-3.2167	-3.1208	-2.2271	-3.3292	-2.6479	-2.2958	-3.3542	-2.2812	-2.8521	-3.2146	285.066	371.406	358.248	437.344	435.514	191.746	113.931	384.759	397.452	284.796	213.821	178.875	225.721	384.351	84.639	351.371	0.00084021	0.00027354	6.9237e-05	1072.7	3.0064e-06	1.1326e-06	1155.3	220.63	4.5231e-06	1.6608e-06	282.89	77.691	62.491	17.538	1.101e-06	25.024	0.00010426	9.0433e-05	2.5375e-05	1045.5	1.0119e-06	1.0098e-06	1128.7	216.19	1.037e-06	9.9949e-07	264.02	76.207	59.199	17.586	1.0074e-06	24.762	395.061	177.063	160.383	89.365	210.296	259.576	89.341	96.972	146.757	288.008	96.109	103.240	103.752	111.079	271.437	110.494	-8191	255	
681.265	1	1	0	0	0.29688	0.049165	0.1035	0.33003	0.27876	0.19332	0.079922	0.21232	0.2962	0.056164	0.15915	0.2834	0.31942	0.33589	0.18845	0.12134	-1.8042	-3.2188	-2.7646	-2.3583	-3.3104	-2.2771	-2.8438	-3.2812	-2.0687	-3.2208	-3.0021	-2.1875	-3.1854	-2.4417	-2.6708	-3.1792	84.299	426.519	376.016	400.862	153.080	134.343	386.177	325.021	273.444	201.735	384.621	84.633	127.906	88.582	345.141	267.369	0.00080309	0.00043348	3.667e-05	1068	2.8953e-06	2.0215e-06	1159.8	220.83	7.8175e-06	8.6528e-07	285.82	77.051	62.573	17.675	2.611e-06	25.008	0.00010717	9.3816e-05	2.5931e-05	1044.6	1.0173e-06	1.0314e-06	1131.5	216.37	1.0558e-06	9.8485e-07	265.04	76.144	59.191	17.587	1.0176e-06	24.823	396.404	203.116	265.759	89.519	232.378	238.284	89.298	97.149	160.058	90.752	96.394	103.462	103.939	111.209	188.342	110.519	-8191	255	
681.361	1	1	0	0	0.24542	0.22291	0.035546	0.20487	0.13986	0.13746	0.18238	0.1389	0.13478	0.2943	0.33157	0.14438	0.22045	0.14201	0.082822	0.20347	-1.9375	-2.9625	-3.025	-2.3708	-3.1583	-2.3646	-2.6667	-3.5333	-2.3563	-3.0167	-3.0354	-2.0125	-3.2562	-2.4375	-2.4625	-3.3125	154.244	205.805	155.379	380.255	242.832	213.924	424.988	361.313	139.967	317.127	336.081	383.473	389.137	82.687	234.511	299.874	0.00082448	0.00012637	7.87e-05	1069.5	4.4741e-06	4.5235e-06	1160.9	220.56	5.0457e-06	2.9362e-06	286.42	77.606	61.326	17.712	2.9834e-06	24.858	0.00010373	8.8671e-05	2.4437e-05	1045.6	9.9656e-07	9.6502e-07	1127.4	216.13	1.003e-06	9.8812e-07	264.4	76.266	58.84	17.639	9.9222e-07	24.724	390.363	150.459	181.109	89.635	221.896	242.654	89.313	97.116	163.284	202.338	96.491	103.457	103.652	110.836	231.291	110.505	-8191	255	
681.432	1	1	0	0	0.20392	0.3658	0.21418	0.11215	0.31117	0.17221	0.19445	0.16456	0.055823	0.16425	0.082611	0.32318	0.11781	0.28754	0.31364	0.25787	-1.825	-3.0438	-3.1417	-2.3479	-3.0667	-2.4396	-2.5375	-3.4125	-2.2979	-2.825	-3.1833	-2.2875	-3.175	-2.7229	-2.2062	-3.4375	208.894	371.745	327.154	183.237	432.723	163.199	428.016	391.671	405.596	219.328	351.476	389.830	418.111	198.672	411.598	249.405	0.00063659	0.00015324	1.366e-05	1071.3	3.1072e-06	1.6898e-06	1158.6	221.24	6.6816e-06	2.542e-06	285.57	77.358	62.738	17.599	4.6824e-06	25.012	0.00010203	8.844e-05	2.4393e-05	1045.7	9.9131e-07	9.8403e-07	1127.3	216.91	1.0238e-06	9.969e-07	264.72	76.015	59.15	17.587	1.0427e-06	24.829	393.603	162.446	231.195	89.618	211.682	202.423	89.390	97.220	181.907	245.385	96.681	103.339	103.807	110.884	302.748	110.064	-8191	255	
681.553	1	1	0	0	0.23474	0.17093	0.15032	0.18427	0.23079	0.15288	0.16488	0.28313	0.068832	0.23812	0.067883	0.08256	0.17154	0.16939	0.098256	0.28231	-1.9958	-2.6813	-3.2625	-2.2167	-3.0292	-2.8854	-2.3792	-3.525	-2.2771	-2.5563	-3.2271	-2.2542	-3.0563	-2.9313	-2.1396	-3.4521	279.706	322.877	234.622	429.458	269.638	130.653	351.035	411.235	380.050	115.311	430.116	156.626	217.524	98.437	304.184	258.501	0.00082073	0.00022145	9.3944e-05	1071	2.7452e-06	1.4886e-06	1158.8	221.42	2.0933e-06	1.6038e-06	287.12	77.591	61.874	17.734	5.1316e-06	25.043	0.00010765	9.5669e-05	2.6109e-05	1045.9	1.1183e-06	1.0619e-06	1130.9	217.08	1.0871e-06	1.0676e-06	265.63	76.306	59.107	17.664	1.087e-06	24.892	398.610	153.619	123.258	89.044	201.124	241.296	88.974	96.915	209.958	138.915	96.121	102.820	104.000	111.085	223.734	109.803	-8191	255	
681.647	1	1	0	0	0.1218	0.14403	0.15148	0.10896	0.33257	0.22761	0.2251	0.316	0.27063	0.16642	0.23297	0.29041	0.055878	0.040571	0.090163	0.13545	-2.1854	-2.4458	-3.3083	-2.2896	-2.9354	-3.0812	-2.1688	-3.3833	-2.5125	-2.4	-3.4021	-2.2292	-2.7729	-2.8937	-2.1	-3.2313	174.181	83.370	165.736	401.477	422.717	137.708	96.931	359.253	113.328	360.597	212.419	372.492	259.395	262.267	197.027	207.437	0.00083429	0.00023346	3.1949e-05	1077	1.0348e-06	2.6549e-06	1158.6	221.27	4.3758e-06	4.2613e-06	287.03	77.521	62.55	17.747	4.792e-06	25.082	0.00011079	9.9306e-05	2.6375e-05	1050.7	1.1168e-06	1.0564e-06	1133	217.31	1.0758e-06	1.0713e-06	265.47	76.295	59.372	17.657	1.0589e-06	24.874	395.648	104.637	174.935	89.026	190.665	282.157	88.856	96.605	113.642	204.525	96.781	102.929	104.189	110.793	245.877	109.940	-8191	255	
681.744	1	1	0	0	0.087492	0.15515	0.30792	0.38503	0.18813	0.15056	0.12243	0.30579	0.22492	0.09269	0.10658	0.24258	0.25061	0.11659	0.26511	0.18506	-2.3083	-2.3896	-3.5146	-2.475	-2.7	-3.2604	-2.4188	-3.2833	-2.6667	-2.3812	-3.4979	-2.5521	-2.7271	-3.3292	-2.2	-3.1958	85.255	381.549	374.832	409.930	421.249	417.697	302.536	399.503	99.986	409.611	393.136	357.659	86.061	373.213	331.213	350.642	0.00079662	0.00016832	4.4787e-05	1079	3.5144e-06	2.7781e-06	1163.3	222.63	8.1509e-06	2.1155e-06	285.35	77.596	62.784	17.746	1.2354e-06	24.79	0.00010725	9.1414e-05	2.4555e-05	1052.5	1.0391e-06	9.8787e-07	1134.7	217.93	1.0317e-06	9.9676e-07	265.85	76.372	59.437	17.723	1.0091e-06	24.866	387.473	145.466	127.741	88.861	181.943	219.180	88.992	96.843	186.629	190.504	96.024	103.076	103.908	111.040	241.784	110.001	-8191	255	
681.840	1	1	0	0	0.086356	0.23732	0.093484	0.19085	0.067325	0.21136	0.21622	0.33112	0.089811	0.26396	0.099407	0.074623	0.24684	0.42369	0.064616	0.094397	-2.775	-2.4062	-3.2687	-2.5062	-2.6167	-3.2542	-2.3833	-3.35	-2.8604	-2.2604	-3.2875	-2.4167	-2.2542	-3.3375	-2.1854	-3.0646	265.515	220.105	332.676	424.350	254.680	148.668	355.528	410.661	101.151	421.884	426.223	230.166	340.030	395.240	81.353	111.730	0.00081781	0.00027595	3.5283e-05	1080.3	4.1453e-06	4.7095e-06	1164.4	222.56	3.7755e-06	1.4251e-06	288.25	77.47	62.585	17.739	2.1369e-06	24.883	0.00010209	9.2126e-05	2.488e-05	1052.9	1.0228e-06	9.8057e-07	1135.5	217.97	9.7446e-07	9.631e-07	266.02	76.389	59.318	17.696	1.0411e-06	24.896	398.483	225.038	214.792	88.783	228.773	251.100	88.788	96.565	167.081	282.003	96.411	103.019	103.197	110.912	162.570	109.819	-8191	255	
681.960	1	1	0	0	0.051006	0.11632	0.37058	0.43589	0.15718	0.13252	0.30653	0.052056	0.15784	0.17001	0.069006	0.19902	0.082347	0.081444	0.079387	0.10485	-2.8	-2.1437	-3.1792	-2.6583	-2.3521	-3.1813	-2.5604	-2.975	-3.0687	-2.3167	-3.3375	-2.8125	-2.4146	-3.4333	-2.2208	-3.0042	81.917	317.255	203.516	436.599	405.003	182.325	316.435	348.414	216.247	122.193	124.974	420.359	187.920	400.245	433.230	132.898	0.0008431	0.00014201	8.0549e-05	1080.3	1.9529e-06	2.2814e-06	1162.6	222.4	2.5304e-06	3.129e-06	288.21	78.176	62.511	17.736	3.1892e-06	24.921	0.00010443	9.2159e-05	2.5559e-05	1053.4	1.0778e-06	1.0088e-06	1136	218.08	1.0746e-06	1.0517e-06	266.7	76.585	59.466	17.694	1.0759e-06	24.889	400.127	181.127	210.875	89.074	125.667	242.411	88.945	96.671	428.935	228.884	96.443	103.050	103.550	110.440	152.030	109.980	-8191	255	
682.032	1	1	0	0	0.27053	0.071659	0.054905	0.13649	0.109	0.18626	0.037972	0.20325	0.17436	0.12614	0.17005	0.21873	0.25446	0.054196	0.26702	0.33149	-2.975	-2.275	-3.3208	-2.8688	-2.1083	-3.3583	-2.525	-2.8042	-3.1188	-2.0958	-3.3	-2.9417	-2.2896	-3.5	-2.3833	-2.6583	430.400	161.106	354.651	420.932	319.971	152.781	85.577	105.757	108.230	90.306	130.130	399.466	437.752	380.481	284.684	410.481	0.00078127	0.00016308	6.9694e-05	1083.7	2.6602e-06	3.5462e-06	1164	222.77	5.3443e-06	1.9936e-06	289.76	77.809	63.041	17.946	8.8874e-07	25.007	0.00010876	9.6946e-05	2.7159e-05	1056.1	1.1246e-06	1.0975e-06	1136.4	218.46	1.1488e-06	1.1165e-06	268.06	76.754	59.7	17.731	1.1334e-06	24.96	396.360	217.599	139.412	88.922	263.080	217.344	88.704	96.510	217.203	290.594	95.763	102.696	103.356	110.566	148.952	109.986	-8191	255	
682.128	1	1	0	0	0.07757	0.1594	0.040619	0.17544	0.23995	0.15008	0.2518	0.2972	0.15493	0.25429	0.22675	0.04912	0.22672	0.13992	0.2588	0.21556	-3.1	-2.1229	-3.1792	-2.9542	-2.0771	-3.3187	-2.725	-2.7229	-3.2687	-2.1229	-2.9625	-3.0979	-2.4083	-3.1312	-2.5292	-2.5792	434.575	426.014	105.495	424.075	287.832	402.191	357.945	381.774	438.337	438.083	377.636	91.203	247.773	342.299	431.365	356.705	0.00071149	0.00010079	4.6514e-05	1082.4	1.9983e-06	1.9357e-06	1166.3	222.96	5.7618e-06	3.3135e-06	285.06	77.751	62.832	17.926	2.2849e-06	25.406	0.00011343	0.00010178	2.7841e-05	1057.5	1.1579e-06	1.1074e-06	1140.4	218.92	1.1433e-06	1.1118e-06	267.53	76.818	59.893	17.807	1.131e-06	25.059	397.248	224.089	143.163	88.843	257.812	189.534	88.747	96.958	202.968	121.184	96.470	102.586	103.412	110.291	225.185	110.190	-8191	255	
682.249	1	1	0	0	0.1426	0.21004	0.074639	0.19978	0.28098	0.10863	0.22074	0.19917	0.1786	0.20632	0.11331	0.28583	0.16456	0.19445	0.070821	0.03352	-3.0708	-2.2792	-3.0812	-3.275	-2.2938	-3.3563	-2.8458	-2.5542	-3.4437	-2.2021	-2.9021	-3.1875	-2.1042	-3.1604	-2.6562	-2.3604	433.801	303.778	309.939	436.873	252.379	432.785	370.534	131.475	311.572	85.548	393.594	395.607	116.121	409.930	428.376	251.934	0.00075449	0.00018376	2.7316e-05	1087.4	3.0885e-06	1.6696e-06	1172.5	223.3	3.5671e-06	1.8186e-06	288.62	77.923	63.039	17.77	4.3529e-06	25.29	0.00011398	0.00010491	2.8764e-05	1061.2	1.1474e-06	1.1044e-06	1143.9	219.55	1.1417e-06	1.1429e-06	268.25	77.077	59.801	17.803	1.1394e-06	25.048	404.614	223.049	123.186	88.908	205.849	117.710	88.862	96.962	172.864	388.813	96.009	103.225	103.329	110.838	233.576	110.200	-8191	255	
682.345	1	1	0	0	0.32881	0.015793	0.14764	0.16956	0.096212	0.41634	0.20932	0.33502	0.24454	0.16165	0.40461	0.16819	0.13276	0.049178	0.1322	0.15473	-2.9646	-2.3292	-2.7354	-3.4125	-2.1021	-3.2125	-3.0917	-2.4292	-3.3229	-2.4167	-2.7771	-3.2854	-2.0708	-2.9813	-2.8896	-2.5229	252.045	94.878	281.949	217.376	264.440	431.864	387.996	358.842	429.576	82.889	96.759	109.916	153.994	376.820	336.193	144.861	0.00077988	0.00027551	4.4458e-05	1085.8	4.1449e-06	1.9896e-06	1173.6	224.64	3.0163e-06	3.1918e-06	286.79	77.779	62.899	17.948	2.4303e-06	25.121	0.00011465	0.00010673	2.9801e-05	1062.8	1.1829e-06	1.1318e-06	1146	219.98	1.1674e-06	1.1482e-06	268.97	76.953	59.743	17.89	1.1623e-06	25.059	401.478	215.850	166.065	88.843	197.668	201.786	88.910	96.893	181.449	199.570	96.346	102.937	103.369	110.750	265.189	110.007	-8191	255	
682.441	1	1	0	0	0.34536	0.13456	0.25528	0.25534	0.196	0.16988	0.13249	0.19086	0.094702	0.07869	0.16251	0.11228	0.13666	0.20743	0.030875	0.06023	-3.0187	-2.4667	-2.5333	-3.6	-2.0875	-2.9813	-3.0938	-2.3333	-3.2417	-2.5312	-2.3958	-3.3958	-2.1958	-3.0792	-3.2167	-2.1688	113.931	115.071	233.123	395.453	295.703	150.278	346.062	288.851	349.745	200.391	395.174	195.797	284.527	110.321	167.729	369.500	0.00083994	0.00034436	8.6044e-05	1096.1	5.6167e-06	1.8778e-06	1174.2	223.7	3.9665e-06	3.7267e-06	288.66	78.49	62.704	17.893	3.6596e-06	25.189	0.00011827	0.00010673	2.9264e-05	1066	1.1963e-06	1.1454e-06	1149.3	220.03	1.1432e-06	1.1262e-06	268.36	77.316	59.912	17.861	1.1357e-06	25.016	395.521	197.748	112.127	88.917	205.531	176.185	88.871	96.749	150.230	227.303	96.429	103.184	102.993	110.580	241.105	110.323	-8191	255	
682.537	1	1	0	0	0.016027	0.24085	0.087579	0.087241	0.15078	0.32457	0.39092	0.19362	0.069549	0.11027	0.19896	0.21144	0.1959	0.1479	0.21011	0.12346	-3.0687	-2.6792	-2.3063	-3.3063	-2.1688	-2.7562	-3.1312	-2.15	-3.2313	-2.9062	-2.2021	-3.4229	-2.3479	-2.5917	-3.125	-2.2125	418.485	402.839	230.869	337.194	377.847	295.179	428.005	380.792	208.781	262.494	138.597	345.651	99.742	409.501	330.548	361.564	0.00082863	8.0831e-05	0.00012625	1090.9	4.0402e-06	9.1232e-07	1179.3	223.73	3.373e-06	2.9458e-06	287.39	78.323	62.444	17.828	5.1288e-06	25.038	0.00011663	0.00010508	2.9146e-05	1065.8	1.1637e-06	1.1448e-06	1150.3	220.53	1.1962e-06	1.1396e-06	268.26	77.111	59.959	17.856	1.1537e-06	24.988	389.946	173.812	174.527	88.735	242.416	390.831	88.751	96.946	168.628	196.490	96.498	103.054	103.398	110.734	220.570	110.086	-8191	255	
682.633	1	1	0	0	0.060227	0.13586	0.12447	0.1696	0.35328	0.14193	0.13403	0.13299	0.052233	0.21192	0.20579	0.15846	0.15635	0.20196	0.051137	0.18576	-2.85	-2.9792	-2.275	-3.4896	-2.3479	-2.6437	-3.45	-2.3875	-2.9313	-2.8104	-2.3563	-3.2313	-2.3771	-2.5438	-3.4104	-2.225	133.964	112.507	196.496	382.597	358.668	98.518	347.626	307.153	394.058	117.083	423.448	145.396	437.525	394.374	180.459	166.713	0.0007922	0.00019844	5.9912e-05	1089.2	5.707e-06	2.2619e-06	1180.8	224.15	1.1848e-05	1.1617e-06	286.33	77.862	63.084	17.804	3.4474e-06	24.805	0.00012016	0.0001048	2.9463e-05	1066.1	1.1793e-06	1.1686e-06	1150.6	220.08	1.2143e-06	1.1989e-06	269.06	77.051	60.073	17.868	1.2185e-06	24.99	396.148	205.149	114.610	88.992	205.417	195.420	88.784	96.573	170.595	208.585	96.137	102.914	103.298	110.709	204.976	109.592	-8191	255	
682.728	1	1	0	0	0.1072	0.096027	0.086287	0.18105	0.097924	0.097618	0.066511	0.12	0.3276	0.12614	0.1107	0.18382	0.1726	0.1524	0.18551	0.11405	-2.6625	-2.875	-2.1229	-3.5146	-2.5229	-2.2542	-3.5125	-2.3667	-2.9104	-2.9667	-2.1708	-3.3104	-2.8229	-2.3896	-3.3521	-2.1542	95.179	184.188	114.260	402.520	131.093	169.093	405.558	203.136	233.254	176.398	296.370	396.526	325.714	403.375	373.746	116.580	0.00087649	9.3888e-05	8.4999e-05	1091.7	4.7802e-06	2.5142e-06	1180.1	223.99	2.6049e-06	2.6995e-06	288.22	78.164	62.841	17.931	4.6475e-06	25.251	0.00012549	0.00011245	3.1546e-05	1067.3	1.285e-06	1.2648e-06	1150.9	220.27	1.2805e-06	1.2433e-06	270.23	77.087	60.131	17.913	1.3106e-06	25.18	399.903	131.923	112.133	88.836	235.195	202.846	88.791	96.478	207.108	204.881	95.744	103.039	103.218	110.880	228.547	109.734	-8191	255	
682.848	1	1	0	0	0.11327	0.061635	0.067038	0.52482	0.24955	0.23164	0.42542	0.14097	0.1088	0.25607	0.076915	0.18179	0.19552	0.12832	0.062454	0.20395	-2.5167	-3.175	-1.9292	-3.3042	-2.6937	-2.3104	-3.5667	-2.2958	-2.7646	-3.2833	-2.1708	-3.2021	-2.7708	-2.1917	-3.35	-2.2854	99.814	317.024	81.730	433.021	369.639	113.360	415.275	427.359	205.929	210.295	170.460	419.567	393.155	102.967	139.295	123.449	0.00075788	0.00038412	8.8357e-05	1093.8	3.4439e-06	4.3189e-06	1181.3	223.77	7.66e-06	2.6521e-06	287.5	78.272	63.388	17.791	5.2564e-06	25.066	0.00013153	0.00011663	3.3786e-05	1067.3	1.3336e-06	1.3526e-06	1150.3	220.16	1.3691e-06	1.3666e-06	269.63	77.195	60.463	17.885	1.373e-06	25.125	392.987	139.710	193.552	88.914	193.032	223.371	88.965	96.523	128.820	156.420	95.950	102.975	103.737	110.821	184.135	109.559	-8191	255	
682.945	1	1	0	0	0.11512	0.20278	0.21296	0.19485	0.066689	0.16071	0.18041	0.24095	0.10797	0.09367	0.23516	0.10331	0.16627	0.26662	0.1785	0.11886	-2.475	-3.1125	-2.1083	-3.3708	-3.0542	-2.1542	-3.6021	-2.3896	-2.6583	-3.3729	-2.1813	-3.1208	-3.0438	-2.1771	-3.225	-2.5292	437.581	166.341	304.381	420.407	173.055	232.113	399.132	145.488	248.685	435.106	256.740	138.063	362.371	341.980	410.781	210.629	0.00080521	0.00013728	0.0001278	1099.5	1.9584e-06	1.7757e-06	1175.6	225.38	1.3822e-06	2.8714e-06	286.01	78.343	63.082	17.966	4.5903e-06	25.224	0.000142	0.00012677	3.6527e-05	1071.1	1.4253e-06	1.4058e-06	1152	221.16	1.435e-06	1.4081e-06	270.85	77.479	60.338	17.936	1.4089e-06	25.155	395.426	147.109	95.838	89.170	203.999	226.965	88.978	96.768	131.351	106.010	96.283	103.085	103.469	110.846	230.564	109.783	-8191	255	
683.041	1	1	0	0	0.13252	0.030691	0.28896	0.15404	0.075529	0.15834	0.07469	0.041016	0.12992	0.16238	0.20436	0.049228	0.18285	0.096411	0.047069	0.19615	-2.1208	-3.3729	-2.0563	-3.2458	-3.025	-2.0625	-3.475	-2.7479	-2.2604	-3.3792	-2.3792	-2.6792	-3.0896	-2.1	-3.0479	-2.7604	197.896	112.044	421.038	398.417	109.336	277.735	135.251	321.667	416.299	277.846	231.294	269.424	264.245	436.132	131.597	289.304	0.00079805	0.00010245	5.6387e-05	1100.4	2.108e-06	1.4021e-06	1178.6	224.01	2.887e-06	1.5668e-06	288.14	77.889	63.137	17.937	3.1384e-06	25.18	0.00014089	0.000124	3.5317e-05	1072.5	1.4246e-06	1.3824e-06	1152.6	220.11	1.3824e-06	1.309e-06	270	77.267	60.33	17.934	1.326e-06	25.097	398.246	241.227	145.617	88.870	265.013	186.578	88.843	96.741	139.344	167.550	95.863	103.072	103.315	110.706	259.593	110.248	-8191	255	
683.137	1	1	0	0	0.23125	0.066885	0.23924	0.021236	0.23776	0.16553	0.43042	0.21101	0.34014	0.029174	0.2874	0.086014	0.18916	0.23968	0.051635	0.14067	-1.9729	-3.1667	-2.3125	-2.7979	-3.0583	-2.0667	-3.375	-2.7771	-2.0771	-3.3333	-2.3812	-2.725	-3.2292	-2.1729	-2.975	-2.9583	113.844	138.083	238.059	155.249	112.299	297.860	359.978	97.847	85.264	115.216	291.600	164.315	349.415	349.038	86.109	213.790	0.00073266	0.00015239	3.4797e-05	1099	4.5221e-06	1.3326e-06	1177.6	224.73	4.8596e-06	4.2516e-07	287.77	78.127	63.177	17.928	4.1632e-06	25.017	0.00013424	0.00011996	3.3352e-05	1068.9	1.3428e-06	1.3089e-06	1149.6	220.51	1.3118e-06	1.2354e-06	268.96	77.117	60.114	17.863	1.196e-06	24.986	394.860	187.045	134.995	89.073	212.736	253.615	89.084	96.600	159.078	340.175	96.123	102.857	103.134	110.854	223.018	109.882	-8191	255	
683.258	1	1	0	0	0.038381	0.060434	0.26972	0.24145	0.15454	0.27027	0.25204	0.30746	0.12618	0.19991	0.19773	0.22998	0.038335	0.30535	0.11824	0.18972	-2.0146	-3.3375	-2.4146	-2.6562	-3.5104	-2.1417	-3.1333	-2.9729	-2.2917	-3.2396	-2.6583	-2.5312	-3.375	-2.1688	-3	-3.0979	374.542	437.947	358.273	402.735	233.900	106.447	340.676	381.783	302.491	283.013	223.091	250.311	290.151	146.811	335.266	417.126	0.00075672	0.00014827	9.9023e-05	1089.2	1.8353e-06	2.8886e-08	1171.9	222.1	3.698e-06	1.8991e-06	285.76	78.422	62.809	17.847	2.0546e-06	25.144	0.00011935	0.00010381	2.9247e-05	1063.1	1.1398e-06	1.1264e-06	1144	218.71	1.1488e-06	1.1005e-06	267.25	76.929	59.617	17.78	1.1063e-06	24.931	400.937	138.382	152.899	89.328	264.594	231.667	89.175	96.891	178.843	172.280	96.273	102.899	103.337	110.768	234.374	109.959	-8191	255	
683.329	1	1	0	0	0.10437	0.36973	0.13118	0.11501	0.090737	0.26282	0.071977	0.23767	0.16902	0.1651	0.22095	0.15613	0.17569	0.10272	0.18424	0.29188	-1.8042	-3.2875	-2.6417	-2.5312	-3.4	-2.2708	-2.9938	-3.2188	-2.1271	-3.1896	-2.75	-2.3438	-3.3812	-2.3021	-2.6771	-3.3438	170.195	265.328	133.714	366.494	165.816	214.839	343.471	364.295	332.139	287.428	268.474	422.680	279.987	272.809	371.162	96.005	0.00077532	0.0002472	7.9731e-05	1090.4	4.2018e-06	5.8604e-07	1170.6	222.88	6.5941e-06	1.3444e-06	284	77.868	62.392	17.694	3.5066e-06	25.167	0.00011341	9.9296e-05	2.8128e-05	1063.7	1.1097e-06	1.0795e-06	1144	218.49	1.1064e-06	1.0895e-06	265.46	76.595	59.33	17.709	1.0989e-06	24.92	396.535	146.846	123.186	89.204	198.344	181.058	89.144	96.502	178.946	220.455	95.913	103.087	103.473	110.741	245.459	109.935	-8191	255	
683.425	1	1	0	0	0.21855	0.16779	0.16416	0.15283	0.057743	0.15023	0.16209	0.092096	0.3181	0.24821	0.2206	0.33071	0.068316	0.33656	0.14759	0.10918	-1.8667	-3.2354	-2.7958	-2.4083	-3.4021	-2.3312	-2.8063	-3.425	-2.2146	-3.0229	-2.9646	-2.2792	-3.3604	-2.4833	-2.6021	-3.3312	116.477	173.401	426.552	275.131	148.619	204.439	369.433	107.528	385.491	332.828	307.670	382.902	398.674	146.272	342.229	300.568	0.00080562	0.00025552	7.9989e-05	1081.9	7.3783e-07	1.0002e-06	1170.9	223.37	8.2069e-06	3.3929e-06	285.93	77.02	62.242	17.693	4.3413e-06	25.131	0.0001145	0.00010201	2.8638e-05	1057.2	1.1686e-06	1.1899e-06	1142.9	218.79	1.2479e-06	1.1853e-06	266.62	76.453	59.478	17.733	1.2305e-06	25.01	389.961	204.797	218.013	89.133	161.450	138.837	89.089	96.950	154.697	197.112	95.908	102.948	103.468	110.867	239.337	109.972	-8191	255	
683.522	1	1	0	0	0.25574	0.16157	0.16026	0.24844	0.10332	0.1739	0.39976	0.0371	0.17606	0.027051	0.10923	0.085435	0.025362	0.031657	0.18878	0.13597	-1.7854	-2.8563	-2.9771	-2.3417	-3.1542	-2.4813	-2.5854	-3.3396	-2.2167	-2.8896	-3.1708	-2.1604	-3.3146	-2.6292	-2.3333	-3.4562	118.613	96.232	87.134	300.082	405.855	233.328	368.661	411.697	146.992	254.397	194.092	174.726	168.558	233.907	328.051	121.860	0.0008328	0.00022893	1.8396e-05	1088	3.8887e-06	5.3566e-07	1173.1	223.15	4.0675e-06	1.2963e-06	283.64	77.62	62.696	17.869	3.0837e-06	25.121	0.00012426	0.00010917	2.9987e-05	1062.8	1.1753e-06	1.2059e-06	1144.7	218.97	1.1466e-06	1.1353e-06	266.47	76.653	59.847	17.797	1.1499e-06	25.064	391.827	173.574	243.123	88.887	222.144	374.456	89.053	96.626	212.470	196.618	95.704	103.047	103.418	110.723	204.492	110.256	-8191	255	
683.640	1	1	0	0	0.08173	0.25072	0.057324	0.035155	0.10031	0.044433	0.10248	0.27994	0.19528	0.12939	0.30387	0.090047	0.12261	0.074247	0.44289	0.16449	-2.0458	-2.8688	-3.0396	-2.2812	-3.2271	-2.7333	-2.3833	-3.4375	-2.3229	-2.9333	-3.2562	-2.2875	-3.2271	-2.9104	-2.2938	-3.3917	227.307	348.722	109.381	347.514	360.474	403.128	416.840	390.385	259.253	374.073	93.539	364.047	92.376	113.610	338.425	107.306	0.00080758	0.0002987	7.5215e-05	1091.2	3.6672e-06	2.8974e-06	1178.7	223.17	7.4674e-06	2.5225e-06	288.06	78.104	63.484	17.887	4.6469e-06	25.008	0.00011891	0.0001057	2.8425e-05	1063.4	1.1745e-06	1.1517e-06	1148.6	218.98	1.2057e-06	1.1796e-06	267.66	77.054	59.964	17.843	1.2472e-06	24.978	403.080	218.638	187.146	89.017	179.393	237.611	89.009	96.897	149.138	232.855	96.543	102.801	103.531	110.684	213.921	110.182	-8191	255	
683.737	1	1	0	0	0.22479	0.082818	0.078912	0.069756	0.16217	0.1317	0.23785	0.087934	0.11408	0.1713	0.16017	0.18957	0.23236	0.1069	0.19419	0.1264	-2.1396	-2.6	-3.2313	-2.3854	-3.1104	-2.8688	-2.3104	-3.3625	-2.5375	-2.3937	-3.2729	-2.1875	-2.9562	-2.9271	-2.0333	-3.2146	339.574	364.661	283.762	346.734	207.637	401.295	365.324	104.212	189.119	354.269	133.042	146.813	299.205	256.952	339.788	381.082	0.00086092	0.00033038	6.2507e-05	1090.9	5.8309e-06	2.4882e-06	1174.3	223.24	4.8537e-06	1.8356e-06	285.7	77.941	63.117	17.794	4.0252e-06	25.095	0.00012556	0.00011433	3.0832e-05	1065.4	1.252e-06	1.2081e-06	1147.4	219.4	1.2668e-06	1.2106e-06	268.3	76.843	60.126	17.857	1.2301e-06	25.051	401.391	166.799	147.818	89.160	204.555	137.320	89.176	96.679	164.149	221.393	95.668	103.114	103.963	110.699	230.359	110.037	-8191	255	
683.833	1	1	0	0	0.10192	0.099103	0.18004	0.25309	0.12247	0.11276	0.16498	0.20622	0.10589	0.23974	0.20167	0.14495	0.067013	0.15242	0.14545	0.16432	-2.2646	-2.3771	-3.4062	-2.4833	-2.7396	-3.0479	-2.3521	-3.3312	-2.7521	-2.3937	-3.3625	-2.3729	-2.8542	-3.0833	-2.2229	-3.1979	316.706	317.694	168.531	360.126	276.919	198.748	89.843	322.056	194.410	403.387	406.317	96.411	383.648	399.055	344.539	335.120	0.0007988	0.0003511	5.0246e-05	1096	4.0848e-06	2.1081e-06	1177.6	224.19	8.446e-06	2.3234e-06	288.67	77.956	62.373	17.935	1.4199e-06	25.217	0.00012764	0.00011431	3.1519e-05	1068.3	1.3107e-06	1.2707e-06	1151.2	219.91	1.2781e-06	1.2465e-06	269.46	77.003	59.847	17.876	1.2093e-06	25.036	396.982	161.609	179.852	88.935	215.926	226.356	88.927	96.789	131.306	271.756	96.809	102.919	103.881	111.152	186.067	110.153	-8191	255	
683.929	1	1	0	0	0.11941	0.083934	0.16205	0.19178	0.19065	0.26662	0.29035	0.15743	0.21058	0.14642	0.10658	0.33824	0.38976	0.20272	0.22954	0.08533	-2.5125	-2.3937	-3.2729	-2.3896	-2.7604	-3.2771	-2.2542	-3.1312	-2.8458	-2.1875	-3.3396	-2.4667	-2.725	-3.3208	-2.1292	-3.1125	212.245	333.851	416.504	369.556	329.126	129.881	331.203	375.364	362.582	212.245	366.460	135.310	257.631	224.127	423.414	241.004	0.00085609	0.00021699	2.6737e-05	1089.1	3.8857e-06	1.9155e-06	1173.9	224.27	5.119e-06	2.505e-06	289.76	78.498	62.132	17.943	2.8449e-06	25.189	0.00012344	0.00011448	3.1691e-05	1063.6	1.2934e-06	1.2562e-06	1146.8	219.76	1.327e-06	1.3282e-06	269.95	77.185	59.993	17.887	1.3659e-06	25.054	390.147	165.015	161.862	88.919	215.803	179.630	88.928	97.180	140.240	257.302	96.025	102.981	103.820	110.897	202.219	109.908	-8191	255	
684.025	1	1	0	0	0.085065	0.20847	0.029703	0.17619	0.17277	0.13535	0.45462	0.21933	0.080033	0.1603	0.23667	0.13669	0.26702	0.036662	0.077453	0.095501	-2.5021	-2.2167	-3.1125	-2.5458	-2.3229	-3.3	-2.3354	-3.0312	-2.8875	-2.0563	-3.2354	-2.6063	-2.4688	-3.2313	-2.1146	-3.0104	384.347	151.147	182.739	397.967	363.160	255.215	369.162	79.279	360.845	105.063	218.982	433.176	116.588	335.742	268.236	265.694	0.0008217	0.00016609	8.3462e-05	1090.8	4.4451e-06	3.2587e-06	1180.7	225.29	1.6207e-06	2.9159e-06	287.32	77.878	62.981	18.027	3.1364e-06	25.19	0.00013656	0.00012597	3.4332e-05	1066.4	1.4358e-06	1.349e-06	1150.8	220.73	1.3905e-06	1.3951e-06	269.09	77.089	60.234	17.925	1.3746e-06	25.144	394.908	175.172	188.788	89.149	223.833	262.502	88.911	96.835	245.357	301.524	96.591	103.137	103.608	111.316	176.736	109.827	-8191	255	
684.121	1	1	0	0	0.23341	0.16553	0.081031	0.37149	0.18491	0.12487	0.15875	0.20851	0.11939	0.088506	0.26237	0.076165	0.13916	0.21075	0.12851	0.066059	-2.7042	-2.1229	-3.2417	-2.8021	-2.3312	-3.4625	-2.4	-2.9146	-3.1063	-2.0583	-3.4042	-2.8563	-2.3021	-3.4292	-2.4375	-2.8333	293.664	348.018	84.331	424.347	417.003	324.423	359.353	386.900	203.853	435.356	362.390	98.520	275.319	421.781	184.938	378.604	0.00081532	0.00028108	7.3356e-05	1101.8	4.8889e-06	2.3276e-06	1177.1	224.35	7.6908e-06	2.4595e-06	289.17	78.011	62.468	17.926	3.6207e-06	25.173	0.00013637	0.00012422	3.3978e-05	1072.6	1.3746e-06	1.3168e-06	1152.8	220.27	1.3222e-06	1.2691e-06	268.59	76.955	59.911	17.864	1.2851e-06	25.099	395.883	220.639	202.759	89.118	199.364	155.106	88.762	96.910	142.344	286.934	96.381	103.195	103.616	111.100	202.096	109.990	-8191	255	
684.217	1	1	0	0	0.09698	0.1895	0.29779	0.10724	0.069956	0.15662	0.39887	0.28928	0.032767	0.059464	0.19422	0.2861	0.2936	0.128	0.055786	0.2301	-3.0729	-2.1479	-3.0187	-3.0687	-2.1917	-3.5062	-2.6583	-2.5104	-3.3917	-2.3021	-3.1917	-2.9562	-2.2812	-3.2875	-2.4792	-2.6771	314.010	371.194	325.978	417.096	306.400	97.805	402.407	423.345	319.319	198.139	283.441	362.434	330.215	345.509	269.022	105.555	0.00076975	0.00034303	5.3371e-05	1089	2.9622e-06	1.9991e-06	1169	223.25	4.4667e-06	2.6328e-06	286.36	77.986	62.341	17.916	5.0358e-06	25.082	0.00012293	0.00011159	3.06e-05	1065.9	1.2514e-06	1.1584e-06	1146.8	219.36	1.1613e-06	1.1501e-06	267.23	76.88	59.671	17.893	1.1665e-06	25.008	398.039	185.873	169.707	88.936	226.646	210.608	88.895	96.749	160.543	182.204	96.247	102.929	104.005	110.878	192.465	110.262	-8191	255	
684.338	1	1	0	0	0.089139	0.10481	0.29645	0.19901	0.17485	0.12387	0.18309	0.16356	0.076171	0.15019	0.027862	0.18506	0.29977	0.15485	0.10391	0.02679	-2.9521	-2.0208	-3.0229	-3.0917	-2.125	-3.3937	-2.6625	-2.8	-3.4583	-2.35	-3	-3.2167	-2.2188	-3.3458	-2.5583	-2.3146	321.689	104.801	407.277	394.323	350.934	273.135	373.209	351.062	80.913	277.941	434.182	402.777	398.117	94.178	177.228	398.192	0.00086785	0.00022607	0.000141	1091.2	2.3211e-06	3.9569e-06	1175.8	223.6	4.446e-06	4.8501e-07	285.45	78.051	62.97	17.87	1.9331e-06	25.119	0.00011463	0.00010686	2.952e-05	1063	1.1982e-06	1.1655e-06	1144.6	219.39	1.1803e-06	1.1802e-06	267.02	76.725	59.89	17.833	1.1692e-06	25.02	398.934	209.536	168.873	89.353	188.077	204.543	88.864	96.862	151.996	379.434	96.331	102.849	103.981	110.572	240.313	110.058	-8191	255	
684.434	1	1	0	0	0.17708	0.18132	0.1274	0.2986	0.24795	0.097975	0.13174	0.13646	0.086298	0.18843	0.075118	0.093248	0.13612	0.067578	0.073447	0.15755	-3.1667	-2.2542	-2.875	-3.4	-2.1625	-3.1021	-2.9188	-2.3187	-3.35	-2.2354	-2.7792	-3.1417	-2.0792	-3.1583	-2.7417	-2.3792	333.919	320.052	425.428	430.329	148.439	201.783	342.708	142.010	396.775	398.862	154.188	328.549	419.745	131.381	415.277	101.101	0.00086662	0.00012308	5.2891e-05	1084.4	5.6298e-06	3.1819e-06	1169.9	224.48	6.7884e-06	2.626e-06	286.71	77.825	62.351	17.831	2.3045e-06	25.098	0.00012152	0.00011152	3.1006e-05	1060.9	1.2786e-06	1.2035e-06	1142	219.84	1.2142e-06	1.2055e-06	268.67	76.844	59.71	17.827	1.21e-06	24.986	399.742	205.520	213.143	88.988	181.537	211.244	89.024	96.801	138.108	201.109	96.586	103.015	103.528	110.876	262.957	110.343	-8191	255	
684.530	1	1	0	0	0.35147	0.34081	0.12287	0.1651	0.15421	0.27372	0.10442	0.095142	0.379	0.18852	0.22779	0.10799	0.2212	0.05778	0.17273	0.13308	-3.0542	-2.2938	-2.7125	-3.3063	-2.0146	-3.0083	-2.95	-2.2542	-3.3333	-2.2104	-2.4875	-3.175	-2.2354	-3	-3.0729	-2.0125	237.415	123.600	349.921	110.101	327.058	85.908	233.579	391.696	126.118	172.487	264.836	406.677	432.092	400.418	234.358	344.888	0.00081785	0.00040236	5.0993e-05	1087.6	3.2423e-06	9.8771e-07	1172.2	222.97	6.9484e-06	4.349e-06	287.98	78.299	62.504	17.726	2.4245e-06	25.165	0.00012077	0.00010907	3.1181e-05	1061.3	1.2434e-06	1.1891e-06	1144.4	219.01	1.1871e-06	1.1946e-06	267.83	76.884	59.741	17.752	1.1663e-06	24.979	401.643	190.712	418.977	89.064	193.353	328.966	89.017	97.018	176.527	209.846	95.983	103.122	103.802	111.314	231.606	110.086	-8191	255	
684.626	1	1	0	0	0.20225	0.06656	0.15041	0.1114	0.06464	0.17178	0.30424	0.32171	0.12439	0.078729	0.28399	0.12798	0.236	0.1355	0.1391	0.13455	-3.1792	-2.6146	-2.5083	-3.5917	-2.1083	-2.9375	-3.3208	-2.225	-3.2396	-2.6104	-2.3479	-3.3271	-2.2333	-2.9708	-3.0354	-2.2479	95.851	363.151	176.290	429.147	359.265	416.253	403.395	392.469	366.956	361.880	273.600	122.040	125.742	425.172	326.115	413.145	0.00080799	0.0004082	4.8585e-05	1087.4	4.401e-06	1.0884e-06	1169.5	222.76	5.276e-06	2.0111e-06	287.02	77.465	62.691	17.871	4.6769e-06	25.072	0.00011894	0.00011023	3.0929e-05	1062.7	1.2059e-06	1.1873e-06	1143.3	219.36	1.2236e-06	1.193e-06	267.56	76.647	59.843	17.841	1.1859e-06	24.992	404.166	217.188	204.611	89.237	261.434	134.392	88.886	96.680	173.108	269.044	96.717	103.114	103.968	110.610	211.338	110.230	-8191	255	
684.721	1	1	0	0	0.14913	0.22673	0.26246	0.068511	0.085776	0.16019	0.17402	0.20527	0.20464	0.16612	0.22532	0.17312	0.2789	0.034636	0.090145	0.12941	-3.0354	-2.7208	-2.2792	-3.4375	-2.1771	-2.8292	-3.4292	-2.2812	-2.9729	-2.9104	-2.3375	-3.2812	-2.3625	-2.7729	-3.3146	-2.2229	434.752	425.101	313.551	328.880	229.865	173.363	348.508	303.215	103.505	399.448	189.816	80.661	107.269	246.108	232.378	83.847	0.0007294	0.0004032	6.7354e-05	1087.7	3.2601e-06	2.7651e-06	1169.6	223.45	4.3619e-06	3.738e-06	282.05	77.9	63.537	17.901	5.1486e-06	25.16	0.00011973	0.00011142	3.0316e-05	1062.4	1.2322e-06	1.2123e-06	1143.9	219.49	1.2454e-06	1.1907e-06	267.11	76.782	59.957	17.822	1.2132e-06	25.013	400.190	177.679	162.146	89.153	196.506	178.409	88.913	96.824	139.290	209.202	96.231	102.756	103.429	111.119	181.761	110.002	-8191	255	
684.817	1	1	0	0	0.19789	0.15321	0.1799	0.026335	0.035854	0.10939	0.26354	0.25714	0.34118	0.20979	0.1527	0.11228	0.069206	0.14549	0.17132	0.18899	-2.7687	-2.8375	-2.3104	-3.3583	-2.3229	-2.4333	-3.4229	-2.5042	-2.9417	-3.0229	-2.1896	-3.4417	-2.6292	-2.4375	-3.275	-2.1667	82.786	179.217	169.986	189.746	371.551	144.930	81.349	351.937	148.353	228.026	269.650	236.000	214.325	111.839	190.055	419.667	0.00078134	0.00018294	0.00011563	1086	1.3564e-06	3.0703e-06	1171.9	223.84	3.8276e-06	1.4231e-06	289.77	77.681	62.61	17.879	2.6297e-06	24.956	0.00012416	0.00010922	3.0896e-05	1061.2	1.2662e-06	1.2015e-06	1144	219.38	1.2312e-06	1.1629e-06	268.08	76.74	59.775	17.863	1.1851e-06	24.943	398.057	150.405	159.760	89.424	186.997	218.312	89.144	96.652	148.609	249.199	95.988	103.118	103.283	111.098	167.442	110.076	-8191	255	
684.913	1	1	0	0	0.13729	0.034264	0.078273	0.03768	0.049426	0.33336	0.08599	0.18248	0.2652	0.16311	0.22379	0.39075	0.16616	0.11206	0.062747	0.095272	-2.65	-3.0875	-2.2687	-3.3833	-2.5729	-2.2583	-3.3917	-2.2396	-2.8125	-3.0354	-2.2646	-3.2667	-2.6042	-2.35	-3.3458	-2.4271	336.506	169.546	321.790	391.575	378.320	164.766	367.696	125.190	218.573	281.676	159.612	404.063	88.161	384.867	254.968	244.032	0.00084842	0.00039388	0.00011685	1084.5	2.9374e-06	3.171e-06	1167.6	224.93	6.2755e-06	1.6347e-06	282.36	78.193	61.938	17.769	3.8699e-06	25.061	0.0001206	0.00011019	3.0444e-05	1061	1.2465e-06	1.188e-06	1142.3	219.3	1.2202e-06	1.1581e-06	266.43	76.741	59.396	17.765	1.2162e-06	24.952	401.546	180.073	154.930	89.067	179.574	269.201	88.888	96.845	161.886	327.488	96.203	103.102	103.874	110.855	218.086	110.286	-8191	255	
685.034	1	1	0	0	0.10279	0.3967	0.1067	0.28186	0.36434	0.33303	0.25709	0.19424	0.20603	0.13259	0.16656	0.25773	0.24714	0.14086	0.072071	0.069201	-2.4062	-3.3312	-2.2417	-3.2896	-2.7792	-2.2417	-3.5125	-2.4354	-2.5542	-3.1375	-2.0667	-3.1854	-2.8479	-2.4125	-3.2042	-2.5687	392.669	221.742	200.155	86.684	374.126	100.417	386.224	399.778	208.186	298.438	427.914	356.922	96.394	124.817	298.692	362.186	0.00075746	0.00028778	8e-05	1082.8	1.4717e-06	3.6329e-06	1167.7	223.25	8.8727e-06	9.9174e-07	290.31	77.926	62.679	17.758	3.2857e-06	25.159	0.00012344	0.00010971	3.1205e-05	1057.5	1.2612e-06	1.2272e-06	1139.8	219.18	1.2216e-06	1.1831e-06	267.46	76.684	59.703	17.8	1.166e-06	25.011	393.481	311.633	216.584	89.285	304.491	213.512	89.125	96.799	131.193	119.642	96.491	103.273	103.812	111.006	257.256	110.228	-8191	255	
685.130	1	1	0	0	0.27957	0.16629	0.17043	0.28013	0.23746	0.043662	0.052514	0.15405	0.11869	0.11254	0.17932	0.028517	0.39897	0.10952	0.047704	0.30228	-2.3771	-3.15	-2.1292	-2.9333	-2.9458	-2.2	-3.3771	-2.5625	-2.5125	-3.2917	-2.3187	-3.125	-3.1063	-2.2375	-3.0833	-2.6188	297.803	427.257	102.930	410.880	133.561	234.673	434.653	132.349	157.655	87.171	289.566	361.649	83.743	183.402	407.935	417.293	0.00066321	6.71e-05	0.000117	1084.7	2.7445e-06	1.4391e-06	1169.9	222.9	5.1531e-06	1.5245e-06	283.63	77.645	62.575	17.809	4.5199e-06	25.009	0.00012157	0.00010483	2.9569e-05	1059	1.1801e-06	1.1665e-06	1141.1	218.78	1.201e-06	1.1732e-06	266.3	76.635	59.616	17.811	1.1619e-06	24.886	394.977	238.456	161.801	89.120	245.367	320.094	89.087	96.792	250.078	186.102	96.844	102.886	103.847	111.179	188.343	110.667	-8191	255	
685.202	1	1	0	0	0.14758	0.20718	0.19084	0.10318	0.24036	0.19982	0.16543	0.24284	0.17201	0.13542	0.16179	0.25257	0.089309	0.035358	0.16467	0.023267	-2.0062	-3.2917	-2.125	-2.9604	-2.9354	-1.975	-3.4521	-2.9042	-2.225	-3.2396	-2.2375	-2.8542	-3.0146	-2.0833	-3.1875	-2.7812	374.950	171.689	381.871	365.814	117.897	278.084	123.239	277.661	162.594	147.212	388.758	365.435	103.272	165.260	162.767	168.811	0.00083026	0.00025363	4.8001e-05	1084.6	4.7385e-06	1.9682e-06	1163.6	222.54	6.7269e-06	1.7646e-06	285.51	77.972	62.918	17.721	4.4899e-06	25.141	0.00011902	0.00010478	2.922e-05	1056.7	1.1805e-06	1.1723e-06	1139.8	218.48	1.1771e-06	1.1201e-06	266.43	76.652	59.592	17.756	1.1418e-06	25	393.952	193.734	112.207	89.211	220.903	217.893	89.064	96.894	139.576	93.829	95.923	103.017	102.999	110.971	205.631	110.015	-8191	255	
685.322	1	1	0	0	0.046092	0.24581	0.13678	0.36028	0.06978	0.24521	0.20121	0.23106	0.21233	0.15831	0.17853	0.049619	0.18425	0.19107	0.15625	0.25006	-2.0229	-3.5125	-2.2771	-2.7812	-3.3063	-2.2396	-3.3792	-2.9979	-2.1167	-3.3937	-2.4729	-2.4729	-3.4646	-2.2771	-3.0938	-3.0312	105.068	329.749	385.941	377.239	239.633	368.697	399.811	330.347	158.235	350.827	128.604	124.455	423.080	432.779	96.455	144.787	0.00079951	0.00022674	1.8463e-05	1084.3	1.0172e-06	1.1531e-06	1166.4	222.12	2.7349e-06	2.2418e-06	286.7	77.43	62.7	17.801	1.7507e-06	24.919	0.00011793	0.00010343	3.0183e-05	1058.6	1.177e-06	1.1696e-06	1139.3	218.45	1.2069e-06	1.1705e-06	266.9	76.504	59.574	17.748	1.1722e-06	24.837	400.947	115.557	177.440	89.285	389.094	161.795	89.231	96.756	437.964	212.686	96.143	103.035	103.592	111.244	246.173	110.490	-8191	255	
685.418	1	1	0	0	0.33876	0.14802	0.23438	0.16924	0.065985	0.13444	0.30011	0.11684	0.19736	0.11111	0.30059	0.12793	0.08398	0.075439	0.033073	0.13754	-1.7938	-3.1833	-2.5833	-2.6208	-3.2792	-2.25	-3.0979	-3.1312	-2.2979	-3.2604	-2.7583	-2.3729	-3.0396	-2.1458	-2.8563	-3.1958	133.389	111.013	138.903	378.613	287.506	280.390	348.711	301.432	409.554	269.909	408.365	367.136	124.196	133.616	111.402	340.153	0.00079648	0.0001198	5.5271e-05	1085.8	4.2875e-06	4.2098e-07	1168.9	222.59	5.4326e-06	2.8612e-06	286.54	77.708	62.097	17.763	3.7094e-06	25.047	0.00011948	0.00010458	3.0576e-05	1059.9	1.203e-06	1.1698e-06	1141.9	218.8	1.2071e-06	1.2057e-06	266.51	76.692	59.491	17.781	1.2101e-06	24.959	395.401	182.288	220.393	89.392	161.358	166.329	89.302	96.716	144.532	242.533	96.096	103.297	103.885	110.596	222.890	109.581	-8191	255	
685.514	1	1	0	0	0.21474	0.058195	0.1753	0.25885	0.26812	0.35031	0.064478	0.2822	0.14197	0.10872	0.087918	0.18175	0.098837	0.217	0.073221	0.074897	-1.9208	-3.1771	-2.7542	-2.4771	-3.2958	-2.3229	-2.8708	-3.1667	-2.1792	-3.1729	-2.8229	-2.2271	-3.35	-2.5	-2.8271	-3.2042	206.638	147.861	188.560	416.927	429.130	297.942	190.234	428.832	197.747	84.437	195.639	110.506	171.114	426.224	265.307	399.791	0.00084118	0.00010961	0.00010235	1087.8	4.3975e-06	3.6459e-06	1169.9	223.58	5.242e-06	2.8184e-06	286.55	77.742	62.546	17.756	3.348e-06	25.31	0.0001248	0.00010688	2.9818e-05	1060.5	1.2079e-06	1.1693e-06	1141.9	219.07	1.193e-06	1.1703e-06	267.11	76.706	59.731	17.798	1.2006e-06	24.96	397.311	210.117	190.497	89.251	232.071	230.080	89.055	96.738	180.925	222.451	96.226	103.433	104.035	111.061	202.759	109.846	-8191	255	
685.611	1	1	0	0	0.25286	0.034565	0.12931	0.080796	0.063352	0.13503	0.20697	0.17989	0.040892	0.12886	0.13954	0.10182	0.098889	0.13983	0.057319	0.12477	-1.8104	-3.0083	-2.9062	-2.3063	-3.4604	-2.4062	-2.6937	-3.5375	-2.0979	-2.9042	-3.0729	-2.3146	-3.4625	-2.5208	-2.4896	-3.4458	312.208	136.206	184.722	106.595	120.778	240.271	300.289	401.778	121.088	432.411	172.518	153.400	95.120	401.582	379.061	357.141	0.00075857	0.00020354	2.3592e-05	1085.5	3.3196e-06	1.3149e-06	1170.5	224.54	4.0925e-06	2.1474e-06	287.22	78.174	61.916	17.774	1.7091e-06	25.085	0.00012265	0.00010915	2.9808e-05	1059.9	1.2171e-06	1.1863e-06	1142.2	219.52	1.2255e-06	1.192e-06	267.08	76.685	59.438	17.828	1.1963e-06	24.967	402.007	127.127	99.183	89.392	199.263	211.033	89.300	97.066	170.408	220.428	96.554	103.257	104.214	110.807	263.934	110.460	-8191	255	
685.729	1	1	0	0	0.25285	0.20611	0.30945	0.27883	0.1234	0.16803	0.2629	0.16826	0.32273	0.31632	0.15837	0.0098539	0.14784	0.093249	0.036301	0.097605	-1.8875	-3.1542	-3.075	-2.3688	-3.15	-2.6083	-2.4062	-3.3563	-2.2375	-2.6937	-3.1229	-2.3792	-3.2021	-2.7958	-2.2812	-3.4625	233.821	213.563	293.278	415.428	234.595	182.510	355.949	139.723	292.383	145.243	350.264	89.719	326.609	237.008	130.527	203.449	0.00082532	0.00019097	1.7881e-05	1087.2	3.1277e-06	2.5029e-06	1164.6	222.13	3.5582e-06	5.8726e-07	283.59	77.793	62.257	17.895	3.2894e-06	25.016	0.00012091	0.00010891	2.9793e-05	1057.9	1.2137e-06	1.1892e-06	1141.3	218.48	1.1924e-06	1.1683e-06	266.29	76.583	59.512	17.795	1.1685e-06	24.88	395.431	265.467	231.994	89.409	163.057	169.669	89.570	97.048	170.900	304.748	96.211	103.112	103.430	111.225	224.777	110.506	-8191	255	
685.801	1	1	0	0	0.19027	0.34424	0.18575	0.20797	0.088803	0.028673	0.1064	0.012241	0.076536	0.052514	0.2617	0.10549	0.19844	0.081426	0.11453	0.064999	-2.0896	-2.6875	-3.1729	-2.4104	-3.1312	-2.7833	-2.5854	-3.3688	-2.55	-2.6771	-3.125	-2.1771	-3.1479	-2.9104	-2.3646	-3.2521	104.321	102.741	275.240	105.770	334.380	224.303	201.093	86.646	249.955	202.212	252.905	434.145	116.682	191.342	362.750	157.723	0.00083809	0.00026009	2.9799e-05	1085.1	4.4761e-06	3.4981e-07	1167.5	223.35	5.7382e-06	2.833e-06	288.86	77.914	62.493	17.795	3.6425e-06	25.024	0.00012003	0.00010683	2.9469e-05	1060.4	1.1774e-06	1.1866e-06	1141	219.26	1.1887e-06	1.1545e-06	266.71	76.842	59.537	17.767	1.1611e-06	24.949	390.074	110.816	172.434	89.273	194.002	311.534	89.313	97.131	173.120	201.378	96.439	103.466	103.892	111.035	164.236	110.073	-8191	255	
685.899	1	1	0	0	0.21983	0.34622	0.087215	0.1415	0.20311	0.074532	0.42229	0.17864	0.035284	0.3634	0.15514	0.0057891	0.33382	0.057118	0.15791	0.068235	-1.9708	-2.5771	-3.1437	-2.2333	-2.9167	-2.9562	-2.1979	-3.3167	-2.6125	-2.4625	-3.2708	-2.2125	-2.9708	-2.9458	-2.25	-3.375	291.769	219.947	233.303	380.368	129.118	433.736	384.988	371.670	147.588	416.277	165.134	185.841	177.006	241.140	175.593	141.886	0.00082102	0.00020335	2.9391e-05	1084.2	2.3278e-06	3.7276e-06	1166.8	224	4.5498e-06	1.7693e-06	286.5	77.307	62.66	17.743	1.8286e-06	25.067	0.00011912	0.00010751	2.8664e-05	1056.5	1.1736e-06	1.1395e-06	1139.4	219.35	1.1799e-06	1.1504e-06	267.02	76.547	59.762	17.764	1.1464e-06	24.961	391.855	135.705	123.622	89.409	232.722	231.298	88.947	96.954	119.834	299.928	96.257	103.414	103.874	111.108	91.173	110.081	-8191	255	
686.018	1	1	0	0	0.21855	0.26759	0.028616	0.2268	0.33291	0.065507	0.22449	0.24954	0.35343	0.24401	0.12356	0.067827	0.28119	0.18985	0.30256	0.38572	-2.0938	-2.4042	-3.2708	-2.4833	-2.8354	-3.1208	-2.2625	-3.1854	-2.7479	-2.3479	-3.3438	-2.3563	-2.7854	-3.4021	-2.2083	-3.2375	276.885	345.263	274.370	92.247	364.107	415.971	325.217	352.558	155.887	274.208	232.641	88.755	404.343	395.683	160.043	109.799	0.0008064	0.0001255	0.00010046	1084.4	2.2836e-06	3.4747e-06	1167.7	222.87	5.7019e-06	1.8806e-06	284.36	78.018	62.466	17.877	2.3596e-06	24.931	0.00011621	0.00010531	2.9126e-05	1057.2	1.1908e-06	1.1079e-06	1139.1	218.79	1.1866e-06	1.1311e-06	266.85	76.689	59.719	17.761	1.1554e-06	24.895	391.090	100.724	128.753	89.196	205.926	243.394	89.141	96.956	175.456	270.184	96.787	103.194	103.848	110.593	245.597	110.474	-8191	255	
686.114	1	1	0	0	0.09404	0.12216	0.15612	0.37517	0.10763	0.2453	0.14972	0.11319	0.095892	0.082791	0.087762	0.25608	0.23136	0.25421	0.22284	0.13748	-2.6833	-2.1875	-3.3812	-2.4125	-2.5479	-3.4146	-2.3125	-3.1917	-2.9938	-2.2146	-3.2062	-2.375	-2.4333	-3.3521	-2.0958	-3.1396	132.777	312.715	427.200	433.361	221.351	368.657	217.630	284.864	432.810	145.960	435.652	145.986	388.165	403.181	273.533	92.189	0.00084025	0.00018784	4.7755e-05	1086.1	2.554e-06	3.1702e-06	1171.3	223.55	3.0473e-06	1.8403e-06	287.2	77.661	62.771	17.668	4.9138e-06	25.113	0.00011839	0.00010334	2.8876e-05	1058.4	1.1979e-06	1.1546e-06	1141.6	218.77	1.1613e-06	1.1531e-06	266.86	76.408	59.508	17.735	1.1608e-06	24.942	396.527	359.289	124.702	89.251	258.118	211.123	89.256	96.720	181.006	231.313	96.157	103.106	103.596	110.916	215.203	110.376	-8191	255	
686.210	1	1	0	0	0.023055	0.13384	0.16408	0.099315	0.16685	0.0046935	0.24805	0.2214	0.16814	0.15984	0.34741	0.099576	0.1425	0.31357	0.15312	0.28936	-2.6833	-2.1458	-3.2354	-2.6417	-2.3729	-3.3083	-2.3063	-2.9375	-3.0208	-2.0438	-3.2812	-2.5375	-2.4333	-3.3646	-2.2125	-2.9083	120.692	95.865	274.546	96.972	423.254	83.391	372.522	325.004	85.544	256.391	361.158	430.685	276.412	108.601	244.737	340.112	0.00078582	5.5359e-05	5.3128e-05	1084	2.192e-06	3.2649e-06	1167	224.2	3.2289e-06	1.3051e-06	284.02	77.75	61.96	17.9	4.8738e-06	24.945	0.0001157	0.00010559	2.9102e-05	1058.6	1.1761e-06	1.118e-06	1138.6	219.39	1.1415e-06	1.1437e-06	265.81	76.455	59.596	17.806	1.1257e-06	24.905	401.640	151.519	230.683	89.131	229.750	236.244	88.984	97.128	126.845	273.008	96.471	102.926	103.570	110.739	213.150	110.383	-8191	255	
686.331	1	1	0	0	0.090723	0.15213	0.14139	0.26878	0.23714	0.15202	0.26121	0.19743	0.13654	0.12566	0.11064	0.24424	0.13137	0.11713	0.18413	0.13048	-2.8479	-2.15	-3.15	-2.6188	-2.3438	-3.3417	-2.4229	-2.7271	-3.2938	-2.1083	-3.3167	-2.75	-2.1292	-3.2583	-2.2188	-2.6667	317.860	199.784	262.391	117.874	237.991	123.049	394.719	339.952	383.410	308.636	277.398	401.338	426.730	411.766	368.732	275.408	0.00087241	0.00027921	7.6279e-05	1084.3	4.7459e-06	3.0081e-06	1166.8	222.92	2.0646e-06	3.5525e-06	287.4	77.983	62.621	17.715	2.8929e-06	25.056	0.00011586	0.00010395	2.8459e-05	1058.3	1.1548e-06	1.1313e-06	1141.2	218.9	1.1316e-06	1.1511e-06	266.32	76.616	59.347	17.747	1.1583e-06	24.918	401.611	174.403	215.592	89.036	207.903	267.605	88.782	96.673	211.204	249.578	96.458	103.024	103.827	111.116	235.561	110.447	-8191	255	
686.427	1	1	0	0	0.29113	0.057681	0.24696	0.29473	0.15224	0.19296	0.1185	0.28667	0.18407	0.2057	0.092731	0.15851	0.32562	0.043028	0.074301	0.026437	-2.9188	-2.3042	-2.9562	-2.9875	-2.1813	-3.1104	-2.4437	-2.6437	-3.1625	-2.2104	-3.0604	-2.9229	-2.2208	-3.2729	-2.5833	-2.4583	200.348	158.497	416.895	396.136	432.105	260.055	87.883	317.895	306.780	412.752	251.126	429.159	215.866	91.995	311.869	260.331	0.00083568	8.667e-05	4.9243e-05	1083.1	2.0105e-06	2.1166e-06	1170.2	222.48	9.4171e-06	5.8299e-07	284.55	77.378	62.718	17.718	3.9759e-06	25.071	0.00011444	0.00010208	2.8476e-05	1058.6	1.1681e-06	1.1272e-06	1139.6	218.99	1.143e-06	1.1454e-06	266.42	76.41	59.634	17.741	1.1511e-06	24.927	397.097	319.224	132.601	89.032	232.082	209.428	88.912	96.901	173.731	342.312	96.291	103.163	103.825	110.507	200.848	110.093	-8191	255	
686.499	1	1	0	0	0.22519	0.047052	0.10534	0.14956	0.055351	0.086418	0.14552	0.29741	0.11861	0.24798	0.14761	0.038636	0.2985	0.067107	0.10229	0.12024	-3.0938	-2.0854	-3.0646	-3.2875	-2.0021	-3.3708	-2.9188	-2.6083	-3.3438	-2.3229	-2.9333	-3.2229	-2.2771	-3.4625	-2.7979	-2.4125	246.593	202.314	242.212	109.934	204.782	330.753	421.111	347.331	359.131	325.635	279.651	346.075	325.888	357.524	207.199	401.473	0.0008712	7.6146e-05	2.3656e-05	1087.5	2.2495e-06	1.5791e-06	1165.2	222.7	2.132e-06	1.7901e-06	285.3	77.813	63.047	17.842	1.8873e-06	24.814	0.00011316	0.00010379	2.8418e-05	1059.2	1.1575e-06	1.0901e-06	1140	218.81	1.1148e-06	1.1288e-06	264.95	76.41	59.495	17.716	1.1196e-06	24.78	401.096	275.651	231.571	89.195	172.902	243.437	89.001	96.567	241.819	279.833	96.348	103.086	103.960	111.002	230.456	110.331	-8191	255	
686.595	1	1	0	0	0.08154	0.19196	0.098113	0.24468	0.27184	0.055836	0.27848	0.37333	0.073264	0.13752	0.28146	0.29475	0.14467	0.19749	0.17728	0.21881	-3.2687	-2.5167	-2.7854	-3.1667	-2.0458	-3.1021	-2.9833	-2.4021	-3.2188	-2.4396	-2.7146	-3.2646	-2.1771	-3.2271	-2.85	-2.2271	206.411	216.902	238.012	328.532	403.467	276.531	78.801	337.101	205.112	310.973	284.323	407.711	430.294	419.335	408.510	402.096	0.00085492	0.0001932	6.6395e-05	1086.5	3.3822e-06	2.0572e-06	1165.5	222.56	4.5392e-06	3.4295e-06	282.3	77.461	62.699	17.828	3.2247e-06	25.074	0.00011376	0.00010438	2.8959e-05	1059.2	1.1773e-06	1.1547e-06	1138.3	218.74	1.117e-06	1.1209e-06	265.68	76.42	59.558	17.779	1.1466e-06	24.958	398.553	230.488	170.552	89.354	172.400	200.274	89.209	96.652	201.032	154.832	96.817	103.237	104.169	111.124	208.188	110.171	-8191	255	
686.714	1	1	0	0	0.11055	0.15464	0.28432	0.30295	0.063612	0.086396	0.36593	0.072199	0.1897	0.20596	0.13533	0.28872	0.10422	0.31327	0.23337	0.13314	-3.1146	-2.3354	-2.6583	-3.5521	-2.2021	-3.1667	-2.9875	-2.3312	-3.1958	-2.7646	-2.5625	-3.3438	-2.1562	-3.0646	-2.9083	-2.0583	161.032	198.401	395.100	410.818	96.326	351.435	351.981	91.700	402.777	183.812	405.895	364.452	417.231	365.727	167.075	166.242	0.00079646	0.00017418	8.5636e-05	1085.1	6.0943e-06	2.0677e-06	1170.4	223.86	1.2424e-06	3.9821e-06	286.82	77.8	62.042	17.951	6.4985e-07	25.147	0.00011473	0.00010382	2.8199e-05	1059	1.164e-06	1.1118e-06	1139.6	219.4	1.1306e-06	1.1148e-06	266.63	76.539	59.424	17.781	1.1213e-06	25.012	400.546	206.399	172.075	89.365	198.775	215.985	88.856	96.988	193.346	211.073	96.303	103.642	103.304	111.232	233.018	110.458	-8191	255	
686.810	1	1	0	0	0.21417	0.102	0.24044	0.33042	0.027102	0.2423	0.086254	0.12377	0.080416	0.27426	0.36039	0.20721	0.14068	0.22709	0.16192	0.28763	-2.9083	-2.2833	-2.375	-3.3417	-2.2313	-2.8208	-3.2562	-2.2458	-3.1958	-2.6479	-2.3875	-3.5729	-2.2188	-2.825	-3.2313	-2.2562	95.406	272.480	419.356	433.784	178.725	184.449	360.332	393.414	104.245	204.049	359.408	187.600	175.169	208.796	164.294	384.034	0.00072325	0.00025425	5.3394e-05	1085.3	3.7202e-06	4.1738e-06	1166.9	223	2.4505e-06	3.623e-06	286.64	78.258	62.802	17.877	7.9219e-07	25.202	0.00011223	0.00010237	2.8056e-05	1057.1	1.1436e-06	1.1177e-06	1138.4	219.09	1.1423e-06	1.1207e-06	266.14	76.467	59.441	17.757	1.117e-06	24.917	395.698	135.035	165.558	89.464	175.437	185.200	89.360	97.006	246.822	192.438	96.664	103.523	103.728	110.979	364.329	110.694	-8191	255	
686.906	1	1	0	0	0.10764	0.16459	0.24187	0.15625	0.17911	0.21066	0.084178	0.045467	0.028669	0.18299	0.067553	0.043045	0.26885	0.19117	0.2351	0.22115	-2.9813	-2.8917	-2.0667	-3.4292	-2.225	-2.6958	-3.3958	-2.3583	-3.0021	-2.9125	-2.3063	-3.4521	-2.4896	-2.6854	-3.1813	-1.9833	272.806	214.788	107.307	226.085	371.333	335.213	151.606	384.481	266.050	98.110	277.861	384.265	430.148	350.562	339.261	210.492	0.000865	0.00023125	3.3374e-05	1084.7	4.1749e-06	7.7092e-07	1164.1	222.95	3.2413e-06	5.262e-07	285.76	77.994	62.131	17.829	4.722e-06	24.957	0.00011605	0.00010587	2.9114e-05	1058.8	1.1434e-06	1.1148e-06	1137.4	218.71	1.1463e-06	1.0835e-06	264.8	76.52	59.303	17.738	1.1213e-06	24.837	393.055	236.687	158.057	89.293	175.654	312.460	89.335	97.079	203.479	180.074	96.852	103.467	104.158	111.299	172.552	110.280	-8191	255	
687.002	1	1	0	0	0.081885	0.15495	0.22148	0.46338	0.095359	0.17701	0.22468	0.050212	0.15136	0.098358	0.33906	0.18321	0.13126	0.070102	0.18325	0.17858	-2.6875	-2.9167	-2.2104	-3.4271	-2.5542	-2.425	-3.3792	-2.3646	-2.9938	-3.0917	-2.2375	-3.1979	-2.575	-2.2146	-3.3479	-2.1937	125.298	217.624	295.445	386.630	185.160	235.939	313.480	187.334	95.902	405.645	131.820	357.558	395.731	84.279	255.612	282.987	0.00084488	0.00011973	0.00011027	1081.3	3.9913e-06	5.1168e-06	1166	224.24	3.3253e-06	3.5978e-06	288.33	77.598	62.702	17.773	2.3192e-06	25.086	0.00011658	0.00010345	2.7411e-05	1056.8	1.1299e-06	1.1302e-06	1139.7	219.01	1.1318e-06	1.0917e-06	266.79	76.579	59.227	17.749	1.0926e-06	24.934	392.924	103.598	152.621	89.372	179.696	218.991	89.180	96.752	141.546	233.928	96.522	102.988	103.652	111.930	192.911	109.813	-8191	255	
687.098	1	1	0	0	0.18071	0.021373	0.10865	0.1943	0.074937	0.11937	0.2137	0.12445	0.041089	0.14011	0.22352	0.19488	0.21849	0.38951	0.15618	0.27241	-2.5563	-3.0292	-2.0667	-3.1917	-2.6688	-2.1896	-3.5125	-2.4729	-2.6813	-3.1562	-2.1312	-3.1792	-2.7438	-2.3625	-3.1437	-2.3896	288.785	239.718	405.206	304.616	99.027	198.596	110.199	282.693	139.235	292.460	126.240	117.385	312.652	433.057	117.956	80.744	0.00086492	0.00028036	7.3258e-05	1085.5	3.4623e-06	1.5841e-06	1163.9	223.93	2.7485e-06	2.0162e-06	288.3	77.721	63.419	17.825	4.0762e-06	24.98	0.00011418	9.9075e-05	2.7603e-05	1058.2	1.1572e-06	1.1257e-06	1138.7	218.98	1.1326e-06	1.0606e-06	266.48	76.556	59.824	17.807	1.0886e-06	24.866	407.061	195.336	182.572	89.498	214.364	260.287	89.052	96.862	153.324	238.596	96.577	103.112	103.712	111.131	227.299	109.904	-8191	255	
687.194	1	1	0	0	0.15991	0.23155	0.075049	0.45624	0.18313	0.17071	0.16662	0.2806	0.262	0.084826	0.089704	0.16151	0.18718	0.37899	0.071775	0.27198	-2.5854	-3.0708	-1.9688	-3.0854	-2.8229	-2.0833	-3.5104	-2.5354	-2.4813	-3.4021	-2.0812	-3.1708	-2.95	-2.0896	-3.2667	-2.7333	425.046	426.673	427.985	82.890	90.719	246.811	301.642	397.663	220.011	434.408	200.510	383.813	100.517	434.805	241.960	374.001	0.00078345	8.5039e-05	4.1131e-05	1083.7	3.2699e-06	3.2328e-06	1165.8	222.33	4.1624e-06	1.4554e-06	286.46	77.544	61.83	17.809	1.3947e-06	25.078	0.00011199	9.8276e-05	2.8052e-05	1057.8	1.1098e-06	1.0603e-06	1139.7	218.56	1.1129e-06	1.0493e-06	265.8	76.332	59.357	17.745	1.1045e-06	24.891	403.474	187.772	190.159	89.241	274.720	187.970	88.900	96.876	181.976	163.803	96.659	103.433	103.164	110.837	337.108	110.100	-8191	255	
687.291	1	1	0	0	0.32505	0.19518	0.16036	0.18333	0.44414	0.20918	0.18227	0.047698	0.12127	0.26896	0.12123	0.063949	0.070114	0.079278	0.3621	0.086333	-2.1063	-3.3958	-2.2521	-3.2792	-2.8354	-2.0396	-3.4833	-2.7167	-2.3292	-3.3042	-2.3875	-2.9146	-3.0417	-2.1167	-3.225	-2.7104	389.545	339.011	208.012	375.667	116.343	377.752	356.073	369.767	346.548	236.232	171.908	95.756	312.739	148.700	202.345	115.545	0.00071712	0.00021507	1.8057e-05	1090.9	4.1428e-06	2.4807e-06	1167.3	222.6	3.7243e-06	8.8107e-07	285.71	77.982	62.033	17.814	2.2268e-06	24.971	0.00011124	9.9495e-05	2.8643e-05	1060.9	1.1228e-06	1.0978e-06	1138.9	218.69	1.1016e-06	1.0775e-06	265.83	76.563	59.246	17.752	1.1099e-06	24.883	392.618	179.957	130.908	89.110	229.190	212.930	89.078	96.866	170.028	175.400	96.910	103.177	103.540	111.084	235.393	109.900	-8191	255	
687.411	1	1	0	0	0.12413	0.088444	0.11481	0.2157	0.081676	0.037545	0.26124	0.20955	0.14027	0.22109	0.070529	0.2381	0.23227	0.20743	0.1073	0.18908	-1.9688	-3.2521	-2.2667	-2.9917	-3.1813	-2.0208	-3.1813	-2.8604	-2.3	-3.3688	-2.4521	-2.6458	-3.3417	-2.1583	-3.1583	-3.1063	234.125	391.049	379.838	384.441	315.622	264.921	330.706	84.195	262.231	290.387	332.494	96.337	434.886	194.658	320.603	190.397	0.00077491	0.00021941	3.2642e-05	1081.9	3.1418e-06	2.6642e-06	1167.2	222.85	3.8175e-06	3.4006e-06	287.97	77.992	62.519	17.828	1.5566e-06	24.992	0.00011082	0.00010068	2.7889e-05	1058.4	1.1329e-06	1.1004e-06	1139.5	219.05	1.1077e-06	1.1228e-06	266	76.729	59.424	17.743	1.0944e-06	24.864	393.885	246.426	213.385	89.096	202.028	279.451	89.190	96.562	148.563	247.005	96.602	103.157	103.394	110.724	199.695	110.347	-8191	255	
687.507	1	1	0	0	0.32637	0.15454	0.26147	0.056509	0.095132	0.10879	0.24127	0.18621	0.11807	0.10142	0.17482	0.12258	0.15158	0.17806	0.22476	0.33154	-1.8937	-3.1375	-2.2417	-2.7979	-3.2583	-2.1	-3.0438	-2.9875	-2.0896	-3.2083	-2.6896	-2.5854	-3.2208	-2.1813	-2.8604	-3.0771	432.892	221.462	291.322	157.936	109.141	383.321	386.013	90.020	106.115	320.044	302.718	338.912	422.451	197.388	304.149	418.306	0.00082944	8.2582e-05	6.1462e-05	1085.5	3.7354e-06	6.7639e-07	1169.3	223.07	4.87e-06	1.7611e-06	284.48	77.372	62.926	17.771	2.3077e-06	25.083	0.00011487	9.9339e-05	2.8449e-05	1059.6	1.102e-06	1.1074e-06	1142	218.79	1.1304e-06	1.0976e-06	264.68	76.529	59.544	17.768	1.1302e-06	24.935	390.828	143.085	237.602	89.240	193.803	336.850	89.031	96.942	164.481	292.307	96.064	103.510	103.881	110.899	204.202	110.082	-8191	255	
687.604	1	1	0	0	0.2658	0.095066	0.35935	0.22888	0.29984	0.29921	0.21974	0.19092	0.0093897	0.27616	0.030508	0.11015	0.022599	0.16518	0.28056	0.15297	-1.9021	-3.2896	-2.5417	-2.4521	-3.3333	-2.2812	-3.1188	-3.0875	-2.1271	-3.3021	-2.5646	-2.3167	-3.2313	-2.1875	-2.7708	-3.1437	359.574	91.013	164.194	333.587	281.354	270.476	331.533	307.537	327.463	354.709	359.980	355.215	102.812	435.783	190.356	222.026	0.00074426	6.2444e-05	3.8717e-05	1087.2	3.6631e-06	2.4312e-06	1170.2	222.59	3.7685e-06	3.6083e-06	283.43	77.601	62.259	17.813	2.8782e-06	25.047	0.00011104	9.877e-05	2.7849e-05	1059.5	1.1243e-06	1.0897e-06	1141.9	218.67	1.1307e-06	1.0502e-06	265.5	76.619	59.425	17.781	1.0851e-06	24.925	395.722	251.727	99.035	89.147	169.235	229.361	89.067	96.954	142.701	218.807	96.339	103.271	103.652	111.331	188.053	110.101	-8191	255	
687.700	1	1	0	0	0.15458	0.20196	0.24616	0.24301	0.089917	0.011918	0.32182	0.16208	0.136	0.22635	0.077992	0.14438	0.17702	0.046924	0.11584	0.20724	-1.8917	-3.2792	-2.7354	-2.3854	-3.2854	-2.275	-3.0062	-3.3833	-2.3292	-2.9271	-2.8917	-2.3396	-3.2375	-2.3646	-2.425	-3.325	147.675	152.859	345.535	387.246	187.456	273.028	407.734	306.123	397.158	271.427	422.746	397.674	329.286	139.097	210.275	388.084	0.00083337	0.00026031	0.00011088	1087.7	4.017e-06	1.0361e-06	1167.7	222.48	2.5206e-06	5.9095e-06	285.21	77.606	62.868	17.892	3.8381e-06	25.227	0.0001121	9.5152e-05	2.7419e-05	1060	1.0928e-06	1.0773e-06	1140.4	218.66	1.0974e-06	1.0717e-06	266.53	76.422	59.795	17.797	1.0839e-06	24.951	396.636	171.741	153.054	89.311	185.003	98.884	89.046	96.646	131.146	235.638	96.638	103.257	103.849	110.775	249.412	109.969	-8191	255	
687.794	1	1	0	0	0.12379	0.2027	0.19318	0.20734	0.2087	0.14817	0.13545	0.17081	0.05688	0.07079	0.11365	0.27977	0.083775	0.085617	0.36392	0.32989	-1.775	-2.8937	-3.0146	-2.3604	-3.3146	-2.5125	-2.6292	-3.2667	-2.0521	-2.9417	-3.1896	-2.2625	-3.2479	-2.5187	-2.2375	-3.3771	134.684	164.044	168.619	421.401	290.925	250.646	386.995	367.962	295.026	205.338	123.435	378.882	387.653	150.559	347.759	378.732	0.00082265	0.00032604	2.0382e-05	1087.6	2.2531e-06	2.6635e-06	1172.4	224.33	5.0273e-06	1.666e-06	285.86	78.308	63.103	17.794	3.382e-06	25.121	0.00011109	9.8055e-05	2.725e-05	1059.7	1.0745e-06	1.0701e-06	1143.6	219.22	1.067e-06	1.0513e-06	265.7	76.633	59.449	17.745	1.0345e-06	24.94	404.640	159.383	158.217	89.268	234.342	240.238	89.271	96.765	132.028	239.865	96.620	103.441	103.693	111.102	192.184	110.553	-8191	255	
687.890	1	1	0	0	0.24256	0.077736	0.27293	0.18262	0.13911	0.29891	0.19731	0.16583	0.040366	0.18167	0.21917	0.14275	0.10043	0.34078	0.14137	0.2196	-1.95	-2.9875	-3.1708	-2.4437	-3.0125	-2.6479	-2.45	-3.4271	-2.2417	-2.6312	-3.2021	-2.0917	-3.175	-2.9146	-2.3812	-3.625	379.325	399.578	186.712	393.833	95.965	150.043	411.890	405.092	225.686	319.631	288.244	382.453	344.944	117.304	318.648	383.604	0.00069808	0.00032645	5.7223e-05	1083.9	3.43e-06	1.452e-06	1170.2	223.6	5.605e-06	3.4976e-06	284.62	77.725	62.684	17.824	3.4726e-06	24.938	0.00010778	9.4912e-05	2.5926e-05	1058.5	1.0607e-06	1.0248e-06	1140.1	219.46	1.0665e-06	1.0348e-06	265.47	76.556	59.599	17.779	1.039e-06	24.931	398.317	157.229	209.657	89.194	225.189	189.176	89.233	96.783	138.724	232.025	95.831	103.191	104.236	111.222	265.068	109.870	-8191	255	
688.011	1	1	0	0	0.10166	0.11639	0.099578	0.06918	0.21496	0.091135	0.26488	0.11577	0.070252	0.075756	0.18754	0.24906	0.28999	0.10294	0.11277	0.17688	-2.025	-2.6771	-3.1479	-2.0521	-3.1292	-2.7938	-2.3729	-3.2771	-2.3604	-2.6708	-3.3042	-2.1375	-3.0875	-2.9167	-2.1479	-3.3604	426.281	220.317	214.694	324.045	396.969	357.767	370.023	356.941	374.586	204.582	435.070	322.844	341.097	135.508	360.791	422.051	0.00092459	0.00028863	3.0325e-05	1081.6	2.0774e-06	6.5914e-07	1163.2	223.25	3.414e-06	3.3784e-06	287.01	77.772	62.453	17.79	3.7045e-06	24.916	0.00010589	9.1892e-05	2.5444e-05	1056.9	1.0231e-06	1.0249e-06	1137.8	218.79	1.0548e-06	1.0007e-06	265.62	76.588	59.423	17.745	1.0127e-06	24.856	397.506	117.517	126.777	89.014	141.254	303.601	89.112	96.922	166.393	280.497	96.448	102.670	103.363	110.839	175.400	109.863	-8191	255	
688.107	1	1	0	0	0.15556	0.06286	0.045273	0.15101	0.17669	0.17078	0.30276	0.18103	0.042761	0.25514	0.075799	0.12034	0.12657	0.41351	0.10344	0.083165	-2.2021	-2.4167	-3.2208	-2.2146	-2.9271	-2.9646	-2.2938	-3.4771	-2.5917	-2.5146	-3.4938	-2.2354	-2.8521	-3.025	-2.0625	-3.3271	242.596	95.452	401.048	403.710	96.172	179.434	401.874	85.485	346.205	377.488	124.707	81.429	199.947	343.111	104.514	370.729	0.00075692	0.00030195	7.8018e-05	1087.6	2.658e-06	3.215e-06	1171.6	224.26	5.4652e-06	2.6591e-06	285.04	77.736	62.905	17.779	1.5284e-06	25.075	0.00010586	9.2123e-05	2.5247e-05	1059.4	1.0248e-06	9.979e-07	1140.3	219.13	1.0191e-06	9.8556e-07	265.31	76.49	59.635	17.767	9.7962e-07	24.943	397.907	165.188	150.825	89.215	191.959	216.461	88.886	97.257	197.066	206.093	95.593	103.162	104.178	110.870	196.788	110.423	-8191	255	
688.203	1	1	0	0	0.020627	0.22474	0.12842	0.16449	0.18162	0.16818	0.11065	0.20157	0.40405	0.11628	0.13961	0.22792	0.22891	0.28782	0.1095	0.10336	-2.3583	-2.4271	-3.2646	-2.4271	-2.5438	-3.0521	-2.3646	-3.2188	-2.5521	-2.1333	-3.3583	-2.275	-2.5354	-3.3333	-2.1958	-3.2938	152.426	82.241	89.073	84.676	329.505	407.400	396.687	120.676	258.165	227.748	127.802	102.021	111.053	287.956	146.441	128.754	0.00070351	0.00047607	3.5878e-05	1086.4	3.1298e-06	3.7759e-06	1168.5	223.6	8.3476e-06	2.3533e-06	286.74	77.583	62.608	17.813	3.3034e-06	25.113	0.00010212	8.764e-05	2.4867e-05	1056.7	1.0142e-06	9.6452e-07	1139.2	218.83	1.0065e-06	9.647e-07	264.63	76.481	59.257	17.704	9.8016e-07	24.951	396.587	215.324	207.583	89.278	305.404	231.875	89.146	96.958	171.746	255.274	96.412	103.301	103.953	111.097	189.554	110.468	-8191	255	
688.299	1	1	0	0	0.21131	0.055897	0.24642	0.1238	0.20936	0.22205	0.12416	0.17351	0.060644	0.24149	0.069382	0.13853	0.17441	0.10767	0.048874	0.10981	-2.6083	-2.1375	-3.3688	-2.4646	-2.4354	-3.1271	-2.0917	-2.8958	-2.7729	-2.0958	-3.2542	-2.5521	-2.3563	-3.2667	-2.1542	-2.9604	142.678	271.473	217.055	95.529	242.613	85.000	407.463	348.373	272.014	167.038	411.391	388.167	364.793	162.696	423.334	417.931	0.00095867	0.00048522	6.8928e-05	1079.8	3.178e-06	3.0215e-06	1163.5	223.97	4.0328e-06	8.5312e-07	283.51	77.504	62.475	17.844	1.0992e-06	24.96	0.00010245	9.0056e-05	2.4977e-05	1057.1	1.0323e-06	9.7025e-07	1138.5	219.04	1.0391e-06	9.6939e-07	265.5	76.428	59.287	17.741	9.7054e-07	24.853	399.118	205.173	149.049	89.092	182.116	248.791	89.193	97.088	152.238	222.135	96.577	102.881	104.375	110.955	99.815	109.915	-8191	255	
688.395	1	1	0	0	0.14926	0.060296	0.15401	0.16941	0.17291	0.090631	0.086775	0.15987	0.1324	0.34246	0.12005	0.2959	0.24038	0.18292	0.057069	0.038017	-2.8667	-2.0375	-3.275	-2.7917	-2.4521	-3.2125	-2.4958	-2.9896	-2.7938	-2.1021	-3.0938	-2.4604	-2.2917	-3.3625	-2.3979	-2.9021	411.892	299.186	385.795	409.415	135.458	139.305	429.043	177.919	317.380	410.776	369.245	258.086	423.924	412.911	184.511	332.978	0.00078687	0.0003259	2.5601e-05	1089.3	4.9404e-06	1.6306e-06	1163.9	222.8	6.6734e-06	3.1256e-06	286.83	77.768	61.924	17.663	2.1013e-06	24.959	0.00010095	8.9649e-05	2.4624e-05	1058.8	1.0128e-06	9.5605e-07	1137.6	218.75	9.9456e-07	9.899e-07	265.91	76.513	59.21	17.671	9.9247e-07	24.872	396.925	185.793	253.986	89.196	205.512	220.537	89.122	97.190	172.228	261.076	96.521	102.899	104.164	111.241	176.497	110.305	-8191	255	
#DATA ENDS
