BOXY.EXE: ISS Imagent and Oximeter Data Acquisition Program Version 0.80
Ascii Record File

#ACQ INFORMATION
2  Detector Channels 
16  External MUX Channels 
1  Auxiliary Channels 
5000  Waveform (CCF) Frequency (Hz)
1  Waveforms Skipped 
30  Waveforms Averaged 
1  Cycles Averaged 
16  Acquisitions per Waveform 
10.0806  Updata Rate (Hz) 

#FILE INFORMATION
TRUE -- External MUX Channel results are PARSED.
FALSE -- AC DC and Phase are NOT grouped.
TRUE -- Companion Program Settings File CREATED.
FALSE -- AC data not excluded
FALSE -- DC data not excluded
FALSE -- Phase data not excluded
FALSE -- Auxillary Chn. data not excluded
Tab delimiters

#CALIBRATION STATE
TRUE -- Waveform Calibration Values APPLIED.


#AUX CALIBRATION VALUES
Val Type	aux-1	

Term	1.0000e+00	
Factor	0.0000e+00	


#WF CALIBRATION VALUES
A = Detector Channel
Val Type	A-AC1	A-AC2	A-AC3	A-AC4	A-AC5	A-AC6	A-AC7	A-AC8	A-AC9	A-AC10	A-AC11	A-AC12	A-AC13	A-AC14	A-AC15	A-AC16	A-DC1	A-DC2	A-DC3	A-DC4	A-DC5	A-DC6	A-DC7	A-DC8	A-DC9	A-DC10	A-DC11	A-DC12	A-DC13	A-DC14	A-DC15	A-DC16	A-Ph1	A-Ph2	A-Ph3	A-Ph4	A-Ph5	A-Ph6	A-Ph7	A-Ph8	A-Ph9	A-Ph10	A-Ph11	A-Ph12	A-Ph13	A-Ph14	A-Ph15	A-Ph16	

Term	0.00000e+00	0.00000e+00	0.00000e+00	0.00000e+00	0.00000e+00	0.00000e+00	0.00000e+00	0.00000e+00	0.00000e+00	0.00000e+00	0.00000e+00	0.00000e+00	0.00000e+00	0.00000e+00	0.00000e+00	0.00000e+00	0.00000e+00	0.00000e+00	0.00000e+00	0.00000e+00	0.00000e+00	0.00000e+00	0.00000e+00	0.00000e+00	0.00000e+00	0.00000e+00	0.00000e+00	0.00000e+00	0.00000e+00	0.00000e+00	0.00000e+00	0.00000e+00	0.00000e+00	0.00000e+00	0.00000e+00	0.00000e+00	0.00000e+00	0.00000e+00	0.00000e+00	0.00000e+00	0.00000e+00	0.00000e+00	0.00000e+00	0.00000e+00	0.00000e+00	0.00000e+00	0.00000e+00	0.00000e+00	
Factor	1.00000e+00	1.00000e+00	1.00000e+00	1.00000e+00	1.00000e+00	1.00000e+00	1.00000e+00	1.00000e+00	1.00000e+00	1.00000e+00	1.00000e+00	1.00000e+00	1.00000e+00	1.00000e+00	1.00000e+00	1.00000e+00	1.00000e+00	1.00000e+00	1.00000e+00	1.00000e+00	1.00000e+00	1.00000e+00	1.00000e+00	1.00000e+00	1.00000e+00	1.00000e+00	1.00000e+00	1.00000e+00	1.00000e+00	1.00000e+00	1.00000e+00	1.00000e+00	X	X	X	X	X	X	X	X	X	X	X	X	X	X	X	X	

B = Detector Channel
Val Type	B-AC1	B-AC2	B-AC3	B-AC4	B-AC5	B-AC6	B-AC7	B-AC8	B-AC9	B-AC10	B-AC11	B-AC12	B-AC13	B-AC14	B-AC15	B-AC16	B-DC1	B-DC2	B-DC3	B-DC4	B-DC5	B-DC6	B-DC7	B-DC8	B-DC9	B-DC10	B-DC11	B-DC12	B-DC13	B-DC14	B-DC15	B-DC16	B-Ph1	B-Ph2	B-Ph3	B-Ph4	B-Ph5	B-Ph6	B-Ph7	B-Ph8	B-Ph9	B-Ph10	B-Ph11	B-Ph12	B-Ph13	B-Ph14	B-Ph15	B-Ph16	

Term	0.00000e+00	0.00000e+00	0.00000e+00	0.00000e+00	0.00000e+00	0.00000e+00	0.00000e+00	0.00000e+00	0.00000e+00	0.00000e+00	0.00000e+00	0.00000e+00	0.00000e+00	0.00000e+00	0.00000e+00	0.00000e+00	0.00000e+00	0.00000e+00	0.00000e+00	0.00000e+00	0.00000e+00	0.00000e+00	0.00000e+00	0.00000e+00	0.00000e+00	0.00000e+00	0.00000e+00	0.00000e+00	0.00000e+00	0.00000e+00	0.00000e+00	0.00000e+00	-2.24060e+02	-1.11729e+02	-1.18567e+02	-1.84289e+02	-1.11961e+02	-6.00827e+01	-1.55886e+02	-1.62015e+02	-1.01531e+02	-6.74875e+01	-1.85687e+02	-1.70606e+02	-1.87784e+02	-1.76603e+02	-9.45758e+01	-1.49601e+02	
Factor	5.43509e-05	1.63650e-04	4.33084e-05	2.33733e-01	1.94758e-06	1.75263e-06	1.64518e-01	5.27251e-02	1.66082e-06	1.87297e-06	2.24341e-01	3.14586e-02	6.61009e-02	9.37024e-03	1.76255e-06	1.36036e-02	1.76928e-06	1.83696e-06	5.12401e-07	1.16323e-01	2.00414e-08	2.01515e-08	7.78427e-02	2.64679e-02	1.99929e-08	2.01544e-08	1.02877e-01	1.51848e-02	3.14592e-02	4.69440e-03	2.00290e-08	6.58755e-03	X	X	X	X	X	X	X	X	X	X	X	X	X	X	X	X	



#DISTANCE SETTINGS
A = Detector Channel
A-1	A-2	A-3	A-4	A-5	A-6	A-7	A-8	A-9	A-10	A-11	A-12	A-13	A-14	A-15	A-16	

2.5000e+00	3.0000e+00	2.5000e+00	3.0000e+00	2.0000e+00	3.0000e+00	1.5000e+00	3.0000e+00	3.0000e+00	3.0000e+00	3.0000e+00	3.0000e+00	3.0000e+00	3.0000e+00	1.5000e+00	3.0000e+00	

B = Detector Channel
B-1	B-2	B-3	B-4	B-5	B-6	B-7	B-8	B-9	B-10	B-11	B-12	B-13	B-14	B-15	B-16	

1.0000e+01	1.0000e+01	1.0000e+01	1.4400e+00	1.0000e+01	1.0000e+01	1.5100e+00	1.9400e+00	1.0000e+01	1.0000e+01	1.9900e+00	2.4900e+00	2.4100e+00	2.9000e+00	1.0000e+01	2.9800e+00	




#DATA BEGINS
time	group	step	mark	flag	A-AC1	A-AC2	A-AC3	A-AC4	A-AC5	A-AC6	A-AC7	A-AC8	A-AC9	A-AC10	A-AC11	A-AC12	A-AC13	A-AC14	A-AC15	A-AC16	A-DC1	A-DC2	A-DC3	A-DC4	A-DC5	A-DC6	A-DC7	A-DC8	A-DC9	A-DC10	A-DC11	A-DC12	A-DC13	A-DC14	A-DC15	A-DC16	A-Ph1	A-Ph2	A-Ph3	A-Ph4	A-Ph5	A-Ph6	A-Ph7	A-Ph8	A-Ph9	A-Ph10	A-Ph11	A-Ph12	A-Ph13	A-Ph14	A-Ph15	A-Ph16	B-AC1	B-AC2	B-AC3	B-AC4	B-AC5	B-AC6	B-AC7	B-AC8	B-AC9	B-AC10	B-AC11	B-AC12	B-AC13	B-AC14	B-AC15	B-AC16	B-DC1	B-DC2	B-DC3	B-DC4	B-DC5	B-DC6	B-DC7	B-DC8	B-DC9	B-DC10	B-DC11	B-DC12	B-DC13	B-DC14	B-DC15	B-DC16	B-Ph1	B-Ph2	B-Ph3	B-Ph4	B-Ph5	B-Ph6	B-Ph7	B-Ph8	B-Ph9	B-Ph10	B-Ph11	B-Ph12	B-Ph13	B-Ph14	B-Ph15	B-Ph16	aux-1	digaux	

3576.387	1	1	0	768	0.14659	0.072148	0.15441	0.22703	0.029782	0.10492	0.1168	0.30993	0.18366	0.16955	0.34753	0.16204	0.31882	0.18044	0.16871	0.20686	-1.5	-1.8729	-1.4875	-2.2062	-1.6812	-1.8271	-2.1229	-1.7563	-2.1042	-2.1375	-1.5792	-1.9875	-1.9333	-1.7563	-2.2438	-1.7708	213.365	198.751	226.583	110.795	418.608	127.072	347.006	411.732	113.948	168.488	425.551	186.705	129.125	461.141	158.791	418.451	0.0020296	0.00070713	0.00011722	825.8	5.0687e-06	8.7408e-06	886.95	326.87	9.5952e-06	8.2433e-06	399.66	158.5	123.26	46.399	5.0433e-06	66.217	0.00016588	0.00012357	3.4723e-05	675.83	1.4028e-06	1.3548e-06	725.87	268.78	1.3545e-06	1.4239e-06	311.67	128.42	96.414	38.476	1.3903e-06	54.405	443.697	313.240	232.768	114.850	293.589	224.839	114.396	120.691	269.393	227.034	119.254	123.933	124.722	130.699	194.575	127.530	-8191	255	
3576.483	1	1	0	0	0.013453	0.15561	0.20211	0.13545	0.20427	0.20688	0.38416	0.087077	0.21664	0.099094	0.084597	0.19109	0.27509	0.1978	0.18389	0.24285	-1.5146	-2.0042	-1.4792	-1.8521	-1.9417	-1.6354	-2.175	-1.6833	-1.975	-1.9167	-1.7	-1.9729	-2.0167	-1.9083	-2.0979	-1.85	332.029	166.574	373.588	396.783	447.897	128.194	404.098	406.789	199.537	292.351	398.183	347.144	418.358	402.740	254.437	451.459	0.001702	0.00094689	6.8834e-05	825.13	5.9769e-06	5.0252e-06	869.35	327.02	1.0141e-05	4.4468e-06	389.83	156.07	122.25	46.349	5.5992e-06	66.007	0.00015458	0.00012478	3.5315e-05	673.76	1.3982e-06	1.3376e-06	716.24	268.43	1.3605e-06	1.3913e-06	308.06	126.96	95.542	38.511	1.3671e-06	54.178	439.736	161.990	189.455	115.755	175.560	272.140	114.745	121.039	230.264	273.549	118.943	123.484	125.056	130.774	248.197	127.617	-8191	255	
3576.579	1	1	0	0	0.19449	0.019386	0.060652	0.22635	0.2217	0.22374	0.11543	0.1806	0.076313	0.21987	0.11879	0.15401	0.17603	0.25726	0.15701	0.15864	-1.6229	-1.9917	-1.7146	-2.0708	-2.0917	-1.6375	-2.1292	-2.0521	-1.9312	-2.1604	-1.6271	-2.0187	-2.1125	-1.6375	-2	-2.0646	283.670	176.738	294.968	420.545	264.511	153.006	382.216	254.987	305.242	245.602	223.592	134.786	385.054	391.023	204.237	349.096	0.0016591	0.00073197	0.00012607	825.64	8.5454e-06	3.6571e-06	876.91	326.83	7.7311e-06	4.0215e-06	392.76	156.07	124.04	47.012	1.0202e-05	66.612	0.00015413	0.0001249	3.3883e-05	676.09	1.4334e-06	1.3294e-06	718.61	268.67	1.4287e-06	1.3762e-06	310.91	127.48	96.346	38.768	1.3729e-06	54.517	443.518	194.644	186.195	115.451	174.372	174.425	114.139	120.616	182.556	299.776	118.937	123.451	125.159	130.707	236.191	127.667	-8191	255	
3576.675	1	1	0	0	0.22642	0.42608	0.12074	0.17894	0.26217	0.24849	0.18814	0.18881	0.21313	0.25207	0.17733	0.16051	0.1579	0.2203	0.13255	0.43099	-1.2417	-2.0292	-1.6646	-1.9208	-2.0479	-1.5812	-2.1479	-2.0062	-1.9062	-2.1562	-1.5938	-2.0396	-2.1229	-1.7083	-2.0896	-1.9271	348.148	421.068	318.678	135.935	382.986	405.588	437.247	387.649	268.606	244.898	437.533	123.323	112.090	427.623	395.685	387.589	0.0015287	0.00029497	0.00018142	827.52	8.3928e-06	5.0818e-06	879.16	327.25	7.0069e-06	6.8027e-06	390.91	157.23	123.79	47.223	1.0314e-05	67.263	0.00015833	0.00012471	3.3553e-05	673.15	1.4074e-06	1.3758e-06	719.97	268.92	1.3892e-06	1.3391e-06	309.98	128.83	96.79	38.96	1.3833e-06	55.176	438.078	167.216	182.606	115.305	163.111	415.466	114.449	120.626	154.149	213.007	118.178	123.855	125.108	130.761	229.295	127.599	-8191	255	
3576.770	1	1	0	0	0.25968	0.087667	0.27981	0.097275	0.18078	0.049685	0.26393	0.28784	0.082398	0.22838	0.28067	0.28526	0.041479	0.16531	0.056936	0.25808	-1.1375	-1.9021	-1.7833	-1.9604	-1.9958	-1.6375	-2.1625	-1.9333	-1.6646	-2.1479	-1.5667	-1.8146	-2.2792	-1.7188	-1.9271	-2.0062	236.390	325.508	112.271	307.884	172.914	398.762	364.204	369.312	218.448	266.236	275.993	461.770	326.838	178.166	380.841	345.139	0.0016349	0.00019646	0.00028672	824.98	6.7889e-06	6.3194e-06	882.56	330.2	6.714e-06	1.0179e-05	395.88	158.39	124.3	46.774	8.4826e-06	66.958	0.00015503	0.00012594	3.5507e-05	673.35	1.3725e-06	1.373e-06	726.87	270.56	1.3775e-06	1.342e-06	315.07	129.65	96.775	38.869	1.3927e-06	55.058	441.354	169.199	230.689	115.323	179.648	243.925	114.401	120.659	200.434	207.175	118.782	123.244	125.009	131.088	207.583	127.309	-8191	255	
3576.867	1	1	0	0	0.28147	0.081075	0.25392	0.33019	0.11532	0.35136	0.31141	0.1411	0.16349	0.2633	0.13277	0.36975	0.088583	0.10639	0.20185	0.11193	-1.2417	-1.9854	-1.8167	-1.7625	-2.2396	-1.55	-2.1	-2.2729	-1.7521	-2.0625	-1.8083	-1.725	-2.0938	-1.8271	-1.8563	-1.9458	276.874	372.265	403.428	408.036	359.919	337.588	329.869	334.464	341.798	216.270	374.078	397.905	448.087	442.501	356.784	135.896	0.0016671	5.9775e-05	0.00028504	827.7	1.1561e-05	6.5531e-06	877.04	328.96	1.0705e-05	4.912e-06	390.2	158.72	124.69	47.528	6.3388e-06	66.453	0.00015267	0.00012091	3.3253e-05	677.24	1.332e-06	1.3393e-06	722.56	269.8	1.3412e-06	1.311e-06	312.22	129.27	96.546	39.019	1.3628e-06	54.865	443.344	220.112	226.271	115.242	198.390	312.642	114.304	120.853	257.302	187.605	118.437	123.425	124.797	131.049	226.079	127.351	-8191	255	
3576.986	1	1	0	0	0.12056	0.21678	0.20933	0.18396	0.054956	0.14677	0.20747	0.29141	0.21651	0.15941	0.049752	0.43355	0.25965	0.23826	0.24395	0.18947	-1.2667	-1.9667	-1.7396	-1.7854	-2.0417	-1.8042	-2.0042	-2.1104	-1.5938	-2.0292	-1.9521	-1.8083	-2.0687	-1.7542	-1.8	-1.9688	282.119	181.310	138.555	350.915	141.336	338.262	394.980	420.238	149.206	316.604	118.707	424.788	385.407	135.345	295.439	413.647	0.0017851	0.00025992	7.295e-05	830.19	1.1728e-05	3.4486e-06	879.75	330.87	1.3281e-05	4.6937e-06	390.17	157.57	123.16	47.204	7.2488e-06	67.191	0.00015361	0.0001243	3.3257e-05	675.05	1.3199e-06	1.3169e-06	720.64	269.86	1.3414e-06	1.3435e-06	310.39	129.22	96.693	38.953	1.3614e-06	55.038	442.905	230.986	217.884	115.411	210.951	290.244	114.783	120.868	214.459	336.333	118.651	123.746	125.416	130.706	219.017	127.517	-8191	255	
3577.082	1	1	0	0	0.26997	0.16279	0.21644	0.19712	0.09348	0.11428	0.077574	0.29832	0.067735	0.19107	0.222	0.1942	0.14737	0.30377	0.1045	0.24273	-1.2875	-2.0292	-1.8438	-1.6063	-2.0062	-1.9125	-1.9104	-2.0771	-1.7188	-2.0042	-1.6313	-1.4625	-2.0354	-1.8	-1.65	-2.0542	340.276	386.887	395.819	195.443	338.096	205.946	428.545	128.224	438.283	270.558	136.408	341.040	284.200	443.389	150.295	360.527	0.0018741	0.0004603	0.00012127	823.35	1.9516e-06	6.0309e-06	877.8	325.73	1.1252e-05	4.652e-06	394.73	156.65	122.61	47.117	5.501e-06	67.002	0.00016071	0.00012094	3.1879e-05	675.62	1.2811e-06	1.358e-06	720.76	268.95	1.3266e-06	1.3552e-06	313.1	128.12	96.253	38.884	1.3149e-06	55.02	440.692	238.926	196.225	115.472	208.535	324.909	114.211	120.416	223.513	220.567	118.852	123.367	124.835	130.847	235.930	127.650	-8191	255	
3577.179	1	1	0	0	0.14378	0.16191	0.08456	0.29637	0.053701	0.12868	0.41488	0.27249	0.26781	0.043461	0.11605	0.39684	0.17611	0.20367	0.15143	0.024394	-1.175	-1.9333	-1.8208	-1.6958	-2.2479	-1.7104	-1.9271	-2.0104	-1.7229	-2.1271	-2.0938	-1.8625	-2.0312	-2.0229	-1.7458	-2.2062	336.384	322.644	126.259	428.247	315.828	160.651	457.741	368.177	302.380	226.197	355.403	416.355	332.697	114.107	287.396	398.069	0.0018465	0.00068058	0.00030165	826.65	4.2723e-06	9.1095e-06	879.07	327.07	4.3779e-06	1.0186e-05	394.47	159.23	124.21	47.321	3.5429e-06	67.446	0.00015618	0.00012043	3.3879e-05	676.08	1.3057e-06	1.2921e-06	723.26	269.7	1.3722e-06	1.3017e-06	313.83	129.83	97.05	39.044	1.3395e-06	55.344	443.840	196.290	188.280	115.157	222.885	246.504	114.420	120.392	222.898	256.668	119.281	123.121	125.363	130.849	229.587	127.818	-8191	255	
3577.275	1	1	0	0	0.16305	0.43276	0.20259	0.042251	0.37	0.12455	0.19325	0.10845	0.12587	0.2627	0.22256	0.11638	0.052551	0.14246	0.19753	0.052991	-1.4083	-1.8667	-2.1542	-1.7313	-2.0146	-1.9104	-1.7458	-2.2208	-1.8438	-1.7667	-2.2729	-1.7125	-1.9396	-1.9937	-1.5521	-2.3521	327.110	259.624	106.287	245.346	181.938	374.888	367.751	427.409	216.832	387.703	107.925	402.014	270.201	116.800	166.599	319.010	0.0017874	0.00012258	0.000127	822.1	4.7607e-06	4.7408e-06	885.36	326.23	8.6621e-06	1.0099e-05	398.68	158.26	125.21	46.822	6.7575e-06	66.676	0.00015966	0.00012595	3.4593e-05	673.26	1.3285e-06	1.329e-06	723.67	268.74	1.3519e-06	1.2975e-06	310.36	128.6	96.506	38.762	1.318e-06	54.762	440.136	217.328	223.340	115.617	253.096	238.635	114.056	120.778	195.465	233.930	118.409	123.138	124.613	130.708	239.658	127.442	-8191	255	
3577.371	1	1	0	0	0.076051	0.072712	0.14675	0.22454	0.31401	0.16147	0.24514	0.31725	0.22334	0.11706	0.08452	0.22551	0.30579	0.15816	0.088992	0.25432	-1.3875	-1.6208	-2.1521	-1.5604	-1.9708	-1.9875	-1.8896	-2.1021	-1.6542	-1.8687	-2.1	-1.6604	-1.7812	-2.1625	-1.5667	-2.1312	184.766	459.414	331.850	367.114	388.789	388.712	388.955	413.307	280.633	171.583	392.368	452.911	121.821	338.455	348.320	317.884	0.0019293	0.00031457	0.0001506	820.68	4.9223e-06	5.8138e-06	873.51	328.64	8.2401e-06	5.793e-06	394.52	156.76	122.59	46.774	7.7073e-06	66.326	0.0001564	0.00011902	3.3266e-05	672.32	1.3215e-06	1.2961e-06	716.85	268.64	1.2828e-06	1.2862e-06	310.47	127.65	95.942	38.616	1.3359e-06	54.587	442.741	198.847	210.481	115.662	132.949	255.722	113.885	120.911	257.922	302.709	118.221	123.314	125.651	130.909	219.179	127.768	-8191	255	
3577.467	1	1	0	0	0.02258	0.21829	0.31794	0.31623	0.21148	0.20755	0.25182	0.24049	0.2604	0.23681	0.10927	0.40712	0.033098	0.31777	0.16998	0.13009	-1.4542	-1.7771	-2.1042	-1.9625	-1.9688	-2.0833	-1.7687	-2.1312	-2.0042	-1.9146	-2.1021	-1.9146	-1.7854	-2.2125	-1.7062	-2.0583	419.985	130.565	450.292	107.618	396.651	205.647	365.015	462.079	144.933	402.489	303.293	439.358	195.002	365.108	399.011	291.438	0.0016659	0.00031262	0.00011497	826.45	5.9132e-06	7.4992e-06	878.53	324.98	7.2569e-06	7.2021e-06	393.68	156.09	123.54	46.615	8.4789e-06	66.827	0.00015768	0.00011879	3.3864e-05	673.23	1.3267e-06	1.2629e-06	719.2	266.92	1.2911e-06	1.3311e-06	308.77	127.57	95.78	38.501	1.3838e-06	54.578	438.735	125.992	193.723	115.106	147.367	261.578	114.478	120.626	191.057	240.827	119.176	123.412	125.416	130.763	218.757	127.976	-8191	255	
3577.588	1	1	0	0	0.25086	0.31276	0.053834	0.3281	0.14219	0.05588	0.41913	0.2567	0.038316	0.13765	0.072479	0.088076	0.25897	0.14818	0.22269	0.1524	-1.5542	-1.6271	-1.9646	-1.9188	-1.8708	-2.15	-1.8125	-2.0417	-2.1167	-1.5271	-2.0833	-2.0271	-1.7083	-2.2167	-1.5229	-2.1667	158.058	239.088	332.737	437.245	212.862	406.367	415.461	411.345	333.959	407.568	129.112	122.648	376.963	408.268	356.733	395.215	0.0016598	0.00052753	0.00023083	819.67	8.723e-06	5.854e-06	869.03	325.51	5.2678e-06	3.1459e-06	394.22	156.67	124.14	46.199	5.8825e-06	66.096	0.00015734	0.00011913	3.3072e-05	671.39	1.3301e-06	1.3134e-06	717.99	267.48	1.3281e-06	1.278e-06	310.73	127.46	95.978	38.404	1.3175e-06	54.382	440.214	211.819	225.831	115.827	184.575	304.713	114.575	120.400	204.595	263.025	118.888	123.446	124.985	131.104	270.618	127.266	-8191	255	
3577.682	1	1	0	0	0.35615	0.10036	0.10944	0.22794	0.18488	0.22347	0.16994	0.29482	0.14652	0.21631	0.18517	0.14974	0.15147	0.19731	0.16349	0.23294	-1.4458	-1.5104	-2.1083	-1.7667	-1.6604	-1.9958	-1.8062	-2.0792	-1.8687	-1.6063	-2.0354	-1.7875	-1.6125	-1.9458	-1.6479	-1.8542	256.221	279.118	118.596	410.211	273.174	411.674	447.987	400.694	134.621	331.205	400.930	402.489	426.676	409.632	234.369	380.240	0.0015764	0.00028967	0.00017245	827.66	1.0408e-05	1.0904e-05	882.81	328.07	1.0987e-05	8.4882e-06	390.8	155.26	121.26	46.775	8.1034e-06	66.006	0.00015248	0.00012494	3.2642e-05	674.89	1.341e-06	1.3449e-06	720.72	267.92	1.3307e-06	1.3149e-06	308.51	126.65	95.684	38.454	1.3253e-06	53.974	443.697	153.098	182.113	115.403	189.334	236.014	113.714	120.568	243.907	235.304	118.801	123.773	125.141	130.617	202.748	127.295	-8191	255	
3577.778	1	1	0	0	0.085569	0.04814	0.23209	0.10446	0.043046	0.089917	0.15154	0.34312	0.14155	0.25744	0.31219	0.15781	0.15937	0.13009	0.2327	0.32262	-1.5667	-1.6729	-2	-1.8646	-1.7042	-2.1813	-1.7729	-1.8813	-1.9771	-1.5167	-2.0521	-1.9583	-1.5438	-1.9875	-1.8312	-2.0354	354.780	326.310	319.575	351.902	249.186	351.226	390.023	443.412	424.352	447.063	329.925	382.343	131.641	346.689	198.001	420.237	0.0018249	0.00039275	5.5242e-05	826.61	6.4457e-06	5.0689e-06	865.49	327.47	7.685e-06	7.074e-06	388.34	153.2	122.46	46.591	8.7976e-06	66.008	0.00015098	0.00011482	3.2761e-05	674.1	1.3345e-06	1.2396e-06	711.59	267.9	1.2918e-06	1.288e-06	306.91	125.72	95.308	38.237	1.3331e-06	53.685	447.251	105.320	248.233	115.814	196.504	308.610	114.439	120.506	224.565	248.137	118.567	122.973	124.681	130.604	166.746	127.295	-8191	255	
3577.874	1	1	0	0	0.38437	0.20236	0.24158	0.042392	0.15388	0.14788	0.27189	0.28508	0.14539	0.21083	0.315	0.19769	0.16863	0.35748	0.095949	0.084303	-1.7292	-1.5667	-1.9312	-1.9917	-1.6396	-1.9917	-1.8667	-2.0146	-2.1312	-1.5542	-1.9917	-1.8646	-1.6542	-2.0542	-1.7542	-1.7542	384.084	416.627	205.511	268.343	301.012	260.735	397.421	427.303	425.300	384.697	242.874	110.487	113.456	104.645	112.911	449.398	0.0018614	0.00018382	0.00020645	827.81	2.9765e-06	1.2529e-05	877.82	324.79	4.8258e-06	6.0494e-06	392.48	153.4	119.83	45.781	1.225e-05	64.809	0.00015687	0.00012238	3.2888e-05	677.71	1.2849e-06	1.2508e-06	718.54	266.86	1.3164e-06	1.2821e-06	308.09	125.42	94.24	37.669	1.3512e-06	53.305	443.653	119.885	172.042	115.344	160.423	264.154	114.075	120.515	191.978	277.679	118.450	123.159	125.231	130.619	193.238	127.115	-8191	255	
3577.971	1	1	0	0	0.034859	0.17688	0.22373	0.13151	0.094708	0.077247	0.19662	0.23037	0.28948	0.082568	0.065123	0.25747	0.25838	0.097723	0.017364	0.36418	-1.5479	-1.4896	-2.0125	-2.0667	-1.3354	-1.9542	-1.9292	-1.7604	-2.0458	-1.6271	-2.0396	-1.9937	-1.6104	-2.2667	-1.7271	-1.8083	149.038	386.968	450.630	419.561	444.252	297.725	405.528	355.828	380.074	382.747	418.410	458.160	145.345	451.220	268.191	425.835	0.00166	0.00025626	0.00024167	828.26	6.0334e-06	3.6833e-06	879.53	326.69	4.4073e-06	7.7522e-06	387.6	154.37	120.96	45.492	3.8108e-06	65.663	0.00015422	0.00011989	3.3286e-05	679.79	1.3121e-06	1.3491e-06	721.42	267.66	1.3703e-06	1.3165e-06	309.35	126.11	94.594	37.732	1.3383e-06	53.587	445.926	307.924	220.727	115.555	230.574	210.701	114.319	120.154	234.667	251.980	118.594	123.185	124.549	131.007	189.797	128.068	-8191	255	
3578.067	1	1	0	0	0.078937	0.1039	0.41953	0.29966	0.045911	0.10404	0.33213	0.19542	0.13461	0.21708	0.066239	0.26541	0.039272	0.3548	0.22426	0.074392	-1.7313	-1.775	-1.6875	-2.1167	-1.6375	-1.9146	-1.9792	-1.6458	-2.2958	-1.8146	-1.9	-2.0771	-1.5521	-2.1021	-1.8542	-1.6104	114.077	461.443	108.944	324.915	428.968	398.698	414.226	163.776	176.590	308.068	251.320	446.286	201.414	393.210	306.332	338.375	0.0016875	0.00042464	9.3454e-05	825.71	8.4962e-06	5.4306e-06	877.24	324.5	1.0534e-05	4.8508e-06	389.2	153.28	120.77	45.898	5.3092e-06	64.491	0.00015539	0.00011795	3.3444e-05	679.12	1.3492e-06	1.3153e-06	721.18	267.54	1.3314e-06	1.2815e-06	308.31	125.55	94.829	37.848	1.3237e-06	53.16	443.410	231.157	149.648	115.267	215.180	217.060	114.228	120.637	234.123	298.348	119.045	123.135	124.960	130.578	301.886	127.510	-8191	255	
3578.163	1	1	0	0	0.13527	0.14603	0.067444	0.13848	0.10167	0.13404	0.15997	0.10265	0.24743	0.16531	0.19576	0.1548	0.075058	0.16344	0.15135	0.1355	-1.5104	-1.6354	-1.4396	-2.0979	-1.7042	-1.9125	-2.0917	-1.9667	-1.9708	-1.8	-1.5833	-2.0438	-1.5562	-2.0042	-2.0417	-1.5708	260.635	114.386	117.239	384.853	257.799	259.777	341.024	332.241	373.537	321.366	433.195	167.583	156.657	398.515	346.199	398.960	0.0015153	0.0005481	0.00025745	836.68	5.6658e-06	8.6193e-06	865.84	326.31	9.0256e-06	8.5387e-06	387.41	151.44	120.73	45.868	6.3319e-06	64.421	0.00014884	0.00011892	3.3696e-05	680.67	1.2558e-06	1.2588e-06	714.19	267.26	1.3915e-06	1.2545e-06	304.25	124.53	94.489	37.843	1.2436e-06	52.783	441.538	209.872	186.905	115.084	232.950	269.966	114.590	120.165	185.665	272.330	117.673	123.229	125.758	130.929	191.434	127.440	-8191	255	
3578.259	1	1	0	0	0.094223	0.27654	0.18944	0.20336	0.089946	0.17131	0.25364	0.3166	0.26351	0.087127	0.15544	0.15993	0.13	0.12326	0.10918	0.21547	-1.7042	-1.8167	-1.6875	-2.1917	-1.5896	-1.725	-2.1479	-1.8771	-2.0646	-1.7354	-1.7104	-2.1271	-1.7313	-1.7938	-2.0604	-1.7458	408.184	322.121	275.605	315.382	433.732	394.327	433.200	449.432	231.496	308.054	240.197	407.326	196.441	203.493	283.878	410.842	0.0015995	0.001321	0.00012223	834.11	4.4416e-06	4.4785e-06	869.95	327.67	7.6183e-06	3.137e-06	383.44	153.38	121.27	46.574	3.9477e-06	65.122	0.00014939	0.00012118	3.1339e-05	681.65	1.3051e-06	1.2501e-06	711.61	267.75	1.269e-06	1.2443e-06	304.27	125.09	94.884	38.265	1.2623e-06	53.383	445.926	174.660	198.275	115.195	211.010	250.937	114.513	120.614	249.094	234.025	118.975	123.074	125.325	130.798	248.317	127.530	-8191	255	
3578.355	1	1	0	0	0.11013	0.16954	0.1287	0.089196	0.14149	0.20912	0.25266	0.12175	0.21677	0.095183	0.21461	0.17736	0.12026	0.094467	0.29256	0.1917	-1.725	-1.8125	-1.6708	-2.2208	-1.8813	-1.8354	-2.1792	-1.5625	-1.9833	-1.9021	-1.7	-2.3979	-1.5812	-1.9208	-1.9333	-1.6688	362.355	352.579	445.098	427.374	205.915	411.479	274.984	399.253	114.731	388.450	147.244	404.453	433.605	195.548	292.932	390.086	0.0017442	0.00037063	5.3485e-05	831.36	7.1313e-06	3.6434e-06	863.6	325.62	8.8429e-07	1.012e-05	387.96	153.16	121.65	46.017	6.7683e-06	65.204	0.00015352	0.00011268	3.2048e-05	680.24	1.2957e-06	1.2336e-06	712.62	267.48	1.2648e-06	1.2388e-06	305.41	125.66	95.572	38.205	1.2677e-06	53.358	439.407	205.217	149.564	115.551	208.422	284.580	114.042	120.426	139.767	219.979	118.941	123.261	125.013	130.814	242.615	127.327	-8191	255	
3578.476	1	1	0	0	0.27755	0.041307	0.18244	0.24607	0.16846	0.18271	0.37292	0.42789	0.093963	0.20458	0.34752	0.19069	0.21769	0.16966	0.066725	0.11907	-1.5604	-2.0812	-1.5792	-2.1937	-1.9042	-1.8125	-2.3854	-1.7042	-2.1417	-1.9792	-1.9542	-2.0167	-1.7583	-1.85	-2.2479	-1.7354	306.014	394.771	207.652	115.006	140.326	412.143	376.266	374.968	252.493	210.734	458.302	200.645	348.665	462.199	230.094	426.492	0.0016858	0.00028748	0.0003021	832.43	8.8208e-06	1.0481e-06	879.98	328.78	5.9302e-06	9.8734e-06	387.82	154.28	121.51	46.203	2.8581e-06	65.043	0.00014821	0.00011666	3.1409e-05	678.75	1.2738e-06	1.2135e-06	717.91	268.88	1.3067e-06	1.2904e-06	306.56	125.94	95.624	38.166	1.2754e-06	53.208	441.177	243.944	200.202	115.522	205.948	194.542	114.596	120.885	164.780	199.129	118.818	123.450	125.175	130.340	261.960	127.430	-8191	255	
3578.547	1	1	0	0	0.19647	0.0082621	0.099668	0.28797	0.088723	0.18078	0.075827	0.32101	0.17842	0.060258	0.1892	0.29389	0.34525	0.30748	0.14472	0.38295	-1.3979	-2.0917	-1.4458	-2.2458	-1.9917	-1.6229	-2.2646	-1.625	-1.7292	-2.1063	-1.7292	-2.1021	-1.6917	-1.7542	-2.0542	-1.7875	155.373	125.111	244.050	397.701	169.113	242.578	382.636	399.976	146.551	122.025	340.753	417.187	207.214	447.235	443.365	109.051	0.0017688	0.00049639	0.00021043	839.68	3.6967e-06	6.534e-06	858.87	326.58	4.8523e-06	2.7539e-06	384.41	151.01	122.39	45.967	1.0062e-05	64.088	0.00014738	0.00011695	3.2182e-05	677.65	1.2287e-06	1.2809e-06	708.06	268.08	1.2669e-06	1.2801e-06	304.48	124.18	95.104	37.938	1.2803e-06	52.603	439.933	238.863	177.577	115.740	291.227	237.132	114.248	120.706	187.953	235.492	118.761	123.274	125.552	130.925	240.276	127.440	-8191	255	
3578.668	1	1	0	0	0.28566	0.10288	0.16301	0.36268	0.17937	0.079799	0.11227	0.17241	0.18794	0.16151	0.1234	0.15882	0.20131	0.21719	0.25114	0.14019	-1.3583	-1.9188	-1.5021	-1.9937	-1.85	-1.6833	-2.1125	-1.7875	-1.6542	-2.2792	-1.7229	-1.9854	-1.9917	-1.5542	-2.0938	-2.1375	280.137	218.689	377.158	402.145	179.991	366.880	438.190	429.693	434.571	419.554	354.829	362.972	199.583	435.659	458.232	166.318	0.0016385	0.00015609	5.1878e-05	823.18	7.9216e-06	3.5946e-06	866.99	326.73	1.0201e-05	1.1772e-05	385.47	153.58	123.22	45.769	7.1514e-06	65.184	0.00014947	0.00011055	3.2405e-05	673.98	1.2463e-06	1.262e-06	709.73	267.04	1.2929e-06	1.2479e-06	303.42	124.96	94.959	37.853	1.3035e-06	52.992	441.063	187.928	373.919	115.655	261.199	252.351	114.098	120.506	219.046	276.795	118.450	123.414	124.939	130.656	231.266	127.374	-8191	255	
3578.762	1	1	0	0	0.15756	0.092279	0.046664	0.064364	0.071078	0.045799	0.27471	0.33823	0.11986	0.050354	0.076712	0.058192	0.11643	0.22606	0.039323	0.16541	-1.4	-2.0187	-1.5708	-1.9208	-2.0479	-1.5833	-2.0708	-1.9688	-1.775	-2.0687	-1.5938	-1.9458	-1.9937	-1.7396	-2.1146	-2.0854	157.458	236.399	275.108	399.558	286.922	146.309	320.535	435.156	383.835	171.989	397.005	256.782	115.427	393.831	120.069	356.601	0.0017811	0.00086035	0.00012372	833.46	6.6e-06	6.1455e-06	865.14	324.01	4.389e-06	5.8968e-06	385.11	153.1	123.09	45.961	9.1643e-06	64.878	0.00015195	0.00011189	3.1675e-05	676.89	1.2844e-06	1.2196e-06	710.28	266.66	1.2187e-06	1.2084e-06	305.32	125.27	95.3	38.06	1.2738e-06	53.275	431.483	202.562	221.882	115.439	223.235	290.672	114.225	120.705	248.798	265.832	118.833	123.388	125.116	130.674	191.824	127.724	-8191	255	
3578.859	1	1	0	0	0.097626	0.28317	0.09584	0.13579	0.096571	0.11252	0.18233	0.28554	0.057639	0.11254	0.31747	0.1515	0.019793	0.15775	0.11089	0.09785	-1.1063	-2.0083	-1.7521	-1.9021	-1.9688	-1.5187	-2.0729	-1.9458	-1.4375	-2.1479	-1.625	-1.9562	-2.2792	-1.75	-1.8229	-1.9208	418.355	224.510	371.194	392.105	254.871	426.701	439.813	367.580	132.145	403.107	384.086	397.231	243.920	362.858	381.601	396.964	0.0015819	0.00035418	0.00014431	828.62	4.0993e-06	1.7902e-06	868.22	325.57	4.3712e-06	3.3824e-06	387.9	156.08	122.07	46.287	7.6526e-06	65.245	0.00015003	0.00011338	3.2067e-05	674.63	1.2787e-06	1.2797e-06	714.27	267.16	1.3227e-06	1.2691e-06	306.19	126.93	95.514	38.154	1.2956e-06	53.436	439.928	273.373	215.046	115.300	236.137	364.310	114.456	120.453	187.974	330.578	118.369	123.657	125.352	131.024	249.317	127.436	-8191	255	
3578.955	1	1	0	0	0.23359	0.12951	0.23042	0.23625	0.1619	0.16016	0.20185	0.28828	0.13343	0.12261	0.17223	0.091273	0.14933	0.18136	0.05967	0.042578	-1.2188	-1.9833	-1.7479	-1.8438	-2.0333	-1.7188	-2.0938	-1.9542	-1.5083	-2.1063	-1.8354	-1.8375	-2.1021	-1.7375	-1.8188	-2.1292	277.487	390.557	284.812	407.629	116.693	243.291	453.955	155.471	256.371	327.929	235.803	131.150	157.651	186.049	122.333	409.145	0.0017465	0.00035591	0.00028336	831.54	7.6551e-06	2.3666e-06	870.94	325.57	5.4727e-06	5.9323e-06	385.06	152.98	121.36	45.942	5.7297e-06	64.921	0.00014909	0.00011067	3.21e-05	677.51	1.255e-06	1.1996e-06	714.26	267.45	1.2643e-06	1.189e-06	303.63	124.83	95.432	37.929	1.2378e-06	53.328	441.531	125.607	167.801	115.186	191.276	209.760	114.152	120.631	212.239	242.142	118.336	123.341	125.010	130.780	256.108	127.356	-8191	255	
3579.075	1	1	0	0	0.082797	0.2542	0.079195	0.23056	0.18366	0.28072	0.1351	0.37395	0.28999	0.036247	0.14954	0.38332	0.15691	0.069018	0.091379	0.21644	-1.0729	-1.9583	-1.8937	-1.8375	-2.0812	-1.5875	-2.1271	-2.1604	-1.4937	-1.85	-2.1	-1.4771	-1.9104	-1.6125	-1.7208	-2.0042	148.928	128.913	178.053	380.389	448.947	359.413	455.624	411.305	374.909	451.416	352.270	417.859	152.573	319.601	444.113	394.626	0.0017469	0.00046463	0.00018958	819.89	5.3086e-06	3.653e-06	873.85	327.24	1.27e-05	8.763e-06	390.43	155.47	123.62	46.324	4.5643e-06	65.781	0.0001488	0.00011006	3.0928e-05	666.31	1.2492e-06	1.2975e-06	713.64	267.53	1.2714e-06	1.2492e-06	307.22	127.07	95.994	38.304	1.3527e-06	53.74	444.232	218.545	179.750	115.195	149.700	344.824	114.356	120.461	164.477	242.692	118.048	123.167	125.124	130.664	151.404	127.074	-8191	255	
3579.172	1	1	0	0	0.1598	0.37857	0.026658	0.10895	0.11316	0.089241	0.059984	0.14096	0.25127	0.21745	0.12005	0.39407	0.17587	0.033099	0.18119	0.26384	-1.1208	-1.7604	-1.8521	-1.625	-1.9917	-1.6771	-1.9375	-2.1104	-1.6042	-1.8125	-1.9771	-1.7229	-2.0667	-1.7812	-1.85	-2.1188	140.513	283.583	140.602	375.982	185.170	422.141	295.343	404.990	440.524	138.751	124.717	404.735	398.890	313.255	237.630	403.010	0.0016106	0.00041638	0.0002414	817.52	7.41e-06	3.7482e-06	866.77	326.2	1.1319e-05	2.8841e-06	391	155.81	123.6	46.059	5.5684e-06	65.775	0.0001605	0.00011597	3.5533e-05	671.83	1.3994e-06	1.3745e-06	714.6	268	1.4509e-06	1.3477e-06	308.06	126.87	95.917	38.064	1.3791e-06	53.625	445.125	185.482	187.778	115.008	176.829	285.129	114.042	120.605	220.875	211.656	118.736	123.421	124.789	130.771	206.346	127.437	-8191	255	
3579.268	1	1	0	0	0.19414	0.34061	0.12044	0.063823	0.27578	0.17457	0.36695	0.40141	0.30926	0.081835	0.18816	0.12852	0.070115	0.124	0.1468	0.39967	-0.975	-1.8229	-1.525	-1.6625	-1.9688	-1.9458	-1.6042	-2.1729	-1.7125	-1.9917	-1.8583	-1.5688	-1.8438	-1.7729	-1.6229	-2.05	207.874	327.065	321.171	144.135	312.586	161.492	388.774	443.730	278.508	304.162	382.450	404.308	406.262	131.184	383.762	405.894	0.0017196	0.00062496	5.0265e-05	821.88	9.1132e-06	5.9868e-06	867.12	327.19	5.3333e-06	6.6827e-06	390.22	157.68	124.08	46.369	3.9033e-06	65.716	0.0001592	0.00012334	3.5592e-05	672.02	1.3664e-06	1.4321e-06	718.34	268.41	1.4115e-06	1.3616e-06	311.18	128.46	96.791	38.286	1.435e-06	54.037	442.420	195.578	365.714	114.890	240.525	308.370	114.401	120.509	199.518	229.986	118.920	123.082	125.643	130.746	197.216	127.403	-8191	255	
3579.364	1	1	0	0	0.15848	0.070571	0.24608	0.20687	0.29492	0.17416	0.22147	0.44681	0.16103	0.062147	0.061287	0.26219	0.15562	0.38319	0.31297	0.19645	-1.0479	-1.7646	-1.9833	-1.6292	-2.0438	-1.8604	-1.6542	-2.1896	-1.7229	-1.8167	-2.0771	-1.4479	-2.1542	-1.9396	-1.6792	-2.1229	363.475	176.865	142.415	173.237	446.138	332.346	337.726	395.640	378.546	129.565	156.132	388.695	220.341	452.611	207.731	344.556	0.0019678	0.00061725	0.00029389	821.48	4.9861e-06	9.887e-06	867.82	326.4	1.2825e-05	5.8125e-06	394.67	155.04	122.5	45.822	6.9045e-06	64.954	0.00016441	0.00012487	3.6295e-05	673.92	1.3359e-06	1.3887e-06	716.66	267.5	1.4821e-06	1.3625e-06	309.42	127.06	95.712	37.94	1.4307e-06	53.245	440.071	193.436	259.034	115.342	222.744	272.769	114.055	120.538	245.592	227.552	118.808	123.084	125.082	130.463	244.242	127.288	-8191	255	
3579.460	1	1	0	0	0.059101	0.15874	0.054332	0.24731	0.088055	0.1543	0.21645	0.114	0.024501	0.32558	0.11791	0.09538	0.29516	0.39541	0.053498	0.25353	-1.2167	-1.8146	-1.8396	-1.6875	-1.9104	-1.9042	-1.7625	-2.2292	-1.8312	-1.7792	-2.1125	-1.7333	-1.8042	-2.1458	-1.3104	-2.2792	332.378	341.007	290.870	402.103	313.266	223.666	448.369	429.741	237.969	338.895	132.028	225.933	333.466	419.567	212.028	443.410	0.0017213	0.00054693	0.00027529	820.94	3.3888e-06	2.8756e-06	868.91	327.31	7.2178e-06	9.1331e-06	389.16	156.07	122.22	45.947	6.7453e-06	64.969	0.00016351	0.00012432	3.5917e-05	669.61	1.4323e-06	1.4077e-06	713.88	267.37	1.4364e-06	1.3906e-06	308.63	127.42	95.965	37.951	1.4068e-06	53.382	438.450	201.351	189.211	115.483	151.831	404.979	114.113	120.714	206.197	255.433	118.514	123.406	124.217	130.869	194.222	127.685	-8191	255	
3579.556	1	1	0	0	0.1229	0.34234	0.19075	0.22491	0.035001	0.2285	0.085467	0.22122	0.15139	0.058273	0.28784	0.096083	0.17249	0.31616	0.25703	0.031965	-1.4896	-1.55	-2.0375	-1.8271	-1.8354	-2.0125	-1.5708	-2.0187	-1.7083	-1.4979	-2.0146	-1.6667	-1.7917	-1.9479	-1.5229	-2.1312	353.388	435.841	166.771	442.003	362.515	343.518	380.825	413.286	180.814	460.248	461.959	317.639	423.376	143.158	407.617	435.085	0.0016034	0.0007595	0.00012248	812.89	3.6644e-06	5.966e-06	870.39	323.04	7.8394e-06	4.9268e-06	391.21	155.43	123.64	46.368	9.5967e-06	65.842	0.00016127	0.00012743	3.5215e-05	669.18	1.4744e-06	1.427e-06	714.34	266.79	1.4567e-06	1.3998e-06	308.33	127.32	96.245	38.195	1.4468e-06	53.912	438.894	225.489	289.318	115.280	206.497	259.005	114.253	120.776	214.933	236.703	118.463	123.238	125.152	130.796	219.208	127.702	-8191	255	
3579.652	1	1	0	0	0.19267	0.091843	0.16833	0.025485	0.10954	0.18607	0.20266	0.22938	0.16885	0.05339	0.11969	0.16094	0.15243	0.17733	0.057061	0.18036	-1.3458	-1.6063	-2.0521	-1.7188	-1.8438	-1.9604	-1.5417	-1.9104	-1.7958	-1.5562	-2.1229	-1.9438	-1.9208	-2.0146	-1.6021	-2.0333	371.736	346.563	447.217	457.933	164.471	407.784	358.467	130.295	309.128	318.303	441.780	449.209	111.324	431.388	278.528	390.384	0.0016354	0.00060706	0.00019704	817.47	1.2457e-05	1.1584e-05	876.58	326.39	1.2053e-05	5.7897e-06	388.31	157.55	121.15	46.616	5.3862e-06	66.174	0.00016074	0.00013245	3.5686e-05	668.08	1.412e-06	1.4321e-06	720.66	268.21	1.4557e-06	1.3961e-06	309.11	128.5	95.892	38.448	1.4057e-06	54.36	443.128	220.341	154.251	115.162	216.522	264.901	114.228	120.652	187.988	278.189	118.805	123.433	125.634	131.073	244.308	127.852	-8191	255	
3579.771	1	1	0	0	0.12077	0.10388	0.10864	0.10737	0.21705	0.25746	0.32036	0.27908	0.12936	0.10414	0.037926	0.17832	0.20809	0.26008	0.20666	0.15769	-1.5458	-1.5979	-2.2354	-1.8375	-1.7958	-1.9979	-1.8792	-2.1146	-1.8833	-1.7938	-2.0625	-1.7833	-1.7021	-2.0062	-1.7563	-1.8875	332.481	371.813	203.044	340.373	302.348	403.770	369.563	429.805	195.189	235.960	156.876	455.294	357.315	137.663	419.264	144.894	0.0015146	0.00064665	0.00023284	820.17	4.6543e-06	1.768e-06	872.47	325.54	9.3342e-06	5.2733e-06	400.03	155.48	121.08	46.229	4.1833e-06	65.334	0.00016381	0.00012718	3.7332e-05	672.46	1.4669e-06	1.3882e-06	717.55	268.11	1.4494e-06	1.3542e-06	311.72	127.7	95.427	38.178	1.4572e-06	53.693	442.275	222.674	188.037	115.808	174.609	257.087	114.465	120.782	210.564	280.654	118.965	123.419	125.467	130.624	315.878	127.698	-8191	255	
3579.843	1	1	0	0	0.060866	0.25824	0.19297	0.051479	0.18805	0.24688	0.087513	0.34439	0.10112	0.097445	0.21139	0.15543	0.15454	0.3687	0.20348	0.22455	-1.7708	-1.525	-1.9479	-1.8021	-1.9188	-2.1479	-1.7292	-1.7854	-1.9667	-1.525	-2.0062	-1.9208	-1.5167	-2.2458	-1.6667	-1.8792	268.395	142.227	262.692	343.063	199.208	211.626	380.598	380.832	170.026	216.471	461.507	441.805	249.070	430.198	390.301	391.408	0.0017574	0.00023395	5.2496e-05	817.44	8.4443e-06	9.0444e-06	870.61	325.87	7.3092e-06	7.3761e-06	381.58	153.15	121.15	45.548	6.3139e-06	64.45	0.000161	0.00013233	3.4826e-05	669.44	1.3768e-06	1.4411e-06	713.64	266.58	1.4361e-06	1.4292e-06	305.94	125.7	94.719	37.583	1.4552e-06	52.969	438.257	220.582	183.014	115.383	171.458	150.605	114.638	120.855	175.970	240.597	118.312	123.009	125.897	130.729	261.996	127.591	-8191	255	
3579.939	1	1	0	0	0.36872	0.084888	0.18965	0.18559	0.18811	0.040875	0.072342	0.3512	0.18403	0.15164	0.23352	0.33473	0.28802	0.18164	0.17228	0.14703	-1.5771	-1.5146	-1.9333	-1.9438	-1.5396	-2.0104	-1.9417	-1.75	-2.1125	-1.5458	-1.925	-1.9021	-1.8	-2.15	-1.6521	-1.7667	193.742	259.295	289.514	447.807	274.152	286.142	206.261	359.684	105.801	169.761	272.375	417.264	424.303	461.219	113.900	444.275	0.0015545	0.00049265	0.00021195	820.33	5.6239e-06	1.2095e-06	871.33	322.92	8.6325e-06	9.8642e-06	394.25	155.96	121.09	46.025	5.8351e-06	65.634	0.00016198	0.00012992	3.541e-05	669.46	1.4887e-06	1.4638e-06	714.46	265.54	1.4528e-06	1.4499e-06	311.68	127.76	95.138	38.028	1.4692e-06	54.044	435.251	255.151	226.366	115.146	265.613	270.027	114.259	120.474	233.695	230.060	118.250	123.566	125.050	130.626	220.340	127.574	-8191	255	
3580.035	1	1	0	0	0.14432	0.11017	0.28479	0.22846	0.18049	0.069892	0.21019	0.47253	0.14105	0.11071	0.05431	0.18495	0.24894	0.13971	0.31394	0.14748	-1.5708	-1.4104	-1.8	-1.8479	-1.5083	-2.125	-1.9604	-1.9542	-2.2	-1.6708	-1.9188	-2.0896	-1.675	-2.1458	-1.6125	-1.8583	221.762	257.326	458.096	169.797	268.313	247.254	395.606	376.715	103.376	428.928	375.680	366.609	113.774	251.774	407.493	299.362	0.0017231	0.00082949	5.8448e-05	813	8.4157e-06	6.9807e-06	874.4	326.93	4.5044e-06	5.1187e-06	396.48	158.31	122.27	45.772	3.523e-06	66.663	0.00016198	0.00013832	3.6193e-05	665.93	1.4249e-06	1.4678e-06	720.23	267.34	1.4583e-06	1.4733e-06	314.65	129.06	96.016	37.853	1.5076e-06	54.589	440.212	216.029	208.663	115.378	202.122	202.978	114.358	121.030	256.379	208.556	118.523	123.314	124.630	130.772	261.412	127.361	-8191	255	
3580.156	1	1	0	0	0.16584	0.1559	0.022203	0.17925	0.11456	0.01213	0.1975	0.29899	0.23207	0.0044478	0.084174	0.13661	0.26351	0.16688	0.13569	0.26169	-1.4979	-1.6167	-2.0146	-1.8979	-1.4292	-2.0187	-2.0375	-1.8208	-2.1	-1.7146	-1.8813	-1.9417	-1.7271	-1.9354	-1.6396	-1.6229	269.962	335.245	285.999	398.204	350.319	408.497	397.608	408.276	353.921	181.933	249.600	128.543	351.936	386.336	255.577	109.296	0.0017361	0.00097811	0.0001958	812.68	5.3641e-06	4.3043e-06	885.25	326.18	6.1419e-06	3.837e-06	399.5	158.33	122.87	46.155	9.7244e-06	65.915	0.00016524	0.0001287	3.7829e-05	667.76	1.4665e-06	1.4475e-06	724.26	268.12	1.4881e-06	1.3698e-06	314.29	128.91	95.811	38.199	1.4459e-06	54.239	438.136	194.029	266.380	115.886	277.802	227.418	114.328	120.900	186.771	298.639	118.822	123.250	124.456	130.694	206.851	127.542	-8191	255	
3580.252	1	1	0	0	0.20077	0.1083	0.12617	0.14085	0.13435	0.49055	0.33423	0.19421	0.1814	0.18492	0.18895	0.45306	0.21436	0.13511	0.22381	0.33708	-1.5854	-1.5688	-1.7875	-2.1292	-1.7396	-1.8937	-2.0479	-1.7729	-2.0542	-1.7458	-1.6833	-2.0854	-1.6021	-1.9792	-1.8646	-1.8042	205.449	145.869	122.481	296.798	199.785	371.771	385.956	451.037	462.078	291.217	445.453	432.387	137.170	456.298	276.315	385.212	0.001839	0.00056053	7.3003e-05	816.86	5.603e-06	7.9764e-06	880.4	326.37	6.2288e-06	9.4142e-06	395.3	155.92	122.35	45.956	1.1911e-05	65.923	0.00016455	0.0001269	3.6104e-05	667.55	1.446e-06	1.443e-06	717.81	267.78	1.4618e-06	1.4257e-06	312.03	127.74	95.612	38.142	1.5028e-06	54.159	440.000	224.664	238.156	115.002	205.819	262.627	114.380	120.421	192.531	261.626	118.111	123.304	125.078	130.690	230.865	127.364	-8191	255	
3580.348	1	1	0	0	0.14928	0.051755	0.32669	0.39503	0.21465	0.23599	0.31789	0.081914	0.15508	0.16931	0.14789	0.35522	0.20829	0.11929	0.20761	0.057279	-1.6063	-1.6771	-1.6521	-2.1063	-1.8167	-1.9438	-2.1688	-1.7396	-1.8896	-1.6625	-1.7417	-2.2854	-1.7292	-1.8167	-1.9917	-1.6521	181.331	221.045	116.088	427.440	241.310	436.043	387.886	183.608	374.178	356.546	398.287	131.342	391.574	359.174	352.102	179.154	0.0018312	0.00038206	0.00013204	808.87	5.583e-06	8.6709e-06	871.98	324.61	1.0797e-05	2.6756e-07	398.49	158.29	123.64	46.519	3.414e-06	66.368	0.00016025	0.00013005	3.6232e-05	666.39	1.4206e-06	1.3613e-06	718.64	267.37	1.4288e-06	1.3838e-06	313.94	129.18	96.077	38.393	1.4606e-06	54.502	440.649	204.288	165.916	115.747	168.073	229.275	114.103	120.709	219.613	200.129	118.665	123.529	125.475	131.223	287.850	127.811	-8191	255	
3580.444	1	1	0	0	0.19077	0.1912	0.15079	0.10179	0.12045	0.13878	0.2949	0.42592	0.24662	0.22778	0.22647	0.18457	0.34228	0.13102	0.20622	0.25905	-1.4229	-1.7854	-1.4375	-2.0125	-1.7271	-1.6583	-2.1583	-1.6083	-1.8979	-2.0042	-1.7167	-2.2562	-1.5646	-1.8125	-1.9833	-1.8083	370.551	321.116	247.138	447.058	234.144	282.433	428.305	441.423	380.572	272.678	223.486	105.282	462.267	461.769	141.736	428.312	0.0017939	0.00060147	0.00010633	813.19	5.3727e-06	4.889e-06	876.43	327.51	4.1325e-06	8.046e-06	397	158.77	123.14	46.679	5.0253e-06	67.967	0.00016905	0.00012971	3.7066e-05	668.25	1.4836e-06	1.4007e-06	722.11	268.87	1.4359e-06	1.4263e-06	315.98	129.45	96.507	38.544	1.4441e-06	55.331	441.209	218.136	181.054	115.356	249.886	349.364	114.037	120.656	252.517	285.134	119.115	123.286	125.195	130.997	248.822	127.320	-8191	255	
3580.540	1	1	0	0	0.12045	0.2285	0.17164	0.38978	0.1709	0.26373	0.1971	0.12697	0.1319	0.24654	0.21495	0.20085	0.23077	0.18823	0.11416	0.29151	-1.2958	-1.825	-1.4667	-2.0729	-1.5042	-1.5229	-2.1042	-1.6562	-1.7313	-1.9333	-1.5375	-2.1833	-1.6938	-1.8146	-2.0938	-1.7437	405.778	389.603	434.278	359.139	360.101	246.208	427.763	358.848	385.490	122.908	420.116	450.970	391.049	386.098	133.634	368.859	0.001661	0.00039192	7.9926e-05	814.96	5.7988e-06	2.5044e-06	880.68	329.1	1.2478e-05	5.1797e-06	400.31	157.9	123.5	46.805	5.1999e-06	66.769	0.00016194	0.00013168	3.688e-05	668.07	1.4247e-06	1.4192e-06	725.24	269.55	1.4556e-06	1.411e-06	316.33	129.85	96.398	38.661	1.4057e-06	54.846	441.593	229.797	256.433	115.508	167.775	248.531	114.097	120.508	242.654	270.643	118.950	123.673	125.246	130.620	220.101	127.580	-8191	255	
3580.636	1	1	0	0	0.11212	0.038081	0.2023	0.30631	0.12422	0.17826	0.27713	0.11667	0.062658	0.1605	0.1418	0.22001	0.045763	0.28343	0.17776	0.17577	-1.3583	-1.9104	-1.6063	-1.9146	-1.8708	-1.6583	-2.0292	-1.8458	-1.9604	-2.1375	-1.5521	-2.0646	-1.9937	-1.8167	-1.9312	-1.8625	189.154	449.843	272.095	128.513	310.954	408.412	423.283	409.156	337.679	211.945	397.370	387.370	119.141	455.106	168.113	145.217	0.0017459	0.00035625	0.00016754	816.47	8.366e-06	7.7123e-06	878.62	330.03	4.4386e-06	5.2088e-06	397.65	156.53	123.74	46.447	3.7217e-06	66.556	0.00016666	0.00013074	3.5504e-05	668.82	1.4067e-06	1.3867e-06	720.29	268.67	1.4644e-06	1.4075e-06	313.47	128.25	95.769	38.314	1.4472e-06	54.34	445.097	221.158	209.813	115.104	210.420	237.881	114.348	120.587	166.932	231.060	118.441	123.586	125.337	130.625	236.112	127.255	-8191	255	
3580.755	1	1	0	0	0.33527	0.23972	0.28375	0.31415	0.035289	0.092505	0.30015	0.10463	0.15462	0.14536	0.23018	0.10009	0.19314	0.27238	0.20018	0.25849	-1.3667	-1.9	-1.4333	-1.925	-1.7833	-1.6667	-2.0458	-1.7646	-1.8479	-1.8563	-1.625	-1.9937	-1.825	-1.5292	-2.0917	-1.7792	227.243	459.391	443.137	446.107	386.245	301.479	403.211	253.862	215.852	314.891	346.072	362.718	414.260	429.812	304.136	402.340	0.0017738	0.00026004	0.00023734	819.3	5.991e-06	5.9818e-06	877.44	325.77	6.7689e-06	5.5753e-06	394.77	156.55	121.56	46.134	8.2762e-06	66.314	0.00016173	0.00012734	3.7272e-05	667.61	1.3988e-06	1.4449e-06	718.47	267.98	1.4097e-06	1.4591e-06	312.67	128.43	95.31	38.296	1.4332e-06	54.462	441.923	175.509	173.939	115.348	212.681	222.364	114.115	120.625	231.876	217.640	117.834	123.432	124.993	130.588	179.322	127.602	-8191	255	
3580.852	1	1	0	0	0.26714	0.076613	0.097883	0.21649	0.061778	0.20296	0.15458	0.30241	0.19389	0.12644	0.1087	0.47223	0.067353	0.20415	0.28936	0.10919	-1.1771	-2.0229	-1.4479	-1.9333	-1.8875	-1.4146	-2.1063	-1.9042	-1.7646	-2.0583	-1.6063	-1.8542	-1.8604	-1.6542	-2.0417	-1.9562	124.339	214.478	134.079	120.508	414.486	108.540	437.201	356.817	359.947	423.708	323.821	421.961	133.770	427.980	129.898	397.931	0.0017633	0.00042609	9.523e-05	822.29	9.3479e-06	5.4081e-06	872.94	325.39	8.202e-06	5.3393e-06	394.06	157.23	122.49	46.661	9.9448e-06	67.389	0.0001665	0.00012601	3.5357e-05	671.31	1.4252e-06	1.3842e-06	719.43	267.96	1.4539e-06	1.3586e-06	313.95	129.04	95.841	38.493	1.3982e-06	55.058	442.734	199.637	137.640	115.192	166.787	308.664	114.004	120.706	215.504	252.483	119.022	123.628	124.943	131.251	205.542	127.230	-8191	255	
3580.948	1	1	0	0	0.15126	0.20889	0.18152	0.051079	0.07174	0.18244	0.066928	0.38889	0.37097	0.15123	0.17949	0.15031	0.096638	0.04638	0.11445	0.13514	-1.25	-2.0417	-1.7313	-1.8729	-2.1417	-1.5896	-2.0375	-2.0167	-1.4646	-2.0458	-1.6729	-1.8062	-1.9688	-1.7625	-1.9458	-1.8396	325.146	378.819	328.944	202.841	294.519	240.217	353.436	397.351	155.188	195.865	121.275	405.951	376.628	177.594	351.303	110.666	0.0017205	0.00058076	0.00012322	817.35	4.0404e-06	8.1511e-06	883.17	327.45	1.014e-05	7.1828e-06	393.61	157.05	123.74	46.701	6.0484e-06	66.643	0.00016887	0.00012807	3.7338e-05	667.47	1.4224e-06	1.4219e-06	724.37	268.36	1.4577e-06	1.3745e-06	313.85	128.84	96.048	38.497	1.412e-06	54.429	448.152	268.386	218.860	115.213	217.583	235.335	114.058	120.867	212.182	230.401	118.840	123.573	125.290	130.976	225.768	127.731	-8191	255	
3581.068	1	1	0	0	0.21696	0.085669	0.38192	0.071765	0.14647	0.044083	0.37897	0.43481	0.13217	0.15434	0.12664	0.078335	0.33144	0.30228	0.21081	0.36322	-1.1771	-2.0146	-1.7062	-1.8687	-2.0958	-1.7437	-1.8958	-1.9854	-1.5708	-1.8833	-1.6375	-1.6979	-2.1854	-1.6208	-1.9083	-2.1458	145.945	456.789	330.349	336.139	243.864	248.249	416.825	461.895	155.506	257.909	357.567	109.287	105.796	434.914	414.247	382.290	0.0016683	0.00090421	0.00033626	820.1	9.2477e-06	5.043e-06	872.03	323.76	4.038e-06	8.9434e-06	384.62	155.91	123.09	46.531	1.0566e-05	65.807	0.00016057	0.00012407	3.7035e-05	669.9	1.4745e-06	1.4146e-06	715.93	266.76	1.4694e-06	1.3872e-06	308.69	127.59	95.649	38.422	1.4601e-06	54.052	441.615	226.683	178.400	115.522	180.803	266.222	114.648	120.565	270.600	211.089	119.410	123.070	125.043	131.463	231.548	127.202	-8191	255	
3581.140	1	1	0	0	0.089899	0.025424	0.071987	0.27271	0.090513	0.11044	0.093938	0.096832	0.076157	0.17919	0.015877	0.083154	0.06638	0.18643	0.24944	0.30425	-1.1583	-1.9896	-1.6562	-1.6333	-1.9729	-1.6458	-2.0062	-2.1708	-1.3937	-1.9792	-1.9354	-1.9438	-2.1188	-1.6083	-1.875	-2.1146	395.211	441.746	377.652	309.098	130.172	399.805	105.026	399.669	153.811	324.687	188.112	105.621	329.589	403.570	381.967	424.528	0.0016041	0.00018044	0.0001347	820.28	4.1967e-06	3.3517e-06	871.2	326.07	5.4658e-06	6.3756e-06	399.43	155.83	121.55	46.085	6.9305e-06	66.284	0.00016254	0.00012708	3.68e-05	670.69	1.3964e-06	1.413e-06	716.36	267.35	1.437e-06	1.3485e-06	312.67	127.51	95.712	38.139	1.4054e-06	54.342	436.047	184.281	173.322	115.526	162.297	252.696	113.925	120.728	239.321	277.073	119.184	123.766	125.216	130.734	257.146	127.667	-8191	255	
3581.236	1	1	0	0	0.086052	0.17579	0.048872	0.17296	0.28369	0.34871	0.32372	0.29158	0.16864	0.065483	0.32146	0.077799	0.070449	0.25036	0.27733	0.22227	-0.9375	-1.8854	-1.725	-1.5542	-2.1521	-1.5583	-1.8813	-1.9729	-1.4208	-1.9292	-1.9062	-1.5083	-2.05	-1.7604	-1.6958	-1.9021	423.988	279.964	244.974	378.514	303.715	220.214	430.080	436.194	125.934	293.398	456.981	428.701	374.565	120.065	279.334	356.213	0.0016711	0.00045151	7.1807e-05	814.63	2.7668e-06	2.7009e-06	874.41	326.63	6.6574e-06	1.2242e-05	392.8	156.38	122.03	46.758	3.93e-06	66.691	0.0001645	0.00012974	3.7425e-05	668.34	1.3915e-06	1.4279e-06	718.07	267.77	1.4665e-06	1.3688e-06	311.7	128.24	95.814	38.574	1.4555e-06	54.803	442.119	175.396	134.862	115.404	172.134	393.132	113.965	120.384	201.958	268.889	118.415	123.354	125.028	130.937	282.425	127.423	-8191	255	
3581.332	1	1	0	0	0.171	0.40537	0.10627	0.17868	0.11192	0.13297	0.11298	0.31676	0.20719	0.15052	0.21232	0.15054	0.20888	0.12573	0.16324	0.26747	-1.0187	-1.7125	-1.8875	-1.4813	-1.8833	-1.7542	-1.7792	-2.1458	-1.6167	-1.7292	-1.8896	-1.6292	-1.9042	-1.9688	-1.5708	-2.2354	149.605	356.063	185.535	339.898	231.333	266.849	374.596	394.108	399.261	372.282	215.161	409.052	164.297	179.140	221.828	461.971	0.0020072	0.00076188	8.2617e-05	814.83	1.321e-05	7.0744e-06	879.61	326.01	1.219e-05	5.2786e-06	404.44	159.52	123.87	46.729	1.1874e-05	66.991	0.00016973	0.0001288	3.6053e-05	666.78	1.409e-06	1.4208e-06	722.73	267.54	1.4291e-06	1.4332e-06	315.87	130.27	96.16	38.664	1.4552e-06	55.095	442.413	221.639	253.184	115.608	203.912	226.640	114.147	120.796	219.551	300.333	119.084	123.937	124.585	131.044	236.612	127.347	-8191	255	
3581.453	1	1	0	0	0.3415	0.18304	0.17438	0.066256	0.19808	0.14203	0.23446	0.14223	0.26677	0.30771	0.054653	0.070404	0.15865	0.11882	0.16504	0.038056	-1.2271	-1.5146	-1.8729	-1.4208	-1.9	-1.6646	-1.625	-2.0625	-1.6021	-1.6833	-1.8729	-1.4396	-1.9167	-1.8771	-1.5292	-1.9458	382.112	115.987	331.707	344.562	419.483	227.021	394.695	267.054	216.744	262.235	196.879	336.716	124.549	130.280	292.690	218.379	0.001674	0.00055391	0.00013284	820.29	5.9601e-06	6.7818e-06	875.63	327.22	7.0168e-06	4.6409e-06	392.48	157.58	122.75	47.083	4.6739e-06	66.609	0.00016851	0.00012674	3.6875e-05	670.79	1.4107e-06	1.4348e-06	720.04	268.1	1.494e-06	1.366e-06	312.08	128.68	95.767	38.605	1.4643e-06	54.393	442.027	185.465	248.754	115.532	277.643	336.088	114.218	120.560	236.565	265.049	118.468	123.336	124.839	130.533	229.750	127.348	-8191	255	
3581.549	1	1	0	0	0.12777	0.068706	0.22921	0.33028	0.22475	0.12836	0.32679	0.3238	0.090374	0.32565	0.12538	0.053461	0.18532	0.22423	0.37074	0.066269	-1.3042	-1.4958	-2.0125	-1.4667	-1.7271	-1.6437	-1.4396	-1.9813	-1.6229	-1.5729	-1.9146	-1.3708	-1.7188	-1.9271	-1.3646	-1.8083	160.830	102.780	138.251	458.056	135.542	163.923	347.768	376.905	160.098	273.141	216.145	324.008	375.303	170.443	171.521	388.766	0.0017201	0.00060683	0.00018077	814.49	7.2885e-06	7.3966e-06	870.31	327.5	8.0044e-06	8.378e-06	398.14	155.27	120.95	45.922	2.1391e-06	66.363	0.00016956	0.00013253	3.586e-05	667.15	1.3976e-06	1.466e-06	717.18	268.2	1.4987e-06	1.3961e-06	312.43	127.75	95.569	38.268	1.4996e-06	54.426	439.671	258.815	245.730	115.328	201.550	244.704	114.350	120.596	198.705	222.908	118.467	123.173	125.231	130.944	254.065	127.454	-8191	255	
3581.643	1	1	0	0	0.34682	0.095451	0.2965	0.062936	0.11116	0.11186	0.21923	0.32456	0.42978	0.054921	0.093163	0.20338	0.17668	0.20204	0.39186	0.33765	-1.0583	-1.7146	-2.0021	-1.4625	-1.9312	-1.7229	-1.6917	-1.9833	-1.6708	-1.6938	-1.9729	-1.6646	-1.7354	-2.0083	-1.4333	-1.8542	454.561	320.424	311.045	312.246	109.930	402.762	382.312	422.902	434.917	437.574	450.155	359.099	279.667	120.929	392.169	391.681	0.0016735	0.00046963	0.00018286	817.47	1.8424e-06	3.9945e-06	878.23	326.37	8.9581e-06	1.2452e-05	392.81	158	122.46	46.974	5.2187e-06	66.516	0.00016812	0.00012804	3.7261e-05	669.85	1.4734e-06	1.4144e-06	719.66	267.74	1.4867e-06	1.4567e-06	311.82	129.02	96	38.665	1.4331e-06	54.86	431.588	128.726	151.909	114.992	291.025	271.569	114.290	120.846	231.844	225.273	118.758	123.362	125.046	130.674	242.976	127.716	-8191	255	
3581.717	1	1	0	0	0.11568	0.081566	0.20172	0.16169	0.076531	0.19737	0.30366	0.3317	0.2509	0.13323	0.16916	0.27841	0.070329	0.16422	0.12416	0.32797	-1.2687	-1.55	-1.7354	-1.6167	-1.7167	-1.9562	-1.5604	-1.7771	-1.7729	-1.4312	-2.0083	-1.7854	-1.9542	-2.1771	-1.4771	-1.9021	174.778	208.079	403.701	400.899	254.114	354.762	380.963	383.490	312.642	115.074	224.041	384.241	430.045	223.192	170.116	424.106	0.0019396	0.0001927	0.00017109	814.77	3.7459e-06	1.3412e-05	881.84	328.96	5.0862e-06	5.0097e-06	399.19	159.27	124.19	46.805	6.1304e-06	67.245	0.00017225	0.00013414	3.6637e-05	666.46	1.4584e-06	1.4537e-06	725.61	269.23	1.4656e-06	1.4694e-06	316.7	130.2	96.792	38.72	1.4957e-06	55.14	434.817	184.606	227.437	115.244	333.188	274.975	114.276	120.502	263.488	179.504	119.018	123.110	124.636	130.802	196.322	127.576	-8191	255	
3581.836	1	1	0	0	0.21325	0.17108	0.21371	0.23717	0.14137	0.040725	0.21524	0.13464	0.072263	0.037064	0.04036	0.34517	0.21492	0.45894	0.12844	0.025245	-1.5292	-1.6042	-1.7833	-1.7083	-1.7083	-2.1	-1.5521	-1.9688	-1.8438	-1.6	-2.0542	-1.8417	-1.6667	-1.9292	-1.5312	-1.8646	351.904	163.189	226.108	390.796	268.118	286.888	382.023	420.551	423.032	228.253	303.780	432.282	412.054	420.123	103.980	182.800	0.0018228	0.00059095	0.00016585	826.25	9.1455e-06	3.8825e-06	882.6	326.06	1.303e-05	2.6129e-06	394.87	157.38	122.21	46.741	7.2396e-06	66.354	0.00016602	0.00013535	3.6266e-05	674.2	1.4608e-06	1.4338e-06	723.32	268.65	1.4449e-06	1.4739e-06	311.85	128.69	95.332	38.489	1.4272e-06	54.306	451.336	203.047	181.902	116.127	197.641	293.802	113.755	120.796	228.888	253.327	118.822	123.257	126.312	130.619	275.418	127.326	-8191	255	
3581.932	1	1	0	0	0.11644	0.15654	0.03918	0.16579	0.15031	0.28768	0.17257	0.024174	0.15262	0.030032	0.40994	0.40083	0.13403	0.13737	0.379	0.24313	-1.3771	-1.3917	-1.9042	-1.7333	-1.6625	-2.025	-1.7958	-1.8979	-2.0083	-1.4917	-1.8479	-1.7854	-1.7146	-2.0042	-1.6625	-1.9833	360.544	262.050	139.868	107.918	248.319	255.504	370.571	188.890	187.686	105.779	377.885	415.585	147.122	158.544	434.294	370.388	0.0016893	0.00075919	0.00010298	811.6	3.5605e-06	1.0078e-05	864.87	325.59	6.9712e-06	1.3563e-05	392.69	157.27	122.08	46.646	2.1511e-06	66.627	0.00015899	0.00012776	3.4656e-05	665.32	1.4272e-06	1.5018e-06	715.24	267.68	1.4987e-06	1.4552e-06	310.28	128.56	95.442	38.461	1.4873e-06	54.768	438.099	176.491	364.710	115.695	214.938	281.586	114.704	120.873	198.204	247.044	118.600	122.866	124.842	130.872	170.449	128.273	-8191	255	
3582.028	1	1	0	0	0.16901	0.16964	0.24723	0.23186	0.12268	0.35794	0.016401	0.22019	0.22213	0.072546	0.15776	0.2795	0.13634	0.15654	0.164	0.19608	-1.4375	-1.5583	-1.7708	-2.0229	-1.6125	-2.125	-1.5958	-1.7979	-1.8583	-1.5	-1.9312	-1.775	-1.4937	-2.1896	-1.5875	-1.7958	287.154	170.753	312.401	215.834	214.689	238.055	395.485	395.184	329.654	135.602	375.764	437.860	345.734	379.066	438.808	416.552	0.0017252	0.00060447	3.8139e-05	817.06	2.3449e-06	6.0555e-06	876.75	326.75	4.2122e-06	1.0171e-05	394.25	157.97	122.73	46.768	7.1893e-06	66.409	0.00016648	0.00013246	3.6075e-05	667.98	1.5213e-06	1.3717e-06	719.31	268.43	1.4894e-06	1.4316e-06	313.63	129.22	96.013	38.575	1.4574e-06	54.772	444.813	167.884	251.319	115.622	172.480	220.801	114.354	120.881	277.483	233.266	119.093	123.371	124.271	130.795	226.800	127.595	-8191	255	
3582.149	1	1	0	0	0.26238	0.18599	0.15493	0.25521	0.096696	0.20195	0.29799	0.33275	0.19032	0.14773	0.11623	0.13776	0.17975	0.22217	0.080684	0.45838	-1.3875	-1.4917	-1.7917	-1.9208	-1.4979	-1.8021	-1.8833	-1.8146	-1.8167	-1.3333	-1.9125	-1.9979	-1.5604	-2.125	-1.675	-1.7	359.021	282.009	349.021	367.481	332.835	382.031	372.147	130.993	451.397	148.581	369.984	194.463	260.317	106.050	431.429	374.770	0.0017866	0.00060971	0.00024553	820.08	8.0462e-06	3.467e-06	882.56	325.54	7.9678e-06	7.3085e-06	397.22	158.02	121.62	46.266	2.8233e-06	66.526	0.00016852	0.00012928	3.6745e-05	670.37	1.5005e-06	1.4341e-06	724.11	267.63	1.5006e-06	1.4628e-06	313.72	129.48	95.331	38.226	1.4948e-06	54.421	441.342	169.828	203.926	115.530	162.344	240.740	114.329	120.545	197.688	258.498	119.033	123.453	124.556	130.870	218.877	127.289	-8191	255	
3582.245	1	1	0	0	0.2605	0.072522	0.21142	0.10634	0.083974	0.19992	0.14047	0.32946	0.079508	0.24413	0.18955	0.12603	0.22142	0.06625	0.1188	0.15959	-1.6083	-1.4937	-1.7417	-1.8667	-1.6958	-1.6875	-1.9292	-1.5312	-1.975	-1.6417	-1.8104	-1.8208	-1.4333	-1.7771	-1.8875	-1.5312	437.775	298.191	142.109	195.609	363.903	275.129	395.586	446.938	228.879	127.210	389.486	122.187	409.524	441.532	353.875	421.403	0.0017999	0.00083267	8.8538e-05	822.83	2.9345e-06	5.2855e-06	886.44	325.76	7.1477e-06	5.089e-06	391.7	157.63	120.37	46.139	1.061e-05	65.891	0.00016835	0.00013091	3.6989e-05	673.11	1.4312e-06	1.3977e-06	725.61	267.83	1.4331e-06	1.4327e-06	311.47	128.2	95.483	38.159	1.4701e-06	53.977	438.909	205.611	187.576	115.469	192.392	272.156	114.669	120.768	194.460	261.114	119.201	123.424	125.744	130.364	195.526	127.250	-8191	255	
3582.341	1	1	0	0	0.16219	0.16358	0.28589	0.25219	0.17278	0.18739	0.51775	0.27882	0.066169	0.031314	0.058358	0.11525	0.071578	0.20416	0.068503	0.29226	-1.5167	-1.5042	-1.5583	-2.0167	-1.5688	-1.7479	-1.7833	-1.625	-1.9479	-1.6167	-1.7042	-2.0271	-1.5333	-1.8937	-1.9146	-1.5229	194.679	310.838	181.205	362.101	267.401	375.888	104.520	424.478	427.036	341.285	409.296	401.176	226.991	419.614	367.944	302.385	0.0015816	0.00076053	0.00018976	826.36	7.4602e-06	5.3102e-06	876.02	325.36	6.0555e-06	6.081e-06	386.75	156.17	122.23	46.75	7.1973e-06	66.025	0.00016434	0.00012803	3.6671e-05	670.79	1.4803e-06	1.4638e-06	716.85	267.99	1.4322e-06	1.4779e-06	308.48	127.46	95.547	38.406	1.4509e-06	54.114	443.874	197.124	178.405	115.535	183.715	277.264	114.233	120.550	235.458	210.930	118.593	123.677	124.964	130.736	220.765	127.446	-8191	255	
3582.437	1	1	0	0	0.25778	0.24848	0.20497	0.15965	0.085297	0.32007	0.1136	0.17364	0.25956	0.059758	0.20028	0.31667	0.16171	0.017148	0.17676	0.36309	-1.5562	-1.65	-1.5521	-2.175	-1.5375	-1.7396	-2.025	-1.4521	-1.7313	-1.7437	-1.4688	-2.1083	-1.5396	-1.9354	-1.9396	-1.5896	307.024	206.252	358.797	437.576	331.698	443.598	123.680	397.204	370.233	354.353	348.446	455.839	431.639	345.434	452.972	416.418	0.0015935	0.0010205	0.00029957	815.89	5.0406e-06	9.0194e-06	869.55	327.88	2.7875e-06	5.5106e-07	392.45	157.56	121.54	46.517	4.4064e-06	65.837	0.00016365	0.00013024	3.6651e-05	668.33	1.4443e-06	1.3689e-06	714.79	267.74	1.4358e-06	1.4326e-06	310.94	128.08	95.357	38.222	1.4425e-06	54.232	440.694	200.106	209.910	115.050	151.653	280.207	114.310	120.461	189.401	204.413	118.428	123.747	125.612	130.428	170.857	127.524	-8191	255	
3582.533	1	1	0	0	0.10431	0.070178	0.21995	0.15942	0.11715	0.21854	0.10717	0.29083	0.27378	0.28472	0.12084	0.23725	0.35061	0.13802	0.39313	0.083362	-1.325	-1.8875	-1.5958	-2.0646	-1.6729	-1.6792	-2.0625	-1.6958	-1.9479	-1.7042	-1.5042	-2.0396	-1.5354	-1.7854	-1.7708	-1.6083	361.300	151.332	379.560	406.206	111.934	267.854	393.148	349.058	210.418	235.907	117.410	296.453	193.116	425.429	372.023	189.595	0.0018038	0.00031437	0.00028203	821.93	1.6777e-05	8.3872e-06	881.41	325.81	2.9864e-06	2.8052e-06	394.95	157.49	122.61	47.042	4.7974e-06	66.347	0.00016321	0.00012964	3.6645e-05	669.2	1.4736e-06	1.3941e-06	722.08	267.78	1.5056e-06	1.49e-06	311.85	128.59	95.798	38.473	1.4571e-06	54.539	442.220	242.074	169.750	114.906	200.999	226.091	114.217	120.656	221.051	257.007	118.648	123.622	125.048	130.821	223.768	127.604	-8191	255	
3582.629	1	1	0	0	0.15703	0.1487	0.1617	0.22976	0.10225	0.17072	0.21211	0.13313	0.20512	0.10582	0.18162	0.2701	0.24791	0.1505	0.108	0.28242	-1.4062	-1.8833	-1.4292	-2.1271	-1.6229	-1.7375	-2.15	-1.5562	-1.8458	-1.6604	-1.4333	-2.0521	-1.6833	-1.6917	-1.9562	-1.5292	317.930	441.827	297.891	167.279	289.426	318.524	422.941	444.656	249.967	241.109	340.206	137.813	406.539	373.070	180.124	410.133	0.0017991	0.00066618	0.00032475	822.71	8.8749e-06	6.4111e-06	883.47	330.92	6.1427e-06	5.7462e-06	395.45	157.7	122.88	46.653	5.0766e-06	65.728	0.00016939	0.00013099	3.8464e-05	671.63	1.5232e-06	1.4945e-06	724.37	270.63	1.4722e-06	1.4787e-06	313.5	128.91	95.71	38.533	1.4718e-06	54.135	447.145	160.649	202.832	114.894	207.486	213.353	114.356	120.720	189.988	245.252	119.187	123.658	124.525	130.999	218.644	127.667	-8191	255	
3582.748	1	1	0	0	0.20002	0.2017	0.017565	0.18809	0.18584	0.13441	0.21302	0.15686	0.27546	0.044119	0.24194	0.03058	0.18043	0.35364	0.29799	0.24291	-1.3167	-1.9021	-1.4375	-2.0958	-1.825	-1.4083	-2.025	-1.5729	-1.7938	-1.9521	-1.5604	-1.9125	-1.7729	-1.8292	-2.1146	-1.6396	398.400	365.935	337.808	154.225	129.166	181.121	433.265	270.043	207.668	240.312	133.533	207.812	343.967	185.586	288.262	401.581	0.0015921	0.00059289	0.00013551	814.83	6.1677e-06	6.578e-06	870.89	325.57	3.9351e-06	8.5794e-06	388.5	157.73	121.83	46.361	1.0042e-05	66.252	0.0001601	0.00013348	3.6584e-05	668.06	1.469e-06	1.4568e-06	716.07	267.79	1.4615e-06	1.4161e-06	310.49	128.12	95.354	38.15	1.4143e-06	54.24	440.741	203.416	163.797	115.368	211.550	311.546	113.997	120.558	200.350	288.924	118.284	123.605	125.589	131.092	196.508	127.099	-8191	255	
3582.844	1	1	0	0	0.11675	0.2187	0.30202	0.068677	0.16539	0.14924	0.14173	0.30521	0.48241	0.22383	0.12729	0.41338	0.12029	0.32653	0.10013	0.25191	-1.2542	-1.9229	-1.5	-2.0625	-1.6979	-1.5042	-2.1104	-1.7667	-1.4937	-1.8563	-1.5417	-1.9729	-1.8333	-1.5604	-1.9708	-1.7812	124.252	360.930	166.113	135.082	168.200	435.813	356.134	408.962	296.161	318.338	183.708	460.852	277.418	459.718	460.282	104.201	0.0016979	0.00054908	7.2331e-05	814.74	4.2542e-06	1.7379e-06	872.5	326.37	4.3368e-06	1.2358e-05	397.21	156.77	121.5	46.593	1.8599e-06	66.47	0.00016365	0.00013148	3.8457e-05	667.19	1.4513e-06	1.4413e-06	720.49	268.14	1.4775e-06	1.439e-06	315.73	128.44	95.488	38.347	1.4883e-06	54.505	432.691	174.497	217.118	115.494	228.281	336.010	114.212	120.515	249.655	281.339	118.867	123.619	125.720	130.799	139.714	127.330	-8191	255	
3582.941	1	1	0	0	0.10798	0.081694	0.16955	0.40699	0.11108	0.075477	0.048535	0.15291	0.19131	0.20016	0.17471	0.21581	0.14124	0.2722	0.29855	0.38845	-1.075	-1.8813	-1.4521	-1.9458	-1.8937	-1.5854	-2.1292	-1.7542	-1.7208	-2.1083	-1.6458	-1.9354	-1.8896	-1.5021	-2.0021	-1.7854	145.391	217.960	108.018	441.379	410.882	408.276	428.232	344.223	303.684	360.156	421.900	178.181	403.590	455.219	374.484	411.768	0.0017617	0.00070838	8.0469e-05	817.69	4.182e-06	7.3453e-06	883.67	328.98	8.0975e-06	6.2739e-06	393.82	156.91	122.15	46.755	4.9297e-06	67.017	0.00016759	0.00013207	3.8142e-05	669.71	1.4561e-06	1.476e-06	722.9	269.1	1.4589e-06	1.4256e-06	314.45	129.12	95.334	38.479	1.4545e-06	54.859	440.006	184.016	132.985	115.217	181.177	305.393	114.285	120.481	236.654	241.504	118.371	123.413	125.841	130.769	213.764	127.602	-8191	255	
3583.012	1	1	0	0	0.13288	0.066993	0.21555	0.027701	0.038811	0.27143	0.30601	0.16993	0.20764	0.38387	0.33981	0.15513	0.25951	0.10808	0.15513	0.33541	-1.0917	-2.0542	-1.6708	-1.8813	-1.9875	-1.5875	-1.8146	-1.9396	-1.6229	-1.9396	-1.8729	-1.7792	-2.0875	-1.3937	-1.7292	-1.7979	291.869	197.972	187.806	239.919	443.367	331.814	387.798	369.211	382.818	195.993	426.261	355.879	411.011	180.576	371.741	355.283	0.0019079	0.00076116	0.00010941	825.1	9.5804e-06	2.3585e-06	891.11	327.85	8.3441e-06	2.4872e-06	397.69	159.24	124.13	46.362	3.6595e-06	65.935	0.00016647	0.00013136	3.7161e-05	673.71	1.4785e-06	1.4625e-06	730.53	269.83	1.5058e-06	1.4773e-06	315.74	129.69	96.546	38.358	1.4547e-06	54.376	446.060	239.328	178.281	115.380	210.204	188.125	114.319	120.380	213.081	314.621	118.428	123.844	125.462	130.819	302.493	127.274	-8191	255	
3583.108	1	1	0	0	0.065735	0.2312	0.19105	0.15164	0.12883	0.11529	0.10107	0.22506	0.13156	0.20265	0.37014	0.19622	0.27347	0.071487	0.18973	0.42218	-1.1583	-1.7896	-1.4979	-1.6104	-1.7687	-1.6187	-1.9062	-1.8021	-1.5604	-1.7625	-1.7625	-1.8833	-1.9542	-1.7542	-1.9458	-2.1479	371.292	377.387	108.277	165.434	202.990	306.266	423.487	360.866	274.797	216.141	431.221	420.451	378.929	190.544	196.136	401.762	0.0019599	0.00018784	0.00018107	822.05	1.0363e-05	3.4672e-06	882.23	328.58	9.7706e-06	8.1625e-06	390.96	157.25	122.63	46.586	2.0043e-06	66.033	0.00016661	0.00012967	3.5766e-05	671.39	1.4456e-06	1.4643e-06	723.1	269.66	1.4463e-06	1.4005e-06	309.85	128.42	96.176	38.423	1.4726e-06	54.139	438.860	444.625	218.527	115.645	184.606	309.725	114.373	120.783	190.009	316.603	119.144	123.337	126.096	130.421	204.889	127.714	-8191	255	
3583.229	1	1	0	0	0.085207	0.17094	0.17149	0.092338	0.22735	0.28106	0.21266	0.24186	0.18564	0.075681	0.12606	0.28191	0.28734	0.3757	0.099045	0.21605	-1.1521	-1.8875	-1.7333	-1.8833	-1.9896	-1.475	-1.9625	-2.0083	-1.2437	-1.8021	-1.7062	-1.7292	-2.1292	-1.7875	-1.65	-1.8771	340.140	443.795	396.783	393.059	437.435	265.337	346.973	345.774	354.715	396.617	434.478	438.659	415.389	345.197	378.122	341.172	0.0017467	0.00085373	6.2039e-05	816.91	5.3722e-06	6.5067e-06	874.85	328	8.7948e-06	9.189e-06	398.35	157.84	122.09	46.659	8.5754e-06	66.375	0.00016356	0.00012418	3.5783e-05	666.74	1.4839e-06	1.391e-06	719.75	268.81	1.4629e-06	1.378e-06	313.62	128.82	95.863	38.38	1.3963e-06	54.387	438.565	191.465	162.144	115.267	170.375	285.496	114.196	120.467	222.085	258.645	118.404	123.410	125.637	130.648	216.274	127.609	-8191	255	
3583.325	1	1	0	0	0.1978	0.069925	0.32681	0.24912	0.19321	0.20257	0.22507	0.17209	0.22305	0.24535	0.23243	0.3881	0.26578	0.33208	0.19085	0.011138	-1.0042	-1.8813	-1.8583	-1.5792	-1.8917	-1.6771	-1.8958	-1.95	-1.4917	-1.9542	-1.8146	-1.8188	-2.0521	-1.65	-1.7021	-2.0104	419.119	232.905	198.696	190.361	394.443	206.392	461.125	410.233	250.219	187.763	395.080	312.282	146.018	457.243	182.283	286.014	0.0016829	0.00062456	0.00020404	816.16	1.151e-05	6.4644e-06	880.25	324.81	1.0552e-05	1.4375e-06	400.73	156.95	122.48	46.619	5.9926e-06	66.818	0.0001618	0.00012809	3.6295e-05	666.79	1.423e-06	1.3965e-06	723.77	268.18	1.4608e-06	1.4024e-06	315.49	128.64	95.83	38.462	1.4234e-06	54.687	439.041	223.780	194.997	115.338	179.140	239.012	114.648	120.795	186.360	449.562	118.772	123.514	125.262	130.942	214.884	127.089	-8191	255	
3583.421	1	1	0	0	0.010192	0.15177	0.11677	0.36557	0.16456	0.14874	0.26935	0.20772	0.14217	0.13036	0.24954	0.16914	0.14884	0.38246	0.20201	0.50711	-1.0125	-1.9521	-1.7708	-1.6812	-2.0792	-1.8333	-1.6437	-2.2458	-1.5979	-1.7729	-1.8292	-1.7667	-1.8979	-1.8396	-1.6875	-2.1875	195.607	369.447	218.724	105.806	298.442	149.332	402.173	224.408	367.971	208.424	441.370	432.620	384.499	405.131	237.525	373.709	0.0018413	0.00050451	0.0001442	819.05	1.2421e-05	8.5063e-06	887.23	327.95	1.1407e-05	7.7548e-06	398.8	157.29	123.21	46.757	6.3753e-06	66.52	0.00016467	0.00012508	3.6277e-05	671.79	1.4531e-06	1.4014e-06	725.37	268.83	1.4434e-06	1.402e-06	316.45	129.21	96.187	38.512	1.4666e-06	54.488	435.898	225.659	179.294	115.359	201.608	226.524	114.348	121.007	222.998	210.705	119.075	123.719	125.492	130.519	282.263	127.207	-8191	255	
3583.542	1	1	0	0	0.17292	0.077421	0.023259	0.20529	0.25255	0.15223	0.085429	0.27241	0.14786	0.072935	0.16232	0.25262	0.24153	0.22699	0.098122	0.088596	-1.1458	-1.8333	-1.9333	-1.5917	-2.1042	-1.825	-1.6896	-2.0271	-1.5583	-1.9104	-1.8563	-1.6542	-2.0104	-1.8208	-1.4875	-1.9854	432.611	202.732	212.081	407.501	133.158	371.302	410.386	421.250	248.905	290.025	163.849	389.840	438.759	424.220	260.037	444.703	0.0016294	0.0010522	0.00025281	820.57	3.6372e-06	5.438e-06	877.82	326.69	1.2591e-05	4.7438e-06	395.03	156.96	122.88	46.234	8.8987e-06	65.434	0.00016521	0.00013239	3.5692e-05	670.76	1.3945e-06	1.3711e-06	721.83	269.41	1.4283e-06	1.3826e-06	311.5	127.97	95.9	38.27	1.4071e-06	53.634	442.654	229.573	183.716	115.288	240.088	279.259	113.694	120.678	209.009	180.098	118.496	123.443	125.887	130.897	186.090	127.249	-8191	255	
3583.614	1	1	0	0	0.23346	0.11507	0.080086	0.17762	0.080375	0.15834	0.23817	0.31004	0.13423	0.10875	0.19964	0.1735	0.058003	0.22326	0.17185	0.25295	-1.2083	-1.5854	-1.8667	-1.5	-1.8354	-1.8229	-1.6042	-2.0375	-1.5729	-1.8104	-1.8438	-1.6125	-2.0208	-1.9271	-1.7792	-2.1813	322.279	444.680	317.124	117.434	314.189	445.023	392.155	110.975	155.017	194.624	138.646	377.058	251.546	448.648	336.717	366.142	0.0019159	0.00066492	0.00011414	821.68	8.6065e-06	5.9198e-06	878.46	326.79	5.2127e-06	6.753e-06	392.85	156.17	123.79	46.413	9.0487e-06	65.758	0.00016066	0.00012594	3.4454e-05	668.55	1.431e-06	1.3884e-06	720.87	267.79	1.3947e-06	1.3688e-06	312.33	127.91	95.655	38.261	1.3751e-06	53.984	444.149	205.631	296.460	115.786	174.312	246.685	114.593	120.491	239.352	227.630	118.587	123.145	125.164	130.836	270.935	127.425	-8191	255	
3583.710	1	1	0	0	0.18342	0.20779	0.13188	0.36877	0.20972	0.26178	0.24723	0.17226	0.13608	0.29515	0.11651	0.034806	0.1196	0.18276	0.045369	0.17052	-1.3458	-1.5708	-1.8333	-1.4312	-1.6375	-1.8479	-1.4292	-2.1479	-1.6708	-1.7083	-1.9937	-1.6812	-1.6938	-1.8188	-1.4646	-2.0125	154.772	288.094	230.009	304.915	434.281	372.682	428.080	395.459	132.821	257.447	234.003	430.361	183.138	435.478	256.712	428.745	0.0017079	0.00036281	0.00012458	817.48	9.2037e-06	4.4818e-06	880.82	325.38	1.0496e-05	7.0562e-06	393.46	156.81	121.78	46.299	8.0168e-06	66.548	0.00016156	0.00012665	3.6265e-05	669.29	1.414e-06	1.3499e-06	722.78	268.34	1.3984e-06	1.4355e-06	312.59	128.8	95.924	38.213	1.3752e-06	54.529	441.509	268.000	187.939	114.979	207.350	321.405	114.022	120.774	241.785	251.497	118.184	123.223	125.575	131.122	287.610	127.250	-8191	255	
3583.829	1	1	0	0	0.15448	0.24398	0.19583	0.055933	0.16668	0.24945	0.11329	0.34948	0.23567	0.2511	0.15904	0.21063	0.089811	0.3267	0.18594	0.035232	-1.1375	-1.4708	-1.8583	-1.5292	-1.9104	-2.1396	-1.6354	-1.9833	-1.875	-1.6083	-2.0604	-1.7958	-1.8333	-2.0417	-1.5917	-2.0792	424.336	104.245	421.832	357.758	409.254	308.075	413.989	417.721	406.540	334.476	386.722	306.889	103.353	403.195	312.037	219.699	0.0017173	0.00051675	0.0001072	814.47	8.7522e-06	3.44e-06	892.01	329.14	6.088e-06	4.689e-06	395.63	159.41	124.04	46.921	8.6277e-06	67.117	0.00016198	0.00013322	3.6163e-05	667.42	1.3791e-06	1.3805e-06	728.4	270.23	1.5206e-06	1.4104e-06	315.72	130.05	96.401	38.759	1.4533e-06	55.077	445.411	190.477	174.681	115.681	252.393	215.461	114.436	120.683	183.436	236.590	118.931	123.792	125.133	130.713	260.048	127.416	-8191	255	
3583.925	1	1	0	0	0.032134	0.081234	0.15061	0.24806	0.11857	0.1136	0.15507	0.20321	0.15854	0.034775	0.40906	0.11647	0.085242	0.26514	0.13973	0.50328	-1.3062	-1.5646	-1.8708	-1.9896	-1.65	-2.1958	-1.6771	-2.0042	-2.0375	-1.7208	-1.9104	-1.8771	-1.6958	-2.1292	-1.5417	-1.9896	461.397	159.046	306.421	118.611	162.341	274.293	139.245	402.647	340.689	234.871	145.051	437.908	204.113	456.588	131.975	391.773	0.0018053	0.00054792	0.00029409	822.02	2.1945e-06	4.5182e-06	883.19	331.79	3.5553e-06	2.9337e-06	398.73	158.28	122.37	46.515	7.3444e-06	66.285	0.0001713	0.00013287	3.7189e-05	673.53	1.4903e-06	1.4935e-06	725.43	270.87	1.4914e-06	1.4556e-06	315.59	129.03	96.18	38.417	1.538e-06	54.343	449.440	455.656	166.166	115.419	137.539	212.822	114.632	120.257	143.264	228.234	118.564	123.784	125.293	130.488	247.153	127.471	-8191	255	
3584.021	1	1	0	0	0.22447	0.13956	0.21678	0.23538	0.28332	0.082746	0.334	0.13817	0.18557	0.28398	0.14678	0.22847	0.11691	0.18206	0.1755	0.31628	-1.45	-1.4042	-2.1833	-1.8563	-1.7313	-1.9229	-1.75	-2.0187	-1.825	-1.6396	-2.0167	-1.8417	-1.675	-2.0708	-1.5958	-1.8229	145.705	155.279	106.728	107.726	236.758	160.979	254.084	386.269	263.187	251.650	391.346	456.666	434.571	223.547	362.580	412.034	0.0018653	0.00029149	0.00019547	817.65	1.1438e-05	1.1455e-06	882.8	328.27	5.0736e-06	8.5879e-06	396.61	157.44	123.52	46.781	5.274e-06	66.724	0.00016896	0.0001385	3.7437e-05	669.87	1.4743e-06	1.4637e-06	722.6	269.98	1.5468e-06	1.4851e-06	314.09	129.08	96.56	38.561	1.5671e-06	54.676	433.836	226.158	217.707	115.437	197.935	434.495	114.012	120.769	193.919	238.004	118.189	123.202	125.876	130.708	185.403	127.878	-8191	255	
3584.117	1	1	0	0	0.18782	0.20956	0.09711	0.17226	0.4088	0.066601	0.27384	0.1886	0.23691	0.2611	0.15534	0.049967	0.17244	0.22079	0.04065	0.29286	-1.5646	-1.4458	-1.9562	-1.8854	-1.4708	-2.0792	-1.7812	-1.7938	-2.0083	-1.3167	-2.0729	-1.7958	-1.5771	-2.2375	-1.5625	-1.775	177.707	253.561	406.391	428.317	349.150	191.540	358.257	381.553	346.682	121.088	425.935	176.688	183.475	124.528	180.924	255.718	0.0017862	0.00053142	0.00029359	817.61	6.4078e-06	2.7211e-06	879.95	330.45	1.0023e-05	9.1922e-06	402.66	158.75	122.67	46.328	8.7364e-06	66.76	0.00017337	0.00014559	3.9107e-05	670.03	1.4828e-06	1.5709e-06	726.12	270.63	1.5371e-06	1.4685e-06	318.19	130.09	96.122	38.582	1.5891e-06	54.907	443.740	223.025	216.151	115.650	204.178	326.687	114.679	120.951	265.652	182.270	118.959	123.801	125.393	130.626	256.060	127.590	-8191	255	
3584.238	1	1	0	0	0.15925	0.10168	0.20889	0.15249	0.14748	0.14568	0.28345	0.30101	0.12292	0.16674	0.27738	0.21665	0.047135	0.31751	0.067987	0.25813	-1.6417	-1.4854	-1.7729	-1.6812	-1.4208	-1.9583	-1.7125	-1.9188	-2.1167	-1.7083	-1.9125	-1.7167	-1.425	-2.0312	-1.6313	-1.5688	267.365	220.532	236.284	434.012	179.772	143.169	440.171	368.533	184.493	136.575	293.572	435.038	295.535	403.681	357.757	358.243	0.0016913	0.000572	2.0639e-05	821.85	7.7706e-06	8.1871e-06	892.78	328.74	5.9706e-06	8.0691e-06	402.38	160.15	124.03	46.942	9.4506e-06	67.685	0.00017141	0.00014407	3.8645e-05	671.24	1.5315e-06	1.5609e-06	731.22	270.7	1.6064e-06	1.5617e-06	319.82	130.9	96.545	38.81	1.5454e-06	55.448	447.641	158.918	231.059	115.249	215.069	253.585	114.124	120.546	233.230	278.849	118.480	123.411	125.099	131.114	221.313	127.513	-8191	255	
3584.309	1	1	0	0	0.17707	0.1149	0.15345	0.10796	0.1052	0.085419	0.23988	0.19811	0.11961	0.27299	0.033778	0.21208	0.11745	0.20704	0.10738	0.23716	-1.4271	-1.7437	-1.7521	-1.925	-1.4646	-1.925	-1.8229	-1.6854	-2.0229	-1.7313	-1.725	-2.1604	-1.5417	-2.0958	-1.8563	-1.6688	132.279	301.975	216.969	303.664	294.219	140.577	132.057	446.930	279.374	459.058	248.449	441.982	288.153	135.263	159.276	361.994	0.001739	0.00091666	0.00014342	828.18	7.0739e-06	9.9485e-06	889.05	330.35	1.1412e-05	1.0146e-05	397.53	159.04	123.64	46.874	7.7548e-06	66.951	0.00017824	0.00014576	3.9209e-05	676.47	1.5938e-06	1.4717e-06	731.25	272.17	1.5488e-06	1.5677e-06	315.55	130.13	96.828	38.656	1.532e-06	54.753	440.377	218.967	188.004	115.338	246.723	271.047	113.779	120.691	226.235	259.956	118.437	123.571	125.241	130.639	205.819	127.411	-8191	255	
3584.430	1	1	0	0	0.11335	0.23003	0.26182	0.10273	0.15452	0.037426	0.36242	0.18366	0.091003	0.1848	0.079693	0.2703	0.036564	0.082148	0.23542	0.15482	-1.625	-1.6229	-1.7146	-1.8583	-1.6437	-2.0396	-1.9604	-1.55	-2.1458	-1.7375	-1.6167	-2.1104	-1.5208	-1.9729	-1.7625	-1.6708	292.741	124.715	393.667	303.840	118.059	120.443	395.323	339.938	114.703	309.485	406.748	365.285	255.316	427.847	158.973	211.652	0.0017884	0.00081656	0.00013209	820.54	5.6309e-06	1.0524e-05	879.19	328.27	9.2673e-06	4.8008e-06	398.15	157.75	123.62	46.817	1.282e-05	66.691	0.00017401	0.00014195	3.9577e-05	672.37	1.5392e-06	1.4768e-06	722.67	270.65	1.6107e-06	1.5513e-06	316.66	129.38	96.795	38.61	1.5785e-06	54.692	439.489	224.863	231.751	115.403	234.937	244.578	114.570	120.735	248.318	221.200	118.517	123.264	125.379	130.989	255.653	127.793	-8191	255	
3584.526	1	1	0	0	0.13413	0.2336	0.22533	0.24685	0.24081	0.022426	0.42542	0.27275	0.40469	0.090026	0.062799	0.25942	0.23278	0.18412	0.079186	0.4332	-1.6187	-1.5688	-1.3667	-2.0479	-1.5333	-1.9271	-1.9479	-1.4854	-1.9708	-1.8375	-1.4833	-2.0062	-1.7521	-1.9375	-1.9	-1.5063	392.603	381.861	280.778	423.367	456.159	139.226	320.975	102.491	314.446	392.914	298.430	399.323	315.403	416.032	394.166	348.142	0.0020588	0.0002332	8.1466e-05	817.68	4.7013e-06	6.8904e-06	878.86	330.63	6.1554e-06	1.021e-05	397.7	158.78	122.51	46.596	4.2363e-06	66.088	0.00017834	0.00014083	3.8809e-05	671.6	1.6124e-06	1.5612e-06	723.49	271.05	1.5544e-06	1.5424e-06	314.02	129.84	96.489	38.562	1.5959e-06	54.497	434.348	248.833	224.192	115.518	212.004	316.510	114.424	120.440	289.046	309.331	119.680	123.528	125.504	130.915	264.799	127.661	-8191	255	
3584.622	1	1	0	0	0.069504	0.19588	0.3171	0.13936	0.09208	0.028795	0.25737	0.3384	0.093377	0.099807	0.27121	0.18017	0.25286	0.13008	0.036513	0.065754	-1.4937	-1.5958	-1.5146	-2.1646	-1.6646	-1.725	-2.0354	-1.6896	-1.8625	-1.7208	-1.5271	-1.9688	-1.5979	-1.7125	-1.8167	-1.6208	211.816	416.556	160.997	155.486	460.711	355.151	430.113	111.371	173.578	152.879	182.798	378.703	454.321	382.211	264.515	455.826	0.0016967	0.00027401	0.00013479	824.19	6.5929e-06	3.2698e-06	882.34	328.89	6.1954e-06	4.7618e-06	400.47	158.85	122.86	47.061	5.661e-06	66.277	0.00017576	0.00014255	3.9225e-05	673.17	1.644e-06	1.5319e-06	726.52	271.15	1.5662e-06	1.5995e-06	318.38	129.72	96.482	38.76	1.5762e-06	54.817	443.124	309.997	318.872	115.482	223.957	205.349	114.261	120.465	281.594	175.176	118.713	123.624	124.884	130.878	284.729	127.820	-8191	255	
3584.717	1	1	0	0	0.10009	0.17978	0.086309	0.17942	0.031613	0.15043	0.27154	0.31706	0.19176	0.2277	0.14254	0.15369	0.072812	0.068336	0.055946	0.020928	-1.5917	-1.9271	-1.6771	-1.9625	-1.6583	-1.7062	-2.0083	-1.65	-2.0854	-1.9312	-1.5917	-2.0187	-1.625	-1.7042	-2.0875	-1.7354	164.413	341.150	423.816	461.764	307.059	162.872	429.138	432.929	238.984	347.496	439.429	109.139	178.785	406.552	391.286	116.955	0.0016923	0.0005314	0.00018894	826.96	8.7176e-06	1.0809e-05	883.54	329.94	4.3115e-06	6.6043e-06	399.9	157.5	122.34	46.765	3.0006e-06	66.537	0.0001672	0.00014619	4.1157e-05	675.75	1.5381e-06	1.5459e-06	726.89	271.78	1.5432e-06	1.5337e-06	316.55	128.97	96.42	38.654	1.582e-06	54.469	440.331	199.030	175.166	115.495	218.146	262.511	114.303	120.980	119.462	261.644	118.437	123.338	124.821	131.022	252.050	127.859	-8191	255	
3584.813	1	1	0	0	0.14091	0.24537	0.29229	0.15655	0.30119	0.16326	0.24324	0.20743	0.14922	0.21654	0.15034	0.28496	0.067571	0.085453	0.1715	0.10826	-1.5667	-1.9896	-1.4917	-1.9521	-1.6104	-1.7938	-2.0292	-1.7604	-1.7812	-1.6604	-1.6479	-2.0625	-1.5438	-1.5938	-1.9021	-1.7458	284.327	387.811	197.706	283.913	437.025	254.645	412.254	127.229	132.371	215.102	163.375	434.513	173.039	219.575	436.614	401.173	0.0017853	0.001317	0.0001337	828.15	6.7266e-06	3.1433e-06	874.04	330.32	9.9619e-06	5.1957e-06	394.09	155.83	123.1	46.361	8.5246e-06	65.263	0.00017853	0.00014347	3.8841e-05	674.13	1.5482e-06	1.5848e-06	719.36	270.59	1.5279e-06	1.5584e-06	312.15	127.71	96.492	38.249	1.5317e-06	53.682	442.808	233.705	441.807	115.487	186.749	234.908	114.315	121.074	253.789	292.711	118.622	123.276	124.884	131.365	205.146	127.520	-8191	255	
3584.909	1	1	0	0	0.10825	0.21422	0.22202	0.11193	0.17572	0.10438	0.22821	0.019842	0.14953	0.13074	0.17482	0.28354	0.16473	0.25613	0.17906	0.2419	-1.2313	-1.8563	-1.3146	-1.7375	-1.6042	-1.5771	-1.9604	-1.6292	-1.6313	-2.1125	-1.4688	-2.0625	-1.8312	-1.4917	-1.9146	-1.7583	168.452	336.957	165.162	306.728	153.050	403.261	427.370	456.742	380.944	287.567	415.373	414.854	422.457	396.866	157.851	387.265	0.0015312	0.00045888	0.00027088	826.61	4.0761e-06	3.3095e-06	883.81	329.13	6.9074e-06	3.3651e-06	393.26	156.48	123.98	46.702	2.7625e-06	66.177	0.00017048	0.00014427	3.8553e-05	674.63	1.539e-06	1.5076e-06	721.75	269.8	1.6158e-06	1.5402e-06	311.8	127.85	96.639	38.409	1.5817e-06	54.089	444.517	266.831	183.372	115.201	208.487	350.112	114.680	120.697	179.453	230.225	118.311	123.373	124.397	130.724	289.440	127.052	-8191	255	
3585.005	1	1	0	0	0.032271	0.1524	0.12607	0.20043	0.28026	0.19223	0.060504	0.053981	0.15713	0.17717	0.21123	0.099253	0.03135	0.066867	0.081363	0.13724	-1.2188	-1.9333	-1.55	-2.0146	-1.8125	-1.4521	-2.0417	-1.8667	-1.7292	-2.0062	-1.5042	-1.9042	-1.9188	-1.6667	-1.9813	-1.8792	323.009	213.368	368.138	415.683	357.191	261.318	284.504	135.391	138.250	377.413	301.711	192.452	157.761	396.311	370.652	424.880	0.0016036	0.00021164	0.00017303	824.68	7.2816e-06	9.3133e-06	876.29	331.2	6.8197e-06	7.8902e-06	393.81	156.45	122.94	46.555	2.2276e-06	66.155	0.00017516	0.00013998	3.9521e-05	674.94	1.5264e-06	1.5583e-06	722.77	271.08	1.5752e-06	1.4851e-06	312.75	127.94	96.24	38.447	1.5533e-06	54.029	436.629	212.179	171.724	115.539	173.094	276.765	113.935	120.415	189.045	225.752	119.303	123.726	125.769	130.995	213.715	127.283	-8191	255	
3585.101	1	1	0	0	0.26238	0.032788	0.2097	0.040069	0.12277	0.14867	0.22488	0.19308	0.15781	0.012844	0.19672	0.28521	0.23002	0.25555	0.24383	0.12198	-1.2563	-2.0583	-1.4896	-1.9646	-1.9125	-1.4958	-2.1417	-1.9021	-1.4854	-2.0771	-1.8667	-1.9312	-2.0458	-1.5417	-1.8458	-1.8333	199.751	194.670	103.721	376.693	460.052	429.899	381.003	439.275	277.577	232.937	396.796	446.394	298.096	107.253	189.976	399.139	0.0015539	0.00038182	0.00013171	814.62	7.8124e-06	4.0831e-06	880.19	330.78	9.9724e-06	7.6605e-06	401.92	156.84	124.4	46.508	7.7348e-06	65.59	0.00016748	0.00013656	3.8983e-05	672.17	1.4793e-06	1.4643e-06	724.01	271.77	1.5062e-06	1.427e-06	315.57	128.12	96.79	38.405	1.3749e-06	53.711	445.661	182.120	161.182	115.516	200.098	243.480	114.315	120.505	212.131	289.182	118.924	123.467	125.114	130.523	241.113	127.130	-8191	255	
3585.198	1	1	0	0	0.10032	0.10328	0.244	0.13453	0.24403	0.10196	0.10828	0.071092	0.13801	0.10291	0.28399	0.26514	0.11119	0.13578	0.20554	0.27531	-1.3563	-2.0167	-1.5688	-1.7687	-2.1583	-1.5521	-2.1854	-1.9562	-1.6437	-2.1875	-1.8833	-1.8833	-2.0604	-1.6479	-1.8875	-1.8833	227.424	234.571	236.112	341.705	157.589	179.661	419.126	269.240	355.942	150.817	136.681	352.668	388.036	154.223	345.529	359.448	0.001755	0.00045177	0.00014677	822.94	3.0982e-06	3.6947e-06	883.58	329.11	3.1073e-06	4.1983e-06	391.77	154.69	123.31	46.129	6.2411e-06	64.966	0.00016111	0.0001271	3.2936e-05	672.44	1.3157e-06	1.3021e-06	719.84	270.33	1.3511e-06	1.3025e-06	309.27	126.66	96.023	38.179	1.3351e-06	53.379	441.360	236.456	192.524	115.447	158.311	184.325	114.350	120.554	278.249	291.522	118.689	123.433	125.265	131.407	215.754	128.053	-8191	255	
3585.318	1	1	0	0	0.30029	0.069906	0.11537	0.086576	0.21148	0.24145	0.29659	0.063932	0.16035	0.2612	0.19075	0.4796	0.31468	0.15926	0.12703	0.13378	-1.1125	-1.9813	-1.5438	-1.6125	-2.075	-1.6854	-1.8188	-2.1188	-1.6354	-1.925	-1.6771	-1.6375	-1.9813	-1.5125	-2.0479	-2.1188	436.898	288.779	119.760	275.684	313.913	417.691	119.182	411.520	425.830	381.022	460.485	438.599	419.488	383.704	254.437	439.900	0.00174	0.00068803	0.00013878	822.35	7.6655e-06	1.033e-05	867.29	329.31	4.8248e-06	8.6121e-06	390.75	156.5	124.26	46.604	7.8795e-06	65.736	0.00015308	0.00011605	3.2609e-05	669.51	1.2502e-06	1.2606e-06	714.98	269.75	1.2381e-06	1.2391e-06	311.76	127.29	96.425	38.458	1.2703e-06	53.642	442.697	177.070	169.021	115.504	190.490	318.997	114.100	120.460	181.827	220.148	117.962	123.323	125.659	130.811	220.481	127.616	-8191	255	
3585.414	1	1	0	0	0.12731	0.14761	0.10714	0.18839	0.19596	0.27435	0.16049	0.23301	0.066153	0.16402	0.36668	0.28185	0.19975	0.21627	0.14885	0.13504	-0.92917	-1.9062	-1.7729	-1.5125	-2.1375	-1.6896	-1.8062	-2.1562	-1.5562	-2.0167	-1.8813	-1.6542	-2.1937	-1.8042	-1.6833	-2.1167	215.569	245.142	343.788	391.516	453.736	191.598	434.350	358.732	136.111	458.350	106.952	437.804	165.298	415.863	229.807	139.227	0.0017146	0.00025169	6.5893e-05	816.67	9.8605e-06	3.8838e-06	874.4	326.28	5.55e-06	5.136e-06	392.61	157.12	123.7	46.718	9.187e-06	65.587	0.0001516	0.00010744	3.2695e-05	670.99	1.2327e-06	1.2355e-06	717.38	268.94	1.256e-06	1.2269e-06	310.38	127.83	95.834	38.44	1.2538e-06	53.656	444.169	139.048	222.786	115.561	226.964	182.619	114.317	120.367	242.483	232.919	118.734	123.599	124.836	130.438	215.005	127.451	-8191	255	
3585.510	1	1	0	0	0.16662	0.15576	0.25663	0.24332	0.23818	0.23929	0.18049	0.092021	0.24767	0.085573	0.31085	0.2546	0.28088	0.2046	0.15273	0.33919	-1.0333	-1.7271	-1.9396	-1.5625	-1.9542	-1.7396	-1.6979	-2.0375	-1.4625	-1.8	-1.8729	-1.7771	-1.975	-1.9125	-1.9375	-2.0521	257.732	388.207	119.408	395.423	364.645	133.934	256.823	416.980	311.748	158.373	402.598	410.392	329.972	105.878	450.340	406.936	0.0016171	0.00057553	0.00010974	816.89	5.1966e-06	3.8513e-06	873.84	330.84	6.7187e-06	4.0274e-06	396.04	156.65	122.84	46.381	4.925e-06	65.947	0.00014537	0.00010818	3.0959e-05	669.88	1.2325e-06	1.2053e-06	721.42	270.79	1.2511e-06	1.1458e-06	311.44	127.6	96.195	38.393	1.2283e-06	53.749	439.632	254.453	189.959	115.379	271.697	302.026	114.083	120.517	223.536	322.103	118.756	123.676	124.994	131.004	223.215	127.275	-8191	255	
3585.607	1	1	0	0	0.30979	0.29465	0.16243	0.3077	0.14206	0.015319	0.036208	0.15446	0.10034	0.19711	0.16969	0.57905	0.21747	0.30641	0.20686	0.12673	-1.2771	-1.8062	-1.9208	-1.6688	-1.8542	-1.7	-1.6458	-2.2083	-1.6708	-1.8167	-2.2042	-1.5312	-2.0875	-1.8479	-1.5208	-2.2333	356.032	390.586	337.674	443.772	202.202	389.112	148.523	399.009	194.666	157.251	437.982	424.834	244.267	446.779	187.283	113.846	0.0017343	0.00056944	0.0001253	830.31	3.2574e-06	4.9245e-06	870.12	329.86	5.4957e-06	4.2979e-06	387.75	154.88	122.1	46.641	7.9269e-06	65.104	0.00013952	0.00010195	3.1458e-05	674.39	1.1987e-06	1.2184e-06	715.38	270.19	1.2162e-06	1.224e-06	307.02	125.96	95.574	38.342	1.2513e-06	53.172	446.068	176.897	160.382	115.389	192.939	234.697	114.330	120.305	191.727	272.593	118.764	123.687	125.485	130.715	264.942	127.122	-8191	255	
3585.703	1	1	0	0	0.27229	0.31226	0.265	0.21828	0.091326	0.19282	0.0714	0.19616	0.18718	0.10436	0.13095	0.38859	0.16157	0.13986	0.13913	0.1239	-1.3979	-1.7396	-2.1104	-1.5708	-1.8917	-1.7062	-1.6271	-2.125	-1.6417	-1.9146	-1.9167	-1.7333	-1.9813	-1.8375	-1.4438	-2.0271	407.883	132.471	394.641	180.939	290.374	159.212	137.236	418.360	274.100	181.334	222.243	379.239	324.107	364.652	188.696	394.410	0.0017124	0.00059952	7.7229e-05	827.04	7.3839e-06	4.3201e-06	870.8	325.84	4.7561e-06	3.0114e-06	393.58	154.54	123.27	46.85	7.7574e-06	64.958	0.00014516	0.00010874	3.0905e-05	672.91	1.2215e-06	1.2013e-06	712	268.28	1.1911e-06	1.202e-06	309.94	126.18	95.779	38.276	1.2357e-06	53.165	439.164	213.420	206.654	115.697	195.194	195.410	114.177	120.798	207.508	255.082	118.824	123.479	125.492	130.955	215.791	127.449	-8191	255	
3585.799	1	1	0	0	0.16809	0.10346	0.12576	0.3709	0.3506	0.25144	0.17691	0.29172	0.22984	0.23223	0.24897	0.27241	0.27142	0.11578	0.28092	0.13314	-1.2729	-1.8167	-1.9813	-1.525	-1.8646	-1.9771	-1.4833	-2.1188	-1.7292	-1.7208	-2.1188	-1.6208	-1.6521	-1.8292	-1.5938	-2.1208	104.366	329.478	257.255	116.051	200.084	344.093	452.673	444.358	172.922	122.703	426.917	329.830	438.341	331.216	289.211	329.823	0.0018053	0.00058579	0.00014845	822.61	5.538e-06	8.1868e-06	874.31	326.04	8.9021e-06	4.689e-06	394	155.53	123.59	46.771	7.0043e-06	66.086	0.00014964	0.00011025	3.137e-05	669.66	1.1396e-06	1.2033e-06	716.27	268.85	1.2099e-06	1.2339e-06	309.97	127.2	96.227	38.407	1.2668e-06	53.786	441.884	218.862	239.768	115.597	219.276	203.040	114.364	120.766	233.279	261.560	118.580	123.548	125.589	130.827	217.906	127.103	-8191	255	
3585.918	1	1	0	0	0.33271	0.25553	0.044905	0.1249	0.17206	0.12549	0.22759	0.26048	0.19258	0.13556	0.22265	0.28212	0.35947	0.28798	0.088424	0.12851	-1.3208	-1.6812	-1.9271	-1.6208	-1.8687	-2.0625	-1.6146	-2.0896	-1.925	-1.7604	-1.9667	-1.7354	-1.8104	-1.9292	-1.5271	-1.9729	427.728	452.122	440.144	432.662	176.621	187.969	365.173	384.925	440.727	261.791	428.514	403.386	155.245	433.206	393.920	412.734	0.0018208	0.00090743	0.00010337	825	6.9321e-06	1.2006e-07	876.09	329.12	8.3016e-06	4.2395e-06	395.41	157.45	124.22	46.577	6.857e-06	65.517	0.00014524	0.00010864	3.154e-05	671.93	1.1809e-06	1.1991e-06	718.55	270.77	1.2034e-06	1.1983e-06	311.28	128.41	96.365	38.398	1.2597e-06	53.829	440.292	199.862	216.895	115.732	201.139	225.350	114.234	120.526	219.074	275.159	118.345	123.417	124.979	130.622	199.147	127.333	-8191	255	
3586.014	1	1	0	0	0.093641	0.37948	0.20635	0.12185	0.062896	0.11221	0.35884	0.13054	0.30667	0.1635	0.23298	0.29888	0.076885	0.24807	0.19396	0.21032	-1.3896	-1.7979	-1.9062	-2.0083	-1.8229	-2.1583	-1.6958	-1.9188	-1.7833	-1.3708	-2.1437	-1.7938	-1.7917	-2.0917	-1.7271	-1.9146	429.379	452.468	308.750	432.962	235.987	207.334	415.910	396.611	387.660	339.921	409.881	460.387	244.888	398.431	296.867	406.950	0.0018025	0.0006202	0.00011907	824.33	4.8682e-06	8.9081e-06	876.94	329.89	7.7574e-06	8.0652e-06	394.71	156.14	123.87	46.648	4.7876e-06	65.597	0.00014904	0.00010994	3.0124e-05	673	1.1849e-06	1.1219e-06	719.14	270.51	1.291e-06	1.228e-06	311.48	127.34	96.117	38.453	1.2346e-06	53.634	440.558	216.066	226.457	115.475	241.424	278.714	114.341	120.593	210.163	264.724	118.906	123.188	126.013	130.772	225.033	127.051	-8191	255	
3586.110	1	1	0	0	0.17404	0.030688	0.082012	0.20911	0.20944	0.16879	0.35763	0.12261	0.36697	0.13511	0.1227	0.26301	0.18496	0.44306	0.21382	0.11117	-1.5562	-1.6688	-2.0479	-2.0604	-1.6458	-2.1521	-1.65	-1.975	-2.0208	-1.5792	-1.9396	-1.7833	-1.5521	-2.2271	-1.7917	-2.0292	283.996	159.622	360.344	417.784	320.661	393.789	129.319	440.026	337.578	352.046	116.462	403.224	115.507	369.330	121.542	187.222	0.0016704	0.0006162	0.0001042	814.38	1.1001e-05	9.8498e-06	872.31	327.91	8.9682e-06	5.1217e-06	392.45	156.26	123.29	47.064	7.7737e-06	65.518	0.00015038	0.00011621	3.1536e-05	669.89	1.2735e-06	1.3201e-06	718.22	269.29	1.3444e-06	1.4066e-06	309	127.43	96.087	38.599	1.408e-06	53.671	450.641	229.798	207.230	115.256	206.097	273.136	114.294	121.112	236.746	304.203	119.225	123.558	125.502	131.292	211.915	127.244	-8191	255	
3586.206	1	1	0	0	0.089854	0.17713	0.19222	0.18857	0.25167	0.081412	0.18233	0.093736	0.19117	0.10021	0.28945	0.21309	0.28603	0.30747	0.22335	0.23389	-1.5854	-1.5042	-1.9708	-1.7792	-1.6479	-2.0812	-1.8104	-1.8708	-2.1125	-1.6917	-1.9521	-1.9688	-1.7146	-2.0271	-1.65	-1.6958	321.496	293.723	280.343	458.640	127.875	102.987	443.573	211.654	272.396	265.861	413.155	425.369	129.351	155.342	267.714	402.604	0.0017166	0.00037359	0.00017262	821.15	8.8819e-06	6.2692e-06	883.13	326.33	1.2929e-05	2.9792e-06	394.8	157.34	124.57	47.091	1.9976e-06	66.124	0.00015524	0.00012218	3.3734e-05	672.4	1.361e-06	1.3337e-06	722.1	268.85	1.4023e-06	1.3189e-06	313.05	128.72	96.998	38.703	1.3368e-06	54.298	448.301	147.248	169.008	115.900	204.807	330.656	114.053	120.807	216.877	185.317	119.220	123.545	124.807	130.977	192.715	127.452	-8191	255	
#DATA ENDS
