BOXY.EXE: ISS Imagent and Oximeter Data Acquisition Program Version 0.80
Ascii Record File

#ACQ INFORMATION
2  Detector Channels 
16  External MUX Channels 
1  Auxiliary Channels 
5000  Waveform (CCF) Frequency (Hz)
1  Waveforms Skipped 
30  Waveforms Averaged 
1  Cycles Averaged 
16  Acquisitions per Waveform 
10.0806  Updata Rate (Hz) 

#FILE INFORMATION
TRUE -- External MUX Channel results are PARSED.
FALSE -- AC DC and Phase are NOT grouped.
TRUE -- Companion Program Settings File CREATED.
FALSE -- AC data not excluded
FALSE -- DC data not excluded
FALSE -- Phase data not excluded
FALSE -- Auxillary Chn. data not excluded
Tab delimiters

#CALIBRATION STATE
TRUE -- Waveform Calibration Values APPLIED.


#AUX CALIBRATION VALUES
Val Type	aux-1	

Term	1.0000e+00	
Factor	0.0000e+00	


#WF CALIBRATION VALUES
A = Detector Channel
Val Type	A-AC1	A-AC2	A-AC3	A-AC4	A-AC5	A-AC6	A-AC7	A-AC8	A-AC9	A-AC10	A-AC11	A-AC12	A-AC13	A-AC14	A-AC15	A-AC16	A-DC1	A-DC2	A-DC3	A-DC4	A-DC5	A-DC6	A-DC7	A-DC8	A-DC9	A-DC10	A-DC11	A-DC12	A-DC13	A-DC14	A-DC15	A-DC16	A-Ph1	A-Ph2	A-Ph3	A-Ph4	A-Ph5	A-Ph6	A-Ph7	A-Ph8	A-Ph9	A-Ph10	A-Ph11	A-Ph12	A-Ph13	A-Ph14	A-Ph15	A-Ph16	

Term	0.00000e+00	0.00000e+00	0.00000e+00	0.00000e+00	0.00000e+00	0.00000e+00	0.00000e+00	0.00000e+00	0.00000e+00	0.00000e+00	0.00000e+00	0.00000e+00	0.00000e+00	0.00000e+00	0.00000e+00	0.00000e+00	0.00000e+00	0.00000e+00	0.00000e+00	0.00000e+00	0.00000e+00	0.00000e+00	0.00000e+00	0.00000e+00	0.00000e+00	0.00000e+00	0.00000e+00	0.00000e+00	0.00000e+00	0.00000e+00	0.00000e+00	0.00000e+00	0.00000e+00	0.00000e+00	0.00000e+00	0.00000e+00	0.00000e+00	0.00000e+00	0.00000e+00	0.00000e+00	0.00000e+00	0.00000e+00	0.00000e+00	0.00000e+00	0.00000e+00	0.00000e+00	0.00000e+00	0.00000e+00	
Factor	1.00000e+00	1.00000e+00	1.00000e+00	1.00000e+00	1.00000e+00	1.00000e+00	1.00000e+00	1.00000e+00	1.00000e+00	1.00000e+00	1.00000e+00	1.00000e+00	1.00000e+00	1.00000e+00	1.00000e+00	1.00000e+00	1.00000e+00	1.00000e+00	1.00000e+00	1.00000e+00	1.00000e+00	1.00000e+00	1.00000e+00	1.00000e+00	1.00000e+00	1.00000e+00	1.00000e+00	1.00000e+00	1.00000e+00	1.00000e+00	1.00000e+00	1.00000e+00	X	X	X	X	X	X	X	X	X	X	X	X	X	X	X	X	

B = Detector Channel
Val Type	B-AC1	B-AC2	B-AC3	B-AC4	B-AC5	B-AC6	B-AC7	B-AC8	B-AC9	B-AC10	B-AC11	B-AC12	B-AC13	B-AC14	B-AC15	B-AC16	B-DC1	B-DC2	B-DC3	B-DC4	B-DC5	B-DC6	B-DC7	B-DC8	B-DC9	B-DC10	B-DC11	B-DC12	B-DC13	B-DC14	B-DC15	B-DC16	B-Ph1	B-Ph2	B-Ph3	B-Ph4	B-Ph5	B-Ph6	B-Ph7	B-Ph8	B-Ph9	B-Ph10	B-Ph11	B-Ph12	B-Ph13	B-Ph14	B-Ph15	B-Ph16	

Term	0.00000e+00	0.00000e+00	0.00000e+00	0.00000e+00	0.00000e+00	0.00000e+00	0.00000e+00	0.00000e+00	0.00000e+00	0.00000e+00	0.00000e+00	0.00000e+00	0.00000e+00	0.00000e+00	0.00000e+00	0.00000e+00	0.00000e+00	0.00000e+00	0.00000e+00	0.00000e+00	0.00000e+00	0.00000e+00	0.00000e+00	0.00000e+00	0.00000e+00	0.00000e+00	0.00000e+00	0.00000e+00	0.00000e+00	0.00000e+00	0.00000e+00	0.00000e+00	-2.24060e+02	-1.11729e+02	-1.18567e+02	-1.84289e+02	-1.11961e+02	-6.00827e+01	-1.55886e+02	-1.62015e+02	-1.01531e+02	-6.74875e+01	-1.85687e+02	-1.70606e+02	-1.87784e+02	-1.76603e+02	-9.45758e+01	-1.49601e+02	
Factor	5.43509e-05	1.63650e-04	4.33084e-05	2.33733e-01	1.94758e-06	1.75263e-06	1.64518e-01	5.27251e-02	1.66082e-06	1.87297e-06	2.24341e-01	3.14586e-02	6.61009e-02	9.37024e-03	1.76255e-06	1.36036e-02	1.76928e-06	1.83696e-06	5.12401e-07	1.16323e-01	2.00414e-08	2.01515e-08	7.78427e-02	2.64679e-02	1.99929e-08	2.01544e-08	1.02877e-01	1.51848e-02	3.14592e-02	4.69440e-03	2.00290e-08	6.58755e-03	X	X	X	X	X	X	X	X	X	X	X	X	X	X	X	X	



#DISTANCE SETTINGS
A = Detector Channel
A-1	A-2	A-3	A-4	A-5	A-6	A-7	A-8	A-9	A-10	A-11	A-12	A-13	A-14	A-15	A-16	

2.5000e+00	3.0000e+00	2.5000e+00	3.0000e+00	2.0000e+00	3.0000e+00	1.5000e+00	3.0000e+00	3.0000e+00	3.0000e+00	3.0000e+00	3.0000e+00	3.0000e+00	3.0000e+00	1.5000e+00	3.0000e+00	

B = Detector Channel
B-1	B-2	B-3	B-4	B-5	B-6	B-7	B-8	B-9	B-10	B-11	B-12	B-13	B-14	B-15	B-16	

1.0000e+01	1.0000e+01	1.0000e+01	1.4400e+00	1.0000e+01	1.0000e+01	1.5100e+00	1.9400e+00	1.0000e+01	1.0000e+01	1.9900e+00	2.4900e+00	2.4100e+00	2.9000e+00	1.0000e+01	2.9800e+00	




#DATA BEGINS
time	group	step	mark	flag	A-AC1	A-AC2	A-AC3	A-AC4	A-AC5	A-AC6	A-AC7	A-AC8	A-AC9	A-AC10	A-AC11	A-AC12	A-AC13	A-AC14	A-AC15	A-AC16	A-DC1	A-DC2	A-DC3	A-DC4	A-DC5	A-DC6	A-DC7	A-DC8	A-DC9	A-DC10	A-DC11	A-DC12	A-DC13	A-DC14	A-DC15	A-DC16	A-Ph1	A-Ph2	A-Ph3	A-Ph4	A-Ph5	A-Ph6	A-Ph7	A-Ph8	A-Ph9	A-Ph10	A-Ph11	A-Ph12	A-Ph13	A-Ph14	A-Ph15	A-Ph16	B-AC1	B-AC2	B-AC3	B-AC4	B-AC5	B-AC6	B-AC7	B-AC8	B-AC9	B-AC10	B-AC11	B-AC12	B-AC13	B-AC14	B-AC15	B-AC16	B-DC1	B-DC2	B-DC3	B-DC4	B-DC5	B-DC6	B-DC7	B-DC8	B-DC9	B-DC10	B-DC11	B-DC12	B-DC13	B-DC14	B-DC15	B-DC16	B-Ph1	B-Ph2	B-Ph3	B-Ph4	B-Ph5	B-Ph6	B-Ph7	B-Ph8	B-Ph9	B-Ph10	B-Ph11	B-Ph12	B-Ph13	B-Ph14	B-Ph15	B-Ph16	aux-1	digaux	

3507.186	1	1	0	768	0.11892	0.054146	0.11556	0.39126	0.11274	0.18839	0.1544	0.39719	0.13089	0.063817	0.38276	0.33028	0.16452	0.28163	0.17096	0.17967	-1.2896	-1.6083	-1.5646	-1.9604	-1.3583	-1.9833	-1.9458	-1.7146	-2.0646	-1.4771	-1.6792	-2.0979	-1.525	-1.9813	-1.6562	-1.7292	172.562	302.256	116.091	416.278	328.461	293.402	349.019	384.573	196.580	162.828	405.621	376.343	352.446	430.527	149.290	364.567	0.0039237	0.0019575	0.00097597	1409.3	3.0409e-05	4.8904e-05	1589.2	488.73	5.4655e-05	4.5139e-06	635.12	233.94	184.04	69.747	1.9035e-05	101.89	0.006031	0.0063327	0.001785	1467.7	7.0642e-05	7.019e-05	1484.1	464.86	6.8043e-05	6.822e-05	798.97	228.88	234.62	67.922	6.327e-05	97.408	83.755	396.393	119.507	85.830	140.680	129.575	84.444	90.647	292.906	339.669	88.230	93.830	94.815	100.349	220.514	98.126	-8191	255	
3507.283	1	1	0	0	0.42325	0.038293	0.10993	0.32968	0.2933	0.16613	0.28097	0.35055	0.12566	0.16281	0.18862	0.40014	0.1048	0.24667	0.04506	0.15904	-1.5562	-1.6938	-1.6979	-1.9854	-1.5562	-1.7854	-1.8667	-1.6729	-1.8062	-1.7042	-1.8062	-1.9583	-1.7437	-1.8208	-2.0563	-1.5958	115.346	423.251	224.417	391.457	308.824	247.277	324.240	392.643	189.219	105.242	388.959	379.068	350.205	376.753	245.415	380.768	0.0007695	0.0049324	0.00037562	1392.8	1.6174e-05	2.8139e-05	1557.7	488.99	6.6167e-05	2.0329e-05	621.85	237.97	183.03	70.218	7.5531e-06	101.4	0.0053631	0.0052829	0.0014158	1362.2	5.2231e-05	5.1053e-05	1380.3	435.91	4.7748e-05	4.7667e-05	687.7	214.19	201.84	63.717	4.3636e-05	91.054	377.447	134.500	116.127	86.325	240.682	252.584	85.068	91.157	151.623	231.049	89.628	94.208	94.920	100.675	262.413	98.157	-8191	255	
3507.379	1	1	0	0	0.22005	0.1914	0.27945	0.26995	0.39379	0.22845	0.34323	0.33359	0.2724	0.31228	0.17888	0.1152	0.26152	0.33614	0.12045	0.31532	-1.4813	-1.7146	-1.6	-1.9417	-1.6354	-1.7125	-2.1604	-1.7167	-2.0812	-1.7083	-1.6104	-2.1354	-1.5646	-1.7271	-2.0938	-1.6313	365.808	252.789	403.171	399.344	137.721	178.539	88.268	373.585	386.685	217.704	172.982	386.727	192.076	81.568	137.943	326.275	0.0019478	0.0039102	0.00067117	1367.3	5.3484e-05	3.996e-05	1550.1	491.12	4.0063e-05	3.4933e-05	631.36	236.31	184.74	69.519	3.7997e-05	101.03	0.0036741	0.003686	0.00099139	1254.9	3.6757e-05	3.618e-05	1314.3	418.74	3.3802e-05	3.3593e-05	621.6	203.92	182.17	60.433	3.1562e-05	87.18	82.894	216.792	160.020	86.426	191.052	197.136	84.901	90.965	273.400	291.894	89.269	94.048	94.946	100.573	230.805	98.111	-8191	255	
3507.475	1	1	0	0	0.22853	0.20559	0.14944	0.29336	0.16442	0.033709	0.2731	0.12684	0.050185	0.27577	0.27491	0.20253	0.11766	0.27449	0.1698	0.15872	-1.3417	-1.7	-1.525	-2.2021	-1.575	-1.5187	-2.0604	-1.4479	-1.7	-1.7354	-1.4417	-1.9542	-1.7896	-1.7479	-2.0146	-1.5021	187.481	355.466	198.412	296.059	155.130	429.148	416.326	74.723	78.881	407.467	165.118	77.647	318.134	404.044	137.363	358.748	0.0021116	0.0026052	0.00081504	1386.8	2.9132e-05	1.287e-05	1548.9	492.08	2.6609e-05	3.1039e-05	631.05	235.88	185.57	70.383	1.4151e-05	100.34	0.00283	0.0028879	0.00079762	1214	3.0429e-05	3.0578e-05	1300.5	413.85	2.9633e-05	2.9781e-05	604.51	201.28	177.81	60.194	2.9243e-05	85.752	429.194	177.970	98.945	85.799	220.974	263.995	84.971	90.869	217.285	424.176	89.015	94.282	94.854	100.283	105.625	97.982	-8191	255	
3507.571	1	1	0	0	0.13434	0.1492	0.058587	0.23403	0.095333	0.018431	0.24927	0.27772	0.061906	0.36193	0.26417	0.098294	0.16983	0.22806	0.1195	0.63002	-1.3583	-1.65	-1.5125	-2.1021	-1.7771	-1.6646	-2.1688	-1.7646	-1.9229	-1.8729	-1.6562	-2.1979	-1.6396	-1.6437	-1.8979	-1.6042	167.971	119.898	223.368	366.579	140.586	272.796	384.328	377.423	406.856	407.253	356.081	76.991	136.225	405.911	206.553	372.986	0.0023549	0.0022114	0.00024145	1384.4	3.64e-05	1.0353e-05	1548.7	493.72	3.0136e-05	3.0182e-05	634.44	234.54	185.27	69.327	3.511e-05	99.719	0.0025947	0.0026603	0.00073327	1208.1	2.8468e-05	2.8485e-05	1285.7	410.42	2.8772e-05	2.9436e-05	599.37	199.19	179.38	60.018	3.003e-05	85.361	80.358	152.590	113.853	86.186	329.403	222.831	84.963	90.794	255.677	276.941	88.949	93.996	95.608	100.360	167.448	97.820	-8191	255	
3507.667	1	1	0	0	0.10145	0.11241	0.21845	0.11445	0.042793	0.15607	0.19165	0.28487	0.25713	0.20202	0.21694	0.084751	0.24117	0.25111	0.072167	0.083045	-1.1729	-1.9271	-1.45	-1.9854	-1.7812	-1.6688	-2.0812	-1.6313	-1.6625	-2.0542	-1.7437	-1.9333	-1.9208	-1.6646	-2.0646	-1.7938	351.677	215.003	279.573	398.646	206.170	146.363	372.073	412.759	84.285	336.668	300.118	134.956	144.583	389.662	95.417	176.286	0.0020641	0.0048972	0.00038481	1371.7	4.235e-05	9.8262e-06	1537.5	484.34	1.224e-05	1.1194e-05	618.37	233.02	185.02	70.127	8.8622e-06	99.06	0.0026667	0.0026667	0.00073161	1192	2.7403e-05	2.7088e-05	1268	403.75	2.5546e-05	2.5666e-05	572.58	194.66	169.57	58.687	2.3928e-05	82.895	427.512	246.408	134.354	86.522	116.393	116.767	84.814	90.998	189.339	423.318	89.649	94.039	95.246	100.288	407.281	98.125	-8191	255	
3507.788	1	1	0	0	0.14172	0.28503	0.10058	0.18785	0.11267	0.31266	0.20617	0.25066	0.28217	0.18786	0.073031	0.21468	0.11348	0.36609	0.1192	0.25844	-1.2188	-1.7771	-1.3167	-1.9583	-1.7958	-1.7625	-2.2625	-1.9104	-1.7687	-1.9708	-1.6146	-1.7646	-1.8583	-1.5229	-1.85	-1.7917	279.614	335.841	253.956	127.366	219.515	385.794	331.096	386.693	223.912	78.427	122.951	390.148	409.491	370.448	376.620	387.878	0.0012572	0.0034771	0.00099485	1364.7	6.7482e-05	1.8966e-05	1531.9	488.7	2.3027e-05	2.8517e-05	624.53	234.51	183.64	69.215	4.4939e-05	99.835	0.0021558	0.0021776	0.00060908	1163.5	2.2896e-05	2.2887e-05	1246	398.81	2.1868e-05	2.1739e-05	554.86	192.22	163.77	57.516	2.1167e-05	82.427	430.395	314.258	191.875	86.573	166.296	85.798	84.924	91.020	178.917	319.663	89.521	93.882	95.241	100.335	167.639	98.094	-8191	255	
3507.882	1	1	0	0	0.23322	0.32602	0.094276	0.44651	0.35056	0.18311	0.27472	0.18405	0.13107	0.27666	0.19628	0.1215	0.17146	0.22399	0.15006	0.26841	-1.2146	-1.8937	-1.5229	-1.8875	-1.825	-1.4958	-2.1312	-1.8937	-1.55	-1.9083	-1.6812	-1.7646	-2.0104	-1.55	-1.8333	-1.7958	164.002	388.089	319.013	395.849	344.533	256.778	368.679	360.811	400.399	166.615	352.396	370.564	216.064	403.546	85.202	424.464	0.0016023	0.0015594	0.00043144	1366.9	1.1225e-05	1.2773e-05	1529.1	484.17	1.2478e-05	7.8518e-06	621.86	236.01	185.98	69.26	2.6014e-05	98.908	0.0018956	0.0018954	0.00052622	1145	1.9935e-05	1.9966e-05	1236.4	394.67	1.9409e-05	1.9368e-05	546.16	191.54	162.65	57.162	1.9407e-05	81.507	422.028	86.117	267.359	86.243	192.012	273.692	84.920	91.080	329.022	410.554	89.533	94.138	95.208	100.550	273.155	98.265	-8191	255	
3507.978	1	1	0	0	0.12647	0.21402	0.13752	0.090971	0.33164	0.067395	0.18247	0.11398	0.20434	0.15239	0.20472	0.3302	0.19056	0.12387	0.045984	0.15046	-1.0063	-1.8292	-1.6208	-1.6521	-1.9375	-1.675	-1.8271	-1.8646	-1.3333	-1.8771	-1.5167	-1.85	-1.8271	-1.5187	-1.85	-1.9771	225.880	338.123	222.641	274.586	387.626	119.923	399.535	421.438	359.779	214.839	426.554	404.956	347.232	102.902	84.694	240.416	0.0016186	0.00077322	0.00042645	1378.5	2.5051e-05	1.6632e-05	1528	497.38	7.8068e-06	1.2668e-05	618.26	231.82	185.97	69.016	3.6451e-05	98.518	0.0017794	0.0017943	0.0004965	1148.7	2.0294e-05	2.0656e-05	1240.1	402.59	2.1241e-05	2.0992e-05	553.91	191.21	163.65	57.152	1.9821e-05	81.032	416.329	140.797	427.138	86.527	209.898	85.304	85.299	91.006	263.759	428.084	89.277	93.558	95.066	100.242	138.540	97.553	-8191	255	
3508.075	1	1	0	0	0.14962	0.04303	0.041397	0.34131	0.01011	0.12021	0.15042	0.30222	0.30517	0.19345	0.13247	0.23989	0.016552	0.29138	0.071797	0.30479	-0.92917	-1.8062	-1.6187	-1.7313	-1.875	-1.5167	-1.9521	-1.9542	-1.5583	-2.1292	-1.75	-1.7167	-2.0771	-1.5854	-2.0271	-1.9021	320.717	226.559	198.752	426.331	428.651	391.718	344.860	396.630	282.171	212.279	292.765	382.334	299.208	420.828	99.155	336.363	0.001722	0.0026269	0.00047326	1369.4	3.5154e-05	4.9479e-05	1518.5	492.58	1.9301e-05	1.4021e-05	611.08	234.27	185.84	69.134	1.9939e-05	97.834	0.0017913	0.0017899	0.00049828	1140.9	1.9264e-05	1.9341e-05	1227.8	398.56	1.8661e-05	1.8856e-05	543.9	191.76	162.82	57.157	1.9422e-05	81.129	83.936	281.016	143.491	86.049	377.038	237.037	85.084	91.201	361.188	170.832	88.976	93.854	95.648	100.470	412.359	97.754	-8191	255	
3508.171	1	1	0	0	0.19577	0.19494	0.13903	0.036046	0.12637	0.17177	0.12808	0.1714	0.13559	0.14488	0.16164	0.14734	0.13763	0.29034	0.18916	0.26018	-0.9	-2.0563	-1.5562	-1.5354	-1.8792	-1.5146	-1.8563	-1.8708	-1.3563	-1.9021	-1.8792	-1.6063	-1.9875	-1.7417	-1.6625	-2.1271	336.964	224.819	169.977	402.455	398.559	109.974	318.198	348.131	333.516	258.505	74.266	397.446	161.735	101.678	314.147	351.063	0.0020629	0.0022155	6.1278e-05	1368.2	3.3346e-05	2.2059e-05	1542.2	496.45	2.3328e-05	1.1279e-05	626.28	236.16	187.05	69.536	2.1368e-05	99.296	0.0018068	0.001827	0.00052161	1153.1	2.0661e-05	2.0742e-05	1249.7	404.37	2.0387e-05	2.0568e-05	553.68	193.13	164.37	57.223	1.9283e-05	81.31	410.612	272.976	234.061	86.110	406.354	162.124	84.771	90.925	168.046	230.579	88.828	93.963	95.045	100.368	137.104	97.702	-8191	255	
3508.267	1	1	0	0	0.10743	0.10908	0.15259	0.23396	0.11182	0.10423	0.25103	0.27497	0.27263	0.1723	0.39198	0.24675	0.20468	0.1982	0.1264	0.24896	-1.1229	-1.6688	-1.5458	-1.5625	-1.8937	-1.5396	-1.9875	-2.1083	-1.5542	-1.7417	-1.8167	-1.8229	-1.9396	-1.7646	-1.6104	-1.9813	125.634	182.531	382.144	336.994	196.101	76.515	350.120	388.685	108.828	377.730	103.406	143.584	121.611	95.624	275.449	344.755	0.0017133	0.00153	0.00034413	1374.7	3.641e-05	2.2161e-05	1532.6	493.28	1.8597e-05	1.6124e-05	621.81	233.04	185.93	69.77	9.3279e-06	99.327	0.0017134	0.0016806	0.0004653	1141.6	1.8496e-05	1.8142e-05	1237.7	398.06	1.836e-05	1.8127e-05	544.35	190.62	160.88	57.084	1.8655e-05	80.922	81.691	207.424	321.684	86.505	259.100	183.121	84.940	90.616	225.622	149.136	89.311	94.380	95.321	100.084	147.016	97.948	-8191	255	
3508.363	1	1	0	0	0.31811	0.14229	0.16794	0.28938	0.218	0.083095	0.53026	0.24026	0.20694	0.34567	0.32988	0.20944	0.27121	0.15256	0.13027	0.16993	-0.91458	-1.7917	-1.6958	-1.6313	-1.7917	-1.6271	-1.8479	-2.0708	-1.4188	-1.7833	-1.8583	-1.425	-1.9542	-1.8417	-1.3417	-2.1896	363.112	413.316	317.701	419.492	165.986	314.165	372.717	351.748	342.286	194.879	418.860	364.508	387.607	399.018	355.569	351.047	0.0024184	0.00042207	0.00046777	1391.7	5.3723e-06	6.3814e-06	1542.2	497.52	3.3116e-05	4.3426e-05	621.21	235.54	188.5	69.26	3.0621e-05	97.595	0.0017151	0.0017533	0.00050068	1158.7	1.9732e-05	1.9803e-05	1245.7	402.96	1.9717e-05	2.0099e-05	549.68	192.22	164.5	57.268	2.0259e-05	80.84	73.273	394.621	432.743	86.602	157.349	405.438	84.519	90.818	322.020	96.317	89.176	93.722	95.291	100.684	299.241	98.109	-8191	255	
3508.484	1	1	0	0	0.13767	0.062754	0.24066	0.30252	0.14769	0.16857	0.13422	0.097833	0.16568	0.077382	0.12378	0.22676	0.12341	0.20166	0.14277	0.13666	-1.1625	-1.5271	-1.8083	-1.4375	-1.8479	-1.6042	-1.6479	-2.2729	-1.6208	-1.9083	-1.8833	-1.6437	-1.8792	-2.0021	-1.3542	-1.975	155.089	201.105	195.392	395.632	191.559	112.900	357.951	369.672	102.407	361.437	427.397	426.362	405.149	91.033	139.521	407.485	0.0018151	0.0013542	6.8932e-05	1388.2	4.0809e-05	2.0859e-05	1550	497.19	2.549e-05	4.5612e-05	632.53	235.19	187.32	69.342	2.5322e-05	97.915	0.0018832	0.0019314	0.00054798	1170.2	2.1689e-05	2.1991e-05	1264.3	407.34	2.2004e-05	2.2165e-05	566.43	194.08	167.34	57.988	2.2166e-05	81.549	407.438	170.713	243.216	86.294	171.306	269.940	85.066	90.929	133.436	123.442	88.717	93.857	95.382	100.352	172.755	97.605	-8191	255	
3508.580	1	1	0	0	0.22269	0.034183	0.1557	0.18928	0.14643	0.18524	0.089578	0.33698	0.18224	0.22053	0.13337	0.24329	0.20897	0.24197	0.12519	0.13356	-1.2042	-1.5375	-1.7542	-1.5229	-1.8104	-1.7479	-1.6938	-2.0438	-1.6917	-1.4667	-1.9292	-1.65	-1.7729	-2.0187	-1.3333	-2.1	186.141	340.230	197.752	433.062	429.094	411.191	399.062	374.328	347.889	425.761	112.891	344.201	361.683	350.877	368.262	309.114	0.0023582	0.0015434	0.00030783	1391.8	1.2178e-05	2.8944e-05	1549.7	498.6	1.473e-05	5.876e-06	637.18	235.07	187.27	69.832	3.38e-05	98.963	0.0020278	0.0020556	0.00056254	1178.8	2.193e-05	2.2475e-05	1267.8	406.48	2.1784e-05	2.2063e-05	569.6	194.92	168.07	58.344	2.2794e-05	82.12	426.418	133.468	406.283	86.163	254.775	290.762	84.994	91.048	156.779	216.259	89.332	93.906	95.534	99.979	209.790	97.988	-8191	255	
3508.676	1	1	0	0	0.20124	0.24405	0.28118	0.10879	0.34416	0.40614	0.15148	0.2903	0.21253	0.051862	0.26762	0.23268	0.11948	0.17266	0.14931	0.37153	-1.125	-1.4312	-1.8917	-1.5729	-1.7021	-1.9188	-1.6146	-2.0458	-1.7208	-1.4896	-1.9625	-1.6896	-1.7563	-2.0333	-1.1646	-2.175	99.481	307.955	128.978	363.823	159.012	371.495	388.781	356.863	382.320	231.674	409.533	407.988	230.968	421.241	360.511	367.961	0.002375	0.0040351	0.00015728	1404.7	2.5131e-05	1.4091e-05	1574.7	504.39	1.576e-05	2.1344e-05	639.16	238.06	187.42	70.55	1.9706e-05	98.909	0.0020943	0.0021144	0.00059792	1195.8	2.3527e-05	2.429e-05	1295	412.99	2.4479e-05	2.4763e-05	585.43	197.86	171.63	59.191	2.4722e-05	82.929	415.496	181.435	94.723	86.081	117.552	239.209	84.628	90.713	186.191	317.129	89.235	93.751	95.074	100.428	264.288	98.245	-8191	255	
3508.748	1	1	0	0	0.22085	0.15363	0.0053188	0.2245	0.33187	0.30258	0.23808	0.12842	0.13538	0.18297	0.27308	0.14847	0.3023	0.18789	0.38183	0.099295	-1.2479	-1.4521	-1.8708	-1.5771	-1.6333	-1.9062	-1.4271	-1.8188	-1.7604	-1.4854	-1.9937	-1.8979	-1.7687	-1.9854	-1.5625	-1.9958	431.649	255.498	249.204	362.098	377.181	141.458	76.465	83.262	386.650	318.100	358.626	417.748	406.380	419.506	410.446	263.991	0.0028215	0.0032069	7.9943e-05	1401.7	4.0912e-05	1.3953e-05	1577.7	499.96	1.563e-05	1.468e-05	626.45	233.56	187.05	69.371	2.1057e-05	98.716	0.0021881	0.0022507	0.00062139	1201	2.4327e-05	2.4979e-05	1295.9	410.84	2.4577e-05	2.4961e-05	581.03	195.75	173.35	58.97	2.7339e-05	83.557	425.607	427.871	398.630	86.038	256.454	208.548	84.670	91.011	244.675	398.551	88.558	93.860	95.378	100.481	303.337	97.871	-8191	255	
3508.866	1	1	0	0	0.12166	0.22902	0.079906	0.083499	0.33019	0.15501	0.42067	0.33348	0.14476	0.12824	0.21371	0.1004	0.30533	0.181	0.13815	0.15085	-1.2437	-1.45	-1.8062	-1.7646	-1.4875	-1.8792	-1.5625	-1.8229	-1.5667	-1.3854	-2.1562	-1.7417	-1.4604	-2.0417	-1.4646	-1.8646	268.746	308.712	91.142	429.017	161.287	95.728	379.286	363.250	242.567	351.030	134.399	283.533	336.084	393.048	230.417	355.351	0.001716	0.0014815	0.00074238	1402.3	1.5917e-05	1.3455e-05	1581.3	492.09	2.6675e-05	1.5538e-05	605.45	232.54	184.24	68.942	1.4809e-05	97.774	0.0026108	0.0026824	0.00075144	1227.4	3.0156e-05	3.0872e-05	1324.2	415.7	3.1569e-05	3.2046e-05	610.77	199.9	182.6	59.828	3.2613e-05	84.158	407.184	374.050	334.048	86.505	232.630	179.734	84.619	90.664	215.792	157.672	89.336	93.734	95.071	100.129	121.535	97.588	-8191	255	
3508.963	1	1	0	0	0.14428	0.10823	0.096239	0.061047	0.30737	0.25209	0.11796	0.22828	0.06469	0.067208	0.12574	0.33977	0.38243	0.26887	0.21531	0.096493	-1.3833	-1.3021	-1.9458	-1.7104	-1.5021	-1.9583	-1.7667	-1.7917	-1.8125	-1.4417	-1.8771	-1.6208	-1.4708	-2.0687	-1.4333	-1.7313	140.531	179.859	223.571	262.105	141.488	251.041	409.607	352.078	220.418	387.845	180.553	149.282	406.577	412.374	269.891	296.368	0.0021303	0.0027096	0.0010267	1397.9	3.3123e-05	1.7623e-05	1594.8	491.71	1.7812e-05	4.4266e-05	620.8	233.48	182.51	69.066	3.8471e-06	96.636	0.0029786	0.0030475	0.00085018	1243.7	3.4059e-05	3.5057e-05	1349.3	420.32	3.5895e-05	3.6212e-05	629.24	202.45	186.23	60.332	3.355e-05	84.188	411.585	358.867	103.178	86.259	240.662	230.616	84.615	90.783	288.891	103.767	88.741	93.984	95.243	100.416	169.424	97.855	-8191	255	
3509.059	1	1	0	0	0.10475	0.033396	0.28161	0.22157	0.019419	0.039543	0.49163	0.24516	0.015931	0.049436	0.086535	0.10793	0.20858	0.17118	0.16324	0.18693	-1.5938	-1.3583	-1.5854	-1.725	-1.4792	-1.8729	-1.9188	-1.7875	-1.9937	-1.4562	-1.9979	-1.8729	-1.4958	-2.0583	-1.5104	-1.5958	170.363	105.476	350.423	330.676	87.988	328.227	355.596	100.673	83.747	84.702	355.455	361.569	431.799	102.541	268.210	393.843	0.0015616	0.0025105	0.00088357	1388.5	2.1047e-05	3.9353e-05	1589.8	486.67	2.753e-05	4.6028e-06	618.98	230.55	184.22	69.056	2.401e-05	98.122	0.002898	0.0029052	0.00079731	1224.9	3.0407e-05	3.1108e-05	1327.9	411.59	3.1855e-05	3.2238e-05	611.37	199.82	182.94	60.57	3.384e-05	85.191	95.616	399.585	407.909	86.345	294.936	205.453	84.734	90.970	184.781	152.264	89.051	94.115	95.710	100.794	191.370	97.940	-8191	255	
3509.155	1	1	0	0	0.19364	0.13646	0.13411	0.10823	0.057723	0.26401	0.32952	0.31464	0.10323	0.38948	0.082843	0.38034	0.12724	0.29495	0.13864	0.17234	-1.6104	-1.5938	-1.5812	-2.1333	-1.4229	-1.9146	-1.7667	-1.7625	-2.05	-1.6833	-1.8417	-1.9312	-1.35	-1.9542	-1.6958	-1.6667	304.965	346.372	153.828	359.506	193.971	277.512	380.948	331.671	390.704	413.050	394.087	362.465	155.574	400.656	116.836	353.111	0.002917	0.002354	0.0002175	1415.7	3.5718e-05	4.0233e-05	1584.8	494.24	3.228e-05	3.003e-05	619.64	232.56	181.62	69.533	1.6532e-05	97.961	0.0030208	0.0030225	0.00081315	1241.7	3.0933e-05	3.0312e-05	1323	412.7	2.7394e-05	2.641e-05	570.95	193.47	166.6	58.09	2.1184e-05	80.772	405.314	262.040	341.291	86.211	267.168	272.642	84.515	91.109	192.768	257.950	89.465	93.715	95.443	100.053	176.975	97.669	-8191	255	
3509.276	1	1	0	0	0.11532	0.17706	0.10617	0.17628	0.082036	0.22064	0.37336	0.21173	0.13885	0.2717	0.1514	0.26936	0.17917	0.32173	0.13372	0.24247	-1.4292	-1.5271	-1.5812	-1.9771	-1.4167	-1.85	-1.9813	-1.5875	-1.9188	-1.6146	-1.7896	-1.9917	-1.5583	-1.9062	-1.6396	-1.5979	283.956	238.819	215.261	74.467	366.500	422.837	371.486	349.018	251.046	201.523	406.204	397.178	259.463	397.007	137.690	395.345	0.0027011	0.00097396	0.00105	1402	1.8647e-05	2.6894e-05	1561.8	492.79	2.4485e-05	2.2716e-05	621.23	232.17	186.43	70.666	9.2194e-06	99.361	0.0018322	0.0017899	0.00049438	1160.8	1.8904e-05	1.9045e-05	1261.9	397.76	1.9527e-05	2.0175e-05	546.18	191.36	166.06	58.662	2.1906e-05	82.188	87.132	97.837	151.856	86.958	161.758	181.576	84.655	91.371	334.530	228.900	88.961	94.311	96.011	100.466	426.219	97.585	-8191	255	
3509.347	1	1	0	0	0.24469	0.10945	0.095676	0.15782	0.18422	0.15551	0.3071	0.48833	0.26222	0.20637	0.24087	0.41844	0.078145	0.16419	0.094655	0.13967	-1.5562	-1.5812	-1.4583	-1.9688	-1.5	-1.9021	-1.9	-1.6417	-1.9104	-1.6375	-1.8646	-2.0104	-1.6458	-1.725	-1.7771	-1.6625	374.715	388.569	254.464	367.688	298.347	168.654	349.780	380.310	321.211	406.787	103.597	407.181	136.040	393.702	329.192	300.642	0.0019011	0.0025286	0.00037198	1394.2	1.1264e-05	1.1829e-05	1567.9	497.51	1.6806e-05	8.2637e-06	618.26	235.07	187.24	71.669	1.7919e-05	99.841	0.0019728	0.0020037	0.00054854	1181.7	2.0788e-05	2.0729e-05	1278.9	404.14	1.9532e-05	1.9327e-05	546.05	191.72	163.41	58.551	1.8943e-05	81.784	84.072	205.185	223.025	87.041	428.332	430.185	84.937	91.217	208.352	278.265	88.935	93.972	95.066	100.486	272.902	97.404	-8191	255	
3509.468	1	1	0	0	0.095434	0.059867	0.17138	0.17523	0.16034	0.24664	0.51241	0.40832	0.13274	0.18	0.15013	0.33029	0.072764	0.24781	0.2403	0.22019	-1.3813	-1.8583	-1.4583	-1.9271	-1.6063	-1.6979	-2.1292	-1.55	-1.9354	-1.5875	-1.4792	-2.1167	-1.6021	-1.7313	-1.6896	-1.5083	199.388	203.613	160.904	94.398	247.789	174.159	387.603	413.442	117.335	320.699	394.359	402.634	407.295	367.662	221.616	398.694	0.0026254	0.0029219	0.00026577	1404.8	7.8654e-06	8.9089e-06	1571.8	503.71	4.7926e-06	9.237e-06	623.78	235.91	192.74	71.463	1.6263e-05	100.76	0.0016941	0.0016793	0.00046613	1165.9	1.8139e-05	1.7419e-05	1263.1	403.29	1.6309e-05	1.6525e-05	533.41	190.43	159.98	58.13	1.582e-05	81.516	431.170	193.604	159.126	86.143	97.022	109.145	84.558	91.040	128.709	207.169	89.446	93.606	95.265	100.640	122.853	97.673	-8191	255	
3509.564	1	1	0	0	0.1025	0.11302	0.32558	0.12548	0.14904	0.13092	0.31685	0.34345	0.10047	0.21756	0.1423	0.23731	0.22661	0.18255	0.15143	0.32489	-1.3958	-1.7104	-1.4292	-1.9813	-1.6833	-1.6083	-2.0479	-1.7979	-2.025	-1.7313	-1.4417	-1.925	-1.625	-1.6667	-1.8833	-1.6313	214.856	205.911	314.149	308.084	197.220	233.439	328.699	379.245	288.415	432.482	414.694	341.552	103.208	416.536	339.886	378.739	0.00268	0.0012371	0.00058523	1424.2	2.4448e-05	1.4532e-05	1579.3	505.21	1.0477e-05	2.2253e-05	631.32	238.29	191.14	72.863	1.0637e-05	101.87	0.0014222	0.0014212	0.00039933	1155.6	1.5145e-05	1.5059e-05	1258.4	402.82	1.4739e-05	1.5403e-05	531.97	190.82	158.64	58.838	1.4992e-05	81.733	424.824	194.773	206.510	86.309	113.625	321.641	84.687	90.834	276.742	90.888	89.087	94.179	95.050	100.428	314.957	97.899	-8191	255	
3509.660	1	1	0	0	0.23718	0.17499	0.32147	0.14739	0.12684	0.0371	0.052749	0.28409	0.18408	0.031747	0.27215	0.20587	0.14729	0.3138	0.30828	0.041187	-1.375	-1.6979	-1.3438	-2.1104	-1.7417	-1.5042	-1.8854	-1.6146	-1.8854	-1.7458	-1.4604	-2.0625	-1.5021	-1.4771	-2.0083	-1.7375	306.670	114.982	292.096	124.858	211.567	138.692	394.470	390.701	96.918	279.909	301.197	413.602	221.776	399.355	382.579	376.726	0.0024272	0.0031161	0.00053024	1424.1	8.3762e-06	1.5128e-05	1592.1	512.47	1.0141e-05	1.8489e-05	632.19	238.11	193.16	73.877	2.5351e-05	102.95	0.0013611	0.0013706	0.00038694	1158.6	1.4929e-05	1.5047e-05	1261.2	407.6	1.4648e-05	1.4995e-05	527.87	190.99	160.16	59.374	1.4688e-05	82.604	73.214	132.941	177.747	86.440	180.776	266.443	84.839	91.013	224.764	233.668	89.037	94.162	95.098	100.653	220.804	97.766	-8191	255	
3509.756	1	1	0	0	0.1473	0.16416	0.1382	0.12355	0.34139	0.18751	0.34052	0.18069	0.040983	0.15346	0.027358	0.20487	0.19346	0.42671	0.15105	0.31292	-1.3354	-1.9271	-1.4875	-1.9417	-1.8229	-1.4458	-2.1583	-1.675	-1.575	-1.8458	-1.4167	-1.9229	-1.8292	-1.5708	-1.7333	-1.7938	198.642	311.083	410.268	426.467	120.865	95.477	375.096	348.723	249.767	91.393	192.611	345.625	289.143	397.067	147.958	94.667	0.0021613	0.0010964	0.00048352	1414.6	2.688e-05	1.8603e-05	1574.9	513.98	2.0092e-05	1.229e-05	632.94	241.17	193.39	74.686	2.1972e-05	103.45	0.0012931	0.001275	0.00035238	1145.6	1.3717e-05	1.3948e-05	1255.5	408.19	1.4228e-05	1.4199e-05	533.2	192.19	158.83	59.452	1.2867e-05	82.46	424.593	199.953	103.033	86.664	308.121	368.200	84.871	90.674	129.322	320.464	89.254	93.663	95.726	99.898	115.765	97.878	-8191	255	
3509.875	1	1	0	0	0.15096	0.10989	0.13239	0.3894	0.26047	0.081153	0.34808	0.19076	0.062468	0.08612	0.10824	0.13413	0.15764	0.10292	0.15239	0.11422	-1.3833	-1.8625	-1.4479	-1.8583	-1.5979	-1.5292	-2.0312	-1.7729	-1.6042	-2.0062	-1.4771	-1.95	-1.9667	-1.5208	-1.8062	-1.8979	240.880	421.475	272.281	378.213	382.377	171.525	375.560	348.903	336.815	373.145	99.876	105.208	78.502	347.023	378.416	95.746	0.001508	0.0010189	0.0002993	1404.9	9.2903e-06	1.2884e-05	1555.7	510.23	5.9245e-06	3.2045e-05	630.09	239.05	191.76	73.598	1.6218e-05	103.68	0.0011222	0.0010958	0.00029771	1125	1.1132e-05	1.1043e-05	1229.5	402.08	1.0408e-05	1.0382e-05	507.54	188.51	152.7	58.284	9.6082e-06	81.183	82.110	184.939	421.446	86.852	362.428	255.448	84.875	90.834	283.586	235.062	88.826	93.991	95.485	100.285	184.760	97.799	-8191	255	
3509.971	1	1	0	0	0.3503	0.035868	0.1126	0.2995	0.15027	0.16461	0.18241	0.23214	0.12722	0.30838	0.14592	0.33601	0.10114	0.58292	0.15492	0.35963	-1.1333	-1.8229	-1.3375	-1.65	-1.9104	-1.5354	-1.9854	-1.7875	-1.5708	-2.0125	-1.55	-1.8896	-1.7896	-1.5312	-1.7833	-1.8208	74.968	157.392	366.948	352.837	191.167	321.924	389.233	339.817	403.416	180.862	335.023	418.925	416.498	406.166	245.368	390.666	0.0024979	0.0028775	0.00037572	1408.7	5.7779e-06	1.1067e-05	1563.2	507.62	1.2473e-05	1.2388e-05	639.42	240.83	191.32	73.499	1.964e-05	102.55	0.00090711	0.00091681	0.00026002	1118.3	1.028e-05	1.0698e-05	1229.7	399.92	1.1791e-05	1.2189e-05	520.71	191.58	159.33	59.309	1.571e-05	83.064	424.510	236.731	189.511	85.983	332.492	165.767	85.004	91.047	313.996	130.101	89.302	93.848	95.397	100.486	250.119	97.863	-8191	255	
3510.043	1	1	0	0	0.34795	0.096269	0.17368	0.033598	0.014614	0.12072	0.33591	0.3499	0.011016	0.13357	0.26827	0.20505	0.066082	0.10071	0.23908	0.20709	-0.83542	-1.7208	-1.4375	-1.7479	-1.85	-1.5417	-1.9583	-1.9125	-1.4	-1.8208	-1.5604	-1.8292	-2.0208	-1.5083	-1.8604	-1.9375	425.890	235.899	254.131	158.297	178.742	97.549	382.883	364.497	103.739	273.384	359.677	407.260	413.094	396.797	407.116	367.747	0.00209	0.00019502	0.00033318	1431	3.8101e-05	3.3404e-05	1585.2	507.74	1.7081e-05	1.0163e-05	632.04	237.93	189	72.092	4.86e-06	100.73	0.0015419	0.0015858	0.00046974	1184.4	1.9712e-05	2.0557e-05	1288.7	415.75	2.1868e-05	2.2234e-05	567.08	196	169.18	60.038	2.1597e-05	83.504	415.066	318.348	404.213	86.060	259.318	223.006	84.467	91.018	122.218	254.224	88.479	94.018	94.623	100.250	237.304	97.895	-8191	255	
3510.164	1	1	0	0	0.22577	0.18749	0.28122	0.40064	0.091192	0.025162	0.52236	0.31783	0.32023	0.23142	0.22413	0.099352	0.26947	0.26001	0.11565	0.16826	-1.0083	-1.8354	-1.5167	-1.6708	-1.8354	-1.6313	-1.7667	-1.9271	-1.6125	-1.9333	-1.7896	-1.65	-2.0667	-1.6708	-1.7229	-1.9604	293.096	264.819	92.280	345.592	315.558	103.722	367.973	337.315	238.051	303.579	75.879	406.470	373.882	402.483	100.826	391.643	0.0024283	0.0021035	0.0004454	1401.5	2.5272e-05	2.4896e-05	1555.1	490.18	3.6017e-05	1.6537e-05	614.93	231.44	188.26	71.425	1.3302e-05	100.62	0.0019055	0.0018489	0.00050894	1170.5	1.9978e-05	2.0134e-05	1265.8	401.5	2.2848e-05	2.4731e-05	576.45	196.05	179.48	61.708	3.2941e-05	87.547	409.455	424.216	204.811	87.029	181.622	211.154	84.785	91.041	291.164	335.531	88.972	94.139	95.087	100.277	358.296	97.834	-8191	255	
3510.260	1	1	0	0	0.062865	0.12085	0.20825	0.20243	0.22154	0.013982	0.15695	0.28096	0.14494	0.11394	0.2374	0.31671	0.0070565	0.1847	0.073575	0.19115	-0.86875	-1.8792	-1.5417	-1.6583	-1.7938	-1.425	-1.7583	-2.1583	-1.4813	-1.9833	-1.8375	-1.6896	-2.0333	-1.6625	-1.8354	-2.0521	93.754	424.254	150.200	368.922	307.012	299.601	99.879	375.247	299.759	195.183	105.950	380.511	186.787	109.181	84.611	326.269	0.003832	0.0025579	0.0004601	1419.1	4.8232e-05	7.0299e-05	1621.6	495.89	3.8016e-05	2.507e-05	632.24	233.97	186.84	72.089	3.928e-05	99.262	0.0032642	0.0035177	0.0010143	1309.3	4.1675e-05	4.2139e-05	1398.7	432.91	4.2321e-05	4.2711e-05	670.83	210.03	201.13	64.679	4.2904e-05	89.722	407.905	309.034	205.128	86.029	238.652	176.523	84.602	90.834	299.555	369.669	89.403	93.923	95.793	100.624	122.211	97.811	-8191	255	
3510.356	1	1	0	0	0.21412	0.17946	0.24983	0.1451	0.02015	0.26293	0.2805	0.19616	0.059975	0.19944	0.069407	0.15625	0.29866	0.4298	0.19546	0.17184	-0.97917	-1.7125	-1.7542	-1.4896	-1.9	-1.5771	-1.7896	-2.1604	-1.3771	-1.7917	-2.0417	-1.7437	-1.9562	-1.7583	-1.5312	-2.0521	398.224	321.593	378.686	128.550	268.310	254.468	397.503	410.592	118.354	92.507	400.714	174.665	315.998	419.576	289.662	358.827	0.002459	0.0027493	0.00032536	1427	2.9942e-05	5.0679e-05	1628.1	493.48	2.6583e-05	2.3788e-05	632.76	235.26	189.11	72.349	3.4765e-05	100.83	0.003837	0.0038975	0.0010914	1328.7	4.2502e-05	4.2781e-05	1408.7	431.63	4.1763e-05	4.1723e-05	662.93	208.22	195.12	64.16	3.7986e-05	88.993	110.641	242.536	181.122	86.785	205.643	313.104	84.394	90.435	170.218	257.008	88.466	93.992	95.286	100.327	233.840	97.831	-8191	255	
3510.452	1	1	0	0	0.099844	0.12492	0.044207	0.1741	0.2778	0.069827	0.18667	0.3817	0.029544	0.082745	0.19948	0.20657	0.23979	0.37238	0.14457	0.35273	-1.1875	-1.85	-1.9104	-1.5187	-1.9813	-1.5333	-1.5271	-2.1292	-1.4917	-1.6875	-1.875	-1.5812	-1.8	-1.8042	-1.3771	-2.1188	163.323	320.084	183.820	82.322	191.993	81.938	336.235	375.875	98.255	230.487	424.224	374.900	431.812	362.913	390.894	344.377	0.00075141	0.0044454	0.00084837	1429.7	1.253e-05	5.1187e-05	1595.7	501.53	1.8983e-05	1.4959e-05	626.04	234.65	192.13	73.728	1.3309e-05	101.69	0.003324	0.0033095	0.00088496	1266.7	3.011e-05	2.8666e-05	1316.5	413.39	2.3869e-05	2.2979e-05	562.16	193.38	166.36	60.275	1.9094e-05	83.101	89.247	199.781	107.875	86.579	134.399	182.762	85.025	90.513	190.498	256.892	88.905	93.788	95.660	99.952	308.111	98.209	-8191	255	
3510.573	1	1	0	0	0.24144	0.19597	0.18794	0.097421	0.16786	0.018501	0.22588	0.19153	0.048003	0.027881	0.084551	0.15111	0.22134	0.15907	0.13645	0.24227	-1.1292	-1.4792	-1.7833	-1.425	-1.7292	-1.7917	-1.6	-2.05	-1.6313	-1.7	-2.0438	-1.7604	-1.8854	-2.1083	-1.325	-2.1063	385.713	130.687	102.417	298.138	82.609	366.286	274.144	414.830	347.082	244.846	210.615	409.727	384.277	373.122	198.523	387.734	0.00216	0.0024537	0.00021549	1400.2	2.1375e-05	1.9307e-05	1580.1	501.68	3.3218e-05	1.793e-05	639	235.66	190.29	73.688	1.2431e-05	103.14	0.0016763	0.0016367	0.00044834	1159.7	1.7016e-05	1.7089e-05	1270.7	404.34	1.6809e-05	1.6958e-05	539.17	191.22	161.34	60.044	1.58e-05	82.907	425.764	104.174	126.609	86.623	90.888	220.409	85.070	90.935	243.521	411.380	88.641	94.363	95.584	100.126	426.936	97.614	-8191	255	
3510.644	1	1	0	0	0.11564	0.10238	0.26897	0.135	0.19575	0.15915	0.33643	0.33981	0.069679	0.11943	0.11919	0.18806	0.21236	0.34439	0.20082	0.038464	-1.1667	-1.5438	-1.8	-1.7208	-1.7375	-1.7958	-1.9146	-2.0563	-1.7313	-1.6354	-1.8687	-1.7167	-1.8521	-1.8625	-1.3417	-1.9937	218.862	380.490	233.340	206.383	336.008	234.487	395.604	380.183	163.796	163.374	405.991	414.902	431.221	432.960	103.063	200.636	0.0028763	0.0022447	0.0003717	1417.2	7.404e-06	1.9859e-05	1580.7	506.61	2.1726e-05	3.3388e-05	630.72	235.85	190.02	73.589	1.3736e-05	102.36	0.0013919	0.0013769	0.00037896	1150.5	1.4428e-05	1.48e-05	1258.3	403.58	1.4808e-05	1.5238e-05	531.98	190.44	160.06	59.679	1.5672e-05	82.739	423.890	224.552	110.012	86.206	191.018	297.402	84.625	91.003	333.725	169.968	88.547	93.843	95.442	100.354	241.422	97.986	-8191	255	
3510.741	1	1	0	0	0.17046	0.3195	0.21955	0.20395	0.1654	0.092128	0.42398	0.38533	0.080689	0.12633	0.18971	0.30107	0.10972	0.26301	0.25864	0.090638	-1.2854	-1.5688	-1.8729	-1.7271	-1.6396	-1.8271	-1.5625	-2.0167	-1.7167	-1.4667	-2.0312	-1.525	-1.7854	-2.0667	-1.5167	-1.8687	295.839	205.494	242.154	375.468	111.417	324.468	388.315	365.121	376.752	124.205	346.397	369.684	398.305	420.008	373.035	378.614	0.0013543	0.0016529	0.00062762	1416.2	1.9688e-05	7.9316e-06	1599.4	509.35	2.562e-05	1.9166e-05	637.51	239.18	191.14	74.362	4.3192e-05	102.82	0.0014198	0.0014337	0.00039995	1155.5	1.5248e-05	1.5537e-05	1268.9	406.1	1.5348e-05	1.5602e-05	537.8	192.14	160.56	59.893	1.5289e-05	82.609	423.307	259.878	140.623	86.097	421.089	151.946	85.095	91.370	226.429	185.208	89.242	94.276	95.185	100.114	174.262	98.072	-8191	255	
3510.837	1	1	0	0	0.0051378	0.14468	0.099055	0.29031	0.077109	0.15545	0.48863	0.38038	0.073761	0.21231	0.28844	0.2334	0.11859	0.27974	0.24328	0.23895	-1.2583	-1.4771	-1.8292	-1.7708	-1.5	-1.9542	-1.6333	-2.0667	-1.8354	-1.3917	-2.0833	-1.7479	-1.6688	-1.9917	-1.5604	-1.7479	272.538	231.018	78.432	425.248	109.713	423.897	366.874	384.660	387.411	307.892	374.498	356.558	117.151	363.877	187.470	330.933	0.0016582	0.00061558	0.00030206	1414.2	2.4796e-05	1.8625e-05	1586.2	505.68	1.5529e-05	6.7413e-06	633.72	237.88	193.69	73.483	4.1803e-05	101.66	0.0013451	0.0013483	0.00036419	1150.8	1.3742e-05	1.3853e-05	1256.1	402.94	1.3945e-05	1.3794e-05	529.77	189.99	158.93	59.171	1.4552e-05	81.511	423.019	217.166	300.728	86.637	266.741	365.916	84.657	91.239	328.077	385.070	89.454	93.852	95.576	100.446	182.477	98.461	-8191	255	
3510.956	1	1	0	0	0.18018	0.42972	0.12235	0.24149	0.14078	0.0866	0.33285	0.24811	0.21797	0.18172	0.21265	0.04087	0.14102	0.10682	0.29265	0.38574	-1.3271	-1.6	-1.9396	-1.6125	-1.4604	-1.9042	-1.7292	-2.15	-1.8375	-1.25	-1.9542	-1.8354	-1.4833	-2.0917	-1.475	-1.8167	268.889	189.137	257.455	84.252	209.368	110.823	393.638	397.573	341.852	83.907	359.529	423.484	169.942	304.033	170.555	406.548	0.0029926	0.0018301	0.00047928	1413.8	3.2123e-05	1.6426e-05	1566.9	502.72	1.6523e-05	1.8937e-05	622.73	237.51	190.72	73.08	9.8843e-06	101.96	0.0013075	0.0012577	0.00035209	1145.4	1.329e-05	1.3214e-05	1240.6	398.57	1.2902e-05	1.2828e-05	515.01	187.61	155.89	58.746	1.3205e-05	81.225	79.346	299.936	368.200	86.815	210.245	169.509	84.983	91.018	195.466	162.209	89.111	93.867	95.447	100.477	432.712	98.230	-8191	255	
3511.052	1	1	0	0	0.094433	0.038718	0.20033	0.23476	0.092677	0.33005	0.29376	0.45354	0.083034	0.23884	0.31387	0.12013	0.055271	0.23107	0.17691	0.24429	-1.4188	-1.5063	-1.6875	-1.6042	-1.3583	-1.9854	-1.8375	-2.0104	-1.8583	-1.3583	-1.9625	-1.9146	-1.6021	-1.9542	-1.6104	-1.7771	374.441	150.974	210.980	382.578	424.560	138.408	333.878	420.569	397.501	120.351	338.366	95.495	394.884	100.397	327.125	354.483	0.0017115	0.00056202	0.00013787	1429.1	3.8486e-05	1.1528e-05	1581.6	504.59	1.7201e-05	6.5552e-06	632.84	237.84	192.28	73.607	3.2159e-06	102.66	0.0012705	0.0012853	0.00035922	1156	1.4748e-05	1.4972e-05	1259	403.76	1.517e-05	1.532e-05	530.12	190.67	160.19	59.365	1.5032e-05	82.307	428.391	89.912	150.647	86.422	409.036	121.591	84.764	90.753	265.472	391.785	89.209	93.780	95.172	100.529	261.166	98.003	-8191	255	
3511.148	1	1	0	0	0.17957	0.07225	0.1036	0.12972	0.078661	0.053753	0.37601	0.10851	0.097417	0.11551	0.28622	0.34445	0.096289	0.11767	0.087307	0.083097	-1.3146	-1.4458	-1.7375	-1.9083	-1.5854	-1.9062	-1.7313	-1.7167	-1.7854	-1.4292	-1.725	-2.0396	-1.4417	-2.0271	-1.6	-1.7208	369.279	101.135	219.766	346.093	285.028	212.179	313.086	141.640	327.254	327.808	345.392	394.672	362.041	112.716	311.394	355.009	0.0021332	0.002259	0.0005603	1425.1	3.1691e-05	7.2118e-06	1582.5	515.03	2.2183e-05	3.0892e-05	639.71	240.98	194.11	74.117	1.0437e-05	102.61	0.0014042	0.0013977	0.00039209	1163.9	1.5468e-05	1.5433e-05	1271.4	409.98	1.586e-05	1.6353e-05	544.41	194.8	164.44	59.915	1.6776e-05	83.327	76.367	324.278	234.240	86.153	199.572	273.557	84.674	90.763	221.608	103.727	89.095	93.822	94.854	100.451	173.388	97.817	-8191	255	
3511.244	1	1	0	0	0.1288	0.12554	0.2425	0.16363	0.048061	0.065627	0.098028	0.14688	0.21377	0.30901	0.1219	0.19818	0.18575	0.37585	0.12213	0.20593	-1.4292	-1.475	-1.7313	-2.0479	-1.4667	-1.9083	-1.7729	-1.4646	-1.975	-1.4958	-1.9042	-1.8083	-1.2687	-1.9125	-1.7	-1.6729	121.274	365.271	244.512	347.054	93.834	267.865	312.992	424.050	254.594	392.787	207.833	430.012	408.301	410.553	368.028	259.364	0.0018649	0.0024389	0.00073944	1434.6	3.5768e-05	1.2853e-05	1615	516.94	4.2698e-05	3.2139e-05	635.05	239.41	192.88	73.246	1.2756e-05	101.61	0.0015303	0.0015301	0.00041434	1171.9	1.6395e-05	1.634e-05	1287.1	412.66	1.5752e-05	1.5474e-05	539.46	192.36	160.89	59.2	1.4497e-05	81.672	75.280	142.232	222.236	86.507	108.593	315.688	84.734	91.123	171.249	219.178	89.629	94.480	95.710	100.018	148.881	97.762	-8191	255	
3511.340	1	1	0	0	0.21761	0.2447	0.18381	0.28783	0.10253	0.1213	0.41025	0.41973	0.38699	0.17327	0.14031	0.2671	0.20512	0.25238	0.044748	0.48038	-1.6063	-1.4396	-1.5125	-1.8875	-1.45	-1.8292	-1.8854	-1.5542	-1.8333	-1.6	-1.6271	-2.0667	-1.3625	-1.8375	-1.7083	-1.5417	323.580	88.388	393.890	408.218	358.125	136.949	397.209	382.072	389.994	176.659	166.374	91.042	198.241	408.900	373.679	360.130	0.0025737	0.0017314	0.0004679	1419.7	2.5856e-05	1.5969e-05	1562.1	504.27	2.4051e-05	2.8172e-05	626.43	238.04	191.88	72.961	1.8388e-05	100.99	0.001254	0.0012286	0.00033374	1137.4	1.2869e-05	1.2899e-05	1237.6	400.94	1.2895e-05	1.3182e-05	523.22	189.68	157.11	58.696	1.3298e-05	81.133	415.756	402.246	249.780	86.135	273.114	319.433	84.843	90.716	166.476	186.409	89.776	94.013	95.516	100.227	195.522	97.944	-8191	255	
3511.436	1	1	0	0	0.12084	0.16692	0.094735	0.032492	0.22053	0.2403	0.29593	0.4203	0.12973	0.20557	0.20997	0.16327	0.16393	0.41618	0.063512	0.23255	-1.5	-1.7042	-1.5229	-1.8	-1.3937	-1.7292	-2.05	-1.6375	-1.5833	-1.5792	-1.5875	-1.8458	-1.5938	-1.8729	-1.6833	-1.3813	218.474	251.895	172.055	100.301	380.220	322.163	377.389	386.802	405.421	324.193	410.454	371.627	393.572	77.295	182.643	373.522	0.0027134	0.00033383	0.00072749	1410.9	5.9454e-06	7.0152e-06	1568.5	509.89	1.4813e-06	7.0734e-06	637.2	238.73	192.53	73.254	1.3976e-05	101.66	0.0012249	0.001236	0.00034859	1140.9	1.3758e-05	1.4248e-05	1251.4	404.92	1.4047e-05	1.3751e-05	526.38	190.29	159.14	58.855	1.3855e-05	81.342	407.408	138.452	169.766	86.497	197.928	281.872	84.947	90.759	231.555	320.572	89.371	94.233	94.911	100.192	192.494	98.004	-8191	255	
3511.557	1	1	0	0	0.030814	0.10178	0.1057	0.14942	0.15196	0.24247	0.39437	0.075649	0.28388	0.30615	0.06467	0.34786	0.12549	0.24605	0.20378	0.34498	-1.5438	-1.5771	-1.4271	-1.8813	-1.4646	-1.8229	-1.9	-1.6896	-1.5021	-1.7167	-1.3188	-2.0292	-1.5	-1.6521	-1.8438	-1.7396	308.048	175.884	156.768	376.431	368.843	164.877	332.275	225.657	160.263	83.693	298.339	397.943	132.532	417.351	352.954	373.414	0.0017796	0.0028484	0.00031196	1428.8	6.7706e-06	2.105e-05	1607.9	508.02	4.9465e-06	1.4502e-05	638.18	237.84	191.35	73.355	1.7676e-05	101.65	0.0012681	0.0012604	0.0003592	1155.1	1.4056e-05	1.3999e-05	1270.1	404.57	1.3479e-05	1.325e-05	523.11	189.05	157.15	58.621	1.2665e-05	81.078	76.235	161.658	131.399	86.548	244.616	404.422	84.519	90.802	270.888	304.857	89.574	93.966	95.557	100.535	353.944	97.706	-8191	255	
3511.653	1	1	0	0	0.16778	0.14733	0.10193	0.082161	0.062418	0.028751	0.38551	0.12115	0.043835	0.22139	0.038439	0.26754	0.13935	0.5267	0.18325	0.52557	-1.3479	-1.8229	-1.5312	-2.0583	-1.5875	-1.7021	-2.0812	-1.575	-1.7875	-1.8708	-1.3229	-2.0333	-1.5708	-1.6521	-2.0062	-1.7958	194.135	160.961	216.600	347.498	72.882	145.066	366.820	427.307	413.612	105.152	192.170	379.276	196.183	397.879	259.726	410.533	0.0022495	0.002846	0.00010481	1428.6	3.1624e-05	1.201e-05	1594.1	505.92	2.6014e-05	5.1317e-06	631.01	236.72	190.21	73.724	2.1477e-05	100.77	0.0011616	0.0011776	0.00033385	1152.4	1.2949e-05	1.3073e-05	1257.4	401.46	1.3036e-05	1.3171e-05	521.36	188.15	156.12	58.771	1.299e-05	80.58	77.029	213.572	278.489	86.147	192.270	173.076	84.962	90.641	218.340	115.712	89.502	94.199	95.945	100.324	325.148	98.268	-8191	255	
3511.749	1	1	0	0	0.089681	0.21204	0.048216	0.27946	0.17039	0.12823	0.28707	0.43345	0.054241	0.15393	0.26376	0.40596	0.29732	0.24617	0.10004	0.018348	-1.2313	-1.5979	-1.3312	-2.0062	-1.7354	-1.7437	-2.2042	-1.7125	-1.6458	-1.6938	-1.5917	-1.8229	-1.7208	-1.7292	-1.8646	-1.6646	237.986	270.696	99.890	150.787	256.579	432.488	336.532	420.454	278.685	88.213	81.464	103.934	390.896	420.344	352.770	390.332	0.0016254	0.0017027	0.00046842	1431.1	8.291e-06	2.9877e-05	1603.8	508.77	2.6129e-05	3.1407e-05	638.33	236.1	194.38	73.805	1.0227e-05	100.83	0.0012076	0.0012336	0.00035233	1159.2	1.4063e-05	1.4196e-05	1266.3	405.56	1.4582e-05	1.4769e-05	529.84	188.91	159.74	59.233	1.4194e-05	80.883	81.483	202.358	331.618	86.385	120.043	261.045	84.645	91.109	182.598	230.944	89.352	94.018	94.787	100.515	296.692	97.656	-8191	255	
3511.868	1	1	0	0	0.070883	0.084508	0.25879	0.21511	0.1522	0.17236	0.45987	0.28806	0.159	0.11215	0.26188	0.19278	0.38266	0.21605	0.20792	0.24217	-1.1917	-1.7417	-1.3583	-1.9562	-1.6396	-1.2792	-2.1729	-1.675	-1.5146	-1.7458	-1.4771	-1.8937	-1.6083	-1.425	-2.0875	-1.725	284.319	160.235	145.463	367.794	149.696	395.257	367.722	378.414	226.995	120.981	395.758	255.675	388.470	375.228	429.441	361.403	0.0021917	0.00085076	0.00047927	1434.7	7.414e-06	6.0863e-06	1610.7	509.12	1.4036e-05	1.1305e-05	631.82	238.58	193.53	73.676	2.15e-05	102.23	0.0013183	0.0013198	0.00036786	1166.2	1.5045e-05	1.5188e-05	1283.2	406.84	1.5901e-05	1.6476e-05	543.36	192.38	165.12	60.025	1.7755e-05	82.822	77.563	384.996	159.598	86.329	254.804	248.656	84.750	90.489	366.621	347.494	89.112	93.642	95.415	100.005	181.358	97.489	-8191	255	
3511.940	1	1	0	0	0.24381	0.1926	0.17981	0.39098	0.1444	0.086328	0.29237	0.39814	0.13555	0.069285	0.35921	0.15577	0.15179	0.285	0.047652	0.25627	-1.0229	-1.8667	-1.2583	-1.8625	-1.8979	-1.4396	-2.0271	-1.7021	-1.5729	-1.975	-1.4771	-1.8333	-1.9062	-1.6375	-1.8958	-1.7437	384.006	125.368	280.926	413.746	219.024	130.595	399.132	381.308	232.860	350.249	431.318	402.103	102.678	410.947	363.514	353.956	0.002552	0.0029041	0.00016042	1440.4	1.6352e-05	1.1724e-05	1647.3	517.84	1.9268e-05	1.0464e-05	655.74	239.34	195.44	73.618	9.7563e-06	102.43	0.0016956	0.0017362	0.00049625	1201.5	2.0254e-05	2.1052e-05	1334.5	422.39	2.1963e-05	2.2837e-05	590.13	199.58	175.6	61.433	2.4206e-05	85.382	81.412	146.805	219.141	86.295	319.810	348.219	84.534	90.665	384.904	87.577	89.606	93.752	95.491	100.270	262.420	97.493	-8191	255	
3512.036	1	1	0	0	0.13914	0.11535	0.14784	0.17172	0.30408	0.22589	0.22289	0.39627	0.056805	0.15383	0.15249	0.29354	0.29146	0.20274	0.14403	0.41326	-1.2542	-1.9104	-1.4875	-1.7208	-1.8333	-1.3979	-2.2479	-1.8833	-1.5187	-2.0479	-1.5729	-1.725	-2.0167	-1.4479	-1.8542	-1.925	324.484	341.173	312.146	292.719	267.103	142.464	73.963	392.774	268.593	384.094	205.033	376.553	423.522	331.493	332.930	431.323	0.0023977	0.0022125	0.00021948	1478.2	4.23e-05	1.3616e-06	1676.4	527.08	3.0358e-05	5.3054e-05	657.92	244.95	195.03	74.094	3.2696e-05	103.35	0.0022792	0.0023155	0.00065806	1259.8	2.6195e-05	2.622e-05	1375.5	434.85	2.5536e-05	2.5257e-05	601.42	202.95	176.18	61.98	2.2812e-05	85.224	422.863	234.549	84.189	86.109	420.249	216.137	84.633	90.688	380.117	230.601	89.338	93.862	94.974	100.132	171.644	97.956	-8191	255	
3512.132	1	1	0	0	0.17089	0.1781	0.2333	0.096695	0.078593	0.17994	0.19634	0.081445	0.27359	0.27815	0.20324	0.188	0.38053	0.19406	0.062194	0.41104	-1.1187	-1.8062	-1.4958	-1.5979	-1.8563	-1.375	-2.0271	-1.8771	-1.4521	-1.9562	-1.6375	-1.525	-2.0062	-1.5792	-1.8167	-1.7938	432.727	422.871	143.822	168.835	232.238	101.022	384.560	349.944	313.511	253.290	384.299	117.733	406.368	397.624	286.807	329.692	0.0020106	0.0024742	0.0005576	1459.1	1.4132e-05	2.6196e-05	1627.5	514.23	7.4859e-06	3.3009e-05	635.41	237.26	194.49	74.041	1.84e-05	101.88	0.0019917	0.001958	0.00054005	1223.2	2.0609e-05	2.0089e-05	1313.7	416.61	1.7966e-05	1.7445e-05	545.42	192.44	162.95	59.784	1.5288e-05	81.763	94.014	124.985	147.990	86.500	370.401	327.470	84.572	90.805	305.997	215.912	89.486	93.949	95.652	100.099	276.066	97.971	-8191	255	
3512.253	1	1	0	0	0.11241	0.06038	0.15425	0.13534	0.19886	0.17329	0.32919	0.37303	0.063649	0.11647	0.26804	0.22407	0.32217	0.15736	0.28582	0.4681	-1.0146	-1.8542	-1.5333	-1.3542	-1.925	-1.5521	-1.8687	-2.1417	-1.6479	-2.0271	-1.7083	-1.8083	-1.9062	-1.6771	-1.6896	-1.975	331.818	139.045	89.073	334.813	204.003	347.126	383.741	368.242	415.586	234.787	303.850	383.846	90.911	425.044	404.656	397.071	0.0021808	0.00038023	0.0004762	1439.5	2.6997e-05	1.1617e-05	1601.2	512.23	2.6581e-05	2.3757e-05	632.04	239.29	194.11	73.429	3.9545e-06	101.7	0.0014292	0.0013981	0.00039365	1172.1	1.5653e-05	1.5608e-05	1283.1	408.63	1.5594e-05	1.5728e-05	540.19	192.1	162.23	59.503	1.5831e-05	81.832	81.871	190.808	417.942	86.753	155.395	286.663	84.977	90.827	203.786	121.265	89.067	94.051	95.288	100.408	126.577	97.601	-8191	255	
3512.349	1	1	0	0	0.04146	0.16156	0.19709	0.17726	0.21264	0.17082	0.35194	0.5915	0.26092	0.28661	0.2029	0.21183	0.13069	0.27382	0.30894	0.245	-1.1063	-1.8854	-1.7729	-1.6187	-2.0187	-1.3854	-1.8563	-2.0229	-1.4562	-1.8875	-1.7021	-1.6354	-1.9688	-1.7062	-1.7208	-2.2542	131.453	148.530	355.356	377.217	179.469	315.801	428.054	403.946	319.911	414.825	135.603	392.556	326.354	357.575	149.680	84.629	0.0021973	0.001054	0.00030867	1446.7	7.2729e-06	1.2074e-05	1641.7	511.9	2.2828e-05	1.2656e-05	646.11	241.33	195.13	73.811	1.9071e-05	102.6	0.0014587	0.0014757	0.00042149	1181.2	1.6586e-05	1.7082e-05	1306.2	412.71	1.7219e-05	1.7258e-05	553.28	194.62	166.26	60.22	1.8037e-05	83.402	82.805	85.929	207.218	86.174	141.549	246.820	84.601	91.169	124.653	308.886	89.338	93.830	95.388	100.564	317.461	98.053	-8191	255	
3512.445	1	1	0	0	0.051778	0.21228	0.1534	0.15789	0.014635	0.047773	0.46482	0.40222	0.27478	0.073151	0.17734	0.084604	0.21666	0.17017	0.24496	0.41799	-1.2854	-1.6812	-1.8167	-1.5187	-2.0312	-1.6146	-1.9021	-2.0771	-1.5771	-1.7458	-1.7938	-1.6708	-1.7333	-1.7729	-1.7396	-1.8729	150.453	331.242	321.536	426.831	204.028	420.144	405.568	357.334	335.251	77.665	172.829	286.156	126.688	400.149	143.921	369.464	0.0022589	0.003227	0.00054555	1446.1	1.1735e-05	4.2463e-05	1625.5	512.6	1.9247e-05	4.6109e-05	632.06	239.8	191.88	73.439	2.1885e-05	101.25	0.0016713	0.001635	0.00046131	1193.1	1.777e-05	1.7464e-05	1303	409.83	1.6522e-05	1.6196e-05	539.55	192.52	160.54	59.616	1.4926e-05	81.67	401.961	150.795	213.811	86.537	432.477	354.057	84.792	90.929	324.504	207.723	88.836	93.915	95.280	100.279	237.726	97.975	-8191	255	
3512.517	1	1	0	0	0.16957	0.052612	0.1971	0.43043	0.12487	0.1074	0.20408	0.095382	0.20216	0.31036	0.24155	0.54328	0.17035	0.29317	0.12977	0.1589	-0.95833	-1.6875	-1.8229	-1.5708	-1.8333	-1.7896	-1.5479	-2.1813	-1.3417	-1.7833	-1.8354	-1.45	-1.8354	-1.9604	-1.475	-2.0938	243.405	112.753	414.940	382.283	181.260	432.028	113.322	96.818	254.571	268.479	377.408	376.642	114.080	359.779	227.616	398.600	0.0026854	0.0014398	0.00028552	1436.6	2.5383e-05	1.0863e-05	1598.2	506.48	1.6621e-05	1.4253e-05	638.1	235.23	192.74	73.459	1.7243e-05	100.56	0.0013776	0.001356	0.00038023	1166.1	1.4809e-05	1.4553e-05	1270.6	402.81	1.461e-05	1.4635e-05	532.45	189.33	160.1	59.418	1.5154e-05	81.312	430.331	403.796	331.559	86.404	148.077	402.077	84.946	91.517	288.615	234.791	89.639	94.213	95.181	100.317	152.948	97.583	-8191	255	
3512.637	1	1	0	0	0.1764	0.091765	0.18332	0.29203	0.11182	0.20932	0.35634	0.27459	0.14781	0.30381	0.3056	0.16763	0.19145	0.39358	0.31634	0.33682	-1.0479	-1.6958	-1.8687	-1.6479	-1.7437	-1.8104	-1.5917	-2.0187	-1.5708	-1.4688	-2.0271	-1.8333	-1.8604	-1.9396	-1.3729	-1.9667	192.717	242.108	325.475	357.761	236.118	338.736	404.694	383.175	352.284	74.573	355.790	402.905	323.541	394.195	107.499	412.962	0.0027568	0.0027906	0.00050826	1438.4	2.7099e-05	7.3926e-06	1594.2	505.51	1.5358e-05	1.565e-05	626.74	235.17	193.7	73.931	1.3302e-05	101.16	0.0013759	0.0013792	0.00038307	1163.7	1.4608e-05	1.4495e-05	1266.8	400.62	1.5239e-05	1.5343e-05	533.28	189.97	161.82	60.056	1.6644e-05	81.92	423.219	139.842	97.738	86.409	217.722	248.134	84.841	91.004	112.441	81.152	89.471	94.169	95.542	100.445	111.975	97.709	-8191	255	
3512.733	1	1	0	0	0.24255	0.11122	0.29885	0.14026	0.21682	0.10252	0.24303	0.46856	0.22103	0.13216	0.37654	0.13128	0.071241	0.1697	0.26973	0.16834	-1.125	-1.5812	-1.8854	-1.6042	-1.6271	-1.8542	-1.6333	-2.0646	-1.625	-1.5979	-2.05	-1.4396	-1.7188	-1.9146	-1.2958	-1.85	322.526	378.301	379.169	312.053	270.363	322.792	365.743	397.015	356.784	407.293	89.919	406.748	225.934	403.324	108.038	345.864	0.0028847	0.00098647	0.0010559	1440.7	4.7037e-06	3.607e-05	1605.4	506.16	1.9886e-05	1.1831e-05	637.78	236.6	193.7	73.12	1.17e-05	101.04	0.0015135	0.0015097	0.00041967	1178.2	1.587e-05	1.5706e-05	1282.6	405.21	1.5185e-05	1.5388e-05	535.16	190.58	161.42	59.378	1.564e-05	81.549	413.243	92.446	208.294	86.489	409.867	352.228	84.881	90.972	117.693	273.457	88.317	94.012	95.310	100.353	115.473	98.000	-8191	255	
3512.830	1	1	0	0	0.1131	0.12634	0.15926	0.25603	0.17737	0.071235	0.27847	0.1149	0.18927	0.20529	0.062676	0.14565	0.0089806	0.40061	0.10636	0.20202	-1.2958	-1.5396	-1.9312	-1.6562	-1.5771	-1.8958	-1.6521	-2.05	-1.7333	-1.45	-1.875	-1.7458	-1.5688	-1.9271	-1.3667	-2.0271	206.750	320.118	386.176	418.367	129.368	420.037	336.367	114.450	263.870	405.467	376.719	424.426	124.607	83.944	91.812	319.755	0.0021632	0.0029966	0.00036755	1441.9	1.5887e-05	1.7132e-05	1601.9	504.59	2.1115e-05	1.3232e-05	628.74	236.74	191.33	73.505	2.4427e-05	100.52	0.0014277	0.001451	0.00039101	1171.7	1.4876e-05	1.4581e-05	1279.8	402.78	1.4882e-05	1.4824e-05	531.65	189.92	159.28	59.503	1.5037e-05	80.979	426.430	163.296	283.547	86.369	173.969	113.863	84.422	91.033	374.342	295.108	89.560	93.806	95.037	100.223	232.363	97.766	-8191	255	
3512.948	1	1	0	0	0.17058	0.05787	0.11243	0.055609	0.17496	0.14607	0.39426	0.40032	0.096573	0.19772	0.23273	0.39116	0.18843	0.13204	0.12488	0.48749	-1.2104	-1.3937	-1.9021	-1.8062	-1.7125	-1.9854	-1.7646	-2.0312	-1.8687	-1.4688	-1.9854	-1.4979	-1.4729	-2.1958	-1.4208	-1.8375	317.398	348.111	190.645	233.581	244.306	100.541	378.267	384.827	118.183	328.627	109.682	349.109	173.498	368.196	80.400	340.110	0.0022569	0.0014234	0.00042598	1445.6	1.1327e-05	2.8109e-05	1614.8	503.26	1.0519e-05	1.3864e-05	628.71	236.61	191.3	73.256	3.5655e-05	100.03	0.0013619	0.0013633	0.00037975	1173.8	1.4962e-05	1.514e-05	1284.6	402.15	1.5348e-05	1.5708e-05	535.36	188.96	161.14	59.348	1.6338e-05	81.028	80.192	118.455	415.734	86.336	222.297	234.885	84.864	90.745	180.003	366.668	89.299	94.074	95.462	100.232	140.025	98.199	-8191	255	
3513.045	1	1	0	0	0.31665	0.07161	0.13893	0.25428	0.11716	0.19612	0.28569	0.31893	0.23375	0.098095	0.0934	0.16909	0.28338	0.26754	0.04163	0.1006	-1.3271	-1.35	-1.8333	-1.4562	-1.4458	-2.025	-1.6146	-1.8792	-1.9542	-1.4146	-1.9771	-1.6667	-1.5354	-2.3396	-1.4583	-1.8708	273.987	90.347	283.102	415.696	248.049	319.086	348.545	382.747	97.071	92.904	133.309	74.278	74.136	350.850	225.645	396.094	0.002923	0.00069638	0.00022891	1433.9	2.7735e-05	2.4712e-06	1599.3	502.99	2.3711e-05	2.0161e-05	631.09	235.11	191.51	72.945	2.6671e-05	100.25	0.0015087	0.0015159	0.00041902	1180.9	1.602e-05	1.6199e-05	1285.5	403.75	1.6163e-05	1.6755e-05	539.76	189.66	162.17	59.414	1.6896e-05	81.032	82.519	295.933	302.100	86.285	174.136	306.038	84.621	90.875	186.655	420.653	89.380	93.870	95.799	100.062	81.004	97.376	-8191	255	
3513.141	1	1	0	0	0.1113	0.094716	0.33807	0.11261	0.18535	0.071769	0.16134	0.21032	0.1894	0.045482	0.19392	0.3921	0.2003	0.16717	0.10618	0.24915	-1.3021	-1.2854	-1.7771	-1.8479	-1.4667	-1.9292	-1.7208	-1.8188	-1.8833	-1.4917	-1.8667	-2.0104	-1.4271	-2.0521	-1.6729	-1.625	339.021	130.460	348.204	430.952	90.466	294.973	316.404	407.009	192.614	346.475	388.688	394.566	212.250	92.638	379.094	431.112	0.0020132	0.0012451	0.0004023	1435.6	1.5084e-05	1.4238e-05	1616.7	502.35	1.1562e-05	2.9172e-05	628.36	232.14	188.64	72.834	2.5326e-05	98.481	0.0015096	0.0014954	0.00041639	1173	1.5681e-05	1.567e-05	1283.4	400.76	1.4886e-05	1.4792e-05	519.11	186.51	155.22	58.668	1.3479e-05	79.16	78.515	214.685	218.741	86.406	232.248	208.870	84.657	91.169	101.596	195.138	88.545	94.014	95.439	100.240	152.163	97.978	-8191	255	
3513.237	1	1	0	0	0.19787	0.1356	0.12066	0.31655	0.21898	0.14072	0.43257	0.36099	0.25315	0.21749	0.07246	0.31048	0.19946	0.16579	0.057362	0.34048	-1.3604	-1.3229	-1.7792	-1.7958	-1.3354	-1.7979	-1.8167	-1.4625	-1.7833	-1.5146	-1.7042	-1.8625	-1.2708	-2.0604	-1.5167	-1.7396	323.112	338.048	387.697	111.539	195.040	271.142	346.474	354.139	340.573	325.584	258.493	399.235	331.881	379.422	248.149	387.512	0.0020351	0.00055175	0.0005022	1419.2	2.1101e-05	2.2031e-05	1598.7	498.56	6.907e-06	2.4062e-05	624.52	230.63	187.79	72.578	1.4952e-05	98.981	0.0012359	0.0012516	0.0003493	1154	1.4197e-05	1.4384e-05	1270.1	396.16	1.4799e-05	1.4768e-05	524.35	186.03	157.75	58.69	1.4749e-05	80.241	74.408	272.898	177.976	86.470	272.180	143.233	84.646	91.079	123.789	209.555	88.303	94.002	96.020	100.566	160.729	98.003	-8191	255	
3513.333	1	1	0	0	0.17511	0.043203	0.16587	0.15103	0.21474	0.088173	0.29059	0.20069	0.033019	0.10927	0.089742	0.25115	0.1948	0.32342	0.11337	0.36253	-1.2958	-1.5417	-1.525	-1.7417	-1.1958	-1.7667	-1.8354	-1.6854	-1.9312	-1.5604	-1.775	-1.775	-1.6021	-1.7687	-1.6271	-1.5208	138.246	415.456	258.011	271.539	134.979	353.461	406.810	357.890	195.572	251.431	107.150	417.334	376.466	384.871	179.285	386.440	0.0016896	0.00068801	8.4402e-05	1436.1	3.2795e-05	6.0497e-07	1621.2	501.84	8.4203e-06	2.6275e-05	628.22	235.88	191.4	72.71	2.1511e-05	99.725	0.0013828	0.0013626	0.00038469	1170.9	1.5195e-05	1.5313e-05	1288.4	402.07	1.5593e-05	1.5905e-05	535.54	189.67	160.6	59.156	1.6277e-05	80.45	429.109	270.875	194.482	86.413	201.393	284.035	84.535	91.004	186.989	153.651	89.000	94.113	95.266	100.405	239.511	98.019	-8191	255	
3513.429	1	1	0	0	0.050386	0.046796	0.23795	0.30483	0.23433	0.11091	0.20927	0.17038	0.3453	0.059068	0.099058	0.43657	0.37222	0.14534	0.096963	0.39511	-1.3896	-1.5125	-1.4625	-1.7188	-1.6271	-1.5542	-1.9833	-1.5688	-1.8333	-1.3958	-1.7375	-1.8917	-1.35	-1.7917	-1.7875	-1.4542	275.210	374.795	202.915	89.641	290.866	239.176	427.187	80.954	107.608	207.771	333.029	396.742	95.008	426.609	104.954	377.575	0.001779	0.0012984	0.00049553	1445.3	1.287e-05	1.5382e-05	1620.6	504.44	2.1449e-05	1.9053e-05	627.2	232.95	192.62	71.821	1.2061e-05	98.379	0.0014936	0.0015218	0.0004198	1182	1.6659e-05	1.6368e-05	1294.8	405.15	1.5963e-05	1.5811e-05	530.47	187.03	158.09	57.954	1.3596e-05	78.465	418.454	345.935	205.268	85.820	220.559	118.253	84.626	90.679	210.251	188.734	89.480	93.933	95.600	100.380	202.884	97.846	-8191	255	
3513.550	1	1	0	0	0.15571	0.027944	0.072221	0.15304	0.19486	0.25324	0.42867	0.26843	0.19418	0.19787	0.14858	0.32466	0.33121	0.16305	0.050542	0.27029	-1.3708	-1.5458	-1.5667	-2	-1.4479	-1.6333	-1.8583	-1.5021	-1.8042	-1.4667	-1.4125	-1.9125	-1.2958	-1.6917	-1.7188	-1.5458	277.850	100.034	161.153	377.761	361.458	121.391	301.423	394.746	256.349	318.949	262.715	421.955	411.202	409.794	100.758	397.092	0.0017596	0.0026672	0.00023733	1418.3	1.9855e-05	1.5951e-05	1560.3	493.5	1.787e-05	1.7405e-05	612.05	230.41	186.98	71.839	1.6047e-05	98.122	0.0011645	0.0011214	0.00030389	1129.1	1.1405e-05	1.0816e-05	1230.2	388.21	1.0502e-05	1.0324e-05	492.97	181.17	149.4	56.834	9.6602e-06	77.078	80.893	139.902	167.820	86.229	157.055	337.369	84.676	90.928	220.811	314.720	89.288	94.045	95.673	100.084	211.382	98.224	-8191	255	
3513.646	1	1	0	0	0.133	0.24579	0.44753	0.21948	0.11762	0.055645	0.47595	0.41987	0.45437	0.10384	0.096931	0.41724	0.080137	0.28517	0.20043	0.15864	-1.3896	-1.4854	-1.3875	-1.9125	-1.4875	-1.6458	-1.9792	-1.5604	-1.8854	-1.8563	-1.4958	-1.9104	-1.5167	-1.8083	-1.9104	-1.5417	157.088	341.771	299.726	398.869	345.031	277.049	355.833	392.064	188.984	126.975	431.100	391.105	88.778	410.523	354.739	382.757	0.0022617	0.0010992	0.0004834	1389.5	3.1875e-05	2.1946e-07	1558.8	489.07	7.4283e-06	1.5882e-05	603.54	231.06	189.33	71.262	1.4753e-05	97.719	0.00087884	0.0008408	0.00023612	1099.4	9.1375e-06	9.2793e-06	1218.8	383.51	9.0509e-06	9.5459e-06	487.96	181.84	148.82	56.467	9.8585e-06	77.099	82.084	147.218	201.518	86.613	167.715	188.395	84.614	90.902	86.360	361.823	88.739	94.154	95.775	100.112	201.558	97.515	-8191	255	
3513.742	1	1	0	0	0.31403	0.22645	0.20083	0.081007	0.021002	0.18485	0.29756	0.2913	0.063247	0.25667	0.30222	0.2826	0.12641	0.45273	0.067669	0.45125	-1.4104	-1.8229	-1.3917	-1.8375	-1.5	-1.5938	-2.1375	-1.6562	-1.8771	-1.6104	-1.2854	-2.0708	-1.7125	-1.6938	-1.7625	-1.6938	319.084	262.116	194.216	115.296	413.416	394.214	351.242	390.353	75.230	194.227	281.597	384.098	232.993	91.116	361.181	372.388	0.0021597	0.0016488	0.00056225	1405.2	3.2453e-05	1.2032e-05	1597.3	502.33	1.2422e-06	2.0045e-05	629.93	236.05	190.01	71.591	1.891e-05	97.434	0.00091569	0.00091012	0.00025558	1116.6	9.9251e-06	9.881e-06	1249.6	394.33	9.8479e-06	1.0135e-05	501.93	184.8	151.38	56.529	9.9667e-06	76.88	432.250	185.893	133.035	86.849	221.740	281.412	84.868	91.052	232.768	309.208	89.070	93.640	95.682	99.963	245.632	97.969	-8191	255	
3513.814	1	1	0	0	0.30668	0.20278	0.059784	0.24011	0.18961	0.15846	0.42405	0.50774	0.12769	0.38476	0.077779	0.29589	0.16353	0.28086	0.081541	0.36827	-1.0562	-1.6979	-1.2687	-1.9458	-1.5708	-1.6083	-2.0625	-1.7083	-1.8417	-1.6729	-1.4688	-2.1021	-1.5896	-1.6021	-1.7687	-1.5083	184.537	351.363	211.303	411.870	332.521	309.473	371.025	377.786	236.592	374.895	319.877	399.979	352.973	415.798	228.884	341.725	0.0023934	0.00094397	0.00018997	1397	1.5576e-05	2.0062e-05	1576.5	501.6	1.1708e-06	7.1747e-06	620.03	234.68	191.58	71.151	1.5386e-05	95.977	0.00091708	0.00091298	0.00025336	1114.1	9.5557e-06	9.5457e-06	1237.2	392.29	9.3346e-06	9.2687e-06	493.41	182.24	148.96	55.94	8.8093e-06	75.584	74.771	107.457	171.345	86.413	233.812	254.042	84.775	91.022	171.223	382.539	89.809	94.167	95.141	100.587	199.862	98.123	-8191	255	
3513.933	1	1	0	0	0.15587	0.23799	0.24584	0.27858	0.18164	0.21576	0.34937	0.1613	0.17937	0.10831	0.19962	0.25274	0.13422	0.22357	0.13298	0.029102	-1.1042	-1.8438	-1.2625	-1.7125	-1.6479	-1.4854	-2.2854	-1.5792	-1.5312	-1.8917	-1.5333	-1.4083	-1.7292	-1.6437	-1.725	-1.7979	351.121	289.614	408.065	382.391	248.530	96.098	359.734	77.606	116.191	353.253	150.184	412.940	135.993	339.908	91.366	80.177	0.0020353	0.00023275	0.00053977	1404.7	4.4503e-06	8.1201e-06	1558.1	493.97	1.033e-05	1.3854e-05	604.14	228.61	189.29	70.931	1.27e-05	96.261	0.00082149	0.00077804	0.00021225	1101.5	8.2062e-06	8.0689e-06	1212.7	386.24	7.8622e-06	7.9121e-06	479.22	179.59	146.28	55.526	8.0713e-06	75.297	421.565	133.165	189.317	86.583	166.859	384.712	84.982	90.855	252.172	141.511	88.883	93.869	95.174	100.334	180.351	97.406	-8191	255	
3514.029	1	1	0	0	0.39223	0.12609	0.15515	0.097678	0.27402	0.049211	0.34345	0.25272	0.23239	0.24095	0.31221	0.2344	0.11984	0.19646	0.22508	0.1939	-1.1708	-1.8	-1.2792	-1.7729	-1.7792	-1.375	-2.0375	-1.7396	-1.3854	-1.8729	-1.5792	-1.7521	-1.7979	-1.4042	-1.75	-1.725	279.671	332.916	424.895	422.045	359.270	291.022	396.876	94.555	431.832	126.964	424.627	364.298	126.444	341.105	109.439	393.709	0.001486	0.0013926	0.00066031	1393.3	1.1599e-05	4.6384e-06	1571.7	500.02	1.4717e-05	1.2816e-05	621.99	232.82	190.15	71.048	2.7773e-05	97.012	0.00077542	0.0007525	0.00021571	1101.1	8.564e-06	8.5401e-06	1225.7	391.01	8.9993e-06	9.102e-06	494.71	183.68	149.82	56.038	9.4633e-06	76.592	430.940	400.999	193.048	86.888	367.959	417.300	84.956	91.180	137.450	115.771	89.761	93.640	95.160	100.225	149.968	97.635	-8191	255	
3514.125	1	1	0	0	0.070614	0.11462	0.15127	0.1054	0.17301	0.057735	0.43188	0.28742	0.19729	0.22401	0.13444	0.12883	0.10817	0.437	0.036067	0.25688	-1.0417	-1.9896	-1.2583	-1.8542	-1.8667	-1.3729	-2.0312	-1.8542	-1.4229	-1.8458	-1.4979	-1.8292	-1.9813	-1.4958	-1.9375	-1.9271	339.572	410.988	295.137	298.411	101.650	202.969	404.594	342.029	342.057	226.836	186.747	387.323	237.967	82.156	149.132	363.547	0.0024153	0.00047058	0.00027351	1410.2	1.2307e-05	5.868e-06	1595.6	506.73	1.737e-05	3.2131e-05	632.94	236.87	189.86	71.411	1.836e-05	97.076	0.00087322	0.0008645	0.00023578	1114.5	9.2867e-06	9.2171e-06	1243.6	396.33	9.5734e-06	9.6063e-06	500.99	184.85	150.26	56.449	9.6061e-06	76.496	419.087	166.225	130.613	86.229	163.575	344.872	84.458	91.030	215.955	251.639	88.983	94.077	95.226	100.494	160.524	97.783	-8191	255	
3514.221	1	1	0	0	0.072756	0.23857	0.18634	0.35246	0.20557	0.21714	0.2822	0.21571	0.17217	0.18628	0.16006	0.49815	0.43519	0.091675	0.11847	0.24275	-1.0292	-1.8021	-1.6375	-1.7458	-1.8438	-1.5625	-1.7375	-1.7167	-1.3563	-1.9438	-1.6458	-1.5833	-1.8813	-1.6667	-1.6604	-2.1646	307.821	250.424	185.923	413.566	279.712	278.059	316.434	427.228	299.302	222.642	240.082	395.810	398.870	374.185	311.543	365.598	0.0015428	0.00060522	0.00034293	1410.9	1.5789e-05	1.9129e-05	1577.9	506.62	2.1781e-05	6.5933e-06	618.46	233.95	190.86	71.104	1.5877e-05	95.733	0.00089314	0.00086789	0.00024534	1119.1	9.6256e-06	9.4642e-06	1235	395.13	9.4768e-06	9.6861e-06	497.13	183.26	150.67	55.97	9.5429e-06	76.059	74.838	418.413	175.713	86.946	223.074	409.537	84.856	90.903	144.540	204.749	89.150	94.084	95.080	100.172	197.658	97.649	-8191	255	
3514.342	1	1	0	0	0.012059	0.15701	0.27233	0.19156	0.099718	0.15555	0.50334	0.23179	0.18652	0.059078	0.17768	0.36523	0.19416	0.22805	0.099249	0.26055	-0.95625	-1.8104	-1.625	-1.4771	-2.0896	-1.6104	-1.7479	-2.0563	-1.2812	-1.8042	-1.6729	-1.4021	-1.9646	-1.4833	-1.7396	-2.1562	366.836	135.027	316.931	401.554	362.854	378.197	346.531	334.533	305.877	373.281	382.109	395.508	275.669	362.753	276.993	380.101	0.0020821	0.0015586	5.0131e-05	1409.6	8.5766e-06	1.841e-05	1565	504.29	2.4239e-05	3.849e-06	623.83	232.39	186.26	70.755	2.3491e-05	96.733	0.00088013	0.00086099	0.00024089	1115.1	9.504e-06	9.5506e-06	1229.1	393.97	9.5537e-06	9.6592e-06	498.59	183.11	149.35	55.849	9.2631e-06	76.123	428.969	310.581	158.705	86.349	210.141	227.849	84.962	90.916	165.410	175.297	89.185	93.866	95.077	100.422	198.197	97.897	-8191	255	
3514.413	1	1	0	0	0.088938	0.069806	0.051814	0.2963	0.11382	0.16376	0.11147	0.322	0.25581	0.15306	0.082027	0.3145	0.019241	0.45381	0.28501	0.090032	-1.0458	-1.8833	-1.5354	-1.6375	-1.9667	-1.5854	-1.7375	-1.9188	-1.5042	-1.8417	-1.6917	-1.65	-1.9958	-1.7417	-1.5438	-2.0458	406.723	236.039	367.853	85.253	252.390	134.957	316.896	352.462	347.012	424.273	129.282	408.478	234.647	103.985	401.731	343.082	0.0026187	0.00051288	0.00029497	1407.2	2.158e-05	1.3774e-05	1579.1	501.08	2.5999e-05	9.0572e-06	633.7	234.81	189.48	70.903	5.1113e-06	96.958	0.0008924	0.0008683	0.00024079	1109	9.8732e-06	9.9084e-06	1237.8	395.01	1.0606e-05	1.099e-05	508.69	185.69	152.43	56.485	1.1023e-05	76.852	74.570	135.036	271.386	86.272	192.795	220.611	84.843	90.937	216.681	227.673	89.009	94.175	95.638	100.473	173.386	97.820	-8191	255	
3514.510	1	1	0	0	0.16232	0.17145	0.19575	0.078165	0.14619	0.24535	0.22065	0.2509	0.30852	0.21726	0.20175	0.27461	0.27063	0.20191	0.10083	0.31929	-1.0958	-1.7417	-1.65	-1.4354	-2.0208	-1.7521	-1.85	-2.1104	-1.5771	-1.5125	-1.9229	-1.65	-1.9375	-1.6917	-1.4917	-2.2354	378.250	192.998	245.703	241.977	302.675	152.656	328.231	350.529	95.913	166.590	386.519	390.118	339.742	210.335	94.370	399.090	0.0023152	0.00052567	0.00016563	1419.6	1.3902e-05	8.4693e-06	1577.9	504	1.123e-05	1.6449e-05	625.29	237.91	190.34	71.231	1.0317e-05	97.317	0.00098771	0.00099128	0.00027044	1126.7	1.048e-05	1.042e-05	1243.9	397.65	1.0166e-05	1.0107e-05	503.08	186.67	151.39	56.276	1.009e-05	76.895	421.311	103.653	372.025	86.263	167.017	241.158	85.084	90.635	77.751	360.277	89.071	94.532	94.939	100.125	200.528	98.018	-8191	255	
3514.630	1	1	0	0	0.32809	0.18876	0.055174	0.33309	0.089253	0.13351	0.26158	0.17182	0.039397	0.068542	0.25503	0.39296	0.11366	0.1327	0.20192	0.36869	-1.0021	-1.65	-2.025	-1.4792	-1.8604	-1.5083	-1.6812	-2.1604	-1.5708	-1.7479	-2.0229	-1.6083	-1.7958	-1.7542	-1.4333	-1.9	188.405	221.150	80.580	116.015	210.685	166.727	324.551	430.429	320.202	92.792	243.896	410.640	429.712	416.281	395.865	364.088	0.0017742	0.0014517	0.00020841	1420.8	1.1053e-05	1.0047e-05	1585.9	508.92	1.8698e-05	1.3135e-05	625.13	234.59	190.9	71.423	1.1286e-05	95.484	0.00095262	0.00092596	0.00026212	1127.7	1.0118e-05	1.0129e-05	1244.4	399	9.8558e-06	9.7782e-06	501.73	184.67	151.45	56.27	9.9083e-06	75.555	93.569	208.026	228.743	86.693	230.694	87.051	84.854	90.761	158.465	161.475	89.115	94.318	95.068	99.869	226.433	98.090	-8191	255	
3514.726	1	1	0	0	0.14091	0.17128	0.088029	0.11278	0.24694	0.11728	0.23743	0.20851	0.15003	0.016333	0.11219	0.20226	0.077891	0.25881	0.1089	0.34489	-1.175	-1.7167	-1.7833	-1.4062	-1.7542	-1.7437	-1.5	-2.15	-1.3375	-1.6479	-2.0604	-1.7333	-1.7833	-1.7833	-1.4875	-2.0187	276.230	163.752	220.483	364.897	401.460	240.811	380.321	346.480	411.908	267.844	103.571	397.400	282.171	394.662	292.734	347.388	0.0019559	0.00053331	0.00023005	1398.5	2.6071e-05	3.2377e-06	1574.9	504.39	5.1879e-06	1.9384e-05	621.1	231.2	188.84	70.266	2.3843e-05	94.71	0.00093038	0.00090891	0.00025677	1112.7	9.8018e-06	9.5358e-06	1236.1	394.14	9.4266e-06	9.4802e-06	495.26	181.47	148.91	55.571	9.4323e-06	74.874	74.181	84.556	90.906	86.809	151.246	425.013	84.622	90.814	136.189	219.179	88.695	94.011	95.276	100.102	176.702	97.243	-8191	255	
3514.823	1	1	0	0	0.54104	0.092828	0.18546	0.37783	0.11697	0.36005	0.26421	0.338	0.17194	0.16132	0.26521	0.2311	0.061477	0.34527	0.09082	0.28373	-1.1479	-1.5021	-2.1813	-1.5208	-1.6958	-1.825	-1.55	-1.9146	-1.6417	-1.4771	-2.0375	-1.5125	-2.0104	-1.9979	-1.4438	-2.0771	387.028	269.715	98.312	430.898	139.121	162.969	374.553	395.946	217.474	205.734	390.394	382.350	283.985	134.725	289.984	352.894	0.0020402	0.00093855	0.0001584	1405.5	6.3777e-06	1.7668e-05	1575.4	501.46	1.0312e-05	2.1357e-05	625.97	232.9	186.11	69.8	2.3405e-05	95.34	0.00087414	0.00087534	0.00024613	1113.6	9.4387e-06	9.4463e-06	1233	392.72	9.6226e-06	9.3226e-06	496.04	182.25	149.25	55.283	9.6375e-06	74.963	422.136	344.840	332.031	86.629	184.401	216.452	84.752	90.813	153.752	422.451	89.515	93.629	94.790	100.595	103.298	97.900	-8191	255	
3514.919	1	1	0	0	0.12661	0.19352	0.1264	0.071387	0.13196	0.17182	0.32018	0.31316	0.09021	0.11946	0.15153	0.34695	0.16436	0.11469	0.16352	0.31865	-1.2417	-1.4292	-1.7333	-1.7146	-1.7604	-1.8125	-1.6354	-1.9188	-1.7875	-1.6979	-1.9562	-1.6812	-1.5917	-1.8979	-1.3	-1.8667	122.051	359.933	140.286	354.970	294.998	373.409	390.593	381.662	199.584	213.527	393.027	428.157	405.340	366.646	270.067	388.460	0.0025059	0.0015415	0.0007169	1417.8	2.1584e-05	9.0347e-06	1579.5	505.18	1.7972e-05	7.5323e-06	622.43	231.66	188.05	69.69	2.4043e-05	94.508	0.0009247	0.00089932	0.00024776	1119.1	9.5499e-06	9.6044e-06	1233.5	395.38	9.1593e-06	9.2478e-06	492.78	181.07	147.23	54.803	8.5689e-06	73.852	76.268	217.629	190.295	86.614	294.339	114.867	84.770	90.918	145.794	222.470	89.364	93.941	94.838	100.096	169.288	97.655	-8191	255	
3515.038	1	1	0	0	0.033693	0.20959	0.15687	0.17661	0.25239	0.22804	0.19664	0.17725	0.17676	0.070509	0.15887	0.27777	0.17557	0.23823	0.079078	0.40423	-1.4271	-1.3062	-1.7167	-1.7604	-1.6625	-1.8625	-1.7708	-1.775	-1.8729	-1.4562	-1.9708	-1.7	-1.4062	-1.8833	-1.4229	-1.7542	277.061	183.830	164.469	425.285	359.649	407.045	389.426	417.608	136.711	149.608	395.153	430.998	211.988	425.353	264.436	365.046	0.0014083	0.001344	0.00030082	1415	6.8775e-06	2.6288e-05	1562.6	503.03	4.8417e-06	1.0595e-05	613.25	228.95	187.36	68.242	1.8345e-05	92.249	0.00076156	0.00073226	0.00019909	1103.1	7.4319e-06	7.4057e-06	1211.4	389.4	6.9276e-06	6.7785e-06	473.02	176.7	143.48	53.415	6.4834e-06	71.736	425.147	123.706	89.495	86.455	138.032	192.753	84.884	90.998	110.420	178.531	88.971	93.215	94.925	99.887	269.929	97.323	-8191	255	
3515.109	1	1	0	0	0.14991	0.13148	0.1043	0.065208	0.10356	0.1207	0.45248	0.37397	0.15367	0.047335	0.65779	0.077645	0.12414	0.20245	0.14091	0.09671	-1.25	-1.3479	-1.8042	-1.6271	-1.6688	-1.8458	-1.575	-1.9271	-1.8875	-1.3062	-1.8792	-1.875	-1.4792	-2.15	-1.4875	-1.6792	356.255	345.135	241.755	140.990	317.830	351.931	403.496	343.614	76.403	116.356	357.785	401.157	404.390	360.026	229.184	115.874	0.002323	0.0023239	8.8987e-05	1395.7	2.6311e-05	5.5351e-06	1559.7	502.31	1.7048e-05	7.9018e-06	610.97	225.85	187.6	68.561	9.8661e-06	92.06	0.00061621	0.0006083	0.0001712	1090.9	6.8143e-06	6.697e-06	1209.9	389.42	7.0272e-06	7.0931e-06	474.21	175.82	143.9	53.754	7.2517e-06	71.686	413.921	164.027	218.388	86.091	207.235	191.350	84.167	90.524	175.633	350.363	88.737	93.534	94.958	100.173	277.687	97.868	-8191	255	
3515.230	1	1	0	0	0.17693	0.1461	0.36714	0.28882	0.13136	0.24915	0.18487	0.46109	0.18853	0.12742	0.22538	0.29921	0.13487	0.2191	0.23974	0.11295	-1.2896	-1.3208	-1.7563	-1.5	-1.4813	-2.025	-1.6375	-1.6125	-1.9229	-1.5958	-1.8833	-1.725	-1.55	-2.0646	-1.6187	-1.7104	193.920	370.210	283.833	368.737	176.013	286.625	414.333	382.794	104.518	231.755	323.477	75.781	302.243	346.713	180.696	381.544	0.0021238	0.00078749	0.00046436	1409.7	6.6173e-06	3.2088e-06	1570.7	499.94	1.3455e-05	8.0252e-06	607.56	226.29	185.7	68.87	2.3036e-05	92.616	0.00071413	0.00068674	0.00019585	1104.5	7.8967e-06	7.905e-06	1218.1	388.25	7.8446e-06	7.8132e-06	476.2	176.3	143.97	53.955	7.6508e-06	72.324	80.475	131.356	112.084	86.297	411.354	289.612	84.696	90.728	262.822	323.748	89.595	93.390	95.425	99.600	196.637	97.718	-8191	255	
3515.326	1	1	0	0	0.21413	0.079769	0.30197	0.2046	0.13469	0.04192	0.38311	0.28689	0.21106	0.35947	0.2015	0.19607	0.068808	0.23663	0.3142	0.041795	-1.3917	-1.3521	-1.7938	-1.8521	-1.4188	-1.8604	-1.8042	-1.7708	-1.9271	-1.4729	-1.725	-2.0812	-1.5875	-1.9417	-1.675	-1.5458	152.332	405.362	197.618	406.672	158.130	96.865	354.759	403.539	218.894	343.320	348.861	400.650	263.961	78.285	251.307	271.204	0.0023141	0.00080681	0.00054542	1395.9	2.185e-05	8.242e-06	1563.9	500.06	1.3271e-05	1.4386e-05	609.03	227.91	185.74	68.821	9.0977e-06	93.419	0.00072482	0.00067788	0.00019329	1094.8	7.5808e-06	7.5483e-06	1214.1	387.35	7.6404e-06	7.4045e-06	478.09	177.61	143.66	54.041	7.4295e-06	72.692	431.333	150.745	228.304	86.333	175.948	194.470	84.452	90.749	197.840	156.127	89.338	93.999	95.184	99.680	185.946	97.342	-8191	255	
3515.422	1	1	0	0	0.14437	0.19982	0.12328	0.092029	0.2413	0.10929	0.3413	0.417	0.070164	0.23773	0.1632	0.13965	0.25705	0.22584	0.085382	0.22315	-1.6708	-1.5	-1.5708	-1.9625	-1.4396	-1.95	-1.8396	-1.5229	-1.8708	-1.6396	-1.7375	-1.9833	-1.4854	-1.8521	-1.7583	-1.7979	246.647	238.405	221.855	336.391	241.151	252.810	338.678	382.686	337.577	278.804	409.974	264.348	89.151	385.095	251.813	243.643	0.0018396	0.001077	0.00068534	1395.4	1.2665e-05	2.7185e-05	1567.2	500.05	1.1559e-05	1.1287e-05	616.17	227.36	186.78	69.02	1.7663e-05	92.936	0.00073449	0.0007139	0.00019325	1095.8	7.7446e-06	7.718e-06	1216.5	388.9	7.7125e-06	7.594e-06	480.09	176.78	144.75	54.057	7.9476e-06	72.685	423.758	211.665	188.916	86.365	164.568	220.124	84.525	90.850	212.026	165.536	89.370	93.746	95.131	100.030	169.329	97.333	-8191	255	
3515.518	1	1	0	0	0.21197	0.057554	0.14177	0.56452	0.087696	0.20157	0.40413	0.22606	0.085029	0.20941	0.17908	0.2863	0.13049	0.30332	0.2128	0.21487	-1.2708	-1.7521	-1.6104	-1.9875	-1.4292	-1.7167	-2.1312	-1.4625	-1.8896	-1.5396	-1.5542	-2.2104	-1.4896	-1.8271	-1.6979	-1.6167	184.704	274.335	192.975	336.646	374.702	146.882	321.431	336.066	272.922	162.987	419.151	406.505	189.995	406.598	238.432	349.084	0.0018387	0.0010324	0.0003149	1403.1	1.3711e-05	2.4805e-06	1550.6	503.05	1.1981e-05	1.4161e-05	615.65	228.94	188.53	68.571	3.8134e-06	92.554	0.00076914	0.0007526	0.00020903	1101.8	8.2445e-06	8.1326e-06	1205.9	392.47	7.8687e-06	7.9522e-06	482.93	178.61	145.92	53.811	7.9765e-06	72.691	425.714	177.096	276.856	86.641	143.712	217.794	85.386	90.821	219.516	286.045	89.665	93.823	95.185	100.146	154.258	98.101	-8191	255	
3515.639	1	1	0	0	0.16541	0.22546	0.25238	0.099422	0.15065	0.17046	0.19044	0.41587	0.1095	0.13052	0.011564	0.42154	0.15195	0.46143	0.015124	0.22859	-1.5083	-1.5396	-1.5271	-2.05	-1.5896	-1.8188	-1.9958	-1.7354	-1.7146	-1.8062	-1.6167	-2.0396	-1.5729	-1.9896	-1.7333	-1.6708	346.822	320.132	108.234	92.401	192.974	238.186	360.896	387.110	345.329	168.277	390.286	372.771	86.396	102.878	228.640	379.161	0.0020083	0.00036785	0.00041935	1400.6	2.1357e-05	1.3892e-05	1560.7	507.01	5.3421e-06	2.5916e-05	619.58	230.28	186.34	69.231	1.6884e-05	92.467	0.00074684	0.00074663	0.00020749	1102.4	8.4223e-06	8.5748e-06	1221.6	395.3	8.584e-06	8.7426e-06	489.72	179.31	146.4	54.281	8.536e-06	73.11	422.485	113.190	180.423	86.121	253.990	278.580	84.964	90.594	173.044	235.690	89.584	93.462	95.900	100.609	102.598	98.099	-8191	255	
3515.711	1	1	0	0	0.13308	0.31289	0.14464	0.19663	0.1391	0.067252	0.29329	0.20101	0.13276	0.26451	0.27411	0.17184	0.026838	0.19764	0.086634	0.22111	-1.3917	-1.5958	-1.5125	-2.0479	-1.4146	-1.5292	-2.1083	-1.675	-1.9562	-1.8438	-1.5604	-2.0333	-1.8021	-1.4333	-2.0563	-1.6229	108.093	216.104	201.710	74.533	84.540	431.443	340.762	430.456	324.837	311.116	177.344	79.781	79.562	378.892	104.381	313.429	0.0021837	0.00041276	0.00050143	1415.6	1.1885e-05	1.4204e-05	1570.9	505.88	2.0479e-05	1.5944e-05	620.6	230.75	187.9	69.229	1.5486e-05	93.64	0.00079832	0.00079622	0.0002216	1113	8.6543e-06	8.9257e-06	1230.9	394.5	9.1464e-06	9.1492e-06	493.99	181.26	148.01	54.662	9.1367e-06	73.91	72.978	328.053	187.018	86.394	279.966	288.103	85.082	90.961	243.047	251.331	89.200	93.429	94.911	100.401	233.359	97.690	-8191	255	
3515.807	1	1	0	0	0.085223	0.16634	0.079926	0.27799	0.16336	0.28439	0.12135	0.27633	0.12582	0.16943	0.096374	0.11257	0.27557	0.29892	0.19213	0.44464	-1.3646	-1.8792	-1.3625	-2.1063	-1.5979	-1.5063	-2.2167	-1.6667	-1.6979	-1.875	-1.4229	-2.0792	-1.4479	-1.7708	-1.8021	-1.7188	354.165	157.430	107.738	398.976	196.684	391.073	378.960	372.758	425.154	115.147	324.908	93.690	352.981	407.515	142.181	385.315	0.0019141	0.00098503	0.00055477	1437.2	8.4718e-06	1.1724e-05	1592.4	518.11	2.356e-05	2.892e-05	623.91	232.71	191.01	69.595	2.2363e-05	95.034	0.00083567	0.00083947	0.00023565	1130.2	9.1458e-06	9.2952e-06	1250.5	403.42	9.2154e-06	9.3113e-06	498.04	182.67	149.71	54.983	9.2757e-06	74.402	76.498	77.971	219.793	86.417	205.506	200.448	84.791	90.980	142.678	99.717	88.536	93.581	94.888	100.273	170.406	97.787	-8191	255	
3515.903	1	1	0	0	0.24234	0.22641	0.21055	0.12092	0.21414	0.089859	0.25554	0.27894	0.20655	0.17107	0.16731	0.32671	0.14977	0.54313	0.089404	0.31347	-1.3937	-2.0479	-1.3521	-1.9396	-1.6167	-1.6313	-2.2583	-1.6542	-1.6875	-1.9292	-1.5396	-1.8625	-1.7771	-1.4646	-1.8646	-1.6625	103.175	138.605	397.572	335.825	192.255	169.740	318.281	391.002	272.059	356.355	144.144	360.677	398.963	420.012	331.744	314.192	0.0019989	0.00111	0.00033986	1430.1	1.3323e-05	6.5096e-06	1595.7	509.68	8.1349e-06	6.515e-06	630.87	231.65	190.33	69.746	4.2533e-06	94.498	0.00084963	0.00086702	0.00024467	1127.4	9.4375e-06	9.6656e-06	1248.9	400.31	9.283e-06	9.2494e-06	494.81	181.89	149.24	54.931	9.2685e-06	74.573	75.391	131.820	209.927	86.457	196.091	174.996	84.895	91.250	144.105	134.214	88.839	93.622	95.120	99.818	219.442	97.793	-8191	255	
3515.999	1	1	0	0	0.2987	0.11334	0.081196	0.14502	0.056566	0.16637	0.40101	0.028573	0.33537	0.37366	0.11398	0.22445	0.25425	0.60879	0.30847	0.29526	-1.125	-1.8563	-1.4604	-1.7333	-1.7875	-1.3979	-2.0687	-1.5708	-1.5729	-1.8188	-1.5125	-1.8771	-1.9167	-1.4896	-1.9354	-1.7604	406.239	391.908	147.576	371.405	291.604	238.914	365.665	387.433	181.227	130.779	244.355	309.888	395.083	423.736	208.088	320.443	0.0019427	0.0018093	0.00052589	1427.8	1.5658e-05	2.5571e-05	1587.2	509.5	1.4998e-05	5.5599e-06	627.14	231.02	189.91	69.401	3.4382e-06	94.599	0.00088709	0.00087168	0.00025267	1129.1	1.0057e-05	1.0238e-05	1245	399.4	1.005e-05	1.0269e-05	500.94	181.72	150.48	55.128	9.7387e-06	74.449	83.682	259.589	135.472	86.146	263.653	186.561	84.566	90.946	138.017	189.556	89.172	93.351	95.376	100.298	179.944	97.811	-8191	255	
3516.118	1	1	0	0	0.1885	0.22573	0.036961	0.37439	0.19389	0.069121	0.14382	0.39817	0.22675	0.28458	0.18015	0.58518	0.11062	0.12432	0.086661	0.44257	-1.0729	-1.7833	-1.5	-1.9083	-1.8125	-1.5667	-1.9833	-1.9271	-1.5333	-1.9438	-1.4958	-1.6125	-1.8271	-1.6292	-1.9917	-1.775	309.571	155.213	244.591	113.918	404.446	153.679	332.855	377.966	91.435	137.094	366.242	414.622	258.877	419.436	345.658	364.208	0.0024235	0.0010868	0.00045607	1430.3	2.7928e-05	1.3729e-05	1593.5	511.16	1.7938e-05	4.1415e-06	626.46	231.09	189.44	69.137	1.5605e-05	92.999	0.00094143	0.00092673	0.00026284	1135.5	1.0635e-05	1.0708e-05	1256.4	400.54	1.0717e-05	1.0775e-05	504.65	181.7	150.53	54.832	1.0634e-05	73.76	85.422	156.100	182.113	86.441	168.053	369.321	84.568	90.752	269.306	284.058	88.939	93.877	95.253	100.291	221.894	98.345	-8191	255	
3516.214	1	1	0	0	0.28129	0.16265	0.29454	0.13172	0.045314	0.084357	0.25792	0.33572	0.1413	0.23092	0.44718	0.25204	0.11361	0.26343	0.15449	0.31494	-1.0708	-1.9708	-1.325	-1.8563	-1.7146	-1.3979	-2.0292	-1.9083	-1.5812	-1.9229	-1.4833	-1.9229	-1.8062	-1.4646	-1.6896	-1.8438	374.973	431.458	431.059	400.964	305.919	89.500	426.156	364.498	366.205	301.058	427.311	432.462	109.434	74.610	427.327	371.251	0.0017113	0.00093755	0.00052215	1414.3	2.7159e-05	1.1638e-05	1576	502.16	1.8869e-05	5.3526e-06	617.71	227.69	190.96	68.942	8.7519e-06	92.725	0.00098151	0.00095681	0.000265	1121.1	9.8816e-06	9.8817e-06	1231.7	392.31	9.1765e-06	9.0632e-06	488.45	178.74	147.48	54.411	9.0355e-06	73.187	75.387	140.485	234.739	86.253	156.046	74.078	84.978	90.556	159.953	122.335	88.858	93.609	95.052	100.148	196.462	97.683	-8191	255	
3516.310	1	1	0	0	0.064158	0.081542	0.073592	0.093631	0.10599	0.16258	0.039888	0.30417	0.069988	0.16378	0.13221	0.13222	0.27766	0.34006	0.20135	0.30391	-0.95417	-1.8542	-1.5917	-1.6521	-1.8208	-1.5458	-1.8687	-1.9083	-1.5917	-2.0208	-1.5542	-1.6729	-2.0583	-1.7062	-1.7042	-2.0917	202.128	132.617	205.063	431.498	369.016	252.362	190.622	73.090	76.687	380.252	298.190	371.811	383.331	421.512	340.616	424.871	0.001742	0.0011951	0.0001612	1407.3	2.6395e-06	2.8208e-06	1539.8	499.07	1.2471e-05	6.8181e-06	596.82	224.6	184.78	68.833	1.3732e-05	92.178	0.00084009	0.00082651	0.00022979	1109.4	8.5926e-06	8.6508e-06	1206.2	388.25	8.3134e-06	8.1694e-06	473.64	175.66	144.47	54.075	8.1003e-06	72.515	424.224	192.167	186.388	86.583	398.259	317.707	84.584	90.640	244.852	371.247	89.613	93.845	95.286	100.029	145.109	97.935	-8191	255	
3516.406	1	1	0	0	0.12393	0.11664	0.29492	0.26918	0.30776	0.11809	0.0032824	0.36236	0.22368	0.17158	0.24907	0.16826	0.2068	0.35749	0.10302	0.18382	-0.925	-1.8188	-1.6792	-1.5604	-1.9896	-1.4917	-1.6979	-2.0042	-1.3167	-1.8896	-1.7271	-1.5271	-1.9646	-1.5833	-1.7208	-2.0104	73.169	413.463	105.763	389.731	318.926	75.691	232.458	391.033	397.365	156.651	150.868	141.601	100.273	419.388	419.163	327.049	0.0023544	0.00091405	0.00019482	1405	2.4941e-05	2.8525e-05	1534	500.42	1.2951e-05	1.5913e-05	602.8	226.01	184.37	68.512	1.9439e-05	92.574	0.00079984	0.00078155	0.00021681	1104.2	8.7938e-06	8.4885e-06	1205.5	390.61	8.7108e-06	8.6484e-06	479.22	176.94	144.63	54.137	8.683e-06	72.803	431.283	184.287	208.996	86.813	203.865	290.734	84.530	91.064	103.036	409.165	89.310	93.859	95.498	99.863	130.905	97.478	-8191	255	
3516.503	1	1	0	0	0.10861	0.21223	0.1367	0.27078	0.1924	0.2695	0.41438	0.34924	0.17324	0.085038	0.14501	0.089618	0.029705	0.34481	0.16629	0.2499	-0.99167	-1.6458	-1.575	-1.5875	-2.0229	-1.5417	-1.7479	-1.8979	-1.4979	-1.9937	-1.9583	-1.4562	-1.9375	-1.9208	-1.6625	-1.8	117.284	389.600	332.977	356.865	177.306	209.857	389.788	415.925	207.887	186.709	78.425	91.935	370.709	412.978	312.938	327.008	0.0017105	0.00118	0.00012552	1402.4	1.7596e-05	1.7054e-05	1562	501.35	3.8181e-06	4.4539e-06	606.76	227.37	187.81	69.681	1.6424e-05	93.768	0.00080882	0.00079193	0.00021923	1104.3	8.5583e-06	8.7278e-06	1218.3	389.82	8.9233e-06	9.0631e-06	485.08	178.45	146.65	54.905	9.0593e-06	73.823	80.538	205.720	199.985	86.936	105.806	244.105	84.363	90.827	202.027	131.697	89.095	93.848	95.419	100.021	240.374	97.529	-8191	255	
3516.599	1	1	0	0	0.17372	0.082033	0.095743	0.24405	0.068116	0.076625	0.18554	0.38438	0.081892	0.3699	0.18918	0.082925	0.33734	0.074507	0.061953	0.39006	-1.0104	-1.6354	-1.8458	-1.6667	-1.8813	-1.5458	-1.7812	-2.2208	-1.7083	-1.7917	-1.7604	-1.7792	-1.7938	-1.6646	-1.4875	-2.2938	179.021	385.382	271.980	383.308	227.042	250.771	366.366	378.307	423.751	396.591	126.929	380.804	366.386	304.647	372.992	344.613	0.002101	0.0016135	0.00026897	1395.2	1.4619e-05	1.2228e-05	1551.1	493.68	1.6404e-05	1.1455e-05	612.64	227.86	186.87	70.032	1.881e-05	94.467	0.00083397	0.00079964	0.00022578	1106.4	8.5008e-06	8.4593e-06	1210.1	387.01	8.6024e-06	8.8045e-06	484.53	178.38	146.66	55.166	8.8594e-06	74.494	78.030	184.293	196.262	86.297	249.123	405.556	84.936	90.427	354.849	199.292	88.567	94.053	95.519	100.090	284.646	97.632	-8191	255	
3516.719	1	1	0	0	0.10425	0.22388	0.13403	0.34732	0.14354	0.19357	0.19711	0.32395	0.19823	0.10992	0.15201	0.34108	0.18318	0.51318	0.30878	0.4258	-1.0021	-1.7104	-2.0687	-1.4917	-1.8333	-1.7875	-1.6958	-1.9792	-1.6313	-1.7104	-1.8729	-1.5458	-1.7708	-1.9167	-1.4542	-2.0042	405.148	369.602	408.738	407.936	351.001	431.829	384.363	381.586	290.966	224.995	325.468	409.566	396.101	405.949	337.402	318.666	0.0018892	0.0014449	0.00031077	1411.1	1.1608e-05	1.1533e-05	1561	501.31	1.4396e-05	1.982e-06	600.86	226.19	186.8	69.583	2.2201e-05	93.447	0.00082664	0.00080271	0.00022655	1112.6	8.6823e-06	8.5845e-06	1219.7	391.57	8.4793e-06	8.2215e-06	477.23	177.07	144.25	54.556	7.3126e-06	72.94	81.357	95.103	184.646	86.676	132.759	366.641	84.885	90.980	273.745	80.912	88.805	93.494	95.347	100.198	243.605	97.854	-8191	255	
3516.814	1	1	0	0	0.27972	0.18719	0.11394	0.20492	0.17452	0.29065	0.44612	0.29965	0.25273	0.17116	0.12769	0.11762	0.15848	0.093638	0.2087	0.086979	-1.1125	-1.5979	-1.9167	-1.5979	-1.8042	-1.6958	-1.6896	-2.15	-1.6708	-1.5583	-1.9854	-1.6604	-1.7875	-1.975	-1.4396	-2.0833	382.963	299.118	140.045	95.962	213.477	338.861	361.425	361.852	84.441	318.099	98.460	293.201	383.717	316.160	169.996	374.078	0.0020174	0.00033573	0.00062247	1398.5	1.9396e-05	8.0839e-06	1551.5	496.83	2.822e-05	1.5024e-05	609.53	228.54	186.47	69.826	6.6639e-06	93.416	0.00067153	0.00066286	0.00018966	1096.9	7.5421e-06	7.8105e-06	1213.1	388.44	8.5476e-06	8.9024e-06	485.89	178.85	147.34	55.215	9.9416e-06	74.459	86.275	100.651	245.706	86.511	234.694	181.696	84.732	90.706	172.565	264.492	89.400	93.744	94.706	100.214	122.595	97.668	-8191	255	
3516.910	1	1	0	0	0.17186	0.15631	0.12178	0.26623	0.091244	0.2463	0.33748	0.45062	0.11003	0.28793	0.38641	0.15049	0.094375	0.30046	0.18668	0.12173	-1.3896	-1.6021	-2	-1.6896	-1.8	-1.9521	-1.4729	-1.9458	-1.65	-1.5542	-2.1312	-1.7229	-1.7083	-2.0083	-1.4292	-2.0438	167.091	346.155	388.569	332.162	426.135	418.766	405.376	358.881	305.341	342.759	343.664	110.213	121.914	89.277	272.642	385.447	0.0022976	0.0014489	0.00040989	1426.3	2.1856e-05	1.7432e-05	1587.1	504.95	1.3564e-05	7.4894e-06	624.92	230.58	189.61	69.949	2.465e-05	95.566	0.00093739	0.00093002	0.0002623	1130	1.0203e-05	1.0564e-05	1246.3	396.78	1.0337e-05	1.0594e-05	501.28	182.17	150.45	55.573	1.024e-05	75.374	76.989	313.325	383.309	86.503	200.441	262.814	84.729	91.055	135.161	80.674	88.833	93.507	94.910	100.297	177.591	97.684	-8191	255	
3517.006	1	1	0	0	0.18196	0.23181	0.062362	0.12391	0.10824	0.17214	0.17189	0.35863	0.19186	0.18026	0.23012	0.46192	0.14269	0.25067	0.18214	0.2677	-1.1437	-1.3312	-2.1188	-1.675	-1.6792	-1.9042	-1.6229	-2.0417	-1.7396	-1.5958	-1.9292	-1.8312	-1.6729	-2.2229	-1.5521	-1.8229	335.439	85.746	166.811	118.573	164.683	413.290	312.737	370.856	294.600	324.897	408.229	381.988	146.964	426.700	258.220	330.954	0.002445	0.0025254	0.00015691	1416.9	4.6959e-06	1.8735e-05	1560.8	499.16	1e-05	2.613e-05	613.57	228.86	185.62	70.071	1.2708e-05	94.937	0.00092829	0.0008834	0.00024208	1115.7	8.9681e-06	8.8439e-06	1217.9	390.47	8.2361e-06	8.0958e-06	478.58	177.66	143.83	54.884	7.1538e-06	73.725	427.128	404.505	223.528	86.250	108.240	219.948	84.758	90.828	409.718	223.568	89.193	93.837	95.781	100.177	247.156	97.966	-8191	255	
#DATA ENDS
