BOXY.EXE: ISS Imagent and Oximeter Data Acquisition Program Version 0.80
Ascii Record File

#ACQ INFORMATION
2  Detector Channels 
16  External MUX Channels 
1  Auxiliary Channels 
5000  Waveform (CCF) Frequency (Hz)
1  Waveforms Skipped 
30  Waveforms Averaged 
1  Cycles Averaged 
16  Acquisitions per Waveform 
10.0806  Updata Rate (Hz) 

#FILE INFORMATION
TRUE -- External MUX Channel results are PARSED.
FALSE -- AC DC and Phase are NOT grouped.
TRUE -- Companion Program Settings File CREATED.
FALSE -- AC data not excluded
FALSE -- DC data not excluded
FALSE -- Phase data not excluded
FALSE -- Auxillary Chn. data not excluded
Tab delimiters

#CALIBRATION STATE
TRUE -- Waveform Calibration Values APPLIED.


#AUX CALIBRATION VALUES
Val Type	aux-1	

Term	1.0000e+00	
Factor	0.0000e+00	


#WF CALIBRATION VALUES
A = Detector Channel
Val Type	A-AC1	A-AC2	A-AC3	A-AC4	A-AC5	A-AC6	A-AC7	A-AC8	A-AC9	A-AC10	A-AC11	A-AC12	A-AC13	A-AC14	A-AC15	A-AC16	A-DC1	A-DC2	A-DC3	A-DC4	A-DC5	A-DC6	A-DC7	A-DC8	A-DC9	A-DC10	A-DC11	A-DC12	A-DC13	A-DC14	A-DC15	A-DC16	A-Ph1	A-Ph2	A-Ph3	A-Ph4	A-Ph5	A-Ph6	A-Ph7	A-Ph8	A-Ph9	A-Ph10	A-Ph11	A-Ph12	A-Ph13	A-Ph14	A-Ph15	A-Ph16	

Term	0.00000e+00	0.00000e+00	0.00000e+00	0.00000e+00	0.00000e+00	0.00000e+00	0.00000e+00	0.00000e+00	0.00000e+00	0.00000e+00	0.00000e+00	0.00000e+00	0.00000e+00	0.00000e+00	0.00000e+00	0.00000e+00	0.00000e+00	0.00000e+00	0.00000e+00	0.00000e+00	0.00000e+00	0.00000e+00	0.00000e+00	0.00000e+00	0.00000e+00	0.00000e+00	0.00000e+00	0.00000e+00	0.00000e+00	0.00000e+00	0.00000e+00	0.00000e+00	0.00000e+00	0.00000e+00	0.00000e+00	0.00000e+00	0.00000e+00	0.00000e+00	0.00000e+00	0.00000e+00	0.00000e+00	0.00000e+00	0.00000e+00	0.00000e+00	0.00000e+00	0.00000e+00	0.00000e+00	0.00000e+00	
Factor	1.00000e+00	1.00000e+00	1.00000e+00	1.00000e+00	1.00000e+00	1.00000e+00	1.00000e+00	1.00000e+00	1.00000e+00	1.00000e+00	1.00000e+00	1.00000e+00	1.00000e+00	1.00000e+00	1.00000e+00	1.00000e+00	1.00000e+00	1.00000e+00	1.00000e+00	1.00000e+00	1.00000e+00	1.00000e+00	1.00000e+00	1.00000e+00	1.00000e+00	1.00000e+00	1.00000e+00	1.00000e+00	1.00000e+00	1.00000e+00	1.00000e+00	1.00000e+00	X	X	X	X	X	X	X	X	X	X	X	X	X	X	X	X	

B = Detector Channel
Val Type	B-AC1	B-AC2	B-AC3	B-AC4	B-AC5	B-AC6	B-AC7	B-AC8	B-AC9	B-AC10	B-AC11	B-AC12	B-AC13	B-AC14	B-AC15	B-AC16	B-DC1	B-DC2	B-DC3	B-DC4	B-DC5	B-DC6	B-DC7	B-DC8	B-DC9	B-DC10	B-DC11	B-DC12	B-DC13	B-DC14	B-DC15	B-DC16	B-Ph1	B-Ph2	B-Ph3	B-Ph4	B-Ph5	B-Ph6	B-Ph7	B-Ph8	B-Ph9	B-Ph10	B-Ph11	B-Ph12	B-Ph13	B-Ph14	B-Ph15	B-Ph16	

Term	0.00000e+00	0.00000e+00	0.00000e+00	0.00000e+00	0.00000e+00	0.00000e+00	0.00000e+00	0.00000e+00	0.00000e+00	0.00000e+00	0.00000e+00	0.00000e+00	0.00000e+00	0.00000e+00	0.00000e+00	0.00000e+00	0.00000e+00	0.00000e+00	0.00000e+00	0.00000e+00	0.00000e+00	0.00000e+00	0.00000e+00	0.00000e+00	0.00000e+00	0.00000e+00	0.00000e+00	0.00000e+00	0.00000e+00	0.00000e+00	0.00000e+00	0.00000e+00	-2.24060e+02	-1.11729e+02	-1.18567e+02	-1.84289e+02	-1.11961e+02	-6.00827e+01	-1.55886e+02	-1.62015e+02	-1.01531e+02	-6.74875e+01	-1.85687e+02	-1.70606e+02	-1.87784e+02	-1.76603e+02	-9.45758e+01	-1.49601e+02	
Factor	5.43509e-05	1.63650e-04	4.33084e-05	2.33733e-01	1.94758e-06	1.75263e-06	1.64518e-01	5.27251e-02	1.66082e-06	1.87297e-06	2.24341e-01	3.14586e-02	6.61009e-02	9.37024e-03	1.76255e-06	1.36036e-02	1.76928e-06	1.83696e-06	5.12401e-07	1.16323e-01	2.00414e-08	2.01515e-08	7.78427e-02	2.64679e-02	1.99929e-08	2.01544e-08	1.02877e-01	1.51848e-02	3.14592e-02	4.69440e-03	2.00290e-08	6.58755e-03	X	X	X	X	X	X	X	X	X	X	X	X	X	X	X	X	



#DISTANCE SETTINGS
A = Detector Channel
A-1	A-2	A-3	A-4	A-5	A-6	A-7	A-8	A-9	A-10	A-11	A-12	A-13	A-14	A-15	A-16	

2.5000e+00	3.0000e+00	2.5000e+00	3.0000e+00	2.0000e+00	3.0000e+00	1.5000e+00	3.0000e+00	3.0000e+00	3.0000e+00	3.0000e+00	3.0000e+00	3.0000e+00	3.0000e+00	1.5000e+00	3.0000e+00	

B = Detector Channel
B-1	B-2	B-3	B-4	B-5	B-6	B-7	B-8	B-9	B-10	B-11	B-12	B-13	B-14	B-15	B-16	

1.0000e+01	1.0000e+01	1.0000e+01	1.4400e+00	1.0000e+01	1.0000e+01	1.5100e+00	1.9400e+00	1.0000e+01	1.0000e+01	1.9900e+00	2.4900e+00	2.4100e+00	2.9000e+00	1.0000e+01	2.9800e+00	




#DATA BEGINS
time	group	step	mark	flag	A-AC1	A-AC2	A-AC3	A-AC4	A-AC5	A-AC6	A-AC7	A-AC8	A-AC9	A-AC10	A-AC11	A-AC12	A-AC13	A-AC14	A-AC15	A-AC16	A-DC1	A-DC2	A-DC3	A-DC4	A-DC5	A-DC6	A-DC7	A-DC8	A-DC9	A-DC10	A-DC11	A-DC12	A-DC13	A-DC14	A-DC15	A-DC16	A-Ph1	A-Ph2	A-Ph3	A-Ph4	A-Ph5	A-Ph6	A-Ph7	A-Ph8	A-Ph9	A-Ph10	A-Ph11	A-Ph12	A-Ph13	A-Ph14	A-Ph15	A-Ph16	B-AC1	B-AC2	B-AC3	B-AC4	B-AC5	B-AC6	B-AC7	B-AC8	B-AC9	B-AC10	B-AC11	B-AC12	B-AC13	B-AC14	B-AC15	B-AC16	B-DC1	B-DC2	B-DC3	B-DC4	B-DC5	B-DC6	B-DC7	B-DC8	B-DC9	B-DC10	B-DC11	B-DC12	B-DC13	B-DC14	B-DC15	B-DC16	B-Ph1	B-Ph2	B-Ph3	B-Ph4	B-Ph5	B-Ph6	B-Ph7	B-Ph8	B-Ph9	B-Ph10	B-Ph11	B-Ph12	B-Ph13	B-Ph14	B-Ph15	B-Ph16	aux-1	digaux	

1174.164	1	1	0	256	0.2004	0.20509	0.18209	0.20221	0.36252	0.21818	0.17006	0.097793	0.26233	0.25094	0.15703	0.17968	0.16185	0.21515	0.23898	0.15732	-1.3479	-2.1833	-1.9438	-2.0083	-2.2583	-1.7458	-2.1271	-2.0083	-1.6021	-2.0604	-1.7437	-1.9833	-2.2396	-1.9438	-2.1104	-2.3125	161.315	229.496	172.303	76.576	323.655	48.338	282.100	376.857	80.756	304.220	253.508	356.625	336.154	357.686	261.067	235.609	0.00066417	0.00041675	4.5129e-05	1092.7	2.3211e-06	3.2845e-06	1189.5	228.56	1.4117e-06	1.2982e-06	291.11	80.746	63.73	18.657	5.0593e-06	26.088	0.00011433	0.00010355	2.8358e-05	1056.3	1.1516e-06	1.1245e-06	1160.1	224.73	1.1571e-06	1.0987e-06	275.9	79.621	60.313	18.458	1.127e-06	25.87	63.749	171.723	86.893	35.910	142.263	258.900	35.690	43.333	72.452	75.829	42.885	50.042	50.451	57.255	188.707	56.466	-8191	255	
1174.260	1	1	0	0	0.05865	0.1359	0.19534	0.11651	0.13585	0.21801	0.13311	0.18462	0.22214	0.084226	0.19047	0.19289	0.29464	0.070554	0.19532	0.24874	-1.0917	-2.0104	-1.7917	-1.9458	-2.2396	-1.8083	-2.1375	-2.1771	-1.5792	-1.9854	-1.9875	-1.7646	-2.3375	-1.8979	-2.1667	-2.2208	175.263	193.853	220.577	329.140	109.568	360.187	348.587	326.862	218.294	324.839	116.155	364.568	30.771	218.935	254.206	41.628	0.00053251	0.00029727	0.00011193	1087.1	1.8357e-06	1.239e-06	1184.5	228.77	3.8049e-07	2.8011e-07	291.1	81.196	63.562	18.466	4.6635e-06	26.089	0.00011067	0.00010002	2.7395e-05	1053.6	1.1516e-06	1.1181e-06	1155.5	223.58	1.1604e-06	1.1449e-06	274.8	79.617	60.134	18.414	1.1238e-06	25.85	57.913	155.995	191.316	35.892	136.699	253.588	35.854	43.628	342.085	171.113	42.902	49.829	50.665	57.380	146.531	56.319	-8191	255	
1174.356	1	1	0	0	0.23504	0.087799	0.33929	0.20948	0.044359	0.30364	0.10174	0.11433	0.1075	0.30456	0.06587	0.20039	0.2785	0.16563	0.24245	0.14823	-1.2604	-2.1021	-1.8521	-1.6938	-2.2542	-1.8312	-1.9042	-1.975	-1.5229	-1.7812	-1.8	-1.6208	-2.0979	-1.9208	-1.6375	-2.4437	348.420	350.938	64.201	194.171	134.919	138.931	346.995	118.260	68.929	71.520	309.590	315.079	288.595	381.167	277.567	286.975	0.00057954	0.00029511	5.0324e-05	1087.6	5.3605e-06	3.2183e-06	1187.5	227.29	3.9597e-06	1.0977e-06	290.67	80.681	63.036	18.464	3.3622e-06	25.896	0.00011444	0.00010389	2.9146e-05	1053.2	1.1415e-06	1.1343e-06	1157.7	223	1.1569e-06	1.1074e-06	274.24	79.472	59.894	18.383	1.1081e-06	25.7	51.414	165.649	60.570	35.860	149.012	203.594	35.917	43.682	156.673	127.084	43.022	50.067	50.349	57.254	177.488	56.676	-8191	255	
1174.452	1	1	0	0	0.19866	0.44385	0.13007	0.062455	0.27927	0.1799	0.25766	0.4319	0.064359	0.23442	0.11717	0.10547	0.19849	0.2031	0.12521	0.098856	-1.3937	-1.9521	-2.275	-1.8875	-2.175	-1.9875	-1.9937	-2.4333	-1.9	-2.1479	-2.2521	-1.6292	-2.1479	-2.1292	-1.8646	-2.2604	299.634	248.063	230.054	117.631	242.540	311.216	286.106	283.615	294.546	46.067	160.402	153.642	288.732	86.309	259.767	144.812	0.00059227	0.00043959	0.00012393	1083.2	3.5379e-06	6.7623e-07	1181.4	226.88	4.2062e-06	1.6711e-06	288.96	79.576	62.905	18.573	4.0339e-06	25.84	0.00011133	0.00010049	2.7259e-05	1051.1	1.1089e-06	1.0982e-06	1154	222.6	1.0842e-06	1.0406e-06	272.18	78.969	59.568	18.386	1.0902e-06	25.693	57.585	116.533	120.050	35.683	138.294	232.876	35.868	43.367	125.979	209.820	42.820	49.987	50.515	57.334	192.317	56.526	-8191	255	
1174.573	1	1	0	0	0.15238	0.1259	0.19589	0.59527	0.10837	0.23828	0.18271	0.16942	0.17985	0.37152	0.051031	0.20992	0.13915	0.2146	0.19269	0.29319	-1.3458	-2.0625	-2.1208	-1.7542	-2.1688	-2.1813	-2.0312	-2.3917	-2.0187	-1.9646	-2.2958	-1.9	-2.2208	-2.225	-1.8604	-2.4542	75.406	167.059	241.587	368.624	89.099	310.611	340.901	297.110	350.240	307.379	247.478	350.537	36.930	118.205	305.541	265.128	0.00042264	0.00012901	7.7091e-05	1084	5.5761e-06	1.5057e-06	1181.1	226.34	3.0737e-06	8.8575e-07	291.05	80.53	63.419	18.386	1.9719e-06	26.039	0.00011064	9.6834e-05	2.7308e-05	1052.3	1.1141e-06	1.0925e-06	1151.9	222.34	1.1126e-06	1.0678e-06	273.09	78.854	59.927	18.337	1.1266e-06	25.76	57.540	376.249	144.949	35.819	137.256	263.200	35.898	43.663	132.917	109.160	42.604	49.911	50.261	56.887	166.521	56.620	-8191	255	
1174.645	1	1	0	0	0.27487	0.14022	0.15181	0.18933	0.33634	0.15624	0.30025	0.15296	0.3	0.070926	0.091682	0.20349	0.19508	0.086783	0.10149	0.10885	-1.4917	-1.7375	-2.2708	-2.0167	-2.1042	-2.1396	-1.9292	-2.1979	-1.7604	-1.8563	-2.1104	-1.6437	-1.9917	-2.1854	-1.6562	-2.2729	152.087	157.827	35.394	373.610	122.266	259.402	339.269	365.853	110.784	248.077	145.507	54.090	174.631	315.357	161.191	222.865	0.00053921	0.00037774	0.00010904	1089.4	2.9987e-06	1.305e-06	1183.9	226.09	3.5855e-06	2.6993e-06	289.74	80.423	62.274	18.43	3.9875e-06	25.937	0.00011034	9.8955e-05	2.8024e-05	1053.3	1.0693e-06	1.0786e-06	1156.8	222.45	1.0789e-06	1.0815e-06	273.74	79.092	59.487	18.334	1.0452e-06	25.692	50.529	142.295	122.475	35.758	156.254	224.256	35.833	43.436	106.829	170.751	43.286	50.132	50.412	57.606	149.009	56.711	-8191	255	
1174.765	1	1	0	0	0.36582	0.016494	0.088806	0.039701	0.06312	0.14044	0.10576	0.15648	0.14535	0.21057	0.38632	0.069531	0.045472	0.13597	0.44886	0.12185	-1.7083	-1.7375	-2.3667	-1.8312	-2.0292	-2.1917	-1.95	-2.3417	-1.9854	-1.9125	-2.3917	-2.0333	-2.3458	-2.1875	-1.6437	-2.2146	247.321	98.778	76.582	106.057	35.245	216.804	225.791	371.645	382.385	120.842	80.252	352.941	359.570	293.543	105.432	325.896	0.00049944	0.00051997	3.1463e-05	1084.8	2.7906e-06	1.6818e-06	1183.3	225.6	3.4688e-06	2.1064e-06	285.84	79.887	62.791	18.358	2.2869e-06	25.873	0.00010228	9.2996e-05	2.5002e-05	1050.9	1.0229e-06	9.8717e-07	1151.7	221.48	9.9948e-07	9.9042e-07	271.49	78.688	59.555	18.298	1.0022e-06	25.631	58.556	170.128	100.247	35.880	142.182	343.858	35.881	43.359	161.505	274.952	43.683	49.760	50.250	57.501	128.166	56.580	-8191	255	
1174.860	1	1	0	0	0.078843	0.26847	0.085546	0.068123	0.031363	0.19171	0.28232	0.18197	0.064969	0.24081	0.29131	0.22791	0.24873	0.15033	0.064467	0.14102	-1.4979	-1.7938	-2.0917	-1.9167	-1.975	-2.1375	-1.7271	-1.95	-1.9083	-1.8021	-2.0812	-1.7021	-1.8042	-2.1708	-1.5208	-1.9479	379.869	321.121	122.173	356.405	226.181	164.157	370.861	323.381	206.788	129.304	40.105	295.480	84.473	361.926	68.653	346.164	0.00054209	0.0001718	7.177e-05	1085.6	4.4392e-06	3.713e-06	1184.2	227.63	4.8731e-06	4.3663e-06	288.55	80.07	63.487	18.283	2.3983e-06	25.855	0.00010279	9.3723e-05	2.593e-05	1050.8	1.0525e-06	1.0431e-06	1151.9	222.62	1.0597e-06	1.0352e-06	272.91	78.784	59.636	18.279	1.0431e-06	25.661	63.894	67.421	118.656	35.946	136.335	151.261	35.753	43.330	117.694	185.218	43.030	50.021	49.665	56.975	162.648	56.992	-8191	255	
1174.956	1	1	0	0	0.13537	0.29448	0.13907	0.21185	0.32443	0.24257	0.089491	0.2882	0.21312	0.13605	0.081844	0.11315	0.1266	0.040591	0.2805	0.097201	-1.4229	-1.5896	-2.1333	-1.8	-1.7437	-2.1583	-1.7896	-1.9625	-2.0292	-1.7083	-2.1917	-1.8104	-1.7667	-2.2562	-1.7104	-1.8521	206.982	121.632	84.081	343.262	348.476	28.861	328.565	296.456	236.793	221.811	115.076	370.610	240.908	70.315	360.260	69.809	0.00041791	0.00044186	6.5539e-05	1075.6	4.7754e-06	5.0851e-06	1171.4	226.47	2.8783e-06	1.3624e-06	287.46	80.049	62.727	18.383	3.8995e-06	25.858	0.00010065	8.9812e-05	2.4446e-05	1042.9	9.7113e-07	9.3306e-07	1146.1	221.28	9.4275e-07	9.1132e-07	271.14	78.582	59.216	18.22	9.341e-07	25.61	54.243	122.683	102.548	35.773	157.161	213.921	35.885	43.236	174.846	87.173	43.468	49.963	50.620	57.413	167.991	56.518	-8191	255	
1175.052	1	1	0	0	0.33948	0.24524	0.2189	0.23595	0.29903	0.198	0.37947	0.24929	0.20672	0.24361	0.2915	0.18877	0.28122	0.2224	0.076191	0.1213	-1.7417	-1.7875	-1.9833	-2.1125	-1.875	-2.0646	-1.9771	-1.9875	-2.2583	-1.9542	-2.1021	-2.0687	-1.8917	-2.2938	-2.0479	-2.0833	32.220	194.524	61.845	332.199	325.285	82.893	267.418	311.352	195.490	236.457	376.687	293.127	350.633	300.693	45.732	48.035	0.00048735	0.00018174	7.4876e-05	1078.9	3.991e-06	2.2718e-06	1174.3	225.36	4.2272e-06	2.0988e-06	289.26	80.238	62.462	18.346	3.9013e-06	25.775	9.6105e-05	8.6823e-05	2.3024e-05	1042.6	9.3585e-07	9.0988e-07	1141.5	220.44	9.1738e-07	8.9608e-07	271.33	78.568	58.922	18.187	8.8712e-07	25.513	50.953	95.909	180.768	35.825	123.743	120.630	36.245	43.260	142.370	168.256	43.173	50.086	50.822	57.088	153.228	56.513	-8191	255	
1175.173	1	1	0	0	0.33343	0.32005	0.25469	0.37023	0.072157	0.11459	0.092388	0.12897	0.15639	0.21067	0.12574	0.3268	0.14506	0.10419	0.20209	0.30974	-1.7667	-1.975	-2.1063	-2.0333	-1.7812	-2.2687	-2.1229	-2.0312	-2.1646	-1.9021	-2.1771	-2.0125	-1.7771	-2.0021	-1.8708	-1.8729	279.446	287.541	97.573	345.189	151.228	66.965	350.647	272.316	97.053	129.194	191.194	367.620	92.812	311.180	331.736	181.177	0.0005244	0.00036127	0.00012352	1075.1	4.6052e-06	1.3577e-06	1170.7	224.5	1.0998e-06	4.0189e-06	287.24	80.11	62.668	18.351	2.0588e-06	25.74	9.1052e-05	7.9835e-05	2.2111e-05	1040.5	8.9644e-07	8.2793e-07	1139.4	220.18	8.7431e-07	8.4401e-07	269.7	78.447	58.789	18.187	8.7802e-07	25.412	66.112	137.634	126.186	35.917	154.810	222.731	36.100	43.524	103.292	118.267	43.470	50.353	50.671	57.238	176.325	56.781	-8191	255	
1175.269	1	1	0	0	0.12427	0.035511	0.26073	0.19467	0.16872	0.17715	0.41981	0.23414	0.53104	0.21093	0.31825	0.19577	0.22572	0.16219	0.090176	0.22995	-1.55	-1.5729	-1.8292	-2.0187	-1.6375	-2.2	-2.0854	-1.9354	-2.1604	-1.8229	-1.9229	-2	-1.4937	-2.0792	-2.0438	-1.9312	340.743	216.021	259.797	240.387	64.625	302.404	308.874	307.888	293.595	211.446	305.325	58.436	289.684	108.479	384.264	227.552	0.00062736	0.00019979	9.9543e-05	1078	2.4908e-06	1.9355e-06	1170.8	225.87	3.1359e-06	3.5126e-06	285.95	80.096	62.721	18.361	2.8136e-06	25.721	9.2308e-05	7.7493e-05	2.1422e-05	1040.3	8.9869e-07	8.3176e-07	1138.9	220.27	9.1268e-07	8.7223e-07	269.6	78.402	59.037	18.217	8.93e-07	25.441	53.642	154.570	108.079	35.754	177.136	169.022	35.785	43.353	154.879	178.150	42.896	49.636	51.131	57.207	189.458	56.481	-8191	255	
1175.340	1	1	0	0	0.15517	0.35948	0.19242	0.45522	0.076015	0.030441	0.037218	0.2319	0.13222	0.1826	0.23406	0.20767	0.089417	0.19099	0.2255	0.048544	-1.8583	-1.825	-1.7979	-2.375	-1.6833	-2.1167	-1.9	-1.7479	-2.1104	-1.7896	-1.9562	-2.0792	-1.6354	-2.1521	-2.0646	-1.975	248.422	355.894	355.729	346.086	174.797	64.379	309.602	331.888	26.443	343.619	205.409	39.685	292.442	288.658	102.365	82.092	0.0005198	0.00044224	5.4164e-05	1072.6	2.7726e-06	3.5589e-06	1173.5	223.17	1.6616e-06	1.2642e-06	287.61	80.124	62.806	18.384	7.4068e-07	25.805	9.0705e-05	8.06e-05	2.2282e-05	1039.2	9.0086e-07	8.4884e-07	1141.6	219.64	8.749e-07	8.514e-07	269.75	78.384	58.869	18.179	8.5157e-07	25.477	61.259	113.989	126.627	35.694	147.679	188.416	36.061	43.369	152.594	103.631	42.867	49.933	50.695	57.748	172.518	56.737	-8191	255	
1175.437	1	1	0	0	0.1047	0.1744	0.25521	0.12805	0.03902	0.13807	0.31149	0.43827	0.1838	0.19198	0.060496	0.059779	0.19304	0.28158	0.12701	0.17932	-1.9729	-1.8979	-1.9021	-2.3688	-1.6583	-1.975	-2.1417	-1.675	-2.1625	-2.0375	-1.825	-2.4583	-1.7667	-2.0208	-2.0042	-1.7687	183.550	149.205	181.263	38.345	227.402	376.693	305.300	336.529	232.190	195.956	364.905	250.162	352.724	301.340	261.291	338.766	0.00057393	0.00040206	5.4574e-05	1077	2.1805e-06	1.7144e-06	1167.4	224.79	6.334e-06	2.3404e-06	286.75	79.809	62.875	18.199	1.9964e-06	25.585	8.8121e-05	7.874e-05	2.1764e-05	1039.8	8.7297e-07	8.6097e-07	1138.8	220.34	8.8689e-07	8.7437e-07	270.34	78.197	59.08	18.125	8.8528e-07	25.43	53.721	155.774	163.535	36.202	125.667	171.259	35.760	43.315	179.440	212.449	43.220	50.028	50.277	57.450	113.410	56.619	-8191	255	
1175.533	1	1	0	0	0.1564	0.25417	0.21031	0.29258	0.21992	0.33048	0.10023	0.2963	0.30126	0.11491	0.16769	0.17188	0.1986	0.30287	0.20943	0.087089	-1.7208	-1.9021	-1.5458	-2.1646	-1.6458	-1.9521	-2.2417	-1.6625	-2.1708	-1.7542	-1.6625	-2.125	-1.3833	-1.8813	-2.2313	-1.6792	187.959	359.308	214.059	312.456	316.309	314.146	353.399	299.894	45.289	105.266	64.766	310.160	221.258	72.788	127.023	292.133	0.00050997	0.0003154	1.1486e-05	1071.4	4.1242e-06	2.3491e-06	1170.1	224.53	3.6852e-06	2.5239e-06	284.66	79.385	62.8	18.342	2.4037e-06	25.583	9.2965e-05	7.9249e-05	2.2503e-05	1036.2	9.303e-07	8.9032e-07	1137.9	219.74	9.2084e-07	8.9078e-07	268.97	78.047	58.933	18.151	8.9855e-07	25.454	56.976	141.407	184.069	35.934	144.182	210.506	36.098	43.395	178.929	159.564	43.061	49.739	50.379	57.234	203.357	56.866	-8191	255	
1175.653	1	1	0	0	0.31889	0.20517	0.16875	0.26251	0.2265	0.36822	0.16605	0.15383	0.078659	0.13876	0.16721	0.29529	0.11589	0.12333	0.15565	0.34946	-1.6042	-2.1375	-1.7542	-2.3312	-1.8896	-1.9646	-2.3729	-1.8875	-2.0438	-1.825	-1.7042	-2.1979	-1.7917	-1.9208	-2.2479	-1.8458	46.069	233.431	310.317	360.067	251.235	136.929	380.719	309.278	100.639	179.110	114.398	130.361	305.271	329.822	259.798	277.600	0.00056873	0.00020109	6.4046e-05	1070	5.1903e-06	5.0105e-06	1169.2	223.75	2.8489e-06	1.1223e-06	287.9	79.971	62.421	18.306	3.3334e-06	25.842	9.1748e-05	8.1228e-05	2.3226e-05	1038.5	9.1568e-07	8.9477e-07	1138.7	219.56	9.1897e-07	8.7449e-07	269.96	78.365	58.868	18.148	8.5098e-07	25.445	56.177	146.143	145.149	36.013	126.611	175.054	35.939	43.566	123.046	228.885	42.995	49.964	50.336	57.402	160.089	57.078	-8191	255	
1175.748	1	1	0	0	0.16247	0.13902	0.13384	0.21698	0.038609	0.1892	0.18764	0.093894	0.049163	0.051909	0.18667	0.2753	0.11256	0.3573	0.14172	0.093924	-1.5396	-2.2042	-1.7396	-2.3979	-1.9417	-1.9688	-2.2812	-2.0583	-1.8396	-1.8792	-1.5604	-2.1562	-1.9646	-1.725	-2.1562	-1.6938	188.055	53.483	268.640	331.270	299.445	367.309	258.554	293.697	265.087	261.136	165.363	250.992	35.172	312.735	84.318	255.017	0.00051096	0.00029667	7.5247e-05	1079	4.883e-06	1.5853e-06	1170.4	225.58	1.6108e-06	6.0387e-06	289.08	80.345	62.133	18.238	1.0648e-06	25.792	8.9666e-05	7.5817e-05	2.1455e-05	1039.2	8.8266e-07	8.7903e-07	1140.3	220.01	8.9318e-07	8.8701e-07	270.6	78.443	58.837	18.163	9.1366e-07	25.525	52.963	184.388	142.103	36.020	186.726	171.393	35.935	43.364	181.260	179.181	43.324	50.050	50.390	57.146	142.408	56.404	-8191	255	
1175.846	1	1	0	0	0.072759	0.083345	0.02732	0.12519	0.18937	0.12348	0.28146	0.14104	0.094335	0.12608	0.18801	0.17831	0.052466	0.24468	0.41	0.20121	-1.4583	-2.1542	-1.6	-2.2458	-1.7521	-1.8542	-2.3646	-2.1229	-2.0917	-2.3396	-1.8604	-2.0938	-1.9833	-1.5708	-2.1063	-1.8271	234.287	212.627	330.356	366.452	246.170	218.410	252.683	67.720	30.959	135.654	235.561	317.401	67.920	124.356	205.384	271.886	0.00052263	0.00026545	4.9479e-05	1076.2	3.9414e-06	1.7569e-06	1174.3	225	3.5323e-06	2.2629e-06	284.32	79.602	61.853	18.254	3.5407e-06	25.55	8.9879e-05	7.8457e-05	2.1969e-05	1040.3	8.6508e-07	8.4888e-07	1140.3	220.11	8.1071e-07	7.7544e-07	268.86	77.946	58.461	18.101	7.2255e-07	25.35	56.716	121.987	151.061	35.755	159.126	132.338	35.996	43.512	198.742	148.288	43.091	50.063	50.589	57.439	159.909	56.552	-8191	255	
1175.942	1	1	0	0	0.10843	0.17175	0.049074	0.39602	0.1056	0.2067	0.14412	0.22801	0.11264	0.24257	0.054589	0.077066	0.16345	0.14891	0.17689	0.13392	-1.4062	-2.0042	-1.6333	-2.0646	-2.0667	-1.8333	-2.3917	-1.8854	-1.9417	-2.2875	-1.7979	-2.2	-2.2938	-1.7292	-2.2042	-2.0646	71.707	234.784	35.526	334.505	68.152	346.218	280.403	324.994	79.269	173.511	287.909	106.037	115.946	34.008	334.744	287.765	0.00051552	0.00015991	6.3628e-05	1069.5	1.3575e-06	3.6855e-06	1163.9	223.31	2.8725e-06	2.8024e-06	285.57	79.494	62.585	18.12	2.4524e-06	25.516	8.1199e-05	6.7726e-05	1.8699e-05	1032.7	7.5694e-07	7.2726e-07	1132.7	218.76	8.0642e-07	7.728e-07	267.54	77.742	58.682	18.059	8.4573e-07	25.318	61.176	128.233	140.097	36.018	117.096	182.224	35.855	43.438	173.996	207.706	43.493	49.930	50.320	57.137	201.301	56.514	-8191	255	
1176.036	1	1	0	0	0.11292	0.11098	0.13729	0.13376	0.17207	0.13826	0.1272	0.246	0.23201	0.0086614	0.25559	0.19453	0.25712	0.14615	0.14764	0.28141	-1.3875	-2.1229	-1.7708	-1.875	-2.0792	-1.7021	-2.4479	-1.9542	-1.7646	-2.1188	-1.8104	-2.1375	-2.2979	-1.8292	-2.4104	-2.1333	130.812	326.472	123.546	210.026	124.288	181.484	378.893	355.530	309.667	283.482	174.715	365.543	337.681	64.322	329.230	74.837	0.00051212	0.00014276	5.114e-05	1073.6	5.2623e-06	2.459e-06	1165.5	224.55	1.8728e-06	3.1303e-06	287.06	79.949	61.944	18.174	3.001e-06	25.448	8.6455e-05	7.4596e-05	2.1273e-05	1036.9	8.7143e-07	8.5787e-07	1135.1	219.52	8.7011e-07	8.3805e-07	268.86	78.149	58.678	18.097	8.3855e-07	25.298	61.100	152.555	121.513	35.940	171.115	135.840	35.959	43.467	149.438	190.984	42.669	49.943	50.202	56.935	171.460	56.430	-8191	255	
1176.132	1	1	0	0	0.22516	0.054249	0.082372	0.10831	0.066127	0.23038	0.39232	0.10542	0.10911	0.31207	0.11528	0.13918	0.13399	0.083233	0.039421	0.32136	-1.3375	-2.3021	-1.7812	-2.0146	-2.0708	-1.675	-2.2188	-2.1021	-1.7917	-2.4646	-1.95	-1.8458	-2.0104	-1.6104	-1.8604	-2.0479	102.740	294.170	183.773	355.217	143.389	253.999	326.890	91.185	297.689	66.016	225.583	314.375	327.240	79.983	309.783	328.785	0.00059526	0.00016753	1.5699e-05	1070.1	2.9705e-06	2.1518e-06	1165.3	224.63	5.347e-06	3.2678e-06	286.54	79.449	63.043	18.275	3.5087e-06	25.622	8.9916e-05	7.5618e-05	2.122e-05	1035	8.8917e-07	8.6622e-07	1136.5	219.33	9.1513e-07	8.3645e-07	268.96	78.082	58.832	18.146	8.3784e-07	25.398	67.164	64.270	335.333	35.974	143.095	244.382	35.889	43.391	174.957	178.692	43.097	50.040	50.640	57.503	132.660	56.140	-8191	255	
1176.253	1	1	0	0	0.21682	0.096659	0.036562	0.052625	0.020784	0.21354	0.17345	0.30694	0.1721	0.082751	0.055673	0.15032	0.11777	0.17047	0.058913	0.090892	-1.1146	-2.0375	-1.8083	-1.9375	-2.25	-1.8292	-2.2146	-2.1	-1.6104	-2.2313	-1.6521	-1.7938	-2.1688	-1.8521	-1.8979	-2.1667	145.670	315.355	304.559	88.937	49.243	294.347	304.478	42.029	53.071	197.208	234.097	95.772	137.272	337.148	333.936	39.022	0.00051083	2.1932e-05	0.00011865	1072.7	2.3943e-06	2.5912e-06	1169.6	223.85	5.3256e-06	4.9491e-06	287.89	79.727	62.118	18.34	2.8895e-06	25.728	8.8081e-05	7.334e-05	2.0793e-05	1035.9	8.2926e-07	8.0275e-07	1138.4	219.06	8.3141e-07	7.5533e-07	269.34	78.161	58.681	18.155	7.6565e-07	25.415	50.582	155.834	127.733	35.839	143.346	181.779	35.922	43.631	172.768	199.681	42.810	49.684	50.581	57.214	187.580	56.521	-8191	255	
1176.349	1	1	0	0	0.41268	0.041867	0.14971	0.14094	0.10633	0.060068	0.2752	0.38018	0.18123	0.083468	0.052966	0.16435	0.21114	0.26645	0.10127	0.042753	-1.2167	-1.9667	-2.0917	-1.9771	-2.1	-1.7333	-2.1646	-2.1708	-1.8188	-2.3042	-2.125	-1.9	-2.1937	-1.9062	-2.1562	-2.1708	269.560	86.292	151.931	348.022	213.055	323.443	336.120	351.652	95.203	222.602	226.732	340.321	249.869	342.206	355.975	254.994	0.00058851	0.00010675	7.573e-05	1072.1	1.9302e-06	2.8385e-06	1163.7	223.28	3.7722e-06	1.4083e-06	284.27	79.249	62.845	18.222	4.8697e-06	25.433	8.3064e-05	6.6854e-05	1.9193e-05	1035.6	7.6972e-07	7.5497e-07	1136.8	219.05	7.8464e-07	7.3627e-07	268.4	78.24	58.87	18.118	7.4733e-07	25.371	54.448	106.027	129.691	35.785	157.771	140.329	35.873	43.605	130.044	78.008	43.299	49.769	50.317	57.126	139.813	56.882	-8191	255	
1176.445	1	1	0	0	0.16907	0.17829	0.12209	0.0754	0.14128	0.11317	0.35351	0.38157	0.12869	0.1	0.13517	0.11404	0.1998	0.10898	0.10853	0.29904	-1.3771	-2.2854	-2.0812	-1.7771	-2.2854	-1.8042	-2.2125	-2.1625	-1.9542	-2.3208	-2.0563	-1.9208	-2.3125	-1.8896	-2.1354	-2.4604	46.102	138.166	371.692	341.568	206.814	49.127	300.322	368.334	335.612	331.295	85.499	29.605	90.397	269.782	144.783	29.862	0.00056488	0.00011837	0.00010959	1070	2.146e-06	2.7524e-06	1160.8	224.48	2.418e-06	1.7349e-06	285.66	79.612	62.687	18.302	2.7752e-06	25.667	8.0583e-05	6.5882e-05	1.9427e-05	1035	7.6337e-07	7.5707e-07	1136	219.8	7.9301e-07	7.5827e-07	268.4	78.153	58.775	18.143	7.9999e-07	25.311	60.611	208.920	129.008	36.168	167.620	175.903	36.114	43.639	121.915	131.482	43.375	49.667	50.406	57.034	169.143	56.345	-8191	255	
1176.541	1	1	0	0	0.18322	0.10906	0.17702	0.052222	0.34161	0.062188	0.30246	0.36482	0.15977	0.2567	0.12243	0.18366	0.16675	0.17677	0.033281	0.36206	-1.4125	-2.2771	-2.1958	-1.8687	-2.0958	-1.8104	-1.675	-2.3417	-1.7479	-2.1167	-2.3479	-1.9625	-2.1667	-1.8771	-1.7708	-2.1875	275.005	202.250	57.291	257.735	346.446	383.829	344.589	301.903	75.442	70.448	327.109	27.877	303.997	219.872	364.947	98.225	0.0005382	0.00041126	8.8607e-05	1073.1	3.4145e-06	2.1902e-06	1168.7	224.53	2.9716e-06	2.4878e-06	283.66	79.998	62.322	18.28	4.8748e-06	25.716	8.1534e-05	6.9563e-05	1.9924e-05	1034.6	7.9681e-07	7.7495e-07	1136.7	219.87	8.1942e-07	7.6272e-07	268.48	78.243	58.673	18.165	7.8681e-07	25.475	49.957	129.310	144.066	35.980	173.834	151.334	36.069	43.561	124.078	167.413	43.280	49.470	50.068	57.368	137.768	56.946	-8191	255	
1176.638	1	1	0	0	0.21535	0.11506	0.044064	0.3614	0.10851	0.18171	0.13806	0.15098	0.38278	0.26639	0.07445	0.39001	0.28042	0.19698	0.094322	0.14786	-1.2479	-2.0104	-1.8833	-1.8104	-2.2292	-2.0583	-1.8312	-2.2417	-1.5833	-1.7417	-2.0417	-1.6229	-2.0583	-2.125	-1.8625	-2.2896	47.208	134.688	221.301	384.759	121.102	142.149	273.888	40.374	190.344	110.834	245.501	307.697	357.481	263.392	210.921	301.714	0.00049923	0.00044645	1.6294e-05	1070.3	5.8568e-06	2.7125e-06	1166.7	224.51	3.7665e-06	4.6708e-06	285.91	80.349	62.212	18.338	3.1983e-06	25.804	8.3853e-05	7.1347e-05	1.9856e-05	1035.4	7.9397e-07	7.5698e-07	1135.7	220.09	7.841e-07	7.5571e-07	268.64	78.309	58.618	18.19	7.6377e-07	25.46	53.221	114.851	118.169	35.881	170.337	220.014	35.901	43.446	168.255	209.170	43.118	50.111	50.451	57.359	176.891	56.605	-8191	255	
1176.734	1	1	0	0	0.070098	0.21987	0.19566	0.080296	0.13968	0.11778	0.27811	0.077831	0.043462	0.12799	0.079555	0.15213	0.11378	0.24456	0.23195	0.22862	-1.5083	-2.0312	-2.3438	-1.8312	-2.1646	-2.0104	-1.8917	-2.3021	-1.6396	-1.8792	-2.3854	-1.7521	-2.0875	-2.0458	-1.8896	-2.3021	38.946	368.217	142.990	211.504	304.838	122.674	358.937	129.654	342.196	77.542	225.287	98.729	301.388	271.190	237.046	382.805	0.000505	8.542e-05	0.00012635	1071.7	2.7262e-06	4.2633e-06	1168.8	225.1	1.3486e-06	2.922e-06	286.77	79.774	62.711	18.372	3.685e-06	25.908	7.9345e-05	6.7902e-05	1.8568e-05	1036.6	7.432e-07	7.4468e-07	1138.6	220.35	7.4865e-07	7.4374e-07	269.16	78.151	58.793	18.215	7.3118e-07	25.43	62.743	333.829	148.005	35.884	111.518	108.156	35.918	43.297	336.794	189.625	43.055	49.759	50.377	57.041	169.048	56.450	-8191	255	
1176.853	1	1	0	0	0.1203	0.30691	0.18233	0.31534	0.062102	0.12995	0.25444	0.3827	0.31044	0.11538	0.26509	0.25144	0.19818	0.18171	0.27282	0.1583	-1.3833	-1.6875	-2.0979	-1.7417	-1.925	-2.1104	-1.9042	-2.1083	-1.9604	-1.8479	-2.2208	-1.8208	-1.9604	-2.05	-1.6708	-2.1042	53.148	95.542	200.795	326.887	215.647	219.047	291.654	333.338	287.778	342.434	109.449	363.548	169.830	66.480	256.703	48.497	0.0004487	0.00032057	1.2965e-05	1075.6	4.3149e-06	8.5705e-07	1165.2	224.08	3.4897e-06	9.8106e-07	289.16	79.73	62.609	18.406	1.5918e-06	25.543	7.9537e-05	6.4833e-05	1.8171e-05	1036.2	7.2537e-07	7.1601e-07	1134.2	219.62	7.5961e-07	7.2695e-07	269.57	78.187	58.72	18.209	7.7304e-07	25.393	57.989	107.759	138.939	35.843	114.861	157.911	36.159	43.489	155.145	205.291	43.026	49.509	50.320	57.151	118.647	56.427	-8191	255	
1176.949	1	1	0	0	0.1888	0.078533	0.22504	0.027654	0.088272	0.12039	0.46673	0.13139	0.032671	0.053199	0.14603	0.21613	0.12155	0.29995	0.12089	0.21649	-1.3625	-1.8875	-2.0479	-1.8167	-1.9292	-2.0958	-1.9083	-2.1792	-2.0062	-1.7792	-2.4292	-1.7687	-1.8479	-2.2542	-1.925	-2.2479	192.014	336.097	191.612	132.215	101.171	93.275	39.479	289.672	359.750	373.733	279.486	63.931	194.773	341.298	149.142	36.334	0.00052494	0.00018768	0.0001482	1065	5.1105e-06	3.5349e-06	1163.4	225.06	3.5897e-06	4.0348e-06	286.78	79.723	62.803	18.346	3.1858e-06	25.907	8.1217e-05	6.8894e-05	1.9158e-05	1032.9	7.8671e-07	7.7294e-07	1134.6	220.25	7.8056e-07	7.9849e-07	268.87	78.275	59.021	18.193	7.9123e-07	25.476	52.513	171.216	101.537	35.812	129.191	206.434	36.071	43.393	122.769	150.941	42.969	49.601	50.574	56.929	193.661	57.264	-8191	255	
1177.045	1	1	0	0	0.03675	0.14487	0.28581	0.23138	0.19587	0.21217	0.29131	0.1495	0.16417	0.13471	0.16617	0.024157	0.04419	0.31376	0.29648	0.19392	-1.8646	-1.8396	-2.275	-2.2229	-1.7917	-1.9917	-1.7583	-2.0479	-1.9479	-1.7146	-2.3021	-1.7646	-1.9875	-2.2667	-1.8792	-2.1312	337.278	183.784	95.423	383.911	354.317	180.278	336.926	297.580	267.913	105.163	320.137	385.097	198.123	68.669	49.179	319.132	0.00056514	0.00027947	5.9157e-05	1074.5	4.0748e-06	3.3891e-06	1165.8	225.74	3.587e-06	6.6036e-07	283.48	79.912	63.077	18.399	2.8251e-06	25.747	8.3481e-05	6.9938e-05	1.8736e-05	1037.7	7.8525e-07	7.8952e-07	1137.8	220.96	7.8543e-07	7.7061e-07	268.55	78.145	58.976	18.186	7.6169e-07	25.429	53.427	128.836	180.710	35.832	119.774	205.862	35.972	43.528	136.832	243.488	42.553	49.908	50.413	57.253	164.487	56.249	-8191	255	
1177.141	1	1	0	0	0.11994	0.21572	0.21875	0.18697	0.079619	0.28174	0.22479	0.26692	0.10887	0.21665	0.1298	0.1299	0.3254	0.19014	0.14502	0.14201	-1.7563	-1.925	-2.3854	-2.2812	-2.0917	-2.4625	-2.0896	-2.1542	-2.2854	-1.7396	-2.0896	-1.9479	-1.7812	-2	-1.5833	-1.85	85.927	217.845	307.892	53.865	40.667	213.972	366.512	318.942	88.841	124.153	355.430	162.568	247.514	55.813	372.340	315.042	0.00056285	0.00027037	7.8101e-05	1077.5	6.2617e-06	2.1632e-06	1169	224.79	2.5166e-06	2.9592e-06	287.68	79.95	62.026	18.482	1.1066e-06	25.731	8.1667e-05	7.1197e-05	1.9578e-05	1039	8.1961e-07	7.6803e-07	1137.5	220.53	8.1546e-07	7.7616e-07	269.32	78.439	58.88	18.237	7.8743e-07	25.493	56.415	107.984	139.178	35.957	130.181	210.936	36.024	43.359	170.172	140.429	43.019	49.732	50.429	57.309	155.179	56.414	-8191	255	
1177.213	1	1	0	0	0.2027	0.38686	0.14507	0.13227	0.073188	0.23904	0.1573	0.1381	0.27698	0.18951	0.16559	0.12068	0.11271	0.059364	0.27513	0.18997	-1.7417	-1.7167	-2.1667	-2.175	-1.8646	-2.1813	-2.0458	-1.7854	-2.0292	-1.6604	-2.1813	-2.1771	-1.85	-2.1188	-1.7708	-1.5812	79.164	210.151	307.695	350.602	239.194	270.615	296.522	287.800	300.946	82.047	97.199	295.750	225.603	146.234	193.033	358.741	0.00054343	0.00020651	2.9844e-05	1075.4	5.9784e-06	2.2967e-06	1169.6	226.79	4.4733e-06	2.5142e-06	289.32	80.245	62.143	18.409	1.5212e-06	25.907	8.3082e-05	7.2284e-05	2.0095e-05	1037.9	8.1869e-07	7.8188e-07	1138.8	221.84	8.2083e-07	8.2033e-07	270.72	78.588	59.064	18.262	8.3179e-07	25.583	62.010	111.273	175.619	35.917	143.046	181.025	35.772	43.493	151.917	202.540	42.925	50.169	50.304	57.248	114.134	56.481	-8191	255	
1177.333	1	1	0	0	0.051913	0.20972	0.1317	0.16681	0.1205	0.10829	0.16203	0.31601	0.15775	0.12705	0.097766	0.083619	0.050045	0.11227	0.26279	0.086612	-1.7146	-1.7563	-2.1292	-2.3729	-2	-2.4896	-2.1104	-1.9188	-2.1708	-1.6875	-2.0729	-2.3708	-1.7833	-2.1646	-2.1521	-1.8542	267.095	251.129	57.466	300.930	373.683	210.896	119.962	293.936	189.583	352.856	260.401	262.000	63.398	364.987	149.407	300.354	0.00057281	0.00021002	9.2434e-05	1080.8	5.2415e-06	1.1328e-06	1174	228.58	1.2925e-06	1.3783e-06	288.55	80.491	62.824	18.564	3.7941e-06	25.961	9.055e-05	7.9261e-05	2.2537e-05	1041.9	9.1648e-07	8.8386e-07	1142.8	222.96	9.2838e-07	9.1363e-07	272.39	79.107	59.751	18.462	9.3711e-07	25.741	59.401	70.434	109.899	35.924	143.924	368.792	35.873	43.506	171.664	129.965	43.269	49.908	49.855	56.968	163.659	56.693	-8191	255	
1177.430	1	1	0	0	0.074197	0.40267	0.16512	0.16182	0.19301	0.059402	0.04068	0.18691	0.29202	0.15471	0.12044	0.10109	0.092096	0.20189	0.17799	0.26986	-1.7812	-1.5917	-1.8229	-2.1646	-1.9458	-2.2708	-2.1104	-1.8667	-2.375	-1.8937	-2.0208	-2.4542	-1.8333	-2.1958	-1.9083	-1.9229	239.820	191.056	226.286	49.200	366.743	206.545	271.625	331.354	303.648	344.366	281.828	337.976	40.588	40.255	211.012	76.949	0.00046308	0.00028294	0.00013074	1084.8	5.2291e-06	4.9239e-06	1176.5	228.68	3.4261e-06	1.3957e-06	289.87	80.958	63.532	18.523	5.069e-06	25.825	9.4896e-05	8.4779e-05	2.3601e-05	1046.9	9.4621e-07	8.7466e-07	1147.6	224.27	9.108e-07	8.8432e-07	272.75	79.403	59.849	18.437	8.8228e-07	25.706	59.113	168.326	119.391	35.951	140.709	164.435	36.002	43.438	153.168	158.685	43.082	49.934	50.090	57.147	176.988	56.457	-8191	255	
1177.526	1	1	0	0	0.0039718	0.17505	0.23952	0.1623	0.05348	0.20355	0.23036	0.14738	0.054884	0.13175	0.12083	0.12479	0.024786	0.10061	0.17046	0.10091	-1.7792	-1.7687	-1.8875	-2.1312	-1.6896	-2.0854	-2.3125	-1.7417	-2.3083	-1.8083	-1.8937	-2.2687	-1.8833	-2.0438	-1.9417	-1.9646	294.740	317.198	368.194	325.872	33.034	64.928	324.292	36.512	118.509	154.607	142.157	59.920	268.639	323.936	258.435	157.234	0.0005444	0.00035493	2.5554e-05	1073.9	3.4016e-06	3.5835e-06	1174.3	228.87	3.3378e-06	3.5532e-06	288.44	80.33	63.404	18.616	4.5656e-06	25.827	9.0591e-05	7.9173e-05	2.1894e-05	1044.1	8.8775e-07	8.4473e-07	1144.5	223.63	8.4033e-07	7.9807e-07	271.78	79.082	59.5	18.426	8.1013e-07	25.612	47.641	150.639	178.899	35.976	151.206	186.788	35.878	43.429	165.452	181.852	42.895	50.134	49.724	57.337	112.180	55.970	-8191	255	
1177.646	1	1	0	0	0.11041	0.11855	0.17767	0.27287	0.15372	0.14685	0.45082	0.059054	0.16527	0.16375	0.22011	0.32335	0.12201	0.024837	0.37235	0.13539	-2.0229	-1.8875	-1.9479	-2.2271	-1.6375	-1.8958	-2.3292	-2.0417	-2.3563	-1.9917	-1.75	-2.2938	-1.7125	-1.8625	-2.3125	-1.8583	339.709	131.666	374.073	281.136	260.211	318.674	326.113	369.484	349.056	327.809	59.885	236.517	64.285	201.874	263.298	249.793	0.00052118	0.00013107	6.1366e-05	1084.7	2.4637e-06	2.2236e-06	1173.9	228.91	2.4718e-06	2.7051e-06	290.03	80.811	63.666	18.63	2.9602e-06	25.885	8.2784e-05	7.1748e-05	2.0311e-05	1045.5	8.4729e-07	8.1492e-07	1143.5	224.21	8.7302e-07	8.3494e-07	273.29	79.141	59.822	18.447	8.8958e-07	25.719	59.936	105.618	114.607	36.039	141.257	250.266	35.830	43.336	174.751	228.994	42.849	50.152	49.987	56.920	156.788	56.294	-8191	255	
1177.741	1	1	0	0	0.059348	0.15108	0.091506	0.094229	0.10684	0.10224	0.24302	0.10499	0.14787	0.16694	0.054344	0.11628	0.4006	0.06846	0.098841	0.039171	-1.7625	-1.8687	-1.6187	-2.1979	-1.9021	-2.0104	-2.3937	-1.8458	-1.9625	-1.9729	-1.9583	-2.1833	-1.8042	-1.9354	-2.1917	-1.9125	84.632	34.535	28.893	87.977	320.969	380.792	359.441	159.739	327.662	31.354	210.113	54.410	369.850	346.620	318.512	233.784	0.00047953	0.00035194	7.5629e-05	1077.7	5.6135e-06	3.368e-06	1175.9	228.74	3.5766e-06	1.9606e-06	289.81	80.38	63.912	18.46	1.0791e-06	25.993	9.1166e-05	7.9395e-05	2.2099e-05	1041.7	8.8074e-07	8.4704e-07	1144.7	224.15	8.5403e-07	8.5568e-07	272.58	79.095	59.822	18.415	8.658e-07	25.7	47.936	134.991	149.764	36.202	139.518	149.006	35.925	43.239	145.923	226.140	42.987	50.105	50.172	57.034	300.169	56.768	-8191	255	
1177.814	1	1	0	0	0.25206	0.22952	0.1156	0.24475	0.40799	0.15684	0.063312	0.2375	0.18899	0.095073	0.11586	0.17305	0.14999	0.23432	0.23725	0.28074	-1.7021	-2.0563	-1.7708	-2.3417	-1.7708	-2.0438	-2.5958	-1.7354	-1.9958	-1.9354	-1.7313	-2.5167	-2.0292	-2.0896	-2.4188	-1.7313	377.174	180.899	368.454	35.463	257.628	224.367	97.768	55.532	363.182	231.131	262.991	330.951	234.934	303.728	132.877	353.710	0.00051915	0.00018711	7.1136e-05	1073.1	4.8929e-06	1.7952e-06	1174.9	228.61	2.7762e-07	8.3054e-07	288.61	80.45	63.277	18.454	5.8925e-07	25.899	8.9297e-05	7.68e-05	2.2414e-05	1040.6	9.0742e-07	8.6186e-07	1142.7	224.03	8.9048e-07	8.4275e-07	272.49	78.992	59.663	18.333	8.3567e-07	25.617	59.322	119.635	152.453	35.785	166.344	181.057	35.791	43.094	94.098	315.603	43.263	50.093	50.332	57.111	352.208	56.230	-8191	255	
1177.933	1	1	0	0	0.20378	0.38651	0.37635	0.37204	0.18581	0.15946	0.16967	0.27907	0.16649	0.145	0.097121	0.038972	0.030215	0.087518	0.09157	0.15693	-1.5583	-2.0125	-1.7	-2.2458	-1.8896	-1.8896	-2.5187	-1.9604	-1.7083	-2.1813	-1.7458	-2.0208	-2.1396	-1.6229	-2.3812	-2.1896	202.130	363.509	337.240	44.092	117.015	30.697	337.932	335.057	288.564	26.711	27.045	182.887	126.989	227.122	320.451	119.070	0.00052744	0.00031717	0.00014355	1075.6	4.5815e-06	2.0908e-06	1169.3	228.41	3.8282e-06	4.4721e-06	288.88	80.459	63.336	18.525	2.1839e-06	25.848	8.7642e-05	7.6238e-05	2.1992e-05	1040.3	8.4821e-07	8.1715e-07	1141.6	223.16	8.372e-07	8.1012e-07	271.95	78.917	59.31	18.315	7.9603e-07	25.535	52.676	110.158	120.170	36.065	156.226	142.480	35.958	43.407	152.772	224.210	43.351	50.187	50.553	57.133	168.229	56.437	-8191	255	
1178.029	1	1	0	0	0.28677	0.28344	0.13348	0.14477	0.37416	0.19585	0.11845	0.28285	0.16547	0.099159	0.077314	0.13107	0.14689	0.25799	0.35016	0.081002	-1.6562	-2.1896	-1.6104	-2.1729	-1.7708	-1.5604	-2.2083	-1.9188	-1.8937	-2.2271	-1.9208	-2.0938	-1.9979	-1.7062	-2.1854	-1.9917	180.491	278.523	247.984	110.446	107.421	124.070	222.771	61.110	319.490	99.363	264.852	265.242	123.426	54.655	55.161	331.292	0.00053257	0.00026226	2.627e-05	1079.3	1.9211e-06	3.2104e-06	1171.2	228.23	2.7847e-06	2.4409e-06	287.75	80.599	62.796	18.537	2.5258e-06	25.776	8.2183e-05	6.9441e-05	1.9795e-05	1040.1	7.9239e-07	7.3813e-07	1140.8	223.01	7.6864e-07	7.3879e-07	271.48	78.85	59.223	18.318	7.5989e-07	25.448	49.425	97.941	129.227	35.809	167.381	206.774	35.796	43.533	152.482	149.196	43.569	49.560	50.314	57.351	113.108	56.483	-8191	255	
1178.125	1	1	0	0	0.13477	0.046445	0.024795	0.25454	0.17628	0.14737	0.32443	0.11783	0.10643	0.24725	0.23065	0.19681	0.13511	0.21629	0.0067539	0.35483	-1.4979	-2.3646	-1.7917	-2.0021	-1.9646	-1.825	-2.4521	-1.9375	-1.675	-2.1437	-2.1646	-2.2	-2.2479	-1.6063	-1.9708	-2.1063	336.609	174.184	311.790	122.541	57.829	136.932	262.019	219.464	323.965	209.311	349.776	300.832	52.698	317.488	158.553	345.878	0.00054648	0.00025582	0.00010793	1076.1	3.0165e-06	1.8906e-06	1171.5	227.45	3.5404e-06	2.6803e-06	286.52	80.223	62.703	18.347	2.7326e-06	25.786	8.1873e-05	6.9448e-05	1.9375e-05	1041.8	7.9999e-07	7.7285e-07	1140	223.04	8.0055e-07	7.298e-07	270.98	78.718	59.158	18.276	7.712e-07	25.504	51.285	154.616	140.575	36.031	184.334	151.028	35.932	43.376	183.702	241.818	43.286	49.793	49.607	57.164	190.679	56.897	-8191	255	
1178.246	1	1	0	0	0.22913	0.14353	0.048072	0.31557	0.34718	0.20456	0.10801	0.20475	0.12444	0.038944	0.20079	0.055323	0.15035	0.11231	0.20274	0.15814	-1.5292	-2.0438	-1.6437	-2.0208	-2.0458	-1.7437	-2.4646	-2.2979	-1.9562	-2.2646	-1.725	-1.8854	-2.0167	-1.6354	-2.0125	-2.1562	81.224	252.156	122.301	364.116	263.897	137.378	340.670	377.531	77.571	54.070	265.056	227.690	146.196	311.820	302.298	284.784	0.00060298	0.00038929	8.6268e-05	1072.2	3.6878e-06	1.4399e-06	1171.3	227.99	1.4742e-06	4.3205e-06	287.83	80.464	62.392	18.523	4.1767e-06	25.894	8.2061e-05	6.9552e-05	1.9e-05	1038.3	7.9339e-07	7.7105e-07	1140.1	222.92	8.1813e-07	7.6154e-07	271.24	78.808	59.297	18.328	8.1894e-07	25.561	56.631	158.905	87.084	35.661	192.785	365.415	35.932	43.340	174.867	180.500	43.224	49.856	50.758	57.145	196.139	56.030	-8191	255	
1178.342	1	1	0	0	0.10468	0.11969	0.16415	0.083503	0.36098	0.15131	0.025806	0.20202	0.41677	0.1358	0.40947	0.15551	0.32088	0.3894	0.11681	0.23089	-1.3479	-2.1437	-1.8062	-1.9729	-2.2917	-1.85	-2.3521	-2.1188	-1.5438	-2.1604	-1.7208	-1.7104	-1.9688	-1.675	-2.0312	-2.0333	323.911	332.474	322.682	349.720	152.680	317.472	156.014	326.469	121.528	27.289	214.854	288.670	138.685	356.574	308.179	200.006	0.00050346	0.00018388	8.6982e-05	1074.6	2.7499e-06	3.1721e-06	1174	226.89	4.331e-06	2.0693e-06	286.91	80.891	63.501	18.527	1.0129e-06	25.796	8.6798e-05	7.3264e-05	2.0985e-05	1040.9	8.4608e-07	8.3259e-07	1142	222.77	9.0834e-07	8.5749e-07	271.18	79.029	59.615	18.407	8.9976e-07	25.626	49.187	123.494	119.140	36.036	171.525	204.152	35.986	43.450	191.371	171.542	42.603	49.668	50.445	57.279	249.708	56.511	-8191	255	
1178.438	1	1	0	0	0.10221	0.29008	0.21239	0.13354	0.26151	0.16599	0.29702	0.20108	0.25686	0.17912	0.20379	0.30058	0.05989	0.084657	0.0089562	0.071031	-1.2646	-2.1542	-1.9667	-1.7125	-2.1167	-1.8563	-2.1375	-2.3354	-1.7583	-2.1521	-1.85	-1.7062	-2.2083	-1.8792	-2.1708	-2.3104	180.890	321.734	257.782	303.574	214.749	340.928	365.658	285.033	117.469	236.451	375.311	43.371	62.752	85.122	31.110	268.419	0.00059948	0.00039993	8.4846e-05	1076.9	5.1229e-06	2.6325e-06	1172.6	227.88	2.3665e-06	3.3061e-06	288.47	80.951	63.172	18.449	2.5249e-06	25.867	9.3119e-05	8.013e-05	2.2692e-05	1040.3	9.2366e-07	8.8499e-07	1141.7	223.23	9.1955e-07	8.7391e-07	272.38	79.013	59.45	18.4	8.3621e-07	25.679	53.555	143.241	180.509	36.137	174.204	179.835	36.137	43.274	137.181	206.387	43.171	49.862	49.909	57.384	177.501	56.267	-8191	255	
1178.510	1	1	0	0	0.053995	0.02554	0.28612	0.095128	0.16102	0.23072	0.09361	0.28395	0.13523	0.39608	0.080082	0.37093	0.17119	0.2223	0.25444	0.38254	-1.0833	-2.1333	-1.9708	-1.8625	-2.1271	-1.7146	-2.0312	-2.3	-1.8687	-2.125	-2.2021	-1.9229	-2.4521	-2.0625	-1.8458	-2.0021	164.356	218.475	335.940	267.125	111.942	31.923	247.553	157.210	197.533	356.533	281.990	117.925	152.241	294.551	81.053	359.552	0.00051501	0.00030656	5.5261e-05	1080.5	1.5557e-06	2.3527e-06	1174.5	227.87	3.1098e-06	3.8738e-06	288	80.568	62.839	18.613	2.3531e-06	26.062	8.9736e-05	7.7064e-05	2.111e-05	1043.5	8.652e-07	7.9347e-07	1144.4	223.69	8.7777e-07	8.129e-07	271.83	79.078	59.493	18.404	8.418e-07	25.643	53.311	172.588	115.764	35.790	119.211	205.076	35.918	43.374	151.558	152.373	42.738	49.656	50.349	56.992	154.933	56.715	-8191	255	
1178.631	1	1	0	0	0.14591	0.21574	0.078109	0.49106	0.24877	0.10214	0.089629	0.21308	0.12461	0.12477	0.27943	0.35182	0.1724	0.25695	0.1675	0.11942	-1.4417	-1.9458	-2.0104	-1.8833	-2.2042	-2.0438	-2.1479	-2.4313	-1.7417	-1.9062	-2.075	-1.7938	-2.2021	-1.9708	-1.9521	-2.3646	64.046	273.154	268.723	369.516	157.208	129.377	198.549	356.863	305.570	302.042	375.066	112.399	363.385	319.721	251.891	201.415	0.00057657	0.00035216	0.00010752	1080	4.8976e-06	3.1941e-06	1177.5	227.5	3.9349e-06	4.5808e-06	286.15	80.242	63.92	18.466	1.3332e-06	26.004	8.8103e-05	7.4684e-05	2.1407e-05	1042.8	8.5343e-07	8.2244e-07	1143.2	223.51	8.7661e-07	8.2205e-07	271.14	78.983	59.556	18.389	8.1693e-07	25.657	49.733	156.488	85.324	35.884	139.480	173.998	35.729	43.484	147.796	166.550	43.201	49.782	50.518	57.250	123.205	56.675	-8191	255	
1178.725	1	1	0	0	0.050135	0.13468	0.056182	0.12281	0.084136	0.058461	0.016208	0.32968	0.18078	0.20301	0.037136	0.090564	0.21996	0.32151	0.27305	0.016462	-1.3354	-2.1667	-2.3563	-1.8333	-2.2438	-2.1688	-2.175	-2.4688	-2.0146	-2.2	-2.1354	-1.8208	-2.4583	-2.0708	-1.6833	-2.2729	25.766	224.299	135.200	331.894	166.226	201.761	136.623	261.528	167.957	174.034	184.124	59.731	210.743	276.615	89.843	56.137	0.00051648	0.00024564	4.3367e-05	1080.4	3.5599e-06	1.7179e-06	1171.3	228.13	2.8514e-06	3.5022e-07	290.09	80.19	63.933	18.553	3.4365e-06	25.99	8.8151e-05	7.6188e-05	2.0812e-05	1042.9	8.4358e-07	8.0413e-07	1140.7	223.2	8.2258e-07	7.8342e-07	271.99	78.966	59.607	18.384	8.0358e-07	25.589	54.948	64.556	105.047	35.775	209.108	161.532	35.812	43.329	179.011	334.660	43.000	50.096	50.835	57.265	128.248	56.405	-8191	255	
1178.823	1	1	0	0	0.19844	0.25828	0.034239	0.10442	0.09925	0.14039	0.25056	0.14283	0.012674	0.24313	0.065069	0.18528	0.25151	0.25045	0.16848	0.23713	-1.4562	-1.9521	-2.3417	-1.9021	-2.2896	-2.175	-1.9896	-2.5563	-2.0167	-2.0062	-2.3354	-1.9167	-2.1688	-2.1937	-1.7292	-2.1667	194.791	124.039	232.678	320.543	341.996	163.608	313.222	284.161	137.952	73.788	269.424	276.740	43.926	382.918	206.096	341.499	0.00045447	0.00046511	7.9014e-05	1078.2	3.9277e-06	2.661e-06	1169.2	228.39	2.003e-06	1.3342e-06	290.44	80.525	63.332	18.638	4.3459e-06	25.996	8.3082e-05	7.2391e-05	2.0163e-05	1040.3	7.9853e-07	7.8872e-07	1138.5	223.11	8.0842e-07	7.8535e-07	271.24	78.729	59.651	18.354	7.6377e-07	25.577	51.001	150.766	70.810	35.870	154.250	206.813	35.903	43.359	205.881	181.002	43.619	49.834	50.482	56.723	176.790	56.264	-8191	255	
1178.917	1	1	0	0	0.14702	0.11069	0.11967	0.28815	0.035127	0.10135	0.34534	0.39999	0.23855	0.2177	0.098927	0.16921	0.16227	0.24517	0.093613	0.21567	-1.5667	-1.9375	-2.375	-2.0292	-2.1771	-2.275	-1.9125	-2.1979	-1.8625	-1.8354	-2.1104	-1.7563	-2.0083	-2.1562	-1.7375	-2.4021	142.005	214.139	119.740	366.430	76.824	150.150	321.011	304.516	156.931	227.167	86.353	217.470	277.781	370.796	250.322	343.456	0.00051247	0.00012491	8.3506e-05	1078.1	5.3327e-06	2.7859e-06	1167.8	227.32	3.0408e-06	2.5318e-06	289.32	80.107	62.906	18.486	4.4592e-06	25.939	8.0694e-05	7.0321e-05	1.9262e-05	1039.2	7.7569e-07	7.464e-07	1139.1	222.91	7.8443e-07	7.5474e-07	271.46	78.713	59.384	18.305	7.7558e-07	25.619	60.698	103.340	130.135	35.880	148.024	150.361	36.116	43.746	175.600	265.236	42.541	49.835	51.104	57.166	143.876	56.567	-8191	255	
1179.038	1	1	0	0	0.093581	0.15971	0.20067	0.15379	0.10439	0.11184	0.24533	0.21824	0.11691	0.052053	0.3202	0.26426	0.1777	0.17139	0.062642	0.13102	-1.5312	-1.7437	-2.2417	-1.9375	-1.9021	-2.0542	-1.8375	-2.3	-1.9292	-1.8625	-2.2333	-1.8896	-2.0271	-2.0333	-1.7437	-2.0021	366.695	242.599	169.522	83.397	165.188	274.156	174.697	306.547	172.818	62.466	358.133	124.318	222.257	55.042	184.738	285.350	0.00048678	0.00024806	9.3092e-06	1076.4	3.2212e-06	4.1861e-06	1174.8	228.28	2.4838e-06	2.7748e-06	287.23	80.505	63.722	18.585	3.5037e-06	25.979	8.2684e-05	7.2843e-05	2.0138e-05	1041.2	8.0308e-07	7.9296e-07	1141.6	223.39	8.0047e-07	7.9304e-07	271.45	78.954	59.44	18.369	7.8885e-07	25.651	45.799	149.619	111.377	35.818	136.444	182.351	35.953	43.427	149.933	176.317	43.001	49.675	50.890	57.208	193.279	57.322	-8191	255	
1179.110	1	1	0	0	0.26923	0.3187	0.27047	0.15576	0.21085	0.15155	0.052675	0.091635	0.40225	0.3614	0.068662	0.12044	0.21118	0.17424	0.16064	0.09057	-1.5333	-1.7583	-2.15	-1.925	-1.6979	-2.3917	-1.9021	-2.1083	-1.9396	-1.7062	-2.2958	-2.0229	-1.9312	-2.3979	-1.9104	-2.2208	308.547	281.274	279.530	141.111	282.603	197.055	306.323	219.136	198.411	369.740	275.515	375.673	31.828	59.514	69.807	304.779	0.00053307	0.00013371	3.1129e-05	1078.8	5.9395e-06	2.5069e-06	1176.4	227.03	3.132e-06	1.5734e-06	289.86	80.783	64.169	18.44	2.486e-06	25.736	8.591e-05	7.194e-05	2.0089e-05	1040.7	8.2408e-07	8.1324e-07	1143.1	222.96	8.5574e-07	8.3905e-07	271.19	79.029	59.516	18.36	8.2048e-07	25.559	54.046	159.865	135.568	35.735	140.611	149.080	35.886	43.340	169.288	152.130	42.772	49.784	50.450	57.283	171.426	56.541	-8191	255	
1179.206	1	1	0	0	0.10617	0.32165	0.33866	0.25679	0.13929	0.25405	0.16737	0.097441	0.29827	0.27425	0.087779	0.07361	0.12418	0.21929	0.12966	0.12873	-1.6583	-1.5771	-2.0125	-2.0104	-1.5688	-2.1979	-1.8188	-1.8937	-2.1708	-1.8125	-2.2687	-2.1875	-1.7771	-2.1375	-1.8563	-2.0083	116.692	220.796	29.202	51.356	115.342	245.170	308.500	351.766	273.433	180.094	232.629	182.536	229.564	316.804	218.456	231.634	0.00044477	0.00017789	6.4767e-05	1074.9	3.0357e-06	3.0243e-06	1170.3	227.84	2.9108e-06	1.9128e-06	290.71	80.46	63.282	18.55	4.5606e-06	25.791	8.5217e-05	7.4534e-05	2.0796e-05	1040	8.6149e-07	8.0119e-07	1140.3	222.87	8.5203e-07	8.4422e-07	271.74	78.854	59.602	18.389	8.8211e-07	25.622	58.828	136.935	92.892	35.959	129.236	155.811	35.950	43.319	148.872	152.707	43.070	49.843	50.226	56.943	162.952	56.483	-8191	255	
1179.326	1	1	0	0	0.077809	0.074525	0.094388	0.15784	0.4313	0.13715	0.05997	0.22968	0.29704	0.073623	0.15669	0.2885	0.079906	0.18308	0.15674	0.1589	-1.5562	-1.5146	-2.1583	-2.0833	-1.9083	-2.4729	-2.0146	-1.8813	-1.975	-1.8125	-2.3104	-2.1729	-1.7812	-2.2562	-1.7979	-1.7646	167.928	77.505	198.633	379.509	167.876	237.166	371.499	326.504	172.687	282.741	119.605	379.693	183.173	367.874	329.145	355.336	0.00043123	0.00024059	2.8617e-05	1073.4	3.0646e-06	1.5208e-06	1170.4	228.17	1.8439e-06	1.2908e-06	288.17	80.221	63.302	18.57	1.9727e-06	25.947	9.0587e-05	7.8691e-05	2.1537e-05	1040	9.2207e-07	8.5216e-07	1142.4	223.54	9.038e-07	8.7516e-07	271.84	79.057	59.71	18.398	8.6822e-07	25.705	52.693	83.136	52.624	36.021	126.203	103.584	36.000	43.409	196.075	185.000	42.735	49.727	49.858	56.937	187.143	56.511	-8191	255	
1179.422	1	1	0	0	0.054851	0.02904	0.10641	0.10972	0.18614	0.17593	0.22692	0.27379	0.1462	0.26323	0.061383	0.19425	0.30163	0.09338	0.33195	0.15038	-1.8438	-1.8208	-1.9708	-2.1146	-1.9125	-2.2438	-2.0833	-1.8271	-2.4646	-1.7563	-2.1	-2.0687	-1.6021	-2.2208	-2.15	-1.8625	309.841	119.780	142.064	259.878	186.048	131.512	291.333	105.766	118.119	284.478	371.192	367.787	231.633	216.069	314.347	371.953	0.00041958	0.00032207	0.00013863	1077.5	1.6999e-06	4.3369e-06	1165.6	227.3	1.9569e-06	2.2449e-06	289.04	80.204	63.432	18.549	2.8933e-06	25.909	9.135e-05	7.8618e-05	2.1625e-05	1041.5	8.8738e-07	8.5468e-07	1139.3	223.43	8.991e-07	8.9125e-07	272.42	78.908	59.644	18.412	8.9901e-07	25.598	53.855	151.516	145.458	36.012	192.687	175.143	36.013	43.266	123.798	223.554	42.391	49.790	50.260	56.904	174.737	56.129	-8191	255	
1179.519	1	1	0	0	0.37322	0.060185	0.14553	0.18931	0.076255	0.18616	0.075609	0.051303	0.2779	0.10978	0.21302	0.20636	0.11661	0.044833	0.11996	0.16957	-1.7083	-1.7208	-2.0792	-2.3396	-1.6042	-2.1646	-2.1	-2.0979	-2.2292	-1.9813	-1.8979	-2.2708	-1.7812	-2.1083	-1.8687	-1.7104	336.944	213.974	56.982	378.219	177.654	230.051	211.205	187.916	49.663	277.619	347.556	282.291	234.146	162.067	122.000	326.511	0.00049617	0.00031467	5.9221e-05	1077.3	1.3714e-06	3.4232e-06	1172.6	228.69	3.4746e-06	3.5163e-06	288.44	80.381	63.353	18.675	5.4309e-06	25.693	9.2537e-05	8.2146e-05	2.1866e-05	1040.4	8.9339e-07	8.3893e-07	1142.6	224.08	8.9622e-07	8.9448e-07	272.17	79.14	59.591	18.444	8.6876e-07	25.595	62.747	161.602	126.164	35.844	108.883	174.739	35.868	43.295	158.742	175.305	43.198	49.961	50.346	57.227	172.705	56.438	-8191	255	
1179.615	1	1	0	0	0.18781	0.18302	0.19451	0.091023	0.22591	0.065674	0.06782	0.12698	0.06789	0.0098198	0.25971	0.21576	0.091736	0.22543	0.11331	0.12724	-1.9833	-1.8687	-1.8833	-2.4562	-1.6187	-1.8354	-2.2104	-1.8062	-2.2979	-1.9042	-1.9208	-2.3792	-1.7313	-1.9438	-2.0479	-1.8792	115.353	308.602	34.940	234.716	202.376	33.593	75.956	176.834	212.108	128.424	65.253	93.881	103.525	65.391	219.139	184.214	0.00053408	0.00045333	8.1896e-05	1074.9	5.5512e-06	3.1744e-06	1173.7	227.6	7.32e-07	2.5491e-06	289.74	80.735	63.165	18.533	3.1468e-06	25.785	9.166e-05	7.959e-05	2.2004e-05	1040.9	8.9289e-07	8.5174e-07	1142.4	223.38	8.9972e-07	9.0834e-07	272.71	79.007	59.765	18.412	9.2396e-07	25.675	51.857	137.603	137.223	36.026	143.571	223.070	35.911	43.517	225.456	159.083	42.987	49.772	49.864	57.215	178.465	56.324	-8191	255	
1179.711	1	1	0	0	0.13258	0.14989	0.163	0.13924	0.23854	0.24249	0.1637	0.27464	0.23423	0.22301	0.14821	0.045732	0.28256	0.24517	0.088315	0.32608	-1.7667	-1.6729	-1.6667	-2.225	-1.8083	-2.175	-2.4229	-1.8375	-2.1667	-1.9167	-1.9021	-2.3063	-1.9229	-2.0563	-2.3021	-1.7104	239.314	104.227	231.883	367.694	196.306	153.708	280.742	74.223	352.283	264.702	256.980	239.024	208.584	311.171	243.355	377.495	0.00048344	0.0001685	4.8358e-05	1075.9	5.1343e-06	2.5783e-06	1170.5	228.57	2.1995e-06	3.0666e-06	289.06	80.75	63.863	18.454	4.2676e-06	25.937	9.2467e-05	8.4921e-05	2.3513e-05	1040.3	9.3218e-07	8.9603e-07	1140	223.84	9.2109e-07	9.0384e-07	272.16	78.965	60.021	18.411	8.9271e-07	25.721	55.100	77.922	165.706	35.876	152.501	160.182	35.803	43.426	162.825	179.686	43.303	49.766	50.326	56.946	198.484	56.478	-8191	255	
1179.807	1	1	0	0	0.19398	0.26428	0.19045	0.12027	0.20189	0.16247	0.093526	0.38259	0.23498	0.052915	0.1742	0.17616	0.25719	0.19345	0.2738	0.19769	-1.4729	-1.9875	-1.6146	-2.2938	-1.8375	-2.0292	-2.2833	-1.9042	-2.3458	-2.1479	-1.9604	-2.1417	-1.8021	-1.9604	-2.2896	-1.9708	119.582	242.411	206.483	331.129	184.580	68.633	312.701	359.401	63.041	261.200	385.103	362.145	48.134	44.814	155.754	315.770	0.00054006	0.00037301	0.00012337	1079.4	5.9188e-06	2.5931e-06	1165.8	227.69	3.4215e-06	4.1015e-06	288.37	80.436	63.111	18.485	4.3733e-06	25.923	9.2338e-05	8.0091e-05	2.2388e-05	1040.7	9.4011e-07	8.8805e-07	1138.7	223.78	8.846e-07	8.6047e-07	271.89	79.185	59.734	18.384	8.7506e-07	25.606	65.028	154.405	108.016	35.821	151.765	239.255	36.099	43.295	171.014	172.795	42.841	49.880	50.778	57.058	174.138	56.411	-8191	255	
1179.926	1	1	0	0	0.11401	0.08546	0.18316	0.35394	0.11801	0.10605	0.052482	0.022148	0.10467	0.1639	0.10052	0.22325	0.29042	0.19608	0.18711	0.22559	-1.5979	-2	-1.8125	-2.3708	-1.9729	-1.8708	-2.2542	-1.9958	-2.0625	-2.05	-1.6063	-2.2875	-1.9896	-1.8792	-2.2042	-1.8333	157.247	194.409	329.113	355.073	285.568	86.449	102.946	116.788	51.050	25.751	260.861	44.649	241.842	353.802	176.993	383.324	0.00059603	0.00010808	0.00011379	1074.2	3.781e-06	1.7478e-06	1171.9	229.31	2.2503e-06	3.4133e-06	288.83	80.726	63.631	18.547	2.6962e-06	26.045	8.9452e-05	7.9372e-05	2.1886e-05	1040.9	8.9055e-07	8.6748e-07	1140.5	223.82	8.7985e-07	8.561e-07	272.11	79.158	59.714	18.437	9.0072e-07	25.719	50.254	167.599	152.464	35.856	118.131	173.484	35.957	43.439	163.106	207.308	43.019	49.961	49.552	57.331	164.452	56.781	-8191	255	
1180.022	1	1	0	0	0.19505	0.12138	0.19921	0.38424	0.20989	0.21584	0.11986	0.049706	0.20169	0.26859	0.1247	0.071313	0.28196	0.26507	0.058747	0.2034	-1.6604	-2.1917	-1.5542	-2.4167	-1.85	-1.9583	-2.5021	-1.7333	-1.8521	-2.025	-1.6021	-2.0438	-2.0021	-1.7938	-2.3229	-1.9625	375.596	315.733	126.493	307.068	380.178	216.926	339.537	234.349	193.261	188.369	373.013	26.160	226.922	329.880	48.759	186.580	0.00059516	0.00028793	5.583e-05	1074.8	2.9381e-06	4.1179e-06	1170.9	229.2	5.1464e-06	2.887e-06	287.48	80.194	63.757	18.572	3.2299e-06	26.024	9.1785e-05	7.9456e-05	2.2935e-05	1039.8	8.9155e-07	8.7281e-07	1142	223.82	9.1584e-07	8.6001e-07	272.33	78.925	59.825	18.42	8.8224e-07	25.644	62.274	177.747	83.167	35.757	157.019	196.538	35.874	43.285	153.611	146.596	43.213	49.650	50.632	56.871	191.713	56.413	-8191	255	
1180.118	1	1	0	0	0.0715	0.23067	0.10747	0.21821	0.12316	0.22241	0.12299	0.19557	0.15783	0.094153	0.26213	0.22261	0.072392	0.44876	0.075256	0.32349	-1.5104	-2.2604	-1.7875	-2.0438	-1.9042	-1.7042	-2.4854	-1.8917	-1.8854	-2.0521	-1.7042	-2.0167	-2.0896	-1.7396	-2.1813	-1.9021	341.655	299.033	144.893	376.534	143.188	149.714	345.748	317.069	176.250	338.474	93.313	253.263	299.511	383.251	74.277	359.620	0.00054232	0.00017086	5.3157e-05	1074.2	2.4961e-06	3.1867e-06	1173.7	227.83	5.3879e-06	6.2794e-06	287.02	80.426	63.1	18.565	1.6063e-06	25.659	9.0355e-05	7.8377e-05	2.2372e-05	1039.4	8.5556e-07	8.8188e-07	1141.1	223.54	8.8523e-07	8.4283e-07	270.8	78.975	59.176	18.39	8.7531e-07	25.564	49.418	116.731	214.602	36.062	162.833	172.857	36.033	43.400	132.688	163.251	43.192	49.841	50.084	56.431	190.080	56.393	-8191	255	
1180.214	1	1	0	0	0.16029	0.34251	0.15655	0.17949	0.02643	0.12963	0.16754	0.22697	0.28766	0.033538	0.071511	0.13677	0.19037	0.18938	0.15625	0.21951	-1.6479	-2.2771	-1.8083	-2.1188	-1.9271	-1.5917	-2.3	-2.0187	-1.9083	-2.3375	-1.8354	-2.0687	-2.1417	-1.8396	-2.3083	-2.2	378.361	111.574	60.276	300.161	188.509	47.298	379.013	315.979	357.777	283.241	109.183	285.266	320.399	36.893	211.760	356.321	0.00051762	0.00021574	8.0579e-06	1075.8	5.5543e-06	1.1501e-06	1165.8	226.43	2.6983e-06	4.4447e-06	288.36	79.63	63.009	18.324	9.406e-07	25.587	9.117e-05	7.7512e-05	2.2351e-05	1040.3	8.8533e-07	8.6463e-07	1137.8	222.63	8.8398e-07	8.3368e-07	270.65	78.527	59.123	18.27	8.2941e-07	25.479	57.982	183.692	374.891	35.854	180.569	186.466	35.875	43.547	158.812	206.856	42.748	49.614	50.029	57.516	153.248	56.690	-8191	255	
1180.335	1	1	0	0	0.28628	0.18927	0.36737	0.22622	0.14247	0.11219	0.19613	0.074249	0.059351	0.20457	0.10518	0.12225	0.116	0.055655	0.11079	0.079964	-1.5521	-2.1458	-1.6125	-1.7687	-1.8271	-1.6896	-2.5563	-2.1688	-1.7354	-2.2625	-1.6521	-1.9062	-2.0667	-1.7042	-1.9542	-1.7354	281.227	55.811	225.371	76.431	35.438	51.921	315.220	141.072	41.007	294.483	385.840	259.429	178.677	282.152	267.153	127.862	0.00054946	0.00042551	8.3484e-05	1070	2.5856e-06	3.464e-06	1160.1	225.47	3.3883e-06	5.6274e-06	285.58	79.598	62.335	18.397	3.1684e-06	25.666	8.4929e-05	7.3689e-05	2.0538e-05	1035.1	8.1489e-07	7.7306e-07	1131.9	220.19	8.2921e-07	7.7271e-07	268.51	77.953	58.539	18.146	7.7016e-07	25.289	55.459	139.096	146.243	35.733	205.895	220.674	36.128	43.831	177.529	186.380	43.263	49.693	50.720	57.733	156.052	56.501	-8191	255	
1180.407	1	1	0	0	0.11084	0.1372	0.12923	0.03124	0.23156	0.3623	0.13197	0.31882	0.19164	0.18606	0.067454	0.2202	0.14287	0.027343	0.062936	0.19291	-1.2167	-2.0542	-1.7229	-2.0563	-2.2167	-1.8271	-2.1646	-2.1771	-1.8563	-2.2167	-1.8458	-1.8667	-1.9625	-1.7292	-2.1521	-2.2229	271.778	213.829	36.208	139.637	378.595	126.628	37.135	328.669	80.364	362.243	136.085	35.798	358.528	237.488	342.873	363.500	0.00057772	0.00025453	8.4761e-05	1064.9	3.1364e-06	2.0247e-06	1154.2	223.95	4.4879e-06	1.7236e-06	280.29	79.052	62.122	18.091	2.417e-06	25.314	8.1866e-05	6.6674e-05	1.8859e-05	1028.9	7.4867e-07	7.221e-07	1127.8	218.72	7.3478e-07	6.9814e-07	265.25	77.492	58.14	17.975	7.1082e-07	25.097	45.411	124.785	72.728	35.664	179.629	152.821	35.891	43.756	176.867	143.789	43.035	49.701	50.176	57.406	205.159	56.746	-8191	255	
1180.503	1	1	0	0	0.12593	0.040337	0.31454	0.15413	0.28032	0.12205	0.32424	0.14178	0.065991	0.047189	0.25726	0.10588	0.050535	0.15539	0.11095	0.15724	-1.3771	-2.0896	-1.8375	-1.7021	-2.2229	-1.8792	-2.275	-2.3063	-1.5917	-2.1979	-2.0833	-1.9479	-2.2687	-1.7542	-1.9354	-2.0542	359.772	298.988	162.261	67.693	258.377	323.074	348.661	59.030	70.154	264.681	197.038	372.766	266.996	340.727	346.773	259.918	0.00051835	0.00038878	4.0956e-05	1061.6	3.1316e-06	1.3901e-06	1157.2	221.31	1.067e-06	4.0247e-06	280.39	79.201	61.821	18.2	3.5222e-06	25.476	7.6042e-05	6.4691e-05	1.7959e-05	1026.3	7.0525e-07	6.9645e-07	1123.2	217.03	7.2803e-07	6.8907e-07	265.17	77.527	58.019	17.945	7.1537e-07	25.102	52.905	153.431	372.404	36.103	197.739	277.765	35.815	43.515	157.953	188.101	42.995	49.973	50.523	57.255	104.247	56.661	-8191	255	
1180.599	1	1	0	0	0.26286	0.15271	0.2168	0.17665	0.078871	0.086175	0.26038	0.18153	0.2617	0.084883	0.35341	0.026317	0.11299	0.27044	0.19735	0.030573	-1.4354	-2.1896	-2.0312	-2.0042	-2.4	-1.8521	-1.9708	-2.0438	-1.4875	-2.1875	-2.2396	-1.925	-2.2479	-1.8583	-1.7729	-2.1937	327.710	136.143	190.342	45.825	216.913	290.598	376.218	26.081	49.612	350.357	60.908	28.841	174.446	327.249	37.156	30.296	0.00050178	0.00040234	5.6963e-05	1060.1	3.9225e-06	3.7438e-06	1150.9	221.68	3.8065e-06	3.397e-06	284.95	78.762	62.166	18.161	2.2435e-06	25.245	7.5873e-05	6.1037e-05	1.7548e-05	1022.9	7.0638e-07	6.7697e-07	1120.9	216.65	7.4424e-07	6.8836e-07	264.18	77.141	57.885	17.912	7.0611e-07	25.019	65.173	116.419	159.925	36.116	138.270	152.746	36.016	43.349	160.006	213.222	43.349	49.961	50.398	57.440	136.834	57.171	-8191	255	
1180.718	1	1	0	0	0.13402	0.22029	0.21894	0.17837	0.056103	0.20394	0.46649	0.15836	0.14625	0.17023	0.18785	0.24802	0.20216	0.21425	0.14425	0.27278	-1.2729	-1.9729	-1.9208	-1.8521	-2.1813	-1.95	-2.0542	-2.3208	-1.7646	-2.2188	-2.1146	-1.9146	-2.2062	-1.9375	-1.5146	-2.1958	202.159	109.723	127.682	310.765	178.564	88.621	331.362	186.382	241.260	218.997	311.512	202.009	246.949	298.571	362.566	215.739	0.0006219	4.0182e-05	3.9076e-05	1054.2	3.6417e-06	2.992e-06	1152.7	222.27	2.5972e-06	1.2262e-06	279.61	78.502	61.075	18.107	2.2235e-06	25.282	7.5334e-05	6.1649e-05	1.7817e-05	1022.3	7.0938e-07	6.7902e-07	1119	216.47	7.0446e-07	6.7543e-07	262.89	76.865	57.541	17.869	6.5332e-07	24.952	54.743	345.466	39.900	36.113	146.978	164.799	36.162	43.471	156.179	172.071	43.355	50.341	50.247	57.513	140.784	56.561	-8191	255	
1180.814	1	1	0	0	0.31235	0.19923	0.10173	0.11217	0.24825	0.10255	0.34361	0.066608	0.42661	0.19431	0.11664	0.2158	0.14551	0.19203	0.24483	0.13321	-1.2521	-1.9854	-2.1729	-1.8646	-2.1833	-1.9958	-2.0167	-2.2542	-1.8771	-1.75	-1.9458	-1.6729	-1.9396	-2.0146	-1.8458	-2.0729	127.991	308.890	266.926	300.618	28.212	170.501	313.901	368.218	197.006	383.916	177.326	33.418	377.022	216.716	166.013	68.588	0.00053803	0.00026738	0.00010407	1053.5	2.1097e-06	4.1448e-06	1138.3	219.22	2.8759e-06	1.2135e-06	280.58	78.253	61.345	18.018	2.2971e-06	25.053	7.2773e-05	5.977e-05	1.6112e-05	1017	6.6045e-07	6.5308e-07	1112.3	214.97	6.8317e-07	6.2189e-07	262.92	76.664	57.229	17.819	6.5691e-07	24.813	59.258	140.109	117.189	36.031	143.190	195.905	35.900	43.516	181.067	193.240	43.207	49.792	49.901	57.195	170.737	56.650	-8191	255	
1180.910	1	1	0	0	0.40737	0.13423	0.087277	0.22866	0.13652	0.14902	0.12354	0.24557	0.26581	0.21584	0.14066	0.22073	0.085484	0.047137	0.28754	0.11618	-1.2271	-1.6604	-1.9104	-1.6125	-1.8333	-1.9167	-1.8458	-2.0625	-1.9854	-1.975	-2.3042	-1.8062	-2.0229	-2.0563	-1.85	-2.15	306.501	297.780	295.145	343.556	363.075	74.703	324.604	293.746	288.047	216.226	349.113	305.681	327.794	146.725	59.052	197.930	0.00043546	0.00039794	4.959e-05	1046.8	2.8024e-06	2.5849e-06	1142.9	218.03	3.2595e-06	1.2357e-06	279.24	77.546	61.11	18.048	4.586e-06	25.077	6.8099e-05	5.8166e-05	1.6097e-05	1010.5	6.5606e-07	6.3494e-07	1110.1	214.24	6.6535e-07	6.1068e-07	261.59	76.075	57.058	17.715	6.1719e-07	24.777	59.765	126.239	200.349	36.124	145.426	159.498	35.909	43.571	185.716	207.441	42.912	50.256	50.543	57.268	151.227	56.986	-8191	255	
1181.006	1	1	0	0	0.30412	0.23161	0.24032	0.18102	0.048858	0.14845	0.24309	0.31393	0.11639	0.02713	0.27719	0.23139	0.057244	0.13501	0.14792	0.042883	-1.4354	-1.7042	-2.025	-1.8583	-2.0625	-2.2938	-1.9104	-2.3396	-2.0667	-1.9354	-2.275	-1.5792	-1.7771	-2.0187	-1.6271	-2.0708	305.462	75.740	183.667	346.407	288.896	238.836	368.064	234.604	189.405	89.008	283.811	292.376	208.112	281.256	330.801	232.209	0.00050713	0.0002577	8.9529e-05	1046.7	4.7029e-06	5.7543e-06	1132.4	217.11	2.0182e-06	4.0469e-06	278.22	77.809	60.482	17.797	3.4033e-06	25.057	6.6672e-05	5.5993e-05	1.5386e-05	1008.1	6.3611e-07	6.0136e-07	1104.2	213.15	6.1028e-07	5.8322e-07	260.77	76.017	56.866	17.588	6.2165e-07	24.693	59.827	113.815	124.358	36.207	126.989	181.710	36.071	43.507	130.762	158.877	43.074	50.008	51.015	57.544	172.626	56.911	-8191	255	
1181.102	1	1	0	0	0.19434	0.15708	0.20807	0.21676	0.15162	0.18807	0.26959	0.040517	0.13469	0.14871	0.10716	0.06678	0.075106	0.13596	0.1974	0.2114	-1.5063	-1.8979	-2.2021	-1.7833	-1.8729	-2.1854	-1.9083	-2.0125	-2.0417	-1.85	-2.3646	-2.1208	-1.9146	-2.1562	-1.8708	-2.0646	111.055	193.021	131.226	368.741	276.151	319.645	289.600	34.707	247.536	112.356	254.915	377.128	188.224	45.315	92.858	283.225	0.00047036	0.00035838	5.9624e-05	1039.4	4.0929e-06	2.8602e-06	1130.6	217.11	2.6288e-06	1.852e-06	277.54	77.482	60.626	17.743	1.8429e-06	25.048	6.633e-05	5.3563e-05	1.4583e-05	1003.7	5.9406e-07	5.744e-07	1097.5	212.07	5.8975e-07	5.6361e-07	259.94	75.601	56.751	17.516	5.9407e-07	24.597	55.629	157.318	171.028	35.803	164.021	119.272	35.958	43.557	162.235	128.985	43.469	49.767	50.740	57.496	163.912	56.802	-8191	255	
1181.199	1	1	0	0	0.11662	0.15051	0.034561	0.21263	0.35584	0.061722	0.085597	0.37142	0.15051	0.16502	0.12068	0.18609	0.26513	0.14674	0.16082	0.19439	-1.7458	-1.7938	-2.2792	-1.9833	-1.8729	-2.2458	-1.8083	-2.0208	-2.0979	-1.9229	-2.2083	-2.0771	-1.7687	-2.1417	-1.8646	-2.1437	219.977	332.597	314.914	75.869	311.720	334.087	261.399	223.368	343.625	80.464	193.908	282.522	377.075	362.827	119.563	232.925	0.00052223	0.00040871	0.00010097	1037.1	4.5997e-06	1.8316e-06	1125.3	216.48	3.0259e-06	3.9496e-06	275.56	77.227	60.686	17.663	4.6648e-06	24.759	6.2927e-05	5.2468e-05	1.4243e-05	998.94	6.0442e-07	5.579e-07	1094.6	210.93	5.8692e-07	5.5605e-07	258.28	75.442	56.373	17.515	5.8343e-07	24.509	59.917	134.849	136.053	36.048	124.270	222.639	35.938	43.619	160.346	177.942	42.989	49.985	51.146	57.220	177.639	56.727	-8191	255	
1181.295	1	1	0	0	0.10413	0.11407	0.070626	0.24923	0.19005	0.11671	0.090132	0.24768	0.23581	0.28292	0.059623	0.16528	0.21986	0.17893	0.33211	0.25344	-1.8042	-1.7229	-2.1479	-1.9292	-1.7729	-2.2833	-1.8854	-2.0938	-2.1562	-1.6542	-2.2625	-1.8521	-1.6271	-2.0917	-1.575	-1.9375	380.089	295.061	90.113	334.442	379.004	385.303	174.194	356.261	182.564	103.700	145.662	330.971	128.244	35.207	96.352	45.766	0.00055271	0.00028402	5.5053e-05	1032.2	2.7555e-06	1.2106e-06	1120.8	214.95	4.4546e-06	2.806e-06	275.42	77.016	60.379	17.723	3.4111e-06	24.768	6.2017e-05	5.2242e-05	1.3971e-05	996.43	5.8045e-07	5.702e-07	1091	210.29	5.8204e-07	5.5912e-07	257.29	75.314	56.397	17.475	5.6741e-07	24.485	48.875	144.040	64.346	36.105	160.468	172.670	36.179	43.814	175.118	109.966	42.958	49.760	50.277	57.727	155.751	57.025	-8191	255	
1181.415	1	1	0	0	0.11131	0.072068	0.27712	0.26799	0.2982	0.15098	0.17719	0.23341	0.10875	0.069678	0.13089	0.17226	0.17864	0.11185	0.23257	0.16946	-1.6667	-1.6146	-2.0625	-1.8417	-1.5375	-2.2708	-1.9167	-2.0646	-2.0646	-1.7146	-2.3583	-1.9958	-1.7396	-2.1375	-1.6979	-1.6333	192.776	366.698	365.986	299.294	306.713	311.857	285.783	115.444	214.586	247.035	234.462	249.111	188.761	131.128	205.568	94.966	0.00050189	0.0002842	7.6141e-05	1031.4	3.0201e-06	2.7812e-06	1117.8	215.09	2.589e-06	2.5729e-06	275.32	77.04	60.063	17.628	2.2556e-06	24.833	6.2787e-05	5.2208e-05	1.4287e-05	995.36	5.8003e-07	5.4833e-07	1090.5	210.06	5.6105e-07	5.6126e-07	257.17	75.435	56.263	17.474	5.6423e-07	24.465	63.430	141.449	71.640	35.999	139.006	165.883	35.984	43.892	184.119	191.616	43.629	49.483	50.533	57.469	141.528	57.344	-8191	255	
1181.512	1	1	0	0	0.26082	0.055383	0.30729	0.25012	0.27874	0.064782	0.21891	0.19719	0.13357	0.14145	0.20122	0.082315	0.15634	0.21307	0.24848	0.12163	-1.6604	-1.6562	-1.8396	-1.9562	-1.8146	-1.9771	-1.7729	-1.6979	-2.2083	-1.6313	-1.925	-2.0708	-1.575	-2.1188	-1.8479	-1.6979	90.923	295.509	34.503	208.139	221.505	137.229	268.051	325.180	60.258	145.784	374.095	329.220	291.472	64.133	66.060	349.841	0.00048458	0.00013258	6.9345e-05	1031	4.3441e-06	3.1414e-06	1121.2	214.79	3.243e-06	1.1688e-06	275.24	76.566	60.16	17.545	1.3481e-06	24.851	6.3023e-05	5.1286e-05	1.4389e-05	992.98	6.0375e-07	5.658e-07	1090.1	209.75	6.0641e-07	5.7755e-07	256.91	75.172	56.221	17.382	5.788e-07	24.448	61.495	111.323	139.362	36.231	144.288	246.984	36.061	43.844	176.055	304.478	43.150	49.936	50.735	57.757	171.116	56.927	-8191	255	
1181.608	1	1	0	0	0.26134	0.16129	0.053777	0.31467	0.14974	0.12876	0.20199	0.09901	0.08815	0.11048	0.083175	0.094621	0.11324	0.17874	0.2008	0.30272	-1.7021	-1.6917	-1.9312	-2.2938	-1.5646	-2.2812	-2.0708	-1.9979	-2.1667	-1.7563	-1.875	-2.1083	-1.6229	-2.3104	-1.9729	-1.9604	52.880	198.179	38.101	259.713	65.408	314.953	355.854	328.584	136.588	308.456	299.402	372.603	61.367	307.283	310.317	168.955	0.00051892	0.00016808	7.3746e-05	1027.1	5.1178e-06	1.9783e-06	1118	214.67	3.2725e-06	2.9303e-07	274.38	76.571	60.756	17.693	1.8127e-06	24.793	6.1213e-05	4.8978e-05	1.4041e-05	992.34	5.9185e-07	5.3204e-07	1085.9	209.57	5.6413e-07	5.3884e-07	257.64	75.124	56.354	17.468	5.6899e-07	24.464	57.062	181.182	133.430	36.036	172.932	150.156	35.918	43.567	150.502	56.693	43.283	50.184	50.632	57.626	136.017	56.832	-8191	255	
1181.704	1	1	0	0	0.088102	0.16654	0.095797	0.15085	0.094805	0.19852	0.17146	0.27022	0.25386	0.15122	0.36633	0.2782	0.035956	0.12471	0.099116	0.30106	-1.7417	-1.7729	-1.7958	-2.3854	-1.8687	-2.2521	-2.2125	-1.7458	-2.2687	-1.9354	-1.9646	-2.2417	-1.7021	-2.175	-2.0667	-1.6146	362.837	57.311	302.669	81.491	303.321	185.450	333.843	205.942	331.848	142.256	277.315	334.624	292.707	372.086	89.071	311.252	0.00058209	0.00030681	7.6783e-05	1030.8	1.8408e-06	4.0859e-06	1117.4	214	2.1152e-06	1.7382e-06	271.59	76.96	60.347	17.743	4.1424e-06	24.884	6.3182e-05	4.995e-05	1.4267e-05	990.84	5.6701e-07	5.4968e-07	1088	209.69	5.778e-07	5.4648e-07	255.87	75.279	56.272	17.445	5.5197e-07	24.518	55.313	126.028	115.931	35.793	132.213	180.469	36.084	43.512	188.188	212.128	43.097	49.716	50.452	57.794	163.706	56.688	-8191	255	
1181.798	1	1	0	0	0.31383	0.027357	0.057846	0.35209	0.16106	0.084093	0.39324	0.19051	0.024083	0.24664	0.18156	0.32641	0.096624	0.042259	0.064119	0.14177	-1.7458	-1.8292	-1.7521	-2.3292	-1.8271	-2.225	-2.1792	-2.0438	-2.1042	-1.7792	-1.75	-2.1708	-1.6437	-2.0042	-2.1	-1.7979	27.295	360.654	125.525	66.251	336.387	122.108	320.795	299.635	187.918	37.270	185.451	380.046	81.976	130.031	319.954	276.525	0.00052219	0.00022536	7.2128e-05	1027.8	2.785e-06	3.0138e-06	1113.8	214.54	1.5969e-06	2.4545e-06	274.37	76.594	60.288	17.586	3.5833e-06	24.905	6.1055e-05	4.8859e-05	1.3842e-05	992.19	5.7749e-07	5.3939e-07	1087.1	209.26	5.708e-07	5.4039e-07	256.48	75.128	56.14	17.407	5.3302e-07	24.485	49.469	136.040	117.600	35.973	169.186	185.686	36.388	43.623	145.877	188.227	43.385	50.377	50.341	57.275	192.157	56.677	-8191	255	
1181.894	1	1	0	0	0.1428	0.28569	0.10688	0.29992	0.13257	0.3011	0.058053	0.25075	0.2524	0.098851	0.14079	0.31209	0.088329	0.16366	0.049966	0.26217	-1.8333	-1.7021	-1.6833	-2.15	-1.8667	-2.0833	-2.3208	-1.5042	-2.0792	-2.0104	-1.9146	-2.2979	-1.8354	-2.2083	-2.1083	-1.9375	203.444	288.089	217.384	135.033	315.609	238.544	193.682	143.713	142.563	60.558	200.717	93.151	137.647	42.901	111.442	292.630	0.00044117	0.00015118	9.6827e-05	1029.3	1.3638e-06	2.5512e-06	1114.4	214.17	2.0011e-06	2.584e-06	274.3	76.671	60.165	17.753	4.3768e-06	24.87	6.1199e-05	4.9399e-05	1.3546e-05	992.68	5.8726e-07	5.4229e-07	1084.1	208.99	5.6338e-07	5.4257e-07	256.99	74.994	56.161	17.466	5.329e-07	24.476	50.293	77.233	139.707	35.980	122.674	202.588	35.919	43.460	142.106	204.518	43.458	49.998	49.852	57.705	166.433	56.911	-8191	255	
1182.015	1	1	0	0	0.26289	0.33775	0.16501	0.20634	0.20761	0.18408	0.20981	0.38148	0.19898	0.13217	0.16662	0.17788	0.10376	0.14553	0.19673	0.14979	-1.7021	-2.0438	-1.6875	-2.3563	-2.0563	-1.8875	-2.1771	-1.9375	-2.2021	-2.1771	-1.9021	-2.4688	-1.8813	-1.8833	-2.4708	-1.9521	296.435	150.832	78.195	57.869	226.548	54.702	323.017	171.699	167.589	125.304	115.367	42.018	373.219	352.103	247.797	309.440	0.0005285	0.00028194	7.9162e-05	1027	4.2643e-06	1.4764e-06	1116.7	212.63	2.8435e-06	2.001e-06	275.06	76.682	59.72	17.561	4.2604e-06	24.942	6.1147e-05	4.9567e-05	1.4386e-05	991.44	5.9156e-07	5.5316e-07	1087.3	208.91	5.7051e-07	5.333e-07	256.97	75.075	56.064	17.416	5.5981e-07	24.455	58.849	137.144	147.253	35.762	177.781	201.530	36.137	43.554	126.338	297.737	43.075	49.885	50.735	57.404	133.779	57.191	-8191	255	
1182.111	1	1	0	0	0.20955	0.074201	0.21416	0.28273	0.16552	0.12744	0.1387	0.3451	0.20382	0.12316	0.13209	0.11142	0.23446	0.084045	0.20763	0.215	-1.6396	-1.9333	-1.7979	-2.2333	-2.1083	-1.7437	-2.3396	-1.9417	-1.8854	-2.1979	-1.8312	-2.1875	-2.1063	-2.1146	-2.4083	-1.8896	258.604	316.589	124.389	288.772	123.202	299.266	285.253	351.272	163.632	334.616	36.119	49.703	325.494	326.269	28.619	240.932	0.0005286	0.00014577	7.7845e-05	1024.7	2.2383e-06	1.9916e-06	1116.5	213.81	3.9137e-06	2.2553e-06	272.46	76.425	59.725	17.666	3.9185e-06	24.658	6.3856e-05	5.0183e-05	1.4735e-05	988.94	5.8225e-07	5.451e-07	1085.3	209.14	5.6751e-07	5.5828e-07	256.14	74.79	55.957	17.417	5.533e-07	24.398	55.194	123.131	86.398	35.763	220.426	186.293	36.177	43.604	162.481	182.691	42.985	49.877	50.543	57.617	137.827	56.574	-8191	255	
1182.207	1	1	0	0	0.1216	0.31045	0.029947	0.029434	0.037825	0.21014	0.19245	0.17219	0.23226	0.21884	0.12261	0.2079	0.099441	0.20456	0.22357	0.063916	-1.4896	-2.0292	-1.5479	-2.1104	-2.0104	-2.1396	-2.4229	-1.9562	-2.0083	-2.3333	-1.925	-2.2646	-2.0396	-1.8125	-2.1458	-1.8042	80.178	316.497	230.890	104.133	65.375	123.350	298.327	331.706	370.630	94.335	208.198	307.014	301.292	26.825	299.161	42.074	0.00050155	0.00033658	2.7916e-05	1022.8	3.1086e-06	2.0153e-06	1110.7	213.12	3.1392e-06	1.3421e-06	273.35	76.589	59.735	17.661	3.3404e-06	24.816	6.1339e-05	4.9047e-05	1.3993e-05	990.49	5.6993e-07	5.6303e-07	1084.8	209.1	5.9329e-07	5.4199e-07	256.18	74.91	56.156	17.4	5.649e-07	24.4	56.771	139.932	125.877	35.927	119.945	200.219	35.786	43.874	181.293	224.422	43.130	49.932	50.382	57.191	142.171	56.804	-8191	255	
1182.279	1	1	0	0	0.11862	0.076512	0.11733	0.25626	0.06651	0.21143	0.065616	0.070483	0.14772	0.31326	0.028565	0.033668	0.11762	0.29378	0.14428	0.15223	-1.5562	-1.9667	-1.3479	-2.0125	-1.9479	-1.6812	-2.2625	-2.0062	-1.8729	-2.3958	-2	-2.075	-2.2	-1.6688	-2.2	-2.1125	256.592	281.774	246.484	316.121	231.249	153.411	248.613	134.485	294.831	134.632	78.890	378.848	67.717	296.263	286.754	193.358	0.00050104	0.00024737	1.0198e-05	1026.2	1.8283e-06	3.5866e-06	1113.2	214.33	2.6996e-06	2.4799e-06	270.07	76.387	59.981	17.484	8.1694e-07	24.9	6.4343e-05	4.9552e-05	1.4457e-05	991.1	5.9523e-07	5.6756e-07	1083.8	208.89	5.9883e-07	5.6453e-07	255.14	74.976	56.205	17.346	5.8639e-07	24.429	61.581	131.727	181.375	36.126	160.972	168.929	35.876	43.885	126.659	195.776	43.456	50.085	50.281	56.995	130.328	56.677	-8191	255	
1182.400	1	1	0	0	0.2178	0.17017	0.021844	0.25796	0.22416	0.27102	0.26015	0.4235	0.32603	0.15329	0.14339	0.18022	0.058549	0.22783	0.23115	0.34164	-1.4021	-2.2604	-1.8875	-2.3271	-1.9417	-1.8146	-2.2979	-2.1813	-1.8208	-2.2687	-1.9771	-1.9146	-2.1813	-1.6333	-2.0438	-1.9625	217.342	205.323	172.987	348.508	264.001	156.424	113.345	380.086	119.960	149.554	115.107	302.238	286.558	381.838	214.820	319.423	0.00047708	0.0003242	8.2499e-05	1027.9	4.3119e-06	1.6895e-06	1114.9	213.74	2.5061e-06	2.3225e-06	274.33	76.123	60.654	17.63	3.2027e-06	24.62	6.4877e-05	5.3077e-05	1.4716e-05	991.56	5.8951e-07	5.7743e-07	1086.2	208.77	6.0662e-07	5.487e-07	256.7	74.776	56.292	17.392	5.6248e-07	24.417	53.347	136.114	162.324	36.012	130.818	206.101	36.050	43.575	179.781	151.771	42.651	49.861	50.557	57.203	176.898	56.862	-8191	255	
1182.496	1	1	0	0	0.22519	0.17779	0.24116	0.072012	0.28787	0.19265	0.33978	0.18398	0.28114	0.26757	0.23943	0.046633	0.1677	0.42296	0.12534	0.32318	-1.2146	-1.9167	-1.9583	-1.8833	-2.3083	-1.7896	-2.2667	-2.1771	-1.7396	-2.3187	-1.8708	-1.9188	-2.3063	-1.975	-2.0042	-1.95	224.795	214.575	42.048	265.654	127.905	57.428	341.946	293.473	78.657	219.578	314.894	375.465	234.062	371.349	148.061	49.250	0.00045901	0.00033493	0.00010663	1019.8	4.0389e-06	2.05e-06	1114.5	212.34	4.3199e-06	2.3788e-06	273.61	76.575	59.003	17.672	1.9156e-06	24.77	6.3466e-05	5.3256e-05	1.4529e-05	987.23	5.8045e-07	5.8335e-07	1086.2	208.81	5.9612e-07	5.4421e-07	256.02	74.912	55.846	17.416	5.4675e-07	24.411	56.928	107.752	118.899	35.796	162.020	134.492	36.124	43.808	171.297	188.629	43.298	50.176	50.711	57.162	310.391	57.209	-8191	255	
1182.592	1	1	0	0	0.062663	0.03521	0.19153	0.16874	0.41611	0.10863	0.31523	0.32894	0.026128	0.24102	0.011628	0.075261	0.12644	0.0082064	0.087458	0.22456	-1.3146	-2.1979	-1.9979	-1.9562	-2.1833	-1.8271	-2.2167	-2.1437	-1.6021	-2.1542	-2.0021	-1.7583	-2.2458	-1.875	-2.0187	-2.3792	68.326	180.750	199.037	352.761	281.955	167.340	262.434	287.299	68.048	227.155	185.281	163.977	112.962	145.794	156.459	284.036	0.00046156	8.9273e-05	3.1533e-05	1025.9	2.6466e-06	6.3413e-07	1114.6	214.15	4.9517e-06	1.0855e-06	275.14	76.796	60.061	17.57	3.5574e-06	24.812	6.4804e-05	5.0141e-05	1.4357e-05	990.51	5.7364e-07	5.7671e-07	1084.5	209.09	6.1241e-07	5.4236e-07	255.85	75.087	56.089	17.418	5.6866e-07	24.408	52.083	75.791	184.428	36.113	155.367	222.193	35.922	43.823	176.016	228.371	42.872	50.026	50.967	57.598	136.061	57.314	-8191	255	
1182.688	1	1	0	0	0.29516	0.023497	0.18134	0.29835	0.0053375	0.067122	0.32229	0.12682	0.084272	0.16216	0.17176	0.36933	0.099615	0.06036	0.046855	0.22122	-1.2271	-2.1667	-1.9188	-1.5896	-2.2042	-1.6458	-2.0687	-1.9958	-1.7542	-2.3167	-2.2	-1.7042	-2.2938	-1.7958	-2.1333	-2.2521	333.917	122.860	342.248	256.053	142.566	229.142	328.964	151.141	341.483	122.064	42.384	49.727	230.267	72.021	259.591	358.300	0.00049332	0.00036634	5.7457e-05	1018.3	4.4369e-06	4.6723e-06	1113.2	212.54	2.9752e-06	2.4111e-06	273.75	76.761	60.301	17.666	3.0882e-06	24.755	6.3948e-05	5.1125e-05	1.3998e-05	990.22	5.5569e-07	5.4997e-07	1084.7	208.69	5.8175e-07	5.4459e-07	255.2	75.195	56.226	17.46	5.604e-07	24.434	50.788	123.531	136.719	36.124	185.157	205.283	36.149	43.481	160.727	139.044	42.597	49.747	50.323	57.800	134.524	56.240	-8191	255	
1182.807	1	1	0	0	0.09833	0.1983	0.40142	0.19136	0.18048	0.10362	0.26397	0.14648	0.1199	0.134	0.10182	0.038398	0.24105	0.13176	0.028325	0.07127	-1.2667	-1.9125	-1.8792	-1.8354	-2.2229	-1.9083	-2.0917	-2.3729	-1.6938	-1.8	-2.0333	-1.7812	-2.0854	-2.0604	-2.0667	-2.2083	76.808	336.574	58.679	313.977	60.078	336.937	268.124	296.671	159.257	317.751	50.850	74.115	77.427	207.251	91.047	306.759	0.00058794	0.00023507	7.9764e-05	1028.9	4.4041e-06	1.3561e-06	1119.5	213.7	4.1704e-06	2.344e-06	275.95	77.012	60.568	17.561	1.1863e-06	25.013	6.3075e-05	4.892e-05	1.3788e-05	991.55	5.7323e-07	5.5295e-07	1085.1	209.27	5.7888e-07	5.6273e-07	256.76	75.058	56.187	17.434	5.765e-07	24.485	51.086	122.266	123.196	35.801	134.865	163.006	35.916	43.768	141.199	171.577	42.983	50.078	51.099	57.533	188.394	57.035	-8191	255	
1182.879	1	1	0	0	0.19267	0.095933	0.12143	0.22487	0.1417	0.27001	0.44478	0.13479	0.1036	0.1829	0.077339	0.085553	0.012193	0.153	0.12689	0.13958	-1.4646	-2.2271	-2.1208	-1.7417	-2.1188	-1.8813	-2.1146	-2.275	-1.8625	-2.1646	-2.0521	-1.8896	-2.2938	-2.0208	-1.8667	-2.2458	38.234	148.471	231.274	297.917	159.031	64.372	281.091	293.101	84.963	263.489	253.604	196.181	290.561	303.084	210.489	173.864	0.00054319	0.00036651	4.5495e-05	1024.9	3.0752e-06	2.6797e-06	1113.2	213.92	2.1868e-06	3.5964e-06	272.14	76.179	59.636	17.553	2.6648e-06	24.651	6.2131e-05	5.1546e-05	1.3788e-05	989.09	5.7177e-07	5.4224e-07	1084.4	208.79	5.7388e-07	5.4988e-07	256.19	75.041	56.164	17.386	5.4867e-07	24.404	55.611	110.304	120.180	35.923	142.278	195.921	36.258	43.755	139.158	150.840	43.656	50.312	51.116	57.521	176.813	56.970	-8191	255	
1182.977	1	1	0	0	0.23814	0.19492	0.088221	0.36525	0.095069	0.16484	0.26947	0.12676	0.20262	0.061249	0.19353	0.26548	0.2251	0.23896	0.28862	0.034506	-1.2146	-1.8458	-1.9792	-1.9958	-2.0938	-2.1	-1.9458	-2.0812	-1.875	-2.0646	-2.3396	-1.9937	-2.2604	-2.1521	-1.9083	-2.1917	264.687	107.896	196.381	285.466	206.667	235.551	357.263	254.867	99.441	264.502	290.525	59.746	131.218	109.804	194.477	114.655	0.00046199	0.00016471	5.3946e-05	1024.3	3.7413e-06	2.0027e-06	1111.9	214.87	1.8921e-06	4.5507e-07	276.69	76.511	59.89	17.561	4.381e-06	24.919	6.1921e-05	4.9774e-05	1.4078e-05	989.86	5.7168e-07	5.1802e-07	1082.8	209.42	5.8433e-07	5.6621e-07	257.07	74.788	55.886	17.416	5.6248e-07	24.5	55.264	126.098	108.941	35.993	191.411	175.506	36.056	43.563	150.650	242.246	42.986	49.927	50.264	57.428	176.139	56.652	-8191	255	
1183.095	1	1	0	0	0.12247	0.20556	0.18404	0.11493	0.21536	0.18409	0.28734	0.30416	0.094399	0.16398	0.1608	0.13901	0.20785	0.10975	0.15128	0.22946	-1.6458	-1.9875	-2.275	-1.9312	-2.0792	-1.9813	-1.4896	-2.1167	-1.8083	-1.875	-2.3083	-1.7708	-2.1479	-2.1833	-1.55	-2.0438	193.685	144.560	209.580	379.162	193.197	214.025	333.023	307.967	120.816	288.300	234.978	383.474	324.863	353.177	158.797	97.294	0.00049191	0.00031862	3.0527e-05	1024.8	5.0259e-06	1.3618e-06	1115.8	212.81	1.932e-06	4.9169e-06	272.37	76.647	60.102	17.62	5.557e-06	24.699	6.3071e-05	4.987e-05	1.3683e-05	988.32	5.6684e-07	5.3528e-07	1083.4	209.12	5.7321e-07	5.5496e-07	256.34	75.005	55.81	17.406	5.3119e-07	24.421	51.700	120.187	73.156	35.930	122.969	131.479	36.127	43.720	168.757	184.079	43.591	49.820	51.182	57.337	161.303	56.881	-8191	255	
1183.192	1	1	0	0	0.17412	0.21157	0.16281	0.24542	0.18254	0.25518	0.13186	0.035582	0.18913	0.15045	0.22365	0.32349	0.10335	0.24357	0.1984	0.14463	-1.3833	-1.8229	-2.05	-1.8333	-1.9833	-2.4229	-1.9104	-2.2125	-1.9062	-1.9729	-2.2729	-1.9312	-2.0917	-2.2188	-1.6646	-2.0896	292.651	241.093	36.566	51.020	310.462	119.379	175.493	302.584	349.624	215.969	101.016	318.095	167.150	304.594	223.258	361.371	0.00053376	0.00041921	4.5527e-05	1022.1	2.696e-06	9.4071e-07	1116.3	213.53	3.4554e-06	2.6611e-06	271.68	76.282	60.422	17.624	1.1145e-06	24.736	6.1873e-05	5.0363e-05	1.384e-05	988.04	5.5415e-07	5.2344e-07	1083.5	209.52	5.9604e-07	5.3325e-07	255.85	75.09	56.184	17.404	5.4629e-07	24.421	54.801	166.228	119.433	36.034	137.917	194.061	36.070	43.796	160.093	233.180	42.789	50.173	50.660	57.438	115.046	56.969	-8191	255	
1183.288	1	1	0	0	0.215	0.28039	0.16663	0.30396	0.14442	0.092053	0.37397	0.18018	0.27224	0.26128	0.2493	0.11704	0.28587	0.21061	0.21632	0.34192	-1.3563	-1.6042	-2.1604	-2.0042	-2.1729	-2.2021	-1.8354	-2.0104	-1.9333	-1.4542	-2.2771	-1.9312	-1.9271	-2.1333	-1.6	-1.95	195.750	317.779	181.258	222.865	385.438	249.425	344.841	375.515	335.612	357.420	379.660	347.428	246.600	350.178	365.478	378.711	0.000493	0.00012201	6.2268e-05	1021.8	1.7927e-06	4.1165e-06	1110.3	214.11	4.6416e-06	2.6301e-06	274.43	76.744	60.446	17.657	3.088e-06	24.72	6.1243e-05	4.9693e-05	1.3827e-05	986.33	5.9323e-07	5.3834e-07	1082.8	208.96	5.7609e-07	5.6735e-07	255.59	75.188	56.34	17.399	5.5722e-07	24.394	53.369	174.593	91.791	36.108	135.458	180.580	35.695	44.072	142.848	192.033	43.268	50.573	50.419	57.443	143.809	56.803	-8191	255	
1183.408	1	1	0	0	0.138	0.18764	0.048306	0.028528	0.24329	0.10311	0.27645	0.077131	0.078253	0.30943	0.076596	0.048485	0.1075	0.083531	0.22947	0.17813	-1.6458	-1.6521	-2.4479	-1.9188	-1.975	-2.1437	-1.8208	-2.1937	-2.1854	-1.8312	-2.2292	-1.9542	-1.7563	-2.3667	-1.8792	-2.0458	271.520	320.502	85.509	75.578	203.793	126.851	327.275	214.605	330.061	65.888	164.059	374.306	379.057	243.290	26.432	362.642	0.00048235	0.00022361	6.6689e-05	1026.3	1.7846e-06	2.0526e-06	1109.5	213.99	3.7495e-06	4.2526e-06	275.43	76.501	59.671	17.729	2.2556e-06	24.731	6.1755e-05	5.1209e-05	1.4178e-05	988.16	5.9602e-07	5.3406e-07	1081.8	209.18	5.8862e-07	5.6655e-07	257.1	75.139	55.908	17.436	5.6544e-07	24.378	51.325	110.771	129.768	35.777	153.535	208.496	36.148	43.916	135.401	196.559	43.375	50.071	50.909	57.296	152.749	56.757	-8191	255	
1183.504	1	1	0	0	0.27811	0.18769	0.28029	0.030643	0.34871	0.17649	0.22687	0.33529	0.19143	0.07175	0.26289	0.11941	0.2105	0.057118	0.13044	0.10779	-1.6938	-1.5542	-1.9312	-1.9083	-1.4438	-2.1562	-1.875	-1.9625	-2.1167	-1.8458	-2.2812	-1.9937	-1.7042	-2.1667	-2.0312	-1.7354	383.812	289.312	96.017	75.926	58.790	179.594	258.577	354.101	79.969	52.047	294.387	182.379	159.809	165.674	266.346	42.337	0.0005947	9.5034e-05	6.3746e-05	1019.9	2.5986e-06	1.8417e-06	1111.6	214.25	2.002e-06	3.5562e-06	273.06	76.461	59.672	17.68	1.4623e-06	24.764	6.4398e-05	5.0976e-05	1.4031e-05	987.51	5.9636e-07	5.4758e-07	1083.3	209.41	5.8708e-07	5.6004e-07	256.61	75.115	56.079	17.44	5.8652e-07	24.388	52.165	125.073	131.218	35.890	151.265	157.290	36.130	43.795	154.302	156.109	43.213	49.874	50.619	57.470	142.938	56.649	-8191	255	
1183.576	1	1	0	0	0.20699	0.036291	0.24313	0.072498	0.02152	0.13025	0.11693	0.37618	0.17287	0.17494	0.25359	0.27916	0.094844	0.19804	0.049808	0.21449	-1.6625	-1.8458	-2.2708	-2.1875	-1.6812	-2.0938	-1.9229	-1.7729	-2.0646	-1.5646	-2.0583	-2.0312	-1.7938	-2.0854	-1.975	-1.8854	375.586	220.984	228.788	382.471	68.080	301.976	326.143	275.757	161.897	302.215	225.282	314.486	144.328	302.011	270.901	382.810	0.0005335	0.00028231	7.1713e-05	1021.7	2.2326e-06	1.5665e-06	1112.1	214.42	1.8578e-06	1.8356e-06	274.45	76.667	60.292	17.683	1.2305e-06	24.825	6.4372e-05	5.1408e-05	1.39e-05	987.84	5.916e-07	5.6282e-07	1082.9	209.83	5.8292e-07	5.4488e-07	256.04	75.19	56.544	17.428	5.6757e-07	24.493	51.925	159.081	119.034	35.792	165.150	227.551	36.046	43.686	172.012	155.258	43.516	49.911	50.469	57.251	100.037	56.722	-8191	255	
1183.672	1	1	0	0	0.11184	0.037933	0.30048	0.17309	0.12414	0.089067	0.11433	0.15107	0.27395	0.37696	0.11291	0.051407	0.21062	0.13653	0.3066	0.3045	-1.8687	-1.8458	-2.0021	-2.0958	-1.6542	-2.2479	-2.0479	-2.1354	-2.1021	-1.7979	-2.2875	-2.2646	-1.9771	-2.2188	-2.05	-2.0062	157.454	258.439	222.980	269.835	340.413	367.233	240.753	298.065	48.110	216.630	154.724	311.460	157.665	288.606	130.000	133.679	0.00052818	0.00042731	0.00010453	1020.8	2.4692e-06	3.2066e-06	1110.8	214.44	5.4924e-07	2.1292e-06	275.1	76.559	60.117	17.765	3.4485e-06	24.767	6.2548e-05	5.1534e-05	1.4206e-05	987.34	5.9064e-07	5.6282e-07	1083	209.45	5.9554e-07	5.6726e-07	257.44	75.209	56.147	17.51	5.7984e-07	24.448	52.036	151.832	102.590	36.026	106.247	231.705	35.848	43.704	307.532	176.245	43.494	49.983	50.729	57.721	196.024	56.701	-8191	255	
1183.791	1	1	0	0	0.20124	0.14046	0.03275	0.24592	0.1921	0.18566	0.28478	0.25412	0.27152	0.2344	0.12375	0.15532	0.1349	0.1565	0.28596	0.056588	-1.9375	-1.7812	-1.8708	-2.225	-1.7437	-2.0333	-2.3083	-1.9562	-2.4417	-1.9688	-1.8062	-1.9	-1.7021	-1.9917	-2.1208	-2.0062	229.161	116.826	151.342	340.012	171.786	27.024	264.935	26.345	361.650	331.991	250.598	127.326	246.869	75.367	254.080	347.847	0.00046101	0.00018999	2.5017e-05	1022.9	4.6119e-06	1.742e-06	1117.1	215.08	2.6654e-06	4.1417e-06	274.81	77.208	59.982	17.623	2.4501e-06	24.864	6.2338e-05	5.2744e-05	1.452e-05	989.01	6.0488e-07	5.7684e-07	1085.6	210	5.8812e-07	5.6269e-07	256.83	75.256	56.33	17.453	5.909e-07	24.517	38.825	112.279	154.400	35.849	145.919	203.014	35.932	43.485	141.330	189.025	43.508	49.765	49.978	57.865	169.081	57.025	-8191	255	
1183.887	1	1	0	0	0.050252	0.22916	0.1583	0.086809	0.28786	0.11198	0.34562	0.16215	0.21933	0.39398	0.14673	0.35349	0.28555	0.38049	0.15081	0.31042	-1.9229	-1.7792	-1.5958	-2.1917	-1.6917	-2.0479	-2.3729	-1.9396	-2.0146	-1.9833	-1.9083	-1.9958	-1.4771	-2.0604	-2.0312	-1.85	249.409	34.962	163.079	287.557	263.342	317.694	325.189	228.373	98.750	368.484	69.294	341.298	359.051	81.170	188.289	374.421	0.00049665	0.00013302	0.00010088	1025.7	3.1483e-06	1.5888e-06	1109.2	215.54	1.9165e-06	2.6452e-06	271.37	76.696	60.358	17.573	3.2289e-06	24.968	6.1921e-05	5.0329e-05	1.4456e-05	989.12	6.0287e-07	5.3687e-07	1085.4	210.05	5.7867e-07	5.7625e-07	256.14	75.297	56.229	17.474	5.606e-07	24.511	65.705	123.502	130.523	36.119	174.400	233.703	35.952	43.790	173.287	178.306	43.177	50.209	50.681	57.339	136.780	56.588	-8191	255	
1183.984	1	1	0	0	0.32099	0.12189	0.056302	0.32583	0.23709	0.15048	0.033901	0.20001	0.22331	0.24536	0.13192	0.29159	0.19414	0.077661	0.12967	0.132	-1.8458	-1.8542	-1.9083	-2.2375	-1.7313	-1.9062	-2.0938	-1.7313	-2.325	-2.0396	-1.7292	-2.0417	-1.7083	-1.9292	-2.1063	-1.7167	26.644	371.280	253.095	293.866	260.758	77.984	197.458	341.352	163.949	232.102	296.156	373.381	207.084	374.805	157.290	299.747	0.00052202	0.00027407	6.91e-05	1028.2	5.0729e-06	4.1041e-06	1119.3	215.15	2.7925e-06	1.1152e-06	274.24	76.967	60.318	17.717	1.2913e-06	24.791	6.194e-05	5.158e-05	1.4742e-05	991.27	6.0692e-07	5.7268e-07	1086.4	210.54	5.9562e-07	5.5408e-07	257.01	75.406	56.346	17.498	5.8259e-07	24.532	55.101	202.362	105.177	35.911	123.497	160.008	35.822	43.544	158.421	162.746	43.022	49.869	50.854	57.406	190.287	56.288	-8191	255	
#DATA ENDS
