BOXY.EXE: ISS Imagent and Oximeter Data Acquisition Program Version 0.80
Ascii Record File

#ACQ INFORMATION
2  Detector Channels 
16  External MUX Channels 
1  Auxiliary Channels 
5000  Waveform (CCF) Frequency (Hz)
1  Waveforms Skipped 
30  Waveforms Averaged 
1  Cycles Averaged 
16  Acquisitions per Waveform 
10.0806  Updata Rate (Hz) 

#FILE INFORMATION
TRUE -- External MUX Channel results are PARSED.
FALSE -- AC DC and Phase are NOT grouped.
TRUE -- Companion Program Settings File CREATED.
FALSE -- AC data not excluded
FALSE -- DC data not excluded
FALSE -- Phase data not excluded
FALSE -- Auxillary Chn. data not excluded
Tab delimiters

#CALIBRATION STATE
TRUE -- Waveform Calibration Values APPLIED.


#AUX CALIBRATION VALUES
Val Type	aux-1	

Term	1.0000e+00	
Factor	0.0000e+00	


#WF CALIBRATION VALUES
A = Detector Channel
Val Type	A-AC1	A-AC2	A-AC3	A-AC4	A-AC5	A-AC6	A-AC7	A-AC8	A-AC9	A-AC10	A-AC11	A-AC12	A-AC13	A-AC14	A-AC15	A-AC16	A-DC1	A-DC2	A-DC3	A-DC4	A-DC5	A-DC6	A-DC7	A-DC8	A-DC9	A-DC10	A-DC11	A-DC12	A-DC13	A-DC14	A-DC15	A-DC16	A-Ph1	A-Ph2	A-Ph3	A-Ph4	A-Ph5	A-Ph6	A-Ph7	A-Ph8	A-Ph9	A-Ph10	A-Ph11	A-Ph12	A-Ph13	A-Ph14	A-Ph15	A-Ph16	

Term	0.00000e+00	0.00000e+00	0.00000e+00	0.00000e+00	0.00000e+00	0.00000e+00	0.00000e+00	0.00000e+00	0.00000e+00	0.00000e+00	0.00000e+00	0.00000e+00	0.00000e+00	0.00000e+00	0.00000e+00	0.00000e+00	0.00000e+00	0.00000e+00	0.00000e+00	0.00000e+00	0.00000e+00	0.00000e+00	0.00000e+00	0.00000e+00	0.00000e+00	0.00000e+00	0.00000e+00	0.00000e+00	0.00000e+00	0.00000e+00	0.00000e+00	0.00000e+00	0.00000e+00	0.00000e+00	0.00000e+00	0.00000e+00	0.00000e+00	0.00000e+00	0.00000e+00	0.00000e+00	0.00000e+00	0.00000e+00	0.00000e+00	0.00000e+00	0.00000e+00	0.00000e+00	0.00000e+00	0.00000e+00	
Factor	1.00000e+00	1.00000e+00	1.00000e+00	1.00000e+00	1.00000e+00	1.00000e+00	1.00000e+00	1.00000e+00	1.00000e+00	1.00000e+00	1.00000e+00	1.00000e+00	1.00000e+00	1.00000e+00	1.00000e+00	1.00000e+00	1.00000e+00	1.00000e+00	1.00000e+00	1.00000e+00	1.00000e+00	1.00000e+00	1.00000e+00	1.00000e+00	1.00000e+00	1.00000e+00	1.00000e+00	1.00000e+00	1.00000e+00	1.00000e+00	1.00000e+00	1.00000e+00	X	X	X	X	X	X	X	X	X	X	X	X	X	X	X	X	

B = Detector Channel
Val Type	B-AC1	B-AC2	B-AC3	B-AC4	B-AC5	B-AC6	B-AC7	B-AC8	B-AC9	B-AC10	B-AC11	B-AC12	B-AC13	B-AC14	B-AC15	B-AC16	B-DC1	B-DC2	B-DC3	B-DC4	B-DC5	B-DC6	B-DC7	B-DC8	B-DC9	B-DC10	B-DC11	B-DC12	B-DC13	B-DC14	B-DC15	B-DC16	B-Ph1	B-Ph2	B-Ph3	B-Ph4	B-Ph5	B-Ph6	B-Ph7	B-Ph8	B-Ph9	B-Ph10	B-Ph11	B-Ph12	B-Ph13	B-Ph14	B-Ph15	B-Ph16	

Term	0.00000e+00	0.00000e+00	0.00000e+00	0.00000e+00	0.00000e+00	0.00000e+00	0.00000e+00	0.00000e+00	0.00000e+00	0.00000e+00	0.00000e+00	0.00000e+00	0.00000e+00	0.00000e+00	0.00000e+00	0.00000e+00	0.00000e+00	0.00000e+00	0.00000e+00	0.00000e+00	0.00000e+00	0.00000e+00	0.00000e+00	0.00000e+00	0.00000e+00	0.00000e+00	0.00000e+00	0.00000e+00	0.00000e+00	0.00000e+00	0.00000e+00	0.00000e+00	-1.05965e+02	-1.56111e+02	-1.48605e+02	-1.82042e+02	-7.22977e+01	-1.02197e+02	-1.59448e+02	-1.62015e+02	-9.03389e+01	-1.32051e+02	-1.72392e+02	-1.70614e+02	-1.80757e+02	-1.75617e+02	-9.89953e+01	-1.48615e+02	
Factor	1.60597e-05	5.18742e-05	1.64013e-05	2.08848e-01	6.64679e-07	5.61889e-07	2.24718e-01	5.21771e-02	4.64186e-07	5.24228e-07	9.25625e-02	3.22777e-02	3.61103e-02	8.69954e-03	5.47237e-07	1.34977e-02	1.86012e-07	1.86040e-07	5.21173e-08	8.53556e-02	2.04850e-09	2.03972e-09	8.60063e-02	2.18117e-02	2.05263e-09	2.03775e-09	3.43921e-02	1.19759e-02	1.28816e-02	3.38618e-03	2.06353e-09	4.85132e-03	X	X	X	X	X	X	X	X	X	X	X	X	X	X	X	X	



#DISTANCE SETTINGS
A = Detector Channel
A-1	A-2	A-3	A-4	A-5	A-6	A-7	A-8	A-9	A-10	A-11	A-12	A-13	A-14	A-15	A-16	

2.5000e+00	3.0000e+00	2.5000e+00	3.0000e+00	2.0000e+00	3.0000e+00	1.5000e+00	3.0000e+00	3.0000e+00	3.0000e+00	3.0000e+00	3.0000e+00	3.0000e+00	3.0000e+00	1.5000e+00	3.0000e+00	

B = Detector Channel
B-1	B-2	B-3	B-4	B-5	B-6	B-7	B-8	B-9	B-10	B-11	B-12	B-13	B-14	B-15	B-16	

1.0000e+01	1.0000e+01	1.0000e+01	1.4400e+00	1.0000e+01	1.0000e+01	1.5100e+00	1.9400e+00	1.0000e+01	1.0000e+01	1.9900e+00	2.4900e+00	2.4100e+00	2.9000e+00	1.0000e+01	2.9800e+00	




#DATA BEGINS
time	group	step	mark	flag	A-AC1	A-AC2	A-AC3	A-AC4	A-AC5	A-AC6	A-AC7	A-AC8	A-AC9	A-AC10	A-AC11	A-AC12	A-AC13	A-AC14	A-AC15	A-AC16	A-DC1	A-DC2	A-DC3	A-DC4	A-DC5	A-DC6	A-DC7	A-DC8	A-DC9	A-DC10	A-DC11	A-DC12	A-DC13	A-DC14	A-DC15	A-DC16	A-Ph1	A-Ph2	A-Ph3	A-Ph4	A-Ph5	A-Ph6	A-Ph7	A-Ph8	A-Ph9	A-Ph10	A-Ph11	A-Ph12	A-Ph13	A-Ph14	A-Ph15	A-Ph16	B-AC1	B-AC2	B-AC3	B-AC4	B-AC5	B-AC6	B-AC7	B-AC8	B-AC9	B-AC10	B-AC11	B-AC12	B-AC13	B-AC14	B-AC15	B-AC16	B-DC1	B-DC2	B-DC3	B-DC4	B-DC5	B-DC6	B-DC7	B-DC8	B-DC9	B-DC10	B-DC11	B-DC12	B-DC13	B-DC14	B-DC15	B-DC16	B-Ph1	B-Ph2	B-Ph3	B-Ph4	B-Ph5	B-Ph6	B-Ph7	B-Ph8	B-Ph9	B-Ph10	B-Ph11	B-Ph12	B-Ph13	B-Ph14	B-Ph15	B-Ph16	aux-1	digaux	

1425.446	1	1	0	768	0.10592	0.16483	0.17332	0.0592	0.13098	0.21807	0.21148	0.15265	0.15611	0.32333	0.043924	0.25455	0.22779	0.12847	0.16603	0.29177	-0.53958	-0.81042	-1.5292	-0.82292	-1.2521	-1.3479	-0.62708	-1.5417	-0.89375	-0.93333	-1.6521	-0.7625	-1.0812	-1.3792	-0.6	-1.3667	319.089	122.119	368.192	418.726	364.470	332.267	395.364	474.119	407.506	120.555	466.994	314.117	367.705	322.086	415.193	421.099	0.00024343	0.0003225	6.0982e-05	1067.2	1.0157e-06	1.6909e-06	1165.1	224.17	1.1751e-06	1.061e-06	279.91	76.363	59.944	17.325	1.5707e-06	24.501	9.9672e-05	8.5508e-05	2.3261e-05	893.9	1.0608e-06	9.587e-07	965.5	193.46	1.0693e-06	9.2974e-07	226.67	63.673	48.04	14.943	8.8785e-07	20.467	204.486	211.907	462.042	127.088	130.776	145.119	127.497	134.491	344.865	216.547	134.355	140.956	141.399	148.377	238.831	148.234	-8191	255	
1425.543	1	1	0	0	0.094079	0.10428	0.268	0.17827	0.20267	0.072069	0.2001	0.21046	0.10113	0.1032	0.11021	0.11801	0.16303	0.18903	0.23363	0.42339	-0.5375	-0.72292	-1.5542	-0.84375	-1.0854	-1.3854	-0.66875	-1.4771	-1.0417	-0.90417	-1.6063	-0.87292	-0.90208	-1.4438	-0.56875	-1.5208	377.744	301.543	391.895	132.003	332.767	222.583	411.955	451.452	223.623	120.895	423.314	392.575	257.830	393.217	215.236	351.946	0.00015089	0.00014369	8.6454e-05	1065.4	2.3137e-06	6.5496e-07	1165.5	223.83	3.576e-06	2.2485e-06	280.29	77.187	60.129	17.25	3.5389e-06	24.62	9.7415e-05	8.3198e-05	2.3166e-05	895.54	1.0135e-06	9.3061e-07	964.39	194	1.0209e-06	8.9594e-07	227.46	64.038	47.647	14.932	9.1768e-07	20.675	207.375	441.180	181.661	126.881	330.601	183.127	126.745	133.864	284.398	118.041	133.485	139.830	140.265	147.227	228.933	147.273	-8191	255	
1425.639	1	1	0	0	0.17633	0.054856	0.42224	0.22831	0.14289	0.12429	0.30918	0.36324	0.192	0.17148	0.1471	0.10423	0.19481	0.21478	0.30977	0.16553	-0.87292	-0.74792	-1.4146	-0.8125	-0.83333	-1.4667	-0.83542	-1.2979	-1.2167	-0.62083	-1.4792	-0.57708	-0.85833	-1.4292	-0.44792	-1.1625	331.164	430.813	463.779	386.730	200.719	156.701	117.036	435.452	396.928	197.143	206.365	339.560	351.302	438.623	382.586	374.518	0.00030365	0.00032106	8.7926e-05	1066.8	2.6764e-06	8.7458e-07	1159.3	223.89	2.5466e-06	2.3459e-06	282.33	77.104	60.503	17.518	3.057e-06	24.528	9.3522e-05	8.1784e-05	2.4136e-05	899.79	9.8935e-07	9.2923e-07	966.33	194.89	9.9265e-07	8.8559e-07	229.28	64.464	47.86	15.011	9.8478e-07	20.752	206.587	467.905	144.379	126.045	292.643	215.793	126.049	133.598	361.482	202.769	133.057	139.877	140.222	146.991	193.344	146.644	-8191	255	
1425.735	1	1	0	0	0.078456	0.10694	0.072484	0.22653	0.076964	0.14593	0.32524	0.19891	0.19549	0.13045	0.15207	0.1279	0.091802	0.14936	0.1826	0.11073	-0.81458	-0.62083	-1.4625	-0.8375	-0.89167	-1.4333	-0.74583	-1.3021	-1.3875	-0.70833	-1.5917	-0.98333	-0.87292	-1.5917	-0.80833	-1.2062	134.208	359.929	332.422	383.308	202.528	470.593	398.846	212.757	332.572	257.414	441.930	370.631	276.978	184.868	457.439	238.251	0.00019277	0.00025272	5.0624e-05	1063.8	2.2181e-06	1.8479e-06	1163.8	224.66	2.0441e-06	3.8406e-06	282.09	77.112	60.355	17.482	2.2097e-06	24.717	9.0392e-05	8.0911e-05	2.5745e-05	900.83	9.4541e-07	9.1134e-07	970.99	194.89	9.6792e-07	8.7732e-07	230.86	64.334	47.575	15.05	1.0587e-06	20.691	213.622	225.745	212.500	126.022	129.347	162.077	126.413	133.369	315.648	117.552	132.913	139.723	140.032	147.098	130.245	146.585	-8191	255	
1425.829	1	1	0	0	0.36333	0.25748	0.0059297	0.032259	0.12133	0.14836	0.45594	0.158	0.19655	0.059135	0.26866	0.18015	0.20815	0.12523	0.23751	0.23861	-1.1458	-0.73542	-1.3771	-0.9875	-0.93333	-1.5583	-0.81042	-1.2437	-1.4604	-0.61875	-1.4562	-1.2354	-0.87292	-1.5083	-0.72292	-1.0958	465.087	199.652	121.894	360.737	356.626	220.678	470.249	401.623	294.913	389.481	466.623	223.509	446.300	120.757	189.493	358.109	0.00019868	0.00027076	9.525e-05	1068.6	2.7459e-06	1.4539e-06	1161.9	225.25	1.7401e-06	2.1529e-06	281.64	77.263	60.282	17.59	2.5451e-06	24.743	8.8833e-05	8.2261e-05	2.7239e-05	899.89	9.2166e-07	9.344e-07	976.13	194.82	9.5636e-07	9.1543e-07	231.43	64.186	47.556	15.125	1.1008e-06	20.596	214.299	123.350	157.217	126.143	407.641	178.488	126.365	133.353	169.479	136.495	133.564	139.571	140.334	146.761	261.202	146.794	-8191	255	
1425.927	1	1	0	0	0.14332	0.13035	0.24098	0.20093	0.11874	0.17605	0.28572	0.097644	0.18097	0.17264	0.070125	0.23107	0.26376	0.1111	0.10446	0.12017	-1.1354	-0.64375	-1.2646	-1.3271	-0.67917	-1.7208	-1.1187	-0.825	-1.6729	-0.78125	-1.2458	-1.25	-0.9125	-1.5208	-1.0688	-1.1313	399.815	120.598	239.442	409.980	385.590	307.169	451.816	245.541	122.623	247.315	455.792	165.029	463.303	254.339	459.665	415.126	0.00024458	0.00029884	4.8895e-05	1070	4.96e-07	4.063e-06	1160.5	224.78	7.8325e-07	1.2879e-06	282.19	76.612	60.556	17.607	1.0338e-06	24.574	8.6641e-05	8.6411e-05	2.7513e-05	897.4	8.9128e-07	9.8007e-07	975.56	194.15	9.2157e-07	9.7514e-07	231.01	63.798	47.34	15.165	1.0833e-06	20.453	190.506	189.179	155.906	126.225	185.696	211.675	126.443	133.576	236.714	127.409	133.241	139.897	139.913	146.698	351.689	146.592	-8191	255	
1426.046	1	1	0	0	0.049948	0.13872	0.17391	0.28095	0.12408	0.16462	0.3151	0.16972	0.19441	0.26585	0.26402	0.15176	0.12671	0.056889	0.10243	0.13497	-1.1125	-0.7375	-1.1958	-1.2958	-0.63542	-1.4729	-0.95833	-0.88958	-1.4833	-0.89167	-1.1375	-1.6271	-0.67917	-1.525	-1.0438	-0.66875	322.979	387.856	254.734	442.505	303.057	130.204	451.428	331.490	397.336	116.667	461.489	382.387	151.944	160.111	331.255	184.595	0.00031175	0.00023939	3.9153e-05	1067.6	1.5617e-06	2.078e-06	1162.2	224.59	1.0109e-06	6.0166e-06	281.89	76.956	60.229	17.469	1.1463e-06	24.546	8.5314e-05	9.3083e-05	2.6649e-05	895.29	8.9394e-07	1.0385e-06	973.3	193.58	9.299e-07	1.0493e-06	230.15	63.813	47.483	15.277	1.0445e-06	20.378	207.736	468.602	147.179	126.204	308.473	181.025	126.317	133.637	181.919	123.976	133.454	139.965	139.869	146.896	173.918	146.970	-8191	255	
1426.142	1	1	0	0	0.24659	0.23999	0.021589	0.35259	0.17009	0.089257	0.26352	0.10325	0.20302	0.12041	0.12026	0.23673	0.087209	0.33461	0.32741	0.151	-1.4208	-0.96042	-1.0104	-1.5542	-0.62083	-1.5125	-1.4375	-0.73958	-1.4479	-0.93125	-1.0958	-1.4333	-0.50208	-1.4396	-1.2729	-0.83333	431.219	365.313	247.867	463.687	432.869	394.059	401.352	295.913	245.243	168.108	373.989	458.323	163.228	174.209	439.896	133.605	0.00029008	0.00013871	8.342e-05	1065.1	2.9825e-06	2.4337e-06	1158.8	223.07	2.92e-06	7.4309e-07	283.4	76.436	59.89	17.317	1.9987e-06	24.408	8.7346e-05	9.8196e-05	2.5467e-05	893.88	9.2637e-07	1.0838e-06	969.04	192.64	9.6163e-07	1.0798e-06	228.82	63.252	47.459	15.135	9.862e-07	20.163	197.176	206.844	241.649	126.215	185.193	223.879	126.516	133.257	206.441	151.289	133.640	139.792	140.076	147.070	177.539	146.512	-8191	255	
1426.238	1	1	0	0	0.2235	0.079831	0.18851	0.074297	0.28441	0.17501	0.39557	0.21712	0.32914	0.25988	0.13405	0.091412	0.12824	0.19026	0.44663	0.23954	-1.2542	-0.9375	-0.9125	-1.7104	-0.71875	-1.2646	-1.4896	-0.57708	-1.7479	-0.9625	-0.99583	-1.6562	-0.72917	-1.3312	-1.3542	-0.77917	364.620	356.779	131.808	214.661	249.256	124.675	421.598	270.787	322.193	233.796	462.352	220.146	181.121	327.695	324.046	201.009	0.00028424	0.00018661	3.2086e-05	1067.9	4.2181e-06	2.1906e-06	1159.4	223.53	1.543e-06	1.3739e-06	280.28	76.682	60.014	17.294	1.7424e-06	24.658	9.085e-05	9.7639e-05	2.3978e-05	892.28	9.8194e-07	1.0467e-06	967.2	192.39	1.0153e-06	1.0542e-06	227.88	63.24	47.896	15.13	9.5669e-07	20.243	192.508	446.488	298.280	126.154	228.002	310.855	126.272	133.516	222.655	136.892	133.135	140.223	140.274	147.188	157.685	146.924	-8191	255	
1426.335	1	1	0	0	0.048895	0.42047	0.29981	0.18208	0.099958	0.15062	0.2233	0.29776	0.30878	0.14657	0.087791	0.14276	0.071943	0.13395	0.14511	0.0583	-0.92083	-0.99375	-0.81458	-1.7104	-0.67917	-1.2729	-1.5542	-0.7125	-1.3354	-1.1187	-0.92083	-1.8021	-0.97708	-1.1021	-1.575	-0.59167	405.478	295.635	444.043	430.396	268.859	423.539	449.296	429.943	296.164	325.537	307.491	462.075	389.330	351.433	295.845	397.586	0.00029282	0.00022995	3.3466e-05	1064.5	2.8468e-06	1.2081e-06	1164.5	223.54	2.3551e-06	3.5597e-06	280.34	77.282	60.071	17.404	3.0215e-06	24.675	9.5973e-05	9.4641e-05	2.3002e-05	890.13	1.0377e-06	1.0052e-06	966.14	192.34	1.0593e-06	1.0111e-06	226.79	63.557	48.373	15.087	9.3863e-07	20.384	213.915	202.615	237.573	126.256	252.688	279.371	126.307	133.603	186.356	271.122	133.181	139.562	140.006	147.098	206.331	147.067	-8191	255	
1426.431	1	1	0	0	0.2078	0.052085	0.20324	0.057207	0.11076	0.12759	0.067178	0.13726	0.090931	0.14628	0.36226	0.27941	0.30948	0.35717	0.13338	0.2006	-1.0667	-1.1646	-0.63333	-1.5583	-0.83542	-0.85208	-1.5625	-0.83125	-1.3563	-1.2521	-0.7375	-1.6396	-1.0083	-1.0021	-1.5938	-0.86042	140.508	186.965	139.860	160.928	123.517	160.535	371.607	153.614	439.963	185.122	302.460	123.098	176.560	382.743	201.642	404.809	0.00031535	0.00011457	7.772e-05	1070.8	1.5233e-06	1.1115e-06	1159.9	223.98	1.1602e-06	6.003e-07	281.79	78.089	60.162	17.633	1.3959e-06	24.81	9.9298e-05	9.0941e-05	2.284e-05	895.92	1.0856e-06	9.5666e-07	967.42	193.74	1.0836e-06	9.7909e-07	228	64.241	48.78	15.209	9.3816e-07	20.652	204.135	373.625	275.795	126.269	237.082	151.873	126.351	133.298	215.108	376.529	133.425	139.750	140.261	146.781	266.596	146.521	-8191	255	
1426.527	1	1	0	0	0.22496	0.07382	0.082165	0.41323	0.141	0.11664	0.043782	0.24039	0.14892	0.098207	0.15068	0.15812	0.284	0.29755	0.12416	0.10385	-0.76875	-1.2833	-0.52708	-1.2313	-0.80833	-0.79792	-1.4417	-0.67708	-1.1042	-1.2229	-0.38333	-1.3458	-0.81875	-0.68125	-1.4958	-0.81042	120.800	253.972	255.129	432.231	386.235	446.438	405.343	401.874	383.357	453.008	405.200	450.847	421.815	172.988	433.455	372.766	0.00029582	0.00016627	5.9307e-05	1068.2	1.2305e-06	3.6962e-06	1160.6	226.47	2.5006e-06	1.2996e-06	282.21	78.136	60.528	17.619	2.1837e-06	25.046	9.9588e-05	8.9453e-05	2.2822e-05	900.87	1.094e-06	9.4646e-07	970.91	196.45	1.0701e-06	9.8444e-07	229.18	65.057	49.01	15.262	9.6097e-07	21.023	210.312	274.228	438.741	126.309	431.586	273.625	126.387	133.484	271.489	326.017	133.218	140.401	140.061	147.033	152.474	146.218	-8191	255	
1426.647	1	1	0	0	0.22416	0.11658	0.21281	0.41897	0.18819	0.1969	0.25613	0.23064	0.21637	0.19511	0.1965	0.084478	0.073395	0.095307	0.092572	0.067887	-0.57708	-1.2167	-0.58125	-1.4688	-0.84375	-0.74167	-1.5729	-0.83542	-0.80208	-1.4521	-0.42292	-1.2917	-1.0167	-0.50833	-1.5333	-0.6375	304.203	328.304	454.112	374.247	449.450	150.506	436.778	307.830	230.761	342.348	369.382	285.816	130.765	126.499	387.159	465.870	0.00024563	0.00026961	7.4076e-05	1071.3	1.4968e-06	1.5954e-06	1170.9	226.49	1.9562e-06	1.3865e-06	283.13	77.999	60.594	17.786	2.0161e-06	25.071	9.7321e-05	8.9039e-05	2.3629e-05	904.72	1.0535e-06	9.3108e-07	974.08	196.99	1.0191e-06	9.6156e-07	230.15	65.163	48.67	15.274	9.9621e-07	21.15	206.021	321.136	194.459	126.416	362.349	249.838	126.430	133.206	284.906	285.358	133.066	139.750	139.949	146.560	230.742	146.650	-8191	255	
1426.742	1	1	0	0	0.2145	0.10303	0.08157	0.070557	0.1573	0.27526	0.13279	0.086852	0.19083	0.20854	0.269	0.048695	0.090887	0.21568	0.16388	0.11262	-0.51042	-1.45	-0.30208	-1.5271	-1.0542	-0.51042	-1.6	-0.96667	-0.69375	-1.4438	-0.50417	-1.2667	-1.1208	-0.57917	-1.1167	-0.94792	435.015	460.456	308.963	389.030	217.944	346.101	338.443	279.882	239.539	122.170	369.776	365.430	373.677	383.355	177.822	321.511	0.00028384	0.000144	4.1982e-05	1072.7	1.1309e-06	1.0755e-06	1162	225.09	5.8975e-07	3.5611e-07	283.93	77.137	60.6	17.68	2.7595e-06	24.865	9.2043e-05	8.6417e-05	2.4778e-05	906.03	9.9679e-07	8.9797e-07	974.22	196.41	9.5192e-07	9.1906e-07	230.33	64.551	48.135	15.1	1.0263e-06	20.875	204.197	127.542	178.173	126.250	456.653	138.161	126.416	133.425	176.195	226.738	133.481	139.759	139.966	147.048	160.514	146.349	-8191	255	
1426.838	1	1	0	0	0.1546	0.17653	0.16012	0.31576	0.45738	0.11255	0.064883	0.31088	0.10371	0.21201	0.16779	0.29701	0.28521	0.46673	0.15669	0.13441	-0.27292	-1.4333	-0.45625	-1.1229	-1.2771	-0.55625	-1.4562	-0.99167	-0.54792	-1.3729	-0.63542	-1.0312	-1.2875	-0.5375	-1.1604	-0.98542	305.171	268.792	383.953	411.379	403.847	125.304	364.723	467.189	442.975	450.963	137.204	148.559	407.571	119.310	436.239	305.285	0.00025887	0.00037731	0.00015708	1070.6	3.3885e-06	3.0541e-06	1165.5	224.83	7.9525e-07	1.9035e-06	283.41	77.993	60.545	17.619	2.2354e-06	24.938	8.6672e-05	8.2087e-05	2.6117e-05	902.15	9.5935e-07	8.8234e-07	975.5	195.62	9.3342e-07	9.239e-07	231.59	64.545	48.099	15.173	1.0859e-06	20.845	197.691	119.595	185.167	126.252	347.322	203.024	126.482	133.643	288.441	246.493	133.393	139.719	140.257	146.630	298.820	146.452	-8191	255	
1426.934	1	1	0	0	0.11061	0.14779	0.22117	0.072727	0.15138	0.10878	0.058547	0.083197	0.054431	0.20597	0.085798	0.1677	0.12856	0.028277	0.20304	0.28465	-0.20625	-1.3188	-0.83958	-0.87917	-1.3292	-0.45625	-1.3042	-1.1854	-0.49167	-1.5063	-0.59792	-0.66458	-1.3937	-0.7875	-1.0583	-1.2104	397.353	384.526	337.732	116.343	172.578	199.623	227.457	391.703	411.602	151.491	345.016	463.980	384.126	186.483	289.965	437.853	0.0001856	0.00022943	1.2261e-05	1070.6	1.1848e-06	3.1088e-06	1170.9	226.69	2.6633e-06	1.5006e-06	282.59	78.326	62.005	17.931	2.439e-06	24.951	8.6292e-05	8.5829e-05	2.7987e-05	900.71	9.6168e-07	9.4186e-07	980.61	196.58	9.1965e-07	9.7831e-07	233.56	64.791	48.478	15.457	1.1091e-06	20.94	212.517	174.159	439.255	126.340	449.446	215.954	126.339	133.288	253.438	124.825	133.133	140.269	140.096	146.686	263.707	146.123	-8191	255	
1427.008	1	1	0	0	0.3069	0.1974	0.11685	0.1981	0.27329	0.24656	0.074166	0.15961	0.24307	0.046726	0.25794	0.093755	0.23715	0.21136	0.20558	0.051295	-0.00625	-1.3188	-0.85208	-0.80417	-1.2812	-0.375	-1.2625	-1.2292	-0.42708	-1.2812	-1.0167	-0.67917	-1.4146	-0.53125	-1.075	-1.2396	217.198	313.546	464.643	461.517	296.559	124.448	241.217	411.835	435.167	363.724	467.238	174.963	432.881	368.170	287.317	196.053	0.000287	0.00025212	3.6314e-05	1073.4	1.6559e-06	7.4682e-07	1172.9	227.66	1.512e-06	4.6087e-06	283.99	77.783	61.328	17.702	4.2022e-06	24.988	8.5241e-05	9.2707e-05	2.811e-05	903.3	9.4319e-07	1.0239e-06	982.53	196.84	9.1409e-07	1.0508e-06	233.47	64.473	48.33	15.532	1.0675e-06	20.824	199.031	200.723	168.468	126.535	163.371	300.976	126.413	133.579	160.869	175.018	133.080	139.971	139.838	146.619	347.742	146.720	-8191	255	
1427.126	1	1	0	0	0.21557	0.11972	0.1314	0.20447	0.17826	0.073569	0.18599	0.18701	0.097966	0.17411	0.32695	0.041864	0.12202	0.096124	0.12882	0.12441	-0.09375	-1.3021	-0.92083	-0.52292	-1.175	-0.81042	-1.0479	-1.25	-0.425	-1.2604	-1.0604	-0.88542	-1.4958	-0.64583	-0.97083	-1.3896	219.723	464.467	241.411	436.129	172.148	227.238	418.295	470.574	467.446	222.926	436.598	224.556	132.496	207.059	317.925	326.286	0.00032339	0.00027404	1.3697e-05	1072.5	1.9483e-06	1.0342e-06	1164.8	225.46	2.7365e-06	2.8431e-06	282.38	77.692	61.371	17.898	9.1997e-07	24.895	8.538e-05	9.8344e-05	2.7355e-05	898.98	9.5035e-07	1.0875e-06	976.04	195.48	9.3746e-07	1.0975e-06	231.9	64.221	48.409	15.57	1.0127e-06	20.658	203.833	450.207	427.145	126.449	239.296	215.135	126.748	133.483	232.904	181.603	133.371	139.800	140.168	146.540	429.236	146.289	-8191	255	
1427.223	1	1	0	0	0.069563	0.13808	0.11149	0.10192	0.072758	0.34337	0.26636	0.07068	0.15183	0.11376	0.24939	0.46074	0.35959	0.17137	0.046599	0.047011	-0.3375	-1.1063	-1.0833	-0.51458	-1.3687	-0.44583	-0.80625	-1.5729	-0.33333	-1.1562	-1.1604	-0.47292	-1.3396	-0.96042	-0.89792	-1.4146	274.232	395.825	438.617	335.265	304.036	138.775	348.114	184.137	119.572	466.781	394.215	213.127	460.039	191.844	203.639	168.171	0.00028714	0.00027392	4.9791e-05	1072.3	4.1661e-06	3.4772e-06	1166.7	224.46	2.7121e-06	1.8506e-06	282.22	77.62	60.312	17.545	1.3751e-06	24.699	8.8233e-05	0.00010079	2.5915e-05	896.75	9.859e-07	1.1044e-06	973.81	194.52	9.8179e-07	1.0844e-06	230.14	63.561	48.242	15.363	9.6701e-07	20.471	200.476	174.538	283.557	126.327	276.357	172.723	126.563	133.394	222.040	233.424	133.131	139.571	140.027	147.079	276.954	146.634	-8191	255	
1427.319	1	1	0	0	0.092581	0.25479	0.23918	0.30213	0.27564	0.047791	0.13944	0.23848	0.12034	0.1002	0.099928	0.33381	0.065205	0.079434	0.11742	0.20438	-0.077083	-1.0167	-1.0542	-0.50625	-1.2146	-0.68542	-0.79375	-1.4042	-0.61875	-1.075	-1.2521	-0.49167	-1.5333	-0.82083	-0.47708	-1.475	266.190	287.730	383.225	446.602	356.537	139.495	417.316	149.731	362.471	327.394	134.169	395.201	124.780	140.689	262.800	329.360	0.00032347	0.000191	7.7042e-05	1070.3	1.582e-06	8.5013e-07	1158.4	225.12	5.9308e-07	2.6689e-06	281.43	77.03	60.438	17.307	6.1709e-07	24.523	9.4363e-05	9.7491e-05	2.491e-05	893.69	1.0439e-06	1.0812e-06	969.4	193.75	1.0609e-06	1.0387e-06	228.8	63.341	48.405	15.138	9.2107e-07	20.353	199.488	191.079	169.610	126.336	313.054	290.404	126.657	133.438	244.255	201.110	133.505	139.903	140.001	147.203	126.435	147.253	-8191	255	
1427.439	1	1	0	0	0.14923	0.19645	0.097936	0.19953	0.2863	0.17014	0.13173	0.30427	0.15706	0.26475	0.052126	0.16503	0.17414	0.11601	0.11316	0.31506	-0.17292	-0.83958	-0.95208	-0.63542	-1.2604	-0.88958	-0.62083	-1.0917	-0.46875	-0.87083	-1.4958	-0.27292	-1.0979	-1.0187	-0.50625	-1.1604	405.820	438.877	304.106	423.746	353.375	247.343	203.601	442.218	358.803	161.214	401.177	281.036	393.450	469.109	420.210	223.827	0.00028796	0.00044315	3.7775e-05	1068.6	3.3765e-06	3.3596e-06	1155	223.52	3.106e-06	2.649e-06	280.4	77.076	60.452	17.166	2.9732e-06	24.353	9.7897e-05	9.0415e-05	2.3799e-05	892.62	1.0643e-06	9.9471e-07	962.31	192.73	1.0719e-06	9.5682e-07	227.07	63.233	48.326	14.933	8.7847e-07	20.253	206.415	248.540	430.161	126.426	187.244	349.432	126.450	133.882	173.844	276.009	133.428	139.913	140.304	147.440	289.886	147.148	-8191	255	
1427.536	1	1	0	0	0.10579	0.31545	0.14476	0.18335	0.15164	0.16446	0.05306	0.27158	0.18787	0.23962	0.31741	0.13657	0.075456	0.18351	0.29866	0.19157	-0.21042	-0.69167	-1.3	-0.59375	-1.0729	-1.0063	-0.65833	-1.4062	-0.72708	-0.70417	-1.3292	-0.45	-0.9375	-1.0896	-0.42083	-1.2667	152.060	191.696	248.299	472.131	378.891	437.149	158.488	428.036	201.349	120.088	423.575	285.198	378.922	345.914	471.039	207.595	0.00034058	0.00012063	8.2558e-05	1067.9	1.9476e-06	2.4176e-06	1161.8	223.63	8.1292e-07	1.782e-06	279.96	76.525	59.879	17.113	1.0804e-06	24.284	9.9098e-05	8.4394e-05	2.3092e-05	893.36	1.0418e-06	9.4988e-07	963.35	193.58	1.06e-06	9.1363e-07	226.92	63.682	47.894	14.798	8.63e-07	20.336	199.769	240.759	227.716	126.328	285.543	393.048	126.539	133.961	216.312	292.256	133.353	140.229	140.403	147.534	210.040	147.480	-8191	255	
1427.607	1	1	0	0	0.37576	0.088508	0.046509	0.20532	0.35557	0.088115	0.17963	0.2846	0.1714	0.11899	0.084975	0.14338	0.05606	0.20022	0.026522	0.15096	-0.48333	-0.69167	-1.0521	-0.61667	-1.0625	-1.3021	-0.4625	-1.2563	-0.9375	-0.55833	-1.3771	-0.625	-0.81667	-1.0979	-0.42917	-1.2333	180.525	394.220	452.668	122.617	193.616	149.473	396.341	418.391	247.997	279.648	303.954	371.118	205.773	171.098	345.657	410.148	0.00017845	6.4364e-05	9.3826e-05	1061.8	2.699e-06	3.106e-06	1157.4	221.56	7.528e-07	2.4347e-06	279.43	76.413	59.528	17.028	2.7487e-06	24.195	9.548e-05	8.1429e-05	2.272e-05	894.25	9.9935e-07	9.2133e-07	960.91	192.96	1.0113e-06	8.7317e-07	226.51	63.753	47.375	14.646	8.677e-07	20.247	193.709	267.390	186.507	126.373	346.805	447.556	126.491	133.782	432.891	206.208	133.384	139.939	140.891	147.812	205.907	147.937	-8191	255	
1427.728	1	1	0	0	0.053508	0.21727	0.1292	0.32099	0.21123	0.083952	0.13897	0.12988	0.13906	0.15946	0.19427	0.22136	0.13282	0.3018	0.20249	0.13942	-0.57083	-0.36458	-1.2437	-0.50625	-0.77917	-1.2062	-0.46458	-1.2729	-0.9	-0.4125	-1.3792	-0.77917	-0.8	-1.3104	-0.49167	-1.0688	453.280	335.656	306.624	403.853	180.557	375.433	465.514	320.476	147.181	332.717	440.529	145.226	129.944	400.995	201.877	349.513	0.00022251	6.8261e-05	0.00010854	1061.8	7.8411e-07	2.2897e-06	1154.1	222.34	2.5294e-06	4.9643e-07	279.78	76.143	59.243	16.926	4.7174e-06	24.007	8.9335e-05	7.7079e-05	2.2615e-05	893.26	9.2299e-07	8.6809e-07	960.17	193.08	9.3589e-07	8.3486e-07	226.47	63.432	46.665	14.486	9.1421e-07	20.094	200.045	315.803	181.331	126.296	209.032	450.565	126.557	133.522	267.977	453.217	133.567	139.927	140.387	147.634	238.852	147.089	-8191	255	
1427.822	1	1	0	0	0.19427	0.24473	0.21629	0.14096	0.1645	0.158	0.13556	0.18843	0.11522	0.14663	0.2024	0.13297	0.20758	0.071679	0.059436	0.028809	-0.69167	-0.41667	-1.1479	-0.96458	-0.63125	-1.3	-0.67917	-1.1187	-1.2687	-0.48958	-1.4146	-0.83333	-0.47708	-1.4854	-0.66875	-0.93333	125.323	206.579	468.457	262.930	216.671	347.480	154.205	206.492	228.253	403.508	237.581	149.999	413.892	246.126	468.843	397.821	0.00026514	6.3559e-05	9.4407e-05	1061.4	2.2221e-06	1.722e-06	1153.2	221.53	6.5086e-07	2.6635e-06	279.18	75.998	59.009	16.841	5.065e-06	23.771	8.4073e-05	7.4744e-05	2.3617e-05	890.98	8.707e-07	8.4476e-07	960.72	191.76	8.9799e-07	8.1728e-07	226.77	63.103	46.342	14.44	9.7795e-07	19.937	201.935	204.003	165.516	126.574	280.715	260.330	126.435	133.851	321.581	137.930	133.717	140.171	140.641	148.246	211.752	147.596	-8191	255	
1427.918	1	1	0	0	0.149	0.1316	0.2765	0.25237	0.1437	0.11009	0.2817	0.20577	0.37746	0.15245	0.11821	0.18598	0.10685	0.12102	0.21815	0.14041	-0.92083	-0.33125	-1.0625	-0.96875	-0.70208	-1.45	-0.7375	-1.0375	-1.3438	-0.39167	-1.3333	-1.1208	-0.46458	-1.325	-0.72708	-0.90417	457.747	293.525	192.480	446.050	304.617	465.707	392.983	474.963	209.277	235.926	409.108	404.381	335.736	405.180	408.442	395.281	0.0002579	0.00020148	5.6798e-05	1059.9	1.8569e-06	1.4358e-06	1154.5	221.52	1.6745e-06	7.6142e-07	278.42	75.684	58.853	16.914	2.6171e-06	23.992	8.2663e-05	7.5326e-05	2.5218e-05	888.94	8.5604e-07	8.5713e-07	962.38	191.12	8.8356e-07	8.4654e-07	227.2	62.788	46.232	14.482	1.0217e-06	19.87	214.317	169.035	193.700	126.448	327.721	220.268	126.645	134.012	258.217	193.386	133.732	140.530	140.390	147.619	142.038	147.244	-8191	255	
1428.039	1	1	0	0	0.30347	0.1301	0.13437	0.52448	0.15673	0.15864	0.095738	0.30698	0.14544	0.19056	0.2695	0.050107	0.14728	0.26775	0.40584	0.2669	-0.78125	-0.46042	-1.2417	-1.0833	-0.45208	-1.3875	-0.61667	-0.92083	-1.5042	-0.47292	-0.95833	-0.93333	-0.30833	-1.3104	-0.61875	-0.50625	400.260	175.480	219.962	397.936	425.702	323.768	272.945	315.504	252.434	305.089	408.399	433.023	470.666	117.560	407.604	171.534	0.00025227	6.9313e-05	3.6972e-05	1060.1	3.9716e-06	1.9003e-06	1149.9	221.27	1.8864e-06	3.6676e-06	278.51	76.052	59.779	16.923	2.6204e-07	24.02	8.1907e-05	8.0103e-05	2.5784e-05	889.35	8.416e-07	9.1447e-07	965.12	190.79	8.8033e-07	9.1313e-07	227.47	62.64	46.436	14.645	1.0218e-06	19.819	199.148	447.426	134.805	126.339	251.122	235.254	126.506	133.770	239.867	175.045	133.677	140.053	140.639	147.849	180.344	147.541	-8191	255	
1428.135	1	1	0	0	0.33867	0.18468	0.20025	0.088616	0.10405	0.26858	0.32999	0.17391	0.05899	0.11957	0.062063	0.099666	0.17198	0.065931	0.12521	0.053787	-1.0042	-0.48333	-0.91042	-1.2062	-0.36042	-1.3646	-1.0958	-0.76042	-1.2104	-0.73333	-1.0708	-1.1021	-0.36458	-1.2625	-0.86875	-0.60417	468.968	455.351	231.297	391.514	178.340	457.818	350.728	135.960	343.286	226.010	426.747	449.556	361.951	293.105	297.146	122.651	0.00023497	0.00037973	5.5389e-05	1056.8	2.9861e-06	1.9023e-06	1151.1	221.18	3.2487e-06	1.7447e-06	278.3	75.816	59.129	16.826	4.7973e-07	24.12	8.0413e-05	8.7154e-05	2.5215e-05	887.06	8.3505e-07	9.8584e-07	963.25	190.58	8.6664e-07	9.7832e-07	226.55	62.489	46.212	14.668	9.7932e-07	19.805	217.218	129.110	316.871	126.442	424.244	289.787	126.800	133.881	226.711	131.786	133.856	140.174	140.583	147.925	175.988	147.454	-8191	255	
1428.231	1	1	0	0	0.1661	0.16494	0.21526	0.21299	0.22834	0.26221	0.23318	0.34676	0.10673	0.20014	0.24591	0.30996	0.063874	0.084434	0.37045	0.175	-1.1167	-0.46042	-0.84167	-1.3	-0.57292	-1.2146	-1.0458	-0.67917	-1.2833	-0.5375	-0.99375	-1.4583	-0.375	-1.0833	-1.1854	-0.56042	363.793	429.924	191.745	422.387	206.947	433.499	448.756	291.001	315.368	399.057	446.303	412.291	153.502	268.821	386.865	291.089	0.00032611	0.00024428	1.1211e-05	1059.7	1.0814e-06	1.2749e-06	1150.6	221.53	2.4697e-06	1.5906e-06	278.47	76.628	59.63	16.998	1.2487e-06	24.05	8.1508e-05	9.2362e-05	2.4009e-05	887.05	8.7119e-07	1.012e-06	963.2	190.91	9.0211e-07	1.0207e-06	226.43	62.773	46.888	14.79	9.4421e-07	19.815	206.814	125.885	170.488	126.585	202.127	415.037	126.578	133.787	178.674	163.636	133.625	140.297	140.597	147.819	235.194	147.445	-8191	255	
1428.303	1	1	0	0	0.12945	0.15603	0.26354	0.15841	0.031917	0.19465	0.24717	0.30312	0.21214	0.12648	0.19872	0.28223	0.11895	0.23685	0.10545	0.11199	-1.1229	-0.67292	-0.46042	-1.4833	-0.58125	-1.0854	-1.1708	-0.49792	-1.2042	-0.93333	-0.64167	-1.3062	-0.56667	-1.1479	-1.2188	-0.4375	229.619	131.748	153.998	327.263	367.382	428.919	393.188	454.145	141.858	274.700	177.678	460.273	232.324	153.468	324.749	155.654	0.00019839	7.4672e-05	0.00010462	1065.1	4.4328e-06	2.231e-06	1155.7	222.95	2.9824e-06	1.365e-06	279.32	76.717	59.566	16.921	5.1561e-07	23.973	8.6287e-05	9.2996e-05	2.2848e-05	888.08	9.2298e-07	1.0013e-06	962.37	191.16	9.5613e-07	1.0025e-06	225.95	62.617	47.256	14.728	9.1518e-07	19.751	204.437	329.036	238.158	126.600	235.685	168.307	126.722	133.959	200.720	271.147	133.867	140.546	140.542	147.758	431.814	147.321	-8191	255	
1428.424	1	1	0	0	0.062584	0.16542	0.24437	0.093878	0.37361	0.18846	0.18084	0.10178	0.15227	0.30534	0.16674	0.0269	0.20167	0.46212	0.16668	0.10337	-0.86458	-0.7375	-0.50833	-1.4271	-0.66458	-1.0167	-1.4667	-0.34792	-1.0458	-0.875	-0.36667	-1.4208	-0.80208	-0.59375	-1.2229	-0.375	362.678	210.772	135.372	152.437	127.784	414.166	440.978	182.687	319.432	349.259	383.906	130.724	349.309	415.207	146.689	419.971	0.00027729	0.00017308	2.4323e-05	1059.8	2.2153e-06	1.645e-06	1157.7	221.97	3.0154e-06	1.3406e-07	280.23	76.612	60.061	17.096	8.7179e-07	24.192	9.1033e-05	9.09e-05	2.2015e-05	887.83	9.9476e-07	9.6127e-07	962.41	191.41	1.0131e-06	9.7806e-07	225.64	62.929	47.905	14.771	9.1057e-07	19.976	196.915	453.753	238.032	126.555	326.572	389.908	126.757	133.710	238.274	125.289	133.774	140.235	140.636	147.826	372.355	147.132	-8191	255	
1428.520	1	1	0	0	0.34835	0.095973	0.12509	0.083843	0.41646	0.15795	0.1224	0.2207	0.15655	0.1481	0.10071	0.22605	0.27194	0.14361	0.26264	0.12893	-0.8	-0.94167	-0.6375	-1.4813	-0.51042	-0.86042	-1.5104	-0.53125	-1.0292	-1.1208	-0.38125	-1.3458	-0.55417	-0.75208	-1.4375	-0.37083	357.079	285.108	405.789	465.696	129.452	373.538	182.241	159.181	467.836	293.914	218.700	134.030	343.643	197.108	269.345	182.712	0.00028499	0.00033169	1.7703e-05	1062.1	2.3782e-06	1.881e-06	1156.7	223.12	1.7662e-06	1.4693e-07	280.94	77.012	59.85	17.102	3.6797e-06	24.244	9.5947e-05	8.709e-05	2.1941e-05	891.35	1.0386e-06	9.1918e-07	963.71	192.44	1.029e-06	9.3476e-07	226.56	63.424	47.916	14.699	8.8205e-07	20.072	213.862	264.779	261.924	126.615	293.285	165.314	126.827	133.672	316.803	284.454	133.859	140.103	140.783	148.151	241.755	147.646	-8191	255	
1428.616	1	1	0	0	0.1016	0.055309	0.27335	0.20176	0.038702	0.11292	0.078034	0.058962	0.12107	0.19302	0.25517	0.39051	0.11985	0.24931	0.094491	0.17875	-0.75208	-0.92708	-0.27292	-1.5125	-0.71667	-0.5875	-1.6292	-0.575	-0.94167	-1.2687	-0.52917	-1.2646	-0.74167	-0.49167	-1.2521	-0.57708	134.029	184.050	438.750	370.232	438.357	135.051	259.261	459.583	386.191	434.951	406.780	373.201	433.487	124.476	473.018	118.221	0.00025939	0.00032379	4.6178e-05	1067.4	3.2888e-06	2.0045e-06	1150.5	221.82	2.3697e-06	6.9886e-07	278.67	76.459	59.598	17.108	2.0932e-06	24.273	9.3232e-05	8.3474e-05	2.0891e-05	892.35	1.0026e-06	8.7211e-07	960.53	191.82	9.7912e-07	8.9083e-07	224.88	63.275	47.495	14.485	8.5938e-07	20.104	205.134	207.546	436.184	126.567	285.781	281.339	126.715	133.731	300.249	143.149	133.850	140.216	140.522	147.165	155.177	147.744	-8191	255	
1428.710	1	1	0	0	0.19613	0.26388	0.11526	0.017664	0.16831	0.27035	0.2492	0.21094	0.20118	0.098751	0.15594	0.19567	0.23005	0.14267	0.28339	0.3207	-0.4375	-1.3271	-0.34792	-1.1792	-1.0521	-0.5875	-1.5854	-0.65625	-0.98333	-1.2208	-0.50625	-1.2833	-1.1	-0.64375	-1.1979	-0.59583	333.781	170.952	450.778	194.597	324.364	190.903	452.020	457.134	285.256	431.131	427.227	271.786	337.029	177.494	360.954	134.412	0.00028319	0.00025542	0.00012633	1063	1.0403e-06	6.6449e-07	1157.1	222.67	1.5371e-06	9.3306e-07	278.71	76.409	59.642	17.045	4.4069e-06	24.154	8.7915e-05	8.0153e-05	2.1075e-05	892.07	9.5108e-07	8.286e-07	958.54	192.12	9.1465e-07	8.5694e-07	224.66	63.249	46.989	14.492	8.9172e-07	20.246	211.444	426.092	192.511	126.569	296.051	221.130	126.598	134.008	259.092	164.874	133.300	140.346	140.624	147.849	210.222	147.464	-8191	255	
1428.831	1	1	0	0	0.15699	0.096411	0.071019	0.097104	0.26476	0.14643	0.088229	0.2496	0.21082	0.060627	0.32992	0.19682	0.14208	0.10413	0.094933	0.059935	-0.37708	-1.1917	-0.40417	-1.15	-0.96875	-0.38333	-1.4479	-0.89792	-0.71875	-1.4396	-0.68125	-1.0354	-1.0458	-0.325	-1.1458	-0.91667	347.546	295.715	304.669	403.208	302.784	273.039	353.451	416.185	462.750	247.112	474.413	322.440	448.333	418.141	388.012	197.971	0.00021491	0.00018016	9.1177e-05	1066.3	1.9982e-06	7.1676e-07	1157.1	221.29	1.1175e-06	1.5613e-06	279.12	76.159	59.543	16.982	4.3102e-06	24.226	8.2935e-05	7.831e-05	2.2431e-05	893.55	9.1558e-07	8.199e-07	961.73	192.66	8.8681e-07	8.5771e-07	226.6	63.435	46.916	14.552	9.6605e-07	20.272	230.704	439.600	150.565	126.725	333.090	223.976	126.762	133.954	252.127	152.828	133.656	140.340	140.347	147.889	178.953	147.377	-8191	255	
1428.903	1	1	0	0	0.17701	0.15786	0.13474	0.33922	0.158	0.15768	0.014293	0.14014	0.19016	0.24131	0.049307	0.12418	0.3063	0.31557	0.15517	0.067568	-0.00625	-1.375	-0.29583	-0.98125	-1.2771	-0.24375	-1.4	-0.87292	-0.43958	-1.2812	-0.6125	-0.99792	-1.3833	-0.7	-1.55	-1.1063	117.626	199.383	288.425	435.856	386.611	421.918	221.664	461.423	313.651	196.222	379.595	357.180	130.845	180.680	230.799	146.026	0.00022314	6.0053e-05	7.515e-05	1059.5	1.9161e-06	2.3234e-06	1154.6	222.09	4.9536e-07	2.7792e-06	279.65	75.858	59.467	17.052	8.0757e-07	24.062	8.123e-05	7.7954e-05	2.4349e-05	890.87	8.9415e-07	8.2378e-07	964.66	192.17	8.5797e-07	8.5169e-07	227.53	63.026	46.765	14.528	1.0024e-06	20.103	205.821	441.230	120.597	126.721	253.600	148.189	126.936	133.731	274.691	227.101	133.620	140.287	140.908	147.422	251.613	147.992	-8191	255	
1429.001	1	1	0	0	0.066737	0.14259	0.078919	0.17621	0.20783	0.19587	0.42073	0.099886	0.028763	0.096473	0.33222	0.26735	0.088088	0.22603	0.20744	0.25366	0.035417	-1.325	-0.59792	-0.87708	-1.3292	-0.4125	-1.2792	-1.1729	-0.63542	-1.2729	-0.76875	-0.93333	-1.3667	-0.53542	-1.0604	-1.0938	190.597	168.827	171.159	414.385	181.717	402.645	360.958	324.283	303.128	376.505	286.815	373.176	219.293	430.511	226.763	117.930	0.00027109	0.00016374	3.0203e-05	1062.1	3.8241e-06	8.5674e-07	1155.5	221.92	2.437e-06	2.722e-06	278.6	76.389	59.632	17.111	1.7474e-06	24.091	7.9459e-05	7.9734e-05	2.5943e-05	888.99	8.9058e-07	8.7046e-07	966.06	191.88	8.5212e-07	9.1366e-07	228.45	62.971	46.837	14.741	1.0229e-06	20.01	217.862	340.846	120.000	126.772	252.786	323.870	126.562	133.891	215.999	262.645	133.766	140.330	140.582	148.067	271.543	147.026	-8191	255	
1429.119	1	1	0	0	0.027832	0.39383	0.16731	0.23975	0.20776	0.015891	0.45695	0.16317	0.29366	0.040237	0.21282	0.2973	0.21489	0.1314	0.10951	0.054245	-0.13125	-1.3292	-0.53542	-0.98333	-1.3042	-0.43958	-1.2146	-1.1375	-0.60208	-1.3687	-0.87083	-0.7125	-1.3854	-0.52083	-1.125	-1.175	213.833	280.720	270.103	423.114	158.785	153.556	418.561	408.681	366.481	363.866	417.101	436.974	328.676	443.112	331.381	421.625	0.0002298	0.00015069	4.885e-05	1062.1	1.4463e-06	4.8218e-06	1157.5	220.86	2.9391e-06	2.7531e-06	279.84	76.376	59.647	16.99	1.6765e-06	24.137	7.8256e-05	8.4375e-05	2.5997e-05	887.58	8.66e-07	9.222e-07	964.63	190.94	8.2373e-07	9.503e-07	227.96	62.637	46.683	14.785	9.8303e-07	20.046	215.404	178.563	462.616	126.608	449.555	143.433	126.839	134.116	262.961	181.172	133.735	140.690	140.672	147.586	163.183	147.153	-8191	255	
1429.216	1	1	0	0	0.18886	0.1454	0.38463	0.11248	0.12108	0.2128	0.15471	0.14396	0.11805	0.087663	0.072888	0.12916	0.10518	0.22097	0.096536	0.12384	-0.26458	-1.4083	-0.76458	-0.825	-1.3062	-0.62083	-1.025	-1.2208	-0.56458	-1.3292	-1.1333	-0.65833	-1.4021	-0.5625	-0.80625	-1.4875	318.064	411.317	123.513	146.775	205.217	194.445	420.832	165.909	118.185	224.783	459.723	358.312	359.576	141.132	420.663	151.951	0.0002979	0.00014517	6.2289e-05	1063.2	2.9091e-07	9.5452e-07	1153.9	221.93	2.372e-06	1.1416e-06	278.48	76.68	59.838	17.113	1.4759e-06	24.36	7.8404e-05	9.0763e-05	2.5295e-05	886.37	8.8369e-07	1.0001e-06	963.98	191.52	8.6014e-07	1.0022e-06	227.52	62.789	46.896	14.881	9.3381e-07	20.062	197.339	431.069	287.974	126.880	340.059	162.279	126.988	133.953	225.100	149.217	133.957	140.394	140.456	147.523	445.073	147.356	-8191	255	
1429.312	1	1	0	0	0.20857	0.083715	0.20923	0.39728	0.16583	0.080895	0.30384	0.17955	0.12917	0.10019	0.11401	0.32938	0.16109	0.20929	0.069172	0.091274	-0.13125	-1.2292	-0.94375	-0.44792	-1.6542	-0.69167	-1.1	-1.4083	-0.6375	-1.3604	-1.3521	-0.51458	-1.2583	-0.87083	-0.62083	-1.3979	412.620	217.351	133.721	448.854	432.824	222.473	151.009	432.725	397.385	411.192	307.271	358.075	379.199	186.859	315.976	143.889	0.00026409	0.00029937	1.5596e-05	1068.8	1.9614e-06	1.3769e-06	1154	222.2	1.4782e-06	1.4069e-06	278.72	76.676	60.19	17.242	1.0476e-06	24.352	8.1306e-05	9.3342e-05	2.4238e-05	887.6	9.2203e-07	1.0309e-06	962.09	191.29	9.1964e-07	1.0253e-06	227.05	62.652	47.396	14.984	9.1306e-07	20.047	204.222	162.969	296.265	126.735	245.647	466.753	126.878	133.934	200.996	362.710	133.837	140.426	140.513	147.710	244.196	147.148	-8191	255	
1429.408	1	1	0	0	0.11499	0.15804	0.39138	0.2243	0.12592	0.068228	0.069148	0.1225	0.13585	0.26723	0.1227	0.16206	0.084094	0.062605	0.066562	0.36721	-0.17083	-1.0875	-1.2396	-0.55833	-1.2854	-0.725	-0.69167	-1.3958	-0.47917	-0.95833	-1.1458	-0.56042	-1.4521	-0.85208	-0.54583	-1.3083	332.112	356.465	459.275	429.387	182.535	142.248	349.597	465.967	228.483	335.384	156.760	470.244	190.981	133.233	406.968	452.343	0.00034417	0.00015342	3.8251e-05	1060.3	1.5712e-06	1.9687e-06	1155.5	222.16	7.7094e-07	9.2784e-07	278.62	76.806	60.221	17.114	1.0791e-06	24.372	8.8437e-05	9.1684e-05	2.3533e-05	884.98	9.8531e-07	1.0163e-06	960.72	191.59	9.9206e-07	9.8188e-07	226.56	62.736	47.765	14.891	8.8332e-07	20.013	213.426	253.113	314.613	126.883	231.441	237.439	126.856	133.908	201.405	199.947	134.042	140.243	140.493	147.586	187.351	147.353	-8191	255	
1429.504	1	1	0	0	0.021448	0.25333	0.12442	0.16505	0.31475	0.097758	0.25054	0.10521	0.32543	0.15171	0.23825	0.12477	0.18581	0.19286	0.14689	0.11705	-0.28333	-0.92917	-1.1896	-0.51875	-1.2229	-0.97083	-0.7625	-1.4979	-0.59375	-0.96667	-1.4542	-0.49583	-1.2083	-0.90625	-0.44167	-1.4813	219.795	206.370	281.167	337.171	429.085	324.479	126.058	280.810	124.981	445.295	463.292	433.208	346.813	122.509	149.893	268.858	0.00025294	0.0001776	4.9978e-05	1063.3	1.6287e-06	1.3845e-06	1152.4	222.98	1.1816e-06	1.7482e-06	280.26	76.287	60.069	17.135	8.7744e-07	24.193	9.3368e-05	8.7428e-05	2.2955e-05	885.74	1.0223e-06	9.695e-07	958.54	191.77	1.0276e-06	9.3519e-07	226.35	62.804	48.015	14.826	8.6051e-07	20.151	212.824	299.109	281.877	126.756	143.090	166.724	126.769	133.983	220.454	336.463	133.899	140.452	140.359	147.759	219.439	147.447	-8191	255	
1429.600	1	1	0	0	0.3184	0.077192	0.38147	0.13995	0.075789	0.14482	0.13847	0.056482	0.21658	0.028294	0.21732	0.091329	0.050738	0.18521	0.050717	0.082133	-0.29583	-0.73958	-1.2313	-0.70417	-1.1708	-1.1729	-0.55625	-1.2938	-0.75208	-0.78542	-1.5458	-0.53542	-0.97917	-1.0146	-0.35208	-1.2563	440.735	265.938	431.972	401.390	296.468	409.796	188.685	354.906	467.691	329.385	351.312	136.274	403.135	416.147	116.599	384.780	0.00028153	0.00012367	3.4918e-05	1060.9	8.0969e-07	1.7581e-06	1149.6	223.15	1.5761e-06	1.0733e-06	279.21	76.775	60.331	17.113	1.3431e-06	24.541	9.6487e-05	8.3297e-05	2.2523e-05	888.74	1.0207e-06	9.1909e-07	957.14	192.44	1.0322e-06	8.8131e-07	225.98	63.384	47.883	14.776	8.4237e-07	20.318	208.008	264.974	243.653	126.807	237.763	131.344	126.943	134.205	199.164	243.895	133.385	140.663	140.881	147.652	293.040	147.686	-8191	255	
1429.721	1	1	0	0	0.31917	0.24805	0.10361	0.17227	0.088538	0.22031	0.17715	0.068619	0.11121	0.076675	0.14775	0.20503	0.24441	0.12471	0.10131	0.11944	-0.3	-0.51875	-1.1979	-0.7625	-0.85833	-1.1792	-0.54583	-1.3813	-0.65417	-0.67292	-1.4167	-0.62708	-0.88125	-1.35	-0.33542	-1.1417	140.548	349.603	149.856	393.751	245.464	311.815	296.199	333.924	464.369	277.118	316.082	322.791	444.206	153.579	401.195	366.423	0.00021267	0.00026603	5.1344e-05	1060.9	3.8504e-06	3.5705e-08	1154.7	222.99	2.7769e-06	1.9321e-06	279.84	76.953	59.747	17.183	1.8039e-06	24.373	9.4697e-05	8.0141e-05	2.2332e-05	892.47	9.7612e-07	9.0952e-07	958.79	193.1	9.8712e-07	8.5241e-07	225.9	63.656	47.332	14.769	8.598e-07	20.358	209.573	181.851	460.896	126.784	308.193	177.817	126.849	134.168	382.137	174.344	133.688	140.287	140.480	147.635	195.371	147.921	-8191	255	
1429.817	1	1	0	0	0.17844	0.14005	0.14576	0.19159	0.038749	0.15702	0.080993	0.073707	0.15853	0.27218	0.37566	0.26169	0.3498	0.16601	0.059796	0.18037	-0.55	-0.55625	-1.4146	-0.70417	-0.56042	-1.075	-0.41042	-1.1146	-0.95417	-0.68125	-1.3417	-0.68333	-0.67708	-1.3917	-0.29792	-1.2167	147.116	397.152	147.130	409.643	151.645	328.745	364.117	398.347	427.634	364.508	457.216	433.143	274.038	334.704	171.490	125.702	0.00018855	0.00017837	3.9224e-05	1061.3	1.1563e-06	2.1206e-06	1157.3	222.66	2.2286e-06	3.6094e-06	279.67	76.551	59.943	17.081	3.302e-06	24.332	8.9159e-05	7.7465e-05	2.2627e-05	893.41	9.2803e-07	8.7845e-07	961.16	193.02	9.5229e-07	8.3546e-07	226.72	63.579	47.005	14.69	9.1857e-07	20.304	181.648	277.217	149.187	126.573	250.610	275.479	126.852	134.252	324.450	141.504	133.706	140.305	140.638	147.881	167.552	147.323	-8191	255	
1429.911	1	1	0	0	0.32856	0.14093	0.19506	0.26784	0.2305	0.035267	0.089042	0.092446	0.39753	0.20294	0.35836	0.091083	0.14351	0.37624	0.12524	0.22222	-0.79583	-0.43125	-1.3229	-0.71875	-0.62083	-1.3021	-0.43125	-1.1458	-1.1604	-0.52083	-1.1875	-0.81042	-0.53333	-1.3417	-0.4125	-0.85417	227.263	319.149	416.188	425.936	218.811	434.288	423.269	142.003	440.125	447.413	121.227	194.618	404.400	260.257	464.866	121.989	0.00023363	4.6162e-05	2.837e-05	1058.3	2.163e-06	2.6543e-06	1157.6	222.07	1.3844e-06	1.4389e-06	279.04	76.045	59.981	17.14	3.9303e-06	23.999	8.5795e-05	7.509e-05	2.3987e-05	890.72	8.7547e-07	8.4963e-07	960.69	191.98	9.0234e-07	8.1644e-07	226.64	63.139	46.66	14.595	9.7246e-07	20.117	202.245	296.953	168.745	126.794	201.570	312.495	127.015	133.966	375.055	116.794	134.009	140.425	140.849	147.792	187.207	147.407	-8191	255	
1430.007	1	1	0	0	0.072063	0.10814	0.085029	0.19519	0.23398	0.073704	0.068267	0.23127	0.079401	0.26028	0.061706	0.078248	0.1787	0.16276	0.042653	0.16254	-0.9125	-0.37708	-1.1562	-0.97708	-0.41667	-1.3292	-0.67292	-0.83542	-1.0938	-0.43958	-1.2896	-0.80833	-0.58542	-1.1729	-0.6375	-0.85833	294.032	192.972	325.903	398.218	164.844	123.271	145.235	473.251	237.538	356.747	233.143	158.820	141.389	465.867	223.700	399.534	0.00025352	0.00029916	4.1713e-05	1056.3	1.247e-06	2.0596e-06	1153.7	222.16	1.0443e-06	2.5786e-06	277.41	76.063	59.436	17.062	2.3401e-06	24.235	8.3199e-05	7.5118e-05	2.5142e-05	888.47	8.467e-07	8.5596e-07	963.22	191.42	8.8101e-07	8.4075e-07	227.08	62.973	46.358	14.626	1.0235e-06	20.027	206.495	194.086	167.959	126.735	234.223	174.981	126.866	134.235	203.170	201.585	133.826	140.310	141.000	147.731	241.966	148.144	-8191	255	
1430.128	1	1	0	0	0.22086	0.066478	0.0045956	0.12831	0.075732	0.032171	0.066568	0.11294	0.26694	0.19399	0.14168	0.17992	0.15403	0.2578	0.17046	0.22472	-1.1125	-0.31042	-1.1458	-1.0792	-0.50208	-1.1	-0.76667	-0.71875	-1.2771	-0.54375	-1.0812	-0.96042	-0.38542	-1.4333	-0.80833	-0.59375	250.371	292.775	462.224	469.891	397.851	196.730	355.001	468.373	323.302	231.875	307.056	430.337	251.973	257.318	447.199	402.126	0.00019264	0.00031149	6.4629e-05	1063.7	2.7891e-06	1.8755e-06	1157.6	222.22	1.7676e-06	1.9638e-06	280.08	75.994	60.03	17.022	1.8997e-06	24.165	8.1658e-05	8.0487e-05	2.5854e-05	888.78	8.3615e-07	9.0981e-07	965.54	190.88	8.7639e-07	9.0549e-07	227.59	62.816	46.343	14.749	1.0119e-06	19.956	222.603	465.257	385.213	126.713	266.399	286.014	127.007	134.248	220.189	163.994	134.073	140.514	140.791	147.949	374.038	147.823	-8191	255	
1430.200	1	1	0	0	0.093947	0.21735	0.35825	0.24352	0.23983	0.13709	0.24561	0.2118	0.17125	0.053008	0.28592	0.050443	0.41222	0.069425	0.14228	0.16191	-0.91042	-0.39792	-1.1917	-1.4542	-0.37708	-1.1896	-0.84583	-0.80417	-1.1667	-0.50208	-0.96875	-1.2208	-0.50208	-1.1854	-0.72917	-0.5625	340.989	443.703	154.220	459.091	321.336	413.322	380.976	153.652	285.651	425.745	207.658	164.274	206.380	323.140	204.015	337.974	0.00017535	0.00021407	4.8517e-05	1056.3	6.2697e-07	3.0577e-06	1156.2	221.75	3.2849e-06	1.3291e-06	279.34	76.162	59.587	17.178	2.9104e-06	24.285	7.9483e-05	8.5859e-05	2.4495e-05	885.73	8.1808e-07	9.6303e-07	963.35	190.75	8.6583e-07	9.7456e-07	227	62.549	46.342	14.866	9.7301e-07	19.897	197.399	134.088	435.711	126.943	246.160	269.144	127.121	134.452	201.911	214.762	133.811	140.425	140.899	148.044	139.280	147.573	-8191	255	
1430.296	1	1	0	0	0.07094	0.1522	0.12119	0.27582	0.11824	0.10553	0.093745	0.276	0.22908	0.32789	0.32762	0.063879	0.061356	0.11991	0.47965	0.28937	-0.90833	-0.43542	-0.5125	-1.3813	-0.45833	-1.4	-1.1979	-0.625	-1.3708	-0.73542	-0.76458	-1.2354	-0.59792	-1.3021	-0.98958	-0.54792	417.294	389.447	331.381	475.899	327.958	382.132	434.781	313.940	206.121	308.558	407.635	372.103	277.243	361.563	467.890	394.468	0.00024091	0.00032544	0.00013642	1050.8	3.6816e-06	2.7129e-06	1152.3	221.28	1.346e-06	2.6888e-06	279.47	76.394	59.382	17.1	2.2348e-06	24.165	8.1161e-05	9.2288e-05	2.3685e-05	883.95	8.5872e-07	1.005e-06	961.48	190.18	8.9894e-07	1.0139e-06	226.2	62.625	46.734	14.906	9.3483e-07	19.811	188.331	450.073	232.876	126.836	241.402	207.149	127.078	134.234	199.441	162.922	133.898	140.686	140.877	147.971	246.804	147.966	-8191	255	
1430.392	1	1	0	0	0.069697	0.24706	0.095079	0.36	0.16191	0.0075178	0.31685	0.27435	0.11861	0.10088	0.23789	0.18647	0.21961	0.16166	0.30268	0.25323	-1.0583	-0.67083	-0.55	-1.4062	-0.6125	-0.93333	-1.1667	-0.28333	-1.1938	-0.88542	-0.70625	-1.3458	-0.41458	-0.94167	-1.1729	-0.67292	209.250	356.970	332.943	445.365	212.518	164.401	466.368	431.493	258.194	215.733	301.796	414.110	414.431	290.342	160.935	165.493	0.0002238	0.0001951	3.6702e-05	1058.3	3.5528e-06	1.6837e-06	1151.1	221.29	2.5608e-06	2.2879e-06	277.93	76.053	59.52	16.965	1.4326e-06	23.931	8.6239e-05	9.232e-05	2.2591e-05	883.6	9.1273e-07	9.8134e-07	958.22	189.81	9.3981e-07	9.9711e-07	224.78	62.279	46.88	14.752	9.0242e-07	19.702	202.591	128.575	447.527	126.919	267.637	245.033	127.040	134.075	249.731	274.437	134.169	140.753	140.986	147.710	269.453	147.064	-8191	255	
1430.513	1	1	0	0	0.38768	0.28548	0.29669	0.21637	0.34496	0.11542	0.12302	0.2414	0.1672	0.15037	0.23785	0.17368	0.12033	0.29897	0.17713	0.25422	-0.92708	-0.98125	-0.55	-1.3604	-0.54792	-0.96667	-1.4354	-0.59375	-1.2625	-0.94167	-0.72292	-1.4208	-0.55833	-0.73125	-1.1625	-0.50208	377.975	328.008	326.401	130.956	118.618	223.404	418.397	412.443	349.414	342.240	189.027	395.313	134.987	359.191	421.400	154.032	0.00029269	7.5308e-05	3.9975e-05	1058.9	2.6073e-06	1.1961e-06	1152.4	220.91	2.5777e-06	8.9795e-07	279.05	76.332	59.13	17.027	1.6852e-06	24.194	8.9801e-05	9.0083e-05	2.1866e-05	884.62	9.8137e-07	9.5011e-07	958.81	189.74	1.0017e-06	9.6502e-07	224.9	62.551	47.372	14.721	8.93e-07	19.924	206.154	250.356	226.142	126.830	246.750	234.293	126.950	134.260	274.865	471.134	133.943	140.740	141.050	148.146	460.754	147.582	-8191	255	
1430.609	1	1	0	0	0.013586	0.098432	0.26253	0.33025	0.36398	0.17467	0.43831	0.01917	0.089668	0.061701	0.16758	0.062969	0.092337	0.079686	0.1164	0.11037	-0.74792	-0.82708	-0.51875	-1.3583	-0.6375	-0.81458	-1.5562	-0.29792	-1.1167	-0.94375	-0.525	-1.3229	-0.78958	-0.53542	-1.3229	-0.47708	202.235	142.329	416.026	140.198	165.551	391.925	255.260	399.900	451.459	116.056	155.489	403.802	302.275	471.728	208.237	351.571	0.00025778	0.00018143	8.1986e-05	1059.7	3.9504e-06	2.0832e-06	1157.6	221.35	1.1319e-06	1.2377e-06	277.78	76.551	59.308	17.056	6.638e-07	24.491	9.5233e-05	8.6622e-05	2.1693e-05	886.78	1.0351e-06	9.117e-07	959.44	190.91	1.0312e-06	9.2904e-07	224.34	63.044	47.706	14.71	8.9051e-07	20.166	197.201	152.139	209.613	127.195	247.004	193.436	127.159	133.932	256.111	316.583	133.981	140.398	140.883	148.060	346.475	147.359	-8191	255	
1430.703	1	1	0	0	0.23747	0.29589	0.27432	0.19422	0.28925	0.26941	0.28433	0.25672	0.28815	0.20735	0.048655	0.15527	0.13509	0.33721	0.13058	0.19579	-0.65208	-1.0833	-0.49375	-1.4937	-0.70208	-0.8	-1.3583	-0.33958	-1.0771	-1.1521	-0.27917	-1.4792	-0.83125	-0.48125	-1.3563	-0.63125	314.239	193.193	178.385	411.458	425.841	142.559	409.932	353.000	262.599	272.805	329.898	149.774	202.242	192.975	398.578	274.019	0.00017474	0.00028261	3.4254e-05	1061.7	3.0538e-06	4.0821e-07	1149.3	221.84	1.0173e-06	1.1127e-06	278.68	76.965	59.327	17.018	8.6742e-07	24.358	9.4614e-05	8.4869e-05	2.1538e-05	889.1	1.0259e-06	8.8253e-07	957.83	191.58	1.0034e-06	9.1813e-07	224.48	63.45	47.462	14.64	8.945e-07	20.261	201.046	229.273	256.469	126.886	273.608	369.974	127.127	134.136	217.831	219.460	134.262	141.002	140.623	147.720	198.645	147.470	-8191	255	
1430.801	1	1	0	0	0.20076	0.067595	0.12205	0.075023	0.21175	0.24503	0.057874	0.11401	0.086393	0.11486	0.21362	0.10965	0.28676	0.14159	0.23834	0.045324	-0.5625	-1.2479	-0.55208	-1.2896	-0.90208	-0.58542	-1.2938	-0.62708	-0.89167	-1.1812	-0.48333	-1.1167	-0.975	-0.5125	-1.4583	-0.79167	207.072	298.884	120.563	409.369	341.431	169.962	142.567	295.906	361.408	348.083	139.914	278.771	407.637	155.202	454.476	171.857	0.00018309	6.3014e-05	3.3254e-05	1057.6	9.4447e-07	3.1188e-06	1152.3	221.8	2.4943e-06	3.2961e-06	278.94	76.173	59.685	17.076	3.8797e-06	24.207	9.0316e-05	8.2685e-05	2.1972e-05	890.8	9.7459e-07	8.6566e-07	959.63	192.1	9.4544e-07	8.8086e-07	224.99	63.357	47.036	14.591	9.0235e-07	20.262	200.598	233.528	254.337	126.908	274.549	180.944	127.168	134.193	204.869	198.648	134.055	140.852	140.990	147.898	206.186	147.961	-8191	255	
1430.897	1	1	0	0	0.038094	0.078642	0.19263	0.28703	0.10661	0.35946	0.43615	0.13751	0.10308	0.05303	0.098185	0.16785	0.093369	0.043267	0.059989	0.1504	-0.32708	-1.1104	-0.51458	-1.1521	-0.99792	-0.50417	-1.6	-0.82917	-0.79375	-1.3083	-0.59167	-1.1479	-1.1208	-0.45625	-1.3146	-0.76875	423.090	338.108	341.752	406.763	258.632	442.486	142.897	254.724	412.510	246.809	186.286	172.040	419.012	163.947	258.739	411.751	0.00018464	0.00015006	5.3382e-05	1055	2.0923e-06	1.5961e-06	1148.5	220.77	2.4752e-06	3.0719e-06	278.84	76.429	59.317	17.035	2.6992e-06	24.037	8.4186e-05	7.9819e-05	2.2815e-05	888.37	9.2849e-07	8.2984e-07	957.66	191.94	8.9474e-07	8.6976e-07	225.61	63.333	46.741	14.527	9.7162e-07	20.163	219.312	344.249	460.465	126.913	288.434	150.978	127.206	134.128	282.619	398.055	133.703	140.790	140.742	148.153	240.837	147.481	-8191	255	
1430.992	1	1	0	0	0.20263	0.27284	0.10112	0.11472	0.18585	0.072104	0.26912	0.32218	0.23157	0.068386	0.32384	0.060608	0.148	0.26739	0.26495	0.37229	-0.30417	-1.2354	-0.53958	-0.96875	-1.1938	-0.42292	-1.4896	-1.0396	-0.66458	-1.5458	-0.50417	-0.84792	-1.1375	-0.27708	-1.0229	-0.98958	302.527	176.182	279.918	151.594	169.745	160.316	340.053	473.635	133.070	299.781	436.628	209.965	370.566	446.722	369.079	375.023	0.00026134	9.8692e-05	8.1305e-05	1057.5	2.1466e-06	1.8007e-06	1155.4	219.35	1.9711e-06	1.5286e-06	278.14	76.094	58.964	16.995	2.1659e-06	24.095	8.1872e-05	7.9265e-05	2.4594e-05	887.64	9.0442e-07	8.3112e-07	961.52	190.87	8.6311e-07	8.5578e-07	226.22	62.787	46.482	14.503	1.0146e-06	20.051	186.987	171.438	192.138	127.285	202.571	197.344	127.237	134.366	165.624	209.628	134.369	141.040	140.775	148.045	182.966	147.718	-8191	255	
1431.088	1	1	0	0	0.081733	0.16208	0.16118	0.2469	0.045284	0.1317	0.12576	0.12493	0.044826	0.21136	0.2201	0.19211	0.15124	0.0739	0.099198	0.13406	-0.0041667	-1.3125	-0.58333	-0.96667	-1.2271	-0.41458	-1.3333	-1.0333	-0.24792	-1.2958	-0.69375	-0.80417	-1.2604	-0.44792	-1.0625	-0.99792	336.300	238.540	380.734	460.819	443.029	439.261	175.787	157.703	151.842	276.969	428.649	166.302	142.072	238.905	439.441	139.043	0.00025996	0.00022319	0.00013525	1054	1.6641e-06	2.2223e-06	1146.5	220.41	2.8182e-06	2.1199e-06	276.76	75.659	59.067	17.135	2.7788e-06	24.31	8.004e-05	8.0289e-05	2.6013e-05	884.75	8.963e-07	8.745e-07	961.6	190.76	8.6445e-07	9.215e-07	227.51	62.597	46.666	14.709	1.0511e-06	20.128	198.008	133.387	207.011	126.993	318.963	195.416	127.089	134.464	257.882	201.308	134.272	141.034	140.783	147.619	306.493	147.942	-8191	255	
1431.208	1	1	0	0	0.065064	0.058635	0.17287	0.24346	0.24522	0.065747	0.081925	0.1082	0.23295	0.15922	0.283	0.087387	0.36793	0.12765	0.16916	0.18384	0.16875	-1.1854	-0.59583	-0.825	-1.2563	-0.52292	-1.1042	-1.1021	-0.51458	-1.4458	-0.86042	-0.66458	-1.2417	-0.48542	-0.97292	-1.1187	240.448	230.739	408.826	381.990	386.896	399.388	324.796	394.423	366.025	181.884	434.277	347.500	407.069	462.439	305.911	337.914	0.00021796	0.00011067	7.6284e-05	1059.5	2.7552e-06	3.7407e-06	1152.3	222.37	1.7702e-06	1.8567e-06	278.95	76.418	59.767	17.316	3.7467e-06	24.288	8.0079e-05	8.8496e-05	2.7174e-05	886.97	9.1698e-07	9.7928e-07	966.27	191.88	8.7627e-07	1.0194e-06	229.11	63.007	47.085	15.013	1.0342e-06	20.233	202.757	177.395	146.311	127.132	361.203	197.874	127.095	134.234	199.531	238.017	133.888	140.459	140.711	147.976	263.948	147.679	-8191	255	
1431.305	1	1	0	0	0.15855	0.13358	0.28082	0.055418	0.31792	0.34789	0.27671	0.034516	0.10158	0.32491	0.35515	0.077747	0.072417	0.05916	0.20847	0.093258	-0.23542	-1.1604	-0.84583	-0.63333	-1.1938	-0.65625	-1.2146	-1.1292	-0.275	-1.1333	-0.84792	-0.51458	-1.3146	-0.52917	-0.9375	-1.2	279.310	457.426	465.094	346.833	215.412	350.246	400.016	198.716	289.786	192.379	459.172	226.490	449.430	322.440	214.631	453.950	0.00029545	0.00025445	5.3422e-05	1057.7	1.1569e-06	1.5371e-06	1152.3	221.83	2.3978e-06	1.3907e-06	278.68	76.271	59.565	17.012	1.7105e-06	24.095	8.1786e-05	9.3391e-05	2.6155e-05	885.51	9.0501e-07	1.0298e-06	962.58	190.82	8.6321e-07	1.0226e-06	226.57	62.429	46.761	14.865	9.4016e-07	19.951	200.501	136.771	246.099	126.663	191.804	193.748	127.169	134.301	230.208	468.357	134.164	140.550	140.983	147.982	268.807	147.423	-8191	255	
1431.401	1	1	0	0	0.12905	0.038564	0.092176	0.4591	0.12205	0.22605	0.28555	0.077479	0.25279	0.21146	0.10955	0.030113	0.15435	0.064268	0.1699	0.41563	-0.0020833	-1.0229	-1.0208	-0.60625	-1.2604	-0.67917	-0.78125	-1.2354	-0.3375	-1.0542	-1.1958	-0.575	-1.4188	-0.65208	-0.58958	-1.2938	383.134	164.745	391.863	411.940	288.229	452.319	426.620	447.093	200.439	150.483	321.810	363.132	372.662	319.568	250.787	295.217	0.0002548	0.00014064	1.4022e-05	1057.3	5.22e-06	2.0248e-06	1156.1	222.03	3.5675e-06	1.2607e-06	277.14	76.573	59.62	17.229	8.742e-07	24.399	8.2001e-05	9.3015e-05	2.434e-05	882.9	9.2787e-07	1.0436e-06	961.24	191.09	9.38e-07	1.0374e-06	227.13	62.684	47.571	15.055	9.3299e-07	20.198	189.758	300.785	314.092	126.800	189.225	283.121	127.234	134.371	228.241	193.130	134.285	140.532	141.157	147.515	458.672	147.590	-8191	255	
1431.497	1	1	0	0	0.070131	0.10339	0.12023	0.14582	0.14289	0.13056	0.12419	0.14813	0.22747	0.41243	0.28359	0.29869	0.21035	0.0484	0.11635	0.020356	0.091667	-0.97708	-1.1625	-0.5	-1.3208	-0.76042	-0.71875	-1.4292	-0.43125	-0.86667	-1.2958	-0.6125	-1.1125	-0.65208	-0.66458	-1.3208	462.751	310.051	154.157	398.660	226.740	456.391	176.608	457.826	308.901	391.490	446.585	458.575	286.688	223.481	377.957	203.215	0.00030742	7.0099e-05	2.5833e-05	1062.8	4.107e-06	3.1795e-06	1151.8	223.01	2.1549e-06	1.3708e-06	279.32	76.278	60.2	17.218	1.817e-06	24.306	9.1617e-05	9.4639e-05	2.4514e-05	887.75	1.0162e-06	1.0491e-06	962.4	192.31	1.0342e-06	1.0134e-06	227.85	62.956	48.185	15.081	9.0978e-07	20.185	201.462	251.702	333.947	127.005	239.602	229.537	127.384	134.288	210.527	320.147	134.160	140.202	141.031	148.022	294.807	147.574	-8191	255	
1431.593	1	1	0	0	0.055475	0.18	0.14641	0.39644	0.33734	0.14268	0.046633	0.11299	0.21595	0.096357	0.31647	0.13557	0.23079	0.33822	0.086316	0.13863	-0.1625	-0.90625	-1.2458	-0.36042	-1.2083	-0.71875	-0.65625	-1.4333	-0.48333	-0.61042	-1.1708	-0.34792	-1.1354	-1.0167	-0.3	-1.3146	121.287	142.597	381.620	465.905	267.662	399.608	129.216	328.553	334.577	242.918	432.674	472.340	457.881	234.108	332.464	320.873	0.00023922	0.00012529	4.5266e-05	1058.5	3.9577e-06	8.4534e-07	1155.9	221.88	1.3678e-06	1.0615e-06	279.15	76.305	59.648	17.107	1.5984e-06	24.229	9.6085e-05	8.8766e-05	2.336e-05	885.42	1.0337e-06	9.7889e-07	959.56	191.27	1.0461e-06	9.3076e-07	225.89	62.791	47.835	14.792	8.6466e-07	20.142	199.328	277.515	147.752	127.160	237.265	177.158	127.022	134.262	215.125	286.185	134.071	140.434	141.296	148.110	230.314	147.817	-8191	255	
1431.689	1	1	0	0	0.1927	0.1692	0.081599	0.10149	0.035285	0.16392	0.11698	0.12566	0.12494	0.1507	0.3622	0.014876	0.24311	0.10358	0.3819	0.14141	-0.28958	-0.6875	-1.4062	-0.56458	-1.1083	-1.1729	-0.48333	-1.5458	-0.71042	-0.63542	-1.4104	-0.575	-1.0083	-1.1271	-0.55417	-1.3708	130.655	299.835	426.778	229.188	207.806	374.682	367.173	355.911	178.578	295.909	411.498	411.747	450.086	426.838	212.918	369.545	0.0002755	9.0689e-05	3.9105e-05	1060.7	3.5587e-06	1.9524e-06	1148.6	222.85	1.3683e-07	1.3773e-06	281.33	76.596	60.6	17.193	2.7102e-06	24.405	9.7122e-05	8.3596e-05	2.2987e-05	887.22	1.0442e-06	9.5714e-07	958.76	192.83	1.0552e-06	9.0638e-07	227.08	63.567	48.15	14.916	8.8664e-07	20.474	206.939	379.372	434.564	127.161	224.121	222.328	127.323	134.440	176.160	316.386	134.223	140.456	141.238	147.721	198.614	147.607	-8191	255	
1431.784	1	1	0	0	0.1319	0.11417	0.075009	0.16242	0.14952	0.11988	0.27826	0.13983	0.17944	0.030892	0.17197	0.28283	0.067067	0.037511	0.07725	0.14349	-0.36458	-0.60625	-1.1854	-0.63542	-0.89375	-1.05	-0.35417	-1.2521	-0.85833	-0.41875	-1.3312	-0.73958	-0.87083	-1.3667	-0.3375	-1.3229	145.322	452.129	375.333	462.559	422.797	466.943	465.422	413.863	239.143	292.701	281.178	387.369	413.792	407.770	199.531	258.142	0.00013914	0.000197	0.00010327	1059	3.4564e-06	2.2679e-06	1152.2	222.28	1.7676e-06	7.9118e-07	279.91	77.237	60.044	17.271	9.8419e-07	24.363	9.8096e-05	8.3562e-05	2.3328e-05	893.25	1.0284e-06	9.5266e-07	959.26	194.02	1.0432e-06	9.0539e-07	227.26	64.188	47.834	14.908	9.1877e-07	20.618	224.455	299.980	204.952	127.028	275.229	134.552	127.088	134.459	248.955	299.290	134.058	140.544	141.037	147.961	238.977	147.852	-8191	255	
1431.904	1	1	0	0	0.060246	0.31715	0.10537	0.13312	0.3136	0.13884	0.21985	0.20847	0.19962	0.14072	0.12082	0.28524	0.30214	0.20493	0.22064	0.14621	-0.48958	-0.41667	-1.2188	-0.83542	-0.72917	-1.2229	-0.47083	-1.3292	-0.89167	-0.30208	-1.1979	-0.59583	-0.7625	-1.2938	-0.44375	-0.96458	192.881	381.571	443.517	444.772	141.166	243.982	355.292	419.420	128.771	344.919	348.748	452.254	426.465	424.879	350.367	141.910	0.00024504	0.00013758	4.8005e-05	1058.2	4.5585e-06	1.6056e-06	1155.5	222.37	1.7422e-06	2.6659e-06	278.14	76.328	59.748	17.163	3.7135e-06	24.333	9.4164e-05	8.1679e-05	2.4194e-05	894.62	9.6956e-07	9.2297e-07	961.96	193.78	9.8456e-07	8.8098e-07	227.37	64.09	47.441	14.768	9.7445e-07	20.487	209.371	475.600	198.881	127.100	254.154	278.902	127.148	134.567	270.134	174.106	133.808	140.820	140.868	147.907	168.568	147.650	-8191	255	
1432.000	1	1	0	0	0.25616	0.35176	0.11717	0.23769	0.033833	0.20576	0.18028	0.1034	0.10968	0.25996	0.20075	0.23342	0.19424	0.13113	0.13828	0.21374	-0.48958	-0.53125	-1.0708	-0.8375	-0.67292	-1.175	-0.74792	-1.1729	-1.1562	-0.3125	-1.3021	-0.70417	-0.69167	-1.3708	-0.61667	-1.0271	373.441	187.407	330.343	461.682	397.439	176.304	465.202	204.865	214.296	170.196	120.773	468.069	133.936	162.763	266.827	436.047	0.0002629	0.00014042	8.7156e-05	1049.7	8.1715e-07	3.1572e-06	1157	221.17	3.6404e-06	1.0602e-06	279.78	76.77	60.399	17.187	1.9931e-06	24.336	8.9684e-05	7.8677e-05	2.5376e-05	891.9	9.205e-07	8.979e-07	964.57	192.89	9.5608e-07	8.6693e-07	228.85	63.918	47.286	14.799	1.0533e-06	20.393	210.487	233.115	473.574	127.104	466.709	473.509	127.274	134.572	284.095	447.288	134.187	140.927	140.968	147.869	211.214	147.494	-8191	255	
1432.072	1	1	0	0	0.4483	0.28393	0.27254	0.20481	0.083448	0.040319	0.44436	0.14817	0.12395	0.50088	0.22935	0.17212	0.24267	0.20395	0.13655	0.21299	-0.85	-0.38958	-1.1854	-0.81042	-0.44792	-1.2104	-0.56667	-0.95	-1.0771	-0.33542	-1.1083	-0.69167	-0.325	-1.2896	-0.79583	-0.75625	228.653	424.831	193.219	448.640	121.389	371.559	420.101	413.718	215.096	140.450	254.970	151.073	416.139	151.345	131.820	420.137	0.00023137	0.00022694	6.5196e-05	1063.6	1.9044e-06	5.635e-07	1153.5	223.18	6.611e-07	7.8576e-08	280.64	76.952	60.093	17.311	3.1873e-06	24.496	8.8694e-05	8.0981e-05	2.7188e-05	894.12	9.1052e-07	9.2644e-07	967.71	193.3	9.37e-07	8.938e-07	229.96	63.855	47.257	14.913	1.089e-06	20.31	208.383	129.280	213.202	127.002	245.224	408.057	127.305	134.397	219.687	468.195	134.195	140.735	141.045	147.875	239.375	147.588	-8191	255	
1432.193	1	1	0	0	0.070944	0.21356	0.12591	0.15215	0.12313	0.17228	0.22106	0.4365	0.26017	0.071242	0.13409	0.25577	0.11619	0.12287	0.14798	0.21098	-0.81042	-0.19792	-1.0625	-1.0271	-0.39167	-1.4188	-0.74167	-0.71042	-1.2646	-0.475	-1.1187	-1.125	-0.26875	-1.3021	-0.58542	-0.58333	387.125	427.212	423.344	120.129	201.768	234.898	436.502	425.244	433.975	170.337	438.737	163.248	381.040	244.423	460.549	358.299	0.00024872	0.00024264	5.777e-05	1063.2	1.1492e-06	1.4192e-06	1157.3	223.04	1.2448e-06	2.1491e-06	282.2	77.146	60.501	17.513	1.6165e-06	24.431	8.6736e-05	8.5358e-05	2.7479e-05	893.56	8.859e-07	9.7545e-07	972.39	193.19	9.2461e-07	9.6652e-07	230.71	63.755	47.36	15.079	1.0838e-06	20.263	211.296	146.623	460.639	127.132	440.625	157.598	127.399	134.699	219.341	158.708	134.232	141.164	141.112	148.373	269.783	147.666	-8191	255	
1432.289	1	1	0	0	0.28226	0.19016	0.43904	0.11109	0.32115	0.23535	0.091522	0.29088	0.26142	0.26359	0.068091	0.10046	0.2218	0.15243	0.28445	0.17217	-0.79375	-0.40417	-1.0542	-1.2167	-0.37083	-1.2687	-0.90417	-0.60417	-1.3646	-0.50625	-1.0375	-1.2771	-0.48333	-1.2583	-0.96458	-0.50208	191.631	207.003	295.266	422.221	180.897	353.256	410.614	470.166	343.190	444.108	398.440	261.836	473.370	199.397	441.791	407.279	0.00028567	0.00017807	5.6658e-05	1068.2	2.3014e-06	3.1887e-06	1160.1	225.08	2.1308e-06	2.1428e-06	281.56	76.702	60.125	17.296	1.052e-06	24.547	8.5534e-05	9.2884e-05	2.6606e-05	893.53	8.8513e-07	1.0391e-06	971.73	193.53	9.2074e-07	1.0407e-06	230.39	63.709	47.34	15.169	1.023e-06	20.193	205.222	455.587	451.991	127.196	206.136	236.933	127.502	134.449	155.415	365.364	134.034	140.938	140.927	148.020	257.922	148.212	-8191	255	
1432.385	1	1	0	0	0.29025	0.18605	0.26514	0.053595	0.20187	0.059605	0.16824	0.36198	0.11519	0.13538	0.039615	0.08919	0.03318	0.20953	0.39925	0.096146	-0.74375	-0.46042	-0.65	-1.1417	-0.32917	-1.2062	-1.0333	-0.44583	-1.3292	-0.63958	-0.51875	-1.2479	-0.30833	-0.98542	-1.025	-0.29583	164.045	351.759	139.413	209.663	281.445	225.775	441.250	141.807	371.044	463.121	155.687	395.137	365.162	157.241	323.888	154.316	0.00029811	0.00015205	4.9858e-05	1065.5	2.4375e-06	4.6198e-07	1155.4	224.48	4.1333e-06	1.8318e-06	280.77	76.564	60.381	17.169	1.1236e-06	24.453	8.5726e-05	9.5967e-05	2.4747e-05	892.27	9.0522e-07	1.0563e-06	967.93	192.55	9.4154e-07	1.0668e-06	228.2	63.232	47.442	15.059	9.7071e-07	20.021	197.607	166.350	240.983	127.127	317.275	268.261	127.370	134.499	195.008	248.630	134.385	140.826	140.994	148.076	176.075	147.769	-8191	255	
1432.481	1	1	0	0	0.18697	0.1324	0.19971	0.11586	0.2847	0.1201	0.231	0.24288	0.2586	0.13383	0.14088	0.04184	0.091091	0.14918	0.22123	0.20262	-0.81667	-0.67083	-0.67292	-1.5646	-0.3125	-0.98542	-0.95208	-0.60417	-1.2771	-0.73958	-0.75208	-1.3375	-0.45	-1.0375	-1.0979	-0.39375	209.194	445.759	210.637	425.512	322.186	128.121	357.138	455.222	411.312	288.090	405.083	172.941	417.852	173.105	277.092	189.030	0.00028793	2.7632e-05	9.2172e-05	1062.6	1.261e-06	6.1667e-07	1153.1	222.87	2.5735e-06	1.679e-06	280.28	75.763	59.867	17.207	2.245e-06	24.12	9.0231e-05	9.6219e-05	2.3421e-05	889.13	9.6417e-07	1.0299e-06	962.82	191.53	9.8777e-07	1.0343e-06	226.98	62.755	47.645	14.897	9.3728e-07	19.94	203.474	297.682	292.467	127.109	199.807	218.392	127.306	134.742	185.918	232.563	134.048	140.819	141.327	148.164	332.404	148.042	-8191	255	
1432.600	1	1	0	0	0.15863	0.12306	0.17676	0.34056	0.18589	0.30445	0.11595	0.38583	0.023634	0.24065	0.20075	0.063154	0.070971	0.27504	0.22169	0.14201	-0.90208	-0.67917	-0.42708	-1.1042	-0.64792	-1.0146	-1.3333	-0.46667	-1.1854	-0.79792	-0.63958	-1.2833	-0.56875	-0.74583	-1.1708	-0.33125	364.702	195.225	301.951	445.767	362.750	269.601	170.548	451.861	287.408	409.196	298.391	286.843	152.636	386.629	222.894	116.629	0.00028523	3.0112e-05	5.1181e-05	1056.6	3.0153e-06	1.4266e-06	1149.9	221.75	1.8784e-06	5.5908e-07	277.26	76.248	59.243	16.9	3.0796e-06	24.131	9.3934e-05	9.1896e-05	2.2467e-05	884.35	1.0205e-06	9.748e-07	958.28	190.7	1.0336e-06	9.7871e-07	224.81	62.609	47.568	14.655	9.0635e-07	19.866	184.816	225.068	130.821	127.153	233.906	245.276	127.311	134.337	211.606	229.188	134.174	141.308	140.959	148.743	254.087	147.769	-8191	255	
1432.673	1	1	0	0	0.17624	0.21499	0.15009	0.15089	0.25198	0.22545	0.13461	0.28751	0.26886	0.27499	0.16429	0.13302	0.10598	0.34535	0.26602	0.38372	-0.87917	-0.90417	-0.50625	-1.4958	-0.42083	-0.8375	-1.3896	-0.4625	-1.025	-0.90208	-0.58958	-1.2958	-0.73333	-0.35417	-1.3	-0.44375	267.673	255.214	376.711	409.786	314.874	422.740	169.736	412.563	323.045	232.828	381.003	181.921	240.868	427.863	350.591	345.937	0.00030414	0.00034259	5.1201e-05	1057.7	4.1465e-06	1.712e-06	1149.6	220.29	1.4635e-06	1.9208e-06	278.85	76.144	58.927	16.943	2.7039e-06	24.101	9.5537e-05	8.6692e-05	2.1785e-05	886.72	1.0405e-06	9.0498e-07	956.19	190.18	1.0206e-06	9.2242e-07	224.5	62.879	47.59	14.591	8.7993e-07	20.034	190.134	323.914	180.704	127.281	234.432	289.594	127.442	134.504	175.185	220.523	134.480	141.152	141.734	148.496	263.376	147.828	-8191	255	
1432.770	1	1	0	0	0.039479	0.12936	0.03712	0.052244	0.21088	0.15769	0.32256	0.11294	0.1021	0.31624	0.049257	0.1722	0.14371	0.2474	0.13237	0.24888	-0.59792	-1.1604	-0.43333	-1.4937	-0.90833	-0.57917	-1.6354	-0.48542	-0.86042	-1.1521	-0.35625	-1.2708	-0.74583	-0.45208	-1.3042	-0.675	158.023	421.944	356.975	159.698	331.939	454.377	353.628	123.892	278.639	133.096	441.244	154.700	428.260	238.978	287.011	380.139	0.00022327	0.00036139	6.7703e-05	1060.7	9.346e-07	2.4777e-06	1150.8	221.02	2.0455e-06	2.1006e-07	280.93	76.069	59.435	16.976	3.2958e-06	24.218	9.3029e-05	8.3544e-05	2.1462e-05	888.72	1.0182e-06	8.8031e-07	956.85	191.71	9.9416e-07	9.0746e-07	225.24	63.317	47.32	14.56	8.8364e-07	20.209	221.156	172.074	270.131	127.279	272.609	323.483	127.438	134.336	300.363	167.929	134.107	140.727	141.289	148.157	204.219	147.747	-8191	255	
1432.888	1	1	0	0	0.32713	0.19954	0.29065	0.26293	0.17855	0.2349	0.073703	0.16591	0.23555	0.031866	0.248	0.2856	0.21991	0.15699	0.12394	0.14486	-0.4	-1.2708	-0.24167	-1.2771	-0.92292	-0.57292	-1.4083	-0.73542	-0.79583	-1.4208	-0.53542	-1.1146	-0.89583	-0.58958	-1.1979	-0.70417	157.234	176.165	292.472	466.583	304.161	327.590	404.584	209.385	461.883	322.561	404.758	422.833	439.804	331.980	180.045	237.525	0.00017209	0.00019473	5.8667e-05	1055.9	3.0412e-06	2.861e-06	1154.8	222.53	7.4752e-07	1.7353e-06	280.5	76.499	59.72	17.271	8.9284e-07	24.314	8.9713e-05	8.2053e-05	2.1882e-05	889.46	9.9307e-07	8.671e-07	960.23	193.1	9.5801e-07	9.1627e-07	226.53	64.006	47.706	14.75	9.6001e-07	20.527	218.158	423.302	143.536	127.124	236.171	164.575	127.183	134.282	239.444	199.985	134.323	140.652	140.983	147.951	192.902	147.908	-8191	255	
1432.985	1	1	0	0	0.27442	0.15282	0.094992	0.14471	0.1571	0.18063	0.078481	0.15611	0.061637	0.20757	0.3428	0.18971	0.087249	0.29354	0.025312	0.28378	-0.22917	-1.3583	-0.24583	-1.2875	-1.1354	-0.41042	-1.25	-0.89167	-0.65417	-1.3125	-0.59583	-1	-1.1729	-0.62917	-1.3875	-0.8625	264.188	339.920	337.381	348.496	285.038	204.246	249.522	364.229	157.367	271.311	449.349	354.688	290.935	208.943	190.980	128.172	0.00030453	0.00014183	9.4244e-05	1061.7	1.1662e-06	1.5807e-06	1154.9	224.27	3.0879e-06	3.8091e-07	282.18	77.339	60.029	17.259	2.4216e-06	24.165	8.8203e-05	8.4153e-05	2.4231e-05	896.18	9.7198e-07	8.7344e-07	967.45	194.95	9.382e-07	9.0749e-07	229.12	64.385	47.669	14.787	1.03e-06	20.47	208.557	157.148	182.276	127.155	269.852	317.482	127.016	134.344	209.584	195.236	134.337	140.864	140.658	148.209	160.310	147.893	-8191	255	
1433.081	1	1	0	0	0.17243	0.11606	0.2979	0.31199	0.12505	0.27727	0.23624	0.10122	0.084238	0.19274	0.23607	0.24231	0.045419	0.13126	0.031927	0.30628	-0.029167	-1.1854	-0.55417	-1.0417	-1.0021	-0.4625	-1.3146	-1.0792	-0.63958	-1.2563	-0.58542	-0.925	-1.2917	-0.5125	-1.1063	-0.90833	324.046	321.674	158.196	420.257	123.970	131.016	388.119	392.679	470.583	217.679	453.567	347.196	429.592	409.134	374.189	124.554	0.00028311	5.3503e-05	6.0925e-05	1062.2	4.8664e-07	2.0097e-06	1154.7	223.23	2.2764e-06	2.0946e-06	281.56	76.86	59.972	17.313	7.8223e-07	24.234	8.5232e-05	8.2405e-05	2.6221e-05	894.58	9.516e-07	8.7627e-07	968.1	193.86	9.1205e-07	9.0887e-07	230.12	63.825	47.598	14.817	1.0713e-06	20.411	205.649	173.296	193.142	127.095	172.639	294.777	127.551	134.207	315.784	212.829	134.010	141.067	140.571	147.689	285.149	147.921	-8191	255	
1433.201	1	1	0	0	0.096185	0.17113	0.086437	0.21137	0.21683	0.1698	0.32148	0.2112	0.088101	0.24004	0.10193	0.058913	0.16503	0.28427	0.12362	0.28448	0.072917	-1.3604	-0.50833	-0.86458	-1.3271	-0.50625	-1.2729	-1.2146	-0.37292	-1.3333	-0.81667	-0.87292	-1.3458	-0.58542	-0.93333	-1.1104	400.820	159.911	168.936	147.722	205.741	162.910	471.163	129.468	467.852	128.836	414.760	353.341	442.617	464.960	454.240	259.148	0.00017275	0.00032268	8.6083e-05	1064.8	2.4356e-06	2.8079e-06	1157.7	223.29	7.7086e-07	8.4015e-07	279.34	77.163	60.478	17.222	1.7587e-06	24.213	8.3775e-05	8.5478e-05	2.7441e-05	893.28	9.3069e-07	9.1745e-07	970.13	193.55	8.8945e-07	9.4716e-07	229.77	63.456	47.488	14.886	1.0733e-06	20.238	197.549	244.459	264.086	127.105	259.033	167.231	127.089	134.414	245.357	189.299	134.105	140.590	140.421	147.979	355.333	147.215	-8191	255	
1433.298	1	1	0	0	0.12229	0.14563	0.19965	0.11416	0.055488	0.25554	0.28461	0.30778	0.068093	0.25614	0.19978	0.2044	0.033836	0.27167	0.20435	0.21858	-0.1125	-1.1042	-0.62708	-0.76042	-1.3958	-0.44583	-1.2229	-1.1521	-0.40417	-1.2458	-1.0625	-0.76667	-1.4083	-0.54167	-0.95	-1.2771	223.336	234.114	352.221	439.704	262.706	291.530	380.852	360.118	463.652	151.382	145.477	123.889	338.442	174.244	422.655	124.908	0.0003755	8.092e-05	2.1626e-05	1061.9	3.7413e-06	5.7587e-06	1153.9	223.22	1.5536e-06	3.4509e-06	279.75	76.983	59.678	17.076	1.3933e-06	24.267	8.2222e-05	9.0747e-05	2.75e-05	889.44	9.1352e-07	9.8869e-07	968.08	192.79	8.839e-07	1.021e-06	229.17	63.229	47.152	14.937	1.0156e-06	20.166	209.335	172.836	361.737	127.115	202.391	193.324	127.274	134.362	211.252	190.911	134.278	140.751	141.161	148.300	370.222	147.502	-8191	255	
1433.369	1	1	0	0	0.25857	0.32538	0.15258	0.28343	0.19801	0.14693	0.12065	0.16616	0.24842	0.22645	0.31329	0.19792	0.07844	0.18797	0.21197	0.23868	-0.041667	-1.3375	-0.89583	-0.71458	-1.325	-0.3	-0.91875	-1.2854	-0.53333	-1.4417	-0.90833	-0.49375	-1.2938	-0.56042	-0.90625	-1.4896	276.060	147.242	201.708	143.774	181.110	424.115	332.896	417.859	282.698	271.510	133.466	288.028	457.623	467.483	200.361	301.716	0.00026441	0.00020717	2.4759e-05	1058.2	2.5919e-06	2.2396e-06	1154.7	221.46	5.5632e-06	8.5454e-07	279.5	75.965	59.806	17.048	2.0262e-06	24.279	8.2164e-05	9.4384e-05	2.5987e-05	885.98	9.0576e-07	1.046e-06	962.66	191.56	9.0037e-07	1.0542e-06	227.67	62.735	47.095	14.932	9.6627e-07	20.079	204.683	123.265	377.547	127.049	135.119	243.518	127.209	134.411	220.292	391.774	134.118	140.965	141.030	147.694	364.242	147.572	-8191	255	
1433.465	1	1	0	0	0.30702	0.13955	0.1332	0.19248	0.066239	0.034573	0.43316	0.084986	0.16143	0.13864	0.1395	0.11485	0.1984	0.17567	0.087265	0.1551	0.035417	-1.1896	-1.1896	-0.4625	-1.2917	-0.72917	-0.73333	-1.4813	-0.40625	-1.1458	-1.0396	-0.525	-1.3771	-0.58958	-0.6375	-1.3563	319.926	422.720	375.804	442.249	226.545	266.184	398.376	432.637	405.039	438.987	433.001	332.498	254.882	466.246	153.577	323.433	0.00025796	0.00015327	9.4219e-05	1057.2	3.413e-06	2.2464e-06	1149.8	221.08	3.3034e-06	4.3366e-07	279.77	76.288	59.704	16.956	1.69e-06	24.204	8.5085e-05	9.6204e-05	2.4798e-05	882.98	9.5853e-07	1.0562e-06	960.21	190.64	9.4171e-07	1.0313e-06	226.48	62.474	47.455	14.842	9.135e-07	19.927	205.712	217.178	191.343	127.300	187.569	231.726	127.300	134.430	230.913	337.394	133.993	140.657	140.839	148.396	318.964	147.522	-8191	255	
1433.586	1	1	0	0	0.25781	0.057398	0.2637	0.36575	0.10454	0.070468	0.061877	0.2895	0.25038	0.11954	0.063179	0.24867	0.15547	0.10747	0.20525	0.10208	-0.10833	-0.99375	-1.3042	-0.43333	-1.2917	-0.73333	-0.63542	-1.6167	-0.42917	-1.0771	-1.3958	-0.43958	-1.2458	-0.88125	-0.63542	-1.2417	360.379	332.934	262.057	129.266	390.770	193.179	407.692	214.019	439.591	153.147	455.230	219.613	150.709	359.257	249.407	306.470	0.00022293	0.00023195	0.00012011	1054.1	3.3055e-06	3.0603e-06	1148.4	222.03	1.7772e-06	1.912e-06	278.69	76.051	59.445	16.929	2.7552e-06	24.065	9.0573e-05	9.2519e-05	2.3699e-05	880.95	1.0053e-06	1.0171e-06	957.54	191.08	1.0101e-06	9.7539e-07	225.84	62.468	47.646	14.786	8.8528e-07	19.922	183.284	271.500	247.343	127.319	232.497	301.218	127.493	134.306	251.638	213.326	133.856	140.947	141.261	148.528	133.236	147.890	-8191	255	
1433.680	1	1	0	0	0.16918	0.049995	0.13401	0.38827	0.21275	0.15713	0.12582	0.10712	0.21852	0.42371	0.12516	0.20964	0.078488	0.029073	0.16728	0.31621	-0.11875	-0.66875	-1.2167	-0.38958	-1.2	-0.87292	-0.56458	-1.4	-0.60208	-0.75833	-1.3542	-0.49375	-1.0625	-1.0812	-0.50833	-1.4729	290.523	173.699	343.702	166.303	164.930	193.263	340.651	398.865	165.245	254.034	222.101	181.816	302.688	144.002	281.964	466.539	0.00029131	0.00030656	1.4233e-05	1064.8	3.188e-06	2.7435e-06	1149.2	222.6	1.7782e-06	4.302e-07	277.38	76.527	60.203	17.157	2.829e-06	24.22	9.6055e-05	8.7285e-05	2.336e-05	885.05	1.042e-06	9.8639e-07	957.01	191.58	1.0588e-06	9.4223e-07	226.18	63.009	48.026	14.835	8.8028e-07	20.183	186.523	267.155	241.442	127.047	256.025	375.529	127.298	134.366	473.895	434.351	134.021	140.603	141.397	148.451	267.044	147.999	-8191	255	
1433.777	1	1	0	0	0.1208	0.03592	0.13578	0.2573	0.098206	0.029782	0.15855	0.34902	0.1818	0.24194	0.1306	0.12516	0.19121	0.18246	0.12912	0.27412	-0.43125	-0.56042	-1.2458	-0.64792	-0.94583	-1.1271	-0.57083	-1.3354	-0.76875	-0.63333	-1.2875	-0.575	-1.0333	-1.025	-0.44792	-1.2458	161.606	426.362	245.404	347.052	417.233	430.914	132.655	422.887	196.295	328.457	126.902	442.005	226.424	448.923	336.633	361.263	0.00022446	6.9835e-05	3.2356e-05	1059.8	5.0379e-06	3.2636e-06	1152.9	222.75	2.0347e-06	2.0338e-06	278.86	76.641	59.85	17.026	1.6252e-06	24.2	9.9033e-05	8.4567e-05	2.2991e-05	888.7	1.0508e-06	9.5017e-07	958.55	192.79	1.0636e-06	9.0939e-07	226.05	63.532	47.89	14.736	8.7056e-07	20.302	197.867	447.884	350.025	127.140	302.293	206.329	127.494	134.491	323.322	263.946	134.066	140.726	140.931	148.531	286.934	148.137	-8191	255	
1433.873	1	1	0	0	0.39791	0.22189	0.22264	0.086234	0.11574	0.21111	0.13887	0.25785	0.21584	0.03314	0.18876	0.21313	0.3199	0.099289	0.1925	0.072789	-0.49792	-0.41042	-1.3833	-0.69792	-0.96875	-1.2208	-0.60208	-1.3625	-0.86458	-0.50417	-1.2646	-0.6625	-0.81042	-1.1771	-0.575	-1.1562	388.336	394.893	337.236	458.655	309.998	323.779	425.965	389.225	269.646	393.977	338.215	452.454	346.599	170.146	446.599	292.320	0.00024254	0.00036256	8.5064e-05	1059.9	2.3997e-06	1.2685e-06	1157.9	222.83	2.1078e-06	1.4418e-06	277.74	76.387	59.798	17.112	1.8728e-06	24.225	9.481e-05	8.0625e-05	2.2649e-05	890.62	9.8304e-07	9.1199e-07	957.68	192.83	9.9618e-07	8.6991e-07	225.76	63.614	47.294	14.695	8.9003e-07	20.357	205.800	166.690	127.563	126.992	375.423	209.810	127.200	134.307	254.718	379.556	134.113	140.972	141.038	147.980	208.657	147.609	-8191	255	
1433.969	1	1	0	0	0.088427	0.30506	0.30387	0.099518	0.11954	0.15187	0.29089	0.44867	0.33462	0.086403	0.22992	0.11029	0.16064	0.19161	0.20883	0.090887	-0.57708	-0.4125	-1.3458	-0.76042	-0.61042	-1.1938	-0.66875	-1.0729	-0.88125	-0.54375	-1.4104	-0.83542	-0.66875	-1.2333	-0.51458	-1.1021	210.998	136.882	430.325	125.523	463.200	136.179	462.703	295.201	412.315	398.911	422.343	469.168	335.096	460.872	144.048	431.570	0.00020757	0.00011274	4.4818e-05	1060.2	1.7937e-06	1.4587e-06	1154.3	222.79	5.3529e-07	1.5098e-06	277.95	76.428	59.532	17.012	3.2285e-06	24.199	9.0597e-05	7.8775e-05	2.3413e-05	893.16	9.3448e-07	8.903e-07	960.04	193.3	9.4882e-07	8.4073e-07	226.97	63.765	46.946	14.609	9.5135e-07	20.271	200.439	162.128	464.626	126.989	191.107	259.560	127.428	134.541	169.317	336.956	134.158	140.469	141.148	148.228	192.182	147.687	-8191	255	
1434.065	1	1	0	0	0.039077	0.092563	0.24072	0.31563	0.11742	0.21212	0.31788	0.26689	0.13762	0.11736	0.28456	0.092552	0.29715	0.31625	0.08321	0.099273	-0.82292	-0.225	-1.3458	-0.82083	-0.61458	-1.4021	-0.57083	-1.0271	-1.1229	-0.41458	-1.4146	-0.97083	-0.49167	-1.2896	-0.61667	-0.94583	272.104	222.330	132.087	386.049	156.223	284.098	469.144	432.559	340.912	410.140	321.059	324.197	395.217	256.244	154.544	378.418	0.00031538	0.00021175	3.3074e-05	1057.4	8.9166e-07	2.1077e-06	1152.3	221.49	1.3635e-06	6.5482e-07	278.57	76.033	59.45	17.007	3.7461e-06	24.029	8.7098e-05	7.7288e-05	2.4841e-05	890.53	8.9254e-07	8.8044e-07	960.68	191.83	9.3269e-07	8.4953e-07	227.29	63.307	46.61	14.574	1.0177e-06	20.099	202.870	175.466	177.936	126.997	236.377	162.577	127.142	134.568	214.801	196.487	134.163	140.641	141.402	148.173	183.894	148.206	-8191	255	
1434.161	1	1	0	0	0.18006	0.18712	0.34293	0.13271	0.089525	0.20424	0.13794	0.099525	0.25075	0.12101	0.13229	0.15383	0.1344	0.27627	0.13304	0.33797	-0.66875	-0.48125	-1.2896	-0.88958	-0.42292	-1.2771	-0.62708	-0.99167	-1.2812	-0.4375	-1.2437	-1.1708	-0.57917	-1.2833	-0.73333	-0.70625	457.383	339.731	362.219	472.932	383.133	191.143	433.198	361.203	255.571	154.720	282.859	206.323	120.105	359.724	180.112	306.543	0.00026085	0.00026064	6.9119e-05	1057.3	2.3983e-06	3.6717e-06	1150.6	220.14	9.447e-07	1.5057e-06	278.91	76.109	59.183	16.859	2.0269e-06	23.963	8.5737e-05	7.8352e-05	2.6168e-05	886.85	8.6771e-07	8.8405e-07	962.67	190.76	9.0553e-07	8.8266e-07	227.43	62.961	46.426	14.596	1.0608e-06	20.005	192.915	222.532	472.330	127.105	142.129	149.692	127.519	134.539	365.203	284.286	134.379	140.732	141.407	148.342	243.289	148.097	-8191	255	
1434.282	1	1	0	0	0.082262	0.16332	0.097027	0.21107	0.12691	0.022584	0.25622	0.16546	0.12786	0.11985	0.20787	0.078447	0.050352	0.0422	0.14422	0.052062	-1.0042	-0.38958	-1.1333	-1.0875	-0.44583	-1.3	-1.0438	-0.82708	-1.3125	-0.33125	-0.9375	-1.1	-0.44792	-1.325	-0.74167	-0.76458	460.941	158.501	231.522	448.283	446.156	427.291	435.770	432.249	257.917	355.077	224.754	386.259	399.418	327.260	185.571	211.621	0.00020935	0.00040544	6.2998e-05	1050.7	2.551e-06	1.3829e-06	1151.6	220.74	1.6716e-06	1.6446e-06	278.01	75.771	59.058	16.901	6.5136e-07	24.033	8.399e-05	8.4043e-05	2.6628e-05	884.4	8.576e-07	9.4862e-07	963.14	190.56	8.8011e-07	9.4372e-07	227.03	62.673	46.198	14.652	1.033e-06	19.796	220.925	469.885	308.125	127.137	258.097	460.755	127.164	134.565	222.121	211.805	134.463	140.640	141.378	148.221	464.252	148.313	-8191	255	
1434.378	1	1	0	0	0.17182	0.26622	0.23554	0.39007	0.14586	0.21641	0.16321	0.24782	0.28214	0.052561	0.06899	0.30543	0.19878	0.13132	0.1325	0.093966	-0.95833	-0.48125	-0.98958	-1.2771	-0.40833	-1.1688	-1.0854	-0.46667	-1.3042	-0.54583	-1.0688	-1.3917	-0.33125	-1.2	-0.98125	-0.43958	263.588	449.724	242.964	466.823	432.945	443.486	166.227	125.158	328.148	292.284	341.269	300.992	376.639	298.506	449.027	340.247	0.00024478	0.00026077	3.9894e-05	1057.7	2.2703e-06	1.4877e-06	1150.7	221.06	1.8847e-06	1.6824e-06	278.16	75.749	59.371	16.934	5.1558e-06	24.145	8.0603e-05	8.8452e-05	2.4995e-05	883.54	8.4375e-07	9.9069e-07	961.73	189.93	8.8614e-07	1.0043e-06	226.25	62.443	46.495	14.772	9.8544e-07	19.855	204.290	157.943	201.071	127.406	213.577	229.044	127.146	134.826	232.334	234.027	134.699	140.847	141.590	148.594	240.227	148.215	-8191	255	
1434.474	1	1	0	0	0.22868	0.20854	0.19633	0.40029	0.37361	0.11953	0.11459	0.2569	0.25136	0.3638	0.21437	0.10237	0.097978	0.47671	0.073352	0.19268	-1.0625	-0.64583	-0.82917	-1.3583	-0.37292	-1.0667	-1.1917	-0.42708	-1.3062	-0.725	-0.8375	-1.2083	-0.44167	-1.15	-0.94583	-0.3625	218.926	294.107	279.258	467.733	179.141	282.739	426.074	444.580	369.480	236.159	177.874	283.122	119.117	451.667	344.685	174.491	0.00034999	9.0978e-05	9.9908e-05	1059.7	2.0119e-06	1.6373e-06	1147.5	221.1	4.53e-06	1.7591e-06	278.77	75.996	59.538	16.967	7.6981e-07	24.178	8.3947e-05	9.4097e-05	2.4119e-05	883.63	8.9105e-07	1.0302e-06	959.48	190.39	9.3442e-07	1.0437e-06	225.94	62.677	47.029	14.86	9.6245e-07	19.892	205.182	432.470	249.817	127.127	255.856	389.551	127.521	134.689	229.193	185.896	134.407	140.795	141.052	148.637	239.876	147.774	-8191	255	
1434.570	1	1	0	0	0.17842	0.10391	0.080935	0.41515	0.34577	0.13688	0.078776	0.0084125	0.27796	0.23095	0.27819	0.22885	0.13502	0.1361	0.21285	0.064266	-0.86875	-0.63125	-0.71667	-1.2896	-0.41667	-0.89167	-1.1646	-0.40208	-1.2062	-1.0167	-0.69792	-1.3062	-0.5	-0.98333	-1.1958	-0.475	372.831	395.771	149.645	451.018	421.396	148.139	313.422	217.112	443.505	116.520	169.613	468.916	366.145	174.955	224.129	159.004	0.00030162	0.00019873	7.469e-05	1061.5	4.6699e-06	1.5214e-06	1152.9	221.25	1.9823e-06	2.5746e-06	279.86	76.003	59.411	17.066	4.3952e-06	24.096	8.9699e-05	9.5529e-05	2.3254e-05	883.45	9.767e-07	1.025e-06	958.94	190.2	9.9715e-07	1.0222e-06	225.53	62.365	47.259	14.755	9.2419e-07	19.785	201.079	368.984	245.873	127.417	213.711	235.997	127.435	134.457	269.973	402.205	134.276	140.978	141.257	148.838	383.853	148.283	-8191	255	
1434.666	1	1	0	0	0.20074	0.20267	0.055565	0.10904	0.38835	0.14171	0.16502	0.27014	0.1618	0.26687	0.11711	0.12702	0.16747	0.11961	0.066597	0.30991	-0.78542	-0.8625	-0.49583	-1.5104	-0.49167	-0.91875	-1.1854	-0.61875	-1.2083	-1.1542	-0.53542	-1.3229	-0.5375	-0.94792	-1.1313	-0.50417	399.988	269.200	369.437	344.471	175.436	324.952	143.602	307.922	270.302	258.345	162.293	332.819	198.054	471.047	223.160	183.086	0.00027555	8.6675e-05	3.1689e-05	1055.2	4.4867e-06	2.7911e-06	1149	220.93	1.3473e-06	2.3183e-06	278.42	76.01	59.662	16.984	2.2916e-06	24.09	9.3753e-05	9.0158e-05	2.2333e-05	882.93	1.0188e-06	9.5941e-07	956.25	190.07	1.0273e-06	9.5766e-07	224.43	62.394	47.573	14.629	9.0591e-07	19.891	215.333	157.001	166.913	127.344	211.167	389.571	127.233	134.381	172.797	294.167	134.470	140.844	141.247	148.330	303.974	147.650	-8191	255	
1434.763	1	1	0	0	0.14029	0.067175	0.14362	0.13824	0.067476	0.13937	0.30664	0.21304	0.17297	0.19887	0.010741	0.28588	0.071938	0.32364	0.14395	0.17144	-0.7875	-0.92708	-0.47083	-1.6021	-0.67292	-0.66458	-1.4396	-0.5875	-0.9375	-1.0021	-0.48542	-1.2542	-0.84167	-0.83542	-1.3438	-0.80417	119.501	210.165	380.640	223.963	345.148	201.415	403.856	153.062	163.403	455.798	230.870	467.786	329.208	266.114	394.186	390.683	0.00024394	0.0001353	6.3311e-05	1054.4	1.9234e-06	2.5363e-07	1147.2	220.49	1.3843e-06	1.1915e-06	276.76	76.038	59.015	16.959	2.5667e-07	24.139	9.5522e-05	8.6552e-05	2.1624e-05	884.46	1.0373e-06	9.0668e-07	955.28	190.5	1.0311e-06	9.3114e-07	223.35	62.816	47.396	14.555	8.9193e-07	20.065	201.030	198.440	463.647	127.278	202.916	300.572	127.265	134.888	289.190	243.334	134.279	140.859	141.416	148.266	447.946	148.038	-8191	255	
1434.881	1	1	0	0	0.22566	0.2809	0.45177	0.15006	0.13704	0.24356	0.27909	0.18276	0.057071	0.10192	0.22345	0.135	0.17364	0.20744	0.14692	0.16956	-0.74583	-1.1917	-0.46458	-1.3375	-0.81458	-0.69792	-1.2646	-0.62292	-0.8125	-1.1729	-0.39792	-1.2333	-0.87083	-0.54375	-1.5771	-0.51667	175.019	441.400	416.680	183.806	452.136	242.234	383.115	380.968	429.161	223.100	119.761	126.089	144.893	354.560	324.409	303.102	0.00026123	0.00011081	4.0639e-05	1058.6	5.5533e-07	1.3944e-06	1149.1	220.28	1.8994e-06	2.0069e-06	277.37	75.64	59.008	17.09	8.9773e-07	24.033	9.4033e-05	8.4163e-05	2.1564e-05	888.25	1.0276e-06	8.9538e-07	955.04	190.98	9.9663e-07	9.1384e-07	224.06	63.095	47.231	14.536	9.0201e-07	20.181	204.148	237.527	289.738	127.255	390.835	190.240	127.256	134.600	280.328	204.610	134.589	140.685	141.132	148.063	123.226	147.521	-8191	255	
1434.978	1	1	0	0	0.22022	0.24728	0.20649	0.29093	0.24016	0.048099	0.099241	0.14523	0.28156	0.11381	0.3719	0.32084	0.13525	0.31977	0.30924	0.087203	-0.4375	-1.1625	-0.5	-1.2729	-1.0458	-0.42708	-1.5812	-0.85208	-0.82917	-1.2771	-0.6125	-1.1875	-0.95625	-0.60833	-1.3896	-0.85417	129.224	300.493	334.135	394.725	248.228	150.345	417.003	359.377	246.247	238.615	463.264	341.831	365.416	419.257	459.599	293.859	0.00020078	0.00032022	4.1479e-05	1055.6	1.6933e-06	3.4826e-06	1149.6	220.62	5.4268e-07	1.3257e-06	278.13	76.158	58.625	17.071	2.1207e-06	23.914	8.9734e-05	8.3398e-05	2.2332e-05	889.53	9.9159e-07	8.727e-07	958.33	192.08	9.4914e-07	9.0725e-07	225.05	63.457	46.962	14.571	9.553e-07	20.301	190.689	131.035	240.417	127.049	271.584	227.940	127.215	134.194	310.961	256.524	134.103	140.915	141.198	148.691	225.037	147.435	-8191	255	
1435.074	1	1	0	0	0.099775	0.26029	0.066726	0.025014	0.21389	0.068698	0.27211	0.23763	0.093281	0.11801	0.28834	0.094813	0.17904	0.21703	0.026221	0.23351	-0.45625	-1.1771	-0.34167	-1.2313	-1.1146	-0.48958	-1.575	-0.98542	-0.6375	-1.4792	-0.4875	-1.1292	-1.2479	-0.4625	-1.2542	-0.68958	358.821	378.048	208.576	256.921	273.540	319.945	409.369	434.332	318.532	269.480	441.627	295.859	465.998	467.193	370.638	368.755	0.00018694	0.0002047	6.2193e-05	1056.9	6.1411e-07	2.7677e-06	1150.4	221.2	1.5589e-06	2.3385e-06	278.24	76.651	59.46	17.053	1.3732e-06	24.486	8.717e-05	8.3315e-05	2.4653e-05	890.62	9.671e-07	8.7842e-07	963.32	192.83	9.4897e-07	9.1533e-07	228.11	63.879	47.408	14.72	1.0733e-06	20.533	198.444	431.035	135.617	127.368	384.908	292.173	127.322	134.458	334.566	262.153	134.263	140.821	140.924	148.191	166.968	147.853	-8191	255	
1435.170	1	1	0	0	0.1118	0.10121	0.13331	0.21049	0.38556	0.13849	0.38051	0.28002	0.10594	0.25172	0.17104	0.10281	0.16621	0.32191	0.20553	0.17371	-0.26875	-1.3792	-0.54167	-1.1521	-1.2354	-0.5625	-1.25	-0.95	-0.475	-1.3188	-0.71042	-0.86667	-1.25	-0.5125	-1.1396	-0.98958	348.386	188.162	394.415	162.300	239.341	222.510	402.319	468.756	439.429	268.295	434.111	143.424	194.844	321.506	284.104	168.059	0.00017602	0.0001787	4.7907e-05	1058.2	1.8954e-06	2.1506e-06	1154	223.21	2.0777e-06	2.1961e-06	280.24	77.311	60.061	17.316	1.6463e-06	24.202	8.7953e-05	8.4503e-05	2.702e-05	891.57	9.7756e-07	8.9921e-07	967.09	193.72	9.2956e-07	9.3276e-07	230.35	63.921	47.398	14.896	1.1044e-06	20.447	202.065	377.056	277.097	127.063	257.486	304.209	127.418	134.810	276.948	175.743	134.227	140.808	140.927	147.994	163.717	147.678	-8191	255	
1435.266	1	1	0	0	0.25562	0.20818	0.21126	0.35442	0.16118	0.086014	0.076306	0.039818	0.23049	0.14528	0.071154	0.044728	0.048692	0.065627	0.058835	0.30306	-0.25	-1.3125	-0.46667	-0.92083	-1.2104	-0.4125	-1.1896	-1.0896	-0.31042	-1.2854	-0.54167	-0.7	-1.3104	-0.60625	-1.1063	-1.0396	119.136	416.850	170.758	186.506	452.811	200.357	438.142	364.320	257.534	185.158	334.831	270.075	223.219	456.473	229.367	459.680	0.00025609	0.00029546	5.7985e-05	1056.8	2.5876e-06	3.5292e-06	1154.1	223.34	2.3534e-06	1.5236e-06	281.76	77.451	60.374	17.412	1.8262e-06	24.576	8.5873e-05	8.831e-05	2.8205e-05	890.36	9.5935e-07	9.6546e-07	971.4	193.68	9.1712e-07	1.0008e-06	231.25	63.886	47.702	15.083	1.1072e-06	20.466	205.454	448.325	295.481	127.186	298.415	206.946	127.354	134.318	189.952	262.298	133.905	140.508	141.132	147.827	268.421	147.322	-8191	255	
#DATA ENDS
