BOXY.EXE: ISS Imagent and Oximeter Data Acquisition Program Version 0.80
Ascii Record File

#ACQ INFORMATION
2  Detector Channels 
16  External MUX Channels 
1  Auxiliary Channels 
5000  Waveform (CCF) Frequency (Hz)
1  Waveforms Skipped 
30  Waveforms Averaged 
1  Cycles Averaged 
16  Acquisitions per Waveform 
10.0806  Updata Rate (Hz) 

#FILE INFORMATION
TRUE -- External MUX Channel results are PARSED.
FALSE -- AC DC and Phase are NOT grouped.
TRUE -- Companion Program Settings File CREATED.
FALSE -- AC data not excluded
FALSE -- DC data not excluded
FALSE -- Phase data not excluded
FALSE -- Auxillary Chn. data not excluded
Tab delimiters

#CALIBRATION STATE
TRUE -- Waveform Calibration Values APPLIED.


#AUX CALIBRATION VALUES
Val Type	aux-1	

Term	1.0000e+00	
Factor	0.0000e+00	


#WF CALIBRATION VALUES
A = Detector Channel
Val Type	A-AC1	A-AC2	A-AC3	A-AC4	A-AC5	A-AC6	A-AC7	A-AC8	A-AC9	A-AC10	A-AC11	A-AC12	A-AC13	A-AC14	A-AC15	A-AC16	A-DC1	A-DC2	A-DC3	A-DC4	A-DC5	A-DC6	A-DC7	A-DC8	A-DC9	A-DC10	A-DC11	A-DC12	A-DC13	A-DC14	A-DC15	A-DC16	A-Ph1	A-Ph2	A-Ph3	A-Ph4	A-Ph5	A-Ph6	A-Ph7	A-Ph8	A-Ph9	A-Ph10	A-Ph11	A-Ph12	A-Ph13	A-Ph14	A-Ph15	A-Ph16	

Term	0.00000e+00	0.00000e+00	0.00000e+00	0.00000e+00	0.00000e+00	0.00000e+00	0.00000e+00	0.00000e+00	0.00000e+00	0.00000e+00	0.00000e+00	0.00000e+00	0.00000e+00	0.00000e+00	0.00000e+00	0.00000e+00	0.00000e+00	0.00000e+00	0.00000e+00	0.00000e+00	0.00000e+00	0.00000e+00	0.00000e+00	0.00000e+00	0.00000e+00	0.00000e+00	0.00000e+00	0.00000e+00	0.00000e+00	0.00000e+00	0.00000e+00	0.00000e+00	0.00000e+00	0.00000e+00	0.00000e+00	0.00000e+00	0.00000e+00	0.00000e+00	0.00000e+00	0.00000e+00	0.00000e+00	0.00000e+00	0.00000e+00	0.00000e+00	0.00000e+00	0.00000e+00	0.00000e+00	0.00000e+00	
Factor	1.00000e+00	1.00000e+00	1.00000e+00	1.00000e+00	1.00000e+00	1.00000e+00	1.00000e+00	1.00000e+00	1.00000e+00	1.00000e+00	1.00000e+00	1.00000e+00	1.00000e+00	1.00000e+00	1.00000e+00	1.00000e+00	1.00000e+00	1.00000e+00	1.00000e+00	1.00000e+00	1.00000e+00	1.00000e+00	1.00000e+00	1.00000e+00	1.00000e+00	1.00000e+00	1.00000e+00	1.00000e+00	1.00000e+00	1.00000e+00	1.00000e+00	1.00000e+00	X	X	X	X	X	X	X	X	X	X	X	X	X	X	X	X	

B = Detector Channel
Val Type	B-AC1	B-AC2	B-AC3	B-AC4	B-AC5	B-AC6	B-AC7	B-AC8	B-AC9	B-AC10	B-AC11	B-AC12	B-AC13	B-AC14	B-AC15	B-AC16	B-DC1	B-DC2	B-DC3	B-DC4	B-DC5	B-DC6	B-DC7	B-DC8	B-DC9	B-DC10	B-DC11	B-DC12	B-DC13	B-DC14	B-DC15	B-DC16	B-Ph1	B-Ph2	B-Ph3	B-Ph4	B-Ph5	B-Ph6	B-Ph7	B-Ph8	B-Ph9	B-Ph10	B-Ph11	B-Ph12	B-Ph13	B-Ph14	B-Ph15	B-Ph16	

Term	0.00000e+00	0.00000e+00	0.00000e+00	0.00000e+00	0.00000e+00	0.00000e+00	0.00000e+00	0.00000e+00	0.00000e+00	0.00000e+00	0.00000e+00	0.00000e+00	0.00000e+00	0.00000e+00	0.00000e+00	0.00000e+00	0.00000e+00	0.00000e+00	0.00000e+00	0.00000e+00	0.00000e+00	0.00000e+00	0.00000e+00	0.00000e+00	0.00000e+00	0.00000e+00	0.00000e+00	0.00000e+00	0.00000e+00	0.00000e+00	0.00000e+00	0.00000e+00	-1.92451e+02	-1.27396e+02	-1.21933e+02	-1.81702e+02	-8.52248e+01	-7.17860e+01	-1.59827e+02	-1.62015e+02	-9.79175e+01	-6.25268e+01	-1.72064e+02	-1.71235e+02	-1.81225e+02	-1.77148e+02	-7.86684e+01	-1.49556e+02	
Factor	3.17922e-05	1.27293e-04	3.00469e-05	1.53336e-01	1.19824e-06	1.32970e-06	1.61206e-01	4.07326e-02	1.19885e-06	1.02860e-06	6.92827e-02	2.47474e-02	3.05553e-02	7.28990e-03	1.03716e-06	1.04097e-02	2.12434e-06	2.26520e-06	6.27488e-07	8.18888e-02	2.46237e-08	2.48108e-08	8.10272e-02	2.18854e-02	2.46444e-08	2.48727e-08	3.58425e-02	1.28119e-02	1.63559e-02	3.93248e-03	2.46604e-08	5.42419e-03	X	X	X	X	X	X	X	X	X	X	X	X	X	X	X	X	



#DISTANCE SETTINGS
A = Detector Channel
A-1	A-2	A-3	A-4	A-5	A-6	A-7	A-8	A-9	A-10	A-11	A-12	A-13	A-14	A-15	A-16	

2.5000e+00	3.0000e+00	2.5000e+00	3.0000e+00	2.0000e+00	3.0000e+00	1.5000e+00	3.0000e+00	3.0000e+00	3.0000e+00	3.0000e+00	3.0000e+00	3.0000e+00	3.0000e+00	1.5000e+00	3.0000e+00	

B = Detector Channel
B-1	B-2	B-3	B-4	B-5	B-6	B-7	B-8	B-9	B-10	B-11	B-12	B-13	B-14	B-15	B-16	

1.0000e+01	1.0000e+01	1.0000e+01	1.4400e+00	1.0000e+01	1.0000e+01	1.5100e+00	1.9400e+00	1.0000e+01	1.0000e+01	1.9900e+00	2.4900e+00	2.4100e+00	2.9000e+00	1.0000e+01	2.9800e+00	




#DATA BEGINS
time	group	step	mark	flag	A-AC1	A-AC2	A-AC3	A-AC4	A-AC5	A-AC6	A-AC7	A-AC8	A-AC9	A-AC10	A-AC11	A-AC12	A-AC13	A-AC14	A-AC15	A-AC16	A-DC1	A-DC2	A-DC3	A-DC4	A-DC5	A-DC6	A-DC7	A-DC8	A-DC9	A-DC10	A-DC11	A-DC12	A-DC13	A-DC14	A-DC15	A-DC16	A-Ph1	A-Ph2	A-Ph3	A-Ph4	A-Ph5	A-Ph6	A-Ph7	A-Ph8	A-Ph9	A-Ph10	A-Ph11	A-Ph12	A-Ph13	A-Ph14	A-Ph15	A-Ph16	B-AC1	B-AC2	B-AC3	B-AC4	B-AC5	B-AC6	B-AC7	B-AC8	B-AC9	B-AC10	B-AC11	B-AC12	B-AC13	B-AC14	B-AC15	B-AC16	B-DC1	B-DC2	B-DC3	B-DC4	B-DC5	B-DC6	B-DC7	B-DC8	B-DC9	B-DC10	B-DC11	B-DC12	B-DC13	B-DC14	B-DC15	B-DC16	B-Ph1	B-Ph2	B-Ph3	B-Ph4	B-Ph5	B-Ph6	B-Ph7	B-Ph8	B-Ph9	B-Ph10	B-Ph11	B-Ph12	B-Ph13	B-Ph14	B-Ph15	B-Ph16	aux-1	digaux	

8200.584	1	1	0	256	0.25635	0.48799	0.18889	0.10144	0.037897	0.30167	0.16871	0.37278	0.15766	0.27838	0.34438	0.31549	0.20911	0.16667	0.15716	0.18567	-0.17292	-0.014583	0.05625	-0.6875	0.0083333	-0.375	-0.67083	0.075	-0.5625	-0.425	-0.16458	-1.0146	0.13125	-0.36875	-0.59583	-0.05	143.220	329.350	246.822	126.104	175.634	42.698	259.239	-8.884	9.305	182.167	-8.150	311.127	58.357	229.445	96.949	290.751	0.001048	0.00094098	0.00018614	511.62	3.039e-05	8.6472e-06	667.83	170.35	1.8128e-05	1.0854e-05	301.13	125.64	66.979	34.026	7.6559e-06	68.294	0.0054706	0.0060059	0.0015527	732.71	6.3356e-05	6.6148e-05	911.72	233.81	6.6511e-05	6.7802e-05	411.57	166.83	117.01	47.55	6.669e-05	87.284	91.614	0.207	348.774	0.679	187.262	27.951	1.028	7.171	156.728	124.055	6.109	11.250	11.934	16.099	150.663	15.445	-8191	255	
8200.680	1	1	0	0	0.12574	0.084362	0.10836	0.18738	0.22764	0.097005	0.23621	0.092406	0.12673	0.10674	0.21843	0.33011	0.21567	0.31771	0.14109	0.01514	-0.26667	-0.12292	0.058333	-0.76875	0.0875	-0.077083	-0.79792	0.089583	-0.60417	-0.32083	0.097917	-0.81458	0.041667	-0.2375	-0.73333	-0.072917	339.710	333.236	315.208	217.192	316.254	347.214	98.632	30.910	50.909	73.001	160.264	296.794	345.106	338.712	41.497	254.256	0.00089682	0.00082449	0.00045886	516.01	7.5733e-06	2.0064e-05	675.06	171.64	8.2893e-06	1.31e-05	301.78	126.86	67.297	34.08	9.9188e-06	68.801	0.0065211	0.0066752	0.0017389	772.23	7.5655e-05	7.3625e-05	942.52	243.52	7.7493e-05	7.3668e-05	420.3	172.75	122.55	48.281	6.9853e-05	89.744	78.851	104.893	58.304	1.042	191.864	29.811	0.891	7.176	34.535	99.432	5.985	11.633	11.756	16.210	327.727	15.514	-8191	255	
8200.778	1	1	0	0	0.12158	0.073583	0.17071	0.19082	0.10461	0.36695	0.37875	0.17857	0.18207	0.094168	0.18385	0.16998	0.21463	0.26073	0.082995	0.14066	-0.19375	-0.34792	0.17708	-0.925	-0.029167	0.020833	-0.88958	0.095833	-0.54167	-0.3375	0.14792	-0.76667	-0.2	-0.15417	-0.67292	0	336.899	140.970	260.833	309.493	321.939	-3.845	275.266	251.671	74.452	92.281	227.828	3.672	210.062	-7.378	289.859	320.106	0.00064349	0.0016301	0.0001638	515.82	1.3377e-05	8.2496e-06	672.14	171.11	5.1941e-06	6.3094e-06	302.64	126.63	67.204	34.332	1.0061e-05	69.07	0.0069091	0.0069423	0.001819	802.5	8.1684e-05	7.7598e-05	954.07	251.33	8.1596e-05	7.6747e-05	423.74	176.76	124.27	48.691	7.2009e-05	91.168	80.419	5.636	153.058	1.489	126.113	210.562	1.070	7.436	298.505	18.138	6.362	11.573	11.493	16.178	236.607	15.337	-8191	255	
8200.872	1	1	0	0	0.14734	0.13673	0.21496	0.17025	0.3001	0.013505	0.14617	0.092507	0.26163	0.39322	0.24671	0.2433	0.0083176	0.24661	0.18396	0.10587	-0.16667	-0.52083	0.15	-0.625	-0.16875	0.075	-0.93542	0.01875	-0.2625	-0.69375	0.17917	-0.65625	-0.33542	0.020833	-0.80833	-0.3125	311.070	331.002	339.776	-5.138	296.854	177.620	284.719	32.105	298.566	81.297	259.266	269.802	200.568	340.484	191.782	229.281	0.00035464	0.0013	0.00034844	513.74	6.5653e-06	1.8196e-05	670.87	171.2	1.6629e-05	1.1771e-05	300.47	126.8	66.828	34.4	5.7273e-06	69.074	0.0068751	0.0068466	0.0018034	808.97	7.8858e-05	7.4594e-05	947.16	252.47	7.5418e-05	7.139e-05	419.57	175.22	120.18	47.962	6.902e-05	91.237	99.043	21.386	143.542	1.313	-0.960	108.889	1.377	7.438	56.542	119.633	6.330	11.598	11.418	16.152	191.201	15.171	-8191	255	
8200.968	1	1	0	0	0.059624	0.16458	0.12932	0.2613	0.22986	0.20767	0.084332	0.050895	0.096397	0.17493	0.11924	0.13472	0.24587	0.14769	0.14493	0.14757	0.24583	-0.65208	0.13958	-0.56875	-0.29583	0.34583	-0.71458	-0.19167	-0.085417	-0.85833	0.045833	-0.53125	-0.525	0.022917	-0.78125	-0.37917	279.851	128.100	199.215	330.367	332.584	-9.919	48.580	181.737	325.146	111.809	264.904	309.605	99.794	339.078	202.144	277.410	0.00082619	0.00056718	0.00036067	512.01	2.3099e-05	2.1986e-05	666.63	170.89	5.1916e-06	6.6838e-06	303.02	127.24	67.775	34.343	2.1004e-05	69.407	0.0066314	0.0066793	0.0018502	812.65	7.622e-05	7.2902e-05	955.3	255.89	7.7073e-05	7.4441e-05	432.65	180.12	123.43	48.762	7.8702e-05	93.344	87.979	243.170	188.492	1.247	104.213	35.859	1.398	7.353	53.061	203.826	6.257	11.259	11.305	15.926	175.083	15.077	-8191	255	
8201.089	1	1	0	0	0.10181	0.21104	0.09946	0.062461	0.29266	0.15132	0.1553	0.27796	0.18328	0.0065884	0.16641	0.081278	0.10898	0.16609	0.23302	0.25122	0.18958	-0.68125	0.0875	-0.57917	-0.33333	-0.0020833	-0.76875	-0.38958	-0.016667	-0.65833	-0.08125	-0.46042	-0.71458	-0.00625	-0.63542	-0.52292	267.017	8.737	235.388	184.527	118.381	26.975	235.244	269.263	115.037	72.868	325.108	-7.793	202.861	273.611	158.577	336.768	0.00040684	0.00062115	0.00033335	512.97	9.4179e-06	2.368e-05	670.92	172.42	8.7026e-06	2.3946e-06	302.23	127.75	68.279	34.63	1.0992e-05	69.719	0.0068106	0.0068785	0.0020656	825.88	7.9081e-05	7.5512e-05	983.57	259.32	7.9558e-05	7.6708e-05	446.04	181.18	124.43	49.228	8.4169e-05	93.434	106.585	98.333	95.231	1.027	-10.948	95.518	1.015	6.746	273.210	286.285	6.069	11.271	12.146	16.163	210.131	15.111	-8191	255	
8201.185	1	1	0	0	0.13541	0.18545	0.10494	0.059013	0.098694	0.1971	0.19894	0.082448	0.20289	0.07981	0.13646	0.12447	0.22111	0.16861	0.31062	0.38249	0.31042	-0.71875	0.19792	-0.33125	-0.79375	0.05625	-0.75208	-0.28333	0.12917	-0.74375	-0.19167	-0.30208	-0.68333	-0.1	-0.64167	-0.59583	149.632	89.155	236.729	9.853	36.135	23.466	287.849	128.344	5.267	154.150	212.215	-10.922	177.775	54.970	125.647	347.282	0.00071817	0.0018982	0.00051858	512.07	2.0095e-05	5.7849e-06	667.03	172.25	9.151e-06	1.268e-05	302.48	127.72	67.546	34.522	9.9994e-06	69.064	0.0068554	0.0069953	0.0022054	823.26	7.8996e-05	7.8502e-05	998.29	258.36	7.8738e-05	7.7911e-05	449.77	179.12	122.09	49.317	8.3779e-05	91.81	79.502	141.000	153.495	1.229	334.769	182.681	1.439	6.618	79.627	199.541	5.980	11.313	11.275	16.402	163.644	15.213	-8191	255	
8201.281	1	1	0	0	0.2819	0.18788	0.031994	0.25338	0.10717	0.30856	0.19813	0.097956	0.094966	0.35804	0.15962	0.30663	0.22644	0.016238	0.15093	0.13802	0.3875	-0.6625	0.00625	-0.3375	-0.88333	-0.022917	-0.58333	-0.65625	0.17292	-0.9125	-0.33333	-0.52917	-0.81667	0.095833	-0.50208	-0.53333	132.776	278.019	72.658	38.180	152.791	96.481	38.203	302.725	83.593	131.744	332.603	301.104	303.300	275.973	240.108	304.979	0.00052167	0.0021458	0.00060582	522.69	1.0615e-05	1.5127e-05	677.44	174.85	7.2079e-06	1.2459e-05	304.12	127.74	68.019	34.61	1.4184e-05	69.866	0.0063765	0.0068325	0.0020759	804.58	7.0421e-05	7.313e-05	980.4	250.38	6.7978e-05	7.2964e-05	435.97	174.01	117.06	48.726	7.6812e-05	90.612	94.831	159.281	69.285	1.170	105.828	208.544	1.113	6.998	182.462	204.958	6.173	11.093	12.028	16.310	96.797	15.092	-8191	255	
8201.377	1	1	0	0	0.23482	0.16635	0.15191	0.13294	0.1034	0.19901	0.26503	0.15123	0.093258	0.049749	0.1873	0.25623	0.15715	0.202	0.21687	0.1133	0.6875	-0.77083	-0.13542	-0.15625	-0.85417	0.075	-0.43542	-0.60625	0.18542	-0.70625	-0.43958	-0.11875	-0.85417	-0.066667	-0.25	-0.84792	15.231	232.789	184.802	235.722	266.654	148.374	298.030	274.481	273.483	99.169	312.337	319.017	45.607	30.099	309.559	68.087	0.00080273	0.0021208	4.7057e-05	524.67	4.4809e-06	1.4479e-05	679.44	174.03	1.6805e-05	3.1344e-06	305.38	128.23	68.003	34.775	1.2257e-06	70.471	0.005917	0.0069041	0.0019763	795.43	6.9217e-05	7.69e-05	977.88	249.85	6.8647e-05	7.8353e-05	436.8	174.49	118.36	49.845	7.6524e-05	91.26	92.167	162.955	-3.330	0.922	141.411	185.580	1.160	6.903	189.677	289.164	6.089	11.277	12.151	16.257	137.626	15.281	-8191	255	
8201.473	1	1	0	0	0.22139	0.1764	0.088348	0.19142	0.26309	0.33398	0.11815	0.16327	0.19703	0.020251	0.037884	0.25237	0.11113	0.177	0.23903	0.071396	0.53958	-0.5625	-0.097917	0.01875	-0.83125	-0.17083	-0.45208	-0.6	0.014583	-0.65417	-0.58333	0.0041667	-0.87917	-0.17083	-0.20625	-0.77917	327.191	338.124	240.728	70.973	8.143	129.755	325.908	313.460	160.518	10.340	90.311	11.638	227.892	237.892	-9.668	178.752	0.00079091	0.00071672	0.00026063	521.72	1.101e-05	1.5121e-05	683.15	175.07	2.35e-05	1.1712e-05	306.51	129.52	69.066	35.116	1.5781e-05	70.904	0.0061057	0.00734	0.0019577	792.68	7.1933e-05	8.1011e-05	978.37	251.84	7.331e-05	8.3367e-05	439.07	176.06	122.89	50.86	7.7029e-05	92.103	97.968	93.068	11.308	1.151	170.534	177.052	1.115	6.930	187.735	112.091	5.968	11.361	12.357	16.175	29.428	15.194	-8191	255	
8201.570	1	1	0	0	0.018238	0.087907	0.19976	0.17776	0.1311	0.020498	0.27629	0.06495	0.10195	0.059149	0.20481	0.29368	0.10829	0.17135	0.18795	0.11139	0.43958	-0.66458	-0.49375	-0.04375	-0.68125	-0.21667	-0.12083	-0.77708	-0.0125	-0.55	-0.49792	-0.0041667	-0.70208	-0.29792	0.0041667	-0.89167	281.901	247.304	138.656	146.280	199.200	241.128	274.153	273.730	282.791	107.436	320.679	258.066	39.154	274.306	204.005	322.830	0.0015477	0.00086148	0.00041672	522	2.1345e-05	1.0808e-05	678	174.6	1.9959e-05	1.426e-05	306.36	128.58	69.363	35.041	2.3153e-05	70.516	0.0066124	0.0077011	0.0019611	793.77	7.8177e-05	8.2773e-05	971.67	251.92	7.8196e-05	8.3716e-05	438.23	175.81	127.41	50.947	7.7595e-05	92.06	93.420	228.069	-6.441	0.681	167.200	59.610	1.136	6.902	155.633	33.750	5.930	11.291	12.251	16.034	60.441	15.448	-8191	255	
8201.688	1	1	0	0	0.24888	0.2425	0.45596	0.22959	0.16626	0.03439	0.17183	0.11478	0.083862	0.33773	0.31664	0.10865	0.18341	0.051301	0.10426	0.17563	0.45417	-0.3375	-0.51458	0.13958	-0.60417	-0.21667	-0.085417	-0.71458	-0.070833	-0.26875	-0.72292	0.095833	-0.78958	-0.37917	0.027083	-0.875	245.792	300.745	128.756	256.472	257.866	118.187	99.256	36.909	149.162	7.656	20.571	32.020	10.222	76.495	154.896	313.754	0.001492	0.0015124	8.9576e-05	523.11	1.8209e-05	2.1375e-05	681.92	175.01	1.1954e-05	1.3523e-05	307.07	129.27	68.872	35.172	4.6003e-06	70.535	0.0071591	0.0077005	0.0019913	798.4	8.4176e-05	8.3228e-05	973.84	254.38	8.4394e-05	8.3441e-05	439.31	177.42	130.57	50.923	7.729e-05	93.159	82.261	-5.756	40.503	0.950	198.230	41.858	1.117	7.104	192.670	99.232	6.137	11.411	11.918	16.212	115.225	15.448	-8191	255	
8201.785	1	1	0	0	0.2605	0.12829	0.27721	0.32575	0.25548	0.19497	0.0604	0.18919	0.11025	0.056925	0.20572	0.20819	0.19571	0.085844	0.13469	0.17147	0.19167	-0.0875	-0.55	-0.11458	-0.75833	-0.39167	-0.00625	-0.66667	0.020833	-0.041667	-0.92292	0.0083333	-0.35625	-0.52292	0.058333	-0.79583	101.068	56.508	175.844	-6.562	18.128	187.435	244.634	329.701	49.553	42.960	-3.762	269.300	87.904	54.024	-6.757	298.818	0.00089125	0.0018223	0.00011607	524.19	2.7948e-06	2.0477e-05	675.68	174.77	1.7855e-05	8.6171e-06	304.76	129.46	69.403	35.398	2.1355e-06	71.138	0.0075485	0.0075944	0.0019994	813.09	8.8191e-05	8.2539e-05	969.47	257.76	8.6571e-05	8.1768e-05	437.24	180.6	130.97	50.936	7.6495e-05	94.818	57.403	-5.701	275.822	1.053	-5.170	35.724	1.012	7.195	137.473	48.632	5.856	11.393	11.370	16.189	297.679	15.317	-8191	255	
8201.881	1	1	0	0	0.035772	0.13834	0.10895	0.13654	0.11291	0.16832	0.16855	0.11089	0.349	0.29883	0.15285	0.21916	0.13255	0.18478	0.035427	0.27422	0.13542	-0.083333	-0.59792	0.058333	-0.50833	-0.61875	0.0020833	-0.69583	-0.29792	-0.060417	-0.85208	-0.13333	-0.37917	-0.81458	0.25625	-0.63542	60.864	242.078	61.284	298.566	222.502	3.229	249.940	267.164	6.292	46.450	282.564	325.129	55.262	294.000	144.086	327.099	0.00052554	0.00070193	0.00020992	523.15	7.8658e-06	1.7568e-05	674.13	174.38	1.3243e-06	1.3186e-05	306.8	130.51	69.511	35.729	1.301e-05	71.754	0.0076007	0.0074755	0.0019803	831.42	8.7841e-05	8.2259e-05	974.36	262.14	8.7154e-05	8.1093e-05	437.49	184.19	130.15	50.997	7.7175e-05	96.105	75.460	74.428	141.358	1.372	102.474	151.219	1.056	7.271	10.756	56.718	6.485	11.276	11.809	15.953	151.787	15.396	-8191	255	
8201.977	1	1	0	0	0.31842	0.038331	0.12209	0.07245	0.34465	0.29793	0.16988	0.3015	0.19506	0.10553	0.041762	0.041952	0.10401	0.3866	0.086846	0.40325	0.13333	0.10833	-0.7375	0.022917	-0.30417	-0.61875	0.075	-0.65625	-0.39375	-0.010417	-0.81667	0.077083	-0.29375	-0.6875	0.17708	-0.775	112.831	138.489	15.390	338.768	12.863	48.526	293.464	21.991	54.264	225.216	201.695	175.771	164.865	12.606	226.619	246.677	0.00058668	0.0014981	0.00015252	520.14	2.5082e-05	1.3938e-05	674.07	173.29	3.3945e-06	7.8971e-06	303.77	129.1	69.295	35.479	2.6391e-05	71.15	0.0074334	0.0073697	0.0019959	846.42	8.6098e-05	8.2119e-05	982.35	266.02	8.7298e-05	8.26e-05	444.56	186.76	130.85	51.197	8.3237e-05	96.938	72.192	314.506	75.948	1.008	45.656	29.705	1.683	6.918	40.991	90.916	6.586	11.587	11.896	16.291	187.591	15.079	-8191	255	
8202.049	1	1	0	0	0.16369	0.24454	0.31645	0.11453	0.27244	0.31344	0.21459	0.12871	0.18229	0.19809	0.18183	0.4185	0.047703	0.35184	0.085513	0.12661	0.064583	-0.18333	-0.69583	0.04375	-0.27708	-0.66458	0.1375	-0.57708	-0.55417	0.20625	-0.9	-0.24375	-0.15	-0.83542	0.13333	-0.55625	42.974	50.138	184.747	67.767	67.131	2.679	229.198	342.418	25.463	320.062	309.675	15.901	94.837	285.135	38.541	336.529	0.00032508	0.0012955	0.00055934	521.77	3.4141e-06	1.243e-05	674.46	173.92	6.7539e-06	4.8856e-06	304.36	129.1	69.333	35.64	2.7276e-05	71.188	0.0075721	0.0075361	0.0021834	863.39	8.7058e-05	8.3006e-05	1004.2	268.6	8.588e-05	8.1167e-05	451.55	186.95	129.82	51.002	8.8193e-05	96.91	76.461	347.986	132.376	1.031	52.458	32.549	1.044	7.043	154.883	20.663	6.080	11.076	11.702	15.927	198.269	15.200	-8191	255	
8202.169	1	1	0	0	0.14847	0.15396	0.26848	0.3305	0.12539	0.15582	0.12879	0.12996	0.23858	0.11022	0.27269	0.17191	0.11332	0.083792	0.29739	0.17461	-0.21458	0.22708	-0.50417	-0.225	-0.029167	-0.64583	-0.0875	-0.23542	-0.58125	0.04375	-0.81042	-0.49167	0.070833	-0.79375	0.09375	-0.40417	152.647	63.014	184.693	297.802	237.834	82.981	74.302	214.695	317.344	233.104	17.219	172.344	300.105	305.416	97.304	213.383	0.00073632	0.0012962	0.00043763	520.1	1.9703e-05	1.1409e-05	676.26	173.65	1.1798e-05	4.7652e-06	305.72	130.21	69.207	35.663	2.3885e-05	71.886	0.007428	0.0074224	0.0022869	853.54	8.3798e-05	8.0982e-05	1013	264.61	8.2714e-05	8.0262e-05	455.65	185.08	127.36	51.011	8.934e-05	96.099	71.780	33.686	164.440	1.042	112.534	64.917	1.386	6.883	345.620	221.843	6.262	11.130	11.265	16.126	217.741	15.499	-8191	255	
8202.265	1	1	0	0	0.078505	0.11193	0.048236	0.23241	0.17213	0.084922	0.10416	0.072604	0.12418	0.16912	0.043001	0.10552	0.2649	0.13133	0.063148	0.33525	-0.2875	0.32292	-0.65208	-0.26042	0.13333	-0.81667	-0.0083333	-0.13542	-0.45417	0.20833	-0.62708	-0.39375	0.23958	-0.76458	0.18333	-0.3	215.844	60.128	23.563	98.203	302.057	11.339	151.693	173.942	229.399	149.401	136.793	19.495	82.540	326.694	263.748	339.104	0.00083987	0.0025991	0.00026993	517.57	1.3092e-05	2.1326e-05	677.12	174.57	2.9009e-06	2.0655e-05	305.25	130.73	69.898	35.798	9.8911e-06	71.867	0.0070738	0.0073095	0.002303	834.67	8.0591e-05	8.2158e-05	1020.1	261.95	8.1445e-05	8.3512e-05	461.16	184.64	127.17	52.011	9.1957e-05	95.992	70.393	150.890	111.185	1.018	51.705	154.002	1.196	7.124	239.975	224.623	6.227	11.374	11.893	16.456	218.647	15.287	-8191	255	
8202.361	1	1	0	0	0.2172	0.22387	0.13372	0.35084	0.083316	0.23773	0.16804	0.13789	0.19412	0.18547	0.15089	0.042019	0.13003	0.29283	0.044437	0.15589	-0.38542	0.18542	-0.4	-0.59375	0.0625	-0.64583	-0.38542	-0.3375	-0.72292	0.2625	-0.7125	-0.5375	0.19792	-0.80417	-0.089583	-0.06875	298.077	43.801	97.407	246.661	70.416	140.742	345.537	323.856	98.264	250.804	291.757	195.953	234.076	319.542	89.060	300.139	0.00056371	0.0021559	0.0001851	512.94	5.6711e-06	2.9794e-05	670.96	172.38	1.4884e-05	1.2017e-05	307.72	130.12	69.52	35.855	1.8648e-05	71.359	0.0070185	0.0078278	0.0023367	827.41	8.0002e-05	8.7408e-05	1014.6	258.76	7.9833e-05	8.7172e-05	456.25	182.8	125.02	52.29	8.7413e-05	94.436	98.965	175.479	122.645	0.899	62.605	194.732	1.371	7.344	71.718	230.039	6.238	11.537	11.653	16.371	60.868	15.511	-8191	255	
8202.458	1	1	0	0	0.21182	0.21252	0.25412	0.058492	0.10394	0.060224	0.18467	0.12836	0.11388	0.080114	0.16728	0.10613	0.27207	0.18242	0.29827	0.031833	-0.20208	0.16875	-0.275	-0.84167	0.29375	-0.76042	-0.43333	-0.039583	-0.65625	0.0625	-0.22917	-0.63542	0.39167	-0.73125	-0.18333	0.125	-4.173	342.404	182.180	347.532	162.297	103.768	223.790	340.049	-2.412	318.279	27.613	71.774	265.767	310.076	39.269	269.436	0.00088486	0.0012762	0.00064736	513.3	1.2784e-05	1.6755e-05	677.55	173.79	2.0828e-05	8.7495e-06	306.27	130.55	69.695	35.781	1.6417e-05	71.793	0.0067376	0.0079096	0.0021862	810.8	7.6351e-05	8.7122e-05	994.32	254.7	7.7177e-05	8.6852e-05	447.22	180.9	124.51	52.466	8.3098e-05	94.083	64.180	117.879	39.047	0.727	151.352	155.356	1.112	6.833	161.008	149.615	6.066	11.392	12.248	16.045	18.471	15.195	-8191	255	
8202.577	1	1	0	0	0.31287	0.15016	0.13219	0.31255	0.18275	0.083196	0.43525	0.11046	0.15284	0.32893	0.14625	0.30202	0.067074	0.22227	0.27399	0.57014	-0.37083	0.022917	-0.20833	-0.68333	0.10625	-0.53333	-0.57708	0.09375	-0.69583	-0.03125	-0.16042	-0.6875	-0.0041667	-0.46667	-0.52292	-0.0625	71.580	102.961	101.670	286.440	303.296	272.673	317.618	163.338	152.280	0.991	344.305	9.836	312.855	311.450	225.712	307.753	0.0011811	0.0019113	0.00038849	512.49	2.2689e-05	1.3988e-05	677.7	174.41	1.5649e-05	8.9826e-06	307.07	131.83	70.317	36.129	1.2127e-05	72.116	0.006866	0.0079995	0.0020928	804.01	7.8143e-05	8.8359e-05	987.89	252.89	8.0375e-05	8.7196e-05	444.62	180.78	126.9	52.542	7.9997e-05	94.044	75.464	126.526	334.410	0.950	169.425	37.581	0.974	7.255	186.179	188.068	6.301	11.541	12.669	16.116	123.000	15.366	-8191	255	
8202.650	1	1	0	0	0.067102	0.38381	0.14857	0.31214	0.23377	0.38249	0.34884	0.10966	0.19863	0.42476	0.26387	0.018186	0.14044	0.039913	0.10905	0.17887	-0.35	-0.027083	-0.12292	-0.58542	0.22292	-0.4375	-0.53958	0.15417	-0.7	-0.19375	-0.0125	-0.76667	0.01875	-0.11458	-0.60417	0.23125	15.404	90.527	315.326	305.345	112.231	321.581	281.156	-1.373	13.758	248.687	318.501	313.406	42.354	14.085	48.300	300.824	0.0012359	0.0011442	0.00019111	519.5	2.0008e-05	1.7611e-05	683.59	175.82	2.0754e-05	1.1357e-05	307.62	131.36	69.842	36.271	1.2554e-05	71.838	0.0071366	0.0078602	0.0020113	803.19	8.1222e-05	8.4993e-05	984.79	252.67	8.364e-05	8.4648e-05	442.82	180.68	130.07	52.298	7.9276e-05	94.179	95.859	344.932	35.348	0.974	211.371	0.117	1.320	6.887	180.767	131.454	6.222	11.434	12.027	16.072	147.358	15.450	-8191	255	
8202.771	1	1	0	0	0.15852	0.013387	0.35063	0.082791	0.21648	0.12409	0.27385	0.2489	0.22143	0.12513	0.09854	0.16041	0.17542	0.30984	0.056715	0.23283	-0.23125	-0.125	0.23958	-0.75625	0.058333	-0.22292	-0.88958	0.11458	-0.51458	-0.325	0.18333	-0.94375	0.0375	-0.28542	-0.80833	-0.05625	221.996	276.799	127.076	167.922	266.398	150.475	314.577	223.121	123.935	329.603	303.631	272.032	266.649	295.203	216.638	303.059	0.001233	0.0005306	0.00020405	522.54	1.1104e-05	2.1067e-05	685.59	174.39	1.6573e-05	9.6822e-06	310.36	131.94	70.513	35.905	4.9138e-06	71.921	0.0075245	0.00772	0.0019895	811.16	8.5383e-05	8.2871e-05	984.56	254.26	8.6121e-05	8.178e-05	438.28	181.17	130.64	51.307	7.5599e-05	94.067	85.885	73.840	44.452	1.278	158.300	84.805	0.963	7.141	116.489	87.889	6.332	11.405	11.739	16.258	92.586	15.321	-8191	255	
8202.865	1	1	0	0	0.031215	0.067623	0.10787	0.064333	0.24502	0.12706	0.13941	0.18077	0.25577	0.13462	0.18795	0.41926	0.35865	0.0092037	0.26516	0.20679	-0.0375	-0.35208	0.027083	-0.7625	-0.11875	-0.15833	-1.0021	0.05	-0.48333	-0.40208	0.15	-0.81875	-0.32917	0.039583	-0.62083	-0.11875	127.590	120.209	182.944	239.190	309.570	275.619	67.120	307.235	269.264	309.649	310.916	288.411	222.481	129.577	320.839	41.586	0.00073137	0.0013432	0.0001146	521.88	9.4109e-06	2.4916e-05	686.18	175.75	1.2877e-05	5.9715e-06	310.13	132.15	70.871	36.119	7.6062e-06	72.357	0.0073527	0.00722	0.0018674	815.15	8.3312e-05	7.7539e-05	975.41	256.32	8.2883e-05	7.7956e-05	435.32	183.33	129.5	50.881	7.3164e-05	95.311	113.072	6.278	326.442	1.129	127.758	100.730	1.552	7.501	-5.443	340.107	6.204	11.275	11.781	16.241	24.681	15.468	-8191	255	
8202.961	1	1	0	0	0.051935	0.23201	0.23969	0.13351	0.060248	0.070141	0.075824	0.1431	0.0086593	0.17776	0.2206	0.26549	0.16244	0.29486	0.25677	0.30431	-0.175	-0.41042	0.097917	-0.70208	-0.30833	0.083333	-0.65	0.027083	-0.27917	-0.60208	0.0083333	-0.71042	-0.26667	-0.15208	-0.77917	-0.14167	41.151	166.004	110.249	-9.062	161.709	61.771	9.670	82.523	106.186	318.400	340.178	252.326	301.856	291.601	7.508	286.890	0.00044267	0.0004522	0.0002552	520.83	2.0263e-05	1.1529e-05	689.98	176.48	1.6533e-05	1.5851e-05	310.15	132.87	71.216	36.18	7.7009e-06	72.805	0.0071329	0.0070727	0.0018528	825.52	8.2691e-05	7.7457e-05	978.38	262.23	8.2478e-05	7.7945e-05	438.77	186.33	129.26	51.071	7.482e-05	96.84	77.196	272.266	-7.577	1.189	11.169	20.635	1.223	7.245	74.872	330.175	6.608	11.815	11.323	16.264	152.040	15.478	-8191	255	
8203.057	1	1	0	0	0.12068	0.18108	0.13201	0.3829	0.23448	0.2147	0.18813	0.11267	0.10503	0.23709	0.1309	0.11004	0.070416	0.14362	0.20293	0.20845	0.15208	-0.57083	0.25625	-0.625	-0.39583	0.27083	-0.78125	-0.064583	-0.12917	-0.625	-0.03125	-0.6875	-0.22917	0.1	-0.74792	-0.3	333.947	197.081	226.178	287.261	279.580	148.375	299.219	264.489	202.050	163.906	326.467	285.017	254.243	329.632	8.182	185.145	0.00036742	0.0018505	0.00052595	525.23	1.2987e-05	1.0904e-05	689.05	175.92	1.6585e-06	6.36e-06	309.49	133.24	70.506	36.247	7.5138e-06	72.629	0.0069438	0.0069329	0.0018933	834.33	7.9113e-05	7.4721e-05	981.53	262.05	7.792e-05	7.4511e-05	440.04	185.49	125.86	50.369	7.5993e-05	96.081	49.981	37.903	177.195	1.268	68.666	125.229	1.459	6.780	75.991	246.491	6.311	11.207	12.110	16.028	243.391	15.221	-8191	255	
8203.178	1	1	0	0	0.17012	0.083523	0.14264	0.11589	0.13072	0.3287	0.37679	0.015451	0.19059	0.2146	0.22209	0.47426	0.31007	0.18953	0.20376	0.15208	0.38542	-0.63333	0.35417	-0.35417	-0.51667	0.066667	-0.875	-0.425	0.17708	-0.70833	0.022917	-0.42708	-0.65208	0.0375	-0.50208	-0.43333	121.337	188.954	256.147	279.493	296.257	313.378	22.956	221.737	140.106	306.420	-10.941	299.021	291.945	25.597	206.905	320.551	0.00057407	0.0016803	0.00067585	523.14	7.255e-06	1.4664e-06	686.49	176.7	1.2681e-05	4.8146e-06	309.33	132.84	70.566	36.116	4.4987e-06	72.617	0.0065748	0.0065935	0.0019337	824.28	7.4918e-05	7.098e-05	984.68	259.28	7.366e-05	7.0879e-05	442.23	183	123.52	49.903	7.81e-05	95.182	77.844	326.294	165.880	1.368	21.587	291.966	1.298	6.994	62.527	47.314	6.537	11.359	11.645	16.236	132.712	15.319	-8191	255	
8203.250	1	1	0	0	0.33331	0.089794	0.15969	0.38034	0.26979	0.16025	0.17959	0.15348	0.24223	0.19397	0.20713	0.14733	0.22718	0.048097	0.19112	0.19876	0.30833	-0.7875	0.0083333	-0.21667	-0.52708	0.31042	-0.94167	-0.29375	0.1875	-0.70833	-0.039583	-0.35625	-0.72083	0.083333	-0.475	-0.59583	-4.445	235.549	56.417	248.506	223.251	256.453	268.532	24.260	282.851	326.416	337.864	305.314	265.283	87.827	276.632	317.830	0.00069594	0.0011368	0.00046628	524.71	1.5101e-05	1.272e-05	686.59	176.08	3.8655e-06	2.1353e-05	311.17	133.13	70.635	36.149	5.4072e-07	72.871	0.0063115	0.0064727	0.0019945	810.28	7.2478e-05	7.0221e-05	991.97	255.99	7.1308e-05	7.1077e-05	444.86	181.36	121.4	49.933	7.8299e-05	94.452	70.058	204.209	160.065	1.018	26.818	140.484	1.631	6.864	5.877	152.219	6.525	11.583	11.623	16.404	272.310	15.375	-8191	255	
8203.346	1	1	0	0	0.08838	0.068607	0.062208	0.37966	0.11023	0.20217	0.11225	0.26039	0.30117	0.087148	0.2976	0.26891	0.19748	0.0853	0.12055	0.098271	0.59167	-0.61042	-0.045833	-0.029167	-0.53125	0.097917	-0.65208	-0.48333	0.19167	-0.60833	-0.029167	-0.17917	-0.82917	0.10625	-0.47083	-0.525	51.655	209.856	239.979	289.941	33.705	237.664	237.373	314.718	27.660	295.060	313.873	324.937	153.095	14.281	146.552	243.202	0.00050642	0.0025906	0.00019639	519.89	1.0116e-05	2.2449e-05	690.63	176.71	1.3189e-05	9.3562e-06	312.8	133.31	71.759	36.383	3.9283e-06	73.575	0.0059698	0.0064437	0.0019651	790.89	6.7862e-05	7.0194e-05	983.86	250.82	6.6366e-05	7.1065e-05	442.11	179.35	119.52	50.433	7.546e-05	94.329	75.898	141.187	37.416	0.899	22.534	212.448	1.528	7.123	53.779	155.732	6.191	11.407	11.652	16.315	274.779	15.339	-8191	255	
8203.466	1	1	0	0	0.13746	0.27173	0.38227	0.052339	0.34176	0.16988	0.18054	0.11459	0.1306	0.1804	0.14151	0.26848	0.16374	0.39154	0.18236	0.24783	0.64792	-0.84583	-0.070833	-0.31458	-0.7875	0.21042	-0.5375	-0.71042	0.2625	-0.72292	-0.44375	-0.058333	-0.8625	-0.17292	-0.22083	-0.92917	288.325	-6.094	298.672	330.758	257.851	104.398	268.248	128.170	44.428	76.250	279.050	317.029	98.346	312.791	202.988	239.545	0.00058259	0.0015172	9.7811e-05	518.52	8.8177e-06	1.4775e-05	689.28	176.93	1.375e-06	7.0633e-06	313.25	133.95	71.278	36.553	5.6674e-06	72.925	0.0057518	0.0066685	0.0019191	782.23	6.6318e-05	7.3463e-05	977.9	249.95	6.5704e-05	7.4557e-05	438.32	178.27	119.11	50.93	7.2779e-05	93.419	81.997	113.034	214.942	1.391	266.361	170.920	1.123	7.006	35.003	247.298	6.452	11.548	12.263	16.238	336.111	15.278	-8191	255	
8203.563	1	1	0	0	0.047539	0.18846	0.12891	0.19508	0.21582	0.21166	0.10702	0.11525	0.117	0.077218	0.20408	0.19834	0.21798	0.33679	0.087849	0.26346	0.58333	-0.65417	-0.23125	0.06875	-0.76042	-0.13333	-0.28125	-0.80208	0.0125	-0.59375	-0.55208	-0.275	-0.88958	-0.00625	-0.22292	-0.77292	47.432	0.727	306.464	234.971	344.097	330.965	304.114	145.256	114.156	63.561	314.302	19.751	179.694	297.432	161.794	299.837	0.00090787	0.00087013	0.00039022	517.8	2.2809e-05	1.9619e-05	688.4	175.96	1.6561e-05	7.733e-06	310.13	132.51	70.632	36.268	2.632e-06	73.178	0.0057262	0.0069091	0.0018613	776.02	6.7468e-05	7.619e-05	968.79	248.65	6.8119e-05	7.7836e-05	436.45	177.77	121.41	51.301	7.2331e-05	93.436	78.198	132.183	26.825	1.218	171.948	150.923	1.312	7.116	195.287	270.580	6.031	11.316	11.644	15.684	326.642	14.880	-8191	255	
8203.657	1	1	0	0	0.23834	0.30823	0.23392	0.22813	0.12991	0.12694	0.21144	0.3262	0.4008	0.27866	0.22418	0.214	0.24451	0.063001	0.084827	0.28467	0.64583	-0.50833	-0.43125	0.079167	-0.75625	-0.14375	-0.28542	-0.775	0.014583	-0.38125	-0.74167	0.020833	-0.68542	-0.31667	-0.041667	-0.88333	33.026	257.074	149.854	112.145	212.252	119.147	324.829	318.322	90.795	273.049	27.797	332.084	261.901	93.064	258.085	72.620	0.0014449	0.00054819	0.00030117	520.39	1.3101e-05	3.1869e-06	688.62	176.04	1.2119e-05	7.6947e-06	311.2	132.83	71.557	36.468	6.39e-06	73.237	0.0061034	0.0071061	0.0018399	774.19	7.2237e-05	7.8283e-05	967.12	248.76	7.3235e-05	7.8344e-05	435.27	177.73	124.63	51.56	7.1652e-05	93.767	72.570	251.420	342.164	0.763	186.256	340.723	0.972	6.857	184.520	106.591	6.216	11.166	11.807	15.722	29.217	15.041	-8191	255	
8203.753	1	1	0	0	0.030517	0.36148	0.29904	0.23918	0.17025	0.41619	0.14823	0.26885	0.19968	0.12312	0.085524	0.39113	0.2002	0.072023	0.10213	0.46059	0.4625	-0.31458	-0.51875	0.18542	-0.52083	-0.097917	-0.05625	-0.73333	0.0875	-0.13542	-0.73542	0.15625	-0.69583	-0.33333	0.029167	-0.98542	233.127	332.875	37.148	308.608	156.735	326.314	307.108	11.869	203.542	132.949	311.344	14.092	-9.910	92.336	261.901	24.298	0.0010053	0.0015167	0.00028794	517.38	9.4605e-06	8.351e-06	688.75	175.74	1.5352e-05	1.1845e-05	310.92	133.17	71.179	36.471	1.2099e-05	73.494	0.0065534	0.0071112	0.0018442	777.53	7.7643e-05	7.7869e-05	966.01	249.87	7.7589e-05	7.7167e-05	435.92	179.02	127.57	51.296	7.0496e-05	94.43	71.770	33.240	15.151	0.813	146.233	110.963	1.199	6.850	142.757	114.716	6.064	11.439	12.103	15.930	54.885	15.250	-8191	255	
8203.874	1	1	0	0	0.10953	0.0062859	0.20274	0.22873	0.18414	0.047331	0.30724	0.1333	0.076821	0.11892	0.31631	0.34195	0.071075	0.11887	0.29343	0.14863	0.39792	-0.091667	-0.69583	0.041667	-0.63333	-0.14375	0.064583	-0.86458	-0.095833	-0.26042	-0.79583	0.14375	-0.56042	-0.61042	0.0875	-0.90417	115.603	74.518	60.463	253.579	333.503	58.109	17.412	200.142	171.667	186.808	324.598	322.154	233.031	307.099	112.289	281.070	0.0013633	0.002387	2.1705e-05	514.31	9.9185e-06	1.7962e-05	679.42	175.49	1.5152e-05	3.6796e-06	310.08	132.96	71.126	36.249	1.1433e-05	72.674	0.0068144	0.006901	0.001812	779.37	8.0037e-05	7.53e-05	955.12	252.34	7.9667e-05	7.5338e-05	433.7	180.49	128.46	50.873	6.9811e-05	94.879	85.039	14.098	335.983	1.190	98.542	63.436	1.040	7.214	143.930	54.211	5.993	11.437	11.285	15.891	77.823	15.236	-8191	255	
8203.945	1	1	0	0	0.21684	0.25307	0.19984	0.19394	0.35636	0.20228	0.094318	0.33039	0.29339	0.13368	0.22689	0.28664	0.12968	0.17762	0.17049	0.10516	0.22917	-0.19375	-0.65	0.18333	-0.34375	-0.5	0.014583	-0.73958	-0.11042	-0.041667	-0.80208	0.15417	-0.30417	-0.83333	0.32292	-0.84792	123.595	114.139	52.838	9.245	257.458	301.228	17.037	344.022	310.381	326.637	349.257	337.005	300.970	327.371	69.982	306.431	0.00061828	0.0011033	0.00020883	511.45	1.344e-05	9.2832e-06	679.67	174.79	4.3174e-07	7.1082e-06	310.91	132.98	71.258	36.294	9.2495e-06	72.999	0.006889	0.0067441	0.0017932	789.45	7.868e-05	7.3517e-05	948.76	254.25	7.7249e-05	7.1937e-05	429.8	181.47	125.71	50.284	6.7058e-05	95.202	44.975	342.994	313.942	1.220	41.758	75.034	1.322	7.307	4.908	31.224	6.256	11.262	11.557	15.991	229.764	15.159	-8191	255	
8204.042	1	1	0	0	0.21428	0.31855	0.11532	0.0052333	0.19058	0.16472	0.14703	0.24548	0.39602	0.15952	0.1687	0.093103	0.23773	0.12624	0.11415	0.2377	0.20417	0.064583	-0.625	-0.035417	-0.11875	-0.625	0.27917	-0.51458	-0.31667	0.04375	-0.76458	-0.23125	-0.28333	-0.69792	0.2125	-0.63542	258.081	183.362	118.724	1.163	246.169	311.981	23.100	347.360	242.864	247.781	237.566	-6.698	274.087	281.458	296.366	17.869	0.0007738	0.00059873	0.00045107	509.42	1.3866e-05	1.8938e-05	674.76	174.31	1.1972e-05	9.6441e-06	309.68	133.07	70.908	36.427	1.8902e-05	73.109	0.0065114	0.0063945	0.0017566	792.84	7.4748e-05	7.0943e-05	942.32	254.51	7.389e-05	6.9787e-05	429.56	182.65	123.14	49.918	6.8122e-05	95.494	62.791	20.796	125.702	0.921	85.147	23.394	1.445	7.249	20.105	2.251	6.392	11.242	11.430	15.978	165.444	15.167	-8191	255	
8204.138	1	1	0	0	0.17114	0.1509	0.1702	0.051402	0.026098	0.24759	0.092651	0.12743	0.092635	0.10473	0.23953	0.15963	0.32171	0.15966	0.32264	0.23064	0.064583	-0.00625	-0.68542	-0.029167	-0.22292	-0.75833	-0.045833	-0.77917	-0.3	0.33958	-0.67917	-0.30625	-0.17083	-0.9	-0.079167	-0.50625	148.050	237.588	206.508	329.244	208.175	33.563	261.804	148.349	211.786	253.084	311.368	241.807	176.848	34.528	228.853	287.027	0.00082839	0.0019018	0.0004795	508.25	1.9007e-05	1.1114e-05	673.39	174.25	5.4197e-06	4.5799e-06	310.07	133.85	71.158	36.474	2.5011e-05	73.317	0.0062354	0.0061688	0.00178	790.65	7.0698e-05	6.8095e-05	948.54	253.75	7.0715e-05	6.6495e-05	434.76	182.55	121.28	49.792	7.1546e-05	95.512	76.352	-6.419	120.655	0.736	52.376	90.099	1.413	6.949	2.753	79.788	6.432	10.889	11.792	15.882	174.867	15.008	-8191	255	
8204.258	1	1	0	0	0.22417	0.075699	0.16543	0.20622	0.10237	0.10329	0.096396	0.24931	0.12544	0.19768	0.13004	0.25375	0.17815	0.16833	0.16398	0.065063	-0.25208	0.125	-0.71875	-0.27917	0.11667	-0.57083	0.095833	-0.50417	-0.475	0.2375	-0.97917	-0.325	0.11667	-0.81667	0.37917	-0.55625	248.061	199.266	330.249	257.707	127.652	23.543	341.393	333.127	161.143	303.104	-6.283	226.748	338.763	193.386	-0.355	323.694	0.00055974	0.00051528	0.00025567	504.9	2.3452e-06	9.6905e-06	673.24	173.38	5.8504e-06	1.306e-05	309.91	133.34	70.663	36.211	3.9089e-06	72.901	0.0061364	0.0060839	0.0018904	786.32	7.0088e-05	6.8666e-05	961.08	251.55	7.0523e-05	6.7509e-05	438.55	181.65	120.61	49.687	7.5366e-05	94.458	89.013	44.445	138.403	0.885	45.686	155.879	1.316	7.287	183.113	237.556	6.507	11.142	11.622	15.840	264.157	15.281	-8191	255	
8204.354	1	1	0	0	0.072668	0.14427	0.28584	0.092037	0.23332	0.12023	0.11014	0.2585	0.061642	0.20272	0.33237	0.25947	0.22342	0.24351	0.29757	0.10315	-0.28958	0.1625	-0.65	-0.31667	0.20833	-0.7625	-0.033333	-0.25	-0.60208	0.19167	-0.66667	-0.41667	0.0375	-0.97917	-0.22708	-0.375	254.791	31.890	98.388	325.744	49.093	28.593	69.697	255.893	99.209	53.671	302.225	169.314	134.167	14.005	168.122	289.835	0.00044651	0.00014918	0.00037773	500.54	7.5024e-06	2.3331e-05	671.43	173.36	1.0856e-05	5.4843e-06	307.68	132.41	70.745	36.152	4.254e-06	72.693	0.0060716	0.0062673	0.0019603	778.71	6.9696e-05	7.0279e-05	974.68	250.45	7.0871e-05	7.1358e-05	442.76	180.91	121.08	50.195	7.9402e-05	94.444	87.685	38.899	165.847	1.188	27.252	161.492	1.246	7.044	212.912	158.116	6.224	11.186	11.295	16.026	108.683	15.111	-8191	255	
8204.451	1	1	0	0	0.19472	0.10851	0.097305	0.07943	0.15091	0.30037	0.21216	0.10978	0.14644	0.24488	0.21143	0.14329	0.23066	0.32109	0.15223	0.40183	-0.32708	0.14375	-0.425	-0.72292	0.089583	-0.775	-0.24167	-0.097917	-0.54792	0.14583	-0.65208	-0.70417	0.12917	-0.725	-0.2125	0.05625	324.174	47.937	316.825	224.953	154.235	208.156	269.738	108.693	228.464	5.523	119.178	336.160	187.408	335.345	306.224	-9.843	0.00070404	0.0027944	0.00020917	502.06	7.5069e-06	1.6765e-05	679.49	173.35	2.2301e-05	1.1072e-05	310.88	133.36	70.634	36.136	3.3546e-06	72.824	0.0060898	0.0067571	0.0020351	783.53	7.1137e-05	7.6679e-05	993.17	253.57	7.3646e-05	8.1349e-05	453.27	183.99	124.97	52.208	8.6928e-05	96.141	58.515	165.742	38.319	0.903	110.052	182.012	0.831	6.955	119.958	200.169	6.327	11.186	12.040	16.032	73.258	14.956	-8191	255	
8204.547	1	1	0	0	0.048827	0.077745	0.14204	0.12801	0.2356	0.2571	0.12854	0.045283	0.16755	0.07762	0.22335	0.12346	0.18869	0.17136	0.068517	0.24247	-0.47708	0.13542	-0.23333	-0.58333	0.17917	-0.51042	-0.22292	-0.083333	-0.81042	0.045833	-0.4375	-0.64375	0.23958	-0.77708	-0.275	0.0041667	195.900	218.918	80.335	132.141	30.941	129.252	1.099	173.762	140.131	113.653	43.003	165.622	334.473	133.532	167.444	-5.578	0.00073144	0.0014838	0.00034488	511.85	1.6144e-05	2.7324e-05	678.67	174.61	7.1871e-06	1.4575e-05	310.92	133.02	70.479	36.184	1.0876e-05	73.076	0.0066879	0.0080115	0.002227	812.38	7.987e-05	8.986e-05	1021.8	260.18	8.0857e-05	9.3377e-05	462.29	186.95	129.89	53.89	9.0727e-05	96.973	86.080	117.213	-7.237	0.883	197.902	206.976	0.777	7.217	184.014	222.092	6.279	11.110	11.725	16.246	49.931	15.167	-8191	255	
8204.643	1	1	0	0	0.11172	0.10479	0.22857	0.31129	0.018566	0.050235	0.31404	0.28817	0.078432	0.012994	0.098863	0.23365	0.3186	0.27816	0.34439	0.27108	-0.43542	-0.045833	-0.22292	-0.68125	0.1875	-0.39375	-0.70208	0.1375	-0.8375	-0.18333	-0.45208	-0.83333	0.21667	-0.675	-0.5875	0.10417	86.113	183.707	233.165	326.023	203.435	189.400	308.986	312.863	164.030	75.938	200.527	16.452	348.301	324.944	321.118	14.247	0.0011588	0.0021834	0.00033247	511.27	2.651e-05	1.0564e-05	677.84	173.04	1.9352e-05	1.4471e-05	308.15	132.29	70.059	35.956	7.0989e-06	72.435	0.0072825	0.0086623	0.002269	818.25	8.369e-05	9.3928e-05	1007.6	257.92	8.4437e-05	9.3686e-05	453.95	184.37	130.88	53.683	8.6784e-05	95.688	91.037	100.830	65.435	0.817	196.053	343.072	1.370	7.161	140.831	114.710	6.341	11.196	12.683	15.746	38.208	15.332	-8191	255	
8204.739	1	1	0	0	0.03608	0.17015	0.10183	0.22277	0.098525	0.026802	0.13084	0.066631	0.16155	0.15162	0.24872	0.17101	0.14231	0.048457	0.10712	0.39924	-0.50208	-0.11667	-0.13333	-0.81875	0.15208	-0.51875	-0.67292	-0.0375	-0.78333	-0.27292	-0.027083	-0.8125	-0.0083333	-0.62917	-0.675	-0.1375	159.010	65.059	159.663	20.706	246.713	168.884	319.573	310.835	269.207	183.064	288.319	58.395	327.224	-8.624	135.222	290.147	0.0013093	0.00089085	0.00021916	508.58	1.5937e-05	6.3947e-06	669.84	173.05	2.2775e-05	9.4996e-06	307.6	132.79	70.438	36.096	1.4674e-05	72.247	0.0075995	0.0085191	0.0021951	809.6	8.7615e-05	9.2861e-05	998.2	255.61	8.8887e-05	9.1452e-05	449.67	184.05	133.31	53.202	8.4548e-05	95.399	89.002	319.078	307.244	1.367	159.327	11.254	1.211	7.092	176.840	75.140	6.256	11.530	11.893	15.943	102.852	15.315	-8191	255	
8204.858	1	1	0	0	0.18049	0.16729	0.052464	0.053052	0.078678	0.17441	0.094228	0.40855	0.10317	0.19102	0.13172	0.048845	0.028027	0.4207	0.054782	0.29486	-0.11458	-0.21458	0.03125	-0.68542	0.21667	-0.45417	-0.85417	-0.16458	-0.77917	-0.50208	-0.17292	-0.8875	-0.075	-0.49792	-0.75	0.083333	7.328	232.110	226.480	197.264	45.672	194.836	342.152	315.189	220.508	262.184	195.310	142.464	312.332	329.973	287.037	335.284	0.0010889	0.0011633	5.834e-05	502.74	1.9728e-05	1.42e-05	672.86	172.01	1.2753e-05	1.5836e-06	308.32	132.41	70.306	36.178	7.4566e-06	72.718	0.0079432	0.0082917	0.0021399	809.73	9.1947e-05	9.0799e-05	995.52	257.01	9.464e-05	9.0995e-05	449.3	186.58	137.16	53.187	8.5075e-05	96.944	78.712	30.723	72.107	1.194	145.141	69.628	0.967	7.158	169.663	53.769	6.397	11.585	11.939	15.806	346.849	15.224	-8191	255	
8204.954	1	1	0	0	0.17127	0.13033	0.052159	0.19401	0.1942	0.19247	0.060271	0.099627	0.10511	0.21062	0.15063	0.21281	0.1701	0.1037	0.041276	0.20211	-0.12083	-0.40833	0.24167	-0.94792	-0.070833	-0.10625	-0.9	0.12917	-0.51458	-0.70625	-0.027083	-0.89167	-0.12917	-0.095833	-0.81875	0.12708	106.223	19.027	316.627	178.516	76.662	81.471	241.971	72.011	266.580	190.351	151.507	276.657	174.636	52.770	347.196	255.557	0.00050519	0.0013978	0.00046439	501.03	1.7107e-05	2.4783e-05	672.03	171.89	1.1789e-05	1.2078e-05	308.4	133.22	70.532	36.17	1.1631e-05	72.738	0.0082701	0.0082357	0.002136	827.85	9.581e-05	8.9662e-05	995.83	261.61	9.5689e-05	8.9048e-05	447.2	188.42	135.64	52.326	8.0619e-05	97.585	111.642	-1.481	325.938	1.161	167.777	63.860	1.045	7.106	82.049	86.553	6.029	11.436	11.816	15.974	98.566	15.129	-8191	255	
8205.050	1	1	0	0	0.12932	0.17261	0.07506	0.17445	0.22757	0.24137	0.087719	0.37758	0.086395	0.12391	0.22338	0.32257	0.14329	0.34468	0.10861	0.37201	-0.12083	-0.42292	0.097917	-0.68958	-0.1375	0.041667	-0.80625	-0.05625	-0.3375	-0.62292	0.26875	-0.97292	-0.23125	-0.15208	-0.84583	-0.19167	332.510	59.601	243.758	53.521	187.067	187.375	217.721	307.835	167.822	308.589	172.729	320.428	116.009	291.195	308.677	284.176	0.00068772	0.0022578	0.0001281	506.66	1.6064e-06	1.193e-05	673.18	172.92	1.0038e-05	8.6454e-06	308.35	133.36	70.337	36.208	1.8701e-05	72.911	0.0078879	0.0077445	0.002018	832.7	8.9164e-05	8.3153e-05	977	260.82	8.6163e-05	8.081e-05	437.72	187.45	130.49	51.353	7.7348e-05	97.217	69.192	34.664	192.377	1.179	170.845	15.716	1.179	7.087	29.124	53.185	6.343	11.389	11.305	15.850	135.083	15.215	-8191	255	
8205.171	1	1	0	0	0.33224	0.098632	0.12086	0.22686	0.11215	0.26345	0.084247	0.12431	0.14468	0.32522	0.45656	0.23079	0.17242	0.16826	0.1039	0.35793	0.0375	-0.48125	0.29583	-0.65417	-0.45625	0.175	-0.925	-0.0875	-0.052083	-0.55625	-0.12708	-0.72708	-0.475	0.14375	-0.61667	-0.1	276.922	-6.432	328.047	208.579	340.117	119.357	340.684	279.247	81.801	59.922	331.284	276.980	333.043	201.938	328.891	290.307	0.0004159	0.00036236	0.0002283	509.94	1.2782e-05	1.3692e-05	676.56	173.89	2.5456e-05	1.0345e-05	309.1	133.12	70.53	36.153	2.2458e-05	72.746	0.0072758	0.0073062	0.001957	831.37	8.3606e-05	7.8275e-05	983.11	263.38	8.2778e-05	7.9572e-05	443.91	189.22	129.42	51.161	8.1847e-05	97.918	92.749	3.662	154.947	1.244	22.827	29.981	1.086	7.065	346.032	-5.198	6.377	11.454	11.361	16.224	183.582	15.170	-8191	255	
8205.243	1	1	0	0	0.23602	0.18325	0.15141	0.33277	0.13034	0.14189	0.26873	0.11204	0.073902	0.15699	0.22199	0.29295	0.020063	0.27271	0.28676	0.42443	0.125	-0.75	0.16042	-0.58125	-0.42708	0.15	-1.0146	-0.2125	-0.16042	-0.84583	0.072917	-0.5875	-0.58958	0.10833	-0.625	-0.325	294.763	90.957	205.451	287.741	210.498	141.543	337.980	287.342	328.897	103.160	279.494	316.317	345.904	158.049	26.978	316.149	0.00065923	0.00039074	0.00053311	509.44	7.986e-06	1.4032e-05	678.59	174.45	1.3335e-05	1.8298e-05	309.34	133.73	70.675	36.15	1.4084e-05	73.361	0.0071146	0.0072376	0.0020791	839.74	8.3187e-05	7.794e-05	1006.2	265.36	8.2792e-05	8.0377e-05	454	189.58	129.61	51.447	8.7839e-05	98.599	58.645	80.834	145.347	0.876	57.032	161.728	1.060	6.837	75.650	100.699	6.461	11.141	11.771	16.088	212.143	15.109	-8191	255	
8205.339	1	1	0	0	0.21604	0.080068	0.15487	0.20974	0.14876	0.032308	0.20199	0.27917	0.24177	0.1686	0.38709	0.090148	0.13775	0.24602	0.1024	0.26304	0.39375	-0.53542	-0.1125	-0.40417	-0.62917	0.37708	-0.65208	-0.62292	0.25417	-0.85417	-0.14792	-0.31458	-1.0104	0.175	-0.5	-0.69375	11.261	76.449	83.339	22.949	327.452	204.380	293.033	294.025	306.475	333.571	258.751	59.352	336.114	130.062	143.224	275.021	0.0004375	0.00088898	0.0005248	512.61	5.5829e-06	3.499e-06	679.14	175.23	1.7617e-05	1.8263e-05	310.57	133.18	70.074	36.333	8.4485e-06	73.189	0.0072447	0.0074529	0.0022674	844.37	8.4425e-05	8.0306e-05	1031.4	265.81	8.2455e-05	8.2983e-05	463.47	188.98	129.83	51.89	9.1668e-05	98.018	105.575	59.439	164.361	0.682	151.511	306.698	1.082	6.742	35.073	208.611	6.404	11.283	11.419	16.171	143.174	15.239	-8191	255	
8205.435	1	1	0	0	0.14112	0.061979	0.16332	0.12896	0.15587	0.098775	0.24434	0.12876	0.064914	0.13732	0.068916	0.47679	0.20729	0.21615	0.10451	0.17743	0.52292	-0.65625	-0.05625	-0.20417	-0.65833	0.18125	-0.49792	-0.49583	0.020833	-0.72708	-0.24375	-0.28542	-0.92083	0.12292	-0.45417	-0.84375	185.309	186.465	315.265	324.179	242.600	217.162	322.733	319.013	79.904	334.051	276.628	269.847	170.864	321.740	302.090	289.855	0.00047303	0.0025306	7.9843e-05	511.31	8.2611e-06	2.6352e-05	677.86	174.73	1.2599e-05	1.6892e-05	308.96	132.75	70.96	36.102	6.0694e-06	72.797	0.0070342	0.0075739	0.0023334	828.91	8.1902e-05	8.3162e-05	1026.9	262.84	8.0835e-05	8.5626e-05	463.29	186.69	128.32	52.483	9.1985e-05	97.001	61.732	110.929	124.118	0.630	121.799	206.640	1.139	6.664	42.268	251.135	6.077	11.287	11.754	16.097	305.623	15.157	-8191	255	
8205.554	1	1	0	0	0.25203	0.12621	0.089777	0.15422	0.19983	0.23508	0.10903	0.08593	0.087068	0.11818	0.11904	0.17731	0.19023	0.1826	0.26896	0.17259	0.39583	-0.60625	-0.05625	-0.17708	-0.68958	0.12708	-0.60625	-0.57292	0.085417	-0.55417	-0.44375	-0.15625	-0.88333	-0.11458	-0.32083	-0.81875	26.254	155.723	179.664	101.665	40.714	318.131	194.853	15.688	45.155	194.452	306.392	62.546	278.920	42.661	85.506	343.673	0.00052462	0.0012498	0.00026918	510.5	6.5702e-06	2.5273e-05	677.35	174.42	5.2593e-06	1.4848e-05	308.77	132.74	70.383	36.233	7.1489e-06	72.943	0.0069604	0.0079372	0.0023241	821.01	8.0031e-05	8.8191e-05	1020.4	261.31	8.0219e-05	9.0359e-05	461.62	186.51	128.75	53.399	9.0874e-05	97.21	100.267	130.024	53.859	1.018	285.073	194.920	1.201	6.644	192.576	222.139	6.325	11.343	11.839	16.182	233.128	15.216	-8191	255	
8205.650	1	1	0	0	0.12618	0.089684	0.18815	0.15305	0.17835	0.088406	0.27974	0.22626	0.24573	0.17613	0.3378	0.39325	0.11839	0.071413	0.19732	0.34006	0.50833	-0.58333	-0.014583	0.091667	-0.74375	0.06875	-0.38542	-0.725	0.33542	-0.5375	-0.5125	0.0020833	-0.8625	-0.16042	-0.24583	-0.975	223.136	77.245	202.144	73.639	141.248	-3.835	306.537	277.552	93.257	176.480	-5.202	334.875	298.992	-6.665	242.932	276.848	0.0011206	0.00096571	0.00051309	512.37	9.4386e-06	1.6465e-05	685.7	175.51	1.7038e-05	3.1548e-06	310.99	133.09	70.72	36.384	1.3169e-05	73.509	0.0070738	0.0084563	0.0023032	823.65	8.2231e-05	9.31e-05	1022.2	262.61	8.2875e-05	9.4985e-05	462.26	186.6	131.48	54.45	9.1043e-05	98.211	101.928	140.424	4.769	0.963	160.364	206.022	1.010	6.634	152.268	-0.227	6.191	11.258	12.121	16.144	57.083	15.174	-8191	255	
8205.746	1	1	0	0	0.13535	0.027628	0.29326	0.32851	0.12144	0.24468	0.027437	0.33357	0.11121	0.12832	0.12904	0.082123	0.28005	0.27028	0.10179	0.085923	0.37708	-0.475	-0.42917	0.066667	-0.88125	-0.13958	-0.04375	-0.94167	0.054167	-0.58542	-0.50417	-0.10208	-0.63958	-0.20417	-0.0875	-0.93958	237.380	152.076	39.610	255.572	136.263	306.673	58.996	293.337	253.249	320.415	10.164	293.528	328.298	20.825	22.102	76.209	0.0014367	0.0013601	0.00050262	520.68	2.1113e-05	6.6606e-06	683.86	176.85	6.8772e-06	1.562e-05	309.7	131.79	70.01	36.159	9.7245e-06	72.719	0.0076357	0.0090606	0.0023645	840	9.138e-05	0.00010059	1033.2	266.78	9.274e-05	0.00010068	465.46	187.18	136.72	54.562	9.1163e-05	97.527	81.239	347.364	346.818	1.041	223.963	22.796	1.141	6.824	156.145	58.547	5.977	11.585	12.064	15.878	283.024	15.161	-8191	255	
8205.819	1	1	0	0	0.08749	0.12575	0.064269	0.12087	0.1102	0.2503	0.16612	0.076444	0.11242	0.26497	0.19903	0.29333	0.046029	0.16524	0.28311	0.39545	0.575	-0.525	-0.50208	0.15208	-0.73125	-0.28542	0.01875	-0.72083	-0.04375	-0.425	-0.71042	0.10625	-0.5625	-0.26667	-0.0125	-0.69792	31.219	193.916	-5.875	246.798	195.908	259.778	312.034	163.426	319.760	178.147	294.051	339.710	140.590	60.929	14.499	7.705	0.0010396	0.0016896	0.00044634	513.3	2.0193e-05	1.2592e-05	678.33	176.27	2.4351e-05	6.1574e-06	308.51	131.69	69.737	35.931	9.1136e-06	72.631	0.0081957	0.0090296	0.0023387	836.14	9.7282e-05	0.00010003	1025.1	267.09	9.9428e-05	0.00010033	464.96	188.06	141.3	54.525	9.2721e-05	98.259	63.871	153.690	311.987	0.781	185.247	340.983	1.218	6.859	179.935	54.512	5.984	11.170	11.599	15.612	86.885	15.318	-8191	255	
8205.938	1	1	0	0	0.11834	0.20185	0.13534	0.26536	0.1558	0.22448	0.26141	0.27871	0.1088	0.10336	0.35315	0.27156	0.09084	0.12339	0.19098	0.20555	0.3375	-0.33125	-0.62917	0.25625	-0.58958	-0.31667	0.13333	-0.91042	0.10833	-0.22083	-0.69375	0.029167	-0.60208	-0.60833	0.1	-0.8375	-8.554	91.653	255.618	7.205	344.422	85.097	306.763	294.411	339.416	149.503	240.300	243.662	311.826	309.159	316.313	345.614	0.0011458	0.0012455	0.00019897	516.9	1.101e-05	2.4779e-05	672.66	176.16	7.621e-06	1.6852e-05	307.28	131.12	69.657	35.86	5.0865e-06	72.763	0.0088865	0.0090619	0.0023579	849.17	0.00010251	9.8439e-05	1014.7	269.4	0.000102	9.6349e-05	458.76	189.1	141.67	53.759	8.895e-05	98.955	76.413	3.901	326.322	1.391	237.383	56.258	1.202	6.786	173.442	54.610	5.917	11.361	11.166	16.031	209.090	15.439	-8191	255	
8206.034	1	1	0	0	0.16547	0.1141	0.12398	0.11753	0.22978	0.032486	0.46494	0.12585	0.19439	0.20497	0.060171	0.24158	0.18107	0.059281	0.22059	0.15357	0.26458	0.045833	-0.63125	0.047917	-0.56875	-0.41875	-0.06875	-1.0479	-0.14583	0.066667	-0.89375	0.0375	-0.39375	-0.59167	0.14375	-0.8875	133.587	320.142	182.059	187.655	73.641	126.660	6.538	24.386	260.637	27.345	268.651	304.482	316.573	251.458	304.472	344.076	0.00082407	0.0006931	6.731e-05	512.55	1.5438e-05	1.1723e-05	672.92	176.43	6.4118e-06	5.6811e-06	308.17	132.38	69.73	36.009	1.3875e-05	73.58	0.0087936	0.0086319	0.0022713	857	0.00010076	9.3676e-05	1004.7	272.44	9.9265e-05	9.2531e-05	456.17	192	140	53.602	8.7769e-05	100.81	84.757	314.909	269.945	1.545	334.551	84.616	1.236	6.907	338.765	78.419	6.317	11.599	11.244	15.847	146.848	15.340	-8191	255	
8206.131	1	1	0	0	0.2468	0.15129	0.27083	0.23558	0.30614	0.20573	0.046725	0.27158	0.14999	0.11746	0.28214	0.21827	0.23707	0.28245	0.21542	0.12462	0.28542	0.16667	-0.69167	-0.0125	-0.33542	-0.4625	0.20417	-0.82083	-0.25833	0.0125	-0.88542	-0.10208	-0.27292	-0.8375	0.14792	-0.48958	332.478	56.148	179.120	71.270	338.185	169.714	317.744	243.704	109.618	74.513	262.085	342.543	26.579	343.277	19.933	301.007	0.00052354	0.0011623	0.00016843	513.62	1.0465e-05	7.0601e-06	674.03	175.36	2.2096e-05	1.2704e-05	307.77	132	70.249	36.117	1.5067e-05	72.923	0.0086004	0.0084658	0.0022651	876.23	9.8204e-05	9.2621e-05	1007.4	276.76	9.7775e-05	9.1604e-05	458.87	194.28	138.46	53.267	9.044e-05	100.99	57.637	301.530	144.617	0.958	36.105	24.452	1.137	6.709	-0.232	157.803	6.329	11.571	11.560	15.988	176.559	15.356	-8191	255	
8206.251	1	1	0	0	0.10128	0.15694	0.18942	0.16381	0.13427	0.19853	0.16973	0.1737	0.12851	0.4436	0.34409	0.16136	0.21918	0.19781	0.11024	0.35723	0.10833	0.17708	-0.625	-0.18125	-0.28958	-0.56875	0.14792	-0.45833	-0.39792	0.13125	-0.94167	-0.091667	0.022917	-0.76458	0.085417	-0.63125	199.155	210.210	63.898	347.001	229.921	155.256	95.536	309.250	52.716	252.756	267.066	322.239	-9.005	267.223	293.298	286.425	0.00044064	0.0016986	0.00052277	508.8	1.9075e-05	9.0511e-06	661.07	173.97	1.1009e-05	1.4722e-05	303.73	131.51	69.727	35.823	2.4708e-05	72.143	0.0083552	0.008243	0.0023331	878.7	9.4524e-05	8.9959e-05	1007.8	275.76	9.3254e-05	8.7673e-05	458.12	191.85	133.3	52.06	9.0224e-05	99.175	41.662	49.075	128.852	1.225	307.063	120.710	1.469	6.666	122.858	52.007	6.602	11.096	11.458	15.942	188.595	15.360	-8191	255	
8206.347	1	1	0	0	0.15362	0.17983	0.20977	0.13102	0.30983	0.088601	0.28478	0.046839	0.010323	0.05639	0.13559	0.34883	0.21914	0.35575	0.4001	0.16764	-0.21458	-0.010417	-0.62083	-0.28333	0.10833	-0.83333	-0.12083	-0.5375	-0.59167	0.11875	-0.86042	-0.47917	-0.075	-0.85625	0.13333	-0.55208	89.285	34.271	201.306	36.987	234.030	176.699	171.784	5.943	336.473	327.289	228.198	3.915	307.310	300.505	316.485	285.217	0.00065628	0.00056973	0.00047119	510.12	1.533e-05	1.6437e-05	664.19	174.67	7.4226e-06	1.4029e-06	305.22	131.8	69.435	35.707	1.2562e-05	73.082	0.0076932	0.0076485	0.0023261	859.52	8.7963e-05	8.4826e-05	1016	271.44	8.8562e-05	8.4775e-05	464.1	190.6	131.56	52.033	9.508e-05	99.09	53.873	333.608	164.270	0.886	78.243	72.652	1.311	6.845	52.217	296.525	6.642	11.128	11.675	16.029	195.005	15.501	-8191	255	
8206.419	1	1	0	0	0.11592	0.18325	0.21081	0.18684	0.054855	0.25034	0.43214	0.13849	0.25548	0.04327	0.16707	0.097245	0.27421	0.15494	0.14633	0.15679	-0.25833	0.11667	-0.54375	-0.20417	-0.029167	-0.83958	-0.13542	-0.41875	-0.6125	0.17917	-0.56042	-0.36667	-0.035417	-1.0063	-0.033333	-0.26042	239.476	199.396	63.621	139.762	92.957	207.026	272.340	195.999	13.618	283.626	45.945	327.758	107.876	271.391	-1.712	314.902	0.00062566	0.0025351	0.00036634	510.05	1.061e-05	1.7752e-05	667.94	175.26	6.5379e-06	2.1815e-05	307.01	131.9	69.473	35.959	7.5217e-06	73.149	0.0075665	0.0077182	0.0024371	848.37	8.5986e-05	8.6274e-05	1030.2	269.09	8.7331e-05	8.7836e-05	472.12	189.84	131.34	52.979	9.9895e-05	99.024	47.409	90.647	94.672	0.864	24.333	232.336	1.195	6.929	226.975	200.746	6.500	11.226	11.766	16.181	68.766	15.337	-8191	255	
8206.540	1	1	0	0	0.17229	0.20214	0.033974	0.18857	0.31501	0.089002	0.18921	0.29413	0.22622	0.19165	0.19742	0.072424	0.45359	0.30818	0.19198	0.12907	-0.40417	0.19792	-0.48333	-0.43125	0.20833	-0.74375	-0.19583	-0.095833	-0.66875	0.14792	-0.67708	-0.63333	0.175	-0.8125	-0.2625	-0.10625	26.618	260.721	181.438	-0.518	273.593	157.818	234.151	334.444	155.865	216.739	247.724	261.326	340.245	38.066	36.545	278.168	0.00046916	0.0038128	0.00026496	506.33	1.9461e-05	3.2297e-05	663.9	173.71	7.5215e-06	2.6286e-05	305.66	131.01	69.386	35.748	1.8277e-05	72.203	0.007615	0.0082984	0.0025517	847.98	8.6428e-05	9.2872e-05	1038.8	267.34	8.7297e-05	9.4316e-05	471.48	188.66	130.68	53.651	9.9408e-05	97.783	55.946	138.147	92.714	0.878	31.708	238.303	1.114	6.695	95.340	198.801	6.281	11.406	11.899	16.282	127.138	15.097	-8191	255	
8206.634	1	1	0	0	0.02579	0.064263	0.13909	0.19488	0.16644	0.19634	0.33007	0.18703	0.31337	0.21699	0.15823	0.29476	0.12019	0.17289	0.055162	0.064212	-0.35	-0.039583	-0.31458	-0.62083	0.26875	-0.775	-0.24375	-0.1625	-0.74583	0.029167	-0.55625	-0.75208	0.20625	-0.75417	-0.28125	-0.027083	267.358	311.447	30.922	-10.425	110.771	41.363	162.301	4.660	46.511	299.125	284.723	343.151	37.130	306.463	146.273	346.148	0.0008328	0.0023494	0.0005248	500.52	6.3961e-06	2.4555e-05	656.31	172.54	8.6691e-06	1.9751e-05	302.58	130.11	68.431	35.686	1.3476e-05	72.121	0.0075222	0.0088058	0.0025003	835.3	8.5724e-05	9.8103e-05	1018.5	263.33	8.6211e-05	9.7785e-05	460.9	185.42	128.98	53.787	9.3434e-05	96.465	88.306	129.608	330.737	0.612	250.882	182.487	0.907	6.518	135.505	171.516	6.162	11.380	11.902	16.218	46.321	15.257	-8191	255	
8206.730	1	1	0	0	0.14648	0.05844	0.11016	0.30936	0.15813	0.10224	0.21855	0.051402	0.21026	0.27008	0.027598	0.070793	0.21099	0.27552	0.21345	0.26752	-0.23333	0.14792	-0.066667	-0.82708	0.19792	-0.53542	-0.575	-0.05625	-0.68542	-0.16042	-0.22083	-0.78958	0.23125	-0.63125	-0.41875	-0.0083333	123.595	327.303	144.705	288.951	201.751	2.607	119.340	235.995	60.849	342.027	145.620	254.622	308.394	289.930	80.294	295.901	0.0008781	0.0015146	0.0003196	497.37	2.2203e-05	2.5875e-06	653.83	170.6	1.2443e-05	1.1509e-05	301.63	130.33	68.527	35.622	1.2593e-05	71.775	0.0074394	0.0089159	0.0023529	816.83	8.6277e-05	9.8956e-05	998.8	258.21	8.8052e-05	9.8729e-05	452.61	183.91	130.75	53.737	8.8973e-05	95.596	88.244	148.162	13.581	0.740	159.244	117.610	1.189	6.795	228.762	168.257	6.466	11.412	12.175	15.789	289.110	15.408	-8191	255	
8206.851	1	1	0	0	0.10792	0.09612	0.23485	0.2848	0.20267	0.19388	0.12355	0.096277	0.14998	0.16197	0.20957	0.31349	0.13574	0.1625	0.10686	0.18688	-0.38542	-0.075	-0.060417	-0.90625	0.16875	-0.44792	-0.62708	0.21667	-0.8375	-0.21042	-0.27083	-0.89792	0.033333	-0.61042	-0.6125	0.020833	209.172	26.834	17.707	218.366	188.514	298.199	249.610	223.973	-6.553	103.055	251.588	283.048	301.906	278.660	279.284	280.314	0.0011595	0.0014525	0.00017766	496.59	1.7083e-05	7.8441e-06	655.85	170.82	2.3064e-05	1.1822e-05	303.53	130.23	69.351	35.797	4.7332e-06	72.252	0.0076627	0.0087466	0.0022223	802.7	8.8093e-05	9.488e-05	984.19	254.11	9.0096e-05	9.4538e-05	447.72	182.88	133.25	53.312	8.6816e-05	95.872	73.813	13.398	346.205	0.992	205.928	1.413	1.232	6.904	153.860	343.425	6.289	11.384	12.244	16.088	47.768	15.503	-8191	255	
8206.947	1	1	0	0	0.14389	0.022084	0.16506	0.065632	0.1419	0.15258	0.16619	0.13927	0.14574	0.16807	0.21575	0.21208	0.35842	0.28318	0.096758	0.10181	-0.35208	-0.3625	0.025	-0.74792	0.095833	-0.39792	-0.70625	0.2125	-0.65	-0.38125	0.12083	-1.1083	-0.04375	-0.30208	-0.8125	-0.15	17.155	93.810	258.933	24.517	86.451	102.238	342.947	293.324	168.247	103.684	11.459	253.044	-3.822	304.821	315.079	29.335	0.0012448	0.0018306	0.00020809	494.69	2.7186e-05	1.2686e-05	655.05	169.32	2.7283e-05	1.0503e-05	300.92	129.68	68.222	35.32	9.5582e-06	71.032	0.0081764	0.0086659	0.002212	808.01	9.571e-05	9.4896e-05	986.87	256.12	9.7919e-05	9.4196e-05	445.03	184.15	136.7	52.707	8.734e-05	95.669	81.527	311.361	273.133	0.942	181.649	80.668	0.992	7.073	166.835	105.555	6.241	11.726	11.981	15.921	92.915	15.106	-8191	255	
8207.043	1	1	0	0	0.19055	0.19196	0.184	0.21019	0.14371	0.20819	0.32115	0.20788	0.15403	0.17967	0.1993	0.24482	0.074877	0.16114	0.25645	0.061208	-0.30417	-0.22083	0.13542	-0.675	-0.125	-0.27917	-0.92708	0.08125	-0.375	-0.375	0.20417	-0.82083	-0.1625	-0.22292	-0.75833	-0.12292	332.744	140.974	345.655	181.644	109.764	13.686	225.034	1.448	42.264	0.138	27.723	6.835	281.497	328.691	131.621	268.822	0.0011622	0.0025419	0.00019124	492.48	1.4576e-05	1.2745e-05	652.05	169.66	1.2817e-05	2.0789e-05	298.74	128.32	68.365	35.138	1.2251e-05	71.19	0.0085812	0.0084724	0.0021734	820.95	9.8294e-05	9.1873e-05	979.09	260.32	9.8825e-05	9.2188e-05	442.99	186.2	137.75	52.398	8.6807e-05	97.391	85.227	58.321	101.730	1.568	64.243	315.778	1.170	6.901	242.157	17.392	6.401	11.830	11.646	15.858	32.653	15.288	-8191	255	
8207.115	1	1	0	0	0.028002	0.26136	0.19055	0.15946	0.20199	0.091524	0.16885	0.025338	0.24049	0.051778	0.19945	0.23903	0.05977	0.26399	0.10995	0.10796	-0.2	-0.66667	0.2375	-0.75208	-0.21667	-0.054167	-0.87083	0.08125	-0.37708	-0.44375	-0.09375	-0.74167	-0.18958	-0.11458	-0.58958	-0.15833	143.586	202.674	232.091	305.805	259.428	198.514	236.145	139.918	309.398	230.320	275.837	265.046	313.990	315.938	170.516	302.812	0.00066218	0.0010535	0.00022271	492.64	2.4425e-05	2.5631e-05	656.38	169.14	1.044e-05	2.0512e-05	301.75	129.4	68.082	34.994	5.9755e-06	71.722	0.0086619	0.008543	0.0022201	846.75	0.00010033	9.2922e-05	985.89	268.13	9.9765e-05	9.3662e-05	447.27	190.64	138.03	52.417	8.9388e-05	99.436	65.469	85.949	53.356	1.727	54.589	18.694	1.193	7.222	15.769	42.016	6.283	11.580	11.213	16.037	157.229	15.349	-8191	255	
8207.235	1	1	0	0	0.18828	0.38477	0.2239	0.17229	0.087924	0.14941	0.021055	0.2065	0.2019	0.1629	0.098756	0.030083	0.056724	0.13029	0.059722	0.18355	-0.045833	-0.53542	0.13333	-0.65833	-0.25833	0.054167	-0.93958	-0.079167	-0.25208	-0.71458	0.014583	-0.79583	-0.33958	-0.010417	-0.72292	-0.029167	221.314	144.216	7.917	2.017	-3.928	165.904	75.476	1.651	232.627	334.610	156.253	320.328	123.272	238.852	115.290	13.558	0.00050829	0.00184	0.0002008	498.14	1.5031e-05	9.171e-06	654.15	169.7	1.938e-05	1.3226e-05	300	130.2	68.365	35.216	2.4042e-05	71.767	0.0086027	0.0085046	0.0022825	868.06	9.8289e-05	9.2183e-05	998.45	272.66	9.7285e-05	9.2147e-05	453.67	193.25	135.84	52.169	9.2187e-05	99.692	74.478	-6.036	107.938	1.595	12.951	332.669	1.614	6.830	8.563	53.407	6.703	11.350	11.696	16.030	177.001	15.401	-8191	255	
8207.332	1	1	0	0	0.27297	0.22123	0.16828	0.18117	0.18334	0.026753	0.078501	0.23291	0.17642	0.14784	0.20146	0.1897	0.18028	0.27536	0.052621	0.20338	0.15833	-0.70208	0.16667	-0.59167	-0.50208	0.11667	-0.71042	-0.27708	0.1125	-0.77708	0.21042	-0.50208	-0.64583	0.19792	-0.76667	-0.34375	267.581	192.756	322.949	300.474	315.810	159.110	34.505	51.857	76.403	180.540	2.445	308.373	285.051	94.252	181.198	272.650	0.00054819	0.0010982	0.00064819	493.65	8.1019e-06	1.2187e-05	655.23	167.76	4.5187e-06	1.8893e-06	299.88	129.13	67.171	34.965	6.6881e-06	71.059	0.0081544	0.0081784	0.0023432	861.88	9.3798e-05	8.8737e-05	1008	270.16	9.3802e-05	8.9805e-05	459.01	191.43	133.95	51.627	9.7949e-05	98.862	91.612	338.397	120.867	1.147	55.523	154.193	1.481	6.969	142.088	333.340	6.867	11.371	11.756	16.045	138.096	15.500	-8191	255	
8207.428	1	1	0	0	0.15921	0.16303	0.069178	0.29035	0.34222	0.14966	0.29361	0.28101	0.25012	0.015689	0.23963	0.10577	0.26935	0.1818	0.23469	0.25426	0.3875	-0.82083	0.26042	-0.35417	-0.60625	0.19792	-0.87292	-0.28542	0.047917	-0.625	0.24583	-0.19792	-0.69792	0.1875	-0.51667	-0.49375	128.102	263.094	7.593	338.383	64.272	317.149	343.084	47.100	51.330	10.176	171.823	231.632	59.416	327.950	50.780	23.354	0.00060088	0.00073108	0.00040303	491.69	4.1718e-06	1.0161e-05	654.72	169.29	1.0098e-05	1.2221e-05	299.51	129.24	67.741	34.932	1.7017e-05	71.25	0.008031	0.00813	0.0024886	849.96	9.1627e-05	8.7161e-05	1020.2	266.87	9.0167e-05	8.8811e-05	463.89	188.95	131.86	51.644	0.00010112	98.22	68.819	-9.382	135.990	1.342	19.930	138.317	1.613	6.972	-7.476	207.239	6.460	11.218	11.000	16.190	155.078	15.243	-8191	255	
8207.524	1	1	0	0	0.14792	0.057034	0.24924	0.074235	0.15025	0.15262	0.26681	0.12851	0.18549	0.26982	0.24909	0.16238	0.21107	0.085774	0.19159	0.2102	0.42292	-0.85208	0.2	-0.13958	-0.575	0.25208	-0.77917	-0.50208	0.27917	-0.75833	-0.2	-0.32917	-0.86875	0.089583	-0.26875	-0.6	277.671	109.055	324.333	289.415	345.672	39.358	267.143	118.225	19.983	266.889	6.468	311.869	106.597	317.862	40.372	0.850	0.00051924	0.0020237	0.00020593	492.95	1.0979e-05	1.9327e-05	657.75	169.5	1.0124e-06	2.1206e-05	302.13	129.18	67.539	35.165	1.656e-05	71.802	0.0078923	0.0083634	0.002603	846.89	9.1052e-05	9.1342e-05	1033.9	265.18	8.8313e-05	9.2107e-05	467.25	187.18	129.92	52.151	9.8488e-05	97.338	53.169	168.250	169.459	1.078	109.619	178.979	1.097	6.873	50.970	245.645	6.078	11.298	11.052	16.674	132.325	15.255	-8191	255	
8207.643	1	1	0	0	0.19966	0.1664	0.21283	0.14053	0.2518	0.14385	0.2499	0.35224	0.13896	0.20376	0.24886	0.20824	0.17027	0.10201	0.35381	0.21457	0.52708	-0.80208	-0.10833	-0.035417	-0.72917	0.097917	-0.53333	-0.7375	0.064583	-0.65208	-0.2	-0.25	-0.8125	-0.1125	-0.55625	-0.95	143.673	194.147	145.081	313.501	63.137	298.687	311.243	339.823	324.747	325.217	-4.515	310.756	176.336	300.713	322.957	-4.478	0.00092416	0.0019717	0.00019168	504.16	9.9405e-06	2.8294e-05	666	170.91	6.6335e-06	1.4708e-05	303.72	130.63	68.109	35.268	1.0069e-05	71.97	0.007369	0.0083858	0.0024831	828.2	8.5152e-05	9.2526e-05	1027.8	263.09	8.4814e-05	9.5426e-05	465.81	186.66	129.12	53.112	9.6329e-05	97.139	51.887	139.436	49.886	1.103	340.092	200.952	1.322	7.166	-8.534	171.153	6.110	11.255	12.132	16.448	23.976	15.269	-8191	255	
8207.716	1	1	0	0	0.11365	0.25707	0.13461	0.11868	0.19875	0.14733	0.16898	0.14801	0.24867	0.34413	0.22761	0.26872	0.21779	0.1669	0.235	0.39922	0.52083	-0.61667	-0.16667	-0.12083	-0.51875	0.045833	-0.52083	-0.825	0.18958	-0.52917	-0.39792	-0.075	-0.99167	-0.060417	-0.4125	-0.97708	194.582	222.531	245.209	-7.786	276.311	256.058	190.483	43.969	236.582	217.923	23.917	314.301	212.814	320.296	111.686	320.165	0.00090366	0.0026857	0.00017777	499.29	9.8026e-06	1.5773e-05	660.88	170.53	1.9998e-05	2.4731e-05	300.3	129.56	68.149	35.067	7.846e-06	71.473	0.007341	0.0088087	0.0024161	820.89	8.5313e-05	9.6462e-05	1010.5	259.68	8.5165e-05	9.8068e-05	456.49	183.79	129.21	53.215	9.132e-05	95.921	87.078	124.871	11.290	1.329	84.278	194.862	1.327	7.010	144.645	177.122	6.121	11.378	12.238	16.185	1.454	15.210	-8191	255	
8207.812	1	1	0	0	0.1271	0.056164	0.16443	0.18241	0.1496	0.056523	0.06165	0.093459	0.044003	0.034249	0.20341	0.10163	0.074938	0.25806	0.32153	0.22595	0.47917	-0.66875	-0.44792	-0.035417	-0.85	-0.04375	-0.3	-0.875	0.15208	-0.45417	-0.70417	0.052083	-0.92917	-0.2	-0.0625	-0.92917	311.517	155.826	244.911	117.701	208.854	284.608	330.963	240.373	174.253	302.181	142.570	39.993	53.393	5.231	31.129	14.333	0.00094431	0.0012535	4.3159e-05	494.15	1.4035e-05	2.0612e-05	657.42	169.47	3.0532e-05	1.4179e-05	300.97	129.14	67.794	35.072	5.8033e-06	71.793	0.0074888	0.0089073	0.0023173	806.93	8.7757e-05	9.7323e-05	994.28	256.53	8.8104e-05	9.6687e-05	450.29	181.8	131	52.801	8.7252e-05	95.201	71.581	43.746	151.909	1.193	210.528	227.698	1.577	7.046	176.771	65.695	6.489	11.262	12.374	15.871	66.217	15.627	-8191	255	
8207.931	1	1	0	0	0.18903	0.35397	0.049772	0.1998	0.25238	0.077898	0.088134	0.34152	0.10426	0.20352	0.062736	0.27125	0.28015	0.19265	0.041292	0.17335	0.525	-0.49167	-0.43333	0.22708	-0.66667	-0.2125	-0.10417	-0.70417	0.047917	-0.46042	-0.625	0.0625	-0.83958	-0.57708	0.045833	-0.93542	52.669	-7.195	138.187	3.505	320.639	155.465	170.436	333.781	48.667	33.510	42.597	338.644	265.007	16.280	218.195	306.041	0.0012554	0.00060309	0.00032681	494.94	2.4685e-05	2.3788e-05	660.72	170.12	1.3565e-05	1.2511e-05	302	129.67	68.085	35.196	4.0492e-06	72.113	0.0077378	0.0086333	0.0022275	799.3	9.1268e-05	9.4901e-05	987.09	255.47	9.2615e-05	9.4591e-05	448.96	182.44	134.5	52.724	8.6174e-05	96.113	83.500	246.092	49.261	1.129	173.805	90.996	1.356	7.033	152.438	140.083	6.373	11.521	12.305	15.703	222.420	15.555	-8191	255	
8208.027	1	1	0	0	0.29216	0.063608	0.16288	0.1991	0.22379	0.11251	0.17501	0.06193	0.010397	0.09911	0.2221	0.33529	0.23234	0.19949	0.14725	0.55363	0.31458	-0.35	-0.63125	0.20625	-0.49792	-0.39792	0.13958	-0.81875	-0.0083333	-0.19792	-0.75208	0.27917	-0.75417	-0.37708	0.12708	-1.0354	84.228	52.098	50.312	24.462	24.314	54.194	231.027	27.994	7.612	212.806	320.354	25.598	296.466	343.318	201.097	286.117	0.00091551	0.0021694	0.000457	499.81	1.2971e-05	2.57e-05	664.41	170.25	1.3918e-05	1.0773e-05	303.19	130.45	68.589	35.353	7.418e-06	72.026	0.0081625	0.0084043	0.0021849	806.35	9.4075e-05	9.1072e-05	982.47	257.07	9.4373e-05	9.0454e-05	446.25	183.95	135.6	52.27	8.3527e-05	96.674	70.606	348.346	21.462	1.274	209.273	33.050	1.303	7.306	88.551	41.051	6.220	11.504	12.213	16.249	92.668	15.577	-8191	255	
8208.124	1	1	0	0	0.098186	0.073802	0.087184	0.2019	0.14106	0.14554	0.16347	0.39206	0.19437	0.1396	0.15736	0.24789	0.17356	0.073697	0.065596	0.10236	0.41458	-0.14583	-0.60417	0.027083	-0.55833	-0.40417	0.052083	-0.71875	-0.2875	-0.083333	-0.85625	-0.045833	-0.37708	-0.62292	0.35833	-0.8375	139.678	302.706	106.107	16.791	278.951	19.186	239.912	327.738	165.885	124.827	318.267	245.079	230.268	146.028	110.798	291.137	0.0010463	0.0010112	0.00013947	498.14	1.1861e-05	2.2079e-05	659.29	170.33	1.0296e-05	1.6354e-05	300.49	129.64	68.425	35.081	9.0959e-06	71.595	0.0082305	0.0081249	0.0021407	819.09	9.5297e-05	8.9398e-05	975.52	261.59	9.5948e-05	8.9627e-05	442.7	185.94	134.78	51.7	8.2223e-05	97.163	65.841	-8.167	49.079	1.534	115.865	-3.886	1.198	7.242	118.980	113.752	6.212	11.434	11.662	15.968	166.623	15.620	-8191	255	
8208.220	1	1	0	0	0.19473	0.33289	0.13292	0.19285	0.13568	0.0873	0.17893	0.25541	0.11286	0.22556	0.18212	0.37725	0.10845	0.15686	0.12407	0.067275	0.26458	0.083333	-0.77083	-0.175	-0.20208	-0.62292	0.21458	-0.78542	-0.18958	0.19583	-0.75208	-0.0041667	-0.21875	-0.725	0.26875	-0.75208	115.538	145.632	268.261	27.616	312.693	88.771	30.483	23.951	242.363	195.675	319.762	306.095	257.085	286.560	166.724	160.084	0.00043184	0.0004294	0.00032911	497.28	1.536e-05	1.2144e-05	657.03	171.24	2.1318e-05	4.6239e-06	302.77	129.05	68.156	35.028	1.8377e-05	72.161	0.0080489	0.0079332	0.0021009	830.9	9.1731e-05	8.676e-05	967.54	263.95	9.1725e-05	8.5943e-05	442.32	187.53	132.3	51.392	8.3569e-05	98.343	74.696	10.334	137.249	1.417	13.457	107.553	1.420	6.999	326.053	54.521	6.544	11.468	11.586	15.956	216.712	15.479	-8191	255	
8208.340	1	1	0	0	0.064913	0.27667	0.23133	0.32599	0.20541	0.04735	0.27135	0.078718	0.16203	0.12966	0.12832	0.23102	0.25598	0.54767	0.23764	0.10714	0.077083	0.225	-0.7125	-0.014583	-0.10625	-0.68542	0.1875	-0.69583	-0.37292	0.23542	-0.73542	-0.13542	-0.20833	-0.91042	0.1875	-0.85833	268.153	54.280	224.973	231.630	206.990	323.738	339.205	40.424	90.292	133.099	30.165	16.337	1.375	-10.516	304.813	343.779	0.00033725	0.00058789	0.00021507	497.43	2.3388e-05	1.5235e-05	657.98	170.85	1.0618e-05	6.6669e-06	305.02	130.29	68.438	35.154	1.7927e-05	72.45	0.0078598	0.0077513	0.0021479	843.11	8.9027e-05	8.4738e-05	982.29	266.09	8.8313e-05	8.3622e-05	449.11	189	130.27	51.12	8.6602e-05	98.744	66.809	41.441	119.698	0.954	91.610	198.359	1.553	6.680	297.302	54.459	6.394	11.477	11.812	15.996	180.925	15.688	-8191	255	
8208.412	1	1	0	0	0.16016	0.29542	0.092869	0.25331	0.12321	0.20682	0.40535	0.15652	0.044999	0.21832	0.28674	0.27133	0.066734	0.21721	0.10574	0.13829	-0.14583	0.26667	-0.59375	-0.16042	-0.275	-0.83542	0.052083	-0.49375	-0.54583	0.31875	-0.88542	-0.42708	-0.05625	-0.7375	-0.045833	-0.59792	115.991	36.655	101.271	306.812	183.925	6.698	268.733	-5.156	54.577	51.028	295.729	291.313	230.319	0.491	252.436	55.249	0.0005076	0.0011106	0.00059846	503.34	1.0327e-05	6.6382e-06	662.47	171.95	1.6999e-05	5.7392e-06	306.33	130.49	68.624	35.359	2.3973e-05	72.307	0.0076012	0.0075422	0.0022446	845.55	8.6302e-05	8.2361e-05	1000.4	265.64	8.598e-05	8.1222e-05	454.93	187.78	127.84	50.746	8.9453e-05	97.732	76.357	10.249	150.909	0.702	53.818	84.482	1.649	7.012	47.094	326.608	6.336	11.377	11.688	15.994	199.529	15.455	-8191	255	
8208.533	1	1	0	0	0.12447	0.23088	0.21015	0.19456	0.22025	0.18951	0.11984	0.14354	0.20121	0.29648	0.11491	0.31004	0.084531	0.35795	0.30621	0.12648	-0.22917	0.35208	-0.6875	-0.17083	0.08125	-0.85417	-0.17708	-0.15417	-0.73125	0.32917	-0.68542	-0.4375	0.13125	-0.9125	-0.058333	-0.49583	253.509	170.815	280.606	230.856	249.438	140.556	12.186	283.853	93.727	-0.408	0.583	1.525	347.930	325.498	37.917	306.400	0.00066917	0.00016193	0.00039307	496.98	6.6232e-06	3.4689e-05	656.53	170.04	1.9896e-05	7.8736e-06	303.2	129.59	68.126	35.106	1.0162e-05	72.289	0.0073446	0.007407	0.0023311	829.14	8.4382e-05	8.2761e-05	1008.5	261.86	8.4549e-05	8.3047e-05	459.03	185.82	127.23	51.039	9.2993e-05	96.919	88.030	331.840	133.552	0.949	70.118	159.774	1.255	6.780	-7.879	300.383	6.366	11.389	11.956	16.476	137.951	15.523	-8191	255	
8208.629	1	1	0	0	0.17125	0.17789	0.22572	0.44439	0.1127	0.16087	0.060365	0.12081	0.29376	0.14193	0.24378	0.1492	0.39167	0.20017	0.049485	0.14044	-0.45625	0.06875	-0.45625	-0.45417	0.17292	-0.87917	-0.175	-0.1375	-0.52083	0.0083333	-0.77917	-0.65833	0.077083	-0.95625	-0.21875	-0.23542	187.649	93.776	203.803	299.374	290.620	9.735	11.213	263.094	137.332	236.622	240.372	329.035	208.151	10.091	-1.147	21.063	0.00056606	0.0022449	8.374e-05	496.21	1.9985e-05	2.885e-05	661	170.75	3.115e-06	2.1796e-05	304.62	130.35	68.177	35.181	8.3647e-06	72.18	0.0071888	0.0076828	0.0023648	816.96	8.1436e-05	8.5718e-05	1011.2	258.81	8.2e-05	8.6865e-05	459.25	184.62	125.71	51.748	9.2508e-05	96.498	54.661	204.169	116.309	1.032	101.996	207.712	1.369	6.862	95.178	237.068	6.593	11.378	11.645	16.444	29.384	15.679	-8191	255	
8208.723	1	1	0	0	0.15149	0.16908	0.25067	0.13539	0.28564	0.25574	0.39281	0.20314	0.31747	0.15201	0.041862	0.44135	0.35169	0.21944	0.10626	0.22209	-0.11667	0.11875	-0.35	-0.69375	-0.054167	-0.75833	-0.21875	-0.12083	-0.76875	0.035417	-0.50833	-0.67708	0.14792	-0.79167	-0.23542	0.10208	135.286	3.335	84.404	243.388	210.746	94.026	258.732	290.910	273.849	18.927	12.661	335.787	25.507	57.864	111.938	295.342	0.0005352	0.002351	0.00055954	499.67	1.0766e-05	1.7522e-05	668.83	171.05	7.013e-06	5.184e-06	303.47	130.72	68.305	35.344	8.4295e-06	72.695	0.0070365	0.0080543	0.0023255	811.48	7.9672e-05	8.9382e-05	1007.9	256.87	8.0267e-05	8.9831e-05	454.68	183.45	124.59	52.268	8.765e-05	96.197	43.051	156.989	19.868	0.893	32.389	184.693	1.126	7.259	199.042	196.217	6.774	11.517	11.952	16.028	102.845	15.369	-8191	255	
8208.819	1	1	0	0	0.071489	0.13237	0.17162	0.14296	0.17813	0.12026	0.11803	0.24284	0.031199	0.13367	0.15023	0.21899	0.16903	0.238	0.14211	0.25799	-0.58125	0.085417	-0.28542	-0.71875	0.17917	-0.83125	-0.31458	-0.16667	-0.65625	-0.0375	-0.35417	-0.89167	0.05625	-0.7	-0.55	-0.091667	255.152	278.969	325.799	-7.225	189.208	324.434	263.435	329.458	57.178	221.695	268.899	313.449	54.593	49.874	174.288	276.329	0.0013184	0.0020992	0.00062637	501.33	1.3284e-05	2.5614e-06	668.62	170.63	2.5122e-05	6.3313e-06	304.08	130.83	68.534	35.496	4.7486e-06	72.498	0.006877	0.0081832	0.0021984	802.57	7.934e-05	9.0844e-05	995.68	254.51	8.167e-05	9.2908e-05	450.87	182.84	126.88	52.658	8.5785e-05	95.621	78.631	119.658	7.388	1.099	171.272	288.076	1.203	7.226	199.659	206.508	6.272	11.429	12.047	16.259	280.892	15.429	-8191	255	
8208.915	1	1	0	0	0.066698	0.12817	0.25244	0.20443	0.27106	0.0298	0.14676	0.24621	0.31954	0.1447	0.13912	0.22472	0.24176	0.33496	0.25001	0.18929	-0.475	-0.064583	-0.15417	-0.81458	0.16667	-0.39792	-0.71458	-0.066667	-0.77083	-0.20208	0.01875	-1.0083	0.077083	-0.5	-0.67292	0.1875	46.591	251.600	66.345	187.986	160.715	42.458	310.406	248.018	280.983	45.119	276.122	37.018	49.864	59.482	247.313	341.602	0.0012373	0.0011023	0.00015322	500.18	2.097e-05	9.4072e-06	663.29	171.45	2.8521e-05	5.5033e-06	303.89	129.92	68.184	35.154	2.4098e-06	72.317	0.007243	0.0083986	0.0021599	796.47	8.3893e-05	9.1289e-05	983.29	251.73	8.4813e-05	9.0806e-05	443.28	180.5	128.45	51.921	8.2081e-05	94.704	88.905	48.254	332.745	1.109	166.599	59.946	1.476	6.932	161.245	339.146	6.532	11.461	12.721	16.228	15.806	15.632	-8191	255	
8209.012	1	1	0	0	0.12553	0.24112	0.10121	0.51416	0.069068	0.11725	0.24402	0.1422	0.12309	0.1264	0.10448	0.245	0.11725	0.17222	0.24123	0.35605	-0.39583	-0.16667	0.025	-0.93125	0.10417	-0.49792	-0.88333	0.24792	-0.76042	-0.20208	-0.1875	-0.94792	-0.066667	-0.51667	-0.54583	-0.020833	258.647	178.057	34.937	36.807	198.197	30.438	-1.260	312.525	194.649	75.454	158.354	305.864	69.603	332.595	54.843	320.709	0.00106	0.0014792	9.217e-05	498.3	1.6208e-05	8.9125e-06	660.24	170.66	6.6245e-06	1.6579e-05	304.25	130.36	67.933	35.42	1.5422e-06	72.824	0.0074452	0.0080709	0.0020717	786.96	8.6423e-05	8.736e-05	973.41	250.05	8.7553e-05	8.7126e-05	439.94	180.94	130.45	51.525	8.0217e-05	95.288	93.683	119.936	318.010	1.359	184.930	26.542	1.366	7.274	122.163	68.426	6.453	11.436	12.264	16.065	306.436	15.638	-8191	255	
8209.108	1	1	0	0	0.095557	0.15413	0.33548	0.077353	0.22745	0.17776	0.10456	0.26901	0.088377	0.058016	0.15466	0.11215	0.24011	0.14937	0.071618	0.27944	-0.39583	-0.33958	0.14583	-1.1146	-0.15833	-0.30417	-0.94375	0.18958	-0.6	-0.42917	-0.05	-0.94583	-0.15833	-0.15208	-0.79375	-0.04375	222.462	343.123	345.568	182.434	108.080	322.286	27.951	255.207	180.709	141.053	345.968	55.765	316.304	292.400	252.983	285.972	0.0010526	0.0012937	0.00023185	499	1.2861e-05	1.5572e-05	665.13	169.7	1.1677e-05	7.1407e-06	306.19	131.37	68.237	35.466	7.984e-06	73.163	0.007656	0.0077295	0.0019922	790.09	8.7353e-05	8.3124e-05	966.52	251.26	8.7459e-05	8.2897e-05	436.8	182.82	130.84	51.2	7.7591e-05	96.69	100.129	345.537	296.512	1.503	76.402	47.717	1.161	7.465	144.734	69.437	6.398	11.594	11.607	15.870	89.563	15.653	-8191	255	
8209.204	1	1	0	0	0.11765	0.16132	0.086329	0.22202	0.066309	0.14579	0.1176	0.15433	0.2155	0.14439	0.23772	0.24418	0.07728	0.30554	0.1143	0.47092	-0.16875	-0.50208	0.14375	-0.89583	-0.17292	-0.14792	-0.92083	-0.1	-0.39167	-0.51667	0.1375	-0.725	-0.26458	-0.12917	-0.79583	-0.21042	129.271	63.258	163.537	85.811	186.761	243.221	224.132	147.868	53.445	111.938	328.231	44.884	333.636	290.011	35.658	291.647	0.00088766	0.00050078	0.0002261	502.01	8.0626e-07	1.7813e-05	668.72	171.53	1.5913e-05	1.4699e-05	304.9	131.43	68.503	35.525	7.9933e-07	72.858	0.0075773	0.0075129	0.0019399	805.6	8.6576e-05	8.0856e-05	962.82	256.17	8.603e-05	8.1033e-05	434.24	185.03	129.19	50.73	7.6227e-05	97.072	62.155	113.401	124.781	1.585	307.829	172.641	1.155	7.234	41.896	64.372	6.614	11.742	11.318	16.237	272.277	15.563	-8191	255	
8209.300	1	1	0	0	0.10777	0.13701	0.24968	0.25952	0.031811	0.25739	0.27337	0.13878	0.34871	0.27518	0.25263	0.093974	0.17392	0.20378	0.26816	0.11615	-0.016667	-0.71458	0.00625	-0.7875	-0.31875	0.16667	-0.7875	0.18542	-0.19375	-0.83125	0.10833	-0.67917	-0.56667	0.08125	-0.58125	-0.21458	33.528	322.362	65.999	324.010	174.053	185.448	288.242	203.551	303.128	172.247	24.096	-4.561	341.197	35.849	339.048	247.632	0.00023873	0.0018143	0.00042813	500.15	9.0738e-06	1.1967e-05	664.46	169.39	1.2285e-05	6.0953e-06	302.91	131.54	68.283	35.2	5.6756e-06	72.468	0.007356	0.0073236	0.001933	815.86	8.4619e-05	7.9458e-05	962.35	258.01	8.3318e-05	7.8952e-05	434.12	185.65	126.46	50.053	7.7402e-05	97.042	75.657	-9.888	203.979	1.483	337.524	83.349	1.401	7.338	32.703	57.128	6.866	11.774	11.666	16.043	198.235	15.604	-8191	255	
8209.421	1	1	0	0	0.20979	0.098056	0.07741	0.19017	0.022522	0.091928	0.26608	0.26084	0.31655	0.098023	0.10854	0.155	0.2137	0.25367	0.31631	0.103	0.2125	-0.64583	0.25417	-0.38333	-0.41667	0.077083	-0.87708	-0.11458	-0.054167	-0.66667	0.22917	-0.72917	-0.3375	0.19792	-0.60625	-0.3	217.739	330.670	286.236	323.622	211.084	190.681	38.317	254.727	250.349	110.730	252.698	11.918	298.099	17.033	101.212	348.780	0.00068074	0.00022189	0.0004611	496.97	5.6896e-06	2.2101e-05	665.85	169.7	8.2105e-06	8.1928e-06	302.95	131.37	67.74	35.457	2.4829e-05	73.087	0.0069841	0.0070088	0.001971	813.14	8.0597e-05	7.6283e-05	970.36	257.93	7.9752e-05	7.6757e-05	439.14	185.65	125.13	50.014	8.1478e-05	97.485	75.034	76.830	145.144	1.406	80.935	335.820	1.501	7.094	331.439	109.111	6.772	11.670	11.644	16.069	207.528	15.506	-8191	255	
8209.517	1	1	0	0	0.16734	0.10975	0.080843	0.18965	0.2426	0.27335	0.11376	0.27272	0.27909	0.11034	0.038696	0.12397	0.18918	0.19863	0.17151	0.33993	0.27292	-0.82917	0.2	-0.49792	-0.59375	0.27083	-0.7375	-0.27292	0.0020833	-0.76667	-0.052083	-0.47083	-0.60625	0.075	-0.63542	-0.53125	95.720	296.690	191.070	274.610	317.818	297.804	8.444	258.775	4.647	187.674	192.366	103.465	35.283	257.214	262.119	324.229	0.00070773	0.0012485	0.00012931	498.12	1.2766e-05	1.1381e-05	665.04	170.27	1.159e-05	3.4998e-06	305.71	131.39	68.299	35.524	1.298e-05	73.404	0.0068746	0.0069344	0.0020872	807.54	7.8546e-05	7.4013e-05	980.28	255.35	7.6895e-05	7.4798e-05	445.3	184.17	123.77	49.905	8.3959e-05	96.961	90.636	132.600	219.882	1.063	111.440	58.477	1.534	6.895	36.305	229.564	6.493	11.452	11.895	16.430	167.330	15.411	-8191	255	
8209.613	1	1	0	0	0.1018	0.098077	0.21836	0.12811	0.049088	0.14121	0.26628	0.48068	0.081096	0.13984	0.41536	0.064778	0.16921	0.083981	0.20914	0.18107	0.42292	-0.775	0.26458	-0.39167	-0.67292	0.32083	-0.9	-0.53125	-0.025	-0.79583	-0.18542	-0.39375	-0.8	0.0625	-0.69792	-0.41667	160.892	12.268	334.466	114.857	150.593	253.394	310.287	310.336	224.687	118.106	300.665	309.645	1.755	182.313	212.057	285.692	0.00093991	0.002833	2.3827e-05	496.46	1.4788e-05	2.3362e-05	668.29	169.83	1.5603e-05	1.7809e-05	303.91	131.18	68.074	35.439	8.7766e-06	72.852	0.0066677	0.0069747	0.0021674	799.19	7.7037e-05	7.5886e-05	991.93	253.4	7.5886e-05	7.7644e-05	448.19	182.73	122.66	50.437	8.6695e-05	96.091	56.921	150.696	276.266	1.176	26.265	191.051	1.485	7.127	31.228	213.826	6.558	11.399	11.974	16.223	127.617	15.497	-8191	255	
8209.709	1	1	0	0	0.24251	0.26885	0.1516	0.26187	0.14148	0.064066	0.4856	0.23358	0.2042	0.32392	0.12352	0.20442	0.068791	0.29842	0.032188	0.082974	0.50208	-0.77083	-0.020833	-0.091667	-0.79792	0.033333	-0.69583	-0.71042	0.25417	-0.78125	-0.01875	-0.18125	-0.63125	0.089583	-0.38958	-0.57083	200.547	110.812	111.604	266.550	69.533	65.860	322.886	53.578	267.314	214.022	341.058	317.987	223.965	-8.502	269.372	270.702	0.0006271	0.0021834	0.00029493	495.22	1.3206e-05	2.5571e-05	665.22	169.65	8.7953e-06	5.3257e-06	303.25	130.71	68.542	35.359	1.3027e-05	72.45	0.0066025	0.0073554	0.0022222	793.57	7.6491e-05	8.1428e-05	994.08	251.66	7.5267e-05	8.2819e-05	447.97	181.66	122.32	51.185	8.5856e-05	95.487	89.563	147.913	270.443	1.067	58.278	206.429	1.455	7.089	-3.478	105.191	6.282	11.521	11.992	16.232	80.966	15.576	-8191	255	
8209.804	1	1	0	0	0.23262	0.17693	0.045506	0.18428	0.18037	0.09873	0.15675	0.2048	0.16196	0.20768	0.076947	0.07815	0.047974	0.18254	0.18585	0.087515	0.51458	-0.58125	-0.19583	-0.05625	-0.70625	0.10208	-0.53125	-0.82083	0.24792	-0.52083	-0.34375	0.016667	-0.7875	0.14792	-0.21458	-0.81875	115.047	30.717	28.735	258.389	148.586	183.390	347.261	264.148	184.378	335.015	141.192	145.776	93.844	200.267	-1.532	184.973	0.00085126	0.0018384	0.0005005	493.18	1.2916e-05	2.3341e-05	665.45	169.07	1.9887e-05	1.3568e-05	303.09	130.37	68.272	35.197	8.4302e-06	72.713	0.0065737	0.0078175	0.0021908	789.58	7.6722e-05	8.6629e-05	989.48	251.39	7.6679e-05	8.788e-05	446.19	181.29	123.23	51.783	8.4018e-05	95.443	78.988	155.646	21.345	1.134	127.323	141.031	1.473	6.917	144.781	216.989	6.295	11.200	11.745	16.201	18.075	15.219	-8191	255	
8209.901	1	1	0	0	0.34334	0.17495	0.1217	0.1151	0.12938	0.17321	0.12807	0.16966	0.085639	0.2069	0.34101	0.13203	0.075515	0.14034	0.12531	0.12693	0.7	-0.56667	-0.23958	0.2	-0.73542	0.16042	-0.23958	-0.58125	0.2875	-0.6375	-0.56667	0.16042	-0.85625	-0.14375	0.0083333	-1.0646	240.957	232.821	12.662	271.575	159.323	110.384	237.211	220.561	343.043	205.657	149.280	108.280	157.774	28.342	104.803	221.121	0.0012681	0.0016571	0.00044097	497.93	1.4509e-05	1.7351e-05	670.74	170.06	2.566e-05	2.8532e-06	306.54	131.21	67.967	35.266	5.2513e-06	72.815	0.0067447	0.0080951	0.0021282	787.68	7.9331e-05	8.9139e-05	984.94	251.3	8.0496e-05	9.0092e-05	446.08	181.07	126.42	52.168	8.2611e-05	95.431	86.411	311.450	18.151	0.988	185.336	151.263	1.164	6.842	164.577	177.652	6.295	11.335	11.900	16.044	340.871	15.268	-8191	255	
8210.020	1	1	0	0	0.078073	0.27013	0.1894	0.18176	0.088185	0.23144	0.22658	0.1114	0.16313	0.16307	0.23681	0.21107	0.2211	0.22829	0.31703	0.37248	0.50833	-0.3625	-0.54167	0.24583	-0.68333	-0.10833	-0.21458	-0.79375	0.077083	-0.45625	-0.70833	0.0083333	-0.84375	-0.43958	-0.079167	-1.0208	-6.064	137.125	79.513	108.401	86.127	152.298	-9.586	325.732	286.764	227.248	1.267	341.800	318.136	273.180	67.601	285.056	0.0013358	0.00011817	9.5416e-05	499.39	1.3626e-05	1.7766e-05	664.43	170.12	2.8608e-05	4.1232e-06	302.32	129.87	67.798	34.893	3.5205e-06	71.897	0.0071976	0.0081521	0.0020979	786.78	8.3972e-05	8.8955e-05	977.39	249.76	8.4493e-05	8.7954e-05	439.44	178.85	127.72	51.127	7.8191e-05	94.023	94.559	260.319	42.738	1.024	104.656	138.918	1.238	6.987	171.738	25.296	6.376	11.377	12.077	16.007	73.230	15.297	-8191	255	
8210.116	1	1	0	0	0.084187	0.28231	0.061399	0.18941	0.13554	0.16656	0.15856	0.32786	0.13379	0.077225	0.084538	0.047429	0.048199	0.26518	0.11171	0.11839	0.5375	-0.36458	-0.45625	0.035417	-0.65417	-0.060417	0.09375	-1.0063	-0.0020833	-0.36875	-0.70417	0.13542	-0.79167	-0.3875	0.23333	-0.96667	65.995	253.087	175.800	246.515	17.362	288.836	342.673	315.778	167.390	62.045	246.615	251.225	271.250	295.473	340.507	208.276	0.00082515	0.00036306	0.0003395	494.73	1.231e-05	1.7296e-05	661.11	168.74	1.4697e-05	6.986e-06	302.11	129.68	67.54	34.783	3.2914e-06	72.072	0.0072778	0.0076261	0.0019816	770.88	8.4198e-05	8.3206e-05	954.79	246.97	8.4774e-05	8.1853e-05	431.33	177.93	127.23	50.28	7.475e-05	94.135	100.965	86.657	3.251	1.093	190.573	84.177	1.152	6.802	185.778	68.749	6.102	11.624	12.006	15.771	325.270	15.397	-8191	255	
8210.213	1	1	0	0	0.083962	0.26982	0.049063	0.21092	0.021671	0.16366	0.20767	0.12619	0.1805	0.045288	0.2172	0.42471	0.10912	0.29089	0.23268	0.20171	0.35	-0.14792	-0.92708	0.045833	-0.58542	-0.67083	0.10417	-0.91042	0.054167	-0.072917	-0.91667	0.1	-0.53542	-0.46042	0.30833	-0.90833	283.456	285.464	110.609	190.605	66.430	284.007	303.032	326.429	189.975	133.323	58.541	294.211	81.238	23.564	3.234	289.337	0.00073933	0.0010181	0.00015876	495.7	5.1007e-06	8.8895e-06	662.31	168.19	7.8708e-06	9.7645e-06	301.13	129.96	67.581	34.916	4.8617e-06	72.58	0.0072692	0.0072141	0.0018925	776.08	8.3716e-05	7.8555e-05	945.66	248.13	8.3894e-05	7.8453e-05	429.08	180.49	126.96	50.037	7.3711e-05	95.785	65.422	206.965	129.455	1.562	240.908	49.795	1.403	7.169	43.296	27.812	6.103	11.653	12.049	15.960	136.154	15.624	-8191	255	
8210.309	1	1	0	0	0.085621	0.21897	0.31322	0.14935	0.045625	0.21349	0.11812	0.11328	0.17013	0.13356	0.46776	0.14707	0.067162	0.092159	0.042364	0.2662	0.175	-0.014583	-0.80208	0.047917	-0.40833	-0.61667	0.10208	-0.87083	-0.1	0.029167	-0.88542	0.060417	-0.41667	-0.675	0.24375	-0.79375	109.067	189.438	265.785	289.071	295.581	342.475	317.443	330.838	63.631	277.363	273.711	76.266	247.217	328.700	341.431	259.602	0.0006564	0.00019341	0.00025801	495.44	1.2177e-05	6.2276e-06	666.62	168.71	7.7384e-06	4.7692e-06	304.61	130.52	67.538	35.179	4.6339e-06	72.724	0.0073343	0.0071941	0.0019029	797.45	8.3886e-05	7.8673e-05	951.07	253.71	8.277e-05	7.7127e-05	431.38	183.32	126.4	50.089	7.4548e-05	97.043	61.054	142.387	45.148	1.087	-6.137	97.684	1.421	7.359	38.363	255.477	6.833	11.672	11.970	16.164	155.766	15.855	-8191	255	
8210.405	1	1	0	0	0.22181	0.32382	0.37926	0.16682	0.21711	0.27007	0.25012	0.24294	0.043495	0.24067	0.064817	0.18734	0.23979	0.12564	0.16996	0.10903	-0.027083	-0.0875	-0.65208	0.1125	-0.4	-0.61667	0.039583	-0.48958	-0.2125	0.01875	-0.7625	-0.09375	-0.16042	-0.78333	0.225	-0.75208	244.444	325.904	104.571	29.754	78.470	116.845	331.901	-4.720	152.843	35.361	269.253	325.611	84.145	31.720	27.211	19.270	0.00027605	0.0016006	0.00041918	497.41	8.8572e-06	1.5627e-05	663.74	169.69	5.5625e-06	7.2704e-06	301.82	130.46	67.208	34.952	1.4453e-05	72.493	0.0071859	0.0071404	0.0019579	814.76	8.2718e-05	7.869e-05	961.8	257.92	8.2095e-05	7.7289e-05	435.19	184.43	124.41	49.658	7.7904e-05	96.665	71.519	6.392	188.476	1.404	65.937	-3.728	1.867	7.055	164.748	74.159	6.682	11.500	12.373	15.995	135.819	15.308	-8191	255	
#DATA ENDS
