BOXY.EXE: ISS Imagent and Oximeter Data Acquisition Program Version 0.80
Ascii Record File

#ACQ INFORMATION
2  Detector Channels 
16  External MUX Channels 
1  Auxiliary Channels 
5000  Waveform (CCF) Frequency (Hz)
1  Waveforms Skipped 
30  Waveforms Averaged 
1  Cycles Averaged 
16  Acquisitions per Waveform 
10.0806  Updata Rate (Hz) 

#FILE INFORMATION
TRUE -- External MUX Channel results are PARSED.
FALSE -- AC DC and Phase are NOT grouped.
TRUE -- Companion Program Settings File CREATED.
FALSE -- AC data not excluded
FALSE -- DC data not excluded
FALSE -- Phase data not excluded
FALSE -- Auxillary Chn. data not excluded
Tab delimiters

#CALIBRATION STATE
TRUE -- Waveform Calibration Values APPLIED.


#AUX CALIBRATION VALUES
Val Type	aux-1	

Term	1.0000e+00	
Factor	0.0000e+00	


#WF CALIBRATION VALUES
A = Detector Channel
Val Type	A-AC1	A-AC2	A-AC3	A-AC4	A-AC5	A-AC6	A-AC7	A-AC8	A-AC9	A-AC10	A-AC11	A-AC12	A-AC13	A-AC14	A-AC15	A-AC16	A-DC1	A-DC2	A-DC3	A-DC4	A-DC5	A-DC6	A-DC7	A-DC8	A-DC9	A-DC10	A-DC11	A-DC12	A-DC13	A-DC14	A-DC15	A-DC16	A-Ph1	A-Ph2	A-Ph3	A-Ph4	A-Ph5	A-Ph6	A-Ph7	A-Ph8	A-Ph9	A-Ph10	A-Ph11	A-Ph12	A-Ph13	A-Ph14	A-Ph15	A-Ph16	

Term	0.00000e+00	0.00000e+00	0.00000e+00	0.00000e+00	0.00000e+00	0.00000e+00	0.00000e+00	0.00000e+00	0.00000e+00	0.00000e+00	0.00000e+00	0.00000e+00	0.00000e+00	0.00000e+00	0.00000e+00	0.00000e+00	0.00000e+00	0.00000e+00	0.00000e+00	0.00000e+00	0.00000e+00	0.00000e+00	0.00000e+00	0.00000e+00	0.00000e+00	0.00000e+00	0.00000e+00	0.00000e+00	0.00000e+00	0.00000e+00	0.00000e+00	0.00000e+00	0.00000e+00	0.00000e+00	0.00000e+00	0.00000e+00	0.00000e+00	0.00000e+00	0.00000e+00	0.00000e+00	0.00000e+00	0.00000e+00	0.00000e+00	0.00000e+00	0.00000e+00	0.00000e+00	0.00000e+00	0.00000e+00	
Factor	1.00000e+00	1.00000e+00	1.00000e+00	1.00000e+00	1.00000e+00	1.00000e+00	1.00000e+00	1.00000e+00	1.00000e+00	1.00000e+00	1.00000e+00	1.00000e+00	1.00000e+00	1.00000e+00	1.00000e+00	1.00000e+00	1.00000e+00	1.00000e+00	1.00000e+00	1.00000e+00	1.00000e+00	1.00000e+00	1.00000e+00	1.00000e+00	1.00000e+00	1.00000e+00	1.00000e+00	1.00000e+00	1.00000e+00	1.00000e+00	1.00000e+00	1.00000e+00	X	X	X	X	X	X	X	X	X	X	X	X	X	X	X	X	

B = Detector Channel
Val Type	B-AC1	B-AC2	B-AC3	B-AC4	B-AC5	B-AC6	B-AC7	B-AC8	B-AC9	B-AC10	B-AC11	B-AC12	B-AC13	B-AC14	B-AC15	B-AC16	B-DC1	B-DC2	B-DC3	B-DC4	B-DC5	B-DC6	B-DC7	B-DC8	B-DC9	B-DC10	B-DC11	B-DC12	B-DC13	B-DC14	B-DC15	B-DC16	B-Ph1	B-Ph2	B-Ph3	B-Ph4	B-Ph5	B-Ph6	B-Ph7	B-Ph8	B-Ph9	B-Ph10	B-Ph11	B-Ph12	B-Ph13	B-Ph14	B-Ph15	B-Ph16	

Term	0.00000e+00	0.00000e+00	0.00000e+00	0.00000e+00	0.00000e+00	0.00000e+00	0.00000e+00	0.00000e+00	0.00000e+00	0.00000e+00	0.00000e+00	0.00000e+00	0.00000e+00	0.00000e+00	0.00000e+00	0.00000e+00	0.00000e+00	0.00000e+00	0.00000e+00	0.00000e+00	0.00000e+00	0.00000e+00	0.00000e+00	0.00000e+00	0.00000e+00	0.00000e+00	0.00000e+00	0.00000e+00	0.00000e+00	0.00000e+00	0.00000e+00	0.00000e+00	2.70886e+01	-1.47570e+02	-1.59823e+02	-1.87769e+02	-7.16749e+01	-1.02766e+02	-1.57019e+02	-1.62015e+02	-1.01898e+02	-8.89711e+01	-1.73571e+02	-1.72116e+02	-1.82981e+02	-1.77625e+02	-1.07765e+02	-1.50887e+02	
Factor	4.90076e-05	9.02078e-05	2.72429e-05	5.41330e-01	1.00772e-06	1.22008e-06	1.72070e-01	5.71424e-02	1.21130e-06	1.00603e-06	1.10401e-01	3.27385e-02	3.12637e-02	9.63839e-03	1.14382e-06	1.41262e-02	4.51512e-07	4.55847e-07	1.26572e-07	2.20301e-01	4.97833e-09	4.98109e-09	7.62968e-02	2.65919e-02	4.98129e-09	4.97910e-09	4.73171e-02	1.42145e-02	1.38173e-02	4.35854e-03	4.97014e-09	6.06963e-03	X	X	X	X	X	X	X	X	X	X	X	X	X	X	X	X	



#DISTANCE SETTINGS
A = Detector Channel
A-1	A-2	A-3	A-4	A-5	A-6	A-7	A-8	A-9	A-10	A-11	A-12	A-13	A-14	A-15	A-16	

2.5000e+00	3.0000e+00	2.5000e+00	3.0000e+00	2.0000e+00	3.0000e+00	1.5000e+00	3.0000e+00	3.0000e+00	3.0000e+00	3.0000e+00	3.0000e+00	3.0000e+00	3.0000e+00	1.5000e+00	3.0000e+00	

B = Detector Channel
B-1	B-2	B-3	B-4	B-5	B-6	B-7	B-8	B-9	B-10	B-11	B-12	B-13	B-14	B-15	B-16	

1.0000e+01	1.0000e+01	1.0000e+01	1.4400e+00	1.0000e+01	1.0000e+01	1.5100e+00	1.9400e+00	1.0000e+01	1.0000e+01	1.9900e+00	2.4900e+00	2.4100e+00	2.9000e+00	1.0000e+01	2.9800e+00	




#DATA BEGINS
time	group	step	mark	flag	A-AC1	A-AC2	A-AC3	A-AC4	A-AC5	A-AC6	A-AC7	A-AC8	A-AC9	A-AC10	A-AC11	A-AC12	A-AC13	A-AC14	A-AC15	A-AC16	A-DC1	A-DC2	A-DC3	A-DC4	A-DC5	A-DC6	A-DC7	A-DC8	A-DC9	A-DC10	A-DC11	A-DC12	A-DC13	A-DC14	A-DC15	A-DC16	A-Ph1	A-Ph2	A-Ph3	A-Ph4	A-Ph5	A-Ph6	A-Ph7	A-Ph8	A-Ph9	A-Ph10	A-Ph11	A-Ph12	A-Ph13	A-Ph14	A-Ph15	A-Ph16	B-AC1	B-AC2	B-AC3	B-AC4	B-AC5	B-AC6	B-AC7	B-AC8	B-AC9	B-AC10	B-AC11	B-AC12	B-AC13	B-AC14	B-AC15	B-AC16	B-DC1	B-DC2	B-DC3	B-DC4	B-DC5	B-DC6	B-DC7	B-DC8	B-DC9	B-DC10	B-DC11	B-DC12	B-DC13	B-DC14	B-DC15	B-DC16	B-Ph1	B-Ph2	B-Ph3	B-Ph4	B-Ph5	B-Ph6	B-Ph7	B-Ph8	B-Ph9	B-Ph10	B-Ph11	B-Ph12	B-Ph13	B-Ph14	B-Ph15	B-Ph16	aux-1	digaux	

941.386	1	1	0	256	0.099331	0.24421	0.26724	0.15841	0.12615	0.14071	0.19383	0.11819	0.35281	0.19073	0.17392	0.22	0.15941	0.17803	0.29297	0.22206	-1.8771	-2.5208	-2.4146	-2.4146	-2.5625	-2.3083	-2.5458	-2.3708	-2.3833	-2.6688	-2.4354	-2.475	-2.6458	-2.3	-2.5812	-2.3979	256.029	313.328	168.556	340.994	140.255	217.357	328.494	433.146	342.413	421.319	226.830	245.897	115.355	424.536	435.606	400.344	0.00097254	0.00036014	5.1331e-05	514.32	1.4718e-06	2.2816e-06	705.72	181.51	2.4732e-06	1.8937e-06	302.39	115.83	68.285	22.521	4.6124e-06	44.595	4.5554e-05	3.8684e-05	1.0774e-05	425.25	4.2303e-07	4.1708e-07	654.69	165.23	4.3473e-07	4.2313e-07	263.07	101.87	59.199	20.143	4.2056e-07	38.781	327.241	144.421	190.061	91.682	303.615	192.515	91.279	95.384	197.895	219.239	94.091	98.086	98.657	103.007	241.387	101.011	-8191	255	
941.482	1	1	0	0	0.1386	0.15325	0.13376	0.055204	0.050182	0.0052843	0.20383	0.1781	0.1709	0.27158	0.23935	0.17593	0.11243	0.38655	0.032725	0.26584	-1.75	-2.5	-2.3083	-2.5792	-2.5083	-2.2292	-2.4292	-2.4333	-2.1271	-2.6167	-2.3667	-2.3646	-2.6771	-2.3667	-2.4875	-2.6312	334.306	434.833	148.848	130.032	92.932	413.533	347.819	405.376	355.864	193.239	379.611	416.693	294.522	368.428	353.780	414.323	0.0010597	0.00020721	8.8923e-05	519.33	1.492e-06	2.7362e-06	705.93	180.67	3.8172e-06	6.0634e-07	303.19	115.87	68.353	22.722	4.0385e-06	44.678	4.4895e-05	3.7809e-05	1.0436e-05	426.78	4.0871e-07	4.0797e-07	653.52	164.79	4.2019e-07	4.1414e-07	262.57	101.81	59.019	20.177	4.3054e-07	38.817	325.546	152.290	143.132	91.787	256.260	181.653	91.134	95.746	195.976	162.483	93.852	97.894	98.630	103.430	170.818	101.240	-8191	255	
941.578	1	1	0	0	0.080976	0.074909	0.17618	0.037667	0.30818	0.15132	0.046636	0.18002	0.27257	0.13475	0.12381	0.10892	0.13531	0.03999	0.3251	0.13069	-1.8458	-2.4479	-2.1917	-2.2625	-2.6229	-2.4979	-2.5021	-2.65	-2.3521	-2.6021	-2.4729	-2.1979	-2.5375	-2.35	-2.5229	-2.6229	83.326	145.868	379.984	238.112	98.186	194.325	377.671	433.843	251.704	387.137	387.775	318.160	137.477	141.720	360.432	378.193	0.0010715	7.662e-05	5.1056e-05	519.27	1.4771e-06	3.341e-06	708.35	180.96	3.7252e-06	3.6888e-06	301.27	114.94	67.687	22.392	5.0377e-06	44.823	4.5482e-05	3.8353e-05	1.0795e-05	427.03	4.1223e-07	4.1185e-07	653.33	164.61	4.1297e-07	4.1028e-07	262.27	101.5	58.808	20.084	4.1471e-07	38.868	326.383	151.527	146.920	91.486	246.262	210.014	91.095	95.645	184.724	257.622	94.152	98.021	99.056	103.437	180.429	101.187	-8191	255	
941.674	1	1	0	0	0.13604	0.10909	0.1954	0.17904	0.11181	0.16434	0.24358	0.23322	0.21689	0.060666	0.15546	0.23077	0.16776	0.45596	0.074135	0.055276	-1.9	-2.4375	-2.3688	-2.2979	-2.5917	-2.5896	-2.3917	-2.5875	-2.45	-2.5896	-2.7333	-2.3812	-2.4375	-2.4917	-2.5479	-2.6437	155.595	319.701	92.598	388.973	81.751	248.446	77.883	286.631	81.939	338.407	417.269	259.764	357.584	139.092	236.291	376.932	0.0010309	0.0002288	7.4344e-05	517.37	5.1801e-07	2.3249e-06	711.65	181.78	3.3747e-06	2.5479e-06	302.04	115.97	68.085	22.626	2.8364e-06	44.138	4.3693e-05	3.8227e-05	1.0846e-05	427.16	4.2054e-07	4.1825e-07	657.11	165.8	4.1738e-07	4.1411e-07	262.62	101.39	58.954	20.079	4.1209e-07	38.463	323.029	140.046	156.434	91.667	104.059	197.839	91.301	95.402	162.609	177.344	94.001	97.636	98.694	103.293	199.697	101.346	-8191	255	
941.795	1	1	0	0	0.030832	0.10745	0.061519	0.067577	0.21173	0.16642	0.16941	0.20993	0.085544	0.23638	0.12245	0.34158	0.25243	0.14575	0.37121	0.21295	-2.0062	-2.5208	-2.4396	-2.3563	-2.5625	-2.3833	-2.3146	-2.7521	-2.3312	-2.3937	-2.4437	-2.1604	-2.7	-2.4208	-2.1917	-2.7313	201.265	349.342	355.131	157.321	151.821	176.582	223.313	316.865	82.351	245.817	283.948	424.974	137.699	181.620	344.145	313.707	0.0011327	0.00014003	5.0658e-05	512.24	1.6601e-06	4.0645e-06	703.76	180.63	3.7861e-06	1.4344e-06	302.09	115.41	68.016	22.42	1.9377e-06	44.409	4.3917e-05	3.7346e-05	1.0463e-05	424.34	4.0669e-07	4.1172e-07	652.28	164.91	4.2379e-07	4.1281e-07	261.58	101.26	58.814	20	4.2445e-07	38.67	320.771	151.268	171.979	91.344	278.443	199.551	91.102	95.580	210.344	200.643	94.212	97.720	98.982	103.260	144.795	101.448	-8191	255	
941.891	1	1	0	0	0.27741	0.26603	0.0080535	0.30316	0.14868	0.1708	0.34417	0.25489	0.21862	0.41803	0.24547	0.32845	0.24623	0.13355	0.13751	0.10499	-1.9312	-2.4167	-2.4354	-2.2146	-2.5125	-2.5333	-2.4271	-2.7667	-2.2458	-2.4646	-2.5917	-2.3583	-2.6188	-2.5958	-2.4042	-2.8875	431.851	314.683	184.519	172.782	417.041	116.104	414.098	338.843	378.360	198.154	395.876	436.523	389.097	143.776	245.270	206.967	0.0010106	0.00031505	6.3557e-05	511.38	1.5511e-06	1.9027e-06	699.71	178.15	3.1977e-06	2.2891e-06	298.18	115.01	67.339	22.644	2.5383e-06	44.547	4.5137e-05	3.7792e-05	1.0492e-05	421.77	4.1779e-07	4.0102e-07	647.17	162.28	4.1427e-07	4.0961e-07	259.38	100.71	58.123	20.067	4.1461e-07	38.757	322.713	168.963	170.362	91.568	89.718	214.535	91.273	95.426	194.105	226.334	94.083	97.904	98.875	103.407	195.811	101.048	-8191	255	
941.987	1	1	0	0	0.090219	0.083484	0.21828	0.1067	0.19253	0.18742	0.09756	0.10965	0.095914	0.20173	0.13638	0.14453	0.1006	0.27008	0.097239	0.057507	-1.9438	-2.3063	-2.4708	-2.2667	-2.4958	-2.6458	-2.2875	-2.6083	-2.3917	-2.5229	-2.6312	-2.2708	-2.5625	-2.5979	-2.2771	-2.5667	333.086	321.513	230.660	278.970	148.502	430.738	143.868	363.510	155.716	171.204	154.566	351.268	261.310	364.576	194.861	253.166	0.0010617	0.00015787	4.7314e-05	517.11	2.4009e-06	1.5461e-06	710.69	180.09	4.0767e-06	3.4034e-06	301.02	114.88	67.678	22.559	2.2699e-06	44.732	4.4265e-05	3.8361e-05	1.074e-05	424.58	4.1511e-07	4.214e-07	654.33	164.26	4.1858e-07	4.1619e-07	261.19	100.93	58.656	20.071	4.1479e-07	38.7	324.389	121.502	150.146	91.792	252.020	160.890	91.324	95.327	222.275	181.483	93.891	97.844	98.687	103.241	145.285	101.549	-8191	255	
942.083	1	1	0	0	0.25493	0.11689	0.16815	0.31425	0.083732	0.22095	0.14933	0.13129	0.11348	0.28491	0.07107	0.24876	0.010958	0.04903	0.12673	0.18149	-2.0875	-2.2167	-2.5271	-2.3542	-2.6	-2.6312	-2.4146	-2.5917	-2.4458	-2.2979	-2.7	-2.4833	-2.4333	-2.525	-2.2938	-2.5979	267.176	279.549	398.395	93.559	300.664	321.356	378.226	129.422	380.390	415.568	339.386	393.446	424.889	177.309	282.843	283.341	0.00096667	0.00012587	5.7784e-05	517.88	1.1217e-06	2.6197e-06	709.49	182.27	3.6065e-06	2.6361e-06	303.1	116.69	67.729	22.69	3.6608e-06	44.584	4.4655e-05	3.8248e-05	1.0455e-05	428.43	4.2023e-07	4.2442e-07	656.63	166.61	4.3026e-07	4.2627e-07	262.81	101.86	59.151	20.167	4.1358e-07	38.623	325.235	191.453	164.910	90.900	279.504	207.865	91.088	95.512	212.593	157.906	93.845	97.706	98.694	103.109	166.577	101.356	-8191	255	
942.155	1	1	0	0	0.14229	0.10516	0.070915	0.24335	0.19797	0.12652	0.15687	0.18565	0.22896	0.23119	0.18495	0.16661	0.26896	0.46777	0.097957	0.3694	-2.2042	-2.3271	-2.5417	-2.2958	-2.325	-2.7292	-2.4688	-2.4	-2.4688	-2.1958	-2.6708	-2.3812	-2.2938	-2.5875	-2.2667	-2.4708	78.366	215.553	433.424	208.050	353.679	329.625	214.198	92.503	255.023	300.440	100.611	436.832	158.320	413.586	277.466	317.467	0.0010409	0.00012644	2.3809e-05	518.24	3.2435e-06	2.829e-06	706.35	181.26	4.6199e-06	1.1e-06	303.04	115.35	68.02	22.628	5.5481e-06	44.524	4.4165e-05	3.825e-05	1.0426e-05	427.6	4.1337e-07	4.1249e-07	654.57	165.74	4.2932e-07	4.1898e-07	262.55	101.58	59.041	20.126	4.2301e-07	38.649	322.972	437.102	428.158	91.017	201.598	234.217	91.113	95.306	157.176	218.293	93.747	97.750	98.817	103.169	194.023	101.689	-8191	255	
942.276	1	1	0	0	0.14386	0.16034	0.080758	0.17684	0.1084	0.15359	0.26344	0.11319	0.23934	0.25557	0.071118	0.31594	0.21083	0.033428	0.18357	0.18588	-2.0146	-2.4479	-2.6562	-2.3729	-2.3688	-2.6104	-2.4604	-2.4104	-2.6167	-2.3958	-2.6833	-2.4646	-2.5167	-2.8625	-2.3896	-2.7146	199.934	414.394	273.641	426.021	97.155	321.546	85.722	205.816	433.592	154.840	79.858	411.065	136.481	367.231	96.761	94.846	0.0010605	0.00013314	5.5619e-05	516.81	2.8808e-06	3.1092e-06	706.84	180.52	5.4303e-06	3.18e-06	302.09	114.85	68.038	22.691	4.7365e-06	44.984	4.4962e-05	3.8276e-05	1.0282e-05	426.52	4.082e-07	4.1048e-07	651.05	164.47	4.2074e-07	4.1029e-07	261.71	101.35	58.885	20.201	4.2996e-07	38.913	326.670	152.384	130.149	91.338	303.018	195.079	91.045	95.306	175.045	185.998	94.062	97.750	98.769	103.170	190.138	101.033	-8191	255	
942.370	1	1	0	0	0.19705	0.22674	0.26339	0.17738	0.28892	0.094985	0.11036	0.1968	0.11001	0.15519	0.1339	0.088596	0.21391	0.25818	0.1472	0.052572	-2.0604	-2.2917	-2.3688	-2.4688	-2.1813	-2.5771	-2.3646	-2.4062	-2.5583	-2.2146	-2.6958	-2.3312	-2.1875	-2.5854	-2.4604	-2.2896	122.503	241.537	422.695	183.837	262.293	150.811	347.399	397.377	354.189	118.600	377.580	219.859	314.750	387.523	108.646	358.298	0.0009539	0.00022402	7.7782e-05	517.71	3.0767e-06	2.4185e-06	708.89	180.96	1.6161e-06	4.4164e-06	301.62	115.17	67.627	22.353	1.7242e-06	44.132	4.5694e-05	3.8249e-05	1.0637e-05	429.3	4.263e-07	4.2089e-07	653.8	165.2	4.2665e-07	4.1594e-07	261.37	100.92	58.657	20.014	4.2282e-07	38.438	326.321	145.534	114.929	90.843	192.294	169.594	91.026	95.623	192.787	213.535	94.002	97.669	98.988	103.272	227.095	101.184	-8191	255	
942.466	1	1	0	0	0.138	0.14139	0.1098	0.22702	0.092054	0.11365	0.27919	0.10583	0.3241	0.052063	0.15761	0.055786	0.12218	0.17188	0.24964	0.26785	-2.0146	-2.3417	-2.3688	-2.5042	-2.4042	-2.6354	-2.3708	-2.4896	-2.6	-2.3354	-2.5479	-2.525	-2.1958	-2.5021	-2.5187	-2.275	188.979	173.846	79.196	152.572	422.034	411.511	400.378	397.472	357.046	175.849	419.029	239.883	429.427	83.122	249.446	395.616	0.001017	0.00011546	7.0467e-05	511.33	2.5706e-06	1.8088e-06	705.98	180.31	3.8495e-06	1.9563e-06	301.53	114.72	67.758	22.492	2.9381e-06	44.45	4.4589e-05	3.7907e-05	1.0781e-05	425.81	4.2672e-07	4.1306e-07	651.29	164.54	4.2695e-07	4.3372e-07	260.87	100.92	58.465	20.048	4.2427e-07	38.6	323.581	108.431	122.089	90.810	269.422	218.614	91.024	95.424	214.666	230.464	94.303	97.657	98.485	103.374	180.655	101.600	-8191	255	
942.564	1	1	0	0	0.03042	0.15014	0.18099	0.15845	0.25206	0.0096868	0.22583	0.080118	0.224	0.052803	0.20275	0.26029	0.063368	0.080317	0.25308	0.036371	-2.2646	-2.2438	-2.3667	-2.4938	-2.3146	-2.5187	-2.4771	-2.1437	-2.6833	-2.3104	-2.4646	-2.5354	-2.2292	-2.5792	-2.5	-2.5646	114.758	434.406	414.763	157.476	425.874	167.376	101.451	254.597	376.595	88.272	325.060	413.919	168.582	407.541	244.395	262.388	0.00096039	0.00024631	0.00010263	511.12	2.2112e-06	1.8772e-06	705.18	180.41	1.4792e-06	3.0951e-06	301.84	115.47	67.841	22.565	2.0149e-06	44.617	4.4902e-05	3.8048e-05	1.0607e-05	423	4.2436e-07	4.1643e-07	650.97	164.56	4.1878e-07	4.1707e-07	261.81	101.29	58.766	20.145	4.319e-07	38.691	323.407	176.747	114.554	91.811	207.198	166.251	91.187	95.672	150.777	164.049	93.866	97.802	98.719	102.974	160.437	101.382	-8191	255	
942.683	1	1	0	0	0.18461	0.27239	0.17397	0.059875	0.15928	0.21931	0.25565	0.20533	0.14556	0.072084	0.36873	0.22609	0.30532	0.080037	0.14985	0.088806	-2.3125	-2.35	-2.4271	-2.5958	-2.3958	-2.4917	-2.5333	-2.2	-2.5438	-2.4167	-2.4917	-2.7917	-2.2958	-2.6437	-2.4771	-2.1958	428.316	308.344	250.872	77.702	411.384	123.317	398.509	397.976	375.817	149.546	352.497	356.844	344.452	416.638	281.349	375.726	0.0009873	0.00030911	7.6182e-05	516.51	3.4826e-06	2.0072e-06	706.83	180.36	1.9841e-06	2.7116e-06	298.2	114.68	67.323	22.542	1.4844e-06	44.452	4.5438e-05	3.8635e-05	1.0724e-05	427.56	4.2499e-07	4.1347e-07	653.2	164.51	4.1878e-07	4.1176e-07	260.03	100.81	58.424	20.088	4.0855e-07	38.552	320.282	165.417	132.741	91.613	197.948	246.999	91.325	95.550	209.087	164.156	94.053	97.722	98.752	102.948	231.774	101.318	-8191	255	
942.779	1	1	0	0	0.13495	0.32305	0.042887	0.14391	0.36379	0.35158	0.35758	0.19537	0.11318	0.03062	0.067612	0.14231	0.16509	0.11163	0.28681	0.083838	-2.1333	-2.4667	-2.3542	-2.475	-2.3688	-2.5104	-2.5104	-2.0854	-2.4771	-2.575	-2.3563	-2.9437	-2.3083	-2.4417	-2.6583	-2.3354	354.560	129.614	281.780	109.026	93.196	377.188	390.035	368.077	355.388	304.980	356.794	150.619	110.753	361.556	151.225	130.514	0.0010113	7.4043e-05	6.2628e-05	512.79	1.3737e-06	2.3354e-06	701.75	180.25	2.0205e-06	3.387e-06	297.72	114.82	67.517	22.485	3.0002e-06	44.372	4.5182e-05	3.7521e-05	1.0514e-05	425.01	4.2199e-07	4.1809e-07	650.65	164.55	4.206e-07	4.2427e-07	259.99	100.72	58.374	20.062	4.1985e-07	38.571	325.350	131.436	112.752	91.233	189.296	190.742	91.357	95.688	176.877	217.553	94.208	97.692	98.699	103.255	224.749	101.501	-8191	255	
942.875	1	1	0	0	0.19317	0.32512	0.19748	0.16596	0.18711	0.18855	0.10031	0.35457	0.19955	0.25871	0.097584	0.23262	0.33673	0.2372	0.099225	0.23467	-2.2583	-2.2896	-2.4188	-2.75	-2.3375	-2.4042	-2.7729	-2.4875	-2.4771	-2.4896	-2.3083	-2.6792	-2.4042	-2.4604	-2.5438	-2.2729	143.890	350.989	333.934	361.236	166.100	434.298	82.837	395.585	235.440	167.555	335.584	125.746	415.730	409.260	242.759	389.709	0.0010195	5.2332e-05	1.3125e-05	514.69	3.1462e-06	3.1035e-06	701.38	179.65	3.6231e-06	2.8344e-06	301.73	115.3	67.69	22.51	1.6681e-06	44.743	4.4885e-05	3.8272e-05	1.0537e-05	425.68	4.1788e-07	4.2453e-07	650.92	163.88	4.2738e-07	4.2328e-07	260.84	101.12	58.726	20.124	4.2702e-07	38.66	327.369	163.277	131.050	91.459	231.528	196.393	90.999	95.607	217.871	192.047	94.161	97.665	98.881	103.689	187.136	101.308	-8191	255	
942.972	1	1	0	0	0.16046	0.31123	0.21954	0.20207	0.19243	0.085292	0.20529	0.06183	0.082256	0.052791	0.10623	0.35263	0.2544	0.30618	0.007452	0.34063	-1.9604	-2.5104	-2.2167	-2.7146	-2.3625	-2.3021	-2.7604	-2.2854	-2.6813	-2.6437	-2.3104	-2.5854	-2.2375	-2.4437	-2.5979	-2.5	141.928	155.997	201.502	250.656	116.789	229.918	95.058	321.296	136.794	113.276	142.279	372.609	420.384	112.015	409.865	91.399	0.0010652	0.00011106	2.8541e-05	512.53	1.4386e-06	2.1905e-06	705.95	180.44	2.8229e-06	1.8278e-06	299.92	115.66	67.128	22.72	4.5591e-06	44.817	4.5241e-05	3.8492e-05	1.0687e-05	424.82	4.1547e-07	4.0712e-07	651.97	164.43	4.2077e-07	4.078e-07	260.41	101.22	58.554	20.225	4.2076e-07	38.749	322.178	154.626	115.019	91.077	199.651	195.614	91.040	95.923	209.234	182.489	94.216	97.632	99.305	103.261	204.047	101.500	-8191	255	
943.068	1	1	0	0	0.15274	0.051839	0.25234	0.18754	0.10463	0.14882	0.095395	0.21589	0.25974	0.26447	0.29293	0.12958	0.10848	0.13483	0.24768	0.036627	-2.0708	-2.6208	-2.3729	-2.6271	-2.3833	-2.4292	-2.6708	-2.3708	-2.4813	-2.6917	-2.2812	-2.5	-2.5167	-2.3583	-2.6083	-2.4562	402.359	430.071	346.558	382.240	223.179	187.638	88.729	366.116	141.092	200.832	279.029	337.118	375.229	216.317	97.254	365.139	0.0010362	0.00022189	7.2716e-05	518.91	5.5569e-06	4.4767e-06	704.14	179.57	3.1549e-06	9.7429e-07	298.75	114.8	67.835	22.374	3.2377e-06	44.474	4.4687e-05	3.7714e-05	1.0484e-05	426.95	4.2578e-07	4.2381e-07	650.92	164	4.237e-07	4.0998e-07	259.24	100.54	58.452	20.043	4.1659e-07	38.541	318.035	129.665	138.641	91.325	211.978	171.790	91.123	95.666	199.561	120.421	94.242	97.719	98.924	103.379	155.413	101.310	-8191	255	
943.164	1	1	0	0	0.059148	0.066821	0.15608	0.046994	0.2209	0.14828	0.31118	0.19063	0.3918	0.1112	0.22731	0.22049	0.15866	0.30178	0.28085	0.057259	-1.9354	-2.6396	-2.4604	-2.5167	-2.525	-2.2958	-2.6958	-2.5083	-2.3312	-2.7417	-2.5125	-2.6437	-2.5458	-2.2583	-2.5375	-2.6125	134.974	332.349	273.619	286.133	224.884	237.743	398.259	367.587	403.773	371.262	81.279	90.128	388.688	78.405	216.931	260.837	0.001044	0.00025891	5.4531e-05	512.11	3.3443e-06	3.4305e-06	703.84	179.43	2.3383e-06	1.8093e-06	299.96	114.84	67.257	22.498	3.6073e-06	44.624	4.4807e-05	3.8172e-05	1.0611e-05	423.2	4.131e-07	4.1737e-07	649.28	163.71	4.2715e-07	4.1988e-07	260.29	100.83	58.335	20.041	4.1822e-07	38.538	317.573	119.902	178.524	91.211	252.421	162.476	91.008	95.277	207.806	209.800	93.826	97.854	98.942	103.037	213.493	101.379	-8191	255	
943.284	1	1	0	0	0.070858	0.13656	0.15901	0.083955	0.081611	0.12766	0.2531	0.29435	0.19035	0.088168	0.13959	0.066106	0.073255	0.09188	0.14024	0.28048	-1.9167	-2.4896	-2.2812	-2.3896	-2.4375	-2.3167	-2.75	-2.2708	-2.0958	-2.6375	-2.3479	-2.5104	-2.3542	-2.2375	-2.5938	-2.725	124.513	192.395	82.602	429.211	432.073	344.740	134.128	153.692	387.921	272.588	102.231	176.626	400.093	155.747	430.997	229.433	0.000996	0.00020357	4.8364e-05	513.4	3.771e-06	1.4217e-06	704.81	179.08	2.2723e-06	1.548e-06	299.88	114.42	67.005	22.549	1.3682e-06	44.867	4.4205e-05	3.8019e-05	1.0537e-05	425.09	4.1303e-07	4.1003e-07	649.74	163.62	4.1436e-07	4.1235e-07	259.86	100.72	58.225	20.072	4.1575e-07	38.764	321.804	141.777	150.178	91.948	228.261	178.921	90.991	95.718	136.581	228.826	94.057	97.756	98.836	103.166	139.071	101.395	-8191	255	
943.379	1	1	0	0	0.25379	0.049741	0.16094	0.21063	0.1097	0.10868	0.062592	0.32162	0.01774	0.15404	0.27896	0.063361	0.2438	0.12796	0.075224	0.05586	-1.9312	-2.5833	-2.3583	-2.3854	-2.525	-2.2167	-2.7313	-2.6125	-2.1917	-2.5187	-2.2417	-2.4292	-2.4771	-2.1667	-2.6375	-2.5563	226.258	92.385	185.077	124.970	409.313	423.955	184.628	151.126	366.560	392.568	388.132	186.801	211.114	81.879	376.139	147.302	0.0011273	0.00019846	7.1777e-05	511.8	2.7754e-06	3.4568e-06	700.43	178.86	2.4542e-06	1.7227e-06	301.45	114.41	67.204	22.472	3.2693e-06	44.292	4.5818e-05	3.8738e-05	1.0757e-05	424.06	4.1449e-07	4.2214e-07	649.61	163.24	4.2205e-07	4.0812e-07	260.01	100.35	58.274	20.056	4.1259e-07	38.426	317.082	151.491	110.893	91.159	234.928	167.833	91.037	95.478	178.844	215.775	94.005	97.518	98.764	103.225	209.609	101.131	-8191	255	
943.451	1	1	0	0	0.29696	0.080327	0.26123	0.26878	0.17305	0.19164	0.268	0.23637	0.2075	0.069585	0.093545	0.063546	0.2007	0.29167	0.050651	0.17473	-1.8125	-2.4583	-2.5333	-2.3146	-2.7458	-2.4375	-2.4729	-2.7583	-2.3521	-2.6229	-2.4229	-2.5812	-2.725	-2.425	-2.5208	-2.6312	183.366	428.243	401.194	137.802	417.038	261.283	343.648	425.695	138.278	170.885	419.894	386.335	403.898	426.632	178.578	396.775	0.0010182	0.00023331	5.0661e-05	510.6	1.0214e-06	2.3785e-06	704.07	178.83	4.6467e-06	1.4416e-06	298.21	114.25	67.003	22.457	3.0336e-06	44.195	4.514e-05	3.7802e-05	1.049e-05	424.05	4.1902e-07	4.21e-07	648.37	163.4	4.2123e-07	4.1339e-07	258.38	100.33	58.12	19.997	4.1623e-07	38.388	322.892	136.787	100.347	91.003	104.614	187.267	91.143	95.605	196.575	177.858	94.089	97.710	99.001	102.946	145.608	101.179	-8191	255	
943.571	1	1	0	0	0.3083	0.082861	0.1312	0.31598	0.15463	0.052643	0.14678	0.16638	0.12398	0.19472	0.20245	0.23831	0.28238	0.12914	0.18964	0.22209	-1.7708	-2.5312	-2.4	-2.4042	-2.6583	-2.325	-2.4604	-2.7292	-2.4208	-2.625	-2.4604	-2.4167	-2.5625	-2.3979	-2.3583	-2.7229	364.216	304.476	389.485	436.831	89.599	176.018	413.258	155.288	327.014	272.682	113.545	432.284	90.822	400.095	93.185	397.064	0.00107	0.00023362	0.0001148	512.8	2.8768e-06	4.7163e-06	700.71	178.94	7.9373e-07	5.6416e-07	297.48	114.07	67.36	22.435	1.9819e-06	44.202	4.5002e-05	3.7661e-05	1.0765e-05	423.3	4.1118e-07	4.1633e-07	648.86	163.56	4.1631e-07	4.1855e-07	258.76	100.47	58.357	20.062	4.1888e-07	38.54	324.503	127.922	126.461	91.384	260.788	185.893	90.960	95.419	174.066	319.492	94.356	97.692	98.722	103.273	173.270	101.418	-8191	255	
943.667	1	1	0	0	0.19751	0.17985	0.13362	0.12996	0.3601	0.20078	0.15473	0.37853	0.097037	0.35454	0.090624	0.21203	0.11075	0.072889	0.092334	0.25134	-1.6896	-2.525	-2.6146	-2.1312	-2.6958	-2.3833	-2.4833	-2.7625	-2.3833	-2.5042	-2.5604	-2.3458	-2.5896	-2.3875	-2.475	-2.6396	244.257	180.115	261.000	389.416	111.486	278.319	304.989	428.001	395.349	82.749	166.343	88.977	290.921	377.395	264.226	414.416	0.00096713	0.00014857	5.3467e-05	506.59	9.2638e-07	3.1508e-06	698.3	178.05	3.2462e-06	2.8362e-06	298.15	113.67	66.764	22.331	3.6503e-06	44.247	4.5843e-05	3.7989e-05	1.0428e-05	423.13	4.2296e-07	4.1661e-07	647.45	163.12	4.2573e-07	4.1989e-07	258.88	100.15	58.036	19.975	4.1952e-07	38.314	324.393	156.964	125.064	90.905	213.753	169.978	91.143	95.862	207.520	163.323	94.134	97.643	99.044	103.319	188.529	101.298	-8191	255	
943.764	1	1	0	0	0.13909	0.084394	0.10794	0.223	0.13841	0.10978	0.24341	0.17382	0.22138	0.22952	0.28879	0.2407	0.1255	0.13459	0.052939	0.35787	-1.9688	-2.4271	-2.3479	-2.0979	-2.5646	-2.4562	-2.325	-2.675	-2.4813	-2.5708	-2.6188	-2.2125	-2.7042	-2.3667	-2.2833	-2.6708	378.798	111.821	306.871	153.288	249.545	209.667	378.556	139.191	310.258	101.526	347.723	87.428	212.313	394.441	273.388	403.112	0.0010611	9.9522e-05	8.3059e-05	511.75	1.3868e-06	2.7301e-06	700.35	179.26	4.8636e-06	2.7645e-06	298.28	113.96	67.793	22.421	4.159e-06	43.897	4.5432e-05	3.8206e-05	1.0744e-05	424.15	4.1991e-07	4.1417e-07	646.93	163.2	4.2513e-07	4.1252e-07	258.67	100.15	58.317	19.979	4.1611e-07	38.195	326.842	152.112	169.569	91.823	218.268	223.438	91.081	95.104	165.085	185.314	93.847	97.664	98.724	102.983	204.171	101.600	-8191	255	
943.860	1	1	0	0	0.34618	0.21963	0.19273	0.28043	0.18676	0.086061	0.31292	0.017361	0.19246	0.052139	0.083776	0.084042	0.31003	0.23171	0.2551	0.27427	-1.7958	-2.525	-2.4208	-2.1625	-2.4875	-2.5521	-2.4229	-2.5687	-2.3917	-2.3333	-2.5062	-2.2896	-2.7083	-2.5417	-2.1646	-2.6208	205.549	87.524	86.659	280.978	303.517	357.796	398.257	208.169	146.673	367.179	398.482	431.135	353.614	96.584	380.139	362.506	0.0011249	7.1223e-05	5.3051e-05	515.37	2.6529e-06	2.9533e-06	701.76	179.52	3.8293e-06	1.2816e-06	297.83	114.04	67.317	22.262	1.3469e-06	44.225	4.5208e-05	3.8813e-05	1.0654e-05	424.63	4.2142e-07	4.1567e-07	647.87	163.55	4.1706e-07	4.1804e-07	258.04	100.17	58.227	19.914	4.1678e-07	38.289	326.299	125.182	132.425	91.750	219.867	138.438	91.151	95.752	199.629	249.744	94.238	97.953	98.881	103.393	230.834	101.260	-8191	255	
943.980	1	1	0	0	0.143	0.11881	0.0397	0.092102	0.12095	0.15737	0.24627	0.069288	0.10771	0.03196	0.21521	0.13561	0.19997	0.11557	0.21936	0.048628	-1.8292	-2.2979	-2.4729	-2.2	-2.4458	-2.4417	-2.2229	-2.4167	-2.1979	-2.2354	-2.6083	-2.3729	-2.3896	-2.3583	-2.2188	-2.6917	189.234	359.840	291.994	395.809	129.622	367.769	135.106	138.857	135.439	377.296	345.594	318.603	362.089	95.416	370.274	110.283	0.0010071	0.00035072	2.9297e-05	510.7	7.3457e-07	2.8038e-06	702.07	178.59	2.1698e-06	1.7266e-06	296.69	113.84	66.974	22.57	3.1175e-06	44.146	4.4793e-05	3.7951e-05	1.0524e-05	422.57	4.1595e-07	4.0993e-07	647.39	163	4.2781e-07	4.1788e-07	257.9	100.21	58.183	19.972	4.2683e-07	38.31	321.311	152.704	179.582	91.670	287.328	176.145	91.245	95.554	221.032	226.599	93.768	97.656	98.707	103.409	242.260	101.401	-8191	255	
944.076	1	1	0	0	0.038741	0.17927	0.11639	0.13229	0.21525	0.31308	0.12642	0.2598	0.1055	0.21615	0.12339	0.18943	0.12878	0.21871	0.12364	0.36477	-2.1104	-2.4354	-2.6833	-2.3979	-2.2812	-2.6208	-2.1604	-2.3563	-2.5604	-2.2687	-2.6104	-2.3729	-2.4562	-2.5354	-2.3646	-2.6417	209.466	339.367	301.832	301.750	195.297	107.212	375.829	107.467	187.481	88.944	263.914	217.009	286.434	149.881	360.582	344.680	0.00095603	0.00017373	3.8376e-05	508.98	1.9633e-06	2.9768e-06	697.06	177.75	3.6042e-06	2.163e-06	296.58	113.82	67.281	22.359	8.4124e-07	43.942	4.4299e-05	3.757e-05	1.0414e-05	422.53	4.2346e-07	4.1237e-07	644.49	162.52	4.1365e-07	4.0534e-07	257.18	99.929	58.055	19.91	4.0983e-07	38.086	326.094	137.339	168.951	91.384	180.489	171.165	90.973	95.447	184.563	249.764	93.952	97.620	98.922	102.811	146.396	101.501	-8191	255	
944.148	1	1	0	0	0.34469	0.16753	0.20357	0.11933	0.058551	0.39352	0.077889	0.072913	0.05867	0.33796	0.17042	0.35599	0.2364	0.19657	0.054957	0.14148	-2.0792	-2.2104	-2.5604	-2.35	-2.3604	-2.5563	-2.4646	-2.4792	-2.4917	-2.3729	-2.575	-2.4521	-2.425	-2.6208	-2.2771	-2.6125	401.939	410.929	379.816	180.492	126.640	284.307	213.064	412.788	412.529	81.809	403.541	87.266	90.692	206.515	121.227	331.164	0.0010768	0.00023389	5.1397e-05	508.43	1.0994e-06	1.0703e-06	698.62	177.85	3.2258e-06	1.5859e-06	296.66	113.51	66.726	22.285	2.2437e-06	43.881	4.4576e-05	3.7473e-05	1.0248e-05	421.85	4.0335e-07	4.1021e-07	644.9	162.56	4.1013e-07	4.0313e-07	256.6	99.537	57.955	19.874	3.9864e-07	38.196	321.563	434.930	170.548	91.324	197.107	189.281	91.135	95.529	211.130	192.651	93.771	97.651	98.516	103.150	198.066	101.239	-8191	255	
944.244	1	1	0	0	0.34507	0.13603	0.03228	0.13409	0.2025	0.14326	0.09418	0.29388	0.14584	0.21243	0.18431	0.20568	0.23165	0.13511	0.12698	0.30131	-2.1792	-2.0125	-2.4146	-2.375	-2.1875	-2.6083	-2.4896	-2.375	-2.3937	-2.3937	-2.35	-2.5729	-2.2875	-2.5812	-2.4333	-2.5458	79.817	254.545	334.340	420.938	376.045	258.139	193.964	392.072	103.762	236.407	363.495	367.156	406.211	391.252	130.039	411.731	0.0010752	0.00013101	4.0967e-06	513.1	2.2407e-06	3.0823e-06	697.79	179.01	1.7232e-06	9.3655e-07	297.13	113.86	66.733	22.377	3.1733e-06	44.446	4.2616e-05	3.6354e-05	1.0089e-05	421.08	4.0678e-07	4.0233e-07	645.74	163.27	4.1885e-07	4.077e-07	258.06	99.963	57.949	19.957	4.1224e-07	38.359	325.351	168.114	104.974	91.169	219.712	202.410	91.180	95.594	209.846	285.381	94.006	97.622	98.707	103.168	194.304	101.362	-8191	255	
944.363	1	1	0	0	0.14371	0.16539	0.24863	0.082182	0.093634	0.13617	0.2526	0.26089	0.094602	0.12205	0.18647	0.25085	0.11053	0.18677	0.09061	0.10957	-1.9396	-2.4292	-2.6042	-2.2146	-2.3021	-2.8208	-2.2583	-2.2771	-2.6708	-2.2938	-2.5687	-2.55	-2.2646	-2.7021	-2.3667	-2.5271	116.671	275.780	209.971	155.829	112.799	364.661	82.413	318.460	185.185	227.897	375.478	363.610	381.900	414.419	416.369	352.619	0.001022	8.1362e-05	6.8277e-05	510.25	1.1841e-06	1.7882e-06	697.66	178.95	2.4436e-06	2.1577e-06	297.58	114.53	67.182	22.461	2.5764e-06	44.191	4.428e-05	3.6831e-05	1.009e-05	421.54	4.0341e-07	4.0716e-07	646.08	162.66	4.0271e-07	4.0162e-07	257.71	100.26	58.283	20.034	4.1251e-07	38.256	320.080	144.838	153.161	91.812	107.030	158.904	91.013	95.580	176.275	209.766	94.112	97.647	98.460	103.243	200.776	101.174	-8191	255	
944.459	1	1	0	0	0.31395	0.086613	0.19047	0.13367	0.35699	0.12935	0.20472	0.16223	0.10763	0.18455	0.16857	0.045394	0.12188	0.042902	0.04659	0.32467	-2.1229	-2.2792	-2.4208	-2.5979	-2.2833	-2.7396	-2.4333	-2.4104	-2.5729	-2.4479	-2.5479	-2.5417	-2.1729	-2.5479	-2.3625	-2.4	305.437	409.025	304.691	404.495	96.108	382.202	274.079	352.506	198.026	163.811	379.429	85.922	331.424	184.343	193.987	339.107	0.0011148	0.00014816	9.9768e-05	515.29	2.6224e-06	3.1691e-06	702.99	178.79	1.6114e-06	2.5986e-06	297.47	114.21	67.37	22.349	1.4416e-06	43.983	4.3714e-05	3.6816e-05	1.0648e-05	423.68	4.1391e-07	4.0582e-07	646.72	163.02	4.0393e-07	4.0704e-07	257.31	100.08	58.178	19.962	4.0249e-07	38.226	324.296	141.571	88.847	91.117	192.748	196.591	90.940	95.543	238.469	220.898	93.996	97.469	98.829	103.326	236.860	101.332	-8191	255	
944.555	1	1	0	0	0.19961	0.13245	0.15678	0.1681	0.024436	0.12582	0.11251	0.18951	0.18853	0.24999	0.14865	0.19922	0.22681	0.20347	0.097824	0.24044	-2.2125	-2.3354	-2.4479	-2.6312	-2.2479	-2.6458	-2.5229	-2.3125	-2.6771	-2.4354	-2.425	-2.6604	-2.3812	-2.5729	-2.4854	-2.4979	84.609	331.432	189.766	370.728	423.392	228.774	85.564	338.782	243.967	323.148	405.821	284.131	369.446	376.594	303.221	359.071	0.0010524	0.00030114	4.0058e-05	516.78	2.5564e-06	4.4128e-06	698.94	178.02	1.6021e-06	4.3896e-06	296.88	113.99	66.801	22.42	2.6452e-06	44.39	4.3442e-05	3.7467e-05	1.0078e-05	421.68	4.053e-07	4.0456e-07	646.79	162.91	4.057e-07	4.0154e-07	257.66	100.09	58.097	19.936	3.9946e-07	38.391	323.921	149.296	159.437	91.217	244.643	264.957	90.976	95.871	180.278	192.406	93.689	97.598	98.919	103.420	183.529	101.283	-8191	255	
944.676	1	1	0	0	0.35518	0.20949	0.19695	0.18786	0.06563	0.10814	0.0064989	0.30751	0.034134	0.1559	0.20261	0.22034	0.11665	0.23074	0.2146	0.096193	-2.1562	-2.3583	-2.3646	-2.5792	-2.2042	-2.6479	-2.4833	-2.4333	-2.725	-2.4958	-2.4771	-2.6063	-2.4062	-2.5771	-2.475	-2.1792	114.573	125.634	214.253	393.256	251.827	140.632	208.262	342.616	180.094	203.586	347.481	382.319	416.636	311.179	107.164	122.576	0.00097905	7.3297e-05	3.1387e-05	511.61	2.6807e-06	2.328e-06	708.29	179.08	1.3631e-06	2.2598e-06	297.54	114.57	67.375	22.468	1.3421e-06	44.061	4.4381e-05	3.7404e-05	1.0401e-05	422.48	4.1163e-07	4.116e-07	650.09	163.32	4.1014e-07	4.1068e-07	259.12	100.55	58.356	20.02	4.0444e-07	38.211	325.051	273.638	430.912	91.801	206.989	214.132	90.947	95.560	108.306	191.930	94.039	97.886	98.798	103.184	169.027	101.337	-8191	255	
944.748	1	1	0	0	0.23986	0.19956	0.13468	0.092839	0.034843	0.16168	0.15155	0.18588	0.1475	0.047096	0.054228	0.14521	0.23402	0.039506	0.17319	0.07129	-2.3208	-2.5312	-2.3438	-2.4562	-2.2833	-2.6646	-2.6667	-2.3	-2.6292	-2.4979	-2.4271	-2.7229	-2.2229	-2.4979	-2.8208	-2.3854	207.531	93.065	297.652	139.275	337.226	167.327	352.768	404.124	405.485	122.349	305.571	376.648	214.689	389.689	239.613	234.436	0.0010103	0.00020265	7.2455e-05	508.95	1.0748e-06	2.6177e-06	700.75	177.92	2.8908e-06	2.5175e-06	295.64	114.26	67.082	22.361	1.5948e-06	43.99	4.3045e-05	3.7605e-05	1.0382e-05	421.26	3.992e-07	4.0028e-07	644.91	162.46	4.0444e-07	3.9754e-07	257.31	100.13	58.055	19.981	4.0679e-07	38.193	325.335	176.544	135.096	91.013	259.875	226.642	90.989	95.565	190.301	189.844	93.983	97.541	98.961	103.310	129.856	101.404	-8191	255	
944.844	1	1	0	0	0.22739	0.18017	0.16356	0.19241	0.19317	0.15571	0.25173	0.1831	0.36229	0.039645	0.32506	0.06645	0.10438	0.15093	0.13171	0.16747	-2.2354	-2.3187	-2.4625	-2.8167	-2.275	-2.6	-2.7583	-2.4458	-2.6396	-2.6437	-2.3667	-2.7333	-2.5083	-2.2854	-2.6729	-2.4125	228.953	423.391	266.309	296.496	86.710	246.361	399.293	377.333	173.575	378.933	350.854	162.593	427.174	359.215	311.717	378.830	0.0010966	0.00018433	6.7638e-05	508.01	2.0502e-06	3.0707e-06	698.19	178.26	2.7548e-06	1.3128e-06	296.21	114.11	66.776	22.349	2.321e-06	43.998	4.4162e-05	3.753e-05	1.0518e-05	420.81	4.0303e-07	4.0162e-07	645.09	162.23	4.024e-07	3.9643e-07	257.34	99.681	57.778	19.947	4.0227e-07	38.292	324.184	174.288	158.074	91.310	240.315	181.274	91.166	95.295	196.635	199.585	94.041	97.648	99.069	103.209	208.347	101.251	-8191	255	
944.965	1	1	0	0	0.098765	0.092468	0.15339	0.17199	0.13824	0.18903	0.052714	0.077387	0.19042	0.27278	0.37702	0.033719	0.1234	0.24274	0.070104	0.36654	-2.0917	-2.5646	-2.2875	-2.4583	-2.6146	-2.375	-2.8083	-2.4333	-2.5438	-2.6312	-2.4333	-2.6229	-2.525	-2.4104	-2.6042	-2.475	325.077	247.728	414.660	91.838	82.970	353.293	300.736	285.238	111.774	286.653	430.120	398.781	330.273	360.433	390.334	396.867	0.0010992	0.00027423	7.4128e-05	506.48	2.6486e-06	2.6801e-06	698.53	177.07	2.2855e-06	3.2614e-07	297.79	113.9	66.143	22.359	3.4951e-06	44.425	4.3356e-05	3.6844e-05	1.0403e-05	417.85	4.0581e-07	4.0666e-07	644.06	161.74	4.1083e-07	4.046e-07	257.78	99.971	57.577	19.985	4.0838e-07	38.443	321.748	146.130	132.230	91.610	226.018	129.042	91.106	95.905	223.949	172.770	94.256	97.920	98.968	103.274	189.676	101.404	-8191	255	
945.061	1	1	0	0	0.17673	0.24747	0.088925	0.14874	0.10765	0.1309	0.12299	0.26557	0.21957	0.019651	0.41056	0.14599	0.15951	0.20107	0.14759	0.23847	-2.1583	-2.4604	-2.1833	-2.5792	-2.4458	-2.3708	-2.6854	-2.1542	-2.3792	-2.4292	-2.5292	-2.6146	-2.5479	-2.3708	-2.6354	-2.3417	248.227	89.384	214.102	436.779	252.556	366.616	395.277	420.319	305.308	409.841	342.463	182.755	140.868	175.254	283.443	406.980	0.0010385	0.00016507	0.00012225	506.45	3.9144e-06	2.6695e-06	699.28	178.18	5.8817e-06	1.0193e-06	294.45	114.09	66.832	22.452	1.6603e-06	44.204	4.4323e-05	3.6633e-05	1.0319e-05	419.97	3.9879e-07	4.1334e-07	644.35	162.27	4.0789e-07	4.0755e-07	256.66	99.981	57.876	20.011	4.1242e-07	38.269	328.138	140.019	147.978	91.338	197.042	199.126	91.041	95.454	197.688	268.433	93.918	97.703	98.281	103.472	221.908	101.300	-8191	255	
945.157	1	1	0	0	0.11611	0.10484	0.28812	0.14306	0.093284	0.24988	0.31551	0.0087472	0.2199	0.20403	0.037129	0.1815	0.062767	0.18701	0.071144	0.06867	-2.0833	-2.6167	-2.2188	-2.4938	-2.6229	-2.4938	-2.6354	-2.4292	-2.4062	-2.6708	-2.3417	-2.5812	-2.5792	-2.2792	-2.7792	-2.475	268.277	350.064	329.339	411.124	243.537	220.113	383.310	97.621	193.361	349.080	110.693	399.793	348.555	364.845	164.856	268.162	0.0010651	9.4519e-05	3.9939e-05	505.35	2.6767e-06	1.8085e-06	695.96	178.01	4.1032e-06	4.1235e-06	295.36	113.03	66.998	22.456	3.728e-06	44.252	4.4491e-05	3.7287e-05	1.0263e-05	420.11	3.9995e-07	4.0295e-07	643.77	161.69	4.0997e-07	4.1308e-07	256.84	99.601	57.786	19.975	4.1413e-07	38.395	324.675	123.189	169.349	91.827	203.364	148.287	91.351	95.475	178.457	225.492	94.023	97.848	98.900	103.247	206.892	101.297	-8191	255	
945.276	1	1	0	0	0.078195	0.20353	0.10769	0.17807	0.13234	0.065019	0.16207	0.11887	0.16638	0.16768	0.24646	0.098613	0.039099	0.13783	0.14566	0.1761	-1.9292	-2.7021	-2.4	-2.4833	-2.6021	-2.1667	-2.7042	-2.4688	-2.2042	-2.8021	-2.5625	-2.4083	-2.5812	-2.175	-2.7021	-2.4771	104.481	187.649	78.669	392.596	346.724	296.384	372.297	263.449	300.585	84.004	373.046	92.626	179.114	291.367	244.438	384.922	0.0010146	0.00018025	5.3599e-05	503.7	1.2533e-06	4.5619e-06	696.1	176.8	3.7016e-06	9.6172e-07	294.53	113.93	66.181	22.465	5.1226e-06	44.391	4.4815e-05	3.852e-05	1.0488e-05	418.17	4.1454e-07	4.1411e-07	641.63	161.2	4.1186e-07	4.0669e-07	256.06	99.976	57.475	20.041	4.0903e-07	38.508	327.208	193.330	120.359	91.650	245.619	186.596	91.068	95.521	188.626	227.531	93.938	97.807	98.897	102.995	209.414	101.691	-8191	255	
945.347	1	1	0	0	0.25178	0.19701	0.18495	0.31452	0.20982	0.29178	0.18777	0.14969	0.29272	0.10329	0.06664	0.19611	0.24224	0.17684	0.19601	0.21193	-1.8146	-2.6333	-2.3958	-2.5083	-2.6833	-2.2625	-2.6229	-2.575	-2.2062	-2.6396	-2.4396	-2.6458	-2.5	-2.4188	-2.6688	-2.3958	165.681	161.787	230.239	416.390	389.582	178.347	333.330	332.979	133.041	154.829	126.731	94.639	140.428	165.960	241.103	352.712	0.001035	0.00029678	6.7538e-05	506.99	1.8139e-06	2.6767e-06	697.16	177.94	2.5198e-06	1.0863e-06	295.04	113.79	67.389	22.488	3.1862e-06	44.348	4.4304e-05	3.7423e-05	1.0299e-05	418	4.0722e-07	4.1283e-07	643.83	161.65	4.1692e-07	4.013e-07	256.92	99.947	57.748	20.043	4.1216e-07	38.468	323.342	188.611	132.658	91.592	180.695	134.701	91.186	95.993	129.725	303.664	94.057	97.952	98.812	103.386	206.262	101.414	-8191	255	
945.444	1	1	0	0	0.064451	0.12351	0.053159	0.28615	0.15544	0.37492	0.32795	0.178	0.15454	0.25319	0.13834	0.15846	0.13366	0.042063	0.13574	0.064897	-1.6812	-2.6521	-2.5875	-2.475	-2.5958	-2.5604	-2.6	-2.6167	-2.2667	-2.8104	-2.4729	-2.4646	-2.7229	-2.3563	-2.525	-2.7833	243.356	118.986	137.084	435.061	425.718	197.509	350.329	411.122	431.976	88.442	392.414	377.347	282.294	430.252	333.490	310.412	0.00092956	0.00011738	5.7386e-05	502.83	1.9219e-06	3.9685e-06	693.44	175.71	2.8304e-06	1.7327e-06	295.38	114.1	66.283	22.458	4.2849e-06	44.113	4.4059e-05	3.6242e-05	1.0307e-05	415	4.088e-07	4.0327e-07	640.58	160.79	4.1075e-07	4.014e-07	256.4	99.745	57.52	19.997	4.0955e-07	38.45	323.429	136.894	183.196	91.879	200.565	190.741	91.078	95.808	185.556	195.231	94.163	97.672	98.853	103.436	201.374	101.495	-8191	255	
945.540	1	1	0	0	0.11274	0.098925	0.31026	0.094307	0.16016	0.13498	0.18297	0.34828	0.09151	0.33098	0.25006	0.16398	0.14109	0.19716	0.070163	0.060556	-1.7958	-2.8021	-2.4021	-2.225	-2.7104	-2.2771	-2.5187	-2.6896	-2.3854	-2.6396	-2.5333	-2.4292	-2.5958	-2.5	-2.7021	-2.6604	343.784	354.944	188.739	122.732	216.677	108.986	268.473	107.571	323.894	316.152	145.618	382.309	202.413	137.750	420.400	117.128	0.00099877	0.000104	5.2251e-05	498.25	2.2314e-06	1.656e-06	692.47	175.46	3.2425e-06	1.7162e-06	295.08	113.8	66.256	22.479	2.9061e-06	44.527	4.3768e-05	3.7077e-05	1.0398e-05	414.77	4.0938e-07	4.0552e-07	638.44	160.06	4.1301e-07	4.1138e-07	255.48	99.662	57.401	20.03	4.1651e-07	38.646	322.041	119.241	119.667	91.524	206.755	190.196	91.174	95.683	192.263	216.692	93.999	98.050	98.790	103.608	223.049	101.673	-8191	255	
945.660	1	1	0	0	0.36367	0.09804	0.073246	0.18149	0.094303	0.17103	0.12329	0.12831	0.15226	0.057004	0.31682	0.27224	0.22163	0.017378	0.24265	0.23829	-1.8417	-2.4688	-2.4792	-2.1063	-2.5167	-2.4896	-2.5104	-2.7292	-2.3375	-2.7229	-2.6688	-2.3396	-2.7562	-2.425	-2.3479	-2.8208	282.649	160.005	172.717	370.744	117.951	274.597	110.436	403.444	190.274	387.542	400.739	335.483	81.620	359.397	417.148	123.812	0.0009953	0.00038762	7.322e-05	502.23	4.2498e-07	1.8186e-06	696.01	177.35	2.6573e-06	1.6223e-06	297.16	114.29	66.587	22.542	1.1593e-06	44.788	4.4465e-05	3.7355e-05	1.035e-05	415.8	4.1166e-07	4.0898e-07	642.57	161.38	4.0815e-07	4.0434e-07	256.95	100.15	57.747	20.094	4.1611e-07	38.768	323.723	165.692	152.478	91.854	126.758	188.290	90.917	95.344	242.453	261.893	93.904	98.115	98.913	103.039	205.942	101.271	-8191	255	
945.756	1	1	0	0	0.10804	0.042002	0.15904	0.22917	0.17509	0.15439	0.15541	0.054458	0.06849	0.16338	0.32567	0.096139	0.19368	0.14889	0.17341	0.23028	-1.8792	-2.4521	-2.625	-2.2333	-2.7292	-2.5646	-2.4625	-2.5812	-2.3875	-2.4729	-2.5375	-2.3187	-2.4562	-2.6125	-2.1521	-2.775	326.563	412.172	186.376	111.372	369.806	323.823	139.974	336.775	419.820	424.671	96.720	105.140	358.113	229.484	102.114	432.105	0.001103	0.0002294	1.3907e-05	500.91	1.6804e-06	1.941e-06	693.57	177.35	2.2262e-06	1.9941e-06	294.71	114.06	66.123	22.46	1.3857e-06	44.358	4.3868e-05	3.7402e-05	1.0418e-05	417.39	4.127e-07	4.0266e-07	641.63	161.67	4.2629e-07	4.0884e-07	256.59	99.588	57.484	20.023	4.1736e-07	38.421	320.508	194.916	109.103	91.760	115.292	238.654	91.061	95.792	197.906	221.151	94.064	98.009	98.961	103.668	179.272	101.479	-8191	255	
945.853	1	1	0	0	0.049087	0.30367	0.10651	0.18162	0.010288	0.13943	0.22067	0.14687	0.21321	0.077981	0.27426	0.23272	0.14043	0.0293	0.15831	0.16286	-2.0958	-2.4292	-2.4167	-2.175	-2.6917	-2.5146	-2.6083	-2.7062	-2.2667	-2.3937	-2.6937	-2.4042	-2.5354	-2.4688	-2.4271	-2.6854	267.244	220.462	286.375	90.504	183.375	412.044	346.459	428.760	142.368	143.330	377.040	406.537	322.856	229.314	367.348	232.524	0.0010658	0.00026184	4.3594e-05	503.35	1.9279e-06	2.8084e-06	692.92	174.54	2.8562e-06	2.6353e-06	294.95	113.22	66.266	22.414	2.5392e-06	44.292	4.4633e-05	3.7492e-05	1.029e-05	415.23	4.1096e-07	4.1281e-07	638.09	159.68	4.1434e-07	4.1247e-07	255.74	99.184	57.3	19.944	4.2256e-07	38.439	327.472	145.707	207.590	92.278	228.080	201.016	91.204	95.946	181.598	229.516	94.615	97.813	99.114	103.510	182.895	101.490	-8191	255	
945.949	1	1	0	0	0.27249	0.060851	0.2174	0.10633	0.078115	0.11916	0.27467	0.068182	0.1384	0.22879	0.2099	0.11045	0.047688	0.1013	0.15517	0.13182	-1.8521	-2.2917	-2.5667	-2.4542	-2.4396	-2.6167	-2.5	-2.6646	-2.3937	-2.2687	-2.6729	-2.3042	-2.3792	-2.4104	-2.3479	-2.5583	231.277	109.639	91.445	391.159	248.640	158.150	333.929	322.925	218.047	285.244	251.362	138.548	93.116	248.632	145.798	121.417	0.00099225	0.00016148	0.00010919	498.62	3.5501e-06	5.7135e-06	693.56	176.4	3.9078e-06	1.0031e-06	293.36	112.95	65.705	22.45	3.8697e-06	44.576	4.48e-05	3.824e-05	1.0687e-05	415.1	4.1044e-07	4.1459e-07	639.72	160.81	4.2047e-07	4.0946e-07	255.27	99.416	57.144	20.002	4.1516e-07	38.631	329.636	232.761	166.980	91.588	229.252	195.985	91.156	95.759	175.738	263.260	93.888	97.801	99.540	103.557	198.787	101.197	-8191	255	
946.045	1	1	0	0	0.14068	0.065326	0.057971	0.077835	0.25262	0.099064	0.25453	0.27326	0.12124	0.28432	0.18239	0.11624	0.23632	0.17274	0.022058	0.17761	-1.8312	-2.3312	-2.7521	-2.3479	-2.3354	-2.6083	-2.2354	-2.7208	-2.2646	-2.2833	-2.6729	-2.3854	-2.5812	-2.6708	-2.2271	-2.5958	259.282	238.053	217.497	134.925	205.531	196.087	416.775	111.947	138.639	147.273	141.472	274.738	335.838	326.414	177.763	437.516	0.0010494	0.00018391	9.0925e-05	500.6	3.7289e-06	1.732e-06	696.73	177	2.0234e-06	1.5017e-06	295.12	113.22	65.997	22.354	4.8883e-06	44.212	4.4537e-05	3.8346e-05	1.0446e-05	416.64	4.1976e-07	4.2848e-07	641.23	161.22	4.2191e-07	4.1496e-07	255.78	99.325	57.258	19.904	4.1582e-07	38.263	326.469	175.454	159.036	91.943	186.230	233.491	91.145	95.852	178.938	174.059	94.086	97.789	99.244	103.239	204.092	101.364	-8191	255	
946.141	1	1	0	0	0.15149	0.29676	0.24004	0.24546	0.0077639	0.17158	0.094387	0.14762	0.1246	0.26666	0.075804	0.15852	0.11733	0.22237	0.16611	0.0094959	-1.8229	-2.2062	-2.5021	-2.2667	-2.3729	-2.7354	-2.4437	-2.6708	-2.6896	-2.4042	-2.6542	-2.3083	-2.4604	-2.6	-2.3583	-2.6979	395.317	275.347	322.888	364.588	345.635	301.870	400.930	300.615	211.982	82.537	81.549	110.358	174.611	321.403	82.733	79.555	0.001055	0.00026949	5.4488e-05	503.13	2.0062e-06	2.7133e-06	695.54	176.89	2.1779e-06	2.197e-06	293.26	112.99	65.508	22.3	2.5325e-06	44.166	4.4266e-05	3.7735e-05	1.0326e-05	414.32	4.1431e-07	4.1012e-07	639.23	160.69	4.2178e-07	4.1687e-07	254.88	99.146	57.063	19.894	4.1271e-07	38.277	317.985	130.428	127.773	91.622	233.917	156.705	91.069	95.832	159.815	146.626	93.583	97.634	99.433	103.621	178.004	101.262	-8191	255	
946.237	1	1	0	0	0.10158	0.14919	0.27295	0.27127	0.22416	0.23262	0.077982	0.41547	0.033903	0.17677	0.14302	0.12765	0.086127	0.17121	0.1735	0.2637	-2.1042	-2.2729	-2.5583	-2.4562	-2.3646	-2.6937	-2.2854	-2.5229	-2.5771	-2.4375	-2.5729	-2.5896	-2.3146	-2.6958	-2.4167	-2.6104	305.854	258.041	227.309	109.516	85.455	193.774	380.307	384.907	210.694	264.597	385.658	155.264	408.845	387.071	86.741	339.809	0.00097173	0.00012151	4.484e-05	496.93	2.76e-06	3.6678e-06	688.26	175.91	2.8818e-06	2.4018e-06	294.82	112.93	66.263	22.383	2.1964e-06	44.242	4.3929e-05	3.7746e-05	1.0605e-05	412.53	4.1346e-07	4.1145e-07	637.36	160.36	4.2566e-07	4.0924e-07	255.66	99.374	57.325	19.939	4.1389e-07	38.485	322.610	163.557	90.633	91.550	206.080	172.402	90.937	95.602	158.295	210.165	94.341	97.590	99.035	103.324	260.921	101.406	-8191	255	
946.358	1	1	0	0	0.098787	0.12319	0.14712	0.28101	0.098865	0.14734	0.27292	0.26337	0.12191	0.2677	0.13429	0.18562	0.14781	0.33413	0.18545	0.24891	-2.1708	-2.3792	-2.5625	-2.5458	-2.3854	-2.7229	-2.3375	-2.4458	-2.5812	-2.325	-2.5667	-2.6021	-2.3729	-2.4479	-2.3521	-2.4646	279.083	416.080	354.978	386.010	180.369	261.989	290.982	427.791	183.567	109.791	266.056	93.187	108.305	397.694	180.720	95.975	0.0009771	0.00046008	2.1765e-05	504.54	1.0619e-06	3.3975e-06	687.51	175.4	3.4974e-06	1.5249e-06	294.67	113.26	66.254	22.369	2.4708e-06	44.257	4.4219e-05	3.8416e-05	1.0412e-05	416.62	4.1573e-07	4.06e-07	637.74	160.51	4.1447e-07	4.0469e-07	255.97	99.464	57.308	20.012	4.0532e-07	38.365	322.572	165.386	317.865	91.588	220.768	208.916	91.201	95.791	204.320	184.669	93.719	97.754	99.146	103.277	230.943	101.299	-8191	255	
946.452	1	1	0	0	0.10308	0.082886	0.35561	0.27983	0.19303	0.12558	0.1228	0.10439	0.1276	0.1521	0.36935	0.16873	0.32744	0.42765	0.052891	0.033572	-2.0958	-2.3708	-2.3854	-2.4604	-2.1875	-2.6833	-2.4062	-2.2604	-2.4396	-2.2854	-2.2375	-2.4875	-2.3604	-2.4271	-2.4292	-2.5083	105.483	349.479	381.367	346.020	185.210	402.656	404.849	276.725	333.779	236.744	372.864	419.660	95.191	425.425	430.657	160.243	0.00093293	0.00012281	5.8571e-05	499.68	1.9484e-06	2.2297e-06	690.03	176.46	1.7193e-06	1.5816e-06	292.87	112.86	66.054	22.465	2.7792e-06	43.934	4.3805e-05	3.6851e-05	1.0378e-05	414.7	4.1423e-07	4.0748e-07	637.59	160.78	4.1857e-07	4.1193e-07	255.1	99.183	57.204	19.917	4.0797e-07	38.237	325.669	135.058	124.533	91.675	315.888	228.430	91.031	95.743	233.531	148.881	93.869	97.869	98.797	103.552	140.890	101.454	-8191	255	
946.548	1	1	0	0	0.3493	0.20045	0.21997	0.22812	0.10781	0.12466	0.18795	0.14898	0.075698	0.16738	0.15099	0.22792	0.066152	0.29554	0.23139	0.072788	-2.1833	-2.2938	-2.3271	-2.4688	-2.3458	-2.4688	-2.6042	-2.0646	-2.5042	-2.1688	-2.4708	-2.5833	-2.2917	-2.5104	-2.7146	-2.3646	220.431	114.328	300.558	104.582	84.628	116.868	377.643	384.593	239.765	318.600	77.735	342.071	429.360	284.690	152.065	410.592	0.0010863	0.00015051	7.9535e-05	506.26	2.1242e-06	2.1076e-06	691.9	176.07	4.4003e-06	1.5192e-06	294.37	113.78	66.783	22.41	2.8961e-06	44.231	4.4359e-05	3.74e-05	1.0328e-05	415.51	4.1361e-07	4.0423e-07	639.38	161.09	4.1927e-07	4.0804e-07	255.81	99.83	57.853	20.012	4.1488e-07	38.377	319.975	391.038	137.748	91.085	213.668	247.595	91.122	95.530	228.891	233.661	94.102	97.658	98.764	103.083	165.518	101.505	-8191	255	
946.645	1	1	0	0	0.14488	0.12978	0.074858	0.21467	0.039835	0.11595	0.12667	0.38218	0.10335	0.20769	0.25274	0.13496	0.042592	0.10109	0.18371	0.1402	-2.2	-2.2521	-2.2667	-2.4271	-2.3646	-2.4208	-2.7875	-2.2667	-2.6521	-2.3167	-2.4167	-2.6083	-2.3167	-2.3917	-2.4958	-2.4417	285.482	192.767	261.676	132.547	429.344	83.829	378.045	129.757	290.753	115.864	367.978	91.538	398.853	159.154	289.197	156.851	0.0010691	9.438e-05	3.9765e-05	505.11	2.9426e-06	2.654e-06	700.96	178.19	3.2313e-06	2.5082e-06	297.03	114.46	67.104	22.528	4.4864e-06	44.38	4.5515e-05	3.7982e-05	1.039e-05	420.1	4.1313e-07	4.1118e-07	644.87	162.6	4.1155e-07	4.0701e-07	258.07	100.42	58.288	20.093	4.1615e-07	38.526	325.260	111.123	83.508	91.972	202.646	160.487	91.099	95.377	181.955	195.121	94.166	97.804	98.626	103.716	217.752	101.186	-8191	255	
946.741	1	1	0	0	0.059399	0.30298	0.13384	0.11203	0.12105	0.12226	0.13199	0.1096	0.11066	0.11442	0.089967	0.13612	0.21604	0.2743	0.18106	0.19501	-2.15	-2.3438	-2.2417	-2.7021	-2.3583	-2.4917	-2.6063	-2.3646	-2.6583	-2.4146	-2.4958	-2.8042	-2.3229	-2.4917	-2.4688	-2.2792	409.313	172.643	215.318	189.665	331.175	414.901	339.381	424.479	409.014	168.030	312.425	149.940	382.626	145.166	81.035	320.836	0.0010062	0.00020325	6.2384e-05	512.64	2.5579e-06	1.1671e-06	702.31	179.95	4.0636e-06	1.2017e-06	296.25	114.43	67.099	22.392	1.6683e-06	44.162	4.3977e-05	3.7868e-05	1.038e-05	422.24	4.1253e-07	4.057e-07	646.75	163.74	4.1452e-07	4.0632e-07	257.94	100.2	58.233	20.029	4.149e-07	38.247	322.579	147.826	112.840	91.662	221.263	137.699	91.076	95.621	184.418	142.354	93.992	97.939	99.111	103.129	247.402	101.192	-8191	255	
946.837	1	1	0	0	0.068915	0.29204	0.21748	0.17709	0.15121	0.044587	0.05947	0.18793	0.073628	0.22238	0.15963	0.13712	0.080996	0.46061	0.12809	0.32196	-2.2188	-2.4625	-2.2021	-2.4854	-2.2583	-2.4313	-2.7354	-2.2208	-2.5021	-2.6771	-2.3312	-2.7229	-2.4896	-2.3521	-2.8333	-2.2167	184.517	404.666	176.355	263.325	352.336	335.610	291.062	379.528	337.831	274.824	117.810	300.452	260.594	238.068	358.700	412.662	0.0010251	0.00011439	4.1466e-05	510.22	2.7822e-06	6.8685e-07	698.6	178.84	2.7655e-06	2.4733e-06	297.93	113.66	67.119	22.584	2.7361e-06	44.092	4.4252e-05	3.6886e-05	1.0584e-05	421.49	4.1032e-07	4.098e-07	645.67	163.01	4.1606e-07	4.1801e-07	257.91	99.926	58.174	20.048	4.1685e-07	38.315	321.418	97.715	89.391	91.811	195.554	135.106	90.797	95.746	159.185	237.825	93.979	97.858	99.087	103.528	202.454	101.247	-8191	255	
946.957	1	1	0	0	0.26791	0.10639	0.011416	0.17749	0.071344	0.22403	0.27566	0.26443	0.20596	0.31782	0.031417	0.24793	0.10329	0.070743	0.22818	0.074196	-2.0896	-2.6417	-2.2875	-2.4875	-2.2729	-2.3937	-2.725	-2.2062	-2.4333	-2.5292	-2.425	-2.5854	-2.1646	-2.3354	-2.5375	-2.425	327.344	82.231	263.743	167.833	205.242	184.690	265.427	429.360	347.153	408.374	171.252	389.794	204.033	394.049	189.003	240.795	0.0010812	0.0001647	0.00011616	509.15	1.8519e-06	3.6117e-06	703.43	180.1	2.8584e-06	4.019e-06	298.47	114.89	67.446	22.442	4.0178e-06	44.332	4.5166e-05	3.7331e-05	1.0557e-05	421.44	4.1123e-07	4.0796e-07	648.55	163.88	4.1857e-07	4.1167e-07	259.2	100.82	58.564	20.08	4.1294e-07	38.405	319.306	152.808	127.073	91.643	250.320	220.396	91.087	95.337	304.166	195.960	93.736	97.665	98.768	102.887	224.037	101.179	-8191	255	
947.054	1	1	0	0	0.066727	0.25232	0.21884	0.19171	0.15671	0.25981	0.32814	0.19962	0.23518	0.096999	0.4647	0.18169	0.1303	0.10426	0.064572	0.090043	-2.0938	-2.5896	-2.2208	-2.6688	-2.3833	-2.3688	-2.5604	-2.3	-2.5771	-2.55	-2.4062	-2.6458	-2.4875	-2.375	-2.5521	-2.3271	186.343	218.347	230.706	87.724	244.833	408.320	366.633	137.210	199.921	343.744	80.697	142.856	401.496	372.524	180.171	399.414	0.0010562	0.00021439	8.2645e-05	515.98	1.4252e-06	2.5543e-06	704.53	179.56	2.1067e-06	7.8489e-07	299.22	115.27	67.418	22.562	2.2772e-07	43.947	4.4621e-05	3.7852e-05	1.0646e-05	425.35	4.023e-07	4.1611e-07	649.66	163.98	4.0236e-07	4.0596e-07	259.27	100.65	58.387	20.083	4.0524e-07	38.257	326.231	96.726	135.010	91.543	240.522	194.951	91.059	95.633	203.568	148.496	93.486	97.508	98.575	103.189	242.716	101.009	-8191	255	
947.148	1	1	0	0	0.097847	0.073328	0.11678	0.16669	0.044423	0.055497	0.14153	0.096114	0.10985	0.089157	0.32698	0.15427	0.062036	0.231	0.16623	0.2469	-2.0479	-2.6208	-2.3438	-2.4417	-2.7396	-2.4083	-2.55	-2.3854	-2.1813	-2.6063	-2.4458	-2.725	-2.5625	-2.4104	-2.4146	-2.3792	174.406	289.936	395.879	100.346	290.167	268.183	317.042	422.804	369.691	301.241	80.974	422.782	312.222	349.505	331.547	336.250	0.0010375	9.7031e-05	0.00010228	511.9	2.441e-06	2.4585e-06	699.02	179.06	5.2038e-06	2.9625e-06	297.99	113.47	66.97	22.423	1.8272e-06	44.21	4.4108e-05	3.8148e-05	1.0353e-05	423.43	4.0969e-07	4.1535e-07	645.04	163.3	4.064e-07	4.016e-07	257.78	99.717	57.856	19.995	4.0303e-07	38.281	325.650	160.174	142.516	91.338	216.357	200.366	91.093	95.745	199.040	197.341	94.010	97.485	98.657	103.110	140.705	101.216	-8191	255	
947.244	1	1	0	0	0.16692	0.083939	0.16877	0.16807	0.064298	0.26175	0.034302	0.1759	0.047017	0.14345	0.069603	0.15007	0.1519	0.171	0.22282	0.13052	-1.8792	-2.7167	-2.2562	-2.4188	-2.4958	-2.1958	-2.5917	-2.3937	-2.3187	-2.5583	-2.2146	-2.4083	-2.5833	-2.4354	-2.5292	-2.5479	264.452	400.622	332.614	174.160	129.465	364.042	145.619	326.228	361.095	239.341	122.178	304.938	213.504	140.842	276.630	99.037	0.0011188	0.00030645	5.7815e-05	507.1	1.5435e-06	2.2705e-06	695.96	178.41	2.3232e-06	2.8106e-06	299.03	114.72	67.146	22.39	4.0925e-06	44.031	4.3375e-05	3.7324e-05	1.0118e-05	418.64	3.9786e-07	4.0401e-07	643.54	162.8	4.2667e-07	4.0732e-07	258.89	100.33	58.186	19.997	4.1237e-07	38.354	322.385	181.881	177.915	91.202	187.151	239.117	91.114	95.701	253.882	222.407	94.104	97.545	98.630	102.780	164.038	101.193	-8191	255	
947.340	1	1	0	0	0.12026	0.10653	0.19129	0.14962	0.14018	0.038731	0.11634	0.18184	0.12997	0.045327	0.12903	0.18637	0.050814	0.16951	0.094639	0.089339	-1.6896	-2.7083	-2.3917	-2.475	-2.575	-2.2417	-2.6167	-2.4542	-2.2542	-2.5729	-2.2188	-2.4813	-2.6771	-2.3979	-2.4167	-2.6333	381.003	304.174	413.670	403.223	262.839	341.543	337.482	183.554	200.607	320.112	177.457	300.469	295.287	94.537	406.984	383.389	0.00097857	0.00021187	4.2901e-05	511.37	2.9197e-06	2.7542e-06	693.82	179.6	4.4786e-06	2.6929e-06	299.54	114.71	67.227	22.751	3.0781e-06	44.332	4.4383e-05	3.6672e-05	1.0448e-05	422.17	4.0789e-07	4.0941e-07	644.31	163.43	4.1824e-07	4.0921e-07	259.67	100.71	58.432	20.14	4.1283e-07	38.458	328.813	154.270	139.763	91.247	211.654	171.595	91.246	95.697	193.302	243.918	94.246	97.430	98.872	103.183	166.710	101.270	-8191	255	
947.436	1	1	0	0	0.21956	0.14344	0.51627	0.10609	0.19812	0.13829	0.29027	0.28288	0.060285	0.30075	0.19719	0.16277	0.18597	0.074722	0.19112	0.085556	-1.8167	-2.5229	-2.4104	-2.3458	-2.6646	-2.5333	-2.7042	-2.3458	-2.3292	-2.6375	-2.4021	-2.4062	-2.6646	-2.3958	-2.4375	-2.4771	320.464	117.717	396.570	394.116	281.378	186.400	87.349	367.248	119.271	282.580	112.982	368.742	364.692	296.535	202.978	158.718	0.0010984	0.0001456	2.5766e-05	513.37	2.3429e-06	3.1702e-06	699.55	179.05	3.4882e-06	2.6003e-06	299.58	115	67.472	22.592	3.5496e-06	44.129	4.544e-05	3.8163e-05	1.0388e-05	422.89	4.108e-07	4.1765e-07	645.54	163.54	4.1251e-07	4.1062e-07	258.87	100.49	58.465	20.112	4.0927e-07	38.226	322.221	144.798	147.781	91.276	206.665	191.623	91.072	95.605	198.447	216.361	93.760	97.509	99.132	103.295	156.907	101.227	-8191	255	
947.533	1	1	0	0	0.29303	0.30951	0.43038	0.056901	0.2452	0.39653	0.34212	0.30083	0.32029	0.11426	0.3218	0.27358	0.2946	0.15988	0.064414	0.34968	-1.7896	-2.5896	-2.4437	-2.4479	-2.6562	-2.2604	-2.525	-2.5396	-2.3875	-2.5854	-2.55	-2.4771	-2.6437	-2.3604	-2.5479	-2.6833	137.306	134.819	206.744	403.255	98.599	202.452	396.897	407.294	256.645	91.276	389.320	312.335	367.622	130.191	317.814	406.819	0.00091854	7.3839e-05	6.573e-05	506.3	1.8758e-06	4.2719e-06	699.94	179.16	4.0086e-06	2.1351e-06	297.35	114.38	67.694	22.438	3.4024e-06	44.104	4.532e-05	3.7644e-05	1.0422e-05	421.41	4.0822e-07	4.1049e-07	644.91	163.3	4.1391e-07	4.0966e-07	257.74	100.18	58.359	19.998	4.0508e-07	38.327	328.870	130.299	154.876	91.485	258.244	163.521	91.254	95.400	205.066	153.092	93.771	97.782	98.693	103.349	217.817	101.123	-8191	255	
947.629	1	1	0	0	0.19845	0.094302	0.085295	0.16135	0.080723	0.0867	0.36983	0.16458	0.097607	0.17701	0.19083	0.37473	0.18043	0.063274	0.20962	0.19992	-1.9188	-2.5229	-2.4708	-2.3563	-2.5521	-2.3167	-2.5708	-2.7938	-2.1813	-2.5979	-2.6292	-2.4604	-2.5083	-2.4458	-2.3708	-2.8458	86.723	169.869	110.997	392.897	203.679	96.123	353.354	312.971	299.320	236.284	259.128	137.420	266.326	381.175	256.748	409.407	0.00088948	0.00014759	2.6954e-05	506.48	2.4374e-06	1.5224e-06	698.26	177.89	3.5781e-06	2.5098e-06	295.95	114.38	66.913	22.505	3.9081e-06	44.205	4.4481e-05	3.6539e-05	1.0369e-05	418.63	4.0705e-07	4.0587e-07	642.13	162.13	4.1528e-07	4.0921e-07	257.11	100.17	57.912	20.067	4.101e-07	38.437	321.486	121.573	398.198	91.474	243.371	115.789	90.644	95.436	203.082	198.832	93.855	97.727	98.407	103.180	167.660	101.270	-8191	255	
947.749	1	1	0	0	0.15248	0.072803	0.21311	0.1285	0.20946	0.034073	0.023554	0.21163	0.24565	0.12196	0.19645	0.15986	0.033023	0.17905	0.19641	0.093879	-1.7792	-2.4354	-2.5062	-2.0646	-2.6688	-2.5	-2.675	-2.6625	-2.3688	-2.5208	-2.4708	-2.4	-2.7104	-2.525	-2.3146	-2.6604	239.837	153.340	396.930	225.046	434.737	359.763	166.275	289.752	294.181	362.081	309.210	153.817	110.280	420.298	285.709	180.183	0.0010955	8.2491e-05	4.2391e-05	496.43	2.8072e-06	3.347e-07	691.13	176.02	4.0262e-06	2.3976e-06	295.1	113.14	66.215	22.425	4.2095e-06	44.119	4.3388e-05	3.7154e-05	1.0211e-05	414.54	3.9774e-07	3.9351e-07	638.18	160.39	4.0689e-07	3.9478e-07	255.53	99.512	57.433	20.031	4.1202e-07	38.354	324.583	141.178	143.341	91.182	219.152	90.059	91.083	95.785	171.355	175.175	93.904	97.650	99.143	103.144	201.215	101.639	-8191	255	
947.846	1	1	0	0	0.15892	0.3834	0.24775	0.23752	0.0908	0.058444	0.12058	0.30262	0.018188	0.25277	0.21115	0.17454	0.23606	0.18418	0.089309	0.12014	-2.0833	-2.4313	-2.4313	-2.4229	-2.45	-2.6271	-2.6104	-2.65	-2.2771	-2.5312	-2.5687	-2.3688	-2.5438	-2.7292	-2.4229	-2.8187	136.192	79.711	326.765	124.965	245.388	87.161	306.871	393.554	189.353	275.528	79.153	391.667	381.332	406.482	119.880	383.184	0.001015	0.00016769	9.4492e-05	500.21	3.752e-06	2.3584e-06	687.2	175.13	3.4557e-06	1.9743e-06	293.35	113.81	66.593	22.339	1.9159e-06	44.22	4.3372e-05	3.7659e-05	1.0344e-05	413.72	4.0982e-07	4.0885e-07	634.25	160.02	4.0828e-07	4.1301e-07	254.78	99.297	57.316	19.948	4.0816e-07	38.389	322.307	135.955	136.537	91.998	249.085	177.198	91.198	95.190	164.948	215.846	94.035	97.915	99.179	103.222	215.185	101.480	-8191	255	
947.917	1	1	0	0	0.16676	0.081622	0.10213	0.072146	0.035818	0.096204	0.23858	0.29868	0.29938	0.050618	0.079628	0.10881	0.1826	0.11092	0.026939	0.13931	-1.8708	-2.3271	-2.5979	-2.3229	-2.5438	-2.4417	-2.3438	-2.8479	-2.5417	-2.2313	-2.6771	-2.6042	-2.4125	-2.6375	-2.4062	-2.6646	211.577	238.692	120.961	296.129	201.692	198.315	360.000	203.657	341.921	271.135	256.678	387.781	376.554	435.201	300.405	195.721	0.0010323	0.00029848	4.8875e-05	502.51	2.2837e-06	2.5771e-06	687	175.72	2.2459e-06	3.5773e-06	293.42	113.38	66.652	22.527	2.2164e-06	44.393	4.3783e-05	3.707e-05	1.047e-05	413.5	3.9897e-07	4.1318e-07	636.08	160.55	4.1359e-07	4.0902e-07	255.29	99.45	57.435	19.976	4.0379e-07	38.498	321.864	157.454	107.494	91.077	231.118	230.167	91.109	95.350	184.805	224.643	94.371	97.727	98.961	103.354	202.685	101.259	-8191	255	
948.038	1	1	0	0	0.26246	0.12989	0.24225	0.1235	0.10824	0.20064	0.36152	0.19102	0.072141	0.11656	0.051159	0.03633	0.18833	0.12139	0.19928	0.05613	-1.9	-2.4188	-2.6208	-2.2167	-2.3896	-2.4104	-2.3417	-2.7083	-2.4146	-2.3896	-2.5521	-2.4437	-2.5625	-2.6167	-2.4562	-2.7938	253.280	163.213	334.678	107.160	167.178	398.820	339.494	347.878	323.347	361.995	301.274	419.556	391.594	297.703	282.546	278.605	0.0010611	0.00022925	8.0924e-05	495.22	1.3212e-06	1.1427e-06	691.81	174.49	4.0725e-06	1.5399e-06	294.19	113.33	65.941	22.501	4.9114e-06	44.433	4.3493e-05	3.7064e-05	1.0366e-05	411.73	4.063e-07	4.0308e-07	637.42	160.09	4.1287e-07	4.0789e-07	255.54	99.486	57.306	19.96	4.176e-07	38.503	326.649	140.779	152.467	91.361	217.642	171.282	91.419	95.763	182.308	183.389	94.320	97.597	98.771	103.584	226.222	101.377	-8191	255	
948.134	1	1	0	0	0.077912	0.11461	0.22722	0.36186	0.10093	0.17878	0.2438	0.24782	0.076943	0.19106	0.1739	0.041003	0.1351	0.083279	0.15091	0.15034	-1.9667	-2.2354	-2.4313	-2.2833	-2.4708	-2.7146	-2.4562	-2.5563	-2.4688	-2.275	-2.7354	-2.2833	-2.4458	-2.7104	-2.325	-2.6125	210.707	86.294	425.948	89.709	201.797	267.330	416.829	400.868	169.126	396.408	225.269	90.564	255.614	375.885	300.435	118.035	0.00091596	0.00016899	0.00010366	494.33	2.1736e-06	2.5806e-06	688.71	176.48	1.7292e-06	7.8244e-07	292.9	112.58	66.116	22.4	3.6829e-06	44.296	4.3143e-05	3.7303e-05	1.0286e-05	411.22	4.1577e-07	4.0039e-07	636.41	160.31	4.1496e-07	4.0219e-07	254.59	99.22	57.406	19.981	4.1776e-07	38.376	325.961	167.467	156.917	90.968	226.707	205.001	91.286	95.637	232.257	300.752	94.031	97.692	99.145	103.247	199.414	101.538	-8191	255	
948.230	1	1	0	0	0.2288	0.12218	0.18191	0.30247	0.028468	0.11811	0.39574	0.10793	0.076134	0.032404	0.088151	0.31561	0.19301	0.17357	0.20024	0.18818	-2.3479	-2.3875	-2.5208	-2.3354	-2.625	-2.7958	-2.4208	-2.5604	-2.5812	-2.3021	-2.6229	-2.5375	-2.4104	-2.7021	-2.3333	-2.5	226.530	310.105	146.120	278.764	81.781	336.803	424.884	117.537	154.419	409.074	337.681	434.211	259.168	371.157	339.427	374.574	0.0010886	9.0751e-05	3.9809e-05	503.07	2.9212e-06	2.5221e-06	688.08	175.72	2.4491e-06	2.4029e-06	293.79	113.25	65.384	22.37	3.0172e-06	44.271	4.4749e-05	3.7963e-05	1.029e-05	414.3	4.2328e-07	4.1064e-07	637.47	160.37	4.2368e-07	4.1103e-07	254.71	99.305	57.124	19.934	4.0954e-07	38.412	324.732	186.507	246.002	91.564	241.813	260.794	91.136	95.969	142.089	219.792	93.936	97.825	98.514	103.196	182.565	101.216	-8191	255	
948.326	1	1	0	0	0.28409	0.20556	0.10443	0.12822	0.37554	0.17162	0.23839	0.14317	0.17358	0.044899	0.3207	0.21057	0.14506	0.17857	0.34772	0.23663	-2.1542	-2.2979	-2.4625	-2.5229	-2.1125	-2.6083	-2.5854	-2.4729	-2.6875	-2.2521	-2.5854	-2.4083	-2.3396	-2.7271	-2.5229	-2.4604	145.465	365.456	384.263	340.413	282.256	166.956	77.966	372.048	164.031	143.634	78.957	413.303	115.349	100.151	271.875	237.426	0.00091662	0.00019627	4.968e-05	497.14	2.0412e-06	1.4638e-06	690.11	175.85	4.2379e-06	2.658e-06	293.26	113.99	65.713	22.263	1.9159e-06	44.27	4.4232e-05	3.779e-05	1.0288e-05	412.72	4.1893e-07	4.0732e-07	637.43	160.51	4.1764e-07	4.1706e-07	254.97	99.49	57.199	19.875	4.0963e-07	38.385	322.332	149.004	128.895	91.632	258.472	193.591	91.220	95.479	197.571	222.511	94.364	97.916	98.852	103.304	204.586	101.443	-8191	255	
948.445	1	1	0	0	0.11854	0.08835	0.18393	0.15181	0.3227	0.090171	0.079504	0.051404	0.22506	0.21386	0.15604	0.12846	0.10333	0.10347	0.17462	0.073076	-2.1146	-2.2292	-2.5542	-2.5229	-2.3563	-2.6292	-2.4125	-2.4	-2.7542	-2.4396	-2.7771	-2.5875	-2.3438	-2.525	-2.6146	-2.2104	265.924	110.954	342.593	100.033	207.954	266.796	355.113	356.663	402.924	191.311	403.582	344.378	263.432	157.357	184.048	136.494	0.001022	0.00018697	5.1211e-05	495.32	2.2405e-06	1.7722e-06	685.49	175.01	2.6633e-06	1.4082e-06	291.4	112.73	65.993	22.173	3.6823e-06	43.817	4.3993e-05	3.7142e-05	1.0366e-05	411.47	4.2347e-07	4.0116e-07	633.88	159.78	4.1403e-07	4.1404e-07	254.14	98.979	57.186	19.829	4.2422e-07	38.132	324.333	128.388	148.667	91.821	259.404	230.005	91.260	95.754	197.137	173.770	94.191	97.709	98.683	103.314	129.338	101.456	-8191	255	
948.517	1	1	0	0	0.12024	0.039215	0.094535	0.13971	0.27839	0.070153	0.081935	0.15368	0.26398	0.068189	0.098811	0.19864	0.20054	0.1551	0.054772	0.31821	-2.2042	-2.2333	-2.4458	-2.4917	-2.2583	-2.6271	-2.5458	-2.3229	-2.7562	-2.5021	-2.425	-2.6625	-2.2896	-2.3896	-2.3875	-2.1125	348.004	253.497	424.422	360.847	422.920	102.854	164.239	360.737	183.294	323.489	384.686	356.106	428.645	136.354	267.125	411.356	0.0010024	0.00016784	0.00012347	497.66	1.6972e-07	9.273e-07	684.31	175.17	1.9631e-06	3.1072e-06	291.46	111.99	65.342	22.054	4.7634e-06	43.906	4.471e-05	3.7481e-05	1.032e-05	410.59	4.1035e-07	4.0107e-07	632.05	159.24	4.121e-07	4.054e-07	253.52	98.451	56.714	19.787	4.1594e-07	38.128	328.711	150.161	141.777	91.299	203.920	179.667	91.045	95.574	142.433	171.493	94.047	98.016	98.959	103.603	176.008	101.449	-8191	255	
948.637	1	1	0	0	0.085529	0.26946	0.28073	0.15666	0.17054	0.048437	0.053511	0.12507	0.065858	0.2106	0.21739	0.40413	0.12764	0.098337	0.15848	0.10388	-2.1375	-2.1	-2.3458	-2.6312	-2.2	-2.5604	-2.6333	-2.5396	-2.5917	-2.5687	-2.5896	-2.8021	-2.3104	-2.6896	-2.7104	-2.2125	285.212	130.545	390.306	340.362	213.892	394.481	82.107	343.649	304.065	182.134	373.022	314.657	235.521	411.870	427.035	221.067	0.00098574	0.00025528	2.4956e-05	499.99	3.4387e-06	3.1702e-06	686.14	173.9	2.8894e-06	2.481e-06	290.74	112.82	65.774	22.215	2.6744e-06	44.163	4.451e-05	3.8347e-05	1.0701e-05	412.85	4.1046e-07	4.0962e-07	633.92	159.18	4.1152e-07	4.1302e-07	253.2	98.765	56.743	19.806	4.052e-07	38.185	327.237	139.639	301.762	91.583	204.988	175.824	91.071	95.602	233.616	230.346	94.006	97.671	99.178	103.638	232.903	101.345	-8191	255	
948.734	1	1	0	0	0.19128	0.26371	0.10677	0.16305	0.1712	0.087698	0.18014	0.36162	0.032636	0.33323	0.2332	0.1028	0.15621	0.11773	0.029942	0.24029	-2.1979	-2.2771	-2.3083	-2.4917	-2.4229	-2.6333	-2.5104	-2.2229	-2.7146	-2.4875	-2.3063	-2.7458	-2.5229	-2.6375	-2.5687	-2.4917	240.196	287.405	121.996	422.808	172.716	328.311	390.780	113.859	307.136	266.432	379.054	107.590	357.271	199.868	303.256	426.631	0.0010791	0.00019649	6.7891e-05	499.39	9.4685e-07	2.3642e-06	687.12	174.03	4.6787e-06	4.1345e-06	292.81	112.6	65.506	22.29	2.8904e-06	43.851	4.3766e-05	3.7517e-05	1.0483e-05	412.27	4.0682e-07	4.0691e-07	635.18	159.48	4.1586e-07	4.0692e-07	254.3	98.787	56.869	19.851	4.1374e-07	38.031	326.889	142.380	161.966	91.556	335.311	216.715	91.103	95.611	182.672	201.601	94.063	97.795	99.237	103.253	191.655	101.250	-8191	255	
948.830	1	1	0	0	0.22237	0.22878	0.049124	0.10936	0.13808	0.19409	0.10878	0.27352	0.068407	0.20236	0.23192	0.071366	0.26768	0.098039	0.25343	0.23201	-2.2438	-2.3146	-2.2354	-2.7	-2.475	-2.4104	-2.7417	-2.3563	-2.7333	-2.6813	-2.4083	-2.6396	-2.5458	-2.3854	-2.7229	-2.3292	218.179	372.590	137.270	147.846	81.213	290.201	403.690	339.732	153.181	188.283	308.777	341.122	82.572	393.573	400.931	84.016	0.00091949	0.00021687	5.9311e-05	499.18	1.9966e-06	1.882e-06	681.74	174.08	1.5886e-06	1.4726e-06	291.17	111.64	65.061	22.166	2.4478e-06	43.99	4.3328e-05	3.7227e-05	1.0281e-05	410.58	4.0111e-07	4.0395e-07	630.01	158.69	4.1428e-07	4.0582e-07	252.83	98.511	56.603	19.79	4.0995e-07	38.063	324.716	156.388	102.103	92.046	270.985	186.446	91.000	95.331	167.726	191.681	94.324	98.033	98.917	103.315	220.325	101.693	-8191	255	
948.926	1	1	0	0	0.21678	0.17827	0.11788	0.10528	0.12635	0.17814	0.11902	0.060733	0.22012	0.030574	0.26146	0.16713	0.32353	0.26247	0.15108	0.12456	-2.0479	-2.5375	-2.3312	-2.6125	-2.4667	-2.2146	-2.7438	-2.4542	-2.6375	-2.525	-2.3542	-2.6646	-2.4021	-2.3688	-2.775	-2.4667	357.054	421.502	229.874	364.537	177.340	345.707	187.469	381.116	173.389	95.755	385.042	116.297	95.265	89.018	396.511	129.617	0.0010854	0.00026473	4.8326e-05	489.15	1.899e-06	1.3439e-06	676.2	171.76	4.0077e-06	2.198e-06	290.37	111.47	64.633	22.345	3.0828e-06	44.437	4.3019e-05	3.7406e-05	1.0302e-05	405	4.0465e-07	4.0385e-07	625.84	156.74	4.0173e-07	4.1341e-07	251.76	98.137	56.097	19.86	4.0975e-07	38.459	331.334	136.750	435.146	91.840	247.302	161.580	90.947	95.881	201.623	166.658	94.280	97.893	99.500	103.209	228.680	101.637	-8191	255	
949.047	1	1	0	0	0.1531	0.13826	0.11054	0.27005	0.17418	0.16854	0.24384	0.13653	0.14496	0.13377	0.12118	0.074242	0.20021	0.15913	0.095361	0.2676	-2.1521	-2.5167	-2.3146	-2.6021	-2.3958	-2.2917	-2.6646	-2.3542	-2.3167	-2.7458	-2.3021	-2.6396	-2.475	-2.3042	-2.7438	-2.3083	242.979	173.998	427.440	396.763	382.193	308.144	308.891	100.560	194.835	310.282	249.894	232.736	255.823	79.140	178.074	366.797	0.00095823	0.000319	8.9282e-05	490.7	3.43e-06	4.1873e-06	681.36	173.31	5.413e-06	1.4277e-06	292.49	112.61	65.6	22.277	3.6857e-06	44.42	4.4134e-05	3.7994e-05	1.0458e-05	405.95	4.1205e-07	4.1016e-07	630.77	158.06	4.1016e-07	4.1001e-07	253.65	98.941	56.535	19.883	4.0319e-07	38.427	325.295	131.909	432.524	91.482	227.731	239.075	91.414	95.824	179.676	199.386	94.151	97.957	99.339	103.618	190.735	101.440	-8191	255	
949.141	1	1	0	0	0.14321	0.23716	0.029959	0.015031	0.13091	0.157	0.17511	0.14673	0.15463	0.16058	0.26641	0.3072	0.061208	0.14119	0.17675	0.20145	-1.8146	-2.5187	-2.2167	-2.5917	-2.4479	-2.2146	-2.675	-2.4271	-2.3979	-2.4604	-2.3146	-2.5708	-2.625	-2.1917	-2.4729	-2.4938	140.622	405.504	285.112	324.117	268.617	345.180	330.001	330.965	103.906	394.547	368.046	230.944	96.544	278.004	265.944	415.433	0.0010254	0.00022788	5.8718e-06	493.64	3.2012e-06	1.2433e-06	684.95	174.7	4.4885e-06	1.4179e-06	292.35	112.61	65.778	22.396	4.1827e-06	44.168	4.3506e-05	3.6755e-05	1.0277e-05	407.95	4.0175e-07	4.0773e-07	631.68	159.18	4.1139e-07	4.0441e-07	254.11	99.1	57.115	19.94	4.0661e-07	38.307	324.587	186.545	98.824	91.475	270.481	144.509	91.182	95.522	178.113	201.193	94.137	97.544	99.188	103.429	210.633	101.775	-8191	255	
949.214	1	1	0	0	0.17845	0.17103	0.24907	0.14797	0.12652	0.17316	0.022124	0.1926	0.092485	0.27879	0.25624	0.091519	0.075895	0.29994	0.11737	0.1307	-2	-2.5333	-2.2604	-2.4917	-2.4208	-2.1667	-2.7042	-2.3542	-2.2396	-2.5604	-2.3542	-2.4313	-2.5479	-2.3479	-2.6437	-2.375	368.328	329.513	259.674	377.414	368.455	319.837	331.460	330.534	280.145	353.704	401.623	375.357	169.943	123.949	137.867	251.097	0.0011733	0.00045626	9.8032e-05	496.85	3.9762e-06	1.6313e-06	684.53	175.41	3.4208e-06	3.2879e-06	291.84	112.53	65.757	22.505	3.783e-06	44.208	4.48e-05	3.7227e-05	1.0364e-05	411.37	4.1601e-07	4.102e-07	634.46	159.82	4.1321e-07	4.1059e-07	253.85	99.252	57.053	20.029	4.1252e-07	38.355	326.302	134.334	132.801	91.685	242.114	265.466	91.217	95.926	197.322	194.220	93.897	98.007	99.061	103.210	199.312	101.452	-8191	255	
949.310	1	1	0	0	0.11134	0.098809	0.26346	0.021035	0.36353	0.1032	0.36052	0.017873	0.080776	0.091703	0.26376	0.11619	0.2679	0.043186	0.25849	0.089669	-1.8896	-2.5062	-2.4354	-2.25	-2.5	-2.3583	-2.5875	-2.4958	-2.375	-2.7292	-2.5292	-2.5104	-2.7833	-2.4208	-2.5833	-2.5125	285.170	278.319	196.321	101.363	98.385	130.062	412.034	342.952	395.305	315.948	305.705	251.475	80.968	273.403	224.135	357.979	0.00095218	0.00016401	6.72e-06	496.27	3.9536e-06	1.7084e-06	688.71	176.31	3.7303e-06	4.5553e-06	294.11	114.27	66.553	22.451	3.4599e-06	44.108	4.4949e-05	3.7352e-05	1.0292e-05	412.42	4.2182e-07	4.14e-07	638.06	160.45	4.255e-07	4.1682e-07	255.86	99.949	57.567	20.008	4.126e-07	38.444	319.027	190.985	151.849	91.561	213.580	205.804	91.273	95.770	213.437	248.223	94.433	97.750	98.804	103.180	178.827	101.454	-8191	255	
949.407	1	1	0	0	0.25715	0.1765	0.46176	0.27584	0.11238	0.18338	0.11949	0.38593	0.24963	0.10599	0.10557	0.22273	0.035164	0.081045	0.078106	0.062688	-1.825	-2.5687	-2.2125	-2.3354	-2.5438	-2.3604	-2.5667	-2.4417	-2.3417	-2.7958	-2.5604	-2.4979	-2.5438	-2.3375	-2.5167	-2.5333	161.077	418.178	143.641	132.343	219.081	89.332	369.097	357.265	398.491	309.801	411.445	162.650	355.462	173.895	84.921	336.429	0.001086	0.00023029	6.6567e-05	510.25	2.7936e-06	1.7723e-06	695.42	177.12	2.4801e-06	1.2373e-06	295.67	113.97	66.702	22.366	8.2825e-07	44.177	4.4811e-05	3.7521e-05	1.0881e-05	417.26	4.2305e-07	4.2027e-07	641.74	161.6	4.2696e-07	4.1739e-07	257.37	99.846	57.725	19.987	4.2368e-07	38.265	323.998	141.984	151.215	91.167	266.910	208.075	91.017	95.585	211.285	214.449	93.896	97.895	98.715	103.417	154.681	101.248	-8191	255	
949.526	1	1	0	0	0.026719	0.39346	0.20449	0.14946	0.27397	0.2107	0.2588	0.18087	0.083405	0.017226	0.032072	0.097221	0.073503	0.014666	0.095237	0.17332	-1.9146	-2.575	-2.2167	-2.3792	-2.7229	-2.3312	-2.6333	-2.6292	-2.3354	-2.6104	-2.5062	-2.525	-2.5646	-2.3875	-2.3292	-2.7562	120.122	131.847	167.462	383.344	260.536	83.331	391.060	206.626	356.139	115.954	422.144	220.861	386.914	117.323	234.506	185.020	0.0010318	8.8934e-05	5.3096e-05	499.55	1.8534e-06	1.9292e-06	688.45	175.32	2.6592e-06	9.9428e-07	294.25	113.75	66.481	22.312	2.2177e-06	44.062	4.4489e-05	3.761e-05	1.0538e-05	415.33	4.1547e-07	4.1751e-07	636.47	160.58	4.2142e-07	4.1823e-07	255.21	99.46	57.34	19.919	4.2321e-07	38.267	322.950	156.687	393.484	92.026	209.783	168.572	91.025	95.589	209.207	274.888	93.929	97.626	98.875	103.465	172.346	101.435	-8191	255	
949.622	1	1	0	0	0.2202	0.1666	0.31461	0.17286	0.14524	0.1696	0.16492	0.17768	0.15678	0.16333	0.076793	0.14213	0.15136	0.11303	0.35366	0.087191	-1.7271	-2.6437	-2.4167	-2.1667	-2.6312	-2.2833	-2.525	-2.7938	-2.3833	-2.6583	-2.6854	-2.325	-2.6688	-2.3354	-2.4583	-2.7792	112.873	103.781	305.192	304.324	303.627	97.129	336.668	204.564	338.321	315.472	236.664	401.550	174.634	254.410	407.263	383.616	0.0010175	0.00016919	5.4011e-05	498.39	1.2977e-06	2.1412e-06	688.46	175.28	2.5958e-06	2.63e-06	294.39	113.42	65.96	22.323	1.159e-06	44.249	4.4896e-05	3.8322e-05	1.0504e-05	413.44	4.0051e-07	4.1394e-07	635.56	160.4	4.182e-07	4.0488e-07	255.45	99.435	57.267	19.947	4.2353e-07	38.436	325.670	149.916	125.452	91.560	242.452	177.171	91.171	95.924	212.060	214.608	93.927	97.622	98.786	103.107	95.354	101.287	-8191	255	
949.718	1	1	0	0	0.24645	0.14064	0.20011	0.15325	0.23244	0.12166	0.14521	0.34057	0.062418	0.082449	0.19113	0.10565	0.21897	0.19991	0.17132	0.11796	-1.8896	-2.5625	-2.3646	-2.2354	-2.6979	-2.3229	-2.4854	-2.6417	-2.3042	-2.4625	-2.8021	-2.4708	-2.6354	-2.5583	-2.3521	-2.6042	234.068	288.049	168.775	400.461	419.688	173.778	323.534	334.885	288.769	344.033	396.474	358.215	437.084	146.412	355.117	142.616	0.0010211	0.0001677	8.0624e-05	500.28	2.1131e-06	2.9813e-06	692.64	175.74	2.1256e-06	1.0426e-06	293.51	114.24	66.503	22.434	4.4868e-06	44.234	4.4352e-05	3.7737e-05	1.0357e-05	413.51	4.0944e-07	4.1806e-07	638.28	160.5	4.1351e-07	4.0659e-07	255.77	99.925	57.404	19.979	4.2037e-07	38.331	323.587	209.906	111.646	91.708	219.716	264.111	91.215	95.647	205.267	185.108	93.975	97.544	98.966	103.299	195.882	101.415	-8191	255	
949.814	1	1	0	0	0.12173	0.086644	0.08542	0.09963	0.18238	0.28805	0.43555	0.22621	0.16223	0.17297	0.15236	0.22402	0.27009	0.20208	0.14691	0.17355	-1.8625	-2.5271	-2.525	-2.1583	-2.5854	-2.6	-2.5563	-2.5667	-2.4521	-2.4292	-2.5292	-2.3958	-2.7729	-2.4542	-2.3688	-2.6354	353.604	408.907	199.354	341.188	125.129	373.973	354.800	261.546	296.912	429.689	396.046	387.406	89.936	404.467	134.287	253.352	0.00094168	0.00017477	4.2894e-05	499.42	1.2151e-06	3.0653e-06	691.01	177.26	7.7351e-07	1.8361e-06	296.4	113.43	66.555	22.387	2.2197e-06	43.916	4.4223e-05	3.8253e-05	1.0396e-05	417.14	4.062e-07	4.141e-07	639.47	161.62	4.1966e-07	4.0807e-07	256.4	99.51	57.424	19.93	4.1045e-07	38.176	328.274	119.685	170.270	91.456	185.628	128.031	91.101	95.539	211.156	251.080	94.360	97.846	98.565	103.536	211.630	101.235	-8191	255	
949.910	1	1	0	0	0.1395	0.17727	0.13878	0.28187	0.11593	0.0051846	0.13281	0.059134	0.064392	0.028747	0.063209	0.15224	0.15907	0.27408	0.21509	0.09582	-2.0833	-2.4771	-2.6792	-2.325	-2.6542	-2.65	-2.5229	-2.6375	-2.2875	-2.6208	-2.7771	-2.3771	-2.5833	-2.5375	-2.3458	-2.7646	129.844	361.611	280.766	366.276	371.108	403.436	355.444	423.179	201.714	169.980	377.077	386.636	150.284	416.697	259.007	136.811	0.001002	0.00017863	7.3114e-05	500.03	6.4098e-07	2.5317e-06	689.07	176.01	3.5968e-06	2.0711e-06	294.78	113.44	66.232	22.423	2.1299e-06	44.152	4.4022e-05	3.7896e-05	1.0195e-05	413.5	4.0913e-07	4.0686e-07	638.26	160.73	4.1267e-07	4.0061e-07	255.95	99.729	57.507	19.976	4.0995e-07	38.299	322.193	162.829	166.876	91.090	291.745	181.415	91.054	95.520	234.987	190.508	93.781	97.838	98.932	103.246	159.193	101.343	-8191	255	
950.006	1	1	0	0	0.15382	0.19183	0.25814	0.1718	0.31728	0.2104	0.13208	0.1628	0.15424	0.23403	0.16158	0.36103	0.18065	0.1932	0.21839	0.28354	-1.8083	-2.3708	-2.5396	-2.4083	-2.4208	-2.5292	-2.4167	-2.8021	-2.6667	-2.55	-3.0542	-2.5812	-2.4437	-2.6208	-2.3896	-2.4771	349.298	389.544	240.704	409.217	283.979	219.948	381.781	402.577	347.820	273.973	212.662	404.996	154.646	307.107	424.570	370.099	0.00095471	0.00044588	4.0806e-05	508.06	4.2808e-06	1.8493e-06	694.55	177.8	1.6579e-06	7.0487e-07	296.63	113.57	66.32	22.382	3.461e-06	43.977	4.3921e-05	3.7689e-05	1.0339e-05	416.11	4.2003e-07	4.0787e-07	640.43	161.47	4.1907e-07	4.1022e-07	257.15	99.974	57.662	19.979	4.0221e-07	38.33	327.840	170.800	118.710	91.538	263.357	239.731	91.046	95.831	221.853	406.484	93.718	98.007	98.940	103.461	170.474	100.903	-8191	255	
950.127	1	1	0	0	0.31071	0.19828	0.085852	0.21658	0.09961	0.18197	0.024788	0.31269	0.13932	0.3339	0.11861	0.15188	0.115	0.30365	0.31186	0.14108	-1.9396	-2.2458	-2.6208	-2.5021	-2.5208	-2.7042	-2.25	-2.6146	-2.5187	-2.5187	-2.675	-2.45	-2.3812	-2.7542	-2.2625	-2.6521	110.780	252.536	276.865	137.016	88.553	161.238	201.566	365.880	171.891	247.742	300.124	80.148	338.678	100.939	210.193	317.756	0.0010553	0.00012479	4.4048e-05	500.2	2.8685e-06	2.1196e-06	695.27	176.67	1.9295e-06	1.8807e-06	295.71	113.55	66.853	22.277	3.6315e-06	43.956	4.4464e-05	3.7918e-05	1.0319e-05	415.87	4.1004e-07	4.0875e-07	640.82	161.62	4.1533e-07	4.1517e-07	256.48	99.632	57.867	19.858	4.0746e-07	38.152	324.767	131.793	151.269	91.679	206.783	159.963	90.712	95.433	161.825	161.129	93.713	97.948	98.824	103.435	169.459	101.303	-8191	255	
950.223	1	1	0	0	0.1624	0.20855	0.26647	0.34242	0.15863	0.1584	0.24161	0.28675	0.030118	0.08077	0.30186	0.17322	0.37066	0.19108	0.23431	0.060637	-2.0438	-2.2188	-2.575	-2.3854	-2.1521	-2.8042	-2.3104	-2.6104	-2.4521	-2.2438	-2.6042	-2.5958	-2.4313	-2.8021	-2.2667	-2.5438	151.534	235.025	287.092	295.095	232.156	168.719	383.966	302.079	431.742	417.398	380.153	389.026	426.447	344.902	142.883	129.975	0.00092071	0.00029044	4.0032e-05	500.81	1.184e-06	2.4595e-06	694.28	176.77	3.2467e-06	6.2322e-07	295.66	114.07	66.302	22.226	4.1935e-06	44.127	4.3617e-05	3.7426e-05	1.0129e-05	415.32	4.1285e-07	4.1066e-07	639.67	161.44	4.1479e-07	4.0922e-07	256.37	99.688	57.508	19.877	4.0113e-07	38.21	322.113	152.208	111.338	91.230	215.627	137.387	91.105	95.541	206.013	129.343	93.924	97.457	98.953	102.976	150.344	101.356	-8191	255	
950.319	1	1	0	0	0.097233	0.14668	0.087445	0.36026	0.086168	0.24127	0.21249	0.44703	0.23191	0.27688	0.17089	0.1911	0.1158	0.10556	0.27291	0.22475	-2.1292	-2.3542	-2.8312	-2.4437	-2.4083	-2.6458	-2.4042	-2.5583	-2.7333	-2.5708	-2.4917	-2.5812	-2.1729	-2.6458	-2.45	-2.5354	395.959	293.070	350.616	164.524	204.381	155.453	368.736	323.934	282.811	137.331	238.715	255.943	356.597	348.464	370.028	136.590	0.00096567	0.00017584	8.1265e-05	492.93	2.6179e-06	3.9129e-06	690.76	174.88	1.0105e-06	2.8979e-06	294.94	113.33	66.36	22.389	3.1538e-06	44.251	4.3811e-05	3.6782e-05	1.0248e-05	411.63	4.1287e-07	4.0262e-07	637.07	160.74	4.2057e-07	4.0447e-07	256.33	99.586	57.393	19.921	4.2038e-07	38.369	324.219	192.830	145.525	91.100	189.609	196.062	90.822	95.527	167.329	176.550	93.868	97.497	99.068	103.383	174.631	101.159	-8191	255	
950.438	1	1	0	0	0.24742	0.017136	0.25702	0.061267	0.1116	0.34634	0.12084	0.12339	0.13607	0.16297	0.04318	0.15306	0.057148	0.16539	0.12933	0.054391	-2.2917	-2.2313	-2.5646	-2.5833	-2.1813	-2.7021	-2.4333	-2.4875	-2.7687	-2.325	-2.7271	-2.7229	-2.2458	-2.7917	-2.2833	-2.3625	240.012	95.605	97.327	115.627	171.210	237.922	433.171	102.951	412.363	328.429	406.404	402.163	316.844	90.524	274.542	418.272	0.0010799	0.00014509	4.5611e-05	499.27	3.2073e-06	2.7558e-06	688.79	175.6	3.3233e-06	1.2151e-06	291.52	113.04	66.019	22.411	3.476e-06	44.254	4.4355e-05	3.729e-05	1.0328e-05	412.21	4.0913e-07	4.0698e-07	635.26	159.71	4.1444e-07	4.1262e-07	254.25	99.15	57.051	19.913	4.0201e-07	38.333	325.124	419.190	110.594	91.613	198.613	195.542	91.090	95.733	230.579	130.200	93.978	97.749	99.189	103.065	177.417	101.293	-8191	255	
950.510	1	1	0	0	0.068061	0.11331	0.081735	0.095989	0.20623	0.12947	0.17617	0.20073	0.1818	0.29174	0.18012	0.25371	0.082316	0.18525	0.25986	0.31087	-2.3146	-2.4271	-2.5125	-2.5646	-2.1604	-2.6417	-2.4521	-2.5187	-2.8312	-2.4375	-2.3729	-2.5833	-2.4667	-2.675	-2.6312	-2.4688	336.555	365.714	168.808	243.419	355.824	323.754	403.606	210.922	266.776	434.936	112.648	417.689	272.348	84.844	257.282	372.145	0.0010023	0.0003212	3.4401e-05	492.46	3.3184e-06	1.082e-06	685.87	173.62	2.0293e-06	2.1237e-06	293.09	112.52	65.681	22.317	3.1701e-06	44.189	4.4132e-05	3.7632e-05	1.0439e-05	408.26	4.1424e-07	3.9876e-07	631.86	158.86	4.0584e-07	4.1166e-07	254.01	98.917	57.051	19.886	4.1637e-07	38.347	324.745	155.498	80.837	91.847	216.172	129.071	91.102	95.848	172.379	221.544	93.977	97.724	98.951	103.441	223.998	101.460	-8191	255	
950.606	1	1	0	0	0.20047	0.17547	0.17655	0.12067	0.046135	0.20408	0.15971	0.34867	0.13502	0.16395	0.15299	0.22262	0.2386	0.14383	0.15384	0.082462	-2.2104	-2.4458	-2.3563	-2.5479	-2.1813	-2.6437	-2.6833	-2.3375	-2.7271	-2.4437	-2.4417	-2.4979	-2.2917	-2.5458	-2.5333	-2.3271	268.265	133.816	164.904	246.108	363.477	344.448	87.808	272.306	233.772	189.518	124.318	105.017	79.225	403.389	275.894	129.500	0.0010101	0.00029572	4.4621e-05	500.11	3.0898e-06	3.6816e-06	684.49	174.57	1.9915e-06	1.0521e-06	292.85	113.5	65.858	22.338	4.9171e-06	44.381	4.509e-05	3.785e-05	1.043e-05	413.47	4.2265e-07	4.0967e-07	633.22	159.41	4.1062e-07	4.1005e-07	253.83	99.328	56.832	19.887	4.1267e-07	38.419	326.663	156.881	158.153	91.214	268.268	193.405	91.175	95.737	240.715	192.145	93.874	97.752	98.626	103.321	189.661	101.376	-8191	255	
950.702	1	1	0	0	0.09938	0.19582	0.059567	0.11779	0.22054	0.21029	0.25993	0.25248	0.088137	0.10488	0.1422	0.035115	0.28482	0.086121	0.059378	0.12323	-2.1917	-2.3771	-2.2896	-2.8333	-2.4333	-2.6562	-2.6042	-2.5729	-2.5771	-2.6833	-2.6271	-2.7917	-2.4333	-2.4333	-2.6729	-2.4792	418.672	152.965	394.162	100.866	264.575	222.454	391.800	414.916	134.170	164.551	423.700	370.606	369.750	141.393	194.506	306.355	0.0011491	0.0002098	0.0001156	489.91	9.2606e-07	1.8982e-06	689.12	174.49	3.329e-06	1.0854e-06	293.27	112.92	65.754	22.179	9.9695e-07	44.251	4.3806e-05	3.7544e-05	1.0541e-05	408.48	4.1048e-07	4.0949e-07	635.49	159.46	4.1479e-07	4.1465e-07	254.74	99.134	56.776	19.869	4.1678e-07	38.318	326.850	180.905	114.028	91.157	303.454	204.925	91.057	96.143	189.801	197.336	93.572	97.704	99.111	103.335	168.915	101.419	-8191	255	
950.823	1	1	0	0	0.098426	0.04189	0.32906	0.23802	0.074665	0.15429	0.19513	0.10857	0.13759	0.10695	0.25591	0.096173	0.21706	0.028153	0.15094	0.1603	-2.1875	-2.6542	-2.3917	-2.575	-2.4583	-2.5667	-2.5583	-2.3292	-2.5187	-2.4021	-2.3812	-2.7854	-2.5125	-2.4229	-2.6104	-2.5292	78.325	112.945	277.430	94.274	332.276	381.890	275.638	293.291	337.006	319.496	394.578	391.018	236.623	167.834	260.526	267.835	0.00097889	0.00021541	7.6075e-05	493.77	1.9533e-06	1.4649e-06	682.79	172.93	4.1753e-06	2.0559e-06	288.72	112.67	65.045	22.233	4.0192e-06	43.86	4.3319e-05	3.7322e-05	1.0439e-05	407.71	4.0933e-07	4.1142e-07	630.05	157.9	4.1135e-07	4.0917e-07	252.18	98.375	56.363	19.835	4.1632e-07	38.194	318.977	127.889	140.151	91.426	226.162	206.347	91.353	95.633	218.823	196.075	94.409	97.928	98.844	103.440	190.154	101.356	-8191	255	
950.919	1	1	0	0	0.20281	0.19628	0.28077	0.10332	0.15507	0.38852	0.32923	0.17855	0.16841	0.2761	0.054739	0.16312	0.2626	0.14242	0.41087	0.09756	-1.9958	-2.6646	-2.3187	-2.6146	-2.4271	-2.3021	-2.8417	-2.6083	-2.5021	-2.7188	-2.4188	-2.6104	-2.4417	-2.3625	-2.7375	-2.4646	408.872	401.289	288.991	372.149	295.374	243.202	281.510	383.579	345.766	374.043	164.585	344.741	245.027	120.568	258.452	408.543	0.00096089	0.00026103	4.1437e-05	491.05	1.3178e-06	7.4589e-07	681.57	172.06	2.0617e-06	2.9979e-06	290.85	111.61	64.684	22.162	4.7063e-06	44.13	4.365e-05	3.7658e-05	1.0494e-05	406.53	4.0448e-07	4.1825e-07	628.24	157.68	4.0683e-07	4.0805e-07	252.43	98.281	56.161	19.812	4.0916e-07	38.314	324.344	120.482	120.419	91.292	213.477	249.627	91.192	95.829	199.876	233.702	94.016	97.852	98.992	103.799	208.601	101.647	-8191	255	
951.015	1	1	0	0	0.048463	0.092986	0.2026	0.12924	0.2801	0.31679	0.065025	0.24737	0.16194	0.17792	0.26295	0.37029	0.18711	0.22201	0.16412	0.075245	-2.1833	-2.6583	-2.4542	-2.6333	-2.4396	-2.4917	-2.8292	-2.4083	-2.7167	-2.7417	-2.3688	-2.6562	-2.7271	-2.3625	-2.6958	-2.3937	114.481	150.245	415.283	238.597	378.062	281.576	431.356	146.718	266.090	286.099	354.660	426.060	395.319	376.286	365.365	359.030	0.0010458	0.0002805	5.9197e-05	492.68	3.1577e-06	1.2033e-06	684.53	172.73	3.0444e-06	5.513e-07	290.89	112.44	64.507	22.129	4.41e-06	43.955	4.4195e-05	3.7067e-05	1.0482e-05	407.84	4.1091e-07	4.0629e-07	629.83	157.78	4.1923e-07	4.0335e-07	252.44	98.51	56.021	19.769	4.0993e-07	38.369	324.980	154.661	126.479	91.392	270.094	213.657	91.043	96.081	196.503	207.926	94.360	97.704	98.838	103.352	175.704	101.493	-8191	255	
951.087	1	1	0	0	0.087488	0.10548	0.26481	0.20487	0.12583	0.17472	0.17884	0.1302	0.20702	0.13722	0.1824	0.28367	0.29026	0.11723	0.22312	0.13793	-2.0958	-2.6521	-2.3937	-2.6042	-2.5667	-2.3396	-2.9083	-2.5083	-2.3063	-2.7479	-2.3875	-2.5187	-2.6729	-2.35	-2.7458	-2.5167	169.456	332.722	265.483	115.008	208.239	80.758	363.952	409.255	354.525	288.724	354.780	124.033	210.778	143.862	377.522	154.780	0.000913	0.00027907	5.9645e-05	491.78	3.4519e-06	2.6539e-06	680.9	172.53	1.7607e-06	1.6557e-06	290.12	112.17	64.739	22.181	2.3405e-06	43.932	4.4567e-05	3.812e-05	1.0359e-05	406.13	4.169e-07	4.1152e-07	629.41	157.68	4.198e-07	4.1198e-07	252.54	98.384	56.428	19.73	4.1542e-07	38.05	322.229	137.338	149.373	91.780	212.824	159.864	91.089	95.589	188.555	254.045	94.180	98.015	98.909	103.534	163.404	101.254	-8191	255	
951.207	1	1	0	0	0.2742	0.11739	0.1269	0.25273	0.19068	0.22597	0.083801	0.37455	0.04216	0.065885	0.15907	0.1438	0.17077	0.048324	0.14805	0.060811	-1.9937	-2.6188	-2.3479	-2.6208	-2.6437	-2.3354	-2.5333	-2.5521	-2.3083	-2.7958	-2.4417	-2.6771	-2.4771	-2.3187	-2.5479	-2.75	160.000	332.923	289.563	145.926	277.039	207.072	210.699	423.356	265.119	336.804	237.074	351.400	233.081	124.360	121.903	196.815	0.00097287	0.00019124	4.5948e-05	490.71	2.2829e-06	2.8562e-06	680.05	172.03	3.794e-06	2.108e-06	291.26	112.37	65.404	22.03	9.6549e-07	43.917	4.4981e-05	3.8509e-05	1.0607e-05	406.1	4.1245e-07	4.1173e-07	628.55	157.87	4.2228e-07	4.0817e-07	252.74	98.545	56.343	19.73	4.1911e-07	38.154	325.729	168.475	108.468	91.917	219.639	182.084	90.971	95.786	206.909	169.654	94.048	97.844	99.150	103.487	190.327	101.614	-8191	255	
#DATA ENDS
