BOXY.EXE: ISS Imagent and Oximeter Data Acquisition Program Version 0.80
Ascii Record File

#ACQ INFORMATION
2  Detector Channels 
16  External MUX Channels 
1  Auxiliary Channels 
5000  Waveform (CCF) Frequency (Hz)
1  Waveforms Skipped 
30  Waveforms Averaged 
1  Cycles Averaged 
16  Acquisitions per Waveform 
10.0806  Updata Rate (Hz) 

#FILE INFORMATION
TRUE -- External MUX Channel results are PARSED.
FALSE -- AC DC and Phase are NOT grouped.
TRUE -- Companion Program Settings File CREATED.
FALSE -- AC data not excluded
FALSE -- DC data not excluded
FALSE -- Phase data not excluded
FALSE -- Auxillary Chn. data not excluded
Tab delimiters

#CALIBRATION STATE
TRUE -- Waveform Calibration Values APPLIED.


#AUX CALIBRATION VALUES
Val Type	aux-1	

Term	1.0000e+00	
Factor	0.0000e+00	


#WF CALIBRATION VALUES
A = Detector Channel
Val Type	A-AC1	A-AC2	A-AC3	A-AC4	A-AC5	A-AC6	A-AC7	A-AC8	A-AC9	A-AC10	A-AC11	A-AC12	A-AC13	A-AC14	A-AC15	A-AC16	A-DC1	A-DC2	A-DC3	A-DC4	A-DC5	A-DC6	A-DC7	A-DC8	A-DC9	A-DC10	A-DC11	A-DC12	A-DC13	A-DC14	A-DC15	A-DC16	A-Ph1	A-Ph2	A-Ph3	A-Ph4	A-Ph5	A-Ph6	A-Ph7	A-Ph8	A-Ph9	A-Ph10	A-Ph11	A-Ph12	A-Ph13	A-Ph14	A-Ph15	A-Ph16	

Term	0.00000e+00	0.00000e+00	0.00000e+00	0.00000e+00	0.00000e+00	0.00000e+00	0.00000e+00	0.00000e+00	0.00000e+00	0.00000e+00	0.00000e+00	0.00000e+00	0.00000e+00	0.00000e+00	0.00000e+00	0.00000e+00	0.00000e+00	0.00000e+00	0.00000e+00	0.00000e+00	0.00000e+00	0.00000e+00	0.00000e+00	0.00000e+00	0.00000e+00	0.00000e+00	0.00000e+00	0.00000e+00	0.00000e+00	0.00000e+00	0.00000e+00	0.00000e+00	0.00000e+00	0.00000e+00	0.00000e+00	0.00000e+00	0.00000e+00	0.00000e+00	0.00000e+00	0.00000e+00	0.00000e+00	0.00000e+00	0.00000e+00	0.00000e+00	0.00000e+00	0.00000e+00	0.00000e+00	0.00000e+00	
Factor	1.00000e+00	1.00000e+00	1.00000e+00	1.00000e+00	1.00000e+00	1.00000e+00	1.00000e+00	1.00000e+00	1.00000e+00	1.00000e+00	1.00000e+00	1.00000e+00	1.00000e+00	1.00000e+00	1.00000e+00	1.00000e+00	1.00000e+00	1.00000e+00	1.00000e+00	1.00000e+00	1.00000e+00	1.00000e+00	1.00000e+00	1.00000e+00	1.00000e+00	1.00000e+00	1.00000e+00	1.00000e+00	1.00000e+00	1.00000e+00	1.00000e+00	1.00000e+00	X	X	X	X	X	X	X	X	X	X	X	X	X	X	X	X	

B = Detector Channel
Val Type	B-AC1	B-AC2	B-AC3	B-AC4	B-AC5	B-AC6	B-AC7	B-AC8	B-AC9	B-AC10	B-AC11	B-AC12	B-AC13	B-AC14	B-AC15	B-AC16	B-DC1	B-DC2	B-DC3	B-DC4	B-DC5	B-DC6	B-DC7	B-DC8	B-DC9	B-DC10	B-DC11	B-DC12	B-DC13	B-DC14	B-DC15	B-DC16	B-Ph1	B-Ph2	B-Ph3	B-Ph4	B-Ph5	B-Ph6	B-Ph7	B-Ph8	B-Ph9	B-Ph10	B-Ph11	B-Ph12	B-Ph13	B-Ph14	B-Ph15	B-Ph16	

Term	0.00000e+00	0.00000e+00	0.00000e+00	0.00000e+00	0.00000e+00	0.00000e+00	0.00000e+00	0.00000e+00	0.00000e+00	0.00000e+00	0.00000e+00	0.00000e+00	0.00000e+00	0.00000e+00	0.00000e+00	0.00000e+00	0.00000e+00	0.00000e+00	0.00000e+00	0.00000e+00	0.00000e+00	0.00000e+00	0.00000e+00	0.00000e+00	0.00000e+00	0.00000e+00	0.00000e+00	0.00000e+00	0.00000e+00	0.00000e+00	0.00000e+00	0.00000e+00	-1.15320e+02	-1.13317e+02	-1.29994e+02	-1.83860e+02	-5.53607e+01	-6.69762e+01	-1.56796e+02	-1.62015e+02	-7.26707e+01	-8.01106e+01	-1.74613e+02	-1.71537e+02	-1.87994e+02	-1.77576e+02	-5.10665e+01	-1.50685e+02	
Factor	1.77360e-05	1.02210e-04	3.89324e-05	1.81336e-01	1.20195e-06	1.16854e-06	1.66773e-01	5.86866e-02	9.45196e-07	1.15316e-06	9.31361e-02	3.32984e-02	6.25100e-02	9.88891e-03	1.24106e-06	1.38202e-02	1.42435e-06	1.50024e-06	4.16904e-07	9.28692e-02	1.63489e-08	1.64556e-08	8.04183e-02	3.00520e-02	1.64033e-08	1.65286e-08	4.58731e-02	1.65075e-02	3.06104e-02	5.03739e-03	1.64278e-08	6.80483e-03	X	X	X	X	X	X	X	X	X	X	X	X	X	X	X	X	



#DISTANCE SETTINGS
A = Detector Channel
A-1	A-2	A-3	A-4	A-5	A-6	A-7	A-8	A-9	A-10	A-11	A-12	A-13	A-14	A-15	A-16	

2.5000e+00	3.0000e+00	2.5000e+00	3.0000e+00	2.0000e+00	3.0000e+00	1.5000e+00	3.0000e+00	3.0000e+00	3.0000e+00	3.0000e+00	3.0000e+00	3.0000e+00	3.0000e+00	1.5000e+00	3.0000e+00	

B = Detector Channel
B-1	B-2	B-3	B-4	B-5	B-6	B-7	B-8	B-9	B-10	B-11	B-12	B-13	B-14	B-15	B-16	

1.0000e+01	1.0000e+01	1.0000e+01	1.4400e+00	1.0000e+01	1.0000e+01	1.5100e+00	1.9400e+00	1.0000e+01	1.0000e+01	1.9900e+00	2.4900e+00	2.4100e+00	2.9000e+00	1.0000e+01	2.9800e+00	




#DATA BEGINS
time	group	step	mark	flag	A-AC1	A-AC2	A-AC3	A-AC4	A-AC5	A-AC6	A-AC7	A-AC8	A-AC9	A-AC10	A-AC11	A-AC12	A-AC13	A-AC14	A-AC15	A-AC16	A-DC1	A-DC2	A-DC3	A-DC4	A-DC5	A-DC6	A-DC7	A-DC8	A-DC9	A-DC10	A-DC11	A-DC12	A-DC13	A-DC14	A-DC15	A-DC16	A-Ph1	A-Ph2	A-Ph3	A-Ph4	A-Ph5	A-Ph6	A-Ph7	A-Ph8	A-Ph9	A-Ph10	A-Ph11	A-Ph12	A-Ph13	A-Ph14	A-Ph15	A-Ph16	B-AC1	B-AC2	B-AC3	B-AC4	B-AC5	B-AC6	B-AC7	B-AC8	B-AC9	B-AC10	B-AC11	B-AC12	B-AC13	B-AC14	B-AC15	B-AC16	B-DC1	B-DC2	B-DC3	B-DC4	B-DC5	B-DC6	B-DC7	B-DC8	B-DC9	B-DC10	B-DC11	B-DC12	B-DC13	B-DC14	B-DC15	B-DC16	B-Ph1	B-Ph2	B-Ph3	B-Ph4	B-Ph5	B-Ph6	B-Ph7	B-Ph8	B-Ph9	B-Ph10	B-Ph11	B-Ph12	B-Ph13	B-Ph14	B-Ph15	B-Ph16	aux-1	digaux	

457.474	1	1	0	768	0.096825	0.14506	0.085102	0.22382	0.060361	0.07313	0.069763	0.12414	0.07434	0.16639	0.19306	0.093244	0.13859	0.34842	0.17662	0.10116	-3.8479	-3.4	-3.3354	-4.4042	-3.2979	-3.825	-4.1417	-3.3521	-4.0042	-3.9354	-3.6646	-4.2917	-3.4188	-3.7021	-4.0396	-3.55	99.932	387.284	414.954	364.744	98.505	121.684	436.553	406.603	430.640	324.199	424.620	424.227	380.278	375.294	151.479	354.710	0.00048175	0.00040297	0.00012777	1366	6.0606e-06	4.4415e-06	1359.6	365.69	3.1329e-07	4.2233e-06	421.2	139.69	122.3	41.637	1.1671e-05	51.656	0.00053093	0.00053386	0.00014735	1378.7	5.8055e-06	5.8157e-06	1375	372.87	5.8413e-06	5.8643e-06	426.92	142.5	123.93	42.736	5.7547e-06	52.915	180.105	378.532	118.363	90.773	240.936	295.056	90.584	95.374	132.719	262.156	94.873	99.327	99.523	104.368	239.902	103.436	-8191	255	
457.570	1	1	0	0	0.11376	0.024312	0.22011	0.049514	0.14294	0.14618	0.014326	0.068452	0.041578	0.094673	0.18333	0.25514	0.26567	0.069422	0.14145	0.10655	-3.8417	-3.7646	-3.4417	-4.1896	-3.5229	-3.7292	-4.275	-3.2438	-4.0479	-3.9958	-3.4896	-4.1792	-3.4458	-3.6854	-3.9042	-3.3083	92.529	163.842	200.464	432.092	208.208	363.839	126.231	418.022	137.284	240.076	352.816	333.912	409.745	368.989	412.028	79.295	0.00049539	0.00023402	3.1623e-05	1364.2	6.8294e-06	5.2225e-06	1360.5	368.22	7.9677e-06	3.6068e-06	420.97	139.59	121.1	41.749	2.8506e-06	51.629	0.00051591	0.0005167	0.00014394	1378.9	5.6497e-06	5.6401e-06	1375	374.02	5.569e-06	5.5784e-06	426.95	142.32	123.55	42.681	5.5111e-06	52.833	169.651	148.152	191.890	90.917	224.683	249.793	90.504	95.369	266.329	333.595	94.898	99.451	100.147	104.534	210.188	103.506	-8191	255	
457.666	1	1	0	0	0.095261	0.12887	0.20675	0.19167	0.15872	0.19697	0.1709	0.1325	0.19911	0.10485	0.10272	0.3076	0.27713	0.13853	0.23203	0.15186	-3.7313	-3.9437	-3.1146	-4.375	-3.6583	-3.4313	-4.3604	-3.3875	-3.8271	-3.9375	-3.4708	-4.1417	-3.5958	-3.6833	-3.9708	-3.4	118.071	211.874	219.547	417.811	305.808	102.273	327.474	308.518	97.110	206.864	222.113	373.486	365.383	156.424	286.356	171.213	0.00045946	0.00042127	0.00011298	1360.4	3.4232e-06	1.7262e-06	1356.4	368.92	6.8299e-06	3.7653e-06	421.14	139.63	121.42	41.921	3.6405e-06	51.785	0.00050832	0.00050174	0.00014106	1374.7	5.4974e-06	5.5077e-06	1372.2	373.94	5.4831e-06	5.4628e-06	426.97	142.36	123.42	42.79	5.4258e-06	52.843	185.595	145.482	127.589	90.937	262.435	366.742	90.793	95.286	251.411	167.179	94.911	99.400	99.956	104.581	292.760	103.524	-8191	255	
457.763	1	1	0	0	0.016258	0.32778	0.26816	0.084109	0.1224	0.35605	0.19816	0.2274	0.075463	0.28036	0.1917	0.037093	0.21884	0.23273	0.29919	0.22267	-3.4417	-4.1896	-3.3146	-4.1625	-3.5708	-3.4792	-4.5229	-3.5292	-3.6354	-4.1875	-3.2938	-4.0167	-3.7542	-3.2562	-4.1813	-3.4813	372.945	99.999	215.118	389.562	152.225	327.434	377.318	139.339	294.604	375.491	383.931	370.021	328.282	357.900	347.778	436.407	0.00041663	0.00027397	0.00012788	1363.3	2.7325e-06	4.4716e-06	1358.5	366.98	4.109e-06	1.3883e-06	419.74	139.11	121.61	41.569	1.0275e-05	51.706	0.00050341	0.00049602	0.00013921	1378.3	5.5439e-06	5.6119e-06	1373.5	373.17	5.6247e-06	5.6245e-06	426.52	142.34	123.54	42.628	5.627e-06	52.877	182.051	222.076	131.485	90.789	217.476	151.590	90.770	95.354	207.226	385.278	94.882	99.236	99.766	104.484	241.690	103.366	-8191	255	
457.859	1	1	0	0	0.11073	0.16564	0.23572	0.23185	0.11624	0.11662	0.22118	0.29696	0.15576	0.078904	0.24837	0.11014	0.20122	0.22624	0.16279	0.041868	-3.2854	-4.2042	-3.4021	-4.0833	-3.8438	-3.3771	-4.4458	-3.4771	-3.5208	-4.0938	-3.4708	-4.0292	-3.8688	-3.4583	-3.9521	-3.4333	80.879	97.507	424.970	412.566	127.398	250.031	341.730	383.177	174.859	391.598	289.019	434.734	362.688	108.585	262.365	381.324	0.00039224	0.00032811	0.00035345	1357.1	3.417e-06	4.5809e-06	1357.4	368.05	5.3718e-06	2.9045e-06	419.46	139.46	120.98	41.643	2.6984e-06	51.729	0.00052209	0.00052074	0.00014488	1376.3	5.6668e-06	5.7004e-06	1375.2	372.97	5.729e-06	5.7563e-06	426.77	142.18	123.4	42.678	5.7283e-06	52.895	192.457	211.793	176.812	90.838	295.976	178.486	90.733	95.390	259.803	236.972	94.551	99.259	100.319	104.294	293.910	103.568	-8191	255	
457.955	1	1	0	0	0.16945	0.091077	0.060156	0.26531	0.071908	0.2849	0.11291	0.23978	0.14022	0.14161	0.16244	0.11362	0.16689	0.15557	0.046191	0.17156	-3.1667	-4.3375	-3.2979	-4.0875	-3.8646	-3.2583	-4.2833	-3.7042	-3.2521	-4.1729	-3.2625	-3.9333	-4.0979	-3.2812	-4.0208	-3.7313	369.674	434.657	398.676	405.320	162.029	343.224	342.561	410.832	273.233	258.147	413.303	398.526	343.370	377.484	164.674	124.871	0.0004879	7.9674e-05	9.4574e-05	1366.1	4.0858e-06	4.9436e-06	1360.3	366.9	3.1051e-06	3.4701e-06	419.24	139.15	121.71	41.968	7.3635e-06	51.469	0.00052197	0.00052064	0.00014451	1377.5	5.6557e-06	5.7017e-06	1374.9	372.94	5.6471e-06	5.6594e-06	425.61	142.16	123.32	42.773	5.5176e-06	52.805	178.426	392.890	156.394	90.861	253.258	218.542	90.724	95.342	261.143	245.013	94.825	99.278	100.003	104.260	255.988	103.534	-8191	255	
458.074	1	1	0	0	0.19773	0.082208	0.0082204	0.066418	0.062902	0.31729	0.44976	0.013815	0.16767	0.24329	0.38228	0.26284	0.058356	0.34317	0.073496	0.1347	-3.1125	-4.2688	-3.4313	-3.8042	-3.9271	-3.2167	-4.025	-4.0292	-3.3438	-4.0396	-3.5229	-3.7292	-4.325	-3.3812	-3.8833	-3.9625	323.428	85.799	373.778	327.100	340.112	421.996	361.629	152.675	234.839	111.642	337.552	434.880	246.637	367.536	154.201	422.515	0.00040495	0.00034873	0.00021912	1359.7	3.6069e-06	1.5768e-06	1361.6	368.25	5.7459e-06	2.3912e-06	420.3	139.34	122.69	41.685	3.2349e-06	51.519	0.00050452	0.00050086	0.00013957	1375.6	5.4722e-06	5.4737e-06	1375.9	373.45	5.4676e-06	5.4543e-06	426.27	142.13	123.6	42.695	5.4072e-06	52.82	178.427	411.228	195.855	90.754	266.275	137.504	90.678	95.363	215.405	271.653	94.942	99.315	99.704	104.277	303.863	103.559	-8191	255	
458.170	1	1	0	0	0.18845	0.19019	0.019529	0.15599	0.078436	0.0144	0.067147	0.10171	0.34192	0.21164	0.25517	0.12318	0.11907	0.065599	0.23776	0.058265	-3.1833	-4.1937	-3.4479	-3.6688	-4.0146	-3.2167	-4.0521	-4.0917	-3.175	-4.0729	-3.7208	-3.7188	-4.2708	-3.2812	-3.8167	-3.9021	361.658	349.737	366.397	343.331	261.864	82.982	138.278	390.219	143.655	323.390	337.231	94.814	409.557	140.107	308.559	432.340	0.00047037	0.00059678	8.9997e-05	1365.6	5.563e-06	5.5771e-06	1363.5	368.97	4.0572e-06	2.1604e-06	420.87	139.61	121.27	41.99	6.7314e-06	51.702	0.00049684	0.00049719	0.00013751	1378.7	5.433e-06	5.4504e-06	1377.5	373.83	5.4929e-06	5.4523e-06	426.53	142.56	123.25	42.806	5.4334e-06	52.818	179.847	182.742	127.122	90.751	223.653	202.678	90.822	95.374	261.654	180.390	94.896	99.373	99.711	104.339	217.443	103.620	-8191	255	
458.266	1	1	0	0	0.23801	0.23989	0.11966	0.10799	0.24028	0.090538	0.13109	0.11672	0.13089	0.066433	0.25322	0.066705	0.18039	0.16423	0.063862	0.28065	-2.8812	-4.1458	-3.7042	-3.4125	-4.1792	-3.4021	-4.0062	-4.0604	-3.1167	-3.9167	-3.6312	-3.3208	-4.3229	-3.4313	-3.7062	-4.1354	270.219	260.364	245.267	354.782	251.006	131.685	254.200	312.429	248.189	304.921	433.564	103.242	147.264	120.807	433.909	381.662	0.00054332	0.00032683	4.9162e-05	1366.5	3.0258e-06	7.729e-06	1360.1	366.79	6.2345e-06	5.2641e-06	422.73	138.65	121.14	41.804	4.5832e-06	51.376	0.00049567	0.00049716	0.00013712	1378.4	5.4224e-06	5.4688e-06	1375.5	372.89	5.5898e-06	5.5702e-06	426.81	141.81	123.3	42.653	5.7425e-06	52.601	178.660	141.414	154.516	90.796	274.397	218.962	90.799	95.223	236.531	244.295	94.768	99.632	99.601	104.506	187.394	103.475	-8191	255	
458.362	1	1	0	0	0.28935	0.4056	0.072904	0.095563	0.060005	0.086067	0.13017	0.16053	0.094771	0.061872	0.23192	0.35626	0.064427	0.32164	0.37645	0.19503	-2.8937	-3.9021	-3.6854	-3.4458	-4.1396	-3.2875	-3.7812	-4.0167	-3.3312	-4.0625	-3.9708	-3.5	-4.1083	-3.5792	-3.4313	-4.225	198.147	285.201	379.410	371.706	270.688	409.556	105.491	384.079	149.225	189.307	88.873	418.970	377.759	403.460	264.453	138.983	0.00043871	0.00040964	0.00024041	1356.8	7.2333e-06	3.9746e-06	1356.7	367.41	1.9127e-06	4.9004e-06	419.44	138.94	120.69	41.787	2.8472e-06	51.71	0.00052316	0.00052927	0.00014631	1374.6	5.8467e-06	5.845e-06	1374	372.9	5.8698e-06	5.8805e-06	426.19	142.02	123.51	42.648	5.8776e-06	52.859	174.905	207.587	109.152	90.713	232.818	238.573	90.681	95.386	259.493	206.177	94.600	99.488	100.207	104.268	255.445	103.371	-8191	255	
458.458	1	1	0	0	0.16164	0.16129	0.08308	0.19578	0.22698	0.22321	0.095573	0.11094	0.19083	0.063304	0.1363	0.23017	0.14251	0.045815	0.13572	0.37085	-3.0625	-3.8979	-3.6417	-3.275	-4.1188	-3.6667	-3.7521	-4.3562	-3.1583	-3.7687	-4.0292	-3.4229	-4.1375	-3.6271	-3.1333	-4.1854	398.443	169.789	85.152	410.451	147.240	339.089	342.522	384.127	205.777	254.659	409.413	330.749	121.241	105.226	267.347	394.660	0.00036915	0.00061733	0.00028709	1366.1	3.2387e-06	6.8333e-06	1366.2	367.49	4.8738e-06	5.1627e-06	420.72	139.05	121.58	41.659	4.4711e-07	51.549	0.00053079	0.00052734	0.00014741	1382.1	5.8178e-06	5.7961e-06	1380	374.33	5.8014e-06	5.7814e-06	427.34	142.36	123.75	42.704	5.7945e-06	52.835	183.892	199.738	178.716	90.791	261.225	200.056	90.725	95.534	234.299	306.792	94.739	99.013	99.750	104.273	188.295	103.390	-8191	255	
458.554	1	1	0	0	0.033059	0.073999	0.23358	0.17094	0.16672	0.029288	0.29646	0.19526	0.1523	0.29744	0.27865	0.25719	0.19893	0.22919	0.15834	0.20795	-2.8917	-3.8167	-3.9854	-3.3792	-4.0188	-3.6208	-3.6542	-4.4208	-3.1937	-3.6	-4.2021	-3.3187	-4.0625	-3.9	-3.25	-4.3479	285.902	399.123	272.682	358.993	158.719	319.853	381.100	347.498	92.683	213.647	381.683	397.130	388.935	85.133	296.672	395.388	0.00043302	0.00016723	9.7607e-05	1362	3.7876e-07	6.2251e-06	1361.8	368.53	3.3377e-06	2.3541e-06	420.27	138.89	121.52	41.6	2.7051e-06	51.932	0.00052741	0.00052036	0.00014538	1379.8	5.6895e-06	5.6149e-06	1378.1	374.36	5.5512e-06	5.5315e-06	426.64	141.99	123.46	42.618	5.4452e-06	52.833	177.145	211.065	193.165	90.712	225.199	145.077	90.748	95.280	266.470	244.153	94.757	99.303	100.549	104.292	250.318	103.542	-8191	255	
458.675	1	1	0	0	0.074531	0.24729	0.077976	0.15811	0.066775	0.27816	0.15311	0.27958	0.025209	0.21519	0.056126	0.35964	0.041185	0.16091	0.048176	0.10348	-2.9917	-3.4354	-4.1625	-3.4	-4	-3.9625	-3.5958	-4.2167	-3.5062	-3.5833	-4.2771	-3.3583	-3.7208	-3.9646	-3.1396	-4.2188	436.298	321.956	348.147	390.838	143.224	248.720	320.225	431.260	130.527	424.638	403.259	349.202	262.378	142.798	162.564	417.355	0.00038581	0.00024919	7.9921e-05	1364.9	5.7876e-06	6.9921e-06	1367	369.27	8.1507e-06	5.66e-06	422.57	138.79	122.21	41.674	6.2593e-06	51.858	0.00049919	0.00049408	0.00013784	1380.6	5.4604e-06	5.4029e-06	1379.9	374.84	5.4511e-06	5.5125e-06	427.32	142.18	123.71	42.626	5.5664e-06	52.86	181.438	209.888	122.660	90.756	212.075	297.258	90.609	95.365	207.159	241.207	94.876	99.366	100.254	104.226	225.539	103.641	-8191	255	
458.769	1	1	0	0	0.2324	0.091772	0.18821	0.16388	0.20198	0.23775	0.25083	0.10538	0.25357	0.085348	0.10549	0.13045	0.10526	0.15849	0.066677	0.091835	-3.325	-3.4604	-4.0083	-3.3333	-3.8438	-3.9583	-3.4188	-4.2708	-3.5708	-3.2479	-4.2417	-3.4479	-3.6979	-4.1104	-3.3375	-4.1417	350.816	137.410	371.291	423.355	387.444	410.964	357.725	322.261	152.401	248.067	374.627	227.805	399.610	404.377	207.830	399.856	0.00044354	0.00043041	9.2403e-05	1371.5	1.945e-06	2.9935e-06	1368.5	369.97	6.1948e-06	2.9856e-06	423.49	139.68	121.95	41.711	2.0648e-06	51.455	0.00051318	0.00051441	0.00014331	1385.8	5.6481e-06	5.6117e-06	1383.3	375.33	5.6898e-06	5.6929e-06	427.76	142.77	124.06	42.791	5.6968e-06	52.918	179.119	137.200	197.296	90.639	328.034	214.965	90.541	95.364	266.012	220.984	94.742	99.314	100.380	104.151	209.932	103.373	-8191	255	
458.866	1	1	0	0	0.1149	0.032991	0.18034	0.016663	0.077374	0.24422	0.35768	0.31686	0.24825	0.19685	0.18484	0.085455	0.030339	0.16596	0.15102	0.27179	-3.3563	-3.3792	-4.1042	-3.6125	-3.4792	-4.0896	-3.3333	-3.9958	-3.7625	-3.3125	-4.1708	-3.6792	-3.5438	-4.0979	-3.1667	-4.2021	375.613	363.298	390.011	88.015	409.908	304.287	363.302	413.840	81.153	241.639	383.369	158.215	343.850	431.113	359.642	336.554	0.00044664	9.781e-05	7.7085e-05	1365.1	7.3376e-06	5.8041e-06	1368.1	369.69	2.8712e-06	7.0294e-06	420.97	139.12	121.69	41.741	7.099e-06	51.797	0.00052436	0.00051714	0.00014468	1383.4	5.6807e-06	5.6901e-06	1381.8	375.33	5.6831e-06	5.6972e-06	427.89	142.51	123.79	42.77	5.5962e-06	52.898	174.692	170.606	91.241	90.638	185.023	265.329	90.731	95.682	205.719	205.143	94.977	99.283	100.152	104.199	247.318	103.742	-8191	255	
458.962	1	1	0	0	0.27252	0.10746	0.070824	0.16908	0.27003	0.10002	0.30271	0.034997	0.082717	0.11217	0.082842	0.27867	0.10098	0.14835	0.050269	0.051239	-3.6958	-3.2792	-4.1542	-3.7458	-3.5104	-4.1458	-3.0917	-3.9437	-3.8646	-3.2479	-4.3542	-3.6271	-3.4917	-4.1354	-3.1229	-3.8646	246.733	78.350	177.633	334.485	260.758	193.746	352.548	351.448	313.010	83.944	199.349	437.032	410.144	269.084	143.786	82.128	0.00054434	0.00070956	6.56e-05	1371.2	4.6973e-06	6.7693e-06	1360.7	369.79	4.0421e-06	5.9976e-06	421.18	139.26	120.81	41.604	7.5472e-06	51.766	0.0005048	0.00051036	0.0001419	1380	5.5714e-06	5.543e-06	1377.2	374.3	5.5095e-06	5.5356e-06	426.43	142.03	123.25	42.664	5.5376e-06	52.823	185.318	224.694	242.989	90.617	237.175	176.624	90.709	95.354	235.186	142.435	94.735	99.206	100.542	103.983	232.429	103.439	-8191	255	
459.035	1	1	0	0	0.19245	0.19513	0.016326	0.33155	0.097181	0.13103	0.15662	0.47581	0.19378	0.098815	0.15987	0.3339	0.14444	0.17196	0.1208	0.25061	-3.5583	-3.1063	-4.025	-3.8917	-3.3625	-4.0896	-3.3604	-3.6437	-3.9396	-3.2833	-4.0083	-3.7313	-3.5458	-4.3667	-3.45	-3.6354	426.682	393.265	242.595	405.344	238.035	277.853	399.297	404.253	144.346	238.517	241.872	324.619	348.473	148.471	289.482	221.478	0.0004321	0.00026031	0.00010162	1359.5	6.1581e-06	2.406e-06	1355.4	369.75	4.7694e-06	6.9676e-06	422.74	140.06	122.53	41.951	6.7482e-06	51.898	0.00050679	0.00050626	0.00013999	1377.8	5.5112e-06	5.5326e-06	1374.1	374.35	5.5555e-06	5.5655e-06	427.57	142.35	123.86	42.711	5.5985e-06	52.882	182.390	203.159	188.349	90.621	265.250	223.803	90.502	95.529	269.706	229.045	94.883	99.440	99.639	104.278	276.931	103.779	-8191	255	
459.154	1	1	0	0	0.069411	0.03568	0.011789	0.22065	0.15392	0.087824	0.20738	0.26023	0.21808	0.26569	0.19529	0.13403	0.27744	0.13653	0.25816	0.2641	-3.6646	-3.1354	-3.9958	-4.0479	-3.275	-4.2063	-3.4875	-3.6104	-4.2979	-3.4104	-4.1146	-3.975	-3.2417	-4.0375	-3.4729	-3.65	419.894	184.847	113.366	399.740	230.438	141.763	287.301	383.150	112.757	428.935	89.414	118.441	332.981	380.520	292.111	175.982	0.00053304	0.00033322	3.9411e-05	1371.8	7.7212e-06	1.7571e-06	1360.4	368.53	2.2861e-06	2.5867e-06	422.47	139.37	122.06	41.936	6.1294e-06	51.869	0.00050925	0.00050883	0.00014156	1382.3	5.5393e-06	5.5074e-06	1377.8	374.64	5.5079e-06	5.4948e-06	427.21	142.47	123.6	42.789	5.4585e-06	52.991	179.074	250.933	339.449	90.740	273.939	241.904	90.739	95.750	262.208	128.004	94.845	99.411	100.249	104.241	226.424	103.596	-8191	255	
459.250	1	1	0	0	0.069637	0.10588	0.10897	0.29634	0.042452	0.093868	0.47575	0.11315	0.08316	0.046001	0.16382	0.075883	0.094335	0.093116	0.21246	0.048493	-3.7938	-3.1083	-3.5521	-4.0604	-3.15	-4.075	-3.7667	-3.4396	-4.075	-3.1875	-3.8854	-4.1125	-3.1458	-4.1438	-3.5021	-3.4771	281.306	169.009	327.611	370.410	279.917	344.847	368.756	404.642	278.235	294.705	411.933	376.433	137.432	195.120	236.797	296.782	0.00040763	0.00035579	0.0002456	1364.8	5.1811e-06	2.7221e-06	1363	369.89	1.6809e-06	1.318e-06	421.31	140.33	121.36	41.95	5.8344e-06	51.892	0.00049703	0.00049782	0.00013798	1378.4	5.411e-06	5.3727e-06	1378.6	375.01	5.3758e-06	5.3281e-06	427.48	142.64	123.46	42.78	5.3047e-06	52.875	177.320	186.286	214.063	90.916	231.899	159.482	90.861	95.450	240.142	131.562	94.880	99.433	100.402	104.407	249.636	103.534	-8191	255	
459.346	1	1	0	0	0.04838	0.08513	0.12592	0.2727	0.14658	0.089457	0.23075	0.17266	0.19586	0.23039	0.18711	0.14518	0.26043	0.18608	0.26483	0.28996	-3.7438	-3.3042	-3.7396	-4.2188	-3.0938	-4.1417	-4.0208	-3.4729	-4.0646	-3.3521	-3.7396	-3.9271	-3.1979	-4.0979	-3.7146	-3.2875	154.426	434.381	122.945	79.336	215.866	251.164	371.635	308.828	219.228	342.077	91.533	366.953	169.240	230.376	81.604	305.819	0.00042202	0.0001412	0.00020185	1362.8	4.8535e-06	1.9834e-07	1359.4	371.36	1.7479e-06	3.6879e-06	421.96	139.95	121.52	42.052	6.3926e-06	52.054	0.00048365	0.00048023	0.00013391	1376.2	5.2598e-06	5.2214e-06	1373.2	375.16	5.3015e-06	5.2666e-06	427.26	142.4	122.96	42.804	5.176e-06	52.967	183.162	156.075	157.134	90.896	227.913	168.285	90.747	95.447	159.294	229.387	94.762	99.113	100.375	104.639	208.469	103.793	-8191	255	
459.443	1	1	0	0	0.16895	0.07778	0.091185	0.28232	0.113	0.2523	0.20932	0.29424	0.13975	0.16011	0.12208	0.29133	0.22157	0.081901	0.32113	0.14093	-3.7646	-3.4354	-3.4354	-4.2396	-3.25	-3.8625	-3.9042	-3.5083	-4.0833	-3.5646	-3.6396	-4.0917	-3.2687	-3.8354	-3.925	-3.2938	135.217	140.063	261.695	376.617	360.633	374.219	423.373	381.126	404.577	409.560	436.871	428.765	408.905	258.629	436.093	336.970	0.00048996	0.0003293	5.9127e-05	1365	4.4508e-06	3.3947e-06	1360	370.13	4.7435e-06	5.8683e-06	422.44	140.62	121.5	41.983	5.7732e-06	51.762	0.00047345	0.00047499	0.00013072	1376.5	5.1675e-06	5.1461e-06	1372.7	374.98	5.1735e-06	5.2295e-06	427.26	142.57	123.15	42.743	5.1435e-06	52.742	186.316	180.915	119.945	90.944	373.386	330.105	90.696	95.639	205.045	247.261	95.293	99.565	100.190	104.582	224.595	103.749	-8191	255	
459.563	1	1	0	0	0.06641	0.17577	0.064739	0.14116	0.1793	0.20083	0.29272	0.19038	0.27772	0.18883	0.1007	0.15056	0.1575	0.14287	0.033768	0.26676	-3.6917	-3.4458	-3.2146	-4.225	-3.375	-3.7042	-4.1604	-3.2542	-4.0854	-3.6396	-3.6292	-4.1479	-3.275	-3.6	-4.0333	-3.2021	289.569	360.082	356.451	194.378	361.177	402.001	424.727	350.021	167.356	316.133	123.119	359.270	159.439	381.812	426.238	416.182	0.00047816	0.00012206	7.7807e-05	1361	3.4982e-06	5.3701e-06	1360.5	368.65	6.4273e-06	1.0775e-06	420.35	140.08	121.71	41.85	1.7523e-06	51.66	0.0004752	0.00047323	0.00012995	1372.5	5.1707e-06	5.1777e-06	1370.7	374.35	5.1482e-06	5.2149e-06	425.79	142.39	123.06	42.643	5.1314e-06	52.84	182.517	245.892	79.891	91.046	251.419	192.296	90.737	95.579	248.646	155.759	94.835	99.786	100.063	104.489	158.173	103.702	-8191	255	
459.635	1	1	0	0	0.14633	0.22447	0.058827	0.38243	0.31326	0.18186	0.26534	0.22739	0.0751	0.18583	0.086646	0.19124	0.11804	0.40466	0.050446	0.24068	-3.4938	-3.5125	-3.2	-4.3896	-3.3854	-3.6208	-4.2562	-3.3125	-3.65	-3.7	-3.3917	-4.0521	-3.3958	-3.5292	-4.0229	-3.2229	227.145	96.073	140.838	83.569	418.530	396.336	371.258	397.776	436.436	433.175	288.518	113.820	328.205	397.375	351.860	412.155	0.0004728	0.00018862	0.0001697	1363.8	6.4206e-06	1.1653e-05	1359.9	369.64	5.4467e-06	4.1148e-06	420.31	140.07	122	42.102	5.0267e-06	51.898	0.00047113	0.00046661	0.00012958	1375.6	5.1376e-06	5.0905e-06	1373.7	374.52	5.1857e-06	5.1646e-06	425.79	142.3	123.14	42.821	5.2323e-06	52.846	184.048	188.153	115.951	90.994	213.991	264.046	90.868	95.500	227.128	205.329	95.027	99.650	99.907	104.412	273.221	103.558	-8191	255	
459.755	1	1	0	0	0.049506	0.090557	0.18228	0.098701	0.18902	0.11939	0.24337	0.12182	0.14457	0.38999	0.11839	0.094763	0.16256	0.17201	0.10565	0.075106	-3.4271	-3.7812	-3.2354	-4.1979	-3.4104	-3.4146	-4.3146	-3.3542	-3.8083	-3.7625	-3.2729	-4.0104	-3.2938	-3.2604	-4.1083	-3.45	268.144	247.991	83.823	391.212	253.834	211.004	366.862	405.925	259.936	414.279	345.536	363.616	321.464	363.992	78.702	155.165	0.00046012	0.00016916	0.000117	1360.6	5.7074e-06	5.8707e-06	1356.9	369.87	3.4642e-06	5.2979e-06	418.58	139.67	121.95	41.807	4.0952e-06	51.695	0.00048105	0.00047649	0.00013311	1373.2	5.247e-06	5.2741e-06	1371.7	374.12	5.2923e-06	5.2765e-06	425.78	142.3	123.19	42.692	5.255e-06	52.686	178.815	431.488	176.498	90.955	286.025	222.580	91.059	95.735	170.261	290.113	94.911	99.799	100.291	104.416	193.874	103.506	-8191	255	
459.852	1	1	0	0	0.05366	0.11583	0.20823	0.32923	0.092947	0.12398	0.25892	0.28149	0.17299	0.24252	0.042912	0.086377	0.19485	0.048637	0.10346	0.25488	-3.3167	-3.7313	-3.1479	-4.2208	-3.8208	-3.2521	-4.2083	-3.4979	-3.6979	-4.0833	-3.3979	-4.3271	-3.7792	-3.4979	-4.1375	-3.4458	263.835	399.850	122.734	85.568	198.232	417.823	385.499	376.287	205.440	251.505	351.236	367.922	332.794	418.168	296.815	334.737	0.00044397	4.8544e-05	0.00025709	1365	3.4952e-06	5.4524e-06	1351.6	368.63	5.5237e-06	1.9395e-06	422.6	139.07	121.12	41.832	3.9034e-06	51.736	0.00048003	0.00047471	0.00013219	1374.5	5.2153e-06	5.263e-06	1369	373.97	5.2216e-06	5.2072e-06	426.42	141.84	122.87	42.691	5.1664e-06	52.818	186.253	344.539	186.200	91.000	179.134	224.627	90.880	95.637	221.529	262.626	95.321	99.542	100.125	104.503	216.261	103.852	-8191	255	
459.946	1	1	0	0	0.024326	0.21454	0.085482	0.32896	0.24378	0.14355	0.31574	0.086765	0.17161	0.11584	0.072441	0.069566	0.070067	0.22701	0.2102	0.066965	-3.2188	-4.1354	-3.3208	-4.2542	-3.7521	-3.2396	-4.3125	-3.6542	-3.5771	-4.2042	-3.2	-3.9146	-3.8937	-3.1312	-4.075	-3.3833	265.833	431.441	239.141	437.018	185.625	306.602	402.240	435.272	123.345	236.483	105.691	361.635	115.026	113.557	271.758	177.664	0.00048669	0.00054109	0.00028409	1363	5.9386e-06	2.225e-06	1359.3	370.21	7.8674e-06	4.1378e-06	420.64	140.17	121.83	41.705	5.7593e-06	51.691	0.00047526	0.00046733	0.00013225	1374.6	5.169e-06	5.1482e-06	1371.8	374.35	5.1635e-06	5.1811e-06	425.13	142.26	122.7	42.528	5.2321e-06	52.663	182.366	218.982	145.861	91.104	293.241	199.515	90.885	95.582	235.082	299.448	94.964	99.526	100.072	104.460	274.401	103.697	-8191	255	
460.044	1	1	0	0	0.19426	0.062938	0.046835	0.12314	0.096873	0.25842	0.15187	0.27489	0.092705	0.23491	0.19229	0.13948	0.21223	0.16402	0.13052	0.037206	-3.0187	-4.0458	-2.9146	-3.8625	-4.0354	-3.3396	-4.2333	-3.5125	-3.4562	-4.1937	-3.4396	-3.9146	-4.0875	-3.2438	-3.9938	-3.7021	425.539	176.802	141.159	400.415	83.827	404.852	406.695	346.171	260.126	199.613	262.912	86.254	169.592	86.743	142.516	164.004	0.00048215	0.0002043	0.00014837	1361.1	5.2575e-06	3.7458e-06	1358.1	370.11	5.478e-06	8.106e-06	420.88	139.36	121.48	41.644	9.0291e-06	51.448	0.00048015	0.00047643	0.00013349	1374	5.2379e-06	5.2663e-06	1371.9	374.54	5.3349e-06	5.298e-06	425.97	142.27	122.93	42.52	5.4108e-06	52.558	181.040	198.575	167.852	90.930	203.372	408.129	90.921	95.381	217.742	199.604	94.815	99.370	100.061	104.548	224.806	103.668	-8191	255	
460.163	1	1	0	0	0.11109	0.17981	0.13538	0.20509	0.02155	0.032786	0.14164	0.22873	0.18309	0.25013	0.27565	0.12974	0.22126	0.067844	0.20027	0.23467	-2.9667	-4.025	-3.3583	-3.7104	-4	-3.3083	-4.1438	-3.7917	-3.3396	-4.1146	-3.5854	-3.5875	-4.1062	-3.4667	-3.9021	-3.7438	128.571	373.328	92.296	339.559	145.171	122.255	344.717	351.685	250.631	271.830	368.069	268.837	435.478	143.931	417.408	332.461	0.00049585	0.00020878	0.00015595	1358.9	5.6148e-06	3.7977e-06	1354.2	369.26	1.0946e-06	6.4303e-06	419.27	138.9	120.66	41.642	3.9328e-06	51.656	0.00049832	0.00049037	0.00013914	1371.7	5.4348e-06	5.4705e-06	1369.9	373.36	5.432e-06	5.5408e-06	425.32	141.95	122.65	42.572	5.4704e-06	52.608	185.304	186.151	137.196	91.129	267.748	256.968	90.951	95.570	426.936	191.322	95.073	99.656	100.426	104.453	291.465	103.633	-8191	255	
460.259	1	1	0	0	0.11972	0.12329	0.088462	0.2177	0.11017	0.28031	0.20767	0.33105	0.21805	0.11468	0.27745	0.24088	0.063757	0.19646	0.086677	0.069435	-2.7167	-3.9521	-3.3792	-3.6542	-4.0521	-3.2562	-4.0875	-4.0354	-3.1833	-4.3021	-3.6375	-3.6542	-4.1625	-3.3375	-3.8417	-3.9896	153.307	301.707	256.692	149.325	199.243	109.216	390.460	300.439	325.925	283.684	397.821	380.819	320.781	310.413	428.582	333.164	0.00048977	0.00027574	0.00026589	1358.2	7.687e-06	8.3096e-06	1354.9	366.81	5.6508e-06	9.6946e-07	419.31	138.88	121.86	41.511	2.844e-06	51.419	0.00050079	0.00049641	0.00013911	1373.3	5.4197e-06	5.4436e-06	1370.7	372.65	5.4411e-06	5.4738e-06	425.2	141.8	123.32	42.436	5.4209e-06	52.599	181.535	151.320	140.457	91.027	232.081	231.784	90.936	95.439	217.767	358.293	95.147	99.542	100.216	104.491	261.934	103.624	-8191	255	
460.331	1	1	0	0	0.12954	0.011326	0.29364	0.092403	0.26171	0.051181	0.22131	0.28236	0.24446	0.39295	0.08417	0.26687	0.16107	0.06688	0.14482	0.21725	-2.8271	-3.9292	-3.45	-3.6167	-4.0938	-3.4813	-4.0646	-4.1396	-3.2833	-4.0437	-3.7938	-3.3542	-4.1813	-3.2938	-3.7	-4.2729	308.386	98.169	174.022	223.230	386.834	262.607	327.048	414.182	216.261	206.937	81.949	275.561	272.173	361.331	322.133	378.408	0.00042848	0.00043298	0.00021597	1360.2	4.3625e-06	4.1818e-06	1357.1	367.53	3.0356e-06	3.1323e-06	417.54	138.28	121.19	41.426	3.3814e-06	51.462	0.0005023	0.00050049	0.00013854	1373.1	5.5242e-06	5.5066e-06	1371	372.71	5.5025e-06	5.4497e-06	424.27	141.41	122.65	42.401	5.4759e-06	52.604	180.318	161.376	131.684	91.078	245.310	235.001	90.940	95.566	226.979	159.418	94.971	99.397	100.573	104.568	230.431	103.543	-8191	255	
460.451	1	1	0	0	0.28115	0.028323	0.11385	0.27162	0.11534	0.27698	0.1474	0.25677	0.12606	0.079995	0.101	0.15539	0.062968	0.13608	0.061949	0.061042	-2.9562	-3.8417	-3.4792	-3.4437	-4.0854	-3.3187	-3.7583	-4.3958	-3.3583	-3.8937	-3.8708	-3.4708	-4.3187	-3.5583	-3.4792	-4.1312	137.892	427.953	217.470	414.748	198.275	304.230	413.979	410.777	310.480	195.260	84.732	225.552	277.655	394.632	244.098	233.459	0.00046353	0.00020233	3.3683e-05	1356	4.0865e-06	3.3023e-06	1356	364.8	3.6129e-06	3.1552e-06	418.85	138.34	120.22	41.215	1.1012e-05	51.179	0.00050427	0.00050221	0.00014067	1371.1	5.5408e-06	5.6194e-06	1368.4	371.05	5.6944e-06	5.7202e-06	424.4	140.94	122.89	42.296	5.8312e-06	52.406	173.441	139.010	325.169	91.052	315.446	129.990	90.844	95.675	182.640	175.308	95.037	99.631	100.269	104.369	267.342	104.083	-8191	255	
460.547	1	1	0	0	0.066711	0.039079	0.24516	0.15074	0.1503	0.19952	0.40219	0.20848	0.30398	0.12382	0.2407	0.074506	0.039576	0.035172	0.18848	0.11658	-2.9104	-4.025	-3.8688	-3.525	-4.15	-3.5417	-3.7583	-4.2188	-3.1479	-3.8625	-3.9813	-3.3771	-4.1396	-3.6417	-3.3854	-4.3	413.416	257.900	407.339	102.596	335.262	318.806	350.600	125.496	298.692	152.995	412.905	385.211	375.859	199.628	297.439	411.252	0.00043201	0.00025273	0.00025485	1354	2.2494e-06	5.7847e-06	1345.7	365.43	3.7782e-06	9.7352e-06	417.91	138.15	120.55	41.314	4.6549e-06	51.208	0.0005346	0.00053433	0.00014761	1368.7	5.8119e-06	5.7691e-06	1364.5	370.85	5.7664e-06	5.6871e-06	424.1	141.06	122.64	42.388	5.642e-06	52.421	187.881	113.827	118.871	91.031	287.572	133.523	91.075	95.588	245.724	228.443	95.037	99.713	100.282	104.489	236.879	103.866	-8191	255	
460.644	1	1	0	0	0.26129	0.15563	0.19622	0.26671	0.060131	0.17373	0.24475	0.16212	0.13982	0.113	0.24577	0.18408	0.12384	0.1173	0.12203	0.22863	-3.1833	-3.7271	-3.9208	-3.4188	-4.1375	-3.6729	-3.5771	-4.2917	-3.3146	-3.6875	-4.125	-3.6063	-3.9313	-3.8083	-3.4396	-4.3833	357.203	126.993	340.454	371.627	154.320	92.075	348.020	399.967	144.510	269.971	437.105	360.109	254.950	328.237	195.466	93.265	0.00050113	0.00018158	0.00030036	1348.1	2.6901e-06	7.8313e-06	1345.7	366.31	4.4327e-06	6.8239e-06	416.05	138.53	120.31	41.46	9.4528e-06	51.368	0.00051979	0.00051225	0.00014256	1364.6	5.4959e-06	5.6167e-06	1362.6	371.14	5.6269e-06	5.5799e-06	423.54	140.91	122.39	42.319	5.6973e-06	52.378	184.864	162.759	202.669	91.097	276.229	250.626	90.967	95.878	262.701	235.901	94.916	99.824	100.040	104.339	224.939	104.057	-8191	255	
460.740	1	1	0	0	0.17603	0.085506	0.14718	0.099975	0.23909	0.19477	0.19304	0.027585	0.11348	0.32797	0.27205	0.34568	0.10697	0.22829	0.2057	0.10659	-3.0729	-3.4	-4.125	-3.6854	-4.0208	-3.7396	-3.4458	-4.5604	-3.3229	-3.5292	-4.2021	-3.3979	-3.9313	-4.0396	-3.3792	-4.1854	87.507	200.873	414.308	89.058	88.764	330.735	370.725	335.401	407.900	209.489	395.449	372.806	217.879	101.360	104.609	121.833	0.00046763	0.00042322	5.156e-05	1351.7	6.0502e-06	5.211e-06	1348.9	365.47	7.5472e-06	4.3625e-06	417.18	137.42	121	41.229	8.5318e-06	51.177	0.0005192	0.00052021	0.0001448	1364.5	5.7429e-06	5.7539e-06	1362.5	371.14	5.8066e-06	5.8479e-06	424.29	140.8	122.9	42.309	5.7923e-06	52.454	177.696	126.052	142.628	91.152	304.729	197.267	91.086	95.852	219.189	240.926	95.016	99.736	100.536	104.344	233.228	103.998	-8191	255	
460.859	1	1	0	0	0.18363	0.092436	0.143	0.058236	0.12812	0.12751	0.36043	0.30904	0.067484	0.11418	0.20168	0.12322	0.11539	0.14568	0.06252	0.30055	-3.1729	-3.45	-4.1104	-3.6125	-3.7729	-3.9271	-3.5687	-4.2417	-3.3812	-3.3292	-4.4333	-3.45	-3.7313	-4.2042	-3.3792	-3.9458	413.929	232.467	272.279	144.832	318.067	83.113	328.829	404.390	156.360	137.388	437.694	100.286	327.347	384.312	311.026	286.761	0.00048857	0.00047189	0.00010876	1347.4	1.8217e-06	7.2524e-06	1348.6	366.42	2.3609e-06	3.7374e-06	419.38	137.48	120.17	41.481	4.6958e-06	51.157	0.00053162	0.00053225	0.00014833	1365.5	5.822e-06	5.8383e-06	1365.7	371.58	5.8581e-06	5.8628e-06	425.18	140.98	122.81	42.422	5.8771e-06	52.453	180.077	182.735	155.418	91.140	176.627	198.309	91.059	95.920	310.440	237.424	95.303	99.503	100.400	104.724	222.368	104.454	-8191	255	
460.932	1	1	0	0	0.041548	0.14231	0.28727	0.23198	0.18547	0.10237	0.20446	0.058384	0.10727	0.16141	0.18427	0.19927	0.19417	0.082973	0.14489	0.06721	-3.2667	-3.3333	-4.3333	-3.4979	-3.5542	-4.0729	-3.4833	-4.1208	-3.9271	-3.1979	-4.1354	-3.5458	-3.5938	-4.1271	-3.325	-3.9542	120.496	196.228	259.143	225.948	308.099	344.653	360.490	368.429	362.759	314.713	363.534	85.829	421.735	160.033	227.245	120.332	0.00051837	0.00037246	0.00015977	1347	5.145e-06	5.6387e-06	1344	366.04	3.4248e-06	1.9447e-06	419.67	138.01	120.22	41.118	1.0754e-05	51.144	0.0005361	0.00053637	0.0001496	1367.6	5.85e-06	5.8866e-06	1363	371.46	5.8976e-06	5.9088e-06	425.38	141.02	122.76	42.296	5.8594e-06	52.397	185.198	161.198	191.209	91.165	187.621	211.371	90.979	95.963	202.232	150.157	95.191	99.506	100.520	104.499	266.195	104.102	-8191	255	
461.028	1	1	0	0	0.061746	0.17458	0.16209	0.5246	0.13592	0.13818	0.15877	0.13926	0.042215	0.26676	0.08023	0.24508	0.11525	0.18823	0.16488	0.081961	-3.3063	-3.2854	-4.0604	-3.7396	-3.6688	-3.9646	-3.5687	-3.9458	-3.9646	-3.3792	-4.0958	-3.7938	-3.6417	-4.1333	-3.1729	-4.0458	88.494	347.549	335.673	389.237	228.807	429.492	407.281	332.727	358.543	349.040	303.987	390.287	434.183	429.808	333.685	247.708	0.00048865	0.00054721	4.9595e-05	1348.7	4.4677e-06	2.8637e-06	1353.8	365.42	7.9418e-06	2.6698e-06	419.74	137.86	120.63	41.316	5.6283e-06	51.31	0.0005325	0.00053668	0.00014867	1366	5.8612e-06	5.8462e-06	1365	370.87	5.8448e-06	5.9087e-06	424.49	140.98	123.14	42.391	5.9313e-06	52.496	181.158	180.167	130.764	91.005	320.322	157.076	90.777	95.821	193.638	244.960	95.321	99.416	100.482	104.513	223.328	103.960	-8191	255	
461.124	1	1	0	0	0.13085	0.099305	0.24688	0.38531	0.21653	0.29782	0.19977	0.39327	0.28136	0.086943	0.12316	0.099818	0.075405	0.095544	0.2513	0.29723	-3.8521	-3.0646	-4.175	-3.8333	-3.4062	-4.2333	-3.4396	-3.9604	-3.9813	-3.1146	-4.0729	-3.8708	-3.4583	-4.0229	-3.4167	-3.9354	401.669	126.805	98.028	381.900	142.415	147.122	357.632	436.957	364.806	272.338	363.754	364.020	290.646	119.775	204.993	403.833	0.00041736	0.00054892	0.0002037	1353.2	2.2068e-06	2.4751e-06	1342.4	365.77	4.2414e-06	4.7353e-06	417.45	137.57	121.02	41.357	5.3257e-06	51.426	0.00053667	0.00054138	0.0001504	1368.4	5.878e-06	5.9742e-06	1363.4	371.01	5.936e-06	5.9793e-06	424.34	141.4	123.18	42.419	6.027e-06	52.644	183.604	180.338	157.650	91.098	351.570	139.462	91.239	95.686	231.272	158.337	95.232	99.530	100.461	104.617	258.952	103.917	-8191	255	
461.243	1	1	0	0	0.10911	0.21579	0.14127	0.43688	0.31268	0.19005	0.21366	0.22197	0.094076	0.018725	0.17836	0.10672	0.20799	0.077262	0.24135	0.042064	-3.6771	-3.0792	-3.9688	-3.8042	-3.35	-4.3146	-3.7667	-3.7667	-4.2	-3.1437	-3.8479	-3.9229	-3.1937	-4.1312	-3.3896	-3.7396	188.848	196.496	86.288	415.294	140.405	368.242	244.644	419.148	270.520	133.978	410.594	381.148	349.398	178.246	398.989	364.444	0.0004419	0.00053321	0.00017779	1352.6	2.8226e-06	4.1571e-06	1347.8	365.54	2.5839e-06	3.7915e-06	418.64	138.4	119.98	41.159	3.4915e-06	51.293	0.00054253	0.00054463	0.00015128	1368.9	5.9112e-06	5.9431e-06	1366	370.86	5.921e-06	5.9297e-06	424.81	141.31	122.38	42.279	5.8536e-06	52.505	187.045	174.455	186.759	91.077	231.017	251.604	91.073	96.104	183.036	241.085	95.308	99.581	100.095	104.706	225.401	104.276	-8191	255	
461.339	1	1	0	0	0.076082	0.17689	0.2011	0.18993	0.17339	0.074926	0.12455	0.14672	0.023049	0.13703	0.043273	0.27226	0.089443	0.11512	0.2261	0.097514	-3.6958	-3.2208	-3.9875	-3.9417	-3.1042	-4.1417	-3.6771	-3.5042	-4.2562	-3.3167	-3.8625	-4.1208	-3.3438	-4.2208	-3.55	-3.7167	291.142	245.601	88.770	102.581	281.424	150.467	415.062	374.914	426.847	132.152	216.801	407.183	238.480	97.010	267.373	240.079	0.00051006	0.00039797	0.00020617	1348.8	4.9048e-06	1.1289e-06	1346	364.8	3.5786e-06	3.8619e-06	420.49	136.89	119.84	41.279	3.765e-06	51.154	0.00052571	0.0005305	0.00014674	1365.4	5.8494e-06	5.7458e-06	1361.5	370.62	5.6736e-06	5.7659e-06	424.75	140.57	122.73	42.23	5.6986e-06	52.432	174.205	165.622	135.706	91.057	304.514	125.533	91.289	96.075	245.272	212.131	95.294	99.966	100.463	104.516	318.352	104.085	-8191	255	
461.435	1	1	0	0	0.065275	0.11544	0.21071	0.10061	0.20805	0.22884	0.22924	0.030764	0.089974	0.24914	0.2867	0.10417	0.057086	0.33919	0.18959	0.15243	-3.7854	-3.2562	-3.7021	-4.2458	-3.2979	-4.05	-3.8563	-3.4583	-4.3292	-3.6583	-3.7687	-4.2562	-3.3917	-4.1042	-3.6667	-3.2687	139.525	95.619	176.830	391.877	273.201	169.960	428.377	383.240	100.107	318.628	427.243	141.813	166.667	308.160	123.840	368.584	0.00041681	0.00039191	0.00013667	1347.5	3.5783e-06	2.8338e-06	1345.3	365.52	3.5724e-06	5.0786e-07	419.23	137.51	120.71	41.406	5.1376e-06	51.47	0.00052592	0.00051922	0.00014588	1362.8	5.8003e-06	5.7402e-06	1359.8	370.66	5.756e-06	5.7854e-06	425.34	140.79	122.9	42.475	5.9021e-06	52.529	179.557	186.200	159.034	91.068	250.964	118.219	90.999	95.890	215.883	409.067	95.124	99.688	100.974	104.633	279.472	104.205	-8191	255	
461.532	1	1	0	0	0.23861	0.014194	0.22164	0.25794	0.088596	0.19485	0.12316	0.18341	0.094665	0.030645	0.11083	0.25851	0.083758	0.19844	0.14084	0.16814	-4.1062	-3.4938	-3.5875	-4.2521	-3.2958	-3.725	-4.2	-3.4021	-4.0604	-3.325	-3.5708	-4.35	-3.2542	-3.8937	-3.9646	-3.3875	247.286	320.492	268.843	98.421	375.401	371.724	365.508	263.094	305.060	168.010	283.254	84.006	93.858	322.299	387.526	160.845	0.00049711	0.00048576	5.7447e-05	1349.3	3.2876e-06	4.1767e-06	1342.4	363.33	5.6397e-06	2.5373e-06	417.04	137.34	120.57	41.293	7.4738e-06	51.124	0.00053745	0.00053607	0.00014965	1366	5.9366e-06	6.0001e-06	1359.8	370.31	6.0229e-06	6.0387e-06	424.27	141.01	122.86	42.389	6.0518e-06	52.472	177.244	182.362	332.038	91.379	229.950	164.337	90.944	95.749	231.499	219.152	95.323	99.594	100.273	104.880	217.954	103.880	-8191	255	
461.628	1	1	0	0	0.10689	0.10822	0.075444	0.39193	0.13544	0.14616	0.26321	0.076398	0.11265	0.12335	0.086574	0.026307	0.25889	0.1149	0.17953	0.16894	-3.6917	-3.4917	-3.5187	-4.4333	-3.275	-3.7354	-4.0833	-3.3042	-4.0771	-3.7	-3.2896	-4.05	-3.2271	-3.9458	-4.0375	-3.3667	303.414	402.658	220.666	400.840	93.072	244.548	334.184	289.620	212.882	386.586	335.708	322.869	369.917	98.649	337.462	136.656	0.00045596	0.00063741	0.00024414	1342.4	4.2285e-06	1.0912e-06	1343	363.73	4.4561e-06	3.8603e-06	416.54	138.41	121.55	41.198	3.7033e-06	51.15	0.00055356	0.00055612	0.00015502	1360.3	6.0747e-06	5.9717e-06	1359.7	370.28	5.9769e-06	5.9897e-06	423.78	141.11	123.37	42.379	5.8999e-06	52.555	174.079	147.712	162.589	90.912	263.574	197.636	91.233	95.834	221.013	233.959	95.295	99.739	100.272	104.693	250.410	104.110	-8191	255	
461.724	1	1	0	0	0.096443	0.043405	0.11821	0.47624	0.13503	0.18022	0.048438	0.1175	0.24262	0.28813	0.19423	0.17484	0.045984	0.14499	0.13601	0.068751	-3.6729	-3.7292	-3.2854	-4.3917	-3.4604	-3.4833	-4.225	-3.5062	-4.0354	-3.7188	-3.4021	-4.3167	-3.4417	-3.7729	-4.075	-3.4708	230.919	110.368	101.490	100.317	213.996	123.065	154.555	348.720	386.755	142.432	340.701	113.419	339.385	236.166	390.392	94.277	0.00051519	0.00020333	0.00013979	1347.1	6.4335e-06	4.0242e-06	1345.7	363.26	6.2643e-06	2.2278e-06	415.9	137.71	119.6	41.384	2.8357e-06	51.096	0.0005361	0.00053794	0.00015042	1362.4	5.8905e-06	5.8859e-06	1360.9	370.17	5.9047e-06	5.9723e-06	423.65	141.08	122.55	42.299	5.9473e-06	52.419	178.335	175.625	140.215	91.209	315.851	191.254	90.875	95.866	227.787	188.687	95.403	99.800	100.540	104.659	266.332	103.630	-8191	255	
461.845	1	1	0	0	0.32724	0.050993	0.10837	0.19794	0.14445	0.29813	0.23872	0.40349	0.11993	0.10112	0.12331	0.099978	0.11039	0.23466	0.1484	0.087736	-3.5625	-3.9083	-3.1521	-4.1354	-3.6021	-3.5312	-4.4771	-3.4625	-3.8688	-3.8688	-3.3667	-4.1958	-3.5646	-3.5146	-3.9208	-3.2687	165.732	247.479	402.396	82.084	216.139	314.323	407.916	400.365	291.931	279.120	86.505	368.530	326.086	418.590	385.722	188.319	0.00043794	0.00029127	0.00016872	1346.3	3.8359e-06	3.1498e-06	1341.5	364.75	3.2039e-06	4.5507e-06	416.98	137.82	119.85	41.318	3.4475e-06	51.156	0.00053782	0.00053353	0.0001504	1364.1	5.9417e-06	5.9455e-06	1360.8	371.23	5.9681e-06	5.9492e-06	424.63	141.07	122.59	42.346	5.9995e-06	52.491	182.679	166.856	226.624	91.303	161.440	288.726	91.277	95.981	247.820	259.632	95.069	100.042	100.252	104.895	264.536	103.955	-8191	255	
461.939	1	1	0	0	0.18928	0.11729	0.086003	0.09935	0.1582	0.11735	0.18249	0.056756	0.096736	0.087558	0.1495	0.19269	0.043796	0.30211	0.17257	0.17009	-3.3812	-3.9	-3.3354	-4.3854	-3.6021	-3.325	-4.1583	-3.2604	-3.7979	-4.2208	-3.55	-4.1167	-3.5521	-3.4521	-4.2771	-3.2375	314.796	115.294	127.987	175.398	307.234	414.466	309.126	392.056	175.948	170.944	361.413	372.834	143.648	432.334	209.035	314.931	0.00045939	0.00058912	7.7048e-05	1347.6	6.4342e-06	3.8433e-06	1341.3	364.79	3.2512e-06	2.7328e-06	416.66	137.34	120.31	41.331	8.2471e-06	51.146	0.0005483	0.00054634	0.00015231	1364.9	6.0288e-06	6.0433e-06	1361.4	371.03	6.0485e-06	6.0542e-06	424.35	140.95	122.93	42.413	6.0017e-06	52.53	181.724	161.715	149.877	91.154	218.981	151.371	91.227	95.890	167.481	219.550	95.275	100.134	100.402	104.752	277.523	103.915	-8191	255	
462.035	1	1	0	0	0.086405	0.084997	0.20323	0.20965	0.18279	0.25035	0.20603	0.16131	0.10126	0.28859	0.43414	0.27316	0.14176	0.09895	0.194	0.11001	-3.2812	-4.1583	-3.4583	-4.1917	-3.8583	-3.3312	-4.2958	-3.4958	-3.6604	-4.2271	-3.3937	-4.0938	-3.8333	-3.0979	-4.1917	-3.4771	408.325	350.120	152.488	415.749	358.701	358.733	378.167	427.922	203.194	390.056	379.354	407.512	421.424	321.984	226.713	90.124	0.0004261	0.00022965	0.00020685	1351.5	4.8223e-06	2.1873e-06	1344.7	364.17	3.1015e-06	3.4045e-06	416.45	137.89	120.48	41.183	4.8937e-06	51.155	0.0005455	0.00054359	0.00015062	1364.7	5.9545e-06	6.0286e-06	1361.8	370.77	5.947e-06	6.008e-06	424.7	140.91	123.06	42.307	6.0018e-06	52.408	181.307	133.552	124.792	91.273	303.631	288.298	91.274	95.896	168.847	160.977	95.444	99.848	100.302	104.692	235.672	104.219	-8191	255	
462.156	1	1	0	0	0.32873	0.096487	0.19977	0.2797	0.19057	0.069028	0.20203	0.17115	0.19612	0.18748	0.10618	0.10012	0.086887	0.069478	0.022096	0.11199	-3.0792	-4.1583	-3.3229	-4.0083	-3.6813	-3.2542	-4.4083	-3.6417	-3.5646	-4.1667	-3.325	-3.825	-4.1188	-3.2458	-3.8875	-3.6562	408.449	280.490	374.900	96.353	402.999	240.232	431.276	82.622	265.450	105.356	129.869	101.457	252.732	97.377	359.682	101.463	0.00038133	0.00064063	6.8774e-05	1340.4	4.8891e-06	5.5825e-06	1342.4	363.12	3.5438e-06	2.9362e-06	416.57	137.54	120.62	41.161	3.2617e-06	51.146	0.00055159	0.00054573	0.00015271	1363	5.9973e-06	5.9927e-06	1358.7	370.37	6.014e-06	6.0425e-06	424.07	141.17	123.2	42.327	6.0923e-06	52.422	179.859	179.780	431.392	91.519	220.772	221.444	91.174	95.756	274.425	185.660	95.224	99.868	100.555	105.050	222.417	103.965	-8191	255	
462.227	1	1	0	0	0.1257	0.052923	0.0909	0.24085	0.073186	0.096549	0.24145	0.11601	0.21941	0.20178	0.1219	0.17136	0.058729	0.21628	0.095222	0.17868	-3.0083	-4.1729	-3.3688	-3.8604	-3.9354	-3.1604	-4.1	-3.9271	-3.2667	-4.1875	-3.475	-3.8083	-4.1687	-3.1896	-3.7333	-3.9667	332.232	388.147	391.573	391.305	422.362	124.556	369.664	118.480	233.795	81.515	367.098	362.290	82.520	133.573	185.372	336.470	0.00046989	0.0001583	0.00019698	1347.8	3.6316e-06	7.4936e-06	1347.8	364.79	1.6649e-06	6.6115e-06	418.87	137.48	120.39	41.306	4.3549e-06	51.348	0.00055447	0.00055948	0.00015516	1363.3	6.1014e-06	6.0865e-06	1363.8	370.5	6.1133e-06	6.124e-06	425.37	141.31	123.14	42.391	6.1612e-06	52.499	184.680	324.154	177.462	91.524	261.378	197.543	91.217	95.750	216.108	174.239	95.149	99.577	100.554	104.544	191.315	103.804	-8191	255	
462.324	1	1	0	0	0.19863	0.09027	0.056008	0.04929	0.23695	0.1742	0.14413	0.29431	0.14891	0.10982	0.13793	0.14552	0.20058	0.035046	0.11308	0.26616	-3.0479	-4.2021	-3.2917	-3.6833	-4.2083	-3.4	-4.1312	-4.0271	-3.2875	-4.1292	-3.6188	-3.4979	-4.0625	-3.6333	-3.8542	-3.9458	280.854	209.018	361.559	171.349	332.855	130.695	395.782	384.549	136.630	203.001	129.665	108.625	279.617	396.199	247.708	395.375	0.00043283	0.00065321	0.0002157	1350.5	3.7112e-06	6.2087e-06	1345.6	364.82	1.4389e-06	1.5191e-06	415.64	137.41	119.96	41.189	6.4355e-06	50.922	0.00056043	0.00056006	0.00015626	1366.2	6.1244e-06	6.1367e-06	1364.6	370.83	6.0558e-06	6.1178e-06	424.18	141.09	123.1	42.363	6.1427e-06	52.461	170.821	164.825	208.562	91.196	222.588	210.945	91.351	95.876	181.502	203.480	95.294	99.862	100.226	104.487	265.956	103.788	-8191	255	
462.420	1	1	0	0	0.10506	0.17157	0.25537	0.066584	0.16479	0.131	0.28458	0.11159	0.096551	0.15144	0.17619	0.45254	0.11983	0.03243	0.20228	0.20486	-2.9542	-4.0896	-3.5042	-3.4542	-4.1062	-3.2875	-4.0292	-4.1458	-3.2042	-4.1458	-3.7354	-3.4354	-4.1333	-3.2396	-3.7625	-3.9229	298.300	178.621	374.840	131.745	168.020	112.891	352.887	408.727	258.352	364.563	115.675	115.177	172.760	272.850	295.721	398.270	0.00041684	0.0005161	0.00014905	1345.1	3.4011e-06	3.7812e-06	1343.7	365.21	2.757e-06	7.3411e-06	417.22	137.36	120.26	41.192	2.8532e-06	51.083	0.00055749	0.0005544	0.00015483	1366.3	6.0956e-06	6.0986e-06	1362.4	370.32	6.1148e-06	6.1122e-06	425.07	140.92	123.27	42.356	6.131e-06	52.48	174.854	219.507	174.727	91.380	306.065	249.724	91.186	95.748	236.892	322.106	95.392	99.567	100.311	104.776	356.724	103.742	-8191	255	
462.540	1	1	0	0	0.10342	0.2105	0.11015	0.38994	0.071856	0.32368	0.17631	0.077452	0.12093	0.095416	0.10107	0.12654	0.21115	0.31297	0.1033	0.28382	-2.7167	-4.0312	-3.5438	-3.5687	-4.2021	-3.5271	-3.8917	-4.1333	-3.3354	-3.9104	-3.8854	-3.35	-4.3521	-3.4479	-3.6688	-4.1188	178.051	329.845	280.065	437.269	374.865	288.331	306.084	403.079	166.568	336.788	196.459	283.480	337.247	80.077	92.478	385.406	0.00042715	0.00026613	8.3315e-05	1348.6	8.0497e-06	4.8919e-07	1347.7	363.23	2.7585e-06	2.6476e-06	416.72	137.69	119.91	41.079	5.5635e-06	50.867	0.00055697	0.00055833	0.00015515	1367.5	6.0976e-06	6.1149e-06	1363.8	370.22	6.1701e-06	6.1333e-06	424.18	140.89	122.93	42.26	6.1568e-06	52.419	175.170	163.172	108.402	91.181	216.650	352.477	91.153	95.817	152.292	407.361	95.158	99.675	100.359	104.611	247.800	103.769	-8191	255	
462.636	1	1	0	0	0.11297	0.12646	0.079193	0.37254	0.248	0.065763	0.34838	0.11369	0.13914	0.16755	0.083021	0.055801	0.20067	0.04846	0.1561	0.25439	-2.7938	-3.7479	-3.8125	-3.5958	-4.1667	-3.5292	-3.6958	-4.2708	-3.2167	-3.7875	-3.9646	-3.4188	-4.0563	-3.6729	-3.3542	-4.0979	246.693	176.674	397.352	374.117	134.897	274.659	340.139	402.844	387.866	122.759	270.829	244.266	392.495	143.689	116.095	166.297	0.00046288	0.00033792	9.1264e-05	1349.8	9.8496e-06	2.9353e-06	1337	364.5	4.1483e-06	5.2901e-06	417.45	137.06	119.26	41.111	4.2925e-06	50.99	0.0005574	0.00056735	0.00015594	1364.3	6.1065e-06	6.2027e-06	1360.3	370.76	6.1793e-06	6.1453e-06	423.88	140.85	122.71	42.319	6.1317e-06	52.366	184.472	155.029	199.503	91.104	253.781	300.961	91.122	95.934	227.235	183.141	95.160	99.738	100.149	104.421	219.575	103.844	-8191	255	
462.733	1	1	0	0	0.29098	0.21916	0.10683	0.24551	0.061617	0.17263	0.45735	0.22317	0.22267	0.15277	0.24014	0.044876	0.2162	0.22965	0.13748	0.010808	-2.8292	-3.9375	-3.9958	-3.4792	-4.0896	-3.4979	-3.5646	-4.1687	-3.4458	-3.7854	-4.1646	-3.3771	-3.9188	-3.8021	-3.3354	-4.3271	391.738	250.658	169.675	408.889	411.011	393.167	344.377	382.539	383.894	398.589	82.102	245.906	152.456	312.818	279.272	204.885	0.00044769	0.00040498	0.00011135	1340.9	4.7133e-06	4.6562e-06	1345.7	363.2	1.823e-06	5.1034e-06	415.69	137.11	119.73	41.103	4.7468e-06	50.862	0.00055243	0.00055782	0.00015519	1361.7	6.1035e-06	6.0852e-06	1357.6	369.69	6.0606e-06	6.1284e-06	423.86	140.65	122.67	42.261	6.0551e-06	52.38	178.385	162.600	193.618	91.220	285.716	142.047	91.010	95.804	295.865	255.290	95.236	99.847	100.294	104.672	234.453	104.059	-8191	255	
462.804	1	1	0	0	0.25137	0.10929	0.1458	0.42334	0.2184	0.19547	0.073811	0.27304	0.16651	0.088347	0.23686	0.18909	0.083196	0.12445	0.067246	0.23844	-3.1854	-3.6375	-3.7521	-3.4458	-3.9958	-3.8104	-3.5729	-4.0563	-3.5104	-3.5417	-4.0229	-3.2854	-3.9875	-3.9	-3.1917	-4.1667	372.733	342.215	253.412	417.953	211.350	403.502	82.871	402.957	368.767	141.430	94.784	135.953	90.766	100.907	294.243	304.406	0.00042789	0.00023461	5.613e-05	1345.1	3.6228e-06	6.0953e-06	1341.5	363.62	4.4616e-06	7.9913e-07	415.49	136.53	120.25	41.098	5.4156e-06	51.217	0.00055064	0.00055157	0.00015396	1363	6.0984e-06	6.0716e-06	1358.6	369.34	6.1647e-06	6.1269e-06	423.24	140.56	123.08	42.258	6.1458e-06	52.429	184.475	221.157	213.570	91.486	245.268	228.615	91.151	95.793	249.726	252.479	95.038	99.788	100.460	104.801	277.152	103.946	-8191	255	
462.923	1	1	0	0	0.041452	0.13931	0.28252	0.23545	0.14526	0.10321	0.34596	0.21632	0.42057	0.076234	0.1412	0.062207	0.035067	0.1163	0.055938	0.10915	-3.2812	-3.4104	-4.0604	-3.6208	-3.825	-4.075	-3.4792	-4.2937	-3.5812	-3.5812	-4.3812	-3.2875	-3.8937	-4.2146	-3.2167	-4.1937	113.331	356.317	95.386	409.984	283.120	93.586	393.515	348.235	199.211	143.548	342.594	388.614	388.083	347.859	85.385	238.454	0.00048791	0.00015528	0.00018883	1342.1	1.5856e-06	4.8327e-06	1339.6	361.68	1.8294e-06	2.8224e-06	416.96	136.46	119.35	41.18	3.016e-06	50.97	0.00055958	0.00056173	0.00015595	1359.6	6.1564e-06	6.1578e-06	1356.7	369.38	6.1837e-06	6.2247e-06	423.83	140.54	123.04	42.337	6.1716e-06	52.489	179.000	312.235	187.894	91.136	227.148	228.224	91.075	95.953	237.576	221.668	95.466	99.583	100.458	104.711	235.841	103.850	-8191	255	
463.019	1	1	0	0	0.097119	0.11005	0.1208	0.17892	0.12667	0.15455	0.22107	0.18466	0.098847	0.21763	0.058267	0.11181	0.24408	0.04792	0.16206	0.20709	-3.1854	-3.2375	-4.0354	-3.5292	-3.6562	-3.9958	-3.3542	-4.3292	-3.7354	-3.3333	-4.25	-3.4646	-3.6896	-4.2896	-3.1667	-3.8937	226.678	342.804	316.820	435.609	339.977	348.638	325.758	345.449	154.767	235.135	228.030	335.565	215.026	149.359	367.421	351.204	0.00047033	0.00055695	0.00019683	1342	5.5199e-06	4.9176e-06	1337.7	361.81	3.3973e-06	1.224e-06	416.17	136.76	119.34	41.311	4.3195e-06	50.837	0.00056099	0.00056243	0.00015571	1358.5	6.1792e-06	6.1215e-06	1354.9	368.98	6.1504e-06	6.1453e-06	423.58	140.72	122.7	42.236	6.1405e-06	52.383	181.019	130.404	203.567	91.140	239.083	285.369	91.234	96.155	205.347	248.157	95.394	99.801	100.495	105.090	286.045	104.104	-8191	255	
463.117	1	1	0	0	0.28647	0.072385	0.25033	0.3507	0.060308	0.053139	0.23737	0.088659	0.048421	0.15001	0.047486	0.24671	0.12452	0.15496	0.18377	0.26963	-3.3833	-3.3021	-4.0125	-3.6312	-3.4688	-3.95	-3.4667	-3.9375	-3.775	-3.1917	-4.4021	-3.6083	-3.5979	-4.2396	-3.3896	-3.9062	350.047	434.246	278.738	388.254	141.442	213.925	395.941	87.029	284.202	299.694	165.834	410.956	246.425	153.611	183.271	377.418	0.00053153	0.00070459	8.99e-05	1340.7	3.3046e-06	5.546e-06	1341	362.93	7.0581e-06	1.6324e-06	416.29	137.46	119.95	41.408	3.6318e-06	51.264	0.00055058	0.00055468	0.00015504	1358.1	6.0682e-06	6.0657e-06	1356.8	369.41	6.0501e-06	6.1231e-06	424.13	140.74	122.76	42.387	6.0688e-06	52.517	173.378	180.637	270.841	91.190	224.422	249.678	91.265	96.058	225.480	162.422	95.479	99.865	100.598	104.805	245.932	104.329	-8191	255	
463.236	1	1	0	0	0.10054	0.11811	0.16432	0.22203	0.070556	0.13766	0.11443	0.21484	0.15353	0.22973	0.13161	0.10972	0.2663	0.087979	0.20086	0.019325	-3.4896	-3.1917	-4.1458	-3.7188	-3.2917	-4.0854	-3.525	-4.0104	-3.9083	-3.15	-4.0083	-3.725	-3.3896	-4.2812	-3.1063	-3.7938	431.494	259.973	166.576	350.974	415.038	202.509	372.105	78.583	421.717	114.634	384.267	373.615	81.149	82.987	135.634	83.962	0.00042137	0.00011693	0.00017919	1345.1	5.4945e-06	3.8726e-06	1339.9	363.22	3.318e-06	3.9631e-06	415.64	137.24	120.01	41.236	4.787e-06	51.021	0.00055288	0.00056119	0.00015511	1360.9	6.0414e-06	6.1419e-06	1357.9	370.07	6.0809e-06	6.168e-06	423.78	140.72	122.9	42.308	6.1478e-06	52.475	181.142	101.411	158.363	91.316	241.636	230.371	91.307	96.128	286.934	220.608	95.514	99.880	100.488	104.782	232.890	104.415	-8191	255	
463.332	1	1	0	0	0.17715	0.13578	0.18364	0.14172	0.16167	0.17616	0.020704	0.24258	0.075573	0.11392	0.16735	0.21387	0.26563	0.093919	0.13036	0.17243	-3.7042	-3.2042	-3.9562	-3.9146	-3.5312	-4.1354	-3.2875	-3.7562	-4.2542	-3.0417	-3.8708	-3.7896	-3.3292	-3.8229	-3.55	-3.6354	214.476	402.495	268.376	374.875	322.078	349.430	189.013	389.011	90.028	163.507	376.452	399.308	396.866	83.616	256.349	401.703	0.00049907	0.00062688	4.7679e-05	1345.1	7.5698e-06	3.8311e-06	1342.8	364.07	1.8618e-06	4.7173e-06	415.44	137.49	119.75	41.299	2.0525e-06	51.027	0.00055092	0.00055201	0.00015411	1360.7	5.9966e-06	6.0279e-06	1359.3	370.21	6.0589e-06	6.0334e-06	424.06	140.67	122.82	42.348	6.0267e-06	52.478	180.335	156.832	180.277	91.211	249.695	235.279	91.105	96.128	209.525	104.824	95.279	99.774	100.584	104.806	156.097	103.943	-8191	255	
463.428	1	1	0	0	0.18582	0.16314	0.18587	0.25299	0.094035	0.14614	0.23358	0.09389	0.1743	0.028389	0.063376	0.10956	0.15081	0.09908	0.089814	0.20686	-3.7729	-3.1604	-3.8771	-3.7896	-3.2021	-4.1083	-3.6729	-3.7208	-4.1979	-3.425	-3.9854	-3.9188	-3.1771	-4.2875	-3.4792	-3.5563	113.112	317.693	370.639	130.008	399.103	356.800	374.548	271.876	91.014	418.688	309.783	149.696	397.934	122.292	270.948	319.316	0.00048473	0.00025434	5.3501e-05	1347.4	8.0307e-06	3.9679e-06	1343.8	364.15	5.4424e-06	8.219e-06	417.6	137.73	119.96	41.284	8.0508e-06	51.393	0.00054542	0.00054452	0.00015183	1362.7	5.9876e-06	5.9489e-06	1358.8	369.89	5.9707e-06	6.0396e-06	423.81	140.7	122.78	42.372	5.9812e-06	52.57	187.102	224.408	167.570	91.236	259.406	254.705	91.175	96.041	207.091	256.457	95.527	100.002	100.526	104.921	260.385	104.106	-8191	255	
463.525	1	1	0	0	0.077581	0.058156	0.19017	0.22721	0.065756	0.21519	0.16073	0.25433	0.13897	0.20849	0.12093	0.11903	0.14261	0.24252	0.14504	0.16641	-3.7396	-3.3479	-3.8958	-4.3542	-3.0792	-4.0146	-3.8542	-3.5062	-4.075	-3.2104	-3.6729	-4.1479	-3.2292	-3.8667	-3.8812	-3.3833	401.036	364.295	356.283	434.745	389.858	408.410	395.728	365.875	205.422	193.682	434.016	388.054	367.634	335.144	116.240	191.675	0.00042504	0.00033338	8.8036e-05	1344.2	4.4695e-06	6.1435e-06	1344.5	362.21	2.7834e-06	3.4623e-06	414.28	136.75	119.96	41.345	6.2779e-06	51.007	0.00054564	0.00055031	0.00015362	1359.8	6.0415e-06	6.0426e-06	1359.3	369.33	5.974e-06	6.0833e-06	423.1	140.57	122.87	42.359	6.0417e-06	52.48	180.017	144.247	223.933	91.723	238.539	252.367	91.292	96.224	225.098	222.215	95.473	99.996	100.453	105.003	268.205	104.247	-8191	255	
463.621	1	1	0	0	0.18533	0.1861	0.25279	0.21416	0.1539	0.13251	0.23747	0.24799	0.24146	0.18544	0.16178	0.11013	0.096642	0.066346	0.31162	0.087681	-3.6708	-3.4042	-3.575	-4.3021	-3.4125	-3.8792	-3.925	-3.3833	-4.0042	-3.4667	-3.6042	-4.2354	-3.2	-3.8896	-3.8042	-3.3583	213.308	223.972	218.862	327.158	99.307	341.630	324.364	375.880	206.868	393.698	283.170	329.556	203.239	114.775	373.987	425.351	0.00043558	0.0003798	0.00018293	1344.9	5.0788e-06	4.7879e-06	1345	363.84	1.7994e-06	3.5628e-06	418.53	137.36	120.66	41.471	8.0189e-06	51.214	0.00054745	0.00055184	0.00015305	1361.8	6.0162e-06	5.9957e-06	1360.1	370.21	6.0064e-06	6.011e-06	424.21	140.97	123.14	42.438	5.9815e-06	52.551	181.878	188.413	147.126	91.355	241.516	168.079	91.375	96.264	218.454	247.270	95.465	99.836	100.436	105.229	245.692	104.253	-8191	255	
463.717	1	1	0	0	0.089743	0.015561	0.12421	0.080522	0.034438	0.09938	0.15922	0.13543	0.053099	0.054362	0.11895	0.03758	0.2429	0.28459	0.17995	0.23751	-3.6396	-3.2958	-3.5687	-4.3208	-3.1396	-3.825	-4.1271	-3.3438	-3.9938	-3.8875	-3.4167	-4.0917	-3.3688	-3.8542	-3.9521	-3.4896	379.228	273.984	375.063	368.836	198.268	267.982	381.916	389.400	125.563	408.207	125.290	278.002	411.076	397.658	178.202	398.503	0.00041684	4.3251e-05	5.8785e-05	1344.7	3.0245e-06	6.4668e-06	1343.9	364.74	7.8004e-06	7.1943e-07	416.36	138.05	119.52	41.346	3.1496e-06	51.048	0.0005429	0.0005438	0.00015051	1361.5	5.8922e-06	5.9434e-06	1357.7	370.25	5.9693e-06	5.977e-06	423.73	140.79	122.64	42.4	5.9318e-06	52.472	183.388	399.522	411.193	91.258	254.301	274.782	91.272	95.864	246.513	300.311	95.506	100.035	100.229	105.124	226.385	104.316	-8191	255	
463.837	1	1	0	0	0.14078	0.023078	0.075626	0.17787	0.084891	0.070116	0.2888	0.28139	0.17678	0.080035	0.19703	0.069285	0.060444	0.066155	0.1422	0.14953	-3.6708	-3.3729	-3.4313	-4.3104	-3.2771	-3.6188	-4.2396	-3.4021	-4.0521	-3.6271	-3.4333	-4.1042	-3.425	-3.7917	-4.1542	-3.5292	194.575	319.940	274.456	92.640	250.535	355.068	337.891	364.706	430.628	225.085	434.628	394.988	296.372	106.625	405.488	412.867	0.00045536	0.00051578	7.098e-05	1349.4	6.8827e-06	7.8891e-07	1347.3	362.69	2.0616e-06	5.4059e-06	418.88	138.18	119.96	41.478	4.916e-06	51.505	0.00053551	0.00054421	0.0001506	1363.1	5.8913e-06	5.8525e-06	1359.4	369.74	5.8923e-06	5.9474e-06	424.46	141.2	122.77	42.475	5.847e-06	52.671	180.680	174.262	122.504	91.259	252.861	82.725	90.981	95.854	244.668	240.178	95.265	99.615	100.582	104.756	246.634	104.042	-8191	255	
463.932	1	1	0	0	0.26029	0.14674	0.22103	0.31281	0.20084	0.13145	0.18382	0.17488	0.29186	0.22031	0.19386	0.18888	0.24647	0.10561	0.18315	0.2807	-3.5646	-3.6875	-3.1979	-4.3792	-3.4688	-3.6354	-4.3417	-3.475	-3.8063	-3.8021	-3.4125	-4.3229	-3.3688	-3.4125	-4.1896	-3.3604	142.404	388.879	404.087	97.299	107.795	252.573	398.896	393.793	214.471	157.559	127.350	251.849	377.427	365.893	230.010	133.463	0.00046628	0.00035012	7.0942e-05	1345.1	2.7221e-06	6.2469e-06	1342.1	362.92	4.4195e-06	2.5665e-06	418.38	137.87	120.3	41.548	4.3875e-06	51.402	0.00053698	0.00053859	0.0001503	1361.9	5.8476e-06	5.8956e-06	1358.6	370.13	5.9316e-06	5.9271e-06	424.21	141.21	122.97	42.454	5.899e-06	52.612	175.583	195.866	108.585	91.247	192.003	237.555	91.312	96.031	239.385	346.012	95.484	100.177	100.556	104.904	178.496	104.171	-8191	255	
464.028	1	1	0	0	0.061176	0.16508	0.033623	0.094687	0.20971	0.45302	0.23537	0.31266	0.22505	0.2236	0.083681	0.17485	0.31381	0.16291	0.10401	0.30521	-3.6229	-3.8812	-3.2313	-4.2354	-3.5771	-3.4188	-4.5104	-3.3333	-3.7229	-3.9188	-3.3812	-4.375	-3.4375	-3.4188	-3.9417	-3.4167	92.049	179.316	94.570	86.260	255.856	300.003	401.095	382.218	308.056	418.188	378.327	332.985	368.425	200.745	399.342	89.030	0.00041127	0.00044349	0.00010374	1345.5	1.6447e-06	4.3996e-06	1342	363.6	6.4451e-06	1.7246e-06	416.32	138.27	119.99	41.492	4.8246e-06	51.37	0.00053512	0.00053357	0.00015046	1363.4	5.8228e-06	5.8836e-06	1360.4	370.65	5.8915e-06	5.8462e-06	423.82	141.21	122.68	42.472	5.8349e-06	52.553	179.252	173.943	327.657	91.301	95.013	264.828	91.301	95.932	224.793	235.000	95.445	100.069	100.695	104.920	182.492	104.178	-8191	255	
464.100	1	1	0	0	0.085739	0.084075	0.069179	0.44393	0.24594	0.13983	0.30543	0.34192	0.064109	0.15258	0.29373	0.2623	0.12177	0.16287	0.12971	0.13083	-3.6375	-4.0125	-3.0271	-4.0375	-3.7188	-3.3917	-4.5083	-3.4938	-3.4562	-4.0042	-3.3979	-4.1771	-3.8958	-3.1125	-4.1479	-3.3688	137.622	202.259	206.291	403.147	138.991	84.301	390.865	426.674	104.402	295.762	427.921	389.276	372.531	383.499	258.251	375.992	0.00042385	0.00061749	0.00024177	1347.2	3.4082e-06	3.6035e-06	1342.3	364.23	4.9657e-06	3.3683e-06	416.46	137.95	120.8	41.156	8.355e-06	51.463	0.00053174	0.00053405	0.00015022	1361.2	5.8074e-06	5.8334e-06	1358.1	370.57	5.8962e-06	5.9027e-06	423.34	141.09	123.01	42.335	5.9352e-06	52.539	182.327	174.604	244.477	91.311	212.259	256.807	91.609	96.016	193.708	213.344	95.643	100.014	100.647	104.784	250.744	104.097	-8191	255	
464.198	1	1	0	0	0.14426	0.30976	0.19071	0.14003	0.045463	0.047167	0.18396	0.2964	0.18639	0.082082	0.082497	0.18928	0.045241	0.092409	0.21054	0.22906	-3.15	-4.2521	-3.2313	-4.1813	-3.9229	-3.2292	-4.2583	-3.6875	-3.4604	-4.1417	-3.35	-4.0375	-3.775	-3.2083	-4.0958	-3.8771	391.586	246.387	106.477	317.256	206.356	328.308	370.535	427.024	384.313	299.848	350.701	359.116	409.427	189.820	314.102	112.386	0.00044122	0.00023426	0.00023607	1344.3	1.932e-06	1.7809e-06	1338.3	363.29	4.8475e-06	4.1762e-06	415.95	138.28	119.84	41.278	1.2348e-05	51.195	0.00053789	0.00054348	0.00015093	1359.5	5.9617e-06	6.009e-06	1358.3	370.11	5.9849e-06	6.0694e-06	424.08	141.25	122.89	42.397	6.121e-06	52.473	181.615	242.485	164.078	91.349	139.884	208.420	91.048	95.980	201.251	174.571	95.464	99.859	100.139	104.803	235.578	104.175	-8191	255	
464.316	1	1	0	0	0.22656	0.11219	0.24412	0.27043	0.25539	0.27488	0.16441	0.12163	0.13704	0.11423	0.35784	0.19672	0.12741	0.13715	0.062822	0.16403	-3.1208	-4.0687	-3.2083	-3.9979	-4.1521	-3.3271	-4.2646	-3.6333	-3.3063	-4.2292	-3.4792	-3.6458	-4.0417	-3.3375	-4.0729	-3.7708	134.099	325.598	205.608	409.155	202.200	404.527	387.200	383.195	435.770	263.162	423.882	128.984	404.539	190.505	242.844	227.152	0.00048418	0.00059871	5.333e-05	1343.7	4.8398e-06	5.2037e-06	1342	364.07	6.4201e-06	4.7989e-06	416.59	137.45	120.62	41.563	4.2226e-06	51.211	0.00055191	0.00055868	0.0001551	1362.3	6.1516e-06	6.1151e-06	1360.8	370.8	6.121e-06	6.0833e-06	423.84	141.1	123.54	42.465	6.0896e-06	52.656	189.620	232.967	309.544	91.489	245.212	145.360	91.352	96.040	185.053	141.728	95.247	99.956	100.439	104.659	241.246	104.318	-8191	255	
464.413	1	1	0	0	0.10046	0.079572	0.11279	0.1128	0.1521	0.21717	0.28761	0.20086	0.21601	0.05864	0.11912	0.32659	0.20647	0.11155	0.24557	0.21818	-3.0396	-4.1208	-3.3521	-3.6625	-4.0437	-3.2854	-4.125	-3.8146	-3.0854	-4.1167	-3.6479	-3.65	-4.1396	-3.4188	-3.9833	-4.025	389.075	217.177	145.929	339.790	129.227	243.926	391.733	84.917	147.875	390.995	313.688	360.478	414.236	285.708	265.662	436.522	0.00051265	0.00030375	0.0001847	1350.6	5.1397e-06	6.4906e-06	1348.1	364.79	4.0936e-07	2.0698e-06	418.05	137.9	120.02	41.594	4.211e-06	51.154	0.00055021	0.00055151	0.00015302	1367.8	6.0367e-06	6.0077e-06	1363.7	371.19	6.0387e-06	6.1109e-06	424.78	141.56	123.28	42.533	5.9994e-06	52.62	185.496	142.926	153.036	91.683	273.310	193.936	91.279	96.079	433.026	233.613	95.332	99.790	100.364	105.006	243.252	104.520	-8191	255	
464.509	1	1	0	0	0.099763	0.10394	0.055886	0.10736	0.076782	0.1123	0.20727	0.2218	0.23397	0.17784	0.28989	0.2687	0.074601	0.20417	0.068877	0.045444	-2.7062	-4.1396	-3.5312	-3.7021	-4.1438	-3.15	-4.0271	-4.2375	-3.0687	-3.8375	-3.7812	-3.6979	-4.2354	-3.2687	-3.7125	-4.1458	433.247	87.914	423.331	416.519	180.364	196.852	297.403	383.598	98.746	236.661	381.018	393.881	352.589	398.118	374.640	335.403	0.00039809	0.00011064	0.00017305	1354.9	9.5815e-06	4.9997e-06	1349.8	365.2	4.1516e-06	2.4954e-06	416.97	137.67	120.66	41.385	3.0185e-06	51.269	0.0005463	0.00054386	0.00015157	1368.1	5.8933e-06	5.9295e-06	1366.6	371.63	5.9405e-06	5.8941e-06	424.35	141.32	123.52	42.475	5.9653e-06	52.58	184.050	86.991	201.625	91.475	271.624	199.254	91.353	96.184	232.516	279.689	95.525	100.139	100.426	105.214	351.793	104.203	-8191	255	
464.629	1	1	0	0	0.063459	0.19314	0.34285	0.25475	0.25421	0.27426	0.20624	0.20867	0.076316	0.27755	0.032882	0.089531	0.17782	0.13289	0.17569	0.28367	-2.8146	-3.9896	-3.6271	-3.3583	-4.0542	-3.3063	-3.8396	-4.225	-3.0854	-3.9917	-3.8396	-3.4021	-4.2438	-3.6063	-3.3438	-4.1021	281.937	282.409	230.616	329.032	288.763	238.207	373.408	338.597	319.429	224.449	107.405	403.037	236.112	341.898	286.731	389.685	0.0004523	0.00067518	0.00029647	1347.3	4.6346e-06	3.4155e-06	1347.1	365.23	4.5415e-06	2.4439e-06	417.05	137.54	120.47	41.535	8.0444e-06	51.197	0.00054562	0.00054137	0.0001517	1363.9	5.9547e-06	6.0445e-06	1363.4	370.93	6.0097e-06	6.0158e-06	424.72	141.11	122.94	42.445	6.0353e-06	52.553	173.735	218.264	187.650	91.395	266.381	271.142	91.425	96.190	215.826	151.189	95.339	100.055	100.761	104.925	189.620	104.177	-8191	255	
464.701	1	1	0	0	0.064202	0.2271	0.1465	0.16573	0.15636	0.15394	0.093851	0.31104	0.22513	0.037646	0.18982	0.30102	0.20286	0.094983	0.20859	0.12571	-2.8771	-3.9938	-3.8646	-3.45	-4.2896	-3.4771	-3.7958	-4.3021	-3.2021	-3.7812	-3.8083	-3.475	-4.3021	-3.6667	-3.4	-4.1771	176.338	274.899	402.849	405.748	420.164	243.672	410.816	420.695	435.634	82.999	426.578	424.787	398.003	341.544	153.222	325.650	0.00042043	0.00088944	0.00016432	1345.9	6.2843e-06	2.9818e-06	1345.4	365.4	1.2884e-06	4.7181e-06	418.82	138.26	121.09	41.446	2.5643e-06	51.295	0.00054328	0.00054484	0.00015191	1363.5	5.9395e-06	5.9042e-06	1360.4	371.05	5.9664e-06	5.8977e-06	425.03	141.43	123.37	42.427	5.865e-06	52.527	177.272	162.840	143.831	91.595	230.132	212.368	91.460	96.129	216.611	195.257	95.465	99.987	101.109	105.071	272.215	104.405	-8191	255	
464.797	1	1	0	0	0.15941	0.24884	0.060317	0.070795	0.076575	0.23929	0.12234	0.082439	0.17599	0.27689	0.27243	0.10388	0.28353	0.28443	0.062887	0.28387	-2.8812	-3.7896	-3.7188	-3.2333	-4.0979	-3.5792	-3.6271	-4.25	-3.2625	-3.6375	-3.9104	-3.5438	-4.1979	-3.7396	-3.3375	-4.0625	274.168	367.524	425.514	157.011	171.124	86.420	373.831	181.143	89.159	318.073	421.068	194.989	116.713	98.051	136.509	407.783	0.00036598	4.2713e-05	0.00022184	1343.9	1.016e-06	4.4143e-06	1343.5	363.99	5.1479e-06	1.4436e-06	418.17	137.96	120.06	41.303	4.0356e-06	51.242	0.00053144	0.00053443	0.00014953	1360.8	5.8458e-06	5.7884e-06	1359.1	370.49	5.8857e-06	5.939e-06	424.19	141.03	122.73	42.373	5.9334e-06	52.43	190.366	271.499	191.471	91.667	308.369	258.135	91.597	96.238	212.250	126.564	95.575	99.634	101.198	104.847	271.191	104.090	-8191	255	
464.918	1	1	0	0	0.13092	0.12676	0.070551	0.18933	0.1919	0.21203	0.16796	0.09754	0.11055	0.10757	0.29723	0.12802	0.1609	0.09063	0.34556	0.070853	-3.1312	-3.6729	-4.0208	-3.3312	-3.8563	-3.8292	-3.5458	-4.1562	-3.1479	-3.5083	-4.3771	-3.2292	-3.725	-3.9333	-3.3604	-4.3917	428.483	385.990	245.311	426.932	303.917	122.859	359.966	213.741	165.599	143.066	323.581	97.659	412.680	94.861	342.286	296.466	0.00042443	0.00069372	0.00012924	1344.1	4.5128e-06	6.5408e-06	1348	363.91	4.1222e-06	3.4069e-06	418.39	137.79	119.83	41.42	4.1115e-06	51.217	0.00053832	0.00054255	0.0001506	1361.2	5.9504e-06	5.9095e-06	1361.5	371.11	5.9604e-06	6.0314e-06	425.15	140.91	123.11	42.433	6.0887e-06	52.474	178.421	215.038	168.841	91.400	198.652	235.324	91.405	96.290	240.471	244.480	95.598	100.240	100.735	104.925	227.947	104.361	-8191	255	
465.012	1	1	0	0	0.15209	0.42416	0.14437	0.19928	0.051521	0.091717	0.29009	0.070321	0.028592	0.11895	0.08449	0.096675	0.090983	0.050798	0.075754	0.13811	-3.0167	-3.5563	-4.0687	-3.4292	-3.9292	-3.9083	-3.2792	-4.1125	-3.5104	-3.2542	-4.2063	-3.2833	-3.8875	-4.0188	-3.2833	-4.2083	137.694	269.889	120.631	376.812	313.520	134.546	361.700	402.216	186.753	310.606	340.271	270.309	89.874	194.350	235.695	363.724	0.00047498	0.00035184	0.00017407	1346.1	2.2905e-06	3.7782e-06	1339.5	364.79	2.982e-06	4.3975e-06	419.37	137.7	120.08	41.462	4.1237e-06	51.193	0.00055219	0.00055805	0.00015531	1363.2	6.1595e-06	6.1528e-06	1360.8	370.96	6.1598e-06	6.2068e-06	425.59	141.25	123.19	42.506	6.1866e-06	52.541	182.385	175.134	122.283	91.606	302.561	202.138	91.608	96.248	271.156	282.903	95.657	100.017	100.940	105.043	295.277	104.362	-8191	255	
465.108	1	1	0	0	0.17594	0.10242	0.051427	0.055625	0.15886	0.029893	0.14034	0.33363	0.056803	0.1647	0.17712	0.094237	0.13537	0.20848	0.2889	0.077972	-3.1854	-3.4875	-4.225	-3.3896	-3.75	-4.0792	-3.4375	-4.2521	-3.7771	-3.3187	-4.3333	-3.4604	-3.5521	-4.1146	-3.1583	-4.125	106.742	167.399	137.212	95.001	383.398	399.893	392.528	365.875	415.811	219.807	138.932	282.509	271.929	348.313	295.087	133.431	0.00048107	0.00026259	0.00015021	1345.2	2.7069e-06	1.5272e-06	1348.8	364.18	1.5078e-06	5.7289e-06	417.36	137.23	120.53	41.208	6.4075e-06	51.287	0.00055911	0.00056355	0.00015599	1362.4	6.1428e-06	6.1512e-06	1363.4	370.91	6.1625e-06	6.14e-06	424.76	141.11	123.52	42.352	6.1739e-06	52.598	180.688	153.235	160.806	91.704	280.865	202.489	91.849	96.305	309.843	206.889	95.777	100.276	100.843	105.235	284.808	104.399	-8191	255	
465.205	1	1	0	0	0.1042	0.16936	0.16629	0.2479	0.2871	0.11678	0.21708	0.15567	0.10654	0.13086	0.15299	0.17319	0.14814	0.20957	0.067255	0.30821	-3.3146	-3.3896	-4.1229	-3.4875	-3.4562	-4.0771	-3.5083	-4.1771	-3.875	-3.1771	-4.1667	-3.5146	-3.5896	-4.1917	-3.3812	-3.975	288.402	330.557	384.067	343.817	414.451	136.774	383.578	386.749	86.449	197.140	316.978	404.631	83.108	114.856	232.889	367.674	0.00038857	0.00026011	0.00013414	1345.7	6.5729e-06	4.6631e-06	1346.1	364.63	3.0126e-06	6.3188e-06	416.43	137.69	120.05	41.298	3.7711e-06	51.298	0.00055789	0.00056254	0.00015676	1364.3	6.1411e-06	6.1907e-06	1360.9	371.05	6.2329e-06	6.2682e-06	425.14	141.12	123.13	42.396	6.2044e-06	52.606	176.668	190.179	213.757	91.425	241.236	276.256	91.420	96.400	182.635	254.963	95.784	100.326	100.889	105.114	252.266	104.740	-8191	255	
465.325	1	1	0	0	0.084016	0.16101	0.28702	0.42362	0.044252	0.080325	0.21666	0.28926	0.16874	0.19968	0.22359	0.15982	0.2433	0.10891	0.040924	0.24172	-3.4458	-3.1042	-4.0375	-3.6937	-3.4417	-4.1271	-3.4562	-4.1667	-4.0521	-3.1333	-4.0979	-3.7104	-3.4354	-4.2167	-3.1521	-3.9208	182.529	109.420	278.117	88.378	388.779	306.566	430.535	386.622	113.692	191.173	396.175	85.728	206.202	227.885	338.681	168.262	0.00046634	0.00033493	0.00015898	1347.8	6.1388e-07	6.657e-06	1343.8	363.85	4.6053e-06	5.5077e-06	419.88	138.43	119.55	41.414	3.948e-06	51.243	0.00056325	0.0005718	0.00015811	1364.8	6.1577e-06	6.1587e-06	1363.3	371.2	6.1483e-06	6.1992e-06	426.07	141.46	123.29	42.439	6.2043e-06	52.673	184.363	184.141	161.300	91.944	364.382	224.053	91.645	96.306	275.937	262.627	95.710	99.918	101.215	104.949	284.256	104.526	-8191	255	
465.397	1	1	0	0	0.1755	0.23594	0.1466	0.1624	0.22774	0.077414	0.23509	0.41479	0.01651	0.12991	0.25746	0.16933	0.17357	0.19388	0.052821	0.29828	-3.7167	-3.2667	-4.1375	-3.7604	-3.2625	-4.0312	-3.4625	-3.7625	-4.0938	-3.1542	-4.0938	-3.8708	-3.2271	-4.3	-3.5604	-3.7917	311.563	170.418	120.951	361.760	419.730	415.145	288.414	342.857	129.261	368.705	351.838	374.417	223.756	431.843	347.155	373.378	0.00045677	0.00059962	0.00014932	1346.2	6.7397e-06	1.5409e-06	1348.5	363.95	3.3015e-06	6.5395e-06	416.6	138.23	121.79	41.318	4.006e-06	51.246	0.00056526	0.00056945	0.00015834	1369.2	6.1983e-06	6.21e-06	1364.5	371.13	6.2763e-06	6.3298e-06	425.68	141.42	123.77	42.456	6.2846e-06	52.757	191.606	171.772	158.531	91.731	198.619	261.449	91.613	96.524	173.778	177.572	95.509	100.288	101.168	105.145	284.744	104.624	-8191	255	
465.493	1	1	0	0	0.10755	0.19571	0.069435	0.22945	0.020681	0.23315	0.14635	0.13359	0.20631	0.087815	0.24669	0.1311	0.11767	0.164	0.11865	0.32854	-3.8125	-3.4021	-4.0958	-3.7854	-3.1521	-3.9958	-3.5896	-3.6354	-4.2208	-3.2812	-3.9042	-3.975	-3.1854	-4.0563	-3.3417	-3.5062	231.121	339.150	294.333	424.378	399.606	404.853	423.248	400.029	127.718	164.862	277.236	362.478	308.060	104.984	362.488	361.912	0.00048853	0.00022527	0.00018199	1351.3	2.0505e-06	3.1212e-06	1346.4	365.33	8.9495e-07	3.5422e-06	416.07	137.67	120.84	41.264	2.055e-06	51.082	0.00056986	0.00056952	0.00015865	1368.1	6.2565e-06	6.2308e-06	1365	371.97	6.1739e-06	6.258e-06	425.34	141.35	123.42	42.494	6.1928e-06	52.576	177.263	268.633	179.123	91.910	203.317	269.896	92.309	96.583	223.856	226.560	95.943	100.331	100.935	105.520	327.670	104.674	-8191	255	
465.614	1	1	0	0	0.14515	0.1254	0.26579	0.18992	0.12941	0.032458	0.41241	0.19686	0.069033	0.19675	0.10892	0.062549	0.22008	0.1934	0.12622	0.31724	-3.9667	-3.2625	-3.9979	-4.0375	-3.2979	-4.1813	-3.8	-3.5729	-4.2083	-3.3625	-3.8104	-4.0104	-3.2604	-4.0833	-3.575	-3.3646	419.230	178.718	86.231	89.505	212.754	239.087	384.957	362.700	203.749	110.650	422.764	108.239	310.639	102.673	97.233	274.413	0.00046756	0.00057055	0.00015698	1351.9	5.3126e-06	2.6609e-06	1347.1	363.54	6.0967e-06	3.4403e-06	418.12	137.33	119.8	41.417	4.9835e-06	51.054	0.00055875	0.00056934	0.00015795	1368	6.2311e-06	6.1863e-06	1362.6	370.66	6.2193e-06	6.2388e-06	425.37	141.05	123.21	42.511	6.2183e-06	52.608	181.505	228.525	189.696	91.870	267.365	335.969	91.444	96.560	238.950	259.444	95.872	100.433	100.553	105.190	269.866	104.430	-8191	255	
465.710	1	1	0	0	0.11297	0.12908	0.2895	0.29287	0.25752	0.078705	0.2742	0.12998	0.15043	0.076483	0.12197	0.13349	0.12003	0.044798	0.13599	0.38364	-3.8167	-3.3604	-3.6562	-4.2771	-3.0792	-4.0021	-3.9771	-3.3521	-4.2958	-3.6458	-3.5625	-4.1333	-3.4604	-4.225	-3.8229	-3.3979	400.234	286.162	225.806	413.850	418.005	404.704	406.239	343.889	222.813	341.792	352.164	425.153	99.703	222.603	183.373	364.744	0.00046291	0.00028724	5.4098e-05	1346.7	7.6778e-06	6.7927e-06	1349.6	365.08	1.9716e-06	3.6681e-06	419.1	137.47	121.29	41.451	7.1376e-06	51.144	0.000565	0.00056839	0.0001558	1366.4	6.19e-06	6.137e-06	1365.8	371.35	6.1643e-06	6.1527e-06	425.68	141.2	123.75	42.557	6.2064e-06	52.597	183.114	179.076	418.826	92.146	231.171	261.301	91.440	96.247	143.109	200.099	96.115	100.268	101.605	105.342	252.888	105.172	-8191	255	
465.806	1	1	0	0	0.12054	0.20912	0.28978	0.21014	0.072672	0.21718	0.17262	0.35608	0.13908	0.29353	0.19214	0.23792	0.09661	0.15207	0.11687	0.14168	-3.7646	-3.4125	-3.5979	-4.325	-3.3063	-3.8792	-4.075	-3.4229	-4.2292	-3.5708	-3.5104	-4.2812	-3.1729	-3.9313	-3.8042	-3.3812	333.125	138.989	262.457	133.220	331.186	198.222	424.722	347.361	143.160	367.907	337.839	120.213	392.801	282.787	301.942	114.215	0.0004338	0.0003043	3.9984e-05	1347.9	3.5729e-06	5.5283e-06	1353	363.06	3.2693e-06	3.2761e-06	418.33	137.83	120.06	41.313	6.8668e-06	51.229	0.00056406	0.00056135	0.00015913	1366.9	6.2077e-06	6.2769e-06	1365.5	370.59	6.25e-06	6.2494e-06	425.6	141.17	123.44	42.484	6.263e-06	52.655	173.551	218.443	168.868	91.658	233.230	232.195	92.111	96.816	161.793	175.600	96.168	100.623	101.521	106.073	259.176	104.852	-8191	255	
465.925	1	1	0	0	0.26134	0.15088	0.07307	0.33292	0.060201	0.0285	0.21187	0.14757	0.071132	0.19861	0.13501	0.20628	0.16754	0.186	0.10073	0.20034	-3.8542	-3.85	-3.4792	-4.2479	-3.2375	-3.6937	-4.3063	-3.5083	-4.1354	-3.7104	-3.6479	-4.4333	-3.3229	-3.8729	-4.2104	-3.4875	153.688	226.393	293.896	419.279	334.435	426.502	381.364	380.918	190.715	428.958	150.794	78.452	92.238	431.411	209.956	423.673	0.0004409	0.0002987	4.563e-05	1351.3	6.0433e-06	3.6532e-06	1349.7	364.06	4.5894e-06	1.96e-06	417.95	138.52	119.91	41.46	4.9906e-06	51.132	0.00056883	0.00056927	0.00015901	1367.4	6.2365e-06	6.2403e-06	1367.3	371.16	6.2387e-06	6.2579e-06	425.66	141.5	123.49	42.561	6.2812e-06	52.626	175.120	259.238	86.233	91.572	233.442	248.665	91.645	96.311	241.556	434.448	96.267	100.810	101.389	105.685	257.610	104.676	-8191	255	
465.996	1	1	0	0	0.11082	0.0088791	0.12381	0.26517	0.11925	0.10139	0.13783	0.35641	0.17326	0.11394	0.2051	0.35196	0.23867	0.23381	0.25344	0.27627	-3.7583	-3.8167	-3.3438	-4.4208	-3.4354	-3.5833	-4.2896	-3.475	-4.0417	-3.8042	-3.3625	-4.2937	-3.5938	-3.7208	-4.2458	-3.4917	320.932	142.634	157.457	398.539	193.528	134.521	387.197	391.517	213.826	107.210	353.664	360.601	240.986	411.755	379.491	412.178	0.00053774	0.00044326	0.00015332	1352.2	3.9567e-06	4.4968e-06	1351.4	365.25	1.3041e-06	5.4764e-06	418.14	138.35	120.51	41.4	4.3923e-06	51.24	0.00057168	0.00057335	0.00015969	1370.6	6.2912e-06	6.27e-06	1367.1	371.24	6.2671e-06	6.2618e-06	425.07	141.5	123.74	42.502	6.2818e-06	52.624	178.240	140.727	179.276	91.411	267.804	257.967	92.144	96.769	228.921	185.362	96.431	100.329	100.559	105.264	284.578	104.116	-8191	255	
466.093	1	1	0	0	0.043476	0.15938	0.058227	0.083642	0.13252	0.14043	0.21383	0.26277	0.10259	0.16037	0.40869	0.25754	0.33699	0.24826	0.1476	0.19904	-3.6188	-3.9021	-3.5333	-4.4187	-3.6375	-3.6396	-4.5583	-3.6271	-3.8208	-3.825	-3.1917	-3.9896	-3.5229	-3.4938	-4.2958	-3.4896	142.891	137.412	282.856	426.227	178.766	289.193	369.111	345.657	268.494	221.412	411.861	376.120	91.194	107.285	209.241	368.088	0.0004685	0.00011885	0.0001906	1356.5	4.2932e-06	7.8127e-07	1349	363.86	5.4862e-06	3.3198e-06	418.16	137.88	119.38	41.451	7.2429e-06	51.207	0.00056255	0.00056946	0.00015985	1371.4	6.2047e-06	6.2401e-06	1369.9	371.04	6.3535e-06	6.3143e-06	426.12	141.63	123.44	42.523	6.3324e-06	52.632	187.399	150.751	163.207	91.315	112.071	213.498	91.319	95.911	200.460	164.828	95.241	99.624	100.533	104.637	237.662	103.757	-8191	255	
466.189	1	1	0	0	0.013175	0.12786	0.26673	0.24477	0.099693	0.03338	0.18274	0.21681	0.057103	0.34695	0.16851	0.024861	0.1347	0.44963	0.15376	0.047641	-3.3604	-4.1354	-3.2896	-4.2292	-3.6333	-3.5	-4.2917	-3.3937	-3.7042	-3.9125	-3.3792	-4.0062	-3.8	-3.4625	-4.1792	-3.5208	260.378	102.105	435.377	399.634	251.259	110.920	245.857	313.129	185.409	291.780	88.901	178.008	213.471	418.888	91.833	91.305	0.00043376	0.00060584	0.00015885	1356	2.1145e-06	5.4739e-06	1350.1	364.04	1.4222e-06	6.9862e-06	416.78	137.84	120.66	41.454	5.6382e-06	51.424	0.00057649	0.00057913	0.00016058	1372.9	6.2779e-06	6.3465e-06	1371.2	371.09	6.3134e-06	6.3581e-06	425.72	141.64	123.54	42.523	6.3444e-06	52.772	182.633	167.025	138.670	91.200	277.142	196.137	91.012	95.735	244.304	220.202	95.039	99.515	100.159	104.652	414.896	103.831	-8191	255	
466.287	1	1	0	0	0.055342	0.10867	0.16635	0.047732	0.10172	0.16066	0.098997	0.093497	0.16324	0.077343	0.065437	0.12242	0.052399	0.16927	0.08024	0.19352	-3.4188	-4.2229	-3.3812	-4.0792	-3.7438	-3.2708	-4.1792	-3.5812	-3.4562	-4.0979	-3.2042	-3.9437	-3.9313	-3.4042	-4.1125	-3.7833	84.669	422.266	120.385	428.470	325.686	310.992	323.582	404.341	204.032	91.914	162.291	278.913	192.097	417.584	338.704	190.398	0.00042464	0.00047621	0.0001534	1353.5	5.7104e-06	4.1869e-06	1350.1	364.08	3.9152e-06	6.8532e-06	416.61	138	120.4	41.36	1.574e-06	51.083	0.00056763	0.00057889	0.00016113	1374.2	6.3215e-06	6.3381e-06	1369.5	371.2	6.3888e-06	6.4096e-06	425.57	141.89	123.84	42.498	6.3827e-06	52.681	183.456	145.526	120.591	91.138	242.449	204.745	91.070	95.679	286.626	296.343	95.045	99.596	100.055	104.655	293.976	103.784	-8191	255	
466.406	1	1	0	0	0.10399	0.21387	0.09924	0.33592	0.18931	0.045391	0.2778	0.22193	0.24931	0.047727	0.084192	0.28021	0.15576	0.28032	0.24622	0.1756	-3.0958	-4.0271	-3.2354	-4.0375	-3.8312	-3.1875	-4.1312	-3.6667	-3.3458	-4.2854	-3.7042	-3.9229	-3.8375	-3	-4.1104	-3.6813	167.294	200.835	118.722	395.736	370.138	146.354	392.017	388.982	357.128	164.244	267.805	135.859	319.849	401.010	242.897	262.653	0.00045051	0.00049699	0.00023868	1349.5	3.6179e-06	4.3562e-06	1349.9	363.8	8.9483e-06	1.4939e-06	417.58	137.81	119.69	41.209	2.6178e-06	51.147	0.00058338	0.00058266	0.00016267	1372.3	6.3655e-06	6.4137e-06	1367.9	370.86	6.4419e-06	6.4452e-06	425.42	141.57	123.72	42.462	6.4152e-06	52.62	176.760	172.055	130.574	91.137	270.685	105.264	91.022	95.860	192.028	258.424	95.224	99.863	99.940	104.463	184.363	103.728	-8191	255	
466.502	1	1	0	0	0.27873	0.058086	0.052521	0.33991	0.11983	0.18171	0.087658	0.21326	0.20217	0.19844	0.20103	0.036268	0.14	0.27676	0.058238	0.058334	-3.1083	-4.2146	-3.4833	-3.9167	-3.9792	-3.4813	-4.1354	-3.9479	-3.3542	-4.2021	-3.5479	-3.5625	-4.0292	-3.2812	-3.7438	-3.85	372.654	149.406	408.706	388.833	369.043	138.292	360.082	309.539	235.904	112.858	94.740	87.277	429.401	128.289	405.999	325.212	0.0004243	0.00035067	0.0001731	1352	3.8033e-06	2.8559e-06	1349.9	362.87	5.3859e-06	7.0218e-06	415.05	137.95	119.35	41.064	5.6974e-06	51.109	0.00058483	0.00058611	0.00016363	1371.8	6.4272e-06	6.4811e-06	1370	370.22	6.4854e-06	6.486e-06	424.84	141.29	123.53	42.377	6.5116e-06	52.553	184.129	100.913	230.609	90.962	246.418	286.871	91.005	95.701	303.536	226.994	95.065	99.543	100.001	104.410	279.206	103.409	-8191	255	
466.598	1	1	0	0	0.024636	0.13436	0.071508	0.151	0.19581	0.050436	0.038082	0.27295	0.16798	0.13233	0.15105	0.301	0.1536	0.13193	0.11388	0.10663	-3.0354	-4.1021	-3.5479	-3.7646	-4.05	-3.1479	-3.9813	-3.9813	-3.1917	-4.2667	-3.6875	-3.5938	-4.0167	-3.2583	-3.8312	-4.0188	259.471	291.732	432.174	304.462	188.006	275.112	91.697	332.736	180.260	150.460	303.807	434.341	203.315	129.146	113.276	335.718	0.00040172	0.00019166	0.00022971	1352.8	7.9346e-06	9.7745e-06	1348.2	362.88	3.3547e-06	2.1332e-06	416.29	137.23	119.43	41.104	6.6104e-06	50.946	0.00058869	0.00059504	0.00016628	1372	6.5326e-06	6.5722e-06	1368.7	370.37	6.6073e-06	6.6131e-06	424.87	141.19	123.9	42.471	6.7857e-06	52.66	177.178	429.440	157.089	91.122	257.915	213.505	90.897	95.439	217.673	223.936	95.017	99.683	100.179	104.558	259.271	103.511	-8191	255	
466.694	1	1	0	0	0.1543	0.12374	0.29504	0.29989	0.050712	0.14575	0.15831	0.091374	0.091252	0.095643	0.28637	0.42495	0.14816	0.077545	0.29374	0.21321	-3.0438	-3.9375	-3.3667	-3.4917	-4.2875	-3.3125	-3.9604	-4.2771	-3.2917	-4.1188	-3.8083	-3.5354	-4.1667	-3.1979	-3.4854	-4.1292	115.884	435.949	180.129	366.043	129.858	356.305	312.480	436.460	364.043	384.809	388.912	393.826	121.679	138.068	211.383	437.235	0.00043901	0.00048897	0.00015876	1356.7	3.5306e-06	4.7911e-06	1348.8	364.56	4.0426e-06	4.2968e-06	415.4	137.44	120.32	41.162	6.7693e-06	51.328	0.00061335	0.00061702	0.00017291	1377.2	6.696e-06	6.7841e-06	1371.2	371.59	6.7451e-06	6.7655e-06	426.11	141.84	124.43	42.52	6.7331e-06	52.865	179.547	227.124	157.309	91.161	235.619	275.815	91.026	95.609	236.605	231.617	94.960	99.600	99.990	104.143	219.153	103.748	-8191	255	
466.790	1	1	0	0	0.23404	0.14429	0.11424	0.1039	0.25821	0.26983	0.20775	0.12038	0.29167	0.19494	0.070523	0.025228	0.12707	0.11347	0.1462	0.30535	-2.9313	-3.9792	-3.5667	-3.5104	-4.1188	-3.375	-3.6875	-4.1188	-3.1708	-3.8729	-3.8063	-3.3438	-4.0938	-3.3354	-3.325	-4.1229	258.035	422.316	429.517	315.121	316.460	422.944	339.270	324.784	303.044	88.630	143.517	354.700	115.091	363.780	339.674	344.302	0.0004112	0.00034637	0.00013535	1355.1	6.0638e-06	5.4406e-06	1350.2	363.85	3.4218e-06	1.4605e-06	417.58	138.09	120.22	41.493	3.3022e-06	51.267	0.00060698	0.00060776	0.00016816	1377.3	6.6049e-06	6.5998e-06	1373.8	371.73	6.5338e-06	6.5762e-06	426.59	141.74	123.84	42.563	6.336e-06	52.768	186.841	157.053	190.654	90.963	246.285	170.235	91.082	95.601	182.719	360.509	95.088	99.435	99.857	103.989	231.605	103.813	-8191	255	
466.886	1	1	0	0	0.069191	0.0436	0.2102	0.33589	0.32768	0.18621	0.16386	0.15316	0.16993	0.07674	0.20782	0.25886	0.14488	0.14533	0.10487	0.24235	-2.8271	-3.9062	-4.0125	-3.4583	-4.0271	-3.4667	-3.5083	-4.3021	-3.3	-3.8187	-4.0979	-3.2521	-4.0104	-3.6708	-3.4396	-4.2042	272.286	170.492	352.822	406.491	322.643	319.756	436.657	344.917	232.305	225.416	82.468	432.715	230.397	430.922	117.615	342.265	0.00053157	0.00035995	0.00020825	1353.9	8.6264e-06	7.4645e-06	1350.1	363.1	2.4971e-06	4.6445e-06	417	138.21	120.19	41.301	3.654e-06	51.289	0.00057512	0.00057975	0.00015957	1374.1	6.196e-06	6.2555e-06	1372.3	371.27	6.2237e-06	6.2135e-06	426.39	141.56	123.45	42.544	6.2169e-06	52.72	186.437	228.127	157.657	90.917	259.838	248.485	90.801	95.773	252.705	158.834	94.815	99.348	100.246	104.221	264.265	103.756	-8191	255	
467.007	1	1	0	0	0.18294	0.15456	0.038806	0.12376	0.050351	0.18731	0.29341	0.16399	0.15217	0.10165	0.34438	0.10361	0.15845	0.19726	0.069878	0.22629	-3.0125	-3.6625	-3.9083	-3.4375	-4.1	-3.5354	-3.6542	-4.0917	-3.2333	-3.5958	-4.1104	-3.3083	-4.0563	-3.8042	-3.1354	-4.1229	203.365	231.150	226.346	376.373	199.439	426.011	431.210	346.033	201.037	396.370	80.894	160.945	384.687	331.738	115.458	147.185	0.00051393	0.00037673	0.00019473	1354.3	8.1078e-06	3.6112e-06	1351.5	364.37	4.6984e-06	3.2447e-06	417.31	137.96	121.37	41.411	4.9588e-06	51.421	0.00056631	0.00056831	0.00015819	1375.4	6.3281e-06	6.2659e-06	1372.8	371.23	6.322e-06	6.3764e-06	426.29	141.53	124.3	42.574	6.3744e-06	52.817	183.033	165.589	186.934	90.893	261.007	220.100	90.870	95.500	178.270	309.437	94.775	99.516	100.384	104.275	250.309	103.746	-8191	255	
467.101	1	1	0	0	0.17589	0.026959	0.062292	0.26154	0.23782	0.31597	0.31046	0.11116	0.29867	0.22349	0.03016	0.17349	0.37534	0.11271	0.14538	0.21108	-3.2125	-3.4833	-4.1146	-3.3479	-3.7438	-3.6833	-3.5167	-4.2229	-3.4229	-3.5542	-4.1792	-3.2854	-3.8396	-4.1687	-3.2521	-4.0188	344.105	106.517	135.896	345.691	265.793	361.405	341.526	92.703	327.139	203.143	279.335	407.857	166.150	327.812	223.294	283.078	0.00044538	0.0002033	0.00012304	1356	4.5017e-06	7.0776e-06	1351.3	365.13	1.9712e-06	6.2727e-06	419.03	138.06	120.01	41.364	8.531e-06	51.366	0.00058061	0.00058909	0.0001625	1375.4	6.4396e-06	6.4772e-06	1372.8	371.79	6.455e-06	6.5128e-06	426.51	141.77	124.07	42.61	6.507e-06	52.786	186.849	107.029	98.273	90.866	200.618	200.413	90.926	95.687	249.747	343.563	95.069	99.416	100.320	104.303	205.650	103.420	-8191	255	
467.197	1	1	0	0	0.19208	0.061416	0.16099	0.32805	0.094516	0.17145	0.12961	0.12388	0.071048	0.24802	0.13746	0.24777	0.080578	0.15553	0.12798	0.21858	-3.1479	-3.4021	-4.2312	-3.4042	-3.6917	-3.9146	-3.2771	-4.1	-3.5479	-3.5312	-4.2521	-3.2917	-3.5458	-3.9354	-3.2021	-4.0938	431.681	279.975	364.243	327.483	359.508	142.306	290.385	337.411	318.472	170.729	395.651	114.597	246.474	137.792	344.309	409.193	0.00041728	0.00073381	0.0001495	1352.1	3.7799e-06	6.6932e-07	1352.9	363.62	3.7192e-06	5.7982e-06	418.28	137.47	120.12	41.165	1.0196e-05	50.892	0.00059093	0.00059112	0.00016399	1374.5	6.499e-06	6.516e-06	1371.3	371.44	6.5068e-06	6.5795e-06	426.21	141.31	123.78	42.474	6.5121e-06	52.597	180.756	215.747	189.921	90.745	256.570	133.296	90.960	95.599	294.000	223.872	94.904	99.645	100.297	104.511	261.392	103.715	-8191	255	
467.294	1	1	0	0	0.12626	0.19256	0.041903	0.15266	0.23926	0.21979	0.22106	0.28287	0.13779	0.1515	0.21867	0.20637	0.16193	0.18304	0.20674	0.22164	-3.3	-3.1125	-4.0687	-3.4167	-3.6396	-3.9813	-3.2188	-3.9458	-3.5938	-3.2417	-4.3167	-3.2625	-3.5479	-4.1625	-3.0271	-4.0813	294.685	154.813	116.417	403.700	311.775	84.654	94.483	335.144	373.328	155.208	384.767	376.905	126.037	417.954	248.888	429.940	0.00046512	0.00045864	0.00026665	1348.1	3.7921e-06	1.8891e-06	1350.3	362.67	4.611e-06	7.2824e-06	415.61	137.97	120.06	41.244	3.3838e-06	51.347	0.00059002	0.00059976	0.0001659	1370.9	6.5136e-06	6.563e-06	1368.8	370.28	6.5138e-06	6.5394e-06	425.64	141.3	123.8	42.442	6.4959e-06	52.741	180.489	206.840	195.368	90.844	241.137	216.184	90.800	95.644	262.453	218.070	94.949	99.456	100.696	104.346	224.691	103.841	-8191	255	
#DATA ENDS
