BOXY.EXE: ISS Imagent and Oximeter Data Acquisition Program Version 0.80
Ascii Record File

#ACQ INFORMATION
2  Detector Channels 
16  External MUX Channels 
1  Auxiliary Channels 
5000  Waveform (CCF) Frequency (Hz)
1  Waveforms Skipped 
30  Waveforms Averaged 
1  Cycles Averaged 
16  Acquisitions per Waveform 
10.0806  Updata Rate (Hz) 

#FILE INFORMATION
TRUE -- External MUX Channel results are PARSED.
FALSE -- AC DC and Phase are NOT grouped.
TRUE -- Companion Program Settings File CREATED.
FALSE -- AC data not excluded
FALSE -- DC data not excluded
FALSE -- Phase data not excluded
FALSE -- Auxillary Chn. data not excluded
Tab delimiters

#CALIBRATION STATE
TRUE -- Waveform Calibration Values APPLIED.


#AUX CALIBRATION VALUES
Val Type	aux-1	

Term	1.0000e+00	
Factor	0.0000e+00	


#WF CALIBRATION VALUES
A = Detector Channel
Val Type	A-AC1	A-AC2	A-AC3	A-AC4	A-AC5	A-AC6	A-AC7	A-AC8	A-AC9	A-AC10	A-AC11	A-AC12	A-AC13	A-AC14	A-AC15	A-AC16	A-DC1	A-DC2	A-DC3	A-DC4	A-DC5	A-DC6	A-DC7	A-DC8	A-DC9	A-DC10	A-DC11	A-DC12	A-DC13	A-DC14	A-DC15	A-DC16	A-Ph1	A-Ph2	A-Ph3	A-Ph4	A-Ph5	A-Ph6	A-Ph7	A-Ph8	A-Ph9	A-Ph10	A-Ph11	A-Ph12	A-Ph13	A-Ph14	A-Ph15	A-Ph16	

Term	0.00000e+00	0.00000e+00	0.00000e+00	0.00000e+00	0.00000e+00	0.00000e+00	0.00000e+00	0.00000e+00	0.00000e+00	0.00000e+00	0.00000e+00	0.00000e+00	0.00000e+00	0.00000e+00	0.00000e+00	0.00000e+00	0.00000e+00	0.00000e+00	0.00000e+00	0.00000e+00	0.00000e+00	0.00000e+00	0.00000e+00	0.00000e+00	0.00000e+00	0.00000e+00	0.00000e+00	0.00000e+00	0.00000e+00	0.00000e+00	0.00000e+00	0.00000e+00	0.00000e+00	0.00000e+00	0.00000e+00	0.00000e+00	0.00000e+00	0.00000e+00	0.00000e+00	0.00000e+00	0.00000e+00	0.00000e+00	0.00000e+00	0.00000e+00	0.00000e+00	0.00000e+00	0.00000e+00	0.00000e+00	
Factor	1.00000e+00	1.00000e+00	1.00000e+00	1.00000e+00	1.00000e+00	1.00000e+00	1.00000e+00	1.00000e+00	1.00000e+00	1.00000e+00	1.00000e+00	1.00000e+00	1.00000e+00	1.00000e+00	1.00000e+00	1.00000e+00	1.00000e+00	1.00000e+00	1.00000e+00	1.00000e+00	1.00000e+00	1.00000e+00	1.00000e+00	1.00000e+00	1.00000e+00	1.00000e+00	1.00000e+00	1.00000e+00	1.00000e+00	1.00000e+00	1.00000e+00	1.00000e+00	X	X	X	X	X	X	X	X	X	X	X	X	X	X	X	X	

B = Detector Channel
Val Type	B-AC1	B-AC2	B-AC3	B-AC4	B-AC5	B-AC6	B-AC7	B-AC8	B-AC9	B-AC10	B-AC11	B-AC12	B-AC13	B-AC14	B-AC15	B-AC16	B-DC1	B-DC2	B-DC3	B-DC4	B-DC5	B-DC6	B-DC7	B-DC8	B-DC9	B-DC10	B-DC11	B-DC12	B-DC13	B-DC14	B-DC15	B-DC16	B-Ph1	B-Ph2	B-Ph3	B-Ph4	B-Ph5	B-Ph6	B-Ph7	B-Ph8	B-Ph9	B-Ph10	B-Ph11	B-Ph12	B-Ph13	B-Ph14	B-Ph15	B-Ph16	

Term	0.00000e+00	0.00000e+00	0.00000e+00	0.00000e+00	0.00000e+00	0.00000e+00	0.00000e+00	0.00000e+00	0.00000e+00	0.00000e+00	0.00000e+00	0.00000e+00	0.00000e+00	0.00000e+00	0.00000e+00	0.00000e+00	0.00000e+00	0.00000e+00	0.00000e+00	0.00000e+00	0.00000e+00	0.00000e+00	0.00000e+00	0.00000e+00	0.00000e+00	0.00000e+00	0.00000e+00	0.00000e+00	0.00000e+00	0.00000e+00	0.00000e+00	0.00000e+00	-7.86066e+01	-1.31001e+02	-1.24786e+02	-1.83817e+02	-4.99121e+01	-6.53093e+01	-1.58668e+02	-1.62015e+02	-4.89199e+01	-6.62152e+01	-1.74374e+02	-1.69631e+02	-1.81559e+02	-1.77656e+02	-5.84456e+01	-1.50419e+02	
Factor	1.94216e-05	1.68321e-04	4.74969e-05	1.55115e-01	1.43856e-06	2.00494e-06	1.80626e-01	6.10451e-02	1.32424e-06	1.89511e-06	1.00420e-01	3.08861e-02	3.91032e-02	1.03895e-02	1.63570e-06	1.47649e-02	1.30170e-05	2.26506e-05	6.31162e-06	7.96424e-02	2.23240e-07	2.52336e-07	8.66108e-02	3.14689e-02	2.25496e-07	2.50935e-07	5.02129e-02	1.55535e-02	2.03098e-02	5.40091e-03	2.36603e-07	7.42413e-03	X	X	X	X	X	X	X	X	X	X	X	X	X	X	X	X	



#DISTANCE SETTINGS
A = Detector Channel
A-1	A-2	A-3	A-4	A-5	A-6	A-7	A-8	A-9	A-10	A-11	A-12	A-13	A-14	A-15	A-16	

2.5000e+00	3.0000e+00	2.5000e+00	3.0000e+00	2.0000e+00	3.0000e+00	1.5000e+00	3.0000e+00	3.0000e+00	3.0000e+00	3.0000e+00	3.0000e+00	3.0000e+00	3.0000e+00	1.5000e+00	3.0000e+00	

B = Detector Channel
B-1	B-2	B-3	B-4	B-5	B-6	B-7	B-8	B-9	B-10	B-11	B-12	B-13	B-14	B-15	B-16	

1.0000e+01	1.0000e+01	1.0000e+01	1.4400e+00	1.0000e+01	1.0000e+01	1.5100e+00	1.9400e+00	1.0000e+01	1.0000e+01	1.9900e+00	2.4900e+00	2.4100e+00	2.9000e+00	1.0000e+01	2.9800e+00	




#DATA BEGINS
time	group	step	mark	flag	A-AC1	A-AC2	A-AC3	A-AC4	A-AC5	A-AC6	A-AC7	A-AC8	A-AC9	A-AC10	A-AC11	A-AC12	A-AC13	A-AC14	A-AC15	A-AC16	A-DC1	A-DC2	A-DC3	A-DC4	A-DC5	A-DC6	A-DC7	A-DC8	A-DC9	A-DC10	A-DC11	A-DC12	A-DC13	A-DC14	A-DC15	A-DC16	A-Ph1	A-Ph2	A-Ph3	A-Ph4	A-Ph5	A-Ph6	A-Ph7	A-Ph8	A-Ph9	A-Ph10	A-Ph11	A-Ph12	A-Ph13	A-Ph14	A-Ph15	A-Ph16	B-AC1	B-AC2	B-AC3	B-AC4	B-AC5	B-AC6	B-AC7	B-AC8	B-AC9	B-AC10	B-AC11	B-AC12	B-AC13	B-AC14	B-AC15	B-AC16	B-DC1	B-DC2	B-DC3	B-DC4	B-DC5	B-DC6	B-DC7	B-DC8	B-DC9	B-DC10	B-DC11	B-DC12	B-DC13	B-DC14	B-DC15	B-DC16	B-Ph1	B-Ph2	B-Ph3	B-Ph4	B-Ph5	B-Ph6	B-Ph7	B-Ph8	B-Ph9	B-Ph10	B-Ph11	B-Ph12	B-Ph13	B-Ph14	B-Ph15	B-Ph16	aux-1	digaux	

20050.088	1	1	0	768	0.18091	0.2235	0.21415	0.083284	0.065283	0.10882	0.2378	0.33717	0.18635	0.13861	0.18889	0.22731	0.10923	0.18832	0.096648	0.31539	-1.9625	-3.0062	-2.675	-2.5438	-2.8271	-2.4208	-2.8104	-2.8625	-2.2667	-2.8479	-2.7646	-2.3	-2.9667	-2.6333	-2.5167	-3.0687	217.392	272.523	305.553	174.041	188.490	126.033	392.930	285.428	104.994	184.836	313.516	354.773	206.018	405.274	118.834	77.504	0.00057298	0.00057709	0.00010877	826.61	7.1111e-06	6.63e-06	756.26	351.64	4.9749e-06	5.7433e-06	359.59	147	142.6	64.103	7.6748e-06	68.729	0.00068057	0.00067433	0.00019299	814.21	7.0562e-06	7.3561e-06	741.6	347.85	7.4827e-06	7.4198e-06	354.32	145.47	141.29	63.85	7.8833e-06	68.017	211.927	161.014	153.974	77.047	230.370	236.717	76.385	82.195	236.687	222.269	79.953	84.082	86.351	89.448	238.291	87.086	-8191	255	
20050.184	1	1	0	0	0.10467	0.18611	0.061692	0.15362	0.1446	0.17275	0.37985	0.073754	0.1771	0.26874	0.07781	0.01856	0.28495	0.12732	0.10334	0.21402	-1.8833	-2.9167	-2.7708	-2.4229	-2.9229	-2.5271	-2.6188	-3.1333	-2.175	-2.9	-2.8771	-2.3167	-3.0333	-2.8521	-2.3542	-2.9562	316.573	202.034	410.423	410.246	304.762	257.501	311.488	359.249	139.868	374.443	70.361	295.406	109.279	165.636	190.489	304.375	0.00055279	0.00054587	0.00022155	833.04	4.005e-06	2.9587e-06	756.97	351.75	5.5465e-06	4.5953e-06	352.29	144.93	141.55	63.076	5.8291e-06	67.229	0.00069047	0.00067867	0.00019483	816.91	7.1297e-06	7.6721e-06	740.46	346.39	7.3676e-06	7.4894e-06	349.81	143.13	139.91	62.813	7.9647e-06	66.517	215.485	165.206	171.979	76.794	247.241	232.828	76.490	81.975	216.188	186.310	79.687	84.517	86.172	89.770	226.489	87.222	-8191	255	
20050.279	1	1	0	0	0.15765	0.24516	0.24848	0.26343	0.12672	0.12036	0.30911	0.22695	0.052381	0.13222	0.20513	0.30187	0.23875	0.23058	0.092108	0.24177	-1.75	-2.7667	-2.7188	-2.2896	-2.7562	-2.6792	-2.4146	-3.1104	-2.2938	-2.7604	-2.8563	-2.4437	-2.7604	-2.625	-2.1562	-2.9583	179.427	112.004	405.233	382.164	393.953	267.902	338.577	345.905	417.245	365.548	396.803	339.563	99.507	380.396	265.521	396.920	0.00052425	0.00060181	0.00013409	830.85	5.855e-06	6.7922e-06	744.44	346.96	4.5868e-06	7.1848e-06	350.35	142.24	138.97	62.282	6.8587e-06	65.829	0.0006803	0.00071359	0.00019377	813.82	7.5074e-06	7.8456e-06	730.68	342.27	7.6725e-06	8.0184e-06	344.93	141.12	138.12	62.045	8.1465e-06	65.474	213.237	147.726	178.913	77.076	248.548	229.469	76.446	81.845	249.748	205.167	79.947	84.397	86.441	89.616	226.850	87.005	-8191	255	
20050.377	1	1	0	0	0.13359	0.2489	0.16678	0.16406	0.22202	0.18935	0.23107	0.21336	0.12991	0.14829	0.26536	0.14201	0.18223	0.25661	0.16666	0.075728	-1.9417	-2.6083	-2.8479	-2.2854	-2.8708	-2.8208	-2.4417	-3.0104	-2.5354	-2.4167	-3.0687	-2.4562	-2.9167	-2.7687	-2.3167	-3.1083	228.781	309.964	224.374	81.932	345.627	71.326	336.869	387.091	349.437	249.826	386.198	375.209	413.687	70.353	126.021	102.875	0.00052745	0.00065899	0.0001528	830.02	5.2461e-06	7.2343e-06	745.68	345.31	5.3434e-06	6.9231e-06	351.07	142.58	139.39	62.357	8.8938e-06	66.154	0.00069248	0.0007353	0.00019308	813.13	7.2804e-06	7.9381e-06	729.09	341.96	7.5734e-06	7.9933e-06	344.38	141.07	138.31	62.049	8.1037e-06	65.725	211.447	157.719	136.777	77.241	213.560	201.589	76.476	81.968	252.385	209.717	79.867	84.121	86.165	89.422	224.794	87.544	-8191	255	
20050.473	1	1	0	0	0.19972	0.1947	0.15358	0.28086	0.25812	0.065706	0.2506	0.16673	0.036957	0.14492	0.12624	0.053901	0.17445	0.17806	0.051544	0.18566	-1.9438	-2.5187	-2.8354	-2.4875	-2.7021	-2.9125	-2.3333	-3.0479	-2.7	-2.5125	-3.0354	-2.35	-2.7271	-2.9792	-2.1542	-3.0479	186.281	273.136	106.817	385.789	318.285	186.047	390.383	223.964	119.540	67.333	296.114	91.933	395.524	394.523	74.035	255.491	0.0005333	0.00075051	0.00016076	829.6	4.9915e-06	5.2028e-06	748.52	349.24	6.8033e-06	4.8724e-06	352.09	142.8	140.2	62.44	6.7422e-06	66.524	0.00068779	0.00073048	0.00020212	814.34	7.3413e-06	7.7173e-06	732.82	342.97	7.5325e-06	8.0409e-06	347.29	141.64	139.11	62.277	7.8927e-06	65.897	212.611	146.516	157.965	76.771	249.098	181.403	76.298	81.799	241.927	238.098	79.983	84.315	86.159	89.837	210.119	87.138	-8191	255	
20050.568	1	1	0	0	0.24722	0.15315	0.26329	0.15479	0.29951	0.17834	0.13733	0.16743	0.18123	0.14016	0.078609	0.17139	0.16771	0.26641	0.095297	0.3745	-2.1854	-2.3208	-3.0583	-2.5125	-2.7458	-3.025	-2.3729	-2.8021	-2.6063	-2.5646	-3.1312	-2.3958	-2.5604	-2.9979	-2.2938	-3.025	410.367	85.937	85.412	396.422	170.471	68.758	416.254	260.487	278.990	108.475	337.670	127.704	391.108	419.547	274.453	402.967	0.00054801	0.00070842	0.00016437	834.81	3.6786e-06	7.6549e-06	745.4	345.73	4.9675e-06	7.079e-06	350.06	141.92	140.42	62.247	6.6671e-06	66.19	0.00068947	0.00072727	0.00019751	818.54	7.3762e-06	7.7346e-06	732.71	342.35	7.6514e-06	7.8715e-06	344.96	140.87	139.15	61.964	8.1382e-06	65.372	212.023	168.071	157.434	77.071	227.904	207.557	76.469	81.978	251.996	216.197	79.971	84.342	86.110	89.897	223.834	87.021	-8191	255	
20050.689	1	1	0	0	0.23124	0.1078	0.087601	0.21258	0.070655	0.087586	0.13534	0.18968	0.1946	0.16327	0.1427	0.10062	0.089206	0.16024	0.12685	0.079291	-2.4521	-2.3812	-3.0687	-2.6417	-2.6437	-3.1	-2.4562	-2.7896	-2.9313	-2.2875	-2.9458	-2.5875	-2.4521	-2.9729	-2.3375	-2.8521	148.813	248.012	372.011	167.475	275.421	393.508	345.812	407.082	312.097	390.620	78.251	375.641	318.024	148.082	159.353	226.074	0.00052462	0.00062691	0.00017553	834.54	4.5086e-06	5.9949e-06	751.53	347.13	5.5815e-06	6.9691e-06	347.51	141.95	139.83	62.106	6.3652e-06	65.801	0.00068209	0.0007444	0.00019925	817.94	7.5302e-06	7.9307e-06	732.52	342.5	7.5499e-06	7.9044e-06	343.75	140.56	138.87	61.933	7.834e-06	65.275	211.190	162.644	153.283	77.222	237.660	204.045	76.577	82.062	241.785	204.365	80.011	84.310	86.359	89.841	221.655	87.128	-8191	255	
20050.785	1	1	0	0	0.32902	0.3033	0.24847	0.18486	0.10091	0.14841	0.25482	0.47193	0.047481	0.093099	0.085173	0.34211	0.1508	0.066828	0.16435	0.18433	-2.4437	-2.2583	-2.8542	-2.4542	-2.4375	-2.875	-2.2771	-2.4833	-2.7833	-2.3583	-3.0229	-2.7146	-2.3521	-3.0667	-2.4604	-2.8458	65.707	362.362	314.429	71.427	216.180	67.377	352.652	320.941	169.480	348.330	405.183	365.534	319.539	251.270	301.414	297.982	0.00053404	0.00050262	0.00019519	831.11	5.6772e-06	6.557e-06	749.57	346.98	4.4734e-06	6.2292e-06	348.53	142.33	139.65	62.067	5.5661e-06	66.158	0.00067773	0.00071279	0.00020004	816.66	7.4009e-06	7.7162e-06	731.42	342.16	7.339e-06	7.7079e-06	344.57	141.06	138.94	61.835	7.9233e-06	65.434	215.076	150.418	137.794	77.450	222.611	210.307	76.393	81.882	222.811	212.497	79.997	84.342	86.564	89.901	236.519	86.941	-8191	255	
20050.881	1	1	0	0	0.062098	0.099318	0.1321	0.13967	0.15486	0.19477	0.13954	0.10649	0.11738	0.10942	0.15728	0.1919	0.24348	0.20462	0.23733	0.32331	-2.4813	-2.1771	-2.8833	-2.7521	-2.3792	-3.0917	-2.7104	-2.4938	-2.925	-2.2354	-2.7438	-2.8396	-2.3187	-3.2438	-2.5021	-2.5729	124.883	369.488	358.353	379.808	381.623	92.058	180.414	249.516	210.034	160.203	316.979	65.096	363.852	418.826	254.645	398.788	0.00052701	0.00036722	0.00013108	833.93	6.5356e-06	7.0184e-06	748.16	346.64	4.2895e-06	5.0343e-06	348.98	142.8	140.28	62.022	4.8921e-06	65.934	0.00065964	0.00072567	0.00020159	820.66	7.5711e-06	7.7714e-06	734.63	341.73	7.3216e-06	7.8067e-06	344.35	141.32	138.95	61.764	7.7966e-06	65.339	214.062	139.025	162.498	76.981	243.709	244.036	76.688	81.777	246.462	209.569	80.131	84.351	86.263	89.769	200.916	86.961	-8191	255	
20050.979	1	1	0	0	0.10792	0.10895	0.42312	0.14144	0.16561	0.12927	0.088875	0.034503	0.20131	0.22825	0.10618	0.1503	0.23965	0.12597	0.14078	0.15652	-2.5583	-2.2021	-2.6979	-2.9188	-2.1208	-3.0146	-2.7	-2.6167	-2.8875	-2.4813	-2.7438	-2.8396	-2.375	-3.0042	-2.5292	-2.4771	223.106	173.789	308.032	260.879	196.992	67.708	164.071	348.769	406.952	159.948	110.963	69.374	339.145	372.177	140.229	381.631	0.00052352	0.0006635	0.00013205	838.61	5.9481e-06	4.471e-06	750.88	345.65	3.556e-06	3.9079e-06	351.41	141.88	139.43	61.627	3.7706e-06	65.459	0.00067301	0.0007101	0.00019962	821.7	7.533e-06	8.069e-06	734.8	341.26	7.3949e-06	8.0994e-06	344.11	140.74	138.3	61.467	7.9444e-06	64.853	214.814	171.044	150.908	77.223	254.138	229.668	76.639	81.776	230.247	196.845	79.988	84.442	85.945	89.745	227.557	87.098	-8191	255	
20051.072	1	1	0	0	0.060254	0.25256	0.1188	0.17843	0.025573	0.066662	0.31256	0.053316	0.11039	0.15632	0.28496	0.12959	0.28619	0.11161	0.22298	0.33452	-2.4188	-2.3438	-2.4229	-2.9958	-2.2167	-2.8937	-2.7583	-2.3542	-3.0833	-2.2208	-2.4875	-3.0375	-2.1521	-2.9437	-2.5729	-2.4813	105.405	130.554	237.935	370.764	391.086	287.957	335.197	385.941	281.525	223.813	69.507	408.996	251.886	176.254	346.248	77.474	0.00050222	0.00056377	0.00018154	838.53	4.907e-06	7.3597e-06	750.12	343.18	5.4759e-06	5.3032e-06	344.94	140.37	138.56	61.119	5.9993e-06	64.916	0.00067962	0.00071897	0.00019843	820.67	7.4297e-06	8.1005e-06	731.63	339.52	7.5306e-06	7.9233e-06	340.27	139.44	137.21	60.976	7.9366e-06	64.144	212.816	182.107	136.841	76.989	211.757	227.619	76.481	82.001	241.876	205.199	79.545	84.352	86.565	89.662	199.483	86.846	-8191	255	
20051.168	1	1	0	0	0.16404	0.20848	0.12321	0.44929	0.10944	0.10204	0.26169	0.11485	0.090151	0.19864	0.034543	0.056652	0.09427	0.2682	0.13023	0.25416	-2.4167	-2.6458	-2.375	-3.0938	-2.3292	-2.7833	-2.8333	-2.25	-3.05	-2.55	-2.5625	-3.0708	-2.5292	-2.8583	-2.7687	-2.2458	112.175	294.241	275.074	398.649	74.280	75.799	379.718	417.516	213.167	366.709	375.620	321.450	98.718	374.640	162.262	349.957	0.00052433	0.00052839	0.00018319	833.34	6.6197e-06	4.2258e-06	742.91	343.38	5.115e-06	6.2378e-06	345.39	140.84	137.9	61.312	5.6786e-06	64.921	0.00068125	0.00072647	0.00020446	819.58	7.6967e-06	7.7914e-06	728.62	338.81	7.5377e-06	7.7612e-06	339.81	139.37	137.06	61.039	7.8922e-06	64.35	212.337	137.814	166.312	77.104	238.451	209.457	76.749	82.081	223.727	214.848	79.872	84.573	86.245	89.787	238.953	87.208	-8191	255	
20051.289	1	1	0	0	0.26778	0.029001	0.11223	0.17026	0.094594	0.11111	0.017486	0.15096	0.034238	0.21517	0.27279	0.12895	0.1191	0.22264	0.11008	0.04488	-2.5854	-2.5312	-2.4458	-3.0812	-2.3521	-2.6604	-2.9562	-2.3729	-2.9125	-2.5896	-2.3708	-3.0375	-2.3896	-2.8396	-2.8375	-2.2979	142.126	127.378	383.339	378.787	192.672	132.940	110.871	343.257	226.924	129.265	399.592	332.054	87.410	158.158	190.344	203.068	0.00048828	0.00059906	0.0001849	836.95	4.9275e-06	6.8122e-06	747.49	345.49	4.6923e-06	3.5138e-06	344.3	140.85	138.59	61.602	8.0713e-06	65.356	0.00065356	0.00071812	0.00020531	822.09	7.4278e-06	7.9307e-06	732.3	339.39	7.6124e-06	8.0299e-06	340.43	139.96	137.51	61.177	7.9656e-06	64.665	213.026	166.065	152.966	77.065	221.932	222.680	76.545	82.113	244.123	214.631	78.917	83.667	85.738	88.737	243.768	85.886	-8191	255	
20051.385	1	1	0	0	0.17098	0.22933	0.1901	0.1947	0.12914	0.27155	0.24544	0.22972	0.17428	0.12403	0.11762	0.1691	0.11374	0.24105	0.19817	0.10752	-2.4875	-2.5	-2.2375	-2.9667	-2.2458	-2.4458	-2.9583	-2.3479	-2.6417	-2.7646	-2.3458	-3.1437	-2.6229	-2.5708	-2.975	-2.4521	307.833	415.086	157.434	81.094	266.050	280.387	319.109	418.958	256.301	334.509	120.324	367.859	329.977	363.046	101.864	239.177	0.00050984	0.00051414	0.00023512	837.76	3.8365e-06	3.7088e-06	743.6	344.24	4.7035e-06	6.9237e-06	344.31	141.52	139.15	61.588	4.2033e-06	65.497	0.00067987	0.00072992	0.00019937	823.06	7.2762e-06	7.8871e-06	732.7	339.61	7.6011e-06	7.8025e-06	341.15	140.22	138.4	61.352	7.8542e-06	64.729	212.008	172.695	146.102	76.329	228.760	209.661	75.815	81.344	227.494	218.450	79.325	83.903	85.591	89.220	250.047	86.299	-8191	255	
20051.480	1	1	0	0	0.11831	0.21941	0.098105	0.24488	0.34311	0.23734	0.26547	0.11904	0.28306	0.24512	0.10863	0.18908	0.19897	0.17615	0.098508	0.097774	-2.2958	-2.5	-2.2292	-3.1083	-2.5167	-2.55	-3.0021	-2.5375	-2.7104	-2.9437	-2.425	-3.0771	-2.6229	-2.5958	-2.8688	-2.6271	120.502	231.072	400.558	360.823	110.152	286.934	350.442	411.094	202.662	362.464	393.370	373.108	392.077	375.488	206.235	365.901	0.00052568	0.00052497	0.00015248	843.27	4.9889e-06	5.4725e-06	746.43	345.22	5.6124e-06	3.1533e-06	344.25	140.77	138.69	61.379	5.5854e-06	64.985	0.00067371	0.00071604	0.00020255	824.18	7.4255e-06	7.845e-06	732.04	339.95	7.4193e-06	7.6885e-06	339.6	139.68	137.67	61.223	7.7946e-06	64.313	209.747	143.931	156.233	76.869	237.424	212.167	76.850	82.005	229.597	229.011	79.839	84.794	86.372	89.878	228.901	87.324	-8191	255	
20051.576	1	1	0	0	0.16948	0.066835	0.040181	0.084549	0.2447	0.24755	0.19769	0.23044	0.046182	0.098725	0.41134	0.070225	0.17306	0.17144	0.38057	0.10236	-2.2354	-2.8312	-2.3	-3.0292	-2.5958	-2.4542	-3.1562	-2.5312	-2.6188	-2.8458	-2.4625	-3.0292	-2.6958	-2.5167	-2.9458	-2.5417	340.247	338.752	151.711	82.871	151.755	235.753	401.127	314.683	125.801	399.974	357.360	226.206	419.676	358.731	119.666	336.093	0.00050539	0.00071828	0.00013605	838.37	6.1592e-06	4.0776e-06	743.17	342.66	4.6378e-06	5.5744e-06	343.92	140.21	138.82	61.063	4.7425e-06	64.805	0.00067553	0.00074827	0.00020433	823.24	7.3706e-06	7.9817e-06	730.47	338.58	7.8257e-06	8.0628e-06	338.64	138.98	137.72	60.848	8.1337e-06	64.038	211.074	159.736	141.822	77.412	240.837	203.378	76.819	82.431	214.271	232.923	80.277	84.652	86.677	89.997	214.679	87.121	-8191	255	
20051.674	1	1	0	0	0.075457	0.14521	0.16078	0.1642	0.33271	0.14906	0.096076	0.124	0.17112	0.19181	0.14353	0.089574	0.20171	0.081833	0.053641	0.28916	-2.0354	-2.8917	-2.2812	-3.025	-2.7	-2.1375	-3.1667	-2.6542	-2.4604	-3.0375	-2.3042	-2.8604	-2.9313	-2.3875	-2.9479	-2.5667	170.407	249.811	284.622	339.168	349.054	292.996	377.523	216.348	311.458	382.709	276.039	389.720	393.045	70.117	105.222	406.845	0.00051991	0.00063111	0.00013891	841.02	4.5111e-06	6.3077e-06	749.7	344.24	5.7867e-06	4.8973e-06	344.38	140.87	139.1	61.128	5.8395e-06	64.546	0.00068573	0.00072628	0.00020511	825.65	7.3753e-06	8.2251e-06	732.33	339.2	7.6509e-06	7.951e-06	338.84	139.32	137.94	60.863	8.1155e-06	64.044	213.371	158.494	148.275	77.266	221.138	207.168	76.656	82.444	244.614	192.000	80.244	84.655	86.322	89.915	233.359	87.095	-8191	255	
20051.770	1	1	0	0	0.06829	0.2253	0.16592	0.20642	0.074526	0.22174	0.013554	0.16978	0.22122	0.14189	0.36473	0.15129	0.1754	0.24608	0.085011	0.041652	-2.0792	-2.8625	-2.3083	-2.6437	-2.7833	-2.3208	-2.9562	-2.8729	-2.3521	-3.1479	-2.4521	-2.6188	-2.9896	-2.3875	-2.9917	-2.8438	290.288	355.063	220.327	423.176	286.432	243.593	136.744	371.269	144.663	172.910	103.139	159.777	374.802	225.188	99.876	344.533	0.00052113	0.0005221	0.00014192	840.73	4.306e-06	6.5585e-06	748.09	342	5.3449e-06	6.3726e-06	342.02	140.15	138.85	60.602	6.422e-06	64.096	0.00068049	0.00072652	0.00020991	829.09	7.459e-06	8.0543e-06	732.28	337.82	7.7561e-06	7.8302e-06	337.34	138.64	137.65	60.286	7.9578e-06	63.153	213.475	168.393	163.146	77.150	236.909	224.131	76.731	82.148	253.101	227.175	79.759	84.453	86.486	89.709	216.731	87.022	-8191	255	
20051.865	1	1	0	0	0.087405	0.13335	0.051213	0.2033	0.14514	0.15297	0.17881	0.44824	0.056955	0.27641	0.087968	0.20555	0.13901	0.061584	0.10271	0.17137	-1.7604	-2.8792	-2.3667	-2.6646	-3.0396	-2.3583	-2.9479	-2.8646	-2.2396	-2.8479	-2.4875	-2.4604	-3.0292	-2.3229	-2.7896	-2.8563	265.056	155.661	270.967	381.674	83.106	269.812	120.374	366.798	328.582	396.879	379.963	94.678	74.976	110.361	285.798	73.250	0.00049485	0.00054989	0.00013993	849.37	5.0763e-06	4.6753e-06	748.26	341.79	6.8593e-06	6.9068e-06	338.61	139.11	138.5	59.896	6.2807e-06	63.004	0.00067621	0.00072892	0.00021135	833.02	7.3767e-06	7.8576e-06	731.13	336.79	7.6739e-06	7.7162e-06	334.07	137.73	137.52	59.707	8.2146e-06	62.539	213.270	168.034	169.748	77.475	218.043	208.563	76.371	82.125	226.380	210.752	80.253	84.092	86.324	89.821	226.013	87.080	-8191	255	
20051.961	1	1	0	0	0.045966	0.051644	0.12217	0.27372	0.084542	0.15075	0.14872	0.28356	0.15607	0.2054	0.13225	0.14912	0.14617	0.34092	0.1189	0.21656	-1.7625	-2.95	-2.4708	-2.7208	-2.9521	-2.3458	-2.6729	-2.9375	-2.2313	-2.825	-2.7021	-2.4104	-3.0771	-2.4271	-2.6583	-2.8458	297.005	98.447	310.394	410.425	314.761	85.581	92.841	336.990	205.075	358.248	68.703	374.427	291.788	101.915	249.641	159.185	0.00048008	0.00067481	0.00017509	850.32	5.858e-06	5.1255e-06	747.15	341.77	4.2523e-06	3.8728e-06	341.21	139	139.19	60.336	6.6771e-06	63.563	0.00068738	0.00071524	0.00020234	833.33	7.312e-06	8.0863e-06	731.58	337.52	7.7063e-06	7.711e-06	335.79	137.92	138.11	60.031	7.9602e-06	62.946	212.886	159.534	150.573	77.187	243.263	202.147	76.389	82.265	226.862	208.442	80.175	84.050	86.261	89.876	233.308	87.309	-8191	255	
20052.059	1	1	0	0	0.17462	0.22201	0.23671	0.21915	0.12236	0.16646	0.17104	0.25951	0.21983	0.20928	0.082294	0.33042	0.17316	0.2933	0.17881	0.17815	-1.8917	-2.9646	-2.7292	-2.3875	-2.9021	-2.3021	-2.5771	-3.0729	-2.2458	-2.8333	-2.8688	-2.4583	-3.0354	-2.4792	-2.3333	-2.9896	394.342	76.084	100.398	367.366	259.216	94.996	218.215	354.320	67.666	255.933	262.240	317.953	413.282	146.942	177.233	379.015	0.00049176	0.0006341	0.00010635	847.52	5.6819e-06	9.4721e-06	750.56	341.56	2.9442e-06	6.3582e-06	342.37	139.46	138.93	60.217	6.852e-06	63.724	0.00065142	0.00072071	0.00020409	834.09	7.5162e-06	7.8187e-06	733.08	338.42	7.4231e-06	8.1088e-06	336.95	138.49	137.98	60.114	7.8937e-06	63.162	213.136	156.866	123.441	76.956	221.732	209.160	76.439	82.361	266.534	198.788	79.796	84.506	86.097	89.840	236.796	86.967	-8191	255	
20052.178	1	1	0	0	0.14989	0.17181	0.026014	0.31663	0.27732	0.32377	0.20415	0.12539	0.15332	0.13599	0.12106	0.21622	0.19304	0.27086	0.13066	0.25195	-1.7208	-2.7167	-2.6396	-2.5312	-3.0187	-2.6792	-2.4854	-3.1771	-2.3708	-2.8521	-3.0125	-2.3375	-3.0021	-2.8021	-2.4146	-3.0875	376.190	87.937	175.697	77.606	243.577	117.516	160.643	309.883	168.157	306.208	351.910	105.510	266.038	340.171	101.703	326.490	0.00050534	0.00070372	0.00011054	849.14	2.7064e-06	7.6934e-06	753.69	342.98	5.8287e-06	4.8602e-06	342.09	139.96	139.48	60.137	6.3946e-06	63.505	0.00067745	0.00071505	0.00019797	836.61	7.2967e-06	8.1142e-06	736.64	338.85	7.7801e-06	7.9222e-06	336.03	138.74	137.94	60.037	8.0179e-06	62.975	211.441	161.183	191.873	77.456	223.899	228.101	76.562	82.384	245.988	236.915	80.241	84.372	86.635	90.128	210.640	87.106	-8191	255	
20052.248	1	1	0	0	0.19981	0.10568	0.31572	0.11444	0.23337	0.25067	0.21174	0.27195	0.15049	0.12057	0.098628	0.15495	0.19709	0.1683	0.12263	0.24048	-1.9708	-2.6667	-2.875	-2.2292	-2.8563	-2.6979	-2.3	-2.9729	-2.2542	-2.7271	-2.875	-2.3625	-2.9229	-2.7188	-2.2104	-3.0875	295.196	337.865	270.415	407.838	335.715	379.891	389.816	400.031	309.507	271.949	265.706	342.982	347.249	94.333	71.627	405.140	0.00052803	0.00042982	0.0001311	853.93	4.8199e-06	7.266e-06	748.98	342.81	5.0535e-06	5.0069e-06	338.44	139.89	139.82	60.181	7.8239e-06	63.487	0.00067284	0.00074185	0.00019761	837.53	7.5711e-06	7.8824e-06	732.48	337.86	7.5513e-06	7.8396e-06	334.09	138	137.77	59.883	8.1002e-06	62.653	212.439	134.775	167.954	77.178	226.349	201.858	76.569	82.047	250.336	229.574	80.027	84.288	86.446	89.924	247.998	87.329	-8191	255	
20052.369	1	1	0	0	0.24639	0.034441	0.098632	0.21183	0.067807	0.16444	0.089378	0.39469	0.1913	0.07359	0.17669	0.34663	0.13329	0.13259	0.12888	0.14344	-1.8854	-2.4542	-2.7958	-2.4437	-2.8667	-2.8021	-2.4479	-3.125	-2.3208	-2.5896	-3.1167	-2.3542	-2.7	-2.7938	-2.1	-3.1375	185.075	362.932	393.089	79.224	132.958	225.861	248.246	364.670	395.614	215.046	308.050	321.884	191.456	246.246	213.022	233.159	0.00050247	0.0005071	0.00012263	855.16	5.3116e-06	5.9875e-06	747.31	342.27	3.8572e-06	5.626e-06	338.55	137.79	138.35	59.882	5.2149e-06	62.672	0.00066932	0.00072095	0.00020402	837.35	7.2613e-06	7.9465e-06	730.57	337.41	7.6828e-06	7.9494e-06	332.89	137.06	137.28	59.615	7.7404e-06	62	212.843	152.710	149.360	77.244	239.232	215.269	76.511	81.986	245.807	220.704	79.901	84.308	85.893	89.758	205.817	86.954	-8191	255	
20052.465	1	1	0	0	0.19626	0.084012	0.23077	0.16375	0.019829	0.10506	0.23262	0.34878	0.26383	0.18365	0.25734	0.071371	0.22885	0.41666	0.14475	0.13427	-1.9708	-2.4896	-2.8187	-2.3937	-2.7542	-2.7979	-2.4208	-3.2167	-2.5958	-2.4958	-2.95	-2.3	-2.7229	-2.9979	-2.2979	-2.9458	79.030	272.934	115.549	398.615	151.844	411.556	338.018	416.788	379.492	287.717	369.780	82.415	409.280	110.870	110.527	304.875	0.00051158	0.00056788	0.00014783	856.07	6.7848e-06	3.9476e-06	746.98	340.34	5.458e-06	5.6229e-06	336.46	138.26	137.09	59.533	5.2677e-06	62.211	0.00065945	0.0007202	0.0001952	840.29	7.5325e-06	7.8151e-06	732.17	335.44	7.4992e-06	8.0038e-06	331	136.74	136.52	59.013	7.9937e-06	61.547	212.339	137.560	180.193	76.802	226.028	230.817	76.335	81.979	248.231	207.196	79.930	84.173	86.181	89.694	227.758	86.800	-8191	255	
20052.562	1	1	0	0	0.088381	0.11664	0.12932	0.1443	0.073158	0.048454	0.35523	0.2108	0.098542	0.095446	0.073763	0.060519	0.3025	0.21132	0.23341	0.35149	-2.2417	-2.4083	-3.0083	-2.4313	-2.4771	-2.6708	-2.2771	-2.8917	-2.5042	-2.3375	-2.9646	-2.6042	-2.6417	-3.125	-2.2542	-2.7479	354.069	362.052	217.973	289.886	187.972	405.492	97.955	373.358	338.625	86.668	174.866	66.656	120.240	68.065	333.579	354.514	0.00050525	0.00054456	0.00013941	857.75	4.7871e-06	5.1398e-06	750.38	339.55	4.7133e-06	4.9802e-06	336.87	137.07	136.91	58.369	6.1289e-06	61.61	0.00065714	0.00070146	0.00019316	841.67	7.3037e-06	7.5795e-06	733.54	334.66	7.4278e-06	7.895e-06	329.93	135.89	135.74	58.403	7.9721e-06	60.912	213.808	172.611	138.852	76.989	238.020	233.125	76.416	81.855	242.495	244.147	79.686	84.198	86.256	89.583	232.737	86.869	-8191	255	
20052.658	1	1	0	0	0.13855	0.25038	0.16469	0.26767	0.089056	0.12033	0.2016	0.22591	0.24075	0.15239	0.28012	0.21133	0.19985	0.23889	0.22975	0.29373	-2.1875	-2.2062	-2.9604	-2.5646	-2.4146	-2.9146	-2.4313	-2.8	-2.7583	-2.1521	-2.9188	-2.5292	-2.4167	-2.9521	-2.2021	-2.65	395.225	423.703	122.644	397.592	92.378	273.537	305.170	357.846	210.070	207.159	319.557	205.034	144.436	393.086	166.925	283.368	0.00046367	0.00036534	0.00018048	858.73	4.12e-06	5.2486e-06	745.63	337.56	4.3758e-06	3.9374e-06	332.05	135.89	136.1	58.123	6.257e-06	60.279	0.00064101	0.0006991	0.00019432	842.56	7.3683e-06	7.7409e-06	729.97	332.36	7.5546e-06	7.5171e-06	326.45	134.47	135.32	57.931	7.7409e-06	59.901	212.099	141.553	170.734	77.230	245.462	190.590	76.159	81.918	238.844	176.319	79.938	83.931	86.100	89.425	226.542	86.758	-8191	255	
20052.777	1	1	0	0	0.20597	0.054105	0.2852	0.14344	0.072921	0.13087	0.083891	0.22425	0.16744	0.22555	0.199	0.2996	0.46147	0.21017	0.29053	0.23132	-2.3333	-2.2833	-2.8937	-2.7104	-2.2354	-2.9354	-2.4583	-2.6292	-2.9021	-2.1833	-2.9229	-2.85	-2.1333	-3	-2.3937	-2.5833	318.893	279.173	289.436	252.415	273.371	112.064	304.693	360.476	168.655	155.354	368.987	393.314	418.551	111.544	282.509	94.813	0.00045826	0.00080056	0.00014713	857.05	5.6818e-06	3.5806e-06	739.85	335.13	3.7267e-06	7.0054e-07	329.09	134.65	135.53	58.065	6.3649e-06	60.299	0.00062625	0.00071274	0.00019349	840.97	7.3679e-06	7.7509e-06	724.68	330.47	7.2459e-06	7.791e-06	323.74	133.65	134.65	57.692	7.7488e-06	59.683	209.813	136.116	144.520	76.923	235.285	212.988	75.897	81.664	237.480	223.878	79.503	83.971	86.052	89.212	200.952	86.828	-8191	255	
20052.873	1	1	0	0	0.45815	0.14965	0.17871	0.23371	0.13772	0.11795	0.19332	0.17694	0.30691	0.18695	0.19091	0.097589	0.081549	0.21914	0.23918	0.19635	-2.4396	-2.1542	-2.7708	-2.8708	-2.35	-3.0479	-2.6396	-2.5812	-2.8688	-2.2604	-2.9667	-2.7792	-2.2708	-2.8937	-2.4896	-2.5187	418.835	158.267	357.342	395.617	363.988	168.022	362.268	372.483	344.394	409.820	76.765	279.701	378.021	406.277	187.553	341.521	0.00047363	0.00049651	0.00013423	857.69	5.1458e-06	6.827e-06	739.06	335.16	3.7865e-06	5.8735e-06	327.86	134.1	135.23	57.471	5.3526e-06	59.833	0.00063661	0.00071019	0.00019129	841.52	7.2502e-06	7.426e-06	724.13	330.08	7.1581e-06	7.4522e-06	321.99	133.05	134.38	57.231	7.556e-06	59.241	209.967	154.252	151.608	76.922	231.112	235.207	76.315	81.722	269.892	226.410	79.813	84.376	85.913	89.362	233.377	86.619	-8191	255	
20052.945	1	1	0	0	0.19008	0.081994	0.14403	0.027436	0.11406	0.098331	0.28049	0.07307	0.26615	0.070873	0.21133	0.24919	0.11359	0.1318	0.17464	0.12782	-2.5479	-2	-2.5958	-2.8625	-2.2354	-2.9375	-2.6333	-2.4542	-2.8042	-2.2812	-2.6521	-2.9771	-2.3167	-2.7958	-2.7521	-2.3396	400.858	346.014	70.905	84.110	212.270	142.575	377.642	352.754	238.135	218.535	161.174	366.201	82.461	332.074	309.391	416.747	0.00048316	0.00039934	0.00013153	858.61	4.8165e-06	6.8276e-06	737.16	331.09	4.6728e-06	3.2258e-06	324.05	132.4	134.84	56.202	5.1595e-06	57.916	0.00062842	0.0006883	0.00018811	842.07	7.2809e-06	7.3892e-06	722.23	328	7.0881e-06	7.3817e-06	318.77	131.49	133.28	55.866	7.4841e-06	57.449	211.678	169.350	171.947	77.183	239.374	203.947	76.355	81.697	243.623	229.038	79.792	84.156	86.198	89.391	228.438	86.723	-8191	255	
20053.064	1	1	0	0	0.10983	0.22734	0.22556	0.31362	0.15275	0.053087	0.183	0.30115	0.19055	0.1153	0.19494	0.12091	0.089936	0.083383	0.088659	0.11412	-2.6188	-2.2479	-2.3479	-3.1417	-2.2438	-2.9771	-2.8854	-2.2438	-2.9104	-2.3458	-2.4375	-2.9417	-2.375	-2.9146	-2.6625	-2.4167	88.032	346.577	233.086	78.061	135.529	233.975	342.357	386.204	140.604	233.444	181.903	344.036	217.794	390.669	372.687	263.659	0.00048625	0.00048309	0.00012463	859.93	7.4333e-06	3.5436e-06	737.22	329.3	3.9233e-06	5.7485e-06	320.94	131.5	132.66	55.113	6.2899e-06	57.63	0.00062376	0.00069089	0.00019114	843.67	7.1325e-06	7.6463e-06	719.37	325.52	7.0674e-06	7.4543e-06	315.65	130.02	132.09	55.111	7.3317e-06	56.855	217.943	146.964	154.696	76.772	228.017	203.191	75.909	81.505	233.824	214.516	79.617	83.791	86.068	89.485	235.548	86.973	-8191	255	
20053.160	1	1	0	0	0.28891	0.24093	0.19556	0.39414	0.12591	0.05478	0.083333	0.15635	0.15607	0.091455	0.25058	0.18313	0.038724	0.22994	0.13616	0.048631	-2.6604	-2.1521	-2.225	-2.9479	-2.2792	-2.6167	-2.8208	-2.3604	-2.9292	-2.2646	-2.3875	-3.0146	-2.1833	-2.7521	-2.7438	-2.3396	368.354	230.132	126.756	388.943	326.462	198.278	406.831	337.578	231.602	299.529	75.735	260.594	184.789	325.750	216.883	253.506	0.00043333	0.0005154	0.00014693	857.79	4.2214e-06	4.9924e-06	733.49	329.75	4.8034e-06	5.2468e-06	318.6	131.44	133.93	55.562	6.8161e-06	57.485	0.0006157	0.00069268	0.00018719	842.54	7.1893e-06	7.4918e-06	716.26	325.7	7.1919e-06	7.2274e-06	315.04	130.14	132.47	55.286	7.5472e-06	56.892	210.574	113.627	152.274	77.226	240.566	237.429	76.247	81.934	226.614	210.381	79.873	84.084	86.233	89.292	225.155	86.568	-8191	255	
20053.258	1	1	0	0	0.057589	0.14175	0.10946	0.30394	0.11921	0.16678	0.12709	0.30213	0.10983	0.11897	0.27387	0.19083	0.22175	0.22914	0.11789	0.13483	-2.4771	-2.6312	-2.2625	-3.1583	-2.1354	-2.5229	-3.0854	-2.2542	-2.7479	-2.6813	-2.4333	-3.0479	-2.4688	-2.5875	-2.8125	-2.3708	331.269	264.800	257.611	408.736	380.360	233.562	83.165	307.505	353.102	89.270	266.310	376.989	370.802	70.660	378.647	384.494	0.00047817	0.00066967	0.00013355	858.96	4.4737e-06	5.4726e-06	733.13	329.97	5.5429e-06	6.5554e-06	318.28	131.22	133.25	54.875	4.3199e-06	56.83	0.00061448	0.0006782	0.00019254	843.05	7.1083e-06	7.262e-06	715.33	325.46	6.9396e-06	7.5092e-06	314.06	129.91	132.08	54.684	7.1015e-06	56.344	211.377	167.115	126.882	76.996	217.727	216.250	75.956	81.930	228.140	224.042	79.563	84.034	86.319	89.453	233.373	86.691	-8191	255	
20053.354	1	1	0	0	0.079527	0.098005	0.16759	0.11791	0.13158	0.21663	0.095595	0.062644	0.15226	0.049447	0.16072	0.034287	0.069968	0.27118	0.099127	0.1972	-2.4313	-2.6562	-2.1604	-2.8833	-2.6	-2.4854	-3.025	-2.4167	-2.7958	-2.7458	-2.2875	-2.9604	-2.3771	-2.4396	-2.9021	-2.3521	206.753	204.633	173.511	353.041	363.089	143.095	215.807	380.414	170.763	142.306	374.918	74.501	198.722	375.813	339.305	259.267	0.00046576	0.00065007	0.00014038	859.82	4.8321e-06	6.5805e-06	734.81	327.94	3.4769e-06	4.1383e-06	317.36	130.54	133.47	54.218	5.4694e-06	56.15	0.00061001	0.00067806	0.00019634	844.49	7.0223e-06	7.6999e-06	717.37	323.43	6.8194e-06	7.4083e-06	311.69	129.2	131.71	53.885	7.3983e-06	55.471	214.578	158.267	165.202	76.855	213.020	219.865	76.180	81.641	233.054	236.896	79.563	84.027	86.093	89.634	237.992	86.866	-8191	255	
20053.475	1	1	0	0	0.3256	0.095191	0.14485	0.44423	0.14286	0.34351	0.26618	0.081309	0.097535	0.17432	0.073378	0.22018	0.16205	0.37909	0.10472	0.23091	-2.3646	-2.8063	-2.1937	-2.9146	-2.4354	-2.5438	-3.0729	-2.4771	-2.4604	-2.9667	-2.3417	-2.8187	-2.4625	-2.45	-2.7604	-2.3688	74.256	204.641	398.628	374.990	290.971	154.693	381.278	381.984	106.426	79.280	316.921	338.009	287.231	382.918	327.993	357.039	0.0004784	0.00039869	0.00011181	871.37	4.835e-06	3.6138e-06	732.06	328.82	4.8723e-06	7.8206e-06	316.88	130.11	132.73	54.136	6.9311e-06	56.165	0.00063187	0.00068108	0.00019421	851.83	6.833e-06	7.6863e-06	716.49	324.2	7.1163e-06	7.5427e-06	311.36	128.7	131.71	53.941	7.4155e-06	55.525	212.272	148.047	139.649	77.123	238.551	213.673	76.397	81.967	238.619	221.660	79.553	84.124	86.466	89.612	234.517	86.822	-8191	255	
20053.547	1	1	0	0	0.094229	0.21042	0.12473	0.029334	0.13137	0.22359	0.13589	0.24651	0.098264	0.14497	0.18318	0.057805	0.24597	0.13826	0.20007	0.14632	-2.1292	-2.9375	-2.2854	-2.8583	-2.4833	-2.4479	-3.1083	-2.2833	-2.3396	-2.7687	-2.3083	-2.8042	-2.7167	-2.4188	-2.9521	-2.4229	336.511	412.406	381.829	404.066	246.877	67.539	184.040	353.840	276.042	377.639	168.941	319.099	161.197	410.938	213.995	393.955	0.00044697	0.00059108	0.00018016	859.24	5.4543e-06	4.4849e-06	730.87	328.45	4.6259e-06	5.046e-06	315.24	130.06	134.01	54.463	4.237e-06	56.351	0.00063382	0.0006789	0.00019725	846.69	7.0958e-06	7.4644e-06	713.89	324.13	7.4531e-06	7.355e-06	310.78	128.79	131.85	54.185	7.4106e-06	55.578	210.635	162.218	152.167	76.707	225.975	231.950	76.683	81.734	243.617	249.567	79.736	84.107	86.099	89.536	211.810	87.013	-8191	255	
20053.643	1	1	0	0	0.21424	0.21095	0.16855	0.082894	0.20198	0.077485	0.11222	0.23423	0.21983	0.24882	0.17923	0.13084	0.20416	0.19998	0.13158	0.21868	-2.0938	-2.7729	-2.3625	-2.8187	-2.7104	-2.3271	-2.9021	-2.4229	-2.4292	-2.8479	-2.4	-2.7729	-2.7521	-2.4708	-2.825	-2.6104	387.074	336.875	88.380	68.716	255.610	205.306	388.468	390.433	267.755	383.739	371.852	84.607	385.791	111.927	282.721	393.535	0.00045106	0.00045196	0.00017171	863	5.8213e-06	7.184e-06	731.87	329.72	4.2764e-06	3.4432e-06	317.45	130.78	134.12	54.629	7.3889e-06	56.781	0.00062278	0.00066423	0.00019503	846.66	7.0972e-06	7.8019e-06	716.58	324.81	7.3446e-06	7.5458e-06	312.53	129.69	132.33	54.441	7.3672e-06	56.198	212.934	150.666	173.607	76.993	228.322	208.432	76.350	81.824	244.731	209.373	79.857	84.266	86.130	89.481	210.414	86.758	-8191	255	
20053.738	1	1	0	0	0.39635	0.19723	0.34856	0.1584	0.22446	0.07589	0.14815	0.20763	0.24768	0.12881	0.2198	0.29764	0.073903	0.25995	0.15307	0.23205	-1.975	-2.9583	-2.2208	-2.7292	-2.8	-2.3208	-2.8292	-2.6813	-2.4625	-2.9604	-2.5187	-2.5729	-2.9021	-2.4667	-2.8	-2.7438	363.688	383.650	184.375	359.995	150.606	275.557	333.604	312.984	176.749	148.545	406.013	73.667	417.369	101.317	182.878	76.338	0.00046421	0.00063348	0.00011636	867.79	5.7402e-06	4.3921e-06	733.5	332.56	5.1573e-06	6.627e-06	319.78	130.75	133.92	54.805	4.9465e-06	56.496	0.00063325	0.00067739	0.00018934	850.83	7.0065e-06	7.681e-06	721.18	326.86	7.3892e-06	7.355e-06	314.95	130.17	132.83	54.546	7.5077e-06	56.158	211.805	156.685	151.871	77.064	240.422	178.533	76.619	81.784	237.452	220.375	79.947	84.020	86.165	89.661	214.590	87.210	-8191	255	
20053.857	1	1	0	0	0.25403	0.067277	0.11072	0.16247	0.11135	0.18481	0.1232	0.20536	0.23014	0.15549	0.14737	0.079655	0.0062614	0.15019	0.21659	0.30966	-1.9896	-2.8438	-2.4042	-2.5229	-2.7958	-2.2042	-2.5625	-2.625	-2.2021	-2.9333	-2.4271	-2.4958	-2.7979	-2.2146	-2.8042	-2.7396	302.946	133.235	253.003	73.088	249.886	342.470	412.945	403.934	80.022	341.985	390.921	200.144	399.236	333.273	320.146	102.121	0.00046162	0.00051548	0.00016125	871.44	3.9278e-06	5.0658e-06	738.07	329.88	3.916e-06	3.4305e-06	318.54	130.7	133.34	54.357	6.0035e-06	56.218	0.00063846	0.00069306	0.00019287	855.59	7.1618e-06	7.8708e-06	722.65	325.61	7.4978e-06	7.4935e-06	313.68	129.46	132.47	54.148	7.5974e-06	55.617	212.214	132.057	158.606	77.060	211.452	202.891	76.230	82.122	244.693	222.296	79.866	84.270	86.283	89.453	232.244	86.986	-8191	255	
20053.953	1	1	0	0	0.20039	0.098708	0.34369	0.072546	0.3396	0.24413	0.25953	0.18369	0.11499	0.2358	0.10157	0.095781	0.14794	0.12132	0.22314	0.25017	-1.8958	-3.0271	-2.3563	-2.5187	-2.8708	-2.2958	-2.5333	-2.8521	-2.1333	-2.85	-2.6875	-2.4083	-2.9604	-2.275	-2.5938	-3.1063	186.201	79.790	204.863	316.075	265.985	329.755	179.813	167.053	201.631	173.972	383.366	327.999	274.673	401.308	188.887	387.302	0.00045263	0.00045361	0.00011649	868.98	5.8936e-06	4.1416e-06	734.36	329.74	4.0289e-06	4.3009e-06	317.7	129.84	132.66	54.171	5.803e-06	55.861	0.00063114	0.00069368	0.00020126	854.78	7.1479e-06	7.5254e-06	719.23	325.26	7.0811e-06	7.5395e-06	312.2	128.61	131.58	53.863	7.6403e-06	55.245	210.905	150.375	203.920	76.929	222.941	222.710	76.241	81.999	244.885	219.695	79.884	84.075	86.250	89.762	234.450	86.977	-8191	255	
20054.049	1	1	0	0	0.48484	0.16548	0.11161	0.093709	0.097667	0.049378	0.026037	0.30359	0.16807	0.091842	0.11696	0.24574	0.18001	0.2063	0.12033	0.13186	-1.8792	-2.6875	-2.4167	-2.4708	-2.7625	-2.2313	-2.3958	-2.9	-2.2729	-2.8646	-2.6333	-2.2854	-2.9688	-2.4708	-2.6188	-3.0438	227.767	169.907	70.518	286.338	366.696	413.869	97.761	64.196	222.268	183.013	83.194	404.961	239.339	364.986	310.198	80.021	0.00045935	0.00029631	0.00012456	868.35	6.4336e-06	7.1623e-06	731.34	326.85	4.1284e-06	7.1812e-06	313.9	128.82	131.61	53.804	5.2526e-06	55.365	0.00062869	0.00066522	0.00018425	852.73	7.1079e-06	7.5464e-06	716.99	322.76	7.2929e-06	7.3728e-06	309.55	127.67	130.88	53.446	7.6709e-06	54.941	211.839	131.413	161.213	76.941	234.678	220.458	75.984	81.998	251.219	223.294	79.776	84.123	86.184	89.711	205.523	86.719	-8191	255	
20054.145	1	1	0	0	0.072291	0.12657	0.233	0.07244	0.14241	0.19023	0.069322	0.1486	0.16178	0.090147	0.19347	0.1056	0.1095	0.25863	0.11648	0.29564	-1.8542	-2.7667	-2.6875	-2.2812	-2.75	-2.4208	-2.4917	-2.9938	-2.3292	-2.5104	-2.6854	-2.3937	-3.0229	-2.5896	-2.1667	-2.9875	165.464	185.771	236.675	349.191	86.017	186.567	256.445	146.081	336.674	72.230	407.038	423.997	254.809	416.166	335.165	395.543	0.00044388	0.00075625	0.00014336	869.87	6.2695e-06	4.1434e-06	734.58	327.66	5.3089e-06	5.2653e-06	315.24	128.67	131.81	53.4	6.4039e-06	55.541	0.00062455	0.00068749	0.00019206	852.14	6.966e-06	7.5159e-06	718.49	323.45	7.3765e-06	7.6085e-06	310.23	127.65	130.57	53.223	7.8281e-06	54.948	209.898	148.744	136.712	76.922	235.321	200.704	76.304	82.207	242.302	195.151	79.638	84.089	86.203	89.726	216.077	87.105	-8191	255	
20054.242	1	1	0	0	0.20539	0.038383	0.061486	0.12023	0.081679	0.26578	0.16856	0.26777	0.16196	0.19167	0.11763	0.16006	0.23081	0.28348	0.013389	0.12615	-1.8312	-2.4833	-2.7146	-2.5021	-2.8583	-2.4417	-2.4979	-3.0542	-2.2125	-2.5875	-2.8792	-2.3063	-2.9688	-2.8167	-2.4083	-3.1813	74.212	174.769	409.143	373.925	108.703	380.536	341.684	351.753	268.312	415.964	231.094	334.593	333.281	301.240	108.304	329.058	0.00042465	0.00059206	0.00011809	873.09	3.7635e-06	6.2022e-06	735.17	327.64	4.8207e-06	6.4178e-06	315.13	129.13	132.37	53.497	6.3244e-06	55.273	0.00062417	0.00069382	0.00019066	855.15	7.1744e-06	7.8487e-06	718.75	323.19	7.3967e-06	7.6807e-06	310.89	127.71	130.93	53.115	7.6921e-06	54.733	212.376	135.389	143.940	77.085	227.214	216.493	76.234	82.076	227.684	197.276	79.926	84.303	86.500	89.753	236.846	87.023	-8191	255	
20054.338	1	1	0	0	0.31142	0.039981	0.2054	0.17385	0.1339	0.094838	0.16259	0.19625	0.1719	0.22912	0.060139	0.19944	0.12676	0.19363	0.234	0.1696	-1.8292	-2.5208	-2.6771	-2.25	-2.7771	-2.6917	-2.4792	-2.9771	-2.4458	-2.4688	-3.0542	-2.3937	-2.6521	-2.7687	-2.1063	-2.9938	161.036	337.470	383.906	271.275	417.140	235.752	298.802	377.841	198.543	372.373	350.533	368.735	410.464	74.726	77.077	403.890	0.00044605	0.00035052	0.00020488	874.51	4.1545e-06	4.9124e-06	730.52	326.43	1.7185e-06	6.3083e-06	314.64	127.46	131.31	53.195	7.2255e-06	54.858	0.00062623	0.00072152	0.00018721	853.84	7.139e-06	7.5354e-06	716.43	322.56	7.2413e-06	7.6812e-06	308.56	126.64	130.3	52.956	7.6911e-06	54.235	214.572	135.750	150.664	77.157	247.803	215.869	76.271	82.194	259.982	213.619	79.812	84.122	86.262	89.943	221.688	86.865	-8191	255	
20054.457	1	1	0	0	0.079136	0.086829	0.081558	0.15064	0.077812	0.25251	0.22542	0.029321	0.20936	0.20501	0.16431	0.16252	0.071771	0.31055	0.057894	0.08858	-1.9937	-2.3	-2.7521	-2.4313	-2.6667	-2.8583	-2.3125	-2.925	-2.4021	-2.3937	-2.8937	-2.2979	-2.6083	-2.9833	-2.2792	-2.9792	299.889	105.375	106.180	119.299	137.159	132.446	340.155	346.382	65.977	292.860	372.652	279.455	271.676	108.141	391.773	348.277	0.00043838	0.00039553	0.00011842	870.76	6.4073e-06	4.0508e-06	729.24	326.46	3.5747e-06	6.9375e-06	311.43	128.11	130.99	53.095	6.6716e-06	54.66	0.00062034	0.00069632	0.00019145	853.92	7.3199e-06	7.8408e-06	713.68	322.47	7.4278e-06	7.4454e-06	306.81	126.56	129.74	52.839	7.7438e-06	54.239	213.104	153.960	187.589	76.979	235.509	247.585	76.493	82.314	243.469	208.688	79.912	84.347	86.351	89.886	235.534	87.249	-8191	255	
20054.555	1	1	0	0	0.10026	0.073597	0.047352	0.1495	0.32808	0.027891	0.18069	0.18283	0.078248	0.073155	0.17444	0.0079364	0.063239	0.12342	0.28051	0.3213	-2.15	-2.2042	-3.0042	-2.5479	-2.5292	-2.7917	-2.1458	-2.9458	-2.9	-2.4479	-2.9333	-2.4396	-2.4188	-3.0625	-2.2208	-2.7354	219.036	380.975	319.715	117.961	241.183	280.523	364.906	294.150	132.858	164.040	394.294	96.568	355.368	347.626	397.790	365.391	0.00044604	0.00046434	0.00010066	869.44	6.7852e-06	6.4011e-06	732.78	324.94	5.4942e-06	5.0808e-06	311.71	128.16	130.7	52.688	6.3552e-06	54.466	0.00063322	0.00071033	0.00019849	854	7.4706e-06	7.8314e-06	715.3	321.33	7.4559e-06	7.7487e-06	306.62	126.53	130.05	52.471	7.9893e-06	53.934	212.415	153.398	150.951	77.391	245.029	237.176	76.659	82.476	245.307	221.279	80.013	84.316	86.592	90.051	242.029	87.130	-8191	255	
20054.650	1	1	0	0	0.11521	0.13957	0.23806	0.19854	0.22005	0.27195	0.29548	0.10116	0.11834	0.15461	0.13718	0.12204	0.14503	0.15363	0.26203	0.17984	-2.3354	-2.1542	-2.9625	-2.6312	-2.5333	-2.875	-2.2208	-2.8083	-2.5812	-1.9333	-2.8792	-2.3125	-2.3771	-3.0792	-2.2687	-2.7667	303.627	340.022	252.878	422.108	414.661	81.506	392.150	331.027	249.318	256.639	269.980	340.143	104.992	118.326	176.557	371.745	0.00044533	0.00048904	0.00012758	874.43	5.0306e-06	4.4463e-06	726.32	325.53	4.0424e-06	5.0035e-06	309.42	126.73	131.07	51.911	5.7247e-06	53.631	0.00062761	0.00072652	0.00019249	856.86	7.5325e-06	8.0232e-06	712.11	321.59	7.5231e-06	8.1721e-06	304.76	125.47	129.53	51.851	7.9962e-06	53.153	210.095	135.574	180.492	77.284	244.971	193.675	76.801	81.935	221.507	217.700	79.566	84.421	86.372	89.883	227.904	87.146	-8191	255	
20054.771	1	1	0	0	0.05902	0.1494	0.16878	0.19417	0.20431	0.054816	0.1817	0.22759	0.041129	0.12894	0.24094	0.018295	0.16111	0.06272	0.065393	0.13743	-2.2375	-2.0917	-2.8563	-2.7062	-2.4333	-2.9917	-2.3229	-2.6	-2.9271	-2.2583	-2.9313	-2.6208	-2.3438	-3.0438	-2.4979	-2.4729	147.511	254.878	106.668	348.523	415.609	239.635	374.984	265.702	69.002	374.095	298.776	147.542	374.010	183.479	215.062	329.907	0.00046653	0.00052785	0.00010284	873.84	4.4916e-06	2.0077e-06	729.67	324.68	4.7212e-06	7.2657e-06	308.5	126.51	130.9	52.041	3.8348e-06	53.512	0.0006345	0.00074105	0.00019812	857.27	7.5213e-06	8.0569e-06	712.73	320.13	7.6443e-06	7.9546e-06	303.14	125.01	129.14	51.725	7.9361e-06	52.951	210.835	148.079	152.481	77.250	237.444	211.249	76.424	81.761	234.625	238.206	79.554	84.504	86.355	89.713	196.514	87.143	-8191	255	
20054.844	1	1	0	0	0.2736	0.36129	0.049598	0.090221	0.12782	0.1207	0.31407	0.050575	0.1075	0.16278	0.27136	0.36091	0.064448	0.13441	0.12678	0.054998	-2.3896	-2.1708	-2.775	-2.8771	-2.3958	-3.0729	-2.6458	-2.7354	-2.9333	-2.2896	-2.6708	-2.8479	-2.2292	-3.0125	-2.5563	-2.4854	138.755	98.709	281.827	312.217	234.827	182.993	354.320	263.000	348.714	120.313	423.433	412.190	372.768	67.534	214.617	330.739	0.00042426	0.00072569	0.00014849	874.58	2.9616e-06	6.52e-06	726.65	324.67	3.1405e-06	7.7039e-06	306.48	125.75	129.37	51.579	4.7368e-06	53.087	0.00064234	0.00074403	0.0002051	857.42	7.7162e-06	8.2246e-06	710.19	319.66	7.3197e-06	7.9316e-06	301.12	124.33	128.6	51.409	7.8562e-06	52.63	213.732	175.723	172.476	76.980	215.582	194.229	76.335	82.103	250.358	194.850	79.971	84.223	86.131	89.992	210.167	87.078	-8191	255	
20054.938	1	1	0	0	0.047446	0.12197	0.22286	0.14058	0.044703	0.1329	0.28815	0.25826	0.20178	0.090544	0.2062	0.18144	0.39927	0.34355	0.027885	0.23045	-2.3708	-2.2479	-2.8104	-3.0833	-2.1708	-2.8708	-2.7146	-2.5458	-2.8937	-2.0542	-2.6312	-2.7604	-2.3792	-3.0333	-2.5958	-2.1979	237.776	75.384	419.388	422.471	355.538	307.153	365.292	406.534	119.664	299.218	421.921	380.862	407.373	108.130	313.506	341.598	0.00039797	0.00044677	0.00011285	875.04	5.4455e-06	6.5844e-06	729.58	323.39	3.8271e-06	4.0782e-06	308.29	126.56	130.11	51.845	4.1033e-06	53.657	0.00061283	0.00072213	0.00020398	859.27	7.5855e-06	7.8413e-06	713	319.42	7.5955e-06	8.2113e-06	303.58	125.26	128.85	51.751	8.1204e-06	53.074	211.214	142.151	161.880	77.143	222.750	209.503	76.663	82.158	246.351	192.155	79.971	84.473	86.498	89.839	239.281	87.084	-8191	255	
20055.033	1	1	0	0	0.20771	0.11258	0.19794	0.3807	0.25375	0.0099591	0.24183	0.071884	0.13805	0.071867	0.26624	0.35266	0.20021	0.24511	0.15555	0.10493	-2.4437	-2.2354	-2.4	-2.8542	-2.1271	-2.9188	-2.6813	-2.3917	-3.1125	-2.375	-2.4521	-2.9667	-2.35	-2.65	-2.6146	-2.5625	418.260	255.246	150.043	330.566	90.152	103.994	375.570	327.927	176.549	131.052	87.268	392.527	421.075	74.242	422.595	396.675	0.00044889	0.00046412	0.00012468	882.77	4.1384e-06	6.4482e-06	732.35	324.47	3.5688e-06	4.8707e-06	309.21	126.3	129.88	51.828	6.2743e-06	53.479	0.00062422	0.00071949	0.00021321	862.66	7.4637e-06	7.7677e-06	716.13	319.69	7.4898e-06	8.1386e-06	303.77	124.85	128.85	51.609	7.8676e-06	52.853	214.914	160.155	179.746	77.214	271.842	233.346	76.531	82.010	234.710	232.860	79.949	84.426	86.329	89.695	230.078	87.387	-8191	255	
20055.154	1	1	0	0	0.25922	0.082342	0.17307	0.15096	0.066771	0.1733	0.12919	0.16047	0.29832	0.10719	0.16564	0.037694	0.14542	0.12402	0.14658	0.041009	-2.5687	-2.3563	-2.4917	-2.7771	-2.2396	-2.7313	-2.9417	-2.4521	-2.9708	-2.6646	-2.375	-3.0854	-2.3458	-2.8438	-2.9396	-2.1521	391.610	395.816	384.352	267.045	234.247	126.416	326.883	388.433	110.533	316.424	238.159	245.354	399.084	389.957	331.090	213.762	0.00045002	0.00031571	0.00012934	874.24	4.6589e-06	4.3359e-06	731.62	323.73	5.9386e-06	5.3832e-06	306.83	125.84	128.96	51.778	6.1424e-06	53.331	0.00064629	0.0007192	0.00020843	859.3	7.4683e-06	7.9644e-06	712.98	318.9	7.6739e-06	8.331e-06	302.08	124.27	128.21	51.645	7.9745e-06	52.837	209.271	140.317	139.409	77.571	237.154	233.099	76.444	82.257	227.780	222.772	80.169	84.552	86.450	89.875	232.913	87.162	-8191	255	
20055.250	1	1	0	0	0.10005	0.082626	0.052132	0.26037	0.19067	0.13677	0.12884	0.02142	0.13976	0.094306	0.057145	0.18177	0.10703	0.054892	0.1919	0.19706	-2.4562	-2.7062	-2.3375	-3.0271	-2.3625	-2.6063	-2.8896	-2.3896	-2.7729	-2.8063	-2.5917	-3.1167	-2.5771	-2.6813	-2.9375	-2.3042	288.577	379.562	322.702	376.591	102.617	146.266	357.624	129.561	298.690	142.024	376.025	382.650	305.565	310.501	152.275	324.780	0.00043803	0.00060926	0.00013459	877.2	2.9548e-06	4.4037e-06	731.9	322.22	4.1953e-06	7.4498e-06	306.5	125.45	129.47	51.683	5.8206e-06	52.953	0.00063631	0.00072062	0.0002055	861.18	7.7878e-06	8.2603e-06	713.88	318.47	7.8351e-06	7.8867e-06	301.49	124.01	128.13	51.421	7.8676e-06	52.525	214.627	155.563	133.549	77.271	252.168	227.449	76.920	82.235	241.678	232.525	80.228	84.450	86.595	89.952	252.728	87.122	-8191	255	
20055.346	1	1	0	0	0.19885	0.42685	0.10128	0.063597	0.090741	0.34085	0.29871	0.15179	0.066342	0.021142	0.16546	0.23793	0.046635	0.36232	0.3249	0.070139	-2.5062	-2.6146	-2.1625	-3.0062	-2.3042	-2.475	-2.9583	-2.3896	-2.7021	-2.7313	-2.3375	-3.0854	-2.4958	-2.5583	-2.9458	-2.2875	325.856	84.612	327.373	356.012	411.477	245.231	66.151	380.001	222.039	308.586	394.268	71.168	82.730	400.284	363.451	381.351	0.000417	0.00035673	0.00014322	877.45	5.0641e-06	5.8705e-06	729.5	323.57	3.9863e-06	5.9902e-06	305.8	125.43	129.24	51.106	3.4163e-06	52.99	0.00063076	0.00072425	0.00020248	861.17	7.5655e-06	8.0117e-06	714.56	318.95	7.7533e-06	8.1554e-06	301.25	124.12	127.79	50.956	7.8552e-06	52.429	212.618	169.701	156.881	77.532	231.319	231.437	76.529	82.337	253.375	242.484	80.051	84.412	86.646	89.989	251.821	87.171	-8191	255	
20055.418	1	1	0	0	0.11689	0.06739	0.31803	0.027066	0.11871	0.20814	0.1261	0.18682	0.17012	0.16163	0.039046	0.40571	0.098602	0.29393	0.11694	0.087978	-2.1792	-2.8187	-2.3438	-2.9854	-2.4313	-2.4271	-3.0458	-2.2583	-2.4583	-2.9271	-2.2	-2.8708	-2.6417	-2.2771	-2.8042	-2.3625	394.154	173.099	298.315	87.220	214.860	120.188	383.237	388.405	353.919	158.508	246.294	384.106	326.141	415.531	127.448	159.872	0.00042925	0.0004257	5.3239e-05	883.09	6.3351e-06	6.8487e-06	731.19	322.15	4.2056e-06	6.4631e-06	307.23	125.87	129.27	51.195	4.3253e-06	52.942	0.00062563	0.00070755	0.00020596	867.08	7.3418e-06	7.9123e-06	717.75	318.04	7.6673e-06	8.031e-06	301.85	124.39	127.6	51.055	7.801e-06	52.504	213.786	146.700	179.803	77.628	227.199	205.739	76.585	82.551	242.317	200.003	80.081	84.487	86.691	89.658	235.962	87.427	-8191	255	
20055.539	1	1	0	0	0.10043	0.10733	0.28694	0.24632	0.19149	0.37198	0.20061	0.33577	0.17506	0.21367	0.09099	0.088143	0.153	0.25106	0.3116	0.27641	-2.2646	-2.8146	-2.3187	-3.1229	-2.6437	-2.4917	-3.0625	-2.5563	-2.3771	-2.8521	-2.3229	-2.8854	-2.8083	-2.3583	-2.9792	-2.4813	135.769	64.372	176.806	375.336	416.128	289.452	383.915	122.129	381.766	139.410	364.417	86.561	333.705	408.856	118.727	368.490	0.00043938	0.0004841	0.00013641	880.14	4.335e-06	5.1977e-06	737.53	322.83	3.6798e-06	5.6298e-06	305.23	125.68	128.41	51.363	4.3014e-06	52.818	0.00062666	0.00069344	0.00019325	867.6	7.5162e-06	7.7704e-06	720.15	318.41	7.4987e-06	7.6363e-06	301.34	124.11	127.57	51.233	7.5136e-06	52.633	211.069	150.009	185.240	77.025	233.726	217.711	76.669	82.305	250.119	213.863	79.956	84.389	86.499	89.796	229.835	87.205	-8191	255	
20055.635	1	1	0	0	0.19091	0.19786	0.31221	0.19873	0.13321	0.11152	0.035213	0.059336	0.25028	0.033617	0.28895	0.14189	0.14579	0.18962	0.17298	0.07157	-2	-3.0167	-2.2167	-2.8292	-2.7125	-2.2042	-3.0542	-2.5354	-2.4354	-3.0125	-2.3625	-2.7542	-2.9125	-2.2146	-2.7687	-2.5125	332.252	217.307	422.385	373.089	292.065	381.187	373.570	110.165	281.669	319.550	351.787	376.122	130.568	377.720	362.953	350.656	0.00040991	0.00060377	0.000137	883.68	4.2888e-06	5.4639e-06	735	323.09	4.0811e-06	6.0921e-06	309.87	124.82	128.5	51.276	6.979e-06	52.739	0.00062303	0.00067532	0.00019657	867.46	7.0646e-06	7.6489e-06	719.2	318.52	7.3939e-06	7.4721e-06	302.9	123.79	127.41	51.107	7.6669e-06	52.342	207.918	140.261	150.860	77.196	228.151	205.471	76.802	82.201	228.179	224.519	79.926	84.181	86.420	89.630	236.320	87.171	-8191	255	
20055.730	1	1	0	0	0.12893	0.059008	0.123	0.11267	0.11417	0.10069	0.31157	0.28831	0.046654	0.17878	0.17256	0.11802	0.10079	0.19954	0.079507	0.21529	-2.0354	-2.9875	-2.2938	-2.6354	-2.9813	-2.2917	-2.8063	-2.7438	-2.3042	-2.95	-2.4229	-2.5417	-2.8833	-2.0646	-2.8708	-2.7562	168.335	100.053	367.762	172.072	203.680	107.000	299.371	110.580	278.313	294.631	135.106	307.709	190.750	421.918	392.190	329.757	0.00042502	0.00050876	0.0001667	883.63	5.1788e-06	3.9747e-06	732.29	321.42	4.9481e-06	4.9094e-06	303.39	124.43	128.06	50.873	5.3378e-06	52.25	0.00061611	0.00067348	0.00019909	865.46	6.9953e-06	7.6342e-06	716.24	316.74	7.3545e-06	7.5228e-06	299.04	122.87	126.87	50.53	7.5659e-06	51.718	212.633	170.089	145.939	76.984	258.141	235.742	76.273	82.142	229.281	211.973	80.171	84.294	86.479	89.774	227.900	87.177	-8191	255	
20055.852	1	1	0	0	0.044906	0.10801	0.042343	0.47239	0.17816	0.1064	0.11364	0.1211	0.28285	0.086802	0.037592	0.19167	0.28834	0.14241	0.13895	0.22358	-1.9	-2.8375	-2.3104	-2.5292	-2.9813	-2.3667	-2.9667	-2.9625	-2.4521	-3.1312	-2.5563	-2.3292	-3.0667	-2.2	-2.6604	-2.9833	127.271	255.422	204.263	411.994	262.569	287.026	350.531	375.753	332.319	198.860	253.854	393.369	412.123	340.417	163.752	351.315	0.00041813	0.00039293	0.00014336	880.16	4.6268e-06	4.7237e-06	735.78	319.23	3.9235e-06	5.0364e-06	304.29	124.04	128.03	51.081	5.8069e-06	52.424	0.0006179	0.00068367	0.0001921	864.54	6.9614e-06	7.6353e-06	717.51	315.63	7.3775e-06	7.516e-06	299.37	122.89	126.57	50.829	7.3904e-06	52.126	212.796	157.030	160.940	77.438	233.055	198.782	76.303	82.047	208.338	222.338	79.784	84.274	86.232	89.899	226.791	86.835	-8191	255	
20055.945	1	1	0	0	0.12763	0.1463	0.37785	0.21865	0.21774	0.13032	0.19966	0.10037	0.17527	0.18875	0.13764	0.22961	0.21236	0.1223	0.097508	0.18228	-1.9271	-2.8542	-2.6354	-2.5021	-2.9854	-2.4396	-2.8729	-2.9458	-2.2604	-3.0812	-2.5354	-2.3833	-2.9833	-2.475	-2.6458	-3.0125	231.022	301.885	260.896	258.516	324.255	265.454	413.102	132.306	319.618	177.023	69.031	324.787	373.462	360.704	398.284	101.282	0.00040519	0.00063275	8.585e-05	883.42	4.9144e-06	3.3343e-06	735.78	320.5	3.3229e-06	2.8716e-06	305.22	123.4	128.14	51.02	4.3807e-06	52.321	0.00060036	0.00068339	0.00018923	865.47	7.0344e-06	7.5717e-06	718.98	316.77	7.2356e-06	7.2551e-06	300.23	122.85	126.8	50.801	7.4944e-06	51.762	210.625	128.211	150.571	77.369	223.999	218.249	76.605	82.149	242.454	201.752	80.392	84.158	86.678	89.881	207.687	87.416	-8191	255	
20056.043	1	1	0	0	0.14799	0.20951	0.14881	0.19076	0.049074	0.12523	0.1266	0.090988	0.16477	0.17768	0.16186	0.36071	0.20962	0.2173	0.11002	0.21514	-1.8646	-2.65	-2.7313	-2.4375	-3.15	-2.4938	-2.7979	-3.1271	-2.3438	-2.8271	-2.8583	-2.3104	-3.0938	-2.5729	-2.4917	-3.1667	65.375	302.278	405.825	75.387	393.596	357.334	107.599	372.332	300.992	411.133	401.361	379.271	308.352	366.735	354.098	337.821	0.00040699	0.00052817	0.00014259	880.62	4.4857e-06	2.085e-06	726.59	319.26	4.9203e-06	3.5235e-06	298.33	123.04	126.96	50.055	5.3192e-06	51.531	0.00061294	0.00067787	0.00018655	863.45	6.9986e-06	7.3998e-06	711.59	314.84	7.1022e-06	7.1966e-06	295.24	121.52	125.6	50.001	7.2632e-06	51.015	210.318	138.130	148.415	77.328	235.472	211.372	77.008	82.623	231.933	199.304	80.253	84.417	86.509	89.972	236.443	87.290	-8191	255	
20056.139	1	1	0	0	0.12575	0.055876	0.18238	0.054356	0.30007	0.27232	0.42538	0.13363	0.25119	0.3785	0.14943	0.056209	0.030036	0.23713	0.10307	0.057494	-1.7958	-2.6958	-2.7313	-2.2625	-2.9042	-2.6271	-2.4792	-3.025	-2.1146	-2.5687	-2.8979	-2.325	-3.0354	-2.5292	-2.3167	-3.0083	326.038	264.098	131.965	112.071	399.119	247.495	256.075	347.411	414.151	416.862	132.565	294.799	104.821	390.339	284.180	86.731	0.00040042	0.00044966	0.00012892	877.32	4.5585e-06	6.2501e-06	726.6	319.45	5.4434e-06	5.0855e-06	301.56	123.88	128.03	51.236	4.8662e-06	52.652	0.00058411	0.00065885	0.00018446	861.23	6.8711e-06	7.4544e-06	711.92	314.86	7.1116e-06	7.4444e-06	297.23	122.37	126.65	50.816	7.3687e-06	51.991	212.752	139.438	156.869	77.213	217.140	222.227	76.528	82.248	251.389	198.899	80.018	84.334	86.398	90.011	233.596	86.959	-8191	255	
20056.234	1	1	0	0	0.42013	0.078648	0.26931	0.24095	0.37757	0.045161	0.24456	0.12809	0.061141	0.20035	0.1704	0.29681	0.10576	0.059132	0.25325	0.20238	-1.9417	-2.6688	-2.7958	-2.2854	-2.7167	-2.7687	-2.3937	-3.1354	-2.4313	-2.3563	-2.875	-2.4271	-3.0229	-2.8167	-2.3104	-3.1063	96.092	339.036	420.505	410.020	266.214	222.171	69.454	128.052	352.851	82.629	144.593	306.824	72.858	375.485	219.180	339.736	0.00043985	0.00030979	0.00013942	881.73	5.7894e-06	6.2134e-06	736.38	321.01	5.5838e-06	5.2929e-06	305	124.61	128.55	51.087	4.6402e-06	52.986	0.00058823	0.00064819	0.00018415	864.63	7.0897e-06	7.4439e-06	719.16	316.57	7.0881e-06	7.3346e-06	300.24	123.36	127.11	50.905	7.4387e-06	52.274	216.188	130.369	159.483	77.010	229.330	211.316	76.342	82.218	246.067	233.466	80.046	84.176	86.420	89.803	227.200	86.916	-8191	255	
20056.330	1	1	0	0	0.11414	0.29148	0.22235	0.22684	0.29014	0.12157	0.25501	0.17407	0.15977	0.31665	0.1627	0.079367	0.11612	0.3598	0.20066	0.26522	-2.1292	-2.4229	-2.9938	-2.2146	-2.7062	-2.7125	-2.4	-2.9896	-2.3854	-2.5333	-2.9667	-2.4437	-2.8042	-2.7667	-2.2521	-3.0854	114.124	103.649	204.374	375.794	231.351	175.422	327.600	352.591	141.960	171.900	392.442	336.071	72.111	354.541	280.687	90.225	0.00041135	0.00067619	9.7193e-05	881.89	3.9421e-06	3.1561e-06	734.91	321.49	5.049e-06	3.846e-06	305.49	123.81	128.61	50.902	5.9099e-06	52.76	0.0006086	0.00071203	0.00018742	865.92	7.0102e-06	7.4161e-06	718.81	317.11	7.0947e-06	7.5641e-06	300.25	122.89	127.01	50.801	7.4944e-06	52.189	211.666	148.615	177.950	77.185	250.268	194.206	76.523	82.392	236.498	191.887	80.279	84.281	86.093	89.959	259.343	86.908	-8191	255	
20056.451	1	1	0	0	0.29228	0.16315	0.16562	0.27346	0.10613	0.034029	0.20691	0.27234	0.19312	0.13811	0.092509	0.38563	0.096799	0.23756	0.17972	0.12277	-2.1167	-2.2708	-3.0396	-2.3917	-2.675	-2.7917	-2.2083	-3.0583	-2.5458	-2.5438	-3.1104	-2.3521	-2.7771	-3.0833	-2.2	-2.9062	326.805	423.389	286.262	378.898	370.850	406.027	405.600	278.668	331.053	253.852	421.337	362.248	404.266	358.034	324.817	312.312	0.00043235	0.00054034	8.6345e-05	880.88	4.9611e-06	6.4279e-06	729.14	322.13	5.3467e-06	4.6221e-06	307.91	125.15	128.86	51.683	4.9305e-06	53.171	0.00061638	0.00071859	0.00018822	863.49	7.3474e-06	7.7699e-06	716.38	317.5	7.3408e-06	7.7842e-06	301.53	123.57	127.79	51.589	7.7542e-06	52.737	215.470	163.671	143.343	77.064	239.801	223.838	76.445	82.330	239.825	189.260	79.820	84.153	86.375	89.940	238.403	87.011	-8191	255	
20056.547	1	1	0	0	0.33352	0.13194	0.11791	0.24766	0.18755	0.16132	0.26572	0.2101	0.12164	0.22566	0.20475	0.37289	0.13972	0.19985	0.18778	0.12356	-2.0333	-2.2479	-2.9042	-2.5417	-2.7438	-3.0292	-2.3167	-2.9479	-2.7208	-2.2104	-3.0854	-2.4229	-2.4	-2.9604	-2.1792	-2.7396	228.991	304.722	346.768	341.698	324.469	336.559	241.567	111.386	99.265	252.392	74.026	372.121	422.737	82.410	166.140	389.665	0.00042223	0.00064474	0.00017549	881.27	4.7101e-06	5.8991e-06	734.32	321.93	5.2661e-06	3.8487e-06	309.17	125.96	129.88	52.384	3.9165e-06	54.022	0.00062463	0.00071515	0.00019316	861.97	7.2818e-06	7.5874e-06	717.4	318.22	7.5447e-06	7.7178e-06	303.87	124.63	128.56	51.923	7.7847e-06	53.357	209.892	137.095	142.564	77.481	230.466	205.041	76.658	82.244	224.466	228.027	79.957	84.132	86.485	89.586	246.361	86.842	-8191	255	
20056.645	1	1	0	0	0.15697	0.070248	0.12636	0.16894	0.040459	0.2374	0.05439	0.16794	0.14257	0.1252	0.41458	0.18319	0.056155	0.1107	0.13105	0.22357	-2.35	-2.1792	-2.8729	-2.5292	-2.3667	-2.9604	-2.5083	-2.7979	-2.8312	-2.2208	-2.9875	-2.5187	-2.4188	-3.1104	-2.2521	-2.7125	278.461	133.535	273.873	347.627	76.057	138.249	405.446	353.175	255.114	205.117	295.236	196.540	288.954	417.424	111.093	374.959	0.00044413	0.00060047	8.9736e-05	884.59	4.0345e-06	6.3162e-06	736.11	322.31	4.7283e-06	7.0775e-06	306.3	125.09	128.54	51.28	7.6298e-06	52.485	0.00063691	0.00069915	0.00019559	865.57	7.0921e-06	7.9906e-06	720.19	317.83	7.6063e-06	7.8265e-06	301.87	124.02	127.64	51.041	7.7897e-06	52.137	212.818	151.087	133.787	77.016	224.480	197.518	76.573	81.812	238.059	204.518	79.855	83.903	86.285	90.110	224.186	86.735	-8191	255	
20056.715	1	1	0	0	0.20379	0.19531	0.076119	0.29	0.077657	0.1002	0.1422	0.088355	0.18547	0.082334	0.082013	0.20825	0.29237	0.11401	0.29003	0.18425	-2.4167	-2.1813	-2.8187	-2.7646	-2.3854	-3.0792	-2.4688	-2.45	-2.7229	-2.325	-2.8479	-2.4813	-2.2062	-3.0042	-2.4542	-2.6813	255.000	372.364	150.095	396.890	309.278	128.866	372.648	119.483	399.236	158.245	144.040	393.766	367.154	421.881	410.257	368.806	0.00039425	0.0002926	8.3037e-05	884.23	4.3939e-06	6.2016e-06	734.07	321.86	4.619e-06	7.7058e-06	303.92	124.34	128.08	50.92	5.5123e-06	52.322	0.00061405	0.00071335	0.00019432	866.48	7.3265e-06	7.8135e-06	716.83	317.11	7.3178e-06	8.0404e-06	299.55	122.97	127.28	50.523	7.7828e-06	51.861	211.639	188.933	144.884	77.016	243.933	204.012	76.288	82.007	215.177	201.052	79.467	83.991	86.275	89.530	238.011	86.776	-8191	255	
20056.834	1	1	0	0	0.059402	0.13649	0.24821	0.2624	0.087573	0.23256	0.14803	0.12824	0.13273	0.17706	0.30927	0.23973	0.12227	0.11401	0.23537	0.066867	-2.6146	-2.1771	-2.8	-2.6583	-2.3438	-3.0146	-2.4521	-2.3729	-2.8583	-2.3333	-2.8063	-2.8729	-2.2146	-2.8417	-2.2854	-2.4354	82.689	106.172	344.990	400.723	278.904	302.984	307.184	394.434	200.109	185.165	402.875	386.244	227.416	411.117	372.820	309.215	0.00042619	0.00058924	0.00011214	886.22	4.8087e-06	6.9205e-06	730.17	320.97	4.1844e-06	4.4389e-06	304.63	124.6	128.58	51.083	3.0806e-06	52.488	0.00062772	0.00070212	0.00019805	867.74	7.3511e-06	7.5491e-06	716.27	317.1	7.1285e-06	7.5861e-06	299.82	123.45	127.51	50.816	7.5235e-06	51.775	210.302	154.822	154.963	77.177	240.483	209.740	76.592	82.179	246.347	221.541	79.178	84.079	86.309	89.475	231.740	86.738	-8191	255	
20056.930	1	1	0	0	0.26654	0.15851	0.25343	0.11286	0.21862	0.057994	0.072184	0.10731	0.19664	0.03703	0.22291	0.22594	0.17461	0.38972	0.083064	0.17387	-2.4625	-2.1917	-2.6146	-2.8875	-2.1188	-2.8583	-2.4646	-2.3479	-2.9646	-2.4604	-2.6688	-2.8063	-2.1917	-3.0083	-2.5396	-2.3208	180.123	100.349	158.387	78.180	382.059	207.923	85.362	119.957	310.362	304.414	394.292	332.651	134.925	125.319	417.131	292.286	0.0004168	0.00038361	0.00012885	884.78	5.1924e-06	3.6533e-06	728.65	320.39	5.0881e-06	4.8488e-06	302.77	124.38	128.69	50.592	4.7061e-06	52.014	0.00060079	0.00068877	0.00019225	866.82	7.0125e-06	7.1006e-06	713.18	315.11	6.7978e-06	7.1354e-06	297.79	122.95	127.22	50.494	7.2706e-06	51.813	217.102	152.766	145.670	77.100	247.809	175.627	76.646	81.919	239.566	213.197	79.849	84.273	86.172	89.495	227.868	86.833	-8191	255	
20057.025	1	1	0	0	0.2605	0.12078	0.17838	0.1327	0.33124	0.10111	0.24266	0.25292	0.13469	0.23599	0.19441	0.081813	0.2661	0.057291	0.21457	0.39352	-2.6479	-2.1937	-2.5625	-3.0583	-2.1562	-2.8208	-2.7729	-2.2708	-2.8396	-2.3458	-2.375	-2.9979	-2.2979	-2.8417	-2.7708	-2.3542	174.498	212.969	153.912	251.624	313.889	271.752	89.543	351.029	351.226	159.456	315.530	296.147	308.907	226.902	125.334	384.854	0.00039659	0.00048141	0.00012006	887.51	6.7132e-06	7.526e-06	734.85	321.41	4.4443e-06	4.0582e-06	305.59	124.9	128.1	50.528	6.2087e-06	52.007	0.0005885	0.00065578	0.00018838	871.74	7.3013e-06	7.3256e-06	720.82	317.11	7.0496e-06	7.4465e-06	300.86	123.76	127.31	50.51	7.4308e-06	51.823	210.836	164.584	150.298	77.245	238.895	204.425	76.636	81.755	242.841	196.389	79.573	83.977	86.539	89.664	232.180	86.913	-8191	255	
20057.123	1	1	0	0	0.3343	0.14092	0.17068	0.066958	0.28827	0.14812	0.22089	0.31702	0.13168	0.2177	0.16193	0.13719	0.088794	0.29622	0.03516	0.1959	-2.6604	-2.5729	-2.275	-3.0708	-2.2729	-2.7188	-2.9167	-2.3625	-3.1042	-2.5729	-2.4521	-3.1417	-2.4354	-2.7792	-2.7125	-2.0958	303.188	191.963	338.070	80.891	263.073	170.666	406.711	82.837	142.221	206.395	354.197	195.241	118.735	387.317	310.800	311.470	0.0004034	0.00032038	0.00014306	890.37	5.4599e-06	5.9682e-06	734.33	320.52	2.9989e-06	5.1518e-06	304.19	124.53	128.06	50.502	5.2648e-06	51.975	0.00060903	0.00066404	0.00018699	873.43	6.9665e-06	7.579e-06	720.81	317.07	7.1224e-06	7.3733e-06	299.47	123.04	126.9	50.194	7.4594e-06	51.404	215.684	169.893	144.089	77.289	220.875	196.839	76.591	81.902	220.236	213.338	80.123	84.364	86.238	89.619	223.091	87.046	-8191	255	
20057.219	1	1	0	0	0.1454	0.12422	0.29736	0.41142	0.084917	0.011285	0.12413	0.33602	0.10714	0.15843	0.12913	0.048851	0.23184	0.033703	0.21974	0.31104	-2.4729	-2.4188	-2.3021	-3.2292	-2.3438	-2.4562	-3	-2.2562	-2.825	-2.8021	-2.4479	-3.0396	-2.4896	-2.5292	-2.8271	-2.3354	390.210	317.342	199.618	104.805	279.646	319.504	288.439	103.673	390.715	297.058	355.578	414.502	422.299	384.979	90.896	339.913	0.00044767	0.00054958	0.00015927	893.52	4.9426e-06	5.7398e-06	738.84	320.21	4.4796e-06	6.2552e-06	306.29	124.56	128.69	50.972	3.9918e-06	52.584	0.00059195	0.00068353	0.00018255	874.09	7.199e-06	7.3067e-06	722.1	317.05	7.0444e-06	7.2233e-06	300.75	123.3	127.53	50.675	7.211e-06	52.034	210.461	124.886	180.644	77.223	253.304	203.135	76.509	82.434	246.588	201.540	79.893	84.401	86.622	90.086	222.218	87.234	-8191	255	
20057.314	1	1	0	0	0.31503	0.066157	0.094583	0.13712	0.085678	0.20768	0.11039	0.054242	0.038095	0.096597	0.16103	0.39086	0.074825	0.34804	0.15256	0.081468	-2.4917	-2.6667	-2.1354	-2.9333	-2.5333	-2.6792	-3.1146	-2.4146	-2.7208	-2.6188	-2.3563	-3.0896	-2.5	-2.4688	-2.925	-2.3917	70.344	358.489	324.658	167.546	357.573	276.303	406.914	281.010	190.960	282.223	279.387	178.042	142.191	380.479	365.216	355.288	0.00041469	0.00038724	0.0001481	892.94	3.8349e-06	4.9949e-06	740.69	322.27	5.3551e-06	5.3022e-06	305.85	125.88	129.38	51.21	4.5086e-06	53.036	0.00059222	0.00066178	0.00018876	873.88	7.1674e-06	7.2967e-06	724.55	317.84	7.1924e-06	7.2186e-06	301.82	123.95	127.96	50.956	7.2248e-06	52.404	212.613	159.388	154.482	76.964	244.217	268.300	76.602	82.092	225.003	205.794	80.088	84.466	86.377	89.790	219.786	87.214	-8191	255	
20057.410	1	1	0	0	0.19214	0.27643	0.18462	0.17524	0.26771	0.036358	0.093061	0.27172	0.25343	0.17987	0.18651	0.18301	0.16871	0.17045	0.22009	0.26736	-2.1771	-2.6833	-2.2604	-3.0792	-2.6104	-2.4167	-3.1021	-2.1958	-2.5396	-2.9646	-2.1979	-2.9146	-2.6479	-2.3979	-2.8354	-2.2625	349.783	82.542	273.882	289.166	173.493	134.078	417.614	100.612	108.946	347.842	94.339	409.390	369.855	401.328	90.106	326.151	0.00045234	0.00062728	0.0001362	893.89	5.231e-06	5.8444e-06	741.76	323.25	4.1499e-06	7.0359e-06	305.41	125.41	129.74	50.986	5.7602e-06	52.634	0.00062129	0.00068287	0.0001931	876.14	7.2051e-06	7.3945e-06	727.4	318.53	7.1407e-06	7.4407e-06	302.3	124.3	127.9	50.601	7.4594e-06	52.18	211.262	127.881	159.369	77.578	253.769	226.869	76.563	82.311	225.639	225.970	79.611	84.404	86.442	89.541	213.012	86.947	-8191	255	
20057.531	1	1	0	0	0.2309	0.20324	0.27479	0.22826	0.16275	0.37247	0.12895	0.23742	0.1751	0.10113	0.316	0.08753	0.052476	0.16171	0.10499	0.2054	-2.1458	-2.7396	-2.1896	-2.7188	-2.5792	-2.3396	-2.975	-2.6063	-2.4479	-2.7687	-2.0479	-2.7625	-2.7708	-2.3854	-2.9125	-2.55	240.339	351.700	161.043	138.196	93.875	175.207	315.827	347.055	174.700	353.686	252.990	158.777	408.873	384.472	312.810	297.415	0.00044326	0.00033882	9.888e-05	893.84	3.3519e-06	6.5861e-06	742.88	322.68	4.0058e-06	4.5633e-06	306.75	125.52	129.33	50.388	4.3733e-06	52.213	0.00061359	0.00067834	0.0001935	876.85	6.9074e-06	7.467e-06	728.9	318.45	7.1182e-06	7.2248e-06	302.45	123.93	127.92	50.281	7.3697e-06	51.76	212.303	129.428	143.053	76.997	222.520	216.417	76.551	82.167	242.128	234.926	79.601	83.902	86.261	89.536	226.585	86.547	-8191	255	
20057.629	1	1	0	0	0.20581	0.10605	0.11835	0.15032	0.18697	0.057635	0.083806	0.1878	0.068222	0.064555	0.20375	0.10103	0.10221	0.36851	0.11269	0.054097	-2.0667	-2.9125	-2.1312	-2.75	-2.7542	-2.2438	-3.0417	-2.6479	-2.2938	-2.9583	-2.4729	-2.5021	-2.8521	-2.2833	-2.8875	-2.5021	345.061	69.108	336.911	144.292	108.303	253.245	113.812	351.680	398.647	290.024	77.068	233.840	101.840	407.662	199.046	224.888	0.00042001	0.00048721	0.00016764	896.23	4.0266e-06	5.5038e-06	744.21	324.82	4.0099e-06	5.3904e-06	307.69	124.79	128.35	50.754	4.3442e-06	52.132	0.00060025	0.00066753	0.00018835	878.55	6.833e-06	7.3861e-06	728.62	319.03	6.8325e-06	7.4846e-06	302.21	123.69	127.74	50.376	7.4555e-06	51.585	213.588	163.205	151.403	76.771	244.232	250.622	76.230	81.886	221.641	212.625	79.573	83.935	86.257	89.345	194.478	86.759	-8191	255	
20057.725	1	1	0	0	0.24698	0.010009	0.12415	0.035546	0.20242	0.03447	0.22436	0.17774	0.22216	0.21689	0.24699	0.2461	0.17088	0.25348	0.15275	0.15153	-2	-2.8	-2.2583	-2.6896	-2.8375	-2.1833	-3.075	-2.6354	-2.2562	-3.0312	-2.6	-2.5583	-2.8771	-2.2521	-2.9437	-2.6896	294.703	89.690	310.489	219.244	219.715	396.252	89.164	357.031	238.050	286.110	360.945	78.695	416.694	286.662	229.228	233.600	0.00038917	0.00024427	0.00017053	898.45	5.4384e-06	4.5637e-06	740.47	321.75	3.9072e-06	6.6978e-06	303.86	124.68	128.55	50.378	4.9294e-06	52.192	0.00058997	0.00068622	0.00019123	879.94	7.0242e-06	7.3472e-06	724.36	317.05	7.1454e-06	7.3325e-06	299.63	123.04	127.2	50.177	7.2243e-06	51.607	210.297	141.020	163.946	77.034	214.634	223.943	76.134	81.887	241.299	207.490	79.928	83.921	85.899	89.462	224.207	86.513	-8191	255	
20057.820	1	1	0	0	0.22562	0.24505	0.26842	0.071377	0.42185	0.053581	0.13618	0.13706	0.24787	0.091947	0.037362	0.28727	0.17335	0.11166	0.23646	0.14079	-1.85	-3.025	-2.225	-2.4104	-2.9396	-2.4375	-2.7708	-2.9167	-2.3729	-2.9833	-2.4542	-2.4917	-3.0771	-2.4271	-2.7771	-2.7562	370.210	188.203	208.774	371.171	107.063	133.828	348.846	162.470	227.445	83.930	357.450	337.535	92.423	395.979	273.571	100.884	0.00038443	0.00052838	7.1559e-05	899.46	2.7481e-06	4.9888e-06	741.82	321.31	5.5464e-06	5.6523e-06	306.72	124.57	129.21	50.565	5.6516e-06	52.454	0.00060011	0.00067192	0.00018221	880.21	6.9177e-06	7.3088e-06	726.8	317.41	6.949e-06	7.2222e-06	301.47	123.5	127.42	50.368	7.1809e-06	51.898	211.538	144.080	176.650	76.897	239.448	218.660	76.201	82.143	233.174	219.907	79.628	83.995	86.064	89.773	239.728	86.771	-8191	255	
20057.939	1	1	0	0	0.17392	0.18682	0.39194	0.46085	0.064795	0.19743	0.17887	0.3657	0.088929	0.19857	0.073513	0.11506	0.11306	0.10657	0.07506	0.16808	-1.8563	-2.8458	-2.45	-2.5271	-2.8667	-2.2146	-2.775	-2.8854	-2.2854	-2.7896	-2.6292	-2.4167	-3.0312	-2.4229	-2.4417	-2.9104	276.095	193.607	151.555	419.251	226.348	406.577	95.172	404.044	214.615	315.998	131.067	403.855	294.399	349.200	322.228	357.021	0.00040544	0.00056845	0.00013796	897.45	4.2712e-06	5.6268e-06	744.39	322.19	3.3555e-06	4.0521e-06	305.49	124.29	128.16	50.443	5.3405e-06	52.279	0.00059726	0.00066494	0.00018406	881.91	6.8088e-06	7.7688e-06	728.9	317.95	7.0942e-06	7.0847e-06	301.71	123.54	127.17	50.164	7.2312e-06	51.641	214.296	135.933	149.281	77.032	227.291	212.568	76.229	81.766	241.189	227.190	79.801	83.981	86.250	89.689	229.662	86.872	-8191	255	
20058.012	1	1	0	0	0.081146	0.22033	0.2662	0.22722	0.19229	0.067276	0.16772	0.23895	0.054494	0.068408	0.2248	0.024727	0.066147	0.25735	0.23127	0.11979	-2.0479	-2.5104	-2.6312	-2.4458	-2.9313	-2.3396	-2.575	-3.0854	-2.0646	-2.6792	-2.8417	-2.2271	-3.0958	-2.6625	-2.4062	-2.85	311.045	230.590	116.332	400.321	134.925	393.811	83.046	285.851	148.273	321.458	408.799	345.222	376.754	144.893	416.505	336.076	0.00042128	0.000355	0.00013494	898.09	5.0826e-06	6.3062e-06	746.66	323.22	4.9356e-06	6.2619e-06	307.28	124.61	128.92	50.681	5.1261e-06	52.324	0.00059417	0.00067711	0.00018893	881.99	6.9693e-06	7.6926e-06	728.56	318.78	7.3925e-06	7.4585e-06	301.84	123.45	127.48	50.395	7.4515e-06	51.894	213.792	156.079	157.537	76.578	235.438	211.149	76.195	81.749	244.524	228.219	79.621	84.157	86.109	89.616	232.156	86.844	-8191	255	
20058.133	1	1	0	0	0.10611	0.20694	0.016372	0.30785	0.16219	0.10899	0.10247	0.32183	0.2113	0.15529	0.31002	0.11869	0.040607	0.19589	0.091881	0.24414	-1.7042	-2.5563	-2.8042	-2.1	-2.7896	-2.5021	-2.4729	-2.9854	-2.1958	-2.6792	-2.8146	-2.225	-2.95	-2.4833	-2.3292	-3.1667	208.889	88.072	96.902	356.108	336.080	152.231	73.928	167.176	387.734	226.625	378.257	306.946	78.988	407.093	193.861	410.041	0.00042283	0.00030312	0.00016987	900.71	5.2923e-06	5.4745e-06	743.41	322.99	5.6108e-06	5.5596e-06	305.11	125.3	129.54	50.692	5.2349e-06	52.236	0.00059583	0.00069363	0.00018797	882.01	6.8614e-06	7.3493e-06	727.93	319.04	7.0679e-06	7.3456e-06	301.09	123.62	127.97	50.442	7.4274e-06	51.848	212.437	215.406	164.830	77.004	247.777	237.527	76.510	81.895	248.989	216.690	80.023	84.100	86.346	89.737	226.008	86.871	-8191	255	
20058.227	1	1	0	0	0.14663	0.28822	0.17667	0.14911	0.17014	0.27602	0.051897	0.38449	0.24681	0.25492	0.04696	0.29032	0.21633	0.50613	0.14364	0.091643	-1.8937	-2.6521	-2.6792	-2.3187	-2.8625	-2.5438	-2.4292	-2.9729	-2.5458	-2.4979	-3.2417	-2.3146	-2.8792	-2.725	-2.3563	-3.0854	375.321	157.228	136.805	247.758	269.259	391.713	255.047	383.924	216.777	207.884	290.326	67.390	367.285	382.481	277.780	151.320	0.00039106	0.00064171	0.00014089	901.44	5.1777e-06	5.439e-06	745.53	323.51	4.7955e-06	3.9178e-06	306.27	124.43	129.35	50.461	5.1803e-06	52.113	0.00059509	0.00068041	0.00018639	882.18	6.9614e-06	7.6426e-06	728.62	318.87	7.3253e-06	7.2463e-06	301.2	123.53	128.01	50.162	7.5245e-06	51.514	211.924	148.262	162.050	77.016	235.006	219.003	76.304	82.267	251.721	210.934	79.963	84.382	86.434	89.540	238.477	87.162	-8191	255	
20058.324	1	1	0	0	0.2136	0.084956	0.35723	0.054674	0.22614	0.22024	0.2074	0.19736	0.11931	0.12586	0.025134	0.07117	0.16378	0.10497	0.069907	0.12747	-2.1521	-2.2542	-2.8708	-2.4854	-2.6521	-2.7604	-2.4479	-3.0854	-2.4625	-2.4354	-2.9479	-2.2354	-2.65	-2.9313	-2.1063	-3.0812	306.112	126.072	68.978	315.971	280.223	119.419	103.755	73.297	376.083	342.536	372.906	236.649	394.210	411.501	87.908	115.049	0.00041778	0.00058132	0.00015592	899.12	5.3991e-06	6.1425e-06	742.59	320.87	2.8958e-06	4.0102e-06	306.28	124.42	129	49.964	5.8776e-06	51.297	0.00060459	0.00069698	0.00018364	879.9	6.8377e-06	7.425e-06	725.04	317.19	7.2262e-06	7.3336e-06	300.24	122.82	127.22	49.634	7.6181e-06	50.907	209.968	150.037	140.460	77.040	243.867	241.419	76.364	81.828	230.572	216.303	80.076	84.373	86.211	89.805	212.107	86.879	-8191	255	
20058.420	1	1	0	0	0.013323	0.1816	0.1313	0.36825	0.18515	0.021205	0.17123	0.084843	0.26393	0.39211	0.15802	0.11253	0.15084	0.33065	0.21168	0.17396	-1.975	-2.3875	-2.9458	-2.3854	-2.6083	-2.8604	-2.1979	-2.8063	-2.2313	-2.1771	-2.9604	-2.5292	-2.6229	-2.9854	-2.1125	-2.7875	106.006	296.552	392.400	405.105	260.151	93.967	361.405	343.049	148.057	182.711	90.666	353.303	260.791	420.241	344.591	379.315	0.00039775	0.00050795	0.00010952	896.75	3.2759e-06	6.0163e-06	743.31	322.34	2.5158e-06	5.4526e-06	302.57	122.6	127.34	49.78	5.259e-06	51.009	0.00060236	0.00067716	0.00018518	880.94	6.9283e-06	7.2662e-06	725.38	316.54	6.9326e-06	7.4392e-06	298.11	121.79	126.51	49.495	7.3801e-06	50.477	215.165	141.544	151.932	77.054	239.839	229.855	75.876	81.846	233.390	208.903	79.490	83.740	86.260	89.553	229.897	87.057	-8191	255	
20058.539	1	1	0	0	0.16301	0.26119	0.11463	0.1919	0.17219	0.2514	0.20825	0.046109	0.26843	0.27277	0.14901	0.03306	0.23224	0.048089	0.29764	0.087038	-2.0979	-2.0292	-2.9208	-2.4021	-2.3333	-2.9667	-2.2646	-2.9854	-2.7313	-2.1729	-3.0542	-2.2938	-2.5354	-2.9062	-2.125	-2.7062	122.315	330.418	421.845	417.001	196.827	372.731	74.294	320.465	373.184	144.819	64.605	124.573	345.241	286.979	227.160	65.887	0.00038936	0.00040049	9.375e-05	899.27	3.0941e-06	7.8054e-06	731.39	318.57	3.6696e-06	4.2278e-06	297.87	121.12	126.31	48.537	3.8969e-06	49.523	0.0005958	0.00067711	0.00019068	880.83	7.3586e-06	7.3603e-06	718.37	315.14	7.1393e-06	7.5803e-06	293.28	119.78	124.94	48.203	7.2918e-06	48.928	214.637	132.323	151.458	76.862	259.946	233.740	76.044	81.744	250.509	247.564	79.686	83.760	85.960	89.378	219.415	86.442	-8191	255	
20058.611	1	1	0	0	0.062388	0.24199	0.27473	0.1599	0.21115	0.070415	0.039744	0.26545	0.20756	0.17471	0.13583	0.26229	0.024468	0.084549	0.4336	0.11548	-2.4042	-2.1896	-2.7271	-2.3792	-2.2208	-2.9458	-2.3563	-2.5833	-2.775	-2.2333	-3.0812	-2.6167	-2.3167	-2.9771	-2.4188	-2.6104	90.927	222.813	105.169	94.968	392.230	106.250	83.907	361.138	413.308	313.623	317.655	347.528	373.102	403.951	188.773	337.819	0.00038606	0.00034329	0.00012782	894.69	4.776e-06	5.5811e-06	730.3	316.63	3.3069e-06	2.6372e-06	294.67	120.13	125.29	48.229	4.1394e-06	49.137	0.00057397	0.00066253	0.00018584	878.1	6.9144e-06	7.3561e-06	715.24	312.61	7.0233e-06	7.1877e-06	290.68	118.41	123.69	47.879	7.0971e-06	48.741	213.587	152.777	154.351	76.960	236.234	224.354	76.236	81.965	266.458	205.291	79.460	83.779	85.979	89.424	222.569	86.659	-8191	255	
20058.707	1	1	0	0	0.30953	0.068225	0.16624	0.024647	0.032173	0.26122	0.11944	0.29484	0.23631	0.16012	0.20031	0.36106	0.14533	0.11663	0.16518	0.31933	-2.3708	-2.0208	-2.7188	-2.7	-2.3083	-2.9042	-2.4125	-2.5604	-2.7875	-2.1896	-2.7771	-2.7896	-2.3625	-3.0083	-2.4042	-2.5042	190.400	98.411	358.168	412.580	110.965	152.740	328.820	318.835	144.999	329.552	352.501	90.575	297.117	237.771	265.393	326.083	0.00038702	0.00064324	0.00014561	899.85	3.8193e-06	7.3193e-06	736.53	317.29	5.5554e-06	4.4457e-06	298.73	121.5	126.22	48.633	5.532e-06	50.019	0.00057752	0.000668	0.00017787	882.1	6.6465e-06	7.0985e-06	722.07	313.82	6.701e-06	7.0947e-06	294.59	120.31	124.75	48.507	7.2213e-06	49.545	212.711	148.484	156.402	77.023	252.061	199.667	76.051	81.804	230.437	220.425	79.624	83.957	85.878	89.173	245.359	86.615	-8191	255	
20058.805	1	1	0	0	0.14862	0.32394	0.026515	0.055326	0.2316	0.16385	0.1513	0.1381	0.109	0.19911	0.16497	0.086378	0.12117	0.091015	0.17841	0.2603	-2.5104	-2.1625	-2.6771	-2.7354	-2.3792	-3.0125	-2.5875	-2.5146	-2.9813	-2.1937	-2.5979	-3.0229	-2.2021	-2.8667	-2.5792	-2.425	294.766	64.499	287.500	342.082	335.834	380.239	105.210	371.407	168.068	66.524	67.230	369.171	345.698	79.455	386.976	225.794	0.00040338	0.00026724	0.0001082	900.39	2.6854e-06	5.2267e-06	738.29	317.74	5.7627e-06	3.9734e-06	296.01	121.11	126.09	48.822	2.9391e-06	49.862	0.00057012	0.00064837	0.00017968	881.91	6.7837e-06	7.2846e-06	720.89	314.3	6.9796e-06	7.1375e-06	292.98	119.43	124.66	48.558	7.4215e-06	49.139	210.665	157.875	139.592	76.869	223.536	253.021	75.900	81.565	253.674	253.279	79.732	83.958	86.173	89.234	240.080	86.500	-8191	255	
20058.900	1	1	0	0	0.22901	0.10369	0.13181	0.039714	0.12806	0.11581	0.19605	0.12514	0.088168	0.39182	0.27173	0.136	0.12249	0.3699	0.12818	0.2285	-2.6208	-2.1854	-2.5625	-2.9708	-2.2521	-2.7729	-2.5625	-2.3458	-3.0771	-2.3125	-2.6042	-2.8875	-2.2479	-2.9021	-2.5042	-2.1917	162.185	315.712	419.055	377.594	217.554	100.582	347.630	224.774	89.118	392.867	81.428	369.779	319.602	137.691	96.200	331.100	0.00040899	0.00042795	9.6964e-05	891.86	4.2314e-06	4.7834e-06	729.17	315.53	5.6672e-06	6.6981e-06	295.06	120.01	126	48.578	5.1114e-06	49.434	0.00057006	0.00068287	0.00018935	874.79	7.1032e-06	7.3987e-06	713.67	312.19	7.0505e-06	7.4413e-06	290.91	118.75	124.43	48.442	7.3687e-06	49.076	210.010	179.995	177.326	76.876	221.560	205.748	76.112	81.603	234.491	213.179	79.573	83.911	86.011	89.250	207.715	86.582	-8191	255	
20059.020	1	1	0	0	0.12545	0.26809	0.28206	0.24224	0.14887	0.094865	0.11121	0.044425	0.082556	0.17726	0.1569	0.045703	0.13649	0.28571	0.10308	0.10265	-2.4646	-2.3792	-2.6271	-2.9688	-2.2104	-2.8479	-2.7792	-2.3125	-2.8708	-2.425	-2.3021	-3.0812	-2.1458	-2.6833	-2.775	-2.3479	351.903	218.840	66.888	104.225	267.809	383.836	416.648	409.295	289.489	73.855	192.037	121.724	77.881	98.811	231.866	387.879	0.0003855	0.00021342	0.00011094	887.47	3.4146e-06	2.9566e-06	720.92	315.22	5.4438e-06	3.0199e-06	293.65	119.62	125.12	48.822	6.8721e-06	50.302	0.00057397	0.00068716	0.00019556	870.11	7.1637e-06	7.4097e-06	707.69	311.13	6.9894e-06	7.2191e-06	289.93	118.64	124.02	48.67	7.2297e-06	49.771	208.943	162.609	152.976	77.161	239.401	214.809	76.093	81.723	222.647	181.001	79.489	84.012	85.910	89.401	228.199	86.525	-8191	255	
20059.115	1	1	0	0	0.035519	0.1329	0.27199	0.27488	0.11013	0.16967	0.15023	0.37785	0.19947	0.34408	0.082104	0.05128	0.11957	0.13232	0.10569	0.14687	-2.3958	-2.3896	-2.4917	-2.9542	-2.1146	-2.6458	-3.025	-2.3688	-2.8667	-2.5396	-2.3229	-3.1125	-2.4042	-2.7313	-2.8396	-2.275	373.043	216.742	235.511	329.392	251.797	149.108	346.670	366.795	339.542	228.478	241.545	210.789	75.890	88.597	144.852	67.847	0.00039295	0.00058855	0.00016108	889.33	4.7346e-06	2.8838e-06	731.33	319.37	4.5388e-06	6.3478e-06	299.99	121.72	126.98	49.303	6.2129e-06	50.684	0.00057777	0.00065828	0.00018721	874.01	7.1279e-06	7.2258e-06	716.73	314.36	7.1708e-06	7.5568e-06	294.94	120.7	125.69	49.263	7.1651e-06	50.177	214.238	135.037	151.977	76.835	223.297	216.849	75.867	81.529	245.596	207.829	79.326	83.880	85.862	89.109	233.806	86.474	-8191	255	
20059.213	1	1	0	0	0.29345	0.073669	0.24532	0.13276	0.15708	0.072086	0.16699	0.11647	0.065117	0.095812	0.24437	0.25492	0.2986	0.079801	0.09172	0.15483	-2.3646	-2.4792	-2.2896	-2.9958	-2.3021	-2.5062	-3.0563	-2.3667	-2.7812	-2.5292	-2.3063	-2.9792	-2.225	-2.4062	-2.8563	-2.3125	296.121	126.448	192.374	389.039	208.625	95.951	311.948	308.332	294.580	209.108	415.937	412.506	98.829	108.649	369.479	315.760	0.00041557	0.00042202	8.3829e-05	889.35	4.7447e-06	5.6489e-06	731.97	318.46	5.3415e-06	5.8158e-06	296.88	120.66	126.41	48.92	6.1146e-06	49.806	0.00057779	0.00068226	0.00018601	873.97	6.8372e-06	7.5517e-06	717.08	313.82	7.0646e-06	7.3336e-06	292.6	119.54	125.02	48.733	7.2125e-06	49.313	206.932	132.129	138.415	76.690	214.105	222.257	76.015	81.402	262.505	200.344	79.576	83.677	85.858	89.040	234.826	86.387	-8191	255	
20059.309	1	1	0	0	0.12749	0.16163	0.10364	0.19335	0.072843	0.082242	0.24168	0.40803	0.083017	0.24034	0.12021	0.16695	0.058386	0.083097	0.17354	0.1342	-2.375	-2.5938	-2.2188	-3.0646	-2.2854	-2.4333	-2.9083	-2.2479	-2.6792	-2.8271	-2.0208	-2.85	-2.5812	-2.3854	-2.8208	-2.3583	263.272	128.116	222.857	413.345	390.460	145.782	340.191	403.418	275.472	328.267	202.158	388.350	375.248	79.867	372.552	302.082	0.00040382	0.0004572	0.00013189	887.78	2.5447e-06	5.4911e-06	726.87	315.85	4.4231e-06	4.0306e-06	296.18	120.82	126.91	48.757	6.1568e-06	49.553	0.00059306	0.00066281	0.00018483	871.75	7.2251e-06	7.3777e-06	710.38	312.35	7.0872e-06	7.3874e-06	291.93	119.37	125.28	48.671	7.3199e-06	49.175	212.119	155.328	137.086	76.235	235.244	220.837	75.938	81.559	241.823	203.421	79.194	83.593	85.783	88.949	217.810	86.346	-8191	255	
20059.404	1	1	0	0	0.19166	0.10377	0.11125	0.064428	0.18139	0.089583	0.069188	0.21418	0.2465	0.2118	0.23199	0.1251	0.19349	0.28911	0.18823	0.18574	-2.3271	-2.7479	-2.3125	-2.9792	-2.675	-2.3354	-2.7875	-2.2667	-2.575	-2.7979	-2.2354	-2.925	-2.6958	-2.1542	-2.9458	-2.4208	301.620	69.096	176.121	94.728	225.304	192.472	247.330	391.928	404.534	261.420	345.785	265.018	319.719	342.885	172.489	174.434	0.0003744	0.00061703	0.0001204	887.27	5.6137e-06	5.0332e-06	721.28	316.8	3.6899e-06	5.5988e-06	293.43	119.41	125.61	48.61	5.0644e-06	49.255	0.00058647	0.00068863	0.00018793	869.5	7.0242e-06	7.2804e-06	705.11	311.94	7.1661e-06	7.0152e-06	289.13	118.4	124.72	48.316	7.0912e-06	48.678	213.923	144.452	163.058	76.466	245.972	211.101	76.101	81.457	226.402	228.137	79.000	83.783	86.094	89.301	220.657	86.343	-8191	255	
20059.500	1	1	0	0	0.15415	0.39062	0.28045	0.12594	0.2493	0.27404	0.0091682	0.27458	0.19267	0.10323	0.18381	0.13845	0.079484	0.056504	0.22965	0.28561	-2.1375	-2.8937	-2.3146	-2.6875	-2.7521	-2.2188	-2.7979	-2.4125	-2.3104	-2.975	-2.3083	-2.6625	-3.0125	-2.2896	-2.9521	-2.5042	347.542	327.966	138.238	372.117	288.419	149.456	168.292	367.733	416.405	147.421	80.483	77.218	187.553	132.305	197.147	399.186	0.00043437	0.00046016	0.00012912	885.36	5.7041e-06	4.7081e-06	720.89	316.46	4.2459e-06	2.811e-06	294.08	120.31	126.02	48.494	4.3482e-06	49.189	0.00059791	0.00068032	0.00019331	869.85	7.173e-06	7.6758e-06	706.38	312.42	7.3361e-06	7.4198e-06	289.4	118.83	124.94	48.263	7.5871e-06	48.747	210.297	157.236	179.027	76.387	217.101	228.285	76.050	81.324	233.773	225.720	79.332	83.608	85.738	89.218	220.287	86.231	-8191	255	
20059.621	1	1	0	0	0.33314	0.18712	0.26744	0.39385	0.14289	0.067622	0.2461	0.19882	0.14434	0.33611	0.040988	0.23086	0.23564	0.26679	0.26977	0.053555	-2.0521	-2.8229	-2.2458	-2.8187	-2.9042	-2.35	-2.7938	-2.5938	-2.2333	-2.8208	-2.3833	-2.6813	-2.9167	-2.3792	-2.7562	-2.7042	319.117	330.444	178.266	79.428	332.628	276.349	378.029	97.476	172.712	348.341	316.351	319.935	103.536	335.471	324.477	112.863	0.00037322	0.00056232	0.00011762	882.59	4.8763e-06	3.1814e-06	720.45	317.56	5.0052e-06	4.1138e-06	293.54	118.81	126.41	48.602	5.0527e-06	48.834	0.00059019	0.00071911	0.0001978	870.25	7.2409e-06	7.9402e-06	706.83	312.76	7.3488e-06	7.6911e-06	289.13	118.14	124.82	48.299	7.5496e-06	48.492	218.001	138.605	161.276	76.443	223.917	225.357	75.767	81.539	230.273	219.550	79.072	83.541	85.546	89.071	237.879	86.105	-8191	255	
20059.717	1	1	0	0	0.051524	0.14875	0.3085	0.05289	0.058001	0.045449	0.13358	0.147	0.14839	0.085527	0.29767	0.36911	0.084977	0.16817	0.042162	0.14482	-1.8312	-2.9292	-2.1792	-2.5521	-2.7667	-2.2479	-2.9042	-2.6	-2.4271	-3.025	-2.3583	-2.5042	-2.9188	-2.1542	-2.7	-2.7417	202.923	74.131	252.854	114.505	117.887	91.000	331.415	71.537	195.632	191.709	244.318	336.479	274.263	120.792	184.636	404.182	0.00040221	0.00051222	0.00015148	883.04	5.3271e-06	5.6714e-06	718.37	316.32	3.2331e-06	5.3002e-06	292.32	119.32	125.24	48.273	4.1869e-06	49.246	0.00061462	0.00070425	0.00019809	866.63	7.2004e-06	7.7856e-06	703.62	311.56	7.4635e-06	7.5918e-06	287.94	118.03	124.37	48.198	7.731e-06	48.499	213.222	143.744	157.158	76.334	220.039	221.616	75.896	81.352	253.349	224.794	79.031	83.364	85.703	88.962	234.110	86.162	-8191	255	
20059.811	1	1	0	0	0.19412	0.027861	0.29857	0.16153	0.18332	0.17665	0.23299	0.271	0.17414	0.21252	0.19999	0.08228	0.25241	0.068967	0.14042	0.16205	-1.7417	-2.8604	-2.5104	-2.5438	-2.9896	-2.2417	-2.7854	-2.8229	-2.1375	-2.9021	-2.5542	-2.3354	-2.9396	-2.3042	-2.5667	-3.1792	138.173	110.338	246.057	252.290	369.819	173.179	187.984	415.557	292.168	176.791	309.947	217.876	134.208	370.611	206.626	237.952	0.00040243	0.00045805	0.00013836	884.44	4.5488e-06	5.9366e-06	714.37	313.61	5.425e-06	7.3866e-06	289.85	118.35	125.19	47.82	4.4636e-06	48.607	0.00060483	0.0007318	0.00019921	864.83	7.4181e-06	7.6758e-06	699.02	309.55	7.58e-06	7.8929e-06	285.69	117.01	123.8	47.649	7.938e-06	47.937	212.864	149.175	159.584	76.397	219.772	216.568	75.682	81.338	250.714	213.792	79.323	83.890	85.751	88.882	220.811	86.296	-8191	255	
20059.908	1	1	0	0	0.14686	0.21823	0.075978	0.084418	0.21795	0.23933	0.095906	0.036327	0.24575	0.14137	0.28101	0.13437	0.080642	0.066894	0.041933	0.082922	-1.9375	-2.7979	-2.6208	-2.4667	-2.8812	-2.3854	-2.6542	-2.9979	-2.2604	-2.7854	-2.7333	-2.275	-3.0271	-2.625	-2.5042	-2.8792	65.642	401.683	306.082	417.907	396.906	414.361	367.899	99.002	210.109	169.308	117.387	67.712	302.681	75.268	230.569	305.438	0.00041151	0.00028929	0.00015362	883.2	4.9696e-06	4.7906e-06	713.15	314.03	4.5027e-06	6.5071e-06	288.57	116.85	124.43	46.988	3.9432e-06	47.492	0.00060944	0.00070623	0.00020227	864.37	7.3167e-06	7.9202e-06	698.23	309.46	7.4029e-06	7.7544e-06	283.75	115.98	123.03	46.884	7.8153e-06	47.027	215.111	161.878	178.435	76.333	228.976	213.428	75.877	81.273	248.373	232.254	79.123	83.339	85.945	89.165	264.514	86.612	-8191	255	
#DATA ENDS
