BOXY.EXE: ISS Imagent and Oximeter Data Acquisition Program Version 0.80
Ascii Record File

#ACQ INFORMATION
2  Detector Channels 
16  External MUX Channels 
1  Auxiliary Channels 
5000  Waveform (CCF) Frequency (Hz)
1  Waveforms Skipped 
30  Waveforms Averaged 
1  Cycles Averaged 
16  Acquisitions per Waveform 
10.0806  Updata Rate (Hz) 

#FILE INFORMATION
TRUE -- External MUX Channel results are PARSED.
FALSE -- AC DC and Phase are NOT grouped.
TRUE -- Companion Program Settings File CREATED.
FALSE -- AC data not excluded
FALSE -- DC data not excluded
FALSE -- Phase data not excluded
FALSE -- Auxillary Chn. data not excluded
Tab delimiters

#CALIBRATION STATE
TRUE -- Waveform Calibration Values APPLIED.


#AUX CALIBRATION VALUES
Val Type	aux-1	

Term	1.0000e+00	
Factor	0.0000e+00	


#WF CALIBRATION VALUES
A = Detector Channel
Val Type	A-AC1	A-AC2	A-AC3	A-AC4	A-AC5	A-AC6	A-AC7	A-AC8	A-AC9	A-AC10	A-AC11	A-AC12	A-AC13	A-AC14	A-AC15	A-AC16	A-DC1	A-DC2	A-DC3	A-DC4	A-DC5	A-DC6	A-DC7	A-DC8	A-DC9	A-DC10	A-DC11	A-DC12	A-DC13	A-DC14	A-DC15	A-DC16	A-Ph1	A-Ph2	A-Ph3	A-Ph4	A-Ph5	A-Ph6	A-Ph7	A-Ph8	A-Ph9	A-Ph10	A-Ph11	A-Ph12	A-Ph13	A-Ph14	A-Ph15	A-Ph16	

Term	0.00000e+00	0.00000e+00	0.00000e+00	0.00000e+00	0.00000e+00	0.00000e+00	0.00000e+00	0.00000e+00	0.00000e+00	0.00000e+00	0.00000e+00	0.00000e+00	0.00000e+00	0.00000e+00	0.00000e+00	0.00000e+00	0.00000e+00	0.00000e+00	0.00000e+00	0.00000e+00	0.00000e+00	0.00000e+00	0.00000e+00	0.00000e+00	0.00000e+00	0.00000e+00	0.00000e+00	0.00000e+00	0.00000e+00	0.00000e+00	0.00000e+00	0.00000e+00	0.00000e+00	0.00000e+00	0.00000e+00	0.00000e+00	0.00000e+00	0.00000e+00	0.00000e+00	0.00000e+00	0.00000e+00	0.00000e+00	0.00000e+00	0.00000e+00	0.00000e+00	0.00000e+00	0.00000e+00	0.00000e+00	
Factor	1.00000e+00	1.00000e+00	1.00000e+00	1.00000e+00	1.00000e+00	1.00000e+00	1.00000e+00	1.00000e+00	1.00000e+00	1.00000e+00	1.00000e+00	1.00000e+00	1.00000e+00	1.00000e+00	1.00000e+00	1.00000e+00	1.00000e+00	1.00000e+00	1.00000e+00	1.00000e+00	1.00000e+00	1.00000e+00	1.00000e+00	1.00000e+00	1.00000e+00	1.00000e+00	1.00000e+00	1.00000e+00	1.00000e+00	1.00000e+00	1.00000e+00	1.00000e+00	X	X	X	X	X	X	X	X	X	X	X	X	X	X	X	X	

B = Detector Channel
Val Type	B-AC1	B-AC2	B-AC3	B-AC4	B-AC5	B-AC6	B-AC7	B-AC8	B-AC9	B-AC10	B-AC11	B-AC12	B-AC13	B-AC14	B-AC15	B-AC16	B-DC1	B-DC2	B-DC3	B-DC4	B-DC5	B-DC6	B-DC7	B-DC8	B-DC9	B-DC10	B-DC11	B-DC12	B-DC13	B-DC14	B-DC15	B-DC16	B-Ph1	B-Ph2	B-Ph3	B-Ph4	B-Ph5	B-Ph6	B-Ph7	B-Ph8	B-Ph9	B-Ph10	B-Ph11	B-Ph12	B-Ph13	B-Ph14	B-Ph15	B-Ph16	

Term	0.00000e+00	0.00000e+00	0.00000e+00	0.00000e+00	0.00000e+00	0.00000e+00	0.00000e+00	0.00000e+00	0.00000e+00	0.00000e+00	0.00000e+00	0.00000e+00	0.00000e+00	0.00000e+00	0.00000e+00	0.00000e+00	0.00000e+00	0.00000e+00	0.00000e+00	0.00000e+00	0.00000e+00	0.00000e+00	0.00000e+00	0.00000e+00	0.00000e+00	0.00000e+00	0.00000e+00	0.00000e+00	0.00000e+00	0.00000e+00	0.00000e+00	0.00000e+00	-1.12232e+02	-1.31493e+02	-1.26301e+02	-1.82925e+02	-6.61961e+01	-6.93729e+01	-1.56697e+02	-1.62015e+02	-6.64507e+01	-6.47760e+01	-1.69789e+02	-1.71884e+02	-1.87016e+02	-1.77077e+02	-6.21522e+01	-1.49516e+02	
Factor	1.55884e-05	1.50606e-04	4.28834e-05	2.77585e-01	1.30341e-06	1.75495e-06	1.60847e-01	4.74421e-02	1.05426e-06	1.60286e-06	8.23926e-02	2.73325e-02	3.04750e-02	8.53322e-03	1.33339e-06	1.20591e-02	1.05579e-05	1.86671e-05	5.21731e-06	1.46876e-01	1.94660e-07	2.09585e-07	8.03013e-02	2.53644e-02	1.85624e-07	2.07253e-07	4.25778e-02	1.42240e-02	1.63516e-02	4.59333e-03	1.96714e-07	6.29039e-03	X	X	X	X	X	X	X	X	X	X	X	X	X	X	X	X	



#DISTANCE SETTINGS
A = Detector Channel
A-1	A-2	A-3	A-4	A-5	A-6	A-7	A-8	A-9	A-10	A-11	A-12	A-13	A-14	A-15	A-16	

2.5000e+00	3.0000e+00	2.5000e+00	3.0000e+00	2.0000e+00	3.0000e+00	1.5000e+00	3.0000e+00	3.0000e+00	3.0000e+00	3.0000e+00	3.0000e+00	3.0000e+00	3.0000e+00	1.5000e+00	3.0000e+00	

B = Detector Channel
B-1	B-2	B-3	B-4	B-5	B-6	B-7	B-8	B-9	B-10	B-11	B-12	B-13	B-14	B-15	B-16	

1.0000e+01	1.0000e+01	1.0000e+01	1.4400e+00	1.0000e+01	1.0000e+01	1.5100e+00	1.9400e+00	1.0000e+01	1.0000e+01	1.9900e+00	2.4900e+00	2.4100e+00	2.9000e+00	1.0000e+01	2.9800e+00	




#DATA BEGINS
time	group	step	mark	flag	A-AC1	A-AC2	A-AC3	A-AC4	A-AC5	A-AC6	A-AC7	A-AC8	A-AC9	A-AC10	A-AC11	A-AC12	A-AC13	A-AC14	A-AC15	A-AC16	A-DC1	A-DC2	A-DC3	A-DC4	A-DC5	A-DC6	A-DC7	A-DC8	A-DC9	A-DC10	A-DC11	A-DC12	A-DC13	A-DC14	A-DC15	A-DC16	A-Ph1	A-Ph2	A-Ph3	A-Ph4	A-Ph5	A-Ph6	A-Ph7	A-Ph8	A-Ph9	A-Ph10	A-Ph11	A-Ph12	A-Ph13	A-Ph14	A-Ph15	A-Ph16	B-AC1	B-AC2	B-AC3	B-AC4	B-AC5	B-AC6	B-AC7	B-AC8	B-AC9	B-AC10	B-AC11	B-AC12	B-AC13	B-AC14	B-AC15	B-AC16	B-DC1	B-DC2	B-DC3	B-DC4	B-DC5	B-DC6	B-DC7	B-DC8	B-DC9	B-DC10	B-DC11	B-DC12	B-DC13	B-DC14	B-DC15	B-DC16	B-Ph1	B-Ph2	B-Ph3	B-Ph4	B-Ph5	B-Ph6	B-Ph7	B-Ph8	B-Ph9	B-Ph10	B-Ph11	B-Ph12	B-Ph13	B-Ph14	B-Ph15	B-Ph16	aux-1	digaux	

1067.874	1	1	0	768	0.18437	0.27236	0.20599	0.13595	0.1263	0.089787	0.088925	0.058916	0.17882	0.095398	0.23817	0.062859	0.068615	0.14682	0.10906	0.1006	0.825	-0.12708	0.48333	0.19583	-0.31875	0.46042	-0.18542	-0.22292	0.74375	-0.29583	0.12708	0.39375	-0.2875	0.42292	0.083333	-0.047917	37.867	260.181	58.494	286.383	0.032	215.906	280.763	-11.015	33.247	308.578	-6.281	146.170	272.146	298.061	207.271	197.366	3.1181e-05	0.00035373	4.9652e-05	787.54	2.1174e-06	4.519e-06	640.58	212.11	3.4294e-06	8.0271e-06	169.36	51.274	67.643	28.759	8.8433e-06	23.197	0.0054474	0.009432	0.0026554	837.88	9.7593e-05	0.00010666	661.64	220.43	9.4464e-05	0.00010548	185.57	57.636	75.031	30.694	0.00010004	25.872	256.522	266.392	137.370	-33.200	140.839	11.872	-34.798	-27.211	245.151	302.569	-30.620	-25.459	-21.954	-16.508	-34.913	-21.389	-8191	255	
1067.970	1	1	0	0	0.25848	0.095676	0.16919	0.11126	0.16905	0.065153	0.080577	0.25791	0.10855	0.12993	0.2583	0.087396	0.09677	0.1309	0.08394	0.18448	0.91875	-0.35625	0.060417	0.34167	-0.19583	0.42083	0.13542	-0.25208	0.59167	-0.06875	0.12708	0.38333	-0.03125	0.45208	0.46667	-0.22917	54.254	104.396	5.648	253.689	110.940	108.491	268.124	4.278	92.095	75.273	222.029	57.156	270.930	124.725	37.152	17.482	0.00012971	0.00057315	0.00015522	779.95	4.5016e-06	4.7212e-06	631.19	209.99	1.002e-05	7.9996e-06	167.67	50.702	65.283	28.086	1.0577e-05	22.303	0.0053466	0.0094253	0.0026515	828.19	9.7447e-05	0.00010688	652.97	218.5	9.258e-05	0.00010511	183.43	56.841	73.021	29.86	9.4249e-05	24.896	165.946	83.954	29.373	-33.221	118.613	135.273	-34.719	-26.958	131.689	68.495	-30.598	-25.424	-21.774	-16.531	123.371	-21.840	-8191	255	
1068.065	1	1	0	0	0.20364	0.10361	0.31521	0.20665	0.14131	0.24146	0.023714	0.19121	0.13345	0.18876	0.17213	0.36135	0.21136	0.22546	0.04933	0.028228	0.79375	-0.025	-0.035417	0.32083	-0.21875	0.22083	0.38125	-0.3875	0.44375	-0.052083	-0.091667	0.39583	-0.26875	0.11667	0.33333	-0.28125	156.370	101.407	128.981	-23.961	13.518	133.984	-6.515	147.597	180.588	-38.671	87.392	-42.766	-19.031	130.188	204.630	139.968	0.00017477	0.00037613	0.00019351	732.22	6.9542e-06	5.1703e-06	589.99	199.26	3.9562e-06	1.4522e-05	159.52	48.229	62.949	26.938	7.1669e-06	21.69	0.0049695	0.0087178	0.0024723	778.68	9.3405e-05	0.00010152	612.94	207.18	9.3303e-05	0.00010323	176	54.668	70.663	28.947	9.8951e-05	24.359	140.390	45.078	283.438	-33.423	101.396	220.675	-35.016	-26.981	194.531	82.278	-30.849	-25.678	-22.186	-17.010	4.523	-21.186	-8191	255	
1068.163	1	1	0	0	0.27037	0.18838	0.063692	0.30066	0.037945	0.23842	0.29726	0.13287	0.10371	0.03463	0.24711	0.090918	0.24646	0.42357	0.32655	0.20718	0.73542	0.2	-0.19375	0.5625	-0.0375	0.033333	0.32083	-0.19375	0.30625	0.14167	-0.32083	0.40417	-0.11667	0.18542	0.55208	-0.26458	268.615	148.979	247.145	274.175	-29.545	289.390	268.176	253.945	34.077	-11.277	205.589	189.456	281.712	295.363	133.443	60.265	1.2418e-05	0.00023988	0.00014409	724.39	5.0213e-06	3.4263e-06	592.96	199.1	3.4256e-06	5.1485e-06	160.09	49.262	64.686	27.578	6.0644e-06	22.292	0.0053813	0.0093968	0.0026527	776.8	9.8375e-05	0.00010652	614.44	207.67	9.4506e-05	0.00010741	177.48	55.613	72.346	29.499	0.00010277	24.984	122.177	44.989	225.905	-33.478	33.678	50.875	-34.743	-27.098	140.795	4.626	-30.743	-25.427	-21.923	-16.714	81.828	-21.826	-8191	255	
1068.257	1	1	0	0	0.067166	0.16137	0.13688	0.22507	0.19636	0.22866	0.016506	0.28931	0.27047	0.10707	0.16643	0.31787	0.043296	0.28725	0.13062	0.038464	0.61875	0.06875	-0.21042	0.5375	-0.23333	-0.17708	0.42708	-0.1625	0.40208	0.22292	-0.16875	0.575	0.020833	-0.125	0.73333	-0.38125	303.872	23.443	-21.614	29.070	171.075	-13.423	235.020	174.859	121.547	271.062	-6.160	191.395	-40.814	292.766	-3.785	-41.219	0.00012778	0.00025607	0.00036717	746.15	2.4439e-06	3.1923e-06	611.86	202.06	4.5007e-06	9.343e-06	161.47	50.953	66.533	28.139	7.6305e-06	22.903	0.0056226	0.0098519	0.0027417	800.02	0.00010313	0.00011006	635.02	211.56	9.8629e-05	0.00010803	179.34	57.423	74.159	30.175	0.00010373	25.565	168.364	-3.797	-0.789	-33.621	0.248	163.797	-35.152	-27.074	125.138	95.474	-30.529	-25.828	-22.054	-16.739	209.407	-21.088	-8191	255	
1068.355	1	1	0	0	0.17854	0.057637	0.26461	0.27978	0.19521	0.27181	0.18809	0.25122	0.22478	0.11836	0.18416	0.11876	0.080522	0.1607	0.10685	0.072476	0.58125	0.38542	-0.32708	0.47917	0.039583	-0.21042	0.67708	-0.31042	0.22917	0.34792	-0.32917	0.5625	0.15625	-0.33958	0.3875	-0.1375	181.315	155.082	168.095	228.041	-28.002	65.732	87.618	248.158	52.785	211.763	236.191	302.376	91.731	215.265	104.731	256.920	4.6979e-05	0.000612	0.00013544	750.8	2.999e-06	1.0584e-05	627.17	206.55	3.0937e-06	1.4032e-05	164.01	51.002	66.909	28.412	6.3765e-06	22.803	0.0056123	0.0098762	0.0027469	809.95	0.00010326	0.00010994	645.37	215.78	9.9349e-05	0.00011032	181.86	57.727	75.14	30.432	0.00010326	25.486	85.700	201.194	63.967	-33.486	19.610	-12.158	-35.031	-27.235	215.957	223.162	-30.639	-25.454	-22.058	-16.866	74.233	-21.457	-8191	255	
1068.474	1	1	0	0	0.15192	0.035605	0.19622	0.041473	0.096872	0.10162	0.25392	0.19996	0.15186	0.29249	0.10892	0.21748	0.1143	0.12744	0.1401	0.38442	0.44792	0.55625	-0.083333	0.27917	0.3625	-0.27292	0.38542	-0.26458	0.12083	0.425	-0.41875	0.32083	0.23125	-0.1125	0.46667	-0.18542	277.677	245.797	272.065	212.237	181.632	214.404	260.304	42.162	220.060	26.031	22.468	175.896	304.243	248.250	200.219	-32.155	0.00013015	0.00022685	2.4436e-05	755.33	6.5083e-06	4.5289e-06	618.77	205.21	9.8071e-07	1.0144e-05	161.37	50.246	66.537	28.028	5.3519e-06	22.415	0.0055773	0.0097174	0.0026763	807.34	9.9013e-05	0.00010606	641.12	213.48	9.41e-05	0.0001037	178.28	56.517	73.923	30.047	9.614e-05	25.09	53.816	171.876	90.996	-33.612	227.956	-18.394	-35.239	-27.078	-4.030	160.781	-30.958	-25.509	-22.053	-16.507	214.146	-21.614	-8191	255	
1068.570	1	1	0	0	0.061735	0.15157	0.076496	0.17851	0.12671	0.065526	0.20366	0.21483	0.066215	0.02485	0.23637	0.20748	0.23473	0.17001	0.04797	0.19902	0.31875	0.5625	-0.25833	0.21042	0.5	-0.19167	0.3375	-0.0125	-0.13125	0.53958	-0.25	0.29167	0.32917	-0.32917	0.34583	0.0375	180.367	219.768	206.302	223.915	-42.825	161.588	227.910	251.945	314.278	302.964	228.093	222.767	202.042	248.032	58.152	-15.051	5.5464e-05	0.00057458	0.00015514	758.06	2.1915e-06	6.8117e-06	620.93	203.7	3.5829e-06	1.4194e-05	160.59	50.243	66.532	28.34	4.0713e-06	22.284	0.005165	0.009065	0.0025188	805.09	9.4334e-05	0.00010016	638.24	212.17	8.8699e-05	9.8879e-05	176.28	56.308	73.419	30.07	9.4175e-05	25.13	183.381	1.814	311.068	-33.766	250.315	92.732	-35.435	-27.070	111.032	125.695	-30.300	-26.198	-21.967	-16.514	158.744	-21.363	-8191	255	
1068.666	1	1	0	0	0.28781	0.34124	0.014633	0.086546	0.16771	0.13219	0.25797	0.12924	0.19468	0.32266	0.39831	0.21011	0.13146	0.053023	0.25097	0.061787	0.25417	0.7125	-0.18125	0.18333	0.46667	-0.39792	0.48958	-0.10208	-0.37292	0.54167	-0.44167	-0.0083333	0.4	-0.38542	0.4625	0.077083	49.263	223.652	-10.070	-28.512	137.484	116.422	204.472	-22.262	273.508	162.569	220.059	231.082	163.951	154.812	182.678	-40.866	7.0891e-05	0.0011048	0.00019339	758.81	6.6094e-06	1.2142e-05	618.01	206.11	4.3596e-06	7.373e-06	162.13	50.997	66.689	28.411	7.7924e-06	22.679	0.0051166	0.0090844	0.002533	807.57	9.4433e-05	0.00010158	639.16	213.36	9.0027e-05	0.00010139	178.9	56.846	74.09	30.415	9.5769e-05	25.154	135.416	311.476	36.422	-33.496	254.711	121.311	-35.075	-27.562	-20.845	100.691	-30.771	-25.934	-22.158	-16.841	-26.411	-21.889	-8191	255	
1068.762	1	1	0	0	0.14022	0.11462	0.068453	0.1025	0.25853	0.050689	0.13958	0.14745	0.16581	0.13531	0.05983	0.06329	0.23978	0.38867	0.31169	0.11777	0.06875	0.53125	-0.10833	0.022917	0.44792	-0.30625	0.21875	0.1125	-0.26667	0.65	-0.025	-0.089583	0.36667	-0.22083	0.13125	0.2875	221.820	132.112	282.055	1.354	106.295	224.241	73.004	6.090	117.074	121.828	215.322	274.845	307.230	235.467	174.634	216.948	9.8982e-05	0.00036455	0.00014916	759.8	5.0711e-06	5.8096e-06	620.46	208	1.8844e-06	7.0227e-06	165.23	50.288	66.697	28.306	5.2651e-06	22.256	0.0041352	0.0061851	0.0016776	788.39	6.3731e-05	6.9194e-05	627.17	212.27	6.0681e-05	6.6885e-05	173.23	54.096	70.994	29.4	6.1965e-05	23.794	170.977	98.189	28.450	-34.118	157.071	56.377	-35.459	-27.388	289.918	59.897	-30.835	-25.572	-22.116	-17.152	220.658	-21.975	-8191	255	
1068.858	1	1	0	0	0.23194	0.26821	0.19404	0.19138	0.071101	0.27167	0.20888	0.17582	0.23147	0.33658	0.093436	0.112	0.11867	0.062569	0.13699	0.18632	0.13542	0.56667	0.033333	-0.24792	0.53542	-0.21042	0.14375	0.37292	-0.2625	0.425	0.13125	-0.2375	0.54792	-0.30625	0.022917	0.34167	279.450	192.276	54.592	272.896	270.803	106.173	-36.786	273.964	44.454	215.944	266.643	36.339	-23.418	291.290	92.222	-36.888	8.055e-05	0.00083309	0.00011104	770.07	4.8586e-06	1.2735e-05	619.27	210.26	2.647e-06	3.1479e-06	163.05	49.352	66.514	28.238	7.9977e-06	22.052	0.0033569	0.0058747	0.0016837	791.22	6.2705e-05	6.8126e-05	628.53	213.32	6.2132e-05	7.115e-05	172.84	53.682	71.951	29.524	7.069e-05	23.791	189.378	263.258	65.128	-33.734	110.437	35.055	-35.463	-27.884	146.668	267.196	-31.067	-26.182	-22.330	-16.897	190.117	-21.829	-8191	255	
1068.955	1	1	0	0	0.12102	0.16896	0.20543	0.26277	0.30279	0.11251	0.037227	0.32776	0.096858	0.10107	0.15565	0.16695	0.23668	0.17449	0.11747	0.34337	0.035417	0.4625	0.066667	-0.32917	0.62708	-0.19375	-0.058333	0.3125	-0.18125	0.32708	0.33333	-0.33125	0.5625	-0.12292	0.016667	0.55	-40.363	58.600	-32.443	51.497	33.949	302.033	200.182	248.853	-39.263	96.464	170.477	132.974	252.618	10.765	245.860	258.429	2.6757e-05	0.00049871	7.7286e-05	792.65	5.2157e-06	2.9536e-06	632.45	213.11	4.9795e-06	5.3241e-06	166.55	50.071	67.642	28.344	3.8179e-06	22.176	0.0038479	0.0068406	0.0019159	822.48	7.1215e-05	7.7837e-05	644.06	217.74	6.9176e-05	7.734e-05	176.98	54.424	72.59	29.6	6.557e-05	23.738	6.025	128.207	75.819	-33.879	242.480	22.550	-35.535	-27.885	266.142	132.407	-31.234	-26.026	-23.010	-17.335	140.015	-21.982	-8191	255	
1069.075	1	1	0	0	0.17632	0.11814	0.31705	0.13688	0.02696	0.31777	0.20842	0.15154	0.056094	0.11744	0.077506	0.34949	0.025332	0.20739	0.3493	0.30644	0.045833	0.45625	0.45833	-0.21875	0.65833	-0.12917	-0.32708	0.56875	-0.31458	0.225	0.3625	-0.2	0.3375	0.16042	0.10625	0.44583	133.756	295.461	235.659	118.781	172.454	181.991	271.247	280.009	0.470	9.040	248.308	308.845	164.099	236.178	254.632	311.934	3.3851e-05	0.00058304	0.00011887	792.46	7.6815e-06	1.296e-05	633.86	210.48	2.2419e-06	5.1915e-06	164.96	50.502	67.484	28.403	4.3377e-06	22.567	0.0035334	0.0061565	0.0017184	813.74	6.3003e-05	6.8208e-05	642.96	214.34	5.961e-05	6.5847e-05	173.71	53.987	71.431	29.476	6.0995e-05	23.934	128.529	25.337	110.121	-34.015	147.125	51.233	-35.306	-28.014	68.175	229.333	-30.872	-26.141	-22.229	-17.127	5.073	-22.220	-8191	255	
1069.170	1	1	0	0	0.17048	0.32274	0.02113	0.18291	0.17034	0.15505	0.24325	0.13408	0.25761	0.21811	0.1932	0.2123	0.092114	0.23897	0.11285	0.18276	0.12083	0.23333	0.45208	-0.2875	0.48333	0.26667	-0.28125	0.54792	-0.18333	0.14792	0.46042	-0.3625	0.22083	0.064583	-0.175	0.6	194.100	118.010	192.168	258.350	106.296	164.622	240.780	260.785	31.144	68.003	132.261	-22.626	201.705	208.599	108.518	286.109	7.7075e-05	0.00022516	0.00019788	773.07	5.1693e-06	1.7316e-05	630.54	207.26	2.9696e-06	6.5848e-06	163.91	50.434	65.551	28.314	5.2733e-06	22.751	0.0033254	0.0057821	0.0015752	795.18	5.9497e-05	6.3313e-05	635.41	210.46	5.5758e-05	6.3019e-05	171.12	53.714	70.058	29.192	5.857e-05	24.02	199.356	-11.493	64.046	-34.469	106.054	57.586	-35.321	-27.414	26.551	124.907	-31.110	-25.810	-22.772	-17.180	240.661	-22.257	-8191	255	
1069.266	1	1	0	0	0.22932	0.040145	0.24375	0.25045	0.12531	0.098992	0.098514	0.21777	0.10371	0.23577	0.30884	0.19254	0.16374	0.20186	0.19663	0.2717	0.325	0.19375	0.66458	-0.077083	0.42083	0.33542	-0.13958	0.34583	0.03125	-0.029167	0.5625	-0.20833	0.22708	0.37292	-0.23958	0.54167	176.575	124.582	305.812	230.041	184.991	7.223	266.259	218.669	11.680	17.321	244.352	92.440	-16.711	174.671	277.363	213.373	0.00015145	0.00059458	0.00019689	754.16	4.0787e-06	5.0216e-07	611.8	204.73	2.9706e-06	8.5028e-06	163	49.821	66.29	28.167	2.2512e-06	22.306	0.003235	0.0055844	0.0015627	774.27	5.8463e-05	6.3302e-05	619.62	208.41	5.9419e-05	6.6434e-05	171.15	53.596	70.674	29.372	6.3687e-05	24.056	230.909	72.393	-0.367	-34.145	118.473	42.328	-35.241	-27.655	220.361	131.078	-30.908	-25.819	-22.611	-17.177	22.470	-22.629	-8191	255	
1069.362	1	1	0	0	0.027331	0.31436	0.093261	0.099576	0.17557	0.17866	0.35957	0.12238	0.19516	0.31303	0.17176	0.10308	0.043662	0.27444	0.23516	0.40159	0.33958	-0.0125	0.60833	-0.29792	0.17292	0.40417	-0.29375	0.48542	0.06875	-0.27083	0.44375	-0.21458	0.28958	0.375	-0.070833	0.31875	112.477	258.441	158.332	182.459	302.000	259.070	222.259	285.624	17.896	200.042	168.969	288.924	107.925	261.355	310.192	183.502	6.8136e-05	0.00095485	0.00016782	745.31	4.9274e-06	7.1731e-06	617.83	205.42	5.1859e-06	5.9324e-06	164.47	50.639	66.552	28.492	5.7123e-06	22.916	0.0034925	0.0060589	0.0017012	771.14	6.2929e-05	6.767e-05	622.56	209.72	5.9719e-05	6.6416e-05	173.21	54.516	70.783	29.715	6.3896e-05	24.449	156.994	-1.116	-42.577	-33.966	29.707	33.447	-35.252	-27.821	307.514	166.077	-30.887	-26.319	-22.669	-17.045	85.996	-21.723	-8191	255	
1069.435	1	1	0	0	0.08342	0.30353	0.15589	0.13319	0.082052	0.26989	0.1369	0.16165	0.089056	0.15082	0.19906	0.16999	0.048604	0.2648	0.15473	0.10316	0.77083	-0.097917	0.64375	-0.12708	0.11458	0.56458	-0.33958	0.2875	0.35417	-0.058333	0.78542	-0.1375	0.11667	0.39583	-0.2625	0.37083	42.536	78.901	127.961	-45.167	42.314	-19.082	-42.946	306.364	9.533	241.339	166.054	188.041	294.915	278.149	183.112	66.858	6.8144e-05	0.00068323	0.00020749	749.69	1.4856e-06	1.525e-06	617.13	207.41	1.496e-06	1.4343e-06	165.14	51.185	66.789	28.838	3.2188e-06	23.34	0.003478	0.0059889	0.001675	772.5	6.2949e-05	6.7143e-05	622.9	211.08	6.0863e-05	6.7407e-05	174.95	55.155	71.501	29.995	6.4398e-05	24.911	215.308	72.494	31.440	-33.430	98.716	63.696	-35.474	-27.205	233.050	101.556	-30.845	-25.917	-22.599	-17.222	275.161	-21.844	-8191	255	
1069.554	1	1	0	0	0.13882	0.36794	0.29199	0.22967	0.33735	0.30138	0.12915	0.22385	0.039687	0.17361	0.15654	0.13087	0.16266	0.10845	0.077241	0.34009	0.7125	-0.1	0.6125	-0.16875	-0.11458	0.45208	-0.41875	0.23125	0.44167	-0.28542	0.51875	0.060417	-0.022917	0.53333	-0.29792	0.070833	-22.063	186.114	89.712	301.008	48.569	126.869	42.326	55.430	222.284	72.745	246.098	148.154	267.511	220.484	117.445	102.249	6.7899e-05	0.00066875	2.3386e-05	749.54	9.0447e-06	5.5676e-06	620.42	209.56	2.6662e-06	4.3002e-06	167.52	51.796	67.932	29.095	6.083e-06	23.257	0.0035102	0.0060424	0.0017246	773.08	6.4487e-05	6.9222e-05	625.9	212.92	6.0925e-05	6.852e-05	177.63	55.837	72.288	30.293	6.5314e-05	24.974	178.460	70.222	-10.514	-33.547	91.300	224.493	-35.110	-27.664	304.810	51.194	-30.769	-25.858	-22.216	-17.050	37.725	-21.950	-8191	255	
1069.650	1	1	0	0	0.059081	0.20605	0.22294	0.10631	0.035066	0.22172	0.16145	0.17512	0.26761	0.19191	0.38484	0.26922	0.028906	0.098808	0.048755	0.21932	0.85625	-0.25625	0.52708	0.27708	-0.027083	0.60625	-0.2	-0.054167	0.49375	-0.27083	0.49583	0.26875	-0.24167	0.57708	-0.10208	-0.010417	229.866	35.092	183.701	-22.195	222.827	-3.975	313.874	267.060	285.173	203.300	-34.259	-11.375	139.206	87.611	264.553	301.017	2.4753e-05	0.00048994	0.00014098	754.52	5.9914e-06	4.0738e-06	616.49	207.29	3.0552e-06	4.327e-07	166.8	51.079	67.121	28.779	5.6239e-06	22.982	0.0035185	0.0062015	0.0017477	774.64	6.4393e-05	6.8661e-05	624.05	212.24	6.1816e-05	6.8862e-05	175.39	54.886	71.624	29.919	6.5391e-05	24.588	225.733	-6.876	297.023	-33.439	117.109	224.141	-34.990	-27.732	193.670	-7.281	-30.822	-25.656	-21.847	-16.960	-24.197	-21.803	-8191	255	
1069.747	1	1	0	0	0.076171	0.45019	0.23529	0.24027	0.19875	0.34374	0.23075	0.19753	0.073997	0.26187	0.16469	0.12791	0.034612	0.13758	0.1589	0.052014	0.89375	-0.26042	0.20208	0.40625	-0.16458	0.4875	-0.029167	-0.18542	0.38542	-0.30208	0.23333	0.475	-0.33542	0.41042	0.089583	-0.19167	82.181	114.654	6.868	256.109	243.331	196.956	308.482	214.288	223.286	257.938	115.545	44.936	97.180	8.671	295.835	-44.028	8.7236e-05	0.00026007	0.00012818	745.86	2.7801e-06	2.1701e-06	611.28	205.87	5.2562e-06	2.4793e-06	164.57	50.613	66.684	28.852	3.8774e-06	22.91	0.0035302	0.0061477	0.0017465	769.68	6.4249e-05	6.9673e-05	620.74	210.72	6.1604e-05	6.8908e-05	174.34	54.741	71.249	29.932	6.5588e-05	24.465	183.581	221.598	-29.337	-33.573	291.867	149.886	-35.097	-27.656	246.697	73.901	-31.238	-25.378	-22.673	-17.176	-29.834	-22.152	-8191	255	
1069.843	1	1	0	0	0.1061	0.16288	0.068384	0.30883	0.30646	0.1713	0.24022	0.075197	0.117	0.15995	0.050679	0.14576	0.29057	0.34687	0.12407	0.30562	1.0312	-0.27708	0.21667	0.32292	-0.29167	0.41875	-0.075	-0.089583	0.72292	-0.22708	0.1375	0.4125	-0.18958	0.425	0.35625	-0.225	200.122	281.917	64.829	254.525	-41.009	292.860	43.329	-22.789	301.927	87.049	310.797	303.169	-10.905	268.841	223.479	186.809	7.6242e-05	0.00061953	0.00023655	748.4	2.0576e-06	6.7288e-06	617.63	206.4	2.682e-06	5.1708e-06	164.07	50.944	66.854	28.57	7.0651e-06	22.99	0.0035777	0.0061819	0.0017601	771.71	6.4232e-05	7.0658e-05	622.24	211.18	6.3207e-05	7.0821e-05	173.99	54.86	71.665	29.76	6.8126e-05	24.514	83.350	181.152	50.098	-33.531	-12.230	91.191	-35.174	-27.803	299.527	91.197	-30.819	-25.791	-21.985	-16.975	37.513	-21.723	-8191	255	
1069.963	1	1	0	0	0.23867	0.10903	0.25519	0.40683	0.12836	0.15844	0.39405	0.33036	0.20727	0.25076	0.10697	0.17554	0.13247	0.18054	0.22905	0.3651	1.0562	0.13958	0.077083	0.28542	-0.21042	0.44792	0.1375	-0.33333	0.62917	0.08125	0.010417	0.46042	-0.22708	0.1875	0.40208	-0.19792	17.707	294.947	-37.642	284.602	-29.282	296.124	311.713	-23.249	164.891	181.207	-17.209	16.281	229.156	298.051	280.081	227.186	7.7016e-05	0.00084497	0.0001317	751.75	5.6607e-06	6.2476e-06	617.67	206.27	1.1984e-06	7.2057e-06	162.53	50.153	66.462	28.304	7.9736e-06	22.534	0.0037146	0.0064588	0.0018022	776.22	6.7475e-05	7.2151e-05	623.33	210.53	6.3723e-05	7.1016e-05	172.21	54.265	70.997	29.398	6.6827e-05	24.174	155.718	29.618	133.459	-33.714	276.043	-25.633	-35.106	-27.414	68.794	209.128	-30.590	-25.530	-21.847	-17.072	153.451	-21.924	-8191	255	
1070.035	1	1	0	0	0.12673	0.11433	0.047691	0.43655	0.15481	0.092143	0.15085	0.24978	0.11755	0.15399	0.098468	0.046581	0.057484	0.15383	0.12094	0.28015	0.83125	-0.00625	-0.039583	0.50208	-0.16667	0.22083	0.34583	-0.19375	0.575	0.09375	-0.24792	0.83333	-0.08125	0.21042	0.44792	-0.21458	71.104	46.683	135.231	259.174	301.870	291.970	97.574	272.498	-19.277	128.507	25.742	102.377	285.369	137.702	311.299	297.794	0.00012468	0.00077644	4.9657e-05	750.25	1.665e-06	7.0071e-06	611.97	204.44	5.233e-06	5.3601e-06	161.29	49.46	65.451	27.958	3.8617e-06	22.015	0.0036213	0.0063566	0.0017685	771.95	6.6095e-05	7.0323e-05	617.75	208.25	6.2186e-05	7.0561e-05	170.22	53.452	70.205	29.091	6.5628e-05	23.758	116.900	42.192	306.134	-33.403	65.056	147.994	-35.448	-27.605	83.252	226.367	-30.899	-25.869	-22.249	-17.194	199.249	-22.219	-8191	255	
1070.156	1	1	0	0	0.14956	0.19977	0.071978	0.062599	0.18778	0.0084033	0.14759	0.30025	0.23849	0.055224	0.17661	0.32998	0.24373	0.18683	0.20283	0.19603	0.8125	0.26875	-0.12708	0.62708	-0.16667	0.1625	0.63958	-0.44792	0.38958	0.2125	-0.29792	0.54792	-0.17083	-0.17708	0.66042	-0.35208	231.985	281.233	177.584	278.465	42.985	59.742	75.386	264.175	-36.372	82.337	-40.251	258.421	28.449	-21.024	71.172	266.235	4.9968e-05	0.00053955	6.4383e-05	746.85	5.894e-06	1.6065e-05	606.13	204.72	5.6178e-06	8.5808e-06	162	49.452	66.076	28.18	5.5314e-06	22.408	0.0035713	0.006198	0.0017268	770.27	6.4269e-05	6.9011e-05	614.59	208.9	6.1551e-05	6.7571e-05	170.86	53.541	70.698	29.4	6.3368e-05	24.03	239.146	60.543	142.289	-33.823	-23.854	122.915	-34.965	-27.604	158.990	109.438	-31.304	-26.347	-22.653	-16.949	186.561	-21.422	-8191	255	
1070.250	1	1	0	0	0.10192	0.061646	0.10577	0.21746	0.068621	0.35801	0.14226	0.22748	0.13423	0.21033	0.04122	0.28884	0.36946	0.27916	0.22261	0.23436	0.55625	0.39583	-0.17083	0.65625	0.045833	-0.125	0.63542	-0.31875	0.39375	0.5375	-0.26875	0.65208	0.22083	-0.10625	0.77083	-0.21667	-10.799	310.718	118.610	230.940	288.783	281.779	192.621	234.372	227.186	280.129	239.745	-42.568	-41.037	271.798	-3.426	-31.969	3.0406e-05	0.00041363	0.0002533	746.98	2.925e-06	1.8136e-06	609.52	207.46	1.3557e-06	2.6392e-06	165.62	50.664	67.17	28.618	1.1827e-05	22.993	0.0034032	0.0059239	0.0016432	769.86	6.172e-05	6.5415e-05	615.62	211.02	6.0241e-05	6.5192e-05	173.86	53.927	71.197	29.747	6.1349e-05	24.404	53.685	108.693	139.664	-33.313	199.044	205.265	-35.132	-27.248	81.163	50.860	-30.682	-25.669	-21.795	-16.985	153.441	-22.172	-8191	255	
1070.346	1	1	0	0	0.34593	0.13046	0.11101	0.3088	0.069071	0.018783	0.12728	0.14599	0.030502	0.20936	0.16736	0.077109	0.20568	0.051671	0.067687	0.33255	0.72292	0.63125	-0.24792	0.64792	0.19375	0.0041667	0.51875	-0.15833	0.15625	0.53542	-0.36875	0.42083	0.17292	-0.16667	0.76458	-0.17708	180.702	296.116	247.585	292.665	199.291	58.413	246.634	-34.666	136.176	9.892	-31.146	278.258	-22.213	114.127	-17.445	27.302	6.7043e-05	0.00046382	0.00010433	745.46	7.5289e-06	3.0779e-06	617.52	212.4	7.5819e-07	4.5856e-06	168.53	51.352	67.734	29.007	3.1127e-06	22.993	0.0033243	0.0057489	0.0015881	770.05	5.9786e-05	6.4182e-05	619.26	214.69	5.7132e-05	6.3195e-05	176.24	54.811	71.974	30.063	5.9625e-05	24.484	168.112	38.627	255.406	-33.636	143.907	215.306	-34.664	-27.323	58.403	305.174	-30.677	-25.429	-22.327	-17.233	284.388	-22.150	-8191	255	
1070.442	1	1	0	0	0.17886	0.3334	0.10802	0.079174	0.16972	0.18212	0.05317	0.1877	0.29541	0.29312	0.031891	0.22281	0.049366	0.10828	0.030085	0.12667	0.575	0.69792	-0.27292	0.31875	0.48125	-0.19375	0.42917	-0.089583	-0.12917	0.4	-0.175	0.34583	0.2875	-0.48542	0.71042	0.075	141.124	224.014	238.567	-44.707	274.844	120.648	54.762	282.481	59.643	88.648	152.215	284.772	83.612	232.887	297.527	245.263	4.3652e-05	0.00073862	0.00012401	752.8	4.4763e-06	2.3812e-06	610.65	211.7	1.2599e-06	6.1098e-06	167.59	50.571	67.192	28.669	4.2334e-06	22.522	0.0032432	0.0055936	0.0015776	768.61	5.8182e-05	6.2254e-05	613.58	215.01	5.4421e-05	6.1967e-05	176.14	53.932	71.443	29.808	5.8802e-05	24.017	282.077	124.966	-9.273	-33.616	15.507	65.853	-35.262	-27.532	206.145	26.888	-30.790	-25.940	-21.922	-16.638	157.118	-21.684	-8191	255	
1070.563	1	1	0	0	0.052743	0.26142	0.15358	0.421	0.33519	0.2215	0.1768	0.2046	0.081096	0.25057	0.087042	0.090704	0.27833	0.25635	0.23321	0.31063	0.029167	0.625	-0.2375	0.04375	0.275	-0.35417	0.36042	-0.03125	0.054167	0.60833	-0.31458	0.18542	0.54583	-0.24375	0.64375	0.23125	65.038	231.246	273.659	117.479	23.371	124.303	310.124	238.308	-27.741	-44.931	68.541	222.895	154.910	-44.389	113.608	297.001	7.8243e-05	0.00072558	0.00028042	745.09	8.0512e-06	7.3575e-06	603.89	211.18	2.2698e-06	3.1559e-06	167.9	50.047	67.135	28.868	4.0934e-06	22.743	0.0032035	0.0055104	0.0015556	767.5	5.8347e-05	6.2472e-05	609.6	214.32	5.5191e-05	6.1186e-05	175.37	53.667	71.27	29.835	5.9074e-05	24.046	120.377	313.682	28.452	-33.747	128.301	34.353	-34.948	-27.263	271.377	224.874	-30.864	-25.603	-22.091	-16.933	44.071	-21.807	-8191	255	
1070.659	1	1	0	0	0.071756	0.20138	0.049065	0.15479	0.046407	0.10425	0.1137	0.17776	0.17703	0.19331	0.033868	0.33848	0.22687	0.16778	0.25232	0.1848	0.28958	0.66875	0.010417	0.0041667	0.63125	-0.11875	0.32292	0.097917	-0.21875	0.65417	0.1	0.14375	0.525	-0.22292	0.35	0.36042	204.923	-34.495	104.605	-16.224	70.686	-18.065	240.152	291.673	143.991	295.069	23.575	56.970	87.919	275.262	229.160	86.420	4.9724e-05	0.0002806	5.5737e-05	744.33	2.9295e-06	6.8558e-06	608.46	212.65	3.7707e-06	5.9008e-06	171.55	50.939	68.355	29.044	6.6363e-06	23.102	0.0031476	0.005543	0.0015483	768.15	5.7289e-05	6.2354e-05	612.74	215.74	5.4993e-05	6.1169e-05	178.51	54.407	72.154	30.076	5.8966e-05	24.337	162.867	14.108	99.677	-33.622	153.801	82.886	-35.058	-26.955	177.816	311.761	-30.594	-25.468	-21.545	-16.413	137.954	-21.527	-8191	255	
1070.731	1	1	0	0	0.1942	0.20598	0.13672	0.19854	0.25732	0.13236	0.18331	0.31156	0.14342	0.064402	0.32835	0.32293	0.12747	0.15481	0.063573	0.14369	0.16875	0.48542	0.0875	-0.19375	0.6125	-0.18125	0.16875	0.2875	-0.15208	0.65208	0.075	-0.0083333	0.46458	-0.33542	0.19792	0.38125	181.498	71.311	204.729	266.540	173.446	289.952	162.602	265.331	55.122	-11.465	303.110	270.999	63.935	-3.210	92.163	-6.221	9.1835e-05	0.0012465	0.00024984	754.28	6.177e-06	6.0569e-06	613.89	216.18	4.1576e-06	8.707e-06	173.51	50.884	68.325	29.056	2.8329e-06	22.822	0.003224	0.0056382	0.0015722	775.77	5.8138e-05	6.2746e-05	618.45	219.1	5.5364e-05	6.255e-05	179.54	54.626	72.304	30.114	5.9687e-05	24.185	139.088	155.496	95.753	-33.676	193.350	125.120	-35.083	-27.117	135.232	126.205	-30.384	-25.274	-22.289	-16.656	176.549	-21.519	-8191	255	
1070.851	1	1	0	0	0.20117	0.1571	0.10292	0.15233	0.20908	0.043234	0.221	0.229	0.1814	0.25206	0.22786	0.13422	0.25257	0.092878	0.19272	0.098691	0.00625	0.81667	0.26458	-0.42083	0.625	-0.085417	-0.0125	0.30208	-0.2	0.51667	0.35625	-0.19583	0.77292	-0.12083	0.18958	0.61042	-5.605	182.475	-39.795	7.706	-43.008	310.491	283.143	13.813	58.546	237.387	307.773	299.533	302.779	-37.249	72.094	152.245	8.4191e-05	0.00053587	0.00032131	746.83	7.6511e-06	2.2375e-06	602.06	212.24	1.493e-06	8.1006e-07	169.76	49.795	67.224	28.618	4.1919e-06	22.218	0.003235	0.0056431	0.0015623	770.67	5.8756e-05	6.2956e-05	610.16	215.34	5.6167e-05	6.1933e-05	175.51	53.206	71.357	29.621	5.846e-05	23.582	232.292	61.096	92.221	-33.417	70.945	-40.049	-35.372	-27.354	308.057	168.329	-30.855	-25.589	-22.372	-16.627	123.941	-21.839	-8191	255	
1070.948	1	1	0	0	0.1955	0.2487	0.0067926	0.24006	0.012838	0.15721	0.16857	0.25624	0.11596	0.34318	0.066918	0.05702	0.11209	0.15419	0.22447	0.050492	0.04375	0.31667	0.15625	-0.13542	0.56458	0.029167	0	0.58125	-0.075	0.225	0.28333	-0.32292	0.66042	0.045833	-0.020833	0.48958	155.000	99.362	235.710	308.226	65.069	251.490	157.248	287.332	142.691	191.230	157.138	229.110	240.534	197.302	88.801	173.600	0.00011101	0.00038364	0.0001595	749.03	6.5304e-06	4.3247e-06	602.4	211.64	1.98e-06	1.8537e-06	164.35	49.813	66.801	28.652	2.763e-06	22.038	0.0031843	0.00563	0.0015428	769.86	5.8031e-05	6.2446e-05	606.02	213.92	5.5796e-05	6.2037e-05	172.92	52.823	71.036	29.549	5.7425e-05	23.525	142.148	-8.457	-14.712	-33.491	65.042	36.825	-35.169	-27.747	177.924	203.092	-30.591	-25.590	-21.987	-16.669	291.395	-21.683	-8191	255	
1071.044	1	1	0	0	0.11793	0.19587	0.19071	0.29171	0.092925	0.062908	0.30164	0.19963	0.19687	0.33611	0.082622	0.1075	0.25725	0.12031	0.12835	0.05282	0.0125	0.39792	0.30833	-0.51458	0.43125	0.14792	-0.21042	0.54583	-0.05	0.37083	0.35625	-0.21875	0.45417	0.1875	0.041667	0.48125	246.575	183.187	305.090	17.332	58.669	31.196	201.633	21.205	284.948	260.453	217.956	59.352	184.569	275.755	-8.330	234.754	5.6646e-05	0.00088205	0.00013287	754.84	5.7212e-06	2.2768e-06	607.61	209.22	4.9093e-06	9.1025e-06	164.96	49.996	66.12	28.735	3.8201e-06	22.685	0.0031774	0.0055267	0.001521	770.3	5.7525e-05	6.0871e-05	608.25	212.75	5.4713e-05	6.1115e-05	173.76	53.365	70.728	29.726	5.7597e-05	24.036	195.554	47.517	124.122	-33.493	295.410	64.110	-35.258	-27.386	158.631	25.091	-31.249	-25.730	-22.531	-16.352	-0.866	-21.940	-8191	255	
1071.138	1	1	0	0	0.13355	0.16299	0.077837	0.13227	0.13698	0.27397	0.31181	0.12445	0.26151	0.18718	0.11991	0.13634	0.14658	0.22721	0.055049	0.28708	0.37083	0.2625	0.62083	-0.24583	0.36458	0.13958	-0.20417	0.44583	-0.18958	0.06875	0.50417	-0.35208	0.43125	0.26458	-0.28958	0.63958	42.666	-26.083	172.032	126.211	79.657	12.688	313.223	201.479	-13.826	217.682	103.484	176.258	64.378	258.481	302.636	313.339	5.8496e-05	0.00012068	5.7895e-05	752.48	8.9692e-06	1.2125e-05	611.91	210.05	2.9671e-06	1.2769e-05	167.94	50.684	66.715	28.594	1.6446e-06	22.825	0.003207	0.0055138	0.0015402	771.83	5.8599e-05	6.2972e-05	616.46	213	5.9129e-05	6.6575e-05	177.1	54.781	71.437	29.743	6.8892e-05	24.621	94.673	264.581	23.891	-33.576	112.293	141.354	-35.284	-27.585	290.937	162.249	-30.430	-25.239	-22.135	-16.733	57.325	-21.604	-8191	255	
1071.259	1	1	0	0	0.37805	0.11253	0.092087	0.17416	0.44992	0.21649	0.12738	0.11504	0.11338	0.15521	0.11724	0.051131	0.23927	0.086075	0.2767	0.17869	0.325	0.060417	0.68958	-0.19167	0.4125	0.3375	-0.16667	0.40833	0.1	-0.275	0.45	-0.11458	0.054167	0.41042	-0.36875	0.52083	33.389	203.176	266.174	269.576	-18.990	21.487	148.436	-15.057	190.776	120.908	206.657	78.641	300.460	297.511	117.314	-31.676	8.8547e-05	0.00040368	0.00019415	747.45	6.4189e-06	1.3671e-05	615.09	205.73	6.3048e-06	4.3663e-06	165.35	50.873	66.993	27.798	6.2701e-06	22.359	0.0038711	0.0067765	0.0019171	775.62	7.1939e-05	7.7934e-05	624.22	210.75	7.0792e-05	7.8115e-05	176.61	55.545	72.521	29.36	7.7636e-05	24.373	143.729	76.964	84.195	-33.573	12.517	157.873	-34.769	-26.940	143.805	40.881	-30.157	-25.102	-21.798	-16.368	37.379	-21.276	-8191	255	
1071.330	1	1	0	0	0.1766	0.1382	0.086791	0.17979	0.092475	0.1364	0.27525	0.046582	0.14504	0.33459	0.26087	0.083845	0.16569	0.12184	0.15983	0.094048	0.52917	-0.10417	0.6125	-0.18958	0.010417	0.56875	-0.30417	0.36667	0.32917	-0.20208	0.63333	-0.01875	0.16667	0.66042	-0.10625	0.26458	136.693	159.341	291.938	108.627	154.047	-11.028	274.310	129.077	71.886	97.600	79.590	49.352	275.723	39.913	17.238	40.306	0.00011655	0.0007144	0.00017198	748.37	8.9337e-06	3.6872e-06	610.18	208.13	3.9115e-06	1.1995e-06	163.96	49.867	66.328	27.386	4.8144e-06	21.998	0.0042689	0.0074277	0.0021267	785.41	7.8983e-05	8.4311e-05	625.07	213.45	7.5181e-05	8.3848e-05	176.82	55.106	72.329	28.95	8.0241e-05	23.971	116.838	34.263	57.655	-33.496	19.220	-6.270	-34.655	-27.219	240.257	104.868	-30.852	-25.094	-22.080	-16.586	149.123	-21.581	-8191	255	
1071.427	1	1	0	0	0.301	0.1642	0.053212	0.18194	0.31728	0.35464	0.16343	0.21699	0.11026	0.26654	0.12042	0.19453	0.28841	0.34062	0.086016	0.040122	0.78542	-0.17917	0.58125	0.027083	0.054167	0.39375	-0.37917	0.26458	0.3625	-0.17708	0.525	-0.075	0.00625	0.54583	-0.1	0.27292	144.664	136.201	133.605	216.405	164.956	266.645	288.324	-36.142	293.376	-14.045	9.433	281.274	6.519	-7.376	296.616	-17.366	4.7973e-05	0.00041155	0.0003543	742.54	1.6414e-06	1.4358e-05	612.26	202.79	3.9939e-06	2.771e-06	160.4	49.209	64.578	27.303	5.4805e-06	22.032	0.0042811	0.0073996	0.0020936	780.84	7.6609e-05	8.1909e-05	624.78	208.45	7.2058e-05	7.9881e-05	171.78	53.777	70.088	28.702	7.5318e-05	23.954	122.470	183.590	66.675	-33.213	3.943	139.270	-34.976	-27.154	57.192	71.022	-31.356	-25.854	-21.901	-16.729	234.508	-21.642	-8191	255	
1071.523	1	1	0	0	0.10303	0.068341	0.1943	0.070365	0.17761	0.18477	0.42477	0.062444	0.29977	0.20323	0.076235	0.23357	0.27215	0.1393	0.042819	0.14232	0.84583	-0.097917	0.40833	0.21458	-0.16667	0.775	-0.22083	0.066667	0.55417	-0.14583	0.44583	0.11042	-0.1125	0.575	-0.13958	0.12708	105.198	92.260	236.548	256.510	22.297	100.704	45.906	167.338	-16.524	69.983	171.609	40.891	303.020	100.606	68.502	173.272	0.00013402	0.00073364	5.9515e-05	751.51	5.4642e-06	9.1136e-06	615.86	203.38	1.238e-06	4.648e-06	164.06	50.468	65.558	27.971	3.111e-06	22.488	0.0039486	0.0068908	0.001928	779	7.0047e-05	7.5782e-05	626.4	208.15	6.6295e-05	7.3418e-05	173.69	54.569	70.542	29.22	7.1127e-05	24.338	135.415	159.485	-22.169	-33.513	79.864	146.436	-34.443	-27.140	190.760	65.335	-30.530	-25.978	-22.229	-16.700	180.640	-21.725	-8191	255	
1071.643	1	1	0	0	0.2275	0.076715	0.15203	0.073711	0.20239	0.16255	0.16435	0.26348	0.23329	0.16548	0.038845	0.12297	0.28918	0.22295	0.32624	0.12854	1.0875	-0.20417	0.63542	0.37917	-0.22708	0.52708	-0.18958	-0.09375	0.50833	-0.029167	0.50417	0.4625	-0.28958	0.64792	-0.12917	0.054167	-2.328	108.479	228.619	-11.451	78.244	236.410	117.663	246.001	265.737	95.935	296.392	17.036	263.732	-3.028	17.895	290.133	4.6971e-05	0.0010772	8.4857e-05	750.4	4.637e-06	1.0806e-05	616.52	203.81	5.63e-06	4.4479e-06	161.44	49.375	64.335	27.585	7.6996e-07	22.049	0.00379	0.0066352	0.0018649	775.82	6.8144e-05	7.3147e-05	624.64	207.96	6.458e-05	7.2029e-05	171.26	53.433	69.443	28.879	6.881e-05	23.788	173.010	4.321	97.750	-33.295	184.201	40.547	-35.340	-27.547	116.857	257.431	-30.870	-25.870	-22.557	-16.879	202.697	-21.621	-8191	255	
1071.739	1	1	0	0	0.056302	0.069013	0.10624	0.25715	0.21385	0.083743	0.2773	0.17927	0.22996	0.162	0.16271	0.26711	0.048231	0.097836	0.10417	0.097704	0.90417	-0.21875	0.35	0.2875	-0.29792	0.58958	0.058333	-0.025	0.63333	-0.1	0.26042	0.33542	-0.26458	0.42083	0.20417	0.05625	-3.583	23.022	55.406	188.104	151.280	35.105	238.587	175.867	73.859	292.132	-14.769	295.422	219.872	270.430	75.234	149.156	8.3749e-05	0.00051302	0.00027964	742.57	3.4382e-06	5.1226e-06	605.38	201.41	5.3863e-06	9.9485e-06	161.92	49.082	65.039	27.553	7.547e-06	22.028	0.0036577	0.0064211	0.0017934	767.22	6.6349e-05	7.2623e-05	614.58	206.22	6.3123e-05	7.206e-05	170.74	53.137	69.525	28.889	6.9505e-05	23.733	167.978	128.558	285.222	-33.499	80.839	101.139	-34.950	-27.064	208.798	127.970	-31.052	-25.582	-21.609	-16.313	172.194	-20.652	-8191	255	
1071.836	1	1	0	0	0.15823	0.14174	0.069854	0.10559	0.037981	0.090894	0.14856	0.16266	0.30432	0.15608	0.14978	0.063094	0.45101	0.08113	0.15878	0.26536	0.93958	-0.2375	0.039583	0.24375	-0.22083	0.53542	0.12917	-0.36875	0.65417	-0.22917	0.16458	0.7	-0.23542	0.39167	0.19167	-0.14583	172.318	280.923	213.989	286.626	246.619	160.351	225.289	286.353	80.476	263.992	-35.412	-34.690	246.574	23.635	196.657	-28.338	3.7513e-05	0.00067913	4.4521e-05	739.95	6.2529e-06	5.4771e-06	610	201.3	7.1676e-06	1.6438e-06	161.11	48.913	64.13	27.302	2.6308e-06	22.234	0.0038334	0.0066549	0.0018598	768.33	7.001e-05	7.7212e-05	619.55	206.01	6.9291e-05	7.7694e-05	172.09	53.729	69.875	28.868	7.9671e-05	24.257	185.770	153.423	134.612	-32.946	149.556	-20.220	-34.333	-26.622	22.637	237.722	-30.517	-25.842	-21.847	-16.214	228.970	-21.877	-8191	255	
1071.932	1	1	0	0	0.2119	0.050025	0.24411	0.16285	0.23304	0.19	0.26155	0.32404	0.21411	0.2568	0.19006	0.10667	0.1227	0.16675	0.095224	0.17827	0.87708	0.0375	-0.0125	0.225	-0.01875	0.18333	0.44167	-0.29583	0.53125	-0.054167	0.10625	0.32917	-0.2625	0.20208	0.50625	-0.4375	150.462	286.067	136.017	262.983	-43.722	95.337	255.183	234.473	302.419	-4.811	305.644	-12.036	292.448	83.222	-11.196	294.827	6.9935e-05	0.00033185	0.00012078	737.8	3.9781e-06	5.8485e-06	615.57	201.74	6.1931e-06	6.9924e-06	162.75	50.055	65.007	27.514	3.3869e-06	22.339	0.0043997	0.0076792	0.0021209	778.25	8.1531e-05	8.8408e-05	630.15	207.95	7.9648e-05	8.9764e-05	176.54	55.556	71.546	29.308	8.7544e-05	24.652	87.092	102.023	35.389	-33.056	217.688	158.855	-34.444	-26.941	98.836	222.088	-30.654	-25.284	-21.320	-16.233	284.727	-20.890	-8191	255	
1072.028	1	1	0	0	0.23661	0.22455	0.27616	0.12119	0.070376	0.30899	0.29026	0.42937	0.19597	0.11631	0.24571	0.19058	0.18621	0.37688	0.1324	0.22859	0.80833	0.11042	0.11667	0.53125	-0.2375	0.17292	0.47292	-0.43542	0.55833	0.14375	-0.14792	0.5875	-0.17292	0.08125	0.58333	-0.30208	262.625	199.876	251.169	63.105	239.571	137.573	221.455	227.075	53.496	185.660	122.521	75.812	-21.502	-25.480	143.351	-20.418	7.653e-05	0.00026964	0.00012355	749.53	1.0202e-05	1.6559e-05	626.22	206	3.1146e-06	4.5814e-06	164.06	49.967	66.161	27.356	6.6625e-06	21.804	0.0048439	0.0084582	0.0023482	791.72	8.8558e-05	9.4864e-05	639.66	212.68	8.4916e-05	9.4425e-05	178.54	55.673	72.315	28.973	8.8947e-05	24.26	146.417	20.351	-31.967	-32.155	101.475	52.779	-34.550	-26.727	168.379	76.927	-29.609	-24.510	-21.137	-16.229	1.603	-21.011	-8191	255	
1072.124	1	1	0	0	0.093137	0.40899	0.037935	0.42307	0.16622	0.13141	0.25499	0.16998	0.087386	0.099334	0.19264	0.069555	0.24842	0.091327	0.19603	0.12235	0.74167	0.43542	-0.05625	0.61667	-0.035417	0.027083	0.43958	-0.50417	0.31458	0.21458	-0.22083	0.63333	-0.04375	-0.054167	0.73333	-0.39167	83.898	281.324	-28.263	257.661	144.681	-8.178	-8.812	255.377	72.150	153.018	285.166	171.490	307.026	202.582	245.339	137.796	7.7298e-05	0.00051156	5.6663e-05	745.83	3.784e-06	4.6246e-06	620.69	205.22	7.5462e-07	6.3536e-06	161.97	49.54	65.873	27.355	3.2958e-06	21.911	0.0048523	0.0084656	0.0023637	793.2	8.849e-05	9.495e-05	637.71	211.72	8.4484e-05	9.3592e-05	176.68	55.138	72.052	29.021	8.8872e-05	24.284	168.189	67.862	59.373	-32.739	130.377	257.972	-34.249	-26.863	76.959	122.730	-30.267	-24.880	-21.198	-15.984	184.291	-20.672	-8191	255	
1072.243	1	1	0	0	0.066196	0.33051	0.076839	0.2945	0.23403	0.026126	0.081553	0.30367	0.33044	0.043114	0.29224	0.12469	0.2377	0.23045	0.13376	0.25376	0.74375	0.43542	-0.51667	0.45417	0.03125	-0.05625	0.44375	-0.19792	0.0125	0.43333	-0.37083	0.50833	0.19167	-0.17292	0.42083	-0.0875	193.768	46.776	215.577	308.263	44.223	236.395	274.307	276.722	-37.705	-11.722	-23.993	-3.380	280.367	5.802	71.477	181.084	6.1498e-05	0.00017736	0.00037233	751.14	6.5279e-06	5.6649e-06	633.26	205.75	2.7098e-06	3.9731e-06	162.34	49.509	65.197	27.571	8.4286e-06	21.924	0.0048129	0.0083568	0.0023672	795.94	8.6349e-05	9.2566e-05	645.68	211.68	8.1681e-05	9.1779e-05	177.11	55.154	71.552	29.115	8.6205e-05	24.292	69.078	300.628	187.269	-32.657	165.466	111.286	-33.091	-25.977	288.138	151.869	-29.889	-26.301	-21.895	-16.602	87.170	-21.896	-8191	255	
1072.339	1	1	0	0	0.11276	0.027201	0.094123	0.2161	0.19928	0.1474	0.043219	0.21265	0.15363	0.26095	0.11962	0.15882	0.24023	0.18763	0.042383	0.069876	0.49792	0.57917	-0.36667	0.26042	0.22083	-0.11042	0.51458	-0.125	0.12917	0.44583	-0.23333	0.42083	0.34792	-0.28125	0.56458	-0.15625	54.300	280.808	34.036	39.809	12.613	164.323	274.681	-36.509	269.843	176.446	227.138	290.433	293.516	309.792	-1.894	232.850	0.00015554	0.0003569	0.00023377	756.44	3.6997e-06	5.6527e-06	635.57	204.17	9.1931e-06	2.6832e-06	165.03	50.02	65.527	27.841	6.4479e-06	22.6	0.0046389	0.0080433	0.0022645	795.24	8.393e-05	8.9462e-05	649.23	210.11	7.9215e-05	8.7972e-05	176.94	55.285	71.729	29.539	8.4227e-05	24.773	176.946	-43.262	129.114	-33.220	50.827	191.521	-34.948	-26.958	98.504	-12.722	-30.194	-25.078	-22.082	-16.552	114.213	-21.447	-8191	255	
1072.435	1	1	0	0	0.083754	0.064076	0.0069216	0.062267	0.087101	0.18724	0.32355	0.44598	0.34978	0.15164	0.089879	0.068056	0.17481	0.20524	0.17187	0.18575	0.4125	0.73333	-0.30833	0.25	0.46667	-0.35625	0.34583	0.014583	-0.0875	0.54583	-0.00625	0.23333	0.36458	-0.37708	0.575	0.041667	181.676	60.156	46.216	306.665	309.361	29.552	260.274	228.650	-37.371	-29.010	222.411	131.156	188.373	284.971	287.069	254.830	0.00010772	0.00081853	0.00017654	755.82	5.2221e-06	1.1262e-05	636.58	204.36	5.9587e-06	2.5641e-06	162.49	49.733	65.245	27.638	5.3161e-06	22.041	0.0045339	0.0080262	0.0022347	795.71	8.3455e-05	8.9276e-05	651.77	210.49	7.9262e-05	8.9735e-05	175.52	54.993	71.507	29.307	8.665e-05	24.446	135.447	57.772	52.431	-33.824	180.558	148.310	-34.364	-27.032	74.048	274.290	-30.474	-25.275	-21.838	-16.535	140.058	-21.380	-8191	255	
1072.556	1	1	0	0	0.015049	0.082478	0.14013	0.19987	0.069556	0.22426	0.055264	0.14379	0.11011	0.20943	0.066697	0.059573	0.10468	0.27803	0.16091	0.1318	0.54583	0.56458	-0.15417	0.29375	0.41458	-0.14583	0.42083	0.13958	-0.095833	0.49792	-0.15208	0.047917	0.42708	-0.24167	0.40625	0.3375	311.637	108.027	213.066	242.993	188.898	281.470	-41.697	-33.682	56.680	1.420	173.492	143.919	134.063	140.857	219.193	244.700	6.2284e-05	0.00050523	6.2009e-05	756.15	5.6719e-06	1.5802e-05	631.15	204.26	6.6297e-06	5.9096e-06	162.58	49.903	66.117	27.463	4.407e-06	21.912	0.0046261	0.0082858	0.0023176	794.75	8.7423e-05	9.4586e-05	645.63	211.38	8.3684e-05	9.4929e-05	177.05	55.448	72.702	29.251	9.1756e-05	24.353	141.856	306.447	280.668	-33.457	40.249	164.804	-34.724	-27.101	144.763	167.439	-30.552	-25.566	-21.771	-16.939	156.252	-21.176	-8191	255	
1072.628	1	1	0	0	0.22302	0.18199	0.13606	0.072517	0.23106	0.0040774	0.24549	0.18723	0.042547	0.26783	0.11686	0.20941	0.22273	0.16693	0.35421	0.1166	0.16042	0.45	-0.070833	-0.0083333	0.5625	-0.17083	0.2625	0.31458	-0.20208	0.3875	-0.095833	0.19167	0.58958	-0.18542	0.35	0.33125	83.779	106.942	266.069	233.271	208.909	48.852	247.951	227.343	290.775	37.672	-35.240	311.885	13.402	303.700	175.120	168.250	9.165e-05	0.001033	0.00010365	758.66	8.6604e-07	1.0383e-05	631.87	206.41	5.6554e-06	3.8906e-06	163.32	50.138	66.465	27.375	5.5784e-06	21.949	0.0049461	0.0088884	0.0024617	800.36	9.188e-05	9.9973e-05	649.15	213.64	8.8801e-05	0.00010023	178.72	56.086	73.338	29.308	9.4743e-05	24.469	128.583	11.168	80.079	-33.752	195.195	107.261	-34.788	-26.964	186.868	271.978	-30.438	-25.637	-22.516	-16.823	120.981	-21.780	-8191	255	
1072.724	1	1	0	0	0.19118	0.21355	0.10271	0.062892	0.12609	0.038102	0.13209	0.083317	0.26871	0.20393	0.51254	0.08802	0.19133	0.12257	0.13933	0.28386	0.016667	0.67917	0.225	-0.10833	0.61667	-0.24167	0.17083	0.054167	-0.20833	0.53542	-0.15208	-0.17708	0.6	-0.1	-0.014583	0.36667	110.884	89.374	208.703	136.477	89.538	222.605	62.012	-29.647	249.943	15.512	197.444	140.676	293.489	96.269	212.730	154.686	9.7938e-05	0.00067762	0.00019067	760.16	1.3122e-05	1.1799e-05	633.11	205.31	9.4044e-06	1.2041e-05	162.31	50.509	66.047	27.748	8.3858e-06	22.074	0.0051045	0.0090972	0.0025217	804.71	9.4344e-05	0.00010091	652.1	212.49	8.9085e-05	9.8955e-05	177.46	56.32	73.223	29.462	9.3687e-05	24.739	49.217	77.052	70.236	-33.373	210.200	147.663	-34.529	-26.971	115.841	106.172	-30.586	-25.396	-21.348	-16.260	101.509	-21.558	-8191	255	
1072.820	1	1	0	0	0.10187	0.14133	0.2089	0.21908	0.12842	0.20393	0.10686	0.14806	0.2871	0.027995	0.10259	0.15951	0.30292	0.031144	0.10428	0.17078	0.24167	0.49167	0.11875	-0.37708	0.50625	-0.21667	-0.12292	0.41875	-0.25208	0.41042	0.21458	-0.35	0.56875	-0.11458	0.17708	0.51875	257.136	102.413	221.555	-36.658	261.928	226.109	-41.319	225.838	236.714	252.732	157.856	257.130	243.469	246.532	71.796	208.798	7.5992e-05	0.00052427	0.00022912	760.87	6.0848e-06	4.7567e-06	632.61	204.52	2.4677e-06	1.0502e-05	159	49.354	64.95	27.36	7.308e-06	21.785	0.0050766	0.0088394	0.002466	806.37	9.2549e-05	9.9916e-05	652.2	210.98	8.774e-05	9.7453e-05	174.6	55.296	72.074	29.26	9.0042e-05	24.322	207.027	35.253	106.765	-33.018	167.405	-37.394	-35.177	-27.070	303.173	22.380	-30.408	-25.164	-21.927	-16.169	149.220	-21.566	-8191	255	
1072.940	1	1	0	0	0.14473	0.087214	0.18026	0.11498	0.015776	0.32852	0.17569	0.045085	0.13799	0.16758	0.082691	0.026553	0.19082	0.13981	0.11249	0.11139	0.22708	0.36875	0.41667	-0.25833	0.4625	0.0625	-0.0375	0.45625	-0.33958	0.26458	0.64792	-0.15625	0.52292	0.01875	-0.039583	0.48333	103.593	38.236	254.382	128.018	233.632	-31.245	231.053	291.127	82.462	-8.731	302.453	227.909	309.657	283.663	226.038	100.064	6.5178e-05	0.0011049	0.00018056	759.45	3.81e-06	3.0934e-06	626.59	200.9	3.2259e-06	2.613e-06	156.45	48.158	63.766	27.038	6.8913e-06	21.45	0.0049814	0.0086367	0.0023893	802.74	9.0006e-05	9.5501e-05	646.5	207.11	8.4216e-05	9.269e-05	169.75	53.885	70.294	28.746	8.5707e-05	23.812	201.057	1.678	115.724	-33.421	115.701	276.118	-34.874	-26.938	117.077	272.420	-30.272	-25.271	-21.509	-15.890	205.314	-20.965	-8191	255	
1073.035	1	1	0	0	0.23683	0.129	0.21706	0.12473	0.057558	0.33752	0.31649	0.28355	0.18539	0.23607	0.024401	0.11122	0.19837	0.070831	0.18243	0.086142	0.23542	0.30208	0.4125	-0.35	0.49167	0.25625	-0.1125	0.69167	-0.089583	0.33542	0.44792	-0.13542	0.48125	0.09375	-0.125	0.61875	278.890	90.315	97.711	140.674	-0.388	100.574	-38.139	190.219	-33.716	166.343	292.263	271.289	204.847	13.941	-18.897	188.611	0.00013951	0.00043243	5.7284e-05	746.07	6.3265e-06	4.4577e-06	631.04	198.31	2.932e-06	6.0789e-06	155.37	48.653	63.668	27.188	1.1812e-06	21.881	0.0046169	0.0081392	0.0022449	792.33	8.492e-05	9.0381e-05	642.37	204.6	7.9378e-05	8.7223e-05	168.11	53.758	69.945	28.861	8.1807e-05	24.062	182.139	131.062	124.528	-33.232	125.319	125.210	-34.464	-26.526	200.897	47.370	-29.952	-24.814	-21.362	-16.142	74.431	-21.521	-8191	255	
1073.131	1	1	0	0	0.1807	0.23185	0.24604	0.16469	0.20435	0.28027	0.18636	0.26167	0.37199	0.13331	0.18137	0.16242	0.12329	0.385	0.15583	0.19231	0.275	0.28125	0.75625	-0.3	0.42917	0.225	-0.48542	0.64167	-0.11458	-0.17708	0.58542	-0.20417	0.15625	0.34375	-0.23333	0.64167	95.095	199.211	292.539	0.834	243.076	280.441	19.003	290.619	122.158	100.035	37.837	19.287	-21.601	-21.563	278.386	57.494	0.00010041	0.00053798	0.00018834	753.12	3.5454e-06	2.6989e-06	628.12	197.89	2.5145e-06	2.8633e-06	157.14	49.829	64.875	27.696	3.9172e-06	22.112	0.0044651	0.0076632	0.0021581	788.33	8.0782e-05	8.8099e-05	641.31	204.64	7.7534e-05	8.7227e-05	170.23	54.669	70.854	29.275	8.506e-05	24.472	120.140	-12.412	-19.652	-32.852	173.609	69.665	-34.290	-26.415	151.036	151.251	-30.070	-25.160	-21.471	-16.350	114.828	-21.269	-8191	255	
1073.204	1	1	0	0	0.095043	0.055916	0.16263	0.18673	0.079174	0.10631	0.22044	0.35945	0.13515	0.29497	0.24934	0.23148	0.26524	0.27403	0.15399	0.13551	0.50833	-0.029167	0.53333	-0.26875	0.11042	0.32083	-0.22292	0.46458	-0.010417	-0.125	0.56458	-0.097917	0.25208	0.6	-0.27917	0.31042	48.508	64.614	289.730	93.794	-3.227	-1.153	199.232	305.243	116.461	190.361	297.071	272.349	-30.613	298.274	58.052	198.989	4.1168e-05	0.00013261	0.00016355	745.36	2.0345e-06	8.1978e-06	633.4	202.19	7.7126e-07	1.1347e-05	161.03	50.751	66.247	27.803	8.4232e-06	22.392	0.0046341	0.0080829	0.0023063	791.12	8.6398e-05	9.3411e-05	649.55	209.44	8.307e-05	9.376e-05	175.64	56.219	72.609	29.602	9.1755e-05	24.679	-34.027	-11.078	69.929	-32.772	168.674	106.752	-34.314	-26.927	31.573	247.717	-29.301	-24.608	-21.522	-16.223	88.470	-20.461	-8191	255	
1073.323	1	1	0	0	0.045148	0.19098	0.20818	0.10393	0.063773	0.20037	0.026221	0.23943	0.11301	0.15261	0.19691	0.14934	0.15164	0.041784	0.11148	0.26828	0.61042	-0.25208	0.66875	-0.34167	-0.070833	0.5	-0.38958	0.26042	0.12292	-0.33958	0.46042	0.0125	-0.0875	0.59167	-0.11458	0.33125	130.465	136.056	291.332	-33.486	82.936	187.628	295.596	214.833	134.486	34.497	249.455	157.771	162.774	77.798	147.811	314.290	1.3777e-05	0.00034043	0.00030938	755.95	6.6698e-06	2.3975e-06	633.02	202.92	3.6071e-06	6.8106e-06	160.74	49.867	65.671	27.425	6.7197e-06	21.781	0.0049316	0.0087039	0.0024747	799.14	9.1276e-05	9.7897e-05	649.71	210.06	8.7323e-05	9.8642e-05	175.67	55.473	72.517	29.275	9.4534e-05	24.303	73.683	121.869	41.859	-32.195	173.980	310.207	-33.935	-26.335	64.786	85.177	-31.072	-25.769	-22.552	-17.124	135.806	-21.876	-8191	255	
1073.419	1	1	0	0	0.20339	0.26428	0.071566	0.1151	0.24202	0.27443	0.043991	0.35929	0.09394	0.35462	0.047998	0.10194	0.28633	0.28201	0.073402	0.23399	0.72917	-0.32917	0.55625	0	0.075	0.57708	-0.27917	0.26042	0.060417	-0.17292	0.57292	0.10417	-0.225	0.65833	-0.091667	0.27917	34.078	1.733	-45.076	223.511	222.055	58.734	-30.700	9.404	87.634	94.930	186.683	46.069	-24.498	-36.464	-27.081	296.112	9.4321e-05	0.00061335	6.899e-05	752.84	6.3529e-06	6.814e-06	630.79	201.25	3.3979e-06	5.7175e-06	157.56	48.994	65.731	27.394	1.1401e-05	21.931	0.0051482	0.0089384	0.0025292	800.29	9.2584e-05	0.00010103	650.33	209.2	8.8529e-05	0.00010076	173.66	55.4	72.585	29.284	9.5354e-05	24.36	102.538	52.878	229.600	-33.628	131.154	218.335	-35.601	-27.458	-44.617	100.896	-30.712	-25.896	-22.430	-17.277	14.585	-22.192	-8191	255	
1073.516	1	1	0	0	0.1448	0.19913	0.019349	0.11849	0.19114	0.096705	0.25148	0.12481	0.12684	0.15617	0.11487	0.30322	0.31093	0.24295	0.15853	0.069175	0.64375	-0.32292	0.7875	0.12708	-0.060417	0.4375	-0.15417	-0.047917	0.525	-0.35833	0.32708	0.31875	-0.36667	0.42708	0.085417	-0.016667	147.629	236.770	18.330	-13.685	50.864	83.726	234.570	213.891	101.692	173.510	-28.609	133.113	207.141	302.355	224.538	130.312	0.00012324	0.00079851	0.00021194	754.19	9.4857e-06	7.6059e-06	633.75	198.6	3.7254e-06	5.2312e-06	156.75	49.248	65.106	27.479	3.5491e-06	21.999	0.0051312	0.0090031	0.0025068	801.09	9.3195e-05	0.00010184	651.82	207.1	8.9416e-05	9.9571e-05	172.96	55.089	71.797	29.345	9.3327e-05	24.524	165.986	30.910	17.677	-34.049	163.260	205.510	-35.292	-27.459	129.965	167.215	-31.068	-26.181	-22.523	-17.314	117.049	-21.739	-8191	255	
1073.636	1	1	0	0	0.025875	0.23465	0.17277	0.087959	0.23775	0.054022	0.20003	0.35413	0.18564	0.14597	0.19195	0.04695	0.17288	0.14544	0.37467	0.1686	0.94375	-0.19167	0.30208	0.15	-0.31667	0.58333	-0.17708	-0.26458	0.59167	-0.30625	0.21875	0.275	-0.21458	0.34167	-0.15625	-0.14375	201.103	206.861	262.779	145.176	159.313	-33.323	204.626	236.323	214.626	78.850	176.652	241.677	270.520	184.727	297.044	204.918	9.8103e-05	0.00021904	0.00023637	758.38	7.2948e-06	1.0742e-05	635.26	198.84	2.5907e-06	7.7295e-06	153.9	48.611	63.921	26.975	7.8647e-06	21.35	0.005074	0.0089362	0.002498	800.81	9.2548e-05	0.00010038	654.43	206.13	8.8053e-05	9.8007e-05	169.89	54.531	70.627	28.946	9.025e-05	24.009	53.896	299.035	-15.771	-34.051	285.655	122.973	-35.159	-27.719	80.685	134.554	-30.845	-25.819	-22.568	-17.089	207.153	-22.317	-8191	255	
1073.732	1	1	0	0	0.1775	0.19336	0.15922	0.28964	0.15677	0.19205	0.13611	0.06412	0.27479	0.38352	0.090154	0.27214	0.10033	0.24755	0.22528	0.28421	0.97083	-0.15208	0.2125	0.41042	-0.18333	0.60625	0.11667	-0.26458	0.57083	-0.10625	0.1875	0.46875	-0.28125	0.26458	0.23958	-0.26667	52.623	-23.680	163.342	288.059	18.699	26.069	265.201	184.440	164.450	16.650	25.393	148.606	126.485	-23.505	-3.410	250.257	5.0437e-05	0.00069963	5.7414e-05	743.55	9.7957e-06	1.368e-05	625.87	195.8	7.5909e-06	5.1986e-06	151.51	47.79	63.076	27.006	4.3562e-06	21.45	0.00496	0.0086472	0.0023815	790.27	8.9974e-05	9.5964e-05	644.67	202.73	8.5415e-05	9.4968e-05	167.01	53.541	69.987	28.722	8.7563e-05	23.75	156.516	118.047	102.850	-33.804	22.132	-18.865	-35.447	-27.584	203.446	161.595	-31.582	-25.736	-22.629	-17.480	104.497	-22.191	-8191	255	
1073.829	1	1	0	0	0.14368	0.11497	0.27908	0.16091	0.095191	0.10161	0.39954	0.12246	0.30262	0.3953	0.21098	0.14553	0.1646	0.14576	0.036933	0.1775	1.0125	-0.033333	0.29792	0.58125	-0.22083	0.43542	0.25833	-0.33958	0.68333	-0.21458	-0.08125	0.61042	-0.31458	0.175	0.2625	-0.30417	-14.712	172.488	63.677	284.948	51.361	150.257	257.287	166.765	255.235	-25.190	117.979	239.084	297.039	110.392	313.591	-36.456	0.00010549	0.00060226	9.5859e-05	748.95	5.5274e-06	8.5658e-06	620.52	195.36	4.6654e-06	2.4213e-06	153.67	48.295	63.605	27.341	4.738e-06	21.596	0.004779	0.0083219	0.0022818	785.01	8.6186e-05	9.2322e-05	637.87	202.76	8.2101e-05	9.0338e-05	166.86	53.821	70.343	29.02	8.7024e-05	23.98	156.307	-16.766	8.369	-33.717	141.412	138.550	-35.387	-27.580	232.137	214.852	-31.149	-26.138	-22.306	-16.996	285.799	-22.012	-8191	255	
1073.925	1	1	0	0	0.1018	0.31411	0.11799	0.14674	0.091634	0.094721	0.25494	0.051065	0.19662	0.10905	0.10628	0.42768	0.11353	0.24499	0.18904	0.16566	0.87708	0.15208	0.19375	0.66042	-0.27292	0.36875	0.28333	-0.3375	0.52708	0.01875	-0.052083	0.50625	-0.29167	-0.020833	0.67708	-0.29792	185.137	310.596	71.076	144.515	103.435	43.250	-12.985	272.643	258.217	109.515	272.067	298.481	267.101	1.019	2.505	48.391	0.00013041	0.00087661	0.00021824	742.89	6.1081e-06	4.8406e-06	630.06	199.47	4.18e-06	3.7905e-06	159.56	49.43	64.955	27.564	3.0092e-06	22.294	0.0047469	0.0083108	0.0023332	785.22	8.8319e-05	9.4752e-05	646.09	207.23	8.4785e-05	9.4461e-05	173.63	55.303	72.019	29.444	9.2978e-05	24.711	153.526	247.078	30.505	-34.239	219.981	-29.810	-35.585	-27.500	128.301	103.139	-31.258	-25.874	-22.447	-17.228	198.480	-21.822	-8191	255	
1074.021	1	1	0	0	0.18723	0.12639	0.13791	0.291	0.081504	0.14192	0.12434	0.065297	0.043172	0.20087	0.13916	0.15178	0.085725	0.42407	0.24381	0.10328	0.88333	0.30833	-0.18958	0.56875	0.03125	0.14167	0.32083	-0.35417	0.3875	0.2	-0.35417	0.57917	-0.24583	0.19167	0.59792	-0.23333	87.577	80.948	133.402	268.465	72.908	49.522	294.028	145.791	284.289	313.049	-23.387	84.496	-12.796	282.425	188.201	-31.574	0.0001281	0.00087434	0.00036717	749.76	1.2163e-05	5.3868e-06	637.28	202.87	1.9906e-06	5.5043e-06	160.7	50.561	66.884	28.028	7.5462e-06	22.315	0.005123	0.008914	0.0025231	796.66	9.4555e-05	0.00010021	656.3	211.25	9.0668e-05	0.00010091	176.72	56.894	73.857	29.923	9.7834e-05	24.955	166.220	19.041	-8.019	-33.897	37.604	125.448	-35.043	-27.609	65.889	117.740	-30.629	-25.991	-22.496	-16.816	199.086	-21.809	-8191	255	
1074.115	1	1	0	0	0.073495	0.29984	0.13739	0.15969	0.016839	0.13353	0.063744	0.19539	0.19313	0.20619	0.18845	0.20038	0.52358	0.11042	0.10768	0.20973	0.79167	0.40625	-0.23333	0.66042	0.014583	0.0020833	0.55833	-0.1875	0.27083	0.40833	-0.21667	0.53542	0.020833	-0.16667	0.50833	-0.13958	286.318	133.851	48.609	229.531	279.737	150.745	-25.974	300.749	-43.603	230.971	208.580	-27.228	-34.334	-26.824	222.762	197.458	5.9331e-05	0.00071897	0.00024839	752.96	4.8728e-06	9.7424e-06	629.76	202.09	2.4056e-06	1.2334e-05	158.81	49.074	65.525	27.576	2.1787e-06	21.747	0.0052778	0.00922	0.0026057	800.75	9.6681e-05	0.00010418	652.18	210.5	9.2321e-05	0.0001022	174.17	55.799	73.011	29.529	9.8275e-05	24.495	136.170	43.483	-11.831	-33.986	-23.286	176.473	-35.511	-27.647	313.450	155.974	-30.843	-26.269	-21.744	-17.220	49.061	-22.355	-8191	255	
1074.236	1	1	0	0	0.38605	0.10736	0.17477	0.23312	0.097044	0.039136	0.10365	0.12026	0.20727	0.093653	0.21429	0.21741	0.091546	0.025077	0.11574	0.053014	0.45833	0.57292	-0.11458	0.33333	0.22708	-0.20208	0.45	-0.36042	0.15625	0.425	-0.3	0.425	0.0875	-0.29583	0.68333	-0.09375	166.627	-18.033	-12.251	141.940	213.422	159.747	192.570	255.446	136.491	61.191	-8.038	205.272	142.833	0.902	37.241	28.036	5.4151e-05	0.0014228	7.9273e-05	746.07	4.9011e-06	4.153e-06	629.34	199.8	1.2793e-06	7.2829e-06	155.76	48.884	65.36	27.791	4.3045e-06	21.81	0.0052602	0.0091879	0.0025959	795.19	9.5815e-05	0.00010398	648.96	208.28	9.1891e-05	0.00010352	171.78	55.071	72.747	29.574	9.7988e-05	24.522	69.533	78.448	32.329	-33.647	226.352	139.497	-35.571	-27.318	22.538	153.118	-30.980	-26.235	-22.738	-17.865	144.291	-21.826	-8191	255	
1074.332	1	1	0	0	0.093271	0.099081	0.055326	0.1225	0.29649	0.17106	0.023647	0.20365	0.064779	0.10169	0.38303	0.10207	0.2892	0.27745	0.19564	0.32737	0.37292	0.7	-0.2375	0.50625	0.30417	0.014583	0.66667	-0.22292	0.03125	0.65833	-0.27292	0.55	0.47708	-0.24167	0.49167	-0.033333	172.227	223.412	108.882	86.142	245.517	64.607	255.874	312.111	251.661	-20.389	208.065	300.238	247.325	110.447	134.010	206.441	7.9244e-05	0.00029554	0.00014698	748.77	7.1253e-06	7.6363e-06	633.42	200.04	1.3078e-05	1.3048e-05	156.31	48.343	64.257	27.315	1.1501e-06	21.807	0.0052058	0.0092594	0.0025729	796.95	9.6095e-05	0.00010345	651.27	207.57	9.1131e-05	0.00010263	171.31	54.657	71.434	29.255	9.5396e-05	24.323	187.157	154.051	74.143	-33.893	177.050	-28.914	-35.309	-27.660	148.059	32.070	-30.739	-25.826	-22.120	-17.136	304.998	-22.000	-8191	255	
1074.428	1	1	0	0	0.11607	0.19899	0.12188	0.20702	0.23702	0.18612	0.10841	0.15899	0.29989	0.2117	0.32156	0.13633	0.29493	0.30731	0.20856	0.13274	0.51458	0.56667	-0.19375	0.3125	0.50208	-0.15417	0.56875	0.25	-0.029167	0.56667	-0.22708	0.28125	0.41458	-0.30417	0.45208	0.13958	24.624	153.354	265.379	148.921	105.729	3.043	212.860	220.189	66.443	53.091	-22.703	82.691	14.450	15.833	185.263	89.532	7.114e-05	0.00070589	0.00036476	747.84	5.4887e-06	1.8475e-06	628.88	197.3	5.3737e-06	5.8745e-06	153.74	48.373	64.175	27.362	7.9984e-06	21.814	0.0050733	0.0090743	0.0025259	793.43	9.2752e-05	0.00010011	648.19	205.06	8.7941e-05	9.9214e-05	169.17	54.078	70.72	29.111	9.179e-05	24.116	237.650	66.391	244.617	-34.409	186.471	233.839	-35.405	-27.582	180.698	17.233	-30.796	-26.049	-22.628	-17.565	63.161	-22.159	-8191	255	
1074.500	1	1	0	0	0.26764	0.15683	0.12048	0.14406	0.22577	0.20205	0.20437	0.099205	0.1616	0.18575	0.10492	0.083332	0.17045	0.098423	0.18235	0.13928	0.29375	0.64167	-0.11042	0.12292	0.5875	-0.2125	0.38333	0.21458	-0.13125	0.74167	-0.054167	0.15833	0.41042	-0.15625	0.39583	0.38125	133.557	215.100	260.975	245.381	3.317	295.216	-22.449	289.464	114.410	115.173	-33.902	4.133	223.721	8.401	301.307	314.003	9.099e-05	0.0009103	3.6133e-05	742.36	8.1189e-06	5.1042e-06	623.06	195.24	8.947e-06	5.543e-06	152.08	48.197	63.355	27.137	5.2423e-06	21.44	0.0049388	0.0085644	0.0024019	785.41	8.8517e-05	9.5446e-05	641.21	202.81	8.3976e-05	9.3715e-05	166.82	53.2	70.04	28.863	8.7351e-05	23.783	179.201	50.279	231.983	-34.300	96.764	-6.297	-35.448	-27.757	134.599	155.145	-30.729	-25.788	-22.546	-17.247	155.663	-21.831	-8191	255	
1074.620	1	1	0	0	0.2519	0.27983	0.076998	0.21107	0.22262	0.20161	0.19614	0.20767	0.12366	0.14102	0.27225	0.073558	0.22988	0.15756	0.085697	0.17763	0.10625	0.45625	0.14375	0.11042	0.87917	-0.25625	0.30417	0.31875	-0.2	0.51458	-0.010417	-0.22917	0.59167	-0.30208	0.23125	0.50625	108.450	249.641	164.896	309.096	72.593	100.814	212.451	-38.359	248.783	103.674	303.054	292.904	-26.770	-13.641	253.242	295.255	8.6158e-05	0.00018588	0.00014794	736.62	4.3595e-06	5.6646e-06	622.87	197.37	1.5836e-06	9.2897e-06	154.9	48.486	63.747	27.291	6.9677e-06	21.477	0.0047875	0.0083583	0.0023135	779.18	8.7003e-05	9.4538e-05	639.03	204.83	8.5064e-05	9.4508e-05	168.67	54.024	70.867	29.1	9.2062e-05	24.063	179.237	251.391	-8.854	-33.625	130.152	307.398	-35.046	-27.100	48.569	120.841	-31.060	-26.065	-22.049	-16.775	28.582	-21.856	-8191	255	
1074.717	1	1	0	0	0.068295	0.088395	0.1656	0.084577	0.045946	0.14938	0.22231	0.28371	0.21399	0.2494	0.19951	0.025881	0.066144	0.18533	0.15011	0.077426	0.060417	0.42292	0.125	-0.15833	0.57292	-0.16667	0.15208	0.48958	-0.22083	0.55833	0.19167	-0.029167	0.525	-0.05625	0.16458	0.47708	273.183	264.994	237.432	54.702	149.516	105.505	259.355	121.990	264.782	192.825	301.144	89.853	46.245	242.167	29.811	157.256	8.1726e-05	0.00076096	0.00016897	733.42	4.2724e-06	1.1944e-05	624.18	200.24	6.2333e-06	3.8671e-06	158.14	49.034	65.385	27.651	3.4963e-06	21.784	0.0050656	0.0088755	0.0024557	785.27	9.3574e-05	0.00010102	643.67	208.28	9.0243e-05	0.00010075	173.9	55.395	72.643	29.558	9.578e-05	24.563	225.288	-15.596	41.020	-33.518	75.928	35.716	-35.276	-27.350	161.559	206.057	-30.814	-26.086	-22.324	-17.213	-28.529	-22.136	-8191	255	
1074.813	1	1	0	0	0.22824	0.13844	0.13521	0.12488	0.04704	0.16191	0.28794	0.30152	0.19166	0.062116	0.096871	0.12449	0.071039	0.23497	0.15485	0.24075	0.18125	0.68958	0.3	-0.17083	0.67917	-0.13125	-0.075	0.28542	-0.15625	0.25833	0.43958	-0.31875	0.4	-0.0875	-0.083333	0.72083	264.629	155.008	230.127	226.283	98.821	90.959	128.526	3.830	296.147	3.626	233.344	13.853	267.103	211.179	36.797	280.645	8.406e-05	0.00039037	9.021e-05	749.46	3.7492e-06	4.4484e-06	632.83	203.11	3.8147e-06	9.5056e-06	159	49.968	66.366	27.997	6.5324e-06	22.151	0.0052397	0.0091406	0.0025623	795.42	9.7159e-05	0.00010474	653.95	210.96	9.2875e-05	0.00010339	175.79	56.622	73.784	29.916	9.9751e-05	24.91	162.044	-5.237	199.357	-33.872	63.301	21.053	-35.075	-27.726	267.296	102.887	-30.621	-25.521	-22.580	-17.092	130.668	-21.368	-8191	255	
1074.909	1	1	0	0	0.099982	0.28036	0.11284	0.22846	0.097149	0.20385	0.39708	0.25163	0.12828	0.14438	0.28803	0.19839	0.2968	0.067628	0.055888	0.26177	0.23542	0.44375	0.45625	-0.37708	0.475	0.15417	-0.18958	0.52708	-0.23333	0.35625	0.46667	0.091667	0.54167	0.19792	0.0041667	0.66667	-39.629	228.175	-38.128	269.851	230.080	-5.601	227.519	243.088	115.312	46.345	251.319	176.965	-27.293	-29.579	275.024	230.626	0.00012208	0.00087286	0.00022557	739.46	1.1561e-05	7.8227e-07	627.91	201.79	3.3776e-06	2.258e-06	155.33	48.589	65.516	27.606	9.6524e-06	21.553	0.0053715	0.0093971	0.0026554	795.35	9.9088e-05	0.00010545	649.13	209.42	9.344e-05	0.00010458	171.55	55.298	72.779	29.478	9.8878e-05	24.347	111.303	-24.226	54.571	-33.822	-27.785	259.607	-34.981	-27.111	67.326	165.411	-30.388	-25.522	-22.530	-16.998	64.308	-22.069	-8191	255	
1075.028	1	1	0	0	0.12674	0.10163	0.086312	0.44143	0.016676	0.10507	0.076118	0.29238	0.20008	0.33476	0.011024	0.26622	0.21493	0.17246	0.040715	0.29005	0.35625	0.3875	0.60833	-0.39583	0.57292	0.17917	-0.2	0.54583	-0.01875	0.12708	0.51458	-0.35833	0.575	0.29583	-0.35417	0.52708	301.722	43.312	7.007	11.857	-17.642	198.122	229.915	279.613	-14.048	13.042	138.021	314.102	240.722	-33.110	176.801	-25.261	0.00010782	0.00085196	0.00047006	742.98	1.0212e-05	5.3712e-06	623.28	197.58	2.8509e-06	5.0004e-06	151.28	48.939	64.212	27.648	1.312e-05	21.709	0.0053716	0.0094205	0.0026374	791.75	9.7939e-05	0.00010354	641.64	206.37	9.1993e-05	0.00010221	168.98	54.744	71.785	29.428	9.7166e-05	24.239	185.252	13.108	70.067	-33.368	29.877	-19.032	-35.049	-27.093	6.883	216.333	-30.409	-25.890	-22.027	-16.209	226.303	-22.142	-8191	255	
1075.101	1	1	0	0	0.082422	0.041553	0.2014	0.060513	0.17479	0.22332	0.090106	0.23887	0.17478	0.17227	0.11296	0.30475	0.045714	0.14716	0.099345	0.14265	0.29583	0.060417	0.57708	-0.29167	0.35208	0.53333	-0.31042	0.5	0.016667	0.00625	0.59375	-0.27708	0.18542	0.55	-0.31042	0.53333	42.930	-16.638	272.205	115.729	31.989	-24.447	260.452	309.552	250.588	142.010	2.838	280.147	193.511	215.914	73.028	-20.525	4.3298e-05	0.00024663	0.000243	746.15	9.8462e-06	4.9245e-06	622.77	195.52	1.257e-06	8.5574e-07	152.01	47.968	63.445	27.121	1.1096e-05	21.52	0.0051122	0.0091235	0.002575	790.54	9.4967e-05	0.00010233	644.95	204.38	8.9106e-05	9.9999e-05	168.22	54.223	70.75	29.135	9.4632e-05	24.07	126.387	201.489	59.174	-33.807	90.216	184.366	-34.904	-27.381	-43.928	226.520	-30.774	-25.301	-21.689	-16.754	168.927	-21.588	-8191	255	
1075.197	1	1	0	0	0.20067	0.10719	0.24711	0.17805	0.082132	0.32538	0.14359	0.23127	0.20469	0.082467	0.034515	0.14573	0.35308	0.10282	0.26659	0.27571	0.50833	0.00625	0.70833	-0.1875	0.15833	0.52708	-0.34583	0.46667	0.25417	-0.15208	0.68958	-0.029167	0.28542	0.44167	-0.079167	0.35833	-20.059	43.603	-32.121	-6.660	53.319	260.094	262.299	308.633	90.223	-11.104	306.895	145.565	-12.624	254.799	147.067	-3.111	5.9964e-05	0.0011	0.00021514	738.94	5.7608e-06	1.972e-05	627.15	196.66	6.1218e-06	1.0329e-05	152.82	47.922	63.884	27.321	6.0027e-06	21.636	0.005074	0.0089108	0.0024746	785.58	9.1683e-05	9.9418e-05	644.13	204.51	8.6601e-05	9.7839e-05	168.38	53.863	70.661	29.208	9.0624e-05	24.038	127.520	129.932	39.941	-33.099	82.130	74.533	-34.593	-27.113	239.588	21.437	-30.351	-25.397	-21.878	-16.739	-35.661	-21.643	-8191	255	
1075.316	1	1	0	0	0.17415	0.08465	0.10512	0.23027	0.18762	0.097451	0.15741	0.074811	0.11587	0.23368	0.20888	0.24005	0.14671	0.1542	0.13037	0.10565	0.7125	-0.2125	0.48125	0.020833	0.022917	0.54167	-0.32083	0.275	0.43333	-0.175	0.53125	0.072917	-0.21042	0.65417	0.04375	0.30417	175.156	313.749	171.705	-10.667	-18.262	203.143	223.124	46.592	35.738	174.717	282.527	243.441	-4.791	-25.403	218.522	-25.866	4.5737e-05	0.00045474	0.00013484	734.5	5.1242e-06	6.4939e-06	619.32	196.19	8.9521e-06	8.0801e-06	153.05	47.944	63.26	27.317	4.3609e-06	21.526	0.0048906	0.0085199	0.0024012	776.64	8.6793e-05	9.5405e-05	636.82	203.24	8.296e-05	9.1816e-05	167.09	53.284	69.929	29.106	8.7534e-05	23.784	185.620	68.744	58.597	-33.477	152.788	73.205	-35.091	-27.283	110.645	166.396	-30.680	-25.514	-22.387	-16.998	50.369	-22.065	-8191	255	
1075.412	1	1	0	0	0.22485	0.076294	0.2136	0.12393	0.13414	0.065134	0.20769	0.32661	0.1216	0.17292	0.18207	0.10801	0.17062	0.13255	0.087044	0.20458	0.78958	-0.1	0.65625	0.13542	-0.20208	0.58333	-0.1	0.14375	0.55417	-0.225	0.54167	0.15208	-0.26458	0.47917	-0.0020833	0.25625	33.050	92.782	312.347	-34.626	152.286	79.559	58.901	305.645	234.256	110.240	171.848	7.450	32.208	13.765	233.050	308.858	0.00014373	0.00025643	0.0001699	734.99	5.8644e-06	2.77e-06	622.08	199.26	5.982e-06	6.7723e-06	154.55	48.525	64.703	27.726	8.1755e-06	21.724	0.0047715	0.0082785	0.0023255	774.53	8.6538e-05	9.4726e-05	634.12	204.96	8.4406e-05	9.4854e-05	168.92	54.098	71.237	29.361	9.2735e-05	24.116	141.970	163.483	165.512	-33.641	245.141	163.919	-34.771	-27.360	229.147	80.964	-30.745	-25.922	-21.885	-16.843	215.576	-21.637	-8191	255	
1075.509	1	1	0	0	0.11095	0.078261	0.084369	0.012993	0.03403	0.11901	0.11608	0.30407	0.18905	0.13814	0.013673	0.35201	0.17335	0.091628	0.12641	0.47633	0.99792	-0.18125	0.66458	0.24792	-0.26458	0.41875	-0.15208	-0.0020833	0.47292	-0.15417	0.37083	0.32083	0.0041667	0.5	0.09375	-0.022917	295.211	146.997	150.565	178.176	-39.814	202.942	305.689	-10.053	295.805	1.967	22.497	-43.945	87.582	-38.522	307.273	16.920	0.00014833	0.00067894	4.1609e-05	734.88	3.3971e-06	1.1901e-05	618	199.82	5.6481e-06	8.3592e-07	157.08	49.172	65.261	27.816	7.5672e-06	21.78	0.0050182	0.0088354	0.0024536	779.89	9.2811e-05	0.00010122	640.3	207.73	9.0556e-05	0.00010086	172.94	55.217	72.482	29.64	9.5084e-05	24.502	140.629	75.745	112.295	-33.541	236.610	110.481	-34.608	-27.193	43.677	165.394	-30.586	-25.735	-22.251	-17.109	69.866	-21.698	-8191	255	
1075.605	1	1	0	0	0.14793	0.37831	0.050606	0.17104	0.079682	0.26003	0.18303	0.12869	0.12721	0.041572	0.13291	0.17746	0.16882	0.22065	0.25895	0.048166	0.92917	-0.025	0.28125	0.32292	-0.41667	0.60625	0.08125	-0.052083	0.6625	-0.35208	0.22292	0.37708	-0.27708	0.41667	0.014583	-0.054167	23.149	1.401	214.880	3.713	228.519	86.313	306.920	297.029	207.145	51.257	269.448	208.941	212.792	263.422	140.768	-31.466	7.964e-05	0.00063283	0.00021778	744.37	4.1444e-06	8.7717e-06	630.13	204.22	3.1182e-06	1.4183e-05	160.27	50.184	66.567	28.346	8.3245e-06	22.146	0.0052292	0.009217	0.0025517	790.83	9.7385e-05	0.00010372	648.61	211.43	9.2114e-05	0.00010328	175.75	56.349	73.886	30.155	9.8842e-05	24.85	167.903	94.507	252.269	-33.496	65.552	313.758	-34.769	-27.069	184.948	293.945	-30.511	-26.077	-22.223	-16.698	42.130	-21.504	-8191	255	
1075.725	1	1	0	0	0.13949	0.26967	0.104	0.17848	0.14581	0.041459	0.23276	0.28726	0.090122	0.19778	0.18221	0.11477	0.29619	0.12497	0.20651	0.089775	1.05	-0.24583	0.29167	0.61667	-0.058333	0.44583	0.0625	-0.06875	0.65833	-0.14792	0.17917	0.55833	-0.325	0.27292	0.03125	-0.091667	87.779	18.616	204.297	-38.612	132.257	108.191	267.963	271.794	52.916	270.866	23.233	112.343	-42.668	-28.867	51.958	251.702	8.2277e-05	0.00078465	0.00024277	736.64	2.6401e-06	7.9692e-06	628.27	201.47	6.3341e-06	1.1351e-05	157.07	49.436	66.189	27.988	5.9577e-06	21.691	0.0053571	0.0093403	0.002613	790.3	9.8156e-05	0.00010584	648.66	210.3	9.4452e-05	0.0001044	173.25	55.813	73.561	29.85	9.878e-05	24.535	203.904	131.417	276.639	-33.107	12.315	42.728	-34.818	-27.326	91.263	125.289	-30.370	-25.117	-22.105	-16.686	163.646	-21.468	-8191	255	
1075.797	1	1	0	0	0.22397	0.03434	0.11657	0.42313	0.10563	0.21067	0.14702	0.27285	0.1471	0.39965	0.36961	0.027288	0.10557	0.082134	0.15493	0.067111	0.98333	-0.0083333	0.11042	0.45625	-0.11042	0.40208	0.26667	-0.37083	0.5625	-0.20208	-0.17708	0.67917	-0.05625	0.10417	0.5375	-0.30833	287.105	127.576	166.096	11.476	42.534	111.046	240.196	241.648	313.156	96.435	-3.517	18.442	283.194	32.568	174.322	230.180	7.6641e-05	0.00060187	0.00017468	734.38	8.1132e-07	3.1757e-06	624.71	200.45	6.2089e-06	6.3982e-06	153.85	49.355	65.8	28.009	1.1695e-05	21.617	0.0054668	0.0094392	0.0026413	788.88	9.9846e-05	0.00010616	642.69	209.3	9.4992e-05	0.00010401	171.59	55.563	73.299	29.815	9.9012e-05	24.455	169.247	67.084	192.633	-33.637	115.785	221.334	-35.276	-27.445	104.165	3.210	-31.066	-25.942	-21.927	-16.849	168.855	-22.158	-8191	255	
1075.918	1	1	0	0	0.19643	0.22952	0.057877	0.15767	0.21324	0.41205	0.154	0.12436	0.04977	0.32903	0.073902	0.26242	0.24264	0.18377	0.084207	0.18533	0.80625	0.1	-0.14792	0.46458	-0.15625	0.3125	0.49375	-0.29375	0.47708	0.01875	-0.13333	0.64167	-0.12708	0.13958	0.52292	-0.29375	-38.158	72.161	27.080	238.332	153.278	90.757	-8.247	276.378	217.022	-24.873	-24.243	11.026	297.362	36.654	82.457	283.977	4.0932e-05	0.0010524	0.00015771	735.23	6.7941e-06	8.8366e-06	620.39	200.65	2.1018e-06	4.3165e-06	154.33	49.984	66.016	28.161	5.315e-06	22.073	0.005338	0.0092882	0.0026337	787.45	9.7774e-05	0.00010534	641.67	208.5	9.357e-05	0.00010246	171.31	55.821	73.428	30.083	9.9894e-05	24.818	121.552	-32.628	53.350	-33.604	136.921	143.520	-34.432	-27.241	160.106	199.897	-30.115	-25.631	-22.499	-16.912	92.749	-21.142	-8191	255	
1076.014	1	1	0	0	0.12609	0.2061	0.14389	0.16767	0.10604	0.2008	0.28786	0.2798	0.043149	0.25797	0.27439	0.15999	0.13986	0.064869	0.072765	0.096202	0.69167	0.51875	-0.15208	0.67708	-0.022917	-0.19583	0.6375	-0.49792	0.28125	0.25625	-0.28542	0.63958	-0.0875	-0.052083	0.85	-0.24583	15.871	-18.955	254.036	263.714	272.174	119.678	166.643	295.247	233.553	15.245	-1.224	113.825	-31.784	75.453	225.546	280.113	4.8942e-05	0.00042103	0.0001558	734.48	7.7411e-06	9.4516e-06	626.49	201.51	8.6779e-06	1.9344e-06	154.42	49.809	66.462	28.402	4.6289e-06	22.457	0.0053693	0.0094185	0.0026243	787.39	9.7402e-05	0.00010562	647.62	209.95	9.3695e-05	0.00010395	172.44	56.331	73.964	30.361	9.8859e-05	25.13	196.588	1.386	123.521	-33.596	138.047	75.445	-34.724	-27.178	33.124	218.412	-30.389	-25.668	-22.169	-16.712	-23.353	-21.725	-8191	255	
1076.108	1	1	0	0	0.37609	0.071091	0.17546	0.049315	0.21472	0.169	0.30753	0.12207	0.22459	0.29559	0.4886	0.090794	0.20896	0.21926	0.18576	0.25466	0.60833	0.33333	-0.175	0.57083	0.077083	-0.14375	0.52292	-0.16667	0.23958	0.37292	-0.34583	0.41875	0.00625	-0.19792	0.6625	-0.27917	179.218	97.474	250.178	120.835	174.836	-17.855	218.173	271.007	111.324	204.528	210.453	199.135	308.091	130.983	306.570	234.606	4.5547e-05	0.0010641	0.00040839	743.37	4.1335e-06	1.5008e-05	625.05	199.58	5.1781e-06	5.7308e-06	153.21	49.381	65.601	27.861	4.5534e-06	21.862	0.0052749	0.0093212	0.0026168	787.39	9.6357e-05	0.00010444	646.94	208.11	9.1677e-05	0.00010372	170.13	55.347	72.94	29.897	9.8578e-05	24.46	157.557	140.599	116.532	-33.639	-33.637	-4.895	-34.740	-27.091	-27.040	295.621	-30.763	-25.967	-21.919	-16.821	309.510	-22.090	-8191	255	
1076.204	1	1	0	0	0.16372	0.19214	0.17295	0.10554	0.14471	0.14444	0.2099	0.11054	0.10727	0.14792	0.10386	0.24143	0.11613	0.16133	0.2213	0.2455	0.50833	0.45208	-0.13333	0.62083	0.23542	-0.2625	0.49583	-0.32292	0.03125	0.5625	-0.15625	0.49583	0.41667	-0.25417	0.70208	-0.15	246.052	-18.140	80.530	277.396	-13.554	237.898	139.124	50.893	66.116	118.620	4.865	256.480	308.550	40.485	186.349	173.804	8.3633e-05	5.6462e-05	0.00018833	728.49	4.2143e-06	2.8141e-06	621.39	198	9.2184e-07	1.8578e-06	151.62	48.764	64.832	27.746	7.1085e-06	21.611	0.0052124	0.0092431	0.0025661	782.2	9.5682e-05	0.00010385	639.58	205.98	9.0619e-05	0.00010091	168.37	54.705	72.197	29.725	9.5814e-05	24.269	160.908	227.795	84.825	-33.263	-40.684	125.348	-34.988	-27.175	107.590	284.826	-30.317	-25.913	-22.171	-17.251	205.069	-21.979	-8191	255	
1076.300	1	1	0	0	0.05525	0.17812	0.16437	0.11937	0.13211	0.20689	0.13427	0.2448	0.1829	0.2368	0.076678	0.16128	0.084683	0.055494	0.1632	0.13279	0.39167	0.53542	-0.25208	0.31875	0.10208	-0.37917	0.35	-0.21667	-0.11458	0.59792	-0.12083	0.41667	0.26042	-0.22917	0.60417	0.16875	290.065	284.443	-14.813	294.662	-40.055	58.234	96.473	148.863	171.959	269.446	46.250	285.289	247.440	231.457	235.712	240.335	2.606e-05	0.00064012	0.00014068	725.46	1.0357e-05	3.4323e-06	620.86	197.64	4.7179e-06	6.6378e-06	152.22	48.553	64.524	27.785	3.8781e-06	21.75	0.0052332	0.0091823	0.0025434	776.89	9.4872e-05	0.00010253	641.66	204.95	8.9481e-05	0.00010061	167.96	54.215	71.506	29.635	9.3983e-05	24.33	-16.710	30.350	42.859	-33.463	251.447	11.365	-34.862	-27.004	141.452	266.861	-30.412	-26.113	-21.540	-16.239	154.327	-21.527	-8191	255	
1076.397	1	1	0	0	0.20566	0.10725	0.26608	0.056497	0.064075	0.12355	0.13787	0.33246	0.16177	0.071504	0.18107	0.17688	0.35078	0.36558	0.26224	0.074843	0.26042	0.64792	-0.1625	0	0.575	-0.24792	0.44167	0.15833	-0.18333	0.50417	-0.23333	0.035417	0.30208	-0.325	0.49792	0.15417	6.237	65.817	275.129	115.640	311.234	53.677	149.481	55.729	287.498	31.978	244.251	-28.734	267.911	46.578	20.974	21.728	8.875e-05	0.00019763	0.00023924	732.67	4.7475e-06	8.2901e-07	622.08	196.21	4.1335e-06	6.1204e-06	153.52	47.915	64.094	27.783	4.078e-06	21.799	0.0050555	0.0089455	0.0024735	775.26	9.2605e-05	9.8812e-05	640.18	204.52	8.7717e-05	9.7993e-05	167.99	54.028	71.071	29.661	9.1439e-05	24.233	100.388	183.389	82.639	-33.640	231.400	-33.270	-34.883	-26.622	89.414	82.926	-30.109	-25.639	-21.736	-16.776	150.272	-21.718	-8191	255	
1076.493	1	1	0	0	0.03922	0.17847	0.23931	0.11581	0.13364	0.28285	0.077935	0.20476	0.20934	0.3121	0.14227	0.16514	0.04037	0.13644	0.18974	0.21282	0.15417	0.78958	-0.052083	-0.060417	0.39792	-0.26667	0.32083	0.20208	-0.14375	0.4375	-0.20208	0.03125	0.48333	-0.20833	0.2125	0.2875	202.311	28.793	3.958	223.694	178.828	-3.675	154.377	-34.137	46.651	202.874	78.025	-40.860	170.417	267.533	42.834	207.467	2.8315e-05	0.00030996	0.00021791	725.5	6.8991e-06	7.0226e-06	616.43	194.81	2.3563e-06	5.8614e-06	152.58	47.794	63.779	27.551	5.626e-06	21.403	0.004914	0.0086007	0.0023846	768.41	8.9779e-05	9.527e-05	635.67	202.91	8.491e-05	9.3652e-05	166.92	53.443	70.301	29.278	8.7645e-05	23.785	12.761	48.535	86.397	-33.544	202.681	84.489	-35.085	-27.169	73.711	57.182	-30.316	-25.223	-21.592	-16.257	239.035	-21.959	-8191	255	
1076.589	1	1	0	0	0.16205	0.23844	0.20742	0.12205	0.072585	0.27698	0.057073	0.34187	0.11793	0.23381	0.30713	0.19772	0.045222	0.20828	0.10355	0.43618	0.0875	0.45417	-0.047917	-0.11042	0.50208	-0.275	0.2	0.35208	-0.20417	0.5125	-0.0375	0.03125	0.46667	-0.35208	0.29375	0.41458	197.569	156.802	5.156	-24.946	-25.426	199.198	100.630	221.231	41.355	44.851	-33.033	227.696	8.839	262.640	135.700	297.568	6.5882e-05	0.0012421	0.00015361	721.25	7.0478e-06	1.4806e-05	607.38	195.33	5.9023e-06	1.0626e-05	152.51	47.303	63.86	27.436	6.1444e-06	21.314	0.0047851	0.0083583	0.0023188	764.62	8.7527e-05	9.1923e-05	625.4	203.47	8.3901e-05	9.2285e-05	166.68	52.955	70.222	29.288	8.887e-05	23.778	144.057	50.335	75.956	-33.849	100.774	35.148	-35.133	-26.827	126.793	-12.898	-29.933	-25.639	-22.517	-16.469	133.318	-21.771	-8191	255	
1076.685	1	1	0	0	0.10785	0.086895	0.17598	0.059259	0.17041	0.14542	0.18566	0.25492	0.10478	0.24097	0.045467	0.19008	0.28492	0.14374	0.21311	0.1294	0.077083	0.44167	0.17292	-0.32083	0.59375	-0.21042	-0.10417	0.42292	-0.27708	0.46458	0.2375	-0.14375	0.5625	-0.17083	-0.10417	0.54792	278.922	134.792	120.306	259.886	124.403	253.267	-0.197	-9.251	-32.509	180.156	261.887	-9.276	181.193	-0.275	54.902	18.560	5.9566e-05	0.00085011	0.00021591	720.15	1.0318e-06	1.6029e-05	615.66	197.18	7.8571e-06	5.4456e-06	152.12	47.624	63.994	27.609	2.5761e-06	21.271	0.004825	0.0085063	0.002384	764.14	9.0582e-05	9.6872e-05	630.03	204.96	8.6762e-05	9.6716e-05	167.54	53.441	70.822	29.28	9.174e-05	23.793	232.733	89.849	114.558	-33.662	182.867	64.779	-34.570	-27.614	55.568	110.187	-30.632	-25.330	-22.166	-16.963	122.281	-21.680	-8191	255	
1076.806	1	1	0	0	0.31672	0.13507	0.19149	0.064347	0.14194	0.21695	0.22059	0.39744	0.22241	0.044885	0.23612	0.1083	0.095644	0.31872	0.21254	0.20352	0.28542	0.425	0.38958	-0.40833	0.40417	0.016667	-0.1625	0.48333	-0.14792	0.17917	0.34583	-0.24792	0.61458	-0.025	-0.070833	0.70625	50.705	76.866	149.488	-1.402	284.018	54.877	227.166	255.970	76.571	107.955	298.042	269.218	159.443	272.766	85.813	289.158	9.5133e-05	0.00028553	0.00029977	724.33	9.5301e-06	1.0306e-05	609.94	194.92	5.6691e-06	1.3127e-05	151.13	47.53	63.645	27.455	2.3068e-06	21.448	0.0050267	0.0087274	0.0024891	768.24	9.1603e-05	9.9678e-05	629.53	203.67	8.8741e-05	9.9304e-05	168.03	53.727	70.924	29.288	9.4739e-05	24.022	173.376	84.273	54.429	-33.523	44.046	96.229	-34.800	-27.528	33.229	133.510	-30.729	-25.107	-21.563	-16.515	91.981	-22.015	-8191	255	
1076.902	1	1	0	0	0.15466	0.10597	0.043044	0.39888	0.17471	0.01861	0.098823	0.42434	0.1334	0.22202	0.060456	0.25924	0.13399	0.014027	0.046798	0.27945	0.17292	0.41875	0.4375	-0.44375	0.54792	0.22292	-0.26667	0.74375	-0.23958	0.19375	0.41458	-0.26667	0.54167	-0.010417	-0.21875	0.40417	267.245	110.163	11.841	-31.260	247.582	7.768	-41.165	277.795	25.762	-23.726	162.284	139.429	201.496	287.466	59.737	305.990	6.2629e-05	0.00073543	0.00016587	721.9	6.5909e-06	3.2779e-06	612.3	195.35	5.2687e-07	7.3559e-06	152.44	47.629	63.963	27.212	6.5798e-06	21.014	0.0051028	0.0088338	0.0024994	767.81	9.214e-05	9.9621e-05	630.99	203.5	8.8246e-05	9.7897e-05	166.94	53.552	70.709	29.178	9.1877e-05	23.684	140.251	32.452	188.759	-33.479	95.863	251.982	-34.581	-27.279	148.260	99.559	-30.398	-25.768	-22.518	-16.811	84.356	-21.450	-8191	255	
1076.998	1	1	0	0	0.042651	0.22519	0.080052	0.27552	0.22226	0.20565	0.1338	0.35004	0.11861	0.23288	0.18814	0.14807	0.22839	0.086574	0.050432	0.28136	0.22083	0.23542	0.48333	-0.24583	0.30208	0.3	-0.38542	0.49583	0.041667	-0.054167	0.44375	-0.12917	0.31458	0.33333	-0.15625	0.54167	204.707	246.232	40.589	6.865	253.883	186.725	241.858	235.450	246.490	90.789	217.174	-21.723	-29.210	251.716	107.631	233.792	9.7002e-05	0.00027985	8.4242e-05	713.26	2.2924e-06	3.5836e-06	607.32	194.74	3.5388e-06	8.1202e-06	149.77	47.842	64.662	27.535	1.1438e-05	21.623	0.0049448	0.0087412	0.0024253	764.78	8.9618e-05	9.7948e-05	627.72	203.04	8.5366e-05	9.5918e-05	165.9	53.598	71.052	29.443	9.0643e-05	23.842	194.838	148.867	15.278	-33.433	-15.086	94.128	-34.774	-27.215	116.490	49.515	-30.096	-25.634	-21.814	-16.483	103.043	-21.553	-8191	255	
1077.094	1	1	0	0	0.17526	0.19068	0.034258	0.08195	0.16405	0.29248	0.22769	0.15419	0.28634	0.01398	0.18808	0.19609	0.075616	0.19656	0.096254	0.13111	0.35208	0.075	0.66875	-0.22083	0.052083	0.36458	-0.33958	0.50208	0.085417	-0.16458	0.52083	-0.44375	0.12083	0.61875	-0.11875	0.4875	314.860	230.165	82.646	90.389	230.428	11.345	220.312	308.624	220.606	117.031	153.837	169.653	-22.375	-26.452	283.318	193.482	4.5955e-05	0.00039556	9.9918e-05	716.45	4.7714e-06	6.7636e-06	612.13	196.37	1.0422e-05	3.7369e-06	153.03	48.016	63.953	27.763	4.4135e-06	21.684	0.0048278	0.008677	0.0024162	763.45	8.9951e-05	9.6118e-05	630.49	203.49	8.4733e-05	9.5088e-05	166.97	53.616	70.893	29.547	8.9249e-05	24.051	140.419	162.798	43.389	-32.872	107.410	18.088	-34.603	-27.052	126.291	58.069	-30.750	-25.303	-22.058	-16.657	15.435	-21.607	-8191	255	
1077.189	1	1	0	0	0.16651	0.10399	0.20181	0.20792	0.11452	0.11619	0.36884	0.27311	0.097831	0.2291	0.26663	0.1598	0.16841	0.17852	0.29503	0.26949	0.8	-0.11458	0.65417	-0.13542	0.125	0.57708	-0.46458	0.32083	0.3875	-0.38333	0.70625	-0.10417	-0.010417	0.56875	-0.42708	0.43125	4.738	299.081	285.767	225.079	59.032	42.166	271.265	182.543	245.003	29.494	219.817	73.372	-34.626	-21.661	288.912	172.060	3.7431e-05	0.00063333	0.0003152	722.54	1.6344e-06	7.3079e-06	615.83	198.41	6.1885e-07	3.0132e-06	153.84	48.582	64.773	28.111	7.1618e-06	21.825	0.0048365	0.0083713	0.0023683	763.86	8.7242e-05	9.4811e-05	631.01	204.4	8.2209e-05	9.2594e-05	168.43	54.212	71.216	29.875	8.7179e-05	24.319	122.262	43.689	183.778	-33.685	49.431	86.327	-34.905	-27.063	238.490	27.507	-30.158	-25.409	-21.803	-16.578	136.549	-21.739	-8191	255	
1077.286	1	1	0	0	0.058893	0.16046	0.2238	0.31093	0.06887	0.17053	0.404	0.077017	0.20244	0.27336	0.23493	0.17276	0.39165	0.14684	0.069061	0.30309	0.65	-0.2875	0.45833	-0.052083	0.19583	0.57708	-0.39375	0.34167	0.52292	-0.29583	0.4375	0.20625	-0.125	0.56042	-0.31667	0.18958	246.171	-0.157	293.221	276.571	276.227	157.799	225.513	302.964	21.364	291.928	-27.393	145.328	246.977	-41.296	282.920	-7.356	9.6072e-06	0.0011823	0.0002273	719.61	5.0715e-06	6.1127e-06	616.05	197.88	5.6375e-06	8.1469e-06	154.17	48.343	63.859	27.874	4.8896e-06	21.672	0.0047808	0.0083789	0.002349	764.06	8.7848e-05	9.3829e-05	632.83	204.43	8.3295e-05	9.1879e-05	167.99	53.954	70.563	29.551	8.6829e-05	23.961	19.241	89.449	99.916	-33.704	83.797	301.822	-34.751	-27.214	217.893	112.967	-30.806	-25.204	-21.670	-16.455	142.184	-21.673	-8191	255	
1077.405	1	1	0	0	0.14341	0.1864	0.12996	0.029398	0.39194	0.12759	0.36223	0.28604	0.061989	0.15683	0.19677	0.083185	0.22788	0.15385	0.27798	0.26684	0.76875	-0.10833	0.58542	0.075	-0.14583	0.65208	-0.05	0.25	0.7375	0.04375	0.36875	0.37708	-0.19583	0.65833	-0.09375	0.0125	113.861	122.828	61.019	159.231	191.599	102.208	176.707	293.169	5.415	228.338	279.925	198.566	207.319	287.796	235.815	143.544	6.8355e-05	0.0004002	0.00013943	714.12	4.9247e-06	3.5505e-06	605.86	197.66	6.8265e-06	1.0146e-05	154.29	47.238	63.288	27.613	5.6084e-06	21.257	0.0047526	0.0082475	0.0022968	757.2	8.5932e-05	9.2987e-05	622.84	203.41	8.1119e-05	9.1245e-05	166.59	52.85	69.895	29.263	8.6103e-05	23.591	193.852	33.995	281.857	-33.477	138.970	173.162	-34.812	-27.211	28.391	188.194	-29.995	-25.220	-22.132	-16.290	104.201	-22.201	-8191	255	
1077.501	1	1	0	0	0.085747	0.23472	0.26638	0.20202	0.11015	0.18028	0.074786	0.066141	0.14811	0.11491	0.3197	0.1608	0.26666	0.10245	0.43818	0.10162	0.98958	-0.24167	0.31458	0.27292	-0.066667	0.575	-0.022917	-0.2375	0.53125	-0.28958	0.275	0.3875	-0.225	0.50625	0.0041667	-0.03125	276.199	56.168	15.246	239.896	17.936	299.086	16.227	15.850	294.900	247.590	91.335	229.780	-15.628	59.768	253.049	148.884	1.3718e-05	0.00060292	0.00017148	715.6	9.6931e-06	5.8418e-06	606.8	195.55	2.9164e-06	8.9209e-06	153.13	47.566	63.557	27.582	7.5897e-06	21.468	0.0047319	0.0081805	0.0022664	756.07	8.4659e-05	9.1645e-05	622.14	202.8	7.9968e-05	8.9535e-05	166.86	52.969	69.757	29.251	8.5955e-05	23.745	30.521	49.789	86.375	-33.346	137.858	141.280	-35.018	-27.083	-23.797	25.654	-30.354	-25.467	-21.309	-16.917	309.960	-21.715	-8191	255	
1077.598	1	1	0	0	0.1819	0.088579	0.36419	0.12523	0.12156	0.057391	0.10798	0.24659	0.28875	0.14804	0.23739	0.1341	0.21451	0.22672	0.099296	0.29683	1.0063	0.00625	0.17917	0.41042	-0.30208	0.59167	-0.15208	-0.097917	0.74375	-0.14375	0.25417	0.42083	-0.33958	0.52292	0.10833	-0.095833	275.323	46.311	127.586	-1.517	147.931	114.917	0.902	266.782	241.996	240.310	256.290	108.021	222.179	288.296	-25.021	296.171	8.2007e-05	0.00059984	0.00033432	714.61	2.3545e-06	8.5713e-06	607.34	197.1	2.6662e-06	9.4187e-06	154.62	47.539	63.849	27.786	3.2582e-06	21.598	0.0046871	0.0082067	0.002277	752.75	8.7297e-05	9.2587e-05	624.69	204.16	8.355e-05	9.3573e-05	169.12	53.704	70.594	29.452	9.0128e-05	24.101	123.351	169.367	-14.682	-33.044	200.213	159.062	-34.889	-26.906	135.729	88.574	-29.986	-25.498	-22.195	-17.003	140.593	-21.333	-8191	255	
1077.694	1	1	0	0	0.20734	0.26151	0.053458	0.11453	0.19133	0.18895	0.085012	0.37311	0.324	0.1875	0.13177	0.26532	0.25484	0.059387	0.068647	0.16897	0.95833	-0.1375	0.077083	0.5875	-0.31458	0.3	0.2	-0.39792	0.65	-0.11458	-0.12917	0.41667	-0.18125	0.35208	0.32083	-0.33542	168.586	265.673	187.197	270.379	24.954	167.959	213.809	291.681	307.010	76.569	285.741	302.209	232.829	224.263	173.513	147.668	0.00015635	0.0012362	0.00010157	710.61	8.5727e-06	2.2849e-06	609.22	197.42	1.4931e-06	6.8149e-06	153.8	47.272	64.07	27.553	7.8201e-06	21.072	0.0049228	0.0085375	0.0024077	760.03	9.1004e-05	9.72e-05	630.31	205.29	8.7087e-05	9.6973e-05	169.48	53.703	71.012	29.341	9.2799e-05	23.843	213.476	-3.784	264.786	-33.315	116.907	168.105	-34.868	-27.350	68.281	145.971	-30.596	-25.660	-21.859	-17.091	156.271	-21.686	-8191	255	
#DATA ENDS
