BOXY.EXE: ISS Imagent and Oximeter Data Acquisition Program Version 0.80
Ascii Record File

#ACQ INFORMATION
2  Detector Channels 
16  External MUX Channels 
1  Auxiliary Channels 
5000  Waveform (CCF) Frequency (Hz)
1  Waveforms Skipped 
30  Waveforms Averaged 
1  Cycles Averaged 
16  Acquisitions per Waveform 
10.0806  Updata Rate (Hz) 

#FILE INFORMATION
TRUE -- External MUX Channel results are PARSED.
FALSE -- AC DC and Phase are NOT grouped.
TRUE -- Companion Program Settings File CREATED.
FALSE -- AC data not excluded
FALSE -- DC data not excluded
FALSE -- Phase data not excluded
FALSE -- Auxillary Chn. data not excluded
Tab delimiters

#CALIBRATION STATE
TRUE -- Waveform Calibration Values APPLIED.


#AUX CALIBRATION VALUES
Val Type	aux-1	

Term	1.0000e+00	
Factor	0.0000e+00	


#WF CALIBRATION VALUES
A = Detector Channel
Val Type	A-AC1	A-AC2	A-AC3	A-AC4	A-AC5	A-AC6	A-AC7	A-AC8	A-AC9	A-AC10	A-AC11	A-AC12	A-AC13	A-AC14	A-AC15	A-AC16	A-DC1	A-DC2	A-DC3	A-DC4	A-DC5	A-DC6	A-DC7	A-DC8	A-DC9	A-DC10	A-DC11	A-DC12	A-DC13	A-DC14	A-DC15	A-DC16	A-Ph1	A-Ph2	A-Ph3	A-Ph4	A-Ph5	A-Ph6	A-Ph7	A-Ph8	A-Ph9	A-Ph10	A-Ph11	A-Ph12	A-Ph13	A-Ph14	A-Ph15	A-Ph16	

Term	0.00000e+00	0.00000e+00	0.00000e+00	0.00000e+00	0.00000e+00	0.00000e+00	0.00000e+00	0.00000e+00	0.00000e+00	0.00000e+00	0.00000e+00	0.00000e+00	0.00000e+00	0.00000e+00	0.00000e+00	0.00000e+00	0.00000e+00	0.00000e+00	0.00000e+00	0.00000e+00	0.00000e+00	0.00000e+00	0.00000e+00	0.00000e+00	0.00000e+00	0.00000e+00	0.00000e+00	0.00000e+00	0.00000e+00	0.00000e+00	0.00000e+00	0.00000e+00	0.00000e+00	0.00000e+00	0.00000e+00	0.00000e+00	0.00000e+00	0.00000e+00	0.00000e+00	0.00000e+00	0.00000e+00	0.00000e+00	0.00000e+00	0.00000e+00	0.00000e+00	0.00000e+00	0.00000e+00	0.00000e+00	
Factor	1.00000e+00	1.00000e+00	1.00000e+00	1.00000e+00	1.00000e+00	1.00000e+00	1.00000e+00	1.00000e+00	1.00000e+00	1.00000e+00	1.00000e+00	1.00000e+00	1.00000e+00	1.00000e+00	1.00000e+00	1.00000e+00	1.00000e+00	1.00000e+00	1.00000e+00	1.00000e+00	1.00000e+00	1.00000e+00	1.00000e+00	1.00000e+00	1.00000e+00	1.00000e+00	1.00000e+00	1.00000e+00	1.00000e+00	1.00000e+00	1.00000e+00	1.00000e+00	X	X	X	X	X	X	X	X	X	X	X	X	X	X	X	X	

B = Detector Channel
Val Type	B-AC1	B-AC2	B-AC3	B-AC4	B-AC5	B-AC6	B-AC7	B-AC8	B-AC9	B-AC10	B-AC11	B-AC12	B-AC13	B-AC14	B-AC15	B-AC16	B-DC1	B-DC2	B-DC3	B-DC4	B-DC5	B-DC6	B-DC7	B-DC8	B-DC9	B-DC10	B-DC11	B-DC12	B-DC13	B-DC14	B-DC15	B-DC16	B-Ph1	B-Ph2	B-Ph3	B-Ph4	B-Ph5	B-Ph6	B-Ph7	B-Ph8	B-Ph9	B-Ph10	B-Ph11	B-Ph12	B-Ph13	B-Ph14	B-Ph15	B-Ph16	

Term	0.00000e+00	0.00000e+00	0.00000e+00	0.00000e+00	0.00000e+00	0.00000e+00	0.00000e+00	0.00000e+00	0.00000e+00	0.00000e+00	0.00000e+00	0.00000e+00	0.00000e+00	0.00000e+00	0.00000e+00	0.00000e+00	0.00000e+00	0.00000e+00	0.00000e+00	0.00000e+00	0.00000e+00	0.00000e+00	0.00000e+00	0.00000e+00	0.00000e+00	0.00000e+00	0.00000e+00	0.00000e+00	0.00000e+00	0.00000e+00	0.00000e+00	0.00000e+00	-2.13723e+02	-1.41593e+02	-1.27316e+02	-1.82794e+02	-7.62647e+01	-6.59945e+01	-1.59761e+02	-1.62015e+02	-7.53054e+01	-7.44318e+01	-1.73616e+02	-1.70170e+02	-1.81260e+02	-1.77206e+02	-7.31111e+01	-1.49760e+02	
Factor	4.16295e-05	1.17231e-04	3.50628e-05	1.64734e-01	1.28751e-06	1.54204e-06	1.47184e-01	4.12149e-02	1.81911e-06	1.33572e-06	9.52221e-02	2.38390e-02	3.04876e-02	7.01546e-03	1.41733e-06	9.91543e-03	5.25627e-06	6.12416e-06	1.70953e-06	9.15001e-02	6.56472e-08	6.77175e-08	7.64599e-02	2.29259e-02	6.50200e-08	6.78082e-08	5.11528e-02	1.28320e-02	1.70617e-02	3.94400e-03	6.63377e-08	5.38573e-03	X	X	X	X	X	X	X	X	X	X	X	X	X	X	X	X	



#DISTANCE SETTINGS
A = Detector Channel
A-1	A-2	A-3	A-4	A-5	A-6	A-7	A-8	A-9	A-10	A-11	A-12	A-13	A-14	A-15	A-16	

2.5000e+00	3.0000e+00	2.5000e+00	3.0000e+00	2.0000e+00	3.0000e+00	1.5000e+00	3.0000e+00	3.0000e+00	3.0000e+00	3.0000e+00	3.0000e+00	3.0000e+00	3.0000e+00	1.5000e+00	3.0000e+00	

B = Detector Channel
B-1	B-2	B-3	B-4	B-5	B-6	B-7	B-8	B-9	B-10	B-11	B-12	B-13	B-14	B-15	B-16	

1.0000e+01	1.0000e+01	1.0000e+01	1.4400e+00	1.0000e+01	1.0000e+01	1.5100e+00	1.9400e+00	1.0000e+01	1.0000e+01	1.9900e+00	2.4900e+00	2.4100e+00	2.9000e+00	1.0000e+01	2.9800e+00	




#DATA BEGINS
time	group	step	mark	flag	A-AC1	A-AC2	A-AC3	A-AC4	A-AC5	A-AC6	A-AC7	A-AC8	A-AC9	A-AC10	A-AC11	A-AC12	A-AC13	A-AC14	A-AC15	A-AC16	A-DC1	A-DC2	A-DC3	A-DC4	A-DC5	A-DC6	A-DC7	A-DC8	A-DC9	A-DC10	A-DC11	A-DC12	A-DC13	A-DC14	A-DC15	A-DC16	A-Ph1	A-Ph2	A-Ph3	A-Ph4	A-Ph5	A-Ph6	A-Ph7	A-Ph8	A-Ph9	A-Ph10	A-Ph11	A-Ph12	A-Ph13	A-Ph14	A-Ph15	A-Ph16	B-AC1	B-AC2	B-AC3	B-AC4	B-AC5	B-AC6	B-AC7	B-AC8	B-AC9	B-AC10	B-AC11	B-AC12	B-AC13	B-AC14	B-AC15	B-AC16	B-DC1	B-DC2	B-DC3	B-DC4	B-DC5	B-DC6	B-DC7	B-DC8	B-DC9	B-DC10	B-DC11	B-DC12	B-DC13	B-DC14	B-DC15	B-DC16	B-Ph1	B-Ph2	B-Ph3	B-Ph4	B-Ph5	B-Ph6	B-Ph7	B-Ph8	B-Ph9	B-Ph10	B-Ph11	B-Ph12	B-Ph13	B-Ph14	B-Ph15	B-Ph16	aux-1	digaux	

1463.686	1	1	0	768	0.27558	0.25455	0.19451	0.30643	0.079861	0.049705	0.2753	0.36464	0.15565	0.28261	0.1815	0.46602	0.22322	0.24221	0.10312	0.12494	-1.9729	-1.425	-1.925	-2.2083	-1.3792	-2.0646	-2.1292	-1.9229	-2.3333	-1.5438	-1.9917	-2.125	-1.5771	-2.3937	-1.9604	-1.7062	260.054	214.722	27.624	330.109	249.762	42.589	290.672	325.982	24.082	39.305	269.446	308.739	240.421	287.115	250.240	288.296	0.00073988	0.00029352	0.00016695	1365.1	3.9797e-06	8.7418e-06	1365.8	366.9	1.0383e-05	3.3542e-06	417.22	139.95	121.42	41.599	5.4153e-06	51.786	0.00060194	0.00060225	0.00016739	1385	6.5163e-06	6.6178e-06	1382.6	373.72	6.4473e-06	6.6602e-06	427.4	143.39	124.64	42.949	6.6617e-06	53.424	57.173	68.250	87.783	-0.161	183.879	105.975	-0.231	4.769	142.495	131.325	4.219	8.370	9.139	13.562	142.986	12.799	-8191	255	
1463.782	1	1	0	0	0.095232	0.15722	0.052863	0.40451	0.15348	0.11502	0.2708	0.22576	0.15054	0.10836	0.090143	0.19361	0.16916	0.20573	0.087646	0.21625	-1.9042	-1.5896	-1.8667	-2.3958	-1.4896	-2.2042	-2.2146	-1.6708	-2.3438	-1.8312	-1.875	-2.4208	-1.7104	-2.2687	-2.2583	-1.5958	323.299	338.605	3.943	253.787	296.815	314.784	338.111	291.602	148.961	254.213	-2.581	126.711	345.619	27.275	170.399	291.851	0.0005829	0.00034505	0.00019269	1362.5	1.8038e-06	1.9215e-06	1358.3	367.35	7.5629e-06	4.4612e-06	419.33	139.91	122.16	42.027	6.8016e-06	51.673	0.0005945	0.00060553	0.0001687	1381.7	6.6863e-06	6.3949e-06	1379.1	373.8	6.6789e-06	6.756e-06	427.57	143.36	124.55	43.009	6.8103e-06	53.228	44.974	53.016	59.705	-0.132	157.326	109.094	0.052	5.064	135.321	101.863	4.248	8.660	9.393	13.724	99.692	13.010	-8191	255	
1463.880	1	1	0	0	0.42266	0.16617	0.34296	0.49742	0.20013	0.1617	0.24571	0.48366	0.27163	0.074346	0.15821	0.15009	0.035705	0.33972	0.12832	0.18562	-1.9292	-1.8292	-1.5979	-2.4396	-1.3354	-2.0792	-2.25	-1.625	-2.1063	-1.8	-1.6292	-2.4	-1.4208	-2.0438	-2.0854	-1.5292	306.638	178.876	199.183	318.644	87.804	134.431	262.999	310.972	226.821	179.739	207.017	-6.346	194.682	300.331	276.177	240.687	0.00072816	0.00038485	6.7786e-05	1357.9	2.7944e-06	4.2439e-06	1362.4	365.82	9.1187e-06	5.9352e-06	417.31	140.24	121.8	41.888	4.933e-06	51.681	0.00062715	0.0006248	0.00017316	1380.3	6.7223e-06	6.9089e-06	1382.8	372.9	6.828e-06	6.9222e-06	426.42	143.65	124.71	42.963	6.8769e-06	53.222	52.787	109.094	124.384	0.214	142.937	128.665	0.047	5.111	179.097	138.239	4.580	8.540	9.341	13.992	133.233	13.043	-8191	255	
1463.975	1	1	0	0	0.24292	0.23348	0.3458	0.10873	0.39945	0.22369	0.1785	0.30418	0.23095	0.056102	0.1962	0.3441	0.30836	0.14916	0.2162	0.066327	-1.6542	-1.9875	-1.525	-2.5938	-1.4146	-1.7583	-2.5896	-1.5812	-2.2313	-1.8958	-1.6208	-2.3292	-1.6688	-1.7979	-1.9917	-1.5625	31.282	5.291	232.501	342.262	13.918	270.082	232.345	278.989	205.360	312.504	262.969	313.412	312.389	327.187	121.845	187.133	0.00063333	0.00064287	4.3554e-05	1361.8	4.6554e-06	4.6576e-06	1361	366.3	6.6591e-06	1.1003e-06	417.3	139.83	122.23	41.659	8.4542e-06	51.714	0.00061104	0.00062848	0.00017201	1381.1	6.8426e-06	6.7012e-06	1380.7	373.14	6.6557e-06	6.8386e-06	426.99	143.25	124.6	42.877	6.7945e-06	53.138	61.522	47.126	119.697	-0.084	99.063	129.660	0.145	4.920	137.138	167.329	4.464	8.364	9.463	13.850	143.126	12.952	-8191	255	
1464.071	1	1	0	0	0.027427	0.21843	0.098938	0.30786	0.082036	0.31264	0.18499	0.29187	0.19721	0.29178	0.23154	0.31003	0.13773	0.066174	0.052731	0.26375	-1.7479	-1.8083	-1.4604	-2.4542	-1.6146	-1.6917	-2.5938	-1.6708	-2.2333	-2.0563	-1.5667	-2.3937	-1.7229	-1.7333	-2.2104	-1.65	23.637	159.388	89.062	-12.469	106.616	13.327	224.633	294.010	224.436	307.580	268.548	276.807	234.672	8.019	294.264	18.548	0.00060446	0.00062032	0.00018238	1362.2	7.261e-06	8.0135e-06	1355	366.27	7.1798e-06	5.4864e-06	415.66	140.32	121.5	41.465	5.3884e-06	51.306	0.00061979	0.00063235	0.00017914	1380.4	7.0939e-06	7.0454e-06	1378.6	372.71	6.9248e-06	6.995e-06	426.07	143.47	124.27	42.779	7.1808e-06	53.01	49.977	75.350	78.597	0.166	115.878	138.925	-0.006	4.843	98.245	129.499	4.265	8.276	8.936	13.425	127.803	12.503	-8191	255	
1464.167	1	1	0	0	0.33876	0.12624	0.21044	0.29183	0.1317	0.17688	0.50355	0.011035	0.17246	0.32544	0.30955	0.18764	0.2494	0.24048	0.047145	0.15002	-1.6271	-1.9604	-1.1938	-2.3271	-1.7687	-1.5729	-2.4396	-1.6229	-1.8958	-2.1354	-1.3771	-2.3417	-1.9083	-1.5021	-2.1479	-1.5771	170.257	95.736	139.703	273.021	-10.557	244.430	300.304	79.169	283.417	284.274	171.301	-7.315	269.197	306.334	43.334	166.326	0.00068462	0.00061113	0.00017684	1357.9	6.2946e-06	8.0842e-06	1355.8	364.77	8.1232e-06	7.5675e-06	417.12	138.82	121.51	41.333	4.8203e-06	51.135	0.00064909	0.00065441	0.00018889	1378.8	7.1509e-06	7.1343e-06	1375.1	371.38	7.2677e-06	7.4073e-06	425.87	142.41	124.06	42.613	7.3954e-06	52.734	52.174	39.041	70.229	-0.187	148.563	129.891	-0.038	4.621	114.401	127.948	4.005	8.389	9.342	13.820	119.286	12.693	-8191	255	
1464.288	1	1	0	0	0.26806	0.36504	0.18549	0.31897	0.082879	0.062176	0.17982	0.38593	0.22842	0.068464	0.16734	0.19442	0.25627	0.15529	0.20068	0.26239	-1.5312	-2.1979	-1.3479	-2.3729	-1.8583	-1.4875	-2.4417	-1.7563	-1.5417	-2.2146	-1.4	-2.2292	-2.0771	-1.6146	-2.0563	-1.9042	324.419	132.687	100.322	-8.183	-0.310	81.513	306.914	321.175	6.079	253.519	144.312	323.707	322.534	319.156	113.448	297.369	0.00069778	0.00056553	0.0001328	1355.1	2.5106e-06	7.7372e-06	1349.8	364.95	7.6799e-06	8.0701e-06	416.56	139	121.2	41.15	5.9774e-06	51.258	0.00066605	0.00067636	0.00019168	1376.4	7.4538e-06	7.4034e-06	1374	371.62	7.3599e-06	7.5719e-06	425.29	142.49	123.77	42.509	7.4174e-06	52.793	53.108	36.583	59.556	0.198	155.726	110.182	0.131	4.890	148.958	119.073	4.424	8.887	9.402	13.763	146.043	13.067	-8191	255	
1464.384	1	1	0	0	0.13433	0.20081	0.15537	0.33569	0.18323	0.2224	0.21451	0.34054	0.14736	0.043389	0.2576	0.16829	0.10708	0.1926	0.16498	0.086097	-1.5771	-2.3063	-1.65	-2.2875	-1.9521	-1.3625	-2.4042	-1.9292	-1.65	-2.2271	-1.6146	-2.0083	-2.1917	-1.7604	-2.1583	-2	203.465	153.476	78.259	329.471	241.096	200.784	344.099	281.712	101.648	84.818	242.981	315.111	162.814	336.619	233.235	-4.318	0.00057557	0.00072669	0.00016704	1353.5	3.3066e-06	1.0517e-05	1356.3	363.75	6.4205e-06	3.6118e-06	415.63	139.33	121.43	41.343	4.3551e-06	51.356	0.00065689	0.00067914	0.00019104	1375.1	7.3696e-06	7.3945e-06	1376.1	371.19	7.3916e-06	7.3459e-06	425.39	142.33	124.15	42.636	7.3569e-06	52.794	56.840	52.694	73.914	0.179	106.991	136.162	0.033	4.992	154.056	109.636	3.975	8.532	9.391	13.445	167.784	12.615	-8191	255	
1464.480	1	1	0	0	0.085443	0.12109	0.20634	0.21317	0.14128	0.17673	0.14435	0.11048	0.25955	0.18146	0.14039	0.13863	0.1729	0.32946	0.006547	0.053743	-1.1021	-2.2354	-1.4813	-2.1583	-2.2646	-1.4646	-2.1708	-2.2083	-1.3604	-2.35	-1.6708	-1.8083	-2.1625	-1.3958	-1.9792	-1.9667	173.382	65.297	282.975	306.458	60.811	14.810	-12.172	268.692	53.017	15.154	234.176	239.796	315.017	302.806	45.880	60.184	0.00070792	0.00044881	0.00024188	1355.5	3.9407e-06	5.7774e-06	1354.7	364.07	9.7082e-06	4.1911e-06	417.04	139.43	121.43	41.476	3.8359e-06	51.429	0.0006614	0.00065981	0.00018251	1377.7	7.0699e-06	7.0943e-06	1375.9	371.81	7.1357e-06	7.2446e-06	425.78	142.8	124.4	42.772	7.0939e-06	52.959	43.272	64.243	108.724	-0.072	74.823	153.662	-0.275	4.487	143.748	110.593	4.029	8.133	8.912	13.390	201.236	12.509	-8191	255	
1464.576	1	1	0	0	0.18247	0.047316	0.34852	0.31641	0.13501	0.10174	0.28223	0.36915	0.31402	0.11276	0.30091	0.22906	0.18814	0.31703	0.10925	0.066418	-1.1417	-2.3729	-1.6917	-1.9562	-2.2083	-1.4354	-2.3104	-2.1229	-1.4417	-2.3271	-1.7833	-1.5479	-2.4938	-1.6292	-1.9208	-2.1604	281.174	5.054	269.482	282.441	152.471	15.801	298.331	282.664	101.540	298.700	339.322	230.560	326.110	317.033	190.047	220.611	0.00061958	0.00066876	0.00020006	1358.4	6.3569e-06	2.1752e-06	1355.2	365.27	1.259e-05	6.0253e-06	415.35	138.99	121.36	41.546	5.3409e-06	51.432	0.0006424	0.00064764	0.0001818	1378.7	7.0686e-06	7.2379e-06	1375.3	371.81	7.0446e-06	7.2082e-06	425.01	142.77	124.11	42.776	7.1038e-06	52.938	42.825	37.510	72.529	-0.068	137.375	148.107	-0.299	4.390	177.515	145.444	3.669	8.306	9.256	13.340	138.076	12.513	-8191	255	
1464.672	1	1	0	0	0.049935	0.16526	0.18302	0.23443	0.18619	0.1001	0.39997	0.2172	0.25307	0.11943	0.31861	0.052165	0.42418	0.26398	0.13397	0.35359	-0.8375	-2.2729	-1.5979	-1.6	-2.2646	-1.6437	-2.1771	-2.2979	-1.4354	-2.1875	-1.7417	-1.7646	-2.4729	-1.6083	-1.7458	-2.3083	26.693	161.988	212.693	324.328	142.329	270.765	294.964	320.105	37.063	16.178	293.178	-1.689	-4.352	34.539	338.200	334.444	0.00068823	0.00044865	0.00015308	1359	7.0629e-06	2.6853e-06	1355.8	365.65	1.8501e-06	8.3211e-06	414.86	138.7	120.81	41.041	2.8037e-06	51.196	0.00065365	0.00065492	0.00018204	1375.5	7.2086e-06	7.3406e-06	1375.1	371.86	7.2763e-06	7.2373e-06	424.47	142.2	123.84	42.384	7.3831e-06	52.781	49.540	92.326	108.120	-0.146	134.154	101.799	-0.224	4.605	147.760	137.273	3.918	8.459	8.934	13.450	176.871	12.567	-8191	255	
1464.767	1	1	0	0	0.028782	0.22728	0.12738	0.49971	0.11107	0.084549	0.41945	0.22389	0.1025	0.17224	0.26562	0.42267	0.28033	0.23981	0.13212	0.19764	-1.0833	-2.1167	-1.9667	-1.7375	-2.4042	-1.5542	-1.8542	-2.3958	-1.3438	-2.1688	-2.2104	-1.55	-2.4604	-1.85	-1.625	-2.3771	19.802	130.019	237.518	327.023	285.370	233.973	290.359	52.119	178.746	108.016	-12.193	295.797	312.869	323.609	132.913	328.135	0.00060546	0.00065481	0.00018676	1354.2	3.9242e-06	7.1115e-06	1356.8	363.81	8.7613e-06	5.1448e-06	416.45	139.65	121.67	41.607	6.5997e-06	51.705	0.00065259	0.00066183	0.00018569	1374.6	7.1223e-06	7.2679e-06	1375.2	371.5	7.1452e-06	7.07e-06	425.57	142.95	124.64	42.854	6.9308e-06	53.256	53.648	47.107	53.640	0.140	137.017	136.229	-0.174	4.579	127.829	126.727	4.219	8.288	8.851	13.071	145.660	12.748	-8191	255	
1464.887	1	1	0	0	0.22668	0.17276	0.041162	0.22337	0.19201	0.28401	0.2124	0.15992	0.14943	0.13141	0.18323	0.14591	0.35678	0.35269	0.16552	0.37552	-0.96875	-1.8438	-1.9646	-1.5646	-2.2896	-1.7896	-1.8708	-2.55	-1.4125	-1.8854	-2.1729	-1.5375	-2.1813	-1.9083	-1.5333	-2.3396	47.022	189.867	128.131	284.132	199.944	96.652	214.865	-9.542	90.026	179.015	203.323	23.940	104.413	63.687	202.208	307.571	0.00075402	0.00074085	0.00017076	1360.8	7.688e-06	6.4078e-06	1356.7	367.56	7.003e-06	6.3134e-06	419.05	140.28	122.29	41.726	4.9097e-06	51.473	0.00060518	0.00060861	0.0001727	1382.6	6.6881e-06	6.8049e-06	1380.2	374.37	6.5949e-06	6.6595e-06	427.38	143.64	125.12	42.98	6.6723e-06	53.251	50.584	65.088	68.663	-0.191	110.534	160.906	-0.354	4.508	157.572	129.228	4.178	8.351	9.115	13.369	109.351	12.743	-8191	255	
1464.983	1	1	0	0	0.19382	0.22794	0.2096	0.30942	0.079836	0.23257	0.38882	0.1872	0.22018	0.29297	0.068925	0.28136	0.23972	0.30117	0.015871	0.070641	-0.95	-1.6792	-2.1229	-1.4521	-2.0667	-1.7458	-1.7812	-2.4854	-1.5438	-1.7042	-2.1208	-1.5521	-2.1958	-1.9521	-1.5167	-2.3521	296.004	0.259	242.855	-5.092	-9.322	19.616	262.668	-0.141	169.002	253.760	293.661	270.056	105.142	-4.649	126.371	-0.970	0.00066141	0.00060186	0.00013202	1359.1	7.2635e-06	1.0207e-05	1363.9	367.21	9.1565e-06	6.2683e-06	416.72	141.24	122.33	41.99	5.891e-06	52.036	0.0005919	0.00059112	0.00016485	1382.1	6.5156e-06	6.4373e-06	1380.9	374.46	6.3285e-06	6.4972e-06	427.48	144.09	125.02	43.117	6.3648e-06	53.482	51.365	48.693	56.879	-0.212	122.458	120.672	-0.019	4.660	121.426	147.147	3.828	8.562	9.098	13.619	121.684	12.945	-8191	255	
1465.080	1	1	0	0	0.13362	0.19936	0.065642	0.54169	0.082659	0.032306	0.10315	0.3433	0.036082	0.071535	0.15041	0.44032	0.063355	0.070443	0.02001	0.19837	-1.1292	-1.7458	-2.4125	-1.4604	-1.9917	-1.9125	-1.6521	-2.3521	-1.6354	-1.6875	-2.4625	-1.5063	-2.0708	-2.1833	-1.3937	-2.4292	301.190	51.156	294.228	315.464	28.768	149.871	274.346	274.840	0.209	-2.922	342.060	301.242	235.540	278.222	66.205	251.175	0.00063809	0.00049623	0.00013541	1356.8	4.9029e-06	4.0437e-06	1355.7	367.9	8.3059e-06	2.765e-06	419.52	140.61	121.45	41.591	3.9605e-06	51.659	0.000562	0.00056011	0.00015836	1379.7	6.1821e-06	6.1914e-06	1378.6	374.22	6.2939e-06	6.2604e-06	427.59	143.55	124.51	42.863	6.427e-06	53.086	50.159	43.164	74.251	-0.196	147.988	144.359	-0.109	4.857	137.690	79.038	3.637	8.532	9.316	13.280	173.611	12.934	-8191	255	
1465.176	1	1	0	0	0.159	0.32379	0.34026	0.25313	0.080619	0.17046	0.36259	0.32106	0.15281	0.16439	0.23095	0.13956	0.16749	0.12995	0.23259	0.25414	-1.3	-1.4875	-2.2708	-1.7563	-2.0292	-2.0438	-1.5771	-2.3771	-1.8583	-1.4917	-2.2479	-1.7917	-2.0833	-2.3104	-1.35	-2.3667	169.562	248.805	257.864	0.685	123.395	50.008	303.351	280.287	1.731	78.398	307.597	269.955	342.733	9.621	274.448	270.864	0.00068444	0.00038025	0.00013623	1356.5	7.2339e-06	5.7727e-06	1356.8	365.67	5.8536e-06	2.6486e-06	417.6	140.09	122.04	41.444	5.1328e-06	51.674	0.00060281	0.00060585	0.00016929	1376.1	6.6886e-06	6.7794e-06	1375.8	372.83	6.7716e-06	6.8404e-06	426.51	143.39	124.91	42.881	6.632e-06	53.309	48.634	92.047	79.184	-0.044	101.940	120.690	0.090	4.654	197.214	110.448	4.200	8.290	9.200	13.548	134.171	12.689	-8191	255	
1465.247	1	1	0	0	0.11541	0.19081	0.21422	0.30128	0.14085	0.15839	0.14473	0.35425	0.20586	0.197	0.12644	0.16566	0.22496	0.10692	0.17288	0.33125	-1.3312	-1.3937	-2.2417	-1.7687	-1.8958	-2.1458	-1.5688	-2.375	-2.0563	-1.5042	-2.3646	-1.7208	-1.8917	-2.4437	-1.2542	-2.3438	202.778	23.491	323.439	314.480	196.993	2.334	227.923	280.447	42.336	11.465	267.407	284.882	331.729	9.472	23.922	269.344	0.00077235	0.00024974	8.0206e-05	1362	4.2074e-06	5.5542e-06	1362.4	367.95	4.4745e-06	4.7349e-06	420.34	140.32	122.48	41.842	4.2584e-07	51.535	0.0006119	0.00060336	0.00017017	1382	6.4806e-06	6.5562e-06	1382.8	374.8	6.5162e-06	6.4826e-06	428.85	144.05	125.01	42.986	6.4953e-06	53.211	61.207	23.114	36.738	-0.043	112.175	121.134	0.092	4.792	82.301	121.218	4.357	8.569	9.117	13.707	227.337	12.935	-8191	255	
1465.368	1	1	0	0	0.22941	0.1994	0.1048	0.34301	0.13629	0.095542	0.34829	0.29279	0.012245	0.21439	0.045601	0.24735	0.19733	0.35867	0.26231	0.083027	-1.7604	-1.3625	-2.2062	-1.8958	-1.6667	-2.2729	-1.4729	-2.0708	-2.0333	-1.3917	-2.5125	-2.0563	-1.6583	-2.5646	-1.4062	-2.1479	148.457	248.693	234.919	324.492	60.495	180.747	329.159	314.759	202.896	93.373	282.126	128.505	35.479	16.503	15.087	247.499	0.00064547	0.00057361	3.5025e-05	1355.2	5.3645e-06	2.4045e-06	1353.7	365.1	8.6115e-06	5.0107e-06	417.51	138.86	120.78	41.554	8.432e-06	51.329	0.00059531	0.00060509	0.00016773	1377.8	6.6231e-06	6.6422e-06	1375.5	372.33	6.7308e-06	6.8188e-06	425.92	142.54	123.97	42.716	6.8455e-06	52.836	53.923	76.925	36.538	0.215	125.206	217.833	0.101	4.870	138.537	137.258	3.901	8.528	9.465	13.694	162.248	12.849	-8191	255	
1465.464	1	1	0	0	0.2039	0.010786	0.01926	0.25399	0.12712	0.22306	0.33313	0.20219	0.065722	0.13764	0.35045	0.28254	0.11335	0.35528	0.1057	0.38281	-1.6021	-1.4208	-2.15	-1.8958	-1.5625	-2.2333	-1.8146	-2.0479	-2.1917	-1.4958	-2.4333	-1.9	-1.6354	-2.3187	-1.7104	-1.9562	170.403	14.471	305.979	282.148	92.591	194.078	284.338	266.679	-5.478	322.713	274.158	280.175	266.918	342.917	55.765	260.246	0.00070185	0.00059334	0.00025354	1353.3	7.0078e-06	5.1169e-06	1358.8	363.74	6.8443e-06	4.9952e-06	414.96	139.14	121.08	41.499	6.465e-06	51.391	0.000627	0.00063134	0.00017958	1376.8	7.0092e-06	6.8248e-06	1375.7	371.19	6.9092e-06	6.8122e-06	424.43	142.46	123.83	42.807	6.7735e-06	52.957	51.751	37.119	52.219	-0.109	104.468	178.904	-0.030	4.971	98.015	147.871	4.423	8.838	9.314	13.755	143.676	13.054	-8191	255	
1465.560	1	1	0	0	0.24113	0.34286	0.17676	0.16387	0.12189	0.1177	0.1658	0.32671	0.27635	0.025991	0.081676	0.19539	0.070735	0.077013	0.1173	0.25499	-1.7521	-1.4875	-2.1333	-2.1146	-1.5271	-2.4188	-1.9208	-1.7292	-2.3833	-1.3125	-2.1104	-2.1396	-1.4188	-2.3563	-1.6375	-1.7208	340.436	36.659	268.755	248.043	157.018	271.934	334.329	332.632	37.985	37.208	170.166	339.509	276.940	32.965	9.150	205.978	0.00061181	0.00066878	0.00010581	1362.7	6.4169e-06	4.7762e-06	1358.2	365.59	2.7754e-06	5.7298e-06	416.97	139.97	122.14	41.743	5.1976e-06	51.39	0.00058647	0.00060044	0.00016747	1380.1	6.5092e-06	6.5889e-06	1378.1	372.09	6.3709e-06	6.5292e-06	426.17	142.78	124.52	42.823	6.5433e-06	52.96	52.068	55.681	40.519	0.062	155.460	128.767	-0.023	4.777	154.190	113.599	4.315	8.469	9.238	13.466	117.254	12.788	-8191	255	
1465.681	1	1	0	0	0.083234	0.12407	0.25629	0.29105	0.08621	0.064449	0.068547	0.30784	0.18529	0.2309	0.17287	0.2311	0.39385	0.10518	0.054879	0.27071	-1.6667	-1.5021	-1.875	-2.4313	-1.4229	-2.1625	-2.0125	-1.7854	-2.1167	-1.5458	-1.9438	-2.2521	-1.4292	-2.1792	-1.7896	-1.5542	-7.270	174.663	234.375	240.385	57.830	100.173	295.681	291.614	141.154	143.704	336.474	321.824	272.662	7.614	-8.165	289.298	0.00075324	0.00044595	9.718e-05	1355	5.9578e-06	8.3824e-06	1351.8	364.18	8.1927e-06	2.8552e-06	419.95	140.39	121.71	41.645	3.74e-06	51.969	0.00059469	0.00059579	0.00016715	1376.4	6.4494e-06	6.4614e-06	1372.9	371.98	6.465e-06	6.5476e-06	426.21	143.2	124.57	42.823	6.5875e-06	53.123	51.938	69.281	29.940	0.107	161.959	115.018	-0.183	4.876	153.288	160.498	4.163	8.620	9.049	13.774	119.568	13.136	-8191	255	
1465.775	1	1	0	0	0.068513	0.12553	0.12594	0.14909	0.15239	0.080102	0.20891	0.19136	0.16876	0.059125	0.20948	0.19538	0.22518	0.18941	0.20739	0.070035	-2.0083	-1.525	-1.9062	-2.3958	-1.4	-2.0604	-2.1208	-1.3208	-2.4042	-1.6812	-1.875	-2.2271	-1.575	-2.2667	-2.0187	-1.6083	213.512	116.357	185.190	272.573	88.195	147.815	247.857	272.651	160.911	200.387	307.206	326.135	10.768	3.012	88.708	302.575	0.0006888	0.00035749	0.000176	1361.5	4.1233e-06	4.5908e-06	1354.2	366.22	8.8319e-06	4.1108e-06	417.85	139.83	121.81	41.544	4.7081e-06	51.333	0.00057434	0.00059731	0.00016409	1381	6.2994e-06	6.218e-06	1377	372.69	6.4118e-06	6.3582e-06	427.06	143.31	124.53	42.895	6.3463e-06	53.06	46.366	62.586	86.351	-0.031	158.040	163.969	-0.060	4.919	185.280	119.207	4.198	8.399	8.904	13.645	153.146	12.723	-8191	255	
1465.849	1	1	0	0	0.053438	0.16964	0.16752	0.12014	0.17359	0.28161	0.25354	0.14993	0.16374	0.14746	0.13243	0.38838	0.5076	0.19002	0.065349	0.35246	-1.9729	-1.6583	-1.6396	-2.2229	-1.5688	-2.0708	-2.45	-1.4937	-2.1625	-1.775	-1.7146	-2.3354	-1.5604	-1.9292	-2.1625	-1.4958	256.695	200.406	290.122	18.869	241.244	197.668	329.374	313.095	203.741	101.184	75.957	335.892	320.705	303.166	333.722	289.845	0.0007679	0.00039013	0.00020267	1356.5	5.009e-06	6.8146e-06	1357.3	365.9	6.1404e-06	5.4093e-06	418.83	139.6	122.12	41.771	2.9963e-06	51.628	0.00058786	0.00058528	0.00016404	1379.1	6.5393e-06	6.381e-06	1376.4	372.91	6.3797e-06	6.5246e-06	426.5	143.37	124.81	42.943	6.4131e-06	53.123	53.019	27.643	66.843	-0.045	138.144	104.611	-0.041	4.627	143.898	126.645	3.910	8.614	8.774	13.765	189.818	12.777	-8191	255	
1465.968	1	1	0	0	0.01764	0.19114	0.13143	0.27404	0.15791	0.11186	0.10134	0.35056	0.2406	0.10262	0.4223	0.11494	0.14435	0.18452	0.35012	0.071502	-2.0292	-1.7521	-1.5417	-2.525	-1.4021	-1.9417	-2.3917	-1.4542	-2.0146	-1.8542	-1.5646	-2.2812	-1.5958	-1.7458	-2.2417	-1.4562	203.111	166.478	206.274	281.071	201.883	323.018	58.618	319.081	122.488	290.340	51.197	345.354	291.810	267.874	135.992	283.245	0.00074459	0.00068011	0.00012924	1355.3	8.0363e-07	4.9001e-06	1359.1	366.39	8.5083e-06	5.839e-06	418.08	139.46	121.6	41.559	5.1014e-06	51.501	0.00058338	0.00057497	0.00016406	1378.2	6.4217e-06	6.4023e-06	1378.1	372.71	6.5187e-06	6.3745e-06	426.19	142.76	124.29	42.815	6.5868e-06	53.068	55.060	33.820	45.947	0.015	166.013	149.378	-0.104	4.853	98.994	123.228	4.216	8.559	8.997	13.848	130.540	12.703	-8191	255	
1466.064	1	1	0	0	0.062848	0.21747	0.30724	0.12434	0.15185	0.1723	0.15456	0.24299	0.39319	0.18734	0.04003	0.17958	0.070695	0.5092	0.10053	0.193	-1.6208	-1.8958	-1.4208	-2.3521	-1.6	-1.7208	-2.325	-1.6667	-1.8813	-2.0687	-1.6396	-2.4875	-1.9125	-1.7354	-2.4042	-1.5125	27.155	132.684	235.141	258.534	171.049	-5.057	319.440	210.669	158.561	273.059	304.254	302.831	189.240	312.173	166.630	268.522	0.00074009	0.00068768	0.00022379	1355	4.2562e-06	7.942e-06	1353.1	364.29	5.059e-06	4.4695e-06	417.03	139.45	121.04	41.564	5.7141e-06	51.4	0.00060063	0.00060016	0.00017212	1376.9	6.6202e-06	6.8076e-06	1374.2	371.33	6.6595e-06	6.7759e-06	426.07	142.47	124.08	42.632	6.6592e-06	52.884	52.379	52.848	64.309	0.042	145.975	156.177	0.146	4.650	139.348	138.503	4.297	8.499	9.063	14.000	142.227	12.839	-8191	255	
1466.160	1	1	0	0	0.44332	0.24113	0.088644	0.34671	0.029837	0.10869	0.17191	0.31698	0.20176	0.21396	0.060967	0.39463	0.20494	0.38526	0.12333	0.20911	-1.3958	-2.1813	-1.2437	-2.4333	-1.7062	-1.5438	-2.3667	-1.5438	-1.8958	-2.0729	-1.625	-2.3688	-1.6958	-1.5	-2.175	-1.5667	57.054	97.709	46.707	331.784	289.190	316.436	244.377	304.166	76.537	107.260	230.068	282.016	91.359	302.455	340.981	300.306	0.00057362	0.0007518	0.00017083	1355.4	4.9257e-06	1.2087e-05	1352	364.83	4.8436e-06	3.6825e-06	414.36	139.54	121.12	41.479	7.9346e-06	51.549	0.00061001	0.00062251	0.00017083	1376.7	6.718e-06	6.718e-06	1376.4	371.93	6.5628e-06	6.7034e-06	424.79	142.67	124.09	42.681	6.5554e-06	53.049	50.885	50.028	44.364	-0.106	120.891	141.651	0.129	4.580	204.464	159.027	4.361	8.389	9.450	13.996	152.635	13.084	-8191	255	
1466.281	1	1	0	0	0.3248	0.23437	0.095008	0.2419	0.43154	0.44542	0.22119	0.03788	0.071593	0.2476	0.16656	0.16386	0.30616	0.20275	0.22737	0.18362	-1.5271	-2.2438	-1.2854	-2.3333	-1.8792	-1.4146	-2.425	-1.9083	-1.8146	-2.1833	-1.5833	-2.2396	-2.0521	-1.6542	-2.2229	-1.8083	286.717	112.025	228.229	9.247	94.569	320.001	259.740	133.859	156.977	165.143	83.087	258.097	279.937	-5.012	32.034	284.482	0.00075315	0.00074777	0.00023446	1354.5	5.5285e-06	6.0113e-06	1352.8	363.58	7.8291e-06	3.3148e-06	416.29	138.67	121.61	41.405	1.6133e-06	51.251	0.0006114	0.0006066	0.00017207	1378.8	6.7476e-06	6.7452e-06	1376.8	371.2	6.6729e-06	6.6865e-06	425.3	142.3	124.14	42.67	6.6732e-06	52.978	54.668	54.572	80.334	0.273	143.986	136.794	-0.085	4.820	132.161	142.261	4.232	8.506	9.102	13.579	120.712	12.835	-8191	255	
1466.377	1	1	0	0	0.20448	0.089013	0.18629	0.19045	0.057833	0.13824	0.50887	0.098922	0.19772	0.13989	0.294	0.20716	0.19146	0.14356	0.15444	0.11806	-1.3188	-2.3187	-1.5083	-2.1833	-1.9646	-1.4792	-2.4229	-1.9312	-1.3854	-2.275	-1.8292	-1.95	-2.1	-1.4604	-2.15	-1.9542	95.164	294.246	184.505	305.619	299.746	261.520	311.553	224.945	29.959	167.596	327.095	-3.005	277.492	236.149	130.930	190.659	0.00066962	0.00022385	0.00022067	1361	3.1308e-06	7.6645e-06	1359.8	364.25	6.7825e-06	5.8742e-06	416.7	138.81	120.76	41.351	3.7834e-06	51.18	0.00060299	0.00059448	0.00017233	1378.4	6.6732e-06	6.7173e-06	1375.6	371.3	6.6421e-06	6.7113e-06	424.58	142.65	123.76	42.685	6.5318e-06	52.831	47.526	75.991	50.559	0.172	151.860	90.925	-0.043	4.731	167.813	148.695	4.038	8.637	8.908	13.919	121.739	12.791	-8191	255	
1466.473	1	1	0	0	0.2476	0.10336	0.21994	0.20968	0.15554	0.16316	0.09596	0.041517	0.076132	0.13754	0.18056	0.186	0.11958	0.30009	0.18319	0.20235	-1.15	-2.3	-1.4	-2.1479	-2.1229	-1.4438	-2.4562	-2.1063	-1.4292	-2.4167	-1.65	-2.0521	-2.1688	-1.4667	-2.0938	-2.0104	261.810	339.353	111.656	23.827	16.476	40.442	179.448	55.200	64.269	161.686	3.541	302.199	34.007	304.075	1.568	273.130	0.00065223	0.00072635	0.00019805	1348.2	5.6802e-06	4.3428e-06	1350.9	364.12	6.6006e-06	6.3548e-06	415.96	138.72	121.03	41.371	3.7054e-06	51.281	0.0005987	0.00060175	0.00016917	1371.7	6.5484e-06	6.7392e-06	1373.3	370.98	6.5834e-06	6.5873e-06	424.76	142.38	124	42.629	6.6291e-06	52.943	56.678	68.881	69.568	0.145	158.431	202.835	0.064	4.932	189.518	112.103	4.350	8.595	9.085	13.733	151.210	12.633	-8191	255	
1466.545	1	1	0	0	0.21733	0.15449	0.15185	0.10708	0.18669	0.091669	0.11217	0.6032	0.23507	0.14178	0.080578	0.17632	0.2825	0.14211	0.092734	0.16045	-0.93958	-2.1646	-1.6562	-1.8646	-2.1813	-1.4625	-2.3646	-2.4562	-1.3521	-2.3271	-1.7729	-1.8625	-2.4396	-1.5667	-2.0479	-2.1937	218.525	78.507	55.571	-10.165	41.017	185.774	0.144	6.269	19.483	146.627	341.318	0.216	24.088	318.072	24.832	222.417	0.00063674	0.00057609	0.00019779	1354.3	3.238e-06	4.3043e-06	1353.7	364.24	6.6356e-06	3.2153e-06	416.66	139.35	121.52	41.466	8.5368e-06	51.253	0.00059844	0.00059805	0.00017161	1375.4	6.5982e-06	6.6174e-06	1376	371.65	6.5384e-06	6.5178e-06	424.7	142.69	123.99	42.575	6.6365e-06	52.785	48.479	53.274	81.283	0.179	130.449	105.535	0.060	4.678	137.830	115.595	4.133	8.735	9.205	13.616	169.415	12.711	-8191	255	
1466.663	1	1	0	0	0.13937	0.23526	0.060177	0.32829	0.19107	0.16	0.21639	0.37117	0.056822	0.29122	0.22125	0.22496	0.32605	0.095717	0.21662	0.22022	-0.97083	-2.125	-1.6042	-1.6646	-2.2292	-1.4438	-2.0521	-2.2771	-1.6271	-2.2146	-1.9354	-1.8167	-2.3875	-1.5688	-1.9167	-2.2333	163.107	-3.569	13.252	328.258	235.530	227.535	268.127	334.215	203.243	55.142	331.091	294.240	265.293	323.802	316.131	302.889	0.00060357	0.00047669	0.00015784	1350.9	4.8058e-06	7.2295e-06	1357.2	364.1	6.5418e-06	3.1346e-06	414.9	138.97	121.18	41.524	9.9828e-06	51.219	0.00060572	0.0005927	0.00016847	1373.3	6.5608e-06	6.5981e-06	1375.3	371.32	6.3454e-06	6.6739e-06	423.36	142.52	124.1	42.664	6.5833e-06	52.801	50.154	54.366	70.534	0.265	139.591	151.280	0.075	4.997	152.402	141.955	4.324	8.765	9.205	13.633	163.609	12.725	-8191	255	
1466.760	1	1	0	0	0.17626	0.21437	0.24068	0.1638	0.17665	0.10471	0.07897	0.3563	0.073307	0.20188	0.086658	0.2218	0.057967	0.1259	0.034873	0.39713	-1.1125	-2.1021	-1.825	-1.8125	-2.4125	-1.6313	-2.0021	-2.3833	-1.3563	-2.2062	-2.0187	-1.4562	-2.3438	-1.7125	-1.7188	-2.3833	114.521	218.816	243.357	6.664	85.599	343.985	311.689	308.349	119.390	120.983	216.561	282.223	169.726	255.763	111.770	3.746	0.00065311	0.00066552	0.00010449	1353.1	3.7805e-06	7.5761e-06	1352.8	364.06	7.891e-06	2.9149e-06	415.74	138.83	121.63	41.493	5.7164e-06	51.267	0.00059789	0.00059237	0.00016653	1375.8	6.4511e-06	6.5779e-06	1374.6	370.98	6.5594e-06	6.5691e-06	425.36	142.61	124.12	42.676	6.6516e-06	52.732	44.799	46.016	94.614	0.114	145.255	130.388	0.185	4.641	172.485	135.232	3.999	8.635	8.950	13.628	133.242	12.889	-8191	255	
1466.856	1	1	0	0	0.21946	0.21257	0.18438	0.36468	0.15025	0.065149	0.30877	0.35552	0.27376	0.06617	0.23435	0.3195	0.17818	0.051481	0.10127	0.18348	-1.0688	-1.9979	-1.8542	-1.6313	-2.3438	-1.6458	-1.8771	-2.5792	-1.4083	-1.9729	-2.1229	-1.4937	-2.3375	-1.7687	-1.6562	-2.3667	66.794	296.628	121.824	269.603	303.619	320.315	263.836	289.068	231.484	294.584	11.222	293.062	306.878	325.162	211.321	-7.102	0.00066644	0.00039596	0.00012202	1352.8	6.4276e-06	1.6773e-06	1352.7	365.3	6.6102e-06	6.012e-06	415.69	139.29	120.98	41.36	4.2651e-06	51.307	0.00059136	0.0006043	0.00016523	1374.7	6.5867e-06	6.5892e-06	1374.4	371.18	6.5482e-06	6.617e-06	424.51	142.47	123.89	42.64	6.6875e-06	52.879	52.399	95.716	101.443	0.077	148.599	108.579	0.063	4.642	130.467	134.262	4.397	8.908	9.364	13.606	111.454	13.040	-8191	255	
1466.952	1	1	0	0	0.12363	0.22804	0.10749	0.20086	0.10789	0.25193	0.034323	0.27275	0.10605	0.037892	0.29218	0.072412	0.34407	0.22761	0.16301	0.2593	-1.4146	-1.9333	-2.1875	-1.6292	-2.1958	-1.7604	-1.9271	-2.6042	-1.6146	-1.7875	-2.4458	-1.5438	-2.2313	-2.0583	-1.4125	-2.3146	23.584	25.216	296.805	257.063	97.492	254.524	272.218	314.995	321.537	223.653	316.384	310.444	-8.508	331.077	239.833	254.692	0.00073055	0.0006381	0.00015736	1351.8	6.0004e-06	4.416e-06	1347.6	365.06	8.1559e-06	6.2006e-06	413.83	139.07	120.81	41.369	6.5825e-06	51.465	0.00060156	0.00059172	0.00016754	1373.7	6.5631e-06	6.6466e-06	1370.4	371.06	6.7002e-06	6.586e-06	423.84	142.15	123.7	42.604	6.6227e-06	52.885	61.377	48.759	79.984	0.252	168.014	135.701	-0.046	4.674	120.025	157.393	4.370	8.913	9.276	13.707	113.314	12.664	-8191	255	
1467.073	1	1	0	0	0.16463	0.23163	0.22708	0.24586	0.10324	0.39718	0.3963	0.074256	0.090819	0.24802	0.22285	0.30996	0.032793	0.12161	0.091087	0.094093	-1.4021	-1.8146	-2.275	-1.6417	-2.1562	-1.9917	-1.6625	-2.6521	-1.6313	-1.5958	-2.6771	-1.5562	-2.1417	-2.1396	-1.3146	-2.375	1.903	308.030	93.357	310.443	83.694	6.773	322.309	14.153	77.864	10.673	327.772	262.208	54.799	313.136	150.500	212.092	0.00063396	0.00055117	0.00022495	1347.9	2.6979e-06	6.532e-06	1355	363.54	8.5841e-06	2.8409e-06	415.58	139.32	121.12	41.444	4.0704e-06	51.622	0.00060156	0.00059926	0.00016873	1371.8	6.5092e-06	6.715e-06	1373.2	370.93	6.4671e-06	6.4213e-06	424.44	142.54	124.08	42.683	6.4212e-06	52.998	58.114	88.633	52.931	0.300	159.714	118.176	-0.059	4.672	178.323	184.284	4.053	8.421	9.021	13.597	107.551	12.950	-8191	255	
1467.144	1	1	0	0	0.22698	0.17465	0.034679	0.23332	0.24764	0.11162	0.21983	0.32284	0.056375	0.21405	0.33447	0.37338	0.20034	0.076111	0.3214	0.17316	-1.225	-1.3667	-2.3021	-1.65	-1.7042	-1.8792	-1.7479	-2.3583	-1.6437	-1.5292	-2.3792	-1.5542	-1.9875	-2.2292	-1.3646	-2.1937	244.399	109.206	227.231	314.791	320.409	129.323	261.713	277.278	166.577	207.113	332.032	54.909	322.887	67.023	286.504	-7.448	0.00071064	0.00055065	0.00016169	1357	1.5386e-06	6.0796e-06	1363.5	366.59	8.3654e-06	5.7954e-06	417.28	139.8	122.2	41.47	1.2407e-06	51.236	0.00059155	0.00057618	0.00015749	1375.9	6.2926e-06	6.2649e-06	1378.3	372.8	6.1673e-06	6.1276e-06	425.31	142.83	124.56	42.772	6.2628e-06	52.872	49.127	82.819	98.047	-0.049	185.902	151.058	0.160	5.037	136.441	136.528	4.107	8.329	9.133	13.518	86.536	12.639	-8191	255	
1467.242	1	1	0	0	0.11101	0.13155	0.22139	0.17535	0.1378	0.15402	0.31535	0.17689	0.32832	0.19763	0.070596	0.17416	0.0090232	0.43754	0.13938	0.077371	-1.3354	-1.3229	-2.1646	-1.6375	-1.6792	-2.2	-1.5583	-2.2562	-1.8583	-1.2417	-2.2646	-1.8354	-1.6437	-2.2417	-1.5333	-2.2583	223.869	-0.433	15.750	324.662	-8.849	2.426	323.242	294.223	244.149	37.645	241.241	327.367	125.799	7.002	329.123	59.814	0.00056109	0.00037713	0.00017636	1351.2	5.6236e-06	4.3632e-06	1356.2	364.36	4.408e-06	4.2473e-06	413.02	138.71	120.69	41.368	4.4671e-06	51.272	0.00055816	0.00055725	0.00015663	1373.3	6.1956e-06	6.2012e-06	1371.5	371.34	6.2842e-06	6.3137e-06	423.43	142.01	123.7	42.65	6.3119e-06	52.753	52.113	71.057	66.455	0.000	161.497	196.818	0.052	4.976	153.402	164.215	4.049	8.296	8.836	13.363	132.428	12.623	-8191	255	
1467.361	1	1	0	0	0.19267	0.15563	0.047281	0.32217	0.11534	0.13236	0.14355	0.33256	0.15799	0.11321	0.15442	0.21531	0.13856	0.080515	0.13365	0.16404	-1.5917	-1.3917	-2.2271	-1.95	-1.5604	-2.0917	-1.6542	-2.15	-1.9271	-1.4813	-2.3021	-1.7417	-1.6812	-2.5125	-1.3271	-2.0833	226.321	-3.117	190.425	296.348	278.476	36.785	342.974	267.223	-9.847	67.360	178.192	247.356	130.397	33.888	252.540	298.608	0.0007418	0.00054991	0.00014498	1349.3	3.4277e-06	6.3078e-06	1351.1	364.86	7.063e-06	5.6613e-06	416.09	139.35	121.52	41.522	7.7465e-06	51.544	0.00058264	0.00058581	0.00016413	1371.1	6.2662e-06	6.3079e-06	1372.1	371.61	6.3418e-06	6.3329e-06	425.02	142.37	123.98	42.666	6.3234e-06	52.87	52.465	59.202	89.057	-0.071	87.981	130.013	-0.163	4.552	102.067	124.361	3.950	8.432	9.185	13.530	122.224	12.727	-8191	255	
1467.457	1	1	0	0	0.085875	0.33218	0.10868	0.14599	0.29804	0.14254	0.071489	0.1436	0.21383	0.26365	0.28416	0.15075	0.10003	0.13344	0.012993	0.15538	-1.5812	-1.3875	-1.8896	-1.9958	-1.5042	-2.4208	-1.7417	-2.0458	-2.2396	-1.4354	-2.3042	-2.0542	-1.65	-2.3021	-1.5104	-1.9354	75.173	-9.919	310.586	299.969	339.155	291.192	306.038	309.840	97.631	26.163	293.170	46.466	22.469	226.801	75.760	237.757	0.00073926	0.00067837	0.00020421	1356.2	4.7087e-06	2.7851e-06	1354	364.28	4.4221e-06	3.6587e-06	416.51	138.17	120.91	41.215	6.5985e-06	51.154	0.00058409	0.00060541	0.00016394	1373.7	6.5992e-06	6.6087e-06	1371.4	371.31	6.4779e-06	6.5825e-06	424.28	141.53	123.58	42.452	6.8123e-06	52.601	45.658	68.363	101.316	-0.071	153.280	137.836	0.038	5.025	177.866	174.671	4.334	8.690	9.228	13.708	156.716	12.714	-8191	255	
1467.553	1	1	0	0	0.25418	0.20549	0.132	0.25158	0.081361	0.16372	0.1195	0.24879	0.18193	0.17375	0.29886	0.25242	0.34705	0.049019	0.15296	0.38731	-1.7625	-1.5042	-2.0229	-2.1625	-1.4167	-2.3167	-1.7667	-1.7563	-2.2583	-1.3542	-2.1042	-2.2562	-1.6458	-2.2938	-1.8563	-1.8438	148.974	21.090	294.502	303.418	141.799	258.217	252.659	212.671	43.953	163.950	1.629	317.838	93.290	342.985	-4.665	345.251	0.00066353	0.00061708	0.00015353	1350.8	6.4467e-06	4.6669e-06	1352.4	363.33	4.1344e-06	4.4821e-06	415.76	137.88	119.89	41.229	2.9513e-06	51.341	0.00060308	0.00063254	0.00017414	1371.9	6.7591e-06	6.842e-06	1372.6	370.21	6.8755e-06	7.0358e-06	424.26	141.81	123.26	42.473	6.8903e-06	52.758	48.537	41.407	84.562	-0.077	156.868	106.465	-0.131	4.999	152.047	113.406	4.442	9.017	9.331	13.816	107.131	13.172	-8191	255	
1467.649	1	1	0	0	0.16973	0.22829	0.25247	0.11524	0.090954	0.16532	0.19636	0.096081	0.13183	0.31401	0.47766	0.16864	0.31645	0.15066	0.084777	0.34649	-1.7833	-1.4583	-1.9854	-2.3479	-1.6146	-2.2812	-2.0042	-1.7292	-2.2542	-1.4813	-2.0021	-2.2604	-1.6083	-2.2771	-2.0021	-1.725	240.510	205.394	147.758	282.187	0.451	321.769	284.844	340.133	170.924	109.511	256.184	5.104	316.295	0.576	260.051	328.192	0.00062286	0.00033822	0.00012512	1355.2	5.6593e-06	9.1394e-06	1349.3	364.19	9.3923e-06	6.5585e-06	415.79	138.44	120.75	41.493	4.8987e-06	51.284	0.00061557	0.00061795	0.00017396	1373.5	6.8734e-06	6.7562e-06	1370.9	370.74	6.5864e-06	6.6473e-06	424.74	142	123.75	42.642	6.4916e-06	52.918	57.400	36.562	93.866	-0.008	140.423	145.942	-0.228	4.873	132.372	170.292	4.370	8.797	9.447	13.703	143.571	12.726	-8191	255	
1467.746	1	1	0	0	0.070957	0.26064	0.18744	0.40593	0.28158	0.24317	0.22663	0.43672	0.36957	0.19728	0.28648	0.11859	0.13318	0.049082	0.16973	0.28764	-1.7521	-1.375	-1.6187	-2.4667	-1.3125	-2.1167	-2.1396	-1.7313	-2.2062	-1.6562	-1.7229	-2.3917	-1.2333	-1.9833	-2	-1.3771	-10.756	267.577	233.159	315.261	139.596	117.087	320.520	294.622	103.356	12.661	338.469	240.514	23.625	248.083	244.162	58.217	0.00062011	0.0003075	0.00018063	1353.7	4.1665e-06	5.9061e-06	1357.8	365.15	6.0847e-06	2.9883e-06	417.92	139.63	121.38	41.659	3.7417e-06	51.541	0.00058068	0.00059517	0.00016152	1375.9	6.5107e-06	6.2759e-06	1375.8	371.62	6.4211e-06	6.5e-06	425.68	142.59	124.23	42.797	6.3354e-06	53.02	60.103	62.071	92.165	0.189	138.096	141.781	0.099	4.786	136.115	117.507	4.426	8.371	9.545	13.736	173.882	13.077	-8191	255	
1467.840	1	1	0	0	0.16425	0.053559	0.27502	0.12563	0.25742	0.26715	0.46883	0.44751	0.12077	0.1054	0.32818	0.27184	0.04017	0.32225	0.11783	0.20134	-1.7375	-1.5333	-1.7	-2.5083	-1.3354	-1.9583	-2.2625	-1.4667	-2.2708	-1.8375	-1.8042	-2.4708	-1.6375	-1.9167	-2.1521	-1.4646	62.914	264.132	89.794	279.061	128.351	342.301	335.859	302.672	333.244	178.895	332.240	293.368	269.289	341.166	204.436	56.968	0.00064775	0.00028819	0.00016796	1362.7	8.7063e-06	5.7641e-06	1356.2	367.17	9.4693e-06	4.6793e-06	418.54	140.17	122.76	41.766	6.2401e-06	51.874	0.00055979	0.00055027	0.00015609	1379.5	6.1566e-06	6.121e-06	1375.9	372.51	5.8922e-06	5.95e-06	427.11	143.4	124.84	43.003	5.8927e-06	53.169	60.297	36.394	63.980	0.006	148.108	119.131	0.036	4.833	154.814	108.926	4.512	8.646	9.462	13.848	139.786	12.975	-8191	255	
1467.961	1	1	0	0	0.12303	0.24966	0.30823	0.16024	0.26269	0.058881	0.36036	0.098371	0.17852	0.16295	0.20141	0.22165	0.19735	0.070951	0.044747	0.16758	-1.8125	-1.9104	-1.5792	-2.4729	-1.4688	-1.7792	-2.4688	-1.5708	-1.85	-1.8125	-1.6187	-2.3688	-1.6542	-2.1	-1.9688	-1.4396	160.250	332.656	155.734	314.786	28.321	136.901	314.547	14.675	339.594	168.216	322.505	258.248	146.675	306.575	204.385	102.685	0.0007347	0.00040197	0.0002149	1355.3	3.5036e-06	2.2951e-06	1356.8	365.78	4.991e-06	5.2695e-06	416.47	140.16	122.59	41.8	6.8725e-06	51.608	0.00053408	0.00052818	0.00014617	1378.6	5.5491e-06	5.7305e-06	1376.6	373.15	5.6338e-06	5.6877e-06	425.43	143.4	124.77	42.928	5.5493e-06	52.979	56.649	89.421	68.573	0.247	137.804	135.056	-0.213	4.458	161.343	158.408	4.261	8.591	9.447	13.854	153.512	12.701	-8191	255	
1468.057	1	1	0	0	0.12251	0.19738	0.1905	0.29798	0.099969	0.1888	0.43922	0.31208	0.27154	0.045235	0.092341	0.16992	0.20812	0.15973	0.16155	0.20755	-1.7229	-2.0458	-1.4188	-2.4854	-1.6625	-1.6958	-2.3125	-1.7167	-2.0958	-2.025	-1.2812	-2.3854	-1.7708	-1.7958	-2.3854	-1.7396	129.781	23.778	-8.351	303.194	237.010	306.933	300.529	260.650	269.861	16.590	55.491	45.333	48.045	306.479	150.339	300.696	0.00071368	0.00041162	0.00010358	1357.1	7.12e-06	2.8966e-06	1362	368.91	5.066e-06	6.721e-06	419.86	141.18	122.39	41.875	5.225e-06	52.178	0.00051123	0.00050057	0.00014338	1377.9	5.4893e-06	5.4477e-06	1378.1	374.62	5.4802e-06	5.3522e-06	427.44	144.11	125.2	43.189	5.5156e-06	53.51	51.440	56.447	127.386	0.289	158.758	94.457	-0.096	4.861	135.013	125.188	4.259	8.662	9.293	13.768	119.677	12.973	-8191	255	
1468.153	1	1	0	0	0.33519	0.16724	0.24469	0.12586	0.22297	0.12945	0.22467	0.33211	0.059199	0.045341	0.3841	0.20214	0.1318	0.046021	0.13421	0.32714	-1.6354	-1.8792	-1.4917	-2.3583	-1.8937	-1.4813	-2.4479	-1.7563	-1.9021	-2.1896	-1.4542	-2.3979	-2.0167	-1.6083	-2.0875	-1.7437	28.059	68.309	75.123	15.258	183.585	228.338	292.322	297.135	240.811	83.297	298.860	250.871	266.479	191.704	161.542	299.832	0.00064376	0.00059449	0.00012797	1364.9	5.893e-06	6.971e-06	1365.6	369.45	7.543e-06	3.8853e-06	421.22	142.07	122.43	42.091	6.9044e-06	52.403	0.00050242	0.00049967	0.00013643	1384.5	5.437e-06	5.4963e-06	1384.1	376	5.2363e-06	5.2217e-06	428.5	144.75	125.48	43.242	5.3957e-06	53.465	53.430	42.042	76.234	0.266	148.237	145.194	0.077	4.685	154.980	159.778	4.503	8.769	9.067	13.495	138.584	13.027	-8191	255	
1468.249	1	1	0	0	0.26647	0.16642	0.14762	0.3424	0.14423	0.27898	0.42665	0.28886	0.30325	0.11369	0.096182	0.37017	0.17487	0.10917	0.065272	0.10685	-1.4792	-2.1583	-1.2854	-2.4396	-1.8333	-1.3333	-2.5958	-1.8354	-1.6562	-2.2729	-1.5958	-2.2542	-2.0521	-1.6354	-2.0979	-1.7875	318.613	180.083	322.892	287.370	3.730	312.445	307.140	227.062	330.637	54.760	-2.728	1.768	325.647	304.195	7.843	13.403	0.00067687	0.00056192	0.00020576	1365.6	8.1755e-06	2.8614e-06	1359.3	365.5	4.4103e-06	5.5167e-06	415.14	139.37	120.72	41.472	4.5242e-06	51.373	0.00050711	0.00048816	0.00013879	1381.2	5.4419e-06	5.4799e-06	1376.9	372.51	5.6418e-06	5.7456e-06	424.04	142.68	123.56	42.637	5.8116e-06	52.766	52.218	92.307	82.228	0.546	159.154	141.749	0.205	5.071	142.598	125.424	4.208	8.695	9.487	14.053	167.879	13.257	-8191	255	
1468.370	1	1	0	0	0.25413	0.14529	0.096748	0.42548	0.065573	0.40847	0.13928	0.18473	0.16976	0.19361	0.1776	0.41891	0.31632	0.39192	0.13158	0.12695	-1.3375	-2.2417	-1.4896	-2.0812	-1.9292	-1.2938	-2.3458	-2.0958	-1.5917	-2.2042	-1.3896	-1.9062	-2.1958	-1.5312	-2.0646	-1.9479	283.277	247.690	85.829	310.169	195.859	130.894	237.938	271.641	127.809	61.044	256.369	250.567	287.068	317.380	144.624	222.725	0.0006794	0.00029503	0.00016544	1352.1	6.8463e-06	1.5784e-06	1350.2	364.08	6.8824e-06	1.1856e-06	419.3	139.97	121.47	41.629	6.6336e-06	51.681	0.00056356	0.00054064	0.00015638	1371.5	5.9915e-06	6.0405e-06	1371.6	371	6.0274e-06	5.9772e-06	425.19	142.91	124.33	42.878	5.7462e-06	53.108	49.292	71.693	61.158	0.449	128.111	157.534	0.079	4.824	175.977	161.872	4.561	8.842	9.282	13.860	139.681	12.732	-8191	255	
1468.441	1	1	0	0	0.12702	0.068171	0.14142	0.4368	0.20553	0.21022	0.33786	0.19873	0.086754	0.24575	0.17402	0.1509	0.20877	0.03706	0.15355	0.16902	-1.15	-2.3542	-1.45	-1.9396	-2.1521	-1.6458	-2.5479	-2.2375	-1.4417	-2.3708	-1.7042	-1.8896	-2.3063	-1.5646	-2.0833	-2.0375	277.401	65.996	344.555	300.678	303.620	50.988	257.857	272.753	236.287	319.029	266.123	325.366	81.796	254.421	-11.096	40.617	0.00068563	0.00052822	0.00011821	1361.8	4.6338e-06	7.1354e-06	1358.8	368.96	6.3224e-06	3.5764e-06	420.3	140.72	122.29	41.884	8.5803e-06	51.829	0.00053123	0.00051343	0.00014359	1379.6	5.5568e-06	5.6033e-06	1379.7	375.14	5.5619e-06	5.3934e-06	427.55	144.11	125.04	43.051	5.504e-06	53.279	49.398	82.135	101.880	0.435	148.767	128.474	0.067	5.126	163.327	113.671	4.467	8.957	9.369	14.019	108.771	13.008	-8191	255	
1468.537	1	1	0	0	0.13809	0.23443	0.051272	0.26965	0.13459	0.30776	0.20812	0.30903	0.24078	0.19437	0.22871	0.16099	0.17861	0.12096	0.22707	0.056435	-1.0667	-2.1188	-1.6542	-1.9542	-2.3021	-1.4021	-2.3104	-2.225	-1.4875	-2.4042	-1.6979	-1.775	-2.2458	-1.5229	-1.9104	-2.0292	170.058	242.818	202.732	316.532	-1.235	29.458	223.735	312.495	280.043	21.654	231.245	45.095	15.807	136.869	329.516	228.015	0.00060069	0.00046142	0.00019806	1358.5	2.7402e-07	5.3774e-06	1353.2	367.19	5.7844e-06	6.982e-06	418.95	140.68	122.24	41.636	5.707e-06	51.463	0.00050529	0.000493	0.00013961	1378.2	5.331e-06	5.4511e-06	1376	373.55	5.4262e-06	5.4475e-06	426.11	143.47	124.44	42.814	5.4304e-06	52.981	54.662	78.511	72.854	0.498	190.893	177.792	0.202	4.673	161.220	115.197	4.173	8.173	8.820	13.473	157.312	12.755	-8191	255	
1468.634	1	1	0	0	0.19329	0.22451	0.13727	0.063264	0.052651	0.29811	0.31292	0.35442	0.10389	0.01822	0.31769	0.31928	0.21275	0.36571	0.054899	0.21537	-0.94792	-2.1458	-1.8604	-1.6646	-2.4667	-1.4375	-2.2979	-2.3958	-1.3438	-2.2417	-1.8479	-1.6104	-2.3792	-1.6292	-2.0625	-2.2896	299.616	49.727	68.059	339.132	218.171	88.938	330.789	316.161	192.476	85.685	219.666	321.448	9.526	322.303	-6.879	302.403	0.00060112	0.00050828	0.00010494	1354.5	3.9276e-06	6.024e-06	1352.8	366.15	6.2799e-06	7.6213e-06	417.39	139.58	121.16	41.342	7.2982e-06	51.393	0.00051907	0.00049754	0.0001382	1376.3	5.3832e-06	5.4455e-06	1372.7	372.96	5.6726e-06	5.6832e-06	425.39	143.06	124.05	42.587	5.923e-06	52.811	48.084	77.732	47.998	0.015	106.308	140.859	0.171	4.913	166.107	142.627	4.221	8.839	9.155	13.712	171.000	12.979	-8191	255	
1468.730	1	1	0	0	0.31951	0.18806	0.08232	0.10901	0.35783	0.24618	0.45843	0.40578	0.11482	0.14254	0.057671	0.15717	0.10346	0.25183	0.27022	0.13994	-1.1292	-2.0021	-1.7625	-1.6896	-2.2438	-1.5312	-2.0917	-2.5521	-1.4438	-2.2396	-2.075	-1.7167	-2.5333	-1.8271	-1.5354	-2.5021	147.564	253.915	263.805	256.710	84.287	127.846	270.412	322.626	170.433	173.551	169.310	342.061	284.101	249.740	282.660	334.631	0.00066158	0.00062056	0.00016834	1353.7	4.5219e-06	5.053e-06	1357.9	364.52	1.0572e-05	6.9804e-06	415.92	138.68	121.56	41.368	4.0379e-06	51.316	0.00054763	0.00053826	0.00015013	1373.1	5.911e-06	5.9797e-06	1371.8	371.54	5.9789e-06	5.9955e-06	424.26	142.39	123.89	42.595	5.9024e-06	52.764	40.428	68.074	67.007	0.271	155.338	131.328	0.288	4.886	136.316	115.582	4.219	8.710	9.459	13.937	130.713	12.991	-8191	255	
1468.849	1	1	0	0	0.29981	0.19791	0.15309	0.26565	0.27585	0.085196	0.22927	0.17934	0.03406	0.19321	0.28149	0.35967	0.11438	0.28715	0.09163	0.21372	-0.93125	-2.2271	-1.9188	-1.5917	-2.2375	-1.7917	-1.9542	-2.6063	-1.4375	-2.0667	-2.25	-1.5479	-2.4292	-2.0104	-1.6812	-2.3417	82.751	90.953	151.220	317.530	227.848	201.583	252.318	262.259	273.097	-2.848	-3.636	311.687	276.480	4.646	265.030	328.687	0.00074351	0.00062921	9.2951e-05	1352.7	6.4098e-06	5.146e-06	1352.8	366.37	7.569e-06	3.5869e-06	416.51	139.22	120.87	41.576	5.5983e-06	51.301	0.00052947	0.0005468	0.00014938	1373.1	5.8215e-06	5.5595e-06	1371.2	372.64	5.7758e-06	5.8057e-06	424.56	142.54	123.72	42.649	5.8264e-06	52.878	47.045	53.948	44.978	0.267	141.497	142.902	0.142	4.680	133.760	114.295	4.438	8.211	9.203	13.542	132.800	12.881	-8191	255	
1468.945	1	1	0	0	0.16693	0.27332	0.32882	0.20533	0.050868	0.17215	0.25122	0.28456	0.084615	0.13478	0.20878	0.2491	0.18251	0.10785	0.070872	0.33948	-1.1896	-1.9354	-1.9667	-1.6313	-1.9937	-1.8917	-1.8813	-2.5917	-1.6521	-1.9729	-2.3229	-1.6187	-2.4	-2.1042	-1.2521	-2.4333	285.307	292.978	220.935	182.760	235.306	210.145	259.390	329.651	132.844	190.174	244.294	318.742	279.926	0.600	284.668	309.125	0.0006567	0.00054788	0.00016352	1351.4	9.4063e-06	7.1366e-06	1357.2	366.16	9.3868e-06	4.8435e-06	416.78	139.48	121.3	41.533	6.0606e-06	51.571	0.00053483	0.0005296	0.00014928	1372.2	5.8128e-06	5.9874e-06	1374.2	372.06	5.8779e-06	6.0533e-06	425.06	142.44	123.98	42.659	5.9632e-06	52.949	49.693	49.984	77.324	0.303	152.922	121.125	0.180	5.073	118.653	115.785	4.543	8.522	9.634	13.949	106.984	12.994	-8191	255	
1469.041	1	1	0	0	0.16057	0.04413	0.12356	0.25231	0.11647	0.20802	0.49905	0.30531	0.29046	0.18665	0.2692	0.13901	0.23323	0.24062	0.20505	0.15723	-1.2354	-1.7333	-2.1708	-1.725	-2.0062	-2.0792	-1.575	-2.4229	-1.5729	-1.6979	-2.3333	-1.8417	-2.2125	-2.1312	-1.475	-2.3229	345.542	274.575	134.833	345.782	107.842	232.088	237.252	272.863	97.818	-10.175	-8.693	187.405	262.721	278.413	-12.304	313.677	0.00061786	0.00065645	9.1839e-05	1356.5	4.7708e-06	6.8554e-06	1355.4	366.01	5.3637e-06	2.3062e-06	417.43	139.35	121.13	41.573	4.0718e-06	51.632	0.00055419	0.00054702	0.00015289	1374.4	6.0287e-06	6.0376e-06	1374.5	372.73	5.956e-06	6.1109e-06	426.2	142.85	124	42.791	5.9903e-06	52.996	45.599	56.924	93.622	0.268	161.996	155.798	0.418	5.104	154.946	148.330	4.238	8.932	9.662	13.589	121.184	12.983	-8191	255	
1469.137	1	1	0	0	0.033133	0.12302	0.18488	0.27343	0.044877	0.19738	0.2327	0.26747	0.24115	0.13044	0.21685	0.24933	0.034356	0.13463	0.26618	0.19344	-1.3833	-1.6167	-2.2542	-1.5146	-1.9104	-2.1354	-1.5646	-2.4479	-1.4562	-1.5583	-2.4958	-1.6104	-1.9562	-2.2917	-1.4396	-2.4417	102.334	154.409	125.210	270.895	221.761	14.765	326.221	266.920	27.993	337.954	50.628	121.369	300.219	249.273	307.301	304.556	0.00068589	0.0002889	0.00012069	1349.2	5.5412e-06	6.3905e-06	1352.6	364.54	3.415e-06	7.683e-06	415.69	139.58	120.29	41.307	5.6867e-06	51.418	0.00055016	0.00054677	0.00015011	1372.7	5.9675e-06	5.9851e-06	1372.2	371.73	5.9224e-06	5.9476e-06	424.35	142.52	123.64	42.547	6.0848e-06	52.805	51.328	80.601	90.973	0.254	148.120	142.490	0.470	5.085	156.457	116.868	4.514	8.726	9.650	13.914	144.949	13.115	-8191	255	
1469.233	1	1	0	0	0.25591	0.078802	0.10998	0.11231	0.28035	0.12947	0.29112	0.24371	0.15692	0.19315	0.12369	0.12868	0.17421	0.068299	0.11642	0.37049	-1.525	-1.5354	-2.2313	-1.9125	-1.725	-2.2667	-1.7396	-2.4021	-1.9688	-1.5938	-2.3396	-1.9396	-1.8687	-2.4	-1.4583	-2.1813	334.933	78.215	290.187	297.756	213.551	283.946	289.254	318.261	322.953	200.248	344.182	320.666	308.893	321.676	295.165	296.031	0.00063283	0.00058624	0.00012192	1353.2	5.5328e-06	5.4738e-06	1349.3	364.13	6.2321e-06	2.9679e-06	414.15	138.8	121	41.393	4.0926e-06	51.42	0.00055425	0.0005492	0.00015047	1371.9	6.2074e-06	6.1369e-06	1370.5	370.84	5.9797e-06	6.165e-06	423.94	141.99	123.49	42.552	6.1577e-06	52.809	48.130	57.763	81.513	0.326	138.004	133.357	0.306	4.988	126.574	170.228	4.329	8.582	9.679	13.395	126.327	13.074	-8191	255	
1469.329	1	1	0	0	0.13574	0.036342	0.11652	0.36144	0.10084	0.12333	0.19539	0.54481	0.18505	0.16332	0.42622	0.35817	0.22483	0.25118	0.35715	0.3408	-1.675	-1.4896	-2.3063	-1.7812	-1.6604	-2.1854	-1.7104	-2.2958	-2.2646	-1.4375	-2.2271	-1.9542	-1.5917	-2.4396	-1.5375	-2.0417	283.379	278.003	250.530	280.588	177.976	293.387	309.248	295.865	107.028	76.563	344.000	324.076	-4.348	-3.545	177.665	259.791	0.0007193	0.00061158	0.00016231	1354.1	7.5133e-06	4.2057e-06	1353.2	363.9	4.4093e-06	3.1988e-06	418.46	139.65	121.77	41.383	4.1488e-06	51.288	0.00057344	0.00056153	0.00015765	1371.7	6.2418e-06	6.1785e-06	1371.5	371.11	5.9073e-06	6.2115e-06	425.46	142.53	124.1	42.685	6.019e-06	52.848	52.390	57.518	74.644	0.278	146.829	115.088	0.540	5.187	126.272	137.984	4.539	8.749	9.702	14.132	121.917	13.197	-8191	255	
1469.450	1	1	0	0	0.13541	0.16405	0.12289	0.20543	0.24772	0.017895	0.16398	0.044842	0.29281	0.052723	0.058865	0.14969	0.38385	0.28856	0.13456	0.10109	-1.8958	-1.4625	-2.2271	-2.0354	-1.5792	-2.2625	-1.8146	-1.9042	-2.2062	-1.4458	-2.1604	-2.1437	-1.4875	-2.5687	-1.5458	-1.825	-5.239	314.156	162.258	16.203	320.179	220.104	298.472	19.894	111.270	222.978	84.425	320.705	308.027	340.232	140.724	119.906	0.00065022	0.0005466	0.0001283	1355.1	3.3434e-06	6.9717e-06	1356.7	367.27	7.5863e-06	2.2966e-06	418.64	140.53	122.27	41.638	8.2941e-06	51.614	0.00055327	0.00054827	0.00015243	1376.1	5.9108e-06	5.9065e-06	1375.9	372.98	5.7272e-06	5.9013e-06	426.7	143.21	124.41	42.878	5.6447e-06	53.159	54.831	98.625	69.350	0.333	204.682	155.127	0.351	5.049	138.062	90.563	4.573	8.688	9.457	13.844	122.417	13.244	-8191	255	
1469.546	1	1	0	0	0.065654	0.15536	0.12967	0.20091	0.026872	0.27962	0.34582	0.18092	0.32683	0.17612	0.18415	0.20676	0.14132	0.22896	0.16343	0.2204	-1.8813	-1.3208	-2.1312	-2.2542	-1.6292	-2.2396	-1.8125	-1.7208	-2.2708	-1.4771	-2.1604	-2.0563	-1.5333	-2.3896	-1.5417	-1.525	156.497	177.151	57.750	256.286	140.284	36.791	277.665	331.005	320.742	291.210	19.548	222.944	185.972	335.475	19.742	-9.597	0.00057312	0.00036159	0.00023331	1357.5	7.0273e-06	1.0043e-05	1352.5	365.79	7.4251e-06	6.1189e-06	417.5	139.88	122.28	41.668	7.745e-06	51.377	0.00051057	0.00049704	0.00013808	1377.6	5.3386e-06	5.3131e-06	1375.7	372.96	5.1542e-06	5.2905e-06	425.53	142.99	124.43	42.73	4.8992e-06	52.89	51.496	73.343	83.265	0.472	113.242	135.706	0.069	5.033	139.500	125.268	4.649	9.126	9.532	13.771	132.066	13.097	-8191	255	
1469.642	1	1	0	0	0.19116	0.052892	0.24099	0.26752	0.16038	0.19144	0.35516	0.22973	0.036374	0.29816	0.28938	0.10109	0.062846	0.26211	0.067256	0.20554	-1.9271	-1.3625	-1.7812	-2.1771	-1.3292	-2.0271	-1.9625	-1.6917	-2.1167	-1.5688	-2.0104	-2.1042	-1.5917	-2.3583	-1.9688	-1.5354	299.817	198.084	102.709	4.074	179.322	210.825	255.582	316.771	189.444	45.596	-7.626	306.886	311.963	284.203	252.633	288.231	0.00060296	0.00028987	0.00011187	1358.1	3.5037e-06	5.1049e-06	1360.4	367.13	8.9291e-06	4.2732e-06	416.96	139.96	122.46	41.718	5.8467e-06	51.885	0.00045386	0.00043593	0.00011909	1375.2	4.693e-06	4.5238e-06	1375.7	372.88	4.3963e-06	4.3711e-06	424.66	143.01	124.33	42.76	4.1883e-06	53.074	56.714	76.698	118.917	0.357	77.604	164.469	0.508	5.268	152.876	122.470	4.552	8.950	9.655	13.966	142.951	13.231	-8191	255	
1469.739	1	1	0	0	0.25577	0.12325	0.24492	0.089199	0.17394	0.16142	0.36908	0.1238	0.24314	0.1207	0.27101	0.11224	0.32589	0.27559	0.03721	0.31718	-1.9729	-1.55	-1.675	-2.4938	-1.2521	-2.1167	-2.2104	-1.5208	-2.1646	-1.6375	-1.8583	-2.3146	-1.6958	-2.1396	-2.0667	-1.6354	179.584	60.182	223.857	222.406	206.143	87.243	265.753	334.259	145.129	300.381	293.269	346.308	338.043	268.978	317.290	224.310	0.00069112	0.00039012	0.00012859	1351.9	2.9319e-06	2.2007e-06	1358.9	368.44	6.2949e-06	6.5318e-06	417.79	140.03	121.64	41.856	4.9231e-06	51.762	0.00040447	0.00037729	0.00010377	1372.9	4.0902e-06	4.0607e-06	1375.2	372.64	3.9547e-06	3.9236e-06	424.43	142.74	123.75	42.743	3.9045e-06	52.976	56.331	60.474	74.532	0.184	160.643	125.107	0.195	5.236	145.863	113.009	4.110	8.844	9.225	14.086	134.129	13.142	-8191	255	
1469.833	1	1	0	0	0.25093	0.14172	0.077728	0.33508	0.18702	0.40856	0.12814	0.19884	0.22214	0.033896	0.10404	0.0406	0.38572	0.089493	0.11031	0.1134	-1.8729	-1.6667	-1.6521	-2.5333	-1.3583	-1.9708	-2.2958	-1.5	-2.2896	-1.6875	-1.625	-2.4458	-1.4167	-1.9646	-2.1625	-1.4937	178.391	168.362	75.880	294.878	73.736	283.861	246.280	345.583	206.483	92.650	26.305	168.873	-7.740	27.299	197.508	322.359	0.0006569	0.00047907	0.00014378	1360.1	5.4353e-06	5.1901e-06	1356.9	366.39	6.3154e-06	4.6028e-06	417.11	140.22	122.19	41.831	8.0484e-06	51.736	0.00038696	0.00035405	9.8779e-05	1376.4	3.8721e-06	3.8279e-06	1375.3	372.63	3.7676e-06	3.7918e-06	424.16	142.93	124.21	42.774	3.9146e-06	52.954	50.854	71.653	89.162	0.488	125.639	134.170	0.223	5.254	163.366	90.506	4.733	8.964	9.347	14.138	153.841	13.354	-8191	255	
1469.929	1	1	0	0	0.077746	0.11807	0.11705	0.19776	0.27731	0.23191	0.18233	0.31942	0.23567	0.050778	0.21134	0.16795	0.10722	0.37488	0.068322	0.18333	-1.8833	-1.7896	-1.6042	-2.5146	-1.5333	-1.8708	-2.4271	-1.7042	-2.125	-1.7458	-1.6562	-2.5396	-1.5396	-1.7271	-2.3438	-1.5521	152.525	99.546	109.383	334.982	46.015	78.448	315.993	313.695	197.574	164.967	342.112	190.682	236.405	317.555	318.102	322.801	0.00071669	0.00055353	0.00016007	1360.8	3.5998e-06	3.844e-06	1357.7	366.92	5.187e-06	4.1541e-06	419.45	140.75	122.14	41.654	6.8578e-06	51.534	0.00038519	0.00034565	9.4548e-05	1376.2	3.9317e-06	3.8449e-06	1375.6	373.15	3.8765e-06	3.8087e-06	424.73	143.47	124.25	42.761	3.8599e-06	52.952	46.898	59.381	71.869	0.472	140.384	159.101	-0.013	4.984	125.908	147.661	4.380	8.921	9.672	13.983	130.171	13.167	-8191	255	
1470.025	1	1	0	0	0.075451	0.11123	0.42639	0.11586	0.41461	0.062628	0.15076	0.37414	0.21198	0.24213	0.032244	0.3269	0.24694	0.24211	0.25325	0.041238	-1.7687	-2.0604	-1.4125	-2.3563	-1.5979	-1.6229	-2.4917	-1.5333	-1.9438	-1.9562	-1.3792	-2.3729	-1.5438	-1.7354	-2.1667	-1.6521	251.638	338.582	231.791	169.151	179.027	26.181	321.662	303.682	71.658	9.172	207.521	326.003	254.335	249.855	92.181	29.817	0.00074328	0.00058092	0.00013798	1358.1	5.9768e-06	6.3843e-06	1355.8	366.7	9.5251e-06	2.416e-06	417.81	139.8	121.58	41.668	6.1611e-06	51.418	0.00038439	0.00036047	9.5748e-05	1375.9	3.8722e-06	3.9039e-06	1371.3	372.52	3.8535e-06	3.7759e-06	424.01	142.57	123.77	42.652	3.7895e-06	52.813	48.710	74.350	84.472	0.412	119.183	131.121	0.271	4.959	151.467	147.262	4.600	8.965	9.374	14.225	136.893	12.941	-8191	255	
1470.146	1	1	0	0	0.15704	0.11055	0.1418	0.40045	0.20427	0.27935	0.071677	0.23374	0.071857	0.094803	0.09631	0.12837	0.2004	0.19494	0.12663	0.14617	-1.5333	-2.1375	-1.3979	-2.5583	-1.65	-1.4646	-2.5875	-1.6146	-1.9146	-1.9875	-1.625	-2.2458	-1.8937	-1.375	-2.2062	-1.5792	226.442	178.865	62.473	299.261	329.970	342.579	230.076	5.324	211.561	294.693	338.109	253.059	50.824	338.891	275.699	129.674	0.00067757	0.00040938	9.8373e-05	1350.1	4.5138e-06	6.2936e-06	1356.4	365.18	6.8178e-06	4.8095e-06	418.38	139.89	121.2	41.635	8.9329e-06	51.602	0.00038352	0.00034824	9.7169e-05	1370.3	3.829e-06	3.753e-06	1372.4	371.93	3.8209e-06	3.7737e-06	424.22	142.57	123.58	42.61	3.7772e-06	52.841	54.119	55.418	74.353	0.497	145.088	129.362	0.361	5.080	156.016	156.487	4.840	8.819	9.462	14.153	129.869	12.765	-8191	255	
1470.242	1	1	0	0	0.34026	0.14928	0.38888	0.23287	0.065207	0.19999	0.21214	0.2651	0.26106	0.19949	0.1903	0.12692	0.02324	0.35463	0.16648	0.18726	-1.2771	-2.0917	-1.2	-2.3146	-1.8292	-1.325	-2.4125	-1.8396	-1.6125	-2.1458	-1.4771	-2.2729	-2.0958	-1.5083	-2.3104	-1.5979	169.308	126.764	266.438	305.159	277.519	74.152	293.585	288.285	40.198	45.552	338.459	264.225	281.384	255.355	233.220	282.042	0.00068439	0.00065175	0.0001687	1355.3	5.323e-06	7.3631e-06	1358	366.61	1.262e-05	5.4214e-06	417.85	139.84	121.21	41.77	4.508e-06	51.497	0.00037853	0.0003409	9.7329e-05	1372.6	3.8343e-06	3.8095e-06	1374.1	372.04	4.1714e-06	4.0056e-06	424.54	142.91	123.76	42.733	4.1674e-06	52.876	50.699	51.041	85.634	0.129	145.470	123.922	0.230	4.868	136.823	138.810	4.677	9.099	9.443	14.091	166.662	12.990	-8191	255	
1470.314	1	1	0	0	0.12401	0.22155	0.29758	0.36334	0.2697	0.24689	0.22953	0.24838	0.097623	0.077971	0.32051	0.01963	0.24578	0.22838	0.092451	0.19407	-1.2167	-2.1562	-1.3167	-2.2812	-1.9688	-1.5604	-2.3688	-1.8146	-1.6208	-2.1479	-1.525	-2.1708	-2.15	-1.4083	-2.1917	-1.8542	193.387	163.055	322.091	342.502	259.325	37.675	303.584	219.857	136.198	286.648	277.006	212.699	-5.377	324.663	136.607	329.307	0.00066222	0.00052655	0.00014787	1357.7	6.1599e-06	3.9516e-06	1355.4	367	8.7661e-06	5.371e-06	418.14	140.89	121.73	41.845	6.5644e-06	51.845	0.00041836	0.00038992	0.00011122	1374.5	4.4737e-06	4.5973e-06	1378.5	373.58	4.7158e-06	4.598e-06	425.18	143.72	124.59	42.832	4.8248e-06	53.038	49.558	69.644	83.324	0.527	135.914	148.745	0.472	5.300	154.171	98.266	4.407	8.854	9.603	13.946	125.817	12.775	-8191	255	
1470.434	1	1	0	0	0.096206	0.18647	0.039427	0.042102	0.13515	0.15069	0.3135	0.16863	0.3162	0.19886	0.083673	0.20611	0.12871	0.35743	0.10197	0.14284	-1.0125	-2.2021	-1.3083	-2.0271	-2.0042	-1.3104	-2.3875	-1.9979	-1.4062	-2.35	-1.9042	-1.9917	-2.2375	-1.5604	-2.1396	-2.1167	255.108	152.314	161.677	307.671	77.701	328.694	297.943	324.078	257.505	14.251	304.020	277.068	51.175	44.770	54.654	278.182	0.00053781	0.00039326	6.8125e-05	1361.5	6.4712e-06	8.8997e-06	1359.3	364.56	8.0766e-06	2.6256e-06	415.76	139.6	121.04	41.215	4.2285e-06	51.307	0.00046114	0.00044793	0.00012425	1377.3	5.122e-06	5.2016e-06	1375.7	372.2	5.364e-06	5.455e-06	424.04	142.66	123.69	42.529	5.6415e-06	52.86	47.528	62.521	58.399	0.200	164.677	198.157	0.085	4.985	151.284	115.580	4.671	9.018	9.386	14.254	185.914	13.096	-8191	255	
1470.530	1	1	0	0	0.069205	0.19527	0.29829	0.34599	0.1872	0.26268	0.34934	0.48763	0.181	0.18932	0.15531	0.31402	0.025449	0.29101	0.19634	0.3044	-1.0708	-2.2542	-1.6708	-1.8312	-2.4125	-1.4062	-2.4354	-2.1854	-1.4292	-2.1354	-1.7729	-1.8083	-2.4896	-1.5854	-1.9833	-2.2542	277.523	233.698	99.290	285.013	255.089	261.154	299.604	298.913	287.319	340.165	319.001	326.352	192.099	209.176	164.228	283.829	0.00068614	0.00027041	0.00014456	1354.3	7.4527e-06	1.0709e-05	1356	366.95	8.1211e-06	2.7761e-06	414.52	139.86	122.01	41.547	6.1235e-06	51.603	0.00052267	0.00052404	0.00014436	1374	5.9624e-06	6.0503e-06	1375.7	372.48	6.411e-06	6.5075e-06	425.09	143.06	124.43	42.777	6.9228e-06	53.126	57.423	47.135	62.794	0.555	148.822	128.342	0.142	4.832	112.523	178.742	4.412	8.626	9.190	13.970	139.459	13.115	-8191	255	
1470.627	1	1	0	0	0.26296	0.10682	0.2077	0.10657	0.21516	0.14979	0.30464	0.3646	0.15916	0.077487	0.11306	0.35175	0.095623	0.32286	0.13791	0.011498	-0.8375	-2.1854	-1.6896	-1.5729	-2.1583	-1.3521	-1.9896	-2.4042	-1.4083	-2.1417	-1.9062	-1.2313	-2.3167	-1.5479	-1.9229	-2.2833	31.382	4.727	337.311	245.267	233.901	111.682	303.826	293.094	330.151	148.707	7.355	264.912	69.685	299.926	203.704	154.965	0.00062749	0.00052883	0.00013444	1357.3	3.3265e-06	6.7087e-06	1362	366.57	6.1901e-06	6.0518e-06	418.03	139.89	121.85	41.475	3.7617e-06	51.403	0.000623	0.0006165	0.00017213	1378.3	6.7344e-06	6.6943e-06	1379.8	373.21	6.7852e-06	6.7838e-06	426.96	143.53	124.91	42.8	6.59e-06	53.03	45.874	119.345	81.495	0.473	134.755	141.855	0.403	4.992	137.029	180.047	4.910	8.657	9.227	14.068	161.864	12.681	-8191	255	
1470.723	1	1	0	0	0.17562	0.23565	0.28313	0.40338	0.2408	0.17094	0.12115	0.14169	0.10498	0.084363	0.11877	0.17716	0.060506	0.42588	0.11155	0.21025	-0.95833	-2.2354	-1.7708	-1.6354	-2.1437	-1.4333	-2.0896	-2.4958	-1.3333	-2.0583	-1.9917	-1.5938	-2.2625	-1.6479	-1.6562	-2.4208	95.215	275.087	146.063	316.142	219.168	287.093	163.069	-11.012	97.183	0.141	214.550	227.762	49.539	4.655	73.353	304.245	0.0006922	0.00044585	0.00018084	1359.6	3.1359e-06	8.585e-06	1357.7	366.24	7.9593e-06	5.6187e-06	417.05	140.25	121.58	41.513	6.4709e-06	51.53	0.00059815	0.00061881	0.00016709	1377.9	6.6538e-06	6.6315e-06	1377.9	373.07	6.7366e-06	6.7817e-06	425.25	143.23	124.5	42.724	6.6354e-06	53.085	50.813	69.863	75.703	0.247	98.897	157.239	0.355	4.970	159.727	124.518	4.549	8.730	9.496	13.708	149.707	13.043	-8191	255	
1470.842	1	1	0	0	0.10276	0.26014	0.096933	0.28516	0.335	0.17537	0.13741	0.20304	0.35117	0.32107	0.274	0.074522	0.05095	0.26346	0.092878	0.16581	-1.0979	-1.8167	-2.0062	-1.5167	-2.1229	-1.5812	-1.8312	-2.5729	-1.3583	-1.8	-2.275	-1.4042	-2.2146	-1.8021	-1.5104	-2.3875	132.861	98.075	147.145	312.767	215.671	108.246	293.304	329.815	127.560	310.943	210.637	230.965	135.457	329.370	7.116	319.753	0.00077557	0.00052389	0.00017042	1360.6	3.346e-06	3.9821e-06	1358.6	367.2	2.5593e-06	4.8506e-06	417.1	140.22	122.16	41.839	2.6668e-06	51.68	0.00061691	0.00059193	0.00016867	1378.2	6.6449e-06	6.4667e-06	1378.7	373.24	6.492e-06	6.383e-06	426.03	143.48	124.9	42.896	6.4599e-06	53.117	59.876	54.143	77.189	0.774	142.137	165.050	0.487	5.145	169.724	134.801	4.537	8.634	9.310	13.659	109.061	13.169	-8191	255	
1470.913	1	1	0	0	0.097478	0.19571	0.20578	0.14137	0.046401	0.16661	0.18685	0.30782	0.14094	0.16309	0.15921	0.19983	0.13821	0.072364	0.28158	0.28901	-0.90208	-1.8979	-2.0104	-1.4375	-2.0875	-1.9021	-1.8521	-2.4125	-1.3375	-1.9188	-2.3479	-1.3833	-2.1937	-2.0479	-1.1896	-2.4604	331.247	312.584	135.958	274.864	327.778	144.792	193.698	286.566	135.507	256.369	265.459	12.899	55.098	18.906	198.788	332.530	0.00068068	0.00031017	0.00012778	1365.1	4.4227e-06	7.1669e-06	1361.9	367.18	8.6993e-06	3.2323e-06	419.68	140.08	123.01	41.745	5.5387e-06	51.953	0.00058611	0.00057484	0.00015946	1381	6.2363e-06	6.3721e-06	1378.8	373.88	6.3697e-06	6.2488e-06	427.57	143.52	125.28	42.945	6.3423e-06	53.297	51.768	89.754	83.182	0.587	132.610	124.686	0.352	5.041	155.581	153.761	4.444	8.949	9.508	14.064	161.652	13.066	-8191	255	
1471.011	1	1	0	0	0.094078	0.072185	0.020991	0.19655	0.16483	0.11673	0.46871	0.2675	0.2587	0.030916	0.24386	0.25314	0.26205	0.12111	0.21202	0.1325	-1.3104	-1.6479	-2.0229	-1.7875	-2.0521	-1.9271	-1.5896	-2.5833	-1.6417	-1.7021	-2.2042	-1.4271	-1.9646	-2.1333	-1.3292	-2.4271	240.247	18.855	149.349	333.729	323.909	267.091	220.117	313.519	170.196	-6.464	314.942	-0.653	50.096	59.164	92.560	274.952	0.00063395	0.0003358	0.0001368	1357.5	4.3814e-06	7.9195e-06	1360.7	366.65	4.5086e-06	3.971e-06	417.39	139.6	121.69	41.585	4.2623e-06	51.228	0.00058016	0.00056217	0.00015626	1378.5	6.3148e-06	6.3543e-06	1376.7	373.2	6.4378e-06	6.4613e-06	425.69	142.96	124.37	42.774	6.5944e-06	52.963	49.981	68.536	73.632	0.018	101.989	149.260	0.346	5.086	185.307	181.752	4.756	8.723	9.647	13.966	102.279	12.896	-8191	255	
1471.130	1	1	0	0	0.12613	0.1446	0.047573	0.33716	0.16835	0.17798	0.35909	0.026219	0.25419	0.11685	0.14471	0.14527	0.090174	0.16884	0.092464	0.18665	-1.2375	-1.4312	-2.1771	-1.6417	-1.9896	-2.1688	-1.5958	-2.4083	-1.6437	-1.625	-2.3375	-1.7917	-1.8062	-2.2417	-1.5583	-2.4417	200.075	75.148	60.031	-9.288	289.358	220.991	298.299	240.730	-2.039	143.174	273.412	306.574	268.149	326.522	82.475	264.883	0.00061446	0.00047262	1.7965e-05	1355.1	5.03e-06	3.4164e-06	1355.7	364.63	4.8073e-06	1.4875e-06	416.5	139.16	121.36	41.139	3.38e-06	51.304	0.00059444	0.00060497	0.00016832	1373.8	6.6922e-06	6.5199e-06	1373.3	371.8	6.6178e-06	6.7627e-06	425.25	142.7	123.95	42.553	6.7079e-06	52.872	54.557	45.409	1.279	0.268	117.536	133.995	0.266	5.164	228.715	108.985	4.870	8.649	9.425	13.870	60.369	13.211	-8191	255	
1471.226	1	1	0	0	0.24268	0.097493	0.11648	0.48911	0.18128	0.07345	0.40117	0.20781	0.25874	0.22286	0.15903	0.24766	0.084061	0.21669	0.15493	0.075593	-1.4771	-1.5417	-2.2479	-1.8229	-1.6938	-2.1937	-1.6812	-2.2354	-1.9896	-1.3937	-2.3896	-1.8062	-1.6958	-2.4458	-1.4813	-2.1958	79.040	108.437	189.191	315.304	-7.598	176.426	297.450	299.183	128.048	231.007	151.460	-5.564	208.002	290.776	131.755	202.099	0.0006059	0.00048292	0.00014553	1351.5	5.9161e-06	5.6192e-06	1352	364.03	8.8056e-06	4.683e-06	416.49	138.79	120.89	41.372	7.548e-06	51.182	0.00061049	0.00061803	0.00017445	1371.4	6.7856e-06	6.671e-06	1373.2	370.87	6.7346e-06	6.9043e-06	424.09	142.12	123.71	42.528	6.8163e-06	52.736	58.374	32.392	131.878	0.411	114.991	146.893	0.124	5.052	160.141	123.002	4.710	8.677	9.692	13.983	140.175	13.373	-8191	255	
1471.322	1	1	0	0	0.22942	0.10843	0.29586	0.28854	0.11981	0.051003	0.28989	0.35002	0.212	0.16112	0.24294	0.072055	0.047958	0.19513	0.19572	0.032662	-1.6063	-1.4333	-2.2771	-1.8458	-1.4771	-2.1625	-1.5771	-2.2396	-2.075	-1.2979	-2.2896	-1.9354	-1.4417	-2.3937	-1.5312	-2.0146	136.563	344.430	259.664	312.847	46.413	318.059	258.105	306.885	277.262	336.314	296.585	-0.903	46.928	325.096	341.835	248.667	0.00070411	0.00055247	0.00017297	1345	3.1076e-06	8.8668e-06	1354.4	363.95	7.2974e-06	4.3423e-06	416.88	139.82	121.63	41.311	6.655e-06	51.29	0.00060988	0.00061066	0.00016888	1371.8	6.713e-06	6.6813e-06	1373.4	371.09	6.6467e-06	6.7256e-06	424.83	142.83	124.03	42.592	6.67e-06	52.816	50.243	92.029	39.894	0.403	139.483	152.810	0.440	5.228	157.642	100.707	4.496	8.776	9.297	14.008	162.932	12.762	-8191	255	
1471.443	1	1	0	0	0.26581	0.042031	0.083993	0.31268	0.28936	0.18183	0.22875	0.096513	0.11478	0.21184	0.083747	0.14473	0.021311	0.19098	0.32637	0.25	-1.7729	-1.4604	-2.1	-2.1458	-1.525	-2.2125	-1.8021	-2.0417	-2.1917	-1.3979	-2.1125	-2.0958	-1.4729	-2.3396	-1.4813	-1.9354	127.342	-0.436	109.078	249.687	271.515	289.688	-9.370	296.144	131.822	163.874	82.893	227.077	77.116	317.486	49.560	311.480	0.00074945	0.00044405	0.00011957	1358.1	8.1263e-06	7.4149e-06	1352.1	365.88	7.008e-06	5.113e-06	417.47	139.13	121.61	41.673	6.7942e-06	51.922	0.0005918	0.00059913	0.00016449	1374.6	6.4434e-06	6.4603e-06	1375.3	372.52	6.1256e-06	6.2865e-06	425.68	143.1	124.51	42.874	5.9736e-06	53.308	51.710	65.656	103.396	0.377	128.462	112.731	0.090	5.257	179.358	107.731	4.703	8.448	8.900	13.600	113.890	12.945	-8191	255	
1471.539	1	1	0	0	0.13418	0.14991	0.093841	0.22748	0.26961	0.087053	0.32434	0.064039	0.067581	0.40933	0.13075	0.20637	0.079999	0.1665	0.11479	0.26709	-1.7625	-1.5854	-1.8896	-2.1979	-1.3979	-2.2542	-1.7042	-1.6729	-2.4083	-1.1521	-2.2208	-2.1354	-1.4875	-2.3854	-1.6562	-1.675	43.530	25.223	59.751	200.919	181.428	58.792	344.827	255.228	259.987	5.091	29.037	17.969	3.479	304.991	199.475	207.511	0.00076257	0.00045535	0.00017635	1361.5	2.5753e-06	9.1379e-06	1359.3	367.84	2.5122e-06	5.8841e-06	419.96	140.29	122.46	41.798	4.4186e-06	51.659	0.00055609	0.00054857	0.00015127	1378.6	5.9084e-06	5.789e-06	1379.2	374.63	5.7959e-06	5.943e-06	426.96	143.54	124.83	42.909	5.7894e-06	53.214	55.132	60.511	91.057	0.124	153.927	122.254	0.089	5.049	159.771	123.479	4.210	8.546	9.462	13.667	129.512	13.019	-8191	255	
1471.611	1	1	0	0	0.41591	0.20027	0.26501	0.14533	0.16422	0.14178	0.24359	0.1377	0.3142	0.19377	0.24873	0.30767	0.22736	0.13983	0.29896	0.24045	-1.7375	-1.3875	-1.9562	-2.1896	-1.4625	-2.1583	-1.8646	-1.8083	-2.4104	-1.4458	-2.0125	-2.2979	-1.3167	-2.2438	-1.9396	-1.4875	329.170	281.424	178.904	250.505	300.427	283.360	328.829	311.393	249.882	-4.454	300.351	280.131	312.721	236.849	266.843	35.933	0.00067651	0.0001982	8.6844e-05	1358.6	3.7172e-06	6.4724e-06	1361.3	367.02	4.7927e-06	3.0605e-06	416.51	140.46	122.06	41.629	6.6126e-06	51.847	0.00054483	0.00054806	0.00015125	1376.9	5.7912e-06	5.7595e-06	1378.3	373.94	5.8721e-06	5.9928e-06	426.13	143.44	124.63	42.859	5.7808e-06	53.162	40.931	66.431	94.629	0.207	139.737	142.570	-0.037	5.043	143.998	180.727	4.464	8.533	9.041	13.961	142.504	13.159	-8191	255	
1471.731	1	1	0	0	0.079108	0.072156	0.27003	0.36917	0.11893	0.04666	0.33841	0.19524	0.10514	0.20275	0.23469	0.34025	0.15562	0.20885	0.074289	0.2598	-1.725	-1.6167	-1.6604	-2.3833	-1.4771	-2.1	-2.3396	-1.3521	-2.2417	-1.6042	-1.9417	-2.2917	-1.5896	-2.1146	-1.9625	-1.5646	89.032	248.680	160.579	321.223	100.938	271.901	303.677	304.633	109.182	73.614	290.245	310.973	11.437	309.839	183.613	291.705	0.00071022	0.00043798	0.00018813	1360.8	3.0038e-06	6.3409e-06	1356	367.94	5.6356e-06	4.234e-06	420	140.05	122.86	41.723	4.2271e-06	51.898	0.00054421	0.00052989	0.0001454	1376.8	5.7447e-06	5.6712e-06	1376.2	374.29	5.6091e-06	5.4127e-06	426.61	143.51	125.04	42.908	5.3684e-06	53.25	53.877	69.357	86.653	0.146	92.654	152.214	0.160	4.952	147.356	122.690	4.574	8.736	9.434	13.866	157.324	12.887	-8191	255	
1471.826	1	1	0	0	0.2002	0.063259	0.18857	0.10766	0.11825	0.25465	0.12497	0.27257	0.072084	0.075062	0.17962	0.25918	0.30928	0.19158	0.087961	0.24526	-1.8396	-1.5208	-1.6021	-2.3125	-1.4062	-1.7854	-2.2188	-1.5396	-2.2083	-1.6875	-1.6875	-2.3667	-1.4875	-2.1042	-2.1813	-1.5604	253.965	170.190	293.768	281.103	85.306	-7.786	78.800	262.660	325.352	15.168	1.069	-12.531	301.910	301.670	303.164	321.289	0.00069273	0.00050089	6.231e-05	1356	7.1226e-06	5.6781e-06	1360.2	368.29	9.584e-06	2.4505e-06	419.78	139.46	121.66	41.436	5.807e-06	51.139	0.00051343	0.00049867	0.00013825	1375.4	5.4773e-06	5.4465e-06	1375.8	374.03	5.4322e-06	5.469e-06	425.77	142.93	124.27	42.758	5.5747e-06	52.811	41.383	47.956	67.399	0.250	153.469	148.730	0.172	5.056	133.347	108.531	4.645	8.641	9.422	13.907	176.345	12.977	-8191	255	
1471.922	1	1	0	0	0.22883	0.096525	0.082421	0.27351	0.17109	0.10454	0.251	0.094477	0.37266	0.21412	0.0963	0.19481	0.14028	0.2047	0.053273	0.22554	-1.8917	-1.675	-1.4896	-2.6208	-1.6396	-1.8563	-2.3438	-1.5896	-2.2167	-1.8	-1.75	-2.3063	-1.6125	-1.95	-1.9917	-1.4458	71.483	40.748	194.697	274.666	188.904	340.295	-1.474	296.517	278.231	75.996	262.289	239.545	320.974	-11.890	121.776	343.197	0.00056152	0.00050679	0.0001559	1349.1	5.815e-06	8.7744e-06	1354.8	365.24	1.0484e-05	1.797e-06	418.6	139.26	121.91	41.488	4.5421e-06	51.457	0.00052891	0.00051437	0.00014625	1369.6	5.7956e-06	5.8861e-06	1371.9	371.43	5.8773e-06	5.7605e-06	425.12	142.59	124.3	42.636	5.9654e-06	52.909	54.544	53.828	102.643	0.272	161.311	132.448	0.058	5.062	133.350	150.359	4.434	8.723	9.256	14.061	142.570	13.194	-8191	255	
1472.018	1	1	0	0	0.067892	0.14138	0.23334	0.2254	0.10738	0.097846	0.18178	0.10345	0.090414	0.14628	0.26146	0.38154	0.18442	0.37088	0.36074	0.21543	-1.7396	-2.0542	-1.6208	-2.3937	-1.6625	-1.7146	-2.4979	-1.7479	-2.0187	-2.0646	-1.4229	-2.2146	-1.825	-1.7563	-2.3042	-1.75	93.270	130.954	65.931	321.260	203.693	302.684	303.618	283.290	61.659	248.041	299.134	10.703	22.809	323.580	186.366	272.523	0.00051416	0.00043186	9.3734e-05	1356.6	4.6885e-06	6.3162e-06	1356.8	366.91	6.8702e-06	5.7214e-06	418.41	140.21	121.91	41.661	6.2712e-06	51.746	0.00054345	0.00052605	0.00014728	1376.7	5.8414e-06	5.8861e-06	1376.5	373.22	5.71e-06	5.8677e-06	426.37	143.54	124.63	42.86	6.0038e-06	53.083	57.763	84.449	116.176	0.250	136.560	118.147	0.377	5.166	140.243	140.602	4.628	8.767	9.748	14.094	131.218	13.366	-8191	255	
1472.114	1	1	0	0	0.04936	0.22149	0.16624	0.20594	0.071755	0.15719	0.41661	0.3902	0.16103	0.067637	0.12529	0.284	0.17114	0.25821	0.14612	0.069123	-1.6938	-2.1083	-1.3292	-2.3979	-1.8792	-1.7938	-2.5542	-1.4479	-1.9479	-2.3187	-1.6625	-2.2938	-2.0396	-1.5333	-2.3104	-1.5	321.712	61.127	36.670	310.041	86.395	228.193	294.512	326.426	78.971	202.925	277.380	320.013	3.565	326.644	227.915	196.611	0.00072705	0.00061509	0.00010095	1362.3	3.2339e-06	5.4346e-06	1357.8	366.19	8.994e-06	6.1033e-06	417.56	139.48	121.28	41.478	3.2849e-06	51.278	0.00055296	0.00053872	0.00015529	1378.2	6.1804e-06	6.1799e-06	1375	372.86	6.1292e-06	6.3518e-06	425.4	143.08	124.07	42.67	6.528e-06	52.806	45.228	60.842	101.350	0.428	117.412	161.351	0.305	5.063	119.000	119.278	4.650	8.997	9.412	13.974	133.438	13.390	-8191	255	
1472.210	1	1	0	0	0.29913	0.16361	0.18906	0.28971	0.21092	0.18047	0.23553	0.18773	0.32335	0.068543	0.16761	0.22808	0.25631	0.18641	0.13334	0.17747	-1.5646	-2.1896	-1.4417	-2.4229	-1.7854	-1.4312	-2.4604	-1.7417	-1.8479	-2.2167	-1.6688	-2.35	-2.3333	-1.8208	-2.2812	-1.5792	306.613	131.898	35.977	329.978	121.744	303.996	257.509	266.334	173.504	43.178	296.420	298.161	314.544	232.011	342.884	210.380	0.00065033	0.00032734	0.00012687	1356.2	1.0411e-05	2.3598e-06	1349.8	365.57	4.9478e-06	6.2811e-06	414.25	138.28	121.55	41.4	2.5548e-06	51.377	0.00057946	0.00059332	0.00016394	1376.7	6.494e-06	6.608e-06	1372.6	371.52	6.4729e-06	6.4803e-06	423.83	142.64	123.88	42.65	6.3836e-06	52.81	56.561	51.347	99.046	0.732	147.783	139.533	0.382	5.229	108.597	116.587	4.547	9.073	9.426	14.153	109.775	13.299	-8191	255	
1472.307	1	1	0	0	0.15814	0.3045	0.011733	0.14338	0.10991	0.09836	0.20899	0.31413	0.15132	0.13145	0.10359	0.3714	0.3075	0.21979	0.056142	0.013425	-1.3083	-2.3167	-1.5958	-2.1437	-1.9	-1.275	-2.4771	-1.8667	-1.675	-2.3396	-1.6354	-2.0812	-2.1792	-1.4979	-2.3375	-1.9583	287.581	276.945	73.291	294.506	22.933	301.296	258.617	33.175	312.572	54.864	308.824	305.789	262.570	256.165	298.247	317.256	0.0005959	0.00013774	0.00019665	1361.6	1.9646e-06	6.8241e-06	1358.5	366.61	5.5052e-06	1.6731e-06	418.55	139.52	121.8	41.631	5.1929e-06	51.366	0.00057763	0.00057017	0.00015605	1380.5	6.1194e-06	6.006e-06	1377.5	372.87	5.9715e-06	6.0152e-06	425.1	143.01	124.17	42.732	5.994e-06	52.84	47.977	5.317	60.596	0.353	90.946	149.906	0.378	5.073	88.090	113.269	4.282	8.767	9.435	14.209	137.744	12.955	-8191	255	
1472.403	1	1	0	0	0.34365	0.31049	0.16744	0.091061	0.16397	0.18927	0.33471	0.29629	0.11776	0.13679	0.37465	0.1724	0.075092	0.18957	0.033527	0.13525	-1.1562	-2.4354	-1.4833	-2.2896	-2.1458	-1.4062	-2.4896	-2.1583	-1.5375	-2.3646	-1.8979	-1.8271	-2.3146	-1.5354	-2.0479	-2.0271	316.991	269.155	14.691	169.112	129.825	149.848	312.218	222.720	338.423	1.811	252.999	16.171	184.364	314.513	277.459	-10.820	0.00066342	0.0004315	9.1729e-05	1353.9	7.2575e-06	2.5128e-06	1355.7	364.17	8.6546e-06	7.241e-06	412.73	139.12	120.51	41.018	6.0769e-06	50.811	0.00055058	0.00055176	0.0001542	1376.1	6.074e-06	6.207e-06	1372.7	371.3	6.1829e-06	6.3747e-06	422.65	142.04	123.18	42.293	6.3462e-06	52.328	49.753	80.162	50.354	0.468	154.068	149.995	0.440	5.211	141.796	106.313	4.411	8.963	9.540	13.990	153.978	13.039	-8191	255	
1472.523	1	1	0	0	0.097292	0.30147	0.27087	0.36225	0.13389	0.18528	0.13884	0.22172	0.13569	0.21905	0.19504	0.32525	0.36597	0.16295	0.22858	0.16908	-1.1521	-2.3771	-1.7646	-1.8937	-2.1688	-1.475	-2.3063	-2.0396	-1.4833	-2.2313	-2.0375	-1.9937	-2.3792	-1.7604	-2.0958	-2.1854	108.924	287.943	323.536	320.193	176.610	177.306	241.752	335.641	91.450	75.126	317.921	333.542	3.595	292.971	225.821	295.527	0.00056884	0.00060015	0.00014658	1355.6	4.8958e-06	5.8132e-06	1349.5	362.27	6.7536e-06	8.7881e-06	411.75	138.56	120.21	40.824	2.9799e-06	50.787	0.00058247	0.00058338	0.00016373	1372	6.3819e-06	6.4713e-06	1367.8	368.85	6.3227e-06	6.2571e-06	421.81	141.49	122.98	42.16	6.1657e-06	52.407	56.816	66.106	82.983	0.541	159.110	161.822	0.351	5.050	171.634	138.421	4.376	8.605	9.091	13.746	137.713	13.038	-8191	255	
1472.620	1	1	0	0	0.11833	0.26085	0.21198	0.2066	0.030724	0.12082	0.43194	0.24634	0.15628	0.11923	0.18534	0.29392	0.1008	0.19429	0.07596	0.1168	-0.99792	-2.2521	-1.7396	-1.85	-2.3063	-1.7104	-2.2333	-2.3917	-1.5042	-2.3271	-1.95	-1.7146	-2.4583	-1.9167	-1.6562	-2.4562	319.167	129.231	16.494	218.163	198.610	98.324	281.312	327.948	20.393	215.108	46.042	298.224	279.345	232.448	-3.559	63.582	0.00068311	0.00028366	0.00015446	1351.2	5.8217e-06	4.3819e-06	1354.2	363.86	1.1108e-05	5.9828e-06	414.96	138.09	121.14	41.235	2.6856e-06	51.211	0.00055885	0.00055694	0.00015481	1370.7	6.0244e-06	5.9306e-06	1371	369.85	5.9438e-06	5.9262e-06	422.56	141.73	123.39	42.442	5.8777e-06	52.611	55.361	92.706	59.476	0.311	121.728	147.631	0.278	5.019	137.475	132.218	4.455	8.586	9.182	13.534	159.765	12.719	-8191	255	
1472.714	1	1	0	0	0.22428	0.2215	0.32266	0.098344	0.16682	0.2958	0.27171	0.31668	0.23612	0.095966	0.20534	0.27201	0.2694	0.4626	0.31382	0.091486	-0.99792	-2.1208	-1.9229	-1.6167	-2.2208	-1.6021	-1.9958	-2.3688	-1.675	-1.9958	-2.2167	-1.7292	-2.4	-1.85	-1.8708	-2.4875	85.445	26.366	144.189	323.679	259.671	149.121	287.750	288.685	209.385	191.461	63.209	285.902	17.948	280.460	240.548	270.876	0.00052582	0.0003895	5.8992e-05	1353.8	2.2982e-06	6.5659e-06	1354.3	363.14	9.3497e-06	5.6559e-06	414.55	139.31	120.89	41.353	5.2634e-06	51.237	0.00053233	0.00052712	0.00014646	1373.2	5.6757e-06	5.7299e-06	1371.1	370.63	5.5996e-06	5.6072e-06	424.1	142.42	123.6	42.504	5.6379e-06	52.736	53.564	56.937	100.705	0.096	125.496	152.259	0.106	4.939	152.706	118.147	4.114	8.706	9.387	13.850	134.113	12.766	-8191	255	
1472.812	1	1	0	0	0.25486	0.069984	0.21089	0.26117	0.19014	0.1724	0.27036	0.31274	0.040126	0.31116	0.17179	0.18308	0.10387	0.13371	0.26286	0.035884	-1.1375	-1.9708	-2.15	-1.8167	-2.1437	-1.7542	-1.9958	-2.3604	-1.6458	-1.9688	-2.2438	-1.8104	-2.3521	-2.1104	-1.5146	-2.5604	148.572	64.341	101.223	201.084	105.128	263.600	323.199	285.679	48.283	330.745	313.781	-0.618	199.449	341.745	13.428	33.321	0.00056603	0.00037131	0.00015903	1350.3	3.3984e-06	5.3169e-06	1353.9	363.83	5.1122e-06	4.4598e-06	412.83	138.26	119.96	41.224	6.2119e-06	50.971	0.00052816	0.00050596	0.00014345	1371.5	5.4e-06	5.5052e-06	1371.7	370.46	5.3498e-06	5.3518e-06	421.38	141.43	122.93	42.252	5.2599e-06	52.292	51.316	86.564	64.138	0.322	164.733	145.422	0.364	4.917	145.314	152.241	4.191	8.354	9.165	13.559	114.564	12.798	-8191	255	
1472.906	1	1	0	0	0.2104	0.22813	0.22055	0.069566	0.077308	0.31298	0.25119	0.10414	0.16339	0.2667	0.13559	0.32786	0.20932	0.24351	0.15908	0.24047	-1.3979	-2.1583	-2.1813	-1.7938	-2.1625	-2.0708	-1.7396	-2.6646	-1.7271	-1.9729	-2.3625	-1.5771	-2.2917	-2.0563	-1.5854	-2.6125	69.927	250.607	193.998	345.291	83.480	311.945	298.538	307.291	10.161	8.512	303.655	312.439	46.803	5.798	87.062	276.591	0.00056835	0.00062364	0.00016306	1352.8	5.1247e-06	4.1973e-06	1351.8	362.18	5.3384e-06	6.2701e-06	414.14	138.51	120.24	41.099	4.1341e-06	51.37	0.00048653	0.00046759	0.0001302	1369.4	5.0067e-06	4.8441e-06	1365.6	368.64	4.7764e-06	4.7442e-06	421.8	141.14	122.87	42.26	4.4875e-06	52.533	47.810	85.292	101.648	0.188	172.259	129.155	-0.112	4.730	111.416	148.384	4.039	8.479	9.261	13.303	126.128	12.692	-8191	255	
1473.002	1	1	0	0	0.20414	0.1102	0.14193	0.34788	0.13743	0.074512	0.007045	0.29904	0.28422	0.088	0.2572	0.19844	0.18845	0.29045	0.2665	0.088623	-1.1208	-1.7979	-2.3896	-1.5063	-2.2292	-2.0563	-1.7896	-2.6667	-1.7229	-1.75	-2.3729	-1.5625	-2.2667	-2.2146	-1.5042	-2.5354	266.619	-12.597	189.693	318.645	28.902	211.174	121.293	301.772	74.064	338.601	19.861	118.067	115.929	332.064	226.792	-3.580	0.00058157	0.00047675	0.00012528	1353.7	4.8255e-06	7.7715e-06	1362.4	366.96	7.2549e-06	4.6857e-06	419.33	139.8	123.01	42.092	2.5594e-06	52.128	0.0004207	0.00037851	0.00010564	1371.3	4.1246e-06	3.9881e-06	1374.7	373	4.0125e-06	3.9115e-06	426.01	143.34	124.89	43.042	3.8186e-06	53.416	60.255	56.105	56.608	-0.207	147.757	139.526	-0.262	4.600	140.110	125.997	3.956	8.425	8.936	13.462	128.751	12.665	-8191	255	
1473.123	1	1	0	0	0.36368	0.11437	0.10643	0.36284	0.19979	0.34997	0.26536	0.24556	0.10305	0.08564	0.034141	0.066242	0.055874	0.25779	0.25827	0.3209	-1.3292	-1.6938	-2.3167	-1.7854	-1.9417	-2.2708	-1.6333	-2.2875	-1.8667	-1.6021	-2.5229	-1.7271	-1.8542	-2.4521	-1.5479	-2.3688	144.397	0.541	131.648	-1.341	268.989	193.397	309.685	242.753	108.753	267.151	0.389	213.422	248.410	9.796	304.973	252.353	0.00067324	0.00040429	0.00016942	1363.8	3.6679e-06	3.905e-06	1363.1	370.52	8.9762e-06	4.0314e-06	418.73	139.99	122.44	41.664	4.7529e-06	51.425	0.00036864	0.00034641	9.3971e-05	1381.6	3.7773e-06	3.8259e-06	1381.6	375.94	3.881e-06	3.8697e-06	426.19	143.02	124.53	42.731	4.0138e-06	52.75	56.868	74.643	47.078	-0.049	151.355	165.309	0.008	4.637	167.683	125.942	4.193	8.515	8.998	13.293	118.580	12.990	-8191	255	
1473.219	1	1	0	0	0.023847	0.25247	0.23952	0.13546	0.11046	0.048937	0.12935	0.09583	0.078751	0.051726	0.1524	0.17442	0.13326	0.43023	0.062047	0.31797	-1.6396	-1.6313	-2.3812	-1.7396	-1.8438	-2.2896	-1.6542	-2.4125	-2.0938	-1.6833	-2.4688	-1.8479	-1.8521	-2.4896	-1.4354	-2.1708	193.615	132.825	170.362	272.463	258.854	124.906	253.737	334.261	174.941	285.564	-7.986	343.829	264.189	297.651	236.136	310.688	0.00067148	0.00043439	0.00012166	1356	6.8855e-06	7.9574e-06	1355.7	365.64	7.0504e-06	4.1011e-06	416.06	139.62	121.58	41.567	5.3608e-06	51.614	0.00040467	0.00037817	0.00010332	1374.1	4.1466e-06	4.1532e-06	1371.9	371.71	4.1908e-06	4.1884e-06	422.97	142.63	123.89	42.709	4.1194e-06	52.927	57.192	60.762	104.207	0.125	129.648	139.715	-0.144	4.584	124.028	135.705	3.926	8.387	9.002	13.430	157.133	12.602	-8191	255	
1473.315	1	1	0	0	0.1438	0.38017	0.22578	0.13066	0.1694	0.24381	0.51829	0.36537	0.20948	0.13704	0.20886	0.19819	0.20243	0.16122	0.1274	0.21697	-1.7646	-1.3146	-2.4917	-1.8896	-1.7938	-2.3333	-1.6604	-2.2771	-1.9396	-1.5562	-2.5479	-2.0917	-1.7542	-2.4	-1.4813	-2.1375	333.513	277.798	123.456	-7.749	218.667	213.295	343.062	310.995	309.100	90.229	313.032	333.388	206.778	189.147	15.671	337.813	0.00067695	0.00045376	0.00016261	1360.1	5.8826e-06	2.6737e-06	1358.5	367.36	5.5653e-06	4.092e-06	419.46	140.99	122.83	41.636	4.3541e-06	51.72	0.00040033	0.00037146	0.00010175	1376.9	3.9733e-06	3.8739e-06	1378	373.45	3.9492e-06	3.8309e-06	424.83	143.73	124.7	42.77	3.9941e-06	52.912	52.150	59.975	73.430	-0.280	151.403	149.420	-0.240	4.729	142.877	149.005	4.159	8.360	9.356	13.287	144.342	12.757	-8191	255	
1473.411	1	1	0	0	0.18162	0.18655	0.040189	0.27238	0.057735	0.20069	0.13959	0.26587	0.19913	0.21717	0.1079	0.31058	0.23609	0.40456	0.1291	0.35782	-1.8875	-1.4729	-2.1813	-2.0438	-1.4771	-2.3583	-1.5146	-2.1958	-2.1458	-1.4312	-2.1375	-2.1646	-1.5187	-2.575	-1.6875	-1.9104	239.005	303.558	270.350	338.457	328.369	2.786	305.601	279.999	280.614	266.307	329.042	251.021	330.618	243.738	304.416	332.961	0.00070733	0.00032309	0.00015721	1356.4	6.9051e-06	7.3254e-06	1349.5	364.26	5.8691e-06	4.1999e-06	413.44	137.45	120.36	40.767	4.1719e-06	50.363	0.00038834	0.0003535	0.0001007	1372.7	4.1069e-06	3.9395e-06	1365.2	369.48	4.0448e-06	4.1903e-06	418.39	139.96	121.89	41.77	4.4262e-06	51.7	54.131	57.637	85.408	-0.002	141.407	146.397	0.092	4.912	139.795	146.239	3.715	8.348	9.212	13.704	133.800	12.927	-8191	255	
1473.508	1	1	0	0	0.19425	0.10494	0.36781	0.34761	0.1521	0.24485	0.19047	0.37598	0.18421	0.37579	0.16816	0.36547	0.20537	0.27208	0.12787	0.31046	-1.9646	-1.4917	-2.2896	-2.2812	-1.475	-2.4062	-1.9438	-1.7271	-2.2583	-1.5604	-2.2833	-2.2229	-1.7146	-2.225	-1.7104	-1.7979	189.487	118.325	90.105	281.981	336.153	82.936	-8.566	286.511	149.398	47.788	217.704	341.255	331.870	343.282	172.920	340.919	0.0006781	0.00074871	0.00014889	1338.1	3.8194e-06	2.8924e-06	1338.4	358.07	4.9767e-06	4.2769e-06	410.45	136.67	118.88	40.614	5.3035e-06	50.849	0.00042396	0.00040888	0.00011219	1356.7	4.4401e-06	4.3981e-06	1355.3	364.56	4.5162e-06	4.427e-06	416.79	139.74	121.37	41.79	4.2129e-06	52.017	47.214	62.419	66.546	0.052	162.207	163.981	0.149	4.744	206.726	146.140	4.102	8.554	8.990	13.401	175.868	13.133	-8191	255	
#DATA ENDS
