BOXY.EXE: ISS Imagent and Oximeter Data Acquisition Program Version 0.80
Ascii Record File

#ACQ INFORMATION
2  Detector Channels 
16  External MUX Channels 
1  Auxiliary Channels 
5000  Waveform (CCF) Frequency (Hz)
1  Waveforms Skipped 
30  Waveforms Averaged 
1  Cycles Averaged 
16  Acquisitions per Waveform 
10.0806  Updata Rate (Hz) 

#FILE INFORMATION
TRUE -- External MUX Channel results are PARSED.
FALSE -- AC DC and Phase are NOT grouped.
TRUE -- Companion Program Settings File CREATED.
FALSE -- AC data not excluded
FALSE -- DC data not excluded
FALSE -- Phase data not excluded
FALSE -- Auxillary Chn. data not excluded
Tab delimiters

#CALIBRATION STATE
TRUE -- Waveform Calibration Values APPLIED.


#AUX CALIBRATION VALUES
Val Type	aux-1	

Term	1.0000e+00	
Factor	0.0000e+00	


#WF CALIBRATION VALUES
A = Detector Channel
Val Type	A-AC1	A-AC2	A-AC3	A-AC4	A-AC5	A-AC6	A-AC7	A-AC8	A-AC9	A-AC10	A-AC11	A-AC12	A-AC13	A-AC14	A-AC15	A-AC16	A-DC1	A-DC2	A-DC3	A-DC4	A-DC5	A-DC6	A-DC7	A-DC8	A-DC9	A-DC10	A-DC11	A-DC12	A-DC13	A-DC14	A-DC15	A-DC16	A-Ph1	A-Ph2	A-Ph3	A-Ph4	A-Ph5	A-Ph6	A-Ph7	A-Ph8	A-Ph9	A-Ph10	A-Ph11	A-Ph12	A-Ph13	A-Ph14	A-Ph15	A-Ph16	

Term	0.00000e+00	0.00000e+00	0.00000e+00	0.00000e+00	0.00000e+00	0.00000e+00	0.00000e+00	0.00000e+00	0.00000e+00	0.00000e+00	0.00000e+00	0.00000e+00	0.00000e+00	0.00000e+00	0.00000e+00	0.00000e+00	0.00000e+00	0.00000e+00	0.00000e+00	0.00000e+00	0.00000e+00	0.00000e+00	0.00000e+00	0.00000e+00	0.00000e+00	0.00000e+00	0.00000e+00	0.00000e+00	0.00000e+00	0.00000e+00	0.00000e+00	0.00000e+00	0.00000e+00	0.00000e+00	0.00000e+00	0.00000e+00	0.00000e+00	0.00000e+00	0.00000e+00	0.00000e+00	0.00000e+00	0.00000e+00	0.00000e+00	0.00000e+00	0.00000e+00	0.00000e+00	0.00000e+00	0.00000e+00	
Factor	1.00000e+00	1.00000e+00	1.00000e+00	1.00000e+00	1.00000e+00	1.00000e+00	1.00000e+00	1.00000e+00	1.00000e+00	1.00000e+00	1.00000e+00	1.00000e+00	1.00000e+00	1.00000e+00	1.00000e+00	1.00000e+00	1.00000e+00	1.00000e+00	1.00000e+00	1.00000e+00	1.00000e+00	1.00000e+00	1.00000e+00	1.00000e+00	1.00000e+00	1.00000e+00	1.00000e+00	1.00000e+00	1.00000e+00	1.00000e+00	1.00000e+00	1.00000e+00	X	X	X	X	X	X	X	X	X	X	X	X	X	X	X	X	

B = Detector Channel
Val Type	B-AC1	B-AC2	B-AC3	B-AC4	B-AC5	B-AC6	B-AC7	B-AC8	B-AC9	B-AC10	B-AC11	B-AC12	B-AC13	B-AC14	B-AC15	B-AC16	B-DC1	B-DC2	B-DC3	B-DC4	B-DC5	B-DC6	B-DC7	B-DC8	B-DC9	B-DC10	B-DC11	B-DC12	B-DC13	B-DC14	B-DC15	B-DC16	B-Ph1	B-Ph2	B-Ph3	B-Ph4	B-Ph5	B-Ph6	B-Ph7	B-Ph8	B-Ph9	B-Ph10	B-Ph11	B-Ph12	B-Ph13	B-Ph14	B-Ph15	B-Ph16	

Term	0.00000e+00	0.00000e+00	0.00000e+00	0.00000e+00	0.00000e+00	0.00000e+00	0.00000e+00	0.00000e+00	0.00000e+00	0.00000e+00	0.00000e+00	0.00000e+00	0.00000e+00	0.00000e+00	0.00000e+00	0.00000e+00	0.00000e+00	0.00000e+00	0.00000e+00	0.00000e+00	0.00000e+00	0.00000e+00	0.00000e+00	0.00000e+00	0.00000e+00	0.00000e+00	0.00000e+00	0.00000e+00	0.00000e+00	0.00000e+00	0.00000e+00	0.00000e+00	-1.65095e+02	-1.36760e+02	-1.28228e+02	-1.79802e+02	-7.58801e+01	-8.06562e+01	-1.58085e+02	-1.62015e+02	-8.34201e+01	-6.02352e+01	-1.69977e+02	-1.71992e+02	-1.83057e+02	-1.76155e+02	-6.30896e+01	-1.48803e+02	
Factor	2.68855e-05	1.33963e-04	4.06587e-05	1.73064e-01	1.18092e-06	1.38058e-06	1.79830e-01	6.39379e-02	1.39152e-06	1.46583e-06	8.33553e-02	3.13931e-02	2.72019e-02	8.97484e-03	1.12261e-06	1.30680e-02	1.59552e-06	1.68252e-06	4.69401e-07	8.55044e-02	1.82819e-08	1.84544e-08	8.38191e-02	3.15264e-02	1.83315e-08	1.84551e-08	3.98753e-02	1.49757e-02	1.33735e-02	4.44832e-03	1.83795e-08	6.25309e-03	X	X	X	X	X	X	X	X	X	X	X	X	X	X	X	X	



#DISTANCE SETTINGS
A = Detector Channel
A-1	A-2	A-3	A-4	A-5	A-6	A-7	A-8	A-9	A-10	A-11	A-12	A-13	A-14	A-15	A-16	

2.5000e+00	3.0000e+00	2.5000e+00	3.0000e+00	2.0000e+00	3.0000e+00	1.5000e+00	3.0000e+00	3.0000e+00	3.0000e+00	3.0000e+00	3.0000e+00	3.0000e+00	3.0000e+00	1.5000e+00	3.0000e+00	

B = Detector Channel
B-1	B-2	B-3	B-4	B-5	B-6	B-7	B-8	B-9	B-10	B-11	B-12	B-13	B-14	B-15	B-16	

1.0000e+01	1.0000e+01	1.0000e+01	1.4400e+00	1.0000e+01	1.0000e+01	1.5100e+00	1.9400e+00	1.0000e+01	1.0000e+01	1.9900e+00	2.4900e+00	2.4100e+00	2.9000e+00	1.0000e+01	2.9800e+00	




#DATA BEGINS
time	group	step	mark	flag	A-AC1	A-AC2	A-AC3	A-AC4	A-AC5	A-AC6	A-AC7	A-AC8	A-AC9	A-AC10	A-AC11	A-AC12	A-AC13	A-AC14	A-AC15	A-AC16	A-DC1	A-DC2	A-DC3	A-DC4	A-DC5	A-DC6	A-DC7	A-DC8	A-DC9	A-DC10	A-DC11	A-DC12	A-DC13	A-DC14	A-DC15	A-DC16	A-Ph1	A-Ph2	A-Ph3	A-Ph4	A-Ph5	A-Ph6	A-Ph7	A-Ph8	A-Ph9	A-Ph10	A-Ph11	A-Ph12	A-Ph13	A-Ph14	A-Ph15	A-Ph16	B-AC1	B-AC2	B-AC3	B-AC4	B-AC5	B-AC6	B-AC7	B-AC8	B-AC9	B-AC10	B-AC11	B-AC12	B-AC13	B-AC14	B-AC15	B-AC16	B-DC1	B-DC2	B-DC3	B-DC4	B-DC5	B-DC6	B-DC7	B-DC8	B-DC9	B-DC10	B-DC11	B-DC12	B-DC13	B-DC14	B-DC15	B-DC16	B-Ph1	B-Ph2	B-Ph3	B-Ph4	B-Ph5	B-Ph6	B-Ph7	B-Ph8	B-Ph9	B-Ph10	B-Ph11	B-Ph12	B-Ph13	B-Ph14	B-Ph15	B-Ph16	aux-1	digaux	

3340.170	1	1	0	512	0.12935	0.27763	0.093542	0.2051	0.30932	0.32936	0.17391	0.098396	0.37097	0.24241	0.12043	0.13231	0.271	0.268	0.045653	0.22363	-2.5708	-3.4854	-3.0729	-3.2104	-3.2979	-3.2229	-3.3063	-3.4021	-2.8792	-3.5062	-3.325	-3.1854	-3.6042	-3.1792	-3.5271	-3.4938	310.719	166.608	358.308	458.039	396.542	192.427	390.925	309.852	133.286	377.017	136.727	453.458	177.164	136.038	355.078	446.952	0.0013783	0.000212	8.6438e-05	658.69	1.3039e-06	4.7016e-06	715.85	266.32	1.0097e-05	4.3946e-06	340.28	155.4	115.19	62.224	7.6277e-06	92.367	0.00087853	0.00084403	0.00026066	701.81	8.9647e-06	9.6799e-06	759.44	281.17	9.2756e-06	9.556e-06	359.76	161.89	120.29	64.531	1.0224e-05	95.383	138.641	140.708	341.366	133.258	160.003	297.338	132.091	138.551	240.574	277.764	136.845	140.527	141.902	146.215	244.019	143.591	-8191	255	
3340.264	1	1	0	0	0.11889	0.11592	0.017361	0.17887	0.10682	0.085432	0.21229	0.24273	0.11926	0.027721	0.22269	0.15545	0.078538	0.26949	0.19955	0.14287	-2.6396	-3.5458	-3.375	-3.0812	-3.4875	-3.0896	-3.5125	-3.4479	-3.0375	-3.5312	-3.4354	-3.2979	-3.5021	-3.3208	-3.3646	-3.5146	256.171	149.256	280.008	362.041	233.916	305.893	425.496	467.181	291.663	460.814	438.864	144.566	432.016	402.677	403.924	357.084	0.0014996	0.00047091	0.00021349	658.41	2.475e-06	8.5684e-06	718.26	266.61	7.4674e-06	9.7924e-06	341.43	155.96	114.88	61.953	3.6303e-06	92.935	0.00088177	0.00089798	0.00025891	701.28	9.0151e-06	1.0016e-05	759.33	280.67	9.3511e-06	1.0018e-05	360.55	162.43	120.25	64.62	1.0018e-05	95.686	146.873	194.512	214.963	133.126	249.814	258.260	132.155	138.552	256.808	237.141	136.845	140.425	141.816	146.080	254.892	143.755	-8191	255	
3340.362	1	1	0	0	0.046049	0.05777	0.26512	0.011782	0.28063	0.08324	0.15617	0.28845	0.053896	0.12169	0.26774	0.20488	0.095678	0.39008	0.17639	0.33802	-2.7958	-3.55	-3.4458	-3.1312	-3.5021	-3.2313	-3.3104	-3.7167	-3.2438	-3.3604	-3.4146	-3.2646	-3.7021	-3.4271	-3.1604	-3.6167	282.148	261.130	406.112	129.713	460.792	455.767	174.856	433.837	325.730	208.638	409.709	392.860	228.681	135.413	180.975	436.011	0.0014435	0.00064788	0.00018663	659.51	5.1741e-06	5.7765e-06	714.75	265.71	8.7126e-06	4.6719e-06	336.35	153.25	114.24	61.418	1.548e-06	90.545	0.00087546	0.00092018	0.00025008	701.26	9.075e-06	1.0164e-05	755.9	278.95	9.3803e-06	1.0115e-05	353.97	159.4	118.94	63.809	9.5305e-06	93.261	146.447	174.410	203.843	133.441	275.179	251.349	132.206	138.505	263.545	262.522	136.978	140.573	141.797	146.250	364.250	143.602	-8191	255	
3340.481	1	1	0	0	0.078108	0.1244	0.074301	0.21282	0.12372	0.063421	0.099318	0.30564	0.20796	0.090023	0.19454	0.23046	0.14235	0.18024	0.074807	0.21252	-2.675	-3.4667	-3.2417	-3.075	-3.5	-3.3667	-3.2625	-3.7479	-3.1875	-3.5938	-3.4854	-3.1375	-3.5958	-3.4313	-3.2146	-3.7771	211.759	238.298	354.229	436.813	447.345	241.713	381.670	435.160	329.882	394.451	478.967	146.868	129.899	401.943	344.037	348.667	0.0013353	0.00080626	0.00028842	648.77	3.2918e-06	4.0673e-06	702.73	261.63	5.8928e-06	5.968e-06	331.69	151.33	113.61	60.94	4.5476e-06	90.286	0.00086849	0.00090681	0.00023386	690.42	9.0851e-06	9.8942e-06	741.48	275.72	9.4738e-06	9.9805e-06	349.29	157.35	118.57	63.217	9.3172e-06	92.589	145.985	217.576	202.766	133.455	260.390	324.206	132.179	138.742	200.947	257.246	136.895	140.642	141.921	146.151	271.331	143.596	-8191	255	
3340.577	1	1	0	0	0.28499	0.21514	0.038991	0.073625	0.20748	0.15232	0.25237	0.13461	0.19462	0.15822	0.18485	0.32751	0.20834	0.18944	0.12731	0.27096	-2.8771	-3.1562	-3.3646	-3.0167	-3.5042	-3.2292	-3.3063	-3.5375	-3.1	-3.2979	-3.7062	-3.0125	-3.5687	-3.4458	-3.0167	-3.7771	205.833	187.559	406.188	139.358	350.669	366.986	459.914	328.484	327.967	324.751	429.474	437.562	142.091	455.797	393.082	389.831	0.0014863	0.00051423	0.00015887	649.14	1.6041e-06	4.1761e-06	704.01	262.64	7.8381e-06	3.0056e-06	334.1	152.77	113.84	61.205	4.4483e-06	91.052	0.00089298	0.00090186	0.00023086	689.55	9.5247e-06	9.6938e-06	741.82	276.2	9.8121e-06	9.7743e-06	350.7	158.59	119.32	63.646	9.3505e-06	93.787	140.382	301.411	248.102	133.087	202.499	279.039	132.375	138.293	274.907	331.317	136.969	140.655	141.762	146.296	297.770	143.649	-8191	255	
3340.673	1	1	0	0	0.096602	0.04597	0.21726	0.20501	0.15917	0.071642	0.28129	0.30092	0.26838	0.11451	0.092478	0.14962	0.21075	0.24217	0.15998	0.24438	-2.7875	-3.275	-3.4229	-3.2	-3.325	-3.3812	-3.1729	-3.7521	-3.3167	-3.0667	-3.775	-3.2146	-3.4646	-3.6125	-3.0167	-3.5729	200.589	408.955	156.136	398.394	142.761	133.088	430.690	463.372	226.436	174.068	265.583	449.857	334.201	476.369	282.046	412.039	0.0014571	0.00053502	0.00021271	651.97	5.3241e-06	8.6716e-06	708.04	264.96	4.229e-06	2.4027e-06	338.42	155.82	114.84	62.096	5.4631e-06	92.672	0.00092707	0.00088943	0.00022889	693.47	9.9451e-06	9.5684e-06	748.79	278.54	1.0167e-05	9.7478e-06	355.75	161.75	120.63	64.426	9.4765e-06	95.45	143.697	206.913	229.265	133.394	245.906	294.008	132.383	138.530	224.356	239.353	136.874	140.675	142.024	146.211	234.070	143.604	-8191	255	
3340.770	1	1	0	0	0.12848	0.41326	0.14881	0.10754	0.36074	0.15395	0.13799	0.20485	0.058463	0.043187	0.18063	0.20034	0.12407	0.15438	0.22092	0.167	-2.7812	-3.2	-3.5792	-3.0479	-3.3667	-3.5146	-3.0229	-3.5771	-3.3417	-3.1083	-3.7583	-3.2104	-3.3125	-3.6958	-3.1042	-3.6146	233.836	391.920	303.046	133.485	313.576	257.311	134.695	475.447	463.837	381.104	150.800	443.458	383.704	121.129	420.764	457.963	0.0015046	0.00073036	0.00016293	650.17	2.997e-06	6.9479e-06	708.83	264.64	6.1992e-06	1.0681e-06	334.68	154.2	114.57	61.546	5.2739e-06	91.379	0.00095454	0.00088818	0.00023122	695.78	1.0179e-05	9.3937e-06	747.46	278.85	1.0038e-05	9.6105e-06	353.26	160.47	120.08	63.927	9.2202e-06	94.263	147.057	237.187	216.632	133.527	309.091	240.999	132.126	138.404	297.119	334.375	137.026	140.504	141.923	146.272	252.392	143.594	-8191	255	
3340.866	1	1	0	0	0.33269	0.33445	0.20495	0.20882	0.15918	0.18238	0.22838	0.087333	0.18478	0.123	0.15263	0.14111	0.21457	0.20003	0.078565	0.47478	-2.7229	-3.0958	-3.5208	-3.1667	-3.2875	-3.2667	-3.15	-3.4417	-3.4833	-2.9833	-3.7021	-3.4188	-3.3646	-3.6583	-3.0125	-3.5229	378.328	159.170	381.772	471.086	380.111	276.047	122.685	441.775	203.756	252.631	131.286	419.928	470.379	139.409	432.062	421.471	0.0015295	0.00065704	0.00025124	649.63	1.6693e-06	8.4924e-06	700.24	264.26	6.8702e-06	6.5438e-06	334.42	154.16	113.81	61.678	6.0846e-06	91.787	0.00092288	0.00086696	0.00023002	695.88	1.0051e-05	9.3298e-06	742.86	279.47	9.9313e-06	9.648e-06	352.54	160.91	119.71	63.925	9.5261e-06	94.828	145.281	243.912	203.890	133.391	236.698	320.236	131.910	138.369	275.362	282.178	137.071	140.652	141.802	146.197	236.465	143.596	-8191	255	
3340.962	1	1	0	0	0.3128	0.048707	0.17001	0.17605	0.27398	0.057081	0.15357	0.29089	0.1211	0.16223	0.26207	0.24006	0.11103	0.1245	0.16919	0.12797	-2.6917	-3.1458	-3.6042	-3.2542	-3.1583	-3.5354	-2.9958	-3.6042	-3.2458	-2.9083	-3.5521	-3.2042	-3.3167	-3.6708	-3.0812	-3.525	325.550	401.995	469.883	148.949	268.902	126.719	432.162	169.910	397.501	192.749	467.308	419.417	414.825	448.691	231.508	466.106	0.0013775	0.00065836	0.0002019	651.6	2.3952e-06	6.2103e-06	707.29	263.62	2.2559e-06	1.8431e-06	337.12	154.46	114.59	61.951	9.4905e-06	92.754	0.00090928	0.00087639	0.00023991	698.12	9.9324e-06	9.2996e-06	748.24	280.3	9.756e-06	9.7297e-06	355.08	161.44	120.01	64.228	9.9004e-06	95.84	145.930	223.075	161.237	133.357	266.618	249.647	132.168	138.676	320.530	475.367	137.122	140.794	141.682	146.083	248.785	143.695	-8191	255	
3341.083	1	1	0	0	0.079058	0.059589	0.19582	0.28916	0.10856	0.23813	0.13687	0.12835	0.21348	0.13877	0.30887	0.11807	0.052536	0.32893	0.18561	0.35605	-2.9896	-2.9979	-3.4604	-3.1646	-3.1562	-3.4188	-3.2562	-3.5062	-3.3979	-3.1271	-3.3854	-3.4062	-3.1437	-3.6646	-3.2479	-3.3396	479.326	422.530	346.695	399.720	220.475	236.297	460.611	131.035	356.212	154.188	388.234	127.590	169.014	464.313	388.247	422.296	0.0014087	0.0008169	0.00011663	652.51	3.9392e-06	1.9353e-06	709.12	263.7	6.2815e-06	2.6096e-06	338.52	155.66	114.5	62.182	8.4671e-06	93.067	0.00089073	0.00086596	0.00024858	697.56	9.7059e-06	9.1246e-06	752.45	280.76	9.4541e-06	9.4984e-06	357.48	162.66	120.08	64.365	1.0103e-05	96.066	142.058	184.754	198.816	133.288	252.538	245.283	132.124	138.499	215.130	250.184	136.747	140.675	141.706	146.217	246.170	143.663	-8191	255	
3341.179	1	1	0	0	0.22013	0.13458	0.15356	0.078788	0.10992	0.088058	0.15143	0.32576	0.2397	0.046814	0.10709	0.2268	0.17066	0.30888	0.070898	0.18192	-3.2604	-3.0104	-3.5167	-3.4271	-2.975	-3.45	-3.3312	-3.1729	-3.5646	-3.1646	-3.6813	-3.3688	-3.3146	-3.5479	-3.2646	-3.5333	344.496	151.522	359.202	146.635	132.985	126.586	460.645	123.720	153.058	286.809	222.922	478.441	449.605	123.690	371.427	448.039	0.0014654	0.00054151	9.4264e-05	649.2	6.637e-06	8.0279e-06	704.03	262.33	3.0737e-06	2.6424e-06	337.03	153.81	113.69	61.692	9.5015e-06	91.777	0.00087435	0.00086131	0.00025685	693.69	9.5521e-06	9.1405e-06	748.4	278.74	9.1549e-06	9.4075e-06	355.39	160.09	119.14	63.897	1.0147e-05	94.605	146.507	207.177	199.101	133.387	281.377	262.565	132.144	138.527	257.062	178.401	136.699	140.438	141.597	146.179	248.169	143.460	-8191	255	
3341.273	1	1	0	0	0.1826	0.081335	0.1352	0.081315	0.25215	0.19215	0.20602	0.069613	0.22499	0.32364	0.17793	0.24131	0.12346	0.062137	0.19929	0.31241	-2.9062	-2.9604	-3.3563	-3.4562	-3.075	-3.6771	-3.2354	-3.1833	-3.5854	-3.1021	-3.5667	-3.575	-2.9833	-3.8167	-3.3354	-3.2313	263.382	298.469	342.527	415.743	249.866	254.479	472.699	401.970	475.745	222.121	363.918	387.586	383.867	385.758	239.420	408.857	0.001386	0.00089728	8.5979e-05	649.66	8.923e-06	3.4953e-06	703.15	262.38	5.5895e-06	6.4082e-06	335.65	153.89	114.08	61.701	6.6495e-06	91.701	0.00084321	0.00086575	0.00025928	691.68	9.3512e-06	9.3606e-06	747.59	277.84	9.0277e-06	9.6788e-06	354.66	159.99	119.3	64.09	1.0219e-05	94.988	145.423	174.632	153.800	133.266	280.057	191.676	132.058	138.786	239.596	229.657	136.842	140.630	141.549	146.150	266.991	143.583	-8191	255	
3341.369	1	1	0	0	0.096663	0.11143	0.26521	0.16129	0.097648	0.27278	0.088733	0.11424	0.12885	0.18513	0.16765	0.2662	0.15486	0.22265	0.074236	0.40446	-3.1917	-3.1792	-3.2792	-3.5563	-3.2271	-3.4729	-3.3958	-3.4604	-3.5479	-3.05	-3.4917	-3.5187	-3.1396	-3.5625	-3.5479	-3.3521	257.083	426.137	452.238	395.280	182.161	209.467	431.632	400.956	401.227	346.142	138.584	412.104	135.531	432.096	359.443	412.406	0.0014716	0.00080469	0.00016093	648.35	4.1737e-06	4.633e-06	703.04	263.04	5.7942e-06	9.5593e-06	335.87	154.88	114.46	61.84	8.9312e-06	92.981	0.00084706	0.00090397	0.00026102	690.91	9.4236e-06	9.8439e-06	747.84	278.08	9.0455e-06	1.0125e-05	355.61	160.94	119.55	64.438	1.0014e-05	95.808	144.372	201.243	268.913	133.475	204.685	243.432	132.146	138.609	298.454	244.899	136.939	140.719	141.784	146.118	247.383	143.484	-8191	255	
3341.465	1	1	0	0	0.36308	0.20371	0.14432	0.050888	0.26114	0.13993	0.20617	0.11228	0.1276	0.10076	0.13477	0.15101	0.17772	0.12863	0.21734	0.028275	-3.2792	-2.9938	-3.3312	-3.5271	-3.0292	-3.5187	-3.425	-3.0958	-3.3771	-3.25	-3.3937	-3.6875	-3	-3.5812	-3.4167	-3.2458	428.864	423.801	480.134	207.385	212.301	434.536	423.049	202.445	344.594	328.784	373.965	342.519	442.910	413.313	289.293	389.202	0.0013522	0.00064239	0.00012454	647.11	6.2363e-06	5.8459e-06	708.3	264.42	1.0759e-05	9.1837e-06	336.44	154.68	113.85	61.732	7.774e-06	92.469	0.00085518	0.00092643	0.00025584	688.96	9.4245e-06	1.019e-05	748.07	278.65	9.2135e-06	1.0336e-05	355.33	160.88	119.61	64.443	9.6795e-06	95.397	141.722	160.967	273.984	133.090	252.892	251.612	132.344	138.426	237.535	189.857	136.975	140.432	141.606	146.080	275.944	143.346	-8191	255	
3341.562	1	1	0	0	0.066421	0.16557	0.21602	0.28861	0.23458	0.038415	0.1092	0.16229	0.081406	0.12728	0.076291	0.10283	0.14755	0.13997	0.23606	0.3059	-3.1208	-3.2229	-3.1646	-3.5229	-3.2792	-3.4813	-3.4521	-3.0958	-3.7771	-3.4167	-3.2708	-3.7792	-3.4083	-3.3083	-3.4646	-3.0812	290.338	398.995	192.431	124.570	126.627	226.480	395.917	430.500	432.200	435.260	256.436	343.482	438.306	148.489	413.904	409.656	0.0014888	0.00054365	0.00012414	646.32	4.7961e-06	1.035e-05	700.38	260.58	4.7239e-06	8.8615e-06	333.39	153.02	113.88	61.456	8.2406e-06	91.529	0.00086551	0.00093716	0.00024907	685.78	9.5361e-06	1.022e-05	740.54	276.04	9.4993e-06	1.0211e-05	351.85	158.97	119.18	64.05	9.3581e-06	94.313	144.201	479.027	169.298	133.261	224.851	257.632	132.293	138.566	238.163	284.877	136.715	140.520	141.661	146.113	281.687	143.616	-8191	255	
3341.658	1	1	0	0	0.044108	0.24034	0.15511	0.15357	0.19652	0.097289	0.28322	0.24858	0.010415	0.17497	0.16086	0.070039	0.092048	0.16532	0.12461	0.2775	-3.1875	-3.2812	-3.0375	-3.4917	-3.2833	-3.2979	-3.4125	-3.1708	-3.4396	-3.3604	-3.2979	-3.4646	-3.2208	-3.5125	-3.4271	-3.0875	290.668	442.437	361.237	400.287	428.541	214.795	376.943	444.573	347.817	336.335	221.416	191.950	448.927	386.904	136.294	381.103	0.0015099	0.00039362	5.3176e-05	644.8	7.591e-06	3.116e-06	698.06	260.86	7.9259e-06	6.2472e-07	334.94	153.93	113.54	61.765	5.5369e-06	91.894	0.00089827	0.00091807	0.00024589	687.28	1.0013e-05	1.0285e-05	739.69	276.59	9.9541e-06	1.0143e-05	352.71	159.59	119.49	64.17	9.3831e-06	94.774	147.789	127.022	281.653	133.288	218.794	165.922	132.027	138.473	207.071	430.905	136.950	140.683	141.648	146.090	295.562	143.385	-8191	255	
3341.754	1	1	0	0	0.18671	0.25162	0.17452	0.23756	0.37559	0.21161	0.13577	0.30509	0.14449	0.069817	0.11461	0.064908	0.076808	0.11878	0.076146	0.17862	-3.1208	-3.25	-3.1542	-3.6562	-3.0979	-3.2417	-3.4458	-3.0687	-3.4896	-3.3937	-3.2583	-3.3854	-3.3292	-3.4188	-3.5979	-3.3083	242.131	449.083	255.042	390.698	219.902	348.570	278.501	450.714	347.669	420.861	377.824	338.120	381.281	121.311	238.145	161.108	0.0013507	0.00059297	0.00032813	645.47	4.2301e-06	1.8908e-06	701.07	262.79	9.223e-06	8.4143e-06	334.62	154	114.05	61.814	3.6769e-06	92.501	0.00094952	0.00091946	0.00024915	688.6	1.0317e-05	1.0163e-05	742.83	277.38	1.038e-05	9.9076e-06	354.19	160.28	119.85	64.312	9.369e-06	95.62	144.898	176.884	175.202	133.225	193.893	371.239	132.171	138.648	236.775	445.109	136.911	140.677	141.699	146.136	285.969	143.539	-8191	255	
3341.874	1	1	0	0	0.094298	0.34016	0.12946	0.091373	0.13698	0.093378	0.15585	0.12547	0.23354	0.26648	0.26036	0.17101	0.32833	0.15896	0.097808	0.11678	-3.0104	-3.4354	-2.9083	-3.7875	-3.3354	-3.2104	-3.6979	-3.0854	-3.3333	-3.4729	-3.0542	-3.5396	-3.4688	-3.3563	-3.4104	-3.1104	464.135	321.046	255.433	131.076	479.216	262.659	458.646	351.269	182.481	331.134	346.003	412.281	403.928	385.992	374.081	124.538	0.0015137	0.00018387	0.00025942	646.31	3.925e-06	6.3426e-06	700.49	261.8	3.6421e-06	5.8068e-06	333.52	153.79	113.77	61.472	8.7597e-06	92.009	0.00097507	0.00089789	0.00024866	690.82	1.0416e-05	9.991e-06	742.01	277.09	1.0442e-05	9.6293e-06	352.12	160.18	119.53	64.02	9.2099e-06	94.669	143.862	232.598	224.903	133.511	151.612	340.574	132.286	138.620	189.855	277.276	136.879	140.540	141.754	146.115	262.510	143.580	-8191	255	
3341.971	1	1	0	0	0.061794	0.22105	0.035135	0.084372	0.21148	0.26296	0.088251	0.24119	0.17593	0.19549	0.061204	0.10027	0.042886	0.22942	0.1677	0.46487	-2.8542	-3.2146	-2.8125	-3.6312	-3.2667	-3.3021	-3.6688	-3.1708	-3.5646	-3.3833	-3.3646	-3.3583	-3.3479	-3.1771	-3.3208	-3.4354	279.888	408.654	222.698	431.534	470.087	192.305	159.221	122.154	123.806	220.563	366.273	396.325	130.067	444.647	259.182	459.192	0.0013887	0.00051136	0.00020191	645.07	1.4264e-06	1.9967e-06	697.13	258.51	4.6465e-06	6.5635e-06	328.97	151.43	112.73	61.171	5.8914e-06	90.947	0.00096112	0.00086436	0.00024238	689.47	1.014e-05	9.775e-06	735.76	275.83	1.0236e-05	9.5054e-06	348.62	158.47	118.49	63.697	9.3141e-06	94.227	146.294	209.740	198.752	133.409	417.249	130.069	132.033	138.636	293.312	280.206	136.823	140.595	141.873	145.996	264.480	143.515	-8191	255	
3342.042	1	1	0	0	0.10444	0.12947	0.19111	0.089208	0.20118	0.28112	0.2015	0.21035	0.13382	0.026551	0.29036	0.18305	0.065238	0.16026	0.18457	0.21292	-2.7833	-3.3729	-3.0854	-3.575	-3.4771	-3.125	-3.4979	-3.4313	-3.3125	-3.4167	-3.3104	-3.5396	-3.3292	-3.2188	-3.45	-3.5604	274.130	473.565	237.973	333.110	356.740	357.117	355.557	444.254	363.092	361.208	446.924	445.713	265.388	187.110	426.458	454.801	0.0014193	0.00021899	0.00019383	648.18	4.4107e-06	3.712e-06	696.91	260.05	5.8261e-06	2.9672e-06	331.37	152.74	113.02	61.339	1.0243e-05	91.852	0.00094101	0.00085955	0.00024695	692.34	9.8715e-06	9.7937e-06	739.1	276.27	1.0087e-05	9.3016e-06	349.76	159.46	118.63	63.848	9.689e-06	94.948	146.430	199.569	246.344	133.441	269.086	191.919	132.036	138.503	210.170	232.383	136.919	140.790	141.639	146.048	267.215	143.497	-8191	255	
3342.163	1	1	0	0	0.1141	0.32945	0.19715	0.2698	0.226	0.041774	0.22313	0.14194	0.24232	0.22259	0.19377	0.06591	0.087435	0.0481	0.12994	0.14521	-2.9125	-3.3625	-3.1333	-3.4083	-3.5208	-3.0417	-3.6521	-3.4417	-3.0833	-3.6021	-3.0708	-3.6437	-3.5521	-3.1729	-3.5438	-3.5792	324.100	186.649	456.753	417.381	464.684	459.179	475.989	138.541	207.823	382.549	383.634	329.759	352.395	184.424	185.145	450.960	0.0015021	0.00083935	0.00020893	645.37	3.1602e-06	3.9374e-06	700.15	260.64	7.5972e-06	8.4984e-06	333.32	153.87	112.74	61.837	9.0518e-06	92.583	0.00092702	0.00085413	0.00025612	692.56	9.6187e-06	9.7434e-06	743.52	276.9	9.9952e-06	9.3433e-06	353.2	160.62	118.61	64.145	1.0211e-05	95.773	143.196	177.145	220.899	133.407	221.500	261.131	132.253	138.332	243.186	254.855	136.941	140.521	141.721	146.039	293.262	143.552	-8191	255	
3342.259	1	1	0	0	0.12904	0.082766	0.23727	0.19417	0.12981	0.15661	0.096006	0.24525	0.091842	0.17496	0.17982	0.21194	0.071282	0.25427	0.087324	0.27631	-2.8104	-3.5333	-3.1	-3.2646	-3.2667	-3.0521	-3.3958	-3.3479	-3.1083	-3.5208	-3.2854	-3.4042	-3.5854	-3.2229	-3.4146	-3.4667	292.164	149.656	294.043	464.168	199.850	168.125	273.412	401.344	155.169	389.485	364.487	150.247	440.665	400.446	165.820	449.333	0.0015905	0.0003377	0.00027769	647.29	1.0553e-05	1.4591e-06	696.31	259.61	1.0671e-05	5.6943e-06	329.72	151.78	112.42	61.441	6.6325e-06	90.796	0.00092579	0.00086147	0.00026829	693.22	9.5725e-06	9.8145e-06	742.77	275.52	9.8613e-06	9.457e-06	350.69	158.73	117.78	63.735	1.0409e-05	94.004	147.951	449.833	159.350	133.592	252.302	226.749	132.205	138.411	292.953	243.441	136.886	140.619	141.860	146.194	254.393	143.446	-8191	255	
3342.353	1	1	0	0	0.077896	0.092239	0.14892	0.19548	0.099318	0.090293	0.17805	0.080204	0.057592	0.23156	0.34081	0.13668	0.22184	0.24392	0.076732	0.35246	-2.8771	-3.4208	-3.275	-3.2062	-3.3833	-3.2062	-3.4562	-3.5625	-3.0312	-3.4771	-3.3396	-3.2208	-3.6312	-3.1271	-3.3458	-3.5	356.246	245.962	418.509	153.251	413.894	382.812	409.820	202.145	422.102	179.642	367.559	373.349	390.969	122.417	398.244	447.520	0.0013172	0.0010836	0.00016841	639.49	6.4964e-06	1.0259e-06	691.36	256.43	6.2531e-06	1.1523e-05	328.48	150.49	111.8	61.1	5.758e-06	90.988	0.0009048	0.00085423	0.00026345	685.75	9.1693e-06	9.6586e-06	737.13	272.33	9.4508e-06	9.4573e-06	348.09	157.59	117.23	63.555	1.0444e-05	93.94	148.624	193.777	233.368	133.163	338.765	282.296	132.105	138.477	251.308	210.661	136.506	140.552	141.516	146.101	293.295	143.637	-8191	255	
3342.450	1	1	0	0	0.076072	0.12097	0.20982	0.033015	0.14875	0.17293	0.31791	0.092248	0.27597	0.087855	0.030962	0.12758	0.19943	0.088784	0.076288	0.15624	-2.6229	-3.4146	-3.3146	-3.2458	-3.6521	-3.0062	-3.5042	-3.425	-3.0979	-3.5	-3.3458	-3.3583	-3.7125	-3.375	-3.2604	-3.5687	461.585	361.692	284.019	430.775	366.501	368.995	348.145	231.351	170.937	384.186	174.577	387.854	463.727	382.654	463.932	455.077	0.0013359	0.00085056	6.8252e-05	644.34	7.0555e-06	3.7197e-06	698.09	257.89	7.9585e-06	9.8725e-06	329.69	151.6	112.69	61.299	3.9461e-06	91.909	0.00088567	0.00088493	0.00026324	685.85	9.0627e-06	9.9313e-06	740.94	272.45	9.4876e-06	9.9049e-06	348.31	158.11	117.38	63.803	1.0277e-05	94.609	143.154	179.950	166.386	133.288	261.557	186.928	132.381	138.465	275.496	239.180	136.923	140.600	141.766	146.178	301.403	143.634	-8191	255	
3342.570	1	1	0	0	0.081261	0.13105	0.14576	0.056879	0.027448	0.27146	0.19552	0.089765	0.0717	0.20828	0.22951	0.14086	0.11827	0.071773	0.077431	0.22033	-2.875	-3.4146	-3.1375	-3.1521	-3.525	-2.9083	-3.5646	-3.5125	-3.0312	-3.5208	-3.4833	-3.1854	-3.6417	-3.3021	-3.3312	-3.5833	231.095	218.768	362.781	298.316	243.204	241.653	437.000	445.647	327.718	217.089	418.365	449.413	349.494	262.458	305.591	345.626	0.0014323	0.00076229	0.0001688	643.77	9.0639e-06	4.7723e-06	696.67	258.41	1.2265e-06	6.0114e-06	330.31	152.63	112.32	61.481	6.4712e-06	91.815	0.00088109	0.00092237	0.00025747	687.18	9.0933e-06	1.0355e-05	742.68	273.04	9.5685e-06	1.0383e-05	349.6	158.88	117.58	64.086	1.0074e-05	94.88	143.275	144.191	286.213	133.279	257.809	216.078	132.052	138.269	212.912	203.295	137.024	140.527	141.751	146.262	259.172	143.480	-8191	255	
3342.666	1	1	0	0	0.048283	0.03278	0.13678	0.066808	0.23526	0.051003	0.21812	0.37535	0.37459	0.13838	0.30852	0.34005	0.16868	0.25512	0.15105	0.23561	-2.7479	-3.4417	-3.4062	-3.1667	-3.5042	-3.2833	-3.275	-3.6646	-2.9771	-3.2	-3.4313	-3.1729	-3.4042	-3.3812	-3.0896	-3.7458	331.833	164.740	300.712	124.691	316.506	182.152	329.657	431.052	403.563	256.106	366.931	420.781	141.369	147.682	364.388	406.410	0.0014984	0.00029139	0.00010587	644.39	6.9803e-06	7.6742e-06	695.58	257.78	7.8559e-06	6.0436e-06	326.06	150.24	111.59	60.848	4.8189e-06	90.11	0.00090482	0.00095132	0.00024883	685.27	9.4141e-06	1.043e-05	736.95	271.23	9.7924e-06	1.0359e-05	344.02	156.65	116.76	63.502	9.7924e-06	93.095	144.578	214.829	192.160	133.301	251.103	248.359	132.015	138.550	207.715	311.030	136.819	140.674	141.584	146.095	232.367	143.621	-8191	255	
3342.763	1	1	0	0	0.1259	0.13411	0.06737	0.17627	0.03215	0.14912	0.1197	0.21571	0.1616	0.15153	0.1617	0.30231	0.026866	0.19215	0.27347	0.074138	-2.6833	-3.2083	-3.3458	-3.0292	-3.5292	-3.1604	-3.1063	-3.4604	-3.0708	-3.4188	-3.5875	-2.9958	-3.55	-3.5104	-3.0917	-3.6146	325.206	255.044	158.536	437.983	170.255	121.502	398.755	168.470	322.585	385.341	468.396	461.748	140.048	450.694	406.540	133.711	0.0014843	0.00037143	0.00026888	638.44	5.2451e-06	1.0154e-06	690.63	256.72	1.5838e-06	1.0725e-05	325.16	150.23	111.34	60.926	6.8478e-06	91.009	0.00092552	0.00095164	0.00024361	682.4	9.7984e-06	1.0333e-05	732.88	270.65	1.0203e-05	1.0411e-05	343.81	156.8	117.34	63.519	9.8487e-06	93.704	137.441	127.906	247.663	133.549	217.099	136.869	132.211	138.349	277.778	286.341	136.936	140.423	141.604	146.137	304.543	143.480	-8191	255	
3342.859	1	1	0	0	0.19156	0.10253	0.22713	0.16064	0.40116	0.06218	0.22149	0.11957	0.26656	0.19631	0.14072	0.37639	0.11183	0.25238	0.18918	0.16032	-2.4688	-3.2479	-3.4562	-2.95	-3.4833	-3.4208	-3.4521	-3.325	-3.2562	-3.4104	-3.5563	-3.0396	-3.3812	-3.4896	-2.8917	-3.6583	378.392	310.830	161.380	398.102	426.951	378.537	459.654	248.897	304.647	340.038	419.804	464.942	184.414	422.666	205.754	383.402	0.0014933	0.00053427	4.4186e-05	640.13	8.5245e-06	1.989e-06	692.33	256.02	2.754e-06	4.8858e-06	326.97	150.69	111.19	61.136	3.8512e-06	91.781	0.00097147	0.00095415	0.0002437	685.17	1.0431e-05	1.0278e-05	737.28	270.78	1.0732e-05	1.0469e-05	344.47	157.43	117.68	63.72	9.8936e-06	94.817	142.758	192.234	418.671	133.299	224.212	384.103	132.246	138.553	341.565	256.724	136.746	140.505	141.477	146.172	307.019	143.570	-8191	255	
3342.955	1	1	0	0	0.17724	0.14648	0.074352	0.13109	0.18361	0.091817	0.19467	0.31768	0.082182	0.1103	0.17124	0.28585	0.090645	0.3409	0.053132	0.40913	-2.675	-3.0583	-3.5646	-2.9979	-3.4021	-3.3396	-3.0375	-3.4313	-3.1667	-3.3187	-3.5354	-2.9896	-3.3042	-3.3187	-2.7958	-3.65	310.989	465.066	148.497	150.896	171.625	213.857	454.092	363.328	275.486	263.505	140.137	448.074	134.872	436.196	479.072	421.097	0.0013453	0.00055371	9.1329e-05	644.12	1.5711e-06	3.4269e-06	696.88	257.4	8.2726e-06	7.1576e-06	330.47	151.76	111.57	61.157	3.4493e-06	91.766	0.00099461	0.00093024	0.00023997	688.42	1.0582e-05	9.9453e-06	740.75	272.17	1.0522e-05	1.008e-05	346.23	158.37	117.97	63.61	9.8061e-06	94.569	141.890	149.442	201.342	133.190	318.569	194.706	132.022	138.517	244.520	282.202	136.974	140.621	141.716	146.163	316.926	143.521	-8191	255	
3343.051	1	1	0	0	0.13763	0.16988	0.22265	0.13162	0.073535	0.098637	0.16752	0.043443	0.28525	0.14491	0.45391	0.09709	0.072808	0.24863	0.22113	0.32276	-2.9542	-2.9917	-3.4042	-3.2938	-3.3417	-3.2979	-3.1792	-3.5229	-3.1771	-3.1271	-3.475	-3.0896	-3.1771	-3.5146	-2.925	-3.5604	426.798	295.358	157.040	468.503	438.941	249.860	422.174	137.128	150.335	375.115	407.054	469.810	305.769	395.185	462.013	388.141	0.0013608	0.00073686	0.00016146	640.02	5.1021e-06	4.8765e-06	689.78	253.68	6.5284e-06	2.6851e-06	320.99	148.07	110.41	60.491	1.6248e-06	89.972	0.00098726	0.000922	0.00024233	688.01	1.0634e-05	9.7988e-06	732.28	270.28	1.0418e-05	1.0094e-05	339.06	155.2	116.17	62.875	9.8537e-06	92.978	146.201	199.887	212.792	133.498	266.179	396.361	132.002	138.301	241.188	362.650	136.852	140.512	141.566	146.081	224.960	143.383	-8191	255	
3343.172	1	1	0	0	0.10272	0.076595	0.17161	0.15944	0.16858	0.040652	0.27314	0.1743	0.077875	0.070415	0.093338	0.28152	0.089966	0.30259	0.19271	0.19498	-2.8875	-3.0312	-3.3063	-3.4083	-3.3208	-3.4708	-2.8167	-3.4771	-3.4083	-3.0292	-3.5271	-3.3104	-3.3438	-3.6042	-3.0438	-3.5854	130.731	445.884	463.661	395.017	231.667	424.557	469.297	447.140	432.536	261.741	473.941	430.029	205.202	443.619	129.377	384.423	0.0013477	0.00074337	0.00018056	636.65	8.3651e-06	6.1502e-06	688.09	253.96	4.6455e-06	6.3195e-06	321.78	148.92	110.65	60.892	6.8794e-06	90.548	0.00095716	0.0009231	0.00024649	686.99	1.0519e-05	9.7617e-06	732.67	270.22	1.0218e-05	1.0047e-05	340.65	156.32	116.45	63.189	1.0115e-05	94.023	145.503	211.971	219.774	133.398	290.666	252.617	132.216	138.510	271.829	386.182	136.876	140.700	141.657	146.078	258.355	143.339	-8191	255	
3343.266	1	1	0	0	0.28992	0.13065	0.17882	0.19942	0.18297	0.1174	0.27869	0.093925	0.13763	0.046864	0.23647	0.15032	0.27062	0.14242	0.20152	0.18404	-3.1083	-2.6729	-3.6229	-3.3333	-2.8979	-3.4854	-3.1958	-3.3042	-3.2729	-3.1437	-3.4562	-3.2104	-3.0583	-3.6083	-3.1688	-3.3917	361.077	197.026	172.680	436.759	435.490	233.948	350.829	475.159	202.988	290.589	148.254	459.141	137.294	459.838	430.661	420.471	0.0013982	0.00070472	0.00026655	640.47	6.1682e-06	2.2779e-06	690.04	253.42	8.2559e-06	5.193e-06	322.21	150.05	110.72	60.727	7.5602e-06	91.684	0.00094122	0.00090808	0.00025449	689.24	1.0263e-05	9.6557e-06	736.34	270.38	9.9618e-06	1.0039e-05	342.22	157.29	116.58	63.338	1.0618e-05	94.926	147.204	184.939	161.334	133.322	273.202	145.077	132.242	138.495	263.115	310.211	136.786	140.675	141.640	146.226	260.312	143.400	-8191	255	
3343.338	1	1	0	0	0.032745	0.028238	0.096309	0.10449	0.26911	0.11068	0.090844	0.24655	0.15713	0.078161	0.18713	0.16313	0.37745	0.082456	0.060808	0.11234	-2.7812	-2.9042	-3.5708	-3.4417	-2.975	-3.4667	-3.2396	-3.2542	-3.2917	-3	-3.4979	-3.4833	-3.0979	-3.5146	-3.0646	-3.3521	434.235	164.025	189.925	455.981	417.517	326.900	244.615	441.535	136.338	276.147	466.561	453.304	385.025	175.215	303.043	298.149	0.0014291	0.00095795	6.6373e-05	640.68	5.1532e-06	5.7702e-07	696.51	253.21	9.915e-06	7.4261e-06	320.84	149.03	110.03	60.859	6.5425e-06	90.435	0.00092279	0.00091583	0.00026784	688.91	1.0065e-05	9.6003e-06	740.39	270.76	9.74e-06	9.9738e-06	341.99	156.6	115.91	63.12	1.0805e-05	93.806	142.722	152.568	260.388	133.168	261.820	217.616	132.054	138.414	223.573	256.978	136.972	140.551	141.673	146.035	265.969	143.507	-8191	255	
3343.434	1	1	0	0	0.1903	0.14737	0.18653	0.11977	0.23124	0.078725	0.095746	0.19165	0.097163	0.08813	0.22399	0.34295	0.12858	0.40356	0.1935	0.41862	-3.0438	-3.0646	-3.4313	-3.2396	-2.975	-3.5479	-3.2604	-3.2021	-3.5083	-3.2854	-3.4396	-3.4646	-3.2938	-3.5021	-3.2458	-3.2979	193.102	233.701	351.410	414.029	454.517	132.550	399.565	394.741	466.531	316.190	207.316	440.014	479.679	465.640	459.656	458.539	0.0014895	0.00071108	0.0002801	637.81	3.0318e-06	7.602e-06	685.65	251.5	9.4639e-06	6.0523e-06	318.28	147.39	109.19	60.33	5.3279e-06	89.972	0.0009089	0.00090913	0.00027157	682.65	1.0011e-05	9.7538e-06	733.18	267.31	9.6104e-06	1.0207e-05	338.53	154.48	115.06	62.794	1.0807e-05	93.137	142.449	202.931	206.239	133.581	373.540	255.588	131.905	138.365	266.004	184.521	136.922	140.609	141.550	146.263	287.874	143.488	-8191	255	
3343.554	1	1	0	0	0.026617	0.12753	0.089113	0.076002	0.18194	0.23871	0.25167	0.36797	0.1471	0.16745	0.31185	0.32421	0.13363	0.20016	0.11055	0.15675	-3.0187	-3.0229	-3.3667	-3.4646	-2.8708	-3.4479	-3.3875	-2.9167	-3.4083	-3.1792	-3.2708	-3.3229	-3.2167	-3.6229	-3.1875	-3.2458	265.716	152.575	256.931	269.074	159.281	229.870	352.281	389.580	198.901	453.731	182.593	448.270	352.334	142.615	342.136	127.069	0.0014125	0.00046647	0.00025312	639.39	3.7197e-06	5.3037e-06	683.91	250.73	5.7467e-06	7.6568e-06	318.22	147.86	109.2	60.509	3.9455e-06	90.288	0.00088779	0.0009271	0.00027549	681.88	9.9093e-06	1.0198e-05	733.02	266.89	9.4813e-06	1.0502e-05	339.26	154.46	114.89	62.98	1.0708e-05	93.427	141.830	186.033	126.419	133.312	233.676	218.201	132.243	138.416	243.563	304.719	137.058	140.574	141.690	146.104	229.435	143.537	-8191	255	
3343.651	1	1	0	0	0.23502	0.060718	0.11563	0.24448	0.11806	0.15054	0.34699	0.18989	0.27314	0.10706	0.057386	0.20749	0.446	0.32037	0.16497	0.22911	-3.1417	-3.0458	-3.2958	-3.5	-2.9167	-3.4375	-3.1479	-3.0417	-3.6583	-3.1208	-3.2083	-3.6	-3.0229	-3.4688	-3.6167	-3.2938	222.082	278.581	170.715	398.164	288.777	262.892	445.291	121.907	312.783	328.100	450.646	310.051	153.275	151.589	128.373	133.487	0.0015107	0.00016935	0.00018181	638.43	7.2362e-06	1.0505e-05	685.94	248.6	5.8192e-06	1.0729e-05	317.65	148.47	109.27	60.41	4.9327e-06	90.925	0.00089704	0.00097302	0.0002769	681.28	9.9555e-06	1.0697e-05	733.44	265.14	9.7007e-06	1.0857e-05	338.61	154.71	114.87	63.158	1.0477e-05	94.074	146.879	204.283	144.061	133.179	241.923	214.101	132.128	138.812	299.418	259.996	137.179	140.575	141.653	146.186	295.980	143.662	-8191	255	
3343.747	1	1	0	0	0.21733	0.16956	0.26254	0.12799	0.075132	0.11753	0.1044	0.12439	0.05223	0.014395	0.12463	0.11441	0.19758	0.11676	0.33077	0.18129	-3.0917	-3.1521	-3.3354	-3.3833	-2.9875	-3.2687	-3.45	-3.0979	-3.3688	-3.0896	-3.1562	-3.5771	-3.2271	-3.5	-3.2021	-3.1979	444.432	417.255	256.110	449.650	354.053	168.944	187.061	458.557	249.460	324.110	382.532	358.837	403.783	384.980	122.985	435.488	0.001476	0.00055958	4.5052e-05	637.12	9.8811e-06	8.769e-06	685.7	248.79	2.7559e-06	2.7142e-06	314.74	146.15	108.29	59.784	4.8654e-06	89.22	0.00091732	0.00099996	0.00026885	681.65	1.018e-05	1.1013e-05	731.08	263.75	1.0013e-05	1.1118e-05	334.81	152.75	114.03	62.636	1.0134e-05	92.01	144.226	155.488	262.094	133.354	220.243	187.564	132.108	138.193	183.111	299.264	136.824	140.544	141.595	146.294	297.694	143.528	-8191	255	
3343.843	1	1	0	0	0.1889	0.087372	0.18482	0.26185	0.10122	0.081431	0.10333	0.035024	0.13957	0.045285	0.32557	0.15677	0.2781	0.08746	0.31846	0.49693	-2.8958	-3.1125	-3.1042	-3.4104	-3.0104	-3.1188	-3.2833	-3.0708	-3.3104	-3.2458	-3.15	-3.4833	-3.0938	-3.4604	-3.4417	-2.9125	355.260	266.241	195.704	457.048	385.832	313.062	442.034	199.362	317.988	383.805	211.006	411.994	422.280	468.492	200.789	462.197	0.0014966	0.00036671	5.9633e-05	632.38	8.0462e-06	5.0248e-06	676.54	244.76	9.4417e-06	7.9611e-06	310.43	144.56	107.38	59.386	3.4826e-06	89.069	0.00094865	0.0010079	0.00026543	676.92	1.0514e-05	1.1078e-05	722.96	261.24	1.0473e-05	1.0962e-05	329.83	151.01	113.43	62.162	1.0113e-05	91.849	141.117	460.821	213.055	133.507	281.011	290.736	132.086	138.477	222.488	361.137	136.797	140.640	141.846	146.167	238.569	143.594	-8191	255	
3343.964	1	1	0	0	0.094037	0.21804	0.22938	0.17711	0.32431	0.22774	0.08696	0.2633	0.2712	0.039902	0.084786	0.35324	0.12522	0.46216	0.1351	0.0759	-3.0625	-3.2188	-3.0146	-3.4896	-3.0812	-3.2167	-3.4688	-2.9292	-3.35	-3.2583	-2.9083	-3.475	-3.1833	-3.3333	-3.2167	-3.1458	155.684	421.552	254.646	408.917	334.994	411.262	310.790	477.428	193.015	160.031	358.932	448.025	294.478	437.348	303.810	383.091	0.0014504	0.00040389	0.00032679	634.2	2.704e-06	8.981e-06	682.94	244.37	9.962e-06	8.6833e-06	310.58	144.71	106.5	59.596	4.4362e-06	89.237	0.00099753	0.00099697	0.00026747	677.04	1.1022e-05	1.0992e-05	725.32	260.7	1.1069e-05	1.0858e-05	330.04	151.59	113.56	62.282	1.0242e-05	92.509	144.922	239.808	140.519	133.356	276.409	313.642	132.299	138.678	238.391	286.273	136.358	140.592	141.638	146.156	217.595	143.602	-8191	255	
3344.035	1	1	0	0	0.12425	0.11075	0.14219	0.27286	0.087395	0.19475	0.075943	0.081266	0.14255	0.24836	0.21298	0.053894	0.13132	0.30823	0.1135	0.061475	-3.0583	-3.1792	-3.1271	-3.6562	-3.1854	-3.0792	-3.5312	-3.0292	-3.225	-3.4396	-3.1312	-3.4062	-3.2521	-3.325	-3.3021	-3.2458	360.788	431.167	429.298	418.604	450.633	162.667	144.485	196.516	423.913	270.334	458.771	455.011	451.881	441.983	339.496	340.747	0.0013793	0.0003469	0.00013511	634.98	6.1767e-06	3.417e-06	683.51	244.43	7.3987e-06	3.4439e-06	311.88	146.05	106.31	59.95	6.6028e-06	89.761	0.0010519	0.00099102	0.00027095	680.32	1.1432e-05	1.1014e-05	727.23	261.22	1.142e-05	1.0684e-05	331.6	153.28	113.62	62.566	1.014e-05	93.133	145.464	477.989	177.759	133.215	255.507	224.993	131.808	138.492	194.075	408.417	137.072	140.565	141.793	146.100	277.308	143.576	-8191	255	
3344.131	1	1	0	0	0.23492	0.1119	0.13163	0.19942	0.1603	0.087306	0.23943	0.06044	0.18204	0.21785	0.20218	0.18606	0.34451	0.1549	0.10693	0.16504	-3.0792	-3.2938	-2.7687	-3.4062	-3.2104	-2.8542	-3.5208	-3.0271	-3.1396	-3.4083	-3.1271	-3.1667	-3.1354	-3.2708	-3.2417	-3.1854	389.827	124.555	311.981	261.829	212.548	262.271	380.042	154.750	173.834	273.189	126.087	451.397	432.038	426.681	380.720	431.675	0.0013599	0.00071873	0.00015538	633.12	6.5833e-06	9.7601e-06	680.92	243.15	4.487e-06	2.0508e-06	309.13	144.94	106.5	59.337	5.3161e-06	88.767	0.0010536	0.00096767	0.00026925	682.34	1.1318e-05	1.0765e-05	724.91	261.57	1.1331e-05	1.0491e-05	330.12	152.44	113.41	62.173	1.0173e-05	92.238	153.085	192.789	156.698	133.202	298.209	228.678	132.017	138.060	174.842	196.669	136.682	140.660	141.793	146.100	320.429	143.421	-8191	255	
3344.252	1	1	0	0	0.083937	0.018977	0.053066	0.093381	0.30442	0.068402	0.066276	0.075254	0.11658	0.19962	0.14024	0.20541	0.21711	0.10793	0.13125	0.3069	-2.9646	-3.2146	-2.8333	-3.4729	-3.0417	-2.9771	-3.3333	-2.9792	-3.3021	-3.2354	-3.0687	-3.3708	-3.1896	-2.8375	-3.4354	-3.3896	262.030	141.660	323.748	433.082	332.723	326.413	352.519	441.124	401.711	278.243	134.808	151.916	468.859	458.419	286.159	426.611	0.001381	0.00046854	0.00015959	634.12	2.5598e-06	2.2614e-06	681.64	246.47	1.2226e-06	6.083e-06	311.95	145.5	106.7	59.244	5.802e-06	89.374	0.0010522	0.00096068	0.00027307	684.82	1.1055e-05	1.0869e-05	727.57	263.97	1.1416e-05	1.0468e-05	332.14	153.53	113.4	62.249	1.0748e-05	92.919	143.525	240.324	165.784	133.430	283.405	284.039	132.080	138.447	292.212	309.012	136.731	140.468	141.843	146.231	280.094	143.415	-8191	255	
3344.346	1	1	0	0	0.10441	0.11796	0.20024	0.26716	0.17377	0.12384	0.11901	0.26338	0.082332	0.067387	0.1255	0.14512	0.18414	0.30736	0.12466	0.15539	-2.6604	-3.5125	-3.0083	-3.2833	-3.375	-2.9604	-3.4146	-3.25	-3.3646	-3.5896	-3.0083	-3.4333	-3.6375	-2.8979	-3.5438	-3.4271	256.885	177.573	322.554	164.915	284.675	359.751	223.027	203.853	199.583	452.229	378.865	464.922	454.843	464.831	466.806	340.516	0.0013389	0.00046755	0.00020538	632.48	4.8623e-06	4.9401e-06	686.02	246.24	1.0047e-05	9.2595e-06	312.02	146.08	107.49	59.623	5.7139e-06	89.833	0.0010444	0.00096597	0.00028268	688.56	1.1019e-05	1.0892e-05	733.63	264.47	1.1128e-05	1.0455e-05	334.58	154.31	113.63	62.528	1.1233e-05	93.608	146.820	175.396	139.723	133.432	294.674	261.523	132.215	138.462	288.402	265.812	136.884	140.648	141.603	146.362	283.543	143.471	-8191	255	
3344.443	1	1	0	0	0.23123	0.21797	0.12048	0.1359	0.044991	0.068936	0.14775	0.098957	0.20636	0.059577	0.1224	0.12775	0.25457	0.18062	0.043337	0.18548	-2.5771	-3.5208	-3.0417	-3.2104	-3.3646	-3.0479	-3.3333	-3.4208	-3.2438	-3.4292	-3.2708	-3.3688	-3.4292	-3.1146	-3.6792	-3.1875	324.248	352.126	423.776	317.531	446.156	207.793	348.323	360.478	466.978	357.747	295.430	449.357	430.236	436.195	321.817	444.453	0.0013317	0.00057351	7.8734e-05	635.94	2.6962e-06	4.8948e-06	691.41	245.46	7.7211e-06	4.4738e-06	311.55	146.33	106.82	59.694	1.0076e-05	89.722	0.0010347	0.00095914	0.00029502	690.19	1.0826e-05	1.1015e-05	739.28	263.53	1.1188e-05	1.0526e-05	334.64	154.2	113.01	62.439	1.1622e-05	93.18	144.330	183.015	427.541	133.536	311.790	278.227	132.191	138.298	273.247	178.787	136.928	140.656	141.852	146.320	261.033	143.596	-8191	255	
3344.563	1	1	0	0	0.17706	0.33289	0.38765	0.19183	0.15666	0.11154	0.20171	0.17527	0.2077	0.065157	0.23715	0.1615	0.088941	0.33282	0.077238	0.32402	-2.4521	-3.4833	-3.1833	-3.2208	-3.425	-3	-3.5	-3.2562	-3.0479	-3.4896	-3.2875	-3.2708	-3.4208	-3.3854	-3.2375	-3.5479	322.453	391.916	442.167	406.718	467.623	443.817	360.432	142.629	192.628	295.380	425.498	344.083	470.009	470.991	267.167	422.568	0.0014684	0.00071163	0.00027685	633.46	2.643e-06	2.4253e-06	682.52	244.04	7.4205e-06	6.6319e-06	308.19	143.37	106.4	59.35	6.1089e-06	88.768	0.0010145	0.00096491	0.00030133	685.99	1.0531e-05	1.091e-05	732.25	261.59	1.082e-05	1.0549e-05	331.66	151.79	112.64	62.123	1.1756e-05	92.038	144.428	198.425	172.817	133.398	295.315	236.062	131.916	138.551	310.228	240.091	136.857	140.555	141.677	146.193	259.460	143.578	-8191	255	
3344.635	1	1	0	0	0.34354	0.32251	0.047302	0.086831	0.34957	0.20301	0.10132	0.31838	0.09801	0.12637	0.19347	0.25484	0.167	0.20962	0.16057	0.30006	-2.7812	-3.3104	-3.0854	-3.1896	-3.4479	-2.9854	-3.4021	-3.2812	-3.0292	-3.375	-3.175	-2.9333	-3.5708	-2.85	-3.3083	-3.4667	265.683	284.655	441.805	468.294	433.685	323.118	393.818	353.114	457.578	382.188	285.918	436.161	467.212	462.690	121.951	397.389	0.0014043	0.0011533	0.00010649	634.63	3.7368e-06	7.1245e-06	682.87	245.83	6.4384e-06	1.9962e-06	312.53	145.51	107.3	59.786	3.0911e-06	89.358	0.00099086	0.00097573	0.00029975	684.23	1.0333e-05	1.1178e-05	734.62	263.06	1.0716e-05	1.0959e-05	335.4	153.46	113.41	62.61	1.1714e-05	92.799	143.445	170.396	125.996	133.574	197.028	217.354	131.977	138.356	290.077	215.930	136.639	140.882	141.530	146.057	238.176	143.468	-8191	255	
3344.731	1	1	0	0	0.12425	0.084677	0.16854	0.11256	0.15618	0.051134	0.25676	0.19888	0.2673	0.14097	0.11011	0.36369	0.1977	0.29322	0.24971	0.36075	-2.4625	-3.3937	-3.1792	-2.9271	-3.475	-3.1208	-3.2354	-3.4583	-2.9271	-3.1562	-3.5229	-3.2104	-3.4813	-2.9521	-3.3042	-3.4813	234.601	293.715	414.125	389.495	199.681	217.835	380.351	452.109	217.840	123.360	299.312	466.238	419.845	130.790	227.546	426.492	0.0014305	0.0010694	0.00024137	630.81	9.7501e-06	4.9614e-06	684.34	246.86	2.9616e-06	6.7757e-06	312.12	146.65	107.18	59.879	5.9414e-06	90.252	0.00099358	0.0010333	0.00029705	684.6	1.031e-05	1.1725e-05	736.53	262.6	1.0757e-05	1.1536e-05	334.64	154.06	113.43	62.855	1.1569e-05	93.529	147.891	167.044	206.590	133.396	267.359	239.719	132.096	138.188	296.064	231.412	136.727	140.638	141.828	146.380	285.435	143.656	-8191	255	
3344.852	1	1	0	0	0.25271	0.17879	0.19082	0.13732	0.17754	0.17471	0.19531	0.28359	0.26402	0.20903	0.21315	0.11235	0.063477	0.29761	0.06793	0.24622	-2.3625	-3.4125	-3.2604	-3.2083	-3.3438	-3.0271	-3.275	-3.5521	-2.9292	-3.1667	-3.4	-3.0417	-3.425	-3.2562	-2.8542	-3.6167	136.642	286.658	177.486	244.466	423.784	397.936	234.700	376.602	433.797	175.164	469.683	431.186	416.513	434.612	125.033	362.532	0.0013986	0.0008297	2.7222e-05	638.27	9.119e-06	4.4795e-06	685.45	245.21	1.0171e-05	4.2275e-06	312.35	145.72	106.61	59.9	2.9661e-06	88.912	0.0010157	0.0010712	0.00028765	686.99	1.0591e-05	1.1859e-05	737.75	261.91	1.105e-05	1.1866e-05	332.67	153.09	113.04	62.758	1.1275e-05	92.293	149.913	194.412	125.745	133.199	279.393	283.478	131.999	138.393	225.648	270.186	136.829	140.547	141.657	146.117	266.086	143.594	-8191	255	
3344.948	1	1	0	0	0.34951	0.13803	0.086948	0.25369	0.30406	0.16764	0.18446	0.19521	0.17936	0.22025	0.20631	0.13429	0.11009	0.21717	0.32647	0.26447	-2.4813	-3.0375	-3.4146	-3.0146	-3.2396	-3.3646	-3.0896	-3.5208	-2.9021	-3.0521	-3.3604	-3.0542	-3.2771	-3.3333	-3.0792	-3.4188	204.008	391.461	169.890	291.594	433.507	194.535	393.368	464.911	236.196	301.254	458.391	414.773	284.376	462.719	467.965	342.140	0.0014101	0.00089742	0.00033072	633.76	6.907e-06	1.088e-05	679.68	242.64	9.5202e-06	3.8896e-06	305.45	143.99	106.15	59.209	6.3154e-06	88.073	0.0010318	0.0010922	0.00027951	682.01	1.0946e-05	1.1852e-05	727.87	258.84	1.142e-05	1.2022e-05	327.03	150.84	112.91	62.116	1.1055e-05	91.379	141.424	195.046	226.964	133.392	224.590	242.015	132.011	138.291	216.029	289.687	136.785	140.481	141.666	146.290	272.213	143.504	-8191	255	
3345.044	1	1	0	0	0.095264	0.16313	0.14242	0.057689	0.40725	0.088583	0.15308	0.23951	0.15686	0.30156	0.10272	0.12538	0.26966	0.41873	0.028268	0.083882	-2.7687	-3.275	-3.2104	-3.0979	-3.4333	-3.2042	-3.2333	-3.3229	-3.1375	-3.2667	-3.4083	-3.2208	-3.5896	-3.3167	-2.9437	-3.7167	311.365	462.587	470.448	399.075	273.231	222.489	163.006	441.083	261.822	130.968	380.138	418.714	442.579	124.201	149.197	448.263	0.0015143	0.0013954	0.00011791	632.75	5.0987e-06	5.7422e-06	672.61	242.16	1.0538e-05	9.6606e-06	308.2	143.71	106.35	59.453	5.8065e-06	89.219	0.0010639	0.0010767	0.00027364	680.77	1.1498e-05	1.154e-05	726.73	259.45	1.1846e-05	1.1764e-05	328.51	151.63	113.62	62.376	1.1249e-05	92.431	139.703	218.163	238.478	133.136	203.913	254.846	132.104	138.497	272.866	300.092	136.582	140.668	141.979	146.284	214.749	143.538	-8191	255	
3345.140	1	1	0	0	0.064484	0.10494	0.0538	0.1413	0.13433	0.15847	0.20825	0.17823	0.17398	0.16254	0.20633	0.2435	0.14063	0.1623	0.052788	0.27962	-2.6583	-3.0292	-3.5208	-3.1604	-3.3104	-3.2562	-3.1125	-3.6437	-3.0729	-3.1813	-3.4854	-2.9396	-3.4083	-3.3438	-2.9813	-3.5896	343.485	253.244	437.018	391.476	299.179	262.819	315.280	278.164	328.426	240.632	414.210	401.354	422.515	468.758	327.487	374.599	0.001379	0.00063149	0.00020953	631.93	8.4847e-06	6.8115e-06	684.24	245.34	5.5543e-06	1.2579e-05	309.27	146	106.37	59.738	4.9601e-06	90.38	0.0010964	0.00106	0.00027039	682.97	1.1753e-05	1.1257e-05	732.73	261.92	1.1973e-05	1.1504e-05	331.22	153.48	114.12	62.663	1.1058e-05	93.661	140.521	222.280	232.079	133.405	289.536	336.163	132.366	138.578	243.922	328.235	137.023	140.535	141.941	146.256	279.336	143.731	-8191	255	
3345.212	1	1	0	0	0.049366	0.080896	0.15225	0.021608	0.19692	0.17297	0.11779	0.25221	0.047562	0.18811	0.21069	0.22603	0.066639	0.10698	0.1106	0.23199	-2.725	-3.0792	-3.2375	-3.1292	-3.1542	-3.2646	-3.0458	-3.4667	-3.1396	-3.1333	-3.5812	-3.0396	-3.2146	-3.4896	-2.9	-3.4625	200.242	229.733	332.131	389.897	447.018	444.598	267.833	458.880	423.013	476.288	463.390	393.823	430.588	455.585	325.575	360.516	0.0012872	0.0010947	0.00014433	635.64	9.7068e-06	2.8703e-06	686.3	244.71	5.5056e-06	8.5943e-06	308.92	145.16	106.51	59.66	5.3435e-06	89.243	0.001097	0.0010374	0.00026956	686.91	1.2008e-05	1.0994e-05	733.31	262.17	1.1736e-05	1.13e-05	329.65	153.12	113.88	62.415	1.0964e-05	92.663	140.311	207.622	179.478	133.084	210.290	266.264	131.911	138.363	303.145	328.289	136.949	140.529	141.770	146.406	259.046	143.560	-8191	255	
3345.331	1	1	0	0	0.08482	0.30891	0.13291	0.13645	0.048828	0.094685	0.23193	0.058333	0.085674	0.052473	0.19019	0.33147	0.26148	0.16268	0.13009	0.37526	-2.8354	-3.1146	-3.3708	-2.9542	-3.1646	-3.35	-3.1979	-3.3646	-3.1083	-2.7979	-3.55	-3.2375	-3.2917	-3.6229	-3.0167	-3.3812	177.892	465.448	205.838	176.096	465.745	129.869	291.426	214.414	139.951	389.267	444.909	453.017	425.719	421.302	372.323	412.164	0.0014397	0.00064092	0.00015228	632.25	5.3015e-06	2.8954e-07	675.3	244.08	6.1403e-06	8.5591e-06	306.74	143.92	105.75	59.482	3.1364e-06	88.765	0.0010658	0.0010172	0.00026765	684.52	1.1601e-05	1.0739e-05	724.34	261.89	1.1405e-05	1.116e-05	327.74	152.3	113.08	62.098	1.1075e-05	92.443	145.911	201.232	257.228	133.115	281.095	366.995	132.246	138.137	322.100	321.521	136.945	140.734	141.920	146.033	242.089	143.552	-8191	255	
3345.427	1	1	0	0	0.11872	0.11294	0.082313	0.047485	0.16188	0.082792	0.13329	0.031687	0.15182	0.41169	0.31907	0.19967	0.0765	0.052417	0.25276	0.31346	-2.7	-3.1	-3.2833	-3.0646	-3.2042	-3.225	-3.1188	-3.1896	-3.3583	-2.825	-3.4688	-3.3104	-2.9083	-3.6104	-3.1146	-3.4062	435.349	298.641	168.636	168.892	469.825	369.981	247.513	468.184	154.257	167.550	430.049	440.844	469.589	338.297	260.462	461.885	0.0014739	0.00019831	0.00022229	633.88	4.246e-06	4.7145e-06	681.58	242.77	7.6651e-06	3.5755e-06	309.52	144.86	106.68	59.787	8.4502e-06	89.608	0.0010411	0.0010164	0.000277	686.95	1.1437e-05	1.0678e-05	730.2	262.75	1.1184e-05	1.1072e-05	330.71	153.34	113.43	62.409	1.147e-05	93.495	146.482	208.014	179.425	133.361	428.387	298.966	132.019	138.415	246.242	225.877	136.788	140.696	141.835	146.083	230.294	143.346	-8191	255	
3345.523	1	1	0	0	0.15606	0.15664	0.041231	0.087257	0.16605	0.1994	0.13793	0.09612	0.28503	0.049373	0.21455	0.13961	0.20574	0.15238	0.15706	0.20857	-2.975	-3.1354	-3.3	-3.1417	-3.0646	-3.3646	-2.9688	-3.2979	-3.2354	-2.8979	-3.4437	-3.3958	-2.9521	-3.5062	-2.8583	-3.3083	121.954	230.284	134.655	342.587	296.657	437.873	355.126	437.862	332.112	478.122	433.309	372.650	147.736	428.977	178.396	464.279	0.0013819	0.00044973	0.00026069	634.24	3.0499e-06	1.1744e-06	684.68	244.46	2.397e-06	4.345e-06	309.03	145.38	106.98	59.996	6.7769e-06	90.148	0.0010177	0.0010122	0.00029048	688.38	1.1314e-05	1.069e-05	735.25	263.38	1.0957e-05	1.1193e-05	332.65	153.94	113.63	62.685	1.1998e-05	93.981	145.481	168.964	198.888	133.288	281.085	177.624	131.886	138.523	209.300	330.276	136.980	140.427	141.894	145.987	282.928	143.505	-8191	255	
3345.644	1	1	0	0	0.16893	0.015229	0.079488	0.11959	0.31443	0.13744	0.26094	0.10712	0.16699	0.1094	0.18049	0.26506	0.27755	0.14184	0.18192	0.2221	-3.1021	-2.8896	-3.2	-3.3646	-2.9604	-3.5687	-3.0646	-3.2729	-3.3167	-3.0229	-3.4458	-3.4458	-3.0292	-3.5375	-2.9875	-3.1854	208.417	445.724	304.407	128.289	181.148	404.940	401.165	340.610	309.088	434.742	390.484	434.192	428.525	430.060	135.818	382.523	0.0012757	0.00062825	0.0001255	630.98	3.1043e-06	8.9925e-06	678.97	242.63	3.0133e-06	7.2698e-06	305.91	144.01	105.83	59.375	4.8845e-06	88.294	0.0010022	0.0010139	0.00030197	686.44	1.1193e-05	1.0768e-05	733.99	260.84	1.0764e-05	1.113e-05	330.41	151.79	112.8	62.052	1.2027e-05	91.91	143.692	198.218	158.736	133.568	194.698	231.853	132.194	138.267	208.185	251.954	136.851	140.676	141.746	146.046	294.228	143.532	-8191	255	
3345.740	1	1	0	0	0.011705	0.2773	0.066058	0.16156	0.03365	0.20265	0.28564	0.28181	0.10666	0.074858	0.076037	0.08746	0.12147	0.11839	0.024892	0.15786	-2.9479	-2.9146	-3.1833	-3.1708	-2.9688	-3.3937	-3.0333	-3.2146	-3.4854	-2.9083	-3.3125	-3.4542	-3.1208	-3.5938	-2.9938	-3.1875	233.779	150.041	385.974	411.058	448.797	234.839	430.674	474.190	268.602	318.157	365.094	314.839	327.853	142.330	390.072	379.372	0.0013997	0.0010957	0.00011681	633.13	5.1233e-06	1.0215e-05	675.49	242.23	6.4183e-06	9.5681e-06	307.08	143.54	106.66	59.297	5.862e-06	88.554	0.00098721	0.0010327	0.00030869	681.91	1.1025e-05	1.1067e-05	730.08	261.27	1.0513e-05	1.1443e-05	330.65	151.46	112.88	62.106	1.1994e-05	92.155	145.063	170.280	237.434	133.241	202.601	211.163	132.032	138.540	249.781	250.830	137.022	140.362	141.812	146.137	284.448	143.475	-8191	255	
3345.836	1	1	0	0	0.27033	0.062635	0.2192	0.11188	0.16913	0.14158	0.14718	0.16892	0.15292	0.16265	0.051048	0.20415	0.25369	0.35671	0.091142	0.030773	-3.1979	-2.95	-3.0667	-3.5042	-2.9458	-3.2271	-3.2771	-3.2313	-3.3792	-2.8917	-3.2667	-3.525	-3.1146	-3.4479	-3.2708	-3.2833	199.641	234.110	162.280	300.383	260.219	315.125	402.884	343.023	270.095	305.621	397.909	446.464	144.759	135.479	337.556	165.374	0.0014803	0.0007254	5.7543e-05	632.9	6.5298e-06	9.22e-06	681.05	244.1	3.9369e-06	1.0589e-05	309.2	145.28	106.2	59.687	7.6757e-06	89.622	0.00098468	0.0010745	0.00030832	682.61	1.1036e-05	1.1677e-05	733.17	261.51	1.0566e-05	1.1886e-05	333.22	152.57	112.96	62.604	1.1661e-05	93.201	145.856	198.381	408.479	133.052	231.826	246.995	132.102	138.564	253.294	231.149	136.646	140.634	141.665	146.246	299.958	143.567	-8191	255	
3345.932	1	1	0	0	0.1333	0.28859	0.11992	0.095841	0.15908	0.22038	0.094985	0.089474	0.092602	0.060433	0.043105	0.21784	0.31926	0.30204	0.14039	0.25762	-3.05	-3.1813	-2.9875	-3.3896	-2.9917	-3.1604	-3.6292	-3.0708	-3.4354	-3.1188	-3.2646	-3.5083	-2.8875	-3.45	-3.4104	-3.175	300.435	193.012	256.751	478.563	423.171	173.485	125.096	269.280	127.157	191.091	439.023	479.447	135.170	427.767	384.185	444.171	0.0014339	0.0006342	0.00015162	634.21	4.8101e-06	2.5716e-06	686.36	244.3	8.8307e-06	2.9891e-06	311.92	146.66	106.56	59.964	2.4641e-06	90.097	0.00099359	0.0010972	0.00030077	683.5	1.1028e-05	1.2024e-05	735.73	261.65	1.0752e-05	1.2105e-05	334.31	153.44	113.6	62.912	1.1165e-05	93.353	138.364	159.102	249.274	133.285	217.890	255.743	132.038	138.616	230.694	242.003	136.915	140.823	141.824	146.157	311.596	143.617	-8191	255	
3346.028	1	1	0	0	0.09133	0.25652	0.13875	0.34676	0.26725	0.071313	0.072668	0.063807	0.1562	0.020136	0.094253	0.17345	0.21972	0.24972	0.19517	0.23539	-2.9813	-3.2042	-3.2479	-3.3937	-3.0042	-3.5187	-3.4875	-3.0146	-3.3958	-3.2458	-3.2354	-3.4896	-3.0563	-3.3667	-3.3125	-3.3354	421.058	419.905	202.008	421.616	415.941	306.238	437.012	457.214	383.507	189.089	179.720	473.270	149.499	437.183	347.286	479.277	0.001519	0.001172	8.1824e-05	630.69	7.8324e-06	8.0052e-06	678.69	243.57	6.0141e-06	5.455e-06	305.96	144.14	105.6	59.16	3.2808e-06	88.088	0.0010074	0.0011019	0.00029085	679.4	1.1275e-05	1.2031e-05	729.62	260.04	1.1003e-05	1.1849e-05	328.3	150.54	112.7	62.124	1.0867e-05	91.407	143.359	219.668	271.893	132.886	202.218	290.784	132.116	138.637	227.720	438.122	137.008	140.630	141.635	146.225	316.929	143.434	-8191	255	
3346.124	1	1	0	0	0.052051	0.35583	0.11301	0.23076	0.13051	0.2412	0.12345	0.10686	0.066014	0.12142	0.27834	0.1844	0.17298	0.13587	0.13258	0.26595	-3.0125	-3.025	-3	-3.5708	-2.9083	-3.3125	-3.3396	-3.0938	-3.4583	-2.9917	-2.9104	-3.5167	-3	-3.4042	-3.3604	-3.1188	157.839	146.788	371.023	389.949	392.696	207.494	387.647	467.257	154.755	392.740	181.250	473.260	459.025	425.623	299.745	398.560	0.0014898	0.0001405	0.00024486	629.2	1.1804e-05	4.5703e-06	674.9	241.17	9.353e-06	5.7059e-06	304.14	143.76	105	59.37	8.8802e-06	88.384	0.0010486	0.0010789	0.00028593	677.66	1.1638e-05	1.1849e-05	723.83	258.32	1.1538e-05	1.1638e-05	326.29	150.5	112.67	62.136	1.0747e-05	91.799	141.711	247.306	166.426	133.475	223.869	251.164	131.855	138.387	221.567	268.377	136.875	140.588	141.759	146.302	286.646	143.562	-8191	255	
3346.243	1	1	0	0	0.18723	0.019626	0.12816	0.11717	0.053691	0.11063	0.065234	0.20679	0.067342	0.37307	0.32042	0.25899	0.31349	0.20351	0.25428	0.1769	-2.7625	-3.1833	-2.9646	-3.5083	-3.0104	-3.1479	-3.4042	-3.0812	-3.4375	-3.1562	-3.0167	-3.4167	-3.0375	-3.2521	-3.5146	-3.2833	124.294	322.548	418.465	428.060	358.122	402.118	445.082	450.218	428.763	171.705	208.555	401.425	430.893	236.365	375.357	427.639	0.00138	0.00067822	0.00020161	631.94	8.4537e-06	2.9861e-06	679.24	240.78	3.7713e-06	1.885e-06	305.93	143.69	105.05	59.172	8.2557e-06	88.946	0.0010792	0.0010397	0.00028276	679.61	1.1825e-05	1.1617e-05	727.07	258	1.1907e-05	1.1214e-05	326.92	151	112.58	62.115	1.0658e-05	92.407	145.739	251.408	189.948	133.054	253.404	249.193	131.930	138.496	217.337	270.962	136.785	140.638	141.956	146.139	227.588	143.535	-8191	255	
3346.339	1	1	0	0	0.1901	0.13252	0.28927	0.12403	0.14433	0.076274	0.2265	0.10763	0.31443	0.16377	0.15981	0.1547	0.23466	0.23889	0.13544	0.17184	-2.9813	-3.2021	-3.0042	-3.2458	-3.1708	-2.9646	-3.6104	-2.8896	-3.2521	-3.4667	-2.8937	-3.5354	-3.2042	-3.3063	-3.5771	-3.2458	228.417	371.635	169.328	414.624	178.854	252.819	440.471	414.087	396.472	326.611	294.493	377.020	468.099	447.798	168.316	452.229	0.0014268	0.00027869	0.00014457	631.74	1.9544e-06	2.5616e-06	683.63	240.48	4.5919e-06	6.6071e-06	303.58	144.07	104.38	59.132	2.1558e-06	88.223	0.001105	0.0010216	0.00028331	682.44	1.1901e-05	1.143e-05	728.13	258.56	1.1958e-05	1.0992e-05	325.25	151.21	112.02	61.855	1.0651e-05	91.852	142.310	240.418	179.558	133.452	263.946	298.079	132.082	138.344	209.070	353.869	136.935	140.742	141.669	145.998	258.955	143.474	-8191	255	
3346.435	1	1	0	0	0.33013	0.14964	0.14328	0.1049	0.18746	0.13803	0.1036	0.060122	0.06616	0.046448	0.039149	0.056728	0.23003	0.12227	0.07825	0.15896	-2.85	-3.3708	-2.8521	-3.3625	-3.0875	-2.8937	-3.5667	-3.0896	-3.25	-3.4	-3.0062	-3.5896	-3.3417	-3.1208	-3.4708	-3.225	157.370	476.717	232.076	130.446	150.411	420.124	444.109	350.269	330.818	350.502	429.915	471.145	120.577	170.031	124.724	356.604	0.0013962	0.00045524	0.00027313	626.3	2.3179e-06	6.0038e-06	672.8	237.86	3.3918e-06	7.8489e-06	299.62	140.74	103.47	58.499	4.683e-06	87.383	0.0010957	0.00099787	0.00028073	680.34	1.1627e-05	1.1111e-05	718.74	256.42	1.1617e-05	1.0717e-05	319.99	149.06	110.69	61.283	1.0525e-05	91.015	144.256	233.640	197.559	133.149	222.807	210.800	132.044	138.234	129.869	275.889	136.776	140.493	141.732	146.194	255.219	143.482	-8191	255	
3346.507	1	1	0	0	0.10479	0.16101	0.33346	0.19972	0.15359	0.10009	0.064064	0.17713	0.13424	0.031655	0.34466	0.1274	0.14828	0.2729	0.12928	0.30247	-2.6729	-3.2479	-2.9521	-3.2562	-3.2687	-2.9646	-3.2042	-3.1542	-3.1271	-3.225	-3.1479	-3.2854	-3.325	-3.1896	-3.4437	-3.4708	196.895	308.763	197.601	432.959	226.379	190.721	409.483	126.676	159.965	278.802	462.825	407.289	433.184	120.963	312.365	421.400	0.0012897	0.00042423	0.00023013	626.87	2.9978e-06	1.6003e-06	674.62	237.42	7.8298e-06	2.7112e-06	299.59	141.15	103.36	58.877	5.2635e-06	87.991	0.0010444	0.00095862	0.00027926	681.27	1.1004e-05	1.0902e-05	722.02	255.91	1.122e-05	1.0544e-05	321.38	149.75	110.29	61.466	1.0848e-05	91.59	142.791	463.442	182.193	133.321	239.759	276.421	131.919	138.470	216.683	253.050	136.640	140.519	141.548	146.054	217.924	143.527	-8191	255	
3346.628	1	1	0	0	0.14398	0.071344	0.20873	0.22973	0.01547	0.34425	0.25304	0.17966	0.2779	0.10555	0.17225	0.062795	0.14286	0.061879	0.17896	0.25856	-2.6729	-3.2917	-2.9562	-3.3625	-3.3479	-2.9479	-3.5	-3.1354	-3.0833	-3.4875	-3.1521	-3.325	-3.3729	-3.0687	-3.3187	-3.4271	362.563	122.444	359.288	131.368	307.833	469.481	455.890	409.108	397.490	293.821	212.881	473.429	438.006	160.032	445.551	416.816	0.0014944	0.00029688	0.00015918	630.63	2.5769e-06	1.1585e-05	679.08	237.78	4.0153e-06	5.4027e-06	299.97	141.82	103.32	58.742	6.8985e-06	88.227	0.0010286	0.00094482	0.00028607	682.32	1.0695e-05	1.0787e-05	724.79	255.74	1.1093e-05	1.0381e-05	323.24	150.17	110.04	61.511	1.1387e-05	91.901	141.091	474.854	142.187	133.486	289.056	245.684	132.235	138.412	273.855	270.879	136.651	140.633	141.676	146.094	228.462	143.405	-8191	255	
3346.724	1	1	0	0	0.084214	0.16693	0.058475	0.26178	0.40679	0.17457	0.29216	0.23639	0.079337	0.20324	0.18911	0.17823	0.15322	0.16768	0.13508	0.15762	-2.6396	-3.5312	-2.95	-3.3667	-3.2521	-2.9021	-3.4437	-3.1542	-3.1646	-3.3479	-3.1583	-3.4833	-3.4958	-3.0104	-3.3208	-3.5396	222.340	146.200	158.427	463.255	379.022	233.452	368.665	464.199	241.881	368.464	428.218	320.023	201.625	159.658	387.567	464.006	0.0012959	0.00042256	0.00035542	628.19	1.0513e-05	4.5873e-06	676	236.08	9.4493e-06	1.0459e-05	299.25	141.26	103.68	58.513	1.3818e-05	87.604	0.0010221	0.00095079	0.00029732	680.86	1.0563e-05	1.0861e-05	727.67	254.06	1.0936e-05	1.0463e-05	322.2	149.06	109.61	61.134	1.1631e-05	90.924	142.986	148.054	176.853	133.498	248.020	263.341	132.244	138.415	249.957	267.339	136.761	140.583	141.389	146.190	243.382	143.444	-8191	255	
3346.820	1	1	0	0	0.21662	0.30747	0.17071	0.12691	0.17014	0.13862	0.32834	0.31847	0.20741	0.11577	0.24221	0.25892	0.18647	0.075716	0.05641	0.29152	-2.4521	-3.5792	-3.1354	-3.325	-3.4562	-3.1375	-3.4562	-3.2792	-3.0979	-3.3833	-3.2604	-3.2188	-3.6646	-3.2229	-3.1875	-3.4833	284.893	196.246	297.784	168.872	203.969	277.142	404.367	229.454	214.512	214.628	367.072	268.206	436.160	159.333	310.764	400.131	0.001343	0.00050089	0.00026099	625.31	1.2715e-06	4.6819e-06	669.11	234.34	1.0042e-05	5.6764e-06	295.6	139.42	102.75	57.974	5.6216e-06	86.81	0.00099958	0.00095959	0.00029564	674.46	1.0216e-05	1.092e-05	719.98	250.77	1.0574e-05	1.0679e-05	317.92	147.16	108.72	60.749	1.1566e-05	90.123	142.458	167.933	203.613	133.177	315.087	207.469	132.024	138.229	236.889	265.026	136.664	140.674	141.672	145.909	255.799	143.391	-8191	255	
3346.916	1	1	0	0	0.098006	0.22688	0.1678	0.15893	0.18264	0.22667	0.032	0.13302	0.12949	0.045554	0.1359	0.26195	0.17303	0.35601	0.22853	0.13523	-2.6021	-3.5125	-3.4042	-3.2208	-3.6417	-3.1937	-3.4208	-3.5292	-3.1896	-3.4188	-3.5479	-3.2833	-3.4875	-3.3354	-3.2438	-3.5687	336.518	331.039	133.886	280.168	266.169	154.895	143.981	230.536	159.220	473.733	210.073	428.092	462.433	446.932	133.056	322.559	0.0014098	0.0010288	0.00030923	624.9	3.5734e-06	4.6739e-06	670.89	235.55	7.7998e-06	5.2837e-06	296.34	140.27	102.33	58.294	6.9166e-06	87.516	0.00098023	0.00099102	0.00029526	674.33	1.016e-05	1.1274e-05	723.46	251.34	1.0702e-05	1.1228e-05	318.97	147.95	108.68	61.035	1.165e-05	90.716	143.508	158.604	214.228	132.980	252.802	217.671	132.171	138.295	186.434	253.774	136.846	140.508	141.629	146.269	281.671	143.610	-8191	255	
3347.037	1	1	0	0	0.12499	0.18136	0.15785	0.18167	0.20487	0.37752	0.14736	0.11867	0.15497	0.096695	0.25983	0.2332	0.26909	0.29416	0.16416	0.19896	-2.7958	-3.5792	-3.4083	-3.2271	-3.5708	-3.225	-3.35	-3.6771	-3.1104	-3.6396	-3.3958	-3.2521	-3.6063	-3.3812	-3.25	-3.6583	123.350	182.446	302.216	427.549	134.597	314.610	143.730	437.874	402.933	402.819	328.810	403.766	149.352	475.501	202.568	417.317	0.0013797	0.0005985	0.00023214	623.77	7.4241e-06	5.2484e-06	673.54	234.68	1.2033e-05	1.6973e-05	297.2	141.25	102.64	58.321	2.172e-06	88.304	0.00099905	0.0010574	0.0002927	675.08	1.0467e-05	1.182e-05	726.01	251.33	1.0977e-05	1.1968e-05	319.46	148.88	109.12	61.311	1.1657e-05	91.473	143.756	452.811	187.456	133.344	234.554	360.194	131.943	138.309	251.624	281.035	136.838	140.663	141.743	146.190	241.662	143.426	-8191	255	
3347.131	1	1	0	0	0.17398	0.10074	0.078597	0.030723	0.076909	0.18392	0.076816	0.1792	0.21182	0.15961	0.085403	0.14644	0.14639	0.058766	0.083853	0.19318	-2.6604	-3.4313	-3.4417	-3.2458	-3.2313	-3.3333	-3.225	-3.5687	-3.1708	-3.375	-3.6333	-3.1958	-3.5563	-3.3104	-2.9896	-3.6646	420.466	156.721	449.027	353.022	330.109	315.950	315.392	131.891	386.369	135.490	179.881	382.602	143.108	414.336	151.997	443.887	0.0015171	0.00036984	0.0001043	626	4.9931e-06	4.3959e-06	674.05	233.35	8.0932e-06	5.9258e-06	297.4	140.44	102.41	57.935	3.4038e-06	86.895	0.0010324	0.0010986	0.00028733	676.11	1.098e-05	1.2047e-05	725.18	250.51	1.1276e-05	1.2078e-05	317.8	147.77	109.31	60.971	1.1351e-05	90.07	138.948	283.030	178.971	133.421	274.337	212.112	132.208	138.250	200.410	286.652	136.695	140.529	141.847	145.930	250.053	143.372	-8191	255	
3347.205	1	1	0	0	0.21643	0.040049	0.055356	0.1402	0.15607	0.18593	0.15878	0.29215	0.23403	0.055649	0.21181	0.3397	0.40378	0.27967	0.16451	0.34847	-2.6646	-3.2292	-3.4354	-3.2354	-3.4771	-3.3646	-3.2562	-3.6333	-3.2438	-3.1125	-3.5646	-2.9521	-3.475	-3.5229	-3.05	-3.7208	373.398	424.085	205.482	382.478	144.900	252.326	361.661	438.037	125.307	240.748	321.283	459.499	449.075	443.767	127.050	383.915	0.0014295	0.00057073	0.00016222	628.1	9.4356e-06	5.5501e-06	669.74	233.22	7.3741e-06	6.1342e-06	295.67	139.58	102.43	58.15	9.6875e-06	86.642	0.0010685	0.0011045	0.00028136	675.44	1.1445e-05	1.1932e-05	719.02	250.4	1.1801e-05	1.1996e-05	316.97	147.19	109.72	60.987	1.1269e-05	89.95	145.185	262.927	290.517	133.275	253.257	227.130	132.105	138.149	233.622	319.246	136.677	140.495	141.874	145.956	270.503	143.557	-8191	255	
3347.325	1	1	0	0	0.16051	0.14263	0.24002	0.1052	0.14043	0.22286	0.22619	0.21867	0.037206	0.1468	0.058437	0.22373	0.21614	0.16102	0.086289	0.29794	-2.8396	-3.2417	-3.3688	-3.2521	-3.2396	-3.2313	-3.1583	-3.5208	-3.1667	-3.1437	-3.5	-3.0917	-3.5479	-3.3896	-2.9813	-3.7458	479.256	474.479	215.292	471.679	435.300	307.120	144.835	434.515	182.276	207.588	318.949	132.109	133.152	426.123	170.510	380.429	0.0013212	0.00047629	0.00021732	627.89	1.0439e-05	3.3609e-06	675.62	235.07	7.9056e-06	1.3394e-05	298.48	140.72	103.55	58.313	2.981e-06	88.106	0.0010973	0.0010823	0.00027602	677.19	1.1845e-05	1.1519e-05	723.26	251.86	1.1965e-05	1.1668e-05	318.6	148.57	110.47	61.233	1.1109e-05	91.318	142.577	243.258	190.129	133.267	215.138	455.889	131.885	138.573	272.659	307.863	137.143	140.495	141.709	146.014	279.006	143.664	-8191	255	
3347.420	1	1	0	0	0.038843	0.11225	0.17554	0.22931	0.21775	0.18803	0.18124	0.068065	0.21814	0.20356	0.16381	0.15659	0.30197	0.29108	0.12355	0.32588	-2.6396	-3.1667	-3.5458	-3.0417	-3.3625	-3.5042	-3.0187	-3.3979	-3.3438	-3.1437	-3.7104	-3.1625	-3.3812	-3.5354	-3	-3.4979	138.918	299.484	227.193	272.995	384.134	421.283	414.011	347.478	380.475	164.795	389.891	480.344	463.074	413.651	247.119	398.165	0.0014782	0.00095671	0.00022645	631.82	6.8341e-06	2.2578e-06	676.46	235.54	9.1961e-06	6.8245e-06	299.57	142.23	104.25	58.711	3.0341e-06	88.746	0.0010931	0.0010394	0.00026931	680.45	1.1887e-05	1.1087e-05	726.68	252.99	1.1804e-05	1.1258e-05	320.1	149.97	110.99	61.469	1.0881e-05	92.154	143.434	235.795	163.904	133.345	305.902	340.855	132.112	138.339	180.026	236.634	137.030	140.443	141.645	146.258	172.346	143.417	-8191	255	
3347.516	1	1	0	0	0.26996	0.11766	0.066927	0.21451	0.34064	0.23667	0.20239	0.076764	0.2608	0.075485	0.23615	0.17268	0.1143	0.28071	0.1817	0.1245	-2.8333	-2.9354	-3.6583	-3.0417	-3.1937	-3.4042	-3.2125	-3.5438	-3.1958	-3.2104	-3.5729	-3.3771	-3.2812	-3.6396	-3.0604	-3.6125	298.257	465.485	164.890	350.691	162.372	201.298	429.579	435.829	192.990	163.579	434.251	437.547	448.967	142.205	142.013	130.271	0.0012861	0.00057383	0.00020144	628.3	8.0065e-07	1.092e-05	676.74	234.74	9.0301e-06	4.8271e-06	298.82	141.52	103.12	58.34	5.7119e-06	87.003	0.0010707	0.0010202	0.00026259	681.39	1.1608e-05	1.0697e-05	723.71	253.63	1.1421e-05	1.0996e-05	318.34	148.98	110.2	60.994	1.0696e-05	90.669	145.860	164.716	177.548	133.449	187.431	310.270	132.100	138.377	279.166	311.020	136.634	140.565	141.806	146.218	337.741	143.432	-8191	255	
3347.612	1	1	0	0	0.11551	0.03014	0.21964	0.11419	0.18939	0.23569	0.16547	0.18505	0.096787	0.13484	0.24007	0.20919	0.28409	0.080415	0.1028	0.079031	-2.9021	-2.9458	-3.4646	-3.2896	-3.0396	-3.3083	-3.1396	-3.3479	-3.2375	-3.0812	-3.5583	-3.4229	-3.3104	-3.5646	-3.1083	-3.4313	374.437	173.542	259.731	459.336	126.475	417.813	427.367	377.849	424.312	388.637	354.350	154.146	425.892	446.950	329.859	450.439	0.0013699	0.0007501	4.004e-05	625.54	7.0161e-06	7.0177e-06	672.06	236.65	7.7493e-06	2.0575e-06	299.47	141.45	103.38	58.637	4.6263e-06	87.808	0.0010229	0.00099916	0.0002647	680	1.1277e-05	1.0398e-05	720.2	254.76	1.1002e-05	1.0891e-05	319.19	149.19	110.3	61.181	1.1004e-05	91.392	150.562	176.713	149.711	132.990	282.235	281.515	132.088	138.289	240.011	306.077	136.884	140.888	141.782	146.109	280.177	143.325	-8191	255	
3347.733	1	1	0	0	0.20749	0.13424	0.18302	0.084216	0.10284	0.1482	0.085825	0.16121	0.050819	0.19421	0.083844	0.17362	0.18909	0.077962	0.041558	0.076007	-2.8229	-2.8708	-3.35	-3.1271	-3.0896	-3.4833	-3.3229	-3.4146	-3.5104	-2.9729	-3.4875	-3.425	-3.1458	-3.6604	-3.2042	-3.4083	456.167	183.646	469.548	213.945	264.159	400.804	423.755	275.949	167.773	470.936	416.457	435.615	434.019	430.680	437.644	162.397	0.0011758	0.0002779	0.00018635	631.88	3.5727e-06	4.9131e-06	678.84	237.68	4.9029e-06	7.4377e-06	298.94	141.72	104.11	58.918	5.219e-06	88.814	0.00099805	0.00098384	0.00027414	682.27	1.0986e-05	1.0304e-05	727.9	255.89	1.0731e-05	1.078e-05	322.44	149.96	110.7	61.525	1.154e-05	92.309	144.451	153.967	207.003	133.142	330.771	342.782	132.060	138.505	290.486	251.221	136.829	140.575	141.735	146.137	249.006	143.490	-8191	255	
3347.804	1	1	0	0	0.1553	0.34698	0.30823	0.20653	0.15777	0.080611	0.022886	0.14855	0.13424	0.23805	0.23435	0.17762	0.086277	0.18439	0.18232	0.36854	-3.1021	-3.0125	-3.4437	-3.4604	-3.0625	-3.3187	-3.4333	-3.1729	-3.4604	-3.0812	-3.4313	-3.5021	-3.025	-3.5375	-3.0896	-3.1833	168.268	234.600	182.411	309.308	325.943	134.017	381.141	449.675	460.427	220.429	408.395	238.353	465.857	179.964	122.794	367.151	0.0013579	0.00029197	0.00028807	632.18	7.4633e-06	1.1151e-05	683.25	237.96	9.5676e-06	4.0111e-06	301.38	142.23	104.38	58.929	4.5469e-06	88.365	0.00098998	0.00098477	0.00028946	683.32	1.0909e-05	1.0396e-05	733.35	255.94	1.0562e-05	1.0817e-05	324.31	150.07	110.7	61.516	1.1822e-05	91.855	142.242	255.666	182.612	133.112	263.656	224.327	132.275	138.525	219.649	300.698	136.579	140.592	141.763	146.124	181.159	143.556	-8191	255	
3347.925	1	1	0	0	0.24699	0.10978	0.092309	0.17829	0.1162	0.14053	0.28924	0.035914	0.16519	0.22749	0.15135	0.13878	0.23907	0.11711	0.14872	0.29407	-3.1	-3.0062	-3.3229	-3.3729	-2.8896	-3.4771	-3.1792	-3.2812	-3.6562	-2.9062	-3.4729	-3.4854	-3.1521	-3.725	-3.2812	-3.0958	407.368	409.124	257.926	404.009	259.227	365.420	410.927	368.255	242.879	256.936	339.813	136.882	178.492	151.631	191.598	402.232	0.0013304	0.00051023	0.00012616	629.53	5.7318e-06	6.8033e-06	677.14	235.28	7.901e-06	7.5255e-06	295.23	140.49	103.12	58.222	5.1403e-06	86.648	0.0009656	0.00099487	0.00030048	679.83	1.0772e-05	1.0579e-05	728.96	253.66	1.0338e-05	1.1024e-05	319.8	147.44	109.57	60.957	1.1699e-05	90.201	142.108	256.254	134.327	133.287	257.265	269.317	132.023	138.398	267.092	270.156	136.840	140.584	141.810	146.201	315.404	143.727	-8191	255	
3348.021	1	1	0	0	0.12867	0.27617	0.27977	0.17815	0.16963	0.12557	0.0717	0.012171	0.10736	0.25634	0.33086	0.24741	0.1232	0.10182	0.027684	0.29571	-3.0458	-3.2583	-3.1917	-3.4167	-2.9417	-3.4792	-3.2188	-3.1208	-3.6	-3.2375	-3.2812	-3.5583	-2.9917	-3.65	-3.3729	-3.1771	410.150	407.833	360.724	272.772	235.037	185.412	453.005	288.188	233.501	193.604	421.513	132.480	207.416	409.461	445.534	431.288	0.0013028	0.00086691	0.00015096	630.78	4.6943e-06	3.3192e-06	673.28	237.1	5.0298e-06	2.6882e-06	297.46	141.01	103.23	58.641	8.954e-06	87.59	0.0009515	0.0010212	0.00029995	676.23	1.0658e-05	1.0973e-05	724.69	253.65	1.0282e-05	1.1404e-05	320.93	148.11	109.78	61.409	1.1496e-05	90.944	143.383	173.386	478.078	133.366	227.020	201.734	132.009	138.296	212.605	218.331	136.776	140.598	141.733	146.015	237.635	143.399	-8191	255	
3348.117	1	1	0	0	0.29386	0.090516	0.24492	0.1474	0.21573	0.09193	0.12517	0.2436	0.070667	0.11469	0.074571	0.21953	0.13818	0.26994	0.17528	0.13309	-3.1333	-3.0458	-3.2188	-3.55	-2.8958	-3.4917	-3.3187	-3.1188	-3.5542	-3.2292	-3.3375	-3.3979	-2.95	-3.6042	-3.3083	-3.1312	429.055	276.025	260.784	469.827	226.913	368.517	384.382	130.300	290.593	248.910	446.317	466.048	195.629	393.692	170.521	322.283	0.0013235	0.00014685	0.00011399	632.02	4.917e-06	7.1387e-06	677.12	237.27	6.3817e-06	8.7824e-06	302.07	142.79	104.15	59.215	2.7193e-06	89.323	0.00095007	0.001059	0.00029704	677.82	1.0721e-05	1.1516e-05	727.77	254.75	1.0439e-05	1.1726e-05	324.9	149.91	110.92	62.189	1.1191e-05	92.36	146.948	275.072	212.206	133.463	242.729	214.139	132.172	138.499	205.402	258.838	136.633	140.412	141.548	145.991	390.985	143.333	-8191	255	
3348.212	1	1	0	0	0.079507	0.2376	0.25636	0.27949	0.036312	0.071691	0.11979	0.18307	0.16856	0.19222	0.20419	0.24418	0.12456	0.40698	0.084591	0.24078	-2.9688	-3.1813	-3.1396	-3.6104	-2.9313	-3.2792	-3.5646	-3.1	-3.4021	-3.3563	-3.2583	-3.6042	-3.1333	-3.2917	-3.3375	-3.3063	357.483	441.597	416.716	132.751	475.152	197.534	453.850	432.318	460.910	253.615	282.967	463.661	147.409	419.534	136.539	351.023	0.0014287	0.00097883	0.00019214	632.53	9.3077e-06	3.3411e-06	680.9	238.3	3.4198e-06	4.5543e-06	301.99	142.93	105.15	59.1	1.7114e-06	88.807	0.00098101	0.0010873	0.00029325	680.17	1.103e-05	1.202e-05	730.47	255.32	1.0883e-05	1.1953e-05	323.81	149.82	111.41	62.127	1.0889e-05	92.057	143.725	195.192	177.331	133.522	223.974	301.718	132.070	138.368	158.935	412.010	136.723	140.435	141.579	146.038	275.906	143.480	-8191	255	
3348.332	1	1	0	0	0.16634	0.10304	0.15866	0.13159	0.1521	0.051731	0.16022	0.1847	0.12404	0.034769	0.19975	0.29735	0.14111	0.037384	0.29124	0.16169	-3.1583	-3.1354	-3.2062	-3.4979	-3.1292	-3.3	-3.4813	-3.1104	-3.6667	-3.1729	-3.3708	-3.6625	-3.1188	-3.4875	-3.6813	-3.0646	244.363	345.015	342.443	130.947	463.257	155.465	196.524	230.668	219.292	314.107	447.013	364.138	180.086	394.574	219.146	455.278	0.0014477	0.00037093	0.00013776	629.88	1.2375e-05	7.2333e-06	679.56	238.06	1.5892e-05	4.2309e-06	300.06	141.41	104.3	58.652	8.1111e-06	87.837	0.0010216	0.0010754	0.00028317	676.67	1.129e-05	1.1732e-05	724.87	255.19	1.1246e-05	1.1627e-05	321.41	148.13	111.3	61.665	1.0606e-05	90.833	143.871	220.050	204.979	133.306	274.411	239.064	131.922	138.195	199.186	198.556	137.028	140.694	141.811	145.995	282.283	143.358	-8191	255	
3348.404	1	1	0	0	0.16438	0.13338	0.18176	0.29818	0.25702	0.014073	0.30912	0.2555	0.13637	0.20868	0.14872	0.18511	0.25744	0.10574	0.27311	0.06406	-3.1396	-3.0729	-2.9708	-3.775	-3.0375	-3.2062	-3.4417	-3.0375	-3.2208	-3.4167	-3.2958	-3.4667	-3.2979	-3.4188	-3.4604	-3.1396	317.526	148.373	284.390	422.970	403.892	440.781	472.891	385.049	152.985	391.496	432.456	397.523	339.530	447.680	308.510	384.136	0.0014426	0.0010108	0.00017148	629.7	9.2454e-06	8.306e-06	679.28	237.83	6.1909e-06	4.5237e-06	302.09	142.31	104.08	58.895	4.3693e-06	88.328	0.0010654	0.0010496	0.00028423	677.07	1.1863e-05	1.1731e-05	725.71	255.63	1.1827e-05	1.147e-05	323.17	149.58	111.97	61.98	1.0786e-05	91.768	144.452	274.819	177.293	133.370	227.110	322.722	131.787	138.295	246.707	367.841	136.570	140.550	141.589	146.336	300.364	143.600	-8191	255	
3348.500	1	1	0	0	0.14145	0.065439	0.081367	0.11479	0.16658	0.10063	0.32342	0.17976	0.075763	0.068022	0.20066	0.063658	0.17343	0.097365	0.25069	0.16944	-2.9667	-3.2667	-3.0042	-3.7521	-3.2708	-3.0646	-3.675	-3.2646	-3.4396	-3.5625	-3.0583	-3.3438	-3.2854	-3.2333	-3.6	-3.2146	142.078	225.677	429.581	261.554	411.568	128.821	434.741	397.805	142.534	356.659	142.556	253.473	412.343	179.770	345.962	465.655	0.0013792	0.0006446	0.00017777	631.02	7.5014e-06	1.2342e-06	678.17	237.79	4.6265e-06	2.253e-06	304.68	143.81	104.75	59.515	1.1013e-05	89.195	0.0011176	0.0010383	0.00028773	681.74	1.209e-05	1.1611e-05	729.43	256.99	1.2229e-05	1.1244e-05	325.19	150.98	112.38	62.372	1.0785e-05	93.02	142.891	252.283	206.144	133.317	267.570	276.615	132.189	138.302	281.089	281.827	136.835	140.640	141.618	146.239	275.950	143.547	-8191	255	
3348.596	1	1	0	0	0.23571	0.12529	0.024163	0.31872	0.25181	0.14878	0.051069	0.18373	0.13222	0.015978	0.029278	0.15362	0.053711	0.20613	0.030664	0.041269	-3.0354	-3.3312	-2.8375	-3.2771	-3.0667	-3.1437	-3.6354	-3.0938	-3.3604	-3.4833	-3.0833	-3.5	-3.3875	-3.2938	-3.3063	-3.1	179.309	331.151	321.340	404.363	347.344	221.598	474.596	396.730	273.809	315.985	398.765	424.340	479.746	449.256	434.914	215.718	0.0014844	0.00073597	0.00040074	632.85	2.5726e-06	1.2306e-05	684.14	238.7	5.3919e-06	6.2902e-06	303.22	143.41	105.03	59.462	1.8258e-06	88.674	0.0011302	0.0010315	0.00028699	686.57	1.212e-05	1.1574e-05	731.72	258.49	1.2153e-05	1.1224e-05	325.22	151.68	112.2	62.304	1.081e-05	92.579	146.019	215.152	162.184	133.174	457.442	279.117	132.251	138.481	232.130	319.444	136.863	140.656	141.395	146.172	320.653	143.548	-8191	255	
3348.715	1	1	0	0	0.064108	0.088373	0.092157	0.13738	0.097465	0.10561	0.10148	0.040842	0.15441	0.21104	0.07638	0.40966	0.17812	0.05488	0.1971	0.27156	-2.8229	-3.525	-3.0104	-3.3708	-3.1854	-3.1063	-3.775	-3.3104	-2.9625	-3.3417	-3.0292	-3.3271	-3.5542	-3.2417	-3.35	-3.3563	410.953	178.874	477.745	199.909	193.029	460.901	131.074	359.059	261.072	170.657	320.741	406.461	410.611	420.935	449.347	387.877	0.0013092	0.00050261	0.00013421	634.28	3.7365e-06	4.9396e-06	682.13	239.75	7.5996e-06	3.2676e-06	301.98	142	104.42	59.261	7.624e-06	88.131	0.0010981	0.00099727	0.00028624	686.74	1.164e-05	1.139e-05	728.07	259.89	1.1799e-05	1.0939e-05	325.54	151.04	111.95	62.001	1.1137e-05	91.975	142.734	193.461	269.220	133.455	271.187	204.660	132.184	138.542	323.688	313.936	136.859	140.435	141.962	146.000	245.390	143.555	-8191	255	
3348.811	1	1	0	0	0.077046	0.17285	0.051772	0.15507	0.21374	0.16933	0.2728	0.18985	0.19447	0.13653	0.36411	0.29952	0.082716	0.29713	0.26491	0.10256	-2.6542	-3.5417	-3.0125	-3.1833	-3.3833	-3.1521	-3.8396	-3.2354	-3.075	-3.35	-3.0021	-3.4271	-3.5167	-2.9604	-3.3792	-3.425	278.067	265.921	382.180	305.058	189.349	249.316	362.991	383.412	399.169	365.816	411.593	390.934	132.896	449.913	455.986	264.564	0.0014134	0.00082191	0.00023479	633.38	1.6457e-06	4.407e-06	683.45	239.73	1.2861e-05	4.3712e-06	303.05	143.19	105.19	59.417	4.5521e-06	88.936	0.0010794	0.00099794	0.00029691	689.65	1.1347e-05	1.1309e-05	732.42	259.83	1.1634e-05	1.0831e-05	327.51	151.74	111.93	62.277	1.1693e-05	92.798	144.671	224.629	205.700	133.468	272.419	256.785	132.168	138.327	221.842	314.599	136.910	140.461	141.735	146.233	258.743	143.478	-8191	255	
3348.907	1	1	0	0	0.053713	0.075512	0.053521	0.32122	0.052273	0.095668	0.24857	0.14052	0.1229	0.20153	0.35371	0.24117	0.064797	0.41808	0.10611	0.18942	-2.6937	-3.4208	-2.9417	-3.15	-3.35	-3.1312	-3.5771	-3.3896	-2.9333	-3.5833	-3.1146	-3.2479	-3.2792	-2.8917	-3.4083	-3.4229	467.348	272.682	409.945	166.579	455.256	243.930	475.889	437.035	348.660	150.554	415.775	458.626	200.118	457.607	224.364	312.729	0.0013666	0.00023547	0.00017237	634.85	2.3034e-06	5.6412e-06	684.26	240.8	2.9251e-06	9.3274e-06	304.85	144.27	105.27	59.86	4.611e-06	89.591	0.0010581	0.00098884	0.00030605	689.79	1.1054e-05	1.125e-05	738.13	259.53	1.1397e-05	1.0877e-05	328.59	152.34	111.93	62.557	1.2041e-05	93.13	139.071	300.737	146.253	133.342	266.878	287.347	131.963	138.389	290.542	243.512	136.895	140.680	141.888	146.188	226.402	143.551	-8191	255	
3349.004	1	1	0	0	0.097407	0.083918	0.13203	0.083008	0.12178	0.076516	0.048356	0.15005	0.25276	0.16867	0.20435	0.10506	0.060532	0.23505	0.18332	0.12998	-2.5812	-3.3958	-3.3312	-3.1562	-3.3479	-3.0708	-3.5687	-3.5583	-2.9208	-3.425	-3.3042	-3.1646	-3.5458	-3.1208	-3.3021	-3.5812	327.905	323.815	211.900	454.157	203.101	222.805	425.225	452.600	467.925	203.705	368.696	367.820	356.609	451.429	196.470	463.445	0.0014349	0.00075018	0.00035494	632.62	1.0212e-05	7.8403e-06	684.03	238.37	1.1313e-05	9.1718e-06	299.69	142.31	104.73	59.168	9.3914e-06	87.492	0.0010552	0.001001	0.00031245	687.67	1.0772e-05	1.1332e-05	738.41	257.36	1.1226e-05	1.1116e-05	324.73	150.06	110.77	61.973	1.2327e-05	91.08	146.136	476.815	182.095	133.425	262.572	227.855	132.015	138.506	253.264	195.806	136.758	140.603	141.908	146.048	273.043	143.311	-8191	255	
3349.100	1	1	0	0	0.15918	0.22744	0.11704	0.18367	0.27341	0.081887	0.13038	0.076888	0.14551	0.030479	0.070106	0.13045	0.13797	0.3569	0.11941	0.20262	-2.4	-3.2458	-3.1813	-3.1896	-3.3896	-2.9417	-3.5271	-3.3312	-3.0187	-3.3104	-3.2042	-3.1437	-3.5792	-3.1354	-3.1875	-3.55	214.728	215.927	291.374	448.232	245.135	458.258	377.236	221.218	389.404	385.489	475.921	446.221	372.493	136.319	194.071	427.877	0.0014956	0.00038318	0.00010628	627.98	1.2714e-05	4.409e-06	676.02	236.4	3.904e-06	5.2671e-06	296.76	140.47	103.34	59.062	4.3001e-06	87.556	0.0010299	0.0010274	0.00031339	682.9	1.066e-05	1.1593e-05	729.58	253.86	1.1137e-05	1.1531e-05	320.39	148.31	110.08	61.903	1.2166e-05	90.823	145.388	181.799	253.042	133.195	279.983	191.683	132.035	138.352	235.172	353.961	136.562	140.554	141.645	146.198	305.075	143.312	-8191	255	
3349.196	1	1	0	0	0.11029	0.20016	0.10422	0.20609	0.082907	0.14915	0.11599	0.012932	0.086889	0.10349	0.39311	0.3446	0.14622	0.29225	0.18179	0.23372	-2.6646	-3.3292	-3.3438	-3.0292	-3.3604	-2.9562	-3.2812	-3.4437	-3.0187	-3.4979	-3.175	-2.9958	-3.5062	-3.2521	-2.9083	-3.5062	267.294	144.913	264.747	256.416	426.511	302.200	430.925	358.748	404.148	336.689	423.874	228.971	390.578	396.866	334.398	427.578	0.0014848	0.00088699	0.00028337	633.17	6.7485e-06	1.3221e-05	680.78	237.49	3.6992e-06	2.9022e-06	299.51	141.23	104.08	59.317	4.062e-06	88.228	0.0010308	0.0010771	0.00030641	684.43	1.0703e-05	1.2121e-05	732.93	254.15	1.1117e-05	1.2045e-05	321.85	149.03	110.66	62.276	1.1891e-05	91.497	140.724	169.272	258.765	133.322	219.337	270.805	132.302	138.436	211.421	398.321	136.708	140.592	141.923	146.025	473.602	143.449	-8191	255	
3349.292	1	1	0	0	0.065536	0.095609	0.20406	0.032958	0.18427	0.11583	0.26345	0.080572	0.18082	0.37057	0.22275	0.24546	0.05549	0.15088	0.15835	0.26724	-2.675	-3.2625	-3.1583	-2.9458	-3.4167	-3.1	-3.2792	-3.5333	-2.9583	-3.2042	-3.475	-2.9396	-3.5229	-3.3438	-3.0771	-3.6125	389.112	137.939	256.718	223.681	378.735	180.303	130.345	134.332	186.161	454.544	445.098	376.384	121.483	252.652	422.082	389.414	0.0013834	0.00076506	0.00030566	633.69	5.7499e-06	5.212e-06	678.15	237.27	1.2347e-05	4.5445e-06	300.02	142.29	104.25	59.583	4.7417e-06	88.439	0.0010384	0.0011132	0.00029479	683.68	1.0877e-05	1.2261e-05	732.68	253.88	1.1333e-05	1.224e-05	321.99	149.9	111.09	62.537	1.1596e-05	91.834	147.348	175.636	244.113	133.487	249.231	197.608	131.800	138.441	221.645	140.799	136.814	140.632	141.791	146.110	278.075	143.423	-8191	255	
3349.413	1	1	0	0	0.23266	0.13736	0.085661	0.14902	0.16828	0.14601	0.056269	0.19657	0.060574	0.11068	0.18915	0.065968	0.25361	0.048088	0.099397	0.37018	-2.4792	-3.1917	-3.3896	-2.8167	-3.3417	-3.3208	-3.2021	-3.3646	-3.1542	-3.425	-3.35	-3.2542	-3.3854	-3.425	-2.9813	-3.5979	409.410	387.081	141.564	330.146	410.399	441.778	176.586	144.173	291.366	253.980	348.656	451.452	232.490	341.584	154.275	440.547	0.0014424	0.00062631	0.00016922	634.4	5.8677e-06	2.5946e-06	677.12	236.37	7.1648e-06	6.5147e-06	295.4	139.73	102.92	58.569	6.2126e-06	87.116	0.0010585	0.0011166	0.00028312	683.14	1.1417e-05	1.212e-05	729.6	252.11	1.1625e-05	1.2118e-05	316.86	147.56	110.11	61.642	1.1156e-05	90.193	145.639	227.138	266.680	133.218	257.226	338.032	131.807	138.391	199.550	349.727	136.645	140.491	141.634	146.213	248.639	143.576	-8191	255	
3349.509	1	1	0	0	0.20353	0.10481	0.26092	0.02096	0.24674	0.27257	0.088322	0.13969	0.1465	0.18965	0.16113	0.24799	0.12504	0.21575	0.18793	0.18223	-2.7125	-3.2875	-3.2875	-2.8729	-3.4083	-3.2979	-3.2167	-3.7042	-3.2542	-3.0625	-3.325	-3.0563	-3.3896	-3.3542	-2.8479	-3.5604	231.402	357.789	148.711	122.740	171.615	446.457	456.049	370.861	439.843	327.394	268.092	330.240	409.673	414.692	296.167	471.648	0.0014862	0.00061461	0.0001302	632.12	5.9896e-06	4.6546e-06	674.13	234.8	5.593e-06	4.0635e-06	292.71	140.05	102.88	58.863	7.0526e-06	86.951	0.0010771	0.0010815	0.00027497	678.9	1.1586e-05	1.1527e-05	722.07	250.6	1.1855e-05	1.1709e-05	315.06	147.14	110.32	61.545	1.1065e-05	90.205	143.658	220.194	247.740	133.237	263.819	325.464	131.829	138.379	179.643	441.952	136.794	140.649	141.560	146.316	245.715	143.467	-8191	255	
3349.605	1	1	0	0	0.047332	0.10343	0.10902	0.12662	0.049301	0.18663	0.27163	0.23029	0.2078	0.15378	0.33085	0.1194	0.039735	0.18764	0.15446	0.063163	-2.6063	-3.1208	-3.3792	-3.0187	-3.3479	-3.5167	-2.6958	-3.6396	-3.0146	-3.1688	-3.6312	-3.2104	-3.2125	-3.4688	-2.8125	-3.4771	330.536	176.711	193.643	196.235	445.154	430.970	468.141	399.123	242.280	148.813	467.576	349.094	414.930	365.643	401.207	212.009	0.0013121	0.00066957	0.00015959	631.24	1.5707e-06	7.4468e-06	677.76	233.37	5.5879e-07	3.8034e-06	292.2	139.32	102.1	58.58	3.7237e-06	87.173	0.0011001	0.0010576	0.00027351	680.71	1.2041e-05	1.133e-05	725.34	250.49	1.2148e-05	1.1503e-05	313.93	147.11	109.97	61.309	1.1294e-05	90.569	144.291	227.507	267.920	133.346	426.232	282.067	132.034	138.421	261.848	350.324	136.860	140.581	141.704	146.166	284.903	143.554	-8191	255	
3349.701	1	1	0	0	0.16587	0.13526	0.15474	0.080964	0.21637	0.27457	0.30175	0.17839	0.23312	0.07351	0.088399	0.068863	0.23158	0.26927	0.16309	0.24591	-2.7292	-3.0208	-3.1	-3.0062	-3.2542	-3.6	-2.9333	-3.4604	-3.1396	-3.0583	-3.475	-3.1667	-3.3917	-3.4979	-2.9062	-3.7021	397.506	208.300	125.028	367.139	284.471	346.795	340.801	429.903	387.074	290.046	279.263	454.869	182.988	382.972	205.764	129.680	0.0013769	0.00029702	0.00010144	633	3.0417e-06	7.9255e-06	676.57	232.16	4.8265e-06	1.0571e-05	291.3	138.6	102.03	58.31	1.0695e-05	86.559	0.0011222	0.0010589	0.00027565	684.5	1.2299e-05	1.1287e-05	726.07	250.89	1.2095e-05	1.1523e-05	313.23	147.21	109.46	61.135	1.1263e-05	90.204	141.050	167.084	213.342	133.212	478.872	243.555	131.727	138.297	281.913	224.826	136.812	140.393	141.836	146.207	257.722	143.523	-8191	255	
3349.796	1	1	0	0	0.012666	0.0099661	0.041272	0.19581	0.21608	0.26252	0.072946	0.16029	0.1119	0.070277	0.051685	0.11935	0.15275	0.16283	0.10178	0.14538	-2.8	-2.8875	-3.5479	-3.2396	-3.0167	-3.5187	-2.9521	-3.5229	-3.3167	-2.7812	-3.5479	-3.2667	-3.0167	-3.4688	-3.0396	-3.575	297.037	468.887	451.118	407.498	209.267	120.721	250.269	464.473	429.724	310.851	255.664	464.553	137.974	443.060	445.227	394.276	0.0013962	0.000786	0.00014819	628.4	5.4726e-06	6.0795e-06	674.29	229.34	4.9389e-06	6.4257e-06	288.51	136.76	100.52	57.569	9.2814e-06	85.029	0.0010864	0.0010464	0.00027706	683.51	1.184e-05	1.0907e-05	721.11	248.72	1.1593e-05	1.1263e-05	308.71	145.04	107.97	60.278	1.1385e-05	88.809	144.968	196.781	186.068	133.292	319.334	354.179	131.875	138.453	369.175	264.363	136.610	140.558	141.902	146.214	251.772	143.567	-8191	255	
3349.892	1	1	0	0	0.29617	0.067755	0.1359	0.13867	0.050911	0.10788	0.16732	0.18587	0.087719	0.14288	0.14082	0.18244	0.045349	0.3203	0.46347	0.17465	-2.9958	-3.0354	-3.35	-3.5771	-2.9292	-3.4375	-3.0896	-3.4292	-3.4667	-2.9375	-3.5333	-3.2667	-3.1333	-3.6229	-2.7812	-3.4458	433.723	378.239	164.318	156.244	204.451	138.451	346.200	402.699	194.473	169.337	476.997	394.666	262.669	152.427	439.955	370.879	0.0012622	0.00029053	0.00013739	628.46	3.3327e-06	9.1929e-06	670.04	229.18	1.0011e-05	7.4973e-06	286.81	136.7	100.84	57.903	5.7663e-06	85.848	0.0010546	0.0010372	0.00028451	684.52	1.1579e-05	1.0978e-05	721.56	249.07	1.141e-05	1.1326e-05	309.66	145.1	107.73	60.483	1.1959e-05	89.591	147.919	479.439	181.924	133.347	125.773	241.849	132.096	138.479	304.014	230.473	136.952	140.377	141.843	146.421	200.863	143.615	-8191	255	
3350.012	1	1	0	0	0.27807	0.038389	0.1038	0.29571	0.06829	0.088936	0.23422	0.12861	0.18324	0.26699	0.092058	0.15305	0.082567	0.2255	0.10615	0.15725	-3.0187	-3.0604	-3.1937	-3.2625	-3.1	-3.3125	-3.1583	-3.0771	-3.3896	-2.8833	-3.5458	-3.2938	-3.0354	-3.4896	-2.9229	-3.3292	412.775	292.338	226.464	465.023	327.882	460.527	193.018	472.245	325.748	394.702	463.688	144.372	153.760	161.595	412.623	368.879	0.0015276	0.00027143	0.00023443	629.22	3.3808e-06	5.6867e-06	672.71	229.48	5.8674e-06	5.1172e-06	288.23	137.66	101.02	58.191	1.0039e-05	86.888	0.001055	0.0010452	0.0003044	685.68	1.1646e-05	1.1086e-05	728.23	248.9	1.14e-05	1.1559e-05	312.68	146.08	108.21	60.914	1.2513e-05	90.693	144.638	224.413	181.275	133.372	227.996	285.248	132.139	138.168	276.217	300.172	136.540	140.675	141.517	146.210	225.506	143.376	-8191	255	
#DATA ENDS
