BOXY.EXE: ISS Imagent and Oximeter Data Acquisition Program Version 0.80
Ascii Record File

#ACQ INFORMATION
2  Detector Channels 
16  External MUX Channels 
1  Auxiliary Channels 
5000  Waveform (CCF) Frequency (Hz)
1  Waveforms Skipped 
30  Waveforms Averaged 
1  Cycles Averaged 
16  Acquisitions per Waveform 
10.0806  Updata Rate (Hz) 

#FILE INFORMATION
TRUE -- External MUX Channel results are PARSED.
FALSE -- AC DC and Phase are NOT grouped.
TRUE -- Companion Program Settings File CREATED.
FALSE -- AC data not excluded
FALSE -- DC data not excluded
FALSE -- Phase data not excluded
FALSE -- Auxillary Chn. data not excluded
Tab delimiters

#CALIBRATION STATE
TRUE -- Waveform Calibration Values APPLIED.


#AUX CALIBRATION VALUES
Val Type	aux-1	

Term	1.0000e+00	
Factor	0.0000e+00	


#WF CALIBRATION VALUES
A = Detector Channel
Val Type	A-AC1	A-AC2	A-AC3	A-AC4	A-AC5	A-AC6	A-AC7	A-AC8	A-AC9	A-AC10	A-AC11	A-AC12	A-AC13	A-AC14	A-AC15	A-AC16	A-DC1	A-DC2	A-DC3	A-DC4	A-DC5	A-DC6	A-DC7	A-DC8	A-DC9	A-DC10	A-DC11	A-DC12	A-DC13	A-DC14	A-DC15	A-DC16	A-Ph1	A-Ph2	A-Ph3	A-Ph4	A-Ph5	A-Ph6	A-Ph7	A-Ph8	A-Ph9	A-Ph10	A-Ph11	A-Ph12	A-Ph13	A-Ph14	A-Ph15	A-Ph16	

Term	0.00000e+00	0.00000e+00	0.00000e+00	0.00000e+00	0.00000e+00	0.00000e+00	0.00000e+00	0.00000e+00	0.00000e+00	0.00000e+00	0.00000e+00	0.00000e+00	0.00000e+00	0.00000e+00	0.00000e+00	0.00000e+00	0.00000e+00	0.00000e+00	0.00000e+00	0.00000e+00	0.00000e+00	0.00000e+00	0.00000e+00	0.00000e+00	0.00000e+00	0.00000e+00	0.00000e+00	0.00000e+00	0.00000e+00	0.00000e+00	0.00000e+00	0.00000e+00	0.00000e+00	0.00000e+00	0.00000e+00	0.00000e+00	0.00000e+00	0.00000e+00	0.00000e+00	0.00000e+00	0.00000e+00	0.00000e+00	0.00000e+00	0.00000e+00	0.00000e+00	0.00000e+00	0.00000e+00	0.00000e+00	
Factor	1.00000e+00	1.00000e+00	1.00000e+00	1.00000e+00	1.00000e+00	1.00000e+00	1.00000e+00	1.00000e+00	1.00000e+00	1.00000e+00	1.00000e+00	1.00000e+00	1.00000e+00	1.00000e+00	1.00000e+00	1.00000e+00	1.00000e+00	1.00000e+00	1.00000e+00	1.00000e+00	1.00000e+00	1.00000e+00	1.00000e+00	1.00000e+00	1.00000e+00	1.00000e+00	1.00000e+00	1.00000e+00	1.00000e+00	1.00000e+00	1.00000e+00	1.00000e+00	X	X	X	X	X	X	X	X	X	X	X	X	X	X	X	X	

B = Detector Channel
Val Type	B-AC1	B-AC2	B-AC3	B-AC4	B-AC5	B-AC6	B-AC7	B-AC8	B-AC9	B-AC10	B-AC11	B-AC12	B-AC13	B-AC14	B-AC15	B-AC16	B-DC1	B-DC2	B-DC3	B-DC4	B-DC5	B-DC6	B-DC7	B-DC8	B-DC9	B-DC10	B-DC11	B-DC12	B-DC13	B-DC14	B-DC15	B-DC16	B-Ph1	B-Ph2	B-Ph3	B-Ph4	B-Ph5	B-Ph6	B-Ph7	B-Ph8	B-Ph9	B-Ph10	B-Ph11	B-Ph12	B-Ph13	B-Ph14	B-Ph15	B-Ph16	

Term	0.00000e+00	0.00000e+00	0.00000e+00	0.00000e+00	0.00000e+00	0.00000e+00	0.00000e+00	0.00000e+00	0.00000e+00	0.00000e+00	0.00000e+00	0.00000e+00	0.00000e+00	0.00000e+00	0.00000e+00	0.00000e+00	0.00000e+00	0.00000e+00	0.00000e+00	0.00000e+00	0.00000e+00	0.00000e+00	0.00000e+00	0.00000e+00	0.00000e+00	0.00000e+00	0.00000e+00	0.00000e+00	0.00000e+00	0.00000e+00	0.00000e+00	0.00000e+00	-2.28318e+02	-1.28261e+02	-1.22557e+02	-1.79784e+02	-6.98370e+01	-5.69121e+01	-1.58204e+02	-1.62015e+02	-8.96925e+01	-7.94603e+01	-1.70039e+02	-1.72048e+02	-1.82281e+02	-1.76085e+02	-7.57894e+01	-1.48903e+02	
Factor	4.44743e-05	1.16669e-04	3.11420e-05	1.50107e-01	1.44705e-06	1.30124e-06	1.55391e-01	5.73555e-02	1.61794e-06	1.31520e-06	7.33951e-02	2.70137e-02	2.41607e-02	7.75268e-03	1.42893e-06	1.11630e-02	1.56745e-06	1.64600e-06	4.64896e-07	7.58927e-02	1.78137e-08	1.80026e-08	7.42071e-02	2.88859e-02	1.77144e-08	1.80151e-08	3.60562e-02	1.31780e-02	1.21309e-02	3.93631e-03	1.80715e-08	5.48598e-03	X	X	X	X	X	X	X	X	X	X	X	X	X	X	X	X	



#DISTANCE SETTINGS
A = Detector Channel
A-1	A-2	A-3	A-4	A-5	A-6	A-7	A-8	A-9	A-10	A-11	A-12	A-13	A-14	A-15	A-16	

2.5000e+00	3.0000e+00	2.5000e+00	3.0000e+00	2.0000e+00	3.0000e+00	1.5000e+00	3.0000e+00	3.0000e+00	3.0000e+00	3.0000e+00	3.0000e+00	3.0000e+00	3.0000e+00	1.5000e+00	3.0000e+00	

B = Detector Channel
B-1	B-2	B-3	B-4	B-5	B-6	B-7	B-8	B-9	B-10	B-11	B-12	B-13	B-14	B-15	B-16	

1.0000e+01	1.0000e+01	1.0000e+01	1.4400e+00	1.0000e+01	1.0000e+01	1.5100e+00	1.9400e+00	1.0000e+01	1.0000e+01	1.9900e+00	2.4900e+00	2.4100e+00	2.9000e+00	1.0000e+01	2.9800e+00	




#DATA BEGINS
time	group	step	mark	flag	A-AC1	A-AC2	A-AC3	A-AC4	A-AC5	A-AC6	A-AC7	A-AC8	A-AC9	A-AC10	A-AC11	A-AC12	A-AC13	A-AC14	A-AC15	A-AC16	A-DC1	A-DC2	A-DC3	A-DC4	A-DC5	A-DC6	A-DC7	A-DC8	A-DC9	A-DC10	A-DC11	A-DC12	A-DC13	A-DC14	A-DC15	A-DC16	A-Ph1	A-Ph2	A-Ph3	A-Ph4	A-Ph5	A-Ph6	A-Ph7	A-Ph8	A-Ph9	A-Ph10	A-Ph11	A-Ph12	A-Ph13	A-Ph14	A-Ph15	A-Ph16	B-AC1	B-AC2	B-AC3	B-AC4	B-AC5	B-AC6	B-AC7	B-AC8	B-AC9	B-AC10	B-AC11	B-AC12	B-AC13	B-AC14	B-AC15	B-AC16	B-DC1	B-DC2	B-DC3	B-DC4	B-DC5	B-DC6	B-DC7	B-DC8	B-DC9	B-DC10	B-DC11	B-DC12	B-DC13	B-DC14	B-DC15	B-DC16	B-Ph1	B-Ph2	B-Ph3	B-Ph4	B-Ph5	B-Ph6	B-Ph7	B-Ph8	B-Ph9	B-Ph10	B-Ph11	B-Ph12	B-Ph13	B-Ph14	B-Ph15	B-Ph16	aux-1	digaux	

7260.874	1	1	0	512	0.19351	0.049206	0.30815	0.076556	0.13669	0.17766	0.18525	0.12341	0.13871	0.041886	0.22284	0.17446	0.41804	0.17273	0.13884	0.1878	-3.0625	-2.7938	-3.3083	-3.3208	-2.9104	-3.2375	-3.1458	-3.0958	-3.5021	-2.7417	-3.5208	-3.3458	-3.0563	-3.5021	-3.0917	-3.3021	77.451	316.079	212.226	330.375	180.966	308.055	303.224	203.779	240.616	285.873	296.729	346.477	369.408	323.638	346.357	324.093	0.0012345	0.0014195	0.00065396	666.33	1.3367e-05	2.3918e-05	853.56	215.81	2.0214e-05	6.4456e-06	354.97	171.72	90.773	42.878	6.183e-06	96.277	0.0060256	0.0060454	0.0019951	976.99	6.7313e-05	6.5854e-05	1163.9	330.64	6.5145e-05	6.5793e-05	504.41	221.92	133.44	57.129	7.7274e-05	116.95	34.977	77.988	115.302	25.405	154.057	192.152	26.472	30.091	25.105	167.865	30.643	34.002	34.300	38.470	218.241	37.448	-8191	255	
7260.995	1	1	0	0	0.062605	0.26271	0.1082	0.15626	0.13466	0.12683	0.41298	0.13366	0.21174	0.060361	0.31611	0.13047	0.17467	0.29909	0.15853	0.3571	-2.9104	-2.8771	-3.3438	-3.2729	-2.9292	-3.25	-3.325	-3.3021	-3.2875	-2.8646	-3.3417	-3.325	-2.9562	-3.2812	-3.1354	-3.1708	289.360	105.294	65.956	320.721	31.168	161.819	359.572	202.872	53.332	167.886	316.360	311.807	100.771	326.447	333.031	285.845	0.0012956	0.0028698	0.00062279	662.53	8.768e-06	2.8678e-05	847.92	213.26	7.2041e-06	4.6157e-05	353.68	171.04	90.279	42.629	9.5575e-07	95.616	0.0057163	0.0061673	0.0019888	947.68	6.4272e-05	6.7865e-05	1160	321.7	6.3124e-05	6.9336e-05	502.19	218.41	131.74	58.011	7.77e-05	115.8	32.793	178.513	96.032	25.560	334.770	218.714	26.206	30.197	43.262	215.623	30.270	33.975	33.953	38.423	301.337	37.438	-8191	255	
7261.091	1	1	0	0	0.11785	0.13221	0.19305	0.28453	0.12377	0.15155	0.25364	0.18532	0.26914	0.25114	0.14733	0.16157	0.0067955	0.090934	0.083421	0.099406	-3.0229	-3.0417	-3.1146	-3.1292	-3.0375	-3.2292	-3.2104	-3.1688	-3.4792	-3.0625	-3.1396	-3.375	-3.1437	-3.4125	-3.175	-3.1896	72.537	49.565	352.315	23.258	319.321	115.516	46.481	267.415	371.763	138.744	174.046	329.691	126.470	39.231	280.172	334.641	0.0016127	0.0028601	0.00045682	662.6	1.1718e-05	2.1236e-05	844.76	213.42	1.2649e-05	4.9988e-05	351.01	169.88	90.874	43.077	1.7454e-05	95.11	0.0057122	0.0067331	0.0020141	948.16	6.5488e-05	7.5609e-05	1159.2	321.81	6.506e-05	7.736e-05	502.33	218.8	133.76	59.859	7.7768e-05	116.11	27.751	176.660	344.143	25.822	345.640	222.765	25.936	30.442	205.191	192.573	29.967	33.890	34.041	38.303	77.435	37.470	-8191	255	
7261.187	1	1	0	0	0.08495	0.18442	0.22609	0.079525	0.14199	0.050661	0.11486	0.34045	0.25723	0.16003	0.075593	0.24342	0.28372	0.16827	0.02523	0.20343	-2.8063	-2.8417	-3.2792	-3.3833	-2.9354	-3.1896	-3.4208	-2.9979	-3.3479	-3.1208	-3.0458	-3.5896	-3.1021	-3.3417	-3.1417	-3.1063	77.353	251.277	334.133	48.952	76.987	307.635	236.640	310.712	235.356	246.173	218.280	354.259	290.915	19.246	172.760	282.921	0.001928	0.0024651	0.00052516	658.57	3.2883e-05	1.4959e-05	847.34	213.99	4.4172e-05	7.7128e-06	350.34	169.96	90.555	42.883	4.7434e-05	96.318	0.0060139	0.0074126	0.0020031	950.29	6.8737e-05	8.1649e-05	1152.6	321.65	6.7987e-05	8.1075e-05	494.16	217.63	134.96	60.012	7.226e-05	115.39	45.556	128.997	311.619	25.773	223.624	199.540	25.825	30.693	166.995	253.563	29.725	34.135	34.602	38.554	49.981	37.409	-8191	255	
7261.283	1	1	0	0	0.22966	0.11205	0.097705	0.15662	0.11256	0.16677	0.24158	0.22382	0.087408	0.069239	0.29261	0.15319	0.097062	0.13958	0.12444	0.071743	-3.0875	-2.9229	-2.9271	-3.5292	-2.8187	-3.3896	-3.2729	-3.1562	-3.3063	-3.0958	-3.2938	-3.3583	-3.2458	-3.2021	-3.1896	-3.0042	282.964	19.077	305.590	348.346	261.608	245.859	328.976	319.036	225.632	337.463	304.793	202.688	369.812	325.092	57.907	356.916	0.0029073	0.00093772	0.00063269	657.38	3.9504e-05	1.9491e-05	850.52	214.42	4.3407e-05	3.2901e-06	354.24	172.15	91.183	43.342	1.1966e-05	96.467	0.0061147	0.0072976	0.0018547	932.12	7.1474e-05	8.084e-05	1136.4	320.08	7.3001e-05	8.1259e-05	494.37	218.58	140.36	60.532	7.1115e-05	115.97	47.309	41.694	348.709	25.933	199.403	86.529	25.860	30.782	169.637	26.195	29.962	34.153	34.699	37.993	224.729	37.604	-8191	255	
7261.404	1	1	0	0	0.1347	0.11645	0.065611	0.23899	0.11207	0.090123	0.23624	0.208	0.1911	0.18012	0.2366	0.14002	0.27026	0.038029	0.16243	0.22914	-2.7062	-3.0583	-2.8833	-3.3854	-2.9313	-3.0896	-3.5292	-2.7333	-3.4208	-3.1479	-3.0521	-3.3812	-2.8583	-3.1312	-3.2271	-2.9062	93.567	284.036	232.977	148.057	199.444	216.502	288.833	68.171	24.546	78.005	30.218	267.646	365.948	322.324	48.463	321.340	0.0032156	0.0017881	0.00045368	666.15	2.5253e-05	2.6479e-05	846.49	215.65	4.3652e-05	3.1132e-05	352.59	172.16	91.807	43.375	4.1804e-06	96.195	0.0066535	0.0072151	0.0018243	936.24	7.6593e-05	7.8457e-05	1130.5	320.91	7.7309e-05	7.7818e-05	490.49	219.3	143.38	59.61	6.9225e-05	115.85	40.293	336.923	315.678	26.068	209.142	58.639	25.828	30.520	200.891	66.691	30.170	34.049	34.171	37.790	325.302	37.569	-8191	255	
7261.476	1	1	0	0	0.13088	0.15985	0.25955	0.1766	0.14009	0.21839	0.14834	0.32448	0.087493	0.18885	0.20881	0.23255	0.25464	0.11692	0.10742	0.27255	-2.7458	-3.2021	-2.7479	-3.525	-3.1104	-3.2417	-3.2354	-2.7687	-3.3875	-3.2542	-3.0167	-3.5292	-3.1125	-3.2625	-3.4208	-3.0438	104.644	109.477	304.979	311.772	122.691	275.796	281.017	316.252	246.749	348.408	29.761	257.634	343.981	287.593	308.363	329.301	0.0023319	0.0027155	0.00030405	661.52	1.8206e-05	2.4062e-05	851.81	216.51	2.4614e-05	1.576e-05	355.28	172.82	92.55	43.514	3.689e-06	97.102	0.0069337	0.0068168	0.0017551	940.17	7.8747e-05	7.3545e-05	1117.7	323.69	7.883e-05	7.3102e-05	485.97	221.5	144.48	58.999	6.7057e-05	117.99	44.103	44.099	356.038	26.269	168.408	60.201	26.011	31.062	175.359	54.741	30.284	34.386	34.154	37.953	238.532	37.641	-8191	255	
7261.572	1	1	0	0	0.24987	0.13609	0.15371	0.074903	0.18196	0.13089	0.046039	0.21757	0.192	0.10696	0.13458	0.1515	0.15563	0.038696	0.24977	0.29121	-2.8521	-3.1958	-3	-3.3729	-3.0271	-3.1042	-3.2542	-2.9833	-3.1521	-3.4062	-2.9354	-3.425	-3.3625	-3.1688	-3.3833	-3.15	210.844	30.915	61.750	72.326	84.971	86.678	140.255	44.341	285.172	24.784	306.946	352.315	372.734	236.354	136.811	348.258	0.001205	0.0012704	0.00032615	666.32	1.6682e-05	1.7618e-05	848.42	217.01	2.4809e-05	9.0149e-06	356.21	173.86	93.041	44.105	2.5256e-05	98.004	0.0069513	0.0064661	0.0017102	955.82	7.771e-05	6.9969e-05	1109.5	331	7.6894e-05	7.0115e-05	484.2	226.88	144.16	59.154	6.6808e-05	120.96	15.950	352.229	244.160	26.004	89.806	114.462	25.944	31.279	19.734	28.901	30.107	34.433	34.070	38.136	185.994	37.671	-8191	255	
7261.668	1	1	0	131072	0.051777	0.15028	0.13386	0.26487	0.21988	0.07173	0.24158	0.26333	0.17858	0.064346	0.36411	0.049577	0.064298	0.26535	0.073146	0.14809	-2.6562	-3.3125	-2.8	-3.3563	-3.2146	-2.8479	-3.525	-3.1167	-3.2104	-3.2292	-3.0646	-3.45	-3.2833	-3.1667	-3.3854	-3.0187	104.284	329.852	65.289	207.532	153.854	271.541	327.373	40.521	143.834	52.808	273.506	31.712	89.005	321.680	25.003	313.950	0.00098242	0.0013719	0.00019187	670.7	9.746e-06	1.3621e-05	850.31	220.15	3.9558e-05	1.0357e-05	359.85	175.45	93.205	44.216	2.8825e-05	98.48	0.0068616	0.0064408	0.001738	991.21	7.7161e-05	7.07e-05	1123.8	344.31	7.6059e-05	7.023e-05	492.34	232.13	143.39	59.081	6.8962e-05	122.36	68.351	327.717	136.580	26.095	183.098	41.024	26.374	31.058	348.542	49.547	30.152	34.024	33.804	37.811	241.222	37.537	-8191	255	
7261.787	1	1	0	131072	0.026678	0.13689	0.18215	0.048	0.086165	0.30071	0.35608	0.24621	0.06286	0.045332	0.15604	0.25528	0.28184	0.2776	0.10598	0.2281	-2.5187	-3.1792	-2.8021	-3.1937	-3.2271	-2.85	-3.3792	-3.0604	-3.0438	-3.2438	-3.0708	-3.3354	-3.1583	-3.1104	-3.1875	-3.3563	102.124	89.373	282.289	355.847	292.393	126.644	283.935	102.075	224.620	277.218	334.531	289.801	341.581	359.612	221.902	352.175	0.00056248	0.0023753	0.00064481	671.75	1.2035e-05	6.9801e-06	856.26	220.25	2.3196e-05	1.533e-05	359.86	176.06	93.402	44.429	6.1916e-05	98.922	0.0065347	0.0062715	0.0017889	1001.6	7.2745e-05	6.8066e-05	1134.5	346.73	7.1763e-05	6.7992e-05	500.04	233.44	141.04	58.816	7.2819e-05	122.45	57.199	294.927	138.711	25.917	114.698	246.791	26.187	30.239	333.411	34.101	30.241	33.955	33.657	38.020	211.408	37.335	-8191	255	
7261.883	1	1	0	131072	0.069713	0.17082	0.070535	0.15822	0.1685	0.090852	0.11043	0.15568	0.19654	0.21617	0.42076	0.073874	0.21046	0.2025	0.10404	0.19943	-2.375	-3.25	-2.9938	-3.4667	-3.2229	-3.0917	-3.3021	-3.3583	-2.9729	-3.3417	-2.9833	-3.3458	-3.2292	-3.0042	-3.4458	-3.3021	55.742	100.021	241.441	352.179	365.321	178.781	29.843	307.605	149.180	302.055	347.292	353.594	14.696	308.273	262.253	54.650	0.0012721	0.00088879	0.0010888	663.59	1.9706e-05	1.157e-05	855.36	219.58	1.8373e-05	2.166e-05	361.02	176.63	94.238	44.788	3.9927e-05	99.493	0.0062393	0.00608	0.0019059	991.04	6.9577e-05	6.6179e-05	1151.4	342.47	6.8974e-05	6.628e-05	507.86	231.7	139.52	58.984	7.7146e-05	122.13	39.250	136.016	149.837	25.797	90.245	112.959	26.433	30.286	115.803	123.127	30.799	33.707	33.836	38.177	201.122	37.427	-8191	255	
7261.979	1	1	0	131072	0.17574	0.11434	0.18903	0.059686	0.11051	0.23151	0.11953	0.05056	0.18947	0.24049	0.10932	0.33161	0.35518	0.17489	0.04904	0.13314	-2.5708	-3.1271	-2.9729	-3.4	-3.1021	-2.8521	-3.4021	-3.2833	-3.0563	-3.3375	-3.0833	-3.0667	-3.2667	-2.9271	-3.3438	-3.3292	308.101	37.192	292.380	21.515	40.983	197.851	298.209	26.009	331.198	28.343	180.386	368.849	366.636	303.926	283.030	304.612	0.0016681	0.00060403	0.00082299	662.18	3.2835e-05	1.7058e-05	851.86	221.34	1.6477e-05	2.7232e-05	365.73	178.92	95.804	45.51	2.2916e-05	100.12	0.0061157	0.0060996	0.0020337	980.51	6.918e-05	6.85e-05	1181.3	341.99	6.9767e-05	7.0036e-05	527.11	233.56	142.42	60.996	8.4712e-05	123.1	34.504	364.975	157.861	25.924	76.849	154.400	26.355	30.303	98.303	173.542	30.309	34.056	34.107	38.305	225.930	37.188	-8191	255	
7262.075	1	1	0	131072	0.26769	0.15665	0.064831	0.36477	0.1494	0.27963	0.18976	0.035832	0.15024	0.093713	0.19835	0.47192	0.077379	0.20057	0.1843	0.096864	-2.7208	-3.225	-2.8875	-2.9917	-2.9396	-2.9875	-3.3604	-3.0479	-3.0146	-3.2042	-3.1771	-3.1646	-3.1854	-3	-3.2917	-3.2771	143.339	311.914	188.983	354.969	74.536	17.547	361.439	353.510	140.474	12.930	338.815	296.672	314.742	295.485	175.800	38.716	0.0016554	0.0028072	0.0001671	668.02	7.5748e-06	4.0932e-05	850.49	223.51	2.5826e-05	3.0197e-05	364.8	178.82	95.849	45.74	1.3239e-05	100.14	0.0062878	0.0066959	0.0022049	983.27	7.0598e-05	7.5181e-05	1199.7	341.59	7.0735e-05	7.6904e-05	532.52	233.06	142.42	62.606	8.5957e-05	122.85	37.339	121.436	229.519	25.537	154.479	229.719	26.183	30.625	43.071	172.457	29.950	33.864	34.046	38.058	62.281	37.278	-8191	255	
7262.171	1	1	0	131072	0.11275	0.20758	0.035692	0.29218	0.16567	0.19913	0.095248	0.13012	0.12067	0.37841	0.2396	0.13617	0.3219	0.1562	0.29313	0.25803	-2.4771	-3.1437	-3.0062	-3.1479	-3.2271	-2.8333	-3.2062	-3.4854	-2.7417	-3.3458	-3.2396	-3.0458	-3.3167	-3.1083	-3.1688	-3.4896	174.209	55.659	66.032	341.241	280.830	76.618	339.206	288.699	99.884	326.748	324.061	152.051	340.251	71.033	289.624	324.302	0.0014732	0.004125	0.00033411	673.58	7.7823e-06	4.7799e-05	854.03	222.52	1.1366e-05	4.1931e-05	365.79	179.3	96.305	45.818	3.4843e-05	99.954	0.0063131	0.007351	0.0022244	986.78	7.1344e-05	8.2733e-05	1202.8	342.03	7.116e-05	8.375e-05	529.57	232.62	142.97	64.092	8.2972e-05	122.41	55.028	139.578	323.092	25.941	312.636	218.483	25.999	30.566	273.442	204.215	30.188	33.840	33.810	37.931	21.603	37.110	-8191	255	
7262.267	1	1	0	131072	0.1539	0.026301	0.11063	0.32034	0.15209	0.16122	0.29792	0.18669	0.16558	0.05468	0.056504	0.38646	0.35659	0.17693	0.077828	0.068344	-2.5833	-3.2271	-3.0583	-3.0917	-3.3833	-2.8479	-3.1833	-3.4083	-2.9396	-3.1813	-3.1333	-3.1479	-3.4458	-3.0687	-3.0396	-3.6146	166.635	351.233	177.367	323.589	111.527	262.653	270.554	241.171	20.697	284.500	136.812	15.203	368.290	32.649	258.052	124.344	0.0018774	0.0029812	0.00034166	669.34	3.8345e-05	1.0023e-05	857.34	223.04	3.279e-05	5.06e-06	364.91	179.5	98.012	46.222	1.658e-05	101.11	0.0063644	0.0077952	0.0021352	978.47	7.2673e-05	8.7083e-05	1185.9	339.76	7.3103e-05	8.742e-05	524.01	232.79	146.44	65.232	7.9499e-05	122.57	50.102	115.526	354.245	25.621	209.660	197.687	25.763	30.379	200.700	237.204	30.189	34.010	34.225	37.934	90.022	37.180	-8191	255	
7262.388	1	1	0	131072	0.11836	0.19415	0.13487	0.14335	0.13242	0.050076	0.35398	0.26368	0.13716	0.061332	0.17574	0.082331	0.14393	0.18189	0.1076	0.117	-2.2333	-3.0417	-3.2146	-2.9271	-3.1646	-3.2833	-3.0687	-3.2438	-2.8792	-3.3604	-3.2438	-3.1354	-3.3563	-3.2104	-2.8917	-3.3708	329.870	199.980	166.153	363.565	335.045	272.167	299.286	367.270	291.066	365.135	287.355	324.930	213.090	318.818	36.486	341.197	0.0033695	0.0010312	0.00070469	670.78	4.2668e-05	1.7983e-05	855.48	223.38	3.0418e-05	3.4186e-06	366.83	181.07	97.864	46.185	6.4058e-06	100.94	0.0066922	0.0079452	0.0020113	966.07	7.5093e-05	8.5461e-05	1160	333.28	7.537e-05	8.407e-05	511.72	230.25	148.03	64.388	7.4955e-05	121.55	40.869	146.399	57.987	25.653	246.605	75.375	26.099	30.344	180.490	143.867	29.924	34.061	34.428	37.799	191.997	37.198	-8191	255	
7262.484	1	1	0	131072	0.1381	0.3226	0.25703	0.12028	0.44282	0.19581	0.30378	0.14967	0.13748	0.23998	0.10135	0.25713	0.22805	0.29268	0.068713	0.46975	-2.4208	-3.1542	-2.9979	-2.9708	-3.1	-3.0729	-3.0521	-3.2604	-3.0792	-3.2167	-3.1771	-3.0417	-3.425	-3.1146	-2.9188	-3.55	345.279	154.943	89.173	282.458	40.301	176.779	45.764	328.722	262.210	188.302	223.412	371.491	294.353	328.404	167.765	305.165	0.0032012	0.0016837	0.00018738	664.18	4.1497e-05	1.0018e-05	851.71	223.07	1.8795e-05	3.1611e-05	364.09	180.67	96.684	45.775	2.4018e-05	100.52	0.0069778	0.0075889	0.0019114	952.14	7.8855e-05	8.0845e-05	1141.3	328.39	7.8204e-05	7.8732e-05	500.54	227.65	148.36	62.593	6.9969e-05	120.59	50.265	315.724	68.677	25.663	185.674	58.820	26.017	30.851	142.403	25.868	30.083	34.181	34.224	37.974	26.291	37.414	-8191	255	
7262.580	1	1	0	131072	0.038942	0.094714	0.38838	0.23841	0.13423	0.16481	0.10656	0.045459	0.33391	0.069399	0.12817	0.093332	0.25843	0.043316	0.1624	0.27821	-2.3438	-3.1271	-3.0542	-2.8833	-3.1583	-2.9958	-3.0583	-3.0479	-2.7479	-3.1437	-3.0875	-2.9208	-3.2229	-3.25	-2.8312	-3.45	13.742	249.855	340.682	315.384	29.917	102.575	281.383	207.119	36.180	186.497	337.558	295.713	350.875	275.113	93.814	340.344	0.0021324	0.0018485	8.0247e-05	664.44	2.3497e-05	2.8465e-05	850.01	220.9	2.1579e-05	1.3437e-05	361.73	179.51	96.362	45.63	8.1704e-06	101.07	0.0070766	0.0069761	0.0017991	946.49	8.061e-05	7.5796e-05	1127.2	330.03	8.0977e-05	7.4892e-05	495.54	229.61	149.63	61.84	6.913e-05	122.54	39.093	45.273	333.677	26.160	205.130	51.803	26.262	30.506	220.137	47.375	30.032	33.851	33.912	37.774	345.565	37.506	-8191	255	
7262.677	1	1	0	131072	0.15326	0.19742	0.16988	0.21361	0.14247	0.13659	0.046613	0.12078	0.11519	0.034759	0.16503	0.46407	0.17084	0.16622	0.20198	0.097153	-2.6958	-2.9188	-3.0458	-3.0104	-3.3937	-3.1792	-2.9021	-3.3604	-3.0167	-3.0146	-3.4896	-3.0563	-3.0375	-3.1896	-2.9021	-3.2687	35.679	25.529	317.248	300.340	80.111	78.986	246.388	60.271	307.176	209.504	322.425	317.492	330.736	347.621	97.827	14.947	0.0013906	0.0039913	0.00035477	667.42	1.7921e-05	1.8001e-05	850.84	221.57	2.5115e-05	1.0336e-05	364.73	182.09	96.529	46.151	1.0233e-05	101.16	0.0072908	0.0068081	0.0018052	977.11	8.2805e-05	7.4524e-05	1131.7	342.91	8.2643e-05	7.4919e-05	500.91	237.36	151.77	62.446	7.0856e-05	125.66	44.563	17.150	323.766	26.326	343.520	64.747	26.141	31.072	330.771	360.826	29.939	34.229	34.055	37.534	116.375	37.379	-8191	255	
7262.771	1	1	0	131072	0.16177	0.15017	0.071004	0.063904	0.068047	0.10067	0.19293	0.25294	0.14372	0.066194	0.3744	0.13981	0.092067	0.15902	0.20643	0.3556	-2.6937	-2.9938	-3.3375	-2.9271	-3.0458	-3.0625	-3.1083	-3.1708	-3.1771	-3.0875	-3.3229	-3.0875	-2.9708	-3.2271	-2.975	-3.4896	364.341	54.452	342.926	264.353	238.404	87.607	293.867	296.866	263.531	164.161	13.478	370.648	354.263	128.628	286.091	366.051	0.001183	0.0010393	0.00023365	670.84	1.9461e-05	3.0769e-05	852.15	224.91	2.361e-05	1.0411e-05	367.57	182.08	96.898	46.142	5.0424e-05	100.81	0.0072789	0.006814	0.0018334	1009	8.1481e-05	7.4719e-05	1139.9	355.3	8.015e-05	7.3294e-05	503.16	240.18	148.65	61.614	7.0621e-05	125.94	32.324	360.607	127.669	26.008	43.894	107.857	26.139	30.865	28.849	115.093	30.174	34.095	33.845	37.651	186.925	37.591	-8191	255	
7262.867	1	1	0	131072	0.16191	0.23598	0.15472	0.29269	0.21696	0.15095	0.07878	0.21438	0.12706	0.06734	0.17543	0.33348	0.10729	0.025864	0.043523	0.32998	-2.675	-2.8667	-3.3083	-3.0604	-2.8875	-3.1604	-2.8667	-3.2188	-3.1917	-2.7917	-3.3854	-3.0687	-3.1354	-3.5896	-2.8667	-3.3125	194.735	335.856	119.068	340.688	37.001	308.183	34.718	220.927	213.663	158.401	138.284	301.813	365.085	335.148	162.740	363.962	0.0011287	0.001317	0.00071618	667.32	2.4622e-05	1.4902e-05	849.63	223.17	2.4592e-05	7.6659e-06	366	182.58	96.98	46.372	4.4712e-05	100.68	0.006758	0.0064234	0.0018205	1006.5	7.4441e-05	6.9638e-05	1137.4	352.32	7.3954e-05	7.0051e-05	508.36	241.34	146.22	61.526	7.6257e-05	126.56	41.232	362.740	179.629	25.793	49.846	27.612	26.286	30.659	332.794	15.479	30.500	34.035	33.582	37.739	216.146	37.203	-8191	255	
7262.963	1	1	0	131072	0.17693	0.26698	0.14237	0.16533	0.17656	0.026972	0.064847	0.18682	0.11708	0.098066	0.22264	0.10463	0.095641	0.19039	0.12493	0.2522	-2.5812	-2.7396	-3.2104	-2.9729	-2.8771	-3.4875	-3.0479	-3.3583	-3.2521	-2.9833	-3.2938	-3.15	-2.9333	-3.2604	-2.8583	-3.2	338.440	272.189	345.735	293.553	34.098	318.861	345.175	296.399	223.620	358.712	329.704	271.392	200.689	332.657	57.440	50.582	0.0018673	0.0005556	0.00072134	672.74	6.8957e-06	1.0765e-05	852.51	225.19	1.0074e-05	1.0981e-05	367.42	182.07	97.651	46.212	4.9933e-05	101.02	0.0066514	0.0064669	0.0020026	1019.4	7.4034e-05	7.0561e-05	1173.5	356.19	7.3727e-05	7.0581e-05	523.45	240.33	145.55	61.405	8.2104e-05	125.58	49.114	124.287	169.403	25.909	124.608	268.286	26.301	30.043	273.244	67.378	30.258	33.700	33.610	37.794	201.020	37.164	-8191	255	
7263.059	1	1	0	131072	0.24574	0.10596	0.055176	0.45515	0.14463	0.20155	0.16018	0.18118	0.093226	0.15671	0.099948	0.28311	0.35627	0.19115	0.1134	0.29322	-2.9854	-2.8542	-2.9854	-3.0563	-2.9583	-3.2479	-3.15	-3.0229	-3.0312	-2.9646	-3.3063	-3.3292	-3.1021	-3.6271	-2.9958	-3.1937	167.767	137.501	300.570	341.528	277.717	245.350	248.359	352.866	49.993	206.950	81.128	302.089	290.696	17.316	220.794	312.010	0.0016762	0.00064041	0.00068628	663.98	1.5068e-05	1.4543e-05	850.08	224.76	1.4272e-05	3.2103e-05	369.13	181.96	97.281	46.494	1.6344e-05	100.94	0.0065	0.0064249	0.0021298	1000.7	7.1838e-05	7.0155e-05	1186.8	347.09	7.068e-05	7.0611e-05	530.86	237.04	144.01	61.933	8.494e-05	124.48	25.993	92.159	119.140	25.584	84.217	240.395	26.276	29.997	340.073	197.569	30.751	33.951	34.373	38.054	193.929	37.514	-8191	255	
7263.180	1	1	0	131072	0.039146	0.15927	0.17899	0.063004	0.11631	0.11343	0.20192	0.068651	0.26885	0.16481	0.1509	0.24164	0.14733	0.23851	0.15789	0.33975	-3.0938	-3.0146	-2.9958	-3.2271	-3.0833	-3.2479	-3.2625	-3.3458	-3.2583	-2.9604	-3.4104	-3.2958	-3.0042	-3.3958	-3.1708	-3.3375	64.227	177.555	115.529	183.493	215.167	50.845	308.242	75.532	259.452	49.204	299.012	292.383	77.012	15.424	204.467	332.632	0.0017169	0.0022834	0.00013743	669.32	1.7643e-05	3.7696e-05	856.74	225.55	7.8044e-06	2.6215e-05	368.89	181.55	97.028	46.313	1.2752e-05	100.75	0.0063386	0.0066912	0.0021948	988.65	7.0604e-05	7.4072e-05	1201.4	344.17	6.9819e-05	7.5788e-05	533.68	234.95	143.12	62.822	8.5029e-05	123.15	30.810	117.869	38.332	25.445	19.726	207.348	26.097	30.817	40.970	217.477	30.040	33.728	33.622	38.101	145.594	37.278	-8191	255	
7263.276	1	1	0	131072	0.12641	0.20866	0.23598	0.20529	0.10429	0.24424	0.079751	0.10896	0.21505	0.076299	0.29453	0.3118	0.13941	0.17957	0.11003	0.3015	-2.8208	-2.8292	-3.2021	-3.1792	-2.9625	-3.1333	-3.275	-3.2292	-3.3792	-2.9813	-3.3167	-3.2771	-2.8812	-3.3521	-3.1396	-3.2208	96.008	162.070	23.944	27.098	272.160	369.133	246.059	339.098	316.806	172.684	370.448	12.797	312.235	48.406	104.833	272.174	0.0017404	0.0050127	0.00026672	666.6	1.1512e-05	3.2124e-05	856.67	225.56	2.3379e-05	2.44e-05	370.64	182.34	98.254	46.562	1.6246e-05	100.81	0.006211	0.0071969	0.0021757	978.37	6.992e-05	8.015e-05	1196.4	342.96	7.0227e-05	8.3162e-05	534.51	235.68	145.35	64.929	8.529e-05	123.53	43.130	149.297	102.824	25.928	152.026	193.153	26.039	30.261	95.348	215.097	29.839	33.583	34.407	37.905	22.048	37.160	-8191	255	
7263.348	1	1	0	131072	0.35032	0.19653	0.11191	0.29182	0.17881	0.091043	0.35492	0.26688	0.26126	0.25903	0.21298	0.075102	0.013624	0.21793	0.066292	0.26963	-2.9854	-2.9125	-3.0042	-3.325	-2.8229	-3.225	-3.2938	-3.0479	-3.3625	-2.7875	-3.2479	-3.3792	-3.1021	-3.4167	-3.2125	-3.175	304.932	297.462	275.695	370.254	329.009	361.100	352.151	308.284	321.132	350.191	328.598	315.689	46.147	364.606	100.560	17.580	0.0022471	0.0021709	0.00081932	668.69	2.2356e-05	3.5669e-05	856.86	225.59	3.8531e-05	1.6695e-05	369.6	181.89	99.033	46.638	1.2964e-05	100.73	0.0064979	0.0079726	0.0021773	985.48	7.4068e-05	8.8113e-05	1196.7	344.68	7.4553e-05	8.974e-05	530.9	235.63	148.4	66.021	8.3088e-05	123.5	62.170	132.664	52.699	25.728	246.220	221.875	26.071	30.698	196.469	198.092	29.867	33.779	34.079	37.847	34.972	37.106	-8191	255	
7263.468	1	1	0	131072	0.082372	0.17866	0.18533	0.12603	0.23328	0.13975	0.12671	0.21881	0.13155	0.11228	0.27349	0.2314	0.12786	0.13177	0.098707	0.34538	-2.7687	-3.1354	-2.9833	-3.6229	-2.9396	-2.9875	-3.3479	-2.9542	-3.3208	-3.2146	-3.1229	-3.5229	-2.9979	-3.2875	-2.9167	-3.1042	221.587	329.230	225.000	227.162	34.669	32.098	364.198	364.133	310.710	76.220	346.707	301.388	223.218	318.435	117.035	356.434	0.0027017	0.0007374	0.00056146	674.13	4.202e-05	4.1006e-06	856.98	226.15	4.5136e-05	1.0743e-06	368.96	181.68	98.42	46.856	3.5071e-05	101.15	0.0069384	0.0083634	0.0021078	986.19	7.9169e-05	9.0439e-05	1184.1	343.07	7.9777e-05	8.9884e-05	524.16	234.55	152.11	65.817	7.9796e-05	123.16	51.661	153.345	342.705	25.519	209.695	209.581	26.164	30.452	161.848	119.943	30.057	33.803	34.354	37.600	178.013	37.285	-8191	255	
7263.565	1	1	0	0	0.2201	0.24106	0.16399	0.20088	0.14108	0.34907	0.37311	0.07209	0.36194	0.048764	0.4309	0.14013	0.31693	0.30347	0.21501	0.26802	-2.9813	-3.0708	-3.0042	-3.2458	-2.9604	-3.1271	-3.6125	-2.9437	-3.2208	-3.1396	-3.0167	-3.4833	-3.1146	-3.1354	-3.1937	-3.1917	135.776	353.532	325.823	311.569	263.202	87.600	309.713	48.594	202.766	33.047	274.770	105.606	334.167	364.322	142.732	353.645	0.0032706	0.00036973	0.00042615	671.8	5.0827e-05	2.0389e-05	858.26	228.36	5.4575e-05	3.1932e-05	318.19	155.92	84.541	39.312	1.7357e-05	85.87	0.0073627	0.0081334	0.0020341	978.72	8.478e-05	8.7941e-05	1178.2	345.09	8.5978e-05	7.9919e-05	457.31	204.59	136.19	56.419	6.9187e-05	106.81	46.807	371.883	332.527	25.719	196.509	34.939	26.171	30.463	189.837	49.490	32.241	35.254	35.828	38.661	93.787	38.335	-8191	255	
7263.661	1	1	0	0	0.36725	0.25719	0.16464	0.15316	0.15757	0.17128	0.14372	0.03634	0.12469	0.04228	0.27677	0.10772	0.26779	0.28018	0.022179	0.1523	-2.8146	-3.0792	-2.9938	-3.2083	-3.0771	-3.1708	-3.1146	-3.0146	-3.2687	-3.0604	-3.1083	-3.3	-3.0667	-3.1125	-3.2875	-3.0833	72.660	332.568	64.680	363.115	371.972	155.851	112.818	345.317	63.712	100.630	353.230	37.191	369.510	363.725	149.303	291.414	0.0023015	0.0023161	0.00029849	573.96	1.6313e-05	5.6931e-06	733.53	193.05	1.6291e-05	1.4411e-05	313.83	154.57	83.803	39.18	1.545e-05	85.604	0.0068265	0.0068071	0.0017368	856.94	7.7529e-05	7.2956e-05	1014.4	301.93	7.831e-05	7.3815e-05	450.55	206.47	138.34	55.791	6.9225e-05	108.19	62.798	341.503	85.881	27.126	188.217	325.499	27.069	32.040	241.730	45.620	31.212	35.196	35.057	38.813	249.754	38.633	-8191	255	
7263.757	1	1	0	0	0.10705	0.17425	0.1914	0.042689	0.042821	0.23969	0.23008	0.19594	0.2083	0.12658	0.157	0.20073	0.34546	0.25118	0.11813	0.066152	-2.9875	-2.9854	-3.0271	-3.3208	-3.0438	-2.9792	-3.4292	-2.9042	-3.3479	-3.2458	-3.0875	-3.3396	-3.3063	-3.1292	-3.3375	-3.1708	58.037	273.779	18.409	180.248	122.983	63.464	359.610	151.199	152.278	246.312	300.479	18.599	37.062	289.541	162.608	345.041	0.0017093	0.00043132	0.00013497	574.97	2.0334e-05	1.5519e-05	732.34	194.01	1.5268e-05	3.9027e-06	313.72	155.11	83.729	39.202	5.1997e-06	85.408	0.0071176	0.0067229	0.0017542	885.42	8.0692e-05	7.2248e-05	1015.6	313.11	7.8904e-05	7.1622e-05	448.47	209.74	136.89	54.97	6.7172e-05	109.33	47.121	282.747	279.646	27.411	87.963	37.660	27.277	31.964	39.926	72.831	31.319	35.323	34.862	38.689	192.166	38.450	-8191	255	
7263.876	1	1	0	0	0.17721	0.095244	0.12488	0.024123	0.13567	0.15415	0.12996	0.15848	0.099452	0.10437	0.30523	0.22844	0.17848	0.080366	0.23025	0.36097	-2.9792	-3.2083	-2.7917	-3.5125	-3.0542	-3.0062	-3.4521	-2.8854	-3.125	-3.4896	-2.9146	-3.3875	-3.0833	-2.9813	-3.475	-3.1708	290.113	220.194	120.397	141.650	40.107	118.141	231.758	262.523	105.703	100.423	286.179	331.854	56.302	372.677	360.545	306.582	0.0012874	0.00055366	0.00021209	572.84	3.4685e-05	1.2373e-05	732.23	193.34	9.9466e-06	2.9489e-06	314.36	154.99	83.143	38.898	2.4171e-05	85.472	0.0068342	0.0064853	0.0017156	903.55	7.7459e-05	7.0233e-05	1012.5	320.29	7.5483e-05	6.9944e-05	449.38	213.1	134.4	54.535	6.8131e-05	110.67	52.405	56.380	122.515	27.398	28.908	109.875	27.469	32.011	319.665	352.100	31.301	34.980	34.527	39.050	196.494	38.576	-8191	255	
7263.972	1	1	0	0	0.12061	0.21082	0.041703	0.22369	0.070065	0.3289	0.059234	0.15795	0.15321	0.038359	0.10437	0.21856	0.15257	0.23584	0.33349	0.17776	-2.6792	-3.3625	-2.7687	-3.375	-3.2021	-2.8833	-3.6688	-3.1021	-2.9938	-3.4896	-2.9938	-3.3625	-3.0542	-2.9333	-3.4792	-3.2708	278.067	153.359	253.326	302.930	56.974	326.195	309.626	346.051	49.706	226.784	165.517	294.675	120.974	290.411	32.444	335.654	0.00043157	0.0011674	0.00077536	572.23	2.9942e-05	8.58e-06	731.74	191.96	1.0229e-05	1.52e-05	311.06	153.47	82.46	38.63	3.7415e-05	84.904	0.0065203	0.0063036	0.0017695	913.05	7.3177e-05	6.7627e-05	1019.5	322.11	7.2116e-05	6.8564e-05	455.59	214.04	132.14	54.106	7.3765e-05	110.98	368.438	18.631	169.532	27.221	59.361	357.505	27.387	31.774	25.538	37.457	31.601	34.856	34.621	38.861	203.128	38.147	-8191	255	
7264.068	1	1	0	0	0.35152	0.2053	0.10437	0.15691	0.08635	0.23235	0.20067	0.22543	0.079507	0.25815	0.055928	0.44317	0.12308	0.14601	0.1327	0.097381	-2.4229	-3.2938	-3.0979	-3.2896	-3.1417	-3.0021	-3.5458	-3.1688	-3.1667	-3.4313	-2.8646	-3.0792	-3.2375	-3.0521	-3.2333	-3.0667	240.540	349.291	264.315	312.780	120.060	139.319	59.818	268.383	21.579	219.308	68.127	330.544	131.065	256.530	185.105	109.869	0.00088809	0.00062683	0.00083041	574.52	1.6011e-05	1.052e-05	731.58	193.15	3.3445e-06	8.7204e-06	311.63	153.32	82.417	38.724	4.6333e-05	84.901	0.0064404	0.006343	0.0019502	925.72	7.333e-05	6.9351e-05	1053.4	326.38	7.227e-05	6.9522e-05	470.89	213.5	131.55	54.062	7.9603e-05	110.07	52.700	142.564	145.744	26.820	58.719	235.751	27.625	30.957	341.205	108.932	31.545	34.558	35.087	38.713	180.796	38.284	-8191	255	
7264.164	1	1	0	0	0.10972	0.16882	0.1221	0.20392	0.071966	0.095491	0.01436	0.13773	0.15046	0.12133	0.0421	0.36388	0.26038	0.23966	0.08117	0.13729	-2.3896	-3.4021	-2.9354	-2.9458	-3.1458	-2.8625	-3.3771	-3.0625	-2.8375	-3.4354	-2.9729	-3.2687	-3.3646	-3.1479	-3.2396	-3.1917	140.537	257.881	349.808	89.258	167.069	35.218	205.002	353.349	362.437	232.576	51.293	338.761	356.666	301.476	291.901	250.576	0.0011923	0.00082888	0.00025723	571.12	1.2515e-05	2.5098e-05	732.62	194.49	1.3501e-05	2.4133e-05	316.24	154.41	83.577	39.19	2.6626e-05	85.497	0.0062874	0.0063078	0.0020824	911.08	7.1981e-05	6.9709e-05	1075.8	322.2	7.0899e-05	7.1155e-05	484.84	213.28	132.47	55.498	8.5634e-05	110.58	37.420	205.711	196.409	27.030	74.250	241.304	27.590	31.375	73.650	150.802	31.176	34.815	34.817	38.605	187.634	38.242	-8191	255	
7264.260	1	1	0	0	0.10155	0.080847	0.21053	0.13502	0.17547	0.2428	0.13085	0.055475	0.15444	0.14118	0.32652	0.29593	0.12239	0.10781	0.34717	0.10687	-2.4667	-3.3479	-3.0479	-3.2562	-3.2708	-3.1229	-3.4542	-3.35	-2.875	-3.3771	-3.225	-3.1958	-3.3604	-3.1854	-3.1833	-3.1333	304.329	60.932	22.236	310.649	307.948	343.375	227.841	371.987	182.777	22.514	320.044	365.368	71.137	51.108	29.104	82.529	0.0010396	0.0026201	0.00058833	572.3	2.7353e-05	2.4935e-05	738.65	193.95	2.3979e-05	3.1019e-05	315.42	154.75	83.395	39.501	1.5673e-05	85.849	0.0063586	0.0067804	0.0022292	907.37	7.218e-05	7.4924e-05	1095.9	319.97	7.068e-05	7.6495e-05	489.94	211.88	131.84	56.803	8.6144e-05	110.15	39.721	169.504	180.457	26.784	107.845	246.335	27.107	31.518	78.825	203.961	31.191	34.521	34.781	39.022	49.296	38.018	-8191	255	
7264.357	1	1	0	0	0.11087	0.11051	0.32715	0.15361	0.11395	0.32762	0.032608	0.13056	0.091395	0.10611	0.33515	0.30357	0.14887	0.21503	0.068791	0.30674	-2.3771	-3.3396	-3.0438	-2.9708	-3.15	-3.05	-3.2979	-3.3312	-2.7396	-3.2292	-3.1792	-3.1896	-3.3063	-2.9437	-3.0354	-3.3958	174.998	290.506	330.419	340.411	309.741	316.158	70.900	199.335	284.727	355.044	230.992	343.860	329.742	332.370	149.973	311.074	0.0015919	0.0028777	0.00040962	574.56	5.9444e-07	3.7467e-05	736.92	195.89	6.2852e-06	3.9645e-05	315.7	154.82	83.849	39.541	2.3105e-05	85.867	0.0062529	0.0072785	0.0022161	898.63	7.1258e-05	8.1137e-05	1090.3	318	7.0248e-05	8.2437e-05	486.81	210.77	131.84	58.091	8.2045e-05	109.04	37.486	183.949	26.471	26.713	56.109	214.753	26.862	31.638	282.741	208.332	31.030	34.439	34.793	38.899	20.976	38.001	-8191	255	
7264.477	1	1	0	0	0.14359	0.080577	0.047826	0.089956	0.28418	0.16457	0.16036	0.23836	0.10248	0.17461	0.073268	0.34598	0.1998	0.075433	0.024243	0.11171	-2.6542	-3.3917	-3.1229	-2.9958	-3.2167	-3.075	-3.2188	-3.2188	-2.8583	-3.0417	-3.0417	-3.0583	-3.2562	-3.3354	-3.1875	-3.3604	340.050	253.239	104.446	368.160	203.480	117.970	292.959	340.931	90.243	37.440	266.081	362.700	363.123	22.311	61.654	29.839	0.0020504	0.0018315	0.0005703	571.96	3.5653e-05	2.1958e-05	726.68	193.74	4.2632e-05	1.5313e-05	314.5	155.05	84.055	39.598	2.3167e-05	86.111	0.0061656	0.0075674	0.0020819	879.45	7.0023e-05	8.358e-05	1061.1	309.65	7.0198e-05	8.4402e-05	473.85	208.4	133	58.779	7.8291e-05	108.99	40.472	133.282	360.311	26.839	207.325	179.738	26.734	31.722	192.142	208.618	31.128	35.003	34.859	38.939	21.522	38.091	-8191	255	
7264.573	1	1	0	0	0.17805	0.34055	0.072946	0.25035	0.080707	0.15971	0.14402	0.24283	0.21505	0.30356	0.056109	0.14115	0.17423	0.17244	0.16212	0.019545	-2.3979	-3.2958	-3.0062	-2.9667	-3.3479	-2.8771	-2.9083	-3.4688	-3.0083	-3.0854	-3.3063	-3.2333	-3.4583	-3.2083	-3.0833	-3.5938	163.188	41.864	314.708	307.732	164.394	357.300	106.900	51.528	298.421	277.714	298.659	285.801	318.824	325.761	29.319	149.449	0.0024738	0.00099007	0.00023744	568	3.6863e-05	1.9605e-05	731.96	193.52	5.8671e-05	1.5024e-05	314.93	155.81	84.592	39.559	3.7686e-05	86.723	0.0064925	0.0078285	0.0020038	873.25	7.4382e-05	8.5142e-05	1046.8	307.23	7.491e-05	8.4644e-05	469	208.13	137.51	59.076	7.6547e-05	109.61	45.496	18.939	42.538	27.029	195.414	319.543	26.911	31.512	186.330	105.573	31.152	34.966	35.551	38.553	371.729	38.155	-8191	255	
7264.645	1	1	0	0	0.10681	0.14985	0.22679	0.1335	0.13687	0.12756	0.087326	0.17106	0.18876	0.29836	0.21484	0.19439	0.22339	0.13544	0.19046	0.40584	-2.675	-3.1792	-3.0708	-3.0583	-3.3875	-2.9854	-2.9333	-3.3208	-3.0875	-3.2208	-3.3167	-3.1625	-3.3604	-3.1917	-2.8792	-3.3771	287.978	268.053	301.288	345.126	274.414	45.057	124.051	51.754	62.626	116.639	40.620	17.690	359.201	279.600	14.683	317.085	0.0026937	0.00037875	0.00027042	576.52	2.6883e-05	3.8927e-05	733.19	195.25	2.8627e-05	2.3445e-05	316.24	157.67	85.412	39.809	2.4417e-05	87.251	0.0071233	0.0078634	0.0020088	882.58	8.2294e-05	8.6303e-05	1055.2	312.14	8.3924e-05	8.5381e-05	473.78	211.98	143.62	59.245	7.7046e-05	110.71	51.062	112.520	18.122	26.804	192.067	80.298	27.334	31.638	192.128	34.058	30.831	35.019	35.741	38.366	128.643	38.468	-8191	255	
7264.741	1	1	0	0	0.065478	0.19534	0.1848	0.097462	0.092908	0.020233	0.30796	0.16904	0.2135	0.23238	0.20028	0.16749	0.10247	0.13669	0.12938	0.22416	-2.7167	-3.2083	-3.0187	-3.0438	-3.4083	-3.125	-2.9604	-3.25	-3.0438	-3.2542	-3.6333	-3.0771	-3.1937	-3.1937	-2.9708	-3.6083	21.459	245.904	77.667	290.925	370.306	86.329	51.924	153.515	146.990	222.027	278.618	16.201	46.938	316.622	292.317	301.448	0.0027258	0.0023323	0.00076793	573.58	3.3429e-05	1.8466e-05	734.05	195.43	2.3586e-05	3.3765e-05	315.73	157.55	84.685	40.116	5.9357e-06	87.042	0.0076591	0.0075753	0.001968	888.35	8.5974e-05	8.1665e-05	1045	315.61	8.5682e-05	7.9704e-05	466.05	212.87	143.36	57.698	7.2554e-05	110.82	36.004	309.907	298.054	27.107	200.700	76.959	27.306	31.980	163.665	373.100	30.734	35.108	35.129	38.605	200.235	38.611	-8191	255	
7264.860	1	1	0	0	0.10346	0.13299	0.018279	0.20146	0.18319	0.26354	0.22984	0.028554	0.17218	0.12257	0.037815	0.086351	0.2213	0.21939	0.31602	0.12288	-2.5542	-3.1292	-3.2979	-3.1333	-3.3271	-3.3375	-3.0938	-3.5625	-3.3625	-3.2021	-3.4062	-2.925	-3.1896	-3.3292	-3.0021	-3.5979	62.841	309.833	364.238	259.806	214.623	26.427	80.790	211.103	347.818	207.841	221.040	52.181	136.307	346.018	164.619	262.582	0.002042	0.0016499	0.00026109	576.19	1.2821e-05	6.7581e-06	727.76	194.89	3.055e-06	1.8713e-05	316.6	157.58	85.17	40.232	1.6607e-05	87.064	0.0075516	0.0070268	0.0018677	898.04	8.4278e-05	7.6609e-05	1027	319.62	8.3291e-05	7.5161e-05	459.75	215.89	141.29	57.066	7.0786e-05	112.81	30.030	323.338	75.746	27.094	226.676	108.219	27.219	32.008	232.903	78.841	31.214	35.282	34.415	38.680	71.834	38.327	-8191	255	
7264.956	1	1	0	0	0.24842	0.23913	0.19054	0.18195	0.15311	0.16478	0.28996	0.43715	0.15396	0.14393	0.15749	0.28719	0.28641	0.17747	0.11451	0.21728	-2.8208	-2.8958	-3.3667	-3.0542	-3.2292	-3.3187	-2.9292	-3.2479	-3.0958	-3.0938	-3.3542	-3.0667	-3.1688	-3.3125	-3.1292	-3.15	345.773	229.474	350.943	25.182	99.750	22.809	52.482	358.238	118.345	151.220	339.396	15.909	298.525	333.177	335.562	357.122	0.0013567	0.0016169	0.00027005	572.55	3.7462e-05	1.1512e-05	730.15	195.44	3.3703e-05	7.7984e-06	317.66	158.4	85.017	40.117	3.2361e-05	87.89	0.0073621	0.0068473	0.0018506	926.39	8.2148e-05	7.5446e-05	1031.9	329.9	8.0949e-05	7.3857e-05	461.16	220.08	138.95	56.68	7.1757e-05	114.82	38.953	318.592	131.079	27.382	29.380	43.271	27.277	32.144	347.758	40.813	31.539	35.206	34.627	38.771	206.156	38.364	-8191	255	
7265.052	1	1	0	0	0.11414	0.10745	0.1702	0.10592	0.24453	0.1654	0.2638	0.12265	0.21561	0.10393	0.16724	0.21255	0.11983	0.27264	0.15567	0.12647	-2.4229	-2.9625	-3.2313	-3.0292	-3.0687	-3.0604	-3.0104	-3.5521	-3.3063	-2.8937	-3.5708	-3.1562	-3.2562	-3.3958	-3.0333	-3.5333	130.269	346.640	81.100	279.260	25.711	319.918	267.321	252.213	161.809	143.292	233.772	339.819	324.250	359.922	143.640	259.985	0.0010644	0.00086574	0.00041419	576.02	4.1175e-05	5.3152e-06	736.51	197.6	2.853e-05	1.7773e-05	318.73	159.4	86.072	40.819	4.6499e-05	88.63	0.0070872	0.0067225	0.0019081	945.39	7.9038e-05	7.4187e-05	1051.1	337.01	7.8063e-05	7.321e-05	472.75	224.36	138.53	57.33	7.7629e-05	116.03	32.899	316.779	162.685	26.888	46.622	108.441	27.476	31.734	371.522	138.050	31.729	34.872	34.722	38.444	222.863	38.136	-8191	255	
7265.148	1	1	0	0	0.22925	0.11401	0.084308	0.055304	0.14759	0.048608	0.18469	0.1111	0.12019	0.31146	0.22618	0.2656	0.09742	0.16989	0.19359	0.37627	-2.9083	-2.9229	-3.3792	-3.1063	-3.0729	-3.5792	-3.1479	-3.1813	-3.2458	-3.0167	-3.4	-3.3229	-2.8583	-3.3667	-2.8667	-3.35	72.827	221.150	203.436	180.375	354.163	196.990	332.045	64.926	155.990	322.148	293.154	33.678	317.110	19.409	279.738	332.823	0.001013	0.0013756	0.00045408	574.37	7.0547e-06	2.7879e-05	729.2	197.03	2.0469e-05	1.0831e-05	319.14	159.08	85.826	40.79	2.9157e-05	88.125	0.0068243	0.0065873	0.0020307	941.58	7.5556e-05	7.1907e-05	1068.1	333.15	7.5145e-05	7.1546e-05	482.21	222.32	136.49	56.834	8.2443e-05	114.51	53.827	269.455	160.117	26.831	369.396	56.814	27.693	31.367	336.965	18.185	31.831	34.796	34.866	38.851	206.226	37.878	-8191	255	
7265.245	1	1	0	0	0.045756	0.14816	0.25181	0.15633	0.31438	0.15579	0.061768	0.16211	0.22176	0.095178	0.18207	0.19014	0.28234	0.16347	0.12447	0.25478	-2.9125	-2.7542	-3.25	-3.2375	-2.9437	-3.3792	-3.2438	-3.1688	-3.5187	-2.9583	-3.2542	-3.1729	-3.0542	-3.6021	-2.9688	-3.3625	75.240	329.998	120.886	115.129	17.200	358.769	190.571	206.637	72.475	309.501	341.719	314.174	353.956	360.440	240.164	331.533	0.0015215	0.0015281	0.00058125	572.03	2.1045e-05	2.0384e-05	733.15	195.81	1.921e-05	2.4521e-05	317.24	159.43	85.64	41.165	9.6042e-06	88.626	0.006605	0.0065173	0.0021431	925.28	7.3501e-05	7.1902e-05	1091.3	327.77	7.3302e-05	7.2384e-05	490.99	219.71	135.36	57.421	8.628e-05	113.85	48.144	115.240	148.387	26.862	63.128	187.336	27.451	31.453	365.493	208.656	31.374	34.863	34.719	38.633	227.862	38.154	-8191	255	
7265.341	1	1	0	0	0.091015	0.049202	0.17662	0.099005	0.26408	0.19286	0.21482	0.15311	0.19562	0.2088	0.14025	0.28437	0.055501	0.12118	0.12149	0.3445	-2.9562	-2.925	-3.1229	-3.4021	-3.0354	-3.2958	-3.1167	-3.0396	-3.3708	-2.9083	-3.3604	-3.3854	-2.9292	-3.4188	-3.1833	-3.1458	348.992	240.066	100.593	129.457	243.515	124.126	169.097	180.006	285.525	58.771	159.684	46.181	312.562	161.284	59.810	300.419	0.0017494	0.0034121	0.00044065	578.2	1.2134e-05	3.398e-05	735.79	196.49	7.7461e-06	2.6559e-05	320.92	160.18	86.065	41.005	3.611e-05	89.09	0.0064649	0.0067571	0.0022263	911.83	7.1908e-05	7.5384e-05	1100.5	321.82	7.1281e-05	7.6234e-05	493.35	216.87	133.68	58.212	8.5004e-05	112.36	53.324	142.582	107.941	26.885	73.564	222.425	27.272	31.283	290.858	198.707	31.084	34.917	34.536	39.042	103.980	38.107	-8191	255	
7265.437	1	1	0	0	0.21311	0.086532	0.19008	0.083245	0.071367	0.065559	0.24851	0.014562	0.26217	0.17618	0.053442	0.14338	0.17361	0.059612	0.30172	0.098013	-3.0333	-2.9292	-3.3021	-3.2313	-2.9917	-3.425	-3.3896	-2.9437	-3.3083	-3.0667	-3.3271	-3.3375	-2.8312	-3.5438	-3.1688	-3.1792	367.499	67.892	102.982	86.603	362.695	24.950	25.064	205.168	22.156	201.120	45.561	190.575	255.826	134.963	213.026	340.392	0.0011813	0.0035593	0.00040749	573.58	8.5105e-06	3.0254e-05	738.83	197.16	7.099e-06	4.9906e-05	321.24	160.35	86.364	41.23	2.6555e-05	88.875	0.0061595	0.007046	0.0021419	890.71	6.8836e-05	7.8831e-05	1084.4	314.98	6.8419e-05	7.9868e-05	484.72	214.49	132.82	59.307	8.1334e-05	112.05	23.981	145.228	351.575	26.854	136.820	219.622	26.952	31.207	113.473	201.472	31.182	34.719	34.714	38.771	41.399	38.363	-8191	255	
7265.558	1	1	0	0	0.055738	0.13539	0.33353	0.093062	0.051356	0.10458	0.078595	0.19969	0.18163	0.27636	0.32735	0.19996	0.16973	0.26305	0.099846	0.42427	-2.7417	-2.8937	-3.0583	-3.4875	-2.775	-3.2833	-3.3292	-3.0354	-3.35	-2.8937	-3.3667	-3.3771	-3.0187	-3.3729	-3.3208	-3.1479	27.269	307.275	349.854	303.826	313.658	170.395	360.026	285.733	114.135	15.463	284.423	359.607	338.018	90.748	22.642	342.020	0.0012382	0.0046839	0.00037992	575.67	2.8829e-05	2.617e-05	737.76	196.6	2.6423e-05	2.3585e-05	320.74	160.17	86.954	41.107	3.2052e-05	88.564	0.0061952	0.0075656	0.0020942	892.6	7.0984e-05	8.485e-05	1078.3	315.96	7.177e-05	8.6124e-05	482.64	214.57	136.16	60.492	7.9982e-05	111.82	32.950	118.813	19.523	26.820	176.184	202.848	26.932	31.352	173.949	241.850	31.286	34.770	35.386	38.993	30.242	38.231	-8191	255	
7265.654	1	1	0	0	0.12341	0.15192	0.24415	0.22133	0.20714	0.12008	0.0631	0.12716	0.12854	0.046299	0.10248	0.03878	0.23698	0.12773	0.050774	0.43091	-2.825	-3.1688	-3.2146	-3.2375	-2.9792	-3.2917	-3.4208	-2.8896	-3.0958	-3.2021	-3.2208	-3.5958	-3.2125	-3.3458	-3.2812	-3.0312	293.628	119.413	362.918	277.056	331.927	176.892	305.069	119.059	124.978	357.442	268.965	50.372	275.324	299.730	329.221	340.966	0.0027848	0.00037689	0.00054806	574.37	5.6734e-05	3.6871e-06	737.8	197.27	3.3193e-05	1.5829e-05	321.17	161.38	87.964	41.391	9.2087e-06	89.233	0.0066183	0.0079946	0.0020278	888.09	7.5825e-05	8.6877e-05	1068.1	314.99	7.6803e-05	8.7414e-05	478.46	214.77	140.72	60.894	7.7833e-05	112.05	40.979	50.553	358.028	27.081	219.239	91.900	27.020	31.709	189.500	77.042	31.311	34.738	35.298	38.585	311.111	38.196	-8191	255	
7265.750	1	1	0	0	0.17415	0.17312	0.082041	0.23971	0.091432	0.047432	0.15093	0.14589	0.26471	0.26056	0.094726	0.15243	0.18553	0.25413	0.12467	0.24201	-2.8812	-2.95	-2.9958	-3.4437	-3.0271	-3.2667	-3.3937	-2.8479	-3.3333	-3.3458	-3.2896	-3.6125	-2.975	-3.2667	-3.1771	-3.0208	315.612	46.286	199.376	372.142	231.889	37.240	333.134	333.464	370.850	229.969	278.771	306.070	321.155	340.814	283.505	320.728	0.0027467	0.0017147	0.00034655	576.76	2.3266e-05	3.7693e-05	741.6	199.23	3.5145e-05	2.4471e-05	322.98	161.29	87.902	41.464	8.566e-06	89.727	0.0071487	0.0079143	0.0019811	887.32	8.2203e-05	8.5424e-05	1065.9	317.06	8.3558e-05	8.6186e-05	479.11	216.12	145.68	60.432	7.7123e-05	113.05	45.808	345.402	80.915	27.029	200.770	39.482	27.113	31.444	157.561	358.357	31.072	34.757	35.228	38.439	14.496	38.283	-8191	255	
7265.869	1	1	0	0	0.23989	0.19923	0.1164	0.08632	0.15776	0.14624	0.18085	0.20507	0.13331	0.25734	0.065018	0.36204	0.29865	0.28411	0.3217	0.15331	-2.9583	-3.2542	-3.0125	-3.3792	-2.9542	-3.2083	-3.2875	-3.0708	-3.3271	-3.2812	-3.0417	-3.3542	-3.1063	-3.3354	-3.3563	-3.2313	190.746	48.327	344.246	287.074	47.438	367.293	287.879	347.308	330.181	372.192	160.178	330.848	87.444	371.622	115.011	349.390	0.0024144	0.0024583	0.00034275	579.01	2.4529e-05	2.7259e-05	738.85	199.12	3.1201e-05	2.1139e-05	323.78	162.24	87.869	41.451	1.2907e-05	89.639	0.0076164	0.0076556	0.0019373	892.39	8.5648e-05	8.0439e-05	1050.7	317.75	8.469e-05	7.9992e-05	470.51	217.09	146.17	58.951	7.3719e-05	113.4	37.347	326.092	83.422	26.902	182.863	79.328	26.855	31.792	182.418	65.057	31.218	34.954	34.632	38.317	342.327	38.295	-8191	255	
7265.940	1	1	0	0	0.14032	0.18577	0.19581	0.11916	0.023088	0.12489	0.15838	0.12904	0.095106	0.11962	0.070691	0.13953	0.13624	0.24465	0.11468	0.31546	-2.875	-3.3063	-2.9604	-3.2438	-2.9833	-3.1583	-3.5938	-3.0187	-3.2687	-3.1	-3.1	-3.4042	-3.0625	-3.1208	-3.5896	-3.3458	340.063	120.440	80.580	53.724	56.117	188.327	298.073	231.926	357.751	18.087	271.750	29.293	308.155	329.393	226.058	343.735	0.0014988	0.0024959	0.00010378	577.47	1.1482e-05	2.5441e-05	741.89	200.27	1.0924e-05	1.205e-05	323.93	162.82	87.901	41.321	1.5949e-05	89.53	0.0076087	0.0072209	0.0018763	910.01	8.6824e-05	7.812e-05	1049	328.57	8.5958e-05	7.8111e-05	470.27	222.34	146.28	58.695	7.296e-05	115.57	63.998	356.741	282.633	27.984	361.605	25.420	27.207	31.923	73.022	136.705	31.285	35.143	34.616	38.474	208.809	38.535	-8191	255	
7266.037	1	1	0	0	0.1174	0.06129	0.037134	0.16604	0.16713	0.21383	0.14853	0.1889	0.17753	0.19687	0.12384	0.15985	0.29332	0.16053	0.15149	0.087417	-2.6604	-3.15	-2.9104	-3.325	-3.0271	-2.9813	-3.4979	-3.2188	-3.35	-3.2667	-3.1167	-3.3396	-3.2625	-3.1958	-3.3792	-3.0563	259.516	186.448	136.010	108.756	323.615	73.760	89.167	336.417	51.239	71.374	324.886	316.333	255.030	349.868	88.794	315.811	0.0010656	0.00041049	0.00024219	582.95	7.808e-06	1.2774e-05	743.9	200.79	1.1434e-05	2.4807e-05	323.58	162.57	87.673	41.48	4.6696e-05	89.892	0.0074801	0.0070572	0.0018663	937.97	8.4488e-05	7.6345e-05	1049.3	338.04	8.2563e-05	7.6001e-05	470.55	225.89	143.51	58.295	7.3593e-05	117.15	56.431	195.836	325.639	27.393	34.717	47.701	27.416	32.158	327.832	28.478	31.018	35.155	34.800	38.687	187.051	38.664	-8191	255	
7266.157	1	1	0	0	0.22667	0.10316	0.1968	0.13581	0.22402	0.081976	0.18562	0.095699	0.37132	0.046102	0.071075	0.34565	0.10859	0.17748	0.28071	0.25683	-2.7479	-3.3458	-3.0521	-3.3625	-3.1625	-2.9396	-3.45	-3.2021	-3.2104	-3.4417	-3.0854	-3.2687	-3.4042	-3.1667	-3.4833	-3.075	278.148	79.555	301.593	24.930	119.803	181.483	186.572	232.446	369.954	106.963	118.337	323.003	329.622	365.804	137.304	307.795	0.0001846	0.0015763	0.00058863	582.89	2.162e-05	3.455e-06	744.08	201.68	1.3431e-05	1.7329e-05	327.53	164.09	88.585	41.523	5.446e-05	89.946	0.0071262	0.0068593	0.0019179	954.25	8.0716e-05	7.4341e-05	1061.9	344.78	7.8781e-05	7.4668e-05	482.5	229.26	142.35	58.289	7.8886e-05	118.11	186.716	330.231	137.412	27.033	15.099	328.759	27.602	31.464	88.718	366.462	31.354	34.668	34.547	38.450	199.241	38.179	-8191	255	
7266.253	1	1	0	0	0.207	0.17335	0.26221	0.17186	0.033548	0.060958	0.33932	0.14836	0.11036	0.11023	0.206	0.31842	0.037007	0.064065	0.086258	0.39045	-2.6479	-3.3563	-2.9333	-3.2896	-3.0021	-3.0479	-3.4313	-3.2354	-2.9542	-3.4396	-3.2167	-3.275	-3.3583	-2.925	-3.2	-3.2229	134.119	356.126	303.192	329.753	157.798	81.974	302.766	74.789	76.479	61.936	317.872	337.262	364.191	369.870	54.672	315.650	0.0010269	0.00056207	0.0011145	580.03	3.3975e-05	7.5876e-06	745.69	201.43	1.4515e-05	2.9944e-05	326.39	162.28	88.058	41.3	4.5934e-05	89.735	0.0069099	0.0067773	0.0020682	958.9	7.8265e-05	7.3573e-05	1088.4	344.21	7.6778e-05	7.3707e-05	493.98	227.11	140.35	57.691	8.4225e-05	116.86	49.150	317.993	158.823	26.592	20.643	69.319	27.453	31.200	19.056	17.662	31.471	34.543	34.892	38.642	189.581	37.928	-8191	255	
7266.349	1	1	0	0	0.13899	0.039226	0.25417	0.13354	0.22285	0.084527	0.08138	0.059434	0.091683	0.20055	0.27228	0.21348	0.18442	0.17526	0.033202	0.2129	-2.725	-3.35	-2.8875	-3.3521	-3.4667	-3.0187	-3.4	-3.3125	-3.1354	-3.3396	-3.1792	-3.2521	-3.4188	-3.0646	-3.2729	-3.3937	348.028	14.023	57.785	306.305	75.569	45.032	103.577	116.739	137.989	137.165	339.067	256.895	52.298	359.390	300.145	296.232	0.00062087	0.00064802	0.0010635	579.71	2.563e-05	3.2066e-05	743.08	200.93	1.0511e-05	2.3538e-05	324.72	161.88	87.661	41.428	2.9004e-05	89.706	0.0067269	0.0067153	0.0022055	942.03	7.5724e-05	7.3078e-05	1105.8	336.03	7.4613e-05	7.392e-05	501.92	223.45	138.62	58.172	8.8267e-05	115.56	54.499	192.784	162.573	26.687	28.040	211.896	27.237	31.372	248.729	178.831	31.437	34.760	34.672	38.883	229.287	37.992	-8191	255	
7266.446	1	1	0	0	0.27314	0.12914	0.22017	0.17833	0.32728	0.048068	0.25682	0.25271	0.165	0.18835	0.24499	0.25708	0.20886	0.098687	0.080808	0.14227	-2.5062	-3.3542	-3.1625	-3.4125	-3.3375	-2.925	-3.4875	-3.2229	-2.8208	-3.3333	-3.3354	-3.2104	-3.3833	-3.0021	-3.2062	-3.4292	63.782	192.788	322.707	271.233	148.778	243.345	288.608	19.740	114.256	273.831	41.067	355.785	73.014	111.610	245.369	339.479	0.00074622	0.0023557	0.00061168	577.44	4.4905e-06	3.2739e-05	747.19	200.8	3.5768e-06	4.085e-05	324.49	162.94	88.177	41.715	9.2609e-06	90.046	0.0065977	0.0069598	0.0023038	925.26	7.4426e-05	7.7352e-05	1119.4	330.75	7.3328e-05	7.8834e-05	507.96	222.17	138.47	59.784	9.0013e-05	115.31	27.911	144.217	113.722	26.830	76.490	199.245	27.226	31.065	18.918	219.420	31.287	34.807	34.719	38.872	91.630	38.144	-8191	255	
7266.542	1	1	0	0	0.060226	0.24308	0.091266	0.18816	0.18323	0.030205	0.30866	0.25707	0.079924	0.18306	0.17189	0.14092	0.078403	0.12004	0.14682	0.11105	-2.5792	-3.4313	-3.0292	-3.1312	-3.3354	-3.2396	-3.1562	-3.4396	-2.8521	-3.1979	-3.3604	-3.1042	-3.2812	-3.1917	-3.1292	-3.5312	91.024	350.235	65.093	319.431	275.221	206.282	364.091	289.463	131.649	271.618	354.473	269.750	34.380	47.281	209.723	285.802	0.0012297	0.003653	0.00032155	580.92	1.0159e-05	3.1908e-05	738.5	199.36	2.4105e-05	3.6909e-05	322.77	161.76	87.204	41.356	1.512e-05	89.229	0.0065591	0.0075601	0.0023316	917.58	7.4137e-05	8.4145e-05	1114.2	327.92	7.2835e-05	8.4993e-05	501.33	219.51	136.79	60.599	8.6132e-05	113.78	41.359	156.266	370.439	26.858	20.141	213.587	26.998	31.366	181.521	185.970	30.870	34.521	34.691	38.854	21.744	38.067	-8191	255	
7266.638	1	1	0	0	0.22023	0.28104	0.1511	0.19077	0.12278	0.1903	0.27256	0.13952	0.12736	0.19874	0.22192	0.15422	0.098256	0.24395	0.3517	0.13235	-2.4667	-3.275	-3.2479	-3.1042	-3.3021	-2.9854	-3.1979	-3.4292	-3.1667	-3.4167	-3.1917	-3.1979	-3.4938	-3.125	-3.0625	-3.3646	116.424	164.587	179.081	89.864	176.907	81.878	321.589	17.222	45.621	361.537	290.578	15.723	345.215	306.285	350.905	317.318	0.002025	0.0036198	0.00017025	576.33	2.8478e-05	1.5608e-05	739.01	199.57	2.9253e-05	1.4296e-05	324.79	161.25	86.658	41.163	1.6683e-05	88.373	0.0065301	0.0080161	0.0022319	908.3	7.5093e-05	8.9763e-05	1099.6	326.28	7.5315e-05	9.0424e-05	495.41	218.26	138.62	61.469	8.2709e-05	112.45	48.542	145.113	316.441	26.621	169.408	170.868	26.984	31.359	212.239	192.629	30.401	34.640	35.139	38.405	317.430	38.161	-8191	255	
7266.734	1	1	0	0	0.016819	0.10965	0.066976	0.18706	0.1251	0.16885	0.2096	0.20789	0.089271	0.076887	0.29305	0.47736	0.18461	0.45462	0.28319	0.019175	-2.5167	-3.3292	-3.2062	-3.2042	-3.2021	-3.0375	-3.0333	-3.2687	-2.9542	-3.4104	-3.3563	-3.125	-3.2625	-3.0708	-2.925	-3.6	335.014	280.159	365.359	249.221	41.802	109.003	318.051	340.244	263.753	35.670	334.396	326.925	122.784	296.252	168.132	127.581	0.0024326	0.0010063	0.00051135	573.19	2.5482e-05	1.1024e-05	737.33	197.55	6.1022e-05	1.2692e-05	321.15	160.17	86.472	40.937	2.3453e-05	88.806	0.00676	0.0081533	0.0020866	888.42	7.6929e-05	8.8815e-05	1066.9	315.66	7.7411e-05	8.7903e-05	479.79	213.92	139.8	60.452	7.7887e-05	111.6	35.096	86.785	22.104	27.045	188.733	160.873	27.356	31.256	203.685	44.977	31.078	34.891	35.165	38.553	70.389	37.905	-8191	255	
7266.830	1	1	0	0	0.14641	0.26992	0.1214	0.16784	0.19993	0.062456	0.21005	0.049911	0.048243	0.20004	0.09724	0.2831	0.18152	0.18234	0.31347	0.33138	-2.4979	-3.0333	-3.1833	-3.1583	-3.3521	-3.2167	-3.2917	-3.5479	-3.025	-3	-3.3917	-3.2208	-3.2625	-3.0854	-2.9917	-3.4896	19.077	310.217	151.592	353.789	117.025	176.779	347.183	112.327	364.158	165.965	298.031	368.384	344.586	283.889	238.897	321.473	0.0026657	0.0024993	0.00020727	576.51	5.9256e-05	2.4647e-05	736.92	198.37	1.8571e-05	2.1648e-05	322.17	160.68	87.011	40.971	5.1215e-06	88.685	0.0071832	0.0079784	0.0020283	885.45	8.3131e-05	8.7715e-05	1062.6	317.67	8.4504e-05	8.6856e-05	479.99	215.8	145.52	60.472	7.8525e-05	112.7	45.675	348.994	60.949	27.018	203.627	41.027	27.225	31.614	136.999	49.041	31.109	35.032	35.117	38.391	171.996	38.076	-8191	255	
7266.949	1	1	0	0	0.21181	0.13384	0.29414	0.059443	0.16366	0.10354	0.27002	0.28828	0.25923	0.15604	0.097066	0.14924	0.30099	0.23996	0.16968	0.42996	-2.6792	-3.2479	-3.1437	-2.975	-3.1604	-3.1083	-3.2938	-3.4479	-2.9708	-3.0667	-3.4729	-3.1562	-3.1875	-3.3042	-2.9437	-3.5187	250.269	30.836	338.280	334.852	147.440	242.773	128.385	363.900	80.329	75.187	259.349	40.601	18.769	337.127	182.842	341.889	0.0025503	0.0027969	0.00055446	576.46	6.0529e-06	3.106e-05	738.67	199.42	1.5679e-05	2.1906e-05	321.57	162.11	87.008	40.896	1.511e-05	88.554	0.0078388	0.007888	0.0020392	902.9	8.9694e-05	8.5895e-05	1065.6	324.91	9.0215e-05	8.4545e-05	479.73	220.01	148.93	59.761	7.6915e-05	113.87	32.566	356.477	358.093	27.188	307.901	42.351	27.158	31.598	193.729	364.956	31.252	34.898	34.979	38.052	103.777	38.283	-8191	255	
7267.045	1	1	0	0	0.012382	0.13333	0.24727	0.35166	0.049171	0.15087	0.044899	0.10335	0.12859	0.1752	0.37282	0.14578	0.28493	0.11277	0.12807	0.28316	-2.6375	-2.9542	-3.3083	-2.9896	-2.9896	-3.2729	-3.2458	-3.4146	-3.3667	-3.0896	-3.4375	-3.2896	-3.35	-3.4417	-3.1	-3.3854	345.255	234.518	353.194	77.402	160.320	277.045	15.423	127.340	263.202	114.173	312.975	59.464	366.056	297.970	113.947	297.747	0.0020404	0.0015227	0.00042236	576.71	1.0615e-05	6.8068e-06	738.98	198.63	1.0141e-05	1.6753e-05	321.73	161.71	87.314	40.734	1.9863e-06	88.308	0.0080134	0.0074708	0.0019725	919.03	8.9665e-05	8.1307e-05	1052.9	331.01	8.9046e-05	8.0137e-05	473.88	223.02	147.25	58.74	7.5083e-05	115.11	51.111	316.292	290.847	27.572	68.158	73.238	26.933	31.787	73.183	74.346	30.942	35.132	34.824	38.239	21.442	38.326	-8191	255	
7267.141	1	1	0	0	0.10378	0.089169	0.14413	0.29698	0.1041	0.19471	0.11327	0.15755	0.031375	0.13789	0.11333	0.13696	0.22938	0.29161	0.11195	0.36636	-2.8979	-3.1562	-3.3854	-3.0875	-3.1875	-3.3146	-3.0917	-3.2458	-3.0667	-2.9688	-3.5229	-3.175	-3.1729	-3.5146	-2.9646	-3.4604	60.354	81.818	141.740	360.881	187.139	276.507	325.565	63.090	90.073	368.954	361.250	326.306	316.053	330.359	59.795	315.177	0.00069131	0.0008616	0.00026185	580.27	2.5535e-05	6.1391e-06	737.84	200.7	3.4172e-05	8.3531e-06	323.96	162.05	87.014	41.043	3.2078e-05	89.009	0.0077873	0.0072094	0.0019326	945.16	8.66e-05	7.8913e-05	1051.1	340.75	8.5073e-05	7.7883e-05	473.79	227.36	144.53	58.511	7.5638e-05	117.03	365.865	63.480	32.413	27.328	366.354	125.669	27.240	31.973	26.509	353.789	31.190	34.937	34.443	38.195	145.347	38.250	-8191	255	
7267.238	1	1	0	0	0.12886	0.17702	0.067588	0.15595	0.053481	0.31055	0.064365	0.23709	0.11123	0.1909	0.32876	0.29141	0.42169	0.19564	0.26692	0.21979	-2.8333	-3.1813	-3.3479	-2.9396	-3.2438	-3.4083	-3.2167	-3.2896	-3.225	-3.0312	-3.3583	-3.2771	-3.2896	-3.4167	-2.8625	-3.4333	253.837	194.310	14.253	339.202	111.760	153.119	329.492	346.875	289.007	359.419	341.133	354.951	330.677	311.611	237.955	309.968	0.00088115	0.0023349	0.00037198	576.87	5.1443e-05	8.4801e-07	742.13	201.33	2.4418e-05	1.6203e-05	323.74	162.77	88.183	41.263	3.6607e-05	89.845	0.0073734	0.007	0.0019587	956.96	8.1507e-05	7.5908e-05	1061.3	343.97	8.0327e-05	7.5838e-05	482.56	230.71	143.05	58.503	8.1197e-05	118.75	66.706	302.551	111.301	27.359	57.337	342.195	27.547	31.204	67.787	65.097	31.567	34.732	34.526	38.074	176.921	37.841	-8191	255	
7267.334	1	1	0	0	0.060962	0.18924	0.25236	0.13232	0.09131	0.27326	0.13976	0.13427	0.29826	0.064867	0.11363	0.14647	0.23154	0.21567	0.1843	0.16908	-2.7438	-2.6312	-3.2396	-3.2042	-2.9167	-3.3646	-2.9813	-3.4292	-3.1958	-3.1396	-3.6396	-3.3354	-3.1875	-3.3021	-2.9854	-3.2958	178.658	153.683	308.744	300.657	194.387	345.207	304.074	47.255	146.991	106.176	76.044	72.855	293.413	199.972	264.995	306.826	0.00093816	0.0020419	0.00082738	580.68	1.0857e-05	5.8471e-06	744.02	202.66	2.0842e-05	1.6072e-05	326.41	163.11	88.639	41.667	3.9368e-05	89.455	0.007196	0.0070244	0.0021503	975.9	8.0966e-05	7.733e-05	1100	350.22	8.0666e-05	7.663e-05	499.82	230.7	142.33	58.526	8.7429e-05	117.74	46.018	317.528	150.347	26.767	99.781	220.800	27.349	31.199	338.702	36.731	31.748	34.472	34.418	38.141	189.152	37.817	-8191	255	
7267.430	1	1	0	0	0.28659	0.26432	0.077517	0.24884	0.2589	0.22132	0.17303	0.13441	0.20557	0.17255	0.25377	0.2463	0.12615	0.018706	0.014669	0.062449	-2.6188	-2.9458	-3.3937	-2.9958	-2.9417	-3.5042	-3.0979	-3.1813	-3.4688	-3.0583	-3.3083	-3.2875	-3.2292	-3.4625	-2.9875	-3.2104	296.094	25.881	304.500	97.637	311.774	62.590	316.410	273.301	202.164	313.150	371.911	350.780	296.558	25.588	220.186	335.250	0.0010583	0.0014399	0.00086117	579.19	1.4471e-05	1.0124e-05	744.82	203.37	2.4375e-05	3.9915e-05	326.94	164.21	88.459	41.717	3.9917e-05	90.33	0.0070165	0.0069219	0.0022781	957.09	7.8492e-05	7.6261e-05	1124	343.32	7.7891e-05	7.7095e-05	508.41	227.33	141.1	58.982	9.1378e-05	116.94	40.955	218.827	168.845	26.594	35.223	148.634	27.672	30.990	312.345	198.544	31.316	34.365	34.358	38.631	220.116	37.654	-8191	255	
7267.550	1	1	0	0	0.26608	0.39793	0.14497	0.2571	0.13678	0.15753	0.14905	0.38184	0.25658	0.15855	0.1465	0.35867	0.22668	0.10881	0.14919	0.30559	-2.8271	-2.8521	-3.3292	-3.3229	-2.9854	-3.2396	-3.0833	-3.2333	-3.2687	-3.025	-3.3208	-3.2	-2.9583	-3.5271	-3.2354	-3.0646	61.806	365.134	310.861	292.654	262.404	204.251	306.451	340.259	39.252	304.957	25.189	43.534	38.508	355.474	120.395	332.925	0.0017687	0.003043	0.00031635	578.89	3.8715e-06	1.9412e-05	743.75	202.92	1.3247e-05	4.7133e-05	326.26	165.29	89.449	42.516	1.282e-05	90.912	0.0068204	0.0071632	0.00236	936.2	7.6029e-05	7.9117e-05	1131.4	335.87	7.545e-05	8.0585e-05	513.15	226.14	140.9	60.579	9.2093e-05	116.67	25.897	182.204	175.387	26.500	85.555	208.393	27.029	31.087	117.069	204.378	30.825	34.539	34.545	38.566	87.675	38.039	-8191	255	
7267.647	1	1	0	0	0.27422	0.11933	0.08356	0.19362	0.29749	0.14338	0.087704	0.11659	0.29417	0.088942	0.10476	0.10603	0.25662	0.19353	0.19018	0.16377	-3.0958	-2.9083	-3.3312	-3.2562	-2.7375	-3.3729	-3.2438	-3.2146	-3.2458	-2.7708	-3.3187	-3.3854	-3.0583	-3.2792	-2.9521	-3.2	341.880	334.321	146.435	18.988	72.456	105.122	240.235	26.262	212.527	179.069	308.319	338.221	259.102	292.071	154.286	287.268	0.0017889	0.0039101	0.0002932	582.08	1.7141e-05	4.4305e-05	751.44	203.91	8.4009e-06	4.5186e-05	327.36	164.2	89.257	42.551	2.5723e-05	90.832	0.0066906	0.0076857	0.0023542	926.53	7.4908e-05	8.4959e-05	1127.7	332.28	7.4316e-05	8.6667e-05	508.28	224.04	139.72	61.882	8.8629e-05	115.84	32.527	141.944	299.181	26.722	126.824	238.693	27.314	31.398	154.618	196.879	30.907	34.456	35.065	38.636	64.010	37.994	-8191	255	
7267.741	1	1	0	0	0.36209	0.26542	0.24356	0.27339	0.11038	0.048127	0.17683	0.47948	0.11001	0.098562	0.19286	0.27704	0.17934	0.26671	0.034222	0.18245	-2.9396	-2.8542	-3.1937	-3.3104	-3.1396	-3.2604	-3.1562	-2.875	-3.4146	-3.2	-3.2396	-3.4688	-2.9	-3.3229	-3.3812	-2.9729	22.907	87.552	319.213	336.826	126.553	115.859	16.962	330.912	170.962	254.746	309.519	328.221	312.888	45.317	349.791	285.745	0.0014707	0.0021342	0.00091708	579.99	2.2482e-05	3.4582e-05	745.42	202.7	4.4963e-05	2.4405e-05	326.98	165	89.274	42.162	3.6624e-05	89.936	0.0065999	0.0081165	0.0022517	915.45	7.514e-05	8.9522e-05	1107.5	327.68	7.4982e-05	8.9995e-05	497.1	221.39	140.08	62.138	8.2754e-05	114.19	36.797	118.296	338.067	26.929	179.912	237.339	27.011	31.264	190.271	159.906	31.111	34.668	34.812	38.630	50.793	37.940	-8191	255	
7267.839	1	1	0	0	0.069475	0.051008	0.14267	0.13664	0.075508	0.10589	0.22439	0.26584	0.29699	0.061373	0.1918	0.13268	0.076034	0.092884	0.29496	0.28865	-2.7687	-3.0479	-2.9021	-3.3438	-3.1146	-3.4625	-3.15	-3.0854	-3.5292	-3.2229	-3.2104	-3.6	-2.8979	-3.2229	-3.2604	-3.1896	170.573	67.277	206.879	371.964	194.274	328.336	321.492	369.332	31.494	260.861	362.053	19.935	269.410	21.017	361.227	368.734	0.00286	0.0012418	0.00039755	576.91	4.8193e-05	1.5441e-05	741.2	202.49	5.8951e-05	1.0123e-05	325.41	164.4	89.732	42.005	1.1993e-05	90.112	0.0067698	0.0082689	0.0021088	899	7.8165e-05	9.0865e-05	1086.4	324.62	7.9707e-05	9.1581e-05	490.73	220.69	144.81	62.459	8.0468e-05	113.92	44.670	130.792	338.554	26.750	202.736	123.157	27.086	31.089	197.679	52.064	30.933	34.685	35.314	38.118	95.263	37.758	-8191	255	
7267.933	1	1	0	0	0.26873	0.17283	0.071057	0.10142	0.25192	0.068705	0.080822	0.21627	0.11711	0.093612	0.046212	0.39382	0.14079	0.1883	0.23529	0.22599	-2.9042	-3.1375	-3	-3.2438	-3.0521	-3.2188	-3.4854	-3.0563	-3.0146	-3.0187	-3.1458	-3.2917	-3.1625	-3.4146	-3.3937	-3.2333	44.764	238.255	137.278	296.907	263.499	370.494	291.649	366.762	92.437	230.481	296.686	30.230	21.150	82.371	310.986	301.180	0.0031078	0.00063785	0.00025067	574.88	4.4919e-05	6.2714e-06	738.54	202.47	5.5489e-05	2.8901e-05	326.72	164.67	89.937	42.061	1.5748e-05	90.688	0.0072667	0.008159	0.0020476	892.28	8.3663e-05	8.8174e-05	1074.4	322.11	8.5167e-05	8.8583e-05	487.14	220.2	149.07	61.823	7.9387e-05	114.63	48.437	52.352	288.879	26.989	193.354	158.827	27.058	31.502	183.738	354.843	30.987	34.896	35.090	38.306	14.713	38.242	-8191	255	
7268.029	1	1	0	0	0.07539	0.22733	0.19057	0.30275	0.16013	0.16351	0.1103	0.27622	0.13487	0.25712	0.19878	0.32157	0.13434	0.09822	0.053231	0.2022	-2.7417	-2.8792	-2.9729	-3.5354	-2.9958	-3.1521	-3.3646	-3.0396	-3.2458	-3.3729	-3.1354	-3.4854	-2.9875	-3.0729	-3.2271	-3.2542	363.026	176.051	309.026	358.548	43.463	211.484	293.658	330.019	151.034	131.617	258.453	340.345	180.330	324.702	164.202	325.760	0.0027045	0.0022246	0.00080253	576.77	3.1e-05	2.4681e-05	737.98	200.12	3.9435e-05	2.4639e-05	323.8	162.79	88.496	41.475	1.484e-05	89.811	0.007856	0.0079501	0.0020426	903.31	9.0411e-05	8.6076e-05	1069.6	327.01	9.0367e-05	8.5283e-05	481.22	221.08	149.71	60.247	7.6802e-05	114.87	47.298	329.230	359.311	27.227	205.934	38.137	27.240	31.942	191.657	38.404	31.000	34.983	35.175	38.464	30.766	38.188	-8191	255	
7268.126	1	1	0	0	0.10626	0.14358	0.10833	0.2434	0.036628	0.22181	0.28879	0.18362	0.19702	0.057808	0.1963	0.24332	0.14956	0.32509	0.093239	0.33155	-2.8542	-3.3167	-3.0187	-3.4938	-3.0292	-2.8625	-3.6937	-3.2687	-3.3604	-3.2896	-3.0396	-3.7	-3.2292	-3.0646	-3.5167	-3.3042	17.041	144.127	257.894	331.166	69.797	134.642	294.311	321.651	253.297	172.789	284.749	354.336	32.677	19.639	130.012	373.622	0.0019756	0.00012508	0.00042824	577.34	2.2458e-05	1.1828e-05	733.59	197.74	2.4351e-05	2.0673e-05	320.14	161.4	87.335	41.283	1.0277e-05	89.69	0.0079298	0.0074623	0.001947	910.75	8.8943e-05	8.0216e-05	1047.7	329.41	8.7945e-05	7.9391e-05	470.51	222.31	146.47	58.859	7.3741e-05	115.71	32.373	312.272	344.249	27.720	123.415	352.229	27.164	32.078	348.514	35.153	30.988	35.027	34.839	38.487	136.961	38.178	-8191	255	
7268.246	1	1	0	0	0.26088	0.039293	0.14845	0.0083611	0.13494	0.14252	0.268	0.29845	0.1103	0.17823	0.34615	0.23232	0.27688	0.18871	0.20819	0.21	-2.7396	-3.275	-3.0125	-3.3979	-3.0292	-2.9479	-3.6083	-3.0708	-3.2604	-3.4333	-2.9562	-3.5125	-3.3917	-3.2917	-3.1625	-3.2646	203.322	85.134	138.886	19.296	197.550	294.005	320.948	246.292	169.617	50.788	341.833	329.879	348.135	360.333	27.194	283.015	0.0010587	0.00077918	0.00035066	568.2	3.26e-05	2.0443e-05	733.98	197.16	3.8754e-05	6.524e-06	321.43	161.53	86.504	41.229	3.2791e-05	89.208	0.0076081	0.0070786	0.0018991	928.14	8.4874e-05	7.6594e-05	1035.2	334.33	8.2663e-05	7.5609e-05	466.33	224.57	142.27	58.139	7.3049e-05	116.43	33.796	347.902	28.772	27.680	20.270	78.515	27.528	31.633	342.707	355.285	31.092	35.025	34.536	38.579	197.206	38.246	-8191	255	
7268.342	1	1	0	0	0.077667	0.24928	0.20945	0.17557	0.05055	0.1183	0.22039	0.02783	0.13821	0.18261	0.3131	0.3692	0.20198	0.35318	0.10443	0.085536	-2.8833	-3.2083	-2.8208	-3.2917	-3.1354	-2.9521	-3.3229	-3.0604	-3.0854	-3.3833	-3.1	-3.3833	-3.1625	-2.8646	-3.3896	-3.175	163.918	177.565	105.744	263.585	265.872	49.468	240.226	202.279	150.828	123.966	315.141	328.834	336.517	365.893	358.218	372.158	0.00063297	0.0010015	0.00063095	571.51	3.9251e-05	1.2844e-05	734.48	198.36	1.657e-05	1.4739e-05	321.68	163.25	87.434	41.658	6.0518e-05	90.37	0.0071671	0.0068137	0.001912	944.05	8.1284e-05	7.5397e-05	1051.6	342.18	8.006e-05	7.4907e-05	478.64	229.36	142.34	58.507	7.9161e-05	118.77	336.200	365.083	161.446	27.565	46.489	69.176	27.636	31.490	75.636	359.710	31.318	35.010	34.635	38.370	188.899	38.216	-8191	255	
7268.414	1	1	0	0	0.043615	0.19004	0.068403	0.10542	0.12926	0.11553	0.19571	0.25526	0.14123	0.098614	0.078726	0.11173	0.16088	0.09155	0.067177	0.19896	-2.6792	-3.2146	-2.9354	-3.2479	-3.15	-2.7062	-3.4292	-3.1	-3.0458	-3.3333	-3.2021	-3.4625	-3.3396	-3.1021	-3.0854	-3.275	197.946	107.159	227.710	370.229	187.891	154.557	285.089	280.550	184.819	197.644	26.813	256.950	33.344	256.622	272.965	331.362	0.0013997	0.0016652	0.0011534	570.04	1.1337e-05	1.3297e-05	734.17	199.07	7.7336e-06	1.8871e-05	323.95	163.2	87.91	41.506	4.0513e-05	89.986	0.0070515	0.0068199	0.0020761	954.1	7.8774e-05	7.4561e-05	1078.8	342.24	7.787e-05	7.4208e-05	492.1	228.43	140.54	58.173	8.503e-05	117.76	46.834	336.469	163.604	26.876	131.938	345.994	27.536	31.520	260.921	26.157	31.389	34.781	34.481	38.574	226.398	37.725	-8191	255	
7268.510	1	1	0	0	0.2537	0.21511	0.083289	0.39156	0.13554	0.18495	0.13042	0.34002	0.22416	0.21255	0.038143	0.1155	0.14825	0.095071	0.17992	0.24359	-2.6542	-3.4021	-2.8146	-3.2583	-3.2729	-3.0333	-3.4458	-3.025	-2.9688	-3.3125	-3.4229	-3.1813	-3.0729	-2.7896	-3.2146	-3.4354	113.483	63.720	133.608	343.455	348.664	328.540	333.191	273.445	65.039	355.166	361.897	339.148	347.744	79.632	38.616	88.999	0.0012183	0.0013309	0.00089343	572.42	6.4963e-06	1.3957e-05	737.51	201.43	2.5573e-05	1.6362e-05	324.79	162.2	87.413	41.578	2.4486e-05	89.393	0.006835	0.0067386	0.0022274	942.36	7.684e-05	7.4276e-05	1103.8	337.46	7.5476e-05	7.3775e-05	500.14	224.31	137.96	58.069	8.7315e-05	115.33	50.856	318.508	127.365	26.680	259.885	215.723	27.797	31.188	363.557	204.866	31.423	34.677	34.553	38.792	180.525	37.961	-8191	255	
7268.631	1	1	0	0	0.23049	0.17086	0.056673	0.42002	0.18721	0.35168	0.064477	0.45803	0.19625	0.091752	0.19476	0.2458	0.24929	0.2113	0.11227	0.42991	-2.4542	-3.2042	-2.9625	-2.8875	-3.3292	-2.9208	-3.4313	-3.0625	-2.9729	-3.2354	-3.0729	-3.1917	-3.3937	-2.95	-3.1021	-3.5	152.739	315.873	291.711	31.005	36.856	199.581	179.413	342.431	284.237	161.791	342.731	14.307	341.211	115.217	32.706	335.819	0.001505	0.0026638	0.00051832	577.19	1.7414e-05	2.9216e-05	744.28	202.66	6.0744e-06	3.6614e-05	327.07	163.93	88.742	42.013	1.0544e-05	90.259	0.0065715	0.0068711	0.0022881	923.52	7.4713e-05	7.7427e-05	1124.5	335.15	7.4984e-05	7.9573e-05	513.62	225	139.98	60.331	9.159e-05	115.88	34.982	133.916	124.970	26.513	337.358	231.910	27.198	31.133	168.343	212.820	31.229	34.452	34.635	38.529	341.067	37.891	-8191	255	
7268.727	1	1	0	0	0.22232	0.12802	0.097036	0.22827	0.19886	0.098602	0.25127	0.091256	0.12118	0.056297	0.24521	0.13125	0.26878	0.16586	0.19956	0.21519	-2.475	-3.2583	-3.0604	-3.1625	-3.2188	-3.0042	-3.2104	-3.1583	-2.9292	-3.3937	-3.3667	-3.2979	-3.3375	-3.1729	-3.0771	-3.3792	113.134	366.432	57.382	335.558	192.568	358.046	295.568	274.910	226.787	152.951	322.993	30.298	292.383	319.355	243.521	276.593	0.0015882	0.0025396	0.00047021	577.7	1.7195e-05	3.0297e-05	748.88	202.19	6.5992e-06	3.6782e-05	328.15	164.67	88.972	42.132	1.6953e-05	90.625	0.0066654	0.0075691	0.002349	920.75	7.4606e-05	8.4345e-05	1125.2	331.36	7.3728e-05	8.5378e-05	508.63	223.52	138.95	61.478	8.7082e-05	114.97	25.319	128.019	25.622	27.030	334.532	237.810	27.006	31.204	161.272	229.721	30.785	34.755	34.680	38.712	64.917	38.160	-8191	255	
7268.821	1	1	0	0	0.14045	0.17335	0.31083	0.10463	0.06873	0.035281	0.15308	0.31084	0.25762	0.22281	0.20124	0.11084	0.16679	0.18388	0.12066	0.20463	-2.5208	-3.0646	-2.9896	-3.1854	-3.3542	-2.9833	-3.0521	-3.2958	-2.9896	-3.0896	-3.1333	-3.2979	-3.3979	-3.0646	-3.0208	-3.6354	229.303	318.347	372.439	315.435	353.472	146.898	26.300	139.459	276.528	305.514	263.146	333.591	369.331	355.758	53.052	304.833	0.0021413	0.0048919	0.00045383	573.47	1.6494e-05	2.7088e-05	738.78	201.42	2.802e-05	1.5909e-05	324.26	163.91	88.353	41.646	3.4675e-05	90.137	0.0064806	0.0078662	0.0021906	899.4	7.2394e-05	8.6527e-05	1088.2	322.19	7.2501e-05	8.7056e-05	491.19	219.52	138.08	61.448	8.1481e-05	113.58	40.941	153.272	362.403	26.856	202.072	193.504	27.316	31.516	181.515	212.401	30.852	34.583	34.950	38.272	26.745	38.047	-8191	255	
7268.919	1	1	0	0	0.15878	0.2722	0.1439	0.098953	0.16846	0.16558	0.23549	0.12295	0.15701	0.14245	0.22496	0.26087	0.33114	0.13954	0.10081	0.10357	-2.6521	-3.0958	-2.9521	-3.0187	-3.2208	-2.9271	-3.1271	-3.3896	-2.8417	-3.3646	-3.1125	-2.8708	-3.4667	-3.0417	-2.9437	-3.4437	287.514	344.119	225.102	279.792	118.784	244.105	272.596	372.380	79.212	98.053	342.003	331.440	308.750	271.728	294.355	259.720	0.0027591	0.0010566	0.00039183	576.75	6.1832e-05	3.8367e-06	746.49	200.76	5.6327e-05	2.0578e-05	325.79	164.14	89.215	41.948	1.0342e-05	90.237	0.0066564	0.0080669	0.0020704	892.51	7.6002e-05	8.8695e-05	1077.4	321.23	7.7921e-05	8.929e-05	487.26	219.34	143.03	61.967	7.9958e-05	113.71	50.891	142.765	310.773	26.917	217.941	158.382	27.098	31.329	181.696	42.422	30.795	34.822	34.495	38.278	84.687	38.145	-8191	255	
7269.038	1	1	0	0	0.23145	0.013398	0.16632	0.10344	0.34147	0.15225	0.073512	0.31126	0.20591	0.090304	0.027041	0.19392	0.079106	0.28686	0.1594	0.20581	-2.4979	-3.1604	-3.3563	-2.9146	-3.1125	-3.1771	-3.2021	-3.175	-2.9104	-3.3312	-3.2062	-2.9083	-3.3958	-3.2812	-2.8792	-3.5125	258.233	173.994	36.172	51.603	113.971	112.661	322.238	68.252	292.375	273.226	236.635	339.147	300.014	39.564	329.496	336.012	0.0028742	0.0017634	0.00049873	578.46	4.4144e-05	1.9784e-05	749.13	204.21	6.254e-05	4.1284e-05	329.3	166.05	90.57	42.242	1.7617e-05	90.91	0.0072825	0.0081466	0.0020487	897.56	8.3715e-05	8.9152e-05	1082.4	325.82	8.589e-05	8.9195e-05	491.12	222.09	149.34	61.916	7.9149e-05	114.78	46.957	44.914	304.689	26.937	210.633	51.324	27.189	31.183	203.985	354.668	31.045	34.795	35.118	38.393	62.277	37.976	-8191	255	
7269.110	1	1	0	0	0.092474	0.21124	0.087602	0.072025	0.19745	0.29029	0.046851	0.19872	0.22143	0.050584	0.18258	0.13265	0.13839	0.22852	0.11048	0.17072	-2.5604	-3.1917	-3.3667	-2.6375	-3.3563	-3.35	-3.1	-3.2354	-3.0333	-3.0062	-3.4146	-2.9562	-3.2771	-3.4021	-3.1646	-3.525	90.528	365.861	144.958	300.000	293.510	113.250	178.885	19.083	252.297	134.772	82.319	367.529	104.841	350.170	31.719	336.203	0.0027329	0.0027562	0.00018512	579.38	1.5317e-05	3.869e-05	747.33	203.66	2.508e-05	1.6438e-05	327.11	165.62	89.83	42.119	1.4642e-05	91.192	0.0077772	0.0078761	0.0020081	902.34	8.7943e-05	8.4528e-05	1067	325.29	8.7925e-05	8.2969e-05	480.97	222.54	149.77	60.52	7.649e-05	115.76	47.112	332.200	288.490	27.148	214.488	67.793	27.130	31.981	150.630	33.181	31.055	34.939	34.864	38.131	18.017	38.362	-8191	255	
7269.230	1	1	0	0	0.084395	0.01715	0.2068	0.28862	0.13336	0.21361	0.20468	0.043467	0.32525	0.12239	0.29257	0.080624	0.11932	0.1228	0.21803	0.058511	-2.5396	-2.9167	-3.3854	-3.0104	-3.2083	-3.1771	-2.9646	-3.4292	-3.125	-3.0083	-3.4688	-3.0042	-3.2354	-3.5292	-2.9146	-3.2333	329.202	190.942	192.488	315.910	188.707	320.959	315.924	138.391	69.707	76.337	358.744	34.887	284.514	28.461	371.483	35.368	0.0013694	0.0015112	0.00044494	581.94	1.2809e-05	2.6231e-05	746.14	203.23	2.1641e-05	1.4197e-05	327.85	166.62	89.226	41.983	3.2431e-06	90.779	0.0079019	0.0074425	0.0019447	917.54	8.8949e-05	8.0072e-05	1058.3	332.4	8.7417e-05	7.8782e-05	476.4	226.17	148.43	59.515	7.4009e-05	117.05	54.781	291.842	306.155	27.438	92.452	63.818	27.028	31.557	363.055	45.823	31.137	35.164	34.511	38.619	291.454	38.188	-8191	255	
7269.327	1	1	0	0	0.13719	0.16827	0.27328	0.12136	0.09483	0.10825	0.24902	0.17889	0.082601	0.049479	0.11591	0.40052	0.29933	0.21681	0.080602	0.48676	-2.6979	-2.9792	-3.4229	-2.9	-3.3229	-3.3521	-2.8312	-3.5229	-3.0021	-3.0375	-3.4625	-3.0104	-3.1771	-3.2729	-2.925	-3.4125	144.011	71.706	257.954	155.767	61.736	237.648	39.263	220.896	46.318	187.423	308.558	352.904	43.849	365.763	264.046	303.442	0.0004871	0.0018781	0.00016741	580.6	1.8126e-05	1.7186e-05	745.76	205.79	2.7579e-05	6.9406e-06	328.96	165.74	89.498	42.102	2.0738e-05	90.72	0.0076773	0.0071825	0.0019096	942.29	8.6304e-05	7.8132e-05	1058.6	344.07	8.5335e-05	7.8688e-05	479.94	231.43	148.04	59.644	7.6665e-05	119.32	70.297	345.119	181.989	27.426	89.633	142.442	27.155	32.149	31.907	49.200	31.069	34.755	34.506	38.142	225.292	37.967	-8191	255	
7269.423	1	1	0	0	0.084308	0.27656	0.14268	0.29449	0.024606	0.20046	0.12133	0.085704	0.14164	0.27524	0.18688	0.25823	0.038938	0.48798	0.20895	0.23359	-2.6375	-2.8104	-3.4	-3.1688	-2.9625	-3.3604	-2.9083	-3.2125	-3.3	-2.8563	-3.5375	-3.1708	-3.0292	-3.4958	-2.975	-3.3042	32.373	15.468	17.677	344.829	196.754	247.471	215.258	28.758	300.514	172.988	360.306	63.860	242.386	333.566	321.355	326.830	0.00037913	0.00094688	0.00086218	582.05	2.6563e-05	7.9409e-06	748.04	205.18	4.8082e-05	1.1541e-05	328.88	167.19	89.94	42.138	4.2167e-05	91.014	0.007511	0.0072053	0.0019942	972.34	8.4667e-05	7.8382e-05	1079.8	353.83	8.2954e-05	7.7822e-05	490.58	235.02	145.7	59.408	8.0405e-05	119.93	91.268	29.839	133.218	27.272	14.380	130.860	27.563	31.598	24.043	91.332	31.301	34.747	34.443	38.313	195.416	38.089	-8191	255	
7269.519	1	1	0	0	0.046091	0.095117	0.11761	0.043875	0.10566	0.10329	0.12861	0.14324	0.18584	0.18893	0.37554	0.34368	0.19667	0.25385	0.078888	0.20106	-2.675	-2.9625	-3.1208	-3.1	-2.9688	-3.2812	-2.9042	-3.2417	-3.2667	-2.95	-3.3187	-3.1854	-3.1937	-3.2604	-3.0417	-3.3792	39.921	41.091	122.385	310.141	251.893	205.972	344.436	50.620	13.760	123.464	323.569	321.504	300.212	367.541	67.900	368.131	0.0010781	0.0017936	0.0010923	579.37	2.7134e-05	1.6658e-05	751.57	206.08	2.4053e-05	4.6957e-06	331.34	167.86	91.299	42.627	5.0423e-05	91.729	0.0071326	0.0069627	0.0020958	970.07	8.0034e-05	7.591e-05	1101.9	352.94	7.9676e-05	7.6343e-05	504.7	235.39	145.39	59.643	8.7567e-05	120.15	34.997	40.357	143.818	26.948	39.062	37.914	27.715	31.009	30.686	125.430	31.307	34.718	34.515	38.153	176.653	37.784	-8191	255	
7269.640	1	1	0	0	0.14957	0.21542	0.1381	0.22205	0.223	0.21689	0.10637	0.16739	0.15801	0.12939	0.26954	0.21628	0.25317	0.41261	0.039298	0.27272	-2.7313	-2.9938	-3.2292	-3.1437	-2.8	-3.375	-3.0917	-3.1063	-3.2271	-3.0187	-3.2875	-3.0687	-3.2375	-3.3479	-2.8396	-3.3667	83.007	132.785	303.895	24.651	278.605	170.645	333.086	296.220	42.830	180.327	14.239	280.892	351.851	367.421	234.406	305.334	0.0012231	0.0013009	0.00043627	584.55	1.4232e-05	1.5185e-05	758.99	207.39	1.6147e-05	3.5366e-06	335.25	168.16	91.48	42.782	1.7754e-05	91.78	0.0070564	0.0070368	0.0022925	967.08	7.9973e-05	7.697e-05	1137.9	351.08	7.9037e-05	7.8128e-05	519.81	233.91	145.86	60.22	9.312e-05	119.43	16.888	142.450	185.716	26.630	83.984	118.640	27.608	31.470	348.451	55.339	31.364	34.190	34.024	38.262	176.375	37.729	-8191	255	
7269.711	1	1	0	0	0.30879	0.12477	0.11342	0.20377	0.091256	0.18282	0.10589	0.21729	0.15019	0.29282	0.27306	0.29707	0.086519	0.33209	0.27866	0.24254	-2.9042	-2.8104	-3.2333	-3.325	-2.9188	-3.2521	-3.1729	-3.1542	-3.2271	-3.0104	-3.3958	-3.3083	-2.8833	-3.4562	-3.0146	-3.2458	152.903	26.781	21.202	342.301	76.607	104.551	260.042	224.433	132.067	215.597	326.622	341.420	56.988	334.599	88.739	269.377	0.0011148	0.0025696	0.00050524	587.47	9.6746e-06	1.9439e-05	756.1	208.94	2.445e-05	3.2446e-05	335.19	169.42	92.417	43.053	6.146e-06	92.133	0.0069698	0.0073335	0.0024238	954.67	7.9136e-05	8.1295e-05	1156.5	347.79	7.8337e-05	8.3299e-05	528.02	232.46	145.66	61.743	9.411e-05	118.32	49.319	138.232	166.195	26.784	371.853	221.696	27.334	31.126	53.231	189.424	30.713	34.217	34.390	38.335	351.968	37.789	-8191	255	
7269.807	1	1	0	0	0.11931	0.054146	0.21286	0.25797	0.31466	0.37545	0.16828	0.1523	0.24905	0.35315	0.27721	0.082702	0.20015	0.28012	0.14392	0.20766	-2.8563	-3.0396	-3.2313	-3.1188	-3.0542	-3.2833	-2.9417	-3.0458	-3.1521	-2.7917	-3.4396	-3.4542	-2.7521	-3.3708	-3.2375	-3.1292	313.717	156.779	62.356	306.065	220.805	131.859	345.076	90.745	291.285	306.109	281.819	277.630	279.438	24.550	55.380	191.225	0.0016441	0.0045727	0.00011135	582.77	3.1165e-05	3.136e-05	759.2	207.89	1.985e-05	3.2741e-05	336.47	169.2	92.356	42.796	2.3939e-05	92.064	0.0067751	0.0077293	0.0023845	931.87	7.572e-05	8.4624e-05	1137	337.67	7.3985e-05	8.5922e-05	514.21	227.61	142.39	62.22	8.8339e-05	117.17	42.716	156.486	344.167	26.713	213.376	222.395	27.172	31.349	56.087	192.872	30.811	34.608	34.399	38.520	22.527	37.959	-8191	255	
7269.904	1	1	0	0	0.1637	0.08688	0.18826	0.22602	0.090568	0.25158	0.16289	0.3295	0.15017	0.040272	0.22082	0.27103	0.10127	0.24605	0.12506	0.25561	-2.9417	-2.875	-2.9604	-3.3	-2.9167	-3.3187	-3.2979	-2.9646	-3.5021	-3.0167	-3.0625	-3.5438	-3.0646	-3.3521	-3.2958	-3.05	350.226	162.516	249.308	41.206	368.485	14.217	259.152	212.799	356.780	167.706	65.552	316.317	38.367	319.050	368.307	317.163	0.0024219	0.0013185	0.00040648	584.76	2.2214e-05	2.1962e-05	758.21	208.36	4.2119e-05	2.9322e-05	332.85	168.19	91.463	42.677	2.2584e-05	91.277	0.006596	0.0081334	0.0022711	922.81	7.5812e-05	9.0035e-05	1122.2	335.88	7.5514e-05	9.1269e-05	507.19	226.41	143.56	62.935	8.3884e-05	115.65	26.080	133.558	356.764	26.666	218.321	236.147	26.795	31.333	210.171	154.583	30.474	34.560	34.646	38.420	121.672	38.001	-8191	255	
7270.022	1	1	0	0	0.09889	0.13382	0.10486	0.26089	0.24655	0.20752	0.092637	0.37976	0.15062	0.059558	0.24178	0.20004	0.12026	0.16005	0.17146	0.16877	-2.7271	-3.0333	-2.9875	-3.4437	-3.0542	-3.2125	-3.3312	-3.025	-3.5021	-3.0604	-3.0958	-3.3792	-2.9792	-3.2396	-3.0333	-3.2271	314.010	195.516	239.973	36.055	56.092	257.428	231.935	370.832	60.649	145.017	248.939	318.680	97.861	365.594	43.607	348.807	0.002772	0.0022141	0.00080386	582.73	4.3959e-05	1.5831e-05	752.57	206.1	3.8375e-05	3.1294e-05	331.51	167.28	91.502	42.272	1.4365e-05	91.051	0.0067994	0.0083109	0.0021433	908.04	7.8819e-05	9.138e-05	1098.6	330.54	7.9712e-05	9.2169e-05	497.05	224.06	147.16	62.978	8.168e-05	115.07	58.685	65.829	320.834	27.069	208.102	190.887	27.107	31.119	200.968	48.011	30.733	34.291	34.810	37.946	88.545	37.685	-8191	255	
7270.119	1	1	0	0	0.061894	0.17828	0.058273	0.20415	0.21053	0.176	0.2876	0.14883	0.24783	0.15238	0.23671	0.21331	0.31769	0.29853	0.18977	0.15973	-2.7771	-2.975	-2.9979	-3.2458	-2.9792	-3.2333	-3.2542	-2.9938	-3.3333	-2.9896	-3.0833	-3.6479	-3.0062	-3.1354	-3.1771	-2.8896	32.681	75.123	124.909	55.628	238.621	244.250	361.092	23.728	89.329	345.064	350.303	20.751	46.848	355.221	85.141	274.370	0.0032866	0.0018211	0.00046764	581.95	4.8322e-05	1.8344e-05	754.02	207	4.9933e-05	4.203e-05	330.71	168.16	92.204	42.382	3.0057e-05	91.1	0.0073785	0.0083371	0.0020961	904.88	8.5286e-05	9.0407e-05	1091.2	329.99	8.6363e-05	9.0366e-05	495.63	224.98	152.09	62.786	8.0852e-05	115.81	46.741	344.188	329.772	26.635	198.444	366.226	27.056	31.449	181.640	58.764	30.788	34.629	34.410	37.944	82.316	37.786	-8191	255	
7270.215	1	1	0	0	0.093587	0.2348	0.0083145	0.16519	0.2827	0.10095	0.041596	0.1868	0.17859	0.089495	0.26718	0.20814	0.17947	0.087616	0.13147	0.33178	-2.7938	-3.0583	-2.7396	-3.3104	-2.9729	-3.1396	-3.4458	-2.9646	-3.1312	-3.1104	-2.8292	-3.4146	-3.0125	-3.2875	-3.1146	-2.9396	19.696	279.791	134.119	266.176	34.504	276.684	169.834	33.994	244.164	39.882	365.730	307.310	307.027	244.037	307.633	277.627	0.0034797	0.003137	9.5692e-05	585.59	4.2695e-05	1.2977e-05	754.94	208.42	3.6074e-05	3.5446e-05	335.22	170.47	93.311	43.003	5.4082e-06	92.533	0.0079113	0.0080508	0.002062	910.24	9.0363e-05	8.6805e-05	1084.2	334.72	9.0696e-05	8.6533e-05	495.44	229.28	155.69	62.17	7.8434e-05	118.16	46.885	335.027	115.134	27.445	189.374	79.313	27.033	31.583	175.252	19.275	30.942	34.677	34.465	37.935	281.564	37.942	-8191	255	
7270.311	1	1	0	0	0.059493	0.15429	0.094902	0.053734	0.10816	0.15489	0.11114	0.045008	0.11767	0.15735	0.24169	0.21251	0.13299	0.077565	0.11136	0.073097	-2.7708	-3.0104	-2.7854	-3.4042	-3.1604	-3.1312	-3.4917	-3.2333	-3.3208	-3.1125	-2.9688	-3.5208	-3.1229	-2.9938	-3.3042	-3.3396	150.934	285.308	353.289	178.221	34.306	121.543	234.109	320.660	55.129	191.105	354.397	345.292	60.596	110.429	190.058	273.850	0.0019946	0.0032759	0.00020212	590.14	1.4607e-05	1.2747e-05	758.27	211.16	1.1533e-05	2.3425e-05	336.19	171.74	93.505	43.308	7.4936e-06	92.864	0.0081185	0.0076694	0.0020174	935.34	9.1657e-05	8.2831e-05	1080.8	344.15	8.9616e-05	8.1294e-05	490.63	233.06	154.7	61.406	7.579e-05	120.06	49.257	319.568	362.470	27.317	83.997	96.952	27.065	31.745	155.229	363.679	31.029	34.942	34.442	38.138	165.490	37.802	-8191	255	
7270.405	1	1	0	131072	0.081342	0.13067	0.27597	0.22343	0.39495	0.12719	0.094041	0.26222	0.10639	0.20128	0.26174	0.10704	0.17709	0.14096	0.24394	0.26255	-2.6729	-3.0563	-2.9958	-3.5042	-3.0187	-2.8146	-3.5083	-2.9917	-3.0708	-3.4062	-3.0604	-3.2562	-3.1396	-3.1562	-3.3563	-3.0938	248.136	170.809	23.500	278.806	60.321	64.775	138.714	19.451	65.116	107.387	266.134	328.239	201.800	317.883	209.532	341.665	0.001247	0.00079771	0.00018325	591.6	1.1363e-05	8.4303e-06	763.08	213.15	2.3675e-05	8.7226e-06	339.11	172.83	94.282	43.549	2.5699e-05	93.936	0.0078545	0.0073237	0.0019563	958.45	8.7939e-05	7.9763e-05	1079.2	354.06	8.6052e-05	7.875e-05	492.13	238.41	152.49	61.166	7.5545e-05	122.12	50.815	27.796	250.927	27.393	350.208	133.472	27.007	31.621	367.456	88.123	30.912	34.618	34.182	37.903	215.706	37.940	-8191	255	
7270.501	1	1	0	131072	0.19899	0.019899	0.21223	0.21964	0.017436	0.04275	0.44191	0.10983	0.19151	0.20621	0.1993	0.093197	0.25828	0.099419	0.052832	0.23781	-2.8104	-3.1437	-2.8271	-3.3542	-3.1917	-2.8979	-3.2146	-2.8792	-2.9437	-3.3292	-3.0479	-3.5083	-3.1708	-3.0792	-3.175	-3.0021	188.895	257.330	270.182	65.505	123.943	265.404	287.465	46.335	81.300	223.311	18.331	26.215	23.887	249.444	174.568	347.868	0.00089912	0.0020581	0.00094766	590.89	3.3491e-05	1.3845e-05	765.11	215.59	3.1094e-05	5.4479e-06	342.97	176.16	95.517	43.8	3.9667e-05	94.655	0.0074711	0.0070941	0.0019795	973.35	8.2905e-05	7.7019e-05	1087.9	359.46	8.0747e-05	7.5539e-05	499.38	241.93	150.22	61.046	7.9518e-05	123.63	29.469	311.968	130.811	27.144	66.299	313.437	27.457	31.401	33.478	321.941	31.352	34.563	34.081	38.192	201.996	37.742	-8191	255	
7270.622	1	1	0	131072	0.034975	0.082102	0.24306	0.30077	0.17424	0.011666	0.12048	0.33426	0.2529	0.23075	0.05421	0.15515	0.35965	0.084703	0.12565	0.38031	-2.7	-3.25	-2.8688	-3.3792	-3.1792	-2.9167	-3.2687	-3.1188	-2.8792	-3.1667	-3.0854	-3.1312	-3.1396	-3.1354	-3.3271	-3.0563	330.136	346.196	236.019	36.742	98.387	272.002	221.764	364.697	234.698	34.911	216.169	354.408	312.450	370.560	95.544	305.532	0.0005949	0.00086491	0.0013233	598.42	1.281e-05	1.4227e-05	776.68	218.22	2.8558e-05	1.2326e-05	346.24	176.09	95.848	44.016	5.1913e-05	94.892	0.0071868	0.0069496	0.002119	988.77	8.086e-05	7.673e-05	1126.6	365.77	8.0078e-05	7.6254e-05	518.57	243.45	149.93	61.138	8.6498e-05	123.05	54.299	266.688	161.554	26.929	47.910	73.935	27.638	31.290	80.242	63.047	31.057	34.496	33.816	37.883	212.425	37.543	-8191	255	
7270.718	1	1	0	0	0.072974	0.17064	0.35466	0.21892	0.18357	0.13871	0.19591	0.17556	0.12524	0.028878	0.30762	0.30629	0.16167	0.13008	0.053753	0.16384	-2.6437	-3.3625	-2.7542	-3.1	-3.1208	-2.95	-3.3042	-3.2	-3.0896	-3.2104	-2.8896	-3.2646	-3.4896	-2.9979	-3.3271	-3.1625	265.122	350.321	172.881	48.785	45.638	272.702	342.137	229.260	282.653	93.558	361.443	361.414	354.786	111.932	300.521	334.817	0.0014818	0.0011481	0.00075619	593.16	1.723e-05	5.445e-06	772.32	213.77	2.463e-05	2.5454e-05	341.95	172.38	94.216	43.505	3.9543e-05	92.97	0.0070385	0.0069157	0.0022803	973.27	7.9669e-05	7.7325e-05	1149.8	358.01	7.9757e-05	7.8232e-05	529.25	239.26	148.98	61.559	9.5379e-05	121.32	69.082	168.823	134.849	26.821	27.044	149.068	27.403	31.387	152.532	207.468	31.238	34.460	34.153	38.290	176.112	37.757	-8191	255	
#DATA ENDS
