BOXY.EXE: ISS Imagent and Oximeter Data Acquisition Program Version 0.80
Ascii Record File

#ACQ INFORMATION
2  Detector Channels 
16  External MUX Channels 
1  Auxiliary Channels 
5000  Waveform (CCF) Frequency (Hz)
1  Waveforms Skipped 
30  Waveforms Averaged 
1  Cycles Averaged 
16  Acquisitions per Waveform 
10.0806  Updata Rate (Hz) 

#FILE INFORMATION
TRUE -- External MUX Channel results are PARSED.
FALSE -- AC DC and Phase are NOT grouped.
TRUE -- Companion Program Settings File CREATED.
FALSE -- AC data not excluded
FALSE -- DC data not excluded
FALSE -- Phase data not excluded
FALSE -- Auxillary Chn. data not excluded
Tab delimiters

#CALIBRATION STATE
TRUE -- Waveform Calibration Values APPLIED.


#AUX CALIBRATION VALUES
Val Type	aux-1	

Term	1.0000e+00	
Factor	0.0000e+00	


#WF CALIBRATION VALUES
A = Detector Channel
Val Type	A-AC1	A-AC2	A-AC3	A-AC4	A-AC5	A-AC6	A-AC7	A-AC8	A-AC9	A-AC10	A-AC11	A-AC12	A-AC13	A-AC14	A-AC15	A-AC16	A-DC1	A-DC2	A-DC3	A-DC4	A-DC5	A-DC6	A-DC7	A-DC8	A-DC9	A-DC10	A-DC11	A-DC12	A-DC13	A-DC14	A-DC15	A-DC16	A-Ph1	A-Ph2	A-Ph3	A-Ph4	A-Ph5	A-Ph6	A-Ph7	A-Ph8	A-Ph9	A-Ph10	A-Ph11	A-Ph12	A-Ph13	A-Ph14	A-Ph15	A-Ph16	

Term	0.00000e+00	0.00000e+00	0.00000e+00	0.00000e+00	0.00000e+00	0.00000e+00	0.00000e+00	0.00000e+00	0.00000e+00	0.00000e+00	0.00000e+00	0.00000e+00	0.00000e+00	0.00000e+00	0.00000e+00	0.00000e+00	0.00000e+00	0.00000e+00	0.00000e+00	0.00000e+00	0.00000e+00	0.00000e+00	0.00000e+00	0.00000e+00	0.00000e+00	0.00000e+00	0.00000e+00	0.00000e+00	0.00000e+00	0.00000e+00	0.00000e+00	0.00000e+00	0.00000e+00	0.00000e+00	0.00000e+00	0.00000e+00	0.00000e+00	0.00000e+00	0.00000e+00	0.00000e+00	0.00000e+00	0.00000e+00	0.00000e+00	0.00000e+00	0.00000e+00	0.00000e+00	0.00000e+00	0.00000e+00	
Factor	1.00000e+00	1.00000e+00	1.00000e+00	1.00000e+00	1.00000e+00	1.00000e+00	1.00000e+00	1.00000e+00	1.00000e+00	1.00000e+00	1.00000e+00	1.00000e+00	1.00000e+00	1.00000e+00	1.00000e+00	1.00000e+00	1.00000e+00	1.00000e+00	1.00000e+00	1.00000e+00	1.00000e+00	1.00000e+00	1.00000e+00	1.00000e+00	1.00000e+00	1.00000e+00	1.00000e+00	1.00000e+00	1.00000e+00	1.00000e+00	1.00000e+00	1.00000e+00	X	X	X	X	X	X	X	X	X	X	X	X	X	X	X	X	

B = Detector Channel
Val Type	B-AC1	B-AC2	B-AC3	B-AC4	B-AC5	B-AC6	B-AC7	B-AC8	B-AC9	B-AC10	B-AC11	B-AC12	B-AC13	B-AC14	B-AC15	B-AC16	B-DC1	B-DC2	B-DC3	B-DC4	B-DC5	B-DC6	B-DC7	B-DC8	B-DC9	B-DC10	B-DC11	B-DC12	B-DC13	B-DC14	B-DC15	B-DC16	B-Ph1	B-Ph2	B-Ph3	B-Ph4	B-Ph5	B-Ph6	B-Ph7	B-Ph8	B-Ph9	B-Ph10	B-Ph11	B-Ph12	B-Ph13	B-Ph14	B-Ph15	B-Ph16	

Term	0.00000e+00	0.00000e+00	0.00000e+00	0.00000e+00	0.00000e+00	0.00000e+00	0.00000e+00	0.00000e+00	0.00000e+00	0.00000e+00	0.00000e+00	0.00000e+00	0.00000e+00	0.00000e+00	0.00000e+00	0.00000e+00	0.00000e+00	0.00000e+00	0.00000e+00	0.00000e+00	0.00000e+00	0.00000e+00	0.00000e+00	0.00000e+00	0.00000e+00	0.00000e+00	0.00000e+00	0.00000e+00	0.00000e+00	0.00000e+00	0.00000e+00	0.00000e+00	-2.42741e+02	-1.55801e+02	-1.30442e+02	-1.82481e+02	-9.91373e+01	-5.97705e+01	-1.57793e+02	-1.62015e+02	-9.26830e+01	-6.05605e+01	-1.71410e+02	-1.70576e+02	-1.81136e+02	-1.76213e+02	-8.41416e+01	-1.49482e+02	
Factor	4.89592e-05	1.01473e-04	2.92524e-05	1.62080e-01	9.51960e-07	1.04877e-06	1.53107e-01	3.99569e-02	1.07762e-06	9.79278e-07	7.00297e-02	2.41918e-02	1.94195e-02	6.96819e-03	1.13135e-06	1.01434e-02	1.01517e-06	1.04419e-06	2.90279e-07	8.40594e-02	1.13893e-08	1.14537e-08	7.45432e-02	2.08403e-02	1.13918e-08	1.14551e-08	3.47523e-02	1.20131e-02	1.01154e-02	3.62274e-03	1.14149e-08	5.06097e-03	X	X	X	X	X	X	X	X	X	X	X	X	X	X	X	X	



#DISTANCE SETTINGS
A = Detector Channel
A-1	A-2	A-3	A-4	A-5	A-6	A-7	A-8	A-9	A-10	A-11	A-12	A-13	A-14	A-15	A-16	

2.5000e+00	3.0000e+00	2.5000e+00	3.0000e+00	2.0000e+00	3.0000e+00	1.5000e+00	3.0000e+00	3.0000e+00	3.0000e+00	3.0000e+00	3.0000e+00	3.0000e+00	3.0000e+00	1.5000e+00	3.0000e+00	

B = Detector Channel
B-1	B-2	B-3	B-4	B-5	B-6	B-7	B-8	B-9	B-10	B-11	B-12	B-13	B-14	B-15	B-16	

1.0000e+01	1.0000e+01	1.0000e+01	1.4400e+00	1.0000e+01	1.0000e+01	1.5100e+00	1.9400e+00	1.0000e+01	1.0000e+01	1.9900e+00	2.4900e+00	2.4100e+00	2.9000e+00	1.0000e+01	2.9800e+00	




#DATA BEGINS
time	group	step	mark	flag	A-AC1	A-AC2	A-AC3	A-AC4	A-AC5	A-AC6	A-AC7	A-AC8	A-AC9	A-AC10	A-AC11	A-AC12	A-AC13	A-AC14	A-AC15	A-AC16	A-DC1	A-DC2	A-DC3	A-DC4	A-DC5	A-DC6	A-DC7	A-DC8	A-DC9	A-DC10	A-DC11	A-DC12	A-DC13	A-DC14	A-DC15	A-DC16	A-Ph1	A-Ph2	A-Ph3	A-Ph4	A-Ph5	A-Ph6	A-Ph7	A-Ph8	A-Ph9	A-Ph10	A-Ph11	A-Ph12	A-Ph13	A-Ph14	A-Ph15	A-Ph16	B-AC1	B-AC2	B-AC3	B-AC4	B-AC5	B-AC6	B-AC7	B-AC8	B-AC9	B-AC10	B-AC11	B-AC12	B-AC13	B-AC14	B-AC15	B-AC16	B-DC1	B-DC2	B-DC3	B-DC4	B-DC5	B-DC6	B-DC7	B-DC8	B-DC9	B-DC10	B-DC11	B-DC12	B-DC13	B-DC14	B-DC15	B-DC16	B-Ph1	B-Ph2	B-Ph3	B-Ph4	B-Ph5	B-Ph6	B-Ph7	B-Ph8	B-Ph9	B-Ph10	B-Ph11	B-Ph12	B-Ph13	B-Ph14	B-Ph15	B-Ph16	aux-1	digaux	

1869.584	1	1	0	512	0.19154	0.19604	0.22535	0.1281	0.18247	0.23064	0.03846	0.20901	0.0888	0.24848	0.18993	0.14806	0.1647	0.37936	0.0084534	0.15534	-0.9875	-1.2667	-1.8813	-1.3292	-1.5229	-1.8604	-1.3167	-2.0979	-1.6208	-1.2146	-2.1604	-1.2188	-1.8292	-1.9188	-1.0958	-2.1729	309.762	315.304	355.603	471.389	183.504	348.191	138.931	473.590	172.604	273.394	378.598	142.376	472.203	441.355	377.442	456.277	0.001701	0.0003457	0.00010145	437.69	3.0647e-06	9.2903e-07	508.14	173.9	3.4654e-06	2.7969e-06	227.65	89.682	70.023	39.586	2.6548e-06	46.805	0.00015708	0.0001403	3.7871e-05	398.9	1.563e-06	1.51e-06	461.25	159.17	1.4835e-06	1.4797e-06	203.86	80.403	63.516	35.941	1.4971e-06	41.931	433.299	232.718	288.857	143.587	491.931	330.955	141.675	149.957	271.532	263.290	145.439	149.923	154.710	158.953	297.267	153.187	-8191	255	
1869.704	1	1	0	0	0.31461	0.070699	0.23597	0.12198	0.21913	0.18904	0.070546	0.18602	0.16684	0.10426	0.23202	0.040423	0.17286	0.18811	0.25704	0.18221	-1.0771	-1.3208	-2.1375	-1.2188	-1.4708	-1.8333	-0.98542	-1.9396	-1.6833	-1.2208	-2.0021	-1.35	-1.6729	-2.0604	-1.175	-2.0771	215.342	141.799	315.311	373.432	269.537	260.879	139.634	318.333	164.087	187.483	397.491	296.278	440.131	206.344	365.272	171.276	0.001454	0.00045996	4.1838e-05	440.49	4.5003e-06	2.2602e-06	516.37	176.08	6.1096e-06	2.9246e-06	227.78	90.731	69.933	39.87	6.2443e-06	46.833	0.00015903	0.00013411	3.857e-05	400.09	1.5032e-06	1.5196e-06	466.56	160.14	1.4749e-06	1.4994e-06	204.83	80.973	63.509	36.157	1.5025e-06	42.025	436.098	184.021	242.312	143.754	232.006	218.565	141.717	149.796	256.837	239.965	144.779	149.821	154.395	158.474	248.323	152.308	-8191	255	
1869.800	1	1	0	0	0.10484	0.27467	0.16465	0.042292	0.24472	0.06173	0.090393	0.27371	0.13241	0.15432	0.035558	0.067714	0.31437	0.25895	0.1143	0.12962	-1.4396	-1.1625	-1.9792	-1.4333	-1.4875	-2.0125	-1.1583	-1.9813	-1.7625	-1.2021	-2.0104	-1.5792	-1.525	-2.2979	-1.2604	-1.8417	449.982	154.742	260.819	431.569	332.243	395.770	480.861	244.511	407.764	276.446	368.144	398.382	461.777	464.138	257.645	419.283	0.0018437	0.00038763	0.00024401	437.27	4.041e-06	3.5083e-06	508.63	175.53	3.4387e-06	6.2397e-06	223.88	89.709	69.735	39.385	6.5203e-06	46.187	0.00015771	0.00013491	3.8062e-05	399.31	1.5207e-06	1.4757e-06	461.9	159.14	1.5282e-06	1.4269e-06	202.53	80.021	63.376	35.784	1.4802e-06	41.306	422.685	139.251	213.804	143.837	214.735	300.250	140.708	148.991	265.555	255.177	145.262	149.416	154.046	158.178	213.889	152.218	-8191	255	
1869.872	1	1	0	0	0.18191	0.15249	0.1741	0.17755	0.047461	0.21033	0.13223	0.17504	0.23142	0.046191	0.11009	0.2209	0.26326	0.14554	0.22572	0.31452	-1.5708	-1.0979	-1.8813	-1.5021	-1.2771	-2.1604	-1.5292	-1.8458	-1.8937	-1.0688	-1.8729	-1.6521	-1.3021	-2.0792	-1.2938	-1.6812	441.173	238.528	146.877	380.175	411.114	390.496	292.728	171.435	479.506	313.472	153.519	456.137	434.207	379.087	463.764	397.330	0.0015953	0.00041903	0.00021441	433.51	7.17e-06	1.9298e-06	504.03	174.01	8.7624e-06	2.8138e-06	222.5	88.854	69.46	39.336	3.373e-06	45.984	0.00015553	0.00013552	3.7401e-05	396.5	1.4892e-06	1.4877e-06	455.4	157.98	1.479e-06	1.4663e-06	200.08	79.147	62.76	35.702	1.5094e-06	41.157	434.028	167.256	184.305	143.462	268.748	426.283	141.034	149.718	238.523	320.000	145.252	148.921	154.210	158.214	268.531	152.571	-8191	255	
1869.968	1	1	0	0	0.10363	0.29391	0.13646	0.13075	0.19957	0.23062	0.23594	0.091912	0.072857	0.34257	0.32416	0.13954	0.093349	0.28988	0.18741	0.15311	-1.4917	-1.15	-1.8729	-1.6229	-1.125	-1.9625	-1.375	-1.7125	-2.0771	-1.2854	-1.8625	-1.8875	-1.0125	-2.1417	-1.4312	-1.6292	429.788	170.256	140.192	290.069	338.907	429.960	454.063	304.754	412.896	190.421	448.642	437.343	278.753	410.667	333.204	262.552	0.0014501	0.00030306	0.0001943	433.57	1.8528e-06	2.0464e-07	504.25	171.78	2.5611e-06	2.1723e-06	227.03	90.103	70.557	39.535	4.1064e-06	46.461	0.0001543	0.00013685	3.8732e-05	397.51	1.4697e-06	1.4394e-06	458.93	157.99	1.4809e-06	1.4865e-06	203.12	80.106	63.368	36.02	1.5005e-06	41.735	433.292	440.649	198.263	143.559	292.754	449.666	140.780	149.591	141.851	259.147	144.824	149.483	153.741	157.926	294.470	152.383	-8191	255	
1870.089	1	1	0	0	0.11832	0.15639	0.050727	0.14751	0.03619	0.24653	0.28797	0.13561	0.17065	0.11991	0.23349	0.061289	0.18632	0.16788	0.28682	0.23938	-1.7729	-1.175	-1.7396	-1.8229	-1.0583	-1.9479	-1.4042	-1.3229	-2.0687	-1.1229	-1.8229	-1.7958	-1.25	-2.1771	-1.3604	-1.1313	295.717	371.129	346.920	396.552	390.654	347.195	140.008	169.502	284.374	189.531	317.364	167.530	449.247	242.788	161.214	132.003	0.0016308	0.00019973	9.5752e-05	440.23	3.6195e-06	6.6177e-06	516.64	176.32	2.7276e-06	7.908e-06	230.09	91.3	70.777	40.069	5.2121e-06	47.292	0.00015821	0.00013856	3.7854e-05	401.13	1.508e-06	1.5071e-06	468.54	160.54	1.5371e-06	1.4924e-06	206.42	81.456	64.053	36.428	1.519e-06	42.533	431.704	224.025	196.628	143.315	313.015	291.874	141.120	148.902	319.012	283.592	144.859	149.664	153.658	158.266	234.991	152.307	-8191	255	
1870.183	1	1	0	0	0.17617	0.1335	0.11948	0.109	0.19924	0.28511	0.27726	0.21929	0.069308	0.35953	0.046185	0.24361	0.40228	0.34798	0.12707	0.31589	-1.6375	-1.2563	-1.6729	-1.7958	-1.05	-1.7917	-1.6396	-1.2979	-1.9979	-1.3792	-1.5604	-1.85	-1.3896	-1.8438	-1.5375	-1.3396	474.650	269.183	306.117	447.974	479.631	472.076	439.860	428.494	315.987	392.682	388.389	132.861	448.466	466.656	251.696	452.725	0.0015003	0.00035593	2.2698e-05	437.31	3.448e-06	4.1568e-06	518.26	174.67	7.7653e-06	2.8933e-06	227.54	91.555	70.387	39.947	4.5828e-06	46.828	0.00015734	0.00013794	3.9121e-05	402.37	1.4804e-06	1.5575e-06	471.28	160.21	1.5525e-06	1.5213e-06	205.96	81.658	63.7	36.36	1.5648e-06	42.083	432.345	300.754	253.642	142.707	215.559	287.686	140.762	149.190	258.372	337.538	145.094	149.338	153.736	158.248	267.428	152.123	-8191	255	
1870.281	1	1	0	0	0.14137	0.36551	0.2025	0.14047	0.084925	0.34071	0.1748	0.05519	0.22636	0.12198	0.066308	0.16999	0.23143	0.24711	0.097343	0.22225	-1.8021	-1.0896	-1.5604	-1.9104	-1.1396	-1.9083	-1.9542	-1.1542	-1.8917	-1.4083	-1.4396	-2.0583	-1.0771	-2.0687	-1.7396	-1.075	218.803	359.546	391.019	178.471	139.149	299.284	450.162	175.497	253.741	475.619	345.003	434.042	434.113	463.719	288.424	236.557	0.0018425	0.00045594	5.9313e-05	433.46	1.8564e-06	3.803e-06	505.72	171.9	3.4533e-06	7.9682e-06	221.7	89.162	69.359	39.177	5.0346e-06	45.688	0.00015606	0.00013586	3.8063e-05	398.12	1.4679e-06	1.5184e-06	456.59	157.54	1.5189e-06	1.5038e-06	200.26	79.432	62.887	35.716	1.5361e-06	41.055	437.116	238.756	174.238	143.780	291.796	274.396	141.123	148.905	239.757	275.250	144.967	149.526	153.707	158.211	204.237	152.221	-8191	255	
1870.376	1	1	0	0	0.068935	0.11416	0.20861	0.2757	0.27985	0.15913	0.12974	0.50007	0.13056	0.068632	0.094362	0.10552	0.28316	0.20075	0.10762	0.16577	-1.7854	-1.4208	-1.1688	-2.0896	-1.1958	-1.5938	-1.8021	-1.1146	-1.8937	-1.3479	-1.5271	-2.0104	-1.2792	-1.8021	-1.9708	-1.3438	202.172	179.513	165.336	157.064	434.570	482.383	461.636	388.821	135.159	345.921	268.460	273.190	231.724	449.110	198.219	382.141	0.0016788	0.00036527	9.25e-05	431.85	1.8277e-06	3.8082e-06	493.52	170.1	8.3828e-07	3.4973e-06	217.77	86.723	68.607	39.139	4.6804e-06	44.723	0.00015812	0.00013614	3.836e-05	395.5	1.4997e-06	1.5286e-06	450.85	155.43	1.5381e-06	1.5098e-06	195.29	77.666	62.034	35.427	1.5633e-06	40.189	433.719	238.874	231.691	143.526	220.662	411.157	140.936	148.817	401.924	327.157	145.200	149.614	153.542	158.144	355.126	152.244	-8191	255	
1870.496	1	1	0	0	0.19601	0.14899	0.099468	0.2608	0.074759	0.03272	0.16587	0.19506	0.11434	0.023234	0.095927	0.15305	0.22196	0.31277	0.082133	0.15084	-1.6021	-1.5583	-0.98125	-1.9208	-1.3979	-1.4854	-1.9813	-1.1875	-2.025	-1.4021	-1.1167	-2.1375	-1.2687	-1.6917	-2.1229	-1.1375	403.477	460.666	160.083	162.832	174.222	205.881	216.382	425.130	158.289	462.703	401.260	484.292	197.955	412.563	192.052	289.030	0.0014081	0.00052272	9.1003e-05	436.25	2.7478e-06	9.0134e-06	497.15	169.52	6.1114e-06	5.2847e-06	215.85	87.285	67.568	38.571	3.9467e-06	44.919	0.00015858	0.00013408	3.7073e-05	396.11	1.498e-06	1.4777e-06	450.77	154.78	1.472e-06	1.4838e-06	195.18	77.85	61.492	35.113	1.5267e-06	40.433	438.758	204.737	231.908	143.113	223.808	300.147	140.637	148.780	246.183	308.230	144.483	149.066	153.453	158.713	282.460	152.463	-8191	255	
1870.568	1	1	0	0	0.1341	0.1295	0.27931	0.09431	0.075042	0.22633	0.064492	0.11379	0.097184	0.17658	0.26291	0.091831	0.21269	0.29007	0.22071	0.19575	-1.4771	-1.7021	-1.1375	-2.0292	-1.4958	-1.4854	-2.1813	-1.1333	-1.6875	-1.8104	-1.0667	-2.0812	-1.4604	-1.4188	-1.9833	-1.2583	471.755	216.335	310.120	420.044	200.755	429.744	154.577	165.123	233.689	405.806	312.426	265.807	399.113	483.189	284.990	324.725	0.0016937	0.00057792	4.9424e-05	430.55	4.4631e-06	2.3918e-06	495.71	168.41	1.918e-06	3.1689e-06	216.85	87.662	67.561	38.862	3.6843e-06	45.471	0.00015644	0.00013385	3.6575e-05	393.97	1.4491e-06	1.4565e-06	452.4	154.08	1.5162e-06	1.4989e-06	196.15	78.208	61.533	35.263	1.5207e-06	40.831	428.247	237.040	401.636	143.286	291.971	471.133	140.536	148.752	278.772	251.881	144.710	149.518	153.445	158.561	239.006	152.128	-8191	255	
1870.664	1	1	0	0	0.10761	0.14953	0.18388	0.22302	0.35903	0.2389	0.43793	0.27856	0.069829	0.16779	0.2655	0.2392	0.33912	0.11454	0.11314	0.16442	-1.2792	-1.7708	-1.1292	-1.8833	-1.4917	-1.3417	-2.0625	-1.3375	-1.5521	-1.7313	-1.1333	-1.8729	-1.65	-1.5042	-2.0854	-1.4167	405.178	314.891	276.323	221.809	393.857	344.331	442.773	411.225	320.621	402.568	470.568	455.982	259.909	295.798	477.341	132.819	0.0016046	0.00029336	0.00010007	431.01	4.0731e-06	7.3562e-06	497.51	169.26	5.0021e-06	4.5094e-06	215.72	86.211	67.7	38.822	1.323e-05	44.854	0.00015553	0.00013772	3.8212e-05	395.55	1.5128e-06	1.5026e-06	451.05	153.86	1.5089e-06	1.5111e-06	194.21	77.34	61.428	35.253	1.5426e-06	40.428	427.933	226.820	335.957	143.352	268.086	271.597	140.938	149.146	212.181	300.581	144.896	149.465	153.969	158.400	254.233	152.278	-8191	255	
1870.785	1	1	0	0	0.39388	0.26915	0.082399	0.23196	0.18468	0.17082	0.17246	0.0046209	0.049553	0.058932	0.040816	0.20878	0.17897	0.34804	0.05049	0.15605	-0.91875	-1.7167	-1.1042	-1.7	-1.6437	-1.0812	-2.0938	-1.5187	-1.3833	-1.9479	-1.2146	-1.7604	-1.8229	-1.3208	-2.0208	-1.5792	300.264	176.927	167.665	460.549	302.287	419.238	455.196	205.374	243.093	320.259	326.769	217.751	446.290	190.160	438.093	412.638	0.0016053	0.00068638	6.6822e-05	430.56	8.1143e-07	1.9052e-06	492.08	168.7	3.434e-06	4.2192e-06	214.73	86.849	68.386	38.933	8.5255e-06	45.13	0.00015665	0.00013596	3.8588e-05	393.1	1.4923e-06	1.48e-06	446.6	153.74	1.4851e-06	1.5262e-06	194.18	77.631	61.643	35.217	1.5182e-06	40.487	430.194	178.524	188.366	143.204	346.583	278.676	141.097	148.982	298.569	284.986	144.441	149.645	153.897	158.033	304.303	152.098	-8191	255	
1870.881	1	1	0	0	0.12248	0.042495	0.12682	0.2001	0.11995	0.070463	0.29337	0.23164	0.19473	0.45636	0.30238	0.20748	0.28741	0.15911	0.12091	0.13531	-1.0229	-1.9146	-1.1562	-1.7	-1.7146	-1.3083	-1.95	-1.6562	-1.3396	-2.075	-1.3021	-1.7521	-1.9813	-1.2875	-1.8917	-1.55	225.300	199.055	179.817	273.350	452.342	366.233	378.579	443.555	371.690	218.109	434.571	402.591	468.734	451.450	207.749	465.322	0.0015967	0.00033541	8.8436e-05	435.08	1.3354e-06	2.2832e-06	497.9	169.61	1.6764e-06	5.8001e-06	219.78	88.136	68.638	38.936	4.2004e-06	46.045	0.00015218	0.00013397	3.8208e-05	396.5	1.4599e-06	1.4594e-06	452.9	154.7	1.5138e-06	1.5177e-06	197.58	78.815	62.161	35.456	1.5461e-06	41.279	431.072	187.224	204.858	143.412	143.632	250.258	140.935	148.608	261.016	302.741	144.619	149.413	153.370	158.146	244.052	152.260	-8191	255	
1870.977	1	1	0	0	0.073556	0.15004	0.054237	0.3538	0.10733	0.27672	0.08605	0.51522	0.15924	0.22035	0.25374	0.39857	0.28856	0.20781	0.16846	0.27781	-0.86458	-2.1896	-1.0792	-1.6812	-1.9375	-1.2083	-1.9312	-1.7229	-1.1042	-2.1271	-1.25	-1.55	-2.0292	-1.2521	-2.0021	-1.9542	358.993	472.617	232.044	423.645	351.320	158.954	292.100	430.118	479.665	338.997	424.149	404.557	470.800	396.454	240.601	395.613	0.0014742	0.00038121	0.00010574	434.7	3.0666e-06	3.2692e-06	505.05	171.04	8.7143e-06	4.1078e-07	222.49	89.502	68.969	39.526	5.9238e-06	46.792	0.00015472	0.00013565	3.765e-05	398.78	1.5052e-06	1.4556e-06	460.16	155.64	1.5163e-06	1.5198e-06	200.56	80.088	62.469	35.837	1.5373e-06	42.114	428.596	135.405	163.003	143.157	287.347	195.491	140.991	148.932	223.189	399.300	145.133	149.098	153.818	158.566	253.858	152.107	-8191	255	
1871.073	1	1	0	0	0.29385	0.22517	0.21877	0.44604	0.28296	0.316	0.40772	0.21976	0.16595	0.27865	0.24057	0.057611	0.10596	0.20012	0.12665	0.24988	-0.85417	-2.1	-1.3542	-1.5917	-2.1437	-1.1375	-1.8792	-1.8979	-1.1646	-2.0042	-1.5583	-1.4625	-2.1188	-1.2208	-1.7729	-1.8687	456.256	144.701	140.679	489.499	260.405	190.067	408.894	410.488	350.514	363.203	490.403	175.274	199.434	482.432	220.848	383.131	0.0016771	0.00078504	1.5938e-05	439.5	1.9483e-06	1.9707e-07	511.59	170.42	6.0307e-06	6.9615e-06	221.12	89.513	68.735	39.181	1.036e-05	46.041	0.00015704	0.00014042	3.7952e-05	401.17	1.5195e-06	1.5091e-06	465.06	155.69	1.466e-06	1.4946e-06	200.02	79.855	62.344	35.599	1.5037e-06	41.25	435.588	141.328	467.629	143.561	203.266	227.164	140.901	148.885	205.523	278.610	144.944	149.169	153.867	157.989	287.550	152.012	-8191	255	
1871.169	1	1	0	0	0.14936	0.22549	0.083852	0.22021	0.13302	0.048644	0.043391	0.33929	0.16221	0.20779	0.29748	0.45569	0.086861	0.085574	0.060657	0.26553	-0.65	-1.9708	-1.5271	-1.5521	-2.1125	-1.1875	-1.7938	-1.9167	-1.2625	-1.9167	-1.6458	-1.3875	-2.2062	-1.4771	-1.6146	-2.0417	470.791	478.321	273.140	144.007	433.012	252.885	134.275	416.329	280.786	167.220	459.259	424.054	186.448	163.072	213.392	264.234	0.0016875	0.00016806	0.00010737	433.86	1.9671e-06	7e-06	493.41	169.06	3.3912e-06	3.2096e-06	216.24	86.698	67.609	38.676	4.5254e-06	44.707	0.00015289	0.00013284	3.7083e-05	395.53	1.4911e-06	1.4399e-06	446.13	153.33	1.4682e-06	1.4771e-06	193.65	77.301	61.252	35.014	1.4824e-06	40.304	431.963	165.243	241.646	143.272	223.338	303.335	141.395	149.058	262.880	298.685	144.720	149.678	153.710	158.071	298.063	152.621	-8191	255	
1871.265	1	1	0	0	0.11896	0.22474	0.35128	0.24098	0.13106	0.15142	0.30642	0.12571	0.12926	0.22477	0.078674	0.17006	0.081884	0.24282	0.3247	0.13438	-0.77292	-1.8646	-1.6125	-1.2938	-2.2292	-1.3312	-1.6875	-2.0042	-1.2083	-1.7604	-1.8042	-1.2188	-2.175	-1.3458	-1.4688	-2.2167	452.583	340.048	230.604	439.313	327.772	168.925	418.096	475.514	233.702	418.448	475.836	262.023	455.385	147.503	242.267	458.424	0.0016418	0.00044128	3.2814e-05	431.64	2.9078e-06	1.3236e-06	492.36	168.01	6.7136e-06	3.7893e-06	214.2	87.149	68.329	38.776	6.4415e-06	45.813	0.00015107	0.00013515	3.6936e-05	392.71	1.447e-06	1.4689e-06	445.35	153.25	1.4632e-06	1.4558e-06	194.07	77.781	61.845	35.214	1.4566e-06	41.02	437.992	172.879	223.342	142.984	252.172	274.492	141.172	149.013	270.205	210.201	144.738	149.177	153.961	158.237	266.230	152.015	-8191	255	
1871.384	1	1	0	0	0.18142	0.13812	0.032182	0.066182	0.053178	0.22286	0.27761	0.30561	0.1864	0.30105	0.17182	0.29426	0.19182	0.10263	0.18978	0.20045	-0.61875	-1.8583	-1.8292	-1.2396	-1.9958	-1.6063	-1.5292	-2.1021	-1.1646	-1.8792	-1.8937	-1.2667	-2.0708	-1.6896	-1.4562	-2.2354	355.473	466.046	354.434	306.466	466.722	180.548	418.047	453.595	487.471	440.888	254.834	375.768	202.485	423.265	484.948	471.746	0.0015522	0.00031671	0.00014509	432.12	3.1711e-06	3.0215e-06	504.38	171.04	3.8801e-06	8.9032e-07	221.01	88.822	68.704	39.13	4.7873e-06	46.662	0.00014821	0.00013171	3.5439e-05	395.49	1.4604e-06	1.4396e-06	456.37	155.52	1.4579e-06	1.4659e-06	199.05	79.49	62.129	35.457	1.4852e-06	41.742	431.050	205.015	133.477	143.588	298.923	284.155	141.050	149.165	215.042	305.349	144.928	149.569	153.736	158.254	195.368	152.333	-8191	255	
1871.480	1	1	0	0	0.16554	0.061057	0.17182	0.19982	0.20698	0.16813	0.14166	0.032449	0.18283	0.24792	0.0962	0.055079	0.27369	0.37188	0.21428	0.25279	-0.975	-1.6396	-1.7354	-1.1458	-1.8479	-1.4438	-1.1333	-2.1667	-1.1333	-1.7167	-1.9833	-1.1333	-1.9667	-1.9625	-1.3167	-2.1729	457.093	304.443	333.173	350.566	390.873	385.447	369.655	347.076	248.415	326.944	212.071	192.831	469.422	424.850	273.621	451.753	0.0016523	0.00024639	8.5464e-05	438.23	4.356e-06	2.3249e-06	519.54	170.64	1.2595e-06	4.3622e-06	224.4	90.163	68.831	39.267	3.076e-06	46.973	0.00015379	0.00013623	3.7046e-05	399.01	1.4925e-06	1.4341e-06	466.29	155.64	1.4854e-06	1.4613e-06	201.79	80.419	62.425	35.706	1.4785e-06	42.242	436.606	237.262	164.111	143.360	311.680	321.739	140.738	148.924	180.039	301.106	145.021	149.291	153.781	158.195	302.966	152.373	-8191	255	
1871.577	1	1	0	0	0.25392	0.11946	0.085003	0.11439	0.15168	0.057005	0.099563	0.14489	0.32591	0.26445	0.069948	0.19853	0.28117	0.2658	0.18051	0.29324	-0.88958	-1.4875	-1.8417	-1.3354	-1.8417	-1.8333	-1.2875	-2.1542	-1.4312	-1.4208	-1.8896	-1.1667	-1.8125	-1.7563	-1.2333	-2.2479	145.542	198.355	461.915	148.301	399.436	304.907	232.197	140.522	365.526	300.437	375.641	185.706	230.479	457.217	153.768	383.914	0.0017383	0.00022552	9.4282e-05	433.19	4.3964e-06	5.5642e-06	511.32	169.77	4.9207e-06	4.1194e-06	221.14	89.093	68.244	39.176	5.1221e-06	46.306	0.00015447	0.00013445	3.7288e-05	398.72	1.4837e-06	1.4563e-06	459.83	154.95	1.4661e-06	1.4743e-06	199.73	79.581	62.048	35.516	1.4689e-06	41.482	433.157	454.195	232.859	142.954	271.666	222.204	141.201	148.943	189.019	288.331	145.339	149.683	153.727	158.170	277.785	152.328	-8191	255	
1871.673	1	1	0	0	0.106	0.17135	0.11955	0.27473	0.089221	0.26494	0.36654	0.13239	0.17379	0.18301	0.084821	0.072857	0.29089	0.21091	0.22427	0.23587	-1.1	-1.1354	-2.0521	-1.2479	-1.8292	-1.9083	-1.2563	-2.2229	-1.4583	-1.3875	-1.9937	-1.0792	-1.6354	-1.9854	-1.1896	-1.9562	466.240	324.380	470.193	374.102	464.031	422.219	364.756	153.289	434.326	146.365	419.326	350.994	377.349	453.588	369.757	458.101	0.0017133	0.00045679	0.00010398	431.61	4.1282e-06	7.2357e-06	502.48	169.21	3.6765e-06	4.3208e-06	219.95	89.359	69.101	39.293	9.0402e-07	46.671	0.0001507	0.0001335	3.6018e-05	394.87	1.4613e-06	1.4195e-06	455.74	154.83	1.4338e-06	1.4701e-06	198.48	79.562	62.471	35.625	1.4594e-06	41.764	431.008	196.445	199.523	143.240	256.360	288.116	140.763	149.155	244.319	242.878	145.046	149.534	153.612	158.286	306.028	152.313	-8191	255	
1871.793	1	1	0	0	0.15811	0.059648	0.053554	0.18633	0.16663	0.13103	0.22998	0.44319	0.095954	0.23431	0.17333	0.37153	0.25973	0.12822	0.20954	0.11405	-1.2292	-1.3271	-1.9792	-1.2792	-1.6354	-2.2021	-1.2354	-2.0438	-1.4813	-1.3417	-2.1375	-1.5271	-1.4083	-2.0312	-1.0083	-2.0021	453.053	424.874	232.551	415.509	342.326	335.302	243.733	462.449	463.669	243.041	398.883	480.486	473.521	385.819	393.751	441.242	0.0014344	0.00023014	0.00016599	435.67	2.593e-06	4.7805e-06	505.82	171.12	2.7185e-06	2.5118e-06	224.75	90.081	69.734	39.567	5.7473e-06	47.096	0.00015226	0.00013576	3.7329e-05	396.66	1.464e-06	1.4463e-06	458.83	156.18	1.4593e-06	1.4868e-06	201.56	80.728	63.111	35.992	1.484e-06	42.351	425.838	171.486	454.387	143.000	295.405	264.361	141.159	149.105	197.228	255.238	145.140	149.084	154.132	158.218	255.683	152.101	-8191	255	
1871.865	1	1	0	0	0.14179	0.21319	0.30742	0.13859	0.21175	0.13051	0.12864	0.094447	0.23973	0.32253	0.056833	0.097971	0.083547	0.12356	0.059213	0.24515	-1.3021	-1.1958	-1.8292	-1.3021	-1.25	-1.9813	-1.275	-1.8771	-1.675	-1.1313	-2.1188	-1.5792	-1.2583	-2.1479	-1.2521	-1.7812	419.854	384.923	419.631	440.641	231.016	182.108	330.144	468.173	246.339	238.298	170.662	257.358	481.873	156.839	234.305	374.408	0.0019246	0.00073999	7.7844e-05	434.21	4.7663e-06	2.8589e-06	510.17	171.63	6.8382e-06	2.3217e-06	227.88	91.377	69.561	39.674	4.1829e-06	48.364	0.00015904	0.00013497	3.8126e-05	398.04	1.4649e-06	1.4982e-06	464.97	156.81	1.511e-06	1.4998e-06	204.78	81.612	63.128	36.084	1.5018e-06	43.139	430.535	206.119	256.398	142.849	233.121	383.838	141.250	149.033	239.106	411.926	144.930	149.362	154.241	158.223	292.180	152.938	-8191	255	
1871.961	1	1	0	0	0.077644	0.11589	0.069161	0.043045	0.24569	0.15072	0.5118	0.11232	0.24283	0.12261	0.19368	0.25566	0.21226	0.13443	0.19429	0.10257	-1.4542	-1.0354	-1.9479	-1.5917	-1.3833	-2.0208	-1.2146	-1.5604	-1.9396	-1.0708	-2.0604	-1.8396	-1.2396	-1.975	-1.2687	-1.5875	490.535	327.449	368.235	357.444	434.010	431.123	392.554	420.579	464.961	151.622	162.973	172.154	168.510	132.338	417.837	381.334	0.0015795	0.00061117	0.00011779	440.02	4.4591e-06	5.4906e-06	512.7	171.37	3.8266e-06	4.489e-06	225.7	90.447	69.501	39.477	1.6955e-06	47.132	0.00015395	0.00013468	3.7637e-05	400.34	1.5227e-06	1.5129e-06	464.67	156.46	1.4884e-06	1.4041e-06	203.39	81.021	62.89	35.886	1.4532e-06	42.344	429.694	203.438	180.163	142.832	206.989	275.572	141.142	149.195	258.802	273.635	145.143	149.508	154.142	158.228	229.152	152.699	-8191	255	
1872.057	1	1	0	0	0.28445	0.19196	0.22276	0.043574	0.15712	0.18187	0.24905	0.29564	0.1454	0.12053	0.25227	0.25774	0.32754	0.3583	0.1175	0.30947	-1.3792	-1.1729	-1.7687	-1.6771	-1.0104	-2.15	-1.425	-1.675	-2.0979	-1.175	-1.9333	-1.7563	-1.3146	-2.0104	-1.4021	-1.2958	316.504	168.793	284.722	425.941	141.635	176.852	167.614	210.926	447.189	381.198	389.297	475.233	415.141	430.209	175.218	476.841	0.0015316	0.00035044	5.4527e-05	432.86	1.0628e-06	2.4407e-06	503.63	169.35	5.4418e-06	2.7438e-06	219.86	89.18	69.244	39.26	4.5142e-06	46.69	0.00015248	0.00013423	3.7483e-05	394.66	1.4613e-06	1.475e-06	455.02	154.82	1.4816e-06	1.4543e-06	198.75	79.455	62.266	35.62	1.4751e-06	41.953	436.441	194.797	294.851	143.298	418.731	250.477	140.942	148.961	282.026	182.191	145.015	149.821	153.823	158.130	308.686	152.520	-8191	255	
1872.176	1	1	0	0	0.4008	0.01826	0.15749	0.1285	0.13989	0.18096	0.18052	0.27794	0.18474	0.14864	0.086197	0.17964	0.097961	0.22304	0.13171	0.24182	-1.6313	-1.1833	-1.7271	-1.9562	-1.1458	-2.0583	-1.4458	-1.2979	-1.8833	-1.2125	-1.6479	-1.8	-1.0542	-2.1208	-1.5125	-1.5063	156.789	452.735	223.264	385.648	212.923	399.065	409.876	152.583	344.536	250.754	363.608	424.029	479.808	432.949	330.223	151.728	0.0019205	0.00073637	8.2246e-05	431.13	4.2279e-06	4.5378e-06	502.39	170.09	4.0499e-06	3.9011e-06	222.52	89.149	68.802	39.247	4.5912e-06	46.958	0.000152	0.00013067	3.6128e-05	393.88	1.4391e-06	1.4648e-06	454.7	155.11	1.4795e-06	1.4502e-06	200.75	79.874	62.318	35.707	1.4639e-06	42.135	431.139	147.469	136.478	143.516	228.656	327.511	140.686	149.240	227.129	286.182	145.215	149.338	153.974	158.360	294.854	152.692	-8191	255	
1872.272	1	1	0	0	0.21576	0.11664	0.17496	0.032659	0.044873	0.1569	0.15363	0.057116	0.33472	0.20797	0.23671	0.43897	0.18891	0.057581	0.029592	0.18835	-1.6979	-1.1063	-1.6854	-1.9583	-0.89792	-1.7812	-1.6646	-1.1	-1.9979	-1.4271	-1.6458	-1.8896	-1.0458	-1.8729	-1.6792	-1.15	231.075	314.655	486.260	420.211	420.783	204.662	325.051	162.035	390.496	307.077	316.644	438.720	265.130	422.094	387.471	187.834	0.0016295	0.00028027	0.00013478	435.83	2.5425e-06	4.0457e-06	509.73	171.43	5.6621e-06	2.9987e-06	224.51	90.502	68.737	39.85	1.9835e-06	48.107	0.00015463	0.00013301	3.6634e-05	396.97	1.4371e-06	1.4973e-06	461.02	156.22	1.4846e-06	1.4281e-06	202.67	80.949	62.84	36.02	1.4528e-06	42.927	432.043	183.574	255.298	143.572	273.122	264.466	140.787	149.312	230.156	396.565	144.974	149.971	153.527	158.270	427.182	152.930	-8191	255	
1872.368	1	1	0	0	0.35206	0.11072	0.047115	0.19354	0.088349	0.056819	0.16515	0.3659	0.19199	0.16091	0.15102	0.13878	0.38035	0.14878	0.12775	0.078044	-1.7396	-1.2	-1.3625	-2.025	-1.0333	-1.6625	-1.6375	-1.1854	-1.95	-1.325	-1.2021	-2.1646	-1.1792	-1.7625	-1.7062	-1.175	299.393	446.457	174.926	183.373	351.937	151.610	462.849	411.978	403.078	161.399	360.524	162.028	141.298	139.687	214.012	370.420	0.0015278	0.00016308	0.0002023	441.54	3.5561e-06	5.9387e-06	513.21	172.3	7.9965e-06	4.3653e-06	229.81	91.736	69.416	39.841	5.187e-06	48.029	0.00015584	0.0001325	3.6738e-05	399.67	1.4821e-06	1.4678e-06	467.32	157.07	1.4972e-06	1.469e-06	205.81	82.231	62.923	36.067	1.4684e-06	43.054	437.303	148.042	271.918	143.234	448.978	283.372	140.889	149.527	268.939	335.375	145.206	149.430	154.173	158.489	200.901	152.654	-8191	255	
1872.465	1	1	0	0	0.16494	0.36305	0.13507	0.050693	0.07681	0.15583	0.2714	0.20115	0.1295	0.2829	0.22537	0.16645	0.13293	0.050501	0.19926	0.2035	-1.6875	-1.5167	-1.3687	-2.125	-1.0896	-1.6792	-1.8854	-1.0042	-1.8729	-1.3438	-1.2313	-2.1708	-1.3979	-1.6187	-1.9833	-1.3687	439.556	430.765	157.524	369.291	191.517	139.207	396.618	248.647	133.132	230.610	141.191	487.488	145.270	244.066	385.599	420.371	0.0018396	0.00028894	4.1071e-05	435.51	7.5418e-07	5.5064e-07	514.98	170.18	4.7566e-06	4.6412e-06	225.29	90.511	68.723	39.082	4.8066e-06	46.906	0.00015969	0.00013683	3.7721e-05	398	1.4771e-06	1.48e-06	463.22	155.15	1.5099e-06	1.4717e-06	201.61	80.79	62.285	35.691	1.4962e-06	42.214	432.746	283.098	268.736	143.207	250.660	271.168	141.015	149.702	221.158	287.415	145.095	149.653	153.836	158.555	245.500	152.559	-8191	255	
1872.561	1	1	0	0	0.016103	0.20742	0.26529	0.1291	0.20084	0.13911	0.32229	0.13851	0.22356	0.086754	0.25154	0.38004	0.2445	0.18572	0.19662	0.24082	-1.6771	-1.5	-1.0708	-2.1521	-1.3521	-1.5167	-1.9625	-1.25	-1.8771	-1.7625	-1.0354	-1.9813	-1.1771	-1.5042	-1.8271	-1.2062	196.112	253.548	453.838	135.383	433.610	325.784	383.872	470.562	292.924	430.356	365.480	480.111	465.520	461.693	464.151	423.668	0.0017051	0.00038353	0.00012887	429.45	4.0887e-06	9.9832e-07	502.95	169.76	3.1674e-06	2.4768e-06	221.96	90.03	68.527	39.396	3.2284e-06	47.563	0.00015605	0.0001337	3.8155e-05	395.89	1.4729e-06	1.5315e-06	456.65	154.52	1.5313e-06	1.4963e-06	200.61	80.452	62.308	35.772	1.5374e-06	42.422	427.800	195.258	214.988	143.514	255.538	222.466	141.393	149.630	264.887	323.038	145.265	149.182	154.183	158.324	246.729	152.636	-8191	255	
1872.657	1	1	0	0	0.30706	0.21061	0.20076	0.187	0.13998	0.39044	0.027771	0.29012	0.23006	0.16906	0.096447	0.10028	0.22978	0.27459	0.10368	0.13981	-1.525	-1.7604	-1.1	-1.9979	-1.3271	-1.3375	-2.1937	-1.1417	-1.7708	-1.9813	-1.0375	-2.05	-1.6187	-1.4917	-2.0021	-1.3146	240.542	227.593	477.387	265.479	291.283	241.447	418.664	483.305	431.169	192.353	165.426	318.001	191.051	470.444	142.306	460.366	0.0017964	0.00024317	9.5725e-05	431.87	6.2247e-06	2.3965e-06	508.5	168.99	2.9116e-06	5.7982e-06	223.92	89.757	68.664	39.12	6.331e-06	47.257	0.00015642	0.00013736	3.8929e-05	396.05	1.4935e-06	1.5042e-06	461.47	154.18	1.5259e-06	1.4944e-06	201.44	80.403	62.269	35.671	1.5404e-06	42.576	429.466	161.820	205.824	143.500	271.643	288.333	141.276	149.627	259.770	236.780	144.996	149.412	154.142	158.480	243.558	152.717	-8191	255	
1872.753	1	1	0	0	0.35267	0.049237	0.27618	0.2657	0.22375	0.23953	0.22781	0.14064	0.33128	0.21103	0.093262	0.26587	0.1477	0.085087	0.026796	0.30305	-1.3604	-2.0208	-1.1187	-2.0042	-1.4771	-1.4188	-2.3854	-1.2313	-1.3146	-1.9333	-1.1875	-2.1042	-1.75	-1.4417	-1.9542	-1.2854	300.003	387.403	275.064	313.279	170.616	385.548	405.603	408.162	229.123	362.224	293.569	437.486	199.010	475.318	376.935	399.006	0.0016702	0.00016298	0.00015165	436.94	1.1871e-06	3.1619e-06	519.69	170.29	2.6815e-06	2.2383e-06	227.82	91.676	68.729	39.437	3.0645e-06	47.893	0.00015919	0.00013752	3.8418e-05	399.32	1.4896e-06	1.4856e-06	469.69	155.52	1.5275e-06	1.5037e-06	204.55	82.119	62.337	35.912	1.5293e-06	43.033	426.984	190.351	285.608	143.383	290.116	304.415	141.010	149.334	271.424	279.059	145.410	149.871	153.822	158.111	175.010	152.350	-8191	255	
1872.874	1	1	0	0	0.19335	0.029121	0.13246	0.22024	0.087255	0.053165	0.13244	0.22246	0.21171	0.20668	0.30179	0.15364	0.12284	0.37841	0.29258	0.15861	-0.94375	-2.0333	-1.2375	-1.8958	-1.8292	-1.3271	-2.1458	-1.2146	-1.3937	-2.1688	-1.1875	-1.7583	-1.9604	-1.1562	-2.0604	-1.5833	264.790	291.738	280.411	475.966	239.163	325.941	369.167	463.181	446.189	485.610	391.580	225.340	412.767	464.737	274.989	140.916	0.0017388	0.00032569	0.00011767	439.23	1.7897e-06	3.3144e-06	516.37	169.59	6.3207e-06	5.0763e-06	224.05	90.326	67.975	39.257	1.5345e-06	47.058	0.00015952	0.00014095	3.8735e-05	399.98	1.5163e-06	1.517e-06	467.01	154.32	1.4996e-06	1.5079e-06	202.18	80.688	61.725	35.585	1.5453e-06	42.263	433.965	139.647	254.164	143.734	205.145	288.681	141.258	149.307	225.761	351.875	145.725	149.854	154.078	158.853	172.976	152.590	-8191	255	
1872.970	1	1	0	0	0.025626	0.08937	0.21898	0.20088	0.15806	0.18188	0.076835	0.28408	0.31512	0.21078	0.051055	0.27998	0.41359	0.37659	0.17648	0.37585	-0.84167	-1.8375	-0.83958	-1.8354	-1.8521	-1.2396	-2.0896	-1.5896	-1.3208	-2.0438	-1.2313	-1.6708	-1.8417	-1.1271	-1.9979	-1.5208	424.172	406.675	313.575	177.529	475.741	412.486	217.981	179.715	326.713	461.124	148.513	470.814	446.122	466.867	301.742	423.112	0.0017343	0.00045527	5.9414e-05	438.28	1.9258e-06	2.1042e-07	501.33	166.3	7.9058e-07	5.6554e-06	218.45	89.005	67.53	38.592	3.5458e-06	46.392	0.00015454	0.00013659	3.7122e-05	397.94	1.5004e-06	1.4746e-06	455.75	151.93	1.4855e-06	1.481e-06	196.96	79.417	61.178	35.126	1.4935e-06	41.675	433.822	274.151	219.349	143.544	259.051	379.658	141.441	149.309	282.283	298.612	144.996	149.958	154.136	158.702	206.931	152.535	-8191	255	
1873.066	1	1	0	0	0.072752	0.070026	0.089893	0.078951	0.11371	0.30813	0.092638	0.060426	0.19627	0.13494	0.43661	0.26368	0.11774	0.37146	0.074656	0.257	-0.625	-1.8979	-1.0146	-1.6958	-1.8271	-1.1271	-1.9958	-1.5042	-1.25	-1.8979	-1.4854	-1.5646	-2.0667	-1.1938	-1.7188	-1.6646	183.830	158.991	210.046	432.388	176.076	413.718	416.612	327.530	316.915	347.088	447.766	344.313	483.110	481.899	434.939	442.863	0.0018309	0.00063561	3.4368e-05	431.99	5.983e-06	2.7874e-06	502.66	166.76	2.5359e-06	1.8618e-06	220.79	89.794	68.357	39.035	4.1578e-06	47.361	0.00015743	0.00013601	3.7627e-05	392.95	1.501e-06	1.5243e-06	456.47	152.53	1.4638e-06	1.5142e-06	199.29	80.358	61.758	35.452	1.4976e-06	42.566	435.296	220.835	472.146	143.440	256.055	309.973	141.519	149.445	252.989	444.359	145.255	149.650	154.070	158.274	268.403	152.514	-8191	255	
1873.162	1	1	0	0	0.22466	0.10476	0.13059	0.20115	0.13372	0.16635	0.27867	0.18646	0.28835	0.08563	0.11529	0.11632	0.13701	0.15179	0.039754	0.16617	-0.57083	-1.975	-1.1479	-1.2708	-2.0292	-1.125	-1.8146	-1.9083	-1.0042	-1.85	-1.5417	-1.4	-2.1312	-1.2333	-1.7021	-1.9312	226.315	457.433	259.712	455.208	251.218	472.877	489.765	303.898	342.894	405.736	460.562	291.355	403.277	319.040	484.805	424.244	0.0015086	0.00060325	5.7502e-06	439.49	6.5528e-07	1.7138e-06	514.15	169.7	1.1712e-06	1.3021e-06	224.47	91.412	68.881	39.254	7.6838e-06	48.638	0.0001525	0.00013981	3.7338e-05	400.03	1.5033e-06	1.4499e-06	465.93	154.2	1.489e-06	1.5004e-06	202.99	81.85	62.334	35.717	1.5334e-06	43.482	428.644	236.060	411.798	143.570	352.196	383.022	141.360	149.552	270.816	398.745	144.890	149.733	154.501	158.254	273.558	152.762	-8191	255	
1873.257	1	1	0	0	0.22537	0.25175	0.055067	0.2979	0.13537	0.10863	0.056509	0.43987	0.14992	0.015876	0.32621	0.17663	0.2045	0.15128	0.11391	0.13756	-0.7625	-1.9688	-1.5292	-1.4083	-2.0604	-1.1458	-1.6708	-1.7521	-0.88125	-1.95	-1.6542	-1.3417	-2.1479	-1.5938	-1.425	-2.0333	468.236	392.885	154.803	417.505	405.021	447.591	207.150	448.448	241.231	440.650	328.601	489.534	157.931	413.603	354.141	360.211	0.0015532	0.00039074	7.4404e-05	438.56	2.8712e-06	3.0433e-06	527.03	170.49	4.7526e-06	3.5231e-06	228.75	92.575	68.837	39.588	4.7857e-06	48.628	0.00015696	0.00013782	3.7503e-05	401.81	1.4939e-06	1.4802e-06	476.63	155.37	1.5275e-06	1.5035e-06	206.01	82.834	62.49	35.824	1.5142e-06	43.57	441.147	162.495	260.828	143.866	211.398	408.559	141.279	149.423	268.102	262.296	145.478	149.693	154.152	158.553	259.281	152.610	-8191	255	
1873.353	1	1	0	0	0.16968	0.28077	0.10867	0.18719	0.072969	0.037585	0.22815	0.2038	0.08308	0.20953	0.1308	0.066504	0.054188	0.41839	0.16456	0.24066	-0.74792	-1.825	-1.7125	-1.1667	-1.9229	-1.1667	-1.575	-2.1167	-1.0708	-1.9271	-1.7271	-1.0104	-2.0729	-1.4833	-1.3417	-2.1458	240.425	473.008	480.487	388.776	440.072	335.421	408.401	478.449	306.675	186.686	440.652	434.693	143.115	473.747	169.119	406.066	0.0017478	0.00036337	7.8968e-05	434.72	1.9998e-06	4.6103e-06	512.95	168.57	4.6114e-06	5.2831e-06	226.06	90.565	68.165	39.045	3.02e-06	47.405	0.00015742	0.00013696	3.7939e-05	398.07	1.4851e-06	1.5065e-06	465.24	154.47	1.4346e-06	1.4701e-06	202.85	81.007	61.971	35.488	1.4552e-06	42.475	431.866	171.600	187.745	143.726	314.297	249.842	141.197	149.272	266.152	226.378	145.308	149.969	154.120	158.486	211.719	152.397	-8191	255	
1873.473	1	1	0	0	0.35343	0.21833	0.27654	0.36369	0.11772	0.069195	0.068994	0.14535	0.30109	0.12034	0.22922	0.21744	0.1007	0.179	0.20752	0.11199	-0.6375	-1.6167	-1.8458	-1.3042	-1.8583	-1.5458	-1.4292	-2.1771	-1.1313	-1.5083	-1.8542	-1.1437	-1.8042	-1.7021	-1.125	-2.1688	154.126	294.663	146.502	460.151	465.203	357.192	305.148	434.135	207.179	362.827	458.164	186.386	267.107	132.207	488.899	480.013	0.0016828	0.00033409	5.4757e-05	433.24	2.4849e-06	5.2939e-06	505.72	168.14	6.1519e-06	3.0968e-06	223.33	89.708	67.964	39.063	3.0151e-06	47.045	0.00015589	0.00013907	3.6686e-05	394.11	1.4904e-06	1.4336e-06	457.5	153.43	1.4381e-06	1.498e-06	200.44	80.285	61.604	35.422	1.4789e-06	42.292	434.696	152.655	276.080	143.507	230.270	317.965	141.623	149.509	223.943	205.675	145.281	149.941	154.387	158.346	262.356	152.629	-8191	255	
1873.569	1	1	0	0	0.32263	0.20025	0.16876	0.10977	0.2796	0.22714	0.29546	0.24557	0.20282	0.23854	0.33571	0.08655	0.10979	0.20245	0.02862	0.27867	-0.82083	-1.5458	-1.7958	-1.0021	-1.7896	-1.575	-1.1833	-2.1125	-1.1229	-1.2875	-1.8917	-1.1646	-1.7437	-1.5333	-1.0917	-2.0792	432.972	214.101	363.771	418.951	446.497	413.741	131.622	381.416	163.800	439.865	488.955	419.471	212.557	383.299	327.309	182.866	0.0017036	0.00014959	0.00019158	432.1	4.2116e-06	3.9691e-06	507.45	167.5	6.5037e-06	8.1838e-06	223.49	90.255	68.193	39.122	6.3017e-06	47.223	0.00015567	0.00013338	3.7595e-05	394.67	1.4612e-06	1.4693e-06	460.1	152.76	1.4757e-06	1.476e-06	200.61	80.576	61.551	35.402	1.496e-06	42.471	433.523	225.901	220.778	143.634	219.018	207.225	141.314	149.542	286.901	260.542	145.126	150.135	154.191	158.769	305.174	152.942	-8191	255	
1873.666	1	1	0	0	0.26184	0.30694	0.20067	0.10379	0.50592	0.033715	0.17014	0.011531	0.28349	0.14023	0.081734	0.1771	0.21373	0.077978	0.2226	0.12651	-0.99583	-1.2625	-2.1437	-1.2521	-1.7396	-1.8062	-1.3083	-1.9688	-1.3375	-1.1979	-2.1188	-1.3563	-1.6437	-1.9521	-1.15	-2.1396	172.829	323.753	352.110	327.562	266.436	176.764	472.510	383.498	302.109	357.160	355.256	306.510	396.319	151.247	275.267	420.825	0.0016585	0.0002365	4.3744e-05	435.44	7.0228e-06	4.94e-06	513.83	168.03	4.1941e-06	4.7892e-06	223.95	90.905	68.653	39.101	6.4269e-06	47.989	0.00015692	0.00013164	3.7225e-05	395.72	1.4936e-06	1.4494e-06	464.17	153.14	1.4835e-06	1.4629e-06	202.26	81.505	61.924	35.552	1.4849e-06	43.176	436.663	163.848	312.776	144.028	218.561	287.239	141.262	149.830	324.427	261.048	145.457	150.215	154.227	158.645	210.889	152.896	-8191	255	
1873.737	1	1	0	0	0.20898	0.20167	0.13333	0.19083	0.033118	0.20057	0.21039	0.15988	0.1304	0.20188	0.10588	0.2798	0.21918	0.22004	0.090811	0.21093	-1.2146	-1.4438	-1.9396	-1.1146	-1.6021	-1.7167	-1.1313	-2.0271	-1.5021	-1.0771	-2.1667	-1.3104	-1.65	-2.0854	-0.99167	-1.9813	456.060	305.477	367.343	457.070	337.551	481.930	454.503	153.095	167.838	340.871	461.223	451.873	411.054	429.708	191.536	411.235	0.0016062	0.0004107	0.00011248	433.17	7.8733e-07	5.1727e-06	510.85	166.98	6.5954e-06	3.976e-06	224.04	90.448	67.571	38.686	5.8877e-06	47.57	0.00015312	0.00013759	3.8083e-05	396.9	1.4613e-06	1.4532e-06	463.4	152.97	1.4462e-06	1.4869e-06	201.29	81.112	61.472	35.284	1.4906e-06	42.712	432.532	200.594	279.172	143.897	292.604	225.553	141.888	149.050	150.948	312.381	145.473	149.866	154.388	158.768	284.964	153.199	-8191	255	
1873.833	1	1	0	0	0.12184	0.14726	0.1494	0.14877	0.2603	0.12293	0.24144	0.22229	0.30709	0.24436	0.24653	0.28666	0.16532	0.3348	0.11674	0.026721	-1.2833	-1.075	-1.9729	-1.15	-1.5083	-1.9813	-1.0854	-1.8458	-1.7167	-1.0438	-2.0292	-1.3917	-1.2083	-2.0438	-1.1271	-1.85	443.215	311.879	165.558	146.718	190.955	205.463	387.962	133.361	480.399	477.493	194.939	191.118	145.758	426.096	435.727	171.348	0.0015245	0.00022749	0.00010252	425.17	4.8582e-06	1.1809e-06	498.64	165.82	6.6562e-06	6.6919e-06	221.71	89.296	67.35	38.846	2.489e-06	47.302	0.00015279	0.00013144	3.7173e-05	391.64	1.4344e-06	1.4483e-06	454.72	151.51	1.4618e-06	1.4052e-06	199.12	79.889	61.017	35.196	1.4238e-06	42.328	429.371	170.946	248.710	143.399	231.343	354.732	141.721	149.104	247.539	318.504	145.176	149.370	154.162	158.621	277.710	153.041	-8191	255	
1873.954	1	1	0	0	0.14264	0.19247	0.2397	0.078107	0.18789	0.27258	0.2148	0.068275	0.10042	0.18622	0.23962	0.19271	0.19455	0.20231	0.37176	0.25017	-1.1333	-0.84792	-1.8417	-1.4542	-1.2479	-1.9375	-1.2146	-1.95	-1.8083	-1.1104	-2.0708	-1.4229	-1.3708	-2.1458	-1.1667	-1.8021	471.248	478.409	308.852	468.386	235.669	490.849	173.396	469.313	377.062	143.267	438.959	477.984	466.314	406.920	336.904	460.157	0.0018617	0.00062226	3.4573e-05	433.85	5.413e-06	9.9834e-07	505.75	166.98	4.3399e-06	5.4958e-06	223.96	89.848	67.909	38.868	7.538e-06	47.785	0.00015445	0.00013345	3.5985e-05	393.07	1.4053e-06	1.4498e-06	457.38	152.1	1.4186e-06	1.4418e-06	200.66	80.445	61.385	35.245	1.4092e-06	42.8	433.526	171.348	212.565	143.678	221.832	438.253	141.083	149.987	246.945	235.092	145.608	149.633	154.543	158.721	227.642	152.969	-8191	255	
1874.050	1	1	0	0	0.16566	0.010665	0.056927	0.29252	0.11302	0.2149	0.060802	0.23694	0.037408	0.31915	0.095262	0.18545	0.16189	0.1632	0.080837	0.09487	-1.6313	-1.175	-2.0312	-1.6167	-1.0063	-1.9937	-1.2313	-1.4417	-2.1167	-0.9875	-2.0563	-1.6688	-1.3021	-2.1896	-1.1604	-1.5583	360.831	362.499	455.898	151.000	256.973	288.131	360.731	399.897	186.312	436.592	471.451	181.280	462.548	427.456	254.034	356.867	0.0014057	0.00065213	0.00019272	432.26	6.6572e-06	5.4157e-06	512.29	168.77	3.9506e-06	2.2698e-06	226.36	92.369	67.679	39.247	1.9653e-06	48.977	0.00014995	0.00012936	3.6274e-05	395.78	1.4763e-06	1.3978e-06	465.56	153.05	1.4249e-06	1.4323e-06	204.21	82.401	61.706	35.659	1.4333e-06	43.914	439.102	185.917	222.466	143.604	211.159	281.275	141.427	149.553	215.060	195.780	145.892	149.790	154.417	158.503	227.024	152.958	-8191	255	
1874.146	1	1	0	0	0.13625	0.14284	0.095191	0.11266	0.34909	0.19519	0.12598	0.091332	0.29438	0.082046	0.20951	0.088023	0.12959	0.25331	0.3283	0.13266	-1.6542	-0.85625	-1.9521	-1.9229	-1	-2.1375	-1.3208	-1.5042	-1.9813	-1.2208	-1.8375	-1.825	-1.1854	-2.1312	-1.5292	-1.4771	348.369	490.522	462.948	322.101	315.691	428.544	432.813	333.803	397.596	389.873	147.074	147.146	440.478	412.064	451.781	337.928	0.0013535	9.3442e-05	0.00014536	433.07	6.9108e-07	1.9674e-07	525.86	169.58	1.286e-06	4.4016e-06	227.76	92.003	68.721	39.221	1.4e-06	48.575	0.00014982	0.00013079	3.6874e-05	398.7	1.4154e-06	1.4308e-06	474.34	154.6	1.4601e-06	1.4565e-06	205.93	82.62	62.064	35.624	1.4431e-06	43.661	425.918	178.563	161.372	143.296	430.933	197.339	141.431	149.426	146.749	266.472	145.811	150.015	154.410	158.300	477.001	153.008	-8191	255	
1874.265	1	1	0	0	0.080946	0.17334	0.11344	0.21233	0.23357	0.044903	0.25091	0.19548	0.12202	0.14154	0.43477	0.045109	0.1847	0.044144	0.038744	0.060738	-1.5542	-1.2167	-1.6271	-1.8062	-1.0729	-2.0438	-1.5271	-1.2938	-2.0292	-1.1354	-1.6958	-1.9688	-1.0979	-2.1208	-1.4625	-1.4875	245.093	229.220	469.364	198.311	371.592	380.334	302.253	479.233	333.422	211.725	436.399	488.585	135.730	216.285	244.866	433.273	0.0016733	0.00038169	0.00010714	433.66	5.0776e-06	4.8955e-06	508.18	166.62	3.4402e-06	6.2556e-07	221.48	90.36	67.773	38.76	4.0349e-06	47.46	0.00014975	0.00012608	3.6674e-05	395.06	1.4058e-06	1.4191e-06	457.93	151.86	1.4485e-06	1.4112e-06	199.46	80.597	61.094	35.232	1.4371e-06	42.523	433.542	206.883	200.099	143.797	172.180	295.689	141.501	149.564	231.634	350.560	145.346	149.998	154.157	158.688	262.894	153.305	-8191	255	
1874.339	1	1	0	0	0.26109	0.28711	0.089092	0.15345	0.15249	0.15367	0.071399	0.34978	0.4557	0.14393	0.14998	0.11376	0.23617	0.036935	0.081928	0.26751	-1.4521	-1.3417	-1.6396	-1.9813	-1.2417	-1.9333	-1.7812	-1.1625	-1.9708	-1.1812	-1.5604	-2.1188	-1.125	-1.9667	-1.6729	-1.2188	349.970	429.345	320.975	434.755	328.132	260.224	461.515	442.958	201.712	340.310	191.074	455.375	450.603	320.602	427.026	482.065	0.0017786	0.0005908	0.00018125	430.29	9.995e-07	3.4946e-06	498.72	166.93	3.8685e-07	5.5528e-06	220.74	89.499	67.279	38.776	7.0047e-06	47.454	0.00015002	0.00012882	3.5295e-05	391.95	1.4125e-06	1.4264e-06	453.09	151.81	1.4334e-06	1.4061e-06	198.84	79.916	60.747	35.067	1.4392e-06	42.363	431.582	179.813	229.932	143.978	149.463	265.630	141.379	149.522	145.502	281.111	145.417	149.797	154.566	158.999	229.446	152.771	-8191	255	
1874.435	1	1	0	0	0.16082	0.099769	0.085795	0.18708	0.18326	0.31067	0.10021	0.036523	0.086716	0.30199	0.20717	0.16826	0.18658	0.13671	0.059291	0.12273	-1.7583	-1.3958	-1.4229	-1.8521	-1.1812	-1.8188	-1.6917	-1.1938	-2.0125	-1.2062	-1.425	-2.0229	-1.1187	-1.7396	-1.6979	-1.2083	251.408	221.197	256.418	440.153	201.404	434.984	358.507	287.747	222.603	467.830	436.604	396.525	441.705	412.716	240.513	190.291	0.0019106	0.00058771	0.00013528	426.96	1.9502e-06	4.1337e-06	504.84	165.06	5.9834e-06	7.0519e-06	219.82	89.859	67.165	38.255	3.8337e-06	47.476	0.00015118	0.00012406	3.634e-05	392.34	1.4287e-06	1.4027e-06	455.68	150.99	1.4199e-06	1.4221e-06	198.74	80.123	60.637	34.912	1.4325e-06	42.379	433.586	161.846	297.300	143.599	396.588	368.635	141.669	149.763	244.656	280.900	145.498	149.944	154.043	158.913	274.893	152.493	-8191	255	
1874.554	1	1	0	0	0.1344	0.026454	0.086085	0.12552	0.087633	0.23732	0.14	0.21442	0.11035	0.057732	0.30137	0.12659	0.038007	0.23107	0.22876	0.37614	-1.4562	-1.3292	-1.0083	-1.9542	-1.0125	-1.5771	-2.0687	-1.1187	-1.9937	-1.375	-1.3396	-1.9167	-1.2958	-1.6146	-1.8792	-1.2104	248.981	393.751	448.051	463.055	149.960	294.836	274.778	439.228	329.467	371.243	151.222	383.812	337.863	484.549	141.895	307.281	0.001557	0.00039995	0.00012408	425.65	3.0058e-06	3.5121e-06	502.97	164.4	2.5334e-06	2.2603e-06	220.93	90.259	67.155	38.582	2.2445e-06	47.716	0.00015058	0.00012911	3.6091e-05	390.07	1.4133e-06	1.442e-06	456.94	150.65	1.4269e-06	1.4056e-06	198.84	80.626	60.807	35.078	1.4556e-06	42.757	431.100	182.285	237.662	143.720	195.577	252.205	141.268	149.333	210.818	293.690	145.698	149.992	154.290	158.960	199.226	153.108	-8191	255	
1874.650	1	1	0	0	0.27728	0.077801	0.22011	0.14529	0.089616	0.087912	0.19275	0.1044	0.2676	0.077801	0.20182	0.32234	0.20603	0.05242	0.1172	0.22748	-1.5354	-1.6979	-1.2333	-2.0229	-1.2833	-1.4875	-1.8792	-1.0583	-1.7646	-1.7979	-1.0604	-2.1021	-1.2792	-1.5771	-1.9542	-1.2792	228.993	220.297	333.035	174.693	140.763	151.860	444.177	149.066	347.749	237.803	441.946	133.291	180.895	260.742	302.336	424.509	0.0016187	0.00059499	0.0001724	431.15	2.0488e-06	3.821e-06	505.55	164.36	4.644e-06	1.2113e-06	218.49	89.621	66.546	38.435	7.7399e-06	46.818	0.00015336	0.00013214	3.5579e-05	392.05	1.417e-06	1.4151e-06	455.51	149.72	1.458e-06	1.4098e-06	197.59	79.951	60.186	34.75	1.4812e-06	42.045	436.832	193.524	164.346	143.610	243.095	233.530	141.152	149.711	250.420	291.441	145.578	150.267	154.344	158.757	289.347	153.348	-8191	255	
1874.746	1	1	0	0	0.19376	0.12195	0.1193	0.40097	0.12757	0.25489	0.24696	0.17239	0.10082	0.0056116	0.14967	0.20143	0.084219	0.24448	0.052073	0.41222	-1.2104	-1.7313	-0.77917	-1.9208	-1.3146	-1.2958	-1.9875	-1.1792	-1.5833	-1.9792	-0.98542	-2.0229	-1.6812	-1.1458	-2.0812	-1.2687	453.167	305.123	412.311	403.566	337.795	146.594	470.365	373.405	453.501	391.176	300.893	385.575	222.712	440.451	318.973	463.244	0.0016793	0.00054662	5.2167e-05	425.69	1.2725e-06	4.3532e-06	492.39	162.87	3.8943e-06	1.7426e-06	218.67	88.322	66.153	38.144	4.4473e-06	46.824	0.00014962	0.0001281	3.6195e-05	388.14	1.4117e-06	1.4188e-06	447.82	148.17	1.4238e-06	1.4467e-06	195.86	79.089	59.872	34.712	1.4236e-06	42.057	429.209	230.590	162.016	143.772	174.024	288.855	141.481	149.224	244.249	252.300	145.628	150.468	154.076	159.040	236.765	152.629	-8191	255	
1874.867	1	1	0	0	0.31895	0.021267	0.21909	0.31222	0.18996	0.12074	0.24299	0.17122	0.070797	0.25211	0.20252	0.063118	0.26973	0.48468	0.23879	0.10528	-1.2354	-2.0208	-1.0438	-1.9458	-1.4125	-1.1354	-2.0833	-1.3479	-1.4521	-2.1896	-1.1958	-1.9	-1.6125	-1.3729	-2.075	-1.4646	315.831	489.140	173.451	159.909	160.158	277.535	352.724	396.032	234.177	311.303	420.900	416.001	447.081	213.529	383.395	451.435	0.0017255	0.00032167	6.804e-05	426.84	3.9455e-06	2.821e-06	503.66	164.01	5.3159e-06	6.4633e-06	220.91	90.032	66.651	38.292	5.3858e-06	47.854	0.00015044	0.00012861	3.6428e-05	388.74	1.4453e-06	1.4437e-06	454.31	149.5	1.4675e-06	1.4245e-06	198.27	80.379	60.324	34.819	1.4741e-06	42.802	434.905	486.938	162.122	143.958	253.708	365.533	141.482	149.710	134.939	287.114	145.507	150.173	154.213	158.427	274.366	152.987	-8191	255	
1874.963	1	1	0	0	0.10837	0.071412	0.18896	0.092779	0.13461	0.28669	0.26471	0.23075	0.20108	0.10353	0.29037	0.15941	0.23331	0.26355	0.20959	0.09915	-0.86458	-1.9854	-1.0458	-1.6708	-1.5958	-1.1583	-1.925	-1.4813	-1.2979	-1.9146	-1.2313	-1.7229	-1.9062	-1.5271	-1.9896	-1.5688	258.657	229.874	272.758	260.343	252.742	338.843	444.544	441.928	249.629	358.786	344.538	169.502	471.712	165.408	137.597	351.935	0.0016557	0.00043084	0.00016102	431.5	3.2485e-06	1.3822e-06	509.68	166.34	7.1542e-06	3.1849e-06	223.59	91.74	66.737	38.732	5.1799e-06	48.708	0.00015182	0.00013004	3.6236e-05	392.94	1.4406e-06	1.4387e-06	463.1	151.03	1.4513e-06	1.4647e-06	201.74	81.743	60.78	35.186	1.4855e-06	43.586	425.689	256.540	251.214	144.141	259.413	254.957	141.548	149.362	253.491	249.520	145.730	150.283	154.239	158.706	274.758	153.148	-8191	255	
1875.034	1	1	0	0	0.0080309	0.19108	0.25824	0.12925	0.16274	0.18475	0.2975	0.29979	0.19402	0.076675	0.39691	0.088253	0.2697	0.21323	0.187	0.10368	-0.82292	-2.0958	-1.0625	-1.6833	-1.7896	-0.99167	-2.0375	-1.7021	-1.1688	-1.7625	-1.5312	-1.7812	-2.0208	-1.4188	-1.8458	-1.85	448.655	402.240	439.862	304.352	175.331	229.325	211.175	418.688	364.256	179.080	399.781	304.153	163.671	233.470	480.692	433.014	0.0018718	0.00023848	0.00017214	436.58	3.4272e-06	3.86e-06	519.56	164.8	2.6534e-06	3.6375e-06	225.58	91.885	66.937	38.677	3.8216e-06	48.629	0.00015325	0.00013602	3.6122e-05	397.45	1.4926e-06	1.4621e-06	469.62	150.81	1.505e-06	1.4878e-06	203.32	81.957	60.666	35.061	1.4511e-06	43.366	431.708	148.384	227.227	143.467	220.977	242.523	141.930	149.198	188.769	323.023	145.511	150.375	154.871	158.844	228.382	153.133	-8191	255	
1875.131	1	1	0	0	0.036837	0.17895	0.15948	0.22573	0.20662	0.12817	0.30219	0.063248	0.26799	0.13294	0.30302	0.12039	0.1148	0.19435	0.099141	0.20208	-0.99583	-2.0125	-1.2083	-1.6167	-2.0417	-1.1375	-2.1458	-1.7979	-1.2229	-2.0854	-1.4833	-1.4521	-2.0417	-1.2104	-1.7917	-1.7667	137.221	436.292	411.715	476.478	175.025	150.771	405.491	180.290	413.871	288.441	158.671	397.708	150.093	171.589	158.195	389.302	0.0016586	0.00025577	5.0427e-05	430.63	4.1635e-06	4.8965e-06	507.82	164.09	5.2502e-06	1.7941e-06	219.58	89.914	66.737	38.151	3.4289e-06	47.483	0.00015452	0.0001341	3.6792e-05	393.14	1.4379e-06	1.4446e-06	457.43	149.45	1.4623e-06	1.4295e-06	198.18	80.503	60.255	34.712	1.5102e-06	42.629	430.904	184.036	222.125	143.528	254.840	275.074	141.420	149.394	242.602	349.495	145.460	150.164	154.939	158.722	349.507	152.918	-8191	255	
1875.249	1	1	0	0	0.11772	0.26426	0.093093	0.01702	0.18482	0.053565	0.17721	0.16539	0.24001	0.073583	0.10844	0.15449	0.1738	0.10421	0.068061	0.31141	-0.63333	-1.9333	-1.2167	-1.4521	-2.1021	-1.2	-1.8687	-1.6979	-1.1021	-1.8604	-1.4562	-1.4062	-2.1708	-1.3271	-1.5771	-2.05	197.393	368.045	420.027	396.083	316.831	131.833	387.205	133.508	162.902	158.864	144.685	207.684	177.798	470.086	392.029	445.119	0.0017916	4.8884e-05	0.00012028	428.75	1.5569e-06	5.28e-06	499.59	162.89	8.7633e-07	3.0533e-06	218.88	89.883	66.59	38.333	6.6734e-06	48.006	0.00015191	0.00013489	3.5834e-05	389.07	1.4553e-06	1.4497e-06	452.95	148.58	1.4325e-06	1.4269e-06	197.51	80.172	60.368	34.711	1.4801e-06	42.748	423.726	283.096	266.495	143.334	239.526	326.572	141.400	149.615	244.203	294.849	145.166	150.500	154.521	158.882	240.664	153.213	-8191	255	
1875.346	1	1	0	0	0.23745	0.058888	0.23178	0.3648	0.12451	0.1258	0.056867	0.027696	0.14435	0.27526	0.20888	0.17503	0.27005	0.20122	0.034464	0.16766	-0.71667	-1.9562	-1.4958	-1.2188	-2.1292	-1.1229	-1.5688	-1.9542	-1.0479	-1.7938	-1.6375	-1.2313	-2.0146	-1.3687	-1.5125	-2.1229	227.492	404.952	466.819	341.830	182.590	275.877	243.635	479.225	407.176	389.564	134.513	385.018	453.651	186.895	267.360	339.632	0.0016056	0.00027415	7.5997e-05	427.36	5.3474e-06	2.4869e-06	504.64	162.05	2.4841e-06	6.259e-06	221.79	90.189	67.141	38.328	3.5777e-06	47.909	0.00015151	0.00013363	3.6244e-05	390.42	1.454e-06	1.4027e-06	457.76	148.71	1.4421e-06	1.4611e-06	199.21	80.743	60.36	34.804	1.4789e-06	42.94	432.247	173.166	250.481	143.670	209.170	344.847	141.802	149.662	304.698	329.422	145.518	150.262	154.655	158.819	261.087	152.936	-8191	255	
1875.442	1	1	0	0	0.33726	0.04718	0.25612	0.074961	0.23637	0.18439	0.18246	0.10979	0.34033	0.15415	0.10183	0.13467	0.17734	0.12608	0.17128	0.087771	-0.8	-1.7708	-1.7083	-1.1833	-2.15	-1.2979	-1.4833	-1.9937	-1.1437	-1.7042	-1.8604	-1.2	-1.9667	-1.4708	-1.2729	-2.2167	209.768	317.136	472.397	316.844	232.995	431.621	149.646	380.343	429.970	300.082	399.576	459.027	132.910	460.033	277.726	219.801	0.0016783	0.00017744	0.00016882	430.14	5.1716e-06	5.0392e-06	513.97	163.28	3.3125e-06	3.3078e-06	224.42	92.158	67.263	38.471	6.6153e-06	48.731	0.00015032	0.00013319	3.6316e-05	393.3	1.4321e-06	1.453e-06	464.96	149.62	1.4002e-06	1.5144e-06	201.62	81.88	60.605	34.815	1.4826e-06	43.657	425.039	169.918	186.524	143.603	254.445	300.604	141.443	149.327	218.886	337.614	145.374	150.409	154.457	158.823	335.737	152.942	-8191	255	
1875.538	1	1	0	0	0.14105	0.18449	0.25901	0.14799	0.2771	0.064305	0.13751	0.18184	0.19607	0.12131	0.055868	0.14977	0.088697	0.080882	0.19059	0.25984	-0.71042	-1.6229	-1.6854	-1.2125	-1.9896	-1.5125	-1.2104	-2.0417	-1.1375	-1.7188	-1.8979	-1.1604	-1.9062	-1.5167	-1.0187	-1.9854	215.471	459.894	368.419	365.039	432.753	308.133	320.509	416.561	381.173	451.136	438.090	370.270	360.911	367.866	366.542	467.162	0.0017146	0.00045285	7.6954e-05	430.68	5.152e-06	5.4767e-06	508.39	164.6	3.7412e-06	5.4484e-06	222.7	90.386	66.288	38.327	2.2515e-06	47.965	0.00015178	0.00013367	3.7724e-05	392.68	1.4526e-06	1.4749e-06	462.34	149.51	1.466e-06	1.4611e-06	200.07	81.131	60.277	34.771	1.4606e-06	43.075	432.457	190.458	197.494	143.962	226.731	350.661	141.379	149.858	257.105	248.768	145.597	150.029	154.477	158.900	225.495	153.145	-8191	255	
1875.634	1	1	0	0	0.06113	0.14564	0.19836	0.24105	0.10399	0.1655	0.20783	0.19809	0.1728	0.084199	0.24798	0.25993	0.19854	0.15646	0.16769	0.26196	-0.71458	-1.5521	-1.9438	-1.0167	-1.8563	-1.6562	-1.2479	-2.0458	-1.4062	-1.5	-2.1437	-0.98958	-1.8396	-1.6833	-1.0417	-1.9937	426.096	319.000	452.748	478.071	356.408	224.746	240.384	458.885	443.400	430.250	478.123	431.579	375.432	135.276	473.135	473.614	0.0014654	0.00023516	0.00020539	422.47	4.2605e-06	4.2358e-06	497.05	162.73	3.91e-06	4.1064e-06	219.39	89.745	66.289	38.39	5.0038e-06	47.829	0.00014963	0.00013381	3.663e-05	387.43	1.4798e-06	1.4573e-06	452.45	148.56	1.4705e-06	1.4545e-06	197.45	80.257	60.111	34.668	1.4964e-06	42.759	433.076	166.756	236.547	143.724	270.588	323.341	141.790	149.493	257.968	333.791	145.565	150.191	154.369	158.638	247.239	153.368	-8191	255	
1875.730	1	1	0	0	0.10456	0.18807	0.053358	0.18767	0.13245	0.11128	0.082013	0.19428	0.17718	0.1647	0.092289	0.30915	0.25628	0.41841	0.097272	0.34527	-0.94792	-1.1187	-1.875	-1.0812	-1.6542	-1.5333	-1.1479	-2.0229	-1.1562	-1.4188	-2.1625	-1.1375	-1.6688	-1.9479	-1.1125	-1.9	188.594	230.856	421.376	486.880	412.565	378.534	415.757	465.762	366.664	366.869	251.541	468.227	434.018	433.571	437.748	449.453	0.0015648	0.00052239	0.00011745	423.95	5.5352e-06	7.7781e-06	504.52	163.14	4.571e-06	2.293e-06	221.41	90.367	66.527	38.537	3.4121e-06	48.262	0.0001566	0.00013534	3.7075e-05	388.19	1.4831e-06	1.4598e-06	457.26	148.55	1.5087e-06	1.4737e-06	200.05	81.07	60.273	34.916	1.4612e-06	43.342	428.615	212.385	254.991	143.978	265.323	363.435	141.070	149.232	254.541	300.225	145.867	150.114	154.122	158.710	263.761	153.035	-8191	255	
1875.826	1	1	0	0	0.22421	0.19043	0.12976	0.17131	0.20277	0.078942	0.18379	0.19253	0.12563	0.15653	0.18097	0.1357	0.28985	0.073974	0.1548	0.12876	-1.2354	-1.0979	-2.1167	-1.2104	-1.6208	-1.825	-1.3625	-1.8813	-1.5271	-1.2313	-2.1354	-1.4417	-1.6437	-1.9813	-1.0312	-1.8625	401.053	324.060	136.959	411.295	136.514	250.957	343.721	152.048	302.648	439.585	206.448	415.369	140.764	340.226	203.972	222.725	0.0017802	0.00045737	0.0001033	429.06	3.789e-06	4.6528e-06	514.24	163.41	1.6262e-06	2.7479e-06	226.38	92.214	67.335	38.842	1.7758e-06	49.333	0.00015559	0.00013483	3.8746e-05	391.93	1.4633e-06	1.4966e-06	466.88	149.84	1.4955e-06	1.4913e-06	204.08	82.482	60.828	35.261	1.5277e-06	44.235	431.589	181.760	213.244	143.628	318.507	354.422	141.688	149.849	414.074	284.399	145.500	149.865	154.344	158.201	185.415	152.633	-8191	255	
1875.947	1	1	0	0	0.047385	0.077131	0.044001	0.355	0.11222	0.074294	0.33796	0.1012	0.15749	0.032642	0.19862	0.13392	0.22876	0.23913	0.25039	0.1182	-1.0792	-1.2083	-2.0583	-1.5125	-1.3292	-1.9125	-1.0375	-1.8563	-1.7479	-1.3542	-2.0458	-1.4208	-1.5083	-2.2229	-1.1646	-1.8833	138.030	304.853	422.373	424.618	188.831	136.982	439.438	474.527	288.235	393.079	423.499	315.343	161.887	426.052	176.049	327.937	0.001837	0.00037468	8.0142e-05	432.07	5.0914e-06	8.4629e-07	520.58	163.4	4.698e-07	3.3778e-06	225.56	91.408	67.188	38.376	3.0513e-06	48.896	0.00015794	0.0001374	3.8214e-05	396.04	1.5327e-06	1.5004e-06	471.62	150.1	1.5027e-06	1.5076e-06	203.72	82.305	60.475	34.891	1.4937e-06	43.826	431.652	152.692	136.673	143.192	239.145	402.889	141.109	149.112	477.122	263.313	145.480	149.942	154.347	158.691	472.200	152.903	-8191	255	
1876.043	1	1	0	0	0.11653	0.15841	0.20609	0.2183	0.21366	0.16861	0.2122	0.14161	0.11312	0.07573	0.22835	0.29568	0.41208	0.15785	0.074697	0.1444	-1.3708	-1.05	-2.0687	-1.3146	-1.4542	-2.2146	-1.1854	-1.8521	-1.6708	-1.2	-2.1292	-1.6313	-1.3813	-2.0187	-1.1167	-1.6208	481.799	360.775	332.265	441.350	342.850	376.616	163.165	480.146	350.222	359.541	228.943	489.055	476.309	148.517	463.465	466.380	0.001725	0.00029748	4.5229e-05	427.07	3.9346e-06	4.1196e-06	501.65	162.31	1.727e-06	1.6195e-06	220.85	89.612	65.643	37.745	6.0889e-06	47.589	0.00015626	0.00013666	3.8187e-05	390.58	1.4778e-06	1.4974e-06	457.46	148.47	1.4839e-06	1.4619e-06	198.99	80.254	59.738	34.465	1.4873e-06	42.783	436.304	189.266	421.917	143.737	249.391	203.508	141.486	149.555	240.853	279.211	144.852	149.832	153.836	158.218	264.430	152.933	-8191	255	
1876.139	1	1	0	0	0.20528	0.16979	0.25908	0.24351	0.030642	0.20921	0.286	0.23787	0.042367	0.3036	0.14904	0.13676	0.08854	0.23943	0.17715	0.17912	-1.4083	-0.96667	-1.8667	-1.5688	-1.0479	-2.1562	-1.1521	-1.7792	-1.7292	-1.1729	-1.8312	-1.5625	-1.3	-2.1688	-1.2125	-1.4562	341.692	404.939	417.881	450.166	170.833	490.109	413.335	463.673	328.813	443.339	198.378	480.250	459.707	481.626	388.421	423.651	0.0017255	3.2918e-05	0.00011156	420.17	5.5687e-06	3.0467e-06	498.55	161.6	1.2209e-06	5.4855e-06	219.54	88.62	66.136	38.201	6.4772e-06	47.384	0.00015549	0.00013764	3.7245e-05	385.93	1.4567e-06	1.4688e-06	452.15	146.99	1.4678e-06	1.4351e-06	197.3	79.593	59.555	34.459	1.4592e-06	42.586	431.206	172.208	453.057	143.700	227.789	174.211	141.150	149.388	293.458	219.532	145.451	150.124	154.377	158.496	223.448	152.954	-8191	255	
1876.235	1	1	0	0	0.40587	0.21132	0.19626	0.2817	0.22462	0.039415	0.069026	0.20247	0.20517	0.48224	0.11838	0.18807	0.23611	0.28623	0.30282	0.21441	-1.6729	-1.225	-1.7563	-1.6542	-1.2646	-2.0083	-1.2708	-1.4562	-2.0771	-1.1646	-1.8229	-1.7583	-1.1938	-2.1312	-1.3917	-1.4062	167.588	195.749	453.771	435.838	303.095	251.961	264.509	453.802	132.008	178.596	315.276	451.948	297.160	414.604	475.395	270.260	0.0016055	0.00048191	0.00013192	421.83	5.0046e-06	2.2144e-06	501.76	160.69	5.5735e-06	7.6552e-06	220.24	89.465	65.672	37.768	3.2578e-06	47.752	0.00015359	0.00013209	3.7453e-05	386.66	1.447e-06	1.4559e-06	455.17	146.91	1.4664e-06	1.4931e-06	197.89	80.014	59.368	34.307	1.4528e-06	42.822	430.804	167.913	140.142	143.584	193.026	156.209	141.073	149.331	206.071	297.574	145.616	149.847	153.925	158.932	307.761	152.825	-8191	255	
1876.330	1	1	0	0	0.23089	0.16887	0.23649	0.15468	0.10591	0.22228	0.25477	0.16796	0.19523	0.29008	0.066905	0.079135	0.095915	0.11504	0.032626	0.1547	-1.7542	-1.2729	-1.6208	-1.9396	-0.91875	-1.8729	-1.6083	-1.3667	-2.0333	-1.1896	-1.5938	-1.9229	-1.0854	-2.0062	-1.4604	-1.4354	319.339	273.219	152.140	475.248	346.876	345.174	209.198	395.051	218.192	357.220	214.505	241.517	175.093	370.974	158.963	283.285	0.0017072	0.00031708	0.00018208	424.78	6.0556e-06	4.7675e-06	509.52	162.2	4.7872e-06	8.5407e-07	221.01	90.266	65.588	37.815	2.6024e-06	47.982	0.00015254	0.00013263	3.8325e-05	389.67	1.4503e-06	1.4854e-06	462.65	147.22	1.4798e-06	1.4695e-06	199.92	80.793	59.564	34.392	1.4447e-06	43.343	428.910	139.714	190.428	143.165	227.613	297.233	141.457	149.514	240.767	291.568	145.871	149.680	154.145	158.733	239.906	153.197	-8191	255	
1876.426	1	1	0	0	0.16389	0.18408	0.21412	0.20649	0.13016	0.13148	0.35388	0.048744	0.11036	0.29496	0.12541	0.31585	0.14417	0.20367	0.19469	0.19195	-1.8396	-1.2375	-1.4521	-2.0771	-1.075	-2.0563	-1.7583	-1.1083	-2.0396	-1.3687	-1.4542	-1.9813	-1.0958	-1.8167	-1.6042	-1.2125	336.272	363.578	299.231	147.237	173.969	220.358	174.842	376.567	182.874	379.256	438.094	435.275	389.752	424.641	236.387	439.696	0.001759	0.00058063	9.1025e-05	426.46	4.1226e-06	5.8204e-06	504.82	159.78	2.5081e-06	3.4607e-06	221.21	89.959	64.915	37.687	9.0725e-06	47.32	0.00015499	0.00013353	3.827e-05	389.49	1.463e-06	1.4569e-06	459.29	146.64	1.4711e-06	1.4689e-06	198.82	80.331	58.957	34.177	1.4905e-06	42.634	429.138	208.719	207.975	143.637	225.341	310.768	141.650	149.776	261.479	338.509	145.938	150.005	154.043	158.460	240.340	153.182	-8191	255	
1876.547	1	1	0	0	0.14059	0.23101	0.18593	0.13188	0.048866	0.077685	0.16956	0.34808	0.19237	0.088076	0.22291	0.082393	0.25498	0.49007	0.13574	0.17016	-1.7938	-1.5187	-1.3583	-2.025	-1.0688	-1.6812	-1.9729	-1.125	-1.8458	-1.6021	-1.4458	-2.0271	-1.2604	-1.7208	-1.9771	-1.3292	410.447	376.003	141.566	173.085	135.491	184.452	306.453	437.027	432.563	321.802	143.472	396.124	162.908	446.000	245.000	238.206	0.0018573	0.00026874	0.0001146	422.17	4.2515e-06	2.1422e-06	498.99	158.62	5.6924e-06	3.5472e-06	216.77	88.582	65.069	37.653	4.9204e-06	46.912	0.00015305	0.0001333	3.7129e-05	386.05	1.4423e-06	1.4696e-06	451.23	145.14	1.4877e-06	1.4516e-06	195.08	79.08	58.612	34.093	1.4699e-06	42.227	434.921	175.425	132.870	143.360	185.148	286.099	141.291	148.932	227.214	266.884	145.867	149.890	153.862	158.579	252.124	152.901	-8191	255	
1876.643	1	1	0	0	0.15611	0.1393	0.14581	0.085607	0.23933	0.023042	0.29411	0.070609	0.096086	0.19951	0.22554	0.19107	0.28897	0.061561	0.12763	0.24694	-1.5021	-1.3937	-1.2729	-2.0604	-1.1354	-1.5354	-1.9542	-1.1625	-2.05	-1.4479	-1.0542	-2.1229	-1.2458	-1.6521	-1.9312	-1.1354	220.713	361.383	386.242	137.822	313.566	403.980	449.466	322.771	357.967	210.449	463.120	172.911	356.171	237.856	404.310	442.424	0.0015234	0.00046752	6.594e-05	422.57	5.9014e-06	3.1428e-06	497.49	159.3	1.5651e-06	1.6864e-06	217.25	88.67	64.357	37.28	5.9162e-06	47.248	0.00015389	0.0001329	3.7205e-05	385.04	1.4598e-06	1.4815e-06	451.55	145.59	1.4598e-06	1.4688e-06	195.32	79.32	58.348	33.859	1.5023e-06	42.183	433.218	213.093	263.905	143.169	209.675	256.895	141.184	149.154	289.083	275.672	145.318	150.385	154.014	158.660	285.482	152.278	-8191	255	
1876.739	1	1	0	0	0.033052	0.22612	0.14693	0.039742	0.20632	0.085671	0.30492	0.16817	0.084642	0.25064	0.066186	0.25766	0.22155	0.19878	0.20391	0.21646	-1.6417	-1.7625	-1.1271	-2.0583	-1.2812	-1.5167	-2.0792	-1.0667	-1.7167	-1.625	-1.2104	-1.9958	-1.2958	-1.4125	-1.9562	-1.3542	384.974	166.959	277.712	452.156	202.162	134.340	454.606	416.757	360.068	444.889	371.759	444.808	344.864	458.494	331.137	432.628	0.0016515	0.00028682	0.00012096	424.63	4.6106e-06	1.452e-06	495.79	159.71	4.612e-06	3.4623e-06	216.3	88.186	64.358	37.008	4.8316e-06	47.176	0.00015226	0.00013623	3.6846e-05	386.21	1.4662e-06	1.4335e-06	452.38	145.12	1.4439e-06	1.4682e-06	195.11	79.047	58.493	33.793	1.4625e-06	42.448	426.764	234.375	250.177	143.521	199.293	256.537	141.202	149.271	252.948	190.573	145.151	150.254	154.161	158.480	219.799	153.081	-8191	255	
1876.835	1	1	0	0	0.087522	0.19057	0.17307	0.15467	0.11072	0.21144	0.12922	0.05991	0.36646	0.19546	0.059993	0.26699	0.069514	0.21629	0.036423	0.15756	-1.2854	-1.6667	-1.0229	-1.8979	-1.4625	-1.5271	-1.9542	-1.3188	-1.5354	-1.75	-1.1562	-2.0979	-1.3917	-1.3563	-2.0583	-1.3604	357.907	234.623	251.896	232.401	386.328	288.972	325.779	441.379	373.356	269.939	425.736	136.970	223.526	412.052	419.155	475.283	0.0015617	0.00031664	8.4294e-06	427.05	2.2405e-06	1.782e-06	510.17	158.31	8.6005e-06	5.0719e-06	218.01	88.098	63.923	37.066	6.6175e-06	47.188	0.0001549	0.00013241	3.6625e-05	388.66	1.475e-06	1.4672e-06	458.65	144.52	1.4268e-06	1.4694e-06	195.59	79.127	58.128	33.68	1.4393e-06	42.234	428.360	213.016	239.603	143.380	251.508	340.530	141.141	149.417	258.578	269.668	145.468	150.053	154.210	158.879	279.200	152.654	-8191	255	
1876.931	1	1	0	0	0.13759	0.32716	0.30907	0.22604	0.1471	0.12797	0.3938	0.16177	0.15938	0.34832	0.13157	0.14202	0.30565	0.28207	0.20011	0.16033	-1.0958	-1.8687	-0.97083	-1.7563	-1.5958	-1.0833	-2.0771	-1.3729	-1.3813	-1.9854	-1.1229	-1.7708	-1.775	-1.2437	-1.9062	-1.575	422.819	477.292	451.471	150.988	391.697	225.161	402.783	425.938	255.794	275.158	395.440	326.435	487.463	375.163	223.727	475.651	0.001636	0.00013681	0.00012166	422.78	4.1338e-06	4.9993e-06	492.93	157.18	7.0653e-06	6.6114e-06	214.03	86.871	63.502	36.575	3.26e-06	45.904	0.00015331	0.00013299	3.7262e-05	385.87	1.4509e-06	1.4371e-06	448.82	143.28	1.4827e-06	1.4237e-06	192.32	77.893	57.454	33.231	1.439e-06	41.309	433.775	291.713	217.062	143.566	243.044	303.025	141.261	149.346	219.788	274.893	145.584	150.186	154.263	158.351	314.551	152.699	-8191	255	
1877.027	1	1	0	0	0.15381	0.17295	0.19698	0.35656	0.037914	0.09815	0.20885	0.20856	0.11395	0.32885	0.40408	0.18226	0.069873	0.3074	0.21894	0.1525	-0.95	-2.0208	-1.0167	-1.7208	-1.5938	-0.93333	-2.2208	-1.2875	-1.2979	-2.0229	-1.0625	-1.85	-1.7208	-1.1333	-1.775	-1.5104	361.361	204.527	317.408	142.308	482.406	301.860	411.722	419.712	169.655	211.015	450.741	488.952	409.587	132.408	480.146	146.543	0.0015751	0.00020659	6.5282e-05	418.75	1.4751e-06	2.328e-06	494.22	157.63	4.488e-06	4.5312e-06	211.67	87.475	63.459	36.861	5.3557e-06	46.573	0.00014909	0.00012708	3.5979e-05	381.33	1.4309e-06	1.406e-06	446.2	143.06	1.4499e-06	1.4466e-06	191.32	77.854	57.468	33.348	1.4232e-06	41.653	439.855	233.107	275.970	143.672	331.553	361.055	141.261	148.985	261.475	323.369	145.397	150.714	154.144	158.686	275.412	153.350	-8191	255	
1877.124	1	1	0	0	0.19339	0.1219	0.25698	0.1064	0.32608	0.037402	0.34232	0.14531	0.12954	0.089997	0.141	0.29	0.13951	0.183	0.12789	0.4055	-0.78958	-1.8937	-1.0208	-1.6938	-1.7271	-0.96042	-1.9354	-1.4729	-1.1271	-2.0375	-1.2208	-1.6313	-1.9188	-1.15	-1.9167	-1.6417	206.652	381.038	417.478	156.729	220.793	168.239	448.106	372.859	306.272	473.007	491.176	477.055	425.704	148.356	447.356	459.129	0.0015758	0.000154	7.9679e-05	418.15	6.0026e-06	4.9174e-06	497.14	157	1.5288e-06	4.3689e-06	217.65	88.423	64.694	37.118	5.0207e-06	47.289	0.00015184	0.00013299	3.6098e-05	383.82	1.4577e-06	1.4201e-06	453.04	143.37	1.4513e-06	1.4379e-06	194.69	79.124	58.143	33.624	1.4732e-06	42.431	432.131	153.839	179.233	143.525	242.344	268.374	141.022	149.243	207.399	244.626	145.740	150.002	153.801	158.746	233.400	153.122	-8191	255	
1877.220	1	1	0	0	0.30159	0.28192	0.1726	0.041481	0.13312	0.16292	0.11152	0.29137	0.071835	0.3535	0.13159	0.13727	0.26276	0.20421	0.12322	0.074925	-0.77917	-2.2188	-1.2062	-1.6292	-2.0042	-1.1146	-1.8667	-1.6417	-1.275	-2.0708	-1.2646	-1.6021	-2.1375	-1.3042	-1.9646	-2.0229	450.329	256.544	141.493	152.776	467.841	457.240	165.608	144.462	231.217	141.572	490.101	169.495	204.720	277.808	428.528	360.721	0.0015977	0.00050064	0.00011952	426.38	4.4313e-06	2.2342e-06	511.04	158.77	6.0116e-06	3.7631e-06	220.67	89.928	64.527	37.023	4.6724e-06	48.35	0.00014894	0.00013092	3.5704e-05	388.78	1.4061e-06	1.4383e-06	462.41	144.99	1.4258e-06	1.4524e-06	198.26	80.59	58.401	33.771	1.4669e-06	43.232	429.317	214.204	182.032	143.337	269.762	267.016	141.576	149.373	256.003	285.882	145.781	150.235	154.116	158.764	207.166	152.971	-8191	255	
1877.339	1	1	0	0	0.13107	0.21465	0.11292	0.23519	0.12702	0.22767	0.08453	0.14281	0.18657	0.15368	0.095198	0.050433	0.13949	0.16605	0.20755	0.21991	-0.6375	-2.1146	-1.525	-1.3604	-1.9729	-1.0979	-1.7917	-1.7687	-1.0583	-2.0938	-1.3854	-1.2771	-1.9729	-1.2313	-1.6125	-1.9458	281.940	273.396	178.978	479.464	291.110	144.573	162.426	434.111	148.890	333.352	401.669	328.536	169.402	424.266	428.215	419.301	0.0017592	0.00027909	5.5225e-05	424.39	5.9168e-06	6.4705e-06	503.98	158.72	5.0438e-06	2.6825e-06	217.77	89.065	63.691	36.965	5.8797e-06	47.027	0.00015311	0.00013515	3.5943e-05	387.96	1.4603e-06	1.4059e-06	459.42	144.88	1.4257e-06	1.4513e-06	196.33	79.746	57.87	33.547	1.4448e-06	42.19	433.282	227.467	143.081	143.678	218.589	187.527	141.499	149.316	224.579	282.381	145.385	150.061	154.249	158.533	259.243	152.916	-8191	255	
1877.435	1	1	0	0	0.036684	0.12097	0.12838	0.051186	0.072683	0.27758	0.064141	0.19699	0.27055	0.21163	0.14803	0.074134	0.18529	0.16411	0.11184	0.081628	-0.70625	-1.7417	-1.5833	-1.0917	-2.0375	-1.2542	-1.5083	-1.925	-1.0187	-1.8729	-1.6708	-1.1938	-2.0563	-1.3438	-1.4208	-2.0271	390.525	478.163	168.805	394.413	229.706	313.315	222.888	149.124	485.615	336.618	316.418	370.209	475.443	357.991	422.750	192.471	0.0016928	0.00045003	9.5519e-05	417.29	5.5558e-06	4.0213e-06	489.84	156.7	2.0218e-06	1.6027e-07	214.68	87.598	63.483	36.639	4.9244e-06	46.241	0.00014938	0.00013469	3.6483e-05	380.83	1.4188e-06	1.3994e-06	444.95	142.64	1.3847e-06	1.4261e-06	192.14	77.828	57.397	33.185	1.4592e-06	41.55	434.376	255.401	206.110	143.596	232.467	394.738	141.339	149.734	214.719	169.609	145.839	149.960	154.626	158.600	308.758	153.167	-8191	255	
1877.508	1	1	0	0	0.13408	0.28896	0.42463	0.10468	0.18458	0.1122	0.12148	0.039006	0.16092	0.19503	0.33822	0.15415	0.10004	0.16306	0.076684	0.16284	-0.71667	-1.6542	-1.7146	-1.2458	-2.0146	-1.4354	-1.45	-2.0104	-0.96667	-1.7458	-1.9583	-1.0083	-1.9646	-1.5646	-1.3229	-1.8771	335.168	185.303	230.945	160.354	315.791	415.583	172.103	133.180	245.559	329.133	268.935	284.810	455.344	153.818	487.632	430.181	0.0015295	0.00022408	6.1154e-05	422.76	3.2557e-06	4.2875e-06	490.93	155.97	2.8394e-06	1.808e-06	211.73	87.209	63.467	36.57	3.9416e-06	46.543	0.00014651	0.00012937	3.6039e-05	382.36	1.4319e-06	1.4224e-06	446.23	141.99	1.4035e-06	1.3866e-06	191.66	77.749	57.349	33.167	1.427e-06	41.676	433.112	467.971	253.636	143.450	222.360	264.001	141.430	149.337	252.423	258.734	145.874	150.429	154.122	158.379	485.911	153.481	-8191	255	
1877.627	1	1	0	0	0.19733	0.21916	0.12513	0.1496	0.10573	0.33207	0.13829	0.049909	0.26565	0.051835	0.13056	0.073104	0.19406	0.13342	0.10886	0.14553	-0.62708	-1.6625	-1.8979	-1.0771	-1.8792	-1.6167	-1.4146	-2.1167	-1.1938	-1.4438	-2.0396	-1.0875	-1.9875	-1.5021	-1.2729	-2.0438	246.583	281.577	144.457	158.488	362.868	185.262	144.126	431.044	372.467	232.126	347.645	399.305	165.443	164.794	258.673	465.482	0.0014458	0.00017499	0.00014874	420.23	2.5989e-06	5.9978e-06	496.91	155.88	1.8905e-06	3.0659e-06	214.54	87.837	63.902	36.652	5.2987e-06	46.758	0.00014611	0.00012994	3.5361e-05	381.95	1.41e-06	1.4e-06	448.42	142.38	1.3699e-06	1.4036e-06	193.24	78.385	57.566	33.227	1.4352e-06	41.948	429.497	242.817	222.854	143.180	204.638	325.622	141.146	149.898	368.873	267.364	145.546	150.308	154.456	158.593	215.622	152.933	-8191	255	
1877.723	1	1	0	0	0.083882	0.013369	0.13404	0.079295	0.31945	0.068786	0.22378	0.21671	0.15352	0.10953	0.059736	0.19967	0.30172	0.15368	0.25241	0.076917	-0.86875	-1.4646	-1.9062	-1.2271	-1.8104	-1.6708	-1.2208	-2.0396	-1.3042	-1.4833	-1.9375	-1.1167	-1.7729	-1.5771	-1.2375	-2.1	280.293	286.787	182.716	322.994	199.293	388.709	370.584	366.107	312.334	465.252	419.957	415.557	341.977	292.338	435.390	393.724	0.0018639	0.00010751	1.9349e-05	417.23	2.6905e-06	3.0942e-06	500.88	156.25	3.0284e-06	4.2368e-06	215.15	87.313	63.055	36.341	1.0263e-05	46.438	0.00014861	0.00013011	3.6143e-05	382.46	1.4226e-06	1.4326e-06	452.5	142.42	1.4287e-06	1.3936e-06	193.54	78.136	57.107	33.051	1.3997e-06	41.647	437.760	381.257	182.913	144.119	266.360	180.963	141.231	149.298	260.612	271.828	145.572	150.552	154.654	158.354	230.782	153.284	-8191	255	
1877.819	1	1	0	0	0.059369	0.17701	0.04641	0.32541	0.36209	0.0667	0.24086	0.074304	0.12074	0.11911	0.1426	0.25968	0.046248	0.26512	0.21538	0.33166	-0.6875	-1.4458	-1.9917	-1.0667	-1.5521	-2.0125	-1.2292	-2.1542	-1.4125	-1.3646	-2.3042	-1.3208	-1.8375	-2.0396	-1.0458	-2.1042	153.948	326.808	333.715	409.000	450.026	280.003	439.483	135.229	133.653	245.289	236.128	388.377	172.776	471.794	170.502	489.104	0.0016903	0.00020561	0.00011655	416.23	2.7601e-06	3.1788e-06	487.61	154.62	1.9784e-06	2.6795e-06	210.86	85.858	62.287	35.815	6.5433e-06	45.757	0.00015011	0.00012986	3.5277e-05	379.16	1.3675e-06	1.409e-06	442.8	141.13	1.4029e-06	1.3786e-06	189.55	76.66	56.506	32.638	1.4191e-06	40.967	428.568	169.581	190.315	143.581	200.507	301.790	141.550	149.486	359.134	345.920	145.507	149.702	154.491	158.737	238.037	152.714	-8191	255	
1877.915	1	1	0	0	0.11552	0.083709	0.18244	0.15858	0.089386	0.26494	0.32629	0.20644	0.2091	0.011951	0.10137	0.18947	0.21597	0.13576	0.13434	0.18914	-1.0625	-1.2	-1.9208	-1.1833	-1.5063	-1.9417	-1.3396	-2.0021	-1.6167	-1.2583	-2.0917	-1.2958	-1.4042	-1.8563	-1.0312	-1.7833	285.202	388.888	280.185	192.018	157.729	486.237	434.470	402.759	476.845	200.328	469.835	486.187	312.382	383.900	224.913	406.251	0.0016597	0.00021728	6.4339e-05	417.88	7.6336e-06	2.7731e-06	485.12	155.64	4.2143e-06	5.1869e-06	209.75	86.176	62.357	35.892	3.4129e-06	45.524	0.00014724	0.0001289	3.5747e-05	378.99	1.3867e-06	1.3982e-06	440.42	140.69	1.4031e-06	1.4074e-06	188.78	76.578	56.393	32.669	1.4526e-06	41.013	434.084	480.403	217.902	143.203	239.421	242.478	141.403	149.200	270.884	148.908	145.506	150.668	154.663	158.689	206.833	153.029	-8191	255	
1878.036	1	1	0	0	0.23357	0.1187	0.10377	0.068993	0.22975	0.088845	0.30043	0.027323	0.17951	0.23209	0.16869	0.23345	0.1213	0.16434	0.10758	0.14789	-1.1562	-1.1458	-1.9979	-1.5229	-1.3771	-1.9604	-1.0021	-1.9417	-1.7208	-1.0479	-2.0354	-1.3521	-1.2854	-2.0479	-1.2271	-1.6896	219.969	378.554	434.280	155.606	335.158	257.594	237.509	439.577	273.985	327.006	293.409	489.777	380.989	467.804	177.435	219.385	0.0015098	0.00045512	9.8184e-05	417.15	1.2108e-06	2.101e-06	492.82	155.01	1.6665e-06	1.7122e-06	213.47	87.096	62.583	36.356	4.1652e-06	46.724	0.00014914	0.000128	3.5854e-05	380.3	1.4164e-06	1.4058e-06	447.44	141.5	1.4024e-06	1.3869e-06	191.87	77.848	56.802	32.955	1.432e-06	42.006	431.357	200.329	163.175	143.289	199.243	225.451	141.568	149.521	256.630	245.528	145.610	150.434	154.203	158.617	198.464	153.146	-8191	255	
1878.131	1	1	0	0	0.031471	0.29934	0.24595	0.12117	0.028964	0.1697	0.072161	0.16942	0.22168	0.1242	0.090562	0.079038	0.15954	0.015393	0.11493	0.090229	-1.3813	-0.99167	-1.925	-1.4125	-1.3104	-2.2354	-1.2396	-1.6604	-1.7333	-1.1521	-1.9062	-1.5375	-1.1583	-2.0354	-1.1688	-1.6417	256.526	320.233	272.228	428.009	197.322	367.153	376.315	222.028	149.179	361.845	454.066	396.108	363.493	274.748	480.091	264.672	0.00146	6.935e-05	9.5326e-05	422.65	7.1835e-06	2.4927e-06	508.34	156.92	4.8338e-06	2.5647e-06	218.17	88.501	63.322	36.479	5.2723e-06	47.39	0.00014543	0.00012849	3.5938e-05	384.71	1.4133e-06	1.3994e-06	457.55	142.71	1.4448e-06	1.3979e-06	195.75	79.22	57.304	33.119	1.4543e-06	42.498	433.002	140.470	283.514	143.228	273.224	385.727	141.739	149.170	253.744	364.067	145.729	150.444	154.104	158.613	246.582	153.227	-8191	255	
1878.228	1	1	0	0	0.29558	0.10804	0.14772	0.1586	0.17895	0.16479	0.14989	0.365	0.24079	0.21995	0.34187	0.078817	0.13894	0.46236	0.083966	0.27317	-1.3771	-1.1	-1.8104	-1.5979	-1.2083	-2.0083	-1.2104	-1.4792	-1.8896	-1.1979	-1.8854	-1.6896	-1.0833	-2.125	-1.3729	-1.2729	422.188	266.196	459.183	414.804	332.140	246.184	459.040	380.647	234.359	227.164	474.351	479.587	166.630	426.378	167.049	381.819	0.0017586	8.1342e-05	9.6281e-05	419.64	1.8499e-06	2.5691e-06	500.15	155.69	3.806e-06	3.2844e-06	213.05	87.276	62.399	36.18	7.61e-06	46.289	0.00014819	0.00012745	3.6267e-05	383.74	1.4285e-06	1.448e-06	453.12	141.9	1.4238e-06	1.394e-06	192.28	78.114	56.724	32.9	1.4307e-06	41.549	432.344	233.709	481.610	143.225	245.237	268.019	141.281	149.550	272.946	307.101	146.337	150.454	154.730	158.654	243.963	153.481	-8191	255	
1878.323	1	1	0	0	0.032425	0.22329	0.2151	0.35556	0.23092	0.20784	0.20068	0.29317	0.16554	0.29971	0.043497	0.20882	0.18526	0.30549	0.10344	0.26497	-1.5438	-1.0646	-1.7646	-1.6146	-0.9375	-2.0167	-1.3771	-1.2479	-1.9708	-1.2458	-1.7104	-1.8479	-1.175	-2.0604	-1.5625	-1.2229	275.500	388.341	161.267	203.079	378.294	483.064	478.454	175.617	192.010	146.494	481.984	157.171	293.122	472.094	402.460	448.689	0.0016512	0.00071359	0.00018233	416.09	3.2026e-06	5.9244e-06	486.25	154.2	3.1362e-06	4.3681e-06	210.03	85.242	62.537	36.152	8.848e-06	45.896	0.00014907	0.00012709	3.5652e-05	379.56	1.4053e-06	1.4365e-06	443.02	140.54	1.4233e-06	1.3857e-06	189.16	76.536	56.59	32.802	1.4031e-06	41.183	437.892	171.361	243.664	143.477	313.873	323.263	141.855	149.447	220.558	225.337	145.485	150.375	154.507	158.732	261.345	153.331	-8191	255	
1878.419	1	1	0	0	0.20398	0.32194	0.13002	0.27386	0.20594	0.24333	0.13396	0.31222	0.15376	0.072546	0.15039	0.26163	0.063625	0.32848	0.012471	0.09745	-1.6104	-1.0979	-1.65	-1.9167	-0.88542	-2.0687	-1.6729	-1.3208	-2.0271	-0.98125	-1.5833	-1.9458	-1.1354	-1.775	-1.3958	-1.2917	413.775	306.292	396.913	148.606	487.318	132.781	398.598	152.950	419.711	365.762	145.403	394.259	178.470	419.951	343.222	411.362	0.0015006	0.00038864	0.00018842	412.19	8.3486e-07	1.9498e-06	489.51	153.93	2.5667e-06	6.0929e-07	211.15	85.369	62.212	36.07	3.9597e-06	46.049	0.00014973	0.00012644	3.5487e-05	377.08	1.3672e-06	1.4133e-06	441.45	140.19	1.4594e-06	1.3951e-06	189.3	76.835	56.357	32.734	1.4249e-06	41.278	435.040	231.614	204.901	143.341	181.624	227.394	141.572	149.235	307.479	300.055	145.962	150.247	154.550	158.922	189.435	153.173	-8191	255	
1878.515	1	1	0	0	0.23611	0.13295	0.075347	0.23821	0.11401	0.18909	0.13284	0.064357	0.08997	0.49275	0.15163	0.12755	0.11641	0.10307	0.27684	0.20586	-1.7125	-1.1896	-1.4	-1.8896	-0.99583	-1.8021	-1.7083	-1.2062	-2.0687	-1.4021	-1.4167	-2.0292	-1.2021	-1.7271	-1.6396	-1.1979	458.848	469.461	392.601	430.013	420.956	398.451	307.490	397.180	430.277	229.593	405.044	309.963	398.576	185.417	391.161	478.675	0.0017565	0.00032846	9.7576e-05	415.48	8.1593e-07	3.3328e-06	494	154.93	3.2158e-06	2.5046e-06	213.18	86.109	62.879	36.254	5.6291e-06	46.455	0.0001481	0.00012678	3.5686e-05	380.41	1.4018e-06	1.4084e-06	447.14	140.87	1.4648e-06	1.3998e-06	191.2	77.51	56.644	32.856	1.4332e-06	41.896	426.916	220.506	227.466	143.409	318.531	319.978	141.424	149.820	302.248	184.027	145.810	150.079	154.278	158.592	201.873	153.570	-8191	255	
1878.636	1	1	0	0	0.22068	0.38157	0.043812	0.13939	0.20143	0.10139	0.21731	0.18681	0.0047384	0.081875	0.099677	0.1743	0.30846	0.31325	0.15572	0.24623	-1.7229	-1.5187	-1.3708	-2.0292	-1.1	-1.6396	-1.8292	-1.1646	-1.9854	-1.3625	-1.1375	-2.1083	-1.1083	-1.7479	-1.9292	-1.0438	276.612	244.273	369.718	319.791	240.446	210.629	324.285	361.573	141.161	295.315	145.467	396.619	202.635	150.937	141.846	453.566	0.0018552	0.0006887	0.00013146	416.79	1.6009e-06	3.4989e-06	498.28	155.07	3.8052e-06	4.2333e-06	215.63	87.459	62.485	36.046	6.2715e-06	46.577	0.00015337	0.00012782	3.6473e-05	382.58	1.4534e-06	1.4769e-06	451.62	141.51	1.4484e-06	1.4066e-06	193.42	78.569	56.597	32.881	1.4588e-06	41.93	428.158	171.972	215.721	143.071	151.396	362.864	141.664	149.607	290.411	309.264	145.655	150.306	154.118	158.964	303.000	152.969	-8191	255	
1878.732	1	1	0	0	0.13764	0.25319	0.2158	0.26355	0.39876	0.24231	0.093631	0.20487	0.21531	0.15162	0.060291	0.13957	0.19341	0.034027	0.41597	0.20214	-1.5125	-1.6667	-1.2083	-2.125	-1.225	-1.5792	-2.1542	-1.0979	-1.9438	-1.5354	-1.3146	-2.0125	-1.5875	-1.4708	-2.1792	-1.375	185.906	459.562	254.478	470.621	405.202	394.896	340.859	385.140	489.870	473.333	194.530	258.542	465.527	482.546	350.747	386.858	0.0017217	0.00016583	9.405e-05	418.03	2.7822e-07	2.7501e-06	493.75	153.45	1.4883e-06	2.3583e-06	213.71	86.063	62.407	36.17	4.8512e-06	46.041	0.00015081	0.00013027	3.5264e-05	380.65	1.4322e-06	1.4244e-06	447.85	140.35	1.4213e-06	1.4551e-06	191.35	77.385	56.48	32.894	1.4562e-06	41.448	428.583	196.614	191.904	143.789	333.063	315.672	141.247	149.573	283.748	292.743	145.790	149.939	154.248	159.007	271.891	153.347	-8191	255	
1878.804	1	1	0	0	0.18543	0.16942	0.12488	0.11935	0.06388	0.21694	0.090464	0.16275	0.094682	0.19975	0.11336	0.20001	0.077289	0.16538	0.080838	0.12618	-1.5938	-1.7896	-0.9875	-2.0312	-1.3854	-1.3312	-1.9104	-1.2479	-1.7062	-1.9917	-1.2313	-1.9979	-1.5521	-1.5646	-2.0417	-1.4438	168.805	221.861	160.064	485.639	131.583	298.810	461.369	131.916	293.561	289.778	211.382	395.222	463.535	234.112	326.130	143.375	0.0018048	0.00022026	5.8051e-05	416.38	2.8316e-06	7.732e-06	495.14	154.59	4.3749e-06	5.5525e-06	210.3	87.898	62.382	36.263	6.0359e-06	46.396	0.00015268	0.00013324	3.6308e-05	380.21	1.4182e-06	1.452e-06	448.67	141.03	1.4617e-06	1.45e-06	191.71	78.527	56.665	32.911	1.4745e-06	41.785	435.078	154.068	408.980	143.754	311.803	286.349	141.330	149.269	264.980	283.549	146.065	150.320	154.137	158.990	219.423	153.108	-8191	255	
1878.900	1	1	0	0	0.048112	0.31097	0.21413	0.39124	0.21468	0.092938	0.36798	0.26728	0.11473	0.27801	0.29061	0.29082	0.33147	0.10727	0.13709	0.042021	-1.2229	-1.8208	-1.0438	-2.1292	-1.4188	-1.1583	-1.9813	-1.3333	-1.6208	-2.0083	-1.1042	-1.8875	-1.6396	-1.3021	-1.9104	-1.2625	369.824	331.968	307.561	138.132	434.461	284.208	470.721	432.194	390.723	433.785	470.140	407.679	368.284	454.153	407.495	189.182	0.0016883	0.00053415	0.00014523	419.36	3.1492e-06	1.298e-06	499.48	155.32	2.8669e-06	5.212e-06	215.07	87.686	63.004	36.338	4.367e-06	46.658	0.00015042	0.00013373	3.6642e-05	381.37	1.4028e-06	1.4436e-06	450.81	141.62	1.4601e-06	1.4386e-06	194.12	78.582	56.814	33.023	1.4994e-06	42.124	435.668	182.427	207.011	143.839	280.916	338.859	141.804	149.285	227.601	292.313	145.786	150.715	154.533	158.918	268.499	153.193	-8191	255	
1878.996	1	1	0	0	0.19296	0.3149	0.29738	0.11807	0.13938	0.12202	0.1591	0.15931	0.086943	0.35687	0.14527	0.24841	0.15602	0.17643	0.16442	0.10746	-1.0729	-1.8813	-0.97708	-1.9	-1.575	-1.1187	-2.0646	-1.2104	-1.4396	-2.0271	-1.1688	-1.8312	-1.6708	-1.2	-1.8479	-1.3979	275.418	397.915	283.217	235.893	252.127	178.873	480.713	435.369	472.851	341.815	439.001	436.779	483.373	444.540	346.344	474.352	0.0015618	0.0002347	9.6017e-05	421.52	5.6533e-06	3.7792e-06	500.73	155.45	3.0615e-06	5.7201e-06	215.24	88.056	62.952	36.342	9.6208e-06	47	0.00015109	0.00012888	3.6771e-05	383.89	1.448e-06	1.463e-06	455.03	141.74	1.4314e-06	1.4555e-06	194.27	79.011	56.922	32.972	1.4683e-06	42.234	433.567	249.756	206.111	143.244	244.142	235.426	141.890	149.612	230.278	316.740	145.947	150.275	153.991	158.691	277.538	153.132	-8191	255	
1879.116	1	1	0	0	0.20474	0.055458	0.24574	0.26537	0.25499	0.2784	0.14461	0.10679	0.26401	0.020121	0.3992	0.1544	0.26387	0.28905	0.16978	0.18	-0.86458	-1.9958	-1.0208	-1.7229	-1.6604	-1.225	-1.9583	-1.525	-1.4125	-1.8	-1.3333	-1.8042	-1.9604	-1.1396	-1.9937	-1.6083	162.943	197.614	255.976	139.267	390.078	168.597	436.534	158.207	326.261	280.743	486.627	489.267	461.623	446.713	258.005	478.317	0.0017593	0.00031303	9.369e-05	415.14	4.7192e-06	6.7644e-06	498.6	154.53	5.7448e-06	2.534e-06	212.44	86.794	62.421	36.164	6.3161e-06	46.182	0.00015162	0.00013251	3.6535e-05	381.54	1.4771e-06	1.417e-06	451.27	140.49	1.4753e-06	1.4343e-06	191.47	77.605	56.404	32.782	1.447e-06	41.45	433.643	486.498	210.276	143.822	225.272	238.535	141.888	149.477	260.755	404.780	145.358	150.383	154.093	158.761	257.607	153.194	-8191	255	
1879.213	1	1	0	0	0.055502	0.11866	0.14392	0.10397	0.1305	0.05402	0.073463	0.15539	0.59864	0.065349	0.23761	0.041625	0.29346	0.086637	0.098587	0.20379	-0.93333	-2.1063	-1.2521	-1.8021	-1.8937	-0.96667	-2.0229	-1.6979	-1.4333	-2.1583	-1.3917	-1.3563	-2.1354	-1.1437	-1.9312	-1.8312	223.738	317.991	328.976	383.355	183.075	453.445	479.381	353.233	464.549	352.357	432.076	421.798	173.722	212.900	406.314	472.214	0.0017173	0.00039206	0.00016591	414.28	3.4551e-06	3.5682e-06	483.43	152.39	3.947e-06	6.572e-06	211.04	85.5	61.61	35.687	6.3244e-06	45.617	0.00014845	0.0001337	3.6356e-05	378.61	1.4361e-06	1.4206e-06	442.2	138.95	1.4373e-06	1.4502e-06	189.21	76.556	55.794	32.405	1.4728e-06	41.02	435.183	238.645	194.957	143.583	251.527	256.237	141.401	149.231	215.752	279.219	146.014	150.514	154.348	158.896	308.093	152.958	-8191	255	
1879.309	1	1	0	0	0.1314	0.13876	0.32655	0.03965	0.18587	0.22052	0.078363	0.093964	0.18531	0.026406	0.39076	0.35175	0.29995	0.23955	0.12061	0.40684	-0.65833	-2.075	-1.2271	-1.3521	-1.9917	-1.0583	-1.9229	-1.7521	-1.1187	-1.9813	-1.4062	-1.3438	-2.225	-1.0729	-1.6958	-1.8771	348.949	138.783	217.872	345.423	437.969	159.237	461.123	415.687	373.212	484.234	460.405	150.921	443.890	417.883	230.389	442.249	0.0015468	0.00019869	0.00016755	416.39	4.7193e-06	3.5529e-06	493.12	154.25	4.4426e-06	5.6775e-06	211.3	86.458	62.123	36.08	4.8221e-06	46.426	0.00015019	0.00012775	3.565e-05	378.83	1.4198e-06	1.4086e-06	445	139.79	1.4246e-06	1.433e-06	189.78	77.259	56.162	32.613	1.4472e-06	41.671	429.718	254.782	206.015	143.427	227.714	246.030	141.605	149.396	251.629	346.037	145.880	150.623	154.466	158.664	290.947	153.218	-8191	255	
1879.403	1	1	0	0	0.26645	0.13896	0.12232	0.15155	0.1883	0.2299	0.073477	0.10179	0.18067	0.15828	0.19713	0.22646	0.10326	0.1864	0.23564	0.046875	-0.84583	-1.9	-1.2792	-1.2313	-2.0917	-1.2125	-1.725	-1.7958	-1.1812	-2.0625	-1.4937	-1.2771	-2.1625	-1.3292	-1.5021	-2.1083	229.964	373.970	350.473	486.999	329.354	335.179	205.504	442.722	394.630	287.782	154.391	402.337	173.168	449.538	327.094	373.491	0.0015418	0.00040241	3.8389e-05	419.07	3.958e-06	3.5417e-06	502.99	154.21	8.3782e-07	4.2875e-06	213.69	87.733	62.183	36.163	4.8578e-06	47.063	0.00014983	0.00013157	3.65e-05	383.02	1.4518e-06	1.4759e-06	455.33	140.83	1.4704e-06	1.4825e-06	193.74	78.785	56.636	32.807	1.4643e-06	42.347	437.142	166.376	321.798	143.554	215.006	265.173	141.940	149.342	444.103	254.238	146.072	150.351	154.476	158.669	188.205	153.346	-8191	255	
#DATA ENDS
