BOXY.EXE: ISS Imagent and Oximeter Data Acquisition Program Version 0.80
Ascii Record File

#ACQ INFORMATION
3  Detector Channels 
8  External MUX Channels 
1  Auxiliary Channels 
5000  Waveform (CCF) Frequency (Hz)
1  Waveforms Skipped 
48  Waveforms Averaged 
2  Cycles Averaged 
16  Acquisitions per Waveform 
6.3776  Updata Rate (Hz) 

#FILE INFORMATION
TRUE -- External MUX Channel results are PARSED.
FALSE -- AC DC and Phase are NOT grouped.
TRUE -- Companion Program Settings File CREATED.
FALSE -- AC data not excluded
FALSE -- DC data not excluded
FALSE -- Phase data not excluded
FALSE -- Auxillary Chn. data not excluded
Tab delimiters

#CALIBRATION STATE
FALSE -- Waveform Calibration Values NOT applied.


#AUX CALIBRATION VALUES
Val Type	aux-1	

Term	1.0000e+00	
Factor	0.0000e+00	


#WF CALIBRATION VALUES
A = Detector Channel
Val Type	A-AC1	A-AC2	A-AC3	A-AC4	A-AC5	A-AC6	A-AC7	A-AC8	A-DC1	A-DC2	A-DC3	A-DC4	A-DC5	A-DC6	A-DC7	A-DC8	A-Ph1	A-Ph2	A-Ph3	A-Ph4	A-Ph5	A-Ph6	A-Ph7	A-Ph8	

Term	0.00000e+00	0.00000e+00	0.00000e+00	0.00000e+00	0.00000e+00	0.00000e+00	0.00000e+00	0.00000e+00	0.00000e+00	0.00000e+00	0.00000e+00	0.00000e+00	0.00000e+00	0.00000e+00	0.00000e+00	0.00000e+00	-1.62543e+02	-8.78951e+01	-1.78588e+02	-7.37974e+01	1.88419e+01	-9.78537e+01	-5.09759e+01	-7.56597e+01	
Factor	3.72829e-01	4.23542e-03	3.15573e-01	2.67883e-03	4.18677e-01	2.98744e-03	1.90848e-01	2.89063e-03	1.67158e-01	1.93245e-03	1.46227e-01	1.26391e-03	1.85280e-01	1.35962e-03	8.52207e-02	1.36328e-03	X	X	X	X	X	X	X	X	

B = Detector Channel
Val Type	B-AC1	B-AC2	B-AC3	B-AC4	B-AC5	B-AC6	B-AC7	B-AC8	B-DC1	B-DC2	B-DC3	B-DC4	B-DC5	B-DC6	B-DC7	B-DC8	B-Ph1	B-Ph2	B-Ph3	B-Ph4	B-Ph5	B-Ph6	B-Ph7	B-Ph8	

Term	0.00000e+00	0.00000e+00	0.00000e+00	0.00000e+00	0.00000e+00	0.00000e+00	0.00000e+00	0.00000e+00	0.00000e+00	0.00000e+00	0.00000e+00	0.00000e+00	0.00000e+00	0.00000e+00	0.00000e+00	0.00000e+00	-1.20506e+02	-9.57202e+01	-8.90020e+01	-1.01738e+02	3.58480e+01	-7.58967e+01	-3.90731e+01	-9.59873e+01	
Factor	1.69668e+03	2.09304e+01	1.67456e+03	1.37520e+01	1.81551e+03	1.54192e+01	8.96545e+02	1.47699e+01	3.12805e+02	6.18978e+00	4.15629e+02	4.48925e+00	4.73661e+02	4.86618e+00	2.83355e+02	4.81375e+00	X	X	X	X	X	X	X	X	

C = Detector Channel
Val Type	C-AC1	C-AC2	C-AC3	C-AC4	C-AC5	C-AC6	C-AC7	C-AC8	C-DC1	C-DC2	C-DC3	C-DC4	C-DC5	C-DC6	C-DC7	C-DC8	C-Ph1	C-Ph2	C-Ph3	C-Ph4	C-Ph5	C-Ph6	C-Ph7	C-Ph8	

Term	0.00000e+00	0.00000e+00	0.00000e+00	0.00000e+00	0.00000e+00	0.00000e+00	0.00000e+00	0.00000e+00	0.00000e+00	0.00000e+00	0.00000e+00	0.00000e+00	0.00000e+00	0.00000e+00	0.00000e+00	0.00000e+00	-1.02582e-01	4.22528e+00	3.64753e+00	8.04052e+00	9.01559e+00	1.55722e+01	1.62106e+01	2.07134e+01	
Factor	1.62900e-04	1.47377e-04	1.45747e-04	1.43253e-04	1.49642e-04	1.50118e-04	1.54558e-04	1.51961e-04	7.44515e-05	6.79384e-05	6.73512e-05	6.62143e-05	6.98251e-05	6.90425e-05	7.14544e-05	7.04075e-05	X	X	X	X	X	X	X	X	



#DISTANCE SETTINGS
A = Detector Channel
A-1	A-2	A-3	A-4	A-5	A-6	A-7	A-8	

2.5000e+00	3.0000e+00	2.5000e+00	3.0000e+00	2.0000e+00	3.0000e+00	1.5000e+00	3.0000e+00	

B = Detector Channel
B-1	B-2	B-3	B-4	B-5	B-6	B-7	B-8	

3.0000e+00	3.0000e+00	3.0000e+00	3.0000e+00	3.0000e+00	3.0000e+00	1.5000e+00	3.0000e+00	

C = Detector Channel
C-1	C-2	C-3	C-4	C-5	C-6	C-7	C-8	

1.5000e+00	2.0000e+00	2.5000e+00	3.0000e+00	1.5000e+00	2.0000e+00	2.5000e+00	3.0000e+00	




#DATA BEGINS
time	group	step	mark	flag	A-AC1	A-AC2	A-AC3	A-AC4	A-AC5	A-AC6	A-AC7	A-AC8	A-DC1	A-DC2	A-DC3	A-DC4	A-DC5	A-DC6	A-DC7	A-DC8	A-Ph1	A-Ph2	A-Ph3	A-Ph4	A-Ph5	A-Ph6	A-Ph7	A-Ph8	B-AC1	B-AC2	B-AC3	B-AC4	B-AC5	B-AC6	B-AC7	B-AC8	B-DC1	B-DC2	B-DC3	B-DC4	B-DC5	B-DC6	B-DC7	B-DC8	B-Ph1	B-Ph2	B-Ph3	B-Ph4	B-Ph5	B-Ph6	B-Ph7	B-Ph8	C-AC1	C-AC2	C-AC3	C-AC4	C-AC5	C-AC6	C-AC7	C-AC8	C-DC1	C-DC2	C-DC3	C-DC4	C-DC5	C-DC6	C-DC7	C-DC8	C-Ph1	C-Ph2	C-Ph3	C-Ph4	C-Ph5	C-Ph6	C-Ph7	C-Ph8	aux-1	digaux	

771.321	1	1	0	256	4.8497	0.2045	11.599	0.078467	8.3828	0.13234	0.21418	0.12232	15.031	0.82161	35.913	0.41146	28.893	0.048177	0.54102	0.09375	277.933	299.517	290.197	395.611	98.041	343.654	227.952	263.721	0.12823	0.26268	0.34434	0.3928	0.34724	25.232	9.8332	16.797	2.832	2.847	2.5482	2.847	2.6901	55.005	25.12	33.889	106.053	421.398	229.638	248.715	406.648	86.890	250.601	269.042	1474.3	1474.9	1475	1475	1474.9	1474.9	1475	1475	3404.2	3406	3406	3405.9	3406	3405.9	3405.9	3405.9	261.444	261.441	261.444	261.449	261.445	261.445	261.449	261.446	-8191	255	
771.492	1	1	0	0	4.8232	0.2424	11.636	0.23194	8.0223	0.18553	0.13528	0.26887	14.47	-0.73307	35.272	-0.60938	26.923	-0.43229	-0.65104	-0.41602	278.728	343.936	292.135	343.985	93.987	422.076	94.279	288.887	0.24436	0.28093	0.26641	0.3665	0.37817	25.684	10.238	16.695	2.3411	1.5443	2.0267	1.6589	2.0098	55.329	23.801	33.793	215.804	438.038	427.704	295.110	295.464	84.939	256.918	271.311	1474.1	1475	1475	1475	1475.1	1474.9	1475	1475.1	3404.1	3405.9	3405.9	3405.9	3405.9	3406	3405.9	3405.9	261.444	261.444	261.445	261.446	261.446	261.451	261.446	261.451	-8191	255	
771.644	1	1	0	0	3.9601	0.10754	11.64	0.1327	8.5498	0.23942	0.12071	0.16565	13.797	-0.72396	35.06	-0.57096	27.24	-0.8776	-0.83724	-1.0508	282.549	176.264	292.721	277.668	94.078	204.223	219.228	194.005	0.3685	0.35048	0.24724	0.29227	0.15106	25.765	10.148	17.485	2.0169	1.6986	1.4062	1.9531	1.5866	54.878	23.449	33.516	191.200	163.523	376.156	230.316	306.527	88.722	255.452	270.532	1474.2	1474.9	1475.1	1475	1475	1475	1475	1475	3404.2	3406.1	3406	3405.9	3406	3405.9	3406	3405.9	261.450	261.443	261.443	261.446	261.452	261.446	261.448	261.447	-8191	255	
771.796	1	1	0	0	4.5328	0.26872	12.162	0.12544	8.162	0.23083	0.093716	0.13611	13.245	-0.92578	35.307	-1.1289	26.753	-0.89714	-0.92057	-0.98568	273.422	410.168	293.063	310.030	91.977	376.422	239.893	346.122	0.33162	0.18719	0.33188	0.30799	0.38632	25.343	10.67	16.424	1.7272	1.4688	1.7057	1.2533	1.6263	53.8	23.939	33.389	298.385	250.732	198.591	437.340	247.749	84.541	252.377	268.347	1474.2	1474.9	1474.9	1474.9	1475	1474.9	1475	1475	3404.2	3405.9	3406	3405.9	3406	3406	3406	3406	261.446	261.446	261.444	261.444	261.450	261.444	261.445	261.446	-8191	255	
771.948	1	1	0	0	4.1944	0.20961	12.231	0.18759	8.0529	0.055999	0.075863	0.24986	13.824	-0.9668	34.928	-0.81576	26.639	-0.73372	-1.1217	-1.0384	272.902	354.231	292.450	83.928	95.012	246.928	246.828	204.754	0.52329	0.39173	0.13506	0.40127	0.28227	26.516	9.3737	16.144	1.6497	1.2357	1.3099	1.4382	1.1204	54.387	23.282	32.778	229.515	425.187	372.638	204.581	206.787	85.113	253.701	268.766	1474.3	1475	1474.9	1475	1475.1	1475	1475	1474.8	3404.2	3406.1	3406	3406.1	3405.9	3405.9	3406.1	3406	261.446	261.447	261.449	261.448	261.449	261.444	261.446	261.443	-8191	255	
772.100	1	1	0	0	4.5045	0.028055	11.877	0.14885	7.8914	0.23323	0.14953	0.18183	13.615	-0.88411	35.382	-1.1185	27.627	-1.2044	-0.81641	-1.0749	281.146	301.967	291.404	90.765	97.406	224.975	369.976	241.723	0.1492	0.42388	0.45872	0.19368	0.25552	25.653	10.938	15.525	1.3685	1.543	1.0814	1.4329	1.4499	54.943	23.702	32.757	342.093	196.568	302.410	341.560	174.837	84.924	252.443	271.388	1474.2	1474.9	1475	1474.9	1474.9	1474.9	1474.9	1475	3404.2	3405.9	3406	3406	3406	3405.9	3406	3406	261.441	261.445	261.448	261.449	261.450	261.445	261.447	261.445	-8191	255	
772.272	1	1	0	0	4.1861	0.19724	11.609	0.13161	8.097	0.17762	0.17374	0.16322	13.654	-1.2207	34.76	-1.1335	26.518	-0.85938	-1.2415	-0.96029	281.813	327.227	289.826	264.585	93.873	308.385	322.492	357.485	0.19309	0.29413	0.30186	0.27316	0.19924	24.665	10.68	16.632	1.9642	1.5202	1.5371	1.4609	1.543	54.249	23.854	33.754	133.825	348.132	411.503	179.287	335.495	88.057	251.081	272.592	1474.2	1474.9	1475	1474.9	1474.9	1474.9	1475	1475	3404.2	3405.9	3406	3406	3406	3406	3406	3405.9	261.446	261.448	261.449	261.446	261.447	261.444	261.442	261.445	-8191	255	
772.424	1	1	0	0	3.9029	0.27081	12.495	0.19488	8.3173	0.16683	0.20983	0.23077	13.301	-0.90951	34.896	-0.86589	27.198	-1.1608	-1.041	-1.3568	290.619	306.522	290.450	430.250	93.210	290.613	326.534	435.746	0.24142	0.46435	0.25942	0.36998	0.61505	25.202	9.989	16.241	1.8249	1.7467	1.2467	1.8678	1.3516	55.199	24.281	33.652	137.481	189.154	119.145	342.346	254.456	83.790	251.525	271.016	1474.1	1474.9	1475.1	1475	1475	1475	1474.9	1475	3404.1	3406	3406	3406	3406	3406	3406.1	3406	261.447	261.447	261.448	261.449	261.451	261.445	261.442	261.451	-8191	255	
772.576	1	1	0	0	4.3783	0.20705	11.747	0.15736	7.5645	0.11	0.20652	0.20846	13.398	-1.2227	34.893	-1.3776	27.073	-1.1712	-1.1432	-1.0579	281.526	313.950	291.358	343.419	94.743	87.318	280.952	419.892	0.20704	0.22615	0.22836	0.52728	0.38349	24.782	10.915	16.419	1.7181	1.7578	1.6934	1.9303	1.7767	55.695	24.263	33.849	336.197	200.354	154.692	208.197	87.147	85.352	252.156	267.731	1474.1	1475	1475	1474.9	1474.9	1474.9	1474.9	1475	3404.2	3405.9	3406	3406	3406	3406	3405.9	3406	261.450	261.446	261.447	261.444	261.443	261.448	261.448	261.442	-8191	255	
772.728	1	1	0	0	4.4	0.085246	12.26	0.14014	8.5254	0.18914	0.22155	0.11387	13.96	-1.125	34.622	-1.0697	26.637	-1.0417	-1.2695	-1.1927	280.377	201.726	293.869	137.109	93.618	436.383	240.117	426.692	0.34569	0.403	0.25682	0.47076	0.50808	27.337	10.42	16.717	2.1732	1.9245	1.7467	1.9245	1.5716	56.435	24.645	34.65	332.200	247.949	272.463	309.145	382.171	84.821	255.264	268.971	1474.2	1475	1475	1474.9	1474.9	1475	1475	1475	3404.2	3406	3406.1	3406	3405.8	3406	3406	3406	261.445	261.448	261.447	261.445	261.445	261.449	261.445	261.444	-8191	255	
772.880	1	1	0	0	3.9579	0.13884	11.571	0.087888	8.5126	0.18852	0.16937	0.17503	13.797	-1.0879	34.465	-1.2376	28.007	-1.278	-1.0286	-1.2253	277.157	223.798	290.201	274.987	95.008	342.113	346.945	320.674	0.31243	0.35279	0.22155	0.21216	0.30297	26.056	10.172	16.269	1.7617	1.9681	1.6367	1.9805	2.2617	56.66	24.801	33.984	272.644	123.869	197.081	312.443	82.011	85.112	254.648	273.219	1474.2	1475.1	1474.9	1475	1475	1474.9	1475	1474.9	3404.2	3406	3406	3405.9	3406.1	3405.9	3406	3406.1	261.446	261.447	261.440	261.447	261.447	261.444	261.445	261.447	-8191	255	
773.051	1	1	0	0	4.4209	0.33224	11.857	0.31536	8.8112	0.17875	0.11472	0.25123	13.908	-1.179	35.171	-1.1022	27.758	-0.91211	-1.3665	-1.0143	278.875	229.620	288.730	361.478	97.433	308.855	209.238	249.291	0.069613	0.25366	0.45702	0.29092	0.44031	27.413	11.322	17.29	2.1979	1.5579	1.6836	1.6595	1.8353	57.006	24.835	35.042	385.610	317.623	422.613	400.986	261.791	84.912	257.879	272.513	1474.1	1474.9	1475	1475	1474.9	1474.9	1475.1	1475	3404.2	3406.1	3405.9	3406.1	3406	3406.1	3406	3406	261.444	261.445	261.450	261.447	261.444	261.447	261.449	261.447	-8191	255	
782.131	2	1	0	256	4.7837	0.15467	12.654	0.29583	8.2112	0.29024	0.13662	0.15525	15.598	0.31836	37.449	0.21094	29.313	0.17188	0.16536	0.27279	278.728	190.919	290.379	122.402	92.123	325.182	169.299	222.656	0.39798	0.27565	0.26824	0.54944	0.60014	25.417	9.5888	15.139	7.543	6.974	6.8809	6.3887	6.8307	58.927	28.128	37.005	267.342	188.673	163.637	112.732	322.865	86.757	256.552	268.622	1474.2	1475	1475	1475.1	1475	1474.9	1474.9	1474.9	3404.1	3405.8	3405.9	3405.9	3405.9	3406	3405.8	3405.9	261.445	261.445	261.445	261.445	261.445	261.446	261.443	261.449	-8191	255	
782.303	2	1	0	0	4.4349	0.1568	12.7	0.22516	8.4305	0.14234	0.1692	0.082153	14.922	-0.4082	35.646	-0.26497	28.585	-0.2474	-0.60612	-0.52734	275.448	376.965	292.583	422.608	97.570	217.468	219.019	422.607	0.30319	0.26182	0.5638	0.56854	0.32425	24.124	10.996	16.208	6.6777	6.0462	6.1947	6.2474	5.9674	57.611	28.458	37.49	344.061	162.057	265.964	259.359	214.334	84.490	254.302	273.180	1474.2	1474.9	1474.9	1474.9	1475	1475	1474.9	1475	3404	3405.9	3405.9	3406.1	3405.9	3405.9	3406	3405.9	261.448	261.444	261.450	261.447	261.446	261.447	261.447	261.447	-8191	255	
782.437	2	1	0	0	4.3321	0.10905	12.01	0.082425	8.5804	0.10706	0.21579	0.17713	13.933	-0.53646	35.536	-0.76693	28.088	-1.196	-0.63477	-0.76758	279.564	177.141	291.403	437.286	87.666	232.963	217.036	82.335	0.41915	0.20875	0.34189	0.2568	0.37548	24.785	9.7558	15.227	6.0905	6.2611	5.8158	5.8952	6.4935	58.416	27.785	36.548	328.073	222.565	356.233	163.564	403.049	85.383	255.622	270.573	1474.2	1475	1474.9	1475	1474.9	1474.9	1474.9	1475	3404.1	3406	3406	3405.9	3406	3405.9	3405.9	3406	261.444	261.447	261.444	261.445	261.447	261.449	261.451	261.451	-8191	255	
782.607	2	1	0	0	4.1701	0.069048	11.373	0.074303	8.3116	0.18528	0.087957	0.14862	14.003	-1.1725	35.358	-0.82161	27.514	-0.76888	-1.1452	-0.91081	287.215	420.427	289.771	209.983	96.267	373.052	202.509	149.229	0.25028	0.42798	0.2642	0.55363	0.42097	26.153	9.4121	15.517	6.3262	5.3405	5.7598	5.9173	5.5566	58.002	27.771	37.349	310.108	272.962	227.287	184.993	83.528	84.234	253.534	267.274	1474.1	1474.9	1475.1	1474.9	1474.9	1475	1474.9	1475	3404.2	3406	3406	3405.9	3405.9	3405.9	3405.9	3405.9	261.443	261.447	261.448	261.444	261.448	261.446	261.448	261.450	-8191	255	
782.759	2	1	0	0	4.1462	0.234	12.1	0.18079	9.6467	0.11273	0.18314	0.20316	13.82	-0.72591	34.133	-0.81185	28.133	-0.97331	-1.0443	-1.1328	282.899	148.181	290.524	222.215	90.472	374.356	183.360	197.158	0.46446	0.60181	0.28035	0.26712	0.373	24.543	9.8195	16.021	6.0156	6.1725	5.6146	6.0553	5.9603	57.63	27.065	36.13	351.958	130.224	326.001	175.762	246.463	87.583	258.046	270.692	1474.3	1475.1	1475	1475	1475.1	1474.9	1475	1475	3404.1	3406	3405.9	3405.9	3406	3405.9	3406	3406	261.447	261.448	261.446	261.453	261.444	261.447	261.448	261.443	-8191	255	
782.911	2	1	0	0	5.1639	0.18652	11.907	0.27109	8.5642	0.15578	0.14117	0.18238	14.196	-1.0996	34.897	-1.1628	27.452	-1.1126	-1.0729	-0.88411	280.970	281.020	293.545	127.666	101.454	301.588	255.615	328.494	0.3174	0.438	0.31716	0.39512	0.14568	25.164	9.6628	16.367	6.1263	5.4355	5.7676	5.1204	5.5508	57.129	26.111	36.829	393.757	334.044	282.334	395.286	231.016	85.063	257.935	269.672	1474.1	1475	1475	1475	1475	1474.9	1474.9	1475	3404.2	3405.9	3406	3406	3405.9	3406	3405.9	3406.1	261.445	261.444	261.448	261.451	261.449	261.450	261.448	261.447	-8191	255	
783.082	2	1	0	0	4.7629	0.18818	11.488	0.24505	9.0521	0.20053	0.24474	0.19882	14.199	-1.0742	34.811	-0.74935	28.339	-0.96745	-1.0495	-1.0534	280.629	377.244	291.792	288.776	97.980	426.583	302.712	109.014	0.51762	0.55003	0.43703	0.23788	0.31294	25.423	10.066	16.135	6.1055	5.4499	5.5697	5.4017	4.8184	57.748	26.873	36.417	159.989	228.754	323.317	120.430	262.790	84.773	257.124	272.103	1474.3	1475	1475	1474.9	1474.9	1475.1	1475.1	1474.9	3404.2	3406	3406	3406	3405.9	3406	3406	3405.9	261.443	261.447	261.448	261.448	261.445	261.444	261.446	261.449	-8191	255	
783.235	2	1	0	0	4.0072	0.35703	11.93	0.12179	8.8838	0.26538	0.2364	0.16798	13.658	-0.98893	34.715	-1.1589	27.243	-1.4512	-0.97461	-1.1621	274.436	391.818	290.112	153.539	93.920	335.556	331.936	133.469	0.18649	0.39903	0.46587	0.29908	0.50539	25.823	9.3106	16.035	5.3411	5.485	5.4453	5.0918	5.2904	57.077	26.079	36.15	438.023	203.988	274.324	335.723	428.759	84.538	257.314	269.696	1474.2	1475	1475	1474.9	1475	1475	1475	1475	3404.1	3405.9	3406	3406	3406.1	3406	3405.9	3406	261.443	261.452	261.449	261.445	261.450	261.446	261.445	261.442	-8191	255	
783.387	2	1	0	0	4.3397	0.1572	11.567	0.15425	8.7922	0.20293	0.17262	0.085214	14.138	-1.3438	35.1	-1.1719	27.191	-0.91081	-1.1986	-1.015	277.309	189.387	289.345	313.265	98.254	86.092	411.205	98.452	0.38864	0.29906	0.52068	0.37324	0.32789	26.364	9.3842	16.207	5.7715	5.4499	5.9362	5.9661	5.8496	59.174	26.851	37.419	421.194	151.260	165.327	85.125	369.909	87.424	256.169	271.939	1474.2	1475	1474.9	1475	1475.1	1475.1	1475	1475	3404.2	3406	3405.9	3405.9	3405.9	3406	3406	3405.9	261.445	261.444	261.446	261.450	261.448	261.449	261.448	261.447	-8191	255	
783.539	2	1	0	0	5.2329	0.15925	13.201	0.23924	8.4884	0.19075	0.16458	0.092008	14.358	-0.9668	35.491	-1.1797	28.065	-1.1992	-0.83919	-1.4342	277.661	304.765	291.948	154.396	99.687	242.644	178.241	209.040	0.5924	0.53377	0.53951	0.50898	0.35636	24.602	8.9897	15.161	8.2839	8.4668	7.6517	8.0645	7.8639	59.266	29.256	37.72	189.071	303.868	154.221	283.289	321.760	86.913	254.176	269.132	1474.3	1475	1475	1474.9	1475.1	1475	1475	1474.9	3404.1	3405.9	3405.9	3405.9	3406	3405.9	3405.9	3405.9	261.446	261.445	261.446	261.450	261.445	261.445	261.449	261.444	-8191	255	
783.691	2	1	0	0	4.701	0.28435	11.956	0.24499	8.9823	0.01456	0.42725	0.21957	13.937	-1.2441	35.732	-1.3783	28.354	-1.2174	-1.3236	-1.0358	277.268	168.748	290.711	205.165	95.360	234.950	176.481	141.323	0.6521	0.75536	0.39066	0.51609	0.41643	24.631	9.3264	14.743	8.6849	8.4688	8.1445	8.1471	8.0306	58.889	28.94	38.384	386.550	317.478	104.974	361.693	112.611	83.377	255.986	269.106	1474.1	1475	1475	1474.8	1475	1474.9	1475	1475	3404.2	3405.9	3405.9	3405.9	3405.9	3405.9	3405.8	3405.9	261.450	261.453	261.447	261.443	261.451	261.445	261.450	261.450	-8191	255	
783.862	2	1	0	0	4.3796	0.19451	12.368	0.25348	9.8325	0.27968	0.24173	0.15395	14.124	-1.14	36.066	-0.91862	28.018	-1.1699	-1.2741	-1.1595	282.597	175.779	290.544	312.409	99.177	264.304	276.280	155.101	0.60958	0.40662	0.43565	0.4558	0.20262	24.896	10.15	15.689	7.7643	7.694	6.8105	7.5254	6.8346	58.38	27.773	37.498	165.008	214.939	211.470	227.391	293.717	82.615	251.523	273.313	1474.2	1474.9	1474.9	1475.1	1475	1475	1474.8	1475.1	3404	3405.9	3405.9	3406	3405.9	3405.8	3405.9	3405.8	261.446	261.444	261.446	261.448	261.449	261.442	261.448	261.444	-8191	255	
792.927	3	1	0	256	4.6528	0.22206	10.957	0.29864	8.7537	0.20633	0.18664	0.13321	15.93	0.70117	35.361	0.67188	28.596	0.5957	0.40299	0.55013	275.781	291.194	292.977	399.040	96.619	322.140	351.579	244.209	0.3368	0.057913	0.41477	0.23741	0.28473	25.829	10.614	16.688	4.1595	3.5286	3.7168	3.4805	3.6582	57.492	25.958	36.012	322.178	196.622	294.032	408.010	315.692	84.684	254.081	270.894	1473.5	1474.3	1474.3	1474.1	1474.2	1474.3	1474.4	1474.3	3402.5	3404.3	3404.3	3404.3	3404.3	3404.3	3404.3	3404.3	261.451	261.443	261.446	261.448	261.447	261.449	261.447	261.444	-8191	255	
793.098	3	1	0	0	3.6974	0.16799	11.955	0.11752	8.2032	0.34435	0.20223	0.29667	14.215	0.18359	35.507	-0.0071615	28.262	-0.36133	-0.26758	-0.60286	272.815	111.154	293.510	277.031	96.525	219.222	143.062	253.991	0.50733	0.34073	0.43865	0.32783	0.25846	24.191	10.91	15.921	2.8548	3.3581	2.3444	3.1406	2.5605	56.711	26.269	35.134	145.498	298.623	112.697	384.165	241.461	86.107	254.252	268.883	1473.4	1474.3	1474.4	1474.3	1474.3	1474.4	1474.3	1474.3	3402.5	3404.4	3404.2	3404.3	3404.3	3404.2	3404.4	3404.2	261.441	261.446	261.444	261.443	261.450	261.447	261.447	261.443	-8191	255	
793.250	3	1	0	0	4.1493	0.23144	11.839	0.14789	8.1058	0.13218	0.24024	0.17028	14.067	-0.55599	34.913	-0.7513	27.318	-0.56966	-0.48307	-0.39909	276.811	271.494	298.507	210.267	89.154	327.865	91.045	83.346	0.42948	0.29338	0.30451	0.27285	0.3515	26.286	10.515	16.226	2.8926	2.709	2.735	2.2533	2.7897	56.566	25.105	34.724	105.234	317.170	342.441	100.451	331.034	86.079	252.902	269.796	1473.5	1474.3	1474.3	1474.4	1474.3	1474.3	1474.3	1474.3	3402.6	3404.1	3404.3	3404.3	3404.3	3404.3	3404.4	3404.3	261.447	261.446	261.444	261.443	261.450	261.447	261.449	261.445	-8191	255	
793.402	3	1	0	0	4.4139	0.15254	13.056	0.13743	7.9833	0.11706	0.17757	0.039136	14.49	-0.43034	35.06	-0.55924	27.014	-0.48763	-0.74023	-0.59375	283.326	154.668	293.048	157.001	96.657	307.064	337.934	222.367	0.25062	0.31799	0.2425	0.24598	0.27043	26.589	9.9172	16.874	2.8353	2.6667	2.5065	2.6458	2.5358	58.309	24.633	34.415	154.292	97.313	334.257	179.225	307.120	86.589	251.998	268.271	1473.5	1474.2	1474.2	1474.3	1474.3	1474.2	1474.3	1474.3	3402.5	3404.3	3404.3	3404.3	3404.3	3404.3	3404.3	3404.3	261.450	261.441	261.448	261.446	261.442	261.446	261.445	261.447	-8191	255	
793.573	3	1	0	0	4.5394	0.080604	10.355	0.29196	9.0131	0.2231	0.15242	0.21597	13.693	-0.64583	33.874	-0.73568	27.501	-0.95768	-0.61654	-0.81641	277.404	326.059	289.520	165.972	97.071	428.625	88.212	177.394	0.25239	0.36971	0.35048	0.12206	0.248	26.95	10.333	16.027	2.4837	2.707	2.4818	2.4173	2.6608	56.944	25.173	33.958	170.142	282.405	172.808	328.200	411.030	85.593	257.577	272.167	1473.5	1474.3	1474.2	1474.1	1474.3	1474.3	1474.3	1474.4	3402.5	3404.2	3404.3	3404.2	3404.2	3404.3	3404.3	3404.3	261.446	261.443	261.446	261.451	261.451	261.449	261.454	261.448	-8191	255	
793.725	3	1	0	0	3.8501	0.19807	11.956	0.19484	8.7564	0.25661	0.18971	0.072058	13.544	-1.041	34.693	-0.67839	27.125	-0.53581	-1.127	-0.56576	282.710	201.496	292.497	249.631	93.992	295.693	183.461	245.917	0.34055	0.24412	0.27897	0.15543	0.3473	24.936	10.811	16.886	2.9251	2.2201	2.2839	2.1523	2.1562	56.299	24.758	34.229	327.185	278.146	288.816	105.004	266.375	84.815	253.938	268.703	1473.5	1474.3	1474.3	1474.3	1474.3	1474.1	1474.3	1474.3	3402.6	3404.2	3404.3	3404.4	3404.3	3404.4	3404.3	3404.3	261.445	261.450	261.450	261.449	261.448	261.447	261.450	261.446	-8191	255	
793.895	3	1	0	0	4.2997	0.074985	11.498	0.21733	8.1622	0.2423	0.15354	0.088609	13.956	-0.47982	34.074	-0.70573	27.372	-0.74284	-0.68164	-0.97982	291.383	185.761	292.472	347.658	94.387	100.624	361.715	240.939	0.42042	0.19313	0.14141	0.20344	0.19291	28.225	10.374	16.739	2.6191	2.306	1.7852	2.4421	2.0664	57.227	24.976	34.254	96.435	159.177	421.692	337.020	123.752	86.017	257.320	268.952	1473.6	1474.4	1474.3	1474.3	1474.4	1474.4	1474.3	1474.2	3402.6	3404.4	3404.3	3404.2	3404.3	3404.3	3404.4	3404.3	261.446	261.449	261.442	261.449	261.444	261.450	261.445	261.448	-8191	255	
794.030	3	1	0	0	3.9238	0.24638	12.085	0.25774	8.4338	0.25782	0.18575	0.23961	13.424	-0.83984	35.264	-0.99805	27.798	-0.8138	-0.8151	-0.79036	281.663	372.556	291.101	174.158	96.778	292.448	232.866	258.814	0.2421	0.36614	0.10401	0.476	0.27509	25.817	9.5065	16.498	2.3711	1.9193	2.1706	1.8099	1.9876	56.818	24.984	34.107	219.935	302.232	282.783	176.994	124.152	87.726	258.974	273.041	1473.4	1474.3	1474.4	1474.4	1474.3	1474.3	1474.2	1474.3	3402.6	3404.2	3404.3	3404.1	3404.3	3404.3	3404.3	3404.3	261.446	261.442	261.448	261.447	261.444	261.445	261.443	261.443	-8191	255	
794.201	3	1	0	0	3.9683	0.32576	11.135	0.24119	9.059	0.21347	0.26574	0.44439	14.315	-0.88867	34.6	-0.75391	27.208	-0.69466	-1.0072	-0.61719	278.979	108.761	288.799	245.907	90.788	284.554	388.237	177.937	0.32174	0.41215	0.20225	0.31159	0.46276	25.72	10.416	16.22	2.2259	2.069	2.1322	2.127	1.6458	55.405	24.53	33.776	396.757	206.134	227.710	339.835	226.627	87.928	255.310	274.348	1473.5	1474.2	1474.5	1474.3	1474.3	1474.2	1474.4	1474.4	3402.6	3404.3	3404.4	3404.3	3404.2	3404.2	3404.3	3404.1	261.445	261.446	261.441	261.443	261.448	261.444	261.448	261.445	-8191	255	
794.351	3	1	0	0	4.6393	0.24902	12.116	0.27069	8.7707	0.14055	0.20807	0.23393	13.282	-0.83138	34.559	-0.91992	27.831	-1.0762	-0.88672	-1.0072	274.376	154.600	291.265	286.661	96.740	402.988	339.318	271.803	0.14735	0.13101	0.3378	0.13358	0.4908	25.823	9.9105	16.009	2.1875	1.9167	2.0749	2.2741	2.2415	55.475	24.413	33.187	370.042	187.052	364.077	224.272	432.412	86.938	251.850	271.987	1473.6	1474.3	1474.2	1474.4	1474.3	1474.3	1474.5	1474.3	3402.5	3404.3	3404.4	3404.3	3404.3	3404.3	3404.3	3404.4	261.443	261.445	261.446	261.448	261.442	261.446	261.443	261.444	-8191	255	
794.503	3	1	0	0	4.3132	0.23685	11.376	0.18032	8.9214	0.1897	0.1975	0.25685	13.916	-1.2533	34.661	-0.89518	27.18	-0.79427	-1.2324	-0.67643	278.546	144.824	288.334	302.511	96.120	298.974	149.252	143.041	0.3593	0.17768	0.47938	0.52878	0.35603	25.259	10.497	14.95	2.4518	1.3457	2.0026	1.9271	1.7311	55.151	24.497	33.324	234.567	178.472	347.139	100.923	185.546	86.254	256.391	273.970	1473.5	1474.3	1474.3	1474.3	1474.3	1474.3	1474.3	1474.3	3402.6	3404.2	3404.3	3404.3	3404.2	3404.4	3404.3	3404.3	261.447	261.447	261.446	261.449	261.447	261.445	261.449	261.449	-8191	255	
794.675	3	1	0	0	3.597	0.27124	12.275	0.14043	8.6104	0.1194	0.20448	0.10465	13.292	-0.66276	35.089	-0.74935	27.268	-0.9349	-0.72982	-1.1081	282.418	434.559	292.281	312.105	102.201	313.319	289.909	386.975	0.15122	0.33584	0.30926	0.50269	0.21138	26.145	10.403	16.71	1.9414	1.8626	1.5378	2.1139	1.5332	56.054	24.738	33.609	308.661	280.237	227.426	150.060	376.228	85.812	257.543	270.479	1473.6	1474.3	1474.3	1474.2	1474.3	1474.3	1474.3	1474.3	3402.5	3404.3	3404.3	3404.3	3404.3	3404.2	3404.4	3404.3	261.444	261.449	261.450	261.445	261.445	261.446	261.447	261.447	-8191	255	
803.729	4	1	0	256	4.8283	0.29097	12.29	0.20539	9.4939	0.20186	0.18617	0.16033	15.13	0.97982	36.095	0.62305	28.953	0.29102	0.63021	0.24805	281.372	433.379	294.763	439.678	93.192	214.902	302.276	181.268	0.18275	0.30993	0.30941	0.23429	0.38282	25.38	9.4302	16.042	4.3021	3.9831	3.7467	3.748	3.7956	56.251	25.53	34.704	100.869	208.654	376.401	315.709	398.653	87.007	259.059	270.287	1473.5	1474.2	1474.2	1474.2	1474.4	1474.2	1474.4	1474.3	3402.4	3404.2	3404.2	3404.2	3404.3	3404.1	3404.3	3404.2	261.445	261.451	261.442	261.443	261.448	261.453	261.446	261.453	-8191	255	
803.900	4	1	0	0	4.2342	0.15194	13.217	0.17857	7.6146	0.42376	0.18226	0.073621	14.497	-0.36458	35.92	-0.19922	27.82	-0.022135	-0.50781	-0.038411	283.483	178.939	292.803	370.356	97.093	368.199	295.170	364.784	0.2551	0.40246	0.37593	0.31173	0.26715	25.595	10.701	16.302	3.3685	2.987	3.3372	3.1738	2.8555	55.951	25.191	35.061	219.817	191.017	425.364	432.006	331.597	86.936	257.172	269.409	1473.6	1474.2	1474.2	1474.3	1474.2	1474.3	1474.4	1474.3	3402.5	3404.2	3404.1	3404.1	3404.1	3404.2	3404.2	3404.2	261.443	261.444	261.442	261.447	261.444	261.450	261.445	261.446	-8191	255	
804.052	4	1	0	0	4.1273	0.14241	11.662	0.11253	8.4909	0.24603	0.35537	0.25487	13.937	-0.27799	34.731	-0.45247	27.298	-0.48698	-0.42448	-0.64518	281.401	90.636	294.423	311.384	97.340	112.822	371.107	414.644	0.31567	0.23221	0.22935	0.11002	0.221	25.259	9.6546	14.84	2.9902	2.9531	2.6823	2.9062	2.8138	55.208	24.706	32.887	211.280	202.914	91.595	261.894	129.647	89.164	253.444	271.797	1473.5	1474.3	1474.4	1474.2	1474.3	1474.5	1474.2	1474.3	3402.4	3404.2	3404.1	3404.1	3404.3	3404.1	3404.3	3404.1	261.447	261.445	261.446	261.447	261.439	261.443	261.448	261.444	-8191	255	
804.204	4	1	0	0	3.9589	0.095444	11.591	0.23759	8.1097	0.1431	0.19662	0.2129	13.641	-0.6582	35.312	-0.75065	26.792	-0.73307	-0.78516	-0.63607	280.356	88.258	290.454	212.522	96.418	180.387	328.103	270.981	0.3506	0.087002	0.39095	0.59755	0.18615	25.656	9.5424	16.32	2.8249	2.7018	2.8164	2.4733	2.6198	54.462	24.008	34.31	281.693	344.989	327.888	240.121	190.923	87.610	257.889	273.811	1473.5	1474.4	1474.3	1474.2	1474.3	1474.2	1474.3	1474.3	3402.4	3404.1	3404.2	3404.1	3404.1	3404.2	3404.1	3404.3	261.444	261.447	261.445	261.441	261.444	261.444	261.444	261.446	-8191	255	
804.356	4	1	0	0	4.9281	0.21874	12.222	0.31719	8.6351	0.17434	0.25476	0.18845	14.303	-0.77734	34.993	-0.52669	27.659	-0.54818	-0.85221	-0.72396	282.594	249.143	295.580	152.389	94.484	349.421	344.593	329.421	0.59285	0.20284	0.41717	0.10412	0.25562	25.74	9.9343	16.505	2.9167	2.4316	2.3887	2.485	2.1771	55.826	24.675	33.908	320.827	245.304	435.903	292.556	161.208	83.950	253.506	268.413	1473.7	1474.3	1474.3	1474.2	1474.3	1474.3	1474.2	1474.3	3402.5	3404.3	3404.1	3404.2	3404.1	3404.1	3404.3	3404.1	261.447	261.446	261.447	261.447	261.450	261.445	261.442	261.444	-8191	255	
804.527	4	1	0	0	4.7212	0.21613	11.493	0.099948	9.0429	0.20297	0.21446	0.33644	13.872	-0.57292	34.357	-0.98047	27.382	-0.97461	-0.58789	-0.76758	282.794	234.425	293.999	231.359	96.845	220.882	90.671	378.099	0.22778	0.29518	0.26987	0.15823	0.409	26.68	10.357	15.319	2.6797	2.6087	2.4238	2.4421	2.5495	55.163	25.181	33.122	284.199	210.883	342.293	349.854	189.323	88.895	252.608	272.731	1473.7	1474.2	1474.3	1474.3	1474.3	1474.3	1474.3	1474.2	3402.4	3404.2	3404.1	3404.2	3404.4	3404.1	3404.2	3404.2	261.446	261.442	261.445	261.443	261.444	261.443	261.445	261.451	-8191	255	
804.699	4	1	0	0	4.6613	0.18114	12.554	0.13103	8.2121	0.19896	0.16687	0.23693	13.913	-0.99154	34.779	-0.9349	26.95	-0.80273	-1.0645	-0.80469	270.888	155.923	291.705	322.822	91.881	223.844	366.320	230.386	0.22363	0.4811	0.47637	0.39551	0.23679	26.395	9.869	15.914	2.8841	2.1654	2.3828	2.3724	2.2441	54.473	24.191	33.949	108.897	356.212	224.345	218.824	317.603	87.897	256.385	270.069	1473.6	1474.3	1474.2	1474.3	1474.3	1474.2	1474.3	1474.3	3402.4	3404.1	3404.2	3404.2	3404.1	3404.2	3404.1	3404.1	261.443	261.448	261.445	261.448	261.445	261.446	261.449	261.446	-8191	255	
804.832	4	1	0	0	4.4356	0.20109	12.072	0.31471	8.4215	0.29308	0.21617	0.18625	13.245	-0.70833	33.868	-0.8112	26.596	-0.93685	-0.80078	-1.1875	272.217	220.422	292.489	284.725	101.127	198.156	201.967	312.252	0.14414	0.36582	0.41407	0.33801	0.33876	25.261	9.5873	16.147	2.3535	2.5807	2.1022	2.6419	2.1198	54.66	24.146	32.9	94.953	237.654	85.270	220.588	368.414	89.454	254.661	267.227	1473.6	1474.3	1474.3	1474.3	1474.3	1474.3	1474.4	1474.3	3402.4	3404.2	3404.2	3404.2	3404.2	3404.1	3404.3	3404.1	261.446	261.445	261.451	261.443	261.450	261.447	261.445	261.447	-8191	255	
804.984	4	1	0	0	4.3729	0.21065	11.91	0.16621	8.5365	0.072655	0.21214	0.20964	13.579	-1.0924	34.906	-1.0801	26.377	-0.96354	-0.9375	-0.77279	291.018	222.440	291.021	120.808	93.374	353.061	252.662	85.391	0.45173	0.56595	0.33393	0.4116	0.55699	27.436	9.3561	16.306	2.5579	2.1667	2.4336	2.2337	2.4062	55.593	24.075	34.335	323.137	104.425	99.553	315.685	396.284	84.423	254.058	269.653	1473.5	1474.4	1474.3	1474.3	1474.3	1474.2	1474.3	1474.2	3402.5	3404.1	3404.1	3404.1	3404.2	3404.3	3404.2	3404.3	261.447	261.451	261.446	261.444	261.446	261.447	261.446	261.449	-8191	255	
805.155	4	1	0	0	5.0735	0.20261	11.903	0.15741	8.7195	0.33989	0.1178	0.32371	13.544	-0.82161	34.23	-0.65755	27.281	-0.70898	-0.84245	-0.79557	284.416	148.824	293.577	334.197	95.758	337.535	153.850	212.251	0.25491	0.34696	0.2276	0.33684	0.25396	25.758	9.649	16.234	2.5176	1.9954	2.1582	2.3854	1.8457	55.431	24.102	33.524	128.166	403.080	326.148	355.781	146.749	87.657	251.817	272.566	1473.6	1474.3	1474.3	1474.3	1474.4	1474.4	1474.3	1474.4	3402.3	3404.2	3404.2	3404.2	3404.1	3404.1	3404.2	3404.1	261.448	261.446	261.442	261.443	261.448	261.446	261.444	261.449	-8191	255	
805.307	4	1	0	0	4.6293	0.22521	12.179	0.22673	8.2253	0.15625	0.07883	0.11483	13.561	-0.8099	35.114	-1.0514	27.229	-1.2552	-0.80273	-0.85482	276.585	343.852	291.227	438.251	93.752	207.157	252.789	183.368	0.40555	0.3566	0.24549	0.2835	0.37699	25.462	10.465	16.492	2.4583	2.4102	2.2331	1.9245	2.2064	54.809	25.145	33.347	441.426	186.921	305.756	315.501	99.748	85.491	249.909	268.618	1473.4	1474.3	1474.3	1474.2	1474.3	1474.2	1474.3	1474.4	3402.4	3404.1	3404.2	3404.1	3404.1	3404.2	3404.2	3404.2	261.445	261.447	261.452	261.447	261.445	261.447	261.449	261.449	-8191	255	
805.478	4	1	0	0	4.2708	0.13559	11.086	0.16268	8.2741	0.13494	0.21672	0.30437	13.584	-1.179	35.094	-1.0384	26.657	-0.74935	-1.2161	-0.83464	283.877	205.816	290.368	90.798	89.634	156.715	393.422	349.888	0.31539	0.30827	0.10717	0.42957	0.26159	25.54	9.6775	15.792	2.5651	1.8327	2.2292	2.2526	1.9199	55.075	23.721	33.704	340.119	397.847	167.848	205.651	134.998	86.332	254.295	269.345	1473.6	1474.3	1474.2	1474.3	1474.2	1474.4	1474.3	1474.3	3402.5	3404.1	3404.1	3404.2	3404.1	3404.2	3404.1	3404.1	261.443	261.447	261.451	261.443	261.447	261.452	261.449	261.443	-8191	255	
814.531	5	1	0	256	5.0654	0.18307	12.148	0.26186	8.5579	0.21642	0.28775	0.20666	15.066	1.0443	36.909	0.57161	29.934	0.37891	0.62891	0.023438	286.099	103.472	291.482	255.050	90.501	290.560	169.031	192.840	0.34324	0.17673	0.32479	0.32542	0.31382	25.611	9.6954	16.426	6.513	6.1243	5.916	5.7578	5.8307	59.758	27.861	37.832	196.229	297.480	177.485	220.124	95.883	85.885	252.071	271.239	1473.6	1474.3	1474.2	1474.3	1474.3	1474.3	1474.4	1474.4	3402.1	3403.9	3404	3403.9	3404	3403.9	3404	3404	261.447	261.444	261.447	261.447	261.449	261.453	261.444	261.444	-8191	255	
814.702	5	1	0	0	4.0559	0.12671	12.15	0.098267	8.6704	0.27779	0.25786	0.15573	14.68	-0.29883	36.169	-0.32812	28.907	-0.30794	-0.32487	-0.21029	279.664	387.050	293.780	99.534	92.924	398.922	265.589	348.810	0.55345	0.54614	0.59114	0.46976	0.51579	26.958	10.311	16.284	5.3587	5.1699	5.5501	5.2669	5.3327	59.655	27.299	37.191	188.555	426.505	394.817	419.590	251.729	85.182	253.707	268.935	1473.6	1474.2	1474.3	1474.3	1474.2	1474.4	1474.3	1474.3	3402.3	3404	3403.9	3404	3403.9	3404.1	3404	3404	261.449	261.445	261.447	261.442	261.443	261.442	261.446	261.449	-8191	255	
814.854	5	1	0	0	4.4328	0.14701	12.65	0.22793	8.8156	0.1683	0.20479	0.10776	14.394	-0.60742	35.921	-0.33138	27.56	-0.47852	-0.57487	-0.61328	282.917	360.449	292.756	366.703	99.054	346.390	295.353	343.674	0.31725	0.46231	0.25031	0.66663	0.19631	27.07	10.475	16.702	5.3724	5.166	4.8385	5.1842	5.11	58.689	27.596	37.092	281.778	371.996	165.872	396.904	110.546	83.818	250.446	270.994	1473.6	1474.4	1474.4	1474.3	1474.2	1474.2	1474.3	1474.1	3402.2	3403.9	3404	3404	3404	3403.9	3404	3403.9	261.448	261.450	261.444	261.447	261.448	261.449	261.447	261.444	-8191	255	
815.006	5	1	0	0	4.1134	0.16493	12.108	0.312	8.7994	0.24329	0.14968	0.26916	13.835	-0.61133	34.767	-0.5944	28.025	-1.0371	-0.48893	-0.64258	284.196	324.915	293.233	102.387	96.778	236.056	340.348	144.397	0.59359	0.59641	0.21782	0.2743	0.4704	27.28	10.02	16.052	4.9147	4.7637	4.6172	4.8372	4.9349	59.418	27.344	36.487	122.872	400.401	379.880	96.834	148.176	88.360	257.415	271.926	1473.4	1474.3	1474.4	1474.2	1474.3	1474.4	1474.3	1474.3	3402.2	3403.9	3404.1	3404	3404	3403.9	3404	3404.1	261.445	261.442	261.450	261.444	261.444	261.442	261.445	261.444	-8191	255	
815.177	5	1	0	0	4.8254	0.33969	11.861	0.21243	8.2613	0.13471	0.34862	0.23202	14.424	-0.82161	35.307	-0.60938	27.81	-0.51953	-0.94401	-0.69596	278.366	179.121	288.736	410.802	96.306	426.578	284.659	191.007	0.41501	0.24328	0.45399	0.38062	0.40712	26.693	10.112	15.813	5.1074	4.4557	4.5527	4.9655	4.4186	58.77	26.527	36.641	113.074	259.263	301.622	300.702	123.406	84.782	256.111	269.586	1473.4	1474.3	1474.3	1474.4	1474.3	1474.3	1474.2	1474.4	3402.2	3404	3403.9	3404.1	3403.9	3404	3404	3403.8	261.449	261.445	261.446	261.443	261.450	261.451	261.446	261.444	-8191	255	
815.330	5	1	0	0	4.2006	0.22738	11.784	0.17781	8.7208	0.18056	0.040385	0.12191	13.496	-0.6862	34.542	-0.74479	27.635	-1.013	-0.60221	-1.1191	281.809	195.624	292.577	325.770	97.096	380.855	315.227	105.030	0.43755	0.38807	0.84516	0.49748	0.38114	25.95	9.7539	15.496	4.7721	4.5964	3.9928	4.515	4.6914	58.701	26.773	36.006	343.094	333.452	366.660	317.409	396.194	85.191	251.790	270.088	1473.5	1474.3	1474.2	1474.2	1474.3	1474.3	1474.4	1474.2	3402.1	3404	3404	3403.9	3404	3403.9	3404	3404	261.444	261.447	261.442	261.441	261.452	261.447	261.446	261.445	-8191	255	
815.499	5	1	0	0	3.9992	0.17928	12.351	0.051515	8.3522	0.18325	0.061391	0.081491	13.853	-1.0964	35.275	-0.94857	27.918	-0.64128	-1.1335	-0.69076	284.976	371.109	296.951	198.997	92.927	341.837	245.267	315.333	0.14566	0.47845	0.49955	0.37321	0.3868	25.674	10.523	15.477	4.6719	4.3158	4.7129	4.3171	4.5475	58.717	27.001	35.32	188.491	284.386	95.324	292.660	214.052	87.361	256.023	269.735	1473.5	1474.3	1474.3	1474.2	1474.3	1474.3	1474.2	1474.3	3402.4	3403.9	3404	3404.1	3403.9	3404	3404	3404	261.442	261.445	261.451	261.442	261.448	261.445	261.451	261.450	-8191	255	
815.634	5	1	0	0	4.2805	0.061892	11.833	0.24118	8.5662	0.17838	0.23113	0.14305	14.168	-0.77409	34.589	-0.63672	27.04	-0.94596	-0.88802	-1.1133	279.021	326.871	290.264	151.353	96.017	277.678	418.428	196.994	0.33985	0.35955	0.25571	0.76374	0.40458	25.682	10.235	16.365	4.7702	4.3783	4.3034	4.4264	4.1621	58.574	26.99	35.765	316.946	185.660	259.101	92.783	218.537	86.549	254.329	271.015	1473.6	1474.3	1474.3	1474.3	1474.4	1474.3	1474.3	1474.3	3402.2	3404	3403.9	3404	3404	3403.9	3404	3404	261.449	261.446	261.448	261.443	261.451	261.446	261.445	261.449	-8191	255	
815.805	5	1	0	0	4.357	0.13733	12.193	0.14273	8.6919	0.14015	0.20323	0.35047	13.194	-0.74023	35.257	-1.0788	27.416	-1.1172	-0.93555	-0.85156	284.873	241.949	293.937	189.692	96.726	322.399	111.653	343.795	0.20993	0.28055	0.28465	0.31782	0.45956	26.361	10.557	16.777	4.7012	5.0651	4.515	4.11	4.7435	58.059	26.543	36.111	200.356	294.688	200.948	206.170	182.119	85.857	255.355	271.572	1473.5	1474.3	1474.3	1474.3	1474.1	1474.3	1474.3	1474.3	3402.2	3404	3404	3404	3404	3404	3403.9	3403.9	261.443	261.444	261.444	261.446	261.445	261.442	261.453	261.448	-8191	255	
815.955	5	1	0	0	4.5252	0.21231	12.471	0.077676	8.7856	0.16218	0.068319	0.29235	13.464	-1.0169	35.317	-0.82943	27.334	-0.88607	-1.2064	-0.8138	268.800	283.319	291.131	406.668	91.052	437.273	343.154	325.300	0.37107	0.34193	0.51415	0.14334	0.40091	26.601	9.9821	16.751	4.9635	4.1523	4.3997	4.1341	3.8529	58.811	25.91	36.774	268.374	359.663	190.545	223.127	94.084	86.229	250.592	268.114	1473.5	1474.4	1474.2	1474.4	1474.2	1474.4	1474.2	1474.3	3402.1	3404	3403.9	3404	3403.9	3404	3404	3404	261.444	261.451	261.448	261.443	261.446	261.439	261.447	261.449	-8191	255	
816.107	5	1	0	0	4.1713	0.15085	11.764	0.17441	8.3515	0.23699	0.16702	0.1632	13.188	-0.6543	35.161	-0.99219	27.514	-1.1432	-0.74609	-1.1647	280.525	180.565	293.635	123.359	94.407	237.183	174.424	379.470	0.5259	0.36448	0.1423	0.38583	0.29116	26.213	9.5366	16.375	4.1934	5.0918	4.1042	4.1849	4.2402	57.702	26.865	35.98	302.751	348.474	340.348	350.375	87.840	88.015	250.725	272.366	1473.6	1474.3	1474.3	1474.3	1474.3	1474.4	1474.2	1474.2	3402.2	3404.1	3404	3403.9	3404.1	3403.9	3404.1	3403.9	261.446	261.444	261.448	261.446	261.445	261.446	261.450	261.450	-8191	255	
816.279	5	1	0	0	4.081	0.072355	12.206	0.2293	8.4403	0.18007	0.06741	0.2314	14.139	-1.0742	34.365	-0.93099	28.281	-0.95898	-1.0586	-0.90039	275.873	164.118	290.928	312.863	98.574	208.452	233.697	127.548	0.27549	0.31721	0.23035	0.52715	0.25517	25.599	9.7799	16.151	4.8079	4.1302	4.5671	4.2116	4.4759	58.268	26.495	36.948	413.539	427.483	359.511	297.407	439.673	86.240	256.534	270.988	1473.6	1474.2	1474.2	1474.3	1474.4	1474.3	1474.2	1474.4	3402.2	3403.8	3404	3404	3403.9	3404	3403.9	3404	261.445	261.446	261.446	261.443	261.446	261.448	261.444	261.445	-8191	255	
#DATA ENDS
