BOXY.EXE: ISS Imagent and Oximeter Data Acquisition Program Version 0.80
Ascii Record File

#ACQ INFORMATION
2  Detector Channels 
16  External MUX Channels 
1  Auxiliary Channels 
5000  Waveform (CCF) Frequency (Hz)
1  Waveforms Skipped 
30  Waveforms Averaged 
1  Cycles Averaged 
16  Acquisitions per Waveform 
10.0806  Updata Rate (Hz) 

#FILE INFORMATION
TRUE -- External MUX Channel results are PARSED.
FALSE -- AC DC and Phase are NOT grouped.
TRUE -- Companion Program Settings File CREATED.
FALSE -- AC data not excluded
FALSE -- DC data not excluded
FALSE -- Phase data not excluded
FALSE -- Auxillary Chn. data not excluded
Tab delimiters

#CALIBRATION STATE
TRUE -- Waveform Calibration Values APPLIED.


#AUX CALIBRATION VALUES
Val Type	aux-1	

Term	1.0000e+00	
Factor	0.0000e+00	


#WF CALIBRATION VALUES
A = Detector Channel
Val Type	A-AC1	A-AC2	A-AC3	A-AC4	A-AC5	A-AC6	A-AC7	A-AC8	A-AC9	A-AC10	A-AC11	A-AC12	A-AC13	A-AC14	A-AC15	A-AC16	A-DC1	A-DC2	A-DC3	A-DC4	A-DC5	A-DC6	A-DC7	A-DC8	A-DC9	A-DC10	A-DC11	A-DC12	A-DC13	A-DC14	A-DC15	A-DC16	A-Ph1	A-Ph2	A-Ph3	A-Ph4	A-Ph5	A-Ph6	A-Ph7	A-Ph8	A-Ph9	A-Ph10	A-Ph11	A-Ph12	A-Ph13	A-Ph14	A-Ph15	A-Ph16	

Term	0.00000e+00	0.00000e+00	0.00000e+00	0.00000e+00	0.00000e+00	0.00000e+00	0.00000e+00	0.00000e+00	0.00000e+00	0.00000e+00	0.00000e+00	0.00000e+00	0.00000e+00	0.00000e+00	0.00000e+00	0.00000e+00	0.00000e+00	0.00000e+00	0.00000e+00	0.00000e+00	0.00000e+00	0.00000e+00	0.00000e+00	0.00000e+00	0.00000e+00	0.00000e+00	0.00000e+00	0.00000e+00	0.00000e+00	0.00000e+00	0.00000e+00	0.00000e+00	0.00000e+00	0.00000e+00	0.00000e+00	0.00000e+00	0.00000e+00	0.00000e+00	0.00000e+00	0.00000e+00	0.00000e+00	0.00000e+00	0.00000e+00	0.00000e+00	0.00000e+00	0.00000e+00	0.00000e+00	0.00000e+00	
Factor	1.00000e+00	1.00000e+00	1.00000e+00	1.00000e+00	1.00000e+00	1.00000e+00	1.00000e+00	1.00000e+00	1.00000e+00	1.00000e+00	1.00000e+00	1.00000e+00	1.00000e+00	1.00000e+00	1.00000e+00	1.00000e+00	1.00000e+00	1.00000e+00	1.00000e+00	1.00000e+00	1.00000e+00	1.00000e+00	1.00000e+00	1.00000e+00	1.00000e+00	1.00000e+00	1.00000e+00	1.00000e+00	1.00000e+00	1.00000e+00	1.00000e+00	1.00000e+00	X	X	X	X	X	X	X	X	X	X	X	X	X	X	X	X	

B = Detector Channel
Val Type	B-AC1	B-AC2	B-AC3	B-AC4	B-AC5	B-AC6	B-AC7	B-AC8	B-AC9	B-AC10	B-AC11	B-AC12	B-AC13	B-AC14	B-AC15	B-AC16	B-DC1	B-DC2	B-DC3	B-DC4	B-DC5	B-DC6	B-DC7	B-DC8	B-DC9	B-DC10	B-DC11	B-DC12	B-DC13	B-DC14	B-DC15	B-DC16	B-Ph1	B-Ph2	B-Ph3	B-Ph4	B-Ph5	B-Ph6	B-Ph7	B-Ph8	B-Ph9	B-Ph10	B-Ph11	B-Ph12	B-Ph13	B-Ph14	B-Ph15	B-Ph16	

Term	0.00000e+00	0.00000e+00	0.00000e+00	0.00000e+00	0.00000e+00	0.00000e+00	0.00000e+00	0.00000e+00	0.00000e+00	0.00000e+00	0.00000e+00	0.00000e+00	0.00000e+00	0.00000e+00	0.00000e+00	0.00000e+00	0.00000e+00	0.00000e+00	0.00000e+00	0.00000e+00	0.00000e+00	0.00000e+00	0.00000e+00	0.00000e+00	0.00000e+00	0.00000e+00	0.00000e+00	0.00000e+00	0.00000e+00	0.00000e+00	0.00000e+00	0.00000e+00	-1.62475e+02	-1.30028e+02	-1.29081e+02	-1.82568e+02	-7.08570e+01	-6.63597e+01	-1.57125e+02	-1.62015e+02	-8.01052e+01	-6.56729e+01	-1.70653e+02	-1.69026e+02	-1.81905e+02	-1.76426e+02	-7.59934e+01	-1.49739e+02	
Factor	2.48014e-05	1.38066e-04	4.13928e-05	1.81409e-01	1.37938e-06	1.71112e-06	1.66522e-01	5.10113e-02	1.39629e-06	1.55553e-06	7.91198e-02	2.75910e-02	2.90947e-02	8.83143e-03	1.46968e-06	1.26923e-02	9.30207e-06	1.30508e-05	3.64333e-06	9.51287e-02	1.35613e-07	1.44845e-07	8.22480e-02	2.69387e-02	1.34931e-07	1.44256e-07	4.04368e-02	1.41989e-02	1.54998e-02	4.70142e-03	1.38599e-07	6.55128e-03	X	X	X	X	X	X	X	X	X	X	X	X	X	X	X	X	



#DISTANCE SETTINGS
A = Detector Channel
A-1	A-2	A-3	A-4	A-5	A-6	A-7	A-8	A-9	A-10	A-11	A-12	A-13	A-14	A-15	A-16	

2.5000e+00	3.0000e+00	2.5000e+00	3.0000e+00	2.0000e+00	3.0000e+00	1.5000e+00	3.0000e+00	3.0000e+00	3.0000e+00	3.0000e+00	3.0000e+00	3.0000e+00	3.0000e+00	1.5000e+00	3.0000e+00	

B = Detector Channel
B-1	B-2	B-3	B-4	B-5	B-6	B-7	B-8	B-9	B-10	B-11	B-12	B-13	B-14	B-15	B-16	

1.0000e+01	1.0000e+01	1.0000e+01	1.4400e+00	1.0000e+01	1.0000e+01	1.5100e+00	1.9400e+00	1.0000e+01	1.0000e+01	1.9900e+00	2.4900e+00	2.4100e+00	2.9000e+00	1.0000e+01	2.9800e+00	




#DATA BEGINS
time	group	step	mark	flag	A-AC1	A-AC2	A-AC3	A-AC4	A-AC5	A-AC6	A-AC7	A-AC8	A-AC9	A-AC10	A-AC11	A-AC12	A-AC13	A-AC14	A-AC15	A-AC16	A-DC1	A-DC2	A-DC3	A-DC4	A-DC5	A-DC6	A-DC7	A-DC8	A-DC9	A-DC10	A-DC11	A-DC12	A-DC13	A-DC14	A-DC15	A-DC16	A-Ph1	A-Ph2	A-Ph3	A-Ph4	A-Ph5	A-Ph6	A-Ph7	A-Ph8	A-Ph9	A-Ph10	A-Ph11	A-Ph12	A-Ph13	A-Ph14	A-Ph15	A-Ph16	B-AC1	B-AC2	B-AC3	B-AC4	B-AC5	B-AC6	B-AC7	B-AC8	B-AC9	B-AC10	B-AC11	B-AC12	B-AC13	B-AC14	B-AC15	B-AC16	B-DC1	B-DC2	B-DC3	B-DC4	B-DC5	B-DC6	B-DC7	B-DC8	B-DC9	B-DC10	B-DC11	B-DC12	B-DC13	B-DC14	B-DC15	B-DC16	B-Ph1	B-Ph2	B-Ph3	B-Ph4	B-Ph5	B-Ph6	B-Ph7	B-Ph8	B-Ph9	B-Ph10	B-Ph11	B-Ph12	B-Ph13	B-Ph14	B-Ph15	B-Ph16	aux-1	digaux	

2699.659	1	1	0	512	0.10335	0.15111	0.25885	0.2103	0.092604	0.19524	0.17328	0.27399	0.13264	0.18136	0.1679	0.26772	0.2514	0.31781	0.34755	0.18349	-0.22917	-0.24583	0.016667	-0.78333	0.28125	-0.22083	-0.73125	0.17292	-0.575	-0.1625	-0.1125	-0.82292	-0.089583	-0.4375	-0.6125	0.045833	165.781	260.580	434.571	444.838	475.631	193.514	164.566	402.590	410.542	494.198	421.391	162.461	487.557	411.866	439.040	491.962	0.0011752	0.00089082	0.00022062	854.83	5.087e-06	9.1331e-06	802.43	355.9	1.0376e-05	5.4811e-06	373.79	176.76	141.09	69.142	8.1947e-06	81.75	0.00096422	0.00090613	0.00025503	818.35	9.5435e-06	1.0079e-05	769.75	341.91	1.01e-05	9.9041e-06	358.13	169.59	136.44	66.921	9.8761e-06	78.988	152.968	216.069	229.918	153.230	293.813	310.768	151.723	158.186	260.471	323.515	155.565	158.706	162.462	165.863	246.123	162.225	-8191	255	
2699.753	1	1	0	0	0.25579	0.1696	0.189	0.028979	0.36464	0.13	0.33135	0.27025	0.11367	0.24085	0.24868	0.25824	0.33359	0.12804	0.18091	0.20238	-0.18958	-0.38958	0.11875	-0.73125	-0.033333	-0.10625	-0.92292	0.077083	-0.45417	-0.62917	0.025	-0.98958	-0.12083	-0.30625	-0.77083	-0.05625	429.234	174.342	193.546	400.876	449.716	335.439	413.499	145.702	470.728	378.703	476.353	411.305	151.844	166.905	280.101	427.708	0.001207	0.00074466	0.00027979	856.3	5.311e-06	5.8126e-06	801.45	354.23	6.5616e-06	6.7672e-06	369.47	174.06	139.77	68.3	7.1289e-06	80.683	0.00097131	0.00091122	0.00025947	817.78	9.4104e-06	9.8721e-06	765.69	339.74	9.7552e-06	9.7547e-06	353.49	167.52	135.04	66.285	9.693e-06	78.05	154.044	214.988	222.116	153.353	266.454	251.226	151.691	158.025	259.423	279.944	155.564	158.352	162.299	165.868	250.325	162.248	-8191	255	
2699.850	1	1	0	0	0.12905	0.23671	0.022312	0.22712	0.17746	0.11969	0.16755	0.11752	0.051654	0.19623	0.073928	0.10666	0.067765	0.12808	0.18449	0.29084	0.01875	-0.34375	0.20625	-0.92083	-0.26458	0.070833	-1.0354	-0.079167	-0.4125	-0.54375	0.11875	-0.8125	-0.45417	-0.27083	-0.77083	-0.12708	219.770	403.602	174.683	472.655	437.980	309.733	427.442	412.495	295.482	439.904	315.415	450.441	171.481	152.747	401.460	359.802	0.0011393	0.00061425	0.00016296	851.75	8.5388e-06	7.2692e-06	800.69	353.77	8.9842e-06	6.648e-06	369.34	174.89	140.3	68.956	7.815e-06	81.409	0.00096538	0.00091239	0.00025373	815.43	9.4681e-06	9.6889e-06	764.55	339.74	9.7319e-06	9.8238e-06	353.52	168.04	135.69	66.748	9.872e-06	78.583	154.548	236.308	209.899	153.292	280.151	306.161	151.801	157.979	289.199	269.665	155.494	158.370	162.359	165.594	279.947	162.043	-8191	255	
2699.970	1	1	0	0	0.19454	0.1108	0.1747	0.30801	0.248	0.26257	0.10324	0.15793	0.21789	0.16308	0.22929	0.33287	0.060234	0.27434	0.11956	0.22346	0.00625	-0.57917	0.28125	-0.64792	-0.31875	-0.14583	-0.75625	0.05	-0.1625	-0.64375	0.066667	-0.60625	-0.39792	-0.22917	-0.84167	-0.060417	263.915	231.958	211.816	347.435	462.911	181.636	424.844	460.349	284.095	344.935	159.180	450.335	242.960	421.867	385.526	158.409	0.0011818	0.00055447	0.00015438	854.84	4.9751e-06	6.7003e-06	800.61	353.54	1.094e-05	4.9899e-06	370.21	176.16	140.77	69.459	3.6354e-06	81.773	0.00095871	0.0009231	0.00025277	818.52	9.3132e-06	9.7348e-06	766.77	340.41	9.6001e-06	1.0026e-05	355.89	168.99	136.12	67.114	9.7868e-06	79.18	153.074	241.364	234.980	152.949	304.119	281.340	151.482	157.875	256.932	288.824	155.540	158.414	162.124	165.486	292.002	161.756	-8191	255	
2700.066	1	1	0	0	0.20652	0.32203	0.11578	0.093323	0.34151	0.13752	0.31786	0.059344	0.13403	0.061621	0.13451	0.2851	0.22608	0.26366	0.044595	0.06526	0.085417	-0.67083	0.11667	-0.49167	-0.40208	0.3625	-0.95417	-0.083333	-0.072917	-0.78958	0.14167	-0.45208	-0.475	0.014583	-0.94167	-0.28958	246.480	198.806	182.323	339.416	157.468	341.615	475.205	262.190	438.192	216.155	433.568	445.133	195.745	453.340	413.071	361.066	0.0011853	0.00062703	0.00017498	854.9	6.9534e-06	6.7892e-06	806.57	355.31	7.6728e-06	7.2902e-06	374.17	175.98	141.7	69.136	9.1022e-06	81.307	0.00097443	0.00091443	0.00025339	819.29	9.5087e-06	1.0125e-05	771.08	341.44	9.8873e-06	9.8557e-06	358.71	169.38	136.34	66.802	1.0066e-05	78.68	154.052	223.846	247.417	152.957	240.362	312.453	151.232	157.775	249.862	313.491	155.186	158.300	162.073	165.570	282.549	162.061	-8191	255	
2700.138	1	1	0	0	0.32381	0.19841	0.24118	0.28667	0.2611	0.041734	0.25451	0.14249	0.18597	0.084777	0.033007	0.17565	0.27865	0.16774	0.44906	0.15008	0.41042	-0.87083	0.27292	-0.52917	-0.51667	0.047917	-0.96875	-0.2	0.10625	-0.86042	0.097917	-0.25	-0.55417	0.175	-0.425	-0.3625	259.684	432.583	246.413	157.727	152.867	468.816	455.222	445.241	243.014	456.350	394.779	494.730	448.914	490.947	346.779	153.196	0.0011973	0.00072213	0.00020281	854.53	5.561e-06	1.0077e-05	800.29	353.28	6.0065e-06	3.7745e-06	366.49	173.83	139.56	68.279	9.6042e-06	80.467	0.00096484	0.00092321	0.00025005	818.35	9.6314e-06	9.9882e-06	764.35	339.44	9.5152e-06	1.0122e-05	352.61	167.1	135.1	66.288	1.0027e-05	77.824	152.977	200.102	228.015	153.158	261.069	325.548	151.493	157.784	260.683	308.208	155.278	158.551	162.076	165.435	290.937	162.024	-8191	255	
2700.234	1	1	0	0	0.13454	0.20862	0.028957	0.17195	0.10181	0.20571	0.57565	0.27494	0.12684	0.23323	0.11994	0.27648	0.21596	0.12159	0.041229	0.28305	0.64583	-0.65417	0.20625	-0.11875	-0.56458	0.19792	-0.71458	-0.37917	0.097917	-0.7	0.0083333	-0.16667	-0.59583	0.06875	-0.40625	-0.52083	428.002	310.768	388.387	452.058	276.047	249.944	493.120	496.157	171.751	439.792	411.252	483.684	437.299	382.604	422.722	382.748	0.0012417	0.00038622	0.00017154	849.82	5.9729e-06	2.8339e-06	799.49	353.37	6.9878e-06	4.6376e-06	369.29	174.51	140.78	68.829	6.5221e-06	80.7	0.00096106	0.00090526	0.00025516	814.65	9.5924e-06	9.8431e-06	762.19	339.3	9.7083e-06	9.8887e-06	353.62	167.4	135.83	66.481	9.8864e-06	78.33	153.910	212.573	239.134	153.040	255.641	240.135	151.623	157.526	266.819	245.561	155.513	158.332	162.438	165.369	268.489	161.910	-8191	255	
2700.355	1	1	0	0	0.075722	0.23646	0.095558	0.26989	0.2366	0.13005	0.025254	0.29084	0.16949	0.04027	0.30859	0.11662	0.27351	0.34839	0.27546	0.19406	0.56667	-0.69167	-0.13958	-0.11042	-0.65833	0.13125	-0.45	-0.46667	0.05	-0.70833	-0.13542	-0.13333	-0.74375	0.089583	-0.25208	-0.73125	226.940	281.223	161.236	428.990	490.146	305.500	319.380	464.080	409.965	407.839	402.178	385.692	165.090	466.453	243.728	437.733	0.0011523	0.0006762	0.00013377	853.92	7.807e-06	1.0713e-05	793.71	354.54	9.969e-06	4.0029e-06	370.24	175.58	140.78	68.369	7.728e-06	80.976	0.00094957	0.00090915	0.00025146	816.16	9.6311e-06	9.8449e-06	763.93	340.28	9.5559e-06	1.0047e-05	354.91	168.27	135.91	66.613	9.993e-06	78.471	153.237	208.579	228.151	153.070	279.908	282.562	151.451	157.778	275.551	239.159	155.560	158.557	162.290	165.332	278.590	162.181	-8191	255	
2700.451	1	1	0	0	0.089653	0.22045	0.20238	0.13444	0.15178	0.15945	0.21732	0.1156	0.25562	0.42262	0.27646	0.25618	0.12862	0.081094	0.057791	0.038278	0.52708	-0.52292	-0.035417	-0.05	-0.65833	-0.00625	-0.34583	-0.73333	0.1375	-0.425	-0.33542	-0.0375	-0.79792	-0.12292	-0.05625	-0.61875	247.609	170.873	155.654	493.646	182.762	420.289	394.004	461.738	393.087	307.907	439.515	415.768	189.510	368.148	269.249	142.771	0.0012884	0.00032655	9.8949e-05	851.41	7.5177e-06	5.3953e-06	803.12	355.26	8.6201e-06	6.3922e-06	371.66	175.58	140.87	68.561	8.7319e-06	80.555	0.00096742	0.00093104	0.00025685	816.18	9.5308e-06	9.9834e-06	768.87	341.07	9.5919e-06	1.0157e-05	355.9	168.32	135.92	66.558	9.8408e-06	78.15	158.715	217.819	225.938	153.218	298.672	286.969	151.442	157.901	281.496	265.709	155.338	158.380	162.306	165.433	252.025	161.717	-8191	255	
2700.547	1	1	0	0	0.053056	0.14683	0.26317	0.10918	0.20188	0.1224	0.18984	0.23865	0.16773	0.20828	0.13093	0.27379	0.25681	0.43936	0.27207	0.37299	0.55	-0.46458	-0.3	0.14583	-0.69792	-0.14375	-0.26042	-1.0146	0.19167	-0.3	-0.62917	-0.097917	-0.80625	-0.31667	0.08125	-0.74375	167.762	240.640	172.128	458.777	239.059	148.617	192.809	432.645	159.538	450.586	403.752	466.319	354.557	200.819	441.120	424.397	0.0011709	0.00050105	0.00023523	848.61	3.6464e-06	9.8794e-06	795.72	352.28	6.694e-06	6.0463e-06	364.86	173.5	140.11	68.231	7.4443e-06	80.596	0.00095048	0.00091304	0.00024829	814.14	9.4627e-06	1.0204e-05	760.61	338.09	9.8322e-06	1.005e-05	350.61	166.56	135.07	66.22	1.0086e-05	77.832	155.845	218.993	232.765	153.144	339.951	267.849	151.629	157.811	236.395	306.277	155.213	158.621	162.340	165.600	297.453	161.906	-8191	255	
2700.643	1	1	0	0	0.031804	0.072022	0.22553	0.16997	0.11623	0.29103	0.17409	0.49727	0.080743	0.20731	0.11347	0.087624	0.079119	0.31118	0.23107	0.26579	0.40417	-0.52708	-0.55833	0.23542	-0.73125	-0.17292	0.016667	-0.87917	0.11458	-0.58542	-0.60417	-0.0875	-0.67708	-0.44167	-0.010417	-0.81667	332.364	336.449	493.290	311.732	208.927	444.651	273.904	460.003	304.417	186.867	421.619	215.031	193.621	475.791	456.449	498.500	0.0011868	0.00088935	0.00022702	851.87	8.3794e-06	7.4553e-06	796.02	351.88	9.4184e-06	7.7636e-06	368.51	174.36	140.17	68.199	6.9167e-06	80.42	0.00095075	0.00090776	0.00025116	814.96	9.4387e-06	9.7034e-06	760.39	338.94	9.7015e-06	9.9921e-06	352.35	166.98	135.34	66.3	9.8844e-06	77.801	155.026	225.056	213.089	153.035	304.419	280.249	151.406	157.748	258.939	293.232	155.283	158.400	162.407	165.333	272.928	161.984	-8191	255	
2700.764	1	1	0	0	0.26059	0.034774	0.11472	0.40989	0.2207	0.32081	0.20573	0.33232	0.14858	0.4666	0.045179	0.1153	0.16568	0.11656	0.15462	0.26893	0.36667	-0.17708	-0.48542	0.14167	-0.46875	-0.31875	0.052083	-0.87708	0.097917	-0.11042	-0.58542	0.095833	-0.44583	-0.61875	-0.0041667	-0.77292	209.626	278.489	146.640	473.177	239.646	156.867	438.557	497.594	270.082	397.160	421.784	278.972	445.619	457.904	234.968	371.755	0.0011834	0.00061113	0.00018127	850.86	5.7676e-06	6.791e-06	797.65	353.66	8.8524e-06	5.3562e-06	368.04	173.51	141.28	68.524	6.1318e-06	81.079	0.00095112	0.00093558	0.00025335	815.43	9.4565e-06	1.0283e-05	763.82	339.7	9.6996e-06	9.9056e-06	353.39	167.11	135.76	66.441	1.0283e-05	78.37	153.907	237.720	236.912	153.077	275.410	287.601	151.744	157.681	284.719	280.966	155.101	158.159	162.521	165.333	268.641	162.153	-8191	255	
2700.836	1	1	0	0	0.054237	0.25864	0.13942	0.042462	0.055701	0.043854	0.04711	0.24776	0.20425	0.098269	0.18562	0.12036	0.057657	0.47746	0.5212	0.17867	0.3	-0.22083	-0.71458	0.14792	-0.56042	-0.52292	0.20208	-0.90417	-0.085417	-0.20833	-0.76042	-0.066667	-0.37708	-0.62917	0.27083	-0.53125	394.374	247.323	481.146	474.787	209.026	247.796	442.347	453.837	374.363	353.747	414.302	465.132	149.599	491.251	354.213	449.778	0.0012237	0.00074827	0.00014787	850.03	5.0132e-06	8.6126e-06	799.49	353.91	6.5315e-06	7.7545e-06	371.3	174.23	140.54	68.088	7.6814e-06	80.406	0.000956	0.00091573	0.00024817	815.33	9.6147e-06	9.9837e-06	765.65	340.37	9.8064e-06	1.0041e-05	355.18	167.35	135.34	66.172	9.9491e-06	77.888	157.172	224.046	249.631	153.017	250.704	294.784	151.811	157.690	247.735	281.523	155.452	158.326	162.008	165.375	262.422	162.197	-8191	255	
2700.954	1	1	0	0	0.19042	0.13599	0.16095	0.11156	0.28366	0.45426	0.14376	0.13941	0.23617	0.034152	0.26838	0.38868	0.15589	0.29281	0.24109	0.172	0.23542	0.09375	-0.625	0.19375	-0.46875	-0.77708	0.045833	-0.88333	-0.275	0.075	-0.77708	-0.21875	-0.15	-0.6625	0.32083	-0.66042	370.737	442.319	455.219	431.843	261.504	391.847	362.724	401.842	442.441	205.750	485.468	155.077	401.447	452.967	291.009	445.683	0.0011624	0.00060551	0.00017714	850.28	6.9745e-06	9.8144e-06	794.61	352.6	6.6891e-06	5.4565e-06	365.42	172.33	139.77	68.102	8.0998e-06	80.033	0.00096864	0.00091271	0.0002528	814.91	9.5469e-06	9.7734e-06	760.26	338.5	9.539e-06	1.0085e-05	350.6	166	134.72	65.882	9.8677e-06	77.393	153.629	235.890	247.772	153.031	282.482	281.529	151.512	157.674	270.487	298.512	155.355	158.570	162.397	165.337	276.845	162.311	-8191	255	
2701.051	1	1	0	0	0.1614	0.13285	0.045575	0.29181	0.15522	0.035122	0.11713	0.29086	0.30184	0.15959	0.11687	0.14116	0.23986	0.25362	0.08014	0.15878	0.085417	0.29375	-0.83333	-0.0041667	-0.17292	-0.81667	0.052083	-0.51875	-0.4	0.33333	-0.91875	-0.21875	-0.18333	-0.85833	0.50625	-0.55208	197.923	262.807	240.194	432.071	223.483	327.916	404.417	494.560	365.692	266.621	297.309	469.449	476.966	169.383	432.923	426.958	0.0012602	0.00054563	0.00022984	845.07	8.0154e-06	7.5283e-06	792.24	352.52	7.7661e-06	6.6283e-06	367.26	173.12	139.98	68.136	9.0962e-06	80.088	0.00097964	0.00091943	0.00025102	813.58	9.4746e-06	1.0127e-05	758.68	338.73	9.5233e-06	1.0116e-05	351.47	166.36	135.12	66.035	9.656e-06	77.558	155.093	216.445	224.173	152.844	298.206	263.711	151.399	157.572	300.392	276.303	155.380	158.104	162.416	165.498	281.452	161.758	-8191	255	
2701.147	1	1	0	0	0.10838	0.22663	0.078561	0.32921	0.25352	0.061994	0.20084	0.3546	0.18531	0.06604	0.26574	0.27438	0.15523	0.14425	0.064505	0.13938	-0.08125	0.2875	-0.66667	-0.32917	0.052083	-0.4875	0.06875	-0.51042	-0.63958	0.15	-0.76875	-0.40417	-0.022917	-0.95417	0.32917	-0.40833	456.344	181.329	196.062	140.147	264.829	285.326	496.308	481.056	298.107	398.189	141.733	495.506	352.881	160.725	168.092	424.102	0.001298	0.00091493	7.727e-05	849.47	5.3626e-06	8.9001e-06	798.72	356.57	7.7743e-06	8.1928e-06	369.33	173.43	140.48	68.447	9.1602e-06	80.96	0.00095645	0.00089963	0.00025375	814.2	9.3884e-06	9.637e-06	761.17	341.13	9.4345e-06	9.9678e-06	354.05	167.16	135.68	66.466	1.0011e-05	78.203	155.825	209.377	237.649	152.827	283.006	309.128	151.421	157.984	249.045	330.355	155.443	158.357	162.184	165.441	280.949	162.312	-8191	255	
2701.243	1	1	0	0	0.17108	0.12627	0.12735	0.38212	0.20612	0.046679	0.14583	0.22556	0.077959	0.21663	0.12534	0.16039	0.39513	0.11812	0.11684	0.29722	-0.0020833	0.2625	-0.54167	-0.072917	-0.029167	-0.90417	-0.039583	-0.27917	-0.6125	0.47083	-0.7125	-0.42917	0.24583	-0.82917	-0.052083	-0.325	250.927	241.605	170.646	496.986	381.515	157.362	493.645	442.856	198.630	200.518	145.994	141.454	148.888	180.466	398.100	436.603	0.0011894	0.00067199	0.00015161	857.22	7.9829e-06	5.9541e-06	797.81	356.1	7.0304e-06	6.0552e-06	370.37	174.28	140.64	68.691	5.0835e-06	80.472	0.00095585	0.00092364	0.00025059	817.5	9.42e-06	1.0045e-05	764.57	340.77	9.8154e-06	1.0208e-05	355.26	167.25	135.71	66.288	9.9407e-06	77.802	155.216	205.618	214.451	152.619	276.296	266.701	151.288	157.962	275.204	298.346	155.237	158.340	162.410	165.630	291.422	161.991	-8191	255	
2701.364	1	1	0	0	0.038167	0.22933	0.10629	0.060727	0.22282	0.17115	0.13446	0.2879	0.063578	0.11857	0.20563	0.25255	0.22821	0.22196	0.12552	0.2479	-0.31875	0.31667	-0.38333	-0.33958	0.13333	-0.73542	-0.21667	-0.30833	-0.75	0.1375	-0.4	-0.54583	-0.045833	-0.78333	-0.13333	-0.26875	461.025	284.532	200.294	374.977	331.225	406.652	429.590	371.500	392.647	341.177	405.828	155.260	431.946	462.965	176.034	436.949	0.0011919	0.00082199	0.00019862	845.1	5.3862e-06	4.3264e-06	799.6	353.94	6.5219e-06	6.8375e-06	363.85	173.08	140.37	68.211	8.6694e-06	80.057	0.00096449	0.00091902	0.00024522	811.3	9.5192e-06	1.0178e-05	760.76	339.43	9.7235e-06	9.8653e-06	349.86	165.75	135.08	66.057	9.9364e-06	77.351	152.672	231.131	232.541	152.839	297.410	275.566	151.244	157.638	282.021	323.923	155.261	157.972	162.062	165.345	282.825	162.195	-8191	255	
2701.435	1	1	0	0	0.1107	0.15134	0.079919	0.26503	0.096443	0.17134	0.43974	0.40507	0.18728	0.22983	0.25479	0.16209	0.10917	0.39741	0.18077	0.30837	-0.33125	0.33958	-0.39792	-0.7375	0.28542	-0.69792	-0.26667	-0.15208	-0.74167	0.054167	-0.38542	-0.76875	0.19375	-0.82083	-0.27292	-0.18542	172.317	306.912	439.939	479.962	198.426	373.023	417.027	475.889	244.587	194.263	498.137	433.195	390.780	470.344	403.425	405.791	0.0011686	0.00088358	0.00014635	847.88	6.9887e-06	4.8306e-06	792.43	353.25	9.3374e-06	8.4675e-06	365.02	173.09	140.12	68	5.4052e-06	80.473	0.00093054	0.00092079	0.0002502	812.17	9.7026e-06	9.7921e-06	758.87	339.1	9.5736e-06	9.9561e-06	350.8	166.15	135.32	66.071	1.0129e-05	77.612	154.496	240.699	199.400	152.951	298.683	298.229	151.342	157.698	280.907	271.605	155.238	158.446	162.307	165.583	256.215	162.084	-8191	255	
2701.531	1	1	0	0	0.18983	0.054223	0.17966	0.26651	0.085924	0.16008	0.20513	0.29469	0.14483	0.15217	0.14915	0.25715	0.36095	0.47311	0.12953	0.21901	-0.41458	0.09375	-0.24167	-0.69583	0.34583	-0.56458	-0.3625	-0.12292	-0.90625	0.17083	-0.16875	-0.90625	0.04375	-0.57292	-0.67292	0.18333	322.876	396.931	306.847	397.435	344.927	314.682	150.833	141.388	158.201	430.387	492.713	470.806	470.641	468.857	408.615	449.796	0.0011071	0.00058774	0.00016163	846.57	4.6874e-06	7.0436e-06	801.42	353.54	7.3246e-06	7.6891e-06	368.85	174.08	140.89	68.533	4.6907e-06	80.697	0.00094935	0.00091116	0.00025112	812.13	9.6435e-06	1.026e-05	765.45	339.4	9.5593e-06	1.0274e-05	353.73	167.26	135.76	66.431	9.9376e-06	78.024	155.161	236.593	209.389	152.939	276.720	309.117	151.570	158.027	257.009	279.001	155.594	158.524	162.198	165.551	258.039	161.883	-8191	255	
2701.652	1	1	0	0	0.07903	0.061668	0.21431	0.029056	0.087419	0.33696	0.21239	0.032616	0.061298	0.22269	0.38382	0.070742	0.027504	0.14141	0.0968	0.3629	-0.3	-0.033333	0.2	-0.89583	0.325	-0.32083	-0.37083	0.15625	-0.65	-0.1875	-0.064583	-0.73542	0.1625	-0.59167	-0.42292	0.25417	462.089	384.998	390.610	350.083	437.399	290.930	472.008	301.231	460.189	220.368	473.316	475.190	157.952	463.392	244.240	463.176	0.0012507	0.00046182	0.00018132	847.37	6.009e-06	1.0263e-05	803.68	355.07	6.0343e-06	2.8923e-06	369.07	174.1	139.17	68.307	7.9378e-06	80.003	0.00097054	0.00090698	0.00025385	813.96	9.698e-06	9.9369e-06	766.08	341.14	9.6228e-06	1.0028e-05	354.04	167.19	135.28	66.275	9.9705e-06	77.435	154.033	199.961	208.896	152.850	292.719	280.215	151.194	157.739	276.573	267.603	155.291	158.384	162.247	165.529	271.147	162.116	-8191	255	
2701.746	1	1	0	0	0.17232	0.046492	0.1581	0.15708	0.079161	0.065022	0.37719	0.29567	0.43115	0.13166	0.27058	0.16139	0.36251	0.51103	0.28959	0.17038	-0.24167	0.03125	0.14375	-0.81042	-0.052083	-0.27292	-0.55833	0.18542	-0.58542	-0.175	0.022917	-0.96042	-0.15833	-0.52292	-0.90417	0.03125	382.671	216.874	435.961	161.987	476.709	382.784	401.741	403.176	375.761	431.592	454.080	143.262	443.117	457.870	296.807	491.325	0.0011456	0.00057803	0.00024391	851.75	6.8094e-06	8.7238e-06	793.91	351.15	9.5839e-06	7.8669e-06	364.55	172.71	139.63	67.951	9.0022e-06	79.569	0.00096067	0.00091829	0.00024681	813.07	9.5743e-06	9.7836e-06	759.35	337.95	9.6894e-06	9.9711e-06	349.74	165.61	134.75	66	9.9607e-06	76.987	154.951	231.529	228.790	152.949	266.352	284.163	151.476	157.705	274.046	292.737	155.446	158.255	162.053	165.572	253.254	161.788	-8191	255	
2701.843	1	1	0	0	0.31426	0.094404	0.12522	0.18815	0.06836	0.029884	0.15986	0.24653	0.16013	0.0073846	0.055854	0.31474	0.046459	0.29414	0.21708	0.11571	-0.175	-0.41875	0.18958	-0.75833	0.12292	-0.085417	-0.78333	0.10833	-0.40833	-0.34375	0.020833	-0.74375	0.079167	-0.1125	-0.55833	0.24167	221.052	480.358	326.273	368.717	337.303	213.813	492.200	375.706	383.149	371.233	390.684	464.476	425.920	176.240	351.716	423.443	0.0012592	0.00065312	0.00013824	851.24	5.8621e-06	7.52e-06	792.85	353.34	6.7495e-06	5.7057e-06	365.84	172.46	140.33	68.146	2.7126e-06	79.929	0.00095587	0.00091195	0.000248	813.09	9.6401e-06	9.819e-06	758.38	339.37	9.516e-06	9.819e-06	351.67	165.76	135.19	66.056	9.8651e-06	77.411	154.167	216.977	197.517	152.856	293.577	306.268	151.220	157.560	279.921	290.981	155.374	158.496	162.166	165.374	258.251	161.969	-8191	255	
2701.939	1	1	0	0	0.12484	0.12023	0.22406	0.16425	0.23057	0.23761	0.12216	0.16363	0.042814	0.18642	0.18369	0.30781	0.35501	0.31988	0.17259	0.024923	-0.01875	-0.46042	0.14792	-0.67917	-0.045833	0.085417	-0.75833	0.16875	-0.21875	-0.42917	0.020833	-0.75	-0.28542	-0.0375	-0.86042	-0.060417	369.296	459.619	263.794	464.174	165.468	317.078	292.101	440.742	427.091	428.661	348.381	159.288	150.609	153.040	421.432	385.729	0.0012023	0.00039991	0.00023923	852.07	5.1692e-06	8.6276e-06	799.67	352.66	5.7769e-06	6.7917e-06	367.19	173.92	140.67	68.029	1.034e-05	80.328	0.00095567	0.00089518	0.00025307	814.6	9.7195e-06	9.6554e-06	763.41	339.58	9.6408e-06	9.9287e-06	353.56	166.84	135.56	66.057	1.0124e-05	77.836	155.789	233.119	236.106	152.994	266.795	298.381	151.337	157.695	248.873	272.471	155.415	158.122	162.104	165.558	265.961	161.862	-8191	255	
2702.035	1	1	0	0	0.14431	0.20692	0.15641	0.18547	0.24189	0.11547	0.37445	0.24374	0.21389	0.19469	0.35317	0.14553	0.16373	0.21993	0.22453	0.13535	-0.033333	-0.51458	0.25	-0.72917	-0.45	0.13542	-0.92708	-0.10625	-0.19167	-0.65833	-0.033333	-0.80625	-0.38125	-0.085417	-1.0167	-0.05	271.555	161.903	328.868	220.435	170.923	164.482	446.177	291.245	355.669	239.883	479.983	145.800	186.656	141.442	293.112	177.525	0.0012444	0.0005628	6.444e-05	853.51	9.2291e-06	7.2264e-06	800.28	352.42	4.6306e-06	9.9329e-06	366.72	173.95	139.23	67.855	7.8547e-06	79.805	0.00095767	0.0009045	0.00025162	816.72	9.7387e-06	9.9267e-06	766.48	339.8	9.7926e-06	1.0079e-05	353.33	167	134.75	65.874	1.0031e-05	77.179	152.437	232.138	254.362	153.036	271.867	292.986	151.482	157.858	243.686	290.181	155.295	158.569	162.381	165.846	268.940	162.090	-8191	255	
2702.131	1	1	0	0	0.14184	0.19881	0.089367	0.21259	0.15191	0.12742	0.052326	0.25599	0.20789	0.035441	0.38099	0.25717	0.13708	0.33662	0.1803	0.41033	0.15417	-0.59375	0.13958	-0.59375	-0.31667	0.33125	-0.7875	-0.32917	-0.0041667	-0.81458	0.13542	-0.40625	-0.49167	-0.0041667	-0.81042	-0.2375	378.205	368.886	473.261	446.790	234.110	310.408	253.324	432.664	370.488	456.118	411.824	450.293	452.933	497.692	478.675	454.550	0.0011266	0.00065828	0.00013917	849.58	7.0134e-06	6.8144e-06	792.94	353.42	7.773e-06	4.6801e-06	365.92	172.47	139.3	67.778	8.6612e-06	80.054	0.00095108	0.00090988	0.00025451	814.42	9.3966e-06	9.7689e-06	759.69	338.46	9.629e-06	9.8196e-06	350.9	165.47	134.8	65.798	9.9445e-06	77.08	157.128	229.968	222.220	153.247	275.276	275.974	151.581	157.851	242.025	234.149	155.360	158.499	162.286	165.553	276.532	161.957	-8191	255	
2702.227	1	1	0	0	0.18584	0.234	0.27915	0.21896	0.19952	0.13944	0.21935	0.17998	0.34259	0.14542	0.16401	0.23681	0.38146	0.3374	0.2702	0.30533	0.42292	-0.85833	0.14583	-0.41458	-0.6875	0.21042	-0.67083	-0.37917	0.20625	-0.61875	0.014583	-0.44375	-0.72708	0.10833	-0.30833	-0.57917	381.908	345.490	179.388	464.299	211.704	181.449	467.093	458.760	231.880	206.394	492.453	423.943	463.314	445.188	478.836	423.362	0.0011766	0.0006041	0.00021404	852.72	6.6672e-06	5.8978e-06	789.59	353.93	1.0421e-05	1.4845e-06	366.61	172.73	140.17	68.197	9.4787e-06	79.808	0.00094567	0.00091967	0.00025811	814.79	9.4367e-06	9.8944e-06	758.22	339.5	9.6293e-06	9.6183e-06	352	166.23	135	66.06	9.831e-06	77.38	158.432	224.295	227.294	153.003	309.116	273.981	151.157	157.623	278.881	315.971	155.309	158.455	162.099	165.424	286.205	161.895	-8191	255	
2702.346	1	1	0	0	0.065799	0.12427	0.058291	0.18186	0.38863	0.15812	0.16568	0.28101	0.17906	0.11646	0.23488	0.2159	0.040299	0.2589	0.13959	0.25936	0.57917	-0.70625	0.19167	-0.25833	-0.57708	0.18542	-0.70625	-0.45833	0.095833	-0.80833	-0.083333	-0.064583	-1.0042	0.047917	-0.52917	-0.5125	208.415	456.923	336.277	447.745	209.543	360.013	411.199	455.944	310.089	474.576	193.150	475.184	461.924	466.064	193.749	440.703	0.0011955	0.00041014	0.00012533	851.23	6.4977e-06	7.569e-06	803.1	353.5	7.5091e-06	4.8064e-06	368	173.84	140.57	68.38	7.6131e-06	80.303	0.00094809	0.00090458	0.00025791	816.28	9.4551e-06	1.0307e-05	765.02	339.8	9.4868e-06	9.8073e-06	353.55	167.29	135.56	66.322	9.9223e-06	77.831	154.125	259.994	201.632	153.039	298.349	300.547	151.506	157.627	271.828	319.853	155.424	158.557	162.117	165.506	279.771	162.165	-8191	255	
2702.442	1	1	0	0	0.11925	0.25223	0.15751	0.21295	0.077703	0.28902	0.10415	0.16161	0.21198	0.27486	0.085394	0.23984	0.088718	0.30477	0.13331	0.076633	0.64583	-0.63333	0.0041667	0.04375	-0.86875	0.0625	-0.69375	-0.45417	0.2875	-0.8375	-0.26667	-0.027083	-1	0.10625	-0.3375	-0.575	297.880	176.106	394.594	408.572	166.588	230.351	379.207	144.645	177.576	384.145	428.989	386.423	416.757	148.481	168.977	332.172	0.0012295	0.00045598	0.00018218	856.28	6.1416e-06	5.0036e-06	804.74	354.39	4.1183e-06	6.3288e-06	368.11	173.32	140.26	68.173	1.0987e-05	79.776	0.00095899	0.00091763	0.00025358	818.42	9.5048e-06	1.0007e-05	769.64	340.41	9.8398e-06	9.8464e-06	354.53	166.42	135.5	66.052	1.0237e-05	77.246	157.195	210.752	232.543	153.433	275.014	299.829	151.581	158.058	240.574	271.276	155.331	158.376	162.245	165.618	287.801	162.200	-8191	255	
2702.538	1	1	0	0	0.081438	0.044846	0.087386	0.12098	0.14562	0.096334	0.18699	0.091837	0.10893	0.2036	0.18837	0.31117	0.15933	0.25391	0.083796	0.20845	0.71667	-0.60208	-0.22917	0.045833	-0.72083	-0.075	-0.48333	-0.64167	0.15208	-0.62083	-0.41458	-0.039583	-0.97708	-0.17917	-0.125	-0.82917	458.058	296.434	364.550	426.884	300.630	469.357	160.608	321.900	144.332	267.004	398.849	434.020	387.271	465.369	156.897	358.320	0.001143	0.00042003	0.0002203	854.59	2.5021e-06	6.1017e-06	795.27	354.66	6.9712e-06	8.3825e-06	364.89	172.3	139.9	68.358	6.179e-06	80.025	0.00095773	0.00089917	0.00026046	815.91	9.4118e-06	9.694e-06	761.33	339.71	9.4724e-06	1.0007e-05	350.78	165.35	134.8	66.049	9.6595e-06	77.259	154.630	188.531	202.390	153.132	319.322	319.958	151.594	157.631	265.145	273.539	155.522	158.262	162.184	165.572	260.046	161.955	-8191	255	
2702.635	1	1	0	0	0.15343	0.26129	0.18414	0.23916	0.13684	0.1825	0.098821	0.19656	0.26593	0.16437	0.1271	0.24286	0.12733	0.14971	0.27523	0.32255	0.41667	-0.56458	-0.36667	0.17292	-0.59583	0.079167	-0.22917	-0.87708	0.19375	-0.41667	-0.675	-0.03125	-0.71042	-0.40208	-0.10625	-0.85833	210.958	154.557	355.158	485.946	385.966	232.751	209.201	426.844	407.294	479.788	417.254	477.497	474.214	399.416	434.498	466.183	0.0011237	0.00064893	0.00011283	852.6	8.4059e-06	7.1938e-06	791.57	353.16	7.6567e-06	7.1457e-06	365.87	173.03	140.79	68.408	7.3186e-06	80.223	0.00095339	0.0009098	0.00024828	816.29	9.5407e-06	9.9614e-06	760.58	339.71	9.7682e-06	9.9101e-06	351.81	166.26	135.53	66.271	9.7992e-06	77.428	153.403	220.272	264.466	152.993	278.825	295.090	151.806	157.911	258.473	320.506	155.414	158.360	162.225	165.485	294.644	161.990	-8191	255	
2702.731	1	1	0	0	0.10728	0.1339	0.26156	0.17864	0.18966	0.027722	0.26544	0.081161	0.051096	0.17101	0.13928	0.28731	0.1751	0.15355	0.098374	0.11809	0.56458	-0.31875	-0.58958	0.14167	-0.53542	-0.35208	-0.03125	-0.91458	0.26667	-0.32917	-0.7125	-0.04375	-0.60625	-0.35	-0.022917	-1	282.805	255.056	225.278	483.532	429.613	182.228	470.781	176.589	449.179	380.112	419.558	482.644	160.463	456.937	180.798	388.051	0.0011945	0.00075077	0.00016447	851.05	5.9336e-06	4.3793e-06	802.64	355.71	9.393e-06	6.533e-06	370.6	173.06	141.37	68.553	7.683e-06	80.402	0.00095773	0.00090964	0.00025008	816.2	9.4929e-06	9.9698e-06	767.5	341.38	9.7926e-06	1.0048e-05	355.22	167.04	135.99	66.445	1.0098e-05	77.963	156.565	229.909	198.402	153.034	243.458	278.270	151.646	157.824	292.442	259.716	155.132	158.422	162.252	165.309	267.213	162.008	-8191	255	
2702.827	1	1	0	0	0.17254	0.097731	0.1536	0.2236	0.17414	0.1675	0.22229	0.12182	0.13559	0.2708	0.29714	0.26726	0.18386	0.11582	0.32658	0.11331	0.24792	-0.10208	-0.62708	0.14792	-0.56042	-0.26458	-0.05	-0.91042	-0.033333	-0.12083	-1.075	0.010417	-0.6375	-0.53958	0.19792	-0.88125	459.391	300.886	378.220	442.399	431.382	381.617	319.779	476.189	355.661	218.676	452.511	496.759	153.404	492.230	384.550	205.580	0.0011948	0.0006372	0.00013125	858.59	5.9926e-06	8.8148e-06	801.26	355.42	8.4149e-06	7.1572e-06	371.27	173.71	140.6	68.069	7.8483e-06	80.246	0.00096988	0.00089066	0.00025467	821.08	9.7237e-06	1.0066e-05	770.01	342.11	9.9157e-06	9.9531e-06	355.25	167.1	135.79	66.279	9.8215e-06	77.48	152.775	210.773	243.245	153.015	254.678	275.678	151.902	157.601	264.718	314.242	155.259	158.525	162.165	165.390	273.841	162.233	-8191	255	
2702.947	1	1	0	0	0.29051	0.22256	0.13216	0.041012	0.2914	0.096302	0.25783	0.039358	0.29904	0.16974	0.050183	0.29157	0.36826	0.25731	0.23189	0.25156	0.31042	0.15208	-0.73542	0.039583	-0.30417	-0.61042	0.19167	-0.8875	-0.19583	0.0083333	-0.90208	-0.11875	-0.25	-0.57292	0.1625	-0.74375	184.367	355.394	301.396	404.860	240.642	462.844	465.647	152.386	185.867	333.615	434.737	384.979	448.546	417.763	250.101	447.607	0.001192	0.00067169	0.0001683	852.54	6.5611e-06	6.197e-06	802.06	353.6	7.8373e-06	7.9714e-06	366.75	173.02	140.07	68.292	8.0108e-06	80.042	0.00094666	0.00090602	0.00024664	815	9.5935e-06	1.0067e-05	763.29	339.99	9.7164e-06	9.8833e-06	350.84	165.67	135.44	66.265	9.7438e-06	77.371	152.001	232.199	224.104	153.009	261.732	296.069	151.577	157.861	256.256	247.828	155.371	158.139	162.579	165.397	270.915	162.110	-8191	255	
2703.044	1	1	0	0	0.30545	0.24392	0.19553	0.14633	0.172	0.11706	0.10498	0.22547	0.16728	0.054491	0.2471	0.31752	0.29364	0.1455	0.19426	0.23076	0.12708	0.13125	-0.73333	0.029167	-0.08125	-0.61667	-0.085417	-0.54375	-0.21458	0.175	-0.7125	0	-0.23958	-0.84583	0.17708	-0.86667	433.257	467.926	282.533	493.949	484.095	250.877	150.327	158.635	472.831	398.874	485.461	497.028	411.220	460.931	368.124	420.722	0.0011663	0.00072976	0.00022013	850.05	5.1261e-06	7.7416e-06	798.86	354.38	8.8649e-06	8.5026e-06	369.83	173.48	141.5	68.673	8.9971e-06	80.261	0.00095034	0.00091837	0.00024913	814.23	9.2774e-06	1.0139e-05	763.93	340.47	9.62e-06	9.8713e-06	353.02	166.38	136.36	66.636	1.0079e-05	77.632	155.719	233.572	236.003	152.791	267.031	251.600	151.680	157.608	270.111	280.027	155.437	158.452	162.371	165.276	266.376	162.288	-8191	255	
2703.138	1	1	0	0	0.22603	0.16141	0.12239	0.34167	0.13442	0.092972	0.016988	0.35702	0.14615	0.14914	0.24218	0.31607	0.28959	0.26909	0.071345	0.072351	-0.1625	0.11875	-0.72917	0.085417	-0.1375	-0.6875	0.05	-0.68333	-0.35625	0.05625	-0.8125	-0.05625	-0.0875	-0.85833	0.17917	-0.59583	363.866	243.209	166.339	451.092	252.665	190.505	182.742	461.868	147.560	196.758	140.724	472.597	454.613	469.792	196.757	200.401	0.0011862	0.00075455	0.00019882	850.13	8.7795e-06	1.333e-05	805.14	357.2	5.3837e-06	7.6042e-06	370.17	174.59	141.45	69.148	7.6662e-06	80.984	0.00096195	0.00089885	0.00024895	816.29	9.7469e-06	9.8482e-06	768.8	342.48	9.5135e-06	9.9915e-06	355.3	167.4	136.68	66.94	9.5882e-06	78.292	152.913	233.104	241.448	153.074	290.648	286.754	151.362	157.975	257.733	310.376	155.598	158.091	162.431	165.386	258.883	161.932	-8191	255	
2703.234	1	1	0	0	0.090051	0.090208	0.31932	0.093912	0.23338	0.23312	0.18743	0.17694	0.24035	0.15749	0.1706	0.1048	0.33087	0.19722	0.18636	0.30284	-0.24375	0.25417	-0.79375	-0.15833	0.31875	-0.6	0.0020833	-0.50833	-0.61667	0.022917	-0.66042	-0.35833	0.0375	-0.80833	0.125	-0.59583	150.560	192.795	190.939	471.208	280.920	480.763	466.620	446.071	196.302	419.640	482.292	450.582	460.683	397.329	152.963	432.021	0.0011283	0.00042507	0.00016109	857.44	5.4635e-06	8.756e-06	807.67	355.44	4.8899e-06	3.8494e-06	370.55	173.02	141.32	68.838	5.8431e-06	80.045	0.00096618	0.0009079	0.00025395	818.09	9.5308e-06	1.0051e-05	771.31	342.53	9.69e-06	1.0038e-05	355.77	166.87	136.25	66.646	1.0094e-05	77.632	156.158	232.633	239.737	153.107	241.202	303.441	151.430	157.937	294.922	285.469	154.965	158.180	162.490	165.622	265.119	162.075	-8191	255	
2703.308	1	1	0	0	0.17597	0.039734	0.29291	0.19106	0.26827	0.23221	0.083788	0.18331	0.15957	0.14416	0.24251	0.17622	0.27306	0.33884	0.063335	0.23545	-0.25	0.19167	-0.45208	-0.49583	0.21667	-0.95	-0.24167	-0.3	-0.75	0.31458	-0.73542	-0.58958	0.11458	-0.69583	0.0375	-0.35833	153.133	470.461	247.096	310.784	463.600	281.062	282.229	401.386	212.116	403.834	444.363	421.477	179.671	490.062	307.719	399.380	0.0011767	0.00059011	0.00025519	849.49	6.2013e-06	1.0431e-05	800.29	354.38	7.3355e-06	8.3663e-06	366.74	172.49	141.46	68.474	7.3733e-06	80.301	0.00094769	0.00090991	0.00025071	817.08	9.5059e-06	9.8346e-06	765.05	340.29	9.4196e-06	9.9552e-06	351.77	165.51	136.14	66.388	9.984e-06	77.478	156.517	210.113	221.342	152.809	273.354	305.330	151.264	157.628	249.987	301.083	155.499	158.413	162.509	165.436	256.648	162.180	-8191	255	
2703.426	1	1	0	0	0.2331	0.23515	0.20889	0.52616	0.21285	0.13138	0.4495	0.22609	0.23515	0.17066	0.27952	0.068811	0.43957	0.29051	0.21211	0.07894	-0.47292	0.35	-0.33333	-0.62708	0.11667	-0.89167	-0.44583	-0.16875	-0.7875	0.125	-0.575	-0.47292	0.26458	-1.0021	-0.1	-0.12708	326.337	488.235	437.366	184.947	490.827	216.625	395.341	172.667	344.935	463.265	490.868	459.606	491.103	476.475	460.188	410.276	0.0011073	0.00061449	0.00017975	855.11	6.5837e-06	6.045e-06	801.77	356.33	6.6658e-06	5.2276e-06	368.4	173.29	141.61	68.8	6.5033e-06	80.331	0.00094271	0.00093506	0.00025455	816.42	9.4585e-06	9.9324e-06	764.06	341.48	9.6015e-06	1.0129e-05	353.83	166.27	136.29	66.811	9.9581e-06	77.777	153.552	232.739	218.344	152.969	299.167	305.832	151.522	157.939	262.892	294.742	155.108	158.111	162.239	165.537	257.161	162.053	-8191	255	
2703.523	1	1	0	0	0.10989	0.016974	0.13402	0.23378	0.077889	0.24251	0.21595	0.33064	0.032398	0.1494	0.11772	0.061929	0.20666	0.079584	0.20464	0.19267	-0.45833	0.26042	-0.34792	-0.46875	0.25208	-0.53958	-0.39167	-0.15208	-0.78542	0.16042	-0.21042	-0.80417	0.23125	-0.73333	-0.26667	-0.125	331.168	266.289	184.486	366.925	307.823	208.979	400.365	496.480	481.568	300.219	476.414	157.659	419.378	446.794	497.426	431.276	0.0012142	0.00061414	0.000193	858.18	1.5239e-06	3.0538e-06	796.14	355.54	1.056e-05	8.2511e-06	370.42	174.67	142.17	69.044	7.7056e-06	80.7	0.00094689	0.000929	0.00025585	819.39	9.4378e-06	9.8072e-06	765.87	342.61	9.5911e-06	1.0086e-05	355.8	167.83	136.92	67.073	9.9508e-06	78.384	157.099	249.488	184.907	153.231	254.539	299.961	151.210	158.083	258.275	298.530	155.883	158.266	162.307	165.644	268.397	162.541	-8191	255	
2703.619	1	1	0	0	0.48016	0.10468	0.20412	0.26537	0.25425	0.16337	0.12545	0.26912	0.15255	0.16946	0.1587	0.15664	0.12917	0.10265	0.36079	0.26665	-0.57708	0.10417	0.052083	-0.84167	0.15833	-0.575	-0.43958	0.05625	-0.76458	0.14583	-0.4125	-0.82708	0.020833	-0.68542	-0.37292	0.1375	358.134	258.773	379.376	428.183	337.466	147.927	459.334	491.744	145.143	263.828	458.362	389.706	176.295	208.419	269.127	313.192	0.0012578	0.00064949	0.00022539	856.48	7.469e-06	1.1089e-05	804.99	357.7	8.5932e-06	8.9081e-06	371.16	174.86	141.79	68.942	7.5391e-06	80.073	0.00096778	0.00091799	0.00025445	819.94	9.7345e-06	9.8678e-06	770.68	343.61	9.5025e-06	1.0292e-05	355.6	167.43	136.59	66.847	9.7761e-06	77.566	154.762	225.296	262.429	153.013	276.680	253.455	151.290	157.998	283.140	279.895	155.478	158.284	162.306	165.362	274.166	162.240	-8191	255	
2703.715	1	1	0	0	0.21445	0.093307	0.080093	0.12904	0.19988	0.20097	0.17179	0.24281	0.056324	0.055008	0.30093	0.16783	0.21259	0.35012	0.060903	0.1055	-0.47083	-0.26042	-0.022917	-0.83125	0.13125	-0.38125	-0.76875	0	-0.70208	-0.52917	-0.17292	-1.2021	-0.12292	-0.48125	-0.71042	-0.083333	394.659	351.587	331.547	225.686	256.077	404.921	407.903	437.695	498.309	286.044	480.585	446.147	458.189	418.850	221.640	448.607	0.0012548	0.00053745	0.00022018	851.38	9.1752e-06	5.4605e-06	799.85	354.23	6.0649e-06	5.0781e-06	367.54	172.55	142.39	68.877	6.5883e-06	80.107	0.00095608	0.00091084	0.00025389	816.26	9.83e-06	9.6388e-06	763.99	340.54	9.2858e-06	9.9984e-06	352.23	165.86	136.52	66.717	9.8073e-06	77.388	153.630	224.300	196.798	152.984	297.700	291.559	151.720	157.804	264.503	309.318	155.246	158.282	162.391	165.690	291.338	162.339	-8191	255	
2703.836	1	1	0	0	0.34166	0.25905	0.17301	0.062946	0.048194	0.083001	0.17056	0.095789	0.043567	0.24806	0.2071	0.28658	0.1584	0.26719	0.068132	0.3921	-0.35625	-0.2625	0.05	-0.98125	0.085417	-0.17083	-0.77292	0.097917	-0.65208	-0.37708	0.15	-1.0708	0.033333	-0.23333	-0.56458	-0.072917	330.604	415.735	327.680	164.201	480.946	164.216	481.384	415.254	470.861	397.543	181.078	451.652	191.851	146.615	287.818	400.510	0.0011531	0.00065257	0.00031136	853.36	2.3387e-06	6.8474e-06	799.76	354.36	8.0064e-06	6.0139e-06	367.64	173.68	141.27	68.862	7.0546e-06	80.716	0.00094788	0.00089721	0.00025117	817.28	9.5045e-06	9.9237e-06	764.44	341.37	9.6439e-06	1.0174e-05	353.26	166.67	136.49	66.838	9.8059e-06	77.744	157.212	197.953	236.348	153.299	288.625	269.442	151.293	157.953	279.273	293.404	155.571	158.329	162.145	165.547	295.036	161.884	-8191	255	
2703.932	1	1	0	0	0.11169	0.068615	0.05907	0.043357	0.071785	0.16847	0.27798	0.22835	0.064433	0.29857	0.24176	0.21226	0.3261	0.31516	0.14794	0.07458	-0.22708	-0.43958	-0.0375	-0.89375	-0.09375	-0.26875	-0.82292	-0.20417	-0.5	-0.67292	0.09375	-0.92292	-0.27292	-0.175	-0.775	-0.20208	166.863	387.966	274.176	498.190	420.328	272.694	355.573	471.680	423.353	156.085	424.840	141.309	473.711	482.001	294.208	159.332	0.001189	0.00077162	0.00025875	854.54	5.7953e-06	3.6489e-06	801.79	355.75	7.452e-06	3.6415e-06	371.51	175.04	141.72	69.379	9.6195e-06	80.594	0.00093715	0.00092979	0.00025438	819.72	9.4443e-06	9.9689e-06	768	342.98	9.3828e-06	9.8115e-06	356.48	167.67	137.06	67.093	9.8371e-06	78.157	155.048	226.170	222.189	153.185	288.637	266.144	151.192	158.045	256.424	273.138	155.465	158.397	162.511	165.689	256.469	162.099	-8191	255	
2704.028	1	1	0	0	0.17941	0.17584	0.12574	0.08983	0.06348	0.20902	0.21335	0.22596	0.25409	0.26995	0.16289	0.16014	0.24981	0.26026	0.089405	0.088833	-0.075	-0.58125	0.052083	-0.85	-0.24375	-0.0041667	-0.95	-0.10417	-0.26667	-0.65625	-0.0125	-0.76667	-0.39167	-0.16042	-0.6875	-0.15	489.088	222.392	356.285	157.962	426.028	411.960	420.328	434.036	296.744	489.461	225.312	475.182	471.524	165.059	247.148	364.004	0.0011521	0.00076282	0.0002263	858.33	4.4823e-06	8.6032e-06	810.3	357.32	7.6939e-06	4.4942e-06	370.41	173.23	141.43	68.473	8.5336e-06	79.957	0.00093496	0.00091233	0.000256	821.56	9.4785e-06	1.0326e-05	771.43	343.32	9.6242e-06	9.9092e-06	355.62	166.93	136.71	66.697	9.8397e-06	77.283	152.864	233.796	220.921	153.327	286.885	275.165	151.537	157.647	267.693	289.182	155.565	158.439	162.560	165.672	265.416	162.156	-8191	255	
2704.124	1	1	0	0	0.15686	0.14008	0.10126	0.22268	0.062496	0.11188	0.18182	0.27393	0.12729	0.18244	0.21213	0.26462	0.20654	0.36441	0.082722	0.35196	0.035417	-0.66667	0.32083	-0.71875	-0.47083	0.21875	-0.89583	-0.26667	-0.34583	-0.7875	0.18958	-0.61458	-0.59375	0.20208	-0.74583	-0.32917	236.547	383.317	430.385	401.660	187.634	285.548	453.846	142.710	333.237	252.650	418.219	420.376	437.036	476.295	149.122	459.887	0.0012345	0.00071089	0.0001565	851.6	4.4346e-06	6.3426e-06	801.92	354.53	6.5373e-06	6.6932e-06	367.39	172.14	141.17	69.03	7.6866e-06	79.583	0.00095614	0.00092345	0.00025409	817.4	9.5048e-06	9.6961e-06	764.8	341.1	9.5565e-06	9.7087e-06	351.68	165.58	136.42	66.758	1.0063e-05	77.05	154.507	247.108	219.122	152.995	269.273	285.723	151.409	158.095	251.853	298.634	155.511	158.584	162.390	165.632	265.175	162.325	-8191	255	
2704.218	1	1	0	0	0.11369	0.17394	0.09052	0.037309	0.1048	0.071375	0.18577	0.24631	0.24481	0.15291	0.31798	0.16055	0.23198	0.34389	0.27413	0.17318	0.37083	-0.87292	0.18542	-0.50625	-0.51042	0.091667	-0.87292	-0.34375	-0.21667	-1.0187	0.10417	-0.58333	-0.73333	0.025	-0.65625	-0.41458	184.195	232.648	444.978	195.909	406.424	199.931	384.090	403.936	163.632	389.795	449.945	183.297	164.539	467.879	272.432	274.269	0.001207	0.00047187	0.00016873	855.98	5.4412e-06	5.4447e-06	798.9	354.82	9.0003e-06	3.8706e-06	369.33	172.88	141.15	68.891	7.3449e-06	79.979	0.00094476	0.00091046	0.00025402	819.86	9.4977e-06	9.9116e-06	766.02	341.56	9.6655e-06	9.731e-06	353.14	166.25	136.5	66.846	9.9098e-06	77.544	155.943	187.831	215.352	153.141	279.484	320.531	151.702	157.924	278.048	296.585	155.454	158.447	162.546	165.544	289.353	162.346	-8191	255	
2704.316	1	1	0	0	0.11652	0.40473	0.12346	0.25619	0.13476	0.34782	0.094542	0.12772	0.080557	0.1889	0.22878	0.23081	0.14369	0.18026	0.41247	0.24358	0.36875	-0.72083	0.30208	-0.6375	-0.52917	0.34792	-0.77083	-0.40208	-0.054167	-0.7625	-0.079167	-0.34583	-0.71875	0.025	-0.58542	-0.43542	487.739	248.002	191.230	437.970	451.522	330.670	471.726	407.469	463.476	277.968	412.099	353.002	149.512	445.015	497.282	143.372	0.0011707	0.00059288	9.5061e-05	859.01	7.0877e-06	5.4144e-06	799.58	357.72	7.9202e-06	2.1586e-06	370.7	174.38	141.96	69.355	5.184e-06	80.55	0.00095819	0.00090942	0.00025987	821.13	9.4576e-06	9.9704e-06	766.84	343.34	9.8241e-06	9.8605e-06	355.56	167.34	136.83	67.221	9.7923e-06	78.082	155.818	223.813	222.261	153.144	290.890	282.705	151.627	157.806	265.566	315.081	155.200	158.426	162.567	165.612	276.874	161.924	-8191	255	
2704.435	1	1	0	0	0.083801	0.13207	0.081239	0.11529	0.32724	0.13653	0.032645	0.22707	0.3007	0.28629	0.15394	0.19869	0.28277	0.31658	0.19172	0.20668	0.51042	-0.73542	-0.052083	-0.24583	-0.55208	0.085417	-0.86458	-0.63958	0.225	-0.7875	-0.375	-0.27917	-0.67917	0.029167	-0.26042	-0.6875	356.282	265.039	212.204	191.966	355.582	383.458	163.207	392.040	491.699	157.757	305.621	401.281	165.912	142.012	391.308	430.548	0.0011782	0.00052047	0.00013539	859.01	6.5103e-06	5.5369e-06	805.23	357.39	9.2481e-06	3.2042e-06	370.57	173.38	141	68.699	8.4636e-06	79.476	0.00096478	0.00089534	0.00025641	822.25	9.4633e-06	1.0277e-05	770.91	343.54	9.9391e-06	9.7439e-06	355.27	166.59	136.32	66.622	9.8954e-06	76.919	156.056	236.456	225.674	153.078	281.565	299.761	151.750	158.020	263.814	332.596	155.423	158.474	162.364	165.474	279.172	161.996	-8191	255	
2704.531	1	1	0	0	0.05751	0.15533	0.1675	0.2718	0.27545	0.15054	0.20416	0.14627	0.069911	0.2448	0.058899	0.06233	0.24854	0.35261	0.21216	0.245	0.46458	-0.69375	-0.16875	-0.095833	-0.68542	0.05	-0.42292	-0.53333	0.17708	-0.79375	-0.23958	-0.10208	-0.95208	-0.11875	-0.35417	-0.54375	442.972	226.113	383.988	490.925	307.362	460.595	325.642	416.817	186.914	258.592	213.730	221.135	491.517	146.436	296.790	409.555	0.0011962	0.00062584	0.00025348	850.19	7.5909e-06	6.7517e-06	799.84	354.65	8.5974e-06	5.4158e-06	365.32	171.28	140.86	68.356	5.629e-06	79.431	0.00093399	0.00091258	0.00025543	817.34	9.5593e-06	9.987e-06	763.86	340.6	9.8696e-06	9.8145e-06	350.38	164.71	135.7	66.344	9.7692e-06	76.781	155.073	244.593	242.294	153.757	287.922	236.100	151.618	157.918	277.931	284.184	155.497	158.787	162.396	165.525	268.771	162.313	-8191	255	
2704.603	1	1	0	0	0.20306	0.13807	0.28406	0.28428	0.050526	0.20756	0.077365	0.23326	0.22454	0.15129	0.26396	0.33732	0.36512	0.10025	0.16729	0.1837	0.50417	-0.54375	-0.14583	0.11042	-0.78542	0	-0.10417	-0.79792	0.20208	-0.83958	-0.44792	-0.03125	-0.89792	-0.35833	-0.18333	-0.83958	299.312	351.511	182.891	439.295	344.019	472.993	147.147	362.087	311.038	191.965	409.537	486.526	175.919	328.841	493.383	161.882	0.0011452	0.00067127	0.0001516	851.09	7.4064e-06	1.0032e-05	799.93	356.89	6.8152e-06	5.846e-06	367.77	173.2	141.07	68.9	6.188e-06	79.948	0.00094831	0.00087239	0.00025222	817.18	9.3635e-06	9.9059e-06	766.01	341.84	9.9045e-06	9.7748e-06	352.45	165.96	136.32	66.62	9.833e-06	77.186	153.381	235.214	240.663	153.514	248.641	292.456	151.519	157.941	254.990	307.582	155.471	158.427	162.705	165.588	248.526	162.269	-8191	255	
2704.724	1	1	0	0	0.078338	0.33997	0.18028	0.2148	0.20737	0.16539	0.22564	0.24903	0.26466	0.065539	0.16354	0.11957	0.12443	0.24034	0.38344	0.096304	0.56667	-0.64167	-0.55625	-0.0020833	-0.7375	-0.00625	-0.33542	-0.64583	0.35625	-0.39375	-0.47917	0.085417	-0.64375	-0.27083	-0.13542	-0.99375	186.372	212.651	154.409	145.208	334.214	475.535	496.764	453.610	183.785	430.905	442.008	171.779	436.667	484.273	297.934	340.868	0.001184	0.00035504	0.0001995	857.27	6.1396e-06	5.0397e-06	802.41	356.9	6.3188e-06	6.8367e-06	368.8	174.12	141.9	69.388	5.9156e-06	80.283	0.0009597	0.00089572	0.00024704	818.55	9.5271e-06	1.002e-05	767.34	342.24	9.884e-06	9.9921e-06	354.42	166.93	137.12	66.962	9.9324e-06	77.601	155.941	220.344	277.113	153.368	257.395	286.851	151.614	158.012	253.590	291.899	155.659	158.285	162.423	165.638	296.639	162.302	-8191	255	
2704.820	1	1	0	0	0.0075194	0.28958	0.34978	0.12761	0.1056	0.11971	0.25388	0.24385	0.091855	0.090739	0.35585	0.19564	0.18368	0.12204	0.30287	0.35326	0.38333	-0.3	-0.66667	-0.022917	-0.64375	-0.24583	-0.066667	-0.97917	-0.070833	-0.24167	-0.64792	0.11458	-0.83958	-0.60625	0.072917	-1.0167	220.613	496.495	373.108	208.313	175.878	211.503	427.267	438.278	376.671	456.169	142.675	471.669	451.562	402.317	395.724	430.664	0.0012276	0.00072316	0.00018838	856.02	6.7544e-06	3.316e-06	804.86	356.68	1.0424e-05	5.4713e-06	369	172.46	141.62	68.652	8.4455e-06	79.242	0.00096738	0.00090252	0.0002526	818.88	9.6042e-06	1.0001e-05	771.7	342.8	9.9239e-06	9.905e-06	353.45	165.69	136.18	66.435	1.0059e-05	76.689	155.783	223.841	220.176	153.427	276.789	322.970	151.616	157.898	255.349	280.108	155.573	158.475	162.490	165.660	284.667	162.156	-8191	255	
2704.916	1	1	0	0	0.2392	0.075043	0.26203	0.28	0.10313	0.27738	0.21724	0.15553	0.15021	0.19833	0.12261	0.21844	0.34348	0.041858	0.037506	0.17609	0.30625	-0.14792	-0.81667	0.064583	-0.38125	-0.53958	-0.022917	-0.94583	-0.14167	-0.21875	-0.87917	-0.06875	-0.82292	-0.61667	0.0625	-0.95833	385.268	315.078	262.863	153.397	388.052	349.413	490.027	287.560	499.490	410.334	284.691	493.384	161.867	455.694	308.476	153.665	0.0011306	0.00070819	0.00020405	850.57	8.7835e-06	8.1518e-06	798.96	353.11	8.4813e-06	5.3143e-06	366.29	170.43	140.11	68.327	6.7992e-06	79.303	0.00095168	0.00091309	0.00024517	815.48	9.7421e-06	9.7001e-06	763.82	340.35	9.6282e-06	9.6751e-06	350.44	164.37	135.68	66.205	1.0074e-05	76.629	154.210	234.845	270.023	153.059	271.399	310.659	151.663	157.880	264.539	270.275	155.319	158.706	162.360	165.647	262.847	162.173	-8191	255	
2705.012	1	1	0	0	0.27936	0.11662	0.21768	0.35074	0.2393	0.23578	0.25333	0.12366	0.27906	0.059303	0.19615	0.096122	0.22097	0.32244	0.17072	0.42503	0.10833	0.089583	-0.88125	-0.2625	-0.60625	-0.81042	-0.17917	-1.0583	-0.072917	-0.06875	-0.79375	-0.0625	-0.58542	-0.68958	0.2375	-0.77083	373.818	214.410	222.190	372.235	317.680	369.268	465.583	402.509	153.895	229.971	486.204	206.074	444.799	427.309	355.214	473.788	0.0011412	0.00042437	0.00023656	852.86	5.8742e-06	7.4402e-06	804.03	357.32	8.2467e-06	8.4897e-06	365.63	173.35	141.15	69.029	8.692e-06	79.873	0.00092757	0.00090543	0.00024473	816.88	9.559e-06	9.9976e-06	765.42	342.29	9.6779e-06	9.9299e-06	351.23	165.79	136.4	66.784	9.8711e-06	77.232	154.173	233.813	224.520	153.255	258.503	273.051	151.955	158.014	274.750	255.093	155.291	158.373	162.524	165.584	275.753	162.099	-8191	255	
2705.131	1	1	0	0	0.1163	0.35848	0.19072	0.39781	0.097372	0.036539	0.012554	0.11069	0.094652	0.19319	0.18402	0.16959	0.12377	0.35957	0.35592	0.11177	-0.033333	-0.064583	-0.72917	-0.26667	-0.43125	-0.72292	-0.022917	-0.66042	-0.31042	-0.0041667	-1.1354	-0.40208	-0.33333	-0.975	0	-0.68542	245.452	445.699	282.612	154.387	469.640	406.140	477.198	190.959	382.035	225.476	440.271	190.746	392.608	403.603	264.353	399.747	0.001179	0.00056788	0.00015103	855.11	7.5019e-06	5.0605e-06	809.04	357.81	7.8418e-06	5.1319e-06	369.23	174.02	142.12	69.275	7.1049e-06	81.005	0.00094505	0.00091046	0.00024847	818.86	9.6311e-06	9.7254e-06	771.01	343.5	9.7676e-06	1.004e-05	354.99	167.11	137.06	67.161	9.8787e-06	78.098	152.081	244.567	234.240	152.969	284.686	317.689	151.827	157.876	264.253	311.481	155.757	158.372	162.483	165.660	239.304	162.307	-8191	255	
2705.227	1	1	0	0	0.17773	0.12923	0.20619	0.14329	0.37118	0.18835	0.40662	0.24951	0.16813	0.15927	0.17717	0.24986	0.27519	0.21605	0.20046	0.28548	-0.33333	0.11458	-0.825	-0.23542	-0.22708	-0.77083	0.11042	-0.51667	-0.51042	0.25833	-0.76458	-0.06875	-0.10625	-0.875	0.37292	-0.36875	418.424	276.368	413.921	203.351	333.319	364.218	445.185	408.621	178.274	208.462	496.524	407.013	141.962	155.768	280.666	487.763	0.0012045	0.00065266	0.00018832	852.93	2.0367e-06	9.2814e-06	804.55	358.64	1.1634e-05	6.3012e-06	369.63	173.41	140.97	68.844	6.0664e-06	79.421	0.00096358	0.00092408	0.0002496	820.44	9.6551e-06	9.9297e-06	771.5	343.92	9.6535e-06	9.9269e-06	354.62	166.11	136.69	66.721	1.0134e-05	76.961	152.526	231.509	224.060	153.193	257.936	275.504	151.425	158.039	263.639	265.521	155.497	158.770	162.836	165.651	279.044	162.383	-8191	255	
2705.299	1	1	0	0	0.23062	0.20149	0.15535	0.13728	0.030186	0.23881	0.12351	0.043104	0.072891	0.055024	0.047279	0.080821	0.092179	0.066637	0.27408	0.11069	-0.3875	0.27708	-0.71458	-0.325	0.083333	-0.75208	-0.033333	-0.51667	-0.6125	0.17708	-0.69167	-0.30208	-0.00625	-0.74167	-0.047917	-0.36875	460.515	386.016	398.180	367.299	164.628	243.792	447.135	170.981	240.997	177.431	236.655	204.204	367.609	151.167	336.800	166.420	0.0012146	0.00063642	0.00025241	852.16	7.1243e-06	5.7354e-06	802.39	355.09	8.0355e-06	7.3523e-06	368.86	172.52	140.73	68.729	8.7642e-06	79.113	0.00096057	0.00091587	0.00024986	815.5	9.4381e-06	9.6934e-06	764.4	340.65	1.0016e-05	1.0012e-05	351.96	164.96	135.74	66.474	9.9384e-06	76.854	155.384	221.930	222.146	153.336	243.399	264.755	151.175	157.981	270.098	306.166	155.765	158.520	162.472	165.644	273.269	162.289	-8191	255	
2705.397	1	1	0	0	0.22899	0.11451	0.19287	0.42983	0.40078	0.27557	0.39406	0.25157	0.43209	0.23489	0.039577	0.34479	0.17195	0.33167	0.01958	0.27664	-0.13542	0.25	-0.51458	-0.43333	0.23125	-0.72083	-0.27917	-0.36875	-0.7125	0.13125	-0.69792	-0.49167	-0.10417	-0.93542	0.054167	-0.27292	353.040	429.366	453.979	479.277	346.714	258.698	473.496	324.197	160.978	212.552	155.085	427.251	395.201	376.549	478.786	479.541	0.0011978	0.00052258	0.00017404	854.55	7.4677e-06	1.0526e-05	799.62	357.07	6.2948e-06	6.2444e-06	366.74	172.37	141.98	68.583	7.6888e-06	79.716	0.00093893	0.00091195	0.00025799	817.91	9.6735e-06	9.9798e-06	766.76	342.05	9.5882e-06	9.8653e-06	352.72	165.56	136.53	66.641	1.0089e-05	77.148	154.709	233.301	230.733	153.198	286.207	274.524	151.569	158.242	269.249	313.719	155.857	158.474	162.456	165.679	297.838	162.527	-8191	255	
2705.516	1	1	0	0	0.056751	0.099817	0.063623	0.19754	0.21224	0.12839	0.047337	0.377	0.033054	0.13014	0.29637	0.4286	0.26665	0.39877	0.063262	0.20874	-0.33125	0.25	-0.44583	-0.64792	0.23125	-0.56875	-0.0375	-0.10833	-0.47292	0.041667	-0.5625	-0.61042	0.19167	-0.75833	-0.079167	-0.1375	262.929	411.302	165.558	477.347	248.936	415.171	375.003	430.326	155.248	474.234	446.805	469.957	170.000	156.257	306.426	318.278	0.0011056	0.00049658	0.0001635	851.53	7.4595e-06	6.5876e-06	809.39	356.56	3.7181e-06	5.557e-06	371.14	174.11	142.42	69.22	9.088e-06	80.672	0.00094358	0.00091706	0.00025235	817.85	9.7221e-06	1.0057e-05	771.84	342.98	9.5458e-06	1.0134e-05	356.17	167.14	136.96	67.179	1.0208e-05	77.996	155.846	228.780	233.412	153.217	294.972	290.816	151.555	157.902	249.273	299.178	155.427	158.353	162.300	165.816	272.325	162.117	-8191	255	
2705.612	1	1	0	0	0.38518	0.31567	0.056711	0.17908	0.25779	0.15201	0.63397	0.26466	0.21545	0.045634	0.21946	0.28356	0.18742	0.37041	0.23529	0.2593	-0.45417	0.125	-0.21667	-0.65833	0.43542	-0.72083	-0.55833	0.1125	-0.74167	-0.11042	-0.31667	-0.92708	0.047917	-0.66667	-0.29792	-0.10208	459.204	349.071	494.693	186.791	269.937	313.695	431.598	169.264	451.777	140.519	426.498	432.440	142.329	431.105	428.762	143.388	0.0012033	0.00041291	0.00010275	861.62	6.9755e-06	8.2029e-06	807.28	356.96	7.9609e-06	7.8847e-06	369.13	173.4	139.85	68.501	8.183e-06	80.197	0.00096245	0.00091646	0.00025995	822.33	9.7223e-06	1.0058e-05	773.33	342.97	9.7488e-06	1.0082e-05	355.65	165.98	135.57	66.372	1.0021e-05	77.115	157.069	231.204	227.742	153.257	293.850	262.864	151.413	157.935	269.411	260.294	155.410	158.276	162.440	165.693	283.552	162.192	-8191	255	
2705.708	1	1	0	0	0.15682	0.22367	0.19299	0.28669	0.25596	0.38184	0.24541	0.18789	0.20047	0.23856	0.39544	0.26062	0.10473	0.0807	0.2162	0.23276	-0.50625	0.047917	-0.066667	-0.75625	0.19792	-0.49792	-0.37292	0.0625	-0.76042	-0.0041667	-0.36667	-0.96042	0.075	-0.56458	-0.48333	0.08125	397.191	406.223	343.813	483.573	228.174	159.047	485.075	392.212	285.975	232.760	284.595	473.358	487.251	218.490	317.206	439.626	0.0011677	0.00060798	0.00023472	854.26	6.0689e-06	4.8143e-06	798.7	355.3	5.9259e-06	4.2296e-06	367.1	171.93	141.58	68.99	5.011e-06	80.3	0.00092885	0.00089838	0.000256	817.61	9.5189e-06	9.879e-06	765.48	341.44	9.4308e-06	9.7045e-06	352.19	165.28	136.58	66.842	9.7005e-06	77.478	152.231	212.120	252.987	153.318	270.842	279.442	151.679	157.879	279.108	325.616	155.607	158.228	162.350	165.475	289.950	161.957	-8191	255	
2705.828	1	1	0	0	0.22716	0.10201	0.24445	0.3413	0.16647	0.25516	0.17859	0.20165	0.17904	0.099478	0.20284	0.19069	0.073235	0.21117	0.41126	0.14893	-0.42708	-0.052083	-0.11875	-0.81667	0.10208	-0.5375	-0.64583	0.10625	-0.61667	-0.20417	0.12917	-0.82917	0.15417	-0.4125	-0.63333	0.0125	140.661	142.505	187.896	453.103	156.510	417.545	447.539	434.377	219.232	242.528	172.663	455.483	187.126	432.698	470.893	476.436	0.0012026	0.00080784	8.7553e-05	854.54	5.4695e-06	4.1826e-06	802.08	356.53	7.6523e-06	1.0225e-05	368	174.05	142.32	69.255	7.869e-06	80.186	0.00095561	0.0009057	0.00025154	817.26	9.5771e-06	9.8754e-06	767.24	342.58	9.6644e-06	9.6279e-06	353.47	166.53	136.59	67.089	9.8042e-06	77.549	150.175	244.119	242.198	153.225	274.998	324.191	151.203	158.062	257.053	276.436	155.345	158.301	162.277	165.673	265.387	162.317	-8191	255	
2705.900	1	1	0	0	0.078306	0.22723	0.10844	0.21023	0.2747	0.23847	0.12885	0.47112	0.15018	0.078258	0.26103	0.13408	0.19798	0.038575	0.15535	0.2935	-0.28333	-0.20208	0.18958	-0.82917	0.075	-0.3375	-0.99375	0.0375	-0.56875	-0.41667	-0.085417	-0.75417	-0.060417	-0.45417	-0.82083	0.15	149.371	464.684	451.282	396.501	405.321	207.838	159.553	481.417	385.582	145.137	144.966	436.907	496.786	208.582	220.081	473.278	0.0012288	0.0007297	0.00015841	860.17	3.6963e-06	9.5594e-06	808.71	357.76	8.3883e-06	5.8676e-06	370.33	173.76	141.91	68.719	9.3745e-06	80.821	0.00096397	0.0009126	0.00026104	821.55	9.7014e-06	1.0055e-05	772.9	343.72	9.8314e-06	9.9278e-06	356.18	167.17	137.04	66.936	9.9448e-06	78.117	154.783	223.790	235.968	153.230	258.076	269.503	151.762	157.961	254.861	288.887	155.435	158.629	162.211	165.939	263.500	162.254	-8191	255	
2705.996	1	1	0	0	0.14876	0.075585	0.20491	0.086	0.29915	0.11244	0.15024	0.013054	0.30677	0.2452	0.10965	0.19798	0.41892	0.28636	0.0033221	0.47268	-0.26042	-0.4875	0.21042	-0.89375	-0.022917	-0.15417	-0.95208	-0.11875	-0.55	-0.54167	0.095833	-0.79167	-0.12083	-0.045833	-0.79792	-0.08125	354.736	497.021	225.567	305.690	146.047	164.963	372.632	180.374	467.990	452.733	263.145	433.757	455.973	145.537	481.802	484.779	0.0011847	0.00080206	0.00011044	858.56	6.5382e-06	5.0396e-06	812.29	355.84	1.0646e-05	7.5731e-06	371.27	173.25	141.53	68.771	4.3603e-06	79.944	0.00096158	0.00092484	0.00025684	822.73	9.5822e-06	9.9719e-06	773.32	343.43	9.7021e-06	9.8695e-06	355.54	166.27	136.42	66.728	9.7652e-06	77.318	152.951	209.307	232.945	153.311	284.189	277.884	151.711	157.729	260.507	295.457	155.671	158.539	162.698	165.792	283.659	162.422	-8191	255	
2706.117	1	1	0	0	0.32315	0.1781	0.16758	0.037642	0.095564	0.2495	0.08004	0.40225	0.043639	0.33607	0.011417	0.17392	0.22487	0.1867	0.1592	0.2034	0.066667	-0.58333	0.17083	-0.8	-0.27708	0.25208	-0.98125	-0.10833	-0.28125	-0.48958	0.033333	-0.92292	-0.45833	-0.033333	-0.84792	-0.1125	390.806	191.350	337.471	481.769	456.948	266.974	489.588	140.586	229.643	383.576	246.877	412.427	449.456	467.801	391.219	478.693	0.0012106	0.00079264	0.00019669	856.19	5.0701e-06	5.543e-06	798.69	356.54	8.7249e-06	5.6688e-06	366.23	171.27	140.85	68.588	8.6608e-06	79.868	0.00095154	0.00089792	0.00025861	817.76	9.4585e-06	1.0034e-05	767.39	341.74	9.6338e-06	9.712e-06	352.11	165.11	135.82	66.659	9.5272e-06	77.168	156.523	223.088	207.441	153.207	255.939	288.157	151.801	157.692	266.891	309.512	155.633	158.601	162.166	165.939	253.914	161.951	-8191	255	
2706.211	1	1	0	0	0.16064	0.22601	0.056226	0.29394	0.052622	0.20979	0.22454	0.30939	0.038052	0.14538	0.26124	0.28425	0.1237	0.30456	0.057768	0.3084	0.079167	-0.46667	0.14167	-0.68958	-0.3375	0.0375	-0.70833	-0.12708	-0.0625	-0.70417	0.0875	-0.47083	-0.57708	0.027083	-0.63542	-0.22917	256.123	491.672	212.400	177.431	277.096	229.322	447.425	441.748	234.769	285.021	460.962	448.578	157.530	441.787	366.163	479.788	0.0010947	0.00056912	0.000322	853.76	6.364e-06	5.8742e-06	807.33	356.22	6.1527e-06	5.0523e-06	370.78	173.69	141.83	69.039	8.6065e-06	80.193	0.00094592	0.00089015	0.00025312	818.41	9.5686e-06	9.9134e-06	771.94	341.92	9.8491e-06	9.5542e-06	354.43	166.34	136.49	66.95	9.7375e-06	77.712	155.712	213.554	237.140	153.377	264.596	299.164	151.832	157.951	259.802	285.408	155.411	158.736	162.753	165.664	248.795	162.151	-8191	255	
2706.307	1	1	0	0	0.28085	0.068881	0.18185	0.12404	0.078604	0.31412	0.070633	0.12917	0.29589	0.42537	0.099416	0.10737	0.24138	0.41961	0.12664	0.31232	0.38542	-0.62708	0.32917	-0.45	-0.67708	0.14583	-0.925	-0.38125	0.16042	-0.85208	0.072917	-0.49792	-0.53542	0.03125	-0.45833	-0.35	221.891	470.753	239.643	473.170	387.270	498.028	208.622	439.038	327.957	446.360	401.495	294.817	476.502	474.980	200.791	410.125	0.0011592	0.00079825	0.00014936	858.54	5.5136e-06	5.7605e-06	804.91	358.02	8.6425e-06	6.7727e-06	374.1	174.3	142.85	69.395	7.2074e-06	80.599	0.00094402	0.00088667	0.00025152	822.52	9.5005e-06	1.012e-05	772.11	344.05	9.9363e-06	9.862e-06	357.37	167.54	137.58	67.197	9.8631e-06	78.033	151.346	248.929	226.457	153.209	287.368	244.387	151.738	157.846	283.428	305.031	155.747	158.590	162.021	165.596	278.923	162.099	-8191	255	
2706.428	1	1	0	0	0.38079	0.1735	0.23408	0.19167	0.2854	0.12163	0.14334	0.30577	0.19474	0.035227	0.33999	0.1736	0.34775	0.33352	0.11489	0.22822	0.26458	-0.73333	0.08125	-0.2875	-0.87708	0.36667	-0.65	-0.24375	0.0625	-0.76667	-0.0125	-0.36875	-0.96667	0.016667	-0.43333	-0.70208	414.397	309.845	140.458	250.898	394.388	145.488	473.691	481.387	387.880	364.179	492.642	498.010	187.872	485.091	271.852	406.405	0.0012685	0.00060969	0.00017773	853.54	5.5015e-06	9.002e-06	808.7	357.99	7.2787e-06	5.9151e-06	369.67	173.01	141.62	68.739	1.1261e-05	79.721	0.00096304	0.00090817	0.00024986	820.75	9.7071e-06	1.0094e-05	772.56	343.23	9.6256e-06	9.7283e-06	354.24	166.43	136.22	66.528	9.6719e-06	76.883	155.614	229.548	211.590	153.337	262.289	271.697	151.858	158.074	277.883	284.374	155.519	158.406	162.738	165.753	259.700	162.106	-8191	255	
2706.500	1	1	0	0	0.19921	0.18216	0.2751	0.14366	0.18426	0.19003	0.23412	0.076718	0.13809	0.07241	0.4002	0.093422	0.24299	0.23697	0.098174	0.32099	0.54792	-0.86667	0.11458	-0.26458	-0.67083	0.020833	-0.56667	-0.55833	0.13958	-0.84792	-0.17083	-0.27917	-0.8125	0.064583	-0.375	-0.75417	275.382	432.464	413.850	462.159	483.817	428.721	484.598	413.782	214.669	257.559	434.001	149.865	488.437	407.680	397.777	431.632	0.001155	0.00062466	0.00021556	850.97	5.1484e-06	8.1837e-06	799.88	355.29	7.1635e-06	6.0167e-06	364.94	171.69	140.24	68.137	8.3555e-06	78.767	0.00095633	0.00086611	0.00024996	815.67	9.3923e-06	9.5929e-06	763.93	340.35	9.5641e-06	9.795e-06	349.79	164.56	135.25	66.022	9.6895e-06	76.421	154.817	183.680	232.497	153.327	279.195	300.320	151.719	157.951	281.149	279.198	155.732	158.691	162.563	165.634	257.297	162.048	-8191	255	
2706.596	1	1	0	0	0.094764	0.14603	0.27648	0.087819	0.089555	0.19752	0.10381	0.27383	0.22912	0.16579	0.20828	0.27612	0.20766	0.092037	0.32022	0.11929	0.53125	-0.52708	-0.21875	-0.125	-0.75417	0.35	-0.60625	-0.75	0.30208	-0.68958	-0.40208	0.01875	-0.86667	0.014583	-0.32083	-0.7125	425.505	339.997	153.703	180.332	481.800	473.737	439.634	392.853	481.718	460.607	406.033	448.753	165.756	431.347	203.511	229.446	0.0011662	0.00052401	0.00022888	851.65	4.1353e-06	6.8896e-06	799.48	353.6	8.5072e-06	3.4869e-06	365.36	171.81	140.35	68.189	7.2389e-06	79.363	0.00091304	0.00087856	0.00024633	815.62	9.085e-06	9.9348e-06	763.86	340.07	9.5739e-06	9.5299e-06	350.28	165.03	135.35	66.071	9.7106e-06	76.602	156.219	238.781	224.574	153.215	283.585	294.740	151.575	158.088	282.518	274.635	155.423	158.858	162.451	165.664	272.459	162.155	-8191	255	
2706.692	1	1	0	0	0.26703	0.039845	0.083623	0.20759	0.16125	0.14027	0.14503	0.23352	0.060007	0.11272	0.22379	0.21661	0.16168	0.14121	0.16257	0.15837	0.54583	-0.44167	-0.2625	0.11458	-0.63542	0.052083	-0.33125	-0.54167	0.30833	-0.54792	-0.34792	0.089583	-0.83125	0.04375	0.035417	-0.86042	489.327	262.566	154.224	458.207	361.216	437.025	440.944	474.989	309.054	289.575	472.688	410.117	473.893	214.708	363.887	441.623	0.0012288	0.00044049	0.0001202	857.44	4.0427e-06	7.9723e-06	802.39	353.81	6.3193e-06	8.1892e-06	368.41	171.97	140.72	67.87	1.0358e-05	79.575	0.00094811	0.00087761	0.00024857	817.45	9.1615e-06	9.6593e-06	765.69	340.73	9.4187e-06	9.7778e-06	352.22	165.43	135.78	65.957	1.0124e-05	76.961	155.843	235.225	263.085	153.307	291.479	295.877	151.681	158.018	261.207	270.805	155.801	158.752	162.492	165.568	283.741	162.141	-8191	255	
2706.813	1	1	0	0	0.1116	0.086231	0.21709	0.11306	0.32334	0.23318	0.15551	0.069616	0.14266	0.24014	0.05172	0.19089	0.3273	0.31668	0.060839	0.1245	0.45208	-0.32708	-0.39792	-0.047917	-0.825	-0.20208	-0.11458	-1.0417	0.16875	-0.40208	-0.61042	0.0125	-0.81667	-0.39375	0.035417	-0.84792	478.501	183.139	431.362	426.464	487.870	235.861	147.844	402.558	324.260	355.080	294.823	372.018	465.289	483.425	479.747	331.090	0.0011617	0.00056212	0.0002023	852.44	6.9147e-06	7.1188e-06	799.77	353.45	1.1329e-05	3.3964e-06	364.37	170.05	138.87	67.777	6.1921e-06	78.174	0.00092674	0.00088482	0.00024517	816.26	9.298e-06	9.7212e-06	763.66	339.82	9.6237e-06	9.8343e-06	349.18	163.34	134.24	65.448	9.6529e-06	75.618	155.979	242.866	243.885	153.016	276.389	283.159	151.705	157.983	274.043	286.879	155.500	158.716	162.573	165.668	254.207	162.621	-8191	255	
2706.909	1	1	0	0	0.096511	0.16548	0.12428	0.15188	0.073623	0.17711	0.32053	0.43931	0.18961	0.3196	0.24324	0.15722	0.18528	0.16364	0.11733	0.21624	0.51042	-0.31875	-0.50625	0.11667	-0.82708	-0.16875	0.0625	-0.8375	0.041667	-0.17292	-0.77917	0.064583	-0.64583	-0.72292	0.020833	-0.92917	235.459	452.701	240.847	336.970	307.617	497.683	406.623	494.461	336.692	302.335	462.796	423.301	447.825	140.765	348.678	405.927	0.0011305	0.00055645	0.00019554	848.09	3.3183e-06	8.9835e-06	795.01	350.71	7.7337e-06	8.5771e-06	360.51	167.94	137.7	66.849	6.8236e-06	77.958	0.00091426	0.00089346	0.00024442	812.38	9.2409e-06	9.7414e-06	757.5	335.95	9.3549e-06	9.639e-06	345.24	161.68	133.16	64.827	9.4634e-06	75.465	154.319	234.839	207.699	153.136	281.738	290.590	151.759	158.087	270.549	279.479	155.630	158.726	162.711	165.793	262.822	162.208	-8191	255	
2707.005	1	1	0	0	0.16486	0.15878	0.04495	0.086514	0.47277	0.24387	0.11852	0.324	0.065332	0.064975	0.12976	0.22705	0.061792	0.049715	0.043821	0.085665	0.30417	-0.070833	-0.53542	-0.0041667	-0.62292	-0.325	0.0625	-0.94375	0.035417	-0.060417	-0.75	-0.079167	-0.425	-0.77708	0.30625	-0.95833	182.951	490.377	341.248	480.068	427.446	201.884	480.259	335.796	307.285	240.959	442.027	140.719	166.578	202.036	399.627	497.638	0.0011674	0.00040085	0.00015265	842.85	6.0226e-06	4.2821e-06	791.96	351.57	8.4474e-06	8.4576e-06	362.77	169.36	139.22	67.667	1.0254e-05	78.656	0.00092556	0.00087571	0.00023907	807.71	9.3912e-06	9.6856e-06	757.6	337.15	9.3715e-06	9.7033e-06	347.02	162.92	134.19	65.492	9.9009e-06	76.174	153.472	206.301	228.403	153.215	274.657	278.093	151.856	158.188	259.698	284.653	155.936	158.968	162.640	165.757	269.707	162.377	-8191	255	
2707.101	1	1	0	0	0.12379	0.3291	0.089822	0.079269	0.11843	0.17239	0.16081	0.30723	0.047486	0.32028	0.14239	0.18637	0.044981	0.30028	0.12324	0.20449	0.23125	-0.15417	-0.86458	0.041667	-0.39792	-0.67708	0.020833	-0.67083	-0.19375	0.041667	-0.75417	-0.08125	-0.43333	-0.70208	0.30833	-0.69792	357.676	261.528	198.487	233.875	177.575	254.023	475.063	413.604	389.870	298.050	257.283	449.169	455.582	406.498	169.689	462.274	0.0011286	0.00068329	0.00014385	852.1	7.1338e-06	5.6537e-06	800.3	353.6	5.8642e-06	2.6822e-06	367.54	171.66	140	68.16	1.1086e-05	79.414	0.0009373	0.00089528	0.00023931	813.05	9.2912e-06	9.4752e-06	764.07	338.76	9.5652e-06	9.3288e-06	351.87	164.96	135.36	66.078	9.5815e-06	77.058	154.044	232.218	256.092	153.380	297.304	249.533	151.752	158.095	264.829	252.840	155.763	158.390	162.474	165.708	290.531	162.379	-8191	255	
2707.196	1	1	0	0	0.16595	0.17164	0.074211	0.21915	0.064151	0.19227	0.24916	0.22766	0.27074	0.16964	0.40241	0.48257	0.23754	0.15525	0.19966	0.032402	0.13542	0.19167	-0.86042	-0.13958	-0.37292	-0.45625	0.13333	-0.4	-0.31875	0.19792	-0.79792	-0.20833	-0.29375	-0.76875	0.18542	-0.66458	210.677	337.961	366.292	482.070	348.603	453.442	449.024	378.414	187.865	385.326	488.814	454.832	486.573	316.673	188.014	414.285	0.0011408	0.00051153	0.00016789	848.51	6.7954e-06	9.5893e-06	802.71	354.39	9.5184e-06	2.8667e-06	366.49	170.97	140.45	68.268	6.4689e-06	79.224	0.00093358	0.00091046	0.00024382	815.49	9.6503e-06	9.6533e-06	768.07	340.83	9.586e-06	9.7568e-06	351.5	164.63	135.47	66.101	9.6624e-06	76.621	154.148	197.947	231.019	153.409	271.106	269.487	151.479	158.173	255.696	299.445	155.379	158.379	162.638	165.847	270.238	162.552	-8191	255	
2707.292	1	1	0	0	0.30078	0.13209	0.053298	0.14284	0.28405	0.058658	0.22519	0.14264	0.34947	0.023648	0.096267	0.18142	0.085025	0.19702	0.13384	0.16938	-0.1125	0.035417	-0.64167	-0.0875	-0.13125	-0.8	0.13333	-0.51042	-0.32708	0.12917	-0.86667	-0.052083	0.035417	-0.72083	0.00625	-0.57708	404.682	362.885	330.512	265.438	314.535	302.515	188.785	457.591	342.033	424.307	305.131	462.441	450.084	410.370	485.340	445.837	0.0011979	0.00062332	0.00023186	850.88	6.5806e-06	4.1274e-06	796.48	352.93	6.6043e-06	6.9622e-06	365.46	172.1	140.75	68.508	7.4394e-06	79.419	0.00093817	0.00087913	0.0002437	813.83	9.3692e-06	9.7197e-06	761.31	339.85	9.5053e-06	9.6621e-06	350.16	164.75	135.69	66.26	1.0057e-05	76.959	154.562	237.358	244.536	153.145	277.123	258.627	151.953	158.251	255.605	285.254	155.556	158.482	162.411	165.777	257.734	162.756	-8191	255	
2707.390	1	1	0	0	0.096857	0.1494	0.18339	0.27249	0.13215	0.10988	0.24726	0.11185	0.14147	0.23335	0.13891	0.20153	0.12182	0.40982	0.32406	0.23022	-0.15833	0.097917	-0.55	-0.3375	0.30833	-0.76458	-0.014583	-0.4	-0.35625	0.19167	-0.625	-0.35833	0.060417	-0.99583	-0.00625	-0.27083	217.831	314.135	404.065	442.472	489.303	329.776	156.808	158.926	491.482	219.870	419.288	485.743	200.833	452.271	342.687	169.553	0.001199	0.00043226	0.00018418	853.05	5.192e-06	1.0025e-05	802.68	355.53	7.7592e-06	1.2453e-06	367.69	172.14	141.52	68.819	9.1677e-06	79.961	0.0009385	0.0008942	0.00023897	816.21	9.3175e-06	9.5887e-06	766.43	340.68	9.6346e-06	9.8626e-06	353.05	165.49	136.35	66.722	9.7556e-06	77.612	155.351	249.499	228.365	153.012	296.209	295.682	152.183	158.104	244.672	357.993	155.755	158.649	162.364	165.948	274.944	162.390	-8191	255	
2707.508	1	1	0	0	0.066838	0.10876	0.039994	0.22675	0.062331	0.11689	0.30778	0.31354	0.057297	0.13124	0.52824	0.22998	0.05494	0.35234	0.072614	0.28109	-0.45	0.2125	-0.44792	-0.5125	0.15833	-0.68542	-0.15625	-0.29583	-0.825	0.085417	-0.5875	-0.46042	0.29375	-0.67917	0.04375	-0.32083	466.566	432.212	467.794	442.644	211.132	375.658	484.495	443.232	234.622	220.656	438.332	399.865	477.285	169.206	412.064	378.947	0.0012298	0.00046345	0.0002294	853.69	5.4516e-06	8.7936e-06	807.05	356.55	1.1986e-05	4.4372e-06	373.06	174.95	141.85	68.888	9.7455e-06	80.385	0.00094844	0.00091687	0.00024967	818.66	9.6444e-06	9.7565e-06	771.11	342.97	9.5728e-06	9.7532e-06	356.18	167.44	136.63	66.866	9.9985e-06	77.954	154.157	232.173	204.264	153.227	297.127	293.547	151.677	158.029	267.721	274.607	155.749	159.081	162.798	165.884	248.711	162.537	-8191	255	
2707.605	1	1	0	0	0.18478	0.11416	0.1682	0.29688	0.2138	0.19267	0.10269	0.15202	0.20633	0.18846	0.16561	0.036992	0.18107	0.2199	0.11798	0.3724	-0.45417	0.18542	-0.4625	-0.57083	0.20625	-0.73542	-0.36875	-0.28958	-0.65833	0.18333	-0.79167	-0.59583	-0.11458	-0.85625	-0.24792	-0.11667	439.253	254.791	344.051	492.841	142.724	310.889	383.517	431.591	403.414	241.012	455.451	475.733	454.389	477.149	302.686	482.290	0.0012157	0.00060745	0.00012541	855.36	6.3354e-06	3.6045e-06	811.76	356.54	8.7976e-06	4.921e-06	368.28	172.63	140.8	68.546	8.2853e-06	80.218	0.00095069	0.00090997	0.00025337	819.61	9.3853e-06	1.0237e-05	772.71	342.12	9.5126e-06	1.038e-05	353.37	165.75	135.83	66.676	9.9921e-06	77.4	155.953	216.132	245.320	153.375	285.264	256.213	151.805	158.326	268.579	278.890	155.510	158.622	162.583	165.828	283.329	162.462	-8191	255	
2707.701	1	1	0	0	0.29033	0.14116	0.36782	0.40144	0.39294	0.058264	0.31738	0.27475	0.27768	0.041282	0.17316	0.32682	0.10526	0.18856	0.11465	0.20653	-0.48542	0.083333	-0.15208	-0.76875	0.17917	-0.33333	-0.29375	-0.06875	-0.85833	-0.020833	-0.40417	-0.92292	-0.072917	-0.70833	-0.40833	-0.025	181.623	432.035	459.928	241.789	495.911	270.022	471.644	466.183	474.307	387.793	342.398	469.871	339.862	415.420	476.315	450.708	0.0012064	0.00070653	0.00011343	850.35	6.026e-06	5.2403e-06	803.2	355.94	7.2316e-06	6.4176e-06	368.68	172.68	141.31	68.913	6.2593e-06	80.289	0.00093625	0.00094012	0.00024652	815.53	9.3573e-06	9.8286e-06	767.77	341.21	9.4696e-06	9.8373e-06	352.44	165.77	136.34	66.768	9.4917e-06	77.756	154.530	221.655	223.452	153.454	253.047	283.014	151.773	158.347	259.139	287.250	155.519	158.524	162.577	165.873	270.182	162.551	-8191	255	
2707.797	1	1	0	0	0.070685	0.26125	0.17458	0.18296	0.02028	0.17618	0.21782	0.1525	0.1646	0.22724	0.17515	0.067299	0.1572	0.24154	0.087364	0.16572	-0.45208	-0.11042	-0.039583	-0.8625	0.37292	-0.59375	-0.58542	-0.072917	-0.67083	-0.045833	-0.24375	-0.77292	0.052083	-0.67708	-0.46667	0.29792	480.010	161.003	146.263	457.277	404.635	387.333	408.762	430.391	213.156	422.722	167.280	150.297	431.945	451.148	484.542	425.407	0.0011858	0.00053527	0.00015644	852.89	6.3501e-06	4.3195e-06	810.04	354.65	7.0894e-06	7.585e-06	370.5	174	141.46	69.357	8.1294e-06	80.638	0.00093589	0.00089844	0.00024764	816.14	9.4229e-06	1.0051e-05	770.41	342.03	9.4885e-06	1.0028e-05	354.43	167.04	136.77	67.23	9.6757e-06	78.212	155.189	233.841	229.787	153.211	270.281	295.662	151.596	158.134	284.877	295.869	155.619	158.743	162.512	166.061	292.737	162.433	-8191	255	
2707.893	1	1	0	0	0.1757	0.23983	0.14987	0.30552	0.16719	0.19293	0.099775	0.25897	0.13402	0.018622	0.2233	0.34027	0.34789	0.15248	0.036208	0.12551	-0.4625	-0.28333	-0.10833	-0.85833	0.09375	-0.34167	-0.62917	0.10208	-0.49375	-0.225	-0.10833	-0.75	-0.19583	-0.75	-0.875	-0.0083333	250.477	296.155	243.559	456.900	403.161	384.964	221.441	487.969	279.330	290.029	365.993	408.860	157.957	477.619	324.018	421.959	0.0012109	0.00074514	0.00017816	857.91	4.3073e-06	8.847e-06	808.91	356.61	1.0219e-05	3.7623e-06	372.54	176.1	141.91	69.337	9.1956e-06	80.676	0.00094757	0.00091388	0.00025586	820.9	9.7777e-06	9.956e-06	773.55	343.61	9.8868e-06	1.0202e-05	357.43	168.43	136.97	67.175	9.7972e-06	78.355	154.722	246.232	233.828	153.299	304.180	283.971	152.204	158.037	274.059	314.900	155.787	158.520	162.653	165.927	277.742	162.518	-8191	255	
2707.989	1	1	0	0	0.19152	0.19074	0.14198	0.18408	0.23277	0.063612	0.50224	0.12114	0.17988	0.15207	0.20334	0.15045	0.25943	0.22642	0.11862	0.28933	-0.31875	-0.55	0.19167	-0.78958	0.070833	-0.225	-0.775	0.025	-0.50833	-0.28542	0.014583	-0.86875	0.03125	-0.2	-0.75625	-0.16042	177.312	397.233	196.913	336.186	302.177	371.390	420.340	349.757	346.943	256.172	205.943	499.394	155.837	461.117	190.159	455.756	0.0011822	0.00049423	0.00020303	860.17	6.5918e-06	7.8939e-06	805.88	357.13	6.4777e-06	3.5741e-06	370.85	173.69	140.72	68.626	7.8053e-06	80.445	0.00096003	0.00092666	0.00026114	821.52	9.2542e-06	9.8386e-06	773.08	343.41	9.7392e-06	9.9837e-06	354.98	166.81	136.21	66.735	9.7998e-06	77.74	152.830	231.147	226.147	153.618	289.838	295.857	151.793	158.086	290.026	246.484	155.812	158.714	162.791	165.921	256.497	162.466	-8191	255	
2708.110	1	1	0	0	0.27111	0.094246	0.3382	0.3241	0.044714	0.24842	0.050751	0.6013	0.083434	0.080029	0.088883	0.40791	0.16287	0.39348	0.30503	0.069429	-0.14792	-0.28333	0.016667	-0.98958	-0.045833	-0.12083	-0.97917	-0.016667	-0.4625	-0.6875	-0.091667	-0.81042	-0.34792	-0.18958	-0.82708	-0.0125	263.798	289.423	490.494	146.018	348.772	348.696	468.759	438.347	458.513	256.635	490.743	478.246	192.796	428.182	267.265	356.411	0.0012311	0.00046075	0.00021178	855.95	8.8825e-06	8.4361e-06	808.15	356.45	1.188e-05	6.0165e-06	368.84	173.86	141.52	69.096	8.567e-06	80.088	0.00095267	0.00089246	0.00024565	818.32	9.5345e-06	9.8531e-06	770.6	341.72	9.6341e-06	9.9891e-06	354.01	166.85	136.52	66.819	9.8197e-06	77.76	155.340	228.334	233.780	153.609	277.992	267.892	151.664	158.101	270.079	300.023	155.817	158.525	162.789	165.934	282.059	162.288	-8191	255	
2708.206	1	1	0	0	0.11588	0.22748	0.35625	0.17103	0.12224	0.20282	0.15068	0.30154	0.25382	0.19828	0.076323	0.054738	0.21369	0.21412	0.10145	0.086837	-0.14583	-0.3125	0.33333	-0.75625	-0.1375	0.13333	-0.81875	0.020833	-0.44375	-0.775	0.1375	-0.70625	-0.38333	-0.064583	-0.81875	-0.01875	260.827	158.839	366.586	433.581	487.288	421.389	426.668	445.686	193.917	472.343	308.205	298.003	445.786	497.612	400.993	442.323	0.0011671	0.00066906	0.00020307	858.15	6.5577e-06	5.6886e-06	807.23	357.03	4.6655e-06	7.0279e-06	368.71	174.85	142.11	69.095	6.6445e-06	80.342	0.0009547	0.00089792	0.00025062	820.68	9.5483e-06	1.0071e-05	772.43	342.13	9.6869e-06	9.8953e-06	354.24	167.48	136.96	66.704	9.63e-06	78.007	155.814	266.606	222.367	153.368	286.599	307.605	151.783	158.005	255.670	293.281	156.129	158.845	162.513	165.821	282.304	162.673	-8191	255	
2708.300	1	1	0	0	0.05451	0.10429	0.37086	0.13546	0.15206	0.13498	0.18945	0.61173	0.22518	0.082673	0.27746	0.11164	0.10365	0.20949	0.1157	0.076717	0.1625	-0.83333	0.089583	-0.6875	-0.30625	0.15625	-0.94375	0.00625	-0.23542	-0.83958	-0.0083333	-0.70208	-0.45417	0.05	-0.65	-0.11458	391.573	370.069	430.154	202.015	412.924	274.532	232.278	467.345	217.305	462.692	472.938	435.840	380.213	198.853	468.997	341.366	0.001117	0.00075045	0.00023133	853.85	5.9494e-06	6.4507e-06	817.9	355.78	8.485e-06	6.1824e-06	372.17	176.36	142.01	68.89	7.2733e-06	81.202	0.00093083	0.00090023	0.00024822	819.31	9.4407e-06	9.8383e-06	776.8	342.61	9.7923e-06	9.9936e-06	356.78	168.38	137.04	66.787	1.0067e-05	78.436	157.548	212.329	241.986	153.683	279.206	283.707	151.952	158.276	267.262	294.068	155.930	158.986	162.599	165.973	275.368	162.598	-8191	255	
2708.397	1	1	0	0	0.10114	0.29699	0.096319	0.17994	0.38394	0.03439	0.14737	0.13411	0.36569	0.14908	0.099003	0.11386	0.16007	0.27308	0.29392	0.33565	0.5375	-0.74375	0.0875	-0.31875	-0.47708	-0.025	-0.725	-0.18958	-0.30208	-0.71667	0.19792	-0.27083	-0.63333	-0.0125	-0.65	-0.4875	436.875	192.310	271.661	268.834	341.653	164.589	158.603	408.278	405.556	159.409	486.371	479.575	362.477	498.492	307.225	444.055	0.0012171	0.00091712	8.6566e-05	860.64	6.81e-06	5.3866e-06	811.29	354.68	9.5659e-06	3.554e-06	370.09	174.35	141.6	68.605	7.7048e-06	80.335	0.00095399	0.00090431	0.00025605	821.95	9.285e-06	9.9994e-06	773.78	341.37	9.7215e-06	9.657e-06	354.16	166.98	136.26	66.591	9.6843e-06	77.802	155.291	231.676	215.143	153.534	277.491	283.548	151.868	158.324	269.926	295.490	155.578	158.995	162.737	165.894	270.450	162.397	-8191	255	
2708.470	1	1	0	0	0.32119	0.23424	0.15605	0.06411	0.21088	0.025124	0.099931	0.083116	0.16277	0.16028	0.44822	0.14388	0.35646	0.11221	0.2853	0.37772	0.51458	-0.80833	0.15833	-0.4875	-0.61875	0.04375	-0.59792	-0.45417	0.12917	-0.77708	-0.15417	-0.20625	-0.75417	0.05	-0.58958	-0.65833	408.279	186.839	375.838	167.222	331.783	243.922	470.743	270.333	420.448	140.530	418.636	172.169	486.465	162.069	466.781	404.585	0.001167	0.00044301	0.00011833	853.72	6.7292e-06	4.6859e-06	807.38	356.86	8.1655e-06	3.3523e-06	369.1	174.24	141.17	69.207	7.6554e-06	80.684	0.00095052	0.00085238	0.00025525	818.07	9.3107e-06	9.7873e-06	771.57	341.91	9.5019e-06	9.9888e-06	353.7	167.26	136.54	67.058	9.8376e-06	78.211	155.954	220.613	201.798	153.574	283.666	309.743	151.980	158.161	266.391	330.457	155.669	158.741	162.662	165.776	267.885	162.594	-8191	255	
2708.589	1	1	0	0	0.14868	0.13208	0.048162	0.2334	0.053128	0.17985	0.046241	0.29793	0.17621	0.047117	0.24415	0.14697	0.13485	0.07608	0.067847	0.30451	0.64583	-0.67708	0.10417	-0.01875	-0.77292	0.075	-0.52708	-0.5625	0.060417	-0.68125	-0.19792	-0.24167	-0.60625	-0.0020833	-0.30417	-0.87708	379.170	160.188	406.045	461.840	420.333	199.486	238.434	156.972	298.440	384.238	157.965	494.442	209.588	465.577	141.405	410.615	0.0012275	0.00058643	0.0001638	856.93	4.6219e-06	8.0235e-06	811.34	357.96	6.0228e-06	6.6653e-06	370.82	175.3	141.99	69.116	9.8722e-06	80.901	0.00093883	0.00088503	0.00025172	819.51	9.3689e-06	1.0031e-05	774.21	343.45	9.5528e-06	9.7544e-06	355.69	167.97	137.09	66.971	9.8099e-06	78.453	156.513	203.177	209.902	153.500	252.145	318.963	151.982	158.092	255.939	293.489	155.682	159.163	162.779	165.724	273.103	162.266	-8191	255	
2708.685	1	1	0	0	0.20305	0.28241	0.21261	0.26753	0.18699	0.10185	0.053655	0.38781	0.087	0.13484	0.16504	0.37964	0.26637	0.23695	0.16232	0.3775	0.66667	-0.51042	-0.18958	-0.020833	-0.77917	0.14792	-0.19583	-0.83333	0.22292	-0.64375	-0.3	-0.20625	-0.84167	0.075	-0.23542	-0.61667	199.285	356.482	388.586	178.555	394.091	475.122	271.503	150.009	178.258	292.466	455.750	435.293	445.568	475.743	335.793	406.831	0.0012193	0.00038354	0.00014024	855.51	6.6381e-06	4.8802e-06	814.9	357.89	5.8559e-06	6.933e-06	376	175.54	142.5	68.974	7.7996e-06	81	0.00096244	0.00091198	0.00025373	820.72	9.4941e-06	1.0049e-05	779.1	343.5	9.6892e-06	1.0142e-05	359.08	168.98	137.28	66.735	1.0079e-05	78.468	154.573	248.945	254.890	153.537	270.694	268.471	152.076	158.380	226.993	331.168	155.562	158.819	162.708	165.858	263.464	162.236	-8191	255	
2708.781	1	1	0	0	0.088508	0.047836	0.31104	0.23324	0.15145	0.16724	0.17657	0.076153	0.034318	0.22389	0.050344	0.16106	0.045961	0.1311	0.096103	0.27169	0.41667	-0.53542	-0.40625	0.12917	-0.61042	-0.085417	-0.15	-0.90417	0.34375	-0.43958	-0.43125	-0.01875	-0.51875	-0.20417	-0.11667	-0.83333	261.389	245.839	290.572	210.906	218.326	345.382	331.359	309.137	478.608	298.060	231.318	439.187	169.836	421.565	339.454	460.364	0.0011794	0.00068053	0.00017638	861.87	5.8839e-06	7.8515e-06	817.25	355.7	9.2971e-06	6.6535e-06	370.1	174.69	140.72	68.39	7.8987e-06	80.532	0.00094172	0.00091943	0.00024847	822.38	9.6017e-06	9.9047e-06	777.78	342.23	9.9022e-06	1.0264e-05	355.78	167.23	136.06	66.298	9.6947e-06	77.844	154.808	219.235	216.437	153.329	239.930	302.379	151.886	158.042	266.068	299.890	155.482	158.706	162.608	165.745	271.441	162.525	-8191	255	
2708.877	1	1	0	0	0.087516	0.13495	0.1855	0.40733	0.08037	0.14428	0.14032	0.24601	0.031661	0.25809	0.18574	0.19429	0.23871	0.14862	0.21992	0.18665	0.62708	-0.56458	-0.41875	-0.058333	-0.6375	0.1	-0.11667	-0.9	0.097917	-0.30625	-0.54375	0.16667	-0.77292	-0.44583	-0.0020833	-0.6375	405.016	285.734	406.663	465.181	497.291	468.954	485.981	388.211	348.987	253.225	489.888	403.873	463.013	409.547	380.418	172.230	0.0012177	0.00098639	0.00013282	855.68	6.6661e-06	4.108e-06	807.75	356.27	7.5852e-06	5.8417e-06	369.15	173.93	140.69	68.436	5.207e-06	80.753	0.00096823	0.00091712	0.00024936	818.81	9.4469e-06	1.0028e-05	773.34	341.85	9.5376e-06	9.7745e-06	354.26	167.14	136.17	66.325	9.6751e-06	78.089	156.613	233.218	230.689	153.639	276.558	335.023	151.782	158.297	278.912	264.615	155.617	158.743	162.843	165.965	255.426	162.701	-8191	255	
2708.998	1	1	0	0	0.014003	0.038564	0.12545	0.31922	0.1297	0.043248	0.25924	0.18014	0.2183	0.068883	0.29815	0.43168	0.10129	0.20924	0.019035	0.23672	0.4625	-0.2	-0.35208	0.30417	-0.47083	-0.22083	-0.033333	-0.67083	0.025	-0.18333	-0.78125	-0.0020833	-0.56667	-0.65833	0.09375	-0.71458	243.480	214.919	446.457	482.941	380.245	316.664	358.821	487.801	288.711	288.399	469.952	438.431	220.567	468.518	456.729	143.298	0.0012066	0.00051439	0.00031982	854.46	5.8388e-06	9.3369e-06	806.14	358.19	6.8884e-06	4.3258e-06	369.13	174.67	141.26	68.59	5.8654e-06	80.987	0.00095145	0.00089553	0.00024869	817.78	9.6294e-06	9.7151e-06	772.18	342.1	9.4159e-06	9.9876e-06	354.91	167.87	136.46	66.547	9.8492e-06	78.416	152.473	211.612	223.780	153.362	286.203	300.998	152.169	158.198	287.780	296.883	155.810	158.824	162.736	166.087	255.997	162.548	-8191	255	
2709.070	1	1	0	0	0.04147	0.1051	0.27176	0.32536	0.093617	0.18465	0.2492	0.44834	0.21215	0.11538	0.10322	0.24659	0.25646	0.36295	0.058874	0.07131	0.42292	-0.14375	-0.63958	0.28333	-0.5875	-0.35208	0.17292	-0.69792	0.1375	-0.25	-0.57708	0.12292	-0.3625	-0.81458	0.033333	-0.96667	200.481	358.547	287.379	398.799	327.948	356.958	147.102	394.507	203.159	297.448	492.319	475.508	170.679	155.216	245.629	363.135	0.0011781	0.00057987	0.00018723	854.07	6.903e-06	6.3929e-06	811.57	357.5	9.5641e-06	5.7306e-06	374.2	175.37	141.11	68.533	8.0996e-06	81.607	0.00094761	0.00092046	0.00024447	819.1	9.3155e-06	9.7296e-06	776.64	342.78	9.8224e-06	9.6928e-06	357.66	168.38	136.61	66.475	9.7247e-06	78.476	154.158	226.678	237.608	153.392	270.807	308.636	152.038	158.424	281.660	289.793	155.592	158.864	162.794	165.705	281.528	162.651	-8191	255	
2709.190	1	1	0	0	0.12566	0.3146	0.039503	0.28268	0.16554	0.16299	0.090449	0.13663	0.12841	0.20219	0.28076	0.16686	0.041154	0.13409	0.18858	0.094451	0.13542	0.0125	-0.7875	0.10625	-0.44167	-0.60208	0.10833	-0.61458	-0.39167	0.014583	-0.83958	0.095833	-0.46875	-0.71875	0.24167	-0.58958	286.069	295.957	153.357	451.440	449.901	166.178	455.924	493.003	233.103	443.884	393.175	458.554	263.569	330.179	277.122	416.570	0.0011794	0.00069182	0.00013782	855.87	6.1908e-06	6.6849e-06	809.64	355.14	8.5262e-06	6.1153e-06	369.15	173.97	141.27	68.516	6.4098e-06	80.765	0.00097536	0.00090766	0.00024246	818.27	9.4248e-06	9.7996e-06	771.96	341.42	9.444e-06	9.7033e-06	354.23	167.38	136.23	66.422	9.9119e-06	78.17	155.948	225.493	220.904	153.062	262.265	284.386	152.268	158.338	278.711	303.040	155.670	158.780	162.690	165.580	281.080	162.295	-8191	255	
2709.286	1	1	0	0	0.26991	0.22853	0.1958	0.19874	0.08919	0.15999	0.31633	0.30122	0.31712	0.056018	0.3152	0.21524	0.25096	0.16898	0.13806	0.29564	0.22083	0.19375	-0.54583	0.04375	-0.25833	-0.775	0.066667	-0.64583	-0.39167	0.125	-0.73958	-0.1	-0.20833	-1.0729	0.20625	-0.82292	455.371	279.566	148.003	447.330	415.073	240.370	193.117	479.881	347.159	474.911	435.541	427.016	429.388	362.904	280.648	377.170	0.0011629	0.00049726	0.00014845	851.21	5.6683e-06	9.1631e-06	805.89	356.34	8.8549e-06	6.7984e-06	371.74	175.27	141.56	68.622	5.2899e-06	81.067	0.00093399	0.00087565	0.00024061	814.77	9.2703e-06	9.6101e-06	771.61	341.71	9.832e-06	9.749e-06	354.78	167.89	136.6	66.62	9.8994e-06	78.496	153.296	206.741	248.749	153.113	247.530	265.304	151.793	158.224	241.216	300.634	155.648	158.664	162.725	165.704	288.090	162.599	-8191	255	
2709.381	1	1	0	0	0.30682	0.080829	0.22651	0.5455	0.28874	0.23098	0.29896	0.15158	0.22424	0.17884	0.091714	0.051173	0.30065	0.21398	0.022562	0.31794	0.016667	0.25	-0.96875	-0.1625	-0.025	-0.77083	-0.085417	-0.62917	-0.47083	0.16458	-0.55833	-0.29375	0.029167	-0.63958	0.1125	-0.41042	141.737	362.046	388.996	421.120	443.903	432.114	150.740	355.191	167.159	256.384	474.950	448.949	493.632	151.461	392.751	429.567	0.0011745	0.00066391	9.5041e-05	851.59	5.0617e-06	5.5449e-06	807.72	356.16	8.5399e-06	4.443e-06	370.62	175.59	141.77	69.03	8.3139e-06	81.612	0.00092352	0.00090108	0.00025168	818.34	9.4734e-06	9.5359e-06	773.95	342.18	9.4097e-06	9.7108e-06	357.47	168.79	136.88	66.807	1.0034e-05	78.963	157.207	223.433	213.549	153.554	301.115	267.260	152.064	158.245	270.512	269.242	155.565	158.562	162.473	165.835	263.886	162.582	-8191	255	
2709.477	1	1	0	0	0.25492	0.10012	0.15404	0.54954	0.10346	0.17597	0.27185	0.1483	0.3022	0.23191	0.21958	0.10907	0.30138	0.09857	0.30047	0.20424	-0.28958	0.38542	-0.60208	-0.48125	0.075	-0.72708	-0.05625	-0.33958	-0.61458	0.30625	-0.67917	-0.28333	0.025	-0.80417	0.079167	-0.29167	379.150	496.431	359.320	455.088	230.785	406.869	388.852	471.698	477.425	224.286	302.983	168.265	160.295	481.853	257.959	493.034	0.0012146	0.00051774	0.00019815	853.35	5.4928e-06	1.2126e-05	817.43	356.48	7.7701e-06	7.4395e-06	375.48	176.65	142.27	68.74	5.9314e-06	81.419	0.00093765	0.00090665	0.00024923	819.4	9.6054e-06	9.8639e-06	780.01	343.88	9.6197e-06	9.9449e-06	359.51	169.4	137	66.691	1.0042e-05	78.711	154.681	205.969	224.702	153.501	272.146	301.973	151.911	158.543	252.464	275.980	155.865	158.834	162.659	165.928	262.826	162.562	-8191	255	
#DATA ENDS
