BOXY.EXE: ISS Imagent and Oximeter Data Acquisition Program Version 0.80
Ascii Record File

#ACQ INFORMATION
2  Detector Channels 
16  External MUX Channels 
1  Auxiliary Channels 
5000  Waveform (CCF) Frequency (Hz)
1  Waveforms Skipped 
30  Waveforms Averaged 
1  Cycles Averaged 
16  Acquisitions per Waveform 
10.0806  Updata Rate (Hz) 

#FILE INFORMATION
TRUE -- External MUX Channel results are PARSED.
FALSE -- AC DC and Phase are NOT grouped.
TRUE -- Companion Program Settings File CREATED.
FALSE -- AC data not excluded
FALSE -- DC data not excluded
FALSE -- Phase data not excluded
FALSE -- Auxillary Chn. data not excluded
Tab delimiters

#CALIBRATION STATE
TRUE -- Waveform Calibration Values APPLIED.


#AUX CALIBRATION VALUES
Val Type	aux-1	

Term	1.0000e+00	
Factor	0.0000e+00	


#WF CALIBRATION VALUES
A = Detector Channel
Val Type	A-AC1	A-AC2	A-AC3	A-AC4	A-AC5	A-AC6	A-AC7	A-AC8	A-AC9	A-AC10	A-AC11	A-AC12	A-AC13	A-AC14	A-AC15	A-AC16	A-DC1	A-DC2	A-DC3	A-DC4	A-DC5	A-DC6	A-DC7	A-DC8	A-DC9	A-DC10	A-DC11	A-DC12	A-DC13	A-DC14	A-DC15	A-DC16	A-Ph1	A-Ph2	A-Ph3	A-Ph4	A-Ph5	A-Ph6	A-Ph7	A-Ph8	A-Ph9	A-Ph10	A-Ph11	A-Ph12	A-Ph13	A-Ph14	A-Ph15	A-Ph16	

Term	0.00000e+00	0.00000e+00	0.00000e+00	0.00000e+00	0.00000e+00	0.00000e+00	0.00000e+00	0.00000e+00	0.00000e+00	0.00000e+00	0.00000e+00	0.00000e+00	0.00000e+00	0.00000e+00	0.00000e+00	0.00000e+00	0.00000e+00	0.00000e+00	0.00000e+00	0.00000e+00	0.00000e+00	0.00000e+00	0.00000e+00	0.00000e+00	0.00000e+00	0.00000e+00	0.00000e+00	0.00000e+00	0.00000e+00	0.00000e+00	0.00000e+00	0.00000e+00	0.00000e+00	0.00000e+00	0.00000e+00	0.00000e+00	0.00000e+00	0.00000e+00	0.00000e+00	0.00000e+00	0.00000e+00	0.00000e+00	0.00000e+00	0.00000e+00	0.00000e+00	0.00000e+00	0.00000e+00	0.00000e+00	
Factor	1.00000e+00	1.00000e+00	1.00000e+00	1.00000e+00	1.00000e+00	1.00000e+00	1.00000e+00	1.00000e+00	1.00000e+00	1.00000e+00	1.00000e+00	1.00000e+00	1.00000e+00	1.00000e+00	1.00000e+00	1.00000e+00	1.00000e+00	1.00000e+00	1.00000e+00	1.00000e+00	1.00000e+00	1.00000e+00	1.00000e+00	1.00000e+00	1.00000e+00	1.00000e+00	1.00000e+00	1.00000e+00	1.00000e+00	1.00000e+00	1.00000e+00	1.00000e+00	X	X	X	X	X	X	X	X	X	X	X	X	X	X	X	X	

B = Detector Channel
Val Type	B-AC1	B-AC2	B-AC3	B-AC4	B-AC5	B-AC6	B-AC7	B-AC8	B-AC9	B-AC10	B-AC11	B-AC12	B-AC13	B-AC14	B-AC15	B-AC16	B-DC1	B-DC2	B-DC3	B-DC4	B-DC5	B-DC6	B-DC7	B-DC8	B-DC9	B-DC10	B-DC11	B-DC12	B-DC13	B-DC14	B-DC15	B-DC16	B-Ph1	B-Ph2	B-Ph3	B-Ph4	B-Ph5	B-Ph6	B-Ph7	B-Ph8	B-Ph9	B-Ph10	B-Ph11	B-Ph12	B-Ph13	B-Ph14	B-Ph15	B-Ph16	

Term	0.00000e+00	0.00000e+00	0.00000e+00	0.00000e+00	0.00000e+00	0.00000e+00	0.00000e+00	0.00000e+00	0.00000e+00	0.00000e+00	0.00000e+00	0.00000e+00	0.00000e+00	0.00000e+00	0.00000e+00	0.00000e+00	0.00000e+00	0.00000e+00	0.00000e+00	0.00000e+00	0.00000e+00	0.00000e+00	0.00000e+00	0.00000e+00	0.00000e+00	0.00000e+00	0.00000e+00	0.00000e+00	0.00000e+00	0.00000e+00	0.00000e+00	0.00000e+00	-1.62475e+02	-1.30028e+02	-1.29081e+02	-1.82568e+02	-7.08570e+01	-6.63597e+01	-1.57125e+02	-1.62015e+02	-8.01052e+01	-6.56729e+01	-1.70653e+02	-1.69026e+02	-1.81905e+02	-1.76426e+02	-7.59934e+01	-1.49739e+02	
Factor	2.48014e-05	1.38066e-04	4.13928e-05	1.81409e-01	1.37938e-06	1.71112e-06	1.66522e-01	5.10113e-02	1.39629e-06	1.55553e-06	7.91198e-02	2.75910e-02	2.90947e-02	8.83143e-03	1.46968e-06	1.26923e-02	9.30207e-06	1.30508e-05	3.64333e-06	9.51287e-02	1.35613e-07	1.44845e-07	8.22480e-02	2.69387e-02	1.34931e-07	1.44256e-07	4.04368e-02	1.41989e-02	1.54998e-02	4.70142e-03	1.38599e-07	6.55128e-03	X	X	X	X	X	X	X	X	X	X	X	X	X	X	X	X	



#DISTANCE SETTINGS
A = Detector Channel
A-1	A-2	A-3	A-4	A-5	A-6	A-7	A-8	A-9	A-10	A-11	A-12	A-13	A-14	A-15	A-16	

2.5000e+00	3.0000e+00	2.5000e+00	3.0000e+00	2.0000e+00	3.0000e+00	1.5000e+00	3.0000e+00	3.0000e+00	3.0000e+00	3.0000e+00	3.0000e+00	3.0000e+00	3.0000e+00	1.5000e+00	3.0000e+00	

B = Detector Channel
B-1	B-2	B-3	B-4	B-5	B-6	B-7	B-8	B-9	B-10	B-11	B-12	B-13	B-14	B-15	B-16	

1.0000e+01	1.0000e+01	1.0000e+01	1.4400e+00	1.0000e+01	1.0000e+01	1.5100e+00	1.9400e+00	1.0000e+01	1.0000e+01	1.9900e+00	2.4900e+00	2.4100e+00	2.9000e+00	1.0000e+01	2.9800e+00	




#DATA BEGINS
time	group	step	mark	flag	A-AC1	A-AC2	A-AC3	A-AC4	A-AC5	A-AC6	A-AC7	A-AC8	A-AC9	A-AC10	A-AC11	A-AC12	A-AC13	A-AC14	A-AC15	A-AC16	A-DC1	A-DC2	A-DC3	A-DC4	A-DC5	A-DC6	A-DC7	A-DC8	A-DC9	A-DC10	A-DC11	A-DC12	A-DC13	A-DC14	A-DC15	A-DC16	A-Ph1	A-Ph2	A-Ph3	A-Ph4	A-Ph5	A-Ph6	A-Ph7	A-Ph8	A-Ph9	A-Ph10	A-Ph11	A-Ph12	A-Ph13	A-Ph14	A-Ph15	A-Ph16	B-AC1	B-AC2	B-AC3	B-AC4	B-AC5	B-AC6	B-AC7	B-AC8	B-AC9	B-AC10	B-AC11	B-AC12	B-AC13	B-AC14	B-AC15	B-AC16	B-DC1	B-DC2	B-DC3	B-DC4	B-DC5	B-DC6	B-DC7	B-DC8	B-DC9	B-DC10	B-DC11	B-DC12	B-DC13	B-DC14	B-DC15	B-DC16	B-Ph1	B-Ph2	B-Ph3	B-Ph4	B-Ph5	B-Ph6	B-Ph7	B-Ph8	B-Ph9	B-Ph10	B-Ph11	B-Ph12	B-Ph13	B-Ph14	B-Ph15	B-Ph16	aux-1	digaux	

2713.055	1	1	0	256	0.16738	0.030278	0.11046	0.1826	0.10006	0.050275	0.24582	0.16828	0.17285	0.33844	0.23009	0.16967	0.16403	0.3665	0.29725	0.28335	0.50208	-0.50625	-0.44583	0.014583	-0.81458	-0.12083	-0.097917	-0.64375	0.3	-0.20625	-0.4375	0.072917	-0.59583	-0.22292	0.039583	-0.83125	338.155	483.221	254.013	426.783	253.707	372.830	389.734	427.949	226.587	500.187	499.881	371.982	375.039	496.491	336.413	404.835	0.00096437	0.00038466	0.00018773	775.37	5.5916e-06	9.884e-06	717.43	318.76	6.6867e-06	3.3873e-06	322.48	148.46	123.76	58.956	4.4552e-06	67.348	0.00093021	0.00094001	0.00025671	742.72	9.8246e-06	1.03e-05	684.19	306.08	9.8769e-06	1.013e-05	309.49	142.77	119.12	57.159	1.0193e-05	65.214	152.222	206.544	228.635	153.472	280.956	308.671	152.105	158.186	262.035	308.266	155.964	159.104	162.966	166.010	271.574	162.766	-8191	255	
2713.152	1	1	0	0	0.21057	0.15437	0.15387	0.26821	0.076881	0.33753	0.25499	0.38055	0.13594	0.19726	0.14474	0.2073	0.21019	0.31293	0.085078	0.20181	0.55417	-0.10417	-0.63542	0.22917	-0.50208	-0.3125	-0.21042	-0.90625	0.14792	-0.1875	-0.75	0.15208	-0.59583	-0.35417	0.2	-1.0229	447.500	250.128	432.261	436.527	350.412	230.312	460.947	494.658	496.219	481.277	457.790	489.118	197.993	453.339	347.779	430.033	0.00090769	0.00080485	0.00018283	776.24	5.4968e-06	7.4688e-06	712.96	319.88	6.794e-06	9.0969e-06	322.44	151.04	125.43	59.854	6.5225e-06	68.642	0.00091643	0.00092769	0.00026298	744.22	9.8159e-06	9.9013e-06	683.43	307.04	1.0136e-05	1.008e-05	309.87	144.64	120.8	58.141	1.0253e-05	66.386	157.741	215.667	252.867	153.891	279.065	283.230	151.923	157.979	221.803	298.854	155.762	158.995	163.022	166.267	240.473	162.609	-8191	255	
2713.270	1	1	0	0	0.20953	0.26676	0.16711	0.14828	0.036796	0.16461	0.25465	0.23956	0.038769	0.32486	0.10744	0.17515	0.16412	0.26801	0.24663	0.25383	0.3625	-0.0020833	-0.44792	0.16042	-0.27708	-0.35	0.3375	-0.78125	-0.020833	0.089583	-0.64167	0.13125	-0.325	-0.53958	0.11667	-0.76458	306.637	339.325	468.461	413.427	463.439	407.701	433.177	394.199	464.314	198.959	153.835	447.685	488.892	439.981	409.477	172.934	0.00093524	0.0005367	0.0002213	771.8	3.0104e-06	6.9718e-06	713.56	319.67	6.0002e-06	5.0099e-06	323.75	149.66	124.89	59.946	5.3125e-06	68.418	0.0009105	0.00092889	0.00026324	740.91	9.5226e-06	1.0543e-05	682.63	306.79	1.0143e-05	1.0264e-05	311.34	144.16	120.21	57.83	1.0114e-05	66.049	157.125	253.147	222.324	153.428	283.653	297.834	151.772	158.249	274.734	317.464	155.883	158.859	163.162	166.153	267.586	162.453	-8191	255	
2713.367	1	1	0	0	0.047967	0.16284	0.19585	0.037888	0.44973	0.19703	0.10977	0.28395	0.13915	0.093893	0.074875	0.21656	0.06956	0.16737	0.11262	0.36697	0.17708	-0.1125	-0.73125	0.070833	-0.22292	-0.45	0.24583	-0.98542	-0.05	0.20625	-0.89583	0.12917	-0.33958	-0.57917	0.18958	-0.77292	394.923	397.475	302.350	384.506	476.225	240.826	419.440	216.830	441.708	153.914	328.620	379.236	436.894	326.173	176.876	395.777	0.0010134	0.00039372	0.0001512	767.74	6.6807e-06	8.271e-06	711.32	317.8	9.7961e-06	6.9238e-06	325.33	150.59	124.51	59.536	9.7927e-06	68.788	0.0009228	0.00094931	0.0002605	738.91	1.0002e-05	1.022e-05	682.05	305.67	1.0107e-05	1.0392e-05	312.3	144.83	119.92	57.767	1.0095e-05	66.467	152.959	236.910	222.906	153.951	286.723	295.293	151.703	158.516	264.969	296.825	155.980	158.899	162.987	166.192	272.858	162.555	-8191	255	
2713.463	1	1	0	0	0.096939	0.20216	0.0050704	0.33421	0.16856	0.27026	0.19276	0.039185	0.085912	0.12545	0.30196	0.20478	0.090395	0.15757	0.1341	0.20552	0.041667	0.19583	-0.76875	0.15208	-0.21875	-0.6125	0.13333	-0.57917	-0.23125	0.29375	-0.68333	0.0083333	-0.33125	-0.66875	0.24375	-0.475	236.426	248.733	254.901	417.000	146.207	169.882	179.469	365.000	215.075	496.427	462.285	444.382	147.901	203.444	477.900	487.483	0.0010676	0.0004712	0.00013114	770.87	3.443e-06	6.4459e-06	713.01	318.73	8.3369e-06	6.3945e-06	323.54	150.05	123.83	60.121	5.4954e-06	69.095	0.00094459	0.00093025	0.00026118	740.63	1.0119e-05	1.0426e-05	683.26	306.16	9.9259e-06	1.0301e-05	310.38	144.39	119.94	58.306	1.0018e-05	66.661	152.408	204.885	221.826	153.335	294.860	311.754	152.093	158.536	247.806	247.109	156.024	159.168	162.791	166.223	284.642	162.480	-8191	255	
2713.534	1	1	0	0	0.10244	0.13925	0.15087	0.06514	0.22933	0.065366	0.1755	0.045854	0.28896	0.092492	0.10828	0.26416	0.20848	0.20019	0.057487	0.11682	0.12292	0.25417	-0.55	-0.0625	0.079167	-0.6625	0.11042	-0.55417	-0.47917	0.36667	-0.62083	-0.23333	-0.05	-0.98333	0.30625	-0.425	229.639	212.400	432.549	496.955	371.558	359.097	488.574	447.724	498.433	155.437	476.185	151.050	143.488	418.696	187.586	430.526	0.0010099	0.00037636	0.00014786	779.45	4.5577e-06	7.8564e-06	717.39	320.12	7.2513e-06	5.1885e-06	326.34	151.45	126.78	61.107	7.3113e-06	69.953	0.00093344	0.00093444	0.00025756	743.11	9.7469e-06	1.0278e-05	685.5	307.97	9.9343e-06	1.0478e-05	313.24	146	121.84	59.276	1.028e-05	67.704	152.410	245.355	204.027	153.432	283.659	287.467	152.085	158.316	266.139	284.010	156.068	158.814	163.020	166.018	287.255	162.682	-8191	255	
2713.655	1	1	0	0	0.16284	0.046636	0.14344	0.16343	0.081525	0.14538	0.17892	0.11551	0.087984	0.10621	0.14414	0.22832	0.17404	0.36056	0.087888	0.15354	-0.097917	0.29375	-0.44167	-0.17083	0.047917	-0.55833	-0.1	-0.24792	-0.525	0.41458	-0.60208	-0.325	0.2375	-0.75	0.10625	-0.36042	419.527	484.278	383.411	449.755	141.263	271.664	448.336	481.067	237.612	315.576	352.059	426.255	444.972	499.006	369.558	141.464	0.0010241	0.00047023	0.00023937	776.4	4.1036e-06	4.2054e-06	724.67	323.48	7.4877e-06	8.744e-06	331.12	153.68	127.35	61.728	6.2275e-06	71.468	0.00092707	0.00093982	0.00025433	747.35	9.8998e-06	1.0436e-05	693.14	311.12	1.0168e-05	1.0413e-05	317.35	147.91	123.11	59.93	1.0336e-05	68.943	155.462	239.371	227.611	153.221	273.718	290.918	151.953	158.562	266.042	294.734	156.101	159.121	163.011	166.109	253.406	162.772	-8191	255	
2713.751	1	1	0	0	0.06191	0.17412	0.1328	0.24703	0.01513	0.079059	0.31961	0.15147	0.15922	0.14927	0.19014	0.37203	0.29854	0.27503	0.19318	0.25187	-0.42292	0.3	-0.53958	-0.41458	0.25	-0.88542	-0.047917	-0.025	-0.65833	0.14167	-0.52708	-0.53125	-0.016667	-0.77708	0.10625	-0.15625	428.484	192.963	300.782	438.014	149.868	277.044	409.173	418.594	190.649	373.440	444.649	458.043	479.998	492.888	437.346	451.177	0.00096031	0.00098653	0.00019334	784.99	7.3223e-06	6.6198e-06	730.08	326.22	4.901e-06	5.8989e-06	334.93	156.05	128.4	62.443	5.5851e-06	71.564	0.00093046	0.00096383	0.00026977	754.8	1.014e-05	1.0426e-05	698.74	314.32	1.002e-05	1.0555e-05	321.8	149.56	124.1	60.529	1.0415e-05	69.224	156.293	233.324	226.321	153.298	252.535	300.632	151.857	158.508	273.911	263.882	156.176	158.731	163.084	166.306	240.587	162.801	-8191	255	
2713.847	1	1	0	0	0.17797	0.18601	0.10409	0.29484	0.2415	0.10276	0.058323	0.23127	0.06528	0.19815	0.17894	0.20821	0.48341	0.18894	0.083048	0.19018	-0.36042	0.31458	-0.2	-0.40417	0.25417	-0.72917	-0.22292	0.175	-1.0104	0.30833	-0.55833	-0.3375	0.13958	-0.90625	-0.30833	0.11042	456.210	466.211	500.308	452.737	402.576	486.650	232.500	439.033	269.419	475.820	153.538	305.762	492.254	451.113	308.529	469.015	0.001055	0.00072632	0.00018237	789.29	2.869e-06	6.5171e-06	726.48	326.59	6.5167e-06	4.8911e-06	331.92	154.22	128.15	62.244	8.2253e-06	71.245	0.00094143	0.00093705	0.0002644	756.64	9.8876e-06	1.0636e-05	697.04	314.08	9.8786e-06	1.0637e-05	318.57	148.71	123.95	60.467	1.0318e-05	69.067	153.782	200.764	218.367	153.514	323.588	304.940	151.710	158.495	259.084	286.184	156.125	158.799	162.841	166.260	288.962	162.794	-8191	255	
2713.944	1	1	0	0	0.13129	0.048556	0.21341	0.29247	0.14416	0.098683	0.24591	0.069206	0.38069	0.16043	0.087703	0.31449	0.24704	0.11928	0.26941	0.090325	-0.26458	0.4125	-0.029167	-0.6125	0.25625	-0.58958	-0.39167	0.125	-0.60208	0.039583	-0.17083	-0.74375	0.091667	-0.67083	-0.2375	-0.01875	320.603	189.040	233.527	492.469	310.802	250.837	467.745	413.063	446.012	206.643	471.251	459.040	373.623	293.072	183.881	406.073	0.00098539	0.00052006	0.00019729	789.75	4.092e-06	7.821e-06	732.56	328.26	7.9768e-06	8.5989e-06	332.33	155.79	127.99	62.496	4.7862e-06	72.201	0.00092199	0.00097217	0.00026968	755.28	1.0171e-05	1.0412e-05	699.95	314.99	1.0147e-05	1.044e-05	319.76	149.95	124.56	60.912	1.022e-05	69.675	155.977	262.708	235.373	153.751	285.584	255.625	152.134	158.394	256.425	285.150	156.168	159.369	162.605	166.286	198.257	162.600	-8191	255	
2714.040	1	1	0	0	0.15465	0.076752	0.24489	0.20692	0.13857	0.039797	0.25541	0.33962	0.25703	0.062452	0.16067	0.14782	0.15496	0.23864	0.07281	0.18456	-0.30417	-0.0041667	-0.22292	-0.75208	0.17292	-0.47292	-0.61042	0.16042	-0.97917	0.025	-0.14583	-0.97083	-0.16667	-0.38542	-0.54375	0.083333	142.616	424.330	292.028	151.351	177.302	229.357	439.224	470.214	199.106	325.250	301.174	360.069	406.737	172.313	155.588	470.538	0.0011353	0.00066862	0.00027877	796.74	8.1485e-06	7.1014e-06	734.67	328.06	8.3535e-06	9.522e-06	334.36	156.25	129.41	62.872	8.2792e-06	72.312	0.00093484	0.00095953	0.0002658	759.7	1.0315e-05	1.0432e-05	703.84	315.83	9.9964e-06	1.0387e-05	321.42	150.28	125.11	61.108	1.0474e-05	70.044	153.484	210.675	229.635	153.419	270.699	296.652	151.754	158.599	273.498	323.999	156.020	158.910	162.870	166.213	277.245	162.676	-8191	255	
2714.136	1	1	0	0	0.30019	0.018956	0.26014	0.32301	0.15136	0.016278	0.24222	0.14432	0.12299	0.32937	0.024529	0.37699	0.13057	0.31881	0.072862	0.33063	-0.35	-0.13542	0.0625	-0.775	0.089583	-0.47708	-0.87083	-0.033333	-0.71042	-0.21042	0.077083	-0.9625	-0.20833	-0.35833	-0.64375	0.052083	286.353	453.106	498.181	455.040	377.423	259.543	383.374	362.424	146.026	157.559	431.593	366.199	429.321	449.169	349.047	392.749	0.0010891	0.00052853	0.00019017	794.83	8.6737e-06	4.7996e-06	739.54	328.25	5.3882e-06	9.2341e-06	338.32	157.21	129.92	63.054	9.5459e-06	72.005	0.00095786	0.00095931	0.00026725	762.59	1.0171e-05	1.0426e-05	707.69	316.64	1.0099e-05	1.0646e-05	323.5	151.04	125.23	61.162	1.0277e-05	69.855	157.982	238.624	230.724	153.789	280.982	325.765	151.910	158.449	273.369	312.366	155.813	159.094	162.772	166.224	269.901	162.874	-8191	255	
2714.232	1	1	0	0	0.067176	0.25865	0.2826	0.26094	0.024064	0.28522	0.22648	0.26497	0.20745	0.095845	0.050728	0.22405	0.13325	0.31804	0.25621	0.24606	-0.25208	-0.38125	0.06875	-0.99583	0.085417	-0.066667	-0.68542	0.30417	-0.61875	-0.41458	0.21458	-0.93958	-0.066667	-0.13125	-0.84792	0.010417	357.064	393.064	467.379	320.871	195.218	425.316	452.352	391.022	141.083	384.397	493.516	433.665	356.289	439.362	485.479	451.615	0.0010957	0.00048149	0.0002118	795.15	5.6512e-06	7.2645e-06	738.85	326.4	8.787e-06	6.2565e-06	334.91	156.5	129.4	63.388	5.9283e-06	72.185	0.00094912	0.00096296	0.00026862	762.83	1.0041e-05	1.0378e-05	706.13	315.12	1.0201e-05	1.0267e-05	320	149.95	125.02	61.361	1.0316e-05	69.929	156.051	220.529	231.352	153.646	281.615	256.470	151.917	158.458	280.859	304.140	155.865	158.885	162.844	165.965	300.027	162.445	-8191	255	
2714.351	1	1	0	0	0.2873	0.15923	0.18185	0.25916	0.10604	0.17621	0.074976	0.051164	0.27309	0.062387	0.21339	0.27699	0.095101	0.15901	0.13606	0.10916	-0.19167	-0.27083	0.24792	-0.78333	-0.15208	0.15208	-0.76458	0.022917	-0.36667	-0.47083	0.01875	-0.81042	-0.21458	-0.19792	-0.73333	0.0083333	289.335	400.422	267.722	163.860	422.561	203.376	427.447	440.430	157.000	236.835	427.838	192.731	375.615	408.469	181.381	272.204	0.0011701	0.00072685	0.00021222	795.35	6.8851e-06	5.7873e-06	740.97	330.11	9.6081e-06	6.3838e-06	335.17	157.71	130.46	63.9	8.4858e-06	72.775	0.00095437	0.0009563	0.00026438	762.89	1.015e-05	1.0598e-05	708.32	317.49	1.0182e-05	1.0405e-05	321.89	151.68	126.15	62.025	1.0143e-05	70.578	156.130	223.511	216.632	153.315	273.265	281.097	151.976	158.284	270.410	294.121	155.837	158.970	162.686	166.088	269.816	162.390	-8191	255	
2714.447	1	1	0	0	0.10198	0.26744	0.053913	0.095736	0.25716	0.17864	0.14133	0.1975	0.17945	0.15362	0.2218	0.14724	0.33632	0.21197	0.11834	0.08563	0.15833	-0.54583	0.33542	-0.6125	-0.21458	0.079167	-0.65	0.10625	-0.14792	-0.55833	0.12708	-0.725	-0.37083	-0.20208	-0.7875	-0.0375	190.822	427.090	487.893	197.020	387.339	227.209	407.153	488.585	145.138	461.254	361.661	499.590	478.756	217.984	221.753	481.278	0.0010373	0.00070873	0.00014914	800.86	7.2528e-06	7.8365e-06	744.96	331.04	9.6831e-06	7.6503e-06	338.41	158.8	131.02	64.095	9.0149e-06	73.642	0.00095682	0.00094713	0.00026688	766.77	9.9376e-06	1.0571e-05	710.28	319.56	1.0082e-05	1.0445e-05	324.41	152.59	126.63	62.196	1.0382e-05	71.174	155.946	224.077	235.474	153.352	292.497	317.321	151.697	158.656	292.641	300.693	155.761	158.919	162.657	166.157	272.951	162.317	-8191	255	
2714.543	1	1	0	0	0.24718	0.26202	0.31308	0.23491	0.16481	0.13582	0.25443	0.30537	0.16027	0.057894	0.048531	0.10126	0.2793	0.13677	0.14179	0.11883	0.24792	-0.5125	0.19167	-0.60208	-0.36667	0.20625	-0.69792	0.039583	-0.039583	-0.82708	0.06875	-0.75625	-0.45625	0.085417	-0.62708	-0.19583	216.337	293.251	397.938	489.360	427.229	204.281	328.958	393.248	421.194	175.347	467.934	233.874	457.747	173.876	253.178	371.244	0.0010472	0.00061501	0.00022319	799.64	7.8517e-06	1.1314e-05	746.97	333.75	7.2104e-06	4.747e-06	338.93	159.46	131.1	63.906	8.2498e-06	73.187	0.00096026	0.00094055	0.0002689	768.39	1.0223e-05	1.0923e-05	715.25	320.29	1.0495e-05	1.0358e-05	326.15	152.58	126.49	61.816	1.0575e-05	70.703	155.433	221.495	231.243	153.194	283.570	278.642	151.537	158.483	264.226	303.397	156.121	158.965	162.888	166.054	304.769	162.459	-8191	255	
2714.639	1	1	0	0	0.089801	0.28268	0.27524	0.15588	0.3265	0.16849	0.15556	0.18849	0.25497	0.15052	0.071314	0.050322	0.3754	0.095677	0.11789	0.33251	0.29167	-0.67917	0.2375	-0.55208	-0.5375	0.2625	-0.44792	-0.37083	0.125	-0.75208	0.1375	-0.38125	-0.60417	0.1375	-0.60208	-0.28333	344.789	320.860	326.721	237.578	363.021	312.971	492.448	167.745	429.037	175.099	168.308	444.010	488.720	355.598	209.018	442.489	0.0010871	0.00071119	0.00016924	803.06	4.2025e-06	4.881e-06	746.08	330.3	5.0419e-06	5.0362e-06	334.45	157.27	130.69	63.638	2.7966e-06	72.901	0.00098571	0.00094784	0.00026525	767.3	1.0298e-05	1.0507e-05	711.46	318.29	1.0152e-05	1.0539e-05	322.57	151.22	126.19	61.686	1.0649e-05	70.57	155.737	198.946	220.669	153.642	272.992	292.053	151.824	158.153	296.830	280.033	155.470	158.567	162.534	165.748	265.433	162.430	-8191	255	
2714.760	1	1	0	0	0.13634	0.17917	0.22774	0.15336	0.20386	0.23174	0.16977	0.064514	0.23189	0.075169	0.06215	0.14001	0.14109	0.31459	0.15648	0.45202	0.6375	-0.68958	-0.033333	-0.10208	-0.51875	0.25	-0.64167	-0.51458	0.12708	-0.52917	-0.13542	-0.16875	-0.77708	0.033333	-0.4625	-0.46458	330.732	469.024	165.230	149.380	488.098	227.247	422.020	159.814	375.294	281.193	154.498	444.985	215.344	141.469	353.087	427.226	0.0010032	0.00071615	0.00023359	806.71	6.9756e-06	7.5242e-06	745.68	331.93	8.7123e-06	6.0421e-06	336	158.26	130.59	63.806	6.063e-06	72.983	0.00096513	0.00094064	0.00026796	771.49	9.8294e-06	1.0432e-05	712.76	318.74	1.0474e-05	1.0414e-05	323.44	151.91	126.3	61.945	1.0409e-05	70.637	156.352	236.369	221.579	153.403	288.628	285.717	151.481	158.018	259.630	301.871	155.686	158.871	162.475	165.623	239.875	162.065	-8191	255	
2714.832	1	1	0	0	0.1248	0.12762	0.11677	0.034957	0.065748	0.24773	0.23416	0.12225	0.24804	0.21567	0.17943	0.087937	0.23393	0.21428	0.15612	0.16125	0.60208	-0.66667	0.0083333	-0.1375	-0.83333	0.097917	-0.35417	-0.5875	0.15417	-0.7875	-0.26042	-0.01875	-0.86667	0.0875	-0.2875	-0.71458	500.267	346.458	258.993	141.843	293.818	379.667	383.467	418.399	458.331	290.873	455.845	489.277	161.982	478.148	239.740	421.437	0.0010238	0.00068844	0.00016065	806.63	7.1028e-06	9.2435e-06	750.83	332.79	7.5403e-06	7.9652e-06	337.05	158.97	131.3	63.807	9.5924e-06	73.355	0.00096298	0.00094409	0.00026751	770.15	1.0203e-05	1.0387e-05	715.81	319.45	1.0114e-05	1.0442e-05	325.44	152.68	126.77	62.137	1.0265e-05	71.233	154.047	231.400	242.875	153.131	275.563	278.863	151.690	158.256	247.950	293.798	155.510	158.732	162.638	165.568	289.463	162.571	-8191	255	
2714.952	1	1	0	0	0.050534	0.42905	0.17382	0.14472	0.18998	0.19361	0.14411	0.26147	0.24115	0.29834	0.32805	0.15735	0.088588	0.10058	0.068436	0.48375	0.55	-0.69167	-0.25625	0.12083	-0.70208	0.079167	-0.54792	-0.61458	0.25417	-0.69375	-0.51875	-0.016667	-0.82917	-0.2375	-0.12292	-0.89792	342.999	394.601	433.788	416.017	453.650	430.703	462.430	378.996	493.672	191.315	155.422	459.388	487.353	334.913	253.725	440.941	0.0010956	0.00040667	0.00012165	804.92	4.6307e-06	8.3709e-06	754.07	333.82	7.0864e-06	4.0014e-06	338.03	158.71	130.76	63.861	8.517e-06	73.016	0.00096511	0.00094635	0.00026537	772.51	9.865e-06	1.0933e-05	721.77	320.96	1.0203e-05	1.0619e-05	326.11	152.33	126.36	61.759	1.0729e-05	70.679	155.766	166.146	215.775	153.522	299.373	276.725	151.761	158.214	270.941	269.112	155.324	158.803	162.911	165.760	288.221	162.559	-8191	255	
2715.048	1	1	0	0	0.22808	0.24889	0.28581	0.24209	0.13189	0.069226	0.10984	0.17528	0.063012	0.17275	0.060688	0.35459	0.044179	0.27514	0.15213	0.29372	0.57917	-0.38125	-0.0875	0.13125	-1.0958	0.13958	-0.33333	-0.85833	0.077083	-0.5125	-0.42292	0.010417	-0.75833	-0.18958	-0.10833	-0.84583	364.358	276.924	342.695	397.827	185.866	192.874	169.641	192.518	444.479	464.485	335.050	155.453	186.798	488.274	378.822	380.654	0.0010396	0.0004409	0.00012328	802.68	3.2985e-06	7.6285e-06	750.17	330.93	8.6776e-06	4.6954e-06	336.94	157.9	131.32	63.749	5.7428e-06	73.233	0.00096172	0.00095148	0.00026186	769.63	9.8492e-06	1.0567e-05	716.66	318.88	1.025e-05	1.0325e-05	323.37	151.42	126.62	61.923	1.0378e-05	70.763	154.703	195.900	210.933	153.291	270.727	284.366	151.812	158.389	255.710	304.398	155.738	158.762	162.601	165.805	271.709	162.486	-8191	255	
2715.143	1	1	0	0	0.1515	0.14406	0.10583	0.088741	0.19172	0.070574	0.37715	0.10904	0.086334	0.30288	0.10214	0.10751	0.24274	0.21353	0.26721	0.22207	0.26042	-0.47708	-0.4875	0.095833	-0.81042	-0.075	-0.21458	-0.775	0.1625	-0.39375	-0.62292	0.039583	-0.78333	-0.31458	0.2	-1.0375	271.010	432.736	454.574	192.724	412.088	246.773	389.960	477.178	329.550	292.246	179.693	403.077	443.119	217.539	188.058	443.069	0.0011214	0.00096396	0.00024843	806.31	6.0697e-06	6.3352e-06	753.13	333.87	1.1219e-05	4.4399e-06	338.74	159.26	131.03	64.449	7.5141e-06	73.884	0.00094901	0.00094877	0.00026259	773	9.7684e-06	1.0362e-05	720.23	320.65	1.0087e-05	1.0546e-05	326.05	153.22	126.61	62.352	1.0294e-05	71.588	156.000	222.092	262.362	153.516	287.602	277.536	152.009	158.516	270.883	320.802	155.801	158.866	162.880	165.981	280.633	162.275	-8191	255	
2715.239	1	1	0	0	0.12519	0.14258	0.28058	0.090532	0.026452	0.10869	0.12887	0.23289	0.18853	0.17847	0.3627	0.32418	0.17562	0.35822	0.25388	0.1935	0.49167	-0.22083	-0.56458	0.14167	-0.49167	-0.072917	-0.0875	-0.73958	-0.072917	-0.18958	-0.71667	0.11458	-0.51875	-0.53958	0.066667	-0.78333	333.715	157.966	294.717	442.249	409.032	385.452	497.956	383.829	237.040	177.906	378.887	447.267	405.881	449.583	273.086	407.891	0.0011008	0.00087988	9.5421e-05	806.08	4.3676e-06	8.3138e-06	752.21	335.67	7.0642e-06	1.0201e-05	343.2	160.95	132.19	65.053	6.4173e-06	74.714	0.00098509	0.00098183	0.00026383	774.07	9.815e-06	1.0872e-05	723.01	322.88	1.0229e-05	1.0366e-05	328.54	154.64	127.85	63.026	1.0746e-05	72.298	156.110	214.382	225.254	153.110	255.173	306.859	152.018	158.126	267.729	306.515	155.839	158.737	162.611	165.903	260.236	162.309	-8191	255	
2715.335	1	1	0	0	0.10548	0.12188	0.18628	0.27182	0.14479	0.056712	0.015477	0.17548	0.064537	0.24637	0.17892	0.39838	0.12809	0.071112	0.09986	0.33285	0.225	-0.13542	-0.80417	0.28542	-0.43125	-0.45	0.070833	-0.87292	0.0125	0.01875	-0.91458	0.20208	-0.65	-0.75625	0.18958	-0.85	256.230	462.544	316.740	389.523	309.278	471.045	316.976	437.265	288.045	178.497	428.901	437.212	420.047	472.934	260.569	454.727	0.0010797	0.0005806	0.00020653	813.41	7.0517e-06	7.5828e-06	757.83	334.41	8.5072e-06	5.1515e-06	342.79	160.25	131.79	64.568	7.4728e-06	74.134	0.00097856	0.00095842	0.00026769	778.75	1.0185e-05	1.0776e-05	727.27	322.7	1.0342e-05	1.0506e-05	329.89	154.02	127.37	62.583	1.0214e-05	71.784	153.546	240.607	226.893	153.405	276.111	259.808	151.843	158.202	249.065	267.586	155.750	158.888	162.818	165.812	265.739	162.395	-8191	255	
2715.431	1	1	0	0	0.17306	0.20347	0.21727	0.10312	0.35884	0.14724	0.15769	0.42386	0.22262	0.16102	0.1068	0.23899	0.39226	0.14224	0.3158	0.082775	0.11042	0.10208	-0.63125	-0.14167	-0.50625	-0.59583	0.2375	-0.80417	-0.28333	-0.13333	-0.7375	-0.1625	-0.40417	-0.95417	0.2	-0.81875	295.745	259.259	159.957	194.113	431.167	340.924	421.069	432.135	244.309	434.434	248.057	422.291	466.951	150.471	387.164	448.497	0.001033	0.00077337	0.00019386	813.17	3.977e-06	4.0455e-06	757.92	335.35	7.7551e-06	5.5453e-06	338.73	159.98	131.6	64.506	6.3334e-06	74.036	0.00094036	0.00096505	0.00026415	778.03	9.9749e-06	1.0642e-05	723.57	321.76	1.0158e-05	1.04e-05	326.45	153.48	127.25	62.554	1.0432e-05	71.815	155.075	232.890	235.701	153.796	227.237	316.688	151.769	158.429	258.497	291.102	155.744	158.556	162.884	166.044	269.037	162.514	-8191	255	
2715.527	1	1	0	0	0.099652	0.24564	0.11088	0.31788	0.1489	0.24016	0.1861	0.19714	0.38078	0.14363	0.20993	0.21981	0.33125	0.13387	0.13184	0.18663	0.11667	0.21042	-0.85	-0.22708	-0.29167	-0.55417	-0.0375	-0.79792	-0.37708	0.24792	-0.87917	-0.16042	-0.16042	-0.91458	0.0375	-0.40208	361.579	411.159	284.150	455.564	317.283	425.605	379.036	426.764	352.291	181.915	428.511	370.805	497.992	377.853	321.106	461.912	0.0010971	0.00054761	0.00019155	811.82	4.9908e-06	5.0566e-06	760.53	334.9	7.7396e-06	8.8996e-06	340.11	159.46	132.56	64.723	7.2541e-06	74.381	0.00094032	0.00095842	0.00025977	777.21	1.0074e-05	1.0385e-05	726.04	321.71	1.03e-05	1.0538e-05	327.49	153.76	127.61	62.599	1.0299e-05	72.112	155.109	232.117	266.825	153.818	274.381	268.351	151.815	158.053	284.436	272.837	155.860	158.921	162.953	165.870	255.188	162.609	-8191	255	
2715.624	1	1	0	0	0.16371	0.12351	0.17151	0.21886	0.10454	0.20566	0.14582	0.13602	0.13517	0.17555	0.17137	0.23559	0.29997	0.05098	0.11922	0.2872	-0.1125	0.17708	-0.61458	-0.0083333	-0.10208	-0.81458	0.066667	-0.57292	-0.4875	0.28333	-0.92917	-0.21458	-0.15417	-0.99583	0.40833	-0.525	353.566	280.042	236.758	453.000	251.223	339.092	199.384	143.121	489.863	187.008	396.510	471.165	407.179	450.694	331.649	405.202	0.0011218	0.00042458	0.00021597	813.37	2.0983e-06	6.2632e-06	760.45	336.61	6.0185e-06	7.9184e-06	344.8	161.56	132.82	64.729	3.2176e-06	74.456	0.00096755	0.00094314	0.00026084	777.72	1.0009e-05	1.0159e-05	727.67	323.4	1.0287e-05	1.0441e-05	330.58	154.97	128.18	62.835	1.0696e-05	72.199	151.960	223.857	225.603	153.676	265.721	296.257	151.935	158.448	256.423	302.802	155.923	158.970	163.086	165.976	275.915	162.660	-8191	255	
2715.720	1	1	0	0	0.081383	0.1886	0.10883	0.18204	0.095903	0.33619	0.068903	0.23465	0.14468	0.012603	0.48552	0.2078	0.2415	0.37225	0.038269	0.10833	-0.08125	0.37917	-0.48542	-0.1625	0.17292	-0.81667	0.13542	-0.4	-0.55208	0.30833	-0.68958	-0.42083	-0.039583	-0.85208	-0.16667	-0.14792	249.165	243.434	314.309	402.125	441.711	227.694	394.164	437.288	310.065	145.815	449.491	406.157	419.111	411.680	306.076	304.656	0.0011704	0.00076986	0.0002346	813.98	5.1254e-06	4.8917e-06	758.59	336.26	5.8049e-06	4.285e-06	340.37	158.55	131.32	64.279	4.9746e-06	73.864	0.0009724	0.00097946	0.00026769	780	9.7901e-06	1.0534e-05	728.53	322.57	1.0357e-05	1.0473e-05	327.91	152.76	126.84	62.291	1.0403e-05	71.492	153.987	217.527	229.026	153.359	328.540	246.927	151.809	158.467	233.947	257.713	156.005	158.808	162.906	165.933	281.354	162.761	-8191	255	
2715.840	1	1	0	0	0.2648	0.28809	0.078434	0.20102	0.04536	0.23281	0.12917	0.16183	0.020882	0.080008	0.29897	0.21596	0.11677	0.14199	0.12338	0.06508	-0.22292	0.25625	-0.4375	-0.42292	0.14583	-0.82708	-0.18125	-0.22708	-0.71875	0.29167	-0.52292	-0.7375	0.20208	-0.94792	-0.19792	-0.12917	166.123	321.700	408.034	462.414	264.471	454.448	436.189	407.008	373.989	409.165	483.555	483.388	269.271	461.443	296.259	446.554	0.0010297	0.00068136	0.00014038	807.25	4.0391e-06	5.0778e-06	754.57	333.22	4.894e-06	4.6538e-06	339.35	160.01	132.14	64.818	3.018e-06	74.083	0.00094639	0.00095972	0.00026684	776.32	9.7958e-06	1.0335e-05	723.63	320.12	1.0072e-05	1.0386e-05	325.34	153.14	127.28	62.609	1.0165e-05	71.803	153.037	259.800	227.208	153.568	275.284	295.282	151.623	158.327	264.415	310.429	156.034	159.080	163.053	166.031	303.460	162.649	-8191	255	
2715.936	1	1	0	0	0.17523	0.084954	0.11871	0.44852	0.32008	0.30638	0.14072	0.25446	0.21186	0.16278	0.45604	0.16667	0.059563	0.080615	0.15672	0.21264	-0.32708	0.23333	-0.32917	-0.6	0.26042	-0.59375	-0.091667	-0.13333	-0.75208	0.1625	-0.40625	-0.60208	0.20208	-0.79583	-0.43333	-0.14792	465.554	451.110	326.602	162.982	168.585	392.551	142.439	434.137	442.507	430.344	166.837	371.983	212.027	415.126	271.753	422.148	0.0011231	0.00066841	0.0002996	807.91	6.7833e-06	5.7499e-06	759.64	334.76	3.8794e-06	8.5587e-06	341.73	161.15	131.97	65.064	4.732e-06	75.135	0.00095652	0.00095983	0.00026734	776.62	9.9743e-06	1.016e-05	725.58	322.42	9.7774e-06	1.0524e-05	327.47	154.22	127.68	63.013	1.0503e-05	72.461	152.135	196.581	207.553	153.694	286.436	269.809	152.055	158.557	260.303	277.355	156.402	159.242	163.319	166.007	262.838	163.009	-8191	255	
2716.033	1	1	0	0	0.10864	0.3019	0.20203	0.18028	0.13699	0.2506	0.28095	0.32059	0.18601	0.36351	0.1842	0.22727	0.18763	0.1468	0.1899	0.10565	-0.525	0.29375	-0.31667	-0.62292	0.18333	-0.72917	-0.60208	0.0020833	-0.81042	-0.089583	-0.29375	-0.68542	0.13333	-0.63333	-0.38958	0.089583	359.374	148.058	200.786	161.737	152.113	178.087	406.083	453.877	440.016	421.437	293.026	465.180	469.814	427.358	499.709	203.794	0.001129	0.0010871	0.00019658	819.49	2.0413e-06	4.1996e-06	764.47	337.61	7.6421e-06	4.3512e-06	346.14	161.3	132.4	65.666	5.9626e-06	75.668	0.00096844	0.00095719	0.0002653	782.45	9.9328e-06	1.0477e-05	732.21	324.99	1.0117e-05	1.0575e-05	331.69	155.5	128.29	63.597	1.0717e-05	73.032	157.172	226.957	198.987	154.047	263.188	307.002	152.218	158.790	276.260	276.744	156.456	159.000	163.015	166.488	272.462	162.957	-8191	255	
2716.129	1	1	0	0	0.19816	0.14949	0.10633	0.27122	0.040898	0.064456	0.14814	0.29849	0.091812	0.34997	0.27325	0.11568	0.047079	0.36708	0.35618	0.36365	-0.4625	-0.039583	-0.23333	-0.90208	0.29167	-0.49167	-0.42708	0.0041667	-0.60208	-0.17083	-0.016667	-0.7375	0.020833	-0.60625	-0.29792	0.0083333	339.176	210.355	146.653	433.660	212.201	403.297	358.368	422.827	272.231	461.202	170.685	225.468	143.039	149.203	385.141	399.138	0.0010606	0.00031933	0.00029947	819.15	7.7094e-06	8.6841e-06	761.2	339.04	9.158e-06	6.4144e-06	345.28	161.81	132.21	65.007	7.8831e-06	74.362	0.00095883	0.00096867	0.00027055	782.93	1.0162e-05	1.057e-05	732.54	325.15	1.0412e-05	1.0706e-05	330.12	154.91	127.83	63.196	1.0505e-05	72.18	155.392	197.651	209.203	153.693	273.457	276.096	151.946	158.506	264.814	299.132	156.030	158.997	162.903	166.522	254.678	162.852	-8191	255	
2716.225	1	1	0	0	0.12829	0.28962	0.082601	0.12113	0.082355	0.079677	0.20921	0.32722	0.12943	0.29661	0.13585	0.11768	0.049053	0.28724	0.18258	0.058664	-0.3375	-0.0625	0.1	-0.78125	0.20833	-0.52917	-0.70417	-0.035417	-0.57292	-0.18125	0.095833	-0.87917	-0.066667	-0.525	-0.69375	0.064583	266.286	279.457	335.971	191.444	495.705	421.056	460.564	483.367	430.193	322.234	467.779	484.545	243.393	144.634	373.556	333.252	0.001112	0.00049375	0.00014161	814.14	6.6024e-06	1.9644e-06	757.04	335.77	6.8936e-06	4.5161e-06	341.94	160.31	132.33	65.561	8.1225e-06	74.785	0.00097114	0.00094069	0.00026947	780.15	9.9837e-06	1.035e-05	726.68	322.52	1.008e-05	1.0626e-05	328.34	154.35	127.91	63.239	1.0498e-05	72.31	151.552	205.391	249.728	154.090	279.565	304.194	152.103	158.638	243.073	294.983	156.108	159.398	163.044	166.432	283.448	162.983	-8191	255	
2716.321	1	1	0	0	0.20439	0.17708	0.2943	0.19034	0.14442	0.17818	0.14393	0.08617	0.18175	0.065215	0.15175	0.33302	0.3859	0.14103	0.12245	0.16263	-0.23333	-0.29583	0.11875	-0.94375	0.045833	-0.32917	-0.77917	0.12917	-0.52292	-0.42083	-0.0041667	-0.90625	-0.15625	-0.38542	-0.82083	0.0875	478.118	402.574	298.399	196.834	426.162	224.651	394.159	447.579	409.128	257.054	216.791	472.175	185.570	450.936	487.572	427.128	0.0011125	0.00067063	0.00018443	818.22	7.1665e-06	3.0978e-06	766.89	339.13	9.8458e-06	7.1077e-06	344.46	162.37	132.44	65.44	9.622e-06	75.296	0.00096575	0.00095793	0.00026385	781.48	1.0264e-05	1.0534e-05	731.1	324.05	1.0182e-05	1.0505e-05	329.45	155.12	128.23	63.469	1.0217e-05	72.799	156.855	217.640	232.290	153.912	292.122	325.799	151.999	158.661	283.103	300.556	156.210	159.176	162.749	166.168	255.855	162.872	-8191	255	
2716.440	1	1	0	0	0.20593	0.15993	0.074482	0.088758	0.16096	0.12541	0.27684	0.15196	0.10848	0.11962	0.21257	0.16812	0.13761	0.26149	0.28277	0.29672	-0.10833	-0.45833	0.13333	-0.76042	-0.225	-0.13958	-0.81667	0.0625	-0.48333	-0.36458	0.13125	-0.83125	-0.32292	-0.079167	-0.85625	-0.14375	167.105	453.610	290.557	438.337	426.243	498.299	444.675	413.536	288.769	140.853	428.097	432.949	381.616	145.325	443.279	456.967	0.0011865	0.00063133	0.00017702	818.27	5.0079e-06	4.9625e-06	767.93	338.3	7.8203e-06	5.0511e-06	344.37	162.79	133.17	65.715	8.3303e-06	75.476	0.00096848	0.00095717	0.00026958	784.6	1.0129e-05	1.0677e-05	735.05	325.67	1.0195e-05	1.0572e-05	332.34	156.25	128.92	63.655	1.0171e-05	73.111	154.740	214.587	218.957	153.708	298.540	272.720	152.153	158.781	250.645	304.427	156.130	159.212	163.280	166.313	286.623	163.170	-8191	255	
2716.536	1	1	0	0	0.05001	0.2983	0.053837	0.21659	0.20088	0.19058	0.10598	0.19395	0.11869	0.10646	0.09309	0.24925	0.18278	0.31322	0.061276	0.3334	-0.16875	-0.64792	0.33333	-0.92083	-0.27708	0.029167	-0.97708	-0.089583	-0.20625	-0.69167	0.14583	-0.84375	-0.50417	0.072917	-0.65417	-0.28542	316.954	223.295	346.079	166.932	413.238	489.633	463.454	234.588	280.558	181.269	470.915	381.465	484.710	415.980	379.734	453.230	0.0011168	0.00048353	7.0458e-05	826.77	7.0083e-06	7.5526e-06	771.41	339.62	6.2242e-06	7.2605e-06	343.83	162.44	132.85	65.324	8.0998e-06	74.896	0.00096621	0.00097391	0.00027	788.85	1.0244e-05	1.0529e-05	735.11	325.87	1.015e-05	1.0645e-05	330.43	155.21	128.22	63.201	1.027e-05	72.397	156.402	239.255	197.841	153.960	289.835	303.738	152.126	158.421	267.620	309.597	156.361	159.275	163.356	166.613	280.782	162.620	-8191	255	
2716.632	1	1	0	0	0.32716	0.16375	0.066182	0.28216	0.14942	0.079484	0.44976	0.31913	0.1304	0.21589	0.13784	0.052397	0.28569	0.097278	0.089849	0.2115	0.35417	-0.46667	0.2625	-0.44792	-0.36667	0.23333	-0.84167	-0.10208	-0.0083333	-0.75208	0.014583	-0.62083	-0.41667	-0.0041667	-0.7875	-0.39583	195.964	337.221	237.254	444.490	252.398	198.766	412.220	373.116	266.706	498.061	335.942	360.509	456.730	425.221	340.059	429.372	0.0010866	0.00044213	9.8421e-05	816.64	3.8597e-06	6.9919e-06	763.52	337.96	8.823e-06	5.1352e-06	342.35	161.45	132.86	65.553	3.2653e-06	74.73	0.00096809	0.00091907	0.00026084	782.67	1.0025e-05	1.067e-05	730.48	324.05	1.0229e-05	1.0462e-05	328.79	155.02	128.47	63.389	1.0316e-05	72.37	156.817	223.338	207.401	153.813	267.216	273.689	151.752	158.415	265.863	293.812	156.013	158.773	162.716	166.096	282.317	162.690	-8191	255	
2716.728	1	1	0	0	0.13271	0.063911	0.16177	0.30826	0.12545	0.24607	0.10537	0.33026	0.31173	0.12927	0.17323	0.30124	0.25485	0.24674	0.11824	0.20291	0.40208	-0.65417	0.11875	-0.33958	-0.44167	0.14792	-0.67292	-0.43333	0.014583	-0.66667	-0.15417	-0.44167	-0.68958	0.022917	-0.68333	-0.26667	470.229	388.856	255.446	438.713	147.275	382.240	373.730	376.573	329.320	445.214	406.223	413.827	143.863	495.195	146.061	492.607	0.001185	0.00088314	0.00023053	820.86	6.2075e-06	4.7148e-06	767.15	338.11	7.1434e-06	4.0491e-06	341.83	161.18	133.46	65.207	8.9206e-06	75.037	0.00097439	0.00092971	0.00026482	783.36	9.9362e-06	1.0459e-05	731.02	324.56	1.0013e-05	1.0222e-05	328.88	154.97	128.64	63.308	1.042e-05	72.448	154.513	221.712	220.455	153.244	289.448	322.697	151.609	158.327	283.671	249.325	155.646	158.687	162.856	166.038	286.008	162.466	-8191	255	
2716.825	1	1	0	0	0.04139	0.24965	0.1012	0.16682	0.15736	0.02235	0.10678	0.35763	0.19485	0.21466	0.33159	0.20353	0.24204	0.10647	0.22305	0.10938	0.51458	-0.575	0.17708	-0.275	-0.42708	0.275	-0.75833	-0.69375	0.11458	-0.8	-0.020833	-0.06875	-0.77708	0.19167	-0.31875	-0.40208	394.029	406.834	425.182	488.110	301.676	254.915	492.176	416.968	149.161	459.902	460.378	168.628	467.683	397.267	249.036	341.373	0.0010807	0.00040207	0.00015535	821.7	7.6666e-06	7.8946e-06	765.62	339.23	4.5608e-06	7.1405e-06	343.94	161.8	132.84	65.01	9.6702e-06	74.569	0.00097885	0.00095374	0.00027008	786.37	1.0002e-05	1.0562e-05	733.9	325.85	1.0336e-05	1.0586e-05	330.97	155.35	128.3	63.044	1.0642e-05	72.204	153.084	224.366	245.854	153.478	273.123	292.302	152.092	158.328	268.180	295.601	155.817	158.782	162.704	166.250	285.757	162.435	-8191	255	
2716.921	1	1	0	0	0.049921	0.30931	0.10484	0.20992	0.13257	0.11745	0.052244	0.10683	0.094742	0.23134	0.30369	0.24348	0.38653	0.20333	0.28478	0.18166	0.52917	-0.84792	-0.2125	-0.15833	-0.84167	0.20625	-0.58333	-0.57917	0.072917	-0.71458	-0.32292	-0.05	-0.9	-0.15625	-0.34375	-0.69583	160.026	276.987	170.109	352.163	475.013	140.920	145.208	191.308	436.172	494.839	152.068	499.573	490.023	450.164	258.231	251.179	0.0010625	0.00065486	0.0002396	818.92	5.6996e-06	6.379e-06	767.52	336.66	5.7699e-06	8.5462e-06	341.52	160.86	132.79	65.013	7.3721e-06	74.081	0.00096459	0.00094338	0.00027415	785.02	9.9193e-06	1.0583e-05	734.52	324.41	1.0203e-05	1.0757e-05	327.88	154.28	128.25	63.084	1.0305e-05	71.768	158.825	225.952	222.121	153.743	298.472	298.306	151.992	158.159	270.575	304.002	156.056	158.535	162.890	166.015	284.522	162.569	-8191	255	
2717.017	1	1	0	0	0.1727	0.017064	0.029149	0.097542	0.066842	0.1466	0.17645	0.10885	0.091346	0.19162	0.0093264	0.21679	0.23894	0.24155	0.35541	0.17255	0.54792	-0.5125	-0.022917	-0.039583	-0.89583	0.0375	-0.39583	-0.6875	0.23333	-0.62917	-0.42292	-0.1375	-0.78125	-0.24792	-0.41042	-0.93333	300.410	325.514	472.707	364.650	483.877	200.241	472.810	223.559	409.183	302.175	257.882	471.985	153.135	387.417	194.303	403.181	0.0011181	0.00069437	0.00021217	817.13	7.44e-06	6.7247e-06	761.94	337.29	6.9769e-06	8.5661e-06	339.49	159.86	131.74	64.456	7.8596e-06	73.706	0.00095108	0.00099007	0.0002681	781.31	1.0114e-05	1.0491e-05	725.81	323.38	1.0264e-05	1.0669e-05	325.47	153.65	127.76	62.626	1.0428e-05	71.262	158.048	230.042	228.421	153.582	287.000	279.794	151.806	158.323	264.268	296.125	155.801	158.944	162.684	165.818	236.446	162.277	-8191	255	
2717.136	1	1	0	0	0.19615	0.12058	0.040982	0.21228	0.19465	0.072032	0.27686	0.16014	0.28853	0.19111	0.20149	0.20446	0.1994	0.20063	0.13728	0.18322	0.69375	-0.4875	-0.52083	0.035417	-0.69792	-0.12292	-0.37917	-0.8125	0.27292	-0.63542	-0.60625	0.23333	-1.0167	-0.22708	-0.13958	-0.9875	273.759	322.945	457.265	464.740	463.753	372.127	472.027	152.601	199.747	338.254	200.255	147.120	166.019	468.701	177.212	353.691	0.0010645	0.00055318	0.00012412	815.98	6.8166e-06	3.9146e-06	755.89	336.46	6.9106e-06	5.7181e-06	338.34	159.83	132.12	64.977	6.6132e-06	74.248	0.00095482	0.00094885	0.00026888	780.12	1.0013e-05	1.0754e-05	726.25	322.49	1.0143e-05	1.058e-05	326.13	153.59	127.5	62.793	1.05e-05	71.73	152.568	211.552	214.862	153.461	280.995	253.054	152.127	158.128	279.121	274.602	155.845	159.321	162.725	165.762	272.030	162.598	-8191	255	
2717.232	1	1	0	0	0.31482	0.23117	0.27912	0.12022	0.047841	0.15935	0.16423	0.26274	0.3955	0.11994	0.10062	0.30497	0.18	0.24143	0.034292	0.17344	0.58958	-0.38125	-0.37708	0.25208	-0.36042	-0.32708	-0.35417	-0.70208	0.08125	-0.41042	-0.70833	0.058333	-0.63542	-0.35625	0.085417	-0.92708	383.144	332.063	226.032	481.460	209.019	155.777	459.660	437.199	228.433	420.525	163.962	451.013	154.708	162.209	369.574	487.830	0.0010791	0.00070307	0.00014798	816.87	4.1193e-06	3.5986e-06	765.19	335.99	4.0346e-06	8.7014e-06	341.32	160.43	131.76	64.717	1.1318e-05	74.333	0.00096118	0.00094208	0.00026101	781.02	1.0078e-05	1.0477e-05	729.08	322.67	1.0526e-05	1.0599e-05	327.82	154.08	127.69	62.841	1.0701e-05	71.946	156.210	237.911	218.327	153.490	235.634	290.328	152.027	158.306	275.369	306.987	155.973	158.908	162.793	166.022	281.669	162.415	-8191	255	
2717.305	1	1	0	0	0.19177	0.25695	0.2063	0.057006	0.16136	0.14585	0.1298	0.1003	0.28708	0.084353	0.24516	0.1599	0.2281	0.1151	0.20905	0.28094	0.28125	-0.175	-0.65	0.010417	-0.46042	-0.41458	-0.020833	-0.75208	0.075	-0.091667	-0.93333	-0.016667	-0.61458	-0.43333	0.26667	-0.86667	397.097	326.191	484.556	298.255	158.724	200.438	393.278	410.158	407.011	172.104	410.513	361.807	174.809	378.359	297.394	442.717	0.0010963	0.00070837	0.00013276	813.7	9.3423e-06	5.8417e-06	757.09	335.32	5.1538e-06	5.1054e-06	341.2	158.94	131.92	64.433	9.3753e-06	73.983	0.00098034	0.00095475	0.00025941	779.12	1.0005e-05	1.0432e-05	726.28	321.79	1.0341e-05	1.0397e-05	325.3	152.87	127.28	62.658	1.0445e-05	71.478	151.729	220.144	231.310	153.395	283.128	319.412	152.006	158.249	239.227	285.547	156.040	159.326	162.641	165.919	294.140	162.512	-8191	255	
2717.401	1	1	0	0	0.3489	0.146	0.23176	0.29408	0.1656	0.23087	0.087527	0.072192	0.13212	0.17277	0.30047	0.1283	0.11138	0.33502	0.031873	0.039284	0.475	-0.09375	-0.68542	0.0375	-0.48125	-0.41875	0.041667	-0.84167	-0.066667	0.027083	-0.56042	0.23125	-0.525	-0.625	0.19375	-0.9	353.593	373.535	408.474	203.811	462.479	300.004	427.056	409.448	379.785	348.917	493.970	159.518	264.410	382.816	146.070	186.542	0.0011432	0.00039035	0.00011781	814.39	3.1742e-06	8.2353e-06	755.92	335.07	8.5741e-06	3.1123e-06	340.59	159.43	132.12	64.809	8.7483e-06	74.164	0.00097623	0.00094588	0.00026136	776.65	9.6969e-06	1.0428e-05	724.28	322.21	1.0318e-05	1.0258e-05	325.35	153.33	127.62	62.87	1.0526e-05	71.723	152.104	246.160	198.328	153.381	279.073	287.965	151.853	158.382	264.040	294.230	155.883	158.872	163.029	166.016	274.877	162.603	-8191	255	
2717.520	1	1	0	0	0.09896	0.19839	0.094032	0.070577	0.27068	0.033911	0.37047	0.26391	0.10734	0.12461	0.19693	0.11017	0.19856	0.1654	0.16118	0.094138	0.4125	0.025	-0.81042	-0.00625	-0.39167	-0.55208	0.22708	-0.52083	-0.2	0.0875	-0.75	-0.08125	-0.15208	-0.69167	0.31875	-0.80208	201.085	312.596	144.991	462.380	201.520	473.609	441.460	420.922	457.550	394.033	415.552	432.451	488.145	467.169	256.882	398.302	0.0010909	0.00057747	0.00010483	816.08	6.197e-06	7.1275e-06	759.44	338.17	6.7307e-06	5.71e-06	340.18	161.99	133.46	65.09	3.9468e-06	74.635	0.00095497	0.00095872	0.00026057	780.68	1.0057e-05	1.0576e-05	728.32	324.92	1.0334e-05	1.0537e-05	327.71	154.9	128.48	63.372	1.0394e-05	72.551	154.048	215.246	245.392	153.728	289.040	295.010	151.998	158.365	258.287	299.552	155.761	158.825	162.787	165.858	313.656	162.564	-8191	255	
2717.616	1	1	0	0	0.27573	0.13736	0.15013	0.41866	0.15607	0.10557	0.25463	0.16558	0.074515	0.019607	0.34475	0.14975	0.076551	0.17646	0.18909	0.30873	0.039583	0.18333	-0.59792	0.072917	-0.2625	-0.70625	-0.11042	-0.68542	-0.17292	0.1125	-0.86042	-0.26458	-0.1625	-0.99792	0.070833	-0.69583	146.300	436.296	233.777	163.205	321.750	267.736	414.669	423.102	269.628	379.340	471.294	452.605	407.129	178.473	150.693	405.754	0.0010618	0.00079711	0.00016843	820.06	6.6241e-06	8.2788e-06	764.08	338.57	8.0713e-06	4.3512e-06	345.85	162.1	133.45	65.956	6.4836e-06	75.255	0.00096581	0.00096856	0.00027485	784.12	9.8509e-06	1.0437e-05	733.69	326.11	1.0415e-05	1.0615e-05	331.85	155.9	129.05	63.821	1.0572e-05	72.854	152.862	223.401	197.446	153.677	297.879	298.709	151.941	158.280	292.658	275.013	156.070	158.918	162.913	166.107	265.697	162.700	-8191	255	
2717.713	1	1	0	0	0.11645	0.18469	0.28401	0.1618	0.35613	0.091995	0.019563	0.31333	0.16337	0.1664	0.18608	0.25458	0.12579	0.11778	0.16544	0.55408	-0.15417	0.35208	-0.55625	-0.23958	-0.18125	-0.72083	0.0083333	-0.43958	-0.55833	0.3	-0.69167	-0.24792	-0.175	-0.66458	0.17708	-0.525	148.222	470.484	490.171	449.982	316.964	448.263	181.295	424.735	425.768	373.316	166.326	451.376	437.401	146.336	494.382	443.596	0.0011075	0.00085829	0.00019551	818.58	9.3797e-06	5.4423e-06	766.36	337.14	6.8176e-06	4.7614e-06	344.16	160.15	133.21	65.553	5.9172e-06	74.578	0.00096959	0.00094074	0.00026878	783.78	1.0389e-05	1.0814e-05	732.12	324.6	1.0003e-05	1.0503e-05	328.77	154.31	128.38	63.389	1.0446e-05	72.067	157.558	223.572	228.731	153.443	267.970	275.090	152.103	158.480	268.105	250.543	155.853	158.936	162.598	165.948	271.322	162.790	-8191	255	
2717.833	1	1	0	0	0.10654	0.09172	0.12295	0.15385	0.11621	0.19539	0.16612	0.083941	0.077849	0.31229	0.21615	0.11047	0.13465	0.11128	0.16359	0.07771	-0.16042	0.28542	-0.68542	-0.4	0.1375	-0.8	-0.016667	-0.375	-0.46458	0.32708	-0.76042	-0.3375	0.1875	-0.87708	0.18542	-0.13125	197.686	399.698	192.808	472.116	361.491	379.695	498.956	446.629	163.030	264.288	371.203	460.110	390.625	149.446	470.506	425.105	0.0010593	0.00055719	0.00023185	812.68	6.622e-06	4.3311e-06	761.88	337.44	6.3873e-06	4.2456e-06	340.74	160.96	133.42	65.929	8.1009e-06	75.106	0.00096042	0.00096464	0.00026328	780.33	1.0084e-05	1.0376e-05	727.99	324.8	1.0022e-05	1.0436e-05	328.27	154.61	128.88	63.817	1.0646e-05	72.57	156.950	218.163	243.605	153.503	295.293	329.982	152.162	158.553	269.910	294.177	156.097	158.589	162.717	165.763	277.590	162.836	-8191	255	
2717.929	1	1	0	0	0.20917	0.26942	0.1258	0.31785	0.26672	0.18484	0.27449	0.1183	0.054545	0.15149	0.14335	0.33161	0.13836	0.25496	0.20918	0.066767	-0.21875	0.175	-0.44583	-0.45833	0.2625	-0.63542	-0.21667	-0.4375	-0.68333	0.020833	-0.41667	-0.75208	0.04375	-0.94375	-0.064583	-0.12083	210.956	438.439	399.255	427.671	347.337	326.253	362.286	234.277	270.929	339.111	405.752	181.551	484.310	472.511	377.479	203.308	0.0011307	0.0004659	0.00017602	820.23	6.3594e-06	7.5454e-06	764.99	340.42	9.2133e-06	4.3432e-06	345.82	161.63	134.16	65.907	1.0104e-05	75.868	0.0009747	0.00096481	0.00026816	781.9	1.013e-05	1.0435e-05	733.58	326.15	1.024e-05	1.0561e-05	331.04	155.37	129.08	63.928	1.0723e-05	73.169	156.142	237.207	218.702	153.586	284.951	275.199	151.772	158.600	253.255	294.828	155.687	158.711	162.768	165.970	268.647	162.371	-8191	255	
2718.001	1	1	0	0	0.20147	0.17491	0.24968	0.26655	0.16077	0.095438	0.1563	0.15927	0.22056	0.32206	0.21886	0.23341	0.29146	0.27293	0.1818	0.28812	-0.51042	0.32083	-0.37708	-0.50625	0.20417	-0.64375	-0.11042	-0.15625	-0.70625	0.0625	-0.35	-0.73958	0.058333	-0.73333	-0.46042	-0.058333	301.611	288.042	192.580	207.977	187.628	452.618	437.021	441.273	331.184	333.962	487.665	207.484	363.622	157.189	461.143	164.062	0.0011261	0.0006682	0.00023454	821.96	4.9248e-06	6.8781e-06	773.54	340.26	9.5732e-06	6.4784e-06	346.75	162.87	133.14	65.778	3.6562e-06	75.472	0.00097526	0.00096793	0.00026877	786.53	1.0335e-05	1.0858e-05	737.52	327.56	1.0335e-05	1.0603e-05	332.79	156.29	129.22	64.006	1.0626e-05	72.857	154.679	200.125	217.974	153.590	263.813	287.214	151.812	158.325	254.574	267.210	156.068	158.439	162.947	166.105	293.651	162.683	-8191	255	
2718.122	1	1	0	0	0.021426	0.18203	0.049183	0.3598	0.20532	0.068082	0.14368	0.3261	0.10335	0.26034	0.33684	0.08298	0.050405	0.32185	0.15292	0.32877	-0.072917	0.35417	-0.075	-0.69167	0.225	-0.40625	-0.25208	-0.15625	-0.725	0.05	-0.22708	-0.74167	0.085417	-0.525	-0.38542	0.18125	295.329	141.498	471.078	169.229	348.542	401.691	465.479	491.910	197.462	489.428	401.333	479.546	428.711	445.145	336.255	434.492	0.0011195	0.00060104	0.00013525	819.52	8.4204e-06	7.2939e-06	767.1	339.23	8.7077e-06	7.1405e-06	343.63	160.28	133.42	65.718	8.2479e-06	74.526	0.00097249	0.00098465	0.00027062	784.71	1.0132e-05	1.0652e-05	731.76	326	1.0278e-05	1.0807e-05	329.04	154.48	128.78	63.649	1.0419e-05	72.198	155.958	217.664	194.167	153.412	273.137	278.517	151.961	158.569	272.922	286.579	155.999	158.807	162.729	165.866	261.560	162.475	-8191	255	
2718.216	1	1	0	0	0.19646	0.087584	0.17529	0.15735	0.24228	0.043076	0.22579	0.34298	0.07572	0.12593	0.41113	0.16914	0.17589	0.10024	0.27538	0.25092	-0.42708	0.05	0.01875	-0.79375	0.17292	-0.55208	-0.5875	0.10833	-0.6125	-0.0875	-0.089583	-0.95208	0.25	-0.525	-0.42917	0.09375	360.119	169.599	497.701	477.416	477.965	301.845	471.898	427.692	449.158	472.594	351.866	224.467	497.614	467.895	463.992	441.188	0.0011159	0.0006666	0.00025778	817.64	6.2416e-06	5.2313e-06	766.34	340.38	3.3339e-06	6.9728e-06	343.76	160.83	133.04	65.857	6.4463e-06	74.78	0.00096662	0.000979	0.00026579	783.81	9.9489e-06	1.0536e-05	733.02	326.22	1.0055e-05	1.0371e-05	329.4	155	128.99	63.929	1.0413e-05	72.54	156.182	231.787	255.163	153.369	253.631	336.586	152.125	158.608	279.064	296.985	155.806	158.668	162.714	165.971	275.910	162.882	-8191	255	
2718.312	1	1	0	0	0.21101	0.094867	0.13484	0.16332	0.17548	0.2767	0.14554	0.22587	0.42296	0.2269	0.073311	0.062419	0.14367	0.27189	0.091681	0.14746	-0.12292	-0.1	0.022917	-0.80833	0.18125	-0.45833	-0.6375	0.19375	-0.79583	-0.29375	-0.027083	-0.925	-0.00625	-0.48542	-0.5875	0.13542	413.901	360.880	236.418	353.988	413.860	273.507	149.107	380.319	283.106	193.106	338.052	494.941	225.584	150.309	205.419	331.946	0.0011038	0.00040244	6.5218e-05	818.79	3.5939e-06	7.5441e-06	767.54	340.78	6.8086e-06	4.2832e-06	345.35	162.93	134.11	66.359	9.9141e-06	75.72	0.00098701	0.00096674	0.00026565	784.72	1.0276e-05	1.0695e-05	735.31	327.82	1.0079e-05	1.0465e-05	331.27	156.41	129.91	64.351	1.0386e-05	73.136	155.341	244.824	225.858	153.595	301.525	294.240	152.146	158.470	262.267	261.326	156.192	158.954	163.259	166.114	265.062	162.671	-8191	255	
2718.433	1	1	0	0	0.21377	0.10136	0.10185	0.18198	0.18359	0.10725	0.28022	0.13228	0.01707	0.071351	0.14945	0.24602	0.2615	0.041942	0.069917	0.13373	-0.12708	-0.35833	0.275	-0.79583	-0.13958	-0.15417	-0.79792	0.054167	-0.69583	-0.55208	0.1125	-0.81667	-0.12917	-0.17083	-0.69375	-0.1	375.594	321.600	236.507	148.892	274.223	200.184	344.351	456.635	393.727	322.371	389.774	365.931	476.190	474.060	402.069	494.157	0.0010931	0.00059389	0.00011416	821.99	4.667e-06	6.2331e-06	770.83	342.38	6.0234e-06	8.4332e-06	346	163.15	135.51	66.258	5.8376e-06	75.297	0.00095778	0.00097285	0.00026885	788.3	1.0192e-05	1.0494e-05	738.16	329.07	1.0195e-05	1.0261e-05	332.79	156.75	130.08	64.037	1.058e-05	72.838	153.624	212.587	255.253	153.660	304.794	327.267	151.977	158.557	301.569	293.850	156.040	159.275	162.802	166.077	266.729	162.643	-8191	255	
2718.529	1	1	0	0	0.29643	0.15902	0.13576	0.037932	0.050363	0.2528	0.1798	0.19884	0.10035	0.24877	0.15716	0.23099	0.30741	0.40901	0.12501	0.19831	-0.19792	-0.51042	0.15625	-0.89792	-0.23542	-0.05	-0.95208	0.01875	-0.29375	-0.5625	0.095833	-0.7375	-0.14167	-0.10208	-0.91042	0.10208	495.816	432.487	447.882	194.579	471.493	284.497	451.466	410.587	482.324	175.454	495.026	424.455	417.996	469.344	328.116	500.008	0.0011046	0.00058304	0.00012772	818.38	6.4982e-06	9.0955e-06	767.34	340.17	7.8219e-06	7.472e-06	342.88	160.84	133.48	65.841	8.4956e-06	74.913	0.00098397	0.00096271	0.00027435	786.02	1.0497e-05	1.0667e-05	733.38	326.84	1.0372e-05	1.0396e-05	328.52	154.9	128.94	63.904	1.041e-05	72.506	154.321	246.959	223.736	153.824	258.034	288.266	151.918	158.385	285.764	292.191	155.712	159.110	163.103	166.234	288.038	162.563	-8191	255	
2718.601	1	1	0	0	0.19984	0.25267	0.13059	0.3129	0.16461	0.11436	0.37332	0.32403	0.17205	0.19675	0.22875	0.3931	0.36397	0.21024	0.13608	0.088165	-0.097917	-0.41875	0.041667	-0.56667	-0.39375	0.039583	-0.80833	-0.13333	-0.15208	-0.68542	0.045833	-0.60208	-0.40833	0.05625	-0.63542	-0.11667	274.454	396.644	221.205	418.531	216.398	471.666	475.559	455.371	163.972	231.101	476.392	430.848	489.852	299.346	192.972	482.338	0.001163	0.00099058	0.00010409	819.11	7.1792e-06	1.0093e-05	772.25	340.2	6.8847e-06	4.1516e-06	344	162.25	133.85	65.967	6.0418e-06	75.499	0.00097935	0.00097016	0.00027417	784.17	9.9549e-06	1.0741e-05	734.62	327.04	1.0436e-05	1.0459e-05	329.82	155.76	129.47	63.953	1.0339e-05	72.704	155.172	242.186	237.840	153.280	279.211	304.936	152.196	158.597	275.533	314.184	155.935	159.134	162.825	166.067	273.778	162.571	-8191	255	
2718.697	1	1	0	0	0.15257	0.057908	0.14418	0.19064	0.10468	0.26674	0.1938	0.18486	0.081135	0.057262	0.099373	0.33706	0.074398	0.038118	0.24836	0.16148	0.04375	-0.64792	0.16042	-0.57292	-0.39792	0.2875	-0.89167	-0.11458	0.0041667	-0.65	0.28125	-0.68125	-0.68125	-0.041667	-0.57708	-0.31458	152.641	476.791	410.114	483.737	361.535	368.074	482.489	449.162	421.910	178.812	402.692	426.280	317.214	336.553	378.837	142.032	0.0010963	0.0006734	0.00021449	819.08	4.5273e-06	9.7354e-06	773.45	343.26	7.0982e-06	5.3111e-06	346.78	164.02	135.16	66.835	5.6163e-06	75.789	0.00098307	0.00093612	0.00026672	785.93	9.9501e-06	1.063e-05	737.03	328.37	1.0456e-05	1.0566e-05	332.45	157.15	130.35	64.725	1.0709e-05	73.506	153.107	205.423	226.709	153.657	295.249	286.654	151.944	158.432	277.596	314.902	156.402	159.012	162.980	166.222	299.076	162.460	-8191	255	
2718.817	1	1	0	0	0.1002	0.13084	0.087545	0.28744	0.20137	0.25486	0.45218	0.45095	0.004553	0.1125	0.27147	0.14993	0.047847	0.19441	0.28126	0.17337	0.13333	-0.66042	0.077083	-0.50833	-0.6375	0.2875	-0.77917	-0.33542	0.04375	-0.69375	0.13125	-0.55625	-0.70625	0.23125	-0.36667	-0.60417	456.722	161.339	326.644	446.384	436.783	374.495	397.194	448.019	182.166	493.995	440.746	399.961	452.973	478.296	201.681	394.651	0.0010969	0.00051314	0.00022724	822.08	6.1259e-06	1.0144e-05	776.67	342.83	5.8043e-06	4.5649e-06	348.25	163.29	134.26	66.379	6.2475e-06	75.291	0.00096693	0.00095439	0.00027668	788.23	1.0101e-05	1.09e-05	742.22	329.96	1.0664e-05	1.0765e-05	333.14	156.87	130.31	64.438	1.0596e-05	73.059	153.974	182.663	254.617	154.050	288.501	264.042	152.008	158.426	276.675	287.626	156.025	159.128	163.222	166.297	283.345	162.751	-8191	255	
2718.914	1	1	0	0	0.35966	0.038604	0.24308	0.082152	0.23709	0.1441	0.2085	0.20151	0.09012	0.083694	0.20639	0.08932	0.093351	0.34639	0.14403	0.20099	0.40208	-0.53125	0.041667	-0.36458	-0.625	0.13542	-0.56042	-0.29167	0.17083	-0.65417	-0.23333	-0.50833	-0.79792	-0.18958	-0.36875	-0.4125	173.619	353.454	437.312	185.253	464.775	157.174	441.688	450.698	245.816	273.571	147.500	210.245	381.491	457.429	387.184	494.727	0.0011569	0.00073308	0.00021446	822.84	8.4269e-06	5.0001e-06	768.19	340.23	6.6584e-06	7.8141e-06	344.02	161.19	134.75	66.431	8.7556e-06	75.26	0.00097658	0.00098161	0.00027257	785.9	9.9921e-06	1.0775e-05	735.56	327.14	1.0413e-05	1.0558e-05	329.71	155.3	129.7	64.273	1.0583e-05	72.834	156.603	231.171	236.926	153.654	284.072	291.268	152.316	158.353	259.564	317.637	156.086	159.184	163.149	165.974	259.771	162.658	-8191	255	
2719.010	1	1	0	0	0.28265	0.18384	0.13506	0.25061	0.078012	0.072184	0.20376	0.31484	0.037901	0.030527	0.29818	0.2847	0.33627	0.13506	0.21749	0.05981	0.26667	-0.72083	-0.075	-0.32083	-0.64167	-0.0083333	-0.56042	-0.46458	0.13125	-0.77083	-0.12292	-0.085417	-0.81875	-0.15833	-0.35625	-0.7375	291.525	252.900	219.346	362.344	176.865	339.980	253.744	448.838	278.719	388.256	442.659	444.998	346.610	200.298	326.464	329.339	0.0011614	0.00068791	0.00011914	823.08	4.9743e-06	8.6664e-06	769.88	341.87	8.0995e-06	7.5213e-06	345.81	162.86	135.04	66.912	6.886e-06	76.004	0.00098174	0.00094871	0.00026649	785.95	9.9557e-06	1.0779e-05	737.32	328.27	1.0423e-05	1.0542e-05	330.6	156.67	130.32	64.785	1.0439e-05	73.448	155.156	230.925	225.148	154.098	252.684	292.171	151.891	158.462	271.436	273.784	155.736	159.063	162.980	166.170	307.741	162.946	-8191	255	
2719.106	1	1	0	0	0.25089	0.27762	0.24277	0.041731	0.12243	0.18051	0.2827	0.24748	0.077072	0.1953	0.21059	0.21708	0.11881	0.059775	0.24688	0.32199	0.41875	-0.52083	-0.19167	-0.047917	-0.68125	0.054167	-0.49375	-0.625	0.12083	-0.5625	-0.55625	0.085417	-0.79375	-0.1125	-0.31875	-0.70417	350.845	339.893	389.874	460.669	171.343	412.220	359.246	414.658	318.379	428.530	417.815	462.757	187.798	207.560	223.019	413.789	0.001209	0.00059787	0.00013537	820.81	5.7135e-06	4.7868e-06	769.83	344.8	7.5848e-06	6.4223e-06	347.9	164.06	134.82	66.567	6.4303e-06	76.088	0.00098433	0.00097228	0.00027183	787.09	9.8209e-06	1.0971e-05	738.65	329.92	1.0242e-05	1.0662e-05	333.47	157.29	130.57	64.709	1.0419e-05	73.732	155.750	231.419	232.741	154.231	298.023	277.498	152.673	158.570	254.483	273.530	156.055	159.174	163.156	166.232	285.194	162.729	-8191	255	
2719.202	1	1	0	0	0.02094	0.22172	0.2322	0.20247	0.062784	0.086332	0.30378	0.42288	0.11697	0.14481	0.2958	0.11058	0.091466	0.33943	0.11734	0.22748	0.4625	-0.52708	-0.11875	0.0625	-0.76042	0.06875	0.0020833	-0.94167	0.097917	-0.48125	-0.55625	0.1375	-0.70208	-0.0625	0.066667	-0.87292	450.646	253.397	293.941	466.175	389.581	476.473	154.320	387.744	350.651	478.689	469.099	154.471	153.399	368.554	442.898	449.379	0.0010951	0.00022191	0.00021449	824.07	6.5368e-06	9.0153e-06	777.4	342.76	9.4172e-06	5.1552e-06	346.78	162.97	134.75	66.18	6.5403e-06	75.034	0.00098325	0.000983	0.00027235	790.1	1.0148e-05	1.078e-05	744.76	329.37	1.0374e-05	1.0547e-05	333.41	156.56	130	64.127	1.0445e-05	72.879	156.310	257.621	199.127	153.672	285.871	323.977	152.518	158.545	259.592	266.226	156.274	159.356	163.253	166.476	283.407	162.909	-8191	255	
2719.296	1	1	0	0	0.23695	0.28629	0.14952	0.18235	0.044243	0.039548	0.17879	0.48443	0.21024	0.19881	0.075705	0.17427	0.20076	0.17548	0.14973	0.36653	0.49792	-0.079167	-0.25417	0.25	-0.60417	-0.32083	0.0083333	-0.84583	0.17917	-0.28333	-0.72708	0.070833	-0.76667	-0.33542	0.21667	-0.92708	285.316	141.611	397.244	390.998	196.368	206.469	348.305	451.552	423.840	158.360	402.221	424.048	223.594	412.000	494.582	468.019	0.0011315	0.00066374	0.00020001	822.43	5.6234e-06	5.495e-06	775.39	340.17	9.0491e-06	6.2444e-06	345.21	161.24	134.04	65.812	3.2141e-06	74.668	0.00098672	0.00097612	0.00026863	788.3	1.0114e-05	1.0535e-05	739.78	327.26	1.0457e-05	1.0309e-05	329.98	155.28	129.6	63.919	1.0598e-05	72.475	152.769	225.467	244.228	153.706	277.548	275.563	152.176	158.375	267.428	287.983	155.835	159.050	162.714	166.150	281.077	162.753	-8191	255	
2719.394	1	1	0	0	0.19071	0.18795	0.14652	0.17513	0.16176	0.1372	0.41114	0.21383	0.22119	0.1284	0.34871	0.1984	0.091853	0.088845	0.14599	0.24195	0.36875	-0.29375	-0.56042	0.0083333	-0.46875	-0.28542	-0.08125	-1.1437	0.1125	-0.014583	-0.81042	0.15417	-0.55625	-0.4625	0.50417	-0.7125	438.382	311.453	304.146	387.910	308.409	345.548	370.004	449.545	245.914	454.975	471.468	477.955	464.935	486.779	257.609	455.458	0.0011108	0.00063675	0.00016611	818.3	2.8301e-06	8.0822e-06	770.28	340.38	9.457e-06	7.0989e-06	341.63	161.76	135.25	66.438	5.4615e-06	75.757	0.00098492	0.00097147	0.00026488	787.9	9.9972e-06	1.0412e-05	738.74	327.43	1.0377e-05	1.0486e-05	330.09	155.91	130.39	64.43	1.0708e-05	73.356	154.248	247.205	213.718	153.656	288.579	295.914	152.165	158.493	272.027	278.138	155.933	159.154	163.260	166.104	290.611	162.677	-8191	255	
2719.513	1	1	0	0	0.088017	0.32957	0.45601	0.13416	0.06393	0.26759	0.19912	0.22199	0.16517	0.18945	0.26399	0.33598	0.20751	0.048	0.12378	0.16138	0.23333	-0.079167	-0.52292	-0.01875	-0.3625	-0.27708	0.11875	-0.775	-0.09375	-0.13542	-0.8375	0.05625	-0.42292	-0.86458	0.22708	-0.71875	376.071	324.326	314.976	414.104	358.316	473.867	376.463	189.180	227.572	347.351	482.092	477.032	428.032	431.349	215.237	431.090	0.0011447	0.00072234	7.8027e-05	825.34	7.9295e-06	6.8157e-06	768.28	342.24	7.6703e-06	8.6943e-06	348.5	162.98	136.26	66.867	7.1132e-06	75.818	0.00098819	0.00097209	0.00026605	789.22	1.0378e-05	1.0321e-05	738.3	329.17	1.0461e-05	1.0707e-05	333.27	156.85	131.22	64.786	1.0693e-05	73.384	157.823	223.492	228.603	153.497	291.859	257.202	151.992	158.589	256.189	292.638	156.302	159.117	162.966	166.126	265.172	162.393	-8191	255	
2719.609	1	1	0	0	0.2818	0.036664	0.2781	0.20116	0.18135	0.34663	0.36794	0.18365	0.23583	0.19861	0.18266	0.042158	0.27981	0.20061	0.1769	0.27607	0.17708	0.033333	-0.74375	-0.0020833	-0.29167	-0.68125	0.1375	-0.71875	0.1	-0.066667	-0.72292	0.10833	-0.40625	-0.75208	0.2	-0.81667	191.231	403.122	449.156	488.974	244.911	400.555	378.681	478.223	462.441	420.776	454.546	302.335	465.407	446.891	157.165	454.842	0.001116	0.00061009	0.000203	831.39	8.1365e-06	9.0419e-06	777.18	344.25	7.543e-06	7.0979e-06	346.21	164.37	136.48	67.726	6.6111e-06	76.522	0.00098191	0.0009669	0.00026948	792.64	1.0033e-05	1.0561e-05	743.07	331.19	1.0224e-05	1.0797e-05	333.42	157.44	131.58	65.491	1.0699e-05	74.056	156.710	184.210	204.625	153.555	291.282	296.226	152.020	158.447	249.848	274.341	155.768	158.895	163.031	165.863	275.253	162.420	-8191	255	
2719.704	1	1	0	0	0.050888	0.25136	0.11198	0.24783	0.11171	0.21207	0.16094	0.10232	0.31048	0.25761	0.11133	0.19431	0.097416	0.28868	0.13012	0.17416	0.045833	0.24792	-0.59167	0.058333	-0.27292	-0.74167	-0.13125	-0.86667	-0.3125	-0.020833	-0.83958	-0.1	-0.022917	-0.88333	0.2125	-0.63542	168.446	310.425	400.583	406.044	373.346	260.476	429.389	216.540	301.628	341.188	483.715	449.206	471.483	476.625	218.944	396.920	0.0012026	0.00035173	0.00021401	829.91	3.5978e-06	8.3765e-06	772.98	341.96	8.3066e-06	3.3432e-06	342.76	161.46	134.91	66.283	9.5111e-06	75.273	0.00099509	0.00096693	0.00027398	792.18	1.009e-05	1.0725e-05	738.97	329.11	1.0152e-05	1.0453e-05	329.7	155.39	130.51	64.534	1.0607e-05	73.089	156.898	224.908	226.633	153.395	295.212	291.765	151.801	158.351	274.252	286.168	156.017	158.674	162.593	165.926	266.753	162.256	-8191	255	
2719.802	1	1	0	0	0.28875	0.12773	0.16204	0.24002	0.089406	0.065061	0.24617	0.13791	0.19982	0.091125	0.030275	0.12609	0.09682	0.35113	0.081377	0.17945	0.020833	0.12292	-0.76667	-0.033333	-0.14167	-0.67917	0.0375	-0.50417	-0.43125	0.15	-0.96042	-0.19167	-0.10417	-0.8375	0.25625	-0.49375	476.243	366.409	496.053	173.853	258.369	340.233	461.111	393.435	422.086	488.849	260.239	182.513	276.060	483.254	317.469	408.704	0.0010602	0.00058563	0.00019247	823.96	4.6405e-06	5.3218e-06	773.5	344.78	8.782e-06	7.9768e-06	344.12	162.48	134.5	65.549	6.7199e-06	74.78	0.00098212	0.00097304	0.00026045	793.2	1.0261e-05	1.0399e-05	741.89	330.62	1.0155e-05	1.0406e-05	330.89	155.73	129.83	63.63	1.0401e-05	72.251	154.290	217.627	261.451	153.276	285.789	279.911	151.754	158.372	274.451	271.905	155.820	158.767	162.575	166.004	259.379	162.591	-8191	255	
2719.896	1	1	0	0	0.28718	0.1017	0.22881	0.31812	0.19603	0.19381	0.080294	0.085216	0.28712	0.20717	0.064951	0.077266	0.072053	0.51046	0.10052	0.16975	-0.20417	0.11458	-0.6375	-0.32708	-0.00625	-0.69792	0.13333	-0.38125	-0.6125	0.1375	-0.75	-0.33125	-0.0020833	-0.94792	0.035417	-0.21042	416.063	325.666	210.253	481.550	227.474	363.363	279.217	272.814	491.821	301.640	394.551	274.093	355.270	441.051	433.699	439.328	0.0010582	0.0004672	0.00017626	830.5	6.4452e-06	7.938e-06	785.38	346.19	4.5789e-06	7.563e-06	349.11	163.14	135.2	65.482	5.3959e-06	74.542	0.00094385	0.00098958	0.00026497	796.81	1.0034e-05	1.0429e-05	751.37	332.81	1.0126e-05	1.086e-05	334.66	157.01	130.08	63.557	1.0257e-05	72.185	154.495	246.936	204.047	153.430	282.798	280.918	151.552	158.240	248.127	296.309	155.947	158.580	163.097	165.855	235.663	162.466	-8191	255	
2719.992	1	1	0	0	0.10381	0.060708	0.14928	0.24876	0.10001	0.21595	0.075761	0.045319	0.35221	0.11614	0.10789	0.10295	0.17112	0.20063	0.0809	0.089564	-0.35833	0.2125	-0.47292	-0.35	0.25833	-0.77708	-0.20833	-0.072917	-0.68958	0.22917	-0.50208	-0.6125	0.060417	-0.93125	0.085417	-0.22708	484.435	187.776	446.962	425.133	250.114	412.909	311.883	370.976	450.679	437.049	267.881	472.357	207.333	477.177	212.672	406.748	0.0010231	0.00036863	0.00014811	827.78	5.8097e-06	7.2402e-06	789.05	348.45	6.3578e-06	7.0031e-06	347.37	161.5	133.68	64.419	6.7849e-06	72.634	0.00093482	0.00097375	0.00026212	796.06	1.0224e-05	1.0534e-05	755.07	334.1	1.0014e-05	1.0529e-05	333.54	155.58	128.93	62.664	1.016e-05	70.324	154.240	222.658	220.386	153.329	306.125	308.132	151.745	158.260	286.249	286.957	156.137	158.625	162.517	165.949	276.003	162.455	-8191	255	
2720.113	1	1	0	0	0.22164	0.18737	0.20695	0.11647	0.17229	0.20013	0.37973	0.25044	0.36589	0.073845	0.1557	0.34506	0.33523	0.082191	0.17124	0.23101	-0.475	0.13333	-0.48542	-0.75625	0.17917	-0.78125	-0.2875	-0.13542	-0.75417	0.072917	-0.64375	-0.79792	0.027083	-0.69792	-0.18958	-0.014583	494.113	358.740	323.959	170.274	487.468	460.678	494.154	370.932	331.282	198.045	497.830	146.995	163.844	392.441	222.445	347.301	0.0010437	0.00048248	0.00020961	822.73	7.7924e-06	4.4463e-06	778.2	342.11	7.6531e-06	8.404e-06	344.26	161.9	133.6	64.618	7.1405e-06	73.862	0.00092625	0.00091432	0.00025036	789.25	9.8444e-06	9.8962e-06	744.13	328.74	9.8623e-06	1.0191e-05	330.38	155.24	129.01	62.946	1.0191e-05	71.191	154.572	187.114	223.593	153.284	310.281	277.381	151.673	158.379	268.707	295.686	155.996	158.864	162.888	165.869	250.575	162.528	-8191	255	
2720.209	1	1	0	0	0.1455	0.32338	0.17021	0.28881	0.134	0.1079	0.26437	0.20547	0.16964	0.1001	0.17063	0.086136	0.25536	0.1681	0.10744	0.16481	-0.31875	0.16875	-0.34167	-0.68125	0.32708	-0.75	-0.2625	-0.041667	-0.65	0.1125	-0.31458	-0.75	0.26667	-0.68125	-0.22083	-0.01875	255.940	333.326	382.043	434.777	444.475	343.724	460.245	456.032	415.320	222.988	384.648	382.920	478.841	471.247	274.995	387.881	0.0010824	0.00072399	0.00012648	824.71	9.4531e-06	8.4095e-06	780.7	341.75	6.0541e-06	3.3213e-06	346.98	162.71	134.72	65.742	6.8948e-06	74.541	0.00092831	0.00091788	0.00026042	789.65	9.8099e-06	1.0135e-05	746.43	328.89	9.986e-06	1.038e-05	332.25	156.09	129.77	63.709	1.0042e-05	71.975	156.647	247.962	236.463	153.352	275.106	276.164	151.705	158.112	269.978	295.591	156.067	158.919	162.519	165.813	281.845	162.484	-8191	255	
2720.305	1	1	0	0	0.13702	0.18552	0.15879	0.12031	0.10958	0.071549	0.25347	0.28611	0.1958	0.40685	0.11459	0.076222	0.40962	0.232	0.29547	0.11739	-0.33958	0.12917	-0.15208	-0.8	0.32708	-0.475	-0.61458	0.1625	-0.72917	0.054167	0.058333	-0.74375	0.20833	-0.49792	-0.525	0.26667	470.665	259.093	301.566	444.066	402.638	334.247	398.775	415.296	483.029	317.321	213.938	153.687	393.619	422.855	388.014	147.341	0.0010821	0.00088751	0.00027888	827.77	9.0097e-06	6.0643e-06	781.91	340.6	3.9256e-06	5.6701e-06	348.44	161.44	132.01	64.14	5.4718e-06	72.892	0.00094848	0.00093438	0.00026163	791.68	1.0153e-05	1.0051e-05	748.89	328.64	9.8643e-06	1.0298e-05	333.26	155.39	127.95	62.26	1.0243e-05	70.801	151.620	234.742	218.092	153.370	264.466	249.995	151.990	158.297	264.162	327.311	156.096	158.765	162.602	165.942	290.276	162.360	-8191	255	
2720.401	1	1	0	0	0.16779	0.13368	0.11529	0.13285	0.12518	0.16356	0.12806	0.16907	0.21797	0.2997	0.13442	0.19844	0.2276	0.29527	0.026336	0.2668	-0.33125	-0.01875	0	-0.84792	0.125	-0.32917	-0.67917	0.18333	-0.57083	-0.20625	0.22708	-0.72708	-0.089583	-0.36042	-0.60625	-0.027083	442.542	454.984	175.228	176.279	177.807	255.791	484.490	441.190	153.025	194.114	414.741	447.979	369.720	451.831	159.388	446.898	0.0011027	0.00068152	9.5939e-05	829.76	5.4581e-06	3.7957e-06	786.78	339.19	8.6912e-06	4.2419e-06	342.35	158.11	130.08	62.477	9.3003e-06	71.346	0.00094501	0.00093283	0.00025872	793.75	9.9608e-06	1.0292e-05	754.27	326.56	1.0109e-05	1.0088e-05	328.86	152.03	125.58	60.665	9.8966e-06	68.942	155.607	229.590	247.589	153.509	285.635	283.671	151.974	158.262	268.617	307.922	155.752	158.924	162.564	166.133	271.380	162.437	-8191	255	
2720.497	1	1	0	0	0.13535	0.12693	0.26883	0.24745	0.21634	0.026007	0.15305	0.20585	0.32233	0.10282	0.23179	0.17342	0.12139	0.28983	0.093395	0.16982	-0.10833	-0.29375	0.3125	-0.85	0.033333	-0.21458	-0.69583	0.19792	-0.40833	-0.44792	0.25833	-0.8875	-0.11042	-0.18542	-0.75208	0.16875	186.060	275.653	264.110	406.714	336.217	383.640	433.166	434.736	184.898	499.441	273.022	442.160	494.999	373.822	393.009	394.603	0.0011094	0.0005298	0.00016587	823.64	8.2966e-06	6.8468e-06	780.66	338.94	6.5126e-06	6.9104e-06	340.07	157.72	130.8	63.377	7.7861e-06	71.467	0.00092321	0.00092196	0.00025805	787.85	9.7568e-06	1.0075e-05	746.84	325.2	9.7364e-06	9.9759e-06	326.77	151.87	126.25	61.507	9.6373e-06	69.426	154.185	234.773	199.210	153.395	280.754	280.748	151.620	158.283	253.737	295.726	155.737	158.883	162.730	166.077	265.778	162.608	-8191	255	
2720.594	1	1	0	0	0.021708	0.28754	0.11385	0.2428	0.14746	0.20534	0.15345	0.30251	0.075142	0.11443	0.19381	0.28111	0.20795	0.23786	0.19765	0.35045	-0.010417	-0.45833	0.17292	-0.78333	0.0125	-0.13958	-0.90417	0.075	-0.37292	-0.52708	0.11458	-0.62083	-0.041667	0.035417	-0.58125	0.11042	356.718	496.915	455.248	490.309	342.167	402.324	159.381	445.997	472.040	456.840	462.730	420.029	406.031	180.622	435.470	406.811	0.0010519	0.0005486	0.00022067	827.02	4.8164e-06	5.7886e-06	778.9	344.14	7.6422e-06	5.6289e-06	345.34	162.18	133.63	65.046	1.0134e-05	73.519	0.00092185	0.00088327	0.00025258	792.49	9.5373e-06	9.9529e-06	747.62	329.62	9.7012e-06	1.0162e-05	332.05	155.27	129.28	63.294	9.8882e-06	71.089	154.026	182.817	246.190	153.531	313.387	296.697	151.738	158.276	247.685	320.945	155.719	159.126	162.882	166.331	248.189	162.421	-8191	255	
2720.690	1	1	0	0	0.11999	0.24761	0.096705	0.31903	0.012985	0.16996	0.29147	0.34922	0.12892	0.23687	0.083705	0.20708	0.096969	0.36262	0.2662	0.25966	0.16667	-0.53333	0.32917	-0.86042	-0.13333	-0.0083333	-0.8625	-0.022917	-0.23542	-0.47708	0.19792	-0.56875	-0.36667	0.14167	-0.77708	-0.19167	373.068	202.830	239.627	460.148	302.738	462.767	354.109	439.428	288.004	443.504	314.827	487.012	471.306	197.119	259.483	460.600	0.0010995	0.00065157	0.00014824	834.61	6.4017e-06	3.5993e-06	789.22	346.5	7.3598e-06	7.1391e-06	348.06	163.16	134.09	65.942	4.8816e-06	73.823	0.0009048	0.00090923	0.0002534	795.57	9.3615e-06	9.892e-06	752.54	332.89	9.7291e-06	9.9464e-06	335.06	156.63	129.77	63.8	9.9211e-06	71.514	152.001	228.458	233.138	153.843	287.249	270.011	151.889	158.185	267.163	313.365	155.685	158.949	162.843	166.081	277.771	162.611	-8191	255	
2720.784	1	1	0	0	0.019307	0.11022	0.06744	0.12005	0.20496	0.171	0.31454	0.1945	0.14793	0.097178	0.10701	0.08673	0.13958	0.19097	0.21839	0.1401	0.2875	-0.52083	0.20833	-0.4625	-0.3625	0.23542	-0.62708	-0.091667	-0.097917	-0.6625	-0.0083333	-0.59792	-0.53333	0.05	-0.8375	-0.25417	404.768	204.652	204.134	464.685	154.757	323.291	478.592	342.658	324.037	396.093	152.527	462.621	487.640	484.526	450.557	437.519	0.0011424	0.00050304	0.00018918	835.85	3.1924e-06	9.6031e-06	785.7	345.59	7.3747e-06	7.2871e-06	344.87	160.33	132.26	64.159	6.6574e-06	71.899	0.00092875	0.0009067	0.0002547	799.7	9.5895e-06	1.0151e-05	752.5	332.09	9.618e-06	9.5497e-06	329.98	153.73	127.57	62.206	9.7519e-06	69.624	150.867	235.027	220.262	153.762	247.797	303.050	152.002	158.121	294.567	283.481	156.087	158.798	162.820	166.049	271.362	162.683	-8191	255	
2720.882	1	1	0	0	0.13322	0.26805	0.30195	0.087679	0.10867	0.26268	0.18158	0.051875	0.079543	0.12091	0.17945	0.020871	0.053802	0.41731	0.24446	0.22572	0.33958	-0.79375	0.2	-0.5375	-0.73958	0.0875	-0.89375	-0.28542	0.27292	-0.56667	0.1625	-0.33958	-0.49792	0.15	-0.6125	-0.22917	453.520	234.714	315.283	366.581	480.524	363.754	331.121	472.314	165.761	255.987	448.859	317.645	428.267	146.305	392.660	466.856	0.0010613	0.00027304	0.00012384	829.52	3.0581e-06	7.1122e-06	781.18	344.18	7.3529e-06	2.5196e-06	343.4	161.47	133.35	65.615	6.3366e-06	73.572	0.00091137	0.00088577	0.0002471	795.01	9.4217e-06	9.9258e-06	746.67	331.64	9.4097e-06	9.6492e-06	331.05	154.7	129.17	63.607	9.9121e-06	71.093	153.882	233.172	223.067	153.502	294.013	289.970	151.921	158.325	253.774	276.496	155.993	159.240	162.974	166.103	264.537	162.612	-8191	255	
2721.001	1	1	0	0	0.11924	0.11481	0.12099	0.37256	0.14424	0.090761	0.039281	0.11542	0.16188	0.18602	0.12634	0.35238	0.14508	0.30729	0.1151	0.14596	0.55208	-0.51667	0.23958	-0.17292	-0.52708	0.13125	-0.66042	-0.44583	0.175	-0.81667	0	-0.31458	-0.69167	0.089583	-0.3375	-0.53958	204.786	251.927	267.903	143.416	333.839	454.132	385.164	240.400	292.311	167.422	395.923	456.257	295.585	450.918	348.470	210.548	0.0010366	0.00077282	0.00022025	832.43	6.9751e-06	8.6042e-06	780.71	347.85	7.5625e-06	4.9484e-06	348.31	162.15	135.13	66.458	6.5655e-06	73.942	0.00093143	0.00090056	0.00025066	797.24	9.4265e-06	9.962e-06	750.62	334.95	9.4477e-06	9.8632e-06	333.31	156.07	130.51	64.313	9.6656e-06	71.516	153.769	242.764	212.927	153.741	264.583	291.381	152.138	158.359	259.718	331.607	155.802	159.092	162.542	165.847	286.758	162.704	-8191	255	
2721.097	1	1	0	0	0.34458	0.069514	0.14124	0.2058	0.070336	0.24891	0.36215	0.28661	0.21778	0.19424	0.094504	0.11972	0.40338	0.15511	0.30399	0.20002	0.48125	-0.69167	-0.11875	0.020833	-0.65625	0.1125	-0.39375	-0.50208	0.35833	-0.61875	-0.10625	0.041667	-0.7	0.05625	-0.12708	-0.55	217.501	420.111	421.095	143.922	236.439	422.347	430.522	437.672	240.997	315.584	221.174	445.389	441.167	479.653	274.917	479.016	0.0011299	0.00062565	0.00020214	836.59	6.2109e-06	5.7283e-06	792.49	350.79	6.2185e-06	2.7708e-06	348.35	163.68	137.29	67.45	9.8584e-06	75.256	0.00094302	0.00090409	0.00024123	800.77	9.294e-06	1.0191e-05	755.57	337.45	9.8547e-06	9.9311e-06	336.33	157.53	131.93	65.347	9.9038e-06	72.774	155.112	201.467	229.599	153.711	280.788	318.693	152.052	158.269	227.814	295.616	155.932	159.246	163.184	165.972	284.492	162.637	-8191	255	
2721.193	1	1	0	0	0.16007	0.074152	0.25501	0.31995	0.023919	0.28021	0.14558	0.14184	0.11728	0.10679	0.23263	0.17766	0.19787	0.24403	0.20966	0.12	0.67917	-0.62292	-0.1	0.03125	-0.65208	0.15	-0.31667	-0.52708	0.3875	-0.61042	-0.16875	0.33333	-0.8	0.0041667	-0.10625	-0.81875	167.607	409.549	487.375	391.537	232.813	453.971	471.253	487.376	394.220	494.723	142.469	486.457	443.133	405.196	181.290	147.001	0.001181	0.00059582	0.00014733	841.67	7.7906e-06	3.8993e-06	792.44	353.6	7.9976e-06	8.168e-06	347.53	163.39	137.03	68.136	8.6903e-06	75.726	0.00095416	0.00093093	0.00024809	804.4	9.433e-06	1.0047e-05	757.69	339.11	9.6939e-06	9.7974e-06	334.95	157.6	132.12	65.957	9.9104e-06	73.193	150.846	229.241	256.644	153.785	279.058	308.907	152.071	158.285	245.003	296.771	155.763	159.154	163.160	166.029	264.348	162.627	-8191	255	
2721.289	1	1	0	0	0.053397	0.028896	0.088814	0.075812	0.25447	0.15937	0.20984	0.4219	0.32307	0.32855	0.24041	0.1222	0.07946	0.24229	0.16617	0.15748	0.62917	-0.45625	-0.15625	0.23958	-0.6625	0.13542	-0.33542	-0.60833	0.15417	-0.39583	-0.55625	0.24792	-0.69375	-0.26667	-0.064583	-0.95833	212.017	166.666	400.449	258.955	409.185	332.334	151.251	432.727	462.732	318.878	428.633	368.956	497.285	165.494	471.281	304.871	0.0011082	0.00081055	0.00016664	839.44	5.7469e-06	6.8313e-06	794.42	356.46	9.0829e-06	6.3186e-06	355.03	166.73	140.06	69.859	6.1684e-06	76.952	0.00092342	0.00091092	0.0002558	805.27	9.3005e-06	1.0103e-05	758.41	343.13	9.8865e-06	1.008e-05	339.38	159.78	134.72	67.576	1.0203e-05	74.472	155.591	243.110	205.937	153.973	248.973	282.967	151.878	158.658	272.572	299.526	155.883	159.196	162.757	166.099	229.208	162.614	-8191	255	
2721.386	1	1	0	0	0.24825	0.10163	0.13925	0.14325	0.21944	0.12476	0.23605	0.2379	0.21056	0.23397	0.076038	0.15727	0.1489	0.36939	0.15881	0.23115	0.51667	-0.31458	-0.43542	0.1625	-0.46875	-0.12083	-0.041667	-0.6	0.13958	-0.37292	-0.78542	0.12083	-0.88125	-0.36042	0.01875	-0.86458	155.367	251.971	420.239	144.093	204.463	223.809	473.922	489.101	401.907	489.636	401.606	336.780	275.529	430.364	161.873	488.935	0.0011563	0.00070563	0.0002013	845.05	6.7242e-06	7.6897e-06	796.08	359.05	8.1948e-06	9.6368e-06	354.33	166.51	139.58	69.572	7.8172e-06	77.193	0.00094519	0.00091201	0.00025754	809.92	9.5034e-06	9.8193e-06	763.4	343.74	9.8561e-06	1.0104e-05	340.07	160.34	134.54	67.444	1.0205e-05	74.732	156.456	208.849	234.135	153.802	271.527	316.826	151.993	158.178	278.276	285.469	155.715	159.067	163.268	165.959	259.771	162.563	-8191	255	
2721.482	1	1	0	0	0.11105	0.19154	0.10597	0.056771	0.21591	0.13961	0.19581	0.25707	0.14743	0.12246	0.11779	0.21327	0.10741	0.20361	0.073758	0.36683	0.49792	-0.32083	-0.43333	0.17708	-0.6375	-0.30625	0.010417	-0.92292	0.34583	-0.24583	-0.75625	-0.077083	-0.60625	-0.4	0.17083	-0.77083	334.742	398.657	275.741	395.841	260.704	467.130	432.783	427.402	205.058	288.484	409.754	481.182	471.505	153.442	412.816	449.664	0.0011279	0.00019641	0.00021441	850.26	2.3408e-06	5.9113e-06	800.78	360.26	9.2486e-06	5.8024e-06	357.5	168.67	139.85	69.902	5.6515e-06	78.255	0.00096325	0.00093136	0.0002508	811.56	9.5288e-06	1.0216e-05	765.32	345.43	9.7524e-06	1.0094e-05	343.07	161.32	135.21	67.996	1.0349e-05	75.748	154.075	247.601	245.121	153.636	269.142	290.425	152.131	158.557	265.142	259.624	156.138	159.134	163.077	166.199	236.851	162.968	-8191	255	
2721.602	1	1	0	0	0.24788	0.23839	0.29842	0.26024	0.14722	0.026884	0.29146	0.10316	0.090495	0.099075	0.22108	0.41786	0.025683	0.15507	0.044507	0.065357	0.37708	0.022917	-0.675	0.08125	-0.26667	-0.43125	0.11667	-0.75208	0.1	0.029167	-0.7625	0.32917	-0.44583	-0.61875	0.15417	-0.67292	165.546	240.656	405.831	457.410	143.663	476.632	419.705	334.991	180.820	358.819	439.916	406.469	492.202	479.755	497.838	391.580	0.0011349	0.00066717	0.00016107	849.23	6.8678e-06	6.7834e-06	801.62	359.72	7.8165e-06	5.7245e-06	353.16	166.44	140.13	70.167	1.0616e-05	77.884	0.00095623	0.00093463	0.00026358	812.86	1.008e-05	1.0382e-05	764.48	345.27	1.0211e-05	1.0516e-05	339.32	160.18	134.94	68.031	1.0402e-05	75.413	156.456	226.193	246.168	153.777	293.116	301.647	151.953	158.392	277.577	322.202	156.181	159.079	163.245	166.152	261.393	162.693	-8191	255	
2721.697	1	1	0	0	0.14206	0.12474	0.25409	0.15635	0.20595	0.21895	0.2381	0.43582	0.11586	0.16042	0.22326	0.22605	0.08763	0.2008	0.17182	0.13194	0.52292	-0.16875	-0.63958	0.039583	-0.4625	-0.63958	0.010417	-0.67917	-0.0375	-0.12708	-0.88958	0.11875	-0.4625	-0.77292	0.3375	-0.69583	184.606	263.785	494.588	172.416	247.118	268.025	444.795	456.013	432.446	258.902	331.755	452.981	379.114	469.232	400.223	455.131	0.0011284	0.00053823	0.0002247	847.29	4.2701e-06	5.6811e-06	795.09	359.38	8.0559e-06	4.9857e-06	356.25	166.89	139.91	70.62	9.1474e-06	78.174	0.00095732	0.00095222	0.00025624	809.36	9.9331e-06	1.047e-05	759.95	344.86	1.0149e-05	1.0132e-05	339.98	160.42	135.4	68.48	1.043e-05	75.799	154.160	236.550	227.960	153.538	298.485	288.955	152.224	158.313	261.588	280.853	156.113	158.959	163.232	166.089	275.311	162.844	-8191	255	
2721.770	1	1	0	0	0.13633	0.096056	0.19369	0.25652	0.40007	0.42964	0.17154	0.16899	0.1353	0.029759	0.099472	0.27027	0.2019	0.34732	0.3733	0.29167	0.13958	0.24583	-0.69583	0.064583	-0.18958	-0.77292	-0.03125	-0.61667	-0.475	0.03125	-0.58542	-0.17917	-0.17917	-0.84167	0.20208	-0.62083	259.221	197.203	443.087	141.074	346.691	172.353	447.417	452.174	335.287	427.101	355.134	301.116	440.835	450.915	491.628	413.067	0.0011417	0.00081831	0.00016461	848.23	7.2066e-06	6.8843e-06	798.96	359.96	5.8091e-06	7.6574e-06	357.21	167.52	142.05	71.112	6.7422e-06	79.188	0.00094703	0.00096114	0.00025659	811.2	9.9113e-06	1.0343e-05	762.61	345.64	9.8081e-06	1.0163e-05	341.54	161.44	136.64	69.06	1.0409e-05	76.502	154.564	230.036	212.928	153.420	284.868	286.508	151.874	158.390	256.884	282.347	156.155	159.208	163.195	166.170	257.182	162.814	-8191	255	
2721.889	1	1	0	0	0.060621	0.22369	0.14774	0.16908	0.18557	0.30478	0.30516	0.22216	0.28475	0.085173	0.16341	0.19819	0.27443	0.19556	0.08916	0.21554	-0.014583	0.16458	-0.54583	-0.17708	-0.06875	-0.7	-0.035417	-0.54375	-0.49583	0.29792	-0.67292	-0.04375	-0.0625	-0.71875	0.33542	-0.47083	478.300	388.963	377.234	446.858	347.105	456.633	318.300	156.304	443.373	393.695	360.609	380.596	436.030	447.203	470.344	476.454	0.0011458	0.00093002	0.00022636	844.78	7.2507e-06	7.3405e-06	796.21	360.43	9.5934e-06	5.4306e-06	357.89	169.01	142.2	71.451	8.2664e-06	79.174	0.00097176	0.00095023	0.0002575	811.3	1.0091e-05	1.0357e-05	763.19	347.06	1.0145e-05	1.0687e-05	343.57	162.7	137.28	69.362	1.0252e-05	76.736	153.160	231.062	238.404	153.773	286.376	268.788	151.870	158.731	278.398	254.070	156.315	158.930	163.032	166.246	264.925	162.931	-8191	255	
2721.985	1	1	0	0	0.070405	0.26006	0.1031	0.062611	0.2858	0.013539	0.30044	0.088925	0.04818	0.18078	0.067073	0.32897	0.04613	0.27629	0.16352	0.14512	-0.25417	0.32083	-0.47917	-0.24583	0.022917	-0.65208	0.15625	-0.39792	-0.49167	0.30208	-0.61458	-0.3375	0.20208	-0.98333	0.05625	-0.40208	182.009	489.115	210.087	474.242	229.481	408.391	494.393	175.509	142.714	440.896	164.616	182.810	289.874	195.446	264.285	342.203	0.0011824	0.00043915	0.00019062	846	5.6867e-06	6.8296e-06	797.41	361	5.1192e-06	6.6486e-06	353.72	166.43	141.1	70.499	7.9551e-06	78.091	0.0009779	0.0009889	0.00026229	811.57	1.002e-05	1.0256e-05	760.68	345.93	1.012e-05	1.0582e-05	340.27	160.61	135.85	68.487	1.0446e-05	75.622	155.798	219.807	244.874	153.622	293.871	320.050	152.111	158.563	237.789	289.827	156.235	159.075	163.138	165.956	261.454	162.640	-8191	255	
2722.081	1	1	0	0	0.11756	0.24441	0.21048	0.19473	0.11067	0.14616	0.1349	0.093517	0.17974	0.24516	0.10143	0.28774	0.34868	0.27949	0.1344	0.039359	-0.23333	0.31458	-0.36667	-0.20625	0.26667	-0.5625	-0.15208	-0.033333	-0.60208	0.16042	-0.35208	-0.38542	0.275	-0.64583	-0.033333	-0.09375	464.641	373.376	497.147	216.810	385.730	466.450	447.108	374.181	249.204	182.367	488.299	431.136	465.136	490.014	180.137	199.897	0.001194	0.00043502	0.00025098	847.5	5.8732e-06	7.4574e-06	790.89	358.25	7.6085e-06	6.0974e-06	354.37	168.14	141.4	71.508	6.4276e-06	78.69	0.0009755	0.00096013	0.00026758	810.75	9.8277e-06	1.0468e-05	757.11	345.33	1.0268e-05	1.0398e-05	340.6	161.21	136.62	69.324	1.0365e-05	76.191	152.643	229.744	219.090	153.780	284.837	291.128	152.133	158.734	265.664	308.334	156.099	159.273	163.149	166.273	231.982	162.793	-8191	255	
2722.202	1	1	0	0	0.24801	0.070351	0.2458	0.028985	0.14886	0.19503	0.30137	0.28568	0.23258	0.247	0.1557	0.077283	0.1551	0.2318	0.18865	0.28959	-0.42917	0.19167	-0.16667	-0.48542	0.24792	-0.6	-0.32083	0.0041667	-0.66667	0.16875	-0.69375	-0.7875	0.085417	-0.91875	-0.083333	0.0125	192.375	468.623	465.260	489.652	331.693	319.077	413.624	419.619	468.582	496.609	345.003	393.622	141.616	456.246	413.288	475.300	0.0011348	0.00063305	0.00020258	846.07	7.8042e-06	7.6068e-06	795.03	360.96	5.6544e-06	5.1497e-06	354.8	168.13	141.66	70.922	1.0753e-05	78.012	0.0009609	0.00095502	0.00026227	809.82	9.9291e-06	1.0543e-05	759.96	345.77	1.0011e-05	1.0389e-05	341.32	161.56	136.4	68.762	1.039e-05	75.639	153.550	223.883	224.192	153.593	284.413	294.393	152.128	158.681	288.905	285.426	156.178	159.218	163.228	166.534	262.728	163.157	-8191	255	
2722.298	1	1	0	0	0.16205	0.28539	0.12549	0.22016	0.064586	0.024575	0.14868	0.042905	0.1995	0.12871	0.24308	0.25356	0.24166	0.13697	0.29526	0.14561	-0.36667	0.2	-0.52083	-0.68542	0.475	-0.65	-0.42917	0.0875	-0.63542	0.04375	-0.14583	-0.51667	0.18958	-0.71667	-0.12083	0.033333	254.664	372.805	222.056	462.432	149.526	441.382	162.905	379.712	283.553	167.783	146.243	143.853	483.984	216.372	302.295	291.156	0.001154	0.0006629	0.00019131	848.7	4.4261e-06	9.3211e-06	802.63	359.27	3.5334e-06	4.2592e-06	357.98	168.65	141.69	70.414	7.0431e-06	78.528	0.00096309	0.00096888	0.00025952	812.78	1.0142e-05	1.0642e-05	764.13	346.06	1.0161e-05	1.0553e-05	343.08	161.72	136.11	68.379	1.0399e-05	76.022	152.788	233.360	199.392	153.918	319.637	280.943	152.344	158.696	226.425	271.132	156.065	159.454	163.436	166.481	280.778	162.968	-8191	255	
2722.370	1	1	0	0	0.14472	0.17539	0.14948	0.33488	0.2265	0.18508	0.26391	0.35397	0.10074	0.19731	0.087883	0.37381	0.19448	0.044864	0.17726	0.14346	-0.43125	0.12917	0.058333	-0.81667	0.28125	-0.475	-0.38958	0.26042	-0.71667	-0.04375	0.047917	-0.87083	0.31875	-0.7625	-0.43125	0.06875	455.426	241.708	422.240	155.863	343.391	282.435	431.238	394.706	487.917	371.807	455.927	431.442	469.161	169.853	474.999	229.729	0.001112	0.00048208	0.00013902	850.51	8.1226e-06	7.4972e-06	795.04	359.78	8.7726e-06	4.3125e-06	355.03	167.13	139.38	70.959	8.0566e-06	78.488	0.00094782	0.00096239	0.0002627	813.95	1.0202e-05	1.0524e-05	763.08	345.23	1.024e-05	1.0795e-05	340.78	160.62	135.27	68.756	1.0443e-05	75.948	155.137	227.124	243.069	153.715	285.836	315.818	152.350	158.518	277.638	326.864	156.174	159.131	163.080	166.300	278.846	162.735	-8191	255	
2722.466	1	1	0	0	0.1854	0.080829	0.106	0.19444	0.14953	0.17802	0.10195	0.45337	0.14478	0.12125	0.2098	0.16196	0.21102	0.063555	0.22217	0.21709	-0.21042	-0.2	0.085417	-0.80417	0.19792	-0.13542	-0.85208	-0.064583	-0.52917	-0.24792	-0.00625	-0.97917	-0.12083	-0.38333	-0.30208	-0.077083	475.023	473.934	399.860	174.558	371.675	189.430	179.874	486.247	450.076	429.884	172.899	493.162	257.902	339.647	411.126	491.700	0.0011562	0.00039654	0.00015854	844.99	7.7303e-06	4.8031e-06	798.76	359.6	6.1957e-06	7.8654e-06	354.5	168.03	140.9	71.379	6.9967e-06	79.198	0.00096247	0.00095994	0.00026186	811.6	1.0046e-05	1.0802e-05	763.36	346.01	1.0005e-05	1.0453e-05	342.17	161.53	136.12	69.17	1.0396e-05	76.494	153.791	200.276	225.782	153.832	262.741	301.245	151.888	158.430	259.731	290.171	156.197	159.134	163.412	166.120	243.911	162.938	-8191	255	
2722.562	1	1	0	0	0.1087	0.12803	0.10672	0.22882	0.18814	0.07266	0.30556	0.25283	0.20231	0.23675	0.20051	0.31604	0.069512	0.31213	0.13014	0.15887	-0.23333	-0.23542	0.089583	-0.76875	0.06875	0.0375	-0.82292	-0.029167	-0.55417	-0.37292	0.15417	-1.0104	-0.05625	-0.24167	-0.81875	0.010417	180.121	159.460	396.689	415.764	340.107	191.860	386.753	471.385	419.147	252.756	149.224	455.563	192.356	464.783	492.672	149.716	0.0010946	0.00078349	0.00027802	848.96	8.4382e-06	4.9149e-06	807.47	361.58	8.1921e-06	4.8631e-06	358.19	168.86	141.18	71.276	9.8356e-06	79.273	0.0009711	0.00095825	0.00025851	811.87	1.031e-05	1.0785e-05	770.07	347.24	1.0118e-05	1.044e-05	345.33	162.35	136.21	69.08	1.0623e-05	76.824	157.104	231.782	228.983	153.850	283.948	298.150	151.842	158.597	292.391	285.755	155.805	159.145	162.915	166.629	272.423	162.739	-8191	255	
2722.681	1	1	0	0	0.1432	0.16551	0.26585	0.12503	0.27788	0.24649	0.23381	0.30566	0.18294	0.23567	0.16679	0.17555	0.16078	0.20143	0.27845	0.34785	-0.01875	-0.46667	0.10625	-0.77708	-0.25208	-0.04375	-0.84792	-0.045833	-0.36667	-0.54167	0.2875	-0.58125	-0.30417	-0.16042	-0.87292	-0.10417	255.513	335.614	193.130	177.242	454.501	155.355	476.557	431.615	252.016	179.203	161.357	467.967	475.089	477.094	209.988	149.988	0.001151	0.00085688	0.0001079	849.9	6.8958e-06	5.9139e-06	806.3	362.26	4.9942e-06	8.6261e-06	363.61	170.37	142	71.567	8.8818e-06	79.707	0.00099499	0.00097911	0.0002633	813.96	1.025e-05	1.0714e-05	772.68	348.23	1.0313e-05	1.0424e-05	347.76	163.73	136.99	69.466	1.0523e-05	77.259	152.948	225.808	259.980	153.782	278.988	296.389	152.485	158.355	269.751	275.700	156.627	159.183	163.019	166.361	257.297	162.705	-8191	255	
2722.777	1	1	0	0	0.13443	0.09295	0.16738	0.13715	0.17189	0.22455	0.02206	0.16951	0.33567	0.31726	0.15986	0.12402	0.10078	0.19427	0.10134	0.19496	0.10417	-0.52083	0.28333	-0.73958	-0.3125	0.11458	-0.77083	-0.16875	-0.15	-0.5625	0.25833	-0.75417	-0.46667	-0.12708	-0.49167	-0.04375	328.401	481.376	295.685	164.379	303.080	145.444	239.858	432.341	346.233	386.779	410.646	315.370	431.374	482.137	353.416	165.297	0.0011435	0.00071509	0.00018791	849.03	5.9459e-06	6.9752e-06	806.54	360.31	7.0667e-06	6.0351e-06	357.6	169.22	141.63	71.415	6.3458e-06	79.75	0.00098939	0.00095581	0.00026996	813.38	1.0098e-05	1.0435e-05	768.82	346.74	1.0184e-05	1.0365e-05	343.87	162.84	136.7	69.319	1.058e-05	77.161	152.735	223.572	218.351	154.055	261.893	311.668	152.463	158.623	268.038	255.256	156.266	159.356	163.202	166.389	282.510	163.028	-8191	255	
2722.875	1	1	0	0	0.12307	0.23069	0.22372	0.15636	0.29872	0.18799	0.14442	0.19019	0.078304	0.22164	0.075145	0.057081	0.13161	0.4756	0.27089	0.10296	0.12917	-0.54167	0.375	-0.4125	-0.46458	0.039583	-0.71875	-0.15417	-0.072917	-0.65417	0.23333	-0.55208	-0.34583	0.17292	-0.77917	-0.16875	230.273	172.110	364.691	448.564	435.160	166.235	478.599	209.338	227.313	363.914	378.252	411.488	491.368	443.622	274.668	251.388	0.0012388	0.00068025	0.00019824	852.41	7.7666e-06	7.9184e-06	801.25	361.72	5.3222e-06	8.4651e-06	359.08	168.85	141.06	71.503	8.8167e-06	79.737	0.00098637	0.00093732	0.00026561	813.85	9.9588e-06	1.0407e-05	765.4	346.55	1.0034e-05	1.0494e-05	344.79	162.44	136.3	69.227	9.9572e-06	77.128	155.912	247.975	223.763	154.233	282.787	302.955	152.134	158.588	256.324	303.778	156.161	159.303	163.098	166.367	261.571	163.017	-8191	255	
#DATA ENDS
