BOXY.EXE: ISS Imagent and Oximeter Data Acquisition Program Version 0.80
Ascii Record File

#ACQ INFORMATION
2  Detector Channels 
16  External MUX Channels 
1  Auxiliary Channels 
5000  Waveform (CCF) Frequency (Hz)
1  Waveforms Skipped 
30  Waveforms Averaged 
1  Cycles Averaged 
16  Acquisitions per Waveform 
10.0806  Updata Rate (Hz) 

#FILE INFORMATION
TRUE -- External MUX Channel results are PARSED.
FALSE -- AC DC and Phase are NOT grouped.
TRUE -- Companion Program Settings File CREATED.
FALSE -- AC data not excluded
FALSE -- DC data not excluded
FALSE -- Phase data not excluded
FALSE -- Auxillary Chn. data not excluded
Tab delimiters

#CALIBRATION STATE
TRUE -- Waveform Calibration Values APPLIED.


#AUX CALIBRATION VALUES
Val Type	aux-1	

Term	1.0000e+00	
Factor	0.0000e+00	


#WF CALIBRATION VALUES
A = Detector Channel
Val Type	A-AC1	A-AC2	A-AC3	A-AC4	A-AC5	A-AC6	A-AC7	A-AC8	A-AC9	A-AC10	A-AC11	A-AC12	A-AC13	A-AC14	A-AC15	A-AC16	A-DC1	A-DC2	A-DC3	A-DC4	A-DC5	A-DC6	A-DC7	A-DC8	A-DC9	A-DC10	A-DC11	A-DC12	A-DC13	A-DC14	A-DC15	A-DC16	A-Ph1	A-Ph2	A-Ph3	A-Ph4	A-Ph5	A-Ph6	A-Ph7	A-Ph8	A-Ph9	A-Ph10	A-Ph11	A-Ph12	A-Ph13	A-Ph14	A-Ph15	A-Ph16	

Term	0.00000e+00	0.00000e+00	0.00000e+00	0.00000e+00	0.00000e+00	0.00000e+00	0.00000e+00	0.00000e+00	0.00000e+00	0.00000e+00	0.00000e+00	0.00000e+00	0.00000e+00	0.00000e+00	0.00000e+00	0.00000e+00	0.00000e+00	0.00000e+00	0.00000e+00	0.00000e+00	0.00000e+00	0.00000e+00	0.00000e+00	0.00000e+00	0.00000e+00	0.00000e+00	0.00000e+00	0.00000e+00	0.00000e+00	0.00000e+00	0.00000e+00	0.00000e+00	0.00000e+00	0.00000e+00	0.00000e+00	0.00000e+00	0.00000e+00	0.00000e+00	0.00000e+00	0.00000e+00	0.00000e+00	0.00000e+00	0.00000e+00	0.00000e+00	0.00000e+00	0.00000e+00	0.00000e+00	0.00000e+00	
Factor	1.00000e+00	1.00000e+00	1.00000e+00	1.00000e+00	1.00000e+00	1.00000e+00	1.00000e+00	1.00000e+00	1.00000e+00	1.00000e+00	1.00000e+00	1.00000e+00	1.00000e+00	1.00000e+00	1.00000e+00	1.00000e+00	1.00000e+00	1.00000e+00	1.00000e+00	1.00000e+00	1.00000e+00	1.00000e+00	1.00000e+00	1.00000e+00	1.00000e+00	1.00000e+00	1.00000e+00	1.00000e+00	1.00000e+00	1.00000e+00	1.00000e+00	1.00000e+00	X	X	X	X	X	X	X	X	X	X	X	X	X	X	X	X	

B = Detector Channel
Val Type	B-AC1	B-AC2	B-AC3	B-AC4	B-AC5	B-AC6	B-AC7	B-AC8	B-AC9	B-AC10	B-AC11	B-AC12	B-AC13	B-AC14	B-AC15	B-AC16	B-DC1	B-DC2	B-DC3	B-DC4	B-DC5	B-DC6	B-DC7	B-DC8	B-DC9	B-DC10	B-DC11	B-DC12	B-DC13	B-DC14	B-DC15	B-DC16	B-Ph1	B-Ph2	B-Ph3	B-Ph4	B-Ph5	B-Ph6	B-Ph7	B-Ph8	B-Ph9	B-Ph10	B-Ph11	B-Ph12	B-Ph13	B-Ph14	B-Ph15	B-Ph16	

Term	0.00000e+00	0.00000e+00	0.00000e+00	0.00000e+00	0.00000e+00	0.00000e+00	0.00000e+00	0.00000e+00	0.00000e+00	0.00000e+00	0.00000e+00	0.00000e+00	0.00000e+00	0.00000e+00	0.00000e+00	0.00000e+00	0.00000e+00	0.00000e+00	0.00000e+00	0.00000e+00	0.00000e+00	0.00000e+00	0.00000e+00	0.00000e+00	0.00000e+00	0.00000e+00	0.00000e+00	0.00000e+00	0.00000e+00	0.00000e+00	0.00000e+00	0.00000e+00	-1.95322e+02	-1.31664e+02	-1.35514e+02	-1.83507e+02	-9.14092e+01	-5.93382e+01	-1.57852e+02	-1.62015e+02	-9.36674e+01	-6.54123e+01	-1.76234e+02	-1.71211e+02	-1.81698e+02	-1.78091e+02	-8.68548e+01	-1.51000e+02	
Factor	4.07472e-05	1.94038e-04	5.01386e-05	4.44362e-01	1.74494e-06	1.67566e-06	1.66286e-01	6.31906e-02	2.08765e-06	1.66474e-06	2.13853e-01	2.89034e-02	2.88634e-02	9.13376e-03	1.93495e-06	1.32076e-02	3.19055e-06	3.47120e-06	9.67125e-07	2.29784e-01	3.78690e-08	3.80063e-08	8.23849e-02	3.32550e-02	3.75348e-08	3.80335e-08	1.05779e-01	1.48008e-02	1.52162e-02	4.84302e-03	3.76195e-08	6.77457e-03	X	X	X	X	X	X	X	X	X	X	X	X	X	X	X	X	



#DISTANCE SETTINGS
A = Detector Channel
A-1	A-2	A-3	A-4	A-5	A-6	A-7	A-8	A-9	A-10	A-11	A-12	A-13	A-14	A-15	A-16	

2.5000e+00	3.0000e+00	2.5000e+00	3.0000e+00	2.0000e+00	3.0000e+00	1.5000e+00	3.0000e+00	3.0000e+00	3.0000e+00	3.0000e+00	3.0000e+00	3.0000e+00	3.0000e+00	1.5000e+00	3.0000e+00	

B = Detector Channel
B-1	B-2	B-3	B-4	B-5	B-6	B-7	B-8	B-9	B-10	B-11	B-12	B-13	B-14	B-15	B-16	

1.0000e+01	1.0000e+01	1.0000e+01	1.4400e+00	1.0000e+01	1.0000e+01	1.5100e+00	1.9400e+00	1.0000e+01	1.0000e+01	1.9900e+00	2.4900e+00	2.4100e+00	2.9000e+00	1.0000e+01	2.9800e+00	




#DATA BEGINS
time	group	step	mark	flag	A-AC1	A-AC2	A-AC3	A-AC4	A-AC5	A-AC6	A-AC7	A-AC8	A-AC9	A-AC10	A-AC11	A-AC12	A-AC13	A-AC14	A-AC15	A-AC16	A-DC1	A-DC2	A-DC3	A-DC4	A-DC5	A-DC6	A-DC7	A-DC8	A-DC9	A-DC10	A-DC11	A-DC12	A-DC13	A-DC14	A-DC15	A-DC16	A-Ph1	A-Ph2	A-Ph3	A-Ph4	A-Ph5	A-Ph6	A-Ph7	A-Ph8	A-Ph9	A-Ph10	A-Ph11	A-Ph12	A-Ph13	A-Ph14	A-Ph15	A-Ph16	B-AC1	B-AC2	B-AC3	B-AC4	B-AC5	B-AC6	B-AC7	B-AC8	B-AC9	B-AC10	B-AC11	B-AC12	B-AC13	B-AC14	B-AC15	B-AC16	B-DC1	B-DC2	B-DC3	B-DC4	B-DC5	B-DC6	B-DC7	B-DC8	B-DC9	B-DC10	B-DC11	B-DC12	B-DC13	B-DC14	B-DC15	B-DC16	B-Ph1	B-Ph2	B-Ph3	B-Ph4	B-Ph5	B-Ph6	B-Ph7	B-Ph8	B-Ph9	B-Ph10	B-Ph11	B-Ph12	B-Ph13	B-Ph14	B-Ph15	B-Ph16	aux-1	digaux	

2258.756	1	1	0	768	0.17712	0.19329	0.17046	0.28837	0.11358	0.12791	0.20074	0.24136	0.18293	0.13068	0.029089	0.15061	0.22067	0.19088	0.17817	0.30377	-2.6146	-2.8563	-2.7812	-3.0167	-2.9292	-2.9104	-3.1104	-2.8604	-3.0938	-2.9833	-2.8792	-3.2042	-2.8708	-2.8187	-3.1604	-2.9542	335.945	194.729	434.476	386.451	227.260	256.297	470.117	214.240	237.551	318.232	347.705	128.708	221.030	394.160	137.409	470.824	0.00017233	0.0035291	0.0022149	976.18	6.5489e-05	2.1238e-05	930.2	278.53	7.8372e-05	4.6219e-05	300.65	89.686	81.551	25.535	0.00011853	37.24	0.023314	0.023069	0.0065969	2790.1	0.00027267	0.00025021	1492.7	544.28	0.00026899	0.00025132	1049	210.09	191.25	57.837	0.00027889	92.745	288.294	341.281	143.046	141.493	377.230	450.121	140.448	145.787	332.352	362.720	142.214	149.497	149.794	155.625	196.107	153.010	-8191	255	
2258.852	1	1	0	0	0.029241	0.2193	0.063667	0.055427	0.12698	0.18302	0.35144	0.13547	0.19132	0.23081	0.22972	0.092704	0.30177	0.16624	0.18323	0.50073	-2.3271	-3.1063	-2.7458	-3.0729	-2.9417	-2.8937	-3.3771	-2.8063	-3.0271	-3.1208	-2.5917	-3.0458	-2.9021	-2.8708	-3.125	-2.9104	367.595	473.105	173.191	311.477	335.855	143.988	466.890	437.572	145.409	419.174	133.365	330.141	476.863	196.150	137.738	433.120	0.00040394	0.0026438	0.0030795	980.16	4.5003e-05	7.3783e-06	937.46	280.43	1.9687e-05	1.7919e-05	301.99	90.722	83.32	25.994	5.481e-05	38.215	0.022928	0.023018	0.0073106	2807.4	0.00026983	0.00025316	1577.4	546.75	0.0002678	0.00025389	1128.5	208.28	189.31	58.576	0.00029861	91.094	483.649	170.637	143.984	142.034	380.341	431.526	140.299	146.277	311.201	317.896	143.243	149.448	150.084	155.006	168.571	154.179	-8191	255	
2258.948	1	1	0	0	0.1522	0.12285	0.11706	0.17483	0.055042	0.11523	0.22459	0.099792	0.11398	0.15297	0.32681	0.18139	0.32048	0.18206	0.14516	0.1099	-2.3771	-3.1583	-2.8187	-3.2542	-2.9042	-2.7104	-3.3625	-2.9542	-3.15	-3.0979	-2.9437	-3.0187	-2.8583	-2.6979	-3.0708	-2.7979	397.488	432.839	420.487	341.555	403.595	284.551	445.190	446.031	275.230	434.481	283.403	136.153	429.067	396.509	240.419	333.130	0.0015993	0.0035226	0.0016649	979.65	1.4652e-05	3.6586e-05	951.35	280.02	5.867e-05	9.0707e-05	296.71	93.457	82.824	27.244	9.9862e-06	40.213	0.021995	0.023225	0.0076795	2688	0.00025704	0.00025794	1610.9	528.53	0.00025388	0.00025877	1135.6	198.67	180.59	59.56	0.00028728	86.542	143.479	145.897	185.490	141.839	480.606	214.715	140.362	146.135	399.847	222.007	144.415	149.164	149.788	154.378	364.225	153.350	-8191	255	
2259.045	1	1	0	0	0.13919	0.29715	0.22101	0.13415	0.10314	0.10858	0.081796	0.2605	0.15564	0.075755	0.26314	0.13971	0.18101	0.2559	0.22824	0.31902	-2.4562	-3.1125	-2.8958	-3.0438	-3.0646	-2.7062	-3.2	-3.0917	-2.8917	-3.3	-2.55	-3.0187	-2.9062	-2.825	-3.2771	-3.0375	450.665	481.505	406.983	339.056	483.923	467.307	467.815	458.731	466.134	198.391	292.144	316.725	128.446	363.734	426.199	317.997	0.00017943	0.0093263	6.9643e-05	974.1	4.4755e-05	7.9015e-05	940.92	281.81	4.4793e-05	7.8326e-05	296.6	95.204	85.731	27.124	5.7471e-05	40.375	0.019808	0.022964	0.0071234	2460.6	0.0002259	0.00025035	1531.8	489.71	0.00021826	0.00025107	1036.5	188.05	173.1	60.633	0.00026467	83.153	468.718	143.746	189.371	141.412	327.067	226.719	140.534	145.870	303.265	196.503	144.669	149.236	150.076	155.004	348.645	153.353	-8191	255	
2259.141	1	1	0	0	0.064757	0.16173	0.11347	0.1866	0.2817	0.29683	0.16542	0.15455	0.093715	0.27742	0.23517	0.047219	0.080748	0.087974	0.17487	0.3803	-2.5417	-3.125	-2.875	-2.9583	-2.9896	-2.7	-3.15	-2.9396	-2.8542	-3.1583	-2.9875	-2.8896	-3.1125	-2.7604	-3.2062	-2.8292	387.460	348.760	463.368	305.414	448.052	377.512	477.951	481.227	420.828	359.631	139.986	260.166	154.040	336.586	296.560	374.819	0.0014341	0.0077943	0.0015685	1002.6	3.4288e-05	6.8671e-05	951.11	284.1	6.105e-05	8.9263e-06	299.63	96.413	86.349	27.971	6.5875e-05	41.246	0.018782	0.023893	0.0066298	2388.8	0.00021909	0.00026256	1498.7	481.17	0.00021725	0.00026149	984.18	182.88	173.23	61.309	0.00023637	80.294	479.435	168.649	325.807	141.926	180.466	237.017	140.562	146.089	223.574	244.125	145.322	149.584	149.789	155.006	369.889	153.505	-8191	255	
2259.237	1	1	0	0	0.25666	0.31844	0.24191	0.1187	0.18552	0.18805	0.10846	0.2211	0.1777	0.11289	0.12423	0.049791	0.12297	0.17284	0.053914	0.21551	-2.3625	-2.8833	-2.9979	-2.8063	-3.1104	-2.6604	-3.1417	-3.0187	-2.8646	-3.0542	-2.7771	-2.8104	-2.8833	-2.8667	-3	-2.9604	397.884	182.110	141.016	405.625	458.909	448.121	384.546	138.981	435.372	394.099	401.402	379.865	377.670	366.284	209.059	168.420	0.0019073	0.0030094	0.0017459	1006.5	5.1284e-05	2.1355e-05	961.51	287.75	7.1984e-05	2.0167e-05	308.26	97.978	88.674	28.457	3.1262e-05	42.25	0.018545	0.023527	0.0059483	2291.1	0.00022387	0.00025995	1468.1	471.06	0.00022628	0.00025633	934.66	179.67	179.78	61.037	0.00022349	80.153	465.672	171.931	343.473	141.667	171.701	159.029	140.617	146.055	170.828	166.486	145.018	149.035	149.007	155.758	304.982	152.954	-8191	255	
2259.357	1	1	0	0	0.052084	0.15972	0.11874	0.12403	0.22496	0.12189	0.21655	0.15602	0.16738	0.33811	0.32953	0.14509	0.29036	0.072584	0.075162	0.17804	-2.3542	-3.0271	-3.0292	-2.625	-3.1917	-2.5958	-3.0292	-2.8563	-2.8688	-2.9646	-2.8375	-3	-3.1042	-2.8333	-2.9062	-2.9771	474.453	447.609	439.586	231.350	188.463	447.525	423.536	406.550	292.074	415.837	199.063	184.290	448.359	440.410	161.546	389.564	0.0029788	0.0091649	0.0015021	1024	7.7006e-05	5.7941e-05	968.98	290.35	6.181e-05	2.8074e-05	307.45	99.949	89.339	28.014	1.3245e-05	42.597	0.020347	0.023382	0.0058355	2301.7	0.00024857	0.00025742	1471.1	477.81	0.00025253	0.00025522	943.38	184.52	192.04	60.758	0.00022583	82.299	448.509	309.480	333.998	140.980	183.897	388.250	140.599	146.025	201.388	362.989	144.886	148.668	149.716	155.659	296.873	153.313	-8191	255	
2259.454	1	1	0	0	0.13957	0.054341	0.11964	0.12821	0.173	0.21349	0.15432	0.087316	0.17896	0.10895	0.043081	0.085296	0.027678	0.11117	0.16569	0.13243	-2.3396	-2.7917	-2.7938	-2.7479	-3.0229	-2.8979	-2.9042	-3.1667	-2.8104	-3.0583	-2.8271	-2.6896	-3.0563	-2.7479	-2.8396	-3.1063	308.937	199.484	209.419	175.489	407.745	265.199	332.088	459.160	388.133	257.119	331.011	134.558	364.552	350.866	324.096	225.173	0.0013265	0.0010049	0.00050035	1025.3	1.1323e-05	5.1496e-05	963.73	291.13	3.7318e-05	3.9737e-05	307.34	97.233	86.48	27.438	1.6258e-05	41.221	0.022384	0.022942	0.0057795	2365.2	0.00026534	0.00024502	1450.5	485.59	0.00026129	0.00023882	904.8	186	190.26	57.185	0.00020984	81.714	466.675	301.538	336.851	140.781	433.400	407.303	140.314	145.914	201.950	391.543	145.083	148.932	150.458	155.723	294.069	153.411	-8191	255	
2259.548	1	1	0	0	0.088077	0.11498	0.15248	0.15561	0.049909	0.21986	0.054345	0.15033	0.21701	0.19585	0.15109	0.13429	0.17372	0.21072	0.15912	0.19491	-2.6813	-2.9479	-2.8896	-2.7792	-2.8667	-2.7042	-2.85	-3.3708	-2.7062	-3.075	-3.0396	-2.7	-2.9896	-2.8187	-2.6	-3.1604	269.298	238.705	158.972	194.765	451.314	474.527	185.857	419.118	373.587	281.175	319.109	155.419	479.781	195.914	184.426	167.280	9.9061e-05	0.0015282	0.00068296	1012.9	4.8445e-05	1.3063e-05	950.52	289.33	6.5344e-05	1.2923e-05	308.26	97.955	85.776	27.881	5.0154e-05	41.568	0.021441	0.020572	0.0052469	2376.2	0.00024657	0.00021913	1392.3	484.31	0.00023635	0.00021306	844.98	186.7	180.38	54.658	0.00019674	83.264	192.515	265.553	299.797	140.713	355.562	268.918	140.332	145.968	369.120	273.526	144.297	148.956	150.263	155.202	189.388	153.256	-8191	255	
2259.646	1	1	0	0	0.34719	0.15611	0.1373	0.14304	0.06515	0.13795	0.14765	0.22448	0.31809	0.13961	0.15685	0.086199	0.10534	0.22276	0.23214	0.30128	-2.3187	-2.6	-3.0125	-2.6063	-3.0729	-2.9167	-2.9396	-3.0604	-2.875	-2.8479	-3.1292	-2.4458	-3.0729	-3.0354	-2.8604	-2.9271	409.081	394.207	424.890	191.979	270.817	349.425	464.979	362.530	181.707	241.589	383.008	452.824	425.256	430.812	340.946	446.789	0.00095221	0.0015506	0.0012918	1018.4	6.4728e-06	3.0705e-05	961.27	290.75	6.0608e-05	1.0726e-05	308.77	98.164	86.31	27.744	5.2178e-05	41.268	0.019792	0.019247	0.0051221	2450.8	0.00023181	0.00021109	1404.3	502.11	0.00022912	0.00021299	885.49	196.07	180.18	55.207	0.00021681	87.327	163.192	366.062	150.817	140.936	367.810	420.183	140.450	146.108	340.285	453.097	144.821	149.434	150.599	155.760	180.057	152.975	-8191	255	
2259.740	1	1	0	0	0.25897	0.14659	0.2539	0.21135	0.25917	0.26497	0.35352	0.30609	0.18142	0.10099	0.29063	0.071478	0.22473	0.15262	0.09839	0.24683	-2.275	-2.5938	-2.9313	-2.8042	-2.8063	-2.7687	-2.8604	-3.0167	-2.9479	-2.6896	-3.1104	-2.7875	-2.9833	-3.0417	-2.6958	-3.25	179.742	332.941	167.704	450.519	284.171	460.758	342.229	137.593	128.808	301.528	175.752	436.625	344.566	142.036	331.398	404.210	0.00046304	0.0028243	0.0014683	1016.4	3.4691e-05	2.9591e-05	961.08	286.5	4.9324e-05	2.4127e-05	309.97	95.57	85.93	27.279	8.0559e-05	41.068	0.019613	0.019614	0.0057197	2573.3	0.00023174	0.0002127	1455.3	509.98	0.00022441	0.00021073	945.26	195.96	175.96	54.254	0.00023553	86.644	484.937	317.496	167.041	141.969	435.405	454.297	140.433	145.789	355.801	253.587	143.857	149.793	150.333	155.176	216.602	153.628	-8191	255	
2259.836	1	1	0	0	0.12664	0.30702	0.19481	0.19843	0.052076	0.1311	0.13335	0.14573	0.26602	0.26102	0.13076	0.11995	0.24993	0.28694	0.036176	0.078804	-2.5354	-2.65	-3.1104	-2.7417	-2.8833	-3.1354	-2.8833	-3.1354	-2.725	-2.8625	-3.1167	-3.0292	-2.9229	-3.0354	-2.8229	-3.1917	298.554	199.686	142.430	448.304	458.013	477.103	408.397	419.286	371.098	315.310	460.877	433.643	145.750	437.165	370.401	377.880	0.0011194	0.0021923	0.0017149	1008.3	8.4446e-06	2.2726e-05	962.22	286.53	1.8587e-05	3.1034e-05	311.08	98.111	86.714	28.106	3.9646e-05	41.38	0.018881	0.019048	0.0061867	2511.9	0.00022329	0.0002111	1502.5	503.98	0.00022152	0.00021456	1011.9	194.61	175.68	55.472	0.0002543	85.1	486.677	214.645	156.393	141.933	413.011	144.903	140.376	146.099	403.944	184.212	144.130	149.607	150.364	154.934	176.795	153.604	-8191	255	
2259.957	1	1	0	0	0.01756	0.085511	0.14505	0.19613	0.060665	0.17054	0.16553	0.22462	0.090379	0.34512	0.075201	0.07902	0.26449	0.12397	0.14897	0.25149	-2.5771	-2.7896	-2.8812	-2.8063	-2.5729	-3.3021	-2.8979	-3.1271	-3.0812	-2.7771	-3.0312	-2.8688	-2.9188	-3.0833	-2.8125	-2.9313	486.323	220.381	355.424	312.443	272.546	217.540	427.361	166.651	245.444	165.183	152.673	325.243	186.473	162.236	396.290	388.427	0.0011306	0.0085576	0.0018618	984.58	2.4967e-05	4.4139e-05	961.42	285.1	1.1829e-05	6.005e-05	309.19	95.092	86.009	27.767	3.2308e-05	40.442	0.018643	0.020002	0.0066038	2447.3	0.00021783	0.00022428	1535.8	496.22	0.00021804	0.00023164	1044	189.69	174.36	57.917	0.00026659	83.901	438.984	163.417	189.011	142.194	408.565	185.419	140.264	146.381	440.150	201.126	144.545	149.796	150.163	154.756	336.698	153.553	-8191	255	
2260.053	1	1	0	0	0.1144	0.14533	0.25313	0.16608	0.27577	0.2147	0.16675	0.27146	0.10651	0.09051	0.14498	0.21256	0.18746	0.1958	0.051514	0.033308	-2.5229	-2.5792	-3.025	-2.9146	-2.8396	-2.9875	-2.8271	-2.9938	-3.0083	-2.8208	-3.2479	-2.8521	-2.6813	-3.1396	-2.8375	-3.0146	471.178	176.794	174.898	282.460	330.835	445.044	454.308	436.000	351.721	344.953	234.458	433.094	434.687	462.909	379.390	132.484	0.0011152	0.0067813	0.001261	993.24	2.2858e-05	7.0349e-05	947.56	282.33	3.1238e-05	6.6641e-05	300.21	95.635	86.26	28.138	6.8041e-05	41.361	0.018658	0.022534	0.0069029	2449.6	0.00022431	0.00025714	1549.9	495.79	0.0002243	0.00026489	1056	191.75	177.72	62.656	0.00026954	85.213	470.680	173.027	293.903	142.244	252.338	215.916	140.674	145.959	129.384	205.684	144.920	149.229	150.167	155.161	372.776	152.870	-8191	255	
2260.149	1	1	0	0	0.10393	0.10155	0.0957	0.21024	0.30085	0.17483	0.060851	0.15994	0.104	0.22197	0.28643	0.13456	0.10618	0.33492	0.086679	0.13192	-2.4708	-2.9313	-2.8375	-3.0542	-2.6417	-3.0167	-2.8979	-2.7	-3.0563	-2.5021	-3.1458	-3.0563	-2.7583	-3.1771	-2.7188	-2.8104	329.449	333.817	274.200	436.197	276.276	483.954	377.353	411.162	311.600	323.333	248.450	358.021	182.072	456.098	130.631	210.737	0.0018017	0.0046716	0.0021969	986.53	4.7403e-05	4.8335e-05	942.22	278.75	7.7886e-05	1.9866e-05	305.6	96.141	86.485	27.901	6.9173e-05	41.616	0.019533	0.02535	0.0068561	2442.9	0.00023433	0.00028126	1529.3	493.95	0.00024036	0.00029421	1057.3	194.16	187.41	66.818	0.00027675	88.21	473.019	153.952	306.370	141.490	203.063	202.052	140.419	145.936	172.391	273.294	144.706	149.649	149.363	155.358	347.695	153.253	-8191	255	
2260.246	1	1	0	0	0.18952	0.026798	0.38191	0.035321	0.19102	0.047261	0.21572	0.098315	0.08492	0.037971	0.18869	0.052506	0.21206	0.054479	0.10137	0.094711	-2.6854	-2.6833	-2.8583	-3.0812	-2.7021	-2.9146	-2.975	-2.8083	-3.1063	-2.7271	-3.1312	-3.1292	-2.6312	-3.2375	-2.8854	-2.8396	266.768	370.055	192.518	395.499	162.589	325.921	441.076	420.154	181.060	258.134	452.622	142.230	198.229	164.718	353.058	346.739	0.0023747	0.002905	0.0012163	979.66	0.00013028	1.9997e-05	935.99	276.86	0.00010936	3.1722e-05	302.96	95.863	85.582	27.784	6.9509e-05	41.902	0.02304	0.029473	0.0074847	2626.6	0.00029574	0.00033545	1596.2	519.37	0.00030057	0.0003344	1121.2	203.57	208.78	69.917	0.00028962	91.079	464.363	295.489	324.406	142.314	191.721	163.609	140.125	146.113	185.679	411.061	145.132	149.548	148.679	155.616	347.666	153.245	-8191	255	
2260.342	1	1	0	0	0.13526	0.16061	0.27387	0.056957	0.10239	0.1044	0.18741	0.051961	0.21947	0.14847	0.075538	0.13167	0.28118	0.13111	0.078653	0.034236	-2.6583	-2.8292	-2.8542	-3.0375	-2.7062	-2.8812	-3.0312	-2.8833	-3.0687	-2.8625	-2.8604	-3.0187	-2.7438	-2.9	-3.2313	-2.7667	239.184	359.681	297.089	312.770	411.928	145.883	447.946	243.434	414.253	334.766	232.077	299.478	379.084	151.212	328.214	318.411	0.0024279	0.0035516	0.0004189	969.51	5.8515e-05	7.1974e-05	930.75	279.61	0.00013313	5.194e-05	296.67	97.088	85.445	27.597	6.5441e-05	42.868	0.026026	0.029037	0.0072103	2562.9	0.00030645	0.00030828	1543.8	507.97	0.00030689	0.00030525	1061.5	199.56	209.71	65.856	0.00026872	89.832	457.047	331.354	316.291	141.311	198.917	377.605	140.259	145.874	168.920	371.745	145.145	149.373	149.706	155.730	373.213	152.863	-8191	255	
2260.438	1	1	0	0	0.028092	0.1171	0.24964	0.18971	0.070595	0.17875	0.21596	0.20192	0.089385	0.27462	0.11398	0.05183	0.1405	0.15419	0.29846	0.047211	-2.7354	-3.0083	-2.7417	-3.1146	-2.7208	-3.1458	-2.9917	-2.6125	-3.025	-2.5646	-2.7875	-3.0854	-2.9208	-3.05	-2.8458	-2.9229	320.139	366.836	195.982	439.259	404.413	277.431	436.030	420.184	448.030	154.271	199.028	436.109	133.462	183.101	423.274	294.860	0.0011399	0.003216	0.00056878	997.21	2.4002e-05	4.1005e-05	947.57	283.51	4.6343e-05	3.8032e-05	298.66	100.65	86.778	28.984	1.5041e-05	44.801	0.026187	0.02677	0.0068081	2594.7	0.00030999	0.00028474	1511.3	513.33	0.00029702	0.00027485	995.14	203.27	205.59	63.233	0.00024257	92.412	414.004	302.488	280.152	140.322	187.664	395.000	140.309	145.998	249.860	344.492	144.477	148.934	150.541	155.762	412.429	152.443	-8191	255	
2260.534	1	1	0	0	0.027237	0.1577	0.21519	0.064857	0.095896	0.049445	0.049962	0.29702	0.28103	0.17642	0.12159	0.10202	0.12855	0.28477	0.018423	0.16221	-2.7479	-2.7729	-2.6937	-3.1104	-2.6813	-2.8812	-3.1333	-2.6583	-3.0271	-2.6792	-2.8104	-3.2979	-2.8979	-2.9917	-3.0604	-2.8312	266.723	395.970	486.929	184.604	304.205	366.843	190.916	437.620	415.265	380.318	483.214	401.465	187.978	317.152	393.878	381.730	0.00056732	0.0042416	0.000864	1013.3	1.0467e-05	3.1722e-05	952.24	286.89	4.7847e-05	3.1234e-05	308.22	102.93	88.222	29.004	2.1293e-05	44.725	0.024522	0.024213	0.0062356	2643.7	0.00029363	0.00026534	1495.7	532.1	0.00028938	0.00026918	1009.7	216.87	208.49	64.408	0.00025644	99.494	245.472	361.934	279.813	141.283	339.101	402.673	140.416	145.524	408.263	369.351	144.512	149.080	150.375	155.259	214.324	153.079	-8191	255	
2260.628	1	1	0	0	0.085846	0.23477	0.19393	0.03588	0.059942	0.23634	0.046864	0.4038	0.22381	0.24147	0.38578	0.19015	0.25483	0.27864	0.12981	0.10907	-2.625	-2.9521	-2.7083	-2.8771	-2.8646	-2.8354	-3.2625	-2.8229	-2.8917	-2.9062	-2.7271	-3.3292	-2.8354	-2.8792	-3.0458	-2.8563	151.435	477.626	445.486	247.705	235.034	232.780	190.576	440.564	293.468	341.648	139.169	147.879	386.696	439.169	145.898	434.750	0.000881	0.0086455	0.0020594	1005.8	7.9699e-05	2.8686e-05	967.66	286.75	4.9675e-05	2.9595e-05	317.05	101.72	87.558	28.787	9.9119e-05	43.611	0.025189	0.025266	0.0067673	2893.3	0.0003048	0.00028019	1563.1	572.53	0.00030587	0.00028702	1110	233.34	213.11	65.664	0.00029245	105.06	165.123	310.600	186.497	140.357	367.912	427.187	139.975	145.741	373.844	415.960	143.936	149.190	149.620	155.217	225.025	153.181	-8191	255	
2260.726	1	1	0	0	0.10167	0.12097	0.26819	0.031343	0.22996	0.16031	0.27006	0.15036	0.26476	0.034717	0.12713	0.13537	0.22056	0.23908	0.12634	0.23053	-2.5292	-2.8708	-2.625	-3.0417	-2.8604	-2.5917	-3.1792	-2.6958	-3.0167	-3.0521	-2.7188	-3.2417	-3.0333	-2.8625	-2.9562	-2.8271	333.454	456.292	149.479	403.534	141.959	315.734	404.368	353.601	370.373	360.580	413.562	143.301	195.192	484.772	323.095	187.782	0.00076489	0.0043461	0.0026254	981.01	1.149e-05	4.8686e-05	949.75	277.36	4.1109e-05	3.0015e-05	312.91	95.864	84.873	27.624	5.0117e-05	41.043	0.025828	0.025793	0.0075631	2969	0.00029562	0.00026846	1577.2	556.06	0.00027952	0.00026138	1105.6	217.01	195.97	60.075	0.000287	95.254	263.297	343.545	160.313	141.352	268.157	379.311	139.671	145.947	340.751	381.796	143.639	148.951	149.974	154.973	211.848	152.987	-8191	255	
2260.845	1	1	0	0	0.10711	0.29118	0.38295	0.03045	0.18485	0.062767	0.075585	0.12382	0.21016	0.090411	0.077257	0.15537	0.039908	0.11441	0.1998	0.05765	-2.2708	-2.9146	-2.4083	-3.0896	-2.7792	-2.6854	-3.1021	-2.8729	-2.8583	-2.9479	-2.8125	-3.0708	-3.2083	-2.7917	-2.8333	-2.9104	318.327	154.077	440.662	314.682	215.618	164.603	197.385	460.759	476.406	267.164	425.821	453.624	452.005	169.617	465.689	334.189	0.00044856	0.0063001	0.0017719	970.28	7.1564e-06	5.5495e-05	931.37	274.89	7.1425e-05	3.267e-05	299.26	97.342	85.322	28.004	3.0098e-05	41.967	0.022529	0.022705	0.00731	2692.4	0.00026064	0.00024663	1563.6	528.55	0.00025871	0.00025241	1124.8	209.27	189.37	60.539	0.00029352	92.259	196.833	273.817	140.459	142.200	471.999	239.333	140.129	145.843	341.556	296.232	143.484	149.376	149.321	154.457	208.720	152.723	-8191	255	
2260.919	1	1	0	0	0.09767	0.17614	0.12796	0.13905	0.1447	0.33733	0.076519	0.26086	0.033231	0.024226	0.17912	0.2455	0.058875	0.10167	0.077002	0.0099284	-2.2375	-3.1083	-2.6937	-2.9146	-2.9667	-2.5687	-3.2229	-2.725	-2.7708	-2.9167	-2.7396	-2.8458	-3.0458	-2.7625	-3.0896	-2.8875	158.920	136.493	128.985	175.386	279.610	180.194	139.368	144.747	394.104	399.533	416.746	159.209	260.362	382.178	377.114	280.194	0.00092685	0.0085271	0.00049101	971.05	3.0234e-05	6.2461e-05	931.25	275.47	4.4712e-06	8.8176e-05	303.44	98.513	84.618	28.162	2.2353e-05	41.822	0.021427	0.023182	0.0075708	2613.3	0.00025143	0.00025834	1569.2	509.69	0.00024066	0.00025812	1104.4	200.29	181.73	61.68	0.00028366	88.488	163.521	162.620	156.369	141.323	372.313	243.956	140.377	145.872	341.799	222.459	145.076	149.358	150.221	154.415	429.976	153.284	-8191	255	
2261.037	1	1	0	0	0.3716	0.086056	0.1917	0.14136	0.093358	0.25453	0.21106	0.3276	0.044472	0.23538	0.13397	0.18279	0.26553	0.20329	0.085683	0.23483	-2.4354	-3.0104	-2.7938	-2.9625	-3.0458	-2.6375	-3.175	-2.7917	-2.7729	-3.125	-2.9125	-2.9417	-3.2354	-2.7854	-2.725	-2.9625	288.818	236.439	212.213	237.456	284.300	215.597	345.276	393.368	253.737	351.008	469.539	421.527	460.158	370.848	137.768	366.149	0.00040546	0.0078257	0.00077676	959.19	8.3448e-06	6.6084e-05	911.91	271.3	3.5095e-05	3.663e-05	298.65	98.939	86.299	28.304	5.9015e-05	42.329	0.01999	0.024167	0.0072058	2485.2	0.00023602	0.00026987	1524.7	492.16	0.00023132	0.00027167	1058.3	195.27	178.57	63.385	0.00026758	86.873	151.166	136.676	236.273	141.191	410.226	235.672	140.419	146.136	209.199	233.255	145.454	149.065	149.579	154.542	366.104	153.603	-8191	255	
2261.134	1	1	0	0	0.14211	0.17742	0.13238	0.044572	0.088018	0.15146	0.15667	0.11037	0.14439	0.16068	0.10332	0.25027	0.18704	0.10985	0.15308	0.36748	-2.2417	-3.0833	-2.7188	-2.8646	-3.0083	-2.8646	-3.0354	-3.1167	-2.7646	-3.075	-2.9792	-2.7396	-3.2396	-2.7104	-2.9979	-3.1104	370.892	177.982	330.667	291.611	312.035	297.787	465.210	355.902	448.886	194.487	204.804	355.839	132.858	411.511	431.587	449.097	0.0024646	0.0047314	0.0017368	945.68	6.5874e-05	6.7676e-05	918.62	272.28	7.6601e-05	3.3802e-05	295.03	97.177	86.406	27.372	5.9649e-05	41.166	0.02	0.025493	0.0068247	2413.3	0.00023712	0.00028187	1489.3	482.87	0.00023744	0.00028099	1015.6	190.31	183.1	63.915	0.00025431	83.227	454.310	170.803	306.345	141.782	167.869	235.574	140.404	145.874	208.319	233.327	144.238	149.341	149.468	155.369	383.125	152.805	-8191	255	
2261.230	1	1	0	0	0.26335	0.099199	0.062688	0.18217	0.21126	0.072809	0.25738	0.19737	0.25734	0.094606	0.22294	0.12835	0.052062	0.071668	0.10954	0.23553	-2.3792	-3.0458	-2.8312	-2.9292	-2.8271	-2.7604	-3.0583	-3.1708	-2.7646	-3.0187	-2.8063	-2.7687	-3	-2.75	-3	-3	381.241	282.243	474.215	343.815	342.109	347.048	391.979	377.881	467.596	404.276	435.232	469.726	377.273	157.041	426.405	392.323	0.0030593	0.001895	0.0010726	948.62	6.8087e-05	9.4383e-06	912.47	270.92	7.9261e-05	3.8799e-05	295.38	96.783	86.295	27.592	1.8468e-05	41.515	0.021093	0.025659	0.0064509	2348.6	0.00025387	0.00028307	1463.7	477.81	0.00026178	0.00028261	996.7	188.16	190.99	62.784	0.00024101	81.818	468.946	268.704	331.045	141.510	214.204	191.392	140.423	145.945	191.747	351.003	145.358	149.088	149.107	155.343	202.090	153.386	-8191	255	
2261.326	1	1	0	0	0.025044	0.086199	0.22512	0.051394	0.20477	0.099689	0.10353	0.19465	0.035718	0.13675	0.31087	0.26034	0.14158	0.084463	0.067405	0.18372	-2.3312	-2.9708	-2.9625	-2.8021	-3.0604	-2.9292	-2.9333	-3.2417	-2.6208	-3.2313	-2.7229	-2.7875	-2.9229	-2.8667	-2.8042	-3.0854	471.915	271.194	254.929	417.892	323.467	467.151	406.058	146.655	162.500	138.622	317.322	148.942	241.874	314.907	468.618	389.093	0.002439	0.0046799	0.001157	941.48	8.6497e-05	4.8734e-05	904.5	273.71	5.7834e-05	7.3701e-05	293.96	98.358	86.492	27.89	4.3123e-05	42.152	0.022174	0.02407	0.0060375	2274.8	0.00026053	0.00025763	1413.6	466.6	0.00026168	0.00025294	928.33	185.64	191.66	59.942	0.0002246	82.884	448.349	355.090	328.704	140.654	163.408	412.954	140.158	146.243	197.870	388.504	144.778	148.609	149.409	155.212	376.729	153.083	-8191	255	
2261.447	1	1	0	0	0.089822	0.22026	0.20838	0.28798	0.37087	0.030988	0.16878	0.1303	0.11776	0.20388	0.14598	0.23261	0.17819	0.060594	0.13346	0.13101	-2.3042	-3.1063	-2.9417	-2.5667	-2.9938	-2.7979	-2.9708	-3.0875	-2.5667	-2.9813	-2.9313	-2.6479	-3.0625	-2.9562	-2.7208	-3.1521	457.596	332.785	431.920	400.635	478.209	178.065	467.283	423.325	360.737	231.884	317.433	413.920	218.916	328.262	258.568	231.715	0.00097238	0.005598	0.0013756	961.7	2.521e-05	4.4855e-05	915.28	276.33	4.7603e-05	4.393e-05	296.7	100.13	86.695	27.999	1.5706e-05	43.139	0.022721	0.022713	0.0057945	2367.6	0.00027042	0.0002463	1400.9	481.42	0.00026593	0.00023986	905.82	192.66	191.3	58.384	0.00021454	85.924	459.749	363.826	387.068	140.513	135.023	485.487	140.464	145.463	368.061	416.977	145.267	148.680	150.170	155.365	152.094	152.640	-8191	255	
2261.541	1	1	0	0	0.14579	0.23582	0.30468	0.23269	0.13233	0.11447	0.15146	0.22162	0.02078	0.12883	0.27052	0.065312	0.18717	0.11882	0.20718	0.089516	-2.4646	-2.8063	-3.1229	-2.6542	-3.0146	-2.8083	-2.9042	-3.2188	-2.8771	-2.8521	-3.1688	-2.6729	-3.0542	-2.8375	-2.9062	-2.9646	271.819	424.588	402.792	366.994	284.799	216.703	395.573	389.194	227.274	324.805	213.233	338.930	405.030	310.957	477.871	240.794	0.00068103	0.0038474	0.00038498	967.83	1.4424e-05	5.3016e-05	918.93	275.64	7.6551e-05	3.4514e-05	304.68	99.914	85.895	28.178	3.5386e-05	42.189	0.021733	0.021002	0.0053943	2404.4	0.00024854	0.00022332	1368.2	485.76	0.00024046	0.00021891	869.01	194.56	181.08	55.84	0.00020541	86.31	158.560	312.220	401.977	140.726	364.389	445.421	140.570	145.965	355.374	373.869	143.545	149.307	150.359	155.504	204.192	152.624	-8191	255	
2261.614	1	1	0	0	0.17688	0.15279	0.26112	0.02639	0.19363	0.23745	0.1293	0.30554	0.015977	0.1809	0.2895	0.13301	0.10498	0.15405	0.079976	0.1841	-2.3417	-2.9542	-2.9667	-2.7354	-2.8812	-2.9625	-2.7833	-3.1104	-2.7062	-2.9062	-2.8187	-2.7271	-2.925	-2.9104	-2.7562	-3.2104	251.450	294.679	482.353	471.248	359.316	256.181	377.166	444.430	331.007	387.850	136.643	439.105	426.151	243.862	443.901	412.327	0.00091358	0.0015081	0.0011373	960.49	3.9186e-05	1.9072e-05	924.75	275.93	3.9836e-05	1.3389e-05	306.43	98.268	86.49	27.849	9.1128e-05	42.349	0.019939	0.01966	0.0054162	2477.9	0.00023609	0.0002168	1391.8	498.47	0.00023098	0.00021469	908.14	198.61	178.22	55.457	0.00022487	88.801	207.856	406.209	154.220	141.066	385.015	412.611	140.273	146.145	373.036	399.083	143.740	148.949	150.558	155.443	188.691	153.011	-8191	255	
2261.733	1	1	0	0	0.10667	0.090161	0.0082221	0.3015	0.20069	0.069337	0.12086	0.099968	0.095044	0.056438	0.30065	0.084664	0.16917	0.34354	0.23969	0.19025	-2.2396	-2.7958	-3	-2.7104	-2.925	-3.0271	-2.8104	-3.2562	-2.9083	-2.4979	-3.05	-2.7208	-2.9667	-3.0563	-2.6917	-3.0854	447.315	335.444	168.292	442.362	155.465	265.460	484.508	158.961	360.363	418.312	299.579	393.301	434.071	351.103	483.885	466.164	0.0011437	0.0027258	0.002375	961.8	5.511e-05	1.429e-05	941.35	279.4	3.9977e-05	2.9322e-05	315.74	100.1	88.396	29.143	7.6414e-05	43.71	0.019469	0.019527	0.0059292	2517.3	0.0002295	0.00021255	1451.6	501.83	0.0002246	0.00021107	972.01	199.19	177.41	55.953	0.00024427	88.584	164.365	368.770	467.359	141.594	396.793	380.390	140.194	146.228	383.148	391.108	143.951	149.307	150.236	155.345	170.041	152.965	-8191	255	
2261.829	1	1	0	0	0.16896	0.25921	0.080414	0.094183	0.014757	0.13712	0.22761	0.17252	0.29431	0.29039	0.15768	0.13865	0.14383	0.031099	0.17677	0.15312	-2.6104	-2.7125	-3.2083	-2.6813	-2.8375	-2.9396	-3.0229	-3.1188	-2.9583	-2.7	-3.1708	-2.7708	-2.7875	-3.0896	-2.8875	-3.0083	462.148	194.668	451.963	309.658	241.747	291.606	419.933	416.673	258.454	465.400	374.133	399.472	165.578	134.100	365.165	413.986	0.00046556	0.003478	0.0016021	968.71	4.0798e-05	3.347e-05	948.84	280.76	8.1297e-05	4.2784e-05	314.29	102.61	89.308	30.152	2.3092e-05	45.537	0.018797	0.019413	0.006345	2442.9	0.00021973	0.00021081	1490.7	488.99	0.00021362	0.0002123	1004.2	195.38	174.57	57.467	0.00024987	87.335	232.741	206.134	145.465	141.535	280.684	216.413	140.508	146.493	312.501	249.133	143.927	149.933	150.401	154.857	170.837	153.256	-8191	255	
2261.926	1	1	0	0	0.19106	0.35464	0.059238	0.18543	0.34767	0.12948	0.28229	0.12005	0.13873	0.27626	0.087386	0.16991	0.071439	0.15434	0.11109	0.09483	-2.4875	-2.5938	-3.1833	-2.7208	-2.7917	-2.9979	-2.8063	-3.0271	-3.0292	-2.75	-3.0208	-2.8104	-2.9354	-3.3417	-2.9229	-3.0771	311.384	301.985	275.654	431.131	363.036	171.366	463.449	352.679	345.166	439.604	339.120	398.705	190.094	438.261	410.173	436.578	0.00049894	0.0092216	0.00047425	989.76	1.7398e-05	6.7502e-05	964.03	286.85	4.1504e-05	6.844e-05	311.79	105.4	90.711	30.728	2.8668e-05	45.629	0.017699	0.019957	0.0064193	2358.3	0.00020789	0.00022055	1514.1	483.57	0.00020485	0.00022789	1009.5	193.56	173.14	60.151	0.00024729	85.848	164.606	164.141	246.383	141.794	485.285	229.186	140.748	146.137	365.293	232.174	145.988	149.707	150.147	154.918	381.829	153.490	-8191	255	
2262.022	1	1	0	0	0.045661	0.1203	0.1234	0.051852	0.076752	0.18839	0.16941	0.06182	0.093092	0.22108	0.076927	0.16456	0.15864	0.10503	0.13202	0.068799	-2.7167	-2.5667	-3.0708	-2.7646	-2.8125	-3.1896	-2.8104	-2.9854	-2.9646	-2.6104	-3.1792	-2.8854	-2.5854	-3.2396	-2.7042	-2.8354	267.800	144.608	270.484	455.070	212.136	144.157	477.309	181.888	183.293	189.039	275.908	138.495	472.344	468.555	408.687	334.256	0.0014396	0.0053812	0.00081827	991.85	5.9606e-05	3.3504e-05	961.55	287.79	2.4464e-05	7.8912e-05	311.62	103.17	90.171	29.801	3.8178e-05	44.434	0.017338	0.021661	0.0062452	2307	0.00020389	0.0002378	1486.4	473.01	0.00019942	0.00023868	955.1	185.01	170.32	60.602	0.00022845	82.511	485.179	460.408	316.689	141.404	236.847	248.540	140.753	146.183	255.489	200.101	145.335	149.447	150.234	154.823	360.902	153.218	-8191	255	
2262.142	1	1	0	0	0.17152	0.036375	0.14394	0.096095	0.081889	0.093755	0.25805	0.097223	0.28181	0.068726	0.19633	0.21812	0.18652	0.16061	0.16653	0.14959	-2.6792	-2.5083	-3.0625	-2.8521	-2.7625	-3.0292	-2.7208	-2.9229	-3.1896	-2.8792	-2.9458	-2.9604	-2.6125	-3.025	-2.7792	-2.7292	342.579	316.872	307.593	404.505	381.505	223.764	429.980	185.445	315.567	246.103	436.925	430.392	253.560	190.609	197.781	305.310	0.001559	0.0034472	0.00092324	999.56	4.1038e-05	2.6008e-05	961.07	283.58	4.0662e-05	2.5979e-05	312.02	103.1	91.183	29.75	4.1266e-05	45.728	0.017302	0.022345	0.0057976	2240.3	0.00020713	0.00024379	1450.1	462.11	0.00020663	0.0002423	912.65	181.37	174.24	60.58	0.00021244	80.956	445.241	167.691	331.036	142.269	175.747	255.430	140.814	146.061	200.927	459.306	145.210	149.371	149.357	155.383	394.388	153.166	-8191	255	
2262.214	1	1	0	0	0.16474	0.078159	0.076381	0.25481	0.27616	0.12851	0.21455	0.1694	0.30779	0.25915	0.080349	0.30178	0.19773	0.119	0.10973	0.02417	-2.8312	-2.7771	-2.7792	-3.0292	-2.6021	-3.2375	-3.0083	-2.7104	-3.1021	-2.8625	-2.7542	-2.9542	-2.7646	-3.2062	-2.9313	-2.8729	446.384	425.034	355.348	401.431	429.300	383.433	478.834	479.801	280.308	227.180	372.411	454.758	417.023	482.478	420.356	360.811	0.0022971	0.0062045	0.000863	989.9	5.4241e-05	3.7604e-05	963.37	283.68	8.8662e-05	2.816e-05	313.11	102.21	89.863	29.762	5.8802e-05	45.034	0.01805	0.021719	0.0053859	2158.8	0.00021822	0.00023515	1422.9	454	0.00022154	0.00023515	889.73	178.98	180.2	59.51	0.00020527	80.273	465.341	317.957	341.915	141.962	196.938	432.938	140.581	145.973	199.802	401.109	145.353	149.604	149.894	155.887	395.334	153.069	-8191	255	
2262.310	1	1	0	0	0.14832	0.34624	0.043791	0.073157	0.31665	0.1194	0.054019	0.060517	0.097569	0.15749	0.2049	0.22249	0.052283	0.28153	0.20446	0.25879	-2.5229	-2.7542	-2.6688	-3.0375	-2.5708	-3.1833	-2.9292	-2.7271	-3.0021	-3.0042	-2.6813	-2.9958	-2.6854	-2.9417	-2.85	-2.7604	465.659	162.772	356.897	331.898	218.439	165.920	385.970	145.244	227.156	417.920	450.210	471.754	348.680	135.267	221.831	140.575	0.0024601	0.00078341	0.00081984	999.74	5.1257e-05	5.8324e-05	949.09	283.25	3.3002e-05	3.3929e-05	310.38	103.71	89.91	29.509	3.5002e-05	45.229	0.01934	0.020727	0.0052413	2171.4	0.00023384	0.00022533	1398	456.69	0.00023369	0.00022372	872.18	182.82	185.06	57.944	0.00019969	81.992	465.740	381.131	281.761	141.271	180.052	408.380	140.601	145.919	198.773	387.766	145.275	149.189	150.055	155.111	382.856	153.110	-8191	255	
2262.406	1	1	0	0	0.096977	0.25386	0.16867	0.052684	0.15997	0.1592	0.067172	0.1775	0.25069	0.078081	0.07014	0.25195	0.10543	0.19504	0.083079	0.18937	-2.6729	-2.5542	-2.7625	-2.9792	-2.7042	-2.8021	-3.0687	-2.5896	-2.95	-2.6021	-2.8583	-3.1458	-2.6729	-2.9667	-2.8812	-2.7771	487.917	350.644	142.523	428.534	448.330	130.952	167.252	434.819	199.836	429.688	309.898	359.781	462.365	404.485	264.954	436.772	0.0013671	0.0053693	0.0010445	995.27	1.1752e-05	2.8228e-05	935.84	280.4	5.5379e-05	2.596e-05	303.26	100.73	87.101	28.86	2.5812e-05	43.951	0.019965	0.019608	0.0050065	2212.2	0.00023269	0.00020838	1354.7	459.7	0.00022514	0.00020569	820.43	181.86	177.68	54.944	0.00018504	81.944	471.023	352.317	242.812	140.443	203.999	418.793	140.478	146.076	372.523	332.761	144.610	149.192	150.613	155.508	333.851	152.499	-8191	255	
2262.525	1	1	0	0	0.2952	0.17163	0.31559	0.20759	0.26519	0.12353	0.22952	0.29056	0.11216	0.080464	0.27834	0.26057	0.081336	0.24631	0.30727	0.33093	-2.5521	-2.7479	-2.6896	-3.0521	-2.8083	-2.8417	-3.1396	-2.8479	-2.9896	-2.8271	-2.8187	-3.2188	-2.7042	-2.9813	-3.0625	-2.8479	254.575	417.978	201.027	346.371	230.095	454.849	422.633	436.992	417.336	360.591	269.989	152.076	140.751	287.967	289.835	461.293	0.0011078	0.0025935	0.00041509	981.76	8.2225e-06	2.1626e-05	939	282.38	6.5811e-05	2.1127e-05	310.16	103.22	89.36	29.479	2.6711e-05	44.795	0.018804	0.018417	0.0047882	2274.2	0.00021872	0.00019872	1341.4	472.83	0.00021373	0.00019808	822.02	188.63	173.45	54.307	0.00018361	84.037	487.511	298.535	479.426	140.480	294.388	331.597	140.666	145.781	327.146	266.388	143.458	148.840	150.456	155.332	198.003	153.205	-8191	255	
2262.621	1	1	0	0	0.13402	0.1081	0.24255	0.32484	0.22057	0.29382	0.055159	0.28407	0.062059	0.28791	0.24983	0.083625	0.087571	0.14423	0.30114	0.029762	-2.5667	-2.8833	-2.7146	-2.8563	-2.8271	-2.725	-3.275	-2.7021	-2.9562	-2.8187	-2.7396	-3.1854	-2.7104	-2.6188	-3.0833	-2.7812	203.003	446.630	134.482	406.249	296.859	180.975	146.043	143.476	311.338	373.411	227.842	201.106	448.961	459.737	155.133	399.094	0.00046848	0.0021898	0.0011164	988.65	3.3155e-05	7.2753e-06	950.38	284.01	4.8997e-05	1.9102e-05	314.66	104.93	89.862	30.531	4.7882e-05	46.421	0.017261	0.01707	0.0047417	2286.6	0.00020116	0.00018582	1356.6	472.14	0.00019304	0.00017888	825.45	187.34	166.25	52.96	0.00018732	84.42	174.160	284.970	132.154	141.249	355.475	330.432	140.442	146.017	345.768	467.362	144.428	149.343	150.280	155.375	222.816	153.099	-8191	255	
2262.719	1	1	0	0	0.17708	0.088851	0.18019	0.31802	0.079492	0.31753	0.15176	0.23919	0.16875	0.28683	0.073543	0.047409	0.068591	0.27585	0.020052	0.30335	-2.5583	-2.7792	-2.6604	-2.8958	-2.8667	-2.6979	-3.2792	-2.5646	-2.9583	-3.1	-2.6521	-3.125	-2.7771	-2.5458	-3.1146	-2.6479	261.533	440.516	324.627	128.857	337.993	367.516	449.378	204.334	269.702	199.281	423.875	194.552	338.459	294.511	341.592	434.396	0.00034692	0.0025174	0.0014971	1003.4	8.8454e-06	1.5052e-05	973.64	286.29	3.0452e-05	2.1786e-05	322.86	107.94	91.843	31.448	6.7782e-05	48.032	0.015932	0.015978	0.0049759	2252	0.0001885	0.00017479	1393.6	468.31	0.00018509	0.00017639	881.62	189.56	168.39	54.766	0.00021095	86.495	137.916	358.948	143.193	141.347	332.324	164.521	140.521	146.459	350.163	377.007	144.080	149.655	150.242	154.809	209.153	153.203	-8191	255	
2262.814	1	1	0	0	0.066462	0.023918	0.025212	0.13545	0.1897	0.34703	0.11309	0.29524	0.397	0.075702	0.18298	0.30302	0.22066	0.11882	0.15507	0.25296	-2.5333	-3.0729	-2.7833	-3.0979	-2.85	-2.7792	-3.0833	-2.85	-2.6625	-3.2	-2.6813	-2.9875	-2.8667	-2.9042	-3.0417	-3.0104	412.914	256.277	399.369	400.587	309.262	314.099	385.713	379.024	245.769	420.465	337.403	479.753	427.280	174.710	436.459	366.395	0.0014147	0.003543	0.0011405	997.75	3.8492e-05	4.5721e-05	969.82	288.29	1.9338e-05	7.0781e-05	325.34	103.99	91.767	30.389	2.1363e-05	44.985	0.016347	0.01696	0.0056241	2289.8	0.00019645	0.00019375	1471.9	482.98	0.00020136	0.00020631	993.54	194.06	175.24	57.724	0.00024546	85.654	131.476	152.905	144.048	142.241	404.343	243.032	140.716	146.213	315.684	234.118	144.052	149.772	150.140	154.809	372.411	153.404	-8191	255	
2262.910	1	1	0	0	0.093851	0.19911	0.11509	0.14215	0.082734	0.028392	0.079467	0.08178	0.17187	0.060919	0.060651	0.10538	0.11477	0.1071	0.079811	0.19855	-2.3583	-2.9354	-2.8146	-2.8625	-3.0229	-2.7583	-3.0729	-2.9667	-2.8271	-3.1813	-2.8167	-3.0187	-2.8438	-2.5812	-3.1604	-2.7479	471.020	459.787	458.466	452.995	267.091	452.710	430.176	463.260	333.735	384.325	478.856	316.571	422.194	460.864	255.496	450.127	0.0010191	0.0090142	0.00013205	991.55	3.2399e-05	7.1529e-05	959.7	286.64	5.1542e-06	5.6061e-05	307.19	104.61	90.863	30.44	1.5727e-05	44.895	0.01749	0.019767	0.0062485	2322.4	0.00020228	0.00021985	1488.1	477.15	0.00019807	0.00022257	974.63	188.01	170.13	59.366	0.00023367	83.852	485.477	167.959	284.282	142.210	318.748	228.896	140.816	146.125	279.074	200.361	145.582	149.403	149.938	154.917	444.507	153.358	-8191	255	
2263.006	1	1	0	0	0.25508	0.13179	0.05819	0.25796	0.23619	0.22	0.18664	0.32362	0.18072	0.17621	0.26466	0.2467	0.11832	0.02704	0.11974	0.015666	-2.2583	-2.9688	-2.7271	-2.7438	-2.9542	-2.6063	-3.2229	-2.9667	-2.7229	-2.975	-2.6354	-2.8917	-3.1042	-2.8542	-2.9792	-2.9813	202.631	332.250	188.848	141.129	416.423	311.317	481.973	361.173	344.490	156.508	190.805	345.750	192.066	158.018	464.304	202.876	0.0011919	0.0028393	0.0018017	998.47	1.4692e-05	7.5916e-05	964.52	287.07	3.5746e-05	3.4556e-05	315.88	105.22	92.893	31.138	4.605e-05	46.544	0.016853	0.021049	0.0060085	2270.2	0.00019794	0.00023216	1460.8	468.87	0.00019333	0.00023043	931.36	183.97	169.59	60.692	0.00021631	82.738	146.884	467.027	334.600	142.021	459.669	211.170	140.483	146.184	189.525	199.365	145.013	149.482	149.754	155.220	355.555	153.309	-8191	255	
2263.127	1	1	0	0	0.067758	0.14394	0.11741	0.077261	0.096137	0.08033	0.071238	0.093485	0.22184	0.078579	0.18262	0.088069	0.1297	0.23153	0.065594	0.1261	-2.3312	-2.8937	-2.6479	-2.5729	-3.1833	-2.6479	-3.0167	-2.9437	-2.8958	-3.1354	-2.8604	-2.8854	-3.1937	-2.9062	-3.1771	-3.1354	269.632	429.780	251.497	407.823	340.867	280.030	273.898	304.346	185.554	139.925	136.046	466.975	175.096	412.753	423.407	459.102	0.0019768	0.0034012	0.0019563	993.99	7.6158e-05	3.2706e-05	967.5	291.67	7.8525e-05	3.9276e-05	313.58	106.11	93.589	31.538	5.7558e-06	47.52	0.016777	0.021289	0.0055646	2203.3	0.00020299	0.00023703	1443.7	465.68	0.00020715	0.00023831	915.06	183.86	176.49	61.41	0.0002056	81.715	471.794	173.368	342.049	141.900	195.117	251.781	140.699	146.145	211.405	440.266	144.747	149.430	149.583	155.369	341.354	153.334	-8191	255	
2263.223	1	1	0	0	0.079856	0.15769	0.10569	0.03472	0.15194	0.18442	0.01556	0.19021	0.058861	0.31702	0.18956	0.10437	0.13496	0.1931	0.17867	0.30993	-2.3167	-3.0938	-2.8167	-2.8417	-2.9708	-2.7271	-3.1	-3.1875	-2.5812	-3.1167	-2.9292	-2.7396	-3.0687	-2.675	-2.875	-3.1604	172.987	401.042	207.896	376.132	372.339	235.929	246.266	433.861	417.930	135.724	211.424	445.870	203.611	364.223	288.781	451.236	0.0032048	0.004989	0.0005017	993.95	4.1747e-05	1.9046e-05	970.11	289.98	4.007e-05	1.9646e-05	316.26	104.55	91.633	30.562	2.0618e-05	46.001	0.01757	0.020407	0.0051444	2107.7	0.00020647	0.00021682	1391.1	444.38	0.00020153	0.00020694	827.8	172.05	170.53	56.044	0.00017648	76.143	464.885	368.697	346.360	141.458	167.856	459.838	140.850	146.361	163.668	431.558	144.100	149.813	149.411	155.793	397.475	153.019	-8191	255	
2263.319	1	1	0	0	0.22746	0.066201	0.21286	0.14115	0.20689	0.11555	0.32156	0.12181	0.30997	0.10315	0.33876	0.21344	0.12921	0.15908	0.1095	0.037601	-2.2875	-3	-2.9313	-2.7229	-3.0979	-2.7271	-2.7583	-3.1125	-2.6458	-3.1292	-2.9333	-2.675	-3.0812	-3.1188	-2.6979	-3.2958	185.118	151.763	263.111	388.423	292.633	213.726	192.915	419.452	134.641	482.959	215.704	456.194	461.244	463.091	221.821	343.072	0.0022915	0.0021627	0.00063185	1010	2.6405e-05	1.6852e-05	962.34	288.98	2.1113e-05	4.646e-05	313.12	106.21	92.732	31.383	2.2145e-05	47.542	0.016561	0.017216	0.0043723	1985.5	0.00019319	0.00018329	1324.4	431.96	0.00019186	0.00018071	771.17	171.82	169.85	54.497	0.00016222	77.975	446.514	390.371	291.887	141.239	257.577	478.237	140.906	145.990	182.834	407.438	145.297	149.115	150.234	155.714	469.802	153.097	-8191	255	
2263.439	1	1	0	0	0.031318	0.23677	0.11659	0.097759	0.18375	0.079965	0.32067	0.21639	0.14975	0.16833	0.13371	0.10592	0.015782	0.10787	0.29865	0.25873	-2.2625	-2.8208	-2.875	-2.8479	-3.1	-2.7938	-2.7375	-3.0312	-2.5458	-2.7604	-3.3438	-2.7292	-3.1146	-3.1292	-2.7792	-3.0479	401.616	417.450	211.477	375.571	147.696	293.942	398.544	373.019	222.595	436.905	164.461	460.331	206.133	443.083	347.826	403.310	0.0010511	0.0031915	0.00046169	1022.3	3.9873e-05	1.1408e-05	962.23	292.32	3.3972e-05	2.7754e-05	316.35	108.04	93.418	31.798	3.8224e-05	47.824	0.016374	0.016099	0.0041391	2045.7	0.00019234	0.00017576	1318.3	448.12	0.00019339	0.00017819	771.57	179.9	171.62	54.861	0.00016484	81.991	146.658	284.285	275.435	141.131	362.132	455.918	140.632	146.214	363.713	322.991	144.257	149.152	150.476	155.779	318.851	153.332	-8191	255	
2263.511	1	1	0	0	0.23136	0.075057	0.15254	0.12982	0.11979	0.27744	0.11616	0.15622	0.032989	0.054199	0.090016	0.28021	0.12602	0.13974	0.2009	0.13476	-2.35	-2.8396	-3.0521	-2.7583	-2.9729	-2.8729	-2.9333	-3.1875	-2.8937	-2.65	-3.0646	-2.6542	-2.9375	-2.75	-2.7812	-3.3312	272.911	221.013	431.371	129.482	240.401	174.623	173.825	314.292	310.795	360.193	163.142	463.612	135.009	474.270	446.071	476.320	0.00024883	0.0035613	0.00049146	1012.2	3.9754e-05	1.8348e-05	965.18	291.52	2.7547e-05	3.5788e-05	320.96	106.35	91.797	31.718	3.5878e-05	48.081	0.016617	0.016355	0.0042745	2183.1	0.00019498	0.00017961	1331.6	463.86	0.00019182	0.00017677	783.3	184.85	168.09	54.314	0.00017169	84.289	189.724	312.186	331.771	141.448	361.310	404.828	140.588	145.860	320.057	405.612	144.214	149.675	150.572	155.664	238.568	152.946	-8191	255	
2263.607	1	1	0	0	0.29548	0.21303	0.15496	0.063292	0.18634	0.1348	0.17946	0.050514	0.27441	0.19686	0.056046	0.10346	0.066074	0.11268	0.13586	0.20033	-2.4583	-2.5875	-3.1542	-2.6375	-3.0812	-3.1208	-2.6021	-3.3187	-2.6271	-2.9167	-3.1708	-2.725	-2.8271	-3.0167	-2.6125	-3.0729	431.826	338.032	285.396	194.296	237.879	475.380	334.340	362.466	274.346	263.013	278.418	459.387	289.457	484.076	283.994	371.301	0.00047755	0.0025425	0.0013061	993.82	1.5055e-05	1.5485e-05	956.13	292.19	1.8126e-05	4.6792e-05	321.38	105.35	92.162	31.625	8.4873e-05	46.625	0.015924	0.015832	0.004451	2225.3	0.00018781	0.00017416	1348.1	470.73	0.00018663	0.00017455	829.18	186.98	167	53.853	0.00018941	84.296	146.424	356.441	177.766	141.606	312.035	406.353	140.801	146.297	457.861	383.437	144.352	149.662	150.297	155.499	212.698	153.684	-8191	255	
2263.702	1	1	0	0	0.17435	0.061208	0.13842	0.2866	0.056659	0.26766	0.2002	0.22521	0.14684	0.20648	0.047461	0.10041	0.2055	0.20054	0.25434	0.34894	-2.3333	-2.875	-3.0229	-2.6708	-3.0312	-2.8312	-2.8021	-2.9562	-2.8333	-2.7021	-3.1813	-2.6542	-2.825	-3.0687	-2.8333	-3.0667	329.354	247.070	359.641	167.612	403.672	342.063	443.380	148.603	192.567	227.329	140.500	413.027	475.842	432.431	280.347	462.650	0.0002209	0.0021633	0.0024165	996.5	2.8826e-05	4.5265e-06	959.51	289.8	1.8032e-05	1.7066e-05	319.59	106.8	93.706	32.226	5.0869e-05	47.749	0.015955	0.015955	0.0049953	2229	0.00018562	0.00017034	1377.6	462.47	0.00017817	0.00016827	855.5	183.7	164.79	53.932	0.00019801	83.066	432.505	348.880	156.934	141.952	304.522	248.124	140.540	146.695	230.154	253.411	144.192	149.252	150.399	155.223	244.089	153.680	-8191	255	
2263.822	1	1	0	0	0.061961	0.1561	0.19599	0.15054	0.23585	0.16501	0.39646	0.09645	0.23099	0.23352	0.19709	0.09223	0.12014	0.20299	0.1204	0.20611	-2.5042	-2.6021	-3.2917	-2.6854	-2.8271	-2.9083	-3.0042	-2.9646	-3.0333	-2.6396	-2.9604	-2.9188	-2.7313	-3.0104	-2.6896	-2.9042	413.022	240.188	357.058	266.012	471.409	384.010	132.988	437.458	286.323	272.080	257.317	306.190	409.589	391.473	454.963	422.628	0.00056734	0.0013699	0.00062567	1003.7	1.8785e-05	3.3342e-05	965.91	292.34	3.6667e-05	3.5989e-05	325.8	110.69	96.028	33.678	7.3558e-06	50.219	0.014996	0.015749	0.0051779	2165.6	0.00017631	0.00017457	1410.5	458.38	0.00017147	0.00017504	873.15	182.06	161.96	55.537	0.00019296	82.35	154.676	250.910	163.312	141.759	245.130	264.742	140.739	146.713	368.531	171.910	144.220	149.872	150.663	155.256	391.634	153.972	-8191	255	
2263.918	1	1	0	0	0.10941	0.098297	0.052423	0.092542	0.39499	0.15867	0.09093	0.30873	0.16114	0.10056	0.034001	0.088718	0.17503	0.15547	0.13577	0.21562	-2.6833	-2.5333	-3.1417	-2.6479	-2.6917	-2.9354	-2.7729	-2.8729	-3.0271	-2.6125	-3.0792	-2.825	-2.7562	-3.0521	-2.7396	-2.9833	145.606	141.166	485.581	166.868	401.119	427.934	165.488	451.572	178.683	360.878	404.201	164.009	245.959	182.729	156.189	395.228	0.0013529	0.0063555	0.00096648	1015.1	9.1867e-06	6.3144e-05	986.22	298.93	2.2099e-05	2.4753e-05	327.51	112.74	97.861	34.54	5.6271e-05	51.563	0.013737	0.015969	0.0049651	2086.3	0.00016445	0.00018271	1420.3	456.87	0.00016579	0.00019007	878.43	184.53	164.3	59.038	0.00019747	84.298	467.802	144.559	273.773	141.965	253.484	202.531	140.889	146.445	326.905	169.987	144.759	149.946	151.202	155.654	365.245	153.569	-8191	255	
2264.015	1	1	0	0	0.15784	0.038833	0.2485	0.25086	0.28309	0.17363	0.14697	0.23397	0.043771	0.113	0.11059	0.019655	0.070446	0.058565	0.064045	0.10521	-2.3583	-2.7979	-3.0062	-2.8229	-2.6083	-3.0062	-2.875	-3.0146	-3.1417	-2.6729	-3.0104	-2.9896	-2.6458	-3.4062	-2.6063	-2.7958	345.616	167.655	411.336	475.375	178.603	416.296	451.690	483.800	271.396	477.760	363.419	154.362	188.526	182.525	330.878	460.397	0.0011208	0.0040623	0.00083135	1023.4	2.1573e-05	1.8041e-05	991	300.35	5.0602e-05	2.4819e-05	324.67	112.69	97.486	33.673	4.2299e-05	48.939	0.014311	0.018088	0.005044	2104.9	0.0001698	0.00019948	1416	455.26	0.00016921	0.0002016	857.58	181.32	165.37	59.408	0.00018775	80.307	451.420	152.288	331.192	142.209	243.587	226.585	141.024	146.562	241.757	209.131	145.009	149.785	150.369	155.338	378.488	153.342	-8191	255	
2264.086	1	1	0	0	0.13594	0.2317	0.051669	0.18457	0.13706	0.067192	0.11284	0.10962	0.19165	0.27766	0.076354	0.1351	0.30828	0.067385	0.19983	0.13698	-2.3563	-2.5979	-3.0271	-3.0021	-2.5687	-3.2021	-2.8625	-2.8312	-3.0604	-2.6646	-2.9083	-3.0292	-2.6729	-3.25	-2.7083	-2.8729	351.333	150.997	289.538	450.353	185.168	244.088	382.938	424.924	354.691	139.490	412.851	466.021	424.367	165.482	324.749	277.052	0.0024596	0.0013029	0.00021663	1021.9	4.3346e-05	3.9226e-06	980.32	297.22	8.2606e-05	2.2958e-05	324.91	109.2	96.411	33.091	4.7065e-05	49.187	0.014671	0.018442	0.0046994	2024.6	0.00017284	0.00019582	1364.4	438.19	0.00016943	0.00019015	787.53	169.99	162.63	56.341	0.0001616	76.202	470.016	267.218	255.989	141.975	176.864	334.788	140.883	146.671	188.018	370.792	144.728	149.962	149.860	155.551	278.664	153.727	-8191	255	
2264.207	1	1	0	0	0.067332	0.030156	0.04815	0.22975	0.36673	0.076977	0.23212	0.056718	0.17763	0.097023	0.16849	0.42348	0.069692	0.09467	0.21676	0.033721	-2.7562	-2.7625	-2.725	-3.0333	-2.3354	-3	-3.1792	-2.7479	-3.1479	-2.7125	-2.8479	-3.1646	-2.7938	-2.975	-2.9042	-2.5333	216.215	175.528	177.486	140.045	196.465	259.795	165.591	384.438	193.913	367.230	384.123	485.016	443.463	223.687	279.638	451.880	0.0019174	0.0032761	0.00059811	1011.1	5.545e-05	3.0382e-05	979.98	297.5	5.7163e-05	2.5994e-05	324.34	113.49	97.932	34.233	1.0272e-05	51.756	0.013917	0.015942	0.004004	1872.1	0.0001645	0.0001688	1311.4	420.77	0.00016197	0.00016417	732.64	167.14	161.77	54.339	0.00014264	76.162	460.937	348.496	387.651	142.065	215.303	379.842	140.942	146.663	203.605	398.754	145.936	149.353	149.897	155.642	391.581	153.324	-8191	255	
2264.303	1	1	0	0	0.12762	0.12212	0.25564	0.11108	0.017877	0.029535	0.24285	0.10228	0.32655	0.25814	0.22832	0.11348	0.093678	0.064863	0.26564	0.13741	-2.475	-2.8021	-2.9292	-3.1937	-2.5375	-2.8667	-2.9229	-2.7833	-2.8021	-2.8542	-2.775	-3.0187	-2.7854	-2.7708	-2.925	-2.5479	208.281	477.133	309.489	163.957	460.454	332.957	407.215	396.831	475.977	370.264	391.630	311.480	392.293	172.744	483.962	228.543	0.0011312	0.0048634	0.00058462	1021.3	3.5724e-05	3.3145e-05	975.06	299.89	3.5361e-05	3.699e-05	323.53	114.01	97.175	33.955	4.0098e-05	52.007	0.013637	0.014232	0.003615	1836	0.00016295	0.00015299	1280.7	419.85	0.00016315	0.00015442	714.07	169.68	162.79	53.291	0.00013749	77.84	438.155	291.654	253.014	141.681	223.869	378.694	140.722	146.646	176.325	388.381	145.555	149.797	150.306	155.635	367.666	153.142	-8191	255	
2264.399	1	1	0	0	0.0595	0.13094	0.16252	0.11194	0.1169	0.090425	0.30586	0.16229	0.054585	0.24691	0.067483	0.092839	0.15506	0.085295	0.070297	0.17184	-2.6979	-2.6375	-2.6646	-3.0938	-2.625	-3.0146	-3.1375	-2.6833	-3.025	-2.7562	-2.6875	-2.9104	-2.6417	-3.0187	-3.05	-2.5167	208.826	193.557	378.605	471.422	190.624	426.001	455.730	449.626	182.375	174.691	229.808	408.724	347.732	230.527	142.076	459.494	0.0012579	0.0028684	0.00054375	1009.7	1.9425e-05	1.2732e-05	972.63	298	3.7111e-05	1.6844e-05	324.71	112.01	95.114	33.084	4.8201e-06	50.225	0.013678	0.013555	0.0034644	1885.3	0.00016111	0.0001464	1263	425.02	0.00015699	0.00014539	689.86	170.78	157.32	51.508	0.00013072	77.641	473.407	284.720	341.775	141.428	367.809	485.819	140.932	146.342	412.285	331.996	144.864	149.396	150.486	155.121	301.837	152.934	-8191	255	
2264.520	1	1	0	0	0.069839	0.076909	0.14868	0.21546	0.22413	0.063646	0.17978	0.088585	0.05488	0.2484	0.16123	0.040347	0.14218	0.044079	0.26615	0.24587	-2.5812	-2.6125	-2.5938	-2.8979	-2.6229	-2.8104	-3.0125	-2.6729	-3.025	-2.8167	-2.6437	-3.1958	-2.5354	-2.8688	-3.0833	-2.6917	480.154	198.569	371.615	401.487	285.726	220.686	446.767	196.985	456.907	152.277	465.508	260.616	471.169	353.585	342.272	390.969	0.00054608	0.0023251	0.00057624	1007.9	3.7398e-05	2.9923e-05	955.42	290.76	4.1377e-06	3.6343e-05	321.08	107.5	93.151	31.89	5.4279e-05	47.866	0.012807	0.012614	0.0033037	1895.3	0.00014963	0.00013747	1236.2	424.05	0.00014682	0.00013672	681.97	167.88	151.47	49.349	0.00013513	76.439	148.508	252.088	186.213	141.262	402.158	392.539	140.806	146.229	436.256	372.010	144.131	149.171	150.334	155.526	243.538	153.233	-8191	255	
2264.616	1	1	0	0	0.40998	0.22994	0.12239	0.06514	0.087425	0.24617	0.19995	0.14469	0.25035	0.068931	0.092902	0.38215	0.23033	0.14627	0.07205	0.16479	-2.475	-2.9062	-2.5208	-2.8833	-2.7042	-2.6333	-3.0854	-2.7479	-2.9521	-2.8	-2.5958	-2.9333	-3.0771	-2.5542	-2.9479	-2.7125	225.701	131.456	379.953	369.326	153.830	387.153	441.658	296.000	216.953	152.337	449.814	487.327	256.690	461.710	452.381	452.637	0.00066012	0.0014479	0.0010644	988.6	2.2267e-05	1.447e-05	956.9	288.24	3.4412e-05	2.6727e-05	321.86	108.03	93.241	32.888	5.9187e-05	50.326	0.012324	0.012218	0.0035116	1913	0.00014229	0.00013127	1246.5	421.74	0.00013617	0.00012566	687.23	165.23	145.16	48.328	0.00013018	75.393	485.235	325.001	153.564	141.319	364.042	446.930	140.603	146.145	275.124	144.166	144.622	149.594	150.302	155.370	207.256	153.319	-8191	255	
2264.710	1	1	0	0	0.1506	0.067738	0.095688	0.090201	0.13975	0.22139	0.13369	0.14685	0.12275	0.34177	0.077128	0.24009	0.14167	0.15677	0.086079	0.096177	-2.4437	-2.8271	-2.7125	-2.7396	-2.7333	-2.6542	-3.0854	-2.6312	-2.9667	-2.8521	-2.7625	-3.1042	-2.9042	-2.7708	-2.8875	-2.8208	438.731	352.501	226.349	242.166	425.249	388.495	427.024	382.591	267.584	148.958	189.624	169.098	417.314	466.986	456.737	390.895	0.0010035	0.0009719	0.0010941	982.57	1.0938e-05	3.5117e-05	961.86	287.61	9.8894e-06	3.3338e-06	326.26	113.76	96.491	35.411	4.1343e-05	55.346	0.01049	0.010311	0.0032704	1756.2	0.00011687	0.00010794	1225.3	395.17	0.00011013	0.00010481	656.47	159.89	137.98	48.508	0.00011708	75.823	136.093	259.176	487.738	141.775	377.952	302.899	140.463	146.319	302.419	346.198	144.612	149.817	150.376	155.113	203.516	153.106	-8191	255	
2264.807	1	1	0	0	0.031182	0.10707	0.36201	0.15789	0.027545	0.080531	0.33566	0.10105	0.10128	0.029109	0.2474	0.072003	0.24287	0.20231	0.086163	0.30209	-2.3917	-3.05	-2.5687	-2.75	-2.8604	-2.6729	-3.0687	-2.8083	-2.6646	-2.9229	-2.6375	-2.8187	-2.7396	-2.675	-3.0333	-2.7687	259.737	242.597	179.774	158.446	317.485	151.893	457.779	460.501	305.117	174.231	413.211	350.479	240.147	145.176	411.650	442.882	0.0012668	0.0031154	0.0010312	979.69	1.6738e-05	2.9928e-05	965.47	288.3	2.5748e-05	7.4654e-06	328.26	122.08	98.807	38.748	1.5323e-05	61.731	0.008724	0.0091081	0.002968	1621.2	9.8289e-05	9.8411e-05	1210.2	378.14	9.4277e-05	9.7287e-05	632.99	160.87	134.19	51.231	0.00010699	79.397	133.821	140.973	163.538	142.512	308.771	248.487	140.619	146.715	342.738	285.001	144.829	149.796	150.519	154.875	243.708	153.265	-8191	255	
2264.903	1	1	0	0	0.052823	0.056933	0.092091	0.27875	0.12511	0.019945	0.33273	0.21151	0.14968	0.1944	0.028416	0.34035	0.15133	0.27769	0.1242	0.19055	-1.9083	-3.0187	-2.5812	-2.9125	-2.6958	-2.3187	-3.075	-2.8896	-2.6729	-2.8667	-2.7958	-2.8187	-2.8146	-2.7125	-2.9729	-2.8958	293.072	311.083	380.400	418.361	446.160	332.802	451.855	352.551	361.986	382.706	411.863	448.592	247.473	144.373	411.555	449.219	0.001507	0.0024239	0.00065352	980.62	5.7139e-06	4.0346e-05	955.91	293.41	5.758e-06	3.2875e-05	330.94	121.55	98.545	37.75	1.0662e-05	59.518	0.0075778	0.0087614	0.0026919	1537.5	8.6533e-05	9.7809e-05	1180	373.84	8.6222e-05	9.8802e-05	606.24	157.49	131.3	50.741	0.00010028	76.072	471.267	135.848	383.336	141.946	477.719	220.607	140.970	146.434	316.095	217.764	145.870	149.656	150.482	155.059	348.429	152.897	-8191	255	
2264.999	1	1	0	0	0.17995	0.070077	0.083084	0.21693	0.29355	0.15797	0.12038	0.28236	0.17581	0.066983	0.17773	0.14213	0.13037	0.24795	0.18253	0.20664	-2.3354	-2.925	-2.6646	-2.7583	-3.0354	-2.5458	-2.9688	-3.0208	-2.6188	-3.1917	-2.725	-2.9104	-3.0708	-2.7458	-2.6688	-2.9667	128.896	452.069	189.219	153.729	377.764	477.218	345.389	481.618	206.461	419.395	140.852	473.950	458.353	168.961	187.248	396.584	0.0020195	0.0031891	0.00027854	965.42	1.2823e-05	1.3847e-06	941.54	296.09	2.713e-05	2.882e-05	331	124.11	99.642	39.04	2.6901e-05	61.88	0.0073918	0.0092713	0.0025504	1501.5	8.6072e-05	0.00010187	1155.3	370.16	8.4957e-05	0.00010036	583.3	157.12	131.23	51.588	9.1378e-05	77.19	469.175	475.047	328.580	142.098	216.685	430.084	141.207	146.571	170.200	256.919	145.009	149.900	150.190	154.706	351.180	152.798	-8191	255	
2265.119	1	1	0	0	0.08872	0.048756	0.25222	0.10187	0.17968	0.23363	0.05688	0.17474	0.28217	0.078567	0.12097	0.26404	0.23376	0.29832	0.2426	0.16872	-2.1813	-3.0042	-2.5375	-2.8729	-2.9896	-2.6146	-3.1229	-2.8042	-2.7792	-3.0354	-2.7938	-2.7396	-3.1063	-2.8896	-2.7896	-3.0062	417.242	454.459	449.306	268.221	324.960	135.491	432.136	225.616	405.260	228.029	156.013	461.784	344.238	476.416	365.062	462.079	0.0017641	0.0023267	0.00044482	976.58	3.6127e-05	2.3284e-05	952.76	296.46	3.7056e-05	6.1651e-06	330.63	126.07	99.484	39.072	5.9254e-06	63.105	0.0074611	0.0092353	0.002365	1476.4	9.0854e-05	0.00010318	1154.6	370.12	9.2628e-05	0.00010284	584.02	159.18	136.31	52.228	9.1889e-05	78.408	475.972	163.998	136.454	142.215	229.451	351.094	141.213	146.766	178.646	348.192	145.035	149.679	150.556	154.919	262.081	152.646	-8191	255	
2265.216	1	1	0	0	0.12024	0.18285	0.14482	0.058124	0.15147	0.14731	0.19904	0.13022	0.29029	0.19111	0.06038	0.10559	0.20649	0.1489	0.10604	0.18891	-2.1896	-3.1333	-2.8375	-2.7417	-3.0396	-2.8583	-2.9792	-3.2062	-2.5812	-2.9042	-2.8958	-2.7667	-2.9708	-2.9375	-2.625	-3.125	332.225	205.394	311.990	362.803	135.286	325.226	375.805	192.990	229.705	134.407	137.913	245.997	175.377	141.186	147.089	210.131	0.0019609	0.001685	0.00033581	979.39	4.5393e-05	2.6298e-05	967.51	300.93	4.6927e-05	9.0444e-06	338.87	128.42	100.5	39.924	3.288e-05	65.134	0.0083883	0.0093565	0.0023656	1486	0.00010046	0.00010246	1163.9	374.83	0.00010201	0.000102	590.65	162.85	141.14	52.784	9.2202e-05	81.036	468.348	279.224	353.856	141.633	178.908	406.291	140.939	146.156	193.188	428.440	145.346	149.451	150.192	155.145	399.169	153.197	-8191	255	
2265.312	1	1	0	0	0.079128	0.17871	0.065536	0.035976	0.25669	0.16188	0.1416	0.34287	0.16157	0.1112	0.086187	0.31855	0.1157	0.033925	0.21177	0.17659	-2.2188	-2.775	-2.8458	-2.6542	-3.0896	-2.9104	-2.8333	-3.0812	-2.6271	-2.8854	-2.7958	-2.6292	-2.9521	-2.6458	-2.5917	-2.9958	221.657	159.409	311.037	367.864	143.091	213.311	250.874	467.005	304.623	358.288	480.205	462.334	147.012	288.388	451.010	259.668	0.0023	0.0011906	0.00043402	995.93	1.6026e-05	8.5062e-06	969.9	301.04	1.8161e-05	9.0756e-06	335.89	125.28	97.804	37.872	2.0464e-05	60.616	0.009131	0.0092408	0.0023665	1536	0.00010939	0.00010228	1171.3	383.44	0.0001118	0.00010434	594.02	164.19	144.09	51.553	9.7461e-05	79.495	462.494	261.289	288.613	141.788	235.187	339.914	140.980	146.634	212.038	281.296	144.989	149.917	150.657	155.192	251.740	152.579	-8191	255	
2265.383	1	1	0	0	0.14604	0.24922	0.14233	0.040279	0.10127	0.1003	0.094847	0.091293	0.24759	0.018822	0.020117	0.20597	0.14904	0.08728	0.045223	0.40881	-2.1271	-2.9062	-2.8896	-2.7833	-2.8792	-2.7542	-2.8229	-3.1875	-2.4542	-2.9333	-2.9042	-2.8042	-3.0271	-2.6958	-2.7458	-2.9458	279.578	263.574	352.370	336.835	486.826	221.334	130.212	155.223	392.247	271.726	381.071	456.646	202.906	331.825	301.270	140.272	0.0016342	0.0031415	0.00025943	983.34	1.7343e-05	3.406e-05	952.43	296.57	1.1638e-05	3.037e-05	328.72	123.08	97.115	37.722	1.3854e-05	61.103	0.0099003	0.009593	0.0024432	1603.9	0.0001128	0.00010129	1152.8	385.53	0.00010742	9.8286e-05	571.53	163.15	138.76	50.212	9.0682e-05	80.204	133.638	367.437	198.920	141.508	384.002	369.570	140.989	146.571	318.633	296.185	145.209	149.856	151.004	155.121	441.074	152.976	-8191	255	
2265.480	1	1	0	0	0.18089	0.092518	0.231	0.0768	0.24881	0.18866	0.29025	0.048254	0.19487	0.39417	0.066612	0.20905	0.099383	0.12352	0.16247	0.21657	-2.3063	-2.5563	-2.9146	-2.6063	-2.8458	-2.8604	-2.4958	-3.0875	-2.4625	-2.6458	-2.8125	-2.6229	-2.9021	-2.9604	-2.5667	-3.0687	278.149	172.053	481.898	371.082	299.227	413.409	424.775	313.651	454.800	248.122	131.089	461.040	260.134	488.329	203.321	467.086	0.0010728	0.0015834	0.00074226	978.95	8.0867e-06	1.9626e-05	971.9	299.64	8.9143e-06	2.382e-05	338.85	128.11	100.75	39.322	4.5315e-05	63.975	0.0089162	0.0086942	0.0022904	1606.1	0.00010157	9.3562e-05	1157.7	390.74	9.8537e-05	9.1083e-05	580.43	168.94	138.5	50.784	9.0229e-05	82.987	142.092	352.015	406.628	141.597	466.180	419.562	141.319	146.589	427.429	373.218	145.745	149.527	150.678	154.952	195.268	152.931	-8191	255	
2265.598	1	1	0	0	0.2863	0.073597	0.27198	0.076649	0.033575	0.079908	0.14263	0.16302	0.079189	0.17458	0.23852	0.086562	0.068841	0.11801	0.14506	0.2868	-2.1542	-2.6021	-2.85	-2.7687	-2.7021	-3.0062	-2.8042	-2.8625	-2.9229	-2.5542	-2.9646	-2.7438	-2.8146	-2.9458	-2.6479	-3.1188	484.150	467.630	236.555	376.122	430.810	335.858	451.444	154.568	391.281	375.970	344.304	180.742	332.717	156.995	364.446	409.118	0.00099262	0.0016415	0.00057255	978.42	1.511e-05	2.7409e-05	961.97	298.18	1.5139e-06	5.7372e-06	334.8	127.08	99.459	38.977	3.5835e-05	62.868	0.0083805	0.0083547	0.0024725	1632.5	0.000101	9.3727e-05	1183	397.51	0.00010397	9.842e-05	632.39	173.59	142.13	52.125	0.00011644	85.142	133.922	355.901	170.969	141.875	288.707	342.078	140.700	146.504	407.212	315.322	145.081	150.085	150.601	154.996	222.837	152.788	-8191	255	
2265.695	1	1	0	0	0.091185	0.1128	0.015902	0.20957	0.15026	0.17459	0.053281	0.26623	0.038281	0.033513	0.064038	0.10073	0.15937	0.11829	0.14921	0.28206	-2.2562	-2.6896	-2.8729	-2.6437	-2.6792	-2.9729	-2.6417	-2.9313	-2.9229	-2.6375	-3.1917	-2.7146	-2.7542	-2.9979	-2.55	-2.9479	471.069	170.412	412.745	371.319	282.316	337.518	214.440	460.537	371.884	374.102	273.570	412.061	306.999	255.550	189.520	271.698	0.0019759	0.0020569	0.0010798	985.72	2.0148e-05	5.3896e-06	957.86	292.87	2.9319e-05	2.6437e-05	330.16	121.55	95.59	37.874	2.5486e-05	60.68	0.0095563	0.0096557	0.0031257	1719.2	0.00011216	0.00010494	1224.3	397.1	0.00010791	0.00010464	657.54	167.22	137.04	50.98	0.00011805	80.866	484.587	221.492	197.084	141.981	346.085	150.703	140.864	146.547	340.343	241.728	144.964	149.672	150.573	155.118	137.770	152.685	-8191	255	
2265.791	1	1	0	0	0.15655	0.19906	0.25928	0.047817	0.13442	0.064196	0.29118	0.18521	0.12798	0.025383	0.18513	0.084957	0.035735	0.16637	0.16319	0.053507	-2.3354	-2.6	-2.7375	-2.9146	-2.6521	-2.9958	-2.7021	-3.0854	-2.8917	-2.4917	-3.0208	-2.6875	-2.6979	-3.1146	-2.4521	-2.8875	367.289	267.242	448.351	475.902	342.027	275.764	476.118	467.838	191.641	129.982	393.072	135.715	312.488	473.086	288.235	397.187	0.001366	0.0038327	0.00084046	966.27	1.7303e-05	3.5519e-05	937.71	288.74	8.8094e-06	3.8312e-05	325.14	123.45	96.195	39.586	2.6545e-05	63.809	0.0085314	0.0091298	0.0029365	1589.2	9.5765e-05	9.7258e-05	1173.7	374.48	8.9604e-05	9.4988e-05	609.94	160.58	130.02	51.26	0.00010041	80.106	480.917	188.054	184.692	142.540	351.114	194.730	140.663	146.671	387.603	224.416	145.907	149.984	150.845	154.694	296.906	153.020	-8191	255	
2265.911	1	1	0	0	0.052212	0.14126	0.15463	0.28463	0.12231	0.13963	0.41083	0.10628	0.16908	0.32188	0.10195	0.25335	0.079152	0.16897	0.17256	0.10584	-2.5542	-2.4188	-2.9417	-2.5771	-2.4625	-2.8458	-2.8896	-2.8417	-2.8563	-2.6729	-2.8917	-2.9833	-2.4813	-2.95	-2.7208	-2.9396	410.773	299.181	367.526	129.631	147.170	399.902	409.270	167.661	428.512	230.931	162.333	399.470	282.176	190.559	272.766	261.694	0.0015178	0.0048963	0.00042671	949.61	1.1164e-05	3.319e-05	939.49	294.15	1.5098e-05	2.233e-05	337.9	131.13	100.13	40.917	1.0522e-05	65.478	0.0069772	0.0082859	0.002447	1456.7	7.9181e-05	8.9567e-05	1136	364.2	7.6563e-05	9.0295e-05	580.85	162.32	129.89	52.449	9.0484e-05	80.497	475.896	143.026	361.651	141.570	237.657	238.291	140.921	146.784	151.040	220.323	145.538	149.609	150.604	154.571	318.376	152.402	-8191	255	
2265.983	1	1	0	0	0.13098	0.27335	0.26398	0.036832	0.22969	0.30582	0.11652	0.25321	0.27269	0.094018	0.086532	0.063137	0.17326	0.20561	0.0091036	0.14194	-2.2375	-2.5979	-2.4771	-2.8438	-2.4271	-2.9896	-2.7604	-2.8312	-2.8458	-2.7708	-2.9167	-2.9688	-2.5708	-3.0167	-2.6792	-2.9104	417.266	474.602	160.780	293.284	139.549	461.426	426.136	480.980	167.687	224.034	458.682	226.898	139.773	459.672	404.824	170.007	0.0016565	0.0014379	0.00067263	957.49	9.9029e-06	3.0313e-05	944.8	296.73	4.9449e-05	1.4801e-05	340.24	131.37	100.72	40.867	7.0252e-06	66.598	0.0066809	0.0084963	0.0022841	1437.9	8.0165e-05	9.4642e-05	1133.2	364.84	8.0871e-05	9.6057e-05	578.31	162.87	132.62	53.161	8.6585e-05	80.932	471.792	198.874	289.746	142.241	206.869	247.995	141.155	146.881	219.280	238.353	145.511	149.511	150.524	154.775	149.101	152.632	-8191	255	
2266.079	1	1	0	0	0.10234	0.034391	0.090754	0.10598	0.13585	0.10066	0.25235	0.22896	0.10545	0.11901	0.021058	0.32286	0.057152	0.18125	0.286	0.43151	-2.45	-2.4875	-2.75	-2.5708	-2.5354	-2.9271	-2.8	-2.5875	-2.9938	-2.3875	-2.8958	-2.8187	-2.6104	-2.9979	-2.4958	-2.8396	227.406	278.651	389.686	365.814	288.890	475.217	133.439	384.564	218.602	323.478	234.246	131.850	140.959	144.153	235.585	376.473	0.0022745	0.0011621	0.0010144	959.73	2.761e-05	1.7715e-05	943.86	295.84	2.9424e-05	1.1863e-05	338.47	132.12	99.636	39.757	9.2743e-06	64.237	0.0071565	0.0086979	0.002188	1414.8	8.488e-05	9.3625e-05	1126.2	361.31	8.507e-05	9.1868e-05	563.02	160.77	132.82	51.486	8.0609e-05	77.561	482.703	168.985	288.189	142.038	188.136	176.688	141.097	146.694	211.470	319.320	145.064	149.656	150.361	155.129	255.323	153.096	-8191	255	
2266.200	1	1	0	0	0.13794	0.056229	0.26289	0.28024	0.2129	0.11877	0.2709	0.083552	0.047708	0.2261	0.064226	0.18309	0.064337	0.22051	0.14081	0.075749	-2.4208	-2.5354	-2.5896	-2.9021	-2.5875	-2.7396	-2.9646	-2.7146	-3.1083	-2.6458	-2.7542	-2.9208	-2.65	-2.9292	-2.6875	-2.6479	383.147	252.884	215.315	456.887	326.886	150.569	392.548	413.793	248.397	344.627	338.809	471.231	325.392	488.462	387.212	383.108	0.0022763	0.00050152	0.00017612	941.89	2.7602e-05	9.1348e-06	927.2	290.68	1.242e-05	1.8716e-05	331.34	128.01	98.064	38.832	1.8531e-05	62.872	0.0073598	0.0081105	0.0020593	1383.8	8.9347e-05	8.8687e-05	1099.8	355.97	9.156e-05	9.0545e-05	556.04	158.71	135.07	50.552	8.3885e-05	77.921	473.666	162.237	373.156	141.827	226.371	327.816	141.244	146.771	227.288	390.468	144.967	149.113	150.403	155.028	389.750	152.699	-8191	255	
2266.296	1	1	0	0	0.26194	0.12338	0.14023	0.17337	0.13986	0.012228	0.084152	0.21453	0.077646	0.24017	0.13287	0.044657	0.070809	0.19971	0.20036	0.22691	-2.4875	-2.6208	-2.4625	-3.0938	-2.5167	-2.9875	-2.9208	-2.725	-2.9042	-2.6854	-2.6625	-3.0542	-2.4458	-2.8354	-2.9042	-2.7958	309.764	338.116	466.642	216.359	143.545	212.772	461.387	388.849	460.700	153.322	458.624	417.991	384.276	450.629	210.507	148.374	0.0014598	0.0041003	0.00049765	962.15	1.0586e-05	1.2328e-05	935.02	291.47	2.6191e-05	1.9417e-05	336.18	126.84	97.097	38.486	1.3686e-05	63.792	0.0084293	0.0085327	0.0022095	1469	0.00010323	9.5863e-05	1120.4	369.63	0.00010321	9.5438e-05	568.17	163.29	137.56	50.545	8.4494e-05	80.414	459.293	344.458	310.343	141.299	191.211	380.158	140.912	146.548	421.743	389.509	145.494	149.763	150.767	155.020	381.093	152.930	-8191	255	
2266.392	1	1	0	0	0.1005	0.22261	0.045721	0.024741	0.34484	0.11647	0.1107	0.18826	0.13011	0.062418	0.098005	0.30636	0.35079	0.054574	0.10477	0.21298	-2.4917	-2.6167	-2.5563	-2.9188	-2.575	-2.85	-3.0812	-2.8125	-2.85	-2.7062	-2.5083	-2.9396	-2.8208	-2.8042	-2.9771	-2.6854	311.373	229.633	457.866	346.035	241.454	358.506	409.572	130.666	470.373	270.491	154.901	432.187	451.893	450.054	475.702	397.676	0.0016802	0.001404	0.00017927	961.45	4.0239e-06	2.5081e-05	943.4	295.65	2.3412e-05	3.6743e-05	339.7	133.2	100.36	40.917	3.3109e-06	67.696	0.0085874	0.0083851	0.0021431	1507.8	9.8067e-05	8.9054e-05	1114.9	374.9	9.4595e-05	8.7237e-05	559.47	169.97	136.69	51.83	8.0927e-05	84.872	131.937	301.636	210.257	141.806	297.778	422.072	141.026	146.645	366.294	337.240	145.519	150.062	150.629	154.842	198.381	152.532	-8191	255	
2266.488	1	1	0	0	0.10246	0.094131	0.21926	0.047214	0.051794	0.13232	0.15018	0.25008	0.076438	0.04395	0.15204	0.18841	0.12648	0.20501	0.050158	0.14097	-2.5146	-2.7	-2.6583	-2.8542	-2.7792	-2.7167	-3.0104	-2.6417	-2.7646	-2.925	-2.5563	-3.0687	-2.6604	-2.7417	-2.825	-2.6854	461.448	281.585	242.196	348.121	461.644	399.843	483.527	465.276	174.921	296.265	465.496	146.717	479.148	399.545	382.462	342.407	0.0012816	0.0028628	0.00034659	964.17	1.8275e-05	1.222e-05	959.39	299.84	8.7241e-07	1.2426e-05	359.31	141.88	104.57	43.882	1.5376e-05	71.262	0.0078944	0.0078156	0.002123	1528.8	9.2244e-05	8.5129e-05	1136.9	383.55	9.0369e-05	8.4408e-05	585.38	180.48	140.41	54.833	8.857e-05	89.764	131.930	352.486	143.890	141.845	332.897	300.921	140.776	146.797	190.697	277.191	145.468	149.850	150.474	154.938	205.041	152.875	-8191	255	
2266.609	1	1	0	0	0.052629	0.2761	0.30248	0.22503	0.17022	0.1144	0.053657	0.29681	0.35542	0.19555	0.070307	0.10572	0.089723	0.14835	0.24991	0.23524	-2.325	-3.0917	-2.4562	-2.9271	-2.8833	-2.9229	-3.2313	-2.5979	-2.7646	-2.9271	-2.5792	-3.0438	-2.7938	-2.6312	-3.0604	-2.7958	152.255	269.315	397.074	383.160	472.424	294.672	455.893	427.549	259.729	185.637	366.849	131.290	430.705	306.355	170.945	440.904	0.0014483	0.00078027	0.00074001	963.54	1.923e-05	1.8089e-05	954.89	296.31	1.3586e-05	9.7499e-06	348.15	137.18	103.3	42.656	4.7373e-05	68.74	0.0078976	0.007878	0.0023843	1570.4	9.3688e-05	8.6516e-05	1152.5	385.05	9.2969e-05	8.639e-05	609.71	176.99	139.66	53.897	9.9228e-05	87.435	141.070	321.839	464.816	142.322	292.879	406.931	141.204	146.850	483.612	309.171	145.073	149.610	150.646	154.717	158.607	152.713	-8191	255	
2266.679	1	1	0	0	0.1585	0.14125	0.12577	0.27077	0.11212	0.25669	0.23296	0.076616	0.25117	0.037537	0.22363	0.11818	0.25225	0.2762	0.0792	0.30535	-2.3875	-2.9396	-2.5438	-2.8729	-2.7396	-2.7	-3.0521	-2.6063	-2.6688	-2.8896	-2.575	-2.9354	-2.7042	-2.7229	-2.9979	-2.8583	278.465	440.740	474.005	230.911	446.644	207.711	460.294	425.908	356.198	135.245	145.727	431.414	416.157	459.976	389.867	395.598	0.0013487	0.0020095	0.00021814	943.34	1.4883e-05	1.029e-05	947.78	297.27	2.5181e-05	2.8856e-05	350.62	139.66	104.71	43.848	2.1958e-05	70.65	0.0079698	0.0080435	0.0026296	1554.7	9.4574e-05	9.0065e-05	1172	386.26	9.4013e-05	9.1441e-05	643.01	179.73	141.21	55.911	0.00010892	89.256	471.803	152.604	484.431	142.154	240.823	235.109	141.113	146.715	338.755	235.059	145.701	149.727	150.353	154.405	206.619	152.776	-8191	255	
2266.799	1	1	0	0	0.17415	0.29462	0.06005	0.10577	0.19813	0.071844	0.16397	0.1457	0.31412	0.0466	0.10353	0.335	0.12805	0.094084	0.20984	0.17935	-2.1729	-2.8812	-2.4313	-2.9896	-2.7604	-2.6542	-3.1292	-2.7417	-2.6208	-3.0083	-2.5458	-2.9708	-2.9479	-2.5687	-2.875	-2.8354	362.413	322.882	245.074	457.819	353.539	368.348	425.594	421.132	217.211	444.060	130.193	439.061	158.218	372.850	366.300	425.775	0.0017603	0.0045061	0.00064543	950.06	1.5998e-05	2.0539e-05	953.81	300.16	6.3282e-06	3.8428e-05	349.39	140.86	105.22	45.029	1.7694e-05	71.973	0.0081257	0.0089083	0.0028945	1570.9	9.6193e-05	0.00010135	1199.1	389.19	9.5998e-05	0.00010425	663.56	181.51	142.85	58.5	0.00011457	91.113	488.769	165.409	179.815	142.203	235.623	287.002	141.254	146.883	322.136	254.276	145.458	149.744	150.492	154.525	430.166	152.564	-8191	255	
2266.896	1	1	0	0	0.22726	0.079182	0.040456	0.1625	0.12089	0.26008	0.26204	0.27673	0.22203	0.17226	0.20934	0.16259	0.19684	0.15672	0.10262	0.16699	-2.2417	-2.9792	-2.7208	-2.9042	-3.025	-2.625	-3.0812	-2.8	-2.575	-3.0021	-2.5604	-2.7917	-2.9229	-2.7062	-2.9521	-2.9875	229.823	403.952	446.090	452.302	382.579	207.467	353.236	410.886	402.875	133.667	304.087	261.207	364.120	418.789	246.377	460.503	0.0013903	0.0016524	0.00046854	965.43	4.562e-06	4.0717e-05	956.98	302.34	7.0766e-06	1.555e-05	347.62	141.4	106.3	45.311	1.7027e-05	72.232	0.0082182	0.0099714	0.00293	1581.4	9.5862e-05	0.00011142	1202.9	390.09	9.5448e-05	0.00011198	655.41	181.31	143.76	60.044	0.00011158	90.648	485.715	482.129	277.278	141.899	357.709	228.417	141.184	147.028	475.618	227.705	145.387	150.008	150.584	154.674	341.425	152.901	-8191	255	
2266.992	1	1	0	0	0.10656	0.20218	0.040423	0.18654	0.083047	0.18737	0.26182	0.20244	0.22264	0.22427	0.043869	0.31095	0.074699	0.25401	0.24397	0.24554	-2.1604	-3.0083	-2.4708	-2.6521	-3.0563	-2.6063	-3.0229	-2.9271	-2.8583	-3.1896	-2.7604	-2.8146	-3.1625	-2.6896	-2.8042	-2.8	384.584	301.049	346.834	448.642	379.176	345.292	469.584	461.492	424.527	309.119	458.204	195.228	451.594	198.366	449.820	447.108	0.0016959	0.0017915	0.00057913	963.93	8.0197e-06	3.5598e-05	952.63	299.25	4.5654e-05	5.5467e-06	348.13	137.17	104.32	43.339	2.3516e-05	68.314	0.0085287	0.010859	0.0029001	1586	0.00010276	0.00012176	1196.1	388.57	0.00010504	0.00012333	653.43	178.05	146.81	59.384	0.0001129	87.157	480.308	205.354	321.572	142.434	151.981	265.912	141.303	147.110	198.668	283.748	145.785	149.833	150.109	154.621	235.504	152.830	-8191	255	
2267.088	1	1	0	0	0.025509	0.042172	0.14478	0.090705	0.1108	0.1319	0.20272	0.16886	0.04701	0.095835	0.066432	0.22878	0.3756	0.062459	0.13319	0.14958	-2.1688	-2.9917	-2.7958	-2.5979	-2.9146	-2.5646	-2.9521	-2.8354	-2.5583	-2.7313	-2.8104	-2.8979	-3.0771	-2.3063	-2.8667	-2.8583	153.027	173.235	457.018	286.579	396.193	244.714	461.074	141.665	327.114	269.467	308.134	478.894	478.563	359.699	433.292	460.433	0.002731	0.0014887	0.00064018	970.26	2.6038e-05	7.6517e-06	946.87	297.58	4.1756e-05	1.56e-05	342.21	136.51	103	42.592	5.9669e-06	67.425	0.0096097	0.011505	0.0029159	1589.7	0.00011529	0.00012542	1193.4	386.73	0.00011584	0.00012286	640.93	175.33	148.83	58.017	0.00010609	85.426	469.382	482.425	363.662	142.176	224.657	366.228	141.148	146.610	198.439	392.724	145.499	149.724	150.485	154.792	449.069	152.368	-8191	255	
2267.209	1	1	0	0	0.20333	0.14861	0.27853	0.14661	0.19822	0.26212	0.098691	0.27406	0.039869	0.27078	0.013062	0.19333	0.068366	0.41131	0.18932	0.12279	-2.2271	-2.6208	-2.6979	-2.625	-2.9042	-2.5604	-2.8271	-2.9729	-2.4333	-2.8875	-2.5917	-2.6688	-2.9146	-2.6979	-2.5833	-3.0792	192.166	358.917	163.761	433.226	485.526	198.554	447.468	435.003	434.589	256.867	192.483	363.678	151.548	388.945	390.733	216.948	0.0019442	0.00043258	0.00029054	964.55	3.8745e-05	9.8256e-06	952.78	296.26	2.5707e-05	2.8445e-05	338.86	135.09	102.85	42.274	3.2359e-05	67.454	0.0097763	0.010464	0.0026459	1537	0.00011279	0.00010974	1163.1	377.86	0.00011185	0.00010847	607.8	172.56	146.86	56.082	9.6516e-05	85.185	466.092	249.886	375.646	141.982	183.246	370.708	140.999	146.677	145.794	343.406	145.608	149.593	150.138	154.596	263.115	152.470	-8191	255	
2267.280	1	1	0	0	0.26636	0.089921	0.12627	0.29895	0.12763	0.18843	0.18235	0.30922	0.064601	0.16131	0.052151	0.28291	0.17142	0.036706	0.11025	0.06797	-2.3771	-2.7458	-2.7771	-2.6229	-3.0042	-2.5604	-2.7479	-2.8438	-2.6458	-2.9479	-2.8396	-2.6562	-2.9917	-2.7542	-2.5958	-2.9938	398.112	350.419	279.739	379.832	487.937	135.557	419.307	453.074	196.566	347.844	276.674	406.552	205.245	450.751	292.011	166.790	0.0019088	0.0026605	0.00020882	969.89	1.4841e-05	1.2088e-05	944.84	296.56	1.1507e-05	5.1665e-06	337.57	134.12	101.06	41.883	7.062e-06	67.538	0.0096561	0.0095874	0.0024506	1556	0.00011301	0.00010392	1146.5	381.49	0.00011202	0.00010299	592.31	173.79	144.33	54.833	9.1485e-05	86.198	481.070	319.719	343.193	142.037	271.676	340.035	141.349	146.414	141.552	382.698	145.227	149.620	150.280	154.842	233.339	152.272	-8191	255	
2267.376	1	1	0	0	0.0635	0.057674	0.30887	0.1758	0.088085	0.12188	0.1987	0.090561	0.083372	0.21968	0.057043	0.33943	0.076911	0.067284	0.11569	0.11217	-2.1542	-2.7	-2.825	-2.6625	-2.7687	-2.9354	-2.6625	-3.0104	-2.4417	-2.7104	-3.0396	-2.7438	-2.9375	-2.7313	-2.7021	-3.0208	411.166	335.207	417.057	466.339	484.230	139.963	435.652	484.140	289.051	201.200	402.931	486.951	421.288	391.461	320.525	412.337	0.00097087	0.0015014	0.0003881	962.21	1.6539e-05	5.9295e-06	933.75	291.76	2.7549e-05	9.8228e-06	335.79	130.23	98.178	39.545	3.2388e-05	62.821	0.0092588	0.0090725	0.0023356	1582	0.00010805	9.8763e-05	1129.9	382.86	0.00010596	9.8044e-05	583.12	172.03	140.36	52.371	9.6056e-05	83.268	132.280	286.822	138.137	142.001	338.710	469.575	141.038	146.172	334.889	360.721	145.461	149.233	151.089	154.360	178.845	152.610	-8191	255	
2267.473	1	1	0	0	0.25534	0.066721	0.24301	0.24709	0.28399	0.22813	0.19476	0.2424	0.064764	0.20648	0.060915	0.11399	0.049003	0.16661	0.11578	0.076162	-2.3625	-2.8583	-2.7229	-2.6417	-2.8312	-2.8417	-2.6021	-3.1896	-2.6562	-2.6708	-2.8354	-2.5833	-2.6875	-3.0604	-2.6021	-3.1667	363.420	456.178	326.006	471.498	287.265	405.103	424.260	444.256	231.947	412.038	152.786	479.685	370.514	363.466	347.489	464.205	0.00076713	0.0018611	0.001041	959.5	7.5923e-06	2.48e-05	926.35	286.77	2.1086e-05	1.2029e-05	329.62	125.1	96.304	38.736	3.797e-05	61.786	0.0093328	0.0092532	0.0025509	1649.2	0.00011051	0.00010213	1146.9	391.73	0.00011028	0.00010386	618.24	173.75	140.62	52.243	0.00011257	84.466	160.640	294.332	147.241	141.748	294.788	440.304	141.128	146.469	332.928	394.728	143.908	149.356	150.386	154.950	160.824	152.581	-8191	255	
2267.569	1	1	0	0	0.12845	0.14951	0.066058	0.13061	0.13711	0.1953	0.35744	0.096154	0.13094	0.24162	0.18492	0.21388	0.096815	0.2003	0.1897	0.13876	-2.2583	-2.4229	-3.0521	-2.6521	-2.7146	-2.9708	-2.7687	-3.1771	-2.8396	-2.4979	-3.0479	-2.6375	-2.9313	-2.8875	-2.7333	-3.1125	471.125	338.566	205.466	248.229	306.579	342.249	417.276	410.749	413.040	391.527	178.731	187.182	286.278	383.627	218.304	342.119	0.0015036	0.0020448	0.00040161	954.54	8.7272e-06	1.3414e-06	927.73	285.89	1.7881e-05	9.7978e-06	326.34	123.97	95.087	38.378	4.6767e-05	61.206	0.0097712	0.00966	0.0029793	1711.2	0.00011534	0.0001069	1184.1	396.4	0.0001159	0.00010956	666.33	175.27	142.24	52.864	0.00013316	85.605	485.184	208.151	480.385	142.365	435.040	412.240	140.938	146.430	294.352	153.819	144.511	149.440	150.382	154.525	192.374	152.586	-8191	255	
2267.688	1	1	0	0	0.1251	0.061698	0.17434	0.058727	0.0054608	0.077629	0.34281	0.12492	0.45916	0.22108	0.23906	0.11071	0.25431	0.13499	0.095519	0.17238	-2.5979	-2.3917	-2.9896	-2.6417	-2.6458	-2.9938	-2.4188	-2.8875	-2.7479	-2.7646	-2.8812	-2.8604	-2.6646	-3.0583	-2.5625	-3.0583	139.897	131.613	475.201	368.038	184.893	436.865	394.223	352.750	361.228	222.028	391.221	365.560	417.625	466.152	469.229	487.474	0.0016019	0.0021806	0.00095171	955.55	4.013e-05	2.9534e-05	931.55	282.66	1.5046e-05	3.998e-05	321.34	122.33	95.373	38.457	1.2284e-05	62.115	0.010599	0.010964	0.0036187	1790.2	0.00012853	0.00012463	1248	405.45	0.00012809	0.0001287	733.54	177.66	145.44	55.163	0.0001495	86.828	479.396	260.157	151.247	141.563	318.489	249.395	141.021	146.824	426.458	241.350	144.904	149.306	150.575	154.465	449.884	152.527	-8191	255	
2267.784	1	1	0	0	0.17842	0.18255	0.12507	0.057218	0.23125	0.15264	0.11494	0.21714	0.39851	0.18019	0.14762	0.21293	0.05434	0.33563	0.057562	0.17247	-2.4208	-2.4188	-3.0958	-2.7604	-2.675	-2.825	-2.7375	-2.7958	-2.8833	-2.6	-2.9938	-2.8458	-2.5896	-3.2333	-2.4313	-2.7729	168.392	299.297	362.075	256.773	267.988	357.122	409.470	391.800	187.363	237.705	175.411	268.313	139.969	139.847	344.691	402.352	0.0012724	0.0013474	0.00023706	950.27	1.7866e-05	4.1879e-05	934.28	283.95	3.2972e-05	3.2557e-05	317.98	120.9	93.019	37.815	2.7171e-05	59.286	0.010603	0.01195	0.0037785	1751.1	0.0001232	0.00013152	1247.3	398.41	0.00012073	0.0001357	721.7	172.84	141.61	55.363	0.0001463	83.386	130.974	211.133	452.349	141.856	354.070	247.052	141.029	146.703	390.667	225.904	145.643	149.488	150.521	154.705	408.992	152.754	-8191	255	
2267.880	1	1	0	0	0.17439	0.093225	0.22643	0.04006	0.092521	0.14183	0.076438	0.067882	0.2472	0.26855	0.10318	0.18509	0.14832	0.24107	0.11036	0.37123	-2.5354	-2.4479	-3.0187	-2.8583	-2.5854	-3.0042	-2.8688	-2.8187	-3.1021	-2.5708	-2.9146	-2.9437	-2.6854	-3.05	-2.7979	-3.0271	482.977	438.013	215.672	336.649	377.796	388.099	411.005	255.958	448.006	245.641	419.414	431.079	141.067	407.276	395.134	387.350	0.0020082	0.0056561	0.00049425	954.14	2.6185e-05	5.1875e-05	917.43	280.26	2.893e-05	3.4412e-05	314.25	119.91	92.923	37.586	5.2133e-05	60.003	0.010388	0.012966	0.0036992	1729.6	0.0001226	0.00014214	1228.6	392.74	0.00011991	0.0001433	695	168.66	140.7	55.805	0.00013549	82.526	465.426	162.905	315.726	141.808	252.403	186.758	141.014	146.537	142.738	156.011	145.248	149.689	150.323	154.470	364.118	152.758	-8191	255	
2267.976	1	1	0	0	0.14867	0.18018	0.17947	0.062487	0.2206	0.16719	0.15387	0.17591	0.042688	0.11104	0.040799	0.21802	0.17508	0.19613	0.077456	0.1276	-2.4396	-2.7438	-2.7792	-3.0271	-2.6813	-2.975	-2.9104	-2.675	-3.0917	-2.5979	-2.9688	-2.9125	-2.4062	-3.1125	-2.6896	-2.8646	139.912	219.690	302.486	176.054	464.834	220.137	484.080	224.350	369.403	208.152	314.353	142.738	135.539	157.776	178.956	218.176	0.0022059	0.0015001	0.0012607	959.51	5.2587e-05	2.0188e-05	928.19	283.41	4.832e-05	2.7603e-05	314.82	121.53	94.613	37.975	2.5787e-05	60.712	0.010443	0.013374	0.0034906	1703.1	0.00012687	0.00014775	1222.1	392.03	0.00012794	0.00014916	689.87	169.55	146.54	57.018	0.0001334	83.052	462.407	146.148	276.307	142.433	216.854	245.366	141.003	146.454	184.743	385.495	145.453	149.718	150.263	154.968	285.358	152.744	-8191	255	
2268.072	1	1	0	0	0.089068	0.21117	0.22476	0.1965	0.27128	0.18223	0.24261	0.28095	0.092713	0.31019	0.01669	0.17793	0.1638	0.29591	0.14127	0.090777	-2.4792	-2.6042	-2.8458	-2.7708	-2.7792	-2.8688	-2.8771	-2.7229	-3.0125	-2.6292	-2.8542	-3.0792	-2.5854	-2.9813	-2.6875	-2.7146	335.415	219.075	335.678	448.772	179.377	281.152	483.084	445.690	186.969	328.983	366.703	159.043	231.164	463.805	457.019	354.712	0.0022034	0.0038419	0.00075583	964.21	3.6784e-05	1.872e-05	938.8	284	3.6119e-05	2.6838e-05	319.23	119.3	92.837	37.145	2.3754e-05	60.537	0.011463	0.013589	0.0034248	1699.3	0.00014004	0.00014856	1230.6	392.49	0.00014085	0.00014839	684.41	167.9	149.69	55.938	0.00013247	83.341	469.585	298.920	239.128	141.897	220.842	432.687	141.094	146.278	194.557	399.057	145.099	149.564	150.284	154.992	285.823	152.889	-8191	255	
2268.168	1	1	0	0	0.11508	0.15707	0.012943	0.1658	0.18554	0.043796	0.3171	0.17534	0.16844	0.065418	0.05477	0.061806	0.20609	0.27382	0.051294	0.12847	-2.3875	-2.6604	-2.7604	-3.0833	-2.5062	-2.8854	-2.7417	-2.7687	-2.9125	-2.7188	-2.8042	-3.0979	-2.7875	-2.9729	-2.725	-2.6542	329.251	463.138	149.370	484.029	352.808	421.884	304.773	363.334	485.801	150.516	161.704	308.659	467.704	457.627	481.717	413.009	0.0020803	0.0017979	0.00063056	982.46	1.6624e-05	2.4839e-05	942.44	286.54	3.6324e-05	2.3992e-05	317.35	118.44	92.159	35.743	3.9572e-05	57.205	0.012632	0.013447	0.0034185	1730.6	0.00015198	0.000145	1230	396.9	0.0001497	0.00014244	672.69	168.63	151.38	53.698	0.00012681	80.957	464.853	318.205	295.750	142.409	214.294	379.500	141.177	146.184	216.415	265.412	145.178	149.548	150.046	155.116	390.836	152.852	-8191	255	
2268.289	1	1	0	0	0.11703	0.081703	0.11334	0.16157	0.10854	0.21311	0.10835	0.34478	0.24793	0.097212	0.096594	0.053797	0.15394	0.17952	0.10679	0.10547	-2.5271	-2.8312	-2.7417	-2.8333	-2.6688	-2.7708	-2.9729	-2.7604	-2.8542	-2.7708	-2.7	-2.9333	-2.5792	-2.9813	-2.9875	-2.5396	382.552	310.719	291.291	470.471	348.546	377.804	319.163	160.495	400.128	279.014	292.241	417.689	191.553	171.831	201.114	384.381	0.0012696	0.0013118	0.00085649	968.27	1.7633e-05	1.3964e-05	925.31	280.83	3.1992e-05	3.1269e-05	306.05	113.38	86.939	34.053	8.2232e-06	55.013	0.012851	0.012729	0.003286	1769.9	0.00015349	0.00013976	1201.6	400.92	0.00015204	0.00014022	660.85	168.75	149.33	52.021	0.00012898	81.454	140.047	297.850	335.417	141.065	193.879	321.990	140.777	146.238	312.923	389.756	145.192	149.712	149.991	155.515	356.162	152.692	-8191	255	
2268.385	1	1	0	0	0.24435	0.19435	0.18984	0.27512	0.11312	0.17096	0.12245	0.15541	0.085528	0.26482	0.060186	0.18107	0.18045	0.064175	0.24803	0.3472	-2.6688	-2.6937	-2.4583	-2.9333	-2.6667	-2.6063	-3.0417	-2.5812	-2.8667	-2.8979	-2.3875	-3.0271	-2.5104	-2.8417	-2.8646	-2.6146	177.092	437.738	143.970	278.330	180.899	327.357	330.414	459.353	361.393	280.381	128.925	410.134	238.041	288.981	155.223	394.339	0.00062258	0.00049174	0.00061119	963.94	7.7719e-06	2.2752e-05	922.33	276.37	2.1455e-05	2.591e-05	303.67	107.36	83.469	31.529	4.3611e-05	51.256	0.013105	0.012922	0.0033567	1870.5	0.0001544	0.00014218	1208	413.89	0.00015437	0.00014333	679.09	170.57	146.2	50.17	0.0001404	81.018	143.357	196.174	169.663	141.221	465.105	405.778	140.856	146.252	361.344	392.007	144.784	148.989	150.429	154.956	230.001	153.181	-8191	255	
2268.481	1	1	0	0	0.092094	0.14317	0.28509	0.25647	0.056228	0.093849	0.065714	0.081659	0.27514	0.20868	0.12032	0.19649	0.11016	0.13935	0.18049	0.20087	-2.5	-2.6562	-2.5521	-2.9813	-2.7542	-2.6083	-3.0417	-2.7729	-2.6375	-2.9792	-2.6417	-2.9604	-2.7083	-2.6917	-3.0042	-2.6917	251.102	222.677	417.826	218.280	438.399	425.947	153.538	322.089	382.193	334.838	296.883	402.674	454.972	416.948	251.223	437.122	0.00061554	0.0014772	0.0018556	940.3	2.4925e-05	3.5702e-05	904.01	270.13	4.4932e-05	1.6782e-05	299	101.55	81.326	30.24	4.9482e-05	49.005	0.013201	0.013176	0.003713	1953.8	0.00015668	0.00014495	1221.7	418.52	0.00015385	0.00014349	714.36	169.21	143.21	48.751	0.00015612	80.345	449.933	326.680	152.991	141.315	287.971	368.651	140.836	146.079	349.640	148.646	144.558	149.531	150.565	155.231	199.098	152.799	-8191	255	
2268.577	1	1	0	0	0.1782	0.11994	0.20223	0.034115	0.14935	0.2645	0.22957	0.12872	0.069932	0.32064	0.16932	0.29066	0.4009	0.041378	0.28246	0.076697	-2.2833	-2.9042	-2.5354	-2.9458	-2.6792	-2.45	-3.1104	-2.5167	-2.6896	-2.9875	-2.5312	-2.9	-2.8229	-2.675	-2.8542	-2.6604	313.428	437.545	154.380	423.460	398.617	270.794	379.423	367.296	455.953	143.226	131.677	441.368	436.300	158.156	366.959	204.554	0.0007471	0.0026047	0.0012315	919.93	1.6796e-05	1.2156e-05	883.26	263.11	3.9926e-05	2.4714e-05	290.18	96.536	79.491	28.539	6.8563e-05	45.358	0.013334	0.013344	0.0041947	1973.3	0.00015927	0.00014908	1245.9	416.7	0.00015825	0.00014828	762.09	164.92	142.09	48.03	0.00017781	77.552	487.100	367.075	175.316	142.075	227.497	334.077	140.700	146.276	334.250	182.718	144.233	149.569	149.874	155.210	209.564	153.090	-8191	255	
#DATA ENDS
