BOXY.EXE: ISS Imagent and Oximeter Data Acquisition Program Version 0.80
Ascii Record File

#ACQ INFORMATION
2  Detector Channels 
16  External MUX Channels 
1  Auxiliary Channels 
5000  Waveform (CCF) Frequency (Hz)
1  Waveforms Skipped 
30  Waveforms Averaged 
1  Cycles Averaged 
16  Acquisitions per Waveform 
10.0806  Updata Rate (Hz) 

#FILE INFORMATION
TRUE -- External MUX Channel results are PARSED.
FALSE -- AC DC and Phase are NOT grouped.
TRUE -- Companion Program Settings File CREATED.
FALSE -- AC data not excluded
FALSE -- DC data not excluded
FALSE -- Phase data not excluded
FALSE -- Auxillary Chn. data not excluded
Tab delimiters

#CALIBRATION STATE
TRUE -- Waveform Calibration Values APPLIED.


#AUX CALIBRATION VALUES
Val Type	aux-1	

Term	1.0000e+00	
Factor	0.0000e+00	


#WF CALIBRATION VALUES
A = Detector Channel
Val Type	A-AC1	A-AC2	A-AC3	A-AC4	A-AC5	A-AC6	A-AC7	A-AC8	A-AC9	A-AC10	A-AC11	A-AC12	A-AC13	A-AC14	A-AC15	A-AC16	A-DC1	A-DC2	A-DC3	A-DC4	A-DC5	A-DC6	A-DC7	A-DC8	A-DC9	A-DC10	A-DC11	A-DC12	A-DC13	A-DC14	A-DC15	A-DC16	A-Ph1	A-Ph2	A-Ph3	A-Ph4	A-Ph5	A-Ph6	A-Ph7	A-Ph8	A-Ph9	A-Ph10	A-Ph11	A-Ph12	A-Ph13	A-Ph14	A-Ph15	A-Ph16	

Term	0.00000e+00	0.00000e+00	0.00000e+00	0.00000e+00	0.00000e+00	0.00000e+00	0.00000e+00	0.00000e+00	0.00000e+00	0.00000e+00	0.00000e+00	0.00000e+00	0.00000e+00	0.00000e+00	0.00000e+00	0.00000e+00	0.00000e+00	0.00000e+00	0.00000e+00	0.00000e+00	0.00000e+00	0.00000e+00	0.00000e+00	0.00000e+00	0.00000e+00	0.00000e+00	0.00000e+00	0.00000e+00	0.00000e+00	0.00000e+00	0.00000e+00	0.00000e+00	0.00000e+00	0.00000e+00	0.00000e+00	0.00000e+00	0.00000e+00	0.00000e+00	0.00000e+00	0.00000e+00	0.00000e+00	0.00000e+00	0.00000e+00	0.00000e+00	0.00000e+00	0.00000e+00	0.00000e+00	0.00000e+00	
Factor	1.00000e+00	1.00000e+00	1.00000e+00	1.00000e+00	1.00000e+00	1.00000e+00	1.00000e+00	1.00000e+00	1.00000e+00	1.00000e+00	1.00000e+00	1.00000e+00	1.00000e+00	1.00000e+00	1.00000e+00	1.00000e+00	1.00000e+00	1.00000e+00	1.00000e+00	1.00000e+00	1.00000e+00	1.00000e+00	1.00000e+00	1.00000e+00	1.00000e+00	1.00000e+00	1.00000e+00	1.00000e+00	1.00000e+00	1.00000e+00	1.00000e+00	1.00000e+00	X	X	X	X	X	X	X	X	X	X	X	X	X	X	X	X	

B = Detector Channel
Val Type	B-AC1	B-AC2	B-AC3	B-AC4	B-AC5	B-AC6	B-AC7	B-AC8	B-AC9	B-AC10	B-AC11	B-AC12	B-AC13	B-AC14	B-AC15	B-AC16	B-DC1	B-DC2	B-DC3	B-DC4	B-DC5	B-DC6	B-DC7	B-DC8	B-DC9	B-DC10	B-DC11	B-DC12	B-DC13	B-DC14	B-DC15	B-DC16	B-Ph1	B-Ph2	B-Ph3	B-Ph4	B-Ph5	B-Ph6	B-Ph7	B-Ph8	B-Ph9	B-Ph10	B-Ph11	B-Ph12	B-Ph13	B-Ph14	B-Ph15	B-Ph16	

Term	0.00000e+00	0.00000e+00	0.00000e+00	0.00000e+00	0.00000e+00	0.00000e+00	0.00000e+00	0.00000e+00	0.00000e+00	0.00000e+00	0.00000e+00	0.00000e+00	0.00000e+00	0.00000e+00	0.00000e+00	0.00000e+00	0.00000e+00	0.00000e+00	0.00000e+00	0.00000e+00	0.00000e+00	0.00000e+00	0.00000e+00	0.00000e+00	0.00000e+00	0.00000e+00	0.00000e+00	0.00000e+00	0.00000e+00	0.00000e+00	0.00000e+00	0.00000e+00	-8.19123e+01	-1.33616e+02	-1.36549e+02	-1.83428e+02	-9.10000e+01	-7.57922e+01	-1.57226e+02	-1.62015e+02	-5.82697e+01	-7.60492e+01	-1.75294e+02	-1.70420e+02	-1.80380e+02	-1.77569e+02	-8.04880e+01	-1.50081e+02	
Factor	1.80643e-05	1.32624e-04	3.68427e-05	4.65462e-01	1.21769e-06	1.16138e-06	1.75063e-01	6.96060e-02	1.13472e-06	1.15148e-06	2.37927e-01	3.21221e-02	2.91780e-02	1.00874e-02	1.28267e-06	1.47616e-02	8.56558e-07	8.80187e-07	2.44700e-07	2.10758e-01	9.63326e-09	9.62573e-09	7.96986e-02	3.32249e-02	9.63474e-09	9.63278e-09	9.89294e-02	1.48230e-02	1.38756e-02	4.77895e-03	9.61505e-09	6.71329e-03	X	X	X	X	X	X	X	X	X	X	X	X	X	X	X	X	



#DISTANCE SETTINGS
A = Detector Channel
A-1	A-2	A-3	A-4	A-5	A-6	A-7	A-8	A-9	A-10	A-11	A-12	A-13	A-14	A-15	A-16	

2.5000e+00	3.0000e+00	2.5000e+00	3.0000e+00	2.0000e+00	3.0000e+00	1.5000e+00	3.0000e+00	3.0000e+00	3.0000e+00	3.0000e+00	3.0000e+00	3.0000e+00	3.0000e+00	1.5000e+00	3.0000e+00	

B = Detector Channel
B-1	B-2	B-3	B-4	B-5	B-6	B-7	B-8	B-9	B-10	B-11	B-12	B-13	B-14	B-15	B-16	

1.0000e+01	1.0000e+01	1.0000e+01	1.4400e+00	1.0000e+01	1.0000e+01	1.5100e+00	1.9400e+00	1.0000e+01	1.0000e+01	1.9900e+00	2.4900e+00	2.4100e+00	2.9000e+00	1.0000e+01	2.9800e+00	




#DATA BEGINS
time	group	step	mark	flag	A-AC1	A-AC2	A-AC3	A-AC4	A-AC5	A-AC6	A-AC7	A-AC8	A-AC9	A-AC10	A-AC11	A-AC12	A-AC13	A-AC14	A-AC15	A-AC16	A-DC1	A-DC2	A-DC3	A-DC4	A-DC5	A-DC6	A-DC7	A-DC8	A-DC9	A-DC10	A-DC11	A-DC12	A-DC13	A-DC14	A-DC15	A-DC16	A-Ph1	A-Ph2	A-Ph3	A-Ph4	A-Ph5	A-Ph6	A-Ph7	A-Ph8	A-Ph9	A-Ph10	A-Ph11	A-Ph12	A-Ph13	A-Ph14	A-Ph15	A-Ph16	B-AC1	B-AC2	B-AC3	B-AC4	B-AC5	B-AC6	B-AC7	B-AC8	B-AC9	B-AC10	B-AC11	B-AC12	B-AC13	B-AC14	B-AC15	B-AC16	B-DC1	B-DC2	B-DC3	B-DC4	B-DC5	B-DC6	B-DC7	B-DC8	B-DC9	B-DC10	B-DC11	B-DC12	B-DC13	B-DC14	B-DC15	B-DC16	B-Ph1	B-Ph2	B-Ph3	B-Ph4	B-Ph5	B-Ph6	B-Ph7	B-Ph8	B-Ph9	B-Ph10	B-Ph11	B-Ph12	B-Ph13	B-Ph14	B-Ph15	B-Ph16	aux-1	digaux	

6663.302	1	1	0	768	0.1876	0.24274	0.021861	0.43668	0.14213	0.10406	0.16846	0.39101	0.053958	0.14655	0.37652	0.16334	0.12489	0.23567	0.15149	0.05865	-2.3708	-2.4437	-2.9542	-2.8063	-2.5187	-2.8917	-2.7396	-2.8229	-2.8063	-2.7062	-2.9542	-2.4229	-2.6937	-3.0708	-2.4292	-2.9104	95.964	298.352	191.286	78.446	102.254	178.347	367.827	343.470	127.198	111.326	64.224	313.445	120.140	291.379	379.590	323.014	0.00040473	0.00020314	0.00018217	1370.6	4.5214e-06	5.6105e-06	1368.5	368.14	4.6553e-06	3.6754e-06	423.61	140.85	121.55	42.139	7.9088e-06	52.089	0.00054354	0.00051661	0.00014607	1396.5	5.9547e-06	5.4819e-06	1380.2	376.85	5.866e-06	5.614e-06	427.35	144.34	124.44	42.818	6.122e-06	53.557	198.707	318.364	163.831	69.460	219.771	129.576	69.525	74.445	274.734	327.830	73.621	78.034	79.005	82.964	261.367	82.468	-8191	255	
6663.398	1	1	0	0	0.17174	0.10517	0.068653	0.39158	0.1468	0.045836	0.42434	0.21766	0.34888	0.35537	0.26047	0.10562	0.33837	0.13494	0.16468	0.24217	-2.1833	-2.525	-2.6625	-2.725	-2.6937	-2.7979	-2.8125	-2.8208	-2.7062	-2.6958	-2.9229	-2.6042	-2.7771	-2.8396	-2.45	-3.0208	200.511	272.718	310.102	350.086	128.576	232.054	372.554	302.375	73.405	211.571	95.402	234.090	302.349	89.349	390.316	380.065	0.00037031	0.00087346	0.00033138	1370.3	1.0244e-05	5.4152e-06	1372.8	368.38	2.979e-06	3.8313e-06	422.08	140.67	121.68	42.061	8.632e-06	51.961	0.00052689	0.00050818	0.00015643	1391.5	5.8615e-06	5.4116e-06	1386.1	376.04	5.7116e-06	5.5727e-06	430.75	143.57	124.41	42.81	6.4266e-06	53.354	210.831	179.968	217.597	69.529	180.675	154.229	69.534	74.276	126.411	301.334	73.706	77.936	78.945	82.937	209.066	82.416	-8191	255	
6663.494	1	1	0	0	0.12309	0.1048	0.2318	0.14785	0.1765	0.15399	0.19745	0.21739	0.14906	0.13784	0.086276	0.087713	0.074057	0.14392	0.36174	0.08206	-2.2604	-2.4792	-2.8583	-2.7562	-2.6625	-3.025	-2.6979	-2.9771	-2.7896	-2.4125	-3.05	-2.7188	-2.825	-2.7146	-2.4458	-2.7938	259.565	188.072	226.785	309.385	374.613	249.315	360.788	326.952	167.400	261.087	279.174	399.683	335.746	250.681	199.678	359.847	0.00047135	0.00076687	2.5014e-05	1365.2	1.9373e-06	7.6168e-06	1367.7	366.91	6.865e-06	8.8655e-06	423.34	140.31	121.75	41.978	5.1668e-06	51.918	0.00051389	0.00052053	0.0001643	1381.8	5.7538e-06	5.6491e-06	1387.1	374.64	5.5676e-06	5.8224e-06	433.87	143.29	124.25	42.921	6.5087e-06	53.223	201.798	137.341	134.551	69.556	331.576	210.095	69.610	74.475	195.437	200.471	73.846	77.992	79.063	83.215	392.082	82.249	-8191	255	
6663.591	1	1	0	0	0.21923	0.11251	0.19544	0.19665	0.083452	0.080603	0.11802	0.21145	0.27614	0.27624	0.14224	0.19627	0.19985	0.070356	0.19446	0.21151	-2.4417	-2.4437	-3.1	-2.5583	-2.6167	-2.8625	-2.6667	-2.6646	-2.8458	-2.7042	-3.0083	-2.8771	-2.575	-2.9458	-2.7021	-2.5458	202.507	274.056	142.984	64.123	259.762	208.194	116.998	369.977	160.480	87.216	372.449	290.526	316.543	74.832	182.649	354.580	0.00036259	0.0012226	0.00023996	1365.2	6.1801e-06	7.3577e-06	1371.3	367.66	3.8717e-06	6.1335e-06	422.25	140.69	122.03	42.113	3.7552e-06	52.179	0.00050639	0.00055539	0.00016493	1379.3	5.6113e-06	6.0679e-06	1385.8	373.96	5.4684e-06	6.1973e-06	431.98	143.24	124.03	43.14	6.2687e-06	53.184	197.004	173.488	114.736	69.423	155.832	219.633	69.471	74.366	257.007	150.266	73.411	78.120	78.885	82.753	182.576	82.242	-8191	255	
6663.687	1	1	0	0	0.2152	0.11754	0.053691	0.14042	0.08658	0.13638	0.23836	0.098284	0.14292	0.054986	0.029995	0.30455	0.2515	0.32499	0.087105	0.2065	-2.4688	-2.5667	-2.9	-2.7375	-2.4958	-2.8688	-2.9708	-2.6333	-2.7625	-2.6208	-2.9833	-2.8604	-2.4292	-3.0625	-2.5833	-2.5021	239.803	230.720	323.208	340.807	131.655	83.069	363.272	344.374	119.052	282.519	119.748	69.214	405.244	250.875	118.708	91.269	0.00041109	0.00072589	4.5979e-05	1368.8	6.2188e-06	4.2566e-06	1368.2	366.35	8.2094e-06	5.7292e-06	423.75	140.44	122.04	42.09	5.6998e-06	52.016	0.00049561	0.00057753	0.00015765	1374.2	5.5809e-06	6.3439e-06	1383.2	373.62	5.5257e-06	6.4585e-06	429.01	142.96	124.37	43.294	5.9765e-06	53.08	208.411	109.573	165.380	69.653	179.208	185.425	69.609	74.396	193.162	164.739	73.754	78.127	79.144	83.224	286.344	82.150	-8191	255	
6663.783	1	1	0	0	0.17849	0.11582	0.2444	0.25057	0.026934	0.046846	0.2996	0.22678	0.1443	0.071265	0.096931	0.10342	0.059376	0.12314	0.1612	0.14834	-2.5479	-2.5667	-2.6292	-2.8667	-2.4875	-2.7479	-2.7	-2.6854	-2.8646	-2.4604	-2.7438	-2.9292	-2.4333	-2.9688	-2.8	-2.3708	248.166	361.281	102.519	388.103	326.881	112.359	369.943	389.494	317.500	197.601	241.438	307.819	105.389	61.597	353.887	347.264	0.00039929	0.00076836	0.00013997	1364.5	7.6894e-06	2.901e-07	1367.5	367.28	7.0812e-06	1.1941e-06	422.54	140.03	121.82	41.789	4.8727e-06	52.069	0.00051646	0.000589	0.00015251	1369.3	5.7845e-06	6.4171e-06	1379.4	373	5.8218e-06	6.3837e-06	426.41	142.31	124.65	43.185	5.8305e-06	52.988	191.130	143.403	230.615	69.688	205.625	243.849	69.393	74.316	216.030	272.992	73.776	78.100	79.112	83.081	142.034	82.069	-8191	255	
6663.902	1	1	0	0	0.32824	0.11971	0.12799	0.34106	0.1481	0.23063	0.22135	0.041949	0.18231	0.045267	0.18156	0.062981	0.11675	0.18486	0.1481	0.36586	-2.4604	-2.6208	-2.4042	-3.0896	-2.5021	-2.8667	-2.8854	-2.6937	-2.7458	-2.425	-2.6479	-2.8937	-2.5708	-2.9542	-2.5812	-2.8083	248.029	366.158	70.403	59.006	305.378	189.966	403.530	226.956	340.755	166.195	366.203	234.702	319.741	73.285	89.671	313.768	0.00048917	0.00033834	6.5042e-05	1373.9	1.0123e-05	1.9093e-06	1366.4	367.61	1.1475e-05	4.81e-06	421.41	140.26	121.99	42.005	1.9706e-06	51.951	0.00055532	0.00059027	0.00015119	1370.9	6.3174e-06	6.4187e-06	1378	372.86	6.325e-06	6.3372e-06	426.37	142.32	125.19	43.142	5.7516e-06	53.009	205.026	58.458	398.602	69.145	162.871	59.407	69.575	74.283	249.769	91.806	73.545	78.057	78.777	83.023	62.031	82.253	-8191	255	
6663.998	1	1	0	0	0.082408	0.16796	0.19407	0.19925	0.063948	0.15577	0.28515	0.15407	0.16505	0.22629	0.2544	0.095551	0.060385	0.15194	0.10294	0.30892	-2.3646	-2.6646	-2.3292	-2.9854	-2.4375	-2.8792	-2.9938	-2.5833	-2.9479	-2.5646	-2.65	-2.8646	-2.7146	-2.7646	-2.8688	-2.5875	316.838	205.399	300.189	56.828	237.199	80.478	360.109	88.686	290.722	172.736	99.198	140.559	123.062	58.749	327.022	356.271	0.00044842	0.00070316	0.00018197	1370.7	3.6561e-06	2.6216e-06	1357.9	366.26	6.5732e-06	6.2537e-06	420.11	139.84	121.71	41.992	3.9139e-06	52.12	0.00059556	0.00056743	0.00014881	1373.6	6.6111e-06	6.2265e-06	1374.3	373.78	6.6e-06	6.0806e-06	424.26	142.87	125.58	42.975	5.621e-06	53.263	205.525	166.007	248.881	69.506	151.232	107.245	69.639	74.402	251.425	134.873	73.622	78.241	79.374	83.022	372.967	82.369	-8191	255	
6664.094	1	1	0	0	0.20758	0.06829	0.24877	0.10181	0.10667	0.28198	0.29812	0.24111	0.16109	0.29202	0.050944	0.057276	0.1471	0.21026	0.030126	0.24567	-2.3146	-2.7021	-2.5187	-2.9646	-2.3375	-2.8375	-3.0375	-2.525	-2.8542	-2.5021	-2.6208	-2.9083	-2.6292	-2.7417	-2.8229	-2.6042	413.403	385.560	291.207	328.587	349.813	410.336	336.947	358.588	240.303	66.794	79.748	317.166	183.343	378.739	300.168	401.365	0.00040709	0.00037408	3.6888e-05	1367.8	1.3986e-06	3.777e-06	1366.3	367.74	4.8576e-06	1.0609e-05	420.58	140.38	121.83	41.811	5.2044e-06	51.73	0.0006057	0.00054772	0.00014657	1384.5	6.6396e-06	6.075e-06	1375.1	375.35	6.6195e-06	5.9473e-06	424.05	143.81	125.25	42.972	5.6402e-06	53.471	205.207	405.647	235.849	69.807	212.813	220.828	69.717	74.690	309.456	153.513	74.064	77.982	79.055	82.943	179.816	82.454	-8191	255	
6664.190	1	1	0	0	0.16563	0.083503	0.40291	0.1913	0.097931	0.16017	0.10437	0.15333	0.19732	0.14486	0.22068	0.1719	0.15992	0.15278	0.16685	0.13953	-2.2646	-2.4854	-2.3958	-2.9458	-2.5521	-2.8292	-2.9417	-2.5417	-2.9562	-2.7271	-2.3688	-3.0396	-2.7188	-2.3458	-3	-2.575	140.127	296.137	241.534	124.558	141.775	62.883	232.130	409.388	155.517	119.680	384.963	299.655	376.821	261.733	342.452	336.747	0.00036932	0.00045619	0.00011726	1364.6	5.4402e-06	1.1029e-06	1369.1	367.42	5.4893e-06	3.8518e-06	421.35	140.21	121.72	41.98	6.093e-06	51.914	0.00059482	0.0005441	0.00014725	1393	6.448e-06	6.0252e-06	1378	376.51	6.4321e-06	5.826e-06	425.93	144.51	124.95	42.966	5.8215e-06	53.762	219.819	133.403	141.403	69.389	387.744	384.764	69.657	74.266	181.853	269.532	73.871	78.411	78.827	82.979	221.043	82.194	-8191	255	
6664.286	1	1	0	0	0.31164	0.23519	0.20114	0.17257	0.18799	0.20929	0.087842	0.24314	0.22067	0.14297	0.11861	0.24403	0.093548	0.15627	0.10557	0.065854	-2.1542	-2.8604	-2.3396	-2.9562	-2.6021	-2.5333	-3.0854	-2.5708	-2.7792	-2.8104	-2.5875	-2.8292	-2.8042	-2.4125	-2.625	-2.7812	317.015	265.113	102.632	361.053	314.477	401.564	83.763	393.198	272.839	219.140	197.784	365.195	131.106	77.676	315.551	193.851	0.00035348	0.0004768	0.00019029	1364.6	3.6331e-06	2.9466e-06	1370.2	365.35	1.2978e-06	5.0856e-06	422.2	140.14	121.92	41.923	8.354e-06	51.912	0.00058042	0.00053154	0.00015426	1397.7	6.1891e-06	5.8319e-06	1381.1	376.31	6.1818e-06	5.6374e-06	428.45	144.33	124.64	42.863	6.1625e-06	53.69	209.284	333.293	147.401	69.719	144.394	258.223	69.591	74.270	415.886	153.218	73.513	77.880	79.131	83.034	223.813	82.086	-8191	255	
6664.383	1	1	0	0	0.19962	0.1064	0.20189	0.14911	0.17988	0.12988	0.17496	0.19473	0.029456	0.20279	0.35132	0.1959	0.25159	0.14763	0.12996	0.064152	-2.1708	-2.925	-2.55	-2.9	-2.825	-2.4271	-3.2313	-2.5646	-2.6417	-2.8937	-2.5167	-2.7417	-2.9854	-2.775	-2.95	-2.5417	90.357	262.059	243.953	362.668	293.483	288.192	357.526	325.630	197.097	409.324	365.023	71.992	101.641	71.486	282.199	73.539	0.00037498	0.0002803	0.00031237	1368.1	6.9075e-06	1.1076e-06	1368.5	368.29	4.1375e-06	6.1427e-06	421.9	140.15	122.36	42.157	7.0414e-06	52.168	0.00055536	0.00051199	0.00016226	1395.1	5.9723e-06	5.7688e-06	1386.6	376.5	6.0737e-06	5.619e-06	433.65	144.39	124.73	43.091	6.6224e-06	53.686	210.579	281.247	131.073	69.540	149.498	161.432	69.405	74.313	142.369	205.906	73.817	77.896	79.158	83.010	217.133	82.144	-8191	255	
6664.479	1	1	0	0	0.061839	0.21727	0.072426	0.17456	0.08345	0.22618	0.26691	0.23558	0.22749	0.10914	0.19288	0.10492	0.15838	0.046723	0.16201	0.23171	-2.2812	-2.8042	-2.6125	-2.8271	-2.5771	-2.6	-2.9167	-2.8458	-2.6146	-2.9208	-2.6833	-2.6146	-2.8417	-2.4729	-2.7333	-2.675	69.038	249.514	62.776	353.889	165.238	96.564	312.226	364.728	294.369	89.839	106.971	284.724	416.084	196.344	93.473	344.588	0.00039986	0.00032572	0.00016591	1363.8	2.589e-06	5.0629e-06	1368.7	370.84	5.4946e-06	9.2768e-06	424.01	141.39	122.33	42.294	9.1882e-06	52.315	0.00055671	0.00052867	0.00017264	1395.1	5.9624e-06	6.0563e-06	1391.3	377.85	6.1734e-06	6.1048e-06	440.03	144.99	125.15	43.464	7.0867e-06	53.851	213.647	149.964	186.953	69.552	195.026	149.075	69.330	74.340	325.411	179.440	73.599	77.930	78.885	82.969	144.777	82.295	-8191	255	
6664.598	1	1	0	0	0.11992	0.10866	0.15024	0.097421	0.1225	0.2883	0.23546	0.35404	0.19042	0.13784	0.068959	0.077992	0.12391	0.15158	0.19681	0.16748	-1.9813	-2.925	-2.3708	-2.7125	-2.7667	-2.4021	-2.9083	-2.9938	-2.3917	-2.7042	-2.6167	-2.6437	-2.9292	-2.6312	-2.7417	-2.5521	293.500	328.819	178.440	415.327	144.530	198.051	414.612	401.829	282.859	294.791	334.092	181.800	71.106	320.090	78.239	415.604	0.00039211	0.00095426	4.5062e-05	1373.7	1.8748e-06	7.6401e-06	1374.2	369.88	6.4197e-06	1.1296e-05	424.33	141.35	122.98	42.422	4.5535e-06	52.349	0.00056503	0.00058839	0.00018181	1397.1	6.0554e-06	6.6244e-06	1394.5	377.88	6.1697e-06	6.6835e-06	440.4	144.94	125.31	43.701	6.9272e-06	53.678	217.363	153.534	401.534	69.778	202.748	219.333	69.589	74.437	274.141	232.987	73.360	78.256	79.102	82.901	187.855	82.126	-8191	255	
6664.694	1	1	0	0	0.1512	0.099162	0.21846	0.19337	0.16722	0.17292	0.042547	0.30781	0.15043	0.15634	0.083133	0.3049	0.20415	0.13244	0.20848	0.18015	-1.7208	-2.8458	-2.5687	-2.5	-2.8375	-2.5208	-2.8854	-2.8604	-2.4021	-2.9354	-2.5375	-2.5021	-3.0042	-2.4833	-2.7458	-2.9083	78.580	139.983	205.007	73.873	130.589	219.079	406.029	399.256	307.021	145.606	354.019	70.406	268.689	119.506	162.637	319.913	0.00033046	0.00099033	0.00012123	1377.5	6.835e-06	3.2576e-06	1373.5	370.03	3.5971e-06	8.0511e-06	424.18	141.34	122.86	42.446	3.6254e-06	52.367	0.00055403	0.00061871	0.00017291	1394.1	5.9307e-06	6.8622e-06	1391.9	377.2	6.1001e-06	6.8963e-06	435.08	144.45	125.6	43.864	6.6351e-06	53.559	228.226	166.025	134.323	69.470	153.991	122.531	69.472	74.359	195.748	184.304	73.952	78.120	79.007	83.185	363.941	81.967	-8191	255	
6664.790	1	1	0	0	0.15265	0.12121	0.017912	0.16853	0.14003	0.19877	0.19151	0.026164	0.086013	0.18268	0.17681	0.20423	0.26912	0.091968	0.3955	0.15723	-1.8833	-2.6583	-2.6083	-2.2792	-2.9437	-2.6021	-2.8646	-2.8625	-2.4375	-2.7521	-2.7083	-2.5146	-2.9667	-2.5771	-2.5917	-2.925	211.995	299.206	411.068	383.481	314.979	147.477	380.319	155.877	208.058	230.687	126.227	190.441	67.069	70.857	285.517	72.011	0.00043714	4.4646e-05	3.4834e-05	1367.7	4.6433e-06	2.1452e-06	1373.2	369.34	9.8064e-06	6.1422e-06	422.02	141.34	122.74	42.279	1.1701e-05	52.275	0.00056644	0.00063997	0.00016509	1388.5	6.2068e-06	7.1037e-06	1389.7	376.32	6.5023e-06	7.1109e-06	433.38	144.61	125.97	43.887	6.5427e-06	53.522	211.031	414.613	271.883	69.664	161.375	80.311	69.720	74.548	251.285	124.483	73.812	78.222	79.183	83.093	216.742	82.345	-8191	255	
6664.863	1	1	0	0	0.049884	0.050757	0.11162	0.09831	0.063301	0.14277	0.17697	0.11221	0.17114	0.12496	0.26983	0.1075	0.20005	0.47433	0.16611	0.20685	-2.0917	-2.6125	-2.7854	-2.7188	-2.9854	-2.3833	-2.9	-3.0417	-2.4938	-2.8833	-2.85	-2.4625	-2.8646	-2.6604	-2.5312	-3.0375	310.179	334.245	164.538	413.928	302.151	366.025	59.103	128.086	158.330	134.934	254.589	401.467	126.688	409.430	405.565	71.176	0.00048592	0.0005927	8.1451e-05	1367.5	1.1925e-05	1.7993e-06	1366.2	370.18	7.5939e-06	1.3963e-06	423.59	140.89	122.21	42.229	6.7484e-06	52.264	0.00061162	0.00064736	0.00016234	1385.6	6.6112e-06	6.8997e-06	1386.1	375.61	6.6868e-06	6.7691e-06	430.17	143.87	126.08	43.562	6.1394e-06	53.277	200.431	139.059	186.980	69.501	185.532	388.459	69.516	74.034	208.866	351.249	73.765	78.284	78.884	83.240	135.956	82.553	-8191	255	
6664.982	1	1	0	0	0.3736	0.073794	0.13555	0.050231	0.1491	0.081022	0.07056	0.055098	0.086123	0.070841	0.055784	0.39563	0.10529	0.27027	0.11597	0.31604	-2.1562	-2.5583	-2.9	-2.5833	-2.9375	-2.7354	-2.7812	-2.8396	-2.4229	-2.4958	-2.6562	-2.5229	-2.7417	-2.6479	-2.6896	-3.0375	104.072	204.550	102.013	347.705	258.140	243.967	59.544	234.271	109.307	297.282	377.127	250.994	64.344	413.511	330.011	367.540	0.00037516	0.00011132	0.00014114	1375.7	7.8906e-06	7.287e-06	1374	370.87	3.5656e-06	3.5636e-06	422.29	141.03	122.26	42.099	1.1038e-06	52.437	0.00061521	0.00059866	0.00015385	1387.2	6.8815e-06	6.569e-06	1387.4	376.71	6.9875e-06	6.6163e-06	429.56	144.7	126.91	43.542	6.1663e-06	53.69	207.457	286.036	378.611	69.542	179.856	174.166	69.450	74.456	227.199	75.480	73.538	78.019	79.177	82.966	194.317	82.294	-8191	255	
6665.078	1	1	0	0	0.18056	0.046237	0.16386	0.22326	0.26493	0.22513	0.40806	0.14265	0.31615	0.14575	0.16965	0.17846	0.19071	0.11532	0.041089	0.06314	-1.9229	-2.5854	-2.7188	-2.2854	-2.8292	-2.7562	-2.7604	-3.0333	-2.5604	-2.5375	-2.9479	-2.4729	-2.9792	-2.8229	-2.4604	-2.9375	207.264	346.663	378.812	315.399	282.586	122.624	389.973	408.470	399.564	63.436	319.000	81.296	370.579	334.524	186.227	327.059	0.00043367	0.00041455	0.0001101	1374.7	2.8599e-06	4.1216e-06	1374.9	371.49	3.2327e-06	5.8774e-06	420.81	141.15	122.89	42.319	1.3267e-06	52.11	0.00064042	0.00059577	0.00015192	1400.3	7.0397e-06	6.3861e-06	1389.1	378.59	6.9391e-06	6.4089e-06	427.07	144.94	126.85	43.386	5.9256e-06	53.859	205.092	241.491	346.110	69.281	147.638	191.583	69.522	74.503	256.713	290.970	74.095	78.138	79.133	83.057	126.255	82.354	-8191	255	
6665.174	1	1	0	0	0.18716	0.32627	0.23948	0.21882	0.31165	0.082265	0.27409	0.31401	0.14213	0.057407	0.17898	0.22135	0.29889	0.23155	0.092109	0.1329	-2.2417	-2.3167	-2.9479	-2.7042	-2.6042	-2.8104	-2.7375	-2.7979	-2.4437	-2.5292	-3.0917	-2.4437	-2.7812	-2.9583	-2.6104	-2.7604	133.441	339.672	103.162	98.361	390.402	263.326	113.799	290.643	381.431	150.464	130.132	89.794	355.137	121.180	138.954	283.137	0.00034323	0.00023534	7.0282e-05	1373.1	6.5414e-06	3.1667e-06	1375.2	370.52	3.8412e-06	2.7691e-06	426.68	141.6	122.19	42.062	6.8858e-06	52.275	0.00060771	0.00056913	0.00014638	1402.3	6.6652e-06	6.0303e-06	1387.2	379.21	6.6162e-06	6.1882e-06	428.32	145.68	126.31	43.231	6.1138e-06	54.161	208.436	217.400	198.141	69.495	186.277	73.557	69.467	74.363	344.945	208.737	73.859	78.097	78.818	82.976	191.720	82.142	-8191	255	
6665.295	1	1	0	0	0.14008	0.068336	0.24011	0.21301	0.055257	0.15901	0.22359	0.16761	0.31732	0.17281	0.099963	0.28005	0.11827	0.18072	0.31282	0.30707	-2.2188	-2.4708	-2.925	-2.55	-2.8083	-2.9083	-2.8021	-2.6958	-2.6417	-2.6312	-3.0021	-2.5812	-2.7188	-2.8187	-2.3896	-2.6937	75.015	295.653	329.018	67.156	350.167	200.381	406.267	368.200	144.440	311.232	94.638	71.053	103.883	130.607	170.235	372.373	0.00037839	0.00032799	0.00027762	1372.4	6.3149e-06	4.4631e-06	1371.2	369.3	5.05e-06	7.82e-06	427.75	140.84	122.9	42.234	1.0435e-05	52.187	0.00059538	0.0005648	0.00015342	1408.8	6.5657e-06	5.9938e-06	1388.6	380.47	6.4718e-06	6.1869e-06	433.5	145.84	126.24	43.279	6.6179e-06	54.256	207.268	164.298	145.203	69.468	199.715	117.484	69.592	74.233	218.803	199.825	73.903	77.972	78.988	83.235	192.114	82.124	-8191	255	
6665.391	1	1	0	0	0.22258	0.36258	0.070198	0.085786	0.13288	0.16646	0.20814	0.09084	0.15564	0.13304	0.21	0.27408	0.30243	0.090543	0.10731	0.15591	-2.3187	-2.3937	-2.7146	-2.6771	-2.6208	-2.7854	-2.7625	-3.1208	-2.5875	-2.5167	-2.9771	-2.7771	-2.775	-2.9562	-2.5708	-2.8438	170.579	415.188	304.412	397.116	80.698	346.549	359.802	163.770	145.962	255.799	336.513	313.057	339.574	284.230	216.585	254.438	0.00038418	8.5267e-05	0.00014619	1371.2	4.4297e-06	8.1331e-06	1373.6	370.92	3.6886e-06	3.2833e-06	424.89	140.9	122.31	41.992	2.8329e-06	51.982	0.00059379	0.00056887	0.00017042	1410.8	6.6035e-06	6.0336e-06	1393.5	380.59	6.4961e-06	6.2082e-06	438.92	145.68	125.99	43.248	7.0863e-06	54.131	209.743	283.794	110.281	69.289	141.866	215.329	69.604	74.421	257.130	152.269	73.989	78.165	79.044	83.090	206.439	82.230	-8191	255	
6665.463	1	1	0	0	0.18192	0.13821	0.30472	0.25964	0.21459	0.13049	0.28548	0.096609	0.055614	0.21309	0.073937	0.19807	0.26023	0.27263	0.063083	0.1706	-2.25	-2.6375	-2.7396	-2.6458	-2.6333	-2.7521	-2.9417	-3.0146	-2.7208	-2.725	-2.7292	-2.7146	-2.9104	-2.7229	-2.6708	-2.7667	413.014	187.690	69.436	317.065	332.313	63.249	387.335	114.348	173.583	187.347	266.860	386.388	82.699	57.278	173.683	149.954	0.00038316	0.00070564	0.00028533	1376.7	6.6527e-06	7.1832e-06	1372.2	369.29	6.005e-06	7.121e-06	425.04	140.81	122.86	42.326	3.6774e-06	52.266	0.00058379	0.00057669	0.00018176	1408.5	6.5118e-06	6.2103e-06	1396.3	379.71	6.2745e-06	6.3612e-06	441.9	145.19	125.7	43.34	7.1972e-06	53.892	210.721	94.352	157.997	69.542	165.365	202.451	69.510	74.316	318.017	201.210	73.772	78.203	79.098	83.129	237.287	82.217	-8191	255	
6665.584	1	1	0	0	0.24284	0.082361	0.12845	0.23061	0.28414	0.088136	0.26152	0.39387	0.27495	0.185	0.22168	0.20252	0.15231	0.17381	0.30007	0.1349	-2.2479	-2.5208	-2.9208	-2.5312	-2.4958	-3.0875	-2.6937	-3.0583	-2.9021	-2.4833	-2.8042	-2.8104	-2.5167	-2.8333	-2.625	-2.8438	72.856	64.874	331.704	377.706	347.846	248.301	74.141	354.486	87.432	237.997	326.882	98.001	356.240	405.840	350.499	376.945	0.00038775	0.00029718	6.7561e-05	1367.1	5.6973e-06	6.3728e-06	1370.1	368.51	7.124e-06	6.0845e-06	423.56	141.67	122.27	42.383	3.3176e-06	52.133	0.00056232	0.00059404	0.00018365	1395.6	6.2944e-06	6.4635e-06	1394.9	378.9	6.1456e-06	6.791e-06	441.89	144.98	125.6	43.655	7.2308e-06	53.887	197.224	141.789	209.001	69.526	299.208	239.259	69.387	74.267	207.095	229.847	73.747	78.020	79.013	83.120	386.084	81.945	-8191	255	
6665.678	1	1	0	0	0.20253	0.16357	0.12149	0.17102	0.10576	0.1147	0.13445	0.085063	0.063169	0.054459	0.11045	0.19068	0.056997	0.091751	0.21208	0.10458	-2.3292	-2.3021	-2.7438	-2.7229	-2.5292	-2.9437	-2.8771	-2.7354	-2.5604	-2.5021	-2.8229	-2.7188	-2.4646	-3.2313	-2.7167	-2.6521	158.356	245.478	250.005	75.592	259.125	57.122	346.025	323.495	59.445	385.542	283.973	387.870	116.003	384.027	187.916	199.365	0.00040536	0.00057788	0.00018561	1364	5.0674e-06	3.8476e-06	1371.2	369.4	5.1902e-06	7.2644e-06	424.83	140.99	122.28	42.285	2.6878e-06	51.982	0.00056109	0.00064091	0.00018272	1393.6	6.2449e-06	6.9599e-06	1392.1	377.72	6.0343e-06	7.0669e-06	438.18	144.19	125.46	43.721	6.7402e-06	53.609	213.678	154.581	203.580	69.477	184.972	181.494	69.399	74.308	267.602	256.099	74.005	78.237	78.704	82.927	86.221	82.216	-8191	255	
6665.774	1	1	0	0	0.1886	0.1427	0.2146	0.055582	0.060868	0.18306	0.40582	0.17619	0.16441	0.097728	0.12637	0.058762	0.26293	0.11307	0.19417	0.070783	-2.425	-2.4646	-2.8583	-2.8458	-2.5229	-3.1229	-2.8042	-2.6562	-3.1063	-2.6229	-2.6688	-2.9354	-2.4396	-2.8896	-2.7792	-2.55	322.953	148.351	385.794	408.269	312.440	93.109	386.149	410.964	208.042	180.799	374.926	135.725	368.470	99.990	318.596	250.493	0.00041249	0.00015577	4.9479e-05	1369.3	7.7036e-06	6.9052e-06	1368.7	369.51	4.9684e-06	4.4678e-06	423.38	140.81	122.08	42.093	3.6771e-06	52.036	0.00056187	0.00065511	0.00017267	1386.7	6.3607e-06	7.1672e-06	1388.6	376.99	6.3141e-06	7.1779e-06	435.34	143.76	125.71	43.696	6.4251e-06	53.473	218.020	223.496	172.627	69.469	222.172	184.272	69.445	74.420	224.069	272.540	73.250	78.206	78.984	83.171	258.567	82.302	-8191	255	
6665.895	1	1	0	0	0.18339	0.079176	0.25742	0.14108	0.26523	0.061833	0.10889	0.24464	0.10319	0.11116	0.18466	0.028507	0.23939	0.083768	0.076629	0.21212	-2.3271	-2.6104	-2.6083	-2.7625	-2.4854	-2.9813	-2.7979	-2.5938	-2.9333	-2.6146	-2.7729	-2.8396	-2.5146	-2.8417	-2.5646	-2.5187	235.177	225.227	77.518	148.891	85.185	179.581	174.173	296.230	310.800	376.161	414.645	245.995	168.575	298.743	413.669	343.429	0.0004697	0.00027329	0.00013854	1367.5	7.1374e-06	2.593e-06	1374.2	369.9	1.1319e-05	3.3287e-06	420.72	140.91	122.24	42.132	5.8538e-06	52.099	0.00058967	0.00064406	0.00016661	1383.1	6.7013e-06	7.0534e-06	1391.7	376.73	6.7368e-06	6.9723e-06	433.55	143.84	126.4	43.599	6.2441e-06	53.439	209.077	90.625	123.462	69.340	167.735	176.312	69.413	74.454	219.576	147.021	73.252	78.049	79.081	83.061	172.574	82.303	-8191	255	
6665.991	1	1	0	0	0.076534	0.1158	0.034429	0.27394	0.065761	0.21926	0.20264	0.21474	0.082833	0.24738	0.056136	0.30933	0.14522	0.243	0.11427	0.11703	-2.35	-2.5229	-2.6792	-2.7292	-2.7667	-2.7646	-2.6896	-2.6417	-2.8146	-2.5458	-2.5479	-3.0917	-2.7833	-2.6708	-2.7687	-2.4958	205.147	395.411	393.632	182.766	376.236	126.136	345.400	316.231	388.571	137.202	171.126	75.959	351.621	361.053	385.223	382.128	0.00052829	0.00052284	5.5681e-05	1373.5	8.9509e-06	3.416e-06	1373.9	370.17	3.1278e-06	7.3494e-06	424.72	140.75	122.51	42.066	1.4281e-06	52.134	0.00062645	0.000623	0.00016159	1387	7.0367e-06	6.8297e-06	1388.1	376.86	7.0561e-06	6.6453e-06	431.98	143.96	126.76	43.46	6.0385e-06	53.528	213.387	197.892	160.085	69.483	155.583	108.321	69.401	74.468	253.793	362.546	73.959	78.048	79.212	82.934	392.240	82.267	-8191	255	
6666.087	1	1	0	0	0.39746	0.22811	0.15274	0.27973	0.23476	0.092608	0.049643	0.40214	0.10705	0.041765	0.12441	0.22189	0.27183	0.14061	0.10636	0.032847	-2.3688	-2.7438	-2.4542	-2.9521	-2.3937	-2.8771	-3.0667	-2.4271	-2.8292	-2.6979	-2.7708	-2.8625	-2.5396	-2.3563	-2.6583	-2.7042	176.473	60.807	97.900	127.874	381.780	373.662	235.645	399.819	75.055	113.187	283.584	90.264	378.738	250.602	59.679	288.296	0.00038144	0.00070899	4.2643e-05	1373	3.7739e-06	4.8903e-06	1373.5	369.43	5.2073e-06	3.2606e-06	422.49	141.28	122.19	42.135	3.1933e-06	52.224	0.00063742	0.00059049	0.00015669	1391.1	7.0138e-06	6.5401e-06	1385.2	377.69	7.0669e-06	6.3432e-06	430.19	144.6	126.5	43.36	5.909e-06	53.792	202.566	344.270	159.552	69.452	286.605	363.191	69.507	74.517	202.818	240.428	73.515	77.937	78.869	83.083	330.605	82.177	-8191	255	
6666.159	1	1	0	0	0.39851	0.088249	0.2511	0.18756	0.19552	0.39427	0.25895	0.13592	0.22825	0.13014	0.088297	0.14101	0.19044	0.059398	0.1078	0.10268	-2.2188	-2.6458	-2.6396	-2.7729	-2.6104	-2.7313	-2.8958	-2.8	-2.9813	-2.7167	-2.6958	-2.9562	-2.7396	-2.7854	-2.8167	-2.7313	147.877	205.785	119.547	226.821	150.776	128.226	402.103	350.574	64.910	181.248	391.698	411.027	359.897	85.522	81.516	400.153	0.00042578	0.00054117	1.3206e-05	1370	6.5925e-06	4.6255e-06	1373.1	368.97	1.2997e-06	7.2254e-06	422.82	140.41	122.06	41.916	4.0745e-07	51.982	0.00063798	0.0005797	0.00015504	1404.5	6.9259e-06	6.4194e-06	1384.9	379.43	6.8805e-06	6.2292e-06	429.06	145.14	126.15	43.26	5.9623e-06	54.125	202.576	368.234	343.224	69.571	220.235	180.614	69.373	74.434	341.458	122.002	73.486	78.092	78.991	82.874	288.864	82.252	-8191	255	
6666.279	1	1	0	0	0.12302	0.14031	0.16001	0.22174	0.16195	0.071395	0.10239	0.24118	0.097456	0.10688	0.16691	0.092618	0.089369	0.05824	0.21632	0.15241	-2.2188	-2.7479	-2.6979	-2.8854	-2.6646	-2.6813	-3.0167	-2.5563	-2.7458	-2.9604	-2.6292	-3.0417	-2.7854	-2.5312	-2.9833	-2.5375	263.782	282.162	100.224	412.769	170.597	60.889	363.257	408.202	284.813	128.160	315.593	303.434	270.313	206.271	62.122	414.227	0.00034417	8.4075e-05	0.00011358	1369.9	4.6712e-06	2.978e-06	1373.5	369.73	4.3967e-06	2.5886e-06	419.78	140.41	123.33	41.922	8.8788e-06	52.186	0.00061143	0.00055741	0.00015726	1409.1	6.5427e-06	6.2043e-06	1388.1	379.87	6.5226e-06	5.9198e-06	431.63	145.44	125.93	43.195	6.2293e-06	54.087	202.968	384.485	199.118	69.343	87.691	176.065	69.431	74.522	128.703	217.464	73.382	78.147	79.174	82.997	208.264	82.054	-8191	255	
6666.375	1	1	0	0	0.16511	0.18114	0.077399	0.13899	0.18359	0.1671	0.13779	0.2206	0.25057	0.1825	0.28302	0.099385	0.19978	0.23605	0.14079	0.18213	-2.3104	-2.7521	-2.5417	-3.0146	-2.6312	-2.4792	-3.1	-2.7438	-2.8646	-2.6729	-2.6708	-2.8646	-2.525	-2.7708	-2.9792	-2.5042	413.972	101.089	235.211	215.543	338.640	176.720	342.093	304.039	219.327	72.741	67.517	373.690	176.379	73.249	333.547	360.594	0.0004037	0.00021045	0.00014116	1373.3	5.3013e-06	4.687e-06	1370.4	368.69	2.398e-06	9.4219e-07	424.34	141.16	122.69	42.165	4.1632e-06	52.301	0.00058434	0.00053707	0.00016416	1406.8	6.2678e-06	6.011e-06	1389	379.17	6.3505e-06	5.8432e-06	435.69	145.39	125.53	43.166	6.6682e-06	54.062	202.245	351.567	160.818	69.480	97.578	240.560	69.537	74.188	336.873	108.319	73.642	78.088	78.757	82.877	221.186	82.223	-8191	255	
6666.472	1	1	0	0	0.20566	0.091292	0.11662	0.22055	0.23294	0.0086384	0.049074	0.21018	0.044002	0.017014	0.32851	0.093597	0.055616	0.079585	0.12385	0.056983	-2.3375	-2.7479	-2.4271	-2.8646	-2.6896	-2.4	-2.9979	-2.7771	-2.6083	-2.8812	-2.6125	-2.7854	-2.9437	-2.5208	-2.9313	-2.6917	220.108	86.071	330.734	71.610	283.999	151.727	296.635	365.584	139.217	191.720	81.958	88.139	227.701	349.818	220.081	67.932	0.0003467	0.00061846	0.00033961	1374.1	3.0293e-06	6.4598e-06	1375.1	370.9	7.0186e-06	4.941e-06	422.97	140.59	122.48	42.128	6.0932e-06	52.089	0.0005769	0.00053778	0.00017489	1404.2	6.1329e-06	6.0868e-06	1393.7	378.75	6.2483e-06	5.9485e-06	438.68	144.88	125.25	43.261	6.929e-06	53.681	207.292	147.540	129.061	69.428	202.214	203.068	69.561	74.245	214.570	177.254	73.966	78.104	79.031	83.249	153.615	82.355	-8191	255	
6666.568	1	1	0	0	0.19444	0.2769	0.05572	0.14212	0.1302	0.29381	0.062386	0.33602	0.11668	0.02435	0.28823	0.15227	0.13022	0.26989	0.11698	0.19082	-1.8792	-2.9104	-2.4313	-2.7792	-2.8042	-2.6771	-3.1229	-2.7333	-2.4042	-2.9604	-2.5625	-2.7354	-3.1979	-2.45	-2.8104	-2.8229	134.352	80.876	190.614	228.848	161.844	113.711	388.093	330.923	351.284	238.197	341.016	254.064	369.439	89.255	267.282	368.152	0.00047483	0.00030995	5.0416e-05	1366.8	2.1271e-06	8.1657e-06	1376.4	369.45	5.4063e-06	7.5073e-06	422.69	140.85	122.37	42.109	5.5375e-06	52.049	0.00055624	0.00055394	0.00017717	1396.8	5.8749e-06	6.2967e-06	1396.3	377.42	6.0738e-06	6.2764e-06	438.04	144.6	124.91	43.466	6.9179e-06	53.528	216.309	97.465	188.260	69.315	165.327	207.775	69.461	74.194	176.223	202.542	73.579	78.101	79.209	83.004	285.766	82.546	-8191	255	
6666.664	1	1	0	0	0.11295	0.17069	0.13859	0.062327	0.17245	0.11847	0.058379	0.24016	0.14764	0.10344	0.099384	0.26362	0.1164	0.13847	0.097729	0.16931	-2.3146	-2.9479	-2.3958	-2.4833	-2.8583	-2.3667	-3.0187	-2.8875	-2.4854	-2.775	-2.6042	-2.8312	-2.8771	-2.7604	-2.5208	-2.7646	257.751	397.692	265.723	393.612	283.824	84.720	317.758	376.423	173.451	387.031	231.809	274.204	326.388	196.308	364.814	372.062	0.00041326	0.0011651	0.00010519	1369.5	5.2248e-07	4.357e-06	1379.4	370.47	2.0591e-06	7.642e-06	421.3	141.55	122.1	42.005	2.3162e-06	52.141	0.00054866	0.00059571	0.0001735	1395.8	5.8606e-06	6.7504e-06	1396.9	377.11	6.0295e-06	6.786e-06	436.45	144.83	125.21	43.679	6.7717e-06	53.523	215.249	150.036	124.636	69.627	387.103	221.051	69.584	74.148	176.233	180.764	73.606	78.017	78.799	82.917	210.331	82.284	-8191	255	
6666.760	1	1	0	0	0.20107	0.12715	0.032412	0.11357	0.052101	0.14511	0.028259	0.32491	0.12426	0.24552	0.12328	0.19119	0.34017	0.048189	0.20446	0.30569	-2.25	-2.8375	-2.5583	-2.7667	-2.9854	-2.4792	-2.8958	-2.8542	-2.6063	-2.7625	-2.5771	-2.6417	-2.8604	-2.4979	-2.7417	-3.1625	176.228	149.558	205.298	407.155	413.865	224.870	268.802	384.301	372.057	295.978	374.491	284.269	73.264	152.649	135.907	226.872	0.00037946	0.00063007	9.8306e-05	1374.9	5.6929e-06	8.1615e-06	1372.7	370.74	1.1755e-05	1.4161e-06	423.41	141.32	123.04	42.253	3.3363e-06	52.392	0.00056498	0.00063944	0.00017084	1396.4	6.092e-06	7.0525e-06	1394.9	377.54	6.293e-06	7.0653e-06	435.12	144.52	125.66	43.864	6.5188e-06	53.467	216.499	118.523	56.377	69.460	198.985	183.048	69.298	74.133	238.060	130.015	73.302	78.310	79.022	82.882	371.665	82.347	-8191	255	
6666.856	1	1	0	0	0.022878	0.22002	0.16914	0.27204	0.22345	0.088204	0.26075	0.13236	0.18126	0.04903	0.1835	0.40237	0.21664	0.16018	0.086477	0.16953	-2.2583	-2.7375	-2.7938	-2.4813	-2.9271	-2.6979	-2.7875	-2.8937	-2.7542	-2.7104	-2.6729	-2.6021	-2.8833	-2.5771	-2.7146	-2.9979	155.454	376.150	382.645	73.241	213.390	191.742	398.729	358.172	350.613	104.011	118.600	325.171	118.932	409.008	90.079	128.634	0.00049284	0.00041384	3.7401e-05	1375.8	9.2622e-06	1.6776e-06	1375.8	369.93	9.1865e-06	1.6913e-06	420.4	141.18	122.27	42.08	1.2059e-05	52.293	0.0005823	0.00063666	0.00015991	1390.6	6.3432e-06	6.8154e-06	1393.4	376.06	6.4433e-06	6.792e-06	430.73	143.95	125.9	43.534	6.2016e-06	53.195	201.913	131.638	236.585	69.452	211.844	410.604	69.599	74.186	216.031	325.762	73.661	78.133	78.996	83.068	238.649	82.386	-8191	255	
6666.975	1	1	0	0	0.10789	0.058341	0.08236	0.25438	0.06469	0.068517	0.35155	0.12166	0.049011	0.11897	0.1	0.42306	0.24468	0.16769	0.1235	0.38029	-2.025	-2.8792	-2.5812	-2.6437	-2.9833	-2.6083	-2.9729	-2.95	-2.6125	-2.775	-2.9021	-2.6708	-2.7292	-2.6792	-2.5875	-2.9938	345.685	222.735	258.860	367.668	280.606	314.858	366.361	371.426	330.387	99.311	378.722	348.634	400.048	409.126	400.403	356.803	0.00041862	0.0007058	0.00013137	1365.6	8.9174e-06	5.8295e-06	1374.1	371.16	1.0032e-05	4.0159e-06	426.55	140.89	122.46	42.087	2.5731e-06	52.335	0.00060327	0.00060769	0.00015402	1384.9	6.6611e-06	6.5838e-06	1389.6	376.46	6.875e-06	6.652e-06	430.21	144.09	126.56	43.481	6.2518e-06	53.387	193.436	77.541	134.879	69.402	214.343	311.955	69.469	74.305	220.575	358.836	73.343	78.062	78.948	82.867	402.023	82.502	-8191	255	
6667.071	1	1	0	0	0.06569	0.11087	0.10846	0.33286	0.16119	0.2182	0.15168	0.14992	0.38025	0.095199	0.26267	0.046678	0.12524	0.057717	0.12931	0.2353	-1.9125	-2.6479	-2.7396	-2.6312	-2.9833	-2.9	-2.8937	-2.9208	-2.8312	-2.8	-2.9021	-2.5646	-2.7562	-2.7375	-2.4708	-2.9667	315.924	273.959	347.956	390.988	208.091	144.519	367.534	71.898	262.963	308.529	145.479	256.642	199.587	313.003	368.954	408.096	0.00039487	0.00027161	0.00014769	1376.6	3.4775e-06	2.8466e-06	1378.3	370.93	4.3965e-06	2.9548e-06	425.94	141.23	121.84	42.02	3.6511e-06	52.271	0.00064041	0.00060236	0.00015325	1395.6	7.0431e-06	6.4341e-06	1389.1	378.03	7.0943e-06	6.5818e-06	429.1	145.1	126.62	43.348	6.2146e-06	53.736	202.639	315.463	330.070	69.238	196.583	329.693	69.455	74.327	180.158	172.523	73.862	78.039	78.946	82.867	386.428	82.363	-8191	255	
6667.167	1	1	0	0	0.27301	0.19758	0.29872	0.24143	0.18134	0.023648	0.03026	0.31943	0.079636	0.096414	0.063467	0.43788	0.29841	0.11166	0.15791	0.099712	-2.35	-2.6063	-2.7125	-2.5854	-2.9396	-2.7375	-2.6813	-2.9167	-2.7292	-2.7438	-2.9396	-2.5729	-3.0521	-3.0083	-2.3479	-3.025	160.349	146.654	150.713	405.187	352.033	147.789	117.308	329.963	195.672	218.520	121.331	342.274	401.299	389.858	398.926	390.535	0.00034027	0.00062519	0.00011685	1374.6	5.3985e-06	2.56e-06	1372.3	369.41	1.5403e-06	1.0576e-07	422.98	141.05	122.99	41.976	8.9368e-06	52.408	0.00064328	0.00059732	0.00015159	1404.4	7.0758e-06	6.3609e-06	1389	379.55	6.9687e-06	6.464e-06	429.17	145.27	126.75	43.221	6.1743e-06	54.086	197.960	190.960	83.689	69.570	323.488	279.527	69.503	74.270	369.088	113.257	73.463	78.152	79.013	83.001	232.518	82.152	-8191	255	
6667.264	1	1	0	0	0.064309	0.14647	0.20529	0.076255	0.22471	0.23572	0.058255	0.23648	0.01076	0.1562	0.2908	0.12089	0.24168	0.1376	0.068375	0.25855	-2.3708	-2.575	-2.7146	-2.5	-2.7792	-2.6667	-2.7229	-2.9604	-2.5812	-2.6458	-2.8979	-2.5771	-2.7125	-3.025	-2.5708	-3.0354	197.794	90.935	85.578	199.789	326.278	201.565	138.939	80.116	293.120	249.781	349.227	302.813	394.536	57.768	328.352	59.673	0.00033122	0.00070325	0.00024777	1374.5	4.0086e-06	1.4149e-06	1375.2	369.88	2.4991e-06	8.5401e-06	426.54	141.04	122.44	42.106	1.0107e-05	52.299	0.00061802	0.00058914	0.00015444	1411.2	6.8102e-06	6.176e-06	1390.9	380.75	6.6577e-06	6.3102e-06	431.82	145.85	126.32	43.167	6.4379e-06	54.236	226.513	343.873	172.064	69.520	315.365	97.514	69.488	74.258	130.818	298.336	73.549	78.251	79.089	83.102	209.801	82.185	-8191	255	
6667.360	1	1	0	0	0.25658	0.18896	0.13201	0.13524	0.057572	0.32802	0.27934	0.11546	0.11828	0.084341	0.33729	0.1132	0.22064	0.30729	0.12778	0.11242	-2.1813	-2.5187	-2.8333	-2.4917	-2.8542	-2.8583	-2.9333	-2.9292	-2.5125	-2.6354	-2.925	-2.7208	-2.3417	-2.8688	-2.3563	-2.9521	106.834	208.305	82.454	339.301	291.301	225.848	391.255	321.056	288.072	251.488	349.880	179.513	392.475	79.721	365.055	392.624	0.00030071	0.00050842	0.00026009	1375	3.1627e-06	1.5262e-06	1373.4	369.69	3.7806e-06	9.1142e-06	426.39	140.33	122.42	41.96	8.0288e-06	52	0.00059614	0.00057583	0.00016386	1413.2	6.6495e-06	6.0507e-06	1394.1	380.79	6.5296e-06	6.2767e-06	437.82	145.71	126.11	43.174	7.0365e-06	54.229	214.238	176.647	140.564	69.677	203.780	224.888	69.500	74.315	186.233	195.054	73.971	78.197	79.247	82.957	172.729	82.474	-8191	255	
6667.456	1	1	0	0	0.14627	0.21112	0.14145	0.089992	0.22043	0.20978	0.10205	0.17931	0.11467	0.28731	0.11142	0.27365	0.061488	0.11989	0.13995	0.14404	-2.1479	-2.5938	-2.7667	-2.7104	-2.5583	-2.9125	-2.8	-2.8563	-2.8688	-2.6063	-2.9813	-2.8438	-2.7812	-2.8625	-2.5167	-2.8667	58.821	283.769	323.413	308.634	88.841	225.327	291.520	69.252	161.952	229.826	294.717	119.118	315.056	71.073	77.932	364.281	0.0004358	0.00092522	0.00041388	1369.5	3.3414e-06	7.54e-06	1378.7	371.33	1.8921e-06	4.2613e-06	424.36	140.94	122.32	42.057	8.1213e-06	52.307	0.00059156	0.0005793	0.00017916	1410.5	6.6776e-06	6.1727e-06	1400	380.96	6.489e-06	6.3516e-06	441.93	145.17	125.84	43.229	7.2333e-06	53.991	203.464	109.288	158.341	69.634	155.178	197.101	69.460	74.215	277.343	207.078	73.775	78.214	79.099	82.928	203.786	82.251	-8191	255	
6667.576	1	1	0	0	0.30808	0.053076	0.29219	0.30023	0.069352	0.079318	0.1979	0.20833	0.096496	0.23644	0.15794	0.25813	0.057654	0.29069	0.21383	0.081835	-2.4562	-2.4125	-2.8958	-2.5312	-2.8167	-2.7896	-2.6979	-2.8375	-2.8167	-2.425	-2.9	-2.6604	-2.4396	-3.0104	-2.6708	-2.7625	189.046	69.766	90.772	394.622	289.143	183.144	256.487	340.994	387.137	348.700	166.863	367.045	166.872	113.088	282.741	355.542	0.00030791	0.00095096	0.00016487	1383.9	3.3551e-06	9.9793e-06	1374.9	370.53	4.4848e-06	7.2312e-06	420.69	140.91	122.59	42.098	1.1669e-06	52.211	0.00057318	0.00058966	0.00018564	1407.9	6.4224e-06	6.3933e-06	1398.8	379.63	6.2004e-06	6.6285e-06	443.27	145.07	125.67	43.441	7.3389e-06	53.849	206.241	126.701	126.420	69.470	250.669	184.978	69.490	74.264	303.013	222.881	73.849	78.106	78.993	82.995	174.064	81.998	-8191	255	
6667.671	1	1	0	0	0.14015	0.21348	0.12739	0.17488	0.20101	0.11618	0.22978	0.1036	0.10011	0.16293	0.19233	0.1953	0.23787	0.10574	0.12479	0.31745	-2.3896	-2.3417	-2.8521	-2.7562	-2.6542	-2.7646	-2.7479	-2.8854	-2.8792	-2.5396	-3	-2.8479	-2.6833	-3.0229	-2.5792	-2.675	382.539	153.771	282.244	394.643	380.346	404.012	392.491	91.665	205.673	321.744	367.000	185.013	376.806	126.307	385.416	313.993	0.00035753	0.00087066	5.9489e-05	1373.7	7.6588e-06	6.6857e-06	1373.5	369.34	4.0323e-06	9.2154e-06	422.44	141.02	122.68	42.138	3.6758e-06	52.439	0.00056782	0.00063078	0.00018782	1405	6.4506e-06	7.0257e-06	1401	379.55	6.2706e-06	7.2722e-06	443.09	145.1	125.88	43.758	7.2247e-06	53.937	201.096	92.315	161.812	69.548	201.583	209.387	69.426	74.393	211.652	253.475	73.422	77.846	78.920	83.095	352.686	82.101	-8191	255	
6667.767	1	1	0	0	0.10083	0.11571	0.25101	0.21401	0.21971	0.29641	0.16703	0.36716	0.23738	0.21106	0.19041	0.27674	0.077163	0.22462	0.085962	0.086264	-2.3792	-2.5687	-2.8937	-2.7833	-2.825	-2.9042	-2.6458	-2.9417	-2.9188	-2.6854	-2.7896	-2.8312	-2.7	-2.8875	-2.675	-2.7	266.004	103.237	131.757	331.189	255.130	299.136	399.943	378.419	58.416	165.115	188.908	73.890	289.872	69.806	161.896	415.709	0.00046474	0.00013644	0.00015308	1368.8	4.4267e-06	8.507e-06	1377.6	370.55	6.8189e-06	4.3694e-06	423.03	140.45	122.77	41.914	9.8601e-06	51.973	0.0005783	0.00067971	0.00018474	1401.5	6.5787e-06	7.4666e-06	1399.7	379.92	6.544e-06	7.6204e-06	442.23	144.76	126.37	43.946	7.0611e-06	53.888	213.920	297.754	145.376	69.409	170.031	156.942	69.520	74.595	276.627	83.019	73.728	78.120	79.165	82.979	232.340	82.209	-8191	255	
6667.863	1	1	0	0	0.16625	0.14722	0.14135	0.25742	0.25509	0.26694	0.30068	0.11598	0.13483	0.093549	0.085567	0.062064	0.19236	0.13687	0.079725	0.1972	-2.5479	-2.5812	-2.7104	-2.8333	-2.6792	-3.1562	-2.6937	-2.6875	-3.15	-2.6625	-2.7083	-3.1396	-2.6354	-2.8563	-2.8312	-2.6292	238.473	279.910	337.523	101.846	203.326	278.163	257.131	373.376	125.975	410.605	395.814	297.376	354.722	390.802	321.498	410.282	0.00042968	0.00047585	7.3743e-05	1381.6	8.9074e-06	3.6896e-06	1372.4	371.13	1.0341e-05	9.5547e-06	424.46	140.85	123.47	42.152	1.4076e-06	52.109	0.00062532	0.00070971	0.0001826	1403.3	7.1069e-06	7.7439e-06	1397.8	379.8	7.1013e-06	7.7287e-06	440.54	144.64	127.45	44.072	6.878e-06	53.824	208.614	369.658	116.114	69.252	197.964	212.081	69.383	74.446	233.567	200.913	73.778	78.059	78.949	82.950	224.446	82.250	-8191	255	
6667.984	1	1	0	0	0.28594	0.050097	0.20937	0.33201	0.05644	0.085261	0.27215	0.10216	0.12768	0.12831	0.26167	0.074823	0.28168	0.11193	0.18857	0.24902	-2.4917	-2.4688	-2.4437	-2.7938	-2.5292	-2.9188	-2.9729	-2.7562	-2.7875	-2.7188	-2.6937	-2.9875	-2.6063	-2.7208	-2.8458	-2.5854	410.000	69.614	115.166	67.703	162.996	279.580	214.213	279.980	112.841	68.521	164.474	136.330	324.102	355.131	265.537	129.267	0.00045981	0.00069613	4.9744e-05	1381.2	2.4296e-06	5.143e-06	1378.7	369.95	7.8019e-06	3.4342e-06	423.48	142.05	122.79	42.142	4.6318e-06	52.157	0.00066411	0.00068783	0.00017727	1401.7	7.4692e-06	7.5285e-06	1397.5	379.81	7.555e-06	7.362e-06	438.95	145.19	127.86	43.887	6.7278e-06	53.917	198.964	107.988	365.235	69.583	217.313	370.621	69.474	74.378	237.732	315.617	73.328	77.897	79.290	82.883	195.999	82.381	-8191	255	
6668.055	1	1	0	0	0.15728	0.35044	0.23006	0.18237	0.14465	0.17359	0.35075	0.27834	0.085999	0.1478	0.17163	0.23735	0.28443	0.15878	0.13066	0.20437	-2.3729	-2.8521	-2.5875	-3	-2.7375	-2.8958	-2.9042	-2.6208	-2.8458	-2.7729	-2.5687	-3.1562	-2.7167	-2.9188	-2.8521	-2.7604	217.867	112.097	148.957	386.256	392.419	393.404	371.281	377.000	299.125	382.363	187.000	227.425	77.572	356.207	344.651	386.288	0.00036717	0.00063314	0.00032098	1382.5	7.3526e-06	6.8477e-06	1379.1	371.83	2.6221e-06	5.7464e-06	424.82	141.41	122.5	42.055	3.6786e-06	52.18	0.00070121	0.00066119	0.00017551	1409.1	7.8157e-06	7.2867e-06	1397.2	381.18	7.8162e-06	7.1228e-06	438.21	145.64	128.08	43.81	6.5358e-06	54.266	210.680	352.337	79.379	69.444	134.853	334.350	69.558	74.139	304.929	266.250	73.793	78.099	78.904	83.126	321.316	82.366	-8191	255	
6668.152	1	1	0	0	0.21789	0.17393	0.22216	0.084638	0.32692	0.20803	0.21086	0.097263	0.24721	0.092052	0.1009	0.33372	0.348	0.0359	0.036066	0.26991	-2.3542	-2.675	-2.4125	-2.8396	-2.5646	-2.8104	-3.0833	-2.6625	-2.8937	-2.6167	-2.5021	-2.9354	-2.7812	-2.6521	-2.9479	-2.2979	226.243	372.238	123.005	67.023	355.654	335.699	401.730	73.740	266.840	172.475	323.844	190.308	109.856	121.853	258.315	366.755	0.00039033	0.00051552	0.00010222	1385.4	5.3129e-06	3.5816e-06	1374.3	371.31	3.5168e-06	2.6704e-06	427.04	141.22	122.75	42.125	5.5368e-06	52.18	0.00070501	0.00063715	0.0001711	1419.7	7.6786e-06	7.0655e-06	1393.7	382.57	7.6784e-06	6.9165e-06	437.31	146.27	127.5	43.68	6.5245e-06	54.446	198.789	58.770	363.561	69.595	197.108	72.140	69.292	74.236	360.519	138.269	73.701	78.187	79.024	83.062	326.108	82.376	-8191	255	
6668.248	1	1	0	0	0.1194	0.14583	0.12636	0.072788	0.10412	0.17494	0.25557	0.054903	0.17846	0.14137	0.17079	0.17129	0.22138	0.21276	0.18937	0.16561	-2.3375	-2.6063	-2.4188	-2.8833	-2.5917	-2.7188	-2.9125	-2.7292	-2.4354	-2.65	-2.5083	-2.8583	-2.9688	-2.5729	-2.95	-2.65	177.191	244.257	310.622	359.486	366.707	375.857	301.388	272.730	336.822	222.761	233.680	84.365	394.380	225.757	207.768	364.147	0.00045253	0.00062333	0.0001825	1380.3	6.3718e-06	4.1046e-06	1381	370.48	4.5381e-06	2.9382e-06	423.27	141.34	122.97	42.222	7.2729e-06	52.091	0.00068705	0.00062868	0.00017241	1431.8	7.3965e-06	7.0175e-06	1397.2	384.03	7.4901e-06	6.7395e-06	438.74	146.92	127.34	43.72	6.8388e-06	54.668	210.390	191.940	125.543	69.524	76.044	254.781	69.582	74.351	116.411	270.389	73.591	78.300	79.214	82.966	224.235	82.247	-8191	255	
6668.344	1	1	0	0	0.20573	0.079477	0.096971	0.14884	0.071236	0.28944	0.21568	0.31421	0.24013	0.13321	0.10146	0.076034	0.20842	0.22977	0.081563	0.11248	-2.1625	-2.7375	-2.1375	-2.925	-2.6437	-2.5187	-3.0938	-2.7625	-2.6146	-2.7896	-2.2438	-2.6167	-2.8438	-2.4729	-2.6708	-2.6458	344.334	275.111	387.657	125.645	113.478	279.266	325.508	396.460	240.750	282.819	73.736	165.195	150.215	400.011	272.210	330.754	0.00036178	9.4719e-05	0.00024794	1373.2	3.9174e-06	2.8721e-06	1381.7	371	3.4771e-06	3.6193e-06	425.87	141.13	122.58	42.035	8.9622e-06	52.254	0.00066573	0.00060959	0.00018152	1433.2	7.1461e-06	6.8421e-06	1402.2	384.14	7.2244e-06	6.633e-06	443.86	146.95	126.9	43.584	7.3366e-06	54.558	201.238	206.561	146.654	69.589	218.386	140.499	69.526	74.335	163.918	271.616	73.628	78.144	79.161	83.102	168.223	82.449	-8191	255	
6668.465	1	1	0	0	0.23264	0.069721	0.17829	0.090141	0.34549	0.20678	0.22291	0.14171	0.18148	0.051667	0.10861	0.19272	0.30693	0.091278	0.070451	0.1678	-2.1063	-2.7917	-2.3646	-2.8167	-2.6667	-2.3625	-3.1146	-2.7917	-2.4208	-2.7667	-2.5896	-2.7854	-2.9	-2.3792	-2.7917	-2.6708	76.838	409.704	127.865	238.599	311.653	405.812	281.086	385.842	175.011	325.679	283.850	227.461	409.276	336.141	296.652	346.556	0.00038616	0.00040415	0.0003018	1370.5	3.1242e-06	7.061e-06	1377.2	369.48	2.0875e-06	3.8086e-06	426.04	141.31	122.21	42.269	8.5878e-06	52.013	0.00065337	0.00060171	0.00019243	1428.7	7.0231e-06	6.7977e-06	1406.2	382.9	7.0856e-06	6.6593e-06	448.87	146.68	126.56	43.689	7.7239e-06	54.35	220.596	85.909	141.018	69.606	157.814	246.326	69.444	74.173	322.328	130.993	73.993	78.115	78.996	83.003	203.445	82.117	-8191	255	
6668.561	1	1	0	0	0.32992	0.29437	0.12758	0.2119	0.33768	0.38831	0.23819	0.25288	0.29935	0.17843	0.37372	0.18003	0.12366	0.20799	0.045933	0.10679	-1.9979	-2.8208	-2.4313	-2.6979	-2.8937	-2.4604	-3.1375	-2.5812	-2.4458	-3.1042	-2.6417	-2.6229	-2.9562	-2.5104	-2.8542	-2.4688	156.666	272.505	58.564	349.829	297.282	334.840	363.641	352.482	234.605	144.877	206.855	394.333	371.169	379.551	396.671	391.359	0.00036309	0.0008218	0.00010929	1380.4	5.0184e-06	8.8434e-06	1380.8	372.09	1.8355e-06	5.3518e-06	422.79	140.99	123.04	42.297	5.5467e-06	52.063	0.00063542	0.00061092	0.0001986	1423.7	6.7653e-06	6.9582e-06	1407.1	382.1	6.9354e-06	6.9342e-06	449.68	146.1	126.4	43.813	7.8609e-06	54.125	194.825	119.193	95.107	69.510	266.923	198.894	69.507	74.195	144.341	280.721	73.672	78.129	78.942	82.913	243.414	82.237	-8191	255	
6668.657	1	1	0	0	0.046461	0.019113	0.12477	0.15559	0.23196	0.15636	0.43563	0.23029	0.27357	0.23279	0.16095	0.34954	0.20631	0.069737	0.2597	0.3908	-2.1	-2.6083	-2.5104	-2.6937	-2.7833	-2.3083	-3.0333	-2.7375	-2.5021	-2.8708	-2.3812	-2.5229	-2.8292	-2.4062	-2.8229	-2.6833	83.521	145.638	113.289	363.693	301.369	247.447	367.656	328.621	235.741	126.632	195.544	91.425	406.037	334.846	264.632	354.901	0.00036838	0.00083754	0.0002052	1377	3.0159e-06	6.5521e-06	1374.3	370.89	5.0012e-06	4.0689e-06	422.67	141.47	122.69	42.288	1.8743e-06	51.952	0.00062603	0.00065258	0.0002001	1418.2	6.6961e-06	7.4916e-06	1406.8	381.58	6.8935e-06	7.5323e-06	448.4	146.06	126.32	44.074	7.7726e-06	54.056	204.812	163.734	344.447	69.707	247.208	229.028	69.480	74.211	219.185	314.123	73.367	78.207	79.016	82.889	300.700	82.143	-8191	255	
6668.753	1	1	0	0	0.15187	0.206	0.11642	0.41792	0.030144	0.1015	0.28693	0.16674	0.086041	0.14015	0.085302	0.3189	0.091235	0.27786	0.27786	0.099013	-2.1937	-2.7083	-2.55	-2.4708	-2.9646	-2.6125	-2.7521	-2.7792	-2.4875	-2.7729	-2.6271	-2.7687	-2.85	-2.3479	-2.6813	-2.8292	176.621	357.656	217.240	111.061	87.166	192.347	353.848	354.774	246.425	265.940	99.928	57.325	214.696	125.498	174.833	59.368	0.00031476	0.001197	0.00018857	1385.4	1.036e-06	5.7614e-06	1372.5	370.82	3.0539e-06	1.3217e-05	422.9	140.9	123.12	42.084	4.8867e-06	51.906	0.00062568	0.00070703	0.00019334	1416.3	6.6731e-06	7.8225e-06	1402.2	380.76	6.905e-06	7.8386e-06	444.4	145.75	126.8	44.103	7.4939e-06	53.841	206.312	171.773	69.590	69.368	302.100	186.111	69.568	74.362	197.122	182.325	73.488	78.046	78.869	83.060	154.385	82.239	-8191	255	
6668.847	1	1	0	0	0.12815	0.153	0.27789	0.13457	0.092669	0.19051	0.28582	0.032146	0.26152	0.44741	0.19723	0.11865	0.13859	0.25904	0.11327	0.30251	-2.0083	-2.6021	-2.5312	-2.4208	-3.0083	-2.5229	-2.9521	-2.8729	-2.3792	-2.6854	-2.7375	-2.4833	-2.9417	-2.5917	-2.7562	-2.9854	128.737	323.627	183.080	377.774	115.132	412.628	265.455	213.189	223.999	273.255	209.806	129.374	224.879	379.061	161.990	78.732	0.00042311	0.0011526	5.02e-05	1379.5	8.1482e-06	3.45e-06	1376.9	371.63	2.3397e-06	7.6297e-07	425.03	140.97	122.98	42.128	3.5269e-06	52.025	0.00064797	0.0007328	0.00018594	1413.4	7.102e-06	7.9873e-06	1403.4	380.34	7.3612e-06	7.9886e-06	442.89	145.4	127.43	44.162	7.3454e-06	53.792	202.865	131.618	283.394	69.561	221.775	267.575	69.378	74.276	162.053	367.266	73.570	78.013	78.771	83.181	198.332	82.013	-8191	255	
6668.945	1	1	0	0	0.19399	0.2348	0.090699	0.20803	0.28382	0.25479	0.5477	0.11332	0.073415	0.080425	0.13439	0.099654	0.23537	0.35588	0.077951	0.11225	-2.0479	-2.8458	-2.5979	-2.4521	-2.825	-2.3458	-2.7479	-2.9562	-2.4958	-2.8229	-2.4479	-2.5792	-2.9313	-2.8396	-2.45	-2.8417	99.303	137.040	203.201	415.103	404.277	309.326	339.762	355.990	183.054	285.094	376.107	325.840	363.487	381.038	203.816	57.846	0.00054027	0.00025947	0.00011062	1376	1.2411e-05	1.0831e-06	1379.6	370.98	2.7851e-06	9.0678e-06	425.31	141.31	122.6	42.128	4.6603e-06	52.035	0.00069709	0.00073165	0.00018257	1411.2	7.7275e-06	7.8881e-06	1402.3	380.11	7.9839e-06	7.9315e-06	443.3	145.77	128.31	44.096	7.323e-06	54.047	204.174	347.050	373.498	69.525	183.203	339.550	69.432	74.334	273.933	286.971	73.725	78.082	78.783	82.926	242.261	82.394	-8191	255	
6669.064	1	1	0	0	0.10974	0.042628	0.12422	0.081639	0.20534	0.20818	0.28508	0.095523	0.043301	0.24109	0.24392	0.19765	0.23072	0.22543	0.15504	0.23079	-1.9937	-2.5854	-2.6437	-2.4062	-2.8312	-2.4104	-2.7354	-3.0146	-2.675	-2.6167	-2.9208	-2.3208	-2.8458	-2.5187	-2.4479	-2.8021	400.029	104.443	154.851	285.131	66.886	386.028	399.403	206.734	328.523	215.440	407.474	107.917	413.052	127.959	364.062	387.682	0.00047555	4.5864e-05	0.00012557	1380.5	8.0275e-06	1.4507e-06	1380.6	370.93	3.9526e-06	6.6366e-06	422.73	140.96	123.02	42.28	1.7952e-06	52.34	0.00073686	0.00071443	0.00018091	1417.8	8.2106e-06	7.6841e-06	1403.9	381.69	8.405e-06	7.8237e-06	441.88	146.57	129.07	44.037	7.3601e-06	54.546	209.422	307.531	399.614	69.505	201.776	307.048	69.312	74.518	305.724	381.334	73.457	78.002	79.276	83.258	141.588	82.203	-8191	255	
6669.160	1	1	0	0	0.17963	0.13688	0.25065	0.11411	0.30489	0.16699	0.25684	0.22445	0.24117	0.062164	0.056797	0.1948	0.14329	0.19721	0.23722	0.075516	-1.9833	-2.5938	-2.7854	-2.6021	-2.8958	-2.7229	-2.575	-2.9792	-2.4146	-2.625	-2.7729	-2.5604	-2.9813	-2.6125	-2.5792	-2.8708	184.092	75.050	379.711	337.958	59.366	91.910	339.808	345.516	58.005	246.451	172.041	380.654	336.256	322.278	298.510	359.928	0.00037117	0.00039002	0.00015857	1383.8	4.6678e-06	1.3597e-06	1378.4	371.5	2.7581e-06	8.6414e-07	425.74	141.35	122.83	42.282	3.3688e-06	52.243	0.00076202	0.00071059	0.00018079	1434.6	8.4241e-06	7.5457e-06	1401.9	384.59	8.2709e-06	7.6825e-06	440.74	147.41	128.86	43.927	7.214e-06	54.899	208.624	192.380	333.326	69.552	156.501	381.518	69.416	74.313	326.650	285.752	73.843	77.847	79.196	83.113	70.437	82.396	-8191	255	
6669.256	1	1	0	0	0.084972	0.1038	0.14721	0.17489	0.071273	0.085167	0.14365	0.057869	0.2591	0.16498	0.29935	0.17901	0.23052	0.27928	0.055494	0.14769	-2.0042	-2.5458	-2.6688	-2.5938	-2.5125	-2.7625	-2.6188	-2.8604	-2.5729	-2.5	-2.7479	-2.4938	-2.8937	-2.9354	-2.4521	-2.875	264.095	222.642	335.495	384.687	65.392	191.012	398.131	254.199	78.189	198.620	415.810	283.986	405.766	154.436	187.834	376.558	0.00041424	0.00011833	0.00019402	1371.8	6.2915e-06	3.2463e-06	1379.5	372.02	4.8944e-06	1.5834e-06	426.17	140.91	122.6	42.124	9.899e-06	52.199	0.00073552	0.00069472	0.00017918	1441.6	8.1757e-06	7.3791e-06	1402.8	385.98	7.9673e-06	7.5284e-06	442.97	147.99	128.47	43.829	7.4725e-06	55.113	198.949	373.177	116.709	69.367	139.260	194.834	69.365	74.317	337.450	137.729	73.576	78.219	79.035	82.780	209.316	82.072	-8191	255	
6669.353	1	1	0	0	0.28574	0.24187	0.14338	0.18056	0.19484	0.23178	0.18667	0.063103	0.13963	0.22921	0.32004	0.21921	0.24378	0.23218	0.11478	0.1501	-2.1188	-2.5333	-2.7167	-2.6583	-2.4958	-2.6729	-2.475	-2.7375	-2.5125	-2.325	-2.9167	-2.4688	-2.7667	-2.8583	-2.1896	-2.8521	155.384	285.820	157.617	364.913	376.085	262.818	391.050	262.032	358.120	397.245	395.547	351.937	397.240	395.615	247.186	328.767	0.0003688	0.00016635	0.00042444	1377.3	2.6231e-06	7.5418e-06	1375.1	372.58	1.642e-06	2.161e-06	424.26	140.93	123.28	42.207	5.6417e-06	52.143	0.00070717	0.00067774	0.00018637	1444.6	7.8036e-06	7.132e-06	1403.5	386.49	7.5441e-06	7.2281e-06	444.26	147.68	127.55	43.623	7.5976e-06	54.767	211.823	125.670	165.571	69.539	150.802	255.962	69.570	74.136	208.201	132.365	73.922	78.069	78.917	83.177	191.723	82.260	-8191	255	
6669.449	1	1	0	0	0.1697	0.13436	0.11401	0.10777	0.070245	0.18793	0.24768	0.233	0.20737	0.097956	0.255	0.087997	0.30227	0.060866	0.07092	0.067736	-1.9937	-2.3521	-2.9	-2.375	-2.2958	-2.7417	-2.5312	-2.8604	-2.6	-2.4792	-2.8875	-2.5458	-2.8	-2.8917	-2.5146	-2.7833	244.610	304.928	98.545	230.986	64.803	73.070	90.834	378.920	80.013	296.310	107.884	363.742	370.712	152.132	405.666	255.945	0.00033848	0.00044792	0.00020141	1375	3.495e-06	5.0849e-06	1379.3	371.68	4.9284e-06	2.3035e-06	425.99	141.49	122.54	42.243	3.4493e-06	52.061	0.00065331	0.00063119	0.00018928	1429	7.2203e-06	6.5873e-06	1404.6	383.33	6.879e-06	6.7125e-06	446.24	146.44	126.86	43.486	7.7162e-06	54.41	201.720	292.539	137.356	69.600	122.395	160.246	69.596	74.170	324.351	121.706	73.518	78.104	79.003	82.887	166.477	82.111	-8191	255	
6669.545	1	1	0	0	0.226	0.14755	0.19293	0.18904	0.12889	0.061775	0.23709	0.12843	0.21039	0.051219	0.080814	0.17044	0.22191	0.1509	0.13952	0.32737	-2.2938	-2.6354	-2.7917	-2.4917	-2.6188	-2.8771	-2.6375	-2.8292	-2.5875	-2.4146	-2.7833	-2.4875	-2.5667	-2.9229	-2.5438	-2.7438	376.259	287.695	295.358	121.818	190.854	87.440	331.220	351.996	367.268	223.238	242.883	369.424	373.703	406.609	410.926	386.378	0.00032152	0.00041121	0.00024473	1376.8	6.9966e-06	6.7522e-06	1378.2	371.65	9.1892e-07	1.1423e-05	424.69	140.43	122.64	42.046	5.5107e-06	51.893	0.00061504	0.00062179	0.00019564	1420	6.8878e-06	6.6395e-06	1404.8	382.56	6.612e-06	6.853e-06	447.78	145.49	126.26	43.454	7.4703e-06	53.972	209.349	99.609	111.394	69.374	210.335	213.664	69.467	74.314	323.054	197.332	73.805	78.111	78.889	83.087	397.379	82.224	-8191	255	
6669.666	1	1	0	0	0.1678	0.076878	0.063318	0.25502	0.18801	0.2598	0.098282	0.11786	0.13849	0.14799	0.26202	0.13225	0.16202	0.16435	0.13305	0.10686	-2.35	-2.475	-2.6833	-2.6625	-2.4667	-2.5938	-2.5875	-2.9188	-3.0104	-2.3646	-2.8167	-2.7417	-2.5062	-2.7958	-2.7	-2.6396	90.472	176.451	131.411	67.501	339.785	177.044	297.765	128.874	73.890	119.394	355.523	89.194	292.408	388.171	126.959	370.994	0.00036027	0.00081602	2.8588e-05	1370.2	1.4303e-06	9.8329e-06	1373.4	369.94	3.5723e-07	9.7535e-07	421.29	141.09	122.19	42.125	2.001e-06	51.951	0.00057493	0.0006168	0.00018583	1400.4	6.3117e-06	6.6592e-06	1397.8	379.16	6.1101e-06	6.9147e-06	442.47	144.59	125.35	43.56	7.147e-06	53.734	195.480	135.792	272.545	69.547	362.062	214.590	69.374	74.233	224.631	256.117	73.866	78.287	79.205	82.970	365.109	82.091	-8191	255	
6669.760	1	1	0	0	0.039828	0.29104	0.041235	0.2549	0.28702	0.23883	0.27316	0.30268	0.21883	0.15549	0.073805	0.062564	0.34556	0.23839	0.10276	0.18304	-2.3688	-2.3604	-2.8104	-2.7021	-2.2667	-2.8833	-2.5625	-2.5583	-2.9292	-2.6979	-2.7333	-2.9042	-2.75	-2.8	-2.6188	-2.35	234.686	237.155	152.564	117.021	163.081	90.260	367.676	368.358	357.715	78.587	76.378	390.519	389.103	128.720	87.762	248.942	0.00042236	0.0012203	0.00014058	1372.9	3.4829e-06	6.1074e-06	1371.1	369.45	7.921e-06	3.0083e-06	419.64	140.56	122.76	41.902	4.648e-06	52.181	0.00056488	0.00065475	0.0001834	1396.8	6.4223e-06	7.1707e-06	1395	378.65	6.275e-06	7.2948e-06	439.87	144.2	125.8	43.699	6.9014e-06	53.695	212.235	135.720	194.746	69.518	219.156	247.722	69.555	74.373	185.612	111.978	73.641	78.317	79.279	83.219	157.877	82.321	-8191	255	
6669.856	1	1	0	0	0.1746	0.20761	0.14469	0.09078	0.12393	0.16151	0.38474	0.2665	0.16968	0.088432	0.32192	0.19469	0.27299	0.15211	0.2002	0.15158	-2.2604	-2.3104	-2.8292	-2.5312	-2.3396	-2.5896	-2.6292	-2.4708	-2.775	-2.4583	-2.4562	-2.8063	-2.4021	-2.8625	-2.3875	-2.575	410.315	352.030	177.621	229.819	279.411	282.255	398.560	143.494	63.350	361.019	374.627	69.620	371.432	113.303	234.170	91.396	0.00047705	0.00061717	0.00019003	1368.1	3.3422e-06	2.7052e-06	1373	370.42	6.9806e-06	1.0043e-05	422.52	141	122.09	42.043	2.8786e-06	51.942	0.00058473	0.0006796	0.00017683	1394.4	6.7269e-06	7.4744e-06	1394.1	378.38	6.7009e-06	7.471e-06	437.58	144.21	126.42	43.795	6.7171e-06	53.559	207.245	179.794	65.345	69.516	249.807	323.933	69.529	74.178	228.058	221.997	73.706	78.047	78.984	83.019	378.538	82.282	-8191	255	
6669.928	1	1	0	0	0.35038	0.1559	0.1902	0.13993	0.19332	0.10714	0.36596	0.34844	0.11736	0.12792	0.1747	0.10352	0.034269	0.15406	0.22864	0.18641	-2.4854	-2.4437	-2.5542	-2.9	-2.5083	-2.7083	-2.8688	-2.6625	-2.9729	-2.6354	-2.5917	-2.8729	-2.5438	-2.8063	-2.7083	-2.2979	101.198	387.925	104.850	122.294	134.630	355.015	375.040	362.940	340.631	90.287	343.195	88.415	230.492	344.498	290.463	404.545	0.00045977	0.00062554	0.00033746	1370.7	1.7663e-07	1.3619e-05	1367.5	369.27	1.0731e-05	3.03e-06	423.66	140.63	122.7	42.031	3.565e-06	52.165	0.00063177	0.0006792	0.00017274	1390.2	7.1764e-06	7.3578e-06	1391	377.52	7.1151e-06	7.2347e-06	436.47	143.94	126.87	43.609	6.5582e-06	53.549	207.938	240.508	140.348	69.531	271.611	237.727	69.432	74.456	204.246	144.206	73.362	78.178	79.183	83.060	407.594	82.483	-8191	255	
6670.026	1	1	0	0	0.18867	0.16025	0.13818	0.11404	0.13204	0.17918	0.15895	0.26718	0.11163	0.20079	0.067808	0.30149	0.16805	0.10104	0.17441	0.27403	-2.3021	-2.5167	-2.4146	-2.8792	-2.3417	-2.7146	-3.0625	-2.6354	-2.875	-2.5708	-2.5938	-2.8333	-2.5417	-2.6437	-2.8604	-2.3958	95.324	186.972	360.535	317.974	215.637	271.346	66.708	387.974	91.176	107.551	95.751	371.561	130.801	132.897	356.018	370.642	0.00039631	0.00077089	0.00011347	1371	5.0043e-06	7.7139e-06	1371.2	369.57	6.2778e-06	3.3708e-06	424.33	140.52	122	42.174	5.9198e-06	52.136	0.00066563	0.00064558	0.0001701	1393.5	7.4207e-06	7.1151e-06	1389.1	378.64	7.4983e-06	6.9764e-06	435.39	144.53	127.01	43.576	6.3726e-06	53.773	192.564	302.313	177.339	69.500	160.036	158.621	69.435	74.399	244.670	394.079	73.840	78.154	79.180	83.069	265.383	82.355	-8191	255	
6670.145	1	1	0	0	0.23276	0.26932	0.28306	0.04163	0.20894	0.15748	0.13744	0.12884	0.14177	0.20626	0.13664	0.21413	0.36225	0.22256	0.24703	0.17161	-2.3271	-2.5479	-2.4437	-2.8688	-2.3896	-2.6958	-2.8833	-2.8333	-2.8375	-2.7292	-2.3354	-2.7687	-2.5167	-2.5812	-2.8833	-2.475	355.722	202.860	101.489	146.260	407.192	290.803	284.567	388.389	297.839	82.752	277.689	344.409	63.378	93.730	101.411	178.028	0.0004017	0.00097118	0.00016034	1369.9	6.9256e-07	8.5429e-07	1371.3	370.22	7.5105e-06	2.5838e-06	423.11	140.53	122.47	41.925	4.4053e-06	52.128	0.00068031	0.00061738	0.00016393	1400.1	7.3227e-06	6.7386e-06	1386.6	379.7	7.2953e-06	6.5519e-06	431.48	144.74	126.58	43.296	6.0653e-06	53.894	213.782	161.803	209.292	69.467	335.924	311.313	69.462	74.607	280.269	331.232	73.383	78.154	79.019	83.178	234.124	82.218	-8191	255	
6670.241	1	1	0	0	0.26046	0.047202	0.34419	0.18178	0.089921	0.41303	0.34952	0.14153	0.068893	0.1325	0.050773	0.078607	0.12063	0.10273	0.041554	0.22367	-2.2375	-2.5687	-2.4458	-2.7833	-2.7	-2.6937	-2.9062	-2.7292	-2.7042	-2.7271	-2.6208	-2.8604	-2.55	-2.5604	-2.9875	-2.3604	233.977	346.747	361.341	356.914	218.429	385.480	388.237	239.038	268.921	57.839	233.793	171.188	159.610	359.804	178.777	341.115	0.00025221	0.00034707	3.6097e-05	1378	2.2253e-06	4.056e-06	1372.5	369.26	6.283e-06	4.1048e-06	422.52	140.73	122.09	41.902	4.9712e-06	52.263	0.00065239	0.0005923	0.00015975	1410.2	7.0489e-06	6.5957e-06	1389	380.79	7.1209e-06	6.4283e-06	433.34	145.87	126.42	43.333	6.3089e-06	54.227	197.869	99.880	192.605	69.480	341.397	262.680	69.403	74.428	145.082	244.006	73.799	78.308	78.899	83.101	246.554	82.067	-8191	255	
6670.337	1	1	0	0	0.17328	0.060734	0.12029	0.20949	0.10973	0.049264	0.31663	0.49129	0.13237	0.38289	0.1774	0.28326	0.197	0.2435	0.18094	0.087523	-2.075	-2.7417	-2.3375	-2.8333	-2.5042	-2.6792	-3.0104	-2.5542	-2.7	-2.7771	-2.5625	-2.7854	-2.6937	-2.6021	-2.8729	-2.4708	255.839	214.780	351.596	149.507	363.310	168.751	321.771	335.464	368.706	143.974	127.758	363.907	364.712	259.684	243.759	328.473	0.00028154	6.0537e-05	0.00019677	1375.4	1.7509e-06	2.5834e-06	1377	369.72	2.8113e-06	3.397e-06	425.05	141.31	122.57	42.142	7.553e-06	51.795	0.00063445	0.00057956	0.00016674	1420.8	6.7738e-06	6.4563e-06	1392.9	381.12	6.8425e-06	6.2321e-06	436.9	146.19	125.94	43.242	6.6937e-06	54.109	200.562	223.424	151.174	69.477	126.232	366.068	69.547	74.578	110.571	306.542	73.552	77.903	78.988	83.089	168.008	82.202	-8191	255	
6670.457	1	1	0	0	0.27226	0.21432	0.14965	0.16769	0.095749	0.25008	0.12606	0.11644	0.16195	0.14452	0.17676	0.47872	0.10754	0.12054	0.06207	0.24282	-2.15	-2.6146	-2.4458	-2.7833	-2.5667	-2.3542	-3.0896	-2.6417	-2.5312	-2.8417	-2.4479	-2.9292	-2.7062	-2.4958	-2.8292	-2.65	296.035	85.160	406.166	92.519	135.720	273.707	371.851	141.461	117.845	148.934	116.431	88.935	342.372	390.172	220.212	344.116	0.00033535	0.00021551	0.00026375	1372.8	4.8761e-06	7.1018e-06	1375	369.87	5.2571e-06	4.012e-06	423.9	140.83	122.5	41.89	1.1542e-05	51.912	0.00061613	0.00056269	0.00017679	1416.7	6.5688e-06	6.3278e-06	1397.4	380.63	6.681e-06	6.1366e-06	440.68	145.56	125.76	43.175	7.0506e-06	53.798	210.690	206.166	125.959	69.064	75.831	205.501	69.590	74.787	241.125	153.566	73.766	78.033	78.796	83.044	177.491	82.076	-8191	255	
6670.529	1	1	0	0	0.045849	0.13042	0.28951	0.23397	0.16031	0.12396	0.11883	0.22474	0.091485	0.13227	0.15433	0.028221	0.037197	0.20515	0.4005	0.25178	-2.1146	-2.7188	-2.3625	-2.6813	-2.7062	-2.4104	-2.9771	-2.7625	-2.4042	-2.9708	-2.5208	-2.8104	-2.7167	-2.6896	-2.6875	-2.5208	135.671	351.105	101.894	411.121	283.355	181.676	389.621	379.721	154.752	304.476	101.419	175.917	211.778	71.234	140.515	312.978	0.00045682	0.00037639	0.00016678	1370.3	2.4465e-06	5.0915e-06	1376	369.54	4.1446e-06	6.4032e-06	424.87	140.27	122.08	42.206	4.7892e-06	52.039	0.00059478	0.0005647	0.00018299	1408.2	6.3132e-06	6.3689e-06	1399.9	379.46	6.4282e-06	6.2315e-06	442.65	144.87	125.27	43.296	7.2695e-06	53.654	200.145	120.100	79.363	69.358	224.334	219.098	69.491	74.351	270.847	196.404	74.036	77.903	78.993	82.866	161.062	82.035	-8191	255	
6670.625	1	1	0	0	0.10857	0.29842	0.23887	0.10686	0.097606	0.30673	0.18316	0.14899	0.24581	0.14065	0.12453	0.23851	0.2041	0.26508	0.074958	0.26881	-1.9937	-2.8333	-2.4792	-2.5438	-2.7167	-2.3271	-3.0083	-2.6271	-2.425	-2.8396	-2.5104	-2.6708	-2.8104	-2.6188	-2.8333	-2.6583	308.232	62.975	134.276	63.528	115.268	336.504	341.854	309.391	90.912	378.191	201.126	394.691	133.240	315.645	81.609	381.407	0.0003554	0.00051595	5.7636e-05	1374.5	4.8104e-06	3.0142e-06	1377.6	369.75	4.2813e-06	1.0004e-05	423.04	140.82	122.27	42.094	1.1157e-05	52.049	0.00057897	0.00058985	0.0001847	1404.1	6.1395e-06	6.6374e-06	1399.9	378.76	6.3015e-06	6.6603e-06	441.91	144.74	125.02	43.51	7.1568e-06	53.476	231.838	97.788	68.140	69.485	199.433	261.129	69.410	74.128	246.532	199.450	73.488	77.935	79.152	83.012	243.696	82.134	-8191	255	
6670.746	1	1	0	0	0.23888	0.29698	0.19724	0.24381	0.2906	0.066111	0.23274	0.38634	0.026387	0.12295	0.039409	0.16729	0.1772	0.19429	0.022276	0.088554	-1.975	-2.6792	-2.3875	-2.6354	-2.7958	-2.4167	-2.9938	-2.9875	-2.1562	-2.7146	-2.7083	-2.5708	-2.8333	-2.4417	-2.7667	-2.75	143.548	67.283	85.228	369.497	378.868	130.367	377.298	388.188	286.649	218.202	237.644	61.992	112.864	103.901	381.448	91.378	0.00038715	0.0013979	0.00013101	1372.6	5.7971e-06	7.1651e-06	1371.2	368.73	1.2494e-06	4.928e-06	425.52	141.17	122.49	41.973	1.357e-06	51.97	0.00057033	0.00063046	0.00017851	1402.1	6.0912e-06	7.1261e-06	1395.8	377.49	6.2507e-06	7.0902e-06	438.88	144.54	125.31	43.622	6.8684e-06	53.366	216.659	196.996	323.267	69.203	239.382	215.286	69.398	74.350	125.869	197.188	73.783	77.848	79.071	83.019	111.278	82.169	-8191	255	
6670.840	1	1	0	0	0.19393	0.24761	0.081092	0.25391	0.17132	0.075207	0.19776	0.17201	0.062113	0.16871	0.18896	0.13697	0.16465	0.10484	0.18571	0.16815	-2.0479	-2.7	-2.5708	-2.4375	-2.7646	-2.4771	-2.8167	-2.8688	-2.4938	-2.7313	-2.7167	-2.5187	-2.8271	-2.4625	-2.6396	-2.8312	361.564	61.703	58.910	245.933	128.027	160.575	353.829	313.027	248.283	103.168	378.727	351.163	69.296	179.250	406.289	348.512	0.00045527	0.00075083	0.00011809	1372.7	5.2669e-06	1.4819e-06	1373.3	369.27	9.2806e-06	3.512e-06	422.15	140.4	122.09	41.832	2.6031e-06	51.972	0.0005791	0.00065613	0.0001694	1395.8	6.2394e-06	7.1443e-06	1393.7	377.07	6.4489e-06	7.1973e-06	433.76	144.06	125.55	43.628	6.5762e-06	53.286	204.995	77.077	273.076	69.200	176.557	183.138	69.303	74.379	202.395	147.631	73.889	78.107	78.896	83.082	251.166	82.113	-8191	255	
6670.937	1	1	0	0	0.040686	0.019858	0.17062	0.27373	0.10116	0.15856	0.16074	0.38081	0.17077	0.14189	0.14749	0.22538	0.22677	0.20268	0.043411	0.31781	-1.9604	-2.5542	-2.5833	-2.3021	-2.8104	-2.3063	-2.7271	-2.9417	-2.2708	-2.8833	-2.6021	-2.5229	-2.8458	-2.6063	-2.5229	-2.7562	186.995	260.474	415.207	329.561	377.969	339.784	269.281	76.260	302.470	310.300	263.719	383.880	371.500	311.297	286.958	404.788	0.00033845	0.00010495	0.00016564	1367.6	1.0567e-05	3.5068e-06	1377.1	370.12	9.9215e-06	1.1014e-06	423.15	140.82	122.38	41.918	5.0622e-06	52.107	0.00060361	0.00065397	0.00016258	1389.8	6.6161e-06	6.9813e-06	1391.5	376.53	6.8328e-06	6.9776e-06	431.24	143.81	126.21	43.425	6.3713e-06	53.202	208.419	384.869	156.737	69.273	176.654	81.197	69.489	74.384	259.139	301.901	73.810	78.247	79.084	82.994	140.020	82.279	-8191	255	
6671.057	1	1	0	0	0.26109	0.40194	0.2073	0.052335	0.10719	0.0029912	0.22724	0.11115	0.28766	0.21985	0.20794	0.29487	0.27156	0.14635	0.13094	0.17199	-2.1042	-2.4375	-2.575	-2.3875	-2.7375	-2.4146	-2.8875	-2.7938	-2.4479	-2.8146	-2.6792	-2.5333	-2.7979	-2.6021	-2.6833	-2.9792	174.905	153.287	233.866	411.652	370.959	79.369	405.000	354.144	340.286	301.631	258.018	376.903	388.046	376.174	388.796	181.605	0.00045011	0.00018008	5.3912e-05	1367.8	4.6288e-06	7.9538e-06	1372.7	370.63	5.1292e-06	2.2305e-06	422.62	140.9	122.45	42.054	7.6149e-06	52.01	0.00063669	0.00062835	0.00015848	1393.6	7.0294e-06	6.734e-06	1391.9	377.18	7.0926e-06	6.748e-06	430.13	144.05	126.59	43.318	6.2336e-06	53.368	202.876	181.376	109.569	69.541	124.210	366.552	69.356	74.372	271.103	202.619	73.569	78.219	79.066	83.063	275.618	82.513	-8191	255	
6671.153	1	1	0	0	0.049741	0.13003	0.086726	0.078577	0.21831	0.21182	0.27181	0.11522	0.26154	0.13347	0.2394	0.076243	0.10002	0.21269	0.03961	0.16102	-2.1333	-2.5333	-2.7146	-2.3667	-2.8187	-2.5187	-2.6021	-2.825	-2.3625	-2.7875	-2.6063	-2.4604	-2.7458	-2.5438	-2.4396	-2.9271	270.630	269.750	258.685	372.889	307.747	281.297	309.869	332.788	373.017	193.808	75.864	70.003	317.133	408.351	269.494	58.929	0.00038976	0.00030185	9.6101e-05	1379.8	9.0385e-07	4.492e-06	1373.7	369.81	5.0023e-06	2.9474e-06	422.23	141.52	121.76	41.995	4.2702e-06	52.013	0.00064827	0.00060506	0.00015329	1397.5	7.1111e-06	6.453e-06	1390.1	377.87	7.0913e-06	6.4923e-06	427.72	144.82	126.35	43.191	6.066e-06	53.658	202.454	133.347	240.994	69.670	302.299	208.997	69.618	74.436	212.269	324.292	73.857	78.338	78.854	83.196	219.383	82.029	-8191	255	
6671.225	1	1	0	0	0.31166	0.13634	0.11083	0.1559	0.14441	0.081655	0.12228	0.38688	0.25391	0.23119	0.2906	0.15092	0.091038	0.14572	0.37233	0.16331	-1.9104	-2.3875	-2.8146	-2.3271	-2.6083	-2.7792	-2.6083	-3.1104	-2.4729	-2.3792	-2.8583	-2.55	-2.9333	-2.6604	-2.6354	-2.8583	274.010	289.370	323.371	167.871	374.888	249.302	339.895	350.646	279.634	130.956	92.295	382.148	364.447	324.281	100.928	376.283	0.00035403	0.00021964	0.0001663	1383.4	1.7785e-06	4.4405e-06	1373.7	369.28	5.5746e-06	2.9173e-06	423.99	140.83	121.83	41.976	2.4131e-06	52.197	0.00062985	0.00058917	0.00014959	1407.1	6.8414e-06	6.2116e-06	1387.4	378.82	6.7283e-06	6.3612e-06	428.68	145.3	125.97	43.092	6.2107e-06	54.064	204.680	199.676	144.220	69.458	285.836	378.084	69.399	74.495	127.499	172.474	73.694	77.982	79.280	83.216	145.234	82.312	-8191	255	
6671.321	1	1	0	0	0.17175	0.086371	0.37403	0.28174	0.30238	0.19093	0.17029	0.039518	0.20443	0.12262	0.099279	0.2227	0.15434	0.091013	0.1539	0.22719	-2.1083	-2.3625	-2.8604	-2.3771	-2.775	-2.6437	-2.6708	-2.8354	-2.4688	-2.4979	-2.9083	-2.6083	-2.4792	-2.7687	-2.2917	-2.9083	260.548	384.800	293.411	347.302	145.124	197.603	269.589	335.006	405.279	342.317	290.233	69.929	377.110	84.992	95.917	394.553	0.00033714	0.001016	0.00021278	1375.5	4.7804e-06	2.8977e-06	1375.1	368.89	6.3068e-06	1.6221e-06	425.27	140.24	122.31	41.852	1.2623e-05	52.048	0.00060712	0.00057977	0.00015541	1410.8	6.6548e-06	6.0537e-06	1390.1	379.52	6.4432e-06	6.1759e-06	431.76	145.15	125.83	42.967	6.4273e-06	53.956	204.163	139.311	147.045	69.628	301.518	179.985	69.383	74.411	253.798	412.154	73.537	78.163	79.153	82.994	220.955	82.202	-8191	255	
6671.442	1	1	0	0	0.27574	0.32403	0.040602	0.18496	0.10112	0.21971	0.1408	0.095725	0.12007	0.10675	0.11844	0.23073	0.10369	0.059174	0.075372	0.23123	-2.0333	-2.3542	-2.6625	-2.4667	-2.6813	-2.8208	-2.3937	-2.9833	-2.5854	-2.3688	-3.025	-2.4417	-2.7125	-2.8354	-2.5396	-2.9854	89.545	208.119	378.527	136.450	164.519	91.995	387.983	102.416	104.011	188.787	198.909	389.806	392.749	412.509	293.479	350.527	0.00030732	0.00035714	0.0001747	1372.3	3.6005e-06	9.265e-07	1374.3	370.79	6.5221e-08	2.9843e-06	424.61	140.02	122.63	41.907	4.4885e-06	51.991	0.00057849	0.00055823	0.00016549	1410.2	6.4737e-06	5.9309e-06	1392.3	380.64	6.3182e-06	6.0483e-06	436.47	145.03	125.49	42.958	6.7639e-06	53.769	193.335	390.664	147.195	69.403	277.903	223.255	69.525	74.336	260.142	249.377	73.796	78.053	79.045	83.078	191.142	82.461	-8191	255	
6671.538	1	1	0	0	0.23691	0.23211	0.25857	0.31103	0.35839	0.10066	0.17042	0.17011	0.11274	0.10743	0.2498	0.072081	0.066378	0.17525	0.19097	0.40586	-2.1667	-2.2958	-2.7188	-2.6354	-2.5396	-2.775	-2.7333	-2.7875	-2.6729	-2.4313	-2.8167	-2.6896	-2.5563	-2.9479	-2.5979	-2.8187	170.293	369.861	292.360	376.484	105.651	147.162	129.823	340.083	75.169	281.082	389.667	123.210	401.309	140.766	177.636	327.331	0.00041393	0.0012842	0.00020438	1377	1.869e-06	6.599e-06	1374.8	370.44	5.1934e-06	5.6234e-06	421.61	140.92	122.2	41.952	8.6885e-06	51.893	0.00056017	0.00054969	0.00017234	1403.1	6.2774e-06	5.9096e-06	1395	379.06	6.0871e-06	6.0891e-06	438.53	144.52	125.15	43.008	7.0181e-06	53.53	209.632	182.450	108.290	69.388	70.964	198.538	69.585	74.338	63.026	303.572	73.524	78.003	79.032	83.252	153.683	82.352	-8191	255	
6671.634	1	1	0	0	0.074062	0.24678	0.051529	0.28288	0.15914	0.10432	0.39989	0.19794	0.10981	0.19585	0.066037	0.084506	0.34133	0.24472	0.2657	0.13551	-2.1833	-2.3271	-2.7167	-2.6354	-2.2896	-2.8333	-2.7938	-2.625	-2.8167	-2.3917	-2.9625	-2.6813	-2.5812	-2.8104	-2.5563	-2.6729	207.334	92.409	379.228	409.324	130.972	256.253	356.147	354.695	190.377	237.812	180.607	262.483	371.824	327.209	159.772	379.678	0.00041381	0.0012892	2.1622e-05	1373.6	2.1251e-06	9.6774e-06	1374.5	369.96	1.0479e-05	6.1654e-06	425.35	140.53	122.68	41.952	5.4864e-06	51.914	0.00054608	0.0005782	0.00017853	1396.5	6.1643e-06	6.2676e-06	1395.6	378.26	5.8807e-06	6.5188e-06	440.63	143.96	125.01	43.279	6.9389e-06	53.391	197.806	122.331	329.650	69.560	251.888	206.078	69.453	74.411	278.691	213.368	73.670	78.296	78.969	83.180	227.165	82.170	-8191	255	
6671.730	1	1	0	0	0.15209	0.52037	0.20037	0.32533	0.090995	0.16229	0.045815	0.16382	0.042094	0.12581	0.13276	0.1441	0.17902	0.11357	0.31562	0.24176	-2.3271	-2.3937	-2.7812	-2.6562	-2.3937	-2.7	-2.8104	-2.5958	-2.5833	-2.425	-2.6271	-2.8958	-2.3	-2.7938	-2.4896	-2.4583	336.352	394.414	396.065	59.148	383.735	91.353	397.239	389.330	328.719	375.319	106.969	316.371	407.397	414.228	320.844	324.172	0.00039664	0.00069207	8.3744e-05	1372.3	4.537e-06	9.6477e-06	1373.9	369.29	5.7833e-06	6.2464e-06	421.49	139.93	121.84	41.943	8.1422e-06	51.886	0.00053757	0.00061343	0.00017537	1391.5	6.0577e-06	6.6747e-06	1394.6	377.13	5.8666e-06	6.8483e-06	436.36	143.61	124.87	43.498	6.6802e-06	53.32	214.694	179.475	240.742	69.580	204.209	169.055	69.420	74.298	221.575	235.735	73.244	78.245	78.924	83.108	196.535	82.741	-8191	255	
6671.825	1	1	0	0	0.084616	0.067193	0.17515	0.15485	0.21719	0.14263	0.26467	0.14041	0.021116	0.073112	0.24244	0.10103	0.13281	0.35977	0.057655	0.24658	-2.3604	-2.2479	-2.6583	-2.7646	-2.3625	-2.7792	-2.5062	-2.6937	-2.6479	-2.6375	-2.6896	-2.7625	-2.6437	-2.8417	-2.5125	-2.5083	190.449	368.901	269.397	403.479	73.953	395.460	401.388	294.696	390.664	74.731	400.662	252.222	393.367	406.970	376.862	298.009	0.00046803	0.00083631	0.00030574	1371.3	7.5171e-06	6.4401e-06	1371.8	369.44	3.0827e-06	1.2351e-06	424.26	140.63	122.92	41.88	7.9592e-06	52.017	0.00054523	0.00063694	0.00016982	1386.6	6.1962e-06	6.9927e-06	1390.6	376.89	6.1094e-06	7.0147e-06	434.48	143.38	125.59	43.499	6.3824e-06	53.24	205.662	146.178	172.475	69.243	232.220	230.085	69.451	74.318	250.402	297.622	73.241	77.793	78.670	83.120	182.533	82.236	-8191	255	
6671.921	1	1	0	0	0.22616	0.18004	0.046237	0.090089	0.042699	0.37182	0.10099	0.3524	0.14762	0.25635	0.13246	0.056774	0.19728	0.095853	0.35067	0.26572	-2.2104	-2.4458	-2.4396	-2.7229	-2.3417	-2.7812	-2.8854	-2.5208	-2.7167	-2.6458	-2.4833	-2.8354	-2.3417	-2.6562	-2.8104	-2.5458	320.561	200.472	166.684	84.705	299.680	178.327	279.657	354.720	355.806	200.395	76.042	280.496	80.834	327.460	164.888	94.043	0.00046436	0.00031982	0.00014101	1366.2	6.7213e-06	7.8449e-06	1375	370.13	8.5497e-06	7.8281e-07	422.12	140.49	122.47	41.738	2.5279e-06	51.769	0.00057869	0.00063509	0.00016288	1383.7	6.489e-06	6.9256e-06	1389	376.37	6.5178e-06	6.8299e-06	432.03	143.15	125.96	43.375	6.1466e-06	53.13	205.459	84.564	158.751	69.480	226.777	269.524	69.560	74.334	206.953	96.770	73.443	78.189	78.906	83.046	126.269	82.343	-8191	255	
6672.019	1	1	0	0	0.1783	0.083386	0.36109	0.11712	0.12398	0.18406	0.39844	0.19614	0.17358	0.28801	0.11014	0.10961	0.21859	0.12441	0.29424	0.21218	-2.2292	-2.6604	-2.3125	-2.7208	-2.4	-2.7687	-2.825	-2.6625	-2.7438	-2.7479	-2.6083	-3.0229	-2.6813	-2.7729	-2.6688	-2.6083	299.273	277.060	220.713	322.989	103.609	138.460	383.722	288.622	339.257	301.358	80.850	370.492	397.151	125.599	86.242	347.535	0.00043921	0.00034012	0.00026343	1371.9	6.4007e-06	6.3035e-06	1375.5	369.41	6.6678e-06	1.1025e-06	424.7	140.76	121.85	41.923	6.988e-06	51.94	0.00061084	0.00060972	0.00015863	1382.5	6.8163e-06	6.6349e-06	1386.9	376.12	6.8043e-06	6.4415e-06	429.93	143.38	125.82	43.195	5.8931e-06	53.05	201.589	308.681	217.263	69.375	155.289	159.559	69.456	74.597	217.166	127.888	73.715	78.025	79.037	83.197	284.002	82.295	-8191	255	
6672.138	1	1	0	0	0.28726	0.059723	0.10622	0.15251	0.13892	0.10136	0.42289	0.33633	0.15563	0.10081	0.16492	0.10929	0.13086	0.22741	0.08152	0.20607	-2.425	-2.6125	-2.3708	-2.9479	-2.5167	-2.5271	-2.9917	-2.8292	-2.5062	-2.7979	-2.6896	-2.8854	-2.5563	-2.6646	-2.8229	-2.525	341.703	314.184	174.620	311.548	184.595	127.300	368.104	365.906	260.730	368.969	215.577	134.359	162.443	413.848	141.441	341.412	0.00038846	0.00051314	0.0001164	1372.8	3.2943e-06	1.175e-06	1372.8	369.75	1.4133e-06	2.0157e-06	419.69	140.87	121.73	41.928	5.5812e-06	51.803	0.0006173	0.00057495	0.0001523	1385.6	6.9007e-06	6.3927e-06	1383.3	376.79	6.9326e-06	6.3173e-06	428.63	144.04	125.99	43.146	5.895e-06	53.552	206.049	71.261	100.665	69.683	97.380	375.813	69.543	74.400	276.020	349.994	73.799	78.271	78.942	83.146	257.295	82.177	-8191	255	
6672.234	1	1	0	0	0.23175	0.33928	0.22001	0.13343	0.15798	0.18706	0.11484	0.22596	0.23747	0.17596	0.03414	0.1554	0.087321	0.056591	0.20031	0.22944	-2.3521	-2.4479	-2.3521	-2.8229	-2.3688	-2.6562	-3.0187	-2.6083	-2.8458	-2.7083	-2.5417	-2.9042	-2.5604	-2.6063	-2.6813	-2.425	386.012	219.942	226.787	399.235	379.872	386.530	370.098	390.991	164.549	216.736	237.860	385.112	262.811	278.971	115.913	390.525	0.0003768	0.00030346	0.00014516	1371.5	3.7394e-06	3.2458e-06	1375.2	370.25	4.0265e-06	3.3457e-06	422.09	140.35	122.11	41.695	6.2534e-06	52.14	0.00063627	0.00058207	0.00015471	1400.2	6.8892e-06	6.3918e-06	1384.5	379.41	6.8685e-06	6.1968e-06	428.06	144.78	125.77	43.013	5.9063e-06	53.808	222.346	133.714	393.136	69.552	85.371	131.386	69.584	74.469	206.827	102.987	73.825	78.323	78.916	83.117	230.154	82.414	-8191	255	
6672.330	1	1	0	0	0.28262	0.20667	0.013026	0.16934	0.093959	0.18775	0.16026	0.27914	0.074162	0.08898	0.27481	0.23608	0.12072	0.22276	0.065839	0.22914	-2.1562	-2.7375	-2.25	-2.85	-2.3542	-2.625	-2.8354	-2.4958	-2.5146	-2.6813	-2.3187	-2.7687	-2.6917	-2.4479	-2.8583	-2.525	235.568	99.001	407.178	141.800	400.128	237.009	338.293	301.557	276.043	131.535	265.710	411.722	323.505	73.392	318.849	74.831	0.00036479	0.00026843	0.00016084	1371	5.3389e-06	3.4074e-06	1374.4	370.17	2.0459e-06	2.8274e-06	421.5	140.1	121.66	41.597	8.8639e-06	51.699	0.00061341	0.00055992	0.00015502	1409.5	6.5997e-06	6.256e-06	1387.2	379.89	6.5764e-06	6.0005e-06	430.59	144.94	125.14	42.884	6.1804e-06	53.697	211.061	186.414	174.481	69.413	184.748	408.136	69.391	74.321	245.424	175.762	73.757	78.156	78.888	83.114	209.981	82.169	-8191	255	
6672.426	1	1	0	0	0.14765	0.13661	0.056339	0.069924	0.067189	0.20047	0.14775	0.17195	0.14414	0.026219	0.096738	0.18744	0.10294	0.080769	0.16837	0.29552	-2.0792	-2.7021	-2.4062	-2.75	-2.6583	-2.25	-3.0833	-2.4062	-2.5979	-2.7208	-2.5146	-2.7562	-2.7083	-2.3896	-2.7812	-2.5771	291.644	143.141	214.100	347.071	335.691	263.294	291.110	406.006	142.671	342.026	336.047	295.388	386.752	166.509	150.425	295.939	0.00040476	0.00053431	0.0002171	1366.7	9.7776e-06	1.9638e-06	1376.1	367.93	7.0628e-06	2.7952e-06	427.06	140.48	121.89	41.974	8.5848e-06	51.728	0.00058742	0.00054158	0.00016342	1411	6.3969e-06	6.1399e-06	1391.8	379.45	6.5551e-06	6.0712e-06	439.02	145.34	125.33	43.103	7.0209e-06	53.944	196.562	169.041	146.778	69.381	250.768	77.671	69.466	74.436	242.550	225.236	73.346	78.205	78.965	83.287	174.271	82.260	-8191	255	
6672.522	1	1	0	0	0.14506	0.10791	0.29871	0.20097	0.1573	0.19869	0.19917	0.15188	0.063382	0.24523	0.17881	0.35969	0.36773	0.32289	0.21772	0.075933	-2.1208	-2.7375	-2.4146	-2.825	-2.7812	-2.5521	-3.0979	-2.6854	-2.4938	-2.7646	-2.5771	-2.6458	-2.8354	-2.4875	-2.7188	-2.7438	111.505	343.758	224.540	61.933	245.450	351.613	353.165	345.034	266.956	179.539	129.995	341.352	69.835	352.063	277.642	290.106	0.00043341	0.00039381	0.00029155	1363.4	5.1617e-06	7.7135e-06	1375.4	368.83	1.9356e-06	4.993e-06	419.26	140.92	121.87	41.777	1.2738e-05	51.65	0.00061455	0.00057667	0.00018517	1414.6	6.6982e-06	6.6222e-06	1399.4	380.73	7.0014e-06	6.6804e-06	446.12	145.93	125.94	43.367	7.8555e-06	53.957	209.615	88.334	168.587	69.504	241.068	193.368	69.478	74.312	203.795	183.175	73.725	78.117	78.717	83.033	203.165	82.321	-8191	255	
6672.618	1	1	0	0	0.1444	0.13582	0.06208	0.18652	0.154	0.12754	0.17916	0.1284	0.096713	0.28568	0.080582	0.077826	0.089688	0.16844	0.056645	0.25472	-2.0375	-2.7583	-2.5375	-2.6625	-2.7646	-2.5208	-3.1292	-2.5938	-2.5458	-2.8	-2.5458	-2.7083	-2.9313	-2.4792	-2.7625	-2.5083	145.533	400.857	391.716	344.149	210.679	398.146	235.268	371.495	235.076	88.422	121.814	193.437	259.936	335.296	377.808	105.629	0.00035968	0.0010719	0.00012239	1377.9	2.4681e-06	1.2344e-05	1372.5	368.66	3.4543e-06	7.6196e-06	423.18	139.93	121.75	41.958	4.8612e-06	51.943	0.00063075	0.00062374	0.00019805	1415.5	6.6362e-06	6.9082e-06	1403.5	379.47	6.6354e-06	6.7787e-06	444.21	144.69	125.11	43.35	7.4048e-06	53.458	204.849	152.679	408.594	69.507	207.750	240.290	69.633	74.110	134.362	189.397	73.389	78.156	79.051	83.129	276.489	82.469	-8191	255	
6672.739	1	1	0	0	0.051671	0.045684	0.19215	0.3223	0.055404	0.28298	0.1846	0.17221	0.089403	0.21621	0.23999	0.096326	0.11109	0.10522	0.058217	0.26025	-2.1167	-2.7542	-2.2958	-2.5896	-2.9229	-2.5646	-3.0167	-2.7021	-2.4542	-2.6729	-2.3625	-2.4521	-2.8812	-2.6646	-2.6792	-2.5187	197.964	351.168	406.071	341.519	351.082	102.598	354.911	349.553	345.029	120.330	137.717	95.573	284.137	379.666	191.119	122.369	0.00032466	0.00037892	4.4588e-05	1373.9	6.1171e-06	9.004e-06	1373	369.69	2.5165e-06	5.63e-06	422.36	139.37	121.78	41.75	4.6699e-06	51.843	0.00057676	0.00062111	0.00018244	1403.1	6.0984e-06	6.8773e-06	1396.6	377.13	6.1551e-06	6.7627e-06	436.42	143.45	124.17	43.169	6.6282e-06	52.924	213.042	129.519	214.050	69.399	125.363	217.232	69.550	74.321	142.775	258.195	73.516	77.955	78.948	83.066	225.221	82.142	-8191	255	
6672.833	1	1	0	0	0.052157	0.14052	0.30588	0.16681	0.18811	0.087778	0.099691	0.14654	0.057532	0.28782	0.17265	0.026887	0.23338	0.11597	0.1123	0.075795	-1.9146	-2.4896	-2.4188	-2.5021	-2.5271	-2.4479	-2.7604	-2.7854	-2.5458	-2.75	-2.6437	-2.7917	-2.7687	-2.5438	-2.5208	-2.9333	165.798	379.839	148.507	343.040	328.677	172.235	285.670	100.215	224.715	89.085	359.427	86.984	363.107	391.969	110.807	186.012	0.00040625	0.00050563	9.0735e-05	1372.1	2.7986e-06	6.3824e-06	1374.5	366.5	2.8164e-06	8.3714e-06	422.56	139.71	121.63	41.696	3.7379e-06	51.581	0.00053839	0.00061066	0.00016392	1385.7	5.793e-06	6.688e-06	1387.1	373.78	5.9193e-06	6.6744e-06	429.99	142.52	123.96	43.09	6.2824e-06	52.668	203.321	163.871	383.130	69.494	56.529	229.520	69.374	74.464	178.633	183.877	73.604	78.251	79.097	83.055	214.084	82.160	-8191	255	
6672.929	1	1	0	0	0.16032	0.12493	0.19888	0.23414	0.1545	0.20323	0.04321	0.096894	0.10529	0.19639	0.043971	0.1871	0.080388	0.20183	0.063593	0.10175	-2.1312	-2.6729	-2.3833	-2.4938	-2.7396	-2.4125	-2.9104	-2.9313	-2.4208	-2.8583	-2.6625	-2.4083	-2.85	-2.3812	-2.6437	-2.9313	219.351	240.918	381.805	228.348	222.924	201.514	235.736	353.090	312.579	360.193	226.769	364.447	82.379	377.625	254.656	400.022	0.00051042	3.8502e-05	7.9441e-05	1362.1	6.301e-06	2.3697e-06	1366.8	367.64	1.3547e-05	5.2254e-06	422.04	139.5	122.11	41.437	4.6114e-06	51.5	0.00056235	0.00062219	0.00015793	1381.1	6.2503e-06	6.8302e-06	1384.8	373.6	6.5095e-06	6.9309e-06	429.75	142.78	125.13	43.1	6.491e-06	52.818	209.677	125.430	173.404	69.313	211.893	211.626	69.436	74.251	215.173	278.279	73.743	78.061	78.992	82.934	225.541	82.082	-8191	255	
6673.026	1	1	0	0	0.056831	0.01012	0.29021	0.27914	0.16414	0.24046	0.12593	0.29486	0.19262	0.063081	0.20347	0.065965	0.12353	0.17228	0.29175	0.51246	-1.9458	-2.6292	-2.5208	-2.3688	-2.75	-2.4083	-2.6167	-2.9833	-2.4146	-2.6292	-2.6521	-2.4896	-2.7979	-2.5729	-2.4375	-2.7396	344.284	139.013	340.649	383.340	298.375	145.302	212.613	314.595	71.432	415.738	147.092	343.972	315.745	387.749	354.018	325.512	0.00042566	0.00049381	6.5263e-05	1368.9	5.4182e-06	3.0046e-06	1368.1	368.41	2.6152e-06	8.0168e-07	419.17	139.07	121.39	41.455	4.1036e-06	51.713	0.00062762	0.0006452	0.00016182	1386.3	6.9213e-06	6.8755e-06	1386.3	374.38	7.0541e-06	6.8249e-06	428.68	142.96	125.55	42.932	6.2652e-06	52.83	200.267	59.991	271.662	69.481	216.575	377.405	69.413	74.238	231.363	102.134	73.661	78.285	79.056	83.131	225.904	82.246	-8191	255	
6673.122	1	1	0	0	0.048121	0.18263	0.14868	0.13527	0.089958	0.22052	0.29965	0.11733	0.22159	0.27721	0.2488	0.17985	0.089503	0.18905	0.11047	0.14822	-2.0646	-2.7896	-2.5958	-2.625	-2.8	-2.6104	-2.7854	-2.9938	-2.3875	-2.7396	-2.7479	-2.4479	-2.7729	-2.7812	-2.2958	-2.775	142.825	62.126	191.174	335.213	282.821	342.645	385.109	113.136	335.082	403.289	390.345	315.406	82.051	377.569	405.993	146.276	0.00045867	0.00030866	8.8253e-05	1365	3.293e-06	1.9456e-06	1369.2	365.6	8.2081e-06	3.3797e-06	418.2	139.72	121.69	41.514	3.8096e-06	51.396	0.00063252	0.00060362	0.00015198	1387.9	6.9405e-06	6.3953e-06	1383.9	374.34	6.9778e-06	6.467e-06	425.96	143.09	125.64	42.783	6.1045e-06	53.069	207.043	157.155	251.743	69.455	230.616	215.645	69.532	74.614	200.854	217.282	73.412	78.138	79.133	83.012	207.538	82.194	-8191	255	
#DATA ENDS
