BOXY.EXE: ISS Imagent and Oximeter Data Acquisition Program Version 0.80
Ascii Record File

#ACQ INFORMATION
2  Detector Channels 
16  External MUX Channels 
1  Auxiliary Channels 
5000  Waveform (CCF) Frequency (Hz)
1  Waveforms Skipped 
30  Waveforms Averaged 
1  Cycles Averaged 
16  Acquisitions per Waveform 
10.0806  Updata Rate (Hz) 

#FILE INFORMATION
TRUE -- External MUX Channel results are PARSED.
FALSE -- AC DC and Phase are NOT grouped.
TRUE -- Companion Program Settings File CREATED.
FALSE -- AC data not excluded
FALSE -- DC data not excluded
FALSE -- Phase data not excluded
FALSE -- Auxillary Chn. data not excluded
Tab delimiters

#CALIBRATION STATE
TRUE -- Waveform Calibration Values APPLIED.


#AUX CALIBRATION VALUES
Val Type	aux-1	

Term	1.0000e+00	
Factor	0.0000e+00	


#WF CALIBRATION VALUES
A = Detector Channel
Val Type	A-AC1	A-AC2	A-AC3	A-AC4	A-AC5	A-AC6	A-AC7	A-AC8	A-AC9	A-AC10	A-AC11	A-AC12	A-AC13	A-AC14	A-AC15	A-AC16	A-DC1	A-DC2	A-DC3	A-DC4	A-DC5	A-DC6	A-DC7	A-DC8	A-DC9	A-DC10	A-DC11	A-DC12	A-DC13	A-DC14	A-DC15	A-DC16	A-Ph1	A-Ph2	A-Ph3	A-Ph4	A-Ph5	A-Ph6	A-Ph7	A-Ph8	A-Ph9	A-Ph10	A-Ph11	A-Ph12	A-Ph13	A-Ph14	A-Ph15	A-Ph16	

Term	0.00000e+00	0.00000e+00	0.00000e+00	0.00000e+00	0.00000e+00	0.00000e+00	0.00000e+00	0.00000e+00	0.00000e+00	0.00000e+00	0.00000e+00	0.00000e+00	0.00000e+00	0.00000e+00	0.00000e+00	0.00000e+00	0.00000e+00	0.00000e+00	0.00000e+00	0.00000e+00	0.00000e+00	0.00000e+00	0.00000e+00	0.00000e+00	0.00000e+00	0.00000e+00	0.00000e+00	0.00000e+00	0.00000e+00	0.00000e+00	0.00000e+00	0.00000e+00	0.00000e+00	0.00000e+00	0.00000e+00	0.00000e+00	0.00000e+00	0.00000e+00	0.00000e+00	0.00000e+00	0.00000e+00	0.00000e+00	0.00000e+00	0.00000e+00	0.00000e+00	0.00000e+00	0.00000e+00	0.00000e+00	
Factor	1.00000e+00	1.00000e+00	1.00000e+00	1.00000e+00	1.00000e+00	1.00000e+00	1.00000e+00	1.00000e+00	1.00000e+00	1.00000e+00	1.00000e+00	1.00000e+00	1.00000e+00	1.00000e+00	1.00000e+00	1.00000e+00	1.00000e+00	1.00000e+00	1.00000e+00	1.00000e+00	1.00000e+00	1.00000e+00	1.00000e+00	1.00000e+00	1.00000e+00	1.00000e+00	1.00000e+00	1.00000e+00	1.00000e+00	1.00000e+00	1.00000e+00	1.00000e+00	X	X	X	X	X	X	X	X	X	X	X	X	X	X	X	X	

B = Detector Channel
Val Type	B-AC1	B-AC2	B-AC3	B-AC4	B-AC5	B-AC6	B-AC7	B-AC8	B-AC9	B-AC10	B-AC11	B-AC12	B-AC13	B-AC14	B-AC15	B-AC16	B-DC1	B-DC2	B-DC3	B-DC4	B-DC5	B-DC6	B-DC7	B-DC8	B-DC9	B-DC10	B-DC11	B-DC12	B-DC13	B-DC14	B-DC15	B-DC16	B-Ph1	B-Ph2	B-Ph3	B-Ph4	B-Ph5	B-Ph6	B-Ph7	B-Ph8	B-Ph9	B-Ph10	B-Ph11	B-Ph12	B-Ph13	B-Ph14	B-Ph15	B-Ph16	

Term	0.00000e+00	0.00000e+00	0.00000e+00	0.00000e+00	0.00000e+00	0.00000e+00	0.00000e+00	0.00000e+00	0.00000e+00	0.00000e+00	0.00000e+00	0.00000e+00	0.00000e+00	0.00000e+00	0.00000e+00	0.00000e+00	0.00000e+00	0.00000e+00	0.00000e+00	0.00000e+00	0.00000e+00	0.00000e+00	0.00000e+00	0.00000e+00	0.00000e+00	0.00000e+00	0.00000e+00	0.00000e+00	0.00000e+00	0.00000e+00	0.00000e+00	0.00000e+00	-8.19123e+01	-1.33616e+02	-1.36549e+02	-1.83428e+02	-9.10000e+01	-7.57922e+01	-1.57226e+02	-1.62015e+02	-5.82697e+01	-7.60492e+01	-1.75294e+02	-1.70420e+02	-1.80380e+02	-1.77569e+02	-8.04880e+01	-1.50081e+02	
Factor	1.80643e-05	1.32624e-04	3.68427e-05	4.65462e-01	1.21769e-06	1.16138e-06	1.75063e-01	6.96060e-02	1.13472e-06	1.15148e-06	2.37927e-01	3.21221e-02	2.91780e-02	1.00874e-02	1.28267e-06	1.47616e-02	8.56558e-07	8.80187e-07	2.44700e-07	2.10758e-01	9.63326e-09	9.62573e-09	7.96986e-02	3.32249e-02	9.63474e-09	9.63278e-09	9.89294e-02	1.48230e-02	1.38756e-02	4.77895e-03	9.61505e-09	6.71329e-03	X	X	X	X	X	X	X	X	X	X	X	X	X	X	X	X	



#DISTANCE SETTINGS
A = Detector Channel
A-1	A-2	A-3	A-4	A-5	A-6	A-7	A-8	A-9	A-10	A-11	A-12	A-13	A-14	A-15	A-16	

2.5000e+00	3.0000e+00	2.5000e+00	3.0000e+00	2.0000e+00	3.0000e+00	1.5000e+00	3.0000e+00	3.0000e+00	3.0000e+00	3.0000e+00	3.0000e+00	3.0000e+00	3.0000e+00	1.5000e+00	3.0000e+00	

B = Detector Channel
B-1	B-2	B-3	B-4	B-5	B-6	B-7	B-8	B-9	B-10	B-11	B-12	B-13	B-14	B-15	B-16	

1.0000e+01	1.0000e+01	1.0000e+01	1.4400e+00	1.0000e+01	1.0000e+01	1.5100e+00	1.9400e+00	1.0000e+01	1.0000e+01	1.9900e+00	2.4900e+00	2.4100e+00	2.9000e+00	1.0000e+01	2.9800e+00	




#DATA BEGINS
time	group	step	mark	flag	A-AC1	A-AC2	A-AC3	A-AC4	A-AC5	A-AC6	A-AC7	A-AC8	A-AC9	A-AC10	A-AC11	A-AC12	A-AC13	A-AC14	A-AC15	A-AC16	A-DC1	A-DC2	A-DC3	A-DC4	A-DC5	A-DC6	A-DC7	A-DC8	A-DC9	A-DC10	A-DC11	A-DC12	A-DC13	A-DC14	A-DC15	A-DC16	A-Ph1	A-Ph2	A-Ph3	A-Ph4	A-Ph5	A-Ph6	A-Ph7	A-Ph8	A-Ph9	A-Ph10	A-Ph11	A-Ph12	A-Ph13	A-Ph14	A-Ph15	A-Ph16	B-AC1	B-AC2	B-AC3	B-AC4	B-AC5	B-AC6	B-AC7	B-AC8	B-AC9	B-AC10	B-AC11	B-AC12	B-AC13	B-AC14	B-AC15	B-AC16	B-DC1	B-DC2	B-DC3	B-DC4	B-DC5	B-DC6	B-DC7	B-DC8	B-DC9	B-DC10	B-DC11	B-DC12	B-DC13	B-DC14	B-DC15	B-DC16	B-Ph1	B-Ph2	B-Ph3	B-Ph4	B-Ph5	B-Ph6	B-Ph7	B-Ph8	B-Ph9	B-Ph10	B-Ph11	B-Ph12	B-Ph13	B-Ph14	B-Ph15	B-Ph16	aux-1	digaux	

7622.680	1	1	0	256	0.16039	0.1922	0.12808	0.17401	0.13154	0.18965	0.10898	0.21232	0.15654	0.15089	0.13557	0.074929	0.19104	0.046809	0.15368	0.096023	-2.2792	-2.1	-2.5146	-2.4333	-2.0354	-2.5917	-2.4896	-2.3604	-2.725	-2.1292	-2.3312	-2.5479	-2.1583	-2.4458	-2.5146	-2.2479	335.712	120.921	291.903	194.881	300.855	232.634	305.447	407.546	151.488	123.835	235.043	284.593	399.933	126.839	403.434	405.109	0.00051089	0.00070001	0.00022446	914.59	5.0298e-06	6.3187e-06	963.93	318.52	7.4685e-06	5.0307e-06	400.64	153.49	111.2	44.506	2.3859e-06	72.776	0.00051101	0.00053894	0.00016817	949.66	6.2594e-06	6.848e-06	975.11	323.25	7.4868e-06	8.4996e-06	434.22	157.21	115.47	46.268	1.032e-05	74.14	224.044	169.724	134.630	86.843	232.202	240.654	86.679	92.643	252.876	107.313	91.207	96.965	97.681	102.131	101.605	100.840	-8191	255	
7622.799	1	1	0	0	0.49226	0.13473	0.18252	0.18328	0.25436	0.14463	0.2492	0.18346	0.24807	0.17253	0.11952	0.25261	0.26921	0.14092	0.23045	0.29266	-2.1896	-2.2375	-2.2333	-2.3208	-1.9479	-2.4875	-2.4208	-2.3354	-2.4917	-2.2812	-2.1979	-2.625	-2.1833	-2.5563	-2.3667	-2.1937	114.707	280.943	341.804	403.143	358.973	326.832	404.259	314.161	221.723	159.414	434.465	419.993	387.369	108.099	103.650	363.583	0.00060719	0.001545	0.00021885	923.19	2.6563e-06	2.7354e-06	970.57	316.82	3.3548e-06	9.6355e-06	398.89	150.84	108.97	43.305	7.4193e-06	71.329	0.00087745	0.00099589	0.000282	1047.2	1.0346e-05	1.1714e-05	1015.7	336.08	1.1331e-05	1.3288e-05	471.93	159.94	119.31	47.454	1.3656e-05	74.376	221.307	108.716	395.796	86.957	231.140	127.315	86.656	92.506	214.397	153.341	91.662	96.973	97.615	102.213	404.326	100.637	-8191	255	
7622.871	1	1	0	0	0.19706	0.28745	0.25154	0.053675	0.094835	0.3407	0.26016	0.23091	0.23521	0.11285	0.5395	0.1436	0.16366	0.062242	0.086885	0.16037	-2.1354	-2.3208	-2.2562	-2.4958	-2.0958	-2.4979	-2.5458	-2.1396	-2.5333	-2.4042	-2.2042	-2.6479	-2.2354	-2.4271	-2.45	-2.25	424.610	83.169	163.157	160.299	320.369	122.593	305.449	354.288	373.238	323.923	265.194	365.582	416.062	240.304	153.175	415.415	0.00068488	0.00050608	0.00019768	927.76	9.046e-06	1.2578e-05	969.05	316.51	5.9482e-06	8.4806e-06	402.8	153.44	111.54	44.534	4.9138e-06	73.378	0.0011288	0.0012189	0.00030606	1064.3	1.103e-05	1.1517e-05	999.42	326.76	8.2236e-06	8.1494e-06	408.77	152.58	111.66	44.225	5.3562e-06	70.93	212.264	421.908	91.021	86.912	166.938	192.791	86.554	92.729	230.031	241.006	91.176	96.886	97.616	101.915	250.981	100.674	-8191	255	
7622.967	1	1	0	0	0.14708	0.11499	0.019117	0.072454	0.18157	0.20428	0.30291	0.17143	0.34193	0.25866	0.28835	0.20757	0.19794	0.29918	0.13893	0.22304	-1.9146	-2.3979	-2.2896	-2.525	-2.05	-2.4396	-2.6271	-2.1333	-2.4542	-2.2583	-2.2208	-2.6562	-2.2896	-2.3688	-2.5583	-2.2146	420.490	371.655	76.476	423.250	217.809	180.366	368.623	273.859	261.394	79.788	108.943	260.284	146.702	402.690	104.186	390.969	0.00056112	0.00021249	0.00012254	921.6	7.9723e-06	2.5604e-06	973.25	321.48	4.9606e-06	3.3032e-06	402.15	153.78	111.61	44.297	2.5565e-06	72.238	0.00051233	0.00052755	0.00013513	931.56	5.7798e-06	6.0242e-06	965.84	319.55	6.4531e-06	6.7096e-06	405.28	152.63	113.51	44.739	6.8969e-06	71.244	210.578	309.381	142.311	86.731	222.502	160.813	86.756	92.800	258.637	269.895	91.539	96.936	97.571	101.996	420.221	100.875	-8191	255	
7623.063	1	1	0	0	0.10204	0.054889	0.19759	0.36735	0.17534	0.10512	0.14283	0.036514	0.12218	0.14778	0.18446	0.15383	0.10308	0.15128	0.042272	0.23866	-1.9417	-2.2979	-2.0292	-2.6375	-2.3167	-2.1375	-2.7896	-2.2	-2.4146	-2.5083	-2.0563	-2.5979	-2.3937	-2.4125	-2.6833	-2.25	390.530	316.711	357.412	350.109	286.864	267.374	378.799	92.035	106.288	374.488	199.084	251.002	76.491	344.555	377.403	355.073	0.00056959	0.0015431	0.00016039	924.01	7.4746e-06	5.6663e-06	972.57	317.06	1.1329e-05	3.0986e-06	392.97	149.33	108.34	42.948	6.4729e-06	70.616	0.00073498	0.00073067	0.0001979	995.66	9.1134e-06	8.8263e-06	993.11	326.06	9.8164e-06	9.2151e-06	426.08	153.35	115.04	44.609	8.6066e-06	70.881	201.686	90.845	172.015	86.926	184.920	270.789	86.623	92.575	198.298	425.536	91.538	96.905	97.857	102.084	189.007	100.939	-8191	255	
7623.184	1	1	0	0	0.20954	0.31743	0.14845	0.090549	0.071691	0.39868	0.01403	0.070183	0.092113	0.11959	0.11293	0.18256	0.25087	0.18345	0.14749	0.22645	-1.9542	-2.4	-2.1104	-2.4771	-2.0917	-2.0979	-2.7062	-2.2292	-2.3292	-2.5021	-2.1271	-2.4437	-2.4375	-2.3333	-2.5563	-2.3	384.141	118.536	271.617	428.104	276.798	385.660	370.952	345.564	128.486	430.352	343.949	392.472	115.384	374.189	189.193	403.760	0.00049078	0.00080892	1.3679e-05	934.17	8.1027e-06	5.3535e-06	977.04	317.04	7.8218e-07	4.2732e-06	396.09	150.4	108.4	42.95	6.7385e-06	70.953	0.00083054	0.00073597	0.00018995	993.01	7.9275e-06	7.0371e-06	974.59	320.26	7.1696e-06	6.4766e-06	396.6	149.55	109.58	42.737	5.1369e-06	69.057	227.495	422.136	253.642	86.632	75.888	156.238	86.498	92.758	272.126	299.784	91.682	96.733	97.403	102.157	194.202	100.715	-8191	255	
7623.280	1	1	0	0	0.084738	0.052814	0.13315	0.13297	0.22753	0.25127	0.14686	0.18458	0.2068	0.26533	0.14118	0.20149	0.11049	0.33969	0.34254	0.16866	-1.7687	-2.4667	-2.2292	-2.3375	-2.2729	-2.0812	-2.6125	-2.3375	-2.1854	-2.3375	-2.1667	-2.6333	-2.5042	-2.0292	-2.5875	-2.2	122.402	355.727	392.689	250.683	206.169	359.388	379.973	363.581	306.070	117.337	173.603	404.651	332.407	421.410	79.346	102.627	0.0005137	0.00070769	0.00030994	914.53	4.6171e-06	6.4314e-06	959.01	318.95	5.9363e-06	3.2738e-06	397.52	152.14	110.43	43.737	8.2216e-06	70.593	0.00046172	0.00039687	0.00010528	911.24	4.4898e-06	4.135e-06	939.15	312.62	4.1533e-06	3.7665e-06	375.57	148.32	108.46	42.59	4.623e-06	68.859	215.414	170.748	128.293	86.919	261.493	266.330	86.661	92.594	265.951	434.212	91.501	96.774	97.562	102.200	212.926	100.593	-8191	255	
7623.376	1	1	0	0	0.19393	0.22326	0.25692	0.072441	0.13464	0.077535	0.18103	0.098996	0.27981	0.21779	0.30261	0.092178	0.08234	0.15681	0.15345	0.31306	-1.8375	-2.3542	-1.9521	-2.5542	-2.5083	-2.0521	-2.7083	-2.4854	-2.2458	-2.5667	-2.2354	-2.3187	-2.3396	-1.9625	-2.5208	-2.5333	240.635	156.719	130.086	114.967	356.491	232.896	87.149	354.314	85.011	219.020	230.310	335.955	110.592	411.702	389.026	347.414	0.00057387	0.00062458	0.00040617	913.25	4.6124e-07	3.2866e-06	958.81	317.57	4.1017e-06	4.9136e-06	398.6	151.89	109.97	43.584	9.3158e-06	71.342	0.00051495	0.0005011	0.00014742	954.85	6.0015e-06	5.4059e-06	947.08	314.5	4.236e-06	3.7885e-06	375.81	147.57	107.36	42.491	4.5046e-06	68.865	206.720	210.757	160.033	87.150	128.063	202.363	86.588	92.700	169.462	199.421	91.837	96.777	97.872	102.311	215.292	100.858	-8191	255	
7623.472	1	1	0	0	0.22359	0.17365	0.14843	0.20698	0.092104	0.048913	0.21262	0.16771	0.19468	0.094024	0.27208	0.057578	0.059915	0.30698	0.24931	0.20349	-1.5833	-2.5604	-2.2167	-2.1625	-2.5271	-1.9729	-2.5417	-2.4646	-2.075	-2.4688	-2.2	-2.4229	-2.4854	-2.0042	-2.3917	-2.5167	344.254	267.056	147.057	90.401	79.895	406.466	416.342	94.599	282.608	182.646	345.661	192.265	403.520	427.940	177.469	77.772	0.0005209	0.00044201	0.00017084	902.42	4.7617e-06	4.9105e-06	946.78	314.92	5.161e-06	3.3822e-06	393.62	150.84	108.29	42.599	7.0973e-06	69.756	0.00045599	0.00044938	0.00014134	926.1	5.1185e-06	4.7245e-06	934.58	310.39	4.1924e-06	3.9079e-06	376.97	146.19	105.58	41.353	4.0257e-06	66.888	214.871	265.835	137.508	86.964	243.456	226.883	86.918	92.637	241.170	304.825	91.688	96.877	97.911	102.227	185.595	100.954	-8191	255	
7623.569	1	1	0	0	0.028651	0.25207	0.072187	0.24692	0.28985	0.19148	0.14302	0.14308	0.16317	0.08128	0.19847	0.25534	0.10282	0.2419	0.15297	0.14465	-1.5938	-2.3104	-2.1542	-2.3417	-2.5563	-1.9771	-2.4083	-2.5187	-2.0479	-2.375	-2.2271	-2.1458	-2.5125	-2.275	-2.325	-2.3396	118.275	400.212	246.547	417.609	81.841	220.941	291.715	356.280	164.029	345.460	265.517	345.086	162.154	418.730	144.149	75.081	0.00058	0.00023931	9.8065e-05	884.01	1.0252e-05	9.9536e-07	928.07	304.6	4.6672e-06	1.1145e-05	381.79	143.36	102.35	39.299	1.3582e-05	64.78	0.00035865	0.00035146	0.00011148	883.24	4.3336e-06	4.7562e-06	925.57	305.68	6.0295e-06	6.6051e-06	402.1	145.45	105.81	40.594	9.5556e-06	65.889	221.970	432.791	142.330	87.008	182.889	310.627	86.881	92.824	293.038	206.005	91.822	97.058	97.795	102.376	199.959	101.246	-8191	255	
7623.665	1	1	0	0	0.25219	0.20352	0.33613	0.023111	0.25145	0.079319	0.34047	0.19991	0.097889	0.34845	0.13658	0.10279	0.072027	0.34214	0.31087	0.23477	-1.5333	-2.35	-2.325	-1.9562	-2.4979	-2.2583	-2.2833	-2.6333	-2.1229	-2.5708	-2.3083	-2.2375	-2.5625	-2.275	-2.2125	-2.7667	79.074	352.566	100.529	297.582	270.550	210.855	273.655	112.856	397.597	335.047	258.479	390.842	313.930	353.067	296.344	259.608	0.00060837	0.0010087	0.00022757	862.51	4.3317e-06	4.7456e-06	906.52	293.8	1.1552e-05	1.4485e-06	370.3	136.5	98.104	37.72	2.3332e-06	62.065	0.00079923	0.00085913	0.00025639	973.66	8.9987e-06	9.8444e-06	943.35	308.85	9.7517e-06	1.0693e-05	427.54	143.4	105.15	40.045	1.0071e-05	63.429	216.126	174.373	143.238	87.225	235.333	151.409	86.878	92.644	279.182	278.446	91.353	97.304	98.367	102.389	211.514	100.942	-8191	255	
7623.761	1	1	0	0	0.060902	0.064007	0.086249	0.15658	0.24271	0.15143	0.1793	0.2296	0.12516	0.28702	0.30122	0.15814	0.17103	0.22894	0.25892	0.13102	-1.4604	-2.4375	-2.375	-2.1167	-2.3792	-2.0687	-2.3979	-2.65	-2.1167	-2.35	-2.3542	-2.1708	-2.7021	-2.2438	-2.2188	-2.6833	95.610	205.240	422.720	334.823	194.925	387.844	385.008	391.392	171.235	99.840	305.742	398.680	311.963	112.503	130.463	180.517	0.00060923	0.00063121	0.00015392	853.83	1.6235e-06	2.2767e-06	898.41	293.96	6.0506e-06	3.8773e-06	372.42	139.6	99.923	38.149	2.0958e-06	63.699	0.000763	0.00081357	0.00021372	925.79	7.0181e-06	7.4157e-06	905.49	295.14	5.8162e-06	6.2468e-06	371.9	136.99	99.342	37.961	4.5041e-06	61.383	226.894	173.686	146.632	87.398	283.358	245.031	86.507	92.905	258.189	283.467	91.707	97.209	97.929	102.643	417.019	101.205	-8191	255	
7623.880	1	1	0	0	0.2371	0.13689	0.11453	0.27443	0.067088	0.019821	0.33343	0.16603	0.3469	0.16261	0.26514	0.30791	0.1533	0.099975	0.21704	0.28033	-1.6646	-2.3479	-2.4896	-2.075	-2.4542	-2.2062	-2.2604	-2.7125	-2.35	-2.3125	-2.3563	-2.1521	-2.5312	-2.3271	-2.1979	-2.6125	160.383	335.323	75.079	389.616	155.215	397.443	409.177	375.625	239.597	145.074	166.924	394.401	328.084	235.701	254.963	385.652	0.00052037	0.00050014	3.4473e-05	863.69	4.8506e-06	2.1598e-06	904.89	299.95	1.1162e-05	2.7077e-06	383.67	144.61	103.5	40.04	2.5045e-06	66.502	0.00038223	0.00039042	9.7568e-05	842.49	3.5161e-06	3.6641e-06	883.03	290.5	3.0785e-06	3.1937e-06	353.11	138.08	99.712	38.549	2.753e-06	62.891	217.809	98.191	184.434	87.087	178.027	151.871	87.025	92.958	241.096	230.963	91.581	97.243	98.406	102.218	234.388	101.068	-8191	255	
7623.976	1	1	0	0	0.19897	0.079978	0.17912	0.29525	0.11479	0.31832	0.28781	0.17167	0.22914	0.2318	0.34424	0.24609	0.18841	0.17137	0.13121	0.053054	-1.5979	-2.1896	-2.4313	-1.9229	-2.3708	-2.3229	-2.3312	-2.5375	-2.1583	-2.275	-2.3833	-2.1813	-2.4813	-2.4958	-2.1354	-2.5958	423.077	223.385	279.879	400.935	264.253	382.764	356.412	118.908	190.379	189.357	87.208	288.280	408.155	93.793	194.509	430.950	0.00058965	0.00056051	8.886e-05	875.74	4.4624e-06	6.1851e-06	926.78	307.66	4.7408e-06	3.7653e-06	392.16	148.99	106.66	41.343	3.3094e-06	69.279	0.00026561	0.00025217	6.4218e-05	831.75	2.6696e-06	2.7122e-06	895.87	296.56	2.8358e-06	2.8189e-06	358.91	142.39	102.54	39.689	2.6457e-06	65.392	213.015	103.069	197.741	87.160	218.647	240.513	86.733	93.026	282.697	335.688	91.853	97.387	97.907	102.347	246.104	101.056	-8191	255	
7624.072	1	1	0	0	0.14155	0.067187	0.13692	0.21745	0.21691	0.061135	0.43404	0.16163	0.15029	0.13522	0.20927	0.26533	0.34504	0.59059	0.015249	0.097954	-1.5958	-2.2062	-2.6042	-1.975	-2.4604	-2.4396	-2.175	-2.4542	-2.175	-2.2229	-2.7896	-2.1937	-2.3937	-2.3354	-1.9417	-2.5292	248.522	99.914	139.965	410.471	401.477	426.233	337.146	105.758	274.932	106.705	417.189	378.330	404.116	409.302	352.754	377.315	0.0005169	0.00029872	1.3946e-05	887.77	2.6258e-06	1.9639e-06	941.72	314.02	3.7532e-07	6.4349e-06	398.28	152.06	109.22	42.487	5.651e-06	71.197	0.00027849	0.00025055	6.5392e-05	844.92	2.871e-06	2.7355e-06	910.74	302.56	2.8249e-06	2.63e-06	361.83	145.26	104.77	40.689	2.3743e-06	66.822	213.510	172.266	431.497	86.877	204.965	155.511	87.015	92.854	312.788	254.745	91.897	96.986	97.745	102.317	195.245	100.561	-8191	255	
7624.168	1	1	0	0	0.25033	0.32126	0.15467	0.11845	0.083577	0.1307	0.081271	0.083393	0.12545	0.12661	0.070175	0.080783	0.093251	0.26329	0.091013	0.069845	-1.7667	-2.2479	-2.5583	-2.1917	-2.2646	-2.3167	-2.0938	-2.5958	-2.3563	-2.1542	-2.6729	-2.0521	-2.1125	-2.5458	-2.0812	-2.5833	345.000	416.498	215.614	286.380	110.070	370.854	145.187	264.236	311.095	311.744	95.057	86.568	233.518	368.469	230.018	340.341	0.00061001	0.00063425	7.3641e-05	902.32	4.6389e-06	7.7225e-07	948.47	317.89	1.7793e-06	3.0295e-06	400.73	153.13	110.19	43.164	4.3285e-06	71.705	0.00025082	0.00021441	5.7375e-05	855.17	2.5221e-06	2.3605e-06	914.17	304.39	2.5045e-06	2.3165e-06	360.71	146.37	105.64	41.297	2.4681e-06	67.727	212.010	281.684	138.814	87.168	275.513	122.907	86.918	92.685	235.972	177.327	91.671	96.900	97.976	101.971	203.901	100.805	-8191	255	
7624.264	1	1	0	0	0.30955	0.22823	0.1155	0.15282	0.13081	0.17335	0.23204	0.25349	0.042873	0.15691	0.20709	0.16399	0.38425	0.26826	0.18402	0.48931	-1.8979	-2.1042	-2.4562	-2.2062	-2.2646	-2.4604	-2.2583	-2.575	-2.1813	-2.0167	-2.8292	-2.5833	-2.3646	-2.7438	-2.2896	-2.3083	222.268	192.761	134.757	377.659	214.031	243.999	363.057	196.951	181.657	294.447	124.167	430.221	115.874	98.567	166.833	400.077	0.00056808	5.4524e-05	0.00021414	915.36	1.693e-06	4.896e-06	973.32	319.31	5.7447e-06	3.0706e-06	400.7	154.36	112.4	44.751	4.3268e-06	73.173	0.00026746	0.00024882	7.0521e-05	883.62	3.3092e-06	3.2242e-06	947.12	311.35	3.7865e-06	3.633e-06	377.82	150.25	109.51	43.557	4.4092e-06	71.014	212.108	430.955	142.213	86.767	154.848	235.174	86.829	92.845	251.319	193.139	91.246	96.875	97.459	102.091	217.220	100.725	-8191	255	
7624.360	1	1	0	0	0.18274	0.15091	0.13703	0.24378	0.29148	0.07587	0.14094	0.085648	0.080532	0.066194	0.090448	0.29167	0.29335	0.18281	0.10705	0.12421	-2.0021	-2.0042	-2.5083	-2.2479	-2.2062	-2.7771	-2.3312	-2.4583	-2.4813	-2.0917	-2.5292	-2.3854	-2.3042	-2.5417	-2.1813	-2.6083	186.090	80.903	105.724	425.062	284.380	398.894	355.834	157.543	105.918	164.071	319.987	367.732	398.368	329.865	386.164	94.847	0.00053204	0.00064481	0.0001705	942.07	1.1999e-05	5.5965e-06	1008.3	323.84	5.6453e-06	2.9857e-06	408.88	154.62	112.32	45.299	1.0735e-05	73.846	0.0004765	0.00047484	0.0001426	980.13	6.0966e-06	5.9711e-06	1008.5	326.33	6.7301e-06	6.4987e-06	414.78	155.38	113.85	45.339	7.3184e-06	73.327	200.471	242.660	146.666	87.180	245.925	230.570	86.466	92.709	222.057	253.663	91.345	96.750	97.615	102.124	251.778	100.533	-8191	255	
7624.481	1	1	0	0	0.20676	0.17388	0.18781	0.10198	0.13929	0.15011	0.17423	0.061604	0.2008	0.085067	0.30189	0.35402	0.15331	0.30581	0.14151	0.27049	-2.2313	-2.0729	-2.4354	-2.5875	-2.1208	-2.5729	-2.4917	-2.2313	-2.5542	-2.1042	-2.5729	-2.4542	-2.2729	-2.6521	-2.2229	-2.2687	247.968	220.500	280.055	378.532	295.723	426.243	83.172	90.960	247.307	384.407	102.045	418.562	232.535	415.790	82.760	74.738	0.00058164	0.0006172	0.00024574	958.75	3.4124e-06	4.2887e-06	1023.7	323.57	7.2201e-06	1.1974e-05	408.93	152.69	111.01	44.972	6.1398e-06	73.345	0.00066035	0.00064651	0.00019912	1028.7	7.5819e-06	7.431e-06	1040.6	332.62	8.2173e-06	8.2694e-06	442.22	157.28	116.03	46.403	1.0746e-05	74.958	208.849	196.744	186.391	87.323	370.852	310.528	86.595	92.590	251.595	222.284	91.335	96.600	97.431	102.040	316.531	100.551	-8191	255	
7624.577	1	1	0	0	0.15214	0.25118	0.060636	0.22361	0.082621	0.11091	0.10558	0.27804	0.083504	0.14702	0.11689	0.08608	0.20673	0.28103	0.099503	0.049901	-2.1271	-2.175	-2.3292	-2.4708	-2.1646	-2.2896	-2.3917	-2.2333	-2.625	-2.2062	-2.3083	-2.4938	-2.1521	-2.6	-2.1104	-2.35	347.918	284.978	254.799	360.139	245.551	181.789	252.401	82.618	372.595	111.892	132.049	124.041	328.723	100.927	160.482	254.086	0.00053339	0.0012094	0.00012382	963.25	8.1484e-06	7.6348e-06	1038.1	323.49	3.7957e-06	1.145e-05	408.23	150.73	109.61	44.819	1.5276e-06	72.759	0.00093384	0.00095735	0.00029903	1105.7	1.07e-05	1.08e-05	1077.6	340.82	1.05e-05	1.0914e-05	463.95	157.28	117.03	46.902	1.1915e-05	74.743	222.684	105.560	100.217	86.761	235.175	183.514	86.393	92.523	173.277	193.834	91.402	96.697	97.462	101.813	84.373	100.556	-8191	255	
7624.673	1	1	0	0	0.33471	0.14626	0.055987	0.097818	0.059737	0.13741	0.18882	0.2415	0.22328	0.13546	0.18436	0.19911	0.1493	0.17956	0.11698	0.055042	-2.175	-2.0417	-2.2729	-2.4	-2.0792	-2.5521	-2.5896	-2.1479	-2.4833	-2.2354	-2.1833	-2.5896	-2.1979	-2.5312	-2.4313	-2.0771	77.884	395.531	262.531	125.630	409.009	294.175	371.430	375.816	76.095	415.067	348.025	89.870	241.379	431.967	340.216	328.365	0.00068447	0.00037781	0.00027948	980.84	7.0115e-06	1.2896e-05	1046.6	325.2	1.0679e-05	3.854e-06	408	148.73	109.04	44.647	1.6775e-05	71.748	0.00099496	0.0010929	0.00033082	1139.6	1.2393e-05	1.3734e-05	1110.5	352.84	1.423e-05	1.6539e-05	530.41	166.28	127.62	51.969	2.2279e-05	81.365	218.573	183.091	150.066	87.024	236.077	191.823	86.391	92.345	293.754	185.254	91.038	96.400	97.494	101.839	367.197	100.439	-8191	255	
7624.768	1	1	0	0	0.041477	0.098982	0.23417	0.10017	0.26349	0.36939	0.39289	0.33021	0.020505	0.14839	0.11478	0.24456	0.01522	0.22963	0.12305	0.33073	-2.1896	-2.1646	-2.2562	-2.4646	-2.0604	-2.4208	-2.575	-2.3146	-2.5104	-2.1	-2.2104	-2.7271	-2.0729	-2.3958	-2.4729	-2.1333	141.171	332.321	282.827	148.215	384.472	135.008	377.075	348.502	371.929	432.472	119.076	404.607	234.101	264.923	388.295	141.667	0.00068855	0.0021736	0.00049749	1000.7	1.1758e-05	1.1302e-05	1092.2	333.85	1.736e-05	5.0424e-06	418.55	148.06	110.03	44.198	2.8171e-06	71.08	0.0019612	0.0022821	0.00062641	1403.8	2.359e-05	2.674e-05	1253.6	399.54	2.5096e-05	2.8354e-05	636.79	177.95	140.21	56.277	2.8506e-05	84.937	226.547	124.596	260.489	86.230	196.619	198.034	85.962	91.585	215.954	210.708	90.731	96.236	96.749	101.777	428.939	100.371	-8191	255	
7624.864	1	1	0	0	0.23521	0.29336	0.026961	0.26897	0.095732	0.099093	0.2489	0.22749	0.063992	0.096932	0.2028	0.074888	0.20844	0.2898	0.061795	0.24579	-2.0479	-2.2083	-2.0146	-2.6125	-2.0021	-2.3688	-2.7771	-2.2208	-2.6333	-2.2438	-2.3104	-2.6542	-2.3917	-2.475	-2.4875	-2.1042	126.825	389.084	334.794	430.516	275.522	259.592	366.210	390.634	377.464	323.194	378.872	251.612	419.162	370.241	94.117	337.276	0.0006716	0.00069854	0.00029622	1030	2.4282e-05	1.2389e-05	1121.9	343.27	1.7338e-05	6.5751e-06	428.4	145.86	108.75	43.701	5.995e-06	70.306	0.0025713	0.002882	0.00073887	1522.7	2.8883e-05	3.082e-05	1296.2	411.83	2.754e-05	2.8438e-05	624.67	173.04	137.03	53.384	2.3094e-05	80.218	213.004	409.859	339.872	86.435	156.632	109.683	86.348	91.547	205.896	404.256	90.580	95.958	96.788	101.660	269.139	101.014	-8191	255	
7624.960	1	1	0	0	0.24282	0.036278	0.069452	0.13546	0.27521	0.14129	0.20268	0.19611	0.21235	0.19554	0.076593	0.16067	0.33331	0.27172	0.052115	0.10047	-1.8958	-2.3625	-2.0396	-2.5167	-2.2062	-2.3083	-2.6854	-2.2375	-2.5521	-2.2958	-2.1188	-2.5583	-2.2708	-2.4583	-2.6437	-2.1771	248.251	181.603	354.735	210.469	170.920	314.802	384.082	393.014	201.154	376.530	377.111	98.379	413.450	139.040	353.563	406.985	0.00070097	0.00055729	0.00041752	1003.2	1.4573e-05	9.1019e-06	1095.6	331.41	1.8093e-05	1.6299e-05	409.72	142.89	105.79	42.871	9.8954e-06	68.99	0.0021431	0.0021746	0.00054661	1347.4	2.235e-05	2.1932e-05	1202.5	376.36	2.1066e-05	2.0373e-05	543.61	161.84	127.72	49.54	1.8312e-05	76.144	218.387	356.403	124.346	86.648	221.893	305.586	86.068	91.729	236.080	333.107	90.722	96.225	96.812	101.544	246.791	100.606	-8191	255	
7625.056	1	1	0	0	0.059707	0.22546	0.24919	0.31887	0.20251	0.18763	0.088933	0.095516	0.18273	0.15418	0.34341	0.11351	0.20296	0.24042	0.036433	0.21676	-1.9458	-2.4042	-2.0812	-2.3812	-2.2208	-2.4271	-2.7667	-2.0771	-2.3771	-2.4854	-2.1417	-2.5854	-2.2938	-2.225	-2.4271	-2.2687	203.104	77.456	122.326	404.922	217.184	104.266	138.312	264.392	128.417	227.028	163.067	432.516	206.034	149.019	266.141	426.835	0.00067068	0.0013543	0.00033238	988.6	2.8002e-05	5.0084e-07	1059.2	319.45	1.0665e-05	1.0005e-06	397.84	142.46	104.8	42.634	4.1153e-06	69.359	0.0018013	0.0016952	0.00043869	1254.8	1.8628e-05	1.6936e-05	1132.9	354.41	1.6919e-05	1.5205e-05	482.86	154.82	118.63	46.357	1.258e-05	72.707	204.842	277.262	389.012	86.499	173.900	354.974	86.361	92.027	218.016	168.892	90.282	96.651	97.271	101.800	219.497	100.593	-8191	255	
7625.152	1	1	0	0	0.078178	0.10603	0.1255	0.059471	0.12228	0.16228	0.30681	0.21437	0.13004	0.065862	0.36831	0.24658	0.30066	0.29407	0.071766	0.10855	-1.7854	-2.3479	-2.0062	-2.2979	-2.3104	-2.3104	-2.6896	-2.2854	-2.4958	-2.5604	-2.3583	-2.7208	-2.4396	-2.1562	-2.5583	-2.375	98.521	430.700	425.963	364.900	237.155	291.803	142.685	380.074	432.119	310.842	131.783	381.781	420.940	342.144	271.736	322.437	0.00055868	0.00094248	2.9302e-05	963.63	2.3979e-06	8.7416e-06	1040.4	315.98	5.8447e-06	7.513e-06	401.88	143.72	105.49	42.979	8.2927e-06	69.699	0.0012178	0.0011077	0.00029662	1131.1	1.3105e-05	1.2193e-05	1081.5	340.79	1.3092e-05	1.2075e-05	457.64	153.44	115.89	45.728	1.1378e-05	72.986	222.605	350.917	155.853	86.524	421.554	171.364	86.212	92.102	113.846	346.951	91.187	96.719	97.551	102.120	190.786	100.725	-8191	255	
7625.249	1	1	0	0	0.17428	0.24923	0.093047	0.15065	0.22691	0.0077363	0.33036	0.17266	0.047718	0.080664	0.037009	0.28435	0.24223	0.11895	0.17619	0.13524	-1.7542	-2.5708	-2.1771	-2.4938	-2.4354	-1.9937	-2.8729	-2.4417	-2.2125	-2.525	-2.1542	-2.5021	-2.75	-2.1937	-2.65	-2.4375	245.158	244.832	211.205	84.707	314.304	159.502	383.306	84.959	255.005	360.468	184.985	424.316	405.022	340.830	202.264	81.936	0.0004889	0.00026622	0.0003613	970.47	5.6748e-06	9.0169e-06	1047.2	317.44	8.3466e-06	3.7605e-06	401.97	145.06	106.3	43.253	1.231e-05	70.664	0.0011157	0.0010525	0.00028912	1138.3	1.2078e-05	1.1309e-05	1078	339.36	1.1642e-05	1.0998e-05	453.99	153.91	114.61	45.501	1.1083e-05	73.239	215.304	187.911	164.100	86.349	146.469	287.889	86.319	92.444	272.963	271.296	90.412	96.644	97.319	101.695	208.266	100.827	-8191	255	
7625.369	1	1	0	0	0.16989	0.078457	0.25269	0.14602	0.23281	0.077273	0.30937	0.14543	0.32731	0.16244	0.28448	0.072042	0.28881	0.11181	0.20977	0.13149	-1.8521	-2.6958	-2.0375	-2.3812	-2.4396	-2.2313	-2.7062	-2.4167	-2.0375	-2.7	-2.1771	-2.4062	-2.5917	-2.0938	-2.4521	-2.5375	261.001	94.940	83.614	202.343	310.801	173.817	335.388	346.405	206.292	81.658	390.033	429.291	120.639	395.562	329.070	374.970	0.00045404	0.00098894	0.00030746	959.8	9.4836e-06	3.5112e-06	1034.9	317.38	2.9016e-06	5.1015e-06	399.48	144.63	105.73	42.889	7.286e-06	69.556	0.00098714	0.00093607	0.00026863	1102.5	1.0176e-05	9.6408e-06	1062.4	332.89	9.6307e-06	9.0764e-06	436.57	150.29	110.88	44.221	9.8375e-06	71.215	212.152	165.828	157.228	86.956	248.744	133.418	86.412	92.264	433.325	195.246	91.012	96.738	97.320	102.034	270.872	100.682	-8191	255	
7625.441	1	1	0	0	0.032773	0.16934	0.20994	0.14291	0.018597	0.19266	0.12207	0.14155	0.19796	0.10681	0.054769	0.33783	0.14451	0.23741	0.14727	0.092038	-1.6292	-2.5875	-2.2604	-2.3333	-2.6542	-2.2104	-2.7083	-2.5312	-2.35	-2.5542	-2.1271	-2.1396	-2.4583	-2.2958	-2.5167	-2.4396	360.477	415.369	301.912	425.021	137.445	111.309	116.165	394.611	290.229	95.445	299.882	337.067	376.092	96.590	137.286	78.135	0.00056908	0.00042066	0.00025681	968.65	2.7394e-06	9.3936e-06	1026.7	315.08	5.5426e-06	3.648e-06	397.89	143.67	105.57	42.634	3.6877e-06	69.449	0.00086544	0.00084288	0.00025983	1080	9.5314e-06	9.306e-06	1057.9	329.76	9.1963e-06	8.9877e-06	437.41	148.53	110.47	44.12	1.0277e-05	70.739	221.171	342.060	92.674	87.241	171.177	224.637	86.562	92.505	420.024	302.745	91.463	96.655	97.259	101.794	214.697	100.554	-8191	255	
7625.561	1	1	0	0	0.19999	0.15709	0.24287	0.11394	0.043548	0.21528	0.08519	0.22895	0.25921	0.29261	0.091042	0.046631	0.12171	0.11456	0.19179	0.11879	-1.7646	-2.3479	-2.2313	-2.2875	-2.6167	-2.1813	-2.6125	-2.6854	-1.9917	-2.6437	-2.4896	-2.3875	-2.5958	-2.0125	-2.2542	-2.5646	145.995	283.952	359.981	296.661	161.877	243.628	74.676	209.080	396.708	374.346	106.826	109.577	428.107	402.420	114.924	375.931	0.00065121	0.0003574	8.3448e-05	965.44	6.3002e-06	8.6895e-06	1030.3	316.85	8.6548e-06	7.8303e-06	397.65	144.33	105.93	43.024	7.0768e-06	70.051	0.00085445	0.00087245	0.00026787	1075.2	9.5505e-06	9.8631e-06	1064.3	330.97	9.633e-06	9.8887e-06	444.66	149.49	111.04	44.697	1.0314e-05	71.088	210.461	193.215	146.432	86.509	155.817	209.532	86.600	92.339	213.854	272.059	91.014	96.610	97.269	102.169	355.170	100.743	-8191	255	
7625.658	1	1	0	0	0.24611	0.41175	0.29359	0.093155	0.18616	0.3205	0.29838	0.20261	0.26495	0.024463	0.28795	0.11089	0.0882	0.21508	0.089572	0.31047	-1.45	-2.2917	-2.4167	-2.45	-2.4417	-2.0771	-2.5104	-2.5833	-1.9562	-2.3333	-2.3854	-2.1333	-2.4958	-2.1229	-2.2792	-2.75	171.871	312.410	93.584	423.902	260.990	88.439	321.093	294.109	287.023	401.980	420.866	415.726	281.985	134.267	212.122	282.422	0.00053267	0.0008252	0.00018033	962.94	4.021e-06	7.4735e-06	1038.2	317.89	7.8932e-06	7.3941e-06	400.75	145.26	106.46	43.332	8.448e-06	70.763	0.00083465	0.00088615	0.00025467	1061.6	8.9193e-06	9.6799e-06	1061.2	329.39	8.9778e-06	9.7618e-06	439.9	149.95	111.37	45.183	1.0026e-05	71.646	218.441	134.861	169.996	86.930	201.655	178.053	86.362	92.197	260.637	167.438	91.106	96.670	97.400	101.925	317.278	100.707	-8191	255	
7625.754	1	1	0	0	0.16237	0.17167	0.15616	0.082712	0.19558	0.12163	0.19628	0.084415	0.026193	0.17525	0.18108	0.10388	0.19426	0.11889	0.12843	0.22868	-1.6437	-2.4854	-2.375	-2.2208	-2.5854	-2.4042	-2.3604	-2.6063	-2.2562	-2.5396	-2.2292	-2.0833	-2.6292	-2.3104	-2.2104	-2.7396	123.829	303.583	197.168	432.182	197.343	287.192	371.682	103.619	398.285	75.812	421.594	403.323	355.559	349.903	194.614	386.232	0.00054381	0.00016891	0.0001799	971.57	1.0223e-05	3.6082e-06	1042.9	319.29	1.1141e-05	2.7077e-06	402.17	145.15	106.05	42.777	3.2848e-06	70.315	0.00087272	0.00098191	0.00026818	1083.1	1.011e-05	1.1412e-05	1077.7	335.93	1.1051e-05	1.23e-05	464.68	153.43	115.39	46.51	1.2849e-05	73.204	221.605	237.009	195.114	86.799	204.758	280.006	86.400	91.973	246.288	242.484	91.259	96.818	97.398	102.261	342.260	100.752	-8191	255	
7625.850	1	1	0	0	0.11085	0.26375	0.17105	0.45144	0.13835	0.14499	0.20639	0.12801	0.12379	0.046378	0.20705	0.098277	0.12378	0.24159	0.24835	0.14149	-1.7646	-2.1542	-2.3042	-1.9646	-2.4917	-2.4396	-2.3625	-2.6896	-2.0771	-2.5	-2.5187	-1.9833	-2.5917	-2.3563	-2.1542	-2.7021	79.413	143.063	335.954	411.740	212.875	270.706	282.010	329.633	290.406	254.502	89.672	408.192	392.676	76.814	135.193	378.483	0.00067357	0.00040471	0.00016639	971.67	1.099e-05	5.2791e-06	1050.5	320.25	1.6371e-05	3.962e-06	402.55	144.48	105.86	42.489	1.2022e-05	69.278	0.0011905	0.0013076	0.00034377	1157.3	1.4068e-05	1.5125e-05	1110.8	347.38	1.5099e-05	1.5878e-05	494.69	156.6	120.28	47.477	1.4956e-05	74.05	214.566	430.975	296.671	86.932	178.203	113.303	86.341	92.038	198.796	181.690	90.770	96.389	97.417	101.957	260.811	100.944	-8191	255	
7625.969	1	1	0	0	0.084278	0.14461	0.21512	0.24112	0.38391	0.18838	0.2271	0.15755	0.23172	0.19189	0.45095	0.31807	0.18604	0.049122	0.28263	0.16248	-1.7625	-2.3417	-2.6833	-2.2208	-2.4188	-2.4125	-2.0771	-2.5208	-2.2208	-2.2062	-2.6688	-2.2396	-2.5312	-2.4437	-2.1896	-2.6063	145.943	125.373	114.273	355.448	400.571	214.760	354.219	323.581	426.332	106.842	401.827	77.202	98.539	415.866	200.774	398.334	0.0008157	0.0013943	0.00015771	971.28	7.6768e-06	5.8691e-06	1043.5	320.11	1.0612e-05	8.2121e-06	399.91	144.84	105.8	42.578	4.8649e-06	70.373	0.0014479	0.0014879	0.00038887	1194	1.6414e-05	1.6074e-05	1114.1	349.83	1.626e-05	1.5429e-05	486.94	156.47	119.62	46.711	1.3279e-05	73.596	217.687	282.582	325.351	86.894	159.333	162.033	86.595	92.230	226.713	240.110	91.060	96.502	97.553	102.024	93.353	100.836	-8191	255	
7626.040	1	1	0	0	0.10757	0.28519	0.25302	0.11642	0.30628	0.18053	0.36487	0.20854	0.064539	0.052817	0.11477	0.29986	0.23578	0.065662	0.10907	0.17267	-1.6667	-2.2458	-2.5083	-2.1271	-2.3104	-2.4542	-2.2917	-2.4979	-2.3667	-2.2167	-2.35	-2.1688	-2.5521	-2.5854	-2.1958	-2.625	332.635	195.068	169.409	410.695	171.596	99.570	401.889	396.882	389.558	313.030	408.979	358.398	383.498	319.888	372.958	112.362	0.00053181	0.00078833	0.00032176	970.91	6.78e-06	1.8482e-06	1037	319.15	1.1664e-05	1.0947e-05	402.26	146.3	106.77	43.293	1.0035e-05	71.499	0.001257	0.0011665	0.00030008	1120.2	1.2518e-05	1.1375e-05	1069	335.1	1.1279e-05	1.0214e-05	435.98	151.26	113.39	45.142	9.2784e-06	72.623	221.052	270.014	168.133	87.089	234.614	357.677	86.327	92.392	240.217	264.589	91.166	96.760	97.537	102.021	164.781	100.705	-8191	255	
7626.137	1	1	0	0	0.27879	0.17128	0.13831	0.14565	0.25698	0.21595	0.13314	0.22039	0.22563	0.12085	0.042286	0.16805	0.10234	0.31252	0.26143	0.21932	-1.8292	-2.0458	-2.4354	-2.2729	-2.2875	-2.4938	-2.2396	-2.3229	-2.3604	-2.2333	-2.6937	-2.55	-2.3333	-2.6437	-2.2104	-2.4854	144.504	261.980	97.687	258.659	350.862	180.930	184.301	294.386	299.602	289.260	104.510	100.018	424.794	363.474	210.530	364.475	0.00051566	0.00034773	0.00027428	970.18	1.0395e-05	5.7941e-06	1040.4	321.81	1.1772e-05	5.4987e-06	405.4	147.2	106.27	43.423	2.9152e-06	71.309	0.00094869	0.00090055	0.00024266	1091	1.0715e-05	1.0033e-05	1063.9	336.67	1.0724e-05	1.011e-05	442.22	154.22	114.51	45.552	1.0484e-05	73.824	212.212	133.088	205.438	86.271	385.069	271.288	86.585	92.293	308.022	132.250	91.249	96.681	97.460	102.075	182.629	100.848	-8191	255	
7626.257	1	1	0	0	0.2595	0.068979	0.26446	0.11263	0.34428	0.089915	0.12754	0.082216	0.14243	0.060647	0.13468	0.11874	0.13456	0.1949	0.1125	0.22307	-2.0812	-2.0438	-2.35	-2.2396	-2.4146	-2.4625	-2.2083	-2.5812	-2.3208	-2.1188	-2.6875	-2.3896	-2.3292	-2.475	-2.2313	-2.5646	247.807	257.324	270.768	104.561	377.485	152.995	296.156	108.395	182.969	353.533	333.600	404.961	94.715	386.475	182.861	400.180	0.00054397	0.00057334	0.0002448	971.2	6.0565e-06	3.9008e-06	1042.7	321.01	8.0801e-06	3.8432e-06	406.17	146.43	105.8	42.342	9.6247e-06	70.469	0.0010489	0.0010085	0.00028201	1131.8	1.1775e-05	1.1072e-05	1079.8	342.73	1.1883e-05	1.1613e-05	464.99	156.23	116.21	45.539	1.2772e-05	74.279	225.839	269.900	158.296	87.008	87.861	382.176	86.462	92.168	237.853	348.853	91.071	96.576	97.268	102.230	228.482	100.758	-8191	255	
7626.353	1	1	0	0	0.14031	0.25404	0.30777	0.027508	0.21252	0.28896	0.20291	0.091075	0.22427	0.17703	0.086275	0.12433	0.22836	0.14205	0.069649	0.11631	-2.1562	-1.8417	-2.3146	-2.3229	-2.3417	-2.6667	-2.3146	-2.5917	-2.5229	-2.0979	-2.4646	-2.4583	-2.1667	-2.6583	-2.2208	-2.5062	115.412	116.298	88.274	176.213	150.905	206.779	357.763	400.655	411.425	367.998	416.989	247.329	147.152	311.187	211.123	418.695	0.00052832	0.0003984	2.0243e-05	969.88	4.5114e-06	4.4484e-06	1041.2	320.7	3.7169e-06	6.9935e-06	410.4	148.86	105.51	43.74	1.1839e-05	72.984	0.0011615	0.0011291	0.00032268	1152.5	1.1944e-05	1.1121e-05	1083.1	340.86	1.0752e-05	1.0226e-05	455.34	155.43	112.52	45.434	1.0798e-05	74.705	217.763	364.691	402.081	86.701	288.246	272.064	86.583	92.141	156.203	246.306	91.652	96.504	97.262	101.773	229.293	100.909	-8191	255	
7626.450	1	1	0	0	0.076516	0.38882	0.085856	0.1936	0.056409	0.12665	0.12218	0.17093	0.21974	0.04146	0.36882	0.12884	0.1852	0.17155	0.070843	0.0626	-2.025	-2.0438	-2.2208	-2.525	-2.0292	-2.5	-2.4229	-2.25	-2.4854	-2.2375	-2.2896	-2.3542	-2.1729	-2.5646	-2.2687	-2.2958	195.567	79.347	277.581	135.256	359.990	414.620	426.687	212.022	219.411	191.970	82.725	429.495	87.763	318.589	225.188	380.880	0.00046126	0.0017063	0.00010939	1006.2	3.0947e-06	5.8231e-06	1069.7	329.37	9.8213e-06	7.5115e-06	416.91	151.28	105.61	45.206	5.2562e-06	75.611	0.00091947	0.00090259	0.00027276	1125	9.9544e-06	9.7727e-06	1100.2	344.35	9.6697e-06	9.5749e-06	455.29	156.18	110.99	46.388	9.5592e-06	75.663	223.022	123.903	180.681	86.516	300.822	289.426	86.365	91.906	207.072	234.142	90.752	96.491	97.615	102.084	234.502	100.504	-8191	255	
7626.546	1	1	0	0	0.23053	0.18534	0.053646	0.1319	0.16928	0.20835	0.28988	0.29693	0.082231	0.047896	0.045989	0.040828	0.22065	0.28654	0.15629	0.15575	-2.0812	-2.0125	-2.3083	-2.4792	-2.1292	-2.4729	-2.3646	-2.2354	-2.6208	-2.0667	-2.3458	-2.4958	-2.1667	-2.5271	-2.2583	-2.4917	102.861	347.538	260.339	322.526	386.025	279.741	398.616	429.567	384.083	142.313	144.477	230.358	88.601	424.981	122.638	233.167	0.00051411	0.0021451	6.3818e-05	1008.5	7.2963e-06	3.904e-06	1067.2	328.22	3.4036e-06	1.0243e-05	412.72	152.62	105.84	45.417	8.9386e-06	76.563	0.00077931	0.00078485	0.00023201	1086.9	8.4047e-06	8.6965e-06	1086.6	337.83	8.5725e-06	8.9503e-06	442.89	155.53	109.36	46.373	8.3115e-06	75.512	206.898	130.381	227.006	86.707	208.247	275.163	86.407	92.153	122.073	247.330	91.102	96.532	97.673	102.030	251.990	100.483	-8191	255	
7626.665	1	1	0	0	0.1047	0.11873	0.18457	0.085732	0.33922	0.10363	0.23064	0.21765	0.12458	0.14579	0.36565	0.2971	0.30502	0.46188	0.19036	0.19374	-1.9854	-2.1042	-2.3833	-2.5229	-2.1667	-2.4417	-2.5646	-2.2958	-2.5792	-2.2083	-2.1833	-2.5896	-2.1375	-2.4542	-2.4896	-2.2292	226.634	195.770	120.206	311.481	127.097	253.615	291.535	403.986	259.545	88.935	388.499	419.913	349.632	110.571	89.229	315.114	0.00064601	0.00061825	0.00029479	1001.8	5.244e-06	9.2256e-06	1053.4	325.27	7.8038e-06	5.0855e-06	410.7	151.82	105.13	45.504	3.187e-06	75.918	0.00065454	0.00068029	0.00018727	1041.4	6.5489e-06	6.8305e-06	1052.8	324.01	5.7899e-06	6.0546e-06	403.87	149.61	104.56	44.83	5.1882e-06	73.124	215.301	149.447	180.778	86.704	225.722	226.808	86.437	92.029	242.080	316.801	91.082	96.639	97.317	101.920	139.859	100.704	-8191	255	
7626.738	1	1	0	0	0.1253	0.22075	0.17405	0.17006	0.30413	0.10001	0.14833	0.3559	0.16656	0.19096	0.11341	0.096182	0.20229	0.20522	0.2888	0.069405	-2.0687	-2.2792	-2.1167	-2.625	-2.2708	-2.2583	-2.5292	-2.1896	-2.4146	-2.2396	-2.1437	-2.6667	-1.9771	-2.3667	-2.4833	-2.0646	183.643	417.788	113.858	419.565	159.323	146.247	327.928	90.896	329.526	84.826	419.352	306.154	384.613	164.835	161.628	276.044	0.00065705	0.00058958	0.00019054	993.05	2.7119e-06	6.7222e-06	1038	319.7	8.9338e-06	3.791e-06	402.05	151.82	105.38	45.409	3.5877e-06	76.041	0.00043595	0.00045609	0.00011897	976.26	4.3054e-06	4.5127e-06	1014.5	312.57	3.8332e-06	3.9972e-06	376.86	146.57	102.33	44.036	3.4717e-06	72.124	211.441	147.418	177.208	86.971	217.296	249.740	86.258	92.333	223.234	181.115	91.200	96.811	97.538	101.770	238.247	100.479	-8191	255	
7626.834	1	1	0	0	0.13197	0.069962	0.042292	0.047038	0.17324	0.074295	0.10737	0.30035	0.083273	0.14183	0.17675	0.11363	0.20899	0.069604	0.25726	0.26327	-2	-2.2021	-2.2625	-2.3917	-2.075	-2.25	-2.6437	-2.3063	-2.8146	-2.4479	-2.225	-2.7708	-2.1333	-2.5146	-2.4604	-2.2667	316.614	135.984	169.887	400.549	169.721	249.530	165.223	145.097	322.708	379.134	225.627	103.681	318.159	260.844	298.852	109.403	0.00065207	0.00055234	0.00028922	987.77	5.215e-06	6.3929e-06	1029	320.99	4.0375e-06	1.3698e-06	402.71	152.55	106.27	46.181	6.56e-07	76.9	0.00032941	0.00032899	8.5343e-05	945.96	3.3058e-06	3.3688e-06	999.82	310.18	3.1837e-06	3.1938e-06	371.28	146.64	102.62	44.396	3.0579e-06	72.727	208.664	247.749	168.307	86.565	187.632	247.793	86.518	92.303	253.562	199.854	91.268	96.467	97.716	101.911	359.772	100.466	-8191	255	
7626.930	1	1	0	0	0.04408	0.27506	0.18321	0.096194	0.20651	0.12977	0.05282	0.17709	0.064817	0.069134	0.23809	0.33086	0.18356	0.10489	0.14713	0.12043	-2.1188	-2.4458	-1.9062	-2.6625	-2.0938	-2.1813	-2.5292	-2.3125	-2.4604	-2.5021	-2.2438	-2.5958	-2.4021	-2.35	-2.6042	-2.4521	168.091	422.660	249.010	168.902	137.613	281.174	390.267	342.226	385.241	388.671	314.238	417.928	77.395	349.905	75.199	296.511	0.00063411	0.00014526	0.00013109	985.81	9.5804e-06	9.9938e-07	1038	322.14	1.6267e-06	2.8713e-06	408.26	153.79	106.73	46.434	2.3374e-06	77.433	0.00031352	0.00030126	8.119e-05	946.24	3.4169e-06	3.3523e-06	1007	312.17	3.5032e-06	3.3764e-06	376.68	147.85	103.4	44.685	3.3602e-06	73.442	210.737	183.048	207.371	86.502	160.858	74.027	86.504	91.976	305.273	184.387	91.333	96.389	97.479	101.703	116.068	100.668	-8191	255	
7627.049	1	1	0	0	0.24633	0.070175	0.25908	0.1899	0.17591	0.21749	0.28942	0.14035	0.22233	0.15846	0.091194	0.11608	0.12793	0.060009	0.20326	0.13287	-1.7792	-2.4104	-1.9042	-2.6813	-2.2188	-2.075	-2.8417	-2.3	-2.3854	-2.5167	-2.0729	-2.7188	-2.3958	-2.0542	-2.4771	-2.2125	152.447	290.527	114.993	292.639	133.698	185.829	361.723	363.708	324.467	400.476	126.780	367.715	364.833	117.637	362.327	420.321	0.00065861	0.00076935	0.00012468	998.45	3.626e-06	1.7923e-06	1050.3	325.51	3.5633e-06	3.8159e-06	408.3	154.78	106.26	46.313	3.9858e-06	77.641	0.00035842	0.00032326	8.6811e-05	959.34	3.7452e-06	3.5291e-06	1017.2	315.33	3.6487e-06	3.4151e-06	378.48	149.17	103.53	44.687	3.2824e-06	73.674	207.716	199.556	103.997	86.555	223.431	163.587	86.382	92.260	239.558	208.361	91.216	96.624	97.410	101.763	193.865	100.711	-8191	255	
7627.145	1	1	0	0	0.20716	0.12462	0.081908	0.24455	0.23351	0.22833	0.23143	0.014832	0.19651	0.15909	0.14507	0.25668	0.31328	0.33343	0.10093	0.28585	-2.025	-2.5646	-2.1333	-2.4875	-2.3542	-2.2146	-2.7625	-2.0792	-2.3	-2.8	-2.4062	-2.5208	-2.525	-2.1229	-2.6417	-2.5438	219.432	236.770	369.786	379.719	223.217	187.978	115.484	119.676	194.425	370.568	129.960	155.412	389.225	146.745	427.197	373.557	0.00063596	0.00031304	0.00015938	991.49	3.7708e-06	2.5375e-06	1047.1	323.01	1.9799e-06	7.7913e-06	405.62	152.5	105.57	46.037	6.835e-06	76.756	0.00034158	0.00030396	8.2104e-05	958.04	3.5208e-06	3.3522e-06	1015.3	314.2	3.5949e-06	3.3918e-06	377.6	147.81	103.03	44.42	3.4807e-06	73.074	211.712	140.815	208.633	86.795	226.306	220.305	86.334	92.161	233.751	230.280	91.037	96.569	97.600	101.676	230.840	100.609	-8191	255	
7627.241	1	1	0	0	0.25144	0.13193	0.096815	0.20454	0.06981	0.02499	0.17427	0.17879	0.18661	0.34198	0.056574	0.10118	0.1532	0.15012	0.25208	0.22373	-1.9667	-2.5146	-2.0375	-2.45	-2.4625	-2.1771	-2.5271	-2.2583	-2.3312	-2.5479	-2.1937	-2.5875	-2.6021	-2.1271	-2.4771	-2.5312	82.523	189.694	238.324	201.787	256.318	139.459	317.647	317.359	345.744	430.011	420.405	149.298	386.983	416.465	336.110	366.587	0.00061846	0.00042479	0.00013869	994.61	7.6904e-06	2.8481e-06	1050.8	323.25	3.6095e-06	4.9659e-06	404.54	152.19	105.83	46.022	5.6337e-06	76.721	0.00034671	0.0003212	9.0845e-05	970.51	3.7982e-06	3.7448e-06	1025.9	316.89	4.0885e-06	3.979e-06	386.52	148.71	103.71	44.743	4.302e-06	73.668	214.091	136.575	134.930	86.785	228.837	93.972	86.532	91.921	211.834	183.800	91.134	96.630	97.462	101.765	249.905	100.633	-8191	255	
7627.338	1	1	0	0	0.14242	0.10366	0.071963	0.31339	0.18855	0.090487	0.043689	0.11403	0.1314	0.12076	0.30071	0.36968	0.2081	0.25525	0.10793	0.24448	-1.7188	-2.6146	-2.2125	-2.2208	-2.4562	-2.1458	-2.5917	-2.4688	-2.1042	-2.6833	-2.3042	-2.3875	-2.6979	-2.2271	-2.3896	-2.2854	249.182	222.212	187.786	341.251	299.836	352.675	111.043	416.852	267.756	161.699	368.662	430.277	424.352	346.181	102.469	389.221	0.00062414	0.00053634	4.5852e-05	1003.6	5.7718e-06	6.4138e-06	1060.7	324.09	4.4806e-06	3.6001e-06	407.83	153.15	105.68	46.206	1.8057e-06	76.965	0.00040489	0.00037771	0.00011148	990.37	4.3553e-06	4.2196e-06	1040.2	319.56	4.3903e-06	4.2226e-06	392.04	149.28	104.09	44.904	4.4053e-06	73.836	212.076	229.713	115.681	87.249	194.343	237.338	86.601	92.010	80.735	153.960	90.681	96.328	97.307	101.774	149.981	100.719	-8191	255	
7627.434	1	1	0	0	0.09465	0.093021	0.17413	0.27033	0.14902	0.37177	0.22435	0.13978	0.12054	0.39124	0.031391	0.4279	0.35788	0.15613	0.28691	0.17652	-1.6729	-2.4583	-2.2021	-2.1562	-2.5563	-2.0812	-2.5354	-2.6021	-2.0396	-2.5146	-2.3125	-2.4792	-2.6437	-2.0687	-2.35	-2.6021	140.350	235.953	182.356	306.720	165.204	99.096	371.091	421.586	133.945	87.291	375.489	105.765	422.596	161.461	324.974	369.756	0.00056814	0.00050787	0.00011333	1004.3	2.863e-06	4.7883e-06	1068.4	326.05	2.3236e-06	3.2917e-06	411.02	153.41	106.36	46.034	3.1601e-06	77.229	0.00039221	0.00037369	0.00011487	989.64	4.369e-06	4.3496e-06	1048.2	320.32	4.4718e-06	4.4623e-06	396.47	149.69	104.08	44.939	4.5863e-06	73.951	218.699	175.696	160.918	86.861	166.671	225.441	86.705	91.871	235.968	246.885	91.071	96.568	97.269	101.726	210.429	100.531	-8191	255	
7627.530	1	1	0	0	0.33298	0.058057	0.21989	0.25152	0.1106	0.32858	0.31651	0.15875	0.0732	0.086126	0.19192	0.085853	0.23883	0.072447	0.12834	0.33467	-1.7	-2.4333	-2.3458	-2.1688	-2.6188	-2.2062	-2.4896	-2.4562	-2.0125	-2.5979	-2.4042	-2.3	-2.6021	-2.2979	-2.3458	-2.3771	226.535	323.601	205.939	74.502	198.821	74.227	386.087	414.202	198.478	85.142	373.995	409.659	242.671	212.756	217.930	398.897	0.00067155	0.00047183	0.00012319	999.2	1.4934e-06	9.7191e-06	1054.1	320.36	6.5531e-06	3.6259e-06	404.4	151.29	104.48	45.372	3.9809e-06	75.645	0.00038946	0.00038813	0.00011629	981.72	4.1502e-06	4.2821e-06	1030.9	314.62	3.9681e-06	4.0614e-06	385.36	147.1	102.13	44.04	4.2223e-06	72.317	217.339	201.621	185.875	86.500	172.070	172.385	86.659	92.135	223.961	186.238	90.911	96.614	97.201	101.799	204.849	100.293	-8191	255	
7627.651	1	1	0	0	0.1596	0.16768	0.12404	0.082104	0.080954	0.20774	0.29552	0.22342	0.080779	0.092243	0.26828	0.11578	0.30862	0.33636	0.067009	0.26436	-1.5417	-2.3521	-2.2333	-2.175	-2.5187	-2.1708	-2.45	-2.5646	-2.1083	-2.4271	-2.5	-2.0917	-2.6375	-2.2479	-2.2771	-2.7167	210.493	87.646	376.156	158.486	162.225	329.767	354.327	362.711	99.040	336.851	144.493	364.078	417.585	366.562	199.213	333.049	0.00058416	0.00069547	7.1896e-05	983.02	6.5019e-06	6.9358e-06	1026.6	315.92	8.0016e-06	5.0965e-06	396.03	149.61	102.92	44.289	6.8439e-06	74.535	0.00037079	0.00039068	0.00010956	962.15	3.8963e-06	4.1782e-06	1006.9	308.2	3.6934e-06	3.9686e-06	373.47	144.56	100.18	43.017	3.7472e-06	70.735	211.827	163.067	249.519	86.513	178.012	232.666	86.573	92.004	228.516	214.366	91.546	96.754	97.688	101.977	214.994	100.520	-8191	255	
7627.745	1	1	0	0	0.073242	0.16185	0.27682	0.31135	0.16919	0.15396	0.28169	0.10314	0.11359	0.28345	0.39266	0.13063	0.12773	0.38391	0.34474	0.25989	-1.7333	-2.1937	-2.3	-1.9688	-2.4792	-2.1146	-2.2271	-2.6146	-2.0896	-2.4417	-2.5271	-2.0271	-2.5167	-2.2625	-2.0396	-2.6271	123.380	429.919	126.647	409.059	279.525	290.426	363.337	408.484	86.082	126.387	123.389	302.993	286.612	407.791	321.824	405.888	0.00058286	0.00030348	5.3821e-05	953.59	2.5628e-06	4.2678e-06	988.7	308	8.3565e-06	8.1862e-06	391.28	149.24	101.7	43.302	3.6093e-06	73.344	0.00033496	0.0003485	9.0187e-05	917.39	3.3709e-06	3.6579e-06	962.99	298.9	3.1764e-06	3.2845e-06	359.76	143.02	98.24	41.812	2.5827e-06	69.286	211.276	132.795	271.511	86.755	131.007	227.375	86.816	92.503	235.618	195.353	91.303	96.915	97.479	102.281	233.713	100.803	-8191	255	
7627.841	1	1	0	0	0.19208	0.20575	0.082039	0.50907	0.088123	0.15401	0.17334	0.16883	0.13309	0.10154	0.26935	0.18085	0.19333	0.088706	0.11743	0.16645	-1.8042	-2.1937	-2.2938	-2.1813	-2.5792	-2.2604	-2.425	-2.7604	-2.1875	-2.3479	-2.4938	-2.3625	-2.4667	-2.4562	-2.125	-2.7042	316.277	310.410	81.489	116.531	371.387	155.611	320.452	377.206	96.173	110.778	240.545	254.217	91.246	249.070	285.759	286.518	0.00063676	0.00022184	7.7879e-05	932.96	4.8673e-06	2.0875e-06	962.41	306.9	3.3373e-06	2.4156e-06	390.56	149.84	102.4	43.239	6.5037e-06	73.236	0.00024588	0.00023859	5.9904e-05	876.05	2.3808e-06	2.3496e-06	928.68	293.55	2.14e-06	2.1389e-06	348.95	142.7	97.663	41.202	2.1621e-06	68.832	214.068	235.703	281.169	86.923	221.627	243.407	86.795	92.594	193.554	119.848	91.979	96.964	97.874	102.206	188.066	100.994	-8191	255	
7627.962	1	1	0	0	0.09564	0.0099287	0.27117	0.14541	0.225	0.28944	0.33424	0.13386	0.14318	0.057106	0.32221	0.36559	0.14004	0.34182	0.049199	0.27531	-1.7104	-2.2875	-2.4375	-2.1	-2.4021	-2.4792	-2.2979	-2.5396	-2.2771	-2.1771	-2.4604	-2.1458	-2.4625	-2.3271	-1.9708	-2.5917	395.647	214.021	285.475	308.292	272.679	150.823	350.717	377.241	374.112	214.658	91.146	369.664	185.685	422.956	259.148	397.049	0.00058598	0.00012212	9.5968e-05	923.27	5.2646e-06	3.606e-06	961.98	306.75	2.5476e-06	1.9023e-06	391.36	149.03	101.3	42.212	2.5376e-06	71.73	0.00023049	0.0002137	5.6238e-05	867.66	2.532e-06	2.4549e-06	929.76	293.88	2.6236e-06	2.4783e-06	352.42	142.12	97.359	40.519	2.1815e-06	67.591	215.801	118.972	183.630	86.839	196.212	279.396	86.617	92.518	199.010	196.480	91.597	96.721	97.535	102.135	209.443	100.596	-8191	255	
7628.033	1	1	0	0	0.088284	0.17232	0.13046	0.10036	0.24768	0.087059	0.20422	0.27577	0.18202	0.01954	0.18585	0.10369	0.18774	0.1417	0.28268	0.097642	-1.725	-1.8667	-2.5292	-2.1208	-2.4875	-2.5292	-2.1896	-2.5729	-2.2354	-2.275	-2.5354	-2.2313	-2.4083	-2.5229	-2.1542	-2.4396	386.028	327.373	301.188	427.828	275.868	129.281	429.758	312.440	143.756	364.566	131.189	407.339	337.852	126.728	202.077	252.115	0.00059429	0.00013775	0.00012398	918.54	4.2059e-06	5.284e-06	962.09	302.9	5.4191e-06	5.7186e-06	383.82	146.09	100.3	42.03	3.1883e-06	71.17	0.00022594	0.0001899	4.8666e-05	861.08	2.0919e-06	1.8974e-06	921.29	289.32	1.9972e-06	1.8628e-06	341.38	139.19	95.647	39.944	1.8368e-06	66.711	210.420	92.741	123.727	86.552	205.051	265.511	86.687	92.605	217.189	233.316	91.652	96.748	97.617	102.275	211.093	100.879	-8191	255	
7628.130	1	1	0	0	0.067458	0.21542	0.065598	0.29711	0.3278	0.029924	0.09641	0.020274	0.18666	0.049617	0.093341	0.26222	0.066827	0.3663	0.1449	0.098925	-1.925	-1.925	-2.4167	-1.9708	-2.1896	-2.7104	-2.3688	-2.4417	-2.3479	-2.0812	-2.7729	-2.4271	-2.2687	-2.6417	-2.1208	-2.4729	389.453	85.109	315.419	166.707	253.214	170.209	306.833	421.827	241.432	354.711	91.067	430.249	108.367	406.723	382.962	346.172	0.0005809	0.00023426	0.00016349	924.88	2.8263e-06	2.9853e-06	972.65	304.4	4.4186e-06	6.4314e-06	386.51	145.76	100.94	42.423	1.1243e-06	71.728	0.00019596	0.00016999	4.5712e-05	863.47	1.9368e-06	1.8443e-06	931.85	291.18	1.9687e-06	1.8808e-06	344.79	139.43	96.066	40.386	2.019e-06	67.557	218.769	201.790	222.633	86.818	233.723	234.267	86.635	92.471	318.819	176.354	91.250	96.771	97.407	102.047	131.857	100.939	-8191	255	
7628.226	1	1	0	0	0.136	0.15414	0.23757	0.40645	0.059148	0.25245	0.23535	0.18998	0.11097	0.1343	0.2641	0.26004	0.13673	0.070819	0.22771	0.39364	-2.0208	-1.6979	-2.3792	-2.2542	-2.3542	-2.5479	-2.3417	-2.4458	-2.4062	-2.1063	-2.5354	-2.2667	-2.0521	-2.4875	-2.1542	-2.3625	345.612	348.599	219.323	398.551	325.489	426.152	423.397	395.964	330.990	259.315	334.030	107.365	97.714	194.280	132.729	372.654	0.000595	9.149e-05	0.00013754	952.6	1.0285e-06	3.2246e-06	1000.2	309.69	5.4553e-06	7.252e-07	395.22	147.98	102.32	43.332	3.394e-06	73.281	0.0002136	0.00019482	5.4366e-05	897.58	2.1563e-06	2.0198e-06	964.59	297.37	1.9759e-06	1.8251e-06	351.36	141.03	97.205	41.031	1.7755e-06	68.419	213.464	113.586	175.172	86.673	411.246	246.478	86.416	92.288	259.582	330.814	91.579	96.674	98.088	102.075	237.426	100.687	-8191	255	
7628.346	1	1	0	0	0.11997	0.079879	0.16745	0.094666	0.17662	0.10586	0.1751	0.11672	0.18246	0.079381	0.051395	0.23011	0.18799	0.17849	0.14191	0.068848	-1.8167	-1.8687	-2.3542	-2.2479	-2.0208	-2.5187	-2.2521	-2.4792	-2.5125	-1.9646	-2.5354	-2.0729	-2.2229	-2.4354	-2.3396	-2.3854	204.201	294.918	102.378	377.243	100.670	204.008	424.013	108.570	352.723	226.939	194.690	410.541	94.746	120.449	242.344	406.688	0.00059053	0.00031715	7.9709e-05	974.96	3.0437e-06	3.5895e-06	1041.3	318.47	4.4672e-06	5.7391e-06	403.54	150.73	103.93	44.581	5.7671e-06	74.864	0.00018967	0.00017909	5.5772e-05	917.79	2.4425e-06	2.5136e-06	1007.7	308.22	2.8764e-06	2.8199e-06	374.2	144.7	100.29	42.545	2.803e-06	70.511	214.422	122.728	159.222	86.882	124.377	217.118	86.524	91.905	305.738	154.583	90.985	96.511	97.385	101.867	250.574	100.502	-8191	255	
7628.442	1	1	0	0	0.24879	0.049765	0.11073	0.15028	0.090912	0.27271	0.23417	0.12795	0.1576	0.091683	0.025131	0.24925	0.09164	0.12913	0.11344	0.17146	-2.2062	-2.0896	-2.4875	-2.3271	-2.0333	-2.4625	-2.375	-2.4146	-2.5083	-2.1333	-2.3604	-2.3792	-2.1146	-2.5021	-2.1375	-2.225	286.355	290.808	152.965	319.761	192.893	181.162	399.197	235.988	402.680	157.511	302.968	369.010	122.216	346.158	387.196	425.759	0.00060466	0.00094186	8.301e-05	992.21	3.5144e-06	3.4636e-06	1055.5	322.11	2.9944e-06	8.0073e-06	407.33	150.86	105.43	45.079	2.1783e-06	75.463	0.00025759	0.00023923	7.1244e-05	941.03	2.6287e-06	2.6155e-06	1017.9	309.79	2.6382e-06	2.6033e-06	373.07	144.54	100.63	43.053	2.6797e-06	71.026	210.164	182.211	189.395	86.812	255.744	251.721	86.458	92.071	182.607	223.599	91.184	96.235	97.222	101.813	261.383	100.209	-8191	255	
7628.539	1	1	0	0	0.06065	0.16202	0.16956	0.22838	0.25478	0.13708	0.3788	0.31619	0.28521	0.20537	0.17625	0.059481	0.21747	0.13357	0.32351	0.19711	-2.1167	-2.1229	-2.075	-2.3917	-2.0979	-2.5563	-2.4458	-2.2062	-2.6875	-1.9375	-2.2854	-2.4896	-2.1021	-2.5729	-2.3417	-2.1854	247.275	376.630	369.540	384.448	193.156	197.996	348.908	90.633	162.051	380.773	421.431	388.532	96.810	402.225	158.354	372.158	0.00064688	0.00035574	0.00011185	1001.9	3.9693e-06	7.422e-06	1057.2	324.01	5.5302e-06	4.065e-06	405.41	152.71	106.08	45.897	4.6133e-06	76.761	0.00023155	0.00022295	6.4667e-05	941.36	2.3015e-06	2.371e-06	1019.1	310.46	2.1983e-06	2.3351e-06	368.69	145.26	100.89	43.694	2.4277e-06	72.037	217.782	213.484	102.821	86.081	230.465	209.415	86.282	92.002	207.933	196.359	91.042	96.622	97.374	101.670	255.391	100.568	-8191	255	
7628.610	1	1	0	0	0.21427	0.17587	0.19252	0.37919	0.20605	0.06618	0.20227	0.28474	0.070942	0.16754	0.09352	0.17582	0.3282	0.40095	0.14932	0.43337	-2.1271	-2.075	-2.1	-2.4896	-2.1083	-2.3854	-2.4833	-2.1813	-2.4813	-2.2812	-2.4604	-2.3937	-2.2083	-2.3208	-2.3354	-2.1792	153.815	173.953	114.467	432.082	397.498	418.354	368.739	409.900	171.329	124.591	226.217	422.466	186.335	75.521	149.324	395.060	0.0006305	0.00095051	2.438e-05	1011.1	8.1159e-06	2.0758e-06	1063.6	326.65	3.564e-06	2.2617e-06	414.33	154	106.11	46.116	4.6972e-06	77.06	0.00022133	0.00022324	6.3292e-05	945.81	2.3243e-06	2.5544e-06	1028.2	313.4	2.384e-06	2.5806e-06	375.3	146.61	101.61	44.038	2.5239e-06	72.566	211.276	148.965	129.316	86.848	206.270	273.870	86.547	92.036	226.985	141.378	90.755	96.495	97.371	101.898	200.811	100.666	-8191	255	
7628.731	1	1	0	0	0.2084	0.24829	0.19519	0.24736	0.18196	0.076665	0.17572	0.16919	0.24274	0.069505	0.11873	0.43411	0.19806	0.2896	0.23353	0.18592	-2.1312	-2.2854	-2.125	-2.4333	-2.125	-2.275	-2.5375	-2.1667	-2.3917	-2.1458	-2.1937	-2.5583	-2.0583	-2.4042	-2.5917	-2.2042	419.078	293.998	225.202	140.152	76.433	373.492	376.776	355.153	261.558	158.329	408.573	86.085	190.177	392.658	235.316	336.399	0.00067846	0.00037091	0.00022054	1016	5.452e-06	3.6887e-06	1071.2	328.55	6.2661e-06	5.3056e-06	416.21	154.06	107.16	45.896	5.7425e-06	77.583	0.00024487	0.00025498	6.8534e-05	957.96	2.7714e-06	3.0094e-06	1037.5	316.25	2.9747e-06	3.1207e-06	381.41	148.35	103.02	44.31	3.0935e-06	73.336	217.246	84.731	173.193	86.754	175.546	251.263	86.280	92.092	230.855	230.852	91.389	96.312	97.484	101.894	224.262	100.261	-8191	255	
7628.827	1	1	0	0	0.022025	0.20634	0.10412	0.24835	0.26954	0.22559	0.17132	0.31871	0.1342	0.10657	0.21429	0.18338	0.12016	0.11648	0.25698	0.063421	-2.0271	-2.2958	-2.1312	-2.5979	-2.1479	-2.3292	-2.6271	-2.3625	-2.3167	-2.4417	-2.2625	-2.7396	-2.2271	-2.4938	-2.3937	-2.1292	319.101	293.089	138.748	170.880	300.370	235.552	392.434	398.631	311.584	380.183	410.244	78.588	316.589	393.238	137.607	419.666	0.00061392	0.00077763	0.00015545	1014.9	5.3581e-06	4.0044e-06	1074.1	327.79	1.0253e-05	2.6327e-06	416.61	154.3	106.8	45.726	5.7153e-06	76.806	0.00031411	0.00031403	8.4202e-05	971.85	3.626e-06	3.7136e-06	1045.2	319.26	4.0208e-06	4.1174e-06	391.97	149.19	104.63	44.501	3.9379e-06	73.339	212.227	203.551	177.470	86.932	234.478	244.829	86.396	92.030	234.643	279.345	91.069	96.309	97.134	101.950	277.668	100.618	-8191	255	
7628.923	1	1	0	0	0.13547	0.24041	0.19951	0.10462	0.1116	0.19308	0.17475	0.14942	0.17044	0.13156	0.023652	0.19265	0.17573	0.14222	0.31065	0.15852	-1.9562	-2.2562	-2.0292	-2.6	-2.1167	-2.2542	-2.7083	-2.1958	-2.3833	-2.3396	-2.1083	-2.8083	-2.4146	-2.2792	-2.6146	-2.175	121.278	137.922	74.714	234.059	414.058	151.304	264.605	118.660	210.187	361.992	355.498	418.048	424.086	127.700	357.178	264.469	0.0006615	0.00042303	0.00012054	1020.2	3.6875e-06	1.9426e-06	1069.7	329.24	7.5291e-06	1.1495e-06	418.89	154.9	106.65	45.738	7.682e-06	77.386	0.00039428	0.00036771	9.5942e-05	984.58	4.0174e-06	3.8187e-06	1040.8	319.9	3.9698e-06	3.7497e-06	389.26	149.51	104.59	44.474	3.7958e-06	73.645	213.550	229.226	184.575	86.467	257.777	310.854	86.471	91.944	230.189	252.494	91.197	96.602	97.422	101.946	240.709	100.434	-8191	255	
7629.042	1	1	0	0	0.23853	0.18373	0.32897	0.2124	0.087514	0.11244	0.15245	0.11323	0.2016	0.24936	0.3411	0.15517	0.040553	0.28513	0.12976	0.1818	-1.9167	-2.4188	-2.0604	-2.5667	-2.4083	-2.1208	-2.8937	-2.1917	-2.3292	-2.3042	-2.0563	-2.4375	-2.4083	-2.1813	-2.3875	-2.2313	197.903	206.548	176.180	150.510	202.103	247.560	326.125	388.377	103.869	219.793	401.923	373.418	253.188	410.585	176.267	373.812	0.00066766	0.00026306	0.00010197	1016.7	1.7188e-06	1.7848e-06	1076.8	330.75	5.1191e-06	3.1671e-06	421.08	155.37	107.66	45.966	6.4133e-06	77.583	0.00040488	0.00037566	0.00010176	996.63	4.3601e-06	4.0948e-06	1048.9	322.92	4.3248e-06	4.0045e-06	393.23	151.11	105.3	44.778	3.8987e-06	74.284	216.235	176.605	195.842	86.514	342.742	388.716	86.332	91.953	183.552	264.222	91.297	96.480	97.326	101.713	173.527	100.641	-8191	255	
7629.138	1	1	0	0	0.17689	0.26517	0.23149	0.25501	0.20235	0.11963	0.081892	0.11968	0.067212	0.073002	0.14439	0.030164	0.17328	0.1994	0.077975	0.23924	-1.7	-2.3688	-1.9813	-2.4313	-2.2208	-2.0438	-2.6562	-2.275	-2.475	-2.4896	-2.0104	-2.5104	-2.3229	-2.2146	-2.6417	-2.45	430.493	192.011	357.549	416.308	79.382	152.248	385.773	297.603	420.790	192.639	335.707	421.050	82.118	112.802	182.324	347.980	0.00059405	0.00039881	0.00016666	1018.8	3.7984e-06	4.0003e-06	1078.2	330.99	2.6073e-06	5.1806e-06	419.01	156.75	107.61	46.073	3.2024e-06	78.014	0.0004034	0.00037468	0.00010359	1002.1	4.4488e-06	4.208e-06	1053.2	324.6	4.3672e-06	4.1866e-06	397.54	152.61	105.74	44.871	4.1736e-06	74.921	207.943	163.043	167.247	86.984	186.490	275.966	86.485	91.950	275.505	197.431	90.873	96.458	97.579	101.545	230.216	100.506	-8191	255	
7629.210	1	1	0	0	0.10898	0.3248	0.17369	0.18212	0.080546	0.27665	0.23717	0.14839	0.094324	0.052208	0.17407	0.32923	0.12152	0.18259	0.14304	0.17177	-1.6542	-2.5021	-2.0479	-2.325	-2.3646	-1.85	-2.5271	-2.3917	-2.1417	-2.5271	-2.1479	-2.4417	-2.6813	-2.2	-2.475	-2.4458	364.828	289.288	340.497	221.811	117.810	136.386	422.238	83.180	238.820	129.307	196.855	406.375	207.787	334.603	397.338	312.588	0.0006311	0.0003098	0.00025302	1024.7	5.0687e-06	2.0029e-06	1081.4	332.13	4.9978e-06	3.5412e-06	421.49	156.27	108.06	45.957	9.1537e-06	77.321	0.00041758	0.00039362	0.00011339	1013.4	4.5638e-06	4.4483e-06	1060.7	327.01	4.5551e-06	4.3092e-06	401.5	152.36	105.87	44.804	4.657e-06	74.647	210.511	163.451	165.546	86.387	85.268	222.664	86.739	92.486	262.217	208.486	90.748	96.262	97.460	101.914	204.199	100.465	-8191	255	
7629.331	1	1	0	0	0.10237	0.10177	0.1135	0.11298	0.050662	0.19524	0.2507	0.29163	0.17544	0.02025	0.069317	0.16137	0.22086	0.22555	0.12712	0.24607	-1.7271	-2.3563	-2.0687	-2.2417	-2.3583	-1.9646	-2.5354	-2.5208	-2.1542	-2.5229	-2.2208	-2.3292	-2.4521	-2.0062	-2.6458	-2.5125	128.579	302.617	370.709	420.492	423.987	271.246	336.541	398.715	215.206	120.786	305.879	404.028	221.653	152.015	328.323	352.990	0.00070839	0.00089501	0.00020364	1031.4	1.505e-06	3.4227e-06	1076.4	330.52	2.3065e-06	3.6056e-06	417.94	155.62	107.39	46.103	7.0249e-06	77.273	0.00042753	0.0004025	0.0001207	1016.2	4.5619e-06	4.4836e-06	1058	324.82	4.4757e-06	4.3387e-06	401.44	151.83	105.39	44.794	4.7138e-06	74.313	217.826	153.620	119.312	87.034	285.377	280.487	86.557	91.898	172.611	270.992	90.792	96.677	97.511	101.627	242.418	100.549	-8191	255	
7629.427	1	1	0	0	0.044912	0.15009	0.17716	0.062922	0.14948	0.093688	0.31595	0.11843	0.063743	0.1308	0.035571	0.24713	0.20062	0.25127	0.044282	0.082399	-1.5146	-2.425	-2.0042	-2.2292	-2.2812	-2.0229	-2.4708	-2.2354	-2.0438	-2.5	-2.2729	-2.1833	-2.6521	-2.2604	-2.2521	-2.5667	251.560	351.585	216.883	101.731	373.039	141.007	393.449	315.632	168.712	333.752	396.371	355.862	137.579	394.713	364.197	97.534	0.00059952	0.00059814	0.00015686	1016.5	6.5245e-06	3.8978e-06	1078	329.3	3.3059e-06	4.9836e-06	420.09	155.73	107.64	46.286	4.2965e-06	77.686	0.00042486	0.00040823	0.00012621	1011.8	4.6296e-06	4.6755e-06	1059.4	324.76	4.7185e-06	4.7468e-06	407.36	152.49	106.29	45.213	5.1994e-06	74.864	216.652	133.791	172.559	86.448	199.445	126.301	86.538	91.970	187.642	206.104	91.109	96.366	97.569	101.953	192.902	100.678	-8191	255	
7629.523	1	1	0	0	0.23234	0.22475	0.018246	0.091801	0.2645	0.097782	0.14884	0.1749	0.048491	0.075241	0.35303	0.19616	0.18306	0.18925	0.37528	0.21117	-1.5229	-2.4375	-2.1542	-2.125	-2.5625	-2.2708	-2.45	-2.6125	-2.1729	-2.3417	-2.2958	-2.1312	-2.5125	-2.1	-2.2188	-2.4896	106.150	343.515	225.433	377.909	129.359	147.087	347.019	372.188	148.140	370.764	264.119	402.304	89.619	94.821	109.030	405.310	0.00061814	0.00026319	0.00027669	1022.3	6.8796e-06	8.3841e-06	1076.1	331.34	9.6178e-06	4.9565e-06	421	156.61	108.02	46.394	1.5322e-06	78.172	0.00044945	0.00045483	0.00013358	1017.3	4.7738e-06	5.029e-06	1061.6	326.13	4.7298e-06	5.0311e-06	409.52	153.72	106.89	45.543	5.2984e-06	75.276	209.822	133.906	245.170	86.792	152.991	205.291	86.497	92.328	206.045	237.556	91.289	96.546	97.414	101.788	381.977	100.639	-8191	255	
7629.643	1	1	0	0	0.14452	0.35328	0.012379	0.13349	0.10629	0.12848	0.18792	0.38666	0.10603	0.11216	0.097222	0.18376	0.35574	0.28641	0.1235	0.21138	-1.6	-2.4229	-2.3292	-2.0563	-2.4958	-2.1437	-2.4375	-2.3875	-2.1833	-2.3792	-2.5312	-2.3104	-2.5917	-2.3896	-2.0583	-2.6521	201.422	88.633	363.442	257.327	216.648	249.518	311.029	369.328	365.729	167.302	275.578	366.653	113.466	117.796	147.158	376.506	0.00065636	0.0010764	5.5706e-05	1018.1	5.2449e-06	4.7792e-06	1081.6	331.25	9.5554e-06	3.3946e-06	424.65	157.07	108.25	45.985	7.599e-06	77.514	0.00046233	0.0004901	0.00013458	1019.2	4.949e-06	5.3918e-06	1066.3	327.18	4.9484e-06	5.3772e-06	410.55	153.68	106.73	45.345	5.0821e-06	74.651	211.044	93.252	317.211	86.604	211.656	269.202	86.416	92.012	222.875	173.120	91.305	96.486	97.673	102.005	250.502	100.509	-8191	255	
7629.740	1	1	0	0	0.13591	0.2957	0.24907	0.30642	0.095709	0.25947	0.17682	0.18796	0.32029	0.38337	0.089231	0.27716	0.24817	0.09529	0.11907	0.071751	-1.5417	-2.2938	-2.2396	-1.8917	-2.5604	-2.1271	-2.3146	-2.5312	-2.0896	-2.1479	-2.5146	-2.0417	-2.6208	-2.4896	-2.2479	-2.8187	378.842	420.695	167.661	359.570	371.043	170.094	171.273	427.646	278.510	156.215	257.853	347.420	431.051	387.066	94.074	359.002	0.00066811	0.00033636	0.00017268	1019	4.0825e-06	6.9944e-07	1079.3	330.89	6.4405e-06	4.2593e-06	421.43	155.64	107.31	45.643	5.5623e-06	77.099	0.00046764	0.000488	0.0001289	1012.8	5.0031e-06	5.3326e-06	1061.3	326	5.1181e-06	5.3418e-06	406.94	152.08	106.43	45.021	4.9231e-06	74.11	214.121	211.925	121.314	86.538	198.446	369.594	86.322	92.120	284.873	162.786	90.897	96.574	97.419	101.590	217.910	100.426	-8191	255	
7629.834	1	1	0	0	0.14641	0.1013	0.034228	0.2745	0.10861	0.058444	0.13218	0.16268	0.086292	0.033969	0.042173	0.42789	0.30826	0.27821	0.25353	0.13005	-1.8479	-2.1688	-2.4354	-1.9146	-2.3979	-2.4479	-2.0854	-2.7313	-2.0125	-2.2083	-2.6917	-2.1688	-2.4521	-2.3354	-1.9521	-2.7062	194.402	222.437	128.105	298.642	420.746	196.937	390.687	211.445	290.398	252.650	74.805	394.210	133.016	408.189	198.954	315.747	0.0006827	0.00067713	3.6243e-05	1023.4	2.6481e-06	1.5236e-06	1076.9	331.42	1.0566e-05	4.7343e-06	418.84	156.31	108.73	46.11	3.6617e-06	78.567	0.00046862	0.00046303	0.00012073	1009.2	4.8646e-06	4.8994e-06	1057.5	324.54	4.8387e-06	4.841e-06	402.34	152.39	106.88	45.324	4.6416e-06	74.877	218.037	97.581	147.433	86.426	191.961	270.517	86.573	91.811	240.493	236.339	90.828	96.723	97.802	101.877	180.579	100.654	-8191	255	
7629.907	1	1	0	0	0.1193	0.11717	0.058154	0.31709	0.2267	0.2324	0.23968	0.16389	0.17437	0.12588	0.38541	0.09103	0.24009	0.33433	0.083453	0.04996	-1.7	-2.0812	-2.5687	-2.0792	-2.2542	-2.2313	-2.2604	-2.6271	-2.1792	-2.2542	-2.6583	-2.2625	-2.4146	-2.3917	-1.9062	-2.4833	232.496	240.055	265.634	346.985	134.481	183.919	328.854	365.953	162.629	376.467	297.421	109.432	406.422	338.100	321.226	134.586	0.00070146	0.00050784	0.00014289	1018.8	2.3762e-06	2.929e-06	1083.9	331.04	5.569e-06	5.9644e-06	425.72	157.36	107.83	46.35	5.0576e-06	78.547	0.00046618	0.00044031	0.00011446	1008.8	4.8886e-06	4.6369e-06	1061.3	325.95	4.8715e-06	4.6578e-06	404.29	153.66	107.21	45.507	4.6849e-06	75.605	217.027	420.893	158.484	86.496	282.211	278.206	86.484	92.120	277.549	169.015	91.327	96.409	97.620	101.865	207.218	100.483	-8191	255	
7630.026	1	1	0	0	0.13352	0.17043	0.084587	0.20066	0.21196	0.18004	0.144	0.10797	0.32421	0.07893	0.10347	0.13054	0.047935	0.28951	0.11033	0.12946	-1.5438	-2.1292	-2.4979	-2.1792	-2.125	-2.425	-2.2271	-2.5229	-2.3396	-2.1604	-2.4562	-2.1625	-2.3646	-2.6271	-2.1125	-2.4521	146.848	419.653	262.002	355.031	171.935	427.696	185.825	123.002	79.565	429.862	247.975	397.005	419.363	82.008	176.430	369.566	0.00067757	0.00088433	1.9258e-05	1032.7	4.9303e-06	6.949e-06	1084.2	333.4	3.3779e-06	4.599e-06	427.07	157.25	108.93	46.024	7.703e-06	78.261	0.00047959	0.00045228	0.0001213	1027.2	5.3918e-06	5.1163e-06	1069	330.22	5.5919e-06	5.3098e-06	413.59	155.2	108.42	45.505	5.336e-06	75.853	213.798	110.056	220.745	86.658	132.081	149.315	86.501	92.067	366.889	230.388	90.805	96.339	97.292	101.842	242.914	100.737	-8191	255	
7630.123	1	1	0	0	0.038614	0.13489	0.089915	0.15452	0.047369	0.12443	0.13758	0.22346	0.077856	0.15764	0.39691	0.25275	0.35855	0.23753	0.14189	0.21916	-1.775	-2.0542	-2.4854	-2.3438	-2.2125	-2.3438	-2.1833	-2.4125	-2.3875	-2.125	-2.7417	-2.4708	-2.3646	-2.6896	-2.125	-2.4583	297.914	373.432	344.797	298.063	415.001	241.481	371.113	262.539	328.180	307.861	286.870	365.544	127.790	195.042	93.662	388.837	0.00066105	0.00031585	0.00021929	1026.1	8.5665e-06	3.4188e-06	1076.9	329.82	7.5542e-06	4.315e-06	422.04	155.16	107.31	45.538	3.5742e-06	77.286	0.00053463	0.00049476	0.0001314	1032	5.2363e-06	4.8036e-06	1060.7	326.05	4.8106e-06	4.5328e-06	400.45	152.29	105.38	44.357	3.978e-06	73.72	213.501	267.037	96.070	86.439	236.338	145.940	86.485	92.108	256.387	95.899	91.226	96.354	97.431	101.808	133.925	100.534	-8191	255	
7630.219	1	1	0	0	0.33616	0.21425	0.18731	0.14284	0.30092	0.085029	0.14131	0.11924	0.10724	0.024151	0.075281	0.16557	0.28736	0.22463	0.20055	0.18541	-2.075	-2.0833	-2.4604	-2.3646	-2.1562	-2.5021	-2.2292	-2.3667	-2.5083	-2.0792	-2.3458	-2.3875	-2.1562	-2.6625	-2.2604	-2.4042	75.908	105.347	214.673	353.339	194.193	230.777	345.058	137.826	125.034	357.339	303.608	409.448	156.421	360.660	376.724	282.364	0.00062079	0.00019442	9.1639e-05	1001.7	2.1721e-07	3.0479e-06	1046	324.21	4.1547e-06	4.6272e-06	410.07	155.04	106.4	45.559	7.6526e-06	77.377	0.00034611	0.00030295	8.4129e-05	968.26	3.3272e-06	3.1558e-06	1020.1	314.64	3.2263e-06	3.086e-06	380.83	149.51	102.86	43.705	3.3973e-06	73.15	214.411	428.511	138.422	86.786	348.317	287.728	86.513	92.008	297.773	253.675	91.399	96.526	97.522	101.895	223.872	100.560	-8191	255	
7630.315	1	1	0	0	0.10112	0.11001	0.10684	0.061102	0.20323	0.18287	0.17444	0.2655	0.24354	0.10363	0.24926	0.17726	0.10459	0.22473	0.19659	0.049147	-1.8458	-2.0542	-2.3	-2.4562	-1.9813	-2.3771	-2.3833	-2.2854	-2.6437	-2.3021	-2.575	-2.425	-2.0833	-2.4062	-2.1333	-2.4917	361.617	260.592	283.083	315.461	105.243	202.235	318.081	361.981	194.225	209.712	301.945	385.546	293.679	380.140	300.087	428.586	0.00056828	0.00021453	0.00024728	995.28	1.6709e-06	4.7511e-06	1031.5	319.93	4.3895e-06	1.64e-06	407.6	156.15	106.83	45.813	5.9327e-06	77.609	0.00030965	0.00028453	8.3454e-05	947.81	3.0912e-06	2.895e-06	1003.4	309.81	2.7672e-06	2.6195e-06	373.03	149.38	101.9	43.593	2.4958e-06	72.948	213.485	284.265	161.515	86.601	172.410	187.238	86.819	92.471	251.832	197.891	91.426	96.947	97.736	101.948	160.396	100.693	-8191	255	
7630.411	1	1	0	0	0.12943	0.12037	0.16372	0.24302	0.038813	0.23221	0.3744	0.14765	0.16351	0.17029	0.10629	0.14251	0.25201	0.17623	0.23496	0.24947	-1.8646	-2.1229	-2.4229	-2.3125	-1.9896	-2.5187	-2.2938	-2.2062	-2.6521	-2.1167	-2.3521	-2.5187	-2.1312	-2.6729	-2.2438	-2.2083	410.848	382.564	165.144	183.122	257.624	279.868	425.853	362.594	419.750	422.417	326.373	95.207	254.687	104.962	136.159	340.342	0.00060671	0.00079022	0.00014894	977.96	1.2687e-06	6.5263e-06	1023.5	318.17	8.1856e-06	3.3797e-06	406.78	156.99	107.64	45.54	4.8122e-06	77.987	0.00021583	0.00019592	5.9791e-05	915.97	2.2051e-06	2.2052e-06	989.25	306.05	2.2078e-06	2.2074e-06	368.26	149.33	101.68	43.341	1.9654e-06	72.748	210.445	135.658	115.993	86.844	294.752	224.652	86.767	92.283	239.435	202.444	91.534	96.556	97.493	102.271	198.732	100.625	-8191	255	
7630.507	1	1	0	0	0.14873	0.36958	0.16527	0.099707	0.28688	0.073232	0.265	0.23373	0.13277	0.043782	0.06032	0.094812	0.15384	0.19019	0.2059	0.11404	-1.9958	-1.9771	-2.3438	-2.5604	-2.1917	-2.3854	-2.3187	-2.1333	-2.5667	-2.2542	-2.1688	-2.4583	-2.0833	-2.3583	-2.2062	-2.1625	123.947	118.893	283.756	155.055	80.817	367.812	428.054	400.339	224.432	365.789	193.444	287.314	427.640	141.295	125.731	191.164	0.00060444	0.00084596	0.0001027	970.74	4.298e-06	2.5626e-06	1008.4	315.79	4.0643e-06	4.7584e-06	406.95	156.58	106.25	45.3	5.2461e-06	76.896	0.00016777	0.00015509	4.3875e-05	894.13	1.5442e-06	1.5901e-06	968.29	301.15	1.44e-06	1.531e-06	357.6	147.94	100.11	42.671	1.3793e-06	71.578	212.015	160.275	174.689	86.884	234.278	244.244	86.629	92.261	249.189	178.009	91.619	96.821	97.872	102.061	205.501	100.727	-8191	255	
7630.603	1	1	0	0	0.15901	0.074566	0.10756	0.11566	0.3029	0.09303	0.18946	0.19916	0.20387	0.26884	0.14539	0.016157	0.23687	0.45243	0.044688	0.20521	-1.9083	-2.0125	-2.1958	-2.575	-2.1104	-2.3792	-2.5271	-2.1354	-2.5229	-2.1979	-2.0979	-2.6437	-2.1	-2.3937	-2.4	-2.1	104.931	426.484	93.254	312.176	358.308	328.691	397.422	376.378	233.875	395.951	125.437	358.433	411.987	391.194	416.963	374.817	0.00062181	0.00072766	0.00014291	950.57	3.2924e-06	1.5452e-06	983.5	314.98	6.5855e-06	3.0812e-06	404.42	156.85	106.37	44.495	2.9527e-06	76.544	0.00012895	0.00011585	3.0886e-05	866.9	1.1177e-06	1.1864e-06	940.84	297.83	1.1234e-06	1.2363e-06	353.58	147.69	99.935	42.207	1.164e-06	71.238	211.733	171.738	98.648	86.797	204.658	244.038	86.528	92.439	250.307	215.940	91.666	96.742	97.745	102.153	233.316	100.885	-8191	255	
7630.724	1	1	0	0	0.15095	0.21064	0.060338	0.033652	0.10442	0.21062	0.16364	0.38205	0.053087	0.14019	0.063755	0.10713	0.12146	0.18304	0.1596	0.19439	-2	-2.0167	-2.1458	-2.4375	-2.0812	-2.2687	-2.6583	-2.2083	-2.3333	-2.5583	-2.2917	-2.6437	-2.2542	-2.2521	-2.4417	-2.0625	406.715	163.472	124.527	376.939	173.302	221.857	302.809	355.352	104.157	113.639	132.878	359.044	344.544	406.367	193.900	308.144	0.00064184	0.00034039	0.00015997	944.08	3.5336e-06	2.3047e-06	984.65	316.14	6.5178e-06	4.9077e-06	402.14	157.92	106.57	45.03	4.25e-06	77.196	0.00012473	0.00011276	2.9372e-05	862.54	1.1924e-06	1.2722e-06	941.03	298.51	1.2627e-06	1.3337e-06	353.28	148.44	100.29	42.489	1.3365e-06	71.639	214.475	161.563	127.636	87.022	152.850	211.045	86.853	92.456	247.287	189.695	91.396	96.917	97.893	101.983	178.364	100.895	-8191	255	
7630.820	1	1	0	0	0.14185	0.21736	0.14051	0.08131	0.20801	0.24841	0.15278	0.13666	0.058368	0.15828	0.18227	0.26754	0.19871	0.2099	0.293	0.14217	-2.0271	-2.1854	-2.0875	-2.4333	-2.0771	-2.0667	-2.7042	-2.2812	-2.4688	-2.5812	-2.2562	-2.6646	-2.3792	-2.3563	-2.4729	-2.2417	246.672	166.615	312.598	229.670	188.394	168.016	405.321	402.449	208.119	121.394	393.034	417.938	392.913	99.657	150.004	357.174	0.00063508	0.00036404	2.9252e-05	948.02	4.4834e-06	3.4982e-07	995.15	315.72	2.3083e-06	5.0015e-06	403.41	156.93	106.73	44.918	7.1228e-06	76.533	0.00014845	0.0001327	3.5373e-05	872.76	1.5026e-06	1.4884e-06	952.09	299.15	1.5414e-06	1.5422e-06	357.04	148.31	100.76	42.642	1.5459e-06	71.587	212.451	176.911	157.420	86.935	218.107	165.916	86.634	92.936	247.218	231.731	91.641	96.526	97.668	102.210	252.782	101.050	-8191	255	
7630.914	1	1	0	0	0.17822	0.028984	0.010523	0.2165	0.25892	0.049809	0.1248	0.21355	0.102	0.24213	0.063811	0.10831	0.21016	0.21276	0.12718	0.16815	-1.9875	-2.5229	-1.875	-2.4813	-2.3333	-2.1792	-2.4813	-2.1771	-2.5312	-2.4396	-1.9083	-2.6583	-2.2875	-2.325	-2.5667	-2.3417	204.962	131.628	146.870	379.526	88.962	115.615	280.442	343.889	364.657	413.366	303.892	110.413	239.047	376.326	106.402	250.899	0.00060255	0.00044683	0.00012006	962.08	1.0672e-06	2.3954e-06	1006.7	315.97	3.0242e-06	4.7463e-06	409.06	155.78	106.16	44.899	1.4847e-06	75.894	0.00017681	0.00015218	4.1062e-05	886.09	1.7728e-06	1.7295e-06	965.77	300.84	1.8697e-06	1.7663e-06	359.07	147.55	100.58	42.485	1.7243e-06	71.012	213.908	178.327	155.764	86.634	349.908	304.410	86.673	92.667	272.771	215.835	91.703	96.779	97.647	102.050	225.766	100.585	-8191	255	
7631.012	1	1	0	0	0.089662	0.3304	0.35184	0.214	0.10509	0.28899	0.21782	0.1065	0.12169	0.40113	0.075622	0.18621	0.1475	0.099264	0.19809	0.19381	-1.8625	-2.4813	-2.1771	-2.4583	-2.275	-2.1208	-2.8604	-2.1479	-2.4083	-2.5563	-2.15	-2.6667	-2.4813	-2.2875	-2.6312	-2.2938	193.559	368.413	161.056	353.642	195.988	271.723	340.603	396.250	137.575	363.323	357.281	380.935	329.231	284.967	183.308	402.160	0.00060688	0.0004353	3.8604e-05	966.13	3.4554e-06	3.7082e-06	1007.7	313.24	8.2242e-06	3.0769e-06	401.76	153.32	104.54	44.349	2.36e-06	74.951	0.00018796	0.0001617	4.3945e-05	895.07	1.8894e-06	1.7883e-06	965.59	299.72	2.0017e-06	1.8823e-06	358.01	145.93	99.641	42.075	1.8918e-06	70.224	213.073	203.765	263.440	87.028	198.850	280.470	86.487	92.238	283.083	245.408	91.630	96.443	97.815	102.250	224.731	100.902	-8191	255	
7631.131	1	1	0	0	0.10323	0.16521	0.29964	0.04826	0.21523	0.24302	0.12027	0.16019	0.042912	0.12499	0.11646	0.27565	0.2128	0.14768	0.034834	0.11327	-1.8479	-2.3688	-2.1667	-2.525	-2.4104	-2.2396	-2.5104	-2.3312	-2.0729	-2.5875	-2.2729	-2.5938	-2.5812	-2.0438	-2.45	-2.2917	97.529	397.092	358.485	310.788	361.350	285.274	277.644	194.993	171.980	415.195	201.207	79.400	295.583	293.217	122.750	396.549	0.00060141	0.00042869	0.00012264	959.72	5.5179e-06	1.7134e-06	1003.7	313.42	3.3989e-06	3.3772e-06	401.69	153.07	104.77	44.58	5.0938e-06	74.783	0.00020096	0.00017451	4.7323e-05	896.34	1.9476e-06	1.8777e-06	965.23	299.72	1.9083e-06	1.8234e-06	356.45	145.08	99.346	42.09	1.7284e-06	70.055	211.795	152.688	163.068	86.603	154.222	203.475	86.687	92.277	220.554	236.618	91.345	96.803	97.726	101.882	166.438	100.620	-8191	255	
7631.203	1	1	0	0	0.13432	0.2652	0.10056	0.097541	0.23481	0.22849	0.10996	0.20961	0.17451	0.2158	0.27093	0.10069	0.063571	0.16786	0.079194	0.14453	-1.75	-2.4792	-2.0208	-2.225	-2.3979	-2.1792	-2.7458	-2.2646	-2.0438	-2.6354	-2.2604	-2.6167	-2.4688	-2.0687	-2.5687	-2.4313	324.521	110.188	377.940	95.660	259.277	349.606	106.534	123.063	391.772	245.070	136.233	365.871	338.620	345.804	228.156	115.138	0.00060347	0.00043638	0.00024388	956.94	2.7952e-06	2.2144e-06	1000.1	312.42	6.6794e-06	3.1777e-06	401.26	152.81	104.76	44.584	6.4486e-06	75.494	0.00017389	0.00014814	4.1933e-05	886.41	1.617e-06	1.5697e-06	957.75	297.97	1.5794e-06	1.4646e-06	353.12	145	98.652	41.935	1.3961e-06	70.361	215.856	111.227	167.775	87.081	206.141	276.680	86.746	92.221	254.140	218.985	91.534	96.815	97.519	102.021	205.679	100.637	-8191	255	
7631.324	1	1	0	0	0.09059	0.071657	0.047658	0.19771	0.095436	0.20928	0.40942	0.082403	0.10903	0.10929	0.23123	0.094676	0.10801	0.19618	0.12057	0.063253	-1.8042	-2.4917	-2.0479	-2.2542	-2.4417	-2.1167	-2.5542	-2.4229	-2.15	-2.4125	-2.0292	-2.2313	-2.2917	-2.1312	-2.3979	-2.4604	383.725	283.956	421.104	405.700	406.599	296.430	384.018	342.727	393.333	330.734	293.804	368.911	384.164	113.627	417.626	427.194	0.00059453	0.00059439	0.00019011	952.29	2.3774e-06	2.6926e-06	989.27	314.34	4.8962e-06	3.7725e-06	401.05	153.7	104.72	44.428	3.1814e-06	75.905	0.00013556	0.00010917	3.2423e-05	870.27	1.1792e-06	1.1462e-06	945.08	296.8	1.2065e-06	1.1447e-06	350.64	145.01	98.298	41.709	1.1142e-06	70.277	213.901	216.178	147.866	86.513	163.720	166.042	86.482	92.600	212.878	261.051	91.667	96.805	97.853	101.860	244.574	100.735	-8191	255	
7631.420	1	1	0	0	0.16114	0.10835	0.17964	0.16067	0.16893	0.27622	0.21528	0.25561	0.13562	0.16938	0.084589	0.098675	0.11474	0.12424	0.057942	0.15498	-1.5521	-2.5792	-2.1208	-2.1646	-2.4979	-2.0687	-2.5375	-2.5917	-1.95	-2.4813	-2.3312	-2.3312	-2.6333	-2.1958	-2.4313	-2.6583	111.015	425.243	269.840	98.968	185.894	117.073	408.434	361.041	265.391	253.952	128.428	174.725	149.350	424.394	354.855	317.258	0.00058646	0.00050458	0.00011394	938.72	3.4902e-06	3.3366e-06	978.84	313.32	4.0962e-06	1.0265e-06	398.72	153.64	104.04	44.148	3.4393e-06	75.308	0.00011141	9.1609e-05	2.758e-05	857.97	9.6557e-07	9.743e-07	936.45	295.36	9.587e-07	9.3821e-07	346.94	144.38	97.858	41.444	9.6249e-07	69.668	212.751	179.264	148.445	87.128	194.445	224.086	86.773	92.501	215.098	329.390	91.513	96.719	97.456	102.154	190.430	100.481	-8191	255	
7631.516	1	1	0	0	0.037118	0.13745	0.30022	0.0825	0.23605	0.10526	0.21276	0.1471	0.11416	0.30086	0.1519	0.118	0.26317	0.14881	0.17262	0.048754	-1.6708	-2.4708	-2.2562	-2.3521	-2.5333	-2.1188	-2.4604	-2.5854	-1.9979	-2.3979	-2.4354	-2.0958	-2.4854	-2.3625	-2.1333	-2.6312	359.832	251.570	160.025	147.313	260.742	431.686	273.216	92.111	127.962	201.174	280.439	206.161	121.251	408.556	166.321	135.051	0.00058139	0.00032011	0.00014094	939.97	4.2093e-06	4.2533e-06	979.05	312.6	7.0137e-06	3.785e-06	400.82	153.71	105	44.266	4.2104e-06	75.003	9.7776e-05	8.2849e-05	2.3459e-05	852.21	8.6063e-07	9.2944e-07	931.18	294.74	9.198e-07	9.8903e-07	347.51	144.59	98.191	41.544	1.0941e-06	69.677	213.950	164.064	128.844	87.044	203.320	230.002	86.833	92.537	234.594	253.206	91.502	96.919	97.796	101.784	224.489	100.807	-8191	255	
7631.612	1	1	0	0	0.20617	0.080536	0.11761	0.13256	0.10851	0.20592	0.10528	0.40059	0.097312	0.16824	0.13353	0.12969	0.13214	0.14776	0.10297	0.073732	-1.6146	-2.5292	-2.3146	-2.0979	-2.5729	-2.1229	-2.2687	-2.6729	-2.0333	-2.275	-2.2771	-2.2583	-2.5	-2.3229	-2.0687	-2.6042	230.165	178.050	430.708	102.161	386.620	335.464	364.304	387.811	243.699	185.234	84.206	104.840	93.605	355.539	165.402	388.690	0.00059362	0.00027052	4.6003e-05	940.47	4.1557e-06	5.9797e-06	977.51	312.44	3.0608e-06	1.2487e-06	400.23	154.61	105.49	44.185	4.5491e-06	75.3	0.00011209	9.8992e-05	2.6932e-05	855.33	1.0045e-06	1.0981e-06	931.63	295.05	1.0829e-06	1.1502e-06	348.41	145.15	98.589	41.578	1.1036e-06	69.96	210.390	169.983	104.741	86.861	226.946	207.894	86.825	92.581	315.078	265.150	91.564	96.825	97.868	102.333	231.360	100.780	-8191	255	
7631.708	1	1	0	0	0.11846	0.1394	0.11114	0.21285	0.3084	0.13785	0.040983	0.02132	0.071815	0.22801	0.06971	0.17909	0.35553	0.17569	0.039215	0.26494	-1.5854	-2.4708	-2.4104	-2.1083	-2.6604	-2.2938	-2.3042	-2.6813	-2.2854	-2.2875	-2.475	-2.1021	-2.6292	-2.525	-2.2687	-2.6083	356.560	404.112	79.960	139.515	137.430	205.695	151.320	251.734	251.092	224.687	180.891	422.630	360.746	151.012	226.641	372.641	0.00062596	0.00042662	0.00018002	929.53	5.0152e-06	3.393e-06	966.38	313.52	7.281e-06	3.5585e-06	400.76	154.94	105.46	44.048	6.0588e-06	75.525	0.00011605	0.00010022	2.5774e-05	849.51	9.9205e-07	1.0385e-06	924.62	295.41	1.01e-06	1.0263e-06	348.04	145.87	98.743	41.486	1.1355e-06	70.113	212.219	161.899	161.162	87.237	234.668	175.388	86.722	92.597	241.704	180.771	91.803	96.662	97.897	102.113	184.432	100.620	-8191	255	
7631.804	1	1	0	0	0.050207	0.27468	0.131	0.21271	0.10763	0.10211	0.13625	0.17465	0.18841	0.17412	0.12247	0.33024	0.224	0.24014	0.062118	0.2572	-1.9229	-2.225	-2.3312	-1.9875	-2.3833	-2.2021	-2.2396	-2.4083	-2.2979	-2.2958	-2.5021	-2.2687	-2.5354	-2.4146	-2.1833	-2.5833	338.740	156.553	149.512	343.237	359.718	299.096	152.539	355.329	165.011	199.038	265.554	360.595	379.958	86.358	341.284	373.463	0.00060343	0.00044892	7.897e-05	931.41	7.0214e-07	5.0305e-06	971.28	311.47	4.8886e-06	1.0353e-06	400.48	154.53	105.05	43.816	4.4298e-06	75.15	0.0001321	0.00011507	3.0072e-05	851.28	1.2951e-06	1.2923e-06	927.35	294.94	1.3398e-06	1.3185e-06	348.87	145.73	98.708	41.42	1.3124e-06	69.897	210.529	169.555	139.654	86.798	130.991	239.792	86.706	92.540	226.004	325.975	91.519	96.873	97.721	101.725	235.616	100.595	-8191	255	
7631.899	1	1	0	0	0.12514	0.070985	0.08339	0.27285	0.1008	0.18015	0.056827	0.40007	0.12401	0.15316	0.056973	0.26578	0.16048	0.039013	0.015597	0.10046	-1.5833	-2.0271	-2.4458	-2.0083	-2.3042	-2.325	-2.225	-2.4917	-2.2229	-2.1667	-2.3187	-2.2833	-2.3458	-2.3375	-1.9083	-2.5771	410.982	192.539	218.677	177.825	389.820	109.982	167.385	411.939	342.072	183.634	351.393	122.144	312.071	217.442	420.477	135.350	0.00063037	0.00035044	4.5643e-05	937.15	3.0787e-06	2.2674e-06	977.7	310.54	3.2924e-06	4.6289e-06	399.02	153.87	104.63	44.299	6.1589e-06	75.741	0.00015267	0.0001312	3.5565e-05	863.34	1.6207e-06	1.5819e-06	935.5	295.26	1.7222e-06	1.6502e-06	351.49	145.44	99.157	41.937	1.6193e-06	70.442	217.581	132.126	222.516	86.881	201.121	235.473	86.928	92.069	231.210	271.059	91.637	96.667	97.934	101.844	205.107	100.881	-8191	255	
7631.995	1	1	0	0	0.24277	0.36843	0.08136	0.074825	0.1504	0.29555	0.12795	0.15504	0.11507	0.22292	0.21992	0.25179	0.12689	0.22562	0.11588	0.24035	-1.7812	-2.0708	-2.4271	-2.2354	-2.0167	-2.4854	-2.1854	-2.4188	-2.3063	-2.1542	-2.4771	-2.3583	-2.3083	-2.5	-2.1021	-2.4833	148.188	259.645	342.000	234.879	241.121	396.287	359.742	335.399	309.971	383.870	244.434	378.099	426.638	87.481	393.683	344.145	0.00063124	0.00041356	9.6385e-05	943.93	4.0236e-06	4.7263e-06	981.93	312.47	2.6838e-06	3.3884e-06	399.8	155.53	105.7	44.98	3.997e-06	76.387	0.00017395	0.00014527	3.8007e-05	871.6	1.654e-06	1.544e-06	942.3	296.77	1.6649e-06	1.5777e-06	352.3	146.77	100.06	42.546	1.5905e-06	71.444	213.679	100.490	154.757	87.046	140.750	218.947	86.878	92.033	273.349	151.931	91.569	96.743	97.739	101.912	225.922	100.665	-8191	255	
7632.093	1	1	0	0	0.096293	0.10202	0.11286	0.058118	0.12096	0.096276	0.26236	0.28799	0.087782	0.12564	0.18365	0.17743	0.24994	0.12408	0.17461	0.30101	-1.9708	-2.0125	-2.5062	-2.3833	-1.9896	-2.7375	-2.1896	-2.25	-2.3354	-2.0271	-2.3896	-2.425	-2.1708	-2.4667	-2.0125	-2.4083	213.916	164.646	85.832	432.650	358.022	219.291	402.542	402.722	266.518	274.722	430.755	323.340	395.834	331.512	275.757	351.746	0.00057298	0.0004133	0.00015628	948.28	2.0831e-06	3.1099e-06	993.79	312.41	4.865e-06	3.1502e-06	397.74	155.76	105.32	45.255	3.8634e-06	76.743	0.00017466	0.00015126	4.1014e-05	879.09	1.7063e-06	1.6356e-06	952.22	297.61	1.7941e-06	1.7663e-06	355.58	147.62	100.24	42.941	2.0159e-06	72.158	212.517	147.781	148.113	86.911	217.494	188.784	86.525	92.520	239.312	170.147	91.851	97.010	97.853	102.192	287.263	100.751	-8191	255	
7632.212	1	1	0	0	0.16889	0.14121	0.27991	0.1806	0.099253	0.13968	0.1397	0.10635	0.073261	0.24074	0.098033	0.23829	0.24589	0.35414	0.039031	0.1905	-1.8917	-1.8917	-2.6104	-2.3104	-2.2417	-2.3563	-2.4917	-2.4062	-2.2583	-2.0833	-2.4708	-2.3708	-2.2458	-2.6146	-2.2313	-2.4188	312.229	149.056	234.662	426.099	421.472	295.172	362.231	324.127	308.868	365.283	315.650	424.619	429.955	76.843	306.045	371.391	0.00061972	0.00049369	0.00015334	949.79	5.8979e-06	1.4934e-06	1000.1	311.74	1.9374e-06	3.1118e-06	399.62	154.37	105.69	45.259	6.22e-06	76.351	0.00020306	0.00018108	5.2506e-05	889.48	2.1086e-06	2.0357e-06	962.33	299.74	2.253e-06	2.1836e-06	362.16	147.61	100.87	43.176	2.5106e-06	72.055	216.075	194.772	138.358	86.995	138.721	272.199	86.673	92.529	233.869	240.083	91.651	96.980	97.691	102.004	230.357	100.585	-8191	255	
7632.308	1	1	0	0	0.13695	0.19396	0.14128	0.19141	0.25238	0.34547	0.12883	0.064061	0.090713	0.13313	0.18218	0.089105	0.1179	0.16848	0.17764	0.19819	-1.9125	-1.7375	-2.4667	-2.3083	-2.1188	-2.4604	-2.2042	-2.2542	-2.4292	-1.8542	-2.3563	-2.4604	-2.1625	-2.5708	-2.3104	-2.3917	96.472	246.920	130.330	221.971	268.477	183.365	386.791	363.488	215.388	181.116	178.700	292.083	358.368	389.694	408.158	290.484	0.00064072	0.00029887	0.00013505	948.66	3.5864e-06	4.6378e-06	1002	309.89	3.129e-06	3.0996e-06	396.68	153.2	105.11	45.254	5.9402e-06	75.784	0.00024116	0.00022029	6.5752e-05	902.47	2.5538e-06	2.5147e-06	969.16	299.94	2.6452e-06	2.6345e-06	363.98	146.29	100.38	43.125	2.7346e-06	71.325	212.043	375.737	130.135	86.981	126.079	279.247	86.633	92.266	264.310	201.977	91.702	96.714	97.817	101.935	189.153	100.558	-8191	255	
7632.404	1	1	0	0	0.074928	0.094182	0.032977	0.081159	0.31903	0.27134	0.3734	0.10822	0.061331	0.15256	0.23524	0.18893	0.31194	0.26691	0.12734	0.15054	-2.0312	-2.0458	-2.3	-2.3812	-1.9896	-2.6667	-2.4688	-2.0917	-2.5458	-2.1104	-2.4729	-2.45	-2.1104	-2.5771	-2.2229	-2.1188	251.466	83.620	418.250	402.447	319.432	363.670	309.333	339.597	307.663	385.975	77.006	90.122	96.660	75.263	419.816	344.203	0.00062621	0.00059846	0.00019628	959.48	2.1808e-06	4.3964e-06	1001.6	312.01	9.7517e-07	2.9204e-06	399.34	152.04	104.98	45.394	4.786e-06	76.618	0.00024223	0.00022992	6.8383e-05	903.55	2.5307e-06	2.5548e-06	972.19	300.45	2.5972e-06	2.6876e-06	365.7	145.9	100.83	43.574	2.9878e-06	72.332	211.777	137.948	144.997	86.480	114.709	171.513	86.782	92.365	303.544	216.233	91.406	96.908	97.692	101.849	223.993	100.832	-8191	255	
7632.500	1	1	0	0	0.059316	0.27762	0.14604	0.080348	0.0079984	0.077228	0.063323	0.17745	0.096836	0.33389	0.40377	0.11057	0.1981	0.088473	0.15426	0.32642	-2.0062	-2.1729	-2.2979	-2.4896	-2.0812	-2.4979	-2.4354	-2.3042	-2.5958	-2.0417	-2.3729	-2.4146	-2.1188	-2.4833	-2.4729	-2.3	382.924	289.509	129.676	393.238	389.234	140.937	303.007	319.131	291.159	429.988	384.824	372.788	217.450	405.135	400.192	426.405	0.00065932	0.00089507	0.00018433	954.61	1.3501e-06	3.3237e-06	1005.3	310.76	5.0107e-06	4.1735e-06	399.46	154.29	105.7	46.174	3.4687e-06	77.806	0.00025421	0.00025139	7.1728e-05	903.71	2.5086e-06	2.6094e-06	974.14	298.7	2.4199e-06	2.5367e-06	362.78	146.77	101.03	44.152	2.4946e-06	72.874	210.390	145.917	177.716	87.219	308.080	195.352	86.428	92.445	227.583	203.958	91.093	96.513	97.728	101.994	221.722	100.631	-8191	255	
#DATA ENDS
