BOXY.EXE: ISS Imagent and Oximeter Data Acquisition Program Version 0.80
Ascii Record File

#ACQ INFORMATION
2  Detector Channels 
16  External MUX Channels 
1  Auxiliary Channels 
5000  Waveform (CCF) Frequency (Hz)
1  Waveforms Skipped 
30  Waveforms Averaged 
1  Cycles Averaged 
16  Acquisitions per Waveform 
10.0806  Updata Rate (Hz) 

#FILE INFORMATION
TRUE -- External MUX Channel results are PARSED.
FALSE -- AC DC and Phase are NOT grouped.
TRUE -- Companion Program Settings File CREATED.
FALSE -- AC data not excluded
FALSE -- DC data not excluded
FALSE -- Phase data not excluded
FALSE -- Auxillary Chn. data not excluded
Tab delimiters

#CALIBRATION STATE
TRUE -- Waveform Calibration Values APPLIED.


#AUX CALIBRATION VALUES
Val Type	aux-1	

Term	1.0000e+00	
Factor	0.0000e+00	


#WF CALIBRATION VALUES
A = Detector Channel
Val Type	A-AC1	A-AC2	A-AC3	A-AC4	A-AC5	A-AC6	A-AC7	A-AC8	A-AC9	A-AC10	A-AC11	A-AC12	A-AC13	A-AC14	A-AC15	A-AC16	A-DC1	A-DC2	A-DC3	A-DC4	A-DC5	A-DC6	A-DC7	A-DC8	A-DC9	A-DC10	A-DC11	A-DC12	A-DC13	A-DC14	A-DC15	A-DC16	A-Ph1	A-Ph2	A-Ph3	A-Ph4	A-Ph5	A-Ph6	A-Ph7	A-Ph8	A-Ph9	A-Ph10	A-Ph11	A-Ph12	A-Ph13	A-Ph14	A-Ph15	A-Ph16	

Term	0.00000e+00	0.00000e+00	0.00000e+00	0.00000e+00	0.00000e+00	0.00000e+00	0.00000e+00	0.00000e+00	0.00000e+00	0.00000e+00	0.00000e+00	0.00000e+00	0.00000e+00	0.00000e+00	0.00000e+00	0.00000e+00	0.00000e+00	0.00000e+00	0.00000e+00	0.00000e+00	0.00000e+00	0.00000e+00	0.00000e+00	0.00000e+00	0.00000e+00	0.00000e+00	0.00000e+00	0.00000e+00	0.00000e+00	0.00000e+00	0.00000e+00	0.00000e+00	0.00000e+00	0.00000e+00	0.00000e+00	0.00000e+00	0.00000e+00	0.00000e+00	0.00000e+00	0.00000e+00	0.00000e+00	0.00000e+00	0.00000e+00	0.00000e+00	0.00000e+00	0.00000e+00	0.00000e+00	0.00000e+00	
Factor	1.00000e+00	1.00000e+00	1.00000e+00	1.00000e+00	1.00000e+00	1.00000e+00	1.00000e+00	1.00000e+00	1.00000e+00	1.00000e+00	1.00000e+00	1.00000e+00	1.00000e+00	1.00000e+00	1.00000e+00	1.00000e+00	1.00000e+00	1.00000e+00	1.00000e+00	1.00000e+00	1.00000e+00	1.00000e+00	1.00000e+00	1.00000e+00	1.00000e+00	1.00000e+00	1.00000e+00	1.00000e+00	1.00000e+00	1.00000e+00	1.00000e+00	1.00000e+00	X	X	X	X	X	X	X	X	X	X	X	X	X	X	X	X	

B = Detector Channel
Val Type	B-AC1	B-AC2	B-AC3	B-AC4	B-AC5	B-AC6	B-AC7	B-AC8	B-AC9	B-AC10	B-AC11	B-AC12	B-AC13	B-AC14	B-AC15	B-AC16	B-DC1	B-DC2	B-DC3	B-DC4	B-DC5	B-DC6	B-DC7	B-DC8	B-DC9	B-DC10	B-DC11	B-DC12	B-DC13	B-DC14	B-DC15	B-DC16	B-Ph1	B-Ph2	B-Ph3	B-Ph4	B-Ph5	B-Ph6	B-Ph7	B-Ph8	B-Ph9	B-Ph10	B-Ph11	B-Ph12	B-Ph13	B-Ph14	B-Ph15	B-Ph16	

Term	0.00000e+00	0.00000e+00	0.00000e+00	0.00000e+00	0.00000e+00	0.00000e+00	0.00000e+00	0.00000e+00	0.00000e+00	0.00000e+00	0.00000e+00	0.00000e+00	0.00000e+00	0.00000e+00	0.00000e+00	0.00000e+00	0.00000e+00	0.00000e+00	0.00000e+00	0.00000e+00	0.00000e+00	0.00000e+00	0.00000e+00	0.00000e+00	0.00000e+00	0.00000e+00	0.00000e+00	0.00000e+00	0.00000e+00	0.00000e+00	0.00000e+00	0.00000e+00	-8.19123e+01	-1.33616e+02	-1.36549e+02	-1.83428e+02	-9.10000e+01	-7.57922e+01	-1.57226e+02	-1.62015e+02	-5.82697e+01	-7.60492e+01	-1.75294e+02	-1.70420e+02	-1.80380e+02	-1.77569e+02	-8.04880e+01	-1.50081e+02	
Factor	1.80643e-05	1.32624e-04	3.68427e-05	4.65462e-01	1.21769e-06	1.16138e-06	1.75063e-01	6.96060e-02	1.13472e-06	1.15148e-06	2.37927e-01	3.21221e-02	2.91780e-02	1.00874e-02	1.28267e-06	1.47616e-02	8.56558e-07	8.80187e-07	2.44700e-07	2.10758e-01	9.63326e-09	9.62573e-09	7.96986e-02	3.32249e-02	9.63474e-09	9.63278e-09	9.89294e-02	1.48230e-02	1.38756e-02	4.77895e-03	9.61505e-09	6.71329e-03	X	X	X	X	X	X	X	X	X	X	X	X	X	X	X	X	



#DISTANCE SETTINGS
A = Detector Channel
A-1	A-2	A-3	A-4	A-5	A-6	A-7	A-8	A-9	A-10	A-11	A-12	A-13	A-14	A-15	A-16	

2.5000e+00	3.0000e+00	2.5000e+00	3.0000e+00	2.0000e+00	3.0000e+00	1.5000e+00	3.0000e+00	3.0000e+00	3.0000e+00	3.0000e+00	3.0000e+00	3.0000e+00	3.0000e+00	1.5000e+00	3.0000e+00	

B = Detector Channel
B-1	B-2	B-3	B-4	B-5	B-6	B-7	B-8	B-9	B-10	B-11	B-12	B-13	B-14	B-15	B-16	

1.0000e+01	1.0000e+01	1.0000e+01	1.4400e+00	1.0000e+01	1.0000e+01	1.5100e+00	1.9400e+00	1.0000e+01	1.0000e+01	1.9900e+00	2.4900e+00	2.4100e+00	2.9000e+00	1.0000e+01	2.9800e+00	




#DATA BEGINS
time	group	step	mark	flag	A-AC1	A-AC2	A-AC3	A-AC4	A-AC5	A-AC6	A-AC7	A-AC8	A-AC9	A-AC10	A-AC11	A-AC12	A-AC13	A-AC14	A-AC15	A-AC16	A-DC1	A-DC2	A-DC3	A-DC4	A-DC5	A-DC6	A-DC7	A-DC8	A-DC9	A-DC10	A-DC11	A-DC12	A-DC13	A-DC14	A-DC15	A-DC16	A-Ph1	A-Ph2	A-Ph3	A-Ph4	A-Ph5	A-Ph6	A-Ph7	A-Ph8	A-Ph9	A-Ph10	A-Ph11	A-Ph12	A-Ph13	A-Ph14	A-Ph15	A-Ph16	B-AC1	B-AC2	B-AC3	B-AC4	B-AC5	B-AC6	B-AC7	B-AC8	B-AC9	B-AC10	B-AC11	B-AC12	B-AC13	B-AC14	B-AC15	B-AC16	B-DC1	B-DC2	B-DC3	B-DC4	B-DC5	B-DC6	B-DC7	B-DC8	B-DC9	B-DC10	B-DC11	B-DC12	B-DC13	B-DC14	B-DC15	B-DC16	B-Ph1	B-Ph2	B-Ph3	B-Ph4	B-Ph5	B-Ph6	B-Ph7	B-Ph8	B-Ph9	B-Ph10	B-Ph11	B-Ph12	B-Ph13	B-Ph14	B-Ph15	B-Ph16	aux-1	digaux	

7674.755	1	1	0	256	0.10156	0.17776	0.35632	0.13353	0.20848	0.37769	0.2512	0.19315	0.11542	0.14513	0.11694	0.28395	0.18423	0.095682	0.15371	0.11472	-2.0833	-2.1458	-2.5708	-2.3333	-2.3417	-2.6042	-2.2687	-2.4208	-2.4062	-2.1125	-2.2875	-2.2979	-2.2458	-2.3563	-2.15	-2.5417	140.195	224.409	103.730	365.124	193.511	400.282	348.990	415.755	366.085	190.508	240.869	130.057	107.292	394.631	188.698	79.904	0.00032783	0.00039661	5.4447e-05	759.99	4.755e-06	2.1456e-06	806.36	244.08	4.9003e-06	3.9207e-06	306.81	108.12	77.674	27.924	3.8948e-06	45.975	0.00022553	0.00020045	5.423e-05	725.58	2.2508e-06	2.0672e-06	779.04	235.62	2.139e-06	1.9677e-06	279.36	104.22	74.403	26.82	1.8882e-06	43.464	212.538	114.097	154.896	80.673	212.150	186.865	80.251	85.915	249.893	209.394	84.795	90.670	91.741	96.277	206.117	95.290	-8191	255	
7674.876	1	1	0	0	0.18207	0.17946	0.066968	0.038954	0.13882	0.090661	0.24392	0.15202	0.19989	0.1077	0.27376	0.15365	0.10335	0.22712	0.25083	0.10822	-2.125	-1.9979	-2.4979	-2.2021	-2.0812	-2.6646	-2.1104	-2.2479	-2.4146	-2.1021	-2.4875	-2.4188	-1.9813	-2.4813	-2.225	-2.4417	287.113	70.109	108.076	73.882	356.320	272.292	290.607	356.678	352.379	399.381	375.430	378.416	195.431	79.982	302.773	137.994	0.00035583	7.6225e-05	0.00014967	752.32	4.8922e-07	8.6845e-07	798.93	243.99	2.2234e-06	1.0788e-06	305.12	109.46	77.554	28.306	7.0853e-06	46.261	0.00017394	0.00015434	4.4891e-05	710.6	1.7174e-06	1.5646e-06	768.95	233.21	1.633e-06	1.5317e-06	275.44	104.25	73.787	26.801	1.7132e-06	43.67	208.894	133.132	95.105	80.834	334.594	422.433	80.394	86.220	153.300	163.925	85.810	90.712	91.575	96.447	182.854	95.624	-8191	255	
7674.970	1	1	0	0	0.18801	0.22819	0.11519	0.058394	0.10351	0.10687	0.25158	0.14755	0.11584	0.21482	0.16254	0.026879	0.33584	0.14002	0.15684	0.13825	-1.9937	-2.1125	-2.4854	-2.6333	-2.1063	-2.7562	-2.5208	-2.3167	-2.5125	-1.8875	-2.3729	-2.4417	-2.2271	-2.6667	-2.2479	-2.2167	122.675	354.992	266.214	291.401	205.007	231.848	409.729	106.428	210.742	269.040	180.325	326.704	400.866	153.887	110.884	376.448	0.0004092	0.0003419	4.8648e-05	752.75	4.741e-06	4.3785e-06	800.78	244.23	1.2092e-06	4.7898e-06	310.97	109.83	78.363	28.452	2.0842e-06	47.083	0.00015751	0.00014369	4.514e-05	707.84	1.67e-06	1.6201e-06	772.36	234.27	1.6871e-06	1.7042e-06	280.08	105.25	74.861	27.246	1.9685e-06	44.416	206.329	211.463	196.594	80.641	253.177	180.151	80.563	86.072	232.891	229.486	85.335	91.082	91.714	96.634	168.758	95.575	-8191	255	
7675.068	1	1	0	0	0.11213	0.33369	0.20649	0.14827	0.15881	0.062241	0.06361	0.13672	0.1231	0.098021	0.070273	0.09091	0.15155	0.29451	0.22721	0.1119	-2.0458	-2.1625	-2.3083	-2.3354	-2.0292	-2.6708	-2.3458	-2.1729	-2.6729	-2.1562	-2.3187	-2.55	-2.25	-2.5563	-2.3292	-2.3438	108.963	267.111	104.322	287.603	392.180	76.995	131.515	386.254	313.323	290.073	92.768	407.672	129.475	388.911	342.138	298.454	0.00038186	0.00027738	5.191e-05	756.92	4.459e-06	4.0768e-06	806.62	246.46	2.4354e-06	5.947e-06	314.04	112.72	79.872	29.219	3.4113e-06	48.268	0.00016499	0.00016344	4.9697e-05	710.9	1.7293e-06	1.7877e-06	777.3	236.55	1.7728e-06	1.8947e-06	286.33	107.72	76.299	28.027	2.1437e-06	45.689	206.481	160.095	268.537	80.389	189.410	175.261	80.597	86.300	208.593	201.496	85.495	91.156	91.746	96.472	216.675	95.382	-8191	255	
7675.187	1	1	0	0	0.090981	0.21317	0.07089	0.18034	0.12023	0.15678	0.15034	0.48261	0.24757	0.15068	0.098838	0.23752	0.21199	0.21599	0.14817	0.14194	-2.1896	-2.2	-2.3396	-2.4521	-2.1042	-2.4396	-2.3521	-2.1229	-2.6542	-2.3521	-2.2646	-2.675	-2.1021	-2.5708	-2.3208	-2.075	90.273	317.756	224.863	324.888	401.405	158.237	183.858	302.820	232.586	416.151	370.205	218.791	72.277	315.973	414.160	127.437	0.00032224	0.00059202	7.77e-05	758.39	3.0219e-06	1.7849e-06	806.58	247.58	2.9581e-06	3.5108e-06	314.54	113.64	80.692	29.206	3.1328e-06	47.971	0.00018203	0.00019201	5.6501e-05	718.94	1.9692e-06	2.1481e-06	781.24	238.87	2.0022e-06	2.3744e-06	289.28	108.56	77.581	28.427	2.6177e-06	45.824	219.574	114.192	145.476	80.305	163.572	94.303	80.767	86.426	249.848	272.441	85.440	90.686	91.403	96.591	184.819	95.480	-8191	255	
7675.283	1	1	0	0	0.14587	0.14438	0.16126	0.40986	0.22846	0.14089	0.21251	0.094938	0.092974	0.18422	0.13163	0.076819	0.21593	0.16342	0.056753	0.18105	-2.0875	-2.1875	-2.5312	-2.5542	-2.1667	-2.4208	-2.6042	-2.1167	-2.5229	-2.3229	-2.2146	-2.6021	-2.2354	-2.6354	-2.4583	-2.1354	423.335	79.111	339.521	356.200	83.943	306.231	347.178	353.329	286.966	339.692	68.646	77.947	359.128	90.752	413.646	171.393	0.00045998	0.00019953	0.00013501	758.66	3.2759e-06	4.3895e-06	807.96	247.86	7.9512e-06	3.9499e-06	313.19	113.32	81.108	29.602	7.6089e-07	48.616	0.00023603	0.00026262	6.9546e-05	729.16	2.5344e-06	2.8511e-06	784.79	240.49	2.5937e-06	2.9251e-06	292.07	109.51	78.809	28.885	2.829e-06	46.526	215.408	192.536	178.725	80.354	189.578	197.308	80.319	86.132	221.190	244.770	85.632	90.802	91.851	96.315	209.376	95.586	-8191	255	
7675.355	1	1	0	0	0.16198	0.22143	0.20456	0.0378	0.17098	0.072413	0.09864	0.18076	0.11515	0.20009	0.17566	0.26321	0.17804	0.02505	0.11206	0.21265	-2.1083	-2.4062	-2.1333	-2.8521	-2.3021	-2.3917	-2.6625	-2.1271	-2.4896	-2.4917	-2.1604	-2.4854	-2.0187	-2.2687	-2.5396	-2.1708	146.743	394.074	408.937	181.030	126.650	264.706	278.893	280.492	201.729	151.257	354.587	412.253	236.087	316.078	144.956	162.507	0.0004236	0.00010568	3.3627e-05	759.32	4.1937e-06	6.2835e-06	806.32	250.27	3.3941e-06	2.0096e-06	314.31	114.71	81.968	29.862	2.0251e-06	48.879	0.00027552	0.00029453	7.5803e-05	736.04	3.1134e-06	3.2806e-06	790.35	243.64	3.218e-06	3.2207e-06	296.91	110.8	79.924	29.264	2.9812e-06	46.911	204.726	177.229	150.140	80.556	191.913	239.989	80.682	86.384	239.334	147.632	85.360	91.014	91.373	96.536	219.271	95.513	-8191	255	
7675.476	1	1	0	0	0.11297	0.13866	0.13639	0.17565	0.10054	0.16865	0.19441	0.12136	0.28879	0.21164	0.36326	0.1326	0.10205	0.22851	0.11163	0.085792	-1.8417	-2.4917	-2.125	-2.5125	-2.0229	-2.1937	-2.5583	-2.1188	-2.4458	-2.5479	-2.2	-2.7188	-2.225	-2.2167	-2.5125	-2.1125	335.501	400.178	201.827	107.562	255.320	271.397	397.334	418.213	184.198	327.928	98.856	82.857	74.333	352.713	232.619	381.674	0.00029618	0.000358	2.0355e-05	768.79	3.5193e-06	1.4624e-06	813.17	249.28	6.9321e-06	4.2455e-06	317.92	114.35	81.795	29.833	2.4882e-06	49.297	0.00030742	0.0003012	7.8453e-05	743.73	3.4739e-06	3.3598e-06	791.96	244.02	3.4316e-06	3.2338e-06	297.8	111.21	80.305	29.26	3.0013e-06	47.278	223.303	147.895	315.925	80.554	217.124	206.507	80.375	86.395	187.101	234.832	85.732	90.998	91.498	96.457	361.223	95.321	-8191	255	
7675.572	1	1	0	0	0.17714	0.068214	0.089246	0.30185	0.12293	0.22262	0.10762	0.27226	0.21304	0.13518	0.25379	0.20434	0.20409	0.15252	0.095459	0.13709	-2.0021	-2.5458	-2.0354	-2.6292	-2.3208	-2.1917	-2.8354	-2.3271	-2.225	-2.5083	-2.2042	-2.75	-2.2667	-2.0583	-2.5021	-2.3	171.553	256.119	417.545	359.554	223.918	396.673	97.415	81.793	312.393	283.185	117.029	367.287	83.966	406.459	143.543	165.385	0.0003918	0.00062669	0.00011293	765.29	3.0055e-06	2.0025e-06	814.8	252.26	5.7256e-06	2.4358e-06	318	114.5	81.606	29.573	4.7215e-06	48.881	0.00032182	0.00028661	7.5434e-05	745.94	3.3496e-06	3.0469e-06	791.95	245.24	3.2674e-06	2.9592e-06	295.38	111.01	79.827	28.894	2.7582e-06	46.986	212.138	130.674	336.274	80.422	85.673	108.201	80.539	86.171	238.159	193.889	85.786	91.132	91.422	96.417	187.709	95.278	-8191	255	
7675.668	1	1	0	0	0.0065873	0.14871	0.10971	0.13667	0.18427	0.070292	0.12135	0.16952	0.065675	0.1016	0.087948	0.3872	0.18401	0.068925	0.19617	0.082273	-1.8521	-2.6375	-1.9979	-2.4333	-2.4042	-2.1458	-2.7375	-2.3271	-2.3083	-2.3708	-2.1958	-2.6896	-2.3333	-2.2333	-2.5187	-2.1396	187.505	176.924	284.061	244.287	382.888	317.267	283.346	388.437	300.846	361.362	369.140	347.507	426.347	367.701	198.153	131.591	0.00040334	0.00030041	0.00010503	767.74	4.1558e-06	4.0059e-06	812.19	251.2	3.5659e-06	5.8062e-07	313.48	114.28	82.08	29.925	6.5455e-06	49.377	0.00030426	0.00027528	7.6067e-05	753.03	3.4211e-06	3.1882e-06	791.61	246.73	3.6308e-06	3.3688e-06	300.66	112.56	81.192	29.538	3.4713e-06	47.931	213.178	140.254	166.164	80.907	144.064	218.577	80.435	86.226	130.836	180.212	85.434	90.932	91.750	96.611	208.532	95.523	-8191	255	
7675.764	1	1	0	0	0.17832	0.29605	0.13408	0.13248	0.1361	0.15857	0.31976	0.2967	0.17454	0.20705	0.27216	0.27057	0.2673	0.34319	0.07433	0.1562	-1.8333	-2.5563	-2.2208	-2.4437	-2.5021	-1.9771	-2.4333	-2.4104	-2.1813	-2.5542	-2.2896	-2.625	-2.5271	-2.1042	-2.5979	-2.475	335.164	176.623	250.050	88.069	152.079	335.118	398.124	423.553	300.824	155.452	163.824	358.216	329.879	416.142	152.751	69.626	0.00036842	0.00070757	0.00015516	764.78	1.8213e-06	3.7681e-06	811.39	251.32	2.127e-06	3.793e-06	316.89	115.92	82.373	30.257	6.1648e-06	49.718	0.00034268	0.00031438	8.8737e-05	763.79	3.6284e-06	3.3775e-06	794.04	248.72	3.5025e-06	3.2471e-06	302.7	113.19	80.833	29.603	3.2826e-06	48.111	214.173	89.605	126.221	80.643	332.062	76.458	80.728	86.335	320.074	169.985	85.481	91.104	91.673	96.602	174.077	95.089	-8191	255	
7675.883	1	1	0	0	0.17052	0.1202	0.21551	0.12029	0.064479	0.25565	0.20704	0.10605	0.13184	0.10447	0.15117	0.20814	0.17146	0.23797	0.15475	0.11238	-1.7208	-2.7083	-2.0354	-2.3604	-2.5833	-2.1417	-2.7562	-2.2896	-2.2458	-2.8333	-2.3563	-2.3917	-2.5687	-2.1354	-2.4771	-2.4	336.146	184.616	205.038	368.332	192.425	408.259	321.969	231.293	198.262	344.988	84.573	88.109	374.321	128.315	166.905	98.316	0.00034956	8.4438e-05	0.00011178	766.74	4.1302e-06	3.3863e-06	814.93	253.17	2.3103e-06	2.8691e-06	322.01	116.54	82.602	30.309	6.9976e-06	50.065	0.00029349	0.00026501	7.9369e-05	748.55	2.9068e-06	2.7561e-06	791.62	246.22	2.7923e-06	2.5918e-06	298.78	112.65	80.126	29.347	2.7726e-06	47.857	208.917	132.119	168.293	80.540	142.685	129.456	80.429	86.565	258.470	281.955	85.755	90.980	91.691	96.342	220.678	95.409	-8191	255	
7675.956	1	1	0	0	0.19704	0.3437	0.14073	0.3209	0.079653	0.16581	0.071354	0.31497	0.22164	0.14791	0.086692	0.27647	0.099171	0.13359	0.14878	0.13775	-1.8396	-2.4542	-2.3063	-2.2771	-2.4979	-2.1813	-2.6292	-2.4917	-2.1833	-2.6125	-2.4146	-2.1792	-2.5792	-2.3792	-2.575	-2.6375	147.056	376.118	177.906	357.796	427.636	253.426	243.002	380.320	425.216	143.722	96.322	382.353	339.746	404.402	238.024	225.383	0.00040046	0.00036907	0.00021373	764.23	1.7574e-06	6.7507e-06	815.23	249.95	3.1098e-06	6.0447e-06	322.79	116.49	82.506	30.181	3.1821e-06	49.876	0.0002312	0.00021309	6.5944e-05	730.33	2.212e-06	2.1911e-06	787.77	242.56	2.0947e-06	2.0722e-06	293.56	111.52	78.877	28.987	2.2698e-06	47.191	206.547	87.679	185.159	80.468	235.569	211.471	80.539	86.395	338.600	174.768	85.359	90.825	91.657	96.472	191.693	95.159	-8191	255	
7676.053	1	1	0	0	0.16168	0.051177	0.33462	0.17666	0.21588	0.29426	0.13947	0.29766	0.071332	0.05535	0.1926	0.067141	0.27842	0.070098	0.12191	0.044994	-1.8271	-2.4437	-2.2958	-2.0583	-2.6813	-2.1854	-2.35	-2.5187	-2.0708	-2.5708	-2.3229	-2.1271	-2.5146	-2.0917	-2.3667	-2.5938	290.159	346.542	377.243	410.726	153.624	143.810	79.821	388.390	311.548	352.081	418.946	302.366	118.311	235.341	314.717	79.635	0.00036721	0.0007624	4.3975e-05	763.84	3.4685e-06	7.0439e-06	807.23	250.89	4.2533e-06	2.6489e-06	318.04	115.6	82.08	29.781	4.2877e-06	49.042	0.00018741	0.00018243	5.5848e-05	721.29	1.8549e-06	2.0383e-06	781.58	240.71	1.9032e-06	2.076e-06	289.91	110.36	78.459	28.722	2.3023e-06	46.495	209.515	147.474	330.643	80.540	201.505	163.651	80.464	86.230	251.333	224.380	85.436	91.028	91.923	96.390	119.566	95.331	-8191	255	
7676.149	1	1	0	0	0.17899	0.18083	0.059804	0.0931	0.4084	0.21134	0.077131	0.28818	0.16753	0.28862	0.13895	0.26259	0.30255	0.10415	0.27437	0.19282	-1.6063	-2.3667	-2.3812	-1.9042	-2.5146	-2.2521	-2.2604	-2.5875	-2.1875	-2.3479	-2.5312	-2.0771	-2.6688	-2.4562	-2.3417	-2.6521	252.994	257.525	293.472	331.220	319.771	219.473	360.688	355.234	331.997	169.899	383.743	92.717	110.297	350.527	277.941	82.993	0.00040419	0.00047184	5.089e-05	762.99	4.717e-06	4.2337e-06	807.49	252.68	2.1697e-06	2.686e-06	319.71	115.57	82.566	30.018	3.1962e-06	49.359	0.00020255	0.00021809	6.2543e-05	728.68	2.2867e-06	2.63e-06	787.25	243.57	2.5212e-06	2.8826e-06	296.87	111.27	80.007	29.415	2.9755e-06	47.273	215.158	115.309	329.050	80.457	220.638	231.531	80.469	86.242	269.586	173.230	85.227	91.028	91.672	96.406	270.433	95.587	-8191	255	
7676.268	1	1	0	0	0.20813	0.11637	0.20532	0.14192	0.081443	0.084081	0.1138	0.10388	0.11097	0.21848	0.19291	0.26306	0.22165	0.19158	0.027802	0.10294	-1.6583	-2.3667	-2.45	-2.2167	-2.5646	-2.2146	-2.3083	-2.6146	-2.2292	-2.375	-2.5729	-2.2083	-2.6167	-2.3438	-2.3708	-2.6979	164.635	72.925	106.320	132.426	74.135	199.762	314.276	101.046	176.414	150.524	397.878	101.095	304.958	105.899	288.192	415.183	0.00047008	0.00046021	0.00021577	767.3	1.9086e-06	4.5982e-06	816.52	253.47	5.0435e-06	2.938e-06	320.71	116.37	83.005	30.48	6.3713e-06	49.621	0.00027078	0.00030315	7.9347e-05	747.26	3.0899e-06	3.4265e-06	796.01	246.05	3.0205e-06	3.2441e-06	299.42	112.4	80.79	29.73	2.9389e-06	47.488	217.022	150.063	162.987	80.209	153.548	186.181	80.495	86.283	239.108	354.016	85.200	91.164	91.851	96.499	184.083	95.346	-8191	255	
7676.364	1	1	0	0	0.2266	0.24632	0.21011	0.13245	0.13605	0.10418	0.1495	0.24163	0.10485	0.2432	0.048943	0.21256	0.21651	0.071418	0.08321	0.31562	-1.8896	-2.3125	-2.5375	-2.0167	-2.4146	-2.3438	-2.4083	-2.7	-2.1208	-2.1771	-2.5896	-2.1521	-2.4104	-2.4875	-2.1771	-2.6937	146.347	117.807	80.632	274.006	349.665	118.271	366.229	370.031	290.600	91.579	170.866	109.688	108.946	127.619	363.410	385.959	0.0004334	0.00050938	6.2458e-05	773.11	2.5801e-06	3.4607e-06	815.46	254.89	5.2028e-06	2.8028e-06	318.6	117.51	83.25	30.455	2.5051e-06	50.123	0.00028603	0.00029633	7.513e-05	743.01	3.085e-06	3.1331e-06	794.32	246.09	3.0556e-06	2.9697e-06	298.05	112.93	81.163	29.613	2.7003e-06	47.766	214.946	191.597	403.380	80.620	193.886	198.983	80.564	86.749	250.920	304.315	84.990	91.033	91.711	96.370	286.759	95.320	-8191	255	
7676.460	1	1	0	0	0.10611	0.22441	0.069966	0.0722	0.16661	0.15059	0.075687	0.32265	0.17645	0.26881	0.058655	0.11245	0.067856	0.10095	0.15627	0.082088	-1.8312	-2.1562	-2.4688	-2.2229	-2.4396	-2.4708	-2.0833	-2.5229	-2.35	-2.3771	-2.5646	-2.2104	-2.4229	-2.5229	-2.1229	-2.5375	401.810	213.393	232.164	285.015	179.935	157.609	193.087	388.099	173.091	386.149	174.255	274.017	204.101	118.948	239.904	370.565	0.00047702	0.0003742	7.74e-05	769.83	2.3867e-06	7.67e-07	815.01	254.88	3.1916e-06	6.57e-06	319.7	117.09	83.779	30.326	3.8216e-06	49.858	0.00028399	0.00027057	6.8239e-05	741.32	3.0416e-06	2.8113e-06	791.45	246.45	2.9269e-06	2.7181e-06	295.39	112.77	81.238	29.398	2.4917e-06	47.645	216.644	172.892	189.309	80.603	218.886	370.056	80.669	86.471	277.085	232.645	85.541	91.099	91.777	96.485	247.563	95.156	-8191	255	
7676.556	1	1	0	0	0.13238	0.31509	0.26358	0.12007	0.16262	0.18313	0.16829	0.10168	0.221	0.25295	0.05067	0.21233	0.25297	0.22133	0.13401	0.22073	-1.8479	-2.2854	-2.6521	-2.3375	-2.6104	-2.5563	-2.1063	-2.6021	-2.5146	-2.2521	-2.7458	-2.1562	-2.2583	-2.6021	-2.1042	-2.4771	352.049	308.822	106.526	249.763	413.337	105.931	388.409	308.910	133.192	128.675	232.434	390.633	377.011	114.411	90.560	69.967	0.00045096	0.00021135	0.00022203	770.64	6.0072e-06	9.9823e-07	814.31	256.53	8.7107e-06	5.1124e-06	324.33	118.25	84.575	30.889	2.6457e-06	50.964	0.00027259	0.00024366	6.3554e-05	740.42	2.9172e-06	2.6486e-06	788	247.45	2.9269e-06	2.6668e-06	297.04	114.21	81.945	29.939	2.5783e-06	48.716	216.623	345.815	137.717	80.339	177.916	422.033	80.511	86.298	250.256	144.044	85.137	90.958	91.356	96.340	337.417	95.320	-8191	255	
7676.652	1	1	0	0	0.08528	0.17857	0.22021	0.26489	0.07031	0.23813	0.13366	0.2315	0.17377	0.2425	0.10988	0.1946	0.23933	0.095936	0.15688	0.15081	-1.9146	-2.1146	-2.3396	-2.1646	-2.3812	-2.7062	-2.1437	-2.2417	-2.5417	-2.3354	-2.6417	-2.1771	-2.3479	-2.55	-2.2771	-2.4729	258.482	202.835	203.577	380.821	218.197	269.317	412.453	323.215	382.993	167.419	317.878	82.401	222.875	77.298	93.212	407.318	0.00039083	0.00072883	0.00011029	773.82	5.7632e-06	1.9777e-06	815.45	256.35	3.8911e-06	2.2824e-06	326.01	119.54	84.833	31.46	4.5042e-06	52.039	0.00027179	0.00024756	6.6087e-05	749.78	2.9057e-06	2.6885e-06	790.22	250.09	2.8805e-06	2.6919e-06	301.41	116.09	82.767	30.436	2.7467e-06	49.95	199.132	127.547	204.420	80.449	153.692	383.154	80.585	86.135	270.876	403.723	85.452	90.671	91.692	96.430	220.910	95.571	-8191	255	
7676.748	1	1	0	0	0.38243	0.14517	0.17111	0.26982	0.16564	0.062996	0.22508	0.33837	0.18755	0.18248	0.19291	0.015737	0.077398	0.15332	0.17391	0.087971	-2.0083	-2.125	-2.5021	-2.2792	-2.1979	-2.6292	-2.0729	-2.5292	-2.4146	-1.9813	-2.4562	-2.2812	-2.2375	-2.5687	-2.1333	-2.5812	416.722	212.340	106.372	304.154	202.005	365.734	389.695	421.404	135.202	260.670	316.393	423.134	353.665	358.289	178.383	323.275	0.00039036	0.00012589	0.00018323	775.15	3.4994e-06	5.4666e-06	819.4	258.14	4.9616e-07	2.7917e-06	328	121.57	86.122	31.75	3.4909e-06	52.541	0.00027684	0.00025338	7.3208e-05	756.36	3.0633e-06	2.8711e-06	798.4	253.24	3.1171e-06	2.9532e-06	308.31	118.2	83.924	30.965	3.1301e-06	50.486	203.112	212.714	127.432	80.280	248.313	198.984	80.397	86.465	292.666	170.115	85.432	90.905	92.151	96.188	233.149	95.322	-8191	255	
7676.869	1	1	0	0	0.098275	0.051441	0.1564	0.12754	0.045454	0.053075	0.38883	0.29704	0.18439	0.1148	0.1384	0.13896	0.26869	0.062743	0.21862	0.14828	-2.0604	-2.0729	-2.3979	-2.2938	-2.2	-2.6042	-2.3187	-2.3229	-2.4896	-2.0958	-2.4938	-2.4125	-2.0021	-2.5542	-2.1229	-2.1979	189.435	144.132	358.301	240.565	356.063	320.016	373.304	241.056	189.676	367.193	414.261	370.798	377.311	134.063	314.034	289.549	0.00040231	0.0001528	0.00013652	779.49	9.2922e-07	5.2977e-06	821.42	259.36	5.6144e-06	6.4431e-06	327.93	121.59	85.929	31.891	1.7497e-06	52.66	0.00028056	0.00026063	8.1299e-05	759.76	3.0138e-06	2.8454e-06	801.71	253.07	2.8954e-06	2.8281e-06	309.87	118.04	83.732	30.898	3.1855e-06	50.284	215.561	134.084	160.053	80.690	196.640	230.139	80.621	86.699	312.075	225.481	85.323	90.904	91.975	96.632	246.116	95.271	-8191	255	
7676.963	1	1	0	0	0.20166	0.22467	0.09547	0.097651	0.19215	0.060123	0.073569	0.020561	0.17872	0.094913	0.27488	0.19577	0.26061	0.24513	0.26066	0.2034	-2.2313	-2.0896	-2.4146	-2.5271	-2.0771	-2.4354	-2.4104	-2.1646	-2.6125	-2.1229	-2.2438	-2.4688	-2.2792	-2.4979	-2.4375	-2.3354	272.853	163.766	329.120	393.306	410.790	78.148	350.366	353.067	428.179	355.108	399.594	282.150	78.326	279.466	108.631	405.072	0.00041221	0.0002975	5.6024e-05	774.88	9.6012e-06	4.4596e-06	816.56	260.22	6.8156e-06	4.6805e-06	328.17	121.39	86.327	32.03	3.6133e-06	53.116	0.00026343	0.00025704	8.106e-05	752.37	2.8498e-06	2.833e-06	797.24	252.66	2.8238e-06	2.8793e-06	308.7	117.64	83.719	31.102	3.3327e-06	50.668	215.011	168.729	404.490	80.355	193.975	232.282	80.427	86.441	186.097	162.869	85.732	90.836	91.777	96.284	246.534	95.274	-8191	255	
7677.060	1	1	0	0	0.12206	0.16279	0.15991	0.13629	0.18279	0.18966	0.4821	0.11222	0.064002	0.27592	0.10291	0.21084	0.23242	0.3444	0.21135	0.22053	-2.0521	-1.925	-2.2292	-2.5563	-1.9354	-2.6875	-2.4375	-2.0771	-2.6188	-2.1917	-2.4292	-2.5667	-2.1583	-2.2896	-2.4313	-2.1417	342.392	356.959	384.170	187.636	271.598	411.584	380.642	283.270	232.054	215.252	420.099	393.802	374.782	85.401	191.025	72.188	0.00040084	0.00051684	0.00016185	773.16	4.8999e-06	1.7145e-06	818.64	260.99	2.6809e-06	1.0558e-06	329.46	123.41	88.005	32.537	8.5264e-07	53.705	0.0002723	0.00028742	8.5427e-05	751.79	2.9385e-06	3.2023e-06	799.79	254.24	2.9784e-06	3.3508e-06	314.57	119.44	85.567	31.948	3.6865e-06	51.61	206.556	144.168	309.803	80.958	195.932	188.009	80.661	86.381	233.606	354.147	85.626	91.240	91.926	96.478	233.433	95.463	-8191	255	
7677.156	1	1	0	0	0.20369	0.073534	0.12533	0.24056	0.081198	0.10274	0.056271	0.14524	0.15519	0.3095	0.11107	0.32335	0.17358	0.23661	0.25329	0.13632	-2.0021	-2.2604	-2.3083	-2.5625	-2.0979	-2.4083	-2.4958	-2.2458	-2.5563	-2.3229	-2.3646	-2.6521	-2.1167	-2.3417	-2.4458	-2.2062	326.989	379.128	114.048	418.373	259.945	187.176	322.604	267.151	372.794	177.246	425.845	119.244	244.947	305.130	167.642	95.277	0.00045707	0.00073706	0.00017253	778.13	7.2419e-06	3.9967e-06	822.54	264.13	5.2688e-06	9.8445e-06	333.1	125.53	89.118	32.876	4.3514e-06	54.859	0.00031041	0.00034651	9.5653e-05	766.13	3.4908e-06	4.0307e-06	808.92	259.39	3.9528e-06	4.7283e-06	330.33	123.96	89.258	33.468	5.6488e-06	54.162	198.724	125.986	281.051	80.686	202.168	257.299	80.702	86.087	238.093	173.422	85.693	91.246	91.615	96.554	328.786	95.556	-8191	255	
7677.252	1	1	0	0	0.39554	0.058849	0.014789	0.049186	0.27204	0.2669	0.12881	0.069828	0.25726	0.066907	0.22639	0.08523	0.19309	0.31894	0.10477	0.065826	-2.2	-2.2083	-2.2729	-2.6604	-2.05	-2.3083	-2.4875	-2.1208	-2.4896	-2.2396	-2.2521	-2.7292	-2.2125	-2.3271	-2.3729	-2.1833	350.467	424.072	351.190	359.799	218.198	174.433	266.511	336.016	184.207	263.884	215.013	149.943	416.374	425.356	180.680	69.307	0.0005032	0.00088427	0.00024369	792.93	1.3339e-05	8.8288e-06	827.14	268.54	1.1747e-05	1.0382e-05	339.43	127.35	91.034	33.456	2.2966e-06	55.117	0.00055996	0.00066276	0.000182	851.93	8.0187e-06	9.5274e-06	862.71	283.54	1.0416e-05	1.1619e-05	401.11	135.05	100.78	37.172	1.1231e-05	57.993	218.543	209.251	330.353	80.648	172.981	400.611	80.608	86.663	189.231	388.364	85.668	91.101	91.932	96.565	336.711	95.469	-8191	255	
7677.348	1	1	0	0	0.12602	0.19055	0.1413	0.13245	0.33522	0.053035	0.14757	0.13943	0.054834	0.109	0.063143	0.11424	0.26108	0.14336	0.16993	0.13961	-2	-2.1354	-2.1792	-2.6312	-2.1875	-2.2771	-2.55	-2.2562	-2.4771	-2.3438	-2.1021	-2.6646	-2.0542	-2.3479	-2.5667	-2.1813	261.525	397.676	316.230	185.942	100.780	314.647	74.835	321.473	385.344	219.571	313.569	404.646	398.545	185.640	381.614	419.579	0.00050591	0.00067945	0.00016109	785.5	1.3028e-05	1.1097e-05	828.85	268.65	3.9071e-06	5.9389e-06	338.51	127.57	90.748	33.312	6.9163e-06	55.054	0.0010544	0.0011057	0.0002818	926.53	1.1686e-05	1.1687e-05	874.47	287.12	1.1721e-05	1.1392e-05	393.63	133.83	99.933	36.301	9.8259e-06	57.331	206.927	237.987	232.092	80.744	155.648	154.635	80.669	86.599	247.135	168.483	85.942	91.206	91.944	96.193	121.665	95.419	-8191	255	
7677.444	1	1	0	0	0.11196	0.23896	0.09455	0.36879	0.17567	0.2017	0.096113	0.26947	0.10353	0.090773	0.11002	0.15824	0.12337	0.18943	0.14277	0.26029	-1.9583	-2.1604	-1.9521	-2.5958	-2.1479	-2.3146	-2.4708	-2.2667	-2.2854	-2.4917	-2.025	-2.4979	-2.3958	-2.2708	-2.5292	-2.3167	367.635	92.781	180.456	120.067	124.890	423.565	428.186	337.201	256.759	406.536	381.956	158.446	302.097	370.242	207.690	344.238	0.0005178	0.00071891	0.00036382	782.21	5.3214e-06	8.3964e-06	826.91	270.51	4.0329e-06	5.2203e-06	339.64	128.32	91.132	33.623	1.0524e-05	56.197	0.00097623	0.00091931	0.00023509	897.94	1.0293e-05	9.4394e-06	854.21	283.18	1.0195e-05	9.6669e-06	384.38	135.47	101.32	36.799	1.0426e-05	59.426	202.506	75.760	175.018	80.974	107.302	399.615	80.442	86.514	234.854	288.675	85.769	90.956	92.000	96.748	379.072	95.204	-8191	255	
7677.540	1	1	0	0	0.17401	0.029784	0.21476	0.16454	0.30105	0.169	0.18753	0.046102	0.1513	0.31642	0.1869	0.055416	0.077336	0.056355	0.14304	0.36492	-2.0854	-2.4521	-2.0167	-2.5062	-2.2667	-2.2313	-2.5271	-2.0812	-2.3542	-2.5042	-2.1042	-2.7146	-2.5687	-2.225	-2.5687	-2.2854	259.673	264.744	190.922	412.449	289.616	141.379	426.725	163.144	336.825	390.452	135.983	395.748	366.551	309.233	232.212	117.167	0.00040137	0.0010605	0.00018779	786.71	4.9872e-06	1.3352e-06	832.99	271.23	9.4884e-06	4.4738e-06	346.13	130.11	92.353	34.036	6.6202e-06	56.918	0.001131	0.0010658	0.00028481	968.82	1.2982e-05	1.1871e-05	880.77	297.8	1.309e-05	1.1941e-05	409.49	140.46	103.7	37.549	1.147e-05	61.235	233.568	413.686	355.257	80.526	328.223	75.978	80.600	86.494	362.015	100.344	85.469	91.263	91.837	96.373	274.400	95.526	-8191	255	
7677.661	1	1	0	0	0.036147	0.10792	0.30032	0.20988	0.16995	0.23537	0.19322	0.14236	0.029108	0.16462	0.19062	0.33711	0.10892	0.10176	0.073491	0.073877	-1.7354	-2.525	-2.0917	-2.4688	-2.4062	-2.15	-2.8312	-2.3917	-2.0812	-2.5042	-2.0583	-2.6396	-2.5083	-2.0333	-2.4667	-2.2646	79.188	157.006	129.829	314.189	164.170	300.713	295.215	160.724	423.142	240.732	135.894	98.372	363.589	284.963	160.482	144.639	0.00041194	0.00018136	0.0001914	797.39	1.6158e-05	5.1511e-06	835.96	275.22	1.8449e-06	2.2531e-06	347.88	131.06	92.705	34.293	1.831e-05	57.228	0.0011854	0.0011211	0.00030837	1009	1.3263e-05	1.2278e-05	890.88	304.27	1.2957e-05	1.2073e-05	419.19	143.37	104.54	37.915	1.2315e-05	62.1	211.411	165.077	420.825	80.581	359.928	318.926	80.806	86.596	306.683	377.895	86.426	91.020	92.025	96.703	267.151	95.076	-8191	255	
7677.757	1	1	0	0	0.077198	0.071566	0.3302	0.038269	0.084316	0.051943	0.22255	0.18569	0.26757	0.24011	0.21467	0.18556	0.1457	0.26305	0.23613	0.11335	-1.7833	-2.3979	-2.2562	-2.4292	-2.4583	-1.95	-2.5625	-2.3063	-2.2167	-2.675	-2.3333	-2.5958	-2.7062	-2.1542	-2.3854	-2.3396	364.382	409.179	418.543	399.985	328.373	108.733	219.394	333.776	198.958	262.531	139.681	383.881	96.360	148.607	111.812	219.736	0.0003868	0.00049323	0.00013505	792.18	5.7744e-06	5.2732e-06	832.16	275.06	2.0595e-06	4.5892e-06	350.67	130.57	92.65	34.152	2.3274e-05	56.422	0.0011269	0.0010683	0.00031328	1003	1.2633e-05	1.2068e-05	895.62	305.11	1.291e-05	1.2513e-05	436.33	144.76	105.6	38.318	1.4539e-05	62.561	238.210	164.307	145.827	80.186	195.399	314.134	80.737	86.532	143.458	396.588	85.905	90.844	91.917	96.414	166.631	95.304	-8191	255	
7677.829	1	1	0	0	0.1938	0.1826	0.27223	0.36855	0.25104	0.14304	0.21264	0.24469	0.090446	0.11851	0.26436	0.3564	0.26593	0.17437	0.078637	0.091808	-1.8188	-2.5	-2.2125	-2.2583	-2.5229	-2.1917	-2.6562	-2.4562	-2.0958	-2.4813	-2.2896	-2.3521	-2.6396	-2.2479	-2.2708	-2.7771	250.064	267.441	86.159	427.184	408.664	321.219	334.638	102.811	122.300	199.881	84.219	177.235	136.670	88.590	420.319	398.344	0.00033629	0.00084103	0.00026932	789.41	9.0002e-06	8.8705e-06	832.48	274.29	2.9768e-06	1.3403e-05	342.91	130.94	92.681	34.54	4.5018e-06	56.627	0.0012363	0.0012067	0.00038225	1036.2	1.4271e-05	1.4114e-05	922.98	313.11	1.526e-05	1.5146e-05	471.18	147.52	108.24	39.694	1.7537e-05	64.043	215.367	146.789	93.326	80.536	179.886	188.736	81.001	86.800	309.243	153.964	85.282	90.950	92.160	96.261	280.241	95.177	-8191	255	
7677.949	1	1	0	0	0.27798	0.09089	0.387	0.15923	0.24651	0.10935	0.1152	0.3237	0.19297	0.1172	0.077869	0.26531	0.18639	0.412	0.088445	0.40099	-1.65	-2.5354	-2.0625	-2.1958	-2.6104	-2.175	-2.3854	-2.3625	-2.1021	-2.5833	-2.2896	-2.2583	-2.7521	-2.0979	-2.5917	-2.5312	273.490	216.007	93.458	105.149	374.347	159.161	182.776	207.582	127.354	95.333	169.216	100.239	350.314	78.559	230.504	349.936	0.00043393	0.0011952	0.00035773	791.98	9.9739e-06	1.3801e-05	836	275.82	7.5161e-06	2.0683e-05	346.75	132.21	93.398	35.008	1.5169e-05	57.33	0.0014217	0.0014732	0.00046898	1085.1	1.6421e-05	1.7158e-05	950.57	319.92	1.6991e-05	1.7928e-05	500.44	151.09	111.74	41.714	2.0364e-05	66.069	225.003	163.827	131.978	80.809	314.773	229.583	80.794	86.448	380.696	221.817	85.497	91.150	91.885	96.643	423.558	95.315	-8191	255	
7678.044	1	1	0	0	0.1118	0.15504	0.021523	0.14016	0.10994	0.14095	0.075689	0.039187	0.11369	0.10531	0.13527	0.1129	0.12167	0.19261	0.022131	0.41153	-1.8188	-2.6896	-2.4	-2.2146	-2.6583	-2.0833	-2.3292	-2.3104	-1.9208	-2.6125	-2.3688	-2.0812	-2.6542	-1.9792	-2.3604	-2.6917	316.869	365.360	145.621	318.742	192.801	195.352	387.584	205.372	308.743	338.076	78.398	364.070	127.622	339.060	199.845	309.317	0.00032215	0.0015094	0.00018458	798.41	1.3113e-06	1.8188e-05	839.17	277.84	1.021e-05	6.5453e-06	350.1	132.98	94.1	35.126	1.6784e-05	58.223	0.0016325	0.0018283	0.00054294	1134.8	1.8512e-05	2.0682e-05	969.32	327.25	1.855e-05	2.0895e-05	512.08	153.56	113.68	43.047	2.0385e-05	66.785	216.272	88.988	282.737	80.619	383.332	211.710	80.718	86.584	157.166	242.486	85.356	91.081	92.147	96.380	344.881	94.943	-8191	255	
7678.140	1	1	0	0	0.17224	0.2036	0.072018	0.12882	0.086768	0.077827	0.22945	0.21178	0.083916	0.26441	0.30249	0.23102	0.23433	0.11992	0.18656	0.22282	-1.5271	-2.5458	-2.3646	-2.0854	-2.625	-2.2729	-2.475	-2.7208	-2.0208	-2.4167	-2.5042	-2.0167	-2.6437	-2.4854	-2.2646	-2.7833	356.916	345.127	342.817	393.819	133.411	279.092	341.375	393.193	235.790	286.330	185.727	325.000	171.073	121.344	192.812	355.370	0.00056691	0.0010245	0.00027684	795.26	1.2618e-05	7.5419e-06	839.11	278.61	1.1858e-05	1.1018e-05	349.51	132.15	93.88	34.741	6.4109e-06	57.798	0.0016564	0.0019215	0.00051218	1117.5	1.8374e-05	2.0865e-05	957.01	323.23	1.8515e-05	2.1097e-05	498.34	152.04	114.25	43.132	1.9608e-05	66.211	212.339	135.853	275.448	80.792	207.542	173.193	80.606	86.609	255.089	74.572	85.865	91.042	91.949	96.716	198.883	95.116	-8191	255	
7678.236	1	1	0	0	0.25629	0.31041	0.084141	0.38428	0.067064	0.072083	0.20383	0.034769	0.17176	0.28447	0.1939	0.17083	0.19004	0.16712	0.12678	0.31497	-1.7354	-2.3312	-2.2375	-1.9979	-2.4375	-2.325	-2.2875	-2.5458	-2.0083	-2.3146	-2.5521	-2.2854	-2.4313	-2.3771	-2.2042	-2.6708	266.460	96.094	277.735	396.483	242.377	145.158	337.646	371.159	197.744	384.727	376.495	358.453	101.123	382.619	185.873	427.578	0.00075782	0.00044715	2.5786e-05	794	1.8036e-05	1.9503e-05	835.1	279.55	2.1655e-05	1.399e-05	350.6	131.98	94.646	35.04	2.7919e-06	58.311	0.0017823	0.0020076	0.00051378	1129.2	2.069e-05	2.2469e-05	959.96	328.34	2.16e-05	2.2656e-05	510.74	154.84	120.46	44.436	2.2073e-05	68.715	211.488	115.038	324.589	80.937	160.481	406.844	80.399	86.714	233.977	407.899	85.541	90.859	91.972	96.389	392.647	95.180	-8191	255	
7678.357	1	1	0	0	0.26764	0.14835	0.46863	0.1525	0.077479	0.11619	0.29942	0.12463	0.050135	0.27701	0.10506	0.12988	0.27964	0.080687	0.10727	0.077053	-1.7583	-2.3417	-2.4188	-2.2167	-2.2604	-2.3812	-2.1542	-2.7313	-2.425	-2.2438	-2.8146	-2.1604	-2.4	-2.5083	-2.0667	-2.7687	160.282	419.364	425.120	327.698	81.869	144.233	373.134	411.669	308.082	227.286	213.498	427.892	352.560	316.165	266.578	125.007	0.00075143	0.0017388	0.0003885	797.51	1.226e-05	7.5654e-06	830.8	281.01	1.9168e-05	7.3194e-07	354.14	133.48	95.785	35.412	5.3071e-06	58.934	0.0022412	0.0023143	0.00059974	1216.5	2.6788e-05	2.6528e-05	997.7	347.16	2.8463e-05	2.7216e-05	561.16	164.43	130.15	46.457	2.4832e-05	71.663	206.334	262.637	332.173	80.594	214.948	77.630	80.839	86.646	261.656	191.048	85.107	91.296	91.947	96.512	238.603	95.237	-8191	255	
7678.453	1	1	0	0	0.14109	0.15426	0.086627	0.058917	0.04952	0.053439	0.092378	0.16096	0.047081	0.064292	0.1721	0.20383	0.091626	0.19014	0.17853	0.28358	-1.8375	-2.1333	-2.475	-2.0271	-2.3063	-2.3792	-2.2292	-2.5292	-2.4437	-2.3708	-2.625	-2.2583	-2.4938	-2.6333	-2.3083	-2.8333	119.454	97.475	124.809	233.841	309.928	295.064	331.964	125.071	179.497	295.032	352.899	291.867	415.588	422.407	73.707	398.526	0.00052247	0.0014589	0.00060409	805.9	9.7668e-06	6.5245e-06	835.18	283.61	1.5974e-05	1.1404e-05	353.93	135.84	96.466	35.918	3.5321e-07	60.409	0.0025086	0.0023421	0.00061235	1255.1	2.7681e-05	2.5324e-05	993.76	353.24	2.823e-05	2.5889e-05	556.08	168.64	131.05	46.52	2.5067e-05	74.506	212.443	270.445	264.224	80.732	151.118	402.420	80.774	86.634	340.061	385.112	85.467	91.204	92.163	96.257	336.616	95.135	-8191	255	
7678.549	1	1	0	0	0.1232	0.061389	0.26801	0.20867	0.13033	0.36352	0.20207	0.16279	0.040661	0.05278	0.28719	0.23787	0.21167	0.12675	0.24212	0.095592	-1.9375	-2.0896	-2.5979	-2.0875	-2.3771	-2.5354	-2.1875	-2.7271	-2.4729	-2.2042	-2.5833	-2.3083	-2.3688	-2.4688	-2.1167	-2.5771	148.711	79.040	273.544	236.479	227.065	91.752	316.197	93.570	332.699	223.385	98.839	382.183	93.798	72.571	121.619	348.549	0.00023529	0.001076	8.4734e-05	810.99	1.7191e-05	1.832e-05	839.73	285.41	5.965e-06	6.2799e-06	363.47	137.5	95.716	35.881	2.0893e-05	60.01	0.0025595	0.0023606	0.00062207	1308.5	2.7222e-05	2.4591e-05	991.8	357.05	2.5963e-05	2.3879e-05	541.22	168.19	125.84	45.11	2.3003e-05	73.622	220.439	187.091	132.064	80.776	325.100	308.089	80.773	86.875	376.979	351.288	86.400	91.037	92.024	96.330	222.412	95.556	-8191	255	
7678.645	1	1	0	0	0.31096	0.069577	0.21827	0.17794	0.18557	0.16278	0.086659	0.13623	0.045676	0.14697	0.46041	0.26082	0.20672	0.15417	0.28528	0.20418	-1.9021	-2.1396	-2.625	-2.3979	-2.2771	-2.4583	-2.4792	-2.4208	-2.4292	-2.1667	-2.5583	-2.2771	-2.3937	-2.6063	-2.1021	-2.5062	215.468	71.578	202.442	387.042	394.937	270.791	104.877	422.312	422.361	350.170	94.339	376.726	283.628	340.680	224.645	371.733	0.00033988	0.00086239	0.0004031	804.65	3.948e-06	8.7766e-06	837.03	285.2	1.0865e-05	1.3816e-05	361.71	136.27	95.652	35.716	1.388e-05	59.84	0.0022366	0.0021163	0.00058627	1294.5	2.5048e-05	2.349e-05	995.11	361.44	2.5653e-05	2.4532e-05	566.15	171.81	127.19	45.765	2.6695e-05	75.535	240.042	221.501	129.137	80.965	180.900	173.397	80.770	86.778	422.879	392.264	85.365	91.291	91.874	96.540	202.546	95.111	-8191	255	
7678.741	1	1	0	0	0.13536	0.099906	0.11919	0.067973	0.1827	0.22212	0.18891	0.16572	0.33177	0.1071	0.071471	0.10214	0.16222	0.24309	0.027373	0.21527	-1.9771	-2.1396	-2.4896	-2.3917	-2.1729	-2.7125	-2.2333	-2.4271	-2.3375	-2.0979	-2.4562	-2.5417	-2.1833	-2.6562	-2.3042	-2.3812	330.999	206.836	341.755	130.762	421.620	404.591	289.569	329.070	117.598	269.397	332.072	102.389	393.165	71.516	374.361	319.772	0.00037283	0.0011766	0.00056336	794.76	3.7464e-06	1.3357e-05	843.25	284.06	9.6143e-06	4.6959e-06	363.9	137.92	96.703	36.152	3.7275e-06	60.498	0.0023766	0.0023138	0.00069471	1365.9	2.7169e-05	2.6062e-05	1036.7	372.06	2.7688e-05	2.6438e-05	608.65	174.35	128.77	46.538	2.9037e-05	75.745	206.418	320.525	132.420	80.440	337.059	133.033	80.872	86.822	159.989	200.315	86.534	90.933	92.175	96.074	188.378	95.271	-8191	255	
7678.837	1	1	0	0	0.16242	0.11912	0.32301	0.16189	0.079009	0.32379	0.28541	0.2686	0.098454	0.21568	0.24339	0.35637	0.20187	0.1188	0.1226	0.13542	-1.9792	-2.1042	-2.4042	-2.3063	-2.0042	-2.6729	-2.425	-2.2812	-2.6167	-2.05	-2.5146	-2.6937	-2.3333	-2.5458	-2.2083	-2.2833	425.593	103.392	161.413	402.174	340.934	318.159	365.697	393.101	168.530	176.515	348.609	389.992	410.887	416.957	166.762	103.464	0.00039859	0.00030391	0.00086685	797.2	2.1382e-05	4.0107e-06	842.88	285.71	8.3757e-06	6.088e-06	359.76	138.4	97.154	36.458	8.7045e-06	60.615	0.0023417	0.0023056	0.00072629	1320.2	2.5509e-05	2.4914e-05	1036.6	362.17	2.514e-05	2.5095e-05	599.45	170.05	125.78	46.281	2.8413e-05	74.483	189.817	200.187	137.070	80.589	383.289	243.187	80.747	86.678	335.229	233.480	85.607	91.099	92.213	96.384	229.152	95.326	-8191	255	
7678.958	1	1	0	0	0.16496	0.20553	0.12645	0.089141	0.047832	0.014323	0.31159	0.10405	0.14905	0.37657	0.18403	0.21722	0.16314	0.27805	0.14639	0.21593	-2.1937	-2.2896	-2.2083	-2.5146	-1.9917	-2.4437	-2.5021	-2.2396	-2.5271	-2.1813	-2.4542	-2.5292	-2.2125	-2.4896	-2.325	-2.325	99.833	375.607	410.818	303.736	80.276	170.068	382.351	90.572	338.576	218.205	416.027	309.492	336.346	419.704	298.219	79.726	0.00042972	0.0016025	0.00030115	804.07	2.8689e-06	2.2535e-05	841.71	288.04	3.7964e-06	1.2462e-05	364.72	138.87	97.106	36.839	7.9781e-06	61.052	0.0022067	0.0023381	0.00072062	1287.4	2.4632e-05	2.6068e-05	1039.9	359.79	2.4767e-05	2.7068e-05	609.58	171.41	127.52	48.072	2.9614e-05	74.975	201.294	154.259	176.913	81.136	103.219	267.752	80.957	86.305	259.794	241.240	86.249	90.986	92.064	96.697	372.286	95.205	-8191	255	
7679.052	1	1	0	0	0.2505	0.20619	0.27606	0.063006	0.065587	0.37269	0.34637	0.25	0.10983	0.26089	0.32582	0.10841	0.25115	0.14337	0.23121	0.28328	-2.1167	-2.2562	-2.3583	-2.6208	-2.2146	-2.5229	-2.4896	-2.1479	-2.6562	-2.2917	-2.3063	-2.6208	-2.1729	-2.5396	-2.4667	-2.1437	337.186	191.083	334.110	142.520	124.944	113.771	158.085	395.918	325.580	421.343	302.932	412.399	87.692	200.255	359.010	365.713	0.00044165	0.0020044	0.00026693	800.72	1.867e-06	9.7969e-06	841.24	286.26	2.1229e-05	9.4063e-06	356.6	137.19	97.243	36.216	6.3731e-06	60.214	0.0022893	0.0025984	0.00072889	1290.8	2.5317e-05	2.8646e-05	1038.1	360.66	2.6117e-05	2.9823e-05	604.19	169.83	128	48.543	2.8758e-05	74.273	218.125	118.571	372.195	80.207	117.685	70.295	80.740	87.039	243.926	245.375	85.322	91.006	92.141	96.681	248.065	95.250	-8191	255	
7679.126	1	1	0	0	0.18009	0.10244	0.24493	0.24344	0.087497	0.14843	0.2607	0.17239	0.28174	0.18537	0.19961	0.32895	0.06103	0.041164	0.099766	0.31703	-2.1521	-2.2542	-2.15	-2.5521	-2.05	-2.4042	-2.7	-2.1	-2.6625	-2.4292	-2.2646	-2.5021	-2.4271	-2.4479	-2.4667	-2.0479	314.086	87.025	130.889	394.739	110.990	102.981	417.749	356.070	288.116	186.316	132.175	90.244	389.425	352.082	420.079	314.560	0.00079187	0.0011159	0.00043118	799.42	2.3722e-05	1.4434e-06	834.37	285.65	1.2146e-05	4.7719e-06	357.72	137.08	97.613	36.265	1.0053e-05	60.753	0.0024277	0.0028525	0.00074813	1320	2.8337e-05	3.17e-05	1037.8	363.73	2.8655e-05	3.1748e-05	602.15	170.68	131.41	49.159	2.804e-05	74.464	205.256	407.083	296.061	80.627	183.981	199.646	80.526	86.785	203.359	423.962	84.889	90.914	92.464	96.499	381.872	95.058	-8191	255	
7679.220	1	1	0	0	0.18889	0.20191	0.099658	0.15791	0.2176	0.19662	0.26314	0.2496	0.23725	0.090927	0.3472	0.18973	0.23216	0.387	0.26074	0.25971	-2.2083	-2.1688	-2.2438	-2.4146	-2.1417	-2.4521	-2.7583	-2.1521	-2.5354	-2.5208	-2.2333	-2.7583	-2.2708	-2.2146	-2.5125	-2.3708	163.266	158.521	290.326	82.008	83.022	334.719	360.225	402.614	189.886	303.769	381.696	101.528	127.489	363.184	352.948	111.942	0.00078065	0.001537	0.00025908	796.62	1.2782e-05	1.9898e-05	835.86	286.38	1.367e-05	1.7692e-06	363.11	138.43	97.87	36.517	4.7032e-06	61.264	0.0025789	0.0028172	0.00070962	1296	2.9552e-05	3.0841e-05	1027	361.77	2.9763e-05	3.0203e-05	590.35	169.73	133.23	48.479	2.6451e-05	74.161	207.377	359.632	257.383	81.525	250.125	426.007	80.708	87.218	185.062	216.259	86.352	91.384	92.087	96.532	299.967	94.989	-8191	255	
7679.341	1	1	0	0	0.058775	0.25595	0.075925	0.20542	0.40856	0.18175	0.13428	0.23672	0.15008	0.12669	0.037205	0.023329	0.23089	0.062787	0.081711	0.27862	-2.0062	-2.2542	-2.1625	-2.5646	-2.3896	-2.3646	-2.8083	-2.2958	-2.3354	-2.45	-2.1979	-2.6667	-2.4313	-2.3792	-2.7042	-2.1521	174.653	112.061	77.882	379.454	320.338	420.783	213.779	153.425	131.031	346.608	269.540	292.312	372.691	176.786	137.152	383.972	0.0005545	0.00070709	0.00016054	799.85	1.1206e-05	1.1015e-05	831.57	285.97	1.2196e-06	1.4056e-05	365.96	140.08	97.71	36.39	6.4911e-06	61.59	0.0025446	0.0025053	0.00063593	1243.6	2.7464e-05	2.5872e-05	991.25	350.47	2.6424e-05	2.4708e-05	546.86	166.14	128.41	45.903	2.2862e-05	73.022	193.265	129.607	162.280	80.945	174.609	407.284	81.059	86.686	158.686	323.597	86.000	91.321	92.071	96.595	70.024	95.344	-8191	255	
7679.437	1	1	0	0	0.062445	0.26925	0.25102	0.2243	0.13172	0.27712	0.35595	0.06068	0.056224	0.25488	0.1705	0.12005	0.28044	0.05726	0.14679	0.066212	-2.0667	-2.5208	-2.2062	-2.5646	-2.3875	-2.2917	-2.7021	-2.1021	-2.4583	-2.3979	-2.1937	-2.6625	-2.6188	-2.4042	-2.6854	-2.475	137.359	339.105	95.292	374.412	252.232	336.829	392.690	136.931	424.613	339.338	102.124	163.550	407.328	412.909	409.630	215.882	0.00043511	0.0019037	0.00021092	803.1	6.3785e-06	4.1908e-06	839.05	287.98	2.2395e-06	1.2856e-05	359.1	138.17	96.825	36.058	1.4186e-05	60.417	0.00236	0.0022092	0.00058205	1242.9	2.6612e-05	2.4278e-05	986.84	356.34	2.6782e-05	2.4658e-05	548.26	168.82	129.1	45.834	2.3617e-05	74.108	190.594	244.672	243.928	81.139	209.025	108.219	81.016	87.027	270.160	336.708	85.887	91.141	92.039	96.441	226.325	95.216	-8191	255	
7679.533	1	1	0	0	0.31207	0.34017	0.1925	0.15532	0.099927	0.053076	0.29623	0.13763	0.10628	0.21982	0.033883	0.21079	0.1028	0.13038	0.23185	0.0816	-1.8438	-2.575	-2.0708	-2.4521	-2.4188	-2.2375	-2.8063	-2.2833	-2.5167	-2.6042	-2.2604	-2.7521	-2.625	-2.1813	-2.5833	-2.3458	173.092	307.406	364.807	195.530	401.885	129.413	344.160	337.645	352.482	406.086	155.203	361.424	373.515	148.580	302.299	299.301	0.00027036	0.0002622	0.00035504	800.83	8.3531e-06	4.577e-06	829.64	285.75	8.3375e-06	1.4734e-05	365.23	136.85	96.407	36.208	2.5863e-05	60.654	0.00241	0.002271	0.00061182	1306.3	2.7222e-05	2.5037e-05	989.35	362.67	2.6228e-05	2.4177e-05	547.6	169.44	125.78	45.121	2.3096e-05	74.299	220.963	422.818	153.450	81.085	394.917	395.335	80.789	86.917	102.689	116.287	85.887	91.209	91.661	96.630	220.088	95.196	-8191	255	
7679.629	1	1	0	0	0.11968	0.09877	0.19524	0.0026924	0.14905	0.081527	0.15735	0.019793	0.028839	0.077792	0.31723	0.1658	0.17736	0.14827	0.17485	0.12408	-1.8292	-2.4396	-2.2083	-2.4833	-2.2104	-2.2729	-2.6125	-2.3333	-2.3833	-2.7646	-2.1	-2.5042	-2.7333	-2.0146	-2.5104	-2.4875	365.275	222.931	368.700	374.787	199.721	306.640	77.166	133.477	411.456	251.393	223.921	148.360	137.119	274.256	397.351	338.176	0.00034861	0.00059589	0.00026032	798.33	1.6025e-05	1.331e-05	835	287.27	5.941e-06	7.082e-06	361.92	138.42	97.944	36.385	2.8234e-05	61.006	0.0022123	0.0021302	0.0006042	1297	2.4915e-05	2.3654e-05	995.68	364.46	2.5153e-05	2.3855e-05	567.27	171.77	126.71	45.652	2.5545e-05	75.637	212.637	166.681	172.978	80.710	408.935	167.765	81.013	86.871	146.992	347.221	85.709	90.956	92.333	96.584	209.875	95.198	-8191	255	
7679.726	1	1	0	0	0.26228	0.28233	0.20253	0.17035	0.14606	0.14398	0.19962	0.12181	0.048413	0.25377	0.14934	0.22621	0.25353	0.43216	0.16254	0.27898	-1.7083	-2.6333	-2.1292	-2.4292	-2.4667	-2.1729	-2.5563	-2.3812	-2.2042	-2.6042	-2.3917	-2.4354	-2.4792	-2.2438	-2.4938	-2.2271	322.038	213.393	206.929	285.189	293.654	191.132	362.141	396.040	146.911	96.222	176.834	79.911	85.300	73.946	219.605	83.253	0.00051465	0.00077564	0.00035369	792.06	2.6657e-05	1.0886e-05	837.35	287.68	1.9444e-05	3.0748e-06	362.18	138.79	97.463	36.496	1.2463e-05	61.112	0.0022491	0.0022054	0.00068181	1323.1	2.5891e-05	2.4896e-05	1024.6	367.81	2.6329e-05	2.5376e-05	604.42	173.93	128.54	46.779	2.8794e-05	76.199	221.878	253.332	186.263	81.195	238.747	225.361	80.782	86.746	391.050	316.255	86.315	90.959	92.176	96.422	151.471	95.224	-8191	255	
7679.822	1	1	0	0	0.042	0.1384	0.19716	0.14795	0.057412	0.32765	0.28252	0.2033	0.18235	0.32259	0.17849	0.12483	0.08808	0.071054	0.038212	0.18405	-1.5438	-2.5187	-2.1375	-2.3979	-2.5229	-2.0187	-2.6063	-2.475	-2.1958	-2.5604	-2.2188	-2.2979	-2.8604	-2.1354	-2.3479	-2.4188	425.368	414.709	331.088	353.655	351.145	109.852	375.509	371.439	190.305	263.731	369.261	392.445	132.481	129.023	110.014	352.356	0.00032298	0.0014241	0.00028041	794.94	4.072e-06	1.9268e-05	837.19	287.25	3.4056e-06	1.4549e-05	367.55	138.14	97.181	36.722	3.2065e-06	60.68	0.0023241	0.0023356	0.00073906	1312.3	2.5711e-05	2.5928e-05	1038	365.12	2.5991e-05	2.6526e-05	615.98	171.88	127.63	47.28	2.9432e-05	75.113	229.537	176.060	220.269	80.924	164.677	212.657	80.947	86.464	89.602	202.673	85.451	90.950	92.167	96.613	134.738	95.337	-8191	255	
7679.918	1	1	0	0	0.15156	0.37349	0.14977	0.14563	0.25818	0.11775	0.11685	0.12708	0.035016	0.14601	0.13074	0.11342	0.030888	0.21353	0.18804	0.031461	-1.7563	-2.3854	-2.1625	-2.1562	-2.5896	-2.1396	-2.2917	-2.5292	-2.1188	-2.5979	-2.3312	-2.075	-2.7292	-2.3812	-2.3312	-2.6354	334.771	187.954	360.108	425.482	221.906	202.748	360.851	243.056	366.672	292.560	335.884	402.984	365.338	396.899	86.430	381.313	0.00039683	0.0024382	0.00011006	796.46	9.4342e-06	1.9737e-05	830.17	285.44	2.0173e-06	7.6558e-06	360.15	137.57	96.958	36.385	8.8972e-06	60.256	0.0022906	0.002482	0.00074816	1294.9	2.5449e-05	2.7698e-05	1034.4	362.5	2.5928e-05	2.8705e-05	613.69	170.58	127.62	48.162	2.9422e-05	74.723	200.093	136.861	286.763	81.593	172.415	233.181	80.760	86.466	343.843	197.213	85.728	91.010	92.428	96.358	151.944	95.193	-8191	255	
7680.038	1	1	0	0	0.11601	0.089311	0.12922	0.080187	0.18623	0.34096	0.12476	0.27576	0.15321	0.171	0.090534	0.12562	0.060789	0.14957	0.13517	0.28948	-1.6292	-2.4125	-2.5625	-2.1833	-2.2896	-2.1771	-2.4437	-2.6083	-2.1104	-2.4188	-2.375	-2.0771	-2.5354	-2.3812	-2.3312	-2.5771	135.671	378.238	267.540	176.215	418.047	309.440	340.367	384.828	84.798	89.642	242.941	90.748	156.655	160.353	213.493	350.446	0.00073345	0.0040839	0.00053585	795.71	1.5096e-05	1.5279e-05	831.24	284.15	9.2485e-06	1.3505e-05	359.1	137.35	97.366	36.405	8.0482e-06	60.833	0.0023236	0.0026744	0.00073259	1284.8	2.5192e-05	2.8342e-05	1014.4	354.79	2.4872e-05	2.8165e-05	581.99	167.3	126.23	48.045	2.647e-05	73.547	215.912	120.207	315.990	81.118	138.365	189.517	80.943	86.665	236.413	223.074	85.594	91.383	92.213	96.779	361.398	94.909	-8191	255	
7680.133	1	1	0	0	0.026405	0.24633	0.3955	0.29809	0.038718	0.21078	0.11707	0.34616	0.076805	0.22938	0.17365	0.31757	0.28488	0.20758	0.049635	0.010562	-1.6542	-2.3563	-2.3104	-2.0646	-2.5229	-2.275	-2.6021	-2.6354	-2.1583	-2.5458	-2.5521	-2.2146	-2.5146	-2.4167	-2.1292	-2.6479	219.913	231.717	73.042	387.028	243.184	168.368	120.618	291.864	247.425	266.018	382.733	351.804	74.975	213.157	148.450	357.037	0.00077277	0.0011011	0.00033836	787.1	2.2231e-05	4.9745e-06	832.72	285.82	2.5066e-05	6.9686e-06	363.81	138.06	98.41	36.633	2.4644e-05	61.115	0.0022742	0.0026223	0.0006794	1265.7	2.6702e-05	2.986e-05	1017.7	358.65	2.7555e-05	2.9837e-05	587.11	168.79	130.66	48.596	2.6414e-05	74.108	215.816	406.214	283.366	80.910	188.173	127.157	80.975	86.901	200.204	135.663	85.654	90.855	91.975	96.342	362.040	95.386	-8191	255	
7680.229	1	1	0	0	0.22814	0.091375	0.14236	0.054661	0.32245	0.42935	0.26676	0.19526	0.33849	0.17879	0.30991	0.30898	0.13308	0.15066	0.35468	0.34352	-1.7083	-2.3167	-2.4313	-2.3292	-2.4562	-2.3979	-2.2167	-2.5312	-2.3771	-2.2375	-2.5438	-2.3	-2.2146	-2.3312	-2.0333	-2.8208	345.898	295.875	315.783	277.285	236.542	282.486	417.818	134.548	208.808	296.569	179.920	359.343	421.122	420.122	97.606	95.022	0.00073227	0.0020233	0.00048305	792.94	1.2447e-05	1.4579e-05	834.16	287.69	1.6262e-05	3.8784e-06	361.57	138.89	97.775	36.601	1.0674e-05	61.514	0.0024773	0.0025977	0.00066241	1251.4	2.7256e-05	2.7258e-05	998.56	351.7	2.6541e-05	2.5984e-05	553.56	165.07	128.05	46.476	2.3408e-05	72.703	199.766	334.194	183.759	80.501	223.015	395.042	80.831	86.908	240.988	142.929	85.919	91.349	92.407	96.652	136.249	94.947	-8191	255	
7680.350	1	1	0	0	0.16877	0.23178	0.067684	0.21159	0.30298	0.17356	0.29169	0.12114	0.1015	0.10112	0.28993	0.067683	0.22271	0.13613	0.21895	0.23784	-1.7437	-2.2208	-2.5	-2.1354	-2.4437	-2.4229	-2.3167	-2.6437	-2.2417	-2.1771	-2.5667	-2.1646	-2.5896	-2.4688	-2.2146	-2.4917	228.770	110.152	228.582	166.366	147.496	363.224	337.777	96.341	158.090	398.856	416.222	229.671	173.712	303.105	72.084	108.859	0.00055302	0.0002568	0.00019276	797.21	6.9321e-06	6.055e-06	833.69	288.22	1.832e-05	1.2413e-05	356.68	137.14	97.44	35.967	6.872e-06	60.423	0.0023874	0.0023324	0.00061306	1243.2	2.7887e-05	2.6198e-05	993.94	356.79	2.8576e-05	2.6512e-05	563.91	169.01	132.58	47.025	2.5578e-05	74.694	194.885	140.101	301.873	81.515	309.584	385.009	80.681	86.919	216.184	395.510	85.485	91.135	91.893	96.430	328.272	95.479	-8191	255	
7680.421	1	1	0	0	0.14526	0.15806	0.050154	0.30402	0.31965	0.14986	0.18133	0.074903	0.3396	0.074178	0.14821	0.078471	0.12504	0.074544	0.30922	0.037932	-2.0521	-2.1312	-2.6	-2.2729	-2.3125	-2.5021	-2.2833	-2.5354	-2.3083	-2.225	-2.6083	-2.475	-2.2562	-2.4938	-2.1604	-2.6458	331.133	348.492	162.739	225.684	355.169	309.422	351.755	342.404	188.078	337.757	244.583	354.578	133.951	139.765	135.050	324.338	0.00031138	0.00063408	0.00042331	794.83	1.5151e-05	9.9444e-06	829.99	285.8	1.3176e-05	1.7692e-05	356.08	138.08	96.953	36.507	5.7051e-06	60.575	0.0026683	0.0024774	0.00065318	1319.2	2.9474e-05	2.6933e-05	997.36	365.6	2.9228e-05	2.6826e-05	567.79	172.92	132.55	47.36	2.6226e-05	76.84	221.646	188.484	291.813	80.923	333.815	323.994	80.751	86.797	86.273	391.773	86.400	91.104	91.981	96.783	261.737	95.400	-8191	255	
7680.517	1	1	0	0	0.11213	0.20633	0.073367	0.07466	0.05405	0.031532	0.28226	0.19547	0.147	0.28731	0.2825	0.087063	0.086586	0.06494	0.08268	0.0655	-1.9021	-2.1854	-2.5062	-2.2042	-2.3458	-2.4896	-2.2208	-2.4333	-2.5312	-2.2396	-2.6625	-2.4292	-2.3979	-2.5438	-2.1625	-2.625	229.796	405.340	351.620	110.190	181.854	150.977	317.677	280.707	71.062	201.622	74.726	415.015	76.177	99.657	248.626	148.945	0.00039172	0.0015725	0.00026662	801.22	2.1044e-05	6.1983e-06	829.1	287.87	8.6825e-06	2.3713e-06	360.58	137.15	96.894	36.39	2.1776e-05	61.08	0.0026776	0.0025364	0.00069309	1391.9	2.9991e-05	2.7573e-05	1012.6	375.36	2.9214e-05	2.7388e-05	586.32	176.38	131.92	47.482	2.7428e-05	77.735	226.527	324.648	121.689	81.443	390.389	367.256	80.896	87.064	347.846	237.295	86.249	91.114	91.815	96.661	204.594	95.419	-8191	255	
7680.638	1	1	0	0	0.02394	0.072168	0.13405	0.11052	0.34856	0.070367	0.061116	0.091059	0.16954	0.22296	0.037548	0.16856	0.32327	0.25259	0.20544	0.29906	-1.8479	-2.075	-2.6542	-2.1854	-2.0604	-2.5563	-2.2917	-2.4	-2.5	-2.1542	-2.6771	-2.4396	-2.1458	-2.8521	-2.2188	-2.3417	101.223	152.741	135.594	397.468	148.390	287.173	428.631	407.573	220.750	101.431	257.203	412.456	346.733	411.059	300.075	363.044	0.00036207	0.0010156	0.00068424	793.78	1.0373e-05	1.7656e-05	839.08	288.01	2.1391e-06	2.3697e-06	365.28	138	97.562	36.498	2.2136e-05	61.069	0.0024979	0.0023589	0.00067479	1340.3	2.5507e-05	2.3661e-05	995.98	360.61	2.3639e-05	2.2105e-05	550.6	167.15	123.28	44.75	2.382e-05	73.466	212.521	170.031	136.463	80.882	285.862	127.939	81.055	86.824	302.830	266.722	85.611	90.770	91.955	96.608	210.939	95.166	-8191	255	
7680.734	1	1	0	0	0.12343	0.33792	0.26884	0.21967	0.088676	0.15533	0.13857	0.10638	0.16431	0.11827	0.11279	0.16085	0.24243	0.17404	0.074658	0.14042	-2.0563	-2.075	-2.5896	-2.5417	-2.2146	-2.5042	-2.4625	-2.1542	-2.4875	-1.9729	-2.4979	-2.3458	-2.1271	-2.4938	-2.3229	-2.4271	360.748	365.394	217.243	147.537	365.906	214.396	345.715	273.750	313.861	266.217	397.939	386.590	405.084	423.733	322.496	240.943	0.00042796	0.0022899	0.0005921	799.29	4.727e-06	2.7723e-06	826.49	283.87	1.2744e-05	1.469e-05	358.54	136.28	96.751	36.126	1.9521e-05	59.887	0.0019931	0.0019166	0.0005958	1225.9	2.1532e-05	2.0696e-05	979.13	347.29	2.1101e-05	2.0604e-05	544.22	162.23	119.92	43.957	2.3955e-05	71.244	215.480	114.661	133.798	80.784	199.000	120.123	81.077	86.694	352.545	197.472	85.816	91.027	91.898	96.532	184.333	94.951	-8191	255	
7680.830	1	1	0	0	0.18377	0.15034	0.17258	0.068563	0.075935	0.054799	0.23405	0.12394	0.056368	0.14033	0.04008	0.15783	0.17873	0.16185	0.068545	0.059994	-2.1208	-1.9375	-2.4396	-2.5333	-2.1833	-2.5625	-2.4708	-2.1854	-2.6958	-2.1979	-2.4979	-2.4188	-2.3104	-2.8521	-2.35	-2.3271	151.406	209.154	263.159	366.230	344.815	178.601	80.717	341.700	231.809	371.163	409.249	370.440	382.360	264.502	335.223	358.737	0.00034929	0.00052989	0.00042618	786.16	1.1538e-05	1.6358e-05	823.82	283.08	7.2752e-06	1.3971e-05	354.62	135.09	96.505	36.274	2.0742e-06	60.239	0.0019161	0.0019822	0.00062998	1213.8	2.1974e-05	2.2612e-05	993.96	347.62	2.2353e-05	2.3668e-05	571.03	163.79	122.36	45.681	2.6029e-05	71.959	216.669	156.306	299.578	81.010	259.652	217.520	80.788	87.079	336.251	184.269	85.275	90.899	92.112	96.799	185.282	94.927	-8191	255	
7680.927	1	1	0	0	0.15353	0.26557	0.24946	0.2503	0.09218	0.35425	0.15839	0.11464	0.16486	0.12579	0.052206	0.22942	0.22216	0.44813	0.080358	0.24648	-2.1875	-2.1479	-2.3042	-2.4875	-2.1104	-2.5125	-2.5563	-2.3208	-2.475	-2.2542	-2.3875	-2.6437	-2.0896	-2.4292	-2.5667	-2.3125	423.598	424.435	213.921	341.812	321.375	316.434	383.672	145.442	389.283	400.289	187.620	377.507	365.263	120.221	337.948	384.113	0.00054979	0.0025073	0.00066707	790.49	1.6718e-05	1.9656e-05	822.58	283.34	8.1221e-07	1.2948e-05	355.93	136.03	97.459	36.615	2.1658e-05	60.573	0.0020087	0.0022203	0.00065143	1215.3	2.2284e-05	2.4637e-05	992.1	346.3	2.2133e-05	2.4801e-05	556.28	162.07	121.23	46.204	2.4169e-05	71.341	226.145	161.510	368.448	80.571	311.325	186.593	80.727	86.973	236.265	198.339	85.187	90.909	92.068	96.551	293.853	94.736	-8191	255	
7681.021	1	1	0	0	0.12863	0.37331	0.12142	0.19758	0.17226	0.17966	0.15448	0.13103	0.084195	0.14443	0.10913	0.25076	0.21999	0.14468	0.081247	0.24606	-2.1979	-2.2812	-2.4583	-2.5396	-2.1771	-2.6167	-2.6083	-2.2979	-2.5646	-2.3208	-2.4521	-2.5521	-2.2562	-2.4062	-2.6417	-2.0792	277.131	87.408	260.443	267.499	287.558	117.256	379.342	110.182	272.604	348.803	251.481	98.557	417.290	263.398	293.379	355.880	0.00048159	0.0011184	0.00017489	791.91	7.7221e-06	1.7232e-05	823.33	283.92	1.3054e-05	2.3199e-06	354.65	137.24	96.912	36.552	1.4662e-05	60.712	0.001958	0.0022806	0.00061049	1195	2.2299e-05	2.5427e-05	981.52	344.26	2.2283e-05	2.5405e-05	545.66	161.88	122.89	46.682	2.3418e-05	71.473	215.082	128.696	271.684	81.012	159.290	192.125	80.669	86.830	221.934	264.794	84.915	90.727	91.963	96.830	75.784	94.957	-8191	255	
7681.117	1	1	0	0	0.086434	0.25475	0.16462	0.20803	0.14603	0.063576	0.041437	0.51154	0.20218	0.22982	0.046489	0.11232	0.16391	0.059546	0.12693	0.044463	-2.1792	-2.4479	-2.3354	-2.6708	-2.2042	-2.5104	-2.6792	-2.2188	-2.6167	-2.575	-2.1667	-2.5375	-2.3063	-2.4604	-2.5146	-2.1896	267.227	211.778	266.899	330.374	390.863	137.922	332.355	398.529	103.411	157.380	233.187	182.697	406.084	388.342	77.530	396.558	0.00061569	0.00049535	0.00020363	789.3	1.6326e-05	9.8239e-06	820.76	284.49	9.7277e-06	1.0104e-05	352.73	135.33	96.759	36.002	5.446e-06	59.8	0.0020979	0.0023748	0.00060083	1196.8	2.4125e-05	2.5918e-05	975.09	343.79	2.403e-05	2.5457e-05	538.04	160.21	124.7	46.059	2.2607e-05	70.165	219.497	299.647	364.559	80.983	203.834	259.152	80.732	86.799	233.719	98.643	84.595	91.021	92.144	96.263	298.279	95.179	-8191	255	
7681.213	1	1	0	0	0.2053	0.12122	0.29616	0.15805	0.11612	0.23188	0.02478	0.2699	0.14932	0.17286	0.11535	0.20671	0.1017	0.053747	0.16706	0.20742	-2.0687	-2.1729	-2.2	-2.5729	-2.2021	-2.3167	-2.6417	-2.0833	-2.4938	-2.5938	-2.1063	-2.6021	-2.1583	-2.3125	-2.5479	-2.0812	228.643	167.317	98.390	397.801	392.889	198.015	424.051	101.616	220.776	358.228	382.647	135.449	71.163	102.334	401.782	166.217	0.00084436	0.0005907	7.1545e-05	792.7	2.1344e-05	1.3013e-05	813.03	282.53	8.1346e-06	7.3303e-06	355.43	134.72	96.714	35.78	1.6937e-05	59.741	0.002166	0.002227	0.0005628	1170.7	2.4307e-05	2.3786e-05	955.84	338.66	2.4265e-05	2.3554e-05	523.43	158.89	125.36	45.111	2.1972e-05	70.376	207.209	268.183	385.365	81.040	209.178	81.139	80.844	86.828	171.868	364.609	85.546	91.221	91.708	96.196	410.749	94.930	-8191	255	
7681.309	1	1	0	0	0.13851	0.034538	0.16873	0.19435	0.11264	0.27295	0.17867	0.088813	0.22579	0.13029	0.17928	0.24349	0.19678	0.28954	0.16597	0.086204	-2.0854	-2.4271	-1.9646	-2.6375	-2.4354	-2.2396	-2.6396	-2.2396	-2.3979	-2.45	-2.2083	-2.3438	-2.3979	-2.2188	-2.6542	-2.2729	203.078	258.331	178.290	319.447	221.746	135.686	153.055	425.453	239.838	365.597	323.896	134.846	361.808	101.373	182.819	77.915	0.00036535	0.00092251	0.00018953	785.66	1.6911e-05	1.2635e-05	814.78	282.77	6.8205e-06	6.5853e-06	349.36	135.75	96.411	36.002	4.0677e-06	60.109	0.0022376	0.0021306	0.00055203	1195	2.5348e-05	2.3298e-05	956.77	345.19	2.5531e-05	2.3267e-05	525.55	162.58	126.07	45.007	2.1681e-05	71.89	221.950	343.095	250.657	81.332	152.664	196.146	80.720	86.570	354.592	286.804	85.420	90.893	91.940	96.277	134.736	95.168	-8191	255	
7681.430	1	1	0	0	0.27863	0.14894	0.14314	0.10428	0.094761	0.4154	0.16933	0.26282	0.038886	0.062493	0.19936	0.14567	0.15898	0.11493	0.15543	0.33946	-1.9375	-2.4417	-2.0104	-2.425	-2.3271	-1.9354	-2.5979	-2.5229	-2.2833	-2.3438	-2.1875	-2.5104	-2.5521	-2.225	-2.5542	-2.4292	152.665	290.286	105.363	401.534	248.738	94.020	271.010	87.171	108.833	272.507	202.043	345.828	419.888	399.837	365.844	397.655	0.00014419	0.0013087	0.00026529	790.97	1.0179e-05	8.1581e-06	819.11	284.49	6.4855e-06	5.3027e-06	354.25	136.39	96.263	36.126	2.7931e-05	59.773	0.0022397	0.0020862	0.00055835	1232.8	2.5115e-05	2.2875e-05	957.22	351.78	2.5173e-05	2.339e-05	534.08	166.94	126.92	45.545	2.3401e-05	74.282	258.379	172.851	184.789	80.918	363.729	332.329	80.953	86.910	169.629	156.992	85.286	91.057	91.738	96.502	193.412	95.211	-8191	255	
7681.526	1	1	0	0	0.30259	0.21237	0.10289	0.1814	0.26374	0.051903	0.048397	0.31463	0.24493	0.2283	0.22165	0.17517	0.052883	0.13658	0.084538	0.16551	-1.725	-2.6604	-2.1063	-2.3479	-2.4583	-2.0146	-2.5542	-2.3354	-2.2292	-2.5146	-2.125	-2.3812	-2.675	-2.0417	-2.5812	-2.3229	273.893	204.086	120.344	414.386	233.433	334.183	107.262	69.085	232.337	297.634	331.765	80.667	107.595	374.317	405.694	383.055	0.00030194	0.0011662	0.0004024	795.86	9.0917e-06	5.9499e-06	825.34	284.72	1.2407e-05	1.3557e-05	358.79	135.34	96.096	35.726	1.5908e-05	59.721	0.002332	0.0022097	0.0006079	1298.1	2.5488e-05	2.3632e-05	978.29	359.26	2.4777e-05	2.3106e-05	543.23	166.92	123.47	44.362	2.2641e-05	72.488	229.143	181.165	179.591	80.506	186.627	353.214	80.899	86.453	150.392	283.784	85.791	91.277	92.056	96.461	213.927	95.273	-8191	255	
7681.622	1	1	0	0	0.24466	0.13576	0.19416	0.13576	0.072062	0.061745	0.2281	0.15804	0.1504	0.065397	0.23558	0.092528	0.17518	0.13322	0.23595	0.17348	-1.8396	-2.5979	-2.2104	-2.4437	-2.5604	-2.1667	-2.6146	-2.525	-2.425	-2.6146	-2.1437	-2.3708	-2.4417	-2.1813	-2.4688	-2.2896	254.813	383.103	342.472	98.942	363.996	163.867	137.055	333.022	299.405	387.567	144.255	307.637	347.852	399.098	122.026	310.618	0.00033828	0.00085567	0.00024804	782.02	3.6227e-06	3.7718e-06	815.14	283.04	1.7062e-06	6.5718e-06	355.21	134.56	95.576	35.534	1.3075e-05	59.48	0.0020007	0.0019232	0.00056793	1224	2.1506e-05	2.0225e-05	955.3	344.24	2.0667e-05	1.9498e-05	522.91	159.77	117.98	42.781	2.1828e-05	70.047	224.316	208.056	165.058	80.569	253.029	236.808	80.698	86.829	226.741	119.537	85.614	90.659	92.321	96.573	188.903	95.027	-8191	255	
7681.718	1	1	0	0	0.30216	0.18403	0.25207	0.076688	0.12912	0.23291	0.32139	0.24329	0.191	0.16594	0.19822	0.051741	0.18532	0.070462	0.095049	0.053644	-1.6854	-2.6625	-2.2792	-2.4292	-2.4688	-2.2375	-2.4771	-2.4333	-2.1625	-2.4917	-2.4104	-2.35	-2.4729	-2.3396	-2.4167	-2.6625	370.052	339.340	245.902	428.176	373.222	174.692	364.793	90.456	370.826	225.107	100.538	396.654	325.224	73.728	209.870	361.462	0.00040862	0.0011785	0.0008348	784.18	1.3734e-05	1.0034e-05	816.33	282.93	5.3162e-06	1.0709e-05	355.01	134.07	95.565	35.842	1.0754e-05	59.369	0.0018203	0.001792	0.00057376	1185.1	2.0558e-05	2.0087e-05	963.67	342.77	2.0804e-05	2.0817e-05	548.91	161.11	120.15	44.348	2.5394e-05	71.574	230.882	189.019	158.492	80.522	243.144	180.138	81.015	86.550	90.468	229.334	85.914	91.035	91.931	96.786	219.425	94.955	-8191	255	
7681.815	1	1	0	0	0.098453	0.22479	0.23366	0.2216	0.21605	0.14759	0.083882	0.05517	0.17529	0.12387	0.30336	0.13971	0.069808	0.12022	0.088245	0.12168	-1.6792	-2.3083	-2.2625	-2.1	-2.6646	-2.2104	-2.5792	-2.5021	-1.9521	-2.4854	-2.3354	-2.3583	-2.6646	-2.3312	-2.3458	-2.6063	209.038	195.468	278.518	173.808	364.978	423.067	307.029	401.426	79.351	75.835	309.782	293.094	315.489	92.418	306.868	87.728	0.00033093	0.0021071	0.00021902	788.15	1.3722e-05	2.9398e-05	815.57	284.46	1.3915e-06	1.4333e-05	355.49	135.39	96.482	36.288	8.2524e-06	59.668	0.0020007	0.0021016	0.00065365	1218.6	2.2264e-05	2.3502e-05	989.52	347.36	2.2039e-05	2.3442e-05	558.48	161.17	120.24	45.21	2.4623e-05	71.034	201.792	153.287	89.660	80.899	390.750	214.391	80.540	86.781	125.592	225.179	85.626	91.201	92.067	96.777	409.109	95.061	-8191	255	
7681.911	1	1	0	0	0.20029	0.21586	0.034252	0.28204	0.13695	0.5302	0.13605	0.070343	0.2542	0.23296	0.23641	0.15577	0.23482	0.12054	0.1413	0.22922	-1.7354	-2.5125	-2.3063	-2.2354	-2.6167	-2.1458	-2.425	-2.5146	-2.15	-2.4583	-2.5312	-2.1771	-2.6375	-2.2812	-2.1792	-2.8042	396.068	187.503	83.300	291.799	338.017	322.364	133.314	315.755	255.369	146.190	196.659	420.891	415.412	138.439	179.232	385.672	0.00039961	0.0009613	0.00012866	786.74	3.5587e-06	6.395e-06	814.01	282.85	9.1594e-06	2.6357e-05	353.36	135.4	97.161	36.506	9.6887e-06	59.793	0.0019508	0.0022285	0.00064314	1213.7	2.2538e-05	2.5757e-05	995.4	351.5	2.4205e-05	2.7824e-05	583.02	165.35	125.52	47.899	2.6844e-05	72.761	207.392	203.513	428.401	80.758	174.643	127.552	80.892	86.652	157.627	222.154	85.407	91.058	91.985	96.508	144.940	95.137	-8191	255	
7682.031	1	1	0	0	0.17928	0.16878	0.047597	0.2129	0.16926	0.18682	0.042539	0.18028	0.15146	0.075378	0.17941	0.069569	0.2052	0.12899	0.24059	0.16862	-1.6354	-2.5	-2.3333	-2.2521	-2.5104	-2.4417	-2.5104	-2.7521	-2.2729	-2.4354	-2.475	-2.3125	-2.6021	-2.6271	-1.9708	-2.8021	383.684	266.795	114.405	364.930	142.484	416.212	417.830	404.940	411.630	216.528	397.455	409.497	101.770	363.768	71.438	89.486	0.00050121	0.00086311	0.00062092	783.73	2.0404e-05	1.2869e-05	815.06	281	2.0796e-05	5.4099e-06	345.39	134.04	95.894	35.753	1.25e-05	58.933	0.0022253	0.0025766	0.00067622	1247.4	2.5306e-05	2.888e-05	999.46	353.65	2.6644e-05	2.9783e-05	573.91	163.26	125.37	46.482	2.2996e-05	69.15	218.398	199.299	349.249	80.591	157.151	219.683	80.790	86.749	222.605	166.534	85.631	91.185	92.200	96.460	399.771	95.089	-8191	255	
7682.126	1	1	0	0	0.22487	0.087784	0.25362	0.12102	0.20914	0.04593	0.28681	0.058142	0.14088	0.16725	0.22996	0.33539	0.23972	0.1812	0.154	0.10989	-1.7292	-2.2042	-2.5604	-2.0187	-2.5417	-2.4688	-2.4042	-2.7625	-2.2479	-2.3063	-2.7042	-2.2208	-2.6729	-2.5208	-2.0875	-2.7646	71.816	69.091	224.971	394.799	368.244	81.183	419.851	215.403	353.562	269.050	388.816	353.802	97.271	326.153	94.636	284.207	0.00053988	0.00013633	0.00023973	785.13	1.4697e-05	9.4683e-06	809.24	282.44	9.2154e-06	1.4194e-05	351.31	134.51	95.865	35.97	2.3637e-06	59.884	0.0019622	0.0020703	0.00050847	1097.9	1.9721e-05	2.0414e-05	917.16	324.91	1.9921e-05	2.0815e-05	497.15	154.72	119.96	44.212	1.965e-05	68.434	214.846	342.371	234.809	80.303	168.708	418.744	80.731	86.963	242.538	389.598	85.589	90.907	92.229	96.741	368.573	95.167	-8191	255	
7682.222	1	1	0	0	0.1677	0.10056	0.098844	0.27327	0.26876	0.013809	0.30007	0.096495	0.23577	0.11861	0.097494	0.11554	0.038865	0.16464	0.13388	0.22724	-1.8083	-2.2583	-2.55	-2.075	-2.5375	-2.3708	-2.3354	-2.725	-2.3521	-2.2458	-2.6625	-2.3625	-2.4417	-2.6083	-2.4333	-2.4854	404.855	390.015	90.688	414.712	118.562	372.442	376.323	106.097	345.749	296.559	85.664	74.022	113.579	394.049	272.231	422.731	0.00069859	0.00087502	0.00028735	777.77	1.2329e-05	4.7365e-06	807.33	282.32	1.8014e-05	1.477e-05	355.33	137.34	97.028	36.726	9.5925e-06	61.885	0.0018973	0.0018579	0.00046707	1080.4	1.9517e-05	1.8394e-05	904.33	321.98	1.8356e-05	1.6903e-05	460.47	151.82	115.05	42.045	1.4614e-05	67.055	209.172	351.385	275.667	80.799	167.319	116.047	81.065	86.901	237.161	328.483	86.237	91.071	92.377	96.578	156.962	95.106	-8191	255	
7682.318	1	1	0	0	0.20302	0.13825	0.080808	0.16566	0.064108	0.080371	0.27855	0.29778	0.13454	0.12357	0.11181	0.23358	0.20389	0.13205	0.21499	0.034735	-1.8687	-2.0875	-2.6292	-2.3563	-2.2604	-2.5479	-2.2333	-2.5729	-2.3667	-2.2313	-2.5125	-2.1708	-2.2188	-2.5312	-2.0729	-2.5375	101.117	106.719	353.813	248.521	108.238	251.015	332.312	89.392	131.631	193.740	300.226	72.572	299.033	424.777	412.345	116.405	0.00048658	0.00067087	0.00044045	779.73	8.109e-06	6.0544e-06	808.29	285.63	8.6045e-06	3.4849e-06	352.89	138.15	97.404	36.56	5.0258e-06	61.228	0.0014591	0.0013508	0.00035262	1014.3	1.5941e-05	1.4521e-05	882.6	318.88	1.6254e-05	1.5188e-05	454.49	154.67	116.96	42.927	1.7599e-05	70.838	198.939	70.306	231.510	81.274	176.393	151.757	81.031	86.931	315.707	401.844	85.809	91.125	92.204	96.409	69.912	95.125	-8191	255	
7682.414	1	1	0	0	0.24079	0.2631	0.16297	0.37532	0.10592	0.11856	0.20159	0.0054292	0.17373	0.16066	0.20024	0.19171	0.28264	0.29984	0.17723	0.2197	-2.0021	-2.1646	-2.6042	-2.0979	-2.3521	-2.5354	-2.2958	-2.5563	-2.4813	-2.1542	-2.7042	-2.5146	-2.5083	-2.9021	-2.2979	-2.575	136.787	414.175	79.072	119.726	148.789	114.216	353.364	82.751	136.242	96.388	274.081	378.482	392.238	246.399	212.670	389.619	0.00048034	0.00062132	0.00047748	793.77	2.2978e-05	7.8742e-06	818.96	281.99	9.2725e-06	1.106e-05	347.94	132.74	95.574	35.521	1.5473e-05	58.259	0.0020089	0.0019722	0.00054761	1255.5	2.6218e-05	2.5106e-05	980.15	363.7	2.9095e-05	2.7822e-05	582.97	174.44	135.38	48.576	3.1329e-05	79.162	225.975	275.349	226.486	80.839	339.153	370.113	80.985	86.528	367.715	356.784	85.437	90.838	91.703	96.364	201.901	94.832	-8191	255	
7682.510	1	1	0	0	0.3238	0.023362	0.31684	0.11844	0.26653	0.05429	0.13532	0.20761	0.080718	0.22121	0.12152	0.12478	0.34304	0.2204	0.14516	0.16203	-2.175	-2.1813	-2.4208	-2.3771	-2.4375	-2.6958	-2.3292	-2.6146	-2.45	-2.2146	-2.6521	-2.3688	-2.3292	-2.6042	-2.15	-2.4688	79.031	405.619	393.278	162.368	400.985	105.877	279.148	276.446	368.128	75.369	335.179	144.851	408.194	145.227	94.490	75.638	6.9996e-05	0.00085916	0.00061696	781.82	9.0764e-06	1.2975e-06	811.5	276.67	1.4447e-05	1.0676e-05	348.91	131.18	93.835	35.199	1.5691e-05	58.021	0.0030309	0.0028612	0.00078616	1438.5	2.9901e-05	2.7122e-05	988.43	357.86	2.4613e-05	2.2331e-05	522.02	158.4	116.95	41.95	1.9234e-05	67.364	247.062	414.011	151.891	81.012	373.864	363.848	80.988	86.919	338.026	181.683	86.327	91.198	91.836	96.682	192.545	95.047	-8191	255	
7682.607	1	1	0	0	0.21927	0.12805	0.16655	0.1237	0.19389	0.079211	0.049268	0.09293	0.3352	0.19734	0.21683	0.19097	0.082632	0.20958	0.21435	0.19217	-2.0896	-2.075	-2.4667	-2.3604	-2.1458	-2.6583	-2.3979	-2.375	-2.4458	-2.2125	-2.5896	-2.3833	-2.0875	-2.7479	-2.3771	-2.5062	130.467	262.343	293.217	120.469	130.255	376.741	282.573	406.625	77.513	269.278	86.905	373.541	111.835	159.079	185.953	164.075	0.00025981	0.0006889	0.00030278	765.91	7.3135e-06	1.0323e-05	796.66	278.26	3.8625e-06	3.1194e-06	350.25	131.85	95.312	35.587	1.6611e-05	59.028	0.0015528	0.001456	0.00042749	1054.4	1.4748e-05	1.3688e-05	876.9	311.98	1.3353e-05	1.2878e-05	442.11	145.83	107.54	39.489	1.4726e-05	64.455	198.600	192.303	94.726	81.145	213.501	275.965	80.801	86.410	169.873	275.663	85.395	90.936	91.930	96.605	218.215	95.016	-8191	255	
7682.727	1	1	0	0	0.15312	0.23839	0.084967	0.11378	0.1753	0.11186	0.089009	0.29353	0.17714	0.057082	0.10247	0.053429	0.29713	0.25248	0.26908	0.19827	-2.225	-2.0479	-2.3812	-2.5208	-2.1333	-2.4646	-2.45	-2.3979	-2.7521	-2.1542	-2.6	-2.5979	-2.1	-2.6562	-2.35	-2.2313	368.691	226.543	131.679	240.925	75.598	423.325	270.662	356.939	322.352	319.053	417.198	162.130	378.342	97.310	200.042	324.852	0.00042364	0.00089736	0.00052564	764.37	1.0399e-06	5.4017e-06	800.64	279.79	5.6742e-06	1.5898e-05	349.96	133.12	94.841	35.215	1.0937e-05	58.833	0.0012126	0.0012188	0.00039182	1014.6	1.4082e-05	1.437e-05	897.28	317.13	1.5342e-05	1.6103e-05	490.08	151.75	113.28	42.076	2.1218e-05	68.273	215.491	151.939	149.396	80.316	395.001	317.145	80.863	86.951	323.553	249.687	85.564	90.940	92.311	96.486	168.821	95.064	-8191	255	
7682.823	1	1	0	0	0.069679	0.10562	0.15019	0.16649	0.30865	0.18497	0.15399	0.18119	0.19766	0.159	0.1296	0.19434	0.13401	0.18906	0.055702	0.13026	-2.2208	-2.2771	-2.3375	-2.7229	-2.1167	-2.5083	-2.3396	-2.2771	-2.6479	-2.375	-2.2375	-2.6292	-2.2938	-2.5062	-2.5521	-2.1688	192.156	275.143	211.842	265.041	235.410	87.410	384.488	281.254	200.728	314.945	240.786	310.470	394.760	83.966	242.899	111.275	0.00037582	0.0021025	4.9095e-05	776.81	7.3848e-06	1.4541e-05	806.25	282.25	3.5492e-06	1.5283e-05	349.57	134.4	95.88	35.568	7.3373e-06	59.005	0.0017382	0.0019043	0.00058888	1160.3	2.0005e-05	2.1453e-05	954.99	335.94	1.9475e-05	2.1244e-05	525	156.01	115.75	43.347	2.0931e-05	67.55	220.000	189.115	177.081	80.652	307.000	170.318	80.834	86.667	214.288	230.703	85.691	90.781	92.051	96.522	139.550	95.249	-8191	255	
7682.895	1	1	0	0	0.16293	0.041063	0.35949	0.27249	0.21778	0.07392	0.051216	0.13134	0.148	0.18796	0.18909	0.20671	0.37008	0.095715	0.16914	0.17641	-2.0167	-2.0375	-2.4125	-2.425	-2.0042	-2.3917	-2.4104	-2.0167	-2.4854	-2.3229	-2.1833	-2.4167	-2.1208	-2.4313	-2.3833	-2.2354	160.295	386.689	295.976	307.724	111.154	247.210	153.039	230.883	270.759	410.338	331.067	412.653	101.178	359.618	249.090	335.469	0.0004658	0.00083956	0.0002229	781.66	9.0729e-06	1.2935e-05	799.06	279.4	1.366e-05	1.1413e-05	348.31	132.12	94.969	35.269	1.8055e-05	58.229	0.0016116	0.0018072	0.00048869	1077.4	1.6733e-05	1.8856e-05	909.85	319.71	1.6069e-05	1.8057e-05	468.62	147.22	109.46	41.049	1.5481e-05	63.468	200.774	88.175	350.923	81.067	233.046	195.227	80.991	86.613	190.759	207.090	85.763	90.887	91.942	96.551	408.584	95.257	-8191	255	
7682.991	1	1	0	0	0.22265	0.19953	0.10007	0.40613	0.27586	0.11527	0.27866	0.14992	0.15337	0.16963	0.1367	0.4225	0.044488	0.2482	0.16745	0.18852	-2.2729	-2.2771	-2.0979	-2.3479	-2.1	-2.3208	-2.2896	-2.0812	-2.5812	-2.3	-2.2687	-2.6521	-2.3875	-2.3854	-2.3375	-2.2792	143.053	170.804	106.829	189.115	117.707	259.506	401.730	220.058	370.422	223.369	288.373	398.816	342.222	363.539	204.957	374.843	0.00049786	0.0012472	0.00020067	770.54	1.5828e-05	1.4407e-05	796.59	278.6	9.976e-06	8.1592e-06	346.02	131.14	95.037	35.276	7.4679e-06	57.457	0.0012945	0.0014541	0.00036581	982.89	1.3622e-05	1.5158e-05	870.79	306.5	1.4065e-05	1.5658e-05	442.06	143.98	109.59	40.769	1.485e-05	62.995	211.862	107.312	307.510	81.098	190.358	330.650	80.756	86.861	232.167	156.357	85.387	90.890	91.722	96.584	158.903	95.363	-8191	255	
7683.112	1	1	0	0	0.027056	0.16128	0.017071	0.34368	0.16771	0.14398	0.19152	0.094565	0.12145	0.11006	0.19853	0.077874	0.31071	0.076223	0.2914	0.207	-2.0604	-2.4875	-2.1229	-2.5958	-2.1937	-2.375	-2.6208	-2.0938	-2.525	-2.5604	-2.0708	-2.5312	-2.2458	-2.2854	-2.5396	-2.4313	279.684	427.747	268.773	214.467	200.735	160.955	396.760	190.772	121.849	273.271	325.126	116.730	79.195	317.284	294.346	153.400	0.00058466	0.00042778	1.7852e-05	771.66	1.6914e-05	3.5211e-06	799.51	278.81	7.3843e-06	1.0214e-05	344.45	131.2	94.764	35.424	1.0717e-05	58.149	0.0014138	0.0015138	0.00038499	1008.6	1.6518e-05	1.6994e-05	886.18	312.73	1.7002e-05	1.7104e-05	453.83	145.64	112.89	41.254	1.5582e-05	64.136	213.024	226.522	386.026	80.947	157.612	392.953	80.535	86.868	188.774	376.052	86.497	91.298	91.906	96.328	246.321	95.293	-8191	255	
7683.206	1	1	0	0	0.14366	0.22724	0.19816	0.078607	0.35014	0.21862	0.41891	0.14503	0.062884	0.073141	0.15638	0.069366	0.11522	0.1538	0.063069	0.3406	-2.1771	-2.3292	-2.2	-2.5875	-2.2333	-2.3125	-2.7333	-2.275	-2.4979	-2.4646	-2.1417	-2.6271	-2.3063	-2.3312	-2.7542	-2.2208	166.989	172.776	84.699	92.682	390.243	379.812	363.692	405.845	137.142	115.228	312.098	112.562	84.927	95.453	288.329	386.058	0.0006071	0.00074337	0.00017121	779.62	8.6085e-06	9.9573e-06	796.39	278.48	6.3097e-06	4.8332e-06	346.58	131.15	94.531	34.97	1.1762e-05	57.525	0.0015908	0.0015555	0.00040231	1036.5	1.805e-05	1.6822e-05	888.37	315.74	1.7902e-05	1.6604e-05	452.76	146.68	113.39	40.609	1.5159e-05	63.895	211.397	360.260	367.843	80.529	167.301	377.470	80.917	86.977	158.164	346.911	85.103	91.150	92.036	96.590	80.629	94.916	-8191	255	
7683.302	1	1	0	0	0.23324	0.127	0.23809	0.34728	0.02268	0.13783	0.23626	0.30634	0.29552	0.021883	0.26358	0.44204	0.13018	0.17844	0.13703	0.11389	-1.9083	-2.3708	-1.9917	-2.4333	-2.3125	-2.1021	-2.5583	-2.2208	-2.1146	-2.5146	-2.2812	-2.5083	-2.275	-2.1771	-2.6604	-2.3354	426.650	424.146	301.379	421.542	305.416	206.110	281.579	395.569	244.941	126.687	165.338	85.359	87.206	231.338	393.102	372.837	0.0004909	0.00039468	9.6792e-05	776.71	7.0048e-06	1.2298e-05	796.14	277.14	6.2116e-06	3.9639e-06	340.92	129.86	93.34	34.766	7.2927e-06	56.974	0.0015267	0.0014025	0.00036537	1024.7	1.6146e-05	1.453e-05	865.42	310.81	1.5342e-05	1.381e-05	421.73	142.71	107.49	38.722	1.231e-05	62.161	201.242	259.028	84.580	80.663	195.990	114.270	80.890	86.589	141.700	131.148	85.558	90.987	92.093	96.432	103.753	95.229	-8191	255	
7683.398	1	1	0	0	0.21721	0.087328	0.02259	0.30332	0.21657	0.27563	0.21434	0.1451	0.25798	0.056135	0.21749	0.17579	0.28423	0.27342	0.1273	0.075998	-1.75	-2.7604	-2.2229	-2.55	-2.3667	-2.1604	-2.6146	-2.2729	-2.2771	-2.7438	-2.1479	-2.7438	-2.4625	-2.1	-2.6646	-2.4875	361.912	129.596	326.897	428.859	248.278	344.082	380.420	248.636	161.077	208.722	73.712	382.461	94.235	407.157	352.308	319.215	0.00042816	0.00033996	0.00018136	772.6	6.3325e-06	5.5145e-06	787.48	274.29	9.9205e-06	1.1708e-05	342.14	131	94.723	35.6	2.0303e-06	58.079	0.0012352	0.0011523	0.00031088	984.53	1.3487e-05	1.2566e-05	847.99	306.47	1.3446e-05	1.255e-05	417.57	144.1	106.99	39.18	1.2677e-05	63.462	214.896	167.179	159.520	81.114	382.556	420.084	80.642	86.862	103.122	265.936	85.461	90.902	91.926	96.517	347.839	95.145	-8191	255	
7683.519	1	1	0	0	0.091871	0.32318	0.17673	0.044564	0.16604	0.1661	0.1819	0.14044	0.082305	0.23389	0.20012	0.10936	0.20376	0.12206	0.22148	0.1038	-1.85	-2.4542	-2.2125	-2.4104	-2.4479	-1.9312	-2.6625	-2.3833	-2.1854	-2.4396	-2.1771	-2.4771	-2.5687	-2.3292	-2.4667	-2.5438	80.989	232.538	108.935	263.833	284.626	297.051	74.600	390.156	162.899	212.575	174.495	373.701	126.396	166.988	380.531	102.580	0.00040053	0.00064495	0.00017811	770.79	4.2758e-06	6.1845e-06	794.34	276.37	5.2439e-06	6.8554e-07	348.13	131.62	95.268	36.004	7.0219e-06	58.747	0.0011728	0.00112	0.00032559	992.84	1.3016e-05	1.2405e-05	859.41	311.65	1.3803e-05	1.3425e-05	446.41	148.17	110.08	40.719	1.648e-05	66.54	216.092	237.768	171.325	80.805	376.447	284.322	81.098	86.620	382.455	212.145	85.589	90.960	92.025	96.476	214.457	95.251	-8191	255	
7683.591	1	1	0	0	0.038519	0.19289	0.13363	0.13328	0.044472	0.25261	0.29412	0.16418	0.12982	0.067025	0.13558	0.10966	0.28333	0.27662	0.1455	0.036215	-1.7729	-2.3396	-2.2542	-2.3646	-2.4229	-2.2104	-2.4708	-2.5438	-2.225	-2.5479	-2.1917	-2.3958	-2.6021	-2.2062	-2.6021	-2.5458	357.557	321.392	190.316	290.073	419.633	69.221	76.504	406.229	94.600	338.195	112.719	272.789	288.469	427.016	361.288	229.638	0.00044815	0.00057862	0.0003958	765.34	6.1977e-06	9.483e-06	799.69	279.3	1.7146e-06	5.5657e-06	348.53	132.6	95.465	36.118	1.15e-05	59.116	0.0014725	0.001457	0.0004622	1096.5	1.7605e-05	1.714e-05	918.07	329.42	1.8453e-05	1.8039e-05	505.56	154.56	115.42	42.604	2.0799e-05	68.283	224.638	89.246	160.499	80.906	406.899	140.797	80.972	86.642	349.964	351.450	85.897	90.825	92.355	96.490	179.551	95.202	-8191	255	
7683.711	1	1	0	0	0.22832	0.34311	0.085845	0.095418	0.057963	0.21937	0.18802	0.050691	0.1374	0.043371	0.1973	0.051298	0.24223	0.29539	0.337	0.37701	-1.7563	-2.5125	-2.2958	-2.225	-2.6604	-2.2125	-2.6354	-2.6021	-2.1083	-2.5062	-2.4375	-2.3312	-2.6375	-2.1458	-2.2458	-2.6125	126.706	304.518	282.235	110.778	390.340	265.810	424.037	420.539	389.969	203.586	310.281	373.753	345.010	69.546	128.939	360.230	0.00044781	0.0015361	0.00053968	772.8	7.7934e-06	1.09e-05	796.11	278.37	6.591e-06	7.8767e-06	347.57	131.85	94.452	35.655	9.2335e-06	58.302	0.001652	0.0016747	0.00052449	1103.6	1.7557e-05	1.7569e-05	915.26	321.6	1.6147e-05	1.6412e-05	477.91	147.64	109.71	40.955	1.7324e-05	64.612	220.351	145.709	99.185	80.969	143.123	209.927	80.716	86.701	349.885	182.140	85.618	91.181	92.124	96.726	163.735	94.573	-8191	255	
7683.808	1	1	0	0	0.085156	0.071041	0.046612	0.15321	0.16005	0.23368	0.17528	0.1287	0.021866	0.091925	0.074449	0.33529	0.092019	0.16824	0.14777	0.044803	-1.6458	-2.6792	-2.3625	-2.1875	-2.5938	-2.3438	-2.4562	-2.5354	-2.1437	-2.5062	-2.3187	-2.2354	-2.7938	-2.2375	-2.4083	-2.5458	243.707	255.102	375.415	128.924	426.382	367.039	196.243	392.534	113.095	341.012	151.847	362.096	403.089	156.644	377.932	413.325	0.00037548	0.001977	0.00019891	761.24	9.1079e-06	2.3656e-05	791.98	278.03	1.3311e-05	1.7666e-05	341.23	131.05	94.526	35.373	1.0259e-05	58.056	0.0013292	0.0014577	0.00042746	1016.5	1.4402e-05	1.5796e-05	883.68	310.17	1.4002e-05	1.5383e-05	448.3	143.35	106.3	40.089	1.3867e-05	62.283	209.341	157.731	143.711	81.006	85.202	252.772	80.849	86.815	297.310	213.958	85.856	90.590	91.819	96.447	126.701	95.136	-8191	255	
7683.904	1	1	0	0	0.044619	0.067846	0.033392	0.13033	0.081036	0.13879	0.080544	0.24956	0.20572	0.034763	0.11836	0.090411	0.30861	0.244	0.30702	0.10061	-1.5854	-2.3104	-2.275	-2.0729	-2.6271	-2.2667	-2.4104	-2.6292	-2.1542	-2.4938	-2.3896	-2.1229	-2.5542	-2.2938	-2.2792	-2.6125	268.109	90.852	368.816	347.769	108.186	370.304	94.620	428.317	123.171	367.553	346.140	368.666	416.706	339.957	125.762	110.637	0.00057808	0.000651	0.00014238	767.74	8.9161e-06	4.4381e-06	787.21	278.14	1.2167e-05	1.2973e-06	345.9	132.07	96.037	35.839	1.1926e-05	58.667	0.0010928	0.001235	0.00032581	939.15	1.1388e-05	1.2834e-05	845.02	298.49	1.1286e-05	1.2719e-05	414.24	140.11	104.41	39.531	1.1612e-05	61.672	210.085	133.868	184.993	80.741	125.821	166.663	80.791	86.891	259.615	211.128	85.652	90.937	92.177	96.447	405.197	95.043	-8191	255	
7684.000	1	1	0	0	0.11069	0.021909	0.12158	0.40602	0.12549	0.042195	0.042821	0.15768	0.17124	0.078797	0.10409	0.20472	0.079765	0.1147	0.10868	0.22685	-1.4979	-2.3625	-2.3375	-2.1146	-2.4167	-2.2375	-2.3083	-2.6625	-2.1521	-2.2333	-2.4125	-2.1312	-2.4896	-2.4104	-2.0667	-2.575	220.388	198.509	332.411	357.044	269.709	380.180	195.798	352.831	224.759	355.293	407.449	392.490	244.624	85.214	112.381	305.744	0.00053491	0.0005309	0.00027971	767.07	4.6764e-06	3.9692e-06	787.76	276.53	1.6587e-05	1.2212e-05	346.79	131.93	95.419	35.798	8.8041e-06	58.869	0.0010493	0.0011738	0.00030161	930.2	1.2053e-05	1.3028e-05	845.3	298.76	1.2527e-05	1.3331e-05	420.04	141.28	107.46	40.321	1.3028e-05	62.859	208.330	203.380	398.383	81.277	168.095	168.551	80.897	86.846	200.918	148.396	86.103	90.889	91.911	96.304	289.442	95.390	-8191	255	
7684.119	1	1	0	0	0.21547	0.17174	0.24884	0.36299	0.22594	0.43319	0.26565	0.13713	0.31649	0.12189	0.11849	0.20759	0.31353	0.31912	0.14065	0.14416	-1.7458	-2.2562	-2.425	-2.2146	-2.3979	-2.2812	-2.0833	-2.55	-2.0521	-2.0875	-2.5187	-2.1354	-2.3937	-2.5	-2.1688	-2.6937	95.736	197.904	122.750	410.632	278.663	293.803	146.967	355.338	127.463	220.627	413.348	395.320	258.189	409.523	288.723	324.625	0.00056786	0.0012764	0.00019681	774.13	1.1013e-05	2.8689e-06	793.47	277.58	2.7275e-06	1.6928e-05	344.18	132.8	95.632	35.654	6.5272e-06	58.841	0.0012866	0.0013321	0.00034468	976.91	1.5185e-05	1.5161e-05	868.33	308.95	1.603e-05	1.5625e-05	444.73	146.22	112.54	41.225	1.4938e-05	64.379	230.991	273.853	155.583	80.836	231.876	69.293	81.026	86.839	91.061	382.844	85.696	91.065	92.183	96.470	230.493	94.992	-8191	255	
7684.190	1	1	0	0	0.33414	0.20797	0.23992	0.13643	0.29913	0.065026	0.18248	0.28236	0.10464	0.24106	0.11832	0.090484	0.16432	0.25102	0.019482	0.28923	-1.8396	-1.9896	-2.5167	-2.3042	-2.3646	-2.3917	-2.2375	-2.5854	-2.2771	-2.1521	-2.6667	-2.3063	-2.3875	-2.3937	-2.0125	-2.5521	392.090	365.828	380.678	110.743	198.575	219.647	359.678	250.319	342.598	424.626	324.578	376.724	88.981	265.664	367.666	317.617	0.0006352	0.0017251	0.00010175	775.87	1.0695e-05	1.2481e-05	789.58	276.76	7.8315e-06	8.7045e-06	342.76	130.5	94.449	35.014	3.7748e-06	57.486	0.0015396	0.001459	0.00038082	1021	1.7245e-05	1.5847e-05	870.48	312.88	1.7153e-05	1.5551e-05	441.94	145.78	112.24	40.362	1.4624e-05	64.006	211.019	350.661	206.273	81.075	284.848	418.399	80.928	86.878	357.013	129.260	85.481	90.974	91.972	96.451	210.913	95.177	-8191	255	
7684.287	1	1	0	0	0.089055	0.26765	0.10626	0.15862	0.29822	0.053557	0.15297	0.27459	0.082746	0.20988	0.17448	0.13945	0.12534	0.23766	0.28759	0.23591	-1.9271	-2.1229	-2.5771	-2.1125	-2.3104	-2.6146	-2.2562	-2.6375	-2.4833	-2.1833	-2.4646	-2.3667	-2.1688	-2.475	-2.0271	-2.3583	398.911	238.879	93.392	217.626	149.521	329.848	360.811	70.161	366.891	89.451	232.099	295.467	401.954	137.512	404.995	345.208	0.00050488	0.00075456	0.00027864	766.94	1.2666e-05	5.6253e-06	780.45	275.34	9.1864e-06	3.9161e-06	339.12	129.5	94.565	35.338	1.5272e-05	57.536	0.0015011	0.0013909	0.00036785	1033.3	1.6632e-05	1.5332e-05	864.38	315.34	1.694e-05	1.5511e-05	444.69	147.67	111.85	40.59	1.5101e-05	64.977	182.443	320.474	384.179	81.057	123.126	276.933	80.889	86.897	72.615	131.728	84.935	91.015	91.950	96.402	191.347	94.963	-8191	255	
7684.383	1	1	0	0	0.19411	0.10785	0.13357	0.061901	0.25983	0.20308	0.20411	0.049089	0.10914	0.18149	0.0095259	0.30868	0.071458	0.11014	0.26146	0.19875	-2.1417	-2.0146	-2.6708	-2.0979	-2.2479	-2.7667	-2.2979	-2.3292	-2.3042	-2.25	-2.5375	-2.3021	-2.2458	-2.7542	-2.2333	-2.5146	112.159	268.635	364.441	355.444	235.566	323.640	384.852	359.177	237.033	364.960	161.723	365.942	292.617	182.883	111.623	163.009	0.00044731	8.0219e-05	0.00017489	769.5	7.2421e-06	3.0679e-06	784.33	276.94	3.1411e-06	2.2549e-06	341.97	129.96	94.182	35.373	1.8326e-05	57.728	0.0014717	0.0013851	0.00037921	1056.3	1.6241e-05	1.5224e-05	873.84	319.78	1.6496e-05	1.5517e-05	452.8	148.85	110.95	40.492	1.5836e-05	65.345	194.193	140.050	189.513	80.689	390.848	330.539	81.212	86.695	133.117	170.852	85.443	90.858	91.997	96.638	214.876	94.860	-8191	255	
7684.503	1	1	0	0	0.18488	0.059858	0.050955	0.27069	0.21065	0.066419	0.15353	0.38011	0.3288	0.27729	0.093045	0.27248	0.26992	0.19252	0.30528	0.085599	-1.9646	-1.9646	-2.3333	-2.2271	-2.225	-2.575	-2.1917	-2.4021	-2.3354	-2.2083	-2.5875	-2.3312	-2.0354	-2.6813	-2.1167	-2.3604	382.510	181.776	85.946	356.455	338.246	251.304	420.141	342.756	377.794	100.445	378.733	408.743	124.001	398.538	106.865	199.188	0.00040368	0.00212	0.00025379	764.51	5.122e-06	3.7726e-06	785	276.22	2.8141e-06	7.3662e-06	344.24	130.14	94.298	35.229	2.4815e-05	57.812	0.0014035	0.0013482	0.00039922	1055.4	1.528e-05	1.4581e-05	878.7	316.94	1.543e-05	1.4736e-05	458.87	148.46	110.43	40.52	1.7525e-05	65.942	214.883	188.226	158.868	80.823	219.974	319.676	81.115	86.756	156.747	119.709	85.931	91.091	91.933	96.369	219.975	94.880	-8191	255	
7684.599	1	1	0	0	0.028023	0.22823	0.14924	0.063545	0.15648	0.31958	0.13761	0.29931	0.19272	0.1785	0.12282	0.18956	0.14775	0.20063	0.15377	0.09445	-2.1188	-2.0563	-2.5938	-2.3042	-2.0146	-2.6646	-2.3104	-2.2771	-2.5021	-2.2521	-2.4167	-2.5042	-2.275	-2.6437	-2.2729	-2.4021	86.568	140.496	248.682	76.468	215.555	90.817	88.477	369.191	138.948	184.125	322.631	362.995	324.804	111.293	148.065	90.226	0.00047381	0.00047563	0.00023668	770.34	3.3149e-06	1.3599e-05	787.11	274.26	5.7303e-06	7.5811e-06	338.96	128.76	93.267	35.015	6.4248e-06	56.627	0.001511	0.001507	0.0004817	1101.1	1.7566e-05	1.7266e-05	909.54	322.71	1.728e-05	1.7011e-05	483.74	147.9	110.68	40.675	1.8843e-05	64.479	217.654	156.227	86.899	81.022	326.276	218.786	80.728	86.687	274.006	223.286	85.652	90.983	91.955	96.498	108.622	94.990	-8191	255	
#DATA ENDS
