BOXY.EXE: ISS Imagent and Oximeter Data Acquisition Program Version 0.80
Ascii Record File

#ACQ INFORMATION
2  Detector Channels 
16  External MUX Channels 
1  Auxiliary Channels 
5000  Waveform (CCF) Frequency (Hz)
1  Waveforms Skipped 
30  Waveforms Averaged 
1  Cycles Averaged 
16  Acquisitions per Waveform 
10.0806  Updata Rate (Hz) 

#FILE INFORMATION
TRUE -- External MUX Channel results are PARSED.
FALSE -- AC DC and Phase are NOT grouped.
TRUE -- Companion Program Settings File CREATED.
FALSE -- AC data not excluded
FALSE -- DC data not excluded
FALSE -- Phase data not excluded
FALSE -- Auxillary Chn. data not excluded
Tab delimiters

#CALIBRATION STATE
TRUE -- Waveform Calibration Values APPLIED.


#AUX CALIBRATION VALUES
Val Type	aux-1	

Term	1.0000e+00	
Factor	0.0000e+00	


#WF CALIBRATION VALUES
A = Detector Channel
Val Type	A-AC1	A-AC2	A-AC3	A-AC4	A-AC5	A-AC6	A-AC7	A-AC8	A-AC9	A-AC10	A-AC11	A-AC12	A-AC13	A-AC14	A-AC15	A-AC16	A-DC1	A-DC2	A-DC3	A-DC4	A-DC5	A-DC6	A-DC7	A-DC8	A-DC9	A-DC10	A-DC11	A-DC12	A-DC13	A-DC14	A-DC15	A-DC16	A-Ph1	A-Ph2	A-Ph3	A-Ph4	A-Ph5	A-Ph6	A-Ph7	A-Ph8	A-Ph9	A-Ph10	A-Ph11	A-Ph12	A-Ph13	A-Ph14	A-Ph15	A-Ph16	

Term	0.00000e+00	0.00000e+00	0.00000e+00	0.00000e+00	0.00000e+00	0.00000e+00	0.00000e+00	0.00000e+00	0.00000e+00	0.00000e+00	0.00000e+00	0.00000e+00	0.00000e+00	0.00000e+00	0.00000e+00	0.00000e+00	0.00000e+00	0.00000e+00	0.00000e+00	0.00000e+00	0.00000e+00	0.00000e+00	0.00000e+00	0.00000e+00	0.00000e+00	0.00000e+00	0.00000e+00	0.00000e+00	0.00000e+00	0.00000e+00	0.00000e+00	0.00000e+00	0.00000e+00	0.00000e+00	0.00000e+00	0.00000e+00	0.00000e+00	0.00000e+00	0.00000e+00	0.00000e+00	0.00000e+00	0.00000e+00	0.00000e+00	0.00000e+00	0.00000e+00	0.00000e+00	0.00000e+00	0.00000e+00	
Factor	1.00000e+00	1.00000e+00	1.00000e+00	1.00000e+00	1.00000e+00	1.00000e+00	1.00000e+00	1.00000e+00	1.00000e+00	1.00000e+00	1.00000e+00	1.00000e+00	1.00000e+00	1.00000e+00	1.00000e+00	1.00000e+00	1.00000e+00	1.00000e+00	1.00000e+00	1.00000e+00	1.00000e+00	1.00000e+00	1.00000e+00	1.00000e+00	1.00000e+00	1.00000e+00	1.00000e+00	1.00000e+00	1.00000e+00	1.00000e+00	1.00000e+00	1.00000e+00	X	X	X	X	X	X	X	X	X	X	X	X	X	X	X	X	

B = Detector Channel
Val Type	B-AC1	B-AC2	B-AC3	B-AC4	B-AC5	B-AC6	B-AC7	B-AC8	B-AC9	B-AC10	B-AC11	B-AC12	B-AC13	B-AC14	B-AC15	B-AC16	B-DC1	B-DC2	B-DC3	B-DC4	B-DC5	B-DC6	B-DC7	B-DC8	B-DC9	B-DC10	B-DC11	B-DC12	B-DC13	B-DC14	B-DC15	B-DC16	B-Ph1	B-Ph2	B-Ph3	B-Ph4	B-Ph5	B-Ph6	B-Ph7	B-Ph8	B-Ph9	B-Ph10	B-Ph11	B-Ph12	B-Ph13	B-Ph14	B-Ph15	B-Ph16	

Term	0.00000e+00	0.00000e+00	0.00000e+00	0.00000e+00	0.00000e+00	0.00000e+00	0.00000e+00	0.00000e+00	0.00000e+00	0.00000e+00	0.00000e+00	0.00000e+00	0.00000e+00	0.00000e+00	0.00000e+00	0.00000e+00	0.00000e+00	0.00000e+00	0.00000e+00	0.00000e+00	0.00000e+00	0.00000e+00	0.00000e+00	0.00000e+00	0.00000e+00	0.00000e+00	0.00000e+00	0.00000e+00	0.00000e+00	0.00000e+00	0.00000e+00	0.00000e+00	-8.19123e+01	-1.33616e+02	-1.36549e+02	-1.83428e+02	-9.10000e+01	-7.57922e+01	-1.57226e+02	-1.62015e+02	-5.82697e+01	-7.60492e+01	-1.75294e+02	-1.70420e+02	-1.80380e+02	-1.77569e+02	-8.04880e+01	-1.50081e+02	
Factor	1.80643e-05	1.32624e-04	3.68427e-05	4.65462e-01	1.21769e-06	1.16138e-06	1.75063e-01	6.96060e-02	1.13472e-06	1.15148e-06	2.37927e-01	3.21221e-02	2.91780e-02	1.00874e-02	1.28267e-06	1.47616e-02	8.56558e-07	8.80187e-07	2.44700e-07	2.10758e-01	9.63326e-09	9.62573e-09	7.96986e-02	3.32249e-02	9.63474e-09	9.63278e-09	9.89294e-02	1.48230e-02	1.38756e-02	4.77895e-03	9.61505e-09	6.71329e-03	X	X	X	X	X	X	X	X	X	X	X	X	X	X	X	X	



#DISTANCE SETTINGS
A = Detector Channel
A-1	A-2	A-3	A-4	A-5	A-6	A-7	A-8	A-9	A-10	A-11	A-12	A-13	A-14	A-15	A-16	

2.5000e+00	3.0000e+00	2.5000e+00	3.0000e+00	2.0000e+00	3.0000e+00	1.5000e+00	3.0000e+00	3.0000e+00	3.0000e+00	3.0000e+00	3.0000e+00	3.0000e+00	3.0000e+00	1.5000e+00	3.0000e+00	

B = Detector Channel
B-1	B-2	B-3	B-4	B-5	B-6	B-7	B-8	B-9	B-10	B-11	B-12	B-13	B-14	B-15	B-16	

1.0000e+01	1.0000e+01	1.0000e+01	1.4400e+00	1.0000e+01	1.0000e+01	1.5100e+00	1.9400e+00	1.0000e+01	1.0000e+01	1.9900e+00	2.4900e+00	2.4100e+00	2.9000e+00	1.0000e+01	2.9800e+00	




#DATA BEGINS
time	group	step	mark	flag	A-AC1	A-AC2	A-AC3	A-AC4	A-AC5	A-AC6	A-AC7	A-AC8	A-AC9	A-AC10	A-AC11	A-AC12	A-AC13	A-AC14	A-AC15	A-AC16	A-DC1	A-DC2	A-DC3	A-DC4	A-DC5	A-DC6	A-DC7	A-DC8	A-DC9	A-DC10	A-DC11	A-DC12	A-DC13	A-DC14	A-DC15	A-DC16	A-Ph1	A-Ph2	A-Ph3	A-Ph4	A-Ph5	A-Ph6	A-Ph7	A-Ph8	A-Ph9	A-Ph10	A-Ph11	A-Ph12	A-Ph13	A-Ph14	A-Ph15	A-Ph16	B-AC1	B-AC2	B-AC3	B-AC4	B-AC5	B-AC6	B-AC7	B-AC8	B-AC9	B-AC10	B-AC11	B-AC12	B-AC13	B-AC14	B-AC15	B-AC16	B-DC1	B-DC2	B-DC3	B-DC4	B-DC5	B-DC6	B-DC7	B-DC8	B-DC9	B-DC10	B-DC11	B-DC12	B-DC13	B-DC14	B-DC15	B-DC16	B-Ph1	B-Ph2	B-Ph3	B-Ph4	B-Ph5	B-Ph6	B-Ph7	B-Ph8	B-Ph9	B-Ph10	B-Ph11	B-Ph12	B-Ph13	B-Ph14	B-Ph15	B-Ph16	aux-1	digaux	

6689.305	1	1	0	256	0.067746	0.19654	0.026122	0.22289	0.20093	0.13058	0.35597	0.25289	0.059558	0.20791	0.10983	0.04412	0.23191	0.30207	0.24472	0.21392	-1.85	-2.6021	-2.5271	-2.2667	-2.4958	-2.4479	-2.5187	-2.6188	-2.4958	-2.6521	-2.5958	-2.45	-2.8979	-2.2979	-2.6021	-2.7229	211.292	227.346	373.205	329.920	223.956	121.329	369.287	240.800	74.683	350.263	319.702	214.947	237.653	149.920	100.329	372.317	0.00024452	0.00031358	6.5411e-05	1083	1.8829e-06	2.1213e-06	1156	218.04	5.5556e-06	2.1025e-06	282.57	78.824	61.964	18.319	1.9918e-06	25.585	0.00022789	0.00022812	5.7155e-05	1006.5	2.5532e-06	2.5226e-06	1117.3	213.08	2.6877e-06	2.6004e-06	262.46	77.668	61.662	18.397	2.4488e-06	25.573	201.894	161.520	92.253	72.020	128.510	279.877	72.317	80.150	266.526	75.170	79.191	85.808	87.225	93.663	94.420	93.183	-8191	255	
6689.399	1	1	0	0	0.14375	0.24061	0.086795	0.13872	0.03795	0.11303	0.13753	0.17314	0.23617	0.18125	0.20675	0.16243	0.29006	0.37771	0.1738	0.20312	-1.9083	-2.4833	-2.4667	-2.3979	-2.6271	-2.5896	-2.5438	-2.7229	-2.4833	-2.5021	-2.7229	-2.3771	-2.6479	-2.5146	-2.2958	-2.6396	226.427	360.502	176.912	410.253	104.613	244.147	66.712	316.275	183.382	384.375	419.558	369.232	376.076	319.825	415.942	352.897	0.00016092	5.6098e-05	0.00012318	1075.7	3.1623e-06	9.5454e-07	1162.7	220.49	1.5442e-06	5.9619e-06	283.41	79.29	62.093	18.238	1.6179e-06	25.776	0.00026064	0.00024115	6.0142e-05	1011.6	2.8006e-06	2.5534e-06	1121.4	215.65	2.7721e-06	2.5041e-06	263.12	78.231	61.691	18.383	2.3327e-06	25.664	196.056	316.223	393.310	72.084	292.337	238.316	72.210	80.276	211.420	258.692	79.649	86.641	87.149	93.913	154.643	93.070	-8191	255	
6689.495	1	1	0	0	0.18463	0.079012	0.14627	0.19088	0.28978	0.098174	0.2962	0.040315	0.076425	0.17473	0.07948	0.29722	0.10655	0.052397	0.32552	0.036166	-1.9438	-2.4188	-2.7292	-2.4958	-2.7771	-2.4521	-2.3083	-2.9896	-2.45	-2.4458	-2.6396	-2.5333	-2.5396	-2.6521	-2.2396	-2.8187	254.542	128.520	132.817	354.652	313.993	215.327	339.657	250.848	331.186	377.435	220.613	228.738	413.028	305.776	202.896	158.857	0.00017293	0.00043132	9.1282e-05	1081.3	3.2518e-06	3.0715e-06	1162.8	220.65	1.478e-06	6.5217e-07	283.4	79.227	61.671	18.22	3.0495e-06	25.64	0.00024688	0.00022317	5.6983e-05	1017.2	2.6867e-06	2.3777e-06	1123.5	216.01	2.6427e-06	2.446e-06	262.77	78.448	61.564	18.393	2.3607e-06	25.761	209.509	176.450	419.106	72.471	124.140	86.854	72.336	79.915	91.335	100.178	79.768	86.317	86.598	93.589	194.616	93.069	-8191	255	
6689.591	1	1	0	0	0.087945	0.35428	0.080347	0.08961	0.24996	0.23252	0.25576	0.20329	0.17354	0.11167	0.16245	0.080377	0.34749	0.41662	0.157	0.18279	-2.0375	-2.5083	-2.6688	-2.4208	-2.5917	-2.6479	-2.5646	-2.8104	-2.475	-2.5604	-2.875	-2.5396	-2.6854	-2.5771	-2.1979	-2.5833	309.947	352.772	151.858	100.318	325.899	229.206	334.457	133.414	357.979	309.075	325.301	390.792	352.425	270.852	259.519	269.967	0.00026459	0.00029976	6.4688e-05	1074.6	3.3107e-06	1.955e-06	1166.6	220.87	1.9735e-06	1.118e-06	282.09	79.118	62.427	18.337	7.801e-06	25.764	0.00023901	0.00022242	5.8708e-05	1019	2.5949e-06	2.3533e-06	1123.7	216.95	2.5403e-06	2.4191e-06	263.74	78.714	61.65	18.381	2.5055e-06	25.915	219.753	112.205	409.826	71.845	244.604	108.390	72.420	80.092	413.319	416.697	79.389	86.453	86.917	93.511	197.198	93.093	-8191	255	
6689.688	1	1	0	0	0.057125	0.05195	0.086443	0.092991	0.27131	0.029695	0.054857	0.11892	0.079104	0.23433	0.2897	0.077249	0.18993	0.27411	0.064557	0.17089	-2.0146	-2.4354	-2.5896	-2.4167	-2.6375	-2.5521	-2.5854	-2.8688	-2.5062	-2.4708	-2.7313	-2.4208	-2.5021	-2.5812	-2.3583	-2.6104	366.129	167.302	135.201	179.041	398.197	284.690	66.491	289.353	104.761	253.251	400.370	347.785	396.720	391.552	160.924	337.820	0.00016093	0.00048774	0.00019035	1074.7	3.1593e-06	1.254e-06	1166.9	221.63	1.2138e-06	2.521e-07	283.64	79.177	61.89	18.185	1.0951e-06	25.763	0.00023425	0.00022421	6.3334e-05	1019	2.5945e-06	2.3307e-06	1125.1	217.7	2.4796e-06	2.3798e-06	266.66	78.679	61.415	18.302	2.6821e-06	25.869	212.672	174.619	125.100	71.944	104.956	237.124	72.419	80.236	290.767	209.485	79.508	86.208	87.333	93.867	210.115	93.320	-8191	255	
6689.784	1	1	0	0	0.28371	0.15439	0.25016	0.1919	0.13036	0.074234	0.13487	0.036913	0.23309	0.033833	0.075065	0.15687	0.13086	0.14012	0.0971	0.17057	-2.1188	-2.5563	-2.7438	-2.625	-2.5542	-2.7583	-2.6792	-2.7021	-2.4583	-2.4333	-2.8917	-2.4917	-2.5083	-2.825	-2.4021	-2.8688	403.894	290.131	350.465	133.237	132.668	155.106	367.415	152.418	195.277	347.396	166.159	331.504	242.368	403.960	359.532	348.790	0.00020633	0.00027194	0.00020991	1079.2	4.733e-06	5.1848e-06	1159.7	220.52	3.9113e-06	3.014e-06	281.86	78.969	61.742	18.118	6.1446e-06	25.657	0.00022782	0.00021879	6.8791e-05	1016.2	2.5248e-06	2.3386e-06	1124	217.25	2.4909e-06	2.4628e-06	268.2	78.407	61.444	18.337	2.8787e-06	25.776	212.324	269.563	132.967	72.560	191.742	256.359	72.359	80.059	249.945	236.668	79.998	85.850	87.702	93.535	190.925	92.931	-8191	255	
6689.904	1	1	0	0	0.099542	0.068602	0.22163	0.11002	0.14451	0.071702	0.18398	0.13331	0.34567	0.14592	0.052293	0.11053	0.11312	0.25668	0.073443	0.03599	-2.0167	-2.4771	-2.7125	-2.5396	-2.5146	-2.8396	-2.8	-2.6104	-2.6896	-2.6292	-2.7562	-2.5854	-2.3125	-2.7687	-2.1625	-2.2938	148.088	196.863	288.019	380.303	406.584	356.326	396.996	137.494	69.506	330.899	212.317	306.229	290.523	168.647	370.762	127.849	0.00018018	0.00042517	0.00010016	1071.1	6.5188e-07	4.3223e-06	1161	220.6	4.7725e-06	6.2575e-06	284.21	79.136	61.932	18.514	2.5376e-06	25.612	0.00022628	0.00023151	7.3531e-05	1013.9	2.527e-06	2.5322e-06	1125.4	216.81	2.4786e-06	2.6385e-06	270.74	78.322	61.38	18.53	2.975e-06	25.765	199.268	261.558	125.195	71.870	88.791	259.136	72.426	79.979	289.368	190.799	79.658	86.288	87.685	93.653	210.279	92.955	-8191	255	
6690.000	1	1	0	0	0.2471	0.0679	0.23614	0.094212	0.11699	0.18432	0.054667	0.10193	0.20392	0.16556	0.26035	0.13712	0.13423	0.11045	0.081287	0.11549	-2.4271	-2.5104	-2.6771	-2.4771	-2.3729	-2.7292	-2.5125	-2.6188	-2.5354	-2.3479	-2.7542	-2.45	-2.4688	-2.7896	-2.4188	-2.5208	211.451	210.964	132.570	341.441	258.570	234.274	384.853	335.528	247.858	119.397	300.730	313.595	350.738	270.642	191.495	378.768	0.00020037	0.00044382	0.00010941	1069.8	1.9082e-06	5.9697e-06	1156.3	222.4	3.8513e-06	3.2592e-06	281.53	79.298	62.384	18.326	2.5519e-06	25.536	0.00022718	0.00025472	7.5557e-05	1013.6	2.5714e-06	2.8377e-06	1124.1	216.97	2.5379e-06	2.9346e-06	271.38	78.381	61.647	18.684	2.9669e-06	25.782	205.676	129.892	327.772	72.084	242.819	224.000	72.316	80.151	227.492	219.979	79.368	86.244	87.266	93.573	390.526	92.953	-8191	255	
6690.097	1	1	0	0	0.018952	0.20355	0.11838	0.18518	0.11888	0.19464	0.28525	0.13239	0.17487	0.27522	0.2552	0.074763	0.061398	0.043336	0.19946	0.28906	-2.3771	-2.4896	-2.7188	-2.7042	-2.2875	-2.8146	-2.8146	-2.3729	-2.6667	-2.4313	-2.4417	-2.7042	-2.2771	-2.6188	-2.5333	-2.2542	97.102	88.897	350.241	394.098	260.940	134.883	389.201	251.198	325.502	65.502	380.723	146.624	200.628	337.120	113.634	377.927	0.00014327	0.00060722	5.8967e-05	1073.7	2.0848e-06	4.6647e-06	1163.8	220.69	6.5242e-06	4.0985e-06	282.85	79.183	61.955	18.33	2.4498e-06	25.542	0.0002339	0.00027665	7.4878e-05	1013.3	2.6595e-06	3.0169e-06	1127.3	217.06	2.5843e-06	2.9911e-06	268.74	78.38	61.546	18.655	2.7214e-06	25.718	200.445	111.381	63.233	72.188	276.572	239.878	72.289	80.061	199.280	221.639	79.729	86.289	87.159	93.864	189.892	93.000	-8191	255	
6690.193	1	1	0	0	0.20865	0.0226	0.13135	0.12022	0.078757	0.20572	0.20568	0.37793	0.10197	0.16157	0.17955	0.13087	0.26062	0.19314	0.050332	0.22127	-2.25	-2.3104	-2.4792	-2.7458	-2.2625	-2.8896	-2.6104	-2.3833	-2.8312	-2.2687	-2.5792	-2.7583	-2.2562	-2.7625	-2.5667	-2.3583	193.760	376.771	300.050	191.282	246.398	308.289	93.947	286.922	417.064	270.058	314.447	207.053	92.175	326.324	223.523	273.244	0.00030113	0.00010677	0.0001118	1071.8	5.1952e-06	2.624e-06	1164.6	221.34	2.9808e-06	7.0213e-06	282.5	79.106	61.866	18.326	9.339e-07	25.618	0.00024114	0.00027653	7.1002e-05	1012.2	2.7575e-06	3.0395e-06	1124.8	216.71	2.77e-06	3.0468e-06	268.49	78.358	61.964	18.703	2.7456e-06	25.721	202.344	180.161	293.813	72.231	164.789	260.464	72.476	79.925	227.192	147.128	79.189	86.226	87.008	93.892	365.897	93.332	-8191	255	
6690.287	1	1	0	0	0.169	0.23727	0.27396	0.10272	0.19561	0.097225	0.25504	0.064586	0.077666	0.16644	0.10149	0.24539	0.17889	0.057719	0.16999	0.070014	-2.3354	-2.4021	-2.6104	-2.6729	-2.2812	-2.8125	-2.7646	-2.4917	-2.875	-2.4958	-2.5896	-2.8979	-2.4875	-2.8146	-2.6417	-2.4958	118.611	125.665	276.239	76.728	174.134	129.977	382.487	119.796	394.870	338.173	174.322	417.336	328.322	70.133	309.339	366.334	0.00026826	0.00029443	0.00015608	1077.1	4.5138e-06	4.333e-06	1165.8	220.23	2.3883e-06	2.5779e-06	281.05	79.577	62.153	18.409	4.236e-06	25.618	0.00026684	0.00027902	6.9987e-05	1013.9	2.9856e-06	3.0059e-06	1125.1	216.46	2.9779e-06	2.9628e-06	268.99	78.442	62.364	18.663	2.6263e-06	25.758	223.511	409.374	188.467	72.075	224.030	334.166	72.383	80.123	208.895	241.656	79.311	86.260	87.044	93.656	344.276	93.018	-8191	255	
6690.383	1	1	0	0	0.31035	0.30724	0.21923	0.098726	0.17855	0.10019	0.20868	0.1439	0.16127	0.10989	0.078865	0.35951	0.14607	0.029305	0.057205	0.25478	-2.4562	-2.6083	-2.5625	-2.8125	-2.5896	-2.6104	-2.8979	-2.4583	-2.4917	-2.5875	-2.4417	-2.8771	-2.4292	-2.6208	-2.7708	-2.4354	306.613	377.839	144.978	234.487	224.094	235.147	341.181	312.409	64.543	421.663	106.759	72.558	280.189	187.674	350.910	347.620	0.0002331	0.0005916	5.6871e-05	1068.7	1.5378e-06	1.5499e-06	1166.2	220.95	2.3298e-06	5.8029e-07	281.36	79.344	62.206	18.371	2.7864e-06	25.726	0.00028065	0.00026462	6.8986e-05	1015	3.0866e-06	2.8912e-06	1124.7	216.95	3.1104e-06	2.8489e-06	268.32	78.565	62.45	18.624	2.6057e-06	25.897	213.386	387.190	316.143	72.197	142.684	316.096	72.467	80.401	255.275	318.099	79.266	86.407	86.639	93.731	186.782	92.940	-8191	255	
6690.479	1	1	0	0	0.038294	0.16007	0.17861	0.18077	0.13446	0.16307	0.36503	0.23376	0.12658	0.21906	0.19397	0.054296	0.28469	0.093414	0.12843	0.19993	-2.3604	-2.4333	-2.5104	-2.6958	-2.4125	-2.5563	-2.8688	-2.5271	-2.8292	-2.3875	-2.5062	-2.9042	-2.4333	-2.3812	-2.6562	-2.3958	270.058	232.923	233.347	340.697	269.421	141.569	363.037	314.462	399.429	226.590	278.812	311.700	346.220	125.338	70.308	163.767	0.00020144	0.00022868	8.5844e-05	1083.3	2.9859e-06	4.0857e-06	1163.3	221.7	2.8031e-06	1.5303e-06	281.39	79.358	61.886	18.288	1.3767e-06	25.721	0.00028768	0.00025985	6.8575e-05	1023.9	3.2147e-06	2.9187e-06	1125.9	218.99	3.2889e-06	2.9294e-06	269.56	79.326	62.737	18.7	2.8283e-06	26.234	217.497	230.715	177.724	72.136	233.576	136.331	72.558	79.818	288.744	400.062	79.589	86.549	86.880	93.758	283.219	93.535	-8191	255	
6690.576	1	1	0	0	0.20815	0.080613	0.083489	0.116	0.16215	0.18096	0.19482	0.16291	0.17203	0.17618	0.06868	0.21324	0.14945	0.063726	0.063826	0.12501	-2.4437	-2.4583	-2.3	-2.725	-2.6188	-2.4583	-2.9188	-2.3292	-2.6688	-2.5563	-2.7396	-2.8229	-2.5521	-2.4125	-2.8208	-2.3688	383.249	364.399	268.852	257.535	121.864	123.509	364.119	230.395	243.895	407.552	420.633	379.588	176.803	351.268	368.015	388.049	0.00017371	0.00030065	0.00018185	1079.4	4.2218e-06	1.5045e-06	1170.3	221.57	7.3219e-07	6.0047e-06	281.06	79.507	62.393	18.267	7.2316e-06	25.549	0.00030407	0.0002739	7.4303e-05	1034.9	3.3123e-06	3.0825e-06	1129.1	220.16	3.3399e-06	2.962e-06	271.54	79.729	62.638	18.648	2.9429e-06	26.244	203.164	323.700	132.843	72.428	91.364	192.629	72.394	80.054	215.058	216.569	79.477	86.379	87.119	93.770	288.072	93.207	-8191	255	
6690.696	1	1	0	0	0.10747	0.063808	0.19038	0.15871	0.094269	0.11192	0.27755	0.31981	0.33802	0.32313	0.15571	0.11287	0.12725	0.090475	0.21472	0.29327	-2.1021	-2.5792	-2.1958	-2.5583	-2.6167	-2.3917	-2.9083	-2.5938	-2.6521	-2.6354	-2.4396	-2.5625	-2.4896	-2.5708	-2.6396	-2.4	322.645	396.801	237.228	175.433	183.754	375.624	319.414	143.950	369.758	148.926	197.908	384.664	419.189	298.365	380.846	119.203	0.00021117	0.00011245	0.00017706	1083.6	2.2435e-07	3.6921e-06	1170.7	222.15	1.9116e-06	3.0285e-06	286.71	79.547	62.215	18.441	5.5692e-06	25.638	0.00029245	0.00026548	7.7854e-05	1039	3.1177e-06	2.9497e-06	1133.5	220.55	3.1221e-06	2.8495e-06	273.99	79.887	62.44	18.661	3.1598e-06	26.276	219.211	223.856	125.199	72.319	209.413	145.250	72.378	79.886	133.600	171.570	79.681	85.987	87.360	93.875	165.456	93.098	-8191	255	
6690.792	1	1	0	0	0.14525	0.098379	0.32513	0.29769	0.20006	0.15197	0.15103	0.24209	0.19968	0.20924	0.12828	0.14614	0.1565	0.21807	0.17188	0.0041488	-1.9813	-2.6667	-2.3625	-3.0875	-2.5479	-2.2812	-2.8354	-2.55	-2.5438	-2.9437	-2.4917	-2.6063	-2.4479	-2.3375	-2.7792	-2.4396	160.653	222.730	187.000	352.756	180.912	367.606	292.115	348.107	310.556	232.624	417.446	184.302	347.710	306.531	99.863	406.732	0.00026078	0.00030833	0.00013972	1084.3	5.5698e-06	2.1492e-06	1170.7	222.52	5.8363e-06	1.176e-06	283.74	79.386	62.526	18.367	5.253e-06	25.52	0.00028141	0.00025771	8.1348e-05	1038	2.9729e-06	2.8641e-06	1136.1	220.44	3.0105e-06	2.7389e-06	274.54	79.628	62.396	18.651	3.2341e-06	26.074	214.293	183.563	172.823	72.389	235.132	72.843	72.332	80.160	168.441	159.476	79.327	86.210	87.277	93.974	197.783	93.085	-8191	255	
6690.864	1	1	0	0	0.086791	0.22843	0.065786	0.35087	0.22733	0.16134	0.1975	0.06924	0.33229	0.26964	0.12212	0.042321	0.11286	0.11172	0.21047	0.1874	-1.9354	-2.7083	-2.3042	-2.5812	-2.6437	-2.3354	-2.7667	-2.5542	-2.3542	-2.8292	-2.4437	-2.5646	-2.7271	-2.2646	-2.7979	-2.6	71.888	313.867	178.922	302.926	72.978	389.606	397.866	398.031	197.782	91.793	384.038	182.951	404.801	282.666	379.130	416.919	0.00020435	0.00058396	0.00014476	1083.8	8.8588e-07	3.616e-06	1170.3	222.56	8.8271e-07	6.0543e-06	282.73	79.547	62.199	18.308	6.8849e-06	25.549	0.0002696	0.00025652	8.3367e-05	1034	2.8217e-06	2.9066e-06	1135.7	219.68	2.9163e-06	2.9171e-06	275.89	79.353	62.133	18.702	3.3785e-06	26.001	197.640	106.943	167.463	71.845	383.834	206.655	72.386	79.734	251.909	207.296	79.289	86.443	87.044	93.465	206.449	93.135	-8191	255	
6690.985	1	1	0	0	0.20208	0.083187	0.087576	0.14096	0.20419	0.17322	0.30526	0.10402	0.26187	0.16595	0.21699	0.13921	0.027225	0.12398	0.29142	0.13962	-1.8271	-2.7146	-2.3333	-2.5187	-2.6208	-2.2979	-2.9875	-2.5042	-2.3917	-2.8083	-2.4542	-2.6104	-2.7771	-2.175	-2.7021	-2.7271	359.703	406.082	229.411	369.615	298.997	191.558	395.461	372.087	315.198	231.417	390.500	374.664	234.988	383.641	276.841	338.575	0.00023808	0.00042412	5.8882e-05	1090.8	2.2759e-06	1.2881e-06	1171.9	222.17	2.905e-06	8.0954e-06	284.64	79.195	62.559	18.387	3.6308e-06	25.663	0.00026814	0.00027879	8.69e-05	1034.4	2.8367e-06	3.1654e-06	1138.5	219.24	2.9323e-06	3.1648e-06	275.59	79.403	62.155	18.818	3.3413e-06	25.985	223.572	102.434	284.256	72.084	256.331	112.396	72.440	79.872	181.106	219.664	79.240	86.209	87.386	93.353	256.023	93.390	-8191	255	
6691.081	1	1	0	0	0.15762	0.097705	0.13636	0.19874	0.14093	0.16853	0.042725	0.15034	0.096733	0.29728	0.22699	0.32191	0.11482	0.15079	0.14396	0.068672	-2.0062	-2.725	-2.4729	-2.4437	-2.6083	-2.2854	-2.8354	-2.6	-2.4771	-2.5896	-2.4583	-2.5208	-2.7438	-2.3375	-2.725	-2.7167	392.919	321.375	164.294	72.192	318.343	277.728	221.548	123.233	73.642	421.135	368.889	92.678	257.072	150.900	64.268	318.438	0.00023316	0.00077236	0.00013967	1081.3	1.5806e-06	1.8544e-06	1171.7	222.76	3.2013e-07	3.6739e-06	283.01	79.739	62.539	18.348	3.9453e-06	25.76	0.00026976	0.00030147	8.4296e-05	1034.4	2.8584e-06	3.3617e-06	1139.8	219.22	2.9483e-06	3.3416e-06	273.67	79.302	62.167	18.847	3.0967e-06	25.901	202.180	173.292	78.117	72.250	203.334	381.035	72.453	79.818	186.467	187.760	79.993	86.118	87.191	93.571	281.620	92.720	-8191	255	
6691.177	1	1	0	0	0.37908	0.22231	0.18381	0.16564	0.11439	0.076692	0.2553	0.10086	0.087928	0.088651	0.10352	0.15813	0.25957	0.10208	0.20074	0.10593	-2.0583	-2.7375	-2.5458	-2.5521	-2.7896	-2.4792	-2.6729	-2.6937	-2.3458	-2.7292	-2.5125	-2.2875	-2.9313	-2.5292	-2.5354	-2.8563	376.842	199.364	126.454	111.973	149.430	294.288	273.689	241.820	169.963	225.797	182.852	299.326	116.332	362.783	157.485	322.139	0.00018562	0.00010429	4.0084e-05	1076.8	6.3962e-06	3.9709e-06	1176	222.1	4.85e-06	4.4988e-06	284.34	79.424	62.463	18.305	5.3674e-06	25.382	0.00026364	0.00030109	7.5275e-05	1025.7	2.8217e-06	3.279e-06	1136.9	218.67	2.9749e-06	3.3217e-06	272.29	79.025	62.421	18.86	2.9957e-06	25.756	208.180	268.563	71.176	72.418	164.859	192.527	72.445	80.084	223.510	347.169	79.343	86.223	87.063	93.708	211.009	93.067	-8191	255	
6691.296	1	1	0	0	0.33305	0.21595	0.13457	0.22031	0.086717	0.21629	0.31163	0.27683	0.1164	0.075322	0.24852	0.13095	0.19863	0.28194	0.022162	0.16686	-1.8708	-2.8292	-2.2438	-2.6396	-2.7042	-2.5312	-2.65	-2.9708	-2.3542	-2.7313	-2.5896	-2.35	-2.8438	-2.4021	-2.3896	-2.825	102.680	340.175	276.895	395.032	160.942	262.082	342.976	363.605	130.776	66.263	149.953	203.510	115.968	351.862	205.838	160.422	0.00024145	0.00023465	8.6721e-05	1076.9	2.8759e-06	3.1653e-06	1169.5	221.77	7.1503e-06	3.3221e-06	284.93	79.551	62.276	18.275	2.2239e-06	25.735	0.00028458	0.00030121	7.5078e-05	1024.7	3.1229e-06	3.2631e-06	1134.4	218.3	3.2173e-06	3.2329e-06	271.22	79.106	62.725	18.756	2.944e-06	25.869	205.335	296.673	149.375	71.990	111.001	332.697	72.342	80.150	247.338	373.343	79.743	86.424	87.257	93.567	217.848	93.087	-8191	255	
6691.392	1	1	0	0	0.21657	0.075828	0.13507	0.025015	0.23178	0.096352	0.17632	0.065574	0.176	0.13096	0.13396	0.36218	0.064794	0.15617	0.059736	0.0093825	-1.8625	-2.5438	-2.6167	-2.4146	-2.6312	-2.5771	-2.4646	-2.8729	-2.4125	-2.5104	-2.5583	-2.3312	-2.6937	-2.4083	-2.3771	-2.7562	199.440	318.344	284.364	235.112	246.166	62.189	70.785	391.949	368.356	141.556	71.924	181.377	357.076	315.239	366.241	144.628	0.00020812	0.00059735	4.5379e-05	1082.3	4.0122e-06	2.1726e-06	1167.4	223.1	2.5589e-06	1.476e-06	282.57	79.534	62.292	18.338	5.0571e-06	25.486	0.00029523	0.00028941	7.1462e-05	1025.7	3.2383e-06	3.0463e-06	1133.5	218.46	3.258e-06	3.0463e-06	269.6	79.075	62.736	18.738	2.8478e-06	25.876	205.955	239.046	307.896	72.622	257.624	297.941	72.359	79.955	201.690	66.591	79.755	85.961	87.006	93.595	62.177	93.471	-8191	255	
6691.488	1	1	0	0	0.20899	0.097248	0.054021	0.30804	0.06461	0.23119	0.3673	0.1576	0.21969	0.10782	0.15771	0.067244	0.22469	0.12651	0.21126	0.1765	-1.7563	-2.7604	-2.5833	-2.5708	-2.4479	-2.4667	-2.4938	-2.8375	-2.4792	-2.4875	-2.8271	-2.4188	-2.6896	-2.4562	-2.5	-2.7708	206.201	199.597	314.191	112.204	415.930	351.085	287.242	137.745	397.352	249.502	345.525	234.823	124.942	398.540	73.250	215.272	0.00021597	0.00014556	6.7351e-05	1091.5	2.4779e-06	3.3001e-06	1172.4	223.01	3.5616e-06	1.0909e-06	283.69	79.441	62.552	18.289	3.0478e-06	25.667	0.00030267	0.00027477	6.9955e-05	1033.3	3.315e-06	2.9509e-06	1135.8	219.84	3.3222e-06	2.9813e-06	269.12	79.425	62.933	18.694	2.8137e-06	26.087	224.163	344.816	70.392	71.930	286.537	207.847	72.392	80.072	285.327	415.262	79.273	86.462	86.934	93.587	300.864	93.393	-8191	255	
6691.584	1	1	0	0	0.15827	0.21782	0.1217	0.29717	0.10263	0.11858	0.2113	0.27332	0.063424	0.2254	0.2451	0.064751	0.19412	0.15011	0.081062	0.19571	-1.775	-2.4625	-2.6396	-2.4583	-2.7812	-2.5187	-2.4979	-2.6458	-2.4562	-2.5438	-2.7271	-2.4458	-2.6063	-2.7146	-2.3667	-2.7062	121.007	221.421	254.133	67.069	150.018	325.413	413.196	379.391	220.088	129.374	324.087	308.988	86.962	75.875	379.516	279.439	0.00026344	0.00038578	0.00010221	1089.9	3.1976e-06	2.1535e-06	1175	223.07	2.3172e-06	3.9389e-06	283.48	79.783	62.504	18.305	3.7761e-06	25.735	0.00029603	0.00027485	7.1016e-05	1040	3.2842e-06	2.9363e-06	1137	220.62	3.3016e-06	3.0486e-06	271.62	80.054	63.035	18.727	3.0821e-06	26.417	221.516	160.285	159.833	72.141	316.898	375.635	72.361	79.922	156.328	215.308	79.217	86.067	87.203	93.688	189.293	93.278	-8191	255	
6691.680	1	1	0	0	0.2859	0.27951	0.054788	0.22705	0.17732	0.069246	0.087201	0.14706	0.15353	0.17776	0.063458	0.082573	0.24614	0.10508	0.092365	0.091224	-2.2646	-2.3958	-2.8458	-2.3021	-2.4458	-2.6375	-2.5417	-2.6688	-2.3875	-2.4625	-2.7333	-2.3708	-2.5563	-2.7958	-2.35	-2.7938	75.579	128.036	93.888	73.495	265.557	290.783	391.635	321.282	264.218	322.370	105.580	364.182	390.953	333.150	94.510	146.115	0.00013558	0.00021423	0.00019219	1086.6	4.0639e-07	4.2223e-06	1174.9	222.72	1.8286e-06	5.7877e-07	286.78	79.647	62.426	18.398	7.4293e-06	25.757	0.00030549	0.00028689	7.8376e-05	1048	3.3916e-06	3.1013e-06	1141.7	222.49	3.349e-06	3.1632e-06	276.17	80.588	63.142	18.808	3.3582e-06	26.543	215.986	124.957	172.081	72.054	136.394	203.535	72.352	79.856	403.119	228.507	79.124	86.395	86.980	93.729	219.361	92.777	-8191	255	
6691.777	1	1	0	0	0.19502	0.17527	0.088357	0.30341	0.11909	0.2613	0.25245	0.13943	0.34331	0.26644	0.12099	0.11681	0.022639	0.078296	0.14992	0.19972	-1.9625	-2.2375	-2.5	-2.5104	-2.5708	-2.5083	-2.6333	-2.6875	-2.4437	-2.5667	-2.625	-2.5083	-2.6417	-2.8542	-2.2438	-2.7646	205.650	303.581	113.679	68.537	363.166	262.392	402.314	199.487	122.055	76.574	369.947	173.838	322.431	388.864	133.355	327.220	0.00029507	0.00042351	5.8803e-05	1090.7	2.161e-06	9.7917e-07	1178.5	222.9	4.5407e-06	3.965e-06	285.24	79.722	62.398	18.426	5.0209e-06	25.704	0.00029715	0.00028205	8.3268e-05	1049.4	3.1863e-06	2.913e-06	1142.8	221.34	3.0383e-06	2.8953e-06	275.03	79.795	62.53	18.665	3.2818e-06	26.211	215.779	167.127	161.430	72.010	111.774	115.800	72.336	79.692	171.936	414.670	79.958	86.360	87.271	93.515	229.767	92.627	-8191	255	
6691.873	1	1	0	0	0.16708	0.072061	0.20559	0.073358	0.12164	0.194	0.17256	0.2282	0.12343	0.14258	0.033502	0.18446	0.15672	0.27336	0.16914	0.057046	-2.1354	-2.2167	-2.5771	-2.4208	-2.5104	-2.6833	-2.4042	-2.6146	-2.5396	-2.3292	-2.5958	-2.4188	-2.3604	-2.8	-2.4646	-2.3875	261.852	393.418	82.278	420.766	91.944	140.249	395.442	354.463	269.883	108.765	180.321	92.957	347.884	361.556	182.763	212.551	0.00021638	0.00049153	0.00010875	1092.5	3.086e-06	9.9443e-07	1177	221.69	4.7329e-06	3.8607e-06	286.13	79.808	62.129	18.388	3.1279e-06	25.651	0.00026938	0.0002625	8.3846e-05	1040.2	2.9957e-06	2.8264e-06	1143.5	220.64	2.9688e-06	2.9782e-06	277.4	79.737	62.426	18.724	3.4734e-06	26.138	218.237	130.128	159.551	72.133	344.013	153.133	72.594	80.006	238.971	174.985	79.235	86.074	87.195	93.470	386.371	93.514	-8191	255	
6691.993	1	1	0	0	0.066438	0.23818	0.23516	0.27853	0.19133	0.090262	0.31884	0.16261	0.11006	0.26241	0.098185	0.15209	0.1079	0.47297	0.20311	0.11683	-2.1104	-2.4854	-2.8	-2.5167	-2.3854	-2.7542	-2.4583	-2.7479	-2.7188	-2.2625	-2.7479	-2.4917	-2.2396	-2.7812	-2.3458	-2.4521	389.062	207.300	156.217	415.899	228.962	369.432	380.179	385.098	62.892	182.220	331.754	398.342	391.071	408.857	395.416	308.329	0.00020245	0.00021426	8.9415e-05	1097.6	3.6595e-06	4.1016e-06	1174	222.65	4.458e-06	3.3191e-06	286.81	79.802	62.047	18.397	1.4514e-06	25.718	0.0002712	0.00028445	8.8058e-05	1040.5	2.996e-06	3.0933e-06	1144	220.62	2.943e-06	3.2302e-06	278.8	79.586	62.415	18.855	3.4597e-06	26.162	216.772	186.437	124.516	72.436	139.660	163.884	72.580	80.066	198.619	146.160	80.192	86.359	87.359	93.244	394.175	93.277	-8191	255	
6692.090	1	1	0	0	0.18501	0.17699	0.2474	0.083053	0.23671	0.12876	0.18298	0.35837	0.11404	0.11821	0.087232	0.14431	0.052661	0.16721	0.27758	0.088231	-2.2042	-2.5062	-2.6542	-2.5042	-2.4708	-2.6417	-2.4542	-2.5542	-2.6937	-2.4917	-2.6646	-2.85	-2.25	-2.6063	-2.6146	-2.6375	206.822	289.904	199.739	366.685	74.677	70.526	310.166	404.298	196.016	354.617	399.892	105.007	407.534	397.820	386.775	140.914	0.00026451	0.00025024	0.00011676	1088.8	1.9652e-06	4.2663e-06	1168.9	223.78	5.0331e-06	8.8766e-06	285.69	79.213	62.651	18.324	8.4686e-07	25.867	0.00026941	0.00030391	8.686e-05	1036.5	2.9665e-06	3.3446e-06	1139.4	220.97	2.9254e-06	3.4126e-06	276.39	79.366	62.487	18.92	3.2676e-06	26.006	217.247	317.752	121.085	72.139	252.915	206.669	72.363	79.826	204.028	194.569	79.399	86.504	86.969	93.416	95.038	93.039	-8191	255	
6692.161	1	1	0	0	0.078021	0.25271	0.22263	0.064977	0.075909	0.07263	0.36634	0.14441	0.051811	0.067175	0.033654	0.20029	0.29679	0.22926	0.14239	0.31178	-2.0458	-2.5021	-2.5896	-2.5729	-2.6562	-2.6813	-2.5583	-2.6354	-2.7146	-2.3875	-2.6729	-2.625	-2.425	-2.7792	-2.3458	-2.525	392.062	362.822	325.392	151.396	124.669	104.915	390.701	346.068	293.138	178.622	370.659	149.340	352.800	353.106	392.170	182.288	0.00025632	0.00026204	5.7955e-05	1085	1.6539e-06	2.5488e-06	1177.2	223.26	9.7942e-06	1.1396e-06	285.34	79.305	62.604	18.178	4.7751e-06	25.697	0.0002664	0.00031384	8.1968e-05	1033.2	2.9842e-06	3.3748e-06	1141.5	219.34	2.9598e-06	3.4014e-06	274.18	79.021	62.671	18.883	3.0896e-06	25.975	197.057	128.479	392.700	72.495	281.427	411.838	72.404	79.853	207.503	185.798	79.641	86.463	87.185	93.823	148.657	93.012	-8191	255	
6692.257	1	1	0	0	0.16598	0.10215	0.099061	0.1247	0.30473	0.24001	0.14767	0.071386	0.094835	0.051039	0.22619	0.2386	0.099618	0.20592	0.22149	0.28042	-2.125	-2.3083	-2.4729	-2.7438	-2.2792	-2.8542	-2.5542	-2.3167	-2.775	-2.4292	-2.4083	-2.6417	-2.3063	-2.7979	-2.7812	-2.4542	224.224	111.995	291.018	138.013	371.681	115.469	391.583	271.687	259.278	326.132	314.831	405.949	80.867	107.820	188.107	214.137	0.00025333	0.00053319	9.8304e-05	1086.2	5.7061e-06	6.196e-07	1174.5	223.41	1.0014e-05	2.1383e-06	287.88	79.338	62.624	18.416	2.7805e-06	25.611	0.00028534	0.00031796	8.0949e-05	1032.1	3.3067e-06	3.5759e-06	1139.2	219.94	3.3699e-06	3.5859e-06	275.65	79.248	63.231	18.961	3.1811e-06	25.977	213.325	186.864	363.561	71.676	189.015	124.409	72.532	80.190	200.349	95.028	79.477	86.242	86.684	93.614	266.147	93.302	-8191	255	
6692.376	1	1	0	0	0.20354	0.21146	0.15697	0.10697	0.29833	0.22627	0.15822	0.069244	0.17073	0.033445	0.2397	0.078165	0.10809	0.24305	0.049611	0.073121	-2.2896	-2.4688	-2.3542	-2.6688	-2.1833	-2.6229	-2.8958	-2.3333	-2.8729	-2.4792	-2.4521	-2.8896	-2.3688	-2.6833	-2.6521	-2.525	402.855	127.383	289.072	407.303	62.479	357.610	134.073	336.902	419.106	229.933	401.025	256.039	99.514	413.912	244.838	154.476	0.00022189	0.0002684	0.00013353	1090.8	1.1098e-06	4.0842e-06	1179.2	222.88	4.7718e-06	1.8457e-06	283.77	79.833	62.759	18.264	7.8266e-07	25.489	0.00031373	0.0003167	8.1325e-05	1035.9	3.5212e-06	3.4505e-06	1140.4	219.84	3.484e-06	3.3187e-06	273.14	79.174	63.354	18.789	2.9594e-06	25.877	205.719	126.102	192.343	72.331	338.242	124.145	72.479	80.005	251.057	198.319	79.516	86.088	87.111	93.181	188.728	93.262	-8191	255	
6692.472	1	1	0	0	0.23759	0.10445	0.016171	0.080835	0.26403	0.31755	0.2871	0.189	0.13524	0.12508	0.15505	0.16825	0.23737	0.07951	0.034272	0.16971	-2.2521	-2.4292	-2.3812	-2.8937	-2.3521	-2.675	-2.7333	-2.4021	-2.6688	-2.575	-2.3792	-2.7562	-2.5083	-2.5458	-2.7583	-2.3729	245.498	224.997	188.005	384.287	225.360	235.780	406.739	367.067	254.229	131.043	341.673	327.539	84.514	214.499	281.793	247.457	0.00021326	0.00071868	6.4578e-05	1089.7	5.0186e-06	4.3098e-06	1176.3	222.05	2.6558e-06	1.6667e-06	287.4	79.602	62.16	18.163	1.6125e-06	25.842	0.00031652	0.00028865	7.5654e-05	1035.2	3.4961e-06	3.1912e-06	1137	220.3	3.5112e-06	3.149e-06	272.48	79.483	63.195	18.741	2.9551e-06	26.198	223.008	180.413	167.490	72.252	162.300	397.842	72.244	80.153	170.331	73.278	79.744	85.926	86.855	94.319	310.266	92.982	-8191	255	
6692.569	1	1	0	0	0.25997	0.083777	0.15824	0.15429	0.019164	0.14861	0.33733	0.054627	0.087145	0.17079	0.18347	0.28216	0.22957	0.069021	0.06854	0.24609	-2.1708	-2.6292	-2.2958	-2.8667	-2.2938	-2.6292	-2.6833	-2.4	-2.6479	-2.5312	-2.3542	-2.7917	-2.2146	-2.6125	-2.925	-2.4208	95.062	264.255	414.238	390.734	149.922	365.942	68.879	378.588	126.572	369.202	398.784	313.845	123.397	184.745	412.409	370.463	0.00023155	0.00022413	0.00020489	1085.7	3.0563e-06	1.5401e-06	1173.5	223.28	3.0513e-06	4.2952e-06	284.94	79.358	62.229	18.322	1.6103e-06	25.418	0.00031882	0.00028843	7.603e-05	1040.6	3.4737e-06	3.167e-06	1137.1	221.36	3.4718e-06	3.1062e-06	272.45	79.772	63.026	18.794	3.0284e-06	26.324	213.810	420.292	155.450	71.979	134.588	109.965	72.372	79.935	317.579	297.729	79.595	86.366	87.193	93.992	191.500	93.026	-8191	255	
6692.665	1	1	0	0	0.25602	0.31631	0.17697	0.10646	0.11811	0.096872	0.18941	0.18319	0.11743	0.24015	0.21451	0.35392	0.14255	0.20098	0.15222	0.14308	-2.2042	-2.6604	-2.2062	-2.7938	-2.5146	-2.5458	-3.1229	-2.45	-2.7667	-2.7896	-2.4333	-2.6521	-2.5938	-2.3208	-2.5438	-2.5208	363.831	87.262	362.582	288.939	355.350	370.100	378.735	371.877	198.927	160.545	348.067	336.823	408.670	122.750	178.198	388.160	0.00020271	0.0004595	9.8051e-05	1087.9	4.4989e-06	3.5195e-06	1175.5	223.16	3.9899e-06	5.723e-06	285.65	79.41	62.29	18.253	5.3676e-06	25.536	0.00031507	0.0002856	7.8992e-05	1045.5	3.3618e-06	3.1436e-06	1140	222.02	3.2948e-06	3.0461e-06	273.69	80.09	62.809	18.733	3.1511e-06	26.345	211.824	182.817	138.574	72.234	364.762	133.109	72.172	80.124	184.041	238.796	79.766	86.633	86.864	93.671	207.918	92.752	-8191	255	
6692.761	1	1	0	0	0.06953	0.30432	0.22368	0.16569	0.26532	0.12039	0.16186	0.31871	0.13791	0.053292	0.17311	0.23315	0.18595	0.09136	0.1444	0.28952	-2.1875	-2.6042	-2.3167	-2.7729	-2.5021	-2.3125	-2.7396	-2.3542	-2.4333	-2.7458	-2.2854	-2.5271	-2.6458	-2.1833	-2.7938	-2.5792	401.828	148.282	378.137	420.715	74.254	69.874	363.964	401.058	199.609	260.368	168.857	389.761	311.119	283.432	214.011	357.326	0.00020682	0.00044826	8.6896e-05	1088.9	4.2367e-06	2.7291e-06	1176.2	222.92	2.3657e-06	6.0896e-06	285.17	78.874	62.207	18.196	1.1494e-05	25.392	0.00029792	0.0002748	8.3212e-05	1047.8	3.2413e-06	3.0498e-06	1142.2	221.56	3.2364e-06	2.9844e-06	276.41	79.883	62.585	18.614	3.3785e-06	26.162	214.996	313.654	80.960	72.109	96.180	188.080	72.488	80.093	331.100	262.826	79.385	86.158	86.850	93.676	148.480	93.205	-8191	255	
6692.857	1	1	0	0	0.13448	0.11725	0.15603	0.2239	0.04259	0.096998	0.16909	0.18121	0.022466	0.12496	0.085544	0.11511	0.22921	0.26569	0.099837	0.1809	-2.1042	-2.6521	-2.3167	-2.6042	-2.5583	-2.5375	-2.8083	-2.4229	-2.2375	-2.8	-2.5646	-2.7958	-2.4958	-2.3917	-2.5687	-2.575	338.827	107.512	340.596	383.566	190.540	420.190	401.160	70.983	264.513	360.931	313.172	116.246	346.832	291.101	76.473	183.127	0.00019677	0.00035091	0.00014103	1089.5	2.1528e-06	4.4638e-06	1176.3	221.65	5.3465e-06	3.3289e-06	285.22	79.535	62.108	18.092	1.1473e-06	25.47	0.00029104	0.00027276	8.8765e-05	1044.1	3.1328e-06	3.0439e-06	1141.3	220.36	3.1036e-06	2.9484e-06	276.78	79.246	62.139	18.517	3.3801e-06	25.849	220.217	247.237	90.139	72.288	151.736	213.890	72.303	80.356	257.949	201.373	79.464	86.282	86.905	94.223	265.898	92.725	-8191	255	
6692.978	1	1	0	0	0.053318	0.22678	0.15319	0.12259	0.27004	0.32515	0.083922	0.12069	0.11503	0.16619	0.10557	0.095102	0.13151	0.12292	0.23148	0.29389	-1.9375	-2.45	-2.425	-2.5833	-2.6875	-2.5271	-2.7854	-2.5708	-2.3625	-2.7979	-2.4479	-2.5521	-2.7687	-2.375	-2.7354	-2.7062	333.834	169.378	190.738	395.161	138.502	203.722	78.374	116.896	184.919	69.975	219.188	272.327	158.878	217.923	388.996	418.847	0.0002126	0.00043428	0.00014894	1089.7	3.2033e-06	2.77e-06	1172.4	220.74	3.4197e-06	4.4891e-06	279.34	78.784	61.77	18.125	5.9111e-06	25.157	0.00026631	0.0002595	8.4103e-05	1032	2.7994e-06	2.8853e-06	1136.3	217.44	2.8374e-06	2.9395e-06	272.41	78.684	61.639	18.531	3.2856e-06	25.604	189.096	172.725	122.561	72.103	346.924	219.782	72.388	79.994	140.213	164.818	79.093	86.230	87.032	93.831	211.353	93.355	-8191	255	
6693.074	1	1	0	0	0.14938	0.063448	0.20464	0.10711	0.10662	0.26108	0.31267	0.19006	0.25402	0.243	0.10567	0.083643	0.14246	0.19308	0.12717	0.032864	-1.9271	-2.7062	-2.3375	-2.4708	-2.9	-2.3958	-2.6667	-2.6292	-2.3958	-2.9021	-2.6292	-2.6979	-2.725	-2.4417	-2.7375	-2.7833	253.518	82.246	175.801	217.871	264.739	132.993	335.752	352.498	415.237	101.419	391.667	381.961	181.581	276.226	287.250	366.461	0.00016636	0.00065298	0.00011505	1077.7	3.016e-06	2.7685e-06	1171.6	219.46	6.2457e-06	4.7268e-06	282.48	78.373	61.735	18.233	6.6845e-07	25.351	0.00025814	0.00027726	8.2383e-05	1026.2	2.7247e-06	3.087e-06	1136.1	216.56	2.7577e-06	3.0985e-06	271.28	78.321	61.576	18.6	3.1099e-06	25.562	201.248	148.555	110.064	72.176	268.996	131.634	72.390	80.326	238.387	137.627	79.418	86.232	87.060	93.916	157.362	92.797	-8191	255	
6693.170	1	1	0	0	0.36099	0.16917	0.030001	0.26294	0.058507	0.27026	0.20579	0.32233	0.10163	0.20466	0.032389	0.0064768	0.044978	0.13366	0.17527	0.12565	-1.9792	-2.6167	-2.5229	-2.5375	-2.5708	-2.3583	-2.9	-2.6562	-2.3083	-2.8083	-2.4125	-2.675	-2.8208	-2.5438	-2.7396	-2.8729	270.960	150.470	218.071	121.547	370.385	284.491	356.247	311.029	386.026	376.546	253.271	221.819	366.001	380.514	319.516	316.104	0.00028353	0.00056672	3.6588e-05	1083.6	2.5503e-06	8.1431e-08	1175.4	219.85	4.514e-06	6.8705e-06	280.26	78.398	61.557	18.011	5.8364e-06	25.175	0.00025301	0.00028569	7.7482e-05	1024.4	2.701e-06	3.1953e-06	1136.7	216.32	2.8545e-06	3.248e-06	270.54	78.226	61.694	18.699	3.1435e-06	25.535	221.391	142.367	406.627	71.905	212.687	203.163	72.450	79.968	149.705	214.813	79.951	86.305	87.184	93.615	205.883	92.789	-8191	255	
6693.266	1	1	0	0	0.086573	0.10004	0.14262	0.19521	0.090541	0.055746	0.13359	0.075424	0.26987	0.16949	0.17118	0.12288	0.15591	0.24237	0.12121	0.2545	-2.0938	-2.6375	-2.5146	-2.4125	-2.7354	-2.4729	-3.0062	-2.6437	-2.4313	-2.7333	-2.3458	-2.4604	-2.7042	-2.425	-2.5583	-2.8688	85.846	391.861	369.561	79.644	360.576	137.830	306.436	66.459	158.514	232.438	352.737	181.297	316.845	75.358	224.990	395.860	0.00022998	0.00052638	8.597e-05	1079.9	7.0422e-06	1.7832e-06	1167.5	220.45	7.4826e-06	9.8606e-07	281.9	78.912	62.303	18.145	4.3136e-06	25.509	0.00027927	0.00031141	7.9038e-05	1029	3.0659e-06	3.3944e-06	1132.9	216.79	3.0825e-06	3.2999e-06	269.44	78.299	62.062	18.623	2.9533e-06	25.527	203.170	374.109	268.566	72.039	196.377	340.495	72.042	80.134	263.685	413.718	79.091	86.009	87.177	93.630	109.555	93.098	-8191	255	
6693.385	1	1	0	0	0.10198	0.085039	0.22204	0.048059	0.24074	0.24949	0.13706	0.074087	0.033234	0.22207	0.15535	0.074634	0.18878	0.22565	0.38877	0.33152	-1.7646	-2.6688	-2.6312	-2.3042	-2.6146	-2.3792	-2.7083	-2.7125	-2.6458	-2.6188	-2.6583	-2.4021	-2.725	-2.5667	-2.6021	-2.7667	314.251	182.720	288.172	403.978	183.648	285.395	394.206	202.616	285.195	116.745	310.795	398.100	379.077	251.051	77.475	348.454	0.00021681	0.000392	3.5577e-05	1081.6	5.8117e-06	1.1057e-06	1170.6	221.21	3.2691e-06	1.3244e-06	283.12	78.454	61.868	18.017	6.7959e-06	25.348	0.00029322	0.00030081	7.563e-05	1026.6	3.3008e-06	3.3266e-06	1134	217.53	3.4344e-06	3.4006e-06	270.61	78.747	62.755	18.749	3.1805e-06	25.805	227.648	127.737	329.388	72.181	200.566	91.360	72.363	79.945	266.179	243.978	79.874	86.355	87.149	93.571	188.170	93.608	-8191	255	
6693.457	1	1	0	0	0.069674	0.10975	0.14982	0.037716	0.26273	0.15331	0.068117	0.048906	0.1409	0.30055	0.15171	0.02673	0.046764	0.095414	0.11893	0.20701	-1.8667	-2.5375	-2.6375	-2.4583	-2.6688	-2.4562	-2.6104	-2.8812	-2.4667	-2.4375	-2.7042	-2.5687	-2.6229	-2.4813	-2.2396	-2.7917	230.362	402.648	405.576	347.830	129.419	122.697	371.377	256.015	387.542	220.392	382.852	83.582	194.157	366.108	327.226	286.234	0.00017116	5.4731e-05	6.7004e-05	1094.3	2.4262e-06	3.4484e-06	1172.6	220.54	6.9246e-06	3.7399e-06	281.36	79.053	61.817	18.252	5.6146e-06	25.473	0.00033641	0.00031953	8.1666e-05	1042.3	3.8674e-06	3.5763e-06	1140.4	219.26	4.0046e-06	3.6483e-06	273.84	79.814	63.578	18.906	3.3936e-06	26.176	200.032	166.346	299.328	72.049	271.227	261.696	72.523	79.964	174.246	209.499	79.256	86.298	86.981	93.326	246.032	92.884	-8191	255	
6693.553	1	1	0	0	0.098274	0.144	0.093939	0.1599	0.14835	0.27688	0.049487	0.35576	0.060695	0.18912	0.36195	0.21098	0.19769	0.18914	0.20042	0.20497	-1.8083	-2.5146	-2.7771	-2.5062	-2.6875	-2.4792	-2.4875	-2.7854	-2.2604	-2.4896	-2.8021	-2.3667	-2.5583	-2.5854	-2.4208	-2.7042	249.112	102.934	103.960	220.339	294.147	182.483	289.922	361.251	333.909	293.616	356.120	349.449	169.771	86.605	378.291	390.670	0.00019193	6.1019e-05	2.4807e-05	1085.2	5.7421e-06	2.7072e-06	1174.7	221.4	3.507e-06	1.6675e-06	283.24	79.508	61.982	18.015	1.4893e-06	25.23	0.00035767	0.0003232	8.3738e-05	1046.8	3.8937e-06	3.4731e-06	1139.8	220.81	3.8177e-06	3.4293e-06	272.56	79.939	63.324	18.707	3.2389e-06	26.118	204.356	343.680	385.934	71.929	286.071	417.940	72.494	80.072	199.858	289.233	79.720	86.712	87.033	93.720	174.980	93.041	-8191	255	
6693.649	1	1	0	0	0.074643	0.2639	0.11619	0.1536	0.069069	0.072361	0.48032	0.20482	0.3326	0.12558	0.29499	0.080793	0.12338	0.066802	0.25778	0.18567	-2.0187	-2.5729	-2.9021	-2.375	-2.6333	-2.6417	-2.5167	-2.8729	-2.7229	-2.7354	-2.6521	-2.6063	-2.6125	-2.5812	-2.2812	-2.825	395.256	114.952	373.803	82.708	127.080	200.978	361.500	411.664	159.294	177.450	373.613	309.263	123.421	167.642	77.984	297.320	0.00017675	0.00019148	0.00012885	1085.4	3.3174e-06	6.2232e-06	1165	220.27	4.4355e-06	3.1211e-06	280.7	78.347	61.499	17.987	2.2079e-06	24.972	0.00033375	0.00030523	7.945e-05	1043.9	3.5112e-06	3.1339e-06	1132.4	219.78	3.2342e-06	3.016e-06	267.67	78.758	62.018	18.269	2.8742e-06	25.592	196.877	186.632	162.650	72.286	199.683	160.967	72.433	80.093	234.431	315.721	79.447	86.366	87.109	93.593	221.943	92.999	-8191	255	
6693.770	1	1	0	0	0.27216	0.082898	0.14793	0.10199	0.16228	0.20189	0.30351	0.2375	0.0072912	0.09835	0.15198	0.1096	0.10006	0.30613	0.12184	0.18107	-2.0667	-2.5438	-2.7167	-2.5062	-2.6271	-2.7729	-2.4396	-2.5958	-2.5812	-2.4813	-2.9646	-2.3542	-2.6625	-2.6896	-2.5104	-2.9	418.241	307.104	146.687	328.377	115.418	94.627	346.626	92.306	412.316	390.901	126.305	200.672	99.576	380.503	170.406	70.250	0.00023086	0.00013105	0.00015185	1079.6	2.994e-06	5.1532e-06	1163.9	220.48	1.4819e-06	2.9182e-06	280.92	77.928	60.943	18.025	4.9939e-06	25.045	0.00027466	0.00025432	7.1751e-05	1030.8	2.9278e-06	2.7025e-06	1127	217.73	2.8792e-06	2.6897e-06	266.33	78.084	61.155	18.127	2.8484e-06	25.427	215.245	124.022	151.336	72.272	186.456	192.212	72.758	80.202	144.879	408.394	79.420	86.849	86.813	93.611	231.951	92.994	-8191	255	
6693.866	1	1	0	0	0.1398	0.09787	0.094316	0.21839	0.29028	0.039533	0.25473	0.16495	0.053031	0.072574	0.1108	0.038203	0.22621	0.063898	0.11485	0.33211	-2.0417	-2.3167	-2.6542	-2.6667	-2.5542	-2.6833	-2.4042	-2.8708	-2.675	-2.4104	-2.5521	-2.5646	-2.4625	-2.6542	-2.4875	-2.5875	286.859	284.708	84.747	100.293	286.670	253.253	296.681	331.574	364.230	208.273	409.661	145.720	171.194	148.891	354.301	382.960	0.00023757	0.00033262	0.00018613	1067.4	2.1233e-06	6.0323e-06	1163.5	219.13	3.5275e-06	4.6552e-06	281.01	78.543	61.641	18.036	4.4902e-06	24.99	0.00024958	0.00023556	7.2555e-05	1020.2	2.733e-06	2.5357e-06	1127.1	216.38	2.6934e-06	2.6308e-06	268.12	78.146	61.339	18.23	3.2092e-06	25.493	204.693	154.271	205.226	72.320	143.227	190.758	72.380	80.019	188.180	267.723	79.381	86.443	87.261	93.864	179.308	92.812	-8191	255	
6693.962	1	1	0	0	0.15941	0.25259	0.213	0.26459	0.12945	0.13076	0.36007	0.014259	0.022507	0.12191	0.10649	0.13298	0.059196	0.22025	0.21584	0.11124	-2.2083	-2.3708	-2.6583	-2.3917	-2.2958	-2.8375	-2.4479	-2.5896	-2.7646	-2.4083	-2.6604	-2.4375	-2.3021	-2.7854	-2.4979	-2.4979	388.869	239.675	104.551	383.683	343.456	402.317	337.359	203.565	69.875	151.372	217.485	75.309	122.940	238.960	268.064	370.975	0.00015723	0.00045889	0.00012665	1076.2	1.5329e-06	4.8392e-06	1168.6	220.51	2.7018e-06	1.4911e-06	276.49	78.195	61.341	17.985	1.2037e-06	25.103	0.00026134	0.00025863	8.3705e-05	1029.1	2.9151e-06	2.8678e-06	1133.4	217.43	2.8383e-06	2.9811e-06	271.93	78.11	61.253	18.419	3.3787e-06	25.56	205.170	177.699	169.729	72.092	223.047	226.559	72.275	79.831	273.899	135.675	79.308	86.186	87.254	93.784	327.330	93.058	-8191	255	
6694.058	1	1	0	0	0.17555	0.11208	0.14194	0.18906	0.17719	0.35911	0.23812	0.22201	0.22209	0.10658	0.1596	0.16904	0.17022	0.16654	0.077381	0.20249	-2.1688	-2.3083	-2.5938	-2.5333	-2.2562	-2.7542	-2.4292	-2.475	-2.7958	-2.3542	-2.7146	-2.6458	-2.3458	-2.7188	-2.3917	-2.4021	393.433	235.016	333.944	115.927	257.439	313.206	389.408	386.864	87.478	216.758	394.029	227.395	392.748	116.896	390.024	289.205	0.00019499	0.00050785	8.8609e-05	1082.4	4.338e-06	3.7733e-06	1168.3	219.45	6.9107e-06	1.8429e-06	277.57	78.315	61.198	17.977	3.004e-06	25.06	0.00026002	0.00028056	8.6322e-05	1027.4	2.8661e-06	3.085e-06	1132.8	217.2	2.7666e-06	3.0776e-06	270.37	77.814	61.064	18.35	3.0825e-06	25.304	206.512	125.949	414.860	72.127	233.307	236.258	72.519	79.906	216.077	150.716	80.052	86.364	86.840	93.854	189.872	93.125	-8191	255	
6694.154	1	1	0	0	0.087014	0.15853	0.11624	0.26321	0.14726	0.03308	0.36646	0.18369	0.2004	0.27809	0.1037	0.15644	0.29861	0.33662	0.051048	0.21927	-2.1979	-2.4437	-2.7229	-2.5604	-2.4708	-2.7979	-2.7146	-2.6396	-2.8229	-2.4771	-2.6917	-2.8208	-2.4062	-2.775	-2.6042	-2.425	298.883	398.979	115.729	420.723	291.045	202.169	370.962	382.878	121.133	250.194	272.915	379.896	396.939	87.527	178.186	375.789	0.00018429	0.00029461	6.8814e-05	1086.3	2.1866e-06	4.8388e-06	1163.3	219.24	3.5614e-06	8.0138e-06	278	77.916	61.568	17.985	3.9704e-06	25.165	0.00024129	0.00027851	7.7022e-05	1021.3	2.6797e-06	3.0139e-06	1127.7	215.77	2.6366e-06	3.0982e-06	266.95	77.331	61.212	18.447	2.9401e-06	25.281	221.542	217.821	267.646	72.207	238.076	136.688	72.304	80.342	237.829	236.678	79.578	86.638	87.155	93.912	263.722	92.966	-8191	255	
6694.250	1	1	0	0	0.25414	0.063412	0.018082	0.10732	0.37787	0.21739	0.15175	0.16779	0.22083	0.13745	0.12912	0.096658	0.093484	0.18011	0.23157	0.12144	-2.3771	-2.3958	-2.5458	-2.725	-2.3542	-2.7667	-2.5812	-2.5354	-2.7562	-2.4396	-2.6	-2.6083	-2.3438	-2.8187	-2.7021	-2.3521	364.390	73.380	252.139	145.501	306.949	223.116	84.877	321.138	270.823	123.441	275.371	302.078	409.015	396.622	416.434	235.406	0.00021542	0.00012663	7.7685e-05	1073.5	4.0216e-06	4.843e-06	1162.8	219.98	5.3942e-06	2.6185e-06	278.5	77.911	61.244	18.021	9.3105e-06	24.801	0.00025175	0.00029221	7.5523e-05	1018.2	2.8347e-06	3.2201e-06	1126.9	216.02	2.8294e-06	3.1333e-06	265.84	77.264	61.074	18.382	2.6763e-06	24.989	196.023	159.690	349.438	72.146	216.910	220.266	72.256	80.314	233.170	170.096	79.089	86.578	87.045	93.954	212.238	93.273	-8191	255	
6694.346	1	1	0	0	0.16163	0.095789	0.32507	0.28975	0.2606	0.19342	0.20184	0.23521	0.25605	0.21046	0.16251	0.18244	0.12516	0.069106	0.084511	0.19366	-2.3167	-2.2771	-2.5	-2.6917	-2.2812	-2.6625	-2.5271	-2.3375	-2.6833	-2.4021	-2.6104	-2.8958	-2.3063	-2.8417	-2.6188	-2.3417	173.783	120.978	68.939	184.133	337.530	386.811	388.100	388.173	352.481	210.162	146.136	366.487	94.212	151.303	303.698	397.855	0.00020931	0.00057911	5.5594e-05	1072.2	2.1572e-06	4.0342e-06	1157.3	219.57	3.54e-06	4.1796e-06	278.99	77.596	61.319	17.761	4.385e-06	25.028	0.00025267	0.0002679	6.6879e-05	1008.8	2.7657e-06	2.8354e-06	1118.5	214.31	2.7507e-06	2.7456e-06	261.98	76.605	61.052	18.11	2.4754e-06	24.982	204.536	124.692	127.614	72.016	322.901	286.646	72.470	80.223	217.798	119.685	79.409	86.189	87.378	93.842	249.224	93.131	-8191	255	
6694.465	1	1	0	0	0.18585	0.1214	0.17136	0.055125	0.12595	0.21018	0.11547	0.20152	0.066803	0.081838	0.279	0.16218	0.12722	0.1633	0.14425	0.087239	-2.1854	-2.3354	-2.5229	-2.9292	-2.5208	-2.6708	-2.7938	-2.425	-2.7313	-2.5021	-2.6375	-2.675	-2.3042	-2.8187	-2.5917	-2.5646	86.191	128.641	135.329	354.471	336.877	400.098	389.633	336.533	396.743	90.902	87.031	148.590	181.928	342.202	126.576	352.328	0.00027841	0.00055655	0.00021887	1065.1	3.8505e-06	8.2094e-07	1154.5	218.78	9.0703e-06	1.9107e-06	280.99	77.91	61.187	17.914	1.5391e-06	25.025	0.00025446	0.00024679	6.2463e-05	1004	2.8159e-06	2.6563e-06	1115.8	213.75	2.7862e-06	2.6324e-06	261.5	76.646	60.997	18.056	2.4227e-06	25.054	207.272	166.913	156.492	72.379	184.587	366.175	72.476	80.127	252.477	239.851	79.235	86.224	87.249	93.901	144.564	92.881	-8191	255	
6694.561	1	1	0	0	0.13219	0.17059	0.26061	0.18237	0.22458	0.023808	0.11541	0.35348	0.12223	0.29644	0.07001	0.23674	0.23036	0.28439	0.18456	0.2625	-2.4521	-2.625	-2.2979	-2.7583	-2.5104	-2.6292	-2.9	-2.4938	-2.8771	-2.4042	-2.3479	-2.8104	-2.6	-2.5604	-2.75	-2.4208	63.379	288.433	282.845	120.406	375.700	391.942	306.952	336.978	237.004	233.260	414.025	181.350	273.719	403.986	342.100	171.347	0.00020947	0.0005651	5.7495e-05	1074.8	2.6725e-06	1.8042e-06	1154.3	219.19	1.215e-06	4.5005e-06	275.35	78.128	60.648	17.824	3.1267e-06	24.898	0.00026187	0.00023583	6.2262e-05	1011.4	2.8721e-06	2.6087e-06	1116.8	214.74	2.8889e-06	2.5977e-06	260.9	77.23	60.939	18.051	2.4746e-06	25.205	203.704	282.481	364.081	72.366	220.577	404.798	72.515	80.092	366.343	249.722	79.473	86.510	86.845	93.583	248.015	93.232	-8191	255	
6694.658	1	1	0	0	0.17896	0.08699	0.19465	0.31056	0.25397	0.13606	0.11314	0.20755	0.23492	0.055216	0.18468	0.17601	0.21339	0.13875	0.22222	0.25918	-2.1229	-2.3667	-2.3979	-2.8604	-2.4667	-2.5833	-2.9062	-2.4958	-2.7708	-2.6875	-2.4	-2.8417	-2.4562	-2.6375	-2.6417	-2.3479	318.621	277.388	103.832	299.236	325.388	88.073	414.455	379.609	172.598	354.877	376.043	348.258	109.417	349.861	286.484	372.979	0.00019772	0.00041382	6.2953e-05	1068.1	5.9722e-06	3.5512e-06	1150.7	218.98	2.9087e-07	2.593e-06	278.89	77.609	60.947	17.732	7.1208e-06	24.802	0.00026488	0.00023943	6.466e-05	1016	2.8786e-06	2.5911e-06	1114.1	215.71	2.7914e-06	2.5363e-06	262.04	77.275	60.688	17.985	2.439e-06	25.223	214.150	417.825	184.745	71.980	155.224	100.205	72.322	80.215	244.901	125.877	79.716	86.129	87.242	94.117	219.570	93.243	-8191	255	
6694.754	1	1	0	0	0.09594	0.25734	0.17955	0.084519	0.23541	0.19272	0.090695	0.17776	0.030328	0.09352	0.028774	0.022833	0.16961	0.08711	0.21408	0.096799	-2.2792	-2.725	-2.1042	-2.7625	-2.2917	-2.4729	-2.9542	-2.4292	-2.5604	-2.7667	-2.5	-2.8021	-2.575	-2.3042	-2.85	-2.4271	186.401	405.687	377.375	134.519	241.319	249.397	161.601	138.003	305.955	406.189	275.236	351.257	311.222	391.182	88.533	127.088	0.00020235	0.00045722	0.00011947	1068.4	4.0397e-06	4.081e-06	1152.6	218.39	3.493e-06	2.325e-06	279.65	77.411	60.791	17.658	7.9239e-06	24.9	0.00024874	0.00022531	6.3802e-05	1015	2.6378e-06	2.4478e-06	1113.1	215.45	2.6283e-06	2.4022e-06	262.6	77.189	60.357	17.924	2.5943e-06	25.147	214.189	383.664	181.169	72.350	311.506	199.020	72.573	80.176	345.634	289.802	79.655	86.668	87.114	93.959	173.524	93.511	-8191	255	
6694.850	1	1	0	0	0.27546	0.16347	0.1569	0.23634	0.17305	0.25118	0.13743	0.16452	0.26771	0.095086	0.13363	0.14013	0.292	0.10777	0.12914	0.14242	-2.4521	-2.6229	-2.2146	-2.7687	-2.7812	-2.3708	-2.9604	-2.4188	-2.6917	-2.6854	-2.3792	-2.8354	-2.6729	-2.4292	-2.7	-2.4229	135.594	186.103	361.357	373.686	348.989	416.706	232.846	416.547	189.386	383.902	192.566	330.803	418.998	161.562	219.204	76.775	0.00023238	0.00044571	4.1962e-05	1068.5	3.0376e-06	1.0509e-06	1151.6	217.88	3.0443e-06	2.4002e-06	278.38	77.469	60.999	17.736	2.1833e-06	24.947	0.00023315	0.00021686	6.8224e-05	1013.8	2.5598e-06	2.4236e-06	1113.6	214.47	2.609e-06	2.3866e-06	264.05	77.259	60.288	17.985	2.8199e-06	25.213	211.833	162.726	222.276	72.291	175.463	250.758	72.415	80.085	190.223	70.846	79.775	86.190	87.455	93.778	145.167	93.285	-8191	255	
6694.946	1	1	0	0	0.14017	0.085419	0.14908	0.12567	0.11786	0.21498	0.27448	0.10057	0.15665	0.16069	0.12658	0.14902	0.11812	0.061047	0.23413	0.23611	-2.1208	-2.5021	-2.4167	-2.6979	-2.6604	-2.4854	-2.8792	-2.5542	-2.4458	-2.6271	-2.4667	-2.6896	-2.5563	-2.3479	-2.6104	-2.6354	185.446	223.379	135.408	398.252	225.685	271.538	396.980	363.057	190.991	367.448	201.342	100.693	381.085	93.313	126.515	64.889	0.00023443	0.00028122	0.00026655	1068.9	1.7154e-06	2.644e-06	1153.1	217.96	4.0222e-06	3.1534e-06	278.77	77.746	60.973	17.928	3.4726e-06	24.814	0.0002348	0.00022429	7.3231e-05	1013.5	2.5524e-06	2.5024e-06	1116.6	214.1	2.5745e-06	2.5427e-06	266.21	77.045	60.314	18.048	2.9272e-06	25.054	204.583	178.702	180.836	72.284	108.013	369.701	72.457	79.878	234.976	251.770	79.580	86.427	87.154	94.256	77.574	93.317	-8191	255	
6695.067	1	1	0	0	0.13149	0.22229	0.11977	0.10844	0.20068	0.15648	0.19093	0.24975	0.070918	0.092158	0.19806	0.26353	0.095698	0.071692	0.078826	0.036071	-2.1771	-2.7729	-2.4146	-2.6063	-2.775	-2.3333	-2.9938	-2.6	-2.4479	-2.9354	-2.3646	-2.6354	-2.7917	-2.3667	-2.7604	-2.5083	376.755	325.013	91.697	225.171	187.746	200.982	362.932	347.992	404.522	246.008	93.738	87.792	267.778	316.277	210.079	149.009	0.0002468	0.00054652	0.00020393	1066.4	1.7964e-06	2.6211e-06	1148.5	217.84	7.4083e-07	5.0081e-06	277.34	77.528	60.685	17.956	1.269e-06	24.949	0.00022773	0.00022924	7.2592e-05	1006.7	2.3944e-06	2.5391e-06	1114.7	213.25	2.3596e-06	2.527e-06	263.33	76.487	59.827	18.013	2.6796e-06	24.852	190.266	134.623	91.370	72.521	157.566	162.137	72.517	80.124	296.628	214.999	79.387	86.569	87.323	93.901	336.512	93.551	-8191	255	
6695.163	1	1	0	0	0.061239	0.14303	0.10461	0.098803	0.098726	0.29484	0.10674	0.15807	0.070895	0.23307	0.26182	0.20309	0.29491	0.17461	0.24382	0.28913	-1.9042	-2.7375	-2.5938	-2.4792	-2.7646	-2.3979	-2.9292	-2.7229	-2.2479	-2.6937	-2.3708	-2.5083	-2.7708	-2.2542	-2.6896	-2.5833	164.565	151.888	68.325	99.982	93.252	126.324	341.606	119.202	155.508	292.241	101.942	158.951	69.081	338.993	312.182	365.896	0.00017672	0.00046359	0.00010097	1065	4.3382e-06	2.8466e-06	1147.7	216.88	2.2709e-06	4.874e-06	273.92	77.535	60.303	17.738	2.5758e-06	24.771	0.00021154	0.00023583	6.7598e-05	1001.3	2.2483e-06	2.6865e-06	1110.8	212.4	2.3616e-06	2.7156e-06	262.03	76.428	59.775	18.078	2.6322e-06	24.804	211.236	410.464	406.280	72.391	128.918	250.751	72.374	80.169	284.387	234.408	79.590	86.480	87.058	94.121	356.297	93.548	-8191	255	
6695.257	1	1	0	0	0.1567	0.0018639	0.34168	0.45627	0.15128	0.086278	0.10893	0.022592	0.074343	0.083921	0.2053	0.054	0.23401	0.16291	0.10113	0.11205	-2.1125	-2.7125	-2.4167	-2.4604	-2.6333	-2.4583	-2.6958	-2.7167	-2.2375	-2.625	-2.5771	-2.2562	-2.9688	-2.3917	-2.675	-2.8063	296.785	180.000	181.972	82.056	275.811	81.601	194.787	147.483	317.471	106.423	95.949	378.495	385.851	404.239	360.457	105.085	0.00027826	0.00071905	8.4158e-05	1058.2	4.267e-06	3.4405e-06	1142.1	217.25	5.1773e-06	3.2374e-06	274.87	77.325	60.131	17.705	1.6875e-06	24.618	0.00021939	0.00025097	6.4858e-05	996.69	2.3438e-06	2.7103e-06	1105.6	211.65	2.3933e-06	2.7039e-06	259.29	75.948	59.72	17.975	2.4483e-06	24.555	210.649	104.847	367.464	72.477	186.002	143.140	72.539	80.138	234.264	300.018	79.569	86.276	87.619	94.042	316.737	93.577	-8191	255	
6695.355	1	1	0	0	0.14443	0.090185	0.1677	0.2029	0.15448	0.11491	0.31924	0.17339	0.1465	0.14858	0.033941	0.28825	0.10966	0.11091	0.087772	0.058099	-1.7812	-2.8563	-2.3667	-2.4104	-2.8167	-2.6229	-2.6875	-2.8542	-2.3396	-2.8812	-2.6354	-2.4458	-2.8063	-2.575	-2.7375	-2.7313	416.462	386.600	272.706	406.809	368.905	236.268	336.878	372.992	301.157	62.602	89.662	421.421	213.585	109.744	257.811	407.974	0.00026272	0.00057875	8.5548e-05	1061.6	4.6498e-06	5.5726e-07	1139.9	215.22	6.2015e-06	5.7216e-06	277.76	77.567	60.613	17.674	4.2411e-06	24.698	0.00022945	0.0002486	6.1434e-05	991.1	2.5061e-06	2.7049e-06	1102.8	210.2	2.5919e-06	2.6911e-06	259.12	76.001	59.988	17.958	2.4537e-06	24.609	201.456	402.398	145.875	71.768	188.047	289.078	72.561	80.022	225.495	273.957	79.459	86.350	87.352	94.266	182.313	93.159	-8191	255	
6695.450	1	1	0	0	0.2785	0.33422	0.10804	0.086461	0.087952	0.16871	0.29818	0.13621	0.074248	0.17499	0.19892	0.17324	0.034656	0.17353	0.10868	0.23652	-1.8667	-2.7271	-2.5292	-2.3792	-2.6833	-2.5833	-2.5604	-2.8167	-2.5687	-2.7313	-2.6708	-2.5854	-2.875	-2.5875	-2.5729	-2.7417	114.641	84.067	206.007	75.292	218.821	93.770	331.630	356.911	327.023	137.856	415.240	356.197	124.152	402.430	67.131	102.941	0.00024712	0.00022769	6.431e-05	1061.2	2.876e-06	4.5311e-06	1138.8	215.59	3.9337e-06	1.1348e-06	278.1	77.534	60.183	17.615	2.3756e-06	24.714	0.00024986	0.00024559	6.2036e-05	995.47	2.7692e-06	2.682e-06	1103.8	210.88	2.8306e-06	2.6483e-06	259.3	76.198	60.347	17.933	2.4825e-06	24.766	201.305	200.516	233.743	72.107	250.704	261.581	72.522	79.987	218.870	195.548	79.852	86.323	87.375	93.699	164.757	93.381	-8191	255	
6695.546	1	1	0	0	0.21274	0.15013	0.23489	0.17257	0.18922	0.16754	0.28426	0.073533	0.12843	0.11494	0.12097	0.12307	0.16502	0.22398	0.072989	0.24843	-1.9813	-2.4437	-2.7792	-2.4292	-2.8042	-2.5083	-2.4042	-2.9125	-2.4292	-2.5312	-2.7354	-2.4333	-2.9292	-2.5167	-2.3833	-2.8729	77.908	329.394	146.255	366.294	187.618	331.052	404.208	253.103	245.747	282.538	128.595	408.550	128.925	356.051	203.633	144.628	0.00018476	0.00022777	0.00020089	1061.7	2.107e-06	1.7512e-06	1149.4	217.47	2.9021e-06	2.5469e-06	274.63	76.852	60.385	17.658	2.1048e-06	24.78	0.00026296	0.00024249	6.2377e-05	999.47	2.9156e-06	2.615e-06	1107.2	212.06	2.919e-06	2.6211e-06	258.47	76.391	60.397	17.876	2.4241e-06	24.88	193.794	340.994	101.548	72.137	149.026	64.677	72.421	79.917	75.080	291.476	79.505	86.206	87.210	93.972	232.347	93.097	-8191	255	
6695.642	1	1	0	0	0.099684	0.18857	0.076517	0.096379	0.29864	0.12746	0.34002	0.11535	0.080318	0.12367	0.13407	0.10085	0.12059	0.23861	0.12	0.17868	-2.05	-2.3625	-2.6271	-2.6083	-2.7042	-2.5833	-2.6229	-2.7396	-2.6042	-2.5708	-2.6042	-2.4604	-2.6146	-2.7208	-2.3875	-2.7667	386.883	304.673	96.018	303.504	248.597	123.346	251.486	160.363	125.852	119.785	93.677	303.914	92.309	227.229	72.719	352.385	0.00020172	0.00058205	0.00010891	1069.3	3.3092e-06	3.8455e-06	1147.6	215.64	1.2494e-06	2.1596e-06	275.69	76.772	60.304	17.725	3.265e-06	24.513	0.00025711	0.00023082	6.0251e-05	1007.4	2.803e-06	2.5056e-06	1106.4	212.31	2.7711e-06	2.5465e-06	258.08	76.496	60.246	17.847	2.4736e-06	24.954	221.042	171.075	266.284	72.214	284.987	249.884	72.607	80.168	163.868	216.045	79.233	86.413	87.005	93.669	196.174	93.355	-8191	255	
6695.738	1	1	0	0	0.24252	0.22047	0.19453	0.19084	0.22164	0.28364	0.24772	0.17475	0.19923	0.067536	0.20842	0.097561	0.11157	0.070225	0.25681	0.16165	-2.0167	-2.5708	-2.5687	-2.3625	-2.6167	-2.5938	-2.4854	-2.9313	-2.4688	-2.4146	-2.8104	-2.3708	-2.4875	-2.8479	-2.4313	-2.6208	112.297	268.612	347.040	306.450	312.983	400.100	96.560	377.837	375.548	286.273	79.935	412.811	113.360	394.591	111.913	134.668	0.00021052	0.00014577	0.00010667	1063.1	9.7993e-07	1.9766e-06	1145.4	216.4	2.2368e-06	2.2716e-06	276.21	77.323	60.234	17.659	4.6429e-06	24.638	0.00024705	0.00023029	6.2161e-05	1008.2	2.7039e-06	2.4406e-06	1106.3	213.16	2.6451e-06	2.4904e-06	259.9	76.752	60.114	17.827	2.6001e-06	25.024	207.037	111.703	159.336	72.291	94.330	210.417	72.470	80.224	304.883	121.947	79.714	86.415	87.099	94.152	241.142	93.089	-8191	255	
6695.859	1	1	0	0	0.099713	0.033665	0.1583	0.078004	0.11563	0.30638	0.01227	0.17615	0.098695	0.2874	0.055157	0.24056	0.12471	0.090009	0.21621	0.0478	-1.9646	-2.3583	-2.7396	-2.5333	-2.6437	-2.625	-2.525	-2.5583	-2.5875	-2.3667	-2.8875	-2.3958	-2.4479	-2.7146	-2.3292	-2.7833	204.939	339.607	73.479	335.786	352.583	150.629	354.629	96.679	204.142	140.145	381.480	141.208	360.242	115.403	225.289	119.816	0.00018614	0.00040677	0.00021365	1062.6	3.218e-06	1.4139e-06	1147.6	216.65	2.6191e-06	2.3588e-06	274.57	77.081	60.443	17.749	5.9868e-06	24.805	0.00023658	0.00022951	6.6779e-05	1010.9	2.6576e-06	2.4542e-06	1111	213.43	2.6565e-06	2.5507e-06	262.26	77.048	60.29	17.905	2.8964e-06	25.138	200.665	120.038	125.538	72.474	181.054	98.191	72.601	80.149	146.971	195.861	79.298	86.305	87.497	94.072	193.331	93.291	-8191	255	
6695.930	1	1	0	0	0.090047	0.13591	0.17972	0.18891	0.1173	0.3781	0.17271	0.29457	0.063682	0.097232	0.22225	0.12875	0.21315	0.18193	0.10887	0.16684	-2.0958	-2.25	-2.7	-2.5062	-2.4875	-2.7313	-2.6437	-2.7167	-2.6	-2.4583	-2.8083	-2.5187	-2.3979	-2.6729	-2.3271	-2.6437	208.643	79.640	62.513	235.452	230.785	235.534	258.207	288.695	240.557	162.134	330.049	100.049	266.089	310.638	250.671	344.859	0.00018611	0.0001213	1.1362e-05	1065.4	1.1202e-06	1.6011e-06	1154.8	216.21	1.0791e-06	6.2158e-06	277.62	77.186	60.075	17.725	1.2209e-06	24.806	0.00023988	0.00023372	7.4252e-05	1011.7	2.6592e-06	2.4991e-06	1116.2	213.42	2.5948e-06	2.5908e-06	266.02	76.818	60.176	17.909	2.9816e-06	24.997	201.690	176.139	80.785	72.377	90.265	74.306	72.369	79.897	282.574	194.191	79.673	86.637	87.331	93.826	63.642	93.133	-8191	255	
6696.026	1	1	0	0	0.16324	0.043183	0.21535	0.063827	0.29032	0.16409	0.43746	0.077091	0.15659	0.1512	0.22396	0.059945	0.45762	0.22056	0.12982	0.15063	-2.0312	-2.2042	-2.8604	-2.5333	-2.2708	-2.7521	-2.525	-2.5333	-2.6417	-2.2958	-2.7271	-2.5146	-2.3271	-2.6896	-2.3958	-2.6917	142.039	398.323	264.920	85.959	369.568	128.092	349.462	120.155	297.984	312.801	329.608	315.020	118.808	149.542	78.050	375.209	0.00019007	0.00062777	5.7497e-05	1056.4	1.7915e-06	5.8724e-06	1149.5	215.67	2.868e-06	3.6831e-06	274.85	76.982	60.322	17.659	2.4843e-06	24.737	0.00023195	0.00023654	7.5685e-05	1005.6	2.544e-06	2.5973e-06	1116.6	212.47	2.4797e-06	2.6716e-06	264.94	76.532	59.971	17.971	2.8773e-06	24.897	221.048	106.734	135.709	72.017	124.951	255.539	72.572	80.270	163.335	197.137	79.427	86.273	87.276	93.831	96.057	93.355	-8191	255	
6696.147	1	1	0	0	0.26899	0.12412	0.19867	0.20078	0.22917	0.099674	0.23464	0.02899	0.054211	0.21971	0.12466	0.10225	0.13567	0.13392	0.11632	0.12043	-2.2917	-2.5354	-2.5542	-2.5833	-2.2833	-2.9062	-2.7146	-2.8104	-2.7021	-2.5771	-2.7604	-2.5792	-2.4146	-2.6625	-2.4125	-2.4854	409.074	364.440	190.646	347.208	254.126	396.738	386.623	210.525	129.992	346.796	320.876	340.902	402.272	178.059	223.525	76.048	0.00016817	0.00017111	0.00010542	1065.6	5.5008e-06	7.6218e-06	1151	215.08	2.2237e-06	4.0895e-06	275.56	76.758	60.343	17.706	4.4582e-06	24.788	0.00022017	0.0002481	7.1658e-05	1004.4	2.4372e-06	2.6805e-06	1114	211.55	2.303e-06	2.6637e-06	262.03	75.885	59.575	17.921	2.6159e-06	24.75	219.293	155.380	155.290	72.328	123.263	210.780	72.324	80.253	176.187	189.868	79.664	86.330	87.009	93.727	237.102	93.004	-8191	255	
6696.243	1	1	0	0	0.080328	0.15199	0.22299	0.13745	0.07182	0.29659	0.1514	0.16418	0.13596	0.27799	0.10823	0.13991	0.1154	0.095566	0.097783	0.19481	-2.3479	-2.3354	-2.8604	-2.5125	-2.325	-2.9813	-2.6	-2.4417	-2.85	-2.3083	-2.7958	-2.6437	-2.5187	-2.8563	-2.4917	-2.5979	153.552	207.409	157.735	395.738	265.644	203.793	161.870	124.078	384.174	347.831	394.593	121.175	382.182	335.076	65.281	105.133	0.00022821	0.00032318	0.00013041	1061.1	5.3381e-06	8.4761e-07	1144.8	215.83	8.7145e-07	8.4541e-06	276.98	76.974	59.882	17.723	2.8318e-06	24.875	0.00020912	0.00024905	6.6023e-05	997.13	2.3618e-06	2.734e-06	1107.5	211.3	2.3946e-06	2.8503e-06	261.65	75.949	59.786	18.094	2.6316e-06	24.82	213.428	200.607	156.604	72.277	191.481	174.303	72.566	80.128	384.362	214.643	79.542	86.665	87.149	93.964	193.785	93.496	-8191	255	
6696.339	1	1	0	0	0.23509	0.18304	0.21414	0.056573	0.07334	0.16061	0.26114	0.12286	0.1814	0.14273	0.15695	0.22921	0.13707	0.10423	0.17155	0.15107	-2.5229	-2.2271	-2.5458	-2.7438	-2.3875	-2.7938	-2.9958	-2.4125	-2.8063	-2.3458	-2.6604	-2.8333	-2.2979	-2.7208	-2.5563	-2.5917	419.810	100.227	252.695	318.653	155.709	151.479	390.751	104.898	93.074	302.718	297.644	407.159	127.037	398.229	111.527	84.226	0.00020026	0.00031261	0.00010203	1062.8	4.4557e-06	2.2512e-06	1150.1	215.95	3.0177e-06	3.0443e-06	275.8	76.725	60.374	17.643	5.434e-06	24.701	0.00023437	0.00026457	6.6915e-05	996.28	2.6324e-06	2.8765e-06	1109.2	211.36	2.6302e-06	2.8322e-06	259.99	75.898	60.066	18.055	2.4939e-06	24.784	209.965	78.139	259.554	71.870	212.492	201.947	72.349	80.074	303.342	230.858	79.513	86.440	87.218	93.904	229.192	93.342	-8191	255	
6696.458	1	1	0	0	0.22594	0.10353	0.12128	0.14372	0.074487	0.021073	0.20432	0.087738	0.21012	0.16342	0.11229	0.20891	0.24802	0.16681	0.22881	0.16245	-2.3333	-2.4458	-2.5875	-2.6542	-2.5667	-2.7521	-2.5667	-2.4125	-2.6417	-2.3708	-2.5938	-2.8208	-2.5333	-2.5917	-2.625	-2.2208	352.543	221.913	198.040	351.045	268.821	243.223	416.334	359.186	153.034	82.438	352.363	99.161	350.437	151.277	402.825	392.096	0.00022021	0.00048767	9.2272e-05	1064.4	2.4448e-06	1.2236e-06	1143.8	215.64	1.928e-06	4.3746e-06	275.18	77.382	60.149	17.625	4.8999e-06	24.655	0.0002445	0.00024979	6.2646e-05	995.62	2.6633e-06	2.6271e-06	1104.3	210.36	2.61e-06	2.5408e-06	258.42	75.763	59.991	17.858	2.2814e-06	24.669	208.846	122.883	242.276	72.051	219.842	187.805	72.468	80.233	234.241	159.092	79.407	86.567	87.297	94.287	307.359	93.546	-8191	255	
6696.554	1	1	0	0	0.1653	0.11671	0.072243	0.22989	0.32749	0.10756	0.18969	0.37203	0.17015	0.18739	0.16822	0.15481	0.13983	0.23832	0.16504	0.14511	-2.2396	-2.5792	-2.4208	-2.6292	-2.425	-2.5125	-2.8146	-2.4021	-2.7562	-2.6271	-2.2938	-2.75	-2.5729	-2.4771	-2.6917	-2.5896	271.958	90.493	218.143	386.535	346.764	237.020	400.872	392.011	258.859	146.522	207.774	217.638	127.031	298.291	176.538	400.892	0.00023252	0.00023063	7.4096e-05	1061.6	5.8257e-06	1.7552e-06	1138.7	215.09	4.0391e-06	2.8992e-06	276.68	77.243	60.9	17.628	1.5327e-06	24.714	0.0002463	0.00022847	5.9796e-05	995.4	2.7615e-06	2.5437e-06	1100.4	210.72	2.7618e-06	2.4812e-06	258.38	76.02	60.371	17.89	2.328e-06	24.81	196.622	242.026	196.186	72.564	206.233	252.289	72.376	80.495	192.308	140.210	79.898	86.588	87.483	93.562	304.020	93.484	-8191	255	
6696.626	1	1	0	0	0.25028	0.27077	0.36307	0.13531	0.13399	0.15629	0.11161	0.19686	0.22456	0.063005	0.18005	0.26186	0.256	0.05319	0.12141	0.19115	-1.9958	-2.6271	-2.4396	-2.8521	-2.2708	-2.6312	-2.875	-2.3625	-2.7771	-2.6875	-2.4896	-2.7583	-2.4021	-2.575	-2.6458	-2.5	144.128	240.657	261.637	308.361	289.939	75.934	298.570	104.243	91.465	110.680	278.136	393.581	220.262	170.911	329.011	93.971	0.00014393	0.00041791	8.9882e-05	1053.3	4.323e-06	2.83e-06	1142.9	216.59	1.3885e-06	4.0765e-06	276.01	77.161	60.092	17.63	2.3223e-07	24.844	0.00025611	0.00023108	6.18e-05	998.59	2.8435e-06	2.5973e-06	1102.8	212.07	2.8311e-06	2.5048e-06	258.6	76.424	60.05	17.899	2.3549e-06	25.062	215.552	105.827	94.797	72.709	182.795	234.639	72.631	80.386	279.252	66.307	79.292	86.737	87.114	93.702	282.389	93.529	-8191	255	
6696.747	1	1	0	0	0.10099	0.077092	0.094921	0.055753	0.072344	0.35342	0.078301	0.24558	0.21932	0.16928	0.074725	0.23667	0.17986	0.14232	0.16377	0.084453	-2.1979	-2.5521	-2.5125	-2.9437	-2.4979	-2.6937	-3.0229	-2.4771	-2.675	-2.7687	-2.3542	-2.9437	-2.5083	-2.4979	-2.5771	-2.4938	365.208	145.589	140.684	354.135	183.892	89.014	283.019	419.370	216.230	273.099	143.649	83.692	417.424	338.702	300.248	328.961	0.00018616	0.00031977	8.5474e-05	1056.3	2.2228e-06	4.8539e-06	1143.8	216.26	3.0071e-06	3.9913e-06	276.48	76.3	60.209	17.66	6.6431e-06	24.808	0.00025154	0.0002249	6.1851e-05	1000.7	2.695e-06	2.4983e-06	1102.5	212.39	2.6673e-06	2.417e-06	259.24	76.426	60.005	17.828	2.4623e-06	25.032	223.351	403.238	115.112	72.010	127.120	420.880	72.570	80.148	175.230	198.404	79.284	86.446	87.769	93.585	182.585	93.226	-8191	255	
6696.843	1	1	0	0	0.050824	0.11742	0.23577	0.18534	0.15729	0.067142	0.14553	0.34713	0.15047	0.14924	0.12703	0.12151	0.35076	0.11936	0.40161	0.085822	-2.0479	-2.5375	-2.3083	-2.7104	-2.4146	-2.5458	-2.8396	-2.4917	-2.5521	-2.6729	-2.3771	-2.8396	-2.5875	-2.5271	-2.7188	-2.3479	184.997	226.359	208.206	225.439	407.618	65.943	388.323	337.596	226.887	161.046	266.078	121.592	72.592	378.234	252.271	321.239	0.00020778	0.0005281	0.000201	1058.9	2.0135e-06	2.1771e-06	1141.5	216.15	4.1534e-06	7.9536e-07	275.62	76.645	60.462	17.675	2.3866e-06	24.796	0.00024011	0.00021965	6.4495e-05	1004.5	2.594e-06	2.4736e-06	1105.1	212.38	2.5946e-06	2.3438e-06	261.04	76.525	59.935	17.809	2.6408e-06	25.024	227.741	161.892	175.471	72.283	170.961	258.267	72.394	80.387	364.225	181.579	79.179	86.840	87.243	93.988	318.568	92.952	-8191	255	
6696.939	1	1	0	0	0.35673	0.044844	0.28493	0.33002	0.09644	0.20074	0.40837	0.080484	0.19881	0.28376	0.23688	0.18869	0.27604	0.13334	0.15995	0.10896	-2.1458	-2.8229	-2.3688	-2.5438	-2.7542	-2.3917	-2.9042	-2.4875	-2.8208	-2.7125	-2.625	-2.7146	-2.6417	-2.3208	-2.9229	-2.525	375.911	64.830	390.793	317.043	150.616	368.442	350.200	281.694	325.471	98.062	189.434	138.921	226.729	336.617	166.369	367.479	0.000166	0.00035893	9.4541e-05	1056.9	2.3232e-06	9.4206e-07	1148.8	215.58	2.9526e-07	3.0342e-06	278.29	76.985	59.97	17.742	3.9343e-06	24.737	0.00023428	0.00021354	6.9211e-05	1001.1	2.4732e-06	2.4221e-06	1108.9	211.75	2.5338e-06	2.3596e-06	264.37	76.37	59.839	17.898	2.8116e-06	24.93	225.573	190.499	172.222	72.631	163.833	161.743	72.224	79.972	307.912	225.999	80.105	86.416	87.333	93.784	259.945	93.091	-8191	255	
6697.035	1	1	0	0	0.17666	0.19949	0.31632	0.21259	0.049131	0.15953	0.2631	0.23244	0.17239	0.12668	0.2873	0.10381	0.13322	0.25991	0.07805	0.086944	-2.0833	-2.7625	-2.6396	-2.7021	-2.6792	-2.3521	-3.0625	-2.6333	-2.3917	-2.9125	-2.5312	-2.6937	-2.75	-2.375	-2.7271	-2.4854	272.034	96.021	301.754	85.832	355.646	259.177	68.386	114.944	90.313	309.983	163.815	76.542	66.491	420.560	64.538	325.832	0.00024373	0.00078763	5.582e-05	1065.4	1.6006e-06	1.3167e-06	1142	215.07	1.6486e-06	1.4158e-06	276.44	77.083	60.566	17.769	2.7031e-06	24.581	0.00022811	0.00021832	7.2256e-05	1003	2.4136e-06	2.4714e-06	1107.4	211.46	2.4874e-06	2.4815e-06	263.01	76.251	59.767	17.929	2.8402e-06	24.805	222.635	166.286	119.109	72.162	163.099	289.928	72.458	80.438	386.803	157.204	79.199	86.767	87.275	94.235	177.335	92.647	-8191	255	
6697.156	1	1	0	0	0.24999	0.36065	0.11902	0.20714	0.15892	0.20198	0.091047	0.18021	0.063581	0.062378	0.21345	0.21538	0.14551	0.10758	0.21925	0.27285	-1.8229	-2.7646	-2.4771	-2.6458	-2.7812	-2.25	-2.925	-2.7354	-2.4917	-2.95	-2.425	-2.5521	-2.7812	-2.5333	-2.6063	-2.8104	350.838	393.458	369.569	419.723	256.732	338.492	300.678	344.326	222.352	390.288	361.847	318.591	76.553	69.387	376.240	407.961	0.00020931	0.00061443	7.705e-05	1063.8	3.3606e-06	4.3611e-06	1144.1	214.46	6.231e-06	6.1718e-06	274.6	77.28	59.89	17.702	3.2436e-06	24.868	0.00022383	0.00023434	7.2087e-05	998.67	2.3724e-06	2.6665e-06	1107.9	211.23	2.4349e-06	2.6417e-06	262.26	76.29	59.479	17.962	2.743e-06	24.828	199.147	139.869	161.474	72.588	278.342	169.600	72.435	80.208	262.174	170.708	79.672	86.516	87.178	93.951	348.575	93.282	-8191	255	
6697.227	1	1	0	0	0.059564	0.22313	0.12906	0.32818	0.13503	0.093363	0.095514	0.28286	0.1031	0.14545	0.11811	0.14861	0.16756	0.15449	0.20729	0.31778	-1.8917	-2.8021	-2.5187	-2.5208	-2.8271	-2.5417	-2.8208	-2.8937	-2.4313	-2.6667	-2.45	-2.7396	-2.6833	-2.4729	-2.4896	-2.8479	291.066	84.852	90.941	74.048	108.354	326.503	331.149	319.004	195.289	381.247	248.455	85.610	275.329	354.482	412.683	377.536	0.00021583	0.00084394	1.9117e-06	1055.5	4.281e-06	4.3933e-06	1143.9	215.99	6.69e-06	1.1902e-06	275.36	77.37	60.482	17.589	4.8762e-06	24.911	0.0002182	0.00024457	6.8597e-05	995.68	2.3394e-06	2.773e-06	1106	210.92	2.4234e-06	2.7629e-06	261.67	76.277	59.768	18.024	2.6659e-06	24.833	208.782	148.485	183.911	72.388	242.082	222.596	72.398	80.425	236.249	65.269	79.637	86.496	87.127	93.998	358.861	93.021	-8191	255	
6697.324	1	1	0	0	0.087817	0.13309	0.26452	0.081434	0.22646	0.029751	0.26651	0.15215	0.19352	0.1498	0.044128	0.16943	0.12832	0.097193	0.2464	0.23857	-1.9312	-2.7542	-2.6146	-2.5312	-2.7625	-2.4875	-2.8083	-2.6792	-2.4021	-2.7042	-2.6	-2.3688	-2.7292	-2.5396	-2.5187	-2.7917	264.049	246.214	202.886	362.756	131.989	392.091	82.257	175.374	261.654	93.478	304.254	268.196	355.234	241.611	192.203	400.104	0.00020614	0.0005937	7.221e-05	1062.6	2.7595e-06	4.6339e-06	1146.5	215.75	6.8549e-06	1.7529e-06	274.41	76.988	60.74	17.653	4.1664e-06	24.935	0.00023034	0.00026288	6.6075e-05	999.27	2.5389e-06	2.8678e-06	1107.1	210.71	2.6664e-06	2.8693e-06	260.45	76.139	60.126	18.081	2.5757e-06	24.793	215.338	242.931	124.282	72.308	186.344	269.539	72.376	80.506	249.190	262.769	79.496	86.124	87.232	93.623	117.700	93.139	-8191	255	
6697.420	1	1	0	0	0.051796	0.20459	0.24454	0.28325	0.49117	0.10954	0.053975	0.25665	0.19764	0.14929	0.12689	0.14858	0.22515	0.10132	0.012028	0.12913	-1.9479	-2.7687	-2.3604	-2.4333	-2.9354	-2.3646	-2.8167	-2.7604	-2.6479	-2.6729	-2.6917	-2.6375	-2.7313	-2.2896	-2.5833	-3.0458	322.386	310.814	355.256	384.132	227.222	269.247	407.603	384.055	406.991	181.638	98.416	395.237	89.744	298.031	388.167	175.955	0.00029614	0.00034547	0.00011067	1057.3	1.9188e-06	1.932e-06	1147.5	215.72	1.2817e-06	3.7586e-06	275.67	77.173	60.253	17.707	5.2524e-06	24.921	0.000247	0.0002576	6.3891e-05	995.44	2.69e-06	2.7697e-06	1107	211.14	2.7999e-06	2.749e-06	259.31	76.17	60.158	18.009	2.5242e-06	24.764	202.911	111.829	253.240	72.347	190.027	204.518	72.688	80.253	379.486	309.765	79.272	86.192	87.498	94.450	194.409	92.991	-8191	255	
6697.539	1	1	0	0	0.045208	0.32937	0.18665	0.03462	0.16279	0.22631	0.16244	0.063656	0.22165	0.28308	0.042077	0.15173	0.18476	0.11901	0.050888	0.23125	-1.9833	-2.725	-2.5042	-2.5125	-2.5667	-2.5167	-2.6583	-2.6646	-2.4104	-2.6396	-2.5604	-2.4271	-2.9458	-2.4458	-2.4854	-2.8875	192.416	249.332	398.383	362.535	283.720	252.772	68.846	371.563	147.641	62.554	168.963	396.909	277.940	307.214	344.594	386.997	0.00016075	0.0001617	8.8587e-05	1056.9	2.6059e-06	3.5702e-06	1143.8	216.16	4.9217e-06	1.3525e-06	274.74	76.891	60.823	17.838	2.566e-06	24.607	0.00025667	0.00024731	6.203e-05	996.05	2.8502e-06	2.6552e-06	1104.4	210.94	2.837e-06	2.6541e-06	259.35	76.334	60.503	17.981	2.4473e-06	24.843	190.221	124.503	335.441	72.107	142.101	352.940	72.348	80.009	248.495	146.222	79.717	86.562	87.124	93.942	98.917	93.030	-8191	255	
6697.635	1	1	0	0	0.18007	0.034546	0.17681	0.29442	0.21073	0.17804	0.16403	0.20268	0.082007	0.079959	0.12604	0.26508	0.23419	0.11409	0.18113	0.13987	-1.9229	-2.4562	-2.6458	-2.35	-2.6396	-2.5479	-2.4562	-3	-2.3333	-2.6437	-2.5917	-2.5	-2.6188	-2.5938	-2.2313	-2.8104	406.787	252.003	330.896	68.401	308.514	266.959	68.570	405.789	383.592	342.221	77.468	94.096	129.803	77.331	178.265	322.451	0.00018231	0.00028596	4.1393e-05	1064.5	1.7289e-06	2.2909e-06	1141.7	216.79	1.7316e-06	1.0345e-06	273.62	77.091	60.375	17.651	3.0714e-06	24.748	0.00025907	0.00023521	5.9831e-05	1002.4	2.8266e-06	2.5071e-06	1103.3	211.92	2.7857e-06	2.5215e-06	257.45	76.388	60.256	17.872	2.3652e-06	24.921	215.400	188.176	179.916	72.387	255.010	106.601	72.534	80.263	130.719	232.223	79.890	86.353	86.988	94.409	230.980	92.916	-8191	255	
6697.731	1	1	0	0	0.26144	0.10027	0.11549	0.083373	0.14032	0.075026	0.030925	0.19282	0.041957	0.24044	0.050786	0.080557	0.11741	0.13551	0.15228	0.1785	-1.9375	-2.5896	-2.6562	-2.525	-2.875	-2.6083	-2.4875	-2.8333	-2.5979	-2.5167	-2.8604	-2.5542	-2.6021	-2.7438	-2.425	-2.775	100.323	419.770	123.483	378.205	387.252	92.560	383.722	253.875	116.527	100.641	359.163	164.871	85.616	124.732	280.373	237.232	0.00019609	0.00040884	0.00010444	1060	2.5749e-06	2.0747e-06	1147.5	215.78	1.002e-06	2.0018e-07	275.06	77.208	60.282	17.804	1.8632e-06	24.925	0.00024708	0.00022738	5.8693e-05	1001.2	2.6845e-06	2.402e-06	1105.6	212.09	2.6306e-06	2.4158e-06	258.09	76.477	59.94	17.828	2.3734e-06	25.024	205.835	70.218	136.044	72.395	257.685	267.162	72.432	80.284	190.649	230.458	79.433	86.545	86.928	93.864	93.186	92.921	-8191	255	
6697.827	1	1	0	0	0.27046	0.33765	0.038903	0.22299	0.085288	0.24929	0.20032	0.1111	0.072	0.18253	0.23158	0.11838	0.12031	0.090014	0.3135	0.14619	-2.0271	-2.4729	-2.6833	-2.5938	-2.5167	-2.9417	-2.6229	-2.675	-2.7125	-2.3042	-2.975	-2.3833	-2.7417	-2.6562	-2.4021	-2.6646	151.373	384.988	416.334	109.033	117.983	333.774	329.083	82.382	221.150	155.574	82.221	383.525	97.995	345.315	412.252	85.331	0.00020995	0.00012273	0.00010922	1061.9	3.3702e-06	2.089e-06	1147.4	216.18	1.65e-06	2.5438e-06	272.29	77.041	60.492	17.716	9.3445e-06	24.901	0.00023405	0.00021853	5.9811e-05	1005.1	2.5307e-06	2.3158e-06	1106.1	211.95	2.4638e-06	2.334e-06	258.39	76.655	59.947	17.82	2.5006e-06	25.06	210.983	101.271	69.461	72.493	185.948	273.960	72.206	80.121	107.169	208.162	79.841	86.468	87.503	94.358	200.878	93.369	-8191	255	
6697.922	1	1	0	0	0.20672	0.39893	0.16384	0.065528	0.23827	0.12944	0.13236	0.33118	0.19088	0.05963	0.15303	0.079287	0.081952	0.25933	0.20924	0.05007	-2.1833	-2.4458	-2.7208	-2.4333	-2.6063	-2.7438	-2.5708	-2.7771	-2.5917	-2.5917	-2.8208	-2.5417	-2.6729	-2.925	-2.475	-2.7667	171.077	98.839	182.335	92.673	377.357	153.425	399.258	293.981	344.517	317.819	375.921	126.955	64.949	223.906	124.835	268.466	0.00022525	0.00015289	0.00012777	1064	4.1964e-06	2.1149e-06	1143.9	214.98	2.6849e-06	3.2575e-06	278.14	76.814	60.243	17.781	5.5374e-06	24.815	0.00022184	0.00021128	6.3179e-05	1003.6	2.4441e-06	2.2336e-06	1105.8	212.01	2.3972e-06	2.3175e-06	261.31	76.378	59.709	17.826	2.6726e-06	24.973	203.611	240.956	122.803	72.556	132.643	261.504	72.380	80.370	245.664	162.252	79.695	86.731	87.471	94.374	186.122	93.244	-8191	255	
6698.018	1	1	0	0	0.21182	0.060553	0.13826	0.062584	0.27561	0.14311	0.083161	0.13593	0.21574	0.25145	0.15166	0.34387	0.26029	0.12564	0.069721	0.16533	-2.0187	-2.4604	-2.6063	-2.6	-2.6396	-2.7896	-2.4875	-2.6312	-2.8417	-2.5167	-2.9708	-2.5646	-2.475	-2.8688	-2.3292	-2.6896	83.205	323.200	78.039	370.818	342.796	257.576	82.298	361.758	130.722	107.004	152.418	71.190	219.604	409.843	108.652	402.499	0.00014937	0.00050145	0.00016361	1053.5	3.1195e-06	9.8332e-07	1136.6	215.73	2.0382e-06	4.936e-06	275.43	77.134	59.942	17.589	5.3399e-06	25.008	0.00021741	0.00021321	6.7927e-05	996.63	2.3862e-06	2.2769e-06	1102.6	211.73	2.3315e-06	2.3695e-06	261.42	76.455	59.608	17.815	2.7465e-06	24.975	190.456	106.441	139.021	72.608	62.330	283.730	72.511	80.309	356.026	313.938	79.701	86.298	87.155	93.761	194.475	93.655	-8191	255	
6698.138	1	1	0	0	0.11491	0.13878	0.25994	0.13327	0.041669	0.14037	0.27874	0.018298	0.10503	0.044889	0.26479	0.22228	0.27112	0.19037	0.17291	0.098247	-2.2146	-2.4146	-2.8229	-2.7875	-2.4417	-2.9375	-2.7708	-2.8187	-2.6688	-2.3604	-2.9042	-2.5438	-2.4042	-2.5729	-2.6042	-2.5292	179.635	313.991	111.812	387.859	88.503	168.341	367.266	164.416	386.538	150.328	289.539	150.344	143.281	240.750	384.983	345.879	0.00022799	4.4471e-05	3.6404e-05	1056.1	4.8399e-06	3.1023e-06	1147.9	216.41	1.1121e-06	5.0742e-06	275.05	76.746	60.524	17.734	8.9197e-07	24.795	0.00021591	0.00022542	6.9413e-05	996.17	2.3794e-06	2.4262e-06	1107.9	211.39	2.2809e-06	2.5271e-06	262.08	75.933	59.681	17.921	2.6998e-06	24.835	211.003	199.844	257.823	72.398	251.342	224.258	72.187	80.257	411.973	271.141	79.578	86.486	87.448	94.053	363.142	93.246	-8191	255	
6698.234	1	1	0	0	0.034011	0.075518	0.15675	0.37695	0.28618	0.21273	0.18373	0.16567	0.082272	0.25229	0.13433	0.40853	0.1501	0.088879	0.13479	0.24592	-2.0646	-2.2604	-2.6688	-2.4292	-2.3229	-2.8312	-2.6813	-2.6521	-2.8021	-2.5167	-2.7521	-2.75	-2.575	-2.9188	-2.6125	-2.5042	236.599	228.897	374.417	396.779	287.090	265.916	418.754	68.523	130.964	68.435	111.260	102.837	192.253	330.583	246.312	420.729	0.00018229	3.2937e-05	6.8704e-05	1059.8	2.1543e-06	3.0427e-06	1144.4	215.71	5.0303e-06	3.3561e-06	275.32	77.269	60.288	17.902	4.602e-06	24.781	0.00021085	0.00024216	6.9117e-05	995.71	2.3669e-06	2.6909e-06	1107.8	211.39	2.3649e-06	2.7559e-06	261.79	76.25	59.828	18.11	2.6515e-06	24.837	199.144	187.328	414.540	72.362	110.314	346.720	72.438	80.103	263.425	176.757	79.667	86.469	87.386	94.021	172.038	93.295	-8191	255	
6698.331	1	1	0	0	0.13326	0.21775	0.19446	0.27483	0.29824	0.10419	0.00522	0.099237	0.20876	0.21708	0.30339	0.17101	0.17806	0.11274	0.10912	0.26405	-2.3083	-2.5333	-2.7604	-2.6167	-2.6479	-2.7667	-2.6771	-2.4771	-2.7792	-2.4167	-2.4833	-2.8604	-2.3083	-2.6729	-2.5438	-2.4021	256.436	111.521	301.922	311.892	275.575	283.150	364.815	163.950	265.144	345.401	331.435	68.640	289.392	421.906	248.549	99.607	0.00020362	0.00048954	0.00015886	1065.8	2.2195e-06	9.5566e-07	1142.1	215.71	3.5262e-06	1.4392e-06	276.04	77.143	60.378	17.734	5.6634e-06	24.984	0.00021791	0.00025713	6.6453e-05	996.7	2.4562e-06	2.8231e-06	1106.8	211.4	2.4388e-06	2.8003e-06	260.43	76.08	59.951	18.114	2.5303e-06	24.918	218.555	121.133	271.526	72.411	261.903	247.941	72.579	80.358	283.225	253.825	79.673	86.293	87.195	93.773	181.733	93.319	-8191	255	
6698.427	1	1	0	0	0.22295	0.27176	0.073276	0.12764	0.017371	0.066938	0.076993	0.3566	0.38336	0.091092	0.12294	0.03832	0.091412	0.096416	0.33283	0.19224	-2.3896	-2.4229	-2.5521	-2.8396	-2.2292	-2.8688	-2.7313	-2.5312	-2.8417	-2.5104	-2.5771	-2.8063	-2.4875	-2.9104	-2.4958	-2.5458	92.383	95.582	80.226	387.412	191.089	217.599	399.034	408.908	95.292	362.795	84.288	307.409	314.442	391.209	173.245	237.503	0.00024979	0.00024941	6.4143e-05	1059.9	1.8543e-06	2.5404e-06	1145.6	215.45	5.6937e-06	2.2494e-06	279.03	77.642	60.608	17.626	2.3164e-06	24.942	0.00023353	0.00025494	6.4788e-05	994.2	2.6023e-06	2.7524e-06	1105	211.05	2.5985e-06	2.7138e-06	260.56	76.021	60.299	18.014	2.4184e-06	24.808	213.240	387.533	173.462	72.615	188.367	219.763	72.246	80.288	260.302	406.522	79.386	86.380	87.296	93.217	195.600	93.310	-8191	255	
6698.523	1	1	0	0	0.25401	0.1393	0.17071	0.14756	0.21925	0.017821	0.22007	0.13399	0.15148	0.20403	0.17186	0.25622	0.14309	0.061403	0.19135	0.30453	-2.2729	-2.4354	-2.6562	-2.725	-2.4062	-2.8458	-2.8292	-2.5187	-2.7833	-2.55	-2.6562	-2.8625	-2.3875	-2.8167	-2.6917	-2.5062	171.950	329.017	181.172	181.745	315.111	127.653	367.544	406.712	114.506	77.097	368.920	182.555	360.311	411.832	281.839	214.558	0.00019727	0.00027236	0.00010722	1062.3	3.3012e-06	2.6325e-06	1146.3	215.98	6.2061e-06	3.6785e-06	278.39	77.378	60.028	17.704	5.4935e-06	24.961	0.00024442	0.0002435	6.2888e-05	994.57	2.781e-06	2.6723e-06	1105.9	211.56	2.7668e-06	2.6087e-06	259.72	76.182	60.258	18.052	2.4075e-06	24.892	205.706	183.357	172.049	72.327	228.495	371.885	72.392	80.134	236.832	226.838	79.065	86.214	86.922	93.932	232.646	93.610	-8191	255	
6698.619	1	1	0	0	0.12135	0.1082	0.33427	0.036582	0.15455	0.15997	0.1853	0.13889	0.26991	0.048399	0.20041	0.29994	0.16285	0.24349	0.25064	0.061487	-2.45	-2.5021	-2.3958	-2.8979	-2.5771	-2.575	-2.7646	-2.4271	-2.8063	-2.7042	-2.5479	-2.9042	-2.7521	-2.6437	-2.975	-2.4604	239.559	382.038	205.464	254.957	377.666	409.792	354.312	221.746	151.469	243.702	395.738	419.386	82.679	322.142	405.471	214.563	0.0002757	0.00056957	1.3753e-05	1057.9	6.0995e-06	2.0956e-06	1142.3	216.74	4.608e-06	1.0624e-06	274.29	77.34	60.444	17.796	2.7722e-06	24.977	0.00025999	0.00023636	6.2356e-05	998.17	2.8412e-06	2.5847e-06	1104.4	212.29	2.8404e-06	2.5306e-06	258.75	76.415	60.48	17.946	2.354e-06	25.013	197.993	178.960	346.290	72.526	294.853	176.445	72.344	80.206	261.088	79.089	80.076	86.710	87.058	93.980	152.393	93.295	-8191	255	
6698.715	1	1	0	0	0.071481	0.14949	0.042069	0.27874	0.17629	0.19534	0.36638	0.017451	0.26956	0.17391	0.079712	0.10741	0.080994	0.10515	0.21976	0.0064645	-2.3	-2.6729	-2.2979	-2.9	-2.4542	-2.5458	-2.9083	-2.7062	-2.725	-2.5333	-2.5771	-2.7896	-2.5354	-2.5396	-2.7125	-2.5229	191.318	213.761	200.483	379.906	198.144	360.300	337.140	288.815	418.299	110.499	400.955	261.762	138.482	331.188	149.193	218.716	0.00022831	0.00012134	0.00015391	1059.4	6.7176e-06	2.8371e-06	1147.3	216.73	1.5681e-07	4.3388e-06	275.96	77.335	60.43	17.722	4.9662e-06	24.771	0.00025394	0.00022712	6.0381e-05	999.7	2.7502e-06	2.5057e-06	1103.9	212.82	2.725e-06	2.4356e-06	259.06	76.629	60.135	17.887	2.3453e-06	25.042	234.128	193.339	190.848	72.236	120.880	121.242	72.490	80.211	185.414	194.742	79.724	86.435	87.264	93.988	300.948	93.161	-8191	255	
6698.834	1	1	0	0	0.097287	0.11428	0.046593	0.077222	0.12596	0.087001	0.40414	0.31562	0.26955	0.19063	0.47616	0.057746	0.36501	0.15886	0.077979	0.29626	-2.5312	-2.6229	-2.4146	-2.7104	-2.3812	-2.5875	-2.7979	-2.5396	-2.6979	-2.5708	-2.3083	-2.7458	-2.6417	-2.4521	-2.7292	-2.7375	137.477	276.965	189.408	169.057	219.908	94.196	346.903	265.236	180.108	211.118	284.178	396.749	404.972	203.210	126.816	421.876	0.00019978	0.00039736	8.8537e-05	1057.8	8.4587e-07	1.6915e-06	1142.8	216.01	6.6645e-07	3.6936e-06	277.57	77.286	60.744	17.733	4.4324e-06	24.881	0.00024112	0.00021887	6.1244e-05	1002.8	2.5974e-06	2.4076e-06	1104.1	212.59	2.5702e-06	2.3318e-06	259.44	76.745	60.062	17.87	2.454e-06	25.165	224.693	192.828	163.293	72.149	411.991	253.702	72.671	80.026	76.973	98.769	79.527	86.492	86.976	93.921	155.003	93.057	-8191	255	
6698.930	1	1	0	0	0.28	0.34702	0.28866	0.129	0.081808	0.23695	0.35905	0.16078	0.17129	0.16971	0.24591	0.30208	0.040961	0.27565	0.30098	0.23414	-2.1063	-2.6312	-2.425	-2.8083	-2.6292	-2.2062	-3.1167	-2.5146	-2.8146	-2.6625	-2.5083	-2.9271	-2.725	-2.4542	-2.7646	-2.6271	337.850	331.505	398.033	314.762	98.831	189.386	395.961	297.179	330.481	263.069	63.756	329.223	287.643	382.565	170.660	415.731	0.00018946	0.00029402	0.00022399	1056.8	4.4831e-06	9.0989e-07	1145.5	216.22	3.4353e-06	5.1774e-06	276.91	77.19	60.04	17.708	1.63e-06	24.747	0.00023401	0.00021512	6.5301e-05	1004	2.511e-06	2.3886e-06	1106.4	213.22	2.5196e-06	2.2976e-06	261.93	76.719	59.801	17.861	2.6514e-06	25.058	209.499	166.178	165.008	72.196	236.886	367.154	72.220	80.065	175.347	254.778	80.138	86.357	87.352	93.970	86.692	93.231	-8191	255	
6699.026	1	1	0	0	0.14431	0.33047	0.10823	0.045104	0.14972	0.14102	0.23304	0.23711	0.24795	0.27023	0.21892	0.13382	0.1333	0.21158	0.1378	0.37951	-2.2542	-2.6063	-2.5938	-2.6292	-2.7729	-2.6125	-2.7792	-2.5167	-2.8	-2.9479	-2.3417	-2.7521	-2.8292	-2.3646	-3.0083	-2.5729	304.047	387.330	91.200	275.895	69.809	158.984	348.648	404.029	276.162	243.801	311.815	411.902	278.063	408.936	380.530	389.297	0.00018212	0.00016532	9.0782e-05	1063.5	2.7131e-06	3.1345e-06	1146.1	215.35	4.4413e-06	2.9772e-06	276.72	77.534	59.921	17.901	2.769e-06	24.87	0.00022725	0.000214	6.9254e-05	1004.3	2.4714e-06	2.4056e-06	1108.7	212.38	2.4941e-06	2.3913e-06	263.14	76.693	59.788	17.964	2.8112e-06	25.024	223.657	385.929	116.539	72.065	144.325	254.581	72.654	80.113	271.935	197.475	79.639	86.389	87.185	93.925	220.013	93.323	-8191	255	
6699.100	1	1	0	0	0.29451	0.18295	0.10714	0.049218	0.24677	0.066566	0.22843	0.16775	0.11436	0.23811	0.24672	0.083524	0.080955	0.24023	0.11119	0.16841	-1.9979	-2.9167	-2.3875	-2.6021	-2.7292	-2.4708	-3.0062	-2.6312	-2.4208	-2.9167	-2.3563	-2.6417	-2.7521	-2.4958	-2.7313	-2.5229	112.208	174.427	174.048	302.218	84.154	158.427	336.316	407.246	91.940	118.560	310.466	420.103	352.220	368.909	167.323	413.660	0.00022959	0.00059425	0.00011731	1061.3	6.6398e-06	1.1543e-06	1146.4	216.2	2.2633e-06	4.7754e-06	274.55	77.082	60.447	17.872	7.6306e-06	24.689	0.00022658	0.00022507	7.2438e-05	1002.1	2.3797e-06	2.5024e-06	1109.8	212.31	2.4152e-06	2.496e-06	263.12	76.505	59.724	18.008	2.8471e-06	24.913	203.101	148.561	155.852	72.399	154.931	259.628	72.420	79.989	207.278	198.556	79.431	86.365	86.798	93.741	259.355	93.535	-8191	255	
#DATA ENDS
