BOXY.EXE: ISS Imagent and Oximeter Data Acquisition Program Version 0.80
Ascii Record File

#ACQ INFORMATION
2  Detector Channels 
16  External MUX Channels 
1  Auxiliary Channels 
5000  Waveform (CCF) Frequency (Hz)
1  Waveforms Skipped 
30  Waveforms Averaged 
1  Cycles Averaged 
16  Acquisitions per Waveform 
10.0806  Updata Rate (Hz) 

#FILE INFORMATION
TRUE -- External MUX Channel results are PARSED.
FALSE -- AC DC and Phase are NOT grouped.
TRUE -- Companion Program Settings File CREATED.
FALSE -- AC data not excluded
FALSE -- DC data not excluded
FALSE -- Phase data not excluded
FALSE -- Auxillary Chn. data not excluded
Tab delimiters

#CALIBRATION STATE
TRUE -- Waveform Calibration Values APPLIED.


#AUX CALIBRATION VALUES
Val Type	aux-1	

Term	1.0000e+00	
Factor	0.0000e+00	


#WF CALIBRATION VALUES
A = Detector Channel
Val Type	A-AC1	A-AC2	A-AC3	A-AC4	A-AC5	A-AC6	A-AC7	A-AC8	A-AC9	A-AC10	A-AC11	A-AC12	A-AC13	A-AC14	A-AC15	A-AC16	A-DC1	A-DC2	A-DC3	A-DC4	A-DC5	A-DC6	A-DC7	A-DC8	A-DC9	A-DC10	A-DC11	A-DC12	A-DC13	A-DC14	A-DC15	A-DC16	A-Ph1	A-Ph2	A-Ph3	A-Ph4	A-Ph5	A-Ph6	A-Ph7	A-Ph8	A-Ph9	A-Ph10	A-Ph11	A-Ph12	A-Ph13	A-Ph14	A-Ph15	A-Ph16	

Term	0.00000e+00	0.00000e+00	0.00000e+00	0.00000e+00	0.00000e+00	0.00000e+00	0.00000e+00	0.00000e+00	0.00000e+00	0.00000e+00	0.00000e+00	0.00000e+00	0.00000e+00	0.00000e+00	0.00000e+00	0.00000e+00	0.00000e+00	0.00000e+00	0.00000e+00	0.00000e+00	0.00000e+00	0.00000e+00	0.00000e+00	0.00000e+00	0.00000e+00	0.00000e+00	0.00000e+00	0.00000e+00	0.00000e+00	0.00000e+00	0.00000e+00	0.00000e+00	0.00000e+00	0.00000e+00	0.00000e+00	0.00000e+00	0.00000e+00	0.00000e+00	0.00000e+00	0.00000e+00	0.00000e+00	0.00000e+00	0.00000e+00	0.00000e+00	0.00000e+00	0.00000e+00	0.00000e+00	0.00000e+00	
Factor	1.00000e+00	1.00000e+00	1.00000e+00	1.00000e+00	1.00000e+00	1.00000e+00	1.00000e+00	1.00000e+00	1.00000e+00	1.00000e+00	1.00000e+00	1.00000e+00	1.00000e+00	1.00000e+00	1.00000e+00	1.00000e+00	1.00000e+00	1.00000e+00	1.00000e+00	1.00000e+00	1.00000e+00	1.00000e+00	1.00000e+00	1.00000e+00	1.00000e+00	1.00000e+00	1.00000e+00	1.00000e+00	1.00000e+00	1.00000e+00	1.00000e+00	1.00000e+00	X	X	X	X	X	X	X	X	X	X	X	X	X	X	X	X	

B = Detector Channel
Val Type	B-AC1	B-AC2	B-AC3	B-AC4	B-AC5	B-AC6	B-AC7	B-AC8	B-AC9	B-AC10	B-AC11	B-AC12	B-AC13	B-AC14	B-AC15	B-AC16	B-DC1	B-DC2	B-DC3	B-DC4	B-DC5	B-DC6	B-DC7	B-DC8	B-DC9	B-DC10	B-DC11	B-DC12	B-DC13	B-DC14	B-DC15	B-DC16	B-Ph1	B-Ph2	B-Ph3	B-Ph4	B-Ph5	B-Ph6	B-Ph7	B-Ph8	B-Ph9	B-Ph10	B-Ph11	B-Ph12	B-Ph13	B-Ph14	B-Ph15	B-Ph16	

Term	0.00000e+00	0.00000e+00	0.00000e+00	0.00000e+00	0.00000e+00	0.00000e+00	0.00000e+00	0.00000e+00	0.00000e+00	0.00000e+00	0.00000e+00	0.00000e+00	0.00000e+00	0.00000e+00	0.00000e+00	0.00000e+00	0.00000e+00	0.00000e+00	0.00000e+00	0.00000e+00	0.00000e+00	0.00000e+00	0.00000e+00	0.00000e+00	0.00000e+00	0.00000e+00	0.00000e+00	0.00000e+00	0.00000e+00	0.00000e+00	0.00000e+00	0.00000e+00	-8.19123e+01	-1.33616e+02	-1.36549e+02	-1.83428e+02	-9.10000e+01	-7.57922e+01	-1.57226e+02	-1.62015e+02	-5.82697e+01	-7.60492e+01	-1.75294e+02	-1.70420e+02	-1.80380e+02	-1.77569e+02	-8.04880e+01	-1.50081e+02	
Factor	1.80643e-05	1.32624e-04	3.68427e-05	4.65462e-01	1.21769e-06	1.16138e-06	1.75063e-01	6.96060e-02	1.13472e-06	1.15148e-06	2.37927e-01	3.21221e-02	2.91780e-02	1.00874e-02	1.28267e-06	1.47616e-02	8.56558e-07	8.80187e-07	2.44700e-07	2.10758e-01	9.63326e-09	9.62573e-09	7.96986e-02	3.32249e-02	9.63474e-09	9.63278e-09	9.89294e-02	1.48230e-02	1.38756e-02	4.77895e-03	9.61505e-09	6.71329e-03	X	X	X	X	X	X	X	X	X	X	X	X	X	X	X	X	



#DISTANCE SETTINGS
A = Detector Channel
A-1	A-2	A-3	A-4	A-5	A-6	A-7	A-8	A-9	A-10	A-11	A-12	A-13	A-14	A-15	A-16	

2.5000e+00	3.0000e+00	2.5000e+00	3.0000e+00	2.0000e+00	3.0000e+00	1.5000e+00	3.0000e+00	3.0000e+00	3.0000e+00	3.0000e+00	3.0000e+00	3.0000e+00	3.0000e+00	1.5000e+00	3.0000e+00	

B = Detector Channel
B-1	B-2	B-3	B-4	B-5	B-6	B-7	B-8	B-9	B-10	B-11	B-12	B-13	B-14	B-15	B-16	

1.0000e+01	1.0000e+01	1.0000e+01	1.4400e+00	1.0000e+01	1.0000e+01	1.5100e+00	1.9400e+00	1.0000e+01	1.0000e+01	1.9900e+00	2.4900e+00	2.4100e+00	2.9000e+00	1.0000e+01	2.9800e+00	




#DATA BEGINS
time	group	step	mark	flag	A-AC1	A-AC2	A-AC3	A-AC4	A-AC5	A-AC6	A-AC7	A-AC8	A-AC9	A-AC10	A-AC11	A-AC12	A-AC13	A-AC14	A-AC15	A-AC16	A-DC1	A-DC2	A-DC3	A-DC4	A-DC5	A-DC6	A-DC7	A-DC8	A-DC9	A-DC10	A-DC11	A-DC12	A-DC13	A-DC14	A-DC15	A-DC16	A-Ph1	A-Ph2	A-Ph3	A-Ph4	A-Ph5	A-Ph6	A-Ph7	A-Ph8	A-Ph9	A-Ph10	A-Ph11	A-Ph12	A-Ph13	A-Ph14	A-Ph15	A-Ph16	B-AC1	B-AC2	B-AC3	B-AC4	B-AC5	B-AC6	B-AC7	B-AC8	B-AC9	B-AC10	B-AC11	B-AC12	B-AC13	B-AC14	B-AC15	B-AC16	B-DC1	B-DC2	B-DC3	B-DC4	B-DC5	B-DC6	B-DC7	B-DC8	B-DC9	B-DC10	B-DC11	B-DC12	B-DC13	B-DC14	B-DC15	B-DC16	B-Ph1	B-Ph2	B-Ph3	B-Ph4	B-Ph5	B-Ph6	B-Ph7	B-Ph8	B-Ph9	B-Ph10	B-Ph11	B-Ph12	B-Ph13	B-Ph14	B-Ph15	B-Ph16	aux-1	digaux	

7543.143	1	1	0	256	0.2608	0.18918	0.19044	0.18425	0.15966	0.45569	0.11773	0.11186	0.14757	0.22276	0.29822	0.29452	0.13484	0.2824	0.1626	0.068895	-2.075	-2.2417	-2.7917	-1.9792	-2.3125	-2.7562	-2.2771	-2.5125	-2.4562	-2.1146	-2.6417	-2.4333	-2.5792	-2.6417	-2.1333	-2.4646	456.223	148.044	344.422	335.686	120.841	297.214	386.645	401.351	195.347	421.447	399.175	444.723	414.059	456.584	270.212	226.461	0.00068809	0.0004995	0.00011322	649.53	1.259e-05	1.1901e-05	831.17	245.75	5.2953e-06	4.075e-06	376.86	170.17	106.97	43.375	4.962e-06	75.905	0.0011406	0.0010708	0.00028368	855.96	1.2774e-05	1.1772e-05	882.38	274.26	1.2654e-05	1.1742e-05	434.33	179.04	116.33	46.111	1.153e-05	79.031	231.107	263.256	159.198	119.160	330.533	317.689	119.165	124.601	415.710	271.429	122.534	126.503	127.920	132.378	214.562	130.850	-8191	255	
7543.264	1	1	0	0	0.27434	0.0084776	0.086181	0.13635	0.11002	0.20512	0.19119	0.050518	0.27431	0.10346	0.34376	0.23445	0.15592	0.21006	0.075769	0.14568	-1.925	-2.0563	-2.4542	-2.3104	-2.3063	-2.5854	-2.3458	-2.5042	-2.4604	-2.1625	-2.4979	-2.5208	-2.2354	-2.7729	-2.2188	-2.525	200.917	210.164	432.651	202.502	452.880	288.420	158.971	344.943	226.182	321.732	444.278	232.964	170.078	117.163	109.106	323.383	0.00054009	0.00085451	0.00065565	657.43	9.8267e-06	5.8543e-06	843.03	247.8	5.1246e-06	4.0817e-06	382.61	173.78	109.11	44.551	1.2131e-05	75.954	0.0011158	0.00105	0.00029633	865.63	1.2126e-05	1.1182e-05	889.47	276.48	1.178e-05	1.109e-05	444.34	181.53	118.1	47.039	1.2655e-05	79.817	247.674	175.941	160.001	119.654	300.599	246.852	118.996	124.627	359.857	273.878	123.038	126.673	128.015	132.178	206.656	130.780	-8191	255	
7543.358	1	1	0	0	0.09782	0.096234	0.037779	0.22318	0.14325	0.066591	0.0466	0.13927	0.2083	0.075577	0.17881	0.1321	0.11843	0.053538	0.16905	0.1507	-2.1604	-1.9417	-2.6083	-2.4396	-2.175	-2.8167	-2.3792	-2.5083	-2.7438	-2.2292	-2.6917	-2.5729	-2.3354	-2.7333	-2.2562	-2.4146	401.768	296.161	153.410	396.915	397.256	465.794	169.652	343.665	388.391	183.402	411.933	407.743	234.744	424.857	412.351	239.205	0.0006612	0.00054064	0.00028522	653.76	3.4655e-06	3.216e-06	825.17	244.88	6.3472e-06	5.2176e-06	370.25	167.95	105.18	43.063	7.4397e-06	73.886	0.0011538	0.0011037	0.00033998	885	1.2854e-05	1.2039e-05	895.66	277.02	1.3288e-05	1.2804e-05	466.75	179.36	117.37	46.877	1.61e-05	79.232	226.968	250.910	146.518	119.551	288.225	284.064	119.102	124.444	443.871	140.658	122.721	126.679	127.892	131.783	223.120	130.534	-8191	255	
7543.456	1	1	0	0	0.18014	0.23396	0.084026	0.20092	0.039711	0.056627	0.21362	0.41285	0.25291	0.074812	0.018406	0.12146	0.022017	0.11333	0.167	0.32189	-2.2687	-2.1937	-2.6396	-2.5292	-2.0667	-2.7792	-2.6542	-2.5125	-2.5833	-2.2229	-2.6521	-2.7625	-2.2938	-2.625	-2.3688	-2.4062	215.715	255.295	400.868	167.229	311.820	332.109	402.076	295.446	349.880	268.200	271.364	419.867	135.622	454.076	433.603	410.818	0.00058028	0.00055612	0.00020062	636.1	1.7944e-05	3.5814e-06	798.81	232.15	3.0955e-06	1.5445e-05	347.14	157.05	99.061	40.864	7.4653e-06	69.489	0.0013726	0.0013785	0.00044763	948.72	1.6336e-05	1.6432e-05	915.98	280.35	1.7124e-05	1.7836e-05	510.31	177.93	119.58	48.083	2.3783e-05	80.088	231.441	153.101	106.456	119.060	285.530	458.227	119.353	124.389	181.507	216.932	123.255	126.691	128.081	132.150	144.650	130.735	-8191	255	
7543.575	1	1	0	0	0.24526	0.23968	0.19241	0.16099	0.031776	0.17583	0.37058	0.13155	0.21309	0.29097	0.068795	0.34028	0.29824	0.067782	0.10587	0.21727	-2.1229	-1.9958	-2.3667	-2.5979	-2.375	-2.6167	-2.6396	-2.3458	-2.5646	-2.5729	-2.5896	-2.7292	-2.3229	-2.7375	-2.4083	-2.3688	231.085	419.045	149.061	459.230	190.901	212.373	370.297	449.810	215.922	344.057	369.365	460.816	341.345	332.756	398.830	326.115	0.00060587	0.00099752	0.00031802	634.86	5.9418e-06	1.9003e-05	783.01	229.23	1.2098e-06	3.033e-05	337.17	155.27	99.219	41.169	6.1542e-06	69.36	0.001976	0.0022231	0.00069218	1117.3	2.4405e-05	2.7103e-05	1000	312.3	2.7011e-05	3.0682e-05	630.04	192.68	135.16	55.132	3.543e-05	87.336	227.442	451.872	280.255	119.693	298.551	213.420	119.244	124.662	188.872	225.561	123.314	126.670	127.882	132.141	338.288	130.781	-8191	255	
7543.671	1	1	0	0	0.050299	0.036885	0.25356	0.18367	0.0623	0.11775	0.055384	0.058129	0.047323	0.061284	0.15308	0.035691	0.16659	0.073806	0.16038	0.070922	-1.9896	-2.2667	-2.5187	-2.525	-2.0917	-2.6646	-2.6958	-2.2938	-2.5396	-2.4229	-2.4083	-2.9354	-2.3167	-2.7104	-2.7438	-2.3521	246.765	289.258	200.552	210.480	430.299	368.320	413.955	207.790	123.701	209.931	399.053	348.323	466.236	454.276	423.104	127.025	0.00056989	0.0018704	0.00022878	629.41	3.3971e-06	3.8609e-05	781.51	228.89	9.0937e-06	2.8533e-05	332.78	156.49	100.81	41.593	2.9943e-05	69.399	0.0028032	0.0032934	0.00093247	1311.4	3.3286e-05	3.8784e-05	1077.4	346.44	3.7202e-05	4.3992e-05	735.21	208.73	152.34	62.878	4.7016e-05	95.768	218.125	117.171	333.032	119.682	231.773	221.738	119.059	124.740	255.408	189.334	123.413	126.822	127.904	132.291	388.551	130.899	-8191	255	
7543.743	1	1	0	0	0.15515	0.26607	0.18956	0.1953	0.099249	0.066802	0.10959	0.2066	0.083964	0.17951	0.11114	0.26143	0.090326	0.16348	0.16516	0.29429	-2.2708	-2.4583	-2.2771	-2.7125	-2.2938	-2.5312	-2.625	-2.2729	-2.6854	-2.5333	-2.4188	-2.9229	-2.4375	-2.5479	-2.6688	-2.0917	380.275	235.164	253.941	416.185	148.293	156.201	446.440	400.752	111.042	239.850	304.220	422.434	269.888	429.593	443.051	432.838	0.00073449	0.0028698	0.0006868	634.06	2.4854e-05	1.958e-05	790.11	229.26	2.834e-05	1.6296e-05	338.37	151.55	97.882	38.937	8.9728e-06	66.674	0.0040349	0.0048676	0.0012911	1617.5	4.9208e-05	5.5112e-05	1161.5	371.63	4.4394e-05	4.6553e-05	687.02	193.43	138.49	53.384	2.8267e-05	79.406	203.807	135.099	295.736	119.102	215.881	203.712	119.048	124.725	211.008	107.003	122.890	126.865	127.623	132.478	407.642	131.224	-8191	255	
7543.864	1	1	0	0	0.059925	0.1525	0.12044	0.26872	0.22007	0.1007	0.28391	0.20497	0.13346	0.14772	0.0094854	0.14735	0.075513	0.27342	0.20702	0.15302	-2.275	-2.5771	-2.1292	-2.5938	-2.2938	-2.475	-2.5563	-2.2667	-2.5187	-2.3396	-2.4229	-2.8208	-2.3729	-2.4958	-2.6708	-2.5958	355.854	111.213	358.426	420.247	410.272	128.112	426.373	403.549	393.117	466.268	157.691	393.633	316.401	111.899	313.484	448.123	0.00083387	0.002127	0.00013934	628.13	1.7838e-05	8.4596e-06	787.97	232.59	2.499e-05	2.733e-06	345.65	150.41	97.031	38.313	6.2028e-06	65.48	0.0024399	0.0026266	0.00066353	1103.8	2.7947e-05	2.9067e-05	968.7	304.8	2.8359e-05	2.9e-05	573.71	180.98	133.11	50.682	2.7482e-05	79.111	199.448	295.399	249.267	119.414	216.378	383.600	119.411	124.649	205.554	355.721	122.995	126.880	128.078	132.654	378.958	131.064	-8191	255	
7543.960	1	1	0	0	0.1126	0.16386	0.029327	0.046616	0.12255	0.24553	0.21848	0.27378	0.053648	0.092986	0.27266	0.072217	0.061957	0.12374	0.33807	0.25877	-2.3042	-2.4875	-2.1979	-2.6229	-2.6021	-2.6208	-2.7812	-2.5083	-2.4521	-2.5458	-2.3354	-2.7958	-2.2583	-2.3812	-2.8479	-2.2625	303.241	402.778	154.220	223.390	320.685	221.874	244.825	284.787	378.498	347.414	337.952	429.913	329.262	412.160	446.690	337.215	0.00092029	0.0004825	7.643e-05	640.72	1.1493e-05	9.6554e-06	785.48	231.25	1.9837e-05	1.285e-05	343.71	150.62	96.008	38.341	6.201e-06	65.609	0.0028538	0.0029238	0.00078015	1237.2	3.6822e-05	3.599e-05	1025	332.44	3.8568e-05	3.5807e-05	629.56	189.99	142.98	52.922	3.1984e-05	84.121	230.113	403.363	388.030	119.944	251.430	111.809	119.271	124.178	165.752	406.359	122.710	126.731	127.726	132.476	295.279	131.252	-8191	255	
7544.056	1	1	0	0	0.03574	0.26584	0.068131	0.36597	0.18753	0.15852	0.33531	0.12913	0.080313	0.059793	0.087147	0.2048	0.19529	0.083613	0.13406	0.20297	-2.0563	-2.6771	-2.2125	-2.5792	-2.4771	-2.2833	-2.8146	-2.3396	-2.5792	-2.8208	-2.4229	-2.7021	-2.5812	-2.2979	-2.7958	-2.2687	301.329	208.079	164.926	419.992	323.563	238.426	465.765	127.799	197.851	345.015	125.193	388.363	438.623	399.904	175.404	333.565	0.00054262	0.0019965	0.00051313	647.59	1.2869e-05	6.9655e-06	789.27	237.01	1.5302e-05	1.1511e-05	350.48	154.72	99.594	39.636	2.6366e-05	67.93	0.0034241	0.0031835	0.00083411	1327.7	3.7959e-05	3.3859e-05	1007.8	335.28	3.4498e-05	3.0083e-05	580	189.86	136.15	50.546	2.4686e-05	81.412	225.382	372.542	321.536	119.439	278.887	427.151	119.190	124.467	421.860	213.811	123.205	126.649	127.976	132.705	199.667	131.021	-8191	255	
7544.152	1	1	0	0	0.13749	0.13408	0.14164	0.10166	0.068264	0.19198	0.094893	0.30894	0.17628	0.14971	0.17681	0.10339	0.15975	0.08835	0.01375	0.35154	-2.1063	-2.4208	-2.3292	-2.6083	-2.5583	-2.2812	-2.7562	-2.3083	-2.2562	-2.5833	-2.2146	-2.6312	-2.5521	-2.4333	-2.6729	-2.3854	136.935	362.154	109.306	113.209	408.380	450.763	153.861	321.971	135.153	274.311	415.205	119.934	422.447	123.223	358.925	425.725	0.00045205	0.00083567	0.00010061	645.47	1.5126e-05	8.1969e-06	798.98	240.15	9.9499e-06	9.4638e-06	365.09	160.8	103.15	40.89	1.3267e-05	69.777	0.0023592	0.0021002	0.00053927	1079.9	2.22e-05	1.9581e-05	901.94	294.01	1.965e-05	1.7754e-05	484.44	180.11	121.87	46.663	1.6757e-05	77.802	224.645	276.722	408.179	119.237	352.288	261.991	119.058	124.823	225.578	384.466	122.755	126.505	127.735	132.265	218.623	130.915	-8191	255	
7544.271	1	1	0	0	0.18389	0.13751	0.043993	0.048784	0.11244	0.25932	0.076659	0.20631	0.11946	0.18532	0.19278	0.31651	0.23931	0.30986	0.079797	0.18754	-1.8687	-2.6354	-2.1729	-2.6271	-2.4938	-2.2396	-2.7396	-2.4417	-2.3187	-2.6958	-2.1104	-2.6583	-2.5854	-2.2188	-2.5938	-2.5854	179.683	239.060	279.901	138.049	147.490	365.348	188.212	156.551	379.121	132.468	118.119	429.820	421.457	403.277	425.748	440.968	0.00055456	0.0004269	0.0001066	631.22	2.9253e-06	1.3194e-05	797.47	240.81	1.052e-05	1.4195e-05	378.24	166.5	104.67	41.026	2.499e-05	69.968	0.0016267	0.0015183	0.00043095	985.32	1.7777e-05	1.6596e-05	895.07	291.21	1.7645e-05	1.6444e-05	500.33	185.04	122.65	46.655	1.8405e-05	78.697	238.494	335.346	429.056	119.065	295.263	351.916	119.489	124.379	331.476	343.449	122.877	126.676	127.927	132.207	204.221	130.715	-8191	255	
7544.367	1	1	0	0	0.075528	0.10095	0.29126	0.20281	0.093396	0.083491	0.23279	0.14558	0.28261	0.074513	0.047984	0.17607	0.094831	0.058143	0.2862	0.41385	-1.8771	-2.5938	-2.2896	-2.5438	-2.6229	-2.2417	-2.7354	-2.5083	-2.2104	-2.6917	-2.2292	-2.5417	-2.6688	-2.3229	-2.3771	-2.5667	429.201	190.847	160.362	115.319	139.480	454.356	367.433	464.733	119.601	167.234	382.010	462.364	393.312	216.227	347.626	141.721	0.00067955	0.00067217	0.00047606	629.15	1.3326e-05	1.6339e-06	793.66	234.6	3.5341e-06	1.4883e-05	360.96	160.86	102.89	40.23	7.1868e-06	68.553	0.0016618	0.0015701	0.00049216	1003.9	1.8368e-05	1.7392e-05	913.25	293.26	1.9567e-05	1.8801e-05	533.75	185.77	126.6	48.22	2.5789e-05	81.55	236.116	336.343	140.030	119.549	281.652	251.671	119.585	124.658	298.812	267.326	122.765	127.057	127.509	132.480	199.819	131.018	-8191	255	
7544.439	1	1	0	0	0.28467	0.10266	0.10505	0.18278	0.10743	0.22062	0.16047	0.18498	0.058707	0.16688	0.063193	0.24599	0.22171	0.27457	0.095007	0.10661	-1.8687	-2.8021	-2.2271	-2.5229	-2.6667	-2.3312	-2.8812	-2.7167	-2.2521	-2.6896	-2.3958	-2.3479	-2.8354	-2.5458	-2.5062	-2.7375	147.318	278.963	110.074	142.397	118.426	198.630	460.255	197.457	185.889	165.138	456.664	391.520	109.518	119.162	234.050	465.762	0.00065487	0.00095809	0.00044659	623.88	1.0317e-05	1.0879e-05	799.2	235.41	1.7549e-05	3.6266e-05	358.34	160.21	103.11	40.489	3.6365e-05	69.092	0.0022519	0.0023098	0.00079269	1268.6	3.1089e-05	3.2413e-05	1083.2	359.09	3.8119e-05	3.9114e-05	778.38	217.48	153.95	57.862	4.4532e-05	92.399	216.127	183.181	150.521	119.079	303.509	181.407	119.113	124.459	386.559	204.070	122.741	126.911	127.857	132.370	174.870	131.182	-8191	255	
7544.537	1	1	0	0	0.14077	0.20324	0.042415	0.11728	0.21367	0.039225	0.075631	0.24294	0.17541	0.080327	0.2293	0.17582	0.023382	0.34173	0.15538	0.14114	-1.7437	-2.8083	-2.4813	-2.2958	-2.7333	-2.3688	-2.5812	-2.7583	-2.2417	-2.6979	-2.5917	-2.2979	-2.7667	-2.3458	-2.4708	-2.8604	121.022	434.767	244.188	211.575	462.311	233.462	443.461	106.725	317.854	120.024	189.161	403.360	245.318	430.165	262.937	259.867	0.00053219	0.0024223	0.00074426	633.72	9.8905e-06	2.1819e-05	799.75	241.58	7.46e-06	3.2077e-05	365.32	163.11	104.83	40.797	1.441e-05	70.126	0.0033241	0.0034466	0.0010493	1380.3	3.3642e-05	3.5766e-05	1079.7	345.14	3.1724e-05	3.4311e-05	682.22	201.85	137.67	53.178	2.9589e-05	82.648	217.589	123.701	245.651	119.991	392.399	221.447	119.259	124.528	297.604	223.379	123.211	126.698	127.610	132.701	413.043	131.263	-8191	255	
7544.655	1	1	0	0	0.13993	0.24532	0.24458	0.15467	0.15493	0.23147	0.28269	0.13096	0.15746	0.078969	0.36813	0.17007	0.16377	0.21193	0.12663	0.19252	-1.9146	-2.5896	-2.475	-2.3083	-2.7292	-2.5542	-2.5604	-2.6229	-2.3667	-2.6188	-2.3875	-2.2833	-2.7604	-2.4813	-2.625	-2.7458	425.367	250.351	462.748	235.265	198.460	230.850	405.629	388.763	359.070	273.583	397.553	277.217	188.929	111.303	233.502	419.686	0.00065452	0.0016046	0.00051344	631.21	1.3077e-05	1.563e-05	809.52	248.68	4.7446e-06	1.7821e-05	391.72	173.44	110.31	42.486	3.0358e-06	74.61	0.0020624	0.0022867	0.00061642	1032.7	1.922e-05	2.1277e-05	932.62	293.98	1.6733e-05	1.8774e-05	515.32	186.78	123.9	48.382	1.6519e-05	79.199	220.938	200.113	208.404	120.445	202.052	233.671	119.239	124.342	217.812	170.306	123.112	126.754	127.701	132.494	343.462	131.073	-8191	255	
7544.752	1	1	0	0	0.11375	0.022445	0.14447	0.14855	0.11579	0.22504	0.27454	0.071571	0.080811	0.16111	0.11877	0.47436	0.089406	0.22915	0.20173	0.10577	-1.7812	-2.4833	-2.3812	-2.1813	-2.7917	-2.3792	-2.4729	-2.6625	-2.2479	-2.4917	-2.5	-2.3521	-2.5875	-2.3979	-2.3479	-2.7687	258.668	258.092	383.450	419.999	248.174	452.542	460.057	109.517	337.365	365.317	314.640	394.815	181.279	384.061	112.943	367.239	0.00081455	0.0015266	0.00033765	641.49	1.0794e-05	3.8725e-06	826.84	250.58	1.1245e-05	1.0635e-05	384.84	172.65	110	42.323	6.4044e-06	73.276	0.0013683	0.0015773	0.00041197	900.07	1.5379e-05	1.7422e-05	916.04	286.45	1.5838e-05	1.7708e-05	494.39	183.84	124.23	48.458	1.6625e-05	78.531	213.892	149.925	229.587	119.611	193.202	318.106	119.302	124.553	209.918	390.036	122.993	126.545	127.701	132.516	132.060	131.079	-8191	255	
7544.848	1	1	0	0	0.14672	0.26707	0.14147	0.22392	0.25882	0.033924	0.19008	0.13897	0.38579	0.046272	0.17933	0.057901	0.09333	0.21941	0.25758	0.094662	-1.6604	-2.4354	-2.4396	-2.2583	-2.775	-2.4458	-2.4042	-2.7333	-2.2542	-2.4167	-2.6667	-2.2729	-2.6417	-2.4813	-2.3063	-2.6667	203.818	400.733	205.394	382.375	254.098	394.847	308.395	398.640	122.570	443.886	262.005	124.809	148.318	166.833	151.074	127.522	0.00091148	0.0011054	0.00026396	646.85	7.65e-06	6.3446e-06	817.72	249.45	1.6426e-05	4.8204e-06	376.63	165.66	106.23	41.947	8.2148e-06	73.421	0.0015693	0.0017265	0.0004475	938.09	1.8958e-05	1.9987e-05	926.65	291.52	1.9703e-05	1.9893e-05	505.85	180.83	126.34	49.061	1.8279e-05	79.427	226.659	298.936	305.477	119.738	204.628	225.673	119.437	124.391	232.746	238.567	122.396	126.881	127.676	132.824	315.011	131.354	-8191	255	
7544.944	1	1	0	0	0.034704	0.18396	0.19989	0.20893	0.19339	0.13617	0.13278	0.31752	0.27482	0.087112	0.097624	0.17376	0.23124	0.098531	0.22529	0.15658	-1.7521	-2.2542	-2.5812	-2.4167	-2.5458	-2.6125	-2.2229	-2.7625	-2.3896	-2.5167	-2.6417	-2.3604	-2.7167	-2.7125	-2.3688	-2.6271	311.026	238.790	175.905	221.820	358.077	323.559	138.499	449.406	307.344	172.112	350.979	341.014	321.207	201.730	417.959	334.596	0.00075609	0.00066629	0.00034999	641.77	1.1424e-05	1.5577e-05	824.57	253.98	5.3514e-06	4.5828e-06	387.8	169.21	107.31	42.661	5.5377e-06	74.41	0.0017758	0.0017149	0.00043018	925.34	1.8693e-05	1.7827e-05	913.89	292.51	1.8833e-05	1.7734e-05	495.17	182.52	126.08	48.335	1.6254e-05	80.161	220.527	316.106	332.693	119.554	130.744	324.772	119.354	124.490	461.856	421.725	122.532	126.911	128.219	133.143	268.731	131.316	-8191	255	
7545.040	1	1	0	0	0.067177	0.13645	0.076078	0.11942	0.10389	0.24108	0.19148	0.10856	0.28056	0.1678	0.22727	0.38559	0.20959	0.05106	0.063167	0.076274	-2.0042	-2.3208	-2.6542	-2.3583	-2.6542	-2.6521	-2.3042	-2.8312	-2.5083	-2.375	-2.8167	-2.2208	-2.4437	-2.5229	-2.1188	-2.7708	450.130	411.316	199.238	381.477	241.533	160.865	161.155	218.975	437.530	280.451	437.357	401.815	299.116	112.776	268.871	330.291	0.00068938	0.00040852	0.0005079	643.38	6.9878e-06	1.1124e-05	820.22	254.77	2.1889e-06	8.7092e-06	395.14	171.58	107.41	42.27	4.6047e-06	74.353	0.0017305	0.0016194	0.00041841	958.41	1.9627e-05	1.7942e-05	914.88	299.39	1.9668e-05	1.7946e-05	503.76	187.39	127.62	48.307	1.6731e-05	81.828	213.759	263.938	177.529	119.798	177.953	402.853	119.653	124.518	162.810	329.449	123.257	126.861	128.156	132.843	333.487	131.220	-8191	255	
7545.136	1	1	0	0	0.11816	0.17468	0.36642	0.26734	0.096779	0.08147	0.10666	0.098094	0.017823	0.07949	0.3056	0.17885	0.11541	0.20179	0.28451	0.16424	-1.9438	-2.2354	-2.7646	-2.1729	-2.4333	-2.7208	-2.4229	-2.5854	-2.6208	-2.3146	-2.6667	-2.525	-2.5333	-2.7062	-2.2896	-2.6021	371.846	145.566	107.776	291.077	405.112	331.761	255.053	368.930	323.572	315.059	303.131	145.627	426.642	202.549	186.813	114.813	0.00063086	0.0013733	0.00015759	641.15	1.3746e-06	1.757e-06	825.15	255.77	4.7152e-06	6.4543e-06	395.81	172.55	108.92	42.264	1.6427e-05	73.79	0.0017598	0.0016337	0.00042033	981.37	1.851e-05	1.6767e-05	912.43	300.66	1.7478e-05	1.597e-05	489.06	187.82	124.53	46.997	1.5083e-05	80.063	224.227	303.074	204.328	119.646	190.188	320.838	119.008	124.497	367.884	348.940	123.003	126.698	127.645	132.729	228.167	131.206	-8191	255	
7545.257	1	1	0	0	0.26522	0.26922	0.12926	0.14023	0.2706	0.15534	0.074988	0.075157	0.10667	0.041941	0.30421	0.26713	0.31109	0.18651	0.15165	0.08165	-2.15	-2.1771	-2.6104	-2.3312	-2.2562	-2.5292	-2.3833	-2.5458	-2.5021	-2.1958	-2.6792	-2.4229	-2.1937	-2.7417	-2.2438	-2.5333	402.373	121.582	224.321	136.580	361.083	116.036	118.930	439.138	276.500	411.535	336.388	129.576	203.460	409.449	336.770	170.092	0.00060135	0.0024195	0.00057255	633.77	2.9852e-06	4.0135e-06	825.86	250.86	5.4679e-06	5.6074e-06	387.58	173.91	110.3	43.194	2.3396e-05	75.198	0.0014764	0.0013871	0.00038448	943.71	1.597e-05	1.4587e-05	904.93	292.05	1.5421e-05	1.4344e-05	480.43	187.65	123.93	47.184	1.5322e-05	80.692	246.715	252.242	155.085	120.123	302.271	210.753	119.261	124.255	172.006	289.509	122.944	126.765	127.878	132.707	245.235	130.998	-8191	255	
7545.351	1	1	0	0	0.29575	0.13881	0.1473	0.15341	0.086223	0.15637	0.079197	0.24099	0.16468	0.11179	0.21891	0.24353	0.14202	0.076497	0.10658	0.080725	-2.0333	-2.2062	-2.4583	-2.4062	-2.0958	-2.6312	-2.5396	-2.4583	-2.6229	-2.1937	-2.7958	-2.3729	-2.3646	-2.7188	-2.4125	-2.6042	138.868	176.520	297.255	211.661	266.774	404.273	373.542	136.635	332.660	279.494	297.155	414.686	405.814	134.905	122.353	391.684	0.00067298	0.00037866	0.00051959	640.72	4.1303e-06	3.5766e-06	834.13	253.46	5.4767e-06	1.8323e-06	390.88	177.37	112.13	44.085	2.1594e-05	76.25	0.0013763	0.0012934	0.00039781	935.76	1.5246e-05	1.4093e-05	920.2	293.63	1.5043e-05	1.4169e-05	494.8	189.35	124.77	47.804	1.5961e-05	81.133	233.013	210.908	143.828	119.709	296.662	217.534	119.091	124.691	274.496	448.309	122.631	126.706	127.722	132.621	209.626	130.844	-8191	255	
7545.447	1	1	0	0	0.28673	0.10531	0.12201	0.10266	0.30946	0.084953	0.28618	0.17793	0.2095	0.09133	0.19099	0.36068	0.081994	0.40834	0.058745	0.39203	-1.9729	-2.3021	-2.4354	-2.3792	-2.2229	-2.6625	-2.5208	-2.3812	-2.5	-2.1833	-2.6	-2.6937	-2.0792	-2.6146	-2.3542	-2.3646	341.254	159.190	351.104	259.115	407.997	351.071	377.551	189.741	184.155	247.034	259.776	448.398	424.941	149.048	436.962	324.039	0.00074214	0.00031324	0.00082987	641	8.4971e-06	1.3001e-05	824.57	252.2	8.8118e-06	1.707e-05	393.87	176.78	111.28	43.739	5.2209e-06	75.957	0.0013155	0.0012667	0.00040531	910.78	1.4285e-05	1.3866e-05	915.01	287.88	1.3949e-05	1.4046e-05	497.36	188.19	122.87	47.494	1.6063e-05	80.151	224.023	305.506	110.054	120.271	379.596	240.374	119.246	124.839	432.393	223.121	123.306	126.525	127.901	132.307	211.689	130.873	-8191	255	
7545.544	1	1	0	0	0.19785	0.080219	0.26157	0.076879	0.26994	0.16015	0.14744	0.21949	0.25213	0.045781	0.29225	0.28966	0.12333	0.28366	0.24414	0.12801	-2.2917	-2.075	-2.5187	-2.3563	-2.3458	-2.5646	-2.3167	-2.4417	-2.7938	-2.325	-2.4583	-2.4917	-2.4708	-2.5458	-2.3729	-2.4417	293.429	161.743	423.023	254.518	237.450	436.964	422.066	403.355	447.294	292.474	313.384	139.989	452.814	404.849	279.364	187.006	0.00062543	0.00090862	6.0467e-05	634.44	7.6226e-06	1.5218e-05	817.3	248.77	8.033e-06	1.245e-05	394.39	175.84	109.97	42.864	5.0523e-06	74.341	0.0012478	0.0013174	0.00040671	889.29	1.3716e-05	1.4496e-05	904.95	282.31	1.3236e-05	1.4615e-05	492.3	185.18	120.09	47.102	1.4947e-05	77.989	222.463	111.313	123.732	119.349	124.668	198.064	119.414	124.258	331.967	162.529	122.812	126.575	127.543	132.335	324.919	130.831	-8191	255	
7545.664	1	1	0	0	0.12895	0.29844	0.086468	0.10241	0.075945	0.19516	0.10075	0.10725	0.1717	0.08795	0.12451	0.094485	0.069792	0.17378	0.19842	0.12268	-2.1458	-2.2833	-2.5354	-2.4792	-2.1562	-2.5521	-2.3604	-2.3229	-2.6333	-2.1771	-2.375	-2.8083	-2.2792	-2.5604	-2.5521	-2.3375	393.559	271.014	196.804	386.719	207.905	318.165	357.242	419.719	190.998	382.313	333.075	146.362	364.411	217.995	257.992	230.184	0.0006715	0.0015543	0.00038494	628.21	1.3468e-05	1.0318e-05	814.76	244.53	7.7791e-06	7.5197e-06	375.55	171.39	108.17	42.728	1.3964e-05	75.053	0.0011402	0.001298	0.00036105	847.74	1.2188e-05	1.3805e-05	881.78	270.61	1.1659e-05	1.3438e-05	449.48	177.54	115.93	46.424	1.2392e-05	77.054	224.073	130.632	306.009	119.403	192.246	212.306	118.921	124.930	248.485	251.975	123.090	126.467	127.938	132.606	399.968	131.048	-8191	255	
7545.736	1	1	0	0	0.12348	0.21729	0.0892	0.12671	0.13533	0.12705	0.21033	0.14322	0.17523	0.33546	0.17098	0.26546	0.091593	0.23489	0.11857	0.28581	-2.4208	-2.15	-2.4	-2.8354	-2.1188	-2.5042	-2.7125	-2.2542	-2.6104	-2.4604	-2.4229	-2.7687	-2.4771	-2.6562	-2.6958	-2.4396	233.951	159.028	419.107	353.405	210.744	335.494	454.088	188.947	200.522	333.015	425.669	420.451	173.903	443.160	310.926	422.273	0.00072867	0.00082934	9.5277e-05	627.92	1.7925e-05	9.475e-06	814.11	248.31	1.1523e-05	1.8218e-06	385.75	176.61	110.66	44.351	5.8777e-06	76.998	0.0010229	0.0011868	0.00031019	806.09	1.1392e-05	1.291e-05	871.23	270.18	1.1635e-05	1.3095e-05	449.8	181.32	119.26	47.857	1.2019e-05	78.921	217.275	356.784	281.145	119.522	181.357	213.985	119.378	124.689	211.513	159.268	122.997	126.672	127.414	132.388	337.943	130.884	-8191	255	
7545.832	1	1	0	0	0.068575	0.19846	0.10233	0.08055	0.25538	0.22654	0.081544	0.17316	0.15399	0.086568	0.05116	0.35187	0.065675	0.16692	0.17757	0.1484	-2.1813	-2.3167	-2.2396	-2.6479	-2.2062	-2.3812	-2.6417	-2.2771	-2.625	-2.4542	-2.15	-2.7625	-2.4458	-2.4437	-2.5646	-2.1979	131.905	135.364	294.334	113.775	350.606	138.928	138.680	434.831	237.374	358.743	169.144	402.777	126.863	422.298	353.497	317.319	0.00084104	0.00068354	0.00018161	637.09	8.6516e-06	4.1194e-06	817.14	249.32	1.3995e-05	9.3478e-06	396.68	177.68	111.48	44.006	1.4257e-06	77.074	0.0011027	0.0011899	0.00030224	806.58	1.2314e-05	1.285e-05	870.01	270.63	1.2415e-05	1.266e-05	452.62	182.36	120.43	47.381	1.1575e-05	78.687	221.072	184.183	382.941	119.445	199.889	336.282	119.055	124.769	259.433	305.223	122.852	126.479	127.692	132.086	451.786	130.794	-8191	255	
7545.928	1	1	0	0	0.1886	0.19856	0.24349	0.18057	0.1059	0.18413	0.03419	0.19359	0.21829	0.094012	0.049071	0.17648	0.23627	0.25085	0.27979	0.10771	-2.2188	-2.5979	-2.2	-2.6771	-2.4667	-2.4729	-2.8667	-2.3292	-2.5375	-2.4771	-2.275	-2.7313	-2.5312	-2.4604	-2.5646	-2.4875	278.431	222.229	226.452	242.481	307.746	304.725	380.805	256.868	240.011	221.418	266.298	240.853	315.980	416.528	159.592	445.651	0.00069137	0.00048137	8.7909e-05	631.96	2.9476e-06	8.6972e-06	812.37	248.49	1.1224e-05	8.7387e-06	390.61	177.11	109.97	43.372	8.3435e-06	75.928	0.0011612	0.0011513	0.00029707	807.53	1.3167e-05	1.2637e-05	867.76	272.28	1.3391e-05	1.2742e-05	454.2	182.96	120.9	46.642	1.1808e-05	78.417	225.603	287.795	317.411	119.427	263.874	275.330	119.252	124.707	292.350	435.508	123.165	126.633	127.692	132.276	376.701	130.831	-8191	255	
7546.049	1	1	0	0	0.23143	0.13557	0.16281	0.15985	0.18838	0.17837	0.19429	0.042595	0.20059	0.049258	0.10714	0.16727	0.24205	0.35893	0.19786	0.0079957	-2.1188	-2.5354	-2.2438	-2.5417	-2.4604	-2.4562	-2.8208	-2.3896	-2.3896	-2.5625	-2.1354	-2.5729	-2.4958	-2.3146	-2.9458	-2.5563	302.116	150.553	284.581	349.848	409.459	257.779	347.875	463.440	237.166	386.916	219.279	409.414	356.183	130.971	207.697	340.221	0.00071337	0.00086418	0.0001782	640.08	8.8147e-06	1.622e-06	813.33	242.35	6.4266e-06	1.305e-06	371.19	169.01	106.03	41.942	5.5649e-06	73.339	0.0012306	0.0011622	0.00030212	834.4	1.3891e-05	1.2725e-05	865.88	270.88	1.3831e-05	1.2721e-05	436.96	177.06	117.96	45.458	1.1951e-05	76.833	218.511	323.680	207.408	119.360	300.059	381.503	119.345	124.438	445.969	388.167	123.215	126.485	127.687	132.329	298.127	131.012	-8191	255	
7546.145	1	1	0	0	0.084108	0.04997	0.15606	0.16533	0.14435	0.10233	0.24031	0.20989	0.077583	0.27041	0.087135	0.2732	0.16705	0.066629	0.2028	0.36472	-1.9583	-2.5521	-2.3208	-2.8063	-2.45	-2.3208	-2.8521	-2.3292	-2.4125	-2.5375	-2.375	-2.6937	-2.4729	-2.3937	-2.6146	-2.5167	265.947	431.594	167.904	351.862	129.535	296.908	420.581	162.607	438.396	464.531	403.599	384.726	288.953	159.057	352.464	406.906	0.00062986	0.0010795	7.7294e-05	639.11	2.2276e-06	3.0995e-06	810.06	244.22	4.8206e-06	6.3188e-06	370.16	167.7	105.4	41.842	8.0858e-06	72.779	0.0012669	0.0011794	0.00031013	867	1.4149e-05	1.3241e-05	872.34	277.77	1.4561e-05	1.351e-05	446.42	179.42	118.83	45.78	1.3415e-05	78.024	238.933	326.851	263.053	119.444	421.910	137.981	119.291	124.636	383.795	342.552	122.708	126.602	128.043	132.399	191.982	131.077	-8191	255	
7546.239	1	1	0	0	0.10505	0.13202	0.27375	0.094044	0.20209	0.12615	0.10151	0.18656	0.19283	0.01958	0.14072	0.27629	0.19986	0.087191	0.15114	0.14822	-1.8729	-2.675	-2.1979	-2.6562	-2.4208	-2.2896	-2.8896	-2.5812	-2.225	-2.6896	-2.2812	-2.6896	-2.5458	-2.3042	-2.7292	-2.6604	180.163	276.815	296.353	208.929	341.690	455.031	366.423	362.011	367.590	146.468	424.348	442.955	155.071	434.793	112.395	399.461	0.0006601	0.0018447	0.000612	634.12	5.1488e-06	3.319e-06	814.97	244.88	7.841e-06	5.1874e-06	374.86	166.74	104.63	41.674	2.0638e-05	72.662	0.0013326	0.0012461	0.00034844	906.36	1.4601e-05	1.352e-05	882.4	281.57	1.4416e-05	1.332e-05	457.88	178.95	117.21	45.307	1.4024e-05	77.596	222.346	327.147	157.927	120.324	301.082	340.241	119.436	124.614	318.091	355.170	122.944	126.804	127.904	132.469	198.815	131.037	-8191	255	
7546.337	1	1	0	0	0.27601	0.21163	0.065866	0.25749	0.070797	0.18765	0.11152	0.20017	0.14639	0.29026	0.12351	0.10119	0.1969	0.22613	0.34683	0.16101	-1.8896	-2.8125	-2.2521	-2.3667	-2.6667	-2.1562	-2.6542	-2.3104	-2.2125	-2.7625	-2.4313	-2.4146	-2.6125	-2.3688	-2.7708	-2.7396	379.574	402.084	397.403	387.575	328.365	419.047	445.066	134.198	435.905	321.889	191.388	352.423	152.821	428.770	285.701	199.370	0.00056556	0.00043583	0.00041903	629.82	6.2925e-06	7.1385e-06	802.03	237.91	7.0334e-06	1.1845e-05	372.52	166.58	104.09	41.446	2.486e-05	72.556	0.0012787	0.0011895	0.00036493	889.72	1.3891e-05	1.2837e-05	876.6	273.97	1.367e-05	1.2677e-05	462.65	177.71	115.4	45.019	1.4688e-05	77.034	212.626	261.503	140.068	119.302	319.625	235.119	118.988	124.422	252.524	273.843	123.071	126.955	128.117	132.592	213.283	130.917	-8191	255	
7546.432	1	1	0	0	0.21355	0.21763	0.20838	0.059494	0.17422	0.14427	0.026613	0.16879	0.083022	0.066269	0.1561	0.22238	0.073882	0.23073	0.20231	0.23597	-1.5938	-2.6312	-2.3812	-2.3021	-2.6021	-2.2792	-2.5354	-2.5187	-2.2708	-2.7917	-2.3896	-2.3438	-2.6146	-2.5167	-2.325	-2.8542	149.829	144.836	135.819	147.703	294.431	453.435	356.850	286.914	435.562	230.352	309.842	119.842	250.472	134.698	166.930	415.352	0.00063249	9.2402e-05	0.00043461	623.08	1.0646e-06	8.0199e-06	782.63	229.77	8.2093e-06	6.3886e-06	353.64	161.02	101.27	41.298	1.1631e-05	71.276	0.0012156	0.001159	0.00037337	862	1.3059e-05	1.2705e-05	861.92	263.63	1.2978e-05	1.283e-05	448.07	171.29	111.53	44.763	1.4808e-05	75.351	219.043	372.023	125.277	119.816	300.722	283.169	119.195	124.677	403.073	240.867	122.880	126.643	128.045	132.363	239.414	130.582	-8191	255	
7546.528	1	1	0	0	0.04861	0.16479	0.12159	0.067879	0.15664	0.13211	0.10298	0.26247	0.15104	0.20048	0.074488	0.14088	0.16097	0.32296	0.29423	0.062782	-1.7792	-2.525	-2.4604	-2.3375	-2.6854	-2.2062	-2.5354	-2.6042	-2.1917	-2.6229	-2.6396	-2.2375	-2.7375	-2.1271	-2.5208	-2.6688	398.528	112.741	333.225	108.700	311.006	132.503	402.695	411.538	342.584	463.312	140.350	297.344	393.993	168.902	401.670	383.924	0.0006311	0.0026677	0.00031423	618.2	5.2219e-06	6.3168e-06	779.63	229.15	3.5509e-06	1.0557e-05	349.05	161.72	102.01	41.811	8.8091e-06	72.1	0.0011566	0.0012123	0.00037776	846.87	1.2704e-05	1.3606e-05	860.48	261.42	1.2604e-05	1.3735e-05	447.02	171.47	112.16	45.879	1.4621e-05	75.963	221.105	174.952	260.582	119.373	117.649	227.624	119.159	124.846	129.684	252.739	123.167	126.986	128.147	132.288	346.510	130.860	-8191	255	
7546.624	1	1	0	0	0.33051	0.34493	0.125	0.029528	0.22358	0.28993	0.38884	0.085515	0.22764	0.3808	0.15264	0.10384	0.054444	0.23105	0.18316	0.16879	-1.7938	-2.4479	-2.5542	-2.175	-2.6813	-2.2479	-2.425	-2.525	-2.1708	-2.4542	-2.4646	-2.4146	-2.7792	-2.3792	-2.3042	-2.7562	316.655	159.867	117.025	382.735	142.940	366.348	438.727	191.652	457.652	314.203	464.141	307.911	151.017	175.457	453.590	464.461	0.00070945	0.0010932	0.00026974	617.91	1.0597e-05	4.1294e-06	791.74	233.98	5.5744e-06	7.6806e-06	357.81	162.13	102.33	41.636	1.9064e-05	71.614	0.0011403	0.0013001	0.00036982	844.3	1.2569e-05	1.4433e-05	867.36	264.49	1.2723e-05	1.4543e-05	448.63	171.71	112.61	46.029	1.4037e-05	75.166	223.651	189.031	309.176	119.862	245.191	307.437	119.447	124.626	167.965	290.773	123.093	126.860	128.286	132.434	388.909	130.903	-8191	255	
7546.745	1	1	0	0	0.062973	0.17675	0.12884	0.1508	0.072846	0.098971	0.18055	0.17931	0.20257	0.13061	0.22866	0.2105	0.11763	0.1506	0.059972	0.20308	-1.6292	-2.4354	-2.4542	-2.2062	-2.5229	-2.3667	-2.4813	-2.6688	-2.3104	-2.3771	-2.4813	-2.2188	-2.7562	-2.5146	-2.3021	-2.6208	228.618	406.349	169.478	453.483	314.396	274.318	457.885	350.663	406.113	342.687	138.728	377.849	284.318	393.359	170.067	346.879	0.00084803	0.00064929	0.00028148	616.37	1.3458e-05	5.2564e-06	782.52	229.81	1.2631e-05	1.2959e-05	356.13	159.15	99.318	39.906	7.7255e-06	70.25	0.0011581	0.0013535	0.00035566	832.73	1.2978e-05	1.4881e-05	856.82	259.45	1.3254e-05	1.4935e-05	441.96	168.19	111.07	44.563	1.3689e-05	73.739	223.383	215.078	225.176	119.471	190.653	176.097	119.348	124.942	228.318	168.146	123.243	127.135	128.203	132.693	287.925	131.158	-8191	255	
7546.841	1	1	0	0	0.062307	0.046019	0.095168	0.0026357	0.20206	0.075112	0.064732	0.1949	0.05648	0.23287	0.17452	0.21243	0.11027	0.06519	0.20811	0.068232	-1.6417	-2.4604	-2.4875	-2.0417	-2.6042	-2.4417	-2.1625	-2.7833	-2.2687	-2.4688	-2.6042	-2.2687	-2.55	-2.4437	-2.3229	-2.5958	160.986	141.952	308.085	416.169	418.143	148.349	113.602	167.537	185.263	293.473	459.024	422.102	428.092	287.444	416.882	239.118	0.00076084	0.00045811	0.00028177	618.72	1.5353e-05	1.1309e-05	787.98	232.52	1.2628e-05	3.931e-06	353.47	160.53	100.42	40.03	2.9649e-06	70.411	0.0012516	0.001353	0.00034967	826.52	1.4056e-05	1.475e-05	856.45	260.69	1.4249e-05	1.4579e-05	437.52	168.55	112.99	44.638	1.3433e-05	73.378	219.682	258.840	153.936	119.760	241.317	201.102	119.183	124.653	233.752	188.330	123.169	126.845	128.070	132.682	429.435	130.853	-8191	255	
7546.937	1	1	0	0	0.037474	0.081985	0.092182	0.21596	0.15511	0.15273	0.1945	0.088694	0.064596	0.19608	0.17574	0.18505	0.10236	0.3603	0.13084	0.27703	-1.7604	-2.325	-2.5667	-2.3604	-2.4813	-2.4167	-2.3417	-2.6583	-2.3833	-2.4125	-2.7188	-2.425	-2.6688	-2.5917	-2.1188	-2.5417	116.774	424.891	244.866	349.317	117.888	158.241	458.287	295.334	207.217	317.192	297.062	394.455	365.275	407.944	403.741	398.883	0.00075552	0.00077604	0.00022285	613.08	1.7297e-05	2.1407e-07	778.2	229.45	1.5344e-05	6.8731e-06	346.06	158.84	100.63	40.873	8.5854e-06	71.029	0.0013238	0.0013167	0.00034038	827.9	1.4749e-05	1.4256e-05	847.52	258.34	1.4808e-05	1.3952e-05	424.81	167.93	113.91	44.973	1.2967e-05	74.548	221.475	260.049	420.884	119.384	204.941	197.924	119.328	124.709	211.148	292.078	123.165	126.851	128.259	132.370	240.138	130.948	-8191	255	
7547.033	1	1	0	0	0.30621	0.12818	0.38415	0.23997	0.15012	0.063492	0.10085	0.022788	0.061746	0.25096	0.19375	0.42005	0.16541	0.086382	0.21959	0.1932	-1.9396	-2.3229	-2.6333	-2.2188	-2.4229	-2.6	-2.2292	-2.7	-2.3104	-2.3375	-2.6625	-2.1479	-2.5104	-2.625	-2.1604	-2.725	120.543	180.284	320.648	395.559	433.761	339.887	377.486	127.830	295.379	388.982	122.423	425.632	388.207	334.904	222.847	167.013	0.00065187	0.00062312	0.00019515	620.74	4.6967e-06	3.1416e-06	788.78	234.57	8.5955e-06	9.3592e-06	356.78	164.83	104.16	42.163	5.57e-06	73.016	0.0013618	0.0012754	0.00032799	848.54	1.5082e-05	1.3906e-05	853.17	266.26	1.4956e-05	1.3808e-05	433.28	174.7	117.34	46.133	1.2766e-05	77.128	229.131	188.625	424.559	119.229	234.127	118.546	119.328	124.747	279.994	310.788	123.209	126.718	128.157	132.352	330.984	131.023	-8191	255	
7547.129	1	1	0	0	0.19739	0.18108	0.071067	0.19974	0.26162	0.2295	0.18192	0.089044	0.21382	0.22791	0.21177	0.10581	0.32778	0.21597	0.098249	0.18693	-2.0062	-2.2729	-2.6625	-2.3438	-2.3625	-2.5354	-2.2771	-2.6917	-2.2875	-2.2687	-2.6958	-2.3958	-2.3396	-2.6917	-2.1646	-2.6188	164.531	287.309	420.100	429.778	347.312	364.363	408.943	170.732	401.813	253.064	414.232	445.126	120.543	324.653	147.980	114.489	0.00073568	0.00036917	0.0002453	622.8	2.8364e-06	5.6041e-06	788.1	236.29	8.4143e-06	9.1762e-06	368.7	166.06	104.38	42.195	1.2535e-05	73.257	0.0013429	0.00125	0.00032303	870.97	1.4659e-05	1.3527e-05	850.68	270.7	1.4485e-05	1.3409e-05	440.11	177.65	116.88	45.909	1.2855e-05	77.664	235.290	214.555	181.091	119.477	271.991	158.560	119.486	124.752	413.530	390.912	122.780	126.941	127.812	132.032	191.531	131.062	-8191	255	
7547.225	1	1	0	0	0.16724	0.043305	0.18088	0.095013	0.083551	0.054207	0.16132	0.10599	0.15242	0.24594	0.17468	0.083674	0.099851	0.1754	0.07635	0.19766	-2.0687	-2.1167	-2.5521	-2.2896	-2.3229	-2.8375	-2.0896	-2.4062	-2.525	-2.0792	-2.6354	-2.5708	-2.4833	-2.8854	-2.2146	-2.4917	381.612	311.229	452.995	111.183	167.803	465.683	421.964	108.285	125.345	324.347	381.550	424.339	138.590	462.411	173.034	337.687	0.00066219	0.00073519	0.0002231	622.81	3.2947e-06	3.5022e-06	790.52	236.53	8.1904e-06	6.4314e-06	369.54	166.69	103.52	41.609	1.4157e-05	72.266	0.0012692	0.0011902	0.00032875	875.64	1.398e-05	1.2966e-05	853.68	272.07	1.3799e-05	1.2829e-05	448.29	178.19	115.4	45.021	1.3459e-05	76.724	215.912	177.974	169.998	119.322	209.827	174.047	119.069	124.490	314.986	426.840	122.880	126.995	127.710	132.135	182.546	130.759	-8191	255	
7547.346	1	1	0	0	0.15986	0.25648	0.14166	0.25128	0.052958	0.12595	0.34173	0.33158	0.2819	0.11878	0.12596	0.38027	0.33719	0.11636	0.14979	0.32758	-1.9646	-2.1125	-2.3521	-2.4292	-2.1979	-2.675	-2.3396	-2.525	-2.4104	-2.2833	-2.4229	-2.5938	-2.3167	-2.7646	-2.2417	-2.4771	337.974	374.417	328.634	442.673	368.774	453.728	424.020	147.467	146.205	391.733	302.051	461.656	416.210	153.234	143.289	403.888	0.00058581	0.00042332	9.7697e-05	605.35	8.2362e-06	2.9826e-06	777.98	227.41	1.2605e-05	7.2175e-06	348.57	158.95	100.76	41.228	2.3563e-05	71.241	0.0012308	0.0011519	0.00034837	865.82	1.3503e-05	1.2535e-05	850.71	263.47	1.3463e-05	1.2622e-05	437.25	170.9	112.15	44.691	1.4493e-05	75.614	228.280	339.498	451.563	119.428	390.839	441.512	119.213	124.851	282.101	191.272	123.007	126.691	127.932	132.539	212.719	130.568	-8191	255	
7547.440	1	1	0	0	0.050205	0.20404	0.20232	0.12803	0.16295	0.18177	0.19214	0.15813	0.1063	0.11373	0.11718	0.28299	0.084232	0.1671	0.33671	0.12472	-2.225	-2.125	-2.5854	-2.5854	-2.1271	-2.6875	-2.4437	-2.2583	-2.7062	-2.0729	-2.4688	-2.7021	-2.2792	-2.6792	-2.3875	-2.4333	426.334	157.947	127.174	290.529	149.146	347.404	322.821	428.606	428.515	260.387	374.002	407.410	172.661	395.185	277.988	419.069	0.00053525	0.00057511	0.00044821	609.03	7.5194e-06	8.7387e-06	771.31	228.38	1.5884e-05	1.3182e-05	347.77	161.59	102.27	42.611	6.7398e-06	73.371	0.0012103	0.0011605	0.00037405	859.5	1.3292e-05	1.2797e-05	852.46	261.82	1.3217e-05	1.2988e-05	446.16	172.65	113.22	46.129	1.4975e-05	77.085	229.484	262.228	151.097	119.896	321.397	238.666	119.248	124.720	440.731	249.011	123.149	126.617	127.935	132.219	324.410	130.711	-8191	255	
7547.536	1	1	0	0	0.1984	0.3733	0.099552	0.27235	0.20553	0.1613	0.29999	0.061217	0.19224	0.11859	0.24206	0.15647	0.13928	0.039966	0.17902	0.16461	-2.1083	-2.2771	-2.525	-2.6229	-1.9917	-2.6021	-2.4896	-2.3333	-2.6208	-2.2646	-2.5604	-2.6771	-2.0771	-2.5917	-2.3604	-2.4104	341.557	137.764	274.135	213.349	314.632	428.677	419.366	276.837	272.744	299.855	372.506	333.618	288.979	458.336	253.560	204.069	0.00057236	0.0014328	0.00021729	608.75	1.4148e-05	1.0377e-05	763.87	225.98	1.6178e-06	1.7089e-05	345.2	161.47	101.52	42.519	9.5275e-06	73.185	0.0011672	0.0012141	0.00037727	840.23	1.2609e-05	1.3402e-05	846.3	258.79	1.2547e-05	1.3619e-05	444.91	171.5	111.68	46.306	1.4432e-05	76.616	229.384	195.157	121.806	119.812	457.733	215.285	119.294	124.558	234.387	197.553	123.085	126.819	128.044	131.742	388.485	130.464	-8191	255	
7547.608	1	1	0	0	0.21819	0.20053	0.054161	0.12941	0.19951	0.08867	0.14102	0.061597	0.088829	0.28157	0.20465	0.23773	0.1216	0.3178	0.11171	0.26863	-2.3271	-2.2958	-2.4417	-2.7687	-2.2354	-2.775	-2.4646	-2.3	-2.6396	-2.2729	-2.4229	-2.6771	-2.3854	-2.6771	-2.3917	-2.2604	450.300	196.241	434.600	125.253	146.397	150.978	266.950	221.649	140.915	149.919	397.724	408.760	382.150	446.949	196.626	318.270	0.00072248	0.0022781	0.00021722	602.12	5.0379e-06	5.8612e-06	762.79	227.67	1.8298e-05	9.0071e-06	354.92	162.94	101.71	42.621	7.4631e-06	72.948	0.0011201	0.0012843	0.00036374	824.62	1.2345e-05	1.4091e-05	836.85	257.32	1.2439e-05	1.4312e-05	443.65	172.46	111.94	46.784	1.4005e-05	76.422	222.084	182.779	305.182	119.657	182.759	196.871	119.201	124.653	246.987	197.127	123.026	126.822	127.634	131.889	380.399	130.234	-8191	255	
7547.729	1	1	0	0	0.19561	0.17005	0.16514	0.16779	0.22259	0.18504	0.29715	0.19366	0.29999	0.17694	0.064082	0.10914	0.18941	0.22212	0.2713	0.033414	-2.2833	-2.2271	-2.3	-2.6104	-2.3312	-2.5146	-2.6188	-2.1	-2.5938	-2.5	-2.1625	-2.7313	-2.1896	-2.5021	-2.5125	-2.4458	374.050	395.831	417.107	233.392	275.221	389.699	430.179	140.775	276.723	370.991	452.598	379.237	325.666	464.560	289.898	415.562	0.0007241	0.00011122	0.00027524	595.76	7.819e-06	8.5561e-06	749.69	220.53	1.1689e-05	1.0938e-05	333.69	157.44	99.151	42.198	7.8135e-06	71.874	0.0011415	0.001336	0.00035218	811.11	1.2934e-05	1.4691e-05	821.59	249.26	1.302e-05	1.473e-05	420.93	165.64	110.42	46.581	1.3462e-05	74.969	226.252	237.673	261.812	119.527	166.460	119.429	118.912	124.540	263.168	284.803	122.993	126.809	128.027	132.220	254.950	130.273	-8191	255	
7547.825	1	1	0	0	0.18655	0.17357	0.14129	0.15161	0.13115	0.18371	0.18035	0.041407	0.12088	0.16339	0.2179	0.18198	0.15115	0.16046	0.045675	0.22896	-2.1521	-2.35	-2.3104	-2.7812	-2.2333	-2.5187	-2.7167	-2.4146	-2.5583	-2.6792	-2.45	-2.8771	-2.2125	-2.575	-2.575	-2.3438	252.728	327.764	115.631	406.464	458.941	299.452	365.522	127.792	332.070	121.658	377.306	450.182	110.854	129.594	169.442	420.070	0.00072475	0.00094255	0.00020351	601.53	7.6421e-06	9.0971e-06	746.74	219.03	9.0764e-06	7.7548e-06	331.61	157.54	99.417	42.943	3.9683e-06	72.916	0.0012215	0.0013368	0.00034279	806.54	1.3813e-05	1.4614e-05	816.71	247.7	1.4124e-05	1.4611e-05	417.11	165.54	112.45	47.184	1.3375e-05	76.144	209.185	294.040	442.478	119.357	156.391	456.483	119.116	124.659	224.698	333.729	123.545	126.911	128.095	131.951	245.014	130.438	-8191	255	
7547.921	1	1	0	0	0.024704	0.21045	0.27081	0.18526	0.046658	0.013021	0.12627	0.18756	0.43892	0.0086053	0.25618	0.18982	0.25924	0.2188	0.038555	0.06885	-2.0979	-2.2958	-2.3229	-2.5604	-2.2333	-2.4104	-2.6208	-2.15	-2.4646	-2.3396	-2.2042	-2.7458	-2.3688	-2.4688	-2.6708	-2.2542	312.054	396.340	437.955	117.756	176.225	240.012	273.255	448.664	228.280	348.099	428.535	166.410	405.988	419.957	244.808	450.881	0.00069645	0.00085586	0.00023093	598.3	8.4972e-06	8.0038e-06	743.95	220.59	5.0815e-06	7.0775e-06	335.61	158.44	99.893	43.135	1.1683e-05	73.337	0.0013193	0.001318	0.00033856	810.12	1.4675e-05	1.4057e-05	813.8	249.98	1.4773e-05	1.4079e-05	416.98	167.43	113.28	46.993	1.2762e-05	76.423	212.283	277.251	242.275	118.886	310.927	292.668	119.376	124.959	294.769	457.036	122.976	127.037	127.986	131.757	376.694	130.330	-8191	255	
7548.017	1	1	0	0	0.235	0.1067	0.12879	0.18906	0.35589	0.1846	0.088913	0.21652	0.15808	0.13692	0.043007	0.1792	0.14666	0.10501	0.15516	0.11868	-1.9208	-2.5542	-2.0354	-2.6229	-2.3729	-2.3958	-2.6562	-2.1979	-2.6042	-2.5583	-2.2396	-2.7729	-2.3625	-2.4646	-2.6979	-2.4958	189.374	339.165	129.852	448.809	185.240	177.809	444.661	411.601	248.776	317.627	236.249	111.355	202.185	441.795	122.669	444.846	0.00061038	0.00030917	0.00016	595.64	5.6172e-06	2.2215e-06	740.18	221.47	3.6113e-06	5.972e-06	341.61	159.99	98.928	41.971	4.6713e-06	72.825	0.0013253	0.0012466	0.00032012	816.11	1.4661e-05	1.3424e-05	805.42	251.62	1.45e-05	1.3239e-05	416.24	169.29	112.34	45.667	1.2063e-05	76.284	232.526	241.605	324.452	119.592	241.649	438.485	119.008	124.858	185.766	231.771	123.074	126.802	128.116	132.243	270.985	130.423	-8191	255	
7548.138	1	1	0	0	0.054045	0.077161	0.11908	0.18856	0.21428	0.17801	0.14318	0.040465	0.23295	0.15159	0.19594	0.20486	0.21786	0.18754	0.16348	0.27268	-2.0938	-2.4813	-2.2354	-2.6188	-2.4688	-2.1896	-2.7792	-2.4938	-2.4021	-2.6208	-2.1958	-2.7146	-2.7438	-2.4854	-2.4958	-2.6125	236.085	309.922	347.797	288.810	334.026	168.838	353.408	434.662	384.269	184.817	351.017	387.741	380.837	457.231	191.266	430.993	0.00055277	0.0014664	0.000161	599.48	3.7236e-06	6.1992e-06	743.75	219.24	7.7063e-06	8.3717e-06	336.91	156.88	98.015	41.765	9.1418e-06	71.782	0.0012859	0.0011912	0.00030811	828.73	1.3973e-05	1.2852e-05	804.08	252.85	1.3751e-05	1.277e-05	408.98	168.25	110.55	45.085	1.2231e-05	75.792	230.797	214.588	193.767	119.513	222.714	314.884	119.253	124.719	363.570	382.235	123.112	126.577	128.348	131.782	291.511	130.164	-8191	255	
7548.209	1	1	0	0	0.20466	0.21238	0.13159	0.17894	0.10656	0.030452	0.11292	0.02616	0.20885	0.19257	0.10755	0.13319	0.058993	0.096092	0.17417	0.17932	-1.7354	-2.4688	-2.3	-2.5146	-2.6229	-2.1771	-2.5729	-2.4375	-2.1979	-2.6979	-2.4562	-2.6979	-2.5646	-2.2042	-2.6979	-2.4354	325.982	353.859	360.688	149.939	405.145	183.332	243.605	211.172	222.170	244.822	350.485	173.755	416.810	301.856	225.509	117.115	0.00058258	0.0013018	8.4447e-05	594.96	9.0512e-06	7.1192e-06	749.82	218.34	2.5796e-06	5.1739e-06	336.95	158.66	99.764	42.949	1.5034e-05	73.211	0.0012298	0.0011484	0.00031611	840.03	1.3476e-05	1.2467e-05	810.3	254.4	1.3393e-05	1.2418e-05	414.77	170.17	111.37	46.128	1.3104e-05	77.613	228.914	349.268	201.595	119.342	309.766	312.536	119.153	124.842	423.431	346.091	122.897	126.922	127.871	131.782	252.321	130.224	-8191	255	
7548.306	1	1	0	0	0.19668	0.01695	0.022712	0.24677	0.29374	0.12875	0.36681	0.11098	0.41047	0.11225	0.08322	0.24037	0.28319	0.22283	0.1355	0.10984	-1.7625	-2.7292	-2.3312	-2.4625	-2.5917	-2.2708	-2.7104	-2.4333	-2.1813	-2.8021	-2.4313	-2.7708	-2.7562	-2.2083	-2.4729	-2.4938	210.204	299.799	150.044	176.201	418.554	110.360	383.140	304.144	287.723	439.655	195.456	115.469	451.066	443.199	430.640	131.816	0.0006682	0.0011343	0.00054985	601.99	5.8342e-06	9.1118e-06	749.41	219.92	5.9601e-06	1.7729e-06	345.94	159.6	99.855	43.156	1.4085e-05	73.228	0.0012072	0.0011327	0.00034225	850.88	1.3371e-05	1.237e-05	820.1	256.22	1.3274e-05	1.2256e-05	431.3	170.65	111.25	46.251	1.4015e-05	77.542	235.184	214.723	170.728	120.199	362.202	270.497	119.038	124.750	400.145	118.607	123.598	126.825	128.204	131.928	230.517	130.213	-8191	255	
7548.426	1	1	0	0	0.18629	0.26237	0.02997	0.0070977	0.27302	0.19232	0.10803	0.0062612	0.22764	0.24978	0.13327	0.3448	0.13358	0.11758	0.40587	0.040026	-1.8292	-2.6729	-2.2896	-2.3958	-2.675	-2.3	-2.8354	-2.575	-2.0646	-2.8417	-2.2687	-2.3958	-2.7083	-2.2583	-2.3438	-2.5604	202.324	182.561	323.854	296.542	396.332	374.328	146.223	356.728	365.890	133.790	296.400	421.647	409.391	117.078	322.377	245.246	0.00060531	0.0005171	0.00032313	596.9	8.452e-06	8.0669e-06	745.8	219.88	4.8796e-06	2.7202e-06	340.13	159.03	99.093	42.222	7.435e-06	72.802	0.0011822	0.0011307	0.00036297	832.48	1.2925e-05	1.2417e-05	819.14	252.5	1.2697e-05	1.2392e-05	435.67	169.18	109.48	45.509	1.4264e-05	76.464	218.798	114.916	186.112	119.785	214.094	315.847	119.278	124.741	250.751	312.802	122.977	126.828	128.180	131.902	235.795	130.404	-8191	255	
7548.521	1	1	0	0	0.2511	0.10523	0.18673	0.19693	0.063289	0.19312	0.15036	0.29735	0.10661	0.10756	0.26712	0.091596	0.18415	0.18861	0.24422	0.22288	-1.8312	-2.6583	-2.4062	-2.2333	-2.7646	-2.375	-2.6458	-2.6042	-2.0687	-2.7604	-2.4708	-2.425	-2.7812	-2.3646	-2.4604	-2.7979	369.771	243.403	223.191	266.748	436.806	114.657	457.902	401.115	264.655	249.435	227.629	181.568	114.262	383.226	424.387	376.078	0.00064172	0.00081752	0.00010973	590.06	7.7186e-06	6.1858e-06	742.12	220.08	1.3976e-05	1.8754e-05	342	159.67	98.148	41.582	1.36e-05	71.461	0.0011287	0.0011674	0.00036326	815.63	1.2273e-05	1.2914e-05	820.49	251.21	1.2131e-05	1.2988e-05	434.24	168.14	108.07	45.272	1.3916e-05	74.949	228.901	454.369	126.239	119.608	378.193	142.218	119.085	124.646	309.376	246.637	123.212	126.492	128.144	131.785	362.050	130.394	-8191	255	
7548.617	1	1	0	0	0.19196	0.2822	0.21937	0.20394	0.25409	0.10317	0.29389	0.060483	0.13885	0.18448	0.11458	0.13691	0.16305	0.039765	0.096085	0.16664	-1.7167	-2.5708	-2.4479	-2.1917	-2.6312	-2.4437	-2.3563	-2.8333	-2.1042	-2.4708	-2.4542	-2.2458	-2.7354	-2.3812	-2.3521	-2.7479	336.659	184.506	356.224	159.319	131.364	310.932	421.778	202.246	465.461	215.083	141.727	110.144	429.584	122.316	264.552	381.324	0.00070672	0.0011483	0.00028807	596.94	1.1843e-05	4.921e-06	743.58	219.28	2.2035e-06	3.5492e-06	336.36	156.9	98.358	42.274	1.0677e-05	72.384	0.0010937	0.0012185	0.00035296	806.79	1.1935e-05	1.3674e-05	819.35	247.61	1.2029e-05	1.3766e-05	423.53	165.87	108.27	46.197	1.3515e-05	75.517	228.087	186.165	363.517	119.745	231.683	220.766	119.168	124.484	129.079	131.042	122.958	126.764	127.708	131.895	272.338	130.365	-8191	255	
7548.737	1	1	0	0	0.19347	0.25066	0.10524	0.016154	0.17185	0.10268	0.23281	0.052115	0.17071	0.11409	0.25792	0.36135	0.063506	0.16791	0.12056	0.1152	-1.925	-2.5062	-2.3917	-2.0375	-2.6583	-2.4229	-2.3083	-2.7062	-2.3542	-2.5125	-2.6708	-2.3729	-2.6063	-2.675	-2.3167	-2.6833	154.301	234.769	240.237	391.020	155.106	412.996	202.936	193.243	206.364	122.407	150.449	401.478	146.372	110.921	208.239	401.569	0.00085455	0.0012778	5.2324e-05	595.97	8.3541e-06	5.9676e-06	747.72	220.61	1.4627e-05	8.6955e-06	339.47	158.82	99.359	42.987	1.5938e-05	73.369	0.0011139	0.0012957	0.00034331	805.58	1.2485e-05	1.434e-05	818.9	248.55	1.2699e-05	1.4304e-05	422.79	167	109.76	47.12	1.316e-05	76.182	220.817	203.470	162.152	119.446	255.714	270.027	119.119	124.795	257.121	313.677	123.293	126.981	128.254	131.831	264.963	130.372	-8191	255	
7548.834	1	1	0	0	0.13772	0.22224	0.20301	0.19397	0.18376	0.12264	0.21336	0.15718	0.175	0.1459	0.26258	0.27744	0.19473	0.065183	0.23508	0.096126	-1.8604	-2.5667	-2.6875	-2.2104	-2.5875	-2.5083	-2.4667	-2.6833	-2.3771	-2.6583	-2.6271	-2.2979	-2.7479	-2.5833	-2.1646	-2.775	461.336	397.329	346.785	160.407	381.718	452.263	339.034	217.603	315.956	283.766	120.625	360.549	418.245	282.627	131.287	404.813	0.00079936	0.0012455	0.00036693	590.7	7.6061e-06	7.4444e-06	731.92	216.25	7.5823e-06	8.1566e-06	336.67	156.75	96.953	42.147	1.2186e-05	72.505	0.0011863	0.001299	0.00033252	792.18	1.3275e-05	1.4186e-05	802.61	243.7	1.3684e-05	1.4067e-05	414.93	164.44	109.37	46.196	1.2884e-05	75.292	213.103	440.445	138.363	119.208	203.978	329.157	119.135	124.672	215.742	351.655	123.000	126.826	128.415	131.891	379.385	130.397	-8191	255	
7548.905	1	1	0	0	0.24853	0.22571	0.12231	0.29407	0.056472	0.34885	0.26315	0.076684	0.34984	0.10319	0.23741	0.15051	0.18534	0.15049	0.21296	0.16549	-1.8062	-2.3688	-2.3979	-2.2021	-2.6104	-2.5104	-2.325	-2.6688	-2.3875	-2.3896	-2.6854	-2.4292	-2.4896	-2.6896	-2.1417	-2.675	235.054	365.976	408.137	433.978	384.617	397.069	446.812	310.257	183.682	369.786	289.281	407.047	150.087	276.178	238.999	391.632	0.00083947	0.00060875	0.0002539	589.48	8.2799e-06	2.3635e-06	732.33	214.67	1.0879e-05	6.1578e-06	332.88	157.06	96.425	41.236	4.0441e-06	71.652	0.0012658	0.0012653	0.00032382	788.01	1.4064e-05	1.3642e-05	794.72	242.55	1.4092e-05	1.3421e-05	410.7	165.16	109.29	45.116	1.224e-05	74.555	226.166	259.387	312.283	119.228	465.908	269.816	119.078	124.885	157.274	273.779	122.869	126.638	127.829	131.867	254.935	130.530	-8191	255	
7549.026	1	1	0	0	0.23447	0.15314	0.38007	0.25412	0.052183	0.18213	0.12641	0.28526	0.21745	0.095103	0.08585	0.017746	0.078624	0.21202	0.18343	0.22226	-1.925	-2.1	-2.5729	-2.1375	-2.5146	-2.6646	-2.3021	-2.5458	-2.4958	-2.4396	-2.7708	-2.4042	-2.4354	-2.6521	-2.1937	-2.7333	220.250	362.329	451.809	297.712	460.361	304.148	340.732	433.265	269.237	141.127	255.195	440.811	159.974	170.264	376.936	353.892	0.00070232	0.00052169	0.0002742	589.22	1.0139e-05	1.8684e-06	730.18	214.96	5.821e-06	5.0438e-06	329.55	152.79	95.099	41.144	2.8436e-06	71.263	0.0012704	0.0011927	0.00030783	796.27	1.3953e-05	1.2955e-05	791.22	244	1.403e-05	1.2883e-05	399.16	162.45	108.01	44.641	1.1914e-05	74.728	225.768	352.525	227.784	119.372	123.042	394.077	119.196	124.760	375.169	201.741	122.822	126.647	128.042	131.966	180.892	130.476	-8191	255	
7549.122	1	1	0	0	0.21849	0.27728	0.16409	0.029951	0.067472	0.25311	0.18252	0.27038	0.15001	0.13518	0.13739	0.19479	0.1545	0.052349	0.033723	0.16085	-1.8958	-2.225	-2.6083	-2.1771	-2.6604	-2.5458	-2.2687	-2.5458	-2.3812	-2.3083	-2.6854	-2.5	-2.3583	-2.7167	-2.2625	-2.6875	287.632	240.451	175.586	419.026	299.221	389.369	407.893	420.038	225.842	324.420	448.145	173.015	367.686	230.264	379.879	352.265	0.00061826	0.00018004	0.00029154	591.66	5.906e-06	9.1956e-06	729.99	213.5	1.2644e-05	1.1305e-05	327.57	153.27	95.114	41.979	1.134e-05	72.223	0.0012599	0.001178	0.00030605	824.24	1.3883e-05	1.2818e-05	792.93	247.32	1.3994e-05	1.2975e-05	401.92	164.48	107.89	45.521	1.2473e-05	76.655	208.822	129.735	283.743	119.789	286.737	300.029	118.804	124.834	257.862	454.042	123.276	126.978	128.406	131.920	205.780	130.390	-8191	255	
7549.218	1	1	0	0	0.11782	0.22001	0.15936	0.10958	0.35801	0.09078	0.21327	0.30893	0.26523	0.12331	0.1881	0.069844	0.15773	0.036468	0.29094	0.36637	-2.0208	-2.0021	-2.5167	-2.2062	-2.2354	-2.625	-2.4375	-2.4708	-2.6979	-2.1083	-2.6646	-2.5458	-2.0792	-2.7562	-2.3	-2.6771	207.395	120.262	323.961	412.974	201.953	222.138	348.955	403.096	215.519	118.162	445.103	377.075	349.710	452.789	144.264	117.849	0.00062282	0.001029	5.7544e-05	580.03	4.9585e-06	6.1189e-06	719.35	207.35	3.8964e-06	6.8647e-06	317	150.01	93.053	41.641	2.3686e-05	71.81	0.0012629	0.0011819	0.00032344	841.45	1.3817e-05	1.289e-05	786.13	244.82	1.3794e-05	1.2854e-05	404.1	162.91	105.44	45.117	1.3548e-05	76.495	233.074	263.988	333.158	119.077	463.032	427.059	118.928	124.766	363.050	318.405	123.288	126.997	128.255	131.705	249.488	129.994	-8191	255	
7549.314	1	1	0	0	0.015824	0.32533	0.072854	0.090063	0.42341	0.060272	0.097313	0.17236	0.19329	0.20013	0.23117	0.058821	0.24451	0.26626	0.1432	0.075186	-2.05	-2.1063	-2.55	-2.3167	-2.225	-2.7042	-2.3688	-2.55	-2.6375	-2.225	-2.6583	-2.3438	-2.35	-2.65	-2.1667	-2.5104	171.336	407.174	179.889	458.684	180.336	457.522	113.422	224.389	117.622	272.073	382.187	441.524	114.615	134.705	262.128	107.673	0.00048198	0.00026477	0.00036584	576.85	6.9468e-06	8.3552e-06	709.77	203.28	2.7751e-06	2.0878e-06	314.08	147.97	91.288	41.393	1.5847e-05	71.092	0.0012442	0.0011669	0.00035084	841.25	1.3702e-05	1.2701e-05	789.24	241.52	1.3849e-05	1.2931e-05	413.64	160.98	103.83	44.914	1.4744e-05	75.89	235.969	293.824	150.434	119.584	275.866	416.356	118.963	124.614	324.863	218.422	122.855	126.813	128.204	131.514	246.323	130.220	-8191	255	
7549.433	1	1	0	0	0.22199	0.21437	0.13832	0.016072	0.066924	0.063188	0.23198	0.2106	0.18949	0.17172	0.27756	0.18118	0.14785	0.15221	0.29793	0.14535	-2.0646	-2.1542	-2.5917	-2.3917	-2.1375	-2.5729	-2.2104	-2.2833	-2.525	-2.1896	-2.5542	-2.5354	-2.2646	-2.4062	-2.3021	-2.5667	361.395	239.524	172.614	156.428	300.814	419.892	287.300	113.829	404.967	160.562	423.383	127.298	374.115	122.776	378.840	427.805	0.00063959	0.00062574	2.3569e-05	575.72	1.226e-05	9.9037e-06	700.87	198.29	5.1231e-06	1.2305e-05	303.5	142.95	88.379	40.617	1.0736e-05	69.82	0.0012349	0.0011846	0.00037626	833.05	1.3426e-05	1.3041e-05	787.82	235.64	1.343e-05	1.3187e-05	409.94	155.31	100.9	44.299	1.5106e-05	74.044	225.244	465.347	270.514	119.373	305.758	196.498	119.106	124.753	180.836	221.905	122.499	126.751	128.432	131.595	214.291	130.101	-8191	255	
7549.505	1	1	0	0	0.11646	0.1891	0.15025	0.056417	0.2078	0.068031	0.15497	0.24947	0.15802	0.25481	0.16221	0.33931	0.23815	0.1196	0.26781	0.22718	-2.0563	-1.9104	-2.3958	-2.5042	-2.0896	-2.7125	-2.5479	-2.5208	-2.6104	-2.4417	-2.525	-2.6396	-2.1729	-2.5854	-2.5	-2.35	147.689	243.644	451.001	424.210	155.307	204.700	367.629	398.394	209.627	314.664	466.210	436.817	410.726	389.709	154.228	389.301	0.00068727	0.00092912	0.00016674	573.7	8.0146e-06	1.2955e-05	708.63	201.29	2.5444e-06	6.273e-06	305.34	145.37	90.334	41.098	7.3613e-06	70.682	0.001188	0.0012321	0.00038562	820.26	1.2962e-05	1.3602e-05	792.24	235.03	1.2796e-05	1.3835e-05	409.65	156.61	101.96	45.186	1.4782e-05	74.542	216.012	171.128	166.434	120.007	224.072	188.402	119.185	124.617	415.543	215.187	123.013	126.882	128.300	131.870	200.787	130.166	-8191	255	
7549.601	1	1	0	0	0.028587	0.10747	0.065101	0.072318	0.1036	0.10466	0.041059	0.072043	0.17971	0.059244	0.051246	0.19991	0.333	0.21356	0.13985	0.14262	-2.1208	-2.3146	-2.4167	-2.4646	-2.2687	-2.5667	-2.5292	-2.3167	-2.6021	-2.4896	-2.4125	-2.6708	-2.3063	-2.5312	-2.5958	-2.4792	217.009	244.085	141.032	321.817	447.681	299.722	230.137	173.095	177.108	347.764	336.849	403.203	127.604	358.003	110.596	452.599	0.00066037	0.00084931	0.00017981	571.72	4.0229e-06	1.6453e-05	705.33	202.55	1.3083e-05	1.3837e-05	312.09	147	90.911	40.688	3.2037e-06	70.176	0.0011363	0.0012949	0.00037227	808.3	1.2521e-05	1.4185e-05	788.81	235.59	1.2356e-05	1.4272e-05	408.48	156.67	101.86	44.855	1.3819e-05	73.618	235.652	134.307	386.621	119.763	335.388	187.508	119.258	124.913	266.594	187.852	123.243	127.056	128.475	131.858	161.341	130.520	-8191	255	
7549.697	1	1	0	0	0.27708	0.17529	0.11238	0.22253	0.21791	0.13226	0.13796	0.16114	0.21787	0.11386	0.070285	0.15835	0.071299	0.3538	0.21668	0.30784	-2.2167	-2.2875	-2.2333	-2.55	-2.15	-2.3063	-2.5146	-2.1958	-2.7833	-2.2792	-2.1729	-2.6979	-2.2208	-2.4	-2.5479	-2.275	209.777	199.391	240.226	372.179	277.788	395.148	177.830	447.729	423.973	453.822	303.659	328.190	209.474	438.717	339.215	393.466	0.00071665	0.0023512	0.00040123	571.27	9.0454e-06	1.8538e-05	710.87	205.64	1.4015e-05	8.2739e-06	314.05	147.92	90.982	40.181	1.1773e-05	69.903	0.0011296	0.0013286	0.00035007	788.56	1.2661e-05	1.4467e-05	783.11	235.11	1.2751e-05	1.4497e-05	405.91	157.19	102.7	44.542	1.328e-05	72.954	222.115	133.705	238.716	119.346	243.297	247.363	119.393	124.359	255.285	240.937	123.261	127.300	128.417	131.792	302.635	130.806	-8191	255	
7549.818	1	1	0	0	0.30618	0.23376	0.14928	0.30759	0.25881	0.25296	0.31874	0.31375	0.17491	0.35944	0.10457	0.090069	0.06083	0.46819	0.10278	0.03548	-2.0938	-2.3333	-2.2333	-2.6813	-2.2917	-2.4375	-2.5521	-2.1562	-2.5458	-2.3937	-2.2042	-2.5833	-2.4	-2.5062	-2.6271	-2.2583	460.380	373.374	454.302	460.219	140.216	230.355	432.967	393.085	364.804	235.899	406.063	422.708	364.146	406.611	164.049	144.747	0.00076184	0.0018478	8.8552e-05	573.36	2.0196e-05	1.6998e-06	706.76	203.46	1.2479e-05	7.7841e-06	314.52	145.11	89.5	39.414	4.2294e-06	68.682	0.0011826	0.0013081	0.00033687	776.04	1.3441e-05	1.4233e-05	775.78	232.01	1.3532e-05	1.4112e-05	398.17	153.91	102.57	43.627	1.2832e-05	71.529	216.575	224.867	118.925	119.491	188.486	302.691	119.137	124.563	250.294	282.922	123.007	126.924	128.340	131.871	362.559	130.120	-8191	255	
7549.914	1	1	0	0	0.096466	0.16145	0.17696	0.27547	0.1386	0.21214	0.2025	0.17443	0.07764	0.041706	0.065464	0.17346	0.2492	0.27858	0.053155	0.038001	-1.9292	-2.3896	-2.2458	-2.6688	-2.325	-2.4833	-2.7042	-2.2812	-2.4875	-2.5604	-2.3896	-2.5187	-2.4958	-2.5104	-2.8521	-2.2396	287.528	450.279	290.890	163.498	339.934	311.339	118.522	263.985	226.062	231.266	430.192	449.085	388.915	378.648	352.193	110.453	0.00082375	0.0012371	0.00015505	574.31	1.5123e-06	9.3986e-06	711.62	203.89	8.4905e-06	1.3023e-05	314.21	147.1	91.383	40.075	4.8441e-06	69.747	0.0012549	0.0012647	0.0003257	776.05	1.4169e-05	1.3676e-05	777.9	233.1	1.4247e-05	1.3604e-05	394.95	155.44	104.68	43.94	1.2439e-05	72.949	221.394	299.562	227.853	119.673	448.962	118.769	119.116	124.553	251.179	349.542	123.187	126.821	128.318	132.139	305.724	130.320	-8191	255	
7550.010	1	1	0	0	0.29146	0.11042	0.21401	0.10782	0.21162	0.1907	0.26786	0.14231	0.24874	0.040388	0.19083	0.32099	0.22015	0.29632	0.12359	0.38088	-1.9625	-2.5229	-2.1688	-2.7333	-2.3	-2.3729	-2.8063	-2.25	-2.3958	-2.6125	-2.1167	-2.6813	-2.6083	-2.525	-2.75	-2.3292	439.297	222.731	321.981	154.088	180.012	257.056	190.043	109.018	221.940	267.460	317.746	326.127	108.932	159.636	354.268	407.718	0.00054607	0.000811	8.6467e-05	579.62	3.2265e-06	3.4611e-06	714.26	206.95	4.268e-06	1.2284e-05	313.09	147.85	91.314	39.944	6.7604e-06	69.409	0.0013026	0.0012202	0.0003164	795.31	1.4387e-05	1.3322e-05	777.25	237.9	1.428e-05	1.3177e-05	392.61	158.09	104.58	43.824	1.1974e-05	73.344	224.591	231.555	405.833	119.333	307.936	200.191	119.192	124.623	328.569	214.359	123.201	127.078	128.034	132.207	235.579	130.448	-8191	255	
7550.106	1	1	0	0	0.016443	0.20664	0.24779	0.10597	0.10697	0.13162	0.19817	0.13614	0.18195	0.46143	0.043091	0.16532	0.34699	0.2262	0.17996	0.21126	-2.0271	-2.5167	-2.2104	-2.4729	-2.4167	-2.375	-2.7667	-2.5021	-2.3625	-2.7271	-2.2042	-2.4875	-2.4979	-2.2292	-2.5896	-2.475	376.439	123.156	200.985	301.245	212.425	348.385	430.597	425.728	451.881	173.725	297.758	396.146	147.171	357.954	241.494	360.815	0.000589	0.00091846	0.00039447	576.24	4.6833e-06	1.1796e-05	710.51	206.24	8.2642e-06	3.6926e-06	321.77	148.57	90.867	39.407	4.3376e-06	69.612	0.0012628	0.0011736	0.00030552	805.66	1.3832e-05	1.2752e-05	769.94	239.22	1.3669e-05	1.262e-05	393.28	159.16	103.1	42.966	1.1944e-05	73.589	228.660	111.384	184.435	119.415	229.365	433.299	119.028	124.381	430.448	410.159	123.019	126.999	128.186	132.052	183.792	130.651	-8191	255	
7550.202	1	1	0	0	0.096401	0.1066	0.17921	0.18777	0.14278	0.16469	0.16635	0.12681	0.25077	0.13613	0.074345	0.27867	0.07528	0.46396	0.19242	0.20367	-1.9604	-2.8021	-2.1083	-2.5042	-2.4125	-2.1354	-2.7812	-2.3375	-2.2188	-2.725	-2.2438	-2.5687	-2.6312	-2.3479	-2.5125	-2.3	335.074	218.384	375.609	466.427	166.628	357.132	286.047	457.720	411.519	267.202	143.500	393.648	423.023	112.851	289.196	429.207	0.00062107	7.5343e-05	0.00041135	573.4	7.4061e-06	2.4587e-06	709.92	206.72	1.2602e-05	5.1576e-06	316.93	145.04	88.849	38.678	1.5462e-05	67.741	0.0012055	0.00112	0.00030906	812.81	1.3191e-05	1.221e-05	772.14	240.89	1.3082e-05	1.2094e-05	394.19	157.18	100.68	41.938	1.2607e-05	71.786	229.704	394.262	159.478	119.293	261.870	328.064	119.032	124.680	365.306	324.816	122.878	127.159	128.283	132.086	277.549	130.270	-8191	255	
7550.299	1	1	0	0	0.074584	0.18598	0.1857	0.15803	0.18601	0.21079	0.13588	0.25378	0.16759	0.08674	0.12481	0.26379	0.11547	0.3355	0.15131	0.14913	-1.7625	-2.6708	-2.0833	-2.5958	-2.6146	-2.2792	-2.7875	-2.3958	-2.3354	-2.6188	-2.4521	-2.4271	-2.6896	-2.2062	-2.5708	-2.4979	239.623	352.137	125.961	333.026	228.108	123.414	335.139	294.536	246.377	127.433	354.492	131.681	260.988	430.698	252.738	423.846	0.00071246	0.00077022	0.00041443	564.75	1.0017e-05	5.7642e-06	704.41	200.15	2.644e-06	3.4221e-06	307.44	140.9	86.781	38.244	1.5194e-05	66.754	0.0011634	0.0010838	0.00032936	810.34	1.28e-05	1.1973e-05	774.63	235.1	1.288e-05	1.1975e-05	396.8	152.67	98.591	41.588	1.366e-05	71.033	222.075	121.335	151.230	119.101	233.452	272.359	119.256	124.318	437.936	200.590	123.039	127.267	128.466	131.794	223.610	130.638	-8191	255	
7550.417	1	1	0	0	0.18302	0.082897	0.16192	0.20444	0.17002	0.10575	0.15652	0.217	0.11927	0.13271	0.076995	0.30296	0.14998	0.2336	0.27193	0.32601	-1.7687	-2.7438	-2.3	-2.3104	-2.5583	-2.3396	-2.6229	-2.5687	-2.1896	-2.7542	-2.1813	-2.5667	-2.55	-2.4896	-2.625	-2.4938	330.986	380.589	264.033	401.111	249.040	247.868	406.391	376.571	235.697	190.359	226.560	414.202	399.291	147.660	151.328	388.148	0.00058356	0.0011681	0.00037445	567.92	7.7776e-06	2.3326e-06	702.22	200.71	7.1185e-06	1.4653e-05	306.6	142.32	87.153	38.723	5.1703e-06	67.152	0.0011613	0.0010968	0.00035382	803.01	1.2555e-05	1.2078e-05	778.44	233.74	1.2469e-05	1.2072e-05	401.86	152.91	98.068	42.069	1.3877e-05	71.097	233.545	160.268	174.747	119.096	354.796	462.846	119.242	124.699	202.595	242.264	122.923	127.067	128.709	131.958	187.060	130.661	-8191	255	
7550.514	1	1	0	0	0.1832	0.10429	0.34949	0.052315	0.20405	0.20968	0.075018	0.16526	0.12465	0.12566	0.080092	0.12421	0.24434	0.024816	0.182	0.33097	-1.7396	-2.6208	-2.3438	-2.4562	-2.6104	-2.2875	-2.5271	-2.7687	-2.125	-2.7313	-2.3917	-2.3187	-2.6562	-2.3312	-2.4917	-2.6583	455.329	283.178	413.225	325.795	438.721	133.711	346.507	328.230	118.610	242.015	234.375	346.907	113.105	393.701	121.884	408.202	0.00064458	0.001118	2.8185e-05	565.13	6.2073e-06	8.0809e-06	697.44	196.28	9.4806e-06	1.4076e-05	302.49	140.87	85.544	38.184	3.2166e-06	66.598	0.0011024	0.0011284	0.00035597	786.47	1.1917e-05	1.2661e-05	774.79	228.99	1.2043e-05	1.2795e-05	401.08	150.49	96.115	41.86	1.3785e-05	70.418	229.413	148.685	405.939	119.571	309.280	244.487	119.190	124.732	408.415	218.319	122.967	127.156	128.427	132.086	445.527	130.554	-8191	255	
7550.610	1	1	0	0	0.25858	0.14384	0.3763	0.1753	0.010751	0.14834	0.075713	0.2134	0.11693	0.17446	0.23816	0.18375	0.099134	0.10217	0.2148	0.25525	-1.7646	-2.6688	-2.4854	-2.2417	-2.8104	-2.3604	-2.7229	-2.7583	-2.1917	-2.6583	-2.6354	-2.3375	-2.6125	-2.5	-2.5021	-2.8042	125.510	267.114	222.377	178.753	344.781	379.147	120.571	437.069	406.748	279.614	291.709	154.616	218.835	242.331	125.418	286.373	0.00057251	0.00078824	0.00048494	562.62	1.311e-05	1.0159e-05	692.56	198.44	3.8218e-06	1.0695e-05	309.8	142.97	87.061	38.4	5.1949e-06	66.956	0.0010786	0.0012114	0.00034859	779.63	1.1853e-05	1.347e-05	771.04	228.83	1.1911e-05	1.3596e-05	400.12	152.21	97.319	42.51	1.3315e-05	70.23	222.185	173.392	317.023	118.814	288.732	205.768	118.933	124.811	251.156	177.296	123.221	126.854	128.634	131.788	227.155	130.602	-8191	255	
7550.706	1	1	0	0	0.042484	0.36943	0.04725	0.20955	0.069907	0.27307	0.084919	0.14233	0.19092	0.21177	0.030993	0.37513	0.063044	0.19735	0.09242	0.26952	-1.8438	-2.675	-2.4146	-2.3375	-2.6729	-2.3375	-2.3417	-2.7375	-2.2167	-2.4333	-2.6229	-2.3708	-2.8521	-2.5271	-2.4125	-2.775	272.031	241.186	112.505	187.847	147.950	205.706	463.192	383.600	223.597	195.834	305.132	127.257	108.962	432.057	352.900	389.773	0.00071895	0.00065471	0.00022575	569.28	2.3102e-06	5.6047e-06	702.56	200.22	8.441e-06	5.6587e-06	308.44	144.07	88.459	38.582	9.5728e-06	67.664	0.0010879	0.0012556	0.00033244	770.58	1.203e-05	1.3896e-05	774.04	229.22	1.2269e-05	1.3903e-05	394.61	152.41	99.255	42.803	1.2819e-05	70.491	223.060	430.349	257.271	119.280	204.619	123.668	119.055	124.781	262.633	248.054	123.333	127.216	128.164	131.971	371.278	130.590	-8191	255	
7550.802	1	1	0	0	0.086972	0.092455	0.081364	0.089009	0.10899	0.36177	0.28499	0.25429	0.18628	0.17592	0.15487	0.2541	0.35576	0.20906	0.12288	0.16052	-1.6396	-2.4188	-2.6312	-2.0854	-2.7167	-2.4333	-2.3771	-2.7271	-2.3563	-2.6083	-2.6771	-2.2792	-2.65	-2.5	-2.2313	-2.6375	448.886	291.889	342.443	185.961	304.411	124.518	392.986	353.424	189.933	149.872	429.409	106.652	332.061	404.929	255.759	376.298	0.00073622	0.00052267	0.00010043	578.32	1.2173e-05	4.9316e-06	719.23	207.26	1.3914e-05	3.8668e-06	318.68	148.18	90.268	39.336	1.0433e-05	69.375	0.00115	0.0012632	0.00032325	771.51	1.2891e-05	1.3837e-05	786.08	233.83	1.321e-05	1.3803e-05	401.36	155.84	102.75	43.433	1.2625e-05	71.957	216.777	258.741	301.324	119.937	177.986	333.081	119.304	124.514	238.018	323.041	123.222	127.053	128.073	132.220	236.900	130.478	-8191	255	
7550.898	1	1	0	0	0.19146	0.10831	0.15114	0.17508	0.18853	0.14713	0.292	0.072857	0.25415	0.19928	0.17774	0.1807	0.20043	0.22028	0.17427	0.065054	-1.7479	-2.2812	-2.6125	-2.1833	-2.5396	-2.3833	-2.0687	-2.6896	-2.3833	-2.3479	-2.7208	-2.2583	-2.5396	-2.625	-2.1667	-2.6562	284.021	391.364	420.484	141.141	333.184	421.496	354.305	148.145	220.757	286.275	376.606	109.489	324.740	140.626	326.957	130.744	0.00088028	0.0012644	0.00015247	579.84	7.527e-06	3.0244e-06	723.15	209.35	4.6565e-06	7.892e-06	325.67	149.27	91.058	39.298	8.4486e-07	69.578	0.0012424	0.0012376	0.00031898	779	1.3768e-05	1.3378e-05	786.79	236.11	1.3957e-05	1.3288e-05	399.98	157.58	103.85	43.191	1.2249e-05	72.368	215.460	241.406	426.116	119.394	269.051	419.811	119.432	124.889	263.794	294.242	122.941	127.241	128.466	131.971	426.538	130.425	-8191	255	
7550.994	1	1	0	0	0.091333	0.15081	0.065389	0.13607	0.1795	0.11457	0.064354	0.039997	0.24968	0.16534	0.16552	0.25822	0.13597	0.27864	0.16093	0.19242	-2.0187	-2.3625	-2.6833	-2.2021	-2.3521	-2.7229	-2.1375	-2.6125	-2.5312	-2.2938	-2.6583	-2.3438	-2.5312	-2.5979	-2.1875	-2.7604	330.740	231.821	250.649	206.320	129.837	395.690	294.060	183.694	238.653	185.893	271.263	437.181	441.326	368.683	191.269	337.826	0.00070415	0.0011884	0.00039371	582.23	9.2585e-06	6.2765e-06	720	205.9	5.7201e-06	3.7659e-06	317.43	147.35	88.879	39.005	6.7719e-06	68.426	0.0012796	0.0011964	0.00030832	788.69	1.418e-05	1.3048e-05	778.75	236.25	1.4178e-05	1.298e-05	392.33	156.81	102.27	42.538	1.1902e-05	72.173	223.823	319.536	190.507	119.147	430.523	181.101	119.307	125.042	416.543	464.329	123.673	127.110	128.224	132.166	239.629	130.462	-8191	255	
7551.115	1	1	0	0	0.24847	0.2124	0.2745	0.063655	0.03756	0.15347	0.10634	0.092225	0.064632	0.19542	0.1365	0.17523	0.10486	0.43776	0.15908	0.18645	-1.9354	-2.1896	-2.3937	-2.2708	-2.3479	-2.5083	-2.3438	-2.5479	-2.2583	-2.175	-2.5583	-2.3688	-2.3146	-2.5021	-2.3708	-2.6229	126.840	170.228	279.745	409.196	298.175	133.233	353.917	369.330	411.733	316.829	297.452	434.331	391.004	175.068	111.081	348.190	0.00048951	0.0007723	0.0002016	574.2	4.0706e-06	6.6787e-06	708.99	200.89	3.9532e-06	4.7307e-06	307.7	141.27	86.05	38.134	7.2968e-06	67.203	0.0012521	0.001164	0.00030058	800.71	1.3788e-05	1.2747e-05	767.63	234.54	1.3746e-05	1.2725e-05	382.55	152.96	99.134	41.744	1.2223e-05	71.674	229.228	347.444	462.762	119.785	220.908	300.378	118.776	124.681	108.256	414.346	123.256	126.970	128.596	132.132	278.033	130.731	-8191	255	
7551.209	1	1	0	0	0.14234	0.043724	0.22846	0.067126	0.23863	0.075611	0.040159	0.15353	0.073024	0.14019	0.24351	0.084355	0.30019	0.084731	0.18916	0.18399	-2.0521	-2.1292	-2.6583	-2.4042	-2.25	-2.6	-2.4667	-2.5438	-2.5521	-2.4271	-2.5896	-2.3854	-2.2896	-2.8229	-2.325	-2.4667	463.722	426.208	449.981	418.472	186.482	316.420	148.770	407.279	268.307	190.937	109.043	162.740	434.113	123.710	219.696	192.146	0.00049264	0.00049113	0.00033869	574.02	1.2578e-05	3.1104e-06	702.98	198.84	5.5861e-06	1.1161e-05	305.22	141.69	86.324	39	1.4851e-05	68.441	0.0012278	0.0011453	0.00031342	823.04	1.3595e-05	1.2532e-05	771.07	235.57	1.348e-05	1.2575e-05	389.18	154.31	99.182	42.416	1.3149e-05	73.064	237.779	250.051	169.603	119.395	409.302	177.108	119.195	124.742	366.916	362.270	123.268	127.227	128.354	132.336	231.990	130.578	-8191	255	
7551.306	1	1	0	0	0.16194	0.17346	0.19398	0.17011	0.27274	0.33654	0.068758	0.099136	0.13609	0.093968	0.19085	0.096165	0.1389	0.061702	0.25567	0.15943	-2.3312	-2.0812	-2.5167	-2.5	-2.2229	-2.775	-2.4292	-2.5583	-2.6896	-2.1771	-2.7646	-2.4417	-2.4271	-2.7917	-2.425	-2.4229	421.396	461.919	166.468	128.507	358.900	261.025	283.593	295.979	237.185	406.737	213.474	440.401	238.209	424.864	261.815	113.793	0.00049063	0.0003251	0.00024381	570.71	1.0596e-05	9.6633e-06	704.8	198.24	7.4245e-06	9.7378e-06	305.16	140.18	85.245	38.187	1.3978e-05	67.167	0.0012049	0.0011322	0.00033934	826.1	1.3357e-05	1.2321e-05	779.1	235.14	1.3206e-05	1.2302e-05	397.59	152.81	97.596	41.599	1.3958e-05	71.843	218.290	164.160	120.801	119.082	348.917	115.083	119.078	124.408	395.897	259.183	123.113	127.098	128.481	132.200	241.185	130.871	-8191	255	
7551.379	1	1	0	0	0.12047	0.044605	0.13948	0.19707	0.27931	0.27195	0.011203	0.2871	0.26722	0.12733	0.35151	0.067558	0.10109	0.24524	0.13021	0.18861	-2.1792	-2.0687	-2.2917	-2.4979	-2.225	-2.8771	-2.4021	-2.3896	-2.65	-1.9354	-2.6854	-2.8229	-2.1521	-2.6729	-2.4146	-2.3271	247.727	403.637	300.460	238.368	151.477	126.257	218.522	452.111	439.431	285.918	125.775	440.234	431.030	196.968	133.152	327.019	0.00066728	0.0016888	0.00019505	569.78	4.8174e-06	5.3759e-06	706.34	196.52	1.0117e-05	8.6031e-06	305.14	141.13	84.976	37.934	1.8505e-05	66.968	0.0011772	0.0011272	0.00035832	809.12	1.2943e-05	1.2274e-05	782.45	231.63	1.2618e-05	1.2464e-05	405.24	152.09	96.576	41.425	1.4306e-05	71.039	219.863	196.461	189.126	119.678	339.105	228.365	119.142	124.913	373.739	207.804	122.961	127.036	128.732	131.957	239.261	130.840	-8191	255	
7551.498	1	1	0	0	0.18039	0.17686	0.068649	0.11951	0.20464	0.2204	0.14224	0.066206	0.19644	0.15752	0.09985	0.2103	0.010107	0.23452	0.32688	0.24428	-2.2208	-2.1271	-2.4292	-2.5104	-2.2687	-2.5854	-2.4083	-2.2771	-2.6937	-2.1667	-2.4771	-2.5333	-2.2687	-2.6333	-2.35	-2.4208	118.874	144.799	291.895	396.457	166.024	296.800	326.831	271.257	177.812	298.052	150.247	464.296	363.967	365.563	299.347	384.313	0.0005168	0.0022718	0.00012742	560.75	7.3673e-06	9.3767e-06	701.16	197.55	4.137e-06	8.5134e-06	304.88	139.98	85.056	37.67	1.003e-05	66.767	0.0011111	0.0011645	0.00036461	793.28	1.2344e-05	1.2833e-05	780.28	228.94	1.2084e-05	1.2986e-05	401.35	150.21	95.753	41.476	1.396e-05	70.309	214.498	160.888	158.641	119.872	341.824	182.497	119.059	124.676	138.764	163.489	122.904	127.139	128.560	132.204	239.111	130.491	-8191	255	
7551.594	1	1	0	0	0.1144	0.36437	0.18735	0.16283	0.20797	0.11318	0.19683	0.02718	0.13759	0.016962	0.10215	0.28461	0.094032	0.31438	0.27915	0.24863	-2.1625	-2.2833	-2.2188	-2.6333	-2.2979	-2.5312	-2.5563	-2.4083	-2.8083	-2.325	-2.5104	-2.6458	-2.2729	-2.4792	-2.5167	-2.5563	305.774	445.048	371.384	452.164	133.368	345.610	396.255	433.921	136.314	341.462	127.659	440.327	420.365	289.243	164.422	445.881	0.00055392	0.0016271	0.00024912	561.44	3.6077e-06	1.355e-05	701.98	198.61	1.5165e-05	4.4104e-06	303.47	140.42	86.001	38.645	2.1164e-05	68.118	0.0010847	0.0012355	0.00035617	786.04	1.2067e-05	1.3574e-05	781.19	228.92	1.2051e-05	1.3902e-05	398.14	150.63	96.863	42.775	1.3515e-05	71.5	220.471	176.551	383.976	119.537	343.535	238.186	119.003	124.619	252.443	168.219	123.182	126.878	128.412	132.053	345.739	130.693	-8191	255	
7551.690	1	1	0	0	0.30451	0.16727	0.088511	0.19894	0.09548	0.033126	0.23679	0.22986	0.17624	0.37665	0.31651	0.2473	0.30114	0.17509	0.28715	0.21796	-2.4437	-2.3563	-2.4917	-2.7875	-2.2083	-2.4896	-2.6896	-2.3604	-2.6917	-2.3042	-2.1646	-2.6875	-2.2167	-2.5979	-2.4833	-2.1792	216.539	321.432	332.032	224.144	225.799	434.044	154.516	343.407	454.117	339.429	373.655	435.393	121.699	361.509	131.447	394.163	0.00080542	0.0015261	0.00012394	576.5	4.7367e-06	1.2711e-05	708.99	199	1.6859e-05	6.3375e-06	306.37	141.24	85.708	38.495	3.4622e-06	67.767	0.001096	0.0012876	0.00034319	782.92	1.2359e-05	1.4234e-05	780.5	229.35	1.264e-05	1.4438e-05	397.45	150.61	97.448	42.978	1.3199e-05	70.924	226.779	175.215	251.909	119.740	194.822	202.957	118.841	124.309	239.291	200.752	123.677	127.114	128.585	132.421	358.793	130.856	-8191	255	
7551.786	1	1	0	0	0.11233	0.1511	0.18198	0.060179	0.13708	0.048333	0.023872	0.17487	0.11773	0.27596	0.28381	0.029414	0.046525	0.16112	0.17607	0.23173	-2.1437	-2.4562	-2.1937	-2.5062	-2.2229	-2.5521	-2.5167	-2.3042	-2.5667	-2.3875	-2.2854	-2.7438	-2.2188	-2.4125	-2.6375	-2.3333	405.687	289.218	304.528	155.831	273.154	156.435	213.873	458.224	119.863	217.239	351.234	363.450	118.506	404.310	204.271	416.429	0.00081943	0.00049421	0.00030802	567.35	1.4543e-05	8.7045e-06	698.21	195.41	9.8624e-06	1.5907e-06	304.61	139.8	84.25	37.663	9.173e-06	66.768	0.0011796	0.0013059	0.00033142	772.19	1.3278e-05	1.4161e-05	769.44	223.86	1.3392e-05	1.4021e-05	387.24	148.03	96.671	41.842	1.2617e-05	69.66	224.276	279.741	247.728	119.496	216.642	356.088	119.317	124.730	190.055	356.006	123.727	126.912	128.596	131.953	299.395	130.599	-8191	255	
7551.907	1	1	0	0	0.19066	0.068674	0.29625	0.13718	0.1262	0.15178	0.10212	0.10284	0.21546	0.30899	0.10732	0.14141	0.056937	0.16601	0.16585	0.26411	-2.0417	-2.5583	-2.2188	-2.675	-2.1833	-2.3583	-2.6396	-2.1854	-2.5396	-2.4313	-2.05	-2.725	-2.2875	-2.4062	-2.5542	-2.1854	243.638	176.885	369.612	446.944	373.123	340.993	420.004	113.012	184.546	398.686	129.480	424.188	135.093	377.288	322.796	366.605	0.00077417	0.0010275	0.00039639	557.27	7.1694e-06	1.1873e-05	694.25	194.94	1.5333e-05	2.6876e-06	302.16	138.43	82.673	37.007	8.3103e-06	66.072	0.0012224	0.0012354	0.00031563	756.53	1.3626e-05	1.3263e-05	761.15	221.69	1.3567e-05	1.3037e-05	379.93	147.05	96.076	40.684	1.1817e-05	68.951	219.823	316.286	239.501	119.550	242.248	395.583	118.800	124.679	262.304	348.725	122.792	127.257	128.719	132.421	253.531	130.537	-8191	255	
7552.003	1	1	0	0	0.20872	0.13733	0.17661	0.02659	0.13549	0.18258	0.25	0.21697	0.12266	0.17183	0.14309	0.14461	0.37741	0.26359	0.14181	0.20954	-2.05	-2.3563	-2.1854	-2.6188	-2.5521	-2.4646	-2.7438	-2.2896	-2.5667	-2.5104	-2.3688	-2.7438	-2.4417	-2.3417	-2.7	-2.2354	273.213	304.604	226.336	289.354	453.673	184.846	131.957	449.238	146.347	153.058	417.852	288.239	126.878	428.847	205.273	394.891	0.0005527	0.0016945	0.00020019	570.44	5.9347e-06	2.5201e-06	708.07	197.11	2.9663e-06	1.727e-06	302.07	137.99	83.237	36.974	8.4163e-06	66.055	0.0012319	0.0011583	0.0003022	768.31	1.3615e-05	1.2576e-05	765.2	225.5	1.3734e-05	1.2619e-05	377.84	148.22	96.826	40.829	1.18e-05	69.981	219.802	153.493	200.586	119.448	211.957	307.562	119.320	124.255	310.916	112.228	123.127	127.483	128.660	132.333	245.633	130.661	-8191	255	
7552.099	1	1	0	0	0.067921	0.05021	0.25298	0.12893	0.26921	0.080933	0.23628	0.1202	0.10746	0.10467	0.1844	0.066149	0.26249	0.22709	0.10643	0.13889	-2.0229	-2.4375	-2.1396	-2.5854	-2.3208	-2.2917	-2.7771	-2.3312	-2.2854	-2.8333	-2.2646	-2.4125	-2.3729	-2.0333	-2.4479	-2.3833	293.850	111.117	117.104	109.956	327.467	446.282	432.922	246.920	295.409	184.047	359.314	426.352	466.090	424.126	289.903	347.167	0.00069768	0.0010031	0.00021583	578.97	4.7402e-06	4.0002e-06	712.5	198.37	7.0924e-06	7.7035e-06	302.65	138.28	83.469	37.463	1.2878e-05	66.518	0.0012576	0.0011677	0.00030592	805.99	1.3977e-05	1.2901e-05	771.67	232.43	1.3993e-05	1.3005e-05	383.12	150.59	97.638	41.451	1.2515e-05	71.339	225.212	292.744	150.028	119.312	449.209	301.909	118.744	124.691	411.762	370.588	123.385	127.182	128.724	132.223	210.199	130.723	-8191	255	
7552.195	1	1	0	0	0.1438	0.33647	0.068577	0.14865	0.098982	0.16494	0.18061	0.14418	0.091642	0.069796	0.060923	0.33146	0.080796	0.30699	0.14458	0.064165	-2.0333	-2.5708	-2.2479	-2.5667	-2.4938	-2.2708	-2.7562	-2.3833	-2.4104	-2.6583	-2.4437	-2.7167	-2.7271	-2.1396	-2.6146	-2.4583	364.784	436.448	112.924	253.252	158.255	377.283	432.630	117.705	169.886	441.434	420.061	428.755	444.088	179.175	183.983	440.139	0.00051532	0.00055707	0.00051654	578.5	1.5612e-06	6.5913e-06	699.32	192.46	4.2187e-06	5.45e-06	294.07	134.33	81.329	37.529	1.841e-05	66.339	0.0012797	0.0012027	0.00033166	837.14	1.4236e-05	1.3196e-05	767.11	231.91	1.4086e-05	1.3038e-05	386.22	149.12	95.758	41.489	1.3851e-05	71.679	224.116	248.598	165.132	119.740	281.721	434.789	118.841	124.762	293.514	313.076	123.362	127.441	128.426	131.706	189.005	130.501	-8191	255	
7552.292	1	1	0	0	0.1204	0.10499	0.33723	0.20111	0.11676	0.16624	0.34476	0.22868	0.28096	0.16331	0.17513	0.24889	0.21506	0.22453	0.051643	0.028616	-2.0375	-2.6458	-2.1854	-2.3979	-2.4458	-2.1875	-2.6271	-2.5625	-2.0417	-2.7062	-2.2979	-2.4333	-2.6708	-2.3458	-2.6625	-2.6063	311.726	342.075	409.137	459.444	136.455	154.926	435.111	318.003	305.460	228.552	169.852	378.324	423.014	126.262	159.219	295.281	0.00047585	0.0007218	0.00034128	564.29	3.2376e-06	8.2282e-06	692.23	189.64	3.7681e-06	5.6155e-06	294.38	133.88	80.827	37.196	3.0887e-06	64.911	0.0012914	0.0012108	0.00036862	851.35	1.4351e-05	1.3464e-05	775.08	231.55	1.4545e-05	1.3432e-05	401.24	148.94	95.517	41.313	1.532e-05	70.64	226.004	228.561	171.864	119.303	268.767	313.598	119.110	124.879	124.200	194.844	122.464	126.865	128.355	132.026	137.464	130.491	-8191	255	
7552.386	1	1	0	0	0.060925	0.17831	0.11041	0.15059	0.14361	0.12013	0.068883	0.24643	0.30533	0.060783	0.11667	0.16941	0.23466	0.29367	0.071069	0.066543	-1.8708	-2.6937	-2.3229	-2.3396	-2.6125	-2.1979	-2.8063	-2.6417	-1.8687	-2.6479	-2.4542	-2.5229	-2.5771	-2.1937	-2.4854	-2.6104	189.044	176.810	317.910	393.516	364.531	391.364	442.514	464.804	114.714	428.942	176.579	124.661	123.781	448.402	302.747	429.628	0.0005094	0.00086519	0.00035895	573.54	3.6404e-06	5.8322e-06	685.56	189.01	7.6516e-06	1.5693e-05	284.42	134.19	82.103	37.298	1.1765e-05	64.976	0.0012861	0.0012202	0.00039495	842.14	1.4031e-05	1.35e-05	777.83	227.4	1.3817e-05	1.3342e-05	401.33	147.35	94.983	41.253	1.5366e-05	69.886	229.366	168.346	177.753	119.837	323.565	276.160	119.047	124.516	431.341	219.475	122.725	127.381	128.363	131.936	292.360	130.458	-8191	255	
7552.507	1	1	0	0	0.22124	0.26684	0.17586	0.12076	0.071292	0.19189	0.16802	0.17683	0.087927	0.12279	0.20197	0.10889	0.46276	0.11356	0.29245	0.093311	-1.7729	-2.6771	-2.5	-2.3125	-2.5542	-2.2458	-2.6229	-2.5729	-2.2042	-2.6604	-2.4354	-2.3146	-2.725	-2.1875	-2.6125	-2.7792	352.548	272.844	382.417	114.761	448.161	107.418	177.019	460.958	334.489	173.882	183.625	299.154	152.778	369.304	224.170	358.705	0.00050693	0.00070144	9.6549e-05	567.71	4.1805e-06	7.5341e-06	698.33	194.45	9.9328e-06	4.3649e-06	295.63	137.95	84.575	38.208	1.1302e-05	66.955	0.0012076	0.0012309	0.00039032	819.74	1.308e-05	1.3797e-05	785.21	229.26	1.3129e-05	1.4009e-05	406.27	149.78	96.356	42.487	1.503e-05	71.092	226.588	179.773	245.192	119.905	195.716	193.951	119.232	124.655	292.825	291.168	123.395	126.988	128.357	132.159	362.620	130.472	-8191	255	
7552.603	1	1	0	0	0.21802	0.086098	0.12265	0.091353	0.11571	0.15547	0.19102	0.083951	0.034018	0.048913	0.20831	0.11866	0.048218	0.15523	0.12644	0.012439	-1.7062	-2.5792	-2.3604	-2.1167	-2.775	-2.2729	-2.2625	-2.7896	-2.2146	-2.6063	-2.3833	-2.5292	-2.6188	-2.35	-2.2896	-2.6021	292.842	153.728	332.472	386.258	269.443	381.322	272.801	435.275	110.970	435.858	305.573	117.437	413.811	308.379	180.682	229.413	0.0005656	0.0017088	0.00010374	571.63	1.0765e-05	7.3538e-06	692.31	192.4	2.7683e-06	1.3788e-05	291.91	135.92	82.688	37.679	1.0471e-05	65.964	0.0011692	0.0013098	0.00037826	810.6	1.2741e-05	1.4552e-05	778.35	227.04	1.2798e-05	1.4694e-05	398.25	147.57	94.671	42.384	1.4424e-05	69.981	228.337	142.554	106.981	119.468	277.110	183.887	118.858	124.604	287.860	193.822	123.422	127.297	128.591	132.027	354.593	130.537	-8191	255	
7552.674	1	1	0	0	0.22929	0.24852	0.32711	0.16161	0.1069	0.11373	0.19912	0.16586	0.10506	0.16746	0.12724	0.16203	0.28058	0.066723	0.01637	0.40866	-1.8417	-2.3979	-2.4	-2.2375	-2.6542	-2.4458	-2.4146	-2.7687	-2.2083	-2.5812	-2.6667	-2.2062	-2.6604	-2.4875	-2.3	-2.7604	321.517	141.395	119.177	328.464	252.519	181.227	443.135	422.678	382.307	412.357	130.040	128.190	123.731	461.151	303.066	430.165	0.00063382	0.00096	0.0004338	562.24	1.1567e-05	6.445e-06	689.3	190.28	8.5915e-06	3.0236e-06	292.33	135.95	82.751	37.756	3.8511e-06	66.471	0.0011796	0.001365	0.00036069	790.55	1.2969e-05	1.4891e-05	765.76	222.32	1.3137e-05	1.4816e-05	388.95	146.84	95.013	42.338	1.3522e-05	69.928	211.516	163.732	241.715	119.157	226.655	293.326	119.160	124.665	239.443	186.009	123.014	126.888	128.235	132.059	224.242	130.367	-8191	255	
7552.771	1	1	0	0	0.21966	0.11204	0.14821	0.10283	0.31318	0.27293	0.24416	0.12843	0.10524	0.31086	0.28588	0.060777	0.22947	0.11754	0.18762	0.1422	-1.8146	-2.4292	-2.5417	-2.2417	-2.6375	-2.4042	-2.2	-2.6354	-2.1958	-2.4125	-2.6729	-2.2292	-2.6208	-2.5187	-2.15	-2.8333	191.130	336.448	216.215	369.865	178.580	204.409	450.644	115.674	329.373	465.226	155.914	433.218	446.820	458.681	283.179	301.510	0.00070144	0.00091753	0.00027732	565.88	1.6079e-05	6.0026e-06	683.91	190.31	2.1759e-05	9.1809e-06	293.77	136.93	82.806	37.163	2.8894e-06	65.686	0.0012167	0.0013425	0.00034083	774.19	1.3557e-05	1.453e-05	759.19	219.86	1.3811e-05	1.4318e-05	382.7	145.66	95.982	41.639	1.304e-05	68.944	223.512	225.986	148.968	119.288	194.334	462.608	119.019	124.584	254.228	171.959	123.216	127.229	128.269	132.071	149.823	130.347	-8191	255	
7552.891	1	1	0	0	0.2389	0.27764	0.27822	0.17718	0.21034	0.17402	0.26253	0.11611	0.24502	0.27899	0.056614	0.26642	0.13852	0.10564	0.039087	0.19232	-1.8854	-2.3438	-2.425	-2.225	-2.5625	-2.5375	-2.3292	-2.8521	-2.3604	-2.4313	-2.6896	-2.4229	-2.5896	-2.6042	-2.2333	-2.8812	271.903	191.350	121.983	375.407	373.747	289.942	452.032	118.005	402.979	189.335	231.698	373.195	368.502	369.759	461.422	404.474	0.0005683	0.00029482	0.00034312	566.71	1.3449e-05	8.4827e-06	689.78	191.6	2.7552e-06	9.784e-06	295.38	137.11	83.12	38.146	4.5145e-06	67.079	0.0012655	0.0012682	0.00032335	767.99	1.3982e-05	1.3674e-05	756.8	220.81	1.4218e-05	1.3572e-05	377.67	146.79	97.329	42.095	1.2626e-05	70.42	227.131	359.058	278.997	118.822	188.964	381.781	119.016	124.755	275.271	336.682	123.094	127.109	127.928	131.966	371.843	130.171	-8191	255	
7552.987	1	1	0	0	0.24506	0.23279	0.16764	0.21932	0.13071	0.24123	0.10437	0.26674	0.21447	0.14985	0.2142	0.18826	0.20791	0.15035	0.068518	0.29868	-2.0438	-2.4188	-2.625	-2.2479	-2.4646	-2.8937	-2.2229	-2.5604	-2.4979	-2.1312	-2.7083	-2.3312	-2.5708	-2.6521	-2.3271	-2.6167	336.302	277.721	192.308	411.170	273.037	145.482	339.817	361.918	401.498	402.101	436.627	305.648	133.890	234.319	230.310	373.609	0.00084048	0.00042788	0.00013484	575.21	6.2707e-06	9.3735e-06	690.46	191.96	8.6389e-06	6.0495e-06	295.48	137.07	82.223	38.279	6.9371e-06	67.203	0.0013082	0.0012475	0.00031802	791.27	1.4576e-05	1.3465e-05	755.38	224.08	1.4543e-05	1.3406e-05	373.91	147.82	96.976	42.07	1.2276e-05	71.132	222.781	333.213	318.214	119.540	381.477	336.948	119.085	124.692	307.160	302.593	123.085	127.428	128.711	131.727	145.433	130.592	-8191	255	
#DATA ENDS
