BOXY.EXE: ISS Imagent and Oximeter Data Acquisition Program Version 0.80
Ascii Record File

#ACQ INFORMATION
2  Detector Channels 
16  External MUX Channels 
1  Auxiliary Channels 
5000  Waveform (CCF) Frequency (Hz)
1  Waveforms Skipped 
30  Waveforms Averaged 
1  Cycles Averaged 
16  Acquisitions per Waveform 
10.0806  Updata Rate (Hz) 

#FILE INFORMATION
TRUE -- External MUX Channel results are PARSED.
FALSE -- AC DC and Phase are NOT grouped.
TRUE -- Companion Program Settings File CREATED.
FALSE -- AC data not excluded
FALSE -- DC data not excluded
FALSE -- Phase data not excluded
FALSE -- Auxillary Chn. data not excluded
Tab delimiters

#CALIBRATION STATE
TRUE -- Waveform Calibration Values APPLIED.


#AUX CALIBRATION VALUES
Val Type	aux-1	

Term	1.0000e+00	
Factor	0.0000e+00	


#WF CALIBRATION VALUES
A = Detector Channel
Val Type	A-AC1	A-AC2	A-AC3	A-AC4	A-AC5	A-AC6	A-AC7	A-AC8	A-AC9	A-AC10	A-AC11	A-AC12	A-AC13	A-AC14	A-AC15	A-AC16	A-DC1	A-DC2	A-DC3	A-DC4	A-DC5	A-DC6	A-DC7	A-DC8	A-DC9	A-DC10	A-DC11	A-DC12	A-DC13	A-DC14	A-DC15	A-DC16	A-Ph1	A-Ph2	A-Ph3	A-Ph4	A-Ph5	A-Ph6	A-Ph7	A-Ph8	A-Ph9	A-Ph10	A-Ph11	A-Ph12	A-Ph13	A-Ph14	A-Ph15	A-Ph16	

Term	0.00000e+00	0.00000e+00	0.00000e+00	0.00000e+00	0.00000e+00	0.00000e+00	0.00000e+00	0.00000e+00	0.00000e+00	0.00000e+00	0.00000e+00	0.00000e+00	0.00000e+00	0.00000e+00	0.00000e+00	0.00000e+00	0.00000e+00	0.00000e+00	0.00000e+00	0.00000e+00	0.00000e+00	0.00000e+00	0.00000e+00	0.00000e+00	0.00000e+00	0.00000e+00	0.00000e+00	0.00000e+00	0.00000e+00	0.00000e+00	0.00000e+00	0.00000e+00	0.00000e+00	0.00000e+00	0.00000e+00	0.00000e+00	0.00000e+00	0.00000e+00	0.00000e+00	0.00000e+00	0.00000e+00	0.00000e+00	0.00000e+00	0.00000e+00	0.00000e+00	0.00000e+00	0.00000e+00	0.00000e+00	
Factor	1.00000e+00	1.00000e+00	1.00000e+00	1.00000e+00	1.00000e+00	1.00000e+00	1.00000e+00	1.00000e+00	1.00000e+00	1.00000e+00	1.00000e+00	1.00000e+00	1.00000e+00	1.00000e+00	1.00000e+00	1.00000e+00	1.00000e+00	1.00000e+00	1.00000e+00	1.00000e+00	1.00000e+00	1.00000e+00	1.00000e+00	1.00000e+00	1.00000e+00	1.00000e+00	1.00000e+00	1.00000e+00	1.00000e+00	1.00000e+00	1.00000e+00	1.00000e+00	X	X	X	X	X	X	X	X	X	X	X	X	X	X	X	X	

B = Detector Channel
Val Type	B-AC1	B-AC2	B-AC3	B-AC4	B-AC5	B-AC6	B-AC7	B-AC8	B-AC9	B-AC10	B-AC11	B-AC12	B-AC13	B-AC14	B-AC15	B-AC16	B-DC1	B-DC2	B-DC3	B-DC4	B-DC5	B-DC6	B-DC7	B-DC8	B-DC9	B-DC10	B-DC11	B-DC12	B-DC13	B-DC14	B-DC15	B-DC16	B-Ph1	B-Ph2	B-Ph3	B-Ph4	B-Ph5	B-Ph6	B-Ph7	B-Ph8	B-Ph9	B-Ph10	B-Ph11	B-Ph12	B-Ph13	B-Ph14	B-Ph15	B-Ph16	

Term	0.00000e+00	0.00000e+00	0.00000e+00	0.00000e+00	0.00000e+00	0.00000e+00	0.00000e+00	0.00000e+00	0.00000e+00	0.00000e+00	0.00000e+00	0.00000e+00	0.00000e+00	0.00000e+00	0.00000e+00	0.00000e+00	0.00000e+00	0.00000e+00	0.00000e+00	0.00000e+00	0.00000e+00	0.00000e+00	0.00000e+00	0.00000e+00	0.00000e+00	0.00000e+00	0.00000e+00	0.00000e+00	0.00000e+00	0.00000e+00	0.00000e+00	0.00000e+00	-8.95078e+00	-1.28313e+02	-1.59213e+02	-1.83430e+02	-6.27312e+01	-7.13637e+01	-1.58223e+02	-1.62015e+02	-5.99673e+01	-9.13236e+01	-1.73512e+02	-1.71486e+02	-1.82993e+02	-1.77391e+02	-9.45175e+01	-1.50029e+02	
Factor	3.31521e-05	1.02412e-04	2.51838e-05	1.74125e-01	9.41655e-07	7.87002e-07	1.67823e-01	5.34825e-02	9.62964e-07	9.16794e-07	9.32518e-02	3.26786e-02	3.77044e-02	9.61610e-03	1.01061e-06	1.39087e-02	4.73983e-07	4.79203e-07	1.33295e-07	8.43310e-02	5.25646e-09	5.25144e-09	7.68524e-02	2.57750e-02	5.24916e-09	5.24987e-09	4.19250e-02	1.46082e-02	1.67917e-02	4.47682e-03	5.26103e-09	6.16901e-03	X	X	X	X	X	X	X	X	X	X	X	X	X	X	X	X	



#DISTANCE SETTINGS
A = Detector Channel
A-1	A-2	A-3	A-4	A-5	A-6	A-7	A-8	A-9	A-10	A-11	A-12	A-13	A-14	A-15	A-16	

2.5000e+00	3.0000e+00	2.5000e+00	3.0000e+00	2.0000e+00	3.0000e+00	1.5000e+00	3.0000e+00	3.0000e+00	3.0000e+00	3.0000e+00	3.0000e+00	3.0000e+00	3.0000e+00	1.5000e+00	3.0000e+00	

B = Detector Channel
B-1	B-2	B-3	B-4	B-5	B-6	B-7	B-8	B-9	B-10	B-11	B-12	B-13	B-14	B-15	B-16	

1.0000e+01	1.0000e+01	1.0000e+01	1.4400e+00	1.0000e+01	1.0000e+01	1.5100e+00	1.9400e+00	1.0000e+01	1.0000e+01	1.9900e+00	2.4900e+00	2.4100e+00	2.9000e+00	1.0000e+01	2.9800e+00	




#DATA BEGINS
time	group	step	mark	flag	A-AC1	A-AC2	A-AC3	A-AC4	A-AC5	A-AC6	A-AC7	A-AC8	A-AC9	A-AC10	A-AC11	A-AC12	A-AC13	A-AC14	A-AC15	A-AC16	A-DC1	A-DC2	A-DC3	A-DC4	A-DC5	A-DC6	A-DC7	A-DC8	A-DC9	A-DC10	A-DC11	A-DC12	A-DC13	A-DC14	A-DC15	A-DC16	A-Ph1	A-Ph2	A-Ph3	A-Ph4	A-Ph5	A-Ph6	A-Ph7	A-Ph8	A-Ph9	A-Ph10	A-Ph11	A-Ph12	A-Ph13	A-Ph14	A-Ph15	A-Ph16	B-AC1	B-AC2	B-AC3	B-AC4	B-AC5	B-AC6	B-AC7	B-AC8	B-AC9	B-AC10	B-AC11	B-AC12	B-AC13	B-AC14	B-AC15	B-AC16	B-DC1	B-DC2	B-DC3	B-DC4	B-DC5	B-DC6	B-DC7	B-DC8	B-DC9	B-DC10	B-DC11	B-DC12	B-DC13	B-DC14	B-DC15	B-DC16	B-Ph1	B-Ph2	B-Ph3	B-Ph4	B-Ph5	B-Ph6	B-Ph7	B-Ph8	B-Ph9	B-Ph10	B-Ph11	B-Ph12	B-Ph13	B-Ph14	B-Ph15	B-Ph16	aux-1	digaux	

1476.097	1	1	0	512	0.10503	0.37521	0.054063	0.15355	0.039925	0.061055	0.11571	0.37963	0.26463	0.36699	0.19044	0.16681	0.10792	0.38278	0.053878	0.28983	-0.72083	-0.33542	-1.0208	-0.92708	-0.35208	-1.2792	-0.7375	-0.74583	-1.3208	-0.34375	-0.99583	-1.1	-0.42917	-1.1	-0.67292	-0.55625	304.554	186.613	435.300	389.646	237.686	134.771	399.091	400.579	361.449	185.295	278.647	228.145	444.467	136.672	208.865	145.720	0.00056332	0.00086232	0.00028186	1311	9.6645e-06	4.3422e-06	917.01	368.08	1.6001e-05	9.4922e-06	248.1	68.777	104.82	29.006	1.8553e-05	19.243	0.0011605	0.0011708	0.00032739	1406	1.283e-05	1.2829e-05	1026	396.68	1.2858e-05	1.2834e-05	319.26	95.266	128.71	36.376	1.2929e-05	31.785	318.047	290.436	125.252	128.111	309.137	118.112	126.350	133.142	301.906	236.610	130.302	135.756	138.465	142.897	167.702	139.746	-8191	255	
1476.193	1	1	0	0	0.20119	0.11471	0.13605	0.33934	0.13553	0.1283	0.14975	0.19249	0.171	0.060284	0.3708	0.098297	0.16745	0.25217	0.29433	0.2131	-0.74167	-0.71042	-0.95833	-1.2875	-0.16458	-1.1333	-0.74375	-0.725	-1.2333	-0.20833	-0.96875	-1.1542	-0.42292	-0.98542	-0.96667	-0.59375	436.099	139.968	297.440	454.587	329.703	228.030	188.049	454.416	227.799	158.953	200.861	179.438	366.962	253.076	360.845	433.352	0.00040377	0.00058563	0.00016546	1312.3	9.956e-06	1.0198e-05	913.1	369.01	6.779e-06	1.276e-05	248.18	68.392	105.4	28.844	1.1271e-05	19.237	0.0011666	0.0011764	0.00032718	1404.9	1.2872e-05	1.2867e-05	1026.3	397.91	1.2837e-05	1.2912e-05	319.15	95.109	129.04	36.326	1.2926e-05	31.678	253.841	226.309	129.515	128.053	318.210	254.659	126.421	133.004	196.592	261.337	130.636	135.546	138.129	142.808	158.439	138.839	-8191	255	
1476.289	1	1	0	0	0.11014	0.13248	0.22216	0.17415	0.26342	0.11206	0.087572	0.29734	0.12862	0.17954	0.18328	0.25025	0.10742	0.062267	0.13577	0.13528	-0.6875	-0.43542	-0.78542	-1.4146	-0.26667	-0.88333	-0.96042	-0.74792	-1.3729	-0.55625	-0.8125	-1.1771	-0.51458	-1.1521	-0.8625	-0.42708	188.935	152.301	291.627	431.134	152.224	158.666	456.353	454.706	316.957	202.584	184.677	448.472	418.469	408.033	294.172	335.590	0.00069692	0.0012432	0.00022036	1308.2	6.0303e-06	5.859e-06	908.76	367.1	9.3044e-06	1.4403e-05	246.91	68.894	105.98	29.014	4.77e-06	19.041	0.001167	0.0011791	0.00032885	1402.8	1.2867e-05	1.2858e-05	1022.4	396.68	1.2864e-05	1.2886e-05	318.02	95.027	129.17	36.44	1.2979e-05	31.659	299.941	440.288	141.370	128.277	371.912	291.056	126.410	133.235	385.794	256.661	130.458	135.509	138.593	143.106	254.024	139.240	-8191	255	
1476.385	1	1	0	0	0.043688	0.27135	0.20984	0.23242	0.077836	0.23207	0.12609	0.17061	0.16065	0.13233	0.37811	0.12585	0.22557	0.045131	0.064799	0.17916	-0.68958	-0.78125	-0.6125	-1.3563	-0.30417	-0.88958	-1.0896	-0.52083	-1.2021	-0.76458	-0.76875	-1.3646	-0.6125	-1.0167	-1.2083	-0.49167	117.133	122.239	342.665	410.362	388.721	291.154	410.483	120.404	338.807	192.987	420.885	354.406	172.742	127.882	121.727	226.660	0.00054824	0.00032911	9.4295e-05	1306.3	1.0094e-05	6.441e-06	910.26	367	7.0572e-06	1.6102e-05	243.66	68.725	104.95	28.79	8.0184e-06	19.295	0.0011714	0.0011807	0.00032944	1401	1.3e-05	1.2983e-05	1020	396.34	1.2949e-05	1.2954e-05	317.26	95.299	129	36.419	1.3026e-05	31.742	318.261	223.307	431.619	128.037	239.609	463.248	126.583	133.552	241.763	376.489	130.337	135.639	138.137	143.470	128.007	139.219	-8191	255	
1476.481	1	1	0	0	0.28966	0.11848	0.23872	0.13559	0.28867	0.1484	0.11875	0.11697	0.17011	0.19372	0.54081	0.10577	0.21008	0.46185	0.13154	0.038418	-0.80208	-0.66667	-0.57708	-1.45	-0.59167	-0.68958	-1.0604	-0.56875	-1.0833	-0.85625	-0.55417	-1.3042	-0.66042	-0.64792	-1.2208	-0.425	202.911	237.361	210.743	195.203	316.669	446.891	330.248	122.031	463.866	457.697	439.939	333.826	472.150	212.052	133.726	462.704	0.00071848	8.6962e-06	0.00034523	1299.8	5.6816e-06	3.5396e-06	907.25	366.36	1.4439e-06	9.6327e-06	247.29	69.27	105.87	28.701	6.5431e-06	19.355	0.0011795	0.0011897	0.00033109	1399.4	1.3048e-05	1.304e-05	1021.1	396.68	1.3016e-05	1.301e-05	319.62	95.821	129.59	36.495	1.3079e-05	31.922	305.283	263.674	342.717	128.194	371.726	315.536	126.488	133.127	470.872	387.699	130.130	135.293	138.576	143.390	285.371	138.330	-8191	255	
1476.577	1	1	0	0	0.14319	0.26712	0.12484	0.076732	0.21028	0.019638	0.32465	0.15136	0.16022	0.16316	0.13543	0.059098	0.11819	0.27319	0.039804	0.017627	-0.44792	-0.7375	-0.625	-1.3687	-0.49167	-0.92083	-1.3375	-0.51667	-1.1271	-0.96667	-0.41875	-1.3479	-0.54583	-0.71875	-1.3396	-0.48542	425.459	145.191	361.260	308.378	148.004	124.971	423.294	152.458	399.781	473.093	401.589	195.087	213.325	170.489	277.087	252.227	0.00040946	0.00034014	0.00029297	1310.9	3.7998e-06	8.4262e-06	913.88	367.73	1.283e-05	7.0785e-06	247.12	69.484	106.18	29.008	1.1415e-05	19.541	0.0011782	0.0011936	0.00033053	1405.2	1.3007e-05	1.3021e-05	1025.2	397.8	1.3056e-05	1.2966e-05	320.11	96.067	129.87	36.714	1.3028e-05	32.015	282.331	380.949	436.225	128.506	397.746	141.896	126.646	133.172	207.226	259.171	130.600	135.386	138.667	143.611	295.586	138.700	-8191	255	
1476.698	1	1	0	0	0.35602	0.13773	0.24612	0.054407	0.14124	0.34026	0.45873	0.11754	0.13206	0.1779	0.13686	0.23942	0.071891	0.18008	0.084167	0.18983	-0.45208	-0.825	-0.32917	-1.3979	-0.6375	-0.62292	-1.4271	-0.57083	-1.0896	-1.0771	-0.34583	-1.0938	-0.58125	-0.39375	-1.2521	-0.40833	366.574	467.059	170.202	258.808	279.326	271.301	395.448	456.394	168.582	454.241	268.753	464.223	321.351	290.593	349.591	310.664	0.00062926	0.0005533	7.4233e-05	1312.3	6.0628e-06	2.5777e-06	916.15	369.75	1.1453e-05	3.088e-06	247.56	69.173	105.48	29.289	8.8953e-06	19.179	0.0011824	0.0011869	0.00033166	1409.6	1.3051e-05	1.3005e-05	1028.2	398.94	1.3028e-05	1.2976e-05	320.75	95.932	129.84	36.714	1.2995e-05	31.929	282.985	259.157	351.715	128.215	269.445	419.754	126.420	133.310	259.023	297.799	129.942	135.994	138.274	143.380	139.312	138.315	-8191	255	
1476.792	1	1	0	0	0.14265	0.21726	0.15347	0.11479	0.068249	0.3022	0.32891	0.19187	0.13028	0.15351	0.18425	0.39003	0.20147	0.22446	0.18561	0.12148	-0.3125	-1.0063	-0.4625	-1.1375	-0.58333	-0.45625	-1.4813	-0.74583	-0.69792	-0.97708	-0.5	-1.2062	-0.87292	-0.51042	-1.3062	-0.60625	170.523	446.451	416.148	373.496	417.608	315.760	422.954	364.262	382.369	308.139	168.430	290.689	147.236	119.666	442.734	455.593	0.00061522	0.00028205	0.00021266	1316.6	2.5085e-06	5.2528e-06	914.23	369.17	2.6161e-06	5.8117e-06	248.75	69.302	105.31	29.202	1.3114e-05	19.609	0.0011733	0.0011852	0.00032949	1412.1	1.2942e-05	1.2928e-05	1027	399.08	1.2953e-05	1.2893e-05	320.3	95.914	129.81	36.746	1.3004e-05	31.933	276.253	251.008	186.891	128.288	288.685	185.383	126.578	133.272	325.055	373.329	130.131	134.911	138.262	142.764	154.485	139.139	-8191	255	
1476.889	1	1	0	0	0.18799	0.2644	0.29094	0.60036	0.16515	0.096477	0.1202	0.20566	0.14469	0.19879	0.14212	0.17952	0.055278	0.19692	0.094589	0.061696	-0.23125	-1.1292	-0.3	-0.975	-0.91875	-0.38542	-1.3146	-0.79167	-0.55	-1.2708	-0.52708	-0.84583	-1.0271	-0.50208	-1.0917	-0.50625	463.911	277.260	365.547	468.208	253.773	222.732	391.686	320.736	283.832	327.772	245.490	288.489	463.778	411.299	242.616	353.783	0.00045886	0.0012583	5.2171e-05	1316.8	6.1524e-06	9.2744e-06	921.36	370.7	1.0158e-05	1.0108e-05	248.84	69.607	106.21	29.129	4.2624e-06	19.519	0.0011767	0.0011854	0.00032902	1412	1.2904e-05	1.2975e-05	1029	399.73	1.2933e-05	1.2919e-05	320.75	95.924	129.64	36.724	1.3032e-05	32.036	316.397	470.345	401.335	128.382	239.536	206.100	126.564	133.144	245.164	126.461	130.410	135.837	138.394	143.257	220.009	138.840	-8191	255	
1476.962	1	1	0	0	0.16402	0.085652	0.089462	0.27441	0.17939	0.038701	0.24348	0.14567	0.11717	0.056001	0.23097	0.26268	0.090002	0.29996	0.25985	0.2463	-0.18333	-1.3479	-0.37292	-1.0542	-0.95625	-0.10625	-1.3625	-0.69792	-0.57083	-1.1292	-0.4375	-0.76875	-1.1979	-0.40417	-1.3062	-0.82708	308.856	265.750	364.229	115.402	396.223	331.963	121.807	150.692	355.675	163.610	471.187	415.127	469.289	450.684	143.753	170.805	0.0002294	0.0009207	0.00021872	1320.5	9.5668e-06	7.9084e-06	919.56	371.55	1.4242e-05	2.0834e-06	250.79	70.045	107.41	29.595	4.0973e-06	19.666	0.0011754	0.0011835	0.00032998	1416.3	1.2948e-05	1.2973e-05	1033.6	401.31	1.2935e-05	1.2987e-05	322.61	96.636	130.73	36.938	1.309e-05	32.27	299.446	383.109	121.269	128.158	229.841	384.540	126.644	132.996	263.070	327.048	130.207	135.755	138.362	143.270	301.191	138.726	-8191	255	
1477.058	1	1	0	0	0.030552	0.2063	0.21663	0.088261	0.11663	0.25879	0.16176	0.22359	0.19976	0.020907	0.16153	0.082927	0.2883	0.22672	0.17979	0.32163	-0.1125	-1.3521	-0.54583	-0.87708	-1.2521	-0.26875	-1.1354	-1.2188	-0.4875	-1.3646	-0.475	-0.5875	-1.2125	-0.5875	-1.0229	-0.9875	335.337	265.880	275.766	122.533	185.278	118.597	437.673	448.391	307.076	331.412	348.126	391.166	434.641	394.912	323.880	410.028	0.00056463	0.0015154	0.0001377	1323.9	1.7398e-05	3.8665e-06	926.4	373.91	5.0525e-06	5.141e-06	250.58	69.709	107.19	29.483	8.0129e-06	19.962	0.0011815	0.0011935	0.00033209	1420.2	1.3066e-05	1.3073e-05	1039	402.69	1.303e-05	1.3083e-05	323.76	97.025	130.91	37.065	1.313e-05	32.284	344.133	260.392	443.202	128.242	308.641	443.928	126.494	132.784	442.303	336.495	129.946	135.338	138.107	142.965	400.712	138.733	-8191	255	
1477.177	1	1	0	0	0.069573	0.15794	0.11779	0.094947	0.009419	0.38212	0.29084	0.25012	0.16841	0.18665	0.25978	0.30571	0.10205	0.09487	0.20429	0.27475	-0.027083	-1.2271	-0.53125	-0.68958	-1.3854	-0.48542	-1.1083	-1.0958	-0.28125	-1.1792	-0.84583	-0.67917	-1.1625	-0.30833	-1.1208	-1.1396	399.840	166.584	375.973	184.170	265.595	392.191	455.100	458.715	120.387	360.210	152.680	193.908	423.909	388.365	277.465	300.775	0.00021937	0.00063344	0.00014217	1320.2	6.0155e-06	1.018e-05	920.42	370.9	1.0276e-05	1.0015e-05	250.31	69.661	107.51	29.508	7.7915e-06	19.401	0.0011884	0.0011944	0.00033221	1416.4	1.3016e-05	1.3047e-05	1034	401.71	1.3072e-05	1.3072e-05	321.88	96.569	130.84	36.988	1.3095e-05	32.066	273.259	364.241	306.362	128.554	165.617	218.143	126.507	132.924	416.431	251.285	129.913	135.524	138.229	142.916	170.709	138.692	-8191	255	
1477.273	1	1	0	0	0.17676	0.12147	0.20681	0.25609	0.073833	0.21897	0.23349	0.099242	0.083009	0.32884	0.22541	0.19017	0.20644	0.023926	0.23458	0.19283	0.095833	-1.1146	-0.7125	-0.59583	-1.2812	-0.35	-0.87292	-1.1521	-0.25417	-0.99167	-0.825	-0.33333	-1.2083	-0.50417	-0.59375	-1.1521	332.070	324.315	257.943	356.819	312.278	417.034	248.285	473.221	130.258	208.539	383.310	159.272	434.439	292.820	418.977	159.592	0.00032819	0.00085993	7.2848e-05	1315.3	5.0591e-06	8.4461e-06	911.73	371.21	9.0852e-06	1.0384e-05	250.11	69.706	106.92	29.464	2.677e-06	19.46	0.0011841	0.001189	0.00033157	1414.5	1.3012e-05	1.3104e-05	1030.6	400.92	1.3096e-05	1.3075e-05	321.25	96.402	130.71	36.992	1.3061e-05	31.949	314.949	451.450	387.853	128.000	203.857	296.397	126.484	133.060	219.949	306.607	130.411	135.121	138.508	142.929	170.001	138.789	-8191	255	
1477.369	1	1	0	0	0.071816	0.091512	0.21034	0.17154	0.09647	0.065517	0.11499	0.15093	0.17647	0.16457	0.10822	0.15948	0.031449	0.058371	0.043929	0.14808	0.0083333	-1.175	-0.76042	-0.69375	-0.97292	-0.6375	-0.54375	-1.3375	-0.43125	-1.025	-0.94583	-0.25417	-1.3625	-0.61458	-0.65208	-1.1938	407.462	421.534	363.120	448.942	451.426	163.654	281.947	381.136	351.836	395.231	406.127	200.834	309.696	374.407	263.035	133.641	0.00021506	0.0012174	8.796e-05	1310.1	3.6869e-06	7.7725e-06	915.14	370.74	7.6706e-06	1.1936e-05	248.71	69.814	107.15	29.382	8.1769e-06	19.404	0.0011807	0.0011899	0.00033088	1409.8	1.3049e-05	1.3058e-05	1029.6	400.19	1.3025e-05	1.3015e-05	321.34	96.521	130.8	36.937	1.3032e-05	32.138	374.039	158.668	367.696	128.283	446.494	186.620	126.291	132.942	250.022	230.686	129.958	135.353	138.402	143.195	303.137	139.089	-8191	255	
1477.490	1	1	0	0	0.12047	0.21144	0.22568	0.34231	0.13185	0.080667	0.3123	0.21929	0.1152	0.057365	0.33338	0.1135	0.10443	0.13882	0.19277	0.085484	-0.0625	-0.77708	-1.0896	-0.73542	-1.2167	-0.8625	-0.66667	-1.325	-0.40208	-0.79167	-1.1542	-0.37917	-1.1167	-0.85208	-0.65	-1.3354	269.630	410.513	127.438	452.150	465.663	248.239	423.896	461.583	426.679	248.281	120.727	197.735	402.735	151.453	348.236	195.069	0.00014485	0.00047189	0.00025591	1313.5	7.8322e-06	5.9064e-06	912.87	372.02	3.0611e-06	3.7968e-06	250.8	70.168	107.44	29.679	9.009e-06	19.319	0.0011825	0.0011961	0.00033074	1411.8	1.308e-05	1.3044e-05	1031.7	401.51	1.3072e-05	1.3103e-05	323.71	97.114	131.92	37.188	1.3127e-05	32.327	366.589	337.735	295.802	128.182	152.605	285.743	126.653	132.867	450.801	129.412	130.622	135.556	138.258	143.130	360.503	138.834	-8191	255	
1477.562	1	1	0	0	0.084065	0.13457	0.1681	0.32199	0.32546	0.15662	0.27866	0.09539	0.18531	0.14353	0.070513	0.44767	0.14719	0.21833	0.28624	0.062816	-0.12292	-0.77292	-0.97083	-0.6	-1.0625	-0.98958	-0.31875	-1.2563	-0.41458	-0.7	-1.0646	-0.46667	-1.2625	-0.88542	-0.48125	-1.2146	277.306	289.529	235.494	118.596	180.026	432.179	305.383	363.758	354.065	375.656	358.381	461.715	440.611	197.788	402.632	411.425	0.00067435	0.00031323	0.00014058	1315.9	7.3948e-06	1.1709e-05	920.52	372.8	2.2282e-06	1.2319e-05	250.81	70.751	107	29.38	1.398e-05	19.552	0.0011927	0.0012005	0.00033191	1414.8	1.3148e-05	1.3098e-05	1035.9	402.43	1.3098e-05	1.308e-05	324.04	97.483	131.6	37.194	1.3128e-05	32.419	293.949	137.773	232.622	128.145	129.573	296.869	126.705	133.082	223.451	358.366	130.422	135.212	137.994	143.118	222.049	138.526	-8191	255	
1477.658	1	1	0	0	0.35525	0.33647	0.24174	0.096032	0.33076	0.14496	0.38243	0.20911	0.17317	0.1499	0.34185	0.064637	0.33521	0.26425	0.33689	0.11709	-0.077083	-0.57292	-1.1292	-0.51667	-1.0688	-0.91042	-0.44583	-1.425	-0.66458	-0.575	-1.3917	-0.33958	-0.91667	-1.1729	-0.325	-1.1646	123.885	121.301	178.449	383.997	322.801	215.403	388.058	430.033	184.422	221.731	473.312	435.327	139.598	431.043	439.754	251.175	0.00044828	0.0013527	0.00024595	1315.9	4.1057e-06	3.7504e-06	919.15	370.99	2.1544e-06	2.1057e-06	249.73	70.276	107.25	29.598	1.6236e-05	19.56	0.0011828	0.0011953	0.00033319	1416.8	1.3095e-05	1.3052e-05	1034.2	402.39	1.3064e-05	1.3079e-05	322.68	97.063	131.33	37.134	1.3099e-05	32.24	267.785	406.113	230.329	128.061	325.035	389.694	126.404	133.054	287.882	156.319	130.294	135.797	138.322	143.324	208.588	138.471	-8191	255	
1477.778	1	1	0	0	0.17596	0.23761	0.109	0.18415	0.14018	0.13106	0.15864	0.28248	0.24603	0.11407	0.34973	0.22606	0.034672	0.11467	0.18656	0.26621	-0.48958	-0.38333	-1.1417	-0.42292	-0.84583	-1.1479	-0.59583	-1.3583	-0.61667	-0.54583	-1.3125	-0.575	-0.85625	-1.1417	-0.52917	-1.0458	461.584	417.464	205.453	131.712	454.188	413.021	440.772	139.711	412.037	454.050	317.906	142.881	317.514	184.325	182.889	156.773	0.00043837	0.0012443	5.9097e-05	1315.4	1.3487e-05	4.7819e-06	911.95	372.58	8.6631e-06	4.1657e-06	249.63	70.24	107.23	29.765	1.0754e-05	19.719	0.0011824	0.0011954	0.00033245	1414.1	1.3087e-05	1.3007e-05	1030.9	401.9	1.3007e-05	1.3045e-05	322.67	96.848	131.25	37.032	1.3108e-05	32.156	321.313	215.822	425.071	128.291	349.631	134.668	126.576	133.110	137.253	349.597	130.725	135.661	138.578	143.344	298.122	139.751	-8191	255	
1477.873	1	1	0	0	0.32226	0.097417	0.10995	0.11344	0.19319	0.078672	0.31769	0.38372	0.16043	0.027212	0.17822	0.35886	0.16473	0.20181	0.24134	0.18044	-0.44375	-0.30833	-1.3042	-0.64375	-0.7625	-1.1437	-0.6125	-1.1979	-0.99167	-0.26458	-1.2958	-0.575	-0.75	-1.3333	-0.28333	-1.1708	216.514	146.908	254.955	401.954	215.191	215.773	420.158	411.597	337.671	206.926	388.268	272.588	266.905	253.736	210.181	207.012	0.00047916	0.0011632	0.00011677	1309.3	2.1123e-06	6.6643e-06	920.45	373.33	7.7114e-07	6.4091e-06	249.23	69.531	107.54	29.51	1.0153e-05	19.763	0.0011843	0.001194	0.00033179	1410.5	1.3115e-05	1.3067e-05	1032.3	402.27	1.3035e-05	1.3079e-05	322.75	96.974	131.45	37.1	1.3126e-05	32.341	317.835	253.582	396.411	128.254	469.693	362.035	126.598	133.165	182.775	239.782	130.650	135.508	138.367	143.329	150.557	139.232	-8191	255	
1477.971	1	1	0	0	0.16437	0.10917	0.080299	0.2031	0.13961	0.21075	0.16369	0.045677	0.33092	0.2259	0.17944	0.2057	0.17267	0.14343	0.18202	0.036455	-0.625	-0.41875	-1.1833	-0.64167	-0.75	-1.4333	-0.675	-1.0438	-1.0271	-0.26667	-1.3792	-0.59792	-0.6125	-1.2979	-0.34167	-0.82917	225.555	195.703	243.701	456.632	438.175	174.732	402.988	389.249	354.306	473.996	426.989	425.522	407.514	448.593	131.397	403.235	0.00030647	0.00083108	0.00025213	1316.7	5.0718e-06	5.1314e-06	921.51	370.97	6.4432e-06	1.0848e-05	250.69	70.7	107.52	29.682	5.5633e-06	19.451	0.0011857	0.0011962	0.00033407	1411.6	1.3152e-05	1.3135e-05	1033.1	401.87	1.3142e-05	1.3198e-05	324.03	97.384	131.37	37.286	1.3183e-05	32.379	236.383	176.893	115.538	128.238	286.504	254.371	126.888	133.355	234.663	217.260	130.438	135.728	138.738	143.559	221.187	139.260	-8191	255	
1478.090	1	1	0	0	0.071773	0.14378	0.27593	0.24104	0.21331	0.11328	0.44257	0.14626	0.28072	0.14828	0.079461	0.098965	0.15561	0.24772	0.13162	0.018438	-0.77292	-0.34792	-1.2333	-0.92292	-0.60417	-1.375	-0.67083	-0.96667	-1.1875	-0.51667	-1.0187	-0.8375	-0.30625	-1.3563	-0.42917	-0.76667	214.280	359.391	218.658	135.357	144.085	288.832	367.184	356.822	117.108	369.193	183.936	469.246	134.839	118.708	246.173	307.260	0.0008276	0.00035894	0.00017359	1316.4	6.8861e-06	1.0074e-05	913.26	372.48	1.1934e-05	7.0903e-06	249.42	69.708	107	29.587	5.6818e-06	19.632	0.0011933	0.0012021	0.00033539	1412.3	1.3109e-05	1.3197e-05	1032.9	402.25	1.3078e-05	1.3155e-05	323.29	97.347	131.62	37.267	1.3156e-05	32.394	324.603	383.964	184.045	128.196	314.023	370.356	126.599	133.118	159.443	275.400	130.525	135.720	138.428	143.341	298.363	139.018	-8191	255	
1478.186	1	1	0	0	0.066764	0.081663	0.068026	0.20082	0.15472	0.069486	0.45932	0.40667	0.056349	0.25271	0.23224	0.19331	0.20857	0.22368	0.082247	0.13325	-0.82917	-0.35208	-0.975	-1.0896	-0.3625	-1.2458	-0.70833	-0.81667	-1.1292	-0.59375	-1.1042	-0.9125	-0.425	-1.2812	-0.4625	-0.92083	298.743	155.638	454.975	449.323	118.321	369.833	400.061	438.177	146.564	147.545	229.546	367.218	438.010	438.737	232.738	348.144	5.8642e-05	0.001797	0.00014437	1316.7	6.3718e-06	2.207e-06	913.96	370.23	6.8237e-06	4.1027e-06	248.39	69.369	107.45	29.188	8.1561e-06	19.401	0.0011928	0.00121	0.00033536	1415.4	1.318e-05	1.3134e-05	1031.1	401.26	1.3164e-05	1.321e-05	321.82	96.655	131.16	37.039	1.32e-05	32.098	167.097	221.508	437.813	128.512	206.732	251.641	126.472	133.402	451.349	195.205	130.192	136.019	138.714	143.340	248.853	139.291	-8191	255	
1478.257	1	1	0	0	0.23933	0.12461	0.26095	0.084708	0.095461	0.20023	0.2151	0.17133	0.20832	0.38502	0.075648	0.21372	0.034309	0.31799	0.2176	0.29616	-0.825	-0.38542	-1.025	-1.2854	-0.525	-1.2646	-0.91667	-0.44167	-1.3833	-0.56875	-0.96458	-0.95417	-0.3875	-1.2375	-0.90208	-0.63542	384.104	162.616	235.574	422.145	145.466	169.315	453.067	338.636	184.568	415.081	242.806	276.693	433.765	268.414	194.421	115.786	0.00028371	0.00050407	0.00032523	1309.1	8.3473e-06	7.9379e-06	909.63	370.23	1.104e-05	6.3535e-06	246.64	69.172	106.79	29.541	6.8604e-06	19.431	0.0011958	0.0012092	0.00033518	1408.3	1.3205e-05	1.3146e-05	1025.2	400.22	1.3134e-05	1.3186e-05	320.61	96.604	130.85	37.119	1.316e-05	32.053	311.793	380.929	429.648	128.193	275.769	202.998	126.906	133.312	209.801	278.579	130.232	135.431	138.573	143.245	403.834	139.592	-8191	255	
1478.354	1	1	0	0	0.19773	0.17934	0.093012	0.44469	0.094406	0.22299	0.083175	0.041494	0.10819	0.20824	0.29877	0.28717	0.1909	0.020978	0.18842	0.23456	-0.87708	-0.5375	-0.69167	-1.2625	-0.3375	-1.1979	-0.94583	-0.48125	-1.2375	-0.62083	-0.79167	-1.2792	-0.27083	-0.93125	-0.83333	-0.50833	293.949	130.220	269.940	147.921	266.064	407.478	266.185	142.278	339.562	464.438	441.245	410.622	394.294	182.695	458.806	115.814	0.00024221	0.00067288	0.00033039	1304.2	6.9891e-06	1.206e-05	907.22	367.89	7.6357e-06	6.4106e-06	249.86	69.369	106.36	29.342	3.5693e-06	19.872	0.001188	0.0012003	0.00033377	1404.8	1.3187e-05	1.3188e-05	1023.4	399.61	1.3152e-05	1.3223e-05	321.79	96.713	130.97	37.086	1.3225e-05	32.337	271.083	290.201	122.100	128.330	322.730	243.370	126.663	133.465	203.836	146.316	130.465	135.567	138.866	143.347	176.874	139.765	-8191	255	
1478.474	1	1	0	0	0.18456	0.19491	0.13107	0.12556	0.08854	0.019529	0.13815	0.54593	0.12138	0.41642	0.12351	0.13104	0.3595	0.29885	0.20046	0.26784	-0.78542	-0.67083	-0.62083	-1.3438	-0.52292	-1.0812	-1.1042	-0.45417	-1.2062	-0.71042	-0.54167	-1.1875	-0.4125	-0.92292	-1.1146	-0.31042	429.704	192.238	390.395	423.946	470.623	416.725	400.139	436.999	361.737	210.048	339.695	187.190	411.871	207.024	377.430	381.809	0.00063242	0.0010357	0.00026929	1311.2	4.545e-06	7.9475e-06	911.63	369.61	4.6333e-06	7.3696e-06	247.48	69.584	106.57	29.516	1.2259e-05	19.706	0.001199	0.0012047	0.00033479	1408.3	1.3204e-05	1.3205e-05	1027.8	400.81	1.3175e-05	1.3189e-05	322.49	97.015	130.98	37.158	1.3198e-05	32.435	316.910	187.270	180.869	128.124	173.796	303.176	126.688	133.195	419.562	383.679	130.902	135.650	138.282	143.591	154.903	138.949	-8191	255	
1478.570	1	1	0	0	0.3621	0.28129	0.057397	0.12367	0.080305	0.2092	0.17496	0.17011	0.19983	0.10219	0.0152	0.32856	0.23015	0.49815	0.12977	0.14449	-0.88125	-0.68333	-0.50208	-1.4396	-0.42083	-0.875	-1.125	-0.65	-1.0708	-0.8125	-0.5	-1.3896	-0.55417	-0.91667	-1.0646	-0.44167	160.138	368.393	170.915	464.091	295.502	381.097	412.743	416.537	138.425	260.571	326.353	448.272	393.933	459.191	129.783	163.324	0.00081228	0.00068933	0.00035529	1308.2	7.0409e-06	2.1634e-06	910.77	370.69	1.3214e-05	1.3027e-05	248.06	69.258	106.41	29.227	9.6234e-06	19.446	0.0012001	0.0012053	0.00033652	1408.9	1.3263e-05	1.3211e-05	1027.4	400.54	1.3173e-05	1.3166e-05	322.44	96.84	130.9	37.095	1.3245e-05	32.226	267.000	150.270	461.650	128.245	422.540	367.875	127.006	133.377	198.802	452.240	130.750	135.921	138.705	143.631	165.544	139.301	-8191	255	
1478.666	1	1	0	0	0.19438	0.25314	0.18369	0.048602	0.043624	0.060693	0.26156	0.44436	0.18456	0.068099	0.093897	0.23024	0.14571	0.046139	0.14115	0.073936	-0.70417	-0.76458	-0.55	-1.5208	-0.47292	-0.95625	-1.2833	-0.48542	-0.9625	-0.96042	-0.47083	-1.2646	-0.74375	-0.86042	-1.2875	-0.47083	187.674	125.865	133.498	410.346	409.274	285.889	296.247	465.608	320.088	232.822	230.780	198.483	396.569	387.095	167.743	375.648	0.00011403	0.00015363	3.7604e-05	1304.7	7.2725e-06	6.0676e-06	901.32	368.33	5.8047e-06	3.203e-06	246.29	69.053	105.93	29.379	9.4584e-06	19.091	0.0012016	0.0012061	0.00033763	1406.4	1.3272e-05	1.3276e-05	1021.6	399.37	1.318e-05	1.3161e-05	320.17	96.451	130.63	37	1.3218e-05	32.048	464.495	379.542	449.310	128.653	234.238	399.523	126.704	133.622	263.833	458.577	130.976	136.090	138.617	143.527	188.063	138.950	-8191	255	
1478.763	1	1	0	0	0.27061	0.30495	0.16629	0.17014	0.37624	0.057107	0.1436	0.14342	0.14869	0.23829	0.065263	0.20445	0.017701	0.05367	0.081824	0.1719	-0.87708	-0.71458	-0.32083	-1.7292	-0.56875	-0.68542	-1.5875	-0.50417	-0.86458	-1.175	-0.48125	-1.3833	-0.75208	-0.75	-1.3104	-0.52083	214.854	225.332	186.162	394.108	171.136	158.056	188.452	467.277	450.592	253.871	447.695	388.630	229.238	328.859	313.459	336.887	0.00060618	0.0014247	0.0001849	1303.6	7.0166e-06	5.451e-06	907.62	368.34	8.5096e-06	8.443e-06	245.8	69.013	105.96	29.127	5.5032e-06	18.954	0.0011921	0.0012008	0.00033434	1402.7	1.3132e-05	1.3166e-05	1021.7	398.01	1.3117e-05	1.3147e-05	320.24	96.19	130.51	36.931	1.3158e-05	31.978	266.510	316.031	136.904	128.640	388.062	453.187	126.873	133.347	216.665	125.941	130.574	136.064	138.697	143.402	192.596	139.583	-8191	255	
1478.859	1	1	0	0	0.36848	0.19415	0.13282	0.242	0.20844	0.029706	0.11098	0.26818	0.079687	0.17021	0.034476	0.21296	0.05597	0.43068	0.13052	0.24008	-0.42083	-1.1208	-0.29167	-1.3958	-0.7375	-0.45	-1.2771	-0.6625	-0.87917	-1.0875	-0.52292	-1.3354	-1.0167	-0.49792	-1.3604	-0.67292	350.256	125.414	250.288	436.649	419.668	290.659	182.287	364.011	119.304	155.886	241.861	142.243	265.878	366.990	440.505	140.114	0.00059136	0.0011016	0.00028461	1299.3	1.0985e-05	5.2528e-06	906.34	367.23	1.6447e-05	1.0463e-05	246.33	69.534	105.78	29.289	8.5461e-06	19.4	0.0011936	0.0011996	0.00033495	1399.9	1.3143e-05	1.3211e-05	1021.6	398.67	1.3181e-05	1.3184e-05	320.22	96.352	130.48	37.071	1.3207e-05	32.184	299.529	350.801	161.637	128.614	214.351	311.589	126.866	133.519	288.738	182.566	130.810	136.204	138.889	143.735	290.707	139.334	-8191	255	
1478.955	1	1	0	0	0.064748	0.33359	0.15416	0.17997	0.1734	0.062052	0.082808	0.23141	0.14462	0.089325	0.29975	0.45797	0.018777	0.25947	0.14521	0.23049	-0.48125	-1.2583	-0.32292	-1.2292	-0.75833	-0.43542	-1.3937	-0.6625	-0.73958	-1.3667	-0.44792	-1.0417	-1.0646	-0.45625	-1.2188	-0.73125	421.621	326.589	190.484	161.339	472.422	320.984	440.922	279.781	440.887	221.933	327.642	435.802	169.828	337.744	472.360	215.416	0.00029244	0.00043316	0.00015371	1305.4	1.2046e-05	1.5847e-06	901.52	367.74	4.7866e-06	8.995e-06	246.81	69.421	107.35	29.408	3.3773e-06	19.622	0.0011915	0.001202	0.00033581	1404.4	1.3136e-05	1.3159e-05	1021.7	398.74	1.3168e-05	1.3195e-05	321.15	96.652	130.58	37.028	1.3175e-05	32.252	324.892	280.053	371.868	128.511	246.098	135.969	126.763	133.349	434.962	437.343	130.990	135.866	138.833	143.472	370.623	139.755	-8191	255	
1479.051	1	1	0	0	0.060645	0.1293	0.25873	0.26384	0.016627	0.46976	0.23782	0.27017	0.16423	0.13699	0.17171	0.09598	0.41244	0.25216	0.42285	0.10838	-0.275	-1.4062	-0.36667	-1.0896	-1.1042	-0.3125	-1.3854	-0.90208	-0.56667	-1.1521	-0.67292	-0.90208	-1	-0.60417	-1.2458	-0.88333	275.060	248.339	254.038	447.657	460.606	150.143	396.337	437.513	425.759	399.421	119.299	169.743	151.032	287.031	303.373	403.961	0.00046168	0.00065792	0.00021227	1307.4	9.2823e-06	4.8999e-06	914.57	370.07	2.8689e-06	2.5142e-06	247.97	70.021	107.09	29.106	1.4697e-05	19.345	0.0011944	0.0011994	0.00033534	1406.6	1.3132e-05	1.3163e-05	1027	399.48	1.3111e-05	1.3129e-05	321.54	96.701	130.89	36.938	1.3172e-05	32.059	319.677	421.696	322.108	128.670	155.493	143.305	127.199	133.573	413.654	426.860	130.446	135.958	138.743	143.627	139.202	139.274	-8191	255	
1479.170	1	1	0	0	0.12018	0.20741	0.082713	0.22244	0.098593	0.17923	0.22802	0.25504	0.09943	0.19391	0.13111	0.19794	0.14713	0.11113	0.24975	0.15306	-0.23125	-1.1542	-0.37083	-0.88333	-1.25	-0.31042	-1.1042	-1.0146	-0.52917	-1.2083	-0.67917	-0.85417	-1.1771	-0.56042	-1.1542	-1.075	367.795	298.225	393.376	369.659	474.617	389.459	181.567	425.707	272.757	165.053	152.906	156.852	365.856	458.594	314.221	146.861	0.00029297	0.0010101	0.00014711	1309.9	5.1898e-06	1.0479e-06	903.68	369.68	1.2559e-05	5.2329e-06	247.77	69.394	105.63	28.974	1.1401e-05	19.164	0.0011888	0.0012012	0.00033375	1406.9	1.3152e-05	1.3123e-05	1020.2	399.25	1.3104e-05	1.3099e-05	320.21	96.139	130.35	36.832	1.3077e-05	31.794	313.570	293.603	188.325	128.418	458.530	401.021	126.758	133.358	386.257	358.093	130.475	135.588	138.726	143.310	335.566	139.775	-8191	255	
1479.266	1	1	0	0	0.25625	0.093847	0.09396	0.069354	0.20219	0.22082	0.39341	0.44471	0.23821	0.030999	0.24171	0.23712	0.15837	0.27976	0.21644	0.063197	-0.075	-1.3229	-0.67292	-0.79167	-1.1458	-0.36875	-1.1917	-1.075	-0.52292	-1.2479	-0.66042	-0.61875	-1.3146	-0.475	-1.0021	-1.1313	412.349	303.175	139.779	410.842	289.849	230.873	115.746	444.238	152.532	312.551	180.917	202.067	254.616	180.942	281.013	250.697	8.4825e-05	0.00047207	0.00021887	1302.6	8.5615e-06	5.7485e-06	905.52	367.4	2.1154e-06	7.5054e-06	246.04	69.004	105.75	29.272	1.0385e-05	19.255	0.001183	0.0011929	0.00033175	1403.1	1.303e-05	1.304e-05	1022.4	398.33	1.3021e-05	1.2998e-05	318.53	96.098	130.25	36.788	1.31e-05	31.891	282.784	385.216	273.397	128.545	232.390	382.767	126.810	133.510	265.259	130.891	130.442	135.685	138.215	143.311	207.478	139.836	-8191	255	
1479.362	1	1	0	0	0.10151	0.22522	0.18393	0.41881	0.10642	0.13761	0.2052	0.14177	0.11708	0.13236	0.37541	0.17425	0.33665	0.25522	0.26542	0.36688	0.06875	-1.0792	-0.59583	-0.7125	-1.1979	-0.46667	-0.95	-1.4833	-0.59792	-1.225	-0.76042	-0.59375	-1.3375	-0.57292	-0.70417	-1.2375	387.836	305.559	249.849	119.848	345.976	243.410	412.573	144.761	178.620	434.845	115.734	186.257	176.639	271.095	213.477	338.823	0.00051314	0.0012382	0.00013515	1307.5	6.603e-06	6.7102e-06	906.85	369.68	7.4195e-06	5.1063e-06	246.65	69.851	105.44	29.157	6.7141e-06	19.557	0.0011887	0.0011947	0.0003319	1406.5	1.308e-05	1.3071e-05	1025.4	399.76	1.3044e-05	1.3101e-05	321.22	96.473	130.35	36.81	1.3075e-05	32.052	334.825	232.383	178.834	128.202	324.097	273.980	126.777	133.266	215.266	330.409	130.623	135.429	139.006	143.686	196.115	139.363	-8191	255	
1479.458	1	1	0	0	0.091241	0.16485	0.067865	0.031658	0.23081	0.15704	0.1917	0.24674	0.21591	0.044991	0.24402	0.2638	0.13063	0.33607	0.26256	0.20806	-0.060417	-1.2021	-0.7	-0.475	-1.2667	-0.46667	-0.8	-1.2375	-0.25833	-0.94583	-0.84375	-0.70625	-1.3312	-0.51667	-0.56458	-1.1667	184.269	249.939	267.107	288.133	126.440	147.191	119.645	388.189	428.142	186.541	360.504	292.805	156.852	223.420	298.496	457.564	0.0003631	0.00068543	0.00024794	1316.5	4.4687e-06	9.5915e-06	912.81	371.48	3.6762e-06	9.1232e-06	247.63	69.602	106.33	29.262	5.0498e-06	19.437	0.0011892	0.0011984	0.00033284	1412.7	1.3111e-05	1.3091e-05	1029.8	401.22	1.3108e-05	1.3136e-05	322.28	96.925	130.85	36.965	1.3203e-05	32.208	305.702	164.467	431.666	128.526	314.571	307.011	126.756	133.308	173.991	291.900	130.299	136.223	138.971	143.298	147.697	139.584	-8191	255	
1479.553	1	1	0	0	0.23375	0.20942	0.070754	0.21154	0.12669	0.029347	0.34411	0.14001	0.21032	0.009081	0.14254	0.051796	0.12375	0.2768	0.032625	0.05718	0.12708	-1.0104	-0.85	-0.57708	-1.0771	-0.60417	-0.6375	-1.2479	-0.43958	-1.05	-0.88958	-0.44792	-1.1729	-0.79375	-0.61667	-1.2583	230.257	230.641	157.437	458.058	236.454	461.732	359.109	462.828	230.293	439.630	470.812	185.292	161.467	124.410	472.016	271.204	0.00079833	0.00074562	0.00019313	1308.6	7.4159e-06	5.5836e-06	912.81	372	1.2119e-05	9.6782e-06	247.87	68.956	106.91	29.524	1.4883e-06	19.342	0.001192	0.0012051	0.00033513	1410.3	1.3171e-05	1.3149e-05	1029	401.3	1.318e-05	1.3238e-05	322.71	96.648	130.79	37.052	1.3239e-05	31.976	313.320	124.124	268.045	128.499	342.363	302.435	127.109	133.281	175.447	205.464	130.446	136.508	138.994	143.482	157.482	139.670	-8191	255	
1479.649	1	1	0	0	0.16058	0.15903	0.51413	0.45261	0.14132	0.083274	0.21592	0.41421	0.084966	0.086634	0.14143	0.14522	0.14422	0.15065	0.16587	0.2737	-0.12917	-0.75417	-1.0583	-0.62083	-1.1833	-0.84792	-0.8375	-1.3646	-0.64167	-0.73542	-1.2604	-0.4	-1.0583	-0.90625	-0.33542	-1.3646	386.053	301.617	415.771	120.323	258.362	151.122	122.133	416.154	153.396	116.911	124.075	460.150	120.818	174.992	235.322	459.985	0.00057254	0.0016147	0.00011915	1308.3	6.0767e-06	7.9831e-06	911.76	371.32	3.0804e-06	7.821e-06	245.77	69.534	105.99	29.125	7.3789e-06	18.946	0.0011898	0.0012012	0.00033434	1407	1.3153e-05	1.3136e-05	1025.2	400.49	1.3128e-05	1.3173e-05	320.52	96.269	130.7	36.867	1.3273e-05	31.997	288.376	157.447	204.544	128.423	327.475	165.547	126.678	133.367	237.878	252.128	130.366	135.162	139.027	143.089	262.517	139.533	-8191	255	
1479.770	1	1	0	0	0.19462	0.15355	0.23694	0.14757	0.11966	0.079195	0.24877	0.26051	0.14213	0.25143	0.092644	0.27632	0.018781	0.13636	0.22274	0.17194	-0.12083	-0.62917	-1.1562	-0.63958	-1.0521	-0.92917	-0.64792	-1.3312	-0.58333	-0.77917	-1.2917	-0.40417	-1.0479	-1.0396	-0.5375	-1.3563	135.408	304.830	341.565	427.829	150.357	464.317	446.117	370.574	388.482	316.913	208.520	468.344	424.209	274.298	448.945	375.430	0.0003888	0.0015245	5.3965e-05	1302.3	6.1428e-06	6.603e-06	905.52	369.39	5.3171e-06	4.3011e-06	244.31	69.075	105.92	29.302	1.5637e-05	19.441	0.0011994	0.0012124	0.00033524	1403.4	1.3206e-05	1.3242e-05	1021.3	398.74	1.319e-05	1.3199e-05	320.2	96.149	130.71	36.95	1.3286e-05	32.151	313.907	118.669	129.616	128.457	229.307	312.816	126.808	133.472	281.478	177.179	130.696	135.812	139.009	143.563	194.086	140.017	-8191	255	
1479.866	1	1	0	0	0.33449	0.047584	0.094515	0.2909	0.40854	0.28041	0.2286	0.19807	0.049851	0.096791	0.11832	0.36274	0.19703	0.2877	0.098331	0.026349	-0.29167	-0.69375	-1.325	-0.62292	-1.1292	-1.0063	-0.59583	-1.3646	-0.90417	-0.59167	-1.4021	-0.42083	-1.0729	-1.2083	-0.35208	-1.0104	125.928	147.282	136.490	460.793	298.809	232.955	369.186	413.282	276.353	203.664	318.325	151.523	161.820	167.671	418.145	177.285	0.0005671	0.0015806	9.4713e-05	1300.2	1.1195e-06	1.8044e-06	897.13	368.43	2.0376e-06	3.2742e-06	244.72	68.96	105.65	29.424	1.4692e-05	19.253	0.0011967	0.0012119	0.00033563	1400.2	1.3233e-05	1.328e-05	1018.7	398.88	1.3239e-05	1.3304e-05	319.62	96.356	130.9	37.078	1.3297e-05	32.09	255.713	332.074	465.051	128.479	193.599	355.932	126.828	133.490	118.787	446.527	130.108	135.253	138.702	142.902	131.365	139.117	-8191	255	
1479.962	1	1	0	0	0.076204	0.17188	0.14916	0.22841	0.17728	0.15953	0.35079	0.20634	0.32512	0.015795	0.23327	0.018401	0.093208	0.082976	0.27466	0.12751	-0.53958	-0.50417	-1.0167	-0.7125	-0.7625	-1.1479	-0.47917	-1.2354	-0.77083	-0.51667	-1.2854	-0.43125	-0.85833	-1.1958	-0.47083	-1.0083	352.524	236.707	324.738	450.282	320.710	343.371	432.498	361.490	252.412	159.960	196.534	436.558	472.800	398.984	426.546	127.727	0.00023078	0.0012015	0.00030447	1299.1	1.2487e-05	7.171e-06	901.74	368.87	9.8571e-06	2.2389e-06	247.06	68.886	106.73	29.296	8.927e-06	19.325	0.0012021	0.001217	0.00033827	1401.3	1.3356e-05	1.3327e-05	1020.5	399.52	1.3251e-05	1.334e-05	321.34	96.707	131.44	37.077	1.328e-05	32.241	343.170	328.404	187.818	127.941	239.695	469.003	126.450	132.890	273.224	441.001	130.397	135.566	138.219	142.952	122.187	139.329	-8191	255	
1480.058	1	1	0	0	0.034429	0.1114	0.19297	0.26745	0.22349	0.18931	0.40901	0.1411	0.15177	0.067897	0.14143	0.053903	0.037538	0.31059	0.084002	0.17506	-0.66458	-0.46875	-1.2375	-0.86042	-0.7875	-1.1521	-0.61875	-1.2375	-0.875	-0.43333	-1.2104	-0.6	-0.71667	-1.1646	-0.45625	-1.1167	376.685	324.889	361.100	418.960	280.216	355.815	387.480	117.200	403.696	117.467	416.774	133.700	377.578	365.397	401.772	429.426	0.00020028	0.0020229	0.00020216	1294.6	1.1802e-05	2.8957e-06	890.68	365.86	1.3575e-05	9.2118e-07	243.27	67.988	106.27	29.064	1.5145e-05	19.14	0.0012048	0.0012196	0.00033801	1396	1.3346e-05	1.3272e-05	1014.6	398.11	1.3262e-05	1.3279e-05	319.01	96.335	131.24	36.967	1.3334e-05	31.968	336.068	216.995	456.202	127.845	286.003	199.792	126.331	133.093	267.622	198.062	130.234	135.606	138.670	142.981	261.840	138.812	-8191	255	
1480.154	1	1	0	0	0.083406	0.18657	0.074211	0.14086	0.24654	0.065867	0.098689	0.32978	0.28984	0.17785	0.11374	0.35457	0.11022	0.17437	0.12651	0.2598	-0.67292	-0.37292	-1.1354	-0.70208	-0.66667	-1.2188	-0.4625	-1.1313	-1.0375	-0.17292	-1.1229	-0.69792	-0.58542	-1.2083	-0.27083	-0.83125	130.012	304.202	129.874	130.832	326.062	371.230	137.914	455.120	281.741	447.962	381.239	328.871	439.647	163.388	393.404	370.338	0.00091772	0.00085219	0.00028853	1289.4	7.5186e-06	6.6603e-06	884.16	365.6	2.6408e-06	1.5476e-05	240.27	68.365	105.51	29.205	9.148e-06	19.18	0.0012054	0.0012159	0.0003386	1392.6	1.3356e-05	1.3319e-05	1008.7	397.01	1.3278e-05	1.3347e-05	316.83	95.923	131.08	36.987	1.3419e-05	32.036	324.969	289.098	382.398	127.902	331.621	121.808	126.244	133.023	209.960	326.226	130.543	135.538	138.190	143.428	408.783	138.969	-8191	255	
1480.250	1	1	0	0	0.29632	0.049521	0.20352	0.28873	0.094991	0.27796	0.17126	0.23527	0.10243	0.21289	0.10382	0.35563	0.23328	0.14566	0.29206	0.068713	-0.70625	-0.22292	-0.86458	-1.0333	-0.44583	-1.3771	-0.71458	-0.73333	-1.1958	-0.57917	-1.1021	-0.9875	-0.5	-1.15	-0.55208	-0.67917	146.358	231.891	168.460	429.858	256.825	270.140	451.497	426.137	264.281	412.439	437.908	398.016	323.607	456.601	291.882	420.625	0.00064494	0.0014483	0.00022333	1277.2	5.5228e-06	2.1578e-06	887.8	364.11	5.2195e-06	1.2079e-05	241.27	68.069	105.13	29.048	7.8076e-06	18.831	0.0012152	0.0012228	0.00033978	1386.5	1.3411e-05	1.3427e-05	1006	395.47	1.339e-05	1.3404e-05	317.65	95.938	130.85	36.906	1.3379e-05	31.979	319.080	341.392	232.476	128.038	159.568	442.949	126.465	133.177	334.745	160.146	130.344	135.373	138.404	143.198	257.372	139.351	-8191	255	
1480.346	1	1	0	0	0.13801	0.27232	0.17493	0.37051	0.16086	0.15734	0.036599	0.17442	0.10419	0.25572	0.089632	0.24488	0.22251	0.086769	0.15688	0.1349	-0.56458	-0.44375	-0.85833	-1.075	-0.44583	-1.2083	-0.79375	-0.58542	-1.2625	-0.43125	-1.0312	-1.0583	-0.61458	-1.2458	-0.8375	-0.57917	437.264	258.771	197.740	457.100	387.989	346.729	431.767	311.970	254.932	233.629	422.551	397.556	162.879	377.937	368.695	443.092	0.00067221	0.00017384	0.00030815	1278.8	1.7897e-06	3.4518e-06	876.95	361.66	5.2829e-06	4.3334e-06	241.15	68.273	105.45	29.044	1.2434e-05	19.106	0.0012136	0.0012276	0.00034078	1382	1.3429e-05	1.3409e-05	1002.6	395.03	1.3419e-05	1.3424e-05	317.08	96.079	131.09	36.991	1.3445e-05	32.059	286.536	397.696	282.764	128.062	321.016	179.855	126.484	133.230	314.048	165.703	130.306	135.494	138.467	143.443	271.244	139.273	-8191	255	
1480.441	1	1	0	0	0.28209	0.035422	0.17444	0.21238	0.1772	0.17581	0.10038	0.061199	0.20751	0.27155	0.43386	0.20038	0.19029	0.11802	0.15553	0.17154	-0.78333	-0.46875	-0.7	-1.3312	-0.48125	-1.2854	-0.93125	-0.69167	-1.2812	-0.56667	-0.78958	-1.2104	-0.34167	-1.1875	-0.74167	-0.60833	187.163	416.593	424.601	430.646	455.057	332.982	431.202	310.470	221.821	160.815	418.591	452.779	351.899	421.287	219.295	346.942	0.00087116	0.00051504	0.0003476	1277.6	1.565e-05	1.4047e-05	879.8	363.4	1.587e-05	9.7557e-06	239.24	68.075	105.22	28.819	2.0651e-06	18.958	0.0012155	0.0012235	0.0003423	1380.9	1.337e-05	1.3357e-05	1000.4	394.8	1.3377e-05	1.3449e-05	316.68	96.12	130.65	36.868	1.3399e-05	31.98	342.285	252.366	469.420	128.231	295.153	262.325	126.741	133.274	155.863	283.644	130.455	135.603	138.682	143.220	276.868	139.006	-8191	255	
1480.562	1	1	0	0	0.15322	0.24104	0.29282	0.27981	0.095574	0.14042	0.24756	0.3265	0.12823	0.42003	0.31327	0.23159	0.031503	0.2837	0.29303	0.19443	-0.9125	-0.60625	-0.64792	-1.2104	-0.42083	-1.1042	-1.0896	-0.575	-1.0708	-0.64167	-0.64375	-1.2917	-0.21042	-0.85625	-0.92917	-0.33542	267.312	369.695	267.187	426.156	166.477	234.343	384.213	445.391	326.996	383.715	404.683	262.250	379.448	309.337	127.127	389.844	0.00043575	0.00025493	5.6626e-05	1269.4	1.3554e-05	2.0021e-06	873.35	359.71	8.7796e-06	5.3594e-06	236.75	66.889	104.6	28.785	3.2943e-06	18.484	0.0012118	0.0012238	0.00034133	1377.3	1.3392e-05	1.3409e-05	995.75	392.78	1.3365e-05	1.342e-05	314.58	95.346	130.32	36.71	1.3371e-05	31.707	253.368	144.618	414.836	128.004	216.093	132.987	126.617	133.372	393.968	247.372	130.697	135.466	138.770	143.353	149.280	139.412	-8191	255	
1480.658	1	1	0	0	0.36493	0.051562	0.19005	0.28216	0.030295	0.14943	0.31085	0.084385	0.18191	0.016279	0.25667	0.083349	0.21654	0.093439	0.1831	0.26923	-0.95833	-0.64167	-0.48958	-1.3896	-0.35208	-1.0167	-1.1583	-0.57083	-1.3188	-0.9	-0.59375	-1.2542	-0.52292	-1.1083	-1.0167	-0.49792	433.103	472.702	314.915	154.031	271.533	142.444	444.541	315.236	266.557	326.064	310.034	432.568	403.749	210.771	295.260	164.763	0.00038081	0.00054431	0.00015245	1259.1	5.3849e-06	1.3401e-05	865.91	358.53	9.7014e-06	4.4671e-06	236.33	66.882	104.09	28.765	1.7267e-05	18.82	0.0012116	0.0012198	0.00033884	1369.5	1.336e-05	1.3404e-05	989.18	390.95	1.3328e-05	1.3359e-05	312.88	95.148	129.8	36.673	1.3418e-05	31.715	320.945	407.216	424.163	128.167	223.161	261.581	126.682	133.261	281.518	218.327	130.506	135.449	138.534	143.392	334.388	138.905	-8191	255	
1480.729	1	1	0	0	0.20427	0.14604	0.33589	0.26623	0.30517	0.09367	0.30622	0.28284	0.2011	0.13882	0.16238	0.10998	0.065362	0.20692	0.15564	0.18867	-0.89583	-0.64792	-0.26667	-1.4688	-0.48333	-0.8625	-1.2417	-0.43542	-1.1708	-0.78958	-0.43542	-1.3104	-0.60833	-0.75208	-1.4438	-0.44375	366.580	124.981	457.577	453.481	456.668	458.486	115.744	460.954	474.357	176.045	444.504	119.500	143.929	141.792	399.541	470.650	0.00038301	0.001186	8.1519e-05	1257.8	1.0049e-05	8.401e-06	861.99	357.22	6.0742e-06	5.027e-06	237.93	66.495	104.42	28.812	1.3809e-05	18.571	0.0012122	0.001221	0.00034007	1363.7	1.336e-05	1.3406e-05	985.82	389.55	1.3348e-05	1.3348e-05	313.58	95.09	129.4	36.683	1.3393e-05	31.667	271.622	236.099	364.239	128.117	212.269	190.333	126.160	133.060	313.828	187.910	130.373	135.479	138.831	143.633	150.633	138.408	-8191	255	
1480.850	1	1	0	0	0.35678	0.18234	0.094717	0.3439	0.21748	0.26885	0.17787	0.068671	0.25855	0.16476	0.074714	0.34171	0.20195	0.21011	0.16345	0.14512	-0.79583	-0.92292	-0.31667	-1.2708	-0.39375	-0.81667	-1.1938	-0.55625	-1.0688	-1.0458	-0.54375	-1.2083	-0.58125	-0.6625	-1.1604	-0.53542	436.927	175.696	468.805	376.063	411.207	299.336	382.974	375.866	294.596	314.925	156.237	133.498	432.415	137.164	136.898	260.046	0.00057969	0.00029115	8.4653e-05	1256.3	9.456e-06	7.6483e-06	860.44	355.77	3.0249e-06	6.1745e-06	233.3	67.647	104.24	28.798	4.0247e-06	18.705	0.0012101	0.0012214	0.00034065	1362.7	1.3412e-05	1.3409e-05	986.25	389.55	1.3452e-05	1.3468e-05	313.31	95.603	130.09	36.8	1.3432e-05	31.861	313.039	235.345	178.338	128.380	187.141	193.735	126.956	133.103	239.234	140.599	130.570	135.379	138.334	143.771	306.023	139.995	-8191	255	
1480.946	1	1	0	0	0.15467	0.11338	0.16751	0.23564	0.27881	0.1866	0.13052	0.3237	0.075066	0.093336	0.039978	0.29811	0.17108	0.096399	0.084623	0.1818	-0.63958	-0.975	-0.3625	-1.2521	-0.74167	-0.59583	-1.2979	-0.70625	-0.84792	-1.0354	-0.36667	-1.3438	-0.96875	-0.72292	-1.2583	-0.68958	230.962	452.599	427.892	420.270	337.557	282.511	397.810	123.521	296.733	357.401	211.220	421.097	394.175	461.611	445.048	263.968	0.00017251	0.00017973	0.00035974	1252.3	2.8363e-06	8.03e-06	859.54	356.57	1.039e-05	3.0528e-06	236.52	67.745	103.79	28.725	6.429e-06	18.714	0.0012161	0.0012246	0.00034161	1362.4	1.3397e-05	1.3483e-05	986.03	389.3	1.3423e-05	1.3386e-05	313.36	95.529	129.96	36.753	1.3516e-05	31.797	394.390	429.621	418.769	128.534	169.259	353.212	126.643	133.089	218.077	419.049	130.186	134.933	138.359	143.406	351.272	139.155	-8191	255	
1481.042	1	1	0	0	0.081862	0.24373	0.34557	0.5482	0.07205	0.17173	0.17143	0.25621	0.11243	0.10972	0.3476	0.0094436	0.065614	0.17413	0.29181	0.21844	-0.475	-0.9875	-0.24167	-1.275	-0.99792	-0.57917	-1.2062	-0.8	-0.57083	-1.2396	-0.48125	-1.025	-0.76875	-0.56042	-1.2188	-0.60417	148.015	210.755	459.219	461.322	191.468	289.158	214.155	424.843	337.168	161.491	469.108	420.668	325.190	426.537	306.839	122.692	0.00036288	0.00044096	0.00036426	1251.7	6.9172e-06	7.261e-06	854.12	353.5	9.0476e-06	6.1324e-06	235.46	66.793	103.47	28.886	4.5301e-06	18.368	0.0012177	0.001224	0.00034109	1360.6	1.3343e-05	1.3341e-05	981.31	387.35	1.3352e-05	1.3319e-05	310.71	94.779	129.16	36.585	1.3272e-05	31.446	339.837	345.802	443.791	128.113	263.189	398.995	126.584	132.888	339.922	221.889	129.894	135.530	138.183	143.495	245.414	138.938	-8191	255	
1481.138	1	1	0	0	0.087497	0.1545	0.27066	0.41336	0.094711	0.0092721	0.072926	0.20527	0.13676	0.094442	0.16455	0.21133	0.10168	0.18312	0.2239	0.40398	-0.40625	-1.2292	-0.375	-1.0812	-0.88958	-0.32708	-1.3479	-0.88125	-0.5	-1.2271	-0.53333	-0.9625	-1.0667	-0.39167	-1.2792	-0.82917	311.034	378.345	356.319	390.892	131.070	242.547	145.047	415.910	123.554	207.558	416.824	361.446	388.194	378.929	305.169	416.668	0.00086527	0.00058296	0.00014653	1252	1.1444e-05	5.2996e-06	856.08	355.19	1.7014e-05	1.4363e-05	233.32	66.476	103.57	28.711	1.8532e-06	18.261	0.0012044	0.0012118	0.00033836	1358.9	1.3259e-05	1.3231e-05	982.33	387.71	1.3276e-05	1.3279e-05	309.99	94.231	128.4	36.368	1.3177e-05	31.302	271.126	211.987	168.633	128.259	303.193	146.383	126.817	133.199	245.354	298.305	130.023	135.608	138.625	143.330	158.228	139.058	-8191	255	
1481.259	1	1	0	0	0.035852	0.040212	0.10748	0.31642	0.17178	0.11286	0.26283	0.23587	0.43963	0.23811	0.30877	0.098939	0.022765	0.19813	0.33505	0.22624	-0.26875	-1.125	-0.45208	-1.0542	-0.98125	-0.57708	-1.2625	-0.95	-0.44583	-1.2563	-0.49792	-0.82708	-1.0458	-0.085417	-1.0521	-0.87708	426.579	346.876	129.650	447.406	216.115	158.674	272.743	417.461	129.929	168.479	388.734	161.026	447.280	204.972	323.408	457.918	0.00027912	0.0016247	0.00016868	1250.8	7.2e-06	5.5492e-06	863.69	355.73	4.6704e-06	5.2372e-06	236.56	66.749	103.29	28.675	4.1864e-06	18.484	0.0011951	0.0012038	0.00033397	1359.5	1.3154e-05	1.3162e-05	983.35	387.79	1.3116e-05	1.3131e-05	311.14	94.451	128.37	36.42	1.3186e-05	31.429	311.849	423.823	225.198	128.377	320.791	276.326	126.706	133.154	316.805	434.445	130.355	135.049	139.053	143.292	291.860	139.095	-8191	255	
1481.353	1	1	0	0	0.17913	0.13928	0.1273	0.27557	0.27763	0.096715	0.32967	0.11056	0.14574	0.24148	0.23462	0.23541	0.33219	0.13507	0.22801	0.033448	-0.20417	-1.3625	-0.55208	-0.73333	-1.3229	-0.35833	-1.3771	-0.97708	-0.35	-1.2333	-0.61667	-0.64375	-1.2062	-0.3375	-0.96042	-0.96875	385.744	353.838	464.274	422.455	218.218	280.937	397.880	410.136	165.613	227.559	433.943	192.245	446.578	459.798	252.918	442.146	0.00073867	0.00060268	0.00045296	1267.2	1.3904e-05	1.8329e-06	872.03	358.64	7.3086e-06	1.3706e-05	237.15	67.428	104.12	28.801	5.6159e-06	18.746	0.0011888	0.0011984	0.00033387	1368.3	1.3085e-05	1.3064e-05	990.35	389.64	1.3053e-05	1.3088e-05	311.89	94.735	128.4	36.376	1.3115e-05	31.447	295.542	175.704	415.734	128.484	239.844	424.692	126.690	132.928	259.706	238.996	130.500	135.862	139.025	143.185	235.533	139.142	-8191	255	
1481.451	1	1	0	0	0.17641	0.029642	0.15265	0.28649	0.26756	0.086764	0.080252	0.16142	0.043513	0.19256	0.17023	0.14607	0.31944	0.13899	0.27929	0.28171	0.21458	-1.1667	-0.49792	-0.70833	-1.1208	-0.41667	-0.97083	-1.2646	-0.59167	-1.2333	-0.93333	-0.65208	-1.0854	-0.28958	-0.73958	-1.0792	451.479	370.022	137.525	464.813	405.976	434.017	228.776	152.619	284.228	209.643	204.980	165.737	205.843	386.210	256.493	403.321	0.0003409	0.00055148	0.00023395	1272.3	8.2236e-06	9.7787e-06	880.3	359.67	1.5855e-05	6.1453e-06	238.74	67.349	104.41	28.806	1.0323e-05	18.515	0.0011843	0.0011947	0.00032981	1373.4	1.3071e-05	1.3049e-05	995.97	390.56	1.303e-05	1.3071e-05	312.69	94.668	128.75	36.463	1.3145e-05	31.393	258.437	262.166	181.787	128.185	180.005	296.451	126.490	133.213	221.175	235.756	130.366	135.545	138.520	143.434	338.236	139.868	-8191	255	
1481.546	1	1	0	0	0.12432	0.24101	0.25776	0.33363	0.10038	0.067888	0.25966	0.22191	0.020335	0.17951	0.11266	0.27465	0.12384	0.1954	0.30011	0.093632	0.1	-1.1	-0.60417	-0.58958	-1.2417	-0.55833	-0.96875	-1.2458	-0.4625	-1.1729	-0.73542	-0.29375	-1.1313	-0.45208	-0.68542	-1.1125	271.876	446.947	404.955	472.025	400.947	297.237	117.845	159.875	208.218	444.552	432.352	146.023	431.474	355.821	209.500	130.156	0.00045174	0.0011517	0.00022148	1265.1	1.0977e-05	6.7971e-06	868.92	356.87	1.0554e-05	7.1358e-06	237.96	67.185	104.67	28.611	8.155e-06	18.53	0.0011869	0.0011895	0.00033349	1370.6	1.3129e-05	1.3102e-05	992.78	389.96	1.3093e-05	1.3173e-05	312.13	94.625	129.18	36.514	1.3252e-05	31.502	277.079	298.494	355.131	128.177	146.623	395.594	126.454	132.965	248.109	147.712	130.451	135.847	138.733	143.092	239.718	138.864	-8191	255	
1481.642	1	1	0	0	0.19649	0.063997	0.17648	0.33536	0.13351	0.16922	0.085811	0.10297	0.14306	0.10434	0.30896	0.066011	0.27925	0.33678	0.1365	0.3211	0.10625	-0.89792	-0.73125	-0.27917	-1.1333	-0.54583	-0.88125	-1.2833	-0.42917	-1.0688	-1.1833	-0.3375	-1.3542	-0.72083	-0.42917	-1.3792	397.690	203.704	292.719	374.813	368.364	355.617	445.069	237.102	346.487	420.155	357.925	187.416	421.958	473.304	134.903	370.972	0.00034588	0.0008442	0.00014563	1255.6	5.0306e-06	6.0253e-06	866.6	357.9	4.7752e-06	7.3668e-06	234.7	66.899	103.59	28.746	5.8911e-06	18.643	0.0011951	0.0012106	0.00033561	1362.6	1.3212e-05	1.3216e-05	985.38	388.51	1.3135e-05	1.3162e-05	310.91	94.476	129.01	36.509	1.3269e-05	31.429	316.212	147.019	308.249	128.135	151.546	446.757	126.598	133.099	341.049	416.007	130.535	136.134	138.519	143.531	341.505	139.507	-8191	255	
1481.738	1	1	0	0	0.25827	0.04178	0.2589	0.23682	0.12642	0.1096	0.1656	0.24578	0.077495	0.20609	0.17269	0.13728	0.18328	0.32545	0.11442	0.16316	-0.083333	-0.73125	-1.075	-0.48958	-1.1708	-0.66042	-0.75833	-1.3167	-0.49792	-0.79583	-1.2479	-0.43125	-0.97708	-0.84167	-0.3875	-1.1917	308.843	370.019	446.773	400.597	130.172	295.603	382.018	462.650	460.213	345.936	362.425	474.001	358.068	131.007	152.005	394.448	0.00030308	0.0003595	0.00032096	1250.1	1.0833e-05	1.2716e-05	860.17	354.3	7.777e-06	1.4665e-05	233.32	66.471	103.17	28.682	4.5894e-06	18.367	0.0011957	0.0012079	0.00033684	1357.7	1.3281e-05	1.323e-05	982.48	387.06	1.3249e-05	1.3278e-05	310.94	94.839	128.79	36.56	1.3301e-05	31.581	313.086	338.610	277.488	128.324	389.315	125.971	126.749	133.137	281.176	128.410	130.662	135.897	138.609	143.805	322.277	139.741	-8191	255	
1481.859	1	1	0	0	0.26553	0.19229	0.1062	0.14486	0.11158	0.28731	0.008483	0.015666	0.23591	0.10713	0.21143	0.113	0.25134	0.25283	0.17221	0.22331	-0.0875	-0.68542	-1.025	-0.47917	-1.0896	-0.61875	-0.63333	-1.325	-0.34583	-0.73333	-1.0208	-0.58958	-1.2875	-1.0896	-0.3375	-1.1583	458.043	414.558	311.635	450.830	181.482	416.331	225.555	395.515	390.893	298.101	154.337	338.884	225.306	436.544	274.497	283.286	0.00043674	0.0013779	0.00027323	1245.8	3.8227e-06	3.2212e-06	857.44	354.32	4.2615e-06	6.5688e-06	234.21	66.716	103.57	28.789	1.1235e-05	18.63	0.0012054	0.0012166	0.00033724	1353.2	1.3347e-05	1.3323e-05	979.98	386.68	1.329e-05	1.3382e-05	311.4	94.888	129.11	36.598	1.3337e-05	31.66	323.039	137.373	122.644	128.045	239.485	358.673	126.883	133.428	169.103	414.951	130.292	135.313	138.867	143.591	185.403	139.937	-8191	255	
1481.955	1	1	0	0	0.25709	0.32209	0.11805	0.1544	0.14624	0.014917	0.14032	0.058622	0.29961	0.049507	0.23451	0.11345	0.08422	0.063552	0.15552	0.33391	-0.1625	-0.5625	-1.1521	-0.47708	-1.0083	-0.97708	-0.58333	-1.2396	-0.60625	-0.65	-1.3375	-0.725	-0.98958	-1.0833	-0.31042	-1.0729	374.351	238.533	224.851	436.538	462.013	293.785	457.502	437.245	396.958	383.716	416.757	136.622	204.051	281.373	388.045	278.362	0.00053525	0.00055015	0.00042084	1240	6.9329e-06	8.7493e-06	851.24	351.8	5.7686e-06	4.727e-06	232.43	66.544	103.68	28.639	7.3497e-06	18.61	0.0012082	0.0012145	0.00033801	1347.9	1.3356e-05	1.3344e-05	974.68	385.21	1.3275e-05	1.3338e-05	309.88	94.347	129.02	36.562	1.3372e-05	31.514	322.068	299.876	197.984	128.289	444.416	218.675	126.595	133.255	302.991	355.638	130.228	135.801	139.130	143.631	414.480	139.675	-8191	255	
1482.027	1	1	0	0	0.2507	0.35296	0.14154	0.23208	0.082037	0.11513	0.13738	0.24145	0.087422	0.22427	0.1315	0.12472	0.23734	0.12985	0.33584	0.1929	-0.23958	-0.4125	-1.4312	-0.47292	-0.76667	-1.025	-0.58542	-0.98542	-0.64375	-0.54583	-1.2542	-0.54792	-0.675	-1.0708	-0.27083	-1.2062	298.018	383.767	350.678	145.443	442.438	405.903	414.084	385.360	412.589	333.745	147.416	367.364	392.907	447.565	249.345	390.613	0.0004092	5.2468e-05	4.8506e-05	1236.3	2.4468e-06	4.8672e-06	843.84	350.54	1.5189e-05	8.3922e-06	229.9	65.376	103.06	28.702	7.3523e-07	18.208	0.0012114	0.0012186	0.00033818	1342.8	1.3352e-05	1.3349e-05	968.07	384.18	1.3352e-05	1.3346e-05	308.07	94.2	128.5	36.442	1.3404e-05	31.435	313.759	248.191	205.299	128.498	359.157	349.142	126.633	133.602	196.566	265.220	130.848	135.948	138.744	143.690	465.328	139.744	-8191	255	
1482.123	1	1	0	0	0.31662	0.282	0.23986	0.14524	0.102	0.065805	0.46184	0.24908	0.065303	0.16993	0.27878	0.27541	0.042627	0.09092	0.058456	0.19774	-0.64792	-0.47292	-1.2271	-0.57292	-0.56458	-1.2313	-0.47708	-1.1396	-0.78958	-0.39375	-1.2	-0.58542	-0.57083	-1.0646	-0.35208	-0.94792	245.482	257.495	447.652	350.265	278.426	122.758	436.771	404.376	405.181	156.197	464.629	468.039	166.643	143.195	436.213	132.699	0.00053832	0.00060196	5.6983e-05	1232.7	1.256e-05	6.6808e-06	839.33	348.9	2.0278e-06	1.3546e-05	230.58	65.592	102.23	28.358	8.7415e-06	18.444	0.0012049	0.0012143	0.00033838	1338.6	1.3327e-05	1.3301e-05	962.72	382.58	1.3276e-05	1.3232e-05	306.21	93.671	127.97	36.223	1.3266e-05	31.233	296.995	332.452	164.065	128.400	236.231	275.690	126.475	133.293	459.560	145.138	130.380	135.712	139.026	143.736	427.620	139.325	-8191	255	
1482.243	1	1	0	0	0.11991	0.293	0.24317	0.34494	0.23785	0.22534	0.33181	0.11402	0.04412	0.16044	0.082076	0.076185	0.092465	0.17204	0.022914	0.095696	-0.62292	-0.14167	-1.0312	-0.71875	-0.77292	-1.1417	-0.39167	-0.84792	-1.0146	-0.48125	-1.0958	-0.56667	-0.56667	-1.1958	-0.52083	-0.75625	366.538	190.873	323.741	466.558	271.673	259.058	467.624	363.495	158.830	391.087	197.352	364.267	161.356	341.349	357.808	274.938	0.00036036	0.00056295	0.00010875	1237.5	1.6241e-05	5.0822e-06	846.69	350.8	9.772e-06	2.944e-06	231.68	65.699	101.97	28.498	1.3273e-06	18.357	0.0011934	0.0012078	0.00033493	1341.4	1.3245e-05	1.3254e-05	968.17	383.94	1.3139e-05	1.3168e-05	308.4	93.728	127.64	36.219	1.3144e-05	31.305	263.135	138.185	183.329	128.176	277.832	412.449	126.446	133.556	361.305	189.574	130.504	135.813	139.164	143.760	451.095	139.255	-8191	255	
1482.338	1	1	0	0	0.21379	0.22489	0.28946	0.19621	0.11949	0.21093	0.44459	0.08902	0.19836	0.12795	0.2073	0.32211	0.2623	0.21851	0.12135	0.18031	-0.59375	-0.19375	-1.1313	-0.93333	-0.49792	-1.1521	-0.42917	-0.93542	-1.1479	-0.24583	-0.95208	-0.74167	-0.37292	-1.4062	-0.50417	-0.76042	257.032	439.550	438.201	433.391	425.911	372.245	427.713	226.782	396.310	203.489	423.531	326.686	313.936	355.079	137.770	149.394	0.00054958	0.00039633	0.00020517	1242.6	5.8612e-06	3.1524e-06	860.56	354.21	9.47e-06	6.1009e-06	237.74	66.288	102.83	28.558	6.0729e-06	18.681	0.0011928	0.0012028	0.0003342	1349.7	1.3132e-05	1.3138e-05	977.88	386	1.3073e-05	1.3186e-05	310.12	93.922	128.16	36.311	1.3123e-05	31.407	292.276	157.600	133.563	128.428	394.095	376.262	126.566	133.421	267.788	183.939	130.281	135.598	138.790	143.192	274.124	138.960	-8191	255	
1482.434	1	1	0	0	0.11305	0.12814	0.12866	0.27241	0.11909	0.23951	0.13258	0.19554	0.36282	0.084165	0.14176	0.08836	0.23971	0.062465	0.17838	0.080029	-0.69583	-0.32083	-1.0771	-1.025	-0.29583	-1.1646	-0.67708	-0.69792	-1.125	-0.24375	-1.1375	-0.88542	-0.31458	-1.1729	-0.57292	-0.66458	168.922	124.796	471.200	444.045	239.694	362.254	351.487	447.413	405.174	214.908	236.758	368.183	130.185	126.474	474.102	342.390	0.00032911	0.0010317	0.00018033	1259.1	3.7309e-06	1.0719e-05	861.54	354.72	6.9535e-06	7.5237e-06	234.74	66.164	103.22	28.536	6.0997e-06	18.469	0.0011857	0.0012051	0.00033338	1359.6	1.3124e-05	1.3139e-05	983.24	387.39	1.3043e-05	1.3036e-05	309.22	93.499	127.87	36.192	1.3081e-05	31.162	273.482	244.607	345.225	128.335	301.551	199.914	126.801	133.335	327.698	253.577	130.873	135.853	138.621	143.475	362.565	139.651	-8191	255	
1482.532	1	1	0	0	0.15741	0.2241	0.19961	0.20767	0.065866	0.33485	0.19109	0.36429	0.068384	0.10635	0.51943	0.011258	0.19027	0.19756	0.21082	0.079269	-0.68958	-0.29167	-0.84792	-0.8375	-0.12083	-1.4021	-0.83125	-0.625	-1.2979	-0.58958	-0.90208	-1.1479	-0.50208	-1.0417	-0.425	-0.48333	285.632	235.253	383.568	414.359	321.546	449.480	142.822	430.723	347.363	333.184	416.026	159.088	410.973	126.674	277.459	309.350	0.00059437	0.0011917	8.686e-05	1255.2	6.2355e-06	1.169e-06	863.97	356.2	3.6655e-06	3.4536e-06	234.23	66.12	102.96	28.687	8.0626e-06	18.527	0.0011805	0.0011893	0.00033336	1361.3	1.3037e-05	1.3085e-05	983.57	387.79	1.3081e-05	1.3097e-05	310.57	93.723	128.04	36.237	1.3125e-05	31.223	310.744	246.742	402.109	128.162	343.849	323.331	126.857	133.537	247.714	216.450	130.312	135.688	138.272	143.730	286.693	139.995	-8191	255	
1482.651	1	1	0	0	0.14908	0.079623	0.093649	0.3669	0.07617	0.10162	0.21032	0.25927	0.15799	0.21624	0.041828	0.18003	0.2992	0.18964	0.29202	0.064171	-0.81042	-0.37708	-0.675	-1.2062	-0.32083	-1.0375	-0.93333	-0.48125	-1.1688	-0.56458	-0.91042	-1.1313	-0.4875	-1.0312	-0.86667	-0.40625	227.823	452.840	155.874	396.611	263.669	252.232	143.046	387.056	126.973	471.243	404.249	116.723	291.420	135.313	429.155	278.771	0.00029208	0.00087851	0.00020645	1253.9	4.9608e-06	3.515e-06	862.19	356.07	1.4745e-05	8.8536e-06	232.31	66.167	103.55	28.499	1.1057e-05	18.404	0.0011849	0.0011983	0.00033284	1359.1	1.3129e-05	1.3143e-05	982.04	387.88	1.3116e-05	1.3175e-05	310.03	93.874	128.42	36.378	1.3202e-05	31.32	300.779	280.821	137.593	128.446	370.864	335.088	126.683	133.509	223.101	474.355	130.993	135.777	138.619	143.555	212.917	138.829	-8191	255	
1482.722	1	1	0	0	0.077115	0.32438	0.10676	0.38966	0.11932	0.12616	0.17457	0.24867	0.11011	0.22258	0.029879	0.19769	0.04316	0.081838	0.23078	0.37773	-0.82292	-0.475	-0.54583	-1.2833	-0.47292	-1.0729	-1.1437	-0.78958	-1.1771	-0.63125	-0.52708	-1.25	-0.6	-1.075	-1.0562	-0.43333	462.235	129.786	241.373	436.115	299.626	256.301	401.775	131.033	440.051	224.856	455.767	161.178	458.771	248.773	206.298	327.563	0.00037078	0.0011259	6.5291e-05	1247	2.3676e-06	2.8256e-06	863.7	354.51	6.6636e-06	4.9667e-06	234.8	66.529	104.43	28.762	9.8738e-06	18.626	0.0011944	0.0012043	0.00033633	1357.4	1.3264e-05	1.3216e-05	982.74	387.94	1.3225e-05	1.3298e-05	311.46	94.623	129.12	36.642	1.3295e-05	31.664	295.916	208.277	258.315	128.464	334.491	181.116	127.014	132.964	246.113	134.190	129.981	135.782	138.284	143.223	199.248	139.045	-8191	255	
1482.818	1	1	0	0	0.072743	0.25177	0.35326	0.19071	0.20936	0.056516	0.28672	0.12797	0.065818	0.1491	0.26303	0.31326	0.034795	0.13031	0.24686	0.065662	-0.77917	-0.53958	-0.44167	-1.2812	-0.3125	-0.98333	-1.2979	-0.50625	-1.3271	-0.68333	-0.54167	-1.0958	-0.66042	-0.6625	-1.075	-0.51042	459.086	326.020	200.504	378.347	448.972	463.986	132.142	133.564	431.097	116.074	403.727	162.959	349.399	299.364	196.316	226.380	0.00014252	0.00064754	0.00022695	1251.3	5.9021e-06	1.2639e-05	861.97	355.63	7.2931e-06	5.6332e-06	233.72	66.509	104.3	28.845	1.7783e-05	18.792	0.0012095	0.0012165	0.00033946	1358.9	1.3405e-05	1.3392e-05	984.18	388.24	1.3313e-05	1.337e-05	311.47	95.245	129.38	36.744	1.3387e-05	31.741	177.652	243.650	239.101	128.164	242.109	222.925	126.422	133.142	230.249	233.012	130.069	135.442	138.440	143.774	236.661	139.034	-8191	255	
1482.939	1	1	0	0	0.089924	0.1759	0.080064	0.31583	0.090621	0.23575	0.37391	0.40253	0.089812	0.097619	0.27791	0.18065	0.24956	0.22812	0.1112	0.10553	-0.43958	-0.70417	-0.475	-1.3458	-0.59375	-0.63958	-1.3188	-0.6	-0.94167	-1.0562	-0.38542	-1.4021	-0.57292	-0.48542	-1.125	-0.30417	450.742	421.321	187.683	426.600	208.214	332.199	388.513	412.786	166.496	115.759	154.042	436.499	225.573	117.290	447.755	131.853	0.00030622	0.00025853	4.6234e-05	1243.7	5.1876e-06	7.8795e-06	856.78	353.1	1.2684e-05	5.6868e-06	230.08	66.863	103.95	28.637	8.8829e-06	18.346	0.0012124	0.0012221	0.00034054	1354.5	1.3414e-05	1.3378e-05	976.87	386.52	1.3392e-05	1.3384e-05	309.88	94.767	129.56	36.666	1.335e-05	31.514	283.194	390.490	403.680	128.271	323.181	247.028	126.524	133.184	178.758	213.325	130.183	135.712	138.852	143.234	131.971	138.538	-8191	255	
1483.035	1	1	0	0	0.18954	0.14302	0.1128	0.21449	0.088876	0.10369	0.15864	0.0943	0.19499	0.032713	0.1926	0.16125	0.18052	0.045372	0.25972	0.16144	-0.55417	-0.81667	-0.33958	-1.3583	-0.64167	-0.6375	-1.3417	-0.50833	-0.975	-1.075	-0.37917	-1.0583	-0.77917	-0.65	-1.2167	-0.40833	308.388	351.862	182.830	387.521	299.642	466.445	118.046	361.169	345.426	290.891	380.831	296.100	357.710	271.067	209.738	424.894	0.00041659	0.00069752	0.00012011	1245.9	6.6492e-06	9.1739e-06	845.74	352.32	1.1718e-05	1.0047e-05	230.78	65.722	103.41	28.715	1.1925e-05	18.516	0.0012108	0.001218	0.00033904	1350.4	1.3325e-05	1.3368e-05	970.14	385.27	1.3339e-05	1.3376e-05	308.63	94.236	128.62	36.614	1.3375e-05	31.412	286.243	200.108	425.892	128.062	180.121	265.183	126.515	133.096	233.049	367.513	130.303	135.518	139.090	143.380	152.309	139.706	-8191	255	
1483.131	1	1	0	0	0.18079	0.14446	0.23949	0.20836	0.088563	0.23932	0.30285	0.23069	0.13085	0.15125	0.046528	0.088464	0.19998	0.30693	0.18435	0.10957	-0.28958	-1.1104	-0.38542	-1.225	-0.75	-0.45	-1.4917	-0.65625	-0.67708	-1.1	-0.50833	-0.96458	-0.76875	-0.2125	-1.0729	-0.275	368.797	208.691	426.653	143.692	401.692	174.715	470.996	133.348	218.636	365.753	277.051	226.224	306.566	366.155	156.338	360.311	0.00037569	0.00064744	0.00020237	1234.7	5.3128e-06	9.8775e-07	849.16	351.69	1.1569e-05	6.8699e-06	230.91	65.544	103.96	28.646	6.3021e-06	18.334	0.001207	0.0012175	0.00033777	1345	1.326e-05	1.3331e-05	971.22	384.85	1.3234e-05	1.3262e-05	308.58	94.229	128.54	36.485	1.3208e-05	31.403	351.072	271.428	366.132	128.280	177.908	410.744	126.501	132.880	253.264	297.513	130.784	135.819	138.382	143.212	187.568	139.553	-8191	255	
1483.252	1	1	0	0	0.23836	0.13373	0.21654	0.080788	0.13727	0.33131	0.35575	0.12517	0.28706	0.19117	0.059367	0.098036	0.15424	0.11631	0.068516	0.22554	-0.44583	-1.0833	-0.1375	-1.2062	-0.87708	-0.39167	-1.3792	-0.7	-0.41875	-1.0854	-0.48542	-0.85208	-0.975	-0.33958	-1.1083	-0.61875	348.298	208.297	127.542	153.642	267.143	135.412	429.177	411.867	343.884	457.082	236.212	166.027	365.313	467.041	369.694	387.654	0.00019164	0.00074028	0.00027144	1242.4	7.8033e-06	6.6545e-06	855.28	353.79	4.2542e-06	9.4496e-07	235.08	66.709	103	28.614	3.5865e-06	18.684	0.0012036	0.0012106	0.00033751	1351.2	1.3223e-05	1.3238e-05	977.64	386.29	1.3263e-05	1.3227e-05	310.59	94.47	128.7	36.528	1.3279e-05	31.593	226.518	440.608	263.599	128.269	246.936	255.345	126.611	133.001	280.036	441.165	130.234	135.348	138.563	143.316	257.347	139.161	-8191	255	
1483.324	1	1	0	0	0.011123	0.1343	0.12414	0.13814	0.20717	0.076464	0.056659	0.25847	0.22965	0.22119	0.28015	0.18218	0.058745	0.34739	0.040523	0.23583	-0.26042	-1.2563	-0.4125	-1.0146	-0.825	-0.44583	-1.3375	-0.87917	-0.62292	-1.2396	-0.41667	-0.81667	-1.3021	-0.51875	-1.2083	-0.63333	369.150	118.498	304.319	450.871	326.714	140.771	457.818	399.506	213.098	366.271	126.806	399.007	340.944	161.434	146.347	271.703	0.00054796	0.0013515	0.00015389	1255.5	1.3452e-05	3.254e-06	864.38	355.25	5.9073e-06	5.5801e-06	234.32	66.156	104.2	28.696	1.4856e-05	18.489	0.0011994	0.001208	0.0003364	1359.7	1.3175e-05	1.3203e-05	984.64	387.72	1.3162e-05	1.3206e-05	310.89	94.477	128.76	36.558	1.3215e-05	31.449	322.034	194.424	473.497	128.228	149.047	312.162	126.486	133.412	240.529	130.277	130.496	135.822	138.827	143.365	238.193	139.036	-8191	255	
1483.418	1	1	0	0	0.16775	0.15682	0.096151	0.13414	0.21729	0.13555	0.034807	0.1338	0.17873	0.14788	0.13905	0.16672	0.084669	0.2819	0.13732	0.3358	0.077083	-1.1458	-0.34375	-0.90208	-1.0917	-0.49167	-1.2583	-1.0146	-0.52917	-1.3062	-0.55833	-0.71875	-1.1479	-0.52292	-1.0312	-1.0958	316.930	471.886	125.728	394.015	346.490	241.881	435.331	232.794	229.716	286.697	345.712	405.361	176.754	125.780	419.700	147.229	0.00013169	0.0011598	0.00020405	1260.3	5.7756e-06	8.1461e-06	866.81	354.25	4.1472e-06	5.3369e-06	235.5	66.301	103.86	28.507	7.97e-06	18.142	0.0011927	0.0012072	0.00033514	1361.7	1.3212e-05	1.3241e-05	986.11	387.23	1.3266e-05	1.3284e-05	311.11	94.504	129	36.432	1.3315e-05	31.362	243.395	266.655	163.428	128.049	255.761	182.456	126.224	132.922	425.330	217.350	130.233	135.930	138.549	143.284	147.315	139.074	-8191	255	
1483.539	1	1	0	0	0.37172	0.20295	0.19126	0.20171	0.05499	0.079047	0.42427	0.21872	0.12724	0.2668	0.27871	0.21409	0.17941	0.079439	0.22857	0.2082	-0.079167	-1.2042	-0.56667	-0.9375	-1.1792	-0.4875	-0.89167	-1.0896	-0.58958	-1.1187	-0.96042	-0.825	-1.3771	-0.54375	-0.875	-1.1229	214.328	226.689	407.092	337.279	412.880	145.712	399.335	393.265	193.624	207.198	147.082	234.673	146.059	270.489	341.072	433.667	0.00072747	0.00064065	0.0002983	1250	1.8676e-05	1.0553e-05	862.55	354.53	5.3866e-06	7.1219e-06	234.37	66.662	103.47	28.638	7.866e-06	18.447	0.0012026	0.0012155	0.00033882	1360.9	1.324e-05	1.3327e-05	982.73	387.16	1.3316e-05	1.3336e-05	309.57	94.669	129.06	36.588	1.3304e-05	31.58	318.996	204.399	234.961	128.324	241.052	339.490	126.525	133.074	279.331	341.649	130.560	135.954	138.900	143.729	237.637	139.195	-8191	255	
1483.635	1	1	0	0	0.18489	0.319	0.22236	0.33565	0.18234	0.050639	0.22017	0.1774	0.19843	0.29335	0.22097	0.21483	0.45095	0.17834	0.1539	0.10229	-0.1875	-1.1208	-0.73958	-0.69583	-1.2646	-0.47917	-0.98125	-1.2812	-0.45625	-1.1354	-0.97708	-0.61458	-1.3854	-0.55833	-0.87917	-1.2333	344.205	270.204	294.338	425.224	419.567	145.975	162.226	472.880	150.027	341.880	189.888	425.150	466.309	420.495	149.263	130.608	0.00023786	0.00045589	0.00017256	1247.5	1.727e-06	1.0844e-05	857.47	353.52	2.5965e-06	4.6217e-06	231.97	66.447	103.87	28.644	4.3995e-06	18.372	0.001206	0.00122	0.00033933	1355.7	1.3384e-05	1.3341e-05	979.17	386.66	1.3379e-05	1.3406e-05	310.21	94.794	129.44	36.705	1.3427e-05	31.676	311.075	386.825	144.912	128.160	209.351	435.742	126.482	133.096	305.666	117.748	130.656	136.172	138.684	143.211	190.210	138.673	-8191	255	
1483.731	1	1	0	0	0.18685	0.2126	0.17187	0.3538	0.11555	0.10655	0.55617	0.41714	0.12384	0.29621	0.26574	0.069475	0.10528	0.18629	0.15912	0.10861	0.05	-0.97708	-0.98333	-0.59167	-1.2604	-0.56667	-0.94375	-1.2854	-0.36875	-0.87708	-0.98542	-0.11042	-1.3312	-0.51458	-0.6125	-1.4729	213.063	138.349	256.327	160.369	434.044	260.771	426.606	426.031	374.943	227.415	125.164	172.956	205.396	421.760	436.557	208.032	0.00046618	0.00065723	0.00041546	1242.2	1.3277e-05	8.1157e-06	852.57	353.71	4.1684e-06	6.2073e-07	234.25	66.906	104.24	28.689	5.109e-06	18.807	0.0012205	0.0012268	0.00033924	1350.3	1.3445e-05	1.3459e-05	975.97	386.43	1.3443e-05	1.3417e-05	311.04	95.327	129.74	36.811	1.347e-05	31.876	297.172	250.649	208.424	128.166	230.380	421.696	127.027	133.283	172.342	342.124	130.361	135.882	138.288	143.619	469.542	139.846	-8191	255	
1483.827	1	1	0	0	0.32137	0.2131	0.10624	0.25046	0.13147	0.059271	0.11396	0.37435	0.2134	0.11982	0.17372	0.064179	0.2666	0.48567	0.15814	0.1217	0.079167	-0.84375	-1.0854	-0.51458	-1.2437	-0.73542	-0.55625	-1.2521	-0.48125	-0.91458	-0.9875	-0.42292	-1.1396	-0.6625	-0.27917	-1.1625	176.819	289.352	401.821	140.810	460.380	140.124	429.718	426.988	424.465	291.645	141.029	462.360	448.651	403.554	266.759	165.446	0.0003835	0.00068659	0.00035574	1244.3	4.1644e-06	4.0955e-06	853.72	354.25	3.4531e-07	6.8903e-06	232.51	66.161	103.37	28.921	1.4519e-05	18.636	0.00122	0.0012286	0.00034207	1354.2	1.3491e-05	1.3439e-05	978.32	386.73	1.3448e-05	1.3487e-05	310.55	95.199	129.72	36.845	1.3533e-05	31.791	308.913	275.073	196.563	128.296	165.157	169.380	126.686	133.352	288.144	125.785	130.069	136.088	139.142	143.268	260.726	139.652	-8191	255	
1483.899	1	1	0	0	0.096028	0.18453	0.18569	0.19683	0.1094	0.044098	0.15299	0.19651	0.18606	0.20856	0.057547	0.092768	0.20816	0.31684	0.33909	0.12932	-0.18958	-0.82292	-0.93958	-0.34167	-1.2188	-0.88125	-0.52083	-1.2938	-0.45208	-0.77292	-1.0708	-0.26875	-1.1125	-0.96042	-0.44375	-1.1104	429.257	287.370	329.901	125.987	242.804	135.746	380.775	410.930	194.045	309.951	399.627	426.233	327.735	455.732	397.730	280.649	0.00057034	0.00016124	0.00026694	1233.1	1.1991e-05	4.9796e-06	844.18	351.03	1.1912e-05	1.2066e-05	231.32	66.021	102.98	28.768	4.5899e-06	18.225	0.001222	0.0012347	0.00034249	1347.6	1.3485e-05	1.3496e-05	970.37	385	1.3436e-05	1.347e-05	309.2	94.644	129.73	36.777	1.3558e-05	31.689	273.248	129.757	452.433	128.127	274.135	166.116	126.787	133.138	207.938	433.879	130.604	136.180	139.261	143.556	223.255	139.029	-8191	255	
1484.019	1	1	0	0	0.16425	0.29957	0.24425	0.3408	0.20936	0.15778	0.23776	0.60988	0.3374	0.29195	0.26015	0.20563	0.033553	0.24733	0.23019	0.25857	-0.225	-0.48125	-0.92708	-0.50625	-0.94583	-0.88125	-0.58333	-1.1104	-0.625	-0.86667	-1.1208	-0.50833	-0.85833	-0.97083	-0.35833	-1.1896	442.557	470.133	314.447	157.633	223.122	443.946	179.380	449.898	164.356	474.354	409.787	467.351	215.880	208.604	174.945	371.319	0.00040745	0.0011679	0.00016754	1232.5	6.0971e-06	7.6138e-06	839.6	350.1	1.5272e-05	7.4776e-06	228.5	65.979	103.11	28.841	8.1803e-06	18.46	0.0012227	0.0012276	0.00034199	1342.6	1.3488e-05	1.3428e-05	967.29	383.72	1.3429e-05	1.3446e-05	307.96	94.38	129.14	36.726	1.3519e-05	31.621	380.592	211.932	192.709	128.316	421.197	464.100	126.520	133.331	257.493	382.921	130.221	135.671	138.889	143.744	236.735	139.258	-8191	255	
1484.116	1	1	0	0	0.087998	0.10518	0.15911	0.268	0.029713	0.27382	0.23149	0.25043	0.12692	0.10315	0.13989	0.22331	0.12916	0.28211	0.12779	0.14066	-0.24792	-0.70833	-1.1688	-0.60417	-1.1292	-1.1146	-0.51042	-1.0542	-0.84167	-0.725	-1.3667	-0.5	-0.7125	-0.89583	-0.28125	-1.0396	404.893	145.537	127.987	450.789	265.565	253.702	362.892	406.833	459.629	402.007	474.153	370.987	117.780	131.782	280.871	387.993	0.00046157	0.0012148	0.00016473	1227	7.3618e-06	5.2085e-06	840	350.64	7.0414e-06	2.9569e-06	228.87	65.907	103.88	28.416	3.7387e-06	18.66	0.0012192	0.0012291	0.00034119	1340.6	1.3455e-05	1.3482e-05	968.34	384.6	1.347e-05	1.3459e-05	309.51	94.731	129.39	36.731	1.3518e-05	31.82	269.440	326.787	289.101	128.459	389.569	191.230	126.704	133.524	463.604	424.410	130.583	135.467	138.827	143.967	425.687	139.187	-8191	255	
1484.212	1	1	0	0	0.11275	0.17786	0.14824	0.2517	0.091797	0.13634	0.088519	0.20574	0.29971	0.31726	0.22339	0.12354	0.15611	0.16889	0.14281	0.077225	-0.16458	-0.53333	-1.1688	-0.6625	-0.72917	-1.0187	-0.32083	-1.1688	-0.85208	-0.57917	-1.3083	-0.66042	-0.75833	-1.2563	-0.31458	-1.0312	408.884	290.038	456.428	387.885	346.545	326.662	277.729	389.139	319.514	245.893	350.742	360.360	169.204	197.728	457.849	300.453	0.00036559	0.00067127	0.00030694	1241.4	2.7317e-06	2.278e-06	852.57	354.17	1.5687e-05	1.3034e-05	231.83	66.833	103.79	28.87	4.7573e-06	18.597	0.001215	0.0012241	0.00034201	1347.7	1.341e-05	1.3476e-05	976.37	386.89	1.3375e-05	1.3409e-05	311.28	95.148	129.48	36.811	1.3454e-05	31.865	309.961	173.796	464.930	128.319	293.853	374.652	126.772	133.329	232.276	223.503	130.211	135.926	139.172	143.650	348.471	139.795	-8191	255	
1484.332	1	1	0	0	0.044195	0.38335	0.15501	0.30636	0.10999	0.13885	0.12001	0.39113	0.13435	0.12931	0.22988	0.063157	0.24958	0.15449	0.14494	0.30481	-0.52292	-0.30625	-1.2354	-0.63958	-0.51458	-1.125	-0.35833	-0.975	-0.99583	-0.28958	-1.2083	-0.57708	-0.70208	-0.975	-0.41458	-0.85833	223.927	466.854	322.570	415.022	270.080	152.894	363.268	439.028	388.820	359.427	319.610	209.445	180.666	454.877	214.748	469.732	0.00038365	0.00079573	6.9975e-05	1247.6	3.937e-06	5.9483e-06	856.5	354.12	1.0446e-05	8.2406e-06	233.21	67.228	103.74	28.796	9.4613e-06	18.531	0.0012125	0.0012246	0.00034217	1353.9	1.3398e-05	1.3376e-05	979.62	386.49	1.3284e-05	1.3366e-05	310.41	94.608	128.84	36.708	1.3345e-05	31.594	299.766	444.198	444.482	128.402	314.061	465.846	126.829	133.219	335.907	414.951	130.204	135.842	139.099	143.279	153.852	139.515	-8191	255	
1484.427	1	1	0	0	0.24637	0.13556	0.13384	0.19431	0.13353	0.15447	0.1597	0.14527	0.22317	0.13069	0.087155	0.24597	0.10058	0.11361	0.1667	0.23842	-0.56042	-0.2875	-1.1667	-0.97083	-0.38542	-1.4229	-0.61458	-0.91042	-1.175	-0.28958	-1.1125	-0.93542	-0.525	-1.2354	-0.39792	-0.76667	213.134	440.927	366.417	469.485	121.526	298.754	360.191	394.075	276.928	429.215	302.594	178.632	422.381	443.481	186.742	331.172	0.00041151	0.00043757	0.00015868	1247.3	6.1854e-06	4.5433e-06	855.78	353.41	1.0976e-05	1.1092e-05	233.66	65.846	104.24	28.917	9.4469e-06	18.585	0.001205	0.0012108	0.00033878	1355.3	1.3341e-05	1.3319e-05	976.71	386.85	1.3311e-05	1.3356e-05	310.34	94.262	129.06	36.624	1.3349e-05	31.507	247.930	141.148	214.354	128.262	245.334	424.220	126.789	133.388	400.445	313.344	130.727	135.707	139.272	143.521	226.992	139.995	-8191	255	
1484.523	1	1	0	0	0.43077	0.066918	0.11105	0.2206	0.05927	0.24951	0.1392	0.14211	0.10815	0.31177	0.24742	0.11534	0.28469	0.20611	0.059537	0.23262	-0.7125	-0.29167	-0.93333	-0.95417	-0.17292	-1.1146	-0.64375	-0.6625	-1.3062	-0.44583	-0.8	-0.8125	-0.36667	-1.1187	-0.72083	-0.75	459.223	402.665	437.140	173.746	164.416	473.810	274.334	141.146	427.266	411.625	326.488	350.868	412.018	137.024	286.041	254.452	0.00088131	0.00090942	0.00029777	1243.5	1.2209e-05	7.3125e-06	852.47	354.34	1.8101e-06	7.629e-06	232.16	66.612	103.57	28.73	1.0928e-05	18.716	0.0012032	0.0012245	0.00033955	1353.3	1.333e-05	1.3341e-05	975.21	386.38	1.3343e-05	1.3409e-05	310	94.431	128.98	36.61	1.343e-05	31.708	317.558	344.944	142.972	128.189	269.396	225.421	126.631	133.561	115.903	166.653	130.383	135.957	138.503	143.658	265.686	138.951	-8191	255	
1484.619	1	1	0	0	0.076533	0.25931	0.19495	0.42186	0.079153	0.2671	0.20708	0.21769	0.32494	0.13414	0.11092	0.23936	0.31395	0.09316	0.091387	0.13901	-0.77708	-0.35833	-1.0063	-1.0646	-0.26042	-1.2354	-0.81875	-0.5375	-1.1646	-0.41667	-0.9375	-1.0167	-0.38542	-1.2437	-0.80417	-0.73958	471.000	176.138	189.934	458.352	295.982	231.434	381.240	367.267	219.757	421.116	461.099	175.682	180.988	193.168	228.285	461.106	0.00051612	0.00069748	0.00020667	1238.9	5.7255e-06	8.6271e-06	849.39	351.66	6.3826e-06	2.0995e-05	230.76	66.593	103.55	28.796	7.2974e-06	18.836	0.0012158	0.0012268	0.00034099	1350.8	1.3454e-05	1.34e-05	974.22	385.89	1.3414e-05	1.3449e-05	310.44	95.204	129.5	36.847	1.3483e-05	31.845	296.965	350.218	470.723	128.444	239.033	268.293	127.223	133.727	445.355	210.169	130.575	135.633	139.137	143.498	199.921	139.817	-8191	255	
1484.715	1	1	0	0	0.11419	0.033993	0.072024	0.17187	0.074204	0.062001	0.27007	0.0064094	0.18777	0.40751	0.021886	0.33105	0.3483	0.26371	0.2319	0.14773	-0.68333	-0.4125	-0.77292	-1.1187	-0.24583	-1.1146	-0.9875	-0.60833	-1.1521	-0.74375	-0.84792	-1.2333	-0.3875	-1.1417	-0.85833	-0.39375	243.538	220.683	191.549	393.470	255.296	423.101	173.482	453.353	372.424	399.910	238.934	335.344	461.156	440.597	177.940	125.621	0.00055862	0.0014194	6.888e-05	1237.1	8.1741e-06	5.8582e-06	849.72	351.6	6.8982e-06	8.4778e-06	234.14	66.836	103.54	29.073	7.4607e-06	18.791	0.0012183	0.0012297	0.00034209	1350.1	1.3485e-05	1.3501e-05	973.62	385.85	1.3542e-05	1.3502e-05	312.14	95.344	129.67	36.949	1.3492e-05	31.958	286.013	347.097	212.783	128.362	266.136	216.492	126.678	133.315	318.988	401.162	130.653	135.899	138.897	143.535	203.461	139.388	-8191	255	
1484.811	1	1	0	0	0.1897	0.059414	0.0968	0.083057	0.04345	0.18157	0.18733	0.18125	0.16233	0.15821	0.1481	0.12495	0.25298	0.30753	0.062176	0.094085	-0.76875	-0.4875	-0.64167	-1.3646	-0.27917	-0.92083	-1.0854	-0.57917	-1.2208	-0.50625	-0.67917	-1.2938	-0.34583	-0.97292	-0.98542	-0.40208	185.398	458.769	192.574	236.704	176.207	277.295	439.038	400.832	402.472	449.262	135.077	416.645	462.154	352.277	335.995	119.964	0.00043497	0.0011708	0.00023136	1232.7	7.1592e-06	7.139e-06	849.59	352.53	1.6811e-05	4.991e-06	232.71	66.619	103.77	29.094	1.584e-05	18.698	0.0012163	0.0012289	0.00034187	1346.4	1.3393e-05	1.3403e-05	972.73	385.92	1.3432e-05	1.3445e-05	310.06	94.92	129.37	36.882	1.3429e-05	31.798	285.880	148.201	137.048	128.510	197.260	328.731	126.571	133.383	204.710	169.445	130.630	135.714	138.688	143.558	289.464	139.587	-8191	255	
1484.932	1	1	0	0	0.33017	0.14396	0.11686	0.047816	0.049698	0.14593	0.11631	0.36106	0.0413	0.21548	0.25072	0.088494	0.27409	0.066838	0.19335	0.14313	-0.83542	-0.67708	-0.55	-1.2417	-0.25208	-0.86042	-1.2479	-0.41875	-1.1042	-0.71458	-0.6	-1.5063	-0.39167	-0.71042	-0.85	-0.37708	168.597	361.767	473.996	188.972	463.821	144.741	416.848	177.086	410.234	335.901	368.724	302.362	260.118	462.865	224.880	362.109	0.00063957	0.0021107	0.00013104	1236.5	2.1668e-06	1.1559e-05	845.64	350.11	1.5613e-05	3.0534e-07	230.58	66.171	103.51	28.635	5.4216e-06	18.391	0.0012223	0.001228	0.00034116	1344.4	1.3382e-05	1.3472e-05	970.28	384.3	1.3429e-05	1.3476e-05	309.38	94.891	129.07	36.853	1.3447e-05	31.747	335.437	172.508	119.302	128.214	371.700	307.901	126.353	133.597	254.550	135.102	130.446	136.317	138.869	143.346	166.421	139.487	-8191	255	
1485.028	1	1	0	0	0.11988	0.14495	0.16838	0.19699	0.02647	0.08363	0.17577	0.25239	0.21654	0.19191	0.18323	0.3205	0.28139	0.35054	0.21984	0.20792	-0.89583	-0.80833	-0.375	-1.3563	-0.57292	-0.79167	-1.2792	-0.52917	-0.99792	-0.86042	-0.4	-1.2479	-0.58125	-0.56875	-1.3062	-0.44792	333.504	236.467	389.512	386.715	269.830	175.565	370.837	447.459	234.064	184.250	447.267	220.941	462.831	464.602	296.287	427.536	0.00054187	0.00020698	9.4624e-05	1236.6	2.63e-06	1.2763e-05	843.53	349.97	5.7784e-06	6.9143e-06	231.69	66.304	102.63	28.65	1.2473e-05	18.285	0.0012195	0.0012308	0.00034264	1342.9	1.3425e-05	1.3439e-05	967.41	384.3	1.3381e-05	1.3403e-05	309.06	94.755	128.92	36.792	1.3432e-05	31.732	273.443	154.174	143.964	128.380	302.810	253.963	126.825	133.419	319.976	279.592	130.377	135.988	138.967	143.784	173.763	139.799	-8191	255	
1485.124	1	1	0	0	0.29848	0.39612	0.065628	0.23149	0.077176	0.1241	0.13814	0.13155	0.13944	0.40058	0.20147	0.31884	0.22103	0.20681	0.19908	0.25152	-0.43958	-0.83125	-0.3625	-1.35	-0.69792	-0.57083	-1.2521	-0.54583	-0.85208	-0.95208	-0.37917	-0.88125	-0.81458	-0.58125	-1.3083	-0.5875	190.358	422.906	407.566	380.489	232.084	444.690	293.664	423.207	138.391	218.327	273.167	299.091	398.299	450.591	326.619	363.142	0.00049457	0.0016198	0.00013042	1231.8	1.5764e-05	5.8044e-07	838.91	350.35	1.7664e-06	1.0932e-05	231.62	66.157	103.35	28.713	2.2622e-05	18.597	0.0012249	0.0012263	0.00034223	1342.3	1.3449e-05	1.3457e-05	968.26	384.51	1.3487e-05	1.3479e-05	309.46	94.843	129.04	36.792	1.3489e-05	31.837	297.514	317.775	159.329	128.476	303.413	388.740	126.758	133.726	149.530	377.406	130.383	136.064	139.241	143.981	243.201	138.963	-8191	255	
1485.220	1	1	0	0	0.26882	0.11964	0.10543	0.33765	0.27807	0.14813	0.14385	0.25958	0.12764	0.06275	0.22459	0.20194	0.1896	0.090553	0.19349	0.26782	-0.46875	-1.1708	-0.35208	-1.2812	-0.86458	-0.4375	-1.4	-0.62292	-0.72083	-0.97917	-0.41875	-1.0979	-0.95625	-0.57083	-1.2896	-0.48958	371.421	323.021	250.292	473.800	156.868	198.801	429.074	459.329	135.050	427.062	396.254	444.166	362.762	360.050	408.058	401.598	0.00032462	0.00070561	5.4669e-05	1236.4	1.3121e-05	5.2036e-06	851.78	352.09	1.0795e-05	6.8115e-06	232.81	66.437	103.13	28.703	6.204e-06	18.414	0.0012206	0.0012333	0.00034387	1349.1	1.3414e-05	1.3566e-05	976.25	385.84	1.3441e-05	1.3513e-05	310.82	94.902	129.02	36.749	1.3462e-05	31.752	301.490	236.932	243.329	128.486	195.185	130.777	126.708	133.661	263.946	378.236	130.953	135.697	138.687	143.649	136.624	139.032	-8191	255	
1485.315	1	1	0	0	0.18019	0.13503	0.15207	0.19922	0.17667	0.076668	0.15334	0.13304	0.17112	0.12055	0.24213	0.12082	0.077462	0.11858	0.09785	0.18121	-0.375	-1.0271	-0.51458	-1.3438	-0.90625	-0.44167	-1.1812	-0.8125	-0.78333	-1.2917	-0.35417	-1.1938	-1.0375	-0.65208	-1.3479	-0.52917	240.366	319.134	181.234	407.796	176.625	143.533	473.752	357.140	302.270	245.891	224.480	295.649	123.497	243.641	162.459	125.692	0.00050007	0.00076587	0.00040921	1245.3	1.1895e-05	9.1169e-06	850.45	351.43	3.7292e-06	8.0468e-06	231.1	66.565	102.94	28.746	8.1854e-06	18.348	0.0012121	0.0012269	0.00034121	1354.6	1.3351e-05	1.3392e-05	976.45	385.78	1.3344e-05	1.3342e-05	309.86	94.405	128.52	36.547	1.3299e-05	31.417	321.549	232.301	360.473	128.474	364.969	222.899	126.562	133.474	265.001	202.760	130.963	135.778	138.639	143.940	261.953	139.671	-8191	255	
1485.411	1	1	0	0	0.1528	0.1176	0.02886	0.28758	0.21306	0.15512	0.066386	0.223	0.29151	0.11424	0.0080207	0.19138	0.09293	0.22923	0.18321	0.12082	-0.29375	-1.1625	-0.089583	-1.2146	-0.78542	-0.31667	-1.1958	-0.71042	-0.37917	-1.2854	-0.37083	-0.90208	-1.1771	-0.44375	-1.1063	-0.89583	126.742	320.083	285.527	475.067	251.469	256.100	314.069	120.605	198.018	387.508	217.542	298.932	350.181	338.911	204.082	226.446	0.00037371	0.0015099	0.00031137	1245.8	7.8722e-06	2.8563e-06	853.9	350.87	8.3136e-06	6.0155e-06	233.6	65.828	103.08	28.724	4.9676e-06	18.306	0.0012093	0.0012149	0.00033794	1354.2	1.325e-05	1.3393e-05	977.3	385.35	1.3325e-05	1.3321e-05	309.97	94.224	128.43	36.618	1.3341e-05	31.466	258.901	245.970	473.863	128.628	371.627	221.044	126.932	133.363	153.374	318.601	130.868	135.881	139.066	143.910	203.464	139.601	-8191	255	
1485.507	1	1	0	0	0.089291	0.11557	0.11561	0.20322	0.072469	0.13096	0.30582	0.34509	0.15204	0.19186	0.1653	0.23099	0.204	0.15677	0.073531	0.098898	-0.16458	-1.2354	-0.23958	-0.98542	-1.0875	-0.30625	-1.0792	-0.92708	-0.43542	-1.0979	-0.58125	-0.68958	-1.1583	-0.46458	-0.95208	-0.84583	141.917	185.085	189.924	135.042	322.867	221.442	393.711	384.843	146.429	374.348	411.567	394.110	445.015	450.893	398.598	456.050	0.00040221	0.0010112	0.00017113	1245.7	1.5132e-05	4.8654e-06	848.84	351.98	7.0366e-06	7.3336e-06	232.18	66.279	102.94	28.813	7.8912e-06	18.672	0.0012087	0.001219	0.00033881	1350.9	1.3374e-05	1.3355e-05	973.8	385.53	1.3321e-05	1.3372e-05	309.7	94.514	128.81	36.611	1.3346e-05	31.631	260.990	324.184	415.674	128.595	341.315	228.866	126.971	133.506	145.352	461.336	130.264	136.468	139.014	143.933	206.690	139.564	-8191	255	
1485.603	1	1	0	0	0.18624	0.13768	0.27244	0.32002	0.077125	0.22411	0.22126	0.27635	0.26313	0.14504	0.072598	0.17023	0.10037	0.3762	0.11724	0.076292	0.03125	-1.1854	-0.52292	-0.70625	-1.0604	-0.42708	-1.0646	-1.0333	-0.3375	-1.3229	-0.73333	-0.60625	-1.3667	-0.61042	-0.91667	-1.0208	401.299	454.187	284.038	136.576	472.358	116.582	474.826	378.167	223.464	369.180	408.549	403.606	455.918	351.989	297.399	425.371	0.00041045	0.00048447	5.5115e-05	1241.2	1.1496e-05	6.3298e-06	848.34	353.05	3.6163e-06	1.3892e-05	233.32	66.57	103.79	29.028	5.7019e-06	18.564	0.0012124	0.0012156	0.00033969	1349.5	1.3323e-05	1.3347e-05	974.4	385.59	1.331e-05	1.338e-05	309.97	95.119	129.12	36.853	1.3383e-05	31.769	348.644	225.459	287.647	128.299	275.619	341.677	126.622	133.189	263.139	373.864	129.993	135.563	138.541	143.703	391.863	139.146	-8191	255	
1485.724	1	1	0	0	0.054891	0.20223	0.19753	0.32988	0.049621	0.21739	0.26074	0.1862	0.18039	0.29443	0.39359	0.23242	0.22479	0.31306	0.20992	0.072262	0.04375	-1.15	-0.60625	-0.57292	-1.0854	-0.38125	-0.97083	-1.3188	-0.425	-1.1771	-0.80833	-0.43333	-1.3125	-0.49167	-0.72292	-1.0729	368.305	407.607	202.505	177.955	250.361	290.459	344.028	434.495	423.775	125.677	368.824	292.944	397.731	434.158	381.148	240.605	0.00043666	0.00048355	0.00015737	1236.5	5.1848e-06	5.2677e-06	849.97	353.47	8.6392e-06	4.8544e-06	233.16	67.323	104.03	28.816	1.7317e-05	18.745	0.0012199	0.0012256	0.00034146	1349.3	1.3436e-05	1.3473e-05	973.74	386.28	1.3376e-05	1.3376e-05	310.63	95.3	129.63	36.885	1.3382e-05	31.868	281.964	133.220	123.920	128.314	419.003	325.688	126.601	133.436	268.676	247.455	130.660	136.157	139.268	143.590	190.616	139.986	-8191	255	
1485.820	1	1	0	0	0.23469	0.12463	0.1744	0.11768	0.095506	0.15189	0.17137	0.32075	0.14857	0.13478	0.3203	0.14088	0.2109	0.25746	0.28558	0.14805	-0.035417	-0.84375	-0.81875	-0.38542	-1.1812	-0.47083	-0.97292	-1.225	-0.575	-1.1792	-0.87083	-0.51667	-1.175	-0.61042	-0.41042	-1.15	295.973	360.318	259.133	448.558	177.336	224.811	169.232	421.534	413.989	274.209	458.993	461.203	117.204	118.074	386.702	205.321	0.00042033	0.0011119	0.00030321	1232.7	9.0905e-06	4.3374e-06	840.55	351.68	1.6416e-05	3.6844e-06	231.44	67.201	102.54	28.79	4.3155e-06	18.712	0.0012148	0.001223	0.00034085	1344.1	1.3413e-05	1.3438e-05	968.7	384.78	1.3375e-05	1.3391e-05	308.88	94.706	129.3	36.82	1.3487e-05	31.668	320.569	341.223	442.322	128.240	225.619	438.006	126.804	133.290	285.069	279.193	130.412	136.268	138.921	143.125	243.985	138.915	-8191	255	
1485.892	1	1	0	0	0.26323	0.19251	0.15006	0.32432	0.054382	0.17683	0.17726	0.095361	0.12706	0.11545	0.25706	0.11534	0.30598	0.21289	0.10222	0.2832	0.0041667	-0.76042	-0.84375	-0.34583	-1.225	-0.55625	-0.65625	-1.2354	-0.30625	-0.99583	-1.0104	-0.36667	-1.3479	-0.68958	-0.52083	-1.2062	211.529	404.720	419.815	127.597	198.154	129.598	121.932	361.936	208.963	136.465	422.066	436.250	132.661	128.480	454.792	428.104	0.00026568	0.00055846	0.00044199	1224.9	7.1218e-06	5.3127e-06	836.7	347.39	7.1324e-06	2.9509e-06	228.3	65.47	102.75	28.834	4.4028e-06	18.383	0.0012146	0.0012207	0.00034031	1338.6	1.3382e-05	1.3382e-05	963.16	383.57	1.3356e-05	1.344e-05	307.65	94.146	128.76	36.683	1.3412e-05	31.626	332.273	271.051	188.342	128.319	204.568	368.414	126.715	133.783	347.655	403.437	130.472	136.196	138.715	143.844	404.926	139.837	-8191	255	
#DATA ENDS
