BOXY.EXE: ISS Imagent and Oximeter Data Acquisition Program Version 0.80
Ascii Record File

#ACQ INFORMATION
2  Detector Channels 
16  External MUX Channels 
1  Auxiliary Channels 
5000  Waveform (CCF) Frequency (Hz)
1  Waveforms Skipped 
30  Waveforms Averaged 
1  Cycles Averaged 
16  Acquisitions per Waveform 
10.0806  Updata Rate (Hz) 

#FILE INFORMATION
TRUE -- External MUX Channel results are PARSED.
FALSE -- AC DC and Phase are NOT grouped.
TRUE -- Companion Program Settings File CREATED.
FALSE -- AC data not excluded
FALSE -- DC data not excluded
FALSE -- Phase data not excluded
FALSE -- Auxillary Chn. data not excluded
Tab delimiters

#CALIBRATION STATE
TRUE -- Waveform Calibration Values APPLIED.


#AUX CALIBRATION VALUES
Val Type	aux-1	

Term	1.0000e+00	
Factor	0.0000e+00	


#WF CALIBRATION VALUES
A = Detector Channel
Val Type	A-AC1	A-AC2	A-AC3	A-AC4	A-AC5	A-AC6	A-AC7	A-AC8	A-AC9	A-AC10	A-AC11	A-AC12	A-AC13	A-AC14	A-AC15	A-AC16	A-DC1	A-DC2	A-DC3	A-DC4	A-DC5	A-DC6	A-DC7	A-DC8	A-DC9	A-DC10	A-DC11	A-DC12	A-DC13	A-DC14	A-DC15	A-DC16	A-Ph1	A-Ph2	A-Ph3	A-Ph4	A-Ph5	A-Ph6	A-Ph7	A-Ph8	A-Ph9	A-Ph10	A-Ph11	A-Ph12	A-Ph13	A-Ph14	A-Ph15	A-Ph16	

Term	0.00000e+00	0.00000e+00	0.00000e+00	0.00000e+00	0.00000e+00	0.00000e+00	0.00000e+00	0.00000e+00	0.00000e+00	0.00000e+00	0.00000e+00	0.00000e+00	0.00000e+00	0.00000e+00	0.00000e+00	0.00000e+00	0.00000e+00	0.00000e+00	0.00000e+00	0.00000e+00	0.00000e+00	0.00000e+00	0.00000e+00	0.00000e+00	0.00000e+00	0.00000e+00	0.00000e+00	0.00000e+00	0.00000e+00	0.00000e+00	0.00000e+00	0.00000e+00	0.00000e+00	0.00000e+00	0.00000e+00	0.00000e+00	0.00000e+00	0.00000e+00	0.00000e+00	0.00000e+00	0.00000e+00	0.00000e+00	0.00000e+00	0.00000e+00	0.00000e+00	0.00000e+00	0.00000e+00	0.00000e+00	
Factor	1.00000e+00	1.00000e+00	1.00000e+00	1.00000e+00	1.00000e+00	1.00000e+00	1.00000e+00	1.00000e+00	1.00000e+00	1.00000e+00	1.00000e+00	1.00000e+00	1.00000e+00	1.00000e+00	1.00000e+00	1.00000e+00	1.00000e+00	1.00000e+00	1.00000e+00	1.00000e+00	1.00000e+00	1.00000e+00	1.00000e+00	1.00000e+00	1.00000e+00	1.00000e+00	1.00000e+00	1.00000e+00	1.00000e+00	1.00000e+00	1.00000e+00	1.00000e+00	X	X	X	X	X	X	X	X	X	X	X	X	X	X	X	X	

B = Detector Channel
Val Type	B-AC1	B-AC2	B-AC3	B-AC4	B-AC5	B-AC6	B-AC7	B-AC8	B-AC9	B-AC10	B-AC11	B-AC12	B-AC13	B-AC14	B-AC15	B-AC16	B-DC1	B-DC2	B-DC3	B-DC4	B-DC5	B-DC6	B-DC7	B-DC8	B-DC9	B-DC10	B-DC11	B-DC12	B-DC13	B-DC14	B-DC15	B-DC16	B-Ph1	B-Ph2	B-Ph3	B-Ph4	B-Ph5	B-Ph6	B-Ph7	B-Ph8	B-Ph9	B-Ph10	B-Ph11	B-Ph12	B-Ph13	B-Ph14	B-Ph15	B-Ph16	

Term	0.00000e+00	0.00000e+00	0.00000e+00	0.00000e+00	0.00000e+00	0.00000e+00	0.00000e+00	0.00000e+00	0.00000e+00	0.00000e+00	0.00000e+00	0.00000e+00	0.00000e+00	0.00000e+00	0.00000e+00	0.00000e+00	0.00000e+00	0.00000e+00	0.00000e+00	0.00000e+00	0.00000e+00	0.00000e+00	0.00000e+00	0.00000e+00	0.00000e+00	0.00000e+00	0.00000e+00	0.00000e+00	0.00000e+00	0.00000e+00	0.00000e+00	0.00000e+00	-2.96995e+01	-1.33769e+02	-1.26516e+02	-1.84058e+02	-3.99527e+01	-6.47538e+01	-1.56688e+02	-1.62015e+02	-4.30249e+01	-7.73077e+01	-1.71935e+02	-1.70049e+02	-1.80086e+02	-1.77848e+02	-5.58511e+01	-1.50534e+02	
Factor	2.88775e-05	1.68689e-04	4.92294e-05	1.52286e-01	1.73567e-06	1.67541e-06	1.71212e-01	6.27324e-02	1.47108e-06	2.05293e-06	9.73605e-02	3.15056e-02	2.51475e-02	1.01407e-02	1.80213e-06	1.43710e-02	4.62138e-06	5.26198e-06	1.46997e-06	7.92126e-02	5.64241e-08	5.80173e-08	8.33705e-02	3.25776e-02	5.66462e-08	5.81525e-08	4.88203e-02	1.58724e-02	1.31955e-02	5.30411e-03	5.73294e-08	7.26215e-03	X	X	X	X	X	X	X	X	X	X	X	X	X	X	X	X	



#DISTANCE SETTINGS
A = Detector Channel
A-1	A-2	A-3	A-4	A-5	A-6	A-7	A-8	A-9	A-10	A-11	A-12	A-13	A-14	A-15	A-16	

2.5000e+00	3.0000e+00	2.5000e+00	3.0000e+00	2.0000e+00	3.0000e+00	1.5000e+00	3.0000e+00	3.0000e+00	3.0000e+00	3.0000e+00	3.0000e+00	3.0000e+00	3.0000e+00	1.5000e+00	3.0000e+00	

B = Detector Channel
B-1	B-2	B-3	B-4	B-5	B-6	B-7	B-8	B-9	B-10	B-11	B-12	B-13	B-14	B-15	B-16	

1.0000e+01	1.0000e+01	1.0000e+01	1.4400e+00	1.0000e+01	1.0000e+01	1.5100e+00	1.9400e+00	1.0000e+01	1.0000e+01	1.9900e+00	2.4900e+00	2.4100e+00	2.9000e+00	1.0000e+01	2.9800e+00	




#DATA BEGINS
time	group	step	mark	flag	A-AC1	A-AC2	A-AC3	A-AC4	A-AC5	A-AC6	A-AC7	A-AC8	A-AC9	A-AC10	A-AC11	A-AC12	A-AC13	A-AC14	A-AC15	A-AC16	A-DC1	A-DC2	A-DC3	A-DC4	A-DC5	A-DC6	A-DC7	A-DC8	A-DC9	A-DC10	A-DC11	A-DC12	A-DC13	A-DC14	A-DC15	A-DC16	A-Ph1	A-Ph2	A-Ph3	A-Ph4	A-Ph5	A-Ph6	A-Ph7	A-Ph8	A-Ph9	A-Ph10	A-Ph11	A-Ph12	A-Ph13	A-Ph14	A-Ph15	A-Ph16	B-AC1	B-AC2	B-AC3	B-AC4	B-AC5	B-AC6	B-AC7	B-AC8	B-AC9	B-AC10	B-AC11	B-AC12	B-AC13	B-AC14	B-AC15	B-AC16	B-DC1	B-DC2	B-DC3	B-DC4	B-DC5	B-DC6	B-DC7	B-DC8	B-DC9	B-DC10	B-DC11	B-DC12	B-DC13	B-DC14	B-DC15	B-DC16	B-Ph1	B-Ph2	B-Ph3	B-Ph4	B-Ph5	B-Ph6	B-Ph7	B-Ph8	B-Ph9	B-Ph10	B-Ph11	B-Ph12	B-Ph13	B-Ph14	B-Ph15	B-Ph16	aux-1	digaux	

1002.933	1	1	0	768	0.20891	0.1939	0.12655	0.36494	0.21733	0.11098	0.31126	0.25194	0.19989	0.055505	0.18411	0.20007	0.16537	0.10321	0.23188	0.027736	0.52083	-0.7375	0.10208	-0.10417	-0.54583	0.26667	-0.43958	-0.61667	0.26667	-0.55833	-0.27917	0.041667	-0.72708	0.11875	0.05625	-0.61875	71.942	383.937	160.067	89.393	139.099	203.035	305.927	360.537	87.716	118.254	28.760	216.388	248.189	104.856	73.383	58.044	0.00055001	0.00030261	0.00018508	1357.9	7.1162e-06	5.5717e-06	1361.9	367.05	8.6418e-06	6.5898e-06	416.92	140.5	121.53	41.744	8.6851e-06	51.859	0.00059836	0.00060286	0.00017135	1382.5	6.5963e-06	6.679e-06	1380.8	374.9	6.765e-06	6.7822e-06	427.43	143.72	124.88	43.096	7.01e-06	53.314	240.143	102.624	118.694	40.893	213.958	164.991	40.919	45.730	210.198	165.054	44.957	49.791	50.489	54.066	199.946	53.761	-8191	255	
1003.029	1	1	0	0	0.23909	0.21921	0.22151	0.4325	0.26275	0.21637	0.2371	0.060218	0.26591	0.14917	0.18822	0.27566	0.36622	0.055489	0.16411	0.1396	0.54167	-0.48958	0.025	-0.11458	-0.67083	0.17708	-0.33958	-0.83125	0.24792	-0.48542	-0.30417	0.10417	-0.66042	0.064583	-0.16875	-0.53542	124.225	264.748	318.012	376.391	83.041	162.080	289.094	133.248	64.718	382.217	384.146	134.713	369.153	386.627	289.907	222.460	0.00055896	0.00057086	0.00016405	1359.1	8.9272e-06	5.9714e-06	1358.6	366.64	8.3539e-06	8.2095e-06	419.16	139.98	122.17	41.791	7.1746e-06	51.907	0.00061969	0.00061776	0.00017664	1381.2	6.8218e-06	6.9033e-06	1381.1	375.33	6.8599e-06	6.9566e-06	427.53	143.57	125.02	43.086	6.8361e-06	53.372	249.158	105.044	117.600	41.000	235.968	178.414	40.928	45.649	231.966	139.073	45.088	50.058	50.185	54.491	221.942	53.423	-8191	255	
1003.125	1	1	0	0	0.18192	0.144	0.10204	0.061769	0.13719	0.24234	0.14614	0.18485	0.044121	0.17836	0.11964	0.032591	0.16919	0.11534	0.28353	0.2923	0.59583	-0.43542	-0.375	0.020833	-0.63333	0.010417	-0.077083	-0.7375	0.060417	-0.34375	-0.34375	0.1875	-0.70833	-0.23542	-0.045833	-0.65833	231.088	210.760	167.764	354.455	290.894	269.671	352.200	363.978	223.183	335.705	122.102	47.877	116.558	90.333	312.004	314.085	0.00054502	0.00030794	0.00018538	1357	4.8399e-06	4.5927e-06	1366.3	367.15	5.2628e-06	9.5745e-06	417.59	140.41	122.09	41.749	8.0914e-07	51.764	0.00060929	0.00062386	0.0001742	1381.6	6.7817e-06	6.9371e-06	1382.7	375.26	6.8309e-06	6.9278e-06	427.72	143.61	125.04	43.146	6.875e-06	53.344	239.900	116.767	136.912	40.881	207.906	149.240	40.923	45.849	221.591	149.495	44.798	49.730	50.115	54.534	219.389	53.558	-8191	255	
1003.221	1	1	0	0	0.14021	0.26428	0.14809	0.31586	0.05438	0.084475	0.36832	0.28907	0.18585	0.15936	0.022206	0.36476	0.20506	0.27426	0.14245	0.16319	0.66667	-0.27292	-0.30833	0.20417	-0.29792	-0.15208	-0.15	-0.62917	0.17917	-0.30625	-0.80625	0.029167	-0.65625	-0.18125	0.19375	-0.81458	45.392	174.779	41.784	345.168	68.362	90.036	330.417	373.191	185.533	156.098	263.084	327.932	347.388	331.804	238.893	63.391	0.00049658	0.00076816	0.00014248	1355.8	7.6939e-06	8.7109e-06	1365.5	366.43	3.848e-06	5.1058e-06	419.39	140.45	122.55	41.667	6.0823e-06	52.262	0.00061066	0.00062808	0.00017229	1381	6.7344e-06	6.7808e-06	1383	374.74	6.8193e-06	6.8494e-06	427.94	143.58	125.17	43.067	6.9224e-06	53.461	253.251	130.004	126.055	40.889	237.020	162.321	40.766	45.801	177.210	199.540	44.865	49.810	50.356	54.577	238.788	53.642	-8191	255	
1003.315	1	1	0	0	0.138	0.13724	0.20065	0.16851	0.18213	0.093714	0.15549	0.43528	0.066962	0.1604	0.25392	0.16836	0.25487	0.15471	0.39803	0.16893	0.57917	-0.14167	-0.37083	0.097917	-0.46875	-0.19167	-0.10208	-0.75	0.05	-0.064583	-0.56667	0.054167	-0.625	-0.22917	0.2625	-0.68958	112.241	103.903	82.259	382.144	196.476	243.738	321.507	318.344	307.677	169.212	134.008	368.486	338.795	338.494	293.376	259.693	0.00050827	0.00029142	0.00015451	1356.1	7.1607e-06	6.7964e-06	1363.2	368.05	5.8413e-06	6.0264e-06	418.94	141.08	121.94	41.664	4.8016e-06	51.884	0.00060909	0.00062121	0.00017155	1380	6.7456e-06	6.8754e-06	1382.5	375.02	6.8241e-06	6.7607e-06	428.26	143.93	124.96	43.088	6.6066e-06	53.352	247.585	161.298	121.520	41.107	240.459	151.675	40.843	45.923	208.705	156.466	44.898	49.960	50.458	54.436	201.629	53.499	-8191	255	
1003.412	1	1	0	0	0.051927	0.23987	0.1084	0.40889	0.1247	0.32692	0.12833	0.20195	0.25092	0.13286	0.1453	0.18062	0.24361	0.23255	0.17781	0.29839	0.43542	0.060417	-0.52917	0.0125	-0.47917	-0.32917	0.097917	-0.6	-0.035417	0.022917	-0.66458	-0.0125	-0.40208	-0.48958	0.35625	-0.73542	104.348	242.277	242.569	61.258	172.039	95.589	350.421	34.284	68.751	315.078	374.091	313.212	340.095	75.415	78.558	318.118	0.0005136	0.00037887	0.00021401	1361	6.3773e-06	7.9929e-06	1360.1	367.33	3.6619e-06	8.4945e-06	418.59	140.44	122.29	41.832	9.4449e-06	51.98	0.00060997	0.00061841	0.00016661	1383.3	6.7323e-06	6.7133e-06	1379.5	375.1	6.5233e-06	6.6083e-06	427.67	143.87	125.07	43.099	6.4003e-06	53.343	245.511	111.007	137.588	41.023	200.889	178.524	40.999	45.789	173.145	118.087	45.183	49.821	50.389	54.642	191.440	53.904	-8191	255	
1003.532	1	1	0	0	0.2115	0.097844	0.10555	0.14112	0.13402	0.049693	0.17069	0.20227	0.076845	0.33873	0.18533	0.12673	0.41968	0.03071	0.092327	0.35492	0.23333	0.08125	-0.68542	-0.064583	-0.26458	-0.51667	0.09375	-0.67917	-0.052083	0.13542	-0.83333	0.045833	-0.32708	-0.50208	0.15833	-0.55417	108.456	352.803	298.765	387.466	65.844	187.289	55.486	369.765	58.947	85.963	64.166	100.661	336.235	326.865	298.529	337.502	0.00047611	0.00057881	8.981e-05	1355.5	4.5048e-06	5.3503e-06	1361.6	367.96	6.3247e-06	2.2443e-06	418.44	140.16	121.96	41.735	7.6851e-06	51.884	0.00058797	0.00059775	0.00016257	1379	6.4782e-06	6.5019e-06	1380.1	374.6	6.5304e-06	6.5036e-06	427.5	143.59	124.86	43.052	6.3941e-06	53.315	246.119	107.950	132.321	40.923	266.722	212.199	41.086	45.895	236.973	170.727	45.244	50.045	50.710	54.554	223.803	53.975	-8191	255	
1003.628	1	1	0	0	0.36084	0.089488	0.088843	0.48824	0.26537	0.37799	0.16175	0.13821	0.12941	0.15441	0.091225	0.22507	0.14323	0.039602	0.17433	0.25842	0.20417	0.095833	-0.70833	-0.10208	-0.15	-0.46875	-0.0041667	-0.47917	-0.16667	0.0020833	-0.67083	-0.070833	0.035417	-0.48125	0.41458	-0.48333	174.789	198.380	197.425	381.029	220.385	220.279	339.312	328.820	176.347	275.113	270.715	308.575	313.446	114.665	112.376	50.122	0.0004584	0.00042793	0.00011788	1357	8.4524e-06	1.6249e-06	1363.3	368.58	6.6391e-06	3.2599e-06	418.93	140.45	122.1	41.899	3.6071e-06	52.003	0.00059499	0.00060524	0.00016619	1380.2	6.6726e-06	6.5985e-06	1380.4	375.35	6.6419e-06	6.6955e-06	427.91	143.99	124.93	43.128	6.7762e-06	53.397	250.244	123.325	101.252	41.020	220.091	188.674	41.168	46.185	194.833	134.901	45.198	50.082	50.594	54.653	186.024	53.733	-8191	255	
1003.725	1	1	0	0	0.22499	0.21109	0.26312	0.2534	0.36534	0.34467	0.27047	0.28883	0.14761	0.20689	0.19864	0.082776	0.34393	0.22758	0.080594	0.31476	-0.10833	0.35833	-0.52917	-0.13958	0.11875	-0.65208	0.054167	-0.5375	-0.40833	0	-0.64167	-0.077083	-0.045833	-0.75208	0.24583	-0.35417	149.477	184.282	253.996	44.118	287.136	326.401	283.004	375.329	54.553	374.150	353.316	370.512	331.175	357.409	344.669	59.365	0.00053742	0.00033584	0.00010808	1360.7	6.6205e-06	4.5482e-06	1363.5	367.23	2.9353e-06	8.3775e-06	418.66	140.33	122.36	41.849	3.262e-06	51.966	0.00061454	0.00061149	0.00017066	1382.2	6.7169e-06	6.5805e-06	1379.8	375.03	6.6347e-06	6.5705e-06	427.83	143.7	125.03	43.147	6.824e-06	53.489	251.367	132.926	155.085	41.180	218.046	225.887	41.100	45.918	215.731	160.888	45.349	49.953	50.458	54.672	242.854	53.921	-8191	255	
1003.821	1	1	0	0	0.17147	0.0658	0.072417	0.19638	0.27115	0.28683	0.30591	0.34615	0.33503	0.02901	0.22539	0.1251	0.17401	0.13393	0.098351	0.17955	-0.0625	0.25833	-0.40417	-0.31667	0.125	-0.72292	-0.047917	-0.19375	-0.5625	0.22083	-0.56875	-0.25625	0.0020833	-0.79167	-0.10208	-0.09375	197.123	254.567	250.205	314.925	151.322	321.112	351.850	303.241	45.090	266.039	333.411	355.401	70.606	59.768	276.732	320.539	0.00054459	0.0007087	0.00023183	1357	4.3719e-06	6.638e-06	1359.3	367.36	6.2654e-06	6.3265e-06	418.94	140.66	121.97	42.007	4.0435e-06	51.844	0.00061592	0.00062206	0.00017501	1380.1	6.9445e-06	6.9847e-06	1382.3	375.38	7.1151e-06	7.1609e-06	428.96	143.85	125.18	43.26	7.1747e-06	53.392	241.850	119.130	117.937	41.189	232.510	183.820	41.137	46.356	236.372	170.489	45.245	50.132	50.870	54.594	108.971	53.700	-8191	255	
1003.917	1	1	0	0	0.12669	0.2256	0.13852	0.1017	0.084656	0.10388	0.17833	0.13295	0.15367	0.20249	0.20138	0.20741	0.22746	0.23781	0.082872	0.18471	-0.21667	0.26042	-0.41458	-0.28542	0.25625	-0.58125	-0.13333	-0.18333	-0.48125	0.13542	-0.34583	-0.42917	0.20625	-0.60833	-0.010417	-0.16875	248.269	163.938	325.695	336.447	363.382	44.067	319.419	314.495	76.395	199.543	376.785	324.965	275.718	52.708	362.299	291.482	0.00058427	0.00037732	4.3808e-05	1360.1	7.3112e-06	7.3498e-06	1362.9	369.8	5.208e-06	9.4606e-06	417.45	140.48	122.02	41.768	4.3666e-06	51.685	0.00064266	0.00064552	0.00018221	1383.5	7.1428e-06	7.2031e-06	1383.2	376	7.0351e-06	7.2526e-06	428.81	143.98	125.09	43.195	7.0608e-06	53.345	239.271	161.571	198.547	41.178	225.769	174.853	41.186	46.266	215.291	173.157	45.365	50.095	50.610	54.670	154.416	54.236	-8191	255	
1004.013	1	1	0	0	0.27425	0.35373	0.10754	0.11253	0.12208	0.19832	0.17333	0.27773	0.1772	0.041095	0.19327	0.26089	0.2805	0.11444	0.14854	0.24967	-0.22292	0.39583	-0.29375	-0.4625	0.2375	-0.37292	-0.44583	-0.089583	-0.59167	0.27292	-0.35625	-0.46458	0.25208	-0.57292	-0.11042	-0.0020833	87.590	326.631	192.729	53.698	376.233	115.602	326.370	316.847	287.887	171.106	385.742	359.291	48.132	346.165	109.193	118.564	0.00049201	0.00036593	0.00022634	1358.9	5.7367e-06	3.2085e-06	1366.8	368.66	3.7602e-06	4.3836e-06	421.57	140.28	122.45	41.936	1.957e-06	51.707	0.00063645	0.00064307	0.00017939	1382.2	6.9601e-06	7.0968e-06	1382.6	376	7.0298e-06	6.9737e-06	429.58	143.98	125.26	43.184	7.0146e-06	53.331	255.883	97.029	141.153	41.199	215.182	185.793	41.209	46.094	210.880	131.280	45.361	50.022	50.862	54.739	153.941	53.895	-8191	255	
1004.132	1	1	0	0	0.28232	0.14669	0.11167	0.18634	0.16469	0.073643	0.19042	0.34957	0.18533	0.11376	0.33051	0.21277	0.096708	0.14525	0.2158	0.023735	-0.15625	0.21667	0.0041667	-0.74167	0.36458	-0.50417	-0.49583	0.052083	-0.40625	0.17292	-0.08125	-0.60417	0.060417	-0.31667	-0.42083	0.11042	352.050	149.896	344.073	325.809	50.152	357.586	385.362	353.821	286.580	140.051	343.335	289.625	115.714	119.599	96.285	334.348	0.00058568	0.00054492	0.00019865	1355.1	7.2743e-06	8.6689e-06	1363.7	368.02	6.6089e-06	7.5369e-06	421.02	140.91	122.31	41.982	5.4643e-06	51.894	0.00063305	0.00064757	0.00018109	1381.1	6.8987e-06	7.1738e-06	1381.7	375.73	6.9975e-06	7.0558e-06	428.77	144.2	125.1	43.211	7.0787e-06	53.485	251.449	121.605	129.542	41.153	191.621	176.355	41.169	46.273	220.353	166.006	45.576	50.248	50.825	54.596	220.580	53.857	-8191	255	
1004.228	1	1	0	0	0.059783	0.092954	0.16514	0.077693	0.25904	0.15976	0.22651	0.19386	0.33574	0.12996	0.33802	0.07546	0.081107	0.18436	0.17211	0.17756	-0.18333	0.2125	0.27917	-0.75625	0.13542	-0.38333	-0.61042	0.060417	-0.53333	-0.045833	-0.15625	-0.67917	0.12083	-0.40833	-0.22917	0.089583	350.047	242.452	157.426	358.132	236.031	251.570	324.385	339.454	384.741	271.904	334.539	67.467	58.786	29.561	325.973	312.131	0.00047613	0.0004988	0.00016603	1355.9	7.1676e-06	4.1939e-06	1365.6	369.76	6.0167e-06	1.8326e-06	419.02	140.65	122.34	41.635	3.9516e-06	51.954	0.00063405	0.00064365	0.00017967	1383.1	6.9975e-06	7.0571e-06	1382.5	376.16	6.8557e-06	7.0352e-06	427.93	144.01	125.07	43.156	7.0764e-06	53.42	254.635	160.181	127.370	41.468	221.011	182.928	41.404	46.404	258.581	220.492	45.598	50.440	50.915	54.862	169.140	53.997	-8191	255	
1004.324	1	1	0	0	0.10774	0.13601	0.46409	0.22463	0.3038	0.23955	0.25596	0.075614	0.10699	0.13265	0.11494	0.023956	0.24031	0.071876	0.11201	0.2462	-0.21458	0.041667	0.12917	-0.85417	0.14792	-0.18125	-0.41042	0.14792	-0.33125	-0.32083	-0.095833	-0.70625	0.022917	-0.33125	-0.62083	0.19792	219.914	41.645	364.975	376.200	147.852	314.830	300.174	343.213	150.548	341.392	154.395	209.378	287.351	169.924	191.144	52.774	0.00050374	0.00073478	9.4511e-05	1357.8	3.8456e-06	4.0932e-06	1365.8	367.85	7.9316e-06	4.5374e-06	419.65	140.54	121.84	41.967	6.802e-06	52.132	0.00063226	0.00064133	0.00017904	1382.3	6.9191e-06	7.1127e-06	1382.1	375.68	7.0634e-06	6.9241e-06	428.47	144.01	124.87	43.157	6.8857e-06	53.436	250.406	96.093	88.360	41.405	250.797	167.057	41.516	46.321	240.282	177.315	45.499	50.551	50.719	54.975	164.740	54.173	-8191	255	
1004.420	1	1	0	0	0.047716	0.2009	0.16438	0.35987	0.18354	0.083275	0.33719	0.054102	0.04627	0.048529	0.17858	0.27732	0.14371	0.38231	0.092993	0.33487	0.16042	-0.1875	0.20208	-0.99167	0.014583	0.06875	-0.65	0.0020833	-0.49583	-0.20208	0.13125	-0.67708	-0.016667	-0.091667	-0.65625	0.23333	207.310	100.308	229.909	359.663	341.056	99.676	350.582	163.878	97.814	170.881	225.822	372.769	49.358	339.510	238.960	387.769	0.00053627	0.00050907	0.00015158	1357.7	7.5712e-06	2.3382e-06	1365.9	367.91	5.0655e-06	4.4487e-06	418.71	140.73	121.87	42.103	6.1322e-06	51.566	0.0006277	0.00064031	0.00017338	1382.8	6.9453e-06	6.8875e-06	1383.3	375.56	6.9126e-06	7.0016e-06	428.27	143.82	124.81	43.2	6.7829e-06	53.266	251.550	97.646	113.384	41.368	239.545	234.537	41.337	46.478	237.346	155.777	45.448	50.652	50.960	55.251	232.156	54.113	-8191	255	
1004.492	1	1	0	0	0.065152	0.024734	0.32203	0.21603	0.039945	0.2962	0.42943	0.28384	0.19344	0.31528	0.21097	0.11893	0.24621	0.24179	0.031772	0.21969	0.16667	-0.4625	0.15833	-0.78542	-0.00625	0.054167	-0.88958	0.14792	-0.49167	-0.34583	0.020833	-0.71042	-0.30625	0.016667	-0.85833	-0.11042	92.843	97.259	294.800	332.989	115.723	251.492	303.940	386.025	57.859	165.722	238.316	369.473	68.880	251.871	236.286	93.501	0.00056428	0.00048872	0.00015471	1360.1	1.1551e-05	3.947e-06	1365.2	367.55	5.0135e-06	6.579e-06	420.6	141.17	122.16	41.912	1.0374e-05	51.914	0.00061476	0.00061695	0.00017334	1381.6	6.9339e-06	6.7971e-06	1382.9	375.14	6.8881e-06	6.7441e-06	428.55	143.95	125.02	43.142	6.7646e-06	53.423	255.844	77.102	118.034	41.569	244.111	198.027	41.638	46.259	192.419	169.434	45.588	50.792	50.948	55.107	214.328	54.546	-8191	255	
1004.613	1	1	0	0	0.13215	0.29531	0.057449	0.23604	0.25604	0.17017	0.25522	0.0079136	0.20057	0.15327	0.037949	0.1718	0.30366	0.098485	0.1882	0.13502	0.29167	-0.54167	0.10833	-0.68125	-0.14583	0.1125	-0.93542	0.020833	-0.25208	-0.49792	0.24583	-0.49792	-0.40625	0.025	-0.58333	0.010417	374.101	58.856	183.084	46.483	371.489	279.182	314.255	88.902	77.593	54.544	325.427	281.702	68.906	148.337	120.508	213.737	0.00049778	0.00062204	0.00016981	1362.4	4.2168e-06	6.8543e-06	1362.5	368.17	4.4174e-06	6.5837e-06	419.44	141.18	122.19	41.825	9.6805e-06	51.964	0.00061321	0.00062541	0.00017578	1383	6.8734e-06	6.7503e-06	1380.1	375.56	6.8106e-06	6.8951e-06	428.06	143.99	125.12	43.105	6.8272e-06	53.355	256.730	113.476	177.110	41.681	211.133	175.663	41.634	46.593	194.718	185.143	45.720	50.638	51.124	55.656	202.927	54.426	-8191	255	
1004.709	1	1	0	0	0.11434	0.1252	0.044906	0.23756	0.10239	0.13027	0.25153	0.13379	0.094658	0.24599	0.38958	0.38714	0.16688	0.23396	0.19067	0.066556	0.28333	-0.51667	0.33958	-0.6375	-0.45625	0.35417	-0.74167	-0.085417	0.2	-0.46875	0.010417	-0.30833	-0.46458	0.13333	-0.44167	-0.03125	240.417	183.802	279.393	43.299	98.675	123.754	293.705	259.358	323.538	297.170	250.008	325.770	67.227	44.770	92.292	383.391	0.0005242	0.00076879	0.00021715	1359.7	5.7966e-06	9.0258e-06	1362.2	367.36	3.5773e-06	4.4318e-06	420.79	140.39	122.18	41.688	4.9009e-06	52.012	0.00062053	0.00062539	0.00017676	1381.2	6.8352e-06	6.7601e-06	1380.7	375.28	6.7934e-06	6.7728e-06	427.22	143.89	125.11	43.201	6.9486e-06	53.325	246.432	94.100	113.407	41.802	236.096	215.643	41.684	46.761	211.122	191.687	45.782	50.799	51.196	55.626	203.478	54.537	-8191	255	
1004.805	1	1	0	0	0.065043	0.095205	0.22305	0.15329	0.41277	0.18717	0.23569	0.11336	0.22863	0.078193	0.012407	0.083753	0.14295	0.21884	0.097781	0.14306	0.34792	-0.60625	0.28958	-0.54583	-0.30208	0.45208	-0.56042	-0.070833	0.14583	-0.53958	0.13958	-0.3125	-0.45208	0.21667	-0.42292	-0.20208	200.622	62.972	362.960	335.903	80.466	264.339	344.762	38.061	346.720	271.105	368.347	86.504	282.951	50.843	301.450	301.522	0.00060718	0.00068858	0.00021063	1358.2	1.6137e-06	5.4645e-06	1361.6	368.1	3.3272e-06	5.3845e-06	418.76	141.24	122.71	41.56	7.2933e-06	51.933	0.00062497	0.0006366	0.00017786	1381.5	6.7641e-06	6.8262e-06	1381.2	375.53	6.8731e-06	6.9369e-06	428.14	143.97	125.08	43.086	6.8512e-06	53.424	244.181	120.655	115.293	41.716	189.088	158.471	41.708	46.958	168.884	146.759	45.926	50.602	51.167	55.301	182.280	54.348	-8191	255	
1004.926	1	1	0	0	0.20163	0.09853	0.22343	0.52785	0.10934	0.1028	0.44432	0.13565	0.16523	0.21558	0.42598	0.14073	0.1849	0.062506	0.26253	0.17557	0.6625	-0.60417	0.2375	-0.42292	-0.35833	0.15	-0.76667	-0.44583	0.20625	-0.54583	-0.05625	-0.21875	-0.78125	0.12083	-0.37708	-0.44583	383.342	169.866	244.558	360.503	381.071	301.414	340.941	384.792	196.889	252.199	376.806	351.977	297.723	180.100	62.213	384.909	0.00048844	0.00029198	0.00013036	1360.3	7.3163e-06	6.5798e-06	1359.9	366.97	3.5429e-06	6.5997e-06	418.05	140.82	122.22	41.695	1.0156e-05	52.096	0.00061335	0.00063532	0.00017536	1383	6.8619e-06	6.8805e-06	1379.7	375.11	6.705e-06	6.8036e-06	427.76	143.86	125.05	43.083	6.8134e-06	53.459	248.012	101.174	85.512	41.942	196.002	153.950	41.727	46.650	207.763	159.401	46.049	51.154	51.288	55.332	210.289	54.604	-8191	255	
1005.020	1	1	0	0	0.17007	0.11788	0.11628	0.22896	0.13825	0.030881	0.36245	0.18014	0.18329	0.14184	0.1663	0.15164	0.18626	0.17113	0.16646	0.2636	0.40625	-0.58958	0.0083333	-0.24583	-0.67917	0.22708	-0.85833	-0.58958	0.22292	-0.44583	-0.11667	-0.029167	-0.62708	0.15417	-0.029167	-0.58542	229.462	168.585	267.111	308.503	115.459	277.125	329.724	67.865	158.925	106.674	359.242	284.058	89.004	349.744	109.478	41.281	0.00048113	0.00068035	0.00015114	1357.9	7.5898e-06	4.0542e-06	1363.3	366.99	5.9647e-06	7.7989e-06	417.63	140.65	121.86	41.804	3.1556e-06	51.844	0.00061035	0.00063302	0.00017517	1380.4	6.7215e-06	6.8561e-06	1381	374.64	6.6594e-06	6.7852e-06	427.08	143.85	125.06	43.089	6.8419e-06	53.339	250.538	99.706	142.884	42.134	241.022	169.424	42.114	47.133	260.208	163.581	46.357	51.298	51.269	55.522	186.025	54.612	-8191	255	
1005.093	1	1	0	0	0.11513	0.080581	0.123	0.038713	0.3137	0.20918	0.14983	0.19582	0.094333	0.34242	0.25516	0.04858	0.23556	0.11622	0.20658	0.11632	0.56875	-0.45208	0.1	0.0020833	-0.57083	0.17083	-0.43333	-0.72917	0.25833	-0.375	-0.22708	0.22292	-0.75833	0.17917	0.054167	-0.63333	72.471	120.832	197.811	140.967	88.677	253.688	312.999	330.876	156.495	182.635	286.784	66.951	59.701	206.321	170.079	236.003	0.00062529	0.00055227	8.8971e-05	1355	4.6453e-06	3.5436e-06	1360.6	368.13	5.1597e-06	5.8912e-06	418.01	140.78	122.4	41.647	8.584e-06	52.096	0.00060982	0.00062175	0.00017456	1380.8	6.8205e-06	6.8558e-06	1380.5	374.98	6.7967e-06	6.7595e-06	426.9	143.94	124.98	43.094	6.7016e-06	53.328	245.562	90.647	145.330	42.216	237.004	162.724	42.121	47.161	205.217	192.522	46.092	51.273	51.717	55.742	208.598	54.640	-8191	255	
1005.214	1	1	0	0	0.098005	0.071119	0.19478	0.3832	0.17589	0.21383	0.26456	0.11436	0.11234	0.25558	0.20224	0.18527	0.040666	0.21445	0.077248	0.2555	0.66458	-0.6	-0.10833	-0.052083	-0.60833	0.16042	-0.23542	-0.64792	0.28125	-0.64792	-0.51458	0.19167	-0.675	-0.24167	0.0041667	-0.70417	355.152	294.972	137.085	338.646	315.500	180.338	42.026	278.017	121.115	68.812	316.260	353.025	187.796	76.869	73.538	296.743	0.00052192	0.00062956	0.0001444	1353.7	5.1194e-06	4.1137e-06	1359.3	367.28	7.1763e-06	7.1408e-06	417.98	140.58	122.45	41.767	7.3663e-06	51.894	0.00061115	0.00061688	0.00017176	1380.6	6.8057e-06	6.791e-06	1379.8	374.95	6.7613e-06	6.8323e-06	426.71	143.91	125.22	43.146	6.6969e-06	53.275	246.291	97.893	146.268	42.318	229.997	194.862	42.381	47.104	190.171	179.071	46.400	51.500	51.843	55.954	220.575	54.965	-8191	255	
1005.308	1	1	0	0	0.17797	0.18184	0.10107	0.13365	0.05767	0.12886	0.15604	0.11207	0.36067	0.10187	0.093445	0.22828	0.044079	0.20586	0.16402	0.19235	0.51667	-0.22708	-0.35625	0.033333	-0.28542	0.05625	-0.29792	-0.75625	0.125	-0.38958	-0.66458	-0.070833	-0.49583	-0.13958	0.15833	-0.69167	198.077	361.117	163.032	387.163	111.703	111.920	59.013	277.942	374.445	315.066	263.431	386.321	153.878	290.462	220.635	67.926	0.00057003	0.00062513	0.00010183	1353.9	7.777e-06	2.0115e-06	1358.7	369.04	4.4139e-06	8.3353e-06	420.09	140.99	122.06	41.91	6.3862e-06	51.994	0.00061898	0.00061658	0.00016913	1378.6	6.8764e-06	6.7879e-06	1380.1	375.87	6.8966e-06	6.8948e-06	427.87	143.81	124.96	43.193	6.9051e-06	53.429	245.745	103.273	119.168	42.391	211.549	167.373	42.170	47.197	266.286	141.059	46.399	51.155	51.873	56.077	193.250	54.972	-8191	255	
1005.405	1	1	0	0	0.060371	0.16709	0.08761	0.27369	0.19193	0.10567	0.22047	0.098091	0.29947	0.2846	0.065788	0.18171	0.17837	0.22318	0.020499	0.17191	0.42083	-0.15	-0.51042	0.060417	-0.54167	0.10208	-0.12708	-0.70417	0.21042	-0.089583	-0.57917	0.18333	-0.60833	-0.30625	0.21875	-0.47917	172.315	221.864	261.881	49.169	266.824	258.716	150.739	106.059	190.394	287.807	180.134	260.921	314.147	337.053	58.204	200.548	0.00058699	0.00053452	0.0002685	1358.3	3.8417e-06	5.9147e-06	1361.2	367.61	3.2124e-06	5.7771e-06	418.84	140.66	122.79	41.745	6.8957e-06	52.052	0.00062876	0.00062948	0.00017624	1381.5	7.0505e-06	6.9082e-06	1380.7	375.36	7.0683e-06	7.011e-06	428.49	143.9	125.28	43.136	6.9931e-06	53.452	253.389	79.653	121.489	42.147	278.888	185.359	41.902	46.690	254.018	160.163	45.959	51.131	51.466	55.394	188.985	54.704	-8191	255	
1005.525	1	1	0	0	0.18468	0.065033	0.3416	0.43669	0.10119	0.092115	0.30813	0.3735	0.19846	0.16622	0.28997	0.19201	0.24141	0.1791	0.089935	0.26006	0.46667	0.0875	-0.55417	0.11667	-0.35	-0.19792	-0.016667	-0.725	-0.035417	0.047917	-0.7625	0.15	-0.15833	-0.37708	0.37708	-0.57708	133.367	164.227	319.089	328.032	37.736	324.853	290.826	380.707	313.943	41.982	46.626	80.980	342.188	215.194	103.357	30.007	0.00056398	0.00041978	0.00018421	1355.6	7.8142e-06	5.9406e-06	1364.1	368.62	3.9292e-06	3.3284e-06	419.92	141.25	122.3	41.885	5.6276e-06	51.817	0.00063677	0.00063746	0.00017685	1381.3	6.9894e-06	6.9809e-06	1381.6	376.01	7.0424e-06	6.9775e-06	429.08	143.92	125.15	43.158	7.1425e-06	53.487	247.242	125.119	126.951	42.084	219.669	175.347	42.191	46.838	241.052	143.226	46.003	51.185	51.251	55.640	243.866	54.811	-8191	255	
1005.621	1	1	0	0	0.12687	0.0077976	0.1527	0.10295	0.15192	0.2929	0.19351	0.2808	0.2069	0.29217	0.13277	0.44903	0.30448	0.17001	0.25534	0.38394	0.28125	0.00625	-0.58125	0.15833	-0.20833	-0.23542	-0.01875	-0.775	-0.020833	0.15208	-0.88333	0.052083	-0.28958	-0.47708	0.23542	-0.64792	237.199	102.310	248.236	363.844	378.256	228.920	335.239	307.304	270.528	295.485	285.461	328.423	319.301	299.491	200.413	303.504	0.00054513	0.00050795	0.0001151	1364	6.7179e-06	6.415e-06	1359.3	369.13	1.2277e-06	6.4048e-06	419.59	140.88	122.57	41.937	8.4392e-06	52.084	0.0006355	0.0006373	0.00017869	1384.4	7.0604e-06	6.9645e-06	1382.3	375.98	7.1218e-06	7.1366e-06	429.09	144.33	125.29	43.197	7.1973e-06	53.546	244.134	126.152	129.233	42.012	209.681	158.691	42.089	47.059	226.766	153.492	46.255	50.961	51.570	55.710	209.825	54.752	-8191	255	
1005.717	1	1	0	0	0.2573	0.35706	0.15824	0.26531	0.13304	0.040736	0.063621	0.19283	0.17919	0.084112	0.25666	0.044588	0.42629	0.11935	0.16815	0.099812	0.29375	-0.029167	-0.67292	-0.20625	-0.13333	-0.56042	-0.045833	-0.6	-0.18333	0.0625	-0.76458	-0.15833	-0.20208	-0.7625	0.28542	-0.6875	65.917	387.606	317.983	341.487	344.371	222.680	36.267	315.254	170.730	131.401	344.900	382.550	383.969	305.333	365.964	333.529	0.00057658	0.00076528	0.00016513	1362.6	6.5001e-06	3.462e-06	1366.3	368.06	7.4631e-06	6.5485e-06	420.05	140.85	121.74	42.124	6.4432e-06	52.014	0.00063139	0.00064258	0.00018291	1382.9	6.9407e-06	7.1122e-06	1381.8	375.94	6.9315e-06	7.0191e-06	428.47	143.81	124.94	43.206	7.0795e-06	53.49	248.653	108.946	99.623	41.729	209.000	210.640	42.167	47.273	208.017	222.082	46.007	51.337	51.544	55.731	190.910	54.701	-8191	255	
1005.789	1	1	0	0	0.02329	0.17121	0.049657	0.16071	0.078541	0.073303	0.19285	0.21844	0.074068	0.26549	0.0971	0.38476	0.34649	0.11054	0.14803	0.051555	-0.014583	0.32708	-0.52708	-0.12292	-0.077083	-0.75417	-0.11458	-0.31458	-0.325	0.077083	-0.69375	-0.0625	-0.12917	-0.7125	0.20833	-0.26042	292.685	145.498	330.459	373.023	119.307	322.490	285.590	224.901	145.457	30.138	51.416	349.371	325.393	168.038	243.897	115.492	0.00063021	0.00022007	0.00017581	1358.5	5.9973e-06	6.9701e-06	1366.3	368.88	2.9838e-06	8.8078e-06	420.28	141.19	122.94	42.026	4.9554e-06	52.13	0.00063345	0.00064228	0.00018023	1382.1	7.0671e-06	7.1245e-06	1383.2	375.9	6.9215e-06	7.1354e-06	428.83	144.23	125.3	43.216	7.1453e-06	53.476	246.670	57.526	120.523	42.130	218.483	162.870	42.304	47.130	198.895	196.602	46.439	51.174	51.932	55.768	194.967	55.041	-8191	255	
1005.910	1	1	0	0	0.12801	0.28862	0.35545	0.24539	0.11562	0.14206	0.24445	0.24042	0.072587	0.066117	0.12683	0.093212	0.052552	0.23017	0.079007	0.22554	0.027083	0.24583	-0.53542	-0.45208	0.19583	-0.76875	0.0041667	-0.275	-0.43125	0.32292	-0.51875	-0.23333	0.08125	-0.96875	0.29792	-0.2375	231.589	151.728	367.355	336.002	365.878	248.610	302.242	29.496	175.399	332.208	378.980	46.267	388.350	369.200	43.325	343.894	0.00056596	0.00047045	0.00010048	1355.7	6.5968e-06	9.2217e-06	1365.6	367.46	3.1568e-06	5.6241e-06	419.03	141	122.25	41.793	4.656e-06	52.062	0.00063229	0.00064716	0.00017999	1381.2	6.9936e-06	7.2064e-06	1383.3	375.15	7.0174e-06	7.2606e-06	428.16	143.98	125.35	43.159	7.1514e-06	53.491	246.902	102.526	179.687	42.201	237.662	174.594	42.278	47.415	236.840	142.339	46.633	51.164	51.933	56.129	224.167	55.111	-8191	255	
1006.006	1	1	0	0	0.19161	0.30954	0.14803	0.292	0.25503	0.15473	0.24417	0.22332	0.38997	0.023673	0.038077	0.13677	0.12454	0.17442	0.18847	0.099255	-0.089583	0.16042	-0.45625	-0.45833	0.14583	-0.46875	-0.10625	-0.2125	-0.58125	0.1625	-0.5125	-0.19583	-0.1	-0.77083	0.10625	-0.041667	54.749	261.480	137.515	364.124	258.721	35.616	314.210	247.692	161.660	163.914	50.134	180.514	389.111	188.659	167.039	248.346	0.00047409	0.00082566	0.00012963	1360.7	6.7486e-06	6.3497e-06	1363.5	367.8	4.37e-06	3.6369e-06	419.72	141.39	122.71	41.936	5.4581e-06	51.939	0.0006356	0.00065354	0.00018045	1382	7.163e-06	7.2064e-06	1382	375.51	7.1006e-06	7.2227e-06	428.67	144.34	125.4	43.293	7.2208e-06	53.501	253.496	141.404	136.283	42.378	217.488	230.296	42.448	47.424	152.075	221.750	46.674	51.211	51.678	55.783	230.730	54.926	-8191	255	
1006.100	1	1	0	0	0.10961	0.15239	0.30466	0.25586	0.1647	0.13434	0.16083	0.21635	0.10542	0.29815	0.27844	0.35161	0.24186	0.15216	0.21806	0.27387	-0.38542	0.25	-0.30208	-0.72917	0.16458	-0.60208	-0.1375	0.085417	-0.56042	0.21875	-0.44583	-0.2625	0.26042	-0.70417	-0.070833	-0.077083	112.173	87.584	352.569	377.207	51.738	386.371	67.285	365.273	56.971	40.392	284.231	379.617	350.690	344.769	224.609	332.078	0.00051875	0.00055648	0.00018452	1357.8	5.6669e-06	4.9228e-06	1368	368.85	4.0032e-06	7.7417e-06	418.67	140.6	122.51	42.18	7.9917e-06	51.764	0.00064747	0.00065081	0.00017731	1382.4	7.1131e-06	7.0868e-06	1383.4	376.02	6.9651e-06	7.0459e-06	428.23	143.97	125.01	43.338	6.8884e-06	53.31	245.495	132.000	124.358	41.840	223.915	205.650	41.829	47.100	188.101	164.029	46.367	50.671	51.239	55.720	196.548	54.932	-8191	255	
1006.196	1	1	0	0	0.19514	0.12774	0.2862	0.41795	0.1091	0.14035	0.23549	0.12379	0.082412	0.041092	0.43642	0.29918	0.23452	0.11738	0.16698	0.36409	-0.34792	0.089583	-0.28125	-0.68958	0.37292	-0.59375	-0.37917	0.20208	-0.55833	0.1625	-0.17708	-0.34792	0.077083	-0.65417	-0.22708	0.125	273.762	76.754	261.435	375.726	63.910	282.247	252.177	66.770	36.197	330.329	35.306	385.598	343.923	259.976	196.308	294.669	0.00059327	0.00056183	6.492e-05	1358.2	6.9146e-06	2.9488e-06	1362.9	367.59	4.917e-06	2.7942e-06	419.89	141.9	122.37	41.909	6.7174e-06	52.071	0.00062116	0.00062279	0.00017438	1381.7	6.8813e-06	6.7543e-06	1380.1	375.33	6.876e-06	6.935e-06	428.27	144.47	125.28	43.152	6.8881e-06	53.428	249.870	122.101	142.297	41.831	239.126	205.575	41.854	46.746	234.245	159.516	46.314	51.131	51.708	55.630	158.957	54.750	-8191	255	
1006.317	1	1	0	0	0.085066	0.22748	0.1482	0.07882	0.099843	0.21315	0.32708	0.029348	0.092959	0.17472	0.18651	0.010438	0.31992	0.11043	0.060298	0.18525	-0.18958	0.20625	-0.029167	-0.70208	0.3375	-0.34792	-0.525	0.29375	-0.54792	-0.15208	-0.19375	-0.60208	0.0375	-0.29792	-0.57083	0.225	308.531	376.921	308.583	295.097	320.302	163.636	351.353	144.357	129.331	42.163	102.421	53.617	320.313	155.739	33.881	248.368	0.00052999	0.00052118	0.00022577	1362.1	7.6522e-06	5.6875e-06	1366.4	369.64	4.7794e-06	3.135e-06	421.71	140.69	122.44	41.828	2.6688e-06	51.958	0.00062091	0.00062474	0.0001746	1383.4	7.0293e-06	6.9366e-06	1382.7	376.25	6.9373e-06	7.0346e-06	429.07	144.07	124.92	43.221	6.92e-06	53.492	246.808	101.816	161.617	41.974	222.780	219.637	41.980	47.159	170.110	197.081	46.321	51.326	51.540	55.799	179.412	54.970	-8191	255	
1006.389	1	1	0	0	0.15217	0.12336	0.3217	0.23439	0.08937	0.1892	0.38891	0.12874	0.25296	0.12513	0.19635	0.19474	0.29333	0.21013	0.085049	0.091254	-0.045833	0.075	0.10208	-0.91458	0.10833	-0.27917	-0.64375	0.014583	-0.40625	-0.27917	0.047917	-0.67083	0.12708	-0.045833	-0.30833	0.29583	276.488	323.254	286.517	323.661	62.317	175.160	365.295	352.423	94.255	39.640	32.752	270.480	365.653	374.986	138.973	82.209	0.00051164	0.00021768	0.0002022	1357.8	5.81e-06	8.1705e-06	1359.6	366.93	9.4988e-06	4.9529e-06	418.24	141.51	122.13	41.758	5.3568e-06	52.047	0.00063412	0.00063755	0.00017701	1380.6	6.8294e-06	6.8365e-06	1379.9	374.91	6.7105e-06	6.8751e-06	427.87	144.1	124.9	43.128	6.7335e-06	53.335	244.538	86.062	156.924	42.459	223.037	152.158	41.973	47.007	206.153	164.699	46.186	51.321	51.701	55.830	220.166	55.174	-8191	255	
1006.485	1	1	0	0	0.085018	0.1814	0.33867	0.12053	0.10027	0.027852	0.15074	0.14859	0.27376	0.23355	0.1723	0.088162	0.19416	0.28307	0.12808	0.19664	-0.24167	-0.13125	0.39167	-0.61458	0.085417	-0.052083	-0.71458	-0.041667	-0.49583	-0.18333	0.1	-0.55208	0.1375	-0.020833	-0.46042	0.11875	226.547	364.820	196.794	318.868	173.000	178.576	329.750	384.209	270.037	192.324	51.704	194.013	307.385	385.670	164.321	360.806	0.00051083	0.00025017	0.00018337	1358.1	6.6121e-06	4.0962e-06	1365.4	367.77	6.0173e-06	7.7981e-06	419.49	141.09	122.08	42.095	6.8568e-06	52.033	0.00061167	0.00061983	0.00017399	1382.7	6.7383e-06	6.7368e-06	1381.4	375.3	6.7987e-06	6.7333e-06	427.89	144.21	124.79	43.236	6.8771e-06	53.323	248.578	77.206	145.209	42.155	243.843	151.108	42.314	47.190	189.504	133.481	46.563	51.523	51.646	56.074	189.816	54.659	-8191	255	
1006.606	1	1	0	0	0.05696	0.25847	0.2044	0.26812	0.3095	0.381	0.47113	0.31946	0.25758	0.1241	0.51241	0.23276	0.1248	0.14302	0.14902	0.2092	-0.10417	-0.26042	0.41667	-0.83542	0.085417	0.0020833	-0.81875	-0.0875	-0.4875	-0.38333	0.24167	-0.7	-0.11458	-0.054167	-0.45833	0.30417	338.677	39.359	368.719	55.421	69.182	194.384	272.165	361.493	183.914	312.583	306.439	371.201	301.617	331.458	88.270	88.180	0.00054215	0.00032325	9.1549e-05	1365	5.8781e-06	5.3621e-06	1369.6	368.15	3.0551e-06	6.4927e-06	418.78	140.01	122.43	42.005	2.1797e-06	52.044	0.00061157	0.00061697	0.00017502	1382.8	6.7824e-06	6.7643e-06	1382.8	375.82	6.7755e-06	6.9917e-06	428.26	143.68	124.93	43.133	6.9419e-06	53.379	255.582	119.172	70.233	42.543	236.384	165.587	42.466	47.470	238.440	158.382	46.624	51.699	51.861	55.945	164.691	55.518	-8191	255	
1006.702	1	1	0	0	0.21724	0.060922	0.23738	0.20606	0.074143	0.065406	0.052454	0.1366	0.22026	0.072307	0.1844	0.13233	0.16104	0.2167	0.13695	0.20883	0.19583	-0.74375	0.058333	-0.78333	-0.13542	0.025	-0.93333	0.0125	0.13958	-0.57708	0.09375	-0.65417	-0.30625	0.16875	-0.44167	-0.00625	64.736	88.598	185.356	65.126	236.389	57.974	107.795	358.981	343.451	312.235	41.460	387.091	338.396	377.474	326.836	330.826	0.00054882	0.0004938	0.00023398	1359.4	7.348e-06	4.7298e-06	1363.4	367.37	6.0276e-06	5.6247e-06	419.4	141.28	122.51	41.839	8.8761e-06	52.008	0.00062328	0.00062497	0.0001763	1382.7	6.8729e-06	6.896e-06	1379.2	374.82	6.7585e-06	6.8007e-06	428.03	144.04	125.02	43.156	6.9143e-06	53.256	247.275	93.508	109.749	42.425	263.794	194.925	42.288	46.985	211.141	143.873	46.529	51.646	51.689	55.911	211.305	55.167	-8191	255	
1006.798	1	1	0	0	0.30251	0.033877	0.28545	0.12213	0.141	0.064739	0.53786	0.20452	0.020304	0.16641	0.2162	0.16265	0.21426	0.17624	0.13823	0.11082	0.325	-0.38542	0.1375	-0.55	-0.23333	0.2625	-0.8875	-0.0083333	0	-0.60208	0.15417	-0.55625	-0.24792	0.24583	-0.61042	-0.058333	294.639	131.272	243.841	75.526	195.950	111.250	361.922	371.351	221.623	314.516	365.221	299.466	331.245	70.660	257.775	65.206	0.00051426	0.00077748	6.5917e-05	1360.5	5.2024e-06	6.5477e-06	1365.2	368.87	8.1072e-06	5.2123e-06	418	140.86	122.48	42.142	9.0447e-06	51.941	0.00060874	0.00062459	0.00017226	1382.5	6.7953e-06	6.7956e-06	1381.5	375.37	6.723e-06	6.7311e-06	427.85	143.95	125.07	43.125	6.7349e-06	53.364	245.564	112.465	117.152	42.597	210.226	210.872	42.386	47.200	249.483	177.241	46.440	51.502	51.976	56.208	192.396	55.138	-8191	255	
1006.894	1	1	0	0	0.095652	0.29761	0.081318	0.21882	0.24524	0.15481	0.35633	0.19265	0.18204	0.16263	0.27941	0.19486	0.079127	0.21925	0.15693	0.22678	0.26042	-0.55	0.22292	-0.6625	-0.27292	0.17083	-0.70417	-0.060417	-0.0041667	-0.73542	0.058333	-0.29792	-0.53125	0.28333	-0.54167	-0.060417	277.337	128.415	147.147	348.474	222.503	126.844	370.315	259.114	151.919	59.518	356.899	251.593	352.842	153.212	341.799	298.909	0.00053443	0.00022056	0.00020769	1359.9	4.8396e-06	3.4045e-06	1368.6	368.8	8.2872e-06	1.1208e-05	420.34	140.87	121.99	41.801	9.5594e-06	51.613	0.00059947	0.00061082	0.00016887	1382	6.8134e-06	6.8364e-06	1382.1	375.35	6.7277e-06	6.8128e-06	427.56	143.79	124.87	43.111	6.6802e-06	53.262	254.506	102.814	133.387	42.413	208.442	133.757	42.106	46.893	218.729	222.158	46.752	51.755	52.101	56.326	197.761	55.531	-8191	255	
1006.990	1	1	0	0	0.14355	0.18441	0.10311	0.1742	0.091041	0.070936	0.31892	0.27805	0.11853	0.016887	0.11301	0.057134	0.071471	0.15062	0.29389	0.15455	0.5875	-0.46875	0.18542	-0.52917	-0.53333	0.32083	-0.85417	-0.31875	0.29375	-0.53333	-0.022917	-0.01875	-0.71458	0.35208	-0.47292	-0.36458	338.699	361.967	54.645	360.205	84.922	316.793	336.205	47.913	96.594	228.165	372.515	334.425	152.485	330.096	259.401	349.618	0.00053335	0.00021589	0.00025424	1357.4	5.8256e-06	2.8195e-06	1359.1	366.86	9.4853e-06	7.7283e-06	418.96	140.75	121.89	41.808	5.7063e-06	52.011	0.00061584	0.00061302	0.00017139	1382.1	6.7478e-06	6.8452e-06	1379.4	375.02	6.7788e-06	6.9e-06	426.97	143.9	125.06	43.1	6.7184e-06	53.447	246.704	129.389	144.326	42.673	225.034	208.588	42.429	47.241	204.995	171.205	46.243	51.224	51.709	55.944	196.715	54.799	-8191	255	
1007.086	1	1	0	0	0.13127	0.35716	0.23991	0.23353	0.04372	0.091252	0.2959	0.35391	0.25847	0.14704	0.14457	0.25469	0.28896	0.053252	0.13696	0.13167	0.54167	-0.44792	0.32292	-0.30417	-0.47292	0.41458	-0.525	-0.43333	0.15208	-0.74167	-0.12292	-0.054167	-0.88333	0.27292	-0.25	-0.52292	216.754	273.393	381.923	328.040	226.312	264.130	321.973	54.475	238.213	77.372	72.531	37.506	377.552	126.754	109.798	77.428	0.00054529	0.00039869	0.00022968	1355.2	6.8407e-06	5.3408e-06	1365.6	366.91	5.0121e-06	5.566e-06	416.38	140.44	122.22	41.854	6.8713e-06	51.907	0.00063006	0.00061537	0.00017049	1380.3	6.896e-06	6.7897e-06	1382.4	375.04	6.7705e-06	6.7723e-06	426.39	143.7	124.94	43.149	6.8555e-06	53.335	249.852	115.770	137.700	42.444	239.718	191.530	42.464	46.821	191.167	140.106	46.247	51.196	51.803	55.854	174.160	54.834	-8191	255	
1007.205	1	1	0	0	0.046777	0.27028	0.1661	0.1495	0.22942	0.058804	0.33823	0.10142	0.2464	0.070524	0.11224	0.40608	0.31566	0.12729	0.054712	0.068442	0.71042	-0.50417	0.00625	-0.097917	-0.68333	0.17708	-0.30417	-0.64167	0.039583	-0.37708	-0.23125	0.014583	-0.75208	-0.03125	-0.13125	-0.64375	237.909	333.443	263.510	378.163	139.023	76.735	306.503	362.397	127.730	260.669	65.994	350.670	328.922	30.508	265.411	269.450	0.00052764	0.00073258	0.00016775	1361.1	7.266e-06	2.0218e-06	1362.4	368.89	3.2188e-06	3.0354e-06	419.32	141.03	122.51	42.124	8.8372e-06	52.018	0.00062088	0.00062828	0.00017539	1382.7	6.8619e-06	6.8691e-06	1381	375.44	6.8023e-06	6.6912e-06	427.7	143.87	125.14	43.15	6.8931e-06	53.375	251.315	99.455	97.036	42.592	202.546	64.714	42.673	47.544	225.532	324.822	46.966	51.842	52.149	56.259	192.038	55.384	-8191	255	
1007.301	1	1	0	0	0.11229	0.14006	0.20455	0.32328	0.2217	0.16906	0.32265	0.20154	0.14773	0.15962	0.45043	0.19108	0.22783	0.25615	0.070584	0.4255	0.77083	-0.35625	-0.21875	0	-0.57708	0.13542	-0.18958	-0.64167	0.18125	-0.47917	-0.48958	0.06875	-0.79375	0.047917	-0.1625	-0.62708	220.372	272.157	311.657	381.521	107.266	202.850	373.417	362.467	353.247	328.576	361.384	309.722	381.149	42.698	381.683	303.125	0.00055806	0.00053238	0.00015697	1363.2	4.5829e-06	3.7306e-06	1364.6	368.16	5.3588e-06	3.3739e-06	418.35	141.09	122.4	41.876	1.643e-06	51.576	0.00061856	0.00060746	0.00017365	1381.5	6.7987e-06	6.7199e-06	1381.7	375.39	6.8339e-06	6.7693e-06	428.19	144.03	125.09	43.096	6.7314e-06	53.267	253.981	122.589	131.771	42.859	208.960	190.990	42.791	47.686	213.596	156.770	46.297	51.454	51.947	56.039	216.905	55.086	-8191	255	
1007.397	1	1	0	0	0.12464	0.078905	0.1106	0.31789	0.04992	0.22816	0.24078	0.24202	0.17947	0.11991	0.096531	0.079548	0.10997	0.28015	0.2089	0.066022	0.55625	-0.33125	-0.31667	0.058333	-0.625	-0.072917	-0.33958	-0.62292	0.058333	-0.17917	-0.53958	0.1	-0.64583	-0.041667	0.079167	-0.75625	252.708	365.143	102.698	358.284	149.968	69.950	359.463	319.048	274.199	325.677	131.074	368.444	311.564	343.851	161.003	370.129	0.00056474	0.00042626	0.00018591	1361.8	8.1607e-06	6.2036e-06	1365.8	368.8	5.1124e-06	8.0949e-06	420.49	140.44	122.16	42.011	3.5364e-06	52.1	0.00061363	0.000614	0.00017088	1382.5	6.7123e-06	6.7709e-06	1381.7	375.28	6.7824e-06	6.7209e-06	428.03	143.86	124.95	43.125	6.7599e-06	53.382	247.726	115.955	131.179	42.153	238.829	180.034	42.132	47.042	240.249	139.829	45.881	51.143	51.735	55.800	214.486	55.031	-8191	255	
1007.494	1	1	0	0	0.10002	0.10604	0.1988	0.32709	0.10705	0.08655	0.28093	0.070646	0.1257	0.21201	0.036582	0.044939	0.32507	0.13179	0.21328	0.2492	0.64167	0.0375	-0.4625	0.1875	-0.48958	-0.32917	-0.11667	-0.825	0.27708	0.079167	-0.67708	0.10625	-0.52708	-0.5	0.28333	-0.85833	296.122	356.025	72.357	374.827	189.150	186.860	81.208	241.112	257.931	373.572	165.690	64.720	326.113	52.585	338.940	325.175	0.00053214	0.00064346	6.2867e-05	1361.9	8.1655e-06	3.9371e-06	1366	368.34	2.9825e-06	6.0183e-06	419.31	140.34	121.98	41.714	5.4713e-06	51.842	0.00060449	0.00060312	0.00016958	1381.5	6.5842e-06	6.6727e-06	1381.7	375	6.6547e-06	6.7351e-06	427.58	143.73	124.97	43.07	6.693e-06	53.283	246.350	125.794	71.090	42.152	241.460	167.040	42.242	46.969	188.936	185.394	46.151	51.437	51.961	55.654	225.541	55.024	-8191	255	
1007.614	1	1	0	0	0.23195	0.25384	0.12305	0.27617	0.18693	0.12755	0.14542	0.12379	0.052289	0.1898	0.019943	0.083657	0.40907	0.3258	0.15761	0.28258	0.63542	-0.097917	-0.53125	-0.020833	-0.65625	-0.22917	0.12292	-0.82083	-0.12708	0.064583	-0.68958	0.125	-0.45625	-0.55625	0.1125	-0.49167	307.950	235.268	280.815	334.873	175.997	165.187	284.790	339.286	73.009	385.195	271.913	295.485	345.661	352.308	316.737	357.534	0.00046872	0.00031544	0.00024556	1360.1	6.2133e-06	4.979e-06	1361.5	368.79	5.5007e-06	5.5731e-06	419	140.25	121.78	41.736	7.4486e-06	51.974	0.00059745	0.0006066	0.00016646	1378.5	6.4457e-06	6.6171e-06	1381	375.36	6.5064e-06	6.5302e-06	427.1	143.57	124.87	43.057	6.524e-06	53.275	253.965	59.844	90.480	42.428	188.214	155.909	42.345	47.482	244.749	198.585	46.339	51.504	52.123	55.933	184.144	55.459	-8191	255	
1007.686	1	1	0	0	0.22367	0.15398	0.15371	0.34937	0.2804	0.14387	0.14951	0.094652	0.081161	0.12507	0.086182	0.17284	0.2662	0.14106	0.082147	0.10478	0.31458	0.1	-0.56042	-0.025	-0.027083	-0.52083	0.066667	-0.59792	-0.24792	0.03125	-0.69583	0.12917	-0.19583	-0.52083	0.1875	-0.65208	124.755	83.829	236.033	344.526	222.715	267.217	132.564	80.238	49.273	246.537	370.368	63.061	285.728	233.103	132.070	303.400	0.00061579	0.00050017	0.00014598	1357.5	5.8152e-06	6.1903e-06	1362.5	368.06	5.7154e-06	4.1133e-06	419.02	140.6	122.34	42.016	5.8004e-06	52.193	0.0005991	0.00058737	0.00016457	1380.3	6.4314e-06	6.5134e-06	1380.3	374.8	6.3932e-06	6.4951e-06	426.8	143.6	124.86	43.102	6.5291e-06	53.367	244.557	138.017	97.321	42.524	224.714	145.365	42.568	47.575	188.702	214.190	46.582	51.551	51.980	56.286	198.908	55.048	-8191	255	
1007.782	1	1	0	0	0.21115	0.17648	0.19386	0.2515	0.10284	0.18644	0.34072	0.4016	0.072232	0.23111	0.12183	0.095913	0.22622	0.39203	0.10545	0.31075	0.17292	0.14167	-0.54583	0.175	-0.066667	-0.60833	0.066667	-0.37292	-0.15833	0.26458	-0.71042	-0.27917	-0.11042	-0.74583	0.23125	-0.525	323.259	39.230	333.633	59.667	138.848	333.247	343.577	351.529	52.579	221.860	242.194	369.624	272.227	62.556	30.342	352.836	0.00057226	0.00038399	5.1109e-05	1356.8	7.7829e-06	1.787e-06	1365.2	368.55	6.7076e-06	3.6464e-06	418.75	140.56	122.16	41.874	6.1497e-06	51.982	0.00059735	0.0005877	0.00016797	1378.7	6.4894e-06	6.5111e-06	1380.2	374.91	6.5739e-06	6.5801e-06	426.61	143.5	124.79	43.061	6.6282e-06	53.355	242.727	93.665	101.481	42.120	193.195	143.676	42.493	47.604	198.756	167.027	46.825	51.469	52.147	56.293	210.843	55.615	-8191	255	
1007.878	1	1	0	0	0.16152	0.17666	0.094312	0.23984	0.090956	0.48717	0.056382	0.1785	0.22396	0.14575	0.18764	0.16919	0.14184	0.035171	0.14141	0.20691	0.175	0.10208	-0.63125	0.035417	0.05625	-0.6625	0.045833	-0.32708	-0.34583	0.08125	-0.76042	-0.06875	-0.045833	-0.72917	0.077083	-0.23125	269.295	201.155	307.018	360.564	196.093	335.796	359.954	351.648	231.159	158.748	187.981	300.312	346.943	267.748	281.386	233.397	0.00056021	0.0006444	0.00014873	1357.2	8.7298e-06	1.2551e-06	1364.6	366.38	3.2583e-06	5.7701e-06	419.83	140.48	122.18	41.901	4.1119e-06	51.848	0.00058787	0.00059656	0.00016682	1379.1	6.5167e-06	6.4632e-06	1379.1	374.92	6.5511e-06	6.429e-06	426.86	143.47	124.78	43.082	6.4117e-06	53.31	241.323	81.851	72.267	42.495	212.690	182.174	42.622	47.720	190.636	253.503	46.743	51.762	52.455	56.439	214.930	55.398	-8191	255	
1007.997	1	1	0	0	0.22252	0.19109	0.2462	0.31045	0.073869	0.2079	0.32592	0.21191	0.078555	0.1102	0.25024	0.18033	0.15464	0.07741	0.17522	0.20227	0.029167	0.57708	-0.67292	-0.43125	0.1875	-0.70417	-0.077083	-0.3	-0.45417	0.42292	-0.61458	-0.35833	0.027083	-0.77292	0.10208	-0.41458	32.942	377.161	289.105	298.553	296.645	205.828	375.595	325.158	41.389	227.994	388.663	41.757	383.987	290.800	250.018	274.367	0.00058088	0.00031258	0.00018032	1360.4	7.0952e-06	5.7012e-06	1366.3	368.94	5.5323e-06	2.062e-06	419.01	140.8	122.04	41.835	6.5673e-06	51.766	0.00058141	0.00058549	0.00016193	1377.4	6.5016e-06	6.4939e-06	1380.3	374.76	6.3749e-06	6.4807e-06	427.15	143.5	124.89	43.087	6.4771e-06	53.271	254.357	148.927	112.003	42.334	205.758	189.776	42.704	47.464	205.254	66.941	46.993	51.630	52.474	56.347	183.666	55.618	-8191	255	
1008.093	1	1	0	0	0.030001	0.11191	0.29155	0.40718	0.16903	0.26897	0.2433	0.1384	0.28143	0.18034	0.28314	0.32851	0.24519	0.21235	0.15312	0.33535	-0.2875	0.225	-0.56667	-0.63958	0.32917	-0.68958	-0.070833	-0.31667	-0.28333	0.24583	-0.55833	-0.19792	0.15833	-0.87292	0.089583	-0.06875	117.588	126.404	40.381	343.705	237.311	73.808	36.552	386.588	31.431	92.484	37.001	32.426	340.815	49.679	209.212	362.303	0.00047931	0.00066438	0.00017445	1355.6	8.6966e-06	2.1563e-06	1361.9	367.49	4.4028e-06	7.1531e-06	419.51	140.61	122.04	41.781	6.2e-06	51.929	0.00058522	0.00059386	0.0001648	1379.5	6.4772e-06	6.4232e-06	1378.3	374.61	6.5156e-06	6.4787e-06	427.41	143.61	124.62	43.007	6.5492e-06	53.231	243.121	121.222	100.686	42.602	226.299	163.093	42.359	47.548	212.890	184.071	46.890	51.556	52.148	55.906	164.759	55.130	-8191	255	
1008.189	1	1	0	0	0.18027	0.16673	0.18305	0.18816	0.15298	0.31304	0.13852	0.14035	0.2127	0.1354	0.22481	0.12405	0.30036	0.2618	0.1928	0.23267	-0.375	0.27708	-0.44375	-0.49792	0.36667	-0.69375	-0.325	-0.01875	-0.8	0.25833	-0.48333	-0.5375	0.25833	-0.92708	-0.20208	-0.13333	109.907	69.696	147.900	315.331	139.112	164.846	381.377	226.783	174.607	367.352	106.581	51.234	69.458	381.294	242.508	254.934	0.00059683	0.00029898	0.00025152	1358	4.8849e-06	5.2414e-06	1361.7	367.23	5.162e-06	5.0082e-06	419.42	139.9	121.64	41.936	8.3077e-06	51.965	0.00059768	0.00058484	0.00016641	1379.8	6.5544e-06	6.4269e-06	1378.7	374.94	6.5738e-06	6.5642e-06	426.58	143.4	124.58	43.165	6.578e-06	53.409	244.905	115.595	111.016	42.391	211.119	191.051	42.641	47.484	217.127	150.149	46.563	51.480	51.476	56.266	222.082	54.601	-8191	255	
1008.287	1	1	0	0	0.16866	0.25581	0.13006	0.30636	0.065808	0.022659	0.037759	0.15144	0.16433	0.016287	0.2177	0.12825	0.22721	0.19918	0.19562	0.38134	-0.22917	0.1375	-0.42917	-0.75417	0.25417	-0.45208	-0.425	0.0041667	-0.74375	0.22083	-0.12917	-0.63333	0.15208	-0.62917	-0.175	0.35208	160.382	42.133	102.147	322.183	128.391	62.200	334.598	379.448	344.906	146.069	360.162	350.994	377.143	375.170	92.916	336.353	0.00055008	0.00054008	0.00018271	1356.9	5.4742e-06	2.931e-06	1361.3	368.43	2.2095e-06	5.8019e-06	419.01	141.18	121.97	41.711	8.5891e-06	51.929	0.00058992	0.00058526	0.00016522	1380.3	6.5762e-06	6.4282e-06	1378.9	375.15	6.3304e-06	6.3378e-06	427.4	143.79	124.7	43.114	6.443e-06	53.415	244.059	91.691	130.331	41.975	197.879	193.985	42.007	46.926	203.349	136.127	46.207	50.980	51.498	55.477	216.989	54.583	-8191	255	
1008.382	1	1	0	0	0.25722	0.16601	0.37336	0.25978	0.26437	0.078506	0.10176	0.17394	0.028642	0.13632	0.26543	0.041209	0.19835	0.13917	0.2212	0.191	-0.04375	0.075	-0.08125	-0.74792	0.32292	-0.34375	-0.47917	0.12917	-0.51875	0.22083	-0.19583	-0.63958	0.30625	-0.50833	-0.2625	0.12708	174.489	187.679	243.636	310.602	354.324	180.485	330.775	369.757	159.852	383.422	114.166	65.998	316.606	335.094	108.341	82.785	0.00053677	0.00033227	0.00012744	1357.1	5.248e-06	5.0105e-06	1364.6	368.44	7.9253e-06	9.7201e-06	417.56	141.06	122.21	41.773	8.2237e-06	51.825	0.00057885	0.00059009	0.00016746	1380.5	6.3854e-06	6.5506e-06	1379.9	375.21	6.5457e-06	6.5649e-06	427.44	143.95	124.97	43.132	6.5891e-06	53.295	252.540	80.629	99.218	41.614	219.856	202.774	41.748	46.743	199.764	178.649	46.039	50.778	51.328	55.661	188.165	54.796	-8191	255	
1008.478	1	1	0	0	0.24683	0.11195	0.12606	0.24793	0.30011	0.21979	0.22213	0.046115	0.13772	0.27914	0.093595	0.1503	0.43145	0.05551	0.21752	0.077659	-0.31042	0.029167	0.029167	-0.85417	0.35833	-0.28542	-0.55208	-0.083333	-0.52917	-0.12708	-0.09375	-0.86042	0.18958	-0.24583	-0.29375	0.41875	95.386	158.305	175.865	313.694	94.195	317.203	300.520	219.780	315.371	179.684	322.579	59.876	328.569	354.529	321.678	388.622	0.00051586	0.00069125	0.00022533	1356.9	8.0609e-06	3.9955e-06	1363.7	367.56	4.5676e-06	4.8798e-06	419.45	140.87	122.13	41.919	9.4664e-06	52.02	0.0006077	0.00060642	0.00017211	1379.6	6.7382e-06	6.7397e-06	1380.6	375.08	6.6512e-06	6.8666e-06	427.41	143.82	124.88	43.157	6.65e-06	53.333	239.586	106.075	121.063	41.807	229.301	196.538	41.758	46.764	199.671	184.165	45.854	50.856	51.182	55.425	194.369	54.567	-8191	255	
1008.574	1	1	0	0	0.060194	0.19005	0.1565	0.14768	0.08214	0.017394	0.26976	0.14661	0.25487	0.10964	0.026577	0.23359	0.049774	0.31225	0.23232	0.29694	-0.1875	-0.029167	0.39583	-0.83958	0.17083	-0.10833	-0.7	0.4125	-0.49375	-0.097917	0.12083	-0.71042	-0.020833	0.11042	-0.51875	0.23125	148.054	289.613	284.904	274.233	333.817	378.788	347.988	301.523	79.526	73.419	217.603	30.422	385.721	343.606	157.783	369.514	0.00056851	0.00050894	0.0001783	1356.9	5.0779e-06	5.1184e-06	1360.1	367.54	3.6316e-06	6.491e-06	419.32	141.05	122.46	41.813	4.5396e-06	51.814	0.00058996	0.00060239	0.00017152	1381.1	6.5534e-06	6.7336e-06	1379.5	374.73	6.5498e-06	6.6446e-06	427.81	144.04	125.14	43.102	6.6638e-06	53.323	243.770	145.823	139.682	41.924	266.319	217.148	41.850	47.181	226.115	185.065	46.005	50.772	51.175	55.600	220.507	54.591	-8191	255	
1008.695	1	1	0	0	0.042264	0.20315	0.068674	0.33001	0.27465	0.20037	0.26146	0.07386	0.090196	0.22234	0.15845	0.41595	0.19501	0.10637	0.23809	0.054202	-0.0875	-0.22083	0.46667	-0.78125	-0.027083	-0.035417	-0.55833	0.14375	-0.40625	-0.23125	0.25417	-0.54167	0.1375	-0.052083	-0.46042	0.49375	35.443	213.440	364.448	373.232	77.526	261.947	50.238	378.491	48.460	69.306	250.517	365.118	378.236	126.581	28.911	87.442	0.00055141	0.00078417	0.00020726	1359.4	5.5869e-06	6.5126e-06	1366.8	368.08	3.2181e-06	6.2011e-06	417.9	140.79	122.28	41.969	4.5839e-06	51.943	0.0006134	0.00061707	0.00017264	1382.5	6.6834e-06	6.8813e-06	1382.3	375.23	6.8142e-06	6.7162e-06	427.86	143.92	125.15	43.165	6.6709e-06	53.337	247.914	111.770	146.336	42.185	200.121	169.162	41.758	46.815	188.859	164.306	45.967	51.005	51.416	55.413	194.166	54.730	-8191	255	
1008.791	1	1	0	0	0.085489	0.19783	0.13153	0.20122	0.07709	0.27456	0.13243	0.13787	0.21954	0.23834	0.095715	0.19611	0.16695	0.1914	0.039367	0.17722	0.24375	-0.20833	0.22292	-0.85417	-0.089583	0.2875	-0.8625	0.075	-0.083333	-0.46667	0.34792	-0.36667	-0.16042	0.04375	-0.62083	0.06875	377.475	132.065	109.784	344.025	80.002	313.094	323.928	323.819	152.663	41.688	99.442	356.004	379.621	373.990	197.208	187.193	0.00050749	0.00061758	0.00025344	1361.9	6.3418e-06	5.549e-06	1362.9	368.08	4.9498e-06	8.267e-06	420.09	141.08	122.22	42.044	9.0735e-06	51.759	0.00060971	0.00062	0.00016976	1383.7	6.7625e-06	6.7292e-06	1380.3	375.63	6.6349e-06	6.692e-06	427.24	144.05	125.13	43.165	6.5812e-06	53.319	246.297	98.665	129.503	42.010	219.869	191.123	41.969	47.000	200.878	182.821	45.879	50.863	51.540	55.739	205.764	54.950	-8191	255	
1008.887	1	1	0	0	0.14655	0.36639	0.039956	0.3571	0.22047	0.12702	0.16242	0.18348	0.096734	0.23907	0.24695	0.24989	0.17963	0.071812	0.040353	0.028735	0.23125	-0.56667	0.20625	-0.6875	-0.20208	0.19375	-0.72917	0.060417	-0.22917	-0.42708	0.10208	-0.52708	-0.45833	0.097917	-0.50625	-0.0625	207.106	47.916	277.247	376.239	44.510	147.351	375.119	277.138	225.918	302.661	339.894	51.711	335.512	383.517	56.317	188.743	0.00057028	0.00081844	0.00013344	1358.3	4.5209e-06	7.1294e-06	1369.1	368.47	7.0451e-06	7.7772e-06	420.98	140.88	122.91	41.99	4.4101e-06	51.987	0.00059815	0.00060883	0.00017025	1382.6	6.7589e-06	6.6628e-06	1383.5	375.12	6.7873e-06	6.6735e-06	427.77	144.14	125.27	43.126	6.5389e-06	53.374	249.588	122.957	123.537	42.235	210.748	174.791	42.121	46.949	202.495	171.119	46.240	51.240	51.480	55.574	198.182	54.434	-8191	255	
1008.983	1	1	0	0	0.16397	0.17569	0.12166	0.23086	0.22216	0.13156	0.079496	0.063648	0.25063	0.20398	0.18208	0.030755	0.20707	0.23597	0.16869	0.085474	0.44792	-0.53542	0.22708	-0.60625	-0.34583	0.3875	-0.58333	-0.016667	0	-0.6125	-0.03125	-0.24167	-0.60208	0.054167	-0.59792	-0.20625	260.102	256.588	163.169	387.550	246.837	199.399	317.371	278.573	217.255	300.196	386.786	225.858	77.682	230.798	363.019	345.495	0.00051948	0.00071242	0.00017283	1362.1	6.7296e-06	6.4876e-06	1366	367.18	6.0885e-06	4.0362e-06	419.66	140.58	121.89	41.794	6.534e-06	51.768	0.00058818	0.00059082	0.0001636	1381.5	6.4654e-06	6.5122e-06	1381.4	374.86	6.3854e-06	6.3078e-06	426.7	143.9	124.9	43.056	6.2949e-06	53.244	242.367	95.000	153.120	41.977	211.872	128.142	42.022	46.706	214.059	140.644	45.458	50.530	50.936	55.127	202.965	54.348	-8191	255	
1009.077	1	1	0	0	0.21722	0.2456	0.21222	0.27087	0.19524	0.30648	0.36439	0.13536	0.15611	0.12529	0.25957	0.15955	0.1494	0.1646	0.30573	0.44304	0.42917	-0.71042	0.29792	-0.4875	-0.25417	0.11042	-0.775	-0.25625	0.066667	-0.42708	0.1375	-0.36667	-0.5375	0.0625	-0.30833	-0.3625	278.322	209.609	52.760	38.884	183.249	187.166	264.275	335.820	248.065	277.749	324.655	85.124	130.766	76.978	386.235	302.823	0.00054624	0.00089244	0.00022466	1362.4	9.295e-06	5.705e-06	1359.8	367.13	1.665e-06	5.2407e-06	418.37	140.9	122.17	42.074	6.8475e-06	51.878	0.00058163	0.00056805	0.00016349	1383	6.4548e-06	6.3229e-06	1378.3	374.73	6.2926e-06	6.3174e-06	427.6	143.93	124.82	43.123	6.2521e-06	53.247	253.067	108.915	122.180	41.612	199.867	173.509	41.494	46.501	241.070	167.721	45.447	50.694	51.020	55.276	210.097	54.368	-8191	255	
1009.174	1	1	0	0	0.14853	0.39558	0.23456	0.39709	0.18051	0.015914	0.19322	0.23259	0.17994	0.32843	0.17725	0.22853	0.21466	0.15263	0.055845	0.21896	0.43958	-0.49583	0.083333	-0.26667	-0.50417	0.1375	-0.32083	-0.52083	0.28542	-0.55417	-0.18958	0.054167	-0.82292	0.085417	-0.39583	-0.575	262.155	127.028	103.974	369.992	267.709	209.794	369.871	292.525	330.386	296.414	386.281	339.759	68.310	340.518	357.072	57.299	0.00052649	0.00068287	9.6295e-05	1359.8	4.302e-06	6.2517e-06	1360.8	366.42	2.7492e-06	4.7058e-06	418.23	140.74	121.66	41.713	8.3045e-06	51.694	0.00056554	0.00056965	0.00015958	1379.4	6.1538e-06	6.219e-06	1379.6	374.02	6.2645e-06	6.1711e-06	426.21	143.73	124.77	43.05	6.1954e-06	53.199	245.846	123.939	97.816	41.666	197.925	146.593	41.737	46.465	231.790	167.476	45.873	50.940	51.217	55.199	197.002	54.271	-8191	255	
1009.294	1	1	0	0	0.11492	0.26398	0.16461	0.33967	0.28386	0.086352	0.20902	0.39804	0.15908	0.095742	0.10023	0.13039	0.24881	0.26951	0.16879	0.19144	0.6625	-0.62917	0.11458	-0.14583	-0.60625	0.13333	-0.22708	-0.65625	0.27708	-0.61042	-0.12917	-0.022917	-0.78125	0.010417	-0.095833	-0.60625	136.174	249.915	128.173	328.507	186.814	95.148	321.895	241.010	147.654	134.529	329.111	217.750	44.832	371.199	105.884	52.748	0.00055494	0.00035259	0.00014662	1351.2	5.3957e-06	7.6657e-06	1367.7	368.68	6.8845e-06	6.9893e-06	419.66	140.27	122.33	42.002	9.4031e-06	51.957	0.00056171	0.00054409	0.000154	1377.6	6.0865e-06	6.1379e-06	1381.1	375.28	6.104e-06	6.2084e-06	426.76	143.77	125.09	43.07	6.1769e-06	53.292	249.058	139.779	93.939	41.679	242.884	173.288	41.665	46.468	197.451	175.264	45.646	50.760	51.208	55.288	189.664	54.293	-8191	255	
1009.390	1	1	0	0	0.22097	0.30187	0.087072	0.11979	0.37628	0.20597	0.14961	0.35598	0.14271	0.28751	0.20513	0.049881	0.039345	0.17972	0.15984	0.1678	0.57708	-0.575	-0.18333	-0.010417	-0.59583	0.077083	-0.45	-0.5625	0.13125	-0.42917	-0.225	0.095833	-0.76667	-0.13542	-0.12917	-0.74167	148.658	357.299	198.898	334.272	185.843	228.997	356.519	195.368	61.819	210.579	74.134	267.986	31.548	143.551	127.275	68.135	0.00044963	0.00060076	0.00021168	1353.2	3.7726e-06	2.3927e-06	1365.7	368.59	4.0606e-06	4.7148e-06	416.34	141.27	121.72	41.805	9.7803e-06	52.119	0.00055958	0.0005577	0.00015803	1377.5	6.0932e-06	6.1171e-06	1379.5	374.83	6.124e-06	6.198e-06	425.78	143.76	124.65	43.031	6.2487e-06	53.357	246.712	139.209	119.130	41.934	229.385	245.719	41.978	46.713	225.397	110.448	45.782	50.775	51.264	55.454	203.935	54.549	-8191	255	
1009.487	1	1	0	0	0.19624	0.01839	0.14865	0.10515	0.38975	0.25101	0.27332	0.27759	0.13616	0.26076	0.18003	0.17692	0.26968	0.091824	0.028468	0.066484	0.6	-0.33333	-0.40625	-0.11458	-0.65417	0.1125	-0.17292	-0.86875	0.2875	-0.4875	-0.475	0.10417	-0.72292	-0.089583	-0.11875	-0.69167	135.300	121.117	33.256	352.483	57.537	29.282	39.053	380.022	362.559	41.624	46.220	325.965	117.590	151.183	161.581	275.561	0.0004907	0.00089993	0.00020164	1357.2	5.0031e-06	4.9311e-06	1361.9	367.96	6.7914e-06	6.6903e-06	418.33	140.08	122.41	41.82	6.2371e-06	52.062	0.00056465	0.00056073	0.0001564	1379.4	6.1163e-06	6.2127e-06	1379	374.45	6.1425e-06	6.2404e-06	426.13	143.51	124.77	43.085	6.2217e-06	53.326	247.476	81.442	109.590	41.855	195.230	168.101	41.950	46.865	220.322	165.048	45.894	51.173	51.360	55.503	221.507	54.571	-8191	255	
1009.558	1	1	0	0	0.028998	0.38186	0.14832	0.2011	0.34081	0.25551	0.1412	0.070362	0.18101	0.21588	0.21765	0.28214	0.10993	0.13429	0.079366	0.44937	0.5	-0.36667	-0.35417	0.066667	-0.35208	0.029167	-0.06875	-0.72708	0.21667	-0.13125	-0.75625	0.21667	-0.63125	-0.18125	0.033333	-0.9125	44.233	175.990	331.488	387.724	87.409	287.205	306.079	289.590	261.445	115.020	354.425	84.681	343.174	277.223	248.465	333.027	0.00051633	0.00042144	0.00016816	1355.2	6.821e-06	5.8718e-06	1365.1	367.67	5.4326e-06	1.0632e-05	419.17	140.71	122.44	41.817	6.8266e-06	51.945	0.00057386	0.00056192	0.00015514	1378.7	6.1463e-06	6.2146e-06	1379	374.81	6.2144e-06	6.1803e-06	427.08	143.5	125.16	43.066	6.2735e-06	53.306	252.688	68.036	83.883	41.913	216.326	200.390	41.991	47.002	195.470	150.431	46.455	50.981	51.489	55.987	237.204	54.954	-8191	255	
1009.679	1	1	0	0	0.187	0.12191	0.10588	0.40489	0.12451	0.16836	0.24673	0.17076	0.15256	0.18921	0.32283	0.40342	0.06516	0.20048	0.13749	0.28531	0.41875	0.0125	-0.4125	0.016667	-0.3875	-0.22917	0.14792	-0.6875	-0.00625	-0.2375	-0.67917	0.21458	-0.41458	-0.42917	0.36458	-0.71875	359.880	229.777	319.474	379.559	40.685	85.050	357.016	309.209	66.131	85.415	298.729	266.302	54.530	61.112	369.055	336.681	0.0005009	0.00042889	7.5828e-05	1357.7	6.1474e-06	5.122e-06	1360.7	367.17	6.02e-06	2.2697e-06	419.69	140.54	122.51	41.869	5.7003e-06	51.757	0.00056366	0.00056729	0.00015643	1380.3	6.274e-06	6.2122e-06	1378.7	374.59	6.2912e-06	6.2579e-06	427.06	143.5	124.85	43.059	6.215e-06	53.233	249.957	116.182	112.624	42.105	192.413	161.337	42.304	46.928	194.412	127.694	46.255	51.151	51.528	55.836	232.418	54.861	-8191	255	
1009.775	1	1	0	0	0.13495	0.094015	0.083816	0.24988	0.25925	0.091484	0.29983	0.23941	0.22583	0.22641	0.30076	0.26911	0.26156	0.51936	0.1096	0.28659	0.50833	0.075	-0.41458	-0.025	-0.15208	-0.36042	0.15833	-0.76667	0.075	0.016667	-0.73958	0.075	-0.26667	-0.51458	0.072917	-0.66458	64.339	287.876	378.329	346.733	374.844	334.698	352.343	215.159	63.375	388.663	330.590	105.367	342.768	51.591	231.268	319.925	0.00051865	0.00046046	0.00019027	1358.8	6.784e-06	8.3708e-06	1364	368.87	6.0924e-06	6.9104e-06	418.2	140.45	122.2	41.94	5.188e-06	52.118	0.00057828	0.0005763	0.00015611	1380.1	6.325e-06	6.2624e-06	1378.8	375.24	6.344e-06	6.3461e-06	427.31	143.67	124.95	43.056	6.2395e-06	53.346	243.447	159.068	102.020	42.202	199.751	185.291	42.151	47.080	235.769	171.486	46.051	51.410	51.975	55.636	191.652	54.899	-8191	255	
1009.871	1	1	0	0	0.1468	0.20286	0.24557	0.3282	0.17637	0.18028	0.57712	0.22799	0.11706	0.064582	0.21751	0.30103	0.24909	0.23522	0.083275	0.36515	0.325	-0.05625	-0.60208	-0.15625	-0.054167	-0.34792	-0.035417	-0.575	-0.23542	0.29375	-0.65417	-0.11458	-0.3	-0.67708	0.25833	-0.63958	188.250	285.462	233.824	323.303	36.462	348.007	339.784	327.942	108.625	325.765	70.073	334.646	378.905	335.522	273.870	375.864	0.00054247	0.00043097	0.0001883	1362.7	3.3375e-06	3.2748e-06	1362.5	366.92	6.6197e-06	7.0138e-06	420.23	140.65	122.42	42.05	7.9792e-06	51.905	0.00058353	0.00057557	0.00015779	1381.3	6.3905e-06	6.2371e-06	1380.7	374.79	6.2203e-06	6.2176e-06	427.85	143.57	124.92	43.132	6.2628e-06	53.308	246.694	140.563	153.143	42.010	248.669	180.909	41.913	47.178	197.557	187.436	46.204	51.030	51.629	55.425	208.644	54.866	-8191	255	
1009.967	1	1	0	0	0.14666	0.28522	0.018147	0.4543	0.11825	0.3494	0.42962	0.20827	0.13005	0.11885	0.12755	0.24881	0.28595	0.075652	0.31262	0.03383	0.10417	0.45208	-0.59792	-0.17083	-0.17292	-0.51667	-0.0375	-0.42083	-0.3375	0.21667	-0.87917	-0.15625	-0.2125	-0.70625	0.1625	-0.61667	155.121	266.091	265.361	382.077	348.739	194.715	378.232	360.159	59.068	348.496	351.990	383.686	30.973	137.486	374.719	282.665	0.00050716	0.00084412	0.00015458	1354.3	6.3832e-06	4.2502e-06	1366	367.33	3.6879e-06	7.2494e-06	418.47	140.86	122.9	41.9	7.4141e-06	52.143	0.00057124	0.00055998	0.00015963	1378.9	6.298e-06	6.1596e-06	1379.6	374.77	6.2214e-06	6.3175e-06	427.22	143.62	125.06	43.111	6.311e-06	53.324	249.840	126.718	121.384	41.930	194.101	168.011	41.967	47.128	212.743	177.223	46.134	51.134	51.541	55.751	188.439	55.067	-8191	255	
1010.088	1	1	0	0	0.032976	0.081449	0.34434	0.2931	0.23134	0.08278	0.21386	0.14046	0.041964	0.17381	0.051591	0.07545	0.15534	0.10098	0.31101	0.20143	-0.089583	0.31875	-0.60208	-0.22083	-0.05	-0.57708	0.0083333	-0.35	-0.5375	0.083333	-0.70208	-0.16042	-0.11875	-0.75417	0.20833	-0.48958	191.295	94.364	240.393	376.998	255.652	252.005	337.042	167.739	263.983	252.910	285.186	151.831	333.622	318.529	171.540	354.558	0.00055769	0.00064685	0.00017894	1357.1	5.0526e-06	4.1055e-06	1364.2	367.85	4.9972e-06	8.5768e-06	418.59	140.95	122.09	41.768	4.4566e-06	51.847	0.00056889	0.00055867	0.00015813	1380.1	6.1999e-06	6.1327e-06	1378.9	374.86	6.0682e-06	6.2681e-06	427.43	143.74	124.92	43.08	6.3594e-06	53.278	245.334	89.684	132.920	42.026	190.488	215.616	41.798	47.220	206.442	206.434	46.034	50.969	51.452	55.555	267.678	54.987	-8191	255	
1010.160	1	1	0	0	0.079681	0.15471	0.18308	0.22429	0.20791	0.079863	0.48091	0.21852	0.19571	0.1431	0.42791	0.35787	0.19155	0.14458	0.10952	0.22813	-0.14375	0.23958	-0.47083	-0.42292	-0.04375	-0.80833	-0.2	-0.33542	-0.6875	0.24167	-0.51667	-0.46458	0.060417	-0.86667	-0.079167	-0.075	318.025	229.778	178.249	343.059	248.788	237.666	385.740	369.052	210.933	90.751	352.772	268.117	364.023	70.960	340.490	344.912	0.00061916	0.00057615	0.00026756	1360.8	3.8777e-06	1.7285e-06	1359.8	367.54	7.3533e-06	2.5279e-06	419.13	140.78	122.31	41.876	6.8449e-06	52.046	0.00056959	0.00056522	0.00015851	1380.3	6.3022e-06	6.1531e-06	1378.2	374.53	6.1986e-06	6.1272e-06	426.44	143.54	124.87	43.064	6.3196e-06	53.352	249.529	77.032	126.162	42.206	225.389	181.629	41.874	46.988	225.390	166.531	46.353	50.916	51.518	55.704	186.065	54.702	-8191	255	
1010.256	1	1	0	0	0.13281	0.13827	0.24872	0.18571	0.11142	0.084354	0.17189	0.34797	0.078854	0.13394	0.53043	0.35643	0.15282	0.35986	0.14126	0.33627	-0.23125	0.2125	-0.47083	-0.60625	0.20208	-0.57708	-0.35833	0.029167	-0.59167	0.01875	-0.56458	-0.65417	-0.020833	-0.77708	-0.014583	-0.066667	146.776	348.744	304.750	377.617	288.161	109.439	60.067	197.308	83.809	276.730	342.668	326.165	370.751	338.206	196.156	332.443	0.00059446	0.00072315	0.00010366	1360	9.3634e-06	4.2128e-06	1362.7	368.15	1.9168e-06	3.1666e-06	419.53	140.58	122.3	41.841	8.4163e-06	51.92	0.00056671	0.00057407	0.00015953	1380.2	6.2182e-06	6.31e-06	1378.5	374.95	6.1917e-06	6.3114e-06	426.98	143.47	124.89	43.069	6.3458e-06	53.341	249.470	115.988	136.225	42.348	212.973	173.721	41.958	47.256	244.695	187.163	46.338	51.003	51.454	55.798	188.189	54.840	-8191	255	
1010.375	1	1	0	0	0.14403	0.19322	0.26555	0.33143	0.34982	0.29859	0.29048	0.10696	0.11592	0.26179	0.080883	0.19614	0.25339	0.094577	0.14701	0.17624	-0.41042	0.29583	-0.36875	-0.65625	0.37917	-0.50417	-0.31875	0.070833	-0.49792	0.12083	-0.35625	-0.68333	0.11667	-0.56042	-0.12292	-0.022917	316.586	215.519	124.421	377.070	354.078	48.966	38.275	84.091	97.113	91.720	75.699	356.205	374.021	209.348	277.002	221.081	0.00053535	0.00060643	0.00025283	1355.7	6.3369e-06	5.5834e-06	1363.8	367.89	5.5624e-06	8.0297e-06	418.73	140.06	122.11	41.783	4.1349e-06	51.828	0.00057195	0.00057375	0.00016098	1378.9	6.2586e-06	6.3235e-06	1380.9	374.63	6.2392e-06	6.3574e-06	426.74	143.48	124.75	43.145	6.3625e-06	53.216	256.734	150.266	137.599	42.034	219.160	175.252	42.096	47.065	201.140	201.814	46.061	51.153	51.506	55.799	192.513	54.874	-8191	255	
1010.471	1	1	0	0	0.28255	0.31392	0.19357	0.2555	0.027868	0.31599	0.21284	0.25816	0.045716	0.26313	0.21714	0.15683	0.47379	0.18148	0.12047	0.085924	-0.40625	0.25833	-0.066667	-1.0375	0.11042	-0.51042	-0.15833	-0.22917	-0.70625	-0.014583	-0.24792	-0.8	0.054167	-0.37083	-0.14167	0.24375	325.661	209.890	360.312	58.279	238.917	135.486	361.819	185.218	78.041	211.129	134.734	101.692	341.460	76.891	32.769	310.921	0.00051746	0.00052228	0.00016251	1358.8	7.9932e-06	6.4142e-06	1358.9	366.11	5.705e-06	9.0655e-06	418.44	140.46	122.02	41.843	2.3829e-06	52.068	0.00056272	0.00056879	0.00015808	1378	6.1813e-06	6.2286e-06	1376.8	374.17	6.1965e-06	6.2751e-06	426.68	143.35	124.63	43.029	6.2938e-06	53.34	258.138	163.812	140.947	42.106	223.262	183.418	42.124	47.259	208.113	189.238	46.295	51.094	51.362	55.684	180.995	54.722	-8191	255	
1010.567	1	1	0	0	0.14063	0.18626	0.14315	0.3177	0.12088	0.049907	0.43444	0.18785	0.09986	0.10415	0.12419	0.18356	0.17172	0.25635	0.070878	0.061932	-0.34792	-0.029167	-0.05625	-0.84167	0.2625	-0.27708	-0.68958	0.014583	-0.70625	-0.11667	-0.2	-0.74583	-0.14792	-0.39792	-0.49167	0.035417	248.157	51.710	205.320	350.404	354.433	339.336	329.608	316.349	358.695	189.251	114.280	239.919	31.964	230.014	332.011	334.555	0.00056094	0.00051357	0.00012818	1358.6	5.8643e-06	4.9643e-06	1359.4	367.7	4.4465e-06	8.6421e-06	418.27	140.3	122.1	41.817	3.9915e-06	51.854	0.00058013	0.0005774	0.00016295	1380.4	6.4348e-06	6.3663e-06	1380	374.6	6.3476e-06	6.4186e-06	426.78	143.5	124.83	43.095	6.3419e-06	53.293	253.294	138.464	142.373	41.946	219.580	226.895	41.808	47.054	250.258	176.226	46.077	50.895	51.702	55.621	198.298	54.661	-8191	255	
1010.688	1	1	0	0	0.18653	0.21884	0.23084	0.4943	0.30338	0.10762	0.14989	0.14293	0.32103	0.29256	0.13512	0.22253	0.29492	0.14373	0.15013	0.19729	-0.26667	-0.075	0.066667	-0.96458	0.20833	-0.15417	-0.95208	0.13125	-0.67292	-0.3875	-0.13333	-0.78958	-0.23333	-0.15	-0.4	-0.022917	137.386	273.415	44.570	353.575	81.042	294.227	321.300	357.463	327.063	385.812	379.743	320.245	90.006	300.117	60.997	380.894	0.00051845	0.00043018	0.00011372	1356.2	8.3736e-06	4.9278e-06	1362.5	368.65	6.041e-06	5.5264e-06	419.41	140.31	122.76	41.971	6.5962e-06	51.846	0.00059242	0.00058483	0.00016109	1378.8	6.4668e-06	6.3902e-06	1378.9	375.17	6.4212e-06	6.3867e-06	427.3	143.66	124.99	43.087	6.425e-06	53.19	250.254	114.678	171.028	42.122	229.136	161.434	42.125	46.871	230.603	166.209	46.427	51.117	51.273	55.776	186.416	55.055	-8191	255	
1010.784	1	1	0	0	0.091189	0.14439	0.091056	0.28142	0.081688	0.01849	0.30874	0.61437	0.13312	0.14729	0.18854	0.20911	0.31069	0.084379	0.064868	0.19018	-0.085417	-0.0041667	0.08125	-0.9625	-0.035417	-0.20833	-0.88542	0.1375	-0.3625	-0.56875	0.058333	-0.68542	-0.060417	-0.35	-0.57292	0.020833	176.790	128.091	233.851	371.544	67.154	337.984	47.981	299.261	115.800	86.324	384.257	327.017	115.995	40.783	353.855	288.365	0.00053624	0.00056766	0.00023304	1360.9	4.1304e-06	4.7929e-06	1361.9	368.35	6.0309e-06	8.2691e-06	419.57	140.63	121.81	41.84	3.7015e-06	51.711	0.00058887	0.00058696	0.00016296	1381.4	6.5512e-06	6.5514e-06	1380.9	374.86	6.5339e-06	6.5144e-06	426.93	143.9	124.74	43.053	6.6309e-06	53.3	247.823	117.916	92.091	41.990	238.464	200.868	41.937	47.111	233.693	157.504	45.874	50.922	51.615	55.858	196.841	54.679	-8191	255	
1010.855	1	1	0	0	0.08625	0.26262	0.11566	0.09097	0.17761	0.086381	0.096776	0.11656	0.097286	0.17691	0.1083	0.18445	0.12015	0.1345	0.13066	0.24604	0.13333	-0.20833	0.2375	-0.91458	-0.10833	0.041667	-0.82292	-0.16458	-0.275	-0.4375	-0.039583	-0.66875	-0.26042	-0.00625	-0.84792	-0.0083333	185.465	154.277	291.312	276.410	183.276	138.044	106.914	81.914	255.318	262.729	285.089	278.709	140.602	349.456	269.720	146.278	0.0005129	0.00073041	0.00013225	1357.3	4.344e-06	1.9445e-06	1360.1	367.5	5.0437e-06	7.7276e-06	417.99	140.32	122.03	41.69	3.457e-06	51.94	0.000595	0.00058957	0.00016531	1380	6.5494e-06	6.4356e-06	1380.7	374.62	6.4173e-06	6.4273e-06	426.77	143.39	124.87	43.003	6.5176e-06	53.277	251.526	94.488	117.835	42.132	190.849	230.077	42.067	47.062	175.265	183.557	46.043	50.833	51.533	55.668	241.446	54.566	-8191	255	
1010.976	1	1	0	0	0.3123	0.20949	0.11388	0.22706	0.043833	0.17885	0.045197	0.25545	0.010578	0.18011	0.23533	0.076066	0.22048	0.23849	0.18214	0.34338	0.24375	-0.40417	0.225	-0.68542	-0.24792	0.054167	-0.86042	-0.010417	-0.22708	-0.72708	0.066667	-0.58542	-0.27292	0.17083	-0.625	-0.14375	365.907	356.538	111.265	308.242	227.485	54.134	53.546	373.463	228.962	371.476	321.638	344.102	363.516	304.890	247.171	381.440	0.0005486	0.00068035	0.00014235	1361.3	9.0411e-06	4.7145e-06	1365.1	368.03	6.7647e-06	9.8929e-06	417.83	140.71	122.1	41.711	4.0508e-06	51.849	0.00059367	0.00058944	0.00016708	1381.3	6.5794e-06	6.4524e-06	1379.7	374.93	6.3079e-06	6.3615e-06	426.04	143.59	124.89	43.057	6.4743e-06	53.273	242.925	92.133	128.723	42.044	250.831	148.518	42.046	46.825	157.210	174.016	46.335	51.337	51.473	55.922	214.467	54.806	-8191	255	
1011.070	1	1	0	0	0.07766	0.16007	0.20263	0.3639	0.17671	0.09213	0.24821	0.19262	0.18264	0.29597	0.22044	0.030409	0.12826	0.31002	0.11954	0.25879	0.25417	-0.5	0.16042	-0.61667	-0.19167	0.12708	-0.82292	-0.13125	0.1125	-0.6125	0.0875	-0.39792	-0.31875	0.15625	-0.4625	-0.20625	37.715	101.961	334.072	336.669	49.793	61.077	297.041	328.545	332.258	346.117	258.713	187.340	337.827	333.701	341.857	361.887	0.00051874	0.00060441	0.00021744	1357.9	9.0479e-06	6.388e-06	1364.5	367.28	5.2376e-06	7.5237e-06	419.36	140.22	122.11	41.929	3.7899e-06	51.876	0.00059384	0.00057996	0.00016624	1381.7	6.3622e-06	6.4603e-06	1380.2	374.11	6.5151e-06	6.3028e-06	426.99	143.38	124.97	43.119	6.4068e-06	53.293	251.147	109.880	135.455	42.118	211.202	202.546	41.725	46.667	197.357	182.450	45.822	50.726	51.325	55.423	241.246	53.711	-8191	255	
1011.167	1	1	0	0	0.2146	0.088871	0.21133	0.013844	0.038394	0.18035	0.21048	0.12122	0.2723	0.18569	0.30042	0.18934	0.19171	0.13573	0.095488	0.24891	0.39583	-0.50833	0.22708	-0.41667	-0.35	0.06875	-0.81875	-0.23333	0.097917	-0.75	-0.10833	-0.34167	-0.58125	0.15833	-0.525	-0.19375	197.361	223.181	42.753	105.961	332.778	229.686	382.319	247.774	236.971	294.616	349.695	336.343	291.763	36.680	87.719	30.645	0.00054115	0.00075884	0.00018376	1353.9	7.3752e-06	6.8552e-06	1366.6	366.92	5.9038e-06	3.349e-06	419.7	140.4	121.59	41.863	3.4055e-06	51.949	0.00057145	0.00058378	0.00016284	1380.1	6.3043e-06	6.483e-06	1381.4	375.09	6.3891e-06	6.4237e-06	427.6	143.57	124.67	43.045	6.4596e-06	53.293	246.817	144.271	127.599	41.091	205.077	197.337	41.260	46.110	228.955	152.085	45.135	50.042	50.818	54.789	227.702	53.874	-8191	255	
1011.263	1	1	0	0	0.30172	0.10504	0.24242	0.26322	0.31762	0.2696	0.31304	0.091265	0.16492	0.11709	0.1716	0.11112	0.12289	0.099274	0.08112	0.040769	0.51458	-0.79792	0.1	-0.39583	-0.56667	0.1625	-0.52708	-0.46042	0.2375	-0.60833	0.060417	-0.1875	-0.73333	0.23333	-0.31875	-0.38958	344.852	185.101	142.553	367.603	114.199	246.898	295.607	327.310	36.580	337.195	303.878	80.271	320.448	373.256	383.159	43.270	0.00053599	0.00028989	0.00014221	1357.2	6.4829e-06	8.0635e-06	1364.5	367.99	4.2105e-06	6.1708e-06	419.75	140.3	122	41.753	5.499e-06	51.77	0.00057768	0.0005903	0.00016713	1381.3	6.3519e-06	6.4952e-06	1379.6	374.58	6.4677e-06	6.5689e-06	427.16	143.62	124.99	43.069	6.4406e-06	53.231	249.890	147.623	105.109	41.276	216.401	212.574	41.203	46.262	198.199	209.605	45.536	50.574	50.778	54.970	214.056	53.756	-8191	255	
1011.359	1	1	0	0	0.022441	0.32719	0.13737	0.18247	0.057612	0.28142	0.46399	0.074937	0.13265	0.21637	0.33123	0.16851	0.4956	0.32641	0.050011	0.41466	0.63958	-0.3125	0.125	-0.13958	-0.38333	0.13125	-0.37708	-0.59375	0.23333	-0.72708	-0.19375	0.077083	-0.7125	0.077083	-0.15	-0.62708	134.704	101.054	165.755	350.271	229.804	149.829	377.872	270.370	232.174	310.239	350.993	55.312	385.202	32.608	37.976	382.670	0.00058714	0.00047006	0.00011306	1357.4	5.8134e-06	8.192e-06	1364.8	366.06	3.8483e-06	8.0305e-06	420.15	140.75	121.97	41.825	6.5046e-06	51.577	0.0005954	0.0005818	0.0001658	1381.8	6.489e-06	6.6293e-06	1380.5	374.69	6.5186e-06	6.6871e-06	427.74	143.72	124.68	43.138	6.5517e-06	53.265	247.578	99.243	132.575	41.497	214.977	211.761	41.358	46.259	179.595	165.805	45.425	50.511	50.672	54.854	183.743	53.767	-8191	255	
1011.455	1	1	0	0	0.15761	0.16565	0.30741	0.24955	0.089115	0.089658	0.33553	0.23266	0.084867	0.078521	0.25117	0.17786	0.34828	0.10925	0.18808	0.027721	0.71458	-0.37708	-0.05625	-0.20208	-0.63333	0.1375	-0.4125	-0.63333	0.22083	-0.53958	-0.1	0.10208	-0.64375	-0.029167	-0.12708	-0.54792	196.007	330.551	373.139	384.909	186.128	180.091	372.788	275.471	37.430	330.838	363.819	374.891	318.670	159.377	230.029	319.513	0.00052766	0.00062129	0.00013648	1358.2	5.2495e-06	7.2946e-06	1364.5	367.49	4.6143e-06	6.2776e-06	417.7	140.56	121.7	41.76	4.3215e-06	52.053	0.00059265	0.00059619	0.00016321	1381	6.4831e-06	6.5852e-06	1381.5	374.5	6.5314e-06	6.4374e-06	426.41	143.83	124.72	43.079	6.4487e-06	53.31	246.570	99.623	140.394	41.348	260.914	184.692	41.451	46.033	228.562	195.249	45.302	50.273	51.074	54.820	148.175	53.953	-8191	255	
1011.551	1	1	0	0	0.1593	0.089679	0.14443	0.30759	0.15739	0.064616	0.23457	0.3376	0.1032	0.16017	0.27268	0.16142	0.044651	0.15816	0.23611	0.10149	0.48125	-0.39167	-0.01875	-0.052083	-0.40208	-0.016667	-0.29583	-0.59583	0.15	-0.53958	-0.425	0.0125	-0.75	-0.06875	-0.04375	-0.69375	39.266	122.823	135.552	44.848	233.118	113.897	306.471	359.480	378.565	317.964	315.631	264.009	49.017	267.389	69.792	228.328	0.0005305	0.00036829	9.6775e-05	1360.7	7.3448e-06	4.3065e-06	1363.2	366.66	3.6855e-06	5.5833e-06	418.35	140.49	121.91	41.82	7.0353e-06	52.127	0.00059761	0.00058932	0.00016563	1380.9	6.4997e-06	6.4631e-06	1379	374.58	6.5771e-06	6.5946e-06	427.26	143.5	124.81	43.116	6.4909e-06	53.376	244.675	116.293	179.495	41.284	201.140	208.323	41.399	46.091	211.128	199.902	45.448	50.375	50.738	54.998	193.821	54.245	-8191	255	
1011.647	1	1	0	0	0.082862	0.14259	0.18381	0.18664	0.2478	0.18165	0.27334	0.32911	0.075798	0.20989	0.20693	0.10197	0.14976	0.20285	0.41295	0.29915	0.72083	-0.12083	-0.30833	0.19792	-0.51667	-0.18333	-0.22083	-0.87708	0.21667	-0.097917	-0.49583	0.0625	-0.73958	-0.275	0.27917	-0.63958	194.418	55.134	75.397	348.180	72.889	201.045	384.751	322.913	303.885	317.714	386.075	354.380	191.065	353.323	67.970	51.391	0.00048517	0.00040302	0.00030443	1360.3	5.8235e-06	5.2325e-06	1360.7	366.65	6.3505e-06	6.0641e-06	419.44	140.46	122.12	41.962	7.904e-06	51.965	0.00059561	0.00058483	0.00016085	1381.1	6.5723e-06	6.3711e-06	1379.6	374.68	6.4881e-06	6.4936e-06	427.4	143.7	124.82	43.17	6.5537e-06	53.394	244.772	129.195	116.853	41.500	230.304	197.832	41.274	46.190	232.213	155.412	45.176	50.446	50.868	54.853	187.624	54.208	-8191	255	
1011.768	1	1	0	0	0.12561	0.20241	0.083577	0.10739	0.12826	0.080832	0.27374	0.29911	0.20831	0.079961	0.24578	0.30188	0.056287	0.25304	0.10897	0.12525	0.61875	-0.083333	-0.62708	-0.010417	-0.4875	-0.064583	0.010417	-0.74792	0.0375	-0.016667	-0.67292	0.19167	-0.59167	-0.25625	0.34792	-0.68958	159.816	134.095	298.465	307.285	244.755	272.901	342.447	286.905	134.283	218.348	54.474	317.087	60.355	300.338	242.096	130.466	0.00048775	0.00056536	0.00010353	1361.6	8.6438e-06	4.5249e-06	1361.7	366.9	4.0546e-06	5.5452e-06	419.79	140.87	122.15	41.798	6.4228e-06	51.794	0.00059567	0.00058856	0.00016353	1382.5	6.5112e-06	6.5117e-06	1378.6	374.86	6.6048e-06	6.4918e-06	427.12	143.88	124.96	43.107	6.6417e-06	53.356	247.515	85.768	170.095	41.319	222.603	138.209	41.276	46.280	209.130	195.009	45.384	50.348	50.905	55.079	183.484	53.929	-8191	255	
1011.864	1	1	0	0	0.20849	0.031628	0.24022	0.096527	0.19943	0.17998	0.12753	0.20995	0.12643	0.20373	0.21048	0.095511	0.1777	0.32768	0.21211	0.3332	0.50208	-0.12083	-0.56458	-0.033333	-0.19583	-0.17083	0.072917	-0.51875	-0.085417	0.22917	-0.68125	0.225	-0.29792	-0.49583	0.23542	-0.51458	86.381	334.859	330.904	333.799	253.283	104.673	288.883	51.883	139.540	285.613	40.620	45.119	67.015	272.604	257.188	293.160	0.00049982	0.00062378	0.00013245	1356.6	5.8453e-06	8.3658e-06	1361.2	367.84	9.8733e-06	3.8989e-06	418.24	140.94	122.25	41.831	4.4058e-06	51.878	0.00059261	0.00059068	0.00016516	1380.7	6.5826e-06	6.4729e-06	1379.4	375.32	6.446e-06	6.4046e-06	426.86	143.68	124.88	43.114	6.516e-06	53.29	254.107	115.328	151.456	41.488	202.166	155.545	41.188	46.333	190.585	153.156	45.433	50.340	50.758	55.025	165.483	54.119	-8191	255	
1011.960	1	1	0	0	0.19467	0.15031	0.085293	0.11287	0.087658	0.025095	0.13786	0.19796	0.35872	0.31704	0.21977	0.18378	0.16656	0.20671	0.084798	0.12871	0.30625	0.0125	-0.6625	0.08125	-0.30417	-0.48958	0.19792	-0.47083	0.05	0.3125	-0.71042	0.01875	-0.08125	-0.65833	0.45833	-0.52292	40.391	367.974	94.476	351.554	323.906	272.084	267.851	336.220	227.855	171.515	300.000	34.748	305.970	260.715	155.695	358.495	0.0005532	0.00070197	0.00011488	1356.6	2.4187e-06	4.5494e-06	1362.5	366.63	3.1868e-06	6.1632e-06	417.93	140.06	121.84	41.794	6.2229e-06	52.01	0.00059611	0.00059383	0.00016618	1380.1	6.4904e-06	6.4417e-06	1379.7	374.76	6.5167e-06	6.473e-06	426.72	143.79	124.75	43.143	6.6169e-06	53.354	240.775	126.054	91.985	41.273	93.751	136.773	41.304	46.449	250.780	197.901	45.462	50.251	51.007	54.792	189.950	54.282	-8191	255	
1012.056	1	1	0	0	0.17917	0.11605	0.14566	0.15748	0.13806	0.32866	0.17034	0.15729	0.10078	0.045291	0.10853	0.19307	0.13289	0.076195	0.24062	0.23962	0.35208	0.091667	-0.56042	-0.11458	-0.095833	-0.60208	0.10833	-0.48333	-0.31042	0.15417	-0.49583	0.064583	-0.35208	-0.56458	0.14583	-0.39792	387.256	295.753	83.753	354.081	284.220	327.096	325.254	353.986	189.477	253.980	302.029	363.918	97.035	213.609	248.884	32.308	0.00053483	0.00058949	0.00010807	1353.5	7.7592e-06	3.8727e-06	1362.4	368.6	2.9813e-06	3.4821e-06	418.1	140.33	122.49	41.683	7.9021e-06	52.039	0.00058579	0.00059399	0.0001679	1378.9	6.3979e-06	6.4263e-06	1379.2	374.61	6.3413e-06	6.4554e-06	427.52	143.77	124.94	43.038	6.5001e-06	53.356	251.861	95.100	105.841	41.542	191.632	119.092	41.554	46.207	226.597	153.660	45.853	50.577	50.754	55.235	204.225	54.323	-8191	255	
1012.153	1	1	0	0	0.18699	0.1316	0.16712	0.3661	0.28477	0.061963	0.36792	0.13854	0.23357	0.18267	0.066975	0.042874	0.09501	0.12421	0.083173	0.27521	-0.058333	0.21667	-0.62917	-0.20833	0.05625	-0.65417	0.14583	-0.26458	-0.3375	0.39167	-0.76458	-0.22708	0.027083	-0.70625	0.16875	-0.40417	257.559	236.711	319.609	279.963	213.203	76.787	344.116	351.014	73.125	291.936	314.649	98.640	130.445	159.673	97.507	30.290	0.00057903	0.00062643	0.00015898	1356.4	4.771e-06	6.4631e-06	1361.7	367.9	5.0202e-06	6.8489e-06	419.46	140.48	122.01	41.935	1.0071e-05	51.873	0.00058271	0.00059729	0.00016212	1381	6.3843e-06	6.3546e-06	1379.3	375.25	6.3286e-06	6.4249e-06	427.23	143.51	124.71	43.101	6.3929e-06	53.272	247.472	130.518	102.237	41.273	237.316	202.583	41.239	46.346	243.799	162.886	45.378	50.435	50.890	55.017	194.823	54.137	-8191	255	
1012.247	1	1	0	0	0.29051	0.31046	0.21953	0.075569	0.1094	0.24124	0.18634	0.094842	0.11493	0.08174	0.24673	0.20497	0.20276	0.058003	0.035623	0.083657	-0.1125	0.2375	-0.34375	-0.21042	0.18958	-0.44583	0.1875	-0.26667	-0.43542	0.3625	-0.66875	-0.32917	0.095833	-0.65	0.097917	-0.13333	30.955	190.756	259.300	106.156	221.273	124.012	298.647	297.286	295.377	320.481	275.338	103.542	380.656	236.272	227.127	101.941	0.00050778	0.00032928	0.00024458	1357.6	7.227e-06	5.7547e-06	1363.4	368.11	5.5386e-06	5.1605e-06	416.34	140.67	121.65	41.938	8.6191e-06	51.895	0.00058326	0.00058513	0.00016288	1380.3	6.32e-06	6.3084e-06	1379	374.62	6.351e-06	6.4216e-06	427.08	143.68	124.81	43.218	6.4496e-06	53.368	244.265	71.630	126.377	41.348	211.724	204.120	41.319	46.335	210.174	191.336	45.524	50.370	51.208	55.112	190.945	54.190	-8191	255	
1012.368	1	1	0	0	0.099015	0.1667	0.044705	0.13067	0.067639	0.22571	0.29074	0.41952	0.059249	0.20688	0.1927	0.33826	0.036212	0.19519	0.11672	0.15565	-0.125	0.2125	-0.30625	-0.39583	0.19792	-0.675	-0.13125	-0.18958	-0.28333	0.38333	-0.4125	-0.35208	0.13125	-0.47708	0.20208	0.15417	65.950	63.152	146.486	311.869	244.722	210.951	290.471	344.992	66.643	354.220	94.138	365.273	269.399	199.900	383.799	58.826	0.00052945	0.00073254	0.00012782	1354.5	7.1373e-06	7.2906e-06	1364.1	366.77	4.011e-06	6.8732e-06	417.09	140.36	122.08	41.774	4.7615e-06	51.548	0.0005872	0.00060033	0.00016604	1379	6.5605e-06	6.573e-06	1379.6	374.78	6.4782e-06	6.5655e-06	426.68	143.69	124.75	43.083	6.4426e-06	53.249	250.925	100.121	106.807	41.357	254.426	143.780	41.383	46.434	237.053	197.343	45.759	50.294	50.810	55.262	184.043	54.216	-8191	255	
1012.464	1	1	0	0	0.15197	0.32818	0.11369	0.45291	0.30862	0.1296	0.19445	0.068136	0.077332	0.085189	0.094237	0.043012	0.12848	0.07572	0.16769	0.043209	-0.325	0.25417	-0.34583	-0.61042	0.32292	-0.56042	-0.20625	-0.11042	-0.46042	0.28542	-0.27083	-0.61042	0.2	-0.40625	0.1	0.14167	30.272	282.250	330.204	350.091	371.822	347.758	370.863	39.593	260.733	295.650	308.104	372.858	93.257	358.875	321.644	133.069	0.00055999	0.0005441	0.00023819	1358.8	3.8668e-06	1.6287e-06	1362.7	367.83	5.3223e-06	6.8801e-06	418.72	140.67	122.33	41.745	6.6211e-06	51.79	0.00058342	0.00057759	0.0001624	1379.5	6.4998e-06	6.499e-06	1380.8	375.05	6.4531e-06	6.4422e-06	427.36	143.59	124.78	43.063	6.1972e-06	53.271	247.948	119.087	109.240	41.395	226.630	185.704	41.420	46.605	213.688	201.268	45.649	50.432	51.005	55.439	224.621	54.288	-8191	255	
1012.560	1	1	0	0	0.15809	0.271	0.09425	0.0896	0.13871	0.10809	0.031843	0.27122	0.2273	0.14707	0.1928	0.23891	0.33732	0.13774	0.15146	0.20949	-0.14375	0.15208	-0.19583	-0.83125	0.29167	-0.64167	-0.53542	0.033333	-0.55625	0.052083	-0.23125	-0.74375	0.029167	-0.62083	-0.3625	0.21667	233.526	310.068	307.870	65.782	299.894	36.029	345.250	377.149	360.205	95.683	239.126	285.649	366.294	226.015	346.639	283.599	0.00054147	0.00056642	0.0001341	1363.2	7.6718e-06	4.4506e-06	1363.7	367.49	1.9666e-06	9.2361e-06	420.16	140.71	122.09	41.772	3.9584e-06	51.961	0.00058405	0.00058683	0.00016168	1380.4	6.4541e-06	6.21e-06	1378.1	374.78	6.3158e-06	6.3324e-06	427.65	143.75	124.81	43.064	6.2662e-06	53.331	251.826	92.867	118.001	41.557	229.115	171.674	41.613	46.632	224.682	192.791	45.632	50.434	51.087	55.488	150.500	54.288	-8191	255	
1012.656	1	1	0	0	0.15936	0.12244	0.21272	0.10833	0.13399	0.2917	0.10404	0.38897	0.086848	0.14731	0.15437	0.17899	0.062678	0.15809	0.17387	0.070614	-0.18958	0.17083	0.16458	-0.69167	0.26667	-0.43542	-0.40625	0.20625	-0.58333	-0.075	0.029167	-0.6125	0.097917	-0.3375	-0.29167	0.27917	349.979	79.489	91.175	36.254	40.089	114.419	337.879	339.248	208.441	325.925	36.838	46.246	284.572	245.373	111.846	205.848	0.00054786	0.00065914	0.0001467	1354.5	4.6631e-06	4.5666e-06	1365.2	367.21	3.7401e-06	9.3352e-06	417.33	140.92	122.52	41.828	2.9424e-06	52.114	0.00058093	0.00058037	0.00016264	1378.7	6.3816e-06	6.3705e-06	1379.7	374.8	6.4422e-06	6.3272e-06	426.39	143.53	125.03	43.1	6.4144e-06	53.34	253.490	126.724	107.845	41.556	236.266	151.411	41.484	46.590	223.095	213.236	45.882	50.648	51.258	55.569	159.053	54.272	-8191	255	
1012.752	1	1	0	0	0.089988	0.095345	0.025241	0.12989	0.056042	0.2157	0.42314	0.36173	0.1557	0.055295	0.3546	0.091028	0.2504	0.19875	0.10044	0.13458	-0.14375	-0.041667	0.1875	-0.82917	0.066667	-0.27708	-0.58958	0.0041667	-0.3875	-0.14375	0.22917	-0.5625	0.14792	-0.2625	-0.39583	0.21042	303.101	140.687	369.713	379.807	221.173	170.089	308.432	312.529	122.172	37.041	341.747	367.389	86.186	388.406	45.192	296.001	0.0005883	0.00063829	0.00020181	1358.9	5.8212e-06	5.1486e-06	1362.7	367.09	6.1749e-06	8.1677e-06	419.06	140.4	122.21	41.768	3.7337e-06	51.915	0.00057904	0.0005826	0.00016315	1380.6	6.4832e-06	6.3615e-06	1379	374.57	6.2738e-06	6.4234e-06	426.77	143.59	124.91	43.093	6.3357e-06	53.248	245.860	111.436	131.223	41.927	234.302	213.704	41.469	46.664	225.745	154.764	45.962	50.555	50.928	55.386	235.238	54.623	-8191	255	
#DATA ENDS
