BOXY.EXE: ISS Imagent and Oximeter Data Acquisition Program Version 0.80
Ascii Record File

#ACQ INFORMATION
2  Detector Channels 
16  External MUX Channels 
1  Auxiliary Channels 
5000  Waveform (CCF) Frequency (Hz)
1  Waveforms Skipped 
30  Waveforms Averaged 
1  Cycles Averaged 
16  Acquisitions per Waveform 
10.0806  Updata Rate (Hz) 

#FILE INFORMATION
TRUE -- External MUX Channel results are PARSED.
FALSE -- AC DC and Phase are NOT grouped.
TRUE -- Companion Program Settings File CREATED.
FALSE -- AC data not excluded
FALSE -- DC data not excluded
FALSE -- Phase data not excluded
FALSE -- Auxillary Chn. data not excluded
Tab delimiters

#CALIBRATION STATE
TRUE -- Waveform Calibration Values APPLIED.


#AUX CALIBRATION VALUES
Val Type	aux-1	

Term	1.0000e+00	
Factor	0.0000e+00	


#WF CALIBRATION VALUES
A = Detector Channel
Val Type	A-AC1	A-AC2	A-AC3	A-AC4	A-AC5	A-AC6	A-AC7	A-AC8	A-AC9	A-AC10	A-AC11	A-AC12	A-AC13	A-AC14	A-AC15	A-AC16	A-DC1	A-DC2	A-DC3	A-DC4	A-DC5	A-DC6	A-DC7	A-DC8	A-DC9	A-DC10	A-DC11	A-DC12	A-DC13	A-DC14	A-DC15	A-DC16	A-Ph1	A-Ph2	A-Ph3	A-Ph4	A-Ph5	A-Ph6	A-Ph7	A-Ph8	A-Ph9	A-Ph10	A-Ph11	A-Ph12	A-Ph13	A-Ph14	A-Ph15	A-Ph16	

Term	0.00000e+00	0.00000e+00	0.00000e+00	0.00000e+00	0.00000e+00	0.00000e+00	0.00000e+00	0.00000e+00	0.00000e+00	0.00000e+00	0.00000e+00	0.00000e+00	0.00000e+00	0.00000e+00	0.00000e+00	0.00000e+00	0.00000e+00	0.00000e+00	0.00000e+00	0.00000e+00	0.00000e+00	0.00000e+00	0.00000e+00	0.00000e+00	0.00000e+00	0.00000e+00	0.00000e+00	0.00000e+00	0.00000e+00	0.00000e+00	0.00000e+00	0.00000e+00	0.00000e+00	0.00000e+00	0.00000e+00	0.00000e+00	0.00000e+00	0.00000e+00	0.00000e+00	0.00000e+00	0.00000e+00	0.00000e+00	0.00000e+00	0.00000e+00	0.00000e+00	0.00000e+00	0.00000e+00	0.00000e+00	
Factor	1.00000e+00	1.00000e+00	1.00000e+00	1.00000e+00	1.00000e+00	1.00000e+00	1.00000e+00	1.00000e+00	1.00000e+00	1.00000e+00	1.00000e+00	1.00000e+00	1.00000e+00	1.00000e+00	1.00000e+00	1.00000e+00	1.00000e+00	1.00000e+00	1.00000e+00	1.00000e+00	1.00000e+00	1.00000e+00	1.00000e+00	1.00000e+00	1.00000e+00	1.00000e+00	1.00000e+00	1.00000e+00	1.00000e+00	1.00000e+00	1.00000e+00	1.00000e+00	X	X	X	X	X	X	X	X	X	X	X	X	X	X	X	X	

B = Detector Channel
Val Type	B-AC1	B-AC2	B-AC3	B-AC4	B-AC5	B-AC6	B-AC7	B-AC8	B-AC9	B-AC10	B-AC11	B-AC12	B-AC13	B-AC14	B-AC15	B-AC16	B-DC1	B-DC2	B-DC3	B-DC4	B-DC5	B-DC6	B-DC7	B-DC8	B-DC9	B-DC10	B-DC11	B-DC12	B-DC13	B-DC14	B-DC15	B-DC16	B-Ph1	B-Ph2	B-Ph3	B-Ph4	B-Ph5	B-Ph6	B-Ph7	B-Ph8	B-Ph9	B-Ph10	B-Ph11	B-Ph12	B-Ph13	B-Ph14	B-Ph15	B-Ph16	

Term	0.00000e+00	0.00000e+00	0.00000e+00	0.00000e+00	0.00000e+00	0.00000e+00	0.00000e+00	0.00000e+00	0.00000e+00	0.00000e+00	0.00000e+00	0.00000e+00	0.00000e+00	0.00000e+00	0.00000e+00	0.00000e+00	0.00000e+00	0.00000e+00	0.00000e+00	0.00000e+00	0.00000e+00	0.00000e+00	0.00000e+00	0.00000e+00	0.00000e+00	0.00000e+00	0.00000e+00	0.00000e+00	0.00000e+00	0.00000e+00	0.00000e+00	0.00000e+00	2.16202e+01	-1.27640e+02	-1.20072e+02	-1.81829e+02	-6.16250e+01	-7.02085e+01	-1.55860e+02	-1.62015e+02	-1.48752e+01	-5.71797e+01	-1.72273e+02	-1.70198e+02	-1.80175e+02	-1.76607e+02	-7.27239e+01	-1.49939e+02	
Factor	4.79762e-05	1.77696e-04	5.16229e-05	1.64818e-01	2.61545e-06	2.05122e-06	1.93509e-01	5.38336e-02	2.73419e-06	1.91366e-06	1.19766e-01	3.42918e-02	3.29175e-02	9.95306e-03	2.68039e-06	1.45024e-02	5.05911e-06	5.72559e-06	1.60112e-06	8.38037e-02	6.11931e-08	6.30998e-08	9.23443e-02	2.74153e-02	6.11160e-08	6.32174e-08	5.83758e-02	1.68713e-02	1.67443e-02	5.10467e-03	6.19901e-08	7.18827e-03	X	X	X	X	X	X	X	X	X	X	X	X	X	X	X	X	



#DISTANCE SETTINGS
A = Detector Channel
A-1	A-2	A-3	A-4	A-5	A-6	A-7	A-8	A-9	A-10	A-11	A-12	A-13	A-14	A-15	A-16	

2.5000e+00	3.0000e+00	2.5000e+00	3.0000e+00	2.0000e+00	3.0000e+00	1.5000e+00	3.0000e+00	3.0000e+00	3.0000e+00	3.0000e+00	3.0000e+00	3.0000e+00	3.0000e+00	1.5000e+00	3.0000e+00	

B = Detector Channel
B-1	B-2	B-3	B-4	B-5	B-6	B-7	B-8	B-9	B-10	B-11	B-12	B-13	B-14	B-15	B-16	

1.0000e+01	1.0000e+01	1.0000e+01	1.4400e+00	1.0000e+01	1.0000e+01	1.5100e+00	1.9400e+00	1.0000e+01	1.0000e+01	1.9900e+00	2.4900e+00	2.4100e+00	2.9000e+00	1.0000e+01	2.9800e+00	




#DATA BEGINS
time	group	step	mark	flag	A-AC1	A-AC2	A-AC3	A-AC4	A-AC5	A-AC6	A-AC7	A-AC8	A-AC9	A-AC10	A-AC11	A-AC12	A-AC13	A-AC14	A-AC15	A-AC16	A-DC1	A-DC2	A-DC3	A-DC4	A-DC5	A-DC6	A-DC7	A-DC8	A-DC9	A-DC10	A-DC11	A-DC12	A-DC13	A-DC14	A-DC15	A-DC16	A-Ph1	A-Ph2	A-Ph3	A-Ph4	A-Ph5	A-Ph6	A-Ph7	A-Ph8	A-Ph9	A-Ph10	A-Ph11	A-Ph12	A-Ph13	A-Ph14	A-Ph15	A-Ph16	B-AC1	B-AC2	B-AC3	B-AC4	B-AC5	B-AC6	B-AC7	B-AC8	B-AC9	B-AC10	B-AC11	B-AC12	B-AC13	B-AC14	B-AC15	B-AC16	B-DC1	B-DC2	B-DC3	B-DC4	B-DC5	B-DC6	B-DC7	B-DC8	B-DC9	B-DC10	B-DC11	B-DC12	B-DC13	B-DC14	B-DC15	B-DC16	B-Ph1	B-Ph2	B-Ph3	B-Ph4	B-Ph5	B-Ph6	B-Ph7	B-Ph8	B-Ph9	B-Ph10	B-Ph11	B-Ph12	B-Ph13	B-Ph14	B-Ph15	B-Ph16	aux-1	digaux	

1300.262	1	1	0	768	0.17665	0.1672	0.18273	0.17671	0.068059	0.28232	0.1858	0.14301	0.26653	0.17929	0.1042	0.15653	0.12511	0.13935	0.11404	0.25455	-1.9521	-2.1104	-2.6333	-2.3479	-2.2792	-2.5896	-2.1917	-2.5896	-2.7271	-2.1625	-2.8521	-2.6	-2.4854	-2.9333	-2.3479	-2.7354	217.715	238.138	27.402	308.763	175.975	274.455	316.484	201.883	200.292	346.209	103.672	355.341	240.011	331.018	114.085	332.438	0.0012985	0.0005814	0.00017236	553.1	6.7628e-06	5.6423e-06	811.38	215.08	8.7306e-06	4.5466e-06	356.27	189	100.16	57.99	9.7209e-06	108.54	0.00016551	3.8481e-05	9.8469e-06	543.23	4.2198e-07	3.3666e-07	796	211.52	4.52e-07	3.7469e-07	350.06	186	97.837	57.653	5.1801e-07	107.54	294.607	86.744	97.388	11.653	162.242	145.588	12.021	17.582	223.517	146.453	16.306	20.789	20.895	24.823	145.118	22.662	-8191	255	
1300.359	1	1	0	0	0.008918	0.26425	0.030201	0.17104	0.22461	0.010973	0.2518	0.14394	0.18299	0.069222	0.14763	0.34572	0.30229	0.24007	0.33132	0.40226	-2.2062	-1.9854	-2.6	-2.2271	-2.1646	-2.6042	-2.3438	-2.3979	-2.8708	-2.2729	-2.6979	-2.6312	-2.375	-2.6708	-2.3542	-2.6083	303.373	356.251	75.731	323.839	354.631	53.108	324.571	275.407	157.970	162.487	272.640	326.387	4.833	325.055	340.066	301.482	0.0012673	0.00067011	0.00016783	553.82	8.7273e-06	7.6179e-06	813.73	215.6	8.5653e-06	5.4303e-06	357.43	188.28	99.896	58.318	9.0009e-06	107.64	0.00016908	4.0616e-05	1.002e-05	542.4	4.2542e-07	3.4087e-07	794.57	212.35	4.4627e-07	4.042e-07	350.42	185.47	97.905	57.72	5.3169e-07	106.74	293.603	78.903	96.436	11.669	158.791	140.752	11.802	17.574	203.816	153.085	16.041	20.632	20.894	24.553	154.969	22.741	-8191	255	
1300.455	1	1	0	0	0.10189	0.1386	0.19492	0.0946	0.13033	0.1104	0.13904	0.19898	0.20591	0.11892	0.22568	0.059846	0.085997	0.32007	0.13484	0.14804	-2.1458	-2.3271	-2.4833	-2.3271	-2.3354	-2.725	-2.6167	-2.55	-2.8458	-2.1562	-2.7229	-2.5062	-2.1979	-2.8396	-2.3	-2.6437	152.098	77.894	51.999	104.214	149.606	358.347	297.694	320.840	124.553	164.841	331.269	182.338	200.383	337.942	266.421	186.941	0.0013192	0.00057449	0.00015604	556	6.0984e-06	6.5196e-06	807.06	215.61	8.2341e-06	5.8674e-06	356.53	189.08	100.24	58.365	8.2095e-06	108.24	0.00017001	3.6668e-05	9.2131e-06	541.9	4.2147e-07	3.3246e-07	790.91	212.22	4.3481e-07	3.6416e-07	350.22	185.72	98.323	57.895	4.9954e-07	107.22	291.830	84.165	78.440	11.915	156.410	152.503	11.740	17.572	205.960	160.200	16.409	20.844	20.619	24.777	154.591	22.741	-8191	255	
1300.549	1	1	0	0	0.041879	0.21465	0.18533	0.053658	0.098852	0.13191	0.23944	0.095741	0.24695	0.16552	0.096497	0.40034	0.10281	0.30864	0.11684	0.014852	-2.3479	-2.275	-2.6937	-2.7792	-2.3375	-2.8229	-2.4896	-2.4229	-2.6375	-2.3438	-2.5979	-2.7104	-2.1021	-2.8104	-2.3937	-2.5125	324.258	56.277	11.782	209.643	110.602	208.349	303.732	13.223	67.225	209.857	251.287	307.614	102.355	1.551	242.399	55.388	0.0013318	0.00050427	0.00016655	553.15	7.698e-06	6.62e-06	811.62	216.18	8.4567e-06	5.1832e-06	356.72	188.16	100.96	58.284	7.7497e-06	108.58	0.00017399	3.4843e-05	1.0037e-05	541.01	4.2835e-07	3.6466e-07	793.2	212.9	4.3112e-07	3.9445e-07	350.46	185.9	98.749	58.02	5.2343e-07	107.61	293.505	94.545	100.515	11.887	166.633	142.107	11.979	17.524	203.329	161.887	16.231	20.730	20.664	24.818	156.543	22.592	-8191	255	
1300.645	1	1	0	0	0.2787	0.19778	0.3111	0.14159	0.029616	0.037259	0.070681	0.047793	0.037598	0.10391	0.19648	0.21225	0.22192	0.15125	0.28272	0.10191	-2.4062	-2.45	-2.5062	-2.7979	-2.4021	-2.7729	-2.6333	-2.3958	-2.8104	-2.1792	-2.5	-2.5479	-2.4021	-2.8333	-2.6167	-2.4625	187.145	133.413	183.735	281.425	123.485	105.035	113.625	199.623	188.539	114.026	43.319	6.089	345.290	24.406	131.257	291.457	0.0013973	0.00052573	0.00019675	553.99	8.4844e-06	6.1061e-06	814.7	217.11	8.6435e-06	5.379e-06	359.65	189.07	100.84	58.5	8.3697e-06	109.45	0.00017745	3.7849e-05	9.5333e-06	542.14	4.3103e-07	3.6401e-07	795.78	213.24	4.5149e-07	3.4533e-07	352.26	186.76	98.758	58.153	4.9657e-07	108.06	291.176	86.639	96.281	11.852	157.577	141.771	11.898	17.588	207.104	154.767	16.177	20.862	21.150	24.832	145.413	22.612	-8191	255	
1300.743	1	1	0	0	0.0773	0.14583	0.12706	0.20603	0.12561	0.31888	0.17334	0.1606	0.15435	0.38802	0.41781	0.30263	0.38923	0.13357	0.22448	0.35575	-2.4271	-2.4938	-2.4792	-2.7521	-2.3583	-2.6708	-2.7562	-2.3854	-2.5458	-2.2938	-2.3083	-2.7583	-2.5958	-2.8125	-2.6417	-2.1688	93.348	43.604	314.198	306.622	94.164	316.251	300.350	331.268	300.699	73.855	256.700	328.725	318.891	228.576	23.412	344.117	0.0012899	0.00058926	0.0001425	552.32	7.8694e-06	5.7956e-06	808.54	216.34	1.0733e-05	6.17e-06	358.17	188.58	99.174	57.699	8.7084e-06	107.73	0.0001723	3.6942e-05	9.7935e-06	541.7	4.2211e-07	3.4981e-07	794.27	212.51	4.7683e-07	3.5929e-07	350.01	185	97.464	57.36	4.8017e-07	106.66	291.068	83.527	82.477	11.710	157.381	146.870	11.801	17.595	199.923	153.654	16.070	20.599	20.861	24.744	155.538	22.419	-8191	255	
1300.862	1	1	0	0	0.35265	0.20467	0.10944	0.13672	0.16366	0.17287	0.10197	0.17967	0.1945	0.059792	0.12833	0.0082607	0.24027	0.27446	0.091487	0.21382	-2.1333	-2.5479	-2.2917	-2.5417	-2.1542	-2.5687	-2.9583	-2.2479	-2.725	-2.4958	-2.6333	-2.8042	-2.3771	-2.6958	-2.575	-2.1937	86.329	267.438	8.670	137.381	51.406	200.141	90.416	95.245	212.275	169.388	242.946	0.615	259.248	298.237	59.734	359.509	0.001325	0.00068509	0.00017602	549.74	1.0015e-05	4.7106e-06	808.56	213.46	6.7755e-06	5.6777e-06	352.4	185.03	97.93	56.65	8.7755e-06	106.12	0.0001735	3.6179e-05	1.0414e-05	538.98	4.7119e-07	3.6664e-07	788.63	209.93	4.3367e-07	3.6706e-07	346.94	182.42	95.994	56.353	4.8869e-07	105.07	292.698	88.923	89.690	11.736	160.138	145.784	11.682	17.607	215.325	151.338	16.038	20.897	20.599	24.952	153.370	22.633	-8191	255	
1300.958	1	1	0	0	0.13954	0.13348	0.075193	0.072207	0.11381	0.17779	0.12601	0.055629	0.14058	0.13967	0.15899	0.20109	0.22161	0.13444	0.23674	0.095311	-2.2542	-2.3792	-2.2354	-2.825	-2.2313	-2.4833	-2.8771	-2.3771	-2.8104	-2.5812	-2.2542	-2.8229	-2.1833	-2.3792	-2.7562	-2.5354	314.695	161.706	44.729	143.516	141.624	226.572	325.516	30.071	4.501	348.493	320.990	334.803	72.143	354.759	286.248	198.095	0.0012881	0.00068898	0.00015438	546.93	6.7874e-06	5.6854e-06	801.7	211.16	7.8827e-06	6.3527e-06	351.45	184.34	97.442	56.685	7.7195e-06	105.56	0.00016518	3.6596e-05	9.8602e-06	535.28	4.1892e-07	3.5507e-07	785.95	208.46	4.3698e-07	3.5665e-07	344.22	181.42	95.545	56.072	4.8585e-07	104.75	292.309	90.659	101.027	11.554	167.420	134.431	11.875	17.530	208.068	158.491	16.117	20.905	20.691	24.754	159.049	22.694	-8191	255	
1301.054	1	1	0	0	0.16932	0.24203	0.17841	0.31493	0.14109	0.081146	0.14811	0.22841	0.11703	0.2028	0.13722	0.13681	0.098636	0.29437	0.094034	0.23846	-2.1021	-2.3625	-2.1188	-2.8854	-2.3563	-2.3104	-2.8375	-2.5146	-2.7875	-2.6625	-2.2458	-2.875	-2.5104	-2.4437	-2.7042	-2.5229	189.667	214.934	348.157	319.881	92.703	203.838	305.111	234.262	184.617	278.359	313.684	295.859	328.608	307.773	201.231	233.658	0.0013583	0.00049304	0.00014725	549.75	7.6364e-06	6.1534e-06	807.97	211.86	8.4808e-06	6.3842e-06	353.87	184.69	97.596	56.519	7.0193e-06	106.36	0.00016937	3.786e-05	1.0911e-05	536.96	4.6532e-07	3.5533e-07	789.05	208.36	4.5722e-07	3.315e-07	346.4	182.21	95.637	56.235	4.8365e-07	105.42	295.998	93.033	100.463	11.615	161.478	145.941	11.618	17.287	207.894	158.647	16.075	20.878	20.818	24.975	160.308	22.758	-8191	255	
1301.150	1	1	0	0	0.22648	0.20357	0.099058	0.034903	0.29725	0.11206	0.064198	0.22212	0.1436	0.25846	0.14783	0.070157	0.12221	0.22715	0.20015	0.10767	-2.3958	-2.6833	-2.2958	-2.7771	-2.5083	-2.4771	-3.0021	-2.3708	-2.6	-2.6271	-2.1813	-2.6646	-2.2313	-2.2812	-2.6729	-2.4396	232.061	285.906	252.778	2.351	110.383	329.079	183.795	341.492	112.288	93.858	223.935	260.890	143.227	306.337	295.212	342.375	0.00132	0.00067192	0.00013386	551.3	8.2932e-06	6.912e-06	806.48	213.28	9.7534e-06	5.1423e-06	355.87	185.6	98.228	56.882	6.55e-06	107.17	0.00016942	3.5391e-05	9.48e-06	538.29	4.1968e-07	3.4731e-07	790.66	209.66	4.5837e-07	3.3374e-07	347.41	183	96.194	56.46	4.5731e-07	105.95	292.813	82.347	98.346	11.992	163.208	145.704	11.992	17.541	209.256	152.949	16.092	20.687	20.700	24.765	149.214	22.687	-8191	255	
1301.247	1	1	0	0	0.1408	0.31832	0.14307	0.20939	0.35713	0.099131	0.20827	0.031911	0.2543	0.13132	0.22275	0.046068	0.25205	0.22786	0.2466	0.30485	-2.1125	-2.6542	-2.1792	-2.8187	-2.5375	-2.4313	-2.8792	-2.4021	-2.3854	-2.7042	-2.5729	-2.6229	-2.4854	-2.2208	-2.5083	-2.4729	294.341	60.496	42.703	247.133	86.583	46.016	315.136	299.811	350.056	124.021	281.794	245.904	252.949	338.409	4.773	278.014	0.0013069	0.0006347	0.00017882	552.76	8.3172e-06	5.3107e-06	809.26	213.44	9.9894e-06	5.8423e-06	352.82	184.9	97.866	56.98	7.9195e-06	106.56	0.00017082	3.7932e-05	1.0474e-05	538.64	4.4735e-07	3.4955e-07	790.21	209.59	4.4908e-07	3.4335e-07	345.84	182.51	96.184	56.616	4.741e-07	105.4	294.994	84.738	92.225	11.676	151.568	139.655	11.518	17.374	216.686	156.335	16.195	20.781	20.833	24.808	161.362	22.497	-8191	255	
1301.343	1	1	0	0	0.19392	0.084213	0.11041	0.34742	0.027298	0.16878	0.22849	0.25746	0.10656	0.078219	0.21517	0.11705	0.27378	0.22791	0.11847	0.26563	-1.8396	-2.3771	-2.1188	-2.7	-2.7313	-2.3438	-2.7313	-2.2083	-2.2042	-2.6604	-2.4042	-2.8042	-2.6604	-2.3354	-2.9375	-2.6979	182.186	308.723	304.485	265.494	32.188	263.794	294.378	322.713	303.430	16.616	293.482	333.265	64.919	320.345	212.386	345.562	0.0012695	0.00061555	0.00016276	548.77	9.1814e-06	6.3662e-06	808.16	212.99	8.3733e-06	5.7399e-06	352.34	185.19	99.268	57.335	9.3798e-06	107.03	0.00016633	3.8075e-05	9.9503e-06	537.81	4.3957e-07	3.8228e-07	789.53	209.58	4.5671e-07	3.7377e-07	346.49	182.97	96.845	56.963	4.6712e-07	105.86	293.015	85.765	99.585	11.425	151.983	143.436	11.840	17.511	201.628	155.082	16.177	20.652	20.919	24.761	161.985	22.620	-8191	255	
1301.463	1	1	0	0	0.14247	0.058883	0.23299	0.16787	0.070505	0.17611	0.21702	0.23659	0.11369	0.3035	0.23062	0.25389	0.1982	0.13043	0.013454	0.10929	-1.9562	-2.6042	-2.0875	-2.6292	-2.8271	-2.2271	-2.8563	-2.6604	-2.1833	-2.5479	-2.3229	-2.5167	-2.7292	-2.2917	-2.6958	-2.7875	75.791	99.915	121.173	259.834	29.600	288.537	200.754	245.010	357.345	256.351	229.331	351.166	298.306	248.865	245.936	274.916	0.0012737	0.00050644	0.00016256	549.38	7.6312e-06	6.8444e-06	808.04	213.99	8.7156e-06	5.449e-06	355.07	185.97	98.373	57.313	8.4942e-06	107.3	0.0001677	3.4127e-05	1.0294e-05	538.98	4.114e-07	3.8609e-07	789.6	210.14	4.7365e-07	3.3347e-07	347.47	183.38	96.42	57.072	4.6312e-07	106.13	294.162	80.916	92.674	11.659	163.364	142.395	11.746	17.612	203.485	153.806	16.350	20.499	20.821	24.807	157.122	22.770	-8191	255	
1301.558	1	1	0	0	0.21034	0.29502	0.1058	0.2395	0.16679	0.25415	0.12218	0.1186	0.14242	0.047028	0.088913	0.13151	0.12036	0.28015	0.15869	0.34602	-1.9479	-2.6979	-2.3542	-2.5083	-2.3958	-2.2229	-2.8854	-2.6417	-2.2646	-2.8625	-2.4521	-2.6583	-2.7583	-2.3146	-2.4604	-2.5833	87.027	16.031	4.154	337.501	304.082	177.415	287.575	336.502	110.265	64.068	323.419	292.158	151.372	53.789	121.958	252.643	0.0012428	0.00058757	0.00015825	555.96	8.8179e-06	6.6909e-06	811.51	213.89	7.8819e-06	5.7026e-06	355.22	186.88	99.03	57.468	8.4773e-06	107.57	0.00016502	3.4843e-05	1.0234e-05	543.06	4.4888e-07	3.8425e-07	793.26	210.58	4.492e-07	3.0963e-07	348.7	184.03	97.11	57.132	4.71e-07	106.42	294.011	77.494	96.879	11.672	149.966	141.327	11.881	17.470	207.826	153.438	15.958	20.731	20.804	24.821	156.355	22.726	-8191	255	
1301.654	1	1	0	0	0.064886	0.085352	0.12514	0.070026	0.13379	0.4354	0.32912	0.11413	0.16331	0.13165	0.070979	0.1061	0.13391	0.11891	0.097679	0.33748	-1.7292	-2.7208	-2.575	-2.5458	-2.6813	-2.2417	-2.5333	-2.4833	-2.1646	-2.7167	-2.6292	-2.5833	-2.9104	-2.5646	-2.5271	-2.8354	298.744	281.690	249.184	302.155	113.729	71.655	231.120	290.338	166.119	350.730	36.629	29.447	333.788	332.042	226.775	232.867	0.0012845	0.00071684	0.00016501	555.69	6.732e-06	6.0392e-06	811.87	214.05	8.7311e-06	5.9238e-06	356.53	185.62	99.204	57.41	8.4561e-06	106.93	0.0001701	3.6e-05	1.0277e-05	542.22	3.7353e-07	3.8031e-07	794.55	210.42	4.8778e-07	3.6561e-07	348.34	183.29	96.844	56.993	4.8365e-07	105.97	294.118	92.900	96.150	11.622	157.647	134.412	11.821	17.485	205.748	156.750	16.100	20.660	20.575	24.830	147.729	22.714	-8191	255	
1301.750	1	1	0	0	0.2801	0.47686	0.26204	0.054318	0.081219	0.29231	0.34094	0.27351	0.27543	0.17089	0.092372	0.10025	0.14942	0.29522	0.19448	0.10006	-1.9354	-2.7521	-2.4292	-2.3292	-2.6729	-2.2229	-2.7771	-2.8146	-2.2958	-2.6667	-2.5812	-2.4188	-2.8979	-2.5875	-2.4667	-2.8583	289.913	296.684	256.213	247.080	177.561	313.547	205.302	316.943	22.477	327.469	272.935	165.716	174.227	48.252	34.331	86.211	0.0012535	0.00058091	0.00016795	551.86	7.902e-06	6.7766e-06	809.05	212.78	8.4473e-06	4.914e-06	354.88	184.65	98.554	57.064	7.7989e-06	106.2	0.00016792	3.4163e-05	1.002e-05	540.48	4.1344e-07	3.8517e-07	791.26	209.65	4.6117e-07	3.1977e-07	345.87	182.28	96.586	56.675	5.0238e-07	105.18	293.310	94.056	104.670	11.714	162.749	142.089	11.797	17.790	209.383	154.286	16.090	20.754	21.017	24.777	146.687	22.542	-8191	255	
1301.823	1	1	0	0	0.26505	0.17649	0.18703	0.19466	0.10565	0.094651	0.12026	0.20041	0.19481	0.19995	0.048639	0.10234	0.24642	0.17	0.086132	0.19852	-1.8792	-2.5229	-2.4625	-2.2833	-2.8229	-2.4646	-2.65	-2.6521	-2.2292	-2.6771	-2.8063	-2.2104	-2.6021	-2.4167	-2.5396	-2.9292	187.672	259.732	324.338	11.867	14.270	124.859	330.621	322.162	189.710	343.477	272.865	310.130	62.129	343.371	21.726	254.853	0.0013203	0.00054758	0.0001847	552.23	7.3522e-06	4.8275e-06	810.28	213.25	7.8147e-06	6.0054e-06	353.03	185.08	98.419	56.935	8.928e-06	106.45	0.0001698	3.6083e-05	9.61e-06	539.44	3.6831e-07	3.4153e-07	790.31	210.2	4.3685e-07	3.4546e-07	345.76	182.26	96.346	56.678	5.2924e-07	105.2	293.848	84.998	91.359	11.780	161.476	155.125	11.752	17.372	198.095	151.245	15.968	20.750	20.855	25.077	149.775	22.664	-8191	255	
1301.942	1	1	0	0	0.23149	0.066976	0.1431	0.17136	0.1867	0.30347	0.2577	0.19671	0.076676	0.20983	0.24925	0.0817	0.063083	0.43181	0.21599	0.28976	-1.8604	-2.5917	-2.7083	-2.3583	-2.7875	-2.4146	-2.4437	-2.8312	-2.3458	-2.4583	-2.6104	-2.3625	-2.6833	-2.5708	-2.4542	-2.8646	7.695	317.281	106.225	301.983	171.646	287.686	356.725	17.410	166.288	192.747	327.364	162.735	308.229	12.139	116.623	357.808	0.001254	0.00060441	0.00016325	549.81	8.1191e-06	6.355e-06	808.5	213.15	8.4375e-06	5.8918e-06	353.98	184.49	98.595	57.149	8.6448e-06	106.46	0.00016192	3.495e-05	8.5827e-06	539.49	3.887e-07	3.6111e-07	790.89	209.31	4.8027e-07	3.7483e-07	345.56	182.22	96.301	56.602	5.0948e-07	105.58	295.146	92.375	99.421	11.834	154.272	137.797	11.772	17.597	216.795	157.038	15.961	20.743	20.825	24.735	158.032	22.658	-8191	255	
1302.039	1	1	0	0	0.18998	0.27259	0.20784	0.098521	0.17615	0.24534	0.21627	0.031692	0.21484	0.052224	0.11248	0.16836	0.074177	0.28268	0.12929	0.069183	-1.825	-2.3312	-2.4979	-2.0896	-2.7083	-2.45	-2.3583	-3.0917	-2.4208	-2.4292	-2.925	-2.3333	-2.7125	-2.6	-2.0167	-2.7042	58.363	120.322	111.455	235.984	77.889	23.249	294.845	132.604	22.219	53.499	152.736	325.404	106.519	275.023	234.664	19.575	0.0012391	0.00060102	0.00013227	553.57	8.4387e-06	6.5078e-06	809.63	213.46	9.3532e-06	6.6827e-06	356.45	186.3	98.916	57.349	8.6883e-06	106.78	0.00016713	3.6918e-05	9.57e-06	540.52	4.1739e-07	3.6072e-07	791.5	210.13	4.7632e-07	3.6429e-07	347.63	183.73	96.782	56.972	5.1826e-07	105.84	293.080	85.427	98.754	12.102	169.828	150.721	11.679	17.549	202.395	165.473	16.318	20.614	20.858	24.800	155.861	22.558	-8191	255	
1302.135	1	1	0	0	0.18829	0.072688	0.12075	0.14998	0.14636	0.19496	0.22659	0.2101	0.060437	0.13789	0.23026	0.33232	0.032699	0.23668	0.12445	0.25261	-1.9708	-2.4125	-2.8479	-2.3896	-2.5604	-2.4854	-2.3104	-2.7292	-2.4	-2.4708	-2.9396	-2.3125	-2.7458	-2.8208	-2.1167	-2.6583	237.032	0.320	20.236	94.258	112.667	104.273	158.678	266.977	106.067	140.131	271.393	350.916	18.739	315.664	324.220	316.571	0.0012456	0.00054609	0.00016507	551.79	7.9382e-06	5.6959e-06	805.21	214.5	9.383e-06	4.5094e-06	355.82	185.65	98.659	57.187	8.6637e-06	106.78	0.00016361	3.6357e-05	9.4399e-06	540.47	4.1535e-07	3.3561e-07	790.3	210.24	4.4831e-07	3.6521e-07	347.22	182.87	96.797	56.901	4.9889e-07	105.55	293.883	104.446	101.597	11.902	153.973	136.939	11.727	17.689	207.291	162.454	16.471	20.915	20.609	24.734	153.540	22.751	-8191	255	
1302.231	1	1	0	0	0.082811	0.22155	0.20522	0.043528	0.4454	0.11245	0.1004	0.39646	0.090781	0.12764	0.26083	0.24012	0.32665	0.16964	0.16363	0.056323	-1.8646	-2.0625	-2.5062	-2.35	-2.6625	-2.5812	-2.2917	-2.6583	-2.6271	-2.4375	-2.7708	-2.3917	-2.4313	-2.6167	-2.0896	-2.6688	3.733	226.277	353.014	321.776	211.154	1.881	285.666	315.908	111.834	87.506	312.669	166.741	304.473	303.677	263.593	291.989	0.0012797	0.0006877	0.00018006	551.02	9.466e-06	7.1486e-06	805.85	213.08	8.1917e-06	6.5506e-06	355.02	186.44	99.06	57.433	9.2424e-06	106.92	0.00016536	3.7109e-05	1.0287e-05	539.1	4.4034e-07	3.619e-07	789.48	210	4.5837e-07	3.9471e-07	347.02	183.33	97.085	57.096	5.2872e-07	105.55	291.515	90.117	99.315	11.588	163.999	147.172	11.815	17.623	216.607	153.830	16.537	20.709	21.029	24.558	159.546	22.764	-8191	255	
1302.351	1	1	0	0	0.3268	0.16219	0.048805	0.11471	0.15094	0.083303	0.048778	0.049939	0.14035	0.16289	0.35106	0.12776	0.081879	0.25498	0.16198	0.26543	-1.8813	-2.0312	-2.3625	-2.5542	-2.2542	-2.5771	-2.1396	-2.6708	-2.2521	-2.0187	-2.6875	-2.1667	-2.4292	-2.8312	-2.2792	-2.7917	156.856	156.726	259.553	217.314	58.112	313.453	43.370	317.343	26.828	53.961	276.481	323.817	250.132	8.313	13.275	330.961	0.0012659	0.00047591	0.00016992	551.1	9.8323e-06	6.7991e-06	806.2	214.51	7.846e-06	4.5213e-06	353.52	186.37	99.634	57.598	8.7504e-06	107.22	0.00016924	3.4711e-05	9.3232e-06	539.7	4.5793e-07	3.6848e-07	788.46	210.65	4.6079e-07	3.8286e-07	347.77	183.82	97.668	57.332	4.936e-07	106.16	293.008	79.270	103.625	11.694	166.003	144.420	11.757	17.654	221.990	148.323	16.275	20.680	20.958	24.967	153.665	22.849	-8191	255	
1302.423	1	1	0	0	0.070582	0.073405	0.30791	0.18792	0.15366	0.2607	0.17194	0.15157	0.30799	0.096236	0.21167	0.070067	0.13898	0.14913	0.13536	0.085796	-1.975	-2.1479	-2.7958	-2.3854	-2.4125	-2.7667	-2.3917	-2.8187	-2.6104	-2.2167	-2.7188	-2.4646	-2.4625	-2.9562	-2.275	-2.6771	345.360	228.384	66.943	328.569	14.712	203.056	35.551	321.007	2.513	138.833	17.140	337.832	7.295	296.575	63.935	81.120	0.0012839	0.00054481	0.00015874	553.48	8.201e-06	5.9312e-06	810.53	216.1	5.9606e-06	5.2241e-06	359.69	187.87	99.869	58.006	1.018e-05	108.64	0.00016709	3.9435e-05	9.7601e-06	540.87	4.332e-07	3.5047e-07	791.65	212.19	4.0973e-07	3.7575e-07	350.71	185.33	97.982	57.758	5.233e-07	107.33	293.723	90.710	107.120	11.411	157.287	142.898	11.699	17.497	214.685	150.253	16.199	20.772	21.170	24.783	138.879	22.836	-8191	255	
1302.544	1	1	0	0	0.034596	0.35702	0.22423	0.13958	0.19807	0.18299	0.05074	0.024111	0.22419	0.1231	0.12801	0.22622	0.17891	0.051997	0.15484	0.32555	-1.9625	-2.25	-2.6896	-2.3812	-2.0854	-2.4583	-2.475	-2.5792	-2.4896	-2.0062	-2.4875	-2.4229	-2.4188	-2.875	-2.4396	-2.6979	144.820	241.309	14.709	231.974	302.455	38.926	243.909	348.156	267.085	314.542	334.117	275.997	320.405	319.516	140.060	297.987	0.0013185	0.00060914	0.00013503	553.63	7.2905e-06	6.1318e-06	813.24	214.79	9.398e-06	6.8806e-06	356.77	187.99	99.42	57.735	9.2506e-06	107	0.00016994	3.7359e-05	1.0157e-05	541	4.2504e-07	3.4836e-07	793.07	211.6	4.6041e-07	3.9998e-07	350.02	184.81	97.614	57.434	4.8985e-07	106.27	292.776	77.103	82.232	11.702	160.833	149.156	11.935	17.693	209.132	156.049	16.140	20.772	20.746	24.763	151.173	22.735	-8191	255	
1302.638	1	1	0	0	0.1029	0.081726	0.24113	0.15052	0.069958	0.099521	0.12081	0.13778	0.17645	0.20683	0.11978	0.12834	0.13051	0.2507	0.28463	0.23559	-2.2292	-1.9229	-2.4792	-2.6562	-2.1896	-2.8208	-2.4583	-2.4958	-2.8792	-2.3	-2.6333	-2.8229	-2.4042	-2.7604	-2.3063	-2.3479	58.900	320.608	114.828	321.712	312.756	17.368	243.818	220.115	37.373	48.151	269.775	253.186	48.617	337.259	85.225	322.947	0.0013567	0.00046475	0.00021149	547.35	8.9617e-06	5.7642e-06	804.18	213.57	8.2392e-06	5.1623e-06	353.69	184.79	98.91	57.426	6.4375e-06	106.55	0.00017026	3.5904e-05	1.0391e-05	537.25	4.7233e-07	3.1957e-07	786.85	210.32	4.4742e-07	3.4835e-07	347.06	182.86	97	57.035	4.8701e-07	105.68	293.271	86.798	88.098	11.728	161.773	159.282	12.018	17.638	209.986	169.499	16.247	20.861	20.864	24.744	153.484	22.755	-8191	255	
1302.734	1	1	0	0	0.17526	0.15812	0.13758	0.19947	0.2455	0.16886	0.19072	0.070086	0.14759	0.143	0.2381	0.41395	0.28492	0.34709	0.18915	0.29922	-2.3229	-2.3292	-2.4188	-2.5167	-2.0125	-2.6271	-2.3812	-2.2854	-2.6188	-2.0938	-2.5854	-2.7667	-2.3417	-2.9083	-2.4604	-2.6104	27.017	55.166	89.384	31.947	8.365	176.722	57.067	334.055	12.747	212.572	22.561	349.115	246.254	294.901	323.979	314.366	0.0012454	0.00066233	0.00016338	551.08	8.1386e-06	6.9179e-06	803.88	213.81	9.042e-06	6.4048e-06	354.63	186.65	99.769	57.862	8.6671e-06	107.53	0.00016323	3.8839e-05	9.9636e-06	538.47	4.5321e-07	3.8451e-07	787.83	210.72	4.4131e-07	3.9445e-07	347.66	183.67	97.626	57.416	4.9398e-07	106.32	292.607	91.896	105.236	11.520	165.967	147.596	11.476	17.480	205.203	165.070	16.116	20.839	20.654	24.870	154.727	22.812	-8191	255	
1302.830	1	1	0	0	0.22899	0.073277	0.29359	0.049172	0.20639	0.19386	0.054729	0.43833	0.16452	0.34948	0.19472	0.24211	0.13091	0.33742	0.25437	0.10171	-2.4292	-2.375	-2.4375	-2.6937	-2.2062	-2.6604	-2.6375	-2.3667	-2.9188	-2.3312	-2.5854	-2.9167	-2.2354	-2.8021	-2.6458	-2.3979	171.749	177.459	173.161	154.583	46.751	25.974	273.542	306.380	77.089	90.935	262.106	302.561	341.732	21.814	358.735	353.554	0.0012793	0.00071474	0.00018334	549.98	7.8119e-06	5.2296e-06	805.43	215.32	8.4775e-06	6.2552e-06	356.68	188.18	99.992	57.861	1.0013e-05	107.8	0.00016513	3.8815e-05	9.9536e-06	539.97	4.0209e-07	3.2102e-07	790.65	211.64	4.464e-07	3.6205e-07	349.41	184.44	97.8	57.597	4.8314e-07	106.58	292.886	94.938	99.841	11.651	159.476	146.564	11.943	17.592	213.330	156.225	16.253	20.698	20.889	24.805	142.579	22.800	-8191	255	
1302.951	1	1	0	0	0.14136	0.18251	0.25841	0.25749	0.2156	0.18512	0.36622	0.30425	0.23712	0.16426	0.10797	0.028551	0.021211	0.087678	0.28445	0.15112	-2.5125	-2.3333	-2.3583	-2.7708	-2.3021	-2.7458	-2.8438	-2.325	-2.7583	-2.6146	-2.6333	-2.6292	-2.2083	-2.7583	-2.6604	-2.6375	196.322	225.869	36.820	256.980	154.827	109.062	333.211	87.579	256.835	333.387	172.683	73.519	314.170	80.014	221.426	223.833	0.0013127	0.00066059	0.0001332	554.69	9.1953e-06	6.4989e-06	804.95	215.19	8.1348e-06	5.68e-06	356.55	186.94	99.975	58.035	7.0827e-06	107.97	0.00017166	3.8719e-05	1.005e-05	541.75	4.5143e-07	3.5559e-07	791.42	211.92	4.5239e-07	3.5362e-07	350.02	185.08	97.992	57.693	4.5886e-07	106.71	291.066	79.878	100.462	11.583	161.974	148.439	11.671	17.823	214.781	149.939	16.410	20.669	20.977	24.746	148.619	22.777	-8191	255	
1303.047	1	1	0	0	0.14097	0.073172	0.096449	0.40695	0.1023	0.28113	0.11501	0.21282	0.048017	0.17725	0.098346	0.27271	0.075732	0.033602	0.18848	0.10018	-2.3125	-2.2417	-2.5542	-2.7833	-2.5104	-2.5812	-2.7687	-2.1854	-2.7875	-2.5833	-2.3729	-2.9125	-2.2229	-2.6562	-2.9542	-2.3375	271.148	201.830	321.724	285.608	178.282	204.857	23.757	344.570	275.082	118.907	223.875	235.322	195.372	294.544	201.360	267.037	0.001368	0.00063542	0.00019078	550.44	9.0004e-06	5.7498e-06	808.46	215.19	6.7304e-06	5.9993e-06	354.27	186.19	99.568	57.971	9.2196e-06	107.1	0.00017058	3.4354e-05	9.9836e-06	539	4.3906e-07	3.3877e-07	790.8	211.31	4.189e-07	3.5441e-07	347.83	183.63	97.716	57.524	4.954e-07	105.94	292.500	95.538	94.681	11.711	156.827	152.732	12.204	17.522	207.313	155.974	16.150	20.719	20.501	24.962	161.423	22.636	-8191	255	
1303.119	1	1	0	0	0.10951	0.19076	0.13826	0.22536	0.27582	0.15301	0.3694	0.085872	0.17866	0.198	0.19717	0.41478	0.17204	0.084091	0.28704	0.14753	-2.1708	-2.4062	-2.125	-2.9396	-2.2938	-2.55	-2.7917	-2.325	-2.6833	-2.3937	-2.2687	-2.8563	-2.1667	-2.6292	-2.5896	-2.225	116.440	53.022	126.744	185.030	128.122	99.685	323.414	335.481	345.891	92.595	296.579	274.674	216.519	312.444	63.660	269.224	0.0013258	0.0006303	0.00019038	550.48	7.5206e-06	4.7406e-06	800.67	214.62	8.4277e-06	5.0866e-06	356.79	188.11	100.63	58.349	7.5214e-06	107.91	0.00016819	3.6596e-05	1.0717e-05	538.82	4.165e-07	3.3233e-07	785.23	211.72	4.4233e-07	3.5771e-07	349.7	185.08	98.629	58.159	4.8339e-07	107.2	295.205	90.885	95.018	11.825	149.324	143.260	11.666	17.794	202.200	147.851	16.258	20.654	20.678	24.441	151.090	22.467	-8191	255	
1303.240	1	1	0	0	0.19729	0.086622	0.076305	0.1109	0.17547	0.087283	0.11916	0.26517	0.23322	0.059261	0.11806	0.40755	0.091371	0.14393	0.15872	0.046207	-2.1604	-2.4521	-1.8229	-2.7146	-2.2313	-2.2271	-2.7458	-2.0687	-2.4896	-2.6188	-2.1729	-2.6354	-2.5604	-2.4813	-2.6167	-2.4062	106.009	59.268	95.128	237.237	185.546	72.941	41.159	310.639	201.620	306.100	288.557	3.755	47.524	176.203	352.920	247.956	0.001326	0.00053198	0.0001713	549.49	9.1311e-06	5.4935e-06	807.05	217.07	9.4764e-06	6.308e-06	358.21	188.51	101.29	58.57	8.0592e-06	108.81	0.00017236	3.6918e-05	1.0641e-05	539.51	4.4136e-07	3.6177e-07	790.14	213.02	4.7581e-07	3.8312e-07	350.76	185.81	99.133	58.252	4.7952e-07	107.73	293.314	98.412	94.493	11.959	158.842	154.213	11.911	17.461	211.109	158.524	15.985	20.797	20.913	24.857	159.204	22.709	-8191	255	
1303.336	1	1	0	0	0.29135	0.16709	0.18418	0.23471	0.081225	0.29357	0.031947	0.12839	0.31494	0.068667	0.15972	0.29436	0.075116	0.23374	0.24157	0.27206	-2.2062	-2.5583	-2.3292	-2.5729	-2.4813	-2.3479	-2.8625	-2.2583	-2.6229	-2.8396	-2.3021	-2.8396	-2.6562	-2.4271	-2.5833	-2.4792	121.794	334.431	210.390	333.236	54.557	323.414	5.567	310.188	97.820	123.063	170.164	291.961	117.320	256.457	171.270	280.240	0.0013638	0.00045486	0.00019153	554.44	7.9999e-06	6.6831e-06	806.97	216.93	8.8608e-06	6.0936e-06	360.73	189.25	100.47	58.593	9.0026e-06	108.93	0.00017089	3.2051e-05	1.0951e-05	540.54	4.6367e-07	4.0239e-07	791.89	213.5	4.6537e-07	3.6008e-07	353.02	186.53	98.493	58.143	4.9437e-07	107.86	295.422	90.928	102.146	11.776	162.966	144.027	11.773	17.546	205.812	160.506	16.072	20.634	21.242	24.986	151.616	22.604	-8191	255	
1303.432	1	1	0	0	0.079633	0.18444	0.30876	0.34791	0.083449	0.11605	0.043637	0.19652	0.3192	0.14505	0.26315	0.27296	0.18098	0.15862	0.078732	0.062876	-1.925	-2.5625	-2.2104	-2.6813	-2.5	-2.35	-2.8917	-2.4938	-2.5687	-2.8583	-2.4375	-2.6396	-2.5604	-2.4562	-2.6312	-2.4208	135.552	139.108	8.138	296.338	13.041	177.062	1.846	344.668	304.841	209.646	223.958	265.571	136.042	307.372	210.562	328.818	0.0013074	0.00058178	0.00013781	557.77	9.4501e-06	7.2131e-06	811.44	217	7.5524e-06	5.1395e-06	357.21	187.4	99.723	57.753	7.6397e-06	107.81	0.00016989	3.5236e-05	9.8802e-06	542.79	4.3511e-07	3.9924e-07	793.35	212.77	4.5073e-07	3.2399e-07	350.03	184.65	97.837	57.487	4.6932e-07	106.66	295.072	87.342	96.181	11.663	161.023	143.826	11.718	17.570	211.646	159.491	16.052	20.606	20.884	24.781	152.023	22.673	-8191	255	
1303.528	1	1	0	0	0.20465	0.15074	0.059382	0.2241	0.024836	0.13574	0.26826	0.12967	0.11464	0.12356	0.17805	0.23198	0.12976	0.35363	0.15701	0.38015	-1.9333	-2.5812	-2.0896	-2.6188	-2.6	-2.3417	-2.7583	-2.5771	-2.4437	-2.7646	-2.5187	-3.0417	-2.6417	-2.5104	-2.8333	-2.5542	228.558	70.535	283.489	356.865	147.929	41.438	300.776	14.928	91.197	86.029	55.591	287.891	1.836	334.419	204.951	304.055	0.0013385	0.00060668	0.00019126	552.05	8.2735e-06	5.7859e-06	809.54	214.91	8.9694e-06	5.3129e-06	354.16	186.78	99.248	58.01	1.0035e-05	108.04	0.00017079	3.5141e-05	1.0457e-05	539.48	4.207e-07	3.899e-07	790.06	211.54	4.6575e-07	3.3848e-07	348.8	184.11	97.76	57.503	5.1064e-07	106.55	294.180	86.581	87.326	11.534	157.856	145.130	11.779	17.162	202.097	159.885	16.202	20.809	20.696	24.940	151.078	22.603	-8191	255	
1303.647	1	1	0	0	0.1797	0.23785	0.15605	0.20739	0.17943	0.20994	0.37871	0.22588	0.18288	0.048411	0.042946	0.07916	0.056898	0.14609	0.21849	0.27552	-1.8292	-2.5354	-2.4938	-2.7188	-2.7562	-2.2271	-2.5563	-2.3979	-2.3417	-2.7208	-2.2354	-2.575	-2.4354	-2.4396	-2.6646	-2.6146	353.892	181.430	318.076	266.885	219.447	190.779	275.773	4.581	316.422	192.331	277.612	287.144	239.982	319.229	13.593	300.434	0.0013085	0.00057204	0.00016701	551.01	6.824e-06	5.9695e-06	808.79	215.81	7.9176e-06	5.587e-06	358.12	187.33	100.29	58.399	8.7575e-06	108.26	0.00016863	3.3817e-05	1.0524e-05	539.66	4.0031e-07	3.8241e-07	790.86	212.31	4.548e-07	3.6192e-07	349.86	185.07	98.377	57.928	4.6506e-07	107.25	294.092	92.648	91.146	11.721	151.706	146.250	11.792	17.647	213.741	155.714	16.104	20.821	21.088	24.784	148.159	22.773	-8191	255	
1303.719	1	1	0	0	0.2692	0.17204	0.12421	0.31892	0.19884	0.25432	0.10522	0.15656	0.30749	0.066171	0.19203	0.069141	0.18099	0.2112	0.14378	0.30719	-1.7188	-2.5521	-2.425	-2.5479	-2.6688	-2.3312	-2.7833	-2.6	-2.2125	-2.7667	-2.5083	-2.5125	-2.7188	-2.1729	-2.4167	-2.8312	307.526	251.881	271.422	294.079	207.760	49.575	177.518	89.624	135.816	107.545	302.492	279.957	301.399	313.235	86.804	287.564	0.0013025	0.0006656	0.00018096	553.19	7.1163e-06	7.4894e-06	810.63	217.8	9.1312e-06	6.105e-06	360.14	189.06	101.18	58.496	9.615e-06	109.08	0.00017111	3.619e-05	9.6367e-06	542.08	3.7736e-07	3.6151e-07	793.71	213.32	4.8842e-07	3.3571e-07	352.7	186.45	99.088	58.124	5.1284e-07	107.89	292.364	79.707	95.511	11.930	154.678	152.014	11.879	17.709	203.059	153.648	16.195	20.753	20.683	24.743	155.348	22.685	-8191	255	
1303.815	1	1	0	0	0.07726	0.29308	0.27494	0.19764	0.11563	0.12845	0.15078	0.12421	0.21371	0.21216	0.054787	0.16552	0.28917	0.10862	0.16316	0.13603	-1.8604	-2.5687	-2.3083	-2.4167	-2.7313	-2.075	-2.3667	-2.425	-2.125	-2.5542	-2.3375	-2.3438	-2.7375	-2.3812	-2.4271	-2.8063	284.881	2.883	273.386	29.614	255.151	327.999	170.918	4.048	145.668	281.771	250.176	277.516	99.263	347.416	199.514	348.280	0.001282	0.00050844	0.00018128	554.78	8.052e-06	6.5764e-06	813.91	217.49	8.5757e-06	5.681e-06	359.79	189.14	100.94	58.377	1.0002e-05	107.94	0.00016781	3.3125e-05	1.0701e-05	543.1	3.9635e-07	3.832e-07	795.26	214.06	5.0268e-07	3.5744e-07	351.91	186.43	98.836	57.97	5.0005e-07	107.07	295.710	96.655	102.516	11.626	160.088	142.897	11.942	17.587	198.785	157.098	16.361	20.840	20.980	25.083	149.535	22.751	-8191	255	
1303.911	1	1	0	0	0.18503	0.048857	0.074958	0.035602	0.18288	0.12464	0.2243	0.030683	0.51825	0.094703	0.058582	0.21241	0.12892	0.046653	0.1923	0.35871	-1.7292	-2.625	-2.4917	-2.2625	-2.7354	-2.4375	-2.5771	-2.5271	-2.1854	-2.5896	-2.5563	-2.3042	-2.7167	-2.5167	-2.225	-2.7958	81.093	29.697	82.990	249.390	301.562	271.186	171.887	249.240	80.037	315.815	228.020	326.618	261.480	334.070	315.685	323.382	0.0012946	0.00048343	0.00020565	554.16	7.5749e-06	6.1518e-06	811.26	216.03	8.6958e-06	5.7927e-06	357.13	187.49	100.62	58.197	6.9585e-06	107.6	0.00016893	3.3292e-05	9.8169e-06	541.35	3.9572e-07	3.4718e-07	793.15	212.53	4.7148e-07	3.5244e-07	350.13	184.65	98.464	57.776	4.8494e-07	106.48	294.189	88.355	87.604	11.502	169.853	148.038	11.984	17.584	197.864	156.455	16.135	20.703	20.972	24.800	142.751	22.608	-8191	255	
1304.031	1	1	0	0	0.077906	0.084311	0.15827	0.2731	0.13431	0.053647	0.045933	0.38398	0.22208	0.12565	0.17632	0.32034	0.19617	0.19533	0.18158	0.2125	-1.9708	-2.6521	-2.4917	-2.2125	-2.6583	-2.5062	-2.5646	-3.0229	-2.2271	-2.5583	-2.4917	-2.2333	-2.6833	-2.5229	-2.1813	-2.9917	180.118	277.388	48.026	310.051	314.110	66.994	210.273	307.546	5.768	135.978	248.541	275.343	25.938	339.739	173.046	234.285	0.0013408	0.00057745	0.00017817	555.19	7.8049e-06	6.9114e-06	811.32	216.15	8.959e-06	6.805e-06	354.82	188.73	101.56	58.244	8.6966e-06	108.31	0.00017144	3.6835e-05	1.0327e-05	542.25	4.3141e-07	3.7702e-07	792.07	213.15	4.6525e-07	3.6903e-07	350.34	185.58	99.088	58.027	4.8636e-07	106.94	293.067	80.173	99.869	11.642	158.509	147.843	11.652	17.828	206.898	152.958	16.388	20.773	20.656	24.782	142.338	22.834	-8191	255	
1304.128	1	1	0	0	0.19742	0.23839	0.12987	0.202	0.11195	0.095442	0.19118	0.13978	0.29063	0.25548	0.19175	0.40738	0.21403	0.19641	0.23018	0.33658	-1.9354	-2.5938	-2.6333	-2.4146	-2.6646	-2.5521	-2.3646	-2.7708	-2.4167	-2.5375	-2.6688	-2.3375	-2.7167	-2.6021	-2.3563	-3.0625	38.570	333.874	219.216	336.696	242.788	359.016	283.625	357.615	200.061	71.395	21.550	277.863	18.304	15.180	350.321	262.304	0.0012832	0.00060055	0.00017455	555.06	8.7421e-06	6.4502e-06	811.44	217.42	7.266e-06	6.2767e-06	360.15	188.91	101.1	58.891	9.5149e-06	108.7	0.0001704	3.6489e-05	9.5633e-06	542.23	3.9623e-07	3.6072e-07	794.55	214.04	4.4398e-07	3.7022e-07	353.01	186.44	99.145	58.365	5.1206e-07	107.72	293.321	95.150	97.743	11.673	166.814	138.187	12.046	17.601	208.588	154.007	16.059	20.499	20.876	24.725	164.234	22.632	-8191	255	
1304.224	1	1	0	0	0.073504	0.13741	0.2599	0.10444	0.11054	0.10016	0.042606	0.28297	0.028711	0.081902	0.34409	0.16811	0.1899	0.20616	0.1535	0.3947	-1.7583	-2.4437	-2.6396	-1.9729	-2.4833	-2.4813	-2.2938	-2.8396	-2.5875	-2.5979	-2.9083	-2.3646	-2.725	-2.7604	-2.2125	-2.8354	238.478	164.124	158.577	0.736	321.207	252.662	244.521	130.807	151.768	89.315	281.801	189.458	124.807	301.960	331.565	325.296	0.0013092	0.00054337	0.00019672	554.75	9.3689e-06	5.6536e-06	813.9	220.38	9.0665e-06	5.7e-06	362.58	191.24	102.68	59.671	8.6808e-06	110.34	0.00016833	3.8171e-05	9.8802e-06	544.51	4.4097e-07	3.364e-07	796.65	215.76	4.804e-07	3.7562e-07	356	188.71	100.65	59.343	5.1943e-07	109.12	295.977	84.435	97.920	11.878	156.235	153.569	11.924	17.679	207.915	152.135	16.465	20.752	20.780	24.632	149.892	22.454	-8191	255	
1304.320	1	1	0	0	0.18819	0.11795	0.23566	0.23279	0.061637	0.047435	0.33538	0.18426	0.12564	0.11506	0.281	0.14074	0.084103	0.15636	0.29316	0.33999	-1.7792	-2.4229	-2.5958	-2.2854	-2.3563	-2.55	-2.1417	-2.5333	-2.3104	-2.3312	-2.8	-2.4021	-2.6542	-2.925	-2.2479	-2.9625	301.753	54.834	9.161	17.905	326.148	121.017	272.244	331.941	185.125	201.242	289.590	10.611	311.060	13.854	10.467	338.987	0.0013582	0.0006975	0.00015616	556.24	9.7732e-06	6.7131e-06	818.63	219.07	9.8126e-06	5.3069e-06	362.8	191.14	102.44	59.461	8.0496e-06	109.09	0.00017614	4.0509e-05	9.8002e-06	545.33	4.5245e-07	3.8241e-07	799.45	215.74	5.037e-07	3.7746e-07	355.41	188.35	100.43	59.042	4.9941e-07	108.2	295.125	85.989	87.796	11.483	152.589	131.448	11.743	17.669	214.033	154.310	16.164	20.880	20.652	24.858	157.774	22.752	-8191	255	
1304.416	1	1	0	0	0.33003	0.32544	0.17651	0.033723	0.31184	0.26754	0.19082	0.079612	0.1429	0.29615	0.10761	0.12114	0.069108	0.16304	0.10722	0.22141	-2.1833	-2.4125	-2.7479	-2.5458	-2.6896	-2.6729	-2.2833	-2.8063	-2.7021	-2.2896	-2.9021	-2.5583	-2.6063	-2.6896	-2.0979	-2.9062	28.909	244.246	336.435	352.023	15.287	183.107	182.014	172.058	318.272	321.301	353.263	58.027	289.718	337.186	22.040	24.029	0.0013546	0.00066455	0.00018833	558.28	8.3565e-06	6.5717e-06	811.84	218.43	8.3873e-06	5.4915e-06	360.19	189.8	101.99	59.097	7.9905e-06	108.66	0.00017443	3.9351e-05	9.2565e-06	546.83	4.4276e-07	3.6059e-07	796.55	215.14	4.7543e-07	3.93e-07	352.41	186.93	99.837	58.698	5.0354e-07	107.55	292.369	89.473	95.445	11.676	152.901	150.985	11.675	17.743	210.241	155.291	16.424	20.719	20.920	24.685	154.307	22.651	-8191	255	
1304.512	1	1	0	0	0.049113	0.19913	0.12166	0.15281	0.072141	0.14083	0.089758	0.1414	0.16262	0.11391	0.22554	0.31265	0.29956	0.28036	0.17838	0.16295	-2.275	-2.2938	-2.7354	-2.7479	-2.5438	-2.6875	-2.1833	-2.7229	-2.5875	-2.1354	-2.8854	-2.3917	-2.3729	-2.6979	-2.2229	-2.7771	102.015	90.099	7.204	322.658	264.283	208.968	318.155	358.304	140.784	342.354	300.401	242.251	260.184	292.571	233.453	297.028	0.0013307	0.00069742	0.00017592	557.77	8.4126e-06	6.8537e-06	813.03	217.48	8.9822e-06	6.0156e-06	358.28	189	100.87	58.47	8.0124e-06	108.48	0.00016796	3.8206e-05	9.6467e-06	545.81	4.2555e-07	3.5126e-07	796.12	213.72	4.3736e-07	3.6837e-07	351.4	185.85	99.01	58.211	5.0457e-07	107.19	293.988	90.046	111.520	11.614	157.458	153.152	11.708	17.649	205.345	152.958	16.271	20.839	21.064	24.755	161.582	22.547	-8191	255	
1304.631	1	1	0	0	0.033303	0.15038	0.10131	0.08703	0.31292	0.23389	0.1114	0.24696	0.21455	0.27542	0.23842	0.12219	0.11564	0.23468	0.18914	0.25352	-2.1708	-2.1979	-2.7104	-2.5938	-2.3688	-2.7333	-2.3271	-2.5729	-2.4771	-2.1646	-2.6271	-2.425	-2.3271	-2.6479	-2.2979	-2.8271	234.650	232.707	115.127	359.210	96.552	27.405	234.151	320.591	169.326	296.438	298.384	159.123	221.958	330.293	3.262	274.892	0.0012894	0.00065929	0.00019859	560.91	8.2343e-06	5.6279e-06	811.73	218.27	9.0645e-06	5.5914e-06	358.91	189.83	101.13	58.665	9.1667e-06	108.98	0.00016694	3.7383e-05	9.0563e-06	547.57	4.5219e-07	3.5283e-07	797.45	214.49	4.3431e-07	3.8233e-07	352.17	186.62	99.294	58.281	4.8572e-07	107.7	292.150	82.385	83.281	11.661	155.186	149.684	12.012	17.779	223.037	158.734	16.307	20.762	20.872	24.836	154.888	22.716	-8191	255	
1304.727	1	1	0	0	0.31211	0.25509	0.1404	0.25966	0.28254	0.081062	0.2226	0.26344	0.098269	0.13861	0.32134	0.14826	0.073996	0.21263	0.17252	0.1416	-2.3063	-2.1979	-2.6917	-2.5708	-2.1542	-2.6021	-2.3896	-2.6583	-2.4854	-2.2062	-2.6896	-2.8063	-2.3875	-2.8375	-2.3354	-2.4604	90.305	126.873	268.145	303.908	226.249	12.603	310.664	7.633	273.961	88.753	279.603	237.474	145.390	283.856	55.236	359.045	0.0013801	0.00058932	0.00018295	559.29	6.3809e-06	5.7013e-06	815.58	216.95	8.2119e-06	5.6313e-06	357.51	189.17	101.37	58.685	8.4901e-06	108.07	0.00017149	3.9316e-05	1.0147e-05	545.02	4.4518e-07	3.6085e-07	798.66	213.46	4.2527e-07	3.8813e-07	351.6	186.04	99.047	58.162	5.0664e-07	106.96	294.327	95.861	96.123	11.620	167.195	149.459	11.837	17.758	211.328	152.025	16.553	20.698	20.719	24.897	151.752	22.570	-8191	255	
1304.823	1	1	0	0	0.29881	0.1863	0.25285	0.31785	0.087116	0.14803	0.27659	0.18386	0.058824	0.14913	0.1741	0.31351	0.31702	0.040098	0.20865	0.19218	-2.0542	-2.2125	-2.5187	-2.7292	-2.2292	-2.7604	-2.4292	-2.4979	-2.7375	-2.3	-2.5187	-2.6042	-2.2396	-2.7542	-2.175	-2.4875	170.229	341.163	119.619	337.700	103.106	284.727	261.218	0.797	179.087	58.720	5.634	268.978	13.837	279.206	311.324	339.201	0.0013573	0.000492	0.00017243	554.26	8.327e-06	5.6857e-06	806.49	215.9	8.8513e-06	6.1949e-06	358.75	187.87	101.39	58.847	7.5949e-06	108.01	0.00017026	3.6668e-05	1.0391e-05	543.52	4.3651e-07	3.4521e-07	792.17	212.99	4.3723e-07	3.8273e-07	351.25	185.48	99.353	58.297	5.047e-07	106.83	293.352	65.501	93.987	11.772	162.186	153.582	11.790	17.594	209.128	148.311	16.476	20.713	20.513	24.889	162.808	22.639	-8191	255	
1304.944	1	1	0	0	0.18288	0.30296	0.13192	0.092556	0.11071	0.10131	0.30523	0.16852	0.1791	0.16177	0.098409	0.25781	0.23327	0.41818	0.18672	0.31209	-2.2646	-2.2771	-2.4854	-2.5771	-2.1833	-2.7812	-2.5896	-2.525	-2.6875	-2.2708	-2.3208	-2.5333	-2.1625	-2.7438	-2.4104	-2.3792	280.228	328.050	21.544	259.358	315.092	342.016	308.558	140.524	273.978	81.710	107.850	292.910	288.206	326.147	273.983	317.131	0.0013086	0.00052667	0.00015657	554.09	7.7993e-06	6.9259e-06	804.07	215.95	8.4683e-06	5.6258e-06	356.6	189.15	101.24	58.52	9.2345e-06	107.74	0.00016876	3.5725e-05	1.0077e-05	542.37	4.332e-07	3.6611e-07	791.66	213.13	4.338e-07	3.9485e-07	350.7	186.2	99.167	58.138	5.0328e-07	106.69	292.781	91.109	81.247	11.726	161.549	133.641	12.046	17.627	211.201	154.012	16.387	20.707	20.910	24.855	158.890	22.516	-8191	255	
1305.016	1	1	0	0	0.23167	0.29947	0.34182	0.19293	0.2491	0.088936	0.15937	0.06586	0.13108	0.32061	0.14998	0.16212	0.15287	0.2247	0.051828	0.52797	-2.3688	-2.3292	-2.4896	-2.825	-2.3104	-2.7646	-2.6417	-2.4646	-2.9437	-2.4688	-2.6479	-2.925	-2.2208	-2.7771	-2.5771	-2.6479	81.344	260.379	61.375	263.641	102.696	233.891	325.224	333.909	38.980	122.491	209.284	216.324	344.677	324.322	272.198	312.259	0.0013177	0.00058935	0.00015426	556.4	8.6953e-06	5.7999e-06	810.26	217.14	1.0253e-05	5.6513e-06	357.59	189.76	101.42	58.638	9.5116e-06	108.3	0.00016946	3.9184e-05	9.9503e-06	543.15	4.5512e-07	3.3206e-07	793.12	213.88	4.506e-07	3.5929e-07	351.42	186.34	99.113	58.216	5.0987e-07	106.97	292.877	89.256	93.768	11.471	161.607	137.583	11.669	17.590	210.085	158.665	16.305	20.820	20.405	24.905	147.323	22.568	-8191	255	
1305.112	1	1	0	0	0.12888	0.16268	0.21322	0.14509	0.028367	0.12018	0.26799	0.18767	0.057624	0.17217	0.056381	0.28936	0.14372	0.10809	0.073978	0.032109	-2.2729	-2.2917	-2.3875	-2.8187	-2.2333	-2.7333	-2.6771	-2.1896	-2.4688	-2.3396	-2.3979	-2.7646	-2.0208	-2.4646	-2.375	-2.1125	253.102	298.389	340.807	324.589	190.045	271.982	252.208	326.752	60.565	86.322	302.170	14.458	334.091	175.550	340.966	97.704	0.0012791	0.00053479	0.00016793	552.7	9.5419e-06	4.7711e-06	816.38	217.04	9.5318e-06	5.5801e-06	362	190.25	101.93	59.138	8.0584e-06	109.31	0.00016992	3.4306e-05	9.8169e-06	542.52	4.6724e-07	3.4258e-07	796.88	214.11	4.5124e-07	3.7035e-07	353.95	187.3	99.907	58.795	5.1051e-07	108.15	292.738	87.663	96.454	11.753	153.273	144.091	11.797	17.766	204.744	159.270	16.126	20.750	20.985	24.675	153.167	22.777	-8191	255	
1305.208	1	1	0	0	0.28982	0.12526	0.15863	0.3126	0.12628	0.16606	0.23281	0.18498	0.21777	0.11192	0.26717	0.20636	0.080013	0.11931	0.16973	0.17115	-2.1437	-2.2792	-2.1875	-2.7708	-2.2083	-2.5146	-2.7562	-2.2979	-2.5125	-2.4583	-2.3167	-2.7104	-2.5021	-2.6	-2.4792	-2.3542	75.480	63.546	186.917	29.389	2.208	202.446	234.128	21.024	28.780	350.458	285.232	345.057	263.118	118.420	336.580	313.861	0.0013724	0.00051619	0.00015894	558.22	1.0785e-05	6.7455e-06	812.76	218.89	8.8518e-06	4.8404e-06	360.36	191.03	102.11	59.133	8.8966e-06	108.31	0.00017029	3.7109e-05	9.8035e-06	545.31	4.4735e-07	3.6322e-07	794.59	215.55	4.6919e-07	3.5375e-07	354.06	187.87	100.13	58.773	5.0483e-07	107.56	294.159	89.540	97.669	11.747	165.978	156.433	11.799	17.466	216.441	155.852	16.252	20.818	21.007	24.790	156.558	22.773	-8191	255	
1305.329	1	1	0	0	0.19819	0.23178	0.068001	0.29748	0.20543	0.061879	0.14776	0.087484	0.13931	0.28585	0.18823	0.36187	0.085875	0.35383	0.27697	0.18616	-2.275	-2.4479	-2.2604	-2.7021	-2.4021	-2.4917	-2.9458	-2.4604	-2.5708	-2.6333	-2.5354	-2.8021	-2.4688	-2.4333	-2.9104	-2.2854	129.395	251.724	234.302	35.735	341.877	333.585	39.821	309.958	32.918	71.175	305.021	18.364	353.310	317.437	91.150	355.166	0.0013706	0.00058513	0.00017146	555.36	8.342e-06	5.0875e-06	815.07	217.2	8.6781e-06	5.5102e-06	359.46	188.78	101.19	58.804	9.4853e-06	107.89	0.00017146	3.6334e-05	1.0317e-05	544.67	4.2771e-07	3.7479e-07	794.57	214.28	4.5302e-07	3.3979e-07	352.31	186.55	99.208	58.411	4.9747e-07	107.06	294.887	88.082	95.170	11.848	166.242	146.875	11.650	17.635	208.135	153.891	16.294	20.592	21.171	24.917	156.144	22.668	-8191	255	
1305.423	1	1	0	0	0.21456	0.35682	0.13454	0.25568	0.20904	0.15029	0.043997	0.099272	0.22444	0.083187	0.18535	0.19203	0.28895	0.14316	0.044027	0.28825	-1.9604	-2.3438	-2.0917	-2.6208	-2.3104	-2.3875	-2.8646	-2.3438	-2.6708	-2.6958	-2.2104	-2.8625	-2.5042	-2.5458	-2.8333	-2.2604	15.692	112.936	277.767	349.716	283.026	199.083	218.001	10.239	142.375	182.354	343.444	321.407	178.294	10.773	224.442	292.690	0.0013202	0.00053371	0.00017341	557.07	7.7506e-06	3.9815e-06	813.23	217.64	1.0556e-05	4.1564e-06	360.9	189.06	101.39	58.71	9.1479e-06	108.59	0.00016688	3.7395e-05	1.1221e-05	544.82	4.4008e-07	3.7571e-07	795.19	214.32	4.9911e-07	3.4677e-07	352.53	186.13	99.518	58.28	4.564e-07	107.36	294.959	90.882	87.660	11.869	150.590	146.405	11.917	17.691	215.260	156.372	16.190	20.677	21.027	24.863	164.473	22.782	-8191	255	
1305.519	1	1	0	0	0.15416	0.1215	0.16798	0.061499	0.30565	0.1718	0.18621	0.15243	0.22771	0.042869	0.10498	0.043672	0.31134	0.40997	0.30555	0.29722	-2.0042	-2.6937	-2.3208	-2.7687	-2.4375	-2.2562	-2.8083	-2.2979	-2.3875	-2.4188	-2.2396	-2.6937	-2.7229	-2.3083	-2.8333	-2.6125	65.211	298.620	317.840	252.613	79.707	254.370	276.193	21.380	55.999	15.110	244.914	34.666	168.209	355.501	21.307	346.267	0.0012824	0.00064657	0.00013714	556.98	8.784e-06	6.6587e-06	813.59	217.12	9.824e-06	4.8555e-06	362.77	189.14	101.51	58.427	9.5527e-06	108.24	0.00016617	3.3208e-05	9.6801e-06	544.5	4.1739e-07	3.8425e-07	795.91	213.69	4.8294e-07	3.3308e-07	353.16	186.44	99.152	57.991	4.812e-07	107.18	292.943	94.293	97.426	11.770	154.229	139.150	12.069	17.705	210.372	161.229	16.139	20.901	21.074	24.903	149.161	22.607	-8191	255	
1305.593	1	1	0	0	0.34846	0.22772	0.20589	0.1123	0.18111	0.051418	0.20168	0.15132	0.043298	0.099345	0.14129	0.20521	0.31607	0.48766	0.18538	0.19023	-1.95	-2.5687	-2.1625	-2.6792	-2.4938	-2.3104	-2.8333	-2.2979	-2.3688	-2.9333	-2.0896	-2.6292	-2.5812	-2.2292	-2.7979	-2.6146	32.345	43.195	332.664	251.409	192.381	201.696	25.655	282.046	139.035	68.985	126.925	285.641	352.055	326.280	108.869	329.214	0.001277	0.00072342	0.0001426	554.01	7.2459e-06	6.2583e-06	811.68	214.59	8.2213e-06	4.8014e-06	356.94	188.44	100.19	57.726	7.4286e-06	107.06	0.00016972	3.7061e-05	9.6434e-06	543.07	4.23e-07	3.8083e-07	795.43	211.69	4.4729e-07	3.2952e-07	350.42	185.39	98.394	57.482	4.7577e-07	105.97	295.112	87.314	107.668	11.691	160.961	145.760	11.763	17.622	218.290	177.260	16.197	20.732	21.166	25.074	158.362	22.719	-8191	255	
1305.711	1	1	0	0	0.26022	0.11993	0.10951	0.25786	0.32797	0.023533	0.2637	0.11375	0.12935	0.082352	0.25281	0.2074	0.052449	0.041384	0.048194	0.25329	-2.0375	-2.7583	-2.3292	-2.8812	-2.5854	-2.2292	-3.0458	-2.5958	-2.4062	-2.7687	-2.2854	-2.4729	-2.5604	-2.2729	-2.6146	-2.7042	292.478	39.851	355.928	338.234	155.144	187.099	343.367	263.069	40.033	159.316	67.326	276.805	294.803	193.662	267.353	3.553	0.0012662	0.00060125	0.00016233	553.58	8.4857e-06	5.0574e-06	807.34	214.96	8.9263e-06	6.5079e-06	356.84	187.15	99.665	57.767	8.7539e-06	106.72	0.00016258	3.5057e-05	9.5066e-06	540.88	4.165e-07	3.6085e-07	790.05	211.86	4.6639e-07	3.3242e-07	349.6	184.44	98.075	57.322	4.8262e-07	105.67	295.472	101.418	99.265	11.825	156.933	141.701	11.844	17.404	211.073	168.656	16.279	20.832	20.985	25.009	144.641	22.769	-8191	255	
1305.808	1	1	0	0	0.24813	0.11193	0.26942	0.1767	0.18678	0.10902	0.1289	0.22616	0.22396	0.23735	0.19264	0.22825	0.14475	0.20904	0.099414	0.13228	-1.8479	-2.7479	-2.1917	-2.5375	-2.7896	-2.4375	-2.7	-2.7104	-2.0917	-2.7083	-2.3396	-2.4667	-2.8021	-2.425	-2.6042	-2.7021	116.802	80.731	23.654	310.965	261.670	233.689	191.268	294.269	79.503	312.891	91.380	267.996	67.714	9.862	55.774	297.995	0.0012644	0.0006004	0.0001687	552.81	8.6153e-06	6.2552e-06	811.85	215.92	8.1392e-06	5.3523e-06	358.21	188.15	101.17	57.979	9.5219e-06	107.62	0.00016712	3.3912e-05	9.3098e-06	540.23	3.873e-07	3.4902e-07	791.04	212.23	4.6295e-07	3.3716e-07	350.31	185.19	98.991	57.76	5.0354e-07	106.55	295.490	88.074	102.941	11.773	159.696	150.040	11.849	17.502	218.121	145.708	16.077	20.786	20.617	24.790	158.612	22.647	-8191	255	
1305.904	1	1	0	0	0.18804	0.080301	0.038601	0.18325	0.036722	0.24185	0.26309	0.074681	0.1238	0.17244	0.0077029	0.3597	0.092435	0.14454	0.25607	0.13853	-1.9417	-2.7292	-2.4562	-2.4979	-2.8375	-2.5479	-2.8292	-2.4917	-2.2938	-2.5604	-2.5625	-2.625	-2.9583	-2.4708	-2.5708	-2.5021	12.044	65.423	326.995	291.430	91.035	256.306	279.057	301.541	101.912	210.081	189.894	260.238	54.148	270.943	58.813	221.305	0.0013676	0.00066682	0.0001574	552.79	8.9388e-06	6.4777e-06	814.4	217.67	9.0618e-06	6.1881e-06	360.27	189.67	100.61	58.728	9.3553e-06	108.52	0.00017302	3.5248e-05	9.7034e-06	542.86	4.2096e-07	3.7834e-07	794.49	213.72	4.7314e-07	3.3123e-07	352.59	186.65	99.127	58.275	4.8804e-07	107.43	293.007	79.768	92.268	11.893	162.373	142.597	11.833	17.707	209.376	157.400	15.917	20.963	20.752	24.861	162.372	22.778	-8191	255	
1306.024	1	1	0	0	0.044378	0.066152	0.17775	0.062701	0.24819	0.14107	0.060091	0.1301	0.087722	0.10583	0.23105	0.41448	0.23924	0.15252	0.26987	0.30908	-1.8625	-2.7687	-2.2583	-2.4271	-2.6375	-2.3625	-2.7042	-2.6042	-2.1437	-2.7396	-2.4208	-2.2479	-2.7292	-2.1333	-2.2687	-2.825	246.099	235.746	345.612	344.376	193.518	166.420	236.367	15.181	144.463	213.064	311.282	285.824	138.668	22.818	126.654	275.968	0.0012842	0.00069488	0.00019277	556.52	8.6499e-06	5.845e-06	817.17	218.25	7.5429e-06	5.0827e-06	360.44	189.28	101.59	58.445	8.4744e-06	108.29	0.00016935	3.891e-05	1.0988e-05	545.72	4.1688e-07	3.506e-07	798.06	214.47	4.8664e-07	3.4612e-07	352.63	186.32	99.23	58.126	5.0599e-07	107.15	293.641	88.633	92.636	11.864	157.203	140.912	11.860	17.477	220.035	147.369	16.095	20.778	20.921	24.728	155.778	22.958	-8191	255	
1306.121	1	1	0	0	0.20501	0.17135	0.1649	0.1994	0.17276	0.22374	0.10363	0.09188	0.097082	0.14759	0.1995	0.025381	0.18014	0.13649	0.1349	0.33916	-1.8958	-2.625	-2.8063	-2.1625	-2.6583	-2.4375	-2.6063	-2.875	-2.3792	-2.7042	-2.5646	-2.4604	-2.9313	-2.7958	-2.4417	-3.0187	86.745	227.944	6.451	293.042	35.722	75.529	198.573	284.705	356.431	16.681	28.571	8.885	258.833	246.410	2.939	333.968	0.0013119	0.00066338	0.00020167	554.44	8.1034e-06	6.4918e-06	810.89	216.93	7.6551e-06	5.0651e-06	358.15	188.37	100.24	58.308	9.1397e-06	107.25	0.00017322	3.755e-05	9.7001e-06	543.98	3.7315e-07	3.7676e-07	792.54	213.48	4.6894e-07	3.4295e-07	350.42	185.42	98.667	57.965	4.8171e-07	106.26	293.643	88.047	94.021	11.820	163.995	149.031	11.831	17.689	196.877	155.530	16.067	20.817	20.946	24.502	148.061	22.770	-8191	255	
1306.217	1	1	0	0	0.11546	0.12171	0.090039	0.067114	0.35001	0.091437	0.30103	0.19954	0.28109	0.02366	0.089699	0.15308	0.068619	0.14906	0.15775	0.17259	-1.9229	-2.7604	-2.7875	-2.3688	-2.6354	-2.4646	-2.4729	-3.1292	-2.4562	-2.6437	-2.6417	-2.3958	-2.8375	-2.5604	-2.2583	-2.9021	100.914	88.701	228.821	37.800	73.330	354.390	10.212	30.141	258.995	303.144	1.367	325.515	6.207	301.763	32.451	296.649	0.0013162	0.00060755	0.00018773	557.13	8.5024e-06	5.9397e-06	809.42	216.8	1.0103e-05	5.9637e-06	361.21	188.3	101.41	58.863	8.7197e-06	107.88	0.0001706	3.6e-05	9.6534e-06	545.13	4.0579e-07	3.7544e-07	792.89	213.5	5.107e-07	3.7035e-07	351.52	185.49	99.229	58.209	5.3867e-07	106.67	293.417	97.382	98.259	11.965	148.871	140.594	11.950	17.481	208.658	163.706	16.210	20.872	20.956	24.897	148.627	22.639	-8191	255	
1306.313	1	1	0	0	0.28437	0.18443	0.031605	0.12015	0.16279	0.058573	0.047614	0.12542	0.13036	0.11358	0.14545	0.18961	0.24241	0.33471	0.20623	0.2818	-1.9375	-2.6188	-2.6188	-2.4521	-2.9417	-2.5187	-2.5083	-2.8688	-2.4	-2.5292	-2.9938	-2.425	-2.7687	-2.6	-2.3	-2.9875	249.743	218.660	298.299	313.645	51.968	116.142	301.925	208.476	0.855	21.614	353.763	35.289	74.056	342.705	285.826	327.866	0.0013028	0.00057044	0.00018745	557.75	8.0038e-06	5.4503e-06	810.61	217.04	9.6427e-06	6.0158e-06	358.45	189.55	101.8	58.86	9.4767e-06	108.84	0.00017037	3.7085e-05	9.3499e-06	544.66	4.2733e-07	3.5757e-07	793.95	214.03	4.8804e-07	3.7522e-07	352.91	186.81	99.82	58.547	5.5081e-07	107.67	295.400	92.610	105.784	11.691	156.326	133.065	11.820	17.596	207.511	152.199	16.182	20.652	20.993	24.836	152.171	22.682	-8191	255	
1306.409	1	1	0	0	0.17118	0.074925	0.10018	0.28452	0.22965	0.018705	0.1669	0.12051	0.23054	0.086353	0.21955	0.27255	0.17974	0.17014	0.19729	0.22832	-2.025	-2.625	-2.8417	-2.3292	-2.3563	-2.3729	-2.2125	-2.6	-2.325	-2.6188	-2.6479	-2.4333	-2.7687	-2.8354	-2.1979	-2.9938	296.207	108.637	201.732	27.462	26.983	195.790	29.191	267.235	314.771	172.384	337.046	203.475	298.802	247.558	203.192	286.931	0.0013068	0.00053284	0.00017544	557.35	7.3526e-06	6.9558e-06	811.67	218.79	8.1002e-06	6.0619e-06	360.86	190.72	102.47	59.48	9.9447e-06	109.34	0.00017283	3.6465e-05	1.006e-05	545.65	4.114e-07	3.7452e-07	794.99	215.27	4.7811e-07	3.7377e-07	355.16	188.32	100.38	58.989	5.1336e-07	108.33	292.234	94.673	95.282	11.571	155.552	143.350	11.799	17.569	210.615	155.690	16.772	20.756	21.488	24.662	171.827	22.584	-8191	255	
1306.505	1	1	0	0	0.12641	0.27258	0.13228	0.29672	0.098312	0.26862	0.20234	0.045228	0.12238	0.17938	0.30906	0.16877	0.2037	0.19772	0.262	0.26395	-2.1417	-2.475	-2.7146	-2.2375	-2.6042	-2.6354	-2.5375	-2.6958	-2.4167	-2.4125	-2.8979	-2.1667	-2.5625	-2.6604	-2.3042	-2.9062	33.972	156.635	233.333	312.259	117.899	45.233	337.413	177.723	339.417	125.388	343.214	348.851	345.320	321.519	337.502	256.001	0.0013126	0.00053978	0.00015196	554.99	7.3977e-06	7.0624e-06	812.33	219.26	8.5917e-06	5.1639e-06	361.46	190.21	101.84	59.098	9.3036e-06	108.19	0.00017061	3.7777e-05	1.0054e-05	543.78	4.4454e-07	3.7124e-07	794.34	214.98	4.6932e-07	3.7865e-07	353.77	187.15	99.747	58.645	5.2679e-07	107.32	294.718	86.035	85.366	11.904	162.864	140.764	11.819	17.586	211.728	150.017	16.445	20.610	20.990	24.642	164.444	22.776	-8191	255	
1306.624	1	1	0	0	0.112	0.16225	0.24395	0.28596	0.15326	0.30396	0.24303	0.069678	0.2664	0.0735	0.064472	0.13927	0.14435	0.22818	0.18186	0.12827	-1.9937	-2.2687	-2.5979	-2.5125	-2.3417	-2.6292	-2.1792	-2.5854	-2.1312	-2.05	-2.7188	-2.2146	-2.2979	-2.7792	-2.1667	-2.8042	93.683	99.642	285.226	1.864	73.044	91.165	59.996	250.404	176.487	262.701	268.786	270.258	74.029	313.567	337.918	3.455	0.0012821	0.00065617	0.0002052	553.94	1.0608e-05	7.4136e-06	808.39	218.05	9.9832e-06	5.6415e-06	362.83	188.87	101.68	58.927	9.2616e-06	108.28	0.00016515	3.9936e-05	9.4766e-06	544.01	4.3791e-07	3.5665e-07	792.74	214.47	4.846e-07	3.9564e-07	353.68	186.6	99.707	58.502	5.4112e-07	107.37	297.108	88.466	94.244	11.775	160.378	140.258	11.874	17.558	204.840	161.555	16.291	20.767	20.977	24.893	151.245	22.687	-8191	255	
1306.720	1	1	0	0	0.1997	0.15799	0.1302	0.28722	0.18289	0.25562	0.10669	0.27961	0.21745	0.1329	0.15512	0.33151	0.22512	0.24572	0.094634	0.21897	-2.1583	-2.2354	-2.6375	-2.3271	-2.3708	-2.6292	-2.5167	-2.6333	-2.6583	-2.1625	-2.85	-2.6104	-2.4958	-2.9771	-2.4167	-2.9146	220.391	96.691	179.060	35.021	253.885	132.206	324.262	258.657	106.644	6.557	274.239	300.149	20.215	347.819	180.709	347.971	0.0013338	0.00056595	0.00017016	557.34	8.2337e-06	5.6435e-06	812.74	218.6	9.1156e-06	5.4796e-06	361.26	190.14	102.2	59.157	8.8335e-06	109.1	0.00016936	3.6262e-05	9.6801e-06	546.58	4.4352e-07	3.3233e-07	793.32	215.26	4.4742e-07	3.9155e-07	354.18	187.2	100.05	58.852	4.8339e-07	108.16	293.112	89.602	93.633	11.778	154.640	150.271	11.652	17.745	228.421	151.743	16.235	20.663	21.092	24.625	164.618	22.778	-8191	255	
1306.816	1	1	0	0	0.25899	0.16378	0.12833	0.28715	0.08871	0.20005	0.059354	0.18923	0.17297	0.11822	0.21249	0.23264	0.16588	0.27797	0.27651	0.12932	-2.3333	-2.2875	-2.6646	-2.3312	-2.2042	-2.7729	-2.3333	-2.4604	-2.5938	-2.1792	-2.6021	-2.5125	-2.375	-2.8729	-2.3333	-2.55	314.915	96.018	330.976	11.673	332.449	231.934	332.787	4.247	142.096	111.758	111.517	2.505	309.060	0.603	214.073	341.736	0.0013206	0.00062802	0.00015126	557.63	7.921e-06	5.6169e-06	815.73	219.41	8.1571e-06	5.4486e-06	363.85	192.39	103.81	60.507	7.1494e-06	111.43	0.00017257	3.9328e-05	1.0377e-05	547.58	4.4416e-07	3.4416e-07	797.73	216.65	4.6372e-07	3.8233e-07	356.77	189.72	101.73	60.03	5.3118e-07	110.1	293.695	92.761	92.264	11.763	151.861	142.124	11.825	17.831	217.476	159.024	16.149	20.764	20.721	24.490	150.047	22.549	-8191	255	
1306.888	1	1	0	0	0.16459	0.058837	0.15854	0.26173	0.26525	0.17301	0.18228	0.10029	0.19503	0.14478	0.14191	0.076663	0.10778	0.40395	0.17389	0.18202	-2.2687	-2.2375	-2.7271	-2.7188	-2.3229	-2.9354	-2.6021	-2.5458	-2.9146	-2.3958	-2.6	-2.6	-1.9583	-2.6208	-2.4875	-2.625	326.257	351.871	229.954	352.372	151.345	299.353	337.193	36.192	178.276	327.402	307.676	136.893	167.525	31.446	259.856	278.268	0.001362	0.00054956	0.00018573	561.11	7.4266e-06	6.5695e-06	820.16	223.69	9.0115e-06	5.9339e-06	367.32	193.92	105.35	61.029	9.2181e-06	112.06	0.00017366	4.0425e-05	1.0064e-05	550.61	4.3077e-07	3.4521e-07	802.65	219.51	4.557e-07	3.8036e-07	359.7	191.38	102.8	60.613	5.4009e-07	110.87	293.755	84.298	89.028	11.911	163.246	132.621	11.710	17.601	209.263	158.959	16.445	20.554	20.717	24.743	159.779	22.596	-8191	255	
1307.009	1	1	0	0	0.055679	0.20292	0.13808	0.14677	0.11486	0.10488	0.24115	0.10061	0.27291	0.30077	0.097723	0.21448	0.21088	0.20484	0.23698	0.16632	-2.3688	-2.2979	-2.5646	-2.7708	-2.3375	-3.0354	-2.6896	-2.3625	-2.8708	-2.0646	-2.4979	-2.7771	-2.1854	-2.9083	-2.6063	-2.5729	102.860	152.677	211.017	353.452	296.140	289.491	269.183	91.006	278.822	41.554	59.052	355.266	152.668	232.046	25.968	43.120	0.00135	0.00063866	0.0001546	563.16	8.9724e-06	6.2692e-06	816.18	222.02	9.4076e-06	6.4855e-06	364.34	193.6	104.04	60.843	9.3709e-06	111.44	0.00017533	4.0246e-05	9.4132e-06	551.39	4.6392e-07	3.7728e-07	799.65	218.4	4.4576e-07	3.9616e-07	357.91	190.69	102.49	60.418	5.357e-07	110.22	293.502	84.738	105.434	11.717	153.607	156.448	11.955	17.898	210.967	150.245	16.405	20.549	21.047	24.824	163.568	22.692	-8191	255	
1307.105	1	1	0	0	0.10835	0.12633	0.15589	0.32333	0.27149	0.078326	0.13869	0.15432	0.0466	0.10306	0.19287	0.034697	0.19419	0.07198	0.12294	0.21619	-2.1646	-2.3083	-2.5417	-2.8	-2.3021	-2.9146	-2.6312	-2.3833	-2.8375	-2.4688	-2.6875	-2.6188	-2.3104	-2.6417	-2.3708	-2.3521	184.062	19.314	258.653	7.016	111.849	278.397	337.439	359.540	296.700	188.596	158.753	89.502	349.996	83.988	168.197	330.893	0.0013242	0.00059959	0.00018726	560.55	8.9084e-06	7.2076e-06	818.13	222.45	8.0252e-06	6.1963e-06	365.12	193.85	104.46	60.932	8.9086e-06	111.2	0.00017168	3.829e-05	1.0778e-05	549.12	4.6265e-07	3.8412e-07	797.27	218.21	4.5404e-07	3.6982e-07	357.26	190.65	102.22	60.519	5.3144e-07	110	293.277	94.826	105.263	11.951	158.701	142.527	12.020	17.631	209.353	163.810	16.102	20.454	20.920	24.781	151.496	22.380	-8191	255	
1307.201	1	1	0	0	0.16038	0.19799	0.15641	0.22068	0.22637	0.24814	0.13887	0.27697	0.37833	0.15707	0.07944	0.1987	0.12948	0.52381	0.25932	0.3038	-2.1312	-2.0812	-2.3187	-2.5125	-2.0271	-2.5792	-2.6708	-2.0292	-2.8604	-2.3229	-2.4667	-2.5812	-2.3521	-2.7938	-2.6521	-2.3208	307.282	91.848	44.177	334.828	116.121	106.413	117.452	318.805	104.716	2.943	240.085	305.783	82.616	354.595	224.525	216.408	0.0013189	0.0005942	0.00019202	559.61	8.1938e-06	6.5619e-06	814.18	219.83	8.1946e-06	5.0694e-06	364.03	192.1	102.73	60.179	9.0627e-06	109.6	0.00017352	3.8767e-05	1.1058e-05	547.37	4.6889e-07	4.0042e-07	797.58	216.56	4.6385e-07	3.7957e-07	355.15	189.11	101.18	59.68	5.1026e-07	108.55	292.656	94.765	101.749	11.742	151.068	134.443	11.945	17.867	199.501	147.840	16.171	20.830	21.129	24.765	154.696	22.552	-8191	255	
1307.297	1	1	0	0	0.30142	0.15887	0.1012	0.23376	0.2034	0.16254	0.18586	0.11069	0.38583	0.079467	0.077395	0.10769	0.10559	0.18773	0.14078	0.14654	-2.2938	-2.2833	-2.2667	-2.9729	-2.375	-2.5521	-2.65	-2.1729	-2.6083	-2.3896	-2.5021	-2.8479	-2.3521	-2.5687	-2.6479	-2.3021	182.300	356.486	281.144	11.261	120.027	304.085	285.410	348.041	224.722	17.128	313.739	345.850	349.360	7.842	155.301	289.643	0.0013369	0.00061952	0.00019117	560.03	9.469e-06	6.1851e-06	817.24	218.71	9.5453e-06	5.9088e-06	359.71	191.26	101.98	59.072	8.7897e-06	108.38	0.00016877	3.7538e-05	1.0581e-05	548.38	4.5002e-07	3.8701e-07	799.13	214.32	4.6945e-07	3.7509e-07	352.37	188.1	99.911	58.761	4.9269e-07	107.23	295.313	92.759	96.352	11.811	153.652	137.120	11.829	17.837	212.488	149.010	16.171	20.678	20.981	24.791	161.881	22.887	-8191	255	
1307.393	1	1	0	0	0.23639	0.1454	0.11459	0.045875	0.073728	0.17373	0.1136	0.23222	0.12582	0.11476	0.052035	0.021328	0.3698	0.081105	0.19438	0.17293	-2.1833	-2.3271	-2.1437	-2.6562	-2.0396	-2.4917	-2.6979	-2.175	-2.3896	-2.3354	-2.3542	-2.9521	-2.2646	-2.4021	-2.6021	-2.3729	160.949	341.455	86.517	194.551	291.126	201.252	309.291	316.709	78.258	233.350	69.033	50.693	25.928	313.623	225.626	43.534	0.0013636	0.00058749	0.00021301	560.65	7.8246e-06	5.5549e-06	825.92	215.93	8.8572e-06	5.1084e-06	357.38	188.41	100.48	57.967	9.3354e-06	105.7	0.00017116	3.7145e-05	1.0564e-05	548.71	4.3613e-07	3.5954e-07	802.33	212.07	4.6486e-07	3.7641e-07	349.24	185.16	98.676	57.585	5.007e-07	104.8	293.291	89.989	102.572	12.007	159.810	138.616	11.816	17.502	216.528	155.476	16.313	20.601	20.774	24.884	164.432	22.617	-8191	255	
1307.489	1	1	0	0	0.096983	0.12341	0.22879	0.18178	0.16058	0.23401	0.12818	0.17548	0.26875	0.082419	0.10766	0.11995	0.36334	0.16875	0.1815	0.11852	-2.2104	-2.3042	-2.1479	-2.8479	-2.4604	-2.3646	-2.9583	-2.4333	-2.6688	-2.7812	-2.425	-2.9313	-2.5271	-2.7854	-2.7625	-2.4854	96.797	94.704	194.141	297.947	9.102	120.094	244.599	290.207	34.544	210.916	255.224	278.103	265.227	336.393	105.343	288.246	0.0012534	0.00061008	0.00019124	557.3	8.4009e-06	5.9539e-06	816.24	213.42	7.7628e-06	5.5692e-06	351.67	185.31	99.175	57.106	1.085e-05	104.5	0.00016375	3.6071e-05	1.0027e-05	547.33	4.5589e-07	3.4876e-07	799.9	209.8	4.2768e-07	3.3439e-07	344.51	182.34	97.555	56.665	5.0031e-07	103.23	293.307	86.693	88.536	11.771	164.102	143.607	11.935	17.531	211.872	164.908	16.361	20.641	21.152	24.757	146.610	22.781	-8191	255	
1307.586	1	1	0	0	0.18685	0.12673	0.083572	0.26277	0.17086	0.035907	0.1099	0.1822	0.1895	0.092243	0.053993	0.2747	0.176	0.08716	0.17209	0.082128	-2.4375	-2.6208	-2.25	-2.8646	-2.4313	-2.3625	-2.775	-2.5083	-2.4583	-2.7083	-2.3875	-2.8667	-2.7042	-2.4271	-2.6521	-2.3229	291.463	86.014	212.003	7.308	108.092	282.234	43.011	307.720	256.720	342.921	49.881	313.602	9.190	72.696	258.892	295.981	0.001242	0.00046245	0.00016604	556.11	8.8592e-06	5.9597e-06	820.49	212.04	8.7655e-06	6.1491e-06	352.14	184.11	98.665	56.94	1.0059e-05	103.94	0.00016152	3.2361e-05	9.7868e-06	545.18	4.3575e-07	3.431e-07	799.83	208.61	4.5926e-07	3.5771e-07	344.64	181.89	96.761	56.379	4.8727e-07	102.95	295.026	92.872	85.355	12.171	149.162	140.569	11.621	17.667	204.948	164.904	16.378	20.732	20.937	25.074	158.928	22.787	-8191	255	
1307.704	1	1	0	0	0.067396	0.16369	0.25411	0.11462	0.33391	0.27005	0.22984	0.1388	0.086543	0.11088	0.23812	0.14825	0.22977	0.25717	0.085564	0.067246	-1.9625	-2.5625	-2.2146	-2.8125	-2.8417	-2.4458	-2.6917	-2.35	-2.5021	-2.6833	-2.2938	-2.4917	-2.4604	-2.4	-2.7333	-2.6792	141.546	106.185	190.321	302.365	69.059	75.937	303.933	220.731	317.512	80.737	33.757	258.040	200.495	310.061	120.609	288.201	0.0012737	0.00060181	0.00018458	556.51	8.7296e-06	6.4555e-06	813.87	212.14	9.034e-06	5.6727e-06	351.91	184.86	98.643	56.681	7.4956e-06	104.02	0.00016651	3.5391e-05	1.0868e-05	544.81	4.0018e-07	3.8096e-07	797.85	208.52	4.6283e-07	3.2781e-07	344.71	182.11	96.739	56.315	4.3961e-07	103.02	291.901	92.882	102.861	11.910	150.666	145.427	11.974	17.794	202.231	154.044	16.337	20.507	20.612	24.779	154.530	22.572	-8191	255	
1307.801	1	1	0	0	0.21937	0.20652	0.019533	0.12325	0.097663	0.21567	0.11112	0.30642	0.056377	0.07436	0.30457	0.18395	0.057983	0.18119	0.23682	0.20173	-2.1875	-2.7438	-2.2396	-2.525	-2.5042	-2.1875	-2.8187	-2.4771	-2.3	-2.8625	-2.4	-2.5229	-2.4708	-2.1292	-2.5312	-2.6813	344.281	301.615	49.873	275.731	231.827	65.229	179.633	277.785	187.585	329.241	287.904	338.199	308.944	272.541	346.605	348.773	0.0012992	0.00048498	0.00014664	555.56	7.8844e-06	5.9472e-06	814.97	211.61	8.8507e-06	6.109e-06	352.19	183.67	98.192	56.265	9.5667e-06	102.88	0.00016711	3.4699e-05	1.0194e-05	543.91	4.3014e-07	3.6348e-07	798.04	208.28	4.8142e-07	3.5112e-07	344.31	180.9	96.082	55.803	4.9114e-07	101.86	294.358	83.947	91.796	11.854	145.453	150.435	11.848	17.496	206.194	158.115	16.522	20.816	21.082	24.986	165.789	22.851	-8191	255	
1307.897	1	1	0	0	0.16476	0.20908	0.15251	0.13437	0.17597	0.33154	0.12299	0.058307	0.16467	0.019399	0.247	0.092833	0.1273	0.087304	0.050636	0.29685	-1.6167	-2.5292	-2.0583	-2.2833	-2.4813	-1.9375	-2.6229	-2.4542	-2.2042	-2.7438	-2.5771	-2.5312	-3.0062	-2.4896	-2.6292	-2.5458	152.150	147.004	35.984	326.837	99.776	223.290	310.816	126.293	164.495	167.071	256.636	356.787	80.794	3.195	124.853	348.514	0.0012315	0.00050002	0.00014564	551.41	6.9756e-06	4.933e-06	810.49	210.74	8.2377e-06	5.8227e-06	347.79	181.94	97.955	55.687	9.3722e-06	102.1	0.00016366	3.3161e-05	1.009e-05	541.15	4.1063e-07	3.6322e-07	794.52	206.77	4.5913e-07	3.4901e-07	340.64	179.2	95.679	55.269	4.8314e-07	101.01	291.281	98.239	100.638	12.002	157.229	152.610	11.770	17.604	213.697	163.543	16.324	20.658	20.891	24.960	150.995	22.460	-8191	255	
1307.993	1	1	0	0	0.099136	0.18114	0.17494	0.14776	0.10273	0.14018	0.17023	0.40656	0.25333	0.29627	0.074278	0.12518	0.17694	0.10311	0.13022	0.19079	-1.9354	-2.7604	-2.3229	-2.2812	-2.7479	-2.1479	-2.6146	-2.7938	-2.2313	-2.8688	-2.4396	-2.45	-2.525	-2.2583	-2.4271	-2.6813	183.819	337.010	172.897	65.628	253.751	237.858	283.659	330.231	162.821	55.541	0.706	208.987	348.696	279.948	92.406	137.835	0.001242	0.00054082	0.00013678	552.62	6.9437e-06	5.7531e-06	807.96	209.76	8.0749e-06	5.6291e-06	348.83	181.96	97.381	55.651	8.5687e-06	101.49	0.00016284	3.3435e-05	1.0024e-05	541.71	3.7825e-07	3.5967e-07	792.88	206.54	4.4245e-07	3.1596e-07	340.91	178.92	95.313	55.182	4.7539e-07	100.47	294.896	83.081	112.759	11.754	163.850	140.228	11.767	17.599	205.923	159.701	16.513	20.588	21.145	25.000	154.997	22.822	-8191	255	
1308.113	1	1	0	0	0.30829	0.21324	0.11798	0.021378	0.14016	0.14766	0.10855	0.13262	0.13392	0.25765	0.20747	0.20131	0.27285	0.22451	0.10318	0.045727	-1.7833	-2.5854	-2.1458	-2.3583	-2.8167	-2.1875	-2.5792	-2.5167	-2.0208	-2.6125	-2.3833	-2.2188	-2.3792	-2.4021	-2.3625	-2.8042	30.504	181.323	171.141	325.508	302.692	38.591	194.653	68.992	329.168	235.582	281.711	331.944	283.415	352.836	321.065	67.721	0.0012541	0.00047646	0.00018367	553.16	8.3027e-06	6.146e-06	815.91	210.25	8.1219e-06	5.256e-06	347.56	182.25	97.327	55.305	7.7296e-06	101.95	0.00015929	3.3864e-05	9.9369e-06	541.03	3.7417e-07	3.9332e-07	795.02	206.5	4.7314e-07	3.2886e-07	340.04	179.32	95.316	54.991	4.8197e-07	100.65	294.151	83.682	102.604	11.726	168.561	145.905	12.048	17.628	215.946	161.464	16.037	20.904	21.169	24.851	161.931	22.775	-8191	255	
1308.185	1	1	0	0	0.22321	0.17245	0.10929	0.3509	0.12669	0.1227	0.0088484	0.066831	0.22759	0.11469	0.09577	0.10844	0.1449	0.11904	0.15251	0.27589	-1.7458	-2.6437	-2.5625	-2.4792	-2.9688	-2.2396	-2.5292	-2.7271	-2.1021	-2.6271	-2.5708	-2.5438	-2.8667	-2.4604	-2.3229	-2.8479	311.179	152.004	294.443	337.524	227.406	7.517	301.791	45.161	344.916	216.720	356.287	225.127	190.688	226.016	263.713	337.262	0.0012236	0.00063947	0.00015457	552.95	7.3162e-06	6.2644e-06	811.65	209.45	9.1664e-06	5.3839e-06	346.08	182.58	96.818	55.567	8.9452e-06	101.39	0.0001624	3.2946e-05	8.656e-06	541.74	4.0209e-07	3.3745e-07	795.08	206.3	4.7518e-07	3.5059e-07	341.02	179.36	95.072	55.074	4.5447e-07	100.5	292.221	81.985	102.935	12.149	159.916	147.574	12.019	17.453	214.078	156.919	16.260	20.909	21.166	24.988	160.929	22.579	-8191	255	
1308.306	1	1	0	0	0.14133	0.19962	0.031683	0.16757	0.16045	0.028978	0.1829	0.17819	0.17637	0.32021	0.33437	0.27892	0.036941	0.24746	0.18174	0.13535	-1.6896	-2.5563	-2.4667	-2.3229	-2.5708	-2.3625	-2.4979	-2.7354	-2.0438	-2.6396	-2.5333	-2.3708	-2.7687	-2.5458	-2.6312	-2.7792	195.479	25.395	9.470	310.813	299.232	117.373	323.908	240.548	111.188	235.921	59.961	26.057	231.822	10.803	124.283	340.954	0.0012853	0.00048174	0.00014153	550.24	9.3971e-06	6.4933e-06	814.01	208.11	7.7759e-06	5.5415e-06	345.25	179.82	96.105	55.118	7.1029e-06	100.21	0.0001628	3.6703e-05	9.48e-06	539.27	4.1981e-07	3.5901e-07	793.97	205.12	4.697e-07	3.2254e-07	338.83	177.19	94.218	54.5	4.7681e-07	99.382	294.798	92.354	93.689	11.694	160.805	144.442	12.038	17.681	211.433	158.771	16.055	20.646	20.998	24.822	158.502	22.731	-8191	255	
1308.402	1	1	0	0	0.18519	0.10079	0.060853	0.2837	0.22526	0.070101	0.088168	0.10807	0.24283	0.051613	0.24064	0.29555	0.19743	0.28824	0.16401	0.14829	-1.6979	-2.5062	-2.35	-2.2271	-2.5521	-2.2667	-2.3458	-2.8958	-2.3354	-2.6625	-2.8312	-2.3021	-2.7583	-2.4896	-2.3146	-2.9042	137.813	125.696	189.465	323.620	83.970	95.925	347.254	234.342	191.174	47.326	309.968	334.718	18.510	346.684	310.149	331.394	0.0012131	0.00055753	0.00015882	548.94	8.3225e-06	6.131e-06	812.6	208.68	8.2021e-06	6.1069e-06	344.9	180.62	97.306	55.181	9.4237e-06	101.44	0.00016036	3.2874e-05	9.2465e-06	538.98	3.8016e-07	3.3706e-07	793.61	204.98	4.2972e-07	3.4954e-07	338.78	177.5	94.677	54.793	5.007e-07	100.25	293.770	79.893	89.840	11.732	155.157	150.981	11.574	17.883	211.321	143.658	16.129	20.758	21.194	24.848	159.158	22.709	-8191	255	
1308.496	1	1	0	0	0.35732	0.14585	0.067925	0.31944	0.37028	0.013277	0.29006	0.1204	0.1832	0.057888	0.073886	0.18211	0.1376	0.06724	0.27949	0.24704	-1.8188	-2.4375	-2.6813	-2.2604	-2.7271	-2.6437	-2.4271	-2.9521	-2.4938	-2.5312	-2.8	-2.4104	-2.5146	-2.6542	-2.1417	-2.6833	345.236	327.672	233.733	35.283	54.882	346.251	54.655	247.277	91.893	175.391	69.388	358.662	338.918	248.931	5.826	319.910	0.001227	0.00059214	0.00018095	554.54	6.3642e-06	5.2817e-06	814.07	211.29	9.0092e-06	6.8653e-06	349.61	183.7	98.512	56.534	7.4401e-06	103.54	0.00016356	3.4163e-05	9.7034e-06	542.84	3.6652e-07	3.3864e-07	793.95	207.9	4.7352e-07	3.8497e-07	342.69	180.66	96.546	56.13	5.0858e-07	102.29	293.300	80.406	91.137	11.742	151.613	134.302	11.852	17.566	217.579	165.031	16.521	21.028	21.180	24.818	138.449	22.538	-8191	255	
1308.592	1	1	0	0	0.18923	0.26135	0.24779	0.29779	0.13734	0.13348	0.23193	0.19905	0.15417	0.22607	0.067292	0.3343	0.081024	0.23658	0.21382	0.19638	-1.7667	-2.1896	-2.3937	-2.2687	-2.4625	-2.5125	-2.2958	-2.8354	-2.3333	-2.3312	-2.9917	-2.5312	-2.5583	-2.7167	-2.1604	-2.8542	338.822	136.554	188.532	66.582	52.590	14.434	54.305	299.380	273.481	329.508	244.308	352.237	290.771	262.535	195.423	284.134	0.0012555	0.00053066	0.00017849	556.7	9.4705e-06	6.6265e-06	817.44	213.64	7.2604e-06	6.4748e-06	352.7	186.24	99.884	57.047	7.6675e-06	104.36	0.00016222	3.5165e-05	9.9903e-06	546.07	4.2797e-07	3.2036e-07	801.15	209.6	4.2539e-07	3.5428e-07	345.19	182.83	97.473	56.565	5.1749e-07	103.17	293.108	93.610	99.990	11.995	162.531	154.286	11.925	18.057	201.020	154.080	16.417	20.627	21.224	24.938	145.723	22.748	-8191	255	
1308.689	1	1	0	0	0.22097	0.1318	0.14532	0.19124	0.19585	0.25392	0.19488	0.14884	0.26662	0.18843	0.22315	0.2142	0.080544	0.20013	0.085522	0.14908	-1.9542	-2.3146	-2.7646	-2.5021	-2.6188	-2.7979	-2.3104	-2.8812	-2.6146	-2.3438	-2.8854	-2.4646	-2.4104	-2.7375	-2.2083	-2.7583	112.120	91.107	225.687	2.849	354.013	200.284	101.883	22.098	338.048	249.275	284.567	337.211	100.242	327.487	235.817	267.783	0.0012988	0.00060814	0.0001748	555.38	7.2664e-06	6.5851e-06	816.58	213.59	7.7416e-06	6.0376e-06	351.48	185.16	98.664	56.855	7.4552e-06	103.7	0.0001642	3.5558e-05	8.7828e-06	544.31	4.0375e-07	3.2036e-07	797.8	210.09	4.3303e-07	3.7193e-07	345.48	182.44	97.041	56.494	5.2924e-07	102.84	294.316	88.988	98.086	11.910	156.835	149.811	12.049	17.730	196.892	157.878	16.421	20.805	20.835	24.840	148.978	22.858	-8191	255	
1308.785	1	1	0	0	0.12083	0.068236	0.12101	0.10854	0.11636	0.29255	0.20478	0.035744	0.21814	0.1362	0.43436	0.16402	0.27809	0.13629	0.17161	0.21944	-1.9604	-2.1	-2.3354	-2.3479	-2.4437	-2.6625	-2.4938	-2.7292	-2.7375	-2.3375	-2.8	-2.475	-2.3792	-2.8937	-2.4583	-2.9271	135.950	208.363	146.629	301.878	161.813	4.106	236.343	233.636	77.594	96.846	321.610	33.379	0.329	239.593	97.162	355.502	0.0012564	0.00055056	0.00018522	555.05	8.8303e-06	7.5358e-06	813.04	212.78	7.0644e-06	7.213e-06	350.89	184.89	99.57	56.878	8.5089e-06	103.82	0.00016672	3.458e-05	9.8736e-06	542.79	4.4123e-07	3.3469e-07	793.78	209.28	4.3036e-07	3.8194e-07	344.52	181.96	97.401	56.486	4.8546e-07	102.73	292.521	88.762	89.172	11.873	161.690	147.320	12.006	17.799	217.672	154.586	16.162	20.636	20.979	24.493	157.235	22.801	-8191	255	
1308.881	1	1	0	0	0.057547	0.16146	0.073375	0.079535	0.22527	0.07936	0.11611	0.19368	0.10273	0.088812	0.40013	0.083292	0.12596	0.19259	0.029035	0.2504	-2.3167	-2.2042	-2.7396	-2.4583	-2.2875	-2.5271	-2.0792	-2.4083	-2.3021	-1.9417	-2.65	-2.3854	-2.3083	-2.7313	-2.2479	-2.625	320.461	283.570	98.814	356.613	243.460	290.126	277.276	306.953	2.464	115.064	58.481	234.840	100.867	44.507	281.452	246.637	0.0013298	0.00066831	0.00016601	552.47	8.7947e-06	8.0844e-06	809.27	213.22	8.0081e-06	5.7035e-06	349.54	184.29	98.878	56.32	8.4334e-06	103.23	0.00016665	3.996e-05	1.0034e-05	541.95	4.346e-07	3.435e-07	793.49	209.3	4.2743e-07	3.8813e-07	343.49	181.46	96.889	56.123	5.0612e-07	102.13	292.519	83.954	96.229	11.640	157.192	140.315	11.980	17.974	219.051	155.730	16.325	20.632	21.039	25.023	155.995	22.783	-8191	255	
1308.977	1	1	0	0	0.19689	0.21403	0.15378	0.19573	0.22406	0.21868	0.17447	0.30187	0.2363	0.044132	0.18367	0.15456	0.091528	0.064407	0.24202	0.070305	-2.3896	-2.1188	-2.6354	-2.4813	-2.3875	-2.6083	-2.3958	-2.5875	-2.825	-2.1292	-2.8063	-2.65	-2.1854	-3.0417	-2.4167	-2.725	152.164	105.120	55.502	328.388	336.316	219.711	220.887	301.757	98.689	236.014	273.125	228.260	109.371	184.275	61.027	218.143	0.0012602	0.0004849	0.00016536	554.1	8.2108e-06	6.6195e-06	813.4	211.68	8.0943e-06	4.6796e-06	353.21	184.5	98.363	56.591	6.4072e-06	103.84	0.00016223	3.8075e-05	9.4766e-06	541.2	4.2414e-07	3.3509e-07	794.82	208.15	4.4462e-07	3.3676e-07	344.58	181.44	96.544	56.13	4.8998e-07	102.62	292.061	89.947	100.364	12.076	158.031	148.084	12.105	17.974	206.908	157.296	15.923	20.984	20.893	24.835	157.672	22.729	-8191	255	
1309.073	1	1	0	0	0.19254	0.18717	0.36001	0.18122	0.10437	0.074565	0.16484	0.33165	0.27731	0.23566	0.25569	0.12886	0.075775	0.10562	0.16488	0.1671	-2.3021	-2.0187	-2.7583	-2.6917	-2.3458	-2.7938	-2.4917	-2.4417	-2.5938	-2.275	-2.7604	-2.8104	-2.3229	-2.9604	-2.7146	-2.7646	290.956	74.688	104.255	339.850	8.845	323.861	255.946	317.066	346.775	83.845	326.471	150.907	85.076	322.072	155.470	270.334	0.0012712	0.00066395	0.00018169	554.1	7.9461e-06	6.4635e-06	813.53	212.79	8.7443e-06	5.449e-06	353.49	184.8	98.549	56.483	9.91e-06	103.82	0.00016417	3.8183e-05	9.6301e-06	541.07	4.0808e-07	3.3864e-07	795.39	209.05	4.2959e-07	3.4467e-07	345.54	181.9	96.806	56.162	4.9721e-07	102.79	291.291	90.595	92.160	12.125	159.534	143.532	12.017	17.707	212.849	158.339	16.280	20.797	21.057	25.004	154.576	22.923	-8191	255	
1309.194	1	1	0	0	0.17046	0.22462	0.11221	0.12701	0.20618	0.21496	0.29148	0.10943	0.062472	0.050746	0.15898	0.067679	0.18156	0.31714	0.058294	0.2251	-2.3625	-2.2042	-2.6146	-2.6917	-2.2458	-2.7042	-2.5354	-2.3063	-2.6896	-2.3833	-2.5208	-2.5917	-2.0958	-2.5812	-2.2104	-2.2313	356.693	251.386	170.841	333.958	130.885	175.606	323.092	276.617	71.358	202.902	8.970	262.174	285.888	293.052	328.985	0.561	0.0012657	0.00056397	0.00018016	549.23	7.5995e-06	6.0974e-06	806.61	211.24	8.3857e-06	5.3986e-06	350.09	183.25	98.466	56.109	8.3988e-06	103.07	0.00016365	3.4043e-05	9.6868e-06	539.2	4.4034e-07	2.9381e-07	791.31	207.88	4.3303e-07	3.5533e-07	342.77	180.2	96.209	55.758	5.0018e-07	101.93	292.270	91.571	89.900	11.796	167.621	139.274	11.860	17.799	205.448	156.693	16.459	20.885	20.946	24.833	157.988	22.754	-8191	255	
1309.290	1	1	0	0	0.13499	0.26488	0.22673	0.15093	0.059688	0.201	0.12484	0.045458	0.27594	0.19689	0.19399	0.27411	0.086416	0.38073	0.39034	0.35981	-2.1813	-2.2188	-2.3854	-2.5563	-2.1625	-2.3521	-2.475	-2.2062	-2.65	-2.3167	-2.3083	-2.7062	-2.3333	-2.5979	-2.5833	-2.55	5.423	252.610	20.767	291.319	110.735	307.904	11.645	309.919	11.100	125.871	353.798	299.316	319.807	26.668	331.813	308.674	0.0012381	0.0005298	0.0001603	553.77	8.5199e-06	7.4427e-06	807.1	212.57	7.5006e-06	5.7577e-06	353.48	185.66	99.728	57.094	7.9588e-06	104.38	0.00016233	3.6691e-05	1e-05	540.97	4.3562e-07	3.6414e-07	791.26	209.36	4.3074e-07	3.5349e-07	345.69	182.83	97.717	56.817	5.0535e-07	103.48	293.474	91.692	94.118	11.821	153.768	146.936	11.844	17.898	212.301	154.196	16.460	20.777	21.061	24.833	144.379	22.802	-8191	255	
1309.386	1	1	0	0	0.37637	0.1976	0.2477	0.35609	0.2743	0.11561	0.04259	0.17261	0.17226	0.1104	0.21149	0.1798	0.13778	0.070511	0.04078	0.18296	-2.375	-2.3438	-2.4625	-2.8937	-2.1625	-2.4938	-2.6562	-2.2	-2.5687	-2.3917	-2.5208	-2.9104	-2.3771	-2.6042	-2.7521	-2.1375	123.228	191.931	4.183	282.034	215.673	232.138	253.099	144.355	11.435	37.065	147.860	325.925	305.882	343.169	39.432	312.761	0.0012549	0.00057987	0.00018701	553.35	8.7092e-06	6.965e-06	812.77	214.43	8.9174e-06	6.9671e-06	356.36	187.23	100.27	57.934	8.3069e-06	105.65	0.00016592	3.6608e-05	1.0034e-05	540.49	4.4798e-07	3.3785e-07	792.32	210.68	4.3749e-07	3.7904e-07	348.45	184.07	98.309	57.45	4.36e-07	104.53	291.197	102.375	103.259	11.792	162.803	148.866	11.851	17.733	208.460	149.065	16.285	20.851	20.901	24.870	155.415	22.843	-8191	255	
1309.482	1	1	0	0	0.058309	0.039114	0.21787	0.16409	0.18311	0.23377	0.29241	0.033086	0.1374	0.15072	0.31979	0.14289	0.17	0.19669	0.071876	0.16571	-2.2354	-2.3729	-2.2188	-2.85	-2.3042	-2.6104	-2.8229	-2.4583	-2.6729	-2.5521	-2.4	-2.9062	-2.5167	-2.4562	-2.6104	-2.3021	57.809	314.433	76.277	78.588	152.057	194.056	335.271	346.162	18.571	310.425	265.582	93.726	208.569	358.237	26.298	36.487	0.0013201	0.00065053	0.0001461	551.06	9.0015e-06	6.7324e-06	806.52	213.92	7.9231e-06	6.9712e-06	355.38	187.17	100.05	57.615	8.4553e-06	105.98	0.00016692	3.8445e-05	9.9636e-06	539.05	4.5283e-07	3.6243e-07	789.04	210.96	4.3303e-07	3.7549e-07	348.81	184.35	97.962	57.24	4.8469e-07	105.03	292.293	91.715	88.972	12.039	152.292	146.754	12.210	17.946	206.159	156.618	16.168	20.529	20.851	24.961	152.345	22.879	-8191	255	
1309.577	1	1	0	0	0.28394	0.048972	0.14194	0.1594	0.224	0.20395	0.27592	0.16538	0.042899	0.10472	0.2584	0.20955	0.21068	0.39091	0.24606	0.011164	-2.3521	-2.3208	-2.0687	-2.5458	-2.2604	-2.2958	-2.8125	-2.2062	-2.6125	-2.5312	-2.225	-2.6979	-2.1479	-2.3604	-2.6667	-2.2083	237.384	146.829	56.355	257.178	353.382	236.200	295.224	65.939	3.901	2.164	108.541	334.451	237.706	317.920	249.197	24.562	0.0012425	0.00055367	0.00013866	549.86	7.5966e-06	6.0142e-06	813.33	213.59	8.7364e-06	6.374e-06	355.49	185.91	98.826	56.884	7.9388e-06	104.59	0.00016416	3.7419e-05	9.8769e-06	539.51	4.3791e-07	3.8083e-07	792.99	210.13	4.3914e-07	3.901e-07	347.71	182.82	97.203	56.596	5.1633e-07	103.68	293.722	88.818	102.671	11.797	147.073	149.129	11.777	17.873	211.585	156.528	16.355	20.836	21.189	25.005	152.857	22.720	-8191	255	
1309.675	1	1	0	0	0.10776	0.17988	0.2712	0.10277	0.26097	0.09426	0.1638	0.16133	0.081802	0.20325	0.22138	0.31667	0.17937	0.18705	0.11628	0.32379	-2.2396	-2.6104	-1.95	-2.5687	-2.275	-2.2625	-2.975	-2.3021	-2.4396	-2.8083	-2.5625	-2.9667	-2.4458	-2.3479	-2.5396	-2.5479	231.327	190.198	304.663	49.873	299.199	213.088	274.806	325.657	217.247	105.698	334.945	319.302	309.389	277.611	96.830	298.474	0.0012559	0.00057342	0.0001459	549.81	7.8584e-06	5.3937e-06	801.88	213.2	7.3149e-06	6.4555e-06	353.55	185.16	99.432	57.476	7.5716e-06	104.85	0.00016206	3.4103e-05	1.0347e-05	537.3	4.3345e-07	3.5415e-07	785.33	210.08	4.3252e-07	3.3189e-07	346.32	182.87	97.357	56.946	4.8804e-07	103.89	292.632	82.201	101.669	11.752	165.562	156.432	11.575	17.906	211.073	155.782	16.324	20.644	20.919	25.008	150.120	22.752	-8191	255	
1309.793	1	1	0	0	0.10913	0.046067	0.072917	0.095182	0.084177	0.18133	0.19333	0.20819	0.26155	0.19293	0.21834	0.16157	0.31135	0.3722	0.1019	0.13144	-2.1562	-2.5271	-2.0938	-2.7083	-2.3021	-2.225	-2.7271	-2.0875	-2.225	-2.5229	-2.1813	-2.5812	-2.3792	-2.4	-2.7438	-2.5958	284.202	86.929	77.237	273.748	306.995	185.510	22.818	189.560	304.382	343.595	194.249	199.061	323.128	331.217	62.116	289.585	0.0013305	0.0005042	0.00017104	549.35	7.681e-06	5.289e-06	800.19	214.22	9.0795e-06	4.6113e-06	354.92	186.12	99.623	57.309	6.6517e-06	105.45	0.0001667	3.6656e-05	1.0864e-05	538.2	4.1471e-07	3.8451e-07	786.41	210.35	4.8065e-07	3.282e-07	346.88	183.29	97.594	57.002	4.4827e-07	104.3	294.445	95.225	94.720	12.017	171.292	142.666	11.809	17.779	208.641	153.524	16.257	20.780	21.140	24.800	152.643	22.659	-8191	255	
1309.890	1	1	0	0	0.24588	0.12216	0.11946	0.21845	0.10277	0.23595	0.30588	0.10001	0.19017	0.12198	0.10877	0.31599	0.21987	0.15397	0.16392	0.19579	-2.0812	-2.6854	-2.0687	-2.4625	-2.4917	-2.1813	-2.8646	-2.4896	-2.4958	-2.6083	-2.1729	-2.3896	-2.6292	-2.3792	-2.7333	-2.6521	96.100	228.601	239.226	31.783	330.450	118.892	267.903	59.385	93.060	109.362	324.891	6.472	172.471	356.940	247.029	325.590	0.001264	0.00058003	0.0001573	549.57	7.7316e-06	6.2237e-06	805.05	215.18	9.6982e-06	6.4441e-06	357.82	188.41	100.59	58.364	1.0213e-05	106.54	0.00016515	3.4067e-05	1.0934e-05	538.48	4.2274e-07	4.0226e-07	789.26	211.67	4.7174e-07	3.5454e-07	350.3	185.1	98.796	57.78	4.8275e-07	105.72	293.799	86.766	92.739	11.864	153.544	132.238	11.986	17.948	217.930	157.562	16.391	20.735	21.021	25.076	156.283	22.588	-8191	255	
1309.986	1	1	0	0	0.26898	0.20304	0.10654	0.24572	0.20082	0.23607	0.16518	0.21157	0.14595	0.18624	0.032687	0.17812	0.18904	0.39132	0.1094	0.18358	-2.0083	-2.8542	-2.0833	-2.4229	-2.7146	-2.1896	-2.7125	-2.2062	-2.1063	-2.65	-2.2625	-2.5792	-2.7125	-2.3396	-2.6042	-2.4521	138.321	125.798	337.368	321.769	181.754	289.207	328.480	278.018	245.115	182.994	288.126	268.841	31.631	302.343	99.592	314.220	0.0012797	0.00061072	0.00018331	550.38	8.122e-06	6.1532e-06	809.2	217.24	6.6477e-06	5.2858e-06	358.97	189.15	101.18	58.204	7.7641e-06	106.96	0.00016892	3.5332e-05	1.1118e-05	539.97	4.2249e-07	3.7702e-07	790.19	212.89	4.6614e-07	3.2201e-07	351.7	185.95	98.94	57.972	4.7306e-07	105.96	292.735	83.597	102.111	11.871	162.172	142.718	12.309	17.604	213.270	161.767	16.168	20.767	20.745	25.098	152.919	22.743	-8191	255	
1310.082	1	1	0	0	0.097219	0.029161	0.061892	0.31349	0.14769	0.24969	0.28416	0.17558	0.060183	0.075581	0.12684	0.2278	0.19166	0.21818	0.16142	0.235	-1.6208	-2.6792	-2.1625	-2.5021	-2.7708	-2.1396	-2.7313	-2.6646	-2.2687	-2.8042	-2.3708	-2.4729	-2.6521	-2.1958	-2.5542	-2.5146	208.602	324.234	137.099	338.469	26.425	78.947	314.350	260.405	85.931	60.613	57.209	281.486	283.511	354.915	216.397	312.802	0.0012889	0.00070319	0.0001561	548.4	7.6359e-06	5.8996e-06	802.52	216.51	6.9778e-06	6.1326e-06	360.08	188.75	102.16	58.888	6.9118e-06	107.91	0.00017072	3.5761e-05	9.7601e-06	536.63	4.1764e-07	4.0344e-07	785.45	213.18	4.7072e-07	3.4677e-07	351.77	186.09	99.697	58.588	4.8533e-07	106.73	294.374	87.727	85.740	12.032	155.993	144.381	11.944	18.147	223.542	150.639	16.245	20.799	20.734	24.920	171.592	22.579	-8191	255	
#DATA ENDS
