BOXY.EXE: ISS Imagent and Oximeter Data Acquisition Program Version 0.80
Ascii Record File

#ACQ INFORMATION
2  Detector Channels 
16  External MUX Channels 
1  Auxiliary Channels 
5000  Waveform (CCF) Frequency (Hz)
1  Waveforms Skipped 
30  Waveforms Averaged 
1  Cycles Averaged 
16  Acquisitions per Waveform 
10.0806  Updata Rate (Hz) 

#FILE INFORMATION
TRUE -- External MUX Channel results are PARSED.
FALSE -- AC DC and Phase are NOT grouped.
TRUE -- Companion Program Settings File CREATED.
FALSE -- AC data not excluded
FALSE -- DC data not excluded
FALSE -- Phase data not excluded
FALSE -- Auxillary Chn. data not excluded
Tab delimiters

#CALIBRATION STATE
TRUE -- Waveform Calibration Values APPLIED.


#AUX CALIBRATION VALUES
Val Type	aux-1	

Term	1.0000e+00	
Factor	0.0000e+00	


#WF CALIBRATION VALUES
A = Detector Channel
Val Type	A-AC1	A-AC2	A-AC3	A-AC4	A-AC5	A-AC6	A-AC7	A-AC8	A-AC9	A-AC10	A-AC11	A-AC12	A-AC13	A-AC14	A-AC15	A-AC16	A-DC1	A-DC2	A-DC3	A-DC4	A-DC5	A-DC6	A-DC7	A-DC8	A-DC9	A-DC10	A-DC11	A-DC12	A-DC13	A-DC14	A-DC15	A-DC16	A-Ph1	A-Ph2	A-Ph3	A-Ph4	A-Ph5	A-Ph6	A-Ph7	A-Ph8	A-Ph9	A-Ph10	A-Ph11	A-Ph12	A-Ph13	A-Ph14	A-Ph15	A-Ph16	

Term	0.00000e+00	0.00000e+00	0.00000e+00	0.00000e+00	0.00000e+00	0.00000e+00	0.00000e+00	0.00000e+00	0.00000e+00	0.00000e+00	0.00000e+00	0.00000e+00	0.00000e+00	0.00000e+00	0.00000e+00	0.00000e+00	0.00000e+00	0.00000e+00	0.00000e+00	0.00000e+00	0.00000e+00	0.00000e+00	0.00000e+00	0.00000e+00	0.00000e+00	0.00000e+00	0.00000e+00	0.00000e+00	0.00000e+00	0.00000e+00	0.00000e+00	0.00000e+00	0.00000e+00	0.00000e+00	0.00000e+00	0.00000e+00	0.00000e+00	0.00000e+00	0.00000e+00	0.00000e+00	0.00000e+00	0.00000e+00	0.00000e+00	0.00000e+00	0.00000e+00	0.00000e+00	0.00000e+00	0.00000e+00	
Factor	1.00000e+00	1.00000e+00	1.00000e+00	1.00000e+00	1.00000e+00	1.00000e+00	1.00000e+00	1.00000e+00	1.00000e+00	1.00000e+00	1.00000e+00	1.00000e+00	1.00000e+00	1.00000e+00	1.00000e+00	1.00000e+00	1.00000e+00	1.00000e+00	1.00000e+00	1.00000e+00	1.00000e+00	1.00000e+00	1.00000e+00	1.00000e+00	1.00000e+00	1.00000e+00	1.00000e+00	1.00000e+00	1.00000e+00	1.00000e+00	1.00000e+00	1.00000e+00	X	X	X	X	X	X	X	X	X	X	X	X	X	X	X	X	

B = Detector Channel
Val Type	B-AC1	B-AC2	B-AC3	B-AC4	B-AC5	B-AC6	B-AC7	B-AC8	B-AC9	B-AC10	B-AC11	B-AC12	B-AC13	B-AC14	B-AC15	B-AC16	B-DC1	B-DC2	B-DC3	B-DC4	B-DC5	B-DC6	B-DC7	B-DC8	B-DC9	B-DC10	B-DC11	B-DC12	B-DC13	B-DC14	B-DC15	B-DC16	B-Ph1	B-Ph2	B-Ph3	B-Ph4	B-Ph5	B-Ph6	B-Ph7	B-Ph8	B-Ph9	B-Ph10	B-Ph11	B-Ph12	B-Ph13	B-Ph14	B-Ph15	B-Ph16	

Term	0.00000e+00	0.00000e+00	0.00000e+00	0.00000e+00	0.00000e+00	0.00000e+00	0.00000e+00	0.00000e+00	0.00000e+00	0.00000e+00	0.00000e+00	0.00000e+00	0.00000e+00	0.00000e+00	0.00000e+00	0.00000e+00	0.00000e+00	0.00000e+00	0.00000e+00	0.00000e+00	0.00000e+00	0.00000e+00	0.00000e+00	0.00000e+00	0.00000e+00	0.00000e+00	0.00000e+00	0.00000e+00	0.00000e+00	0.00000e+00	0.00000e+00	0.00000e+00	-7.26684e+01	-1.29267e+02	-1.24907e+02	-1.81870e+02	-5.07789e+01	-7.05107e+01	-1.57448e+02	-1.62015e+02	-4.62257e+01	-6.38428e+01	-1.71264e+02	-1.72441e+02	-1.82777e+02	-1.77174e+02	-5.93073e+01	-1.49710e+02	
Factor	1.61401e-05	1.59208e-04	4.37177e-05	1.47657e-01	1.35887e-06	1.73276e-06	1.65095e-01	4.93827e-02	1.11487e-06	1.79644e-06	7.99830e-02	3.23445e-02	3.45062e-02	8.62477e-03	1.51567e-06	1.23023e-02	1.56454e-05	4.14206e-05	1.16575e-05	7.63936e-02	3.74041e-07	4.77579e-07	8.05275e-02	2.56400e-02	3.72120e-07	4.73555e-07	4.04468e-02	1.64577e-02	1.81944e-02	4.52542e-03	4.11768e-07	6.25502e-03	X	X	X	X	X	X	X	X	X	X	X	X	X	X	X	X	



#DISTANCE SETTINGS
A = Detector Channel
A-1	A-2	A-3	A-4	A-5	A-6	A-7	A-8	A-9	A-10	A-11	A-12	A-13	A-14	A-15	A-16	

2.5000e+00	3.0000e+00	2.5000e+00	3.0000e+00	2.0000e+00	3.0000e+00	1.5000e+00	3.0000e+00	3.0000e+00	3.0000e+00	3.0000e+00	3.0000e+00	3.0000e+00	3.0000e+00	1.5000e+00	3.0000e+00	

B = Detector Channel
B-1	B-2	B-3	B-4	B-5	B-6	B-7	B-8	B-9	B-10	B-11	B-12	B-13	B-14	B-15	B-16	

1.0000e+01	1.0000e+01	1.0000e+01	1.4400e+00	1.0000e+01	1.0000e+01	1.5100e+00	1.9400e+00	1.0000e+01	1.0000e+01	1.9900e+00	2.4900e+00	2.4100e+00	2.9000e+00	1.0000e+01	2.9800e+00	




#DATA BEGINS
time	group	step	mark	flag	A-AC1	A-AC2	A-AC3	A-AC4	A-AC5	A-AC6	A-AC7	A-AC8	A-AC9	A-AC10	A-AC11	A-AC12	A-AC13	A-AC14	A-AC15	A-AC16	A-DC1	A-DC2	A-DC3	A-DC4	A-DC5	A-DC6	A-DC7	A-DC8	A-DC9	A-DC10	A-DC11	A-DC12	A-DC13	A-DC14	A-DC15	A-DC16	A-Ph1	A-Ph2	A-Ph3	A-Ph4	A-Ph5	A-Ph6	A-Ph7	A-Ph8	A-Ph9	A-Ph10	A-Ph11	A-Ph12	A-Ph13	A-Ph14	A-Ph15	A-Ph16	B-AC1	B-AC2	B-AC3	B-AC4	B-AC5	B-AC6	B-AC7	B-AC8	B-AC9	B-AC10	B-AC11	B-AC12	B-AC13	B-AC14	B-AC15	B-AC16	B-DC1	B-DC2	B-DC3	B-DC4	B-DC5	B-DC6	B-DC7	B-DC8	B-DC9	B-DC10	B-DC11	B-DC12	B-DC13	B-DC14	B-DC15	B-DC16	B-Ph1	B-Ph2	B-Ph3	B-Ph4	B-Ph5	B-Ph6	B-Ph7	B-Ph8	B-Ph9	B-Ph10	B-Ph11	B-Ph12	B-Ph13	B-Ph14	B-Ph15	B-Ph16	aux-1	digaux	

26766.031	1	1	0	256	0.17763	0.052951	0.28362	0.15014	0.18313	0.18181	0.4076	0.33056	0.061505	0.21908	0.095168	0.21967	0.12863	0.14291	0.13991	0.083115	-4.1083	-4.6937	-4.1646	-4.8208	-4.6438	-4.3271	-4.9771	-4.3417	-4.4667	-4.7833	-4.2896	-4.5958	-4.6	-4.1292	-4.8729	-4.525	127.367	303.850	300.678	380.530	156.600	183.942	388.387	334.278	256.333	176.783	99.947	345.771	373.350	83.759	141.727	343.472	0.00043782	0.00036743	0.00012303	639.05	4.3019e-06	3.2209e-06	793.16	233.34	2.8287e-06	3.1544e-06	311.72	113.64	87.325	41.157	4.3258e-06	62.185	0.00069739	0.0008996	0.00026939	635.66	8.1416e-06	1.1794e-05	790.1	233.77	8.5053e-06	1.0172e-05	310.91	114.37	87.643	41.642	9.8069e-06	62.579	207.108	126.488	137.088	54.410	206.697	163.992	53.759	58.996	202.622	207.392	56.685	61.739	63.308	67.724	204.385	65.104	-8191	255	
26766.129	1	1	0	0	0.17291	0.14344	0.077175	0.095301	0.21814	0.11771	0.18975	0.17744	0.082713	0.053227	0.076942	0.17975	0.12525	0.12389	0.08501	0.073288	-4.0396	-4.7625	-4.0958	-4.7812	-4.6146	-4.1937	-4.75	-4.4792	-4.3229	-4.75	-4.2917	-4.5687	-4.6167	-4.0833	-4.8438	-4.5083	220.539	41.955	84.456	272.223	229.051	153.234	359.146	57.902	319.243	175.957	180.694	392.272	71.595	131.945	294.152	347.237	0.00042389	0.00040624	0.00014062	639.87	5.2546e-06	2.898e-06	797.96	234.47	2.8605e-06	5.5885e-06	311.41	113.08	86.143	41.07	4.2502e-06	62.04	0.00072992	0.00098253	0.00026776	636.63	8.3629e-06	1.1742e-05	792	234.58	8.758e-06	1.0143e-05	310.76	113.91	87.393	41.672	9.6259e-06	62.504	207.772	145.666	150.591	54.699	228.242	155.429	53.668	59.076	207.154	177.812	56.588	61.414	63.659	67.750	175.466	65.210	-8191	255	
26766.225	1	1	0	0	0.1992	0.092744	0.099923	0.20549	0.074598	0.21755	0.2338	0.21539	0.11351	0.1679	0.20569	0.26875	0.27824	0.050721	0.19053	0.15835	-4.0104	-4.5687	-4.3333	-4.5292	-4.5042	-4.1604	-4.6021	-4.5292	-4.2583	-4.825	-4.2875	-4.45	-4.5271	-4.1687	-4.7562	-4.7375	236.818	180.548	118.732	369.022	276.024	82.633	56.613	385.241	270.140	214.394	344.154	342.182	348.371	339.545	334.266	358.619	0.00040351	0.00023803	0.00010113	639.85	3.9502e-06	4.5697e-06	795.99	232.53	3.6883e-06	5.321e-06	310.73	113.28	86.216	41.088	4.3251e-06	62.035	0.00073266	0.00089978	0.00026285	636.19	8.4588e-06	1.2331e-05	790.67	233.3	8.9162e-06	1.0535e-05	309.72	113.72	87.308	41.647	1.0014e-05	62.504	210.326	110.942	153.457	54.480	218.660	181.026	53.771	58.984	232.413	201.526	56.729	61.568	63.363	67.625	199.586	65.145	-8191	255	
26766.344	1	1	0	0	0.17158	0.071637	0.16905	0.18519	0.20409	0.1418	0.35397	0.025639	0.039308	0.045929	0.13017	0.30537	0.21031	0.1165	0.22788	0.18905	-3.7792	-4.7063	-4.2417	-4.3917	-4.6937	-4.1729	-4.75	-4.5167	-4.0979	-4.6667	-4.3125	-4.3833	-4.7937	-4.2688	-4.5667	-4.7167	318.698	243.659	99.415	274.830	257.682	46.645	380.072	362.475	172.137	141.380	293.714	50.560	399.254	383.501	228.653	331.300	0.00041693	0.0003652	0.0001161	637.88	4.657e-06	4.079e-06	792.58	233.51	4.0708e-06	4.5316e-06	310.16	113.22	87.27	41.377	4.4551e-06	62.017	0.00075293	0.00091134	0.0002562	635.47	8.818e-06	1.2312e-05	789.06	233.66	8.9658e-06	1.0146e-05	309.46	113.99	87.681	41.817	9.2914e-06	62.679	211.174	121.884	134.416	54.450	209.769	168.585	53.799	59.196	216.983	183.818	56.650	61.470	63.195	67.899	191.851	65.260	-8191	255	
26766.439	1	1	0	0	0.24767	0.086683	0.052577	0.15305	0.0097712	0.0083895	0.30426	0.2766	0.10417	0.061099	0.31094	0.096675	0.26235	0.18239	0.1031	0.12163	-3.7708	-4.8146	-4.25	-4.2958	-4.8417	-4.2562	-4.7688	-4.7375	-4.0667	-4.7042	-4.4396	-4.3375	-4.9042	-4.2688	-4.5625	-4.9396	384.421	59.877	114.834	324.534	284.953	255.192	349.529	333.362	384.252	328.986	341.422	362.939	56.150	379.609	275.099	388.120	0.00042669	0.00044098	0.00012277	640.13	3.289e-06	4.8828e-06	794.69	232.96	4.4143e-06	5.2231e-06	311.4	113.97	86.967	41.354	4.8095e-06	62.635	0.00074361	0.00091151	0.00023944	635.8	8.8219e-06	1.257e-05	789.73	233.53	9.2945e-06	1.0138e-05	310.51	114.69	87.772	41.873	9.3566e-06	62.994	209.842	118.998	120.637	54.407	211.591	168.505	53.595	59.211	225.669	220.453	56.579	61.351	63.598	67.902	209.513	65.216	-8191	255	
26766.537	1	1	0	0	0.09833	0.11719	0.13389	0.20519	0.12537	0.1654	0.20907	0.23334	0.10969	0.15429	0.061737	0.21177	0.11511	0.20237	0.15324	0.084194	-3.8396	-4.7146	-4.5208	-4.3021	-4.6687	-4.1792	-4.4812	-4.7896	-4.0667	-4.6667	-4.4792	-4.0854	-4.7771	-4.4708	-4.4208	-4.8583	158.773	204.784	226.762	67.388	201.493	349.025	86.118	290.175	133.970	272.992	138.323	363.611	151.822	392.484	352.038	240.794	0.00041129	0.00039837	0.00015155	635.27	3.5941e-06	6.0977e-06	799.77	234.98	2.9039e-06	3.1494e-06	313.79	113.84	87.509	41.314	5.2553e-06	62.358	0.00077034	0.00090539	0.00024799	635.13	8.8515e-06	1.1408e-05	792.66	234.84	9.5658e-06	1.0156e-05	313.04	114.76	88.048	41.78	9.8756e-06	62.849	206.243	122.765	143.548	54.306	204.991	193.445	53.663	59.263	193.963	198.344	56.613	61.600	63.326	67.813	195.326	65.437	-8191	255	
26766.654	1	1	0	0	0.29799	0.088024	0.06542	0.078196	0.089927	0.09655	0.25724	0.26089	0.18564	0.13592	0.24582	0.14195	0.31685	0.096474	0.24455	0.14408	-3.9062	-4.6062	-4.475	-4.1354	-4.7188	-4.3333	-4.5312	-4.8271	-4.0896	-4.5667	-4.6042	-4.0687	-4.5646	-4.4229	-4.2604	-4.9333	84.074	395.490	393.889	82.272	322.994	85.631	353.346	288.410	287.391	345.128	387.245	58.974	361.097	198.969	110.683	246.812	0.00042597	0.00049288	0.00011176	639.22	3.6369e-06	3.466e-06	794.46	232.87	3.9712e-06	5.5929e-06	310.34	113.57	87.439	41.114	5.0269e-06	62.315	0.00077132	0.0008675	0.00025253	635.73	9.1749e-06	1.028e-05	791.17	234.21	9.2922e-06	1.0078e-05	311.08	114.72	88.044	41.727	9.9819e-06	62.826	212.641	112.434	125.499	54.485	204.901	201.860	53.865	59.045	229.792	187.155	56.825	61.509	63.231	67.559	214.369	65.189	-8191	255	
26766.727	1	1	0	0	0.084035	0.1592	0.15285	0.23846	0.18787	0.13116	0.12115	0.16175	0.088363	0.031254	0.13179	0.23312	0.33207	0.28426	0.12767	0.22811	-3.8187	-4.4083	-4.75	-4.1937	-4.6104	-4.4	-4.3917	-4.8896	-4.1458	-4.4792	-4.6562	-4.1375	-4.5687	-4.5604	-4.1875	-4.8604	300.940	246.603	234.650	93.095	342.722	300.140	191.530	326.392	150.919	283.350	372.275	85.658	44.415	93.428	72.281	349.350	0.00040083	0.00053149	0.0001092	640.21	4.2606e-06	2.7847e-06	799.78	233.8	3.1841e-06	3.753e-06	312.46	114.12	87.163	41.438	4.1831e-06	62.605	0.00076613	0.00088433	0.000258	635.09	8.5196e-06	1.0116e-05	792.14	234.64	9.1224e-06	1.0131e-05	311.23	114.7	88.034	41.956	9.9725e-06	63.176	210.759	136.215	138.839	54.323	197.117	194.000	53.724	59.098	221.520	172.974	56.904	61.464	63.599	67.688	224.323	65.144	-8191	255	
26766.822	1	1	0	0	0.12121	0.10696	0.24068	0.31137	0.084498	0.063515	0.34899	0.12165	0.1454	0.15653	0.17773	0.23401	0.10713	0.25799	0.077585	0.14537	-3.9792	-4.35	-4.7271	-4.1875	-4.5167	-4.4417	-4.2688	-4.8667	-4.2167	-4.3667	-4.7396	-4.1458	-4.5479	-4.4667	-4.1875	-4.7729	52.525	349.475	168.950	393.054	77.535	344.554	345.547	344.712	342.701	75.281	347.026	350.175	162.018	355.976	279.125	320.043	0.00044995	0.0005352	0.00012557	637.62	3.8614e-06	5.1276e-06	796.23	234.05	3.1355e-06	3.2966e-06	312.86	113.19	87.129	41.53	4.7832e-06	62.913	0.00073706	0.00093973	0.00025593	635.63	8.518e-06	1.0041e-05	791.85	234.71	8.6727e-06	1.0126e-05	311.93	114.62	88.024	42.04	9.7984e-06	63.278	210.743	125.247	119.923	54.318	203.458	183.379	53.508	58.995	235.630	196.882	56.690	61.473	63.256	67.747	214.457	65.141	-8191	255	
26766.943	1	1	0	0	0.16174	0.18229	0.052928	0.15324	0.23873	0.22262	0.088558	0.10326	0.22324	0.080634	0.17291	0.11195	0.099643	0.18875	0.21748	0.285	-4.0104	-4.1854	-4.7396	-4.1146	-4.3667	-4.6958	-4.2604	-4.65	-4.3313	-4.3083	-4.9021	-4.2042	-4.5	-4.8521	-3.9417	-4.6771	116.343	148.309	364.435	134.575	395.175	376.196	274.327	354.770	341.021	46.370	177.580	107.565	262.465	109.893	65.074	349.162	0.00044374	0.00071794	0.00014161	639.53	4.4688e-06	3.1995e-06	798.11	234.71	3.5869e-06	3.3539e-06	313.5	114.77	87.974	41.576	3.4578e-06	62.728	0.00069941	0.0010627	0.00024743	636.19	8.6014e-06	1.0318e-05	793.15	235.37	8.6239e-06	1.0249e-05	313.8	115.3	88.444	42.111	1.0042e-05	63.289	210.634	136.304	120.693	54.241	235.274	170.212	53.909	59.136	214.870	188.179	56.782	61.149	63.484	67.814	217.577	65.179	-8191	255	
26767.039	1	1	0	0	0.12593	0.17529	0.24276	0.30937	0.17452	0.099209	0.09589	0.094	0.16551	0.17746	0.11186	0.078619	0.17193	0.057184	0.22107	0.30257	-4.0771	-4.3042	-4.6667	-4.4062	-4.3417	-4.6771	-4.25	-4.7604	-4.4854	-4.2937	-4.8542	-4.3562	-4.4229	-4.8229	-4.0062	-4.5188	141.956	394.520	299.762	63.159	388.797	390.864	50.969	95.784	73.134	82.222	50.783	278.477	289.845	69.526	131.105	357.771	0.0004309	0.00039693	0.00011475	639.71	4.5953e-06	3.6174e-06	797.83	236.7	3.6469e-06	3.5649e-06	316.62	114.18	87.143	41.483	5.3149e-06	63.096	0.00069557	0.0011058	0.00024537	637.14	8.5912e-06	1.0384e-05	794.44	236.48	8.7805e-06	1.0682e-05	315.07	115.58	88.266	42.178	1.0065e-05	63.592	208.257	124.892	148.461	54.545	208.110	180.049	53.718	59.157	225.832	193.366	57.022	61.437	63.286	67.825	198.594	65.275	-8191	255	
26767.137	1	1	0	0	0.068947	0.10658	0.13136	0.36678	0.2569	0.022676	0.23204	0.30416	0.28025	0.2143	0.14876	0.041624	0.14826	0.13041	0.030464	0.11927	-4.2125	-4.0979	-4.7521	-4.1958	-4.2896	-4.6375	-4.1271	-4.6667	-4.4375	-4.1604	-4.7729	-4.4271	-4.3125	-4.9458	-4.225	-4.6229	351.622	359.871	166.958	347.800	215.286	366.645	45.415	359.298	163.604	194.373	348.329	377.092	307.060	84.138	213.146	294.319	0.00046105	0.00041135	0.00013108	640.65	3.9143e-06	4.2369e-06	799.35	234.62	4.4472e-06	5.249e-06	313.83	115.05	87.672	41.321	6.586e-06	62.779	0.00070704	0.0010923	0.00025243	637.95	8.9209e-06	1.0663e-05	794.38	235.76	8.5471e-06	1.0639e-05	314.46	115.67	88.4	41.93	9.7795e-06	63.244	209.468	113.276	149.249	54.397	219.268	188.863	53.672	59.125	221.274	184.267	56.485	61.385	63.410	67.951	212.579	65.219	-8191	255	
26767.232	1	1	0	0	0.056417	0.22879	0.24716	0.17229	0.17899	0.033139	0.31501	0.10436	0.11001	0.16586	0.10607	0.23861	0.14271	0.31453	0.11502	0.17726	-4.1583	-3.8854	-4.6396	-4.5188	-4.0604	-4.6729	-4.3146	-4.4938	-4.7188	-4.0542	-4.8375	-4.6417	-4.0583	-4.875	-4.1375	-4.4062	265.807	331.082	193.413	374.217	148.340	259.079	299.425	283.049	316.587	53.346	144.954	297.352	357.904	344.513	111.677	321.503	0.00044478	0.00064596	0.0001686	638.44	5.3622e-06	3.5199e-06	799.71	235.32	2.9067e-06	5.1421e-06	313.14	114.18	87.347	41.466	6.0437e-06	62.619	0.00070505	0.0010956	0.00025501	636.02	8.945e-06	1.0614e-05	793.23	235.83	8.8131e-06	1.0962e-05	313.25	114.97	88.228	42.017	9.4569e-06	63.072	208.023	131.392	124.735	54.395	203.168	207.588	53.675	58.900	224.094	204.685	56.550	61.461	63.266	67.608	191.738	64.961	-8191	255	
26767.328	1	1	0	0	0.13687	0.21558	0.28663	0.14329	0.36819	0.2076	0.27341	0.21592	0.16121	0.06605	0.171	0.18108	0.062997	0.40919	0.12094	0.21954	-4.2375	-4.0729	-4.5479	-4.6625	-4.1813	-4.7083	-4.4646	-4.5729	-4.6167	-4.1146	-4.675	-4.6062	-4.2438	-4.9187	-4.2292	-4.5292	268.637	96.300	397.772	303.224	237.767	334.347	325.964	306.907	150.512	232.795	342.222	342.323	321.717	397.494	129.330	338.123	0.00041563	0.00041139	0.00014878	637.78	2.8903e-06	4.1025e-06	798.82	234.81	3.111e-06	3.9411e-06	312.48	113.65	87.222	41.538	4.2938e-06	62.751	0.00069905	0.0010804	0.00025103	636.27	8.9084e-06	1.0303e-05	792.69	235.26	9.1976e-06	1.0581e-05	312.42	114.87	88.168	42.126	9.6405e-06	63.148	209.322	136.842	123.808	54.455	234.615	167.869	53.338	59.111	207.745	173.762	56.730	61.490	63.026	67.748	187.178	65.202	-8191	255	
26767.426	1	1	0	0	0.27418	0.12024	0.18216	0.16673	0.14953	0.12621	0.066036	0.2404	0.18977	0.19761	0.18101	0.11798	0.12514	0.20767	0.22213	0.26126	-4.4208	-4.0958	-4.4729	-4.5708	-4.0938	-4.7104	-4.6188	-4.4667	-4.7646	-4.0917	-4.5437	-4.6354	-4.1229	-4.8688	-4.4479	-4.4333	203.421	201.451	227.093	337.570	43.996	247.328	99.285	344.393	308.262	97.299	263.263	119.625	374.613	385.677	399.959	359.716	0.0004306	0.00033392	0.00012755	641.45	5.0604e-06	4.9647e-06	797.88	234.75	3.3055e-06	4.7355e-06	313.75	114.9	87.661	41.771	3.3475e-06	62.817	0.00070078	0.0010521	0.00024491	637.49	8.9115e-06	1.017e-05	793.4	235.43	8.7603e-06	1.0518e-05	312.92	115.41	88.471	42.296	9.4621e-06	63.546	212.608	114.525	103.699	54.591	222.939	159.995	53.555	59.073	217.928	213.624	56.626	61.642	63.264	67.873	207.582	65.105	-8191	255	
26767.521	1	1	0	0	0.2405	0.18422	0.19618	0.22641	0.23362	0.16083	0.15716	0.099276	0.15091	0.091423	0.22357	0.18302	0.13038	0.10727	0.073487	0.27913	-4.4729	-4.2896	-4.4125	-4.7396	-4.0833	-4.6896	-4.5708	-4.3063	-4.9104	-4.35	-4.5125	-4.65	-4.0875	-4.6854	-4.4354	-4.2542	369.206	175.747	278.770	384.461	94.862	339.079	331.819	254.347	293.500	112.188	273.743	276.394	155.532	364.389	330.655	42.275	0.00043465	0.00043138	9.1131e-05	637.71	4.3489e-06	3.7816e-06	802.92	236.33	3.3484e-06	5.3238e-06	315.7	114.67	87.813	41.607	6.5265e-06	63.317	0.00070007	0.0010769	0.00024899	637.33	9.0728e-06	9.7536e-06	796.9	236.56	8.7192e-06	9.9516e-06	315.28	115.78	88.648	42.329	9.6688e-06	63.751	209.830	141.388	138.106	54.374	210.609	190.834	53.761	59.138	206.314	204.011	56.729	61.271	63.246	67.508	202.146	65.110	-8191	255	
26767.617	1	1	0	0	0.27487	0.049032	0.16615	0.13064	0.1304	0.15145	0.018506	0.052926	0.19294	0.057217	0.12911	0.23225	0.039079	0.22038	0.066968	0.16317	-4.3771	-4.3583	-4.3833	-4.7812	-3.9604	-4.575	-4.5771	-4.2708	-4.675	-4.2708	-4.5667	-4.7917	-4.2708	-4.6667	-4.6417	-4.2125	354.738	265.598	266.470	326.849	399.147	73.811	330.008	127.727	159.506	297.514	97.499	183.623	399.163	362.197	335.450	284.452	0.00042883	0.00025365	0.00016299	643.81	3.0836e-06	2.3679e-06	805.95	235.62	3.4739e-06	6.5641e-06	314.94	115.13	87.686	41.602	4.2787e-06	63.379	0.00071255	0.00092567	0.00027283	640.05	9.0775e-06	9.8162e-06	798.24	237.08	8.5409e-06	1.0402e-05	315.21	115.99	88.592	42.207	9.5281e-06	63.718	210.904	144.439	134.485	54.702	208.346	166.597	53.768	59.193	235.369	210.452	56.411	61.398	63.282	67.798	217.255	65.151	-8191	255	
26767.736	1	1	0	0	0.22098	0.086898	0.18974	0.076228	0.005611	0.18453	0.10157	0.070727	0.13826	0.11496	0.048087	0.32319	0.19364	0.23788	0.099998	0.065526	-4.4292	-4.3688	-4.3146	-4.8	-4.2979	-4.5542	-4.5542	-4.0917	-4.5667	-4.4437	-4.2104	-4.7833	-4.2542	-4.4354	-4.5792	-4.3187	278.969	91.283	360.417	272.943	133.924	270.118	85.668	363.886	192.030	182.180	373.025	339.647	375.789	333.987	171.134	322.585	0.0004412	0.00046738	0.00011292	642.12	2.5177e-06	3.7389e-06	800.35	235.66	3.8782e-06	4.8816e-06	315.08	114.64	87.678	41.672	4.7468e-06	63.307	0.00068064	0.00090133	0.00030416	637.88	8.5609e-06	1.0255e-05	794.45	236.21	8.8138e-06	9.8223e-06	314.86	115.53	88.638	42.33	9.3934e-06	63.733	210.386	123.141	121.215	54.583	224.981	176.018	53.736	59.188	241.984	192.797	56.616	61.418	63.307	67.670	210.650	64.915	-8191	255	
26767.832	1	1	0	0	0.1446	0.057936	0.07471	0.13579	0.052981	0.15261	0.22421	0.10344	0.08802	0.04118	0.20738	0.12798	0.12216	0.14891	0.12246	0.20533	-4.2021	-4.4396	-4.25	-4.9917	-4.2562	-4.4313	-4.7604	-4.1729	-4.5792	-4.6896	-4.1875	-4.7146	-4.1792	-4.5021	-4.525	-4.3521	268.760	141.507	41.814	332.105	82.174	169.129	45.472	270.638	345.255	282.862	102.802	90.459	185.314	306.118	400.854	375.780	0.00045556	0.0003569	0.00012973	639.81	3.9131e-06	4.959e-06	803.94	236.02	3.977e-06	4.4133e-06	314.94	114.83	87.392	42.066	3.4408e-06	63.575	0.00069785	0.00087432	0.00029486	637.43	8.045e-06	9.5605e-06	794.99	236.73	8.5471e-06	9.7602e-06	313.37	115.76	88.343	42.586	9.6131e-06	64.211	210.139	118.281	125.499	54.599	218.215	193.032	53.649	58.847	228.715	202.397	56.896	61.604	63.338	67.743	198.435	65.327	-8191	255	
26767.928	1	1	0	0	0.16196	0.069057	0.12351	0.027275	0.10787	0.13032	0.19845	0.18243	0.1124	0.039735	0.092308	0.30485	0.14565	0.10196	0.18809	0.088709	-4.1958	-4.5167	-4.2292	-4.6979	-4.3208	-4.2521	-4.9396	-4.3313	-4.4729	-4.5333	-4.1771	-4.7229	-4.3313	-4.2271	-4.8396	-4.2854	241.840	252.232	293.986	334.829	371.366	376.935	72.792	303.792	60.218	267.329	286.961	386.759	386.867	330.393	356.152	380.439	0.00042548	0.00049414	0.00011875	640.25	3.8147e-06	3.5691e-06	799.85	237	4.0592e-06	5.4961e-06	315.11	115.08	88.271	42.251	5.3098e-06	63.351	0.00069022	0.00090677	0.00030368	637.02	8.4393e-06	1.0014e-05	795.19	237.02	8.613e-06	1.0667e-05	314.55	115.87	88.808	42.69	9.583e-06	64.101	206.437	128.091	124.804	54.306	215.942	199.301	53.461	58.791	226.154	182.527	57.009	61.927	63.522	67.872	211.299	64.907	-8191	255	
26768.023	1	1	0	0	0.19289	0.2785	0.17362	0.12984	0.24206	0.23766	0.13245	0.22512	0.087804	0.049082	0.091318	0.040178	0.10744	0.18173	0.19379	0.11176	-4.0979	-4.5146	-4.0417	-4.7979	-4.3792	-4.1312	-4.9542	-4.275	-4.3542	-4.6021	-4.2042	-4.7333	-4.4208	-4.3167	-4.6708	-4.2937	57.389	270.012	162.615	183.106	102.137	315.167	65.833	395.430	193.815	200.277	348.602	331.466	306.335	321.988	99.965	343.391	0.00043385	0.00035465	0.00014757	643.71	3.7398e-06	4.9024e-06	803.4	238.49	4.2002e-06	3.8406e-06	316.38	115.73	87.841	41.939	3.3665e-06	63.661	0.00070401	0.00092575	0.00030414	639.14	8.6333e-06	1.0249e-05	798.21	238.18	8.7782e-06	9.6398e-06	316.62	116.36	88.751	42.601	9.3171e-06	64.075	207.482	124.089	131.563	54.454	197.600	175.398	53.478	59.010	226.946	179.739	56.630	61.119	63.716	67.920	194.596	65.128	-8191	255	
26768.119	1	1	0	0	0.20677	0.099327	0.38181	0.23815	0.091886	0.12501	0.088078	0.092401	0.1808	0.072582	0.014216	0.13463	0.070793	0.10636	0.1169	0.13927	-3.8354	-4.7812	-4.0292	-4.65	-4.5479	-4.2354	-4.9292	-4.3729	-4.3208	-4.7063	-4.325	-4.6271	-4.5771	-4.2937	-4.7333	-4.4979	214.325	343.708	192.856	309.314	321.632	158.088	300.479	251.369	267.767	342.044	151.234	329.105	53.876	390.680	68.133	267.363	0.00046331	0.00054275	0.00011265	640.36	4.9121e-06	4.3675e-06	802.34	237.77	5.277e-06	4.353e-06	319.01	115.83	87.982	41.845	3.3594e-06	63.83	0.00072744	0.0009078	0.0002929	639.37	8.6614e-06	1.0434e-05	798	237.75	9.9914e-06	9.6585e-06	317.51	116.26	88.689	42.51	9.5607e-06	64.25	209.710	150.231	124.312	54.539	200.586	178.649	53.643	58.920	213.266	195.666	56.626	61.421	63.393	67.841	176.056	65.163	-8191	255	
26768.217	1	1	0	0	0.052058	0.13814	0.028194	0.12304	0.13807	0.19448	0.053897	0.058982	0.14638	0.08684	0.15136	0.13803	0.14164	0.12606	0.19262	0.14367	-3.8979	-4.8063	-4.1146	-4.7167	-4.5833	-4.2292	-4.8	-4.4229	-4.2771	-4.7458	-4.2708	-4.575	-4.7396	-4.1125	-4.65	-4.5417	179.754	128.374	99.308	353.738	52.800	72.230	217.593	387.476	279.931	155.305	320.921	370.062	294.484	380.007	361.452	176.631	0.0004248	0.00046303	0.00012557	642.5	2.918e-06	4.4602e-06	805.46	236.9	3.9918e-06	4.588e-06	317.03	115.65	87.566	41.86	4.4604e-06	63.403	0.00073605	0.00094266	0.00028218	639.12	8.5048e-06	1.0247e-05	796.96	237.23	1.0427e-05	9.9239e-06	315.98	115.86	88.46	42.367	9.3857e-06	63.792	208.741	123.124	145.376	54.410	197.782	185.099	53.346	58.909	222.206	161.755	56.563	61.372	63.442	67.775	222.923	65.402	-8191	255	
26768.338	1	1	0	0	0.059652	0.13746	0.13399	0.098804	0.10969	0.17871	0.086152	0.29818	0.26854	0.12273	0.29887	0.096567	0.033145	0.1006	0.09504	0.060303	-3.8208	-4.7875	-4.1729	-4.475	-4.5521	-4.1271	-4.7083	-4.5333	-4.3667	-4.7312	-4.4375	-4.3875	-4.7771	-3.9188	-4.5667	-4.4917	383.113	46.661	272.664	53.776	217.491	111.164	363.560	326.249	344.584	173.423	331.419	349.364	102.556	400.206	147.789	288.273	0.00043062	0.00043922	0.00011368	640.91	4.293e-06	4.231e-06	800.68	236.98	3.7489e-06	6.669e-06	315.48	114.74	87.476	41.647	3.0553e-06	63.117	0.00070541	0.00090513	0.00029532	638.13	8.7822e-06	1.0656e-05	796.15	236.82	1.0187e-05	1.0092e-05	315.04	115.32	88.15	42.21	9.2768e-06	63.521	206.523	130.606	130.295	54.452	213.546	182.664	53.601	59.218	220.371	206.610	56.596	61.387	63.260	67.946	216.533	65.205	-8191	255	
26768.434	1	1	0	0	0.12823	0.21	0.24007	0.20278	0.077053	0.081846	0.15775	0.30102	0.18084	0.29611	0.36229	0.11516	0.11797	0.15067	0.16119	0.13042	-3.7104	-4.7958	-4.2396	-4.3812	-4.5417	-4.0542	-4.4979	-4.5708	-4.0875	-4.5958	-4.4708	-4.3125	-4.8146	-4.1667	-4.6292	-4.7396	287.057	239.461	279.500	74.297	140.963	175.379	102.292	375.597	236.888	225.220	360.608	380.515	214.704	382.176	308.839	341.358	0.00041769	0.00043373	5.1554e-05	641.07	2.4793e-06	3.4391e-06	801.15	236.79	3.4893e-06	4.8264e-06	315.45	114.02	86.787	41.643	3.5306e-06	62.763	0.00070665	0.00089771	0.00027092	637.99	8.7502e-06	1.0142e-05	795.89	236.9	1.0415e-05	1.022e-05	314.85	115.44	87.948	42.196	9.571e-06	63.479	207.516	126.367	154.871	54.427	203.610	170.099	53.548	59.230	226.637	189.993	56.676	61.599	63.532	67.864	197.119	65.040	-8191	255	
26768.527	1	1	0	0	0.17396	0.053511	0.13437	0.23267	0.10072	0.15859	0.22916	0.1759	0.12626	0.10633	0.041575	0.22264	0.20414	0.19172	0.055978	0.27012	-3.8792	-4.5229	-4.2208	-4.3292	-4.6208	-4.1521	-4.7	-4.7458	-4.175	-4.7208	-4.5604	-4.1708	-4.9083	-4.2333	-4.4146	-4.8	297.533	49.113	70.441	308.682	367.505	54.196	378.507	75.223	138.126	342.025	110.761	331.918	321.021	366.870	341.615	344.796	0.00043784	0.00074831	9.0688e-05	642.85	2.4543e-06	3.6604e-06	803.14	236.48	1.8589e-06	4.8502e-06	316.74	114.58	86.987	41.495	4.0503e-06	63.049	0.00071271	0.00090806	0.00026392	639.05	8.7409e-06	1.0398e-05	797.34	236.89	1.0098e-05	1.0253e-05	316.32	115.51	88.086	42.034	9.9408e-06	63.457	210.390	117.148	109.598	54.562	209.857	197.415	53.566	59.168	218.404	214.627	56.870	61.497	63.571	67.775	194.461	65.318	-8191	255	
26768.627	1	1	0	0	0.11813	0.059485	0.14425	0.042679	0.14287	0.039539	0.17432	0.14647	0.1921	0.099856	0.10023	0.18591	0.23255	0.17227	0.28952	0.1753	-3.8708	-4.5708	-4.5188	-4.1417	-4.7833	-4.4792	-4.2583	-4.8271	-4.1375	-4.4458	-4.6667	-4.1854	-4.8042	-4.4979	-4.3667	-4.6833	118.036	384.919	264.518	65.805	386.614	299.390	199.529	360.712	146.826	90.389	314.586	76.902	331.511	70.364	179.200	324.365	0.00042658	0.00041331	0.00013597	636.95	3.9045e-06	5.0445e-06	798	236.87	3.3333e-06	6.7281e-06	316.18	115.11	87.641	41.319	4.2045e-06	63.021	0.00071591	0.00088191	0.00026283	637.13	8.8227e-06	1.0855e-05	796.68	237.25	1.0549e-05	1.0554e-05	316.92	115.76	88.094	41.955	1.0571e-05	63.539	205.970	130.667	134.052	54.250	209.385	197.024	53.568	58.840	235.133	192.463	56.745	61.737	63.215	67.662	199.339	65.260	-8191	255	
26768.721	1	1	0	0	0.072458	0.20095	0.18645	0.16231	0.059291	0.10384	0.095496	0.058376	0.14985	0.18736	0.32947	0.14657	0.1563	0.13139	0.14019	0.3164	-3.825	-4.5875	-4.5458	-4.2521	-4.7937	-4.3708	-4.4771	-4.7917	-4.2667	-4.4146	-4.8979	-4.2833	-4.5292	-4.5979	-4.1188	-4.8396	124.153	198.178	72.678	344.424	350.635	54.263	349.806	367.346	293.316	392.469	339.791	313.611	334.028	370.729	387.464	274.074	0.00039777	0.00041923	0.00012966	638.03	4.0629e-06	5.9133e-06	806.32	237.8	4.7697e-06	4.0983e-06	318.61	114.57	87.987	41.525	3.302e-06	62.871	0.00067493	0.00091367	0.00025722	637.19	8.4697e-06	1.0504e-05	799.55	237.99	1.0265e-05	1.0019e-05	317.48	115.81	88.515	42.099	1.1242e-05	63.551	212.541	120.240	120.473	54.780	207.783	163.038	53.490	58.885	212.205	181.861	56.644	61.736	63.469	67.945	179.287	65.232	-8191	255	
26768.816	1	1	0	0	0.10979	0.095723	0.056116	0.28901	0.057918	0.19766	0.12259	0.30188	0.33282	0.16036	0.027764	0.11497	0.14426	0.25121	0.13504	0.061779	-3.9479	-4.4333	-4.6146	-4.1604	-4.6104	-4.475	-4.2604	-5.0167	-4.2792	-4.3708	-4.8208	-4.2208	-4.7438	-4.5979	-4.1104	-4.7979	278.316	256.559	76.350	358.094	252.426	53.237	292.255	355.273	250.263	162.494	141.121	291.692	383.436	328.030	288.127	305.342	0.00043656	0.00031086	0.00014721	640.31	4.137e-06	5.3726e-06	803.98	235.23	2.8134e-06	6.2651e-06	316.37	114.33	86.981	41.628	5.7966e-06	62.938	0.00070085	0.00093447	0.0002654	638.49	8.5515e-06	1.0677e-05	796.43	236.22	9.7899e-06	1.1056e-05	315.38	115.3	88.018	42.157	1.124e-05	63.526	208.198	105.886	125.328	54.421	202.115	201.440	53.520	59.083	223.332	199.356	56.854	61.322	63.039	67.811	223.517	65.210	-8191	255	
26768.912	1	1	0	0	0.17614	0.10548	0.12975	0.098469	0.14774	0.040598	0.17459	0.11183	0.084433	0.15353	0.15641	0.011449	0.073598	0.31097	0.1923	0.11567	-4.1042	-4.2417	-4.7458	-4.3521	-4.6146	-4.6229	-4.4313	-4.7708	-4.3938	-4.3	-4.8438	-4.0604	-4.5792	-4.65	-4.1833	-4.7979	45.314	125.596	317.355	153.543	103.673	141.934	250.860	353.090	330.224	274.939	400.412	333.529	129.659	368.910	183.139	336.855	0.00044165	0.00038092	0.00013738	639.86	5.0276e-06	4.9039e-06	802.66	236.72	3.449e-06	4.1256e-06	314.8	114.81	87.406	41.535	3.3394e-06	63.055	0.00069534	0.00092843	0.00025773	637.42	8.9676e-06	1.0572e-05	796.04	236.66	8.8022e-06	1.1261e-05	314.92	115.33	88.079	42.122	1.1366e-05	63.613	207.883	138.849	133.490	54.726	221.502	183.910	53.399	59.020	230.021	183.284	56.918	61.332	63.210	67.784	166.431	65.182	-8191	255	
26769.033	1	1	0	0	0.031521	0.1315	0.033798	0.15879	0.093695	0.33033	0.17691	0.11504	0.32551	0.093717	0.10269	0.28094	0.056638	0.077772	0.1193	0.17351	-3.9125	-4.2625	-4.8146	-4.2812	-4.4354	-4.6083	-4.1542	-4.6708	-4.4271	-4.1125	-4.7729	-4.3104	-4.4458	-4.6354	-4.0979	-4.7771	55.469	178.489	276.838	381.182	308.697	383.155	377.267	239.813	197.308	375.263	371.265	351.046	312.452	352.210	179.940	350.920	0.00043781	0.00060492	9.8188e-05	637.99	4.9641e-06	5.0399e-06	801.72	235.26	3.9996e-06	8.2343e-06	315.29	114.95	86.828	41.517	3.6495e-06	63.214	0.00070075	0.00091945	0.00023687	636.52	8.6224e-06	1.0414e-05	797.49	235.79	8.5619e-06	1.209e-05	314.25	115.62	87.873	42.095	1.0563e-05	63.779	209.001	136.358	148.383	54.345	226.664	178.859	53.391	59.096	211.413	179.913	56.656	61.475	63.258	67.810	207.131	65.248	-8191	255	
26769.129	1	1	0	0	0.17863	0.12261	0.11009	0.17952	0.15974	0.18312	0.2371	0.14362	0.1069	0.25024	0.2336	0.16422	0.17617	0.13631	0.12869	0.082581	-3.8917	-4.0687	-4.75	-4.3875	-4.2729	-4.7125	-4.2854	-4.7146	-4.5208	-4.1917	-4.9021	-4.3958	-4.3667	-4.8479	-4.1625	-4.6687	284.894	179.308	393.114	59.202	390.921	286.542	305.539	62.771	365.115	311.323	376.486	377.085	65.170	56.041	116.433	231.229	0.00044337	0.00045006	6.2866e-05	639.48	5.3032e-06	5.6231e-06	801.97	235.67	4.5708e-06	2.2075e-06	314.68	114.7	87.156	41.59	3.1915e-06	63.332	0.00071004	0.00092894	0.00024053	637.11	9.0736e-06	9.7973e-06	796.57	235.5	8.7634e-06	1.1373e-05	314.09	115.37	87.708	42.063	1.0538e-05	63.797	211.041	133.402	122.208	54.431	212.531	180.643	53.391	58.824	238.409	202.082	56.556	61.339	63.332	67.975	190.217	65.067	-8191	255	
26769.201	1	1	0	0	0.0903	0.03966	0.1709	0.27301	0.11248	0.072716	0.16748	0.17696	0.15129	0.22364	0.17195	0.089879	0.27348	0.18976	0.040253	0.10366	-4.3542	-4.1188	-4.8292	-4.4563	-4.0437	-4.7375	-4.2625	-4.4	-4.6104	-4.2	-4.8229	-4.4083	-4.2396	-4.7937	-4.2417	-4.6312	357.432	185.546	357.612	342.273	97.144	374.968	56.669	317.742	202.606	116.639	229.504	69.272	375.875	41.451	167.644	324.713	0.00044336	0.00037749	0.00014664	639.32	5.7166e-06	5.3041e-06	805.42	235.08	3.3315e-06	3.5117e-06	314.64	114.28	87.065	41.325	4.0572e-06	63.032	0.00069192	0.00088821	0.00023954	637.1	9.5217e-06	9.9237e-06	798.52	234.73	8.5665e-06	1.2268e-05	313.73	115.02	87.642	41.921	1.0597e-05	63.573	211.366	114.981	123.104	54.300	224.761	180.595	53.544	58.932	216.227	210.159	56.943	61.212	63.570	67.829	202.930	65.019	-8191	255	
26769.297	1	1	0	0	0.15514	0.19237	0.071356	0.28667	0.28487	0.053318	0.1382	0.23474	0.10173	0.13074	0.28122	0.043646	0.14631	0.11766	0.061812	0.10797	-4.3125	-4.1479	-4.7979	-4.5062	-4.3125	-4.8083	-4.2271	-4.5021	-4.7188	-4.1542	-4.7021	-4.55	-4.3688	-4.8958	-4.2208	-4.6937	159.999	147.191	302.301	315.365	330.813	311.341	382.784	342.896	293.665	379.152	364.299	194.141	150.166	258.480	352.548	356.201	0.0004335	0.00013577	0.00017557	637.13	2.1646e-06	4.1625e-06	801.49	233.54	3.4863e-06	4.5546e-06	313.48	113.73	85.974	41.073	4.8822e-06	62.773	0.00070104	0.00085577	0.00023796	635.23	1.0396e-05	9.5546e-06	796.54	233.93	8.5076e-06	1.1268e-05	312.28	114.4	87.042	41.836	1.0385e-05	63.302	209.262	164.305	135.700	54.455	186.487	195.545	53.653	58.816	219.092	203.359	56.692	61.227	63.539	67.652	223.337	65.020	-8191	255	
26769.418	1	1	0	0	0.087818	0.11369	0.13104	0.22531	0.1218	0.028302	0.24463	0.08843	0.12243	0.08843	0.2672	0.13504	0.065072	0.062501	0.08289	0.20933	-4.325	-4.2917	-4.6417	-4.7083	-4.1333	-4.8083	-4.5333	-4.475	-4.8208	-4.1417	-4.6667	-4.6854	-4.0104	-4.8604	-4.325	-4.3021	333.766	252.181	95.194	149.734	275.684	164.720	43.200	362.414	155.715	59.198	120.586	46.520	324.801	223.334	263.757	323.986	0.00043095	0.00047456	0.00011104	638.78	4.017e-06	3.8937e-06	802.02	232.41	5.9278e-06	2.6068e-06	310.96	113.42	85.958	41.358	4.0374e-06	62.624	0.00069136	0.00089425	0.00024988	635.09	9.7469e-06	9.0581e-06	795.14	233.41	8.5712e-06	1.127e-05	311.01	114.17	87.073	41.806	9.5736e-06	63.252	210.446	130.097	131.629	54.599	225.296	184.364	53.593	59.061	224.729	196.037	56.874	61.496	63.300	67.830	230.899	65.161	-8191	255	
26769.514	1	1	0	0	0.093578	0.078787	0.11172	0.26471	0.0906	0.16768	0.10152	0.060907	0.073893	0.14729	0.20538	0.11105	0.11115	0.047754	0.17079	0.13162	-4.4229	-4.2667	-4.5	-4.7958	-4.0333	-4.7063	-4.4271	-4.4292	-4.7646	-4.2625	-4.4979	-4.6667	-4.1667	-4.6646	-4.4563	-4.4187	130.408	212.784	314.187	85.624	253.105	283.215	252.917	168.215	107.433	117.194	393.715	62.563	48.200	387.028	307.872	373.423	0.00044517	0.00053966	0.00010944	637.1	2.8047e-06	4.5536e-06	801.17	232.75	3.6647e-06	5.291e-06	312.09	113.03	85.983	41.224	4.4967e-06	62.909	0.00067862	0.00092308	0.00023796	635.2	9.5996e-06	9.5138e-06	794.81	232.82	7.9866e-06	1.162e-05	310.44	114.18	86.587	41.796	9.3934e-06	63.376	209.088	146.474	118.896	54.537	201.195	189.730	53.525	59.120	227.072	179.313	56.573	61.612	62.928	67.747	221.393	65.187	-8191	255	
26769.607	1	1	0	0	0.17482	0.268	0.10429	0.13351	0.1094	0.10425	0.053151	0.34916	0.13793	0.11468	0.17881	0.067221	0.17872	0.26962	0.074052	0.17332	-4.3354	-4.1667	-4.3	-4.6917	-4.1438	-4.5938	-4.7458	-4.3667	-4.6562	-4.2729	-4.3917	-4.8375	-4.0542	-4.6271	-4.6417	-4.2396	118.077	227.369	65.545	216.823	398.383	111.937	353.592	332.645	154.262	340.018	59.385	251.007	121.514	363.680	240.636	270.070	0.00040216	0.00049398	0.00012491	637.42	4.1533e-06	4.601e-06	800.88	232.03	2.3825e-06	3.9758e-06	312.6	113.45	85.993	41.03	3.5864e-06	62.789	0.00066649	0.00084559	0.00025719	633.59	9.1679e-06	9.8003e-06	794.59	232.49	8.1355e-06	1.103e-05	311.71	114.22	86.912	41.686	9.601e-06	63.355	206.671	120.892	127.725	54.395	237.461	217.813	53.662	58.963	214.838	186.236	56.644	61.759	63.115	67.472	201.452	65.127	-8191	255	
26769.705	1	1	0	0	0.039992	0.18609	0.050122	0.015213	0.22304	0.13352	0.112	0.083878	0.21623	0.35433	0.27626	0.30558	0.22163	0.15152	0.049523	0.17711	-4.4854	-4.3021	-4.3042	-4.7771	-4.1354	-4.5542	-4.5521	-4.1542	-4.8187	-4.3729	-4.3646	-4.7875	-4.1521	-4.6562	-4.6583	-4.1229	384.551	262.387	64.730	244.136	54.126	345.660	392.587	323.485	324.736	82.931	386.602	47.229	87.751	380.886	272.147	308.545	0.0004362	0.00050276	0.00012534	639.13	3.9473e-06	4.7207e-06	803.91	232.85	3.384e-06	3.2989e-06	312.26	113.47	86.007	41.111	4.3443e-06	62.92	0.00066098	0.00092403	0.00025105	633.7	9.358e-06	1.0214e-05	795.66	233.17	8.1409e-06	9.8983e-06	311.88	114.25	86.667	41.619	9.5307e-06	63.292	208.368	133.757	135.694	54.322	215.473	194.468	53.428	59.069	216.336	193.785	56.868	61.536	63.297	67.848	213.670	65.055	-8191	255	
26769.824	1	1	0	0	0.1766	0.056093	0.19445	0.13522	0.1426	0.18839	0.17392	0.09007	0.15625	0.25116	0.1735	0.11228	0.29471	0.14582	0.16929	0.29175	-4.3646	-4.4313	-3.9938	-4.7771	-4.0604	-4.3021	-4.7729	-4.1771	-4.6292	-4.6542	-4.1792	-4.9146	-4.3583	-4.4563	-4.7812	-4.2042	373.268	368.673	142.546	359.965	68.902	58.090	323.581	91.935	397.905	390.016	45.650	109.171	111.060	43.240	221.553	353.530	0.00042104	0.00040473	0.00013454	637.19	4.2685e-06	4.5813e-06	800.4	233.48	3.2191e-06	3.9863e-06	311.22	113.48	86.343	40.989	4.0717e-06	62.464	0.0006458	0.00089978	0.00025394	633.64	9.6487e-06	1.0113e-05	795.75	232.96	8.4146e-06	1.0214e-05	311.65	114.31	86.806	41.575	9.0992e-06	63.196	209.279	125.809	136.811	54.431	242.911	180.205	53.654	58.841	213.008	181.415	56.519	61.770	63.483	67.877	205.572	64.901	-8191	255	
26769.898	1	1	0	0	0.18238	0.054409	0.11325	0.19129	0.084002	0.17391	0.27087	0.22202	0.096369	0.14748	0.043705	0.24249	0.063116	0.095428	0.030464	0.070638	-4.2875	-4.3375	-4.1813	-4.8521	-4.2333	-4.4563	-4.7958	-4.1937	-4.5792	-4.6167	-4.2312	-4.8167	-4.2438	-4.3812	-4.8688	-4.3979	228.712	121.309	369.578	63.795	357.521	279.033	350.621	358.512	316.822	247.495	188.796	78.085	267.499	353.574	262.433	270.623	0.00042904	0.00020016	9.9296e-05	635.69	4.728e-06	4.7455e-06	797.73	232.92	3.0535e-06	5.8693e-06	312.5	113.52	86.223	41.25	2.8752e-06	62.854	0.00069081	0.00087769	0.00024471	632.67	9.0502e-06	1.0236e-05	793.36	233.22	8.4789e-06	9.8588e-06	311.63	114.31	86.688	41.769	9.1919e-06	63.295	205.896	115.472	159.915	54.490	199.468	179.027	53.383	59.025	213.273	193.821	56.527	61.468	63.481	67.896	209.709	65.016	-8191	255	
26770.018	1	1	0	0	0.019686	0.21962	0.20468	0.11044	0.15082	0.054059	0.23503	0.19176	0.1602	0.19985	0.031633	0.11967	0.22174	0.069605	0.18469	0.15722	-4.3479	-4.7792	-4.2917	-4.7833	-4.3146	-4.3604	-4.9333	-4.3729	-4.4583	-4.6375	-4.1521	-4.7792	-4.4479	-4.2979	-4.6729	-4.3625	366.783	138.443	122.726	376.347	313.779	161.907	361.509	326.875	387.190	356.001	349.519	324.889	309.650	116.276	276.138	64.428	0.00045771	0.00041701	0.00011073	639.21	3.8793e-06	5.8196e-06	801.61	233.45	3.519e-06	5.3938e-06	312.73	114.02	86.64	41.14	6.0238e-06	62.633	0.00069684	0.00088657	0.0002416	634.16	8.4541e-06	1.1034e-05	795.64	233.63	8.7014e-06	9.4099e-06	312.49	114.56	87.147	41.74	8.8796e-06	63.398	208.508	117.221	156.046	54.312	225.543	175.997	53.602	58.944	229.524	188.547	56.665	61.272	63.686	67.525	196.309	65.118	-8191	255	
26770.113	1	1	0	0	0.044081	0.19519	0.16848	0.39681	0.33291	0.057196	0.17066	0.10221	0.12869	0.21575	0.11902	0.089848	0.011033	0.23274	0.082056	0.34515	-4.0083	-4.5771	-4.1521	-4.6229	-4.5813	-4.0125	-4.8271	-4.475	-4.425	-4.6708	-4.1854	-4.6792	-4.625	-4.1917	-4.6021	-4.325	184.333	230.903	301.910	331.829	130.864	140.971	315.271	311.789	382.206	347.353	100.600	174.553	332.566	366.110	290.007	310.969	0.00042582	0.00057194	0.00014031	635.59	4.7079e-06	4.2315e-06	801.75	234.98	4.7384e-06	6.4106e-06	314.09	113.5	85.884	41.178	3.5474e-06	62.991	0.00067422	0.00086371	0.00024325	633.25	8.3201e-06	1.1777e-05	795.82	234.91	8.9123e-06	9.7414e-06	313.76	114.82	87.08	41.813	8.9971e-06	63.559	208.087	116.744	120.326	54.243	188.533	217.841	53.587	59.145	228.744	192.643	56.729	61.663	63.380	67.772	199.954	65.278	-8191	255	
26770.211	1	1	0	0	0.058152	0.075302	0.24368	0.046935	0.14166	0.13233	0.10637	0.088945	0.16516	0.091212	0.11324	0.30614	0.093667	0.090753	0.10671	0.096085	-3.9938	-4.6625	-4.0167	-4.65	-4.4083	-4.1562	-4.7042	-4.4333	-4.2167	-4.7521	-4.3	-4.5396	-4.4812	-4.1729	-4.7333	-4.4917	149.916	175.142	235.398	386.440	174.441	269.519	344.015	303.324	67.446	397.791	353.265	353.111	339.678	386.303	373.965	116.315	0.00043496	0.00038867	0.00016532	639.25	3.2302e-06	3.1951e-06	803.13	235.57	3.2057e-06	4.7758e-06	316.19	114.51	86.61	41.32	3.4924e-06	63.18	0.00070137	0.00083696	0.00024134	634.23	8.3123e-06	1.0989e-05	798.98	235.43	8.8045e-06	9.7937e-06	315.36	115.38	87.412	41.823	9.0151e-06	63.709	209.763	111.411	123.405	54.272	226.571	186.544	53.905	58.962	228.186	177.337	56.739	61.577	63.339	67.778	216.088	65.181	-8191	255	
26770.307	1	1	0	0	0.1806	0.17887	0.15801	0.075133	0.33143	0.32536	0.12622	0.28648	0.1091	0.10341	0.1218	0.075198	0.045915	0.11536	0.10233	0.057742	-3.9375	-4.8354	-4.2021	-4.5354	-4.5271	-3.9771	-4.9958	-4.4167	-4.2542	-4.8208	-4.3771	-4.5062	-4.6896	-4.3667	-4.6083	-4.5729	265.356	91.914	357.911	303.433	216.942	243.940	396.682	325.074	281.108	143.927	265.832	247.506	236.367	275.908	213.089	341.088	0.00044498	0.00038508	0.00013753	639.58	4.2655e-06	4.6595e-06	801.61	236.26	3.2332e-06	3.9721e-06	314.75	113.79	86.628	41.199	4.266e-06	63.014	0.00074071	0.00082695	0.00024556	635.16	8.1214e-06	1.1585e-05	798.27	235.84	8.4247e-06	9.3497e-06	315.53	114.97	87.482	41.793	9.034e-06	63.464	209.332	111.748	126.002	54.524	245.597	224.059	53.689	59.148	202.217	189.332	56.694	61.462	63.327	67.729	190.420	65.016	-8191	255	
26770.426	1	1	0	0	0.12168	0.11812	0.066838	0.3124	0.1499	0.10341	0.065107	0.13395	0.12796	0.16132	0.15501	0.19044	0.10255	0.13093	0.056067	0.32355	-3.8229	-4.8292	-4.3021	-4.3875	-4.6687	-4.1687	-4.6125	-4.6958	-4.1375	-4.825	-4.3729	-4.3208	-4.6458	-4.2562	-4.3083	-4.6792	85.619	321.495	81.882	42.372	351.329	66.082	387.242	374.999	165.315	319.416	399.452	282.216	261.863	335.394	242.180	277.416	0.00042873	0.00037814	9.8577e-05	635.03	3.5389e-06	4.432e-06	804.24	234.67	3.5477e-06	4.0509e-06	316.17	113.91	86.32	41.465	4.7181e-06	62.892	0.00073784	0.00084067	0.00025375	633.95	8.2149e-06	1.1425e-05	797.35	235.63	8.6526e-06	9.1495e-06	314.71	114.75	87.254	41.863	9.5582e-06	63.369	208.789	129.942	133.305	54.336	195.414	214.688	53.531	58.871	222.993	215.718	56.741	61.582	63.172	67.804	209.505	65.117	-8191	255	
26770.498	1	1	0	0	0.15462	0.026753	0.14119	0.050517	0.18602	0.10322	0.16127	0.22329	0.11408	0.29551	0.080669	0.105	0.037749	0.037608	0.039516	0.10548	-3.6667	-4.8208	-4.4333	-4.4396	-4.6813	-4.2292	-4.65	-4.7937	-4.0854	-4.7	-4.5708	-4.3146	-4.8479	-4.3729	-4.425	-4.7646	200.559	60.885	71.992	286.846	256.288	350.464	327.083	333.682	273.180	224.855	257.737	386.584	249.439	280.485	298.196	387.961	0.00043985	0.00056481	0.00014099	635.09	3.8701e-06	2.7249e-06	801.53	234.79	3.4761e-06	3.8166e-06	314.45	112.86	86.276	41.244	4.4748e-06	62.63	0.00074087	0.00085361	0.00025088	633.57	8.0575e-06	1.1815e-05	797.29	235.22	8.5239e-06	9.5865e-06	313.41	114.34	87.319	41.828	9.5358e-06	63.266	206.245	137.170	121.522	54.461	196.189	204.727	53.441	59.109	229.017	180.307	56.658	61.507	63.638	67.701	212.052	65.118	-8191	255	
26770.594	1	1	0	0	0.29864	0.17493	0.10119	0.056593	0.013646	0.035299	0.20382	0.23094	0.11398	0.14932	0.024222	0.085448	0.24564	0.34797	0.22299	0.058954	-3.8167	-4.5	-4.4458	-4.2458	-4.7458	-4.3042	-4.5521	-4.7688	-4.0167	-4.6937	-4.4917	-4.225	-4.7729	-4.3542	-4.2333	-4.7833	268.413	69.820	132.591	389.336	278.938	250.100	283.705	61.569	372.922	65.698	375.173	152.290	339.925	327.694	276.519	320.417	0.00044341	0.00031566	0.00015252	638.32	4.8012e-06	4.1461e-06	803.8	233.5	3.8506e-06	3.9201e-06	314.21	113.45	86.42	41.102	5.4929e-06	62.616	0.00072979	0.00088191	0.00025491	634.37	8.0793e-06	1.1408e-05	797.37	234.48	8.7433e-06	1.0188e-05	313.8	114.48	87.116	41.622	9.764e-06	63.139	210.728	133.119	136.467	54.183	211.693	196.483	53.502	58.990	219.230	184.717	56.900	61.345	63.143	67.840	192.852	64.940	-8191	255	
26770.715	1	1	0	0	0.12596	0.1314	0.052837	0.14645	0.14107	0.24342	0.090691	0.024471	0.18266	0.15136	0.12876	0.091285	0.17382	0.028462	0.023981	0.086292	-3.8542	-4.4625	-4.3375	-4.3187	-4.8708	-4.2333	-4.3167	-4.7146	-3.9125	-4.5625	-4.7333	-4.2312	-4.7375	-4.5542	-4.1312	-4.8812	291.813	121.677	262.452	148.405	103.665	51.757	286.311	298.033	49.592	385.868	345.754	362.525	303.666	356.998	389.348	247.833	0.00042125	0.00044654	0.00013937	639.74	3.7434e-06	3.7303e-06	806.26	235.04	2.9793e-06	6.0415e-06	315.34	113.19	86.195	41.009	4.0999e-06	62.413	0.00072458	0.00089572	0.00024996	634.13	7.9733e-06	1.1166e-05	799.5	234.62	8.5913e-06	9.6506e-06	314.97	114.31	86.762	41.537	9.4544e-06	63.146	209.175	134.767	108.646	54.319	188.236	182.234	53.648	58.581	235.483	182.631	56.835	61.417	63.199	67.880	203.772	65.204	-8191	255	
26770.809	1	1	0	0	0.26505	0.2371	0.097548	0.26917	0.15882	0.12068	0.29207	0.10565	0.10651	0.085672	0.079269	0.4067	0.10598	0.050489	0.20225	0.14069	-3.8333	-4.5437	-4.6542	-4.2	-4.7167	-4.4354	-4.2375	-4.6229	-4.3458	-4.2979	-4.7167	-4.1	-4.5854	-4.5292	-4.1479	-4.9271	394.349	347.759	268.241	80.115	311.215	351.080	270.392	318.008	176.913	371.903	148.565	330.997	336.159	369.443	69.199	183.916	0.00042314	0.00027931	0.00014969	634.24	4.4461e-06	5.1314e-06	803.98	232.92	3.295e-06	4.7006e-06	312.93	113.52	85.992	41.056	4.871e-06	62.466	0.00073634	0.00089883	0.00023483	632.98	8.4572e-06	1.0054e-05	797.22	233.2	8.6603e-06	9.8085e-06	311.96	114.29	86.654	41.577	8.9328e-06	62.877	208.830	131.841	134.943	54.326	231.871	219.702	53.643	58.717	217.463	185.608	56.688	61.564	63.317	67.509	205.770	65.094	-8191	255	
26770.904	1	1	0	0	0.14488	0.1748	0.086975	0.21747	0.06221	0.19525	0.17171	0.17818	0.08572	0.093065	0.15527	0.17695	0.048396	0.13254	0.18027	0.13699	-3.7021	-4.175	-4.7312	-4.2271	-4.5354	-4.4	-4.2083	-4.6937	-4.3021	-4.1958	-4.65	-4.1813	-4.4667	-4.6438	-4.0583	-4.7625	84.461	232.848	300.581	343.097	162.606	157.003	60.069	337.940	295.590	71.711	144.369	345.271	270.037	190.510	104.944	306.644	0.00042705	0.00047198	9.6639e-05	637.68	4.3082e-06	4.4119e-06	803.73	232	2.5136e-06	3.129e-06	313	113.71	85.827	41.096	4.2483e-06	62.273	0.00071558	0.00089149	0.00022594	633.8	8.0169e-06	9.7705e-06	796.39	233.24	8.7301e-06	9.9811e-06	312.72	114.18	86.719	41.557	9.0503e-06	62.913	212.921	120.709	124.301	54.325	205.281	188.800	53.539	58.994	240.536	193.759	56.484	61.319	63.150	67.967	211.967	65.174	-8191	255	
26771.002	1	1	0	0	0.089536	0.17183	0.21601	0.097931	0.08656	0.15801	0.086313	0.17327	0.094064	0.0075231	0.046431	0.058614	0.23951	0.060525	0.20059	0.12171	-4.0229	-4.2812	-4.7625	-4.2312	-4.525	-4.5271	-4.2771	-4.6979	-4.2604	-4.3187	-4.7125	-4.2875	-4.475	-4.5583	-4.0437	-4.8083	394.994	90.783	400.986	102.985	181.795	393.673	400.833	310.673	248.865	235.932	354.379	293.280	331.792	85.889	314.847	311.300	0.00042222	0.00065654	0.00010163	636.27	4.6717e-06	5.3078e-06	803.08	234.49	3.2639e-06	5.4431e-06	312.84	112.6	86.059	40.977	5.9816e-06	62.529	0.00071786	0.00093145	0.00023043	632.67	8.3255e-06	9.9346e-06	797.63	234.31	8.7394e-06	1.0308e-05	313.03	114.03	86.812	41.574	9.203e-06	63.013	208.884	132.442	138.055	54.180	226.517	172.925	53.863	59.038	215.601	168.765	56.709	61.515	63.381	67.595	215.059	64.935	-8191	255	
26771.119	1	1	0	0	0.17897	0.23887	0.1104	0.19116	0.19764	0.085404	0.13741	0.26569	0.20111	0.062211	0.1614	0.25872	0.12367	0.072191	0.16198	0.12442	-4.0667	-4.2354	-4.7292	-4.2646	-4.3438	-4.8604	-4.2208	-4.625	-4.4875	-4.1312	-4.7146	-4.2812	-4.5083	-4.6479	-4.1292	-4.7688	353.299	362.172	154.248	398.714	297.339	162.616	268.248	351.941	185.481	112.892	254.800	383.205	307.931	222.696	258.497	365.300	0.00043421	0.00056399	0.00010734	635.32	4.5952e-06	4.847e-06	802.74	235.07	2.6186e-06	4.5996e-06	315.47	113.66	86.408	41.085	5.1793e-06	62.708	0.00068031	0.0010382	0.00023458	633.15	8.4884e-06	9.6839e-06	797.74	235.28	8.4905e-06	9.3853e-06	314.79	114.71	87.064	41.635	9.4501e-06	63.227	210.892	145.891	126.722	54.374	215.178	192.172	53.527	58.914	209.682	193.373	56.573	61.239	63.136	67.618	213.972	65.221	-8191	255	
26771.191	1	1	0	0	0.21108	0.27047	0.21318	0.18197	0.10701	0.093903	0.094604	0.19557	0.12708	0.22525	0.12173	0.14416	0.1878	0.30789	0.17483	0.12858	-4.3	-3.9604	-4.725	-4.3688	-4.3146	-4.7188	-4.1562	-4.6042	-4.5521	-4.1167	-4.7396	-4.4521	-4.2438	-4.7625	-4.2812	-4.6708	63.241	113.100	63.646	394.393	76.353	366.096	370.330	360.172	347.157	282.972	250.749	222.767	273.038	400.285	256.554	375.458	0.00045124	0.00068084	0.00012957	637.26	3.4536e-06	5.2697e-06	804.75	235.66	2.5944e-06	5.2014e-06	317.94	114.07	86.35	40.958	3.7513e-06	62.843	0.00067177	0.0010146	0.00023752	633.75	8.3863e-06	9.2222e-06	798.22	236.17	8.4758e-06	9.7404e-06	316.97	114.89	87.325	41.633	9.5487e-06	63.348	209.401	111.425	136.540	54.664	196.680	181.113	53.663	58.842	218.616	201.381	56.748	61.396	63.331	67.679	213.859	65.051	-8191	255	
26771.287	1	1	0	0	0.22512	0.049421	0.041116	0.35688	0.06803	0.10517	0.2643	0.015433	0.19811	0.08277	0.23209	0.15926	0.27493	0.13736	0.16285	0.055595	-4.1771	-3.9917	-4.7604	-4.45	-4.2	-4.6208	-4.2292	-4.5938	-4.6667	-4.1146	-4.8104	-4.4229	-4.1292	-4.7083	-4.2396	-4.5917	171.075	339.285	361.211	386.355	80.593	166.865	269.684	87.178	56.351	385.164	355.078	129.344	392.578	245.143	152.246	293.629	0.00043208	0.00044465	0.00013057	637.68	4.5623e-06	5.3785e-06	804.2	235.82	3.4243e-06	4.8313e-06	316.53	114.48	86.683	41.143	4.3982e-06	62.521	0.00067881	0.0010016	0.00024886	635.07	8.2679e-06	9.0103e-06	799.03	236.35	8.6828e-06	9.5915e-06	316.68	115	87.458	41.679	9.7821e-06	63.148	208.112	122.679	135.455	54.255	206.575	196.874	53.524	58.737	210.863	215.697	56.771	61.433	63.054	67.564	217.297	65.092	-8191	255	
26771.385	1	1	0	0	0.062912	0.11521	0.13854	0.060659	0.16019	0.041069	0.14093	0.19328	0.22635	0.075443	0.071914	0.11048	0.28676	0.13089	0.030174	0.025822	-4.2854	-4.1833	-4.6271	-4.5083	-4.1167	-4.8	-4.3583	-4.4021	-4.7188	-4.2	-4.6	-4.5917	-4.0917	-4.7396	-4.475	-4.3375	276.044	364.639	75.148	302.371	68.467	349.634	176.714	369.833	209.930	52.184	207.162	171.982	332.527	357.572	132.077	358.666	0.00043977	0.00054223	0.00013005	635.56	2.7624e-06	5.3155e-06	804.18	235.26	3.8752e-06	5.6586e-06	316.99	113.69	86.189	41.053	3.4023e-06	62.65	0.00066349	0.0010791	0.00024114	633.53	8.2195e-06	9.8371e-06	798.4	235.5	8.3967e-06	9.6802e-06	316.05	114.72	87.261	41.703	9.5753e-06	63.065	211.870	138.405	117.981	54.281	204.491	187.168	53.776	59.155	205.449	187.529	56.687	61.041	63.405	67.701	195.029	64.949	-8191	255	
26771.506	1	1	0	0	0.143	0.15381	0.072385	0.11268	0.16588	0.051453	0.10066	0.034294	0.19981	0.040459	0.059538	0.11972	0.086849	0.091458	0.10252	0.17386	-4.4333	-4.1042	-4.4083	-4.6667	-4.1312	-4.6854	-4.5708	-4.3896	-4.4875	-4.0938	-4.5646	-4.7354	-4.2021	-4.7292	-4.3167	-4.3063	227.233	225.294	130.531	281.554	363.606	391.608	324.123	340.839	360.565	133.241	188.252	168.016	116.536	323.587	93.090	214.881	0.00043302	0.00035603	9.405e-05	638.13	4.6573e-06	4.2043e-06	803.45	235.68	3.4562e-06	4.7951e-06	314.99	114.02	86.094	41.224	3.9478e-06	62.959	0.00066672	0.0010364	0.00024311	634.31	8.0956e-06	9.7287e-06	798.63	236.05	8.1029e-06	1.0263e-05	315.05	114.79	87.272	41.779	9.324e-06	63.374	207.587	113.011	133.204	54.444	213.201	180.470	53.631	59.096	218.536	210.990	56.533	61.244	63.304	67.828	229.047	65.164	-8191	255	
26771.602	1	1	0	0	0.2338	0.12235	0.072995	0.18427	0.102	0.2431	0.34159	0.20957	0.10924	0.097325	0.14964	0.031339	0.16344	0.064548	0.087626	0.17371	-4.4187	-4.0875	-4.3375	-4.7625	-4.2375	-4.8083	-4.4917	-4.3771	-4.7438	-4.0813	-4.6	-4.7833	-4.2375	-4.7063	-4.4042	-4.2229	377.948	245.062	234.954	265.105	144.035	269.858	263.202	338.553	153.849	54.718	383.368	234.080	280.499	224.177	155.114	353.107	0.00042509	0.00047263	0.00014485	635.88	4.3495e-06	6.41e-06	804.31	236.84	2.5962e-06	4.0491e-06	318.28	113.91	86.718	41.325	3.7942e-06	62.896	0.00065655	0.0010586	0.00026361	634.15	8.4331e-06	9.7725e-06	798.99	237.16	8.6045e-06	1.0391e-05	316.47	114.9	87.491	41.828	9.2965e-06	63.516	211.163	154.754	152.725	54.635	233.879	211.997	53.578	58.949	230.963	199.701	56.721	61.439	63.259	67.679	200.034	65.020	-8191	255	
26771.697	1	1	0	0	0.12687	0.13787	0.25146	0.070433	0.1246	0.13173	0.19876	0.31469	0.20472	0.19311	0.0023237	0.098162	0.17461	0.094208	0.060438	0.1749	-4.2812	-4.2667	-4.2333	-4.6646	-4.0938	-4.4167	-4.5312	-4.1104	-4.7521	-4.4021	-4.5229	-4.7479	-4.2292	-4.6792	-4.4917	-4.2646	274.490	86.551	41.030	335.687	374.491	171.511	349.724	45.071	104.398	62.626	383.664	324.447	378.707	78.878	293.864	330.592	0.00043514	0.00057799	0.00013662	638.79	4.6686e-06	4.118e-06	807.2	238.41	3.8257e-06	5.2748e-06	320.52	114.98	86.9	41.37	6.3231e-06	62.958	0.00068214	0.00099634	0.00025234	635.27	8.6435e-06	9.9267e-06	800.57	238.39	8.3952e-06	9.8105e-06	319.37	115.58	87.82	41.874	9.3626e-06	63.515	208.180	105.288	129.145	54.348	201.403	197.080	53.815	59.007	229.269	217.400	56.526	61.583	62.970	67.758	202.063	65.066	-8191	255	
26771.793	1	1	0	0	0.072023	0.15255	0.083548	0.13161	0.050196	0.026067	0.18203	0.20205	0.077172	0.033187	0.22356	0.034833	0.11054	0.1357	0.16578	0.12305	-4.3375	-4.3667	-4.1604	-4.8688	-4.1833	-4.625	-4.6104	-4.1771	-4.6188	-4.4	-4.425	-4.875	-4.2312	-4.4771	-4.3333	-4.2354	245.284	238.798	115.044	58.219	329.049	111.289	342.173	351.347	63.762	315.784	397.044	300.079	306.953	295.397	319.218	144.484	0.00044073	0.00046121	0.0001032	636.61	5.8188e-06	3.5954e-06	805.1	238.44	3.5905e-06	3.8682e-06	319.03	114.53	86.318	41.326	3.6442e-06	62.761	0.00069586	0.00096234	0.0002628	634.88	8.9139e-06	9.9197e-06	801.81	238.64	8.613e-06	9.8322e-06	319.16	115.39	87.562	41.717	9.2236e-06	63.242	209.349	133.820	138.433	54.646	191.259	181.510	53.634	59.012	220.219	178.229	56.814	61.307	63.294	67.912	169.896	64.969	-8191	255	
26771.891	1	1	0	0	0.10154	0.067103	0.15211	0.099874	0.1636	0.094339	0.13087	0.12776	0.11624	0.10298	0.31255	0.13882	0.067271	0.099003	0.093978	0.10275	-4.2375	-4.4187	-4.0938	-4.8708	-4.2875	-4.375	-4.8333	-4.1354	-4.3771	-4.3917	-4.1937	-4.7708	-4.3708	-4.3208	-4.7812	-4.2438	284.336	142.075	174.997	214.876	100.671	269.798	368.868	332.364	290.739	100.160	317.259	47.147	86.046	350.519	106.996	331.560	0.00043089	0.00041429	0.00011608	637.72	2.1954e-06	2.5173e-06	802.01	235.65	3.7753e-06	4.52e-06	317.32	113.13	86.027	40.954	4.1314e-06	62.321	0.00067272	0.00088295	0.00027891	634.99	8.9404e-06	1.0558e-05	797.54	236.89	8.8402e-06	9.7868e-06	316.18	114.47	87.007	41.487	9.149e-06	62.893	211.211	123.447	136.148	54.533	174.090	181.900	53.197	58.979	221.343	182.452	56.621	61.361	63.324	67.616	205.401	65.067	-8191	255	
26771.986	1	1	0	0	0.12626	0.15018	0.15617	0.16297	0.064218	0.025545	0.20931	0.10242	0.30748	0.25998	0.19829	0.069018	0.08193	0.14077	0.3048	0.29732	-4.1083	-4.375	-3.9458	-4.7104	-4.1604	-4.1312	-4.8917	-4.2292	-4.3917	-4.5708	-4.1312	-4.6333	-4.3104	-4.3313	-4.8063	-4.2458	234.680	384.045	366.535	58.281	90.523	107.008	329.036	330.067	264.176	118.540	61.275	392.559	117.263	308.788	184.205	399.220	0.0004553	0.00043013	0.00012146	634.44	3.6821e-06	3.8392e-06	801	235.28	3.9634e-06	5.0995e-06	314.47	113.93	86.354	41.199	4.9953e-06	62.417	0.00069322	0.00087121	0.0003046	633.86	8.2523e-06	9.6053e-06	796.32	235.35	8.4797e-06	9.6161e-06	314.69	114.54	87.28	41.67	9.1979e-06	62.944	206.921	132.323	150.038	54.341	220.438	199.483	53.677	58.809	221.992	197.090	56.856	61.531	63.711	67.624	199.603	65.063	-8191	255	
26772.105	1	1	0	0	0.048446	0.24035	0.11563	0.13182	0.028909	0.092632	0.16678	0.21921	0.12841	0.093703	0.20857	0.19609	0.13162	0.085545	0.13205	0.083556	-4.1	-4.5396	-3.9104	-4.8125	-4.4708	-4.0729	-4.7625	-4.3042	-4.4521	-4.5479	-4.2292	-4.8125	-4.55	-4.3479	-4.6042	-4.3688	182.332	188.443	248.490	47.794	304.301	296.000	288.208	59.065	103.339	223.291	336.812	338.408	309.086	347.840	70.009	112.007	0.00042625	0.00063504	0.00013057	637.22	3.7072e-06	2.8161e-06	803.41	234.93	3.6269e-06	4.5303e-06	316.9	113.73	86.196	40.958	3.0677e-06	62.3	0.00070072	0.00086543	0.00028085	633.98	8.5624e-06	9.865e-06	797.02	235.44	8.8138e-06	9.6714e-06	315.67	114.57	87.22	41.614	9.0211e-06	62.874	206.525	118.152	119.529	54.352	197.651	187.523	53.453	58.949	223.371	192.288	56.894	61.470	63.332	67.674	206.060	65.001	-8191	255	
26772.201	1	1	0	0	0.013378	0.061103	0.17789	0.12664	0.1688	0.078788	0.097287	0.12034	0.19981	0.27717	0.16447	0.17748	0.19623	0.21383	0.15795	0.13043	-4.075	-4.6188	-4.1292	-4.65	-4.4729	-4.0375	-4.8208	-4.3854	-4.2375	-4.7083	-4.2417	-4.6458	-4.6208	-4.0062	-4.7729	-4.45	300.764	74.861	334.235	399.737	383.152	157.505	363.346	398.022	303.677	104.284	207.790	381.228	361.518	215.866	57.835	77.201	0.00042828	0.00056092	0.00019529	637.64	2.3054e-06	5.3372e-06	799.54	235.75	2.9462e-06	5.1335e-06	318.12	114.53	86.396	41.03	6.9667e-06	62.137	0.00068286	0.00086768	0.00030062	634.63	8.3879e-06	9.8093e-06	797.16	236.19	8.5402e-06	9.8233e-06	317.53	115.09	87.294	41.553	9.6259e-06	62.954	207.596	140.147	126.563	54.335	242.526	194.059	53.643	59.250	217.539	172.042	56.733	61.743	63.394	68.045	199.371	64.965	-8191	255	
26772.297	1	1	0	0	0.24831	0.071018	0.044387	0.18383	0.18591	0.026319	0.17674	0.055371	0.15055	0.091043	0.14813	0.27144	0.0772	0.10847	0.054375	0.17054	-4.0188	-4.7021	-4.0042	-4.6188	-4.3958	-4.0312	-4.7833	-4.55	-4.2229	-4.7292	-4.3146	-4.3521	-4.6667	-4.1375	-4.4604	-4.6062	245.427	341.288	148.107	360.188	113.648	352.418	50.240	55.342	72.960	181.746	296.147	53.147	340.969	91.015	318.797	389.500	0.00042816	0.00032932	0.00013152	635.43	3.7156e-06	4.6072e-06	805.86	236.79	2.4509e-06	4.0896e-06	319.03	114.29	86.726	40.899	4.8212e-06	62.547	0.00068243	0.00090047	0.00029739	633.5	7.7091e-06	1.014e-05	799.95	236.35	9.6278e-06	9.6506e-06	317.58	115.04	87.235	41.509	9.4818e-06	63.04	209.637	111.298	149.359	54.476	220.632	188.398	53.388	58.888	215.522	210.382	56.556	61.599	63.098	67.537	197.958	65.135	-8191	255	
26772.369	1	1	0	0	0.07267	0.19969	0.20684	0.33196	0.066233	0.30821	0.27612	0.18576	0.1135	0.090682	0.1718	0.080998	0.11093	0.24058	0.079754	0.23074	-3.8792	-4.6729	-4.2063	-4.5917	-4.6687	-4.0771	-4.8125	-4.5104	-4.05	-4.6958	-4.3125	-4.4458	-4.7812	-4.3208	-4.5667	-4.4708	165.539	100.709	60.128	319.676	263.400	139.645	288.632	66.379	339.739	118.543	360.417	280.782	337.430	350.712	246.798	119.941	0.00041276	0.00049143	0.00011191	636.05	3.5555e-06	3.284e-06	801.05	234.51	1.9989e-06	6.0177e-06	315.4	114.15	85.888	40.857	5.1561e-06	62.373	0.00067259	0.0008833	0.00030237	633.69	7.8775e-06	1.0223e-05	796.84	235.39	9.717e-06	1.0159e-05	315.54	114.74	86.97	41.448	9.6173e-06	62.795	210.661	163.200	133.319	54.371	215.143	208.071	53.631	59.030	217.742	218.141	56.783	61.793	63.805	67.710	191.139	65.198	-8191	255	
26772.488	1	1	0	0	0.20873	0.24842	0.091293	0.12249	0.21623	0.19329	0.025801	0.26824	0.098321	0.058539	0.023837	0.32935	0.13505	0.25897	0.15664	0.080505	-3.8229	-4.5917	-4.2792	-4.4021	-4.6687	-3.9875	-4.4917	-4.8187	-4.0458	-4.6458	-4.3292	-4.2479	-4.7688	-4.2125	-4.5083	-4.7167	57.031	171.934	235.188	372.928	263.814	316.080	326.226	331.798	122.520	46.004	386.306	391.279	319.096	41.547	64.109	380.767	0.0004084	0.00041518	0.00013888	633.44	4.5395e-06	3.9895e-06	801.29	235.45	3.0888e-06	4.3692e-06	313.77	114.47	86.554	40.893	3.8052e-06	62.066	0.00069381	0.00092886	0.00028325	632.25	7.9881e-06	1.0266e-05	795.72	235.27	1.012e-05	9.7365e-06	314.25	114.74	87.152	41.533	9.5427e-06	62.823	207.339	110.624	128.226	54.276	202.841	195.282	53.497	59.146	230.591	189.860	57.149	61.350	63.245	67.789	227.101	65.094	-8191	255	
26772.586	1	1	0	0	0.25529	0.081281	0.18716	0.21827	0.080804	0.2003	0.29164	0.22635	0.089367	0.16311	0.31571	0.18107	0.22318	0.31601	0.13137	0.21093	-3.7021	-4.6521	-4.2917	-4.2208	-4.725	-4.2625	-4.5896	-4.7979	-4.1312	-4.6687	-4.5292	-4.2292	-4.6396	-4.2688	-4.4042	-4.7917	316.497	357.154	258.765	348.944	367.960	162.211	355.310	73.089	158.824	400.785	271.071	323.230	58.150	72.462	132.796	390.259	0.00043695	0.00048619	0.00010252	636.27	3.7338e-06	4.9279e-06	806.31	233.99	3.5824e-06	5.0487e-06	315.78	113.88	86.504	40.953	4.631e-06	62.428	0.00069351	0.00088502	0.00026278	633.18	8.4728e-06	1.0175e-05	798.96	234.87	1.0377e-05	1.0072e-05	315.34	114.72	87.059	41.626	9.1507e-06	63.04	211.535	136.573	133.169	54.687	220.703	200.891	53.292	58.808	196.684	200.473	56.695	61.254	63.192	67.834	213.742	65.125	-8191	255	
26772.682	1	1	0	0	0.095872	0.14546	0.048218	0.17671	0.16062	0.17988	0.1659	0.13494	0.11495	0.16963	0.20701	0.097117	0.096408	0.14823	0.26503	0.022026	-3.7687	-4.4583	-4.4646	-4.3375	-4.6333	-4.5	-4.3833	-4.8167	-4.0271	-4.5958	-4.6667	-4.1	-4.7167	-4.3875	-4.3792	-4.8167	105.674	245.791	267.292	267.689	390.331	157.268	319.064	274.042	71.130	178.191	376.020	310.019	134.250	67.146	259.268	366.655	0.00042662	0.00037235	8.8311e-05	633.87	5.8385e-06	4.6893e-06	803.05	236.11	4.2973e-06	3.3706e-06	317.82	114.76	86.51	41.162	5.5734e-06	62.494	0.00069896	0.00088235	0.00024427	633.03	8.4144e-06	1.0499e-05	798.61	236.12	9.969e-06	9.8657e-06	316.89	115.28	87.454	41.695	9.384e-06	63.123	212.184	123.107	138.275	54.627	225.279	183.082	53.530	59.066	234.253	159.946	56.804	61.245	63.614	67.841	204.894	65.040	-8191	255	
26772.777	1	1	0	0	0.19191	0.18876	0.21538	0.1559	0.085053	0.036857	0.078089	0.23822	0.19472	0.10521	0.096572	0.18932	0.025112	0.26506	0.14965	0.25002	-3.7188	-4.4667	-4.5458	-4.0792	-4.6229	-4.3417	-4.4042	-4.8292	-4.2458	-4.4917	-4.7063	-4.1354	-4.6604	-4.4938	-4.0708	-4.7729	187.962	392.755	359.453	193.455	66.671	124.631	287.536	332.816	87.084	134.831	398.682	89.648	164.333	370.870	121.739	334.653	0.0004318	0.00055467	0.00011948	635.69	4.6431e-06	3.6119e-06	805.07	236.25	3.3038e-06	3.7114e-06	320.37	115	86.77	41.064	4.0835e-06	62.779	0.00068931	0.00091013	0.00024039	634.13	8.6848e-06	9.9754e-06	799.04	236.87	1.0105e-05	1.0145e-05	318.87	115.75	87.598	41.674	1.0171e-05	63.269	208.020	135.047	136.054	54.561	212.571	181.372	54.021	58.878	223.489	181.868	56.721	61.524	63.308	67.652	198.253	65.217	-8191	255	
26772.898	1	1	0	0	0.074363	0.06168	0.059532	0.057266	0.073983	0.24669	0.26486	0.14044	0.1785	0.089166	0.31441	0.32504	0.089713	0.18485	0.036673	0.16004	-3.8104	-4.375	-4.5958	-4.1625	-4.6729	-4.4458	-4.2542	-4.925	-4.3458	-4.3562	-4.625	-3.8917	-4.6708	-4.5437	-4.0646	-4.7312	335.573	206.200	279.770	191.994	360.963	146.873	389.327	396.117	320.735	280.967	370.422	339.734	78.719	383.391	317.181	331.753	0.00043854	0.00049141	9.5196e-05	637.39	3.6574e-06	5.2706e-06	804.98	236.15	4.4677e-06	3.9603e-06	317.83	114.13	86.399	41.095	5.9274e-06	62.391	0.00069752	0.00092584	0.00023524	635.14	8.3271e-06	9.8729e-06	799.37	236.95	1.0046e-05	1.0101e-05	316.91	115.21	87.213	41.553	1.0758e-05	63.019	208.638	114.622	102.937	54.161	204.656	169.075	53.865	58.848	242.401	173.177	56.606	61.186	63.069	67.601	212.817	64.803	-8191	255	
26772.992	1	1	0	0	0.076518	0.23275	0.1268	0.25633	0.10749	0.12864	0.16161	0.18147	0.21483	0.030416	0.13648	0.068096	0.20882	0.13038	0.18872	0.23138	-3.8812	-4.2021	-4.7146	-4.1813	-4.4583	-4.4979	-4.1708	-4.6854	-4.1312	-4.2	-4.6354	-4.1271	-4.5083	-4.4667	-4.0375	-4.8417	272.903	272.638	373.258	388.891	317.382	115.584	331.632	310.627	390.453	219.902	69.053	372.179	373.222	314.629	179.647	353.969	0.0004199	0.00051212	0.0001207	638.91	2.6526e-06	3.0266e-06	803.46	235.48	2.7586e-06	6.3023e-06	318.04	113.91	87.027	41.176	4.5749e-06	62.406	0.00068677	0.00086975	0.00024078	635.2	8.133e-06	9.1645e-06	797.6	236.18	9.334e-06	9.9081e-06	316.9	114.99	87.408	41.675	1.0636e-05	63.045	208.264	131.705	120.813	54.532	183.842	178.703	53.708	58.795	244.341	195.810	56.865	61.486	63.080	67.578	207.227	64.977	-8191	255	
26773.066	1	1	0	0	0.030192	0.072349	0.16616	0.21884	0.044555	0.20872	0.090243	0.039735	0.13951	0.106	0.11882	0.25756	0.049891	0.18118	0.16846	0.13595	-3.9813	-4.0104	-4.6479	-4.1375	-4.4708	-4.7438	-4.2208	-4.7167	-4.2396	-4.2188	-4.8625	-4.2771	-4.4688	-4.7688	-4.0188	-4.7271	220.431	185.452	319.393	380.364	65.123	143.252	340.206	161.324	54.131	211.015	388.400	373.016	82.133	84.421	197.915	57.853	0.00041311	0.00051369	0.0001089	635.94	4.1096e-06	4.3138e-06	803.35	235.91	3.272e-06	5.3876e-06	315.68	114.2	87.058	41.066	4.2445e-06	62.757	0.00067125	0.00088493	0.00025389	632.77	8.2632e-06	9.6083e-06	798.93	236.8	8.6278e-06	1.1231e-05	316.02	115.09	87.468	41.719	1.0677e-05	63.166	207.938	118.038	129.585	54.363	209.576	165.819	53.485	59.077	211.350	180.084	56.822	61.559	63.352	67.681	201.628	65.166	-8191	255	
26773.188	1	1	0	0	0.048977	0.35184	0.3035	0.09188	0.14499	0.1975	0.28107	0.079043	0.039136	0.073617	0.20899	0.15282	0.1065	0.078783	0.087835	0.17387	-4.2917	-4.2167	-4.7562	-4.1542	-4.3896	-4.8354	-4.2125	-4.7542	-4.6083	-4.1083	-4.7771	-4.1375	-4.3333	-4.6896	-4.1021	-4.6479	128.993	293.544	236.569	344.954	229.952	248.187	327.749	293.756	137.377	62.168	333.858	196.634	343.690	86.667	218.620	294.314	0.00042836	0.00035102	0.00016957	634.62	4.6412e-06	4.9054e-06	804.98	235.19	3.5454e-06	4.057e-06	315.03	114.44	86.788	40.879	4.9383e-06	62.164	0.00066812	0.0009028	0.00025056	633.64	8.2281e-06	9.5466e-06	800.01	235.97	8.3053e-06	1.1633e-05	315.96	115.21	87.244	41.46	1.1427e-05	62.838	210.347	144.116	128.535	54.199	219.323	172.562	53.817	58.888	238.720	192.061	56.952	61.489	63.153	67.569	205.588	65.224	-8191	255	
26773.281	1	1	0	0	0.11988	0.038331	0.25144	0.098558	0.2553	0.11197	0.20927	0.20549	0.14444	0.1229	0.24589	0.24953	0.060149	0.075753	0.29244	0.17359	-4.0896	-4.1	-4.6354	-4.3792	-4.225	-4.7812	-4.3083	-4.525	-4.4604	-3.9521	-4.7604	-4.4021	-4.3229	-4.725	-4.0917	-4.5208	93.662	338.769	168.023	124.146	192.637	210.490	314.716	103.757	340.687	124.943	46.684	327.510	312.280	65.467	263.330	239.123	0.00042542	0.00044862	0.00010036	637.34	3.8701e-06	5.634e-06	807.88	233.44	4.6821e-06	3.2134e-06	315.65	114.55	85.803	40.794	4.5627e-06	62.351	0.00067441	0.00086181	0.00025377	633.67	8.1463e-06	1.0027e-05	799.97	234.69	8.3037e-06	1.1825e-05	314.7	114.77	86.684	41.399	1.0962e-05	62.867	211.784	123.513	130.469	54.365	212.969	201.440	53.549	59.035	209.854	193.205	56.883	61.458	63.222	67.707	202.866	65.156	-8191	255	
26773.377	1	1	0	0	0.092545	0.1192	0.26403	0.18506	0.070393	0.19365	0.20537	0.1085	0.14838	0.072994	0.026349	0.075272	0.31691	0.12265	0.19043	0.10253	-4.3021	-4.0062	-4.5708	-4.45	-4.3	-4.7604	-4.3083	-4.5	-4.8042	-4.1354	-4.6854	-4.5	-4.1167	-4.8708	-4.3375	-4.4417	311.453	179.645	85.791	351.402	78.385	195.524	344.178	128.442	328.272	263.120	194.793	260.670	352.486	92.412	114.109	50.155	0.00043401	0.00039664	8.0419e-05	637.09	3.7985e-06	3.0309e-06	802.89	234.19	3.8311e-06	2.4541e-06	311.91	113.09	85.493	40.747	6.2236e-06	62.066	0.00066245	0.00092929	0.00024947	633.24	9.4063e-06	1.0029e-05	798.02	233.57	8.0425e-06	1.1676e-05	312.89	114	86.253	41.254	1.0848e-05	62.453	209.154	121.106	129.689	54.470	212.927	190.569	53.575	58.958	215.576	149.102	56.617	61.413	63.240	67.659	210.100	65.121	-8191	255	
26773.498	1	1	0	0	0.14832	0.15142	0.077142	0.090617	0.17055	0.18233	0.21133	0.20983	0.047628	0.11779	0.12583	0.12036	0.14592	0.074107	0.22365	0.20835	-4.4729	-4.1125	-4.5104	-4.5687	-4.1229	-4.8438	-4.4812	-4.2604	-4.7458	-4.1937	-4.5625	-4.6062	-4.1687	-4.8042	-4.3167	-4.3313	47.212	354.851	70.926	44.014	73.197	385.871	360.500	351.734	110.565	192.737	308.219	75.207	110.092	346.593	374.073	97.572	0.00042009	0.00021701	0.00012615	636.27	3.1764e-06	4.3261e-06	797.51	233.24	3.5433e-06	4.9354e-06	311.78	113.28	85.705	40.562	5.5172e-06	61.909	0.00066949	0.00089952	0.0002452	630.64	9.3066e-06	9.4959e-06	794	232.84	8.3076e-06	1.1788e-05	311.35	113.78	86.3	41.123	9.8078e-06	62.369	209.178	117.805	133.665	54.326	198.903	193.213	53.635	59.110	224.056	173.057	56.531	61.316	63.699	67.659	220.905	65.234	-8191	255	
26773.594	1	1	0	0	0.10448	0.18503	0.13038	0.22841	0.13378	0.22199	0.20692	0.24417	0.13779	0.096409	0.094162	0.14021	0.035571	0.17441	0.10506	0.25097	-4.3833	-4.2875	-4.3958	-4.6417	-4.0312	-4.6062	-4.5354	-4.3104	-4.7667	-4.1396	-4.75	-4.6875	-4.1729	-4.7646	-4.5104	-4.3	44.084	124.403	358.159	58.412	265.206	190.017	236.130	327.466	208.191	46.369	64.956	383.072	105.739	43.204	190.805	390.669	0.00043713	0.00039159	0.00015311	632.14	4.5561e-06	3.7013e-06	798.07	231.41	4.2711e-06	4.9299e-06	311.99	112.85	85.013	40.733	5.214e-06	61.723	0.00067027	0.00089374	0.00023276	630.84	9.697e-06	1.0036e-05	793.99	231.79	8.4247e-06	1.1038e-05	310.86	113.7	86.004	41.234	9.1249e-06	62.303	209.836	120.518	126.678	54.251	220.247	180.119	53.363	59.094	224.522	170.762	56.801	61.422	63.289	67.720	202.044	65.042	-8191	255	
26773.666	1	1	0	0	0.13926	0.056556	0.11089	0.12011	0.066542	0.033947	0.059265	0.26482	0.071218	0.059398	0.21426	0.20944	0.1264	0.12276	0.11392	0.31764	-4.4208	-4.2479	-4.425	-4.7333	-4.0604	-4.65	-4.7521	-4.2188	-4.6979	-4.4062	-4.5312	-4.7229	-4.1917	-4.6625	-4.4771	-4.2292	397.272	190.775	220.986	95.957	242.774	223.198	241.650	259.302	330.942	84.067	348.521	283.206	121.268	353.928	103.939	380.597	0.00040438	0.00043968	0.00014173	634.76	3.2403e-06	3.7547e-06	798.08	232.89	2.8633e-06	3.4516e-06	311.34	113.21	85.678	40.757	4.1207e-06	62.345	0.000669	0.00094008	0.00024238	631.23	9.51e-06	9.7128e-06	793.37	232.25	8.2076e-06	1.1739e-05	310.84	113.7	86.37	41.306	8.8384e-06	62.641	209.044	117.484	115.137	54.267	219.293	186.705	53.584	59.209	229.063	189.423	56.904	61.391	63.284	67.967	184.214	64.906	-8191	255	
26773.785	1	1	0	0	0.068065	0.063359	0.19417	0.19678	0.2356	0.12158	0.18629	0.03333	0.11753	0.080202	0.17637	0.14014	0.23062	0.035968	0.23668	0.084912	-4.4729	-4.3875	-4.3	-4.8688	-4.2604	-4.5396	-4.5229	-4.2021	-4.6771	-4.2667	-4.2479	-4.6646	-4.1438	-4.4375	-4.4313	-4.2167	179.226	281.932	368.190	369.380	180.746	307.105	334.656	175.669	274.306	352.742	248.058	340.930	83.310	372.810	252.344	74.827	0.00041393	0.000429	0.00014545	635.49	3.8004e-06	4.674e-06	802.35	231.91	3.2033e-06	4.0787e-06	313.43	114.06	85.661	40.737	6.0673e-06	62.652	0.00067321	0.00086828	0.00025156	632.2	1.0364e-05	9.8322e-06	795.5	233.17	8.7293e-06	1.0084e-05	313.61	114.68	86.637	41.521	9.2828e-06	63.168	211.279	140.182	136.377	54.542	231.304	195.744	53.366	59.091	220.256	190.881	56.499	61.356	63.248	67.880	215.812	65.072	-8191	255	
26773.883	1	1	0	0	0.15053	0.07943	0.026374	0.17271	0.21298	0.17566	0.14294	0.17857	0.064108	0.10695	0.28977	0.20468	0.1362	0.017294	0.17642	0.14456	-4.2417	-4.3479	-4.2792	-4.7625	-4.2771	-4.4333	-4.7646	-4.125	-4.5104	-4.575	-4.2667	-4.7937	-4.2771	-4.4938	-4.7125	-4.3438	323.427	252.370	56.419	47.042	55.488	90.361	280.639	315.580	83.922	359.763	116.769	269.569	383.721	344.713	127.794	42.104	0.00041652	0.00038578	0.00018032	634.31	4.2649e-06	5.2991e-06	804.63	234.52	3.182e-06	5.4562e-06	314.15	114.16	85.568	40.988	4.0638e-06	62.365	0.00066268	0.00086207	0.00024845	632.68	9.6175e-06	9.7068e-06	798.51	234.6	8.3634e-06	9.6941e-06	314.31	114.64	86.572	41.561	8.8599e-06	63.085	209.662	125.524	128.137	54.151	232.927	178.204	53.377	59.039	230.466	200.344	56.871	60.977	63.289	67.700	196.056	65.176	-8191	255	
26773.979	1	1	0	0	0.19977	0.16139	0.11202	0.47556	0.14048	0.029687	0.20598	0.36617	0.27356	0.068504	0.12303	0.23268	0.10604	0.080847	0.12942	0.18579	-4.3187	-4.3542	-4.1042	-4.8063	-4.2417	-4.2521	-4.8125	-4.2812	-4.4875	-4.4396	-4.1896	-4.6708	-4.4917	-4.525	-4.7208	-4.3542	239.641	364.335	358.658	371.325	341.051	327.559	347.625	59.155	238.595	328.098	322.269	277.414	320.924	351.851	327.898	213.939	0.00044335	0.00035181	0.00014906	635.38	3.8839e-06	4.3026e-06	805.51	235.09	3.0704e-06	4.0845e-06	313.63	113.2	85.634	40.758	3.7639e-06	61.866	0.00068787	0.0008493	0.00025103	633.05	9.5731e-06	9.6292e-06	797.04	234.52	8.0145e-06	9.3932e-06	313.37	113.97	86.52	41.33	9.1996e-06	62.591	212.102	135.462	122.715	54.177	216.343	192.156	53.362	58.813	207.066	204.152	56.876	61.549	63.838	67.844	201.341	65.368	-8191	255	
26774.074	1	1	0	0	0.15694	0.26968	0.16341	0.24946	0.1973	0.14637	0.34791	0.26298	0.21471	0.077062	0.18884	0.14602	0.07095	0.15674	0.055725	0.10993	-4.0896	-4.5188	-3.9875	-4.6208	-4.3917	-4.1562	-4.8396	-4.2667	-4.5417	-4.6104	-4.2896	-4.6562	-4.4146	-4.2333	-4.7521	-4.3104	378.920	119.877	99.293	59.171	113.901	191.324	356.037	227.402	313.325	148.216	335.800	279.425	206.819	314.334	353.273	55.775	0.00042112	0.00037911	0.00017637	632.7	3.5538e-06	5.0919e-06	800.4	234.15	3.5658e-06	3.7091e-06	312.6	113.46	86.109	40.836	4.0857e-06	62.114	0.00066623	0.00084231	0.00024636	631.56	8.8383e-06	1.0291e-05	795.36	233.39	8.3091e-06	9.0449e-06	312.29	113.86	86.465	41.303	8.5828e-06	62.575	209.848	133.006	128.607	54.375	222.412	163.771	53.658	59.095	214.364	173.696	56.596	61.843	63.505	67.726	196.901	65.108	-8191	255	
26774.193	1	1	0	0	0.10122	0.11452	0.1605	0.1029	0.12514	0.13347	0.11226	0.10175	0.06462	0.049791	0.23791	0.17938	0.06101	0.1474	0.088571	0.11661	-4.1396	-4.6813	-4.0729	-4.7896	-4.5	-4.2917	-4.8604	-4.2854	-4.2979	-4.7063	-4.1083	-4.7063	-4.4417	-4.0938	-4.7021	-4.2854	380.017	274.323	266.600	356.308	127.432	59.339	238.492	328.426	218.931	128.241	324.572	75.678	382.345	256.842	101.585	326.970	0.00044377	0.00035168	0.00014102	635.34	3.2591e-06	4.6619e-06	800.31	233.12	3.0725e-06	4.9892e-06	314.04	112.99	86.315	40.691	4.0714e-06	62.485	0.00068162	0.00086328	0.00023844	631.65	8.013e-06	1.1191e-05	796.27	233.2	8.227e-06	9.2649e-06	312.83	114.09	86.792	41.357	9.1249e-06	62.852	207.978	141.685	136.279	54.545	222.935	188.382	53.451	59.163	223.858	205.482	56.720	61.376	63.207	67.611	211.676	64.806	-8191	255	
26774.289	1	1	0	0	0.15714	0.053035	0.12789	0.075161	0.17471	0.21527	0.047495	0.083314	0.13695	0.12823	0.19854	0.15507	0.10308	0.24687	0.16165	0.094616	-3.9	-4.6625	-4.0354	-4.4938	-4.5583	-4.1875	-4.8479	-4.3042	-4.3583	-4.7354	-4.0917	-4.425	-4.6354	-4.2667	-4.7667	-4.5312	368.671	364.857	170.719	366.683	190.151	219.000	87.598	69.450	68.755	219.181	84.644	117.020	328.912	44.167	52.402	289.411	0.0004115	0.00045807	0.0001106	635.56	4.747e-06	4.2021e-06	806.23	233.97	4.6535e-06	4.5771e-06	314.65	114.11	86.58	40.921	4.1536e-06	62.238	0.00065877	0.00086552	0.00024806	632.72	7.7886e-06	1.1375e-05	799.42	234.38	8.3254e-06	9.1041e-06	314.62	114.57	86.699	41.357	9.1061e-06	62.906	210.294	120.385	117.731	54.203	216.339	186.213	53.362	59.094	227.056	209.321	56.901	61.536	62.856	67.622	199.748	65.132	-8191	255	
26774.361	1	1	0	0	0.18484	0.23646	0.13285	0.057337	0.23054	0.26451	0.33036	0.11577	0.1417	0.11735	0.11117	0.32809	0.10155	0.20222	0.095838	0.041533	-3.9646	-4.7333	-4.0479	-4.5396	-4.5938	-4.0875	-4.9229	-4.6375	-4.2667	-4.8375	-4.4146	-4.4271	-4.8354	-4.2083	-4.6479	-4.7188	189.062	237.813	184.697	67.550	383.611	275.577	46.297	361.332	294.809	63.975	356.405	282.987	290.801	334.024	162.684	230.036	0.00046546	0.00023042	0.00014093	638.18	4.3013e-06	4.1065e-06	801.22	234.76	2.2836e-06	3.9584e-06	316.72	115.02	85.599	40.807	4.2269e-06	61.902	0.00070971	0.00082358	0.00024413	633.44	8.1385e-06	1.1947e-05	798.73	235.08	8.4433e-06	9.7434e-06	315.92	114.96	86.664	41.308	9.064e-06	62.7	210.170	119.185	162.330	54.283	223.161	196.153	53.613	59.183	240.672	221.158	56.788	61.608	62.962	67.722	210.175	65.086	-8191	255	
26774.457	1	1	0	0	0.24444	0.085528	0.16032	0.14905	0.25136	0.051889	0.16637	0.1536	0.0728	0.19311	0.30179	0.061478	0.092137	0.099829	0.01264	0.063174	-3.975	-4.7375	-4.1146	-4.425	-4.8063	-4.1771	-4.8292	-4.6146	-4.1708	-4.8021	-4.3854	-4.3938	-4.6937	-4.1396	-4.4833	-4.7271	304.143	182.498	184.159	48.212	377.318	94.854	322.270	391.533	174.036	271.970	297.263	97.720	292.720	295.400	338.093	361.192	0.00040915	0.00053932	9.3803e-05	635.03	3.7706e-06	3.6333e-06	806.47	234.71	2.4052e-06	4.2241e-06	314.24	113.46	85.808	40.678	4.8089e-06	61.964	0.00073872	0.00086509	0.0002468	632.42	8.186e-06	1.1868e-05	798.65	234.94	8.4185e-06	9.1781e-06	314.46	114.43	86.423	41.224	8.8556e-06	62.562	207.400	126.064	156.198	54.693	224.767	196.480	53.375	58.857	215.834	164.271	56.706	61.694	63.161	67.532	210.803	64.813	-8191	255	
26774.578	1	1	0	0	0.061486	0.039256	0.32077	0.24219	0.022832	0.2195	0.23774	0.10913	0.050733	0.074293	0.23987	0.24501	0.11645	0.16183	0.20954	0.10327	-3.8125	-4.7167	-4.3604	-4.3792	-4.9167	-4.1458	-4.5938	-4.7146	-3.9917	-4.7229	-4.6479	-4.2458	-4.6479	-4.4042	-4.4708	-4.9042	250.083	92.150	361.565	390.628	175.693	385.206	361.407	62.955	279.695	95.540	378.809	376.028	304.642	90.953	328.997	398.597	0.00041567	0.0005789	0.00014511	634.12	4.2537e-06	3.1721e-06	803.23	233.69	2.4748e-06	5.2335e-06	316.08	113.19	85.952	40.928	4.6719e-06	62.225	0.00073028	0.00088442	0.00022722	631.81	8.1821e-06	1.1687e-05	796.84	234.78	8.213e-06	9.3665e-06	314.76	114.2	86.776	41.401	8.8985e-06	62.761	209.114	138.791	118.671	54.323	211.761	196.668	53.509	59.124	206.564	196.036	56.712	61.368	63.346	67.665	203.006	64.962	-8191	255	
26774.674	1	1	0	0	0.090261	0.091176	0.12093	0.16628	0.1475	0.12514	0.25086	0.095656	0.10789	0.15894	0.3456	0.1368	0.34182	0.10024	0.35238	0.25379	-3.9208	-4.5813	-4.5208	-4.4396	-4.8146	-4.2021	-4.575	-4.7396	-4.0729	-4.6687	-4.7146	-4.3313	-4.8167	-4.3063	-4.3021	-4.9458	305.896	60.213	227.255	275.050	393.657	40.870	351.340	396.774	258.378	161.356	113.637	127.415	294.885	290.065	88.748	50.283	0.000425	0.00040686	0.00011342	635.24	5.0147e-06	4.5177e-06	806.81	234.62	3.1223e-06	5.3587e-06	316.35	113.99	86.073	41.049	4.1747e-06	62.577	0.00074394	0.00085749	0.00023825	633.04	8.5476e-06	1.1542e-05	798.44	235.66	8.7464e-06	9.2353e-06	315.64	115.02	87.159	41.585	9.197e-06	63.071	210.684	119.831	124.710	54.421	216.304	203.129	53.588	58.809	194.775	199.012	56.799	61.498	63.389	67.495	197.607	64.854	-8191	255	
26774.771	1	1	0	0	0.13028	0.22959	0.094283	0.1924	0.17749	0.058799	0.18169	0.10945	0.18432	0.12367	0.19557	0.085181	0.074728	0.060758	0.07078	0.14036	-3.925	-4.5938	-4.4125	-4.0729	-4.7958	-4.3542	-4.5563	-4.8187	-4.1375	-4.4167	-4.7417	-4.0792	-4.7312	-4.4688	-4.1667	-4.8542	277.392	393.751	231.476	342.107	259.135	97.320	323.404	389.171	84.722	263.839	118.923	275.519	356.611	290.735	262.869	258.736	0.00043476	0.00041311	8.9017e-05	636.7	3.4555e-06	4.436e-06	808.29	237.4	2.5119e-06	3.8684e-06	319.36	115.01	86.795	41.13	4.6945e-06	62.795	0.00073204	0.00083998	0.00023487	634.33	8.1899e-06	1.0938e-05	801.23	237.7	8.6022e-06	9.2856e-06	319.12	115.73	87.551	41.729	9.5238e-06	63.243	208.112	117.394	133.269	54.600	217.047	176.359	53.614	58.675	218.810	200.635	56.661	61.473	63.311	67.756	219.178	64.886	-8191	255	
26774.867	1	1	0	0	0.11492	0.14386	0.12573	0.22507	0.1483	0.23932	0.18697	0.17971	0.10797	0.13002	0.16664	0.1787	0.10048	0.15347	0.25153	0.2971	-3.7292	-4.3271	-4.525	-4.1312	-4.7146	-4.4625	-4.4354	-4.7063	-4.2104	-4.4187	-4.6917	-4.1646	-4.6542	-4.5375	-4.2167	-4.8229	148.826	336.153	282.973	313.551	375.159	391.906	294.194	328.709	331.262	96.589	304.300	315.142	94.489	52.050	217.122	392.488	0.00045466	0.0004173	0.00020634	641.32	4.49e-06	3.9436e-06	809.73	239.07	3.2036e-06	3.8704e-06	319.78	114.19	86.389	41	4.7739e-06	62.32	0.00074951	0.00084351	0.00023937	635.4	8.3699e-06	1.0174e-05	803.49	238.59	8.3557e-06	8.8752e-06	319.16	115.4	87.47	41.543	9.3677e-06	62.839	208.729	135.056	120.923	54.299	219.682	190.208	53.402	58.949	213.322	169.915	56.568	61.376	63.254	67.625	190.944	64.979	-8191	255	
26774.963	1	1	0	0	0.26347	0.3318	0.17922	0.098262	0.17957	0.15368	0.1456	0.21109	0.046301	0.1481	0.17791	0.23371	0.08935	0.41352	0.17436	0.19505	-3.8625	-4.3	-4.6229	-4.1646	-4.5813	-4.4146	-4.3917	-4.7792	-4.2625	-4.35	-4.7167	-4.1271	-4.55	-4.6062	-4.0396	-4.8042	97.025	343.471	221.806	154.568	222.531	109.588	290.143	335.338	79.814	233.615	335.844	226.488	382.496	359.264	49.968	314.851	0.00041964	0.00044422	9.47e-05	639.43	3.5974e-06	2.7762e-06	808.33	237.17	2.9157e-06	4.6353e-06	316.88	113.52	86.097	40.686	3.9489e-06	61.834	0.00070329	0.00088692	0.00024328	634.97	8.0091e-06	9.4352e-06	801.61	236.98	8.2417e-06	9.0932e-06	316.39	114.16	86.931	41.189	9.6388e-06	62.229	208.359	131.948	150.406	54.356	240.293	207.397	53.491	58.996	212.086	172.443	56.776	61.431	63.186	67.999	207.843	65.208	-8191	255	
26775.059	1	1	0	0	0.18798	0.29388	0.10661	0.082773	0.2579	0.23802	0.063633	0.096994	0.17045	0.14958	0.16103	0.32423	0.11523	0.25311	0.076423	0.097325	-3.9042	-4.1833	-4.6583	-4.1729	-4.5542	-4.5292	-4.1687	-4.775	-4.3021	-4.1771	-4.7625	-4.1375	-4.5	-4.7208	-3.9542	-4.7542	50.066	137.004	239.655	309.932	305.953	145.741	399.823	296.484	120.084	125.147	291.750	354.262	148.044	385.303	208.651	364.199	0.00040962	0.00033788	0.00012011	637.13	3.7772e-06	6.6827e-06	805.6	234.07	3.8475e-06	2.0006e-06	314.71	112.17	85.97	40.662	3.2835e-06	61.645	0.00073357	0.00086785	0.00024082	633.01	8.1408e-06	9.6869e-06	798.59	234.77	8.2068e-06	9.699e-06	313.76	113.51	86.36	41.049	9.1498e-06	62.104	207.892	129.810	134.908	54.297	218.195	184.777	53.288	58.754	221.271	165.593	56.587	61.597	63.103	67.836	206.268	65.115	-8191	255	
26775.178	1	1	0	0	0.018018	0.034679	0.27082	0.12875	0.21679	0.21109	0.25557	0.18374	0.011747	0.16331	0.19503	0.052276	0.21123	0.21302	0.041244	0.27155	-3.8792	-4.1229	-4.6979	-4.2542	-4.4833	-4.6292	-4.2375	-4.6875	-4.4271	-4.2354	-5.0396	-4.2729	-4.3438	-4.7063	-4.0917	-4.8208	348.812	236.270	219.497	375.592	358.603	96.563	383.819	364.900	368.360	286.755	270.688	233.530	237.593	364.758	390.118	325.538	0.00042591	0.00055607	0.00011246	634.87	4.0019e-06	3.034e-06	804.16	235.41	3.1419e-06	4.7436e-06	314.08	113.22	85.706	40.578	3.7972e-06	61.595	0.00067138	0.00091203	0.00024345	633.39	8.1019e-06	9.4998e-06	798.42	235.47	8.2076e-06	9.9269e-06	314.06	113.95	86.358	41.139	9.1687e-06	62.246	210.170	139.958	123.316	54.577	208.824	176.702	53.507	58.978	214.600	177.078	56.653	61.355	63.225	67.477	188.812	64.967	-8191	255	
26775.273	1	1	0	0	0.15122	0.19917	0.20629	0.36301	0.12488	0.10716	0.11023	0.10554	0.1304	0.095234	0.17109	0.24389	0.13231	0.13048	0.050887	0.04205	-4.2604	-3.9833	-4.6354	-4.25	-4.3187	-4.7167	-4.2562	-4.6542	-4.4917	-4.1229	-4.8396	-4.4229	-4.2146	-4.7271	-4.1979	-4.6354	252.131	104.541	186.194	50.724	91.410	400.530	341.840	147.541	145.815	118.916	81.745	345.678	351.792	339.021	248.888	245.502	0.00042185	0.00040925	0.00014878	637.57	4.856e-06	3.7566e-06	807.07	235.02	2.9069e-06	5.0471e-06	316.67	113.07	85.553	40.452	4.6999e-06	61.798	0.00067216	0.0010265	0.00023806	634.95	8.1658e-06	9.6103e-06	798.5	235.53	8.0603e-06	1.0102e-05	314.92	113.97	86.455	41.127	9.2519e-06	62.219	208.744	138.045	149.987	54.370	207.746	188.001	53.475	58.884	208.986	196.115	56.629	61.583	63.542	67.738	201.435	65.068	-8191	255	
26775.369	1	1	0	0	0.036984	0.086848	0.13462	0.3108	0.17356	0.22406	0.12487	0.22239	0.12361	0.13754	0.3268	0.13557	0.1526	0.33824	0.13688	0.10697	-4.2812	-4.0083	-4.5437	-4.4667	-4.2042	-4.7604	-4.175	-4.6	-4.675	-4.2375	-4.7083	-4.4375	-4.4521	-4.8979	-4.1833	-4.4917	69.741	161.936	330.305	379.783	279.557	49.919	282.485	330.816	160.922	291.924	360.379	294.076	400.169	390.766	133.760	357.717	0.00041642	0.00045773	0.00010943	639.64	4.0329e-06	4.5811e-06	801.93	235.06	3.377e-06	3.4677e-06	315.34	113.76	85.51	40.433	3.9879e-06	61.725	0.00065942	0.0010284	0.00023211	634.56	8.6622e-06	9.7924e-06	797.12	235.33	8.3967e-06	1.0129e-05	314.74	114.27	86.525	41.037	9.2896e-06	62.129	208.032	129.489	132.768	54.293	207.974	163.409	53.480	58.984	213.346	172.098	56.633	61.720	62.927	67.661	196.824	65.081	-8191	255	
26775.467	1	1	0	0	0.20158	0.12535	0.15019	0.095618	0.12711	0.21813	0.20694	0.13309	0.073893	0.16125	0.080449	0.22305	0.078621	0.10529	0.14444	0.1677	-4.3646	-4.025	-4.5917	-4.6208	-4.0792	-4.7646	-4.3812	-4.6271	-4.6875	-4.1375	-4.8271	-4.5729	-4.1104	-4.7875	-4.2792	-4.4667	323.995	307.999	127.592	357.770	148.978	84.253	392.365	315.519	108.617	321.508	77.653	304.917	263.384	376.132	342.060	344.816	0.0004361	0.00062933	0.00015023	636.84	4.8295e-06	3.8095e-06	804.4	234.56	4.3973e-06	3.1419e-06	315.97	113.32	85.677	40.274	6.5608e-06	61.034	0.00068201	0.0010517	0.00023667	632.88	8.7471e-06	1.0035e-05	797.15	235.16	8.8596e-06	1.0038e-05	315.06	113.88	86.594	40.934	8.7827e-06	61.782	209.762	118.835	133.350	54.187	206.373	174.044	53.543	59.030	213.808	187.889	56.950	61.441	63.247	67.634	209.378	65.269	-8191	255	
26775.562	1	1	0	0	0.024818	0.037774	0.24207	0.25914	0.16051	0.2054	0.33322	0.22207	0.13764	0.11011	0.29373	0.082261	0.092152	0.19149	0.10111	0.17348	-4.4875	-4.1292	-4.5229	-4.5021	-4.1125	-4.6875	-4.3667	-4.3812	-4.8708	-3.9833	-4.5312	-4.5729	-4.0958	-4.6604	-4.2167	-4.2771	328.068	106.933	222.695	281.523	193.900	378.459	387.999	323.695	105.263	367.865	297.292	315.583	270.421	391.300	163.165	378.534	0.00042663	0.00033269	0.00013267	636.31	3.215e-06	3.994e-06	806.09	234.46	3.1066e-06	3.8877e-06	316.55	112.55	86.113	40.412	3.15e-06	61.368	0.00067327	0.00099392	0.00024231	632.7	8.6684e-06	1.0003e-05	796.53	235.03	8.5355e-06	1.0002e-05	314.52	113.6	86.599	41.016	8.6265e-06	61.964	206.284	119.644	120.364	54.406	207.697	172.218	53.362	59.062	206.579	182.302	56.850	61.415	63.492	68.019	197.560	64.942	-8191	255	
26775.658	1	1	0	0	0.06686	0.15775	0.02964	0.15358	0.087325	0.15174	0.20108	0.032091	0.23766	0.13054	0.28177	0.24852	0.21968	0.1511	0.072385	0.14906	-4.4458	-4.05	-4.3833	-4.7458	-3.9042	-4.7542	-4.4938	-4.1458	-4.7312	-4.3104	-4.4167	-4.6083	-4.1458	-4.6937	-4.5188	-4.4896	380.813	69.407	43.332	135.830	400.208	98.710	324.336	391.232	96.431	304.046	85.550	123.049	308.322	111.399	58.335	318.644	0.00037965	0.00031817	0.00015496	636.76	3.88e-06	4.6425e-06	800.84	235.45	3.1719e-06	5.1831e-06	315.07	112.79	85.88	40.537	3.8829e-06	61.449	0.00065613	0.0010072	0.00024401	633.76	8.4206e-06	9.5874e-06	796.34	235.61	8.6394e-06	9.6398e-06	314.91	113.77	86.72	41.109	9.4981e-06	61.986	211.191	128.856	126.177	54.497	236.215	187.922	53.378	58.912	224.719	182.821	56.716	61.791	63.394	67.708	211.855	65.024	-8191	255	
26775.756	1	1	0	0	0.12842	0.1739	0.013073	0.22301	0.056363	0.24642	0.20499	0.1755	0.28332	0.039846	0.22639	0.20285	0.21652	0.10589	0.17733	0.10438	-4.3354	-4.2312	-4.275	-4.7854	-4.0771	-4.4187	-4.6062	-4.2312	-4.6229	-4.2688	-4.3938	-4.6333	-4.175	-4.6292	-4.4979	-4.2083	194.241	371.972	171.178	364.535	224.703	158.242	351.584	313.424	228.979	217.524	338.911	389.831	328.126	113.058	168.179	69.053	0.00041338	0.00026034	0.00016367	637.74	3.777e-06	4.8606e-06	805.2	235.92	3.4311e-06	5.1716e-06	316.75	113.36	86.449	40.621	5.22e-06	61.676	0.00068445	0.00098728	0.00026089	634.13	8.1619e-06	9.5396e-06	798.11	236.46	8.2983e-06	9.4119e-06	316.27	114.15	87.165	41.143	9.2553e-06	62.132	210.287	112.635	119.880	54.275	217.800	207.903	53.528	59.085	216.987	199.431	56.730	61.478	63.277	67.553	211.636	65.045	-8191	255	
26775.875	1	1	0	0	0.045661	0.27763	0.045675	0.1785	0.15633	0.21705	0.11246	0.27692	0.041649	0.21342	0.30116	0.23434	0.032388	0.29399	0.2125	0.26629	-4.3104	-4.2792	-4.1875	-4.6646	-4.0521	-4.4104	-4.7729	-3.9458	-4.6729	-4.5729	-4.1729	-4.725	-4.15	-4.4583	-4.7146	-4.1417	380.143	359.517	100.951	269.252	144.757	360.929	339.975	350.941	129.253	83.662	368.457	352.522	158.235	368.559	307.749	274.897	0.00043579	0.00053227	0.00016368	635.55	4.2943e-06	4.9101e-06	803.4	235.51	3.1037e-06	3.695e-06	317.81	114.11	86.466	40.568	4.9056e-06	61.849	0.00065919	0.0010058	0.00025656	633.9	8.4284e-06	9.8938e-06	798.37	236.71	8.2913e-06	9.6635e-06	316.92	114.63	87.141	41.235	9.227e-06	62.39	210.995	137.813	135.600	54.210	202.632	174.609	53.476	59.125	228.533	180.314	56.766	61.514	63.449	67.800	195.006	65.099	-8191	255	
#DATA ENDS
