BOXY.EXE: ISS Imagent and Oximeter Data Acquisition Program Version 0.80
Ascii Record File

#ACQ INFORMATION
2  Detector Channels 
16  External MUX Channels 
1  Auxiliary Channels 
5000  Waveform (CCF) Frequency (Hz)
1  Waveforms Skipped 
30  Waveforms Averaged 
1  Cycles Averaged 
16  Acquisitions per Waveform 
10.0806  Updata Rate (Hz) 

#FILE INFORMATION
TRUE -- External MUX Channel results are PARSED.
FALSE -- AC DC and Phase are NOT grouped.
TRUE -- Companion Program Settings File CREATED.
FALSE -- AC data not excluded
FALSE -- DC data not excluded
FALSE -- Phase data not excluded
FALSE -- Auxillary Chn. data not excluded
Tab delimiters

#CALIBRATION STATE
TRUE -- Waveform Calibration Values APPLIED.


#AUX CALIBRATION VALUES
Val Type	aux-1	

Term	1.0000e+00	
Factor	0.0000e+00	


#WF CALIBRATION VALUES
A = Detector Channel
Val Type	A-AC1	A-AC2	A-AC3	A-AC4	A-AC5	A-AC6	A-AC7	A-AC8	A-AC9	A-AC10	A-AC11	A-AC12	A-AC13	A-AC14	A-AC15	A-AC16	A-DC1	A-DC2	A-DC3	A-DC4	A-DC5	A-DC6	A-DC7	A-DC8	A-DC9	A-DC10	A-DC11	A-DC12	A-DC13	A-DC14	A-DC15	A-DC16	A-Ph1	A-Ph2	A-Ph3	A-Ph4	A-Ph5	A-Ph6	A-Ph7	A-Ph8	A-Ph9	A-Ph10	A-Ph11	A-Ph12	A-Ph13	A-Ph14	A-Ph15	A-Ph16	

Term	0.00000e+00	0.00000e+00	0.00000e+00	0.00000e+00	0.00000e+00	0.00000e+00	0.00000e+00	0.00000e+00	0.00000e+00	0.00000e+00	0.00000e+00	0.00000e+00	0.00000e+00	0.00000e+00	0.00000e+00	0.00000e+00	0.00000e+00	0.00000e+00	0.00000e+00	0.00000e+00	0.00000e+00	0.00000e+00	0.00000e+00	0.00000e+00	0.00000e+00	0.00000e+00	0.00000e+00	0.00000e+00	0.00000e+00	0.00000e+00	0.00000e+00	0.00000e+00	0.00000e+00	0.00000e+00	0.00000e+00	0.00000e+00	0.00000e+00	0.00000e+00	0.00000e+00	0.00000e+00	0.00000e+00	0.00000e+00	0.00000e+00	0.00000e+00	0.00000e+00	0.00000e+00	0.00000e+00	0.00000e+00	
Factor	1.00000e+00	1.00000e+00	1.00000e+00	1.00000e+00	1.00000e+00	1.00000e+00	1.00000e+00	1.00000e+00	1.00000e+00	1.00000e+00	1.00000e+00	1.00000e+00	1.00000e+00	1.00000e+00	1.00000e+00	1.00000e+00	1.00000e+00	1.00000e+00	1.00000e+00	1.00000e+00	1.00000e+00	1.00000e+00	1.00000e+00	1.00000e+00	1.00000e+00	1.00000e+00	1.00000e+00	1.00000e+00	1.00000e+00	1.00000e+00	1.00000e+00	1.00000e+00	X	X	X	X	X	X	X	X	X	X	X	X	X	X	X	X	

B = Detector Channel
Val Type	B-AC1	B-AC2	B-AC3	B-AC4	B-AC5	B-AC6	B-AC7	B-AC8	B-AC9	B-AC10	B-AC11	B-AC12	B-AC13	B-AC14	B-AC15	B-AC16	B-DC1	B-DC2	B-DC3	B-DC4	B-DC5	B-DC6	B-DC7	B-DC8	B-DC9	B-DC10	B-DC11	B-DC12	B-DC13	B-DC14	B-DC15	B-DC16	B-Ph1	B-Ph2	B-Ph3	B-Ph4	B-Ph5	B-Ph6	B-Ph7	B-Ph8	B-Ph9	B-Ph10	B-Ph11	B-Ph12	B-Ph13	B-Ph14	B-Ph15	B-Ph16	

Term	0.00000e+00	0.00000e+00	0.00000e+00	0.00000e+00	0.00000e+00	0.00000e+00	0.00000e+00	0.00000e+00	0.00000e+00	0.00000e+00	0.00000e+00	0.00000e+00	0.00000e+00	0.00000e+00	0.00000e+00	0.00000e+00	0.00000e+00	0.00000e+00	0.00000e+00	0.00000e+00	0.00000e+00	0.00000e+00	0.00000e+00	0.00000e+00	0.00000e+00	0.00000e+00	0.00000e+00	0.00000e+00	0.00000e+00	0.00000e+00	0.00000e+00	0.00000e+00	-2.15620e+02	-1.31657e+02	-1.25146e+02	-1.81704e+02	-8.15054e+01	-6.68657e+01	-1.57588e+02	-1.62015e+02	-8.60096e+01	-6.69782e+01	-1.71217e+02	-1.72824e+02	-1.83390e+02	-1.77011e+02	-7.37979e+01	-1.49785e+02	
Factor	4.58921e-05	1.65953e-04	4.60063e-05	1.49255e-01	1.93368e-06	1.78685e-06	1.64339e-01	5.03331e-02	2.24651e-06	1.77573e-06	8.09569e-02	3.27481e-02	3.51869e-02	8.81024e-03	1.97165e-06	1.24698e-02	2.73434e-05	7.93411e-05	2.24816e-05	7.78062e-02	6.25384e-07	9.38907e-07	8.07401e-02	2.62746e-02	6.23511e-07	9.41288e-07	4.12738e-02	1.66736e-02	1.85840e-02	4.65689e-03	7.32170e-07	6.40504e-03	X	X	X	X	X	X	X	X	X	X	X	X	X	X	X	X	



#DISTANCE SETTINGS
A = Detector Channel
A-1	A-2	A-3	A-4	A-5	A-6	A-7	A-8	A-9	A-10	A-11	A-12	A-13	A-14	A-15	A-16	

2.5000e+00	3.0000e+00	2.5000e+00	3.0000e+00	2.0000e+00	3.0000e+00	1.5000e+00	3.0000e+00	3.0000e+00	3.0000e+00	3.0000e+00	3.0000e+00	3.0000e+00	3.0000e+00	1.5000e+00	3.0000e+00	

B = Detector Channel
B-1	B-2	B-3	B-4	B-5	B-6	B-7	B-8	B-9	B-10	B-11	B-12	B-13	B-14	B-15	B-16	

1.0000e+01	1.0000e+01	1.0000e+01	1.4400e+00	1.0000e+01	1.0000e+01	1.5100e+00	1.9400e+00	1.0000e+01	1.0000e+01	1.9900e+00	2.4900e+00	2.4100e+00	2.9000e+00	1.0000e+01	2.9800e+00	




#DATA BEGINS
time	group	step	mark	flag	A-AC1	A-AC2	A-AC3	A-AC4	A-AC5	A-AC6	A-AC7	A-AC8	A-AC9	A-AC10	A-AC11	A-AC12	A-AC13	A-AC14	A-AC15	A-AC16	A-DC1	A-DC2	A-DC3	A-DC4	A-DC5	A-DC6	A-DC7	A-DC8	A-DC9	A-DC10	A-DC11	A-DC12	A-DC13	A-DC14	A-DC15	A-DC16	A-Ph1	A-Ph2	A-Ph3	A-Ph4	A-Ph5	A-Ph6	A-Ph7	A-Ph8	A-Ph9	A-Ph10	A-Ph11	A-Ph12	A-Ph13	A-Ph14	A-Ph15	A-Ph16	B-AC1	B-AC2	B-AC3	B-AC4	B-AC5	B-AC6	B-AC7	B-AC8	B-AC9	B-AC10	B-AC11	B-AC12	B-AC13	B-AC14	B-AC15	B-AC16	B-DC1	B-DC2	B-DC3	B-DC4	B-DC5	B-DC6	B-DC7	B-DC8	B-DC9	B-DC10	B-DC11	B-DC12	B-DC13	B-DC14	B-DC15	B-DC16	B-Ph1	B-Ph2	B-Ph3	B-Ph4	B-Ph5	B-Ph6	B-Ph7	B-Ph8	B-Ph9	B-Ph10	B-Ph11	B-Ph12	B-Ph13	B-Ph14	B-Ph15	B-Ph16	aux-1	digaux	

18821.318	1	1	0	768	0.14276	0.19484	0.16195	0.24099	0.20858	0.10346	0.18975	0.23772	0.092805	0.12411	0.19501	0.27715	0.20357	0.14171	0.20959	0.097535	-3.8979	-4.6854	-4.7604	-4.3313	-4.7417	-4.6771	-4.425	-5.2104	-4.2771	-4.7333	-5.0104	-4.3479	-4.9187	-4.8063	-4.2604	-5.0479	195.844	429.996	423.858	414.949	242.521	297.675	367.073	397.533	151.314	364.628	421.188	404.897	130.935	392.707	390.045	377.821	0.0016506	0.00044847	0.00014676	1279.9	9.6093e-06	1.0748e-05	1382.3	451.78	9.9652e-06	3.3296e-06	456.43	128.34	119.02	47.291	5.1809e-06	58.815	0.015653	0.046971	0.012232	1361.6	0.00034868	0.00050478	1462.8	481.32	0.0003434	0.00050569	494.26	141.18	134.54	51.9	0.00039999	64.718	79.602	309.864	220.617	91.548	236.296	257.420	90.499	95.280	228.016	141.160	94.881	103.023	104.786	111.207	251.918	107.954	-8191	255	
18821.414	1	1	0	0	0.11941	0.12397	0.12074	0.33861	0.088246	0.14589	0.1171	0.071561	0.072844	0.27692	0.2554	0.10398	0.15322	0.25559	0.065622	0.16547	-3.8875	-4.6188	-4.8875	-4.5604	-4.6792	-4.6562	-4.4854	-5.0625	-4.4229	-4.3917	-5.1333	-4.2646	-4.6833	-4.8208	-4.4229	-4.925	387.553	347.223	360.594	429.213	110.855	225.618	394.447	109.808	156.830	347.588	379.289	163.867	236.229	431.114	357.232	335.550	0.0014028	0.00043111	0.00014289	1276.5	6.1921e-06	6.4003e-06	1385	449.16	1.256e-05	3.3453e-06	454.72	129.19	120.05	47.304	1.4647e-05	59.168	0.015438	0.045597	0.012264	1357.5	0.00033965	0.00049968	1461.7	480.43	0.00033268	0.00049737	493.9	141.63	134.48	51.931	0.00038665	64.977	83.500	182.287	157.798	91.478	202.711	435.910	90.586	95.056	212.884	219.553	94.844	103.050	105.071	110.970	221.968	108.144	-8191	255	
18821.512	1	1	0	0	0.21476	0.061455	0.10206	0.29024	0.13524	0.12063	0.24252	0.1809	0.042676	0.15276	0.018888	0.069909	0.053862	0.048374	0.13396	0.058466	-4.0792	-4.2188	-4.8333	-4.2958	-4.6667	-4.7021	-4.5021	-4.9083	-4.5292	-4.3083	-4.8083	-4.5	-4.6125	-4.8812	-4.2417	-4.9458	228.555	111.567	169.443	397.174	225.833	295.581	390.507	398.379	287.769	310.843	275.796	201.642	116.207	386.070	135.665	384.878	0.0014748	0.00019636	0.0002085	1272	9.8491e-06	1.4235e-05	1367.2	439.05	1.1615e-05	9.275e-06	446	128.78	118.64	47.195	1.6701e-06	58.896	0.01472	0.044946	0.011757	1348.2	0.00031919	0.00047572	1444.7	470.23	0.00031309	0.00047618	483.97	140.65	133.28	51.728	0.00037504	64.574	88.928	430.068	284.336	91.344	201.413	258.017	90.775	95.379	189.378	218.241	95.136	103.380	105.108	111.152	385.404	108.147	-8191	255	
18821.607	1	1	0	0	0.044778	0.11484	0.13036	0.20288	0.10129	0.17882	0.31474	0.049712	0.21868	0.097182	0.26656	0.097486	0.18855	0.12677	0.20353	0.11898	-4.1937	-4.225	-4.975	-4.3646	-4.4854	-4.6813	-4.3479	-5.0917	-4.5437	-4.2521	-4.8979	-4.4583	-4.5458	-4.9021	-4.2354	-4.7625	338.513	213.475	133.863	88.887	191.052	431.942	400.713	154.368	403.576	329.873	409.091	404.386	149.749	402.360	309.678	437.349	0.0015653	0.00060994	0.00021769	1262.2	8.0455e-06	2.5801e-06	1362.8	431.64	1.2369e-05	4.1236e-06	439.63	127.37	118.16	46.969	4.7887e-06	58.674	0.014364	0.042943	0.0116	1339.6	0.00031466	0.0004798	1436.6	460.64	0.00030982	0.00047313	475.19	139.31	131.99	51.48	0.00036363	64.318	83.317	389.842	135.564	91.509	207.645	370.021	90.696	95.623	230.051	200.533	95.624	103.355	104.989	111.038	330.568	108.195	-8191	255	
18821.701	1	1	0	0	0.24051	0.15642	0.2988	0.28184	0.10721	0.15648	0.16016	0.34257	0.14967	0.20201	0.18373	0.048579	0.23977	0.067263	0.16432	0.27255	-4.2458	-4.4	-4.8562	-4.7812	-4.3042	-4.8104	-4.5146	-4.8438	-4.7229	-4.4021	-4.8708	-4.5125	-4.5604	-4.8938	-4.2542	-4.7479	108.745	247.456	398.318	363.426	184.758	117.589	168.021	343.347	242.269	254.992	338.203	119.552	415.616	414.959	189.223	328.294	0.0014208	0.00014202	0.00019713	1250.6	5.913e-06	5.8663e-06	1348.5	415.98	7.4091e-06	8.7017e-06	427.44	126.12	116.45	46.605	5.4538e-06	58.546	0.014032	0.040539	0.011835	1324.7	0.00030257	0.00046038	1418.3	443.15	0.00029603	0.0004505	459.79	137.6	130.17	50.971	0.00033473	63.972	78.696	123.430	181.753	91.530	163.287	169.668	90.766	96.148	181.859	208.694	95.867	103.321	105.392	111.172	161.925	108.274	-8191	255	
18821.799	1	1	0	0	0.14157	0.10599	0.16251	0.31734	0.094298	0.047314	0.063193	0.18101	0.16531	0.20773	0.058162	0.045178	0.12483	0.1068	0.29886	0.033757	-4.3583	-4.2521	-4.75	-4.4812	-4.4479	-4.9167	-4.6188	-4.4896	-4.9125	-4.0437	-4.9792	-4.6292	-4.4979	-4.8208	-4.4021	-4.5813	129.060	392.178	404.140	397.109	377.818	428.418	403.507	376.570	263.117	140.123	100.520	342.140	232.491	364.699	376.583	238.744	0.0016617	0.00035504	0.0002898	1229.1	7.845e-06	7.7219e-06	1332.9	404.57	7.4562e-06	3.2404e-06	422.6	126.76	117.02	46.868	7.6338e-06	58.972	0.01296	0.036255	0.011124	1298.2	0.00027927	0.00042327	1397.6	431.56	0.00027767	0.00041866	455.41	137.91	129.92	51.123	0.00032747	64.391	85.125	114.314	86.289	91.807	188.042	275.129	90.850	96.296	264.965	243.451	95.823	103.371	105.283	111.383	203.395	108.204	-8191	255	
18821.920	1	1	0	0	0.026106	0.19821	0.043693	0.29769	0.066484	0.073661	0.1986	0.2331	0.13833	0.16324	0.24741	0.29343	0.10122	0.20123	0.13707	0.076244	-4.5292	-4.2167	-4.8292	-4.7167	-4.2417	-4.7979	-4.5333	-4.625	-4.8208	-4.1021	-4.8125	-4.8521	-4.3458	-4.8917	-4.4167	-4.5771	391.411	344.075	114.535	385.438	280.354	175.267	376.732	387.224	287.650	285.835	394.239	414.673	432.375	79.074	84.157	298.656	0.0014774	0.00079455	0.00012481	1243	3.2315e-06	7.5742e-06	1347.9	412.58	1.0515e-05	2.303e-06	428.12	127.13	117.27	46.768	5.3326e-06	58.523	0.013033	0.036224	0.011359	1311.2	0.00028863	0.00043554	1415.6	439.95	0.00029381	0.00044252	463.52	138.65	130.15	51.237	0.00034575	64.03	81.298	186.263	94.117	91.727	228.305	175.177	90.806	96.381	274.528	180.047	95.725	103.263	105.082	111.217	215.947	108.384	-8191	255	
18822.016	1	1	0	0	0.24289	0.11557	0.23468	0.10885	0.17278	0.085021	0.17307	0.11319	0.053088	0.19523	0.21393	0.12299	0.24824	0.10944	0.068497	0.1062	-4.575	-4.3708	-4.5792	-4.9062	-4.1021	-4.8521	-4.875	-4.4875	-4.9167	-4.2292	-4.7125	-4.8042	-4.3208	-4.9792	-4.5521	-4.5208	118.827	161.317	132.890	78.585	148.601	433.345	426.128	198.921	373.272	127.377	297.098	247.813	355.196	433.978	244.365	136.326	0.0015519	0.00042672	0.00019906	1252.6	1.0337e-05	5.6973e-06	1356.1	412.04	1.4209e-05	1.0358e-05	424.22	125.27	115.63	45.818	6.8088e-06	57.49	0.014026	0.038472	0.011903	1327.4	0.00031116	0.00046305	1426.6	441	0.00030819	0.00045609	457.88	136.78	128.18	50.445	0.00032922	62.937	81.563	436.383	412.878	91.492	217.680	267.566	90.659	96.213	259.672	208.626	95.787	103.565	105.124	111.370	206.316	108.395	-8191	255	
18822.111	1	1	0	0	0.057177	0.12554	0.23798	0.19583	0.093083	0.21488	0.31319	0.23688	0.15631	0.052605	0.22294	0.080499	0.20966	0.10246	0.039728	0.16347	-4.3917	-4.1917	-4.6312	-4.8542	-4.3125	-4.7583	-4.6292	-4.6062	-4.7708	-4.4854	-4.6229	-4.8625	-4.4104	-4.9646	-4.5563	-4.3979	372.857	293.924	193.766	436.713	282.086	215.201	361.960	388.475	151.541	160.832	434.194	408.100	394.148	312.341	181.222	334.482	0.0015071	0.00057615	0.00035969	1174.5	5.4302e-06	5.1092e-06	1245.3	349.6	1.9966e-05	5.9919e-06	381.26	123.82	112.15	45.862	1.0751e-05	58.995	0.012752	0.03382	0.010442	1241.5	0.00024672	0.0003545	1306.5	372.41	0.00022076	0.00031388	406.56	132.47	122.03	49.727	0.00022413	63.209	82.543	182.600	121.937	91.918	217.426	262.844	91.214	98.226	197.037	219.564	97.369	104.086	106.094	111.411	212.360	108.251	-8191	255	
18822.207	1	1	0	0	0.38596	0.15586	0.25138	0.25349	0.21895	0.2053	0.10106	0.23755	0.17186	0.094655	0.031322	0.17865	0.24686	0.076795	0.095881	0.15998	-4.3375	-4.4167	-4.3417	-4.9375	-4.3688	-4.475	-4.7917	-4.4896	-5.0521	-4.375	-4.3688	-4.9875	-4.2063	-4.7833	-4.6312	-4.2458	128.597	119.378	182.507	420.050	401.715	118.802	372.941	299.148	256.377	350.100	311.327	220.853	374.208	343.670	279.433	434.054	0.0014707	0.00053638	0.00024651	1120	3.7723e-06	5.5993e-06	1214.9	348.39	1.9774e-05	8.2206e-06	382.63	126.05	114.7	46.994	7.5629e-06	59.497	0.0091654	0.023723	0.0077765	1176.5	0.00019246	0.00028168	1266.8	368.48	0.00021741	0.00028809	410.06	134.83	124.39	50.825	0.00023944	64.178	81.277	154.930	101.019	92.514	245.488	286.831	91.443	98.843	209.774	267.226	97.426	103.933	105.738	111.236	198.366	108.553	-8191	255	
18822.305	1	1	0	0	0.17549	0.16067	0.13648	0.26521	0.14565	0.20691	0.027479	0.14135	0.23048	0.19433	0.041079	0.1981	0.12187	0.2729	0.20881	0.2729	-4.3542	-4.5229	-4.375	-5.2083	-4.3208	-4.5583	-4.9458	-4.2583	-4.7792	-4.5542	-4.3688	-4.9625	-4.3417	-4.7125	-4.6937	-4.2063	139.537	384.523	215.007	403.610	168.836	88.778	383.373	390.700	165.114	373.532	329.637	414.405	406.354	360.871	131.359	383.307	0.0015356	0.00042669	0.00026781	1162.5	9.8827e-06	1.3915e-05	1264.3	370.53	1.5388e-05	4.0946e-06	404.83	127.69	116.78	47.497	1.1274e-05	59.745	0.0098916	0.026247	0.0089329	1221.9	0.00021984	0.00033318	1325.3	393.2	0.00026375	0.0003465	435.93	137.92	128.11	51.755	0.00029744	64.924	84.566	179.023	137.943	92.055	230.168	230.246	91.255	98.027	219.378	231.683	96.546	103.582	105.304	111.277	279.701	108.055	-8191	255	
18822.400	1	1	0	0	0.057816	0.2544	0.24239	0.26235	0.12039	0.12424	0.4419	0.25523	0.10425	0.12691	0.18297	0.20635	0.25198	0.33676	0.11114	0.27242	-4.3021	-4.5125	-4.1854	-5.0771	-4.1417	-4.5458	-4.9292	-4.3271	-4.7396	-4.5333	-4.375	-4.9292	-4.3313	-4.4375	-4.7354	-4.3625	414.822	379.883	304.195	417.970	400.346	130.400	388.901	383.193	153.753	318.281	413.983	108.695	87.323	104.385	390.364	384.110	0.0014225	0.0014843	0.00014076	1229.7	7.6184e-06	7.3819e-07	1335.7	421.45	2.1513e-05	8.988e-06	444.36	130.23	120.68	48.27	9.6417e-06	60.214	0.011858	0.032462	0.010278	1297	0.00026521	0.00040172	1404.8	447.1	0.00030463	0.00040828	478.2	141.26	132.78	52.79	0.00033591	65.518	89.908	131.595	138.891	91.897	155.145	120.665	90.935	96.276	240.785	259.054	95.422	103.058	104.898	111.066	161.939	107.845	-8191	255	
18822.520	1	1	0	0	0.04539	0.11118	0.057642	0.21204	0.22343	0.17947	0.19469	0.38198	0.16099	0.10615	0.13944	0.19859	0.13885	0.036161	0.10674	0.03544	-4.2646	-4.6354	-4.2063	-4.9354	-4.4771	-4.4563	-5.1312	-4.4458	-4.7312	-4.625	-4.2667	-4.8458	-4.5	-4.4042	-4.9187	-4.4604	211.653	108.425	384.607	412.459	261.370	361.702	383.034	366.345	376.069	255.381	393.160	396.232	421.091	113.738	384.777	368.112	0.0015556	0.0010276	6.0885e-05	1277.9	2.9163e-06	1.1683e-05	1381.7	457.8	2.1952e-05	1.1547e-05	467.51	130.71	122.13	48.387	8.3518e-06	59.94	0.013037	0.036482	0.010651	1354	0.00028377	0.00044078	1449.6	485.8	0.00031886	0.00044486	503.28	142.71	135.03	53.219	0.00035557	65.489	432.482	150.084	427.844	91.727	251.212	254.055	90.587	95.264	204.501	275.509	94.846	103.162	104.712	111.026	258.398	107.847	-8191	255	
18822.615	1	1	0	0	0.19588	0.12508	0.12085	0.27549	0.12257	0.098209	0.35703	0.28247	0.11577	0.0905	0.16299	0.23355	0.11376	0.28132	0.13844	0.2313	-4.3292	-4.65	-4.2104	-4.825	-4.5646	-4.2604	-5	-4.4146	-4.4187	-4.8938	-4.3229	-4.9042	-4.7625	-4.1333	-4.8333	-4.5604	104.749	315.522	137.560	382.451	255.601	388.974	355.410	360.203	88.430	407.636	373.826	414.118	418.971	99.690	368.469	371.335	0.001678	0.00055228	0.00014544	1298.3	6.4358e-06	6.7785e-06	1393.6	459.45	2.9273e-05	2.86e-06	458.58	130.45	121.35	48.222	1.0656e-05	59.88	0.013763	0.038608	0.011059	1376	0.00030206	0.00046374	1468.5	487.25	0.00034379	0.0004737	495.64	142	134.46	52.917	0.00037345	65.408	85.487	205.176	170.947	91.610	301.141	273.934	90.623	95.226	223.068	156.673	95.092	103.038	104.698	110.980	222.844	108.086	-8191	255	
18822.711	1	1	0	0	0.11409	0.14062	0.22094	0.21329	0.089277	0.071029	0.35816	0.25556	0.18656	0.32007	0.22292	0.093995	0.090646	0.14005	0.18625	0.08019	-4.2479	-4.5938	-4.3667	-4.7583	-4.5854	-4.05	-5.0271	-4.5896	-4.4771	-4.9083	-4.45	-4.7479	-4.6417	-4.3479	-4.8167	-4.5042	346.984	162.523	89.700	372.589	205.996	218.002	422.540	339.334	195.860	105.241	373.743	80.623	269.808	98.240	207.020	403.961	0.0017229	0.0011119	0.00026666	1284.9	1.2714e-05	1.3841e-05	1374.6	441.78	1.492e-05	4.1624e-06	447.37	129.58	121.28	48.221	1.0808e-05	59.99	0.013973	0.039034	0.010844	1362.8	0.00029987	0.00045497	1450	469.71	0.00032699	0.00045395	482.58	141.63	133.96	52.731	0.00037607	65.596	88.347	146.677	180.769	91.655	222.573	190.887	90.820	95.611	203.411	277.747	95.276	103.400	104.818	111.007	206.892	108.183	-8191	255	
18822.807	1	1	0	0	0.1105	0.094745	0.11471	0.11526	0.038342	0.17596	0.25116	0.31234	0.16441	0.20917	0.029623	0.18312	0.19169	0.10601	0.062651	0.1463	-3.9125	-4.8146	-4.2333	-4.8021	-4.7271	-4.0417	-5.0312	-4.5458	-4.3375	-4.9375	-4.55	-4.5896	-4.7208	-4.3167	-4.75	-4.6396	285.631	283.127	339.618	316.263	116.330	197.908	348.944	89.921	150.521	101.716	85.668	347.916	95.471	329.450	152.918	420.172	0.0017119	0.00084273	0.00015409	1272.9	6.8851e-06	1.0416e-05	1362.7	425.9	1.5728e-05	1.7071e-05	440.24	130.24	120.62	48.051	5.0354e-06	60.499	0.013758	0.037832	0.010469	1347.7	0.00029468	0.00044187	1433.8	452.76	0.00032685	0.00044095	474.25	141.64	133.59	52.558	0.00037111	65.842	78.649	138.595	219.156	91.565	134.397	202.977	90.772	96.096	243.809	213.206	95.621	103.489	105.046	111.124	116.630	107.860	-8191	255	
18822.879	1	1	0	0	0.15844	0.22333	0.15886	0.074811	0.2467	0.11145	0.20786	0.18859	0.12622	0.074532	0.23623	0.074582	0.43628	0.12947	0.2022	0.16072	-3.9208	-4.8083	-4.2854	-4.7021	-4.75	-4.2396	-4.7646	-4.6312	-4.1521	-4.875	-4.6271	-4.2208	-4.9187	-4.4	-4.5604	-4.7146	343.077	123.969	322.619	100.172	149.087	334.679	342.110	370.152	189.504	431.009	375.891	321.801	352.250	397.617	182.784	105.156	0.0016171	0.001148	0.00028263	1274.5	1.6552e-05	1.1475e-05	1362.9	433.25	1.111e-05	1.2293e-05	444.72	129.82	120.02	47.933	9.2736e-06	60.233	0.013665	0.037195	0.010363	1347.7	0.00029709	0.00043822	1433.6	460.58	0.00031546	0.00045033	478.75	141.54	133.41	52.562	0.0003785	65.517	79.938	190.906	200.457	91.731	183.514	211.087	90.746	95.920	268.113	244.029	95.224	103.171	105.054	111.224	136.076	108.091	-8191	255	
18822.998	1	1	0	0	0.16264	0.085266	0.10743	0.15252	0.14366	0.09531	0.21058	0.14582	0.18859	0.10129	0.37612	0.23114	0.11989	0.23952	0.10235	0.17428	-3.9396	-4.7604	-4.4354	-4.5521	-4.7958	-4.2479	-4.8688	-4.8542	-4.1896	-4.825	-4.7125	-4.4021	-4.8292	-4.3958	-4.5021	-4.6813	227.310	362.828	283.715	404.648	152.878	99.808	365.001	319.466	101.669	93.785	433.611	334.007	273.513	83.617	424.215	437.037	0.0015776	0.00084201	0.00028633	1262.3	1.1284e-05	1.5908e-06	1353.3	413.93	1.5515e-05	2.1226e-05	426.47	127.68	117.79	47.73	1.1629e-05	60.036	0.013474	0.036776	0.010095	1338	0.00028825	0.00041714	1418.7	440.02	0.00027994	0.00045484	456.62	139.31	130.49	51.935	0.00034174	65.121	88.788	146.748	128.636	91.632	222.975	296.311	90.840	96.390	232.852	209.884	96.067	103.492	105.211	111.298	139.816	107.899	-8191	255	
18823.096	1	1	0	0	0.17951	0.17254	0.056124	0.20584	0.085732	0.095223	0.44247	0.24604	0.086789	0.23217	0.31339	0.09937	0.14664	0.16382	0.051891	0.16989	-3.8646	-4.6375	-4.4896	-4.4708	-4.8104	-4.3208	-4.7979	-4.9	-4.2396	-4.7104	-4.7208	-4.3438	-4.9292	-4.2708	-4.3292	-4.9292	252.073	406.931	300.987	92.406	191.215	168.499	383.936	390.191	80.920	436.012	415.900	265.405	146.680	430.193	252.350	422.767	0.0016354	0.00064911	0.00026116	1245.2	1.1582e-05	1.2174e-05	1329.8	391.97	6.2131e-06	1.5581e-05	414.46	128.93	118.53	47.942	8.9318e-07	60.627	0.012296	0.033146	0.0093961	1313.9	0.00026273	0.00038101	1391.6	416.14	0.00025912	0.0004259	445.88	139.44	130.24	52.12	0.00033912	65.603	80.609	166.431	142.820	91.793	250.377	219.153	90.905	97.480	303.184	300.638	96.624	103.653	105.398	111.330	436.931	108.159	-8191	255	
18823.191	1	1	0	0	0.15865	0.22085	0.23585	0.26932	0.20461	0.11228	0.14981	0.23494	0.13674	0.20264	0.21325	0.23703	0.15975	0.25345	0.11206	0.17347	-3.9146	-4.7354	-4.4083	-4.4812	-4.8438	-4.2188	-4.6062	-4.85	-4.2708	-4.6854	-4.7542	-4.3063	-4.7875	-4.5396	-4.175	-4.9542	383.223	429.083	162.916	407.454	286.679	318.597	287.048	345.819	220.709	429.740	430.049	385.985	85.536	83.447	260.864	118.184	0.0016813	0.00097669	0.00012822	1240.5	5.5341e-06	7.0983e-06	1328.9	393.52	8.5455e-06	7.0345e-06	415.96	129.52	119.46	48.241	1.077e-05	60.837	0.011904	0.032118	0.0092856	1310.9	0.00026581	0.00038105	1394.6	417.76	0.00025657	0.00043506	448.36	140.3	130.99	52.293	0.00034245	65.905	87.717	179.348	189.823	91.776	209.508	244.924	90.892	97.259	240.982	281.339	96.475	103.515	105.573	111.197	165.089	108.025	-8191	255	
18823.312	1	1	0	0	0.029891	0.19152	0.052412	0.30708	0.087467	0.25966	0.12637	0.4126	0.34822	0.14325	0.15873	0.089837	0.16158	0.29988	0.16099	0.23983	-3.9479	-4.4812	-4.6667	-4.2896	-4.7208	-4.5625	-4.5625	-5.0375	-4.3313	-4.3792	-4.8229	-4.3688	-4.7042	-4.5958	-4.3229	-5.1417	309.290	166.542	391.615	354.600	216.331	321.553	328.178	395.265	222.686	324.776	110.645	299.451	124.574	380.902	314.537	368.775	0.0015795	0.00054108	0.00010795	1238.5	2.0883e-05	7.1107e-06	1326.3	390.64	1.5157e-05	3.4942e-06	412.38	129.44	120.04	48.324	5.1343e-06	60.755	0.011981	0.032823	0.0094786	1306.2	0.00028773	0.00038848	1390.7	415.87	0.00025794	0.00043016	444.77	140.24	130.87	52.413	0.00034655	65.853	436.931	164.162	178.057	91.983	221.835	186.742	90.959	97.349	169.221	302.153	96.756	103.658	105.479	111.335	121.468	108.110	-8191	255	
18823.406	1	1	0	0	0.086297	0.17022	0.082821	0.2114	0.13592	0.027312	0.18215	0.22032	0.17499	0.045261	0.087689	0.17658	0.1323	0.23145	0.039632	0.37518	-4.075	-4.4208	-4.7875	-4.5708	-4.7583	-4.4375	-4.4167	-4.9667	-4.4146	-4.5104	-4.8083	-4.425	-4.6917	-4.6562	-4.2417	-4.7708	150.602	219.194	341.934	386.552	410.695	434.072	86.384	385.266	344.268	261.958	190.141	115.387	93.433	391.821	340.810	352.910	0.0015627	0.0009535	9.4621e-05	1225.7	1.9207e-05	8.1653e-06	1312.5	386.34	1.3386e-05	1.029e-05	414.24	129	119.89	48.464	2.4207e-06	60.862	0.011797	0.03287	0.0093639	1293.8	0.00028531	0.00038752	1377.1	411.33	0.00025646	0.00044518	445.55	139.96	131.28	52.694	0.00033369	66.019	82.671	183.092	391.697	91.834	233.952	206.237	91.386	97.633	210.288	266.157	96.595	103.534	105.397	110.991	317.702	107.744	-8191	255	
18823.480	1	1	0	0	0.15917	0.22713	0.1085	0.11168	0.18907	0.14118	0.43044	0.28832	0.053663	0.091617	0.04616	0.19759	0.27784	0.17793	0.069457	0.34795	-4.1667	-4.2771	-4.7604	-4.3562	-4.6125	-4.6854	-4.3271	-4.8833	-4.4667	-4.3313	-4.9646	-4.425	-4.6542	-4.7875	-4.2792	-4.8313	324.342	323.196	205.673	373.426	398.026	316.483	399.860	421.249	157.779	329.299	110.678	100.456	396.335	422.558	177.771	359.235	0.0016807	0.0010003	0.00020899	1234.8	1.9834e-05	5.5515e-06	1323.5	390.85	1.5981e-05	9.3789e-06	414.41	129.83	120.04	48.519	6.1238e-06	60.779	0.01216	0.03421	0.009703	1300.4	0.00030138	0.00040636	1388.6	415.93	0.00026642	0.00045136	446.34	140.4	131.58	52.669	0.00031685	66.303	80.293	189.625	258.141	91.783	208.158	203.596	91.066	97.494	236.359	321.139	96.471	103.781	105.554	111.204	270.323	108.181	-8191	255	
18823.600	1	1	0	0	0.19799	0.071064	0.14544	0.082638	0.075638	0.11698	0.22279	0.072212	0.062061	0.050664	0.19603	0.282	0.2748	0.13537	0.091364	0.32818	-4.2312	-4.2854	-4.8938	-4.3854	-4.4062	-4.7063	-4.5021	-4.9	-4.5458	-4.1729	-4.9625	-4.4021	-4.5062	-4.925	-4.2021	-4.7312	357.021	299.199	151.834	373.308	219.792	385.373	393.925	241.579	171.148	203.979	384.105	358.187	402.127	420.570	359.264	414.748	0.001744	0.00067287	0.0002101	1226.9	2.2736e-05	2.6353e-06	1317.4	387.3	5.6854e-06	1.1001e-05	410.91	129.94	119.93	48.367	6.7897e-06	60.804	0.01223	0.034285	0.009608	1293.3	0.00029412	0.00040259	1380.4	411.13	0.00026624	0.00045318	443.85	140.35	131.52	52.668	0.00031225	66.444	435.722	131.709	193.230	91.858	233.449	145.293	91.092	97.654	252.086	318.150	96.658	103.678	105.565	111.188	244.302	107.983	-8191	255	
18823.695	1	1	0	0	0.12512	0.21321	0.042522	0.098219	0.1582	0.17896	0.32209	0.29409	0.097387	0.20728	0.098233	0.20035	0.095501	0.18881	0.26633	0.048461	-4.3479	-4.1604	-4.725	-4.55	-4.3938	-4.65	-4.2625	-4.8167	-4.5958	-4.2875	-4.8542	-4.6625	-4.3	-4.8479	-4.2083	-4.5271	402.796	187.034	198.911	401.957	272.443	229.462	356.459	378.537	123.499	310.930	82.864	188.898	383.674	98.005	89.143	135.741	0.0016259	0.00055439	0.00021212	1229.7	2.0686e-05	5.6744e-06	1321.4	390.34	2.3074e-06	9.1703e-06	417.66	129.75	119.09	48.468	1.1057e-05	61.126	0.012355	0.034475	0.0095978	1298.4	0.00030679	0.0004094	1387.5	414.89	0.00027273	0.00043174	449.1	140.89	131.66	52.668	0.00031467	66.641	437.696	184.714	255.006	91.851	235.287	311.244	91.152	97.526	123.523	304.710	96.457	103.697	105.374	111.349	249.213	108.047	-8191	255	
18823.791	1	1	0	0	0.11869	0.11422	0.032355	0.30525	0.073796	0.1754	0.32946	0.24824	0.0011051	0.24856	0.14944	0.24589	0.17058	0.14073	0.18857	0.066031	-4.4563	-4.0125	-4.8812	-4.6292	-4.2208	-4.9417	-4.4271	-4.5896	-4.8167	-4.1229	-4.8542	-4.6375	-4.4	-5.0625	-4.3229	-4.5312	121.774	393.112	89.823	435.857	82.009	367.043	343.013	391.248	180.000	387.813	359.692	410.792	435.002	388.068	209.091	385.594	0.0014076	0.0004545	0.00018218	1235	1.4091e-05	7.9208e-06	1323.5	389.54	1.6268e-05	1.1577e-05	413.38	129.39	119.56	48.351	9.3919e-06	60.666	0.012674	0.034975	0.0097126	1303.7	0.00030611	0.00041097	1387.6	414.15	0.0002739	0.00040568	446.61	140.03	131.11	52.475	0.00030518	66.193	91.265	399.247	186.643	91.856	221.892	273.023	91.043	97.444	217.562	251.616	96.773	103.705	105.606	111.217	256.475	108.129	-8191	255	
18823.912	1	1	0	0	0.26948	0.11779	0.16618	0.10711	0.14901	0.098391	0.10682	0.24244	0.11099	0.076239	0.11164	0.077369	0.12203	0.04362	0.11955	0.27593	-4.3646	-4.2188	-4.5896	-4.7854	-4.1292	-4.8729	-4.5	-4.4854	-4.5958	-4.2771	-4.825	-4.5958	-4.2812	-4.9646	-4.4625	-4.35	336.939	395.809	119.128	413.882	333.431	342.731	375.736	396.810	136.278	422.970	287.180	420.375	224.248	127.596	214.289	339.748	0.0014156	0.0016589	0.00012653	1227.9	1.7396e-05	7.7665e-06	1315.8	388.77	8.5779e-06	3.3268e-06	410.89	129.07	120.04	48.252	1.1635e-05	60.631	0.01235	0.033586	0.0094829	1295.1	0.00030399	0.00039428	1379.6	413.32	0.00026587	0.00039239	445.2	139.94	131.07	52.447	0.000302	66.24	435.275	203.638	204.765	91.922	191.324	282.159	91.216	97.629	173.209	248.369	96.702	103.528	105.633	111.426	219.063	108.082	-8191	255	
18824.008	1	1	0	0	0.040066	0.063699	0.13243	0.19436	0.1503	0.09988	0.21802	0.19694	0.28234	0.11689	0.22646	0.17948	0.16443	0.038533	0.31245	0.29475	-4.3625	-4.1521	-4.6042	-4.9479	-3.9729	-4.9979	-4.5667	-4.5	-4.7333	-4.3229	-4.7604	-4.8396	-4.3479	-4.8208	-4.4083	-4.525	99.742	306.937	92.992	380.608	180.149	314.303	392.125	326.132	220.790	343.404	409.944	185.057	174.967	315.931	218.183	290.714	0.0016797	0.00047307	0.00025935	1222.4	9.1802e-06	7.2517e-06	1310.9	382.73	1.3232e-05	5.4357e-06	408.13	129.31	119.14	48.231	1.2156e-05	60.515	0.012237	0.032333	0.009376	1289.6	0.0002773	0.00040277	1371.7	407.96	0.00026257	0.00038126	442.27	139.72	130.35	52.391	0.00029948	66.194	439.605	163.763	219.722	91.863	219.807	203.925	91.059	97.850	187.336	266.339	96.621	103.877	105.514	111.355	192.138	108.046	-8191	255	
18824.104	1	1	0	0	0.11819	0.1424	0.15621	0.33121	0.097745	0.065909	0.17591	0.19979	0.28258	0.088092	0.28607	0.12134	0.13363	0.28865	0.19157	0.23273	-4.3854	-4.2958	-4.4875	-4.9625	-4.1562	-4.7625	-4.775	-4.3208	-4.7438	-4.3187	-4.5625	-4.6875	-4.1917	-4.85	-4.5292	-4.2625	128.042	208.421	286.564	406.406	131.332	187.528	375.806	336.365	146.975	146.892	379.976	395.498	395.157	91.375	392.797	332.534	0.0014431	0.00087033	0.00026811	1216	1.3123e-05	1.9618e-05	1309.8	382.22	1.7089e-05	1.2973e-05	408.48	129.19	118.57	48.35	7.2575e-06	61.203	0.011988	0.032013	0.0093419	1283	0.00026079	0.00044047	1371.3	405.83	0.00026049	0.0003866	442.31	140.05	130.45	52.427	0.00030569	66.559	88.486	186.306	102.799	91.958	218.032	225.714	91.289	97.890	234.277	194.652	97.088	103.906	105.639	111.109	215.509	108.173	-8191	255	
18824.176	1	1	0	0	0.19935	0.074286	0.12946	0.14644	0.10996	0.21492	0.37351	0.09574	0.082234	0.07796	0.27793	0.21248	0.27099	0.16184	0.19086	0.27618	-4.4187	-4.4688	-4.4062	-4.9042	-4.0542	-4.5458	-4.7188	-4.2812	-4.7312	-4.4146	-4.4146	-4.9646	-4.2167	-4.6562	-4.6458	-4.1875	314.908	213.733	174.439	363.069	150.568	425.648	339.752	126.608	261.086	400.875	390.542	85.895	401.755	92.939	96.408	373.341	0.0016325	0.00076629	0.0001021	1214.3	7.9838e-06	9.5294e-06	1302.7	382.94	1.5945e-05	1.0233e-05	410.91	128.96	119.8	48.706	7.5546e-06	61.118	0.01193	0.032151	0.0092963	1280.2	0.00025102	0.00041782	1364.8	406.34	0.00024616	0.00036974	443.49	140.34	130.62	52.632	0.00029428	66.409	91.321	175.297	218.561	91.990	133.816	171.813	91.377	97.766	178.352	221.180	96.753	103.767	105.512	111.126	287.295	108.086	-8191	255	
18824.297	1	1	0	0	0.21595	0.08197	0.091948	0.17403	0.088149	0.18595	0.30189	0.1747	0.11409	0.098565	0.23004	0.1338	0.23906	0.14097	0.18005	0.031986	-4.2875	-4.2042	-4.3104	-4.9375	-4.225	-4.4	-4.7396	-4.3375	-4.7708	-4.4125	-4.425	-4.7917	-4.4167	-4.5604	-4.7021	-4.2438	287.415	374.385	283.292	438.564	123.934	157.444	363.301	395.871	279.359	407.153	363.277	248.350	406.860	102.803	436.702	359.676	0.0017639	0.00084846	0.000245	1217.5	1.1106e-05	1.1967e-05	1307.3	383.49	8.9711e-06	5.8192e-06	408.02	128.44	118.75	48.292	2.9471e-06	60.28	0.01203	0.031297	0.0091687	1284.3	0.0002483	0.0004333	1371.1	407.25	0.00025055	0.00037931	441.23	139.09	129.97	52.329	0.00030146	65.611	438.808	172.741	120.163	91.826	225.686	286.917	91.159	97.549	226.017	256.144	96.881	103.715	105.635	111.150	312.792	108.199	-8191	255	
18824.393	1	1	0	0	0.035857	0.17507	0.2341	0.21255	0.13896	0.29806	0.092526	0.23308	0.15161	0.13552	0.10417	0.19109	0.12283	0.23228	0.025632	0.11697	-4.2979	-4.3729	-4.2375	-5.0417	-4.2771	-4.4083	-5.0604	-4.2292	-4.7812	-4.6521	-4.2083	-5.0333	-4.3583	-4.6146	-4.8729	-4.3271	202.425	93.416	401.408	311.536	187.354	196.873	358.759	399.042	184.383	401.854	202.094	426.443	113.992	120.725	267.437	338.486	0.0016032	0.0002439	9.4581e-05	1218.9	1.5052e-05	1.7367e-05	1303.9	379.25	8.4618e-06	1.7532e-06	406.35	128.59	117.71	48.026	1.846e-05	60.122	0.013327	0.032718	0.0093575	1285.4	0.00025815	0.00043547	1367.6	402.93	0.00026195	0.00039587	438.74	139.11	129.49	52.074	0.00030542	65.288	438.477	124.191	308.272	91.975	197.244	266.179	91.000	97.949	178.433	158.639	97.144	103.743	105.855	111.319	223.170	108.070	-8191	255	
18824.486	1	1	0	0	0.15365	0.13096	0.015755	0.11642	0.29241	0.11533	0.1652	0.27267	0.22653	0.14911	0.1935	0.14149	0.17238	0.073937	0.099383	0.060792	-4.3375	-4.4917	-4.1875	-4.95	-4.3187	-4.4042	-5.0542	-4.4354	-4.3979	-4.6104	-4.375	-4.9542	-4.4667	-4.45	-4.8063	-4.2583	258.652	107.831	196.160	347.903	149.023	389.285	276.691	335.789	251.222	122.343	359.682	404.019	355.931	430.212	356.552	211.363	0.0016356	0.00014566	0.00019361	1208.3	9.592e-06	1.2644e-05	1294.9	375.25	1.5223e-05	2.1517e-06	404.36	127.98	118.6	48.265	9.5805e-06	60.551	0.013243	0.033146	0.0093182	1273.4	0.0002563	0.00044109	1359.9	397.83	0.00025611	0.00038913	436.03	139.44	129.9	52.439	0.00030449	65.72	429.646	392.923	141.335	91.937	259.585	301.127	91.286	97.904	186.030	249.567	97.090	103.602	105.686	111.317	194.359	108.184	-8191	255	
18824.582	1	1	0	0	0.17859	0.13528	0.16792	0.34842	0.10558	0.061231	0.23791	0.041413	0.091028	0.0031638	0.1712	0.17543	0.18873	0.081242	0.24649	0.051296	-4.2312	-4.6833	-4.0708	-4.7979	-4.4458	-4.0625	-5.0417	-4.5021	-4.3458	-4.8458	-4.2979	-4.7417	-4.5292	-4.4625	-4.7104	-4.4437	215.931	381.110	140.420	409.867	345.984	81.495	96.903	297.328	190.624	240.927	257.047	419.682	117.981	123.819	298.871	112.126	0.0016729	0.00064975	0.00023631	1216.5	9.0035e-06	1.0686e-05	1311.7	381.37	1.4236e-05	7.1458e-06	408.93	128.92	118.61	48.25	1.0121e-05	60.818	0.013707	0.033373	0.0093392	1284.5	0.00026371	0.00044102	1374.9	404.72	0.00026819	0.00040288	440.02	140.9	130.72	52.474	0.00031352	65.929	437.640	191.850	188.641	92.119	219.038	276.240	90.870	97.821	216.414	217.500	97.068	103.695	105.471	111.504	198.947	108.072	-8191	255	
18824.703	1	1	0	0	0.1227	0.18155	0.066938	0.32893	0.2736	0.097259	0.18855	0.2153	0.056363	0.084823	0.1748	0.16987	0.12311	0.14689	0.1105	0.20027	-4.0229	-4.8417	-4.1875	-4.8729	-4.65	-4.1167	-4.8521	-4.4667	-4.3854	-4.8125	-4.3083	-4.7354	-4.7125	-4.2333	-4.5771	-4.4854	379.944	332.590	256.349	392.867	294.948	372.939	316.109	387.182	180.382	139.460	430.187	372.466	113.418	417.159	79.969	303.957	0.0015501	0.00054733	0.00022679	1229.2	1.2221e-05	2.8593e-06	1319.7	384.22	4.8365e-06	1.4664e-05	411.52	128.77	119.18	47.997	1.0108e-05	60.064	0.013949	0.034645	0.0096346	1299.5	0.00027512	0.00046216	1387.9	409.16	0.00027873	0.00041266	442.49	140.7	130.96	52.26	0.00031411	65.61	81.859	159.948	187.846	91.905	232.788	394.628	90.891	97.797	259.023	242.989	97.009	103.638	105.594	111.384	184.249	108.235	-8191	255	
18824.775	1	1	0	0	0.23943	0.12981	0.061187	0.23966	0.1468	0.12204	0.23425	0.18912	0.30995	0.14509	0.43414	0.19166	0.32031	0.20429	0.068909	0.23185	-4.15	-4.7208	-4.3313	-4.7646	-4.5146	-4.1271	-4.9062	-4.7167	-4.4417	-4.8229	-4.2354	-4.7167	-4.7417	-4.3542	-4.6271	-4.6458	294.893	404.503	306.003	80.405	232.153	111.042	418.427	325.682	189.091	349.016	387.158	114.187	340.974	415.804	395.222	413.207	0.0016852	0.00087592	0.00026778	1229.3	7.6146e-06	1.1521e-05	1316.5	379.49	5.259e-06	8.215e-06	407.5	128.1	117.93	47.966	8.4319e-06	60.052	0.014296	0.03447	0.0096618	1298.1	0.00026992	0.00041365	1384	405.15	0.00026571	0.00039123	437.47	139.79	129.55	52.032	0.00029407	65.27	434.999	176.970	207.413	91.946	213.509	313.386	91.031	97.682	351.226	226.097	97.042	103.700	105.419	111.453	201.371	108.140	-8191	255	
18824.871	1	1	0	0	0.222	0.11154	0.045131	0.3349	0.26234	0.1566	0.27181	0.19458	0.13232	0.11224	0.14267	0.092885	0.19332	0.17551	0.13901	0.24324	-4.0729	-4.8458	-4.2	-4.5896	-4.7812	-4.1271	-4.7521	-4.7417	-4.1646	-4.5938	-4.4313	-4.5333	-4.7521	-4.3729	-4.7167	-4.7271	124.359	209.117	321.422	388.231	347.203	163.466	98.794	426.912	400.418	299.323	323.821	408.481	97.569	431.956	95.296	432.110	0.0018294	0.00087678	0.00026948	1218.2	1.0096e-05	1.2807e-05	1304	375.21	1.8606e-05	6.7569e-06	403.28	127.92	117.14	47.787	1.1717e-05	59.979	0.013174	0.031842	0.0089238	1282.4	0.00025238	0.00037151	1368.9	398.62	0.00024925	0.00036537	431.37	138.51	128.35	51.696	0.0002818	64.969	438.475	206.143	154.784	91.919	278.912	267.202	91.088	98.194	202.184	173.563	97.031	103.833	105.694	111.335	208.571	108.269	-8191	255	
18824.992	1	1	0	0	0.19717	0.12253	0.10446	0.17528	0.26398	0.057996	0.14713	0.060327	0.11946	0.14598	0.097865	0.064094	0.16854	0.10516	0.066125	0.28698	-3.8271	-4.8438	-4.2979	-4.5167	-4.7396	-4.0188	-4.7708	-4.7312	-4.2667	-4.6479	-4.6333	-4.3812	-4.8688	-4.3646	-4.5479	-4.8688	246.857	130.335	91.068	420.021	410.549	120.115	330.463	91.669	358.198	177.529	310.249	173.337	366.187	425.702	348.848	311.342	0.0015095	0.00047018	0.00024919	1204.8	7.9687e-06	1.8508e-05	1291	372.02	9.6735e-06	7.9507e-06	401.69	127.18	117.21	47.55	9.7233e-06	59.847	0.012687	0.030261	0.0086184	1271.4	0.00024045	0.00035354	1359.5	395.12	0.0002389	0.00035553	430.16	138.57	127.9	51.536	0.00028486	64.942	81.424	195.919	148.820	92.079	274.077	211.012	91.386	97.848	204.037	217.712	96.927	103.721	105.565	111.444	240.458	108.132	-8191	255	
18825.088	1	1	0	0	0.05563	0.078921	0.22072	0.41646	0.036277	0.069952	0.2022	0.02667	0.19846	0.1547	0.087224	0.12045	0.16085	0.17245	0.086264	0.31099	-3.8083	-4.6917	-4.4375	-4.4917	-4.9167	-4.175	-4.7125	-4.8125	-4.2188	-4.6521	-4.7688	-4.2937	-4.8688	-4.1625	-4.5021	-4.6604	84.752	311.776	358.038	415.750	123.768	301.079	368.250	305.194	182.627	240.432	436.074	415.648	403.419	315.487	151.953	405.501	0.0015634	0.00093568	1.5213e-05	1205	1.5691e-06	1.2421e-05	1297.5	372.01	1.3938e-05	7.3875e-06	400.64	127.23	116.09	47.552	7.4607e-06	59.572	0.011461	0.032247	0.0086584	1271.7	0.00023948	0.00036051	1363.9	395.39	0.00024148	0.00036491	431.63	138.46	127.86	51.492	0.00029095	64.825	438.536	154.775	109.800	91.692	253.403	221.499	91.109	97.979	234.027	222.134	97.219	103.645	105.603	111.354	247.654	108.250	-8191	255	
18825.186	1	1	0	0	0.16549	0.17993	0.13418	0.33348	0.082569	0.096922	0.20544	0.27987	0.10095	0.041743	0.17843	0.11394	0.057567	0.20925	0.23389	0.25579	-3.8729	-4.5604	-4.3646	-4.4396	-4.7104	-4.2771	-4.5708	-4.8458	-4.1042	-4.55	-4.7625	-4.2896	-4.8979	-4.4042	-4.3688	-4.7958	133.139	223.655	123.373	82.985	353.878	256.638	420.585	366.552	179.411	403.916	338.126	381.699	187.740	418.520	316.936	363.708	0.0014329	0.0012424	0.00019252	1212.4	1.0285e-05	7.7534e-06	1293.2	370.7	1.9063e-05	8.3409e-06	398.34	126.7	116.51	47.405	6.8573e-06	59.62	0.011154	0.035456	0.0088776	1274.6	0.00024155	0.00036191	1361.5	393.37	0.00023901	0.00036575	428.05	137.66	127.22	51.286	0.00028809	64.478	84.145	135.981	161.281	91.907	241.673	189.672	91.163	97.858	203.321	221.948	96.987	103.495	105.665	111.124	239.120	108.189	-8191	255	
18825.281	1	1	0	0	0.40071	0.19975	0.19606	0.095309	0.1793	0.15653	0.19565	0.44089	0.15103	0.12243	0.28638	0.17265	0.14893	0.056697	0.041154	0.27211	-3.8479	-4.4771	-4.6229	-4.4375	-4.6	-4.5062	-4.5708	-4.9292	-4.2417	-4.4938	-4.7396	-4.1208	-4.7979	-4.3854	-4.3167	-4.8042	99.174	276.267	123.841	366.867	401.231	216.475	389.531	85.575	199.364	85.643	349.901	245.192	136.488	433.029	336.840	394.226	0.0015123	0.0015889	0.0002352	1202	1.3514e-05	4.5489e-06	1288.6	368.77	1.4997e-05	8.2451e-06	397.76	125.96	116.73	47.539	1.2164e-05	59.717	0.011043	0.034272	0.0086866	1267.6	0.00023879	0.00036299	1356.8	391.82	0.00023483	0.00036448	426.4	136.41	127.82	51.441	0.00028527	64.766	84.439	140.547	196.160	91.946	211.714	274.899	91.010	98.076	105.108	292.083	97.055	103.652	105.468	111.422	248.653	108.230	-8191	255	
18825.377	1	1	0	0	0.11891	0.26761	0.02743	0.082827	0.15548	0.10685	0.43134	0.27737	0.097024	0.27492	0.26215	0.13993	0.070766	0.19948	0.17092	0.21357	-3.9875	-4.35	-4.85	-4.2521	-4.8396	-4.5021	-4.3875	-4.8104	-4.2063	-4.4667	-4.7167	-4.2312	-4.8375	-4.4563	-4.2854	-4.8875	274.805	226.899	390.599	283.985	413.523	433.714	374.560	321.408	175.186	414.314	330.382	138.819	286.771	99.496	160.145	150.943	0.0014865	0.001191	0.00011586	1214.7	1.103e-05	3.7274e-06	1300.2	377.81	1.6827e-05	2.1901e-06	401.42	126.55	116.93	47.386	1.5918e-05	59.825	0.011213	0.035855	0.0088786	1278.7	0.0002473	0.00037838	1370.3	400.89	0.0002474	0.0003769	432.47	137.03	129.26	51.574	0.00029331	64.838	81.178	165.868	368.666	91.819	273.450	298.849	91.146	98.058	188.031	142.284	96.937	103.802	105.680	111.154	231.570	107.929	-8191	255	
18825.473	1	1	0	0	0.15041	0.25235	0.14709	0.23655	0.25692	0.11003	0.26849	0.25394	0.23821	0.084411	0.13162	0.14095	0.16697	0.17386	0.19386	0.0685	-3.9417	-4.2292	-4.7417	-4.3146	-4.4812	-4.4542	-4.3271	-5.0542	-4.4229	-4.4563	-4.9979	-4.2292	-4.7667	-4.7312	-4.0979	-4.7292	431.921	326.078	83.992	361.916	165.093	329.728	344.916	397.037	410.833	84.431	357.030	405.421	247.937	423.307	334.140	111.138	0.0015661	0.00080923	0.00019729	1225.5	1.1088e-05	5.7041e-06	1314.4	388.08	4.4741e-06	3.2925e-06	411.01	128.44	118.06	47.801	7.254e-06	59.946	0.01152	0.036148	0.009063	1291	0.00025926	0.00038979	1383.2	412.3	0.00026073	0.00039199	441.14	138.45	130.58	52.012	0.00030416	65.236	85.286	157.666	183.099	91.829	224.362	217.066	91.088	97.450	195.321	133.485	96.692	103.626	105.280	111.445	280.198	108.096	-8191	255	
18825.592	1	1	0	0	0.16375	0.046089	0.2018	0.26193	0.18844	0.064718	0.26505	0.30827	0.14685	0.10841	0.13114	0.061121	0.14993	0.26924	0.13025	0.11373	-4.1896	-4.35	-4.7646	-4.3708	-4.5625	-4.6562	-4.4625	-4.7167	-4.4062	-4.3667	-4.9	-4.2646	-4.5687	-4.8229	-4.1125	-4.75	361.051	405.356	259.590	390.244	82.686	346.646	383.233	386.494	194.450	353.402	380.595	106.388	386.241	357.166	355.484	390.769	0.001667	0.0011826	0.00024274	1235	7.932e-06	4.1834e-06	1322.2	392.04	1.1918e-05	3.3796e-06	414.77	128.32	118.49	47.911	2.3265e-06	60.078	0.012285	0.037703	0.0094491	1301.8	0.00026786	0.00040098	1391.4	418.28	0.00026903	0.00040189	446.14	139.08	131.57	52.267	0.00031348	65.421	433.617	176.532	196.454	91.774	240.917	235.083	90.845	97.365	275.177	93.535	96.318	103.399	105.171	111.350	159.934	108.306	-8191	255	
18825.688	1	1	0	0	0.074477	0.27165	0.070237	0.20733	0.041827	0.049955	0.21659	0.21463	0.20324	0.037127	0.032678	0.15053	0.16187	0.24586	0.036718	0.35153	-4.2042	-4.2521	-4.7667	-4.5521	-4.3854	-4.7146	-4.2792	-4.9021	-4.3375	-4.2708	-4.925	-4.6062	-4.4604	-4.875	-4.2271	-4.6167	410.466	111.190	114.727	435.038	419.293	143.748	424.971	348.866	329.973	169.932	429.202	435.087	431.971	435.356	425.701	353.964	0.0013869	0.0018754	0.00032993	1247.9	9.6022e-06	4.1025e-06	1331.9	395.1	1.5663e-05	5.8894e-06	415.62	128.39	118.79	47.99	4.2828e-06	59.723	0.012883	0.038545	0.0097918	1317.2	0.00028066	0.00041447	1400.1	423.18	0.00027832	0.00041175	447.78	139.05	131.74	52.244	0.00032252	65.278	437.410	174.860	198.787	91.783	209.863	415.315	90.841	97.085	214.687	199.675	96.266	103.490	105.314	111.021	297.762	107.972	-8191	255	
18825.783	1	1	0	0	0.13641	0.18105	0.052204	0.11869	0.14692	0.079478	0.37531	0.10599	0.09592	0.33534	0.27012	0.20612	0.11589	0.12251	0.032071	0.23342	-4.2979	-4.2833	-4.7271	-4.6875	-4.4208	-4.6937	-4.5458	-4.6271	-4.7354	-4.1771	-4.7583	-4.5271	-4.4479	-4.9313	-4.4708	-4.6417	85.427	431.550	138.002	436.775	265.275	384.275	413.373	115.929	391.454	369.011	342.694	401.872	296.485	406.404	432.612	420.350	0.0014707	0.00095372	0.00024964	1253.8	5.1149e-06	1.3062e-05	1336.5	402.53	2.118e-05	8.8008e-06	421.18	128.23	119.5	48.181	1.0701e-05	60.156	0.012917	0.038196	0.0099396	1321.7	0.00028453	0.00041146	1406.2	429.78	0.00028322	0.00041807	453.23	139.4	132.53	52.529	0.00032681	65.427	83.086	210.160	178.675	91.829	179.973	234.956	90.790	96.872	197.248	323.200	96.173	103.700	104.964	111.083	210.024	108.078	-8191	255	
18825.881	1	1	0	0	0.084204	0.11459	0.11552	0.10379	0.10589	0.10768	0.17737	0.18591	0.036094	0.084102	0.15267	0.10466	0.10175	0.11368	0.12932	0.23378	-4.3562	-4.2	-4.8167	-4.7833	-4.2625	-4.7708	-4.5458	-4.6646	-4.7583	-4.2021	-4.8458	-4.6646	-4.2458	-4.7792	-4.2188	-4.4875	399.330	330.028	210.328	401.099	103.629	157.555	341.611	79.678	179.390	152.875	160.878	432.728	435.557	316.293	225.254	431.607	0.0016347	0.00061323	0.00052333	1245.2	2.2588e-06	1.0966e-05	1338	401.21	1.4154e-05	6.5133e-06	423.25	128.94	120.04	48.381	9.7734e-06	60.234	0.012932	0.035488	0.010679	1319.5	0.00027743	0.00041045	1406.7	428.96	0.00027892	0.00041104	454.74	140.07	132.85	52.618	0.00033535	65.712	83.432	147.850	167.828	91.819	257.323	192.220	90.900	97.045	240.026	159.953	96.253	103.227	105.445	111.406	179.777	107.962	-8191	255	
18826.002	1	1	0	0	0.19369	0.17249	0.03156	0.32066	0.13418	0.25622	0.20709	0.15062	0.11174	0.016368	0.18528	0.1391	0.25995	0.12714	0.075892	0.021299	-4.3833	-4.2646	-4.4083	-4.8542	-3.9875	-4.8333	-4.5188	-4.45	-4.6625	-4.1833	-4.7646	-4.5625	-4.3208	-4.8479	-4.4125	-4.4083	125.890	104.348	138.929	435.785	255.660	278.416	327.231	109.569	397.514	174.863	111.508	160.130	434.894	289.937	246.576	85.400	0.001516	0.0008697	0.00047031	1259	8.4982e-06	5.5321e-06	1346	410.69	1.2993e-05	4.6961e-06	426.55	129.36	120.43	48.65	9.8466e-06	60.502	0.01314	0.036218	0.011787	1331.3	0.00028997	0.0004341	1418.8	438.11	0.00029087	0.00043713	460.97	141.24	133.72	52.999	0.00035195	66.152	81.774	130.582	201.025	91.711	182.141	194.298	90.666	96.768	159.515	276.141	96.269	103.424	105.114	111.130	275.980	108.087	-8191	255	
18826.072	1	1	0	0	0.12943	0.076638	0.090906	0.068147	0.16315	0.21119	0.21927	0.14364	0.23385	0.3168	0.22919	0.1293	0.3473	0.061234	0.15498	0.17187	-4.4792	-4.1937	-4.4917	-4.8542	-4.1208	-4.5958	-4.6333	-4.4812	-4.9458	-4.3187	-4.6312	-4.7104	-4.3187	-4.7937	-4.4583	-4.3875	156.868	378.282	424.835	92.807	278.711	380.497	385.211	352.210	229.413	94.158	94.143	350.648	432.873	435.689	199.795	91.022	0.0014391	0.00037467	0.00012792	1265.7	8.9094e-06	4.4102e-06	1359.6	412.41	1.3778e-05	5.047e-06	428.7	129.28	120.62	48.604	1.2782e-05	60.408	0.013518	0.037491	0.011968	1340.7	0.00029821	0.00045227	1428.3	440.59	0.00029481	0.00044774	462.9	141.01	133.22	53.232	0.00035438	66.025	90.683	142.144	155.709	91.731	229.117	194.460	91.037	96.588	248.496	205.075	95.928	103.431	105.142	111.070	159.058	108.168	-8191	255	
18826.170	1	1	0	0	0.11626	0.249	0.084338	0.019295	0.085405	0.10782	0.28965	0.2506	0.15749	0.11542	0.30117	0.26253	0.20476	0.13629	0.1299	0.13389	-4.3667	-4.3333	-4.2667	-4.9125	-3.9417	-4.7292	-4.7146	-4.3771	-4.8208	-4.4729	-4.6125	-4.9313	-4.3125	-4.8729	-4.5479	-4.4333	173.829	127.103	188.544	314.757	321.923	178.640	396.829	359.629	396.921	337.065	384.357	88.137	123.132	295.107	415.062	241.091	0.0017572	0.001587	0.00010347	1270.1	1.5713e-06	6.9351e-06	1354.9	414.44	1.3e-05	8.0119e-06	427.96	129.28	121.05	48.766	4.938e-06	60.351	0.013642	0.038096	0.012214	1341.3	0.00029774	0.00045884	1428.6	442.6	0.00029988	0.00045665	463.38	141.22	133.38	53.47	0.0003509	65.965	79.316	128.762	195.904	91.737	182.022	128.705	90.915	96.456	171.703	266.289	96.258	103.583	105.175	110.949	218.342	108.087	-8191	255	
18826.266	1	1	0	0	0.10583	0.1907	0.35641	0.22493	0.054352	0.025492	0.31177	0.29774	0.26976	0.26651	0.088797	0.082875	0.20374	0.20807	0.1731	0.24567	-4.2833	-4.3271	-4.2417	-5.1083	-4.2354	-4.4729	-4.7833	-4.1771	-4.7667	-4.3125	-4.5292	-4.9938	-4.1229	-4.4917	-4.5521	-4.2771	295.431	286.425	411.466	167.390	332.923	82.830	386.970	411.340	189.657	315.374	404.690	326.397	194.891	404.843	203.531	327.240	0.0015286	0.0011461	0.00030917	1258.5	1.446e-05	4.9521e-06	1343.6	404.33	7.8941e-06	5.4483e-06	422.9	129.74	120.15	48.664	8.7887e-06	60.57	0.013592	0.038002	0.011735	1330	0.00029258	0.00044856	1413.9	432.07	0.00029442	0.00044328	456.25	140.78	132.76	53.283	0.00034252	66.1	85.510	167.930	187.607	91.791	227.100	186.734	90.918	96.899	245.967	255.264	95.970	103.371	105.366	111.185	209.266	107.910	-8191	255	
18826.385	1	1	0	0	0.053087	0.19632	0.1533	0.12401	0.17085	0.15082	0.28226	0.21989	0.12146	0.2646	0.12604	0.23499	0.075515	0.13096	0.080239	0.20273	-4.1875	-4.3604	-4.0375	-4.9417	-4.1458	-4.3833	-4.7833	-4.2979	-4.7208	-4.5479	-4.3292	-4.7167	-4.3771	-4.4083	-4.7688	-4.1354	254.759	317.007	109.684	395.306	303.148	205.644	374.055	362.841	326.044	94.527	356.405	424.214	435.457	147.166	400.583	353.690	0.0015339	0.0005389	0.00046369	1255.9	6.4456e-06	1.0307e-05	1353.9	411.3	1.884e-05	5.2526e-06	428.93	130.08	121	49.007	1.0523e-05	60.722	0.013454	0.037364	0.011856	1331.3	0.00029503	0.00045021	1421.4	437.3	0.00032132	0.00044922	463.32	141.88	133.9	53.695	0.00034561	66.412	79.585	120.348	212.668	91.913	218.688	198.045	91.034	96.841	154.107	215.275	96.089	103.493	105.278	111.000	196.622	108.134	-8191	255	
18826.480	1	1	0	0	0.11859	0.18559	0.053525	0.2704	0.33817	0.0053299	0.12127	0.21012	0.11315	0.055471	0.16761	0.069647	0.16727	0.22314	0.098127	0.13981	-4.2333	-4.5813	-4.2	-4.9625	-4.45	-4.3729	-4.9854	-4.2312	-4.5437	-4.6292	-4.1188	-4.8542	-4.6521	-4.3854	-4.8313	-4.2562	289.803	394.441	228.754	126.626	306.852	378.853	330.733	363.622	335.110	351.770	424.026	128.547	365.127	429.490	245.141	386.688	0.0014946	0.00074828	0.00016685	1269.2	1.0324e-05	8.459e-06	1358.4	415.07	9.3172e-06	5.3406e-06	431.08	130.03	121.25	48.793	1.439e-05	60.749	0.013903	0.03827	0.011678	1343.1	0.0003029	0.00045313	1428.4	442.65	0.00033797	0.00045002	465.63	142.11	133.94	53.571	0.00034352	66.482	438.209	153.846	190.711	91.925	197.154	157.433	90.841	96.652	415.413	201.143	96.240	103.497	105.319	111.252	199.775	108.186	-8191	255	
18826.576	1	1	0	0	0.20816	0.036329	0.19337	0.29721	0.10564	0.079254	0.33031	0.23469	0.1125	0.10436	0.27302	0.058963	0.097651	0.32307	0.11238	0.17865	-4.225	-4.7167	-3.9104	-4.8417	-4.4917	-4.2458	-4.9875	-4.3917	-4.5042	-4.9479	-4.2854	-4.7771	-4.6792	-4.3104	-4.7562	-4.2562	409.492	159.171	408.729	408.047	378.619	352.196	328.610	426.128	133.625	282.148	425.089	234.503	288.627	108.145	227.923	435.870	0.0015453	0.00070803	0.00014564	1264.6	9.5523e-06	5.8195e-06	1352.5	408.92	1.0596e-05	5.0423e-06	426.88	130.02	121.03	48.763	8.091e-06	60.953	0.013874	0.037246	0.011264	1339.3	0.00029674	0.00043831	1422.3	436.5	0.00032535	0.00043628	461.02	141.87	133.81	53.469	0.0003378	66.363	80.844	129.377	220.186	91.884	163.956	228.711	90.909	96.701	242.464	215.164	95.929	103.319	105.273	111.168	257.263	108.042	-8191	255	
18826.672	1	1	0	0	0.086967	0.11961	0.073906	0.19633	0.052872	0.11368	0.28789	0.29075	0.018547	0.12033	0.29034	0.24939	0.18443	0.15325	0.27339	0.11725	-4.0708	-4.7063	-4.1083	-4.7625	-4.4667	-4.2667	-5.0167	-4.5813	-4.4792	-4.8854	-4.2438	-4.7125	-4.7979	-4.2979	-4.6125	-4.5271	373.882	116.534	89.378	393.681	357.308	336.579	380.004	369.719	283.862	335.726	90.066	420.914	429.727	280.093	393.671	359.516	0.0015636	0.00093619	0.00020288	1258	6.5886e-06	1.045e-05	1344.5	405.98	1.0856e-06	6.0845e-06	423.99	130.32	120.65	48.787	1.1253e-05	61.053	0.013549	0.036593	0.010411	1334.4	0.00029188	0.00042888	1412.8	431.92	0.00032448	0.00042192	457.17	141.61	133.18	53.425	0.00033219	66.605	88.620	163.559	249.099	91.843	217.810	248.441	90.952	96.778	95.918	232.881	96.123	103.270	105.532	111.171	231.758	108.220	-8191	255	
18826.768	1	1	0	0	0.13096	0.17565	0.076743	0.15307	0.18312	0.1633	0.13277	0.16482	0.13705	0.10542	0.12285	0.25733	0.31395	0.13664	0.14382	0.29651	-4.1021	-4.7833	-4.1354	-4.7354	-4.8583	-4.0833	-4.8979	-4.8187	-4.2521	-4.9062	-4.3187	-4.55	-4.7562	-4.2854	-4.65	-4.6062	391.223	88.486	170.581	407.694	348.436	359.571	361.341	379.033	145.061	312.071	365.833	151.813	398.893	349.805	245.906	235.920	0.0016107	0.00044781	0.00015651	1251.8	1.0886e-05	1.7976e-05	1327.4	397.87	2.2702e-06	1.1791e-05	419.03	129.63	120.38	48.9	1.7117e-05	61.252	0.013112	0.035068	0.010148	1325.3	0.0002835	0.00041528	1399.4	423.44	0.00030874	0.00041546	450.97	140.98	132.63	53.336	0.00034012	66.583	80.196	109.869	194.854	91.907	218.529	260.649	90.918	97.085	295.267	248.801	96.480	103.418	105.297	111.294	226.292	107.956	-8191	255	
18826.865	1	1	0	0	0.060479	0.097657	0.08539	0.17611	0.12359	0.15555	0.070926	0.069422	0.13615	0.1471	0.050726	0.27368	0.21044	0.15958	0.29067	0.22053	-3.9021	-4.8125	-4.1292	-4.6729	-4.6125	-4.0708	-4.9187	-4.5917	-4.1521	-4.7104	-4.4333	-4.3792	-4.75	-4.3208	-4.6125	-4.5312	363.973	305.135	148.250	367.001	144.804	326.761	356.399	410.802	153.357	374.041	116.776	84.409	425.446	342.208	390.379	195.559	0.0016521	0.00070881	2.9325e-05	1236.5	4.4778e-06	5.3139e-06	1325.2	394.14	5.7014e-06	2.8461e-06	417.42	130.63	120.6	49.072	1.4141e-05	61.522	0.012687	0.035021	0.0099388	1312.6	0.00027432	0.00040504	1392.5	419.56	0.00030449	0.00040769	449.92	141.76	132.51	53.395	0.00035471	66.94	83.737	161.452	174.411	91.836	239.618	212.452	91.119	97.373	173.681	306.570	96.512	103.477	105.238	111.042	229.948	107.898	-8191	255	
18826.961	1	1	0	0	0.03529	0.11596	0.20505	0.13991	0.16744	0.2219	0.14005	0.4331	0.17514	0.10627	0.15289	0.11107	0.015198	0.1295	0.10876	0.12628	-3.7979	-4.7583	-4.3625	-4.5979	-4.6771	-4.1271	-4.8521	-4.6208	-4.3146	-4.7458	-4.6708	-4.3688	-4.8583	-4.3542	-4.6188	-4.6125	311.585	314.057	366.751	370.033	209.569	163.760	348.254	362.091	422.459	363.366	342.876	359.862	363.749	127.390	223.003	400.369	0.0015131	0.00036067	0.00023612	1240.8	1.0462e-05	1.0223e-05	1330.2	398.59	7.1828e-06	7.252e-06	419.14	130.68	120.78	49.138	1.9865e-05	61.383	0.012489	0.034313	0.0098725	1315.7	0.00027021	0.00040975	1396.2	422.59	0.00029987	0.00041534	452.53	141.85	132.81	53.448	0.0003673	66.75	438.350	159.055	111.786	92.138	182.442	258.952	91.161	97.452	160.802	223.954	96.365	103.672	105.275	111.304	211.642	107.850	-8191	255	
18827.080	1	1	0	0	0.18867	0.2041	0.056685	0.25595	0.21757	0.14669	0.25633	0.31165	0.010929	0.031674	0.23124	0.11172	0.33671	0.30316	0.22115	0.27421	-3.6646	-4.6229	-4.3292	-4.525	-4.7396	-4.3396	-4.7625	-4.7083	-4.1875	-4.6875	-4.5333	-4.3979	-4.8833	-4.4083	-4.4271	-4.6271	143.988	316.654	321.894	356.528	381.655	155.870	354.215	395.714	91.205	302.796	86.802	423.817	404.776	91.177	183.801	417.877	0.0014691	0.00098175	8.2994e-05	1242.9	1.703e-05	1.2947e-05	1327.9	395.77	9.9374e-06	6.8916e-06	419.8	130.46	120.84	49.109	9.2001e-06	61.261	0.012459	0.035009	0.009982	1317.4	0.00027383	0.00041721	1396.2	421.69	0.00029372	0.00043509	452.01	141.44	132.66	53.368	0.00035893	66.615	82.546	180.612	196.725	92.284	241.111	230.762	91.187	97.541	298.416	269.287	96.603	103.463	105.293	111.256	232.662	107.972	-8191	255	
18827.178	1	1	0	0	0.16456	0.086098	0.20157	0.23438	0.11763	0.2103	0.21053	0.018733	0.18602	0.10178	0.27207	0.079283	0.23142	0.14548	0.23283	0.17418	-3.6854	-4.7208	-4.4458	-4.4292	-4.8958	-4.2688	-4.6104	-4.7917	-4.0583	-4.6562	-4.4917	-4.2083	-4.8021	-4.3708	-4.3104	-4.95	82.729	327.077	136.330	384.258	388.235	130.082	346.560	424.318	122.879	90.185	368.241	289.750	395.377	431.558	339.265	90.911	0.0015386	0.00083805	0.00012172	1233.9	1.3742e-05	6.3003e-06	1328.6	395.78	5.0293e-06	6.1953e-06	420.45	130.31	120.98	49.198	1.2534e-05	61.299	0.012409	0.034931	0.0097818	1311.2	0.00026716	0.00040606	1394	420.76	0.00026547	0.00045049	450.93	141.46	132.87	53.475	0.00036235	66.7	438.343	205.544	198.732	92.064	235.749	260.757	91.169	97.418	209.465	170.723	96.551	103.818	105.386	111.063	235.130	107.910	-8191	255	
18827.273	1	1	0	0	0.022835	0.18726	0.074311	0.34144	0.12005	0.1362	0.32345	0.090566	0.15363	0.085776	0.035218	0.16812	0.067947	0.32281	0.11817	0.12822	-3.8542	-4.5104	-4.5437	-4.1042	-4.8125	-4.5021	-4.4333	-4.9521	-4.2146	-4.4333	-4.7208	-4.2979	-4.8708	-4.6479	-4.2604	-5.0021	338.159	128.137	162.893	405.125	173.627	129.964	336.832	135.868	416.556	389.404	217.561	397.235	147.871	433.723	424.595	308.720	0.0017152	0.00080187	2.9109e-05	1242.3	1.0482e-05	3.9233e-06	1331.8	396.81	1.4674e-05	1.2675e-05	421.42	130.94	121.09	49.181	1.7302e-05	61.71	0.012481	0.035167	0.0097485	1315.2	0.00027184	0.00040511	1394.4	421.84	0.00026907	0.00045731	452.15	141.81	133.06	53.479	0.00034818	66.887	82.461	201.824	122.707	91.976	195.311	252.477	90.985	97.551	234.869	123.950	96.573	103.627	105.391	111.188	220.814	108.026	-8191	255	
18827.369	1	1	0	0	0.057795	0.085796	0.12947	0.19239	0.079069	0.15142	0.20803	0.098516	0.074884	0.25552	0.24844	0.25966	0.20832	0.26041	0.073874	0.12605	-3.9437	-4.4042	-4.5875	-4.375	-4.6479	-4.3562	-4.4021	-4.9938	-4.3	-4.5375	-4.7729	-4.2042	-4.6792	-4.7125	-4.1646	-4.9354	214.530	220.027	432.281	116.349	126.325	237.328	342.630	80.459	148.174	281.926	332.862	266.919	102.996	389.491	213.331	379.219	0.0015799	0.00070231	0.00036091	1244.2	1.9672e-05	7.2116e-06	1334.8	400.58	1.1368e-05	3.8552e-06	422.71	130.52	120.27	49.141	1.1389e-05	61.623	0.012648	0.034687	0.0095657	1316.9	0.00028728	0.00040878	1401	425.88	0.00027448	0.00045606	454.82	142.01	132.92	53.406	0.00035129	66.978	81.346	206.765	131.456	92.046	179.504	231.792	91.250	97.207	178.739	430.104	96.312	103.744	105.588	111.187	232.514	108.242	-8191	255	
18827.465	1	1	0	0	0.20099	0.072822	0.19249	0.2614	0.22649	0.069338	0.06082	0.11613	0.020042	0.23349	0.2889	0.14082	0.26548	0.23811	0.10885	0.088866	-4.0583	-4.2146	-4.7875	-4.2937	-4.7021	-4.5458	-4.3521	-4.8313	-4.4542	-4.2542	-4.8771	-4.1208	-4.6854	-4.8187	-4.1312	-4.7375	241.232	225.728	322.711	351.656	201.920	428.667	364.668	382.612	284.946	276.231	407.300	136.154	129.444	433.604	407.731	286.109	0.001857	0.00046357	0.00019839	1237.3	8.3888e-06	5.454e-06	1323.1	399.32	1.5214e-05	1.445e-05	419.22	130.78	120.67	48.897	1.4889e-05	61.306	0.012552	0.034237	0.0095266	1305.7	0.0003031	0.00040066	1391.4	424.18	0.00026812	0.00045286	450.75	141.08	132.02	53.132	0.00033899	66.616	81.955	225.889	132.453	91.871	223.486	202.585	91.148	97.254	240.008	159.094	96.649	103.727	105.250	111.236	258.514	108.380	-8191	255	
18827.561	1	1	0	0	0.12431	0.12541	0.21126	0.34585	0.1196	0.2718	0.22945	0.054898	0.17778	0.060947	0.12041	0.1755	0.066149	0.28818	0.12381	0.032771	-4.1042	-4.1875	-4.9042	-4.4333	-4.4792	-4.7604	-4.1813	-4.7042	-4.3667	-4.3063	-4.8313	-4.2292	-4.5563	-4.8271	-4.1	-4.8917	209.693	371.198	136.955	356.671	238.664	234.703	337.390	388.059	157.503	323.984	436.257	408.736	323.310	377.679	170.444	365.700	0.0016206	0.00059443	0.00013866	1214.7	1.3315e-05	7.5213e-06	1301.3	387.35	1.5999e-05	5.2389e-06	408.71	129.16	119.06	48.523	1.364e-05	61.06	0.012231	0.033046	0.0092388	1284.3	0.00029806	0.00037948	1364.5	411.07	0.00025473	0.00042013	438.91	139.57	130.18	52.619	0.00030498	66.305	435.644	181.889	225.813	92.118	269.355	224.145	91.098	97.656	170.039	182.796	96.741	103.783	105.668	111.291	251.571	108.188	-8191	255	
18827.682	1	1	0	0	0.27512	0.25237	0.10127	0.23909	0.18434	0.11329	0.063133	0.14645	0.12383	0.026506	0.18404	0.18796	0.24766	0.31642	0.10547	0.089273	-3.9688	-4.1917	-4.9333	-4.5125	-4.2979	-4.7562	-4.3625	-4.7583	-4.6229	-4.0583	-4.95	-4.4708	-4.4563	-5.0021	-4.3396	-4.7042	113.186	339.102	348.168	384.997	156.741	248.025	392.225	352.268	228.576	188.321	386.736	373.074	106.614	404.867	119.111	316.051	0.0015383	0.00052597	0.00021537	1199	7.4216e-06	9.3099e-06	1284.9	378.43	1.5647e-05	1.0095e-05	406.58	129.36	118.71	48.68	1.2233e-05	61.197	0.011458	0.030734	0.0088027	1264.9	0.0002781	0.00036173	1347	401.03	0.0002432	0.00041458	434.93	139.49	129.97	52.68	0.00028478	66.613	80.168	134.155	169.645	92.028	227.471	198.883	91.173	97.799	209.058	152.330	96.834	103.799	105.975	111.223	233.012	108.189	-8191	255	
18827.777	1	1	0	0	0.12212	0.053316	0.15312	0.21247	0.069843	0.1684	0.10133	0.030419	0.090953	0.18764	0.068202	0.168	0.084213	0.23701	0.046468	0.072515	-4.3562	-4.1458	-4.6146	-4.5979	-4.3438	-4.8	-4.3688	-4.7812	-4.6062	-4.2167	-4.8771	-4.6146	-4.3729	-4.8167	-4.2375	-4.7229	368.167	153.743	120.482	417.377	181.669	125.378	387.585	374.782	225.780	163.834	148.314	395.511	160.110	428.194	227.922	383.392	0.0016052	0.00023802	0.00017857	1202	8.6619e-06	1.0838e-05	1289.9	378.05	3.3807e-06	1.4607e-05	405.66	129.28	119.04	48.591	1.1811e-05	61.441	0.011258	0.030392	0.008748	1265.8	0.00027688	0.0003609	1351.4	402.01	0.00024246	0.00040206	435.55	139.74	129.79	52.683	0.00028427	66.694	81.123	278.608	186.469	91.990	313.327	292.989	91.219	98.150	202.561	197.555	96.858	103.595	105.736	111.142	283.675	108.165	-8191	255	
18827.873	1	1	0	0	0.078065	0.22586	0.042029	0.1808	0.13218	0.080997	0.27273	0.30432	0.1474	0.10613	0.2242	0.11142	0.096427	0.20973	0.036019	0.12985	-4.3208	-4.1625	-4.6062	-4.6604	-4.3083	-4.7021	-4.4646	-4.6292	-4.8438	-4.1833	-4.7792	-4.6562	-4.2	-4.8521	-4.2312	-4.4583	231.902	273.057	164.676	368.130	219.444	306.141	360.295	391.106	141.352	430.970	373.571	87.121	397.839	91.271	124.571	86.231	0.0015137	0.00078284	0.00014799	1194.7	7.7512e-06	4.3115e-06	1285.9	372.6	1.0656e-05	2.1337e-06	405.32	129.15	118.89	48.712	4.4148e-06	61.655	0.010971	0.029675	0.0086425	1258	0.00026045	0.0003459	1342.9	395.4	0.00022425	0.00037209	433.42	139.24	129.21	52.63	0.00027268	66.73	438.304	110.880	128.148	92.187	362.446	172.319	91.317	98.196	184.953	83.592	96.946	103.787	105.865	111.247	250.923	108.393	-8191	255	
18827.945	1	1	0	0	0.23074	0.020604	0.067206	0.11485	0.23463	0.14715	0.25981	0.32967	0.22115	0.11861	0.086043	0.19622	0.31815	0.18247	0.099158	0.14607	-4.4812	-4.1479	-4.55	-4.6521	-4.3604	-4.8438	-4.5479	-4.4563	-4.5312	-4.0854	-4.6833	-4.7312	-4.1667	-4.7375	-4.3958	-4.2833	275.061	216.307	97.709	302.500	328.538	413.654	350.152	399.844	375.535	144.316	126.743	402.822	85.440	104.848	95.022	341.037	0.0014464	0.00060422	0.00016987	1190.5	1.0659e-06	5.4865e-06	1278.9	374.13	8.9263e-06	7.4014e-06	403.28	129.68	118.73	48.82	4.7664e-06	61.278	0.010453	0.028808	0.0083351	1255.7	0.00026015	0.00033972	1339.8	396.94	0.00022639	0.00034568	434.91	139.34	129.62	52.77	0.0002731	66.73	83.101	191.613	232.960	92.088	157.184	232.424	91.276	98.187	254.383	221.303	97.052	103.322	105.640	111.318	318.546	108.241	-8191	255	
18828.066	1	1	0	0	0.08408	0.034277	0.10121	0.30949	0.11307	0.16806	0.29672	0.22685	0.19713	0.17267	0.024614	0.27896	0.13277	0.13212	0.12438	0.032323	-4.5896	-4.0542	-4.5521	-4.8021	-4.0146	-4.6188	-4.7458	-4.55	-4.7146	-4.2729	-4.6417	-4.8146	-4.1917	-4.8063	-4.5875	-4.3625	157.558	140.976	132.205	401.234	195.761	253.943	412.361	318.102	241.070	116.580	265.141	377.112	92.932	423.744	243.602	183.399	0.0018569	0.00089534	0.00029306	1199.6	4.8839e-06	2.7893e-06	1287.1	375.14	6.0089e-06	3.4586e-06	402.42	129.12	119.25	48.711	2.4988e-06	61.255	0.010812	0.029887	0.0084632	1262.2	0.00026117	0.0003546	1342.9	397.16	0.00023277	0.00035447	434.78	138.95	129.48	52.645	0.00026985	66.433	80.215	113.023	184.248	92.237	211.568	246.376	91.124	98.155	295.847	341.981	96.951	103.907	105.934	111.142	337.706	108.240	-8191	255	
18828.162	1	1	0	0	0.20349	0.075254	0.16384	0.10581	0.059986	0.20069	0.28396	0.26162	0.20769	0.046832	0.11891	0.28623	0.20032	0.081886	0.16034	0.19907	-4.5021	-4.1958	-4.4958	-4.9271	-4.1	-4.7146	-4.6542	-4.2583	-4.8167	-4.2979	-4.4896	-4.9021	-4.1562	-4.9458	-4.4062	-4.4021	130.974	398.617	412.090	372.488	337.003	206.983	418.282	398.575	156.364	337.654	247.406	345.562	373.879	220.567	380.564	355.404	0.0016794	0.0006106	7.6315e-05	1190.6	1.0249e-05	5.4764e-06	1276.5	369.57	9.0626e-06	7.6636e-06	399.52	129.24	119.17	48.785	3.1457e-06	61.531	0.01073	0.029213	0.0082624	1254.1	0.00024288	0.00037061	1333.5	391.86	0.00022782	0.00034296	429.94	138.8	129.04	52.598	0.00026141	66.589	82.852	176.345	170.472	92.154	356.872	193.753	91.339	98.432	191.726	289.702	97.373	103.863	105.665	111.084	208.563	108.088	-8191	255	
18828.258	1	1	0	0	0.17493	0.12604	0.082438	0.33719	0.07798	0.27705	0.25143	0.27362	0.16467	0.25091	0.15401	0.29509	0.034062	0.15122	0.0088935	0.20845	-4.4958	-4.225	-4.3146	-4.8938	-4.1438	-4.7104	-4.8542	-4.1729	-4.7729	-4.5396	-4.3833	-5.0583	-4.3875	-4.6875	-4.6104	-4.1625	191.858	388.327	167.734	349.383	368.828	360.182	415.939	428.524	208.698	88.154	221.390	378.287	234.665	165.523	374.718	350.813	0.0016114	0.00091859	0.00012578	1194.1	1.2614e-05	6.0629e-06	1280.5	372.36	1.7006e-05	2.2606e-06	402.61	129.69	119.04	48.73	9.688e-06	61.043	0.010547	0.028668	0.0080463	1255.8	0.0002267	0.00038593	1341.1	394.24	0.000232	0.00034949	434.54	139.82	129.82	52.689	0.00027165	66.523	86.618	198.967	173.080	92.248	217.075	108.636	91.272	98.361	277.817	221.886	97.109	103.847	105.531	111.148	209.464	108.166	-8191	255	
18828.354	1	1	0	0	0.10905	0.1392	0.11872	0.069798	0.17906	0.080443	0.2636	0.097528	0.024271	0.05688	0.099952	0.027619	0.12821	0.14243	0.15722	0.083842	-4.5729	-4.3667	-4.0646	-4.9563	-4.1792	-4.5188	-4.8	-4.4521	-4.7562	-4.4688	-4.3208	-4.9563	-4.4542	-4.4708	-4.7167	-4.2083	205.547	228.751	108.623	196.501	200.651	303.296	366.830	82.439	415.009	363.471	270.245	387.103	90.501	218.001	129.529	124.766	0.0018298	0.00023602	0.00032616	1201.4	8.805e-07	9.0072e-06	1288.4	371.7	1.6731e-05	5.3482e-06	403.94	129.29	118.97	48.424	1.064e-05	60.943	0.011064	0.029502	0.0082692	1265.7	0.00023397	0.00039945	1348.5	394.1	0.00023592	0.0003502	434.54	139.25	129.63	52.452	0.00027225	65.94	80.955	200.850	216.692	92.117	248.349	99.963	91.087	98.186	214.010	116.437	97.198	103.676	105.900	111.454	244.552	108.200	-8191	255	
18828.473	1	1	0	0	0.13896	0.044705	0.24524	0.32337	0.24467	0.15535	0.12907	0.14709	0.10558	0.12568	0.26489	0.17632	0.19588	0.10825	0.063538	0.073713	-4.4479	-4.6188	-4.175	-4.9187	-4.4688	-4.3208	-5.1521	-4.4167	-4.6521	-4.6542	-4.4292	-4.6417	-4.3812	-4.5542	-4.8417	-4.2729	437.011	226.743	434.096	412.194	378.277	440.281	388.243	369.616	358.962	426.424	398.822	437.615	193.355	90.686	252.015	256.669	0.001904	0.0014457	0.00018466	1198.1	6.8548e-06	3.779e-06	1287.3	373.96	1.1928e-05	7.0855e-06	402.43	129.12	118	48.247	1.5318e-05	60.611	0.011913	0.029841	0.0083383	1263	0.00023368	0.00039089	1346.8	395.81	0.00023323	0.00033997	433.55	138.85	129.12	52.177	0.00026244	65.504	90.280	160.022	249.031	92.236	216.788	352.325	91.134	98.306	212.390	201.436	97.058	103.664	105.470	111.077	180.432	108.302	-8191	255	
18828.547	1	1	0	0	0.093627	0.20286	0.21629	0.21132	0.16682	0.15532	0.23838	0.25572	0.027512	0.04892	0.26531	0.1317	0.23366	0.19305	0.14262	0.074421	-4.1875	-4.5958	-4.1167	-4.8042	-4.4354	-4.2979	-4.9563	-4.3729	-4.3542	-4.5813	-4.3021	-4.8854	-4.3562	-4.3833	-4.7792	-4.2625	248.014	336.128	230.207	408.602	337.900	266.286	404.954	427.879	228.107	419.970	350.814	85.039	388.958	372.445	360.157	400.039	0.001681	0.00072917	0.00030587	1196.9	1.0001e-05	4.7314e-06	1282.6	374.21	7.7741e-06	1.2243e-06	404.37	129.07	119.12	48.353	1.3668e-06	60.458	0.011872	0.02786	0.0079966	1256.5	0.00022344	0.00038142	1341.3	396.68	0.00022448	0.0003284	433.91	138.83	129.18	52.212	0.00025978	65.427	438.522	181.234	204.525	92.210	249.355	203.024	91.300	98.195	257.111	386.210	97.303	103.510	105.684	111.394	169.848	108.212	-8191	255	
18828.643	1	1	0	0	0.1428	0.17441	0.23905	0.2187	0.069053	0.073771	0.23928	0.15033	0.061781	0.10526	0.12576	0.037308	0.094487	0.20102	0.1085	0.19883	-4.1687	-4.7688	-4.1729	-4.825	-4.5875	-4.1375	-5.0229	-4.5083	-4.2812	-4.725	-4.3812	-4.6479	-4.6521	-4.2792	-4.6813	-4.3271	166.006	318.648	253.524	423.534	127.855	362.816	359.299	406.638	305.355	268.523	160.866	384.070	348.917	107.243	432.788	383.133	0.0014369	0.00014988	0.00031791	1192.3	3.0154e-06	3.1045e-06	1281.4	364.92	3.4419e-06	4.0458e-06	401.81	129.89	119.25	47.86	8.6705e-06	59.847	0.011776	0.027255	0.007904	1254.2	0.00021926	0.00036761	1339.8	386.79	0.0002176	0.00032594	430.25	139.56	129.42	51.694	0.00026741	64.88	96.773	307.221	173.193	92.152	234.264	138.926	91.435	98.413	266.103	329.411	97.231	103.785	105.839	111.446	263.847	108.518	-8191	255	
18828.762	1	1	0	0	0.29261	0.12882	0.081587	0.18808	0.14111	0.056563	0.29177	0.058221	0.21429	0.095484	0.10366	0.19541	0.1212	0.06011	0.20982	0.080916	-4.0271	-4.7479	-4.2042	-4.6771	-4.5833	-4.2562	-5.1646	-4.4771	-4.2896	-4.7562	-4.2979	-4.7021	-4.7292	-4.2375	-4.9062	-4.6417	216.597	311.163	336.695	422.895	307.840	305.611	395.674	103.657	434.964	197.845	397.051	144.674	250.739	323.836	226.003	156.754	0.0015399	0.00098284	8.1912e-05	1229.9	1.5615e-05	3.7158e-06	1332.8	384.89	8.5532e-06	9.6957e-06	414.96	129.91	119.35	47.581	8.104e-06	58.916	0.011886	0.029223	0.0085983	1296.4	0.00023474	0.00040966	1391.9	407.55	0.00024221	0.00036832	445.78	141	130.91	51.504	0.00030675	63.971	85.931	178.427	128.167	91.966	190.466	370.457	91.194	97.711	258.305	213.224	96.964	104.015	105.704	111.370	238.095	108.115	-8191	255	
18828.857	1	1	0	0	0.27316	0.066933	0.14447	0.35079	0.10012	0.053921	0.019543	0.23094	0.20259	0.084865	0.19657	0.076317	0.20535	0.077128	0.091995	0.035519	-3.8833	-4.7188	-4.275	-4.6	-4.6146	-4.3021	-4.8104	-4.5458	-4.2042	-4.9729	-4.4125	-4.5458	-4.8812	-4.275	-4.4771	-4.6458	129.971	325.365	193.741	419.996	332.090	148.407	390.199	366.699	414.190	82.304	415.170	433.652	312.269	402.376	401.539	283.446	0.0016448	0.0011846	9.0019e-05	1259.3	1.0415e-05	7.6597e-06	1367.4	394.71	1.4398e-05	1.0665e-05	416.96	128.49	118.41	46.075	7.9704e-06	56.803	0.013531	0.03384	0.0097518	1332.3	0.00027493	0.00045763	1439.4	421.14	0.00028663	0.00044651	450.81	140.9	131.14	50.467	0.00035791	62.085	94.392	150.208	149.953	91.794	179.043	373.814	90.760	97.239	186.183	208.971	96.592	103.384	105.404	111.650	198.845	108.227	-8191	255	
18828.953	1	1	0	0	0.12897	0.22728	0.16125	0.18681	0.18497	0.10681	0.083216	0.2932	0.18095	0.10727	0.065877	0.35205	0.14804	0.14361	0.058289	0.091788	-3.775	-4.6229	-4.2917	-4.5333	-4.8479	-4.1667	-4.8229	-4.6188	-4.0646	-4.75	-4.5188	-4.3479	-4.8021	-4.3458	-4.6604	-4.7562	232.774	321.415	185.351	105.851	194.098	368.338	304.467	363.180	325.076	110.605	189.563	92.329	246.431	137.591	354.636	80.933	0.0015122	0.0010353	0.00018332	1293.6	6.2522e-06	7.9453e-06	1384.4	379.38	1.5091e-05	1.3438e-05	405.46	126.82	117.98	45.5	1.0457e-05	56.006	0.01513	0.039732	0.01137	1367.5	0.00031979	0.00049846	1464.7	404.97	0.00032685	0.00050455	441.56	139.96	131.77	50.083	0.00040177	61.729	88.189	103.958	193.141	91.551	202.609	225.628	90.523	98.057	201.768	296.216	97.166	103.669	105.873	111.601	278.692	108.418	-8191	255	
18829.074	1	1	0	0	0.213	0.042928	0.062111	0.15923	0.18384	0.048874	0.36712	0.099847	0.16586	0.13318	0.17405	0.027834	0.23051	0.22186	0.19403	0.066072	-4.0062	-4.7604	-4.4437	-4.4375	-4.8646	-4.2229	-4.7167	-4.7104	-4.0729	-4.8583	-4.7438	-4.4938	-4.7229	-4.4417	-4.4667	-4.9104	345.726	394.389	409.813	382.838	82.473	195.920	392.048	411.894	243.820	377.105	309.973	282.665	95.385	145.071	163.041	345.466	0.001329	0.00038293	0.00023968	1326.6	1.022e-05	3.5764e-06	1409.9	367.61	6.5134e-06	1.4903e-05	401.17	127.26	117.05	45.204	7.2421e-06	55.928	0.017042	0.04441	0.012397	1406	0.00034737	0.00052385	1492.9	393.83	0.00034774	0.00053385	436.75	140.84	132	49.89	0.00040974	61.614	90.519	194.752	138.898	91.193	253.259	284.497	90.220	98.441	249.826	241.288	97.245	103.720	105.902	111.601	225.666	108.391	-8191	255	
18829.170	1	1	0	0	0.10204	0.24509	0.1007	0.25406	0.10481	0.10556	0.28049	0.16161	0.16904	0.058333	0.072323	0.044033	0.084146	0.076626	0.1908	0.13099	-3.9708	-4.7917	-4.5104	-4.275	-5	-4.3667	-4.6625	-4.8875	-4.2271	-4.6521	-4.6417	-4.125	-4.8812	-4.4708	-4.3667	-4.9708	338.889	108.006	97.452	387.849	357.748	229.629	329.059	347.344	389.146	237.980	252.264	395.038	222.099	176.642	222.872	392.124	0.0012061	0.000514	0.00042371	1335.1	1.4108e-05	1.133e-05	1412	359.94	9.7303e-06	1.387e-05	396.73	127.54	118.13	45.03	6.9404e-06	55.734	0.017017	0.045137	0.012525	1419.7	0.00036171	0.00053406	1495.7	387.28	0.00035604	0.00054357	433.85	141.63	132.54	49.834	0.00041344	61.807	439.202	275.667	145.043	91.063	202.671	269.912	90.244	98.905	265.153	238.636	97.744	103.953	105.674	111.407	196.289	108.625	-8191	255	
18829.242	1	1	0	0	0.11786	0.050131	0.11293	0.24011	0.15162	0.22429	0.51391	0.33625	0.12283	0.24684	0.23343	0.15177	0.083367	0.047365	0.032464	0.1459	-4.0958	-4.5375	-4.4333	-4.3167	-4.7417	-4.5	-4.6396	-4.9688	-4.1667	-4.4708	-4.775	-4.2083	-4.85	-4.6021	-4.3042	-4.775	232.487	440.875	190.481	412.763	412.630	249.966	385.033	364.309	87.941	314.105	412.733	345.509	107.530	388.953	270.042	306.085	0.0013819	0.00026946	0.00031138	1352.5	4.4722e-06	1.0659e-05	1413	356.75	2.8048e-06	3.7745e-06	392.86	128.52	118.17	44.839	1.3116e-05	55.347	0.016573	0.048038	0.01257	1434.5	0.00036269	0.00053457	1494.5	383.52	0.00035816	0.00053035	429.98	142.15	132.15	49.467	0.00040591	61.322	86.258	295.955	238.858	91.006	164.506	249.173	90.449	99.220	121.407	249.360	98.046	104.166	105.768	111.708	278.229	108.539	-8191	255	
18829.363	1	1	0	0	0.23671	0.23565	0.087233	0.091992	0.22985	0.10907	0.20985	0.34394	0.035987	0.083457	0.27132	0.1751	0.10226	0.25908	0.30542	0.079261	-3.8917	-4.4104	-4.6979	-4.2458	-4.6896	-4.2958	-4.4708	-4.9458	-4.1312	-4.3146	-4.7771	-4.0375	-4.6646	-4.5229	-4.2646	-4.875	294.258	290.123	167.751	430.443	391.122	287.023	431.734	104.883	371.698	176.364	370.787	165.770	433.321	387.624	322.094	168.874	0.0014856	0.0010815	0.00036421	1313.2	1.369e-05	1.1043e-05	1340.8	344.27	1.2058e-05	1.31e-05	383.3	126.89	116.02	44.086	8.6958e-06	55	0.015977	0.047073	0.012294	1390.4	0.00034951	0.00051217	1418.5	370.46	0.00034276	0.00050688	417.85	139.96	129.59	48.602	0.00039418	60.693	85.608	235.538	200.939	91.222	294.652	239.100	90.601	100.038	183.740	176.460	98.387	104.277	106.437	112.145	200.783	108.650	-8191	255	
18829.457	1	1	0	0	0.17597	0.26848	0.17799	0.15879	0.14805	0.049558	0.21638	0.088453	0.24687	0.095645	0.0086481	0.19783	0.18592	0.070099	0.089457	0.31994	-4	-4.35	-4.6854	-4.3875	-4.6083	-4.5375	-4.2667	-4.9792	-4.4208	-4.3917	-4.85	-4.2979	-4.5771	-4.6333	-4.3229	-5.0188	295.063	248.932	382.847	398.213	295.077	260.405	358.595	354.296	299.791	223.335	222.449	417.238	375.757	302.764	112.577	378.430	0.0014165	0.00013692	0.00029261	1230.9	8.9656e-06	8.7754e-06	1272.3	340.49	1.9654e-05	5.1226e-06	382.15	127.79	116.19	43.98	1.0689e-05	55.041	0.015456	0.04638	0.012169	1311.7	0.00034223	0.00050259	1348.7	366.06	0.00034494	0.00051675	418.15	140.83	130.84	48.733	0.00041502	60.901	441.635	333.123	203.089	91.434	232.433	276.274	90.935	100.399	187.665	238.319	98.736	103.939	106.358	111.685	325.611	108.650	-8191	255	
18829.553	1	1	0	0	0.13962	0.09985	0.1838	0.40519	0.06621	0.10448	0.23119	0.045649	0.12219	0.078368	0.15026	0.10303	0.13637	0.08328	0.17158	0.057596	-4.1188	-4.3562	-4.8562	-4.2833	-4.4729	-4.8417	-4.3875	-4.9271	-4.5396	-4.3708	-4.9083	-4.4	-4.4875	-4.7958	-4.1104	-4.9604	182.151	335.813	215.175	426.147	182.710	435.759	403.349	201.767	121.215	354.282	177.841	100.326	375.699	399.766	404.397	389.942	0.0015866	0.00079571	0.00039812	1246.8	5.7017e-06	9.9739e-06	1290.4	341.18	4.1922e-06	1.2342e-05	382.49	127.84	115.88	43.997	1.046e-05	54.835	0.016	0.047479	0.012762	1327.9	0.00035875	0.00053333	1371	368.43	0.00036129	0.00054546	421.27	141.46	131.14	48.805	0.00043378	60.965	83.552	250.595	146.137	91.497	240.310	257.521	90.874	100.301	307.393	222.728	98.506	104.252	106.493	111.657	226.673	108.835	-8191	255	
18829.648	1	1	0	0	0.25692	0.10446	0.19939	0.2128	0.03004	0.022212	0.10324	0.18495	0.13435	0.19878	0.060653	0.39021	0.096416	0.11368	0.19009	0.076253	-4.2292	-4.1458	-4.7063	-4.3896	-4.3917	-4.6667	-4.2354	-4.7562	-4.4896	-4.1813	-4.8229	-4.2417	-4.25	-4.6833	-4.1333	-4.6104	230.309	360.234	389.019	400.314	248.231	215.546	105.733	414.088	402.110	169.519	330.926	359.752	326.723	419.480	262.079	228.297	0.0015547	0.0008195	8.1541e-05	1241.9	8.8824e-06	3.4535e-06	1275.7	341.48	5.5026e-06	7.0237e-06	383.34	128.56	116.24	44.086	1.1984e-05	55.074	0.016518	0.049729	0.01335	1322.5	0.00036269	0.00054636	1354.9	367.07	0.00035648	0.00054348	419.14	141.68	130.84	48.65	0.00042174	61.012	84.041	414.994	209.239	91.485	236.435	258.178	91.049	100.560	172.619	158.454	98.478	104.522	106.279	111.706	225.918	108.589	-8191	255	
18829.770	1	1	0	0	0.18157	0.12745	0.26772	0.18786	0.041715	0.15975	0.21123	0.07569	0.18286	0.16982	0.11966	0.24271	0.049188	0.09581	0.11928	0.12773	-4.2063	-4.0125	-4.7021	-4.6521	-4.2354	-4.6917	-4.2792	-4.6292	-4.6708	-4.1	-4.8667	-4.4708	-4.3396	-4.9688	-4.2146	-4.7438	108.903	201.342	119.991	354.682	165.854	218.638	364.255	132.869	112.421	113.138	387.536	413.505	276.738	366.601	291.094	326.453	0.0015205	0.00049897	0.00021253	1218	1.1037e-05	2.1563e-06	1263.7	340.09	9.7627e-06	4.3478e-06	382.66	128.23	116.46	44.256	5.2681e-06	54.919	0.015904	0.048427	0.012878	1297.6	0.00035121	0.00052904	1341.8	367.32	0.00035045	0.0005352	419.34	141.4	130.85	48.836	0.00042372	60.914	88.529	280.234	147.001	91.729	233.678	190.399	91.000	100.313	201.667	209.799	98.690	104.203	106.546	111.631	210.719	108.473	-8191	255	
18829.842	1	1	0	0	0.13888	0.35943	0.23965	0.25505	0.087845	0.37547	0.32856	0.29273	0.20171	0.17389	0.1429	0.19897	0.11432	0.22903	0.29085	0.24239	-4.2583	-4.2688	-4.8417	-4.6687	-4.1583	-4.7333	-4.4437	-4.7521	-4.7354	-4.1	-4.7771	-4.6521	-4.2125	-4.9417	-4.1917	-4.4625	222.375	333.392	103.252	103.918	372.026	405.749	381.338	374.136	156.857	92.619	370.648	316.840	313.985	90.717	122.189	320.319	0.0014088	0.00054087	0.0003623	1231.5	1.1702e-05	6.8003e-06	1270.1	339.81	1.9708e-05	1.289e-05	382.02	127.74	115.37	44.048	9.3036e-06	54.8	0.016307	0.049874	0.013142	1309.8	0.00035757	0.00055059	1348	367.2	0.000361	0.00055229	418.28	140.47	130.81	48.76	0.00042705	60.78	86.497	397.441	103.281	91.720	264.844	258.196	90.793	100.291	202.440	207.283	98.349	104.268	106.717	111.659	206.390	108.748	-8191	255	
18829.938	1	1	0	0	0.092375	0.17157	0.13844	0.32708	0.10612	0.11975	0.28829	0.30664	0.057236	0.21595	0.22206	0.051014	0.20427	0.23253	0.13025	0.11608	-4.3542	-4.1396	-4.6312	-4.6458	-4.2063	-4.8292	-4.6271	-4.425	-4.7625	-4.1771	-4.6708	-4.5333	-4.1833	-4.9396	-4.3667	-4.4958	330.471	93.576	426.996	355.217	388.114	320.190	403.638	407.531	246.916	341.922	394.484	335.904	277.182	92.912	234.783	404.517	0.0011797	0.00018496	0.00011065	1224.5	1.9891e-05	1.2086e-05	1263.1	339.39	2.9867e-06	1.7628e-05	380.69	127.24	116.49	43.98	8.7406e-06	54.983	0.016249	0.048558	0.013161	1303.1	0.00035784	0.00053939	1338.7	366.39	0.00035318	0.0005333	417.24	140.68	131.14	48.867	0.00040676	60.962	83.880	270.061	120.052	91.521	211.141	264.487	91.215	100.454	228.853	278.202	98.763	104.216	106.663	111.852	262.078	108.736	-8191	255	
18830.033	1	1	0	0	0.081717	0.14038	0.1401	0.33579	0.11617	0.20552	0.3229	0.093616	0.19914	0.049675	0.32133	0.27004	0.078146	0.28448	0.14376	0.084505	-4.2958	-4.2729	-4.5125	-4.7688	-4.2271	-4.9292	-4.5542	-4.4271	-4.7438	-4.3896	-4.5479	-4.7542	-4.2958	-4.7521	-4.575	-4.3562	122.205	429.390	284.366	404.711	167.398	288.166	383.663	304.500	173.151	327.100	374.264	390.835	322.085	428.929	252.721	97.028	0.0016422	0.0014316	0.00017622	1219	9.3646e-06	1.4722e-05	1251.8	340.77	6.5096e-06	5.7742e-06	382.61	128.08	116.55	44.784	1.353e-05	56.089	0.016195	0.045767	0.013523	1298.9	0.00035642	0.00053822	1333.2	367.65	0.00035609	0.00052917	417.5	140.72	131.61	49.503	0.00040329	61.772	439.903	320.259	134.009	91.732	127.738	244.116	91.141	100.398	87.011	169.321	98.315	104.059	106.458	111.797	235.740	108.423	-8191	255	
18830.154	1	1	0	0	0.12764	0.19693	0.10278	0.20548	0.13608	0.15887	0.18848	0.34874	0.20322	0.17232	0.12539	0.29854	0.13928	0.14628	0.16927	0.06389	-4.3667	-4.1438	-4.4708	-4.8812	-4.0938	-4.675	-4.6667	-4.3604	-4.8562	-4.4083	-4.4042	-4.7146	-4.3938	-4.7771	-4.6729	-4.2562	218.660	243.263	273.660	419.623	408.402	424.842	321.052	368.979	383.278	94.676	426.080	440.210	378.889	432.085	147.481	270.921	0.0013484	0.00067286	7.0951e-05	1235	2.5945e-06	6.3082e-06	1310.4	353.85	1.6407e-05	7.6673e-06	391.65	128.63	117.55	45.562	1.11e-05	56.464	0.016283	0.04526	0.01358	1317.2	0.00035967	0.00053844	1384.9	381.76	0.00036495	0.00053929	427.74	141.72	132.68	50.388	0.00042274	62.567	84.690	364.751	178.240	91.772	107.165	95.357	91.105	99.654	197.890	214.574	98.105	103.868	106.008	111.953	206.250	108.252	-8191	255	
18830.252	1	1	0	0	0.27039	0.10787	0.016689	0.2345	0.091067	0.14223	0.056444	0.1747	0.19067	0.02905	0.11074	0.14787	0.073772	0.10601	0.14676	0.2083	-4.325	-4.4333	-4.3396	-4.9333	-4.1542	-4.6229	-4.8562	-4.3979	-4.8458	-4.2458	-4.4292	-4.9771	-4.3417	-4.65	-4.8917	-4.3917	297.054	131.427	354.335	407.344	416.026	126.281	413.155	424.551	147.520	332.265	89.060	430.896	431.454	405.899	428.713	434.979	0.001467	0.00027901	9.2417e-05	1263	6.9102e-06	6.2852e-06	1326.3	361.47	2.0605e-05	5.3584e-06	395.84	128.11	117.95	45.967	1.0143e-05	56.453	0.016836	0.045934	0.014218	1346.3	0.00037089	0.00055023	1408.9	391.17	0.00037342	0.00055191	434.15	141.88	133.22	50.953	0.00043558	62.685	85.653	351.585	120.765	91.622	211.831	273.233	90.866	99.403	249.471	288.677	97.760	103.792	106.136	111.471	183.022	108.482	-8191	255	
18830.348	1	1	0	0	0.1469	0.094749	0.14906	0.13453	0.1211	0.10748	0.41781	0.18169	0.17434	0.11174	0.24736	0.18466	0.33229	0.47516	0.09617	0.23874	-4.5312	-4.5646	-4.3354	-5.0458	-4.2833	-4.5813	-5.0188	-4.2812	-4.5458	-4.6292	-4.4854	-4.975	-4.2083	-4.4896	-4.8604	-4.4187	115.019	250.693	96.613	404.402	408.798	85.520	376.675	357.579	91.640	81.911	93.537	437.120	331.106	427.998	225.288	344.406	0.0015034	0.00073166	3.8796e-05	1281.3	9.0235e-06	1.1028e-05	1346.1	363.51	7.0957e-06	1.2031e-05	398.11	128.24	118.44	45.905	1.2794e-05	56.293	0.01724	0.047249	0.014424	1365.5	0.00037708	0.00056062	1426.2	393.6	0.00037423	0.00054997	434.56	141.67	133.65	50.953	0.00043788	62.519	82.104	172.256	296.066	91.619	172.880	234.543	90.717	99.058	325.888	223.354	97.500	103.802	105.952	111.670	217.417	108.605	-8191	255	
18830.443	1	1	0	0	0.04751	0.19737	0.075199	0.24415	0.02333	0.068444	0.30446	0.13805	0.20802	0.011473	0.097166	0.23906	0.2769	0.31203	0.11864	0.4595	-4.3958	-4.5396	-4.275	-4.9521	-4.3667	-4.3208	-5	-4.4271	-4.5938	-4.6167	-4.3125	-4.7104	-4.3667	-4.5646	-4.8021	-4.2958	355.701	330.702	250.317	376.757	268.516	182.933	404.098	381.097	227.837	136.373	275.861	202.085	403.657	429.575	134.158	425.925	0.0015771	0.00084877	7.3065e-05	1280.2	1.4701e-05	6.7065e-06	1340.3	356.11	5.8446e-06	9.3145e-06	392.36	128.19	117.71	45.642	1.3729e-05	56.644	0.016745	0.046437	0.014467	1364.3	0.00036063	0.00053658	1421.5	383.51	0.00036107	0.00052334	428.06	141.06	132.01	50.5	0.00040872	62.292	436.020	212.599	186.985	91.549	248.176	158.757	90.892	99.368	182.297	269.583	98.102	103.968	105.899	111.692	214.241	108.516	-8191	255	
18830.537	1	1	0	0	0.20779	0.17882	0.060928	0.23467	0.10212	0.28694	0.053267	0.13484	0.16811	0.014692	0.083245	0.081462	0.24535	0.15881	0.16271	0.43498	-4.2104	-4.6271	-4.2375	-4.9688	-4.4083	-4.3	-5.1625	-4.3771	-4.425	-4.6771	-4.3875	-4.8542	-4.5292	-4.3542	-4.8021	-4.6229	304.316	360.243	410.667	343.296	136.878	367.667	112.919	240.707	112.013	441.020	174.587	413.945	420.100	397.785	364.954	425.694	0.0015253	0.00055283	0.00022829	1272.5	5.1545e-06	1.8251e-06	1339.9	354.05	1.2326e-05	1.0614e-05	392.15	127.97	118.19	45.573	5.5637e-06	56.048	0.015636	0.042955	0.013462	1354	0.00033955	0.00051752	1416.2	380.85	0.00037496	0.00052507	428.83	141.12	132.14	50.473	0.00041991	62.169	91.601	230.378	339.428	91.456	244.714	212.837	90.858	99.761	208.022	274.750	98.365	104.074	105.913	111.544	144.367	108.555	-8191	255	
18830.635	1	1	0	0	0.18754	0.13316	0.096016	0.21347	0.052889	0.066235	0.22554	0.20418	0.10276	0.027028	0.25127	0.27216	0.11169	0.078535	0.24095	0.20232	-4.0083	-4.7146	-4.2292	-4.9958	-4.4729	-4.2604	-5.1583	-4.4375	-4.4833	-4.7354	-4.3375	-4.7458	-4.6333	-4.4896	-4.7312	-4.4292	326.496	358.683	200.244	356.018	111.592	183.209	378.935	345.003	340.625	421.467	356.118	344.909	346.809	169.601	387.712	90.689	0.0013123	0.00015067	0.00015549	1286	7.4652e-06	4.8705e-06	1348.4	353.44	2.3973e-05	1.0382e-05	390.5	127.96	116.65	45.05	1.3317e-05	55.827	0.016035	0.044918	0.014015	1368.3	0.00035254	0.00053605	1424.4	379.78	0.00037833	0.00053937	427.04	140.87	131.39	50.095	0.00042181	61.819	87.233	156.650	349.459	91.307	196.186	137.169	90.640	99.545	171.446	288.111	98.225	104.154	105.910	111.772	257.880	108.512	-8191	255	
18830.754	1	1	0	0	0.2636	0.11885	0.12859	0.099178	0.12884	0.09125	0.070672	0.08899	0.12146	0.13434	0.0516	0.3011	0.072487	0.25668	0.027103	0.12144	-4.1167	-4.6583	-4.2562	-4.8417	-4.5979	-4.2958	-5.0208	-4.5625	-4.4375	-4.7937	-4.4042	-4.8042	-4.7688	-4.1542	-4.7854	-4.65	298.809	441.699	155.933	122.984	361.734	438.209	331.533	83.288	242.090	149.011	327.881	397.237	292.470	371.829	107.064	82.539	0.0013753	0.00067479	0.00012386	1263.1	1.2541e-05	9.8469e-06	1313.1	348.43	1.7977e-05	6.7495e-06	384.2	126.53	115.89	45.191	1.1024e-05	55.563	0.015969	0.045283	0.01326	1345.4	0.00034715	0.00052926	1390.9	373.69	0.00037879	0.00053188	421.5	139.59	130.59	50.069	0.00041663	61.514	88.081	169.711	309.194	91.629	306.700	173.273	90.961	99.772	205.906	310.907	97.936	104.200	106.160	111.703	251.556	108.568	-8191	255	
18830.850	1	1	0	0	0.078695	0.36829	0.15073	0.05991	0.22955	0.27883	0.33174	0.18215	0.035446	0.035414	0.11773	0.12519	0.093441	0.0067408	0.19098	0.2009	-3.9688	-4.8187	-4.0083	-4.4896	-4.6729	-4.2167	-4.9333	-4.7104	-4.275	-4.975	-4.4437	-4.5979	-4.8792	-4.3333	-4.6354	-4.5896	225.286	228.135	120.044	100.689	375.569	89.889	392.935	335.209	139.686	154.561	267.857	412.533	343.523	229.150	357.067	398.952	0.001464	0.00083223	0.00016379	1259.1	8.7678e-06	1.0795e-05	1311.9	347.07	2.4506e-05	8.0934e-06	383.25	127.32	115.93	45.136	7.0291e-06	55.957	0.016087	0.045583	0.012707	1341.8	0.00035277	0.00052998	1386.2	373.18	0.00037629	0.00053109	421.49	139.8	130.5	49.982	0.00040868	61.683	433.859	185.727	283.452	91.710	179.554	226.829	91.010	99.876	219.269	193.518	98.413	104.049	106.161	111.479	291.903	108.520	-8191	255	
18830.947	1	1	0	0	0.28507	0.20653	0.28051	0.17721	0.18417	0.060485	0.22869	0.060335	0.22294	0.049963	0.22371	0.049351	0.093288	0.18486	0.1307	0.15581	-4.0271	-4.8417	-4.4521	-4.7125	-4.8833	-4.2229	-4.8417	-4.6729	-4.2479	-4.8271	-4.55	-4.6354	-4.8167	-4.375	-4.7167	-4.7833	164.324	345.612	119.876	400.038	90.801	285.260	339.793	420.543	114.690	208.575	439.927	240.428	385.500	398.039	434.594	144.235	0.001481	0.0014467	0.00012128	1256.5	9.924e-06	1.1614e-05	1302.3	347.47	3.3787e-05	2.6856e-06	385.72	127.52	116.7	44.995	1.4137e-05	55.951	0.015996	0.044736	0.01239	1336.6	0.00035093	0.00052284	1379.9	373.16	0.00037621	0.00052187	421.37	139.8	130.55	49.71	0.00040889	61.698	83.411	207.370	342.383	91.680	199.831	241.164	90.728	100.140	174.207	260.727	98.418	104.113	106.282	111.491	196.689	108.573	-8191	255	
18831.043	1	1	0	0	0.098302	0.057095	0.11377	0.27432	0.28165	0.14928	0.17883	0.16978	0.23409	0.16798	0.079325	0.29818	0.086087	0.066738	0.082879	0.31143	-3.775	-4.6292	-4.4625	-4.6188	-4.7583	-4.2875	-4.8167	-4.6917	-4.2188	-4.8604	-4.5833	-4.3521	-5.1021	-4.4	-4.5417	-4.8271	426.316	169.153	330.545	399.003	168.612	121.315	402.142	392.826	98.871	306.438	394.470	399.075	147.607	355.430	153.978	365.949	0.0015741	0.00059852	0.0003871	1245.5	1.1203e-05	9.5253e-06	1297.8	345.26	1.9492e-05	2.6885e-06	384.69	127.75	115.85	45.094	1.2372e-05	56.311	0.015904	0.044037	0.012224	1327.3	0.00034849	0.00051539	1369.4	371.57	0.00037117	0.00050808	419.38	140.12	130.25	49.553	0.00042593	61.953	82.849	188.130	169.014	91.596	210.464	170.756	91.030	100.161	195.304	197.483	98.393	104.261	106.102	111.838	198.064	108.460	-8191	255	
18831.139	1	1	0	0	0.18702	0.18899	0.090398	0.13416	0.028369	0.19494	0.095348	0.32669	0.1481	0.10962	0.068802	0.1711	0.055701	0.035692	0.18088	0.32727	-3.8854	-4.6312	-4.4062	-4.5125	-4.8333	-4.3896	-4.7521	-4.9938	-4.3625	-4.8646	-4.825	-4.4542	-4.9104	-4.4542	-4.3313	-4.6625	324.435	352.601	103.177	304.184	305.457	345.354	181.005	363.628	342.291	424.203	422.034	348.091	85.660	388.652	93.508	394.735	0.0012989	0.0006577	0.00020431	1239	8.0998e-06	7.5486e-07	1284.5	344.07	1.8224e-05	9.6166e-06	382.67	126.15	116.86	44.847	1.0685e-05	56.007	0.015511	0.042465	0.011967	1317.5	0.00034328	0.00050157	1361.4	369.56	0.00036884	0.00050313	418.19	139.38	130.16	49.401	0.00041656	61.619	88.455	206.873	124.668	91.709	165.887	314.722	90.814	100.054	242.693	217.592	98.527	104.103	106.153	111.552	271.449	108.398	-8191	255	
#DATA ENDS
