BOXY.EXE: ISS Imagent and Oximeter Data Acquisition Program Version 0.80
Ascii Record File

#ACQ INFORMATION
2  Detector Channels 
16  External MUX Channels 
1  Auxiliary Channels 
5000  Waveform (CCF) Frequency (Hz)
1  Waveforms Skipped 
30  Waveforms Averaged 
1  Cycles Averaged 
16  Acquisitions per Waveform 
10.0806  Updata Rate (Hz) 

#FILE INFORMATION
TRUE -- External MUX Channel results are PARSED.
FALSE -- AC DC and Phase are NOT grouped.
TRUE -- Companion Program Settings File CREATED.
FALSE -- AC data not excluded
FALSE -- DC data not excluded
FALSE -- Phase data not excluded
FALSE -- Auxillary Chn. data not excluded
Tab delimiters

#CALIBRATION STATE
TRUE -- Waveform Calibration Values APPLIED.


#AUX CALIBRATION VALUES
Val Type	aux-1	

Term	1.0000e+00	
Factor	0.0000e+00	


#WF CALIBRATION VALUES
A = Detector Channel
Val Type	A-AC1	A-AC2	A-AC3	A-AC4	A-AC5	A-AC6	A-AC7	A-AC8	A-AC9	A-AC10	A-AC11	A-AC12	A-AC13	A-AC14	A-AC15	A-AC16	A-DC1	A-DC2	A-DC3	A-DC4	A-DC5	A-DC6	A-DC7	A-DC8	A-DC9	A-DC10	A-DC11	A-DC12	A-DC13	A-DC14	A-DC15	A-DC16	A-Ph1	A-Ph2	A-Ph3	A-Ph4	A-Ph5	A-Ph6	A-Ph7	A-Ph8	A-Ph9	A-Ph10	A-Ph11	A-Ph12	A-Ph13	A-Ph14	A-Ph15	A-Ph16	

Term	0.00000e+00	0.00000e+00	0.00000e+00	0.00000e+00	0.00000e+00	0.00000e+00	0.00000e+00	0.00000e+00	0.00000e+00	0.00000e+00	0.00000e+00	0.00000e+00	0.00000e+00	0.00000e+00	0.00000e+00	0.00000e+00	0.00000e+00	0.00000e+00	0.00000e+00	0.00000e+00	0.00000e+00	0.00000e+00	0.00000e+00	0.00000e+00	0.00000e+00	0.00000e+00	0.00000e+00	0.00000e+00	0.00000e+00	0.00000e+00	0.00000e+00	0.00000e+00	0.00000e+00	0.00000e+00	0.00000e+00	0.00000e+00	0.00000e+00	0.00000e+00	0.00000e+00	0.00000e+00	0.00000e+00	0.00000e+00	0.00000e+00	0.00000e+00	0.00000e+00	0.00000e+00	0.00000e+00	0.00000e+00	
Factor	1.00000e+00	1.00000e+00	1.00000e+00	1.00000e+00	1.00000e+00	1.00000e+00	1.00000e+00	1.00000e+00	1.00000e+00	1.00000e+00	1.00000e+00	1.00000e+00	1.00000e+00	1.00000e+00	1.00000e+00	1.00000e+00	1.00000e+00	1.00000e+00	1.00000e+00	1.00000e+00	1.00000e+00	1.00000e+00	1.00000e+00	1.00000e+00	1.00000e+00	1.00000e+00	1.00000e+00	1.00000e+00	1.00000e+00	1.00000e+00	1.00000e+00	1.00000e+00	X	X	X	X	X	X	X	X	X	X	X	X	X	X	X	X	

B = Detector Channel
Val Type	B-AC1	B-AC2	B-AC3	B-AC4	B-AC5	B-AC6	B-AC7	B-AC8	B-AC9	B-AC10	B-AC11	B-AC12	B-AC13	B-AC14	B-AC15	B-AC16	B-DC1	B-DC2	B-DC3	B-DC4	B-DC5	B-DC6	B-DC7	B-DC8	B-DC9	B-DC10	B-DC11	B-DC12	B-DC13	B-DC14	B-DC15	B-DC16	B-Ph1	B-Ph2	B-Ph3	B-Ph4	B-Ph5	B-Ph6	B-Ph7	B-Ph8	B-Ph9	B-Ph10	B-Ph11	B-Ph12	B-Ph13	B-Ph14	B-Ph15	B-Ph16	

Term	0.00000e+00	0.00000e+00	0.00000e+00	0.00000e+00	0.00000e+00	0.00000e+00	0.00000e+00	0.00000e+00	0.00000e+00	0.00000e+00	0.00000e+00	0.00000e+00	0.00000e+00	0.00000e+00	0.00000e+00	0.00000e+00	0.00000e+00	0.00000e+00	0.00000e+00	0.00000e+00	0.00000e+00	0.00000e+00	0.00000e+00	0.00000e+00	0.00000e+00	0.00000e+00	0.00000e+00	0.00000e+00	0.00000e+00	0.00000e+00	0.00000e+00	0.00000e+00	-1.76971e+02	-1.26231e+02	-1.22654e+02	-1.81614e+02	-8.27724e+01	-7.88091e+01	-1.57570e+02	-1.62015e+02	-8.57950e+01	-7.03981e+01	-1.71199e+02	-1.72854e+02	-1.84169e+02	-1.76777e+02	-8.06855e+01	-1.49602e+02	
Factor	3.07816e-05	1.62578e-04	4.72384e-05	1.51029e-01	1.31753e-06	1.41732e-06	1.65794e-01	5.23204e-02	1.70557e-06	1.74508e-06	8.62220e-02	3.50286e-02	3.70922e-02	9.34852e-03	1.66101e-06	1.36017e-02	2.42273e-06	2.59562e-06	7.22291e-07	7.56502e-02	2.81075e-08	2.84093e-08	7.83351e-02	2.61589e-02	2.80967e-08	2.83958e-08	4.18652e-02	1.69423e-02	1.85081e-02	4.69075e-03	2.82755e-08	6.61081e-03	X	X	X	X	X	X	X	X	X	X	X	X	X	X	X	X	



#DISTANCE SETTINGS
A = Detector Channel
A-1	A-2	A-3	A-4	A-5	A-6	A-7	A-8	A-9	A-10	A-11	A-12	A-13	A-14	A-15	A-16	

2.5000e+00	3.0000e+00	2.5000e+00	3.0000e+00	2.0000e+00	3.0000e+00	1.5000e+00	3.0000e+00	3.0000e+00	3.0000e+00	3.0000e+00	3.0000e+00	3.0000e+00	3.0000e+00	1.5000e+00	3.0000e+00	

B = Detector Channel
B-1	B-2	B-3	B-4	B-5	B-6	B-7	B-8	B-9	B-10	B-11	B-12	B-13	B-14	B-15	B-16	

1.0000e+01	1.0000e+01	1.0000e+01	1.4400e+00	1.0000e+01	1.0000e+01	1.5100e+00	1.9400e+00	1.0000e+01	1.0000e+01	1.9900e+00	2.4900e+00	2.4100e+00	2.9000e+00	1.0000e+01	2.9800e+00	




#DATA BEGINS
time	group	step	mark	flag	A-AC1	A-AC2	A-AC3	A-AC4	A-AC5	A-AC6	A-AC7	A-AC8	A-AC9	A-AC10	A-AC11	A-AC12	A-AC13	A-AC14	A-AC15	A-AC16	A-DC1	A-DC2	A-DC3	A-DC4	A-DC5	A-DC6	A-DC7	A-DC8	A-DC9	A-DC10	A-DC11	A-DC12	A-DC13	A-DC14	A-DC15	A-DC16	A-Ph1	A-Ph2	A-Ph3	A-Ph4	A-Ph5	A-Ph6	A-Ph7	A-Ph8	A-Ph9	A-Ph10	A-Ph11	A-Ph12	A-Ph13	A-Ph14	A-Ph15	A-Ph16	B-AC1	B-AC2	B-AC3	B-AC4	B-AC5	B-AC6	B-AC7	B-AC8	B-AC9	B-AC10	B-AC11	B-AC12	B-AC13	B-AC14	B-AC15	B-AC16	B-DC1	B-DC2	B-DC3	B-DC4	B-DC5	B-DC6	B-DC7	B-DC8	B-DC9	B-DC10	B-DC11	B-DC12	B-DC13	B-DC14	B-DC15	B-DC16	B-Ph1	B-Ph2	B-Ph3	B-Ph4	B-Ph5	B-Ph6	B-Ph7	B-Ph8	B-Ph9	B-Ph10	B-Ph11	B-Ph12	B-Ph13	B-Ph14	B-Ph15	B-Ph16	aux-1	digaux	

7926.727	1	1	0	256	0.25867	0.25078	0.21599	0.13806	0.2724	0.044036	0.13793	0.17818	0.17156	0.10837	0.20659	0.17598	0.26077	0.038962	0.096016	0.27115	-4.0333	-4.8	-4.4	-4.6604	-4.6792	-4.2188	-4.9563	-4.8083	-4.1375	-4.7542	-4.4354	-4.5583	-4.7312	-4.3562	-4.6021	-4.7979	68.796	300.907	171.569	26.644	230.560	292.863	327.116	262.955	111.273	262.842	350.194	56.241	25.444	166.575	256.696	284.855	0.00045974	0.00041035	0.00013179	1337.2	1.8894e-06	4.6033e-06	1338.2	362.62	9.4973e-06	3.302e-06	413.07	136.88	119.23	40.635	4.0205e-06	50.516	0.00036035	0.00035036	9.7454e-05	1349.6	3.7929e-06	3.7384e-06	1348.5	365.48	3.7233e-06	3.6676e-06	417.61	138.79	120	41.426	3.6448e-06	51.353	94.504	91.498	100.967	18.946	226.144	149.857	18.740	23.560	167.344	189.550	23.136	27.415	27.931	32.716	169.767	31.712	-8191	255	
7926.847	1	1	0	0	0.17678	0.21303	0.024343	0.20875	0.32855	0.19295	0.12646	0.1128	0.13906	0.14637	0.19746	0.13781	0.22583	0.13063	0.11637	0.079074	-4.0771	-4.6562	-4.5042	-4.65	-4.8583	-4.2917	-4.7688	-4.85	-4.2854	-4.8167	-4.5604	-4.4812	-4.7458	-4.3604	-4.7208	-4.7292	84.276	207.894	108.895	277.755	13.674	107.897	48.649	309.308	244.342	246.772	364.988	281.276	34.184	343.997	63.531	274.358	0.00049383	0.0003014	0.00015505	1334.2	3.4521e-06	6.4087e-06	1329.7	359.43	5.2493e-06	2.1849e-06	412.18	136.77	119.09	40.486	2.4383e-06	50.296	0.00034269	0.00033065	9.1641e-05	1346.3	3.6243e-06	3.6137e-06	1344.1	364.57	3.5802e-06	3.5364e-06	416.61	138.58	119.78	41.249	3.5846e-06	51.317	95.589	115.733	92.537	19.027	123.893	148.783	18.909	23.694	160.741	177.072	23.045	27.191	27.891	32.865	108.703	31.732	-8191	255	
7926.919	1	1	0	0	0.15768	0.058505	0.14059	0.18609	0.18325	0.082742	0.27301	0.33722	0.32363	0.10152	0.11988	0.13793	0.15964	0.14125	0.037941	0.24922	-3.8667	-4.8667	-4.3604	-4.4729	-4.7042	-4.4083	-4.8625	-4.7083	-4.1562	-4.775	-4.5271	-4.3771	-4.9667	-4.2542	-4.5854	-5.0479	286.112	336.809	344.089	347.254	64.849	186.916	297.320	337.992	232.843	210.933	79.870	356.017	311.440	359.153	219.012	271.896	0.0005221	0.00047829	0.00012231	1334.4	2.6059e-06	4.5918e-06	1333.2	361.24	4.6319e-06	2.2763e-06	413.62	137.13	118.42	40.528	5.1063e-06	50.658	0.00033837	0.00032705	8.8923e-05	1345.2	3.5804e-06	3.568e-06	1344.4	365	3.6297e-06	3.6196e-06	417.81	138.92	119.79	41.328	3.7119e-06	51.505	95.123	127.473	79.727	19.021	141.912	113.524	18.998	23.511	155.283	99.990	23.146	27.420	27.895	32.595	167.517	31.938	-8191	255	
7927.015	1	1	0	0	0.22499	0.15085	0.18245	0.37081	0.087642	0.26775	0.14546	0.20159	0.19817	0.045249	0.30872	0.30432	0.24478	0.18914	0.23394	0.22664	-3.8479	-4.8292	-4.5104	-4.5708	-4.8708	-4.225	-4.8812	-5.0417	-4.05	-4.6667	-4.7208	-4.1458	-4.8542	-4.4021	-4.3396	-4.9875	114.362	219.124	251.330	327.927	270.165	298.179	356.580	340.436	76.055	326.895	294.780	292.979	314.623	11.991	125.419	245.661	0.00048489	0.00081209	0.00014429	1340.6	4.7289e-06	3.9713e-06	1335.8	360.5	9.0106e-06	3.7454e-06	413.12	136.97	118.92	40.596	4.5253e-06	50.875	0.0003494	0.00033646	9.3473e-05	1350.3	3.7309e-06	3.6875e-06	1347.1	365.01	3.7485e-06	3.6893e-06	417.28	138.85	120.13	41.393	3.7123e-06	51.548	98.233	88.834	108.947	19.166	173.433	136.233	18.823	23.490	147.015	201.502	22.947	27.446	27.964	32.601	164.958	32.001	-8191	255	
7927.134	1	1	0	0	0.2772	0.12772	0.22396	0.25908	0.30551	0.079406	0.33197	0.19459	0.14951	0.13398	0.24752	0.127	0.077822	0.30609	0.23617	0.23668	-3.9146	-4.5375	-4.6604	-4.3979	-4.7333	-4.45	-4.5375	-4.8125	-4.3729	-4.6917	-4.7396	-4.4479	-4.8104	-4.5833	-4.3417	-5.0167	157.594	38.745	49.484	258.226	271.986	344.293	277.051	74.582	105.866	81.398	339.946	310.762	264.365	359.963	34.928	313.313	0.00041967	0.00056298	0.00021871	1339.7	6.0582e-06	3.2054e-06	1331.9	361.99	4.5582e-06	6.5022e-06	412.55	137.35	118.88	40.636	5.203e-06	50.863	0.00034933	0.00033998	9.327e-05	1349.9	3.7583e-06	3.7195e-06	1347.9	365.78	3.8246e-06	3.7325e-06	417.3	139.06	119.93	41.471	3.787e-06	51.632	98.333	90.949	114.344	19.057	165.721	185.414	18.811	23.550	159.323	172.624	23.347	27.659	27.978	32.697	204.758	31.724	-8191	255	
7927.230	1	1	0	0	0.15681	0.16379	0.28666	0.092263	0.20586	0.1959	0.14411	0.26379	0.044955	0.03662	0.22127	0.17525	0.10566	0.19795	0.16288	0.19528	-3.9813	-4.7312	-4.7	-4.2354	-4.5979	-4.5833	-4.4083	-5.0042	-4.2729	-4.6083	-4.6937	-4.2917	-4.7875	-4.5	-4.0771	-4.9208	169.896	63.720	238.353	325.222	250.255	295.432	291.721	267.597	57.940	15.708	280.079	365.022	81.701	349.157	163.999	305.220	0.00047674	0.00062001	6.6594e-05	1333.5	2.9888e-06	3.3674e-06	1336.9	360.62	6.2223e-06	4.5969e-06	412.97	137.01	119.39	40.791	3.0155e-06	50.843	0.00035507	0.00034191	9.4149e-05	1350	3.7943e-06	3.7835e-06	1351.1	365.5	3.7774e-06	3.7534e-06	418.12	139.18	120.37	41.487	3.7844e-06	51.638	92.627	128.060	153.698	19.077	107.874	100.746	18.740	23.512	178.059	145.944	23.001	27.515	27.919	32.703	113.656	31.745	-8191	255	
7927.326	1	1	0	0	0.21478	0.14231	0.12203	0.32991	0.12746	0.035313	0.093174	0.27035	0.092991	0.12683	0.20471	0.070319	0.29856	0.26945	0.14069	0.14635	-3.975	-4.2812	-4.6687	-4.2396	-4.7646	-4.4167	-4.4292	-5.0646	-4.2604	-4.3708	-4.8833	-4.4521	-4.6292	-4.6833	-4.25	-4.9354	114.054	23.910	179.264	330.382	158.103	135.520	61.013	15.094	152.558	99.192	318.740	317.969	318.270	141.598	47.121	307.248	0.00052097	0.00011421	0.00010072	1335.4	5.0221e-06	2.6205e-06	1336	361.83	5.5142e-06	3.5734e-06	413.07	137.53	118.75	40.645	4.1492e-06	50.803	0.0003522	0.00034478	9.4787e-05	1348.7	3.7624e-06	3.7581e-06	1348.9	365.82	3.833e-06	3.7387e-06	418.17	139.32	119.96	41.467	3.7431e-06	51.581	101.830	17.659	75.649	18.962	182.291	127.262	18.892	23.631	132.565	156.547	22.924	27.399	28.054	32.699	147.899	31.874	-8191	255	
7927.423	1	1	0	0	0.072114	0.14579	0.11663	0.18049	0.35153	0.14702	0.17678	0.39204	0.21583	0.30614	0.089852	0.090031	0.028039	0.20907	0.19613	0.12228	-4.05	-4.3729	-4.9167	-4.2708	-4.7396	-4.6312	-4.4583	-4.9354	-4.4875	-4.2708	-5.0042	-4.2375	-4.7292	-4.9208	-4.0708	-4.9333	100.718	227.451	105.791	306.615	265.248	11.335	352.004	314.238	50.939	54.317	182.420	15.941	142.013	15.186	243.377	10.333	0.00044127	0.00052724	0.0001257	1338.8	5.3323e-06	4.305e-06	1337.4	362.09	4.9981e-06	5.6195e-06	413.71	137.29	118.5	40.627	5.7611e-06	50.804	0.00034748	0.00033641	9.3389e-05	1349.1	3.6633e-06	3.5922e-06	1348.6	365.68	3.6641e-06	3.6019e-06	417.74	139.11	119.88	41.341	3.6478e-06	51.567	94.544	67.161	75.595	18.960	178.979	122.182	18.775	23.381	167.799	121.944	22.927	27.479	27.883	32.538	143.015	31.925	-8191	255	
7927.519	1	1	0	0	0.16917	0.18759	0.080246	0.21495	0.20085	0.20774	0.11256	0.015128	0.13025	0.14484	0.2124	0.21176	0.38222	0.20424	0.12066	0.022559	-4.15	-4.2896	-4.8833	-4.4083	-4.3229	-4.7438	-4.3438	-4.9958	-4.3729	-4.3229	-5.1667	-4.3708	-4.65	-4.7083	-4.0896	-4.7562	77.516	358.809	33.722	329.482	87.293	180.159	293.265	299.514	87.647	81.452	321.324	230.878	291.549	196.864	13.267	248.419	0.00046328	0.00055599	7.3167e-05	1333.9	4.8898e-06	5.111e-06	1335.5	361.25	2.8731e-06	6.7657e-06	412.28	136.95	118.72	40.671	4.8297e-06	50.653	0.00034773	0.00032956	9.1468e-05	1347.2	3.6832e-06	3.5462e-06	1346.7	365.25	3.6554e-06	3.6197e-06	417.02	138.82	119.97	41.39	3.6252e-06	51.565	95.732	115.994	102.568	19.132	160.555	149.250	18.858	23.654	113.902	144.319	22.887	27.493	28.263	32.897	139.415	31.754	-8191	255	
7927.615	1	1	0	0	0.065627	0.10084	0.10548	0.23892	0.1673	0.23562	0.16121	0.25821	0.038249	0.019513	0.42997	0.042221	0.084305	0.22983	0.28283	0.10806	-4.1021	-4.2083	-4.8479	-4.55	-4.2104	-4.8562	-4.2688	-5.0208	-4.6479	-4.1396	-4.8688	-4.5646	-4.3583	-4.7604	-4.1312	-4.6625	344.072	133.984	38.396	250.895	314.927	189.031	298.947	291.840	266.262	183.913	353.938	189.572	169.778	359.308	79.038	92.512	0.00049952	0.00027539	0.00013352	1335.8	3.5253e-06	3.7717e-06	1334.1	361.54	1.9379e-06	7.3683e-06	413.99	137.36	118.79	40.6	5.4947e-06	50.618	0.00034564	0.00032849	9.1815e-05	1349	3.6301e-06	3.63e-06	1348.1	365.61	3.6604e-06	3.6457e-06	418.08	139.14	120.17	41.389	3.6551e-06	51.578	101.143	85.799	83.714	19.102	176.575	121.697	18.863	23.717	189.743	149.611	23.323	27.561	27.971	32.741	147.820	31.973	-8191	255	
7927.711	1	1	0	0	0.22294	0.078885	0.14438	0.22864	0.1822	0.035738	0.20571	0.20688	0.19338	0.12291	0.2049	0.19675	0.21255	0.1966	0.3537	0.038387	-4.1708	-4.3083	-4.75	-4.6062	-4.2833	-4.7979	-4.4479	-4.6875	-4.75	-4.1937	-4.8708	-4.5167	-4.3083	-4.8688	-4.3063	-4.5604	94.599	177.671	183.717	313.135	82.952	15.675	356.219	262.332	311.251	218.601	272.774	309.722	337.210	340.152	32.041	338.623	0.00055243	0.0004237	5.5119e-05	1337.6	4.3657e-06	2.0273e-06	1338	361.58	5.8743e-06	4.2198e-06	414.9	137.18	118.83	40.757	4.9705e-06	50.866	0.00034706	0.00033481	9.3677e-05	1349.9	3.7153e-06	3.6116e-06	1349.4	365.91	3.6739e-06	3.713e-06	418.18	139.16	120	41.421	3.7158e-06	51.62	93.442	103.579	140.639	19.083	146.286	135.209	18.828	23.552	145.078	136.622	23.166	27.738	27.920	32.740	183.688	31.824	-8191	255	
7927.807	1	1	0	0	0.18024	0.086583	0.037538	0.066672	0.10925	0.19435	0.20224	0.18849	0.067083	0.29012	0.1414	0.19462	0.11472	0.1952	0.14887	0.039144	-4.3875	-4.0521	-4.7188	-4.8083	-4.1875	-4.9229	-4.6	-4.6458	-4.6292	-4.3	-4.7542	-4.4896	-4.3	-4.9417	-4.3229	-4.425	269.735	17.903	123.763	196.871	100.023	222.933	25.097	251.485	298.581	145.760	300.364	279.519	7.890	220.978	207.532	64.748	0.00045277	0.00063219	0.00012571	1337	3.624e-06	5.1067e-06	1342.2	361.28	8.4367e-06	3.0663e-06	414.19	137.54	118.98	40.969	6.2634e-06	50.906	0.00035038	0.00033697	9.462e-05	1350	3.7494e-06	3.7062e-06	1351.9	365.99	3.7635e-06	3.6997e-06	418.61	139.26	120.16	41.568	3.7029e-06	51.64	99.693	62.965	115.327	19.046	96.622	145.116	18.815	23.590	184.169	107.053	23.108	27.295	27.884	32.632	164.264	31.816	-8191	255	
7927.928	1	1	0	0	0.19531	0.094872	0.14538	0.14165	0.1688	0.10169	0.20136	0.17098	0.15195	0.051274	0.051806	0.20978	0.32056	0.20144	0.1652	0.13157	-4.375	-4.1438	-4.4396	-4.7521	-4.1667	-4.8187	-4.6687	-4.625	-4.7583	-4.0479	-4.6521	-4.8938	-4.1917	-4.9104	-4.4	-4.4667	129.270	93.205	23.681	313.391	347.285	186.106	88.722	339.980	352.856	70.293	244.342	209.651	326.555	107.376	199.077	169.476	0.00046394	0.00030396	9.639e-05	1344.4	6.7457e-06	3.6123e-06	1341.3	361.68	5.3844e-06	8.5822e-06	412.92	137.41	118.79	40.792	3.4071e-06	50.629	0.00035312	0.00034084	9.5946e-05	1352.9	3.7989e-06	3.78e-06	1352.4	365.91	3.8181e-06	3.7751e-06	418.3	139.1	120.12	41.503	3.7285e-06	51.607	86.985	92.730	116.556	19.012	168.526	198.814	18.813	23.554	171.443	165.772	22.902	27.488	27.976	32.757	149.046	31.804	-8191	255	
7928.022	1	1	0	0	0.10391	0.03655	0.10116	0.13689	0.27632	0.23226	0.020456	0.2692	0.14674	0.26378	0.22031	0.15878	0.29105	0.10354	0.24632	0.19231	-4.4396	-4.1	-4.5292	-4.8396	-4.2688	-4.7812	-4.5687	-4.5021	-4.7875	-4.2646	-4.6667	-4.9125	-4.1958	-4.675	-4.4792	-4.3292	85.042	345.252	60.191	316.360	331.447	342.506	275.020	249.890	169.332	168.228	287.909	58.848	334.036	53.474	16.397	12.559	0.00049914	0.00037726	0.00018732	1339.3	5.0144e-06	3.964e-06	1338.6	361.82	4.3064e-06	3.6713e-06	414.53	136.72	118.62	40.646	3.1252e-06	50.834	0.00035347	0.00033975	9.4944e-05	1351.8	3.7802e-06	3.6697e-06	1350.2	365.97	3.7311e-06	3.7217e-06	418.24	139.18	119.89	41.413	3.8177e-06	51.634	96.349	142.234	100.973	18.957	180.831	111.232	18.773	23.657	143.712	161.910	23.143	27.591	28.080	32.678	122.492	31.911	-8191	255	
7928.118	1	1	0	0	0.17687	0.24209	0.20398	0.16812	0.13313	0.17175	0.2964	0.14835	0.063567	0.033928	0.090413	0.17534	0.21676	0.22237	0.1092	0.26265	-4.6917	-4.2688	-4.3667	-4.725	-4.2083	-4.7625	-4.6937	-4.3333	-4.8688	-4.3562	-4.3	-4.9021	-4.2667	-4.6375	-4.6229	-4.3438	12.764	11.764	205.363	306.431	22.496	338.805	279.779	289.852	235.956	71.896	328.771	348.423	349.217	15.168	204.576	358.947	0.00046223	0.00033271	0.00016625	1340.5	3.1212e-06	4.2024e-06	1339.6	362.3	6.2726e-06	4.325e-06	413.7	137.43	118.34	40.692	3.952e-06	50.778	0.00036212	0.00035192	9.79e-05	1352	3.8939e-06	3.8925e-06	1351.1	366.61	3.8819e-06	3.8734e-06	418.83	139.48	120.15	41.549	3.8366e-06	51.693	99.351	150.078	94.329	18.880	190.510	156.953	18.922	23.561	144.764	145.308	23.086	27.459	28.203	32.759	132.781	31.977	-8191	255	
7928.214	1	1	0	0	0.10153	0.21554	0.15657	0.26947	0.079768	0.10047	0.12169	0.12486	0.074669	0.14027	0.093227	0.13517	0.16572	0.23607	0.12851	0.21111	-4.3396	-4.3042	-4.2667	-4.875	-4.1333	-4.6333	-4.9542	-4.1979	-4.7438	-4.5354	-4.3958	-4.8667	-4.2688	-4.6021	-4.9083	-4.2896	58.978	96.557	106.154	336.771	83.612	280.786	319.846	17.250	198.497	349.783	210.760	321.386	55.490	306.180	121.397	327.042	0.00047835	0.00051389	0.0002458	1342	6.7022e-06	4.852e-06	1339.4	362.08	7.1002e-06	5.6888e-06	416.46	137.66	119.26	40.981	3.9872e-06	51.002	0.00035825	0.00034493	9.605e-05	1354.5	3.7955e-06	3.7114e-06	1353.6	366.89	3.8225e-06	3.8151e-06	419.58	139.66	120.43	41.647	3.8435e-06	51.688	102.577	97.059	123.798	19.044	149.345	182.626	18.878	23.586	209.056	100.604	23.076	27.793	27.895	32.716	136.131	31.785	-8191	255	
7928.311	1	1	0	0	0.15499	0.098153	0.089422	0.29572	0.097298	0.17108	0.22149	0.15653	0.17248	0.18539	0.27318	0.26479	0.10758	0.22054	0.14014	0.054526	-4.2625	-4.5146	-4.3979	-4.9646	-4.1833	-4.375	-5.0875	-4.2438	-4.5396	-4.5729	-4.3646	-5.0771	-4.3083	-4.5042	-4.8688	-4.3021	150.184	295.044	52.912	9.261	32.311	89.385	266.159	347.380	278.199	245.651	46.951	45.507	287.962	340.652	301.411	347.050	0.00047081	0.0004758	0.0001675	1341.7	6.5553e-06	6.6232e-06	1342.7	361.91	5.2689e-06	3.1508e-06	415.16	137.39	119.27	40.769	2.7284e-06	50.888	0.00036496	0.00035073	9.7557e-05	1355.4	3.9099e-06	3.8688e-06	1354.2	366.79	3.8709e-06	3.8048e-06	419.65	139.4	120.32	41.563	3.7894e-06	51.703	89.748	132.200	81.806	18.919	175.883	86.590	18.948	23.655	179.416	186.996	22.957	27.476	27.924	32.640	184.443	31.899	-8191	255	
7928.407	1	1	0	0	0.13498	0.22113	0.1491	0.28728	0.082954	0.044176	0.19623	0.17546	0.10307	0.096886	0.054758	0.062975	0.12246	0.097523	0.034654	0.28308	-4.2729	-4.4708	-4.4375	-4.8583	-4.3354	-4.4396	-5.0813	-4.275	-4.5979	-4.5667	-4.3229	-4.8417	-4.4042	-4.3521	-4.7021	-4.1833	335.259	223.703	268.280	38.279	20.760	299.031	355.784	333.606	163.354	324.729	323.766	49.837	318.006	31.742	341.713	287.094	0.00054424	0.00028697	7.016e-05	1342.3	2.374e-06	5.4533e-06	1338.4	361.78	5.4079e-06	5.4395e-06	415.74	138.24	119.34	40.89	5.3006e-06	50.876	0.00036292	0.00034753	9.5159e-05	1355.8	3.775e-06	3.7603e-06	1353.5	366.1	3.7793e-06	3.7216e-06	419.03	139.66	120.2	41.49	3.7275e-06	51.621	93.578	92.882	101.527	19.013	129.963	178.605	18.658	23.630	158.439	156.718	23.143	27.259	28.073	32.600	132.784	31.785	-8191	255	
7928.527	1	1	0	0	0.26312	0.064181	0.30267	0.21964	0.11882	0.039903	0.21891	0.20764	0.20322	0.14003	0.27372	0.035459	0.072736	0.24529	0.024917	0.11768	-4.1625	-4.7083	-3.9104	-5.0083	-4.5104	-4.4396	-4.8208	-4.3812	-4.5042	-4.6021	-4.3063	-4.9708	-4.5833	-4.2125	-4.7083	-4.4396	277.309	79.294	271.041	332.204	288.121	204.198	298.741	231.559	64.767	339.885	18.147	258.061	170.009	175.281	352.354	306.528	0.00051529	0.00070684	0.00016998	1342.5	2.7308e-06	4.8428e-06	1340.3	361.62	4.3879e-06	3.8141e-06	414.13	137.9	119.13	40.953	8.0493e-06	50.613	0.00034862	0.00033861	9.3103e-05	1355	3.7142e-06	3.6636e-06	1353.4	366.42	3.7431e-06	3.6257e-06	418.58	139.47	120.26	41.478	3.7099e-06	51.555	101.318	83.462	110.501	18.995	179.613	166.087	18.830	23.556	162.053	167.069	23.032	27.465	28.102	32.792	147.012	31.877	-8191	255	
7928.624	1	1	0	0	0.24005	0.13506	0.18666	0.20594	0.080124	0.24708	0.18938	0.3139	0.10176	0.19039	0.066737	0.22562	0.33861	0.078566	0.1254	0.072347	-4.1875	-4.5563	-4.1937	-4.9812	-4.4771	-4.0583	-4.9396	-4.5312	-4.4917	-4.65	-4.1354	-4.7354	-4.4125	-4.2604	-4.9354	-4.4292	22.621	147.840	121.752	280.824	332.760	177.020	257.966	299.045	165.319	83.857	40.352	357.820	329.296	346.612	245.932	73.220	0.00054281	0.00060533	0.00010001	1339.4	4.0557e-06	3.528e-06	1338.9	362.74	5.8905e-06	2.0919e-06	413.81	137.07	119.07	40.768	3.7403e-06	50.822	0.00034847	0.00033577	9.3427e-05	1354.2	3.7523e-06	3.6324e-06	1352.2	366.47	3.7128e-06	3.6173e-06	418.33	138.96	120.25	41.468	3.6746e-06	51.57	92.211	98.189	87.943	19.004	183.495	136.944	18.697	23.707	162.384	135.358	23.015	27.470	27.982	32.557	150.644	31.839	-8191	255	
7928.720	1	1	0	0	0.10757	0.12404	0.11192	0.15213	0.086153	0.33152	0.24033	0.24484	0.15262	0.21531	0.041227	0.08418	0.082452	0.26764	0.31681	0.11933	-4.0354	-4.6417	-4.3521	-4.7438	-4.4521	-4.5104	-5.1771	-4.5375	-4.3479	-4.7792	-4.4146	-4.5625	-4.9042	-4.2604	-4.7812	-4.6375	205.301	137.149	302.630	343.066	246.970	179.790	248.472	363.961	262.770	259.462	216.076	29.582	186.101	362.093	267.681	157.319	0.0004722	0.00059355	0.00019439	1342	4.2704e-06	2.3282e-06	1338.5	361.97	5.5268e-06	1.5201e-06	414.27	137.35	119.48	40.699	6.0935e-06	50.654	0.0003431	0.0003197	8.9999e-05	1354	3.5611e-06	3.533e-06	1353.1	365.82	3.5388e-06	3.5107e-06	418.09	139.18	120.05	41.441	3.5548e-06	51.498	96.103	87.085	141.059	19.087	159.466	162.515	18.894	23.567	145.209	203.445	23.177	27.587	27.806	32.597	196.405	31.768	-8191	255	
7928.791	1	1	0	0	0.17825	0.13004	0.14603	0.33142	0.077635	0.32247	0.15665	0.077448	0.014971	0.23615	0.050192	0.26272	0.20615	0.1509	0.24368	0.063598	-4.0667	-4.7354	-4.3479	-4.7104	-4.5875	-4.2438	-5.1229	-4.5417	-4.0729	-4.7208	-4.4333	-4.4417	-4.8042	-4.3542	-4.6208	-4.7167	214.067	45.750	27.835	317.809	107.299	87.985	326.184	135.813	340.806	80.364	305.280	49.306	99.911	352.126	239.663	23.933	0.00048316	0.00056619	0.00012331	1342.4	4.0099e-06	1.6453e-06	1337.2	363.05	4.9858e-06	6.182e-06	412.8	136.57	119.32	40.683	6.538e-06	50.673	0.00033689	0.00032461	9.0154e-05	1353	3.5772e-06	3.5058e-06	1351.5	366.24	3.5416e-06	3.46e-06	417.5	138.68	119.93	41.348	3.4275e-06	51.503	92.949	61.968	106.501	19.061	165.727	101.696	18.929	23.522	138.931	211.259	22.922	27.690	27.915	32.520	154.509	31.768	-8191	255	
7928.910	1	1	0	0	0.091981	0.28176	0.10596	0.22422	0.13939	0.048908	0.094504	0.22051	0.17899	0.058267	0.23162	0.22764	0.15544	0.19986	0.059573	0.11655	-4.0875	-4.9042	-4.2854	-4.6104	-4.8125	-4.2125	-4.7812	-4.7958	-4.3354	-4.8688	-4.5854	-4.325	-4.825	-4.3896	-4.6167	-4.6854	114.534	25.792	160.640	308.975	113.730	295.241	290.424	301.732	43.271	45.542	42.676	7.166	315.408	131.351	159.675	272.385	0.00051343	0.00048702	0.00011435	1335.6	3.0597e-06	1.5393e-06	1339.5	361.47	2.057e-06	6.4687e-06	413.68	137.43	118.07	40.624	2.5468e-06	50.52	0.00032009	0.00030827	8.5424e-05	1348.3	3.3389e-06	3.261e-06	1349	365.21	3.3156e-06	3.2756e-06	417.51	138.75	119.42	41.289	3.2998e-06	51.375	95.994	65.589	68.448	19.034	149.882	165.050	18.958	23.739	76.900	161.314	23.161	27.577	27.927	32.653	187.444	31.900	-8191	255	
7929.006	1	1	0	0	0.01869	0.18259	0.031197	0.11292	0.099931	0.050617	0.38327	0.26161	0.069806	0.1372	0.16389	0.13712	0.061065	0.18762	0.039213	0.055506	-3.8292	-4.6979	-4.5125	-4.5687	-4.8896	-4.1542	-4.6625	-4.7917	-4.1625	-4.5813	-4.5625	-4.4979	-5.1	-4.3729	-4.6104	-4.875	294.623	293.921	351.023	339.341	93.847	196.906	244.265	285.907	254.755	155.414	319.054	34.816	67.521	97.630	275.561	300.299	0.00045138	0.00050754	0.00018266	1337.5	5.4534e-06	4.2424e-06	1331.2	361.15	3.4291e-06	3.3195e-06	410.71	137.58	118.63	40.641	5.2224e-06	50.637	0.00031136	0.00030386	8.4284e-05	1346.9	3.3148e-06	3.3139e-06	1346.7	365.38	3.3242e-06	3.3251e-06	416.45	138.9	119.8	41.281	3.3758e-06	51.419	96.492	130.999	100.913	18.943	164.540	106.577	18.677	23.561	151.908	170.919	23.182	27.604	28.087	32.527	164.912	31.776	-8191	255	
7929.103	1	1	0	0	0.25928	0.144	0.11275	0.19072	0.22338	0.1425	0.18976	0.21149	0.28492	0.26538	0.25689	0.093164	0.082046	0.060005	0.15031	0.12767	-3.5542	-4.7125	-4.6542	-4.425	-4.6188	-4.2708	-4.6354	-4.7	-4.1042	-4.6771	-4.9042	-4.4	-4.9062	-4.4292	-4.4083	-4.7896	290.954	73.121	25.130	346.987	194.088	251.759	287.009	13.169	74.626	26.247	306.104	77.900	282.273	297.986	248.859	57.721	0.00051598	0.00066253	0.00025879	1339.7	5.5852e-06	2.8546e-06	1335	361.4	6.3596e-06	8.4588e-06	414.67	137.22	118.62	40.481	7.3754e-06	50.59	0.00031689	0.00030774	8.5537e-05	1348	3.3733e-06	3.2755e-06	1347	365.23	3.3364e-06	3.3409e-06	417.2	138.64	119.61	41.253	3.3515e-06	51.44	97.221	96.891	74.953	19.056	166.856	179.348	18.695	23.633	132.859	154.489	23.016	27.812	27.886	32.735	150.256	31.877	-8191	255	
7929.199	1	1	0	0	0.05753	0.22226	0.19417	0.33684	0.22882	0.40472	0.062141	0.27825	0.20379	0.21003	0.10664	0.2526	0.11187	0.15125	0.16952	0.34085	-3.7521	-4.575	-4.7979	-4.5104	-4.7958	-4.5542	-4.7771	-4.9187	-4.3208	-4.4708	-4.6229	-4.2708	-4.8688	-4.3417	-4.4313	-4.8542	155.498	169.289	5.867	309.463	207.994	109.696	275.286	269.907	161.325	271.147	36.859	329.841	206.676	363.265	33.314	130.060	0.00049135	0.00031037	0.00014457	1335.7	3.166e-06	3.0154e-06	1337.1	361.39	3.2465e-06	2.9666e-06	412.53	137.43	118.39	40.652	2.5488e-06	50.755	0.00031815	0.00030762	8.3256e-05	1348.2	3.419e-06	3.338e-06	1347.5	364.96	3.3745e-06	3.3621e-06	416.62	138.72	119.53	41.339	3.409e-06	51.405	93.398	121.263	120.135	19.121	182.853	161.553	18.879	23.619	115.139	176.462	22.959	27.382	27.759	32.554	174.806	31.727	-8191	255	
7929.319	1	1	0	0	0.051871	0.30614	0.14181	0.41221	0.076745	0.094019	0.099137	0.17077	0.13045	0.12224	0.14854	0.27343	0.27301	0.23569	0.15064	0.22171	-3.7792	-4.65	-4.65	-4.2063	-4.7312	-4.35	-4.4208	-4.7708	-4.2729	-4.65	-4.7458	-4.2229	-4.7979	-4.6125	-4.1417	-5.1104	276.096	326.827	217.056	327.617	137.391	83.369	291.405	322.248	171.627	141.419	30.081	52.259	12.076	65.965	17.241	7.121	0.00057517	0.00056851	0.00014123	1334.4	2.7749e-06	5.5539e-06	1337.7	360.71	3.5675e-06	4.9816e-07	413.49	136.66	118.94	40.674	4.0081e-06	50.677	0.00031955	0.00030808	8.378e-05	1347.3	3.3635e-06	3.2886e-06	1347	364.65	3.286e-06	3.2842e-06	416.86	138.55	119.54	41.307	3.2342e-06	51.313	96.142	63.822	86.304	18.982	162.169	119.442	18.830	23.540	237.846	325.959	23.093	27.536	27.914	32.751	181.632	31.998	-8191	255	
7929.391	1	1	0	0	0.11213	0.3483	0.13928	0.14831	0.058225	0.16131	0.27238	0.18642	0.10739	0.15153	0.28096	0.21438	0.093369	0.15776	0.14663	0.089531	-3.8688	-4.3854	-4.6854	-4.3375	-4.8021	-4.6333	-4.4979	-4.8313	-4.4688	-4.5458	-4.7833	-4.3083	-4.775	-4.4604	-4.1208	-4.9958	215.770	333.270	252.338	337.314	24.682	68.488	258.326	337.989	62.150	268.042	337.924	303.328	354.490	357.882	98.784	67.133	0.00049428	0.00041984	0.00012162	1336.8	2.2297e-06	2.619e-06	1333.6	360.1	6.6319e-06	7.1859e-06	414.1	137.01	118.61	40.675	6.0758e-06	50.544	0.00030798	0.00029898	8.1957e-05	1347.8	3.3316e-06	3.183e-06	1347.3	364.57	3.2523e-06	3.2554e-06	416.26	138.57	119.71	41.321	3.2661e-06	51.355	92.748	91.370	153.625	18.948	139.879	106.854	18.866	23.524	153.372	168.390	22.991	27.556	28.166	32.628	156.099	31.896	-8191	255	
7929.487	1	1	0	0	0.28089	0.24492	0.24004	0.093929	0.30377	0.063428	0.22527	0.12069	0.10591	0.3297	0.10851	0.21836	0.26869	0.13586	0.19753	0.047379	-4.0833	-4.3	-4.7333	-4.4604	-4.4625	-4.5458	-4.4458	-4.8438	-4.325	-4.5708	-4.8354	-4.2562	-4.6771	-4.7562	-4.0813	-4.7604	159.089	280.964	66.101	12.919	103.056	161.765	275.086	267.036	54.142	214.813	221.112	284.264	346.563	49.937	306.509	27.922	0.00050862	0.00048621	0.00023257	1337.1	4.134e-06	2.4495e-06	1338	361.23	6.1366e-06	6.1324e-06	414.76	137.78	119.04	40.567	6.1195e-06	50.67	0.00031141	0.00029483	8.2007e-05	1349.3	3.2693e-06	3.172e-06	1348	365.07	3.224e-06	3.183e-06	417.1	139.02	119.68	41.319	3.1841e-06	51.399	92.451	113.594	93.513	19.138	186.901	164.940	18.985	23.420	164.594	163.174	22.897	27.747	28.213	32.741	116.932	31.933	-8191	255	
7929.608	1	1	0	0	0.11793	0.1257	0.15575	0.23668	0.24915	0.25005	0.16564	0.35195	0.10026	0.35651	0.18655	0.24785	0.079068	0.27479	0.062773	0.2124	-4.2646	-4.4042	-4.9625	-4.5813	-4.5062	-4.7167	-4.2583	-4.9896	-4.4625	-4.1271	-4.9396	-4.2458	-4.5104	-4.875	-4.1687	-4.6396	20.531	99.788	148.501	303.046	322.195	245.506	305.043	306.399	87.839	150.801	226.666	276.669	33.049	349.481	333.651	268.025	0.00051371	0.00057875	7.4799e-05	1335	3.5949e-06	3.8668e-06	1333.6	361.2	6.1433e-06	6.3088e-06	412.99	136.73	118.91	40.65	4.5942e-06	50.62	0.00030491	0.00028708	7.8796e-05	1348	3.2041e-06	3.0713e-06	1344.2	364.46	3.1421e-06	3.0523e-06	416.51	138.64	119.63	41.29	3.0925e-06	51.335	98.219	81.393	110.594	18.937	138.976	152.316	19.017	23.568	154.222	199.730	23.049	27.683	28.084	32.497	142.113	31.721	-8191	255	
7929.704	1	1	0	0	0.34005	0.12299	0.089466	0.26041	0.14988	0.2881	0.37806	0.29746	0.068122	0.13252	0.045859	0.10226	0.082876	0.1188	0.21181	0.065252	-4.2438	-4.3021	-4.6958	-4.5292	-4.3812	-4.8771	-4.2688	-4.9333	-4.6	-4.1583	-4.9313	-4.2792	-4.4437	-4.7688	-4.2208	-4.6229	301.743	234.372	312.856	326.521	318.992	235.753	267.138	340.358	265.955	24.828	354.485	315.783	19.501	95.767	357.484	18.711	0.00044565	0.00047282	3.9906e-05	1332.9	2.2422e-06	3.7505e-06	1333.7	360.38	6.3455e-06	6.3499e-06	412.47	137.65	117.98	40.634	6.1533e-06	50.772	0.00029607	0.00027488	7.5505e-05	1343.7	3.0467e-06	2.9767e-06	1344.8	364.15	3.0392e-06	2.8973e-06	415.62	138.74	119.23	41.233	3.0006e-06	51.336	99.808	85.827	129.363	19.052	157.703	154.982	18.770	23.452	135.656	148.408	22.922	27.493	28.122	32.689	165.139	31.755	-8191	255	
7929.800	1	1	0	0	0.16181	0.068256	0.14713	0.37611	0.17721	0.15185	0.39504	0.040289	0.14696	0.014735	0.24911	0.15387	0.2051	0.16675	0.19361	0.14463	-4.4229	-4.2	-4.9938	-4.6687	-4.4646	-4.7208	-4.4979	-4.7729	-4.6396	-4.2104	-4.9771	-4.4875	-4.3375	-5.0062	-4.1396	-4.5708	244.045	276.425	69.001	352.972	243.831	333.345	291.759	338.803	101.770	332.418	357.579	351.591	24.305	287.795	355.872	309.186	0.00050015	0.00060969	0.0001831	1335.1	5.3071e-06	5.3886e-06	1333.7	361.86	6.6511e-06	5.3421e-06	412.59	137	118.51	40.861	5.1808e-06	50.638	0.00028353	0.00026476	7.6045e-05	1344.6	2.9763e-06	2.9141e-06	1343.9	364.54	2.9828e-06	2.9148e-06	415.43	138.38	119.25	41.317	2.9645e-06	51.305	97.091	85.783	104.177	19.107	178.786	147.949	18.804	23.605	180.852	173.142	23.082	27.600	27.907	32.760	110.305	31.787	-8191	255	
7929.919	1	1	0	0	0.20557	0.15295	0.17113	0.12384	0.20202	0.22988	0.032153	0.1162	0.039547	0.30653	0.16018	0.067249	0.2252	0.1472	0.1688	0.072961	-4.2812	-4.1854	-4.5625	-4.9688	-4.2021	-4.9708	-4.6271	-4.7271	-4.7417	-4.2333	-4.7792	-4.8021	-4.3354	-5.1125	-4.4292	-4.5188	156.502	299.174	249.768	343.902	254.709	357.471	358.381	325.788	312.357	315.627	332.223	35.909	293.052	334.312	87.521	321.518	0.00043613	0.00038732	9.7766e-05	1331.3	4.1442e-06	2.2872e-06	1335.4	360.17	7.245e-06	7.9103e-06	410.19	136.85	118.17	40.71	5.7475e-06	50.681	0.00028337	0.00026905	7.4915e-05	1342.1	2.9405e-06	2.8712e-06	1343.1	364	2.9297e-06	2.906e-06	414.73	138.41	119.16	41.23	2.948e-06	51.315	96.113	79.703	104.057	19.069	155.661	121.164	18.965	23.538	172.438	117.555	23.100	27.493	28.069	32.601	149.252	31.793	-8191	255	
7930.015	1	1	0	0	0.13553	0.17971	0.085348	0.023191	0.22549	0.094632	0.067988	0.30769	0.082513	0.17082	0.18593	0.1839	0.19389	0.23467	0.3371	0.18727	-4.4812	-4.2896	-4.6979	-4.7646	-4.1208	-4.9917	-4.45	-4.6104	-4.9146	-4.2604	-4.6729	-4.9	-4.2042	-4.8375	-4.4917	-4.3396	348.049	282.316	186.493	168.880	183.335	233.107	251.547	8.248	70.151	69.945	250.368	97.326	183.877	361.035	101.458	8.511	0.00047646	0.00056137	0.00013439	1329.5	3.1992e-06	5.6636e-06	1332.1	360.35	2.4313e-06	4.5432e-06	411.35	137.34	119.11	40.595	5.0838e-06	50.628	0.00028217	0.00026772	7.5529e-05	1340.2	3.0022e-06	2.8895e-06	1341.3	363.92	2.9726e-06	2.9112e-06	414.94	138.32	119.33	41.227	2.9654e-06	51.259	92.891	88.857	102.795	18.898	176.448	131.679	18.901	23.432	151.160	171.655	23.110	27.546	28.009	32.555	129.463	31.578	-8191	255	
7930.087	1	1	0	0	0.099999	0.027567	0.28195	0.24638	0.14549	0.084029	0.34091	0.14534	0.16291	0.15849	0.10059	0.26858	0.13535	0.31227	0.029	0.23546	-4.5292	-4.2417	-4.6521	-4.9229	-4.0813	-4.8646	-4.5854	-4.3042	-4.7667	-4.3292	-4.8938	-5.0563	-4.2937	-4.8708	-4.6792	-4.2063	11.564	259.209	129.573	318.991	101.452	208.760	303.568	364.979	190.423	70.773	346.095	298.021	80.281	347.035	140.364	360.559	0.00045315	0.00047403	0.00015632	1331.3	5.5553e-06	4.4585e-06	1329.4	359.63	5.087e-06	2.5765e-06	412.38	136.59	118.1	40.58	4.0006e-06	50.383	0.00028738	0.00026802	7.4876e-05	1341.9	2.9727e-06	2.9215e-06	1340.6	363.72	2.9356e-06	2.8666e-06	415.42	138.14	119.1	41.236	2.8541e-06	51.21	83.274	136.022	90.926	18.969	125.112	164.604	18.701	23.377	179.595	135.625	23.072	27.445	28.069	32.618	183.070	31.728	-8191	255	
7930.207	1	1	0	0	0.12437	0.15939	0.11329	0.11865	0.30834	0.30013	0.27677	0.3549	0.16897	0.18961	0.0037562	0.10123	0.081983	0.10188	0.061007	0.10781	-4.6667	-4.3083	-4.4542	-4.9792	-4.1708	-4.5521	-4.5854	-4.3854	-4.6979	-4.3229	-4.5917	-4.9458	-4.2146	-4.725	-4.5333	-4.2	290.280	258.720	287.944	23.836	301.970	233.557	257.931	282.214	226.265	172.635	354.798	305.001	49.375	331.770	31.787	222.832	0.00046266	0.00042786	0.00020288	1329.5	4.9794e-06	5.327e-06	1328.6	360.14	5.4634e-06	3.8391e-06	412.61	136.87	118.94	40.608	3.1473e-06	50.553	0.00028261	0.00026177	7.3486e-05	1341.2	2.9244e-06	2.8482e-06	1339.4	363.53	2.884e-06	2.8286e-06	414.37	138.1	119.28	41.204	2.8388e-06	51.162	96.121	128.885	112.837	19.119	148.564	131.612	18.808	23.306	141.812	150.231	23.142	27.508	28.218	32.638	146.081	31.946	-8191	255	
7930.304	1	1	0	0	0.16544	0.10547	0.043959	0.21148	0.22701	0.040176	0.2299	0.33024	0.15214	0.16303	0.17907	0.15806	0.17953	0.061034	0.1411	0.22104	-4.4083	-4.5188	-4.25	-4.9521	-4.3667	-4.5396	-4.8063	-4.3021	-4.7417	-4.5188	-4.4667	-4.9688	-4.4333	-4.6896	-4.6833	-4.1771	39.093	48.518	22.658	338.013	259.685	260.271	280.028	343.285	104.216	260.139	352.012	279.185	336.491	5.955	267.529	325.964	0.00047829	0.00050251	0.00010413	1328.1	5.1408e-06	4.4968e-06	1330.1	360.42	5.1881e-06	8.871e-06	412.12	136.69	118.46	40.506	7.4536e-06	50.73	0.00027526	0.00025334	7.0855e-05	1338.5	2.8384e-06	2.7909e-06	1338.7	363.26	2.8776e-06	2.7792e-06	414.95	138.39	119.03	41.165	2.8345e-06	51.235	92.972	90.428	102.617	18.961	141.241	121.677	18.709	23.505	138.141	175.573	22.922	27.398	28.098	32.745	121.492	31.730	-8191	255	
7930.400	1	1	0	0	0.24243	0.28067	0.12336	0.26424	0.042117	0.043273	0.26961	0.3113	0.095744	0.24627	0.18476	0.11522	0.022207	0.079063	0.13512	0.21076	-4.2417	-4.3729	-4.3729	-5.1312	-4.3417	-4.65	-5.0021	-4.425	-4.6417	-4.4479	-4.6396	-4.8729	-4.4667	-4.5625	-4.625	-4.1979	238.934	113.247	288.013	311.560	245.838	85.439	365.184	259.203	348.369	100.304	286.035	276.510	331.498	346.704	216.465	302.461	0.00048055	0.00042131	0.00014681	1329.6	3.9995e-06	5.0167e-06	1330.2	360.37	3.876e-06	6.9928e-06	411.82	136.96	118.79	40.62	7.4299e-06	50.551	0.00027619	0.00025922	7.1903e-05	1340	2.8447e-06	2.7875e-06	1339.7	363.45	2.8538e-06	2.8112e-06	414.9	138.14	119.4	41.223	2.7814e-06	51.235	87.748	107.191	109.879	19.036	167.050	157.862	18.754	23.527	196.735	156.585	22.983	27.609	28.285	32.729	174.994	31.764	-8191	255	
7930.496	1	1	0	0	0.091359	0.12566	0.24757	0.35128	0.096856	0.16136	0.20753	0.29937	0.071765	0.13841	0.093572	0.199	0.18773	0.076856	0.14278	0.16216	-4.2854	-4.7125	-4.1875	-4.9417	-4.4417	-4.5708	-4.8917	-4.3771	-4.6062	-4.4812	-4.4479	-4.825	-4.5375	-4.5938	-4.8042	-4.4479	326.128	298.972	89.854	342.154	57.179	298.577	315.842	259.964	91.752	168.371	354.195	339.224	187.963	14.301	346.813	351.526	0.00044694	0.00040568	0.00015916	1328.3	2.8828e-06	2.7762e-06	1330.8	359.72	3.4717e-06	6.9281e-06	413.16	137.29	118.95	40.646	2.1197e-06	50.668	0.00027727	0.0002522	7.1975e-05	1340.6	2.882e-06	2.8038e-06	1340.3	363.28	2.8662e-06	2.7614e-06	414.77	138.33	119.31	41.241	2.8031e-06	51.301	98.007	99.293	96.837	18.976	154.742	176.731	18.890	23.565	165.862	139.783	23.159	27.558	28.141	32.673	174.600	31.904	-8191	255	
7930.616	1	1	0	0	0.12909	0.082638	0.15039	0.22393	0.058912	0.035379	0.076066	0.20839	0.092064	0.13122	0.21776	0.013743	0.16744	0.14605	0.20893	0.10251	-4.1875	-4.7562	-4.1083	-4.8562	-4.6208	-4.3458	-5.0312	-4.3458	-4.3646	-4.6021	-4.4208	-4.775	-4.5625	-4.4563	-4.7688	-4.3792	43.690	38.335	290.627	345.378	138.123	218.263	317.650	266.589	247.261	325.957	62.874	124.789	100.686	251.603	246.585	10.991	0.00048674	0.00039499	5.002e-05	1328.9	4.5839e-06	4.1885e-06	1331.1	359.66	3.9691e-06	4.1899e-06	411.18	137.56	118.82	40.719	7.2158e-06	50.691	0.00027141	0.00025378	7.0357e-05	1339.3	2.8374e-06	2.7498e-06	1340.6	362.99	2.8053e-06	2.7461e-06	414.45	138.46	119.12	41.274	2.7864e-06	51.195	87.010	77.504	96.047	18.875	158.565	181.615	18.819	23.737	149.825	151.506	22.730	27.641	27.811	32.460	147.819	32.036	-8191	255	
7930.688	1	1	0	0	0.034745	0.23976	0.25917	0.12051	0.091045	0.044915	0.34756	0.030381	0.14964	0.11681	0.18235	0.085139	0.19554	0.30587	0.093862	0.075119	-4.2104	-4.7729	-4.0458	-4.7625	-4.3958	-4.2458	-4.9917	-4.5813	-4.45	-4.6333	-4.2792	-4.9667	-4.6271	-4.2542	-4.825	-4.4458	38.457	92.111	294.188	249.918	359.536	277.220	309.365	321.308	112.098	190.069	275.857	31.938	245.380	297.837	330.524	17.198	0.00044705	0.0004695	3.8604e-05	1332.6	4.187e-06	3.8091e-06	1327.4	359.62	5.6384e-06	6.9772e-06	409.74	137.05	118.65	40.557	5.8321e-06	50.595	0.00027323	0.00025303	6.909e-05	1340.6	2.7742e-06	2.7302e-06	1338.4	362.95	2.8032e-06	2.713e-06	414.04	138.33	119.14	41.212	2.8043e-06	51.227	90.316	94.266	111.353	18.970	127.305	116.287	18.806	23.603	121.542	171.660	23.053	27.549	28.077	32.622	177.856	31.899	-8191	255	
7930.784	1	1	0	0	0.11102	0.27497	0.21761	0.31026	0.25953	0.28796	0.23159	0.36053	0.2053	0.13549	0.19204	0.20623	0.050948	0.13695	0.10553	0.09704	-4.1	-4.7667	-4.175	-4.8792	-4.5125	-4.2688	-4.9938	-4.6104	-4.2771	-4.8333	-4.2729	-4.8021	-4.6375	-4.0917	-4.775	-4.4271	216.514	183.971	76.272	361.577	154.937	71.930	277.920	301.008	315.141	127.281	333.516	291.330	343.862	307.741	223.938	311.707	0.00050553	0.00061971	0.00017514	1328.3	6.7449e-06	5.1234e-06	1327.4	360.15	3.1659e-06	3.8082e-06	411.48	136.6	118.17	40.624	5.2788e-06	50.666	0.00027448	0.00024882	6.9197e-05	1340	2.7958e-06	2.7191e-06	1337.4	362.85	2.7618e-06	2.7309e-06	414.04	138.16	118.99	41.215	2.7569e-06	51.201	91.252	99.687	111.927	19.096	162.254	113.689	18.873	23.604	184.607	126.714	23.151	27.483	27.974	32.838	114.047	31.710	-8191	255	
7930.880	1	1	0	0	0.29947	0.25027	0.096663	0.17029	0.066078	0.10017	0.22604	0.17865	0.22022	0.091954	0.1384	0.14357	0.1354	0.19607	0.18457	0.13896	-3.9229	-4.6438	-4.0479	-4.7417	-4.5875	-4.1771	-4.9604	-4.6896	-4.25	-4.8125	-4.4812	-4.7312	-4.9542	-4.2771	-4.7792	-4.7667	213.907	160.888	263.709	299.400	120.173	94.224	334.266	331.593	107.640	180.764	329.611	267.374	263.613	339.702	343.633	264.633	0.00049338	0.00041567	0.00023381	1331.6	3.3441e-06	3.8037e-06	1327.4	359.69	4.6874e-06	5.0611e-06	410.52	137.34	118.19	40.611	1.7318e-06	50.508	0.00026691	0.00025114	6.9617e-05	1337.4	2.7261e-06	2.672e-06	1335.7	362.41	2.7422e-06	2.6539e-06	414.05	138.13	119.03	41.162	2.7179e-06	51.202	103.247	104.523	100.951	18.998	170.826	190.242	18.925	23.658	184.170	112.221	22.908	27.601	27.986	32.488	167.759	31.971	-8191	255	
7930.999	1	1	0	0	0.24161	0.087918	0.14024	0.069817	0.11677	0.20266	0.18688	0.14379	0.13709	0.03375	0.17158	0.1878	0.10058	0.15501	0.072557	0.080714	-3.9729	-4.7792	-4.4208	-4.5646	-4.7	-4.1271	-4.7958	-4.6271	-4.3396	-4.8833	-4.3812	-4.6521	-4.7438	-4.225	-4.7354	-4.7021	228.115	274.427	167.762	98.031	297.692	362.733	290.917	225.570	355.797	122.412	281.241	335.632	346.882	42.574	15.847	183.381	0.00043671	0.00026462	3.2574e-05	1330.3	4.0674e-06	4.294e-06	1323.5	359.96	3.5514e-06	3.8646e-06	410.38	136.54	118.15	40.568	5.4265e-06	50.423	0.00025984	0.00024252	6.7671e-05	1337.6	2.7141e-06	2.6554e-06	1334.8	362.38	2.7168e-06	2.7016e-06	412.97	138.05	118.98	41.14	2.7028e-06	51.09	93.095	71.335	110.494	19.164	162.400	174.761	19.009	23.620	168.633	137.898	22.828	27.644	28.024	32.733	152.104	31.843	-8191	255	
7931.095	1	1	0	0	0.083338	0.43842	0.054583	0.25661	0.14829	0.17013	0.067474	0.1156	0.037922	0.13421	0.19876	0.31665	0.25393	0.3481	0.21657	0.12537	-3.8208	-4.9417	-4.4396	-4.5292	-4.9667	-4.3375	-4.7583	-4.7729	-4.2896	-4.6542	-4.5563	-4.5333	-4.7333	-4.2896	-4.4771	-4.8604	126.542	90.159	72.149	309.484	172.108	361.613	361.914	33.038	11.146	291.804	334.156	15.383	300.216	29.052	252.322	340.955	0.00052465	0.00032677	0.00027546	1329.3	3.8936e-06	2.5706e-06	1324.9	358.09	4.8236e-06	5.084e-06	410.64	136.94	118.06	40.544	3.1198e-06	50.785	0.00026216	0.00024692	6.8216e-05	1337.1	2.7441e-06	2.6366e-06	1334.9	362.08	2.7342e-06	2.684e-06	413.13	138.09	118.93	41.082	2.7035e-06	51.159	95.488	144.683	85.675	18.854	137.465	192.141	18.953	23.733	136.852	180.284	23.006	27.522	28.062	32.690	174.601	31.803	-8191	255	
7931.192	1	1	0	0	0.1208	0.24625	0.14093	0.34022	0.081069	0.33496	0.074202	0.18699	0.17302	0.11026	0.21406	0.010001	0.2538	0.27904	0.16797	0.13226	-3.8812	-4.9292	-4.425	-4.5146	-4.8479	-4.4021	-4.7354	-4.7583	-4.25	-4.4833	-4.5271	-4.4083	-4.8354	-4.5229	-4.5521	-4.9667	195.765	23.728	354.746	324.146	212.820	330.618	13.052	347.818	315.629	70.389	150.999	234.477	325.138	13.156	48.020	103.225	0.00045649	0.00046365	5.5614e-05	1331	2.8194e-06	6.4863e-06	1328.6	360.04	5.5241e-06	7.8821e-06	410.36	136.67	118.68	40.534	4.6484e-06	50.559	0.000268	0.00024761	6.8979e-05	1339.5	2.7477e-06	2.6355e-06	1337.4	362.59	2.7333e-06	2.6842e-06	413.76	138.16	118.93	41.189	2.7085e-06	51.181	99.794	91.215	104.176	18.950	161.010	179.723	18.881	23.605	162.078	176.839	22.999	27.618	28.191	32.730	153.261	31.714	-8191	255	
7931.288	1	1	0	0	0.12368	0.21392	0.31425	0.12263	0.090286	0.18777	0.23477	0.2927	0.065606	0.12815	0.12579	0.15523	0.10816	0.16555	0.11836	0.029066	-3.9979	-4.7229	-4.6354	-4.3333	-4.9437	-4.4146	-4.6062	-5	-4.3063	-4.6646	-4.6375	-4.3604	-4.8667	-4.6583	-4.425	-4.9042	63.630	96.775	271.989	182.496	210.719	357.935	362.239	18.229	69.261	349.646	326.710	346.456	70.361	300.266	242.666	191.878	0.00044285	0.00050984	0.00018676	1332.1	5.0173e-06	3.7676e-06	1328.7	359.05	4.8052e-06	6.588e-06	410.13	136.86	118.25	40.606	6.2657e-06	50.431	0.00026906	0.00024639	6.8156e-05	1339.5	2.7396e-06	2.6942e-06	1338.3	363.1	2.75e-06	2.7076e-06	413.73	138.09	118.99	41.189	2.7096e-06	51.209	95.902	41.865	111.689	18.852	170.656	151.610	19.008	23.695	176.227	148.760	23.201	27.590	28.050	32.412	175.598	31.763	-8191	255	
7931.384	1	1	0	0	0.017333	0.055839	0.12232	0.092286	0.13895	0.15148	0.086339	0.33419	0.086622	0.12935	0.09536	0.13012	0.1154	0.26605	0.19245	0.23527	-3.8292	-4.7	-4.8167	-4.2521	-4.8333	-4.4854	-4.6271	-4.9521	-4.275	-4.7875	-4.7396	-4.3917	-4.6458	-4.4375	-4.1646	-5.0583	288.262	106.079	23.003	12.370	202.871	63.908	335.176	316.339	313.416	182.388	29.099	326.531	283.069	327.049	210.770	272.152	0.00048035	0.00034343	0.00013852	1331.2	3.4432e-06	4.4665e-06	1330.1	359.33	3.5979e-06	7.0958e-06	411.47	136.56	118.08	40.637	4.086e-06	50.509	0.00026348	0.00024527	6.8055e-05	1341.2	2.7352e-06	2.6223e-06	1338.4	362.54	2.7031e-06	2.6217e-06	413.62	138.13	119.1	41.165	2.7366e-06	51.133	92.506	111.036	75.398	19.105	146.060	166.650	18.875	23.593	138.435	121.425	22.843	27.848	28.083	32.559	150.004	31.682	-8191	255	
7931.480	1	1	0	0	0.16614	0.087515	0.067283	0.13844	0.1387	0.1099	0.20248	0.28628	0.11608	0.10018	0.15825	0.2165	0.17949	0.092826	0.20493	0.14027	-3.9521	-4.4646	-4.7792	-4.2875	-4.6062	-4.6167	-4.3667	-4.8396	-4.4021	-4.4771	-4.875	-4.3063	-4.7375	-4.525	-4.1854	-4.8187	32.316	355.835	349.592	128.752	34.122	301.794	341.343	314.542	268.032	195.557	311.339	116.290	125.934	269.439	222.958	267.910	0.00050955	0.00017172	6.7389e-05	1331.4	5.8656e-06	3.539e-06	1326.2	358.67	6.342e-06	4.5574e-06	409.94	137.26	118.29	40.443	6.4952e-06	50.732	0.00026557	0.00024274	6.7402e-05	1338.4	2.7622e-06	2.6617e-06	1336.5	361.77	2.7295e-06	2.6991e-06	413.38	138.25	118.72	41.112	2.6972e-06	51.216	90.352	96.419	99.773	18.993	161.776	153.207	18.822	23.621	165.878	151.519	23.043	27.621	28.142	32.819	131.850	31.739	-8191	255	
7931.601	1	1	0	0	0.065181	0.030101	0.11314	0.29927	0.078983	0.30244	0.37758	0.25537	0.19526	0.12607	0.082082	0.1313	0.23505	0.19932	0.16251	0.090508	-4.0813	-4.4563	-4.7292	-4.4396	-4.7	-4.5979	-4.3646	-4.9625	-4.3375	-4.45	-4.8063	-4.2229	-4.6021	-4.5188	-4.2542	-4.7979	143.692	304.594	132.369	8.304	122.105	122.929	327.487	305.926	207.930	17.650	209.699	27.440	16.964	355.539	14.526	305.449	0.0004961	0.00060869	7.2132e-05	1329.9	4.2931e-06	2.571e-06	1324.1	358.65	6.9359e-06	3.3486e-06	411.01	137.32	118.07	40.382	6.1193e-06	50.592	0.00026365	0.00024815	6.8061e-05	1339.5	2.7543e-06	2.6525e-06	1336.6	362.44	2.7368e-06	2.631e-06	414.1	138.12	118.79	41.121	2.6668e-06	51.113	88.349	96.115	84.797	18.907	152.054	163.579	19.008	23.575	135.742	133.640	23.187	27.473	27.984	32.671	115.209	31.801	-8191	255	
7931.697	1	1	0	0	0.2196	0.25146	0.12748	0.17551	0.18149	0.23058	0.19689	0.13062	0.17714	0.026065	0.10674	0.24181	0.1189	0.25101	0.09781	0.27581	-4.1229	-4.4125	-4.7646	-4.2729	-4.475	-4.8021	-4.2354	-4.8729	-4.5896	-4.2854	-4.9729	-4.275	-4.4396	-4.7562	-4.25	-4.7583	90.980	149.363	70.280	347.530	79.191	317.785	307.312	333.876	208.739	345.096	266.443	307.581	110.904	308.784	53.136	304.765	0.00044231	0.00018762	0.0001553	1330.8	3.7727e-06	4.4381e-06	1323	357.67	4.043e-06	4.6631e-06	411.49	137.3	117.83	40.616	6.5228e-06	50.516	0.00025945	0.00024144	6.8023e-05	1338.9	2.6741e-06	2.5784e-06	1333.6	362.24	2.6347e-06	2.6351e-06	413.71	138.19	118.84	41.13	2.6119e-06	51.194	91.320	104.195	111.642	19.126	143.741	142.733	18.924	23.533	162.614	138.415	23.086	27.572	27.968	32.662	139.898	31.689	-8191	255	
7931.793	1	1	0	0	0.10391	0.19727	0.15462	0.1979	0.048563	0.034827	0.1826	0.32954	0.080873	0.056565	0.13035	0.14089	0.1464	0.13094	0.089271	0.15805	-4.3021	-4.2771	-4.8542	-4.5646	-4.6646	-4.675	-4.3729	-4.925	-4.55	-4.0833	-4.9938	-4.5563	-4.5042	-4.8667	-4.2438	-4.8229	11.103	357.205	331.943	239.170	57.110	353.439	295.936	282.565	167.029	279.416	302.267	199.266	216.414	163.129	286.926	235.595	0.00049338	0.00015483	9.6761e-05	1328.7	4.9059e-06	3.5783e-06	1325.5	359.13	5.6856e-06	5.4314e-06	410.56	137.12	118.2	40.556	2.906e-06	50.504	0.00025909	0.00023919	6.5373e-05	1337.3	2.6607e-06	2.5557e-06	1335.4	362.26	2.6564e-06	2.568e-06	412.83	138.06	118.97	41.079	2.6389e-06	51.135	91.410	119.112	78.649	19.008	154.859	143.051	18.797	23.580	129.638	143.488	22.958	27.582	27.945	32.533	136.910	31.780	-8191	255	
7931.889	1	1	0	0	0.15262	0.23785	0.13817	0.3864	0.051212	0.24207	0.30798	0.19924	0.20161	0.056767	0.27551	0.080984	0.054066	0.11765	0.22845	0.25816	-4.3313	-4.2292	-4.7771	-4.7562	-4.2625	-4.7854	-4.2479	-4.8542	-4.5917	-4.3708	-4.9646	-4.5292	-4.5771	-5.0125	-4.2875	-4.4771	304.052	25.470	157.039	323.327	345.473	241.616	10.416	258.375	29.369	63.289	17.362	239.337	317.548	6.872	272.643	330.997	0.0004599	0.00051115	7.0761e-05	1325.4	3.3544e-06	4.2143e-06	1324.7	357.9	7.0625e-06	5.1074e-06	410.63	136.63	117.76	40.491	5.1649e-06	50.483	0.00025511	0.0002398	6.6055e-05	1337.2	2.6374e-06	2.5687e-06	1333.7	361.84	2.6259e-06	2.5805e-06	413.42	137.93	118.72	41.087	2.7191e-06	51.056	90.456	135.842	103.268	19.068	174.544	154.188	18.829	23.580	156.196	145.639	22.955	27.576	28.147	32.777	167.599	31.863	-8191	255	
7931.984	1	1	0	0	0.049242	0.15099	0.079348	0.18212	0.035538	0.093725	0.19285	0.29165	0.098101	0.082444	0.12623	0.20087	0.060213	0.14443	0.086608	0.17797	-4.3729	-4.2625	-4.6417	-4.55	-4.3875	-4.9583	-4.3021	-4.7188	-4.6687	-4.0521	-5.0188	-4.5271	-4.2125	-4.9708	-4.3583	-4.4812	360.302	290.727	288.521	12.210	123.133	217.183	297.012	329.228	311.964	261.694	72.832	334.437	262.973	328.853	218.492	200.172	0.00048635	0.00063352	9.1097e-05	1327.4	2.8841e-06	3.1586e-06	1328.7	358.1	6.4237e-06	4.4978e-06	411.41	136.73	118.08	40.424	3.5952e-06	50.292	0.0002602	0.0002489	6.9265e-05	1337	2.8175e-06	2.7397e-06	1337.1	362.19	2.8439e-06	2.8237e-06	414.06	138.17	118.81	41.069	2.8859e-06	51.097	102.367	106.312	80.234	19.009	172.477	121.830	18.806	23.638	170.271	150.847	23.123	27.543	28.046	32.532	147.953	31.660	-8191	255	
7932.080	1	1	0	0	0.074312	0.20522	0.02201	0.10496	0.15763	0.069753	0.30328	0.053226	0.036578	0.14454	0.094701	0.1609	0.20433	0.15654	0.1446	0.18558	-4.2833	-4.2188	-4.4458	-4.7083	-4.2812	-4.9396	-4.4979	-4.7333	-4.6896	-4.3375	-4.7604	-4.6646	-4.2917	-4.9354	-4.4667	-4.5375	102.001	110.882	202.998	324.628	84.268	301.495	334.440	73.386	151.540	317.060	221.370	309.266	254.378	9.267	248.595	338.903	0.00049827	0.0006338	0.00016762	1330.3	7.3018e-06	4.9734e-06	1326.7	359.08	4.8035e-06	4.3943e-06	411.26	136.76	118.48	40.532	6.5254e-06	50.47	0.00028379	0.00026649	7.3105e-05	1340.3	2.9896e-06	2.9044e-06	1338.9	362.75	2.9129e-06	2.8586e-06	414.03	138.11	118.96	41.108	2.8226e-06	51.123	85.001	71.838	104.273	19.021	140.418	145.734	18.755	23.688	148.960	166.859	23.007	27.599	27.972	32.727	129.380	32.176	-8191	255	
7932.176	1	1	0	0	0.42004	0.12163	0.084206	0.32526	0.27686	0.23414	0.2223	0.18531	0.18144	0.098107	0.107	0.1822	0.10776	0.32403	0.144	0.12564	-4.6542	-4.2271	-4.5583	-5.0021	-4.1354	-4.9333	-4.425	-4.3938	-4.9208	-4.2292	-4.5667	-4.8417	-4.4958	-4.8354	-4.4833	-4.4271	322.197	55.273	337.856	312.273	264.880	325.281	243.844	9.225	310.248	344.233	265.899	254.557	280.241	350.274	235.281	339.993	0.00047014	0.00044098	0.00010481	1324.1	2.7689e-06	4.9185e-06	1328.1	358.68	4.2188e-06	6.4242e-06	410.32	136.59	118.46	40.475	6.607e-06	50.423	0.00027356	0.00025595	7.0494e-05	1337	2.8873e-06	2.7802e-06	1338	362.49	2.7878e-06	2.796e-06	414.19	138.24	118.88	41.065	2.7873e-06	51.015	94.685	91.193	129.806	19.074	194.015	170.911	18.897	23.860	211.334	166.996	23.020	27.631	28.108	32.624	167.285	31.774	-8191	255	
7932.296	1	1	0	0	0.088894	0.23584	0.033131	0.23152	0.13049	0.30673	0.32147	0.15279	0.17754	0.2232	0.17655	0.074684	0.065416	0.086736	0.15805	0.20237	-4.3875	-4.1583	-4.4437	-5.0125	-4.1583	-4.7375	-4.7812	-4.575	-4.7958	-4.225	-4.7729	-4.8708	-4.2958	-4.9375	-4.6458	-4.3396	359.711	287.926	94.452	337.177	357.864	211.073	302.410	80.828	219.635	83.347	350.274	348.038	288.358	217.304	286.610	197.784	0.00044321	0.00043865	0.000202	1326.6	4.6614e-06	4.3203e-06	1327.1	358.45	8.1211e-06	5.802e-06	410.72	136.54	118.13	40.668	3.8296e-06	50.513	0.00027744	0.00025522	7.2416e-05	1338.7	2.8683e-06	2.8285e-06	1337.1	362.55	2.917e-06	2.8703e-06	413.83	137.91	118.98	41.194	2.9319e-06	51.172	92.946	72.019	93.502	19.110	126.867	127.806	18.848	23.582	163.969	134.006	23.023	27.600	27.851	32.684	168.889	31.935	-8191	255	
7932.393	1	1	0	0	0.27533	0.27765	0.080106	0.29081	0.10771	0.17251	0.098269	0.074159	0.14893	0.0075291	0.35438	0.27426	0.079793	0.045215	0.21008	0.056718	-4.2604	-4.6021	-4.3833	-4.9583	-4.2229	-4.7396	-4.6792	-4.2833	-4.9375	-4.325	-4.3896	-4.8146	-4.3	-4.8313	-4.6396	-4.1813	131.316	334.099	310.706	321.886	338.953	342.575	266.207	45.572	314.707	147.603	321.849	235.736	180.274	226.831	355.247	308.064	0.00048331	0.00058818	0.00015545	1329.5	3.7725e-06	3.2463e-06	1331	359.59	5.7138e-06	6.3852e-06	410.19	137.08	117.83	40.598	4.309e-06	50.801	0.00028343	0.00026729	7.344e-05	1338.9	2.9623e-06	2.8756e-06	1338.5	362.83	2.9384e-06	2.8383e-06	414.12	138.21	118.79	41.17	2.9008e-06	51.268	94.544	87.109	116.249	19.105	187.668	168.351	18.895	23.694	159.078	167.442	22.970	27.427	28.031	32.680	160.773	31.839	-8191	255	
7932.489	1	1	0	0	0.039876	0.14592	0.19852	0.19628	0.10216	0.06982	0.19616	0.14719	0.12343	0.20628	0.071174	0.14423	0.083481	0.074056	0.0087483	0.18202	-4.375	-4.525	-4.0979	-5	-4.2896	-4.4938	-5.0604	-4.3021	-4.6708	-4.3875	-4.4563	-5.0229	-4.4458	-4.55	-4.85	-4.1854	177.734	118.261	243.761	312.762	29.651	118.538	288.051	351.884	232.803	230.089	92.393	292.547	231.783	16.412	133.692	18.750	0.00052748	0.00049884	0.00014137	1323.3	4.7107e-06	3.7642e-06	1326.7	358.32	3.8201e-06	6.2813e-06	409.98	136.51	117.75	40.367	6.2547e-06	50.377	0.00028319	0.00025994	7.2741e-05	1335.6	2.8926e-06	2.8595e-06	1335	361.93	2.9487e-06	2.8359e-06	413.33	138.22	118.94	41.111	2.8935e-06	51.103	95.339	141.083	95.062	19.019	160.336	145.313	18.809	23.603	201.676	157.978	23.161	27.588	27.981	32.766	155.689	31.778	-8191	255	
7932.560	1	1	0	0	0.026931	0.13474	0.065911	0.23064	0.041968	0.10554	0.094821	0.25067	0.21023	0.11342	0.16328	0.14517	0.2169	0.14883	0.25898	0.18409	-4.3771	-4.55	-4.2104	-4.9625	-4.1771	-4.4354	-5.0312	-4.1375	-4.8542	-4.6208	-4.1229	-4.9542	-4.4917	-4.4417	-4.7833	-4.2792	72.294	188.094	333.926	356.580	128.609	209.490	262.363	45.379	137.513	273.666	341.733	319.622	321.816	306.074	333.549	114.466	0.00044602	0.00060218	0.00011692	1325.4	6.9657e-06	3.2429e-06	1330.1	358.13	9.065e-06	1.2484e-06	411.88	137.35	118.47	40.594	7.0082e-06	50.475	0.00028472	0.00026813	7.2652e-05	1336.6	2.9351e-06	2.8609e-06	1335.5	362.43	2.9277e-06	2.8011e-06	413.52	138.06	119.08	41.162	2.812e-06	51.126	94.284	110.221	111.718	19.035	173.418	132.142	18.971	23.601	147.892	161.852	23.161	27.444	27.995	32.628	132.925	31.831	-8191	255	
7932.681	1	1	0	0	0.11834	0.26753	0.11241	0.35712	0.26717	0.098505	0.23502	0.25696	0.17989	0.047317	0.074726	0.17433	0.083458	0.14631	0.15873	0.1613	-4.3812	-4.6167	-4.3125	-4.9708	-4.4979	-4.6	-4.975	-4.3583	-4.6417	-4.75	-4.2458	-4.7021	-4.6333	-4.35	-4.8396	-4.325	52.065	138.390	306.534	328.784	339.537	12.940	319.614	282.299	226.988	280.360	222.273	347.359	253.217	290.914	336.349	277.890	0.00046528	0.0002852	0.00015943	1326.2	2.8835e-06	2.1185e-06	1322.3	358.59	4.8794e-06	4.1774e-06	411.04	136.52	118.89	40.541	4.5294e-06	50.579	0.00027244	0.00025006	7.0784e-05	1334.6	2.7968e-06	2.7704e-06	1333.5	362.41	2.7928e-06	2.6818e-06	413.84	138.24	119.14	41.176	2.7476e-06	51.27	95.523	87.656	117.446	19.040	127.045	178.171	19.082	23.545	143.354	164.991	23.108	27.394	27.816	32.692	167.953	31.915	-8191	255	
7932.777	1	1	0	0	0.18886	0.16223	0.14334	0.12467	0.068427	0.38701	0.33463	0.11234	0.047734	0.2667	0.1845	0.21107	0.31373	0.20239	0.092555	0.033499	-4.1333	-4.7229	-4.0979	-4.9313	-4.4812	-4.1479	-5.1125	-4.3313	-4.425	-4.7562	-4.1625	-4.7646	-4.625	-4.3438	-4.8812	-4.3938	31.135	41.761	341.897	323.525	35.113	281.707	305.478	289.908	337.640	343.114	300.550	233.659	342.875	313.577	177.863	157.107	0.00046931	0.00071863	0.00014135	1321	5.2164e-06	5.336e-06	1315	357.77	4.4784e-06	3.3563e-06	410.43	136.7	118.11	40.74	4.0285e-06	50.684	0.0002733	0.00025534	7.0168e-05	1331.9	2.8449e-06	2.7887e-06	1330.1	361.78	2.8698e-06	2.8267e-06	413.67	138.11	119.01	41.261	2.8751e-06	51.324	100.329	94.822	109.593	18.996	149.513	148.834	18.823	23.601	192.562	120.231	23.094	27.188	28.084	32.629	111.409	31.834	-8191	255	
7932.873	1	1	0	0	0.15651	0.24774	0.17233	0.31113	0.13515	0.039372	0.25377	0.18796	0.12651	0.093369	0.27824	0.12286	0.098562	0.076518	0.016248	0.11322	-4.1125	-4.7792	-4.0604	-4.9938	-4.6146	-4.1417	-5.0458	-4.3958	-4.3958	-4.975	-4.2896	-4.6167	-4.7042	-4.1396	-4.6937	-4.4875	359.978	251.918	303.212	310.633	352.227	205.774	325.992	219.603	316.439	340.794	28.300	104.670	155.579	24.418	276.893	11.382	0.00049123	0.000425	7.3211e-05	1321.2	5.9413e-06	3.4589e-06	1323.4	358.88	3.8643e-06	4.0263e-06	410.57	136.82	118.36	40.717	2.6078e-06	50.507	0.00027934	0.0002636	7.3944e-05	1334.6	3.0052e-06	2.9681e-06	1335	362.72	3.1081e-06	3.0504e-06	414.31	138.54	119.03	41.215	3.1266e-06	51.231	96.959	149.643	88.179	18.843	133.117	143.377	19.016	23.522	90.051	188.128	23.178	27.564	28.013	32.806	143.422	31.785	-8191	255	
7932.970	1	1	0	0	0.14936	0.025217	0.25808	0.086262	0.19716	0.14221	0.30591	0.15093	0.18959	0.19768	0.11878	0.14358	0.098515	0.28547	0.11669	0.17712	-4.0271	-4.7792	-4.1667	-4.8604	-4.8083	-4.1375	-5.0146	-4.7417	-4.2063	-4.6792	-4.5271	-4.6687	-4.6896	-4.3208	-4.6417	-4.6792	27.615	129.006	46.560	284.335	68.464	235.385	269.702	255.491	301.053	287.225	349.802	313.467	200.897	19.338	127.934	310.738	0.00047162	0.00038404	7.6889e-05	1327.6	2.8452e-06	4.7837e-06	1331.1	359.83	3.2648e-06	4.173e-06	411.45	136.71	118.57	40.784	2.6851e-06	50.97	0.0003048	0.00028806	8.0821e-05	1338.9	3.179e-06	3.1625e-06	1339.8	363.26	3.2013e-06	3.1531e-06	415.47	138.53	119.55	41.403	3.2092e-06	51.478	92.163	93.239	123.337	18.971	194.357	117.472	18.845	23.444	134.273	151.489	23.038	27.295	28.108	32.699	164.733	31.849	-8191	255	
7933.088	1	1	0	0	0.034243	0.16712	0.15551	0.24793	0.18084	0.11498	0.11092	0.11351	0.15367	0.12947	0.14786	0.16975	0.27759	0.24557	0.048332	0.24757	-4.1229	-4.8708	-4.3167	-4.7354	-4.7021	-4.1396	-4.8187	-4.6292	-4.2875	-4.875	-4.3958	-4.5667	-4.8854	-4.3417	-4.6417	-4.6021	236.765	77.723	97.022	350.875	119.819	338.167	299.022	293.223	309.803	238.192	219.113	134.399	363.541	361.927	317.546	308.772	0.00049638	0.00083304	0.00019245	1332.1	4.0233e-06	4.1478e-06	1328	358.62	5.1885e-06	7.1418e-06	411.67	136.87	118.58	40.645	5.9841e-06	50.755	0.00030868	0.00029464	8.1438e-05	1344.5	3.2556e-06	3.1554e-06	1341	363.35	3.2239e-06	3.1558e-06	415.2	138.44	119.38	41.268	3.2041e-06	51.308	92.645	84.900	118.562	18.994	156.256	138.860	18.711	23.638	138.310	185.333	22.980	27.709	27.842	32.681	143.870	31.869	-8191	255	
7933.185	1	1	0	0	0.21461	0.077571	0.24848	0.021999	0.24059	0.35753	0.27738	0.13917	0.1474	0.084189	0.37511	0.17698	0.16075	0.27968	0.077806	0.16713	-3.9458	-4.8729	-4.3271	-4.8271	-4.9771	-4.2479	-4.875	-4.7937	-4.1875	-4.9542	-4.7167	-4.5208	-4.8292	-4.5	-4.6917	-4.8688	120.077	110.300	11.147	61.744	189.593	232.725	316.252	50.667	101.476	149.019	15.257	331.137	336.669	57.525	265.222	75.798	0.00049251	0.00039611	7.2857e-05	1326.3	3.1058e-06	4.2264e-06	1323.2	360.03	3.2147e-06	6.8032e-06	411.94	137.06	117.83	40.772	6.1706e-06	50.391	0.0003004	0.00028385	7.8683e-05	1339.2	3.1024e-06	3.0591e-06	1336.7	363.06	3.0805e-06	3.0279e-06	415	138.55	119.12	41.266	3.0485e-06	51.075	95.256	100.801	140.593	18.954	185.319	158.542	18.824	23.458	170.175	171.997	23.066	27.454	27.882	32.684	137.518	31.839	-8191	255	
7933.281	1	1	0	0	0.1739	0.3416	0.18436	0.19372	0.15812	0.17244	0.18868	0.067603	0.085322	0.14738	0.21321	0.14885	0.21879	0.16753	0.090405	0.16775	-3.8063	-4.9208	-4.45	-4.4979	-4.7812	-4.3375	-4.5896	-4.9146	-4.0417	-4.725	-4.7792	-4.2583	-4.7333	-4.3521	-4.4375	-4.6896	77.067	341.750	145.014	40.911	347.393	66.723	286.145	281.539	300.338	289.179	263.405	360.299	21.024	288.753	191.315	243.502	0.00050486	0.00042088	0.00010308	1325.6	4.9929e-06	2.4239e-06	1322.2	358.79	1.8217e-06	3.0976e-06	412	137.06	117.84	40.557	5.5316e-06	50.669	0.00029321	0.00027742	7.6411e-05	1337.1	3.126e-06	3.0041e-06	1334.4	362.74	3.1242e-06	3.0706e-06	415.08	138.19	119.04	41.212	3.0445e-06	51.293	89.247	143.685	81.655	19.048	166.107	140.844	18.924	23.635	151.553	167.175	22.881	27.585	27.975	32.763	167.093	31.860	-8191	255	
7933.377	1	1	0	0	0.083236	0.20827	0.29233	0.31434	0.21353	0.22272	0.19412	0.2558	0.1516	0.15812	0.084129	0.17651	0.13198	0.25805	0.16505	0.34116	-3.9708	-4.5771	-4.3771	-4.5146	-4.7333	-4.3854	-4.7625	-4.8438	-4.2104	-4.7292	-4.5125	-4.3042	-4.95	-4.3521	-4.5062	-4.9125	205.708	156.691	59.904	324.881	342.901	134.687	303.879	292.465	54.867	241.426	227.045	40.618	355.804	51.506	205.074	314.195	0.00049269	0.00028348	0.00010852	1327.2	3.6072e-06	4.2941e-06	1326.5	360.33	6.2501e-06	4.7462e-06	411.71	136.92	118.36	40.528	8.3117e-06	50.7	0.00029597	0.00027758	7.7603e-05	1338.3	3.1286e-06	3.0514e-06	1337.1	363.11	3.1037e-06	3.0886e-06	414.76	138.34	119.39	41.27	3.1435e-06	51.349	94.781	97.368	127.600	19.070	171.769	138.083	18.940	23.736	133.676	135.237	23.229	27.486	27.918	32.491	162.001	31.425	-8191	255	
7933.473	1	1	0	0	0.27922	0.25967	0.20975	0.020463	0.0049796	0.18587	0.39103	0.30405	0.057157	0.11379	0.18887	0.087329	0.22083	0.18378	0.035443	0.077612	-3.9396	-4.6125	-4.5312	-4.2542	-4.7917	-4.4104	-4.4271	-4.9375	-4.0729	-4.5896	-4.7458	-4.2667	-4.7312	-4.4979	-4.1583	-5.1771	184.293	273.586	289.654	10.571	165.486	360.027	266.009	321.870	113.550	130.856	342.542	38.185	18.435	26.326	48.322	16.316	0.00050828	0.00050242	0.00022973	1332.1	2.9898e-06	2.5731e-06	1327.9	359.73	8.7407e-07	1.7959e-06	410.71	136.74	118.27	40.498	3.4625e-06	50.678	0.0003063	0.00029027	8.1033e-05	1341.9	3.2759e-06	3.184e-06	1340.4	363.69	3.2724e-06	3.2239e-06	415.29	138.64	119.39	41.196	3.3365e-06	51.328	91.502	103.797	99.036	18.987	185.942	118.790	18.893	23.461	87.376	175.998	22.986	27.409	28.297	32.555	142.510	31.690	-8191	255	
7933.569	1	1	0	0	0.043432	0.16367	0.077653	0.39404	0.17889	0.012711	0.18283	0.07568	0.074425	0.22148	0.0806	0.1092	0.12925	0.23497	0.27567	0.11004	-3.9208	-4.6687	-4.7167	-4.3625	-4.7771	-4.4563	-4.3396	-5.1083	-4.0125	-4.3562	-4.7229	-4.0875	-4.8083	-4.6104	-4.1438	-5.0896	137.134	75.842	95.219	340.620	202.552	291.007	287.904	287.913	120.595	38.918	354.890	271.260	257.035	26.212	356.737	298.654	0.00050105	0.0005908	2.2946e-05	1333.9	4.6874e-06	5.0882e-06	1330.5	359.46	5.0065e-06	3.2404e-06	411.38	137.03	118.23	40.517	4.3727e-06	50.439	0.00032308	0.00030989	8.6792e-05	1343.2	3.4924e-06	3.4335e-06	1343.8	363.79	3.4881e-06	3.4777e-06	415.45	138.64	119.46	41.181	3.5355e-06	51.235	93.552	109.592	185.602	19.118	146.838	164.777	18.906	23.643	188.215	111.962	23.037	27.622	27.969	32.678	156.099	31.809	-8191	255	
7933.690	1	1	0	0	0.17086	0.06032	0.11174	0.47627	0.17655	0.093803	0.17351	0.22969	0.18517	0.20972	0.16297	0.16873	0.18153	0.037877	0.27784	0.19576	-4.0854	-4.4104	-4.6458	-4.4125	-4.5604	-4.4646	-4.5979	-4.8021	-4.3187	-4.3229	-4.6854	-4.1958	-4.7188	-4.6875	-4.275	-4.8354	355.822	159.456	321.858	310.221	55.557	205.527	239.823	285.084	253.621	149.093	356.983	218.431	24.746	139.098	23.448	344.719	0.00049004	0.00046816	0.00013796	1335.7	3.8905e-06	2.0188e-06	1332	358.51	3.3313e-06	3.0681e-06	412.56	136.11	117.45	40.347	5.5741e-06	50.456	0.00033653	0.00032103	8.8497e-05	1344.8	3.5556e-06	3.4916e-06	1345.1	363.44	3.4987e-06	3.4777e-06	415.48	138.07	119.14	41.154	3.5205e-06	51.179	85.548	139.566	119.988	18.989	172.005	108.514	18.900	23.713	182.902	69.742	22.885	27.568	28.190	32.655	123.287	32.051	-8191	255	
7933.786	1	1	0	0	0.096396	0.19377	0.17066	0.38164	0.11537	0.13507	0.28918	0.17832	0.24638	0.14809	0.27097	0.037485	0.18488	0.051472	0.12833	0.041835	-4.0917	-4.4396	-4.8979	-4.3938	-4.6479	-4.7292	-4.325	-4.7708	-4.3812	-4.2562	-4.9667	-4.225	-4.4458	-4.7458	-3.9708	-4.8333	280.948	284.973	293.635	325.890	90.037	188.706	26.873	9.658	134.699	280.129	357.933	238.088	352.855	7.875	36.430	348.565	0.00051746	0.00051833	0.00020757	1332.1	4.7896e-06	1.4714e-06	1329.6	358.98	5.5271e-06	3.5802e-06	410.7	136.5	118	40.311	6.0845e-06	50.329	0.00033493	0.00032133	8.8554e-05	1344.9	3.5223e-06	3.4264e-06	1343.9	363.26	3.4334e-06	3.4447e-06	415.06	138.13	119.07	41.064	3.4246e-06	51.132	93.711	87.962	78.772	19.002	177.531	176.879	18.782	23.348	143.910	184.131	22.861	27.571	27.964	32.730	175.639	31.670	-8191	255	
7933.858	1	1	0	0	0.072694	0.021859	0.11726	0.20535	0.13264	0.0423	0.19492	0.26351	0.15401	0.21319	0.22242	0.10301	0.16786	0.12473	0.12436	0.033597	-4.1125	-4.2667	-4.9563	-4.5021	-4.4854	-4.7875	-4.2958	-4.9563	-4.5458	-4.1417	-5.0083	-4.4229	-4.4812	-4.9792	-3.9896	-4.6896	73.924	359.750	13.188	47.549	326.203	77.677	356.002	12.507	135.547	168.497	252.924	60.921	263.124	42.012	19.566	90.217	0.00052215	0.00060049	0.00022152	1332.8	4.9242e-06	4.8668e-06	1331.2	359.22	4.9696e-06	4.9248e-06	411.4	137	117.7	40.382	2.7308e-06	50.533	0.00032626	0.00030848	8.6359e-05	1343.8	3.4182e-06	3.3404e-06	1342.7	363.19	3.4035e-06	3.4268e-06	415.12	138.34	119.23	41.086	3.5305e-06	51.136	91.877	116.351	129.578	19.105	151.806	121.455	18.938	23.429	171.447	166.469	23.181	27.383	28.113	32.645	138.451	31.786	-8191	255	
7933.954	1	1	0	0	0.15483	0.20117	0.21721	0.24195	0.045235	0.12313	0.07479	0.21376	0.063138	0.12364	0.20947	0.16014	0.20508	0.15286	0.084402	0.30994	-4.1687	-4.2875	-4.8063	-4.5625	-4.4146	-4.7771	-4.3229	-4.7125	-4.5938	-4.25	-4.9271	-4.4396	-4.425	-4.8771	-4.1792	-4.6125	193.350	29.568	298.595	244.904	284.989	266.368	347.897	359.660	121.580	82.563	319.545	55.473	262.151	356.276	219.061	205.365	0.00050896	0.00064828	0.00015232	1331.7	1.7591e-06	3.9392e-06	1333	358.69	3.4668e-06	4.2995e-06	411.9	136.45	118.01	40.366	3.7806e-06	50.329	0.00032939	0.00031676	8.8599e-05	1344.9	3.5193e-06	3.3959e-06	1344	363.3	3.4465e-06	3.4021e-06	415.05	138.44	119.2	41.148	3.4426e-06	51.15	88.354	82.102	100.660	19.060	167.890	130.536	18.761	23.491	176.032	173.586	22.844	27.267	27.841	32.748	169.306	31.694	-8191	255	
7934.073	1	1	0	0	0.22812	0.049663	0.060037	0.31248	0.13476	0.1585	0.37146	0.23474	0.17178	0.12673	0.26799	0.04753	0.22163	0.12201	0.18409	0.23541	-4.3708	-4.3042	-4.6167	-4.7167	-4.1708	-4.9208	-4.5167	-4.5646	-4.5938	-4.2167	-4.9229	-4.3354	-4.2688	-4.85	-4.2479	-4.5479	298.117	69.510	31.728	361.487	283.001	278.898	355.400	302.268	284.456	196.945	358.491	16.250	300.189	360.637	99.702	293.690	0.00049411	0.00077286	0.00015194	1331.2	4.6728e-06	3.8439e-06	1335.7	359.53	1.139e-05	3.7958e-06	411.55	136.41	118.07	40.548	6.0898e-06	50.414	0.00033002	0.00031219	8.7806e-05	1345.6	3.5282e-06	3.4455e-06	1347.8	363.6	3.4998e-06	3.4373e-06	414.98	138.17	119.35	41.222	3.467e-06	51.207	94.652	72.809	115.445	18.805	181.725	140.285	18.825	23.586	139.725	173.045	22.919	27.394	28.273	32.589	127.663	31.881	-8191	255	
7934.169	1	1	0	0	0.18372	0.10082	0.11125	0.35895	0.075862	0.070956	0.15026	0.20338	0.094583	0.28567	0.1385	0.27808	0.26559	0.11891	0.36865	0.082642	-4.3667	-4.3208	-4.6729	-4.8708	-4.1917	-4.8063	-4.3583	-4.6625	-4.8917	-4.1771	-4.8	-4.6188	-4.3562	-4.8187	-4.2396	-4.425	106.818	173.983	350.385	314.886	270.062	116.293	295.767	308.600	334.556	53.726	181.926	32.681	23.978	358.710	211.221	277.353	0.00051846	0.00042645	0.00012259	1338.5	3.5649e-06	1.8169e-06	1334.6	359.78	6.9268e-06	2.0868e-06	411.68	136.69	118.3	40.558	5.1607e-06	50.602	0.00033153	0.00031635	8.754e-05	1348.3	3.5052e-06	3.4962e-06	1347.4	363.99	3.5621e-06	3.536e-06	415.77	138.61	119.5	41.264	3.6291e-06	51.347	85.314	130.742	101.699	18.867	166.880	174.962	18.788	23.744	145.183	310.634	23.002	27.331	27.955	32.754	170.185	31.502	-8191	255	
7934.265	1	1	0	0	0.092435	0.051148	0.19137	0.15905	0.03958	0.27522	0.29904	0.11115	0.091845	0.21008	0.024076	0.21945	0.024309	0.12164	0.19978	0.28573	-4.4396	-4.15	-4.525	-4.8146	-4.2604	-4.7458	-4.6896	-4.4333	-4.8208	-4.2875	-4.6604	-4.8812	-4.1417	-4.7854	-4.5396	-4.2875	315.012	247.044	150.421	292.479	279.305	148.890	319.176	256.482	26.747	7.108	253.677	12.462	55.309	17.836	29.450	313.921	0.0005292	0.00035113	0.00013492	1336.9	5.6927e-06	4.2269e-06	1343	361.33	2.824e-06	6.5604e-06	412.65	136.78	118.77	40.573	3.3188e-06	50.509	0.00034178	0.00032736	9.2548e-05	1353.3	3.6232e-06	3.6143e-06	1352.3	365.34	3.6739e-06	3.6325e-06	417.24	138.84	120.07	41.31	3.6514e-06	51.443	92.935	85.993	104.405	19.056	138.236	191.767	18.834	23.343	114.040	110.239	22.941	27.401	27.997	32.505	144.965	31.852	-8191	255	
7934.361	1	1	0	0	0.084508	0.36354	0.036304	0.20338	0.17094	0.24563	0.2258	0.16603	0.1485	0.22519	0.056826	0.041571	0.072523	0.12294	0.068976	0.11155	-4.4208	-4.3938	-4.5292	-4.9771	-4.275	-4.8146	-4.7021	-4.4542	-4.9458	-4.4	-4.7312	-4.6562	-4.2146	-5	-4.4313	-4.4083	166.296	40.167	176.806	72.112	191.164	312.008	210.696	322.218	45.959	157.146	107.014	164.881	210.692	20.733	72.677	282.590	0.00050058	0.00074722	0.0002559	1340.1	3.0926e-06	7.4651e-06	1340.1	361.74	5.4736e-06	5.1387e-06	411.27	137.14	118.94	40.638	4.3309e-06	50.817	0.00034507	0.00033167	9.264e-05	1353.6	3.6378e-06	3.6323e-06	1353.7	366.01	3.5978e-06	3.5837e-06	416.68	139.07	119.95	41.402	3.5591e-06	51.462	88.478	85.722	88.182	19.047	250.611	156.750	18.625	23.541	127.157	137.181	22.980	27.487	27.853	32.612	199.013	31.832	-8191	255	
7934.482	1	1	0	0	0.096705	0.14001	0.19292	0.13676	0.067114	0.14898	0.20538	0.19598	0.018579	0.24275	0.18227	0.10541	0.12827	0.46279	0.1066	0.1347	-4.4896	-4.4938	-4.3625	-4.9396	-4.2188	-4.6542	-4.7458	-4.3438	-4.8812	-4.4792	-4.6604	-4.8042	-4.3771	-4.6979	-4.5771	-4.1312	65.915	23.034	305.372	185.045	357.006	227.478	307.541	292.740	228.719	56.870	324.229	340.500	339.996	305.490	338.704	211.490	0.00048574	0.00059451	0.00022282	1343	6.3143e-06	1.7575e-06	1338.4	362.24	4.9822e-06	5.3137e-06	412.93	137.73	119.71	40.807	3.8899e-06	50.783	0.0003354	0.00032475	8.9824e-05	1354.4	3.5694e-06	3.5917e-06	1351.9	366.47	3.6551e-06	3.6455e-06	417.46	139.31	120.22	41.512	3.7332e-06	51.65	93.191	75.560	73.990	19.067	130.524	155.652	18.794	23.549	166.510	167.983	23.019	27.555	28.185	32.549	57.015	31.652	-8191	255	
7934.553	1	1	0	0	0.18767	0.11667	0.15104	0.20732	0.078408	0.26566	0.19347	0.43086	0.042283	0.18392	0.20967	0.2422	0.17186	0.14166	0.25443	0.04194	-4.4625	-4.3729	-4.3938	-4.9167	-4.2937	-4.575	-4.8875	-4.4229	-4.6667	-4.4125	-4.3812	-4.8792	-4.4042	-4.5604	-4.8021	-4.3562	365.454	260.722	25.238	341.724	308.804	258.597	309.410	315.644	23.074	285.358	320.391	308.502	329.600	79.449	261.033	64.576	0.00048314	0.00049873	0.00018722	1344.3	3.7628e-06	4.6077e-06	1341.1	362.33	3.054e-06	3.7283e-06	413.08	137.63	119.23	41.04	5.5298e-06	50.71	0.00035337	0.00034256	9.656e-05	1356.4	3.8048e-06	3.7947e-06	1355.7	366.76	3.8533e-06	3.7708e-06	418.96	139.92	120.57	41.727	3.8277e-06	51.662	92.526	138.586	75.719	19.089	160.872	126.296	18.606	23.598	147.879	112.383	23.020	27.564	27.977	32.568	151.005	32.026	-8191	255	
7934.650	1	1	0	0	0.054865	0.13944	0.13053	0.072174	0.18168	0.20922	0.078554	0.01928	0.24248	0.09335	0.18915	0.05982	0.20394	0.17159	0.21651	0.27114	-4.4313	-4.4958	-4.1438	-4.9938	-4.4854	-4.3438	-4.8812	-4.3021	-4.6438	-4.625	-4.2875	-5.0979	-4.4021	-4.5417	-4.8625	-4.0521	37.683	107.934	151.324	296.567	54.185	53.123	332.176	294.363	115.449	169.999	300.759	349.497	62.501	307.993	234.248	54.588	0.00048574	0.00026247	0.00022901	1346.9	4.558e-06	2.8883e-06	1352	363.98	5.1928e-06	5.199e-06	414.75	137.75	119.78	41.027	4.9319e-06	51.061	0.00036017	0.00034352	9.736e-05	1360.2	3.8454e-06	3.7358e-06	1360.2	367.6	3.8012e-06	3.6995e-06	419.61	140.1	120.99	41.743	3.7242e-06	51.856	96.430	116.457	97.886	18.913	176.727	166.469	18.806	23.565	181.784	167.292	22.879	27.512	28.013	32.325	191.644	31.449	-8191	255	
7934.770	1	1	0	0	0.13971	0.16557	0.17829	0.097329	0.17598	0.098805	0.067112	0.29684	0.17494	0.014569	0.064543	0.17849	0.20117	0.15477	0.18256	0.24278	-4.45	-4.5958	-4.1271	-4.9833	-4.3667	-4.3104	-4.9833	-4.3187	-4.8	-4.7292	-4.4208	-4.9104	-4.5917	-4.1562	-4.8917	-4.2646	221.409	78.209	184.882	143.809	266.192	329.384	29.616	27.375	87.727	92.150	17.995	217.494	106.255	7.513	172.850	140.877	0.00046529	0.00052192	0.00019252	1353.5	3.0583e-06	3.6555e-06	1349.8	363.85	6.4843e-06	5.2079e-06	415.36	138.8	119.51	40.997	4.0951e-06	51.039	0.00035669	0.00034235	9.5159e-05	1362.6	3.8358e-06	3.778e-06	1362.1	368.06	3.8152e-06	3.8029e-06	419.38	140.37	120.95	41.799	3.748e-06	51.884	93.703	88.191	79.883	19.019	70.873	131.788	18.745	23.464	137.417	140.126	23.150	27.563	27.720	32.780	155.209	31.609	-8191	255	
7934.866	1	1	0	0	0.054917	0.065305	0.42625	0.19111	0.032509	0.089318	0.055192	0.10831	0.049214	0.058643	0.041775	0.3175	0.19079	0.12155	0.1259	0.22356	-4.3583	-4.6958	-4.2958	-5.0146	-4.5292	-4.2688	-5.1375	-4.5167	-4.4958	-4.7417	-4.3458	-4.7333	-4.5437	-4.3833	-4.8375	-4.3604	272.030	291.401	288.600	8.435	220.422	332.637	71.197	273.579	343.275	46.547	243.331	342.537	265.566	93.773	183.372	335.734	0.00050328	0.00046296	0.00013872	1349.2	5.1179e-06	3.1274e-06	1351.4	365.13	8.4447e-06	3.5851e-06	416.39	138.62	119.51	40.95	5.0952e-06	50.792	0.00035887	0.00034634	9.5219e-05	1363.1	3.7888e-06	3.7402e-06	1361	368.78	3.7787e-06	3.7452e-06	420.11	140.29	120.96	41.724	3.8095e-06	51.767	96.708	67.059	150.553	18.890	157.565	174.894	18.860	23.598	147.167	181.113	22.727	27.740	28.009	32.477	154.396	31.544	-8191	255	
7934.962	1	1	0	0	0.16779	0.17718	0.022936	0.33994	0.13182	0.051368	0.3959	0.15223	0.32523	0.1107	0.18528	0.1702	0.085438	0.2334	0.096982	0.063277	-4.1875	-4.7667	-4.1208	-4.8771	-4.6104	-4.1896	-5.0208	-4.3938	-4.4521	-4.8771	-4.2458	-4.7979	-4.6333	-4.4771	-4.825	-4.5479	208.229	27.848	344.130	345.825	200.275	268.991	256.370	248.661	172.811	187.186	26.750	307.978	245.645	344.183	249.909	343.447	0.00043092	0.00080093	0.00010697	1348.1	6.0932e-06	3.3259e-06	1346	363.82	1.2473e-06	5.781e-06	415.94	138.41	119.54	40.959	6.4213e-06	50.996	0.00036052	0.0003488	9.5862e-05	1362	3.7432e-06	3.7615e-06	1359.4	368.06	3.7472e-06	3.6732e-06	419.84	140.17	120.81	41.745	3.7185e-06	51.848	94.755	127.831	104.534	19.015	177.300	139.384	18.680	23.647	170.066	187.191	23.053	27.340	27.937	32.763	155.596	31.670	-8191	255	
7935.081	1	1	0	0	0.18121	0.043976	0.10622	0.15582	0.20097	0.28302	0.394	0.18284	0.0065519	0.29976	0.25294	0.21184	0.19192	0.073171	0.13132	0.11713	-4.0625	-4.8938	-4.1625	-4.9625	-4.6021	-4.1479	-4.9062	-4.5167	-4.5188	-4.85	-4.375	-4.6667	-4.7146	-4.2021	-4.7167	-4.6667	225.920	352.114	34.711	260.147	249.977	295.554	273.417	345.411	331.365	138.449	341.546	348.533	63.583	93.034	361.259	55.480	0.00053573	0.00054468	0.00010318	1346.8	5.3753e-06	1.9236e-06	1350.6	363.11	6.77e-06	4.3207e-06	414.04	138.39	119.95	41.085	6.2181e-06	51.089	0.00035524	0.00033859	9.4221e-05	1360.8	3.7552e-06	3.6692e-06	1360.7	367.56	3.704e-06	3.6531e-06	419.01	140.41	120.96	41.849	3.7427e-06	51.902	87.312	95.975	51.799	18.925	192.303	139.859	18.822	23.393	211.806	157.277	23.059	27.360	27.987	32.553	169.295	31.853	-8191	255	
7935.153	1	1	0	0	0.23455	0.060841	0.14776	0.1567	0.24274	0.13047	0.29435	0.061996	0.13194	0.15123	0.20058	0.20903	0.1681	0.095652	0.24442	0.050558	-4.0917	-4.7917	-4.2896	-4.4437	-4.75	-4.0396	-5.0729	-4.7812	-4.1792	-4.8771	-4.5437	-4.5396	-4.7458	-4.2167	-4.6208	-4.7562	263.414	6.598	342.178	245.124	271.769	6.773	280.755	34.876	245.341	181.248	215.594	320.047	34.558	289.137	255.637	82.312	0.00050681	0.00061366	0.0001229	1349.6	4.4364e-06	3.5189e-06	1347.5	362.33	4.9006e-06	3.5903e-06	414.8	139.31	119.71	40.885	6.4618e-06	51.105	0.00035236	0.00033675	9.3517e-05	1363	3.7534e-06	3.6273e-06	1360.7	367.41	3.7305e-06	3.7093e-06	419.78	140.43	121.02	41.732	3.7215e-06	51.869	94.399	88.418	97.551	19.027	121.775	168.271	18.621	23.420	181.117	193.730	22.999	27.387	27.940	32.517	139.610	31.809	-8191	255	
7935.249	1	1	0	0	0.047892	0.21611	0.17141	0.16056	0.18657	0.087121	0.36161	0.38243	0.050698	0.057018	0.11717	0.22556	0.18017	0.14862	0.19181	0.10724	-4.1479	-4.6896	-4.4062	-4.5771	-4.7667	-4.0604	-4.725	-4.5958	-4.1604	-4.6104	-4.4854	-4.4667	-4.7021	-4.3625	-4.5833	-4.7417	126.782	236.329	34.841	248.130	362.252	346.865	311.024	305.112	291.202	56.269	293.147	359.360	252.334	50.710	58.806	110.587	0.00048683	0.00081979	0.00011032	1346.7	3.6773e-06	4.6431e-06	1343.5	363.24	3.982e-06	5.8817e-06	414.79	138.58	119.57	41.074	4.8101e-06	51.077	0.00035244	0.0003356	9.2623e-05	1360.2	3.6508e-06	3.6499e-06	1358.8	367.65	3.6686e-06	3.6633e-06	419.45	140.32	120.95	41.787	3.6547e-06	51.844	94.161	117.597	83.452	19.040	174.431	157.474	18.806	23.468	137.280	161.840	22.789	27.288	27.652	32.715	135.962	31.725	-8191	255	
7935.370	1	1	0	0	0.1536	0.22251	0.065058	0.3596	0.35715	0.099583	0.13287	0.22703	0.24058	0.2472	0.14654	0.17654	0.18875	0.14015	0.11944	0.12618	-3.6146	-4.825	-4.4979	-4.5521	-4.7583	-4.4708	-4.7	-4.8292	-4.2333	-4.8313	-4.5417	-4.3812	-4.85	-4.4229	-4.3146	-4.9187	258.578	339.493	318.558	322.593	295.271	43.124	362.071	277.869	221.339	310.981	259.120	66.123	338.454	233.367	225.884	70.486	0.00052487	0.00049458	0.00019514	1351.7	4.798e-06	4.198e-06	1343.9	362.92	5.1372e-06	4.9071e-06	413.91	138.42	119.11	41.168	5.2e-06	51.014	0.00033964	0.00032765	9.1541e-05	1361.1	3.6246e-06	3.58e-06	1359.1	367.19	3.5988e-06	3.5621e-06	418.9	140.05	120.73	41.819	3.6788e-06	51.785	94.180	135.544	123.032	18.987	162.197	168.902	18.878	23.459	179.656	102.742	23.108	27.432	28.190	32.663	124.901	31.939	-8191	255	
7935.466	1	1	0	0	0.078827	0.040253	0.18183	0.29838	0.31599	0.28878	0.25996	0.27626	0.18307	0.14797	0.0523	0.24885	0.078854	0.15109	0.12269	0.32246	-3.7604	-4.8021	-4.4854	-4.5167	-4.6813	-4.2896	-4.5417	-4.9833	-4.0146	-4.6188	-4.5458	-4.2271	-4.6875	-4.3375	-4.4583	-4.9688	16.025	240.569	246.156	289.758	356.364	351.447	314.325	330.925	184.779	279.435	345.733	276.893	94.796	215.079	351.034	316.738	0.00050855	0.00068195	0.00017579	1347.1	2.4297e-06	3.9171e-06	1344.3	362.92	9.3013e-06	4.7905e-06	414.73	138.28	119.42	41.048	4.2437e-06	51.079	0.00034108	0.00033421	9.4515e-05	1360.4	3.6487e-06	3.6276e-06	1359	367.32	3.7004e-06	3.6765e-06	418.86	139.98	120.72	41.773	3.6943e-06	51.783	87.332	108.111	117.220	19.019	155.528	135.997	18.836	23.496	129.297	148.248	22.969	27.444	28.115	32.694	151.683	31.655	-8191	255	
7935.562	1	1	0	0	0.099247	0.12604	0.12608	0.39212	0.11526	0.13777	0.068306	0.2275	0.15032	0.22488	0.27968	0.17299	0.31641	0.29167	0.07319	0.063724	-3.7979	-4.5667	-4.6271	-4.3833	-4.9062	-4.3521	-4.5417	-4.7833	-3.9875	-4.5417	-4.7	-4.2917	-4.7292	-4.5375	-4.3438	-4.9979	336.054	309.732	286.557	318.634	61.348	155.333	332.856	40.074	298.915	64.532	322.521	95.918	29.065	357.988	330.684	361.713	0.00045637	0.0007273	0.00011735	1350.5	3.6498e-06	2.011e-06	1350.2	363.62	3.6934e-06	3.3107e-06	415.23	138.47	119.92	41.059	4.8036e-06	50.933	0.00034636	0.00034009	9.3315e-05	1361.3	3.7191e-06	3.6639e-06	1359.5	367.15	3.6906e-06	3.6309e-06	418.62	140.15	120.95	41.742	3.6467e-06	51.748	88.545	137.053	93.093	18.928	173.863	145.310	18.777	23.249	90.252	158.094	23.016	27.445	27.644	32.376	167.485	32.151	-8191	255	
7935.658	1	1	0	0	0.14555	0.12884	0.15673	0.13652	0.032283	0.10325	0.27779	0.30567	0.14085	0.12451	0.19807	0.37904	0.18184	0.20181	0.12427	0.11342	-3.7188	-4.5458	-4.7104	-4.1937	-4.6854	-4.6667	-4.3333	-5.0292	-4.1375	-4.4854	-4.7958	-4.3896	-4.7688	-4.5667	-4.3208	-4.8917	349.249	323.437	259.505	235.898	167.161	355.063	292.687	311.741	351.288	344.704	351.884	307.747	237.326	340.381	103.079	197.953	0.00049788	0.00031044	8.3526e-05	1350	6.0747e-06	2.6101e-06	1346.5	363.06	4.2533e-06	8.713e-06	416.52	137.82	119.18	40.928	6.2559e-06	50.912	0.00034803	0.00033197	9.3141e-05	1360.4	3.7334e-06	3.6436e-06	1359	367.15	3.6759e-06	3.6476e-06	419.4	139.98	120.77	41.677	3.633e-06	51.763	95.368	115.800	106.582	19.031	140.953	97.178	18.788	23.544	186.161	150.434	22.916	27.491	27.990	32.634	165.120	31.739	-8191	255	
7935.754	1	1	0	0	0.1119	0.093396	0.082683	0.078865	0.22414	0.06632	0.19203	0.22776	0.23349	0.12405	0.23249	0.081134	0.13577	0.12826	0.33008	0.13427	-3.9354	-4.5708	-4.6583	-4.3229	-4.7042	-4.725	-4.325	-4.9875	-4.075	-4.5521	-4.8208	-4.2875	-4.5979	-4.6687	-4.0208	-4.9104	356.535	161.236	65.286	337.404	132.435	19.140	304.592	283.289	146.783	348.674	271.662	16.958	41.366	314.850	349.734	8.909	0.00044759	0.00046374	0.00026345	1352	2.8403e-06	5.0319e-06	1345.6	363.37	7.1743e-06	3.1132e-06	413.4	138.2	119.53	40.931	1.5796e-06	50.923	0.00034664	0.00033403	9.1683e-05	1361.2	3.7101e-06	3.6338e-06	1358.4	367.42	3.681e-06	3.6036e-06	418.75	140.27	120.85	41.695	3.6379e-06	51.724	88.956	105.222	105.546	18.954	183.480	176.126	18.816	23.419	118.762	162.578	23.117	27.415	27.769	32.450	85.295	32.035	-8191	255	
7935.851	1	1	0	0	0.088971	0.091419	0.092221	0.25173	0.33463	0.14987	0.33084	0.34025	0.1215	0.29473	0.18652	0.043598	0.12946	0.20195	0.097478	0.1647	-4.0646	-4.325	-4.7625	-4.3875	-4.5417	-4.7375	-4.4854	-4.8	-4.3542	-4.3458	-4.6917	-4.2625	-4.5146	-4.5625	-4.2958	-4.5479	205.593	335.201	55.322	316.225	297.029	233.439	332.587	343.000	351.617	288.771	331.748	12.735	275.280	360.943	92.803	261.847	0.00044168	0.00043572	0.00021093	1347.5	2.2245e-06	5.0812e-06	1347.2	363.27	6.8915e-06	6.0219e-06	416.77	138.59	119.5	40.842	1.1735e-06	50.769	0.00034425	0.00033837	9.1696e-05	1359.5	3.6894e-06	3.6129e-06	1360.2	367.12	3.652e-06	3.5749e-06	418.82	140.16	120.77	41.702	3.6341e-06	51.674	92.734	95.723	98.441	18.928	178.577	144.099	18.916	23.301	129.216	165.561	22.838	27.477	28.003	32.619	131.055	31.900	-8191	255	
7935.947	1	1	0	0	0.038914	0.010729	0.27974	0.31082	0.21671	0.057412	0.23223	0.28799	0.13323	0.29959	0.41875	0.37616	0.22858	0.13866	0.076897	0.20143	-4.2646	-4.0437	-4.9042	-4.5896	-4.5458	-4.5938	-4.4146	-4.8208	-4.5312	-4.2937	-4.9208	-4.5312	-4.4437	-4.9146	-4.0333	-4.9521	145.618	33.349	40.207	352.876	329.271	165.955	293.137	363.049	295.120	195.666	316.729	301.173	292.655	364.774	128.913	279.787	0.00050902	0.0006523	0.00019298	1350.5	5.3915e-06	3.7909e-06	1345.3	362.5	4.3399e-06	1.7487e-06	414.73	138.24	120.07	40.911	8.4491e-06	50.966	0.00034527	0.00033002	9.2006e-05	1360.6	3.7018e-06	3.5592e-06	1358.6	367.21	3.6516e-06	3.6004e-06	418.77	140.11	120.88	41.662	3.627e-06	51.763	102.297	87.097	132.897	18.836	145.660	137.867	18.744	23.681	102.251	126.568	23.098	27.762	27.916	32.500	109.941	31.754	-8191	255	
7936.043	1	1	0	0	0.12957	0.06964	0.12182	0.43338	0.18683	0.10917	0.3067	0.32052	0.17091	0.090024	0.13415	0.0098659	0.20084	0.082927	0.2187	0.05215	-4.1708	-4.1396	-4.95	-4.4583	-4.45	-4.6208	-4.5	-4.8146	-4.5208	-4.2021	-5.0917	-4.4646	-4.4437	-4.7854	-4.2104	-4.7771	220.175	57.586	338.368	353.668	286.746	137.607	313.770	273.449	168.892	29.679	287.799	167.219	304.595	19.555	286.404	136.038	0.00045832	0.0005138	0.00013788	1348.4	3.351e-06	3.6863e-06	1349.4	363.46	5.7357e-06	5.3237e-06	414.17	138.3	119.32	41.148	6.2693e-06	50.94	0.00034268	0.00033288	9.2557e-05	1359.7	3.6364e-06	3.5969e-06	1360.7	367.09	3.6297e-06	3.6099e-06	418.74	140.14	120.65	41.772	3.6455e-06	51.805	94.245	88.301	135.213	19.152	134.412	124.904	18.909	23.614	172.394	175.824	22.878	27.337	27.776	32.525	159.251	31.935	-8191	255	
7936.162	1	1	0	0	0.29243	0.20437	0.18231	0.33506	0.14786	0.036912	0.12478	0.23899	0.27744	0.19643	0.19576	0.045372	0.17241	0.34227	0.23897	0.18347	-4.4229	-4.1646	-4.7396	-4.8083	-4.4417	-4.75	-4.4875	-4.7521	-4.5875	-4.3833	-4.8583	-4.7	-4.4354	-5.0083	-4.3125	-4.65	222.703	336.993	138.859	330.212	317.319	238.720	360.078	38.358	135.243	226.743	258.801	278.525	268.922	331.168	169.133	185.273	0.00048797	0.00044969	4.8911e-05	1347.1	4.7875e-06	2.5198e-06	1344	362.98	7.5777e-06	6.3757e-06	415.27	138.21	119.95	41.166	3.8013e-06	50.883	0.00034387	0.00032881	9.2443e-05	1358.7	3.606e-06	3.5766e-06	1356.3	367.02	3.6125e-06	3.6008e-06	419.23	139.97	121.02	41.756	3.6429e-06	51.697	89.056	141.908	104.708	18.999	154.902	130.766	18.645	23.636	163.582	91.607	22.915	27.292	27.812	32.558	188.247	31.552	-8191	255	
7936.258	1	1	0	0	0.07863	0.059502	0.19041	0.13641	0.15358	0.13151	0.19207	0.25251	0.17445	0.060203	0.12161	0.016562	0.35991	0.28516	0.17288	0.22509	-4.3938	-4.0125	-4.5813	-4.7562	-4.3146	-4.9083	-4.5521	-4.7812	-4.7833	-4.3458	-4.8479	-4.7417	-4.2312	-5.0312	-4.5354	-4.4938	185.313	234.481	312.599	362.318	28.531	180.519	364.925	258.628	109.469	154.402	248.915	153.446	322.233	255.381	28.455	284.379	0.00047458	0.00029447	0.00011145	1350.8	1.9842e-06	4.7074e-06	1347.5	363.47	7.8437e-06	5.5235e-06	415.07	137.9	120.16	40.938	7.092e-06	51.076	0.00034156	0.00032831	9.2054e-05	1360.7	3.6862e-06	3.6428e-06	1358.1	367.35	3.6494e-06	3.6322e-06	418.79	140	120.85	41.706	3.6563e-06	51.829	86.472	93.826	78.934	18.935	146.078	149.834	18.684	23.360	154.615	206.273	23.058	27.503	27.676	32.583	141.759	31.924	-8191	255	
7936.354	1	1	0	0	0.09412	0.15734	0.10879	0.30169	0.1521	0.048709	0.17172	0.1118	0.2005	0.061822	0.10143	0.085068	0.037849	0.19928	0.11157	0.11461	-4.5125	-4.2042	-4.5687	-4.625	-4.3208	-4.775	-4.7229	-4.4688	-5.0417	-4.1708	-4.8708	-4.7312	-4.2667	-4.8667	-4.6438	-4.3562	164.461	181.486	242.274	338.734	320.641	216.923	345.216	72.052	255.514	191.451	344.771	283.483	165.181	365.322	280.680	68.837	0.00046322	0.00025668	0.00018544	1346.3	4.6808e-06	4.4348e-06	1350.5	363.9	5.9584e-06	4.3691e-06	413.35	138.71	119.37	41.03	4.3828e-06	51.132	0.00034052	0.00033462	9.2617e-05	1361.7	3.6662e-06	3.6548e-06	1359.9	367.56	3.6398e-06	3.6095e-06	419.18	140.06	120.64	41.721	3.6327e-06	51.788	96.262	49.590	117.992	18.897	135.718	129.006	18.722	23.511	175.342	96.255	22.991	27.264	28.063	32.438	126.496	31.654	-8191	255	
7936.450	1	1	0	0	0.21765	0.13314	0.15086	0.13421	0.20853	0.22845	0.11885	0.36034	0.12222	0.098127	0.14584	0.24691	0.13435	0.034821	0.25546	0.15131	-4.6521	-4.2771	-4.6042	-4.825	-4.3625	-4.7625	-4.6792	-4.5417	-4.8771	-4.3313	-4.5729	-4.8146	-4.1833	-5.0229	-4.4042	-4.2896	315.084	168.339	202.303	343.437	330.837	119.317	270.547	318.814	326.398	109.941	284.263	314.877	261.896	317.041	334.880	209.980	0.00050481	0.00071546	0.00012861	1347.9	4.5208e-06	3.2758e-06	1346.3	362.62	3.473e-06	5.9638e-06	415.99	138.61	119.53	41.094	4.1065e-06	51.086	0.00034503	0.0003337	9.2366e-05	1360.6	3.6602e-06	3.6546e-06	1359.6	367.26	3.6849e-06	3.6513e-06	419.68	139.9	120.79	41.759	3.6869e-06	51.83	86.173	82.181	73.080	19.005	155.473	106.285	18.790	23.384	184.631	154.204	23.137	27.133	27.818	32.669	133.959	31.696	-8191	255	
7936.546	1	1	0	0	0.13092	0.15646	0.27466	0.18625	0.066681	0.31329	0.072661	0.19058	0.090579	0.20296	0.18416	0.087351	0.12688	0.3283	0.097242	0.080719	-4.5208	-4.3771	-4.4875	-4.9625	-4.0583	-4.8	-4.825	-4.2312	-4.8375	-4.2208	-4.5292	-4.85	-4.4021	-4.7708	-4.5854	-4.3521	240.141	253.741	287.567	348.769	121.814	356.526	327.520	330.002	313.460	319.855	15.828	355.887	30.301	230.919	118.852	80.897	0.00048074	0.00054845	0.00011406	1350.3	3.5403e-06	3.2388e-06	1347.5	364.3	3.3462e-06	2.9474e-06	414.49	137.88	119.48	40.961	5.2789e-06	51.136	0.00034827	0.0003328	9.2933e-05	1362.9	3.7197e-06	3.7352e-06	1360.4	367.93	3.7326e-06	3.6676e-06	419.23	139.89	120.84	41.723	3.6991e-06	51.791	91.676	68.563	111.905	19.067	149.574	141.040	18.686	23.502	144.628	148.474	22.796	27.536	27.756	32.546	166.880	31.603	-8191	255	
#DATA ENDS
