BOXY.EXE: ISS Imagent and Oximeter Data Acquisition Program Version 0.80
Ascii Record File

#ACQ INFORMATION
2  Detector Channels 
16  External MUX Channels 
1  Auxiliary Channels 
5000  Waveform (CCF) Frequency (Hz)
1  Waveforms Skipped 
30  Waveforms Averaged 
1  Cycles Averaged 
16  Acquisitions per Waveform 
10.0806  Updata Rate (Hz) 

#FILE INFORMATION
TRUE -- External MUX Channel results are PARSED.
FALSE -- AC DC and Phase are NOT grouped.
TRUE -- Companion Program Settings File CREATED.
FALSE -- AC data not excluded
FALSE -- DC data not excluded
FALSE -- Phase data not excluded
FALSE -- Auxillary Chn. data not excluded
Tab delimiters

#CALIBRATION STATE
TRUE -- Waveform Calibration Values APPLIED.


#AUX CALIBRATION VALUES
Val Type	aux-1	

Term	1.0000e+00	
Factor	0.0000e+00	


#WF CALIBRATION VALUES
A = Detector Channel
Val Type	A-AC1	A-AC2	A-AC3	A-AC4	A-AC5	A-AC6	A-AC7	A-AC8	A-AC9	A-AC10	A-AC11	A-AC12	A-AC13	A-AC14	A-AC15	A-AC16	A-DC1	A-DC2	A-DC3	A-DC4	A-DC5	A-DC6	A-DC7	A-DC8	A-DC9	A-DC10	A-DC11	A-DC12	A-DC13	A-DC14	A-DC15	A-DC16	A-Ph1	A-Ph2	A-Ph3	A-Ph4	A-Ph5	A-Ph6	A-Ph7	A-Ph8	A-Ph9	A-Ph10	A-Ph11	A-Ph12	A-Ph13	A-Ph14	A-Ph15	A-Ph16	

Term	0.00000e+00	0.00000e+00	0.00000e+00	0.00000e+00	0.00000e+00	0.00000e+00	0.00000e+00	0.00000e+00	0.00000e+00	0.00000e+00	0.00000e+00	0.00000e+00	0.00000e+00	0.00000e+00	0.00000e+00	0.00000e+00	0.00000e+00	0.00000e+00	0.00000e+00	0.00000e+00	0.00000e+00	0.00000e+00	0.00000e+00	0.00000e+00	0.00000e+00	0.00000e+00	0.00000e+00	0.00000e+00	0.00000e+00	0.00000e+00	0.00000e+00	0.00000e+00	0.00000e+00	0.00000e+00	0.00000e+00	0.00000e+00	0.00000e+00	0.00000e+00	0.00000e+00	0.00000e+00	0.00000e+00	0.00000e+00	0.00000e+00	0.00000e+00	0.00000e+00	0.00000e+00	0.00000e+00	0.00000e+00	
Factor	1.00000e+00	1.00000e+00	1.00000e+00	1.00000e+00	1.00000e+00	1.00000e+00	1.00000e+00	1.00000e+00	1.00000e+00	1.00000e+00	1.00000e+00	1.00000e+00	1.00000e+00	1.00000e+00	1.00000e+00	1.00000e+00	1.00000e+00	1.00000e+00	1.00000e+00	1.00000e+00	1.00000e+00	1.00000e+00	1.00000e+00	1.00000e+00	1.00000e+00	1.00000e+00	1.00000e+00	1.00000e+00	1.00000e+00	1.00000e+00	1.00000e+00	1.00000e+00	X	X	X	X	X	X	X	X	X	X	X	X	X	X	X	X	

B = Detector Channel
Val Type	B-AC1	B-AC2	B-AC3	B-AC4	B-AC5	B-AC6	B-AC7	B-AC8	B-AC9	B-AC10	B-AC11	B-AC12	B-AC13	B-AC14	B-AC15	B-AC16	B-DC1	B-DC2	B-DC3	B-DC4	B-DC5	B-DC6	B-DC7	B-DC8	B-DC9	B-DC10	B-DC11	B-DC12	B-DC13	B-DC14	B-DC15	B-DC16	B-Ph1	B-Ph2	B-Ph3	B-Ph4	B-Ph5	B-Ph6	B-Ph7	B-Ph8	B-Ph9	B-Ph10	B-Ph11	B-Ph12	B-Ph13	B-Ph14	B-Ph15	B-Ph16	

Term	0.00000e+00	0.00000e+00	0.00000e+00	0.00000e+00	0.00000e+00	0.00000e+00	0.00000e+00	0.00000e+00	0.00000e+00	0.00000e+00	0.00000e+00	0.00000e+00	0.00000e+00	0.00000e+00	0.00000e+00	0.00000e+00	0.00000e+00	0.00000e+00	0.00000e+00	0.00000e+00	0.00000e+00	0.00000e+00	0.00000e+00	0.00000e+00	0.00000e+00	0.00000e+00	0.00000e+00	0.00000e+00	0.00000e+00	0.00000e+00	0.00000e+00	0.00000e+00	-1.76971e+02	-1.26231e+02	-1.22654e+02	-1.81614e+02	-8.27724e+01	-7.88091e+01	-1.57570e+02	-1.62015e+02	-8.57950e+01	-7.03981e+01	-1.71199e+02	-1.72854e+02	-1.84169e+02	-1.76777e+02	-8.06855e+01	-1.49602e+02	
Factor	3.07816e-05	1.62578e-04	4.72384e-05	1.51029e-01	1.31753e-06	1.41732e-06	1.65794e-01	5.23204e-02	1.70557e-06	1.74508e-06	8.62220e-02	3.50286e-02	3.70922e-02	9.34852e-03	1.66101e-06	1.36017e-02	2.42273e-06	2.59562e-06	7.22291e-07	7.56502e-02	2.81075e-08	2.84093e-08	7.83351e-02	2.61589e-02	2.80967e-08	2.83958e-08	4.18652e-02	1.69423e-02	1.85081e-02	4.69075e-03	2.82755e-08	6.61081e-03	X	X	X	X	X	X	X	X	X	X	X	X	X	X	X	X	



#DISTANCE SETTINGS
A = Detector Channel
A-1	A-2	A-3	A-4	A-5	A-6	A-7	A-8	A-9	A-10	A-11	A-12	A-13	A-14	A-15	A-16	

2.5000e+00	3.0000e+00	2.5000e+00	3.0000e+00	2.0000e+00	3.0000e+00	1.5000e+00	3.0000e+00	3.0000e+00	3.0000e+00	3.0000e+00	3.0000e+00	3.0000e+00	3.0000e+00	1.5000e+00	3.0000e+00	

B = Detector Channel
B-1	B-2	B-3	B-4	B-5	B-6	B-7	B-8	B-9	B-10	B-11	B-12	B-13	B-14	B-15	B-16	

1.0000e+01	1.0000e+01	1.0000e+01	1.4400e+00	1.0000e+01	1.0000e+01	1.5100e+00	1.9400e+00	1.0000e+01	1.0000e+01	1.9900e+00	2.4900e+00	2.4100e+00	2.9000e+00	1.0000e+01	2.9800e+00	




#DATA BEGINS
time	group	step	mark	flag	A-AC1	A-AC2	A-AC3	A-AC4	A-AC5	A-AC6	A-AC7	A-AC8	A-AC9	A-AC10	A-AC11	A-AC12	A-AC13	A-AC14	A-AC15	A-AC16	A-DC1	A-DC2	A-DC3	A-DC4	A-DC5	A-DC6	A-DC7	A-DC8	A-DC9	A-DC10	A-DC11	A-DC12	A-DC13	A-DC14	A-DC15	A-DC16	A-Ph1	A-Ph2	A-Ph3	A-Ph4	A-Ph5	A-Ph6	A-Ph7	A-Ph8	A-Ph9	A-Ph10	A-Ph11	A-Ph12	A-Ph13	A-Ph14	A-Ph15	A-Ph16	B-AC1	B-AC2	B-AC3	B-AC4	B-AC5	B-AC6	B-AC7	B-AC8	B-AC9	B-AC10	B-AC11	B-AC12	B-AC13	B-AC14	B-AC15	B-AC16	B-DC1	B-DC2	B-DC3	B-DC4	B-DC5	B-DC6	B-DC7	B-DC8	B-DC9	B-DC10	B-DC11	B-DC12	B-DC13	B-DC14	B-DC15	B-DC16	B-Ph1	B-Ph2	B-Ph3	B-Ph4	B-Ph5	B-Ph6	B-Ph7	B-Ph8	B-Ph9	B-Ph10	B-Ph11	B-Ph12	B-Ph13	B-Ph14	B-Ph15	B-Ph16	aux-1	digaux	

7859.958	1	1	0	256	0.43276	0.027026	0.063616	0.089709	0.1489	0.27652	0.13387	0.14244	0.084036	0.1679	0.07062	0.24056	0.27279	0.12042	0.082256	0.084443	-4.4167	-4.3271	-4.7562	-4.6979	-4.2063	-4.8042	-4.5458	-4.6229	-4.8208	-4.25	-4.7396	-4.5896	-4.4062	-4.9167	-4.4083	-4.5229	53.174	269.455	345.654	280.079	62.668	229.026	336.271	315.537	247.448	15.362	268.217	296.181	7.742	346.512	78.260	248.418	0.00054774	0.00057935	5.0614e-05	1362.4	5.2775e-06	2.4154e-06	1360.7	367.22	4.6251e-06	6.7773e-06	418.58	140.13	121.26	41.897	8.2442e-06	51.907	0.00056305	0.00055618	0.00015501	1379.3	6.0445e-06	6.0417e-06	1379	373.7	5.9364e-06	5.9432e-06	427.04	143.25	124.54	42.99	6.0197e-06	53.263	99.850	87.712	114.877	19.011	134.138	117.797	18.709	23.611	156.665	119.767	23.139	27.395	28.106	32.410	183.255	31.600	-8191	255	
7860.054	1	1	0	0	0.27987	0.1565	0.032141	0.079763	0.15393	0.19027	0.25087	0.17733	0.21523	0.22281	0.017461	0.21128	0.25819	0.27614	0.022976	0.25703	-4.6438	-4.3083	-4.5021	-4.8792	-4.1917	-4.5417	-4.5708	-4.5042	-4.6937	-4.2188	-4.7792	-4.6896	-3.9354	-4.9792	-4.6083	-4.1354	122.179	50.654	167.471	151.754	48.494	335.287	342.273	284.472	58.268	194.137	334.900	8.313	234.941	342.903	168.426	334.416	0.00050671	0.00038724	0.00012547	1360.3	8.6831e-06	3.1725e-06	1359	368.36	1.1294e-05	4.214e-06	419.35	140.68	122.24	41.94	3.5392e-06	51.992	0.00055507	0.00055926	0.00015544	1380.1	6.1094e-06	6.144e-06	1382.3	375.02	6.1764e-06	6.1412e-06	428.15	144.04	125.12	43.147	6.1621e-06	53.403	91.331	97.086	78.448	18.965	136.802	165.510	18.828	23.575	127.276	148.988	23.247	27.628	27.983	32.498	145.738	31.876	-8191	255	
7860.151	1	1	0	0	0.10288	0.1109	0.20582	0.21751	0.16493	0.11203	0.2504	0.017516	0.027533	0.1166	0.1171	0.14603	0.062309	0.25513	0.093533	0.12805	-4.6021	-4.1271	-4.5167	-4.9875	-3.9979	-4.8271	-4.6854	-4.3104	-4.8688	-4.2063	-4.5729	-4.6937	-4.2521	-4.6521	-4.5333	-4.3646	45.472	151.328	250.994	333.777	277.655	64.643	299.294	91.518	117.743	56.550	311.547	240.704	285.156	358.343	110.503	284.722	0.00056343	0.00080564	0.00014166	1366.8	2.253e-06	6.7421e-06	1360.9	369.13	6.3192e-06	2.9482e-06	418.38	139.84	121.93	42.023	4.7555e-06	52.009	0.00056541	0.00056508	0.0001578	1385.1	6.1154e-06	6.1022e-06	1382.8	375.33	6.121e-06	6.0387e-06	428.32	143.58	124.98	43.18	6.0733e-06	53.466	98.726	112.928	79.323	19.167	148.172	144.366	18.948	23.729	160.863	225.354	23.187	27.277	28.040	32.408	130.369	31.699	-8191	255	
7860.222	1	1	0	0	0.24384	0.085518	0.15061	0.20953	0.086429	0.13173	0.24293	0.19193	0.23667	0.011863	0.060556	0.092128	0.23803	0.037075	0.12312	0.13123	-4.4313	-4.4271	-4.2979	-4.9417	-4.2917	-4.7479	-4.7333	-4.2937	-4.8688	-4.325	-4.5375	-4.8771	-4.3313	-4.7458	-4.5375	-4.2042	193.224	248.971	167.886	276.866	165.397	67.669	315.366	324.024	341.937	308.699	132.318	303.651	94.974	357.815	219.468	294.306	0.00059293	0.00051638	7.7062e-05	1368.8	1.9885e-06	6.3224e-06	1368.7	369.79	1.6616e-06	7.8419e-06	421.57	140.43	122.74	42.057	4.7999e-06	51.973	0.000561	0.00056568	0.00015514	1387.8	6.1909e-06	6.1605e-06	1386.8	376.49	6.1143e-06	6.0569e-06	428.48	143.9	125.42	43.271	6.0424e-06	53.53	82.520	65.638	67.151	19.027	162.577	130.758	18.712	23.554	246.751	153.751	23.115	27.426	27.993	32.407	103.251	31.866	-8191	255	
7860.318	1	1	0	0	0.18155	0.13458	0.034676	0.23396	0.241	0.088747	0.18596	0.23673	0.1617	0.044466	0.067676	0.12388	0.22658	0.11349	0.087181	0.20078	-4.4062	-4.5229	-4.3104	-5.2312	-4.1438	-4.6458	-4.8417	-4.275	-4.725	-4.4479	-4.4271	-4.9542	-4.2646	-4.5583	-4.5875	-4.3729	25.556	284.446	65.393	27.396	157.944	237.449	309.970	308.478	124.314	158.219	128.315	33.256	296.663	237.003	323.393	164.336	0.00046582	0.00020101	0.00015894	1370.3	4.9043e-06	1.7991e-06	1373.3	370	5.0103e-06	4.123e-06	421.32	141.14	123.14	42.211	6.7184e-06	52.131	0.00054924	0.0005403	0.00014937	1387.3	5.8765e-06	5.8439e-06	1389.2	376.28	5.7831e-06	5.8273e-06	429.07	144.25	125.64	43.337	5.8566e-06	53.531	100.805	43.949	138.030	19.143	140.052	202.630	18.863	23.682	161.474	181.069	23.210	27.578	28.003	32.418	148.189	31.908	-8191	255	
7860.439	1	1	0	0	0.09447	0.18884	0.17782	0.06463	0.19559	0.10747	0.25127	0.35377	0.073584	0.17196	0.17429	0.10967	0.1211	0.089598	0.20575	0.050969	-4.2271	-4.5125	-4.0563	-4.9938	-4.3958	-4.3875	-4.9062	-4.3167	-4.5563	-4.7104	-4.2667	-4.6833	-4.4375	-4.4521	-4.8396	-4.2375	179.412	72.876	102.797	144.613	40.934	210.253	301.491	328.160	48.519	49.926	328.229	22.844	225.573	264.358	335.463	11.280	0.00049251	0.00098352	0.000136	1369.8	7.0646e-06	1.6243e-06	1370.5	370.09	6.8384e-06	1.8796e-06	422.24	141.08	123.01	42.233	1.67e-06	52.168	0.00053641	0.00053247	0.00014913	1388.3	5.8984e-06	5.9116e-06	1388.5	376.66	5.8611e-06	5.8038e-06	429.25	144.38	125.67	43.346	5.8434e-06	53.57	97.788	137.603	95.376	19.134	155.186	176.589	18.919	23.734	103.521	133.467	23.254	27.497	27.988	32.475	338.414	31.666	-8191	255	
7860.535	1	1	0	0	0.13308	0.12459	0.2758	0.43875	0.20829	0.16832	0.16808	0.23383	0.03915	0.08326	0.33422	0.057496	0.097789	0.2175	0.12059	0.10207	-4.4479	-4.4688	-4.2562	-5.0042	-4.2521	-4.5271	-4.9313	-4.4083	-4.6562	-4.7167	-4.3583	-4.7688	-4.6208	-4.6625	-4.6813	-4.5333	83.060	310.459	210.127	359.254	301.169	361.233	324.201	10.661	349.105	275.908	306.327	216.480	71.333	316.710	285.960	292.590	0.0004537	0.00046332	0.00017769	1370.2	3.4234e-06	4.0406e-06	1367.8	369.49	4.06e-06	2.0652e-06	420.68	141.4	122.96	42.487	5.3101e-06	52.468	0.00053677	0.00052859	0.00014834	1390.5	5.7026e-06	5.7274e-06	1387.8	376.03	5.8068e-06	5.7204e-06	429.4	144.4	125.78	43.534	5.8633e-06	53.789	103.399	94.933	159.802	18.870	97.181	130.323	18.865	23.730	97.134	148.489	23.223	27.349	27.779	32.426	125.973	31.646	-8191	255	
7860.631	1	1	0	0	0.17729	0.20807	0.13336	0.24238	0.25261	0.14956	0.17454	0.34968	0.074504	0.16065	0.17545	0.14033	0.051236	0.14963	0.041537	0.21314	-4.2458	-4.6729	-4.1292	-4.8333	-4.425	-4.3854	-5.1771	-4.5333	-4.2833	-4.8104	-4.3313	-4.6771	-4.5792	-4.2979	-4.8375	-4.4542	182.857	190.611	308.746	350.991	270.474	315.693	277.848	317.915	270.222	59.205	342.433	296.038	277.310	358.048	358.737	309.649	0.00050937	0.00057146	0.00027129	1372.1	2.9587e-06	3.6927e-06	1376.7	370.73	2.6645e-06	6.4998e-06	423.04	141.95	123.27	42.568	4.444e-06	52.461	0.0005336	0.00053829	0.00014967	1393.7	5.8851e-06	5.881e-06	1392.8	377.66	5.9439e-06	5.9378e-06	431.21	144.9	126.15	43.647	5.9248e-06	53.848	94.362	69.026	89.945	19.153	136.830	132.508	18.836	23.594	158.743	175.970	22.875	27.554	27.893	32.378	160.162	31.731	-8191	255	
7860.752	1	1	0	0	0.2287	0.1118	0.02566	0.21384	0.12783	0.0052643	0.32134	0.16801	0.26023	0.048519	0.27341	0.27461	0.19459	0.095533	0.074682	0.18271	-4.2542	-4.75	-4.2875	-4.7271	-4.6083	-4.4187	-4.9979	-4.5125	-4.2688	-4.9354	-4.1458	-4.7104	-4.5708	-4.1667	-4.7625	-4.5458	237.583	349.649	278.617	365.158	48.787	221.958	252.602	284.395	154.543	259.253	30.766	360.379	337.531	342.499	345.175	11.660	0.00055242	0.0010303	0.00025978	1377.8	3.8835e-06	3.6604e-06	1376.9	371.08	5.2114e-06	6.3266e-06	424.42	142.08	123.72	42.528	5.5974e-06	52.51	0.00054243	0.00053596	0.00014928	1392.7	5.7486e-06	5.7722e-06	1394.3	377.63	5.774e-06	5.6835e-06	430.65	145.24	126	43.603	5.7632e-06	53.738	96.694	116.038	107.760	19.130	182.862	201.341	18.858	23.585	188.274	232.217	23.104	27.465	27.608	32.354	142.194	31.555	-8191	255	
7860.824	1	1	0	0	0.085211	0.12382	0.069416	0.11521	0.24299	0.21276	0.079349	0.24829	0.088067	0.16883	0.13724	0.13111	0.16583	0.16789	0.13186	0.21328	-4.0979	-4.8146	-4.1	-4.7583	-4.8167	-4.1667	-4.9958	-4.5625	-4.2104	-4.8979	-4.5938	-4.5271	-4.7958	-4.3375	-4.5437	-4.5917	361.012	221.342	93.924	245.435	38.695	283.365	223.709	323.032	337.126	49.954	229.788	250.342	285.864	69.662	285.887	228.202	0.00044921	0.00029721	0.00018673	1374.4	8.5809e-06	6.963e-06	1376.6	370.92	7.2494e-06	9.6867e-06	421.93	141.53	123.48	42.455	2.7426e-06	52.373	0.00052156	0.00051859	0.00014425	1393.6	5.6396e-06	5.6806e-06	1391.3	377.72	5.6966e-06	5.7361e-06	429.93	144.61	126.08	43.561	5.6813e-06	53.695	93.969	112.782	109.468	19.135	173.239	114.397	18.817	23.713	177.917	151.134	22.781	27.780	27.975	32.497	201.656	31.778	-8191	255	
7860.920	1	1	0	0	0.094084	0.18554	0.24224	0.20206	0.11024	0.0054052	0.22254	0.28527	0.17684	0.054513	0.17352	0.033797	0.14074	0.1236	0.11403	0.24705	-3.9792	-4.7667	-4.3479	-4.8458	-4.8146	-4.1562	-4.9354	-4.8187	-4.2333	-4.8979	-4.575	-4.4104	-4.9271	-4.2438	-4.5792	-4.9167	147.870	260.175	32.647	295.783	177.270	15.169	255.439	315.174	171.171	221.333	265.037	257.915	346.529	321.757	305.639	296.914	0.0006237	0.00045445	0.00020183	1377.8	2.2345e-06	4.2533e-06	1373.5	370.76	1.1093e-05	6.0983e-06	423.66	141.69	123.1	42.455	3.2525e-06	52.421	0.0005222	0.00052339	0.00014469	1391.6	5.7116e-06	5.7126e-06	1389.3	376.87	5.7296e-06	5.7347e-06	429.49	144.65	125.95	43.555	5.7766e-06	53.731	103.612	57.119	154.265	18.896	170.632	199.601	18.786	23.632	157.454	175.140	23.095	27.461	27.888	32.282	57.293	31.724	-8191	255	
7861.039	1	1	0	0	0.060952	0.16799	0.21159	0.32038	0.14774	0.27999	0.4283	0.17155	0.14805	0.14231	0.25728	0.099569	0.063182	0.12035	0.19395	0.16567	-3.9188	-4.7021	-4.5396	-4.5229	-4.7104	-4.2688	-4.9417	-4.7271	-4.0708	-4.8521	-4.6354	-4.4187	-5.0125	-4.2812	-4.4854	-4.7167	258.272	285.203	283.753	308.436	108.620	127.846	300.118	18.935	63.021	8.074	292.028	297.113	72.966	198.753	355.972	69.126	0.00047725	0.00062738	0.00017519	1369.6	2.6192e-06	2.0137e-06	1372.9	369.95	6.1284e-06	6.2154e-06	420.58	141.75	122.7	42.558	7.1788e-06	52.472	0.00051999	0.00051723	0.00014364	1388.9	5.6635e-06	5.5724e-06	1388.6	376.52	5.6132e-06	5.574e-06	428.66	144.5	125.42	43.455	5.533e-06	53.629	97.433	103.586	119.386	19.048	149.325	204.176	18.967	23.652	139.504	146.826	23.198	27.453	27.841	32.274	147.193	31.707	-8191	255	
7861.135	1	1	0	0	0.14922	0.092718	0.12282	0.3661	0.051322	0.23311	0.31029	0.074643	0.099248	0.25124	0.040147	0.12052	0.11773	0.067853	0.025081	0.24072	-3.8854	-4.6937	-4.3812	-4.3438	-4.7438	-4.2958	-4.7312	-4.8667	-4.2771	-4.6479	-4.7229	-4.4125	-5.025	-4.2792	-4.2625	-4.7937	276.077	290.198	347.957	321.741	164.747	181.239	319.392	98.127	216.651	12.433	216.494	27.327	42.395	62.139	9.953	314.602	0.00049062	0.00092722	0.00016867	1373	5.496e-06	3.624e-06	1366.9	369.43	6.7136e-06	5.7356e-06	420.08	140.62	123.57	42.551	8.1449e-06	52.295	0.00050528	0.00050765	0.00014051	1387.6	5.4772e-06	5.4715e-06	1386.2	375.57	5.5198e-06	5.5117e-06	428.36	143.84	125.58	43.454	5.5665e-06	53.605	98.637	123.075	118.893	19.155	178.781	126.817	19.024	23.519	155.614	126.926	22.775	27.378	28.118	32.388	157.061	31.858	-8191	255	
7861.231	1	1	0	0	0.28806	0.12141	0.081236	0.1394	0.19363	0.082367	0.11339	0.14029	0.12565	0.2141	0.2898	0.065604	0.22852	0.28744	0.2689	0.19277	-3.9083	-4.675	-4.2896	-4.4021	-4.8229	-4.45	-4.6042	-4.9812	-4.2229	-4.5646	-4.7458	-4.3292	-4.9021	-4.4604	-4.3688	-4.9563	67.054	23.769	244.690	348.121	352.260	144.039	187.490	279.479	201.944	104.985	268.609	148.167	47.396	305.135	26.856	25.504	0.00056179	0.00050914	0.00020973	1373	4.5464e-06	1.3864e-06	1367.5	370.28	6.7391e-06	6.2451e-06	421.64	141.07	123.23	42.327	7.4923e-06	52.222	0.00050133	0.00050065	0.00013969	1386.5	5.4246e-06	5.4057e-06	1386	375.68	5.4134e-06	5.324e-06	428.13	144.22	125.24	43.387	5.3647e-06	53.495	98.680	80.307	148.729	18.921	185.926	185.540	18.905	23.638	175.657	135.942	23.025	27.445	27.992	32.430	144.472	31.880	-8191	255	
7861.352	1	1	0	0	0.18821	0.12456	0.12433	0.27753	0.076161	0.083042	0.16614	0.27827	0.068978	0.15365	0.084566	0.21545	0.14975	0.13542	0.14985	0.19765	-3.8646	-4.5854	-4.5479	-4.4125	-4.7812	-4.3438	-4.4458	-5.0042	-4.2729	-4.4437	-4.7896	-4.2646	-4.9104	-4.7937	-4.125	-5.1208	55.812	84.918	338.411	332.745	225.928	73.943	316.012	340.687	169.328	92.457	344.702	352.003	362.379	306.720	148.914	348.178	0.00044884	0.00041941	0.00013239	1365.8	8.7378e-07	5.3118e-06	1366.6	369.02	3.041e-06	3.1122e-06	422.78	141.32	122.25	42.213	3.4673e-06	52.276	0.0004977	0.0004949	0.00013687	1385.5	5.4123e-06	5.3771e-06	1384.2	375.62	5.3683e-06	5.4224e-06	428.37	144.04	124.94	43.282	5.4568e-06	53.464	90.734	353.068	106.444	19.032	85.052	130.230	18.892	23.543	214.956	173.536	23.022	27.531	27.929	32.556	138.130	31.722	-8191	255	
7861.448	1	1	0	0	0.19313	0.26496	0.12823	0.25148	0.24299	0.097196	0.27866	0.31486	0.028872	0.10592	0.30615	0.20108	0.19355	0.21728	0.050613	0.10587	-4.1188	-4.425	-4.825	-4.4875	-4.5396	-4.7292	-4.3604	-4.925	-4.3313	-4.4167	-4.8208	-4.3271	-4.8	-4.7562	-4.3021	-4.9167	213.087	235.275	271.146	346.259	131.707	280.376	281.878	274.333	191.878	215.228	333.638	120.768	13.511	301.664	274.149	299.572	0.0005625	0.00049302	0.00018966	1371.7	4.212e-06	5.9919e-06	1366.6	369.41	6.4378e-06	3.0739e-06	421.76	141.08	121.75	42.218	3.0843e-06	52.179	0.00050185	0.00049723	0.0001377	1386.6	5.5386e-06	5.4751e-06	1384.7	375.18	5.5044e-06	5.4208e-06	428.28	144.04	124.73	43.28	5.5124e-06	53.436	92.498	87.734	79.618	19.009	177.164	115.582	18.838	23.566	127.151	100.206	23.014	27.503	27.887	32.680	185.117	31.765	-8191	255	
7861.519	1	1	0	0	0.22723	0.1264	0.10261	0.11793	0.21457	0.21552	0.26313	0.20663	0.21148	0.054053	0.18503	0.14131	0.03942	0.21799	0.11306	0.052636	-4.1271	-4.325	-4.7208	-4.4688	-4.6083	-4.6542	-4.3979	-4.8104	-4.4437	-4.3771	-4.9062	-4.2542	-4.7271	-4.6792	-4.175	-4.9313	244.101	217.457	335.265	298.432	232.173	15.248	12.544	299.876	348.212	365.478	342.955	18.383	124.774	142.081	349.537	104.275	0.00046244	0.00063367	0.0001248	1365.6	2.1247e-06	1.8341e-06	1364.8	368.09	9.9111e-06	8.0641e-06	420.7	140.66	122.01	42.145	6.7845e-06	52.478	0.00050198	0.00050188	0.0001384	1384.8	5.5441e-06	5.5244e-06	1385.8	375.29	5.5493e-06	5.5594e-06	428.19	143.74	124.94	43.282	5.5372e-06	53.587	95.133	129.999	123.860	19.050	93.812	139.895	18.855	23.641	172.729	146.829	23.055	27.692	27.968	32.472	211.226	31.770	-8191	255	
7861.616	1	1	0	0	0.20931	0.20323	0.09503	0.29522	0.23087	0.14961	0.11356	0.13346	0.0054584	0.070541	0.18249	0.20152	0.10399	0.17087	0.2174	0.081353	-4.0062	-4.1625	-4.6229	-4.4875	-4.6458	-4.7937	-4.3042	-4.85	-4.4875	-4.4708	-4.9833	-4.2375	-4.6521	-4.8604	-4.1708	-4.5833	102.168	344.059	291.665	333.353	331.941	296.124	14.412	13.159	352.055	322.925	91.346	284.106	89.088	295.726	273.439	326.986	0.00046987	0.00057347	0.00019498	1367.8	2.6216e-06	4.1092e-06	1368.6	368.52	3.0041e-06	2.3512e-06	421.3	141.23	122.7	42.096	7.0526e-06	52.154	0.00050446	0.00050134	0.00014013	1385.9	5.5992e-06	5.4858e-06	1385.3	374.97	5.5157e-06	5.5446e-06	428.02	144.09	125.18	43.172	5.6125e-06	53.379	92.028	106.601	110.904	19.094	180.522	107.314	18.937	23.479	152.550	280.257	22.941	27.610	27.857	32.499	145.801	31.727	-8191	255	
7861.736	1	1	0	0	0.13511	0.24109	0.072448	0.051464	0.13101	0.02186	0.18955	0.16392	0.062326	0.17742	0.17535	0.073166	0.17276	0.11506	0.14048	0.14823	-4.1	-4.2667	-4.8958	-4.5062	-4.2937	-4.7354	-4.4083	-4.7042	-4.5542	-4.2521	-4.9313	-4.3729	-4.5708	-4.7583	-4.2667	-4.6125	231.516	222.863	207.582	283.897	252.966	272.447	285.885	307.398	180.703	116.230	364.935	295.219	289.286	321.260	263.630	285.479	0.00050638	0.00049428	0.00016118	1365.9	1.0572e-05	4.4835e-06	1365.8	369.44	1.9269e-06	5.0277e-06	421.24	141.19	122.12	42.112	4.0424e-06	52.402	0.00051389	0.00050828	0.00014149	1384.5	5.4827e-06	5.5215e-06	1384.4	375.07	5.4805e-06	5.5043e-06	427.93	143.76	124.74	43.232	5.5227e-06	53.539	94.374	111.963	99.119	18.901	162.490	169.527	18.729	23.571	136.952	163.135	23.191	27.471	28.057	32.345	126.454	31.560	-8191	255	
7861.831	1	1	0	0	0.057405	0.29992	0.18592	0.20553	0.32931	0.075036	0.071552	0.31869	0.12162	0.14919	0.17951	0.13901	0.13672	0.11659	0.052993	0.13352	-4.2625	-4.2333	-4.6896	-4.7562	-4.2375	-4.7688	-4.4771	-4.75	-4.8583	-4.2125	-4.6542	-4.6896	-4.3479	-4.9729	-4.3625	-4.7375	161.122	48.390	323.110	258.671	152.716	295.212	225.524	312.219	122.916	302.698	314.510	161.410	218.577	314.900	174.224	93.122	0.00046751	0.00027405	0.00014016	1366.6	5.0044e-06	4.3721e-06	1366.7	368.04	6.1012e-06	5.6995e-06	419.96	140.36	122.04	42.06	6.7914e-06	51.958	0.000513	0.00050144	0.00013972	1383.5	5.5163e-06	5.4496e-06	1382.8	374.49	5.4631e-06	5.4301e-06	426.74	143.33	124.53	43.148	5.4164e-06	53.217	92.833	143.620	95.201	18.965	143.089	122.817	18.779	23.371	180.332	200.455	22.934	27.387	27.791	32.302	128.912	31.828	-8191	255	
7861.927	1	1	0	0	0.015284	0.19389	0.041463	0.06433	0.22072	0.12644	0.21863	0.17255	0.23027	0.33396	0.19267	0.25142	0.14886	0.13492	0.15996	0.17228	-4.4688	-4.0729	-4.7583	-4.6708	-4.3583	-4.8792	-4.6438	-4.7292	-4.6854	-4.3604	-5.0083	-4.6979	-4.3562	-4.8792	-4.4229	-4.45	321.476	316.111	59.912	314.970	10.386	295.524	272.437	287.222	286.038	274.990	287.300	26.012	343.956	337.881	210.033	311.094	0.00055232	0.00056707	0.00026524	1366.7	4.2892e-06	5.3003e-06	1364	368.64	7.1625e-06	5.9699e-06	420.32	140.88	122.29	41.989	4.7867e-06	52.173	0.00049475	0.00049001	0.00013632	1382.7	5.3768e-06	5.3536e-06	1381.8	374.89	5.2942e-06	5.2476e-06	427.1	143.54	124.54	43.089	5.2038e-06	53.34	92.868	86.643	118.933	18.990	145.868	203.574	18.957	23.609	147.003	198.939	22.731	27.427	28.119	32.403	120.011	31.752	-8191	255	
7862.023	1	1	0	0	0.24643	0.24012	0.15508	0.20553	0.16763	0.094554	0.29152	0.35019	0.12512	0.01401	0.044451	0.11304	0.21262	0.27518	0.097493	0.16207	-4.3083	-4.1917	-4.6042	-4.7771	-4.225	-4.7	-4.7396	-4.3646	-5.0167	-4.1208	-4.7521	-4.7771	-4.2604	-4.9479	-4.3854	-4.3562	196.081	222.927	117.633	307.146	233.849	69.765	301.006	309.785	242.958	14.024	17.706	311.617	207.960	41.262	191.290	299.316	0.0004874	0.00081335	0.00022964	1368.3	4.4499e-06	3.0737e-06	1366.3	370.81	6.89e-06	6.6174e-06	421.35	140.62	122.08	42.072	3.9231e-06	52.102	0.00048555	0.00048028	0.00013337	1383.3	5.2634e-06	5.2465e-06	1381.9	375.02	5.2304e-06	5.2257e-06	427.29	143.3	124.54	43.176	5.2893e-06	53.222	95.470	127.678	106.892	19.069	170.820	114.700	18.709	23.568	141.111	136.817	23.292	27.596	28.089	32.567	177.724	31.804	-8191	255	
7862.119	1	1	0	0	0.18367	0.12719	0.18117	0.20311	0.18659	0.28071	0.29655	0.20346	0.018384	0.23755	0.376	0.46971	0.0309	0.038043	0.13796	0.15864	-4.6979	-4.0729	-4.4604	-4.8646	-4.1958	-4.8417	-4.625	-4.2083	-4.9521	-4.3958	-4.8146	-4.8521	-4.3208	-4.7146	-4.3604	-4.5813	309.017	58.656	46.524	315.757	58.296	316.500	265.998	13.868	227.470	257.196	326.838	323.977	264.262	69.863	211.102	320.965	0.00058342	0.00030108	9.2614e-05	1365.8	1.9007e-06	2.9925e-06	1361.7	368.62	7.8942e-06	1.0869e-05	421.63	140.31	122.36	42.192	2.7768e-06	52.118	0.00048425	0.00047672	0.0001339	1383.6	5.2505e-06	5.2262e-06	1380	374.35	5.2688e-06	5.1753e-06	426.9	143.25	124.55	43.175	5.1808e-06	53.329	91.807	122.704	88.211	19.080	137.091	144.298	18.883	23.603	178.956	180.720	23.164	27.394	27.656	32.389	145.053	31.950	-8191	255	
7862.215	1	1	0	0	0.082583	0.20528	0.20334	0.19522	0.13558	0.1936	0.16865	0.16264	0.066909	0.2194	0.13968	0.13486	0.16205	0.2286	0.1055	0.076145	-4.5896	-4.2854	-4.4563	-5.0146	-4.2375	-4.6167	-4.85	-4.3833	-4.8333	-4.325	-4.2896	-5.0938	-4.3125	-4.6896	-4.6875	-4.2333	156.571	146.069	340.585	320.918	116.612	77.559	270.214	295.236	232.669	347.564	261.412	11.759	343.979	308.092	241.316	261.618	0.00057308	0.0006602	0.00015278	1363.6	3.4429e-06	1.9584e-06	1364.9	369.14	2.7652e-06	2.7328e-06	419.9	141.07	121.75	42.228	5.0247e-06	52.124	0.00047904	0.00047344	0.00013058	1382.7	5.1205e-06	5.1178e-06	1381.4	374.44	5.0897e-06	5.0592e-06	426.63	143.16	124.29	43.107	5.0451e-06	53.21	96.718	47.962	97.690	19.063	138.628	144.747	18.758	23.446	171.345	175.157	23.080	27.390	27.796	32.513	185.631	31.683	-8191	255	
7862.311	1	1	0	0	0.13595	0.24013	0.098823	0.20019	0.23812	0.17246	0.1846	0.10689	0.20276	0.18932	0.28496	0.15381	0.15538	0.11625	0.020903	0.077836	-4.3	-4.55	-4.2292	-5.0292	-4.2167	-4.5667	-4.8	-4.5042	-4.8979	-4.2604	-4.2812	-4.8896	-4.3521	-4.6271	-4.7979	-4.1687	317.383	354.117	9.282	337.109	125.299	89.327	317.681	264.439	203.311	304.808	37.868	281.219	29.893	238.396	353.516	317.332	0.00056045	0.00065039	0.00013755	1364	7.0967e-06	3.889e-06	1358.9	367.5	4.0781e-06	2.9741e-06	419.2	140.87	122.73	42.214	5.7856e-06	52.191	0.00046046	0.00045138	0.00012593	1382	4.9883e-06	4.9742e-06	1377.9	373.8	5.0425e-06	4.9639e-06	425.99	143.25	124.26	43.152	4.9823e-06	53.206	103.111	75.247	112.277	18.880	173.315	140.455	18.756	23.753	142.357	171.798	23.003	27.638	27.982	32.653	141.340	31.826	-8191	255	
7862.432	1	1	0	0	0.17278	0.036348	0.16799	0.057534	0.07393	0.14077	0.28923	0.31318	0.27517	0.06126	0.16007	0.19778	0.12215	0.1906	0.17453	0.089502	-4.3875	-4.4771	-4.1458	-5.0979	-4.3646	-4.5625	-4.7063	-4.4187	-4.7	-4.4521	-4.3583	-4.8729	-4.3417	-4.55	-4.85	-4.1479	314.415	59.336	188.142	322.644	359.487	305.594	351.235	242.438	245.524	97.832	291.699	341.652	67.393	352.994	45.874	355.056	0.00047273	0.0004309	9.6561e-05	1365.2	5.1931e-06	4.0278e-06	1363.7	368.61	7.684e-06	3.8825e-06	419.47	140.57	121.96	42.203	4.8167e-06	51.935	0.00046497	0.00045657	0.00012741	1380.1	5.0113e-06	5.0339e-06	1379.5	373.68	5.0779e-06	4.9769e-06	426.13	143.19	124.28	43.078	5.0785e-06	53.139	92.382	89.271	182.328	19.031	158.968	136.560	18.962	23.715	167.452	138.628	23.095	27.397	28.311	32.570	147.489	31.655	-8191	255	
7862.528	1	1	0	0	0.16481	0.071634	0.27382	0.26503	0.1408	0.21701	0.069833	0.2098	0.14677	0.21013	0.16832	0.14165	0.068047	0.32058	0.066606	0.1155	-4.2688	-4.5646	-4.1687	-4.9667	-4.4062	-4.5979	-4.9375	-4.4417	-4.7729	-4.5917	-4.3125	-4.8708	-4.65	-4.3583	-4.8167	-4.1813	255.223	119.786	45.134	357.265	110.961	35.295	333.455	359.656	210.010	248.070	281.643	69.977	235.888	13.530	325.348	184.124	0.00050093	0.00055435	0.00023368	1365.1	5.0762e-06	1.4271e-06	1361.8	366.74	5.835e-06	6.1632e-06	419.95	140.13	121.85	42.098	2.6678e-06	52.226	0.000468	0.00046748	0.00013048	1380.7	5.1277e-06	5.1033e-06	1379.3	373.89	5.1523e-06	5.1195e-06	426.29	143.14	124.36	43.053	5.1739e-06	53.287	95.125	148.101	122.553	19.179	140.459	173.983	18.870	23.648	176.988	138.876	22.954	27.477	28.029	32.821	153.625	31.824	-8191	255	
7862.624	1	1	0	0	0.10748	0.19205	0.066929	0.34498	0.11657	0.24614	0.2454	0.16849	0.14065	0.17013	0.026697	0.11042	0.097522	0.1504	0.14842	0.034991	-4.3396	-4.7208	-4.1125	-4.85	-4.5792	-4.3625	-5.0542	-4.5583	-4.6958	-4.6208	-4.1875	-5.0146	-4.5062	-4.2458	-4.8292	-4.3792	227.252	309.738	147.759	352.075	22.955	281.874	307.174	287.638	205.981	202.830	358.146	143.128	358.038	217.760	26.079	173.961	0.00048841	0.00045803	0.00015289	1365.7	1.1661e-06	2.2869e-06	1363.9	367.89	8.1112e-07	8.1626e-06	421.16	140.37	121.99	41.989	2.1522e-06	52.093	0.0004828	0.00047802	0.00013229	1381.6	5.3041e-06	5.2967e-06	1381	373.89	5.3146e-06	5.2942e-06	426.98	143.19	124.44	43.104	5.3361e-06	53.261	94.648	110.818	167.933	19.095	192.027	157.679	18.781	23.491	153.262	116.682	22.968	27.430	27.845	32.549	220.681	31.667	-8191	255	
7862.720	1	1	0	0	0.19914	0.29961	0.087072	0.078324	0.15389	0.035227	0.15822	0.23539	0.17775	0.12916	0.15103	0.32627	0.079881	0.166	0.1413	0.10604	-4.175	-4.8438	-4.0542	-4.7667	-4.475	-4.2604	-4.9729	-4.6375	-4.4146	-4.7979	-4.3729	-4.7625	-4.6021	-4.375	-4.7875	-4.5979	216.915	5.493	363.940	63.914	301.412	118.011	291.195	326.875	343.800	150.886	141.695	355.837	260.012	306.772	104.662	283.062	0.00049136	0.00037874	9.7832e-05	1368.8	3.8119e-06	7.4349e-06	1363.1	368.31	5.0575e-06	2.4247e-06	419.29	140.01	121.62	42.074	2.198e-06	51.933	0.00049245	0.00048537	0.00013408	1383.4	5.3648e-06	5.3576e-06	1380.6	374.6	5.314e-06	5.335e-06	426.68	143.14	124.33	43.161	5.2935e-06	53.23	99.906	120.979	128.512	19.103	157.005	103.935	18.864	23.435	140.763	179.335	23.052	27.527	28.020	32.434	158.506	31.597	-8191	255	
7862.817	1	1	0	0	0.1934	0.12889	0.29347	0.24823	0.15761	0.059786	0.20859	0.23104	0.072207	0.071266	0.14271	0.025735	0.073752	0.28563	0.25954	0.24093	-3.9896	-4.7646	-4.1333	-4.7042	-4.5979	-4.1958	-5.0167	-4.3604	-4.2833	-4.9271	-4.3375	-4.675	-4.7646	-4.2812	-4.8604	-4.6375	22.032	135.378	284.099	334.056	66.644	271.136	329.978	9.570	80.019	121.396	163.279	230.570	248.614	350.817	185.163	21.382	0.00041496	0.00063228	0.00024331	1366.6	1.1459e-06	1.918e-06	1363.4	368.55	2.4775e-06	3.2553e-06	418.95	139.56	121.87	42.065	6.2265e-06	52.104	0.00048838	0.00047987	0.00013401	1382.3	5.3063e-06	5.2404e-06	1380.3	374.02	5.3269e-06	5.273e-06	426.39	143.17	124.4	43.083	5.4067e-06	53.272	91.687	97.265	65.685	18.996	193.393	104.384	18.726	23.560	123.410	116.233	23.089	27.504	28.374	32.604	163.614	31.619	-8191	255	
7862.913	1	1	0	0	0.21462	0.093261	0.011766	0.22822	0.071312	0.15678	0.38309	0.092517	0.11968	0.095624	0.082935	0.20443	0.31818	0.21837	0.11542	0.12437	-3.9875	-4.7125	-4.2979	-4.6479	-4.7354	-4.2042	-5.0833	-4.6625	-4.1021	-4.9563	-4.5792	-4.3021	-4.9583	-4.3313	-4.6042	-4.7729	358.995	191.083	47.634	284.548	323.467	64.951	319.755	323.731	221.912	121.758	275.197	323.568	344.342	55.289	193.308	9.769	0.00059796	0.000415	0.00013082	1365.3	2.6899e-06	6.0228e-06	1363.9	367.92	7.0003e-06	9.3586e-06	420.29	140.28	121.98	41.987	6.2432e-06	52.227	0.00049531	0.00049299	0.00013794	1382	5.3663e-06	5.3868e-06	1379.6	373.75	5.2705e-06	5.3195e-06	426.14	143.21	124.36	43.036	5.3232e-06	53.186	97.126	68.212	81.277	19.001	168.644	180.038	18.880	23.558	147.086	159.236	23.020	27.461	27.878	32.404	138.742	31.582	-8191	255	
7863.032	1	1	0	0	0.091119	0.14467	0.13323	0.2439	0.13451	0.16516	0.30133	0.16147	0.14511	0.10336	0.15218	0.13055	0.040616	0.086184	0.033105	0.10281	-3.8063	-4.6562	-4.5042	-4.575	-4.7354	-4.3313	-4.8208	-4.5938	-4.1583	-4.8854	-4.5229	-4.3646	-4.7104	-4.4042	-4.65	-4.7271	304.519	93.264	351.616	307.603	95.402	94.660	298.584	357.854	167.256	174.066	25.152	299.582	80.677	83.229	355.653	334.233	0.00052732	0.00025027	7.7876e-05	1369.6	5.5701e-07	2.1626e-06	1365.5	368.61	7.6508e-06	4.1962e-06	419.37	140.52	121.58	42.26	1.7283e-06	51.965	0.00048911	0.00048835	0.00013571	1383.7	5.3376e-06	5.3401e-06	1382	374.82	5.42e-06	5.4915e-06	426.52	143.1	124.41	43.141	5.4945e-06	53.263	90.590	132.979	133.285	19.047	172.478	161.296	18.880	23.667	166.834	141.718	23.032	27.448	27.931	32.649	129.867	32.059	-8191	255	
7863.128	1	1	0	0	0.19038	0.23327	0.10395	0.12004	0.033123	0.052405	0.22664	0.17614	0.1748	0.040624	0.19418	0.14496	0.35228	0.17628	0.076904	0.12293	-3.8583	-4.7167	-4.2146	-4.3313	-4.9563	-4.3542	-4.6604	-4.9646	-4.1583	-4.7417	-4.5188	-4.5167	-4.9521	-4.3271	-4.5437	-4.9938	308.281	145.366	363.430	260.301	267.414	80.326	292.198	327.172	310.167	17.504	320.334	38.357	316.793	244.756	291.114	73.340	0.00049899	0.00066852	0.00013909	1360.8	3.6076e-06	2.18e-06	1361.9	368.84	5.386e-06	2.1715e-06	419.3	140.8	121.98	41.867	6.0994e-06	52.175	0.00050581	0.00050561	0.00013775	1379.5	5.4003e-06	5.4638e-06	1379.8	374.16	5.3816e-06	5.4696e-06	426.53	143.31	124.33	43.023	5.4396e-06	53.244	103.037	92.048	136.050	19.010	164.304	71.010	18.892	23.683	187.955	136.831	22.968	27.804	27.867	32.634	181.009	31.766	-8191	255	
7863.224	1	1	0	0	0.34854	0.20335	0.15227	0.17787	0.15513	0.17627	0.26862	0.090386	0.046797	0.31333	0.04523	0.15056	0.16373	0.22496	0.12858	0.069733	-3.6063	-4.6417	-4.3938	-4.4458	-4.9437	-4.2625	-4.6667	-4.9292	-4.1458	-4.5396	-4.75	-4.0896	-5.0354	-4.5271	-4.2042	-5.0229	265.129	142.943	81.363	274.865	148.761	261.783	282.444	294.737	113.418	9.381	63.562	28.856	242.737	309.314	192.231	161.539	0.00048031	0.00055122	0.00014083	1364.7	5.4758e-06	4.1993e-06	1363.3	368.97	3.7937e-06	6.4143e-06	420.39	139.96	121.81	42.1	1.6044e-06	51.852	0.00049248	0.00049711	0.00013475	1381.7	5.3087e-06	5.2522e-06	1379.9	374.5	5.1878e-06	5.2187e-06	427.44	142.94	124.12	43.06	5.091e-06	53.088	101.627	77.149	126.719	19.037	152.605	154.742	18.850	23.517	129.078	184.028	23.222	27.443	27.874	32.393	239.726	31.466	-8191	255	
7863.320	1	1	0	0	0.15501	0.15311	0.19171	0.32197	0.092588	0.22932	0.2543	0.051165	0.070389	0.28411	0.053233	0.19116	0.25638	0.10072	0.19419	0.14672	-3.8333	-4.5896	-4.6167	-4.4542	-4.7208	-4.4792	-4.5083	-4.9208	-4.1896	-4.7354	-4.7354	-4.1396	-4.8229	-4.725	-4.2271	-4.8938	144.105	313.380	215.863	7.440	305.217	292.887	324.774	240.562	315.722	293.202	356.318	303.145	270.984	289.403	249.800	248.541	0.00050335	0.00048385	8.906e-05	1363.7	2.2822e-06	5.63e-06	1364.8	368	8.9422e-06	4.7167e-06	420.12	140.42	122.05	42.149	2.8651e-06	52.011	0.00046925	0.00046518	0.00013025	1381.9	5.1146e-06	5.1442e-06	1381.2	374.11	5.2663e-06	5.381e-06	426.47	143.08	124.41	43.169	5.5667e-06	53.26	96.333	59.960	95.263	18.980	200.440	135.549	18.925	23.476	168.439	155.566	22.862	27.282	27.830	32.535	172.821	31.778	-8191	255	
7863.416	1	1	0	0	0.10975	0.10704	0.27199	0.19723	0.11424	0.096869	0.35054	0.068192	0.10603	0.11467	0.08499	0.2498	0.28063	0.22108	0.2107	0.22478	-3.8979	-4.4021	-4.55	-4.4208	-4.8979	-4.5292	-4.4875	-4.9563	-4.2562	-4.6062	-4.8	-4.0646	-4.7896	-4.6021	-4.2646	-4.9854	135.892	7.901	6.026	7.573	152.404	215.633	330.843	302.655	45.004	172.751	329.841	71.043	37.559	15.210	231.040	340.081	0.00051884	0.00043817	0.00013923	1364.8	3.0725e-06	4.8868e-06	1361.5	367.85	5.4614e-06	3.5673e-06	419.95	140.06	122.02	41.968	2.6169e-06	51.963	0.00051705	0.00051403	0.00014491	1381.6	5.7096e-06	5.721e-06	1378.8	374.29	5.6665e-06	5.7305e-06	427.57	143.34	124.54	43.161	5.5978e-06	53.305	96.059	80.111	102.568	19.101	203.738	144.992	18.853	23.623	119.583	166.690	23.187	27.524	27.855	32.557	156.191	31.706	-8191	255	
7863.512	1	1	0	0	0.019354	0.28159	0.22544	0.14754	0.076977	0.14123	0.40416	0.34658	0.11536	0.057207	0.097342	0.13793	0.22372	0.24689	0.014816	0.15538	-4.0146	-4.4854	-4.9229	-4.3958	-4.4417	-4.65	-4.3417	-4.975	-4.3229	-4.3125	-4.9333	-4.4229	-4.6417	-4.5687	-4.1667	-4.8771	244.269	240.997	320.335	182.506	298.529	157.416	302.506	277.800	68.349	89.043	92.065	313.725	301.806	277.413	143.888	339.948	0.00038672	0.00013942	9.355e-05	1363.2	5.0287e-06	5.711e-07	1363.1	367.74	6.1468e-06	2.7636e-06	420.72	140.56	122.58	42.094	7.405e-07	51.851	0.00050384	0.00050333	0.00013708	1380.5	5.3708e-06	5.265e-06	1378.8	373.9	5.1856e-06	5.1235e-06	426.59	143.02	124.34	43.076	5.0951e-06	53.212	102.603	84.500	61.518	19.153	115.475	37.051	18.933	23.520	131.460	67.484	23.038	27.563	28.180	32.557	80.514	31.967	-8191	255	
7863.608	1	1	0	0	0.12718	0.11139	0.18801	0.31527	0.28874	0.065228	0.14511	0.17198	0.027714	0.28982	0.14728	0.15177	0.28883	0.056039	0.020951	0.11599	-4.1375	-4.3958	-4.7542	-4.2917	-4.7958	-4.8438	-4.3354	-5.0583	-4.5625	-4.3063	-4.9167	-4.2688	-4.5104	-4.9792	-4.3271	-4.6583	218.924	291.870	349.914	316.419	313.720	253.691	291.685	356.073	232.778	9.671	275.481	78.886	285.112	335.314	281.841	261.974	0.00048221	0.00022476	0.0001227	1364.3	5.1219e-06	1.7615e-06	1360.6	368.43	5.445e-06	3.2579e-06	419.63	139.92	121.79	41.916	5.5749e-06	52.009	0.00047497	0.00046277	0.00012878	1379.4	5.1099e-06	5.0338e-06	1376.3	373.49	5.0909e-06	5.046e-06	426.01	142.91	123.99	42.96	5.0177e-06	53.118	97.124	19.069	86.164	19.045	176.039	180.951	18.817	23.513	184.613	123.127	23.118	27.645	28.044	32.349	174.515	31.942	-8191	255	
7863.705	1	1	0	0	0.090807	0.1909	0.052614	0.2583	0.14401	0.083337	0.082905	0.27134	0.14047	0.079601	0.23097	0.2371	0.11514	0.041332	0.070593	0.099801	-4.3667	-4.2521	-4.8187	-4.6354	-4.4792	-4.7917	-4.4729	-4.6854	-4.6542	-4.2104	-4.9958	-4.4667	-4.4896	-4.8938	-4.3958	-4.7583	48.465	227.185	24.494	279.239	61.491	183.822	280.351	291.396	129.563	36.680	15.872	319.604	128.026	131.484	98.914	19.646	0.00053828	0.00064807	0.00011291	1363.6	2.0636e-06	4.9802e-06	1362.1	369.12	5.3022e-06	5.1818e-06	420.24	140.33	122.48	42.044	5.1266e-06	52.031	0.00046728	0.00045936	0.00013023	1379.3	5.1344e-06	5.0461e-06	1377.8	374.12	5.0939e-06	5.0601e-06	426.93	143.26	124.32	42.982	5.0767e-06	53.22	99.551	121.688	175.183	18.915	141.667	156.188	18.852	23.726	208.355	186.379	22.899	27.399	27.888	32.512	184.038	31.891	-8191	255	
7863.824	1	1	0	0	0.22572	0.085152	0.13534	0.26888	0.14881	0.10165	0.12905	0.10269	0.22199	0.18679	0.1209	0.25368	0.11733	0.12683	0.28055	0.055887	-4.1417	-4.4125	-4.8396	-4.6708	-4.5104	-4.8562	-4.525	-4.7271	-4.55	-4.2021	-4.8229	-4.3604	-4.4042	-5.1062	-4.2208	-4.65	181.300	45.260	11.946	352.422	11.156	273.114	291.741	305.453	93.763	30.480	25.629	27.832	358.394	330.066	171.861	337.146	0.00052606	0.00027473	0.00024486	1366.3	3.5124e-06	2.3221e-06	1356.4	368.52	8.2854e-06	4.1462e-06	418.94	140.21	122.74	41.831	4.0339e-06	52.045	0.00046344	0.00045355	0.00012975	1380.3	5.0027e-06	5.0111e-06	1376.2	374.17	5.0335e-06	5.0036e-06	425.82	142.86	124.37	42.889	5.0605e-06	53.137	96.358	19.400	93.110	18.927	152.836	158.227	18.851	23.591	168.724	196.556	23.049	27.679	27.820	32.616	181.563	31.408	-8191	255	
7863.920	1	1	0	0	0.25788	0.13483	0.1998	0.2217	0.20294	0.05764	0.14219	0.31949	0.2978	0.11557	0.36625	0.12061	0.24814	0.042165	0.35489	0.081621	-4.3833	-4.2854	-4.75	-4.4583	-4.3896	-4.8396	-4.3521	-4.3438	-4.7083	-4.2188	-4.9208	-4.7146	-4.3729	-4.875	-4.2229	-4.725	178.857	171.616	18.215	303.080	282.362	45.068	284.820	276.320	83.933	70.271	258.557	93.731	183.339	341.559	39.582	62.002	0.0005237	0.0005354	0.00010615	1362.1	3.6034e-06	3.8589e-06	1359.2	367.18	3.8417e-06	2.6782e-06	420.06	140.59	121.85	42.025	7.8154e-06	51.933	0.00045843	0.00045361	0.00012547	1377.4	4.9428e-06	4.9139e-06	1377.1	373.73	4.9899e-06	4.9759e-06	426.53	143.02	124.04	42.987	5.2835e-06	53.23	93.588	76.696	134.575	18.988	155.690	109.092	18.886	23.400	209.329	181.933	23.162	27.374	27.873	32.589	179.230	31.851	-8191	255	
7863.993	1	1	0	0	0.15547	0.11992	0.15418	0.16271	0.082132	0.15713	0.24253	0.084087	0.089816	0.28037	0.19981	0.096447	0.053938	0.10273	0.10844	0.32658	-4.4292	-4.1167	-4.5854	-4.8938	-4.1125	-4.6146	-4.5896	-4.5792	-4.9313	-4.0146	-4.8187	-4.8729	-4.175	-4.7146	-4.2625	-4.4229	314.293	331.289	320.486	52.172	259.123	359.241	316.417	340.798	208.502	309.035	308.649	35.862	266.673	223.976	112.393	309.021	0.00048169	0.00038286	0.00033302	1363.3	4.7818e-06	3.5321e-06	1361	368.11	7.5097e-06	2.1512e-06	419.2	139.9	122.72	42.096	7.5135e-06	51.891	0.00049532	0.00049783	0.00013894	1381.4	5.5533e-06	5.6233e-06	1379.2	374.21	5.6651e-06	5.68e-06	427.53	143.34	124.76	43.121	5.8049e-06	53.325	106.617	78.166	82.266	18.931	173.921	128.487	18.978	23.576	176.305	148.866	23.063	27.738	27.766	32.489	144.816	31.574	-8191	255	
7864.112	1	1	0	0	0.14017	0.19793	0.30762	0.08871	0.13662	0.098016	0.15745	0.018072	0.22317	0.13361	0.22772	0.13709	0.13158	0.22536	0.12386	0.021209	-4.5833	-4.3187	-4.5958	-4.8729	-4.2083	-4.6458	-4.6229	-4.3458	-4.9479	-4.3562	-4.6396	-4.7604	-4.1125	-4.7979	-4.5375	-4.45	49.517	327.886	324.468	257.680	307.939	252.613	309.759	334.485	38.484	235.329	347.871	13.368	32.577	70.018	156.746	235.882	0.00050971	0.0005878	0.0002366	1366.7	5.375e-06	6.2912e-06	1369.1	370.25	5.8811e-06	6.6664e-06	418.21	140.56	122.19	42.173	5.2403e-06	51.931	0.00052328	0.00051538	0.00014346	1384.3	5.4873e-06	5.4547e-06	1382.3	375.06	5.3e-06	5.2349e-06	426.84	143.34	124.73	43.083	5.1626e-06	53.162	96.724	96.049	127.875	19.129	140.667	127.456	18.878	23.502	126.074	152.471	23.216	27.232	28.035	32.566	143.120	31.403	-8191	255	
7864.208	1	1	0	0	0.14355	0.10198	0.085488	0.062344	0.067384	0.21205	0.22951	0.14702	0.27582	0.18264	0.14235	0.12883	0.043187	0.25976	0.023929	0.15158	-4.3854	-4.225	-4.4979	-4.7917	-4.0437	-4.7	-4.7771	-4.3229	-4.7667	-4.4333	-4.5354	-4.9792	-4.1188	-4.7396	-4.6667	-4.5021	101.588	41.118	151.576	282.626	51.770	345.554	15.799	183.652	192.156	210.044	328.267	300.885	38.908	302.983	210.942	293.079	0.00046934	0.00052148	6.0182e-05	1366.3	6.5473e-06	4.886e-06	1363.9	368.89	6.1971e-06	5.231e-06	420.47	140.87	121.91	42.003	5.8688e-06	52.059	0.00047486	0.0004694	0.00013219	1382.2	5.2091e-06	5.1948e-06	1379.1	374.61	5.2158e-06	5.1018e-06	426.76	143.22	124.34	42.955	5.2274e-06	53.162	92.046	114.026	45.562	19.101	183.953	106.714	18.779	23.526	186.540	157.066	22.936	27.403	27.912	32.584	184.790	31.914	-8191	255	
7864.304	1	1	0	0	0.15992	0.11618	0.35657	0.16917	0.28193	0.11534	0.21155	0.071716	0.048292	0.077933	0.07818	0.13473	0.0071175	0.16516	0.059123	0.16549	-4.325	-4.1104	-4.2417	-5.0604	-4.2854	-4.3708	-4.8104	-4.375	-4.8354	-4.2458	-4.45	-4.9938	-4.3771	-4.5125	-4.5938	-4.2917	364.943	24.800	224.795	250.118	123.648	141.581	365.140	331.295	25.974	295.791	308.449	213.245	279.801	281.419	270.398	272.308	0.00049886	0.0005172	0.00022502	1362.7	3.2352e-06	5.1741e-06	1359.5	368.89	7.6593e-07	2.1212e-06	419.74	140.29	121.73	42.03	2.9417e-06	51.948	0.00048826	0.00048905	0.00013593	1381.5	5.3724e-06	5.3901e-06	1378.9	374.36	5.5473e-06	5.4748e-06	426.65	143.37	124.35	43.139	5.5689e-06	53.313	87.393	153.118	109.994	19.037	158.911	127.449	18.767	23.664	295.769	153.582	23.121	27.424	27.794	32.422	159.268	31.716	-8191	255	
7864.400	1	1	0	0	0.12263	0.059715	0.045871	0.29454	0.15361	0.26962	0.11601	0.12845	0.18853	0.081856	0.11186	0.046189	0.082871	0.20157	0.12667	0.063833	-4.3063	-4.4792	-4.25	-5.0833	-4.3104	-4.4208	-4.95	-4.3479	-4.6208	-4.4	-4.6479	-4.925	-4.4125	-4.4292	-4.7438	-4.4479	250.556	211.581	75.590	303.383	198.913	314.071	26.673	234.543	323.580	198.373	37.167	102.624	110.107	42.088	105.125	225.220	0.00057994	0.00056699	0.00018432	1364	8.553e-07	2.8231e-06	1362.6	369.64	8.1871e-06	5.3726e-06	420.96	140	121.92	41.876	4.7578e-06	52.057	0.000517	0.00051607	0.00014213	1382.2	5.5893e-06	5.5718e-06	1379.8	375.3	5.5695e-06	5.5582e-06	427.88	143.25	124.74	43.008	5.609e-06	53.344	96.565	100.515	88.552	18.981	109.044	134.875	18.917	23.525	152.709	123.906	22.814	27.368	27.894	32.646	153.498	31.840	-8191	255	
7864.521	1	1	0	0	0.12667	0.022059	0.11773	0.23067	0.053205	0.15211	0.15099	0.072975	0.09917	0.11579	0.1641	0.2317	0.19942	0.087212	0.18813	0.13791	-4.2583	-4.5875	-4.2	-4.9979	-4.3438	-4.4854	-4.7792	-4.2562	-4.7646	-4.6542	-4.3562	-4.8583	-4.5854	-4.5938	-4.7937	-4.1771	84.282	221.365	164.350	52.340	287.949	284.609	286.640	339.180	351.039	70.114	168.832	307.716	343.250	124.656	248.199	77.087	0.00044703	0.00035968	0.00011851	1366.8	5.4498e-06	4.5928e-06	1361.2	369.31	7.8214e-06	2.6296e-06	420.14	140.09	121.91	42.002	3.7036e-06	51.953	0.00051621	0.00050844	0.00014194	1382.6	5.6828e-06	5.6381e-06	1380.8	375.39	5.6813e-06	5.6037e-06	427.67	143.43	124.62	43.052	5.7395e-06	53.34	92.511	33.691	120.494	19.150	150.505	170.271	18.781	23.374	166.232	144.008	23.041	27.664	28.013	32.655	183.505	31.676	-8191	255	
7864.617	1	1	0	0	0.1984	0.20041	0.22674	0.30212	0.16513	0.41557	0.16694	0.16416	0.098123	0.33352	0.23733	0.076132	0.081757	0.042877	0.1608	0.37985	-4.3021	-4.7812	-4.2583	-4.9958	-4.3208	-4.1979	-4.9354	-4.4563	-4.5771	-4.7083	-4.4313	-4.6958	-4.5917	-4.4354	-4.9354	-4.3667	30.773	102.173	12.195	312.182	114.911	239.187	202.761	244.892	205.135	129.103	298.937	251.660	11.613	134.222	146.664	317.518	0.0004916	0.00043793	1.1583e-05	1361.2	4.6626e-06	6.178e-06	1362	368.76	9.9861e-06	4.6881e-06	420.79	140.48	121.79	42.075	5.0898e-06	51.716	0.00052282	0.00052054	0.0001461	1382	5.8294e-06	5.7741e-06	1381.1	374.87	5.8448e-06	5.8163e-06	427.66	143.66	124.79	43.166	5.8797e-06	53.246	99.552	54.366	182.282	19.030	156.850	173.476	18.799	23.580	187.914	126.504	23.039	27.348	27.770	32.605	191.129	31.920	-8191	255	
7864.713	1	1	0	0	0.03498	0.13044	0.050805	0.13447	0.18549	0.13733	0.041679	0.19399	0.11901	0.1417	0.22164	0.14284	0.25608	0.10671	0.25385	0.0711	-4.1792	-4.8229	-4.2396	-4.9354	-4.425	-4.1375	-5.0312	-4.6188	-4.3146	-4.7479	-4.3646	-4.7542	-4.5833	-4.2083	-4.7438	-4.5375	354.585	134.827	351.882	342.281	194.868	24.442	167.768	11.646	327.480	234.541	36.946	255.642	34.844	198.509	140.487	358.175	0.00051449	0.00048948	0.00014281	1365.3	3.9944e-06	2.6173e-06	1358.8	368.48	8.3852e-06	9.1439e-07	419.14	140.88	121.75	41.935	5.5664e-06	52.019	0.0005426	0.00053533	0.00015037	1382.7	5.8508e-06	5.8869e-06	1378.6	375.02	5.7426e-06	5.7582e-06	427.01	143.51	124.45	43.081	5.6111e-06	53.277	85.467	129.033	215.010	19.031	144.143	69.787	18.737	23.596	154.289	219.686	23.104	27.642	27.947	32.569	157.099	31.839	-8191	255	
7864.809	1	1	0	0	0.1065	0.20143	0.081781	0.38143	0.19579	0.060889	0.24146	0.17136	0.17612	0.083194	0.11606	0.16991	0.15016	0.10546	0.17464	0.19302	-3.9167	-4.7917	-4.2292	-4.8917	-4.5354	-4.1104	-4.9833	-4.5042	-4.4333	-4.8146	-4.4771	-4.4604	-4.6875	-4.3042	-4.8167	-4.4625	65.091	216.038	120.647	329.727	156.140	11.910	323.171	295.196	19.539	337.002	61.783	45.102	12.981	256.931	68.602	254.695	0.00055538	0.00022759	0.00014115	1362.8	3.9538e-06	5.4959e-06	1359.3	369.03	3.6105e-06	4.5638e-06	420.46	139.87	122.05	42.041	2.0192e-06	52.015	0.00051219	0.00050739	0.0001422	1382.2	5.5032e-06	5.5747e-06	1378.7	375.04	5.5431e-06	5.5309e-06	427.06	143.47	124.58	43.12	5.6398e-06	53.187	97.375	111.743	98.374	19.098	115.309	160.137	18.867	23.532	190.737	111.820	23.049	27.605	28.077	32.642	194.405	31.989	-8191	255	
7864.904	1	1	0	0	0.076976	0.13087	0.023962	0.3186	0.087111	0.16915	0.055297	0.34319	0.12119	0.13242	0.19442	0.17597	0.17757	0.067994	0.3012	0.17443	-3.8937	-4.8562	-4.3521	-4.7021	-4.6542	-4.2521	-4.9958	-4.5979	-4.1729	-4.9125	-4.4187	-4.6708	-4.6562	-4.3021	-4.8542	-4.7312	280.767	132.308	316.015	304.705	238.439	81.018	287.825	284.932	71.139	357.056	330.564	346.760	265.984	318.518	27.727	75.222	0.00047159	0.00075393	0.00018995	1361.5	6.8833e-06	5.9929e-06	1361.7	369.16	4.4577e-06	5.9045e-06	420.05	140.72	121.86	42.053	8.2429e-06	52.067	0.00052409	0.00051451	0.00014508	1382.5	5.6696e-06	5.6133e-06	1379.7	374.48	5.6319e-06	5.6645e-06	427.48	143.39	124.35	43.055	5.7068e-06	53.243	95.051	100.077	139.765	19.040	168.410	153.266	18.842	23.444	183.998	127.750	23.147	27.397	27.903	32.444	140.828	31.937	-8191	255	
7865.000	1	1	0	0	0.26326	0.077705	0.024847	0.49515	0.10504	0.31012	0.25844	0.18112	0.17651	0.093393	0.066507	0.288	0.026269	0.15071	0.099775	0.12733	-3.8458	-4.7688	-4.4542	-4.6188	-4.4917	-4.1917	-4.8896	-4.5813	-4.1604	-5.0021	-4.5146	-4.4437	-4.9812	-4.4021	-4.5708	-4.8688	20.103	46.208	307.540	359.070	36.711	169.168	289.288	358.454	42.010	303.692	235.636	299.271	45.741	115.628	20.713	336.192	0.00051881	0.00052788	0.00012482	1362.2	4.1613e-06	1.3741e-06	1364.9	368.23	2.4532e-06	6.1502e-06	419.71	140.57	121.81	42.221	6.452e-06	51.871	0.00052604	0.00051957	0.00014525	1380.3	5.7778e-06	5.7773e-06	1380.9	374.51	5.726e-06	5.7846e-06	427.49	143.37	124.56	43.144	5.7909e-06	53.276	92.258	78.126	126.860	19.050	129.739	174.177	18.890	23.426	146.970	123.035	22.898	27.464	27.782	32.395	178.867	31.817	-8191	255	
7865.121	1	1	0	0	0.11508	0.15573	0.12049	0.3456	0.089019	0.12532	0.29681	0.1439	0.23324	0.10089	0.27123	0.056654	0.2998	0.11023	0.20631	0.10229	-3.9646	-4.725	-4.3042	-4.3667	-4.7417	-4.3208	-4.8417	-4.7812	-4.075	-4.9396	-4.7104	-4.4604	-4.9104	-4.2354	-4.5208	-5.1021	286.122	262.478	69.364	321.123	176.524	156.305	284.962	276.105	310.583	267.586	281.472	201.179	108.185	281.119	337.426	310.203	0.00056555	0.00074909	8.5307e-05	1360.2	7.4991e-06	6.8988e-06	1361.8	368.51	7.6266e-06	7.8509e-06	420.65	140.55	122.26	42.062	1.5695e-06	52.255	0.00052883	0.00053134	0.00014652	1380.1	5.7824e-06	5.7906e-06	1379.5	374.94	5.8456e-06	5.7778e-06	427.54	143.43	124.6	43.131	5.7489e-06	53.313	98.959	60.547	197.757	19.010	127.121	158.217	18.789	23.385	148.205	139.767	23.021	27.434	27.839	32.680	91.946	31.662	-8191	255	
7865.217	1	1	0	0	0.07739	0.10168	0.12997	0.25542	0.14728	0.17607	0.27397	0.17949	0.10998	0.18912	0.1153	0.14818	0.31247	0.078524	0.061963	0.13554	-3.8042	-4.5687	-4.525	-4.4333	-4.7312	-4.3063	-4.8083	-4.9146	-4.4104	-4.8896	-4.5667	-4.2896	-4.9729	-4.5854	-4.4833	-4.8333	359.468	346.755	121.533	25.120	52.246	17.524	311.707	291.686	327.597	70.149	302.665	331.221	357.030	268.234	104.699	254.383	0.00049064	0.00055709	0.00017119	1360	1.4496e-06	5.2297e-06	1364.6	369.85	7.1225e-06	7.4393e-06	421.31	140.81	122.92	42.084	5.68e-06	51.975	0.0005207	0.00051548	0.00014336	1379.4	5.5874e-06	5.5102e-06	1380.1	374.91	5.4991e-06	5.5948e-06	427.69	143.38	124.95	43.11	5.4799e-06	53.328	94.635	121.952	103.107	19.032	169.175	126.343	18.767	23.529	185.860	148.035	23.012	27.760	27.786	32.479	192.544	31.840	-8191	255	
7865.288	1	1	0	0	0.27116	0.11032	0.20408	0.18095	0.072391	0.23022	0.26081	0.25727	0.27366	0.24133	0.08394	0.21489	0.086467	0.18613	0.092152	0.12763	-3.9208	-4.7438	-4.6958	-4.3542	-4.5979	-4.5625	-4.3729	-4.8458	-4.2417	-4.6875	-4.7708	-4.3146	-5.0354	-4.525	-4.2167	-5.0375	352.913	135.129	205.564	354.729	250.646	9.466	324.922	317.361	356.448	290.188	261.747	299.931	187.268	315.483	290.525	290.891	0.00056576	0.00027744	9.5689e-05	1368.2	2.5839e-06	5.5283e-06	1363.6	368.09	6.8776e-06	6.679e-06	418.6	140.8	122.83	42.099	7.4064e-06	52.004	0.00051054	0.0005083	0.00014096	1383.1	5.6437e-06	5.5859e-06	1380.4	374.59	5.6848e-06	5.67e-06	427.1	143.48	125.04	43.151	5.7173e-06	53.245	93.242	101.256	67.691	19.064	200.217	171.938	18.971	23.576	152.045	190.280	23.002	27.347	28.086	32.578	115.064	31.641	-8191	255	
7865.385	1	1	0	0	0.11908	0.21972	0.098452	0.30527	0.16482	0.095417	0.13156	0.099256	0.11461	0.24027	0.057605	0.21951	0.30162	0.20116	0.33211	0.22367	-3.9896	-4.4437	-4.6687	-4.1417	-4.8375	-4.45	-4.3083	-4.8396	-4.3729	-4.5333	-4.9104	-4.3125	-4.7521	-4.4042	-4.2917	-4.9437	132.856	159.714	15.084	298.474	286.151	226.248	304.623	322.248	340.067	280.140	273.092	16.123	12.088	307.583	249.393	219.721	0.00050547	0.0006921	0.00021198	1364.9	4.0724e-06	3.6964e-06	1364.3	368.33	3.5637e-06	6.2128e-06	419.67	139.94	122.11	41.963	7.0709e-06	51.877	0.00053365	0.00052913	0.00014373	1382.1	5.8108e-06	5.7435e-06	1382.7	374.64	5.7791e-06	5.7002e-06	427.31	143.34	124.55	43.099	5.5861e-06	53.21	90.742	86.599	82.907	19.084	101.389	123.291	18.888	23.572	140.999	159.590	23.067	27.350	27.984	32.629	134.442	31.992	-8191	255	
7865.505	1	1	0	0	0.16211	0.037136	0.078948	0.12543	0.10008	0.17381	0.27808	0.13183	0.048379	0.24719	0.15432	0.17251	0.072284	0.23487	0.34713	0.050557	-3.9979	-4.4812	-4.7708	-4.1521	-4.7167	-4.5646	-4.3313	-5.0938	-4.3625	-4.4729	-4.8938	-4.2792	-4.6333	-4.8417	-4.1271	-4.8104	207.730	80.270	279.764	150.379	290.378	200.306	303.280	333.242	279.664	317.952	287.517	177.879	266.476	348.083	276.145	36.601	0.0004712	0.00067903	0.00022267	1363.5	3.6675e-06	3.5044e-06	1363.9	367.72	5.5654e-06	1.0822e-05	419.8	140.53	122.23	42.107	2.5891e-06	52.11	0.00051544	0.00050334	0.00013843	1379.1	5.4933e-06	5.4097e-06	1379.4	374.38	5.4806e-06	5.4855e-06	426.96	143.3	124.58	43.101	5.4989e-06	53.31	98.690	132.893	111.887	19.146	197.785	165.892	18.839	23.488	168.966	152.829	23.022	27.621	27.890	32.524	142.106	31.691	-8191	255	
7865.601	1	1	0	0	0.12367	0.23931	0.13616	0.13616	0.13579	0.184	0.2781	0.23539	0.058115	0.20588	0.20199	0.06997	0.096854	0.25575	0.1525	0.10604	-4.0771	-4.4396	-4.6667	-4.4042	-4.6354	-4.5437	-4.3979	-4.9479	-4.4271	-4.2271	-5.0146	-4.4062	-4.5958	-4.7396	-4.2312	-4.5125	83.695	336.242	55.365	302.326	106.688	344.298	286.051	265.662	34.758	76.744	338.876	308.810	359.592	294.684	204.179	358.535	0.00047134	0.00048903	9.7728e-05	1365.3	4.0242e-06	2.1864e-06	1364.8	368.62	4.098e-06	3.5224e-06	420.8	140.4	122.15	42.045	4.1378e-06	51.942	0.00050558	0.00050826	0.00014031	1381.4	5.5036e-06	5.4475e-06	1379.9	374.77	5.5054e-06	5.3891e-06	426.53	143.33	124.61	43.09	5.364e-06	53.215	92.394	93.616	86.152	19.118	189.837	25.705	18.712	23.647	94.231	139.781	22.820	27.312	27.611	32.247	182.474	31.848	-8191	255	
7865.698	1	1	0	0	0.11805	0.15852	0.13063	0.076706	0.027617	0.078052	0.24777	0.15432	0.166	0.14056	0.075391	0.19471	0.16421	0.27595	0.1575	0.06396	-4.2562	-4.2729	-4.7521	-4.2125	-4.4458	-4.7354	-4.2792	-4.9563	-4.3958	-4.1687	-5.0813	-4.3187	-4.6208	-4.8708	-4.1271	-4.8979	64.366	91.968	310.981	210.339	227.001	308.771	324.118	333.911	205.283	103.655	354.496	326.428	308.808	340.931	66.588	250.972	0.00058217	0.00032316	9.5338e-05	1365.5	5.8549e-06	4.6708e-06	1365.2	367.96	2.6049e-06	6.367e-06	420.56	140.02	122.09	41.99	3.8861e-06	52.165	0.00048818	0.00048105	0.00013468	1380.8	5.282e-06	5.2407e-06	1379	374.02	5.2588e-06	5.2155e-06	426.19	143.03	124.16	43.049	5.2679e-06	53.203	90.725	63.092	91.273	19.053	151.205	160.652	18.787	23.576	161.642	164.160	23.242	27.455	27.726	32.413	250.671	31.666	-8191	255	
7865.794	1	1	0	0	0.044769	0.10224	0.14152	0.18874	0.10942	0.13213	0.32129	0.064569	0.052362	0.098019	0.14691	0.07191	0.32774	0.12216	0.20965	0.14946	-4.3333	-4.0771	-4.8833	-4.7063	-4.4396	-4.6396	-4.5229	-4.675	-4.5667	-4.1979	-4.9375	-4.5479	-4.4583	-4.7292	-4.2042	-4.6958	288.207	195.353	287.102	337.310	308.293	307.844	256.133	30.528	269.199	170.289	5.785	61.025	11.362	46.082	22.556	308.631	0.00047883	0.00043339	0.00023228	1363	2.152e-06	2.1878e-06	1356.9	368.34	5.6053e-06	4.9884e-06	420.05	140.25	121.73	42.152	8.1771e-06	51.992	0.00048237	0.00048319	0.00013477	1378.6	5.2808e-06	5.2539e-06	1375.7	373.8	5.1923e-06	5.1748e-06	426.23	143.16	124.36	43.032	5.2691e-06	53.146	90.152	127.849	114.874	18.843	142.704	197.496	18.852	23.336	138.901	143.008	23.063	27.335	28.141	32.466	161.635	31.799	-8191	255	
7865.890	1	1	0	0	0.091964	0.11414	0.055745	0.28224	0.13656	0.20697	0.25004	0.6045	0.14155	0.054132	0.20384	0.21291	0.016906	0.14221	0.13897	0.078226	-4.3562	-4.0667	-4.8875	-4.6646	-4.325	-4.8229	-4.5792	-4.6354	-4.5771	-4.1729	-4.8458	-4.4646	-4.3104	-4.8812	-4.4479	-4.4083	207.124	255.569	152.231	9.891	81.017	335.258	291.426	287.877	354.878	85.322	272.806	331.499	332.991	250.588	150.043	21.040	0.00047702	0.0007617	0.00015772	1362.2	2.4663e-06	6.0654e-06	1361	368.61	4.2209e-06	2.8426e-06	421.49	139.97	122.04	42.152	6.5007e-06	51.93	0.00048088	0.00047894	0.00013304	1378.9	5.2397e-06	5.2506e-06	1377.1	374.07	5.1443e-06	5.2325e-06	426.32	142.94	124.27	43.041	5.2489e-06	53.167	97.773	70.097	129.375	19.142	143.064	147.957	18.832	23.386	100.407	115.462	22.973	27.161	28.063	32.494	149.121	31.924	-8191	255	
7865.984	1	1	0	0	0.03343	0.21916	0.10718	0.42909	0.18107	0.14121	0.0764	0.098576	0.03564	0.24315	0.24716	0.052665	0.20509	0.14076	0.30714	0.17765	-4.4979	-4.1104	-4.5938	-4.5396	-4.3292	-4.9333	-4.4354	-4.7167	-4.8396	-3.9875	-4.8938	-4.5646	-4.2479	-4.7937	-4.2604	-4.4479	313.708	249.781	164.499	341.582	32.429	137.546	33.487	296.446	143.374	217.679	336.841	6.676	318.438	32.252	38.326	321.926	0.00051576	0.00038333	0.00011847	1366.8	7.6961e-06	2.631e-06	1360.2	367.66	6.5312e-06	3.6091e-06	418.23	140.28	122.03	42.043	3.2039e-06	51.97	0.00047422	0.00046849	0.00013107	1380.2	5.1238e-06	5.0951e-06	1377.1	373.37	5.0355e-06	5.0821e-06	426.71	142.9	124.16	43.025	5.1106e-06	53.226	92.958	41.156	100.980	19.040	172.675	79.268	18.765	23.457	135.186	170.718	23.180	27.337	28.110	32.498	171.174	31.541	-8191	255	
7866.082	1	1	0	0	0.089673	0.15756	0.14128	0.20453	0.070156	0.045561	0.04394	0.19928	0.14422	0.017595	0.20049	0.13601	0.068777	0.32813	0.18853	0.08559	-4.4792	-4.2521	-4.5312	-4.7646	-4.1208	-4.775	-4.6729	-4.2354	-4.7896	-4.1937	-4.775	-4.6125	-4.1292	-4.8896	-4.3771	-4.2188	272.549	259.829	287.923	350.676	343.994	13.357	29.483	362.338	204.551	10.515	38.677	107.529	325.528	348.918	14.042	339.292	0.00051518	0.00017101	7.9719e-05	1360.9	6.434e-07	6.8511e-06	1359.9	367.93	5.6195e-06	4.2129e-06	418.01	140.25	122	42.175	3.9679e-06	52.177	0.00046641	0.00046768	0.00012811	1377.6	5.0886e-06	5.0395e-06	1376.2	373.37	5.0228e-06	5.0354e-06	424.78	142.95	124.17	43.022	4.9802e-06	53.11	96.018	108.562	87.943	18.997	149.491	169.167	18.965	23.589	173.797	167.749	23.072	27.506	28.154	32.488	127.719	31.774	-8191	255	
7866.201	1	1	0	0	0.20719	0.050236	0.051497	0.16815	0.14415	0.29061	0.13491	0.23578	0.37518	0.093043	0.15269	0.15233	0.10001	0.20811	0.16857	0.28586	-4.4854	-4.325	-4.4583	-4.9646	-4.1521	-4.7583	-4.6479	-4.275	-4.7833	-4.3083	-4.5104	-4.8021	-4.325	-4.7688	-4.475	-4.4896	184.851	309.888	324.354	348.057	48.498	62.555	229.431	351.125	80.373	97.351	283.510	34.242	359.803	340.723	322.442	232.181	0.00049894	0.00061854	0.00015968	1360.6	4.34e-06	4.4758e-06	1365.4	367.31	3.2993e-06	2.6085e-06	419.97	141.11	122.12	42.089	5.3438e-06	51.87	0.00045687	0.00045326	0.00012558	1378	4.9305e-06	4.912e-06	1377.3	373.37	4.9448e-06	4.8576e-06	425.54	143.15	124.11	43	4.8748e-06	53.057	97.093	115.753	85.578	19.045	162.787	169.992	18.797	23.705	139.770	177.443	23.011	27.608	28.010	32.454	134.888	31.551	-8191	255	
7866.297	1	1	0	0	0.33705	0.097352	0.088336	0.2445	0.028763	0.17794	0.24952	0.39137	0.26239	0.086305	0.030675	0.106	0.049722	0.055751	0.067776	0.22143	-4.4104	-4.3146	-4.4875	-5.0417	-4.1104	-4.5792	-4.9396	-4.3604	-4.8417	-4.3313	-4.6542	-4.8979	-4.275	-4.8438	-4.7438	-4.2021	133.728	213.300	244.124	271.706	219.754	17.809	318.705	302.105	14.331	16.164	220.199	296.474	90.445	341.102	33.304	353.730	0.0004915	0.0006583	0.00013274	1360.6	2.1103e-06	4.2758e-06	1359.1	368.26	4.6537e-06	3.3609e-06	418.87	139.87	121.89	41.936	1.5778e-06	52.01	0.00045595	0.00045033	0.00012555	1377.7	4.9609e-06	4.9412e-06	1374.7	373.67	4.9396e-06	4.9409e-06	425.41	142.84	123.97	42.897	4.8498e-06	52.987	102.597	79.746	105.552	19.155	52.552	127.056	18.684	23.633	184.732	130.019	22.987	27.117	27.870	32.331	149.360	31.456	-8191	255	
7866.393	1	1	0	0	0.28103	0.16366	0.070834	0.32135	0.12796	0.16794	0.30549	0.17441	0.15937	0.15565	0.13353	0.16187	0.088348	0.085334	0.0088256	0.17109	-4.5458	-4.3646	-4.3187	-5.1021	-4.2	-4.4875	-4.9958	-4.1979	-4.8063	-4.325	-4.2271	-5.0208	-4.4	-4.625	-4.7646	-4.1979	277.981	102.890	238.245	354.997	66.030	93.938	298.352	25.623	301.225	117.097	291.668	16.187	254.940	157.722	360.184	8.072	0.00047963	0.00025937	0.00026714	1361.9	6.6252e-06	4.4768e-06	1358	368.16	5.4595e-06	6.3483e-06	418.14	140.47	121.32	41.84	7.8167e-06	51.714	0.00045229	0.00044833	0.00012311	1375.7	4.9108e-06	4.8097e-06	1373.8	373.37	4.785e-06	4.7391e-06	424.21	142.77	123.7	42.863	4.701e-06	52.911	98.414	71.188	83.904	18.954	185.253	119.620	18.861	23.454	175.316	130.261	22.955	27.398	28.268	32.311	168.382	31.763	-8191	255	
7866.514	1	1	0	0	0.060383	0.10974	0.10755	0.1668	0.095023	0.18665	0.24057	0.365	0.11722	0.094244	0.22059	0.24891	0.074823	0.035645	0.16083	0.21525	-4.2958	-4.3896	-4.2729	-4.85	-4.3208	-4.4375	-4.7979	-4.2229	-4.7125	-4.5396	-4.3479	-5.0083	-4.2833	-4.5042	-4.8313	-4.2937	37.646	11.646	60.238	11.551	101.316	204.483	318.270	322.580	288.456	227.766	250.478	303.154	93.997	74.110	140.096	79.254	0.00054135	0.00055206	9.5751e-05	1358.4	2.2465e-06	5.482e-06	1359.5	367.11	4.9992e-06	5.857e-06	419.5	140.09	121.94	41.85	6.7397e-06	51.807	0.00043932	0.00042605	0.00011876	1375	4.7112e-06	4.6669e-06	1373.3	372.35	4.7606e-06	4.6771e-06	424.4	142.34	123.71	42.802	4.7252e-06	52.871	96.709	108.111	87.007	18.891	122.762	130.004	18.794	23.606	139.124	159.367	22.980	27.423	27.897	32.376	141.503	31.703	-8191	255	
7866.586	1	1	0	0	0.24351	0.12926	0.15792	0.2516	0.22433	0.059257	0.44525	0.13704	0.016122	0.2213	0.17732	0.24959	0.26378	0.14268	0.031098	0.17796	-4.2667	-4.6042	-4.0563	-5.0292	-4.4875	-4.4167	-4.8688	-4.5062	-4.5417	-4.5917	-4.4021	-4.9125	-4.5708	-4.3812	-4.6521	-4.5062	333.028	89.321	91.589	338.900	68.555	204.911	280.876	360.579	206.803	287.170	328.465	206.662	31.923	57.479	19.031	14.476	0.00047807	0.00039531	4.9725e-05	1360.6	3.1217e-06	9.649e-07	1358.2	366.73	6.3562e-06	7.5506e-06	420.95	140.23	121.98	41.932	4.2841e-06	52.03	0.00043226	0.00042548	0.00011846	1373.4	4.6667e-06	4.6247e-06	1372.8	372.47	4.7336e-06	4.6182e-06	424.75	142.43	123.82	42.858	4.6638e-06	52.937	95.016	107.013	121.101	19.145	179.024	112.380	18.904	23.789	166.496	133.268	22.956	27.255	27.819	32.514	172.548	31.793	-8191	255	
7866.682	1	1	0	0	0.038214	0.31573	0.26905	0.11543	0.22433	0.085702	0.18136	0.23844	0.19282	0.36199	0.028327	0.36657	0.18556	0.22836	0.12011	0.10094	-4.2854	-4.7167	-4.0021	-4.8979	-4.4854	-4.4812	-5.1708	-4.5125	-4.4667	-4.7021	-4.2396	-4.6208	-4.4187	-4.3771	-4.8187	-4.4062	311.544	274.201	362.622	342.575	30.314	52.656	356.897	289.495	172.382	62.789	16.918	308.956	260.641	292.014	123.499	265.754	0.00054526	0.00060117	0.00012376	1357.4	2.7125e-06	4.4225e-06	1360.1	367.18	6.2263e-06	2.7963e-06	418.28	140.15	121.48	41.803	4.8257e-06	51.778	0.00043508	0.00042712	0.00012015	1373.4	4.7785e-06	4.709e-06	1372.4	372.15	4.7665e-06	4.7122e-06	424.22	142.29	123.44	42.781	4.7168e-06	52.92	91.718	119.043	117.110	19.045	133.211	155.102	18.877	23.670	206.191	89.827	23.256	27.368	28.121	32.582	140.995	31.653	-8191	255	
7866.778	1	1	0	0	0.17721	0.059824	0.042678	0.1618	0.19426	0.14516	0.17533	0.10098	0.071218	0.19554	0.27704	0.15052	0.17989	0.24676	0.23551	0.24889	-4.2667	-4.7583	-4.2417	-4.9146	-4.5646	-4.2208	-5.0354	-4.5854	-4.4375	-4.6458	-4.2188	-4.6312	-4.675	-4.3583	-4.7375	-4.4437	101.538	134.472	141.463	32.025	55.908	128.108	30.891	312.226	303.248	211.735	297.337	351.057	53.022	225.572	51.282	354.800	0.00054251	0.00061447	0.00017128	1359.8	3.1751e-06	4.615e-06	1351.2	366.47	6.3966e-06	6.0441e-06	419.71	139.49	121.53	41.695	3.7559e-06	51.891	0.00044473	0.00042597	0.0001198	1373.6	4.6937e-06	4.705e-06	1370.8	371.87	4.708e-06	4.7118e-06	424.51	142.1	123.53	42.714	4.8563e-06	52.833	88.890	92.985	91.780	18.989	157.763	127.850	18.820	23.661	143.451	196.630	23.051	27.552	28.013	32.509	174.191	31.766	-8191	255	
7866.897	1	1	0	0	0.12586	0.19241	0.040603	0.23811	0.12248	0.14563	0.40215	0.31062	0.23236	0.15391	0.06627	0.08903	0.012421	0.20605	0.064171	0.30844	-4.0312	-4.5583	-4.1375	-4.8625	-4.7583	-4.2979	-5.0667	-4.6083	-4.3604	-4.8375	-4.3875	-4.5896	-4.9021	-4.2625	-4.5667	-4.5104	223.333	75.068	207.403	47.682	253.119	34.205	320.238	327.768	75.527	272.839	152.520	227.398	274.252	27.791	289.658	231.219	0.00047286	0.00060109	0.00016441	1356.5	4.4094e-06	2.8808e-06	1355.4	366.84	7.6969e-06	3.2766e-06	418.25	139.39	122.21	42.043	2.7754e-06	51.838	0.00044087	0.0004338	0.00012006	1373.1	4.6803e-06	4.6178e-06	1371.4	371.79	4.6152e-06	4.6092e-06	424.06	141.94	123.51	42.819	4.6339e-06	52.881	96.982	118.972	93.890	19.109	179.491	165.749	18.902	23.541	156.739	203.797	23.080	27.447	27.980	32.627	165.096	31.525	-8191	255	
7866.993	1	1	0	0	0.2836	0.11894	0.22017	0.30633	0.10345	0.14893	0.22912	0.29521	0.085492	0.10908	0.055283	0.071754	0.16416	0.085368	0.12178	0.13713	-3.8104	-4.9792	-4.4042	-4.7521	-4.6625	-4.2958	-4.8979	-4.5792	-4.3042	-4.9542	-4.4208	-4.3833	-4.9083	-4.2812	-4.6771	-4.5333	120.952	216.625	96.182	337.966	49.193	95.234	309.791	301.490	174.025	332.257	235.785	72.259	254.709	267.502	241.838	332.096	0.00060233	0.00051667	0.0001579	1357.6	2.8825e-06	6.5516e-06	1360.8	366.88	4.3366e-06	9.2146e-06	417.87	140.36	122.17	41.8	5.9951e-06	51.808	0.00042236	0.00041688	0.00011659	1372.3	4.5317e-06	4.5625e-06	1371	372.13	4.569e-06	4.5482e-06	423.84	142.15	123.47	42.759	4.561e-06	52.854	98.483	132.747	88.463	18.954	152.826	133.736	18.968	23.897	204.505	163.520	23.060	27.414	28.063	32.518	152.267	31.868	-8191	255	
7867.089	1	1	0	0	0.15622	0.22197	0.1769	0.1567	0.068739	0.16394	0.34691	0.1421	0.15172	0.048028	0.24387	0.38209	0.12084	0.13689	0.27274	0.11895	-3.8771	-4.7625	-4.2688	-4.6917	-4.7063	-4.1792	-4.9479	-4.7146	-4.2917	-4.8938	-4.5021	-4.3375	-4.9479	-4.3229	-4.5354	-4.6875	149.688	299.695	200.375	321.819	20.269	88.502	321.412	292.668	217.609	164.366	326.981	364.079	351.021	283.089	241.804	340.269	0.00052682	0.00073293	0.00011166	1360.8	5.9551e-06	2.7428e-06	1358.2	366.07	6.0185e-06	9.7313e-06	419.34	140.24	121.94	41.899	5.5772e-06	51.849	0.00042456	0.00041664	0.00011527	1373.5	4.5925e-06	4.52e-06	1372.7	371.66	4.548e-06	4.5567e-06	423.82	142.4	123.61	42.792	4.578e-06	52.844	92.406	97.869	99.813	18.978	193.126	135.561	18.821	23.633	166.797	156.437	22.832	27.405	27.792	32.302	248.117	31.451	-8191	255	
7867.163	1	1	0	0	0.05912	0.098695	0.054976	0.20535	0.057826	0.24326	0.24333	0.19736	0.10438	0.1138	0.27955	0.31817	0.14653	0.038229	0.2779	0.15724	-3.7812	-4.6375	-4.5792	-4.3667	-4.6604	-4.4083	-4.5771	-4.9938	-4.1458	-4.6979	-4.5583	-4.2812	-4.9625	-4.5813	-4.4292	-4.8292	262.198	291.377	98.532	275.272	178.365	364.536	275.993	295.276	141.597	92.106	357.976	321.408	346.589	71.768	225.597	48.726	0.00057711	0.00059214	0.00016993	1357.1	3.1127e-06	6.7783e-07	1355.7	365.19	7.3129e-06	4.4774e-06	418.42	139.62	121.41	41.928	5.4444e-06	51.812	0.00042114	0.00041132	0.00011402	1372.5	4.4934e-06	4.4247e-06	1370.6	371.12	4.4565e-06	4.4058e-06	423.62	141.96	123.16	42.72	4.4384e-06	52.783	91.265	97.648	131.525	19.072	167.847	165.353	18.838	23.498	160.455	140.115	23.019	27.482	27.905	32.603	107.594	31.772	-8191	255	
7867.281	1	1	0	0	0.066062	0.097227	0.18565	0.20947	0.11962	0.052388	0.082263	0.14419	0.14001	0.28783	0.1716	0.26097	0.27029	0.093448	0.052996	0.24667	-3.6896	-4.6271	-4.5292	-4.325	-4.7396	-4.4104	-4.6479	-4.9208	-4.3	-4.6354	-4.8646	-4.2688	-4.7708	-4.4938	-4.2583	-4.7542	224.620	344.392	140.604	298.243	20.320	307.913	331.899	330.959	13.069	65.603	302.905	311.546	360.105	29.199	175.406	330.565	0.00055081	0.00051497	0.00013024	1359.1	5.5548e-06	2.6547e-06	1354.5	365.69	4.3521e-06	7.1876e-06	417.8	140.11	121.89	41.764	2.2182e-06	51.94	0.0004124	0.00040314	0.00011012	1370.8	4.4986e-06	4.3873e-06	1369.8	371.15	4.434e-06	4.4213e-06	422.78	142.14	123.39	42.695	4.5405e-06	52.837	92.503	94.619	109.733	18.900	194.865	141.728	18.837	23.449	140.672	135.680	22.903	27.510	28.063	32.452	151.677	31.796	-8191	255	
7867.378	1	1	0	0	0.20949	0.1216	0.3138	0.48245	0.078649	0.19187	0.10447	0.1987	0.15444	0.022574	0.22967	0.27635	0.12228	0.091576	0.11654	0.051769	-3.9292	-4.5396	-4.5646	-4.3333	-4.6833	-4.4333	-4.5146	-4.8854	-4.1458	-4.5104	-4.8125	-4.0583	-5	-4.7	-4.1479	-4.8292	204.408	306.015	39.001	273.954	63.122	60.386	287.743	290.247	27.199	149.761	297.146	339.571	277.216	151.767	165.755	123.984	0.00055603	0.00041648	6.8484e-05	1359.4	2.7936e-06	5.351e-06	1361.1	366.28	2.7473e-06	4.153e-06	419.04	140.11	121.95	41.937	2.7594e-06	51.843	0.00041907	0.00041191	0.00011312	1372.5	4.4761e-06	4.4944e-06	1371.9	371.7	4.4723e-06	4.4491e-06	423.65	142.27	123.37	42.726	4.4811e-06	52.82	94.738	104.132	34.115	19.214	159.493	124.814	18.938	23.689	193.867	204.745	22.943	27.543	27.989	32.625	163.812	31.665	-8191	255	
7867.474	1	1	0	0	0.14152	0.15295	0.12514	0.32028	0.1166	0.26562	0.22763	0.21882	0.21289	0.076054	0.29508	0.12733	0.23215	0.080619	0.17173	0.068026	-4.1271	-4.4896	-4.5229	-4.3167	-4.6875	-4.6146	-4.3583	-5.0354	-4.3583	-4.4	-4.5708	-4.2	-4.6625	-4.6	-4	-4.8917	225.003	223.321	31.697	280.000	294.711	188.363	289.093	315.262	58.900	227.111	27.227	41.760	343.459	92.689	104.445	309.994	0.00051584	0.00036403	0.00015616	1359	2.751e-06	9.6059e-07	1357.1	365.99	5.6953e-06	6.9904e-06	417.92	139.1	121.73	41.857	3.2761e-06	51.853	0.00041308	0.00040534	0.00011121	1372.2	4.423e-06	4.3527e-06	1370.7	371.45	4.2872e-06	4.3046e-06	422.9	141.83	123.28	42.704	4.3766e-06	52.765	93.184	49.818	118.968	19.128	92.291	79.216	19.036	23.831	119.212	106.807	23.062	27.656	27.787	32.363	133.877	31.713	-8191	255	
7867.594	1	1	0	0	0.099277	0.28563	0.12468	0.2963	0.24126	0.25164	0.39093	0.30102	0.28141	0.090452	0.28832	0.0093997	0.19554	0.11959	0.090003	0.12549	-4.1333	-4.3125	-4.6104	-4.4042	-4.6771	-4.5771	-4.4625	-4.9521	-4.2854	-4.4917	-5.0708	-4.4375	-4.8667	-4.6083	-4.1875	-4.8208	90.352	12.157	56.904	278.823	124.522	292.758	312.355	310.814	289.948	30.012	358.552	118.123	322.145	216.829	301.579	8.448	0.00060274	0.00055419	0.00022266	1352.8	4.3689e-06	3.583e-06	1355.1	367.18	6.349e-06	7.2934e-06	419.4	140.5	121.19	41.803	2.378e-06	51.768	0.00040032	0.000388	0.00010826	1369.1	4.3079e-06	4.2064e-06	1368.9	371.49	4.2682e-06	4.2388e-06	423.21	141.93	123.01	42.662	4.2591e-06	52.757	95.689	138.815	101.633	18.913	161.868	140.739	18.867	23.644	170.007	139.384	22.982	27.605	28.106	32.531	172.791	31.557	-8191	255	
7867.691	1	1	0	0	0.21763	0.16889	0.067562	0.11203	0.14285	0.086597	0.14261	0.31963	0.15999	0.19758	0.083115	0.22958	0.15775	0.14997	0.29312	0.19761	-3.9188	-4.1917	-4.7958	-4.4896	-4.6542	-4.6417	-4.2854	-4.7583	-4.3708	-4.425	-5.0604	-4.4271	-4.4479	-4.7812	-4.275	-4.7583	58.921	182.332	47.982	28.655	33.590	43.863	329.185	304.374	212.364	284.411	327.670	216.365	306.058	226.517	218.742	334.777	0.00045901	0.00061178	0.00011136	1352.3	5.1243e-06	7.9878e-06	1355.4	366.01	6.7175e-06	3.2364e-06	417.52	139.79	121.08	41.764	6.3699e-06	51.581	0.0003961	0.00038607	0.00010719	1368.5	4.2336e-06	4.1143e-06	1367.8	371.02	4.188e-06	4.1094e-06	422.25	141.75	122.73	42.644	4.1761e-06	52.678	90.626	115.583	136.573	19.055	148.401	158.608	19.050	23.493	157.167	140.447	23.312	27.704	27.966	32.440	156.554	31.758	-8191	255	
7867.787	1	1	0	0	0.15465	0.15422	0.087631	0.21365	0.1212	0.054831	0.36166	0.33291	0.15805	0.32927	0.1311	0.13	0.13759	0.1832	0.1724	0.12541	-4.0625	-4.3667	-4.7042	-4.5563	-4.3667	-4.8187	-4.4896	-4.6729	-4.425	-4.2312	-5.0583	-4.3125	-4.3271	-4.9187	-4.2417	-4.5792	292.007	314.167	238.132	359.016	167.493	364.968	329.588	295.055	163.002	108.847	312.437	38.773	12.829	357.542	274.376	209.310	0.00046381	0.00045773	0.00016486	1354.1	2.3197e-06	4.7509e-06	1352.3	365.57	3.8187e-06	3.9183e-06	416.79	139.2	121.37	41.794	4.0399e-06	51.937	0.00039201	0.00038368	0.00010473	1368.3	4.2099e-06	4.0852e-06	1366.5	370.6	4.1111e-06	4.1155e-06	421.88	141.7	122.91	42.657	4.1514e-06	52.677	95.102	74.500	85.984	19.000	139.263	172.920	18.991	23.646	171.621	145.038	22.957	27.470	27.964	32.702	143.496	31.937	-8191	255	
7867.883	1	1	0	0	0.15136	0.23677	0.047134	0.24089	0.21793	0.0645	0.20868	0.14437	0.12221	0.093323	0.084302	0.13092	0.17447	0.1652	0.04996	0.043077	-4.2479	-4.1	-4.6292	-4.6042	-4.3729	-4.7312	-4.2937	-4.8583	-4.6542	-4.1604	-4.8917	-4.4521	-4.2958	-5.1146	-4.3458	-4.575	319.500	99.534	190.710	325.815	79.941	283.506	295.982	364.951	115.432	223.091	164.180	48.062	357.823	121.023	13.457	345.331	0.0004904	0.00051974	2.5522e-05	1355	3.526e-06	4.2774e-06	1356.5	365.91	6.6973e-06	6.2391e-06	417.84	139.5	121.23	41.817	3.877e-06	51.883	0.00038744	0.00037855	0.00010513	1370.5	4.1835e-06	4.1233e-06	1369.2	370.84	4.1038e-06	4.1042e-06	422.37	141.63	123.02	42.586	4.1011e-06	52.717	94.467	137.800	352.899	18.827	184.403	99.739	18.887	23.436	156.793	160.253	23.058	27.527	27.976	32.608	123.088	31.903	-8191	255	
7867.977	1	1	0	0	0.10192	0.30993	0.2017	0.29712	0.14557	0.13987	0.07796	0.34241	0.19102	0.046822	0.072384	0.16099	0.24877	0.14406	0.18683	0.15939	-4.375	-4.0479	-4.75	-4.5667	-4.1458	-4.7833	-4.5083	-4.625	-4.8375	-4.2042	-4.65	-4.4917	-4.3458	-4.8688	-4.3521	-4.3896	220.938	129.796	53.759	300.835	120.879	280.083	6.037	298.378	126.886	235.806	88.980	71.054	298.043	19.353	80.450	333.216	0.0005291	0.00072089	0.00016181	1357.9	3.2113e-06	4.1479e-06	1356.8	365.06	5.1848e-06	6.9164e-06	417.94	139.51	121.76	41.832	5.6029e-06	51.651	0.0003861	0.00037714	0.0001046	1370.1	4.1443e-06	4.0981e-06	1369.2	370.76	4.1234e-06	4.0704e-06	422.38	141.77	123.16	42.676	4.1335e-06	52.653	101.501	110.653	101.863	19.094	113.353	181.033	18.737	23.645	155.330	151.077	23.047	27.563	27.836	32.626	133.561	31.646	-8191	255	
7868.075	1	1	0	0	0.020543	0.051511	0.26592	0.14865	0.228	0.078641	0.12886	0.071708	0.046058	0.21814	0.15832	0.26465	0.17117	0.19008	0.068404	0.1491	-4.2708	-4.1208	-4.6146	-4.7229	-4.2021	-4.925	-4.6354	-4.45	-4.6021	-4.2042	-4.8396	-4.6625	-4.2646	-4.9854	-4.3271	-4.3396	47.535	200.829	39.750	9.382	161.693	295.382	309.891	263.522	149.501	198.681	334.704	345.095	340.928	25.864	209.050	9.898	0.00047048	0.00048492	6.881e-05	1355.4	4.9112e-06	5.8002e-06	1357.3	366.72	4.0144e-06	5.8069e-06	416.19	139.66	121.42	41.788	4.6422e-06	51.685	0.00038337	0.00037615	0.00010406	1369.1	4.1361e-06	4.1211e-06	1368.7	370.99	4.1246e-06	4.0575e-06	421.86	141.65	122.89	42.656	4.1137e-06	52.674	92.330	76.998	153.066	19.036	141.873	105.428	18.793	23.573	160.809	178.997	23.075	27.526	28.095	32.342	165.439	31.674	-8191	255	
7868.194	1	1	0	0	0.15524	0.15948	0.03288	0.14156	0.038997	0.15244	0.30302	0.14975	0.1721	0.16083	0.22431	0.20786	0.1853	0.14831	0.053296	0.069483	-4.5083	-4.175	-4.5146	-4.9083	-4.0729	-4.8021	-4.6438	-4.4042	-4.9062	-4.2958	-4.65	-4.9354	-4.1833	-4.8146	-4.5292	-4.4958	110.568	174.936	226.414	325.599	117.206	288.326	311.838	327.935	242.459	346.159	342.855	308.564	33.663	15.093	333.979	280.758	0.00048504	0.00073409	0.00014611	1354.5	2.9796e-06	3.3557e-06	1355.2	365.81	5.2622e-06	9.3157e-06	417.49	139.55	121.65	41.937	3.4274e-06	51.632	0.00039034	0.00037926	0.00010448	1369.5	4.159e-06	4.1363e-06	1367.6	370.47	4.1579e-06	4.0949e-06	422.42	141.81	123.04	42.635	4.1339e-06	52.733	84.798	79.606	92.591	18.966	178.896	144.763	18.934	23.695	168.927	154.006	23.335	27.428	27.881	32.505	92.305	31.858	-8191	255	
7868.290	1	1	0	0	0.18974	0.12693	0.3438	0.17367	0.15195	0.092213	0.28461	0.12197	0.12603	0.23517	0.15283	0.37118	0.22663	0.2645	0.080449	0.22758	-4.5667	-4.275	-4.4938	-4.875	-4.2042	-4.7042	-4.6354	-4.2771	-4.6312	-4.3104	-4.6521	-4.8271	-4.1833	-4.55	-4.6646	-4.2937	266.684	236.899	86.138	268.398	93.873	135.250	318.367	187.469	145.230	61.659	328.246	354.158	46.873	321.679	111.577	284.747	0.00050928	0.00069862	0.00013857	1353.8	7.6031e-06	1.9701e-06	1355.2	365.1	3.6139e-06	3.1987e-06	417.12	139.88	121.85	41.769	1.2013e-06	51.804	0.00038855	0.00037482	0.00010524	1368.3	4.1589e-06	4.1123e-06	1369.6	370.39	4.1464e-06	4.1333e-06	422.56	141.7	123.12	42.681	4.1504e-06	52.685	89.993	85.151	116.814	18.950	161.817	132.521	18.779	23.651	144.813	132.487	23.135	27.570	27.972	32.808	258.363	31.938	-8191	255	
7868.386	1	1	0	0	0.11493	0.18626	0.11032	0.25453	0.11001	0.07829	0.18279	0.16442	0.037102	0.093236	0.041732	0.1759	0.30952	0.14468	0.15906	0.14361	-4.4167	-4.2896	-4.5021	-4.9563	-4.1	-4.4896	-4.6958	-4.3896	-4.8104	-4.4292	-4.2667	-4.7792	-4.0479	-4.8	-4.5938	-4.3229	234.326	16.459	155.695	311.231	276.276	156.451	313.676	309.469	53.377	238.625	243.071	291.863	30.655	313.439	102.552	350.580	0.00057464	0.00037887	0.00017164	1355.6	2.8704e-06	6.1606e-06	1355.6	365.27	5.2824e-06	6.5865e-06	418.19	138.92	121.48	41.872	8.4825e-06	51.895	0.00039123	0.000381	0.00010467	1369.3	4.147e-06	4.1045e-06	1368.6	370.23	4.2058e-06	4.142e-06	422.37	141.49	122.94	42.662	4.1474e-06	52.691	95.912	56.483	67.626	19.108	103.801	100.223	18.897	23.709	146.512	175.815	23.066	27.453	28.074	32.575	155.989	31.547	-8191	255	
7868.458	1	1	0	0	0.19652	0.12497	0.16283	0.35301	0.21224	0.26271	0.26408	0.043084	0.28888	0.17384	0.20827	0.074593	0.12162	0.15158	0.22718	0.092158	-4.5354	-4.3958	-4.2292	-5.0854	-4.2979	-4.4708	-5.0104	-4.2438	-4.5875	-4.5146	-4.425	-4.8187	-4.1146	-4.5708	-4.8208	-4.2812	251.324	302.481	233.690	339.847	265.840	143.894	287.465	299.950	325.465	281.038	296.014	65.608	254.630	353.808	150.947	272.503	0.00049234	0.00073625	0.00012112	1350.8	4.9274e-06	5.0085e-06	1354.2	365.96	6.3509e-06	3.5518e-06	417.8	139.38	121.31	41.872	5.102e-06	51.737	0.00038751	0.00037738	0.00010578	1368.1	4.1367e-06	4.1423e-06	1368.4	370.44	4.1869e-06	4.0696e-06	422.32	141.81	122.94	42.619	4.1081e-06	52.69	92.989	99.266	135.057	19.139	192.741	142.068	18.828	23.640	173.669	107.393	22.989	27.613	28.064	32.479	118.274	31.929	-8191	255	
7868.579	1	1	0	0	0.078562	0.17293	0.069373	0.21781	0.087398	0.066065	0.37861	0.17464	0.12119	0.19356	0.19625	0.27719	0.16451	0.083049	0.050018	0.1526	-4.3688	-4.5208	-4.325	-4.95	-4.3229	-4.3875	-4.8979	-4.4083	-4.45	-4.55	-4.2521	-4.8396	-4.5875	-4.2625	-4.7417	-4.3562	110.424	49.994	136.844	323.226	16.209	139.204	327.339	290.901	116.633	227.003	313.627	343.064	68.031	164.685	301.028	21.646	0.00056106	0.00031347	0.00010218	1352.8	4.9132e-06	2.4149e-06	1355.9	367.16	4.1716e-06	7.3616e-06	417.49	139.66	121.01	41.904	5.9596e-06	51.938	0.00038524	0.0003758	0.00010489	1368.1	4.0975e-06	4.1276e-06	1368.8	370.95	4.1526e-06	4.1261e-06	422.13	141.73	122.78	42.627	4.0728e-06	52.696	88.699	81.416	93.700	18.911	162.452	135.722	18.739	23.507	96.594	156.158	23.135	27.416	27.977	32.674	158.972	31.654	-8191	255	
7868.675	1	1	0	0	0.026247	0.1237	0.15592	0.20503	0.091106	0.095907	0.23865	0.26545	0.26511	0.22456	0.22116	0.12464	0.16001	0.095733	0.10814	0.25147	-4.2417	-4.5625	-4.2792	-4.9458	-4.1667	-4.2896	-5.1896	-4.275	-4.4479	-4.7167	-4.1479	-4.7896	-4.4583	-4.4688	-4.8125	-4.4167	247.517	123.544	81.117	325.292	22.908	80.631	211.936	19.191	276.599	330.953	58.188	304.001	324.941	317.510	13.877	289.468	0.00045704	0.00031178	0.00013144	1352.8	3.7332e-06	4.5112e-06	1356.2	365.37	6.7319e-06	3.4539e-06	416.09	139.29	121.03	41.707	4.8815e-06	51.758	0.00038506	0.00037468	0.0001025	1367.2	4.1052e-06	4.0824e-06	1367.8	369.87	4.0943e-06	4.0135e-06	421.6	141.6	122.73	42.515	4.1217e-06	52.602	93.765	65.189	121.108	19.042	173.994	126.999	18.774	23.517	155.128	91.720	23.046	27.750	28.023	32.563	160.775	31.580	-8191	255	
7868.771	1	1	0	0	0.21147	0.24327	0.0087401	0.22323	0.14696	0.10862	0.34475	0.21756	0.06069	0.077324	0.30121	0.015589	0.1985	0.18653	0.1689	0.16981	-4.2021	-4.6292	-4.1021	-4.9396	-4.4042	-4.1896	-5.0729	-4.5208	-4.7438	-4.6208	-4.2521	-4.7875	-4.5354	-4.1542	-4.8708	-4.6271	43.540	236.095	72.829	348.558	246.817	281.107	331.799	313.865	67.423	300.355	268.321	14.519	301.854	338.021	242.134	201.911	0.00048569	0.00071157	4.168e-05	1358	2.6944e-06	3.4108e-06	1353.5	364.53	7.4637e-06	7.6587e-06	417.98	139.28	121.63	41.738	2.8937e-06	51.805	0.00038872	0.00037429	0.00010566	1368.3	4.1344e-06	4.1043e-06	1367.7	369.81	4.055e-06	4.0691e-06	422.81	141.6	122.77	42.534	4.163e-06	52.685	87.276	102.939	139.805	18.999	178.190	163.041	18.879	23.699	116.008	153.778	23.038	27.379	27.998	32.438	136.859	31.764	-8191	255	
7868.867	1	1	0	0	0.1548	0.14341	0.13555	0.19331	0.32777	0.1752	0.30282	0.068134	0.13	0.14009	0.036843	0.27397	0.17275	0.3273	0.02329	0.042755	-4.0771	-4.7458	-4.3125	-4.8958	-4.5687	-4.1813	-5.0146	-4.5104	-4.3438	-4.7104	-4.5229	-4.7646	-4.6271	-4.0958	-4.7812	-4.7292	289.833	98.684	25.674	313.044	104.434	36.734	315.408	260.868	357.931	8.296	88.519	301.197	345.671	295.558	162.519	274.009	0.0004551	0.00050262	0.00018274	1357.5	4.4998e-06	3.5081e-06	1354.7	364.91	7.1837e-06	5.0506e-06	417.46	139.41	121.71	41.899	1.8562e-06	51.786	0.00038154	0.00037791	0.00010573	1368.4	4.1512e-06	4.1e-06	1367.8	370	4.1434e-06	4.0986e-06	421.85	141.42	122.9	42.607	4.1546e-06	52.649	93.108	109.503	113.832	19.317	160.224	163.731	18.849	23.472	143.335	166.524	22.979	27.350	28.076	32.548	151.879	31.889	-8191	255	
7868.986	1	1	0	0	0.27843	0.23128	0.11943	0.20354	0.21572	0.054048	0.11183	0.080184	0.087811	0.24579	0.26113	0.2551	0.23913	0.10917	0.124	0.17763	-4.0125	-4.8792	-4.2958	-4.7708	-4.6271	-4.3167	-5.0292	-4.4208	-4.3292	-5.0021	-4.2792	-4.4625	-4.85	-4.2812	-4.6458	-4.5917	41.548	272.765	154.469	328.911	114.734	194.144	288.644	324.532	148.184	35.753	273.852	36.335	317.137	25.282	70.434	232.799	0.00052338	0.00048097	0.0001402	1356.7	4.4592e-06	4.4628e-06	1350.7	364.96	6.9372e-06	4.1409e-06	417.01	139.37	121.06	41.785	3.0557e-06	51.626	0.00038754	0.00037835	0.0001041	1368.9	4.1118e-06	4.0408e-06	1365.5	369.93	4.1077e-06	4.1009e-06	422.17	141.52	122.76	42.58	4.1298e-06	52.672	90.032	99.741	76.059	19.187	149.051	149.785	18.741	23.405	153.620	147.879	22.993	27.398	28.172	32.584	175.298	31.898	-8191	255	
7869.058	1	1	0	0	0.091846	0.13239	0.10548	0.15065	0.12818	0.17899	0.098857	0.15686	0.15302	0.12621	0.26064	0.38913	0.12097	0.13889	0.21129	0.24666	-4.0333	-4.7875	-4.2646	-4.6208	-4.7958	-4.2188	-4.7625	-4.6104	-4.1708	-4.7521	-4.3875	-4.4146	-4.7583	-4.4167	-4.5938	-4.7292	312.235	52.857	109.334	102.288	68.733	224.227	251.249	330.483	220.497	71.349	337.720	241.687	106.149	93.561	358.325	319.912	0.0005146	0.00040702	0.00012149	1354.7	3.4548e-06	3.9e-06	1353.1	366.11	4.2664e-06	1.1677e-06	418.07	139.97	121.73	41.886	3.5049e-06	51.546	0.00038932	0.00037473	0.00010288	1368.1	4.1124e-06	4.0621e-06	1367.2	369.89	4.0679e-06	4.095e-06	422.28	141.57	122.86	42.635	4.1083e-06	52.592	98.580	123.623	77.792	18.897	164.535	117.290	18.848	23.702	106.981	100.628	23.023	27.429	27.907	32.452	203.970	31.819	-8191	255	
7869.155	1	1	0	0	0.062753	0.23118	0.048926	0.22013	0.2498	0.15664	0.21162	0.099925	0.11038	0.16376	0.24436	0.10995	0.062662	0.2388	0.10105	0.070584	-3.8917	-4.7417	-4.4354	-4.4896	-4.7708	-4.3438	-4.8396	-4.8688	-4.1333	-4.8229	-4.6312	-4.3167	-4.8625	-4.2979	-4.5479	-4.7312	22.084	71.084	318.655	347.874	173.369	18.407	320.746	259.210	19.483	66.483	243.956	123.533	242.330	331.823	131.834	266.954	0.00051269	0.00049499	0.00010194	1354.1	4.9045e-06	7.2923e-06	1354.3	364.41	2.4633e-06	7.0068e-06	417.74	139.83	121.67	41.901	4.7173e-06	51.711	0.00038584	0.00037405	0.00010308	1368.5	4.09e-06	4.0745e-06	1367.2	370.03	4.1169e-06	4.1247e-06	421.89	141.75	122.96	42.658	4.1292e-06	52.673	98.818	123.541	121.296	19.093	147.298	131.771	18.888	23.517	142.289	151.318	23.075	27.491	27.688	32.312	187.503	31.811	-8191	255	
7869.274	1	1	0	0	0.20402	0.11151	0.26036	0.29841	0.070163	0.20779	0.26461	0.4361	0.046108	0.16146	0.26306	0.11344	0.065137	0.24822	0.087942	0.2134	-3.7875	-4.6167	-4.3667	-4.7354	-4.7792	-4.0437	-4.7937	-4.9271	-4.0646	-4.7292	-4.6021	-4.3187	-4.7812	-4.45	-4.4333	-5.1083	206.347	325.473	123.380	286.829	39.570	244.850	272.905	266.827	126.056	171.413	41.651	224.933	128.780	16.052	260.929	329.163	0.0005324	0.00076234	0.00013648	1349.7	3.5618e-06	3.9023e-06	1353.3	365.08	8.7157e-06	6.447e-06	417.12	138.99	121.77	41.892	7.8009e-06	51.595	0.0003846	0.00037517	0.00010464	1367.6	4.1558e-06	4.069e-06	1366.7	370.39	4.0667e-06	4.1001e-06	421.8	141.42	123.1	42.623	4.0751e-06	52.617	92.615	113.116	71.680	19.152	130.281	171.477	18.885	23.583	140.004	143.869	23.150	27.376	27.919	32.652	141.916	31.855	-8191	255	
7869.371	1	1	0	0	0.12601	0.11201	0.11855	0.27618	0.12568	0.091429	0.36071	0.12489	0.1146	0.13746	0.17335	0.037805	0.14385	0.10149	0.20227	0.16181	-3.9562	-4.5667	-4.6271	-4.5042	-4.8562	-4.4812	-4.5354	-5.0292	-4.3583	-4.6625	-4.6583	-4.3583	-4.8917	-4.65	-4.1646	-4.8021	121.660	175.244	57.808	273.799	109.692	298.535	332.742	317.729	179.648	204.386	37.939	104.636	320.718	134.353	141.665	50.884	0.00050851	0.00090589	0.00018733	1349.9	4.893e-06	4.6545e-06	1351	364.89	4.9101e-06	2.1098e-06	416.4	139.42	121.55	41.721	7.4145e-06	51.765	0.00038316	0.00037374	0.00010391	1367.3	4.0901e-06	4.094e-06	1366	369.99	4.1122e-06	4.0479e-06	421.91	141.59	122.69	42.543	4.0858e-06	52.687	93.166	101.304	84.829	19.056	127.537	175.038	18.879	23.641	145.885	138.928	23.014	27.470	28.109	32.463	143.008	31.677	-8191	255	
7869.467	1	1	0	0	0.13443	0.092064	0.14148	0.12664	0.20442	0.10976	0.37757	0.1619	0.14086	0.067376	0.29955	0.1949	0.1529	0.20614	0.089413	0.18456	-3.9813	-4.4812	-4.5667	-4.3812	-4.7854	-4.5563	-4.425	-5.0021	-4.3313	-4.5417	-4.8313	-4.1646	-4.7771	-4.5771	-4.3021	-4.9792	128.370	23.544	47.049	362.055	350.805	40.515	334.813	346.477	30.030	355.430	328.000	38.085	27.783	295.581	335.016	84.607	0.00052328	0.00061389	0.00017572	1355.5	1.7529e-06	5.7404e-06	1353.6	367.1	6.1055e-06	5.429e-06	415.52	139.38	121.24	41.664	4.1423e-06	51.831	0.00038364	0.00037551	0.00010382	1369.3	4.0998e-06	4.0109e-06	1367.7	370.37	4.0746e-06	4.0808e-06	421.39	141.6	122.82	42.512	4.074e-06	52.632	94.714	82.806	113.169	19.042	160.616	115.224	18.761	23.678	195.689	151.229	22.932	27.472	28.091	32.586	174.634	31.860	-8191	255	
7869.563	1	1	0	0	0.12184	0.10337	0.13052	0.39803	0.065486	0.11965	0.074815	0.14306	0.07568	0.096101	0.13104	0.17006	0.08862	0.12258	0.3002	0.17511	-3.8563	-4.4521	-4.6229	-4.5833	-4.7042	-4.6167	-4.275	-4.8375	-4.2729	-4.3979	-5.0687	-4.2833	-4.5208	-4.6188	-4.2438	-4.8875	333.807	113.964	345.094	303.301	202.826	12.411	304.042	273.797	122.036	267.028	93.809	98.254	313.100	127.753	73.936	362.326	0.00054359	0.00049061	0.00019508	1355.2	4.6845e-06	3.0694e-06	1354.3	365.36	4.7917e-06	4.0999e-06	416.26	140.04	121.35	41.73	2.856e-06	51.572	0.00038391	0.00036962	0.00010252	1368.9	4.1133e-06	4.018e-06	1367.1	369.87	4.0566e-06	4.042e-06	421.72	141.58	122.9	42.559	4.093e-06	52.635	90.424	87.954	97.306	19.160	150.605	83.614	18.945	23.598	147.260	172.375	23.031	27.476	27.945	32.522	121.375	31.672	-8191	255	
7869.683	1	1	0	0	0.17958	0.17779	0.18313	0.17192	0.13035	0.14232	0.051132	0.074064	0.13506	0.033041	0.33934	0.046992	0.1739	0.15641	0.18632	0.099451	-4.0917	-4.1813	-4.8187	-4.3521	-4.4062	-4.6292	-4.6521	-4.9979	-4.3396	-4.2917	-4.9313	-4.4771	-4.6312	-4.7188	-4.0563	-4.9542	302.794	305.280	166.322	220.913	221.720	295.809	203.016	348.167	11.057	103.442	332.047	230.681	23.692	21.031	185.031	318.195	0.00046081	0.00050608	7.9888e-05	1355	3.6921e-06	4.2339e-06	1351.9	365.45	2.7928e-06	5.147e-06	418.85	139.79	121.11	41.985	5.6934e-06	51.886	0.00037924	0.00036962	0.0001009	1368	4.0782e-06	4.0103e-06	1365.8	369.91	4.0113e-06	3.9981e-06	421.57	141.52	122.51	42.565	4.0359e-06	52.656	85.401	119.045	89.678	19.064	154.679	212.694	18.858	23.466	135.048	140.657	23.144	27.556	27.759	32.272	173.585	31.701	-8191	255	
7869.755	1	1	0	0	0.23758	0.060574	0.099769	0.16736	0.2637	0.11335	0.13688	0.26327	0.0832	0.19507	0.22904	0.2063	0.25516	0.027974	0.24201	0.13433	-4.1813	-4.3229	-4.6729	-4.4229	-4.5208	-4.6604	-4.35	-4.8896	-4.5146	-4.0333	-4.85	-4.5875	-4.4229	-4.6917	-4.2708	-4.7271	229.636	232.333	90.083	353.328	110.009	11.076	302.434	324.575	263.378	182.406	261.787	31.380	351.204	255.543	118.724	116.819	0.0006013	0.00035489	0.0001338	1352.6	5.8397e-06	5.7162e-06	1352	364.88	6.5099e-06	3.3524e-06	415.84	139.92	121.5	41.875	5.5359e-06	51.847	0.00037909	0.00036679	0.00010222	1366.8	4.0566e-06	3.9703e-06	1366	369.98	3.9727e-06	3.9574e-06	421.37	141.54	122.68	42.577	4.0175e-06	52.669	92.620	156.045	108.818	18.960	163.570	175.844	18.952	23.650	178.631	158.948	22.995	27.676	27.868	32.504	159.282	31.889	-8191	255	
#DATA ENDS
