BOXY.EXE: ISS Imagent and Oximeter Data Acquisition Program Version 0.80
Ascii Record File

#ACQ INFORMATION
2  Detector Channels 
16  External MUX Channels 
1  Auxiliary Channels 
5000  Waveform (CCF) Frequency (Hz)
1  Waveforms Skipped 
30  Waveforms Averaged 
1  Cycles Averaged 
16  Acquisitions per Waveform 
10.0806  Updata Rate (Hz) 

#FILE INFORMATION
TRUE -- External MUX Channel results are PARSED.
FALSE -- AC DC and Phase are NOT grouped.
TRUE -- Companion Program Settings File CREATED.
FALSE -- AC data not excluded
FALSE -- DC data not excluded
FALSE -- Phase data not excluded
FALSE -- Auxillary Chn. data not excluded
Tab delimiters

#CALIBRATION STATE
TRUE -- Waveform Calibration Values APPLIED.


#AUX CALIBRATION VALUES
Val Type	aux-1	

Term	1.0000e+00	
Factor	0.0000e+00	


#WF CALIBRATION VALUES
A = Detector Channel
Val Type	A-AC1	A-AC2	A-AC3	A-AC4	A-AC5	A-AC6	A-AC7	A-AC8	A-AC9	A-AC10	A-AC11	A-AC12	A-AC13	A-AC14	A-AC15	A-AC16	A-DC1	A-DC2	A-DC3	A-DC4	A-DC5	A-DC6	A-DC7	A-DC8	A-DC9	A-DC10	A-DC11	A-DC12	A-DC13	A-DC14	A-DC15	A-DC16	A-Ph1	A-Ph2	A-Ph3	A-Ph4	A-Ph5	A-Ph6	A-Ph7	A-Ph8	A-Ph9	A-Ph10	A-Ph11	A-Ph12	A-Ph13	A-Ph14	A-Ph15	A-Ph16	

Term	0.00000e+00	0.00000e+00	0.00000e+00	0.00000e+00	0.00000e+00	0.00000e+00	0.00000e+00	0.00000e+00	0.00000e+00	0.00000e+00	0.00000e+00	0.00000e+00	0.00000e+00	0.00000e+00	0.00000e+00	0.00000e+00	0.00000e+00	0.00000e+00	0.00000e+00	0.00000e+00	0.00000e+00	0.00000e+00	0.00000e+00	0.00000e+00	0.00000e+00	0.00000e+00	0.00000e+00	0.00000e+00	0.00000e+00	0.00000e+00	0.00000e+00	0.00000e+00	0.00000e+00	0.00000e+00	0.00000e+00	0.00000e+00	0.00000e+00	0.00000e+00	0.00000e+00	0.00000e+00	0.00000e+00	0.00000e+00	0.00000e+00	0.00000e+00	0.00000e+00	0.00000e+00	0.00000e+00	0.00000e+00	
Factor	1.00000e+00	1.00000e+00	1.00000e+00	1.00000e+00	1.00000e+00	1.00000e+00	1.00000e+00	1.00000e+00	1.00000e+00	1.00000e+00	1.00000e+00	1.00000e+00	1.00000e+00	1.00000e+00	1.00000e+00	1.00000e+00	1.00000e+00	1.00000e+00	1.00000e+00	1.00000e+00	1.00000e+00	1.00000e+00	1.00000e+00	1.00000e+00	1.00000e+00	1.00000e+00	1.00000e+00	1.00000e+00	1.00000e+00	1.00000e+00	1.00000e+00	1.00000e+00	X	X	X	X	X	X	X	X	X	X	X	X	X	X	X	X	

B = Detector Channel
Val Type	B-AC1	B-AC2	B-AC3	B-AC4	B-AC5	B-AC6	B-AC7	B-AC8	B-AC9	B-AC10	B-AC11	B-AC12	B-AC13	B-AC14	B-AC15	B-AC16	B-DC1	B-DC2	B-DC3	B-DC4	B-DC5	B-DC6	B-DC7	B-DC8	B-DC9	B-DC10	B-DC11	B-DC12	B-DC13	B-DC14	B-DC15	B-DC16	B-Ph1	B-Ph2	B-Ph3	B-Ph4	B-Ph5	B-Ph6	B-Ph7	B-Ph8	B-Ph9	B-Ph10	B-Ph11	B-Ph12	B-Ph13	B-Ph14	B-Ph15	B-Ph16	

Term	0.00000e+00	0.00000e+00	0.00000e+00	0.00000e+00	0.00000e+00	0.00000e+00	0.00000e+00	0.00000e+00	0.00000e+00	0.00000e+00	0.00000e+00	0.00000e+00	0.00000e+00	0.00000e+00	0.00000e+00	0.00000e+00	0.00000e+00	0.00000e+00	0.00000e+00	0.00000e+00	0.00000e+00	0.00000e+00	0.00000e+00	0.00000e+00	0.00000e+00	0.00000e+00	0.00000e+00	0.00000e+00	0.00000e+00	0.00000e+00	0.00000e+00	0.00000e+00	-6.18844e+01	-1.31176e+02	-1.30945e+02	-1.82064e+02	-5.12520e+01	-6.31214e+01	-1.57560e+02	-1.62015e+02	-4.68082e+01	-6.38604e+01	-1.72371e+02	-1.70432e+02	-1.78256e+02	-1.76759e+02	-5.34657e+01	-1.49349e+02	
Factor	1.65308e-05	1.37929e-04	3.69494e-05	1.57704e-01	1.33523e-06	1.42652e-06	1.70755e-01	4.46573e-02	1.03347e-06	1.38636e-06	7.56219e-02	2.61641e-02	2.21170e-02	8.12295e-03	1.35262e-06	1.13021e-02	1.00626e-05	1.67098e-05	4.71134e-06	8.54066e-02	1.71346e-07	1.86818e-07	8.69103e-02	2.43396e-02	1.67811e-07	1.87038e-07	3.98308e-02	1.38576e-02	1.22449e-02	4.47032e-03	1.76786e-07	6.00929e-03	X	X	X	X	X	X	X	X	X	X	X	X	X	X	X	X	



#DISTANCE SETTINGS
A = Detector Channel
A-1	A-2	A-3	A-4	A-5	A-6	A-7	A-8	A-9	A-10	A-11	A-12	A-13	A-14	A-15	A-16	

2.5000e+00	3.0000e+00	2.5000e+00	3.0000e+00	2.0000e+00	3.0000e+00	1.5000e+00	3.0000e+00	3.0000e+00	3.0000e+00	3.0000e+00	3.0000e+00	3.0000e+00	3.0000e+00	1.5000e+00	3.0000e+00	

B = Detector Channel
B-1	B-2	B-3	B-4	B-5	B-6	B-7	B-8	B-9	B-10	B-11	B-12	B-13	B-14	B-15	B-16	

1.0000e+01	1.0000e+01	1.0000e+01	1.4400e+00	1.0000e+01	1.0000e+01	1.5100e+00	1.9400e+00	1.0000e+01	1.0000e+01	1.9900e+00	2.4900e+00	2.4100e+00	2.9000e+00	1.0000e+01	2.9800e+00	




#DATA BEGINS
time	group	step	mark	flag	A-AC1	A-AC2	A-AC3	A-AC4	A-AC5	A-AC6	A-AC7	A-AC8	A-AC9	A-AC10	A-AC11	A-AC12	A-AC13	A-AC14	A-AC15	A-AC16	A-DC1	A-DC2	A-DC3	A-DC4	A-DC5	A-DC6	A-DC7	A-DC8	A-DC9	A-DC10	A-DC11	A-DC12	A-DC13	A-DC14	A-DC15	A-DC16	A-Ph1	A-Ph2	A-Ph3	A-Ph4	A-Ph5	A-Ph6	A-Ph7	A-Ph8	A-Ph9	A-Ph10	A-Ph11	A-Ph12	A-Ph13	A-Ph14	A-Ph15	A-Ph16	B-AC1	B-AC2	B-AC3	B-AC4	B-AC5	B-AC6	B-AC7	B-AC8	B-AC9	B-AC10	B-AC11	B-AC12	B-AC13	B-AC14	B-AC15	B-AC16	B-DC1	B-DC2	B-DC3	B-DC4	B-DC5	B-DC6	B-DC7	B-DC8	B-DC9	B-DC10	B-DC11	B-DC12	B-DC13	B-DC14	B-DC15	B-DC16	B-Ph1	B-Ph2	B-Ph3	B-Ph4	B-Ph5	B-Ph6	B-Ph7	B-Ph8	B-Ph9	B-Ph10	B-Ph11	B-Ph12	B-Ph13	B-Ph14	B-Ph15	B-Ph16	aux-1	digaux	

1170.925	1	1	0	256	0.23663	0.24111	0.088775	0.11016	0.24426	0.049069	0.19891	0.25368	0.19172	0.10827	0.16789	0.12523	0.13182	0.26214	0.23867	0.20319	-0.68542	-1.6458	-0.86875	-1.2542	-1.6229	-0.975	-1.6333	-1.1187	-0.98125	-1.6958	-0.94583	-1.2792	-1.5438	-0.78542	-1.4042	-1.1229	438.002	245.603	457.691	145.440	305.877	330.991	140.583	342.180	155.643	128.308	407.103	472.953	479.854	127.964	126.498	285.450	0.00038425	0.00042978	7.4164e-05	925.54	5.2054e-06	6.2925e-06	774.16	279.49	2.4588e-06	3.8996e-06	264.69	83.812	92.435	33.714	5.3179e-06	31.533	0.00053692	0.00061388	0.00018169	924.34	6.8517e-06	7.0609e-06	777.34	281.88	6.8509e-06	7.035e-06	264.88	84.232	93.607	34.685	6.9738e-06	32.224	250.948	209.210	211.818	138.822	280.510	256.607	138.077	143.868	308.695	274.392	141.614	147.094	149.088	153.886	285.573	150.305	-8191	255	
1171.021	1	1	0	0	0.21248	0.11937	0.1454	0.22718	0.1701	0.12371	0.16054	0.18103	0.48471	0.12042	0.36478	0.045521	0.049159	0.13677	0.34682	0.28378	-0.56042	-1.5229	-0.76667	-1.3896	-1.6812	-0.70208	-1.75	-1.3937	-0.70625	-1.7417	-0.91458	-1.2104	-1.5833	-0.91875	-1.3646	-1.3729	473.441	277.048	158.709	185.955	151.731	355.744	327.930	466.649	393.862	259.481	437.097	443.623	470.321	368.421	283.308	469.049	0.00038559	0.00028806	3.4507e-05	924.5	3.7439e-06	4.0104e-06	774.78	279.89	4.9489e-06	5.1135e-06	260.94	83.463	91.917	33.809	3.1827e-06	31.697	0.00054971	0.00063783	0.00018328	926.96	6.5365e-06	7.4665e-06	777.47	281.42	6.8023e-06	7.0922e-06	262.8	83.879	93.381	34.514	7.049e-06	32.073	253.104	185.479	225.840	139.092	251.952	242.025	137.932	144.080	294.348	270.854	141.954	146.527	148.557	154.172	318.633	150.573	-8191	255	
1171.115	1	1	0	0	0.087274	0.19876	0.20324	0.22207	0.10686	0.092747	0.11512	0.091852	0.040594	0.12972	0.48293	0.080164	0.19424	0.11769	0.074314	0.1866	-0.53958	-1.6063	-1.1021	-1.1917	-1.7417	-0.9125	-1.5542	-1.4708	-0.73958	-1.5438	-1.1125	-1.0375	-1.6375	-0.91458	-1.3958	-1.4667	415.088	456.794	183.325	405.340	145.766	352.927	338.984	416.005	394.487	443.270	463.144	276.557	464.994	165.873	150.696	392.782	0.00037898	0.00035119	0.00016766	924.48	3.6546e-06	3.9888e-06	782.9	278.8	5.6002e-06	4.0335e-06	260.64	82.54	92.348	33.512	2.9218e-06	31.152	0.00053919	0.00066665	0.00018896	925.87	6.7771e-06	7.3754e-06	777.32	280.39	7.0607e-06	7.3802e-06	261.48	83.045	93.122	34.151	7.5403e-06	31.747	253.277	217.030	239.174	139.017	306.273	320.720	138.266	143.726	297.696	286.311	141.940	146.345	148.693	154.152	296.301	150.257	-8191	255	
1171.211	1	1	0	0	0.12053	0.17465	0.25301	0.04187	0.36059	0.10992	0.18615	0.17277	0.12225	0.13418	0.25431	0.2318	0.13918	0.10509	0.06092	0.39215	-0.39792	-1.7167	-1.15	-1.0917	-1.8125	-0.975	-1.3479	-1.7938	-0.7875	-1.7417	-1.2771	-1.3229	-1.7313	-1.0625	-1.3083	-1.7687	410.032	211.883	146.887	456.733	452.464	247.022	376.232	193.985	416.207	296.851	425.077	422.353	447.631	207.250	453.988	457.813	0.00034432	0.00035996	0.00011102	921.4	5.8766e-06	5.5322e-06	773.37	274.59	4.5714e-06	4.1237e-06	257.81	82.094	90.755	33.067	3.9045e-06	31.145	0.00056745	0.00067609	0.00019296	922.02	7.1059e-06	7.8868e-06	773.21	277.27	7.2009e-06	7.538e-06	259.64	82.452	91.609	33.678	7.5734e-06	31.419	252.123	214.638	232.142	139.263	257.392	258.587	138.310	144.103	307.124	261.583	141.563	146.908	148.877	153.912	268.025	150.353	-8191	255	
1171.307	1	1	0	0	0.069148	0.17979	0.46054	0.38401	0.1261	0.09553	0.2129	0.48007	0.34703	0.16754	0.12881	0.29319	0.18171	0.25134	0.14681	0.35817	-0.50208	-1.45	-1.4375	-0.94167	-1.7062	-0.93333	-1.3271	-1.6354	-0.72083	-1.5417	-1.4833	-0.96042	-1.7021	-1.0646	-1.1083	-1.6562	211.331	432.017	482.762	456.063	289.366	203.486	419.256	367.817	447.181	318.254	449.190	460.709	314.110	174.471	129.595	437.578	0.0003797	0.00040332	0.0001462	918.58	4.0785e-06	3.7841e-06	773.21	276.41	4.2819e-06	5.7565e-06	256.7	81.605	90.439	32.719	1.8231e-06	30.987	0.00055158	0.00066891	0.00017967	920.13	6.9445e-06	7.3602e-06	773.1	277.28	7.4774e-06	7.4554e-06	258.51	82.022	91.223	33.434	7.1525e-06	31.309	254.089	235.742	227.733	138.800	287.190	256.000	138.227	143.761	299.477	277.018	141.679	146.406	148.694	153.665	314.098	150.451	-8191	255	
1171.404	1	1	0	0	0.1164	0.26771	0.29314	0.068502	0.038065	0.22661	0.2016	0.08707	0.21172	0.30511	0.27658	0.064986	0.37456	0.30046	0.16119	0.22765	-0.33542	-1.4125	-1.3771	-0.81458	-1.4646	-1.0562	-1.2729	-1.8271	-0.87917	-1.1229	-1.5688	-0.76667	-1.6667	-1.2542	-0.80625	-1.4271	247.295	440.152	180.859	469.004	147.828	440.137	480.068	429.769	199.800	190.625	372.575	177.547	466.397	351.379	381.600	415.670	0.00036489	0.00029663	0.00012165	911.72	3.1251e-06	2.5563e-06	769.72	275.29	3.9149e-06	3.3991e-06	255.68	81.304	90.341	32.784	4.5549e-06	30.625	0.0005495	0.00065485	0.00017671	915.78	7.1155e-06	7.2322e-06	768.85	276.79	7.212e-06	7.3588e-06	257.44	82.019	91.332	33.466	7.053e-06	31.094	254.706	214.057	232.425	138.908	289.716	303.545	138.051	144.009	297.070	256.935	141.635	146.683	148.731	154.231	259.326	150.428	-8191	255	
1171.500	1	1	0	0	0.25394	0.026896	0.15181	0.079781	0.060796	0.19516	0.12427	0.25693	0.083411	0.13411	0.20872	0.26587	0.093457	0.11235	0.11068	0.16115	-0.5	-1.1854	-1.5187	-0.85	-1.5396	-1.3062	-1.0021	-1.6646	-0.83542	-0.99375	-1.5292	-0.72708	-1.6021	-1.0604	-0.90417	-1.5917	423.106	222.372	269.678	235.027	469.975	411.177	347.293	422.291	320.953	457.644	298.483	165.055	480.076	441.274	398.259	138.207	0.00034881	0.00038528	0.00012028	913.03	4.544e-06	5.0092e-06	765.98	271.86	5.0817e-06	4.231e-06	253.23	80.496	89.577	32.858	4.0499e-06	30.7	0.00052162	0.00063006	0.00017817	913.66	6.9741e-06	7.2804e-06	763.96	274.76	6.9194e-06	7.2337e-06	255.44	81.382	90.781	33.445	6.9827e-06	31.162	252.196	207.673	207.946	138.994	308.433	306.017	138.283	144.065	275.263	286.454	142.006	147.003	149.050	154.176	261.090	150.666	-8191	255	
1171.596	1	1	0	0	0.10258	0.14864	0.09665	0.42405	0.1618	0.22976	0.1453	0.23652	0.21913	0.12529	0.1758	0.44906	0.089293	0.19361	0.16976	0.21853	-0.65208	-1.0938	-1.5708	-0.85625	-1.2979	-1.3333	-0.76042	-1.8021	-0.9375	-1.1104	-1.6979	-0.88958	-1.4813	-1.2125	-0.81458	-1.5229	138.998	247.838	309.005	375.790	399.750	345.713	432.318	436.641	333.477	192.877	334.171	464.641	454.662	314.877	439.133	142.186	0.00036179	0.00034338	8.1396e-05	904.98	1.2262e-06	3.7686e-06	758.1	272.61	5.8338e-06	4.1998e-06	252.47	80.834	90.092	32.866	5.5937e-06	30.879	0.00053095	0.00064726	0.00017169	908.96	6.6868e-06	6.7885e-06	758.81	274.63	6.8691e-06	7.0155e-06	255.05	81.643	91.031	33.627	6.9646e-06	31.316	251.319	190.512	164.955	138.896	263.974	323.808	138.260	144.134	266.746	275.642	141.690	146.705	148.811	154.298	285.268	150.802	-8191	255	
1171.716	1	1	0	0	0.12983	0.31867	0.040107	0.089173	0.056884	0.10116	0.13341	0.10098	0.27202	0.11211	0.3881	0.18573	0.28768	0.22214	0.072528	0.057363	-0.57917	-1.0646	-1.4562	-0.88125	-1.1313	-1.325	-0.82083	-1.7979	-0.97292	-0.975	-1.5417	-0.82292	-1.3438	-1.6063	-0.68958	-1.6604	372.552	363.446	130.813	350.157	398.854	267.197	322.888	256.518	218.138	296.909	454.166	436.112	133.434	466.171	144.675	403.449	0.00037739	0.00028577	6.961e-05	899.6	4.6091e-06	5.2304e-06	759.13	270.88	1.56e-06	1.9941e-06	254.38	81.26	90.148	32.999	3.9184e-06	30.925	0.00054063	0.00063738	0.00018893	903.92	7.0427e-06	7.2688e-06	758.13	274.34	6.9792e-06	7.4079e-06	256.04	81.763	91.563	33.872	7.3992e-06	31.507	251.658	230.562	214.047	139.526	283.432	264.854	138.501	144.330	331.477	287.299	141.913	146.730	148.769	154.543	303.132	150.606	-8191	255	
1171.813	1	1	0	0	0.16467	0.23295	0.057759	0.29653	0.14792	0.17016	0.24485	0.47792	0.25205	0.03401	0.27854	0.011778	0.10892	0.11633	0.079238	0.24149	-0.80833	-0.875	-1.5458	-0.82083	-1.1938	-1.3708	-0.92708	-1.575	-1.2313	-0.91042	-1.7	-1.0479	-1.1521	-1.6938	-0.67292	-1.5042	275.812	258.995	221.381	176.664	210.569	204.738	463.948	138.606	207.462	157.539	155.480	216.752	201.180	245.261	456.450	375.830	0.00032813	0.0004707	5.2063e-05	902.56	3.6525e-06	2.1704e-06	751.46	272.83	3.2947e-06	5.9804e-06	253.36	81.586	91.004	33.086	3.6094e-06	31.32	0.00054007	0.00069468	0.00019051	904.75	7.1523e-06	7.3528e-06	757.25	275.4	7.2089e-06	7.4519e-06	256.72	82.424	91.891	33.899	7.4707e-06	31.844	254.912	194.386	231.487	138.928	257.010	278.180	138.238	144.728	272.049	252.230	142.047	146.777	149.066	154.321	264.648	150.911	-8191	255	
1171.909	1	1	0	0	0.099085	0.20864	0.11412	0.12933	0.14952	0.28574	0.416	0.11649	0.088908	0.18859	0.10608	0.20046	0.22729	0.10704	0.11219	0.21068	-0.89792	-0.6	-1.5667	-0.98333	-1.0583	-1.5229	-0.86042	-1.5542	-1.3583	-0.82708	-1.575	-1.0208	-1.1562	-1.5688	-0.66875	-1.4875	359.211	438.983	287.523	185.736	241.343	264.746	445.688	182.646	378.971	354.582	324.856	343.137	378.891	142.347	293.679	143.768	0.00036106	0.00034222	0.00011953	905.21	4.7868e-06	3.9198e-06	758.85	273.29	2.787e-06	4.3724e-06	255.65	81.025	90.7	34.136	4.3813e-06	31.66	0.00055296	0.00067901	0.00019365	908.66	7.1291e-06	7.5233e-06	761.84	275.99	6.897e-06	7.2875e-06	257.29	82.135	91.865	34.209	7.5543e-06	31.669	251.186	208.022	194.164	139.230	271.668	271.406	138.332	144.201	263.775	276.997	141.919	147.004	148.692	152.520	272.714	149.192	-8191	255	
1172.005	1	1	0	0	0.21832	0.17894	0.29226	0.21631	0.37212	0.31838	0.33506	0.31813	0.28156	0.27456	0.26555	0.22819	0.28374	0.22272	0.14945	0.052572	-1.0021	-0.76458	-1.4292	-1.2542	-1.0083	-1.6333	-0.96875	-1.3146	-1.3792	-0.76667	-1.4958	-1.2437	-0.99375	-1.5812	-0.63958	-1.35	166.880	218.322	344.026	435.853	292.941	412.839	393.694	399.239	326.645	186.248	452.251	419.683	444.832	148.959	152.340	395.760	0.00037793	0.00042711	3.2039e-05	930.07	4.5778e-06	3.9564e-06	779.25	281.1	2.8823e-06	4.8151e-06	261.37	82.706	92.553	33.867	3.0356e-06	31.659	0.00054395	0.00066481	0.00018374	917.25	6.8945e-06	7.1349e-06	767.02	278.22	6.8355e-06	7.3132e-06	258.88	82.067	92.034	33.999	6.8655e-06	31.621	254.048	224.892	297.287	137.928	262.447	268.029	136.567	143.398	279.317	271.402	140.681	145.072	146.746	152.056	279.821	148.662	-8191	255	
1172.101	1	1	0	0	0.11607	0.038723	0.17908	0.090312	0.097663	0.2194	0.074774	0.24628	0.15606	0.079812	0.16896	0.32641	0.21767	0.35127	0.15345	0.024554	-1.1146	-0.62917	-1.4792	-1.3542	-0.59792	-1.7812	-0.74167	-1.2542	-1.5229	-0.75625	-1.7417	-1.225	-0.8875	-1.7104	-0.92292	-1	164.156	157.745	401.561	427.241	443.311	247.313	400.893	391.510	474.839	170.213	436.620	429.677	406.034	213.679	214.911	376.853	0.00033054	0.00046132	9.3747e-05	929.51	4.9554e-06	3.6137e-06	780.79	280.96	2.7351e-06	2.8686e-06	262.34	83.73	93.095	34.229	4.6799e-06	32.097	0.00051074	0.00064959	0.0001787	915.38	6.9816e-06	7.0679e-06	765.69	278.66	6.8684e-06	7.4285e-06	259.98	82.838	92.791	34.388	7.081e-06	32.015	251.222	206.167	208.423	136.667	275.610	251.293	135.938	142.082	263.777	255.211	139.810	144.185	146.474	151.678	278.054	148.022	-8191	255	
1172.197	1	1	0	0	0.22796	0.041421	0.1367	0.23389	0.13536	0.063165	0.12598	0.10489	0.11599	0.14621	0.17569	0.24069	0.17243	0.11218	0.39455	0.17035	-1.2313	-0.62292	-1.3542	-1.4125	-0.65833	-1.5875	-1.225	-1.3	-1.5208	-0.78125	-1.3979	-1.2729	-0.89792	-1.5063	-0.85208	-0.95625	288.625	161.752	203.130	431.981	302.208	138.855	312.873	447.529	142.048	276.748	328.457	180.875	430.604	126.413	339.901	431.706	0.00032238	0.00032735	9.2298e-05	927.69	3.5713e-06	4.2268e-06	776.74	280.94	4.2421e-06	1.928e-06	261.23	83.531	93.43	34.325	3.2913e-06	32.312	0.00053982	0.00066603	0.00018042	915.47	6.9881e-06	7.2007e-06	765.35	278.58	7.0851e-06	7.2964e-06	259.73	83.239	92.986	34.507	7.1561e-06	32.261	249.531	231.136	217.312	136.189	273.231	286.916	135.587	141.434	299.283	211.219	139.388	143.969	146.309	151.379	265.648	147.845	-8191	255	
1172.316	1	1	0	0	0.12619	0.25905	0.077506	0.24169	0.13853	0.096295	0.38422	0.44986	0.097761	0.17178	0.31145	0.27711	0.1084	0.17916	0.18934	0.12785	-0.95417	-0.78333	-1.3792	-1.425	-0.52292	-1.4312	-1.0792	-1.0896	-1.675	-0.84167	-1.4542	-1.3563	-0.85417	-1.4333	-1.2958	-0.7125	296.615	175.511	466.930	478.957	331.149	248.808	411.812	424.257	372.179	457.230	431.448	407.013	394.132	146.940	178.852	463.932	0.00036241	0.00038194	8.9547e-05	923.68	3.7227e-06	5.2964e-06	779.71	280.57	5.0936e-06	6.1676e-06	263.56	83.741	93.323	34.079	3.8295e-06	32.358	0.00054539	0.00065809	0.00018727	912.82	7.2265e-06	7.5147e-06	766.13	278.16	7.1477e-06	7.7309e-06	260.18	83.277	92.893	34.471	7.3524e-06	32.305	248.926	226.641	165.759	136.241	271.759	274.629	135.216	141.613	291.687	295.400	139.390	144.121	146.523	151.590	295.761	147.782	-8191	255	
1172.412	1	1	0	0	0.13852	0.18897	0.17307	0.27752	0.24602	0.2407	0.19821	0.14185	0.17899	0.2044	0.10481	0.24037	0.17167	0.17574	0.029982	0.10824	-1.1875	-0.92708	-1.0417	-1.7333	-0.85417	-1.3833	-1.0542	-0.81875	-1.6375	-0.82292	-1.1354	-1.5958	-0.71458	-1.7104	-1.1771	-0.92083	311.027	364.881	167.637	416.688	172.607	433.623	411.562	396.624	424.740	283.111	478.327	425.753	134.439	389.804	468.946	252.099	0.00034981	0.00030093	0.00013489	922.8	5.825e-06	1.9069e-06	774.28	279.5	4.1916e-06	4.5755e-06	262.02	83.004	93.139	34.514	3.1168e-06	32.056	0.00055378	0.00069736	0.00019025	910.98	7.5624e-06	7.6393e-06	761.47	277.12	7.2404e-06	7.7893e-06	259.2	82.894	92.665	34.548	7.3429e-06	32.223	251.906	233.836	188.329	136.252	306.221	276.574	135.473	141.455	254.830	276.389	139.374	143.954	146.117	151.422	285.493	148.327	-8191	255	
1172.508	1	1	0	0	0.010849	0.21291	0.30458	0.10343	0.12877	0.27469	0.20767	0.19448	0.18853	0.17505	0.54325	0.12208	0.19759	0.1036	0.05752	0.22822	-1.1771	-0.95625	-1.0375	-1.8125	-0.74167	-1.3292	-1.4646	-0.98125	-1.5604	-1.1042	-1.0187	-1.5875	-0.91875	-1.5625	-1.2646	-0.9375	235.570	272.451	129.379	428.386	184.612	253.477	413.090	364.320	293.740	406.151	417.621	377.055	167.388	463.376	396.239	474.926	0.00034946	0.00031528	7.236e-05	915.52	4.2649e-06	2.6887e-06	765.84	277.21	2.8737e-06	4.9291e-06	258.56	83.108	92.677	34.285	5.4637e-06	32.351	0.00056745	0.00069659	0.00019794	902.89	7.7191e-06	7.7483e-06	755.09	275.66	7.3438e-06	7.9323e-06	256.99	82.564	92.475	34.718	7.6099e-06	32.36	250.731	192.397	228.374	136.281	301.291	237.339	135.694	141.869	301.821	239.984	139.538	143.994	146.175	151.468	251.127	147.807	-8191	255	
1172.605	1	1	0	0	0.12072	0.078971	0.23165	0.43377	0.19054	0.060654	0.098902	0.18309	0.22053	0.20145	0.23209	0.27601	0.088737	0.32903	0.054092	0.0907	-1.2167	-1.2271	-0.9625	-1.9312	-0.89167	-1.3771	-1.5688	-0.92083	-1.5833	-1.2875	-0.97083	-1.5812	-0.69375	-1.1396	-1.4542	-0.91458	395.559	251.702	153.912	444.625	231.457	198.798	332.171	129.438	158.691	235.202	394.049	459.834	127.421	429.152	355.480	403.879	0.00034533	0.00035535	9.7309e-05	905	3.4132e-06	3.4017e-06	762.7	277.86	2.8417e-06	1.0609e-06	260.4	82.653	92.849	34.504	3.7896e-06	32.292	0.00057208	0.0006929	0.00019394	894.75	7.3847e-06	7.3649e-06	750.09	275.22	7.1121e-06	7.3432e-06	257.06	82.631	92.403	34.766	7.1856e-06	32.342	255.003	178.260	220.969	136.349	288.431	260.584	135.311	141.630	255.083	288.273	139.637	144.167	145.771	151.871	263.922	147.855	-8191	255	
1172.701	1	1	0	0	0.10711	0.2369	0.17511	0.38786	0.085654	0.10827	0.1626	0.35911	0.13034	0.15203	0.17628	0.41264	0.27595	0.078015	0.081963	0.10872	-1.0208	-0.98958	-0.76667	-1.8021	-0.7125	-1.0896	-1.6146	-0.59792	-1.2146	-1.3042	-0.89375	-1.7125	-1.1333	-1.0125	-1.3937	-0.95208	325.642	192.218	199.811	441.431	303.031	176.797	423.153	447.009	345.852	473.367	459.469	430.278	125.557	142.752	222.425	407.418	0.00035839	0.00038406	0.00013478	913.1	4.5622e-06	4.3231e-06	768.39	277.08	3.4832e-06	4.8982e-06	262.01	83.661	93.361	34.687	4.9377e-06	32.475	0.00056174	0.00065753	0.00019579	898.2	7.0323e-06	7.3493e-06	753.93	275.46	6.9243e-06	7.0743e-06	258.68	83.046	92.851	34.741	7.2593e-06	32.464	247.347	213.684	212.462	136.401	292.969	290.676	134.977	141.519	279.129	264.631	139.375	144.142	146.510	151.556	281.963	147.829	-8191	255	
1172.797	1	1	0	0	0.23759	0.21936	0.24055	0.17631	0.31379	0.1439	0.15071	0.24284	0.20252	0.19084	0.027866	0.23671	0.26687	0.111	0.15501	0.13263	-0.78333	-1.2104	-0.74375	-1.9062	-1.0542	-1.0042	-1.6521	-1.0146	-1.1437	-1.4312	-0.66458	-1.6708	-1.2479	-1.0271	-1.7042	-1.0417	275.770	423.086	442.787	390.011	364.819	305.899	452.978	438.834	292.515	185.401	387.076	396.405	470.538	370.791	469.556	279.014	0.00037919	0.00037767	0.00011216	915.56	6.0415e-06	1.9722e-06	777.69	281.13	3.2485e-06	2.8439e-06	262.17	84.606	93.941	34.768	4.5395e-06	32.436	0.00054271	0.00067887	0.00019335	905.96	6.8178e-06	7.3221e-06	763.59	278.15	6.8159e-06	7.5072e-06	261.45	83.651	93.373	34.868	7.1263e-06	32.638	252.251	247.095	204.467	136.373	274.265	243.611	135.374	141.490	266.867	303.303	139.387	144.573	146.269	151.710	283.498	147.821	-8191	255	
1172.893	1	1	0	0	0.17069	0.25603	0.20296	0.16647	0.21908	0.1066	0.26948	0.098024	0.21434	0.13943	0.08116	0.1445	0.20931	0.24312	0.19122	0.14221	-0.725	-1.2771	-0.69583	-1.45	-1.2396	-0.8375	-1.7458	-1.0208	-1.0542	-1.6104	-1.0208	-1.5646	-1.3333	-1.0854	-1.7	-0.98333	311.457	424.483	227.310	289.482	389.612	294.853	437.454	450.362	297.285	442.682	340.940	316.998	368.508	153.697	450.600	452.671	0.00039303	0.00033541	0.00010032	929.5	3.9245e-06	4.8727e-06	780.69	281.01	4.2193e-06	4.7312e-06	262.24	84.159	93.687	34.898	2.428e-06	32.452	0.00054915	0.00067685	0.00019215	914.11	6.8542e-06	7.4455e-06	766.14	279.11	7.1156e-06	7.2777e-06	261.38	83.821	93.385	34.969	7.274e-06	32.548	252.227	219.527	246.536	136.168	262.691	251.582	135.551	141.662	307.289	254.715	139.338	144.519	146.525	151.780	323.766	147.825	-8191	255	
1172.989	1	1	0	0	0.28677	0.10129	0.1745	0.23853	0.17719	0.067757	0.10689	0.15289	0.079675	0.22634	0.11105	0.24369	0.21105	0.07104	0.098423	0.10505	-0.60417	-1.5042	-0.475	-1.6583	-1.2646	-0.91042	-1.7563	-0.98958	-1.05	-1.4896	-1.025	-1.4417	-1.3333	-0.80208	-1.5771	-1.1	260.809	452.010	262.156	423.660	217.702	476.102	275.477	135.743	303.569	367.734	277.472	358.686	420.356	199.658	270.558	430.617	0.00035058	0.00036705	0.00010736	924.74	4.9412e-06	6.2342e-06	776.37	282.73	2.9929e-06	2.8806e-06	262.23	84.167	93.775	34.733	2.9246e-06	32.46	0.00053577	0.00067602	0.00018958	913.06	7.133e-06	7.6619e-06	763.41	279.61	6.9719e-06	7.397e-06	260.32	83.543	93.462	34.858	7.2187e-06	32.438	253.522	183.936	246.337	136.379	278.008	296.630	135.455	141.822	262.923	235.311	139.276	143.846	146.253	151.590	276.380	148.360	-8191	255	
1173.108	1	1	0	0	0.12646	0.16564	0.25076	0.13894	0.22115	0.36532	0.10397	0.23346	0.21629	0.23379	0.10605	0.22105	0.42105	0.26712	0.12057	0.16299	-0.63958	-1.5146	-0.7125	-1.4646	-1.1979	-0.64792	-1.5063	-1.1354	-0.69375	-1.7854	-0.81875	-1.3104	-1.2646	-0.75417	-1.5917	-1.0146	372.930	394.264	188.460	152.121	451.639	183.579	222.063	423.744	285.957	428.547	436.349	125.428	128.280	423.255	372.510	183.209	0.00036237	0.00043497	0.0001235	929.88	4.8712e-06	3.4484e-06	773.5	279.69	3.6309e-06	4.1728e-06	262.42	84.498	93.694	34.366	4.9153e-06	32.376	0.00056988	0.00069203	0.00018902	913.62	7.058e-06	7.5404e-06	764.85	278.31	7.1781e-06	7.3514e-06	260.42	83.747	93.227	34.672	7.1388e-06	32.415	249.864	193.239	194.884	136.431	279.304	252.691	135.519	141.675	287.179	258.785	139.730	143.855	145.915	151.968	285.289	148.414	-8191	255	
1173.181	1	1	0	0	0.27621	0.25494	0.13692	0.053373	0.10469	0.23741	0.12739	0.14238	0.21811	0.16722	0.13805	0.11792	0.28392	0.24152	0.2975	0.11811	-0.5	-1.6792	-0.58333	-1.4125	-1.55	-0.70833	-1.525	-1.2229	-0.89167	-1.5875	-1.1146	-1.1562	-1.825	-0.87708	-1.6125	-1.225	145.441	229.488	149.578	420.626	314.249	298.371	126.901	136.447	151.992	259.483	431.315	434.886	437.030	437.879	188.972	132.063	0.00035946	0.00039924	0.00014589	920.97	5.6057e-06	3.1395e-06	777.13	281.02	2.8032e-06	2.2249e-06	264.06	84.553	93.22	34.688	3.4402e-06	32.556	0.00055418	0.00068966	0.00019514	911.36	7.1994e-06	7.3419e-06	764.36	278.7	6.947e-06	7.5131e-06	260.89	83.585	93.195	34.799	6.9031e-06	32.519	249.616	201.449	196.539	136.464	291.689	265.729	135.492	141.490	274.242	226.288	139.080	143.690	146.286	151.510	336.710	148.056	-8191	255	
1173.278	1	1	0	0	0.16858	0.12793	0.21277	0.13332	0.16775	0.11671	0.11213	0.30033	0.11971	0.10359	0.069079	0.10026	0.30196	0.25576	0.24251	0.089793	-0.39792	-1.3979	-0.73542	-1.0542	-1.4583	-0.83958	-1.5958	-1.6	-0.7625	-1.5521	-1.1667	-0.95417	-1.6083	-0.56458	-1.4229	-1.4625	285.392	217.693	328.280	431.874	223.031	377.191	305.634	471.101	252.096	314.294	430.755	372.305	433.680	160.348	256.406	163.102	0.00037607	0.00034663	0.00012332	922.8	3.6734e-06	3.2195e-06	775.86	281.16	5.5373e-06	3.7422e-06	263.02	84.323	93.176	34.351	5.2459e-06	32.314	0.00055705	0.00065168	0.00018058	910.64	7.0259e-06	7.4856e-06	763.54	278.25	7.2155e-06	7.3479e-06	260.8	83.568	92.946	34.702	7.2169e-06	32.376	249.684	232.995	216.723	136.568	269.349	295.651	135.798	141.988	281.368	311.435	139.352	144.249	145.988	151.914	274.953	147.553	-8191	255	
1173.396	1	1	0	0	0.15012	0.30941	0.22014	0.23234	0.26254	0.10518	0.089063	0.045805	0.17947	0.11696	0.25737	0.33874	0.052833	0.28154	0.20623	0.30155	-0.44167	-1.5354	-1.1562	-1.0271	-1.6708	-0.82292	-1.4604	-1.4521	-0.78333	-1.4937	-1.0812	-0.90833	-1.7083	-0.82292	-1.2125	-1.6979	168.573	152.493	418.388	124.128	447.203	445.929	318.526	159.448	293.104	223.640	451.319	181.758	336.085	125.673	421.364	434.008	0.00039819	0.00040023	9.1455e-05	927.05	5.5385e-06	3.1726e-06	775.31	279.57	4.218e-06	3.1361e-06	262.65	84.071	93.26	34.371	3.1774e-06	32.366	0.00055372	0.00064489	0.00018568	912.59	6.8242e-06	7.1485e-06	761.73	277.87	7.2393e-06	7.1955e-06	259.39	83.144	92.86	34.691	6.9904e-06	32.416	254.955	239.565	211.167	136.466	271.576	282.291	135.534	141.784	280.462	251.640	139.539	144.070	146.386	151.418	296.406	148.407	-8191	255	
1173.493	1	1	0	0	0.022434	0.20758	0.07732	0.45452	0.16288	0.10607	0.11046	0.16549	0.13556	0.28933	0.13743	0.19644	0.13275	0.24292	0.13465	0.35777	-0.36875	-1.4896	-1.0729	-1.0375	-1.6125	-0.95	-1.4979	-1.475	-0.75625	-1.4729	-1.2771	-0.775	-1.7646	-1.0479	-0.94375	-1.6688	232.390	391.290	332.680	132.870	460.261	398.424	153.218	414.616	345.247	446.494	276.755	397.279	434.605	447.327	299.755	395.929	0.00037512	0.00036386	7.0356e-05	916.29	4.1042e-06	4.5416e-06	763.07	278.85	5.0739e-06	2.9215e-06	262.4	83.135	93.263	34.586	5.9594e-06	32.459	0.00054564	0.00065241	0.00018696	904.17	6.9038e-06	7.259e-06	754.1	277.01	6.9593e-06	6.9122e-06	258.5	82.898	92.801	34.776	6.9779e-06	32.411	249.217	235.659	264.680	136.519	276.344	290.346	135.691	141.451	292.038	267.490	139.295	144.262	146.483	151.596	258.767	147.799	-8191	255	
1173.589	1	1	0	0	0.13371	0.38891	0.3473	0.13348	0.12339	0.18214	0.13033	0.41077	0.20685	0.071819	0.17941	0.21942	0.36054	0.50526	0.1995	0.26229	-0.13333	-1.4542	-1.3146	-0.69167	-1.7229	-0.92917	-1.0604	-1.5208	-0.5	-1.4188	-1.3167	-0.68125	-1.4292	-1.0063	-0.69167	-1.6375	376.708	482.418	336.224	473.200	415.549	171.553	337.099	399.966	276.991	213.530	408.818	429.556	389.363	476.142	414.926	439.209	0.00039791	0.00039357	4.7047e-05	917.67	4.3108e-06	3.7314e-06	763.47	277.72	3.697e-06	3.764e-06	259.8	82.945	92.905	34.578	3.8533e-06	32.561	0.00055764	0.00065106	0.00019113	901.19	6.9806e-06	7.2166e-06	753.66	275.79	7.0334e-06	7.2477e-06	258.02	82.506	92.756	34.798	7.2585e-06	32.602	248.282	249.491	216.291	136.670	273.629	241.532	135.564	142.002	304.768	249.294	139.193	144.168	146.499	151.504	329.638	148.386	-8191	255	
1173.709	1	1	0	0	0.08062	0.17764	0.036736	0.18915	0.24152	0.42272	0.29903	0.26222	0.15179	0.051196	0.3123	0.18077	0.2056	0.088072	0.089086	0.039917	-0.29167	-1.2396	-1.4188	-0.825	-1.3229	-1.0625	-1	-1.6437	-0.8	-1.0729	-1.6063	-0.74375	-1.5083	-1.0917	-0.83125	-1.5604	311.829	339.167	311.019	417.063	419.627	419.143	436.087	380.451	208.469	427.814	391.878	478.488	324.854	172.046	381.581	390.306	0.00037735	0.00033837	0.00010976	913.83	4.2301e-06	3.095e-06	768.36	278.83	3.7658e-06	4.2412e-06	261.04	84.416	93.689	34.875	5.8129e-06	33.027	0.00056619	0.00068468	0.00018691	902.79	7.2265e-06	7.4544e-06	756.41	276.74	7.0009e-06	7.2181e-06	259.57	83.781	93.219	35.166	7.4147e-06	33.06	249.224	197.148	248.321	136.776	273.994	274.216	135.417	141.548	278.550	294.608	139.604	144.587	146.332	151.646	282.227	148.120	-8191	255	
1173.806	1	1	0	0	0.18334	0.20573	0.028373	0.10382	0.28858	0.17505	0.39803	0.25238	0.32781	0.19746	0.3105	0.13802	0.1113	0.16956	0.18254	0.097782	-0.375	-1.1688	-1.3146	-0.8875	-1.4229	-1.2833	-0.94167	-1.7417	-0.98333	-0.99375	-1.7292	-0.74167	-1.3667	-1.3438	-0.68125	-1.7229	456.287	328.117	142.580	439.570	205.294	159.548	366.812	467.346	483.648	371.341	447.674	379.239	378.479	473.259	298.969	137.596	0.00039345	0.00034566	8.0324e-05	917.87	3.2007e-06	2.8228e-06	771.03	281.6	3.3315e-06	2.5912e-06	265.35	84.502	94.731	35.152	5.139e-06	33.139	0.00055558	0.00069666	0.00018596	904.41	6.9641e-06	7.3999e-06	760.99	279.44	6.7813e-06	7.577e-06	262.15	84.2	94.228	35.391	7.341e-06	33.235	252.438	179.268	171.521	136.395	328.831	319.472	135.777	141.659	292.884	271.697	139.529	144.673	146.526	151.722	274.677	148.104	-8191	255	
1173.877	1	1	0	0	0.10672	0.22443	0.05274	0.12063	0.21689	0.089955	0.058544	0.21889	0.087151	0.19994	0.19095	0.18336	0.071725	0.11206	0.099472	0.19447	-0.55625	-0.98958	-1.3604	-0.62708	-1.3667	-1.2062	-0.80417	-1.6938	-1.125	-0.83542	-1.5167	-0.81875	-1.4583	-1.2542	-0.73958	-1.5771	232.504	171.191	430.125	149.262	186.779	357.064	136.146	153.909	236.795	200.031	153.489	415.492	415.041	134.188	465.665	408.589	0.00036597	0.00050248	0.00015336	922.77	4.1246e-06	4.3753e-06	782.74	282.36	4.1475e-06	1.3833e-06	264.16	84.656	94.691	35.23	4.1962e-06	33.366	0.00055101	0.00067849	0.00018667	910.46	7.1583e-06	7.3384e-06	765.59	280.06	6.8478e-06	7.4277e-06	262.23	84.339	94.187	35.485	7.2843e-06	33.192	247.094	214.550	212.015	136.598	269.344	250.806	135.698	142.109	260.941	238.550	138.979	144.160	146.552	151.823	273.002	148.213	-8191	255	
1173.998	1	1	0	0	0.081958	0.063954	0.2934	0.1282	0.15014	0.17555	0.25576	0.28128	0.26415	0.22863	0.070058	0.07696	0.15513	0.1524	0.24457	0.16031	-0.5875	-0.84583	-1.575	-0.86875	-1.1417	-1.475	-0.85625	-1.5833	-1.2458	-0.92917	-1.7354	-0.84792	-1.1458	-1.5875	-0.67083	-1.5125	131.772	275.568	435.090	478.662	167.120	421.392	297.969	463.957	377.653	284.089	322.972	160.267	189.669	476.401	211.558	374.325	0.00038831	0.00037232	8.007e-05	924.29	3.8209e-06	4.787e-06	772.98	281.85	2.4545e-06	3.294e-06	263.51	85.156	95.061	35.46	4.6479e-06	33.18	0.00055409	0.00067497	0.00018208	909.37	6.8856e-06	7.2415e-06	761.3	280.05	6.8341e-06	7.296e-06	261.63	84.421	94.413	35.573	7.2817e-06	33.316	251.660	233.499	246.134	136.790	273.844	254.393	135.819	141.870	287.300	240.805	139.632	144.204	146.857	151.743	283.404	148.166	-8191	255	
1174.092	1	1	0	0	0.13091	0.12482	0.12717	0.14288	0.043457	0.12238	0.121	0.25565	0.18048	0.082816	0.15981	0.19296	0.082982	0.1109	0.1189	0.14384	-0.7	-0.64167	-1.4292	-0.88958	-1.2125	-1.4854	-0.68333	-1.6396	-1.1521	-0.81667	-1.4813	-1.0333	-1.1104	-1.7188	-0.54792	-1.3729	241.155	189.430	174.183	234.123	366.327	423.122	174.718	363.736	392.800	330.644	340.157	153.083	135.186	265.899	276.332	458.574	0.0003492	0.00033898	0.00011101	921.15	6.2289e-06	3.656e-06	775.8	282.87	3.8196e-06	2.6777e-06	265.96	84.926	94.749	35.093	3.3169e-06	32.957	0.00053667	0.00066268	0.00018052	909.82	7.0552e-06	7.2754e-06	763.89	280	6.7464e-06	6.9695e-06	262.72	84.049	94.117	35.29	6.7654e-06	33.049	248.752	207.525	223.831	136.696	279.566	280.174	135.934	141.842	264.836	282.578	139.729	144.563	146.595	151.828	280.159	148.212	-8191	255	
1174.188	1	1	0	0	0.1598	0.11615	0.060668	0.1222	0.14126	0.12767	0.36465	0.11928	0.037735	0.11623	0.29944	0.068982	0.389	0.26546	0.21185	0.11107	-1.0479	-0.62708	-1.5396	-1.1979	-1.0208	-1.5187	-1.025	-1.4312	-1.2875	-0.69167	-1.5833	-0.85625	-1.0583	-1.5083	-0.88958	-1.2979	238.949	460.168	367.786	175.389	138.290	393.402	480.342	427.868	194.323	477.104	213.272	483.215	132.200	473.995	405.785	151.659	0.00038338	0.00054346	0.00011592	925.45	4.0891e-06	4.0507e-06	776.06	282.07	3.3746e-06	3.5121e-06	265.11	84.708	93.916	34.962	4.4571e-06	33.162	0.00054676	0.0006263	0.00017655	912.67	7.0273e-06	6.9356e-06	765.47	280.41	6.8806e-06	7.0876e-06	262.8	84.356	93.724	35.237	6.9219e-06	33.157	249.324	236.585	204.825	136.704	269.684	249.928	135.881	141.951	293.389	272.472	139.510	144.418	146.829	151.669	268.034	148.393	-8191	255	
1174.309	1	1	0	0	0.16535	0.28508	0.2398	0.16194	0.22174	0.16347	0.30586	0.30941	0.24346	0.17562	0.15951	0.1097	0.081754	0.19808	0.11857	0.16071	-1.0417	-0.75	-1.6417	-1.0604	-0.88125	-1.6604	-1.0583	-1.3917	-1.3583	-0.675	-1.5417	-1.1562	-0.79583	-1.7896	-1.0167	-0.96042	430.614	224.361	247.929	341.220	410.255	137.440	428.790	124.462	318.568	243.581	202.187	449.570	454.950	448.124	363.887	332.362	0.00038977	0.00024901	6.1755e-05	919.78	1.9077e-06	8.187e-07	777.76	281.26	2.4704e-06	1.5647e-06	262.44	84.644	93.725	35.145	4.2029e-06	33.023	0.00055005	0.00064639	0.00018037	910.49	7.1069e-06	6.8259e-06	765.49	279.6	6.9554e-06	6.9898e-06	261.26	84.078	93.495	35.181	6.9687e-06	33.037	255.056	217.154	195.100	136.671	247.733	177.957	135.683	142.257	269.573	275.000	139.721	144.634	146.830	151.900	266.181	148.486	-8191	255	
1174.405	1	1	0	0	0.30581	0.10556	0.30774	0.33594	0.18883	0.35536	0.32634	0.36946	0.18989	0.15991	0.19099	0.27233	0.076372	0.1494	0.18518	0.13061	-1.0521	-0.675	-1.525	-1.2292	-0.74167	-1.6354	-1.1521	-1.2708	-1.5521	-0.65	-1.3625	-1.0729	-0.79792	-1.6167	-1.0438	-0.96458	468.385	454.927	213.666	461.646	335.556	432.870	449.671	456.681	198.205	195.668	416.502	453.291	221.106	418.029	422.391	309.908	0.00035459	0.00024476	9.1396e-05	924.72	4.3517e-06	2.7871e-06	773.54	281.02	2.2674e-06	4.2206e-06	261.93	83.295	93.609	34.549	4.8755e-06	32.453	0.00052512	0.00063553	0.00017988	910.97	6.9909e-06	6.8792e-06	759.93	278.42	6.6296e-06	7.1643e-06	259.9	83.125	92.966	34.749	7.0858e-06	32.475	253.273	186.796	204.848	136.445	274.349	267.975	135.656	141.671	316.589	259.253	139.708	144.140	146.515	152.021	280.727	148.535	-8191	255	
1174.477	1	1	0	0	0.15214	0.1226	0.096593	0.2084	0.026035	0.10291	0.17798	0.10853	0.1807	0.18271	0.039024	0.26177	0.16539	0.13263	0.21444	0.48376	-1.2083	-0.69167	-1.2229	-1.5875	-0.79375	-1.475	-1.0812	-1.2104	-1.5354	-0.80208	-1.3896	-1.5458	-0.88958	-1.7792	-1.1646	-0.86042	218.089	459.833	293.687	443.643	274.551	369.025	442.797	455.931	175.074	190.382	433.427	404.527	219.767	156.633	272.743	438.639	0.00032934	0.00028243	0.00012139	918.88	4.9299e-06	3.0424e-06	766.02	278.41	5.343e-06	2.2662e-06	262	82.855	92.635	34.626	6.2943e-06	32.324	0.00050242	0.00062711	0.00017544	906.63	6.932e-06	6.9889e-06	756.42	277.23	6.5943e-06	6.8713e-06	258.8	82.698	92.497	34.684	7.0884e-06	32.364	251.440	166.719	229.135	136.666	270.773	284.409	135.565	141.904	299.042	278.010	139.992	144.122	146.546	152.258	258.432	148.358	-8191	255	
1174.573	1	1	0	0	0.24051	0.27777	0.17784	0.35606	0.045206	0.23617	0.054922	0.24521	0.095447	0.22226	0.15792	0.19602	0.039599	0.26941	0.08038	0.24678	-1.1771	-0.79583	-1.3208	-1.6854	-0.68958	-1.5271	-1.3	-0.86042	-1.5521	-0.86667	-1.2646	-1.5292	-0.83958	-1.5	-1.2104	-0.80625	136.502	148.420	289.722	390.246	170.200	230.197	426.816	205.652	406.419	348.279	275.089	413.935	481.468	129.985	404.782	134.976	0.00032507	0.00034061	0.00010616	919.82	3.7099e-06	4.9887e-06	774.73	281.07	3.9027e-06	1.2459e-06	260.4	83.901	93.587	34.752	3.2447e-06	32.533	0.00051697	0.00064775	0.00018657	906.57	6.741e-06	7.1294e-06	760.23	278.66	6.5635e-06	7.1659e-06	259.23	83.078	93.011	34.901	6.9307e-06	32.674	253.297	241.919	204.672	136.976	267.904	261.565	135.607	142.141	264.669	272.619	140.247	144.144	146.810	151.792	289.116	148.892	-8191	255	
1174.669	1	1	0	0	0.064831	0.35185	0.15391	0.2513	0.10156	0.43519	0.15624	0.15877	0.12727	0.11613	0.23093	0.13862	0.41192	0.092524	0.046377	0.15574	-1.2896	-0.7875	-1.0917	-1.625	-0.8375	-1.3312	-1.5229	-0.82708	-1.6667	-1.0417	-1.1208	-1.5333	-0.7875	-1.4896	-1.2062	-0.97917	442.885	232.800	154.853	469.747	298.225	156.579	476.217	416.352	144.020	418.956	371.140	388.949	474.804	454.763	450.125	135.122	0.00034258	0.0002432	0.00012766	924.45	5.4583e-06	4.3811e-06	774.05	281.91	4.7138e-06	1.7243e-06	266.16	84.776	94.357	34.944	4.1812e-06	33.035	0.000529	0.00063181	0.00018877	912.08	6.9088e-06	7.0594e-06	764.43	279.54	6.6827e-06	7.4507e-06	262.09	84.032	93.56	35.166	7.2563e-06	32.977	251.598	188.941	204.970	136.997	272.149	308.695	135.851	142.118	299.906	304.549	140.123	144.781	146.724	151.963	298.862	148.785	-8191	255	
1174.790	1	1	0	0	0.054295	0.10967	0.20185	0.27484	0.14318	0.094648	0.16417	0.35191	0.1105	0.082618	0.19859	0.12461	0.18625	0.18808	0.063715	0.36407	-1.2229	-1.0438	-0.94167	-1.5729	-0.77708	-1.55	-1.6396	-0.87083	-1.6688	-0.95625	-0.85208	-1.6542	-0.80833	-1.2958	-1.5042	-0.75	257.918	199.360	346.040	414.531	181.439	419.403	427.594	434.879	147.858	435.550	433.409	329.760	366.427	332.529	331.583	445.827	0.00038228	0.00034728	4.1401e-05	931.57	5.4149e-06	3.3427e-06	782.61	282.62	3.7602e-06	3.8271e-06	266.2	85.408	95.011	34.863	6.2629e-06	32.995	0.00054216	0.00066352	0.00018154	918.32	7.0152e-06	7.4065e-06	771.08	281.14	6.6929e-06	7.2925e-06	263.91	84.276	94.213	35.139	7.1874e-06	32.93	251.328	229.790	242.542	136.823	276.361	272.231	136.121	142.228	295.168	298.765	139.892	144.735	147.197	151.949	274.196	148.301	-8191	255	
1174.886	1	1	0	0	0.15728	0.19075	0.24511	0.098681	0.048268	0.1526	0.24395	0.10352	0.24756	0.19829	0.22084	0.14122	0.073497	0.31703	0.082622	0.25903	-1.075	-1.0688	-1.0208	-1.6833	-0.76458	-1.1437	-1.5958	-0.95208	-1.3542	-1.3042	-0.91667	-1.5833	-0.84167	-1.0812	-1.5542	-0.66875	174.574	351.224	234.793	410.065	386.190	299.312	414.789	341.023	309.984	309.605	462.939	256.832	379.257	408.832	313.386	348.778	0.00037155	0.0001659	0.00011348	937.92	4.4961e-06	4.4826e-06	783.45	284.17	4.8491e-06	3.6918e-06	265.51	84.799	94.239	34.981	5.4582e-06	32.968	0.00053319	0.00065224	0.0001831	921.43	6.9049e-06	7.3131e-06	770.09	281.62	6.9226e-06	7.1293e-06	262.79	84.145	93.957	35.191	7.3871e-06	32.899	254.548	213.661	250.066	136.705	274.784	246.858	135.832	142.030	275.530	301.024	139.897	144.735	146.399	152.092	291.315	148.657	-8191	255	
1174.982	1	1	0	0	0.23367	0.17573	0.11451	0.17455	0.24307	0.11765	0.28746	0.16964	0.14633	0.017664	0.12646	0.20067	0.25534	0.15882	0.20285	0.13027	-1.1042	-1.0625	-0.8125	-1.6375	-0.87292	-1.075	-1.6208	-0.71458	-1.3229	-1.175	-0.71458	-1.5125	-0.91875	-0.94792	-1.5583	-0.82292	288.576	400.837	393.116	409.989	192.550	174.451	385.661	411.011	340.090	303.724	432.596	175.360	417.223	400.141	219.234	434.650	0.00035578	0.00040716	6.2913e-05	930.29	5.4499e-06	4.5786e-06	784.53	284.04	4.9039e-06	3.5643e-06	265.53	85.183	94.232	34.881	4.2964e-06	32.938	0.00053464	0.00067142	0.00018343	917.33	7.0891e-06	7.4338e-06	768.71	281.29	7.0453e-06	7.4012e-06	262.9	84.38	93.987	35.163	6.9282e-06	32.911	256.092	209.683	237.244	136.843	293.876	277.939	136.175	141.880	261.593	271.535	139.906	144.543	146.569	152.001	272.199	148.478	-8191	255	
1175.078	1	1	0	0	0.18774	0.19408	0.19989	0.28351	0.17372	0.1391	0.15506	0.41053	0.0724	0.28609	0.11103	0.2271	0.14819	0.13223	0.16184	0.19264	-1.0792	-1.4083	-0.75	-1.6562	-0.93125	-0.92292	-1.6688	-0.86458	-1.3958	-1.4208	-0.88958	-1.6771	-1.0312	-1.1	-1.5333	-0.625	281.711	135.249	206.269	465.494	209.376	481.092	341.725	426.288	463.511	315.257	462.703	446.594	241.911	362.029	334.408	400.242	0.00036226	0.00033626	3.7901e-05	929.12	5.0655e-06	3.6531e-06	784.07	284.93	3.5018e-06	3.8928e-06	266.47	85.326	95.126	35.156	4.4513e-06	32.995	0.00052927	0.00064169	0.00017772	916.82	7.0484e-06	7.0442e-06	769.11	281.59	6.853e-06	7.22e-06	263.43	84.596	94.231	35.348	6.86e-06	32.931	254.298	207.124	195.816	136.900	297.989	263.152	136.230	142.215	301.060	247.595	140.093	144.769	146.641	152.337	291.407	148.365	-8191	255	
1175.174	1	1	0	0	0.12626	0.24121	0.13866	0.32194	0.078645	0.23539	0.15191	0.23956	0.090629	0.093685	0.10549	0.14869	0.13432	0.31528	0.20755	0.19382	-0.78542	-1.5333	-0.67917	-1.6354	-1.2229	-0.7625	-1.8125	-0.9625	-0.975	-1.4792	-0.68125	-1.5021	-1.1313	-0.95833	-1.6688	-1.0833	259.159	447.914	131.819	424.836	260.477	413.960	458.997	447.802	415.929	472.344	134.561	337.090	227.242	373.636	315.430	196.490	0.00033735	0.00052164	7.1437e-05	930.32	5.3229e-06	3.3986e-06	782.71	283.74	2.4704e-06	3.4187e-06	268.22	85.894	94.625	35.224	4.4737e-06	33.09	0.00055768	0.00062697	0.0001769	917.99	6.7393e-06	6.8138e-06	769.37	281.7	6.6621e-06	6.7606e-06	265.18	84.869	94.175	35.354	6.4891e-06	33.171	253.949	217.285	209.764	137.139	278.972	259.452	136.081	142.029	313.405	265.083	140.106	144.801	146.795	152.273	263.332	148.593	-8191	255	
1175.271	1	1	0	0	0.20396	0.16806	0.16178	0.37894	0.11362	0.36674	0.27914	0.34354	0.3195	0.0058473	0.17769	0.10054	0.16179	0.13386	0.31436	0.14271	-0.70417	-1.5979	-0.71042	-1.5354	-1.3792	-0.76667	-1.7667	-1.2396	-0.90625	-1.5521	-0.97292	-1.3375	-1.5354	-0.79583	-1.7437	-1.1583	427.509	269.137	173.779	482.244	365.962	335.110	382.447	417.412	275.696	476.408	468.749	443.657	450.336	394.237	207.339	157.700	0.00038212	0.00025065	0.0001218	935.08	4.9848e-06	2.8919e-06	785.12	283.32	2.0274e-06	5.5145e-06	265.93	85.375	94.941	35.213	3.1719e-06	33.024	0.00054185	0.00061739	0.00017526	919.33	6.7068e-06	6.929e-06	770.33	281.13	6.666e-06	6.8904e-06	263.73	84.636	94.209	35.314	6.835e-06	33.042	251.519	173.918	216.507	137.212	286.232	275.722	136.120	142.013	251.171	249.120	140.231	144.869	146.874	152.473	253.942	148.853	-8191	255	
1175.389	1	1	0	0	0.036588	0.20369	0.092584	0.16813	0.14852	0.27111	0.21386	0.39462	0.29105	0.14062	0.26901	0.13358	0.31134	0.085327	0.28678	0.037071	-0.59583	-1.6271	-0.8125	-1.5333	-1.375	-0.82292	-1.5646	-1.1938	-0.9125	-1.5146	-0.83125	-1.1104	-1.4188	-0.92917	-1.5479	-1.2375	391.307	462.794	330.796	299.443	231.428	262.623	437.955	164.770	369.353	471.064	386.539	269.580	439.407	466.471	319.103	143.834	0.00042229	0.00046707	0.00010298	934.16	4.7968e-06	4.2049e-06	778.2	282.66	4.5046e-06	1.8447e-06	265.86	84.63	94.558	35.006	3.9061e-06	33.051	0.00054072	0.00058728	0.00017277	918.72	6.6489e-06	6.4542e-06	765.6	281.1	6.4835e-06	6.4162e-06	262.25	84.206	94.033	35.225	6.6144e-06	32.897	248.588	208.769	152.031	137.488	309.466	256.471	135.938	142.267	280.717	301.576	140.045	144.618	147.154	152.170	289.837	148.678	-8191	255	
1175.486	1	1	0	0	0.12549	0.26119	0.22304	0.27559	0.17468	0.21353	0.21893	0.24764	0.24204	0.28833	0.077797	0.13579	0.27083	0.21161	0.16337	0.051251	-0.49375	-1.6313	-0.76875	-1.1979	-1.4396	-0.68542	-1.6187	-1.2313	-0.42917	-1.4979	-1	-1.0375	-1.5604	-0.825	-1.5104	-1.3042	340.531	380.153	153.095	410.734	288.873	182.152	463.777	418.751	469.565	352.784	174.399	415.741	389.579	374.149	280.950	422.154	0.00035718	9.2836e-05	0.00010475	931.71	3.7183e-06	4.3284e-06	779.72	283.2	5.4989e-06	4.3705e-06	263.71	84.495	94.264	35.191	6.3257e-06	33.198	0.00051279	0.00057186	0.00016935	915.1	6.5204e-06	6.841e-06	764.91	281.2	6.4482e-06	6.4964e-06	261.84	84.151	93.976	35.345	6.6011e-06	33.075	254.441	325.877	226.443	136.728	320.025	309.906	135.874	142.271	282.001	296.051	140.137	144.551	146.776	152.227	299.846	148.455	-8191	255	
1175.582	1	1	0	0	0.23996	0.17714	0.0674	0.24191	0.067565	0.27436	0.17697	0.12954	0.20784	0.27832	0.24037	0.077691	0.33602	0.12782	0.13458	0.01695	-0.325	-1.4562	-0.96042	-1.0521	-1.4625	-0.68333	-1.5271	-1.5458	-0.90625	-1.4854	-1.1604	-1.1521	-1.75	-0.77083	-1.1562	-1.4854	202.948	422.560	355.632	125.805	448.849	335.150	413.506	368.713	222.779	395.053	464.508	306.068	470.524	478.081	458.291	461.872	0.00036135	0.0005535	0.00013497	925.96	7.8977e-06	2.3756e-06	776.2	284.54	2.8884e-06	2.742e-06	267.6	85.057	95.023	35.444	4.0698e-06	33.306	0.00050971	0.00061945	0.00016924	913.92	6.4012e-06	6.8274e-06	764.71	281.72	6.4677e-06	6.7193e-06	263.88	84.51	94.52	35.554	6.6902e-06	33.301	255.617	224.558	186.834	137.129	287.076	285.941	136.173	142.329	294.397	257.594	139.941	144.517	147.088	152.629	267.111	148.717	-8191	255	
1175.678	1	1	0	0	0.099341	0.23573	0.087009	0.06054	0.095398	0.16052	0.2328	0.25522	0.22024	0.13217	0.30382	0.093725	0.52762	0.12748	0.36857	0.22242	-0.39167	-1.3396	-1.075	-1.1583	-1.5604	-0.85625	-1.2563	-1.5208	-0.68958	-1.4896	-1.0625	-0.93542	-1.7875	-0.83125	-1.0417	-1.5312	129.827	373.613	367.988	150.719	155.232	373.628	219.722	456.837	181.315	201.973	179.706	386.357	128.374	200.874	409.355	468.615	0.00037821	0.00039911	0.00014602	934.88	6.9058e-06	3.7631e-06	785.92	284.91	4.3016e-06	3.9871e-06	268.38	85.365	96.038	35.603	3.6861e-06	33.331	0.00052529	0.00059887	0.00017933	920	6.6447e-06	6.9341e-06	773.12	282.71	6.6548e-06	6.6371e-06	266.55	85.216	95.299	35.696	6.723e-06	33.422	252.746	203.556	188.929	137.166	279.444	233.729	136.367	142.388	292.262	267.485	140.071	144.901	147.312	152.476	325.721	148.704	-8191	255	
1175.774	1	1	0	0	0.14719	0.26725	0.25056	0.30846	0.056137	0.24088	0.26134	0.2084	0.40678	0.30762	0.089577	0.12854	0.41164	0.33229	0.17441	0.049136	-0.45208	-1.3479	-1.275	-0.70208	-1.625	-1.1063	-1.2146	-1.6146	-0.69583	-1.3687	-1.2125	-0.55	-1.7021	-1.1625	-1.0104	-1.5979	142.052	468.577	379.942	455.372	341.345	202.950	139.793	443.057	377.080	170.083	426.244	385.687	479.467	134.520	294.704	410.261	0.00038022	0.00017837	5.4944e-05	941.62	5.1388e-06	3.0556e-06	790.83	287.15	4.7875e-06	4.0728e-06	268.6	86.218	96.475	35.56	3.6423e-06	33.617	0.00053292	0.00060897	0.00017329	927.79	6.3744e-06	7.0812e-06	778.64	285.4	6.6925e-06	6.816e-06	266.89	85.589	95.544	35.68	6.7388e-06	33.395	250.580	175.260	190.589	137.262	279.445	297.222	136.210	142.123	280.545	301.133	139.648	144.711	146.585	151.983	258.295	148.550	-8191	255	
1175.870	1	1	0	0	0.24326	0.20327	0.17089	0.051855	0.11218	0.15913	0.088023	0.033016	0.12054	0.10636	0.24964	0.17807	0.087453	0.34003	0.19593	0.26486	-0.20625	-1.4333	-1.1313	-0.88125	-1.6167	-0.82292	-1.0625	-1.6208	-0.75833	-1.3896	-1.4917	-0.77917	-1.4292	-1.0562	-0.90208	-1.5896	357.630	209.263	291.223	237.524	313.070	173.405	477.281	191.078	197.076	406.428	369.663	168.926	394.035	192.033	287.847	468.949	0.00036286	0.00036275	8.0243e-05	939.89	1.5762e-06	4.4116e-06	790.81	288.7	2.9859e-06	3.6992e-06	268.37	85.848	96.065	35.52	2.9934e-06	33.394	0.00053973	0.00062519	0.0001748	927.3	6.5586e-06	6.8916e-06	778.57	285.69	6.6467e-06	6.7521e-06	266.61	85.427	95.647	35.731	6.5864e-06	33.452	251.821	195.784	202.722	136.989	322.480	245.611	135.864	141.996	284.576	264.351	139.965	144.767	147.014	151.768	279.663	148.585	-8191	255	
1175.966	1	1	0	0	0.027186	0.080398	0.034618	0.37852	0.26314	0.19546	0.18979	0.095384	0.078117	0.10452	0.18704	0.11862	0.24224	0.36474	0.17872	0.32664	-0.34167	-1.4854	-1.5271	-0.7375	-1.5396	-0.93125	-1.2208	-1.8208	-0.88958	-1.2021	-1.5875	-0.68333	-1.6021	-1.1854	-0.70833	-1.5208	427.355	274.258	318.360	451.073	337.173	449.768	416.612	180.072	307.945	318.230	477.945	173.953	390.542	476.518	443.852	459.277	0.00037357	0.00019188	0.00010645	938.7	3.752e-06	1.958e-06	792.76	289.5	3.6854e-06	3.6723e-06	269.57	85.747	95.92	35.738	7.0356e-06	33.628	0.00053902	0.00062979	0.00016286	926.43	6.4772e-06	6.9045e-06	777.91	285.95	6.8736e-06	6.9286e-06	267.03	85.622	95.692	35.783	6.7624e-06	33.522	252.904	221.368	180.130	136.792	318.488	343.682	135.955	141.995	289.873	251.555	139.686	144.356	146.763	152.116	271.224	148.364	-8191	255	
1176.085	1	1	0	0	0.27062	0.21609	0.17832	0.037477	0.15196	0.16535	0.084572	0.14432	0.34049	0.09754	0.12591	0.082276	0.23864	0.024146	0.10661	0.31495	-0.35208	-1.1021	-1.5312	-0.83125	-1.5562	-1.3479	-0.87708	-1.8333	-0.93125	-1.2062	-1.6958	-0.83958	-1.6146	-1.4083	-0.86875	-1.5604	169.457	410.210	194.684	348.703	378.756	391.758	471.444	482.419	336.741	466.403	339.835	197.848	214.465	372.246	370.679	380.810	0.00036483	0.00034007	0.00012533	941.24	4.5826e-06	3.7264e-06	790.4	287.99	4.9374e-06	5.8897e-06	268.94	86.873	95.86	35.801	4.0523e-06	33.715	0.0005368	0.00063104	0.00017027	928.89	6.6857e-06	6.9411e-06	780.16	285.49	6.8666e-06	6.9843e-06	267.3	85.914	95.507	35.868	6.8324e-06	33.585	251.822	224.184	189.336	137.006	256.929	234.923	136.128	142.573	278.258	231.342	139.877	144.239	146.841	152.131	273.106	148.272	-8191	255	
1176.181	1	1	0	0	0.1225	0.15361	0.13067	0.25845	0.17781	0.049953	0.093827	0.37185	0.063421	0.04449	0.12279	0.20329	0.099047	0.18542	0.16718	0.37257	-0.69792	-0.94583	-1.6063	-0.90833	-1.3708	-1.5583	-0.85625	-1.7104	-1.0333	-1.1104	-1.6292	-1.0417	-1.4604	-1.3687	-0.69375	-1.6958	340.169	327.621	379.113	154.038	419.708	307.119	136.809	461.237	379.401	470.154	418.813	324.265	460.600	397.658	167.281	411.376	0.00036766	0.00041939	0.00011153	942.86	6.1779e-06	3.4415e-06	790.32	288.03	5.8709e-06	4.2375e-06	270.83	86.177	95.8	35.585	4.7236e-06	33.52	0.00054332	0.00061214	0.0001728	928.48	6.7182e-06	6.892e-06	777.79	285.68	6.8701e-06	6.7197e-06	267.22	85.802	95.522	35.711	6.9201e-06	33.534	253.445	149.306	188.477	136.961	276.760	271.109	135.838	142.611	279.519	326.046	139.680	144.596	146.782	152.182	285.119	148.724	-8191	255	
1176.277	1	1	0	0	0.039959	0.079881	0.23161	0.26605	0.13547	0.17164	0.16669	0.21564	0.12009	0.094105	0.090937	0.22793	0.13203	0.20514	0.29707	0.33291	-0.73333	-1.0542	-1.5792	-0.825	-1.1083	-1.4708	-0.78333	-1.7	-1.0292	-0.92708	-1.5021	-0.9875	-1.2188	-1.4813	-0.8	-1.6667	466.530	392.154	156.991	182.633	364.361	292.658	424.814	399.225	221.065	480.385	183.141	188.489	218.189	430.758	156.527	449.990	0.00037936	0.00049307	5.4763e-05	941.7	4.1424e-06	3.0647e-06	793.39	287.6	5.3998e-06	4.4366e-06	269.12	85.686	95.534	35.12	2.6419e-06	33.195	0.00054189	0.00062857	0.00017014	928.37	6.7457e-06	6.4662e-06	776.64	284.54	6.573e-06	6.8066e-06	265.86	85.141	94.917	35.415	6.9617e-06	33.186	253.077	187.508	204.838	136.957	266.409	240.628	136.192	142.056	267.783	278.005	139.452	144.399	146.976	151.994	294.846	148.181	-8191	255	
1176.351	1	1	0	0	0.13166	0.25524	0.10427	0.28468	0.0075636	0.24367	0.2057	0.17547	0.20421	0.097838	0.17009	0.38743	0.28882	0.12537	0.054379	0.085327	-0.72083	-0.66875	-1.6375	-1.2271	-1.0479	-1.6021	-0.78958	-1.5958	-1.2896	-0.75833	-1.6854	-0.97292	-0.91667	-1.5271	-0.64583	-1.3333	154.474	427.547	146.535	458.956	433.448	412.289	391.270	449.425	269.635	439.332	420.666	464.884	227.190	360.702	418.712	143.221	0.00037093	0.00036582	7.873e-05	933.74	5.1374e-06	5.3202e-06	782.1	285.28	4.8841e-06	4.8671e-06	266.01	84.558	95.53	35.334	5.3555e-06	33.129	0.00051835	0.00061367	0.00016626	921.07	6.4787e-06	6.706e-06	770.55	282.59	6.445e-06	6.9594e-06	264.53	84.194	94.741	35.434	6.8854e-06	33.034	250.489	252.642	220.880	137.218	300.878	272.019	135.924	142.400	290.703	283.801	140.153	144.876	146.855	152.189	251.395	148.713	-8191	255	
1176.470	1	1	0	0	0.068946	0.22779	0.29147	0.34205	0.21266	0.19468	0.1934	0.40178	0.31203	0.29526	0.077955	0.047504	0.35464	0.16746	0.34575	0.24873	-0.92292	-0.79375	-1.4813	-1.0604	-0.94583	-1.7396	-0.8625	-1.5125	-1.3375	-0.82083	-1.6437	-1.2896	-0.80625	-1.9729	-0.75	-1.3104	166.129	451.705	386.226	128.647	456.303	430.818	449.316	124.865	445.711	257.639	474.371	212.225	138.245	128.719	135.890	206.995	0.00037464	0.00021382	0.0001118	927.84	4.1153e-06	2.0259e-06	778.06	284.65	3.4553e-06	4.8327e-06	266.92	84.833	94.991	35.257	4.7074e-06	33.259	0.00051357	0.00062965	0.00017187	917.64	6.695e-06	6.8235e-06	767.15	282.29	6.4786e-06	7.0677e-06	263.45	84.251	94.574	35.381	6.8799e-06	33.21	252.150	193.674	217.719	136.933	260.117	216.547	136.246	142.341	280.994	283.794	139.969	144.462	146.851	151.995	297.549	148.910	-8191	255	
1176.566	1	1	0	0	0.23	0.13366	0.11251	0.11427	0.29382	0.42643	0.188	0.27893	0.45377	0.25172	0.059612	0.2498	0.18494	0.31333	0.27444	0.12834	-1.1667	-0.73958	-1.45	-1.1292	-0.72292	-1.6333	-1.225	-1.2625	-1.4146	-0.76875	-1.5542	-1.2083	-0.79583	-1.8146	-1.0229	-1.0521	462.191	125.254	241.407	459.458	482.393	426.330	449.915	474.391	204.545	446.778	298.549	450.903	439.332	436.712	463.407	172.556	0.00039745	0.00052899	0.00016085	925.26	4.9529e-06	4.7365e-06	779.16	284.6	4.7819e-06	3.2507e-06	266.02	84.868	95.307	35.52	3.6134e-06	33.44	0.0005217	0.00064563	0.00017637	913.06	6.6836e-06	6.7005e-06	767.69	282.31	6.5443e-06	7.0143e-06	263.65	84.811	94.812	35.683	7.0162e-06	33.403	250.646	217.125	188.943	137.026	283.130	264.130	136.060	142.566	275.848	245.887	140.422	144.947	147.123	152.318	253.864	148.715	-8191	255	
1176.662	1	1	0	0	0.12029	0.12456	0.26252	0.2892	0.1435	0.18581	0.082481	0.074455	0.23941	0.067867	0.077776	0.19531	0.15948	0.088026	0.22676	0.13937	-1.0542	-0.75625	-1.2687	-1.3563	-0.90833	-1.6354	-1.1083	-1.2042	-1.6667	-0.71667	-1.475	-1.5583	-0.925	-1.6625	-0.84375	-0.94792	233.065	251.021	464.790	456.456	362.306	362.434	394.393	364.015	258.918	384.832	362.916	358.467	376.460	282.286	460.161	391.506	0.00038272	0.00047007	0.00011793	927.44	3.776e-06	3.4153e-06	786.57	285.44	3.4961e-06	4.1645e-06	268.72	85.706	96.025	35.598	4.8673e-06	33.503	0.00053441	0.000631	0.00018449	915.86	7.0041e-06	6.9893e-06	771.69	282.49	6.7072e-06	7.1164e-06	265.65	85.267	95.538	35.741	7.2025e-06	33.543	249.020	227.752	207.901	136.956	277.823	283.543	136.073	142.499	254.719	304.001	140.437	144.735	147.006	152.614	278.549	148.818	-8191	255	
1176.758	1	1	0	0	0.21842	0.21335	0.12614	0.094305	0.18673	0.27767	0.18742	0.43028	0.028078	0.097638	0.24223	0.1077	0.22655	0.062284	0.20493	0.21795	-1.1167	-0.8	-1.2042	-1.2396	-0.7625	-1.6167	-1.2583	-1.0354	-1.6625	-0.725	-1.1958	-1.3188	-0.7375	-1.65	-0.92917	-0.72917	275.475	302.494	466.262	408.622	373.066	381.012	411.235	467.777	253.844	132.872	479.110	379.827	427.333	445.146	407.721	288.115	0.00037777	0.00022838	0.00014362	930.27	4.0708e-06	2.8539e-06	787.09	286.6	5.598e-06	3.8134e-06	268.83	85.44	95.262	35.651	3.1737e-06	33.829	0.00053621	0.00065269	0.00017546	918.06	6.7396e-06	6.7188e-06	771.7	284.4	6.7271e-06	7.1086e-06	265.75	84.912	95.063	35.802	6.733e-06	33.462	250.454	244.094	199.167	137.076	301.810	291.858	135.965	142.535	286.066	321.479	140.101	144.677	147.056	152.219	280.163	148.693	-8191	255	
1176.879	1	1	0	0	0.45562	0.32513	0.3147	0.3171	0.087615	0.14904	0.069003	0.25243	0.068302	0.1852	0.14486	0.17068	0.26805	0.057229	0.19193	0.27312	-1.3146	-0.89375	-1.2354	-1.4917	-0.79583	-1.4438	-1.5229	-1.0958	-1.7812	-0.86875	-1.2854	-1.6208	-0.9	-1.4562	-1.3604	-0.87292	390.386	481.491	460.861	430.412	230.133	336.798	466.325	439.197	378.442	333.663	192.793	232.437	478.179	227.341	331.763	350.255	0.00037063	0.0006481	0.00018499	933.51	5.8563e-06	3.4416e-06	784.73	286.98	3.5807e-06	2.2712e-06	268.44	86.417	96.044	35.718	6.7418e-06	33.209	0.00052206	0.00062867	0.00016983	919.65	6.5733e-06	6.8418e-06	771.92	284.03	6.2422e-06	6.8222e-06	265.53	85.349	95.483	35.755	6.6608e-06	33.322	248.764	228.521	210.367	136.987	269.466	294.546	135.741	142.434	284.964	291.858	140.046	144.573	147.015	152.131	277.158	148.829	-8191	255	
1176.975	1	1	0	0	0.24468	0.089139	0.19966	0.2434	0.17751	0.036488	0.19779	0.35246	0.24394	0.36769	0.14583	0.21187	0.2336	0.15937	0.14246	0.32652	-1.1875	-0.88125	-0.85833	-1.6479	-0.70208	-1.3896	-1.3	-0.82083	-1.6146	-0.9375	-0.99375	-1.7417	-0.79167	-1.3312	-1.1958	-0.7875	161.920	156.340	213.492	473.377	134.534	162.151	352.671	133.102	416.322	336.741	468.007	422.352	466.158	133.458	423.752	472.951	0.0003614	0.00022229	0.00013239	938.75	6.3186e-06	2.9501e-06	787.6	287.64	2.9656e-06	3.0906e-06	268.39	86.385	96.231	35.854	3.7523e-06	33.645	0.00050598	0.00059919	0.0001736	922.59	6.6022e-06	6.7021e-06	774.01	285.17	6.402e-06	6.7758e-06	266.42	85.636	95.724	35.933	6.7072e-06	33.656	251.812	195.352	211.018	137.081	278.388	335.266	135.904	142.562	287.456	273.906	139.940	144.837	147.301	152.425	261.965	148.320	-8191	255	
1177.071	1	1	0	0	0.26763	0.24869	0.13466	0.086243	0.19349	0.22829	0.1578	0.16798	0.2306	0.24095	0.14229	0.27206	0.29265	0.35311	0.053392	0.20859	-1.1187	-1.1417	-0.96667	-1.8146	-0.95417	-1.2938	-1.6396	-0.975	-1.5583	-1.0312	-1.1542	-1.4542	-0.99792	-1.3083	-1.5187	-1.0583	417.857	168.716	407.735	469.535	387.869	448.638	401.833	131.631	349.649	277.867	473.612	431.049	442.152	410.111	153.639	421.060	0.00035668	0.00032719	7.2152e-05	945.12	5.2323e-06	1.9967e-06	792.12	287.6	4.2189e-06	2.1661e-06	270.44	87.501	96.197	35.869	6.423e-06	33.629	0.00054126	0.0006255	0.0001697	928.44	6.7821e-06	6.8959e-06	778.96	285.95	6.8264e-06	6.5919e-06	267.94	86.08	95.766	35.951	6.6328e-06	33.62	249.862	237.027	180.355	136.994	292.364	290.271	135.860	142.088	289.938	240.031	140.044	144.716	147.058	152.504	283.138	148.503	-8191	255	
1177.166	1	1	0	0	0.039956	0.20521	0.31286	0.19297	0.17814	0.15322	0.13281	0.21418	0.13129	0.30781	0.11395	0.20967	0.26172	0.22123	0.24656	0.20683	-1.2062	-1.2417	-0.68125	-1.7521	-0.77917	-1.2062	-1.7437	-0.91458	-1.35	-1.3958	-1.0792	-1.5833	-1.0521	-1.15	-1.6812	-0.95833	395.372	432.752	172.146	425.640	173.490	125.635	369.287	432.267	278.054	256.422	460.767	155.025	462.956	390.722	398.689	199.518	0.0003684	0.00044523	0.00012814	943.56	5.1691e-06	2.3699e-06	793.48	287.34	4.9211e-06	3.8647e-06	270.38	86.603	96.064	35.511	4.9809e-06	33.68	0.00053179	0.00062133	0.00018099	929.74	6.5829e-06	6.7698e-06	781.32	285.43	6.6079e-06	6.6562e-06	267.73	86.061	95.578	35.703	6.888e-06	33.571	252.340	171.410	190.488	136.976	301.932	257.360	136.083	142.451	270.491	297.541	139.978	144.629	146.861	152.623	258.469	148.532	-8191	255	
1177.262	1	1	0	0	0.099078	0.25844	0.30287	0.079236	0.32951	0.10071	0.073279	0.37153	0.1293	0.27147	0.071588	0.31469	0.11135	0.15886	0.11135	0.20728	-1.1854	-1.5208	-0.74167	-1.6771	-0.69167	-1.1521	-1.6667	-0.7	-1.4042	-1.5646	-0.73958	-1.7354	-1.0375	-1.0354	-1.6562	-0.97708	467.698	234.954	237.274	340.212	189.228	460.827	368.472	453.420	283.571	394.586	445.619	174.034	440.546	480.835	433.500	126.645	0.00037287	0.00017971	0.00012579	942.15	2.5744e-06	4.6179e-06	795.54	288.86	3.7247e-06	3.8411e-06	267.6	85.83	95.567	35.194	5.9855e-06	33.081	0.00053114	0.00061168	0.00018612	927.6	6.4947e-06	7.1368e-06	780.25	285.47	6.645e-06	6.8195e-06	265.21	85.297	95.096	35.483	6.8416e-06	33.107	248.795	188.250	196.090	137.118	274.533	255.392	136.448	142.362	294.248	270.505	139.830	144.623	146.781	152.408	285.983	148.484	-8191	255	
1177.360	1	1	0	0	0.085881	0.097883	0.24445	0.15573	0.12559	0.06497	0.30517	0.13726	0.24078	0.089163	0.17281	0.12243	0.15751	0.16987	0.1808	0.14797	-1.0292	-1.3979	-0.79583	-1.8729	-0.93958	-1.1771	-1.7208	-0.75	-1.3208	-1.5	-0.71667	-1.5979	-1.1875	-0.9875	-1.5875	-0.89375	371.507	267.108	347.412	375.106	146.938	167.899	385.324	379.073	205.424	330.186	417.439	147.150	434.882	350.784	452.220	468.723	0.00035737	0.00024447	0.0001082	938.86	3.8384e-06	4.6146e-06	785.99	286.14	4.6964e-06	2.941e-06	269.18	85.127	95.114	35.353	2.7613e-06	32.927	0.00051942	0.00061656	0.0001781	923.78	6.5836e-06	6.892e-06	773.71	283.48	6.6639e-06	6.6344e-06	264.95	84.701	94.701	35.396	6.7827e-06	32.961	251.099	232.800	223.237	137.391	262.658	295.806	136.288	142.406	298.877	252.173	140.253	144.676	147.026	152.243	285.312	148.784	-8191	255	
1177.479	1	1	0	0	0.22327	0.24451	0.22021	0.28945	0.35861	0.16949	0.22216	0.15738	0.080278	0.05395	0.11517	0.26541	0.45352	0.02486	0.28311	0.20261	-0.73333	-1.6354	-0.70625	-1.7687	-1.0396	-0.96458	-1.6292	-0.86667	-0.82917	-1.6417	-0.79583	-1.525	-1.2292	-0.88542	-1.4521	-0.99375	266.239	135.570	130.487	427.314	363.146	195.307	139.517	358.346	323.948	228.780	149.088	392.776	420.365	411.323	399.902	375.678	0.00037475	0.00035113	0.00012194	934.27	3.9885e-06	3.5033e-06	785.7	285.44	3.1087e-06	4.9539e-06	269.71	85.61	95.614	35.463	3.5733e-06	33.252	0.00052416	0.00060228	0.00017075	921.22	6.4494e-06	6.8893e-06	771.65	283.12	6.5324e-06	6.8479e-06	266.05	84.839	94.86	35.506	6.8287e-06	33.128	253.712	242.311	215.456	137.246	291.611	270.400	136.077	142.392	296.687	260.794	140.253	145.037	147.024	152.450	273.563	148.646	-8191	255	
1177.575	1	1	0	0	0.22196	0.24537	0.077776	0.54811	0.07759	0.015522	0.12416	0.13201	0.044986	0.093918	0.19066	0.15317	0.11475	0.43398	0.22043	0.093847	-0.60417	-1.55	-0.88125	-1.5833	-1.175	-0.73125	-1.8042	-1.2542	-1.05	-1.6729	-0.91042	-1.3083	-1.425	-0.91458	-1.7062	-1.1729	416.885	401.229	475.932	131.634	374.106	338.604	423.438	246.387	475.472	418.747	467.823	441.606	234.006	438.970	363.560	308.718	0.00035138	0.0003231	0.00012064	940.28	4.0291e-06	4.6981e-06	786.7	288.12	3.0794e-06	1.5919e-06	270.26	86.019	96.314	35.576	4.7535e-06	33.499	0.00051344	0.00059208	0.00017038	924.76	6.5775e-06	6.7266e-06	775.09	285.22	6.7694e-06	6.8865e-06	266.89	85.62	95.555	35.805	6.4118e-06	33.491	251.058	219.595	200.114	137.399	309.715	315.964	136.087	142.136	301.781	296.885	139.932	144.932	147.201	152.263	277.304	148.525	-8191	255	
1177.646	1	1	0	0	0.096882	0.14722	0.19386	0.16478	0.15464	0.095721	0.14346	0.26442	0.048167	0.12054	0.22754	0.27741	0.48676	0.076447	0.12281	0.14613	-0.61667	-1.6688	-0.875	-1.3083	-1.5063	-0.63958	-1.6812	-1.1583	-0.85208	-1.5229	-1.0542	-1.2313	-1.575	-0.82917	-1.4729	-1.2437	336.353	192.118	483.412	437.043	163.079	419.947	369.968	433.650	400.946	266.611	183.604	428.253	465.961	463.267	336.689	335.040	0.00039556	0.00042059	0.00011811	941.31	4.0228e-06	3.7954e-06	797.78	289.31	4.5316e-06	3.138e-06	271.54	87.312	96.832	35.851	6.135e-06	33.83	0.00054183	0.00060535	0.00017245	928.88	6.2513e-06	6.706e-06	782.3	286.7	6.4758e-06	6.6952e-06	268.66	86.14	96.209	36.005	6.6475e-06	33.703	252.673	214.074	211.331	137.402	261.896	290.782	136.382	142.538	286.340	269.432	140.069	145.291	147.116	152.093	293.897	148.465	-8191	255	
1177.767	1	1	0	0	0.29263	0.044932	0.024887	0.39071	0.13291	0.35544	0.16655	0.41535	0.18434	0.28165	0.20221	0.3955	0.3384	0.15183	0.28465	0.1618	-0.40417	-1.7229	-0.74792	-1.3896	-1.6854	-0.81458	-1.6271	-1.5958	-0.75625	-1.6146	-1.0667	-1.1292	-1.5625	-0.82917	-1.375	-1.3542	422.559	252.607	279.346	422.245	393.558	172.467	445.636	450.118	336.098	428.946	124.844	451.134	191.551	306.144	380.972	359.312	0.00036161	0.00024951	0.000123	948.81	3.2564e-06	3.9615e-06	798.6	289.87	2.5438e-06	2.0541e-06	271.34	87.171	96.926	35.626	4.5762e-06	33.539	0.00053045	0.00058223	0.00016637	934.39	6.338e-06	6.7698e-06	782.3	287.75	6.7334e-06	6.6675e-06	269	86.072	96.303	35.869	6.2958e-06	33.489	250.633	191.518	230.724	137.416	304.716	289.681	136.232	142.396	294.908	257.393	140.282	145.097	147.282	152.608	289.952	148.627	-8191	255	
1177.863	1	1	0	0	0.11411	0.20584	0.080094	0.26806	0.16707	0.08686	0.072267	0.22752	0.15089	0.19974	0.42554	0.071648	0.098132	0.12667	0.15564	0.17038	-0.50625	-1.6	-1.1083	-1.0396	-1.5479	-0.825	-1.3708	-1.4542	-0.76875	-1.6625	-1.1562	-1.0063	-1.6667	-0.8	-1.2333	-1.5938	322.409	227.794	444.691	379.334	340.800	274.187	279.859	385.587	417.630	391.991	174.914	395.187	372.420	434.197	269.005	139.108	0.0003468	0.00050969	8.335e-05	953.81	4.3235e-06	4.5339e-06	799.19	290.7	4.1032e-06	2.4311e-06	272.62	86.613	97.694	35.706	3.6885e-06	33.496	0.00053571	0.0006057	0.00016879	937.28	6.5429e-06	6.7492e-06	785.91	287.8	6.7118e-06	6.4929e-06	269.51	86.169	96.636	35.899	6.6563e-06	33.613	247.778	208.223	191.140	137.344	279.957	290.735	136.505	142.318	285.533	270.217	139.870	145.073	147.481	152.660	278.671	148.993	-8191	255	
1177.959	1	1	0	0	0.20443	0.21949	0.11376	0.15855	0.1676	0.15548	0.28349	0.044138	0.30037	0.10298	0.26341	0.2177	0.37271	0.29233	0.21178	0.15147	-0.32917	-1.3021	-0.95	-1.1833	-1.6354	-0.77083	-1.275	-1.4021	-0.84792	-1.4354	-1.2062	-0.79167	-1.5604	-0.95833	-1.0063	-1.7	337.627	369.109	379.239	388.098	467.508	422.804	461.892	336.440	365.228	179.951	367.359	420.170	465.258	374.540	254.839	312.195	0.00037242	0.00026995	0.00011472	951.85	4.4957e-06	4.5924e-06	797.29	291.58	4.7315e-06	3.4705e-06	273.9	87.68	97.421	36.074	5.2784e-06	33.796	0.00052577	0.00059309	0.00017193	935.95	6.3809e-06	6.6429e-06	785.64	288.2	6.6013e-06	6.3815e-06	270.13	86.724	96.724	36.072	6.4958e-06	33.783	253.096	226.865	214.789	137.417	293.838	296.893	136.431	142.446	281.692	270.753	140.579	144.991	147.184	152.701	273.600	148.806	-8191	255	
1178.055	1	1	0	0	0.14288	0.1917	0.04121	0.18496	0.23146	0.41945	0.24468	0.32382	0.077416	0.15217	0.14093	0.1669	0.11906	0.2178	0.083055	0.14831	-0.29792	-1.3854	-0.97083	-0.8875	-1.4813	-0.96458	-1.1625	-1.8188	-0.76875	-1.6021	-1.3792	-0.95417	-1.6792	-1.1208	-0.83542	-1.5083	472.632	419.543	197.202	214.975	188.681	463.074	455.117	419.695	349.607	431.976	465.940	370.852	128.977	128.617	146.616	387.382	0.00036229	0.00041107	0.00013799	956.76	5.4985e-06	1.7196e-06	808.95	291.53	3.0133e-06	4.0467e-06	274.68	87.591	97.588	36.001	2.7678e-06	34.016	0.00052585	0.00058474	0.00017253	940.61	6.2484e-06	6.4491e-06	790.41	288.94	6.2359e-06	6.4364e-06	270.75	87.217	96.709	36.2	6.53e-06	33.941	250.187	223.908	250.533	137.377	284.525	235.310	136.255	142.609	318.525	273.719	140.449	145.047	146.996	152.737	272.572	148.568	-8191	255	
1178.174	1	1	0	0	0.26212	0.17272	0.20711	0.33866	0.36894	0.065307	0.40896	0.40838	0.26408	0.12876	0.045455	0.33624	0.15395	0.19423	0.12185	0.46852	-0.525	-1.2083	-1.4375	-1.1437	-1.6667	-1.2021	-0.92708	-1.7875	-0.69792	-1.2667	-1.5771	-0.76042	-1.7667	-1.225	-0.99583	-1.6479	317.196	126.735	424.166	473.779	273.406	315.021	393.753	469.387	422.363	326.083	202.453	125.344	128.080	134.903	289.156	471.855	0.00038299	0.00045267	0.00013412	952.4	7.0076e-06	5.5708e-06	802.28	292	3.3332e-06	2.4698e-06	274.99	87.195	96.775	35.929	3.6362e-06	33.717	0.00053569	0.00058091	0.00016827	939.26	6.1752e-06	6.5698e-06	788.6	289.25	6.4111e-06	6.4275e-06	271.12	86.769	96.48	36.092	6.8129e-06	33.767	248.298	194.871	222.750	137.470	291.462	266.305	136.163	142.489	298.166	244.168	140.508	145.356	147.514	152.777	255.682	149.100	-8191	255	
1178.270	1	1	0	0	0.10083	0.032178	0.08938	0.40982	0.57133	0.32264	0.37442	0.2737	0.16166	0.17151	0.36146	0.34388	0.31494	0.11212	0.20681	0.1343	-0.46042	-1.2375	-1.475	-0.82083	-1.6187	-1.3521	-0.96042	-1.7646	-0.87917	-1.0792	-1.5146	-0.89792	-1.5688	-1.2625	-0.66042	-1.7667	343.866	391.292	302.163	441.264	478.411	209.300	379.037	410.412	392.208	250.314	400.816	424.547	441.570	440.590	469.255	359.027	0.0003803	0.0003753	7.0437e-05	950.96	2.6697e-06	2.7898e-06	796.22	290.92	5.4513e-06	4.554e-06	272.37	86.753	96.941	35.833	5.8329e-06	33.668	0.00051087	0.00059839	0.00016137	937.56	6.3987e-06	6.5519e-06	782.95	288.18	6.1667e-06	6.5896e-06	269.01	85.908	96.109	35.902	6.8247e-06	33.51	254.520	180.479	215.578	137.549	304.830	311.689	136.295	142.576	303.530	300.101	140.201	145.254	147.245	152.629	271.913	149.314	-8191	255	
1178.342	1	1	0	0	0.096063	0.27311	0.14692	0.11083	0.12669	0.36928	0.11351	0.12778	0.13829	0.14928	0.19167	0.21928	0.1559	0.2906	0.185	0.013739	-0.53542	-0.97292	-1.4292	-0.89167	-1.6167	-1.3125	-0.71667	-1.6833	-0.7625	-1.0771	-1.7333	-0.89375	-1.4875	-1.3604	-0.66042	-1.6104	155.728	377.222	199.895	461.233	356.529	230.618	269.639	146.395	168.032	289.565	150.431	164.505	227.464	127.211	482.487	406.610	0.00037955	0.00052249	7.3284e-05	943.97	5.2273e-06	3.5322e-06	795.54	289.49	3.8381e-06	2.3931e-06	269.08	86.984	96.497	35.61	2.1367e-06	33.355	0.0005381	0.00060813	0.00016353	929.4	6.2805e-06	6.6157e-06	779.75	286.86	6.3303e-06	6.9375e-06	266.92	85.744	95.774	35.734	6.7075e-06	33.29	247.043	220.186	184.068	137.829	259.603	245.659	136.544	142.792	270.980	258.817	140.143	144.797	147.225	152.613	238.014	148.588	-8191	255	
1178.440	1	1	0	0	0.050057	0.11476	0.19047	0.34033	0.1452	0.060064	0.12192	0.45899	0.24589	0.27353	0.031991	0.29045	0.12603	0.12139	0.15118	0.085697	-0.5625	-1.0542	-1.5271	-0.92917	-1.1083	-1.4188	-0.72292	-1.8104	-0.99583	-0.88958	-1.7542	-0.975	-1.3188	-1.4396	-0.7125	-1.3958	238.585	335.745	294.907	159.686	149.149	256.194	445.793	449.261	413.736	138.158	305.658	347.870	456.229	378.874	362.359	374.849	0.0003759	0.00059291	0.00011815	947.78	6.2333e-06	1.2125e-06	794.1	289.74	5.654e-06	2.3266e-06	270.83	86.155	95.807	35.678	6.2291e-06	33.413	0.00050426	0.0006051	0.00016575	931.02	6.3855e-06	6.4538e-06	778.71	286.84	6.3873e-06	6.7634e-06	267.36	85.348	95.488	35.807	6.6637e-06	33.446	249.366	197.981	230.183	137.396	275.709	283.033	136.626	142.792	282.645	312.078	140.464	145.329	147.588	152.920	262.894	148.997	-8191	255	
1178.559	1	1	0	0	0.2077	0.13468	0.23322	0.26571	0.20636	0.1727	0.30585	0.1834	0.20263	0.10734	0.10867	0.22214	0.14212	0.26204	0.050007	0.16359	-0.76042	-0.6875	-1.4604	-0.93333	-1.1729	-1.5542	-0.86875	-1.6292	-1.0729	-0.72708	-1.7687	-1.0292	-1.0333	-1.6437	-0.79167	-1.3813	413.974	285.921	423.119	419.292	156.691	159.905	449.201	433.306	131.536	158.644	431.817	322.638	309.002	434.503	243.635	320.297	0.00039783	0.00039086	8.6803e-05	946.73	4.3477e-06	3.3746e-06	791.29	290.13	3.0917e-06	6.2063e-06	272.01	86.784	96.538	35.952	3.5263e-06	33.927	0.0005282	0.00061231	0.00017101	930.72	6.4248e-06	6.6024e-06	779.71	287.09	6.3429e-06	6.8764e-06	268.3	86.173	96.281	36.066	6.5193e-06	33.941	250.950	239.703	196.189	137.426	273.480	305.187	136.573	142.528	276.219	273.692	140.205	144.929	147.652	152.394	308.056	148.937	-8191	255	
1178.655	1	1	0	0	0.15056	0.094208	0.071403	0.2386	0.12552	0.16142	0.25414	0.12178	0.11434	0.058665	0.25308	0.20241	0.15132	0.22078	0.090934	0.087809	-0.925	-0.54583	-1.6229	-1.0312	-0.93125	-1.5667	-0.825	-1.5688	-1.4458	-0.79583	-1.5125	-1.1917	-1.0208	-1.5812	-0.82917	-1.3042	472.059	193.980	178.133	453.110	321.895	435.016	380.696	397.463	465.415	327.292	137.666	436.200	335.988	304.222	482.027	422.251	0.00035133	0.00038911	0.0001237	945.68	6.1218e-06	5.3184e-06	799.08	293.18	5.1283e-06	5.376e-06	275.87	88.579	98.913	36.982	3.0957e-06	34.631	0.00050799	0.00060385	0.00016313	930.38	6.5108e-06	6.5125e-06	784.81	290.29	6.4181e-06	6.544e-06	272.95	88.298	98.401	36.926	6.6173e-06	34.645	253.625	186.192	196.043	137.274	257.537	260.222	136.812	142.828	284.293	305.942	140.270	144.844	147.487	152.577	284.946	149.217	-8191	255	
1178.751	1	1	0	0	0.13657	0.17529	0.059495	0.13349	0.28272	0.14976	0.13237	0.12161	0.024604	0.11754	0.099337	0.16573	0.13425	0.074082	0.18866	0.42979	-0.88958	-0.6125	-1.4167	-1.0583	-0.8	-1.7292	-1.1208	-1.35	-1.2708	-0.75	-1.6396	-1.1542	-0.94167	-1.5875	-0.8125	-1.2729	246.764	190.510	338.963	129.833	469.518	340.845	472.632	453.061	273.176	230.462	217.739	466.237	471.624	254.671	172.329	340.595	0.00036882	0.00043315	8.4173e-05	953.68	5.4211e-06	3.0313e-06	801.64	296.49	1.8258e-06	3.1671e-06	275.94	88.862	99.416	36.734	2.9327e-06	34.645	0.00050636	0.00060886	0.00015574	938.71	6.5408e-06	6.3109e-06	790.52	293	6.3286e-06	6.6254e-06	273.3	88.2	98.622	36.865	6.3518e-06	34.459	250.022	200.559	232.254	137.793	274.723	291.797	136.723	142.620	302.135	244.363	140.542	144.919	147.408	152.645	332.645	148.931	-8191	255	
1178.872	1	1	0	0	0.32932	0.26093	0.20768	0.147	0.20602	0.18497	0.037193	0.18612	0.15376	0.11095	0.19455	0.14991	0.1444	0.15423	0.34135	0.15527	-1.0438	-0.71042	-1.4104	-1.2958	-0.87917	-1.6083	-1.0396	-1.2542	-1.5021	-0.47708	-1.5063	-1.1708	-1.0271	-1.6229	-1.05	-1.1938	238.032	440.482	159.493	423.205	227.467	264.053	450.057	391.291	157.885	317.941	386.575	443.777	474.601	393.686	263.624	417.062	0.0003759	0.00045083	0.00011844	956.41	3.8912e-06	4.9919e-06	802.41	294.05	3.7265e-06	4.1996e-06	276.3	88.84	98.992	36.207	5.0916e-06	34.402	0.00051988	0.00059591	0.00016808	941.25	6.6529e-06	6.3689e-06	788.6	291.1	6.4003e-06	6.4781e-06	273.57	88.094	98.088	36.581	6.674e-06	34.273	247.539	241.135	260.805	138.196	301.378	281.341	136.770	142.987	289.031	263.424	140.506	145.211	147.263	152.632	286.896	148.912	-8191	255	
1178.943	1	1	0	0	0.18656	0.13992	0.0065795	0.028184	0.048013	0.057439	0.12107	0.27343	0.27859	0.20471	0.28056	0.34157	0.14849	0.29189	0.072527	0.1381	-1.125	-0.69375	-1.1646	-1.525	-0.69583	-1.85	-1.2771	-0.93958	-1.5896	-0.91042	-1.4375	-1.4271	-0.64583	-1.6375	-1.1229	-0.91458	138.746	173.650	197.398	318.601	270.897	416.054	353.141	393.896	205.988	382.312	364.793	457.534	420.866	136.928	229.518	431.617	0.00038099	0.00040854	0.00015392	954.44	3.6214e-06	4.0637e-06	803.01	293.51	2.6948e-06	2.3344e-06	275.05	88.143	98.235	36.318	5.3871e-06	34.035	0.00052269	0.00060458	0.00017618	939.53	6.4819e-06	6.6048e-06	788.7	290.61	6.5443e-06	6.9052e-06	272.06	87.679	97.869	36.558	6.9628e-06	34.154	249.337	242.178	259.731	137.759	302.654	271.075	136.676	142.821	314.325	273.213	140.915	145.028	147.803	153.176	272.302	149.886	-8191	255	
1179.040	1	1	0	0	0.36594	0.072109	0.0796	0.33963	0.17693	0.17705	0.39621	0.4202	0.13433	0.069892	0.12003	0.10014	0.27286	0.15694	0.10661	0.15013	-1.3771	-0.87917	-1.0917	-1.5375	-0.73958	-1.4625	-1.3792	-1	-1.6979	-0.91458	-1.3708	-1.5958	-0.79583	-1.6938	-1.2188	-0.91875	156.342	127.577	329.465	472.689	320.265	201.164	410.829	411.052	360.166	301.784	341.367	459.106	170.953	138.109	404.321	244.512	0.00039493	0.00041136	6.9924e-05	953.41	5.0404e-06	2.7277e-06	806.61	291.12	6.7393e-06	4.3788e-06	273.85	88.971	98.063	36.288	4.2364e-06	34.243	0.00053688	0.00062449	0.000174	939.26	6.8203e-06	6.6608e-06	789.86	289.42	6.7002e-06	7.132e-06	270.93	87.955	97.236	36.458	6.9757e-06	34.141	250.043	240.026	189.917	137.925	307.034	234.057	136.906	143.252	272.797	276.873	141.113	145.049	147.451	152.384	317.684	149.067	-8191	255	
1179.160	1	1	0	0	0.16959	0.070007	0.088112	0.16896	0.28629	0.1286	0.30164	0.62762	0.26513	0.1231	0.086981	0.17898	0.15336	0.2375	0.10291	0.23427	-1.2146	-0.99792	-1.1042	-1.775	-0.73125	-1.4917	-1.4562	-1.0479	-1.6854	-0.92292	-1.1167	-1.6375	-0.78958	-1.3312	-1.2917	-0.83333	467.385	299.842	469.124	414.360	340.962	273.633	462.248	432.219	316.226	444.723	403.725	421.299	412.358	463.970	384.134	139.293	0.00038856	0.00037601	9.0328e-05	952.31	4.461e-06	4.1132e-06	800.36	290.21	3.5479e-06	2.0062e-06	272.71	87.4	97.648	36.382	3.5515e-06	33.863	0.00053977	0.00064058	0.00018346	936.06	6.7646e-06	7.0574e-06	785.84	288.22	6.6478e-06	7.3093e-06	269.73	86.867	96.958	36.372	7.0644e-06	33.901	252.487	210.536	213.645	137.922	273.446	303.055	136.640	143.211	294.422	319.836	141.069	145.554	147.918	153.519	298.010	149.558	-8191	255	
1179.255	1	1	0	0	0.0592	0.30142	0.31035	0.35099	0.17385	0.1267	0.23435	0.553	0.18044	0.19523	0.26946	0.057603	0.19674	0.18183	0.076151	0.36396	-1.1271	-0.89583	-0.85417	-1.8271	-0.84792	-1.2979	-1.4125	-1.0167	-1.5708	-1.2292	-1.1354	-1.6375	-0.86458	-1.0688	-1.4438	-0.85	391.679	185.506	193.533	440.801	455.199	288.861	182.663	452.687	339.616	250.997	444.306	373.510	378.920	326.388	371.012	365.389	0.00034477	0.00037641	0.0001724	938.92	3.3435e-06	4.8914e-06	788.24	288.96	3.9589e-06	3.5404e-06	271.84	87.223	96.916	35.949	6.1383e-06	33.847	0.00052998	0.00063591	0.00018371	927.52	6.9127e-06	7.173e-06	777.77	286.76	6.4604e-06	7.1593e-06	267.47	86.362	96.318	36.11	6.7429e-06	33.671	248.672	230.448	217.596	137.812	273.294	252.709	136.664	142.816	290.597	237.567	140.267	145.220	147.332	152.897	273.598	149.136	-8191	255	
1179.351	1	1	0	0	0.13854	0.27678	0.15973	0.28534	0.096579	0.19802	0.10853	0.14082	0.23435	0.09347	0.21613	0.23858	0.30453	0.23752	0.1386	0.15207	-1.1313	-1.0375	-0.69167	-1.7479	-1.0125	-1.2875	-1.4854	-0.95417	-1.4917	-1.1708	-0.89583	-1.7083	-0.73333	-1.1292	-1.5583	-0.74792	268.872	320.572	413.220	445.791	301.412	439.120	312.635	406.129	316.847	341.996	422.229	401.201	427.694	149.208	147.359	364.862	0.00039045	0.00043897	0.00015722	937.85	4.785e-06	2.3996e-06	790.2	287.68	4.6826e-06	2.8881e-06	270.01	87.057	96.062	36.11	5.4906e-06	33.816	0.00051152	0.00063671	0.00017684	924.5	6.6857e-06	6.9901e-06	775.91	285.55	6.7271e-06	7.0482e-06	266.55	86.165	96.216	36.175	6.9016e-06	33.825	254.981	213.357	199.910	137.839	281.324	283.381	136.527	142.966	282.464	305.602	140.746	145.236	147.718	153.117	285.493	149.739	-8191	255	
1179.471	1	1	0	0	0.11385	0.085229	0.055865	0.14169	0.18027	0.064626	0.19162	0.12335	0.20028	0.099138	0.087503	0.36974	0.24905	0.33716	0.28808	0.14364	-1.0063	-1.1958	-0.70208	-1.7146	-0.85	-1.0396	-1.5667	-0.80417	-1.6437	-1.45	-0.77292	-1.6729	-0.96042	-1.125	-1.6292	-0.81458	311.841	443.841	181.934	369.501	244.002	393.525	254.256	400.231	129.795	402.862	354.908	444.606	400.474	334.468	197.631	468.067	0.00038403	0.00042929	0.00011659	937.36	3.925e-06	2.3077e-06	790.19	287.91	5.5641e-06	3.6456e-06	272.53	86.669	97.188	36.39	5.3702e-06	34.149	0.00054009	0.00066216	0.00017665	922.64	6.7585e-06	7.2279e-06	775.81	285.57	6.7177e-06	6.9734e-06	267.6	86.53	96.658	36.364	6.7794e-06	33.928	252.109	233.755	174.765	138.066	283.753	300.654	136.741	142.943	293.706	301.812	140.936	145.468	148.079	153.063	288.486	149.193	-8191	255	
1179.543	1	1	0	0	0.10966	0.13258	0.2542	0.10905	0.15773	0.18913	0.22726	0.33133	0.171	0.15527	0.15554	0.12107	0.13223	0.27537	0.071443	0.22459	-1.075	-1.3771	-0.80625	-1.8375	-1.0604	-1.0604	-1.9104	-1.0063	-1.2396	-1.3583	-0.89792	-1.5229	-1.1146	-0.95	-1.675	-0.94167	340.907	449.600	309.612	361.083	343.605	183.886	437.664	483.640	243.718	204.792	317.419	290.365	139.035	416.758	460.069	154.520	0.00039332	0.00029693	0.00011662	938.35	2.3532e-06	3.5933e-06	792.9	289.17	3.7053e-06	4.7109e-06	269	87.947	97.637	36.4	5.1631e-06	34.515	0.00054439	0.00063842	0.00017899	922.01	6.8339e-06	7.2267e-06	776.11	286.63	6.689e-06	6.9021e-06	267.94	87.219	97.133	36.515	6.891e-06	34.227	253.181	229.361	193.074	137.491	279.529	279.716	136.632	142.839	277.859	293.921	140.519	145.237	147.256	152.707	264.132	149.183	-8191	255	
1179.639	1	1	0	0	0.092642	0.16258	0.063039	0.45286	0.34266	0.12717	0.11051	0.40288	0.23485	0.39605	0.1663	0.26726	0.42726	0.13923	0.1713	0.30001	-0.75833	-1.4312	-0.74583	-1.6021	-1.2333	-0.89375	-1.5958	-0.90417	-1.1896	-1.4792	-0.94583	-1.2708	-1.2188	-0.89375	-1.5833	-1.0271	460.329	129.416	167.529	430.069	426.716	154.458	233.851	473.687	449.881	470.251	432.193	141.571	401.358	410.203	279.330	228.317	0.00036494	0.00021819	0.00010826	935.57	4.4341e-06	2.7702e-06	791.73	289.58	3.1907e-06	3.2129e-06	271.97	87.213	97.754	36.314	4.446e-06	33.931	0.00055701	0.00061952	0.00018521	925.33	6.9777e-06	7.1769e-06	778.63	286.82	6.9789e-06	7.0061e-06	269.26	87.119	97.018	36.419	6.7503e-06	33.941	255.387	205.230	230.895	137.619	220.686	262.781	137.015	143.051	309.753	310.467	140.705	145.525	147.260	152.881	271.081	149.231	-8191	255	
1179.735	1	1	0	0	0.12173	0.22488	0.20213	0.42738	0.21593	0.30369	0.41035	0.063726	0.18652	0.25837	0.16766	0.13108	0.17489	0.25134	0.082647	0.22195	-0.7125	-1.5542	-0.6625	-1.4625	-1.3042	-0.60417	-1.5021	-1.1292	-1.0208	-1.6854	-0.85	-1.3458	-1.4604	-0.93125	-1.5729	-1.1333	357.023	263.497	465.518	126.335	159.997	318.075	446.439	427.241	414.308	139.594	190.807	382.335	466.748	462.460	291.920	218.875	0.00040734	0.0003285	6.0151e-05	943.57	3.9054e-06	4.0509e-06	794.57	289.74	6.1365e-06	4.8421e-06	271.11	87.655	97.987	36.094	6.016e-06	33.843	0.00055164	0.00062843	0.00017603	926.61	6.9006e-06	7.1341e-06	779.03	287.42	6.9526e-06	6.7497e-06	267.77	86.73	97.006	36.258	7.0184e-06	33.846	256.294	198.567	227.029	137.755	275.505	266.845	136.775	142.829	274.951	284.887	140.236	145.310	147.478	152.837	276.871	149.234	-8191	255	
1179.832	1	1	0	0	0.21085	0.1998	0.17348	0.1061	0.11749	0.11684	0.012057	0.31747	0.15188	0.2661	0.25797	0.24605	0.28851	0.25639	0.17996	0.28136	-0.7	-1.6104	-0.78125	-1.4396	-1.4271	-0.80208	-1.6562	-1.2062	-0.85833	-1.7104	-0.70208	-1.0417	-1.5208	-0.88125	-1.2938	-1.3104	466.532	447.321	418.955	401.909	309.174	312.087	373.130	172.177	208.805	366.304	125.992	262.260	134.934	400.439	164.435	414.176	0.00036544	0.00059556	5.0743e-05	943.97	4.3456e-06	4.3996e-06	794.08	289.51	3.6252e-06	3.6228e-06	270.76	87.87	97.197	36.368	4.463e-06	34.113	0.00054386	0.00062947	0.00018592	926.99	6.6868e-06	7.0341e-06	778.44	287.49	6.645e-06	6.9995e-06	268.82	86.887	97.146	36.456	7.102e-06	34.02	253.099	214.102	198.118	137.924	297.457	279.746	136.638	142.983	289.682	294.786	140.833	145.280	147.543	153.066	279.044	148.937	-8191	255	
1179.952	1	1	0	0	0.16718	0.022175	0.13175	0.16879	0.18773	0.031796	0.074253	0.26934	0.13082	0.35742	0.30151	0.066118	0.10476	0.19897	0.32676	0.09763	-0.51458	-1.5667	-0.83542	-1.3417	-1.5625	-0.77917	-1.6458	-1.4146	-0.84583	-1.6292	-1.0458	-1.1875	-1.475	-0.89375	-1.2521	-1.4917	352.578	323.416	393.031	131.781	296.399	454.217	294.816	364.817	384.733	403.620	319.286	462.475	195.053	466.078	238.681	365.345	0.00038513	0.0002182	0.00012216	941.7	6.0736e-06	2.7682e-06	792.9	289.63	4.5284e-06	5.3386e-06	273.66	88.531	98.494	36.557	6.0491e-06	34.264	0.00054707	0.00062857	0.00018575	926.67	6.6254e-06	7.0582e-06	779.5	287.25	6.8464e-06	7.1472e-06	270.43	87.479	97.669	36.694	7.1432e-06	34.303	251.535	242.445	216.737	137.862	318.498	246.938	136.907	142.998	297.538	275.996	140.435	145.504	147.616	152.771	269.823	149.309	-8191	255	
1180.048	1	1	0	0	0.071953	0.25722	0.316	0.21967	0.030985	0.087212	0.15022	0.19357	0.17417	0.081114	0.19414	0.06753	0.23192	0.06569	0.17113	0.22437	-0.40208	-1.5292	-0.95833	-1.0042	-1.4562	-0.92708	-1.4521	-1.4375	-0.74167	-1.7292	-1.2958	-0.96667	-1.6458	-0.85	-1.3438	-1.3146	273.981	219.516	324.967	457.675	164.548	288.193	301.833	296.650	469.458	434.981	155.850	299.504	220.729	316.330	181.964	429.999	0.00040728	0.00034527	0.00013553	937.56	3.947e-06	4.6405e-06	795.18	289.85	4.4129e-06	4.5279e-06	272.87	88.678	97.99	36.458	2.8567e-06	34.508	0.00055694	0.00064977	0.00018333	926.54	6.8249e-06	7.4891e-06	780.43	287.86	7.2288e-06	7.1667e-06	270.26	87.803	97.463	36.617	6.9558e-06	34.306	248.426	210.074	215.844	138.172	291.495	253.464	136.957	142.996	293.939	268.186	140.816	145.132	147.566	152.982	300.082	149.532	-8191	255	
1180.144	1	1	0	0	0.18066	0.047393	0.10237	0.30297	0.11745	0.31075	0.15051	0.21925	0.16025	0.042177	0.1437	0.20857	0.23962	0.23759	0.1045	0.20625	-0.51042	-1.6896	-1.0167	-1.1688	-1.7083	-0.76875	-1.3083	-1.525	-0.87708	-1.35	-1.2458	-1.0146	-1.8417	-0.9625	-1.2104	-1.7458	453.774	342.180	447.460	484.118	477.853	411.953	431.353	387.400	401.186	392.290	378.265	426.824	200.735	456.960	137.872	295.564	0.00036808	0.00049413	0.00018732	943.27	4.4185e-06	5.1595e-06	793.03	288.97	3.9424e-06	4.956e-06	271.03	87.975	96.624	36.101	3.4026e-06	33.693	0.00054068	0.00066697	0.00018717	928.04	6.7717e-06	7.3443e-06	780.24	286.75	6.9002e-06	6.996e-06	268.19	86.978	96.675	36.346	6.7484e-06	33.685	250.924	209.096	216.268	137.693	291.298	260.831	136.899	143.083	293.793	286.643	140.389	145.481	147.740	152.930	333.150	148.645	-8191	255	
1180.241	1	1	0	0	0.10214	0.043625	0.033721	0.31214	0.061158	0.056092	0.15071	0.20025	0.19245	0.10049	0.23764	0.39176	0.23106	0.15595	0.14395	0.11777	-0.41458	-1.5083	-1.2271	-0.96458	-1.5417	-1.0312	-1.1979	-1.8042	-0.77083	-1.4562	-1.3833	-0.88958	-1.675	-1.0979	-0.95417	-1.5771	334.109	376.691	412.070	366.377	414.809	152.488	150.420	408.936	195.760	147.054	424.351	432.428	420.533	395.349	280.294	384.069	0.00039909	0.00028266	0.00012363	939.25	7.1527e-06	3.5056e-06	791.82	288.18	4.7798e-06	3.3804e-06	268.69	87.379	96.602	35.924	5.5031e-06	33.859	0.00054871	0.00065053	0.00018093	923.77	6.8431e-06	7.4536e-06	775.82	285.04	6.7817e-06	7.146e-06	266.3	86.206	96.302	36.17	7.207e-06	33.662	251.026	239.396	217.102	138.257	255.596	266.755	137.190	143.082	292.039	282.309	140.594	145.352	147.729	153.013	306.419	149.636	-8191	255	
1180.335	1	1	0	0	0.10434	0.040756	0.18127	0.17449	0.22729	0.21437	0.1209	0.046975	0.2363	0.089855	0.25284	0.20256	0.15507	0.3631	0.21966	0.20684	-0.44375	-1.3396	-1.3438	-0.99375	-1.4625	-1.1792	-1.1792	-1.5917	-0.61458	-1.4833	-1.4958	-0.55625	-1.4604	-1.0875	-0.80833	-1.575	178.472	377.435	128.374	445.576	216.766	339.321	156.125	437.571	397.566	275.774	442.282	247.931	427.595	132.597	157.326	360.428	0.00038752	0.00016645	6.4385e-05	936.07	3.8466e-06	3.3408e-06	787.59	287.64	3.3346e-06	1.4724e-06	269.22	86.62	96.716	36.093	3.8721e-06	33.876	0.00055334	0.00062707	0.00018032	921.58	6.8517e-06	7.1648e-06	772.85	285.34	6.9775e-06	6.8896e-06	266.39	86.057	96.178	36.235	6.7444e-06	33.739	252.963	158.965	236.551	138.115	226.424	247.961	137.090	143.113	278.672	213.794	140.672	145.654	147.753	152.823	299.034	149.478	-8191	255	
1180.433	1	1	0	0	0.11856	0.1814	0.3072	0.30571	0.057355	0.12717	0.31215	0.11924	0.15268	0.1543	0.19611	0.053368	0.13372	0.12926	0.14298	0.12501	-0.475	-1.1583	-1.3417	-0.82292	-1.3521	-1.2208	-1.0688	-1.6458	-0.99583	-1.3792	-1.4937	-0.74792	-1.4688	-1.2563	-0.82708	-1.6854	157.650	187.593	142.433	407.814	272.932	220.601	384.109	484.281	372.095	312.077	228.262	217.919	159.215	399.363	259.287	174.398	0.00039065	0.00047594	0.00012308	935.07	4.3485e-06	3.1273e-06	789.18	290.03	4.8021e-06	2.8175e-06	272.24	87.974	97.677	36.291	4.4466e-06	34.2	0.00054177	0.0006395	0.00017085	921.83	6.4733e-06	6.9967e-06	775.23	286.47	6.8852e-06	6.7244e-06	268.7	86.794	96.717	36.303	6.6394e-06	33.913	252.719	232.943	199.959	137.827	274.730	306.859	137.345	143.384	287.229	291.335	141.137	145.465	148.126	153.239	294.367	149.100	-8191	255	
1180.552	1	1	0	0	0.34841	0.070321	0.17159	0.20612	0.16994	0.1189	0.079888	0.21225	0.19387	0.12122	0.19126	0.2174	0.098845	0.13115	0.27296	0.023852	-0.44167	-1.0771	-1.4604	-0.88542	-1.2958	-1.1187	-0.84792	-1.8792	-0.87292	-0.94792	-1.7812	-0.75625	-1.4562	-1.4667	-0.59375	-1.6375	382.519	235.589	237.877	425.784	259.071	241.184	465.786	452.237	248.700	194.474	304.221	453.024	484.019	483.066	135.065	409.345	0.00035412	0.00040829	0.00011848	945.46	4.8176e-06	3.9095e-06	799.72	290.61	3.3963e-06	2.5574e-06	274.7	88.642	97.686	36.673	5.5602e-06	34.259	0.0005386	0.00061812	0.0001769	929.92	6.7007e-06	7.0162e-06	783.98	287.96	6.7778e-06	6.8327e-06	271.45	87.604	97.422	36.732	6.7779e-06	34.41	252.920	149.494	203.867	138.014	253.123	272.157	137.186	143.310	305.307	259.356	141.222	145.720	147.960	152.853	288.980	149.536	-8191	255	
1180.648	1	1	0	0	0.059093	0.42188	0.22671	0.44353	0.28829	0.25717	0.36991	0.026526	0.31529	0.1735	0.11488	0.13782	0.097736	0.0025312	0.23924	0.22239	-0.62917	-1.1313	-1.6667	-0.69375	-1.4708	-1.4438	-0.8125	-1.5167	-0.71667	-1.1354	-1.5708	-0.8875	-1.3604	-1.5854	-0.65833	-1.7521	349.089	276.797	401.618	449.764	196.362	376.944	409.639	471.158	417.920	345.767	352.905	353.413	178.547	255.761	182.619	369.782	0.00037004	0.0002941	9.908e-05	945.73	5.9708e-06	5.1325e-06	797.45	293.06	3.2508e-06	1.791e-06	275.53	89.032	99.11	37.162	4.4175e-06	35.058	0.0005521	0.00063901	0.00017284	929	7.0484e-06	6.9216e-06	783.47	289.66	6.7366e-06	6.9048e-06	271.87	88.271	98.467	37.309	7.1532e-06	34.859	252.770	198.499	219.684	137.938	282.389	245.478	136.911	143.278	295.017	303.261	140.962	145.524	148.122	153.301	243.917	149.693	-8191	255	
1180.744	1	1	0	0	0.17888	0.22684	0.22667	0.36643	0.51504	0.11372	0.30172	0.24968	0.29541	0.10599	0.29051	0.27664	0.17053	0.096593	0.078751	0.088555	-0.66042	-0.725	-1.625	-1.0063	-1.1583	-1.4479	-0.85833	-1.6229	-1.0833	-0.64583	-1.7771	-0.77292	-1.2354	-1.4875	-0.6125	-1.4375	220.458	377.483	171.061	424.960	299.628	130.738	457.187	430.429	188.424	175.631	410.526	478.958	127.650	358.812	297.427	309.512	0.00039985	0.00051341	0.00010963	939.95	3.0327e-06	5.5392e-06	794.41	293.79	5.5038e-06	2.4587e-06	274.17	88.891	98.834	37.145	5.1546e-06	34.885	0.00054726	0.00062143	0.00017466	926.42	6.9663e-06	6.7838e-06	779.87	290.15	6.7901e-06	7.0455e-06	271.5	88.17	98.442	37.195	6.9536e-06	34.795	252.805	230.058	227.333	138.349	313.629	280.243	137.194	143.128	273.717	271.862	140.823	145.370	147.964	153.047	292.358	149.967	-8191	255	
#DATA ENDS
