BOXY.EXE: ISS Imagent and Oximeter Data Acquisition Program Version 0.80
Ascii Record File

#ACQ INFORMATION
2  Detector Channels 
16  External MUX Channels 
1  Auxiliary Channels 
5000  Waveform (CCF) Frequency (Hz)
1  Waveforms Skipped 
30  Waveforms Averaged 
1  Cycles Averaged 
16  Acquisitions per Waveform 
10.0806  Updata Rate (Hz) 

#FILE INFORMATION
TRUE -- External MUX Channel results are PARSED.
FALSE -- AC DC and Phase are NOT grouped.
TRUE -- Companion Program Settings File CREATED.
FALSE -- AC data not excluded
FALSE -- DC data not excluded
FALSE -- Phase data not excluded
FALSE -- Auxillary Chn. data not excluded
Tab delimiters

#CALIBRATION STATE
TRUE -- Waveform Calibration Values APPLIED.


#AUX CALIBRATION VALUES
Val Type	aux-1	

Term	1.0000e+00	
Factor	0.0000e+00	


#WF CALIBRATION VALUES
A = Detector Channel
Val Type	A-AC1	A-AC2	A-AC3	A-AC4	A-AC5	A-AC6	A-AC7	A-AC8	A-AC9	A-AC10	A-AC11	A-AC12	A-AC13	A-AC14	A-AC15	A-AC16	A-DC1	A-DC2	A-DC3	A-DC4	A-DC5	A-DC6	A-DC7	A-DC8	A-DC9	A-DC10	A-DC11	A-DC12	A-DC13	A-DC14	A-DC15	A-DC16	A-Ph1	A-Ph2	A-Ph3	A-Ph4	A-Ph5	A-Ph6	A-Ph7	A-Ph8	A-Ph9	A-Ph10	A-Ph11	A-Ph12	A-Ph13	A-Ph14	A-Ph15	A-Ph16	

Term	0.00000e+00	0.00000e+00	0.00000e+00	0.00000e+00	0.00000e+00	0.00000e+00	0.00000e+00	0.00000e+00	0.00000e+00	0.00000e+00	0.00000e+00	0.00000e+00	0.00000e+00	0.00000e+00	0.00000e+00	0.00000e+00	0.00000e+00	0.00000e+00	0.00000e+00	0.00000e+00	0.00000e+00	0.00000e+00	0.00000e+00	0.00000e+00	0.00000e+00	0.00000e+00	0.00000e+00	0.00000e+00	0.00000e+00	0.00000e+00	0.00000e+00	0.00000e+00	0.00000e+00	0.00000e+00	0.00000e+00	0.00000e+00	0.00000e+00	0.00000e+00	0.00000e+00	0.00000e+00	0.00000e+00	0.00000e+00	0.00000e+00	0.00000e+00	0.00000e+00	0.00000e+00	0.00000e+00	0.00000e+00	
Factor	1.00000e+00	1.00000e+00	1.00000e+00	1.00000e+00	1.00000e+00	1.00000e+00	1.00000e+00	1.00000e+00	1.00000e+00	1.00000e+00	1.00000e+00	1.00000e+00	1.00000e+00	1.00000e+00	1.00000e+00	1.00000e+00	1.00000e+00	1.00000e+00	1.00000e+00	1.00000e+00	1.00000e+00	1.00000e+00	1.00000e+00	1.00000e+00	1.00000e+00	1.00000e+00	1.00000e+00	1.00000e+00	1.00000e+00	1.00000e+00	1.00000e+00	1.00000e+00	X	X	X	X	X	X	X	X	X	X	X	X	X	X	X	X	

B = Detector Channel
Val Type	B-AC1	B-AC2	B-AC3	B-AC4	B-AC5	B-AC6	B-AC7	B-AC8	B-AC9	B-AC10	B-AC11	B-AC12	B-AC13	B-AC14	B-AC15	B-AC16	B-DC1	B-DC2	B-DC3	B-DC4	B-DC5	B-DC6	B-DC7	B-DC8	B-DC9	B-DC10	B-DC11	B-DC12	B-DC13	B-DC14	B-DC15	B-DC16	B-Ph1	B-Ph2	B-Ph3	B-Ph4	B-Ph5	B-Ph6	B-Ph7	B-Ph8	B-Ph9	B-Ph10	B-Ph11	B-Ph12	B-Ph13	B-Ph14	B-Ph15	B-Ph16	

Term	0.00000e+00	0.00000e+00	0.00000e+00	0.00000e+00	0.00000e+00	0.00000e+00	0.00000e+00	0.00000e+00	0.00000e+00	0.00000e+00	0.00000e+00	0.00000e+00	0.00000e+00	0.00000e+00	0.00000e+00	0.00000e+00	0.00000e+00	0.00000e+00	0.00000e+00	0.00000e+00	0.00000e+00	0.00000e+00	0.00000e+00	0.00000e+00	0.00000e+00	0.00000e+00	0.00000e+00	0.00000e+00	0.00000e+00	0.00000e+00	0.00000e+00	0.00000e+00	-6.18844e+01	-1.31176e+02	-1.30945e+02	-1.82064e+02	-5.12520e+01	-6.31214e+01	-1.57560e+02	-1.62015e+02	-4.68082e+01	-6.38604e+01	-1.72371e+02	-1.70432e+02	-1.78256e+02	-1.76759e+02	-5.34657e+01	-1.49349e+02	
Factor	1.65308e-05	1.37929e-04	3.69494e-05	1.57704e-01	1.33523e-06	1.42652e-06	1.70755e-01	4.46573e-02	1.03347e-06	1.38636e-06	7.56219e-02	2.61641e-02	2.21170e-02	8.12295e-03	1.35262e-06	1.13021e-02	1.00626e-05	1.67098e-05	4.71134e-06	8.54066e-02	1.71346e-07	1.86818e-07	8.69103e-02	2.43396e-02	1.67811e-07	1.87038e-07	3.98308e-02	1.38576e-02	1.22449e-02	4.47032e-03	1.76786e-07	6.00929e-03	X	X	X	X	X	X	X	X	X	X	X	X	X	X	X	X	



#DISTANCE SETTINGS
A = Detector Channel
A-1	A-2	A-3	A-4	A-5	A-6	A-7	A-8	A-9	A-10	A-11	A-12	A-13	A-14	A-15	A-16	

2.5000e+00	3.0000e+00	2.5000e+00	3.0000e+00	2.0000e+00	3.0000e+00	1.5000e+00	3.0000e+00	3.0000e+00	3.0000e+00	3.0000e+00	3.0000e+00	3.0000e+00	3.0000e+00	1.5000e+00	3.0000e+00	

B = Detector Channel
B-1	B-2	B-3	B-4	B-5	B-6	B-7	B-8	B-9	B-10	B-11	B-12	B-13	B-14	B-15	B-16	

1.0000e+01	1.0000e+01	1.0000e+01	1.4400e+00	1.0000e+01	1.0000e+01	1.5100e+00	1.9400e+00	1.0000e+01	1.0000e+01	1.9900e+00	2.4900e+00	2.4100e+00	2.9000e+00	1.0000e+01	2.9800e+00	




#DATA BEGINS
time	group	step	mark	flag	A-AC1	A-AC2	A-AC3	A-AC4	A-AC5	A-AC6	A-AC7	A-AC8	A-AC9	A-AC10	A-AC11	A-AC12	A-AC13	A-AC14	A-AC15	A-AC16	A-DC1	A-DC2	A-DC3	A-DC4	A-DC5	A-DC6	A-DC7	A-DC8	A-DC9	A-DC10	A-DC11	A-DC12	A-DC13	A-DC14	A-DC15	A-DC16	A-Ph1	A-Ph2	A-Ph3	A-Ph4	A-Ph5	A-Ph6	A-Ph7	A-Ph8	A-Ph9	A-Ph10	A-Ph11	A-Ph12	A-Ph13	A-Ph14	A-Ph15	A-Ph16	B-AC1	B-AC2	B-AC3	B-AC4	B-AC5	B-AC6	B-AC7	B-AC8	B-AC9	B-AC10	B-AC11	B-AC12	B-AC13	B-AC14	B-AC15	B-AC16	B-DC1	B-DC2	B-DC3	B-DC4	B-DC5	B-DC6	B-DC7	B-DC8	B-DC9	B-DC10	B-DC11	B-DC12	B-DC13	B-DC14	B-DC15	B-DC16	B-Ph1	B-Ph2	B-Ph3	B-Ph4	B-Ph5	B-Ph6	B-Ph7	B-Ph8	B-Ph9	B-Ph10	B-Ph11	B-Ph12	B-Ph13	B-Ph14	B-Ph15	B-Ph16	aux-1	digaux	

806.732	1	1	0	256	0.17286	0.01313	0.16514	0.22442	0.22915	0.15704	0.23428	0.22432	0.31335	0.10886	0.090125	0.34187	0.028731	0.062733	0.16464	0.16542	-1.3312	-0.77708	-1.4271	-1.775	-0.93125	-1.6271	-1.2875	-0.8375	-1.7104	-0.94167	-1.3854	-1.7167	-0.9625	-1.5312	-0.98333	-1.0063	78.629	203.611	111.322	330.474	356.909	125.662	265.213	65.714	81.038	35.028	214.425	251.233	280.125	282.352	134.671	358.526	0.00034737	0.00078174	9.0558e-05	1375.6	2.9718e-06	9.0163e-06	1383.6	368.85	8.7659e-06	5.5114e-06	426.29	140.92	121.09	40.551	4.5924e-06	50.136	0.0015325	0.0022514	0.00063632	1397.2	2.3533e-05	2.5641e-05	1404.3	377.43	2.2603e-05	2.5273e-05	437.33	145.08	124.83	42.112	2.3971e-05	52.1	211.794	108.737	163.243	43.540	215.706	198.090	43.474	48.583	193.773	162.794	47.419	52.458	51.851	55.178	203.705	54.378	-8191	255	
806.853	1	1	0	0	0.10976	0.12609	0.21015	0.22541	0.068326	0.16176	0.18121	0.33004	0.14216	0.23742	0.23713	0.15909	0.27086	0.087258	0.045427	0.13521	-1.3188	-0.78958	-1.0521	-1.7396	-0.7375	-1.3646	-1.3188	-1.0063	-1.7313	-0.9375	-1.1896	-1.6833	-0.84375	-1.3792	-1.3563	-0.9125	69.916	146.207	104.756	307.926	29.213	191.410	236.913	324.297	59.769	32.690	243.831	306.207	145.906	381.033	320.030	358.658	0.00033405	0.00026094	7.7339e-05	1370.8	6.5858e-06	6.2167e-06	1377.4	367.95	5.2122e-06	7.3519e-06	425.29	140.23	120.35	40.584	6.0601e-06	50.1	0.0015287	0.0022356	0.00064541	1394.6	2.3347e-05	2.5381e-05	1401.8	376.92	2.3192e-05	2.5514e-05	437.16	144.59	124.7	42.217	2.4219e-05	51.936	215.855	179.896	106.992	41.565	221.938	201.434	41.727	46.428	240.285	190.673	45.688	50.557	50.871	55.441	233.943	54.284	-8191	255	
806.947	1	1	0	0	0.27309	0.032984	0.11072	0.33705	0.13434	0.083031	0.11532	0.24335	0.06202	0.081936	0.2328	0.074592	0.21765	0.15768	0.22853	0.13512	-1	-1.0458	-1.0771	-1.8417	-0.88125	-1.2771	-1.6958	-0.78958	-1.6833	-1.1667	-1.0167	-1.8125	-0.82917	-1.3417	-1.5729	-0.98125	348.680	202.235	365.043	366.784	182.722	237.192	352.686	318.048	53.483	221.956	360.617	243.334	272.772	265.914	245.132	264.566	0.00034902	0.00036446	0.0001646	1373.3	4.2546e-06	8.9891e-06	1377.8	366.64	4.4165e-06	6.2722e-06	427.15	140.06	120.78	40.322	7.3203e-06	49.732	0.0015466	0.0023234	0.00064496	1394	2.4256e-05	2.6042e-05	1399.6	376.45	2.3627e-05	2.5704e-05	437.26	144.86	124.83	42.122	2.4207e-05	51.868	209.455	78.033	103.325	41.893	167.493	185.648	41.891	46.501	196.677	190.424	45.886	50.794	51.150	55.089	179.328	54.425	-8191	255	
807.045	1	1	0	0	0.1171	0.069768	0.1314	0.08853	0.17785	0.003905	0.35209	0.26249	0.15994	0.14844	0.13507	0.33057	0.29368	0.21076	0.25275	0.16842	-1.1604	-1.375	-0.71042	-1.9458	-0.8375	-1.0917	-1.6104	-0.9125	-1.4208	-1.0667	-1.1437	-1.6562	-1.0562	-1.2646	-1.5688	-1.0083	164.361	248.370	334.261	248.460	289.630	126.585	318.198	317.151	69.144	250.240	66.859	366.117	368.449	268.889	363.748	350.115	0.00036167	0.00074359	0.00011194	1369.1	4.5771e-06	8.5073e-06	1370.8	367.38	1.9941e-06	6.712e-06	427.25	140.25	121	40.535	6.5649e-06	50.14	0.0015773	0.0022902	0.00064788	1395.8	2.4063e-05	2.5636e-05	1400.9	376.91	2.359e-05	2.5692e-05	437.42	144.96	124.88	42.146	2.4419e-05	52.035	213.582	145.554	113.964	41.665	169.347	163.978	41.956	46.633	226.913	192.145	45.948	50.911	50.991	55.537	186.398	54.582	-8191	255	
807.139	1	1	0	0	0.13265	0.034868	0.23132	0.27531	0.19441	0.17882	0.22962	0.36451	0.40019	0.2101	0.20318	0.34182	0.23393	0.081657	0.28867	0.1336	-1.0396	-1.3917	-0.81458	-1.8771	-1.0229	-0.91875	-1.9562	-0.99375	-1.4688	-1.3896	-1.0938	-1.8354	-1.4875	-1.2375	-1.8312	-1.0396	185.774	63.770	113.510	318.927	254.381	353.234	295.334	329.981	46.626	257.015	307.082	384.831	322.232	233.840	352.094	325.772	0.0003847	0.00048753	6.5047e-05	1363.3	5.3563e-06	6.957e-06	1378.2	366.76	4.0427e-06	1.5497e-06	427.03	139.66	120.65	40.603	8.0252e-06	49.824	0.0015665	0.0022437	0.00064162	1392.3	2.3884e-05	2.5424e-05	1400.5	377.12	2.3044e-05	2.5079e-05	436.98	144.48	124.44	42.079	2.405e-05	51.84	210.928	122.601	169.632	41.769	196.630	179.782	41.783	46.675	235.888	145.310	46.000	50.993	51.217	55.554	184.467	54.636	-8191	255	
807.235	1	1	0	0	0.11528	0.11535	0.20782	0.30908	0.12667	0.1854	0.51033	0.50572	0.11525	0.098336	0.30358	0.12728	0.29946	0.2985	0.033217	0.2686	-0.98125	-1.4417	-0.73542	-1.5833	-1.1646	-1.0938	-1.8104	-0.90417	-1.2104	-1.4646	-0.76875	-1.6688	-1.275	-0.89792	-1.6	-0.99167	362.327	100.947	80.032	367.535	360.288	62.932	363.557	314.876	178.238	65.657	328.306	387.118	323.084	38.225	188.058	302.854	0.00034763	0.00046162	6.1634e-05	1366.7	2.6863e-06	9.587e-06	1379	367.77	4.9463e-06	4.8203e-06	425.6	139.71	120.3	40.588	3.678e-06	50.076	0.0015162	0.0022223	0.0006228	1392.1	2.3753e-05	2.5072e-05	1400.7	376.84	2.302e-05	2.4947e-05	436.76	144.64	124.33	42.15	2.4011e-05	51.972	220.962	83.249	90.800	42.042	174.865	191.515	42.095	46.620	237.642	178.734	46.250	51.196	51.585	55.631	234.187	54.868	-8191	255	
807.332	1	1	0	0	0.3466	0.35268	0.13442	0.12977	0.20097	0.16444	0.14596	0.36343	0.13633	0.33498	0.095085	0.078793	0.24207	0.40826	0.16834	0.20944	-0.81458	-1.4771	-0.725	-1.6333	-1.2396	-0.8375	-2.0187	-1.1812	-1.0708	-1.5583	-1.0187	-1.5417	-1.6833	-1.0063	-1.55	-0.84375	329.870	243.570	155.963	384.043	303.139	297.856	329.899	337.917	353.088	378.031	258.202	231.293	35.850	99.071	359.450	120.040	0.00032169	0.00077983	0.00023436	1371.9	3.6662e-06	5.4485e-06	1375.4	367.93	3.8068e-06	8.1802e-06	424.17	140.2	120.16	40.686	6.0874e-06	50.269	0.0015343	0.0022066	0.00064246	1395.1	2.3247e-05	2.502e-05	1402.1	376.65	2.2882e-05	2.55e-05	436.08	144.95	124.41	42.164	2.399e-05	52.049	213.116	118.153	119.564	42.348	193.785	239.490	42.332	46.953	223.362	176.784	46.301	51.189	51.600	55.737	158.821	54.878	-8191	255	
807.452	1	1	0	0	0.18367	0.35416	0.26894	0.023346	0.21035	0.16699	0.16439	0.014166	0.25698	0.21145	0.2002	0.44288	0.23186	0.028966	0.12619	0.20123	-0.6875	-1.7958	-0.66875	-1.5771	-1.5771	-0.82292	-1.775	-1.3937	-0.78542	-1.5021	-0.8125	-1.3771	-1.6542	-0.81042	-1.5646	-1.1208	223.778	268.046	86.320	138.670	163.529	271.848	375.385	61.180	65.438	293.967	271.036	350.718	372.885	49.023	316.015	245.459	0.00035164	0.00057706	0.00010555	1367	3.5621e-06	4.7977e-06	1382.2	368.08	4.0031e-06	4.4657e-06	427.75	140.37	120.54	40.488	5.8331e-06	50.226	0.0015374	0.0022741	0.00064684	1393.7	2.3915e-05	2.565e-05	1403.5	376.94	2.3353e-05	2.516e-05	437.6	144.97	124.64	42.123	2.4155e-05	51.989	225.906	115.480	165.767	42.048	220.353	190.265	42.047	46.679	234.668	134.639	46.001	51.164	51.422	55.447	168.771	54.747	-8191	255	
807.548	1	1	0	0	0.033653	0.1585	0.11267	0.23091	0.16733	0.16118	0.40108	0.17356	0.2507	0.07187	0.050361	0.17423	0.18097	0.1825	0.20753	0.35272	-0.57917	-1.7042	-0.63958	-1.4875	-1.65	-0.70625	-1.6021	-1.2792	-0.75	-1.7771	-1.0375	-1.3563	-1.625	-0.86042	-1.4729	-1.2354	352.512	29.003	31.877	241.773	258.913	329.882	322.477	263.427	216.468	371.862	323.923	227.620	29.382	352.967	307.098	254.994	0.0003887	0.00046784	0.000171	1369.9	2.7418e-06	4.4989e-06	1377.3	367.35	3.9926e-06	7.1883e-06	426.2	140.22	120.78	40.502	5.4363e-06	50.186	0.0015335	0.0022851	0.00065501	1394.7	2.3885e-05	2.5345e-05	1404.2	376.9	2.3832e-05	2.5279e-05	437.27	145.03	124.75	42.18	2.4502e-05	52.007	213.484	108.641	103.282	41.949	148.066	177.936	42.059	46.808	198.834	152.558	46.096	51.263	51.153	55.468	214.778	54.968	-8191	255	
807.620	1	1	0	0	0.037716	0.25741	0.23505	0.29561	0.30336	0.23127	0.20717	0.26739	0.29965	0.2525	0.15511	0.083835	0.38322	0.23276	0.077151	0.12924	-0.53125	-1.6854	-0.84167	-1.1437	-1.4604	-0.69583	-1.5646	-1.2979	-0.63125	-1.4396	-1.1792	-1.1271	-1.4937	-0.90833	-1.225	-1.5438	58.000	36.195	124.609	328.278	125.906	255.123	343.700	359.221	257.361	268.540	238.519	331.808	344.630	375.564	171.660	234.278	0.00035502	0.00049364	0.00012295	1372.4	9.4532e-06	5.5228e-06	1376.4	367.23	3.8553e-06	5.0381e-07	424.03	140.27	120.89	40.533	2.1376e-06	49.899	0.0015518	0.002318	0.00065844	1398.6	2.3813e-05	2.5698e-05	1404.9	377.02	2.3763e-05	2.5789e-05	436.83	144.94	124.91	42.083	2.4931e-05	51.872	218.583	74.113	65.450	41.998	200.846	157.444	42.239	46.887	244.083	191.705	45.986	51.214	51.363	55.573	215.199	54.814	-8191	255	
807.716	1	1	0	0	0.17767	0.28055	0.12947	0.38371	0.048851	0.20641	0.085407	0.44092	0.17421	0.23831	0.23412	0.44225	0.26774	0.32293	0.032019	0.063013	-0.36042	-1.5646	-0.95625	-1.15	-1.6021	-0.80833	-1.475	-1.5354	-0.59375	-1.5354	-1.2875	-1.0438	-1.8667	-0.95208	-1.1667	-1.6313	100.220	385.902	206.061	347.399	53.566	155.695	333.351	278.061	175.563	69.292	328.505	363.678	81.526	331.009	358.423	178.952	0.00038355	0.00066309	0.00018027	1376.1	6.4682e-06	9.2682e-06	1381.6	367.75	6.0343e-06	6.6203e-06	428.62	139.8	120.38	40.478	3.3795e-06	50.431	0.0015849	0.002336	0.0006481	1399.6	2.4379e-05	2.6262e-05	1404.5	377.9	2.3991e-05	2.6054e-05	438.43	144.82	124.62	42.153	2.5156e-05	52.135	212.445	132.796	103.473	42.039	239.104	166.524	42.239	46.699	216.776	212.009	46.020	51.078	51.415	55.684	223.386	55.209	-8191	255	
807.837	1	1	0	0	0.056598	0.26055	0.1685	0.037664	0.17164	0.15993	0.35163	0.14778	0.181	0.17941	0.23298	0.36482	0.40491	0.13633	0.12261	0.27951	-0.28542	-1.3896	-1.2625	-1.0271	-1.7021	-1.2458	-1.5104	-1.6792	-0.7125	-1.5083	-1.4937	-0.8	-1.6646	-0.99792	-1.1437	-1.7771	347.421	191.897	193.285	369.867	180.245	255.364	299.002	320.887	309.716	233.584	270.752	351.453	388.479	82.720	340.000	31.890	0.00036029	0.00049851	0.00014587	1371.7	7.8891e-06	6.2189e-06	1377.1	367.87	5.0965e-06	5.7737e-06	426.14	140.22	120.71	40.627	5.1085e-06	50.222	0.0016045	0.002385	0.00066184	1400.5	2.4497e-05	2.6792e-05	1406.8	377.83	2.4138e-05	2.644e-05	438.04	145.04	124.97	42.129	2.5271e-05	52.075	211.624	116.634	163.730	42.104	181.846	200.481	42.385	46.824	186.024	158.106	46.029	51.054	51.527	55.557	206.926	55.117	-8191	255	
807.931	1	1	0	0	0.09995	0.11461	0.11378	0.23465	0.059367	0.19431	0.24109	0.22842	0.22551	0.29584	0.044711	0.076742	0.060898	0.11116	0.24596	0.26431	-0.23125	-1.4896	-1.3687	-0.94792	-1.725	-1.1479	-1.15	-1.6958	-0.80625	-1.3	-1.7021	-0.68333	-1.6583	-1.1271	-0.97917	-1.8375	340.204	346.932	348.058	302.074	85.859	73.944	43.198	283.504	301.734	172.607	251.908	367.528	74.080	348.274	328.495	352.703	0.00037969	0.00063809	0.0002077	1367.7	6.0365e-06	5.5969e-06	1384.3	367.61	5.139e-06	6.3858e-06	426.89	140.12	120.68	40.436	5.3131e-06	50.201	0.0016207	0.0024013	0.00067618	1398.4	2.4938e-05	2.63e-05	1406.1	377.85	2.4661e-05	2.6322e-05	437.61	144.88	124.75	42.162	2.5611e-05	51.989	215.805	126.628	127.337	42.339	192.763	195.460	42.566	47.062	212.021	180.194	46.094	51.028	51.524	55.633	177.031	54.818	-8191	255	
808.027	1	1	0	0	0.13309	0.17581	0.14311	0.30385	0.20045	0.027093	0.16794	0.16498	0.091195	0.10082	0.15407	0.10432	0.16185	0.41683	0.26342	0.13905	-0.61458	-1.2729	-1.3917	-0.90625	-1.5792	-1.2417	-1.0208	-1.7208	-0.82083	-1.2896	-1.675	-0.93542	-1.4688	-1.2521	-1.0292	-1.7167	91.839	222.027	42.605	366.620	308.599	382.665	355.077	314.192	222.725	135.374	375.173	30.917	335.549	364.612	270.263	367.513	0.00038289	0.00042861	0.00016073	1370.5	5.0755e-06	4.6924e-06	1386.1	368.27	5.1984e-06	3.7113e-06	426.26	140.14	120.56	40.538	5.3895e-06	50.371	0.0016042	0.0023951	0.00066171	1398.9	2.4558e-05	2.6346e-05	1409.4	377.49	2.4734e-05	2.6803e-05	438.51	144.99	124.7	42.191	2.5537e-05	52.146	214.783	130.302	103.195	42.168	148.698	187.001	42.227	46.819	236.100	243.391	45.972	50.992	51.288	55.719	167.316	54.875	-8191	255	
808.125	1	1	0	0	0.15042	0.29137	0.1814	0.0587	0.13523	0.27002	0.25124	0.17272	0.032711	0.11545	0.12013	0.22614	0.32276	0.35321	0.23224	0.1842	-0.43542	-1.1646	-1.5562	-1.0896	-1.6292	-1.3375	-1.0292	-1.7146	-0.79792	-1.1396	-1.7604	-1.0729	-1.4042	-1.5396	-0.86667	-1.575	371.466	215.491	292.478	66.212	257.793	225.251	332.803	363.898	116.496	363.791	291.608	333.043	380.378	339.279	342.336	34.050	0.00039245	0.00071882	0.00016501	1375.2	4.8386e-06	4.8463e-06	1383.2	368.62	5.0988e-06	6.8805e-06	427.48	140.27	121.34	40.38	3.9823e-06	50.295	0.0016285	0.0023894	0.00067914	1402.1	2.5135e-05	2.6818e-05	1410.2	377.9	2.493e-05	2.7442e-05	439.07	145.27	125.35	42.154	2.638e-05	52.164	210.395	121.430	146.610	42.061	212.204	207.702	42.101	46.945	184.053	181.799	45.805	51.315	51.503	55.418	197.371	54.991	-8191	255	
808.244	1	1	0	0	0.059434	0.1619	0.15972	0.080681	0.45076	0.18118	0.12626	0.1727	0.14471	0.30992	0.1189	0.13551	0.1835	0.31062	0.04746	0.40536	-0.72917	-0.99375	-1.7687	-1.0896	-1.4854	-1.5375	-0.95208	-1.7583	-1.1125	-0.95417	-1.9438	-0.96042	-1.2812	-1.5146	-0.89792	-1.6542	107.740	350.774	69.103	329.485	260.275	182.402	293.424	384.802	89.726	319.560	308.437	269.484	57.462	43.271	82.144	330.833	0.0003693	0.00039188	0.00020101	1378.8	7.5216e-06	5.6111e-06	1389.6	369.85	5.2835e-06	2.273e-06	429.69	140.17	121.33	40.743	6.0535e-06	50.379	0.0016328	0.002444	0.0006909	1401.2	2.5386e-05	2.7262e-05	1412.8	378.97	2.493e-05	2.709e-05	439.78	145.21	125.34	42.29	2.6387e-05	52.137	210.751	102.462	66.279	42.165	207.191	173.455	42.070	46.963	202.959	196.173	46.476	51.171	51.690	55.710	226.639	54.985	-8191	255	
808.316	1	1	0	0	0.18653	0.27066	0.17616	0.28762	0.12174	0.18749	0.2968	0.47449	0.11557	0.3722	0.4604	0.16284	0.077443	0.16552	0.17841	0.24251	-0.78542	-0.86667	-1.5854	-1.1354	-1.2042	-1.575	-0.98333	-1.6875	-1.2646	-0.925	-1.7646	-1.1083	-1.2375	-1.7042	-0.86875	-1.5583	119.118	248.313	259.275	308.277	76.012	301.478	61.338	349.606	374.570	93.404	340.070	311.066	83.107	96.266	331.596	54.896	0.00033183	0.00054784	6.1666e-05	1378.8	7.4189e-06	5.9865e-06	1385.4	369.98	2.2097e-06	8.5367e-06	428.35	140.48	120.86	40.601	6.3631e-06	50.182	0.0016381	0.0024598	0.00069581	1403.1	2.5749e-05	2.7251e-05	1409.1	379.04	2.4381e-05	2.7263e-05	439	145.17	125.17	42.219	2.5596e-05	52.191	217.154	106.285	124.747	42.299	225.647	237.222	42.398	46.951	230.423	169.686	46.450	51.369	51.938	55.935	174.601	55.242	-8191	255	
808.412	1	1	0	0	0.087967	0.12164	0.52912	0.36967	0.18528	0.18684	0.45738	0.23285	0.22958	0.13847	0.27727	0.11156	0.15642	0.15596	0.026089	0.15923	-0.99792	-0.87083	-1.4917	-0.96458	-1.0312	-1.5167	-0.99792	-1.5938	-1.4271	-0.79792	-1.6625	-1.1604	-1.1125	-1.9167	-0.66458	-1.4771	241.752	203.110	67.138	365.682	249.645	65.865	312.031	339.615	271.343	38.893	384.978	364.686	339.394	51.635	332.722	48.511	0.00036717	0.00094226	8.5013e-05	1376.5	5.3518e-06	4.8735e-06	1394.8	369.93	4.7699e-06	4.3392e-06	426.77	140.62	120.8	40.607	6.9204e-06	50.456	0.0016464	0.0024773	0.00068361	1404.5	2.5617e-05	2.7384e-05	1414.7	379.4	2.52e-05	2.7984e-05	439.75	145.34	125.15	42.287	2.6493e-05	52.221	215.111	111.893	79.289	42.180	221.455	175.147	42.484	47.297	217.894	244.676	46.550	51.313	51.737	55.951	219.580	55.404	-8191	255	
808.533	1	1	0	0	0.11317	0.1077	0.075844	0.12976	0.14501	0.30641	0.11708	0.096135	0.061206	0.27133	0.37837	0.28518	0.17179	0.09193	0.3099	0.21262	-1.1271	-0.84583	-1.6708	-1.3729	-1.0458	-1.7208	-1.2479	-1.4937	-1.6042	-0.93542	-1.6229	-1.2687	-1.0979	-1.8646	-1.0938	-1.4271	229.170	370.790	142.108	60.541	152.718	249.582	345.736	336.951	249.436	73.947	313.373	293.657	255.457	40.030	128.673	303.666	0.00037783	0.00077087	0.00012777	1379.5	4.212e-06	2.588e-06	1393.5	369.32	4.268e-06	2.5547e-06	428.49	140.17	121.33	40.642	7.1049e-06	50.459	0.0016883	0.0025023	0.00070681	1407.1	2.5647e-05	2.7812e-05	1412.4	379.23	2.4985e-05	2.7671e-05	439.74	145.27	125.47	42.293	2.6768e-05	52.263	216.121	115.852	103.458	42.443	171.537	139.119	42.516	47.431	233.912	182.913	46.583	51.243	51.629	55.720	207.064	54.841	-8191	255	
808.629	1	1	0	0	0.16839	0.24104	0.14888	0.17727	0.41547	0.15629	0.23122	0.23912	0.19748	0.32512	0.18359	0.15635	0.25282	0.18131	0.34963	0.10272	-1.1604	-0.69583	-1.6208	-1.5938	-0.79583	-1.6479	-1.2458	-1.4021	-1.5896	-0.7875	-1.6271	-1.4667	-0.99375	-1.8292	-1.1854	-1.2437	289.571	50.060	84.740	361.581	181.823	362.780	373.445	308.654	207.028	340.602	29.518	144.638	62.327	388.739	355.912	226.987	0.00035182	0.00053105	0.00019126	1383.1	5.3604e-06	2.9072e-06	1388.5	370.24	6.652e-06	5.6741e-06	430.4	140.93	121.24	40.901	6.6162e-06	50.355	0.0016665	0.0025106	0.00070912	1409.4	2.5763e-05	2.7449e-05	1416.9	379.89	2.4995e-05	2.7452e-05	440.84	145.57	125.43	42.397	2.607e-05	52.261	210.690	108.467	114.541	42.016	146.715	230.135	41.954	47.160	228.761	162.593	46.058	50.952	51.292	55.808	181.196	54.868	-8191	255	
808.725	1	1	0	0	0.15518	0.39477	0.14922	0.37035	0.18973	0.089749	0.087655	0.16263	0.11164	0.11452	0.14008	0.12913	0.17004	0.2184	0.15596	0.099458	-1.2229	-0.72708	-1.3042	-1.6208	-0.79792	-1.5854	-1.1667	-1.3167	-1.7208	-0.66042	-1.5667	-1.5063	-0.81667	-1.6917	-1.2542	-1.0812	242.133	313.146	271.321	368.457	333.499	210.179	340.609	345.425	183.631	366.335	334.607	62.064	72.645	337.517	217.578	304.197	0.00036163	0.00055052	5.6036e-05	1385.7	3.9149e-06	4.326e-06	1387.8	370.85	4.5223e-06	2.7784e-06	430.17	141.02	121.22	40.8	3.1847e-06	50.511	0.0016595	0.0024511	0.00068823	1410.3	2.5364e-05	2.7187e-05	1414.1	379.94	2.5052e-05	2.7264e-05	441.05	145.73	125.63	42.427	2.5975e-05	52.424	213.781	136.751	30.872	42.180	232.362	140.891	42.423	47.349	214.365	255.679	45.706	50.611	51.105	55.294	227.337	54.336	-8191	255	
808.845	1	1	0	0	0.04185	0.20159	0.25716	0.31944	0.14633	0.04558	0.086452	0.46194	0.19005	0.20917	0.19185	0.11782	0.25196	0.12372	0.064375	0.28723	-1.4729	-0.67708	-1.1083	-1.7125	-0.70833	-1.6271	-1.2812	-0.91458	-1.4438	-0.9375	-1.4312	-1.7583	-1.0667	-1.6688	-1.3417	-1.05	215.836	339.266	77.381	324.140	270.728	310.527	270.424	350.652	38.061	257.840	283.950	34.018	78.921	220.338	162.244	308.424	0.00037364	0.00011376	0.00013995	1381.5	7.2534e-06	5.3116e-06	1394.1	369.33	2.7426e-06	2.3711e-06	428.89	140.45	120.72	40.887	5.6078e-06	50.52	0.0016377	0.002452	0.00068136	1409.3	2.5549e-05	2.7395e-05	1416.3	379.51	2.4879e-05	2.7576e-05	440.45	145.51	125.22	42.384	2.5648e-05	52.367	213.560	63.988	73.657	41.601	236.600	165.065	41.746	46.877	207.874	177.208	46.274	51.042	51.685	55.526	173.627	54.878	-8191	255	
808.917	1	1	0	0	0.095476	0.2623	0.1691	0.14258	0.17234	0.2164	0.21442	0.15068	0.050409	0.33361	0.045347	0.18568	0.12469	0.15784	0.11299	0.016492	-1.1125	-1.1375	-1.1938	-1.6812	-0.65208	-1.5854	-1.5521	-1.1021	-1.8458	-1.1812	-1.2917	-1.8062	-0.9125	-1.5021	-1.3375	-1.0146	154.034	287.209	29.257	59.655	93.480	61.100	357.938	369.203	371.566	141.797	351.201	47.031	327.378	95.112	312.040	86.652	0.0003533	0.00087317	0.00010829	1376.5	1.1897e-05	2.3956e-06	1390.6	368.83	4.9497e-06	4.5661e-06	427.81	141.33	121.15	40.669	5.4951e-06	50.355	0.0016383	0.0024265	0.00068666	1408.5	2.5326e-05	2.7266e-05	1416.4	379.59	2.505e-05	2.7422e-05	440.66	145.91	125.34	42.371	2.5855e-05	52.336	216.037	162.243	123.309	42.073	181.098	245.084	42.192	47.051	188.331	157.852	45.900	51.261	51.174	55.622	169.845	54.818	-8191	255	
809.013	1	1	0	0	0.24892	0.21082	0.2344	0.39666	0.46316	0.15464	0.32283	0.13598	0.15568	0.10506	0.087863	0.14436	0.18754	0.11771	0.35492	0.29284	-1.15	-1.0708	-1.0104	-1.8917	-0.79792	-1.4479	-1.7563	-0.95	-1.6292	-1.1271	-1.05	-1.8167	-1.0229	-1.3438	-1.4417	-0.96667	207.880	370.184	108.926	330.428	298.281	297.866	283.908	272.398	99.239	79.471	346.387	118.298	62.014	149.100	114.361	283.015	0.00037638	0.00060306	0.0001151	1381.8	8.8964e-06	4.6014e-06	1390.3	370.78	7.3152e-06	6.005e-06	431.84	141.21	121.07	40.847	3.432e-06	50.539	0.0016377	0.0024249	0.00068924	1408.3	2.5094e-05	2.6826e-05	1413.3	379.88	2.4635e-05	2.6995e-05	440.97	145.82	125.26	42.426	2.5756e-05	52.339	216.687	91.407	138.869	42.053	200.817	181.270	42.023	46.865	216.228	201.494	46.277	51.318	51.215	55.627	185.168	55.095	-8191	255	
809.132	1	1	0	0	0.18787	0.10064	0.0090854	0.15484	0.087712	0.055333	0.34	0.39812	0.050397	0.18139	0.22813	0.33702	0.14579	0.19946	0.2572	0.13354	-1.1542	-1.1833	-0.91667	-1.9125	-0.81667	-1.2292	-1.7958	-1.0854	-1.5104	-1.2333	-1.1042	-1.9521	-1.0458	-1.35	-1.6604	-0.97083	66.233	237.028	269.771	354.618	32.549	357.857	338.861	46.732	353.892	343.214	282.001	378.278	378.778	383.035	144.832	42.321	0.00036186	0.00042272	0.00011862	1379.7	5.6145e-06	8.8583e-06	1390.7	370.15	4.2364e-06	5.972e-06	429.77	140.42	121.57	40.802	6.583e-06	50.51	0.0016379	0.0024049	0.00068238	1409.6	2.5056e-05	2.7018e-05	1414.3	379.63	2.4412e-05	2.6665e-05	440.78	145.6	125.51	42.402	2.5665e-05	52.277	218.924	99.513	160.705	42.167	214.161	206.728	42.425	46.987	215.682	171.725	46.441	51.187	51.705	55.978	146.613	55.206	-8191	255	
809.228	1	1	0	0	0.016222	0.12439	0.24958	0.16465	0.0025338	0.20091	0.4638	0.087103	0.09264	0.0065381	0.14684	0.18192	0.40367	0.21469	0.092446	0.21884	-1.1	-1.35	-0.96458	-1.6021	-1.0854	-0.95208	-1.9708	-0.88542	-1.5646	-1.6083	-0.68542	-1.9896	-1.1437	-0.93958	-1.7646	-1.0042	287.115	178.995	353.335	346.892	116.670	360.299	299.805	73.839	271.402	324.473	371.785	375.033	42.340	362.617	265.864	387.351	0.00033348	0.00050721	0.00014379	1380	3.3219e-06	6.3764e-06	1387.9	370.02	4.9731e-06	2.8514e-06	429.8	141.45	120.93	40.918	6.6876e-06	50.59	0.0016174	0.0023652	0.00066935	1406.9	2.4713e-05	2.657e-05	1413.8	378.69	2.4595e-05	2.6374e-05	440.44	145.63	125.07	42.361	2.5389e-05	52.322	216.059	84.912	114.818	42.304	165.808	111.749	42.598	47.137	192.967	100.336	46.592	51.551	51.683	56.036	200.795	54.905	-8191	255	
809.324	1	1	0	0	0.23161	0.14955	0.068588	0.15194	0.25829	0.13514	0.33895	0.51015	0.086747	0.15911	0.21278	0.3898	0.28368	0.55701	0.061963	0.2555	-1.0083	-1.5875	-0.775	-1.9729	-1.2021	-1.0625	-1.8625	-1.2146	-1.2542	-1.5187	-0.97083	-1.7667	-1.3479	-1.0667	-1.6125	-1.2042	331.384	375.090	380.450	302.025	279.084	363.559	322.469	383.171	360.299	379.135	300.451	367.030	311.141	333.388	131.164	329.360	0.00037251	0.00053163	0.00013473	1376.5	9.8246e-06	6.0484e-06	1387.6	369.56	7.3817e-06	6.7359e-06	428.53	140.55	121.29	40.656	2.1745e-06	50.417	0.0016123	0.0023739	0.00067743	1407	2.4881e-05	2.6915e-05	1415.7	378.93	2.4403e-05	2.6599e-05	440.34	145.24	125.04	42.33	2.6017e-05	52.252	212.236	156.492	182.530	42.054	198.317	178.658	42.211	46.939	232.338	172.805	46.271	51.381	51.416	55.899	269.793	54.993	-8191	255	
809.421	1	1	0	0	0.075869	0.34622	0.059496	0.30133	0.078473	0.054965	0.10016	0.25786	0.12453	0.26719	0.18949	0.28882	0.2645	0.47872	0.058996	0.16968	-0.81667	-1.8	-0.78958	-1.7292	-1.425	-0.92917	-2.0021	-1.2104	-1.1688	-1.7563	-1.0167	-1.6708	-1.5917	-1.1354	-1.6583	-1.2542	62.045	99.758	96.715	308.827	376.529	282.644	302.506	356.630	348.319	345.633	172.645	51.657	358.848	341.370	323.918	288.302	0.00038245	0.00056472	0.00018476	1380.8	9.4935e-06	4.4793e-06	1389.4	369.59	6.3109e-06	8.4005e-06	427.8	140.24	121.8	40.681	6.3834e-06	50.613	0.0016317	0.0024273	0.0006826	1408.2	2.5014e-05	2.6622e-05	1414	379.64	2.492e-05	2.6667e-05	440.12	145.48	125.38	42.294	2.5725e-05	52.293	221.348	138.431	50.662	42.043	218.127	199.472	42.297	46.976	175.206	166.474	46.400	51.160	51.701	55.556	191.025	54.630	-8191	255	
809.541	1	1	0	0	0.042712	0.46524	0.17108	0.24634	0.10635	0.16023	0.38639	0.36038	0.14334	0.081576	0.32051	0.30952	0.29164	0.11247	0.26096	0.021267	-0.59375	-1.5875	-0.94583	-1.5187	-1.5271	-0.75208	-1.7896	-1.4271	-0.95208	-1.7458	-1.0229	-1.3604	-1.3937	-0.99167	-1.5458	-1.2104	208.370	317.666	110.441	31.112	110.284	69.815	300.536	383.877	140.798	383.391	372.916	347.765	372.714	65.861	200.046	171.461	0.00035876	0.00045022	0.00010754	1380.9	5.7167e-06	3.3476e-06	1390.1	371	2.3091e-06	4.3624e-06	428.13	141.17	121.58	40.652	3.0584e-06	50.231	0.001636	0.0023797	0.00068327	1408	2.5581e-05	2.6966e-05	1414.7	379.57	2.4757e-05	2.679e-05	439.93	145.5	125.3	42.353	2.5603e-05	52.176	218.261	118.630	126.168	42.174	189.005	171.979	42.358	47.014	262.463	175.351	46.351	51.300	51.720	55.754	196.103	54.967	-8191	255	
809.613	1	1	0	0	0.25617	0.23377	0.11125	0.33145	0.23643	0.12143	0.11129	0.31534	0.15249	0.10267	0.10226	0.19115	0.11561	0.024285	0.21681	0.18587	-0.56875	-1.5	-0.8	-1.5625	-1.6958	-0.80833	-1.6313	-1.2833	-0.88125	-1.7896	-1.0187	-1.2563	-1.7188	-0.85417	-1.4854	-1.4146	244.121	47.601	209.100	345.900	115.866	173.278	259.112	375.110	203.123	239.497	56.250	45.323	130.122	132.387	112.671	217.578	0.00036612	0.00051522	7.5977e-05	1384.5	1.142e-05	2.9651e-06	1391.6	370.82	3.6839e-06	5.2336e-06	431.01	140.97	121.76	40.719	5.2855e-06	50.433	0.0016426	0.0024383	0.00068454	1411.3	2.5281e-05	2.7407e-05	1415.9	380.02	2.5123e-05	2.6898e-05	440.8	145.67	125.48	42.394	2.606e-05	52.298	214.915	87.483	67.736	42.449	215.967	180.586	42.734	47.075	245.035	144.668	46.354	51.679	51.806	55.877	207.906	55.334	-8191	255	
809.709	1	1	0	0	0.35763	0.33209	0.26051	0.33353	0.18912	0.10435	0.24901	0.52505	0.20002	0.16229	0.13583	0.16545	0.35711	0.17947	0.12674	0.063065	-0.5625	-1.7521	-1.0562	-1.45	-1.5292	-1.0187	-1.7875	-1.6208	-0.80833	-1.7229	-1.2354	-1.3042	-1.7542	-1.0438	-1.4	-1.5333	83.734	298.104	340.228	335.146	110.996	310.367	380.410	296.144	284.699	65.111	193.429	290.136	46.319	351.575	124.968	327.261	0.0003737	0.00045939	0.00011892	1385.1	4.5275e-06	3.4555e-06	1391.9	369.37	3.2435e-06	5.5979e-06	428.05	141.17	121.02	40.821	4.5461e-06	50.495	0.0016579	0.0024377	0.00069503	1410.4	2.5748e-05	2.714e-05	1417.4	379.83	2.5127e-05	2.7761e-05	440.73	145.94	125.6	42.329	2.6213e-05	52.351	211.960	124.051	117.009	42.418	244.415	190.526	42.646	46.932	232.608	169.764	46.367	51.549	51.863	55.637	216.565	55.256	-8191	255	
809.805	1	1	0	0	0.2255	0.13151	0.16376	0.25594	0.12076	0.23649	0.14302	0.23111	0.14684	0.085291	0.45477	0.2199	0.29018	0.25258	0.085164	0.3419	-0.39792	-1.6292	-0.96042	-1.375	-1.5542	-0.92292	-1.5354	-1.6562	-0.73333	-1.6917	-1.3104	-1.0667	-1.7437	-0.92917	-1.4333	-1.4188	360.660	126.509	267.146	385.902	297.703	101.283	78.842	375.331	222.323	213.946	336.193	354.594	80.302	63.933	367.355	309.885	0.00037502	0.00028104	0.00014211	1382.3	5.0896e-06	4.7035e-06	1392.3	369.19	3.7615e-06	4.2436e-06	429.89	140.79	121.14	40.847	6.5535e-06	50.424	0.0016568	0.0024309	0.00069369	1409.6	2.5467e-05	2.7517e-05	1418.3	379.19	2.5366e-05	2.7325e-05	441.29	145.77	125.54	42.378	2.6161e-05	52.321	218.421	39.495	134.249	41.960	224.121	185.807	42.118	46.612	194.047	195.595	45.984	51.225	51.585	55.444	199.958	54.743	-8191	255	
809.924	1	1	0	0	0.22174	0.059303	0.22428	0.082078	0.19286	0.16517	0.36399	0.061274	0.20973	0.22751	0.27034	0.14205	0.31047	0.20023	0.054244	0.0052637	-0.29167	-1.4979	-1.1313	-1.0458	-1.7062	-0.81875	-1.3729	-1.6208	-1.0104	-1.6292	-1.5875	-1.0708	-1.6646	-1.075	-1.0979	-1.7229	343.132	183.082	48.098	212.559	202.910	67.661	310.589	155.580	113.743	379.414	279.516	150.964	198.570	321.691	72.366	273.002	0.00030982	0.00077113	0.00013854	1389.4	8.1704e-06	6.2587e-06	1389.8	370.7	3.3427e-06	5.5741e-06	429.12	141.05	121.09	40.716	5.0021e-06	50.341	0.0016663	0.0024922	0.00070596	1412.3	2.5861e-05	2.8003e-05	1417.7	379.81	2.53e-05	2.7865e-05	441.3	145.81	125.56	42.379	2.6483e-05	52.307	213.807	106.256	120.064	41.922	212.918	195.914	42.208	46.807	205.947	232.370	45.739	51.195	51.360	55.421	173.305	54.825	-8191	255	
810.020	1	1	0	0	0.28466	0.08006	0.17862	0.15897	0.073931	0.15784	0.3261	0.31198	0.098692	0.34832	0.13413	0.041012	0.40679	0.32126	0.20479	0.27688	-0.54167	-1.5438	-1.2958	-1.0917	-1.7458	-1.0479	-1.3521	-1.8021	-0.93958	-1.4771	-1.625	-0.9625	-1.7563	-1.2708	-1.1104	-1.5854	348.052	384.040	297.154	362.195	304.267	275.184	283.230	51.580	59.303	270.992	316.834	101.484	345.986	357.060	128.176	366.853	0.00041266	0.00077286	0.00016889	1381.1	4.7191e-06	8.9473e-06	1391.7	371.47	4.8579e-06	2.0053e-06	428.33	140.65	121.8	40.57	5.5892e-06	50.133	0.0016877	0.0024843	0.00069589	1411.1	2.5744e-05	2.7584e-05	1417.5	380.42	2.5419e-05	2.751e-05	440.48	145.77	125.5	42.304	2.6504e-05	52.294	216.384	123.713	114.712	42.009	221.850	176.544	42.193	46.783	211.295	106.313	45.985	51.343	51.369	55.681	175.491	54.922	-8191	255	
810.116	1	1	0	0	0.0099944	0.22674	0.1188	0.15486	0.13252	0.026505	0.2511	0.20837	0.10008	0.20237	0.32363	0.19578	0.18658	0.18146	0.22213	0.32104	-0.46667	-1.3208	-1.45	-0.99167	-1.5333	-1.3375	-1.1979	-1.625	-0.87708	-1.3083	-1.7812	-0.79583	-1.7521	-1.3333	-0.88542	-1.7979	261.712	381.859	91.492	385.997	191.321	361.628	324.870	360.992	336.477	36.535	380.673	353.059	344.900	65.851	354.720	371.333	0.00029784	0.00025055	0.00017867	1385.5	3.3932e-06	5.4618e-06	1395.6	369.59	6.5392e-06	5.6684e-06	428.74	141.24	121.46	40.822	1.3982e-06	50.295	0.0016732	0.0025116	0.00069857	1412.2	2.5614e-05	2.7594e-05	1417.5	380.02	2.4904e-05	2.7386e-05	440.51	145.9	125.52	42.382	2.6263e-05	52.278	221.124	189.785	132.991	42.035	153.300	160.579	42.553	47.001	187.328	192.253	46.038	51.362	51.690	55.449	372.727	54.978	-8191	255	
810.213	1	1	0	0	0.11582	0.14784	0.077006	0.23126	0.10439	0.097327	0.20373	0.16595	0.052783	0.062384	0.22648	0.50182	0.27272	0.22977	0.21225	0.20576	-0.61042	-1.2375	-1.5896	-0.97917	-1.6708	-1.2396	-0.91042	-1.875	-1.0312	-1.1187	-1.6292	-0.93333	-1.6979	-1.4937	-0.78125	-1.7229	154.432	357.385	355.459	36.064	316.378	217.764	313.008	386.793	134.441	307.382	366.153	353.293	366.092	67.948	275.183	301.110	0.0003366	0.00059423	0.00012817	1384.8	6.528e-06	8.2756e-06	1394.5	369.97	3.3111e-06	4.3178e-06	429.37	140.65	121.22	40.785	2.8784e-06	50.276	0.0016526	0.0024368	0.00068285	1411.4	2.514e-05	2.704e-05	1419.5	379.89	2.5071e-05	2.7652e-05	441.13	145.76	125.48	42.434	2.5885e-05	52.325	218.865	117.649	102.818	42.272	201.273	174.813	42.428	46.906	198.604	192.132	46.313	51.389	51.723	55.815	170.140	55.059	-8191	255	
810.309	1	1	0	0	0.28843	0.1324	0.0057479	0.35635	0.017186	0.35183	0.14449	0.15449	0.15604	0.029274	0.2916	0.27305	0.16461	0.067349	0.13326	0.20903	-0.64583	-1.0708	-1.6396	-1.05	-1.6437	-1.4604	-1.1167	-2.0187	-1.0417	-1.1042	-1.8583	-0.96042	-1.4562	-1.6917	-0.91875	-1.7896	361.649	89.016	290.809	349.705	222.762	383.613	362.525	329.659	261.160	355.982	320.714	372.249	130.242	41.370	80.233	305.970	0.00037762	0.00088141	0.0001155	1382.7	6.7369e-06	3.7364e-06	1387.6	370.61	2.2595e-06	5.3547e-06	431.75	140.39	121.67	40.692	3.8899e-06	50.416	0.0016362	0.0024684	0.00068581	1410.5	2.5169e-05	2.7173e-05	1415.8	380.48	2.4648e-05	2.6982e-05	441.67	145.36	125.71	42.345	2.5931e-05	52.386	224.317	83.915	102.010	42.363	224.048	172.218	42.595	47.342	211.968	190.713	46.213	51.332	51.701	55.871	172.947	55.258	-8191	255	
810.405	1	1	0	0	0.052464	0.23728	0.17513	0.047563	0.082881	0.071173	0.2182	0.21403	0.10406	0.20753	0.15401	0.076199	0.16814	0.16758	0.31008	0.2975	-0.775	-1.0125	-1.7396	-1.2458	-1.4021	-1.6208	-1.1187	-1.7292	-1.3104	-1.0938	-1.9958	-1.0875	-1.4646	-1.7667	-0.80625	-1.7729	66.696	168.983	352.093	338.559	29.846	242.678	155.365	273.815	365.138	232.295	36.760	384.982	378.064	304.028	100.283	315.247	0.00030678	0.00094899	0.00014539	1382.5	8.2296e-06	8.0138e-06	1395	370.56	1.5105e-06	6.8535e-06	427.02	140.83	121.32	40.743	1.5474e-06	50.313	0.001626	0.0024711	0.00068647	1409.5	2.5254e-05	2.6638e-05	1416.4	379.96	2.5282e-05	2.7054e-05	439.47	145.88	125.43	42.351	2.609e-05	52.292	216.757	108.722	86.534	42.562	213.573	184.555	42.353	47.222	197.580	185.110	46.599	51.440	51.547	55.518	179.901	54.744	-8191	255	
810.525	1	1	0	0	0.11167	0.24311	0.22705	0.26438	0.1936	0.18596	0.32172	0.42573	0.15244	0.20737	0.11813	0.16183	0.20726	0.18537	0.12243	0.41053	-1.0021	-1.0083	-1.9417	-1.1958	-1.0667	-1.6417	-1.325	-1.9083	-1.2667	-0.87708	-1.7729	-1.3833	-1.2771	-1.9208	-0.86875	-1.7396	177.127	335.579	235.080	119.077	269.726	133.527	356.372	342.166	180.842	275.369	348.892	364.784	385.488	365.660	257.876	338.027	0.0003167	0.00049386	0.00018022	1384.7	5.967e-06	3.1324e-06	1394.3	369.42	5.4955e-06	4.8284e-06	429.04	140.96	121.73	40.68	4.6801e-06	50.359	0.0016388	0.0024878	0.00067222	1408.8	2.569e-05	2.6649e-05	1414.3	379.52	2.4743e-05	2.7124e-05	440.44	145.51	125.53	42.33	2.5785e-05	52.301	221.160	91.420	110.493	42.062	211.374	205.621	42.301	47.117	175.077	188.578	46.156	51.031	51.727	55.473	231.822	54.883	-8191	255	
810.622	1	1	0	0	0.11788	0.23685	0.070901	0.097443	0.080085	0.076306	0.17747	0.11463	0.25286	0.13168	0.11334	0.24483	0.37244	0.24707	0.084074	0.22986	-1.0812	-0.65208	-1.6479	-1.3937	-0.91667	-1.4979	-1.0458	-1.4125	-1.2875	-0.84375	-1.7354	-1.3979	-1.0958	-1.9208	-1.05	-1.4979	143.008	180.733	296.911	362.422	81.507	305.116	333.340	304.092	119.044	270.437	235.221	338.754	344.870	345.052	307.580	356.705	0.00038521	0.00090491	0.00011017	1380.5	9.6994e-06	4.4315e-06	1390.1	369.9	4.1151e-06	5.2093e-06	429.45	140.04	121.73	40.881	6.4448e-06	50.409	0.0016358	0.002425	0.00067465	1407.9	2.4697e-05	2.665e-05	1414.7	379.7	2.4596e-05	2.6765e-05	440.4	145.35	125.41	42.431	2.5586e-05	52.336	215.399	106.053	118.985	42.141	215.853	124.427	42.315	47.190	225.133	154.268	46.512	51.419	51.756	55.961	201.187	55.197	-8191	255	
810.718	1	1	0	0	0.18645	0.22662	0.28695	0.14362	0.11341	0.3017	0.25781	0.24662	0.15676	0.1286	0.1355	0.098485	0.24484	0.23707	0.17086	0.2473	-1.1271	-0.86458	-1.5187	-1.3396	-0.96042	-1.8771	-1.2646	-1.4458	-1.5771	-0.89792	-1.8771	-1.4667	-0.93958	-1.7958	-0.99167	-1.4229	340.756	184.060	81.446	354.416	282.040	114.932	345.893	31.645	206.898	102.480	345.003	352.012	339.060	36.010	296.295	321.320	0.00037315	0.00086539	0.00010674	1381.6	7.6732e-06	6.7017e-06	1388.1	370.45	5.7217e-06	5.048e-06	429.3	140.62	121.59	40.908	2.5013e-06	50.459	0.0016292	0.0024059	0.00067863	1408.9	2.514e-05	2.6787e-05	1413.6	380.35	2.4244e-05	2.6862e-05	440.4	145.47	125.52	42.358	2.5733e-05	52.308	209.375	117.431	124.563	41.981	155.415	199.526	42.149	47.102	235.207	152.206	46.437	51.652	51.789	55.864	178.024	55.276	-8191	255	
810.814	1	1	0	0	0.18674	0.17929	0.15155	0.45139	0.15928	0.14569	0.28803	0.19029	0.25769	0.26507	0.44409	0.19522	0.081773	0.15621	0.035534	0.076167	-1.4167	-0.90625	-1.5229	-1.6917	-0.92292	-1.4917	-1.1646	-1.1708	-1.7375	-0.76875	-1.6708	-1.4792	-0.85417	-1.7188	-1.0917	-1.1125	265.638	139.399	158.301	311.992	146.120	122.203	384.291	31.982	335.425	179.511	47.840	30.987	79.771	327.251	305.083	330.668	0.00033785	0.00016704	0.00014802	1379.5	1.0155e-05	5.6058e-06	1384.8	370.81	3.9144e-06	2.4998e-06	427.16	140.68	120.63	40.79	8.9258e-06	50.427	0.0016137	0.0024098	0.00068396	1407.1	2.5347e-05	2.6927e-05	1414.8	379.54	2.4481e-05	2.6862e-05	440.16	145.46	125.37	42.395	2.6371e-05	52.378	223.199	39.581	130.693	42.014	205.129	181.356	42.582	47.189	209.715	172.802	46.573	51.444	51.313	56.143	180.428	55.096	-8191	255	
810.910	1	1	0	0	0.16344	0.25536	0.065429	0.33095	0.23769	0.12246	0.35281	0.35221	0.05686	0.15909	0.1295	0.21321	0.23093	0.17569	0.012025	0.29132	-1.3708	-0.9375	-1.475	-1.8042	-0.8	-1.7271	-1.4292	-1.2125	-1.6792	-1.0479	-1.5792	-1.6562	-0.94375	-1.7062	-1.2208	-1.0229	188.696	54.542	31.508	373.853	280.090	235.696	277.495	314.214	245.798	237.051	334.677	364.737	61.790	387.611	165.425	302.819	0.00030599	0.00020336	0.00014241	1380.6	5.2176e-06	5.0266e-06	1385.9	371.84	4.6089e-06	6.6343e-06	428.53	140.57	121.87	40.676	5.14e-06	50.211	0.0016143	0.0023741	0.00068307	1407.6	2.5087e-05	2.7099e-05	1413.8	379.77	2.442e-05	2.6684e-05	440.11	145.65	125.48	42.392	2.5934e-05	52.259	206.976	75.780	112.537	42.163	203.735	219.330	42.423	47.209	213.606	183.565	46.556	51.321	51.486	56.024	173.709	55.357	-8191	255	
811.005	1	1	0	0	0.1206	0.037667	0.37625	0.3498	0.090849	0.078646	0.47104	0.54107	0.23434	0.19339	0.20396	0.27433	0.075764	0.091832	0.15286	0.43288	-1.2104	-1.1437	-1.1104	-1.775	-0.93333	-1.3708	-1.6667	-1.0042	-1.7854	-0.97292	-1.1979	-1.8208	-0.94792	-1.3854	-1.4021	-1.0729	293.548	79.439	385.362	350.231	356.827	288.219	301.818	333.861	290.373	299.102	132.337	320.592	119.251	240.730	345.127	351.348	0.00042455	0.00018204	0.00024419	1383.7	4.092e-06	4.984e-06	1391	370.96	7.3708e-06	3.6407e-06	428.3	140.86	121.02	40.636	9.3926e-07	50.424	0.0016188	0.0024	0.0006883	1409.2	2.4871e-05	2.6695e-05	1414.3	379.57	2.4467e-05	2.694e-05	439.96	145.4	125.05	42.229	2.5611e-05	52.27	202.446	151.874	79.147	42.396	217.656	140.886	42.659	47.375	221.930	226.585	46.530	51.402	51.753	56.243	86.707	55.238	-8191	255	
811.101	1	1	0	0	0.1551	0.24923	0.18126	0.2527	0.3168	0.093519	0.52102	0.36934	0.26935	0.076976	0.26698	0.16779	0.39393	0.29309	0.099145	0.26148	-1.1292	-0.96042	-1.1875	-1.825	-0.97083	-1.6063	-1.6979	-1.0042	-1.65	-0.99375	-1.1437	-1.8354	-0.86667	-1.4625	-1.5771	-0.9375	328.546	178.945	241.630	298.023	96.342	339.987	302.423	30.677	242.884	44.444	30.599	226.984	52.459	332.141	189.870	375.222	0.00032148	0.00028836	0.00014039	1382.9	3.106e-06	5.1347e-06	1389.7	369.09	5.1594e-06	8.3801e-06	427.65	140.47	120.91	40.834	4.2933e-06	50.42	0.0016141	0.0024127	0.00068117	1408.9	2.5204e-05	2.6888e-05	1413.5	379.01	2.4745e-05	2.7293e-05	440.13	145.19	125.16	42.388	2.5152e-05	52.284	207.855	108.920	109.175	42.526	228.295	191.072	42.802	47.448	245.712	186.283	46.816	51.534	51.993	56.240	164.562	55.237	-8191	255	
811.221	1	1	0	0	0.032931	0.084974	0.17174	0.3991	0.097378	0.28059	0.18303	0.24543	0.1364	0.32739	0.27428	0.184	0.33582	0.10212	0.099025	0.16293	-1.2104	-1.0521	-1.0354	-1.9583	-1.0562	-1.2625	-1.9646	-1.1354	-1.6875	-1.4708	-1.0625	-1.9104	-1.125	-1.4438	-1.7667	-0.88333	177.334	323.390	110.719	333.790	187.774	357.851	292.479	322.286	56.186	86.774	344.378	322.439	371.047	305.029	140.997	324.515	0.0003839	0.00042216	0.0001617	1377.2	3.225e-06	7.0543e-06	1388.3	370.52	3.5489e-06	3.0248e-06	426.61	140.54	120.6	40.862	5.8044e-06	50.38	0.0016085	0.0023918	0.00067357	1405.3	2.4986e-05	2.6788e-05	1412.4	379.73	2.4535e-05	2.7215e-05	439.18	145.38	125.05	42.385	2.5786e-05	52.17	214.425	98.093	116.306	41.937	189.291	176.554	42.217	47.228	196.762	250.583	46.444	51.215	51.587	56.219	204.730	55.332	-8191	255	
811.317	1	1	0	0	0.25417	0.088377	0.081068	0.13451	0.12837	0.29717	0.32716	0.27362	0.15365	0.013348	0.042858	0.041633	0.1571	0.20441	0.17537	0.23574	-1.1042	-1.2396	-1.0167	-1.8542	-1.0917	-1.0646	-1.9958	-0.98542	-1.5458	-1.4396	-1.1562	-1.9229	-1.2938	-1.125	-1.6437	-0.97917	81.884	309.424	161.207	124.662	199.552	260.047	369.379	309.584	84.951	292.457	253.469	156.990	379.062	358.152	43.274	312.169	0.00034897	0.00044377	5.2165e-05	1374.5	6.404e-06	4.883e-06	1391.4	370.73	7.8848e-06	5.4566e-06	427.97	140.69	121.19	40.901	4.778e-06	50.481	0.0016452	0.0024183	0.00069218	1405	2.5249e-05	2.7235e-05	1414.3	379.61	2.5176e-05	2.7683e-05	440.11	145.83	125.38	42.407	2.5908e-05	52.329	209.725	112.094	89.437	42.344	205.385	228.487	42.737	47.523	248.849	232.937	46.181	51.409	51.573	55.706	219.558	55.339	-8191	255	
811.414	1	1	0	0	0.31116	0.23082	0.043422	0.23013	0.055364	0.21531	0.35772	0.16625	0.28607	0.06994	0.24358	0.096842	0.10096	0.16205	0.050706	0.12887	-0.99583	-1.3813	-0.78333	-1.9417	-1.2646	-1.1125	-1.9229	-1.1958	-1.3333	-1.6104	-0.9875	-1.5979	-1.3333	-1.1896	-1.6104	-0.93125	232.420	275.023	277.066	58.999	235.067	334.045	340.343	377.722	336.106	235.800	371.758	329.832	315.105	382.985	191.366	130.727	0.00032879	0.00048379	0.00012773	1381.5	4.1914e-06	4.1354e-06	1392.1	370.02	1.6352e-06	3.843e-06	430.76	141.46	121.13	40.842	6.4941e-06	50.262	0.0017087	0.0025056	0.00070726	1410.7	2.6391e-05	2.8332e-05	1414.9	379.83	2.5614e-05	2.8106e-05	441.94	146.08	125.38	42.441	2.6684e-05	52.286	209.054	112.462	116.162	42.253	238.606	139.261	42.397	46.990	215.205	205.996	46.524	51.818	51.715	56.182	157.651	55.436	-8191	255	
811.485	1	1	0	0	0.15942	0.058418	0.23838	0.12618	0.18082	0.36479	0.27135	0.15238	0.13974	0.1296	0.26371	0.22021	0.36534	0.16677	0.05563	0.23009	-0.97292	-1.6271	-0.51042	-1.7188	-1.2479	-0.74375	-1.8875	-1.3708	-1.2854	-1.7333	-0.98542	-1.6583	-1.4542	-1.1063	-1.575	-1.2	331.147	310.599	217.264	289.458	96.916	171.777	307.306	387.003	223.120	105.229	87.024	271.091	369.236	32.497	352.684	340.188	0.00033888	0.00059342	0.00015967	1386.1	8.4336e-06	5.3343e-06	1394.8	369.95	5.1616e-06	6.1855e-06	429.83	140.82	121.53	40.983	3.2672e-06	50.125	0.0017121	0.002467	0.00070674	1411.6	2.6076e-05	2.8286e-05	1419	380.01	2.553e-05	2.7712e-05	440.87	145.79	125.61	42.493	2.6633e-05	52.295	217.116	132.752	120.614	42.839	209.705	191.673	42.524	47.328	216.212	199.599	46.761	51.293	51.215	55.549	167.988	54.708	-8191	255	
811.606	1	1	0	0	0.32101	0.21857	0.068225	0.18667	0.14592	0.043049	0.54799	0.21271	0.10009	0.18302	0.17915	0.24458	0.13057	0.046479	0.17854	0.17397	-0.64583	-1.7396	-0.7125	-1.9896	-1.2875	-0.82708	-1.8687	-1.1646	-0.92292	-1.5292	-0.95833	-1.5021	-1.5458	-0.90208	-1.4375	-1.2188	216.657	194.126	300.196	339.987	102.108	301.753	304.067	34.929	78.599	136.507	212.915	31.948	44.012	136.493	68.567	258.114	0.00033596	0.00032686	0.00018094	1383.7	7.3169e-06	2.0602e-06	1389.6	370.86	4.9504e-06	7.5485e-06	429.9	141.22	121.04	41.014	7.1773e-06	50.803	0.0016965	0.0025041	0.00070478	1412.7	2.6117e-05	2.8004e-05	1416	380.05	2.5751e-05	2.7602e-05	441.23	145.89	125.31	42.48	2.6444e-05	52.468	216.765	147.097	112.009	42.180	232.620	170.654	42.159	46.696	193.040	225.886	46.289	50.982	51.371	55.603	221.132	54.473	-8191	255	
811.702	1	1	0	0	0.18807	0.029877	0.37098	0.14517	0.14459	0.080405	0.15525	0.20454	0.10633	0.22403	0.1085	0.36752	0.32836	0.23841	0.48342	0.24168	-0.77292	-1.7125	-0.95625	-1.5063	-1.5646	-0.83333	-1.9042	-1.2917	-1.0812	-1.7083	-1.0604	-1.5375	-1.7396	-0.98958	-1.5812	-1.4333	346.993	330.264	304.008	376.193	299.482	350.371	54.109	370.484	377.115	285.047	131.906	337.889	352.671	379.444	31.653	385.351	0.00030677	0.00096305	0.00021307	1384.8	7.2042e-06	5.6416e-06	1389.4	370.06	3.4592e-06	2.4448e-06	429.41	140.33	121.21	41.005	5.763e-06	50.37	0.0016623	0.0024678	0.00070609	1411.8	2.5946e-05	2.7309e-05	1417.8	380.4	2.5604e-05	2.7848e-05	440.47	145.7	125.62	42.522	2.6936e-05	52.406	212.901	123.373	82.754	42.004	199.080	161.897	41.988	46.841	253.709	200.383	46.132	51.069	51.321	55.342	241.224	54.723	-8191	255	
811.798	1	1	0	0	0.11935	0.24662	0.17407	0.46929	0.24131	0.17856	0.49106	0.34991	0.14679	0.12544	0.1422	0.13198	0.026114	0.1345	0.21689	0.12641	-0.54583	-1.5979	-0.95625	-1.3875	-1.5125	-0.82708	-1.8125	-1.6146	-0.8375	-1.5521	-1.0417	-1.3229	-1.7021	-1.1292	-1.5375	-1.4583	334.068	106.786	104.695	371.000	340.504	240.404	343.350	367.034	321.487	366.568	37.163	367.503	267.324	33.093	350.012	245.256	0.00039426	0.00064793	0.00020759	1386.4	5.4462e-06	7.0637e-06	1392.3	369.72	4.8963e-06	2.05e-06	430.31	140.31	121.87	40.562	4.8554e-06	50.324	0.00168	0.0024767	0.00070671	1412.4	2.6218e-05	2.7803e-05	1419.2	379.94	2.5039e-05	2.7447e-05	441.33	145.68	125.5	42.361	2.6466e-05	52.263	220.170	106.782	131.259	41.879	249.743	182.150	41.944	46.712	212.940	261.050	45.697	50.872	51.052	55.307	130.891	54.654	-8191	255	
811.894	1	1	0	0	0.21524	0.1288	0.02424	0.1332	0.33781	0.24724	0.32047	0.14546	0.19055	0.14592	0.20339	0.25002	0.22691	0.23397	0.11336	0.24288	-0.56875	-1.6875	-1.1583	-1.1562	-1.5854	-0.88542	-1.6938	-1.7625	-0.84792	-1.6396	-1.3292	-1.2083	-1.7563	-1.2	-1.2958	-1.5708	39.913	328.952	74.960	280.666	292.538	252.851	366.653	340.045	252.038	74.620	268.539	291.486	343.313	302.042	362.978	29.893	0.00037257	0.00067904	0.00016158	1382.8	6.0159e-06	5.3836e-06	1394.6	369.31	8.1606e-06	3.8767e-06	429.35	140.93	121.14	40.93	3.1677e-06	50.581	0.0016567	0.0024618	0.00069797	1411	2.5362e-05	2.7574e-05	1418.5	379.66	2.4987e-05	2.7566e-05	440.66	145.53	125.35	42.411	2.6157e-05	52.416	220.056	110.128	123.127	42.092	260.167	169.664	42.086	46.744	223.794	139.697	45.973	50.821	51.248	55.530	204.570	54.838	-8191	255	
812.013	1	1	0	0	0.14586	0.14149	0.14564	0.44268	0.14533	0.1373	0.1045	0.20277	0.10381	0.045326	0.16215	0.24943	0.16882	0.46879	0.14652	0.23542	-0.5625	-1.5354	-1.1938	-1.1042	-1.5979	-0.92292	-1.6542	-1.8125	-0.77292	-1.6979	-1.4708	-1.1854	-1.9917	-1.0021	-1.2292	-1.7917	206.248	231.972	321.606	347.759	159.985	341.091	341.161	30.294	327.158	201.246	381.546	317.980	45.385	349.042	207.584	314.667	0.00033735	0.00048143	0.00023853	1381.3	6.3413e-06	6.3473e-06	1392.9	369.42	6.3653e-06	3.0235e-06	428.46	141.05	121.15	40.816	4.9605e-06	50.431	0.001636	0.0024995	0.00069535	1410.5	2.5153e-05	2.7514e-05	1417.2	379.65	2.5037e-05	2.7185e-05	440.95	145.76	125.56	42.46	2.6844e-05	52.261	219.880	134.486	122.159	41.829	194.336	167.135	42.093	46.749	191.678	139.801	46.122	51.138	51.423	55.271	207.006	54.617	-8191	255	
812.087	1	1	0	0	0.18738	0.10519	0.12556	0.12886	0.25708	0.21442	0.11647	0.34809	0.17309	0.024527	0.13217	0.19923	0.44529	0.11548	0.22955	0.18403	-0.36875	-1.4771	-1.1625	-1.0083	-1.6375	-0.92083	-1.0896	-1.9125	-0.86875	-1.2958	-1.7687	-0.92292	-1.7729	-1.2062	-0.99583	-1.6562	181.527	126.568	127.835	97.731	174.539	36.826	49.832	56.659	127.541	129.152	381.283	31.558	303.846	107.295	133.660	368.731	0.00035306	0.00067911	0.00011563	1383.3	6.6728e-06	5.828e-06	1391	369.91	2.5518e-06	8.084e-06	426.89	140.69	121.8	40.851	6.397e-06	50.645	0.0016672	0.0025362	0.00071079	1411.8	2.6229e-05	2.8161e-05	1417.7	379.61	2.5948e-05	2.8513e-05	440.98	145.81	125.77	42.487	2.7517e-05	52.491	218.449	115.944	109.767	41.910	209.126	193.855	41.860	46.609	254.255	192.106	45.804	50.972	51.466	55.280	159.058	54.580	-8191	255	
812.206	1	1	0	0	0.1022	0.13062	0.085181	0.15124	0.13844	0.1072	0.079113	0.52572	0.19744	0.2434	0.55014	0.19738	0.26381	0.22818	0.40125	0.26842	-0.5625	-1.4333	-1.425	-1.0562	-1.5521	-1.1979	-1.2146	-1.9708	-0.95625	-1.3083	-1.7375	-1.1313	-1.8104	-1.35	-0.98958	-1.7229	300.064	347.342	183.055	32.447	303.062	226.864	292.711	347.576	304.837	130.132	331.859	364.997	287.236	44.619	40.024	364.204	0.00034418	0.00044775	0.00016011	1389.4	1.1047e-05	4.0881e-06	1392.2	372.48	2.5441e-06	3.5135e-06	428.24	140.82	121.98	40.708	7.2417e-06	50.532	0.0016867	0.0025461	0.00071327	1416.6	2.6092e-05	2.8746e-05	1421.5	381.1	2.6338e-05	2.8731e-05	441.19	146	125.96	42.468	2.7426e-05	52.417	208.415	120.428	152.160	42.000	242.277	123.358	42.084	46.796	211.309	154.327	45.880	50.931	51.249	55.515	202.680	54.816	-8191	255	
812.302	1	1	0	0	0.21505	0.38984	0.078995	0.30659	0.23385	0.30776	0.29375	0.2817	0.20468	0.044566	0.4872	0.1212	0.027614	0.065367	0.08749	0.15543	-0.34583	-1.2167	-1.5396	-0.975	-1.5688	-1.3125	-1.125	-1.8646	-1.0312	-1.1104	-1.8146	-1.0042	-1.7167	-1.5833	-0.73958	-1.7958	111.184	31.594	111.036	381.904	272.881	73.041	341.449	367.586	144.309	256.243	357.083	375.996	168.389	336.234	345.230	310.507	0.00029664	0.0004291	0.00019285	1386.7	4.2505e-06	4.7301e-06	1396.1	372.33	6.2671e-06	5.8975e-06	430.83	140.98	122.18	40.966	4.5963e-06	50.717	0.001733	0.0025906	0.00071776	1416.9	2.6555e-05	2.8639e-05	1422.6	381.44	2.5748e-05	2.8084e-05	442.59	146.28	126.31	42.583	2.5978e-05	52.601	215.192	167.932	92.101	41.956	244.783	227.708	42.112	46.961	187.532	155.114	46.199	51.504	51.444	55.539	219.268	54.727	-8191	255	
812.398	1	1	0	0	0.14606	0.10628	0.14165	0.09721	0.13526	0.12159	0.12418	0.38956	0.23967	0.15628	0.28353	0.15633	0.083428	0.16812	0.20993	0.030618	-0.5375	-1.1479	-1.6521	-0.95625	-1.4312	-1.2979	-1.1396	-1.9229	-1.0458	-0.99792	-1.6708	-0.97708	-1.3208	-1.6542	-0.675	-1.8146	39.217	190.324	225.816	62.067	368.150	377.592	343.567	316.586	308.688	225.572	49.904	66.030	358.686	57.001	184.468	301.825	0.00034055	0.00059318	0.00021162	1400.6	4.7754e-06	5.0798e-06	1409	374.65	6.6094e-06	2.6662e-06	432.74	141.98	123.04	41.296	4.2432e-06	51.112	0.0016865	0.0024992	0.00069354	1424.6	2.5364e-05	2.6998e-05	1432.6	383.98	2.4912e-05	2.7316e-05	445.88	147.16	127.22	42.906	2.5803e-05	53.012	207.887	107.566	105.901	42.110	232.377	183.625	42.413	46.959	215.303	225.935	46.034	51.234	51.688	55.736	197.777	55.282	-8191	255	
812.494	1	1	0	0	0.23166	0.21778	0.32161	0.22945	0.055686	0.043021	0.094441	0.28438	0.26344	0.2798	0.53488	0.24023	0.18449	0.22568	0.18478	0.090084	-0.97708	-0.91667	-1.8146	-0.93125	-1.2396	-1.5688	-0.98333	-2.0271	-1.2521	-1.0583	-1.8417	-1.0271	-1.2104	-1.6938	-0.74167	-1.7542	179.369	255.067	230.751	346.402	180.438	271.717	248.997	364.264	333.657	278.274	323.735	264.996	345.162	350.382	386.541	288.638	0.0003779	0.00076714	0.00014574	1407.7	2.4296e-06	4.6689e-06	1413.9	376	9.3528e-06	9.8434e-06	438.42	142.15	123.27	41.576	6.9358e-06	51.52	0.0016749	0.0025308	0.00068749	1433.7	2.6074e-05	2.8044e-05	1439.8	385.58	2.6061e-05	2.8611e-05	447.94	147.5	127.42	43.2	2.853e-05	53.401	215.172	65.661	135.263	42.091	235.018	207.792	42.639	47.284	196.196	180.718	46.419	51.322	51.931	55.785	194.028	55.190	-8191	255	
812.615	1	1	0	0	0.10911	0.18367	0.22175	0.11614	0.32382	0.19168	0.11404	0.41811	0.010663	0.11561	0.15101	0.26472	0.11415	0.13006	0.056533	0.25388	-0.89583	-0.81458	-1.7583	-1.2938	-1.0625	-1.9396	-0.98958	-1.5688	-1.3	-0.89583	-1.7625	-1.1083	-1.2437	-1.6729	-0.84375	-1.6542	305.557	103.759	290.399	328.075	249.302	126.554	279.005	325.339	353.464	365.981	345.262	356.432	238.724	281.049	118.423	285.174	0.0003745	0.00067156	0.00012901	1411.6	5.9887e-06	6.4967e-06	1413.7	376.72	3.3644e-06	6.1637e-06	436.22	142.86	123.75	41.563	6.0592e-06	51.553	0.0017895	0.0026425	0.00074161	1437.4	2.8137e-05	2.9642e-05	1441.7	386.54	2.7276e-05	2.9605e-05	448.28	147.98	128.08	43.313	2.831e-05	53.62	215.659	150.692	138.273	42.352	187.827	166.418	42.604	47.162	211.523	157.622	46.281	51.272	51.776	56.248	235.335	55.373	-8191	255	
812.711	1	1	0	0	0.13692	0.2848	0.047496	0.2991	0.16952	0.18229	0.39332	0.27119	0.063085	0.15642	0.11701	0.31984	0.15174	0.30514	0.077142	0.16597	-1.0271	-0.72708	-1.5208	-1.2458	-0.89792	-1.6792	-0.96458	-1.5812	-1.4417	-0.86458	-1.7021	-1.15	-1.0458	-1.85	-0.96875	-1.4396	63.871	333.013	306.826	345.683	221.256	277.113	358.375	342.931	162.539	229.062	369.691	56.201	343.608	375.135	291.934	354.932	0.00038634	0.00058494	0.00024601	1413.2	5.8666e-06	3.1544e-06	1414.3	377.84	2.639e-06	3.8364e-06	436.86	142.91	124.04	41.784	6.4501e-06	51.632	0.0017976	0.0026652	0.00074023	1440.8	2.7469e-05	2.9158e-05	1444.5	387.48	2.6797e-05	2.9332e-05	449.3	148.2	128.49	43.457	2.796e-05	53.713	216.542	126.155	119.711	42.433	229.735	146.547	42.537	46.971	236.024	211.334	46.469	51.533	51.718	55.749	195.332	55.095	-8191	255	
812.782	1	1	0	0	0.20007	0.12167	0.19864	0.17801	0.18062	0.21973	0.19975	0.32454	0.27058	0.17713	0.11621	0.091246	0.1782	0.15715	0.30349	0.17578	-0.94583	-0.73125	-1.775	-1.4646	-0.825	-1.675	-1.2458	-1.4729	-1.4521	-0.77292	-1.8083	-1.4979	-1.0021	-1.7917	-0.9125	-1.2896	197.595	113.623	68.819	365.138	102.776	356.156	338.216	372.669	357.461	336.195	44.575	369.401	36.460	290.448	276.690	379.661	0.00040068	0.00083869	7.49e-05	1420.5	5.0153e-06	7.4059e-06	1422.4	377.54	5.2354e-06	1.8492e-06	435.66	142.52	124.4	41.812	9.8185e-06	51.532	0.0017405	0.0026451	0.00073252	1443.3	2.6839e-05	2.8266e-05	1445.8	386.93	2.6099e-05	2.8554e-05	448.77	148.01	128.28	43.378	2.7316e-05	53.617	214.805	103.016	74.461	42.252	250.363	201.439	42.460	47.190	245.096	311.077	46.615	51.549	51.966	56.008	222.617	55.547	-8191	255	
812.903	1	1	0	0	0.19563	0.43387	0.18848	0.25268	0.248	0.39595	0.021306	0.067377	0.20089	0.29658	0.34971	0.24639	0.066518	0.21282	0.058705	0.21366	-1.2687	-0.83542	-1.4125	-1.5542	-0.80208	-1.7208	-1.2812	-1.4479	-1.5833	-0.86458	-1.5688	-1.4896	-0.82708	-1.7083	-1.2479	-1.1625	376.773	246.529	298.303	341.914	174.408	103.409	33.515	48.510	304.742	384.171	37.995	331.618	354.051	313.224	166.344	309.016	0.0003869	0.00049357	0.00018232	1415.8	5.2738e-06	7.1122e-06	1420	377.89	6.7307e-06	5.5028e-06	438.01	143.24	124.71	41.86	3.0473e-06	51.662	0.0017329	0.0025419	0.00072122	1441.6	2.6758e-05	2.8053e-05	1445.9	387.16	2.5655e-05	2.8884e-05	449.29	148.31	128.58	43.376	2.7611e-05	53.705	215.301	88.046	96.643	42.279	244.098	160.435	42.569	47.128	211.483	134.829	46.750	51.517	52.024	56.210	144.522	55.694	-8191	255	
812.997	1	1	0	0	0.37815	0.18956	0.10972	0.33185	0.21933	0.089581	0.32389	0.11963	0.043416	0.17421	0.30964	0.328	0.20766	0.19051	0.29599	0.0789	-1.2396	-0.69167	-1.2958	-1.5229	-0.80417	-1.7062	-1.4188	-1.2625	-1.7458	-1.0458	-1.3958	-1.7375	-0.9375	-1.7479	-1.1812	-0.94167	331.644	363.769	100.906	364.077	257.828	293.801	302.220	51.109	120.036	231.590	301.480	53.993	82.440	279.404	161.192	258.559	0.00035922	0.00044182	0.00018897	1414.5	8.2726e-06	7.7727e-06	1417.4	378.79	3.494e-06	4.6808e-06	437.19	142.9	124.19	41.844	5.9983e-06	51.715	0.0017019	0.0025787	0.00072776	1440.4	2.6866e-05	2.8752e-05	1445.3	387.47	2.5685e-05	2.8182e-05	449.74	148.18	128.42	43.485	2.7521e-05	53.573	215.398	108.842	122.763	42.579	209.683	147.370	42.515	47.169	201.084	176.837	45.974	50.844	51.328	55.317	168.158	54.617	-8191	255	
813.094	1	1	0	0	0.14778	0.13529	0.11167	0.45109	0.059435	0.11971	0.20036	0.32408	0.18681	0.17988	0.25116	0.14992	0.47941	0.19845	0.26491	0.042266	-1.3104	-0.83958	-1.0521	-1.8	-0.88333	-1.6292	-1.5812	-1.0417	-1.575	-0.85208	-1.0875	-1.6292	-0.95208	-1.6479	-1.4146	-0.93958	127.802	326.278	205.422	377.418	50.183	126.103	281.977	306.005	355.868	43.418	330.978	351.613	381.487	369.779	260.396	319.555	0.00035023	0.00086164	9.439e-05	1410.4	6.0371e-06	3.7521e-06	1415.5	377.98	2.9628e-06	4.368e-06	438.54	143.32	124.81	41.912	6.9454e-06	51.617	0.0017051	0.0025721	0.00072317	1441.2	2.6635e-05	2.8466e-05	1445.6	387.55	2.5885e-05	2.8425e-05	450.13	148.21	128.69	43.564	2.6916e-05	53.704	218.562	119.379	143.691	41.719	157.679	220.514	41.784	46.938	218.554	216.934	45.798	50.874	51.348	55.562	210.334	55.075	-8191	255	
813.190	1	1	0	0	0.12737	0.17305	0.21511	0.36928	0.028092	0.082422	0.1521	0.34525	0.18264	0.52087	0.071606	0.21021	0.3686	0.22705	0.055744	0.24493	-1.2604	-0.8875	-1.0229	-1.8438	-0.9	-1.4021	-1.775	-0.97708	-1.4375	-1.1396	-1.1667	-1.6583	-1.1833	-1.3979	-1.2604	-0.79583	366.212	321.788	336.740	319.725	162.800	47.908	381.485	353.127	183.262	371.256	381.552	360.064	333.342	74.657	319.758	380.111	0.00040993	0.00077549	7.8847e-05	1416.3	5.6491e-06	3.557e-06	1420.7	377.81	6.1742e-06	5.3581e-06	435.95	142.75	124.69	41.908	6.6047e-06	51.973	0.0017089	0.0025764	0.00071386	1442.7	2.6358e-05	2.8334e-05	1447.9	387.74	2.5728e-05	2.8179e-05	449.21	148.14	128.71	43.476	2.6945e-05	53.754	210.094	112.696	167.468	41.847	224.929	142.918	42.013	46.842	189.065	196.465	45.700	50.838	51.446	55.719	230.665	54.690	-8191	255	
813.286	1	1	0	0	0.16174	0.24847	0.20772	0.39744	0.050588	0.064048	0.46334	0.26493	0.073084	0.028398	0.24052	0.26132	0.25138	0.077338	0.13411	0.28859	-1.0875	-1.0292	-1.0292	-1.9667	-0.84167	-1.0562	-1.7854	-0.92917	-1.5812	-1.1333	-1.1729	-1.7812	-1.0771	-1.4396	-1.6625	-0.89792	374.213	44.957	297.554	373.028	362.270	178.470	343.899	295.243	236.286	57.939	346.020	310.572	305.805	332.405	117.706	39.178	0.00040903	0.00065547	0.00018979	1418.3	8.9019e-06	6.5823e-06	1420.9	376.55	2.9194e-06	4.9368e-06	435.58	142.79	124.45	41.819	7.5279e-06	51.891	0.0016949	0.0025144	0.0007071	1442.1	2.6164e-05	2.7402e-05	1445.9	386.88	2.4995e-05	2.7537e-05	449.06	148.21	128.7	43.451	2.6002e-05	53.739	211.359	68.877	115.647	41.837	230.630	196.991	42.027	46.754	235.615	217.204	45.831	50.571	51.171	55.556	205.006	54.421	-8191	255	
813.382	1	1	0	0	0.28122	0.11836	0.057067	0.34671	0.16918	0.069959	0.098243	0.36638	0.15584	0.073231	0.027241	0.36563	0.13691	0.13195	0.19075	0.29968	-1.2646	-1.3625	-0.73542	-1.9083	-0.91875	-1.1521	-1.9646	-0.78125	-1.3396	-1.2479	-0.94375	-1.6292	-1.2354	-1.3917	-1.7229	-0.83125	177.714	98.872	213.293	332.350	151.576	148.196	45.642	346.392	192.122	335.746	275.265	278.784	289.657	95.541	253.381	258.613	0.00041431	0.00031285	0.00013908	1410.7	6.0365e-06	4.8119e-06	1418.7	378.88	3.2263e-06	8.6004e-06	437.32	142.87	123.86	41.726	4.7522e-06	51.655	0.0016813	0.0024546	0.0006901	1439.4	2.6196e-05	2.7862e-05	1444.4	387.68	2.5237e-05	2.7466e-05	449.4	148.23	128.17	43.426	2.6304e-05	53.671	212.789	112.080	100.179	41.988	228.545	228.754	41.918	46.788	174.196	185.194	46.003	50.966	51.048	55.310	185.061	54.730	-8191	255	
813.478	1	1	0	0	0.046502	0.27204	0.20975	0.29972	0.21472	0.3418	0.31213	0.26332	0.051855	0.1701	0.33463	0.14849	0.1749	0.30254	0.097764	0.31835	-1.0229	-1.5646	-0.63958	-1.7729	-0.975	-0.88333	-1.9979	-1.0479	-1.6771	-1.5187	-0.84167	-1.6313	-1.3646	-1.1125	-1.6042	-1.0792	277.702	106.678	92.184	342.591	64.065	42.439	299.278	356.717	156.608	81.179	283.419	162.404	381.955	369.668	130.977	310.938	0.00035118	0.00068034	0.00017454	1415.4	8.8989e-07	5.5402e-06	1416.4	377.55	6.3779e-06	7.8287e-06	438.76	143.34	123.93	41.701	5.579e-06	51.535	0.0016773	0.002517	0.00069605	1441	2.608e-05	2.7645e-05	1441.5	387.12	2.5632e-05	2.7669e-05	449.66	148.14	128.44	43.384	2.6304e-05	53.645	221.741	122.634	112.420	41.983	245.132	146.534	41.944	46.747	197.207	181.020	46.255	50.985	51.268	55.645	209.273	54.531	-8191	255	
813.574	1	1	0	0	0.22509	0.21718	0.31152	0.28593	0.18494	0.14402	0.37245	0.1591	0.072405	0.15615	0.20192	0.30252	0.15708	0.33657	0.36993	0.088458	-0.88542	-1.5896	-0.61875	-1.7417	-1.1604	-0.90833	-1.9521	-1.0688	-1.3	-1.6229	-1.0083	-1.5896	-1.4396	-1.0187	-1.6313	-1.0562	47.326	60.779	304.947	362.708	77.828	285.534	325.275	281.685	184.261	99.845	42.094	337.140	145.849	378.528	146.942	52.811	0.00042219	0.00053618	0.0001725	1412.4	6.2563e-06	2.6663e-06	1418.7	377.84	5.4755e-06	4.037e-06	436.93	143.43	124.11	41.833	3.5415e-06	51.68	0.0016851	0.0024893	0.00070153	1438.6	2.6162e-05	2.731e-05	1444.5	386.71	2.5355e-05	2.7265e-05	448.88	148.4	128.44	43.406	2.6376e-05	53.713	228.072	176.610	137.562	42.065	209.903	155.366	42.253	46.919	191.278	206.213	46.103	51.494	51.398	56.007	219.989	54.968	-8191	255	
813.695	1	1	0	0	0.017338	0.13062	0.23963	0.4531	0.20574	0.16085	0.24511	0.15321	0.23313	0.051563	0.1802	0.21076	0.30583	0.25758	0.20143	0.055236	-0.8625	-1.5396	-0.71458	-1.5292	-1.3042	-0.8625	-1.7354	-1.2854	-1.0063	-1.7708	-0.825	-1.4375	-1.6167	-0.82292	-1.5625	-1.2938	142.755	207.626	388.744	386.911	32.988	291.104	329.181	236.559	57.158	95.550	32.806	189.223	294.531	190.037	303.812	192.361	0.00033402	0.00052156	0.00028188	1411.6	6.8504e-06	4.7431e-06	1420	377.01	2.2601e-06	5.9901e-06	436.51	143.36	124.25	41.629	5.0165e-06	51.603	0.0016918	0.0024672	0.00069764	1439.8	2.5802e-05	2.7762e-05	1444.6	386.48	2.5319e-05	2.7828e-05	449	148.24	128.48	43.383	2.6722e-05	53.577	212.428	111.498	111.506	42.056	209.031	199.935	42.060	46.893	226.401	174.478	45.903	51.107	51.686	56.101	188.415	55.265	-8191	255	
813.791	1	1	0	0	0.13609	0.01592	0.19214	0.091725	0.26952	0.01709	0.13486	0.61419	0.16704	0.25051	0.24421	0.13665	0.12111	0.10742	0.13513	0.25974	-0.68333	-1.6458	-0.83542	-1.4083	-1.5562	-0.72708	-1.7396	-1.4937	-0.97917	-1.7208	-0.95833	-1.4042	-1.6396	-1.0125	-1.4479	-1.3521	84.485	44.290	352.514	281.132	110.475	313.880	388.226	316.765	131.614	231.074	322.233	362.787	48.641	31.931	184.291	347.740	0.0003299	0.0004996	0.00010751	1410.5	7.7499e-06	5.1534e-06	1422.8	377.4	7.5394e-06	3.4244e-06	437.51	143.05	124.38	41.943	5.7182e-06	51.533	0.0017006	0.0025	0.00071474	1439.4	2.6117e-05	2.8407e-05	1445.6	386.88	2.5758e-05	2.7656e-05	449.14	147.97	128.64	43.478	2.6804e-05	53.685	212.536	118.664	137.514	42.008	215.617	178.476	42.094	46.673	212.220	224.795	45.956	51.156	51.440	55.592	193.439	54.935	-8191	255	
813.887	1	1	0	0	0.1394	0.11386	0.21899	0.43632	0.10135	0.17132	0.333	0.27643	0.052082	0.19562	0.22195	0.15648	0.25913	0.2764	0.15114	0.10108	-0.72708	-1.7	-1.0479	-1.4583	-1.475	-0.71875	-1.7479	-1.4417	-0.77917	-1.7604	-1.1313	-1.2083	-1.8208	-1.1187	-1.5604	-1.5583	76.093	316.403	341.885	384.770	297.028	177.840	32.952	340.964	107.128	372.648	296.289	297.655	338.909	316.753	135.925	197.006	0.00033279	0.00096417	0.0002081	1408.6	3.0087e-06	6.3487e-06	1418.2	375.38	7.0973e-06	5.7961e-06	439.12	143.4	125.04	41.82	5.8301e-06	51.77	0.0016962	0.0025084	0.00070655	1439.5	2.6289e-05	2.8085e-05	1447.2	386.69	2.576e-05	2.8245e-05	450.1	148.32	128.82	43.418	2.6947e-05	53.678	214.480	144.612	110.142	41.991	259.989	163.664	42.261	46.767	199.999	124.904	46.271	51.329	51.464	55.778	234.006	54.873	-8191	255	
813.983	1	1	0	0	0.023472	0.070234	0.19117	0.26045	0.086613	0.40705	0.26605	0.33744	0.24583	0.29258	0.3	0.25462	0.16524	0.19613	0.09427	0.18771	-0.33125	-1.6354	-1.1104	-1.1708	-1.7104	-0.86458	-1.8375	-1.5875	-0.78125	-1.6042	-1.1042	-1.0812	-1.8479	-0.9625	-1.3687	-1.7146	360.915	244.088	250.737	340.916	102.590	177.882	284.636	357.526	117.003	293.641	277.786	316.643	137.184	301.375	222.879	290.023	0.00038646	0.00017783	0.00013133	1417.6	6.8273e-06	3.606e-06	1418.7	376.58	6.3792e-06	4.8928e-06	437.42	143.43	124.67	41.87	7.8024e-06	52.194	0.0017178	0.002489	0.00070514	1441.4	2.6408e-05	2.8232e-05	1444.6	386.87	2.571e-05	2.8458e-05	449.22	148.34	128.89	43.502	2.6488e-05	53.859	220.480	88.248	128.039	42.278	217.781	219.930	42.298	46.786	201.216	221.787	46.012	50.943	51.370	55.401	225.713	54.761	-8191	255	
814.078	1	1	0	0	0.020083	0.21292	0.092601	0.28428	0.10758	0.15362	0.18021	0.15599	0.26565	0.33413	0.50733	0.096024	0.15101	0.21988	0.069531	0.21073	-0.22292	-1.5063	-1.1417	-0.99167	-1.7125	-0.83125	-1.5646	-1.7333	-0.9125	-1.6021	-1.4542	-1.1042	-1.7792	-1.1146	-1.2062	-1.8042	337.922	303.273	63.293	348.815	136.811	122.003	296.574	178.906	336.523	304.047	44.096	345.463	332.067	310.354	367.365	257.390	0.00036667	0.00088499	0.00018596	1418.1	4.8603e-06	4.2828e-06	1423.2	378.01	4.8959e-06	2.8535e-06	437.02	143.39	125.2	41.722	6.7206e-06	51.45	0.0017244	0.0025286	0.00071345	1444.3	2.6229e-05	2.8313e-05	1447.9	386.79	2.6013e-05	2.8579e-05	449.9	148.41	128.83	43.497	2.6847e-05	53.688	216.679	91.802	123.286	42.313	233.777	203.508	42.304	46.953	194.856	161.930	46.205	51.304	51.605	55.791	186.910	54.478	-8191	255	
814.174	1	1	0	0	0.20507	0.10408	0.415	0.16332	0.34013	0.11765	0.5218	0.36156	0.11177	0.061208	0.44163	0.16447	0.26909	0.38111	0.069707	0.030404	-0.50417	-1.5521	-1.2021	-1.0375	-1.7771	-1.0854	-1.2313	-1.7062	-0.79375	-1.4208	-1.6542	-1.1146	-1.6271	-1.1667	-1.0375	-1.7646	173.912	223.744	387.294	88.527	44.615	28.759	375.454	344.220	369.132	286.740	326.352	165.745	269.671	387.359	302.262	351.447	0.00032849	0.00072971	6.8499e-05	1415.6	6.9304e-06	6.0895e-06	1419.7	378.1	2.293e-06	5.775e-06	439.12	143.47	124.26	41.658	2.5704e-06	51.444	0.001709	0.0025249	0.00072144	1441	2.5958e-05	2.7844e-05	1446.1	387.51	2.6104e-05	2.7979e-05	449.98	148.45	128.78	43.493	2.6943e-05	53.672	220.440	135.189	133.903	41.965	222.128	181.446	42.126	46.670	165.911	171.836	46.230	51.613	51.644	55.723	218.609	54.715	-8191	255	
814.295	1	1	0	0	0.068901	0.13829	0.080076	0.066542	0.080364	0.26475	0.40002	0.18511	0.0301	0.13496	0.13105	0.15034	0.1683	0.11859	0.33594	0.33114	-0.4875	-1.1896	-1.3937	-0.79583	-1.5667	-1.2792	-1.1625	-1.8875	-0.89792	-1.2542	-1.7333	-0.95208	-1.7417	-1.2708	-1.1458	-1.6	304.187	342.956	73.032	174.287	42.834	156.360	337.847	376.301	335.077	199.599	233.301	327.848	351.879	154.157	164.973	318.737	0.00035131	0.00051624	0.00016468	1416.4	5.3438e-06	8.4225e-06	1418	378.92	4.8227e-06	6.7124e-06	437.27	143.56	124.45	41.643	5.8447e-06	51.867	0.0017093	0.0025458	0.00070635	1441.9	2.6456e-05	2.8385e-05	1445.2	387.67	2.6015e-05	2.8418e-05	449.54	148.29	128.72	43.438	2.7127e-05	53.763	210.976	70.873	112.395	41.981	176.842	190.537	42.151	46.776	212.623	158.632	46.129	51.061	51.636	55.572	229.141	55.135	-8191	255	
814.389	1	1	0	0	0.16752	0.23686	0.074099	0.42227	0.3376	0.3654	0.2112	0.13784	0.27698	0.23118	0.2127	0.10997	0.50411	0.13464	0.27372	0.096209	-0.82292	-1.2938	-1.5875	-1.1146	-1.5438	-1.3667	-1.0917	-2.0687	-0.91042	-1.1271	-1.9104	-0.925	-1.5292	-1.4312	-0.85833	-1.7229	333.856	388.805	342.579	325.971	159.671	219.123	37.754	341.485	363.268	129.429	367.588	370.765	347.226	386.633	217.052	65.020	0.00038762	0.00018101	0.00014012	1415.2	3.9451e-06	5.4052e-06	1419.1	377.93	4.1866e-06	2.3254e-06	436.35	143.24	124.48	41.591	6.7142e-06	51.583	0.0017193	0.0025481	0.00072394	1441	2.6742e-05	2.8812e-05	1444.5	387.3	2.5761e-05	2.855e-05	449.64	148.57	128.79	43.417	2.7011e-05	53.805	216.115	66.747	79.691	42.514	195.254	169.580	42.375	46.989	238.515	145.767	46.209	51.091	51.388	55.479	170.515	54.815	-8191	255	
814.485	1	1	0	0	0.16203	0.15926	0.26916	0.47025	0.054453	0.059124	0.19406	0.30379	0.20373	0.083731	0.021413	0.16274	0.077778	0.18091	0.23689	0.19404	-0.40833	-0.92083	-1.4854	-0.82917	-1.4104	-1.4771	-1.1729	-1.825	-1.1271	-1.175	-1.8062	-0.9875	-1.5	-1.5896	-0.69792	-1.6688	251.343	314.981	374.032	384.834	283.149	84.801	330.951	305.870	204.851	246.203	371.342	317.361	319.357	107.059	258.274	377.232	0.000296	0.00052602	7.9451e-05	1412	1.0409e-05	6.8258e-06	1419.6	378.78	3.9869e-06	3.9659e-06	437.81	143.36	124.48	41.73	8.6717e-06	51.916	0.0017278	0.0025277	0.00071659	1440.3	2.6648e-05	2.8373e-05	1444.1	387.51	2.5977e-05	2.8415e-05	449.55	148.46	128.81	43.509	2.6998e-05	53.9	202.167	93.470	97.729	41.890	192.468	229.359	42.003	46.447	217.722	143.248	45.890	50.781	51.088	55.203	208.350	54.408	-8191	255	
814.606	1	1	0	0	0.2902	0.094266	0.26445	0.31664	0.31767	0.16577	0.41771	0.31074	0.050075	0.10318	0.27776	0.37296	0.28802	0.074927	0.1245	0.1404	-0.5875	-1.0604	-1.6583	-0.98958	-1.4125	-1.5917	-0.9375	-1.7208	-1.2542	-1.0354	-1.825	-1.0896	-1.4479	-1.65	-0.90833	-1.6708	321.914	329.954	261.768	306.986	337.785	273.924	281.549	329.914	279.315	71.062	341.558	386.326	371.841	75.441	233.096	349.223	0.00033751	0.00027006	0.00017813	1415	5.6032e-06	4.0657e-06	1423.5	377.83	5.9233e-06	2.7888e-06	436.92	143.21	124.84	41.889	5.9376e-06	51.581	0.0017206	0.0025357	0.00072411	1441.9	2.6461e-05	2.8434e-05	1449.7	387.87	2.5938e-05	2.8332e-05	449.91	148.42	128.95	43.534	2.726e-05	53.728	211.462	115.206	127.757	42.041	184.363	184.350	42.068	46.765	218.317	235.295	45.886	51.079	50.954	55.311	179.773	54.595	-8191	255	
814.677	1	1	0	0	0.2491	0.15976	0.21408	0.35208	0.2646	0.19276	0.16186	0.2618	0.13784	0.21534	0.20639	0.31732	0.40575	0.39419	0.21338	0.14404	-0.91667	-0.89167	-1.7917	-1.2042	-1.4062	-1.6479	-0.96042	-1.6938	-1.3062	-0.87708	-1.95	-1.2521	-1.2667	-1.75	-0.91667	-1.7208	75.843	384.976	373.688	318.435	149.298	111.194	83.696	354.661	202.974	355.962	344.585	384.460	368.766	62.554	246.432	188.868	0.00037666	0.00023779	0.00018048	1409.5	8.4214e-06	5.1549e-06	1413.5	376.97	6.317e-06	2.9953e-06	438.56	143.58	124.86	41.658	5.0592e-06	51.977	0.0017159	0.0025681	0.00072401	1440.5	2.6659e-05	2.8468e-05	1445.7	387.71	2.5729e-05	2.8732e-05	450.41	148.43	129.02	43.504	2.704e-05	53.837	222.908	124.016	122.203	41.818	209.957	164.853	41.714	46.655	198.014	186.104	45.996	50.884	51.281	55.365	194.692	54.545	-8191	255	
814.774	1	1	0	0	0.12285	0.17737	0.31377	0.21457	0.40163	0.20683	0.33626	0.20687	0.38483	0.051807	0.35444	0.3915	0.054314	0.25965	0.28378	0.28951	-0.97292	-0.75	-1.5354	-1.2	-1.0625	-1.7375	-1.2083	-1.4604	-1.5562	-0.94583	-1.7792	-1.2792	-1.0104	-1.7833	-0.84167	-1.5	71.416	304.685	59.417	36.678	51.893	349.882	308.520	366.187	357.381	304.598	358.710	370.336	129.233	329.957	354.940	319.523	0.00033189	0.00060367	6.6648e-05	1414.6	1.1126e-05	4.1998e-06	1419	378.9	8.2119e-06	6.9387e-06	438.78	143.36	124.36	41.923	8.9723e-06	51.589	0.0017004	0.0025363	0.00072101	1442.7	2.6432e-05	2.8201e-05	1447.6	387.92	2.5626e-05	2.8198e-05	450.41	148.56	128.97	43.564	2.7384e-05	53.724	220.494	109.753	69.905	41.944	184.209	215.235	41.822	46.529	207.460	207.544	45.675	51.022	51.266	55.296	215.569	54.545	-8191	255	
814.870	1	1	0	0	0.29042	0.36876	0.26066	0.33613	0.18581	0.11881	0.31467	0.305	0.17742	0.13738	0.099862	0.27052	0.22003	0.096416	0.12556	0.083187	-1.2125	-0.68542	-1.7542	-1.4333	-0.86667	-1.6646	-1.0812	-1.55	-1.55	-0.79583	-1.8312	-1.5	-0.89583	-1.7229	-0.94167	-1.3125	231.041	283.615	299.848	280.987	51.998	176.268	327.760	332.040	102.849	369.765	257.556	330.363	135.248	384.933	131.544	263.349	0.0004065	0.00067034	0.00013641	1410.4	2.7073e-06	7.061e-06	1413.4	378.98	2.0913e-06	5.7879e-06	437.3	143.93	124.27	41.816	4.436e-06	51.848	0.0016856	0.002544	0.00071326	1440	2.6223e-05	2.7855e-05	1443.3	388.04	2.5444e-05	2.8183e-05	450.01	148.69	128.79	43.511	2.6747e-05	53.853	219.315	127.831	131.038	41.656	211.552	184.212	41.806	46.757	230.791	181.064	45.802	50.979	51.059	55.331	138.699	54.714	-8191	255	
814.966	1	1	0	0	0.18267	0.13941	0.15397	0.30642	0.28875	0.16111	0.39429	0.14889	0.26178	0.31968	0.052883	0.3274	0.29067	0.33925	0.034335	0.21443	-1.1896	-0.7375	-1.4854	-1.6958	-0.9125	-1.6938	-1.3	-1.3542	-1.7042	-1.0083	-1.6187	-1.5417	-0.86875	-1.7313	-0.85833	-1.0521	116.367	171.739	84.872	382.425	368.929	333.716	305.989	328.520	170.287	118.868	303.840	364.492	52.484	366.284	286.722	311.259	0.00037121	0.00051853	0.00013487	1415.7	4.7469e-06	1.9933e-06	1423.7	377.73	3.6005e-06	2.6619e-06	438.04	142.38	124.21	41.794	7.3257e-06	51.793	0.001686	0.0024926	0.00069457	1440.3	2.5978e-05	2.7414e-05	1446.9	387.06	2.5384e-05	2.7915e-05	449.98	148.09	128.58	43.531	2.6777e-05	53.835	217.243	103.956	124.370	41.850	196.987	354.190	41.870	46.756	185.582	218.787	45.902	50.990	51.409	55.232	209.792	54.788	-8191	255	
815.087	1	1	0	0	0.3067	0.37001	0.38221	0.21856	0.18425	0.20683	0.18248	0.15059	0.27179	0.054116	0.22169	0.19149	0.1908	0.35659	0.17186	0.38147	-1.0521	-0.85417	-1.5688	-1.5958	-0.72083	-1.4688	-1.225	-1.2771	-1.5125	-0.61875	-1.3375	-1.5271	-0.85833	-1.6667	-1.3875	-1.0833	293.473	233.423	293.137	340.273	163.960	137.600	376.168	320.609	364.876	153.993	32.711	324.162	241.861	54.942	59.796	307.857	0.00038323	0.00030363	0.00017726	1412.9	4.0958e-06	8.2417e-06	1419.4	378.76	5.1007e-06	3.9163e-06	437.11	142.72	124.77	41.786	3.2557e-06	51.741	0.0017013	0.0024837	0.00069974	1439.5	2.5611e-05	2.7616e-05	1446.7	387.75	2.5384e-05	2.8178e-05	449.33	147.82	128.89	43.423	2.6424e-05	53.742	207.657	51.177	123.804	41.857	192.756	196.919	41.815	46.939	183.882	155.885	45.788	51.025	51.372	55.335	175.641	55.009	-8191	255	
815.183	1	1	0	0	0.052771	0.15248	0.39673	0.46812	0.13851	0.12094	0.16515	0.42769	0.17643	0.3388	0.21024	0.46747	0.10137	0.04724	0.28155	0.24022	-1.2229	-0.8375	-0.99167	-1.7917	-0.70417	-1.5833	-1.4896	-1.1396	-1.8604	-1.0458	-1.3792	-1.6562	-0.76875	-1.5229	-1.3417	-1.0396	193.298	293.163	189.099	364.355	278.891	161.584	127.794	349.316	151.495	342.746	236.306	350.248	385.114	340.845	349.692	341.169	0.00038656	0.00037284	0.0002327	1413.8	7.7381e-06	3.8074e-06	1418.3	377.27	4.9081e-06	3.05e-06	438.63	143.19	124.53	41.829	7.7027e-06	51.687	0.0016838	0.0025098	0.00070575	1440.2	2.608e-05	2.7748e-05	1444.7	386.84	2.5007e-05	2.7699e-05	450.25	148.32	128.87	43.446	2.649e-05	53.671	213.802	121.856	154.080	42.105	209.199	207.104	41.926	46.724	207.953	143.042	46.155	50.982	51.426	55.810	179.743	54.749	-8191	255	
815.254	1	1	0	0	0.17619	0.30048	0.22658	0.22174	0.12088	0.095984	0.12415	0.16013	0.15625	0.23331	0.26689	0.23604	0.12199	0.069525	0.11396	0.23951	-1.4729	-1.0625	-1.0312	-1.9896	-0.89792	-1.4188	-1.5479	-1.1187	-1.6292	-1.2938	-1.1812	-1.8417	-0.78542	-1.4167	-1.4771	-0.69792	85.933	57.244	32.216	358.531	228.011	339.124	142.087	108.565	333.699	194.587	344.056	45.974	88.117	42.963	316.471	341.087	0.00030424	0.00085752	8.0983e-05	1413.7	7.3634e-06	1.8381e-06	1416.3	377.11	5.7001e-06	5.8822e-06	438.22	143.28	124.49	41.865	6.3695e-06	52.177	0.0016474	0.0024807	0.00069236	1441.3	2.5462e-05	2.7494e-05	1443.3	387.27	2.5106e-05	2.7608e-05	450.24	148.39	128.72	43.514	2.6256e-05	53.869	220.095	158.631	95.236	41.952	216.487	262.339	42.031	46.830	220.677	176.119	46.283	50.767	51.094	55.580	237.297	54.952	-8191	255	
815.375	1	1	0	0	0.14087	0.1747	0.35664	0.20468	0.13425	0.23877	0.50146	0.21741	0.30343	0.15842	0.022912	0.29027	0.1092	0.21773	0.21218	0.13442	-1.2437	-1.1167	-1.0292	-1.925	-0.94167	-1.3292	-1.625	-1.2771	-1.5021	-1.0771	-1.0292	-1.7812	-0.97292	-1.2938	-1.4729	-1.0271	78.421	124.620	212.165	345.541	357.997	139.394	351.391	326.746	176.445	156.472	239.736	308.204	388.324	382.218	104.626	362.193	0.00043036	0.00048148	9.1582e-05	1413.7	5.541e-06	7.5211e-06	1418.8	377.56	5.4675e-06	7.3901e-06	440.19	142.8	124.36	42.034	4.2871e-06	51.568	0.0016941	0.0024583	0.00070521	1440.1	2.5591e-05	2.7281e-05	1446	387.79	2.5303e-05	2.7513e-05	450.22	148.35	128.62	43.613	2.6388e-05	53.681	214.657	90.870	117.023	41.803	201.160	200.880	42.054	46.975	193.663	175.879	46.362	51.231	51.577	55.694	198.316	55.232	-8191	255	
815.469	1	1	0	0	0.036589	0.10217	0.2566	0.27849	0.25857	0.18127	0.34819	0.27557	0.10607	0.13977	0.28882	0.17799	0.23529	0.32817	0.079594	0.074359	-0.97083	-1.275	-0.9125	-1.9542	-1.0292	-1.1604	-2.0104	-0.97708	-1.5146	-1.2833	-1.1167	-1.875	-1.1104	-1	-1.6104	-0.77292	327.928	132.275	278.923	284.715	341.081	45.698	334.548	335.044	75.451	266.242	319.414	307.727	35.669	345.194	154.344	372.502	0.00036892	0.00057869	0.00019036	1417	6.6239e-06	6.4178e-06	1411.5	376.97	6.3292e-06	7.0865e-06	437.53	143.88	124.78	42.046	6.8693e-06	51.99	0.001675	0.0024748	0.00070541	1441.6	2.5757e-05	2.7641e-05	1444.5	387.02	2.5119e-05	2.7578e-05	449.97	148.47	128.78	43.574	2.6058e-05	53.958	220.001	90.931	123.582	41.867	179.737	240.414	42.132	46.700	220.553	147.574	45.951	51.293	51.249	55.440	215.755	54.756	-8191	255	
815.567	1	1	0	0	0.37574	0.061561	0.21216	0.25384	0.18066	0.11809	0.23947	0.24567	0.17519	0.23517	0.091129	0.27353	0.19636	0.15183	0.13539	0.12579	-1.1542	-1.3896	-0.90208	-1.7687	-1.0896	-1.1125	-1.7271	-1.1396	-1.2521	-1.4333	-0.88542	-1.6562	-1.2188	-1.1562	-1.6208	-0.93333	195.246	74.932	216.269	384.082	96.646	309.393	363.896	359.079	283.821	250.939	266.395	280.030	351.989	171.012	258.304	302.070	0.00035132	0.00015419	0.00019925	1413.1	8.3341e-06	2.8675e-06	1418.9	377.55	4.4239e-06	4.1246e-06	436.94	143.7	124.42	41.969	7.5117e-06	51.807	0.0016767	0.0024779	0.00069701	1440.8	2.5524e-05	2.7347e-05	1446.1	387.17	2.5161e-05	2.7302e-05	448.44	148.51	128.85	43.566	2.6009e-05	53.768	218.918	103.039	98.488	41.982	167.977	237.300	42.230	46.673	222.892	137.547	46.071	51.213	51.004	55.411	186.212	54.502	-8191	255	
815.686	1	1	0	0	0.069734	0.28702	0.28318	0.30111	0.13512	0.37929	0.31963	0.42708	0.079262	0.15427	0.16166	0.21145	0.072269	0.18661	0.2195	0.2675	-0.84375	-1.3979	-0.7375	-1.9625	-1.1063	-1.0042	-1.7563	-1.1333	-1.3271	-1.5333	-0.90208	-1.6437	-1.4896	-1.0688	-1.8875	-1.1396	101.552	321.162	305.831	337.342	118.384	127.774	328.519	309.019	132.543	246.370	228.365	312.873	356.483	41.384	125.029	322.811	0.00032532	0.00078868	0.00020629	1407.2	4.8057e-06	2.6681e-06	1418.8	377.95	3.731e-06	4.1565e-06	436.74	143.49	124.87	41.749	4.3683e-06	51.799	0.0016367	0.002432	0.00069025	1439.5	2.5552e-05	2.7765e-05	1444.8	387.33	2.4677e-05	2.7085e-05	448.96	148.26	128.76	43.444	2.5773e-05	53.653	210.068	75.832	135.768	41.821	187.799	102.549	42.251	46.668	234.574	172.421	46.199	51.364	51.424	55.847	192.244	54.863	-8191	255	
815.782	1	1	0	0	0.26663	0.11605	0.098627	0.55429	0.037867	0.1809	0.19057	0.19165	0.12746	0.18253	0.19729	0.042477	0.0906	0.15416	0.18121	0.17221	-0.775	-1.6938	-0.75208	-1.7042	-1.2396	-0.82917	-1.8833	-1.2771	-1.2542	-1.65	-0.80833	-1.4479	-1.5229	-0.83333	-1.6938	-1.0854	219.054	79.799	124.059	381.750	177.016	122.168	340.565	388.440	331.588	359.527	30.024	85.994	329.458	332.099	102.978	202.869	0.00038756	0.00036369	4.89e-05	1417.7	7.8294e-06	5.5541e-06	1415.4	378.08	3.6769e-06	3.9529e-06	437.23	143.08	125.01	41.845	3.7957e-06	51.754	0.0016621	0.0024545	0.00069055	1441.3	2.588e-05	2.7881e-05	1443.8	387.36	2.5276e-05	2.7855e-05	449.09	148.46	129	43.515	2.6036e-05	53.782	214.247	123.417	72.423	42.236	176.006	226.473	41.856	46.707	217.179	160.114	45.847	51.005	51.055	55.381	218.558	54.699	-8191	255	
815.878	1	1	0	0	0.12136	0.027429	0.19755	0.42393	0.11722	0.14273	0.37757	0.29193	0.081645	0.36839	0.35957	0.053607	0.49862	0.34706	0.30946	0.10709	-0.52708	-1.6542	-0.89375	-1.6146	-1.6437	-0.90833	-1.7333	-1.5542	-0.96458	-1.6292	-1.0125	-1.4	-1.8125	-0.81875	-1.8042	-1.2687	100.927	39.612	163.020	345.482	249.073	337.096	357.134	377.157	225.194	308.776	301.248	227.639	351.398	341.517	262.924	317.885	0.00034566	0.00044536	0.00011099	1412	5.1092e-06	3.6469e-06	1419.7	377.54	6.3537e-06	7.0774e-06	437.11	143.75	124.8	41.859	4.3481e-06	51.807	0.0016677	0.0025173	0.00070664	1441.6	2.5758e-05	2.7512e-05	1444.2	386.8	2.524e-05	2.7884e-05	449.1	148.63	128.9	43.495	2.6326e-05	53.902	215.251	116.586	141.915	41.999	209.292	201.040	42.217	46.756	228.825	170.068	46.218	51.413	51.439	55.693	201.160	55.047	-8191	255	
815.975	1	1	0	0	0.044501	0.19608	0.3417	0.28681	0.2312	0.13074	0.31904	0.25341	0.32263	0.079677	0.073306	0.20498	0.136	0.18832	0.44797	0.22776	-0.59583	-1.75	-1.0312	-1.5625	-1.4146	-0.67292	-1.6854	-1.4625	-1.0208	-1.8563	-1.175	-1.4062	-1.9771	-1.1896	-1.4396	-1.5417	377.855	298.779	172.516	372.615	212.165	329.019	344.021	337.144	170.471	377.153	110.685	365.293	50.375	328.382	45.367	383.932	0.0003878	0.00090282	0.00014714	1414.9	1.0516e-05	2.4681e-06	1425.6	378	4.5608e-06	2.9664e-06	438.63	142.43	124.59	41.637	5.0915e-06	51.736	0.0016799	0.0024669	0.00070108	1441.2	2.5533e-05	2.796e-05	1446.9	387.21	2.6036e-05	2.7897e-05	449.67	148.12	128.98	43.444	2.6464e-05	53.785	218.485	78.703	116.505	42.282	230.783	166.001	42.284	47.023	175.922	182.106	45.628	51.012	51.241	55.220	193.104	54.588	-8191	255	
816.071	1	1	0	0	0.12414	0.32927	0.089212	0.070987	0.020293	0.0082336	0.23092	0.37152	0.037768	0.20571	0.15492	0.1403	0.24859	0.088719	0.048997	0.060625	-0.40417	-1.7875	-0.89375	-1.325	-1.5479	-0.8	-1.6583	-1.7188	-0.9375	-1.6688	-1.5375	-1.0833	-1.8438	-0.87917	-1.3729	-1.6	151.736	303.576	93.446	61.412	341.995	160.371	318.982	352.724	45.673	143.570	59.623	36.421	30.663	121.203	124.969	212.311	0.00036205	0.00056462	0.00017043	1413.8	6.1639e-06	7.6687e-06	1417.5	377.46	5.6415e-06	4.5331e-06	438.56	143.52	124.38	41.898	4.0809e-06	51.628	0.001701	0.0024945	0.00071906	1442.2	2.5878e-05	2.7799e-05	1446.6	387.38	2.5829e-05	2.806e-05	449.91	148.31	128.84	43.519	2.6771e-05	53.72	202.976	72.052	109.143	41.912	192.026	162.491	42.024	46.421	217.781	175.225	45.996	51.231	51.516	55.375	246.177	54.452	-8191	255	
816.167	1	1	0	0	0.25914	0.18287	0.086176	0.34191	0.16209	0.038657	0.29347	0.34166	0.065291	0.096289	0.23237	0.24145	0.35284	0.28774	0.20733	0.079	-0.43125	-1.4937	-1.1313	-1.275	-1.4979	-1.0021	-1.6354	-1.8354	-0.62708	-1.6562	-1.3646	-0.99792	-1.9667	-0.95417	-1.3375	-1.6646	373.953	345.330	307.214	367.847	244.092	319.935	359.285	340.731	291.096	306.531	33.786	98.147	381.551	291.733	224.105	323.755	0.00038922	0.00031232	0.00010608	1420.6	9.3047e-06	4.9952e-06	1425.2	378.34	5.4271e-06	1.1634e-05	440.45	144.35	124.4	41.857	1.0381e-05	51.872	0.0017071	0.0024978	0.00071449	1443.6	2.6165e-05	2.835e-05	1448.7	387.38	2.5649e-05	2.8042e-05	450.73	148.65	128.95	43.511	2.7014e-05	53.788	213.446	32.651	130.059	42.022	216.990	182.511	42.223	46.814	213.067	164.645	45.943	51.275	51.543	55.681	189.487	54.495	-8191	255	
816.263	1	1	0	0	0.24315	0.20128	0.24652	0.093694	0.069454	0.073204	0.27185	0.28717	0.11006	0.19674	0.17704	0.43363	0.24881	0.093038	0.28563	0.19712	-0.53333	-1.5812	-1.3708	-1.2271	-1.7354	-0.85208	-1.4396	-1.925	-0.70417	-1.6229	-1.4042	-0.80208	-1.8563	-1.1979	-0.96875	-1.7812	46.757	103.670	62.829	380.421	121.202	379.314	343.506	332.434	278.600	139.376	214.796	291.027	34.890	344.703	306.482	304.894	0.00039776	0.00067234	0.00011748	1415.7	8.6454e-06	5.4297e-06	1420.5	377.85	4.2859e-06	7.419e-06	439.52	143.66	125.53	41.875	2.7115e-06	51.795	0.0017282	0.0025504	0.00072011	1443.1	2.6285e-05	2.8494e-05	1445.8	387.67	2.5675e-05	2.814e-05	450.69	148.71	129.19	43.479	2.7146e-05	53.823	208.550	135.370	131.141	41.837	197.916	110.651	42.141	46.930	226.657	207.475	45.875	51.078	51.312	55.490	228.092	54.795	-8191	255	
816.382	1	1	0	0	0.19989	0.045575	0.23193	0.091198	0.2321	0.28923	0.24174	0.19467	0.26038	0.19507	0.16863	0.29522	0.2306	0.064811	0.2961	0.20161	-0.47708	-1.3813	-1.6083	-1.2271	-1.6792	-1.2583	-1.2667	-1.9	-0.87083	-1.45	-1.6417	-0.97083	-1.8542	-1.3104	-1.1125	-1.7375	254.087	260.651	340.927	373.349	154.151	36.731	317.909	300.529	29.728	373.275	352.607	347.932	319.515	112.566	299.488	382.186	0.00039652	0.00033292	4.9771e-05	1415.7	2.3447e-06	5.1126e-06	1422.5	378.76	3.0637e-06	2.2587e-07	439.31	143.22	124.74	41.92	4.5445e-06	51.561	0.0017042	0.00253	0.00071384	1441.5	2.5892e-05	2.7985e-05	1447.3	388.1	2.5501e-05	2.7659e-05	450.08	148.23	129.25	43.592	2.6175e-05	53.747	219.626	94.593	184.239	42.154	192.533	198.557	42.468	46.840	251.725	122.052	45.483	50.781	51.059	54.982	182.913	54.202	-8191	255	
816.478	1	1	0	0	0.19376	0.21902	0.098708	0.39731	0.10185	0.11972	0.37087	0.34365	0.21138	0.19527	0.15457	0.13507	0.37876	0.070102	0.071168	0.20623	-0.53958	-1.2708	-1.6958	-1.0021	-1.5354	-1.3917	-1.1562	-1.725	-1.1146	-1.3125	-1.8104	-0.84167	-1.5542	-1.3833	-1.0083	-1.6396	231.660	68.980	72.978	366.713	334.779	367.031	327.714	307.186	101.677	112.085	292.098	334.342	382.613	225.099	301.397	384.099	0.00036775	0.00074008	0.00022163	1416.9	4.2718e-06	9.0252e-06	1414.6	376.47	4.3101e-06	7.9747e-06	439.21	143.27	125.11	41.899	9.0459e-06	51.943	0.001653	0.0024644	0.0006872	1442.9	2.5343e-05	2.7175e-05	1445.6	387.46	2.4442e-05	2.7218e-05	449.89	148.42	129.22	43.585	2.6354e-05	53.832	220.097	154.409	111.286	41.546	240.509	165.256	41.628	46.340	220.365	192.319	45.390	50.547	50.971	54.908	207.395	54.291	-8191	255	
816.550	1	1	0	0	0.12912	0.18708	0.027103	0.21317	0.41243	0.055272	0.36713	0.31509	0.20059	0.19199	0.064196	0.20761	0.30921	0.23041	0.13749	0.16445	-0.63542	-1.0979	-1.7792	-0.98333	-1.5187	-1.4083	-1.0458	-1.7896	-1.0187	-1.0063	-1.8875	-0.87292	-1.7292	-1.4604	-0.84792	-1.8167	314.168	244.127	63.490	309.243	254.771	373.705	337.819	292.141	312.920	168.265	46.968	37.797	331.700	87.161	149.970	33.903	0.00036451	0.00047413	0.0001868	1416.1	5.0322e-06	4.0632e-06	1417.7	378.89	3.3704e-06	2.4089e-06	435.91	143.12	125.56	42.033	6.9908e-06	51.916	0.0016151	0.0024213	0.00067368	1442.9	2.5194e-05	2.7228e-05	1446.3	388.14	2.4688e-05	2.7191e-05	448.71	148.33	129.64	43.541	2.6256e-05	53.889	211.961	108.301	130.409	41.697	219.232	145.730	41.488	46.206	201.144	186.256	45.583	50.692	50.975	55.052	180.708	54.328	-8191	255	
#DATA ENDS
