BOXY.EXE: ISS Imagent and Oximeter Data Acquisition Program Version 0.80
Ascii Record File

#ACQ INFORMATION
2  Detector Channels 
16  External MUX Channels 
1  Auxiliary Channels 
5000  Waveform (CCF) Frequency (Hz)
1  Waveforms Skipped 
30  Waveforms Averaged 
1  Cycles Averaged 
16  Acquisitions per Waveform 
10.0806  Updata Rate (Hz) 

#FILE INFORMATION
TRUE -- External MUX Channel results are PARSED.
FALSE -- AC DC and Phase are NOT grouped.
TRUE -- Companion Program Settings File CREATED.
FALSE -- AC data not excluded
FALSE -- DC data not excluded
FALSE -- Phase data not excluded
FALSE -- Auxillary Chn. data not excluded
Tab delimiters

#CALIBRATION STATE
TRUE -- Waveform Calibration Values APPLIED.


#AUX CALIBRATION VALUES
Val Type	aux-1	

Term	1.0000e+00	
Factor	0.0000e+00	


#WF CALIBRATION VALUES
A = Detector Channel
Val Type	A-AC1	A-AC2	A-AC3	A-AC4	A-AC5	A-AC6	A-AC7	A-AC8	A-AC9	A-AC10	A-AC11	A-AC12	A-AC13	A-AC14	A-AC15	A-AC16	A-DC1	A-DC2	A-DC3	A-DC4	A-DC5	A-DC6	A-DC7	A-DC8	A-DC9	A-DC10	A-DC11	A-DC12	A-DC13	A-DC14	A-DC15	A-DC16	A-Ph1	A-Ph2	A-Ph3	A-Ph4	A-Ph5	A-Ph6	A-Ph7	A-Ph8	A-Ph9	A-Ph10	A-Ph11	A-Ph12	A-Ph13	A-Ph14	A-Ph15	A-Ph16	

Term	0.00000e+00	0.00000e+00	0.00000e+00	0.00000e+00	0.00000e+00	0.00000e+00	0.00000e+00	0.00000e+00	0.00000e+00	0.00000e+00	0.00000e+00	0.00000e+00	0.00000e+00	0.00000e+00	0.00000e+00	0.00000e+00	0.00000e+00	0.00000e+00	0.00000e+00	0.00000e+00	0.00000e+00	0.00000e+00	0.00000e+00	0.00000e+00	0.00000e+00	0.00000e+00	0.00000e+00	0.00000e+00	0.00000e+00	0.00000e+00	0.00000e+00	0.00000e+00	0.00000e+00	0.00000e+00	0.00000e+00	0.00000e+00	0.00000e+00	0.00000e+00	0.00000e+00	0.00000e+00	0.00000e+00	0.00000e+00	0.00000e+00	0.00000e+00	0.00000e+00	0.00000e+00	0.00000e+00	0.00000e+00	
Factor	1.00000e+00	1.00000e+00	1.00000e+00	1.00000e+00	1.00000e+00	1.00000e+00	1.00000e+00	1.00000e+00	1.00000e+00	1.00000e+00	1.00000e+00	1.00000e+00	1.00000e+00	1.00000e+00	1.00000e+00	1.00000e+00	1.00000e+00	1.00000e+00	1.00000e+00	1.00000e+00	1.00000e+00	1.00000e+00	1.00000e+00	1.00000e+00	1.00000e+00	1.00000e+00	1.00000e+00	1.00000e+00	1.00000e+00	1.00000e+00	1.00000e+00	1.00000e+00	X	X	X	X	X	X	X	X	X	X	X	X	X	X	X	X	

B = Detector Channel
Val Type	B-AC1	B-AC2	B-AC3	B-AC4	B-AC5	B-AC6	B-AC7	B-AC8	B-AC9	B-AC10	B-AC11	B-AC12	B-AC13	B-AC14	B-AC15	B-AC16	B-DC1	B-DC2	B-DC3	B-DC4	B-DC5	B-DC6	B-DC7	B-DC8	B-DC9	B-DC10	B-DC11	B-DC12	B-DC13	B-DC14	B-DC15	B-DC16	B-Ph1	B-Ph2	B-Ph3	B-Ph4	B-Ph5	B-Ph6	B-Ph7	B-Ph8	B-Ph9	B-Ph10	B-Ph11	B-Ph12	B-Ph13	B-Ph14	B-Ph15	B-Ph16	

Term	0.00000e+00	0.00000e+00	0.00000e+00	0.00000e+00	0.00000e+00	0.00000e+00	0.00000e+00	0.00000e+00	0.00000e+00	0.00000e+00	0.00000e+00	0.00000e+00	0.00000e+00	0.00000e+00	0.00000e+00	0.00000e+00	0.00000e+00	0.00000e+00	0.00000e+00	0.00000e+00	0.00000e+00	0.00000e+00	0.00000e+00	0.00000e+00	0.00000e+00	0.00000e+00	0.00000e+00	0.00000e+00	0.00000e+00	0.00000e+00	0.00000e+00	0.00000e+00	-6.18844e+01	-1.31176e+02	-1.30945e+02	-1.82064e+02	-5.12520e+01	-6.31214e+01	-1.57560e+02	-1.62015e+02	-4.68082e+01	-6.38604e+01	-1.72371e+02	-1.70432e+02	-1.78256e+02	-1.76759e+02	-5.34657e+01	-1.49349e+02	
Factor	1.65308e-05	1.37929e-04	3.69494e-05	1.57704e-01	1.33523e-06	1.42652e-06	1.70755e-01	4.46573e-02	1.03347e-06	1.38636e-06	7.56219e-02	2.61641e-02	2.21170e-02	8.12295e-03	1.35262e-06	1.13021e-02	1.00626e-05	1.67098e-05	4.71134e-06	8.54066e-02	1.71346e-07	1.86818e-07	8.69103e-02	2.43396e-02	1.67811e-07	1.87038e-07	3.98308e-02	1.38576e-02	1.22449e-02	4.47032e-03	1.76786e-07	6.00929e-03	X	X	X	X	X	X	X	X	X	X	X	X	X	X	X	X	



#DISTANCE SETTINGS
A = Detector Channel
A-1	A-2	A-3	A-4	A-5	A-6	A-7	A-8	A-9	A-10	A-11	A-12	A-13	A-14	A-15	A-16	

2.5000e+00	3.0000e+00	2.5000e+00	3.0000e+00	2.0000e+00	3.0000e+00	1.5000e+00	3.0000e+00	3.0000e+00	3.0000e+00	3.0000e+00	3.0000e+00	3.0000e+00	3.0000e+00	1.5000e+00	3.0000e+00	

B = Detector Channel
B-1	B-2	B-3	B-4	B-5	B-6	B-7	B-8	B-9	B-10	B-11	B-12	B-13	B-14	B-15	B-16	

1.0000e+01	1.0000e+01	1.0000e+01	1.4400e+00	1.0000e+01	1.0000e+01	1.5100e+00	1.9400e+00	1.0000e+01	1.0000e+01	1.9900e+00	2.4900e+00	2.4100e+00	2.9000e+00	1.0000e+01	2.9800e+00	




#DATA BEGINS
time	group	step	mark	flag	A-AC1	A-AC2	A-AC3	A-AC4	A-AC5	A-AC6	A-AC7	A-AC8	A-AC9	A-AC10	A-AC11	A-AC12	A-AC13	A-AC14	A-AC15	A-AC16	A-DC1	A-DC2	A-DC3	A-DC4	A-DC5	A-DC6	A-DC7	A-DC8	A-DC9	A-DC10	A-DC11	A-DC12	A-DC13	A-DC14	A-DC15	A-DC16	A-Ph1	A-Ph2	A-Ph3	A-Ph4	A-Ph5	A-Ph6	A-Ph7	A-Ph8	A-Ph9	A-Ph10	A-Ph11	A-Ph12	A-Ph13	A-Ph14	A-Ph15	A-Ph16	B-AC1	B-AC2	B-AC3	B-AC4	B-AC5	B-AC6	B-AC7	B-AC8	B-AC9	B-AC10	B-AC11	B-AC12	B-AC13	B-AC14	B-AC15	B-AC16	B-DC1	B-DC2	B-DC3	B-DC4	B-DC5	B-DC6	B-DC7	B-DC8	B-DC9	B-DC10	B-DC11	B-DC12	B-DC13	B-DC14	B-DC15	B-DC16	B-Ph1	B-Ph2	B-Ph3	B-Ph4	B-Ph5	B-Ph6	B-Ph7	B-Ph8	B-Ph9	B-Ph10	B-Ph11	B-Ph12	B-Ph13	B-Ph14	B-Ph15	B-Ph16	aux-1	digaux	

727.359	1	1	0	768	0.04826	0.22335	0.38202	0.080272	0.15707	0.25189	0.23235	0.18559	0.25637	0.23891	0.37091	0.43905	0.077467	0.095504	0.24469	0.22908	-1.2958	-1.6	-0.74792	-1.9188	-0.99583	-1.2625	-1.8563	-1.0625	-1.4438	-1.5833	-1.0229	-2.1104	-1.1167	-1.2938	-1.8604	-1.0208	213.076	260.941	215.814	311.561	80.460	368.637	290.742	248.619	230.348	296.866	357.494	330.627	312.472	337.037	107.653	329.803	0.00032745	0.00043131	0.00015292	1365.2	4.5706e-06	7.3358e-06	1363.8	368.29	4.2513e-06	4.833e-06	420.93	140.71	121.42	41.669	3.5942e-06	52.006	0.00050359	0.00054477	0.00015856	1379.7	6.257e-06	6.0424e-06	1377.9	374.16	5.9933e-06	6.2268e-06	427.77	143.42	124.61	42.895	6.1683e-06	53.305	215.791	113.283	116.118	41.112	202.968	191.316	41.093	46.154	213.324	165.750	45.516	50.313	50.564	54.994	200.871	53.991	-8191	255	
727.455	1	1	0	0	0.5187	0.03967	0.12053	0.084819	0.15898	0.3431	0.2019	0.11506	0.14043	0.06623	0.14025	0.093402	0.14922	0.32344	0.1701	0.2221	-1.1187	-1.5667	-0.675	-1.8375	-1.2333	-1.2208	-2.0646	-1.1063	-1.475	-1.425	-0.96458	-1.8687	-1.4937	-1.0583	-1.9708	-1.1021	322.625	55.948	83.019	350.553	112.921	253.504	334.833	371.343	90.745	172.525	36.322	305.938	58.030	272.163	77.458	62.672	0.00034334	0.0006772	0.00015933	1370.2	5.3993e-06	5.4814e-06	1361.8	368.49	2.7739e-06	4.85e-06	421.15	140.16	121.7	41.856	5.5372e-06	51.803	0.00051441	0.00055216	0.00015837	1383.7	6.1781e-06	6.3417e-06	1377.4	374.69	6.1461e-06	6.3203e-06	428.36	143.69	124.56	42.993	6.0144e-06	53.188	217.643	117.784	86.278	41.183	227.371	183.582	41.262	46.160	193.522	166.858	45.405	50.364	50.728	55.007	202.835	53.969	-8191	255	
727.551	1	1	0	0	0.35431	0.18616	0.25179	0.1633	0.22481	0.18867	0.35494	0.43744	0.1994	0.23511	0.018514	0.29119	0.17598	0.12143	0.30874	0.15443	-0.96042	-1.5542	-0.89583	-1.7563	-1.4042	-1.0938	-1.9792	-1.325	-1.25	-1.7625	-1.0875	-1.6896	-1.6187	-1.3271	-1.7583	-1.2729	274.171	123.191	201.971	69.208	182.645	89.736	339.216	361.154	44.804	70.277	64.127	385.100	362.307	305.159	276.025	352.330	0.00036208	0.00040738	8.9699e-05	1363.9	4.2172e-06	4.0229e-06	1362.2	366.86	6.1347e-06	5.8848e-06	421.08	139.91	121.73	41.913	5.6418e-06	51.923	0.00052355	0.00055699	0.00015766	1379.3	6.4244e-06	6.3639e-06	1377.3	374.16	6.3261e-06	6.122e-06	427.67	143.37	124.48	42.985	6.1823e-06	53.203	212.877	123.729	111.059	41.372	199.032	181.705	41.653	46.070	214.346	170.574	45.474	50.668	50.675	54.976	194.467	53.980	-8191	255	
727.647	1	1	0	0	0.35759	0.28319	0.045644	0.33301	0.15334	0.27336	0.33869	0.28022	0.32454	0.16069	0.096386	0.13389	0.07734	0.30637	0.19129	0.096997	-0.65	-1.8854	-1.0021	-1.6792	-1.4667	-0.89792	-1.9042	-1.3458	-1.0042	-2.0292	-1.1167	-1.6833	-1.7271	-1.075	-1.7333	-1.5396	44.836	158.425	282.736	366.993	178.795	238.896	61.794	338.494	119.573	366.394	235.202	305.352	120.718	363.151	322.826	68.365	0.00036721	0.00049948	0.00016422	1360.6	4.3488e-06	5.962e-06	1359.6	367.6	3.9295e-06	3.0969e-06	421.68	140.33	121.83	41.857	4.5341e-06	51.663	0.00052443	0.00056434	0.00015817	1378.5	6.2063e-06	6.3709e-06	1377.9	373.57	6.4066e-06	6.0218e-06	427.19	143.75	124.74	42.942	6.4107e-06	53.15	216.294	131.704	111.972	41.477	217.381	194.756	41.460	45.998	226.597	177.082	45.721	50.763	50.749	54.961	201.703	54.154	-8191	255	
727.744	1	1	0	0	0.091219	0.033161	0.36528	0.17962	0.34785	0.097764	0.23261	0.11949	0.22696	0.25034	0.11148	0.38287	0.15097	0.32865	0.038546	0.3288	-0.7375	-1.8958	-1.2208	-1.6708	-1.7333	-0.97708	-2.0833	-1.5312	-1.2812	-1.925	-1.3083	-1.5792	-1.7354	-0.85833	-1.7042	-1.4854	99.357	312.027	384.540	47.737	377.330	69.790	303.600	292.814	350.579	168.045	360.509	270.755	353.218	312.223	196.972	372.282	0.00036232	0.00044598	0.00015876	1357.6	7.1053e-06	3.3318e-06	1366	367.62	4.1672e-06	4.1349e-06	422.15	139.72	121.33	41.825	4.9389e-06	51.713	0.00053606	0.00055397	0.00016613	1376.9	6.1513e-06	6.5764e-06	1377.6	374.05	6.1758e-06	6.0666e-06	427.69	143.06	124.55	42.962	6.295e-06	53.074	210.654	137.782	131.975	41.436	193.692	200.949	41.562	46.190	215.198	191.065	45.556	50.730	50.938	55.036	190.595	54.118	-8191	255	
727.840	1	1	0	0	0.11832	0.1912	0.33529	0.37837	0.12561	0.19343	0.42439	0.14321	0.094893	0.20667	0.33774	0.18731	0.30652	0.1635	0.27033	0.086097	-0.48958	-1.7792	-1.1	-1.5896	-1.6833	-0.97708	-1.9521	-1.7812	-1.0688	-1.8417	-1.2458	-1.2417	-1.6625	-1.0458	-1.3771	-1.6083	269.257	323.935	155.996	343.035	184.038	159.659	359.434	342.094	229.097	312.091	342.684	349.203	328.812	139.153	110.929	128.570	0.00038316	0.00057792	0.00012804	1366.4	5.679e-06	2.9119e-06	1362.4	367.73	3.5932e-06	4.2353e-06	422.48	140.78	121.96	41.887	5.5082e-06	51.987	0.00052263	0.0005823	0.00015922	1378.2	6.3195e-06	6.4946e-06	1378.2	373.82	6.2324e-06	6.2159e-06	428.21	143.66	124.61	42.955	6.2405e-06	53.248	214.961	117.819	93.875	41.476	208.058	187.673	42.001	46.343	206.393	185.643	45.473	50.787	50.937	55.281	207.472	54.484	-8191	255	
727.959	1	1	0	0	0.19575	0.13331	0.26807	0.099834	0.13167	0.19554	0.10086	0.27701	0.24637	0.15345	0.076831	0.26556	0.23211	0.29241	0.17678	0.20186	-0.61875	-1.8146	-1.1833	-1.3896	-1.5771	-1.075	-1.7625	-1.6979	-0.90833	-1.9042	-1.3937	-1.3062	-2.0687	-1.1583	-1.3521	-1.8062	176.772	363.026	60.228	86.717	333.908	119.739	332.182	383.413	207.852	91.014	356.846	358.811	76.193	339.202	199.922	178.284	0.00038501	0.00059496	0.00014809	1363	6.4247e-06	6.3002e-06	1362.8	368	4.6393e-06	5.7238e-06	420.31	140.26	122.42	41.958	3.1523e-06	51.798	0.00053818	0.00058282	0.0001677	1379.1	6.0517e-06	6.509e-06	1375.9	374.25	6.1388e-06	6.2533e-06	427.36	143.6	124.98	43.011	6.1838e-06	53.185	216.688	86.859	82.543	41.818	179.075	189.462	41.728	46.284	224.356	173.585	45.712	50.823	51.144	55.256	187.256	54.479	-8191	255	
728.055	1	1	0	0	0.2799	0.21308	0.34883	0.045327	0.029434	0.32283	0.11412	0.33503	0.088973	0.077339	0.19989	0.27523	0.39949	0.25717	0.072987	0.20135	-0.45	-1.7375	-1.2667	-1.3646	-1.8271	-1.0021	-1.4083	-1.8333	-0.97708	-1.6458	-1.5688	-1.0479	-2.025	-1.2854	-1.2479	-1.8542	59.554	57.621	162.045	382.135	291.502	262.640	325.870	308.444	181.346	335.409	305.585	350.461	322.955	334.495	248.972	58.812	0.00037528	0.0006703	0.00018481	1364.6	4.6544e-06	3.5036e-06	1365.9	368.11	3.9723e-06	5.6656e-06	422.72	139.99	122.24	41.875	6.5224e-06	52.041	0.00053588	0.00057043	0.00016537	1379.7	6.0499e-06	6.2899e-06	1379.1	374.32	6.245e-06	6.2455e-06	428.28	143.5	124.76	42.966	6.2718e-06	53.231	216.864	109.309	113.749	41.718	205.937	165.468	41.848	46.634	234.212	181.951	46.034	50.926	51.001	55.223	206.825	54.857	-8191	255	
728.151	1	1	0	0	0.1858	0.18989	0.078063	0.50664	0.17552	0.083365	0.051954	0.40079	0.31315	0.063095	0.25791	0.18179	0.14729	0.16715	0.11904	0.28632	-0.71875	-1.4625	-1.4875	-1.2563	-1.9438	-1.3625	-1.475	-1.9646	-1.1542	-1.5083	-1.9396	-1.0604	-2.0125	-1.2938	-1.0562	-1.85	131.112	58.007	199.896	323.612	274.390	295.853	289.833	320.258	283.216	175.002	310.157	363.630	33.320	325.848	252.300	340.591	0.00037053	0.00045754	0.00012201	1363.2	4.9913e-06	5.1449e-06	1367.5	367.41	4.4552e-06	4.666e-06	422.66	140	122.42	42.045	5.5642e-06	52.124	0.00052621	0.00056284	0.0001528	1379.6	6.0446e-06	6.4623e-06	1377.9	374.16	6.201e-06	6.1325e-06	427.83	143.43	124.75	42.973	6.147e-06	53.253	213.859	126.354	108.085	41.966	217.856	185.714	41.930	46.719	210.710	175.145	45.723	51.120	51.009	55.160	197.638	54.316	-8191	255	
728.247	1	1	0	0	0.23921	0.24266	0.10373	0.15666	0.038729	0.10843	0.16189	0.34965	0.16919	0.40949	0.27088	0.087812	0.17889	0.18504	0.22124	0.10676	-0.80833	-1.6958	-1.8208	-1.2646	-1.7292	-1.2563	-1.3771	-2.025	-1.0125	-1.5292	-1.7542	-1.1104	-1.6292	-1.4042	-0.97292	-1.8937	73.156	203.426	113.280	327.115	206.198	339.408	128.337	48.694	373.454	154.041	270.697	364.879	364.010	351.454	166.745	325.346	0.00036809	0.00065921	0.0001332	1367.3	6.7379e-06	6.4697e-06	1361.6	367.63	5.2381e-06	4.2167e-06	420.34	140.13	122.03	41.833	5.337e-06	51.995	0.00051877	0.00056145	0.00016056	1380.1	6.0417e-06	6.0871e-06	1378.1	374.2	6.0395e-06	6.0842e-06	427.07	143.42	124.51	42.964	6.1017e-06	53.162	212.430	101.455	134.397	41.335	200.509	179.876	41.435	46.268	206.071	171.267	45.436	50.280	50.715	55.193	206.663	54.115	-8191	255	
728.343	1	1	0	0	0.12505	0.24371	0.30366	0.40247	0.12752	0.2264	0.26604	0.16738	0.036341	0.051362	0.072803	0.30859	0.17367	0.33029	0.19153	0.19547	-0.59375	-1.5083	-1.6729	-1.075	-1.5063	-1.5292	-1.0063	-2.1083	-1.0771	-1.3292	-1.9042	-0.92917	-1.7208	-1.6042	-0.92083	-1.8687	179.810	381.006	190.099	339.105	356.143	335.939	324.711	317.076	340.405	292.532	42.546	382.528	263.200	315.021	75.438	271.438	0.00034625	0.00047454	0.00013565	1364.7	4.6912e-06	5.5878e-06	1366.6	367.98	3.8394e-06	4.809e-06	421.51	140.26	122.39	41.88	6.3529e-06	52.029	0.00050527	0.00057127	0.0001531	1379.6	6.1388e-06	6.0922e-06	1378.2	374.51	6.1681e-06	6.157e-06	427.25	143.42	124.95	42.981	6.0881e-06	53.266	212.693	120.231	121.907	41.564	194.288	195.665	41.792	46.345	206.947	181.964	45.548	50.752	50.972	54.965	202.270	54.330	-8191	255	
728.439	1	1	0	0	0.21747	0.16781	0.043374	0.46686	0.15788	0.095667	0.20226	0.19845	0.13712	0.08866	0.27636	0.097602	0.15208	0.15768	0.26078	0.17178	-0.90208	-1.2938	-1.7062	-1.2958	-1.5042	-1.7458	-1.0979	-1.9417	-1.2042	-1.3146	-1.9229	-1.2604	-1.6063	-1.8896	-0.90625	-1.8854	317.080	45.054	158.292	324.060	128.045	325.769	387.274	372.786	117.731	145.874	51.605	304.604	379.854	362.215	287.539	388.276	0.00035941	0.0004924	9.608e-05	1364.2	3.513e-06	3.9056e-06	1365.6	368.94	4.6741e-06	5.3769e-06	419.37	140.12	121.96	41.764	5.0254e-06	52.278	0.00049988	0.00054105	0.00014789	1379.4	6.041e-06	6.0136e-06	1377.7	374.5	5.9702e-06	6.0744e-06	427.64	143.49	124.74	42.922	6.221e-06	53.34	216.284	118.649	129.424	41.336	167.061	217.823	41.616	46.299	200.439	168.148	45.568	50.686	50.970	55.181	189.148	54.733	-8191	255	
728.536	1	1	0	0	0.0895	0.098834	0.18646	0.29255	0.17698	0.12378	0.10321	0.23063	0.15392	0.16894	0.23245	0.29039	0.2411	0.05106	0.19898	0.19279	-1.0063	-0.91042	-1.8687	-0.9875	-1.3042	-1.6458	-1.0583	-1.8	-1.1792	-1.0063	-2.025	-1.0979	-1.4104	-1.725	-1.0854	-1.8687	349.316	361.094	57.014	34.659	145.458	276.973	36.471	371.850	166.945	187.644	321.785	34.098	39.317	307.898	190.777	280.120	0.00036879	0.00039999	0.00015322	1367.4	6.5308e-06	4.0902e-06	1363.3	368.5	3.169e-06	3.8873e-06	422.11	140.89	121.77	42.046	5.319e-06	52.106	0.0005164	0.00055341	0.00015291	1380.2	6.0632e-06	5.9085e-06	1377.9	375.02	5.8797e-06	5.91e-06	427.53	143.78	124.45	43.087	5.9245e-06	53.201	214.753	129.091	126.679	41.083	200.168	191.624	41.192	46.280	200.497	197.082	45.599	50.647	51.013	55.312	191.420	54.312	-8191	255	
728.656	1	1	0	0	0.21251	0.19853	0.094077	0.25999	0.067553	0.10166	0.24347	0.19834	0.20938	0.15715	0.2094	0.35182	0.18332	0.24866	0.14305	0.52411	-1.0688	-0.93542	-1.9396	-1.325	-1.3375	-1.75	-1.2563	-1.7271	-1.4229	-0.86875	-1.9646	-1.2083	-1.2292	-1.9354	-0.81042	-1.6021	377.896	256.686	284.529	347.557	136.858	214.015	48.130	293.889	45.200	148.396	303.074	363.766	105.619	347.564	268.468	239.101	0.00034896	0.00044486	0.00012663	1360.7	4.4683e-06	4.6191e-06	1364.6	367.87	3.8756e-06	2.9507e-06	421.67	140.26	121.78	41.911	6.5446e-06	52.104	0.00049718	0.00054001	0.00014945	1379.1	5.9421e-06	5.847e-06	1378.4	374.76	5.7605e-06	5.9369e-06	427.93	143.25	124.59	43.034	5.8752e-06	53.336	216.993	111.294	111.961	41.469	211.249	197.742	41.400	46.459	212.710	196.921	45.541	50.649	50.865	54.935	208.085	54.397	-8191	255	
728.751	1	1	0	0	0.19173	0.15028	0.27568	0.18391	0.15746	0.074411	0.2234	0.10215	0.03191	0.1779	0.086189	0.24668	0.29912	0.21316	0.21195	0.087861	-1.2146	-0.8875	-1.6375	-1.45	-1.0208	-1.6625	-1.2396	-1.5583	-1.6187	-0.7875	-2.0438	-1.3438	-1.1979	-1.8354	-1.0146	-1.5146	238.711	110.896	72.749	351.671	374.251	153.654	339.803	290.190	144.905	329.241	154.976	371.326	306.853	366.865	92.655	239.234	0.00035373	0.00063237	0.00011094	1365.2	7.2416e-06	5.674e-06	1358.2	368.38	4.1535e-06	4.0006e-06	422.09	140.09	122.04	42.047	4.2144e-06	51.972	0.00049711	0.0005337	0.00015004	1379.8	5.97e-06	5.8042e-06	1375.9	374.92	5.8881e-06	5.9879e-06	428.17	143.48	124.64	43.074	5.7956e-06	53.293	211.847	102.519	121.850	41.565	201.071	189.887	41.679	46.603	199.873	190.646	45.697	50.562	51.050	54.851	194.901	54.250	-8191	255	
728.847	1	1	0	0	0.24495	0.027807	0.16245	0.45679	0.19403	0.040433	0.30718	0.20897	0.076956	0.091859	0.20966	0.08515	0.14568	0.16302	0.13867	0.15343	-1.3771	-1.0854	-1.4708	-1.675	-0.98958	-1.7708	-1.2792	-1.4	-1.8958	-0.9375	-1.6042	-1.5312	-1.0354	-1.9438	-1.1583	-1.2396	245.170	277.243	336.226	352.314	120.946	299.279	359.597	330.759	239.464	180.728	328.649	305.991	295.949	340.532	44.179	169.659	0.00037088	0.00043275	0.00012591	1365.9	6.8886e-06	4.4674e-06	1362.6	368.98	4.8468e-06	5.8059e-06	421.39	139.64	121.9	41.909	4.5531e-06	52.223	0.00049814	0.00054968	0.00014525	1380.1	5.9364e-06	5.8454e-06	1376.5	374.96	5.549e-06	5.9322e-06	428.48	143.28	124.76	42.998	5.9359e-06	53.276	217.515	107.860	128.985	41.360	220.565	212.994	41.263	46.310	208.135	171.586	45.488	50.489	50.894	54.973	205.676	54.086	-8191	255	
728.920	1	1	0	0	0.14864	0.11627	0.28529	0.30279	0.11658	0.12323	0.3588	0.22379	0.22283	0.039443	0.10044	0.19692	0.10686	0.27442	0.14346	0.2338	-1.3188	-0.87917	-1.5187	-1.7604	-0.9875	-1.7021	-1.2896	-1.1458	-1.8417	-0.97917	-1.7479	-1.4958	-0.99375	-1.9375	-1.2208	-1.3167	136.233	293.507	142.652	332.613	164.253	361.627	309.819	261.858	115.722	123.524	76.250	344.807	382.561	370.299	36.149	235.525	0.00035813	0.00052523	9.981e-05	1366.9	5.7541e-06	3.8638e-06	1364.6	368.33	4.4657e-06	4.5411e-06	422.94	140.05	122.11	41.961	3.393e-06	51.976	0.00049433	0.00053377	0.00014943	1381	5.9575e-06	5.7991e-06	1377.8	374.91	5.7713e-06	5.9556e-06	428.54	143.46	124.75	43.022	6.0008e-06	53.332	212.823	100.294	109.565	41.269	179.736	177.132	41.605	46.230	203.903	176.884	45.439	50.318	51.014	54.819	199.786	54.083	-8191	255	
729.039	1	1	0	0	0.10411	0.2496	0.24162	0.35472	0.23023	0.18305	0.2485	0.28033	0.14647	0.096531	0.09348	0.38764	0.15346	0.30116	0.049188	0.20839	-1.3375	-0.98542	-1.4125	-1.4729	-0.84792	-1.8125	-1.3104	-1.1583	-1.8896	-1.0063	-1.6042	-1.8521	-1.15	-1.7208	-1.2521	-1.2021	241.253	384.868	77.017	348.764	339.822	232.495	296.922	278.949	87.774	140.619	46.465	340.085	241.432	351.876	100.776	384.005	0.00037486	0.00042317	0.00016906	1361.7	6.3064e-06	6.0191e-06	1361.6	368.48	3.1516e-06	5.614e-06	421.99	140	122.32	41.667	4.15e-06	52.075	0.00050854	0.00053384	0.00015047	1378.7	5.955e-06	5.8314e-06	1377.4	373.94	5.7196e-06	6.1633e-06	428.03	143.54	124.87	42.958	6.0133e-06	53.31	216.324	112.531	126.870	41.451	207.685	195.326	41.397	46.188	201.184	181.385	45.447	50.736	50.761	54.837	207.317	54.356	-8191	255	
729.135	1	1	0	0	0.072978	0.097721	0.17371	0.25114	0.18714	0.30282	0.38019	0.37136	0.13281	0.31002	0.062497	0.092651	0.294	0.22971	0.1757	0.23041	-1.4062	-0.72708	-1.3146	-1.8896	-0.89167	-1.6875	-1.5812	-1.1458	-1.8229	-1.1479	-1.4062	-1.7875	-1.075	-1.65	-1.4417	-1.1063	75.356	235.251	59.388	339.297	205.485	337.372	325.050	352.975	321.001	173.949	35.602	60.346	366.940	352.426	237.282	376.207	0.0003726	0.00043213	6.8049e-05	1369.3	6.9032e-06	5.9885e-06	1362.5	367.5	5.643e-06	4.7561e-06	420.97	139.99	122.09	41.74	6.0057e-06	51.953	0.00050921	0.00056138	0.00016025	1381.1	6.0546e-06	5.9264e-06	1378.1	374.33	5.8409e-06	5.836e-06	427.48	143.47	124.57	43.088	6.2501e-06	53.263	215.517	107.958	102.399	41.282	177.444	200.495	41.365	46.130	221.739	170.642	45.544	50.379	50.847	55.080	204.043	54.193	-8191	255	
729.231	1	1	0	0	0.32271	0.061855	0.32501	0.22973	0.18276	0.15699	0.21092	0.29828	0.2644	0.26236	0.12055	0.1565	0.33816	0.25763	0.092195	0.21366	-1.4042	-1.1187	-1.2417	-1.8	-0.86667	-1.6167	-1.7875	-1.2521	-1.6896	-1.2417	-1.2708	-1.8521	-1.0208	-1.5146	-1.5875	-1.0708	73.923	87.233	231.622	325.461	336.401	271.258	317.566	306.482	339.252	329.777	341.854	282.325	347.770	315.020	114.442	354.665	0.00036679	0.00064477	0.00012965	1362.6	6.2654e-06	4.6679e-06	1360.5	368.24	4.246e-06	3.6669e-06	421.78	139.75	121.46	42.032	4.4095e-06	52.135	0.00049512	0.00054665	0.00015268	1379.9	6.1431e-06	6.0486e-06	1377.3	374.3	5.8675e-06	6.0031e-06	427.94	143.45	124.59	43.072	5.9006e-06	53.283	217.495	113.432	135.549	41.332	213.770	187.314	41.375	46.382	218.915	193.819	45.481	50.503	50.778	54.834	208.444	54.275	-8191	255	
729.352	1	1	0	0	0.12835	0.14118	0.12541	0.48183	0.12404	0.0096559	0.33161	0.42142	0.31637	0.30029	0.21366	0.34541	0.29247	0.22992	0.091853	0.26954	-1.2458	-1.1792	-0.86667	-2.025	-1.0083	-1.2687	-1.8333	-1.1625	-1.7083	-1.3354	-1.3438	-1.8729	-1.3042	-1.4729	-1.6958	-0.97917	380.816	88.307	85.841	343.971	285.699	376.548	310.365	332.632	33.940	105.367	370.988	366.724	342.780	40.647	89.603	370.136	0.00037367	0.00066702	0.00011555	1361.6	3.8007e-06	4.2644e-06	1362.8	368.98	2.6589e-06	4.4417e-06	420.37	139.72	121.99	41.795	4.7687e-06	52.143	0.0004985	0.00054867	0.00015091	1381.1	5.8176e-06	5.9638e-06	1378.8	374.3	5.8482e-06	5.9766e-06	427.61	143.39	124.68	43.026	5.8678e-06	53.289	211.237	101.485	96.559	41.326	186.984	172.021	41.448	46.404	219.904	187.347	45.721	50.580	50.922	54.951	202.133	54.395	-8191	255	
729.448	1	1	0	0	0.19126	0.18417	0.053659	0.27319	0.13017	0.074264	0.077924	0.28111	0.082441	0.26417	0.17913	0.22624	0.19939	0.25507	0.18401	0.22117	-1.2521	-1.2583	-0.91042	-1.8917	-0.94167	-1.1729	-2.0354	-0.9125	-1.6896	-1.4062	-1.0688	-1.8667	-1.3292	-1.1979	-1.6187	-1.0521	117.996	131.459	80.241	347.678	108.773	362.459	261.090	338.807	141.624	139.047	365.963	298.372	350.920	329.668	142.929	387.984	0.00037908	0.0005283	0.00016263	1364.5	5.5043e-06	5.6739e-06	1360.7	368.53	2.9961e-06	5.8638e-06	420.7	140.44	121.92	41.989	4.6822e-06	52.059	0.00050638	0.00056702	0.00015212	1377.6	6.1435e-06	6.1996e-06	1377.4	374.49	6.0695e-06	5.8652e-06	428.13	143.68	124.65	43.063	5.8895e-06	53.287	213.296	109.729	119.299	41.661	198.322	169.977	41.498	46.303	205.243	174.718	45.398	50.782	50.952	55.321	202.653	54.269	-8191	255	
729.520	1	1	0	0	0.31222	0.077182	0.125	0.26954	0.27304	0.26871	0.10275	0.40067	0.27354	0.14529	0.10011	0.12597	0.036319	0.25882	0.19866	0.1725	-1.1063	-1.5	-0.775	-1.9875	-1.2792	-1.0521	-1.9708	-1.0479	-1.4062	-1.5354	-1.0562	-1.6938	-1.4333	-1.1271	-1.8167	-1.2625	216.867	130.058	146.013	305.392	216.528	315.454	362.241	335.159	255.674	40.403	278.306	318.319	339.429	337.125	99.041	56.025	0.00037305	0.00054686	0.00013155	1365.9	2.9983e-06	4.3814e-06	1367.4	367.78	2.7212e-06	5.1556e-06	421.26	140.21	121.79	42.021	4.3324e-06	52.057	0.00050736	0.00053033	0.00015385	1380.6	6.0071e-06	6.0276e-06	1378.3	374.81	5.8318e-06	5.9844e-06	427.92	143.72	124.55	43.027	5.9783e-06	53.295	214.193	116.541	118.712	41.478	208.537	206.484	41.531	46.202	231.241	189.614	45.276	50.305	50.771	55.010	189.401	54.014	-8191	255	
729.640	1	1	0	0	0.24452	0.061746	0.24096	0.38337	0.35882	0.039844	0.30085	0.12225	0.14616	0.2246	0.17615	0.34713	0.067757	0.06968	0.19175	0.35856	-1.0708	-1.5021	-0.85417	-1.8479	-1.1833	-1.0375	-1.7958	-1.1812	-1.4979	-1.7542	-1.075	-1.7083	-1.525	-1.1	-1.8979	-1.425	161.677	70.121	226.878	366.005	227.084	366.381	280.177	72.837	355.302	87.635	289.872	361.533	112.383	370.144	195.444	305.181	0.000357	0.00040453	0.00016635	1369.6	6.2515e-06	2.139e-06	1361.3	366.48	5.0959e-06	5.8539e-06	420.26	140.2	121.46	42.119	5.4353e-06	51.959	0.00050684	0.00052716	0.00015614	1382.8	6.2013e-06	5.8902e-06	1378	374.26	5.8297e-06	5.9353e-06	427.71	143.59	124.48	43.128	5.9326e-06	53.231	217.074	112.678	125.787	41.219	217.864	188.084	41.241	45.862	209.887	176.681	45.334	50.378	50.418	54.763	196.328	53.856	-8191	255	
729.737	1	1	0	0	0.22368	0.29058	0.37315	0.23319	0.20169	0.11213	0.090256	0.1757	0.18004	0.22651	0.1524	0.2408	0.24269	0.19874	0.24222	0.08108	-0.82917	-1.7625	-0.96042	-1.8167	-1.3	-0.82917	-1.9354	-1.1354	-1.1146	-1.6271	-1.0667	-1.6167	-1.5375	-0.9375	-1.7271	-1.3042	360.990	306.752	122.953	313.070	335.758	228.375	293.892	307.093	280.943	121.893	281.068	346.178	379.633	313.472	76.094	205.373	0.00034385	0.00053157	0.0001395	1367.3	3.1467e-06	4.7607e-06	1369.2	369.08	3.1207e-06	3.8594e-06	419.8	140.17	121.9	41.843	4.383e-06	52.241	0.00050311	0.00052514	0.00015707	1381.3	5.8554e-06	5.9529e-06	1381	374.81	5.8038e-06	5.7506e-06	427.39	143.72	124.52	43.01	5.8476e-06	53.26	219.753	117.079	105.913	41.216	189.267	176.676	41.087	45.927	230.259	190.900	45.268	50.371	50.548	54.892	212.264	54.130	-8191	255	
729.831	1	1	0	0	0.057837	0.2084	0.17253	0.25593	0.26709	0.18962	0.22697	0.38456	0.21334	0.27106	0.2718	0.1026	0.14759	0.22144	0.35777	0.181	-0.575	-1.5917	-0.73958	-1.4562	-1.4125	-0.82083	-1.6708	-1.4188	-1.0875	-1.7437	-1.2313	-1.6125	-1.7542	-1.1396	-1.7938	-1.5438	121.861	283.754	67.931	341.035	110.082	309.915	345.660	34.199	362.025	290.265	310.952	154.414	306.533	68.146	379.499	195.839	0.00036715	0.00054842	0.00018283	1364.3	3.6922e-06	5.24e-06	1363.6	366.9	2.8448e-06	6.1464e-06	421.7	140.37	121.92	41.956	5.3907e-06	51.852	0.00050489	0.00052907	0.00015049	1379.7	5.8847e-06	5.8711e-06	1377.3	373.83	5.8241e-06	5.7752e-06	427.96	143.61	124.58	43.054	6.0081e-06	53.296	216.450	117.008	120.369	41.408	214.793	191.180	41.523	46.013	214.833	168.001	45.386	50.410	50.635	54.888	195.866	54.115	-8191	255	
729.952	1	1	0	0	0.29512	0.3515	0.15224	0.091245	0.21297	0.049273	0.26512	0.35397	0.0096294	0.10148	0.17845	0.17605	0.27206	0.10325	0.060346	0.29876	-0.66875	-1.8979	-1.0063	-1.7521	-1.6354	-0.99375	-2.1312	-1.5375	-1.0562	-1.7229	-1.3875	-1.2229	-1.8104	-0.9	-1.6146	-1.5438	156.363	342.584	125.027	360.397	203.116	352.195	256.454	347.194	102.297	132.674	348.735	304.333	199.844	226.948	332.621	316.589	0.00034135	0.00036805	0.0001373	1364.6	6.3683e-06	4.7482e-06	1358.6	367.79	3.8879e-06	5.8344e-06	420.86	139.65	122.14	42.117	5.1779e-06	52.098	0.00050571	0.00049705	0.00015274	1381.3	5.8911e-06	5.8571e-06	1374.7	374.43	5.6678e-06	5.7806e-06	427.69	143.45	124.57	43.089	5.7547e-06	53.374	212.438	117.445	130.334	41.298	193.214	190.371	41.346	46.010	226.332	182.691	45.016	50.712	50.881	55.153	194.713	54.188	-8191	255	
730.048	1	1	0	0	0.057473	0.12528	0.053191	0.24348	0.12976	0.1082	0.13276	0.36418	0.069442	0.25255	0.23986	0.10057	0.20706	0.10997	0.13599	0.47869	-0.59375	-1.8229	-1.2979	-1.3333	-1.6187	-0.87083	-1.5875	-1.6396	-0.625	-1.6729	-1.2917	-1.1896	-2.0896	-0.96667	-1.4937	-1.925	82.219	235.738	358.143	338.459	183.288	237.212	362.106	307.457	99.033	262.797	332.859	355.087	74.940	297.161	151.644	378.261	0.0003568	0.00058629	0.00012594	1367.3	5.9067e-06	3.9771e-06	1369.8	368.25	3.6454e-06	4.8838e-06	420.66	140.01	121.75	41.902	5.7712e-06	51.837	0.00050699	0.000529	0.00015049	1381.2	5.7437e-06	6.049e-06	1378.8	374.18	5.9776e-06	5.9603e-06	427.78	143.45	124.72	43.057	6.1455e-06	53.191	213.232	115.569	110.659	41.383	216.576	175.679	41.353	45.783	233.123	164.090	45.279	50.205	50.682	54.926	217.480	53.932	-8191	255	
730.144	1	1	0	0	0.2033	0.034985	0.16317	0.090762	0.09582	0.17349	0.28688	0.25482	0.11448	0.050969	0.039353	0.15904	0.18229	0.23947	0.29496	0.11677	-0.47292	-1.6854	-1.3813	-1.2583	-1.8083	-0.90833	-1.5146	-1.8312	-1.0562	-1.6292	-1.7292	-1.25	-2.1875	-1.1708	-1.175	-1.8	194.836	372.925	120.465	134.346	345.346	226.797	249.576	329.807	190.097	125.764	33.294	362.186	70.799	58.214	227.481	249.719	0.00036467	0.00060512	0.0001505	1361.4	6.6544e-06	3.6992e-06	1365.8	368.39	4.8861e-06	3.4072e-06	421.22	141.45	122.23	41.807	6.4218e-06	51.934	0.00050418	0.00054081	0.00015296	1378.9	6.1078e-06	6.1704e-06	1378	374.68	6.0174e-06	6.0222e-06	427.43	143.58	124.87	42.953	6.0166e-06	53.247	212.100	115.206	95.008	41.437	203.311	166.354	41.522	46.166	207.545	180.080	45.167	50.245	50.566	54.694	220.158	54.137	-8191	255	
730.216	1	1	0	0	0.12936	0.17473	0.1728	0.53157	0.055552	0.35918	0.28555	0.16439	0.2147	0.052802	0.10101	0.14859	0.57367	0.076312	0.28294	0.20046	-0.49375	-1.6458	-1.3563	-1.1729	-1.8937	-0.93333	-1.5333	-1.8146	-1.0083	-1.4438	-1.7542	-0.99583	-1.8146	-1.1313	-1.1229	-1.8625	34.610	81.254	349.284	368.411	210.252	72.075	312.607	95.145	223.910	124.241	325.635	123.938	31.722	108.571	159.909	123.297	0.00038429	0.00042676	0.00010756	1358.5	5.0823e-06	3.1346e-06	1368.6	367.76	4.5249e-06	5.2803e-06	422.26	140.52	121.5	41.877	5.0196e-06	52.074	0.00052527	0.0005423	0.00015244	1377.6	6.0931e-06	6.2004e-06	1379.3	374.19	6.1545e-06	6.1754e-06	427.95	143.79	124.62	43.016	6.1293e-06	53.316	213.315	104.733	120.612	41.370	209.407	171.616	41.504	46.102	198.652	193.006	45.072	50.345	50.819	54.538	207.762	54.312	-8191	255	
730.336	1	1	0	0	0.21878	0.12452	0.17721	0.23952	0.11562	0.13051	0.19714	0.31776	0.1753	0.2091	0.28777	0.15763	0.31291	0.1337	0.19105	0.25035	-0.51458	-1.4625	-1.6583	-1.2021	-1.7229	-1.2792	-1.2958	-1.9937	-0.86875	-1.4562	-1.7604	-0.73333	-1.725	-1.4	-1.0125	-1.7687	341.233	91.692	266.682	381.910	46.827	226.777	343.450	339.302	148.060	332.138	381.502	35.545	334.766	194.127	368.267	346.972	0.00039466	0.00064652	0.00013409	1361.3	5.116e-06	5.5778e-06	1367.4	367.13	4.6367e-06	5.7102e-06	420.55	140.39	122.4	41.912	3.1249e-06	51.941	0.00053061	0.00054498	0.00014898	1378.3	5.8915e-06	5.9338e-06	1380.6	374.01	6.2576e-06	6.0924e-06	427.87	143.54	124.82	43.025	5.9433e-06	53.255	217.072	103.673	116.792	41.198	210.641	171.029	41.403	45.979	210.945	170.573	45.061	50.508	50.482	54.659	192.572	53.833	-8191	255	
730.432	1	1	0	0	0.22423	0.1727	0.14114	0.22132	0.067064	0.091602	0.2987	0.15696	0.50977	0.11891	0.23938	0.38176	0.37646	0.045142	0.067566	0.088175	-0.53542	-1.3146	-1.5146	-1.0542	-1.6042	-1.4229	-1.2333	-2.2354	-1.0979	-1.2021	-1.6688	-0.93125	-1.6771	-1.6271	-1	-1.7938	323.662	309.943	282.207	286.584	344.275	269.907	283.178	377.215	371.946	88.845	311.851	376.950	372.094	247.270	168.746	300.243	0.00037795	0.00061737	0.00014485	1359.7	6.1432e-06	5.7397e-06	1363.8	368.02	4.1587e-06	2.656e-06	420.36	139.99	122.07	41.845	3.5677e-06	52.029	0.00052133	0.00056392	0.0001559	1379.3	5.9207e-06	5.8392e-06	1378.7	374.2	6.1489e-06	6.1228e-06	427.49	143.39	124.79	43.022	6.2258e-06	53.389	214.402	103.040	106.662	40.962	214.012	175.769	41.313	45.972	207.244	215.871	44.819	50.050	50.235	54.594	203.933	53.804	-8191	255	
730.529	1	1	0	0	0.086496	0.21818	0.39425	0.25833	0.27349	0.33512	0.37307	0.16427	0.20691	0.091439	0.26388	0.25	0.3217	0.2441	0.010072	0.24262	-0.7125	-1.1229	-1.4417	-1.1375	-1.5021	-1.4083	-1.0458	-2.0167	-0.96667	-1.1021	-1.8917	-1.075	-1.6708	-1.6562	-0.98333	-1.8188	266.984	299.751	201.125	309.822	387.456	118.677	337.184	374.422	278.629	264.924	365.599	374.944	329.621	98.505	91.739	145.262	0.00035352	0.00048524	0.00014013	1370.3	6.0417e-06	3.4931e-06	1367.3	368.64	4.9884e-06	7.2956e-06	421.32	140.61	122.57	41.814	5.1869e-06	51.86	0.00052814	0.00055097	0.00015285	1381.4	6.2495e-06	5.8186e-06	1379.2	374.36	6.0552e-06	6.1044e-06	427.98	143.61	124.94	42.994	6.168e-06	53.196	212.604	130.717	135.784	40.936	181.040	147.955	41.100	45.800	211.573	177.491	45.064	49.861	50.432	54.648	191.288	53.969	-8191	255	
730.625	1	1	0	0	0.16539	0.19115	0.12327	0.13935	0.061992	0.12287	0.33795	0.50154	0.14384	0.16311	0.16016	0.29958	0.070828	0.060517	0.1175	0.27173	-0.91458	-1.225	-1.7812	-1.0354	-1.55	-1.6187	-1.1354	-1.7188	-1.3021	-1.05	-1.9521	-1.1771	-1.5521	-1.6646	-0.84792	-1.8188	63.220	111.603	169.542	281.369	41.006	112.311	45.400	340.603	330.799	151.354	384.122	367.545	208.383	73.339	156.200	364.101	0.0003836	0.0003424	0.00017063	1359.3	6.7045e-06	2.8095e-06	1362.9	367.29	5.3338e-06	6.5095e-06	419.27	140.42	122.04	41.872	4.9011e-06	52.014	0.00052703	0.00054617	0.00015546	1378	6.1303e-06	6.0116e-06	1376.9	374.39	6.0527e-06	6.1824e-06	427.78	143.57	124.74	43.021	6.1514e-06	53.283	213.966	117.517	105.872	41.162	194.670	158.967	41.250	46.116	199.680	201.842	45.393	50.257	50.683	54.604	204.327	53.948	-8191	255	
730.744	1	1	0	0	0.30226	0.19917	0.048476	0.14636	0.12689	0.11295	0.13359	0.42549	0.20027	0.19357	0.18849	0.16162	0.11942	0.31204	0.0069871	0.17829	-1.0854	-0.83958	-1.9021	-1.0521	-1.2229	-2.0375	-0.95417	-1.6979	-1.4312	-0.86667	-1.8771	-1.1125	-1.3333	-1.8229	-0.90208	-1.7208	154.707	190.668	195.367	94.795	31.763	219.689	310.315	42.677	186.570	85.712	357.376	347.665	329.246	36.827	246.334	371.744	0.00037103	0.00046305	0.00016686	1362.1	5.6894e-06	4.1215e-06	1362.8	367.71	4.1046e-06	5.0346e-06	419.42	140.1	122.56	41.947	6.2271e-06	52.161	0.00050692	0.00055038	0.00014878	1378.4	5.9621e-06	6.0295e-06	1376.8	374.74	5.8664e-06	6.3273e-06	426.86	143.42	124.91	43.016	6.368e-06	53.21	211.087	115.231	118.356	41.154	202.292	164.208	41.155	46.032	216.732	187.589	45.359	50.364	50.772	54.610	214.368	53.753	-8191	255	
730.817	1	1	0	0	0.089876	0.1446	0.29547	0.094844	0.088467	0.10942	0.28347	0.28152	0.23322	0.18659	0.052317	0.093012	0.2766	0.16644	0.2584	0.10112	-1.0375	-0.89167	-1.9042	-1.3667	-1.1729	-1.9833	-1.1521	-1.6833	-1.6437	-0.975	-1.9542	-1.2646	-1.2021	-1.9646	-1.0812	-1.5542	185.249	387.607	336.929	360.196	188.440	219.927	365.815	330.139	81.163	100.674	58.465	49.744	113.906	314.265	29.931	306.479	0.00034968	0.00054024	0.00011925	1361.8	5.4597e-06	2.7324e-06	1364.1	368.45	4.0919e-06	4.9752e-06	421.66	140.4	122.1	41.852	4.443e-06	52.092	0.00051567	0.00055518	0.00015226	1377.2	6.1331e-06	6.0965e-06	1378.1	374.5	5.8507e-06	5.9466e-06	428.02	143.46	124.9	43.022	6.5031e-06	53.404	212.351	118.526	94.498	41.146	221.521	193.416	41.315	46.334	214.180	188.479	45.490	50.252	50.548	54.997	205.025	53.999	-8191	255	
730.913	1	1	0	0	0.26018	0.093799	0.017065	0.093359	0.18219	0.23101	0.14856	0.31819	0.24624	0.24988	0.22308	0.11066	0.15916	0.23029	0.14152	0.1433	-1.3146	-0.84792	-1.5438	-1.2521	-0.98958	-1.7708	-1.1437	-1.6167	-1.5917	-0.80833	-1.7167	-1.4021	-1.1042	-2.0312	-0.99375	-1.375	122.416	330.157	244.807	385.568	275.386	301.454	312.457	329.971	276.949	383.676	375.043	82.872	45.050	380.645	53.929	97.016	0.00035601	0.00043081	0.00014193	1363.5	6.6711e-06	5.1336e-06	1362.2	369.11	5.5225e-06	4.6666e-06	420.35	139.76	122.25	41.782	5.7055e-06	52.159	0.00050529	0.00059066	0.00015346	1379.8	6.2356e-06	6.1436e-06	1378.1	374.87	5.9314e-06	6.159e-06	427.97	143.41	124.75	42.942	6.1197e-06	53.353	214.848	133.676	124.318	41.363	201.225	197.492	41.645	46.238	208.313	175.667	44.826	49.823	50.296	54.192	195.723	53.571	-8191	255	
731.032	1	1	0	0	0.30942	0.054448	0.081685	0.18318	0.058726	0.14674	0.40957	0.30167	0.12471	0.13766	0.081612	0.27802	0.1058	0.27249	0.25324	0.16597	-1.2958	-0.94167	-1.5708	-1.6354	-0.97292	-1.6375	-1.1708	-1.6167	-1.6646	-0.98542	-1.6708	-1.5646	-1.3062	-1.6479	-0.9875	-1.2396	329.229	281.018	260.053	340.845	245.806	41.635	28.871	297.269	134.204	244.317	336.787	320.559	140.020	379.142	223.672	76.733	0.00034396	0.00042244	0.00011993	1359.4	5.1748e-06	6.7877e-06	1362.9	369.46	5.5873e-06	3.8628e-06	421.86	139.42	122.02	41.972	7.5894e-06	51.82	0.00052416	0.00056754	0.00015719	1378.6	6.2845e-06	6.021e-06	1377.9	374.87	5.9283e-06	6.1282e-06	428.08	143.14	124.78	43.042	6.2243e-06	53.192	216.102	111.350	111.264	40.581	216.518	198.857	40.963	45.848	223.403	158.848	45.470	50.025	50.627	54.569	207.522	53.885	-8191	255	
731.128	1	1	0	0	0.19165	0.33064	0.042442	0.31301	0.22181	0.051885	0.38314	0.2707	0.055786	0.21888	0.090993	0.093844	0.16783	0.25918	0.25956	0.083038	-1.1354	-1.0375	-1.5688	-1.8729	-0.82917	-1.5854	-1.2062	-1.3354	-1.8292	-1.1208	-1.4625	-1.3958	-1.0896	-1.5854	-1.1729	-1.1021	160.570	96.410	78.080	226.365	31.513	325.743	350.970	42.471	93.097	345.556	223.958	109.308	267.217	360.279	328.197	102.732	0.00036222	0.00067512	0.00014968	1361	6.907e-06	4.7858e-06	1365	368.2	3.455e-06	3.8826e-06	421.21	139.85	122.01	41.797	3.9304e-06	52.104	0.00051961	0.00055605	0.00015917	1378.7	6.2552e-06	5.847e-06	1378.2	374.46	5.8517e-06	6.1002e-06	427.58	143.08	124.83	42.976	6.1208e-06	53.299	211.912	122.167	107.714	40.798	208.091	185.347	40.881	45.695	218.649	182.581	44.987	50.090	50.046	54.418	181.763	53.531	-8191	255	
731.224	1	1	0	0	0.41911	0.27453	0.21578	0.14921	0.062404	0.12199	0.18586	0.20938	0.22542	0.20967	0.29524	0.050471	0.080117	0.11877	0.02539	0.2478	-1.2396	-0.79583	-1.3854	-1.6792	-0.92292	-1.7708	-1.2958	-1.0021	-1.5479	-1.1167	-1.4104	-1.8104	-1.0542	-1.8979	-1.3917	-0.95	142.023	257.809	146.900	361.208	139.014	214.479	324.661	257.217	282.987	91.856	347.922	56.151	384.034	313.594	36.700	295.541	0.00038412	0.00056748	0.00013049	1366.4	5.3724e-06	5.1028e-06	1358.6	366.3	4.2064e-06	3.5833e-06	421.11	139.85	121.56	41.897	3.2416e-06	52.174	0.000522	0.00056037	0.00015873	1380.1	6.1149e-06	6.0568e-06	1376.6	374.4	6.023e-06	6.1142e-06	428.33	143.45	124.83	43.047	6.0777e-06	53.345	211.392	105.063	102.591	40.889	193.931	171.825	40.897	45.967	197.161	151.453	45.114	50.218	50.406	54.238	192.151	53.720	-8191	255	
731.320	1	1	0	0	0.071208	0.082721	0.05868	0.13837	0.13109	0.092849	0.20501	0.076722	0.13769	0.21314	0.12792	0.15845	0.13827	0.24946	0.17526	0.085135	-1.3604	-0.92292	-1.0875	-1.8104	-0.97917	-1.4604	-1.6792	-0.98125	-1.8333	-1.15	-1.3042	-1.8208	-0.98125	-1.4917	-1.2875	-0.92708	164.207	233.943	55.730	371.923	330.226	232.685	327.736	164.209	179.373	274.214	37.515	337.095	103.921	31.583	342.730	261.067	0.00035702	0.0006124	0.0001274	1367.5	7.053e-06	5.694e-06	1366.9	367.07	5.028e-06	3.7246e-06	421.21	140.22	122.04	42.003	4.9713e-06	52.092	0.00051108	0.00055696	0.00015769	1381.6	6.2142e-06	5.9622e-06	1380.5	374.4	6.023e-06	6.099e-06	428.45	143.63	124.8	43.091	5.8435e-06	53.289	214.071	117.875	120.767	40.863	212.554	200.103	41.102	45.952	200.725	191.118	45.161	49.762	50.539	54.420	206.398	53.749	-8191	255	
731.417	1	1	0	0	0.028335	0.30322	0.16118	0.35212	0.35196	0.32018	0.1957	0.32354	0.18797	0.14115	0.10662	0.11799	0.14336	0.072408	0.032243	0.18867	-1.4458	-1.0958	-1.0562	-1.8583	-0.9375	-1.4021	-1.7417	-0.80417	-1.6042	-1.2021	-1.1521	-1.7625	-1.2104	-1.4937	-1.5021	-1.0146	60.227	233.597	83.528	352.368	385.815	271.841	349.995	318.069	297.309	207.385	86.226	122.851	270.810	262.607	350.647	347.306	0.00035239	0.00043327	0.00017111	1364.2	5.8935e-06	5.8426e-06	1364.7	369.09	4.2085e-06	3.5222e-06	422.13	140.7	122.24	41.834	4.7021e-06	51.97	0.00051575	0.00055849	0.00015995	1381.3	6.2713e-06	6.0311e-06	1380.6	375.26	5.9972e-06	6.1684e-06	428.59	143.92	124.79	43.051	6.0656e-06	53.299	208.667	102.419	91.968	40.701	219.001	184.393	40.657	45.396	226.486	183.420	45.110	50.082	50.549	54.631	182.813	53.928	-8191	255	
731.513	1	1	0	0	0.044552	0.080503	0.086121	0.11942	0.11467	0.089896	0.38946	0.29197	0.16898	0.12052	0.094633	0.10465	0.23055	0.057259	0.27268	0.30451	-1.2917	-1.4062	-0.93542	-1.9604	-0.99167	-1.5583	-1.9562	-1.0771	-1.7437	-1.3333	-1.0625	-1.6542	-1.0833	-1.1583	-1.8542	-0.86667	323.636	251.819	359.401	362.880	175.735	209.964	334.676	348.943	283.952	317.418	327.404	46.448	45.473	127.295	218.332	292.790	0.00035726	0.0007435	0.00011965	1367.3	7.7687e-06	5.4504e-06	1366.6	367.93	4.1241e-06	3.5382e-06	421.36	140.42	121.61	41.825	3.715e-06	51.941	0.00050269	0.00057106	0.00015633	1383.3	6.3505e-06	5.9062e-06	1381.1	374.11	5.808e-06	6.076e-06	428.47	143.62	124.78	43.034	5.9455e-06	53.187	216.210	115.039	113.495	40.792	216.295	193.199	40.943	45.642	227.089	192.336	45.239	50.259	50.279	54.621	194.165	53.788	-8191	255	
731.633	1	1	0	0	0.14808	0.16262	0.32555	0.2294	0.10497	0.094929	0.26012	0.12279	0.1964	0.23323	0.34689	0.15941	0.1887	0.36139	0.18263	0.20941	-1.0021	-1.3229	-0.76667	-1.9312	-0.9625	-1.2833	-1.8875	-0.90417	-1.4354	-1.4083	-0.87917	-2.0146	-1.1292	-1.3292	-1.7667	-0.98958	112.319	289.696	317.770	334.761	310.333	231.515	328.392	363.369	349.617	308.953	361.630	107.767	34.886	70.290	193.653	345.141	0.00036634	0.00051599	0.00012177	1363.2	5.0108e-06	4.2995e-06	1359.7	367.46	4.5429e-06	3.8932e-06	421.85	140.13	122.16	41.81	4.8926e-06	52.089	0.00050084	0.00053914	0.00015745	1381.7	6.0028e-06	6.1704e-06	1377.5	374.84	6.0174e-06	6.0916e-06	428.27	143.42	124.72	43	5.8656e-06	53.279	216.759	113.753	116.322	41.091	191.871	203.216	41.135	45.777	225.412	183.010	45.128	49.879	50.637	54.829	195.938	53.648	-8191	255	
731.730	1	1	0	0	0.035824	0.26293	0.25979	0.28172	0.085383	0.087169	0.30299	0.38887	0.11457	0.2696	0.20475	0.24959	0.038413	0.48216	0.21049	0.20899	-0.90417	-1.4208	-0.70417	-1.7625	-1.1833	-0.9625	-2.0312	-1.3083	-1.2604	-1.5521	-0.97292	-1.6604	-1.3854	-1.0708	-1.6646	-1.1833	252.763	308.760	71.216	371.320	173.394	208.613	336.616	351.181	117.891	335.305	321.175	81.636	280.632	369.318	60.149	387.536	0.0003391	0.00028787	0.00016312	1366	4.7556e-06	3.7621e-06	1366.6	368.18	3.7628e-06	3.7697e-06	422.35	140.73	122.2	41.915	4.1689e-06	52.21	0.00050141	0.00055299	0.00016268	1381.2	5.991e-06	5.9568e-06	1380.7	374.64	5.9685e-06	5.9501e-06	428.54	143.71	124.65	43.018	5.8428e-06	53.324	215.490	101.207	111.267	41.008	198.333	171.708	41.176	45.692	219.561	176.954	44.862	49.824	49.853	54.125	197.138	53.213	-8191	255	
731.824	1	1	0	0	0.084335	0.14293	0.059854	0.26216	0.12293	0.080125	0.10895	0.35828	0.15474	0.078367	0.20426	0.071912	0.12597	0.078553	0.18324	0.19369	-0.62917	-1.5063	-0.93333	-1.7458	-1.2229	-0.93958	-1.7604	-1.0688	-1.1479	-1.7333	-0.90208	-1.7687	-1.6562	-0.9375	-1.9146	-1.3354	121.227	101.018	352.331	319.673	89.710	75.470	257.497	290.815	353.919	32.882	47.657	311.188	329.872	136.279	362.937	252.492	0.00032611	0.00046664	0.00013619	1364	4.114e-06	5.6754e-06	1361.6	367.61	4.3034e-06	4.1188e-06	420.19	140.41	122.5	41.89	5.9486e-06	51.91	0.00050336	0.00054707	0.00015225	1380.8	6.0314e-06	6.2051e-06	1377.1	374.62	6.1367e-06	5.9646e-06	428.25	143.68	125.06	43.037	5.8711e-06	53.179	215.328	123.909	121.614	40.625	217.901	185.893	40.786	45.451	193.324	169.561	44.743	49.396	50.071	54.306	186.891	53.552	-8191	255	
731.920	1	1	0	0	0.15956	0.1064	0.24389	0.30545	0.16575	0.19284	0.28526	0.32774	0.29685	0.1748	0.18784	0.21859	0.15043	0.22817	0.19293	0.075501	-0.71458	-1.5438	-0.92292	-1.7771	-1.5438	-0.81458	-1.9438	-1.3375	-1.2792	-1.6104	-0.92292	-1.3813	-1.5646	-1.0562	-1.6083	-1.4125	305.800	334.903	215.267	359.157	312.285	121.882	325.917	42.921	365.970	241.017	384.155	369.954	271.883	315.597	262.161	252.280	0.00035901	0.00030623	0.00017505	1368.2	5.4804e-06	4.6878e-06	1368.1	369	3.9072e-06	3.4789e-06	420.83	140.12	121.67	42.006	5.2882e-06	52.486	0.00052801	0.00052079	0.00015693	1382.1	6.1038e-06	5.9739e-06	1381.3	375	5.9608e-06	6.106e-06	428.5	143.76	124.85	43.058	6.0173e-06	53.409	213.401	100.443	121.233	40.592	200.442	173.134	40.638	45.255	226.489	175.011	44.668	49.594	49.857	54.129	213.450	53.353	-8191	255	
732.041	1	1	0	0	0.08356	0.17157	0.13445	0.36554	0.1879	0.20989	0.10572	0.1816	0.24777	0.048413	0.13793	0.18354	0.20736	0.31818	0.16448	0.13255	-0.61667	-1.8312	-1.3062	-1.4688	-1.4479	-0.85417	-1.8875	-1.4479	-0.99583	-1.8896	-1.1021	-1.3813	-1.8167	-1.0896	-1.4562	-1.4333	227.544	296.178	189.198	353.379	156.693	57.345	350.298	370.466	237.001	109.117	45.206	356.357	81.102	373.233	293.391	86.290	0.00035235	0.00032234	0.00017662	1363.9	4.0215e-06	3.7949e-06	1363.5	367.2	3.9645e-06	2.446e-06	420.59	139.64	122.11	41.968	4.7503e-06	51.776	0.00052078	0.00054951	0.00015702	1383.2	6.0146e-06	6.1047e-06	1380.4	374.41	6.0461e-06	5.8134e-06	427.89	143.53	124.83	43.063	5.9772e-06	53.27	216.457	127.447	95.630	40.738	213.807	156.637	40.874	45.317	221.318	182.752	44.625	49.883	49.862	54.188	195.381	53.562	-8191	255	
732.112	1	1	0	0	0.2584	0.30571	0.26154	0.199	0.23114	0.32788	0.31554	0.20576	0.066235	0.13258	0.07825	0.30344	0.20209	0.2641	0.25039	0.34886	-0.4	-1.6083	-1.0458	-1.4729	-1.5562	-0.93333	-1.6979	-1.7437	-0.73125	-1.8062	-1.2938	-1.4688	-1.7854	-1.1833	-1.5625	-1.6771	109.997	30.391	292.211	337.613	43.729	307.035	366.395	332.323	354.572	88.022	269.879	313.828	278.445	363.966	315.584	365.858	0.00034114	0.0004884	0.00012614	1363.8	5.9973e-06	4.1556e-06	1366.3	367.52	5.4689e-06	3.3569e-06	421.65	140.04	121.47	41.966	5.7737e-06	52.25	0.00051017	0.00051035	0.00014884	1381.6	5.8468e-06	5.9863e-06	1380.5	374.59	5.9454e-06	5.7117e-06	428.07	143.43	124.72	43.026	5.9301e-06	53.405	212.441	100.501	135.280	40.617	214.904	157.398	40.837	45.475	213.451	174.413	44.909	49.812	49.984	54.178	200.585	53.184	-8191	255	
732.209	1	1	0	0	0.14974	0.38741	0.080778	0.28029	0.013457	0.073825	0.24479	0.38788	0.099633	0.21693	0.3789	0.23746	0.17269	0.14883	0.048753	0.17314	-0.60625	-1.8333	-1.025	-1.1521	-1.6875	-0.77917	-1.6458	-1.5042	-1.1875	-1.7958	-1.2104	-1.0479	-1.8604	-1.3167	-1.3896	-1.6354	328.563	234.820	309.979	42.058	147.174	355.289	343.646	365.630	171.296	86.458	372.655	323.159	331.328	69.752	109.536	57.409	0.0003723	0.00050748	0.00013386	1366.6	2.5945e-06	5.4969e-06	1359.4	367.7	4.7066e-06	6.904e-06	420.14	140.29	121.5	41.794	3.5798e-06	52.233	0.00052009	0.00052737	0.00015082	1381.5	5.7944e-06	5.9299e-06	1379.1	374.5	5.9021e-06	6.0331e-06	427.83	143.59	124.72	42.975	5.7665e-06	53.292	215.514	122.311	132.893	40.750	198.304	173.906	40.618	45.502	199.599	194.210	44.706	49.991	50.168	54.377	194.030	53.458	-8191	255	
732.305	1	1	0	0	0.064228	0.19592	0.074995	0.34074	0.28449	0.27356	0.081884	0.12642	0.11611	0.26626	0.19168	0.34878	0.35245	0.2275	0.1372	0.37616	-0.38125	-1.6896	-1.0917	-1.0729	-1.5583	-0.86042	-1.4	-1.8375	-0.78125	-1.7229	-1.3813	-1.1313	-1.7771	-1.2479	-0.98542	-1.7938	168.404	180.992	200.394	379.880	275.955	51.783	64.795	380.603	121.911	274.774	295.685	342.453	334.971	350.178	295.541	309.124	0.00033038	0.00045819	0.00013085	1361.9	7.1185e-06	5.0321e-06	1362.6	368.02	3.6347e-06	4.9631e-06	421.87	140.33	121.98	42.038	6.0781e-06	52.044	0.00050307	0.00052831	0.00014774	1380.7	5.9882e-06	5.9069e-06	1377.6	374.57	5.8552e-06	5.7035e-06	428.48	143.64	124.82	43.061	5.9525e-06	53.239	213.932	132.700	86.774	40.801	207.277	205.056	41.122	45.605	218.926	179.671	44.354	50.042	49.968	54.095	196.880	53.567	-8191	255	
732.425	1	1	0	0	0.25247	0.14506	0.33923	0.34138	0.13752	0.13452	0.18049	0.48048	0.22685	0.27276	0.1677	0.084116	0.31985	0.068988	0.11828	0.32243	-0.39167	-1.5458	-1.4792	-1.2083	-1.6313	-1.2708	-1.2229	-1.9083	-0.85208	-1.725	-1.6375	-0.95833	-1.9542	-1.2292	-1.1187	-1.7437	167.075	42.453	131.630	44.691	291.436	289.357	270.658	383.552	197.961	325.874	362.389	335.647	334.295	52.412	121.311	355.462	0.0003651	0.00072387	0.00011633	1361.5	4.3378e-06	3.9493e-06	1366.3	368.01	3.5312e-06	2.8845e-06	418.77	140.26	121.75	41.91	5.4613e-06	52.1	0.00049439	0.00052845	0.00014748	1379.1	5.7779e-06	5.803e-06	1378.9	374.65	5.7283e-06	5.716e-06	427.53	143.58	124.76	43.01	5.9359e-06	53.294	215.851	108.058	104.763	40.843	204.903	183.209	41.001	45.472	203.023	171.303	44.868	49.861	50.207	54.194	192.325	53.487	-8191	255	
732.521	1	1	0	0	0.1864	0.14896	0.12836	0.14773	0.13997	0.15276	0.0084982	0.29263	0.085422	0.15417	0.14947	0.19952	0.18244	0.081242	0.0798	0.14414	-0.47292	-1.3813	-1.5917	-1.3062	-1.6292	-1.2042	-1.125	-1.9146	-0.96458	-1.5229	-1.6917	-1.0417	-1.6583	-1.5396	-0.85208	-1.9167	51.135	197.233	50.960	268.183	300.581	262.702	138.194	262.422	277.484	268.288	34.198	242.731	37.654	90.734	348.625	311.887	0.00034998	0.00054741	0.00013748	1363.9	5.0774e-06	5.7734e-06	1360.8	367.95	3.8791e-06	4.051e-06	420.92	139.55	122.37	41.812	3.5103e-06	52.12	0.00050766	0.00054008	0.00014552	1380	5.6705e-06	6.0552e-06	1379	374.34	5.8482e-06	5.7491e-06	428.09	143.36	124.85	42.936	5.8126e-06	53.288	214.961	118.681	137.642	40.731	190.835	181.859	40.979	45.588	233.132	180.972	44.764	49.884	50.065	54.269	206.433	53.533	-8191	255	
732.618	1	1	0	0	0.13734	0.26514	0.13941	0.37493	0.18988	0.26759	0.11848	0.27845	0.20371	0.027048	0.081554	0.060823	0.25101	0.19583	0.049685	0.33719	-0.76042	-1.3125	-1.7687	-1.025	-1.4042	-1.3771	-0.82917	-1.9896	-1.1229	-1.4708	-1.7271	-1.1333	-1.5167	-1.7687	-0.96042	-1.8854	145.452	372.960	173.102	355.803	319.836	41.139	75.592	355.569	317.042	173.730	45.803	129.346	372.563	333.297	157.154	377.230	0.00033978	0.00070435	9.3568e-05	1361.2	6.5859e-06	4.4871e-06	1356.5	367.93	3.4892e-06	3.3436e-06	420.89	139.7	121.77	41.891	5.1655e-06	51.771	0.00050357	0.00051212	0.00014224	1377.8	5.8611e-06	5.7337e-06	1376.3	374.24	5.7108e-06	5.9704e-06	427.49	143.29	124.86	42.989	6.1499e-06	53.254	210.327	104.559	135.415	40.763	202.104	222.232	41.080	45.588	210.898	185.903	44.431	49.915	50.270	54.290	196.348	53.781	-8191	255	
732.714	1	1	0	0	0.14074	0.21811	0.338	0.20246	0.1158	0.042286	0.16769	0.032822	0.055982	0.25496	0.11406	0.071366	0.19253	0.10354	0.16142	0.14292	-0.6875	-1.1688	-1.7458	-1.0187	-1.5021	-1.475	-1.0292	-2.0271	-1.0312	-1.175	-1.9937	-1.0833	-1.4479	-1.7812	-0.84583	-1.6	271.276	342.422	348.216	295.475	157.144	338.409	267.890	296.056	33.105	328.092	328.463	112.645	340.162	127.828	244.297	300.481	0.00038041	0.00041777	0.00011996	1364.4	5.2831e-06	4.1243e-06	1363	367.22	4.385e-06	5.5439e-06	420.63	139.75	122.08	41.837	5.4758e-06	52.11	0.00049822	0.00053826	0.00015311	1377.3	6.0789e-06	6.0922e-06	1376.8	374.68	6.0038e-06	6.1329e-06	427.13	143.24	124.63	42.957	5.9772e-06	53.314	215.171	99.826	131.780	40.658	207.681	176.690	40.750	45.413	219.016	181.104	45.000	50.072	50.415	54.227	191.069	53.733	-8191	255	
732.810	1	1	0	0	0.19419	0.11326	0.2776	0.39642	0.28761	0.067061	0.16682	0.17667	0.091131	0.33458	0.29763	0.17145	0.10548	0.17864	0.39033	0.14195	-0.8	-0.79375	-1.675	-1.0646	-1.4354	-1.6313	-0.81667	-2.0438	-1.1896	-0.94167	-1.7729	-1.0333	-1.4042	-1.8375	-0.7	-1.625	83.500	97.866	289.558	325.568	258.824	162.598	260.833	379.374	357.554	225.781	312.150	379.932	347.785	336.189	162.776	310.792	0.00036855	0.00044182	0.00013928	1361.6	4.7194e-06	5.0774e-06	1362.8	368.42	4.2619e-06	4.6807e-06	419.83	140.15	122.12	41.641	5.3367e-06	51.859	0.00050546	0.00055995	0.00015248	1378.7	6.0989e-06	6.2977e-06	1377.7	374.55	6.2524e-06	6.4933e-06	426.94	143.41	124.81	42.915	6.3459e-06	53.173	213.784	88.215	116.137	40.820	203.627	187.733	40.824	45.718	222.138	172.483	44.727	49.980	50.277	54.044	196.024	53.434	-8191	255	
732.904	1	1	0	0	0.19354	0.24489	0.058715	0.23992	0.18822	0.38835	0.047151	0.20643	0.41607	0.053094	0.30549	0.27678	0.22109	0.17352	0.40851	0.21814	-1.0333	-0.97083	-1.7479	-1.1063	-1.2313	-1.8333	-1.225	-1.9042	-1.4125	-1.0604	-1.9104	-1.2417	-1.325	-1.7729	-1.0521	-1.825	208.426	318.741	378.719	300.546	53.612	109.300	154.531	43.138	145.495	231.793	382.173	49.982	373.406	330.686	341.173	78.550	0.00037315	0.0006654	7.5123e-05	1355.9	5.545e-06	3.5662e-06	1362.7	367.89	4.4135e-06	5.5628e-06	421.64	139.84	121.67	41.901	7.626e-06	51.801	0.00052474	0.00058216	0.00016399	1375.8	6.5229e-06	6.1844e-06	1377.3	374.48	6.3066e-06	6.7361e-06	427.87	143.21	124.53	42.975	6.7381e-06	53.15	213.294	123.752	147.295	40.745	210.491	161.149	40.928	45.576	221.983	187.513	44.657	50.029	50.390	54.659	200.766	53.733	-8191	255	
733.002	1	1	0	0	0.34594	0.21952	0.028651	0.1131	0.075934	0.22267	0.30922	0.11823	0.022009	0.02367	0.086621	0.1962	0.18507	0.23824	0.23631	0.36877	-1.025	-0.9625	-1.4604	-1.3687	-1.1458	-1.6479	-1.0979	-1.55	-1.5479	-1.0458	-1.9292	-1.5187	-1.2021	-1.8708	-1.0271	-1.3896	98.885	155.200	267.799	339.479	137.637	305.032	297.518	295.107	95.528	61.508	301.578	32.845	306.542	58.346	140.533	350.770	0.00035996	0.00034869	0.00010412	1366.6	7.0549e-06	5.1663e-06	1356.7	368.52	4.5905e-06	5.2501e-06	422.05	140.31	121.27	41.592	4.4191e-06	52.024	0.00055258	0.00061151	0.00016873	1380.7	6.8417e-06	6.5145e-06	1375.6	374.53	6.6163e-06	6.597e-06	428.47	143.66	124.31	42.899	6.7418e-06	53.239	212.479	117.078	112.346	40.786	192.769	166.959	40.923	45.587	211.482	158.792	44.842	49.986	50.140	54.212	191.545	53.697	-8191	255	
733.121	1	1	0	0	0.064316	0.18296	0.10425	0.2019	0.12173	0.094785	0.11386	0.27744	0.21293	0.1447	0.074527	0.45837	0.15535	0.071116	0.12226	0.069484	-1.3062	-0.67917	-1.625	-1.3104	-1.1437	-1.6646	-1.4417	-1.4188	-1.7875	-0.84792	-1.7917	-1.4667	-1.1333	-1.85	-1.05	-1.4104	180.359	103.599	159.764	381.881	172.203	377.388	262.782	30.486	295.619	229.682	183.682	356.623	377.113	358.789	217.003	302.061	0.0003592	0.00039267	0.00014837	1359.1	6.3051e-06	5.414e-06	1358.6	367.55	4.3577e-06	5.5651e-06	421.1	139.53	122.05	41.835	5.4014e-06	52.199	0.00052642	0.00060517	0.00016721	1376.2	6.6721e-06	6.3938e-06	1378	374.53	6.4069e-06	6.7224e-06	427.97	143.44	124.76	42.983	6.4836e-06	53.303	213.577	117.379	110.387	40.584	211.365	184.769	41.039	45.749	208.158	197.201	44.992	49.903	50.338	54.563	205.400	53.822	-8191	255	
733.217	1	1	0	0	0.16184	0.053571	0.25895	0.12802	0.17896	0.32482	0.26594	0.30169	0.20317	0.16798	0.34338	0.32607	0.19683	0.053139	0.029504	0.096199	-1.3396	-0.89375	-1.525	-1.6583	-0.88542	-1.7083	-1.2687	-1.3021	-1.5875	-0.94167	-1.5854	-1.8271	-0.95625	-1.7396	-1.0083	-1.2	73.098	52.407	376.386	349.067	189.246	166.826	346.366	344.765	94.754	50.897	48.434	62.325	353.196	358.037	179.294	42.112	0.00035793	0.00050156	0.00014755	1362.2	4.4739e-06	5.9985e-06	1363.3	367.36	4.3587e-06	3.7253e-06	421.59	139.87	121.53	41.807	3.4001e-06	51.933	0.00053797	0.000612	0.00017253	1378.1	6.8217e-06	6.5982e-06	1377.4	374.2	6.4964e-06	6.8483e-06	428.39	143.43	124.51	42.936	6.7112e-06	53.227	215.915	114.238	98.063	40.789	217.591	164.931	40.806	45.817	226.670	158.182	45.102	49.899	50.338	54.653	186.289	53.798	-8191	255	
733.313	1	1	0	0	0.11115	0.12977	0.14653	0.13881	0.16902	0.14617	0.20157	0.31434	0.15429	0.26361	0.19646	0.27859	0.21732	0.0084099	0.12147	0.28041	-1.3438	-0.775	-1.3479	-1.6854	-0.70625	-1.7313	-1.5146	-1.3396	-1.8312	-0.83542	-1.6437	-1.6313	-0.90625	-2.0354	-1.3333	-1.0458	373.378	344.916	169.751	305.320	243.640	269.382	347.700	226.418	363.475	50.306	345.879	351.383	353.431	291.656	253.916	329.433	0.00035493	0.00043712	0.00012116	1362.7	6.2281e-06	5.0335e-06	1357.4	366.83	3.153e-06	4.5911e-06	421.52	140.37	121.66	41.866	3.8313e-06	52.008	0.00054585	0.00062857	0.00017316	1378.8	6.9816e-06	6.8636e-06	1376.6	374.39	6.5093e-06	6.8097e-06	427.93	143.43	124.3	43.006	6.8132e-06	53.302	216.301	116.370	134.967	40.943	198.581	183.360	40.810	45.890	203.282	179.608	45.157	49.988	50.262	54.542	187.126	53.849	-8191	255	
733.410	1	1	0	0	0.34782	0.11865	0.15753	0.15608	0.10564	0.13763	0.41343	0.43898	0.2934	0.14695	0.29839	0.14679	0.28126	0.12501	0.1953	0.17746	-1.3687	-1.0229	-1.3396	-1.9021	-0.80417	-1.6896	-1.7604	-1.2771	-1.7521	-1.1896	-1.5292	-1.9813	-1.0229	-1.6667	-1.4375	-0.93542	36.275	160.157	132.308	377.960	139.467	202.305	321.073	333.461	133.080	89.338	361.644	336.643	132.174	86.025	111.037	38.155	0.00037421	0.00040317	0.00014545	1362.4	5.7381e-06	4.6548e-06	1360.7	368.1	4.3631e-06	6.8354e-06	422.5	140.09	121.28	41.953	3.8439e-06	51.847	0.00054917	0.00062805	0.00017339	1378.9	6.6654e-06	6.6857e-06	1376.5	374.45	6.4656e-06	6.9426e-06	428.44	143.3	124.62	43.043	6.7204e-06	53.204	213.685	137.085	128.378	40.955	207.116	190.263	40.886	45.752	237.532	176.926	45.134	49.978	50.643	54.742	198.686	53.558	-8191	255	
733.506	1	1	0	0	0.077486	0.2543	0.16723	0.2706	0.13627	0.17957	0.24246	0.13438	0.34325	0.3308	0.24679	0.21427	0.17663	0.076414	0.1692	0.15414	-1.375	-1.3896	-0.92083	-1.7812	-0.875	-1.4833	-1.7354	-1.0187	-1.8083	-1.3146	-1.3104	-2.1417	-0.97708	-1.5792	-1.4562	-1.1	188.358	57.972	64.924	71.704	370.849	60.338	377.267	75.625	139.089	310.547	278.219	341.005	357.775	101.239	33.581	377.648	0.00035173	0.00054043	0.00013603	1361.6	5.3801e-06	4.9321e-06	1362.1	368.03	4.3361e-06	2.6126e-06	420.28	140.62	121.92	41.763	5.3838e-06	52.165	0.00055162	0.00061572	0.00017571	1378.6	6.8767e-06	6.822e-06	1377.1	374.67	6.5541e-06	6.7057e-06	428.02	143.59	124.61	43.027	6.839e-06	53.359	213.505	112.411	103.887	40.839	197.251	185.904	41.020	45.722	213.019	165.826	45.011	49.785	50.159	54.259	200.773	53.524	-8191	255	
733.602	1	1	0	0	0.33553	0.13362	0.079412	0.26781	0.15611	0.11548	0.25303	0.24853	0.16287	0.17083	0.23007	0.30018	0.23653	0.36686	0.08688	0.20735	-1.1979	-1.2542	-0.8	-1.7271	-1.0667	-1.2333	-1.6938	-1.1646	-1.65	-1.1562	-1.0479	-1.9729	-1.0125	-1.1271	-1.5312	-0.95625	309.486	183.222	331.370	320.796	48.987	312.094	279.757	374.103	168.898	211.038	322.279	329.438	317.034	377.024	217.137	321.353	0.00035187	0.00035811	0.00014286	1359.2	6.0988e-06	4.1131e-06	1359.1	368.7	3.8908e-06	6.7591e-06	419.92	140.58	121.51	41.964	4.0284e-06	51.705	0.00055579	0.00063292	0.00017174	1376.9	6.8938e-06	6.7616e-06	1376.2	374.76	6.4237e-06	6.8339e-06	427.8	143.66	124.63	43.053	6.5816e-06	53.191	217.936	117.518	116.853	40.932	190.453	163.766	40.972	45.659	206.885	214.520	45.063	49.651	50.200	54.411	183.944	53.746	-8191	255	
733.722	1	1	0	0	0.26505	0.02703	0.19075	0.11394	0.15322	0.21524	0.077838	0.18375	0.16852	0.23758	0.3661	0.37612	0.40667	0.19128	0.065403	0.089132	-1.0458	-1.2792	-0.93958	-1.7625	-1	-1.2167	-1.6854	-1.0875	-1.4937	-1.6417	-1.0833	-1.7812	-1.0917	-1.2979	-1.6646	-1.0542	209.853	36.712	264.246	307.792	133.427	119.103	383.479	377.368	40.110	368.558	362.416	323.085	65.339	30.076	295.136	353.850	0.00034722	0.00037597	0.00012893	1361.3	5.1057e-06	4.9467e-06	1363.6	368.18	4.0741e-06	4.6639e-06	419.25	139.99	121.64	41.608	1.8954e-06	51.991	0.00054323	0.00060758	0.00016872	1378.2	6.6721e-06	6.8788e-06	1378.5	374.43	6.2859e-06	6.3355e-06	427.43	143.3	124.52	42.99	6.5565e-06	53.275	214.079	85.597	116.192	40.758	207.223	189.572	40.761	45.534	216.336	194.199	44.798	49.930	50.017	54.388	222.342	53.493	-8191	255	
733.817	1	1	0	0	0.10218	0.24262	0.15803	0.21534	0.051425	0.28665	0.1688	0.41171	0.27546	0.14711	0.35289	0.18205	0.23746	0.026881	0.12191	0.11784	-0.93125	-1.5667	-0.80833	-1.9167	-1.1313	-0.93958	-1.7917	-1.2062	-1.2729	-1.6729	-0.92708	-1.9354	-1.1063	-1.1417	-1.6167	-1.1458	379.147	307.229	384.405	357.769	67.667	138.695	381.820	371.847	87.922	130.476	329.424	125.482	369.545	331.702	36.025	188.306	0.00035853	0.00044263	0.00011242	1360.3	4.9098e-06	4.0994e-06	1359.3	368.49	4.465e-06	5.6071e-06	419.96	140.55	121.55	41.849	5.3002e-06	51.906	0.00053931	0.00060789	0.00016656	1379	6.6593e-06	6.6266e-06	1376.6	374.3	6.6048e-06	6.6726e-06	427.51	143.51	124.4	42.998	6.5624e-06	53.258	212.740	107.930	121.230	41.099	186.926	186.075	40.781	45.754	203.516	165.918	45.025	50.111	50.122	54.195	206.031	53.559	-8191	255	
733.913	1	1	0	0	0.12726	0.079961	0.027216	0.37786	0.026381	0.15857	0.094261	0.26376	0.38683	0.19579	0.18932	0.1656	0.047013	0.25152	0.04891	0.15494	-0.70208	-1.6583	-0.80417	-1.7333	-1.2812	-0.99792	-1.9146	-1.1979	-1.1667	-1.6708	-0.96875	-1.7125	-1.475	-0.93333	-1.8188	-1.0458	168.141	126.539	190.956	335.938	307.193	37.025	280.810	290.059	322.854	326.321	258.940	346.432	280.839	298.769	244.090	341.745	0.00036246	0.00060768	0.00014304	1360.7	6.8227e-06	4.907e-06	1368.1	367.89	3.1673e-06	6.7511e-06	420.42	139.99	121.45	41.918	3.6574e-06	51.874	0.00053185	0.00058335	0.00017278	1380	6.6875e-06	6.4974e-06	1377.8	374.19	6.4289e-06	6.4271e-06	427.47	143.47	124.36	43.022	6.2615e-06	53.191	218.163	99.384	104.639	40.911	208.766	194.494	40.951	45.661	206.047	190.144	45.024	50.282	50.332	54.412	202.582	53.697	-8191	255	
733.985	1	1	0	0	0.077975	0.11493	0.086666	0.25956	0.095476	0.13945	0.078708	0.17051	0.11565	0.23605	0.11996	0.31103	0.1158	0.22454	0.13479	0.33206	-0.74167	-1.4979	-0.88542	-1.7146	-1.4958	-0.92292	-1.8458	-1.3875	-1.125	-1.4396	-1.1771	-1.5229	-1.65	-1.0354	-1.7396	-1.3958	195.698	277.279	292.556	342.796	310.447	42.412	239.952	353.260	372.574	34.379	359.150	247.459	354.049	353.157	186.827	328.007	0.00037324	0.0004949	0.0001283	1363.9	6.712e-06	6.4932e-06	1360.1	368.15	5.6352e-06	5.4633e-06	421.38	139.85	121.28	41.876	4.3484e-06	52.106	0.00055439	0.00057886	0.00016066	1381.5	6.5468e-06	6.5557e-06	1377.9	374.45	6.5478e-06	6.5389e-06	429.05	143.58	124.41	43.016	6.533e-06	53.356	210.840	104.936	88.388	40.949	194.828	175.640	41.013	45.723	204.460	184.627	45.160	49.984	50.607	54.512	187.971	53.672	-8191	255	
734.083	1	1	0	0	0.18938	0.1272	0.10793	0.41847	0.081634	0.36081	0.29893	0.26366	0.39952	0.12755	0.39939	0.4402	0.194	0.19914	0.1692	0.17736	-0.8375	-1.7646	-1.0438	-1.6812	-1.5083	-0.81458	-1.9542	-1.6646	-1.0604	-1.7896	-1.0917	-1.4292	-1.8438	-0.84167	-1.525	-1.4729	42.352	351.793	31.605	357.989	56.693	374.759	372.811	293.233	241.133	371.459	65.414	356.094	345.287	381.869	101.547	232.544	0.00035375	0.00050175	0.00014344	1363.5	5.951e-06	4.8668e-06	1361.3	368.81	4.2304e-06	3.6449e-06	419.91	139.9	122.23	41.718	5.3854e-06	52.108	0.00055091	0.00056497	0.00016804	1380.3	6.5543e-06	6.6791e-06	1378.4	374.84	6.2824e-06	6.4816e-06	428.16	143.46	124.82	42.965	6.4254e-06	53.3	216.741	106.389	123.734	40.971	201.366	187.117	41.117	45.705	228.597	205.429	44.886	50.307	50.192	54.618	192.442	53.764	-8191	255	
734.201	1	1	0	0	0.24956	0.14854	0.16858	0.26574	0.061449	0.10012	0.047125	0.3572	0.21605	0.09316	0.34031	0.20541	0.11831	0.023216	0.24144	0.090041	-0.75	-1.8333	-0.97292	-1.6792	-1.7333	-0.82083	-1.8625	-1.6792	-1.0917	-1.7292	-1.5	-1.2812	-1.8062	-0.92917	-1.5917	-1.4771	179.240	71.234	68.368	49.168	293.684	143.328	304.147	303.224	132.968	311.342	317.685	312.143	32.603	121.911	282.129	168.556	0.00034756	0.00055625	0.00018411	1365	5.1606e-06	5.4884e-06	1363.5	368.49	4.2724e-06	7.0583e-06	421.6	140.14	121.63	41.912	7.167e-06	51.762	0.00053598	0.00058965	0.0001661	1379.7	6.3619e-06	6.7317e-06	1379.4	375.21	6.4181e-06	6.498e-06	428.43	143.32	124.65	43.065	6.375e-06	53.212	215.648	121.278	97.548	41.105	201.180	201.712	41.063	45.660	223.821	183.410	44.982	50.294	50.405	54.364	193.618	53.753	-8191	255	
734.298	1	1	0	0	0.17684	0.10933	0.059782	0.35831	0.089291	0.23468	0.12025	0.3945	0.070935	0.14027	0.18842	0.19606	0.16608	0.17935	0.049339	0.36457	-0.37708	-1.7896	-1.1688	-1.2479	-1.7021	-1.0417	-1.6812	-1.7521	-0.89792	-1.7062	-1.3042	-1.2833	-1.6771	-1.1688	-1.2854	-1.8125	248.419	142.651	356.476	374.614	361.592	337.146	329.381	312.937	54.664	185.498	344.269	342.816	61.339	70.897	178.233	334.202	0.00036009	0.00042458	0.0001825	1365	6.3242e-06	6.0849e-06	1363	368.56	3.3748e-06	6.5211e-06	421.04	140.53	122.01	41.8	5.1458e-06	51.858	0.00055221	0.00058443	0.00016609	1381.7	6.3112e-06	6.5869e-06	1380.1	375.11	6.1674e-06	6.5136e-06	428.03	143.54	124.84	43.027	6.481e-06	53.246	216.524	100.898	106.535	41.161	191.736	190.061	40.801	45.823	225.188	170.656	45.064	49.994	50.504	54.571	192.099	53.670	-8191	255	
734.394	1	1	0	0	0.17314	0.24385	0.065005	0.31456	0.062839	0.097089	0.02512	0.33877	0.46672	0.22054	0.34268	0.13733	0.24214	0.20417	0.188	0.33151	-0.6375	-1.6313	-1.2354	-1.2563	-1.7375	-1.0396	-1.4729	-1.7854	-0.98333	-1.4854	-1.4292	-1.0333	-1.8667	-1.0583	-1.1667	-1.7042	269.068	282.071	195.963	56.453	260.006	54.702	276.034	322.387	112.569	303.652	364.962	368.112	104.078	277.664	288.195	323.049	0.00036578	0.00046845	0.00018594	1362.1	5.9265e-06	4.421e-06	1361.8	368.18	3.0591e-06	3.8164e-06	419.47	140.01	122.13	41.814	5.7714e-06	52.18	0.00052873	0.00059066	0.00016596	1380.3	6.3291e-06	6.3413e-06	1379.2	374.85	6.2272e-06	6.491e-06	428.06	143.4	124.82	42.965	6.4726e-06	53.345	216.211	92.417	110.826	40.926	193.303	191.953	41.365	45.698	213.968	189.044	45.018	50.157	50.712	54.210	199.190	53.774	-8191	255	
734.514	1	1	0	0	0.074736	0.15159	0.081643	0.09084	0.30141	0.25878	0.17321	0.14317	0.12502	0.13834	0.050486	0.38904	0.16918	0.1906	0.18604	0.19984	-0.58333	-1.5938	-1.3708	-0.97917	-1.6458	-1.0917	-1.1667	-1.8333	-0.9125	-1.7667	-1.5063	-1.1979	-1.8146	-1.225	-0.97917	-1.8729	173.650	384.497	361.617	199.602	367.852	220.118	377.289	196.389	246.627	51.701	386.995	75.651	364.088	345.961	68.213	339.989	0.00036593	0.00053452	0.00016059	1363.7	3.114e-06	2.9202e-06	1362.4	367.12	4.4946e-06	4.6102e-06	421.05	139.86	121.81	41.882	5.4859e-06	52.006	0.0005347	0.00059616	0.00016222	1380.1	6.4273e-06	6.288e-06	1381.3	374.48	6.4059e-06	6.3858e-06	427.51	143.49	124.59	43.02	6.4796e-06	53.369	216.130	111.262	107.189	41.077	177.820	132.256	41.278	45.803	220.165	197.185	44.969	50.012	50.682	54.522	217.675	53.784	-8191	255	
734.586	1	1	0	0	0.080019	0.13544	0.34811	0.25222	0.1362	0.31579	0.32131	0.11729	0.15325	0.10433	0.12213	0.10242	0.43718	0.076499	0.2524	0.16783	-0.6	-1.4438	-1.4229	-0.9875	-1.5229	-1.2375	-1.25	-1.925	-0.67917	-1.4604	-1.7542	-0.99792	-1.8146	-1.4604	-0.9125	-2.0438	373.468	104.928	65.155	381.672	126.507	54.461	328.224	362.793	91.728	156.127	346.423	193.034	344.446	92.467	151.679	95.534	0.00039258	0.00038515	8.2489e-05	1367.7	5.405e-06	4.0886e-06	1363.5	366.51	4.1053e-06	5.7954e-06	420.75	139.96	121.88	41.817	4.9504e-06	52.207	0.00052988	0.0005737	0.00016278	1381.2	6.3519e-06	6.3024e-06	1377.1	374.59	6.3786e-06	6.5288e-06	427.42	143.36	124.77	43.022	6.3849e-06	53.316	215.645	112.344	94.495	41.010	198.568	170.120	41.310	45.981	212.306	172.469	44.875	49.996	50.656	54.394	194.537	53.543	-8191	255	
734.682	1	1	0	0	0.45764	0.02951	0.1121	0.42689	0.069624	0.05585	0.39708	0.2874	0.23532	0.078477	0.061653	0.46663	0.31348	0.38434	0.2717	0.1487	-0.59583	-1.3125	-1.5896	-0.83125	-1.4646	-1.4583	-1.3771	-1.9375	-1.0354	-1.2917	-1.7938	-0.88542	-1.5167	-1.5438	-0.90833	-1.6854	364.775	342.159	352.883	357.641	160.581	215.807	368.237	370.209	376.217	330.810	293.762	293.563	49.551	258.018	155.053	86.136	0.00035167	0.00053142	0.00015186	1361.9	4.8337e-06	3.9453e-06	1358.5	367.97	3.4682e-06	5.7626e-06	421.53	140.57	122.48	41.862	3.7906e-06	51.814	0.00054028	0.00059184	0.00015874	1379.6	6.4458e-06	6.3841e-06	1377.6	374.74	6.4496e-06	6.3983e-06	428.5	143.8	124.96	42.986	6.2976e-06	53.24	212.584	115.966	112.645	40.980	198.505	194.411	41.121	45.625	221.277	193.854	45.029	49.979	50.354	54.397	191.774	53.610	-8191	255	
734.803	1	1	0	0	0.14942	0.25194	0.27143	0.35659	0.1776	0.1852	0.33998	0.094714	0.33457	0.38004	0.087375	0.28437	0.33176	0.13248	0.085128	0.07864	-0.62917	-1.1479	-1.6375	-1.0479	-1.6208	-1.3542	-0.94167	-1.9438	-1.1521	-1.0167	-1.7625	-0.95625	-1.6333	-1.5958	-0.8375	-1.7833	162.566	368.180	181.142	350.844	320.348	194.071	311.963	281.073	385.324	175.011	370.152	355.492	301.376	82.479	228.210	60.775	0.00033082	0.00055081	0.00011788	1363.5	5.9825e-06	5.659e-06	1360.3	368.96	4.0022e-06	5.6593e-06	421.34	140.28	122.14	41.785	5.7462e-06	52.026	0.00052718	0.00059901	0.00015676	1380.7	6.3851e-06	6.4347e-06	1378.1	374.88	6.1104e-06	6.4645e-06	428.04	143.47	124.79	43.006	6.5473e-06	53.231	211.752	112.647	119.190	40.864	189.780	164.089	41.047	45.549	208.925	198.595	45.108	50.018	50.627	54.096	199.112	53.666	-8191	255	
734.897	1	1	0	0	0.31229	0.25667	0.081394	0.46855	0.15553	0.055104	0.41517	0.26294	0.14183	0.20938	0.15272	0.10159	0.26883	0.37726	0.071476	0.23114	-0.80417	-0.94375	-1.7458	-1.25	-1.3417	-1.6458	-1.1375	-1.8708	-1.3542	-0.90208	-1.9438	-1.025	-1.4875	-1.6396	-1.0375	-1.7396	244.580	312.983	145.769	373.737	150.397	343.809	377.622	361.846	41.636	162.763	271.469	43.079	291.259	37.102	377.349	300.658	0.00037073	0.00043005	0.0001163	1370	3.9362e-06	5.2704e-06	1362.4	367.57	4.6519e-06	5.4234e-06	421.6	140.11	122.24	41.889	5.5362e-06	52.252	0.00053665	0.00059623	0.0001648	1381.6	6.4358e-06	6.3179e-06	1378.5	374.79	6.2629e-06	6.3971e-06	428.7	143.37	124.74	43.04	6.4144e-06	53.355	214.118	101.081	114.901	41.161	198.701	185.133	40.984	45.937	229.517	214.350	44.820	50.249	50.441	54.815	214.550	53.699	-8191	255	
734.995	1	1	0	0	0.16938	0.075318	0.3033	0.1373	0.29529	0.056113	0.26067	0.26854	0.16746	0.10692	0.25964	0.25693	0.10402	0.11179	0.14462	0.24431	-0.9375	-0.7625	-1.7042	-1.1729	-1.3229	-1.6917	-1.0125	-1.5646	-1.2625	-0.81667	-1.8021	-1.0667	-1.25	-1.7042	-0.88333	-1.5458	276.788	272.390	273.416	99.174	350.924	89.265	318.037	285.127	343.260	308.929	304.784	384.518	70.009	131.251	71.705	308.816	0.00036847	0.00057143	0.0001359	1358	5.019e-06	3.609e-06	1367.5	366.9	4.9192e-06	5.1134e-06	422.44	139.88	122.66	41.908	5.9158e-06	51.858	0.00053139	0.00057844	0.00016239	1378.4	6.3666e-06	6.0988e-06	1378.8	374.47	6.1845e-06	6.3644e-06	428.63	143.69	125.01	43.069	6.4681e-06	53.277	215.569	94.649	98.314	40.966	207.582	200.994	41.151	46.076	217.735	199.910	44.919	49.821	50.339	54.334	196.469	53.495	-8191	255	
735.114	1	1	0	0	0.12898	0.2264	0.34536	0.18825	0.19186	0.21196	0.13096	0.096102	0.11925	0.12691	0.16592	0.36411	0.16136	0.15661	0.21135	0.24257	-1.0438	-0.98333	-1.5208	-1.2042	-1.1562	-1.8813	-1.1958	-1.4688	-1.3979	-0.90833	-1.7542	-1.3875	-1.2208	-1.9354	-0.9125	-1.5125	220.057	306.406	99.280	32.754	115.125	372.107	331.619	344.608	387.484	289.022	376.603	343.724	31.504	116.036	370.540	306.409	0.0003619	0.00047838	0.00013398	1361.1	5.4635e-06	4.1966e-06	1366	368.92	3.5017e-06	4.8992e-06	420.78	140.02	122.15	41.787	5.3956e-06	51.849	0.00052183	0.0005798	0.00016047	1378.8	6.2566e-06	6.2424e-06	1378.2	375.25	6.1915e-06	6.3425e-06	428.28	143.51	124.91	43.087	6.7175e-06	53.202	212.166	108.508	112.767	40.580	206.863	187.760	40.920	45.607	205.972	198.519	44.917	49.666	50.062	54.360	191.377	53.608	-8191	255	
735.210	1	1	0	0	0.26248	0.17111	0.42512	0.13412	0.13289	0.12569	0.23371	0.39742	0.22529	0.12261	0.3262	0.18493	0.21932	0.23249	0.17007	0.10224	-1.1521	-0.74583	-1.5417	-1.5458	-0.98333	-1.7792	-1.0646	-1.3625	-1.7458	-1.0375	-1.6812	-1.4625	-1.0208	-1.8396	-0.98958	-1.3604	116.534	273.503	321.757	351.193	349.739	230.813	354.089	355.937	253.693	84.650	59.812	366.038	335.034	315.870	373.953	330.274	0.00036434	0.00039846	0.00017216	1363.9	5.0448e-06	6.6481e-06	1364.8	368.4	3.3194e-06	4.9045e-06	420.76	139.59	122.03	41.885	6.1431e-06	52.198	0.00052437	0.00056967	0.00016106	1379.2	6.3998e-06	6.3467e-06	1377.6	374.8	6.0045e-06	6.2962e-06	428.34	143.51	125	43.013	6.2866e-06	53.323	213.196	101.456	108.694	40.745	181.207	191.811	41.038	45.686	201.171	198.727	45.065	49.849	50.236	54.406	203.898	53.478	-8191	255	
735.282	1	1	0	0	0.18165	0.10813	0.31596	0.11961	0.29279	0.19636	0.4932	0.34761	0.18019	0.11448	0.30529	0.11619	0.1316	0.19488	0.37827	0.062817	-1.5208	-0.78958	-1.7167	-1.4062	-1.0229	-1.7271	-1.3417	-1.4	-1.5458	-0.97708	-1.7229	-1.4917	-1.1083	-1.6479	-1.1313	-1.2521	374.165	31.941	221.962	28.667	287.316	112.689	306.752	306.997	110.177	187.674	318.388	377.431	334.802	281.034	122.146	326.008	0.00037522	0.00058495	0.00013276	1366.3	5.4886e-06	5.3673e-06	1362.1	367.61	4.2427e-06	4.9984e-06	421.96	140.13	122.12	41.773	4.6146e-06	51.72	0.00051185	0.00057611	0.0001609	1380.3	6.1403e-06	6.2339e-06	1378.4	374.43	6.1597e-06	6.4497e-06	428.36	143.49	124.76	42.992	6.4074e-06	53.2	215.031	108.773	120.034	41.022	194.522	187.619	41.161	45.658	218.018	184.469	45.067	49.985	50.400	54.580	187.701	53.611	-8191	255	
735.378	1	1	0	0	0.099756	0.24706	0.062059	0.56231	0.14545	0.13296	0.32288	0.11771	0.18509	0.093652	0.33726	0.10165	0.088792	0.38122	0.070509	0.29431	-1.2833	-0.76667	-1.3458	-1.6	-0.87083	-1.7687	-1.3042	-1.3813	-1.7667	-0.81042	-1.3188	-1.8521	-0.9875	-1.7875	-1.1812	-1.0958	325.020	207.191	148.369	357.207	350.906	298.106	316.805	327.746	170.649	232.676	330.084	87.562	268.864	304.273	266.553	278.251	0.0003522	0.00069589	0.00014604	1364.5	6.7095e-06	3.7953e-06	1360.3	368.13	4.6903e-06	4.7527e-06	421.16	140.02	122.2	42.016	4.5722e-06	51.928	0.00052527	0.00059184	0.00015859	1381.7	6.4926e-06	6.3401e-06	1376.2	374.33	6.401e-06	6.6449e-06	428.47	143.2	124.81	43.09	6.4136e-06	53.249	213.902	110.767	121.157	41.050	202.494	151.060	40.962	45.884	201.218	142.089	45.144	49.883	50.423	54.560	186.228	53.683	-8191	255	
735.499	1	1	0	0	0.1076	0.13683	0.18818	0.49439	0.18392	0.27441	0.22255	0.28268	0.087658	0.033875	0.25545	0.27759	0.21919	0.23706	0.18508	0.31239	-1.325	-1.1167	-1.3479	-1.6583	-0.93958	-1.5312	-1.4208	-1.0187	-1.8521	-0.975	-1.2917	-1.7833	-0.85625	-1.7542	-1.4333	-1.125	381.164	328.370	367.273	357.594	325.096	213.367	334.409	378.584	104.458	100.575	372.987	67.056	346.923	35.696	100.138	235.976	0.00036811	0.00040359	0.00012587	1362.9	4.6238e-06	6.7211e-06	1365.6	368.22	4.7302e-06	5.1698e-06	420.47	140.04	121.82	41.772	4.7812e-06	51.966	0.00052885	0.00057631	0.00015803	1379.8	6.4565e-06	6.2701e-06	1380.4	374.82	6.1342e-06	6.3811e-06	427.96	143.36	124.8	43.047	6.3197e-06	53.338	215.886	108.396	122.365	40.981	190.568	169.138	41.083	45.792	218.781	183.479	45.081	49.986	50.393	54.366	204.585	54.131	-8191	255	
735.595	1	1	0	0	0.1833	0.38798	0.21628	0.56439	0.29271	0.22603	0.27897	0.17728	0.17135	0.16507	0.15651	0.21705	0.34358	0.24516	0.26611	0.58197	-1.4021	-0.825	-1.2146	-1.9375	-0.86667	-1.6625	-1.6688	-1.3208	-1.7729	-1.1562	-1.2771	-1.9771	-1.0292	-1.65	-1.425	-0.88125	385.789	298.812	99.670	309.622	262.497	269.247	378.377	74.218	30.200	321.143	231.639	352.694	330.344	316.431	150.128	335.150	0.0003901	0.00045917	0.00013682	1365.5	5.8874e-06	4.636e-06	1364.2	366.65	3.0633e-06	4.152e-06	420.99	140.56	121.56	42.035	5.0635e-06	51.816	0.00053248	0.00057694	0.00016518	1378.8	6.3487e-06	6.6289e-06	1379.2	373.82	6.1699e-06	6.4446e-06	428.31	143.72	124.58	43.053	6.1308e-06	53.206	213.030	100.216	97.923	41.023	202.197	197.434	41.199	45.721	229.828	172.435	45.078	50.009	50.406	54.369	206.615	53.756	-8191	255	
735.691	1	1	0	0	0.19308	0.20694	0.30214	0.38002	0.25925	0.36736	0.18644	0.1249	0.098045	0.28489	0.13045	0.086092	0.13056	0.1152	0.37764	0.065908	-1.3	-1.1771	-1.0312	-1.8042	-1.0521	-1.2625	-1.7458	-1.1958	-1.5604	-1.1667	-1.4229	-1.8708	-0.9625	-1.3521	-1.4167	-1.0792	97.364	336.946	356.937	82.737	193.842	195.884	101.819	227.969	322.629	184.352	358.648	255.155	365.238	150.776	240.384	313.657	0.00035813	0.00058392	0.00013311	1358.4	4.7803e-06	5.8872e-06	1365.2	367.14	4.4275e-06	5.6595e-06	420.8	140.2	121.94	41.768	4.5732e-06	51.816	0.00054168	0.00058091	0.00015932	1377.7	6.3941e-06	6.2911e-06	1378.7	374.36	6.3412e-06	6.2642e-06	428.5	143.62	124.66	42.965	6.2748e-06	53.255	211.650	111.680	140.586	40.994	211.423	186.810	40.954	45.807	190.632	194.007	45.292	50.131	50.342	54.846	201.641	53.749	-8191	255	
735.787	1	1	0	0	0.064981	0.33998	0.075038	0.24785	0.29938	0.14192	0.15229	0.31577	0.10781	0.08504	0.237	0.19641	0.28599	0.3425	0.13304	0.20563	-1.3271	-1.1479	-0.85208	-1.8479	-0.82708	-1.3	-1.7417	-0.925	-1.7167	-1.5063	-1.1083	-1.8604	-1.2125	-1.4188	-1.4646	-0.93958	160.517	154.385	373.442	329.058	206.890	328.395	70.858	319.025	289.801	283.705	298.128	318.501	47.778	264.439	67.240	29.441	0.00035021	0.00046987	0.00012823	1367	3.7598e-06	4.3718e-06	1354.8	368	4.2118e-06	3.0596e-06	420.38	140.77	121.65	41.973	6.0993e-06	51.84	0.00053281	0.00060117	0.00016381	1380.4	6.3273e-06	6.4604e-06	1377	374.43	6.4338e-06	6.1477e-06	427.45	143.77	124.55	43.066	6.277e-06	53.17	209.375	97.048	122.507	41.242	214.696	181.813	41.130	45.919	223.639	193.209	45.134	50.201	50.568	54.852	193.014	54.013	-8191	255	
735.881	1	1	0	0	0.39526	0.033784	0.1665	0.049109	0.083095	0.087102	0.10095	0.32492	0.14519	0.11051	0.21254	0.22066	0.27802	0.2488	0.22537	0.18696	-0.95208	-1.525	-0.78542	-1.8708	-1.1729	-1.1562	-1.8687	-1.0479	-1.5688	-1.6292	-1.1375	-1.6562	-1.3479	-1.2125	-1.6437	-1.0938	361.877	173.687	271.767	291.875	249.898	120.066	62.960	331.072	358.142	379.436	374.004	364.591	229.394	310.718	178.167	322.549	0.00034636	0.00046057	0.00012167	1365.5	6.2844e-06	4.9995e-06	1355.3	369.26	4.0645e-06	4.0027e-06	419.92	139.98	122.01	42.017	6.6425e-06	51.817	0.00055099	0.00058798	0.00016077	1379.9	6.569e-06	6.5982e-06	1376.9	374.54	6.2716e-06	6.2981e-06	427.69	143.58	124.72	42.959	6.5094e-06	53.213	217.299	106.097	119.240	41.288	208.989	177.321	41.332	46.134	207.553	171.414	45.497	50.288	50.771	54.721	217.716	53.786	-8191	255	
735.978	1	1	0	0	0.12965	0.15768	0.223	0.26137	0.11034	0.096915	0.20453	0.39875	0.19464	0.16229	0.32668	0.14127	0.095344	0.11988	0.18392	0.17863	-1.0979	-1.4021	-1.0646	-1.9937	-1.2396	-1.0125	-1.8979	-1.2083	-1.3188	-1.5021	-0.93542	-1.7854	-1.4292	-1.0479	-1.7771	-1.0458	210.603	254.386	117.572	322.093	350.251	57.492	377.509	83.084	325.922	135.587	366.697	227.326	40.982	47.113	99.029	247.481	0.00035633	0.00063617	0.00016072	1364	5.5237e-06	5.7472e-06	1361.1	367.28	4.2056e-06	3.1762e-06	421.45	140.46	121.57	41.819	6.1963e-06	52.161	0.00053717	0.00059852	0.00017037	1379.5	6.5386e-06	6.6982e-06	1377.9	373.85	6.5051e-06	6.424e-06	428.33	143.73	124.72	43.01	6.6144e-06	53.293	216.243	101.772	122.196	41.143	219.962	174.722	41.193	45.921	212.417	198.027	45.287	50.082	50.582	54.585	192.580	54.173	-8191	255	
736.075	1	1	0	0	0.1273	0.23539	0.19923	0.2679	0.18027	0.039216	0.187	0.30951	0.19827	0.28875	0.22696	0.059002	0.20652	0.30802	0.29466	0.11064	-0.81042	-1.7104	-1.0708	-1.725	-1.6292	-0.85625	-2.1125	-1.3229	-1.0208	-1.7333	-0.92083	-1.4958	-1.6583	-1.0083	-1.5875	-1.1812	280.846	191.374	65.836	330.293	57.769	289.165	298.427	351.057	211.843	40.336	377.932	157.466	378.356	150.187	57.612	203.926	0.00036795	0.00043589	0.00014057	1369.5	4.9042e-06	2.8244e-06	1363.4	366.45	4.0516e-06	3.265e-06	422.1	140.08	121.63	41.791	5.8662e-06	51.895	0.00053552	0.00061109	0.00017609	1381.4	6.6015e-06	6.8819e-06	1379.5	373.87	6.7415e-06	6.7575e-06	428.11	143.56	124.48	42.97	6.6799e-06	53.164	213.094	117.615	127.351	41.363	193.281	191.098	41.491	45.889	228.247	201.809	45.001	50.309	50.486	54.554	210.876	54.174	-8191	255	
736.194	1	1	0	0	0.14474	0.1458	0.37833	0.37992	0.21281	0.30905	0.32708	0.2973	0.11462	0.146	0.16157	0.1246	0.39031	0.084738	0.18566	0.13944	-0.60625	-1.6042	-0.89583	-1.6542	-1.5896	-0.96458	-1.8646	-1.2604	-1.0854	-1.8062	-1.2167	-1.4792	-1.6021	-0.90417	-1.6604	-1.3125	179.196	165.832	237.215	354.000	290.834	277.033	353.628	357.189	242.535	182.682	31.995	268.947	365.889	276.693	156.360	342.242	0.00037065	0.00040854	0.00012822	1365.5	6.0541e-06	3.5282e-06	1364	368.42	3.1087e-06	4.4849e-06	421.07	140.61	121.88	41.827	5.6476e-06	51.968	0.0005591	0.00062885	0.00017458	1381.8	6.7828e-06	6.8597e-06	1378.6	374.92	6.7841e-06	6.7996e-06	427.87	143.72	124.62	42.964	6.7959e-06	53.297	212.896	94.075	124.709	41.478	189.309	200.090	41.421	46.182	212.447	178.925	45.129	50.390	50.512	54.926	217.163	53.940	-8191	255	
736.291	1	1	0	0	0.18073	0.20827	0.20829	0.21818	0.3253	0.23755	0.27121	0.32113	0.18765	0.11468	0.15855	0.35269	0.36802	0.18707	0.22163	0.27532	-0.63542	-1.7021	-1.0917	-1.5271	-1.5312	-0.875	-1.8042	-1.5917	-0.84375	-1.8229	-1.1896	-1.3458	-1.9021	-0.95	-1.5042	-1.5708	357.396	317.448	250.343	265.384	237.586	293.482	302.868	314.133	173.345	112.331	342.195	380.899	275.748	341.296	266.755	379.478	0.00036324	0.00037458	8.6524e-05	1360.4	4.1302e-06	4.2945e-06	1363.3	367.61	3.1983e-06	5.5206e-06	420.46	140.38	121.96	41.838	5.4247e-06	51.987	0.00055413	0.00059181	0.00017405	1378.2	6.7757e-06	6.8173e-06	1376.8	374.43	6.682e-06	6.8304e-06	427.62	143.66	124.8	42.954	6.8309e-06	53.155	216.449	130.965	101.602	41.426	226.055	188.718	41.262	45.945	231.027	172.708	45.443	50.154	50.404	54.442	192.983	53.801	-8191	255	
736.387	1	1	0	0	0.086532	0.15541	0.066518	0.33369	0.25679	0.17306	0.12937	0.1106	0.23657	0.20425	0.29491	0.28918	0.089721	0.17471	0.19123	0.12835	-0.5375	-1.5979	-0.98958	-1.4667	-1.7417	-0.74375	-1.7604	-1.7146	-1.0792	-1.6917	-1.3542	-1.2396	-1.8	-1.1521	-1.2917	-1.7229	274.760	127.303	376.248	347.524	309.923	279.601	368.543	335.892	347.867	109.244	303.970	300.373	356.266	78.868	287.211	137.688	0.00037777	0.00053817	0.00012481	1360	5.9881e-06	4.2055e-06	1360	368.48	5.0298e-06	4.0254e-06	420.98	140.21	122.18	41.888	3.8135e-06	51.963	0.00056003	0.0006034	0.00017337	1377.5	6.6157e-06	6.9376e-06	1378.1	374.48	6.7838e-06	6.922e-06	427.51	143.64	124.5	43.001	6.8519e-06	53.172	213.992	119.809	138.279	41.063	200.967	204.412	41.211	45.853	214.497	186.387	45.113	50.299	50.402	54.523	190.006	53.871	-8191	255	
736.483	1	1	0	0	0.15911	0.0098882	0.14938	0.18753	0.13052	0.31306	0.10681	0.093511	0.21761	0.22164	0.051687	0.10061	0.31691	0.27761	0.13076	0.025863	-0.45208	-1.6708	-1.2979	-1.3563	-1.9042	-1.225	-1.5396	-1.7729	-0.7875	-1.6604	-1.2875	-1.3292	-1.8458	-1.1437	-1.1708	-1.6396	111.253	177.058	365.965	310.035	307.630	188.965	282.316	363.428	55.741	177.099	149.214	53.383	372.386	355.628	50.161	295.268	0.00033745	0.00050598	0.00014076	1360.1	4.1489e-06	6.194e-06	1361.5	368.45	3.8305e-06	3.4352e-06	421.19	140.28	121.4	41.803	3.8702e-06	51.831	0.0005491	0.00060845	0.00017569	1379.3	6.8842e-06	7.0878e-06	1376.8	374.8	6.7387e-06	7.1078e-06	428.21	143.64	124.41	42.949	6.8497e-06	53.205	215.916	114.311	123.909	41.068	184.629	196.755	41.206	46.064	204.890	206.907	45.025	50.143	50.334	54.421	212.374	53.773	-8191	255	
736.579	1	1	0	0	0.081704	0.070848	0.17867	0.16173	0.20655	0.14015	0.43309	0.41958	0.15698	0.44324	0.19789	0.26423	0.48259	0.080787	0.25808	0.24487	-0.6	-1.6313	-1.3104	-1.1542	-1.5771	-1.1458	-1.3521	-1.9833	-0.93333	-1.6042	-1.5625	-1.0208	-1.7396	-1.175	-1.2042	-1.9208	343.018	114.548	165.461	218.049	69.476	256.132	292.151	330.484	96.634	57.606	360.154	330.622	363.382	111.742	181.996	322.498	0.00039629	0.00042057	0.00014048	1364.6	4.3161e-06	5.1984e-06	1365.7	369.12	3.869e-06	4.1535e-06	419.42	140.47	122.24	41.911	5.2452e-06	52.198	0.00057501	0.0006167	0.00017112	1380.1	6.6307e-06	6.9095e-06	1378	374.68	6.7876e-06	6.8012e-06	427.38	143.6	124.87	42.979	6.7149e-06	53.365	216.416	103.238	120.152	41.017	209.614	177.430	41.078	45.719	211.079	181.356	45.015	50.233	50.636	54.428	216.801	53.626	-8191	255	
736.675	1	1	0	0	0.27599	0.1322	0.1418	0.1616	0.086802	0.23411	0.12032	0.3925	0.10709	0.23766	0.095924	0.14629	0.17458	0.5035	0.090284	0.26529	-0.67083	-1.4937	-1.4312	-1.0333	-1.5812	-1.1812	-1.5	-1.825	-1.0812	-1.5833	-1.5875	-0.96042	-1.7521	-1.3229	-0.87917	-1.8979	310.083	205.258	319.418	381.817	262.497	153.085	206.658	341.512	192.407	238.422	165.925	52.113	289.671	321.861	337.371	49.481	0.00035893	0.00057767	0.00011977	1361.5	7.1474e-06	5.5749e-06	1366.2	368.01	4.6688e-06	3.9045e-06	421.72	140.39	122.39	41.836	5.8405e-06	52.113	0.00055921	0.00060608	0.0001731	1379.7	6.8356e-06	6.9095e-06	1379.9	374.07	6.7247e-06	7.0225e-06	428.19	143.76	124.81	42.927	7.0313e-06	53.33	215.205	109.460	103.217	41.185	177.556	190.503	41.263	45.930	222.860	200.175	45.369	50.086	50.840	54.697	214.049	54.085	-8191	255	
736.796	1	1	0	0	0.13265	0.14205	0.13682	0.3013	0.1537	0.29487	0.31009	0.32198	0.16014	0.088306	0.14902	0.34638	0.079218	0.22236	0.37551	0.1662	-0.61667	-1.2229	-1.6417	-1.1437	-1.7	-1.3042	-0.9875	-1.8188	-0.80833	-1.0979	-1.7917	-0.80208	-1.7021	-1.3958	-1.0667	-2.0229	125.655	291.120	79.904	372.273	216.793	184.307	366.125	279.991	81.471	94.754	350.198	378.410	247.768	348.916	298.748	300.996	0.00035131	0.00062435	0.00018373	1364.2	5.3048e-06	4.3184e-06	1363	367.93	5.118e-06	6.4158e-06	421.74	140.68	121.64	41.903	6.1727e-06	51.981	0.00056294	0.00063758	0.00018041	1379.3	6.7146e-06	6.6375e-06	1379.1	374.76	6.6464e-06	6.9204e-06	428.05	143.6	124.74	42.993	6.951e-06	53.282	214.784	103.344	134.794	41.055	198.150	187.256	41.400	46.000	207.190	192.337	45.340	50.352	50.619	54.436	203.455	53.736	-8191	255	
736.892	1	1	0	0	0.17874	0.14552	0.020134	0.17691	0.21484	0.11425	0.017388	0.40481	0.023453	0.21984	0.20956	0.14398	0.10712	0.099822	0.26743	0.22049	-0.52917	-1.4125	-1.6208	-1.0792	-1.7521	-1.5708	-1.1167	-1.7792	-1.2542	-1.225	-1.7583	-1.1	-1.5	-1.5042	-0.83542	-1.7104	178.574	88.891	289.419	339.854	101.529	257.247	339.272	358.287	219.476	289.516	333.464	102.510	337.258	33.466	154.754	320.542	0.0003542	0.00047257	0.0001611	1367.1	4.4666e-06	4.9701e-06	1363.8	368.21	2.5902e-06	6.1509e-06	421.5	140.39	122.21	41.803	4.2555e-06	51.938	0.00056185	0.00059508	0.00017104	1381	6.7539e-06	6.6593e-06	1378.6	374.71	6.6467e-06	6.7712e-06	428.65	143.75	124.96	43.024	6.5952e-06	53.262	211.644	112.442	133.341	41.309	183.449	181.399	41.450	45.854	215.976	186.759	45.071	49.939	50.571	54.390	183.689	53.856	-8191	255	
736.986	1	1	0	0	0.14735	0.13978	0.28551	0.24819	0.048732	0.095212	0.30487	0.13181	0.034437	0.34447	0.25851	0.42169	0.06871	0.034907	0.20835	0.11197	-0.79583	-1.0958	-1.8083	-1.0875	-1.5167	-1.5312	-0.96458	-1.925	-1.2042	-0.95833	-1.9146	-0.94375	-1.6688	-1.7437	-0.85208	-1.7437	37.110	222.226	288.478	360.332	378.961	33.044	337.107	272.388	362.209	135.633	333.447	32.714	34.546	97.484	53.075	66.797	0.00037689	0.00056262	0.00015981	1366	7.4423e-06	5.0922e-06	1357.6	367.04	4.4895e-06	4.1288e-06	421.3	140.06	122.3	41.808	6.4037e-06	51.915	0.00053929	0.00061349	0.00017201	1380.3	6.8713e-06	6.6663e-06	1379.5	374.67	6.5583e-06	6.6905e-06	427.96	143.32	124.64	42.964	6.8276e-06	53.227	215.610	129.996	121.769	41.215	221.165	188.132	41.396	46.171	216.033	167.922	45.109	50.005	50.329	54.149	206.548	53.598	-8191	255	
737.082	1	1	0	0	0.20004	0.23209	0.15957	0.3447	0.087132	0.10209	0.2059	0.25042	0.11093	0.28033	0.084577	0.42852	0.21359	0.20607	0.15848	0.21968	-0.90417	-0.77708	-1.8771	-1.2208	-1.4937	-1.7667	-1.1917	-1.8896	-1.2458	-1.2812	-1.9583	-1.1229	-1.5438	-1.7229	-0.85208	-1.8167	229.622	99.403	362.994	354.015	369.180	58.165	342.463	326.464	63.408	103.058	123.309	376.014	358.898	330.460	58.778	254.747	0.00033861	0.00047742	0.00015086	1361.2	5.8207e-06	3.7616e-06	1363.7	368.14	3.9791e-06	3.3519e-06	421.75	139.78	121.55	42.062	5.1808e-06	52.13	0.00054908	0.00060375	0.00017195	1378.4	6.615e-06	6.3117e-06	1379.9	374.64	6.3943e-06	6.5463e-06	427.98	143.46	124.82	43.067	6.6169e-06	53.376	215.156	103.266	130.936	41.229	207.834	196.110	41.118	45.882	208.997	169.429	45.312	50.069	50.554	54.706	209.344	53.930	-8191	255	
737.179	1	1	0	0	0.38074	0.18307	0.24515	0.2175	0.20026	0.12669	0.3273	0.30684	0.17028	0.3211	0.21782	0.33915	0.071227	0.15905	0.12106	0.088786	-0.83958	-0.88333	-1.8271	-1.3042	-1.3479	-1.6958	-1.1313	-1.75	-1.3813	-0.77292	-1.9	-1.3771	-1.4042	-1.8396	-1.2021	-1.7	102.313	204.985	238.470	280.664	318.093	328.107	314.257	382.671	234.370	212.744	53.721	36.123	59.350	222.648	306.902	334.930	0.00040079	0.00042858	0.00015785	1364.1	5.3317e-06	5.3212e-06	1360.9	368.57	4.8878e-06	4.7419e-06	422.23	139.98	121.46	41.885	4.1879e-06	52.406	0.00054328	0.00058989	0.00016382	1379.2	6.7742e-06	6.3732e-06	1378.1	374.68	6.3894e-06	6.7723e-06	429.12	143.37	124.68	43.02	6.7241e-06	53.366	215.029	97.010	128.100	41.126	204.872	183.521	41.210	46.026	198.797	184.582	45.318	50.330	50.572	54.743	226.422	53.887	-8191	255	
#DATA ENDS
