BOXY.EXE: ISS Imagent and Oximeter Data Acquisition Program Version 0.80
Ascii Record File

#ACQ INFORMATION
2  Detector Channels 
16  External MUX Channels 
1  Auxiliary Channels 
5000  Waveform (CCF) Frequency (Hz)
1  Waveforms Skipped 
30  Waveforms Averaged 
1  Cycles Averaged 
16  Acquisitions per Waveform 
10.0806  Updata Rate (Hz) 

#FILE INFORMATION
TRUE -- External MUX Channel results are PARSED.
FALSE -- AC DC and Phase are NOT grouped.
TRUE -- Companion Program Settings File CREATED.
FALSE -- AC data not excluded
FALSE -- DC data not excluded
FALSE -- Phase data not excluded
FALSE -- Auxillary Chn. data not excluded
Tab delimiters

#CALIBRATION STATE
TRUE -- Waveform Calibration Values APPLIED.


#AUX CALIBRATION VALUES
Val Type	aux-1	

Term	1.0000e+00	
Factor	0.0000e+00	


#WF CALIBRATION VALUES
A = Detector Channel
Val Type	A-AC1	A-AC2	A-AC3	A-AC4	A-AC5	A-AC6	A-AC7	A-AC8	A-AC9	A-AC10	A-AC11	A-AC12	A-AC13	A-AC14	A-AC15	A-AC16	A-DC1	A-DC2	A-DC3	A-DC4	A-DC5	A-DC6	A-DC7	A-DC8	A-DC9	A-DC10	A-DC11	A-DC12	A-DC13	A-DC14	A-DC15	A-DC16	A-Ph1	A-Ph2	A-Ph3	A-Ph4	A-Ph5	A-Ph6	A-Ph7	A-Ph8	A-Ph9	A-Ph10	A-Ph11	A-Ph12	A-Ph13	A-Ph14	A-Ph15	A-Ph16	

Term	0.00000e+00	0.00000e+00	0.00000e+00	0.00000e+00	0.00000e+00	0.00000e+00	0.00000e+00	0.00000e+00	0.00000e+00	0.00000e+00	0.00000e+00	0.00000e+00	0.00000e+00	0.00000e+00	0.00000e+00	0.00000e+00	0.00000e+00	0.00000e+00	0.00000e+00	0.00000e+00	0.00000e+00	0.00000e+00	0.00000e+00	0.00000e+00	0.00000e+00	0.00000e+00	0.00000e+00	0.00000e+00	0.00000e+00	0.00000e+00	0.00000e+00	0.00000e+00	0.00000e+00	0.00000e+00	0.00000e+00	0.00000e+00	0.00000e+00	0.00000e+00	0.00000e+00	0.00000e+00	0.00000e+00	0.00000e+00	0.00000e+00	0.00000e+00	0.00000e+00	0.00000e+00	0.00000e+00	0.00000e+00	
Factor	1.00000e+00	1.00000e+00	1.00000e+00	1.00000e+00	1.00000e+00	1.00000e+00	1.00000e+00	1.00000e+00	1.00000e+00	1.00000e+00	1.00000e+00	1.00000e+00	1.00000e+00	1.00000e+00	1.00000e+00	1.00000e+00	1.00000e+00	1.00000e+00	1.00000e+00	1.00000e+00	1.00000e+00	1.00000e+00	1.00000e+00	1.00000e+00	1.00000e+00	1.00000e+00	1.00000e+00	1.00000e+00	1.00000e+00	1.00000e+00	1.00000e+00	1.00000e+00	X	X	X	X	X	X	X	X	X	X	X	X	X	X	X	X	

B = Detector Channel
Val Type	B-AC1	B-AC2	B-AC3	B-AC4	B-AC5	B-AC6	B-AC7	B-AC8	B-AC9	B-AC10	B-AC11	B-AC12	B-AC13	B-AC14	B-AC15	B-AC16	B-DC1	B-DC2	B-DC3	B-DC4	B-DC5	B-DC6	B-DC7	B-DC8	B-DC9	B-DC10	B-DC11	B-DC12	B-DC13	B-DC14	B-DC15	B-DC16	B-Ph1	B-Ph2	B-Ph3	B-Ph4	B-Ph5	B-Ph6	B-Ph7	B-Ph8	B-Ph9	B-Ph10	B-Ph11	B-Ph12	B-Ph13	B-Ph14	B-Ph15	B-Ph16	

Term	0.00000e+00	0.00000e+00	0.00000e+00	0.00000e+00	0.00000e+00	0.00000e+00	0.00000e+00	0.00000e+00	0.00000e+00	0.00000e+00	0.00000e+00	0.00000e+00	0.00000e+00	0.00000e+00	0.00000e+00	0.00000e+00	0.00000e+00	0.00000e+00	0.00000e+00	0.00000e+00	0.00000e+00	0.00000e+00	0.00000e+00	0.00000e+00	0.00000e+00	0.00000e+00	0.00000e+00	0.00000e+00	0.00000e+00	0.00000e+00	0.00000e+00	0.00000e+00	-6.18844e+01	-1.31176e+02	-1.30945e+02	-1.82064e+02	-5.12520e+01	-6.31214e+01	-1.57560e+02	-1.62015e+02	-4.68082e+01	-6.38604e+01	-1.72371e+02	-1.70432e+02	-1.78256e+02	-1.76759e+02	-5.34657e+01	-1.49349e+02	
Factor	1.65308e-05	1.37929e-04	3.69494e-05	1.57704e-01	1.33523e-06	1.42652e-06	1.70755e-01	4.46573e-02	1.03347e-06	1.38636e-06	7.56219e-02	2.61641e-02	2.21170e-02	8.12295e-03	1.35262e-06	1.13021e-02	1.00626e-05	1.67098e-05	4.71134e-06	8.54066e-02	1.71346e-07	1.86818e-07	8.69103e-02	2.43396e-02	1.67811e-07	1.87038e-07	3.98308e-02	1.38576e-02	1.22449e-02	4.47032e-03	1.76786e-07	6.00929e-03	X	X	X	X	X	X	X	X	X	X	X	X	X	X	X	X	



#DISTANCE SETTINGS
A = Detector Channel
A-1	A-2	A-3	A-4	A-5	A-6	A-7	A-8	A-9	A-10	A-11	A-12	A-13	A-14	A-15	A-16	

2.5000e+00	3.0000e+00	2.5000e+00	3.0000e+00	2.0000e+00	3.0000e+00	1.5000e+00	3.0000e+00	3.0000e+00	3.0000e+00	3.0000e+00	3.0000e+00	3.0000e+00	3.0000e+00	1.5000e+00	3.0000e+00	

B = Detector Channel
B-1	B-2	B-3	B-4	B-5	B-6	B-7	B-8	B-9	B-10	B-11	B-12	B-13	B-14	B-15	B-16	

1.0000e+01	1.0000e+01	1.0000e+01	1.4400e+00	1.0000e+01	1.0000e+01	1.5100e+00	1.9400e+00	1.0000e+01	1.0000e+01	1.9900e+00	2.4900e+00	2.4100e+00	2.9000e+00	1.0000e+01	2.9800e+00	




#DATA BEGINS
time	group	step	mark	flag	A-AC1	A-AC2	A-AC3	A-AC4	A-AC5	A-AC6	A-AC7	A-AC8	A-AC9	A-AC10	A-AC11	A-AC12	A-AC13	A-AC14	A-AC15	A-AC16	A-DC1	A-DC2	A-DC3	A-DC4	A-DC5	A-DC6	A-DC7	A-DC8	A-DC9	A-DC10	A-DC11	A-DC12	A-DC13	A-DC14	A-DC15	A-DC16	A-Ph1	A-Ph2	A-Ph3	A-Ph4	A-Ph5	A-Ph6	A-Ph7	A-Ph8	A-Ph9	A-Ph10	A-Ph11	A-Ph12	A-Ph13	A-Ph14	A-Ph15	A-Ph16	B-AC1	B-AC2	B-AC3	B-AC4	B-AC5	B-AC6	B-AC7	B-AC8	B-AC9	B-AC10	B-AC11	B-AC12	B-AC13	B-AC14	B-AC15	B-AC16	B-DC1	B-DC2	B-DC3	B-DC4	B-DC5	B-DC6	B-DC7	B-DC8	B-DC9	B-DC10	B-DC11	B-DC12	B-DC13	B-DC14	B-DC15	B-DC16	B-Ph1	B-Ph2	B-Ph3	B-Ph4	B-Ph5	B-Ph6	B-Ph7	B-Ph8	B-Ph9	B-Ph10	B-Ph11	B-Ph12	B-Ph13	B-Ph14	B-Ph15	B-Ph16	aux-1	digaux	

1129.631	1	1	0	256	0.030564	0.041686	0.11501	0.3292	0.12508	0.33486	0.35018	0.22516	0.14858	0.11956	0.17371	0.19128	0.1744	0.19921	0.1566	0.23464	-0.27708	-1.2208	-1.45	-0.96875	-1.5271	-1.1021	-1.1229	-1.7646	-0.55208	-1.4854	-1.5375	-0.94375	-1.75	-1.0562	-1.0875	-1.525	167.103	238.156	319.405	410.639	210.236	266.375	382.608	412.279	306.485	305.200	442.440	468.463	348.389	484.359	200.762	449.304	0.00044644	0.00095631	7.6744e-05	1074.2	4.2502e-06	1.0726e-05	723.7	365.72	3.3881e-06	6.0989e-06	265.76	97.878	136.57	50.771	7.0716e-06	41.053	0.0014522	0.002085	0.0005886	1064.6	2.0952e-05	2.2998e-05	718.59	364.14	2.1047e-05	2.3107e-05	265.91	98.078	136.71	51.117	2.1574e-05	41.085	250.594	210.370	187.633	137.578	258.084	278.031	136.198	142.715	291.821	285.075	139.639	144.428	146.880	151.303	270.897	147.413	-8191	255	
1129.725	1	1	0	0	0.1378	0.19647	0.1386	0.20867	0.14878	0.2106	0.16035	0.13444	0.27447	0.14089	0.058285	0.20523	0.22582	0.12373	0.098151	0.019106	-0.3375	-1.2563	-1.4562	-0.88125	-1.5063	-1.1354	-1.1479	-1.7979	-0.6625	-1.2292	-1.4292	-0.7625	-1.6896	-1.2833	-0.9125	-1.7	177.447	169.363	480.619	134.040	286.613	416.144	333.952	430.001	172.347	413.869	153.859	455.888	444.707	167.494	416.194	177.385	0.00045063	0.00056163	0.00011461	1078.6	3.0491e-06	4.3413e-06	729.28	366.96	6.8055e-06	1.0334e-05	266.47	97.679	137	50.828	3.583e-06	40.985	0.0013905	0.002028	0.00057262	1069.3	2.1054e-05	2.2179e-05	720.77	364.7	2.068e-05	2.2148e-05	266.76	98.261	137.01	51.22	2.1024e-05	41.344	257.829	234.257	230.816	137.715	287.858	270.585	136.070	142.524	293.706	288.133	140.031	144.762	147.015	151.128	299.080	147.428	-8191	255	
1129.846	1	1	0	0	0.10637	0.24352	0.046419	0.3615	0.39252	0.1854	0.30688	0.37632	0.10801	0.16843	0.091069	0.077761	0.066708	0.26651	0.089496	0.079902	-0.47917	-1.1187	-1.5	-0.94375	-1.4896	-1.1708	-1.025	-1.7812	-1.0562	-1.0354	-1.6854	-0.75208	-1.4604	-1.3625	-0.54167	-1.7042	276.176	206.905	350.319	435.126	293.813	334.009	433.021	431.001	295.916	380.042	448.809	174.753	254.054	474.431	461.862	194.026	0.00045536	0.00061922	8.6777e-05	1089.6	6.6442e-06	6.8471e-06	740.54	369.31	6.2322e-06	5.3439e-06	273.74	100.9	139.39	52	6.9137e-06	42.289	0.0013652	0.0019623	0.00054563	1078.2	2.0579e-05	2.2303e-05	733.56	368.49	2.0537e-05	2.2237e-05	273.32	100.98	139.56	52.455	2.0729e-05	42.725	244.027	190.312	201.034	137.605	315.340	279.706	136.270	142.602	307.169	270.705	140.171	144.466	147.071	151.173	311.097	148.107	-8191	255	
1129.942	1	1	0	0	0.048021	0.15583	0.079663	0.38231	0.21968	0.070724	0.13144	0.38803	0.068776	0.23372	0.15238	0.13247	0.026504	0.27424	0.1536	0.22758	-0.6375	-0.94375	-1.5833	-0.78542	-1.1562	-1.3188	-0.94583	-1.6	-1.0458	-0.925	-1.6417	-0.94167	-1.4021	-1.4708	-0.81875	-1.6875	381.412	310.606	196.238	137.223	202.440	202.639	465.492	408.641	455.525	293.725	467.560	385.597	421.904	418.136	373.010	190.491	0.00053093	0.00041813	2.197e-05	1100.6	4.8045e-06	7.9519e-06	758.59	375.03	4.1678e-06	4.4447e-06	277.48	102.21	140.95	52.545	3.1822e-06	42.834	0.0013761	0.0019652	0.00054591	1091	2.0562e-05	2.2025e-05	747.34	373.95	2.0642e-05	2.239e-05	278.1	102.89	141.35	53.05	2.1824e-05	43.251	253.147	170.412	430.698	137.443	334.508	310.667	136.039	142.716	281.305	293.012	140.135	144.759	147.232	151.358	269.274	147.514	-8191	255	
1130.013	1	1	0	0	0.30236	0.16191	0.046355	0.22572	0.15008	0.20529	0.12063	0.3081	0.094302	0.40399	0.13102	0.055975	0.19659	0.11599	0.10379	0.30496	-0.81042	-0.88333	-1.5625	-1.0729	-1.2083	-1.4667	-0.775	-1.725	-1.1437	-0.83125	-1.7458	-1.0167	-1.2542	-1.5917	-0.85417	-1.6292	190.203	167.740	250.348	422.425	402.421	353.452	278.522	410.666	424.017	213.813	412.209	430.877	271.253	374.353	147.876	455.811	0.00049723	0.00027884	7.8054e-05	1100.8	5.5446e-06	4.3355e-06	752.79	375.12	2.7355e-06	6.8146e-06	274.65	101.01	140.35	52.018	5.1032e-06	42.011	0.0014426	0.002068	0.00058424	1094.6	2.1837e-05	2.2817e-05	747.67	373.36	2.143e-05	2.3115e-05	275.45	101.22	140.16	52.193	2.1875e-05	42.236	248.838	215.047	217.562	137.502	259.105	330.872	135.967	142.323	262.306	302.884	139.991	144.734	146.618	150.834	292.120	147.483	-8191	255	
1130.110	1	1	0	0	0.30284	0.13537	0.16104	0.13054	0.15042	0.098164	0.11355	0.38581	0.24065	0.25852	0.2234	0.28117	0.27038	0.22992	0.31376	0.30733	-0.86667	-0.625	-1.6354	-1.0604	-1.1187	-1.45	-0.87917	-1.4229	-1.3583	-0.80208	-1.5562	-0.92292	-1.1021	-1.6	-0.74167	-1.3167	136.293	463.150	141.265	385.936	331.149	378.215	348.907	455.812	389.770	234.409	459.736	125.041	424.164	471.330	471.398	380.532	0.00042014	0.00044318	0.00012895	1102.2	6.989e-06	4.873e-06	740.89	372.98	5.5539e-06	5.4019e-06	275.02	101.04	139.88	51.959	7.4655e-06	42.011	0.0014643	0.0021264	0.00059774	1091.5	2.184e-05	2.3674e-05	739.76	371.19	2.202e-05	2.3412e-05	274.97	101.35	140.33	52.356	2.2482e-05	42.321	257.161	234.131	205.828	137.050	309.736	261.181	136.100	142.205	279.349	266.817	139.850	143.981	146.384	150.766	307.455	147.187	-8191	255	
1130.230	1	1	0	0	0.20513	0.11801	0.056959	0.28094	0.18353	0.2767	0.3281	0.14381	0.19998	0.25475	0.061105	0.21193	0.074997	0.26911	0.41404	0.24188	-0.71667	-0.64167	-1.55	-1.1313	-0.91875	-1.5521	-1.0708	-1.5187	-1.4146	-0.65625	-1.6437	-0.87917	-0.93125	-1.7583	-0.81875	-1.1896	179.396	299.528	330.904	411.007	461.450	158.696	452.120	342.343	198.786	343.588	272.397	405.585	313.127	451.009	142.096	153.607	0.00045894	0.00043959	0.00011809	1095.9	6.3543e-06	2.4177e-06	743.2	372.1	3.4859e-06	1.0321e-05	275.1	101.61	140.54	52.104	7.0345e-06	42.154	0.0014424	0.0020994	0.00059048	1088	2.2297e-05	2.3399e-05	739.53	371	2.1259e-05	2.3555e-05	275.14	101.64	140.65	52.601	2.2806e-05	42.735	251.782	261.966	210.934	137.351	292.203	137.816	135.671	142.331	281.040	288.633	139.489	144.087	146.274	151.015	303.877	147.724	-8191	255	
1130.326	1	1	0	0	0.26054	0.19719	0.14099	0.068481	0.0327	0.3233	0.2243	0.17207	0.014983	0.31689	0.15573	0.2151	0.21294	0.21748	0.064932	0.12128	-1.0917	-0.8125	-1.5208	-1.3208	-0.98542	-1.7146	-0.78333	-1.3667	-1.6896	-0.57083	-1.5688	-1.2125	-1.0625	-1.6458	-0.91042	-1.2333	381.195	447.901	312.795	432.012	286.454	443.697	430.259	443.491	316.196	470.527	203.453	184.733	152.941	459.005	177.624	419.041	0.00042989	0.00068915	0.00011997	1092	5.2107e-06	4.401e-06	742.56	372.1	4.7772e-06	6.1795e-06	275.28	101.95	140.21	52.246	7.0807e-06	42.751	0.0014352	0.0021282	0.00060097	1083.7	2.1594e-05	2.3147e-05	740.37	371.2	2.1302e-05	2.3497e-05	276.14	102.32	140.74	52.761	2.2809e-05	42.867	252.265	231.839	235.163	137.080	297.091	292.796	135.972	142.529	261.156	293.479	139.500	144.099	146.490	150.997	291.240	147.360	-8191	255	
1130.423	1	1	0	0	0.05626	0.075767	0.27114	0.15842	0.15394	0.26157	0.2763	0.031779	0.21586	0.25423	0.13202	0.20281	0.17824	0.15965	0.24615	0.15917	-1.0562	-0.65417	-1.2958	-1.3083	-0.675	-1.5021	-1.2812	-1.2208	-1.5812	-0.91042	-1.5187	-1.4729	-0.76667	-1.7583	-0.94583	-0.9875	434.624	265.710	338.531	463.334	176.916	349.732	363.254	394.246	422.738	150.101	426.744	460.912	443.752	206.202	443.614	425.953	0.00049589	0.00048964	0.00014105	1088	5.437e-06	7.5272e-06	744.6	371.83	4.8364e-06	1.3304e-06	274.97	101.44	139.48	51.887	9.2829e-06	42.131	0.0014182	0.0021061	0.00059276	1083.2	2.2036e-05	2.3857e-05	739.75	370.32	2.1538e-05	2.3463e-05	274.8	101.6	139.95	52.266	2.2534e-05	42.448	244.792	184.366	188.843	137.117	324.671	298.183	135.771	142.340	295.293	170.504	139.437	144.063	146.318	150.893	278.778	147.189	-8191	255	
1130.543	1	1	0	0	0.050841	0.1049	0.1559	0.18706	0.11783	0.37413	0.26627	0.19231	0.32109	0.17628	0.21362	0.13743	0.096854	0.21076	0.31813	0.18272	-1.3167	-0.89583	-1.4125	-1.5896	-0.74167	-1.7458	-1.3062	-1.1167	-1.3479	-0.9125	-1.4083	-1.6667	-0.9875	-1.9062	-1.3667	-0.96875	151.600	346.193	446.910	126.723	128.746	203.418	360.187	415.362	136.932	293.290	414.250	431.963	351.412	472.080	286.555	424.114	0.00045362	0.00040329	0.00015758	1084.4	3.4875e-06	9.9712e-06	737.92	369.25	6.1547e-06	6.0911e-06	271.63	99.491	137.51	51.314	4.7874e-06	41.484	0.0014681	0.0021055	0.0005966	1080.2	2.186e-05	2.2809e-05	733.29	368.57	2.11e-05	2.3409e-05	272.67	99.93	138.48	51.761	2.2188e-05	41.804	249.985	226.372	176.364	137.206	285.133	263.546	135.844	142.161	246.451	257.509	139.651	144.096	146.507	151.058	273.503	147.508	-8191	255	
1130.638	1	1	0	0	0.048047	0.13748	0.16692	0.3628	0.13744	0.11289	0.17808	0.39568	0.20996	0.30097	0.30462	0.0090417	0.1685	0.32214	0.1979	0.16435	-1.2313	-0.825	-1.025	-1.575	-0.86458	-1.4688	-1.2938	-0.81667	-1.4688	-0.89375	-1.0833	-1.5833	-0.82708	-1.6313	-1.2979	-0.80208	475.957	468.560	389.299	417.283	172.313	424.721	125.686	458.927	469.331	370.386	409.491	271.580	426.668	449.325	267.214	426.661	0.00040181	0.00025069	0.00015561	1090.1	3.3076e-06	6.1961e-06	739.1	370.91	7.2731e-06	2.6687e-06	271.97	99.163	137.99	50.928	4.7475e-06	41.197	0.0014325	0.0020662	0.00057765	1082	2.0841e-05	2.214e-05	732.85	369.3	2.0783e-05	2.2881e-05	271.6	99.512	138.27	51.362	2.1577e-05	41.492	253.796	202.311	227.023	137.292	279.653	235.166	135.877	142.345	291.902	235.067	139.491	144.243	146.541	151.022	256.941	147.315	-8191	255	
1130.711	1	1	0	0	0.14485	0.16888	0.11702	0.29306	0.22386	0.25189	0.20124	0.18751	0.20469	0.35665	0.16951	0.28103	0.15423	0.24276	0.2358	0.36615	-1.1417	-0.78125	-1.1521	-1.6812	-0.86458	-1.3271	-1.6833	-0.89792	-1.725	-1.0063	-1.0583	-1.5958	-0.96042	-1.3333	-1.4146	-0.86458	354.108	423.945	418.018	372.315	192.400	226.242	394.999	412.016	273.638	142.327	454.405	338.774	420.913	432.241	298.223	447.371	0.00040458	0.00078826	0.0001546	1097.2	4.9376e-06	4.5941e-06	738.29	369.75	6.4272e-06	4.9432e-06	272.62	100.52	138.15	51.097	7.2292e-06	41.638	0.0013844	0.0019864	0.00055958	1085.6	2.0534e-05	2.2211e-05	734.98	369.19	2.0159e-05	2.2054e-05	272.66	100.1	138.83	51.699	2.0626e-05	41.973	248.458	243.925	210.362	137.630	323.658	299.454	136.051	142.421	280.616	266.256	139.962	144.282	146.860	151.398	276.506	147.683	-8191	255	
1130.830	1	1	0	0	0.16791	0.29265	0.1524	0.048896	0.21516	0.16084	0.21204	0.30678	0.13275	0.15723	0.21599	0.20146	0.17784	0.10827	0.17835	0.15602	-0.93542	-1.0042	-0.80833	-1.4479	-0.85208	-1.0854	-1.4229	-0.8625	-1.5729	-1.2271	-0.86667	-1.8208	-1.0729	-1.1917	-1.4458	-0.66875	355.872	324.876	375.079	168.657	483.745	334.018	419.352	402.536	276.405	402.506	429.152	442.436	136.476	190.785	280.531	478.450	0.00044938	0.00023715	0.00011877	1107.9	7.8852e-06	1.0214e-05	757.89	375.45	4.0585e-06	3.3219e-06	276.23	100.62	139.68	51.393	1.8542e-06	41.572	0.0013763	0.0019275	0.00054465	1097.1	2.0003e-05	2.0811e-05	747.93	374.08	1.9255e-05	2.0766e-05	276.76	101.06	140.08	51.699	1.966e-05	41.796	252.837	267.687	170.329	137.708	266.056	262.456	135.845	142.741	257.643	279.129	140.195	144.537	146.694	151.369	241.151	147.975	-8191	255	
1130.926	1	1	0	0	0.12869	0.14327	0.099343	0.37587	0.16792	0.30092	0.069087	0.33956	0.19085	0.22788	0.093907	0.1245	0.31936	0.37596	0.057912	0.23638	-1.0021	-1.2604	-0.73125	-1.6708	-1.0646	-0.97292	-1.5917	-0.95625	-1.5875	-1.325	-0.79792	-1.6458	-1.1187	-1.1208	-1.4979	-0.95833	439.593	151.857	477.780	481.330	360.867	380.040	377.190	404.412	457.581	423.623	374.356	398.829	124.730	426.218	191.839	463.478	0.0004681	0.0003259	0.00019627	1121.5	8.3522e-06	6.672e-06	760.36	377.86	3.8283e-06	7.3095e-06	277.64	100.05	139.28	50.435	3.112e-06	40.981	0.001316	0.0019003	0.00053905	1111.6	2.0004e-05	2.0915e-05	753.22	375.92	2.0141e-05	2.1212e-05	277.24	100.46	139.26	50.975	2.0593e-05	41.311	255.300	217.700	194.064	137.665	268.498	266.855	135.971	142.480	283.912	268.367	139.915	144.441	146.710	151.551	332.937	148.184	-8191	255	
1131.022	1	1	0	0	0.17181	0.23003	0.19007	0.10833	0.41726	0.1957	0.26459	0.062512	0.20019	0.11405	0.35101	0.23584	0.34634	0.13554	0.31281	0.32714	-0.84792	-1.1875	-0.83333	-1.7833	-1	-0.87708	-1.5208	-0.95833	-1.1354	-1.5396	-0.97083	-1.5688	-1.2521	-1.1437	-1.6958	-0.74792	331.334	193.471	213.553	438.598	200.110	468.018	409.216	174.509	232.108	434.169	425.173	187.420	438.602	413.895	230.404	349.330	0.00044359	0.00056032	8.1382e-05	1115.4	2.3053e-06	5.7915e-06	751.16	373.43	3.4052e-06	7.6964e-06	273.44	98.853	137.89	49.808	8.351e-06	39.959	0.0013775	0.0019362	0.000536	1106.7	2.0243e-05	2.111e-05	745.84	372.74	1.9673e-05	2.0925e-05	273.68	98.944	138	50.126	2.02e-05	40.368	253.732	179.185	180.798	137.522	307.361	236.069	136.036	142.483	201.274	261.409	139.808	144.861	146.731	151.261	282.077	147.610	-8191	255	
1131.143	1	1	0	0	0.083411	0.14285	0.26311	0.35907	0.098942	0.20272	0.30631	0.082726	0.19123	0.099008	0.34416	0.1952	0.36532	0.33991	0.14589	0.27796	-0.8	-1.5396	-0.91667	-1.6771	-1.1938	-0.80625	-1.55	-1.1792	-1.2125	-1.5562	-0.91458	-1.5438	-1.2583	-1.025	-1.7083	-1.0229	466.549	205.089	322.220	161.374	410.229	294.692	459.611	471.185	378.130	319.102	347.007	410.051	475.397	278.130	482.167	456.544	0.00048062	0.0003233	0.00011624	1112.3	6.5677e-06	5.5465e-06	750.42	373.52	5.6436e-06	2.5084e-06	271.41	98.931	137.89	49.724	2.5887e-06	39.937	0.0013306	0.0019264	0.000536	1101.5	1.9559e-05	2.1252e-05	740.57	371.82	1.984e-05	2.1375e-05	271.92	98.652	138.01	50.133	2.038e-05	40.285	253.282	245.336	218.314	137.724	247.445	289.905	136.149	142.445	312.282	262.540	140.009	144.445	146.910	151.238	230.898	147.761	-8191	255	
1131.239	1	1	0	0	0.1136	0.1943	0.19917	0.21007	0.041363	0.1018	0.51839	0.33518	0.19249	0.19197	0.16092	0.21632	0.16364	0.12596	0.19001	0.15473	-0.63333	-1.6375	-0.7375	-1.5438	-1.3458	-0.85	-1.7437	-1.0583	-0.96458	-1.5979	-0.83125	-1.3687	-1.425	-0.93333	-1.5312	-1.0417	306.723	203.291	453.483	426.873	224.378	478.186	448.949	479.683	139.581	134.721	330.997	391.488	178.311	477.854	480.949	378.490	0.00042861	0.00041749	0.00020049	1116.8	6.0722e-06	8.6467e-06	746.01	372.82	2.38e-06	4.6395e-06	271.04	98.703	138.28	50.033	1.574e-06	40.245	0.0013312	0.0018432	0.00055579	1101.8	1.9756e-05	2.1125e-05	739.86	371.44	1.999e-05	2.0855e-05	271.61	98.897	138.24	50.279	2.1042e-05	40.549	255.005	254.526	190.495	137.659	310.306	233.748	136.002	142.432	252.290	261.130	140.058	144.449	146.664	151.144	300.176	147.448	-8191	255	
1131.311	1	1	0	0	0.20734	0.22099	0.072654	0.15534	0.15326	0.047683	0.15484	0.40811	0.2187	0.15582	0.24697	0.087384	0.11651	0.19837	0.094384	0.34856	-0.54167	-1.6104	-0.99792	-1.5854	-1.4354	-0.85417	-1.7771	-1.2313	-0.71875	-1.6979	-1.0438	-1.5417	-1.5792	-0.72292	-1.475	-1.375	463.463	186.939	448.776	126.493	307.677	347.444	352.358	413.497	432.589	385.841	475.465	404.666	442.326	444.469	336.997	394.925	0.00046807	0.00068718	8.7104e-05	1108.1	4.9092e-06	7.2139e-06	748.83	371.98	5.952e-06	4.4475e-06	273.15	99.395	138.17	49.723	3.3255e-06	40.213	0.0013457	0.0019463	0.00055733	1101.2	1.9701e-05	2.1804e-05	741.07	371.74	1.9765e-05	2.1664e-05	272.52	99.155	138.19	50.201	2.1209e-05	40.607	249.591	180.243	195.458	137.559	276.744	262.847	136.253	142.334	315.128	315.929	139.746	144.579	146.578	151.270	305.077	147.708	-8191	255	
1131.407	1	1	0	0	0.085511	0.20525	0.094211	0.35186	0.10861	0.054532	0.10664	0.27525	0.22007	0.42104	0.17228	0.26107	0.17596	0.11349	0.066044	0.17622	-0.51458	-1.6583	-0.69375	-1.2208	-1.6646	-0.82083	-1.7	-1.2896	-0.85625	-1.5187	-0.775	-1.1167	-1.5938	-0.76875	-1.375	-1.5458	144.120	412.039	276.288	481.171	143.819	166.497	207.942	465.063	365.482	450.975	398.926	129.386	484.242	422.143	278.401	363.795	0.0004412	0.00036641	0.00010558	1109.8	4.7995e-06	9.2353e-06	741.51	370.9	2.7715e-06	3.4085e-06	271.28	98.255	137.19	49.348	3.0239e-06	39.853	0.0013433	0.0019692	0.00055442	1096.4	2.0069e-05	2.1885e-05	736.65	369.55	1.9699e-05	2.1369e-05	270.33	98.397	137.03	50.024	2.0363e-05	40.273	254.988	202.915	183.207	137.409	284.285	294.885	136.004	142.458	232.124	300.385	139.963	144.570	146.501	151.444	249.229	147.769	-8191	255	
1131.527	1	1	0	0	0.19502	0.21647	0.075259	0.1475	0.12518	0.19009	0.30174	0.25092	0.096537	0.14994	0.096641	0.23206	0.30644	0.19369	0.11865	0.1867	-0.39792	-1.4312	-0.9375	-1.2042	-1.5583	-0.96667	-1.4042	-1.5292	-0.69583	-1.5896	-1.0271	-1.1313	-1.6271	-0.85417	-1.2479	-1.5125	343.787	461.248	407.397	463.706	286.149	285.089	161.315	374.734	389.086	213.286	314.869	393.716	433.401	220.915	212.301	199.139	0.00048428	0.00035622	0.0001146	1096.2	6.4291e-06	3.998e-06	734.3	368.21	6.0439e-06	2.9334e-06	266.49	97.254	135.95	49.424	5.6175e-06	39.557	0.0013547	0.0019495	0.00053755	1089.8	2.0328e-05	2.1885e-05	729.29	366.92	1.9609e-05	2.1686e-05	267.1	97.349	136.35	49.672	2.0631e-05	39.917	254.811	217.249	181.581	137.866	286.778	308.643	136.228	142.490	279.200	279.666	139.904	144.495	146.692	151.219	273.380	147.971	-8191	255	
1131.622	1	1	0	0	0.11143	0.15974	0.074608	0.18261	0.18566	0.042394	0.14101	0.10226	0.15186	0.066284	0.15189	0.2419	0.061024	0.23564	0.16007	0.1565	-0.36667	-1.6771	-1.1042	-1.0562	-1.5292	-0.94375	-1.4125	-1.7687	-0.81667	-1.4792	-1.3479	-0.93125	-1.6771	-1.05	-1.1688	-1.6292	309.511	226.197	471.729	126.680	265.923	381.689	392.025	177.165	472.812	442.230	482.796	146.632	368.178	395.082	314.917	174.444	0.00045795	0.0006572	0.00012988	1096.1	4.6619e-06	4.9227e-06	731.16	368.78	3.1905e-06	2.7241e-06	266.17	96.703	135.83	49.262	2.6409e-06	39.664	0.0013603	0.0019387	0.00054504	1085.8	2.0417e-05	2.1771e-05	725.73	366.64	1.9744e-05	2.1681e-05	266.55	96.906	136.08	49.709	2.0309e-05	40	250.792	225.350	196.832	137.837	264.325	306.341	136.431	142.568	318.181	298.433	140.480	144.484	146.941	151.739	305.241	147.670	-8191	255	
1131.718	1	1	0	0	0.098864	0.15922	0.21855	0.30621	0.18235	0.041861	0.11568	0.022892	0.33733	0.12785	0.086102	0.1576	0.15956	0.27725	0.39648	0.10239	-0.45625	-1.35	-1.25	-0.89792	-1.6333	-1.1	-1.0583	-1.6021	-0.82917	-1.4479	-1.5063	-0.6625	-1.675	-1.3563	-1.0042	-1.8354	361.569	127.078	219.582	145.299	318.411	441.848	163.177	367.294	304.025	204.271	154.364	427.658	193.402	145.706	147.195	477.469	0.0004898	0.00026334	0.00017927	1104	6.0113e-06	5.4144e-06	742.54	368.4	6.5227e-06	6.8701e-06	270.18	97.428	136.35	49.508	7.0769e-06	39.565	0.0013548	0.001901	0.00053262	1090	2.0139e-05	2.1273e-05	730.45	367.64	2.0293e-05	2.1144e-05	269.44	97.621	136.77	49.905	2.0315e-05	40.104	242.787	217.977	197.256	137.874	280.205	289.657	136.576	142.600	260.411	274.338	139.877	145.067	146.734	151.412	265.433	147.875	-8191	255	
1131.814	1	1	0	0	0.14056	0.056354	0.1443	0.52572	0.11279	0.13243	0.26205	0.49135	0.1808	0.17186	0.23979	0.30362	0.18817	0.17153	0.22737	0.14978	-0.3125	-1.4333	-1.3417	-1.0646	-1.6271	-1.1021	-0.95208	-1.7292	-0.84792	-1.3125	-1.4396	-0.75208	-1.8417	-1.3208	-0.83958	-1.775	292.242	347.698	326.317	463.194	450.316	346.744	204.818	451.501	371.450	350.358	425.373	412.956	127.320	458.543	341.564	202.174	0.00045418	0.00082447	0.0001314	1105.8	6.2154e-06	8.7466e-06	743.46	371.95	1.785e-06	4.368e-06	271.87	97.974	137.04	49.669	4.6976e-06	39.655	0.0013312	0.0018722	0.00052423	1099.1	1.9725e-05	2.1587e-05	737.89	370.92	1.9215e-05	2.058e-05	271.93	98.032	137.38	50.019	1.9662e-05	40.212	249.709	215.564	190.023	137.802	273.646	268.488	136.382	142.512	302.143	246.528	140.050	144.792	146.935	151.464	277.432	147.949	-8191	255	
1131.910	1	1	0	0	0.21935	0.03028	0.22891	0.066852	0.13852	0.30809	0.23119	0.090465	0.19466	0.060424	0.27033	0.18143	0.29902	0.23273	0.30825	0.35005	-0.43125	-1.2792	-1.3729	-0.81042	-1.4917	-1.1896	-0.97708	-1.9438	-0.76667	-1.2646	-1.5708	-0.775	-1.5646	-1.3854	-0.96667	-1.9021	392.528	165.450	399.487	141.647	483.893	208.699	378.833	320.668	472.996	214.281	440.612	339.401	466.751	435.454	282.430	459.864	0.0004898	0.00063198	0.00016016	1111.4	8.8029e-06	4.3293e-06	750.23	373.06	3.6926e-06	3.9151e-06	271.98	98.237	138	49.569	7.0022e-06	39.888	0.0013437	0.0018509	0.0005157	1103.3	1.9521e-05	2.0409e-05	742.02	372.2	1.8586e-05	2.0296e-05	271.53	98.271	137.68	50.013	1.949e-05	40.222	252.917	221.309	210.067	137.945	301.901	345.565	136.300	142.738	284.324	264.495	140.277	144.528	146.970	151.592	294.227	148.212	-8191	255	
1132.006	1	1	0	0	0.26422	0.21666	0.080819	0.15372	0.28194	0.16489	0.37342	0.069786	0.083095	0.27116	0.11191	0.2588	0.15016	0.14042	0.19984	0.18391	-0.45417	-1.0646	-1.6313	-0.89375	-1.4333	-1.2208	-0.95208	-1.7521	-1.1083	-1.1187	-1.5854	-0.77292	-1.5958	-1.7687	-0.73333	-1.5896	231.857	184.994	358.609	216.687	157.601	430.842	371.911	209.470	373.929	351.627	419.981	430.478	267.405	436.692	469.361	468.080	0.00044378	0.00047314	9.8852e-05	1118.5	5.8225e-06	6.482e-06	745.67	373.15	5.6717e-06	5.8354e-06	271.21	97.088	136.61	49.072	7.1637e-06	39.521	0.0012829	0.0018073	0.00051623	1107.1	1.9062e-05	2.0729e-05	738.46	371.11	1.8769e-05	2.0444e-05	270.64	97.425	136.77	49.528	2.0298e-05	39.688	249.324	207.790	225.151	137.716	287.653	292.803	136.630	142.952	309.717	255.070	139.875	145.057	147.221	151.691	271.430	148.243	-8191	255	
1132.103	1	1	0	0	0.24568	0.093954	0.18162	0.21957	0.13422	0.3608	0.22762	0.30022	0.061561	0.27398	0.34161	0.26663	0.22665	0.17258	0.24653	0.084773	-0.68542	-0.89792	-1.5146	-0.83125	-1.3417	-1.4792	-0.83125	-1.7125	-1.2021	-1.1417	-1.7104	-0.80208	-1.4521	-1.4937	-0.57292	-1.4604	241.311	256.260	391.061	445.790	279.788	265.986	382.913	446.181	346.140	262.219	451.806	364.607	133.836	471.741	212.478	193.768	0.00044545	0.00036785	0.00016353	1108	5.4183e-06	4.5311e-06	741.26	372.3	6.9203e-06	6.7053e-06	266.78	96.662	136.05	48.69	5.4438e-06	39.548	0.0012839	0.0018872	0.00053073	1102	1.9444e-05	2.0704e-05	735.06	370.42	1.9133e-05	2.0777e-05	267.95	96.647	136.05	49.029	2.0765e-05	39.612	244.881	196.415	208.997	137.807	296.043	253.128	136.226	142.615	289.050	287.858	139.396	144.306	146.763	151.589	310.568	148.072	-8191	255	
1132.223	1	1	0	0	0.028894	0.30346	0.1509	0.11886	0.33622	0.026938	0.26089	0.11424	0.12549	0.12855	0.53493	0.10864	0.45681	0.25271	0.1846	0.15419	-0.72292	-0.95625	-1.8125	-1.1104	-1.075	-1.6333	-0.76667	-1.7104	-1.0875	-0.84375	-1.7333	-1.175	-1.3083	-1.7146	-0.8	-1.3896	205.304	148.948	188.612	383.609	361.531	251.797	432.791	348.277	192.693	377.485	384.545	364.161	414.336	464.921	151.724	125.124	0.00040682	0.00059926	0.00017935	1112.6	4.6316e-06	5.5828e-06	742.02	372.55	3.7163e-06	6.2368e-06	271.53	96.69	136.22	48.737	7.0366e-06	39.181	0.0013166	0.0019399	0.00052806	1102.5	1.9621e-05	2.0803e-05	735.72	370.72	1.9568e-05	2.1425e-05	269.79	96.746	136.37	49.094	2.0484e-05	39.487	249.543	205.780	225.980	137.545	225.011	264.904	135.884	142.378	305.601	271.434	140.373	144.902	146.987	151.415	238.915	147.798	-8191	255	
1132.318	1	1	0	0	0.22527	0.12468	0.13869	0.20925	0.16055	0.36992	0.19022	0.35979	0.049624	0.14453	0.33855	0.34157	0.1441	0.18475	0.29091	0.11526	-1.0562	-0.76042	-1.7479	-1.0521	-1.1708	-1.6771	-0.89792	-1.5375	-1.1812	-0.87292	-1.7	-1.0812	-1.0167	-1.8104	-0.9875	-1.425	374.457	468.092	321.388	478.749	235.670	476.476	484.644	403.560	432.851	480.514	423.709	144.568	415.463	472.525	448.035	194.634	0.00049307	0.00055112	0.00016322	1110.9	5.2174e-06	2.2458e-06	742	371.78	2.5105e-06	8.0437e-06	266.96	96.621	136.04	48.561	8.3338e-06	38.828	0.0013393	0.0019498	0.00055224	1101.3	2.0031e-05	2.1718e-05	733.39	369.71	1.993e-05	2.1904e-05	267.98	96.531	136.2	48.852	2.1145e-05	39.096	257.746	262.163	216.910	137.694	272.682	214.102	136.387	142.660	253.480	248.784	139.621	144.378	147.090	151.680	267.094	148.531	-8191	255	
1132.414	1	1	0	0	0.36547	0.24651	0.15012	0.12218	0.19192	0.13794	0.12861	0.039296	0.22006	0.067565	0.20219	0.14733	0.096063	0.3288	0.11584	0.060122	-0.86875	-0.73542	-1.5562	-1.3917	-0.99375	-1.7479	-1.0792	-1.5604	-1.5042	-0.91042	-1.5896	-1.1854	-1.0063	-1.7188	-0.93542	-1.2354	366.036	312.365	483.657	155.851	461.760	324.265	378.538	387.043	244.457	362.349	472.087	295.074	482.566	465.145	172.568	370.246	0.00041867	0.00052521	0.00017324	1099.7	3.6124e-06	1.2611e-06	730.46	366.34	3.5206e-06	4.6253e-06	264.47	94.505	134.08	47.956	9.7767e-06	37.994	0.001347	0.0019806	0.00054919	1094.2	2.0262e-05	2.1621e-05	723.69	366.11	2.0382e-05	2.2323e-05	264.38	94.993	134.51	48.28	2.0913e-05	38.46	250.528	208.261	215.319	137.401	305.366	334.642	136.436	142.448	273.447	311.830	139.741	144.345	146.683	151.400	273.040	148.259	-8191	255	
1132.510	1	1	0	0	0.20474	0.10616	0.029939	0.1264	0.052944	0.21065	0.23075	0.087316	0.40318	0.10792	0.19103	0.13719	0.35406	0.15654	0.24044	0.11467	-1.1458	-0.75	-1.5438	-1.3458	-0.9625	-1.725	-1.1875	-1.1938	-1.525	-0.8375	-1.5229	-1.3771	-0.85833	-1.7375	-1.0479	-1.0104	388.455	199.169	278.175	461.198	330.158	195.188	366.333	138.795	474.003	316.481	397.600	307.477	457.988	168.635	418.458	334.144	0.00041743	0.00064327	0.00010387	1094.4	1.2665e-06	4.1024e-06	726.13	365.88	4.7158e-06	3.6322e-06	260.4	94.188	134.69	48.097	3.5917e-06	38.195	0.001342	0.0019498	0.0005407	1085.7	2.0114e-05	2.1372e-05	716.49	365.02	1.9697e-05	2.1931e-05	261.9	94.012	134.41	48.321	2.057e-05	38.498	251.118	209.449	179.342	138.099	275.547	282.227	135.883	142.332	305.404	289.340	140.120	144.696	146.916	151.368	335.153	148.093	-8191	255	
1132.606	1	1	0	0	0.19501	0.37073	0.16159	0.10219	0.13958	0.16623	0.081866	0.1235	0.11742	0.089949	0.22779	0.30557	0.22153	0.24961	0.16937	0.27369	-1.2062	-0.74792	-1.1313	-1.5021	-0.77708	-1.6375	-1.3188	-1.1979	-1.5104	-0.79375	-1.5708	-1.3229	-0.75625	-1.775	-0.99792	-0.97292	417.308	453.617	445.550	421.274	365.120	476.075	220.846	458.204	336.583	359.600	448.537	295.355	346.632	380.599	320.645	155.896	0.00046033	0.00043061	0.00010817	1097.4	5.5593e-06	6.527e-06	720.54	365.74	5.8198e-06	1.8879e-06	262.65	94.08	134.31	47.613	4.45e-06	38.282	0.0013346	0.0019344	0.00053054	1083.9	1.9889e-05	2.0827e-05	715.4	364.18	1.9436e-05	2.0907e-05	262.4	94.45	134.05	48.234	1.964e-05	38.558	245.518	236.738	165.410	137.566	287.155	270.779	136.494	142.770	323.424	252.717	140.146	144.411	146.625	150.974	271.593	147.585	-8191	255	
1132.702	1	1	0	0	0.07549	0.091525	0.23853	0.21965	0.39343	0.31	0.023768	0.24934	0.1283	0.26866	0.1453	0.17894	0.1487	0.4548	0.054106	0.18276	-1.1562	-0.77292	-1.1729	-1.6812	-0.82083	-1.6021	-1.1792	-1.0146	-1.4792	-0.93125	-1.3625	-1.6333	-0.73125	-1.5812	-1.2667	-0.86667	367.611	299.903	345.404	415.017	175.050	240.783	128.802	403.996	218.607	305.021	206.677	316.195	176.654	433.005	428.880	140.002	0.00045904	0.0004129	0.00016457	1095.6	9.0864e-06	4.732e-06	728.48	366.55	7.4285e-06	6.9096e-06	264.95	94.812	135.09	48.244	5.6655e-06	38.544	0.0013352	0.0018866	0.00053031	1085	2.0308e-05	2.0692e-05	718.51	365.37	1.9181e-05	2.0627e-05	264.08	94.997	134.74	48.667	1.9946e-05	38.948	252.365	225.538	226.719	137.242	264.876	306.095	136.069	142.605	284.503	274.557	139.708	144.459	147.014	151.840	273.433	148.215	-8191	255	
1132.823	1	1	0	0	0.11959	0.30798	0.22212	0.40151	0.15982	0.15383	0.096969	0.046765	0.32144	0.011153	0.26897	0.10009	0.18944	0.16898	0.052307	0.20451	-1.1833	-0.86667	-1.3333	-1.625	-0.72708	-1.6375	-1.2833	-0.95833	-1.6979	-0.81458	-1.2437	-1.7125	-0.95625	-1.4958	-1.3625	-0.82292	404.628	414.532	464.083	449.909	245.293	482.897	437.546	298.272	158.214	229.849	355.980	328.636	328.422	191.846	463.200	454.757	0.00045101	0.00017269	9.4325e-05	1104.2	4.105e-06	4.2103e-06	734.97	370.63	3.9766e-06	2.9066e-06	267.66	95.782	135.3	48.404	2.0691e-06	38.836	0.0013088	0.0018823	0.00052456	1095.2	1.9188e-05	2.0666e-05	728.41	369.07	1.9424e-05	2.0905e-05	267.6	96.253	135.72	48.876	1.9551e-05	39.293	251.912	173.389	211.608	137.395	287.881	265.095	136.620	142.260	264.393	272.154	139.775	144.103	146.587	151.332	138.615	147.886	-8191	255	
1132.919	1	1	0	0	0.13597	0.024521	0.23833	0.093021	0.14526	0.056626	0.37531	0.24171	0.17103	0.10761	0.22542	0.27639	0.07249	0.18222	0.14695	0.30524	-1.2583	-1.1271	-1.0167	-1.9896	-0.7625	-1.3167	-1.6125	-0.96458	-1.5688	-1.0688	-1.0812	-1.7833	-0.98125	-1.3646	-1.6	-0.94167	153.217	285.420	465.697	307.263	374.383	271.722	414.115	378.747	457.309	429.367	457.913	458.649	206.708	138.687	216.116	474.178	0.00043939	0.00043371	0.00021396	1107.9	6.1779e-06	4.6031e-06	731.75	371.11	3.4478e-06	2.233e-06	267.68	95.458	135.76	48.553	7.6454e-06	38.883	0.0013022	0.0018232	0.00052121	1100.1	1.8897e-05	1.9532e-05	727.69	369.65	1.8317e-05	1.9984e-05	266.59	95.911	135.59	48.905	1.9337e-05	39.186	248.797	258.103	205.564	137.599	290.004	272.422	135.916	142.773	276.382	276.929	140.343	144.563	146.440	150.827	300.184	147.675	-8191	255	
1133.013	1	1	0	0	0.19924	0.11708	0.19238	0.23262	0.24818	0.063217	0.22179	0.25361	0.057626	0.18459	0.19585	0.10574	0.3578	0.2133	0.061149	0.19505	-1.3833	-1.2333	-0.96458	-1.8104	-0.76875	-1.3104	-1.6542	-1.0187	-1.2729	-0.98333	-0.90625	-1.7917	-1.1667	-1.3104	-1.5875	-0.66042	148.241	309.100	139.109	469.467	371.503	435.077	138.338	463.391	131.763	271.096	322.082	156.154	472.541	446.397	244.985	404.272	0.00043636	0.00045769	0.0001453	1104.1	6.2634e-06	1.4981e-06	734.06	369.89	7.0314e-06	3.1922e-06	266.18	95.698	134.76	47.917	7.8231e-06	38.139	0.001243	0.0018217	0.00051658	1097.8	1.9017e-05	2.0211e-05	727.1	368.88	1.8814e-05	2.0139e-05	266.36	95.607	134.84	48.459	1.9779e-05	38.558	252.528	198.297	197.555	137.586	283.378	309.714	136.100	142.270	289.904	237.124	139.797	144.434	146.839	151.940	293.941	147.874	-8191	255	
1133.110	1	1	0	0	0.069997	0.1113	0.094232	0.06963	0.1807	0.10252	0.24489	0.41351	0.085322	0.11919	0.060196	0.23703	0.083744	0.27419	0.372	0.1084	-1.1396	-1.3417	-0.79167	-1.6042	-1.0458	-1.2292	-1.8167	-0.86667	-1.3917	-1.3146	-0.92708	-1.6313	-1.1354	-0.975	-1.6979	-0.8625	360.914	259.045	286.355	204.332	283.546	447.378	144.791	471.666	254.475	364.944	201.144	468.277	442.325	423.275	405.015	480.927	0.00045606	0.00029487	0.00011719	1109.4	6.7817e-06	4.7717e-06	733.75	369.58	3.7659e-06	9.6321e-06	265.25	95.348	135.48	48.174	6.824e-06	38.411	0.0012745	0.0018428	0.00052406	1097.1	1.8929e-05	2.0315e-05	727.25	368.74	1.8991e-05	2.0657e-05	265.62	95.57	135.2	48.53	2.0105e-05	38.751	247.052	155.803	214.909	137.356	277.610	273.848	136.367	142.397	310.179	281.262	140.407	145.574	147.472	151.658	265.043	147.331	-8191	255	
1133.206	1	1	0	0	0.25391	0.14452	0.081469	0.17033	0.1314	0.1915	0.13747	0.085622	0.083134	0.23284	0.15792	0.11531	0.32805	0.23574	0.12919	0.22637	-0.9	-1.4625	-0.7625	-1.8792	-1.0625	-0.87917	-1.7042	-1.0625	-1.3188	-1.5979	-0.79167	-1.7042	-1.175	-0.96667	-1.7833	-0.95625	334.304	226.858	166.312	328.474	197.131	368.968	214.343	432.824	154.378	363.116	413.514	307.394	431.014	389.173	450.150	348.379	0.00044295	0.00023489	9.5033e-05	1112.8	5.3774e-06	5.2477e-06	731.53	370.73	4.4832e-06	3.3435e-06	265.73	95.703	135.16	47.944	6.3043e-06	38.385	0.001292	0.0019175	0.00053475	1100	1.9086e-05	2.1417e-05	726.63	368.5	1.9407e-05	2.1187e-05	266.11	95.75	135.1	48.364	2.0214e-05	38.615	244.766	166.540	211.543	137.560	287.766	245.785	136.507	142.287	296.740	232.345	140.159	144.634	146.121	150.749	302.693	147.126	-8191	255	
1133.302	1	1	0	0	0.1885	0.19276	0.13559	0.32814	0.21906	0.33667	0.048039	0.097908	0.34681	0.22217	0.068627	0.06239	0.28037	0.44983	0.027371	0.32253	-0.925	-1.5271	-0.67292	-1.7125	-0.925	-0.81458	-1.6375	-1.1042	-1.1667	-1.6292	-0.89583	-1.6125	-1.4229	-0.94167	-1.4958	-0.97917	374.230	437.208	223.168	378.041	144.778	455.169	444.569	435.793	311.352	273.979	138.916	143.678	474.226	477.809	311.067	442.157	0.00038613	0.00079516	0.00010036	1102	6.1897e-06	9.3983e-06	728.11	367.1	8.4716e-06	7.8676e-06	263.04	94.877	134.21	47.931	2.2748e-06	37.671	0.0012937	0.0019467	0.00054336	1095.3	1.9706e-05	2.1547e-05	723.98	366.61	1.9458e-05	2.135e-05	263.39	94.918	134.23	48.14	2.058e-05	38.186	252.472	206.301	309.451	137.194	309.808	267.346	135.658	141.535	277.693	272.610	139.295	143.765	145.901	150.841	263.515	146.763	-8191	255	
1133.398	1	1	0	0	0.13171	0.3786	0.024038	0.4046	0.045617	0.15534	0.14928	0.27422	0.27768	0.13286	0.069215	0.20366	0.23853	0.073823	0.18418	0.34925	-0.5625	-1.5083	-0.67083	-1.5542	-1.4083	-0.85417	-1.8125	-1.2583	-0.99375	-1.5042	-0.80625	-1.4438	-1.4604	-0.81042	-1.7125	-1.1542	163.964	449.973	281.568	427.220	256.006	243.146	370.924	420.754	445.526	420.955	224.278	306.071	456.927	384.005	450.850	415.013	0.00036312	0.00044468	0.00011478	1098.8	4.2498e-06	2.1525e-06	717.2	364.43	4.6699e-06	2.96e-06	260.72	93.779	133.71	47.132	5.3919e-06	37.777	0.0013169	0.001885	0.00054148	1089.4	2.0031e-05	2.1414e-05	715.25	363.89	2.0122e-05	2.1779e-05	260.96	94.147	133.7	47.746	1.9965e-05	37.959	255.963	218.448	194.885	137.023	248.075	262.757	135.679	141.725	307.650	181.228	139.234	143.889	146.060	150.690	310.520	147.326	-8191	255	
1133.494	1	1	0	0	0.010345	0.20395	0.23608	0.11102	0.30381	0.21382	0.28645	0.19214	0.1184	0.35609	0.043062	0.30218	0.19161	0.12977	0.18031	0.20071	-0.60833	-1.5854	-0.83958	-1.3396	-1.4917	-0.84792	-1.8042	-1.2833	-1.0438	-1.7396	-0.81875	-1.3646	-1.5083	-0.89792	-1.7812	-1.2917	282.519	320.453	481.320	448.558	137.460	243.415	414.189	385.963	395.391	422.112	185.932	174.366	450.391	161.451	354.456	447.677	0.00038886	0.00069717	0.00010941	1085	5.9576e-06	8.1554e-07	713.48	362.73	5.8439e-06	4.9766e-06	259.17	92.818	132.61	47.272	3.8372e-06	37.632	0.0012993	0.0018844	0.00052409	1079.6	2.0013e-05	2.1012e-05	711.04	362.22	1.9533e-05	2.1092e-05	259.56	93.442	132.91	47.749	1.9723e-05	37.973	246.336	194.976	214.872	136.750	276.507	281.371	135.598	141.780	282.266	300.905	139.096	144.030	145.977	150.768	314.735	147.109	-8191	255	
1133.590	1	1	0	0	0.1652	0.24402	0.1033	0.13147	0.26234	0.071438	0.23219	0.11389	0.073512	0.1417	0.12315	0.097357	0.18025	0.1256	0.13005	0.49724	-0.6	-1.6437	-0.93542	-1.3167	-1.6104	-0.54375	-1.6229	-1.4062	-0.66042	-1.6167	-0.85625	-1.525	-1.7687	-0.85417	-1.5312	-1.2771	279.167	422.544	300.052	388.510	241.571	200.281	398.341	457.780	131.736	295.504	478.934	480.431	153.359	466.594	345.566	444.149	0.0003908	0.00047149	0.00014327	1095.7	4.1416e-06	6.2835e-06	720.28	364.85	5.2779e-06	5.5862e-06	260.89	93.967	133.71	47.578	4.0982e-06	37.905	0.0013045	0.0018375	0.00050989	1082.9	1.9304e-05	2.0712e-05	712.32	363.03	1.9285e-05	2.0278e-05	261.46	94.202	133.59	47.961	1.9236e-05	38.265	254.526	217.350	235.786	137.102	240.645	312.267	135.506	141.597	298.282	303.421	139.467	143.954	146.017	150.723	258.919	147.510	-8191	255	
1133.711	1	1	0	0	0.2733	0.26067	0.086762	0.12753	0.14375	0.1273	0.11232	0.057799	0.25453	0.23824	0.26648	0.14718	0.069407	0.22158	0.32356	0.22166	-0.32292	-1.4542	-0.99167	-1.3333	-1.6146	-0.85208	-1.35	-1.4562	-0.65	-1.6396	-1.2375	-1.1229	-1.7563	-0.85	-1.35	-1.5688	151.358	404.115	191.313	441.848	310.478	456.248	234.901	357.499	478.274	143.143	477.432	315.933	208.111	449.960	395.790	413.461	0.00045241	0.0005634	5.576e-05	1100.3	9.0449e-06	3.6998e-06	728.96	369.06	5.963e-06	9.2293e-06	265.55	95.34	134.41	47.855	4.1022e-06	38.487	0.0013082	0.0018239	0.00050357	1091.6	1.8728e-05	2.0594e-05	724.18	367.23	1.8755e-05	2.0012e-05	265.4	95.407	134.51	48.308	1.9071e-05	38.725	252.399	249.438	229.889	136.829	295.201	271.596	135.599	141.730	280.759	302.200	139.263	144.104	145.815	150.877	286.172	147.316	-8191	255	
1133.807	1	1	0	0	0.16424	0.33767	0.18116	0.14697	0.14801	0.10606	0.38504	0.43114	0.064129	0.15982	0.037986	0.21736	0.1513	0.36554	0.24214	0.26875	-0.33542	-1.5083	-0.98542	-1.1208	-1.7229	-0.88333	-1.3062	-1.6437	-0.83542	-1.4333	-1.1	-0.93125	-1.65	-1.0875	-1.1708	-1.7417	375.260	134.893	349.807	344.903	208.088	329.686	419.049	449.717	246.939	249.845	208.707	168.543	383.376	476.023	209.646	389.531	0.00047359	0.00040519	8.3525e-05	1108.8	5.7699e-06	3.7634e-07	734.2	369.72	5.4013e-06	6.4369e-06	265.43	95.757	134.9	47.769	9.1207e-06	38.077	0.0012864	0.0018053	0.00050365	1101.9	1.8729e-05	1.9408e-05	728.67	368.17	1.8763e-05	1.9896e-05	266	95.414	134.7	48.104	1.9201e-05	38.474	252.889	145.773	219.903	136.809	276.333	153.130	135.959	141.728	311.230	238.461	139.155	143.939	146.139	150.926	274.176	146.886	-8191	255	
1133.903	1	1	0	0	0.12638	0.29003	0.11749	0.10701	0.081667	0.15604	0.31827	0.38665	0.19053	0.13433	0.24003	0.1881	0.20417	0.11721	0.2694	0.16293	-0.24583	-1.4021	-1.2208	-0.85417	-1.6042	-0.99375	-1.225	-1.7188	-0.60208	-1.6021	-1.4958	-0.81458	-1.6562	-1.0333	-1.1063	-1.725	170.575	326.487	256.360	210.220	391.084	430.183	457.745	451.887	370.100	203.732	403.030	210.119	481.488	478.921	137.441	468.466	0.00043268	0.00025204	0.00017669	1110.7	3.2101e-06	6.4583e-06	733.1	369.2	4.7589e-06	5.7626e-06	263.89	95.01	134.44	47.861	7.1634e-06	37.915	0.0012241	0.0017568	0.00050061	1101.9	1.8023e-05	1.9767e-05	728.38	367.98	1.7846e-05	1.9988e-05	264.41	95.152	134.84	48.289	1.9161e-05	38.401	251.752	190.339	197.467	136.863	318.699	326.788	135.702	141.874	286.636	319.900	139.537	144.371	146.419	150.704	303.420	147.443	-8191	255	
1133.999	1	1	0	0	0.18754	0.094856	0.077778	0.12642	0.17695	0.04287	0.1525	0.27405	0.215	0.13072	0.12958	0.077713	0.21123	0.13604	0.19904	0.087397	-0.5	-1.3	-1.3438	-0.82083	-1.6958	-1.1417	-1.0396	-1.8875	-0.70417	-1.3771	-1.4479	-0.87708	-1.6625	-1.2375	-0.8	-1.6792	376.763	280.925	200.253	440.470	274.462	141.579	376.526	419.007	413.083	137.231	171.630	455.701	461.305	455.927	258.441	173.461	0.00043925	0.00050938	0.00014577	1112	3.4937e-06	5.0816e-06	731.11	370.14	5.2164e-06	8.7829e-06	265.55	95.501	134.41	47.751	4.1808e-06	37.993	0.0012504	0.0017559	0.00049659	1101.4	1.8116e-05	1.9617e-05	726.5	368.41	1.8579e-05	1.9641e-05	265.15	95.124	134.64	48.112	1.9453e-05	38.456	253.382	218.506	207.489	137.178	277.826	252.173	136.026	141.928	284.623	361.891	139.944	144.346	146.494	150.907	230.909	147.471	-8191	255	
1134.094	1	1	0	0	0.1708	0.029908	0.21518	0.16199	0.25561	0.095808	0.1644	0.47777	0.25922	0.13074	0.1348	0.1606	0.15458	0.020747	0.18304	0.1857	-0.39167	-1.1396	-1.5229	-0.71042	-1.2979	-1.3146	-0.98333	-1.8229	-0.875	-1.2542	-1.6771	-0.9125	-1.6375	-1.4208	-0.77292	-1.8021	166.774	439.887	318.825	454.201	147.186	407.975	360.351	454.841	394.419	394.636	395.225	464.842	420.289	355.872	438.082	274.037	0.00045295	0.00053329	0.00010495	1105.9	4.6658e-06	7.2102e-06	740.22	369.49	4.8381e-06	5.077e-06	266.4	95.829	135.42	47.712	7.7532e-06	38.459	0.0012462	0.0018093	0.00050353	1099.4	1.8154e-05	1.9809e-05	731.34	368.6	1.8574e-05	2.0312e-05	265.81	95.861	135.36	48.128	1.901e-05	38.718	251.587	181.227	158.488	137.272	315.680	285.050	136.064	142.181	288.901	235.712	139.519	144.080	146.841	151.123	261.902	147.551	-8191	255	
1134.192	1	1	0	0	0.16333	0.4233	0.11998	0.18307	0.16538	0.083967	0.076361	0.031645	0.11179	0.23214	0.1105	0.19022	0.14807	0.3299	0.16047	0.051401	-0.63542	-1.0542	-1.7188	-0.66875	-1.3708	-1.4562	-0.875	-1.8604	-0.90833	-1.0271	-1.8208	-0.77708	-1.5625	-1.5438	-0.63542	-1.5833	330.274	324.560	426.657	131.278	239.846	190.237	445.180	243.868	280.729	206.975	446.161	462.196	438.387	441.424	273.240	453.786	0.00043443	0.00026823	0.00021489	1105.7	4.7715e-06	5.3288e-06	738.62	371.72	5.863e-06	8.3165e-06	268.04	96.348	136.28	48.297	8.319e-06	38.625	0.0012511	0.0018091	0.00050964	1101.9	1.868e-05	2.009e-05	730.98	370.43	1.8088e-05	1.996e-05	267.76	96.391	136.08	48.563	1.9504e-05	39.011	251.706	181.150	226.852	137.377	287.702	285.305	136.040	142.295	300.526	297.845	139.491	144.485	146.949	151.259	274.607	147.292	-8191	255	
1134.311	1	1	0	0	0.088586	0.068629	0.010313	0.30532	0.22268	0.14638	0.13903	0.28269	0.15927	0.079908	0.13678	0.075682	0.30652	0.15098	0.3944	0.20811	-0.81042	-0.93958	-1.6271	-1.0583	-1.1979	-1.3396	-0.95	-1.7833	-1.1375	-0.9375	-1.7333	-0.72917	-1.2521	-1.4312	-0.6125	-1.625	189.149	315.176	365.353	456.938	153.524	295.652	436.092	404.983	285.193	473.830	331.390	340.998	475.607	287.159	429.553	430.514	0.00047983	0.00063079	9.5448e-05	1107.1	3.4999e-06	6.958e-06	731.29	369.86	3.3446e-06	5.6532e-06	266.73	95.552	135.45	48.132	7.4969e-06	38.597	0.0012676	0.001816	0.00050805	1097.3	1.866e-05	1.954e-05	726.64	368.98	1.8505e-05	1.9928e-05	265.86	95.84	135.28	48.52	1.8735e-05	38.817	253.117	188.550	246.037	136.888	293.415	220.290	135.897	142.133	308.128	276.531	139.880	144.059	146.410	151.059	288.239	147.680	-8191	255	
1134.407	1	1	0	0	0.0701	0.13706	0.25042	0.14935	0.10541	0.15848	0.21698	0.10331	0.048506	0.038394	0.035294	0.13373	0.16187	0.45182	0.12491	0.36984	-0.6875	-0.86042	-1.4125	-1.0083	-1.1354	-1.5	-0.76042	-1.6792	-1.2188	-0.90417	-1.8229	-1.1708	-1.2625	-1.65	-0.825	-1.4854	350.243	380.846	209.553	420.200	432.731	386.696	482.998	376.170	359.914	401.897	231.530	462.440	465.947	432.808	218.683	313.648	0.00041065	0.00029492	0.00018674	1103.9	5.7381e-06	3.9409e-06	726.67	367.11	5.0456e-06	3.9408e-06	264.75	95.272	134.86	47.931	9.2685e-06	38.208	0.0012301	0.0017505	0.00049927	1090.1	1.8235e-05	1.9359e-05	720.46	366.14	1.7594e-05	1.8891e-05	264.36	95.161	134.91	48.249	1.8832e-05	38.543	252.237	184.043	206.245	137.336	309.404	238.035	135.779	142.060	295.099	333.298	139.828	144.527	146.794	151.142	305.218	147.978	-8191	255	
1134.503	1	1	0	0	0.16936	0.11587	0.28637	0.17555	0.16299	0.18526	0.20611	0.4237	0.10906	0.14997	0.33975	0.13417	0.13721	0.08336	0.16745	0.072244	-1.0375	-0.71875	-1.725	-1.2542	-1.0438	-1.5333	-1.0562	-1.35	-1.2896	-0.89583	-1.6125	-1.0812	-1.0458	-1.9083	-0.80417	-1.4104	144.000	189.328	379.065	427.042	461.213	157.356	434.207	431.069	228.687	245.040	373.455	171.759	344.331	438.202	168.241	288.724	0.00045245	0.00074654	0.00014047	1095.3	4.7532e-06	7.6051e-06	725.49	366.99	3.2663e-06	6.2107e-06	264.33	95.521	134.7	48.096	6.0941e-06	38.758	0.0012403	0.0017125	0.00048885	1084	1.8034e-05	1.9018e-05	719.07	365.22	1.7592e-05	1.8806e-05	264.61	95.613	134.93	48.613	1.7606e-05	39.12	247.410	201.969	226.027	137.203	289.971	285.737	135.974	142.352	294.589	243.942	140.181	144.748	146.995	151.242	300.597	147.538	-8191	255	
1134.599	1	1	0	0	0.17807	0.14498	0.21464	0.43632	0.27952	0.3165	0.11515	0.2687	0.2867	0.16238	0.13106	0.27005	0.15828	0.32259	0.28415	0.036201	-1.05	-0.77917	-1.5333	-1.3271	-1.0438	-1.5354	-0.94375	-1.4979	-1.4729	-0.8	-1.5771	-1.0667	-0.82708	-1.6854	-0.95417	-1.0708	193.422	312.471	425.292	416.325	369.209	421.009	183.759	427.687	249.999	404.994	380.348	460.942	443.171	125.658	195.835	321.512	0.00043101	0.00026529	0.00015032	1102	6.8256e-06	5.6322e-06	736.26	369.36	4.9633e-06	5.2604e-06	268.85	96.517	135.35	48.403	5.2216e-06	39.251	0.0011702	0.0017041	0.00047434	1089.5	1.7799e-05	1.8349e-05	727.24	368.09	1.7372e-05	1.8563e-05	267.83	96.714	135.76	48.887	1.7939e-05	39.468	252.922	203.067	188.170	137.053	307.676	304.314	135.884	142.353	272.211	280.155	139.703	144.758	146.634	151.262	296.208	147.670	-8191	255	
1134.695	1	1	0	0	0.16953	0.26532	0.11417	0.24633	0.18588	0.1773	0.25433	0.17391	0.19799	0.038661	0.15224	0.31514	0.28601	0.1176	0.18582	0.16189	-1.3083	-0.79167	-1.4083	-1.4375	-0.85	-1.6708	-1.0938	-1.2271	-1.4729	-1.0104	-1.4521	-1.3979	-0.85417	-1.5792	-0.66875	-1.0562	171.673	376.409	434.754	147.366	346.475	162.489	464.905	397.442	362.431	419.163	382.726	465.507	451.303	271.977	477.533	294.980	0.00050032	0.00036461	0.00014795	1108	6.8129e-06	8.3247e-06	744.07	374.33	8.1367e-06	4.7817e-06	272.28	97.723	136.74	48.447	6.9106e-06	38.861	0.0012143	0.0016773	0.00047166	1100.4	1.7281e-05	1.8139e-05	736.63	372.3	1.7165e-05	1.8428e-05	270.99	97.678	136.66	48.874	1.7914e-05	39.275	249.447	194.566	219.618	137.319	263.976	285.460	135.492	141.871	262.470	250.092	139.205	143.972	145.942	150.670	303.749	146.931	-8191	255	
1134.791	1	1	0	0	0.36	0.16358	0.074643	0.10682	0.084538	0.1831	0.13566	0.47376	0.25245	0.076327	0.1635	0.12333	0.15531	0.20672	0.29627	0.057917	-1.2354	-0.65625	-1.3396	-1.5542	-0.78958	-1.6	-1.1729	-0.87917	-1.525	-0.71875	-1.3292	-1.5021	-0.85833	-1.7667	-1.225	-1.1562	273.092	330.195	288.105	434.764	222.671	352.722	382.709	479.621	444.962	393.785	477.072	454.435	433.756	401.559	333.916	470.220	0.00046602	0.0004011	0.00014188	1113.7	3.0095e-06	6.8803e-07	740.66	372.54	4.2204e-06	7.7276e-06	269.25	96.22	135.02	47.828	7.5654e-06	38.306	0.0011701	0.0016185	0.0004582	1107.9	1.7019e-05	1.8217e-05	737.32	371.43	1.7026e-05	1.7851e-05	268.45	96.452	135.22	48.341	1.7552e-05	38.732	246.503	225.806	209.332	137.023	270.013	353.879	135.657	141.907	298.093	281.973	139.311	144.053	146.190	150.712	278.772	147.357	-8191	255	
1134.887	1	1	0	0	0.18711	0.16322	0.14614	0.045721	0.18974	0.3653	0.22263	0.16438	0.096752	0.21416	0.24364	0.10213	0.29094	0.24174	0.29776	0.21875	-1.1396	-0.79583	-1.1104	-1.8375	-0.6625	-1.4042	-1.0521	-1.0396	-1.5292	-0.99375	-1.0896	-1.5229	-0.76667	-1.6979	-1.1396	-0.9125	193.451	171.928	206.979	309.711	136.253	208.841	376.955	315.122	397.094	276.342	359.858	206.170	447.205	392.871	319.261	442.137	0.00040465	0.00077968	0.00021696	1118	3.6298e-06	5.7958e-06	739.5	371.91	4.9115e-06	2.5299e-06	268.98	96.283	134.79	47.858	3.8606e-06	38.035	0.0011314	0.0016578	0.0004647	1106.3	1.7026e-05	1.8099e-05	734.6	371.08	1.6762e-05	1.8177e-05	267.36	96.2	135.31	48.112	1.7923e-05	38.412	252.346	189.528	215.412	137.017	287.949	270.214	135.586	141.903	271.959	278.251	139.515	143.989	146.151	150.711	311.631	147.212	-8191	255	
1135.006	1	1	0	0	0.073894	0.15478	0.25144	0.19453	0.24466	0.25163	0.17622	0.31944	0.26964	0.10028	0.21429	0.075285	0.14365	0.27269	0.23373	0.24204	-1.1604	-0.83542	-1.0438	-1.7125	-0.66875	-1.3625	-1.2313	-1.0792	-1.5604	-0.93333	-1.2271	-1.6917	-0.8	-1.4208	-1.4792	-0.79583	314.680	474.666	277.198	466.907	333.264	370.817	422.161	373.754	307.101	181.068	470.274	194.249	387.523	427.174	232.358	226.533	0.0004317	0.00066362	0.00012355	1117	8.3083e-06	8.5106e-06	739.98	372.88	6.45e-06	1.9928e-06	267.1	96.154	135.6	48.02	7.2167e-06	38.135	0.0011666	0.0016915	0.0004608	1106.2	1.6947e-05	1.8456e-05	732.88	371.14	1.6994e-05	1.8492e-05	267.13	95.938	135.6	48.201	1.8122e-05	38.515	252.615	199.550	274.618	136.981	308.161	286.577	135.606	141.987	297.539	315.355	139.264	144.228	146.357	151.068	308.949	147.626	-8191	255	
1135.080	1	1	0	0	0.25559	0.3566	0.12545	0.41839	0.10115	0.19189	0.11312	0.48674	0.096049	0.044581	0.047261	0.25409	0.17975	0.16014	0.30639	0.10177	-1.2604	-1.0958	-1.0021	-1.8042	-0.86667	-1.3771	-1.5458	-0.96458	-1.3396	-1.1833	-0.98333	-1.6271	-0.98333	-1.4	-1.4792	-0.84583	201.618	377.729	425.030	447.949	299.682	148.641	282.835	434.372	335.550	240.130	139.753	417.175	419.474	448.582	383.486	156.629	0.00043162	0.00043522	0.00012059	1117	7.9481e-06	4.4101e-06	739.53	373.28	3.8248e-06	2.8875e-06	269.23	96.959	136.59	47.968	5.0142e-06	38.636	0.0011872	0.0016905	0.00047597	1107.1	1.7441e-05	1.8502e-05	734.98	372.02	1.7131e-05	1.8908e-05	269.12	96.804	136.33	48.392	1.8186e-05	38.956	247.880	243.428	222.667	137.305	274.189	250.537	135.708	142.169	285.251	267.129	139.842	144.265	146.503	150.898	278.480	147.569	-8191	255	
1135.176	1	1	0	0	0.18426	0.19173	0.015863	0.11309	0.13028	0.15085	0.064543	0.32641	0.073449	0.23593	0.079115	0.29905	0.11945	0.26227	0.23104	0.055287	-1.3021	-1.1667	-0.92083	-1.7938	-0.9375	-1.3333	-1.7167	-0.80208	-1.275	-1.3125	-0.84583	-1.6792	-1.0583	-1.1333	-1.5979	-0.69167	475.457	329.191	389.924	146.432	234.548	424.733	234.919	417.705	165.669	399.038	144.496	396.891	146.987	464.086	225.324	231.471	0.00041071	0.00086746	0.00014788	1116.8	8.3508e-06	6.8025e-06	742.57	373.35	7.1712e-06	2.1324e-06	269.19	96.54	135.53	47.819	2.1705e-06	38.445	0.0012103	0.0017183	0.00048649	1106.9	1.8359e-05	1.9642e-05	736.54	371.23	1.7739e-05	1.9483e-05	268.83	96.884	135.85	48.323	1.8843e-05	38.761	246.044	220.355	164.740	136.965	274.022	272.874	135.288	141.938	292.087	213.617	139.215	143.944	146.026	151.151	258.337	147.290	-8191	255	
1135.272	1	1	0	0	0.027591	0.20438	0.061461	0.085125	0.17258	0.32745	0.29928	0.28242	0.11678	0.07685	0.20301	0.18772	0.12501	0.22477	0.26766	0.075883	-1.2604	-1.2188	-0.79375	-1.5604	-1.05	-1.1333	-1.7687	-0.81042	-1.3917	-1.3813	-0.90833	-1.5688	-1.0833	-0.95833	-1.6854	-0.89375	142.014	146.140	364.500	379.224	365.038	483.165	391.482	393.369	285.298	237.009	359.606	432.958	129.837	394.219	277.896	327.023	0.00045684	0.00070255	6.5619e-05	1109	7.4687e-06	3.8784e-06	736.01	369.48	6.3306e-06	6.9735e-06	266.11	95.276	135.04	47.356	6.0172e-06	38.029	0.0012107	0.0017519	0.00049241	1099.2	1.8702e-05	1.9713e-05	730.04	368.44	1.8439e-05	1.9718e-05	265.85	95.61	135.14	47.964	1.8605e-05	38.328	252.106	179.050	189.963	137.039	289.409	279.536	135.692	141.948	294.648	263.821	139.598	144.158	146.078	150.737	299.155	147.271	-8191	255	
1135.391	1	1	0	0	0.14099	0.12798	0.28399	0.19617	0.30288	0.11738	0.43175	0.11938	0.20864	0.1505	0.27686	0.22967	0.21942	0.15211	0.26285	0.13981	-0.95208	-1.0812	-0.64375	-1.5625	-1.0854	-1.0042	-2.0021	-0.99375	-1.2958	-1.4958	-0.76042	-1.6688	-1.2479	-1.0688	-1.5083	-1.0938	276.988	318.593	435.620	449.233	316.093	434.939	399.825	235.102	378.849	427.908	402.751	446.830	477.735	153.915	235.537	390.027	0.00048023	0.00052188	0.00013437	1095	8.595e-06	2.0458e-06	731.52	369.3	1.5138e-06	2.5696e-06	264.95	95.085	134.32	47.726	5.3287e-06	38.322	0.0012336	0.0017573	0.00050167	1088.9	1.829e-05	1.9144e-05	723.25	367.43	1.8041e-05	1.8996e-05	264.62	95.588	134.73	48.034	1.8523e-05	38.463	250.041	219.950	230.261	136.873	261.200	309.795	135.826	141.965	260.648	195.765	139.603	144.382	146.202	150.535	265.685	147.395	-8191	255	
1135.487	1	1	0	0	0.32837	0.21839	0.066691	0.27645	0.14471	0.26988	0.04861	0.23905	0.26343	0.16062	0.28469	0.165	0.13603	0.30682	0.17786	0.15362	-0.69167	-1.6396	-0.88333	-1.7563	-1.1979	-0.98542	-1.6667	-0.99792	-1.2583	-1.5	-0.75833	-1.4542	-1.3854	-0.84167	-1.575	-0.89792	350.446	257.483	238.745	435.838	146.987	148.505	314.443	406.177	145.987	182.824	353.535	420.057	463.210	275.802	178.641	403.954	0.00041634	0.00040104	0.00014746	1097.9	7.3144e-06	8.7881e-06	731.58	369.58	7.4667e-06	7.7185e-06	265.03	95.367	135.05	47.548	5.2566e-06	38.016	0.0012553	0.0017081	0.00049713	1087.7	1.8045e-05	1.9122e-05	722.34	366.91	1.8262e-05	1.9438e-05	264.72	95.596	134.54	47.908	1.87e-05	38.297	251.708	138.508	198.577	136.864	305.176	281.100	135.725	141.994	261.900	271.021	139.164	144.157	146.201	150.895	305.924	147.465	-8191	255	
1135.583	1	1	0	0	0.20046	0.24015	0.28884	0.1438	0.23096	0.31103	0.090215	0.31932	0.1658	0.23156	0.3146	0.10768	0.16841	0.15272	0.32187	0.075223	-0.60208	-1.6146	-0.84792	-1.6354	-1.4125	-0.78958	-1.6917	-1.1354	-0.80833	-1.6917	-1.0729	-1.4917	-1.4917	-0.95417	-1.3708	-1.2604	320.863	391.680	367.285	220.825	169.783	458.184	384.404	470.531	345.819	421.241	443.981	448.981	143.415	431.647	481.180	190.618	0.00042881	0.00019198	0.00010437	1100.1	6.5576e-06	6.0635e-06	732.48	367.35	4.9335e-06	3.6753e-06	266.11	96.09	134.67	47.569	6.8395e-06	38.488	0.0012338	0.0017389	0.00049634	1092	1.7783e-05	1.9201e-05	725.94	367.1	1.7937e-05	1.8741e-05	265.26	95.817	134.58	47.849	1.8615e-05	38.594	248.991	180.222	202.230	137.302	284.236	299.231	135.813	141.896	271.986	310.859	139.785	143.913	146.252	150.719	283.942	147.076	-8191	255	
1135.704	1	1	0	0	0.30256	0.12637	0.19871	0.11951	0.1008	0.29088	0.28616	0.23576	0.085698	0.19399	0.056572	0.15182	0.051785	0.41757	0.36372	0.10034	-0.65833	-1.4021	-0.78542	-1.4208	-1.4937	-0.675	-1.6146	-1.2375	-0.77917	-1.8229	-0.70417	-1.2229	-1.6354	-0.86875	-1.5333	-1.3083	336.554	144.109	140.095	160.468	415.229	226.436	452.957	441.626	262.490	286.942	369.857	414.985	384.415	482.369	387.983	473.285	0.000402	0.00055287	1.9429e-05	1116.5	5.9919e-06	4.2465e-06	741.69	370.87	6.1768e-06	6.4564e-06	268.8	95.972	135.34	47.684	7.9651e-06	38.418	0.0011912	0.0016424	0.00048353	1103.7	1.7805e-05	1.9276e-05	733.25	369.57	1.7475e-05	1.8631e-05	268.08	96.12	135.27	47.982	1.8559e-05	38.631	251.823	225.326	449.579	137.080	308.757	278.896	135.463	141.701	297.016	280.746	139.448	144.166	146.488	150.986	274.028	147.312	-8191	255	
1135.776	1	1	0	0	0.30747	0.31915	0.22107	0.16631	0.34644	0.25536	0.19084	0.18317	0.28593	0.21639	0.20523	0.22063	0.30192	0.31881	0.088938	0.14912	-0.28542	-1.7646	-0.875	-1.3875	-1.5146	-0.66458	-1.5708	-1.2812	-0.74583	-1.725	-1.0333	-1.1833	-1.6396	-0.91667	-1.4479	-1.3188	373.335	176.755	174.813	447.847	333.242	381.751	369.551	471.745	400.426	370.148	180.976	452.847	438.243	431.256	124.953	437.681	0.00042447	0.00065767	7.5844e-05	1112.1	6.9625e-06	5.1328e-06	743.37	371.21	3.2905e-06	3.7093e-06	266.99	96.671	135.45	48.424	3.7362e-06	39.098	0.0011873	0.001637	0.00047797	1102	1.7455e-05	1.8913e-05	734.5	370.05	1.7172e-05	1.9206e-05	268	96.607	135.87	48.863	1.8371e-05	39.317	250.033	171.031	216.543	137.258	312.635	273.722	135.911	142.053	279.910	299.234	139.792	144.191	146.489	150.845	249.746	147.410	-8191	255	
1135.872	1	1	0	0	0.027318	0.18316	0.21805	0.18183	0.18271	0.26744	0.23823	0.080974	0.071749	0.086264	0.05914	0.11561	0.1754	0.36337	0.22838	0.24397	-0.53333	-1.5792	-0.8625	-1.05	-1.6396	-0.93333	-1.6792	-1.4875	-0.85	-1.5229	-1.25	-1.0042	-1.9542	-0.95417	-1.3042	-1.5667	221.849	130.833	186.313	459.979	389.095	301.326	155.378	163.851	191.078	317.181	227.396	409.621	404.206	401.089	390.767	357.301	0.0005056	0.00053676	0.00018099	1111.6	3.2085e-06	3.5688e-06	744.73	371.95	4.9461e-06	4.7534e-06	273.11	98.534	137.31	49.35	8.1749e-06	40.245	0.0012504	0.0017841	0.00049913	1100.3	1.8045e-05	1.9723e-05	737.85	370.3	1.8022e-05	1.9709e-05	272.21	98.795	137.27	49.771	1.8697e-05	40.466	252.270	173.479	189.832	137.498	241.868	308.328	136.459	142.321	305.180	229.081	139.321	144.440	146.520	150.896	288.560	147.636	-8191	255	
1135.992	1	1	0	0	0.27385	0.32285	0.25484	0.17204	0.17631	0.048541	0.1445	0.249	0.10544	0.26999	0.075729	0.11713	0.339	0.26315	0.036754	0.2207	-0.34792	-1.675	-1.2708	-1.1604	-1.8604	-0.74792	-1.4396	-1.8146	-0.86875	-1.4062	-1.3042	-0.91042	-1.7542	-0.99167	-1.1021	-1.5708	417.654	301.828	236.563	174.221	369.359	128.728	382.833	425.162	220.050	436.324	476.419	388.314	195.172	438.569	425.624	437.348	0.00045815	0.0007497	5.5977e-05	1109.9	4.7186e-06	4.8725e-06	749.9	375.21	7.8267e-06	2.7575e-06	273.96	98.712	138.06	49.47	1.0185e-06	39.884	0.0012315	0.0018309	0.00049937	1102.6	1.8239e-05	2.0009e-05	742.84	373.57	1.7986e-05	1.9752e-05	273.77	99.145	138.32	49.797	1.9176e-05	40.33	252.902	215.957	254.058	137.424	353.890	230.858	136.223	141.929	276.412	340.005	139.877	144.559	146.274	150.975	278.308	147.512	-8191	255	
1136.087	1	1	0	0	0.1329	0.15722	0.21129	0.09621	0.26838	0.15454	0.083661	0.087473	0.080462	0.13239	0.035341	0.054084	0.21919	0.090627	0.13732	0.1609	-0.47708	-1.4375	-1.1708	-0.875	-1.3896	-1.0417	-1.2458	-1.6688	-0.70833	-1.3937	-1.1437	-0.79375	-1.5812	-1.1333	-0.87708	-1.6667	232.035	275.168	426.026	442.713	166.815	363.833	182.063	451.656	466.398	326.874	263.384	474.752	413.858	176.558	456.217	137.914	0.00047032	0.00083787	0.00012542	1122.9	9.3381e-06	2.2463e-06	751.72	375.32	7.0222e-06	6.0267e-06	273.67	100.57	138.62	49.71	4.5229e-06	40.064	0.0012627	0.0017878	0.00050086	1112.1	1.8612e-05	2.0208e-05	748.35	374.24	1.8721e-05	2.0191e-05	274.46	100.22	138.79	50.062	1.9395e-05	40.599	249.689	249.685	248.904	137.215	281.788	266.503	136.093	142.212	295.289	267.024	139.441	144.342	146.586	150.969	258.715	148.078	-8191	255	
1136.183	1	1	0	0	0.10893	0.099655	0.11538	0.40713	0.039253	0.12757	0.084198	0.20052	0.038655	0.12671	0.25233	0.073583	0.046894	0.29296	0.14268	0.12167	-0.30208	-1.1729	-1.2917	-0.86667	-1.7375	-1.0458	-1.1146	-1.8229	-0.79167	-1.2854	-1.6146	-0.70208	-1.45	-1.1083	-0.88333	-1.7583	408.248	266.209	150.955	463.034	230.619	243.782	364.966	386.848	262.237	320.884	329.624	278.023	149.151	424.285	331.044	394.868	0.00041715	0.0004044	0.00016642	1116.4	5.4394e-06	4.4347e-06	752.78	374.43	7.7327e-06	8.6981e-06	274.73	100.01	138.92	50.043	6.1619e-06	40.676	0.0012834	0.0018275	0.00051009	1108.5	1.9208e-05	2.0325e-05	745.41	373.1	1.8872e-05	1.9827e-05	274.84	100.03	138.91	50.331	1.9026e-05	40.831	253.340	179.910	217.624	137.588	230.987	281.182	135.933	142.474	300.315	233.316	139.331	144.726	146.758	151.167	294.506	148.055	-8191	255	
1136.303	1	1	0	0	0.11088	0.070703	0.068144	0.21828	0.12933	0.31587	0.4383	0.17467	0.20428	0.054755	0.13947	0.18451	0.34444	0.2669	0.21222	0.12416	-0.38958	-1.1187	-1.4292	-0.86042	-1.5771	-1.0583	-0.95208	-1.7229	-0.79375	-1.0479	-1.4312	-0.79792	-1.4875	-1.4708	-0.65417	-1.7313	315.675	159.299	377.408	441.303	442.407	166.474	430.800	438.581	221.599	362.870	437.068	406.300	448.364	452.318	412.011	434.917	0.0004439	0.00023754	5.9132e-05	1107.5	2.8028e-06	7.2276e-06	744.08	372.57	4.2242e-06	4.5747e-06	274.66	99.214	137.6	49.515	5.8609e-06	40.118	0.0012687	0.0017676	0.00049752	1100.5	1.8603e-05	1.9977e-05	739.55	371.27	1.8769e-05	2.0103e-05	272.99	99.275	137.81	49.893	1.9442e-05	40.31	253.696	241.184	192.110	137.392	276.113	287.540	136.047	142.173	284.582	231.353	139.806	144.549	146.753	151.350	296.156	147.204	-8191	255	
1136.375	1	1	0	0	0.10936	0.021188	0.30389	0.3758	0.068888	0.075858	0.22195	0.11352	0.27786	0.24345	0.17373	0.15832	0.29944	0.37973	0.30636	0.21879	-0.57708	-1.2188	-1.4688	-0.95	-1.3792	-1.2208	-0.66458	-1.8958	-0.9875	-0.88542	-1.8229	-0.66875	-1.4271	-1.4521	-0.63125	-1.7208	261.413	241.200	164.824	396.617	349.767	386.913	348.632	338.659	129.436	286.320	213.408	177.270	126.622	418.319	168.642	385.230	0.00044997	0.00051202	8.9928e-05	1104.5	8.1682e-06	3.7536e-06	741.41	369.86	5.0847e-06	2.8356e-06	270.19	98.208	136.68	48.987	5.9547e-06	39.52	0.001292	0.0018151	0.00050688	1097.3	1.9027e-05	2.0099e-05	735.21	370.07	1.8105e-05	1.9528e-05	270.41	98.165	136.78	49.445	1.8833e-05	39.996	252.101	221.112	172.223	137.455	299.435	267.507	136.129	142.462	309.164	273.639	139.753	144.688	146.922	151.153	279.726	147.972	-8191	255	
1136.471	1	1	0	0	0.1199	0.24988	0.12206	0.40696	0.20919	0.13839	0.053984	0.25889	0.1695	0.064243	0.13277	0.073386	0.045181	0.031487	0.075275	0.090138	-0.57292	-0.94167	-1.5521	-0.83542	-1.4479	-1.5	-0.92708	-1.8375	-1.0583	-0.88958	-1.7437	-0.84375	-1.2771	-1.8729	-0.78125	-1.4833	213.497	260.786	198.576	454.606	421.716	455.668	366.576	413.783	267.696	343.271	197.989	224.707	337.041	222.815	210.943	388.807	0.00039841	0.00033915	0.00012345	1104.5	7.3686e-06	7.2133e-06	743.27	373.76	5.8432e-06	5.1433e-06	272.11	99.015	137.63	49.427	4.8888e-06	39.999	0.0012263	0.0017462	0.00050411	1095.4	1.8623e-05	1.939e-05	737.95	371.21	1.816e-05	1.9377e-05	272.03	98.835	137.72	49.781	1.9258e-05	40.453	257.610	253.242	223.448	137.708	304.172	274.963	136.368	142.377	272.293	289.269	139.687	144.575	146.662	151.332	298.917	147.657	-8191	255	
1136.567	1	1	0	0	0.30804	0.24055	0.079237	0.12713	0.21577	0.28341	0.26341	0.52066	0.12623	0.16722	0.057628	0.041791	0.36254	0.197	0.25402	0.14354	-0.79583	-0.9125	-1.4813	-0.99583	-0.96875	-1.4354	-0.65833	-1.6646	-1.2	-0.89792	-1.7354	-1.1938	-1.1542	-1.6917	-0.77917	-1.6521	165.361	427.209	420.715	478.240	455.149	315.251	135.659	430.234	146.659	190.896	469.018	388.151	125.904	440.444	437.310	346.137	0.00045212	0.00067097	0.00013733	1117.6	5.2774e-06	2.7432e-06	755.28	374.79	4.3464e-06	7.7576e-06	275.95	100.04	138.33	49.554	5.4303e-06	40.492	0.0012574	0.0017458	0.00049015	1107.1	1.8071e-05	1.9227e-05	748.76	373.96	1.8057e-05	1.9364e-05	275.85	99.983	138.52	49.884	1.9144e-05	40.729	254.384	234.077	181.619	137.339	262.355	261.625	136.199	142.762	296.207	268.486	139.523	144.614	146.987	151.320	266.714	147.931	-8191	255	
1136.688	1	1	0	0	0.25709	0.2982	0.054617	0.077454	0.095414	0.2863	0.14943	0.19827	0.42179	0.059862	0.17389	0.18983	0.35859	0.11049	0.23551	0.23789	-0.825	-0.7375	-1.5208	-1.15	-0.95	-1.6479	-0.93542	-1.5375	-1.3479	-0.89792	-1.7333	-0.79792	-1.1187	-1.7625	-0.74583	-1.5042	308.411	439.164	458.110	366.867	307.568	368.743	144.227	385.373	483.042	230.249	476.022	400.539	157.698	412.053	386.902	189.967	0.00042663	0.00026883	0.0001164	1121.3	6.6301e-06	2.8807e-06	757.47	377.47	4.5892e-06	5.3175e-06	275.4	99.455	137.97	49.131	2.9857e-06	39.945	0.0012589	0.0017816	0.00049796	1113.6	1.7848e-05	1.9786e-05	750.32	375.52	1.7717e-05	1.9686e-05	275.7	99.295	137.89	49.545	1.838e-05	40.267	250.185	194.495	227.918	137.530	294.894	259.192	136.200	142.330	285.993	256.268	139.788	144.901	146.808	151.444	281.726	147.702	-8191	255	
1136.784	1	1	0	0	0.17682	0.055503	0.17109	0.12106	0.19044	0.29299	0.23793	0.19107	0.21152	0.12401	0.25067	0.32876	0.11006	0.17029	0.17362	0.17905	-1.0458	-0.68542	-1.7354	-1.3083	-0.85	-1.7125	-0.88333	-1.425	-1.5667	-0.75833	-1.7167	-1.1938	-1.0729	-1.8312	-0.88958	-1.0729	435.393	152.110	220.075	131.391	200.714	401.154	127.566	397.570	354.468	156.784	441.535	418.083	238.857	484.716	244.481	434.061	0.00047215	0.00058464	0.00014285	1121.6	4.7401e-06	5.7934e-06	750.12	374.75	5.2017e-06	4.9839e-06	273.8	98.001	137.31	48.927	7.1164e-06	39.441	0.0012365	0.0017948	0.00049359	1112.1	1.8345e-05	1.9442e-05	746.45	374.07	1.7915e-05	1.9632e-05	274	98.41	137.4	49.241	1.9025e-05	39.709	253.582	199.793	212.674	137.507	277.505	263.172	136.362	142.811	290.861	320.641	139.855	144.279	146.589	151.141	263.306	147.972	-8191	255	
1136.880	1	1	0	0	0.13023	0.11502	0.034203	0.037221	0.20871	0.0079578	0.136	0.23948	0.19151	0.061882	0.38907	0.10978	0.17513	0.16014	0.29906	0.16916	-1.3667	-0.79583	-1.5063	-1.4	-0.86667	-1.6854	-0.95417	-1.2229	-1.6521	-0.72917	-1.4667	-1.3375	-0.93542	-1.8438	-0.8375	-1.1542	313.209	210.878	202.959	352.510	475.703	417.996	289.190	461.099	220.411	209.601	153.213	392.658	419.008	274.877	385.897	370.447	0.00048971	0.00038454	5.9837e-05	1117.6	6.0931e-06	7.1572e-06	749.9	375.04	3.7309e-06	3.5955e-06	273.85	98.58	137.13	49.004	5.1331e-06	39.629	0.0012581	0.0017904	0.00050867	1110	1.8498e-05	2.0305e-05	743.46	373.51	1.8377e-05	2.0213e-05	273.88	98.91	137.57	49.424	1.9499e-05	40.02	251.091	255.594	285.746	137.445	303.977	285.430	136.264	142.527	283.022	262.973	139.839	144.300	146.853	151.487	263.043	147.941	-8191	255	
1136.977	1	1	0	0	0.28336	0.089061	0.43975	0.25428	0.18765	0.12416	0.058064	0.17937	0.25991	0.06648	0.19428	0.17291	0.5075	0.32869	0.21433	0.23819	-1.2104	-0.8125	-1.3708	-1.4292	-0.82292	-1.5729	-0.86667	-0.97917	-1.65	-0.73333	-1.4208	-1.5833	-0.80833	-1.575	-1.1521	-1.0333	190.231	483.698	150.003	450.598	186.470	241.278	409.967	345.521	337.505	174.676	484.617	135.107	451.283	432.083	257.961	475.276	0.0004427	0.00046144	0.00015625	1118.2	7.8325e-06	3.0444e-06	750.22	374.93	7.8548e-06	7.0301e-06	273.5	99.577	138.54	49.166	7.2105e-06	39.9	0.0012863	0.0018512	0.00050522	1107.1	1.8896e-05	2.0029e-05	742.87	373.27	1.8794e-05	2.0659e-05	273.28	99.246	138.32	49.685	1.9728e-05	40.169	256.487	208.028	181.374	137.651	276.762	290.176	136.502	142.832	263.148	229.156	139.920	144.598	147.036	151.758	274.461	148.301	-8191	255	
1137.073	1	1	0	0	0.29745	0.38873	0.07454	0.18666	0.21454	0.17084	0.070815	0.2765	0.24412	0.11414	0.14754	0.13637	0.24236	0.36551	0.1487	0.22095	-1.3312	-0.82083	-1.1604	-1.6437	-0.75208	-1.5312	-1.2375	-0.94167	-1.4646	-1.0375	-1.2104	-1.5021	-0.97708	-1.4583	-0.99792	-0.81875	369.992	259.180	331.435	184.349	455.348	182.120	248.964	403.482	461.184	283.842	463.798	483.462	474.943	448.767	245.938	449.503	0.00043979	0.00061621	8.0359e-05	1118.4	4.5346e-06	3.1148e-06	748.1	375.62	4.7193e-06	9.5937e-06	272.93	99.822	138.68	49.547	5.7465e-06	40.464	0.001275	0.0018166	0.00049987	1106.5	1.8695e-05	2.037e-05	745.13	373.84	1.9158e-05	2.0547e-05	273.71	99.837	138.8	50.005	1.9052e-05	40.669	246.618	172.793	248.918	137.745	282.948	271.222	136.153	142.646	266.107	289.892	140.316	144.622	147.067	151.659	277.110	148.048	-8191	255	
1137.167	1	1	0	0	0.078816	0.09323	0.03938	0.28451	0.21448	0.17425	0.030576	0.31388	0.17792	0.05698	0.19373	0.24038	0.062008	0.1525	0.17688	0.14363	-1.1854	-0.88125	-1.1396	-1.6479	-0.58542	-1.4396	-1.2479	-1.0208	-1.5854	-0.86875	-1.3354	-1.6542	-1.1187	-1.5104	-1.2437	-0.68125	201.077	202.210	200.131	484.467	342.415	269.413	217.277	449.578	391.044	406.704	394.373	422.960	156.280	355.472	427.237	396.983	0.00049564	0.00065645	7.2551e-05	1114	5.8136e-06	5.8926e-06	744.66	373.8	5.5019e-06	4.1345e-07	272.67	99.549	138.17	49.897	8.2036e-06	40.64	0.001289	0.0018342	0.00049942	1102.8	1.9119e-05	2.0082e-05	740.94	372.43	1.8551e-05	2.0083e-05	273.05	99.743	138.36	50.229	1.9258e-05	40.765	250.390	200.161	211.618	137.711	261.703	317.267	136.325	143.203	282.904	313.904	140.240	144.230	147.247	151.975	274.338	148.901	-8191	255	
1137.265	1	1	0	0	0.37974	0.014717	0.057039	0.043949	0.23682	0.21767	0.19601	0.25497	0.020366	0.16854	0.038622	0.11451	0.16101	0.054916	0.32946	0.49513	-1.2083	-0.86667	-0.8875	-1.6646	-0.8625	-1.4208	-1.5229	-0.8375	-1.6917	-1.3396	-0.8375	-1.8042	-1.0812	-1.4979	-1.3458	-0.85833	476.095	469.632	133.338	402.330	214.879	165.525	148.771	422.400	211.215	221.860	483.384	222.557	127.436	420.006	407.622	420.636	0.00046276	0.00047844	6.1648e-05	1103.6	1.5406e-06	7.5124e-06	741.01	372.09	6.1501e-06	2.1706e-06	272.38	99.375	137.85	50.039	8.6262e-06	40.658	0.0012838	0.0018363	0.00050678	1093.9	1.9019e-05	2.0048e-05	734.46	370.45	1.9022e-05	2.0302e-05	272.39	99.456	138.1	50.419	1.9396e-05	40.803	247.828	193.698	155.455	137.251	271.163	277.871	135.697	142.283	307.460	222.796	139.557	144.335	146.600	151.198	302.464	147.227	-8191	255	
1137.384	1	1	0	0	0.13672	0.066811	0.047802	0.27293	0.13722	0.065416	0.041334	0.20426	0.37409	0.16855	0.31356	0.024809	0.32671	0.10923	0.20322	0.054852	-1.075	-1.1375	-0.6125	-1.6542	-0.85417	-1.1688	-1.6688	-0.84583	-1.2521	-1.0979	-1.0458	-1.8792	-1.1083	-1.3146	-1.5458	-0.71042	169.073	453.623	253.429	476.466	212.602	294.658	213.967	405.281	422.147	476.363	378.438	380.531	169.973	465.038	375.890	352.535	0.00040351	0.00072625	0.00013249	1100.2	4.804e-06	1.9885e-06	741.2	371.25	6.4271e-06	3.9803e-06	272.5	99.549	138.28	50.194	5.0741e-06	40.651	0.0013019	0.0018482	0.00052696	1090	1.9331e-05	2.0354e-05	736.19	370.37	1.8953e-05	2.062e-05	272.75	99.694	138.35	50.6	2.0356e-05	41.024	254.862	197.763	204.359	137.303	304.430	286.323	136.106	142.253	285.679	328.892	139.795	144.321	146.418	151.119	275.009	147.585	-8191	255	
1137.480	1	1	0	0	0.17254	0.23222	0.056314	0.32747	0.1711	0.057286	0.23783	0.48792	0.097632	0.11608	0.16756	0.084028	0.46434	0.1992	0.12144	0.17632	-1.0604	-1.1479	-0.90417	-1.8563	-0.94167	-1.1521	-1.6	-0.99792	-1.3792	-1.4542	-0.97292	-1.6021	-1.1	-1.2771	-1.5875	-0.90625	367.498	201.413	194.633	448.415	293.510	256.079	177.353	437.481	386.429	256.536	386.960	422.780	462.312	363.322	265.544	334.331	0.00046179	0.00018473	0.00024165	1103.5	5.7548e-06	5.6373e-06	746.5	373.95	7.5523e-06	4.5494e-06	276.28	100.95	138.9	50.452	5.7227e-06	40.847	0.001327	0.0018682	0.0005251	1096	1.9153e-05	2.0223e-05	740.27	371.67	1.9205e-05	2.0602e-05	275.13	100.75	139.12	50.896	2.0108e-05	41.245	251.381	207.455	202.376	137.300	275.536	255.930	136.028	142.308	267.530	236.066	139.782	144.448	146.481	151.550	272.690	147.466	-8191	255	
1137.576	1	1	0	0	0.11092	0.20171	0.30827	0.035848	0.1191	0.084121	0.25297	0.28852	0.18183	0.08888	0.096514	0.15501	0.42838	0.10781	0.17172	0.092133	-0.84792	-1.4354	-0.50208	-1.8271	-0.91458	-1.0917	-1.7646	-0.99167	-1.4229	-1.5125	-0.70833	-1.5792	-1.3042	-0.99375	-1.6875	-1.0146	369.008	375.043	454.596	479.913	233.042	270.092	154.044	444.691	168.807	255.248	378.821	273.252	382.728	267.088	196.351	480.723	0.00043802	0.00025931	0.00016291	1120.4	7.6162e-06	6.4139e-06	753.67	377.81	4.2541e-06	4.6134e-06	278.08	101.48	139.94	50.306	8.6756e-06	40.983	0.0013201	0.001845	0.00052063	1107.9	1.914e-05	2.0262e-05	749.1	375.31	1.8666e-05	2.0567e-05	277.86	101.51	140.16	50.892	1.9616e-05	41.404	251.320	222.780	208.547	137.662	270.953	252.313	136.112	142.509	310.149	258.399	139.820	144.366	146.608	151.254	284.413	147.414	-8191	255	
1137.672	1	1	0	0	0.36651	0.29489	0.098997	0.34452	0.14348	0.36821	0.029359	0.27146	0.077749	0.22089	0.22151	0.070789	0.21812	0.18758	0.063727	0.19018	-0.91667	-1.2271	-0.7	-1.5083	-1.15	-0.90625	-1.6708	-0.82292	-1.2125	-1.3937	-0.86667	-1.4896	-1.3083	-0.91458	-1.5667	-1.1167	290.453	469.617	367.841	431.890	448.238	205.960	454.966	365.428	217.314	372.653	450.587	222.962	474.637	364.585	353.463	356.223	0.00045713	0.00062177	0.00019177	1119.1	5.1757e-06	3.8892e-06	761.28	377.51	6.6217e-06	7.4194e-06	279.83	101.79	140.2	50.445	4.9652e-06	41.231	0.0012824	0.0018338	0.00052487	1109.8	1.8694e-05	1.9896e-05	754.85	376.04	1.884e-05	2.0439e-05	278.87	101.32	140.34	50.937	1.9722e-05	41.404	250.160	196.248	219.116	137.335	272.832	275.473	136.124	142.262	292.523	262.673	139.660	144.622	146.447	151.164	259.268	147.641	-8191	255	
1137.768	1	1	0	0	0.24392	0.24537	0.24054	0.33118	0.29613	0.066742	0.090611	0.10856	0.14285	0.22167	0.22632	0.1694	0.033515	0.28737	0.15047	0.17236	-0.78125	-1.5854	-0.80833	-1.7333	-1.2625	-0.92083	-1.8229	-1.0458	-0.98125	-1.7417	-0.89792	-1.4083	-1.3604	-0.675	-1.5229	-1.2417	133.658	140.550	126.546	400.978	479.011	186.087	406.144	133.566	409.868	473.969	445.027	172.951	354.214	414.463	451.565	149.684	0.00049479	0.00069382	0.00014103	1119.8	5.29e-06	2.963e-06	763.48	376.88	5.6018e-06	6.2923e-06	277.02	101.24	139.36	50.296	7.756e-06	41.137	0.0012986	0.0018426	0.00052584	1109.6	1.9019e-05	2.0651e-05	753.37	375.1	1.9062e-05	2.058e-05	277.07	101.03	139.67	50.823	1.9363e-05	41.257	250.722	216.831	249.519	137.608	290.015	266.852	136.402	142.412	295.262	300.991	139.553	144.666	146.569	151.196	314.985	147.897	-8191	255	
1137.865	1	1	0	0	0.21552	0.067448	0.085756	0.2095	0.29186	0.044826	0.20639	0.14103	0.094929	0.25385	0.011511	0.048176	0.01018	0.14021	0.21958	0.16275	-0.5375	-1.6854	-0.7875	-1.4854	-1.2875	-0.74583	-1.6896	-1.2313	-0.93333	-1.7687	-0.95	-1.2354	-1.6271	-0.80208	-1.4208	-1.2604	155.469	214.472	419.167	384.520	234.511	290.398	365.783	439.061	374.516	404.240	249.627	125.446	427.081	135.391	309.507	324.464	0.000439	0.00062779	0.00016153	1116.2	5.5683e-06	7.3164e-06	756.51	377.43	3.7669e-06	6.1057e-06	276.57	101.1	140.39	50.685	7.1496e-06	41.112	0.0013138	0.0018809	0.00053323	1107.6	1.9386e-05	2.1135e-05	750.84	375.1	1.9452e-05	2.0904e-05	276.5	101.4	140.3	51.063	2.0018e-05	41.464	250.038	204.560	181.561	137.790	293.291	268.798	136.375	142.565	312.070	272.907	139.579	144.203	146.772	151.094	313.294	147.516	-8191	255	
1137.985	1	1	0	0	0.21015	0.25601	0.20381	0.1649	0.036663	0.19521	0.29807	0.129	0.094427	0.12583	0.19307	0.16937	0.43233	0.50693	0.11184	0.31727	-0.45208	-1.5688	-0.66667	-1.2563	-1.5958	-0.64375	-1.6521	-1.2896	-0.89583	-1.7313	-0.8375	-1.2083	-1.9688	-0.84583	-1.4729	-1.5667	348.993	315.846	280.419	400.006	330.242	472.673	424.940	396.425	209.720	410.268	156.098	124.937	453.406	401.818	355.562	464.444	0.00049117	0.0003379	0.00023141	1119.5	3.9203e-06	6.4861e-06	763.26	378.04	4.4417e-06	1.1825e-06	279.91	101.15	140.61	50.627	2.8194e-06	41.529	0.0013248	0.0018898	0.00053658	1107.9	1.9538e-05	2.1394e-05	753.25	376.02	1.9691e-05	2.0808e-05	278.47	101.59	140.81	51.192	2.0477e-05	41.842	252.853	203.051	228.924	137.725	300.591	276.591	136.689	142.813	284.064	159.928	140.018	144.589	146.814	151.723	303.873	147.846	-8191	255	
1138.080	1	1	0	0	0.05785	0.051311	0.08607	0.24098	0.082241	0.19932	0.23284	0.39781	0.17402	0.21054	0.16891	0.11257	0.37863	0.42577	0.10795	0.023262	-0.33125	-1.5187	-0.82917	-1.1042	-1.6167	-0.72708	-1.2771	-1.6021	-0.80208	-1.4146	-1.1333	-1.0458	-1.5646	-0.90625	-1.2396	-1.3979	401.326	158.097	242.854	126.859	340.131	374.610	376.663	461.082	141.385	168.117	124.460	133.660	397.268	443.894	224.674	401.655	0.00046489	0.0004215	0.00011916	1115.2	6.5313e-06	5.6707e-06	759.88	377.25	4.0443e-06	1.3406e-06	278.03	101.27	140.2	50.686	4.5253e-06	41.145	0.0013625	0.0019231	0.00054237	1107.2	1.9869e-05	2.1218e-05	752.51	375.35	2.0124e-05	2.1591e-05	278.1	101.99	140.4	51.155	2.0161e-05	41.581	253.405	171.095	168.881	137.739	283.716	269.801	135.758	142.208	283.758	274.026	139.533	144.678	146.566	151.049	286.427	147.546	-8191	255	
1138.176	1	1	0	0	0.27691	0.15488	0.066392	0.28769	0.11262	0.19105	0.2354	0.17977	0.011701	0.03943	0.014027	0.27674	0.10499	0.1967	0.091813	0.27167	-0.39792	-1.6146	-1.0417	-0.90833	-1.65	-0.97292	-1.2	-1.7417	-0.69583	-1.4	-1.2271	-0.86875	-1.7479	-0.99375	-1.1667	-1.5812	340.752	150.173	148.881	420.558	447.506	409.189	466.143	391.957	370.855	466.517	189.173	483.616	228.549	235.485	218.732	437.036	0.00048613	0.00047382	0.00023806	1112.4	3.9406e-06	3.3756e-06	749.53	376.05	4.18e-06	3.984e-06	275.02	100.9	139.43	50.649	3.6458e-06	41.006	0.0013374	0.0018859	0.00053032	1101	1.9701e-05	2.1294e-05	745.25	373.77	1.944e-05	2.073e-05	274.82	100.94	139.27	50.942	2.0403e-05	41.223	248.909	209.246	176.814	137.628	272.310	263.690	136.408	142.345	277.376	252.814	140.187	144.452	146.793	151.619	268.310	147.553	-8191	255	
1138.249	1	1	0	0	0.28968	0.19676	0.1101	0.23743	0.2861	0.12029	0.27274	0.41213	0.12003	0.048447	0.19503	0.2585	0.075611	0.20073	0.10978	0.19125	-0.34583	-1.6	-1.2354	-1.0271	-1.5896	-1.075	-1.1854	-1.7708	-0.68333	-1.4667	-1.3083	-0.73333	-1.7083	-0.96458	-0.83125	-1.7167	411.743	356.924	171.180	152.640	184.452	189.659	226.946	419.865	223.492	362.990	263.710	432.184	397.031	423.975	164.438	216.049	0.0004546	0.00026036	7.5528e-05	1103.5	3.5196e-06	4.0381e-06	750.78	373.8	6.4993e-06	1.6466e-06	274.56	100.38	139.38	50.6	4.872e-06	41.046	0.0013239	0.0018486	0.00053065	1096.7	1.9426e-05	2.1168e-05	742.07	372.22	1.9468e-05	2.0575e-05	274.97	100.51	139.31	50.891	1.9941e-05	41.35	249.909	216.878	205.975	137.430	290.237	261.412	136.393	142.813	290.096	295.603	139.939	144.371	146.618	151.186	286.528	147.702	-8191	255	
1138.368	1	1	0	0	0.13727	0.06045	0.21547	0.13238	0.34454	0.17169	0.3887	0.1794	0.38404	0.094907	0.17801	0.093166	0.13686	0.092844	0.16092	0.05271	-0.28542	-1.4125	-1.3271	-0.95	-1.5542	-1.15	-0.9125	-1.7375	-0.82292	-1.4354	-1.4292	-0.84792	-1.5021	-1.175	-0.85417	-1.8583	202.182	399.882	465.498	477.112	459.104	126.938	392.520	456.716	171.001	410.971	447.904	414.901	454.804	264.009	137.001	394.480	0.0005404	0.00076121	0.00015427	1098.9	6.5671e-06	1.9637e-06	756.03	372.16	5.7836e-06	2.7386e-06	275.73	100.72	139.17	50.501	7.0902e-06	40.82	0.0013394	0.001907	0.00052817	1093.8	1.9482e-05	2.0475e-05	744.39	371.86	1.8957e-05	2.0109e-05	275.61	100.73	139.16	50.835	1.9732e-05	41.14	249.802	202.929	269.111	137.581	288.257	298.051	135.947	142.414	281.814	331.736	139.886	144.283	146.959	150.997	267.408	147.838	-8191	255	
1138.464	1	1	0	0	0.17338	0.10247	0.27243	0.15024	0.032224	0.222	0.035633	0.34475	0.14568	0.19391	0.17012	0.044422	0.16785	0.11899	0.045205	0.2725	-0.53542	-1.3667	-1.3208	-0.98542	-1.675	-1.2771	-1.0521	-1.8271	-1.0146	-1.1604	-1.5604	-0.88333	-1.6938	-1.3979	-0.72083	-1.6521	468.852	358.352	420.120	410.063	353.737	339.054	292.372	484.439	368.663	219.656	332.973	132.467	453.109	170.100	319.696	388.857	0.00045342	0.00079925	0.00018481	1110.9	2.3867e-06	6.9659e-06	758.39	375.79	3.3088e-06	7.4616e-06	276.78	101.05	138.27	49.6	2.8624e-06	40.472	0.001305	0.0018048	0.00051966	1103.4	1.8936e-05	2.0381e-05	749.67	374.01	1.9238e-05	2.0587e-05	276.61	100.45	138.74	50.184	1.9867e-05	40.813	250.136	209.134	196.618	137.560	238.832	290.992	136.301	142.584	289.058	319.920	139.913	144.474	146.640	151.277	273.298	147.804	-8191	255	
1138.560	1	1	0	0	0.31523	0.23601	0.38994	0.2287	0.2182	0.10896	0.15688	0.35856	0.094726	0.03792	0.1534	0.22529	0.13053	0.17566	0.18069	0.059704	-0.475	-1.1812	-1.6792	-0.77708	-1.4188	-1.2896	-0.8375	-1.7354	-0.88542	-0.925	-1.5792	-0.67708	-1.5063	-1.5083	-0.74167	-1.6917	470.421	450.626	393.630	128.020	406.462	145.911	386.180	436.603	138.601	137.754	418.611	431.702	387.454	438.381	464.404	269.215	0.00045318	0.00057841	0.0001627	1120.7	5.0691e-06	4.01e-06	755.19	377.06	4.2041e-06	5.8871e-06	276.69	99.582	139.33	49.751	7.7419e-06	40.419	0.0012913	0.0018678	0.00052574	1112.1	1.9037e-05	2.0943e-05	751.26	375.53	1.8934e-05	2.1101e-05	277.5	99.984	139.04	50.205	2.0546e-05	40.671	252.501	198.895	214.537	137.628	315.650	293.755	136.189	142.518	270.864	276.665	139.640	144.640	146.693	151.210	286.584	147.827	-8191	255	
1138.657	1	1	0	0	0.040364	0.13961	0.1426	0.394	0.12542	0.18205	0.11056	0.30833	0.11981	0.13355	0.1381	0.076519	0.20977	0.24445	0.10614	0.18999	-0.64375	-0.85833	-1.55	-0.97083	-1.3708	-1.5354	-0.74167	-1.6833	-0.89792	-0.87083	-1.7208	-0.69375	-1.5667	-1.3958	-0.61875	-1.6854	201.819	280.446	349.827	437.036	324.198	397.067	177.387	429.816	194.634	138.550	393.941	240.603	421.481	457.478	457.835	420.774	0.00043622	0.00087608	7.687e-05	1122.4	9.9994e-06	7.2269e-06	755.58	376	8.5635e-06	2.2854e-06	276.4	98.977	137.82	49.698	3.7653e-06	39.972	0.0013407	0.0019076	0.00052659	1113.6	1.9326e-05	2.1129e-05	751.01	375.35	1.9537e-05	2.1356e-05	276.15	99.463	138.51	50.165	2.0763e-05	40.268	249.276	179.514	238.818	137.481	312.926	289.071	135.835	142.486	284.109	282.902	139.290	144.427	147.049	151.448	306.323	147.759	-8191	255	
1138.777	1	1	0	0	0.39868	0.12441	0.17363	0.47937	0.10285	0.032513	0.15893	0.058821	0.17147	0.12558	0.16781	0.19433	0.22433	0.15473	0.048335	0.21888	-0.7	-0.73125	-1.4813	-0.82083	-1.225	-1.4125	-0.89167	-1.6292	-1.1896	-0.75625	-1.6125	-0.87708	-1.1917	-1.8563	-0.86458	-1.4813	149.570	382.958	460.560	460.770	265.575	435.441	125.756	164.924	304.154	329.945	456.864	390.784	483.245	482.326	222.866	410.481	0.00048016	0.00046855	0.00015302	1121.8	2.1372e-06	1.0146e-06	753.78	376.08	5.739e-06	6.3647e-06	275.09	97.522	137.38	48.614	4.9343e-06	39.08	0.0013283	0.0019289	0.00054636	1113.6	1.93e-05	2.1162e-05	749.1	374.43	1.9499e-05	2.0979e-05	274.03	98.253	137.68	49.145	2.0453e-05	39.394	257.262	208.504	225.923	137.681	286.903	270.308	136.187	142.545	300.109	251.131	139.901	144.675	146.843	151.392	169.581	147.908	-8191	255	
1138.873	1	1	0	0	0.14772	0.31629	0.10102	0.26802	0.019882	0.19092	0.19414	0.378	0.031715	0.31318	0.073955	0.059924	0.22664	0.28318	0.13213	0.30631	-0.83125	-0.8875	-1.5708	-1.0625	-1.325	-1.6229	-0.8125	-1.5771	-1.3417	-0.88958	-1.7188	-0.95625	-1.0917	-1.7437	-0.77917	-1.3604	258.086	143.502	201.357	354.652	364.362	428.431	128.855	418.311	392.674	455.455	187.938	257.827	444.586	393.951	381.700	333.441	0.00044884	0.00043479	0.00011492	1122.4	3.9187e-06	4.6799e-06	749.17	372.62	5.1586e-06	6.8003e-06	270.65	97.397	136.97	48.457	5.6581e-06	38.921	0.0013092	0.0019139	0.00053991	1111.4	1.9788e-05	2.1432e-05	743.32	372.36	1.9945e-05	2.1497e-05	272.26	97.871	137.3	48.784	2.0304e-05	39.241	255.222	182.885	206.301	137.719	281.341	298.936	136.442	142.518	305.298	293.820	139.848	144.389	146.745	151.424	308.280	147.793	-8191	255	
1138.945	1	1	0	0	0.051086	0.019903	0.031244	0.21998	0.11141	0.090897	0.31693	0.22745	0.14669	0.14181	0.1278	0.40923	0.21506	0.28649	0.17843	0.19219	-0.97083	-0.7375	-1.7125	-1.15	-1.0458	-1.8375	-0.99583	-1.525	-1.5125	-0.83958	-1.6375	-1.3854	-1.025	-1.6479	-0.71667	-1.3	329.119	359.294	169.564	150.339	183.834	359.290	451.092	370.284	468.811	356.386	222.014	435.808	382.455	172.890	197.551	282.806	0.00038273	0.00066503	0.00011618	1123.5	5.0185e-06	6.417e-06	748.93	375.35	5.4592e-06	2.0495e-06	271.5	96.819	135.94	48.063	5.4877e-06	38.68	0.0013201	0.0019436	0.00053938	1111.6	1.9731e-05	2.1398e-05	742.71	373.07	1.9695e-05	2.183e-05	272.14	97.363	136.35	48.613	2.0776e-05	39.027	250.360	220.198	216.727	137.435	285.607	304.045	136.442	142.669	302.756	349.420	140.074	144.383	147.213	151.787	277.895	148.388	-8191	255	
1139.066	1	1	0	0	0.20322	0.065905	0.19007	0.20914	0.11084	0.071006	0.26034	0.15731	0.19383	0.19639	0.14834	0.3107	0.28294	0.2171	0.057905	0.25488	-1.0625	-0.77292	-1.2458	-1.2021	-0.93542	-1.5187	-1.1604	-1.2646	-1.4937	-0.92292	-1.6479	-1.45	-1.0375	-1.5938	-1.0792	-1.1354	322.383	401.577	232.729	416.918	125.024	353.089	456.189	380.433	299.549	349.365	394.546	161.165	402.026	402.134	150.320	447.490	0.00044734	0.00056089	0.00020558	1117.9	6.6314e-06	6.4742e-06	745.48	372.82	6.0419e-06	3.8949e-06	269.84	95.905	134.82	47.425	7.4957e-06	37.717	0.0013672	0.0019643	0.00054247	1108.3	2.0603e-05	2.1333e-05	737.95	371.52	2.0166e-05	2.1424e-05	269.3	96.284	135.47	47.924	2.0824e-05	38.038	253.022	215.529	183.853	137.732	276.517	290.034	136.292	142.675	305.638	330.737	140.115	144.756	146.992	151.624	274.450	147.979	-8191	255	
1139.160	1	1	0	0	0.13506	0.29645	0.1859	0.29604	0.29203	0.10296	0.16883	0.12185	0.23126	0.15681	0.34441	0.15699	0.27236	0.27517	0.27301	0.2306	-1.1063	-0.76875	-1.2771	-1.4646	-0.76875	-1.6083	-1.0833	-1.1729	-1.5479	-0.7625	-1.2625	-1.4208	-0.99167	-1.7646	-1.1208	-1.0396	151.915	222.973	286.077	432.914	355.353	325.331	362.018	406.761	235.318	238.626	468.302	135.813	441.338	132.476	224.873	405.582	0.00036117	0.0003356	0.00015876	1104.8	6.1138e-06	4.6375e-06	735.24	369.51	2.7255e-06	4.9201e-06	264.27	94.258	134.18	46.94	3.7572e-06	37.155	0.0013289	0.001932	0.0005486	1098.9	2.011e-05	2.11e-05	727.27	367.54	1.9821e-05	2.1106e-05	264.3	94.201	134.02	47.322	2.0605e-05	37.439	249.447	203.913	196.515	137.871	271.364	320.522	136.325	142.831	303.011	258.886	140.565	144.920	147.205	151.822	286.619	148.439	-8191	255	
1139.256	1	1	0	0	0.23826	0.10975	0.25309	0.27272	0.14345	0.13415	0.35337	0.22131	0.026506	0.037401	0.12218	0.26098	0.30647	0.14641	0.24856	0.14275	-1.3	-0.84583	-1.3354	-1.6562	-0.69792	-1.5271	-1.1625	-1.2083	-1.5979	-0.88125	-1.2125	-1.4583	-0.84375	-1.7021	-1.2437	-1.0458	413.956	273.826	145.365	477.724	484.687	311.223	369.222	482.136	446.290	201.436	143.504	409.185	452.531	472.209	349.093	455.339	0.00042325	0.00061392	2.0317e-05	1106.8	4.2628e-06	4.4383e-06	728.61	368.17	5.8605e-06	3.2565e-07	263.31	93.855	133.77	46.865	2.7656e-06	37.172	0.0013359	0.0019553	0.00053927	1094.2	2.0277e-05	2.1282e-05	723.52	365.74	1.9222e-05	2.1166e-05	262.9	93.973	133.62	47.298	2.0236e-05	37.516	255.056	212.463	251.125	137.668	271.756	224.492	136.316	142.970	299.121	182.577	140.488	144.863	147.315	152.144	285.210	148.300	-8191	255	
1139.352	1	1	0	0	0.25716	0.22738	0.1135	0.23032	0.33774	0.11426	0.10753	0.17395	0.36263	0.27821	0.038778	0.14668	0.1315	0.28953	0.27213	0.18672	-1.3729	-0.675	-1.1833	-1.7771	-0.55417	-1.3687	-1.4167	-1.0083	-1.5479	-0.79792	-1.175	-1.4479	-0.91042	-1.4958	-1.2729	-0.94167	257.503	221.513	333.042	364.048	134.734	313.406	290.867	483.510	311.010	287.745	480.594	230.618	408.236	154.936	372.617	451.443	0.00045338	0.00052306	0.00016734	1098	6.6364e-06	6.3372e-06	729.04	367.78	4.874e-06	1.6997e-06	265.01	94.039	134.16	46.953	7.8095e-06	37.455	0.0012894	0.0018988	0.00053527	1089.9	1.9661e-05	2.046e-05	722.42	366.39	1.8902e-05	2.0518e-05	264.63	94.442	134	47.546	2.0228e-05	37.81	252.571	200.808	212.434	137.133	311.944	253.598	136.134	142.612	294.401	401.943	139.795	144.317	146.452	151.527	259.582	147.526	-8191	255	
1139.473	1	1	0	0	0.16731	0.16316	0.2712	0.096587	0.077079	0.19968	0.3823	0.099704	0.28169	0.054402	0.12158	0.11233	0.077899	0.03367	0.16365	0.3262	-1.2708	-0.79375	-0.87917	-1.6187	-0.79583	-1.4229	-1.3188	-1.0521	-1.5083	-1.1896	-1.1042	-1.7437	-0.90417	-1.3979	-1.5979	-0.80208	347.189	424.655	311.537	337.011	134.433	326.051	368.296	423.145	178.862	241.711	433.681	438.759	439.426	179.972	395.267	398.708	0.00042293	0.00089849	0.00025611	1107.4	5.8355e-06	1.4502e-06	737.12	369.34	4.6924e-06	6.7726e-06	266.32	95.11	134.66	47.369	7.8992e-06	37.72	0.0012892	0.0018638	0.00052316	1099.1	1.936e-05	2.0881e-05	730.05	367.84	1.8975e-05	2.059e-05	266.66	95.293	134.92	47.86	1.9878e-05	38.111	244.563	200.066	230.885	137.497	282.555	239.220	136.159	142.558	267.233	265.272	139.796	144.249	146.809	151.320	291.394	147.680	-8191	255	
#DATA ENDS
