BOXY.EXE: ISS Imagent and Oximeter Data Acquisition Program Version 0.80
Ascii Record File

#ACQ INFORMATION
2  Detector Channels 
16  External MUX Channels 
1  Auxiliary Channels 
5000  Waveform (CCF) Frequency (Hz)
1  Waveforms Skipped 
30  Waveforms Averaged 
1  Cycles Averaged 
16  Acquisitions per Waveform 
10.0806  Updata Rate (Hz) 

#FILE INFORMATION
TRUE -- External MUX Channel results are PARSED.
FALSE -- AC DC and Phase are NOT grouped.
TRUE -- Companion Program Settings File CREATED.
FALSE -- AC data not excluded
FALSE -- DC data not excluded
FALSE -- Phase data not excluded
FALSE -- Auxillary Chn. data not excluded
Tab delimiters

#CALIBRATION STATE
TRUE -- Waveform Calibration Values APPLIED.


#AUX CALIBRATION VALUES
Val Type	aux-1	

Term	1.0000e+00	
Factor	0.0000e+00	


#WF CALIBRATION VALUES
A = Detector Channel
Val Type	A-AC1	A-AC2	A-AC3	A-AC4	A-AC5	A-AC6	A-AC7	A-AC8	A-AC9	A-AC10	A-AC11	A-AC12	A-AC13	A-AC14	A-AC15	A-AC16	A-DC1	A-DC2	A-DC3	A-DC4	A-DC5	A-DC6	A-DC7	A-DC8	A-DC9	A-DC10	A-DC11	A-DC12	A-DC13	A-DC14	A-DC15	A-DC16	A-Ph1	A-Ph2	A-Ph3	A-Ph4	A-Ph5	A-Ph6	A-Ph7	A-Ph8	A-Ph9	A-Ph10	A-Ph11	A-Ph12	A-Ph13	A-Ph14	A-Ph15	A-Ph16	

Term	0.00000e+00	0.00000e+00	0.00000e+00	0.00000e+00	0.00000e+00	0.00000e+00	0.00000e+00	0.00000e+00	0.00000e+00	0.00000e+00	0.00000e+00	0.00000e+00	0.00000e+00	0.00000e+00	0.00000e+00	0.00000e+00	0.00000e+00	0.00000e+00	0.00000e+00	0.00000e+00	0.00000e+00	0.00000e+00	0.00000e+00	0.00000e+00	0.00000e+00	0.00000e+00	0.00000e+00	0.00000e+00	0.00000e+00	0.00000e+00	0.00000e+00	0.00000e+00	0.00000e+00	0.00000e+00	0.00000e+00	0.00000e+00	0.00000e+00	0.00000e+00	0.00000e+00	0.00000e+00	0.00000e+00	0.00000e+00	0.00000e+00	0.00000e+00	0.00000e+00	0.00000e+00	0.00000e+00	0.00000e+00	
Factor	1.00000e+00	1.00000e+00	1.00000e+00	1.00000e+00	1.00000e+00	1.00000e+00	1.00000e+00	1.00000e+00	1.00000e+00	1.00000e+00	1.00000e+00	1.00000e+00	1.00000e+00	1.00000e+00	1.00000e+00	1.00000e+00	1.00000e+00	1.00000e+00	1.00000e+00	1.00000e+00	1.00000e+00	1.00000e+00	1.00000e+00	1.00000e+00	1.00000e+00	1.00000e+00	1.00000e+00	1.00000e+00	1.00000e+00	1.00000e+00	1.00000e+00	1.00000e+00	X	X	X	X	X	X	X	X	X	X	X	X	X	X	X	X	

B = Detector Channel
Val Type	B-AC1	B-AC2	B-AC3	B-AC4	B-AC5	B-AC6	B-AC7	B-AC8	B-AC9	B-AC10	B-AC11	B-AC12	B-AC13	B-AC14	B-AC15	B-AC16	B-DC1	B-DC2	B-DC3	B-DC4	B-DC5	B-DC6	B-DC7	B-DC8	B-DC9	B-DC10	B-DC11	B-DC12	B-DC13	B-DC14	B-DC15	B-DC16	B-Ph1	B-Ph2	B-Ph3	B-Ph4	B-Ph5	B-Ph6	B-Ph7	B-Ph8	B-Ph9	B-Ph10	B-Ph11	B-Ph12	B-Ph13	B-Ph14	B-Ph15	B-Ph16	

Term	0.00000e+00	0.00000e+00	0.00000e+00	0.00000e+00	0.00000e+00	0.00000e+00	0.00000e+00	0.00000e+00	0.00000e+00	0.00000e+00	0.00000e+00	0.00000e+00	0.00000e+00	0.00000e+00	0.00000e+00	0.00000e+00	0.00000e+00	0.00000e+00	0.00000e+00	0.00000e+00	0.00000e+00	0.00000e+00	0.00000e+00	0.00000e+00	0.00000e+00	0.00000e+00	0.00000e+00	0.00000e+00	0.00000e+00	0.00000e+00	0.00000e+00	0.00000e+00	-6.18844e+01	-1.31176e+02	-1.30945e+02	-1.82064e+02	-5.12520e+01	-6.31214e+01	-1.57560e+02	-1.62015e+02	-4.68082e+01	-6.38604e+01	-1.72371e+02	-1.70432e+02	-1.78256e+02	-1.76759e+02	-5.34657e+01	-1.49349e+02	
Factor	1.65308e-05	1.37929e-04	3.69494e-05	1.57704e-01	1.33523e-06	1.42652e-06	1.70755e-01	4.46573e-02	1.03347e-06	1.38636e-06	7.56219e-02	2.61641e-02	2.21170e-02	8.12295e-03	1.35262e-06	1.13021e-02	1.00626e-05	1.67098e-05	4.71134e-06	8.54066e-02	1.71346e-07	1.86818e-07	8.69103e-02	2.43396e-02	1.67811e-07	1.87038e-07	3.98308e-02	1.38576e-02	1.22449e-02	4.47032e-03	1.76786e-07	6.00929e-03	X	X	X	X	X	X	X	X	X	X	X	X	X	X	X	X	



#DISTANCE SETTINGS
A = Detector Channel
A-1	A-2	A-3	A-4	A-5	A-6	A-7	A-8	A-9	A-10	A-11	A-12	A-13	A-14	A-15	A-16	

2.5000e+00	3.0000e+00	2.5000e+00	3.0000e+00	2.0000e+00	3.0000e+00	1.5000e+00	3.0000e+00	3.0000e+00	3.0000e+00	3.0000e+00	3.0000e+00	3.0000e+00	3.0000e+00	1.5000e+00	3.0000e+00	

B = Detector Channel
B-1	B-2	B-3	B-4	B-5	B-6	B-7	B-8	B-9	B-10	B-11	B-12	B-13	B-14	B-15	B-16	

1.0000e+01	1.0000e+01	1.0000e+01	1.4400e+00	1.0000e+01	1.0000e+01	1.5100e+00	1.9400e+00	1.0000e+01	1.0000e+01	1.9900e+00	2.4900e+00	2.4100e+00	2.9000e+00	1.0000e+01	2.9800e+00	




#DATA BEGINS
time	group	step	mark	flag	A-AC1	A-AC2	A-AC3	A-AC4	A-AC5	A-AC6	A-AC7	A-AC8	A-AC9	A-AC10	A-AC11	A-AC12	A-AC13	A-AC14	A-AC15	A-AC16	A-DC1	A-DC2	A-DC3	A-DC4	A-DC5	A-DC6	A-DC7	A-DC8	A-DC9	A-DC10	A-DC11	A-DC12	A-DC13	A-DC14	A-DC15	A-DC16	A-Ph1	A-Ph2	A-Ph3	A-Ph4	A-Ph5	A-Ph6	A-Ph7	A-Ph8	A-Ph9	A-Ph10	A-Ph11	A-Ph12	A-Ph13	A-Ph14	A-Ph15	A-Ph16	B-AC1	B-AC2	B-AC3	B-AC4	B-AC5	B-AC6	B-AC7	B-AC8	B-AC9	B-AC10	B-AC11	B-AC12	B-AC13	B-AC14	B-AC15	B-AC16	B-DC1	B-DC2	B-DC3	B-DC4	B-DC5	B-DC6	B-DC7	B-DC8	B-DC9	B-DC10	B-DC11	B-DC12	B-DC13	B-DC14	B-DC15	B-DC16	B-Ph1	B-Ph2	B-Ph3	B-Ph4	B-Ph5	B-Ph6	B-Ph7	B-Ph8	B-Ph9	B-Ph10	B-Ph11	B-Ph12	B-Ph13	B-Ph14	B-Ph15	B-Ph16	aux-1	digaux	

769.926	1	1	0	256	0.27892	0.098467	0.17477	0.20472	0.039296	0.26967	0.38609	0.12485	0.035893	0.09376	0.24715	0.3148	0.17639	0.29296	0.090733	0.31553	-0.55	-1.7417	-1.2521	-1.4333	-1.9146	-0.91458	-1.7854	-1.8	-0.85208	-1.6854	-1.5875	-1.0187	-1.7625	-1.2437	-1.1375	-1.8	43.379	213.933	146.533	295.522	183.036	288.746	332.897	357.929	316.741	210.057	29.407	299.035	261.180	333.724	387.101	64.917	0.00037834	0.00051537	0.00014682	1456.2	6.778e-06	5.7131e-06	1459.2	390.2	3.3618e-06	5.4995e-06	444.95	148.94	128.61	42.895	5.2712e-06	53.3	0.00047535	0.00047111	0.00012532	1474.3	5.2257e-06	5.38e-06	1473.5	396.68	5.3077e-06	5.1556e-06	453.02	151.8	131.46	44.085	5.2402e-06	54.486	215.308	135.264	128.298	41.677	215.679	191.352	41.899	46.440	214.691	177.698	45.662	50.712	51.045	55.298	197.453	54.281	-8191	255	
770.022	1	1	0	0	0.25006	0.080618	0.31368	0.43403	0.18063	0.12314	0.30866	0.31343	0.16812	0.14823	0.23124	0.26522	0.15796	0.088895	0.40887	0.37774	-0.375	-1.4062	-1.3062	-1.1792	-1.7083	-1.025	-1.6208	-1.9521	-0.84583	-1.5917	-1.5708	-0.94167	-1.8354	-1.2687	-1.3375	-1.8458	194.343	278.096	58.373	375.040	360.944	335.839	363.777	302.906	267.061	67.954	35.810	337.157	218.398	191.572	354.880	359.278	0.00033785	0.0005168	0.00015746	1455.8	4.2556e-06	5.0921e-06	1452.3	388.36	3.9145e-06	5.6834e-06	446.41	148.15	128.38	43.097	6.0855e-06	53.208	0.00047028	0.0004708	0.00013121	1472.3	5.2835e-06	5.3508e-06	1470.4	395.6	5.2843e-06	4.7621e-06	452.87	151.49	131.07	44.149	5.1294e-06	54.432	211.107	97.537	121.078	41.518	191.442	176.950	41.686	46.229	222.055	184.506	45.588	50.893	51.135	55.027	184.583	54.282	-8191	255	
770.142	1	1	0	0	0.15726	0.046209	0.11137	0.35665	0.12704	0.27193	0.13223	0.35887	0.39232	0.12116	0.25577	0.19289	0.082846	0.24785	0.21691	0.09362	-0.37292	-1.5625	-1.425	-1.0312	-1.75	-1.1125	-1.5729	-1.825	-1.05	-1.5667	-1.6021	-0.90208	-1.5812	-1.4042	-1.2458	-1.8854	208.854	58.078	34.354	342.815	91.907	173.227	60.971	330.377	48.130	175.053	339.311	69.898	64.555	370.384	217.846	338.517	0.00034483	0.00052766	0.00010021	1458.4	5.9513e-06	3.7861e-06	1456.3	388.75	4.2711e-06	5.1835e-06	443.77	147.33	128.1	43.042	5.0008e-06	53.213	0.00047625	0.00044828	0.00012886	1471.6	5.2453e-06	4.8596e-06	1469	396.12	5.2644e-06	5.013e-06	451.27	151.33	130.95	44.096	5.4472e-06	54.439	212.903	114.717	103.268	41.550	210.131	196.377	41.773	46.462	207.455	188.737	45.791	50.716	51.217	55.149	194.070	54.493	-8191	255	
770.214	1	1	0	0	0.13947	0.32059	0.28373	0.12672	0.17454	0.14454	0.25626	0.33175	0.13556	0.41916	0.16332	0.41422	0.21075	0.37656	0.35508	0.10371	-0.45625	-1.3083	-1.3875	-1.0083	-1.6729	-1.1875	-1.2	-1.8563	-1.0375	-1.4937	-2.0208	-1.1104	-1.8229	-1.5167	-0.82917	-1.9125	83.476	261.000	330.606	361.860	196.014	90.959	342.290	327.492	39.953	93.219	70.758	373.167	185.273	384.324	347.512	292.082	0.00037809	0.00047495	0.0001434	1451.9	5.7551e-06	5.2593e-06	1456.9	389.58	4.8624e-06	4.8628e-06	442.7	148.03	127.98	43.064	5.3218e-06	52.93	0.00046929	0.00046861	0.00012834	1470.8	5.2357e-06	4.8378e-06	1468.2	396	5.2871e-06	5.0496e-06	450.59	151.33	130.75	44.075	5.3415e-06	54.252	213.939	109.963	116.695	41.613	197.824	174.681	41.842	46.549	207.672	186.470	45.513	50.841	51.169	55.272	197.489	54.839	-8191	255	
770.310	1	1	0	0	0.18364	0.19203	0.19712	0.11526	0.13624	0.051164	0.21839	0.16929	0.21524	0.070594	0.078766	0.080473	0.019837	0.30178	0.21784	0.22036	-0.74375	-1.2833	-1.6063	-0.98542	-1.5958	-1.4688	-1.1625	-1.9021	-1.1625	-1.2083	-1.7625	-0.99792	-1.6833	-1.6688	-0.97083	-1.7917	117.138	204.776	91.701	382.939	249.977	339.567	370.523	361.141	98.373	343.078	345.045	241.964	201.655	370.749	154.654	329.348	0.0003882	0.00047357	0.000128	1451.2	5.1912e-06	4.9921e-06	1454	389.63	4.7102e-06	3.4817e-06	442.29	147.9	128.33	42.789	5.9984e-06	53.246	0.00047571	0.00046008	0.00013217	1468.8	5.1946e-06	4.9141e-06	1469.3	396.52	5.2707e-06	5.0839e-06	451.93	151.6	130.85	43.935	5.157e-06	54.449	215.107	104.777	107.006	41.717	218.422	190.179	41.999	46.325	214.576	183.119	45.915	50.786	51.013	54.947	199.354	54.085	-8191	255	
770.406	1	1	0	0	0.10785	0.019601	0.13511	0.14316	0.18923	0.20889	0.34203	0.20261	0.14437	0.055094	0.24815	0.059208	0.16242	0.2643	0.15646	0.17071	-0.79792	-1.0688	-1.725	-1.0958	-1.2458	-1.7708	-1.175	-1.9917	-1.2646	-1.1688	-2.1708	-0.91875	-1.3771	-1.8104	-0.71458	-1.7333	141.256	32.212	226.441	319.421	165.226	248.613	320.979	329.658	337.984	218.041	51.153	347.426	286.017	81.835	78.422	227.802	0.00039122	0.00036573	0.00015987	1452.3	6.1815e-06	5.1952e-06	1457.7	389.78	4.9863e-06	5.1588e-06	444.59	147.72	127.97	43.025	5.6018e-06	53.178	0.00046984	0.00047501	0.00013081	1469.6	5.2725e-06	4.9795e-06	1467.9	396.02	5.2882e-06	5.2729e-06	451.34	151.27	130.97	44.083	5.3441e-06	54.291	215.637	92.363	93.019	41.595	204.401	187.771	41.961	46.570	216.600	180.290	46.037	50.841	51.161	55.291	212.212	54.467	-8191	255	
770.527	1	1	0	0	0.073151	0.18925	0.17118	0.40869	0.20108	0.11187	0.55035	0.15742	0.16006	0.14616	0.45641	0.13907	0.037094	0.24196	0.27244	0.34998	-0.97708	-0.7875	-1.7188	-1.1792	-1.2521	-1.6333	-1.0333	-1.9521	-1.2396	-0.94583	-1.9125	-1.1	-1.5896	-1.7625	-0.89583	-1.7646	363.564	243.913	33.953	47.510	210.799	56.348	363.915	318.467	130.205	74.462	340.603	348.348	329.800	305.138	86.240	347.904	0.00036204	0.00051275	0.0001764	1450.1	5.8754e-06	5.9845e-06	1448	389.15	2.8011e-06	4.2333e-06	445.47	148.25	128.15	42.874	6.1981e-06	53.02	0.00046286	0.00048145	0.00013149	1469.5	5.1736e-06	5.1278e-06	1469	395.78	5.0994e-06	5.1954e-06	451.96	151.46	130.81	43.98	5.5139e-06	54.412	213.334	113.197	111.557	41.582	205.927	180.666	41.887	46.517	211.738	170.275	45.856	50.804	51.212	55.162	197.958	54.795	-8191	255	
770.623	1	1	0	0	0.22757	0.1022	0.033436	0.31243	0.36986	0.19375	0.2218	0.1875	0.097518	0.23433	0.12743	0.1442	0.14036	0.16951	0.23602	0.32927	-1.1437	-0.97708	-1.8937	-1.4688	-0.9875	-1.5229	-1.3354	-1.6625	-1.5688	-0.99792	-1.8667	-1.2188	-1.2583	-1.8	-1.1	-1.5521	177.004	221.198	89.903	346.990	147.443	148.324	320.824	362.489	54.079	201.460	372.434	310.226	348.836	306.794	331.127	339.174	0.00035926	0.00053184	9.4049e-05	1449.9	3.9961e-06	5.4076e-06	1456.7	388.21	4.4868e-06	4.571e-06	445.2	148.01	128.17	42.798	5.9744e-06	53.094	0.00047049	0.00047978	0.00013031	1467.2	5.1368e-06	4.9705e-06	1467.7	395.14	5.1497e-06	5.3945e-06	451.89	151.69	130.94	44.08	5.2218e-06	54.387	214.528	114.417	104.925	41.590	212.995	194.969	41.959	46.716	222.798	177.415	45.952	50.792	51.130	55.490	205.365	54.841	-8191	255	
770.719	1	1	0	0	0.29872	0.12706	0.03936	0.31022	0.26087	0.19333	0.21912	0.30669	0.089509	0.23167	0.37768	0.29956	0.20016	0.13551	0.0824	0.054069	-1.3708	-0.72917	-1.7583	-1.4125	-0.89167	-1.7042	-1.3229	-1.5812	-1.5333	-0.80625	-1.7896	-1.5063	-1.0729	-1.9771	-0.93542	-1.425	66.012	94.426	86.733	66.486	37.468	334.189	318.883	375.681	264.278	64.632	36.901	307.883	321.311	388.456	298.218	340.843	0.0003798	0.000472	0.00013816	1452.9	6.1352e-06	6.1405e-06	1457.3	390.21	4.9588e-06	4.3672e-06	446.27	147.97	127.21	43.045	5.9431e-06	52.853	0.00046405	0.00046986	0.00013397	1469.9	5.2314e-06	5.1819e-06	1469.8	396.25	5.4046e-06	5.262e-06	452.89	151.51	130.73	44.218	5.336e-06	54.364	214.413	104.132	112.160	41.732	216.673	173.641	41.879	46.578	215.561	183.140	45.768	50.937	51.094	55.486	190.982	54.644	-8191	255	
770.815	1	1	0	0	0.34169	0.071224	0.11789	0.22899	0.10909	0.03363	0.11296	0.26202	0.21352	0.2182	0.24214	0.35965	0.14083	0.013965	0.10542	0.15638	-1.2917	-0.79792	-1.6104	-1.6688	-0.83333	-1.7062	-1.0875	-1.4792	-1.7625	-0.94792	-1.7125	-1.4771	-1.0167	-1.9083	-1.1562	-1.2646	373.907	327.052	164.631	218.086	123.008	250.617	334.518	334.626	206.992	92.920	31.902	349.365	263.010	188.062	280.578	268.936	0.00040221	0.00047168	0.00015849	1459	4.25e-06	5.034e-06	1455.7	391.49	5.8867e-06	4.4748e-06	445.27	148.86	128.7	43.015	3.9352e-06	53.267	0.00048424	0.00049015	0.0001278	1473.4	5.4724e-06	5.1188e-06	1471.7	397.36	5.3878e-06	5.1961e-06	452.81	151.69	131.35	44.148	5.298e-06	54.43	212.746	115.335	107.421	41.838	212.558	172.698	41.839	46.798	202.781	188.234	46.242	51.092	51.229	55.262	202.408	54.555	-8191	255	
770.912	1	1	0	0	0.13405	0.093011	0.13075	0.19231	0.23725	0.23162	0.073785	0.32658	0.25763	0.37392	0.33241	0.37967	0.056813	0.20596	0.02889	0.09513	-1.3292	-0.80417	-1.4438	-1.6063	-0.85417	-1.775	-1.3146	-1.3104	-1.5312	-1.0021	-1.5979	-1.6083	-0.85	-1.7479	-1.1375	-1.1917	245.715	318.140	375.183	330.153	166.288	359.987	337.251	383.003	242.578	268.045	318.093	352.377	387.316	369.105	65.256	370.077	0.00036353	0.00048275	0.00010301	1456.7	3.016e-06	5.4651e-06	1461.9	390.01	3.8238e-06	6.7681e-06	444.83	148.37	128.93	42.976	5.3584e-06	53.096	0.00047785	0.0004872	0.00013736	1473.8	5.6437e-06	5.104e-06	1472.2	397.1	5.3312e-06	5.677e-06	453.5	151.96	131.51	44.181	5.2826e-06	54.432	216.081	124.937	104.187	41.667	218.151	158.665	41.777	46.579	218.812	190.860	45.923	50.879	51.148	55.259	193.887	54.832	-8191	255	
771.008	1	1	0	0	0.045277	0.10394	0.079756	0.32154	0.31246	0.14109	0.25518	0.30159	0.18795	0.038968	0.23655	0.14683	0.097919	0.136	0.15982	0.14716	-1.4229	-1.0208	-1.2375	-1.7417	-0.74167	-1.6604	-1.4292	-1.0896	-1.7938	-0.9375	-1.3563	-1.7604	-1.0271	-1.8375	-1.4312	-1.0771	225.051	107.924	99.884	323.855	250.699	355.102	385.385	315.484	112.686	54.128	326.525	62.186	270.636	64.193	385.898	249.903	0.0003833	0.00069942	0.00010514	1452.5	7.0224e-06	5.8031e-06	1457.2	390.77	4.8722e-06	4.9098e-06	447.5	148.12	128.17	43.014	4.3264e-06	53.38	0.00047108	0.00047599	0.00012904	1474.5	5.7133e-06	5.1675e-06	1474	397.73	5.2357e-06	5.1665e-06	453.56	151.66	131.11	44.213	5.1585e-06	54.551	211.975	124.419	115.829	41.788	199.651	190.041	41.737	46.280	189.343	176.902	45.550	50.426	50.604	54.888	198.539	54.047	-8191	255	
771.127	1	1	0	0	0.24817	0.073569	0.18628	0.094615	0.084214	0.34359	0.19343	0.20148	0.15024	0.3226	0.39277	0.20331	0.17972	0.14441	0.19663	0.29481	-1.5438	-0.94375	-1.2812	-1.8687	-0.93333	-1.7104	-1.6958	-1.1146	-1.8792	-1.075	-1.225	-1.8875	-0.93958	-1.6187	-1.4208	-1.1812	93.073	114.716	264.427	366.029	197.694	192.818	347.114	317.083	259.325	106.821	302.335	55.117	372.694	351.598	88.554	363.892	0.00036095	0.00059718	0.00013152	1457.7	5.2775e-06	6.1248e-06	1463.4	389.5	3.7465e-06	5.3867e-06	445.59	148.53	128.39	42.906	4.9713e-06	53.215	0.00046678	0.00045433	0.00012798	1473.9	5.3874e-06	5.0417e-06	1473.8	396.99	5.2123e-06	5.2858e-06	453.12	151.65	131.08	44.065	5.3087e-06	54.452	212.554	116.402	96.852	41.197	191.042	191.032	41.502	46.342	231.391	202.477	45.916	50.388	50.970	55.017	194.315	54.201	-8191	255	
771.223	1	1	0	0	0.099088	0.17042	0.23045	0.23114	0.2543	0.15631	0.1659	0.27283	0.17819	0.18426	0.33797	0.15546	0.25277	0.31909	0.28538	0.31262	-1.3833	-1.1063	-0.99167	-1.9312	-1.025	-1.2917	-1.7396	-0.81667	-1.5125	-1.2896	-1.075	-1.8229	-1.0438	-1.4729	-1.5938	-0.81667	33.882	374.925	185.287	299.690	52.511	75.464	269.875	352.052	134.046	60.718	355.475	347.999	332.823	376.688	222.301	319.851	0.00037583	0.00057021	0.00011665	1454.1	5.945e-06	4.2351e-06	1456.9	390.08	4.7334e-06	5.5564e-06	445.24	148.45	128.11	43.024	5.6163e-06	53.21	0.00046848	0.00047097	0.00013826	1471.7	5.3439e-06	5.2402e-06	1471.8	397.04	5.1469e-06	5.2254e-06	452.89	151.65	131.08	44.144	5.4457e-06	54.499	210.913	127.336	102.532	41.368	199.362	194.584	41.736	46.213	207.081	177.033	45.711	50.636	50.852	55.122	194.517	54.441	-8191	255	
771.319	1	1	0	0	0.25102	0.21651	0.059261	0.55181	0.14693	0.33728	0.14584	0.35533	0.13144	0.13601	0.24227	0.23276	0.211	0.25284	0.46279	0.11439	-1.3833	-1.2021	-0.9375	-1.975	-0.99167	-1.3312	-1.7896	-1.0292	-1.6063	-1.3792	-1.0396	-1.8542	-1.2667	-1.1708	-1.7792	-1.0646	319.838	122.734	216.918	337.724	384.263	208.220	55.536	317.999	52.298	126.184	360.068	261.265	375.545	87.264	267.480	354.790	0.00038462	0.00056377	0.00012828	1457	5.6525e-06	5.1391e-06	1456.2	389.5	4.5533e-06	3.6258e-06	447.56	148.49	128.73	43.131	6.9996e-06	53.396	0.00046846	0.0004747	0.00013729	1475.1	5.4056e-06	5.306e-06	1475.1	397.41	5.1843e-06	5.3111e-06	454.5	152.02	131.5	44.288	5.4332e-06	54.706	218.125	113.089	111.835	41.436	206.650	184.540	41.622	46.590	212.775	169.410	45.604	50.982	50.829	55.278	221.341	54.480	-8191	255	
771.440	1	1	0	0	0.14978	0.18423	0.12757	0.32188	0.22327	0.068846	0.3058	0.30141	0.10008	0.064022	0.11783	0.034755	0.14059	0.31086	0.19966	0.18207	-1.1812	-1.3438	-0.90625	-2.0354	-1.0917	-1.2625	-1.9271	-1.2396	-1.5063	-1.5104	-1.1229	-1.6229	-1.3125	-1.1875	-1.8042	-1.1854	201.956	72.655	266.528	343.028	94.039	257.055	366.950	375.098	244.761	119.895	289.302	43.973	152.354	35.619	303.857	378.829	0.00038032	0.00071754	0.00014317	1466.6	6.1149e-06	5.3971e-06	1464.1	391.43	3.8008e-06	4.8828e-06	448.01	148.33	129.27	43.183	5.7054e-06	53.668	0.0004851	0.0004952	0.00013881	1481	5.4974e-06	5.3597e-06	1480.1	398.75	5.1819e-06	5.3801e-06	454.96	152.28	131.76	44.305	5.2881e-06	54.76	214.757	108.436	113.336	41.590	217.451	171.057	41.899	46.315	209.458	200.891	45.691	50.590	50.844	55.165	209.434	54.181	-8191	255	
771.511	1	1	0	0	0.13035	0.088262	0.47615	0.29415	0.12058	0.10183	0.46411	0.19358	0.23672	0.15416	0.12105	0.29502	0.20171	0.31759	0.17511	0.33391	-0.79792	-1.3292	-0.71875	-1.8792	-1.275	-1.025	-1.7958	-1.1583	-1.2771	-1.5833	-1.2146	-1.9354	-1.6562	-0.97917	-1.6646	-1.3	58.038	345.621	342.982	374.502	106.748	308.188	314.640	339.427	193.302	282.977	284.164	322.585	361.311	380.771	91.382	320.166	0.00041143	0.00041459	0.00013044	1470.8	6.2671e-06	5.4533e-06	1462.6	390.56	4.0932e-06	4.8513e-06	447.63	148.27	129.12	43.188	6.1693e-06	53.271	0.00048822	0.00049962	0.0001383	1482.9	5.4163e-06	5.522e-06	1478.6	398	5.3343e-06	5.3563e-06	454.76	151.95	131.63	44.275	5.2789e-06	54.482	216.793	110.281	122.991	41.471	198.378	176.871	41.508	46.392	213.557	185.716	45.464	50.506	50.578	54.580	210.432	54.161	-8191	255	
771.607	1	1	0	0	0.10183	0.36718	0.15737	0.21297	0.072251	0.15474	0.18962	0.21378	0.2153	0.1717	0.17858	0.11584	0.26926	0.10041	0.12207	0.29871	-0.71875	-1.5229	-0.8375	-1.7375	-1.4146	-0.87917	-2.1896	-1.2875	-1.1167	-1.6896	-1.0292	-1.5625	-1.6313	-1.0979	-1.6583	-1.3333	187.379	261.585	183.280	332.484	44.990	65.145	274.620	355.544	338.463	143.673	72.403	356.050	381.666	366.311	200.523	343.545	0.00038378	0.00057329	0.00013779	1462.9	5.6152e-06	5.021e-06	1457	389.37	3.5859e-06	4.8466e-06	445.34	148.8	127.88	43.09	6.2605e-06	53.259	0.00048418	0.00047745	0.00013676	1478	5.4688e-06	5.3111e-06	1477	397.42	5.4514e-06	5.3692e-06	452.98	151.92	130.92	44.194	5.2675e-06	54.455	210.961	112.221	106.764	41.423	199.192	203.326	41.286	46.108	214.258	198.714	45.465	50.424	50.582	54.901	190.732	53.931	-8191	255	
771.704	1	1	0	0	0.1549	0.11937	0.29074	0.37036	0.21475	0.18791	0.14571	0.62711	0.21295	0.30387	0.23506	0.18227	0.098876	0.11408	0.089711	0.23617	-0.575	-1.75	-0.77708	-1.4646	-1.3958	-0.8875	-1.9562	-1.2896	-1.0917	-1.7333	-1.0021	-1.4813	-1.6958	-1.0958	-1.8333	-1.3021	228.779	293.508	319.169	324.317	311.397	317.355	352.995	320.540	159.219	114.256	380.240	45.129	112.676	277.450	236.380	34.150	0.00036834	0.00055334	0.0001815	1457	4.5905e-06	4.0716e-06	1459.6	390.86	5.9074e-06	4.0101e-06	445.73	148.6	128.05	43.086	6.1815e-06	53.327	0.00048229	0.00046718	0.00013091	1475	5.4692e-06	5.4621e-06	1474.5	397.25	5.3441e-06	5.1385e-06	453.43	151.97	131.33	44.216	5.126e-06	54.548	214.862	93.037	115.456	41.383	205.234	198.919	41.692	46.123	214.060	182.090	45.480	50.683	50.741	54.707	185.128	54.234	-8191	255	
771.822	1	1	0	0	0.15469	0.16106	0.15382	0.22078	0.044908	0.17019	0.36673	0.37662	0.21813	0.24865	0.15507	0.094697	0.10508	0.19539	0.16627	0.19624	-0.57708	-1.8062	-0.93958	-1.5604	-1.7042	-0.98958	-1.8687	-1.3958	-0.93958	-1.6667	-1.1229	-1.1271	-1.5938	-1.0375	-1.3312	-1.4708	274.944	311.869	312.226	299.949	320.923	109.796	342.846	33.760	342.872	191.468	110.164	299.544	322.796	374.077	291.996	373.319	0.00035707	0.00053357	0.00016645	1461.5	5.2953e-06	4.2613e-06	1464.1	390.66	3.2144e-06	3.5821e-06	447.25	149.93	129.08	43.24	7.0471e-06	53.584	0.00047091	0.0004527	0.00013504	1479.8	5.4517e-06	5.3745e-06	1478	398.44	5.7168e-06	5.3816e-06	454.81	152.86	131.83	44.428	5.7643e-06	54.805	213.748	113.377	113.676	41.434	194.609	201.051	41.665	46.293	219.969	177.557	45.578	50.440	50.536	54.994	200.112	54.538	-8191	255	
771.919	1	1	0	0	0.13882	0.093068	0.16386	0.18075	0.24569	0.15885	0.26568	0.22104	0.1021	0.10251	0.21928	0.29433	0.13383	0.25006	0.17838	0.58185	-0.30833	-1.7146	-0.9625	-1.3167	-1.6729	-0.87708	-1.8	-1.6812	-0.96042	-1.7	-1.2812	-0.99167	-1.7	-0.95833	-1.3	-1.5646	39.030	166.204	374.627	383.455	263.028	343.114	311.547	349.929	153.365	318.774	332.193	103.235	103.612	92.401	242.608	309.116	0.00039076	0.00048821	0.00020542	1470.1	6.1264e-06	5.6573e-06	1482.6	394.93	4.1498e-06	6.6715e-06	452.24	149.7	130.29	43.531	4.7948e-06	53.974	0.00051896	0.00050641	0.00014188	1491.9	6.0196e-06	5.8388e-06	1497.4	402.31	6.1209e-06	5.7121e-06	459.44	153.84	133.15	44.658	5.8623e-06	55.232	216.728	122.156	124.747	41.488	213.582	184.831	41.804	46.132	220.772	166.433	45.264	50.567	50.834	54.818	197.639	54.407	-8191	255	
772.015	1	1	0	0	0.282	0.20006	0.11134	0.19542	0.087577	0.080435	0.052803	0.21416	0.16195	0.17559	0.21836	0.21362	0.3066	0.525	0.12241	0.49669	-0.50208	-1.5083	-0.975	-1.3396	-1.775	-0.93542	-1.575	-1.7458	-0.87083	-1.7062	-1.5625	-1.15	-1.7396	-1.0208	-1.1958	-1.6542	278.789	291.180	131.884	311.621	226.680	157.212	203.538	368.439	187.060	171.978	264.140	348.566	313.311	32.195	64.553	350.695	0.00038464	0.00038836	0.00018027	1480.1	6.2539e-06	2.96e-06	1482.8	395.15	2.815e-06	7.0534e-06	453.39	150.55	130.35	43.442	4.3883e-06	53.827	0.00051105	0.00052807	0.00015383	1496.9	5.9164e-06	5.71e-06	1496.4	402.59	5.914e-06	5.7943e-06	459.34	153.69	132.69	44.575	5.7662e-06	55.018	215.948	112.688	111.073	41.541	192.349	176.112	41.722	46.087	228.975	200.997	45.831	50.697	50.690	54.985	209.163	54.001	-8191	255	
772.088	1	1	0	0	0.15665	0.18352	0.041236	0.1329	0.18398	0.10884	0.14886	0.23459	0.20381	0.17076	0.27557	0.15946	0.36331	0.36661	0.12477	0.23367	-0.52292	-1.3625	-1.3937	-1.0354	-1.6396	-1.1792	-1.3771	-1.925	-0.85	-1.7792	-1.5187	-0.87708	-1.8167	-1.1958	-1.0229	-1.8417	245.728	182.471	287.510	332.578	101.071	355.784	266.896	365.811	284.800	352.335	44.263	369.644	35.071	370.960	226.362	352.045	0.00036907	0.00050617	0.00015429	1475.1	4.5151e-06	5.4263e-06	1476.4	394.47	5.1455e-06	5.2451e-06	452.05	149.76	129.1	43.411	3.4363e-06	53.697	0.00051567	0.00050986	0.0001486	1494.7	5.834e-06	5.6135e-06	1493.2	401.35	5.6979e-06	5.5005e-06	459	152.84	132.4	44.572	6.0059e-06	54.952	216.384	105.453	112.494	41.647	204.003	193.007	42.029	46.342	205.453	187.630	45.675	50.760	51.071	55.044	209.253	54.254	-8191	255	
772.207	1	1	0	0	0.18044	0.26861	0.34488	0.25741	0.32401	0.21189	0.13445	0.23467	0.16915	0.27682	0.083172	0.16353	0.15722	0.15278	0.089908	0.15505	-0.46458	-1.6354	-1.4646	-0.91667	-1.6292	-1.1271	-1.3062	-1.9688	-0.85417	-1.6229	-1.5792	-1.0458	-2.1063	-1.25	-0.9375	-2.0917	274.885	191.097	207.780	329.668	249.742	348.791	377.460	339.059	373.777	314.620	337.536	343.404	135.405	242.540	301.773	88.096	0.00035253	0.00053904	0.00016042	1471.2	4.9839e-06	3.2301e-06	1481	393.95	5.458e-06	5.9043e-06	452.94	149.56	129.83	43.549	4.4044e-06	53.954	0.00050158	0.00052058	0.00014881	1490.9	5.8508e-06	5.8388e-06	1491.6	400.75	5.7028e-06	5.8453e-06	458.69	153.37	132.7	44.643	6.1459e-06	55.042	214.104	125.976	117.697	41.544	201.506	210.022	41.744	46.458	222.959	166.212	45.705	50.779	51.102	54.947	197.594	54.584	-8191	255	
772.303	1	1	0	0	0.2786	0.092844	0.178	0.35681	0.14332	0.066326	0.24602	0.27061	0.12264	0.092105	0.12733	0.10722	0.12203	0.055565	0.20668	0.00425	-0.33125	-1.3813	-1.4979	-0.99375	-1.875	-1.3604	-1.1313	-1.9833	-0.8875	-1.3667	-1.675	-1.1187	-1.8521	-1.5083	-1.025	-1.8271	152.566	52.132	250.300	350.753	141.604	244.782	350.116	386.759	94.602	76.763	284.966	361.145	378.835	363.888	58.383	217.891	0.00038591	0.00058938	0.00014539	1475.8	5.4871e-06	7.0168e-06	1470.9	394.24	4.596e-06	5.3911e-06	450.48	149.85	129.35	43.075	5.6044e-06	53.475	0.00049881	0.00054798	0.00015416	1493.9	5.8911e-06	6.0634e-06	1488.4	401.57	5.8612e-06	5.926e-06	457.98	152.99	132.35	44.509	5.891e-06	54.933	213.945	100.029	125.137	41.826	205.365	206.573	41.879	46.380	226.149	194.383	45.805	50.744	51.268	55.158	186.935	54.608	-8191	255	
772.399	1	1	0	0	0.24981	0.20974	0.085197	0.27059	0.15349	0.23522	0.18253	0.47065	0.075282	0.27184	0.14858	0.1186	0.18329	0.19757	0.31556	0.27324	-0.525	-1.1187	-1.6625	-1.1896	-1.6083	-1.3375	-1.2333	-2.1104	-1.1125	-1.0917	-1.8958	-1.0625	-1.7229	-1.7875	-0.94583	-1.6792	381.523	171.214	124.245	334.080	294.529	71.906	335.376	369.332	104.939	142.544	349.919	247.929	160.214	372.269	243.776	362.448	0.00036479	0.00053762	9.796e-05	1476.1	7.7661e-06	4.9848e-06	1472.7	394.52	3.8019e-06	4.8492e-06	447.43	149.47	129.35	43.206	4.2217e-06	53.567	0.00050816	0.0005305	0.00014413	1491.3	5.7911e-06	5.9093e-06	1488.3	400.9	5.8772e-06	5.6879e-06	456.83	152.9	132.2	44.41	5.6516e-06	54.798	211.575	111.748	132.942	41.784	206.402	189.860	42.109	46.572	210.725	197.572	45.927	50.890	50.990	55.092	205.586	54.567	-8191	255	
772.520	1	1	0	0	0.21271	0.17578	0.070436	0.10355	0.043047	0.075643	0.14775	0.044792	0.073256	0.26422	0.40051	0.11202	0.16828	0.16548	0.18362	0.53449	-0.92292	-1.0187	-1.7417	-1.1313	-1.4417	-1.5146	-0.96458	-1.7021	-1.2146	-0.98958	-1.9271	-1.1583	-1.5979	-1.8333	-1.0021	-1.6833	289.442	218.550	362.548	363.011	227.253	338.184	314.598	326.886	316.805	296.121	332.736	375.698	357.801	38.687	385.940	358.914	0.00039671	0.00065839	0.00013434	1470.6	5.2866e-06	4.7644e-06	1472	393.19	5.816e-06	6.0232e-06	448.2	149.19	129.39	43.294	7.3116e-06	53.484	0.00050374	0.00053001	0.00013804	1485.6	5.6455e-06	5.6349e-06	1484.2	400.05	5.7601e-06	5.8944e-06	456.57	152.59	132.16	44.408	5.691e-06	54.746	217.997	127.145	121.708	41.813	206.978	193.751	42.123	46.670	215.627	160.717	45.857	50.800	51.186	55.207	195.421	54.606	-8191	255	
772.616	1	1	0	0	0.16447	0.10345	0.26866	0.28647	0.065307	0.16131	0.33978	0.32684	0.093911	0.19243	0.17725	0.2789	0.17098	0.31812	0.19768	0.28154	-0.80208	-1.0146	-1.7437	-1.3	-1.3854	-1.8708	-1.1917	-1.8583	-1.3687	-1.1583	-1.7479	-1.1375	-1.4438	-1.9667	-0.98333	-1.7021	230.383	49.959	323.347	374.653	275.797	198.756	322.244	347.489	102.098	127.243	38.136	143.931	381.356	56.172	188.548	369.620	0.00036513	0.00060737	0.00015648	1469.7	5.5815e-06	5.4918e-06	1461.4	394.7	4.1445e-06	4.607e-06	451.6	149.25	129.5	43.091	5.6026e-06	53.439	0.00050718	0.00052632	0.00014329	1486	5.7894e-06	5.8657e-06	1481	400.54	5.744e-06	5.7483e-06	456.81	152.8	131.78	44.348	5.5286e-06	54.717	216.716	100.203	119.611	41.765	207.535	180.500	42.080	46.614	219.336	166.906	45.953	51.055	51.439	55.318	176.229	54.897	-8191	255	
772.688	1	1	0	0	0.030037	0.067174	0.070718	0.15248	0.22098	0.15664	0.24866	0.42445	0.36255	0.2505	0.23725	0.28899	0.17543	0.24272	0.25872	0.19129	-0.85208	-0.86458	-1.6833	-1.1333	-0.89167	-1.6229	-1.0792	-1.8625	-1.4333	-0.85625	-1.8208	-1.4396	-1.4979	-1.8792	-0.95833	-1.4604	282.534	356.691	309.482	363.715	225.667	385.999	331.978	343.531	80.642	34.584	296.057	312.402	329.275	38.293	66.010	163.635	0.00039623	0.00065413	0.00015368	1466.9	6.346e-06	4.9992e-06	1469.5	393.41	5.3959e-06	5.2554e-06	447.61	148.72	129.12	43.277	4.227e-06	53.004	0.00049858	0.0005234	0.00014249	1481.7	5.9821e-06	5.2815e-06	1482.3	399.44	5.5657e-06	5.5932e-06	454.92	152.12	131.57	44.365	5.3433e-06	54.526	213.569	119.478	119.438	41.895	203.414	185.852	42.143	46.926	234.213	197.381	46.157	50.943	51.621	55.424	198.250	55.060	-8191	255	
772.808	1	1	0	0	0.13234	0.32509	0.1786	0.32433	0.059379	0.12254	0.39471	0.29808	0.30917	0.14737	0.12868	0.1087	0.34739	0.1234	0.10881	0.2015	-1.2708	-0.83958	-1.6313	-1.4125	-1	-1.8542	-1.25	-1.6354	-1.6625	-0.7625	-1.8188	-1.2938	-1.225	-1.9167	-0.97708	-1.5208	160.077	356.760	178.725	383.599	383.793	89.302	294.035	298.624	338.745	385.202	203.499	56.636	293.487	379.742	271.365	310.664	0.00041054	0.00039978	0.00015216	1456.5	4.649e-06	4.6507e-06	1458.1	392.47	4.9799e-06	4.6407e-06	447.64	148.56	128.63	43.117	6.5949e-06	53.431	0.00049611	0.00050185	0.00013315	1475.6	5.4799e-06	4.9954e-06	1473.4	398.46	5.2784e-06	5.262e-06	454.23	152.08	131.41	44.215	5.3968e-06	54.564	213.457	120.477	109.102	41.942	212.782	191.938	42.118	46.916	201.751	178.331	46.442	51.072	51.445	55.464	199.274	54.643	-8191	255	
772.903	1	1	0	0	0.017423	0.21671	0.19492	0.21089	0.086566	0.10303	0.41286	0.20397	0.30352	0.4082	0.18949	0.15462	0.16562	0.20893	0.2411	0.068547	-1.2896	-0.8875	-1.7792	-1.5396	-0.78958	-1.7729	-1.1833	-1.3813	-1.5354	-0.93958	-1.5521	-1.5125	-1.0917	-2.0542	-1.1458	-1.2354	319.815	47.329	162.222	319.760	177.473	93.526	316.098	333.321	342.600	216.434	334.021	44.911	362.799	207.508	51.968	243.303	0.00039397	0.00040606	0.00012839	1458.1	6.1208e-06	3.2779e-06	1462.5	391.8	3.9676e-06	2.7811e-06	445.9	148.58	128.35	43.032	5.2295e-06	53.37	0.00047533	0.00046902	0.00013346	1473.8	5.6773e-06	5.1172e-06	1474.4	397.9	5.3465e-06	5.2515e-06	454.09	151.91	131.23	44.146	5.5529e-06	54.517	212.753	106.990	87.293	42.062	201.317	190.219	41.975	46.829	204.678	181.920	46.027	51.077	51.400	55.536	202.011	54.762	-8191	255	
772.999	1	1	0	0	0.16486	0.019424	0.22923	0.33273	0.15283	0.10737	0.1685	0.22109	0.25512	0.32046	0.088161	0.17936	0.17188	0.35471	0.10629	0.17598	-1.1917	-0.78333	-1.4917	-1.8396	-0.66042	-1.6292	-1.4396	-1.1625	-1.7542	-1.0583	-1.5958	-1.8458	-0.82708	-1.7708	-1.2708	-1.0521	326.375	288.150	134.410	377.942	301.439	183.726	272.135	382.966	251.258	114.679	316.657	29.084	285.766	333.440	375.571	218.740	0.00036803	0.00047415	0.00013842	1459.8	5.3477e-06	4.8341e-06	1458	391.57	4.6628e-06	4.8e-06	447.27	148.2	128.18	42.993	4.8413e-06	53.52	0.00047904	0.00047623	0.00013346	1474.4	5.5127e-06	5.1838e-06	1471.5	397.81	5.378e-06	5.5102e-06	453.77	151.71	130.85	44.202	5.6188e-06	54.533	215.810	102.041	125.837	42.025	191.756	168.170	42.169	46.839	228.327	164.074	46.430	51.415	51.614	55.659	210.757	55.052	-8191	255	
773.120	1	1	0	0	0.057681	0.24216	0.093085	0.56375	0.18468	0.24391	0.064916	0.13745	0.14264	0.17415	0.27797	0.27305	0.1067	0.07574	0.14416	0.23109	-1.3792	-1	-1.4062	-1.8333	-0.88333	-1.5417	-1.7	-1.0979	-1.7458	-1.175	-1.3	-1.6292	-1.0521	-1.5896	-1.375	-1.0354	100.021	50.456	64.910	367.965	370.823	33.435	154.150	245.556	239.890	357.476	29.873	325.683	371.121	220.077	157.024	318.198	0.00037661	0.0005158	0.00016699	1455.5	7.0987e-06	5.4787e-06	1455.8	390.29	4.4513e-06	5.2061e-06	445.38	148.32	128.71	43.042	5.4188e-06	53.236	0.0004647	0.0004827	0.00013592	1471.8	5.3813e-06	5.2317e-06	1470.1	397.22	5.2742e-06	5.3243e-06	453.25	151.51	130.89	44.125	5.4063e-06	54.393	213.313	106.399	104.946	42.142	200.915	179.956	42.126	47.083	212.174	192.180	46.223	51.479	51.460	55.846	195.489	55.053	-8191	255	
773.216	1	1	0	0	0.074436	0.37587	0.19282	0.46134	0.16147	0.14891	0.28152	0.3469	0.10001	0.052243	0.27885	0.19221	0.16356	0.30741	0.26772	0.1776	-1.4229	-1.1	-0.925	-1.7729	-0.89167	-1.4625	-1.725	-1.0958	-1.7229	-0.99792	-0.90417	-1.85	-1.0021	-1.5979	-1.2792	-1.0375	340.850	247.553	176.757	337.596	251.965	198.748	348.275	343.780	230.992	144.217	309.919	315.138	387.251	58.664	304.415	347.186	0.00038644	0.00051856	0.00011628	1453.5	5.2525e-06	5.0615e-06	1451.3	390.27	4.9167e-06	6.4302e-06	447.37	148.13	127.57	42.898	4.2786e-06	53.328	0.00047082	0.00049691	0.00014253	1468.3	5.3724e-06	5.1048e-06	1466.5	396.59	5.0256e-06	5.4903e-06	452.21	151.38	130.54	44.102	5.4918e-06	54.337	211.714	86.868	130.085	42.139	213.170	180.557	42.398	46.890	213.722	194.511	46.065	51.450	51.636	55.731	179.891	55.161	-8191	255	
773.312	1	1	0	0	0.15505	0.18031	0.12681	0.13395	0.14015	0.10345	0.32895	0.28088	0.28658	0.13342	0.21966	0.29323	0.41514	0.04536	0.40619	0.1101	-1.175	-1.225	-0.96042	-1.9271	-0.90625	-1.3625	-1.6792	-0.95625	-1.6792	-1.2646	-1.1542	-1.9583	-1.0312	-1.4021	-1.5438	-1.1833	160.731	221.515	102.975	283.703	83.771	32.222	360.663	346.106	85.989	127.114	314.661	355.613	51.660	98.593	104.372	30.535	0.00038491	0.00037637	0.00014026	1452.7	7.0534e-06	5.6213e-06	1454.6	390.24	4.4085e-06	4.7961e-06	445.29	147.91	127.73	42.942	5.6082e-06	53.116	0.00047753	0.00049503	0.00013657	1467.9	5.3578e-06	5.4897e-06	1466.5	396.56	5.3658e-06	5.4923e-06	452.07	151.41	130.51	44	5.319e-06	54.308	214.159	115.905	134.298	42.500	210.040	175.542	42.407	47.145	222.118	192.342	46.224	51.361	51.636	55.958	200.767	54.732	-8191	255	
773.384	1	1	0	0	0.11091	0.24396	0.21553	0.1823	0.22338	0.078116	0.16841	0.21632	0.073567	0.17955	0.4474	0.1165	0.071365	0.16628	0.2537	0.50188	-1.2	-1.0688	-0.7125	-2.0479	-1.1187	-1.3292	-1.7979	-1.1187	-1.525	-1.35	-1.2062	-1.8625	-1.3875	-1.1938	-1.7229	-0.88125	159.431	214.816	262.789	374.777	267.300	351.957	341.931	369.510	59.453	256.268	326.747	368.432	112.496	387.223	62.791	33.988	0.00038722	0.00056881	0.00014577	1455.9	6.0397e-06	5.8046e-06	1447	388.6	4.8334e-06	6.1084e-06	444.79	148.44	127.64	42.925	5.7677e-06	53	0.00047883	0.00049882	0.00013541	1469.1	5.3217e-06	5.2955e-06	1463.5	395.63	5.5832e-06	5.2511e-06	451.56	151.25	130.48	43.996	5.157e-06	54.202	214.553	125.764	125.150	42.298	209.958	175.411	42.268	47.057	221.313	191.589	46.467	51.199	51.550	55.631	202.080	54.782	-8191	255	
773.504	1	1	0	0	0.11912	0.1859	0.2218	0.28132	0.16335	0.30292	0.20637	0.17855	0.27602	0.073528	0.078571	0.22056	0.27121	0.18817	0.10758	0.095705	-0.88542	-1.3521	-0.85	-1.7958	-1.0479	-1.0792	-2.0417	-1.1208	-1.3125	-1.675	-1.0854	-1.6	-1.3438	-0.92292	-1.6208	-1.0375	247.843	388.634	144.976	363.969	337.673	351.893	297.906	348.203	314.712	42.354	82.856	227.985	28.888	356.763	380.649	336.207	0.00038283	0.00056664	9.4445e-05	1453.2	5.1053e-06	7.9121e-06	1450.1	388.61	4.789e-06	4.0948e-06	443.27	148.13	127.79	42.814	5.7162e-06	52.869	0.00048265	0.00047853	0.00013116	1467	5.5405e-06	5.4329e-06	1464.2	395.96	5.4105e-06	5.3325e-06	451.29	151.11	130.46	43.898	5.0715e-06	54.244	215.122	115.108	123.098	42.276	210.372	178.717	42.320	46.727	214.594	199.495	46.733	51.202	51.352	55.574	204.328	54.891	-8191	255	
773.600	1	1	0	0	0.019138	0.11456	0.081705	0.18234	0.094427	0.16415	0.09645	0.3639	0.14277	0.19306	0.22842	0.13501	0.34034	0.13799	0.45405	0.3836	-0.85625	-1.575	-0.84167	-1.9771	-1.0646	-1.0854	-1.9375	-1.0229	-1.1604	-1.5229	-1.0063	-1.6812	-1.5458	-1.0521	-1.6875	-1.4	383.028	279.315	279.478	382.712	31.277	330.237	358.382	330.329	203.774	167.778	92.222	359.194	350.969	140.025	219.958	358.851	0.00036678	0.00048263	0.0001748	1449.3	7.3828e-06	4.7523e-06	1451.4	387.97	4.5425e-06	6.9278e-06	443.93	147.48	127.46	42.77	4.5467e-06	52.827	0.00046611	0.00047508	0.00013671	1463.3	5.4791e-06	5.0596e-06	1461.6	394.95	5.3535e-06	5.0095e-06	450.74	150.83	130.31	43.968	5.2141e-06	54.03	216.814	118.621	111.539	42.125	208.604	177.559	42.197	47.087	191.340	182.544	46.437	51.509	51.453	55.646	184.495	54.960	-8191	255	
773.696	1	1	0	0	0.10219	0.030879	0.074708	0.1535	0.14773	0.30207	0.033797	0.55726	0.25631	0.2344	0.19858	0.24585	0.21273	0.048047	0.19172	0.11466	-0.84792	-1.5125	-0.85	-1.4667	-1.3188	-0.92917	-1.8771	-1.3125	-1.1437	-1.6479	-1.2563	-1.5646	-1.4646	-1.0875	-1.7563	-1.3354	227.849	336.866	111.587	389.077	112.131	308.821	332.382	360.943	207.737	105.911	69.495	351.421	344.923	333.186	192.502	112.497	0.00036939	0.00042743	0.00016782	1448.7	5.6546e-06	7.3807e-06	1442.7	388	4.5778e-06	5.1011e-06	445.29	147.41	127.61	42.855	6.3415e-06	53.237	0.00047688	0.00045952	0.00012942	1462	5.2939e-06	5.3582e-06	1460.5	394.85	5.4675e-06	5.0348e-06	451.47	150.9	130.37	43.978	5.1658e-06	54.248	213.442	117.589	122.397	42.323	218.052	195.690	42.346	47.199	226.118	192.903	46.458	51.349	51.672	55.747	211.536	55.193	-8191	255	
773.793	1	1	0	0	0.17733	0.17241	0.058855	0.43159	0.1867	0.33886	0.23354	0.40869	0.12247	0.16921	0.3626	0.35583	0.12519	0.18599	0.13366	0.065132	-0.63333	-1.5938	-0.86458	-1.5854	-1.5625	-0.7875	-1.8687	-1.3708	-1.0312	-1.7292	-1.0146	-1.5146	-1.6583	-1.0521	-1.4688	-1.3563	251.255	29.604	67.667	335.235	386.349	242.643	320.601	249.028	316.056	112.524	372.042	307.939	158.771	383.201	106.609	174.010	0.0003708	0.00060102	0.00013228	1445.6	5.8446e-06	6.7661e-06	1448.8	387.9	4.5612e-06	4.6316e-06	443.16	148.31	127.61	42.672	6.9637e-06	52.881	0.00048961	0.00045381	0.00014103	1460.8	5.4142e-06	5.2441e-06	1461.9	394.38	5.3364e-06	5.0851e-06	450.65	151.01	130.3	43.833	5.1688e-06	54.189	216.608	102.873	107.953	42.558	214.429	187.904	42.616	47.074	218.335	179.979	46.526	51.601	51.815	55.943	205.546	55.152	-8191	255	
773.889	1	1	0	0	0.17094	0.211	0.13903	0.55857	0.16526	0.21994	0.35685	0.26706	0.2171	0.051345	0.25697	0.077414	0.13865	0.23432	0.053537	0.31972	-0.53333	-1.55	-0.97083	-1.575	-1.5854	-0.83125	-1.9688	-1.3396	-0.94792	-1.6646	-1.1208	-1.2062	-1.9417	-0.75	-1.5583	-1.3813	285.890	224.448	343.626	339.255	51.297	279.275	303.935	373.021	372.201	253.018	336.936	307.798	334.620	315.102	290.701	46.154	0.00037116	0.00051519	0.00012386	1449.7	6.3214e-06	2.7755e-06	1443.2	388.17	5.758e-06	4.3845e-06	441.83	147.57	127.26	42.724	6.1808e-06	52.806	0.00047122	0.00045931	0.00013474	1462.8	5.1718e-06	5.3551e-06	1460.3	394.4	5.1885e-06	4.9569e-06	450.16	151.03	130.12	43.79	5.3061e-06	54.097	213.162	104.961	103.852	42.690	211.270	176.428	42.467	47.145	219.234	190.290	45.859	50.976	50.776	55.165	201.515	54.399	-8191	255	
773.983	1	1	0	0	0.054818	0.30767	0.40141	0.074582	0.11481	0.063136	0.35865	0.44172	0.10739	0.075755	0.26543	0.33527	0.058838	0.15575	0.13063	0.2977	-0.5	-1.6792	-0.80625	-1.5063	-1.7271	-0.98333	-1.7729	-1.5625	-0.92708	-1.8438	-1.2354	-1.2771	-2.0083	-0.96875	-1.3833	-1.5875	159.862	209.534	71.889	43.874	43.607	34.580	287.037	333.115	368.485	90.819	254.975	316.571	349.603	209.533	76.812	214.559	0.00035775	0.0005863	0.00015785	1447.5	5.578e-06	5.1844e-06	1446.1	387.61	4.6331e-06	6.974e-06	442.26	147.76	127.12	42.728	4.7882e-06	53.147	0.00047277	0.00048027	0.000137	1462.2	5.0258e-06	5.069e-06	1463	394.5	5.234e-06	5.0664e-06	449.98	150.78	129.94	43.787	5.4082e-06	54.095	215.878	114.759	102.149	42.100	210.444	174.436	41.830	46.441	202.200	184.976	45.669	50.785	50.877	55.202	212.964	54.300	-8191	255	
774.081	1	1	0	0	0.091274	0.025869	0.049438	0.24786	0.18753	0.061792	0.45548	0.16732	0.29199	0.095789	0.33105	0.047063	0.3206	0.039815	0.13906	0.3225	-0.52917	-1.7542	-1.2354	-1.3708	-1.7958	-0.87917	-1.4854	-1.6854	-0.60417	-1.4292	-1.5708	-1.0979	-1.8729	-1.0333	-1.5021	-1.6042	176.411	230.057	148.460	364.321	336.486	130.888	354.307	289.405	143.426	252.127	325.958	350.333	320.229	287.778	134.952	386.943	0.00036368	0.00042508	0.00016468	1439	5.2458e-06	5.8643e-06	1445.2	386.49	5.1955e-06	4.8401e-06	441.72	148.05	127.51	42.786	4.8401e-06	52.904	0.00046976	0.00046955	0.00013505	1459.6	5.1675e-06	5.2013e-06	1459.8	394.23	5.2724e-06	5.3582e-06	449.62	150.82	130.27	43.886	5.4251e-06	54.121	214.730	130.444	94.003	41.860	196.189	180.202	41.735	46.508	226.560	192.684	45.642	50.820	50.815	55.126	185.234	54.491	-8191	255	
774.200	1	1	0	0	0.29952	0.017562	0.042245	0.32167	0.23472	0.11495	0.2343	0.22953	0.25065	0.049974	0.18075	0.19771	0.26304	0.18924	0.089158	0.36379	-0.41875	-1.4542	-1.2021	-1.0333	-1.6021	-1.0979	-1.4979	-1.8917	-0.91042	-1.5333	-1.7333	-0.9125	-1.8479	-1.2938	-1.3625	-1.825	322.619	218.701	146.471	324.770	101.833	100.066	369.146	325.082	210.143	42.641	68.786	171.013	70.679	33.602	317.493	370.728	0.00037056	0.00069804	0.00014742	1450.1	5.6043e-06	4.5832e-06	1446.7	388.9	3.3933e-06	3.2391e-06	446.15	148.16	127.48	42.722	5.5514e-06	52.943	0.00047682	0.00048946	0.00013632	1464	5.1482e-06	5.4267e-06	1462.5	395.27	5.2871e-06	5.1416e-06	451.19	151.06	130.37	43.912	5.3666e-06	54.155	212.568	119.798	96.877	41.733	210.871	200.660	41.845	46.423	215.149	180.949	45.718	50.917	51.192	55.255	219.993	54.562	-8191	255	
774.296	1	1	0	0	0.14206	0.13735	0.20023	0.18723	0.23597	0.36796	0.27403	0.27566	0.27808	0.02051	0.23939	0.075125	0.15796	0.089448	0.26065	0.039192	-0.52292	-1.2938	-1.5021	-1.1562	-1.5854	-1.2104	-1.3	-2.0104	-0.98542	-1.3333	-1.675	-0.86458	-1.8333	-1.2854	-1.0708	-1.8062	374.917	33.387	65.206	278.245	307.623	54.254	379.162	302.851	95.001	50.079	379.438	229.096	305.672	30.150	356.274	133.671	0.00037915	0.00070939	0.0001371	1446.9	5.5707e-06	4.7183e-06	1449.2	387.94	3.8881e-06	4.5629e-06	442.74	147.66	128.34	42.78	5.8577e-06	52.987	0.00047885	0.00050119	0.00013467	1464.1	5.5559e-06	5.3551e-06	1462.6	395.81	5.1738e-06	5.2437e-06	451.23	151.27	130.77	43.881	5.2922e-06	54.199	215.168	128.297	129.834	41.636	212.374	196.697	42.083	46.508	211.901	182.644	45.746	50.877	51.262	55.298	203.710	54.410	-8191	255	
774.392	1	1	0	0	0.16883	0.11893	0.061017	0.25524	0.20623	0.25639	0.24951	0.30469	0.19682	0.22405	0.12061	0.086111	0.28254	0.31025	0.10835	0.22817	-0.56042	-1.1375	-1.4521	-0.87708	-1.6583	-1.3687	-1.2542	-1.975	-0.88958	-1.1417	-1.6542	-0.94167	-1.5	-1.3979	-1.0458	-1.9625	35.092	384.607	272.904	369.829	280.099	206.507	384.285	359.609	255.558	240.535	56.465	86.162	353.595	324.454	319.862	358.193	0.00036128	0.00051456	0.00011463	1445.1	4.8994e-06	5.4896e-06	1444.4	388.4	5.448e-06	4.7491e-06	442.62	147.15	127.68	42.845	6.6953e-06	52.903	0.0004821	0.0004795	0.00013079	1464.9	5.5548e-06	5.4076e-06	1463.4	395.64	5.4955e-06	5.456e-06	450.21	150.86	130.36	43.823	5.4597e-06	54.156	216.068	106.518	101.080	41.959	184.566	178.061	42.167	46.719	205.423	178.100	45.514	50.772	50.771	54.999	199.382	54.249	-8191	255	
774.488	1	1	0	0	0.10241	0.2911	0.35422	0.24871	0.11489	0.26373	0.39854	0.3867	0.039808	0.075532	0.17719	0.42645	0.11346	0.11038	0.24817	0.25906	-0.67083	-0.96042	-1.55	-1.0562	-1.4396	-1.5896	-1.2167	-1.8312	-1.2313	-1.125	-1.8354	-0.97292	-1.4312	-1.8875	-0.80417	-1.7875	383.466	114.428	31.208	362.633	140.341	114.105	326.691	378.273	253.839	85.154	387.284	325.872	276.923	308.297	146.497	352.378	0.00036066	0.00046339	0.00016334	1446.5	5.1108e-06	6.0388e-06	1447.9	388.58	7.0766e-06	5.5561e-06	443.28	147.87	128.25	42.745	6.3738e-06	53.029	0.00049273	0.00049806	0.00013326	1462.7	5.5231e-06	5.4302e-06	1461.9	395.3	5.6654e-06	5.5172e-06	451.13	151.19	130.73	43.873	5.4796e-06	54.261	214.009	113.758	106.291	41.691	213.266	175.708	41.769	46.189	210.386	181.407	45.542	50.653	51.035	54.931	201.012	54.295	-8191	255	
774.609	1	1	0	0	0.27886	0.1936	0.16582	0.35984	0.17658	0.30782	0.38453	0.11913	0.17879	0.084891	0.23687	0.053612	0.21041	0.19444	0.13346	0.088828	-0.69583	-0.90417	-1.8104	-1.0896	-1.3958	-1.8479	-1.1458	-1.7125	-1.1375	-0.9875	-1.825	-1.0979	-1.3667	-1.8479	-0.92917	-1.7583	63.520	139.810	137.766	267.778	358.966	175.028	322.322	315.917	189.761	195.134	309.487	316.884	265.164	353.607	123.232	82.916	0.00036858	0.00047429	0.00016864	1453.3	5.8317e-06	5.6506e-06	1452.2	388.76	5.9713e-06	5.7775e-06	445.66	147.73	127.8	42.744	6.6462e-06	52.986	0.00049963	0.00050509	0.00013348	1468.3	5.6219e-06	5.134e-06	1464.7	395.44	5.5133e-06	5.481e-06	451.95	151.15	130.51	43.927	5.515e-06	54.264	214.038	114.496	113.502	41.623	201.559	178.979	42.004	46.488	206.197	170.534	45.825	50.816	51.129	55.323	205.166	54.248	-8191	255	
774.681	1	1	0	0	0.11248	0.15348	0.21971	0.3378	0.16509	0.086674	0.19263	0.28931	0.080899	0.074235	0.35109	0.21982	0.13383	0.3267	0.25279	0.1522	-0.875	-0.92292	-1.6646	-1.1771	-1.3687	-1.6938	-1.1938	-1.725	-1.3979	-0.97917	-1.9583	-1.1354	-1.1688	-1.6104	-0.84167	-1.8125	360.378	76.482	69.612	359.831	327.298	218.306	296.019	40.314	295.331	52.698	354.792	345.535	271.133	353.734	369.769	50.347	0.00037889	0.00054958	0.00010113	1450.8	5.1611e-06	5.7736e-06	1447.3	390.54	4.7328e-06	3.9904e-06	442.3	147.74	127.64	42.758	4.0608e-06	52.741	0.0004821	0.00049646	0.00013938	1467.8	5.618e-06	5.3515e-06	1463.7	395.71	5.4539e-06	5.1903e-06	451.09	151.04	130.65	43.884	5.4251e-06	54.101	213.250	115.660	97.513	41.636	206.062	198.528	41.895	46.683	207.248	201.948	45.794	50.843	51.265	55.267	202.717	54.496	-8191	255	
774.801	1	1	0	0	0.25787	0.18256	0.25682	0.048059	0.18875	0.29002	0.26083	0.22127	0.036009	0.15062	0.29748	0.3661	0.066875	0.17144	0.29158	0.17504	-0.97083	-0.83542	-1.7167	-1.3792	-1.1646	-1.7333	-1.0104	-1.8125	-1.2583	-0.81667	-1.7938	-1.3479	-1.1938	-1.8229	-0.87917	-1.4813	346.109	229.350	100.327	102.668	216.089	298.009	255.881	328.514	190.048	250.585	356.542	44.031	33.847	323.477	323.895	315.853	0.0003827	0.0002927	0.00015206	1443.9	5.5233e-06	4.8366e-06	1445.1	389.41	4.4758e-06	5.429e-06	443.85	147.48	127	42.713	5.4182e-06	52.882	0.00048219	0.0004842	0.00013504	1460.4	5.3271e-06	4.9946e-06	1460.3	395.52	5.2647e-06	5.2004e-06	450.71	150.67	130.09	43.86	5.3684e-06	54.068	213.968	121.703	107.843	41.581	189.997	193.927	41.979	46.897	206.843	168.488	46.062	50.769	51.409	55.372	211.003	54.624	-8191	255	
774.897	1	1	0	0	0.12037	0.20925	0.1658	0.23796	0.1816	0.21268	0.2998	0.46014	0.15522	0.20072	0.31687	0.082929	0.13566	0.29489	0.19799	0.16487	-1.2375	-1.0375	-1.5063	-1.3875	-0.99167	-1.6375	-1.2604	-1.5396	-1.4354	-0.77083	-1.8375	-1.4875	-0.99583	-1.6979	-0.82917	-1.2875	210.156	307.768	80.585	302.702	314.575	330.648	347.862	333.762	205.284	100.774	313.950	114.866	368.963	336.761	304.164	294.219	0.00036183	0.00038373	0.00018465	1447.1	5.6108e-06	4.3116e-06	1445.8	387.07	4.4737e-06	5.6058e-06	441.7	148.16	127.27	42.697	3.3937e-06	52.774	0.00045638	0.00047494	0.00014331	1462.5	5.4484e-06	4.8845e-06	1461.2	394.88	4.9973e-06	5.4432e-06	449.14	150.81	129.94	43.822	5.2826e-06	54.012	212.438	102.570	105.728	41.901	204.153	181.898	41.867	46.802	211.913	183.565	46.020	50.926	51.402	55.590	185.209	54.499	-8191	255	
774.992	1	1	0	0	0.091961	0.14528	0.33347	0.13374	0.35096	0.19308	0.42008	0.1542	0.073483	0.48606	0.12281	0.10204	0.11681	0.20601	0.12432	0.12502	-0.98542	-0.56667	-1.3646	-1.5375	-0.83958	-1.7708	-1.2667	-1.3708	-1.7083	-0.87083	-1.4792	-1.5083	-0.825	-1.5583	-1.0271	-1.2896	388.116	107.888	323.924	350.261	354.105	160.944	325.765	322.164	36.901	149.334	316.077	307.192	323.745	289.956	282.925	309.107	0.00035747	0.00055511	0.00016394	1443.4	6.2057e-06	4.77e-06	1444.6	386.86	4.5568e-06	3.4975e-06	444.35	147.3	127.27	42.592	5.3808e-06	53.081	0.00045171	0.00047063	0.00013259	1458.3	5.1654e-06	5.132e-06	1457.5	394.13	4.8809e-06	5.3458e-06	450.68	150.6	129.95	43.766	5.4281e-06	54.071	213.412	114.291	118.268	41.897	212.923	183.341	42.188	46.770	196.768	192.231	46.205	50.987	51.458	55.200	208.892	54.570	-8191	255	
775.088	1	1	0	0	0.21827	0.079238	0.061194	0.3075	0.27021	0.13851	0.019275	0.18139	0.066256	0.14424	0.25066	0.21511	0.20459	0.26611	0.06285	0.07377	-1.2875	-0.90625	-1.4062	-1.7125	-0.7875	-1.6479	-1.3521	-1.0896	-1.8146	-0.88333	-1.4125	-1.7792	-1.0125	-1.7875	-1.1458	-1.0417	388.341	342.104	332.691	35.495	208.114	239.484	332.933	352.179	42.716	346.886	88.456	288.693	335.818	125.677	272.730	303.596	0.00038129	0.00049973	0.0001256	1440.3	6.7102e-06	4.4981e-06	1437.8	386.77	4.1535e-06	4.5482e-06	440.78	146.76	127.14	42.591	5.3319e-06	52.485	0.00046959	0.00049346	0.00013836	1456.6	5.4149e-06	5.125e-06	1454.9	393.41	5.1025e-06	5.428e-06	449.02	150.11	129.74	43.737	5.4638e-06	53.881	213.974	110.238	119.573	41.833	202.894	199.395	42.317	46.970	205.724	172.874	46.504	51.167	51.388	55.539	200.774	54.768	-8191	255	
775.209	1	1	0	0	0.12613	0.087715	0.10008	0.17848	0.12486	0.1865	0.27736	0.43397	0.087738	0.28202	0.12359	0.10959	0.29697	0.024344	0.1485	0.24527	-1.2521	-1.075	-1.2729	-1.7313	-0.91458	-1.7042	-1.5625	-0.96875	-1.8479	-1.1021	-1.3458	-1.8208	-0.99375	-1.5917	-1.4833	-0.98958	382.161	200.311	99.378	350.018	103.032	210.534	273.481	286.759	40.814	293.304	119.191	97.972	73.342	225.891	113.657	354.313	0.00035292	0.00053551	0.00012965	1440.3	5.925e-06	5.6567e-06	1440.7	386.77	4.5517e-06	5.0182e-06	442.42	147.01	126.88	42.671	6.1243e-06	52.629	0.00045911	0.00048347	0.00012939	1455.8	5.3428e-06	5.3667e-06	1454.4	393.59	5.2728e-06	5.4171e-06	449.62	150.32	129.62	43.751	5.2004e-06	53.863	214.321	106.789	98.871	42.179	213.609	195.162	42.092	46.947	226.902	175.034	46.228	51.025	51.288	55.740	192.269	55.053	-8191	255	
775.280	1	1	0	0	0.16471	0.17218	0.28626	0.37832	0.21927	0.12647	0.22283	0.033434	0.17818	0.068276	0.09193	0.14393	0.12784	0.17289	0.26884	0.24191	-1.3729	-1.1812	-1.2625	-1.9104	-0.92917	-1.5688	-1.5583	-1.0521	-1.7271	-1.3292	-1.1396	-1.7646	-0.98125	-1.7375	-1.3917	-0.94167	294.674	251.813	44.896	380.969	196.938	134.190	301.139	122.903	205.522	237.804	285.896	71.871	379.685	66.844	226.518	306.220	0.00036499	0.00059471	0.00014092	1436.8	5.1594e-06	4.82e-06	1442.2	387.22	4.5433e-06	5.382e-06	441.38	147.35	127.23	42.705	6.1972e-06	52.759	0.00046546	0.00048702	0.00013608	1454.4	5.4224e-06	5.3753e-06	1455.1	393.53	5.2819e-06	5.3294e-06	448.66	150.48	129.78	43.758	5.1445e-06	53.949	217.015	120.331	125.455	42.098	218.623	183.085	42.416	47.141	226.967	196.858	46.486	51.192	51.564	55.629	183.114	55.153	-8191	255	
775.376	1	1	0	0	0.19833	0.21217	0.26862	0.17406	0.077651	0.30841	0.38199	0.2721	0.13866	0.13226	0.20159	0.11613	0.091822	0.18157	0.17294	0.35356	-1.2958	-1.0938	-1.0896	-1.9667	-0.89375	-1.3563	-1.9438	-0.84375	-1.5063	-1.3312	-1.0646	-2.0146	-1.05	-1.5562	-1.6229	-0.9	351.109	118.735	353.485	315.716	287.713	349.409	378.139	353.008	303.267	352.171	265.231	373.700	353.884	385.569	122.532	339.045	0.00035957	0.00053419	0.0001118	1437.1	6.6187e-06	6.949e-06	1434.6	387.22	4.3529e-06	4.3255e-06	442.4	147.33	126.76	42.682	4.7951e-06	52.925	0.00047598	0.00048058	0.00012925	1455.6	5.5812e-06	5.2558e-06	1454.1	393.42	5.3791e-06	5.2675e-06	448.39	150.2	129.44	43.733	5.034e-06	53.989	213.257	120.743	107.709	42.224	204.296	184.948	42.492	47.041	219.689	172.467	46.504	51.483	51.780	55.794	202.149	55.172	-8191	255	
775.473	1	1	0	0	0.12502	0.25232	0.118	0.44478	0.24961	0.19191	0.185	0.17912	0.11449	0.46773	0.22533	0.12869	0.14976	0.10587	0.21386	0.15684	-1.1458	-1.25	-0.86667	-1.8312	-0.92292	-1.2979	-1.8792	-0.8875	-1.6458	-1.3354	-1.0833	-1.8583	-1.1917	-1.3813	-1.5979	-1.1042	261.107	263.999	224.518	382.829	74.254	44.485	324.936	352.462	187.736	215.898	382.129	91.624	243.282	128.870	235.522	144.964	0.00035843	0.00037309	0.00014634	1443.6	5.3252e-06	3.3214e-06	1439.9	387.94	4.2533e-06	6.4357e-06	442.97	147.3	126.85	42.486	4.0358e-06	52.895	0.00047124	0.00048563	0.00013486	1457.5	5.5698e-06	5.0756e-06	1455.6	394.03	5.5304e-06	5.186e-06	448.87	150.43	129.74	43.688	5.3382e-06	53.969	215.408	99.826	112.257	42.275	220.254	170.529	42.271	47.234	194.021	190.067	46.315	51.292	51.784	55.898	214.807	55.154	-8191	255	
775.569	1	1	0	0	0.17098	0.26623	0.1089	0.38345	0.22493	0.21778	0.1976	0.24464	0.34257	0.36469	0.18946	0.18403	0.13781	0.19532	0.28586	0.099184	-1.2021	-1.4	-1.0208	-1.9188	-0.96667	-1.2042	-1.9062	-0.95833	-1.2208	-1.5542	-1.075	-1.7479	-1.3354	-1.1437	-1.8188	-1.2583	85.235	299.915	187.871	44.117	72.194	298.584	323.676	380.198	43.317	83.734	73.308	58.154	75.241	225.565	103.650	191.822	0.00034629	0.00057249	0.00012139	1441.8	5.392e-06	4.5713e-06	1437.2	385.41	4.3583e-06	3.3791e-06	440.51	147.32	126.9	42.626	7.3462e-06	52.863	0.0004716	0.00046022	0.00013426	1456.1	5.5548e-06	5.0616e-06	1454.9	392.9	5.3042e-06	5.2834e-06	448.33	150.31	129.62	43.681	5.291e-06	53.954	214.393	117.776	123.123	42.466	203.526	194.486	42.469	46.930	214.539	174.532	46.474	51.258	51.670	55.613	197.060	55.031	-8191	255	
775.689	1	1	0	0	0.19614	0.27234	0.093165	0.4196	0.19492	0.095139	0.19382	0.14313	0.12705	0.22243	0.1565	0.23485	0.27317	0.033243	0.073671	0.16119	-1.1458	-1.6729	-0.84167	-1.8438	-1.275	-1.0917	-1.7958	-1.1896	-1.3208	-1.65	-0.96667	-1.4792	-1.3833	-0.98333	-1.6958	-1.1396	256.532	342.902	301.343	35.775	135.792	117.701	322.295	383.712	116.716	383.806	354.515	307.052	366.692	34.080	202.379	221.148	0.00035097	0.000568	0.00015923	1441.2	4.2536e-06	4.1989e-06	1436.3	387.91	4.9786e-06	4.388e-06	440.79	147.09	127.43	42.632	4.9754e-06	52.638	0.00047424	0.00045764	0.00014021	1456.6	5.3424e-06	5.3519e-06	1455.8	393.87	5.2256e-06	5.2686e-06	448.39	150.39	129.74	43.725	5.5452e-06	53.883	215.013	127.475	105.116	42.267	206.786	196.180	42.560	47.178	221.448	185.542	46.180	51.578	51.640	55.965	190.227	55.106	-8191	255	
775.786	1	1	0	0	0.14457	0.30699	0.16142	0.33475	0.1925	0.30853	0.29201	0.19472	0.21911	0.2549	0.17854	0.37103	0.231	0.19625	0.3474	0.18577	-0.84375	-1.6479	-1.0104	-1.8333	-1.4312	-0.75208	-1.9042	-1.3604	-1.1562	-1.6688	-1.1708	-1.6729	-1.7542	-0.95625	-1.55	-1.2646	226.130	383.827	109.333	366.196	213.831	155.857	321.896	305.119	255.001	146.321	292.204	339.387	35.008	268.128	151.169	328.406	0.00039621	0.00045082	0.00013219	1444.4	7.22e-06	5.013e-06	1439.7	386.53	4.4543e-06	5.8891e-06	441.07	146.95	126.63	42.509	5.5425e-06	52.982	0.00048246	0.00047606	0.00014251	1460.8	5.3178e-06	5.3426e-06	1455.8	393.34	5.478e-06	5.2706e-06	448.71	150.51	129.39	43.709	5.5433e-06	54.033	214.843	112.713	112.880	42.599	209.136	191.445	42.705	47.174	219.330	193.148	46.749	51.237	51.733	56.105	188.305	55.373	-8191	255	
775.882	1	1	0	0	0.089283	0.28249	0.14027	0.29033	0.31649	0.053749	0.01397	0.49604	0.064554	0.10193	0.27599	0.24176	0.17674	0.14911	0.22998	0.24656	-0.75208	-1.8583	-0.82708	-1.6771	-1.4979	-1.1021	-1.7417	-1.4458	-1.1021	-1.8958	-0.95625	-1.4833	-1.7771	-1.0417	-1.5438	-1.3417	349.650	313.094	144.235	341.809	198.397	178.266	294.347	355.937	199.827	289.150	315.147	347.613	363.564	82.433	227.849	300.766	0.00037038	0.00055256	0.00015773	1443.7	6.7896e-06	5.1833e-06	1446.5	385.86	5.4382e-06	5.5806e-06	441.06	146.99	126.63	42.526	5.8197e-06	52.979	0.00048045	0.00049834	0.00014396	1459.9	5.446e-06	5.7217e-06	1458.2	393.51	5.5102e-06	5.3941e-06	449.54	150.59	129.53	43.699	5.9661e-06	53.992	214.189	114.782	110.921	42.679	194.296	174.820	42.957	47.366	199.147	180.799	46.560	51.754	51.789	56.204	206.171	55.367	-8191	255	
775.978	1	1	0	0	0.091584	0.22339	0.22491	0.21704	0.045804	0.30691	0.44193	0.49307	0.22073	0.17268	0.13118	0.30371	0.36684	0.3031	0.058819	0.24854	-0.65833	-1.8396	-1.1229	-1.4396	-1.6562	-1.075	-1.8521	-1.5958	-0.97917	-1.7687	-1.1562	-1.2625	-1.8062	-0.97708	-1.7104	-1.5583	225.201	112.304	367.170	374.892	202.795	132.964	338.340	346.719	302.472	128.006	346.474	319.035	40.265	43.543	363.011	321.276	0.00036578	0.00051235	0.00013704	1443.4	7.8476e-06	4.4868e-06	1444.9	388.01	3.6083e-06	4.7891e-06	444.25	147.79	127.51	42.661	5.5551e-06	52.806	0.00048607	0.00048173	0.00014509	1457.7	5.4306e-06	5.7754e-06	1458.5	393.75	5.4032e-06	5.6006e-06	449.76	150.64	129.97	43.708	5.6866e-06	53.964	212.270	110.535	108.068	42.577	206.134	162.130	42.865	47.384	212.789	185.126	46.821	51.832	52.168	56.154	197.588	55.553	-8191	255	
776.072	1	1	0	0	0.29339	0.19931	0.26215	0.29935	0.26186	0.40187	0.041308	0.066518	0.21745	0.078006	0.20568	0.18484	0.017294	0.25492	0.24416	0.31109	-0.57708	-1.7896	-1.2042	-1.325	-1.6437	-0.95833	-1.575	-1.7271	-0.92708	-1.6458	-1.2896	-1.1812	-1.9583	-0.89792	-1.3833	-1.7313	343.898	42.049	146.704	34.976	101.499	376.753	30.772	317.071	373.229	295.626	297.535	79.999	144.460	370.244	385.135	319.295	0.00036875	0.00057526	0.00010583	1444	6.1365e-06	6.5053e-06	1439.5	386.22	5.3562e-06	5.5409e-06	440.53	146.74	126.98	42.677	5.1671e-06	52.656	0.00048992	0.00049506	0.00013964	1456.5	5.392e-06	5.6711e-06	1455.2	393.7	5.6573e-06	5.58e-06	448.84	150.43	129.73	43.707	5.4826e-06	53.872	217.786	116.904	122.825	42.752	216.394	182.132	43.119	47.506	210.577	177.912	46.983	51.902	52.230	56.339	198.680	55.517	-8191	255	
776.170	1	1	0	0	0.032688	0.11895	0.010604	0.20873	0.14444	0.25143	0.37601	0.28312	0.24052	0.19814	0.25171	0.31433	0.14048	0.087636	0.2027	0.15534	-0.38542	-1.5521	-1.1333	-1.2313	-1.8396	-1.0479	-1.7167	-1.8708	-0.8875	-1.4604	-1.3021	-1.0167	-1.8563	-1.125	-1.3896	-1.7437	373.559	138.274	213.838	373.718	107.353	349.051	314.147	371.743	74.977	289.207	362.950	356.793	43.910	72.080	153.887	362.401	0.00039904	0.00044598	7.7435e-05	1444.2	5.1226e-06	3.9992e-06	1448	386.19	5.0319e-06	3.3817e-06	441.29	146.54	126.93	42.774	4.2223e-06	52.655	0.00050567	0.00050178	0.00013884	1458	5.5445e-06	5.6287e-06	1457	393.08	5.6542e-06	5.4627e-06	448.9	150.27	129.88	43.738	5.3894e-06	53.949	215.441	136.543	125.266	41.532	214.179	193.297	41.529	45.903	231.871	186.358	45.417	50.351	50.629	54.857	197.237	54.265	-8191	255	
776.289	1	1	0	0	0.090487	0.25324	0.29846	0.10044	0.19006	0.39757	0.16249	0.32943	0.23968	0.24105	0.10222	0.41927	0.16115	0.38299	0.16593	0.15808	-0.59792	-1.6625	-1.3646	-1.1083	-1.6042	-1.1	-1.4625	-1.8	-0.92917	-1.6812	-1.5271	-0.98958	-1.9438	-1.175	-1.1271	-1.8521	131.548	276.317	307.939	324.761	129.571	346.481	274.754	353.871	196.116	265.086	266.782	331.633	355.783	376.029	59.029	302.109	0.00036973	0.00054726	0.00012586	1436.3	6.1417e-06	3.5082e-06	1440.5	387.41	4.7468e-06	3.4333e-06	440.18	147.19	126.38	42.464	6.1705e-06	52.74	0.00049804	0.00050147	0.00013515	1455.7	5.588e-06	5.6699e-06	1455.3	393.77	5.5864e-06	5.5959e-06	448.99	150.23	129.5	43.681	5.4358e-06	53.925	217.224	128.594	114.501	41.476	212.609	184.268	41.504	46.148	210.780	203.160	45.411	50.419	50.977	54.990	200.490	53.900	-8191	255	
776.385	1	1	0	0	0.20343	0.099424	0.10728	0.16025	0.21161	0.36054	0.14107	0.24588	0.35501	0.067725	0.16127	0.1759	0.20523	0.33328	0.025409	0.10901	-0.55833	-1.4688	-1.4771	-1.1333	-1.7396	-1.1708	-1.2896	-1.9333	-0.86667	-1.5021	-1.6396	-0.88542	-1.6271	-1.2604	-1.0958	-1.8375	334.784	47.398	132.163	373.318	96.532	281.456	194.998	368.323	39.208	352.924	32.347	337.694	321.301	38.721	323.112	335.887	0.00036711	0.00039695	0.0001104	1442.3	6.0314e-06	6.2753e-06	1441.1	386.26	5.1453e-06	6.0145e-06	441.01	147.1	126.42	42.685	6.3503e-06	52.685	0.00049108	0.00049325	0.00013617	1457.4	5.6212e-06	5.3624e-06	1456.4	393.63	5.8765e-06	5.4393e-06	448.28	150.27	129.52	43.715	5.6262e-06	53.986	217.600	126.356	101.310	41.614	222.425	188.032	41.864	46.360	215.304	176.424	45.453	50.684	50.992	55.129	191.039	54.399	-8191	255	
776.481	1	1	0	0	0.095656	0.19303	0.18076	0.2212	0.16281	0.085545	0.24368	0.29029	0.14903	0.026395	0.12266	0.20231	0.10872	0.2648	0.1877	0.055101	-0.60625	-1.0604	-1.725	-1.1187	-1.7042	-1.3333	-1.2833	-2.0083	-1.0187	-1.3021	-1.8104	-1.0167	-1.9271	-1.4646	-0.72708	-1.925	275.554	381.641	307.523	67.708	101.097	148.143	339.191	324.316	333.404	70.539	276.436	377.725	303.841	372.810	130.528	33.389	0.00036352	0.00050543	0.00017107	1443.3	6.0102e-06	3.5214e-06	1437.1	386.24	4.308e-06	6.033e-06	441.88	146.52	126.76	42.445	5.0032e-06	52.429	0.00048055	0.00048998	0.00013443	1457.9	5.6908e-06	5.3196e-06	1452.6	393.49	5.5773e-06	5.4635e-06	449.76	150.04	129.31	43.6	5.5551e-06	53.922	213.636	120.585	115.850	41.509	191.512	198.188	41.679	46.496	200.858	185.496	45.484	50.327	50.890	54.974	197.682	54.206	-8191	255	
776.577	1	1	0	0	0.11955	0.10179	0.11649	0.42173	0.079973	0.11677	0.15812	0.39562	0.08767	0.086554	0.037981	0.12963	0.32401	0.19307	0.1779	0.11441	-0.5625	-1.175	-1.6167	-1.1396	-1.6833	-1.5604	-0.975	-1.8438	-1.0104	-1.1625	-1.8854	-0.92917	-1.5542	-1.3875	-0.89583	-1.9396	257.219	132.592	228.275	307.149	165.117	345.105	313.539	36.106	177.252	316.873	142.001	305.333	351.077	303.807	370.193	342.021	0.00036063	0.00064484	0.00015296	1436.6	5.8043e-06	5.0668e-06	1443.5	385.43	4.459e-06	6.0596e-06	440.29	147.32	126.99	42.509	5.6171e-06	52.618	0.00048795	0.00050558	0.00013758	1453.8	5.271e-06	5.2795e-06	1454	392.39	5.3378e-06	5.3407e-06	448.01	150.4	129.67	43.667	5.7013e-06	53.935	216.190	102.922	126.042	41.540	220.982	196.064	41.884	46.233	233.568	186.165	45.644	50.730	51.050	55.136	193.581	54.432	-8191	255	
776.674	1	1	0	0	0.17382	0.06509	0.03741	0.10624	0.076538	0.22083	0.25179	0.11197	0.24427	0.19999	0.28193	0.51388	0.16077	0.094272	0.067738	0.22832	-0.72083	-1.0792	-1.825	-1.2146	-1.2833	-1.3771	-1.1458	-2.0354	-1.4333	-0.95833	-1.8396	-0.93958	-1.5187	-1.7833	-0.84583	-1.7354	162.451	150.726	258.611	340.870	158.063	233.878	252.088	326.739	347.814	376.455	327.866	44.197	355.391	96.002	227.765	46.114	0.00036552	0.00047663	0.00010119	1431.7	4.2338e-06	5.8812e-06	1440	386.2	3.2775e-06	6.5172e-06	442.48	146.57	126.82	42.439	4.6853e-06	52.586	0.00048162	0.00048312	0.00014206	1452.1	5.2839e-06	5.4543e-06	1454.1	393.13	5.2333e-06	5.3212e-06	448.95	150.11	129.51	43.655	5.6034e-06	53.869	215.459	107.256	116.558	41.341	216.779	181.659	41.761	46.464	207.967	176.800	45.647	50.727	50.969	54.917	203.648	54.546	-8191	255	
776.770	1	1	0	0	0.24859	0.041702	0.24328	0.35935	0.248	0.30123	0.42136	0.40198	0.13428	0.018459	0.25407	0.15783	0.37113	0.16031	0.22794	0.28812	-0.81458	-0.9625	-1.6667	-1.3271	-1.2542	-1.6292	-1.0292	-1.8979	-1.4188	-0.9	-1.9354	-1.1458	-1.4292	-1.7292	-0.7875	-1.675	60.850	133.079	378.157	343.318	82.761	90.776	339.653	360.319	200.948	160.503	337.178	188.616	339.867	43.182	298.800	384.710	0.00038711	0.00056011	0.00010514	1442.7	6.3812e-06	4.8603e-06	1437.4	386.01	3.8212e-06	3.5861e-06	442.35	146.6	127.14	42.777	5.5185e-06	52.756	0.00048311	0.00048956	0.00013638	1454.8	5.5156e-06	5.3321e-06	1452.8	393.41	5.1308e-06	5.4362e-06	449.7	150	129.81	43.715	5.494e-06	53.925	213.951	117.791	109.367	41.709	208.788	172.423	41.901	46.535	209.363	184.794	46.104	50.734	51.397	55.265	214.713	54.572	-8191	255	
776.866	1	1	0	0	0.22126	0.15615	0.32464	0.12959	0.19221	0.18643	0.16317	0.40992	0.084989	0.083334	0.10187	0.32033	0.13218	0.15291	0.0079785	0.28806	-1.0729	-0.90833	-1.4146	-1.1354	-1.1958	-1.4771	-1.0146	-1.5562	-1.5833	-0.91458	-1.875	-1.2021	-1.0458	-1.7792	-1.0458	-1.6896	298.981	99.920	135.070	331.373	79.935	147.786	296.951	338.982	258.217	160.286	265.240	355.316	281.081	341.568	222.144	329.820	0.00037794	0.00043247	0.0001026	1439.4	5.5632e-06	6.0821e-06	1439.8	385.61	3.7603e-06	5.0195e-06	441.32	145.85	126.97	42.479	5.9027e-06	52.943	0.00047145	0.00049625	0.00013836	1455.3	5.512e-06	5.1869e-06	1453.7	392.87	5.1581e-06	5.4899e-06	448.46	149.9	129.45	43.627	5.645e-06	53.978	212.684	115.281	110.480	41.881	195.781	198.296	42.086	46.837	224.626	166.985	46.079	51.082	51.371	55.686	191.811	54.616	-8191	255	
776.985	1	1	0	0	0.04841	0.088039	0.40598	0.20288	0.31966	0.26138	0.18941	0.48559	0.1399	0.2807	0.17217	0.22807	0.31597	0.34139	0.020553	0.21249	-1.1542	-0.87917	-1.5021	-1.4167	-0.89792	-1.8292	-1.2375	-1.6104	-1.7667	-0.82917	-1.6208	-1.5771	-1.0729	-1.9625	-0.94167	-1.3479	303.982	345.715	189.718	335.366	275.954	205.547	323.681	308.921	256.638	273.004	352.771	46.202	361.413	345.551	197.438	349.567	0.00036213	0.00054232	0.00012153	1445.2	6.3638e-06	3.6736e-06	1439.3	385.49	4.4293e-06	5.4495e-06	442.34	146.54	126.51	42.789	6.0648e-06	52.858	0.00046028	0.00049123	0.00013614	1454.6	5.5845e-06	5.197e-06	1452.1	392.56	5.4011e-06	5.7132e-06	448.35	150.02	129.15	43.72	5.4203e-06	53.892	217.904	124.947	105.615	41.767	199.809	190.862	42.286	47.254	214.085	185.861	46.122	51.217	51.118	55.386	207.192	54.910	-8191	255	
777.081	1	1	0	0	0.16135	0.13661	0.32503	0.3609	0.31958	0.066786	0.43011	0.26074	0.22409	0.26759	0.19335	0.32013	0.04428	0.042661	0.13328	0.16316	-1.2938	-0.98333	-1.4188	-1.5667	-0.99792	-1.6104	-1.2271	-1.35	-1.7708	-0.825	-1.6792	-1.3604	-1.0125	-1.9312	-1.1375	-1.15	214.026	219.068	304.090	343.743	199.693	103.218	364.806	307.748	205.828	146.041	351.434	44.957	304.207	323.550	302.614	353.567	0.00035637	0.00042845	0.00010248	1434.1	3.9486e-06	3.9023e-06	1439.4	386.38	4.1593e-06	4.4441e-06	442.97	146.03	126.58	42.479	5.0434e-06	52.58	0.00047395	0.00049423	0.00013563	1452.6	5.5491e-06	5.5703e-06	1451	392.88	5.3263e-06	5.4755e-06	448.83	149.74	129.42	43.634	5.5072e-06	53.793	210.963	103.014	144.349	42.187	201.557	176.251	42.190	47.017	207.109	177.298	46.426	51.011	51.491	55.443	188.817	55.203	-8191	255	
777.153	1	1	0	0	0.052878	0.18575	0.20883	0.28109	0.079106	0.13694	0.13976	0.10357	0.16443	0.22282	0.2437	0.1139	0.15897	0.25454	0.03062	0.071915	-1.3896	-0.90625	-1.3375	-1.7646	-0.825	-1.6125	-1.1479	-1.2708	-1.6542	-1.1104	-1.5917	-1.6604	-0.96458	-1.8458	-1.1479	-1.0063	47.697	296.981	232.117	382.007	264.085	93.379	39.929	266.475	135.711	143.659	365.683	353.679	260.126	344.281	299.918	294.325	0.00035879	0.00054284	0.00015099	1435.3	5.4507e-06	6.7626e-06	1441	386.91	3.6694e-06	4.8855e-06	442.26	147.01	126.35	42.375	5.9971e-06	52.986	0.00047646	0.00049562	0.000132	1452.8	5.7269e-06	5.3986e-06	1452.8	392.99	5.5077e-06	5.4221e-06	448.18	149.97	129.33	43.628	5.3839e-06	54.004	215.603	129.018	121.183	41.872	223.097	183.867	42.219	47.018	193.862	162.878	46.222	51.257	51.490	55.788	213.248	54.970	-8191	255	
777.251	1	1	0	0	0.15363	0.064215	0.19526	0.3531	0.23289	0.17449	0.43235	0.44652	0.30989	0.10131	0.24046	0.16593	0.25961	0.14577	0.37439	0.19309	-1.2563	-0.96875	-1.4062	-1.9688	-0.75208	-1.6458	-1.6396	-1.1229	-1.6271	-1.1625	-1.3479	-1.7896	-1.0479	-1.6146	-1.4396	-0.97083	147.696	131.215	324.220	53.978	156.514	180.578	329.120	267.303	256.329	110.047	288.826	274.647	121.902	93.454	130.433	286.269	0.00041695	0.000489	9.3225e-05	1436.5	5.0724e-06	3.9164e-06	1432.6	385.9	5.2022e-06	5.3707e-06	442.91	146.51	126.73	42.532	5.5448e-06	52.701	0.00048963	0.00049785	0.00013628	1451.3	5.4509e-06	5.1612e-06	1449.4	392.68	5.3749e-06	5.3349e-06	448.88	149.97	129.21	43.643	5.2741e-06	53.975	213.620	126.620	116.512	42.309	191.579	198.199	42.359	47.045	208.337	193.186	46.264	51.182	51.682	55.916	207.441	55.115	-8191	255	
777.369	1	1	0	0	0.12466	0.2557	0.055279	0.27287	0.15838	0.307	0.24074	0.17657	0.064313	0.1738	0.13342	0.18947	0.141	0.1272	0.15629	0.20505	-1.125	-0.77292	-1.0708	-1.9438	-0.99792	-1.525	-1.7729	-1.1063	-1.7062	-1.0688	-1.2125	-1.8083	-1.0604	-1.5729	-1.4854	-0.88958	337.993	180.132	352.643	329.134	356.519	290.803	343.055	295.314	380.683	185.723	44.164	372.468	41.147	368.621	64.287	334.521	0.00039378	0.00076493	0.00015851	1441.6	5.8036e-06	3.8327e-06	1431.6	386.48	5.3903e-06	4.2107e-06	440.8	146.75	126.6	42.663	4.5174e-06	52.624	0.00047619	0.0004913	0.00013858	1454.5	5.6619e-06	5.1605e-06	1449.9	392.91	5.3951e-06	5.3734e-06	448.27	149.69	129.34	43.655	5.3408e-06	53.866	213.014	111.528	115.067	42.254	210.223	178.553	42.386	47.101	209.426	189.600	46.541	51.396	51.682	55.902	186.267	55.139	-8191	255	
777.466	1	1	0	0	0.063835	0.11568	0.09033	0.19666	0.029191	0.16147	0.30371	0.18985	0.39059	0.11046	0.055519	0.21919	0.24938	0.19806	0.13535	0.054291	-1.2979	-1.1604	-1.0104	-2.2417	-0.96458	-1.475	-1.7896	-1.0042	-1.6812	-1.2563	-1.1229	-1.8188	-1.0458	-1.3396	-1.4958	-1.0063	83.531	116.913	306.414	326.366	96.431	361.047	299.696	384.312	52.564	40.135	71.765	376.835	338.892	370.042	266.191	325.146	0.000377	0.00051083	0.00017433	1436.1	7.2878e-06	4.3024e-06	1441.5	385.07	4.0255e-06	5.3768e-06	440.83	146.46	126.07	42.566	4.7869e-06	52.587	0.00047598	0.00046359	0.00013835	1452.8	5.396e-06	5.185e-06	1452.6	391.99	5.3102e-06	4.9429e-06	447.79	149.66	129.04	43.613	5.4509e-06	53.76	218.036	103.484	122.229	42.480	209.170	186.795	42.597	47.200	213.561	161.231	46.547	51.712	51.800	55.956	203.801	55.119	-8191	255	
777.562	1	1	0	0	0.12176	0.21289	0.26044	0.32784	0.063769	0.1269	0.12878	0.12395	0.10106	0.18765	0.12719	0.18232	0.11615	0.11871	0.10755	0.30956	-1.0875	-1.1542	-1.0292	-2.0479	-1.0271	-1.1354	-1.8417	-1.0729	-1.6208	-1.4	-0.97083	-1.9208	-1.5271	-1.3583	-1.6833	-1.0458	346.479	59.914	84.496	324.660	202.094	324.179	29.241	347.091	118.372	310.232	331.282	330.454	369.996	93.461	296.016	229.316	0.00035463	0.00058799	0.00010477	1437	6.2346e-06	6.0415e-06	1434.1	386.8	4.2273e-06	6.0825e-06	441.57	146.48	127.15	42.48	4.4428e-06	52.843	0.00046833	0.00046471	0.00013969	1451.7	5.3114e-06	5.4119e-06	1450.2	392.74	5.1543e-06	5.1346e-06	447.97	149.93	129.24	43.646	5.3912e-06	53.87	212.334	111.922	109.863	42.408	204.513	184.337	42.614	47.213	202.908	190.162	46.455	51.456	51.802	56.194	192.703	55.128	-8191	255	
777.682	1	1	0	0	0.13965	0.074696	0.24907	0.32174	0.15367	0.2736	0.38232	0.14748	0.31031	0.10643	0.22651	0.14825	0.10366	0.22042	0.11384	0.37546	-1.2479	-1.5542	-0.79583	-1.775	-1.1542	-1.0667	-1.7646	-1.0812	-1.55	-1.4146	-0.95625	-1.8813	-1.2479	-1.0438	-1.6042	-1.1292	75.437	377.086	248.700	379.443	197.329	211.096	351.114	350.942	202.908	228.604	303.588	369.238	336.124	278.468	383.615	47.947	0.00035675	0.00038805	0.00014969	1443.4	7.3156e-06	4.0514e-06	1432.4	385.87	5.0906e-06	3.016e-06	440.17	146.94	126.64	42.425	6.0724e-06	52.81	0.00046843	0.00049398	0.00013726	1453.5	5.4924e-06	5.4862e-06	1448.7	392.04	5.1193e-06	5.331e-06	447.77	150.11	129.26	43.496	5.3938e-06	53.957	212.067	90.888	102.927	42.340	204.890	173.995	42.606	47.315	210.497	191.163	46.454	51.474	51.983	56.058	186.847	55.305	-8191	255	
777.778	1	1	0	0	0.33928	0.12831	0.069426	0.33569	0.21548	0.18728	0.24757	0.098755	0.20537	0.086323	0.23411	0.28713	0.1713	0.28161	0.14183	0.13278	-0.925	-1.6646	-0.89375	-1.7208	-1.0458	-1.1021	-1.8229	-1.1042	-1.4229	-1.5667	-0.97292	-1.7333	-1.4312	-0.87292	-1.8625	-1.2146	302.110	238.200	378.220	348.047	365.933	325.305	331.506	280.776	144.428	91.911	278.575	295.178	282.897	354.143	262.460	97.642	0.00038047	0.00047829	0.00011817	1441.9	5.5425e-06	6.1438e-06	1438.8	385.69	4.2286e-06	5.6186e-06	443.38	147.06	126.62	42.589	4.9944e-06	52.611	0.00048586	0.00047216	0.00014434	1455.1	5.3931e-06	5.4107e-06	1451.1	392.43	5.2843e-06	5.3699e-06	448.74	149.97	129.13	43.596	5.3039e-06	53.882	210.390	105.324	114.964	42.527	206.207	185.206	42.640	47.096	205.075	168.247	46.505	51.748	51.705	55.929	196.458	55.105	-8191	255	
777.850	1	1	0	0	0.18909	0.090536	0.015895	0.30961	0.27214	0.053503	0.2613	0.30801	0.37189	0.29195	0.38997	0.20156	0.091877	0.16053	0.14799	0.20575	-0.95417	-1.8396	-1.0125	-1.5708	-1.3167	-0.95	-1.9229	-1.3563	-0.9375	-1.7583	-1.1854	-1.5958	-1.5354	-1.0625	-1.625	-1.0833	165.743	345.403	94.251	377.602	40.138	58.930	333.138	315.233	47.866	124.847	339.401	318.516	183.014	281.074	158.124	106.006	0.00037964	0.00039584	0.00012167	1438.6	6.2171e-06	5.0586e-06	1436.5	386.12	3.5909e-06	4.8099e-06	441.11	146.56	125.85	42.312	7.0711e-06	52.547	0.00048795	0.00050265	0.00014105	1455.4	5.2082e-06	5.5859e-06	1452	392.85	5.435e-06	5.3656e-06	447.76	149.9	128.99	43.549	5.2527e-06	53.763	214.602	123.578	104.287	42.349	199.348	216.949	41.906	46.339	226.507	193.590	45.654	50.770	50.828	55.490	196.112	54.456	-8191	255	
777.971	1	1	0	0	0.1332	0.28764	0.16249	0.30557	0.046416	0.34012	0.22506	0.17995	0.12893	0.22868	0.309	0.38351	0.23622	0.21273	0.20391	0.35552	-0.5625	-1.6104	-0.84792	-1.6083	-1.6437	-0.74583	-1.9958	-1.4708	-0.95417	-1.6729	-1.1042	-1.5167	-1.6958	-0.80833	-1.4708	-1.3646	209.915	253.382	368.970	341.738	43.869	320.199	315.959	38.379	204.883	57.582	330.319	365.819	345.251	43.808	278.946	339.165	0.0003781	0.00059086	0.00012165	1436.6	6.3983e-06	4.753e-06	1435.4	385.39	3.0449e-06	5.4721e-06	438.34	146.52	126.45	42.481	4.6148e-06	52.624	0.00048227	0.0004841	0.0001354	1454.3	5.441e-06	5.408e-06	1450.1	392.61	5.5584e-06	5.1587e-06	446.77	150.06	129.02	43.647	5.1161e-06	53.735	213.069	103.208	72.289	41.674	185.392	180.602	41.747	46.451	199.093	191.352	45.877	50.775	50.953	55.407	205.319	54.463	-8191	255	
778.065	1	1	0	0	0.12394	0.28333	0.23492	0.13653	0.3063	0.29579	0.45841	0.28443	0.12028	0.13931	0.022012	0.1747	0.30387	0.092032	0.22886	0.049036	-0.46875	-1.6917	-0.89792	-1.2375	-1.4875	-0.875	-1.8333	-1.5792	-0.90417	-1.9396	-1.1292	-1.1667	-1.8021	-0.91875	-1.4688	-1.3563	296.097	62.477	81.861	69.893	133.024	29.949	310.120	321.895	289.569	131.578	116.291	327.161	343.996	329.622	121.269	214.837	0.00036356	0.00051112	0.00017607	1437.6	5.0341e-06	4.8417e-06	1428.7	385.51	4.4932e-06	3.0744e-06	441.06	146.58	126.18	42.492	6.3157e-06	52.514	0.00047458	0.00047762	0.00013547	1452.5	5.2368e-06	5.1476e-06	1448.3	392.19	5.413e-06	5.0882e-06	446.52	149.65	128.96	43.489	5.0542e-06	53.605	214.654	104.275	116.889	41.725	208.038	177.501	41.773	46.580	224.794	191.270	45.647	50.508	51.059	54.946	220.842	54.321	-8191	255	
778.161	1	1	0	0	0.31024	0.15989	0.13811	0.18273	0.27265	0.086886	0.3162	0.22255	0.041855	0.167	0.1397	0.33631	0.46626	0.32413	0.22161	0.15462	-0.35625	-1.4771	-1.0688	-1.1896	-1.6458	-0.81875	-1.6458	-1.6958	-0.81042	-1.6125	-1.4667	-1.3583	-1.9042	-1.0292	-1.2208	-1.6625	226.441	204.355	104.410	366.138	216.303	86.575	312.406	340.576	84.795	295.941	313.787	358.637	352.649	335.856	134.221	331.105	0.00035768	0.00064146	0.00015912	1433	6.0186e-06	4.3164e-06	1429.3	384.53	4.6179e-06	4.9236e-06	439.71	146.49	125.93	42.337	4.673e-06	52.441	0.00047439	0.00046829	0.00012842	1451.5	5.2607e-06	5.3515e-06	1448.2	391.64	5.3892e-06	4.9814e-06	446.37	149.75	128.87	43.423	5.3537e-06	53.652	210.584	113.373	115.905	41.662	213.705	171.190	41.915	46.367	206.779	199.497	45.789	50.717	51.052	55.404	207.737	54.475	-8191	255	
778.282	1	1	0	0	0.12637	0.34903	0.36449	0.34999	0.20441	0.14798	0.27302	0.216	0.24201	0.17542	0.12698	0.11554	0.3496	0.011641	0.1438	0.1275	-0.61875	-1.6792	-1.1854	-1.1896	-1.7042	-1.1458	-1.5417	-1.7396	-0.81875	-1.6875	-1.2625	-0.9625	-1.7208	-1.0396	-1.1896	-1.525	381.801	33.338	52.626	320.467	339.289	106.217	75.204	313.429	286.051	108.499	346.246	57.123	30.336	182.392	284.839	281.942	0.00037289	0.0004694	0.00013622	1433.6	5.8929e-06	4.6324e-06	1433.2	383.31	2.5973e-06	4.9525e-06	438.85	146.48	125.88	42.358	6.1396e-06	52.577	0.00047864	0.00045294	0.00013413	1448.9	5.3653e-06	4.9487e-06	1446.7	390.77	5.2354e-06	4.8599e-06	446.24	149.66	128.67	43.449	5.2318e-06	53.708	212.061	115.916	112.962	41.749	192.860	170.086	41.877	46.383	222.996	172.065	45.628	50.606	50.912	55.305	207.530	54.550	-8191	255	
778.378	1	1	0	0	0.36935	0.19099	0.18981	0.24997	0.36828	0.052689	0.22246	0.36971	0.15598	0.28361	0.16364	0.12275	0.23096	0.15249	0.11846	0.089499	-0.35833	-1.5292	-1.2542	-1.0479	-1.7667	-0.96875	-1.3875	-1.7771	-0.75	-1.4167	-1.5625	-0.85208	-1.7729	-1.275	-1.2167	-1.7729	82.896	332.832	135.327	325.548	282.792	361.149	323.783	347.014	56.594	116.765	249.458	30.395	362.751	347.322	144.104	241.081	0.0003511	0.00064371	0.00012982	1427.3	6.8383e-06	5.7748e-06	1434.4	385.74	4.4298e-06	6.6336e-06	437.36	146.33	126.49	42.309	3.8799e-06	52.538	0.00046885	0.00045896	0.00013338	1446.2	5.0915e-06	5.1461e-06	1446.5	391.16	5.2235e-06	5.2628e-06	445.63	149.48	128.97	43.458	5.3724e-06	53.695	213.212	113.177	116.030	41.834	198.115	170.466	42.110	46.542	208.898	183.450	45.789	50.879	51.264	55.279	184.989	54.612	-8191	255	
778.450	1	1	0	0	0.24004	0.1397	0.20293	0.18226	0.12854	0.091197	0.32413	0.038201	0.16627	0.18759	0.37803	0.24563	0.18241	0.36304	0.11729	0.48454	-0.58958	-1.5375	-1.2917	-1.0521	-1.5875	-1.1	-1.1083	-1.8479	-0.94167	-1.3479	-1.6646	-0.98125	-1.6417	-1.3229	-0.77292	-1.8208	327.175	387.299	82.459	369.008	348.586	140.655	281.887	279.445	228.685	319.943	367.622	355.343	293.651	316.334	360.687	340.609	0.00037629	0.000595	0.00013763	1428.7	7.68e-06	5.2936e-06	1433.4	385.15	3.9471e-06	3.2457e-06	439.82	145.54	126.31	42.365	6.208e-06	52.632	0.00046948	0.00045694	0.00013243	1450.2	5.1393e-06	5.0834e-06	1447.8	391.93	5.1878e-06	5.2573e-06	446.81	149.35	129.03	43.412	5.5437e-06	53.665	214.790	117.405	125.306	41.866	199.296	149.238	41.923	46.637	225.530	186.812	45.864	51.085	51.191	55.371	209.852	54.632	-8191	255	
778.546	1	1	0	0	0.060496	0.2395	0.38027	0.26307	0.085433	0.058781	0.31918	0.2008	0.23117	0.34375	0.22833	0.2413	0.26317	0.056358	0.21214	0.20809	-0.55833	-1.2167	-1.6958	-0.84792	-1.4833	-1.3104	-1.05	-1.9271	-0.91875	-1.2021	-1.8625	-0.92917	-1.6	-1.2875	-0.79375	-1.7104	42.954	247.424	91.652	358.137	134.863	374.621	354.016	353.644	107.144	34.824	87.186	328.467	32.452	287.195	301.654	350.281	0.00034729	0.00050192	0.00011906	1433.1	6.5622e-06	4.1223e-06	1434.4	385.15	3.7669e-06	4.6517e-06	440.71	146.96	126.87	42.595	6.3859e-06	52.728	0.00046376	0.00047494	0.00013557	1449.2	5.4099e-06	5.487e-06	1447.7	391.85	5.2336e-06	5.4023e-06	447.32	149.88	129.34	43.601	5.55e-06	53.805	209.980	112.704	137.639	41.912	197.228	151.447	42.110	46.801	225.128	185.288	45.846	51.132	51.645	55.281	213.439	54.716	-8191	255	
778.667	1	1	0	0	0.19557	0.07641	0.14026	0.25667	0.1115	0.15881	0.16733	0.34267	0.23122	0.13696	0.18298	0.30689	0.15256	0.25383	0.21314	0.11262	-0.71875	-1.05	-1.4521	-0.9625	-1.4312	-1.4542	-1.2083	-1.9062	-1.025	-1.1083	-1.8021	-0.975	-1.5271	-1.3979	-0.63125	-1.575	163.973	49.680	158.398	386.919	139.108	183.926	317.559	357.021	224.732	130.762	362.477	302.265	284.581	337.135	343.482	329.307	0.00036044	0.00058928	0.00014882	1436.4	6.4163e-06	5.6246e-06	1434.8	384.7	5.4551e-06	5.1723e-06	441.58	146.48	126.13	42.43	5.3046e-06	52.658	0.00048246	0.00050638	0.00013404	1452.5	5.2625e-06	5.2484e-06	1450	392.3	5.241e-06	5.359e-06	448.14	149.8	129.21	43.551	5.3408e-06	53.765	212.086	115.637	112.142	42.066	195.285	187.312	42.045	46.790	224.448	196.244	46.082	50.866	51.399	55.577	203.809	54.733	-8191	255	
778.763	1	1	0	0	0.076209	0.15942	0.17727	0.12972	0.057127	0.084429	0.025128	0.32366	0.19008	0.36216	0.19187	0.32447	0.24571	0.12217	0.18257	0.26863	-0.8	-1.0479	-1.4354	-0.9	-1.4167	-1.4958	-1.0958	-1.7396	-1.2563	-1.0812	-1.8667	-0.90625	-1.3687	-1.6479	-0.73125	-1.725	334.514	162.518	274.731	385.232	227.182	300.454	218.379	277.725	121.264	75.100	56.651	323.217	263.935	367.077	315.307	249.709	0.00037565	0.0007542	0.00012892	1435.4	5.4798e-06	3.9702e-06	1435	384.69	3.9975e-06	3.9377e-06	439.43	146.93	126.95	42.539	5.1948e-06	52.668	0.00046697	0.00048337	0.00013192	1450.2	5.1846e-06	5.2258e-06	1451.7	392.02	5.3347e-06	5.3395e-06	447.53	150	129.26	43.585	5.1916e-06	53.854	211.981	112.044	114.407	42.042	212.157	171.311	42.071	46.731	222.358	185.395	46.185	51.153	51.516	55.584	220.151	54.997	-8191	255	
778.859	1	1	0	0	0.15504	0.35307	0.16431	0.33385	0.012536	0.082048	0.12954	0.044728	0.07651	0.41591	0.26458	0.10503	0.27763	0.40888	0.23186	0.23125	-0.7875	-0.87917	-1.5562	-1.2458	-1.1812	-1.5875	-1.0354	-1.6958	-1.3062	-1.0271	-1.8563	-1.2292	-1.4042	-1.7521	-0.80417	-1.6354	75.794	99.555	188.401	322.722	49.973	92.968	279.014	372.369	275.747	292.003	40.376	324.160	370.574	65.404	80.231	235.524	0.00036925	0.00065829	0.00014839	1437.8	6.1315e-06	5.6146e-06	1436.9	384.12	4.5705e-06	5.3462e-06	441.77	146.54	126.46	42.265	4.9963e-06	52.671	0.00047334	0.00049795	0.0001318	1452	5.3688e-06	5.3986e-06	1452.1	391.84	5.3025e-06	5.2807e-06	447.53	149.54	129.34	43.438	5.0973e-06	53.692	218.545	107.494	105.957	41.747	211.323	178.000	42.188	46.977	211.594	192.464	46.174	51.117	51.299	55.567	198.644	54.738	-8191	255	
778.953	1	1	0	0	0.13134	0.37269	0.17499	0.32734	0.3174	0.1103	0.36605	0.35064	0.19965	0.18753	0.22633	0.13536	0.18328	0.29592	0.20996	0.17064	-1.0479	-0.91875	-1.5938	-1.1167	-1.0792	-1.5917	-1.2271	-1.5583	-1.5125	-0.79583	-1.9125	-1.2313	-1.1646	-1.8625	-0.8875	-1.6417	322.659	276.828	47.111	319.146	231.534	138.520	313.074	353.589	357.793	386.999	339.868	362.203	53.636	47.921	155.129	342.419	0.00037901	0.00066151	0.00015337	1435.3	5.8256e-06	4.962e-06	1438.9	386.07	4.8816e-06	4.0139e-06	440.44	146.8	126.78	42.443	7.1566e-06	52.589	0.0004724	0.00049552	0.00012944	1450.5	5.3478e-06	4.962e-06	1452.1	392.32	5.4423e-06	5.3391e-06	448.17	149.83	129.26	43.575	5.3691e-06	53.745	213.841	117.506	121.745	41.824	217.814	189.548	42.409	46.915	205.614	191.732	46.169	51.311	51.502	55.559	207.798	54.607	-8191	255	
779.051	1	1	0	0	0.14776	0.15856	0.17261	0.24866	0.072199	0.21382	0.094714	0.41992	0.12164	0.11536	0.063986	0.27165	0.15397	0.12762	0.11987	0.13681	-1.1333	-0.7875	-1.5021	-1.35	-0.82292	-1.7125	-1.0812	-1.5479	-1.6125	-0.925	-1.6	-1.3917	-1.1354	-1.7271	-0.94792	-1.3438	167.730	46.164	323.571	71.971	292.844	243.619	374.706	294.332	214.803	141.010	151.216	333.461	371.001	142.207	188.153	356.958	0.00034476	0.00071196	0.00012861	1437.8	4.5778e-06	4.7399e-06	1437.7	385.93	4.5964e-06	4.1209e-06	441.88	146.7	126.47	42.316	5.188e-06	52.775	0.00047822	0.00048476	0.00013113	1454.9	5.497e-06	5.169e-06	1454.3	392.6	5.2273e-06	5.2932e-06	448.12	150.07	129.3	43.55	5.4553e-06	53.857	215.079	122.297	135.993	42.057	213.269	176.483	42.294	46.794	202.818	177.455	46.383	51.091	51.700	55.570	202.561	55.134	-8191	255	
779.146	1	1	0	0	0.0645	0.19297	0.090621	0.23574	0.10705	0.32441	0.17016	0.27868	0.014801	0.23472	0.034183	0.087038	0.20909	0.20798	0.2356	0.2533	-1.2188	-0.7375	-1.425	-1.4083	-0.89167	-1.7229	-1.2417	-1.1917	-1.7333	-1.0333	-1.6208	-1.5167	-0.88125	-1.7625	-1.0375	-1.125	297.779	236.177	120.718	343.086	376.038	241.446	372.913	326.320	126.608	230.078	197.416	312.026	301.905	280.348	38.346	305.572	0.00035395	0.00043316	0.00013558	1439.7	5.8273e-06	5.296e-06	1434.7	386.99	4.9493e-06	2.5839e-06	442.62	146.63	126.61	42.426	5.2645e-06	52.794	0.00047267	0.000467	0.00013525	1455.9	5.5166e-06	4.9557e-06	1452.2	393.14	5.3658e-06	5.1622e-06	448.34	149.8	129.08	43.571	5.3279e-06	53.83	212.643	98.268	127.391	42.158	198.820	172.785	42.048	47.029	201.426	185.858	46.401	50.958	51.670	55.840	202.737	54.908	-8191	255	
779.242	1	1	0	0	0.12148	0.25088	0.22519	0.20945	0.12568	0.26373	0.15479	0.055721	0.22793	0.22498	0.22836	0.066083	0.15302	0.28674	0.17447	0.30175	-1.1896	-0.88125	-1.425	-1.6167	-0.77083	-1.7979	-1.3583	-1.2104	-1.7646	-1.0438	-1.3021	-1.65	-0.95833	-1.8917	-1.0667	-1.2062	179.370	329.424	292.863	48.773	283.380	188.416	310.560	309.022	189.167	344.058	263.493	316.079	238.144	343.743	144.124	291.861	0.00037864	0.00064011	0.00013376	1442.4	6.4924e-06	6.5875e-06	1435.2	387.57	3.8205e-06	4.677e-06	440.98	146.77	126.44	42.482	4.1276e-06	52.594	0.00047181	0.00047202	0.00013952	1456.3	5.4852e-06	5.1289e-06	1453.8	393.85	5.328e-06	5.262e-06	448.14	149.9	129.17	43.61	5.1607e-06	53.895	217.908	111.788	120.910	42.198	215.217	179.361	42.199	46.889	212.333	187.374	46.290	50.961	51.551	55.862	211.292	55.126	-8191	255	
779.362	1	1	0	0	0.084541	0.18283	0.14287	0.25301	0.1485	0.12816	0.2848	0.033327	0.09729	0.17109	0.056841	0.33725	0.30204	0.15455	0.25403	0.12369	-1.3271	-0.90417	-1.475	-1.8917	-0.84167	-1.6292	-1.5333	-1.2083	-1.7729	-1.0229	-1.4813	-1.7771	-0.79167	-1.3083	-1.3167	-0.98333	70.068	301.706	113.150	356.002	348.546	118.560	300.985	345.295	194.645	383.342	349.396	343.464	301.251	348.840	198.216	350.398	0.00039589	0.00059716	0.00017737	1438.2	4.1169e-06	6.4541e-06	1442.7	385.13	3.1922e-06	5.9666e-06	440.87	146.4	126.87	42.407	6.8126e-06	52.552	0.00047294	0.00048733	0.00013954	1455.2	5.4781e-06	5.1507e-06	1455.1	392.95	5.1305e-06	5.2897e-06	448.9	149.77	129.27	43.605	5.4623e-06	53.803	216.301	110.099	127.930	42.226	189.190	194.737	41.923	47.128	211.522	181.811	46.543	51.080	51.529	55.620	197.681	55.022	-8191	255	
779.457	1	1	0	0	0.11375	0.4295	0.10392	0.19625	0.1811	0.14428	0.078792	0.29501	0.13733	0.079821	0.18739	0.095701	0.22671	0.18148	0.088292	0.43653	-1.3333	-0.93125	-1.0458	-1.8333	-0.81042	-1.325	-1.6104	-1.0333	-1.6562	-1.0875	-1.1958	-1.7542	-0.74375	-1.2875	-1.4417	-1.0438	185.347	162.717	382.748	326.931	335.170	375.982	155.629	336.517	347.569	301.778	376.399	202.888	381.017	372.100	209.873	369.604	0.0003818	0.00046321	7.9652e-05	1438.7	7.7656e-06	5.7659e-06	1436.2	386.6	3.4537e-06	5.2242e-06	441.32	146.39	126.6	42.671	4.6726e-06	52.693	0.00047506	0.00047794	0.00014186	1454.6	5.5845e-06	5.4418e-06	1453.9	392.46	5.2343e-06	5.5453e-06	448.33	150	129.25	43.685	5.5091e-06	53.84	212.874	126.202	113.342	42.161	201.882	174.959	42.043	46.751	220.962	179.295	46.146	50.866	51.662	56.009	197.709	54.936	-8191	255	
779.553	1	1	0	0	0.085613	0.11672	0.12303	0.38369	0.15786	0.11619	0.19263	0.066211	0.19719	0.057615	0.19125	0.14838	0.25802	0.15451	0.10949	0.20711	-1.2188	-0.84583	-0.875	-1.7313	-0.90833	-1.375	-1.7396	-1.1021	-1.5708	-1.0938	-1.0396	-2.0646	-0.96667	-1.2812	-1.5396	-0.825	60.542	322.942	165.018	380.392	379.105	325.313	48.276	316.998	154.069	139.545	372.666	344.426	36.442	67.362	199.346	334.331	0.00034588	0.00043943	0.00013618	1440	5.2944e-06	4.892e-06	1436.8	385.53	3.5468e-06	5.3856e-06	441.69	146.39	126.41	42.6	5.2384e-06	52.515	0.00046854	0.00048977	0.00014159	1455.1	5.4527e-06	5.5333e-06	1452.2	392.39	5.3119e-06	5.5394e-06	448.74	149.81	129	43.576	5.4273e-06	53.782	211.052	122.313	112.999	42.282	216.113	164.129	42.132	46.926	201.689	173.777	46.658	51.154	51.432	55.756	185.167	55.117	-8191	255	
779.649	1	1	0	0	0.143	0.12464	0.13037	0.30319	0.24253	0.11393	0.033107	0.24895	0.044735	0.12498	0.49051	0.33578	0.093106	0.17686	0.13821	0.0578	-1.1417	-1.4354	-0.91875	-1.725	-0.77708	-1.2104	-1.725	-1.1521	-1.4229	-1.5271	-0.96458	-1.8687	-0.93958	-0.9875	-1.7292	-0.90208	322.556	130.259	146.504	339.381	85.599	74.532	181.592	273.191	284.686	194.410	351.339	385.098	100.335	355.311	176.295	347.342	0.00036977	0.00026423	0.00012816	1436.6	5.301e-06	3.557e-06	1439.4	386.37	5.0043e-06	4.7683e-06	442.61	146.81	125.85	42.307	6.3311e-06	52.718	0.00047818	0.00050189	0.00014226	1453.2	5.3974e-06	5.371e-06	1450.4	392.24	5.3654e-06	5.4755e-06	448.46	149.97	128.82	43.517	5.5198e-06	53.844	215.913	125.993	102.417	42.276	211.596	178.180	42.213	47.065	220.052	190.787	46.377	51.202	51.518	55.774	194.265	55.028	-8191	255	
779.745	1	1	0	0	0.30302	0.071639	0.17426	0.51224	0.12774	0.12015	0.075827	0.26534	0.18366	0.25141	0.16351	0.31227	0.27453	0.30424	0.27959	0.23098	-0.9875	-1.6604	-0.85208	-1.6896	-0.84167	-0.96875	-1.6146	-1.2437	-1.325	-1.3958	-0.96458	-1.4792	-1.1479	-1.0875	-1.8729	-1.1396	114.708	250.681	367.043	347.864	388.139	327.968	47.092	327.285	329.352	42.666	310.680	56.588	383.781	232.220	384.348	335.518	0.00035717	0.00048899	0.00013741	1442.6	4.8529e-06	4.1441e-06	1439.4	387.3	4.2544e-06	6.4228e-06	442.08	146.38	126.24	42.636	5.7173e-06	52.713	0.00049418	0.00051985	0.00014396	1455.9	5.7397e-06	5.8758e-06	1452.1	393.22	5.7409e-06	5.6443e-06	448.45	149.84	129.43	43.671	5.3909e-06	53.978	211.463	107.454	115.409	42.133	214.158	187.906	42.344	47.076	207.634	182.357	46.296	51.317	51.568	55.669	197.144	54.592	-8191	255	
#DATA ENDS
