BOXY.EXE: ISS Imagent and Oximeter Data Acquisition Program Version 0.80
Ascii Record File

#ACQ INFORMATION
2  Detector Channels 
16  External MUX Channels 
1  Auxiliary Channels 
5000  Waveform (CCF) Frequency (Hz)
1  Waveforms Skipped 
30  Waveforms Averaged 
1  Cycles Averaged 
16  Acquisitions per Waveform 
10.0806  Updata Rate (Hz) 

#FILE INFORMATION
TRUE -- External MUX Channel results are PARSED.
FALSE -- AC DC and Phase are NOT grouped.
TRUE -- Companion Program Settings File CREATED.
FALSE -- AC data not excluded
FALSE -- DC data not excluded
FALSE -- Phase data not excluded
FALSE -- Auxillary Chn. data not excluded
Tab delimiters

#CALIBRATION STATE
TRUE -- Waveform Calibration Values APPLIED.


#AUX CALIBRATION VALUES
Val Type	aux-1	

Term	1.0000e+00	
Factor	0.0000e+00	


#WF CALIBRATION VALUES
A = Detector Channel
Val Type	A-AC1	A-AC2	A-AC3	A-AC4	A-AC5	A-AC6	A-AC7	A-AC8	A-AC9	A-AC10	A-AC11	A-AC12	A-AC13	A-AC14	A-AC15	A-AC16	A-DC1	A-DC2	A-DC3	A-DC4	A-DC5	A-DC6	A-DC7	A-DC8	A-DC9	A-DC10	A-DC11	A-DC12	A-DC13	A-DC14	A-DC15	A-DC16	A-Ph1	A-Ph2	A-Ph3	A-Ph4	A-Ph5	A-Ph6	A-Ph7	A-Ph8	A-Ph9	A-Ph10	A-Ph11	A-Ph12	A-Ph13	A-Ph14	A-Ph15	A-Ph16	

Term	0.00000e+00	0.00000e+00	0.00000e+00	0.00000e+00	0.00000e+00	0.00000e+00	0.00000e+00	0.00000e+00	0.00000e+00	0.00000e+00	0.00000e+00	0.00000e+00	0.00000e+00	0.00000e+00	0.00000e+00	0.00000e+00	0.00000e+00	0.00000e+00	0.00000e+00	0.00000e+00	0.00000e+00	0.00000e+00	0.00000e+00	0.00000e+00	0.00000e+00	0.00000e+00	0.00000e+00	0.00000e+00	0.00000e+00	0.00000e+00	0.00000e+00	0.00000e+00	0.00000e+00	0.00000e+00	0.00000e+00	0.00000e+00	0.00000e+00	0.00000e+00	0.00000e+00	0.00000e+00	0.00000e+00	0.00000e+00	0.00000e+00	0.00000e+00	0.00000e+00	0.00000e+00	0.00000e+00	0.00000e+00	
Factor	1.00000e+00	1.00000e+00	1.00000e+00	1.00000e+00	1.00000e+00	1.00000e+00	1.00000e+00	1.00000e+00	1.00000e+00	1.00000e+00	1.00000e+00	1.00000e+00	1.00000e+00	1.00000e+00	1.00000e+00	1.00000e+00	1.00000e+00	1.00000e+00	1.00000e+00	1.00000e+00	1.00000e+00	1.00000e+00	1.00000e+00	1.00000e+00	1.00000e+00	1.00000e+00	1.00000e+00	1.00000e+00	1.00000e+00	1.00000e+00	1.00000e+00	1.00000e+00	X	X	X	X	X	X	X	X	X	X	X	X	X	X	X	X	

B = Detector Channel
Val Type	B-AC1	B-AC2	B-AC3	B-AC4	B-AC5	B-AC6	B-AC7	B-AC8	B-AC9	B-AC10	B-AC11	B-AC12	B-AC13	B-AC14	B-AC15	B-AC16	B-DC1	B-DC2	B-DC3	B-DC4	B-DC5	B-DC6	B-DC7	B-DC8	B-DC9	B-DC10	B-DC11	B-DC12	B-DC13	B-DC14	B-DC15	B-DC16	B-Ph1	B-Ph2	B-Ph3	B-Ph4	B-Ph5	B-Ph6	B-Ph7	B-Ph8	B-Ph9	B-Ph10	B-Ph11	B-Ph12	B-Ph13	B-Ph14	B-Ph15	B-Ph16	

Term	0.00000e+00	0.00000e+00	0.00000e+00	0.00000e+00	0.00000e+00	0.00000e+00	0.00000e+00	0.00000e+00	0.00000e+00	0.00000e+00	0.00000e+00	0.00000e+00	0.00000e+00	0.00000e+00	0.00000e+00	0.00000e+00	0.00000e+00	0.00000e+00	0.00000e+00	0.00000e+00	0.00000e+00	0.00000e+00	0.00000e+00	0.00000e+00	0.00000e+00	0.00000e+00	0.00000e+00	0.00000e+00	0.00000e+00	0.00000e+00	0.00000e+00	0.00000e+00	-2.02558e+02	-1.16413e+02	-1.30120e+02	-1.82161e+02	-9.57707e+01	-1.01369e+02	-1.59306e+02	-1.62015e+02	-1.14350e+02	-5.77035e+01	-1.70639e+02	-1.72301e+02	-1.77500e+02	-1.76674e+02	-5.36760e+01	-1.49496e+02	
Factor	4.10936e-05	9.52974e-05	2.49006e-05	1.49428e-01	8.83243e-07	8.91524e-07	1.68800e-01	4.93801e-02	1.17695e-06	7.15398e-07	8.34437e-02	2.98807e-02	2.54106e-02	8.75613e-03	1.20421e-06	1.26828e-02	6.26555e-07	6.35961e-07	1.78841e-07	7.42432e-02	6.95763e-09	6.96690e-09	7.86376e-02	2.43642e-02	6.96256e-09	6.98071e-09	3.91092e-02	1.39300e-02	1.23175e-02	4.23067e-03	7.03845e-09	5.88851e-03	X	X	X	X	X	X	X	X	X	X	X	X	X	X	X	X	



#DISTANCE SETTINGS
A = Detector Channel
A-1	A-2	A-3	A-4	A-5	A-6	A-7	A-8	A-9	A-10	A-11	A-12	A-13	A-14	A-15	A-16	

2.5000e+00	3.0000e+00	2.5000e+00	3.0000e+00	2.0000e+00	3.0000e+00	1.5000e+00	3.0000e+00	3.0000e+00	3.0000e+00	3.0000e+00	3.0000e+00	3.0000e+00	3.0000e+00	1.5000e+00	3.0000e+00	

B = Detector Channel
B-1	B-2	B-3	B-4	B-5	B-6	B-7	B-8	B-9	B-10	B-11	B-12	B-13	B-14	B-15	B-16	

1.0000e+01	1.0000e+01	1.0000e+01	1.4400e+00	1.0000e+01	1.0000e+01	1.5100e+00	1.9400e+00	1.0000e+01	1.0000e+01	1.9900e+00	2.4900e+00	2.4100e+00	2.9000e+00	1.0000e+01	2.9800e+00	




#DATA BEGINS
time	group	step	mark	flag	A-AC1	A-AC2	A-AC3	A-AC4	A-AC5	A-AC6	A-AC7	A-AC8	A-AC9	A-AC10	A-AC11	A-AC12	A-AC13	A-AC14	A-AC15	A-AC16	A-DC1	A-DC2	A-DC3	A-DC4	A-DC5	A-DC6	A-DC7	A-DC8	A-DC9	A-DC10	A-DC11	A-DC12	A-DC13	A-DC14	A-DC15	A-DC16	A-Ph1	A-Ph2	A-Ph3	A-Ph4	A-Ph5	A-Ph6	A-Ph7	A-Ph8	A-Ph9	A-Ph10	A-Ph11	A-Ph12	A-Ph13	A-Ph14	A-Ph15	A-Ph16	B-AC1	B-AC2	B-AC3	B-AC4	B-AC5	B-AC6	B-AC7	B-AC8	B-AC9	B-AC10	B-AC11	B-AC12	B-AC13	B-AC14	B-AC15	B-AC16	B-DC1	B-DC2	B-DC3	B-DC4	B-DC5	B-DC6	B-DC7	B-DC8	B-DC9	B-DC10	B-DC11	B-DC12	B-DC13	B-DC14	B-DC15	B-DC16	B-Ph1	B-Ph2	B-Ph3	B-Ph4	B-Ph5	B-Ph6	B-Ph7	B-Ph8	B-Ph9	B-Ph10	B-Ph11	B-Ph12	B-Ph13	B-Ph14	B-Ph15	B-Ph16	aux-1	digaux	

7766.574	1	1	0	512	0.13427	0.14712	0.21889	0.18413	0.30205	0.092687	0.098671	0.1491	0.10294	0.28684	0.11511	0.40488	0.1105	0.12355	0.097716	0.2243	-1.1979	-1.7667	-2.0062	-1.5979	-2.3604	-1.7062	-1.7125	-2.3	-1.5521	-2.15	-2.1417	-1.5063	-2.1813	-1.7104	-1.7375	-2.1604	296.901	328.342	320.990	368.659	101.094	206.306	250.146	31.946	297.217	293.564	254.814	32.491	66.594	207.453	245.723	211.470	0.00087323	0.0003318	0.0001489	329.83	8.1415e-06	9.2267e-06	457.63	106.83	4.2323e-06	1.308e-05	205.41	77.071	33.833	11.123	1.0091e-05	31.897	0.0011009	0.0012812	0.00035848	466.17	1.2096e-05	1.4251e-05	618.98	150.79	1.2301e-05	1.434e-05	277.54	100.49	54.516	19.659	1.3459e-05	41.552	67.185	168.537	45.968	26.419	162.206	166.345	25.817	31.003	234.365	233.241	30.207	35.269	35.461	40.653	26.799	39.977	-8191	255	
7766.670	1	1	0	0	0.085362	0.17592	0.084565	0.041456	0.13328	0.11073	0.13045	0.046496	0.19869	0.25312	0.26495	0.044328	0.18642	0.027907	0.093279	0.42412	-1.4042	-1.9896	-2.0187	-1.6688	-2.2396	-1.7188	-1.7021	-2.2125	-1.6167	-2.0229	-2.0646	-1.5958	-2.3375	-1.7687	-1.5562	-2.3375	220.235	120.355	149.836	50.829	138.682	105.460	108.512	128.971	193.966	188.351	246.915	175.121	28.694	203.948	352.101	323.301	0.00083751	0.0011809	0.00038287	327.46	1.1198e-05	3.3124e-06	456.85	106.93	8.7276e-06	7.1374e-06	205.34	77.447	33.37	11.045	2.1596e-06	32.174	0.0011368	0.0013195	0.00033632	461.66	1.267e-05	1.4519e-05	610.17	149.76	1.2997e-05	1.4434e-05	273.93	100.24	56.105	19.692	1.2919e-05	41.521	76.366	113.978	13.016	26.416	167.792	77.943	25.652	30.801	170.315	129.477	30.558	35.223	36.238	39.654	106.234	39.803	-8191	255	
7766.766	1	1	0	0	0.22795	0.1578	0.32777	0.14808	0.06853	0.14778	0.23818	0.10447	0.22841	0.11053	0.17187	0.2097	0.22045	0.078023	0.22293	0.2048	-1.2083	-1.8125	-2.1354	-1.7812	-1.8979	-1.9354	-1.7042	-2.2062	-1.6979	-1.7437	-2.0938	-1.8646	-2.0417	-2.0667	-1.575	-2.2917	267.808	173.203	121.179	166.842	82.217	55.359	270.395	307.422	224.197	342.376	86.861	335.347	60.253	150.470	72.136	322.205	0.00098909	0.00073377	0.00024229	328.55	1.1003e-05	5.4941e-06	458.02	107.39	1.2668e-05	1.0642e-05	205.37	77.572	33.64	10.966	1.1594e-05	32.129	0.0012306	0.0013018	0.0003262	461.2	1.3772e-05	1.4126e-05	607.64	150.11	1.4021e-05	1.3973e-05	272.13	100.69	57.774	19.191	1.2591e-05	41.673	62.625	51.958	248.129	26.027	168.275	357.296	26.232	30.812	134.700	42.287	30.245	35.511	35.696	39.685	350.521	39.780	-8191	255	
7766.839	1	1	0	0	0.14332	0.21326	0.16667	0.22481	0.030156	0.097738	0.097462	0.10065	0.03983	0.23695	0.1566	0.14187	0.059473	0.19199	0.055938	0.17767	-1.3042	-1.9771	-2.2479	-1.6792	-2.0812	-1.9792	-1.7188	-2.1188	-2.0312	-1.7229	-2.1896	-1.9167	-1.975	-1.7854	-1.5938	-2.1833	216.939	155.419	175.112	322.457	106.593	61.663	207.054	182.554	249.750	283.414	332.783	58.214	111.432	28.728	38.770	41.000	0.00095836	0.0010769	0.00017746	331.3	1.4431e-06	8.1748e-06	460.5	107.73	5.2242e-06	6.5739e-06	207.41	78.196	33.317	11.019	5.7438e-06	32.129	0.0013013	0.0012398	0.00031818	466.79	1.4499e-05	1.3471e-05	605.34	152.58	1.4674e-05	1.3349e-05	272.05	102.51	58.791	18.847	1.2413e-05	42.605	69.165	318.392	92.985	26.462	189.564	13.136	26.102	31.098	96.371	41.546	30.433	35.644	35.638	39.996	24.956	39.861	-8191	255	
7766.958	1	1	0	0	0.18204	0.16711	0.090431	0.15826	0.17156	0.26577	0.023645	0.039071	0.0328	0.0070111	0.058572	0.13502	0.17825	0.21582	0.16021	0.1353	-1.4333	-1.6063	-2.0646	-1.6729	-1.7542	-2.3438	-1.4917	-2.0542	-1.9333	-1.4979	-2.4083	-1.7875	-2.0187	-2.3521	-1.3208	-2.1437	31.621	88.000	151.235	44.182	312.073	236.584	299.594	274.530	110.010	62.108	301.383	193.633	257.440	17.731	16.920	39.339	0.00067786	0.00046871	0.0002107	329.93	2.7142e-06	5.8672e-06	460.9	107.77	3.4273e-06	1.2249e-06	205.69	77.445	33.122	10.974	9.4451e-06	31.746	0.0013269	0.0011865	0.00031247	476.78	1.4518e-05	1.2883e-05	602.37	155.87	1.4376e-05	1.2814e-05	270.12	104.14	57.756	18.527	1.2287e-05	43.083	18.679	286.399	355.298	26.386	278.261	24.082	26.028	30.937	49.898	149.530	30.717	35.474	35.353	39.688	194.959	40.179	-8191	255	
7767.054	1	1	0	0	0.19432	0.23962	0.18169	0.1476	0.25306	0.17935	0.22573	0.18249	0.17937	0.35647	0.2924	0.033649	0.093493	0.16116	0.17035	0.14754	-1.6667	-1.4937	-2.2271	-1.9479	-1.875	-2.1979	-1.8167	-1.8771	-2.0604	-1.5521	-2.0938	-2.0125	-1.6562	-2.1562	-1.7833	-1.8833	61.891	291.647	351.539	136.434	179.707	342.428	272.573	293.993	335.432	257.652	293.810	105.007	110.759	141.081	300.866	84.349	0.0002855	0.00013607	0.00015953	329.46	1.4617e-05	5.5116e-06	454.07	107.7	1.7299e-05	3.9138e-06	203.05	76.281	32.805	10.838	1.1242e-05	31.704	0.0012675	0.0011549	0.00031235	484.1	1.3833e-05	1.2466e-05	598.55	158.18	1.3664e-05	1.2476e-05	270.14	104.78	56.244	18.224	1.2793e-05	43.364	22.668	114.418	146.168	26.500	34.366	182.473	26.041	31.196	367.169	299.257	30.682	35.365	35.075	40.051	264.890	40.220	-8191	255	
7767.151	1	1	0	0	0.15418	0.024605	0.18082	0.020795	0.15021	0.067218	0.31614	0.13098	0.026976	0.19559	0.24856	0.19175	0.13978	0.21876	0.19113	0.28264	-1.6771	-1.5938	-2.0187	-1.8979	-1.6396	-2.1729	-1.725	-1.8687	-2.1583	-1.6125	-2.0646	-2.0083	-1.3937	-2.4208	-1.6896	-1.875	66.204	252.538	185.857	164.122	48.767	172.723	325.307	321.523	254.110	321.145	360.041	127.606	206.167	142.822	69.148	297.478	0.000514	0.00058245	0.00050689	326.17	6.2639e-06	4.1326e-06	452.12	107.75	1.3182e-05	4.7717e-06	203.71	77.003	33.054	10.843	2.1085e-05	31.753	0.0012064	0.0011284	0.0003312	487.44	1.3173e-05	1.2266e-05	608.46	159.29	1.3086e-05	1.2344e-05	276.94	105.25	55.527	18.175	1.3913e-05	43.464	96.379	352.841	136.541	26.452	19.727	43.338	26.507	30.758	322.337	118.133	30.615	35.211	35.893	39.782	247.478	39.830	-8191	255	
7767.271	1	1	0	0	0.13416	0.09767	0.19941	0.15882	0.23448	0.090818	0.17667	0.16514	0.30856	0.17949	0.097766	0.051001	0.26062	0.08973	0.17972	0.17957	-1.9146	-1.3438	-1.8354	-2.0333	-1.4229	-2.4417	-1.8875	-1.7938	-2.2021	-1.5438	-2.05	-2.1417	-1.7167	-2.0979	-1.9375	-1.8271	35.534	137.829	83.003	42.059	112.534	23.162	199.757	219.334	117.776	248.679	220.358	241.026	72.408	162.794	219.876	307.061	0.00033694	0.00040429	0.00024491	327.8	7.8719e-06	1.8891e-06	450.12	107.36	4.3513e-06	5.8448e-06	206.9	77.643	33.669	11.005	1.0993e-05	32.054	0.00117	0.0011239	0.00036196	486.31	1.2913e-05	1.2378e-05	622.98	158.49	1.2898e-05	1.2546e-05	284.79	104.92	55.455	18.533	1.5105e-05	43.443	18.930	93.775	131.116	26.107	73.335	337.638	26.595	30.844	146.923	218.938	30.348	35.078	35.645	40.689	279.126	39.657	-8191	255	
7767.367	1	1	0	0	0.075395	0.3942	0.16437	0.17054	0.086115	0.27891	0.17509	0.14141	0.08106	0.31037	0.11438	0.33177	0.1552	0.13182	0.21674	0.18892	-1.7188	-1.6854	-1.9396	-2.0938	-1.6583	-2.1437	-2.1042	-1.6562	-2.3583	-1.7083	-1.8583	-2.2479	-1.4625	-2.0896	-2.1417	-1.5354	368.817	34.821	365.105	200.018	276.054	153.647	334.186	271.172	357.255	182.947	289.067	32.886	264.102	19.653	288.032	204.120	0.00022053	0.00056687	5.9061e-05	327.18	3.6403e-06	9.6462e-06	457.86	107.69	7.0161e-06	1.7338e-05	206.69	77.992	33.333	11.077	2.15e-06	32.311	0.0011643	0.0011777	0.00038598	481.43	1.2841e-05	1.306e-05	635.11	156.71	1.2675e-05	1.3343e-05	289.01	104.04	55.279	19.117	1.5409e-05	43.122	99.623	173.368	130.458	25.442	293.714	219.759	26.578	30.609	237.800	217.561	30.317	35.251	35.094	41.174	193.114	39.847	-8191	255	
7767.439	1	1	0	0	0.30404	0.054713	0.25198	0.26866	0.27161	0.23161	0.29844	0.23957	0.13677	0.12305	0.1408	0.061109	0.15877	0.088128	0.063462	0.1704	-1.8229	-1.5562	-1.9104	-2.2313	-1.65	-2.2938	-2.0396	-1.7437	-2.1896	-1.7812	-1.8125	-2.0563	-1.6146	-2	-1.725	-1.8	195.595	142.786	349.124	179.616	173.639	45.618	285.255	26.680	200.013	56.185	71.891	286.605	139.032	66.574	328.702	207.768	0.0003558	0.0013647	0.00029939	326.89	1.3641e-06	1.7094e-05	458.1	108.45	4.6951e-06	8.4888e-06	206.14	77.991	33.347	11.089	1.4347e-05	32.32	0.0011378	0.0012641	0.00038669	474.23	1.2556e-05	1.4033e-05	633.2	155.09	1.2548e-05	1.4386e-05	286.92	103.41	55.15	19.753	1.4769e-05	42.569	84.698	156.949	359.721	26.110	95.906	163.968	26.034	31.003	186.182	225.679	30.232	35.203	35.816	40.500	54.209	39.920	-8191	255	
7767.560	1	1	0	0	0.053563	0.10934	0.1742	0.22178	0.21342	0.25671	0.098895	0.089627	0.21037	0.053059	0.16647	0.06235	0.10044	0.3974	0.057812	0.061817	-1.7958	-1.4167	-1.6625	-2.2354	-1.4562	-1.8354	-2.2396	-1.6521	-2.1208	-1.6979	-1.6625	-2.0083	-1.7396	-1.9375	-1.9667	-1.7771	317.389	352.721	18.605	358.229	127.016	344.830	350.899	27.564	196.816	230.973	39.692	181.956	305.123	114.320	257.686	16.399	0.00080577	0.00041897	0.00019602	326.95	1.1296e-05	5.2091e-06	452.48	107.49	1.7953e-05	9.7003e-06	205.21	77.292	33.506	10.966	2.2111e-05	32.012	0.0011444	0.0013566	0.00037013	470.16	1.2768e-05	1.4908e-05	621.55	153.23	1.2847e-05	1.51e-05	281.18	101.68	55.723	19.978	1.393e-05	42.215	69.159	123.365	288.014	26.176	149.846	170.517	25.799	30.901	173.915	219.218	30.267	35.085	36.004	40.489	70.596	39.725	-8191	255	
7767.654	1	1	0	0	0.12553	0.30813	0.077936	0.13297	0.19141	0.26963	0.14429	0.15974	0.34452	0.14101	0.048458	0.17602	0.26533	0.063239	0.35047	0.28109	-1.7375	-1.8271	-1.5229	-2.3875	-1.6375	-1.7667	-2.0417	-1.4729	-1.9062	-1.9896	-1.7396	-2.2062	-1.6417	-1.5729	-2.1083	-1.2417	146.368	322.499	161.398	355.547	55.329	287.372	358.871	262.598	269.894	98.844	216.457	352.136	276.243	42.517	147.242	275.597	0.0005657	0.00040412	0.00033434	324.77	1.4078e-05	2.2469e-06	455.76	107.82	2.4809e-05	2.6931e-06	205.44	77.728	33.657	11.05	1.2285e-05	32.26	0.0011944	0.0013819	0.00034834	464.04	1.3443e-05	1.511e-05	612.1	152.05	1.3685e-05	1.5094e-05	277.59	101.52	57.464	19.943	1.3432e-05	42.194	87.249	66.302	330.417	26.165	159.944	149.177	26.309	30.516	188.461	342.420	30.347	35.360	35.931	39.885	132.408	39.688	-8191	255	
7767.750	1	1	0	0	0.11178	0.22189	0.23599	0.10296	0.18358	0.046623	0.16426	0.30527	0.16197	0.026577	0.28796	0.21264	0.098264	0.088737	0.11976	0.19057	-1.5792	-1.9083	-1.4854	-2.3854	-1.6271	-1.7833	-2.2708	-1.6	-1.9375	-1.8563	-1.6313	-2.3438	-1.5938	-1.8708	-2.1417	-1.6313	60.355	118.344	82.280	243.419	276.573	228.759	95.005	342.123	259.056	234.251	47.675	288.220	226.333	129.300	370.350	331.907	0.00088257	0.00070472	7.4366e-05	326.65	1.3211e-05	5.7164e-06	458.96	108.13	2.1884e-05	7.4812e-07	207.06	78.09	33.796	11.025	6.5767e-06	32.466	0.0012933	0.0013497	0.00033775	463.77	1.4501e-05	1.4535e-05	609.55	152.21	1.4646e-05	1.4405e-05	276.25	102.22	59.017	19.518	1.3042e-05	42.551	54.509	338.401	294.671	26.318	143.241	28.792	26.134	31.152	127.195	71.034	30.422	35.381	35.672	39.422	60.242	40.091	-8191	255	
7767.871	1	1	0	0	0.17129	0.16758	0.20641	0.17498	0.18076	0.14783	0.13635	0.070945	0.14105	0.1237	0.048493	0.086618	0.097384	0.18104	0.043778	0.12201	-1.4583	-1.9333	-1.4937	-2.0042	-1.8646	-1.6292	-2.2479	-1.6875	-1.9458	-2.0625	-1.7083	-2.1146	-1.7292	-1.5604	-2.1937	-1.8521	254.476	274.973	121.716	355.223	325.572	134.538	91.041	317.888	78.315	220.723	296.518	114.624	95.504	236.708	298.292	353.146	0.00043974	0.00086647	0.00025501	328.6	6.5523e-06	3.185e-06	458.84	108.71	5.552e-06	6.296e-06	208.2	78.8	33.727	11.083	6.8436e-06	32.563	0.0013584	0.0012801	0.00032922	470.25	1.5127e-05	1.3791e-05	608.35	155.04	1.5089e-05	1.361e-05	275.67	104.16	59.449	19.071	1.2651e-05	43.514	81.054	15.556	26.260	25.979	182.797	17.543	26.098	31.092	211.955	30.850	30.192	35.609	35.186	40.453	240.400	40.119	-8191	255	
7767.967	1	1	0	0	0.29563	0.090708	0.27042	0.06941	0.20539	0.1824	0.13865	0.074813	0.048339	0.12203	0.20222	0.16233	0.012742	0.37752	0.11704	0.1703	-1.3208	-1.8917	-1.4229	-1.7771	-1.9021	-1.5875	-2.2458	-1.7479	-1.6292	-2.1521	-1.6979	-1.9562	-1.7437	-1.5562	-1.9729	-1.7792	39.649	274.804	36.569	64.393	180.754	306.267	338.676	282.715	77.284	353.067	275.995	73.708	108.062	248.404	183.375	294.568	0.00034773	0.0003847	8.2503e-05	330.08	3.3409e-06	6.1884e-06	461.51	109.02	5.8991e-06	2.8161e-06	208.74	79.08	33.759	11.153	2.9558e-06	32.631	0.0013499	0.0012145	0.00032178	481.74	1.4897e-05	1.3229e-05	607.57	159.2	1.4732e-05	1.3177e-05	275.7	106.48	58.753	18.893	1.2662e-05	44.324	93.188	91.411	334.015	26.669	293.237	14.148	26.105	31.281	79.986	185.057	30.739	35.464	35.072	40.704	307.945	39.948	-8191	255	
7768.063	1	1	0	0	0.053449	0.12286	0.015207	0.33643	0.094435	0.034095	0.0077854	0.13112	0.34876	0.029253	0.15516	0.28029	0.18398	0.26575	0.062088	0.29703	-1.5479	-1.9688	-1.5354	-1.8125	-2.0104	-1.5562	-2.2042	-1.825	-1.4583	-2.1688	-1.525	-2.0854	-1.8125	-1.5042	-2.1667	-1.9208	273.115	197.215	173.706	357.517	285.430	210.547	260.365	166.209	164.258	260.964	112.725	360.455	258.391	280.031	331.688	39.073	0.00019713	0.00064601	0.00027323	327.71	1.3366e-05	1.1901e-06	459.11	108.08	5.969e-06	1.8756e-06	207.37	78.012	33.456	11.044	1.1805e-05	32.324	0.0012959	0.0011757	0.00032301	488.26	1.4042e-05	1.2745e-05	605.94	160.29	1.3831e-05	1.2716e-05	276.2	106.93	56.995	18.628	1.3195e-05	44.454	66.470	242.799	119.009	26.445	354.914	304.238	26.464	31.137	319.105	188.364	30.779	35.310	34.945	40.362	269.879	39.612	-8191	255	
7768.135	1	1	0	0	0.1313	0.35988	0.26711	0.050741	0.32441	0.20477	0.20219	0.17741	0.085158	0.081598	0.077261	0.076661	0.14403	0.27159	0.16411	0.17666	-1.1688	-2.1083	-1.7146	-1.7917	-2.1021	-1.4417	-2.0958	-1.9146	-1.5	-2.1896	-1.8312	-1.7375	-2.0542	-1.4937	-2.0042	-2.025	138.511	116.947	267.694	16.300	265.788	47.124	350.852	367.048	365.388	177.730	274.758	327.324	337.121	47.857	287.895	163.724	0.00020125	0.00015253	0.00037726	325.15	2.9174e-06	1.5493e-06	454.45	107.04	8.6295e-06	1.2667e-06	207.63	78.084	33.711	11.111	1.3007e-05	32.538	0.0012188	0.001143	0.0003418	489.87	1.3391e-05	1.2492e-05	614.98	160.49	1.3264e-05	1.2473e-05	282.48	106.8	56.028	18.473	1.4212e-05	44.332	352.425	332.753	142.754	26.450	216.723	314.653	26.386	30.957	28.342	122.065	30.327	35.196	35.085	39.723	179.106	39.765	-8191	255	
7768.255	1	1	0	0	0.20576	0.21593	0.27919	0.18698	0.1052	0.076161	0.14635	0.3861	0.13986	0.22299	0.25131	0.2417	0.08796	0.41322	0.12063	0.11725	-1.1812	-2.05	-1.6625	-1.9271	-2.2313	-1.6146	-2.1229	-2.0521	-1.6521	-2.2292	-1.9	-1.6625	-2.25	-1.5875	-1.8875	-1.9479	125.642	43.677	248.963	57.372	256.401	178.841	284.672	365.458	148.235	328.092	336.751	281.482	263.679	347.314	305.218	112.265	0.00055071	0.00022957	0.00012165	325.57	5.1073e-06	8.0465e-06	459.8	107.42	7.2117e-06	2.863e-06	208.74	78.828	33.379	11.082	4.3598e-06	32.63	0.0011846	0.0011423	0.00036849	486.03	1.3007e-05	1.258e-05	628.68	159.19	1.3005e-05	1.2726e-05	289.11	106.02	55.758	18.76	1.5123e-05	43.92	63.728	18.575	123.547	25.973	131.305	170.957	26.381	30.615	170.885	182.608	30.318	35.079	35.537	40.539	197.953	39.267	-8191	255	
7768.352	1	1	0	0	0.25197	0.18611	0.088842	0.11393	0.12906	0.067601	0.25235	0.11211	0.22144	0.1585	0.096027	0.13804	0.32225	0.17535	0.11098	0.16241	-1.1354	-2.2521	-1.8333	-1.7646	-2.0187	-1.7812	-1.9125	-2.025	-1.6604	-1.9375	-2.0333	-1.7875	-1.9896	-1.7708	-1.8417	-2.125	66.353	263.655	241.800	304.881	266.659	329.455	324.074	272.273	228.626	193.052	284.965	368.857	352.680	52.380	364.602	193.758	0.00031877	0.00048389	1.6456e-05	328.33	6.3079e-06	9.2396e-06	458.78	108.47	3.2985e-06	9.6794e-06	208.85	79.241	33.776	11.268	1.2053e-05	32.474	0.0011544	0.0011767	0.00038625	479.35	1.2722e-05	1.31e-05	636.13	156.84	1.2655e-05	1.3352e-05	291.35	105.09	55.334	19.334	1.5169e-05	43.542	115.036	99.032	15.675	25.692	17.160	185.462	26.479	30.806	209.905	212.293	30.285	35.141	35.380	39.998	123.528	39.517	-8191	255	
7768.448	1	1	0	0	0.14336	0.050977	0.20715	0.16022	0.24555	0.13884	0.1009	0.38402	0.23505	0.12183	0.28669	0.078256	0.043238	0.092729	0.37824	0.14614	-1.0604	-2.0229	-2	-1.6833	-2.0667	-1.8583	-1.9062	-2.1021	-1.4125	-1.9438	-2.0104	-1.6208	-1.9937	-1.5583	-2.0583	-2.15	345.156	211.745	187.185	242.862	205.886	347.713	348.959	267.105	304.355	262.359	350.566	236.173	59.738	241.167	204.347	340.996	0.00058858	0.0015648	0.00016704	328.97	2.4833e-06	1.3892e-05	459.85	108.81	7.7326e-06	6.371e-06	209.37	79.416	33.618	11.256	1.2051e-05	32.638	0.0011348	0.0012728	0.00038547	474.35	1.2555e-05	1.4223e-05	635.48	155.64	1.2596e-05	1.4432e-05	288.87	104.12	55.209	19.919	1.4488e-05	43.099	73.350	168.657	52.463	25.845	54.236	171.465	26.103	30.470	120.445	244.268	30.184	35.356	35.739	40.468	110.108	39.514	-8191	255	
7768.544	1	1	0	0	0.18314	0.22483	0.070098	0.15689	0.27877	0.16669	0.30727	0.26794	0.17961	0.11302	0.169	0.11306	0.17127	0.32035	0.32917	0.16432	-1.0354	-1.9333	-2.0021	-1.6375	-2.2771	-1.7708	-1.7625	-2.2542	-1.5271	-1.95	-1.8958	-1.6271	-2.0042	-1.8417	-1.7854	-2.2562	57.487	305.246	29.618	303.453	117.771	170.122	162.273	295.294	31.614	184.855	268.052	125.822	22.922	118.065	35.614	62.295	0.00060688	0.00087649	0.00018581	326.45	5.531e-06	3.801e-06	455.93	107.33	1.7651e-05	5.1773e-06	206.93	77.53	33.684	11.131	1.2738e-05	32.401	0.0011428	0.0013473	0.00036622	469.78	1.273e-05	1.4893e-05	622.55	153.18	1.2866e-05	1.4969e-05	281.71	102.32	55.652	20.072	1.3688e-05	42.511	52.717	166.959	330.602	25.977	177.596	248.815	25.893	30.888	190.411	243.631	30.233	35.160	35.709	40.514	97.351	39.896	-8191	255	
7768.640	1	1	0	0	0.068439	0.17828	0.15063	0.15581	0.1256	0.29779	0.3729	0.28618	0.21719	0.096855	0.18961	0.04632	0.092751	0.068737	0.087312	0.084724	-1.1208	-1.7354	-1.9917	-1.4729	-1.85	-1.8417	-1.7	-2.1813	-1.5458	-1.8229	-2.2958	-1.6938	-2.1646	-1.7125	-1.5167	-2.2812	227.316	359.975	192.650	350.233	188.806	151.478	83.358	262.994	326.697	286.863	34.756	360.273	96.800	336.584	227.455	326.727	0.00066837	0.00053333	0.00029639	326.86	9.4446e-06	4.9368e-06	454.15	106.69	1.3437e-05	6.3237e-06	206.82	77.814	33.443	11.095	5.0056e-06	32.109	0.0011974	0.0013641	0.00034481	463.15	1.3492e-05	1.4974e-05	611.87	151.61	1.3661e-05	1.4766e-05	278.21	101.84	57.37	19.935	1.3048e-05	42.359	41.735	60.995	356.861	25.723	197.257	357.966	26.382	30.787	130.572	90.673	30.171	35.373	35.467	39.348	41.147	39.810	-8191	255	
7768.734	1	1	0	0	0.1141	0.14748	0.077219	0.11575	0.088671	0.074147	0.042559	0.08376	0.074713	0.13285	0.24461	0.21631	0.13843	0.099761	0.16666	0.052495	-1.1562	-1.6667	-2.2062	-1.5146	-1.7458	-1.9979	-1.5792	-2.1208	-2.0083	-1.9062	-2.3104	-1.7896	-2.0833	-1.9792	-1.65	-2.1896	238.102	362.767	42.128	180.066	348.781	307.492	203.051	203.902	104.487	109.982	258.371	38.145	177.165	196.510	35.622	58.355	0.00081264	0.00109	0.00014176	324.01	6.5426e-06	1.0049e-05	457.94	107.44	1.0996e-05	5.5044e-06	205.05	78.571	33.51	11.095	6.6385e-06	32.454	0.0012834	0.001323	0.00033429	464.08	1.4489e-05	1.4473e-05	610.45	152.32	1.473e-05	1.4257e-05	277.05	102.87	59.135	19.555	1.2944e-05	42.913	87.621	334.071	341.571	26.262	166.916	308.664	26.458	30.767	211.256	14.682	30.477	35.413	35.221	39.217	49.251	39.762	-8191	255	
7768.832	1	1	0	0	0.33034	0.13499	0.037175	0.14716	0.2067	0.17178	0.17993	0.1413	0.066282	0.10396	0.19267	0.38873	0.15274	0.16641	0.22599	0.031587	-1.4792	-1.5229	-2.0896	-1.65	-2.0104	-1.8708	-1.7208	-2.1729	-1.6333	-1.6979	-2.2417	-1.4896	-1.8563	-2.0292	-1.5729	-2.1771	76.211	333.159	64.299	318.473	302.137	126.365	185.488	57.610	56.528	120.593	292.289	313.576	322.161	349.458	369.122	215.747	0.00053987	0.0012959	0.00013246	325.27	6.9766e-06	6.475e-06	457.06	107.38	8.9785e-06	7.4144e-06	207.83	78.508	33.46	11.054	6.0714e-06	32.747	0.001356	0.0012635	0.00032624	471.28	1.5043e-05	1.3675e-05	606.89	155.02	1.5102e-05	1.3475e-05	276.24	104.82	59.502	19.197	1.2626e-05	43.899	58.260	360.471	291.998	26.829	47.234	346.608	25.987	30.876	124.947	65.073	30.435	35.366	34.889	39.779	130.602	39.872	-8191	255	
7768.951	1	1	0	0	0.080646	0.23948	0.18065	0.22539	0.23295	0.13562	0.074876	0.17047	0.080391	0.23309	0.2866	0.17239	0.21125	0.17764	0.1056	0.20148	-1.5292	-1.7104	-2.1312	-1.825	-1.7521	-2.2333	-1.6812	-2.0271	-1.9896	-1.5667	-2.3063	-1.8042	-1.5729	-2.2167	-1.5396	-1.9917	233.806	220.920	324.427	360.690	123.953	150.503	47.290	187.939	19.041	144.741	243.942	246.321	345.262	111.477	318.620	309.835	0.00063204	0.00056412	0.00013845	325.05	7.8371e-06	1.0449e-05	455.44	106.97	1.1521e-05	6.8179e-06	206.9	78.581	33.295	11.153	7.507e-06	32.6	0.0013517	0.0012097	0.00032172	482.68	1.474e-05	1.3253e-05	607.41	159.45	1.4738e-05	1.3168e-05	277.16	107.25	58.751	19.067	1.2806e-05	44.908	87.844	313.529	281.718	26.168	45.325	330.475	26.460	31.057	323.396	85.727	30.282	35.232	35.527	39.998	249.686	40.028	-8191	255	
7769.047	1	1	0	0	0.25087	0.18409	0.17856	0.059926	0.10106	0.13453	0.10679	0.11856	0.087127	0.10159	0.081693	0.072218	0.12194	0.07714	0.22556	0.20757	-1.6396	-1.5125	-2.2771	-2	-1.8583	-2.0229	-1.6708	-1.7271	-1.9104	-1.625	-2.2938	-2.0229	-1.5167	-2.1021	-1.6854	-1.7604	136.743	343.193	310.317	120.951	161.625	41.039	85.961	75.011	163.868	104.683	206.325	160.598	113.048	50.405	44.634	36.290	0.00024762	0.00040794	0.00014614	326.28	5.4514e-06	5.7886e-06	456.5	107.77	1.0384e-05	2.4149e-06	208.16	78.259	33.679	11.141	1.2555e-05	32.94	0.0013009	0.0011903	0.00032878	491.39	1.4123e-05	1.2956e-05	609.1	161.25	1.3973e-05	1.2809e-05	278.58	107.64	57.168	18.709	1.3439e-05	44.839	70.906	59.015	145.152	26.231	22.151	57.144	26.936	30.934	354.323	207.709	31.165	35.452	34.918	39.919	253.677	39.920	-8191	255	
7769.144	1	1	0	0	0.19855	0.39561	0.09313	0.083999	0.088051	0.10408	0.14089	0.20897	0.14152	0.25163	0.12129	0.10279	0.22952	0.11029	0.20224	0.38927	-1.5604	-1.5708	-1.8292	-1.7542	-1.6167	-2.0792	-1.7083	-1.8208	-1.8937	-1.4625	-2.1937	-1.9854	-1.6979	-2.2792	-1.8438	-1.8875	55.379	123.639	58.983	267.062	322.807	336.243	55.545	93.743	195.365	87.665	285.149	31.824	339.677	20.304	92.771	336.963	0.0001291	0.00024869	0.00026664	326.36	4.9824e-06	1.1397e-05	457.57	107.58	4.7977e-06	2.6064e-06	207.58	78.709	33.777	11.049	1.2226e-05	32.878	0.0012342	0.0011593	0.00034969	491.31	1.3429e-05	1.2634e-05	618.51	161.12	1.3427e-05	1.2618e-05	284.29	107.55	56.319	18.706	1.4556e-05	44.665	97.065	269.466	131.485	26.219	282.571	319.094	26.377	30.672	95.848	317.619	30.925	35.169	35.207	40.194	211.419	39.502	-8191	255	
7769.240	1	1	0	0	0.23814	0.16979	0.19772	0.093243	0.32281	0.42629	0.13517	0.28823	0.17475	0.084601	0.018379	0.2631	0.23785	0.1354	0.26393	0.14794	-1.8667	-1.3979	-2.0125	-2.1146	-1.3875	-2.2667	-1.4083	-1.8104	-2.0604	-1.6	-2.0187	-2.2125	-1.4896	-2.2062	-1.8354	-1.8062	107.216	183.130	32.818	34.382	270.203	215.145	273.546	184.595	270.721	215.034	190.844	233.393	26.436	135.548	105.547	312.015	0.00030941	0.00063275	5.2102e-05	325.95	4.4365e-06	5.9694e-06	457.44	107.47	7.7406e-06	7.4801e-06	208.13	79.158	33.573	11.253	5.4522e-06	32.914	0.0012061	0.0011583	0.00037902	487.84	1.3209e-05	1.2851e-05	633.67	159.55	1.3233e-05	1.2941e-05	291.03	106.74	55.895	19.021	1.5461e-05	44.252	71.424	151.189	220.003	25.753	45.882	123.892	26.557	30.734	299.114	185.491	30.861	34.903	35.324	40.347	189.400	39.697	-8191	255	
7769.360	1	1	0	0	0.3405	0.28669	0.14212	0.067093	0.11619	0.11176	0.078511	0.096151	0.15829	0.25838	0.27833	0.26948	0.24104	0.15413	0.13715	0.2998	-1.5812	-1.6542	-1.7292	-2.1354	-1.2021	-2.0021	-1.9646	-1.6063	-2.0292	-1.5917	-2.0667	-2.2021	-1.4667	-2.1562	-1.9792	-1.5771	26.942	79.284	293.831	135.336	74.177	243.081	95.032	97.876	352.718	343.032	295.392	284.869	369.613	312.540	194.986	338.577	0.00011921	0.0014417	7.3564e-05	325.9	9.1957e-06	8.7376e-06	458.34	108.12	2.5977e-06	7.4076e-06	209.54	79.354	33.667	11.312	9.2856e-06	33.259	0.0011815	0.0012079	0.00039494	480.55	1.2936e-05	1.3582e-05	639.78	157.33	1.2942e-05	1.3908e-05	293.55	105.82	55.738	19.664	1.5659e-05	43.969	143.182	170.986	202.127	25.952	164.310	176.310	26.311	30.520	81.342	220.872	30.205	35.569	35.180	40.444	141.234	39.936	-8191	255	
7769.432	1	1	0	0	0.31662	0.23849	0.41122	0.42834	0.18619	0.26263	0.19001	0.050172	0.074923	0.012554	0.22927	0.18049	0.085069	0.18025	0.41441	0.17227	-1.8125	-1.5917	-1.7812	-2.1583	-1.6771	-1.9958	-1.9146	-1.5125	-2.1833	-1.8563	-1.7354	-2.425	-1.3104	-2.0938	-1.925	-1.6417	363.412	205.574	209.690	317.370	75.986	186.468	279.352	225.934	359.298	327.363	298.457	174.856	23.295	300.127	363.875	119.644	0.00036383	0.00111	0.00022503	326.89	1.0561e-05	1.2921e-05	458	108.5	1.2111e-05	8.3728e-06	210.22	79.877	33.636	11.364	9.5227e-06	33.09	0.0011671	0.001321	0.0003919	476.5	1.2861e-05	1.4686e-05	636.61	156.22	1.2887e-05	1.5015e-05	291.42	105.53	56.015	20.379	1.5058e-05	43.69	48.387	186.584	349.696	26.366	97.020	201.710	26.233	31.167	124.122	213.256	30.105	35.210	35.631	40.512	76.378	39.601	-8191	255	
7769.553	1	1	0	0	0.084289	0.10692	0.11599	0.11751	0.022097	0.11724	0.032336	0.062638	0.11876	0.20931	0.23398	0.054075	0.17439	0.25221	0.0053456	0.16221	-1.8458	-1.6896	-1.4625	-2.2479	-1.6167	-1.8104	-1.9271	-1.4625	-2.0792	-1.9229	-1.8417	-2.1437	-1.6833	-1.7771	-2.1146	-1.4667	361.605	252.885	309.661	346.596	179.497	112.180	159.161	296.850	206.754	364.980	283.317	73.401	244.819	74.898	31.360	281.217	0.00074108	0.0012531	0.00014831	327.28	8.7162e-06	5.6212e-06	458.4	107.68	2.061e-05	3.9468e-06	208.01	79.312	33.662	11.165	6.3804e-06	32.933	0.0011931	0.0014111	0.00037553	473.99	1.3173e-05	1.5502e-05	627.03	154.65	1.3416e-05	1.5647e-05	285.76	103.84	56.974	20.546	1.4295e-05	43.092	67.546	123.807	367.749	26.006	168.434	155.797	26.071	30.923	186.535	167.707	30.243	35.235	35.472	40.545	137.743	39.576	-8191	255	
7769.649	1	1	0	0	0.07007	0.06885	0.14655	0.16871	0.14509	0.19397	0.09536	0.27275	0.091586	0.25348	0.078979	0.21333	0.10729	0.096034	0.31381	0.25101	-1.7062	-1.8188	-1.6229	-2.1083	-1.7125	-1.8896	-2.0917	-1.6104	-2.2354	-1.9021	-1.8354	-2.4229	-1.825	-1.8667	-1.9958	-1.6458	369.614	44.236	247.692	115.776	214.474	354.224	270.050	279.216	137.399	105.189	203.391	371.355	142.098	55.538	317.623	65.143	0.00090496	0.0012005	8.6581e-05	325.86	1.2014e-05	4.632e-06	455.88	106.99	2.9943e-06	3.6618e-06	208.22	78.52	33.598	11.102	3.6808e-06	32.715	0.0012661	0.0014309	0.00035738	467.03	1.4228e-05	1.5581e-05	617.3	153.43	1.4442e-05	1.5521e-05	281.63	103.38	58.815	20.245	1.3755e-05	43.032	73.882	41.585	320.337	26.680	177.436	271.803	26.132	31.020	127.438	329.670	30.122	35.202	35.896	39.625	50.846	39.839	-8191	255	
7769.743	1	1	0	0	0.12125	0.11731	0.075787	0.081112	0.35751	0.23596	0.12115	0.096786	0.12396	0.18279	0.19359	0.18391	0.17814	0.38427	0.13806	0.16169	-1.5333	-1.9271	-1.6208	-2.0125	-1.8937	-1.6625	-2.4375	-1.6042	-1.8563	-2.1375	-1.4	-2.2271	-1.8875	-1.5854	-2.3563	-1.775	174.368	314.892	371.750	254.032	138.370	105.639	292.225	70.640	109.663	328.064	267.624	326.736	104.272	255.021	55.451	340.709	0.00066801	0.00066137	3.602e-05	325.73	7.7679e-06	7.7326e-06	457.45	108.55	2.5936e-05	5.6648e-06	208.76	79.569	33.988	11.096	5.3398e-06	32.977	0.0013587	0.0013848	0.00034682	467.4	1.5262e-05	1.4827e-05	614.43	154.33	1.5435e-05	1.4755e-05	281.06	104.53	60.556	19.861	1.3506e-05	43.742	63.215	329.253	249.886	26.340	189.971	17.834	26.372	31.123	185.988	86.462	30.312	35.575	35.824	40.100	84.245	39.945	-8191	255	
7769.839	1	1	0	0	0.33444	0.14362	0.23423	0.15498	0.18957	0.286	0.1641	0.16823	0.099603	0.090547	0.042045	0.29711	0.064827	0.17805	0.075135	0.12389	-1.4896	-1.9958	-1.6208	-1.9292	-1.9458	-1.7104	-2.2542	-1.6437	-1.9146	-2.0042	-1.7896	-2.15	-1.8229	-1.8438	-2.0062	-1.7042	71.539	139.910	56.992	323.947	65.615	238.688	346.361	179.331	128.024	281.223	262.259	29.307	126.755	229.761	29.101	81.348	0.00070098	0.00096309	0.00014189	327.46	5.6728e-06	9.1534e-06	458.18	108.58	3.7087e-06	4.8797e-06	209.72	79.841	33.627	11.267	1.1092e-05	33.434	0.001421	0.0013219	0.00034099	477.7	1.589e-05	1.4253e-05	614.03	158.27	1.5817e-05	1.4203e-05	281.38	107.08	61.022	19.65	1.3398e-05	45.082	85.402	38.366	30.853	26.507	363.599	36.713	26.360	31.198	369.766	90.211	30.391	35.462	35.392	39.849	245.599	40.245	-8191	255	
7769.960	1	1	0	0	0.39141	0.099748	0.10899	0.068481	0.14439	0.086503	0.31101	0.082772	0.092956	0.16806	0.2194	0.23658	0.1083	0.24045	0.11579	0.24262	-1.3521	-2.0708	-1.4854	-1.9438	-2.2313	-1.6208	-2.2729	-1.7167	-1.7521	-2.375	-1.4167	-2.1479	-1.9646	-1.5833	-2.2	-1.8667	229.961	269.808	154.918	146.122	117.514	300.299	267.088	79.924	114.827	72.084	68.957	190.423	33.369	276.421	274.960	66.461	0.00048791	0.00081978	4.0129e-05	327.07	6.7835e-07	4.3643e-06	458.9	108.09	6.627e-06	2.2217e-06	208.73	80.092	33.703	11.175	2.2684e-06	33.097	0.0014285	0.0012808	0.00034142	492.32	1.5751e-05	1.4061e-05	616.69	163.46	1.5613e-05	1.4072e-05	283.44	110.48	60.745	19.599	1.3856e-05	46.201	40.498	60.232	124.755	26.832	13.484	343.586	25.967	31.045	46.133	355.475	30.178	35.293	35.062	39.877	193.764	39.977	-8191	255	
7770.032	1	1	0	0	0.050486	0.16769	0.13962	0.2402	0.10627	0.13089	0.17332	0.31541	0.061972	0.24582	0.051415	0.087986	0.33245	0.16617	0.44722	0.18375	-1.4167	-2.1625	-1.6333	-1.9333	-1.9479	-1.5938	-2.2292	-2.0167	-1.5	-2.2521	-1.7646	-2.0333	-1.9417	-1.8583	-2.1854	-1.9833	311.327	37.926	147.880	362.413	134.528	216.605	342.101	343.568	133.843	54.971	261.072	236.855	15.987	260.280	241.699	149.937	0.000289	0.00093443	0.00033675	325.06	9.4004e-06	5.044e-06	454.17	107.58	8.3831e-06	6.8885e-06	206.88	78.484	33.228	11.02	1.5549e-05	32.406	0.0013896	0.0012798	0.00035614	503.64	1.5197e-05	1.3883e-05	621.2	166.07	1.4859e-05	1.378e-05	285.51	110.36	58.682	19.254	1.4579e-05	45.848	319.028	44.079	111.870	26.281	44.584	61.591	26.517	30.614	284.419	224.950	30.291	35.260	34.944	40.062	225.233	39.595	-8191	255	
7770.128	1	1	0	0	0.19437	0.13928	0.12221	0.13067	0.024414	0.15696	0.12308	0.13468	0.21276	0.2245	0.096591	0.020184	0.15171	0.15731	0.13087	0.23023	-1.3292	-2.0938	-1.475	-1.8271	-2.2	-1.5083	-2.2667	-1.8292	-1.6375	-2.3167	-1.7188	-1.8896	-2.1958	-1.5292	-2.2083	-1.9958	220.105	224.586	355.643	304.118	239.554	235.970	239.766	236.276	164.188	370.205	87.100	42.866	315.320	32.938	170.082	55.679	0.00032657	0.00076721	0.00022481	320.05	4.3448e-06	5.6408e-06	451.48	106.84	6.4794e-06	9.6508e-07	205.86	78.134	32.728	11.081	7.5376e-06	32.416	0.0013097	0.001236	0.00037891	499.45	1.4305e-05	1.3426e-05	626.84	163.94	1.4185e-05	1.3429e-05	289.91	108.84	57.472	19.092	1.5646e-05	45.269	89.810	353.413	150.272	25.892	367.261	311.964	26.345	30.481	17.837	344.127	30.364	35.482	34.552	40.033	175.107	39.724	-8191	255	
7770.224	1	1	0	0	0.15055	0.12667	0.24371	0.13365	0.23295	0.10525	0.18054	0.1192	0.12091	0.19058	0.20731	0.21891	0.075734	0.12564	0.093744	0.14605	-0.9875	-2.1167	-1.7479	-1.8854	-2.3979	-1.5646	-2.175	-2.0667	-1.5792	-2.1813	-1.75	-1.8396	-2.1688	-1.6104	-1.8292	-2.1521	319.992	166.477	75.196	167.730	243.615	263.751	26.755	52.006	263.464	224.173	236.826	330.521	165.204	95.884	264.690	231.192	0.00052954	0.00023073	0.00026104	320.92	1.1946e-05	8.6179e-06	452.33	106.51	8.1391e-07	3.7436e-06	206.79	78.269	32.946	11.067	8.5544e-06	32.365	0.0012668	0.0012331	0.00040369	491.32	1.397e-05	1.3584e-05	639.18	161.32	1.3841e-05	1.3773e-05	295.09	107.64	56.962	19.379	1.6434e-05	44.572	67.891	365.466	167.713	26.227	45.341	175.952	26.344	30.874	267.650	246.149	30.425	35.067	35.377	40.162	193.314	39.395	-8191	255	
7770.320	1	1	0	0	0.22628	0.16775	0.095033	0.17966	0.31172	0.20006	0.11281	0.21417	0.20017	0.18125	0.17067	0.13277	0.22166	0.13326	0.024665	0.25849	-1.0146	-2.1625	-1.7687	-1.6354	-2.2562	-1.7437	-2.0354	-2.0792	-1.6562	-2.2375	-1.8979	-1.6	-2.175	-1.6417	-1.8021	-2.4062	154.625	205.618	163.028	43.747	87.341	23.269	225.054	284.271	98.883	114.635	320.454	345.525	324.299	16.578	96.957	338.298	0.00060136	0.0015496	0.00011458	324.09	4.9988e-06	1.0029e-05	452.79	107.09	5.073e-06	2.8353e-06	206.73	78.569	33.128	11.223	1.2376e-05	32.576	0.0012452	0.0013004	0.00042266	484.6	1.3694e-05	1.4489e-05	644.48	159.35	1.3556e-05	1.4795e-05	296.35	106.12	56.571	20.033	1.6305e-05	44.145	71.838	161.387	170.066	25.918	88.658	155.725	26.136	30.765	189.621	206.792	30.524	35.244	34.985	41.009	54.359	40.017	-8191	255	
7770.441	1	1	0	0	0.21259	0.11527	0.15833	0.094528	0.10424	0.35191	0.27648	0.062444	0.15768	0.34119	0.094998	0.20142	0.1889	0.16718	0.27728	0.36431	-0.97292	-2.0271	-1.875	-1.6729	-2.1188	-1.8125	-1.8563	-2.0771	-1.5938	-2.1083	-2.0438	-1.6646	-2.15	-1.8917	-1.8021	-2.3667	282.237	106.777	228.776	350.098	305.428	156.308	281.642	339.712	345.100	129.053	370.784	342.115	312.952	197.265	243.861	285.604	0.00029984	0.0014186	0.00046754	320.1	2.9901e-06	5.4527e-06	452.02	106.8	1.3626e-05	7.1874e-06	207.8	78.352	32.951	11.079	4.8002e-06	32.888	0.0012212	0.0013944	0.00041302	478.38	1.3502e-05	1.5599e-05	639.1	157.42	1.3541e-05	1.5877e-05	293.64	105.7	56.793	20.711	1.5571e-05	44.042	33.503	155.881	335.582	26.157	341.880	195.748	26.354	30.795	170.649	190.755	30.115	35.440	35.498	40.771	74.311	39.668	-8191	255	
7770.537	1	1	0	0	0.099104	0.19277	0.19429	0.27952	0.15224	0.076439	0.3939	0.11864	0.24944	0.13858	0.29398	0.25676	0.13598	0.18106	0.17014	0.27984	-1.1229	-2.0729	-1.9375	-1.4688	-2.1104	-1.6562	-1.7354	-2.3479	-1.4646	-2.0687	-2.1354	-1.7125	-2.1437	-2.0625	-1.3792	-2.5042	274.471	161.220	107.962	172.540	42.588	233.599	339.455	58.065	341.474	172.207	239.362	234.310	92.128	169.394	350.689	328.465	0.00076783	0.00029645	0.00018117	321.3	6.1484e-06	6.8869e-06	453.77	107.17	1.0793e-05	2.0956e-06	207	78.395	33.304	11.05	1.3066e-05	32.333	0.0012455	0.0014695	0.00039058	475.18	1.3893e-05	1.6265e-05	629.53	156.31	1.4159e-05	1.6369e-05	288.47	104.8	58.061	20.836	1.4749e-05	43.391	78.111	245.512	15.823	25.967	149.966	129.558	26.017	30.811	157.772	254.349	29.888	35.153	35.880	39.613	68.915	39.807	-8191	255	
7770.633	1	1	0	0	0.093058	0.24124	0.38956	0.32948	0.096326	0.01132	0.21723	0.053196	0.2411	0.16452	0.39456	0.16051	0.090776	0.11417	0.10899	0.16505	-1.075	-2.0187	-1.9062	-1.4896	-2.2562	-1.8917	-1.5042	-2.2188	-1.6833	-1.9896	-2.1813	-1.3792	-2.0938	-1.9604	-1.3583	-2.3563	97.372	153.379	356.610	298.759	369.295	114.296	335.635	26.644	124.559	24.363	305.105	266.994	338.376	83.455	241.871	51.132	0.0010145	0.00046783	3.7717e-05	320.76	1.0812e-05	1.2101e-05	447.22	106.57	2.3485e-05	6.6573e-06	206.7	77.627	33.021	10.973	1.0062e-05	32.238	0.0013265	0.0014879	0.00037105	470.68	1.4914e-05	1.6229e-05	617.85	154.3	1.5312e-05	1.6051e-05	283.41	103.74	59.694	20.468	1.4273e-05	43.159	94.312	349.129	238.223	26.214	166.349	33.338	26.160	30.842	150.119	52.886	30.525	35.331	36.135	39.308	64.791	39.537	-8191	255	
7770.729	1	1	0	0	0.13645	0.081506	0.11929	0.16119	0.069424	0.20549	0.093548	0.18598	0.21617	0.22373	0.26348	0.28456	0.029903	0.2407	0.23161	0.2845	-1.3292	-1.8708	-2.0833	-1.5229	-2.125	-1.8979	-1.6271	-2.3125	-1.7958	-1.6646	-2.3333	-1.3583	-2.0104	-2.2125	-1.6063	-2.1917	267.544	321.358	370.950	153.273	28.925	201.687	343.320	123.747	37.165	34.888	307.222	119.088	363.194	167.661	133.719	346.809	0.0010993	0.00061164	0.0001678	319.7	1.2774e-05	1.1616e-05	446.09	105.81	9.1381e-06	8.5899e-06	205.55	78.102	33.087	11.011	8.5648e-06	32.364	0.0014221	0.0014233	0.00036101	469.08	1.5953e-05	1.5385e-05	613.58	155.06	1.615e-05	1.5221e-05	281.54	104.99	61.097	20.013	1.3863e-05	43.758	72.038	339.445	313.538	26.465	140.221	333.083	25.923	31.212	103.225	39.897	30.443	35.452	35.772	39.766	60.032	40.051	-8191	255	
7770.824	1	1	0	0	0.13581	0.17831	0.074413	0.23428	0.23948	0.13665	0.24195	0.12842	0.29678	0.097975	0.1342	0.21786	0.20322	0.22465	0.2652	0.1759	-1.4125	-1.6604	-2.2958	-1.7583	-1.9083	-2.0646	-1.5521	-2.1188	-1.9042	-1.8042	-2.2708	-1.8083	-1.8312	-2.0583	-1.6458	-2.2396	54.501	347.885	318.803	349.566	174.063	115.869	364.618	28.860	262.393	199.133	171.875	294.828	45.166	60.362	50.099	74.347	0.00066252	0.0012794	6.9576e-05	320.54	5.606e-06	4.7968e-06	449.76	106.42	2.1281e-06	5.8065e-06	206.9	78.322	32.944	11.059	6.56e-06	32.512	0.0014694	0.0013461	0.00035055	478.02	1.6275e-05	1.4609e-05	610.46	158.61	1.6308e-05	1.4468e-05	280.69	107.42	61.145	19.658	1.3692e-05	44.905	65.859	340.674	229.868	26.660	47.704	357.234	26.086	31.232	205.710	64.292	30.418	35.699	35.522	39.881	152.163	39.933	-8191	255	
7770.920	1	1	0	0	0.03616	0.21192	0.074813	0.16767	0.26219	0.41171	0.028918	0.057695	0.18459	0.25168	0.23927	0.12385	0.18666	0.19403	0.16795	0.33752	-1.55	-1.4042	-2.3354	-1.7604	-1.8146	-2.2438	-1.5312	-2.1312	-1.7729	-1.5458	-2.1625	-1.7479	-1.8563	-2.05	-1.3813	-2.0271	270.227	366.180	285.829	299.224	78.909	313.451	174.025	177.022	314.759	144.954	62.609	70.388	170.775	65.691	137.359	254.470	0.00061227	0.0011469	4.2607e-05	323.38	3.7583e-06	4.9921e-06	453.75	107.09	1.0733e-05	7.1522e-06	208.38	78.913	33.038	11.142	8.1761e-06	32.898	0.0014498	0.0012985	0.00034482	492.42	1.5805e-05	1.4071e-05	611.81	162.69	1.5605e-05	1.4008e-05	281.97	109.78	59.779	19.412	1.376e-05	45.882	122.836	17.927	187.771	26.850	253.129	296.133	26.062	30.740	367.459	121.779	30.395	35.414	35.175	40.205	228.666	40.117	-8191	255	
7771.040	1	1	0	0	0.2043	0.15531	0.15614	0.082632	0.032823	0.34399	0.4343	0.10602	0.18814	0.20921	0.20718	0.24003	0.17497	0.23825	0.24135	0.1665	-1.6167	-1.5167	-2.0708	-1.8521	-1.675	-2.2396	-1.6542	-2.0021	-1.7875	-1.2625	-2.0667	-2.1188	-1.7188	-2.4375	-1.7646	-2.1271	175.140	220.351	237.150	42.071	170.683	69.232	322.081	327.206	200.600	313.631	88.676	64.322	47.133	355.249	202.849	306.344	0.00056784	0.0012983	0.00024635	323.45	1.0463e-05	4.8561e-06	453.88	108.16	5.1212e-06	6.5047e-06	210.06	79.302	33.209	11.153	1.626e-05	32.777	0.0013731	0.0012578	0.00035518	501.28	1.4842e-05	1.3724e-05	620.24	165.89	1.4804e-05	1.3654e-05	287.19	110.91	58.495	19.256	1.4728e-05	46.032	62.663	348.626	131.891	26.457	363.007	39.384	26.167	30.972	320.722	118.543	30.667	35.423	34.877	40.010	226.470	39.973	-8191	255	
7771.136	1	1	0	0	0.28999	0.17017	0.16899	0.23398	0.20153	0.55263	0.082934	0.27917	0.18952	0.23712	0.18698	0.13395	0.30443	0.34592	0.15089	0.080416	-1.8042	-1.4	-2.2896	-1.95	-1.6646	-2.1188	-1.8646	-1.8104	-2.3167	-1.5875	-2.2042	-2.0542	-1.4583	-2.2687	-1.9333	-1.8125	360.136	38.100	152.696	306.175	184.052	172.539	232.361	187.667	64.126	104.601	156.351	185.112	136.299	61.309	223.722	335.556	0.00049298	0.00041466	0.00049073	321.59	4.5894e-06	5.3243e-06	453.03	106.85	3.9935e-06	2.8794e-06	206.51	78.746	32.998	11.027	1.9502e-05	32.446	0.0013057	0.0012373	0.0003808	500.04	1.4279e-05	1.3442e-05	630.53	163.6	1.4151e-05	1.3428e-05	290.73	108.84	57.196	18.999	1.5669e-05	44.993	71.852	244.104	149.568	25.597	296.208	79.781	26.502	30.522	372.409	224.878	30.481	34.993	35.424	40.681	221.033	39.379	-8191	255	
7771.233	1	1	0	0	0.081786	0.26634	0.24298	0.27077	0.1513	0.2385	0.17509	0.19686	0.27024	0.13503	0.11681	0.15895	0.10445	0.21824	0.14556	0.37481	-1.6146	-1.5167	-1.9167	-1.9312	-1.5083	-2.175	-1.8833	-1.5583	-2.2167	-1.3667	-1.9604	-2.275	-1.5146	-2.3354	-1.9083	-1.7458	204.834	145.390	353.448	35.670	89.067	244.849	352.542	287.491	103.619	69.566	41.794	350.921	246.400	342.636	371.816	219.143	0.0006334	0.00073687	0.00028969	321.27	8.9115e-06	4.9144e-06	456.13	106.8	1.7322e-06	3.7515e-06	208.78	78.333	33.106	11.034	8.1022e-07	32.691	0.0012524	0.001219	0.00040142	487.83	1.3682e-05	1.35e-05	637.86	160.01	1.3661e-05	1.3717e-05	294.21	106.8	56.343	19.247	1.6194e-05	44.279	79.421	175.630	123.511	26.147	370.916	155.679	26.317	31.197	22.395	234.447	30.462	34.946	34.951	40.251	243.667	39.388	-8191	255	
7771.329	1	1	0	0	0.096792	0.23796	0.09724	0.049241	0.12691	0.11657	0.11229	0.1948	0.20236	0.13047	0.2379	0.10013	0.13579	0.24478	0.083699	0.067279	-1.775	-1.7833	-1.7646	-2.2062	-1.525	-2.2833	-1.95	-1.85	-2.3375	-1.6833	-1.9562	-2.1667	-1.6063	-2.2896	-1.9813	-1.6854	281.286	299.688	15.773	222.096	78.314	350.782	83.065	347.153	59.743	269.044	187.496	51.333	82.209	14.478	304.940	303.921	0.00036443	0.00026089	7.4677e-05	321.37	4.8563e-06	9.2761e-06	454.75	107.02	2.7332e-06	1.214e-05	208.07	78.481	33.173	11.148	4.7611e-06	32.891	0.0012147	0.0012833	0.00041027	479.27	1.3355e-05	1.4327e-05	641	157.48	1.3287e-05	1.4632e-05	294.68	105.74	55.968	19.931	1.5892e-05	43.998	40.607	225.237	118.700	25.656	335.865	184.354	26.131	30.734	66.050	227.518	30.264	34.892	35.134	40.931	52.547	39.796	-8191	255	
7771.425	1	1	0	0	0.22408	0.091423	0.47577	0.086083	0.37009	0.15962	0.17133	0.11875	0.12353	0.12376	0.024307	0.039215	0.16589	0.13366	0.11358	0.027151	-1.7812	-1.6771	-2.0125	-2.0833	-1.5229	-2.0917	-1.9083	-1.5562	-2.1771	-1.8458	-1.9562	-2.1021	-1.5229	-2.1667	-2.0604	-1.65	370.029	118.662	195.419	264.075	58.046	118.294	189.154	308.797	164.944	38.141	355.198	82.160	272.299	113.319	125.586	224.871	0.00055876	0.0013054	0.00035591	325.82	7.0907e-06	1.1948e-05	457.21	107.28	1.1212e-05	9.5715e-06	208.46	79.354	33.145	11.202	2.0859e-05	33.1	0.0011904	0.0013741	0.00039944	475.42	1.3169e-05	1.5278e-05	636.12	156.08	1.3265e-05	1.5603e-05	291.23	105.39	56.281	20.528	1.5109e-05	43.865	67.062	176.541	371.392	26.056	258.021	167.611	26.057	30.808	123.503	255.548	30.455	35.266	35.230	41.025	25.418	39.788	-8191	255	
7771.521	1	1	0	0	0.29019	0.23608	0.27497	0.20066	0.28716	0.15375	0.3113	0.023638	0.19345	0.23807	0.1383	0.065993	0.41833	0.056904	0.0078516	0.15981	-1.8333	-1.7812	-1.5792	-2.0917	-1.6729	-1.8979	-2.2062	-1.5104	-2.1375	-1.9396	-1.7771	-2.3417	-1.6771	-1.8792	-2.2542	-1.7229	308.711	96.794	125.039	141.279	112.034	154.019	251.830	37.260	53.422	238.793	233.769	158.789	301.514	340.625	67.858	99.354	0.00073197	0.00086517	0.00037016	324	1.3652e-05	6.689e-06	455.96	107.44	1.3187e-05	4.9806e-06	210.65	79.666	33.278	11.219	7.628e-06	32.947	0.0012212	0.0014494	0.00037993	472.42	1.3822e-05	1.5999e-05	629.17	155.33	1.3971e-05	1.6103e-05	288.41	105.21	58.027	20.801	1.4451e-05	43.742	78.131	135.878	214.835	26.489	182.950	121.679	26.340	30.986	180.247	121.623	30.373	35.620	36.186	39.230	360.464	39.735	-8191	255	
7771.617	1	1	0	0	0.13572	0.30303	0.25587	0.36976	0.081613	0.22045	0.24163	0.076518	0.14726	0.12152	0.16571	0.055874	0.16761	0.20348	0.044581	0.35187	-1.6167	-1.8271	-1.5125	-2.3208	-1.7021	-1.8833	-2.05	-1.4271	-2.2125	-2.0229	-1.5396	-2.2521	-1.8146	-1.7917	-2.3625	-1.7479	285.154	158.271	111.090	358.872	13.508	314.861	346.558	65.869	53.260	314.637	274.889	40.045	256.239	353.508	31.426	235.015	0.0010739	0.00061387	7.1738e-05	324.01	1.4191e-05	1.1221e-05	457.62	107.1	2.0494e-05	8.5751e-06	207.98	79.315	33.336	11.001	1.077e-05	32.867	0.0013097	0.0014504	0.00036065	470.37	1.4763e-05	1.577e-05	620.23	154.16	1.4997e-05	1.558e-05	283.2	104.01	59.662	20.296	1.3915e-05	43.441	65.349	85.016	205.751	25.992	192.012	357.951	25.890	30.730	168.370	55.769	30.519	35.346	36.417	39.927	46.661	39.914	-8191	255	
7771.736	1	1	0	0	0.14621	0.24713	0.26851	0.1037	0.19069	0.1854	0.09654	0.20634	0.035484	0.24308	0.089393	0.067813	0.095384	0.15607	0.19342	0.015858	-1.525	-2.0062	-1.5167	-2.2125	-1.6167	-1.7042	-2.3479	-1.4438	-2.1208	-2.0792	-1.5375	-2.175	-1.6292	-1.6354	-2.3917	-1.65	264.094	102.728	52.308	41.219	206.082	238.545	350.524	368.712	371.500	140.679	324.434	231.876	236.554	141.551	315.651	94.592	0.00092255	0.00067554	0.0002119	325.2	1.348e-05	1.0852e-05	455.47	106.76	4.8623e-06	2.7074e-06	208.65	78.945	33.465	11.188	7.1279e-06	32.716	0.0013909	0.0013822	0.00035078	469.41	1.5642e-05	1.4931e-05	612.61	154.89	1.5728e-05	1.4743e-05	280.91	104.97	60.769	19.871	1.3629e-05	43.961	75.646	319.034	319.468	26.314	118.933	33.939	26.332	31.182	98.319	18.952	30.372	35.786	35.875	40.328	83.375	40.306	-8191	255	
7771.832	1	1	0	0	0.33211	0.23315	0.20979	0.29624	0.2277	0.08582	0.039844	0.059814	0.38672	0.23063	0.3069	0.16155	0.28598	0.17046	0.17614	0.14793	-1.5458	-1.9979	-1.3354	-2.1813	-2.0458	-1.5688	-2.3208	-1.6521	-1.8375	-2.3354	-1.5604	-2.1479	-1.9292	-1.5562	-2.3396	-1.825	97.714	99.619	277.673	19.517	344.779	85.406	44.420	35.571	365.350	367.448	344.907	319.157	79.145	291.304	113.812	224.457	0.00049249	0.00069911	6.4125e-05	325.4	2.366e-06	6.8037e-06	454.28	107.1	8.7346e-06	1.3223e-06	209.77	79.141	33.021	11.125	7.3104e-06	33.002	0.0014492	0.0013218	0.00034308	478.93	1.6009e-05	1.4264e-05	610.55	158.99	1.5918e-05	1.4154e-05	281.13	107.44	60.494	19.572	1.331e-05	45.17	138.689	303.543	349.550	26.654	128.483	373.100	26.514	31.272	285.351	56.423	30.445	35.449	35.043	40.022	85.380	40.126	-8191	255	
7771.904	1	1	0	0	0.28183	0.068176	0.088896	0.048641	0.31692	0.20557	0.18283	0.12366	0.038278	0.085358	0.22406	0.13966	0.13815	0.25162	0.25066	0.099143	-1.4792	-2.1854	-1.6146	-2.0771	-1.9083	-1.7833	-2.2729	-1.7021	-1.9042	-2.1937	-1.95	-2.0292	-1.9167	-1.6271	-2.0792	-1.9583	315.684	239.880	302.592	40.476	76.793	229.737	59.984	67.479	112.090	44.443	210.140	372.293	370.348	62.398	34.930	58.403	0.00016603	0.00066564	0.00014705	326	8.5585e-06	3.179e-06	456.52	107.39	1.1615e-05	7.703e-06	209.47	79.286	33.027	11.05	1.0564e-05	33.081	0.0014158	0.0012661	0.00034139	491.68	1.5432e-05	1.3856e-05	613.93	162.78	1.5243e-05	1.3801e-05	282.49	109.85	59.348	19.37	1.3737e-05	46.079	88.651	152.048	146.874	26.461	324.548	88.423	26.569	31.116	49.190	59.896	30.688	35.462	35.555	40.343	269.413	40.030	-8191	255	
7772.002	1	1	0	0	0.25447	0.19026	0.10907	0.19899	0.3492	0.16832	0.1033	0.091722	0.073416	0.28776	0.34344	0.31178	0.073421	0.26797	0.22236	0.11652	-1.2875	-2.1083	-1.6667	-1.9229	-2.0521	-1.6583	-2.3271	-1.9542	-1.6333	-2.025	-1.9125	-1.95	-2.1771	-1.7333	-2.2292	-2.1146	278.727	112.026	316.160	40.096	273.381	263.482	364.521	277.022	284.980	115.974	328.189	311.523	87.544	295.855	80.307	38.481	0.00040945	0.00030826	0.00028065	325.64	1.18e-05	7.2635e-06	457.82	107.88	1.4389e-05	7.1081e-06	209.93	79.72	33.352	11.196	2.3241e-05	33.284	0.0013501	0.0012398	0.00035538	500.51	1.4677e-05	1.3567e-05	623.87	165.41	1.4569e-05	1.3516e-05	288.26	111.02	58.195	19.288	1.4687e-05	46.312	294.943	353.235	134.543	26.119	36.422	336.469	26.496	30.614	344.863	25.715	30.591	35.197	35.740	40.145	209.352	39.836	-8191	255	
7772.121	1	1	0	0	0.1631	0.10754	0.28223	0.26421	0.097163	0.22163	0.14932	0.14742	0.2342	0.051514	0.068111	0.22808	0.25264	0.12053	0.15954	0.24176	-1.225	-2.3187	-1.6833	-1.8896	-2.0896	-1.6792	-1.9729	-2.1271	-1.5833	-2.1437	-1.8062	-1.7771	-2.1292	-1.8729	-1.825	-2.0104	345.855	264.936	139.882	356.136	302.672	186.949	254.770	246.826	224.767	253.188	95.767	355.114	372.248	96.140	335.957	111.594	0.00043294	0.00052382	0.00038861	323.05	4.1553e-06	2.2687e-06	458.26	107.58	1.776e-06	3.1461e-06	208.52	78.578	33.054	11.169	2.4457e-05	32.994	0.0012895	0.0012174	0.00038185	499.72	1.4056e-05	1.3334e-05	635.62	163.59	1.4031e-05	1.3327e-05	293.41	109.26	57.109	19.127	1.5784e-05	45.339	65.371	343.058	140.681	26.062	284.455	87.310	26.311	31.066	172.185	252.869	30.686	34.725	35.446	40.148	221.023	40.116	-8191	255	
7772.217	1	1	0	0	0.13334	0.21667	0.069636	0.21572	0.22632	0.17614	0.23717	0.12642	0.040167	0.15287	0.11003	0.21138	0.23882	0.15169	0.24281	0.25551	-1.4208	-2.1188	-1.6958	-1.8792	-2.1542	-1.525	-1.9562	-2.0458	-1.5771	-2.2146	-1.8104	-1.8687	-2.4125	-1.6896	-2.0229	-1.9208	168.686	75.236	366.691	135.780	70.912	28.837	304.734	298.132	274.912	249.168	148.621	349.772	274.777	358.375	59.468	82.721	0.00029256	0.00076524	0.0001865	322.12	4.4324e-06	1.1417e-05	455.45	106.2	1.0531e-05	9.7691e-06	208.81	78.664	33.027	11.237	3.9339e-06	32.86	0.0012517	0.001229	0.00040577	488.82	1.3752e-05	1.3615e-05	641.74	159.7	1.3557e-05	1.3694e-05	295.61	106.97	56.209	19.455	1.6162e-05	44.422	32.071	140.346	91.776	25.823	270.287	190.795	26.261	30.636	339.081	259.738	30.904	35.097	35.495	40.590	139.348	39.414	-8191	255	
7772.313	1	1	0	0	0.33936	0.10171	0.12553	0.24441	0.244	0.34524	0.06198	0.17929	0.099198	0.17499	0.13285	0.15378	0.077798	0.22552	0.17079	0.29819	-1.3479	-2.0646	-1.8813	-1.6958	-2.1604	-1.8604	-1.9375	-2.2021	-1.6271	-2.1833	-1.9438	-1.4896	-2.2625	-1.7729	-1.8	-2.1625	218.142	312.211	173.593	219.513	149.860	309.602	116.825	68.261	350.219	76.201	67.266	369.895	227.486	61.909	22.136	20.971	0.00049936	0.00087792	8.9816e-05	318.51	5.6627e-06	1.3487e-05	453.23	107.22	7.8139e-06	8.101e-06	208.7	79.262	33.455	11.313	1.5643e-06	32.792	0.0012116	0.0012825	0.0004113	478.87	1.3261e-05	1.452e-05	642.83	157.47	1.3324e-05	1.4721e-05	296.06	106.26	56.081	20.138	1.5884e-05	44.141	39.763	208.078	347.772	26.075	158.942	183.887	26.388	30.801	175.388	185.254	30.446	35.445	35.679	40.772	300.784	39.741	-8191	255	
7772.434	1	1	0	0	0.17707	0.21243	0.017494	0.058054	0.19499	0.11347	0.12781	0.19337	0.034956	0.20034	0.23469	0.20661	0.31893	0.17111	0.26228	0.35378	-1.0562	-2.0729	-1.9875	-1.6375	-2.2354	-1.9604	-1.8542	-2.2604	-1.5875	-2.2583	-1.9271	-1.6437	-2.2792	-1.75	-1.7875	-2.175	13.379	331.119	242.306	301.481	308.132	124.876	95.493	365.183	84.849	284.160	277.896	278.022	296.384	145.779	247.916	86.321	0.0005007	0.0010778	0.00033151	322.5	4.0642e-06	1.1047e-05	458.66	106.42	1.1024e-05	8.4002e-06	210.45	79.04	33.246	11.15	5.5888e-06	33.095	0.0012047	0.0013854	0.00039748	476.27	1.3273e-05	1.5552e-05	637.21	156.56	1.3482e-05	1.5739e-05	293.17	105.96	56.692	20.776	1.5271e-05	44.171	85.319	152.163	341.965	26.182	208.398	182.475	26.147	30.850	206.490	201.774	30.271	35.095	35.848	40.637	92.787	39.750	-8191	255	
7772.528	1	1	0	0	0.10993	0.10262	0.19826	0.17427	0.1365	0.04326	0.25272	0.2672	0.064589	0.065919	0.0933	0.12824	0.16736	0.31498	0.071611	0.27641	-1.3542	-2.0312	-2.0979	-1.4771	-2.0687	-1.95	-1.7833	-2.1333	-1.7854	-1.8583	-2.15	-1.5625	-2.1917	-1.8875	-1.6896	-2.2583	282.327	239.306	149.145	288.452	322.066	223.657	34.798	327.280	326.353	105.178	307.700	322.822	344.656	258.938	343.557	348.877	0.00076158	0.00046709	7.0931e-05	324.4	6.3052e-06	4.6086e-06	455.41	108.09	1.4867e-05	8.1999e-07	211.12	79.548	33.576	11.147	1.5296e-05	33.191	0.0012545	0.0014774	0.00038293	475.63	1.4048e-05	1.632e-05	631.38	156.31	1.4323e-05	1.6333e-05	290.07	105.93	58.597	21.008	1.4631e-05	44.082	72.497	191.953	44.968	26.218	210.291	104.489	26.171	31.086	166.477	301.110	30.519	35.358	36.322	40.520	253.972	39.731	-8191	255	
7772.601	1	1	0	0	0.10948	0.17344	0.013682	0.34418	0.1963	0.15441	0.27536	0.22831	0.18007	0.26855	0.072799	0.23618	0.077733	0.17878	0.030833	0.080364	-0.97917	-1.9062	-2.0958	-1.5625	-2	-2.1271	-1.7271	-2.1646	-1.6562	-1.7958	-2.2354	-1.6583	-2.0521	-1.9646	-1.6833	-2.1979	341.038	173.842	334.564	30.053	234.959	202.749	283.501	258.252	129.306	117.899	216.827	293.953	67.580	240.754	238.192	29.138	0.00092064	0.00094484	0.00023534	321.19	1.3091e-05	9.6918e-06	459.32	108.19	1.5443e-05	6.7665e-06	210.16	79.41	33.247	11.102	9.9275e-06	33.165	0.0013522	0.0014775	0.00036773	472.92	1.5209e-05	1.6025e-05	626.22	155.58	1.5444e-05	1.5844e-05	287.12	105.8	60.39	20.531	1.42e-05	44.042	53.682	282.054	350.417	26.100	185.259	41.163	26.579	31.130	177.026	57.045	29.910	35.374	36.674	39.817	317.581	40.246	-8191	255	
7772.720	1	1	0	0	0.063715	0.15584	0.13647	0.15303	0.14042	0.14026	0.3726	0.19341	0.1922	0.23047	0.15864	0.3073	0.15638	0.088091	0.25927	0.052495	-1.4083	-1.5729	-2.3937	-1.4438	-1.9729	-2.2146	-1.575	-2.2458	-1.7208	-1.6521	-2.2625	-1.5771	-1.9271	-1.9896	-1.6583	-1.9458	166.325	40.344	175.861	80.172	25.320	35.972	371.059	227.345	147.240	361.721	343.100	294.645	66.853	359.739	364.487	32.393	0.00097224	0.0011105	0.00016679	323.47	8.4958e-06	1.0376e-05	452.42	106.24	9.5931e-06	7.0336e-06	208.79	78.794	33.066	11.063	1.0401e-05	32.778	0.0014414	0.0014064	0.0003578	473.94	1.605e-05	1.5171e-05	616.99	156.26	1.6253e-05	1.5041e-05	283.63	106.11	61.276	19.917	1.3914e-05	44.34	45.730	18.579	325.053	26.211	185.558	347.411	25.895	30.977	145.128	42.226	30.312	35.723	35.197	40.007	42.642	40.516	-8191	255	
7772.816	1	1	0	0	0.014665	0.26039	0.12871	0.17344	0.16296	0.20029	0.37468	0.27287	0.24262	0.11389	0.36144	0.28071	0.19296	0.16212	0.038419	0.23711	-1.4417	-1.3708	-2	-1.6292	-1.8563	-1.9354	-1.6583	-2.2062	-2.0104	-1.6729	-2.1688	-1.4521	-1.9104	-2.0667	-1.6104	-2.0417	306.380	160.581	349.827	349.444	304.603	370.609	197.693	62.259	56.235	316.845	33.540	339.955	112.881	368.061	208.760	250.771	0.00040837	0.00073809	0.0001452	322.9	4.7811e-06	8.5656e-06	453.68	107.35	1.895e-05	2.2212e-06	209.87	79.102	32.899	11.113	3.4742e-06	32.964	0.001485	0.0013398	0.00035005	484.8	1.6271e-05	1.4529e-05	615.06	160.49	1.6197e-05	1.4435e-05	282.01	108.75	60.925	19.63	1.3726e-05	45.527	46.239	56.689	242.234	26.406	78.085	371.471	26.470	31.205	313.034	16.946	30.447	35.403	35.393	39.613	251.039	39.822	-8191	255	
7772.913	1	1	0	0	0.10686	0.25423	0.22922	0.16757	0.23062	0.090937	0.26367	0.24003	0.26453	0.33207	0.092328	0.08447	0.11006	0.17939	0.14894	0.096009	-1.725	-1.6021	-2.3063	-1.5708	-1.8687	-2.2062	-1.6812	-1.9521	-1.7771	-1.7437	-2.1896	-1.7542	-1.7479	-1.9937	-1.7542	-1.9813	164.270	295.618	69.433	162.969	340.219	247.019	333.578	260.314	361.216	350.388	138.368	40.092	90.080	180.671	199.454	37.996	0.00038864	0.0011409	0.00014522	324.65	6.177e-06	3.6346e-06	454.02	107.12	1.5231e-05	1.3803e-06	210.44	79.787	33.39	11.074	1.1916e-05	33.225	0.001437	0.001294	0.00034865	496.78	1.5651e-05	1.4098e-05	615.94	163.73	1.547e-05	1.4e-05	284.22	110.73	59.449	19.358	1.4137e-05	46.316	35.988	38.188	160.441	26.876	291.633	69.481	26.644	31.072	309.458	117.600	30.850	35.785	35.186	40.183	201.147	39.886	-8191	255	
7773.033	1	1	0	0	0.28816	0.024658	0.19134	0.1986	0.23868	0.38825	0.11027	0.42017	0.038245	0.20961	0.089863	0.18307	0.12292	0.15653	0.23231	0.082405	-1.55	-1.4167	-2.1167	-1.8813	-1.6708	-2.3417	-1.6812	-1.9208	-2.0458	-1.7042	-2.15	-2.0687	-1.7458	-2.0125	-1.6958	-1.9937	230.217	21.916	160.443	293.142	295.280	304.885	57.204	18.049	45.730	221.036	175.905	152.891	84.617	223.416	170.612	350.570	0.00041813	0.00091897	0.00031555	327.08	1.0696e-05	1.8127e-06	459.84	108.02	7.984e-06	7.5904e-06	212.27	80.062	33.402	11.225	1.546e-05	33.402	0.0013557	0.0012651	0.00036069	504.53	1.4853e-05	1.3677e-05	629.74	166.39	1.4655e-05	1.3812e-05	290.57	111.54	58.564	19.285	1.5112e-05	46.567	350.630	359.994	117.115	26.445	16.830	259.519	26.578	30.975	364.111	62.039	30.810	35.104	35.083	40.681	233.192	39.619	-8191	255	
7773.129	1	1	0	0	0.14811	0.0589	0.21284	0.336	0.12873	0.12295	0.35688	0.11368	0.23578	0.1287	0.14169	0.17388	0.10714	0.13824	0.025822	0.16599	-1.7792	-1.6854	-2.0417	-1.9167	-1.45	-2.175	-1.6625	-1.8042	-2.075	-1.5354	-2.0771	-2.1521	-1.7896	-2.2479	-1.7396	-1.8667	370.170	78.528	347.841	366.843	234.084	302.133	42.119	169.865	362.596	356.802	116.271	290.103	64.276	282.864	308.490	271.592	0.00035631	0.0011387	0.00030414	323.15	1.0169e-05	6.1702e-06	458.83	107.7	8.3423e-06	3.764e-06	211.33	80.077	33.555	11.21	1.4926e-05	33.141	0.0012946	0.0012437	0.00038893	501.91	1.4285e-05	1.3488e-05	642.52	164.87	1.417e-05	1.3651e-05	297.27	110.33	57.706	19.265	1.6067e-05	45.622	94.509	251.186	145.292	25.746	45.682	55.992	26.466	30.694	80.394	93.277	30.724	34.976	35.089	41.010	241.582	40.134	-8191	255	
7773.201	1	1	0	0	0.013942	0.096527	0.23537	0.21043	0.10634	0.072307	0.20469	0.13406	0.12667	0.22992	0.066253	0.37265	0.26314	0.20383	0.09511	0.075257	-1.8417	-1.5896	-1.9688	-2.0333	-1.6521	-2.1729	-1.9354	-1.6042	-2.1375	-1.6167	-1.8958	-2.025	-1.625	-2.0375	-1.7833	-1.5042	40.760	303.363	89.445	67.158	156.256	192.766	273.366	166.002	326.389	287.578	295.838	356.777	318.474	244.440	66.137	345.241	0.0003255	0.00076733	0.00021946	323.75	4.6887e-06	9.4161e-06	458.36	107.42	8.5728e-06	1.2948e-05	208.1	78.939	33.112	11.118	1.0567e-05	32.732	0.0012573	0.0012534	0.00041024	490.63	1.3839e-05	1.3818e-05	647.02	160.69	1.3764e-05	1.4105e-05	297.79	107.37	56.599	19.517	1.6421e-05	44.366	82.224	132.263	124.521	26.346	107.112	163.322	26.281	30.628	37.714	242.588	30.582	34.990	35.717	41.002	105.293	39.815	-8191	255	
7773.297	1	1	0	0	0.20926	0.22822	0.037148	0.20518	0.070064	0.04261	0.1727	0.28558	0.091791	0.21382	0.27392	0.18816	0.2101	0.3041	0.020539	0.26999	-2.0833	-1.6333	-1.8146	-2.1604	-1.5042	-2.0083	-1.9729	-1.6583	-2.3229	-1.6417	-1.8271	-2.0396	-1.575	-1.8687	-1.8792	-1.6979	366.679	109.712	335.111	141.786	286.184	219.917	127.486	343.047	283.441	75.971	272.174	299.622	119.948	360.473	174.571	301.457	0.00039466	0.0011812	0.00035674	321.05	3.3591e-06	1.3457e-05	455.95	106.25	1.9949e-06	1.0877e-05	208.74	78.948	33.519	11.13	1.9611e-05	32.672	0.0012188	0.0013225	0.00041359	479.64	1.3413e-05	1.4674e-05	642.74	157.04	1.3283e-05	1.4978e-05	294.87	105.69	55.891	20.106	1.5856e-05	44.015	87.671	182.776	23.825	26.233	78.099	168.680	26.394	31.219	274.011	211.122	30.408	35.235	35.269	41.208	64.828	40.028	-8191	255	
7773.418	1	1	0	0	0.092083	0.097868	0.18627	0.054748	0.28534	0.10572	0.2846	0.10243	0.20716	0.079845	0.15731	0.20454	0.25172	0.12603	0.26701	0.39907	-1.7333	-1.6396	-1.5812	-2.1312	-1.5187	-1.8521	-2.1167	-1.3979	-2.2146	-1.8125	-2.0146	-2.3063	-1.5625	-2.125	-1.8208	-1.9	178.236	70.842	157.040	30.764	216.631	34.970	307.078	258.628	184.646	185.690	182.172	340.533	118.373	67.793	117.659	210.781	0.0005552	0.00078333	0.00020698	325.27	1.0922e-05	5.4591e-06	456	107.16	9.4001e-06	1.8454e-06	208.4	78.949	33.096	11.132	1.3937e-05	32.767	0.0012052	0.0014185	0.00039947	477.26	1.3448e-05	1.5713e-05	636.25	156.43	1.3571e-05	1.599e-05	291.4	105	56.525	20.612	1.5026e-05	43.74	57.092	156.409	275.147	26.249	208.183	176.518	26.089	30.952	162.494	250.161	30.213	35.576	36.046	40.516	101.254	40.272	-8191	255	
7773.514	1	1	0	0	0.16321	0.16557	0.23408	0.051196	0.19314	0.14782	0.16092	0.15994	0.18969	0.10834	0.17946	0.060204	0.15994	0.11324	0.1379	0.02534	-1.5917	-1.9646	-1.875	-2.1458	-1.5354	-1.8146	-2.1604	-1.6583	-2	-2.0375	-1.4813	-2.1063	-1.6979	-1.8229	-1.9604	-1.4312	237.565	277.772	44.897	194.292	205.226	28.345	262.089	336.768	231.696	38.754	249.597	371.350	323.789	341.665	188.623	267.672	0.00075412	0.0009695	0.00024678	324.9	1.0073e-05	1.8369e-06	457.26	106.52	1.4595e-05	5.2023e-06	208.64	79.361	33.204	11.083	1.692e-05	32.877	0.0012519	0.0014687	0.00037741	472.8	1.4113e-05	1.6105e-05	627.59	155.04	1.4323e-05	1.6143e-05	287.46	104.79	58.442	20.717	1.4394e-05	43.653	87.054	28.604	337.385	26.251	173.749	284.164	26.605	30.826	162.134	142.788	30.395	35.756	35.633	40.372	20.492	39.517	-8191	255	
7773.608	1	1	0	0	0.25523	0.053132	0.071481	0.092552	0.20488	0.19719	0.29685	0.26554	0.1475	0.054788	0.12592	0.24709	0.083674	0.15362	0.31873	0.12027	-1.6667	-1.7958	-1.6979	-2.1625	-1.7396	-1.7625	-2.3125	-1.7146	-1.925	-2.0021	-1.6458	-2.1417	-1.9333	-1.9583	-2.2125	-1.5521	371.055	210.778	18.707	242.425	288.720	262.499	227.242	126.022	282.113	323.944	351.412	237.288	103.387	326.686	227.559	344.988	0.0009463	0.00083094	9.1446e-05	325.66	1.7678e-05	6.8728e-06	460.05	107.96	1.6512e-05	7.1448e-06	211.11	79.691	33.248	11.092	2.1983e-06	33.036	0.0013487	0.0014505	0.00036324	471.62	1.5241e-05	1.5748e-05	624.67	155.23	1.549e-05	1.5645e-05	286.99	105.62	60.559	20.401	1.4129e-05	44.014	93.228	340.022	59.169	26.067	197.322	75.843	26.225	30.925	174.557	369.926	30.682	35.679	36.184	40.110	219.872	39.972	-8191	255	
7773.705	1	1	0	0	0.14948	0.095176	0.11184	0.10165	0.086872	0.083704	0.19849	0.20686	0.05243	0.15258	0.058874	0.21151	0.13395	0.17377	0.13308	0.24924	-1.4771	-2.025	-1.3792	-2.1125	-1.5896	-2.0229	-2.4437	-1.6021	-1.8021	-2.2313	-1.4896	-2.2792	-1.8375	-1.7188	-2.1833	-1.9292	179.030	90.211	103.329	335.710	35.185	25.983	101.849	236.248	272.823	334.155	240.972	300.890	45.641	98.274	215.435	155.210	0.00050854	0.00098407	0.00028094	322.81	4.4602e-06	6.7301e-06	453.99	107.09	5.1759e-06	9.1065e-06	208.38	78.818	32.69	10.937	8.2942e-06	32.326	0.0014447	0.0014011	0.00035915	475.8	1.6249e-05	1.5144e-05	619.38	157.61	1.6353e-05	1.503e-05	284.05	106.22	61.424	19.867	1.3911e-05	44.394	110.212	364.111	349.319	26.885	168.403	325.586	26.164	30.991	181.194	370.248	30.464	35.841	35.682	40.210	327.808	40.440	-8191	255	
7773.801	1	1	0	0	0.17693	0.36651	0.33344	0.22606	0.081463	0.25906	0.15318	0.062673	0.27367	0.24622	0.19462	0.10204	0.087292	0.19059	0.26624	0.1229	-1.3292	-1.9917	-1.5167	-2.0208	-1.9792	-1.6146	-2.5375	-1.6354	-1.7917	-2.0771	-1.6187	-2.25	-1.9354	-1.7396	-2.0125	-1.6604	239.288	141.368	352.452	201.887	58.711	345.783	333.037	270.783	198.105	162.152	44.311	99.055	325.937	133.522	354.240	346.926	0.00031393	0.00045666	2.766e-05	320.03	2.9397e-06	4.5059e-06	449.48	106.38	7.0605e-06	7.0993e-06	206.42	78.349	32.676	10.966	3.3786e-06	32.734	0.0014836	0.0013391	0.00035339	485.77	1.6414e-05	1.4613e-05	613.16	161.01	1.6257e-05	1.4506e-05	281.97	108.47	60.643	19.538	1.3765e-05	45.498	52.612	46.996	69.916	26.650	234.916	338.749	26.254	31.082	307.904	39.303	30.855	35.685	35.273	40.419	147.185	40.150	-8191	255	
7773.897	1	1	0	0	0.22183	0.24432	0.2651	0.21469	0.13474	0.10409	0.020327	0.11822	0.18223	0.15656	0.21456	0.051518	0.091978	0.12378	0.1675	0.2191	-1.2833	-2.2042	-1.5542	-1.9312	-2.2062	-1.525	-2.0938	-1.6583	-1.7146	-2.2354	-1.7458	-1.9771	-2.0917	-1.4937	-2.0396	-2.0646	103.654	119.052	156.067	76.056	197.851	368.529	76.849	193.441	89.343	242.837	139.663	63.830	210.078	335.844	91.881	358.923	0.00040505	0.00077716	0.00015728	322.42	1.2915e-05	2.0382e-06	456.08	106.62	1.2613e-05	2.0176e-06	209.35	78.209	32.639	10.968	1.832e-05	32.843	0.0014358	0.0012988	0.00035185	497.3	1.5704e-05	1.4146e-05	616.38	164.45	1.5482e-05	1.4098e-05	284.85	110.39	59.316	19.384	1.4264e-05	46.263	33.128	334.978	47.793	26.388	364.055	22.293	26.631	31.328	341.400	59.264	30.842	35.443	35.306	39.733	202.940	40.468	-8191	255	
7773.993	1	1	0	0	0.44233	0.15984	0.1334	0.20312	0.043717	0.18089	0.111	0.29239	0.3286	0.14809	0.10009	0.18099	0.18783	0.094813	0.15948	0.098642	-1.1375	-2.1437	-1.45	-1.8646	-1.9062	-1.7771	-2.1125	-1.9229	-1.5667	-2.1896	-1.5958	-1.8146	-2.1896	-1.5333	-2.2021	-2.0187	205.317	204.535	308.803	314.819	359.974	80.758	188.405	173.401	181.725	282.625	344.199	98.184	19.324	333.564	149.069	306.170	0.00030203	0.00097641	0.00048349	322.92	7.3423e-06	6.096e-06	451.67	106.9	7.0573e-06	6.5573e-07	208.77	79.153	32.863	11.005	2.1215e-05	32.972	0.0013725	0.0012712	0.00037395	505.76	1.5023e-05	1.4016e-05	627.78	166.87	1.4847e-05	1.3839e-05	291.71	111.28	58.258	19.314	1.5455e-05	46.368	128.150	132.170	135.382	26.067	84.946	328.838	26.545	30.926	95.496	20.497	30.552	35.575	35.017	40.035	267.170	39.919	-8191	255	
7774.114	1	1	0	0	0.2048	0.19637	0.1059	0.036608	0.20902	0.295	0.062308	0.26333	0.33749	0.081551	0.23695	0.21416	0.16169	0.34409	0.16597	0.23888	-1.2021	-2.125	-1.6292	-1.7625	-2.15	-1.475	-2.1021	-2.0042	-1.5667	-2.2646	-1.7917	-1.8167	-2.1521	-1.4375	-1.8917	-2.0312	143.292	294.159	245.233	95.977	238.064	92.553	195.387	357.346	17.952	286.890	84.273	239.486	269.807	362.361	210.423	176.519	0.00057234	0.00010978	0.00057964	322.34	2.9237e-06	5.5637e-06	455.43	107.28	2.9653e-06	5.4676e-06	209.84	79.585	33.043	10.994	1.1186e-05	33.01	0.0013145	0.0012488	0.00039915	501.03	1.4422e-05	1.3747e-05	643.61	164.73	1.4371e-05	1.3794e-05	298.4	110.28	57.628	19.426	1.6449e-05	45.835	109.251	264.168	138.981	26.444	164.863	200.423	26.607	30.981	149.885	209.330	30.718	35.194	35.038	41.153	241.453	39.903	-8191	255	
7774.208	1	1	0	0	0.25854	0.26451	0.046737	0.2329	0.048705	0.20321	0.07589	0.092018	0.12186	0.1158	0.10699	0.25716	0.0064176	0.023714	0.36089	0.12451	-1.1146	-2.1354	-1.7437	-1.5917	-2.0792	-1.6521	-1.9438	-2.1875	-1.6021	-2.3229	-1.7583	-1.7229	-2.0167	-1.65	-1.8396	-2.2	163.341	284.700	97.147	276.950	38.880	147.232	143.749	364.011	299.514	55.624	112.805	309.463	199.811	68.871	203.092	26.968	0.00033908	0.001542	0.00017095	325.05	9.4564e-06	1.1062e-05	457.22	107.12	1.0505e-05	5.1067e-06	211.06	79.452	33.558	11.207	1.3365e-05	32.96	0.0012831	0.0012719	0.00042308	494.08	1.4012e-05	1.4217e-05	651.43	161.32	1.4016e-05	1.4391e-05	301.16	108.05	56.797	19.846	1.668e-05	44.728	85.799	150.902	137.101	26.175	39.704	184.724	26.562	30.558	262.941	254.293	30.866	35.345	35.348	40.705	236.716	39.587	-8191	255	
7774.304	1	1	0	0	0.11502	0.13497	0.20572	0.14111	0.071913	0.23238	0.13908	0.175	0.22877	0.15995	0.20974	0.10205	0.21198	0.14557	0.27134	0.24883	-1.1562	-1.9917	-1.9396	-1.5125	-2.2021	-1.8042	-2.0958	-2.0208	-1.4646	-2.2083	-1.9937	-1.5729	-2.3792	-1.7625	-1.9625	-2.0896	301.541	234.725	225.312	369.762	231.309	57.244	334.313	16.482	369.092	99.690	236.082	34.554	133.188	197.774	241.740	202.788	0.00062147	0.0010959	0.00014923	320.96	5.2661e-06	8.3699e-06	454.3	106.53	4.418e-06	1.3933e-05	207.36	78.076	32.664	11.094	2.6089e-06	32.509	0.0012471	0.0013548	0.00042266	482.19	1.3589e-05	1.5207e-05	646.08	157.57	1.3655e-05	1.5459e-05	296.81	106.18	56.306	20.444	1.608e-05	44.148	69.203	210.104	291.127	26.046	57.903	177.162	26.650	30.953	158.942	195.949	30.384	35.595	35.361	40.567	42.502	39.811	-8191	255	
7774.400	1	1	0	0	0.021542	0.20279	0.17746	0.19213	0.030933	0.035149	0.30541	0.1256	0.048374	0.2555	0.29686	0.22411	0.19744	0.22267	0.080397	0.2049	-0.97708	-1.9729	-1.7854	-1.7104	-2.2313	-1.6	-1.7917	-2.1063	-1.7042	-1.8146	-2.1396	-1.5667	-2.2021	-1.85	-1.6688	-2.3292	175.489	164.438	173.436	308.876	300.474	107.732	349.122	285.766	345.125	215.401	105.775	314.266	295.017	180.419	164.477	258.871	0.00064885	0.0005909	0.00023554	320.38	2.9663e-06	1.2874e-05	454.19	106.27	7.4418e-06	2.0645e-06	207.68	78.563	32.46	10.999	1.1046e-05	32.648	0.0012387	0.0014452	0.00040241	477.12	1.3611e-05	1.6057e-05	636.52	155.97	1.3775e-05	1.6198e-05	290.9	105.51	56.755	20.832	1.5177e-05	44	72.904	127.564	363.489	25.963	310.723	184.438	26.376	30.710	222.769	39.383	30.164	35.490	36.046	40.778	116.094	39.927	-8191	255	
7774.496	1	1	0	0	0.24166	0.18328	0.053789	0.064119	0.041137	0.062062	0.1284	0.10697	0.12489	0.12815	0.3414	0.26838	0.084406	0.10702	0.10287	0.20043	-1.2188	-1.7625	-2.0479	-1.6521	-2.0271	-1.9604	-1.7208	-2.1167	-1.8729	-1.7458	-2.2062	-1.6187	-2.0667	-2.0292	-1.7625	-2.2771	184.641	263.981	270.862	93.500	116.574	330.331	262.885	357.033	338.664	176.717	270.307	370.155	228.893	57.858	327.647	366.655	0.0013192	0.00056334	5.2596e-05	323.3	1.5804e-05	4.7277e-06	456.74	106.06	1.301e-05	4.5785e-06	208.01	77.844	32.799	10.993	3.9646e-06	32.933	0.001298	0.0015024	0.00038253	476.02	1.455e-05	1.6555e-05	631.37	155.19	1.4923e-05	1.6515e-05	288.43	105.06	58.879	20.843	1.4696e-05	43.951	72.250	87.289	300.128	26.398	209.535	311.889	26.114	31.005	192.359	57.331	30.202	35.363	35.857	39.927	127.996	39.909	-8191	255	
7774.593	1	1	0	0	0.34186	0.20177	0.1316	0.19381	0.30044	0.23024	0.32444	0.13013	0.082964	0.17587	0.23236	0.16309	0.081779	0.18117	0.1117	0.1637	-1.2062	-1.6208	-2.1229	-1.5729	-2.2396	-1.7896	-1.5229	-2.2062	-1.6083	-1.95	-2.0646	-1.6187	-1.8521	-1.9521	-1.3396	-2.2229	317.771	17.455	156.579	231.962	237.144	55.037	347.346	363.339	64.212	184.978	93.182	47.822	48.798	372.448	77.689	276.936	0.0012223	0.00072789	2.4304e-05	325.1	1.8205e-05	1.5476e-05	459.15	106.65	1.6315e-05	9.8236e-06	208.53	79.201	32.778	11.035	9.2313e-06	33.091	0.0014046	0.0014849	0.00037206	475.86	1.5791e-05	1.6167e-05	628.6	155.91	1.6075e-05	1.5909e-05	286.73	105.9	60.876	20.462	1.4298e-05	44.211	73.858	64.036	274.786	26.523	170.680	346.021	26.878	31.189	168.745	45.363	30.327	35.706	36.555	40.033	141.908	40.438	-8191	255	
7774.713	1	1	0	0	0.19899	0.128	0.13593	0.15754	0.15835	0.049719	0.28333	0.29769	0.1003	0.1819	0.14809	0.23937	0.049387	0.18913	0.086559	0.16859	-1.4167	-1.6625	-2.1167	-1.4354	-2.0208	-2.1833	-1.5917	-2.0458	-1.6729	-1.5771	-2.2729	-1.5812	-2.0125	-1.9521	-1.6354	-2.0771	17.291	126.466	210.679	228.839	360.250	310.999	344.595	352.646	326.303	318.966	16.692	187.769	327.868	325.797	78.354	80.862	0.0010209	0.00049221	0.00010959	324.61	5.257e-06	4.5318e-06	461.37	107.18	7.9679e-06	4.9937e-06	209.5	79.419	32.967	11.019	4.1127e-06	33.116	0.0014786	0.0014076	0.00035983	481.2	1.653e-05	1.5269e-05	626.08	158.09	1.655e-05	1.501e-05	284.88	107.37	61.662	19.926	1.4022e-05	45.012	53.027	365.228	356.057	26.767	51.502	133.550	26.222	31.524	172.019	94.063	30.601	35.891	35.243	40.119	57.818	40.578	-8191	255	
7774.809	1	1	0	0	0.25756	0.18776	0.1027	0.13556	0.14214	0.067085	0.20153	0.10663	0.22568	0.22135	0.075338	0.12383	0.027798	0.22044	0.14382	0.1319	-1.5562	-1.5479	-2.2021	-1.3271	-1.7833	-2.0396	-1.4354	-1.9771	-2	-1.7062	-2.1979	-1.7979	-1.6333	-2.1958	-1.5521	-2.1271	75.046	122.197	13.659	353.038	14.910	354.883	363.108	367.332	52.217	106.714	141.434	58.741	234.193	330.465	59.639	50.523	0.00024601	0.0012518	0.00016135	325.74	5.2233e-06	5.3887e-06	455.61	106.88	1.1727e-05	2.9399e-06	209.09	79.006	32.88	10.955	2.2442e-06	32.549	0.0014929	0.0013415	0.00035312	491.65	1.6475e-05	1.4567e-05	618.51	161.62	1.6265e-05	1.4453e-05	282.75	108.87	60.29	19.512	1.375e-05	45.489	16.678	333.157	155.167	27.008	35.366	18.123	26.424	31.615	310.607	279.899	30.713	35.968	35.352	40.447	157.959	40.550	-8191	255	
7774.906	1	1	0	0	0.16848	0.13271	0.090052	0.043444	0.20155	0.056545	0.18498	0.19106	0.25863	0.051052	0.13439	0.14907	0.036492	0.22393	0.22341	0.20863	-1.525	-1.5312	-1.9333	-1.8021	-1.5625	-2.3083	-1.7521	-1.9625	-1.9375	-1.6	-2.1521	-1.9167	-1.7875	-2.1604	-1.6354	-1.9104	48.720	242.411	118.219	148.040	147.872	29.854	233.770	239.290	257.412	115.285	17.437	91.242	296.895	180.637	182.422	70.388	6.0009e-05	0.00011109	0.0002605	323.56	9.3444e-06	4.3793e-06	458.97	106.29	3.4413e-06	3.9159e-06	208.27	78.957	33.125	11.095	1.8332e-05	32.977	0.00142	0.0012861	0.00034953	499.2	1.5422e-05	1.3973e-05	618.52	163.8	1.5202e-05	1.3924e-05	284.13	110.27	58.658	19.273	1.4269e-05	46.239	271.816	254.914	155.683	26.819	350.209	197.990	26.725	31.182	350.363	38.824	31.179	35.501	35.902	40.794	236.406	40.459	-8191	255	
7775.000	1	1	0	0	0.26496	0.062335	0.10608	0.14444	0.20062	0.21862	0.089375	0.1737	0.1561	0.23383	0.24936	0.1727	0.1908	0.084958	0.058932	0.18239	-1.7229	-1.5542	-1.9771	-2.1708	-1.5	-2.2875	-1.8104	-1.7917	-2.1729	-1.5458	-2.2354	-2.0167	-1.625	-2.4792	-1.7479	-2.0312	118.986	75.056	290.651	257.655	110.685	92.274	329.057	282.845	333.579	187.488	345.943	263.451	33.170	132.308	106.178	275.878	8.638e-05	0.00059196	0.00046633	322.39	4.3491e-06	6.3873e-06	459.22	107.6	1.9932e-05	1.4253e-06	211.05	79.422	33.103	11.239	2.4994e-05	33.396	0.0013318	0.0012486	0.00036748	503.07	1.4618e-05	1.3573e-05	631.29	164.8	1.4424e-05	1.3613e-05	290.76	110.51	57.695	19.18	1.5447e-05	46.279	326.203	48.218	139.236	26.738	13.932	69.494	26.938	31.511	333.370	252.013	31.299	35.653	35.675	41.168	242.677	40.739	-8191	255	
7775.073	1	1	0	0	0.21891	0.1022	0.11409	0.17396	0.11123	0.016166	0.12384	0.14304	0.25459	0.12272	0.28176	0.082523	0.13252	0.22478	0.13284	0.30564	-1.8208	-1.4625	-2.1667	-1.9604	-1.5562	-2.2062	-1.6875	-1.8833	-2.1	-1.6792	-2.0083	-1.9188	-1.5729	-2.1146	-1.7229	-1.875	257.491	361.862	156.832	181.620	279.979	57.247	301.464	282.095	200.680	104.109	56.549	207.398	38.625	134.686	74.982	353.687	0.00030898	0.00024453	0.00034431	326.25	4.0574e-06	5.2628e-06	463.59	108.5	1.1989e-05	4.8439e-06	211.75	79.192	32.984	11.225	1.1966e-05	33.391	0.0012891	0.0012455	0.00039841	499.57	1.424e-05	1.3582e-05	646.92	163.25	1.4115e-05	1.3744e-05	298.27	109.53	57.249	19.335	1.6279e-05	45.704	41.387	25.978	135.254	26.909	54.058	168.754	27.394	31.987	76.643	267.372	31.451	36.123	36.139	41.949	259.773	40.715	-8191	255	
7775.192	1	1	0	0	0.083977	0.17801	0.051878	0.084168	0.16407	0.24193	0.17717	0.13638	0.23659	0.31907	0.16007	0.05515	0.10782	0.27348	0.046698	0.098447	-1.8	-1.4604	-1.9667	-2.1354	-1.4833	-2.2729	-1.7687	-1.6604	-2.2271	-1.7458	-2.0521	-2.0542	-1.4917	-1.9604	-1.8604	-1.6042	286.031	338.281	113.881	325.718	286.742	103.497	299.343	336.519	247.174	22.733	353.194	331.011	211.679	33.748	346.817	127.209	0.00037717	0.0013059	0.00020265	328.38	3.0693e-06	1.0457e-05	463.03	108.29	5.2966e-06	6.4259e-06	211.97	80.224	32.94	11.24	2.5857e-06	33.304	0.0012479	0.0012735	0.00041648	491.03	1.379e-05	1.4071e-05	655.12	160.65	1.367e-05	1.4414e-05	300.96	108.02	56.479	19.851	1.6438e-05	44.936	73.111	190.486	73.018	27.144	233.875	203.335	27.382	31.779	227.477	187.804	31.644	36.080	36.094	41.700	272.997	40.733	-8191	255	
7775.288	1	1	0	0	0.067565	0.2019	0.12324	0.20597	0.15971	0.10742	0.22411	0.18596	0.18606	0.1042	0.19043	0.22062	0.29603	0.2586	0.27296	0.22059	-1.6833	-1.6875	-2.0042	-2.1667	-1.6208	-2.1792	-2.0187	-1.6292	-2.2438	-1.7417	-1.7563	-2.1458	-1.4813	-1.9	-1.9354	-1.6146	19.148	299.138	204.098	283.253	280.193	74.311	237.797	39.017	178.166	219.184	269.172	367.475	116.488	349.863	284.823	339.941	0.00071031	0.0018867	0.00025197	323.32	3.3015e-06	1.003e-05	463.61	107.21	8.6791e-06	7.3402e-06	210.92	78.952	33.033	11.192	1.5201e-05	33.209	0.0012231	0.0013654	0.00041519	481.77	1.3528e-05	1.5208e-05	649.75	157.83	1.3454e-05	1.5503e-05	296.55	106.13	56.06	20.403	1.5791e-05	44.282	76.002	140.758	250.663	27.127	321.040	193.973	27.348	32.083	187.769	257.985	31.269	36.375	36.646	41.448	42.630	40.951	-8191	255	
7775.385	1	1	0	0	0.184	0.16155	0.15661	0.087653	0.057758	0.088584	0.05084	0.13074	0.12191	0.16587	0.14159	0.23116	0.17364	0.21062	0.25205	0.183	-1.8375	-1.7021	-1.6854	-2.0938	-1.6583	-2.0292	-2.1021	-1.6875	-2.1458	-1.9354	-1.8229	-2.1896	-1.7208	-1.9354	-2.1083	-1.6583	197.473	220.491	150.216	275.939	364.045	26.247	73.965	186.200	80.831	146.172	313.762	231.634	186.633	153.333	121.679	319.518	0.00057285	0.0011339	0.00016663	323.93	3.1968e-06	4.762e-06	459.85	107.03	1.4642e-05	5.3397e-06	210.09	79.631	33.117	11.158	1.3115e-05	33.33	0.0012238	0.0014467	0.00039395	475.9	1.3613e-05	1.5944e-05	637.25	155.8	1.3754e-05	1.6205e-05	291.27	105.54	57.151	20.822	1.4909e-05	44.089	98.907	160.301	355.440	27.261	290.126	225.987	26.957	31.343	173.861	177.357	31.335	36.137	36.846	41.095	68.354	41.084	-8191	255	
7775.481	1	1	0	0	0.24677	0.21644	0.063041	0.23735	0.14668	0.22454	0.21014	0.084172	0.15081	0.25749	0.16152	0.15537	0.23927	0.23679	0.12672	0.16484	-1.6875	-1.6417	-1.5958	-2.1458	-1.5917	-1.8125	-2.3208	-1.5417	-2.2833	-1.9312	-1.6021	-2.3812	-1.6854	-2.1792	-2.1854	-1.3896	127.685	102.857	20.416	36.060	371.887	182.257	215.491	200.129	360.350	297.386	267.022	74.928	296.374	358.122	154.037	335.334	0.0009669	0.00047726	0.00028727	325.48	1.1685e-05	4.1482e-06	461.04	107.09	1.9415e-05	1.8084e-06	211.75	79.439	32.97	11.128	5.9783e-06	33.511	0.0012826	0.0014857	0.00037498	472.73	1.4514e-05	1.619e-05	630.17	155.36	1.472e-05	1.6146e-05	289.04	105.32	59.078	20.737	1.4429e-05	44.197	89.816	50.043	324.246	26.829	188.106	347.937	26.908	32.013	172.850	50.724	31.257	36.329	36.442	40.659	126.449	41.424	-8191	255	
7775.601	1	1	0	0	0.17366	0.085694	0.16527	0.22793	0.20245	0.24355	0.44113	0.15962	0.2767	0.14382	0.22794	0.067321	0.18081	0.068371	0.12665	0.36981	-1.5646	-1.7208	-1.5604	-2.1229	-1.6771	-1.8396	-2.2812	-1.6437	-2.2	-1.9188	-1.6479	-2.3417	-1.7042	-1.7833	-2.0875	-1.6396	59.049	217.981	297.974	233.833	110.102	241.148	267.941	343.632	222.424	182.473	26.428	292.084	169.938	130.178	317.603	282.369	0.00097776	0.0003289	0.0001008	324.29	1.0294e-05	1.1294e-05	462.5	108	1.2331e-05	7.6985e-06	211.5	80.27	33.243	11.184	2.8907e-06	33.469	0.0013958	0.0014578	0.00036577	473.18	1.5686e-05	1.5744e-05	627.75	156.46	1.5909e-05	1.5588e-05	288.06	106.51	61.204	20.422	1.4149e-05	44.603	76.160	348.161	253.175	27.493	184.611	38.917	26.978	32.096	156.735	57.967	31.203	36.334	36.891	40.876	19.447	41.336	-8191	255	
7775.697	1	1	0	0	0.12288	0.14377	0.25128	0.079922	0.052094	0.16612	0.1803	0.20701	0.16604	0.18583	0.095994	0.42147	0.17118	0.17544	0.33949	0.11508	-1.4271	-2.1479	-1.5	-2.2375	-1.9042	-1.75	-2.2188	-1.9167	-1.8875	-2.2812	-1.6125	-2.0021	-1.9125	-1.3708	-2.2562	-1.9271	309.052	45.553	45.053	146.191	349.340	179.405	215.770	294.006	371.831	249.337	114.942	270.375	137.951	287.070	161.113	92.683	0.0010128	0.0013835	0.00032836	326.99	3.3487e-06	2.724e-06	463.8	108.37	1.0252e-05	4.7022e-06	213.56	80.382	33.286	11.186	1.0999e-05	33.622	0.0014753	0.0013855	0.00035773	480.52	1.644e-05	1.4958e-05	625.18	159.01	1.645e-05	1.4761e-05	287.55	108.39	61.558	19.947	1.3717e-05	45.467	57.119	336.873	369.367	27.408	310.401	329.482	27.195	31.869	119.464	16.257	31.188	36.422	36.185	40.888	25.861	41.149	-8191	255	
7775.794	1	1	0	0	0.17624	0.21363	0.13668	0.19435	0.15307	0.034336	0.047258	0.20927	0.12174	0.16624	0.17571	0.031066	0.23486	0.21994	0.078384	0.10437	-1.3458	-2.3063	-1.3375	-2.2333	-1.8354	-1.6896	-2.3583	-1.8375	-1.7625	-2.2917	-1.6313	-2.0187	-1.9021	-1.425	-2.3854	-1.8458	284.152	131.994	94.984	288.899	95.645	294.568	255.079	228.262	319.296	316.140	166.956	330.529	31.732	92.682	175.787	35.056	0.00020487	0.0003062	0.00017598	329.52	7.2127e-06	5.4331e-06	463.48	108.12	8.5497e-06	7.5371e-06	211.8	80.082	33.02	11.125	1.0497e-05	33.357	0.0014696	0.0013133	0.00035034	492.34	1.6074e-05	1.4346e-05	621.53	162.73	1.5905e-05	1.4219e-05	284.45	109.82	60.19	19.55	1.3747e-05	45.996	141.000	303.582	281.847	27.369	24.377	374.180	27.350	32.439	68.181	351.709	31.436	36.411	36.181	40.839	247.502	41.239	-8191	255	
7775.890	1	1	0	0	0.13411	0.13769	0.11369	0.10351	0.11243	0.18886	0.2442	0.20005	0.28668	0.25699	0.22831	0.28197	0.31644	0.26297	0.16992	0.2216	-1.4062	-2.2979	-1.5896	-1.9792	-2.1375	-1.7042	-2.2833	-1.925	-1.8208	-2.2583	-1.6896	-2.2333	-1.9688	-1.475	-2.1146	-2.05	350.952	270.496	45.599	302.080	101.541	129.717	319.808	182.666	278.896	60.204	199.785	299.802	238.524	372.230	199.201	30.030	0.00035817	0.00084267	0.00023095	326.08	1.1703e-06	2.3669e-06	458.6	107.22	9.4361e-06	3.6671e-06	211.98	79.859	32.919	11.03	2.1483e-05	33.158	0.0014008	0.0012784	0.00035231	499.55	1.5313e-05	1.3901e-05	622.16	164.77	1.5134e-05	1.3882e-05	287.49	111.06	58.74	19.311	1.4497e-05	46.463	34.471	369.098	169.696	27.714	263.364	63.787	27.306	31.946	17.860	49.530	31.500	36.384	36.193	41.186	233.486	40.919	-8191	255	
7775.986	1	1	0	0	0.10883	0.060392	0.26989	0.37744	0.17107	0.20559	0.070571	0.22272	0.033744	0.3347	0.17588	0.041706	0.090772	0.14243	0.21003	0.1102	-1.3312	-2.1979	-1.4375	-1.8208	-2.1292	-1.3083	-2.0896	-1.9271	-1.9354	-2.2979	-1.9813	-1.7667	-2.1083	-1.5646	-2.0958	-2.1625	153.583	88.783	324.314	300.772	370.613	308.097	86.364	273.356	113.500	61.084	314.376	264.192	98.680	210.420	137.810	259.894	5.0396e-05	7.1945e-05	0.00040693	324.51	4.5047e-06	4.6589e-06	461.19	107.3	2.4287e-06	5.7613e-06	211.44	79.85	33.234	11.022	1.2977e-05	33.346	0.0013372	0.0012567	0.0003765	505.07	1.4701e-05	1.384e-05	636.09	165.97	1.463e-05	1.3714e-05	294.43	111.1	57.942	19.273	1.5704e-05	46.323	74.644	314.730	163.171	27.337	32.485	318.285	27.835	31.693	245.590	149.436	31.645	36.354	36.193	41.107	204.869	40.544	-8191	255	
7776.082	1	1	0	0	0.27511	0.12909	0.14138	0.12513	0.18282	0.10566	0.23884	0.034903	0.25153	0.43879	0.13845	0.28813	0.055986	0.35749	0.2916	0.1831	-1.2021	-2.3063	-1.8062	-1.8167	-1.9813	-1.625	-2.0667	-2.0521	-1.4562	-2.2542	-1.7188	-1.8687	-2.1021	-1.6646	-2.0083	-2.3625	202.903	268.428	122.047	305.487	348.251	144.699	350.811	356.769	114.146	308.846	350.742	369.400	14.110	189.668	62.714	257.211	0.00039704	0.00064539	0.00042111	324.03	6.8017e-06	4.7774e-06	461.26	107.87	5.0773e-06	5.1271e-06	211.59	79.609	32.891	11.236	5.0237e-06	33.442	0.0013027	0.0012519	0.00040808	500.11	1.4292e-05	1.3775e-05	650.01	163.33	1.4226e-05	1.3897e-05	300.46	109.77	57.206	19.502	1.6545e-05	45.627	90.801	138.388	123.297	26.675	53.215	370.077	27.607	31.587	314.503	249.072	31.564	35.979	36.397	41.874	320.017	40.522	-8191	255	
7776.201	1	1	0	0	0.039071	0.25161	0.11091	0.15246	0.19174	0.29788	0.080147	0.23519	0.23968	0.057246	0.11493	0.1057	0.23358	0.071963	0.1409	0.22874	-0.88333	-2.3125	-1.6146	-1.8687	-2.1312	-1.4417	-2.1104	-2.0521	-1.6917	-2.0375	-2.0479	-1.9083	-2.0604	-1.6688	-1.8062	-2.3312	26.359	262.443	319.400	305.906	20.076	213.572	134.477	37.720	183.742	370.215	113.267	241.674	352.026	33.750	257.317	356.307	0.00034377	0.0019908	0.00021211	328.66	6.9735e-06	1.52e-05	464.16	108.47	2.6884e-06	1.2607e-05	211.86	79.679	33.138	11.245	6.4502e-06	33.552	0.0012647	0.001293	0.00042433	491.48	1.3964e-05	1.4572e-05	658.07	161.28	1.3996e-05	1.4843e-05	304.03	108.6	57.029	20.202	1.6824e-05	45.277	77.647	147.789	163.712	27.155	100.145	178.481	27.271	32.101	164.378	203.013	31.497	36.429	36.417	41.934	132.173	41.029	-8191	255	
7776.297	1	1	0	0	0.069663	0.19243	0.13967	0.068697	0.22591	0.24059	0.24253	0.37086	0.12963	0.15488	0.33703	0.22243	0.12499	0.099613	0.092389	0.019408	-1.15	-2.3021	-1.8979	-1.7375	-2.1479	-1.7542	-1.7083	-2.3187	-1.6021	-2.1125	-2.0938	-1.8604	-2.4062	-1.7146	-1.8833	-2.2042	30.637	285.761	272.913	134.256	369.475	158.333	20.322	201.050	328.783	335.975	53.454	46.432	353.098	254.586	59.803	116.319	0.00053067	0.0010515	0.00033891	326.12	7.1868e-06	1.6285e-05	464.92	108.88	1.4222e-06	8.4494e-06	212.21	80.007	33.309	11.163	1.3842e-05	33.084	0.0012595	0.0014086	0.000427	486.14	1.3776e-05	1.5765e-05	654.18	159.51	1.3885e-05	1.5977e-05	299.86	107.17	56.904	20.81	1.6121e-05	44.609	52.022	147.525	344.795	27.557	188.395	197.810	27.889	31.935	275.765	205.486	31.519	36.566	36.857	42.067	65.548	40.985	-8191	255	
7776.393	1	1	0	0	0.060777	0.074323	0.20574	0.31128	0.048036	0.16154	0.24012	0.090921	0.22537	0.30779	0.12881	0.32909	0.13786	0.097136	0.052998	0.32435	-1.0625	-2.0292	-1.8542	-1.6292	-2.275	-1.8104	-1.8687	-2.2146	-1.3104	-2.0792	-2.175	-1.5833	-2.2479	-1.8458	-1.7375	-2.1854	338.097	372.905	60.948	79.134	22.862	52.854	253.186	165.186	30.937	346.013	83.969	133.283	192.844	286.084	18.141	321.800	0.00066938	0.00039814	0.00034885	323.94	1.4552e-05	1.8708e-05	456.84	107.35	1.4634e-05	1.935e-06	210.31	78.911	32.832	11.079	8.1131e-06	33.026	0.0012743	0.0014999	0.0004061	480.4	1.4157e-05	1.6663e-05	639.1	157.7	1.4357e-05	1.6816e-05	293.38	106.05	57.923	21.115	1.5336e-05	44.224	68.534	158.152	327.685	27.401	187.946	133.444	27.404	32.045	153.082	205.090	31.369	36.709	36.979	41.622	81.968	41.298	-8191	255	
#DATA ENDS
