BOXY.EXE: ISS Imagent and Oximeter Data Acquisition Program Version 0.80
Ascii Record File

#ACQ INFORMATION
2  Detector Channels 
16  External MUX Channels 
1  Auxiliary Channels 
5000  Waveform (CCF) Frequency (Hz)
1  Waveforms Skipped 
30  Waveforms Averaged 
1  Cycles Averaged 
16  Acquisitions per Waveform 
10.0806  Updata Rate (Hz) 

#FILE INFORMATION
TRUE -- External MUX Channel results are PARSED.
FALSE -- AC DC and Phase are NOT grouped.
TRUE -- Companion Program Settings File CREATED.
FALSE -- AC data not excluded
FALSE -- DC data not excluded
FALSE -- Phase data not excluded
FALSE -- Auxillary Chn. data not excluded
Tab delimiters

#CALIBRATION STATE
TRUE -- Waveform Calibration Values APPLIED.


#AUX CALIBRATION VALUES
Val Type	aux-1	

Term	1.0000e+00	
Factor	0.0000e+00	


#WF CALIBRATION VALUES
A = Detector Channel
Val Type	A-AC1	A-AC2	A-AC3	A-AC4	A-AC5	A-AC6	A-AC7	A-AC8	A-AC9	A-AC10	A-AC11	A-AC12	A-AC13	A-AC14	A-AC15	A-AC16	A-DC1	A-DC2	A-DC3	A-DC4	A-DC5	A-DC6	A-DC7	A-DC8	A-DC9	A-DC10	A-DC11	A-DC12	A-DC13	A-DC14	A-DC15	A-DC16	A-Ph1	A-Ph2	A-Ph3	A-Ph4	A-Ph5	A-Ph6	A-Ph7	A-Ph8	A-Ph9	A-Ph10	A-Ph11	A-Ph12	A-Ph13	A-Ph14	A-Ph15	A-Ph16	

Term	0.00000e+00	0.00000e+00	0.00000e+00	0.00000e+00	0.00000e+00	0.00000e+00	0.00000e+00	0.00000e+00	0.00000e+00	0.00000e+00	0.00000e+00	0.00000e+00	0.00000e+00	0.00000e+00	0.00000e+00	0.00000e+00	0.00000e+00	0.00000e+00	0.00000e+00	0.00000e+00	0.00000e+00	0.00000e+00	0.00000e+00	0.00000e+00	0.00000e+00	0.00000e+00	0.00000e+00	0.00000e+00	0.00000e+00	0.00000e+00	0.00000e+00	0.00000e+00	0.00000e+00	0.00000e+00	0.00000e+00	0.00000e+00	0.00000e+00	0.00000e+00	0.00000e+00	0.00000e+00	0.00000e+00	0.00000e+00	0.00000e+00	0.00000e+00	0.00000e+00	0.00000e+00	0.00000e+00	0.00000e+00	
Factor	1.00000e+00	1.00000e+00	1.00000e+00	1.00000e+00	1.00000e+00	1.00000e+00	1.00000e+00	1.00000e+00	1.00000e+00	1.00000e+00	1.00000e+00	1.00000e+00	1.00000e+00	1.00000e+00	1.00000e+00	1.00000e+00	1.00000e+00	1.00000e+00	1.00000e+00	1.00000e+00	1.00000e+00	1.00000e+00	1.00000e+00	1.00000e+00	1.00000e+00	1.00000e+00	1.00000e+00	1.00000e+00	1.00000e+00	1.00000e+00	1.00000e+00	1.00000e+00	X	X	X	X	X	X	X	X	X	X	X	X	X	X	X	X	

B = Detector Channel
Val Type	B-AC1	B-AC2	B-AC3	B-AC4	B-AC5	B-AC6	B-AC7	B-AC8	B-AC9	B-AC10	B-AC11	B-AC12	B-AC13	B-AC14	B-AC15	B-AC16	B-DC1	B-DC2	B-DC3	B-DC4	B-DC5	B-DC6	B-DC7	B-DC8	B-DC9	B-DC10	B-DC11	B-DC12	B-DC13	B-DC14	B-DC15	B-DC16	B-Ph1	B-Ph2	B-Ph3	B-Ph4	B-Ph5	B-Ph6	B-Ph7	B-Ph8	B-Ph9	B-Ph10	B-Ph11	B-Ph12	B-Ph13	B-Ph14	B-Ph15	B-Ph16	

Term	0.00000e+00	0.00000e+00	0.00000e+00	0.00000e+00	0.00000e+00	0.00000e+00	0.00000e+00	0.00000e+00	0.00000e+00	0.00000e+00	0.00000e+00	0.00000e+00	0.00000e+00	0.00000e+00	0.00000e+00	0.00000e+00	0.00000e+00	0.00000e+00	0.00000e+00	0.00000e+00	0.00000e+00	0.00000e+00	0.00000e+00	0.00000e+00	0.00000e+00	0.00000e+00	0.00000e+00	0.00000e+00	0.00000e+00	0.00000e+00	0.00000e+00	0.00000e+00	-2.02558e+02	-1.16413e+02	-1.30120e+02	-1.82161e+02	-9.57707e+01	-1.01369e+02	-1.59306e+02	-1.62015e+02	-1.14350e+02	-5.77035e+01	-1.70639e+02	-1.72301e+02	-1.77500e+02	-1.76674e+02	-5.36760e+01	-1.49496e+02	
Factor	4.10936e-05	9.52974e-05	2.49006e-05	1.49428e-01	8.83243e-07	8.91524e-07	1.68800e-01	4.93801e-02	1.17695e-06	7.15398e-07	8.34437e-02	2.98807e-02	2.54106e-02	8.75613e-03	1.20421e-06	1.26828e-02	6.26555e-07	6.35961e-07	1.78841e-07	7.42432e-02	6.95763e-09	6.96690e-09	7.86376e-02	2.43642e-02	6.96256e-09	6.98071e-09	3.91092e-02	1.39300e-02	1.23175e-02	4.23067e-03	7.03845e-09	5.88851e-03	X	X	X	X	X	X	X	X	X	X	X	X	X	X	X	X	



#DISTANCE SETTINGS
A = Detector Channel
A-1	A-2	A-3	A-4	A-5	A-6	A-7	A-8	A-9	A-10	A-11	A-12	A-13	A-14	A-15	A-16	

2.5000e+00	3.0000e+00	2.5000e+00	3.0000e+00	2.0000e+00	3.0000e+00	1.5000e+00	3.0000e+00	3.0000e+00	3.0000e+00	3.0000e+00	3.0000e+00	3.0000e+00	3.0000e+00	1.5000e+00	3.0000e+00	

B = Detector Channel
B-1	B-2	B-3	B-4	B-5	B-6	B-7	B-8	B-9	B-10	B-11	B-12	B-13	B-14	B-15	B-16	

1.0000e+01	1.0000e+01	1.0000e+01	1.4400e+00	1.0000e+01	1.0000e+01	1.5100e+00	1.9400e+00	1.0000e+01	1.0000e+01	1.9900e+00	2.4900e+00	2.4100e+00	2.9000e+00	1.0000e+01	2.9800e+00	




#DATA BEGINS
time	group	step	mark	flag	A-AC1	A-AC2	A-AC3	A-AC4	A-AC5	A-AC6	A-AC7	A-AC8	A-AC9	A-AC10	A-AC11	A-AC12	A-AC13	A-AC14	A-AC15	A-AC16	A-DC1	A-DC2	A-DC3	A-DC4	A-DC5	A-DC6	A-DC7	A-DC8	A-DC9	A-DC10	A-DC11	A-DC12	A-DC13	A-DC14	A-DC15	A-DC16	A-Ph1	A-Ph2	A-Ph3	A-Ph4	A-Ph5	A-Ph6	A-Ph7	A-Ph8	A-Ph9	A-Ph10	A-Ph11	A-Ph12	A-Ph13	A-Ph14	A-Ph15	A-Ph16	B-AC1	B-AC2	B-AC3	B-AC4	B-AC5	B-AC6	B-AC7	B-AC8	B-AC9	B-AC10	B-AC11	B-AC12	B-AC13	B-AC14	B-AC15	B-AC16	B-DC1	B-DC2	B-DC3	B-DC4	B-DC5	B-DC6	B-DC7	B-DC8	B-DC9	B-DC10	B-DC11	B-DC12	B-DC13	B-DC14	B-DC15	B-DC16	B-Ph1	B-Ph2	B-Ph3	B-Ph4	B-Ph5	B-Ph6	B-Ph7	B-Ph8	B-Ph9	B-Ph10	B-Ph11	B-Ph12	B-Ph13	B-Ph14	B-Ph15	B-Ph16	aux-1	digaux	

6709.482	1	1	0	256	0.12093	0.24912	0.17408	0.26154	0.26021	0.12113	0.30789	0.088536	0.18213	0.20057	0.32766	0.21439	0.15455	0.12121	0.057635	0.1231	-1.3	-2.2021	-2.0146	-2.1292	-2.2646	-1.6812	-2.0687	-2.2229	-1.6729	-2.1271	-1.9	-1.6792	-2.2625	-1.7521	-1.9458	-1.9875	339.707	97.624	409.710	373.477	262.886	123.750	307.437	349.752	360.219	344.768	281.417	356.623	389.035	69.650	374.571	317.540	0.00054349	0.00064206	7.0205e-05	1116.8	2.6416e-06	4.3813e-06	1202.1	241.18	6.2531e-06	4.8172e-07	300.63	85.255	67.528	20.041	3.0647e-06	27.493	0.00020798	0.00021726	6.7207e-05	1080.4	2.2079e-06	2.4063e-06	1160.8	235.38	2.2317e-06	2.478e-06	291.58	82.914	65.884	20.055	2.5633e-06	27.177	71.000	177.741	251.018	67.225	232.974	229.062	66.885	74.602	150.095	165.217	74.081	80.878	80.959	88.315	229.427	87.620	-8191	255	
6709.554	1	1	0	0	0.3197	0.11708	0.26115	0.24036	0.11404	0.23172	0.26053	0.10736	0.17627	0.11108	0.23763	0.22128	0.18261	0.3869	0.16418	0.11769	-1.1792	-1.9354	-1.8708	-1.7229	-2.2938	-1.95	-2.1146	-2.3167	-1.6854	-2.0917	-2.1229	-1.8042	-2.4125	-2.0375	-1.7125	-2.3125	382.914	383.300	313.592	348.483	176.902	98.453	404.834	400.650	142.782	256.755	295.514	292.146	181.194	379.671	206.755	331.452	0.00046577	0.00052105	0.00011277	1116.8	2.922e-07	2.8325e-06	1205.1	240.89	7.156e-06	4.9878e-06	301.14	85.452	67.764	20.044	3.8379e-06	27.683	0.00020792	0.00023511	6.6314e-05	1079.6	2.2577e-06	2.631e-06	1162.1	235.34	2.3293e-06	2.6642e-06	291.78	83.052	66.168	20.247	2.6106e-06	27.308	67.239	118.938	188.484	67.191	97.219	213.172	66.934	74.531	182.498	227.209	74.444	80.663	81.240	87.990	104.130	87.442	-8191	255	
6709.650	1	1	0	0	0.18505	0.12852	0.28316	0.33488	0.013332	0.054201	0.27686	0.26067	0.2819	0.21441	0.2439	0.047443	0.20032	0.15212	0.065976	0.17542	-1.2208	-1.8229	-1.9979	-1.8438	-2.1417	-1.9521	-1.8979	-2.2812	-1.7521	-1.8563	-2.275	-1.475	-2.2917	-2.0229	-1.5646	-2.6312	246.061	165.356	297.685	372.980	115.909	85.560	367.317	246.707	246.181	224.657	80.333	290.714	409.918	349.680	74.163	88.669	0.00084624	0.00045137	6.5983e-06	1116	7.1685e-06	8.8675e-07	1199.8	241.83	1.6594e-06	4.4258e-06	300.11	84.403	67.177	19.961	5.2756e-06	27.326	0.00022884	0.00025811	6.7158e-05	1078.9	2.5953e-06	2.9299e-06	1161.9	236.25	2.6863e-06	3.0157e-06	292.58	83.232	66.7	20.423	2.8258e-06	27.45	91.212	154.403	192.128	67.110	189.654	234.882	66.983	74.765	210.054	287.149	73.992	80.619	81.504	88.288	394.813	87.974	-8191	255	
6709.746	1	1	0	0	0.145	0.27232	0.073017	0.18034	0.29608	0.10498	0.27686	0.37593	0.25525	0.14752	0.30469	0.049446	0.11516	0.18877	0.10934	0.14818	-1.2375	-2.0563	-2.2333	-1.7667	-2.1479	-1.9792	-1.7354	-2.2188	-1.9688	-1.8354	-2.3667	-1.6771	-2.1625	-2.0208	-1.7792	-2.325	226.874	122.342	358.734	87.808	200.457	169.322	351.122	411.712	167.400	158.433	121.579	221.126	411.497	135.800	141.589	232.078	0.00094486	0.00019029	3.1529e-05	1122.5	3.3113e-06	2.561e-06	1207.7	240.56	5.3682e-06	2.9149e-06	300.88	85.759	68.067	19.874	2.5887e-06	27.284	0.00027106	0.00028475	7.2439e-05	1085.8	3.0337e-06	3.1709e-06	1170.6	237.27	3.2642e-06	3.3393e-06	295.71	84.547	68.332	20.774	3.4166e-06	27.995	84.880	174.541	201.715	67.018	154.766	199.637	66.950	74.526	208.515	338.079	74.081	80.774	80.938	88.428	65.044	87.511	-8191	255	
6709.865	1	1	0	0	0.053506	0.11411	0.26779	0.1305	0.12064	0.26483	0.21311	0.19252	0.1492	0.093641	0.24751	0.13204	0.14226	0.10266	0.35525	0.14854	-1.6146	-1.7833	-2.1	-1.8375	-1.8667	-2.3583	-1.7812	-2.3708	-1.8	-2	-2.2979	-1.7917	-1.9354	-2.275	-1.5938	-2.2979	377.256	260.017	218.022	87.952	144.266	387.810	389.094	375.733	84.540	81.644	335.112	332.157	96.072	400.939	260.853	61.256	0.00055765	0.00063793	3.2475e-05	1131.8	3.0763e-06	3.9946e-06	1217.7	243.33	7.4976e-06	3.382e-06	305.05	86.096	68.444	20.167	3.8264e-06	27.676	0.0003542	0.0003496	9.0313e-05	1105.3	4.0896e-06	3.9474e-06	1192.1	242.66	4.2521e-06	4.0102e-06	301.98	86.69	70.281	21.245	3.8245e-06	28.812	62.644	205.862	411.611	67.074	186.811	295.031	67.015	74.818	164.408	173.457	73.784	80.624	81.479	88.132	232.066	87.432	-8191	255	
6709.961	1	1	0	0	0.39813	0.041542	0.24069	0.21916	0.024604	0.11873	0.033917	0.22749	0.20863	0.095126	0.19642	0.23563	0.16263	0.31328	0.29094	0.23179	-1.5229	-1.6625	-2.2812	-1.8438	-2.0187	-2.3063	-1.8104	-2.1271	-1.8417	-1.8479	-2.2167	-1.7042	-2.0646	-2.0896	-1.8042	-2.0375	130.193	328.675	404.849	366.114	284.936	214.652	290.036	213.305	212.573	89.935	66.411	334.597	293.318	404.806	206.401	295.249	0.00089988	0.00017651	8.1882e-05	1139.4	5.8806e-06	2.328e-06	1230.6	245.3	6.5008e-06	3.4709e-06	306.94	87.108	68.796	20.125	3.1937e-06	27.956	0.00040725	0.00036924	9.7796e-05	1121	4.4812e-06	4.1275e-06	1203.4	245.67	4.5966e-06	4.2182e-06	304.06	88.36	71.12	21.39	4.0481e-06	29.43	77.840	132.530	92.675	67.025	166.043	219.662	66.939	74.443	157.940	401.298	73.912	80.996	81.078	87.944	185.551	87.686	-8191	255	
6710.057	1	1	0	0	0.15801	0.18182	0.19237	0.14872	0.21436	0.17732	0.17849	0.21586	0.18446	0.096572	0.24387	0.07883	0.29608	0.24016	0.14909	0.16262	-1.4396	-1.5729	-2.2708	-2	-1.8125	-2.3	-1.9104	-2.1708	-2.2542	-1.6771	-2.175	-1.775	-2.0979	-2.3271	-1.825	-2.1292	109.536	375.277	313.067	101.897	110.760	112.658	343.084	291.570	157.000	316.791	122.247	391.297	408.237	171.023	402.622	229.103	0.00029222	0.00047712	0.00010934	1151.1	1.2784e-06	1.5752e-06	1234.1	246.13	1.3185e-05	2.7194e-07	308.15	87.207	68.97	20.296	6.8267e-06	27.694	0.00042414	0.00038774	0.00010269	1133.2	4.6118e-06	4.2264e-06	1209.1	247.87	4.57e-06	4.2161e-06	305.81	89.003	71.169	21.4	4.1255e-06	29.596	65.740	179.241	188.029	66.982	414.315	254.234	66.766	74.710	157.533	244.995	74.140	80.650	81.061	88.209	186.030	87.592	-8191	255	
6710.154	1	1	0	0	0.039756	0.14731	0.25822	0.33775	0.18703	0.021248	0.097947	0.079186	0.24075	0.19312	0.43801	0.27449	0.040336	0.11938	0.082621	0.17696	-1.7542	-1.5333	-2.0708	-2.0271	-1.8333	-2.1479	-1.9458	-1.9125	-2.1458	-1.625	-2.2104	-1.9146	-1.7938	-2.4042	-1.7667	-2.2438	228.301	388.248	309.928	374.392	60.452	325.865	351.154	160.568	186.362	62.581	373.714	64.878	320.363	68.037	219.090	401.137	0.00049399	0.00052907	0.00013232	1150	4.8965e-06	2.9741e-06	1239.3	245.82	3.0888e-06	2.729e-06	307.67	86.954	68.42	20.112	8.2135e-06	27.722	0.00040802	0.00037757	0.00010501	1136.9	4.4459e-06	4.1456e-06	1210.9	248.76	4.4069e-06	4.1752e-06	306.91	89.319	70.688	21.355	4.4263e-06	29.687	90.612	125.549	132.820	66.793	397.553	384.599	66.971	74.322	157.669	104.813	73.828	80.749	81.006	88.106	216.226	87.347	-8191	255	
6710.248	1	1	0	0	0.10985	0.18175	0.28469	0.16775	0.12078	0.16892	0.32231	0.20481	0.022487	0.25663	0.11158	0.050209	0.045105	0.084393	0.06644	0.097925	-1.6792	-1.5042	-2.0312	-2.1625	-1.6833	-2.1021	-1.8333	-2.1292	-2.1667	-1.7854	-2.1792	-2.0354	-1.7792	-2.3792	-1.9937	-1.9417	411.403	190.415	383.947	376.503	355.267	323.802	383.130	410.548	184.555	214.978	109.221	247.236	401.103	305.678	250.931	389.425	0.00052723	0.00069805	0.00012902	1151.4	2.2813e-06	2.1384e-06	1231.1	246.48	5.0663e-06	1.265e-06	307.24	86.184	68.724	20.212	6.5638e-06	27.684	0.00039805	0.00037504	0.00011239	1139.1	4.2981e-06	4.0054e-06	1214.6	248.42	4.2103e-06	4.0176e-06	308	88.715	70.573	21.221	4.5933e-06	29.426	79.946	276.739	91.637	66.985	277.244	158.855	66.708	74.485	273.971	369.562	74.281	80.603	81.429	88.260	242.440	87.514	-8191	255	
6710.344	1	1	0	0	0.058238	0.1518	0.1203	0.30356	0.30448	0.11249	0.14768	0.16045	0.32998	0.18433	0.17576	0.15595	0.084998	0.041043	0.05027	0.30702	-1.8354	-1.7229	-2.0833	-2.1708	-1.6437	-2.2729	-2.0687	-1.9625	-2.2479	-1.8042	-2.1729	-2.1896	-1.7417	-2.1542	-2.1333	-1.8667	226.380	215.778	175.691	405.942	328.292	96.115	399.632	221.420	376.272	115.135	414.301	98.416	79.153	161.564	260.996	284.951	0.00050181	0.00026081	3.3198e-05	1150.8	3.3925e-06	1.9495e-06	1230.1	245.72	6.2614e-06	3.2168e-06	306.37	85.556	68.915	20.332	1.69e-05	27.748	0.00038041	0.00036583	0.00011762	1135.9	4.1562e-06	3.9919e-06	1215.6	247.27	4.1726e-06	4.1199e-06	308.75	88.052	70.346	21.318	4.8815e-06	29.391	73.343	276.109	233.455	67.026	191.852	376.855	66.913	74.522	156.517	208.940	74.139	80.657	80.852	88.126	183.788	88.051	-8191	255	
6710.465	1	1	0	0	0.10018	0.13256	0.059275	0.26821	0.047313	0.069259	0.22376	0.24458	0.0086701	0.23562	0.12044	0.1883	0.15551	0.087756	0.20436	0.082009	-1.7771	-1.4625	-1.9562	-2.2208	-1.6521	-2.1146	-2.0125	-1.8104	-2.2729	-1.5875	-2.1458	-2.0979	-1.7125	-2.2083	-1.7646	-1.8583	180.178	256.642	243.854	81.873	277.555	236.517	318.747	315.354	268.367	124.987	302.114	391.184	299.440	57.090	152.786	360.101	0.00040761	0.00048472	0.00012118	1144.2	3.7574e-06	9.1745e-06	1230	244.73	3.1556e-06	3.7543e-06	305.32	85.966	68.293	20.118	7.649e-06	27.477	0.00037905	0.00039058	0.00012426	1130.1	4.22e-06	4.383e-06	1217.2	245.9	4.214e-06	4.5255e-06	309.24	87.951	70.252	21.487	5.0385e-06	29.221	414.278	125.819	370.819	66.780	161.582	159.260	66.949	74.544	115.336	273.067	74.138	80.582	81.076	88.153	319.582	87.607	-8191	255	
6710.561	1	1	0	0	0.089835	0.13807	0.04769	0.23155	0.21739	0.19417	0.094364	0.095654	0.22846	0.27657	0.2782	0.25019	0.15275	0.1265	0.20783	0.21569	-1.8708	-1.7167	-1.8208	-2.4729	-1.5979	-2.1437	-2.075	-1.7396	-2.4396	-1.8521	-2.0396	-2.2812	-1.6313	-2.2417	-1.8687	-2.0292	128.102	210.661	385.888	86.654	148.048	336.218	405.656	361.038	341.526	341.054	411.699	375.610	270.120	385.148	403.381	328.992	0.00066938	0.00064815	0.00016995	1150.9	3.2397e-06	7.2184e-06	1232.5	243.99	3.8353e-06	6.0018e-06	304.81	85.521	68.348	20.202	3.0846e-06	27.598	0.000384	0.0004276	0.00012445	1129.7	4.1407e-06	4.5872e-06	1213.4	244.65	4.025e-06	4.5924e-06	306.01	87.091	69.761	21.48	4.474e-06	28.959	76.530	197.003	207.503	66.986	201.625	192.428	66.861	74.468	168.300	195.314	73.865	80.739	81.325	88.165	150.077	87.713	-8191	255	
6710.657	1	1	0	0	0.22492	0.18566	0.12551	0.28796	0.30553	0.1266	0.17682	0.34259	0.078922	0.14935	0.14668	0.14417	0.22284	0.19568	0.18083	0.10707	-1.8958	-2.0167	-1.7062	-2.5438	-1.7771	-1.9854	-2.4604	-1.6354	-2.2667	-1.9438	-1.9083	-2.4396	-1.8188	-1.9083	-2.1479	-1.6729	388.366	356.485	207.136	381.691	187.878	265.619	262.925	351.265	398.339	130.128	135.453	196.394	145.227	91.068	382.842	380.644	0.00041012	0.00021825	0.00024024	1146.8	4.712e-06	6.3031e-06	1227.2	242.34	1.1983e-05	7.1864e-06	303.56	86.012	68.386	20.12	1.5933e-06	27.789	0.0003583	0.00041418	0.00011128	1123.3	3.9224e-06	4.4656e-06	1206	243.09	3.9263e-06	4.5031e-06	303.76	86.912	69.586	21.401	4.1144e-06	28.708	75.455	383.122	327.356	66.972	229.865	164.430	66.870	74.634	162.590	216.061	73.820	81.193	81.282	88.248	69.171	87.649	-8191	255	
6710.753	1	1	0	0	0.17726	0.17884	0.13313	0.2746	0.071986	0.19221	0.30791	0.14727	0.16878	0.10076	0.25976	0.26757	0.15041	0.16383	0.1473	0.17164	-1.875	-1.7938	-1.8354	-2.1833	-1.8104	-1.9604	-2.1833	-1.7396	-2.2833	-2.0563	-1.65	-2.3875	-1.7271	-1.925	-2.2188	-1.9062	342.388	70.732	337.869	330.739	151.726	186.193	355.934	354.631	302.960	406.961	348.586	244.287	399.309	69.490	364.649	410.692	0.00063959	0.00079756	1.3281e-05	1145.8	7.3581e-06	3.0095e-06	1226.9	243.75	1.0797e-05	4.7595e-06	303.77	85.271	68.018	20.092	5.8528e-07	27.723	0.00035989	0.00040489	0.00010308	1122.2	4.0267e-06	4.3822e-06	1202.7	242.73	4.0657e-06	4.406e-06	302.15	86.32	69.873	21.295	3.9966e-06	28.603	82.106	197.210	231.619	66.971	211.297	400.172	66.773	74.536	236.337	121.021	73.738	81.026	81.515	88.430	285.971	87.784	-8191	255	
6710.849	1	1	0	0	0.021146	0.015822	0.22382	0.17715	0.04466	0.19594	0.11336	0.11433	0.030024	0.19604	0.22869	0.09009	0.1404	0.068842	0.13886	0.24573	-1.8542	-2.1542	-1.6021	-2.2417	-1.7708	-1.8396	-2.4646	-1.6875	-1.9583	-2.0271	-1.85	-2.2104	-2.0625	-1.725	-2.0083	-1.9042	246.388	128.777	74.504	332.707	183.538	258.824	282.369	391.126	273.394	286.220	136.829	334.023	79.122	400.947	59.060	264.740	0.00062774	0.00040699	0.00020959	1143.6	5.6974e-06	3.0515e-06	1228.3	242.18	8.4993e-06	2.0438e-06	304.43	85.964	68.403	19.991	1.8367e-06	27.551	0.00038953	0.00039604	0.00010108	1120.6	4.3332e-06	4.2585e-06	1201.4	241.91	4.3258e-06	4.2098e-06	301.89	86.194	70.271	21.193	3.8296e-06	28.566	99.519	216.422	211.284	66.830	192.043	114.085	67.124	74.550	162.281	85.911	73.976	81.033	81.164	88.298	401.419	87.494	-8191	255	
6710.945	1	1	0	0	0.14373	0.097334	0.085994	0.36722	0.13486	0.072692	0.33108	0.22518	0.21855	0.17124	0.37849	0.23903	0.056826	0.039966	0.36423	0.092082	-1.7563	-2.2062	-1.6604	-2.3063	-1.8708	-1.7396	-2.4813	-1.7188	-1.8104	-2.1562	-1.7437	-2.1875	-2.1	-1.9417	-2.2146	-1.8646	121.588	60.899	157.000	355.579	110.324	265.921	304.042	274.999	313.993	399.201	389.905	389.695	254.116	135.548	332.835	255.626	0.00076164	0.00031196	0.00011725	1143.8	8.1012e-07	5.3796e-06	1231.9	242.76	6.8058e-06	2.0377e-06	304.28	85.244	67.495	20.225	6.1289e-06	27.692	0.00039156	0.0003671	9.6322e-05	1119.6	4.334e-06	4.0261e-06	1199.1	242.38	4.4213e-06	4.0519e-06	301.23	86.659	70.249	21.152	3.8589e-06	29.035	100.347	144.545	271.053	66.786	287.578	399.660	67.029	74.395	163.965	329.048	74.201	80.856	80.948	88.350	153.752	87.318	-8191	255	
6711.042	1	1	0	0	0.075542	0.22912	0.23845	0.25183	0.20854	0.21602	0.30569	0.18243	0.027274	0.14525	0.22709	0.35315	0.21692	0.20549	0.20304	0.067499	-1.5854	-2.1479	-1.5146	-2.3083	-1.9813	-1.7083	-2.5729	-2.0729	-1.8646	-2.3688	-1.7854	-2.2292	-2.15	-1.7729	-2.2583	-1.9854	322.100	71.814	122.912	405.287	137.623	188.068	405.004	330.085	156.703	335.763	63.833	338.304	408.719	373.922	180.349	365.319	0.00048191	0.00022996	7.8246e-05	1144.3	4.5158e-06	7.7408e-06	1228.8	241.92	6.7714e-06	3.8409e-06	304.25	86.228	68.052	20.021	9.7675e-06	27.591	0.00041519	0.0003771	0.00010157	1127	4.6194e-06	4.1994e-06	1202.2	243.75	4.5569e-06	4.2212e-06	302.18	87.82	70.408	21.164	4.0633e-06	29.178	92.165	361.505	116.939	67.104	250.332	195.125	66.924	74.408	269.103	278.915	74.074	81.059	81.229	88.128	218.384	87.568	-8191	255	
6711.136	1	1	0	0	0.2198	0.076534	0.11693	0.2287	0.11437	0.040308	0.10146	0.14117	0.23811	0.40126	0.25884	0.21331	0.1102	0.060764	0.13673	0.29605	-1.325	-2.0833	-1.6875	-2.3167	-1.9271	-1.6521	-2.3521	-1.8875	-1.8979	-2.0917	-1.7792	-2.1521	-2.1396	-1.7583	-2.2417	-1.9229	344.310	254.040	348.183	59.863	254.425	301.168	414.545	338.267	255.218	258.592	88.330	354.988	241.377	76.097	203.530	343.928	0.00055871	0.00022598	9.8012e-05	1143.1	7.0175e-06	2.821e-06	1228.1	242.44	2.9306e-06	3.8834e-06	302.28	85.54	67.663	19.965	5.7777e-06	27.584	0.00041615	0.00037996	0.00010368	1130.4	4.4521e-06	4.0801e-06	1203.5	244.53	4.4009e-06	4.0842e-06	301.77	87.774	70.119	21.072	4.1088e-06	29.376	84.694	119.602	128.224	66.971	297.864	386.334	67.056	74.707	60.406	249.166	73.992	80.800	81.229	88.284	216.691	87.910	-8191	255	
6711.257	1	1	0	0	0.27083	0.21789	0.068792	0.23373	0.28355	0.24301	0.076184	0.18736	0.28305	0.09631	0.44312	0.074576	0.14477	0.18886	0.047057	0.1556	-1.4208	-2.2208	-1.75	-2.1854	-2.0229	-1.6979	-2.4229	-2.1396	-1.8583	-2.15	-2.0312	-1.8937	-2.3	-1.6625	-2.1167	-2.0979	275.923	397.523	161.310	384.584	385.389	360.643	334.800	410.346	326.105	229.804	368.666	368.859	175.097	416.293	250.672	139.808	0.00044401	0.00046483	0.00021893	1142.6	5.1224e-06	3.9829e-06	1225.4	241.79	2.0695e-06	2.76e-06	302.57	85.556	67.616	19.955	8.4585e-06	27.549	0.00039854	0.00036892	0.00010809	1130.8	4.3769e-06	4.1094e-06	1206.4	244.71	4.3491e-06	4.0689e-06	304.03	88.096	69.898	21.064	4.5983e-06	29.48	94.248	67.982	95.288	66.992	234.923	356.528	66.950	74.547	366.395	253.452	74.260	80.722	81.252	87.913	196.868	87.886	-8191	255	
6711.353	1	1	0	0	0.053867	0.048673	0.18734	0.043538	0.053406	0.15807	0.3347	0.26511	0.27588	0.14707	0.20675	0.25709	0.028692	0.33999	0.31528	0.18875	-1.1688	-2.1937	-1.6292	-2.2146	-2.1229	-1.6979	-2.2271	-2.1354	-1.5896	-2.0958	-1.975	-1.9292	-2.3792	-1.5917	-1.8708	-2.1542	215.000	313.722	344.671	283.115	346.524	80.989	299.861	366.896	376.199	165.614	391.010	355.066	188.191	377.962	157.475	310.306	0.0004767	0.00076185	2.3086e-05	1139.4	2.45e-06	1.6317e-06	1229.1	242.13	7.5498e-06	4.5094e-06	302.98	85.421	67.581	19.807	2.8442e-06	27.458	0.0004022	0.00038063	0.00012096	1131.6	4.4602e-06	4.239e-06	1213.4	244.84	4.4471e-06	4.2865e-06	307.36	88.265	69.991	21.17	5.1507e-06	29.522	97.617	237.629	169.290	66.779	151.112	163.131	66.950	74.465	185.044	197.985	74.182	80.770	81.060	88.101	245.811	87.453	-8191	255	
6711.424	1	1	0	0	0.067973	0.061334	0.32555	0.30758	0.13153	0.29173	0.24471	0.35091	0.20053	0.17057	0.101	0.18159	0.14869	0.024411	0.051759	0.14777	-1.1604	-2.2083	-1.7437	-1.9542	-2.3729	-1.6875	-2.0354	-2.1229	-1.6646	-2.1271	-2.2229	-1.9438	-2.5271	-1.5042	-2.1792	-2.0396	222.735	262.860	74.131	390.040	67.860	177.054	361.131	353.102	226.431	89.463	90.407	374.433	285.103	226.966	202.244	109.720	0.00055321	0.000569	6.5382e-05	1139.6	9.0144e-06	5.9294e-06	1228.9	240.86	4.546e-06	3.8313e-06	302.09	85.001	67.816	20.039	6.2129e-06	27.414	0.00041682	0.00040959	0.00013384	1134.5	4.5637e-06	4.5411e-06	1218.5	244.7	4.5362e-06	4.6167e-06	308.51	88.168	70.287	21.439	5.378e-06	29.381	74.509	163.448	146.948	66.913	247.755	146.910	67.189	74.336	182.921	245.295	74.135	80.919	81.168	88.455	198.108	87.218	-8191	255	
6711.545	1	1	0	0	0.25204	0.02903	0.20551	0.11128	0.14465	0.15292	0.15716	0.14592	0.1383	0.14113	0.096316	0.24618	0.039152	0.18077	0.066807	0.27235	-1.2583	-2.1354	-1.9958	-1.9104	-2.1458	-1.8438	-2.0333	-2.4688	-1.5604	-2.1667	-2.2062	-1.7792	-2.2375	-1.7417	-1.6708	-2.2479	117.240	365.596	214.715	374.847	224.879	302.681	337.143	247.486	320.358	169.820	332.451	106.863	124.118	66.571	373.451	351.024	0.00065784	0.00012251	0.0002624	1148.7	4.8943e-06	7.0504e-06	1232.5	241.75	6.0151e-06	2.1614e-06	303.82	85.775	68.126	20.157	8.0063e-06	27.447	0.00041522	0.00043876	0.00013752	1135.5	4.5057e-06	4.8921e-06	1222.6	244.32	4.5438e-06	5.034e-06	308.86	88.185	70.393	21.724	5.3855e-06	29.355	83.549	123.664	265.381	66.958	274.811	204.230	66.822	74.544	195.718	274.425	74.139	80.766	81.372	88.152	174.594	87.630	-8191	255	
6711.641	1	1	0	0	0.044094	0.1224	0.16014	0.19483	0.017721	0.12419	0.15105	0.21156	0.26131	0.037095	0.15195	0.27325	0.21675	0.19863	0.080993	0.077205	-1.25	-2.0271	-2.0667	-1.8708	-2.3875	-1.9646	-1.9625	-2.4062	-1.7646	-2.0979	-2.2208	-1.5917	-2.2062	-1.8917	-1.7854	-2.2146	98.693	223.890	204.345	259.450	226.184	233.911	352.780	392.576	341.074	177.751	69.984	295.458	89.543	385.441	308.119	355.802	0.00054317	0.00068596	8.6808e-05	1145.2	6.6125e-06	6.7602e-06	1232	239.49	1.4306e-05	8.2728e-06	302.73	84.966	68.032	19.841	2.5575e-06	27.426	0.00042265	0.00047699	0.00013588	1134.9	4.5789e-06	5.2452e-06	1219.8	243.04	4.5796e-06	5.2882e-06	307.38	87.608	70.248	21.764	5.0361e-06	29.201	77.851	166.645	334.334	66.964	150.034	150.225	66.598	74.480	173.215	209.559	73.871	80.625	81.197	88.276	286.763	87.398	-8191	255	
6711.737	1	1	0	0	0.26902	0.26384	0.16081	0.58069	0.12231	0.27247	0.12583	0.31188	0.25499	0.070015	0.43613	0.17638	0.2216	0.031196	0.037197	0.017744	-1.2854	-2.1333	-1.9375	-1.8792	-2.0542	-1.9083	-2.0417	-2.2917	-1.9021	-1.775	-2.2083	-1.4771	-2.3771	-1.9583	-1.8792	-2.1458	58.464	335.443	203.282	395.625	291.550	106.682	400.218	400.035	56.987	377.894	351.774	323.574	135.873	186.422	116.774	195.370	0.00063661	0.00049298	4.1042e-05	1151.4	4.9871e-06	1.0628e-06	1233.4	241.19	1.4115e-05	5.8246e-06	302.4	85.212	68.093	19.825	7.8397e-06	27.348	0.00042057	0.00047838	0.00012674	1134.1	4.618e-06	5.264e-06	1216.1	243.02	4.6894e-06	5.2345e-06	305.29	87.314	70.636	21.787	4.8375e-06	29.071	79.920	104.871	98.107	67.017	239.684	93.371	66.912	74.657	157.978	288.205	74.576	80.815	81.129	88.554	248.551	87.679	-8191	255	
6711.834	1	1	0	0	0.10119	0.11036	0.11203	0.23781	0.06748	0.089551	0.16355	0.21232	0.050032	0.15722	0.142	0.1692	0.12282	0.28352	0.23289	0.24658	-1.4937	-1.9396	-2.3354	-1.8312	-2.1771	-1.8708	-1.8771	-2.3563	-1.7146	-2.0083	-2.4958	-1.6333	-2.2146	-2.0417	-1.6208	-2.3521	315.486	307.309	181.484	357.290	366.910	262.716	296.690	343.671	178.631	324.183	96.483	414.376	359.857	363.829	324.684	364.807	0.0006945	0.00034961	0.00014068	1145.3	6.3944e-06	1.8372e-06	1229.3	241.59	1.0397e-05	1.6844e-06	301.51	85.535	68.261	19.786	2.0403e-06	27.479	0.00045162	0.00048487	0.00012233	1131.3	4.9605e-06	5.2964e-06	1213	243.16	5.1442e-06	5.2595e-06	305	87.368	71.495	21.712	4.887e-06	29.216	79.759	391.732	149.951	66.982	199.652	318.340	67.112	74.587	161.329	75.120	74.078	80.993	81.596	88.246	243.790	87.360	-8191	255	
6711.954	1	1	0	0	0.16964	0.024728	0.12981	0.24505	0.13984	0.2896	0.37784	0.25441	0.21116	0.138	0.13901	0.1456	0.14106	0.060039	0.12688	0.18688	-1.2729	-2.0542	-2.1479	-1.6542	-2.1583	-1.7521	-1.7417	-2.3021	-1.8312	-1.7542	-2.2021	-1.6104	-2.2083	-2.1542	-1.6333	-2.3146	152.696	328.253	57.333	386.240	100.268	346.813	349.715	381.600	105.394	359.573	372.787	405.482	361.180	175.890	382.535	394.883	0.00083011	0.00015346	6.6465e-05	1150.1	6.5701e-06	2.0561e-06	1231	240.99	7.031e-06	6.0228e-06	300.89	85.496	68	19.802	5.8061e-06	27.4	0.00048812	0.00048074	0.0001229	1133.7	5.3886e-06	5.2257e-06	1215.6	243.1	5.4511e-06	5.1477e-06	304.97	88.095	71.995	21.618	4.7932e-06	29.384	88.510	242.746	82.775	67.060	206.799	404.200	66.832	74.637	185.790	143.653	73.761	81.120	81.395	88.272	302.575	87.623	-8191	255	
6712.049	1	1	0	0	0.21374	0.11373	0.084785	0.021135	0.29592	0.26965	0.28557	0.17972	0.041237	0.18088	0.0524	0.34171	0.17231	0.20016	0.24451	0.15735	-1.4146	-1.6	-2.1688	-1.9438	-1.7104	-2.35	-1.8292	-2.4375	-1.8542	-1.7792	-2.3625	-1.8146	-1.9146	-2.3333	-1.5917	-2.3604	241.552	201.981	126.165	195.251	358.628	272.747	388.284	91.392	171.273	181.628	139.189	359.973	354.831	136.852	387.789	65.652	0.00029136	0.00013208	5.1522e-05	1145.6	8.5046e-07	3.1622e-06	1226.7	241.63	3.9056e-06	2.0001e-06	301.8	85.397	68.017	19.894	8.3387e-06	27.409	0.0005088	0.00046555	0.00012298	1136.2	5.6132e-06	5.111e-06	1213.9	244.65	5.5895e-06	5.1353e-06	304.52	88.79	72.238	21.604	4.8005e-06	29.765	62.828	310.172	120.919	67.110	166.427	393.858	66.970	74.530	162.901	275.597	74.120	80.984	81.060	88.183	291.375	87.426	-8191	255	
6712.145	1	1	0	0	0.075492	0.067802	0.10724	0.014442	0.14829	0.14976	0.086228	0.090479	0.09032	0.2787	0.13187	0.17139	0.092211	0.18019	0.16498	0.27984	-1.7167	-1.6792	-2.1813	-2.0604	-1.9396	-2.2208	-1.8229	-2.3688	-2.125	-1.6917	-2.3667	-1.9479	-1.8417	-2.2562	-1.7146	-2.0333	396.044	329.385	209.681	414.964	229.429	321.296	405.168	354.347	141.119	313.727	372.557	400.362	402.417	377.982	194.908	100.893	0.00051207	0.0010366	0.00019036	1151.6	3.5238e-06	6.2111e-06	1233.7	241.05	2.9266e-06	3.4289e-06	300.26	85.636	67.187	19.878	3.0827e-06	27.372	0.0005122	0.00045888	0.00012269	1144.5	5.5304e-06	5.0063e-06	1216.7	245.96	5.4758e-06	4.9854e-06	303.97	89.478	71.446	21.519	4.832e-06	29.866	77.647	74.865	103.174	66.942	212.078	168.750	66.865	74.681	303.242	300.053	74.219	80.912	80.936	88.270	271.687	87.868	-8191	255	
6712.241	1	1	0	0	0.18588	0.24168	0.22447	0.10611	0.26611	0.08327	0.34214	0.06533	0.11483	0.19831	0.23857	0.4025	0.084601	0.21924	0.062645	0.18808	-1.7333	-1.5104	-2.3292	-2.1042	-1.7563	-2.1646	-1.7896	-2.0125	-2.0812	-1.6354	-2.2208	-2.05	-1.8646	-2.3563	-1.7146	-2.1292	152.534	134.737	99.416	340.803	277.631	414.518	355.960	334.791	305.117	71.084	332.703	410.755	343.992	102.428	240.272	328.403	0.00056474	0.00051622	0.0001248	1148.9	2.7655e-06	1.6823e-06	1230.8	240.2	4.8871e-06	4.097e-06	301.2	85.245	67.744	19.892	2.0806e-05	27.496	0.00048036	0.00044761	0.00012316	1144.2	5.238e-06	4.8474e-06	1215.6	246.12	5.2129e-06	4.8678e-06	305.98	89.677	71.296	21.51	5.147e-06	30.05	75.523	188.213	152.687	66.750	198.733	137.820	67.035	74.495	188.160	363.904	74.234	80.693	81.159	87.701	233.164	87.594	-8191	255	
6712.337	1	1	0	0	0.14567	0.1394	0.099441	0.37855	0.26715	0.21346	0.12497	0.26978	0.06635	0.13765	0.28434	0.11924	0.15692	0.1125	0.080219	0.14021	-1.5292	-1.7875	-2.2604	-2.2667	-1.7958	-2.2146	-1.9292	-2.1979	-2.4188	-1.7021	-2.1896	-2.3229	-1.6625	-2.3271	-1.7687	-1.75	352.839	63.403	64.831	405.740	267.956	258.030	309.380	332.159	149.900	206.440	86.361	102.217	204.130	246.445	145.626	271.803	0.00063056	0.00031712	0.00025666	1148.4	3.8915e-06	2.9195e-06	1223.6	240.82	2.9473e-06	2.0585e-06	302.3	84.801	68.06	19.783	6.6262e-06	27.578	0.00047407	0.00044022	0.00013263	1145.3	5.083e-06	4.7999e-06	1217.6	246.43	5.0039e-06	4.7438e-06	307.67	89.195	70.874	21.363	5.3968e-06	29.842	85.627	414.614	112.612	67.013	169.611	92.410	66.895	74.510	335.068	370.442	74.033	80.762	81.156	88.252	229.205	87.489	-8191	255	
6712.433	1	1	0	0	0.16307	0.022301	0.09679	0.12732	0.16057	0.03809	0.26705	0.33596	0.095993	0.14485	0.061115	0.21078	0.20332	0.19195	0.47084	0.18053	-1.8229	-1.5229	-2.0812	-2.225	-1.7542	-2.1979	-1.9875	-2.1396	-2.1729	-1.8021	-2.3104	-2.1396	-1.7604	-2.3021	-2.0292	-1.8438	82.832	390.009	366.038	401.825	372.864	183.918	294.688	359.920	219.810	312.207	209.155	377.699	313.465	250.955	220.520	377.010	0.00052718	0.00015793	0.00014421	1147.7	4.6945e-06	1.3197e-06	1228.9	240.53	3.5221e-06	7.3402e-06	303.41	84.979	67.835	19.871	5.3985e-06	27.188	0.00044577	0.00042901	0.00013699	1142.4	4.9098e-06	4.6814e-06	1223.2	245.17	4.8534e-06	4.7941e-06	309.15	88.873	70.65	21.431	5.5892e-06	29.617	113.403	194.567	73.826	66.939	163.035	170.270	67.037	74.802	297.981	234.238	74.221	81.016	81.449	88.097	227.639	87.491	-8191	255	
6712.554	1	1	0	0	0.096152	0.18149	0.052807	0.1139	0.14473	0.1872	0.27484	0.084865	0.1698	0.15143	0.16081	0.1192	0.030078	0.39848	0.2615	0.060978	-1.7979	-1.6792	-1.9562	-2.3521	-1.5792	-2.3208	-2.2458	-1.6667	-2.2104	-1.6354	-2.0062	-2.3021	-1.5875	-2.0979	-2.0792	-1.7875	415.319	164.738	70.671	322.732	314.433	350.616	388.051	402.750	413.461	110.186	81.693	308.134	163.395	235.781	207.632	318.244	0.00036683	0.0010302	0.00029405	1148.4	4.5046e-06	7.1379e-06	1236.1	239.89	4.1946e-06	5.0684e-06	301.23	85.53	67.937	19.976	6.8944e-06	27.28	0.00043725	0.00044034	0.0001425	1138.4	4.7983e-06	4.8732e-06	1224.7	243.84	4.6959e-06	4.9877e-06	308.87	88.616	70.49	21.584	5.5944e-06	29.455	75.414	158.430	161.755	67.055	165.435	209.439	66.976	74.469	325.531	197.635	74.046	81.025	81.989	88.210	249.825	87.645	-8191	255	
6712.650	1	1	0	0	0.25957	0.09763	0.19278	0.30432	0.31567	0.14451	0.18908	0.19493	0.07501	0.069034	0.06759	0.16623	0.24412	0.064106	0.27403	0.23677	-1.8438	-1.5667	-1.95	-2.3146	-1.5875	-2.2854	-2.1875	-1.9125	-2.0479	-1.6208	-1.8417	-2.1083	-1.7083	-2.0438	-1.8937	-1.6229	292.375	399.448	203.707	368.107	148.751	409.887	124.695	361.490	154.899	58.232	207.046	363.012	117.357	102.439	250.349	72.381	0.00057131	9.0237e-05	5.6374e-05	1146.3	7.2499e-07	1.1107e-05	1231.8	240.43	2.7256e-06	6.5869e-06	301.64	85.093	67.909	19.817	7.3231e-06	27.381	0.00042952	0.00047151	0.00014128	1136.3	4.7068e-06	5.2651e-06	1223.2	243.69	4.6965e-06	5.4037e-06	308.88	87.908	70.51	21.771	5.4775e-06	29.443	112.307	145.301	255.277	66.952	415.847	211.127	66.903	74.671	392.007	174.163	74.043	80.946	81.306	88.318	330.336	87.256	-8191	255	
6712.722	1	1	0	0	0.10968	0.10158	0.27388	0.089871	0.071007	0.10612	0.14219	0.16806	0.14294	0.15796	0.15246	0.29157	0.22757	0.16461	0.14529	0.23627	-1.6792	-1.7667	-1.7625	-2.5958	-1.6833	-2.075	-2.3208	-1.5354	-2.1896	-1.9562	-1.9292	-2.3438	-1.7979	-2.1417	-2.225	-1.4188	75.851	217.861	369.307	302.213	306.273	99.745	309.222	190.447	191.801	207.975	344.472	389.018	143.145	73.255	82.220	289.273	0.00060207	0.00051012	9.2385e-05	1149.9	3.1405e-06	2.0139e-06	1231.6	241	2.4127e-06	6.037e-06	301.57	84.946	67.948	19.971	3.6987e-06	27.182	0.00044158	0.00051203	0.00014001	1137.1	4.8981e-06	5.7087e-06	1222.4	244.52	4.9985e-06	5.8382e-06	308.01	88.259	71.121	22.122	5.4162e-06	29.502	69.549	180.728	113.565	66.938	110.539	129.927	66.974	74.797	225.462	210.793	74.162	81.006	81.362	88.019	112.884	87.529	-8191	255	
6712.818	1	1	0	0	0.12476	0.19639	0.16645	0.027677	0.21388	0.11778	0.15427	0.33985	0.24658	0.2766	0.19482	0.04293	0.076167	0.11408	0.13212	0.16182	-1.9083	-1.7646	-1.8188	-2.2708	-1.7687	-1.9917	-2.4104	-1.5854	-2.1667	-1.9458	-1.825	-2.0812	-1.8833	-1.8625	-2.0646	-1.5229	65.747	188.500	185.542	394.209	187.977	100.278	355.839	359.465	57.997	122.995	388.695	188.270	316.372	301.741	91.953	369.318	0.0004368	0.00031838	0.00019008	1146.7	9.1861e-06	3.8387e-06	1227.2	240.16	1.501e-05	4.2547e-06	300.57	85.18	67.485	19.9	8.3401e-06	27.27	0.00046849	0.00053378	0.00013629	1134.8	5.2313e-06	5.7868e-06	1217.7	243.29	5.22e-06	5.7135e-06	306.33	87.803	71.257	21.929	5.1286e-06	29.31	92.919	67.630	79.810	66.964	189.403	175.984	66.809	74.513	164.422	166.168	74.167	80.862	81.532	88.517	109.997	87.364	-8191	255	
6712.938	1	1	0	0	0.22893	0.3031	0.077194	0.28682	0.15038	0.12849	0.23829	0.34813	0.049567	0.053655	0.22128	0.1053	0.17171	0.31534	0.052535	0.11678	-1.7458	-1.9792	-1.6458	-2.5396	-1.7167	-2.0208	-2.3354	-1.9854	-2.0687	-1.9479	-1.8771	-2.3104	-1.8771	-1.8479	-2.0958	-1.8292	167.938	174.829	143.985	110.571	182.784	337.860	323.091	355.156	404.078	248.337	368.228	302.202	94.981	274.259	210.195	360.888	0.00085364	0.00033201	0.00013977	1144.6	6.7945e-06	2.8416e-06	1229	240.37	8.273e-06	8.4399e-07	301.18	84.855	67.175	19.855	2.7367e-06	27.332	0.00049391	0.00051045	0.00013007	1132.4	5.4474e-06	5.5039e-06	1214.9	243.14	5.4971e-06	5.4639e-06	304.83	87.594	71.866	21.738	4.9616e-06	29.282	69.289	321.935	408.450	66.631	268.771	161.879	66.734	74.761	243.697	273.384	74.182	81.023	81.280	88.253	271.627	87.590	-8191	255	
6713.033	1	1	0	0	0.12331	0.24264	0.23361	0.10825	0.14297	0.25182	0.19986	0.33426	0.049886	0.13698	0.12753	0.090414	0.20768	0.14866	0.12647	0.19472	-1.5521	-2.3312	-1.6583	-2.4188	-1.9354	-1.7229	-2.2958	-1.8479	-2.0833	-2.2938	-1.5292	-2.2521	-1.9625	-1.6833	-2.4188	-1.7125	308.757	271.618	135.353	345.347	103.072	142.955	364.851	359.238	284.299	84.609	399.705	114.270	388.804	130.347	168.177	316.459	0.00069596	0.0006135	8.7796e-05	1146.1	8.3981e-06	5.4904e-06	1229.3	239.49	2.7848e-06	2.8146e-06	301.57	85	67.267	19.89	5.3853e-06	27.3	0.000502	0.00047698	0.00012402	1134.5	5.5585e-06	5.1128e-06	1212	242.67	5.4741e-06	5.0627e-06	303.69	87.839	71.585	21.473	4.6582e-06	29.29	98.002	310.690	119.249	66.837	143.387	116.048	66.765	74.920	352.848	83.105	74.096	80.807	81.499	88.608	263.483	87.663	-8191	255	
6713.129	1	1	0	0	0.0844	0.14416	0.24524	0.37342	0.11009	0.12733	0.18468	0.18315	0.20206	0.033631	0.090534	0.07473	0.17523	0.12199	0.35844	0.085514	-1.7042	-2.0292	-1.5146	-2.2438	-1.7875	-1.6146	-2.4521	-1.8167	-1.8167	-2.2562	-1.6458	-2.0479	-2.1917	-1.875	-2.25	-1.6896	114.233	99.450	158.848	373.665	313.901	85.331	345.132	306.163	70.835	125.350	174.422	291.563	66.975	88.114	411.853	154.654	0.00059667	0.00012888	4.495e-05	1146.6	3.77e-06	3.1102e-06	1224.1	239.7	6.1759e-06	2.5979e-06	299.89	84.796	67.366	19.91	3.6332e-06	27.474	0.00049042	0.00044067	0.00011766	1132.8	5.355e-06	4.8141e-06	1206.3	243.49	5.3107e-06	4.7753e-06	302.01	88.328	71.309	21.412	4.5608e-06	29.638	93.111	394.307	374.359	66.767	178.039	205.763	66.857	74.909	167.480	272.449	73.942	80.681	80.905	88.552	90.750	87.338	-8191	255	
6713.227	1	1	0	0	0.10644	0.20515	0.17434	0.13862	0.30077	0.15038	0.057638	0.11334	0.10503	0.16653	0.32104	0.21463	0.083857	0.35273	0.20622	0.31096	-1.3875	-2.0646	-1.7021	-2.3646	-2.0083	-1.7354	-2.3229	-1.8167	-1.7437	-2.3604	-1.7479	-2.0792	-2.1542	-1.7333	-2.2854	-1.9583	104.885	321.111	415.841	64.934	63.716	235.776	211.715	340.329	223.064	146.563	361.760	105.030	334.382	409.383	225.431	158.602	0.00065531	0.0003569	0.00016096	1145.1	3.3253e-06	8.5019e-07	1223.7	239.77	3.091e-06	2.3799e-06	300.51	85.098	67.445	19.888	7.3533e-06	27.467	0.00047683	0.00043461	0.00011854	1138.3	5.2252e-06	4.7675e-06	1207.7	244.42	5.107e-06	4.7396e-06	303	88.878	70.915	21.341	4.6714e-06	29.783	74.689	221.240	211.199	66.873	174.695	71.903	66.780	74.894	250.310	145.834	74.222	80.908	81.223	88.146	209.027	87.891	-8191	255	
6713.346	1	1	0	0	0.34076	0.29495	0.32436	0.35519	0.080134	0.081306	0.29301	0.33672	0.22765	0.16449	0.25151	0.22222	0.13332	0.22027	0.31665	0.35519	-1.3583	-2.125	-1.6688	-2.0396	-2.1208	-1.6562	-2.1542	-1.9583	-1.7229	-2.1396	-1.7938	-1.7104	-2.2875	-1.5458	-2.1625	-1.9542	357.135	281.204	74.430	385.184	320.073	189.965	404.626	114.648	97.767	308.791	298.273	407.724	401.947	76.367	174.210	389.835	0.00030253	0.00010864	0.00017353	1144.3	4.9853e-06	6.6992e-06	1229.2	239.53	1.0698e-06	3.6206e-06	301.66	84.29	67.736	19.837	6.5876e-06	27.415	0.00045301	0.0004225	0.00012167	1139.7	4.9155e-06	4.632e-06	1213.5	244.57	4.8595e-06	4.5812e-06	304.44	88.634	70.616	21.29	5.0113e-06	29.826	75.024	381.687	125.475	66.965	330.173	292.317	66.865	74.389	377.661	285.905	74.223	80.589	81.024	88.565	225.075	87.768	-8191	255	
6713.417	1	1	0	0	0.2457	0.2581	0.10976	0.28254	0.080103	0.15301	0.34536	0.298	0.090528	0.3149	0.10157	0.15149	0.12056	0.2539	0.20436	0.10668	-1.475	-2.0958	-1.6208	-1.9833	-2.1271	-1.6458	-2.3646	-2.0521	-1.6313	-2.1292	-1.825	-1.9042	-2.3354	-1.775	-2.0042	-1.9813	276.903	411.169	212.638	398.394	88.958	306.091	342.112	404.265	270.841	69.623	366.747	218.266	305.796	88.516	321.170	64.311	0.00053433	0.0008362	0.00017215	1140	4.412e-06	6.8317e-07	1225.2	239.15	8.0607e-06	2.3806e-06	301.7	84.627	68.055	19.816	4.9996e-06	27.476	0.0004445	0.000418	0.00013081	1137.8	4.8399e-06	4.5796e-06	1213.5	244.07	4.8076e-06	4.5638e-06	306.07	88.433	70.416	21.239	5.2243e-06	29.557	98.098	132.345	124.077	67.165	237.404	235.481	66.782	74.488	183.255	163.033	74.140	80.700	80.951	88.491	187.591	87.833	-8191	255	
6713.514	1	1	0	0	0.022655	0.14622	0.31135	0.55445	0.040965	0.22765	0.019704	0.031749	0.066103	0.15049	0.10473	0.22694	0.27365	0.14404	0.2342	0.071908	-1.3042	-2.0708	-1.8979	-1.9125	-2.1896	-1.5542	-2.2625	-2.2	-1.4792	-2.2542	-2.0187	-2.0354	-2.1208	-1.7667	-1.9625	-2.1562	218.111	101.245	90.157	367.207	344.740	396.936	176.151	332.636	266.749	98.449	327.687	328.303	310.833	117.770	61.453	69.306	0.00060778	0.00030021	0.00021649	1142.1	2.7381e-07	7.5152e-06	1223.3	238.83	3.4426e-06	4.5593e-06	301.66	84.609	67.901	19.836	6.1717e-06	27.249	0.00042575	0.0004152	0.00013367	1134.7	4.6101e-06	4.5713e-06	1214.7	243.16	4.6291e-06	4.6279e-06	307.13	88.048	69.995	21.298	5.3515e-06	29.315	80.261	219.282	132.246	66.954	124.934	204.980	67.180	74.715	393.616	256.327	74.326	80.653	81.272	88.248	256.040	87.759	-8191	255	
6713.634	1	1	0	0	0.14488	0.066113	0.46404	0.15166	0.33892	0.087231	0.24962	0.31453	0.15841	0.20794	0.15174	0.070024	0.12491	0.46516	0.050949	0.10909	-1.1646	-2.3312	-2.1771	-1.9	-2.4104	-1.5667	-2.1354	-2.3	-1.5333	-2.2833	-2.2208	-1.7604	-2.4083	-1.6396	-1.8979	-2.2792	271.548	378.046	156.505	357.762	346.905	414.261	333.224	375.098	110.545	258.667	281.500	88.329	397.285	413.704	237.440	219.535	0.00028634	0.00060856	0.00014274	1140.9	3.5156e-06	7.2822e-06	1220.9	238.51	1.7394e-06	4.401e-06	301.27	85.227	67.773	19.932	4.9562e-06	27.473	0.00041634	0.00043195	0.00013745	1130.5	4.5389e-06	4.839e-06	1215.3	242.2	4.501e-06	4.8695e-06	306.71	87.692	69.828	21.523	5.2747e-06	29.227	111.757	137.307	328.022	67.056	224.834	158.371	66.885	74.541	332.872	207.685	73.858	80.673	81.234	88.700	263.897	87.638	-8191	255	
6713.730	1	1	0	0	0.12623	0.25119	0.29955	0.19023	0.1334	0.149	0.18992	0.36245	0.21654	0.076621	0.17041	0.2473	0.4151	0.11055	0.070344	0.0402	-1.2375	-2.0292	-2.05	-1.65	-2.3292	-1.8417	-1.9062	-2.3958	-1.7167	-2.0792	-2.3625	-1.4708	-2.2125	-1.7812	-1.8104	-2.2271	161.133	324.174	415.141	287.316	374.487	59.628	412.552	373.528	340.349	398.882	342.899	263.427	149.060	225.048	117.724	147.704	0.0006519	0.00031769	0.00016776	1144.5	3.795e-06	8.9804e-06	1226.1	238.91	7.4554e-06	3.3963e-06	301.88	84.294	67.354	19.762	8.6071e-06	27.236	0.00040902	0.00046134	0.00013313	1131.2	4.4846e-06	5.1248e-06	1215	241.52	4.4811e-06	5.1921e-06	305.61	87.182	69.963	21.682	5.1688e-06	29.084	81.988	180.334	367.201	67.200	245.223	212.765	66.967	74.639	149.094	219.408	73.935	80.673	81.332	88.564	60.086	87.416	-8191	255	
6713.826	1	1	0	0	0.34859	0.06609	0.28383	0.29386	0.17502	0.26937	0.15179	0.24876	0.03637	0.092688	0.050514	0.17316	0.12183	0.0161	0.22731	0.1686	-1.3354	-2.1208	-2.2708	-1.6979	-2.1479	-1.8062	-2.0625	-2.4417	-1.7771	-2.0312	-2.2896	-1.5812	-2.2562	-2.0479	-1.6021	-2.2458	385.251	372.984	82.243	409.413	169.831	310.872	263.602	67.217	272.001	369.000	334.185	327.110	296.083	393.416	192.752	337.331	0.00089886	0.00044649	0.00016782	1140.7	5.3798e-06	7.3635e-06	1228	238.69	1.3025e-05	6.9993e-07	298.67	84.666	67.642	19.875	6.5575e-06	27.153	0.00042365	0.00048647	0.00012973	1128.9	4.6738e-06	5.3664e-06	1211.8	241.07	4.7022e-06	5.3709e-06	303.81	87.209	70.218	21.767	4.8422e-06	29.041	78.572	128.263	159.136	66.834	160.618	118.697	66.961	74.491	167.627	274.124	74.263	80.908	81.226	88.109	319.278	87.666	-8191	255	
6713.947	1	1	0	0	0.15603	0.17134	0.28014	0.30261	0.094606	0.06211	0.17949	0.098482	0.13708	0.13426	0.38456	0.2242	0.06192	0.28804	0.25501	0.23498	-1.3875	-1.8125	-2.2438	-1.8729	-2.1167	-2.025	-1.7437	-2.6	-1.9708	-1.7938	-2.4271	-1.4667	-2.3146	-2.125	-1.7042	-2.3208	382.221	409.068	382.124	362.666	214.955	72.970	402.786	309.283	117.244	384.509	127.889	268.007	284.435	405.263	404.935	395.488	0.00094361	0.00085743	0.00026698	1141.5	5.5712e-06	3.8241e-06	1225.8	238.8	3.7516e-06	2.0165e-06	299.72	84.796	66.725	19.845	2.7803e-06	27.303	0.00044241	0.00048169	0.00012343	1127.3	4.9093e-06	5.2718e-06	1209.2	240.76	5.021e-06	5.2483e-06	302.97	87.041	70.608	21.64	4.7388e-06	28.948	78.599	137.628	360.845	67.000	188.064	330.429	67.180	74.421	209.923	119.838	74.205	81.072	81.285	87.923	361.540	87.583	-8191	255	
6714.019	1	1	0	0	0.047882	0.050952	0.17471	0.11384	0.060071	0.056211	0.28024	0.20163	0.22303	0.11951	0.14449	0.16069	0.088683	0.21268	0.13226	0.25808	-1.5438	-1.7	-2.2792	-1.9062	-1.8542	-2.0646	-1.5688	-2.4292	-1.8479	-1.8646	-2.1437	-1.7104	-2.1646	-2.0583	-1.5792	-2.0875	405.540	356.385	198.789	391.683	344.868	95.160	372.833	385.306	342.848	331.026	383.092	115.915	381.227	139.340	347.678	362.202	0.00053969	0.00032137	0.00013693	1140.6	2.3566e-06	8.3797e-06	1218.6	238.98	7.0455e-07	1.4449e-06	300.54	84.73	67.382	19.804	9.2144e-06	27.343	0.00047058	0.00046949	0.00012202	1126.9	5.1989e-06	5.0965e-06	1208	240.62	5.2823e-06	5.0628e-06	302.38	87.091	71.037	21.514	4.6254e-06	29.072	85.140	209.930	314.434	66.779	136.969	194.065	67.023	74.923	283.588	185.973	73.912	80.779	81.465	88.356	186.344	87.669	-8191	255	
6714.113	1	1	0	0	0.037863	0.21973	0.080705	0.36394	0.19292	0.13221	0.10733	0.29461	0.099865	0.046209	0.32681	0.27759	0.27076	0.12168	0.17377	0.15949	-1.5833	-1.8563	-2.2854	-2	-1.95	-2.1437	-1.7229	-2.1833	-1.9208	-1.6667	-2.4604	-1.8563	-1.9792	-2.3	-1.5458	-2.1875	249.749	81.360	172.622	65.622	245.858	334.872	336.286	288.519	94.644	158.890	371.806	284.081	410.400	391.185	86.577	289.312	0.00080044	0.00024307	5.3533e-05	1140.9	4.7835e-06	4.602e-06	1225.5	239.76	7.7402e-06	2.5479e-06	298.84	85.227	67.329	19.789	8.0576e-06	27.183	0.0004875	0.00044535	0.00011714	1127.3	5.2796e-06	4.8067e-06	1205.6	241.4	5.2684e-06	4.7631e-06	301.27	87.529	70.907	21.331	4.5091e-06	29.252	69.442	131.916	311.148	67.056	257.341	329.708	67.266	74.366	123.561	86.436	74.071	81.103	81.139	88.530	141.636	87.947	-8191	255	
6714.234	1	1	0	0	0.28045	0.28282	0.21995	0.37225	0.1249	0.26203	0.25831	0.14638	0.29789	0.1839	0.25657	0.13934	0.2296	0.096618	0.12073	0.27789	-1.5917	-1.7667	-2.1479	-1.6646	-1.9625	-2.1083	-1.7396	-2.4021	-2.0021	-1.8	-2.3646	-1.8625	-1.8208	-2.2438	-1.6646	-2.325	134.702	307.861	289.701	361.550	271.660	154.216	328.102	224.994	300.544	301.609	380.662	388.414	99.673	292.955	211.421	196.601	0.00038557	0.00048329	2.3569e-05	1136.6	1.225e-06	2.4139e-06	1218.1	238.83	6.1882e-06	2.876e-06	300.06	84.943	66.893	19.859	8.7601e-06	27.405	0.00048013	0.00042967	0.00011451	1129.9	5.1693e-06	4.6896e-06	1202.8	242.39	5.1294e-06	4.6293e-06	301.24	88.031	70.631	21.276	4.5079e-06	29.412	63.829	136.725	184.423	67.096	139.149	87.072	66.757	74.619	358.015	236.906	74.143	80.963	81.402	88.476	179.457	87.507	-8191	255	
6714.330	1	1	0	0	0.082201	0.055486	0.24577	0.3407	0.1703	0.13435	0.14224	0.26593	0.12599	0.14574	0.17234	0.20729	0.11913	0.11789	0.28948	0.2948	-1.5312	-1.6167	-2.1625	-1.9708	-1.9167	-2.1021	-2.1208	-2.15	-2.1583	-1.5625	-2.0187	-2.0938	-1.8458	-2.2729	-1.7563	-1.8854	277.311	92.215	264.755	398.282	378.752	166.490	318.331	216.650	224.301	262.280	126.434	137.979	388.511	394.202	315.059	251.125	0.00045371	8.0746e-05	0.00012138	1142.4	1.881e-06	4.0605e-06	1223.4	239.62	4.0904e-06	5.0855e-07	299.77	85.456	67	19.814	6.7034e-06	27.309	0.00046124	0.00042195	0.0001154	1134.1	4.9855e-06	4.6196e-06	1205.3	243.77	4.9717e-06	4.6249e-06	302.26	88.753	70.372	21.278	4.743e-06	29.672	106.254	122.279	153.086	66.973	315.786	401.904	67.008	74.690	165.220	161.550	74.084	80.529	81.477	88.543	197.866	87.694	-8191	255	
6714.426	1	1	0	0	0.34775	0.19941	0.22911	0.19647	0.23159	0.17424	0.28269	0.066107	0.1051	0.18855	0.22412	0.066174	0.047028	0.14934	0.11896	0.32127	-1.6354	-1.675	-2.1937	-2.1854	-1.6458	-2.35	-1.9354	-2.1375	-2.0812	-1.6229	-2.175	-2.1542	-1.6562	-2.2896	-1.8646	-1.8667	146.674	167.352	88.015	59.528	255.921	220.989	345.694	210.214	113.270	258.255	324.196	251.625	77.678	367.591	176.572	325.898	0.00080332	0.00028577	0.0002365	1143	5.1556e-06	6.3932e-06	1227	238.72	3.6991e-06	7.9245e-07	299.46	85.169	67.016	19.684	1.1731e-05	27.313	0.0004458	0.00041538	0.00012292	1135.2	4.8266e-06	4.5066e-06	1210.5	243.27	4.7844e-06	4.508e-06	303.36	88.485	70.302	21.194	5.1252e-06	29.582	88.918	287.282	180.774	66.760	237.726	121.288	67.007	74.684	413.027	178.708	74.343	81.081	81.327	88.381	224.994	87.558	-8191	255	
6714.522	1	1	0	0	0.12101	0.065415	0.10559	0.16754	0.11477	0.3418	0.05883	0.069853	0.086801	0.10272	0.25704	0.044388	0.094713	0.12094	0.27607	0.14171	-1.7687	-1.4729	-2.1083	-2.1292	-1.8542	-2.125	-2.0104	-1.7583	-2.2417	-1.6271	-2.1104	-2.0542	-1.6562	-2.3375	-1.9562	-1.725	91.495	372.643	151.559	171.076	381.707	134.253	401.286	96.953	75.472	270.224	258.085	382.980	306.314	131.772	177.268	389.045	0.00071227	0.00024275	6.0263e-05	1140.2	2.9801e-06	7.4457e-06	1225.3	239.08	6.0459e-06	2.1754e-06	299.81	83.595	66.88	19.861	4.7212e-06	27.473	0.00043706	0.00041852	0.00013139	1134.8	4.776e-06	4.5626e-06	1213.3	243.3	4.7637e-06	4.6197e-06	305.84	87.947	69.884	21.258	5.3863e-06	29.493	96.943	137.767	102.950	66.790	197.056	240.098	67.021	74.562	61.254	65.184	74.167	80.791	81.245	88.426	394.817	88.350	-8191	255	
6714.594	1	1	0	0	0.16785	0.24291	0.25621	0.39019	0.045324	0.19729	0.35076	0.10614	0.27028	0.064083	0.11084	0.19829	0.073482	0.22792	0.097912	0.049435	-1.9875	-1.6854	-1.95	-2.2708	-1.6417	-2.4729	-1.9438	-1.8563	-2.2604	-1.8729	-2.0417	-2.0792	-1.6104	-2.2875	-2.0062	-1.8958	198.682	217.120	261.231	379.902	228.626	409.286	335.223	313.435	267.518	303.667	57.633	108.607	184.042	148.123	385.321	218.220	0.00062379	0.00024578	0.00015669	1138.9	3.8373e-06	5.1713e-06	1220.1	238.6	7.0741e-06	3.6321e-06	299.5	84.284	67.091	19.741	4.6726e-06	27.209	0.00042792	0.00042591	0.00013731	1130.7	4.6866e-06	4.6909e-06	1213.6	241.69	4.6543e-06	4.8394e-06	306.83	87.721	69.884	21.41	5.5276e-06	29.345	85.439	253.804	153.611	66.917	262.566	80.264	66.948	74.728	205.243	222.551	74.075	80.958	81.255	88.086	125.063	87.931	-8191	255	
6714.715	1	1	0	0	0.029763	0.3782	0.040509	0.23452	0.11914	0.10849	0.22972	0.22168	0.086703	0.25264	0.16372	0.18522	0.3074	0.038938	0.27838	0.23479	-1.85	-1.5542	-1.8188	-2.3854	-1.4167	-2.1979	-2.0771	-1.9917	-2.075	-1.8792	-1.8104	-2.325	-1.825	-2.1479	-2.0833	-1.6208	374.794	343.035	120.259	370.484	338.841	112.954	327.946	410.671	335.660	59.039	66.981	338.735	415.504	326.782	312.669	269.381	0.00035719	0.0011396	7.865e-05	1139.6	3.8269e-06	1.7215e-06	1221.8	239.19	1.3678e-06	7.2078e-06	297.86	84.195	67.009	19.92	4.4183e-06	27.314	0.00042669	0.00045792	0.00013888	1129.8	4.6477e-06	5.0417e-06	1213.9	242.28	4.5555e-06	5.1315e-06	305.87	87.342	69.711	21.632	5.3741e-06	29.241	79.367	129.344	89.312	66.957	161.098	107.793	66.624	74.498	175.652	270.410	74.073	80.737	81.390	88.471	397.139	87.342	-8191	255	
6714.811	1	1	0	0	0.1587	0.11071	0.24379	0.435	0.072891	0.23249	0.2939	0.077595	0.065541	0.11064	0.31252	0.37423	0.26136	0.27039	0.12707	0.27017	-1.7125	-1.6542	-1.7667	-2.4021	-1.575	-2.0208	-2.1875	-1.9667	-2.1958	-1.8667	-1.9937	-2.2062	-1.8167	-1.95	-2.0729	-1.6729	217.482	159.354	251.529	368.665	244.456	259.588	376.111	314.189	258.332	290.212	304.194	399.716	411.068	307.484	202.529	143.237	0.00068611	0.00028383	0.00022051	1136.6	3.2882e-06	1.151e-05	1221	238.73	7.7337e-06	4.3252e-06	299.68	84.633	67.473	19.832	7.1296e-06	27.28	0.00042133	0.00047778	0.00013305	1126.6	4.6079e-06	5.2828e-06	1209.9	241.5	4.5707e-06	5.3527e-06	303.85	87.212	69.915	21.612	5.0601e-06	29.095	73.486	146.007	402.071	66.799	121.147	198.812	67.125	74.473	236.684	227.022	74.131	80.516	81.314	88.354	147.164	87.646	-8191	255	
6714.907	1	1	0	0	0.30075	0.28958	0.16934	0.33283	0.10404	0.19495	0.22578	0.20562	0.094052	0.13001	0.21541	0.17415	0.16725	0.06079	0.047341	0.093769	-1.6292	-1.8667	-1.8896	-2.4958	-1.6604	-1.8563	-2.2938	-1.6812	-2.1021	-1.9438	-1.5896	-2.3521	-1.7354	-1.9979	-2.1854	-1.6542	144.004	83.010	128.291	352.074	204.382	99.626	344.437	91.805	338.759	255.246	158.663	372.940	374.567	261.415	126.358	380.594	0.00059973	0.00058724	0.00015688	1140.4	1.0749e-05	1.4455e-06	1222.2	239.56	7.7369e-06	2.3748e-06	298.05	84.65	67.386	19.965	6.8016e-06	27.188	0.00042687	0.00049741	0.00012826	1126.3	4.8269e-06	5.4426e-06	1207.8	241.41	4.9779e-06	5.5309e-06	303.83	87.213	70.598	21.847	5.0608e-06	29.111	99.155	181.620	267.451	66.796	200.431	134.393	66.728	74.578	155.494	206.746	73.905	80.965	81.129	88.657	187.459	87.473	-8191	255	
6715.028	1	1	0	0	0.17535	0.20262	0.27616	0.31162	0.2834	0.10147	0.17374	0.15165	0.13368	0.20281	0.22402	0.50725	0.18767	0.228	0.11257	0.17249	-1.6292	-1.9396	-1.7042	-2.4167	-1.7625	-1.8958	-2.5292	-1.9229	-2.1458	-2.2292	-1.7833	-2.4146	-1.8021	-2.1146	-2.2438	-1.75	129.787	85.220	388.973	364.800	111.441	72.705	364.972	341.824	222.248	390.254	261.109	377.743	295.820	294.949	247.944	64.366	0.00090455	0.00017675	5.8758e-05	1137.9	8.7897e-06	7.2303e-06	1225.2	239.57	1.4212e-05	2.5619e-06	299	84.51	67.72	19.69	4.286e-06	27.366	0.00047211	0.00049891	0.00012759	1123.9	5.2345e-06	5.4241e-06	1209.8	241.18	5.2994e-06	5.3906e-06	303.19	87.018	71.136	21.623	4.9174e-06	29.082	87.902	344.084	391.694	66.834	180.286	194.542	66.888	74.538	188.778	247.043	73.778	80.718	80.931	88.365	206.412	87.492	-8191	255	
6715.122	1	1	0	0	0.142	0.1173	0.26936	0.14278	0.23168	0.15153	0.36118	0.25357	0.29899	0.094201	0.094674	0.18937	0.12575	0.1636	0.17278	0.12227	-1.8146	-2.1458	-1.5354	-2.3187	-1.7021	-1.9521	-2.3917	-1.8542	-2.0833	-2.1417	-1.7979	-2.3354	-1.8875	-1.7687	-2.3229	-1.8792	226.209	295.749	255.572	384.073	410.334	197.920	370.508	365.759	365.587	392.475	288.203	374.149	336.572	327.826	204.354	59.806	0.00075787	0.00065841	4.2048e-05	1137.1	1.0761e-05	2.0013e-06	1227.9	238.8	4.2249e-06	3.8777e-06	297.66	84.907	67.116	19.771	9.4551e-06	27.392	0.00049254	0.00048123	0.00012286	1125.6	5.4365e-06	5.1694e-06	1206.6	240.87	5.4252e-06	5.0876e-06	301.97	87.303	71.438	21.473	4.7533e-06	29.277	95.998	99.817	118.371	66.942	211.583	76.848	66.953	74.465	224.157	331.712	74.319	80.700	81.328	88.015	292.524	87.667	-8191	255	
6715.218	1	1	0	0	0.18333	0.014945	0.21792	0.2386	0.38746	0.050308	0.30582	0.13567	0.028332	0.21888	0.19715	0.16677	0.21635	0.17343	0.32154	0.1827	-1.4333	-2.2958	-1.6958	-2.2292	-2.0458	-1.6229	-2.2708	-1.9083	-1.9104	-2.05	-1.5625	-2.2146	-2.0625	-1.6833	-2.3146	-1.9375	212.858	134.406	87.107	395.130	348.462	184.856	401.554	73.853	400.479	303.139	393.356	353.877	385.640	135.725	230.634	302.451	0.00033112	0.00014761	0.00014044	1131.2	2.6001e-06	2.1717e-06	1217.6	237.96	8.0827e-06	3.2216e-06	299.34	85.008	67.105	19.681	7.0689e-06	27.307	0.00050057	0.00045596	0.00012008	1127.6	5.5164e-06	5.0136e-06	1203.7	241.99	5.4113e-06	4.9087e-06	301.33	87.87	71.284	21.378	4.6242e-06	29.462	65.288	269.293	178.477	67.068	318.422	182.368	66.926	74.699	172.820	97.715	73.982	81.017	81.557	88.604	184.896	87.835	-8191	255	
6715.314	1	1	0	0	0.25243	0.25547	0.1791	0.39856	0.06463	0.18935	0.17472	0.22295	0.10747	0.2272	0.33552	0.1084	0.20911	0.29221	0.17542	0.31554	-1.5292	-2.2292	-1.5875	-2.2625	-2.1042	-1.5604	-2.4917	-1.8396	-1.6417	-2.0312	-1.9708	-2.1104	-2.1417	-1.8083	-2.3854	-1.9917	365.193	244.088	165.929	348.532	373.977	203.598	371.920	382.722	146.631	268.934	120.014	119.144	412.534	178.912	106.891	332.161	0.00057423	0.0005989	0.00010521	1139	4.6645e-06	2.2943e-06	1219	237.83	7.5871e-06	3.6544e-06	297.47	84.392	66.678	19.893	8.0228e-06	27.053	0.00048766	0.00043987	0.00011804	1132.3	5.2652e-06	4.8001e-06	1202.1	242.83	5.1974e-06	4.7328e-06	300.81	88.258	70.505	21.281	4.6741e-06	29.572	111.100	127.176	75.554	67.026	182.035	190.034	66.834	74.913	266.225	176.482	74.077	80.961	80.990	88.295	232.658	87.724	-8191	255	
6715.410	1	1	0	0	0.20091	0.1256	0.21483	0.19047	0.043608	0.066731	0.21695	0.14671	0.18072	0.11752	0.18453	0.1274	0.15043	0.26432	0.1715	0.20186	-1.3479	-2.2542	-1.65	-2.2667	-1.8042	-1.5708	-2.4229	-1.8771	-1.8354	-2.225	-1.7708	-2.0958	-2.2125	-1.6542	-2.1625	-2.0396	146.514	156.701	108.981	393.816	78.798	403.435	320.820	391.727	57.189	97.791	330.551	319.027	163.835	361.020	166.201	217.840	0.00069916	0.00057784	0.00012723	1136.4	3.5665e-06	5.6184e-06	1222.1	239.34	9.2815e-07	3.115e-06	297.91	84.605	66.928	19.721	1.0114e-05	27.188	0.00046214	0.0004262	0.00011939	1132.5	4.9752e-06	4.6397e-06	1202.3	243.64	4.9274e-06	4.6e-06	301.81	88.407	70.152	21.217	4.8527e-06	29.672	77.221	353.948	157.457	66.780	196.156	217.446	67.077	74.664	302.244	393.962	74.427	80.914	81.249	88.125	245.485	88.018	-8191	255	
6715.507	1	1	0	0	0.14622	0.22618	0.19627	0.31067	0.19662	0.3601	0.10685	0.14892	0.16417	0.14814	0.19069	0.25044	0.20664	0.19954	0.21926	0.21261	-1.1667	-2.3792	-1.6042	-2.1813	-2.2354	-1.7437	-2.2021	-1.9875	-1.8937	-2.2021	-1.9396	-2.0167	-2.1146	-1.7354	-2.0833	-2.1583	207.430	151.354	258.677	368.272	255.655	334.254	414.197	368.905	413.750	323.885	370.974	388.344	206.764	69.997	99.891	194.526	0.00037994	0.00036163	0.00019308	1135.9	3.248e-06	7.1018e-06	1218.5	237.13	4.3646e-06	2.8365e-06	300.11	84.361	67.177	19.766	4.1911e-06	26.991	0.00044134	0.00041795	0.00012876	1131	4.8438e-06	4.5697e-06	1206.6	242.81	4.8313e-06	4.5879e-06	304.16	88.283	70.06	21.191	5.2481e-06	29.498	67.381	66.121	142.100	66.715	179.439	195.596	66.899	74.885	319.663	275.403	73.953	80.835	81.311	88.536	249.717	87.812	-8191	255	
6715.627	1	1	0	0	0.30946	0.20943	0.19438	0.17225	0.15149	0.10169	0.084616	0.07654	0.17784	0.17817	0.27794	0.12533	0.14861	0.27136	0.030438	0.08493	-1.2333	-2.3167	-1.7563	-1.9875	-2.1771	-1.8021	-2.4292	-2.0417	-1.6437	-2.0938	-2.1771	-1.9333	-2.3146	-1.7687	-1.9771	-2.0187	273.028	109.679	83.359	111.440	311.247	359.250	311.315	334.945	326.959	313.004	414.305	137.613	241.917	297.639	342.155	355.760	0.00073812	0.00043229	0.00017364	1139.8	4.7838e-06	5.0408e-06	1220.5	237.84	4.6845e-06	4.9272e-06	297.72	84.97	67.21	19.845	5.3054e-06	27.091	0.0004375	0.0004142	0.00013476	1130.5	4.6982e-06	4.5634e-06	1210.3	241.81	4.6364e-06	4.5271e-06	304.68	87.883	69.65	21.231	5.3513e-06	29.22	79.179	161.169	98.521	66.884	291.965	198.421	66.792	74.387	86.227	224.465	74.460	81.090	81.372	88.453	156.651	87.534	-8191	255	
6715.723	1	1	0	0	0.15953	0.10343	0.23702	0.27765	0.17868	0.10694	0.17016	0.22061	0.065035	0.12022	0.19641	0.074524	0.16803	0.20849	0.15197	0.086981	-1.2375	-2.2125	-2.0417	-2.0333	-2.3708	-1.7958	-2.0563	-2.3187	-1.7521	-2.1146	-2.0083	-1.7563	-2.3563	-1.8771	-1.7896	-2.4938	208.938	265.431	310.320	406.269	386.662	407.240	372.856	395.389	107.988	328.310	162.090	104.489	335.806	351.569	339.781	311.483	0.00037483	0.00035696	7.5918e-05	1134	2.7608e-06	7.9885e-06	1219.5	237.48	4.568e-06	7.4019e-06	299.19	84.437	67.224	19.687	9.149e-06	27.164	0.00041614	0.0004236	0.00013612	1124.3	4.5188e-06	4.6791e-06	1208.2	240.5	4.464e-06	4.7413e-06	305.1	87.093	69.269	21.344	5.2256e-06	29.043	82.609	65.048	377.077	67.000	64.738	104.769	66.919	74.669	233.714	289.038	73.938	80.631	81.425	88.605	139.291	87.310	-8191	255	
6715.819	1	1	0	0	0.14039	0.30899	0.20045	0.09144	0.13323	0.10443	0.29397	0.19388	0.086633	0.21922	0.24162	0.10244	0.09069	0.13741	0.16562	0.21652	-1.4042	-2.2208	-1.8417	-1.8146	-2.275	-1.7083	-2.1896	-2.1125	-1.5958	-2.3583	-2.1208	-1.7792	-2.3604	-1.9312	-2.0354	-2.2917	244.846	138.690	336.230	351.853	142.651	208.703	342.480	414.093	247.135	108.120	297.972	339.561	325.058	146.444	181.859	369.528	0.00045887	0.00085106	0.00011597	1135.2	3.8852e-06	9.3591e-06	1218.3	237.65	1.0325e-05	5.1359e-06	297.77	83.931	67.027	19.824	7.0675e-06	27.065	0.0004035	0.00044346	0.00013258	1122.2	4.3937e-06	4.962e-06	1205.2	240.03	4.4027e-06	5.0268e-06	303.09	86.595	69.364	21.476	5.0095e-06	28.88	98.852	185.921	397.768	66.980	276.069	141.804	66.904	74.655	164.559	227.268	74.027	80.863	81.367	88.322	116.107	87.689	-8191	255	
6715.891	1	1	0	0	0.15776	0.024075	0.17122	0.28968	0.065217	0.076386	0.18611	0.12376	0.11298	0.21464	0.35271	0.087144	0.068709	0.070662	0.12089	0.11909	-1.3479	-2.1125	-2.0604	-1.8104	-2.1854	-2.0042	-2.175	-2.4146	-1.8917	-2.2313	-2.3125	-1.6771	-2.2812	-1.8583	-2.0896	-2.3063	262.267	279.175	323.436	336.684	371.139	201.346	406.377	209.465	192.795	301.654	73.392	402.017	373.845	264.952	249.320	232.670	0.00068443	0.00059003	3.6132e-05	1139	6.5034e-06	4.4207e-06	1214.9	237.71	5.0672e-06	3.0465e-06	300.8	84.365	66.99	19.915	7.5628e-06	27.383	0.0004044	0.00046612	0.0001262	1122.4	4.4765e-06	5.216e-06	1202.2	239.54	4.5852e-06	5.2238e-06	303.11	86.597	69.688	21.596	4.7976e-06	28.86	100.957	113.616	360.287	66.806	167.385	178.808	67.255	74.500	198.081	312.153	74.351	80.964	81.528	88.130	196.893	87.645	-8191	255	
6716.010	1	1	0	0	0.08018	0.43424	0.25943	0.10032	0.19759	0.071504	0.13097	0.084306	0.037788	0.13893	0.19645	0.15209	0.1412	0.31692	0.32279	0.1216	-1.3792	-2.0438	-1.9979	-1.9	-2.1729	-2.0687	-1.8479	-2.4667	-1.8479	-1.9667	-2.4396	-1.7125	-2.1	-2.15	-1.7396	-2.3187	128.881	79.300	116.855	402.795	104.515	155.917	413.202	253.887	175.566	266.013	393.683	345.557	103.988	339.521	150.277	244.878	0.00075922	0.00035231	0.00014989	1131.5	1.0195e-05	3.1957e-06	1214.3	236.47	8.1284e-06	3.4289e-06	299.48	84.407	67.719	19.692	7.2976e-07	27.519	0.000429	0.00047875	0.00012194	1120.1	4.7202e-06	5.2173e-06	1201.3	239.17	4.8334e-06	5.1551e-06	300.72	86.54	70.147	21.507	4.6569e-06	28.744	71.726	408.793	127.959	66.990	202.904	315.475	67.043	74.408	168.903	254.351	74.061	80.355	81.605	88.096	121.352	87.524	-8191	255	
6716.106	1	1	0	0	0.11563	0.11475	0.36343	0.27155	0.16927	0.16567	0.11173	0.077727	0.19389	0.23429	0.21501	0.18091	0.15656	0.27195	0.15702	0.198	-1.4833	-1.9562	-2.5167	-1.7437	-2.0167	-2.0687	-1.7542	-2.375	-1.9375	-1.95	-2.4562	-1.7229	-2.2	-2.0667	-1.6958	-2.2354	337.873	168.469	342.983	412.175	267.901	79.949	344.786	323.657	63.378	85.466	160.122	409.532	142.977	384.913	86.432	410.276	0.00084906	0.0002436	0.00014078	1133.7	7.8182e-06	2.5962e-06	1221.2	237.31	9.0029e-06	4.8067e-06	299.07	84.697	67.481	19.771	2.0315e-06	27.335	0.00044441	0.00045636	0.00011598	1119.3	4.9261e-06	4.937e-06	1202	239.44	4.9976e-06	4.9029e-06	300.27	86.362	70.653	21.389	4.5089e-06	28.773	63.864	137.488	177.946	66.893	201.196	285.737	66.955	74.612	172.306	259.285	74.180	80.764	81.327	88.328	371.198	87.901	-8191	255	
6716.202	1	1	0	0	0.34627	0.15632	0.035993	0.2929	0.094055	0.035124	0.15344	0.10343	0.25809	0.20397	0.05379	0.19409	0.15028	0.237	0.21739	0.068213	-1.4562	-1.7687	-2.2104	-2.0875	-1.9542	-2.0354	-1.8687	-2.0833	-1.9458	-1.9	-2.2354	-1.8604	-1.9542	-2.1417	-1.8021	-2.3396	146.670	219.665	106.071	102.304	248.948	267.990	303.687	276.711	117.775	121.130	68.372	415.526	79.016	89.176	56.946	181.710	0.0010382	0.00039328	0.00011105	1138.4	4.9091e-06	5.3488e-06	1216.8	237.16	3.391e-06	5.7159e-06	295.62	84.461	66.745	19.634	5.1125e-06	27.218	0.00046527	0.00043569	0.00011288	1120.6	5.0829e-06	4.7103e-06	1198.5	239.58	5.1108e-06	4.658e-06	298.66	86.989	70.495	21.204	4.4357e-06	29.041	93.487	362.362	82.633	66.909	394.457	325.529	67.105	74.471	120.909	111.993	74.081	81.152	81.195	88.347	323.987	88.297	-8191	255	
6716.298	1	1	0	0	0.42646	0.057026	0.17955	0.18674	0.035078	0.16711	0.19427	0.04938	0.062473	0.13594	0.12899	0.23965	0.21404	0.20642	0.2542	0.12715	-1.4771	-1.675	-2.3167	-1.9104	-2.0229	-2.2667	-1.7938	-2.1958	-1.8563	-1.8333	-2.4333	-1.8417	-2.05	-2.4104	-1.8021	-2.1875	212.440	339.811	389.965	360.319	205.737	254.963	375.192	163.198	415.143	306.929	387.324	88.848	388.886	97.823	390.837	329.765	0.00032745	0.00032682	0.00017145	1132.4	4.3641e-06	2.2611e-06	1215.6	237.65	7.2176e-06	3.0978e-06	298.85	84.584	67.159	19.942	8.5929e-06	27.066	0.00046506	0.00041964	0.00011064	1123.6	5.0771e-06	4.6014e-06	1196	240.61	5.077e-06	4.5853e-06	299.45	87.615	70.564	21.216	4.4104e-06	29.271	81.720	106.608	202.660	66.887	105.055	141.044	67.032	74.765	82.698	397.771	74.111	80.475	81.496	88.437	206.861	87.450	-8191	255	
6716.419	1	1	0	0	0.11221	0.084413	0.24117	0.27617	0.26149	0.21517	0.27838	0.26992	0.18631	0.31131	0.21442	0.088799	0.28573	0.13766	0.19515	0.21877	-1.7396	-1.6833	-2.2521	-2.0812	-1.8667	-2.3354	-2.0354	-2.1854	-2.2188	-1.7292	-2.2938	-1.9396	-1.8542	-2.3688	-1.8208	-2.0354	107.481	398.965	387.678	372.499	190.047	177.138	407.139	83.983	223.955	164.738	222.314	214.652	88.068	226.832	196.028	396.617	0.00021653	0.00065637	2.3107e-05	1135.4	3.6285e-06	8.1358e-06	1217.7	238.4	5.9461e-06	3.8329e-06	297.04	85.101	67.089	19.746	5.704e-06	26.984	0.0004537	0.00041382	0.00011278	1127.1	4.9384e-06	4.5174e-06	1199.1	241.77	4.9243e-06	4.5326e-06	300	88.245	70.203	21.167	4.6314e-06	29.47	148.771	170.223	234.570	67.068	371.663	246.374	66.923	74.456	167.450	215.684	74.021	80.566	81.257	88.413	218.931	87.903	-8191	255	
6716.515	1	1	0	0	0.067005	0.2185	0.04106	0.23895	0.22429	0.21169	0.3853	0.22706	0.14921	0.10216	0.17661	0.28058	0.27809	0.37154	0.34127	0.083156	-1.7354	-1.7146	-2.1104	-1.8604	-1.9458	-2.2542	-1.8875	-2.1333	-2.2104	-1.65	-2.1667	-2.0062	-1.9271	-2.2771	-1.8667	-1.8229	163.589	250.353	318.887	67.864	175.337	340.983	363.062	246.640	378.531	375.060	81.864	78.620	391.350	143.044	327.465	91.141	0.00033271	0.00022278	0.00013027	1134.7	3.5408e-06	6.2064e-06	1213	237.57	4.4087e-06	3.6505e-06	297.39	84.812	67.026	19.789	7.8112e-06	27.325	0.00043989	0.00041034	0.00011779	1129	4.7468e-06	4.4452e-06	1199.7	241.75	4.6803e-06	4.4005e-06	300.69	88.212	69.764	21.094	4.8717e-06	29.509	106.651	61.549	136.019	66.848	175.648	255.295	67.115	74.532	375.191	267.952	74.070	80.940	81.515	88.415	178.456	87.547	-8191	255	
6716.587	1	1	0	0	0.1954	0.23472	0.078495	0.19133	0.27793	0.12785	0.13576	0.40726	0.13645	0.098931	0.43211	0.093128	0.14491	0.15548	0.10378	0.13156	-1.7729	-1.5958	-2.2	-2.3271	-1.7854	-2.4646	-2.2021	-1.9062	-2.3021	-1.7625	-2.3146	-2.1479	-1.5083	-2.2958	-1.9583	-1.9708	136.117	296.431	249.687	415.499	239.176	111.322	237.683	355.892	87.508	409.835	359.487	385.248	177.202	116.804	131.001	70.482	0.00038176	0.00042105	0.00023062	1131.1	2.1256e-06	2.5063e-06	1212.9	237.66	1.007e-06	1.3456e-06	300.18	83.864	67.344	19.766	9.9443e-06	27.199	0.00042559	0.00040352	0.00012638	1126.9	4.6979e-06	4.409e-06	1203.6	241.97	4.6098e-06	4.4467e-06	303.88	87.666	69.695	21.091	5.2083e-06	29.281	78.387	388.658	156.822	66.742	299.974	202.113	67.184	74.571	115.516	249.853	74.208	80.722	81.634	88.605	248.670	87.402	-8191	255	
6716.708	1	1	0	0	0.23473	0.14502	0.19952	0.21644	0.073448	0.082144	0.10309	0.23444	0.073462	0.28487	0.31904	0.22385	0.031952	0.158	0.18783	0.14408	-1.8375	-1.6479	-2.1583	-2.3646	-1.7792	-2.2625	-2.0833	-1.8667	-2.1	-1.6354	-2.2479	-2.1958	-1.4354	-2.2646	-1.9708	-1.9438	88.762	199.371	342.616	240.301	311.906	360.358	357.725	328.638	386.499	343.094	322.356	365.103	156.703	350.542	222.601	210.878	0.00039518	0.00030734	4.0616e-05	1129.9	2.0646e-06	4.1756e-06	1217	236.81	2.9548e-06	7.2357e-06	296.42	84.433	67.289	19.832	2.9166e-06	27.06	0.00041345	0.00040545	0.00013148	1124.1	4.5408e-06	4.4855e-06	1205.4	240.49	4.4809e-06	4.5509e-06	303.47	87.163	69.387	21.204	5.2307e-06	29.074	415.877	413.235	328.966	67.063	186.752	340.962	66.918	74.350	96.308	228.979	74.074	80.908	81.242	88.316	271.120	87.402	-8191	255	
6716.804	1	1	0	0	0.13249	0.12881	0.026397	0.29979	0.3235	0.10919	0.1774	0.22212	0.25287	0.12273	0.46585	0.10064	0.17209	0.12338	0.10587	0.1595	-1.875	-1.7812	-2.0833	-2.1792	-1.6354	-2.2229	-2.2875	-1.8083	-2.4542	-1.85	-1.9458	-2.2271	-1.85	-2.2313	-2.0938	-1.7938	150.757	354.926	364.263	376.287	363.281	149.648	401.017	315.593	350.710	199.829	365.160	271.274	58.024	355.824	59.695	388.400	0.00048084	0.0010838	0.00016912	1131.3	2.7772e-06	4.9214e-06	1215.6	236.66	3.588e-06	3.5068e-06	298.32	84.351	67.432	19.756	1.0139e-06	27.061	0.00039988	0.00042297	0.00013113	1120.4	4.3351e-06	4.6592e-06	1203.8	239.29	4.2772e-06	4.6755e-06	302.4	86.633	69.064	21.279	4.9221e-06	28.755	86.271	147.030	129.540	66.919	162.946	145.033	66.967	74.718	256.771	223.748	74.503	80.707	81.398	88.483	81.072	87.590	-8191	255	
6716.900	1	1	0	0	0.058457	0.16512	0.18766	0.11739	0.15507	0.26638	0.055161	0.010588	0.17317	0.1722	0.1299	0.15152	0.10476	0.09217	0.26211	0.23942	-2.0625	-1.8167	-2.2604	-2.2729	-1.75	-2.1625	-2.1521	-1.8604	-2.2938	-1.8604	-1.8	-2.3979	-1.9958	-2.0542	-2.1125	-1.7729	406.538	409.943	125.785	137.155	296.010	71.040	372.439	215.759	408.258	109.457	376.846	257.150	342.228	398.099	254.496	316.833	0.00093203	0.0006828	0.00011202	1130.3	6.4339e-06	2.4498e-06	1215.8	235.8	5.8079e-06	4.1372e-06	296.96	84.222	66.876	19.774	3.8095e-06	26.998	0.00037992	0.00043224	0.00012238	1116	4.1456e-06	4.6775e-06	1197.2	238.33	4.072e-06	4.7336e-06	299.99	85.975	68.708	21.26	4.5453e-06	28.524	70.729	157.177	105.207	67.031	202.278	143.464	66.879	74.350	182.664	263.657	74.369	81.182	81.291	88.277	222.915	87.792	-8191	255	
6716.996	1	1	0	0	0.034747	0.13066	0.2928	0.28333	0.18505	0.16094	0.29544	0.08929	0.052526	0.21746	0.10062	0.17634	0.25302	0.043021	0.11017	0.42248	-1.8792	-2.075	-1.8542	-2.5854	-1.8563	-2.2833	-2.2687	-1.7021	-2.3958	-1.9312	-2.0208	-2.1729	-1.8062	-2.0958	-2.2104	-1.6521	231.283	375.874	334.495	384.114	79.186	170.166	365.093	402.720	376.804	187.974	250.795	76.371	358.504	125.295	243.616	330.800	0.00059202	0.00066399	6.0723e-05	1132	6.268e-06	3.722e-06	1213.8	237.73	8.5027e-06	2.8792e-08	297.97	83.862	67.264	19.747	6.6806e-06	27.171	0.00037238	0.00043603	0.00011472	1111.7	4.1994e-06	4.7887e-06	1193.5	237.84	4.2418e-06	4.8017e-06	298.57	85.738	69.062	21.282	4.3871e-06	28.46	83.960	199.758	354.298	67.015	122.753	373.847	66.746	74.920	203.746	88.733	74.132	80.793	81.406	88.365	344.402	87.250	-8191	255	
6717.115	1	1	0	0	0.10554	0.095234	0.1412	0.07923	0.18544	0.15071	0.23504	0.16085	0.13794	0.010787	0.30913	0.056593	0.031688	0.19268	0.16495	0.074681	-1.8	-1.9708	-1.6562	-2.5	-1.7792	-1.9292	-2.5417	-1.8208	-2.0062	-1.9229	-1.9104	-2.3125	-2.0583	-1.7146	-2.3167	-1.8312	251.679	371.041	373.580	371.811	274.215	309.289	361.822	333.277	129.144	308.589	334.128	273.542	132.587	389.100	395.067	242.375	0.0005858	0.00054192	4.2413e-05	1122.4	3.0182e-06	1.0003e-06	1211.1	236.43	6.3845e-06	2.4303e-06	298.7	84.457	67.133	19.827	4.4523e-06	27.06	0.00039693	0.00043229	0.00010903	1107.4	4.4224e-06	4.6828e-06	1190.2	237.35	4.4709e-06	4.6894e-06	297.9	85.514	69.564	21.271	4.2746e-06	28.448	67.079	313.933	86.880	66.978	209.308	78.311	66.956	74.730	156.765	349.663	74.135	80.803	81.306	88.056	156.385	87.715	-8191	255	
6717.187	1	1	0	0	0.21187	0.031533	0.2205	0.2184	0.25969	0.24674	0.034847	0.11117	0.34171	0.14771	0.33589	0.28202	0.11698	0.2951	0.031005	0.080535	-1.5729	-2.0792	-1.6125	-2.5042	-1.8896	-1.8646	-2.4458	-1.8375	-1.9896	-2.0792	-1.8687	-2.1958	-1.9958	-1.9	-2.3729	-1.8188	360.582	316.439	232.085	329.990	142.533	242.027	158.796	182.941	146.105	240.596	181.992	175.504	388.637	58.076	121.437	169.518	0.000741	9.5436e-05	0.00013616	1130.2	4.6203e-06	5.5473e-06	1213	237.4	5.7452e-06	1.2798e-06	297.04	84.326	66.603	19.643	5.9092e-06	27.006	0.00042897	0.00042952	0.00010984	1112.3	4.8612e-06	4.6574e-06	1191.4	237.57	4.8067e-06	4.5946e-06	297.35	86.038	69.936	21.13	4.2448e-06	28.644	75.556	253.742	212.893	66.762	209.528	379.384	66.969	74.517	136.029	102.439	74.034	80.987	81.247	88.559	223.479	87.566	-8191	255	
6717.307	1	1	0	0	0.24845	0.10139	0.05038	0.4403	0.23835	0.036922	0.25308	0.23959	0.2564	0.055591	0.20927	0.037297	0.23454	0.028236	0.28803	0.31224	-1.5708	-2.2042	-1.8104	-2.6292	-1.9479	-1.8146	-2.3771	-1.9875	-1.925	-2.2583	-1.775	-2.2083	-2.0667	-1.8521	-2.2354	-1.8125	301.698	362.105	212.134	402.883	327.161	348.674	361.093	387.621	71.798	99.007	317.428	170.257	288.521	190.969	219.764	335.507	0.00055703	0.00054495	0.00012048	1126.5	2.3601e-06	6.6077e-06	1212.4	238.19	2.8725e-06	1.4425e-06	296.62	84.237	67.403	19.665	3.0693e-06	27.43	0.00044667	0.00040957	0.00010737	1113.2	4.8911e-06	4.4297e-06	1189.5	238.47	4.8336e-06	4.4171e-06	297.12	86.427	70.149	21.047	4.1309e-06	28.97	111.760	369.594	365.334	67.100	100.527	251.988	66.822	74.656	61.248	330.775	74.254	81.103	81.355	88.343	75.534	87.802	-8191	255	
6717.403	1	1	0	0	0.23794	0.066107	0.13444	0.064556	0.069619	0.10502	0.27011	0.13601	0.15191	0.2479	0.19537	0.33861	0.066324	0.038659	0.13646	0.12238	-1.6333	-2.3187	-1.6646	-2.3854	-2.1146	-1.7333	-2.3396	-1.8583	-1.9833	-2.3375	-1.8396	-2.2479	-2.2771	-1.7292	-2.1146	-2.0479	317.494	130.772	367.838	306.434	395.732	99.864	325.170	279.201	315.426	74.078	406.077	367.256	193.274	107.202	379.423	391.005	0.00073138	0.0006248	0.00014552	1130.1	2.5366e-06	1.1472e-06	1212.1	236.57	1.9602e-06	2.7869e-06	297.39	84.597	66.521	19.801	3.454e-06	27.133	0.00044299	0.00039852	0.00010601	1117.5	4.8538e-06	4.388e-06	1190.5	239.99	4.8248e-06	4.3975e-06	298.05	87.151	69.968	21.09	4.3293e-06	29.207	84.422	231.205	168.465	67.129	202.358	147.211	66.823	74.498	394.123	277.900	74.238	80.504	81.162	88.294	325.171	87.880	-8191	255	
6717.499	1	1	0	0	0.10048	0.23161	0.197	0.21952	0.23115	0.052401	0.19811	0.38452	0.40572	0.022657	0.1381	0.28286	0.1658	0.30482	0.26367	0.074829	-1.4625	-2.2375	-1.6458	-2.3021	-2.0312	-1.7521	-2.5083	-1.8333	-1.8708	-2.1896	-1.8833	-2.125	-2.2	-1.5604	-2.0917	-1.9771	223.071	70.949	379.445	370.177	172.253	57.226	303.314	362.359	316.971	185.042	412.424	307.072	89.031	399.832	388.519	320.181	0.00061674	0.00014899	0.00020734	1126.2	5.9326e-06	1.7499e-06	1212.6	237.33	9.7483e-06	2.8928e-06	298.48	84.517	67.126	19.867	1.0765e-05	27.406	0.00044025	0.0004086	0.00011291	1122.4	4.8452e-06	4.5105e-06	1193.8	241.53	4.7698e-06	4.4401e-06	299.47	87.751	69.751	21.095	4.56e-06	29.488	60.647	412.888	135.885	66.900	377.391	271.863	66.967	74.558	226.132	298.624	74.051	80.936	81.100	88.139	212.633	88.028	-8191	255	
6717.596	1	1	0	0	0.063598	0.11675	0.12632	0.24437	0.03157	0.19566	0.21963	0.099822	0.088529	0.31749	0.2849	0.25156	0.24058	0.10726	0.32259	0.060298	-1.3438	-2.25	-1.4354	-2.0708	-2.1792	-1.7083	-2.2167	-2.0292	-1.9521	-2.4	-1.8854	-2.2583	-2.2021	-1.7042	-2.0812	-2.0896	264.502	164.222	415.011	413.894	242.625	119.498	404.040	343.201	70.886	167.284	72.466	355.339	269.846	130.465	112.690	158.136	0.00049988	0.00028669	0.0001335	1131.1	2.1048e-06	6.482e-07	1210.9	235.85	6.9569e-06	3.2802e-06	297.61	83.542	67.217	19.782	1.1773e-05	27.223	0.00042446	0.0004	0.00011905	1122.8	4.6961e-06	4.4118e-06	1194.7	240.98	4.6355e-06	4.404e-06	300.83	87.584	69.625	21.075	4.9562e-06	29.348	406.784	262.001	84.294	67.258	274.674	231.373	66.950	74.495	76.255	306.561	74.339	81.173	81.007	88.294	229.475	87.371	-8191	255	
6717.716	1	1	0	0	0.1245	0.14694	0.2036	0.3617	0.2672	0.094714	0.18484	0.43291	0.030339	0.16098	0.27979	0.079028	0.18507	0.16693	0.084748	0.21258	-1.1688	-2.3979	-1.8042	-2.1625	-2.1875	-1.7938	-2.4062	-2.2167	-1.9021	-2.3333	-1.975	-2.0062	-2.3479	-1.8458	-2.0146	-2.2333	282.655	265.545	345.838	338.398	175.884	157.550	358.565	367.360	368.609	217.085	371.666	369.513	119.529	371.355	313.660	123.560	0.00053533	0.00041112	2.034e-05	1131.3	1.8744e-06	6.7695e-06	1215.1	237.65	7.9267e-06	7.1322e-07	296.99	84.52	66.654	19.781	1.5505e-05	27.16	0.00042229	0.00039714	0.00012787	1122.2	4.5834e-06	4.4246e-06	1200.7	241.34	4.6723e-06	4.5059e-06	303.42	87.728	69.528	21.158	5.3291e-06	29.342	58.480	217.520	173.097	66.886	409.602	113.387	66.823	74.686	73.510	257.019	73.896	80.975	81.168	88.134	237.354	87.268	-8191	255	
6717.788	1	1	0	0	0.17074	0.18151	0.19602	0.21695	0.14162	0.34839	0.10001	0.26104	0.069406	0.1886	0.23653	0.091763	0.1539	0.21559	0.25482	0.26485	-1.3312	-2.1813	-1.9813	-1.9521	-2.3521	-1.5021	-2.1104	-2.3229	-1.6729	-2.3854	-2.0104	-1.7104	-2.2687	-1.9979	-2.0542	-2.3021	157.743	390.923	192.595	373.902	210.266	167.460	349.170	388.696	266.035	265.503	65.730	240.562	85.555	101.972	166.901	80.635	0.00043089	0.00046889	4.5618e-05	1128.5	2.4947e-07	4.1161e-06	1213.2	236.25	5.8753e-06	5.3253e-06	295.9	84.275	66.777	19.682	6.6957e-06	27.191	0.00042388	0.00042056	0.00013912	1119.4	4.6158e-06	4.711e-06	1205.9	240.3	4.6533e-06	4.7682e-06	304.63	87.33	69.37	21.309	5.4453e-06	29.176	96.178	187.144	122.436	66.975	261.887	200.935	67.015	74.590	84.542	204.080	74.046	81.004	81.308	88.134	134.243	87.461	-8191	255	
6717.884	1	1	0	0	0.098298	0.13961	0.1428	0.20336	0.057438	0.32705	0.21731	0.055137	0.097704	0.17057	0.24252	0.21106	0.17495	0.13129	0.18432	0.12738	-1.4042	-2.1646	-2.1271	-1.8521	-2.2146	-1.8792	-2.0625	-2.325	-1.5396	-2.2042	-2.1792	-1.7938	-2.2167	-1.9792	-1.8854	-2.3667	171.813	282.005	288.492	352.499	314.171	383.074	320.864	365.669	394.528	184.825	78.135	127.106	344.398	272.834	136.820	367.891	0.00065448	0.00073217	0.00013599	1137.6	6.389e-06	2.2977e-06	1215.9	236.96	6.451e-06	4.6262e-06	297.59	83.996	66.738	19.936	7.5501e-06	27.153	0.0004208	0.00044707	0.0001383	1121	4.5863e-06	5.0566e-06	1206.5	240.41	4.5901e-06	5.1296e-06	304.99	87.207	69.53	21.637	5.3173e-06	29.127	79.294	148.739	262.206	66.955	134.563	148.156	66.752	74.609	259.246	235.113	74.119	80.930	81.308	88.108	267.721	87.354	-8191	255	
6717.980	1	1	0	0	0.13048	0.19497	0.18139	0.19527	0.2892	0.1942	0.32079	0.20157	0.14382	0.10487	0.060833	0.21786	0.28009	0.28502	0.08495	0.096299	-1.3104	-1.9604	-2.0854	-1.8042	-2.2687	-1.8354	-2.1937	-2.4625	-1.6667	-1.8396	-2.3875	-1.7104	-2.0917	-1.5438	-1.7687	-2.5604	169.315	381.872	147.055	336.743	146.073	297.444	387.802	128.732	395.902	314.635	137.838	284.701	399.962	73.704	170.496	64.178	0.00058075	0.00038208	8.7843e-05	1129.5	5.3514e-06	4.2492e-07	1216.5	237.21	9.4432e-06	5.1559e-06	295.52	83.827	67.1	19.777	1.0742e-05	27.169	0.00042163	0.00048187	0.00013464	1119.3	4.61e-06	5.3929e-06	1203.4	239.82	4.6424e-06	5.3794e-06	302.57	86.797	69.562	21.676	5.0263e-06	28.89	87.583	158.887	272.023	66.929	195.406	144.938	66.976	74.766	172.785	223.311	73.819	80.721	81.318	88.352	323.034	87.567	-8191	255	
6718.099	1	1	0	0	0.16993	0.12312	0.18555	0.20538	0.14084	0.075144	0.25751	0.34047	0.024186	0.27362	0.057974	0.092591	0.09798	0.07344	0.084517	0.1739	-1.2542	-1.9958	-2.0729	-1.8	-2.3104	-2.0938	-1.9062	-2.3375	-1.9729	-1.9	-2.3563	-1.8667	-2.2542	-2.0229	-1.7667	-2.5083	134.984	70.053	344.733	404.464	75.924	124.630	379.788	79.901	148.094	271.969	64.178	112.680	100.849	282.627	219.298	344.451	0.0006422	0.00014051	5.5509e-05	1128.3	7.3687e-06	5.5194e-06	1209.9	237.25	7.1214e-06	5.6723e-06	296.72	83.975	66.899	19.637	5.9553e-06	27.353	0.00042962	0.00048906	0.00012609	1116.7	4.7287e-06	5.3742e-06	1199.7	239.2	4.8598e-06	5.3461e-06	301.57	86.637	70.108	21.623	4.8928e-06	28.862	114.759	236.215	139.410	67.078	172.234	219.888	66.877	74.537	187.069	186.263	74.325	80.947	81.228	88.227	231.768	87.322	-8191	255	
6718.195	1	1	0	0	0.28517	0.272	0.074884	0.32642	0.049379	0.094178	0.32674	0.03211	0.098435	0.060417	0.1068	0.092446	0.10052	0.16308	0.16291	0.22419	-1.3937	-2.0312	-2.1021	-1.8229	-2.0479	-2.0292	-2.0021	-2.5187	-1.9083	-1.9	-2.35	-1.9062	-2.2542	-1.9208	-1.8292	-2.3521	71.185	202.740	95.874	391.403	385.874	156.377	358.657	228.476	342.262	319.300	374.414	151.686	90.723	378.765	136.062	348.558	0.00104	0.00066306	0.00011449	1132.9	4.3493e-06	3.9849e-06	1213.7	236	9.6614e-06	1.8567e-06	297.14	83.693	67.285	19.72	3.0529e-06	27.175	0.00045855	0.00048533	0.00012264	1117.4	5.0786e-06	5.2544e-06	1197.3	238.75	5.1455e-06	5.1962e-06	300.49	86.512	70.665	21.498	4.7247e-06	28.92	90.121	118.045	183.278	66.881	186.023	103.122	66.771	74.597	165.616	290.918	73.851	81.024	80.835	88.227	230.821	87.838	-8191	255	
6718.291	1	1	0	0	0.21748	0.16605	0.10786	0.12543	0.068803	0.24165	0.3326	0.13794	0.048652	0.10533	0.025006	0.17378	0.056044	0.072863	0.24667	0.25357	-1.4292	-2.0458	-2.2917	-1.8771	-1.7604	-2.0375	-1.8896	-2.1063	-1.9937	-1.625	-2.4917	-1.6562	-2.0875	-2.1021	-1.5104	-2.1896	255.707	119.847	151.995	260.124	311.946	87.478	326.944	302.539	76.205	218.925	258.341	380.750	119.647	293.248	76.394	98.012	0.00079688	0.00044362	0.00015671	1128	8.7675e-06	2.9745e-06	1210.8	237.41	2.1583e-06	3.2699e-06	296.67	84.566	67.098	19.79	2.8351e-06	27.188	0.00048005	0.00046192	0.00011956	1117.1	5.2693e-06	5.0294e-06	1194.7	239.92	5.3584e-06	4.9386e-06	299.87	86.85	70.77	21.441	4.5897e-06	29.066	100.392	117.114	97.267	66.992	179.934	195.109	66.963	74.549	179.106	349.511	74.405	81.107	80.823	88.346	144.532	87.807	-8191	255	
6718.388	1	1	0	0	0.09842	0.21241	0.3322	0.47977	0.32677	0.41596	0.084872	0.26303	0.12557	0.2341	0.23254	0.095688	0.13866	0.22007	0.24393	0.21671	-1.6208	-1.5958	-2.25	-1.75	-2.0104	-2.0687	-1.7625	-2.1167	-1.9646	-1.9937	-2.4396	-1.8312	-1.9125	-2.1854	-1.6562	-2.2958	337.917	342.558	169.313	69.182	244.489	96.921	337.735	363.138	170.929	387.901	329.463	67.143	277.205	360.071	328.467	361.544	0.00062053	0.00031938	9.8173e-05	1129.5	3.1186e-06	1.92e-06	1213.1	236.75	7.317e-06	5.8618e-07	297.6	84.072	67.367	19.822	6.7216e-06	27.259	0.00048945	0.00044004	0.00011685	1121.6	5.2965e-06	4.821e-06	1196.3	240.92	5.293e-06	4.7907e-06	300.1	87.581	70.905	21.346	4.5648e-06	29.386	72.808	241.254	335.760	67.070	120.025	275.919	66.925	74.544	328.016	349.127	74.039	80.966	81.072	88.264	318.640	87.627	-8191	255	
6718.484	1	1	0	0	0.096177	0.05209	0.09316	0.20303	0.10663	0.15012	0.30781	0.32965	0.10849	0.045691	0.35465	0.032751	0.26401	0.27694	0.12615	0.10011	-1.4625	-1.6562	-2.3	-1.8979	-1.9729	-2.4896	-1.7958	-2.2812	-2.0062	-1.6167	-2.3146	-2.0083	-1.825	-2.3604	-1.5896	-2.2604	99.247	294.453	241.155	404.040	176.334	329.243	415.981	402.162	265.890	394.027	303.712	365.602	329.468	70.533	362.745	309.268	0.00039047	0.00014703	0.00024079	1132.3	4.5596e-06	3.326e-06	1212.9	237.01	5.0461e-06	2.7884e-06	297.35	84.58	66.945	19.781	3.4042e-06	27.281	0.00048141	0.00043467	0.00011665	1125	5.2329e-06	4.7733e-06	1196	242.29	5.1801e-06	4.7442e-06	299.85	88.186	70.472	21.218	4.631e-06	29.522	99.612	329.827	116.948	66.846	322.756	113.306	66.901	74.229	109.228	199.416	74.181	80.674	80.992	88.392	296.503	87.729	-8191	255	
6718.580	1	1	0	0	0.16613	0.23635	0.1674	0.4223	0.11809	0.19825	0.084965	0.46404	0.17569	0.21277	0.22145	0.29121	0.11088	0.064975	0.35378	0.12309	-1.6979	-1.7292	-2.2958	-2.0417	-1.7667	-2.2979	-2.1562	-1.9542	-2.2313	-1.8208	-2.4042	-1.9937	-1.6542	-2.2792	-1.6875	-2.1437	390.517	340.840	315.663	340.651	341.782	206.768	329.789	413.934	272.500	375.962	359.602	93.215	81.797	153.596	161.308	215.814	0.00047969	6.2837e-05	0.00017638	1135.4	8.8201e-06	8.2125e-06	1212.4	236.67	2.7675e-06	1.0506e-06	296.6	84.538	66.718	19.874	3.8284e-06	27.251	0.00045683	0.00042253	0.0001168	1127.8	4.869e-06	4.534e-06	1196.4	241.87	4.8899e-06	4.6207e-06	300.43	88.137	69.759	21.197	4.8722e-06	29.556	75.714	188.877	142.765	66.906	60.539	141.449	67.011	74.585	357.343	78.452	74.050	80.520	81.052	87.947	103.840	87.360	-8191	255	
6718.676	1	1	0	0	0.20418	0.11504	0.083871	0.38977	0.15958	0.089847	0.17688	0.18652	0.29299	0.08867	0.31744	0.26931	0.14084	0.20573	0.07173	0.3042	-1.6208	-1.7687	-1.9708	-2.2521	-1.5625	-2.3604	-1.8271	-2.0146	-2.2125	-1.7542	-2.3521	-1.9688	-1.775	-2.4875	-1.9104	-2.0917	307.307	336.331	393.072	101.633	411.858	83.591	374.173	408.394	204.405	192.470	338.288	400.458	357.775	306.237	321.993	298.289	0.00068253	0.00024261	0.00033348	1132.2	4.5161e-06	1.7393e-06	1214.2	237.68	2.9046e-06	3.7334e-06	298	84.516	66.794	19.818	1.0737e-06	27.038	0.00043398	0.00040964	0.00012327	1124.3	4.6993e-06	4.3817e-06	1199	241.65	4.611e-06	4.3691e-06	301.5	87.665	69.399	20.985	4.9483e-06	29.222	112.671	250.685	128.911	67.039	267.900	353.594	66.953	74.441	367.512	155.720	74.078	80.675	81.744	88.169	291.176	87.774	-8191	255	
6718.797	1	1	0	0	0.13725	0.22291	0.11226	0.5091	0.34612	0.1321	0.25999	0.34501	0.29781	0.17132	0.1727	0.28149	0.27766	0.090068	0.35718	0.23449	-1.7271	-1.9937	-2.0896	-2.1396	-1.5771	-2.325	-2.0542	-1.8625	-2.4667	-1.7604	-2.1604	-2.2208	-1.5417	-2.175	-2.0458	-1.8271	79.893	147.957	358.529	393.186	246.565	92.581	304.632	247.702	282.304	403.151	324.470	344.757	345.022	359.822	211.030	364.323	0.00058897	0.00037603	9.9627e-05	1134.7	5.9973e-06	4.3163e-06	1210.5	237.25	1.2324e-05	5.2554e-06	297.97	84.564	66.832	19.782	1.8537e-06	27.085	0.00040997	0.00039939	0.00012877	1121.9	4.5399e-06	4.4046e-06	1201.8	240.74	4.5879e-06	4.5502e-06	303.61	87.545	69.562	21.117	5.3388e-06	29.142	78.545	65.139	159.319	66.987	163.485	279.583	66.903	74.605	215.288	196.491	74.054	80.744	81.036	88.412	209.736	87.817	-8191	255	
6718.893	1	1	0	0	0.11742	0.10501	0.074642	0.10544	0.12297	0.066427	0.51059	0.21622	0.26147	0.25707	0.10295	0.11849	0.24778	0.15694	0.19894	0.29945	-1.7917	-1.8021	-2.2354	-2.4104	-1.6458	-2.0396	-2.2583	-1.9854	-2.1708	-1.6667	-2.0083	-2.2313	-1.4729	-2.1896	-2.0021	-1.8292	138.095	75.346	72.566	197.229	299.380	187.633	332.935	380.877	238.019	180.986	136.130	360.831	375.477	107.875	94.471	376.483	0.00038148	0.00042286	0.00024841	1133.7	1.0129e-05	2.8695e-06	1214.7	236.41	3.4611e-06	2.1176e-06	296.53	84.298	67.08	19.822	4.3879e-06	27.044	0.00041894	0.00042996	0.0001368	1121.6	4.5739e-06	4.7353e-06	1205.9	240.51	4.559e-06	4.9024e-06	304.09	87.21	69.526	21.386	5.4907e-06	29.174	98.922	162.804	125.777	66.801	281.870	240.050	66.717	74.650	138.820	351.695	74.117	80.818	81.253	88.533	165.949	87.210	-8191	255	
6718.989	1	1	0	0	0.11943	0.29492	0.12418	0.069663	0.07423	0.14471	0.083914	0.2473	0.12751	0.24113	0.16445	0.1171	0.3099	0.1067	0.15136	0.37639	-1.7437	-1.7188	-1.8104	-2.3771	-1.6958	-2.1688	-2.2208	-1.7396	-2.4958	-1.7729	-1.9604	-2.3875	-1.6938	-2.2188	-2.0458	-1.7271	375.592	158.069	154.484	161.998	116.168	139.005	372.459	94.711	83.600	406.061	102.714	83.289	87.114	285.614	163.333	371.129	0.00039955	0.0011262	0.00010629	1130.5	1.9104e-06	1.1809e-07	1212.3	237.54	4.5652e-06	5.6259e-06	298.51	84.229	67.299	19.896	6.3068e-06	27.082	0.00042044	0.00046843	0.00013742	1121	4.6005e-06	5.1403e-06	1203.4	240.52	4.5835e-06	5.244e-06	304.02	87.111	69.533	21.609	5.1635e-06	29.067	101.262	149.829	407.693	66.831	100.611	85.157	66.910	74.597	99.895	215.342	74.198	80.799	80.652	88.553	59.191	88.419	-8191	255	
6719.083	1	1	0	0	0.11101	0.17879	0.095331	0.30664	0.31897	0.24302	0.23417	0.13214	0.056831	0.10517	0.17034	0.21959	0.17416	0.25166	0.11205	0.12854	-1.7833	-1.7563	-1.9667	-2.2583	-1.6208	-1.9542	-2.3417	-1.6208	-2.3125	-2.0167	-1.8104	-2.2333	-1.8875	-1.7083	-2.0458	-1.5812	90.154	280.366	360.486	402.721	227.572	225.632	333.306	185.422	146.998	386.279	96.722	277.715	64.027	83.600	234.802	313.850	0.00076735	0.00060524	8.9152e-05	1133.6	6.0956e-06	8.7797e-06	1215.2	238.1	1.2047e-05	4.961e-06	295.7	84.455	67.166	19.888	7.6916e-06	27.207	0.00041552	0.00048078	0.00013017	1121.5	4.5549e-06	5.2553e-06	1200.9	239.91	4.593e-06	5.326e-06	301.62	86.616	69.73	21.67	4.8973e-06	28.989	70.695	180.339	104.470	66.879	106.766	177.934	66.881	74.679	153.994	275.069	74.245	80.775	81.129	88.837	354.667	87.653	-8191	255	
6719.179	1	1	0	0	0.17858	0.32725	0.1715	0.061138	0.27693	0.16601	0.33503	0.34336	0.27746	0.067533	0.085391	0.17566	0.21645	0.18026	0.16145	0.30614	-1.6667	-1.7354	-1.6979	-2.2875	-1.6646	-1.8563	-2.2417	-1.6333	-2.1188	-2.0375	-1.7833	-2.3708	-1.7229	-1.9125	-2.0896	-1.6479	232.953	361.817	111.055	140.188	266.613	236.333	299.813	406.312	133.469	171.324	144.663	239.930	153.022	365.004	162.931	392.355	0.00094844	0.0004568	0.00020705	1135.5	4.7816e-06	6.3977e-06	1214.8	237.09	1.2727e-05	3.6583e-06	298.31	84.221	67.187	19.791	3.4538e-06	27.311	0.00042826	0.00048022	0.00012286	1118.2	4.8045e-06	5.2581e-06	1201.5	239.53	4.8398e-06	5.2486e-06	301.4	86.443	70.275	21.55	4.7833e-06	28.928	89.018	188.296	197.047	67.134	190.595	108.787	66.949	74.322	175.570	326.932	73.945	80.646	81.155	88.371	245.293	87.196	-8191	255	
6719.276	1	1	0	0	0.042078	0.15473	0.052768	0.25313	0.18385	0.21947	0.31944	0.26782	0.095752	0.14465	0.13785	0.21853	0.17019	0.28746	0.24902	0.080203	-1.7042	-1.9188	-1.6437	-2.3958	-1.8458	-2.0625	-2.3833	-1.7625	-2.0687	-2.0812	-1.7542	-2.2417	-2.0125	-1.7396	-1.9979	-1.625	212.054	348.701	303.209	394.479	197.524	401.887	378.689	397.844	348.493	341.659	65.088	407.160	90.548	91.333	325.392	110.266	0.00076814	0.00029678	6.1166e-05	1132.2	1.0321e-05	3.5198e-06	1213.9	237.49	7.0966e-06	3.1692e-06	300.13	84.551	67.573	19.733	2.2851e-06	26.974	0.0004589	0.00046908	0.00012035	1117.9	5.0794e-06	5.0775e-06	1198.1	239.16	5.0252e-06	5.0138e-06	301.02	86.598	70.576	21.397	4.6022e-06	28.806	69.329	337.446	120.706	66.935	165.746	312.821	66.669	74.553	180.209	109.551	73.937	81.284	81.063	88.495	173.423	87.779	-8191	255	
#DATA ENDS
