BOXY.EXE: ISS Imagent and Oximeter Data Acquisition Program Version 0.80
Ascii Record File

#ACQ INFORMATION
2  Detector Channels 
16  External MUX Channels 
1  Auxiliary Channels 
5000  Waveform (CCF) Frequency (Hz)
1  Waveforms Skipped 
30  Waveforms Averaged 
1  Cycles Averaged 
16  Acquisitions per Waveform 
10.0806  Updata Rate (Hz) 

#FILE INFORMATION
TRUE -- External MUX Channel results are PARSED.
FALSE -- AC DC and Phase are NOT grouped.
TRUE -- Companion Program Settings File CREATED.
FALSE -- AC data not excluded
FALSE -- DC data not excluded
FALSE -- Phase data not excluded
FALSE -- Auxillary Chn. data not excluded
Tab delimiters

#CALIBRATION STATE
TRUE -- Waveform Calibration Values APPLIED.


#AUX CALIBRATION VALUES
Val Type	aux-1	

Term	1.0000e+00	
Factor	0.0000e+00	


#WF CALIBRATION VALUES
A = Detector Channel
Val Type	A-AC1	A-AC2	A-AC3	A-AC4	A-AC5	A-AC6	A-AC7	A-AC8	A-AC9	A-AC10	A-AC11	A-AC12	A-AC13	A-AC14	A-AC15	A-AC16	A-DC1	A-DC2	A-DC3	A-DC4	A-DC5	A-DC6	A-DC7	A-DC8	A-DC9	A-DC10	A-DC11	A-DC12	A-DC13	A-DC14	A-DC15	A-DC16	A-Ph1	A-Ph2	A-Ph3	A-Ph4	A-Ph5	A-Ph6	A-Ph7	A-Ph8	A-Ph9	A-Ph10	A-Ph11	A-Ph12	A-Ph13	A-Ph14	A-Ph15	A-Ph16	

Term	0.00000e+00	0.00000e+00	0.00000e+00	0.00000e+00	0.00000e+00	0.00000e+00	0.00000e+00	0.00000e+00	0.00000e+00	0.00000e+00	0.00000e+00	0.00000e+00	0.00000e+00	0.00000e+00	0.00000e+00	0.00000e+00	0.00000e+00	0.00000e+00	0.00000e+00	0.00000e+00	0.00000e+00	0.00000e+00	0.00000e+00	0.00000e+00	0.00000e+00	0.00000e+00	0.00000e+00	0.00000e+00	0.00000e+00	0.00000e+00	0.00000e+00	0.00000e+00	0.00000e+00	0.00000e+00	0.00000e+00	0.00000e+00	0.00000e+00	0.00000e+00	0.00000e+00	0.00000e+00	0.00000e+00	0.00000e+00	0.00000e+00	0.00000e+00	0.00000e+00	0.00000e+00	0.00000e+00	0.00000e+00	
Factor	1.00000e+00	1.00000e+00	1.00000e+00	1.00000e+00	1.00000e+00	1.00000e+00	1.00000e+00	1.00000e+00	1.00000e+00	1.00000e+00	1.00000e+00	1.00000e+00	1.00000e+00	1.00000e+00	1.00000e+00	1.00000e+00	1.00000e+00	1.00000e+00	1.00000e+00	1.00000e+00	1.00000e+00	1.00000e+00	1.00000e+00	1.00000e+00	1.00000e+00	1.00000e+00	1.00000e+00	1.00000e+00	1.00000e+00	1.00000e+00	1.00000e+00	1.00000e+00	X	X	X	X	X	X	X	X	X	X	X	X	X	X	X	X	

B = Detector Channel
Val Type	B-AC1	B-AC2	B-AC3	B-AC4	B-AC5	B-AC6	B-AC7	B-AC8	B-AC9	B-AC10	B-AC11	B-AC12	B-AC13	B-AC14	B-AC15	B-AC16	B-DC1	B-DC2	B-DC3	B-DC4	B-DC5	B-DC6	B-DC7	B-DC8	B-DC9	B-DC10	B-DC11	B-DC12	B-DC13	B-DC14	B-DC15	B-DC16	B-Ph1	B-Ph2	B-Ph3	B-Ph4	B-Ph5	B-Ph6	B-Ph7	B-Ph8	B-Ph9	B-Ph10	B-Ph11	B-Ph12	B-Ph13	B-Ph14	B-Ph15	B-Ph16	

Term	0.00000e+00	0.00000e+00	0.00000e+00	0.00000e+00	0.00000e+00	0.00000e+00	0.00000e+00	0.00000e+00	0.00000e+00	0.00000e+00	0.00000e+00	0.00000e+00	0.00000e+00	0.00000e+00	0.00000e+00	0.00000e+00	0.00000e+00	0.00000e+00	0.00000e+00	0.00000e+00	0.00000e+00	0.00000e+00	0.00000e+00	0.00000e+00	0.00000e+00	0.00000e+00	0.00000e+00	0.00000e+00	0.00000e+00	0.00000e+00	0.00000e+00	0.00000e+00	-1.39278e+02	-1.18623e+02	-1.35795e+02	-1.82111e+02	-6.77916e+01	-8.69060e+01	-1.58920e+02	-1.62015e+02	-8.07281e+01	-9.04246e+01	-1.70527e+02	-1.72392e+02	-1.77825e+02	-1.76618e+02	-8.58281e+01	-1.49177e+02	
Factor	2.08840e-05	1.12845e-04	4.51227e-05	1.72743e-01	1.01973e-06	1.29749e-06	1.94666e-01	5.53233e-02	1.05499e-06	1.31565e-06	9.43069e-02	3.35196e-02	2.78317e-02	9.88634e-03	1.30373e-06	1.45576e-02	1.37347e-06	1.43500e-06	4.00220e-07	8.51377e-02	1.56614e-08	1.57660e-08	8.99492e-02	2.72962e-02	1.56928e-08	1.57274e-08	4.45325e-02	1.58891e-02	1.37582e-02	4.84121e-03	1.57627e-08	6.86061e-03	X	X	X	X	X	X	X	X	X	X	X	X	X	X	X	X	



#DISTANCE SETTINGS
A = Detector Channel
A-1	A-2	A-3	A-4	A-5	A-6	A-7	A-8	A-9	A-10	A-11	A-12	A-13	A-14	A-15	A-16	

2.5000e+00	3.0000e+00	2.5000e+00	3.0000e+00	2.0000e+00	3.0000e+00	1.5000e+00	3.0000e+00	3.0000e+00	3.0000e+00	3.0000e+00	3.0000e+00	3.0000e+00	3.0000e+00	1.5000e+00	3.0000e+00	

B = Detector Channel
B-1	B-2	B-3	B-4	B-5	B-6	B-7	B-8	B-9	B-10	B-11	B-12	B-13	B-14	B-15	B-16	

1.0000e+01	1.0000e+01	1.0000e+01	1.4400e+00	1.0000e+01	1.0000e+01	1.5100e+00	1.9400e+00	1.0000e+01	1.0000e+01	1.9900e+00	2.4900e+00	2.4100e+00	2.9000e+00	1.0000e+01	2.9800e+00	




#DATA BEGINS
time	group	step	mark	flag	A-AC1	A-AC2	A-AC3	A-AC4	A-AC5	A-AC6	A-AC7	A-AC8	A-AC9	A-AC10	A-AC11	A-AC12	A-AC13	A-AC14	A-AC15	A-AC16	A-DC1	A-DC2	A-DC3	A-DC4	A-DC5	A-DC6	A-DC7	A-DC8	A-DC9	A-DC10	A-DC11	A-DC12	A-DC13	A-DC14	A-DC15	A-DC16	A-Ph1	A-Ph2	A-Ph3	A-Ph4	A-Ph5	A-Ph6	A-Ph7	A-Ph8	A-Ph9	A-Ph10	A-Ph11	A-Ph12	A-Ph13	A-Ph14	A-Ph15	A-Ph16	B-AC1	B-AC2	B-AC3	B-AC4	B-AC5	B-AC6	B-AC7	B-AC8	B-AC9	B-AC10	B-AC11	B-AC12	B-AC13	B-AC14	B-AC15	B-AC16	B-DC1	B-DC2	B-DC3	B-DC4	B-DC5	B-DC6	B-DC7	B-DC8	B-DC9	B-DC10	B-DC11	B-DC12	B-DC13	B-DC14	B-DC15	B-DC16	B-Ph1	B-Ph2	B-Ph3	B-Ph4	B-Ph5	B-Ph6	B-Ph7	B-Ph8	B-Ph9	B-Ph10	B-Ph11	B-Ph12	B-Ph13	B-Ph14	B-Ph15	B-Ph16	aux-1	digaux	

1397.346	1	1	0	768	0.15937	0.16899	0.16324	0.040265	0.22171	0.10063	0.23022	0.3181	0.10683	0.016134	0.047936	0.2191	0.076409	0.37712	0.089892	0.42185	-1.9917	-2.1208	-2.2146	-2.5938	-2.0625	-2.3854	-2.5125	-1.9604	-2.4313	-2.0729	-2.3333	-2.5792	-2.2771	-2.3979	-2.4833	-2.1542	285.858	411.563	390.010	433.626	264.126	148.376	413.968	329.147	250.039	79.699	143.032	426.919	279.240	374.329	297.629	412.900	0.0005462	0.00022491	0.00010908	1353.9	5.3904e-06	7.0615e-06	1359.4	365.87	1.1984e-05	3.2347e-06	417.44	139.52	121.06	41.552	5.9682e-06	51.605	0.00055982	0.0006078	0.00015523	1372.7	6.226e-06	6.6066e-06	1375.4	372.17	6.289e-06	6.4637e-06	425.67	142.36	124.34	42.969	5.8713e-06	52.832	152.141	256.490	107.648	89.719	231.575	237.409	89.681	94.326	222.435	174.736	94.019	98.214	98.624	103.376	202.426	102.569	-8191	255	
1397.442	1	1	0	0	0.24311	0.21372	0.14125	0.27142	0.043937	0.10353	0.29979	0.29565	0.2731	0.20209	0.18925	0.09833	0.17025	0.21261	0.15275	0.29062	-2.0083	-2.3312	-2.3292	-2.6458	-2.1896	-2.3812	-2.5792	-2.2604	-2.3667	-2.4354	-2.1458	-2.575	-2.2167	-2.3458	-2.3146	-1.9583	233.998	246.013	139.899	409.123	124.765	219.977	360.974	318.849	197.493	152.830	408.588	374.154	91.447	374.155	353.286	127.170	0.00048631	0.00053434	0.00017539	1358.1	9.1486e-06	1.9008e-06	1359.4	366.17	1.1396e-05	8.1303e-06	417.91	139.68	121.94	41.722	3.9564e-06	51.735	0.00058817	0.00057597	0.00015026	1372.8	6.543e-06	6.2883e-06	1374.9	372.06	6.5883e-06	6.2021e-06	425.13	142.44	124.61	42.864	5.7186e-06	53.03	153.960	265.474	383.295	89.869	208.992	255.306	89.498	94.555	219.958	163.113	93.910	98.325	98.665	103.103	379.463	102.736	-8191	255	
1397.538	1	1	0	0	0.12898	0.14226	0.13173	0.3244	0.11376	0.40096	0.36263	0.2287	0.15954	0.19867	0.073606	0.30299	0.1301	0.15845	0.17387	0.24009	-2.0187	-2.3667	-1.9896	-2.6188	-2.2	-2.1312	-2.6792	-2.2708	-2.4229	-2.3042	-2.0896	-2.6104	-2.2333	-2.1125	-2.4104	-2.2708	183.762	262.523	282.012	373.971	172.842	434.956	408.941	415.289	264.642	306.013	84.693	380.932	307.082	214.479	399.993	429.858	0.00054954	0.00081841	0.00011785	1355.7	4.636e-06	5.6797e-06	1356.9	366.01	5.9384e-06	3.7655e-06	419.37	139.83	121.55	41.735	5.1559e-06	51.631	0.00060054	0.00055299	0.00014514	1372.3	6.648e-06	6.003e-06	1371.6	373.01	6.5566e-06	5.9132e-06	425.14	142.89	124.8	42.781	5.5513e-06	53.053	156.302	174.024	187.402	89.976	231.617	219.923	89.643	94.464	243.938	267.279	93.989	98.203	98.647	103.351	199.675	102.566	-8191	255	
1397.635	1	1	0	0	0.17117	0.28668	0.29716	0.25465	0.14984	0.12576	0.26194	0.39132	0.16638	0.072822	0.36707	0.24603	0.095161	0.27731	0.11138	0.26604	-1.7875	-2.2542	-2.0646	-2.6479	-2.0563	-2.0563	-2.6083	-2.2208	-2.2271	-2.2958	-1.9083	-2.4583	-2.3438	-2.2938	-2.3667	-2.2667	389.916	256.823	103.769	428.375	165.424	240.630	404.047	92.452	174.142	376.483	413.137	344.219	397.068	359.360	215.550	281.745	0.00050859	0.00045664	0.00013667	1354.9	4.7061e-06	4.7448e-06	1352.6	366.61	4.0065e-07	2.3314e-06	418.39	139.66	121.25	41.58	9.4011e-06	51.786	0.0005885	0.00053738	0.00014292	1376.3	6.281e-06	5.8059e-06	1370.3	373.79	6.2934e-06	5.7339e-06	424.98	143.44	124.22	42.785	5.5531e-06	53.281	153.117	138.327	174.322	89.961	226.425	275.712	89.670	94.513	132.205	153.739	93.944	98.344	98.850	103.342	197.651	102.503	-8191	255	
1397.731	1	1	0	0	0.31147	0.10305	0.069411	0.4689	0.15499	0.28571	0.16691	0.023367	0.38592	0.25442	0.088075	0.13134	0.138	0.2158	0.17278	0.08477	-1.8937	-2.3812	-1.9646	-2.5542	-2.1	-2.1521	-2.5333	-2.3792	-2.1792	-2.3854	-2.2354	-2.6167	-2.5479	-2.1562	-2.6396	-2.5	271.553	309.117	89.497	409.556	354.132	102.077	333.720	217.416	418.753	242.274	277.803	409.504	281.020	384.577	201.674	276.273	0.00036714	0.00029978	0.00016963	1359.2	3.1594e-06	4.9116e-06	1355.7	367.19	3.237e-06	2.8284e-06	418.45	140.15	121.69	41.653	7.1549e-06	51.767	0.00056054	0.00051311	0.00014211	1378.2	5.9889e-06	5.6567e-06	1372.6	374.27	5.9495e-06	5.542e-06	424.87	143.67	124.1	42.729	5.8007e-06	53.306	146.378	387.063	167.285	89.749	291.895	294.896	89.710	94.289	149.314	326.166	94.025	98.146	98.743	103.314	194.481	102.531	-8191	255	
1397.827	1	1	0	0	0.17903	0.25401	0.21046	0.23022	0.25882	0.10214	0.25009	0.31524	0.075824	0.1688	0.048313	0.097414	0.17382	0.3516	0.055758	0.34563	-1.5958	-2.425	-2.1979	-2.4917	-2.3083	-1.975	-2.7396	-2.4479	-2.1437	-2.2646	-2.4583	-2.4313	-2.3312	-2.4479	-2.5938	-2.3146	188.382	122.595	247.988	319.857	435.701	329.198	357.699	76.728	400.385	253.564	297.424	181.135	298.445	405.077	314.477	128.172	0.00058813	0.00037023	0.00039139	1359.9	3.0307e-06	1.2379e-06	1361.5	366.18	4.8891e-06	7.49e-06	418.21	140	121.57	41.717	3.6024e-06	51.89	0.000535	0.00049968	0.00014918	1377.5	5.7321e-06	5.498e-06	1375.7	373.91	5.7861e-06	5.4295e-06	426.05	143.26	123.99	42.695	6.1351e-06	53.206	153.297	270.487	162.307	89.852	85.679	138.051	89.381	94.441	199.939	157.264	93.900	98.122	98.901	103.336	181.945	102.544	-8191	255	
1397.947	1	1	0	0	0.24028	0.12689	0.11534	0.25838	0.18077	0.19353	0.12532	0.38542	0.18372	0.24435	0.18406	0.41723	0.18209	0.027802	0.14056	0.12007	-1.7625	-2.575	-2.1917	-2.525	-2.3417	-1.8417	-2.6042	-2.375	-2.0896	-2.5542	-2.2208	-2.2625	-2.5	-2.1646	-2.2229	-2.3979	231.390	393.636	280.790	415.418	96.774	168.328	379.571	359.563	181.357	268.348	423.234	90.117	425.131	288.293	172.788	387.585	0.00052582	0.00074157	8.3481e-05	1360.1	6.0899e-06	3.5502e-06	1354.9	365.65	3.5333e-06	5.2211e-06	418.88	139.87	120.87	41.941	8.8896e-06	51.85	0.00052094	0.0004895	0.00015858	1377.6	5.6306e-06	5.4847e-06	1375.9	373.43	5.6122e-06	5.4582e-06	427.17	143.01	123.65	42.822	6.3568e-06	53.113	161.447	184.937	197.070	89.650	234.288	119.150	89.728	94.400	155.487	268.401	93.715	98.300	98.931	103.289	213.361	102.649	-8191	255	
1398.042	1	1	0	0	0.28763	0.056583	0.18633	0.25842	0.081641	0.071009	0.20795	0.11067	0.24884	0.13834	0.10014	0.20916	0.18027	0.13085	0.24884	0.24316	-1.8229	-2.4833	-2.1396	-2.3292	-2.2292	-2.1813	-2.8229	-2.5104	-2.1458	-2.6708	-2.3229	-2.3937	-2.7667	-2.0979	-2.4792	-2.4313	84.586	315.529	331.770	382.318	334.894	320.134	308.608	417.194	292.455	426.647	342.541	341.068	244.813	414.786	428.274	357.516	0.00046978	0.00066957	0.00014473	1356.7	3.708e-06	3.462e-06	1359.2	366.17	2.0502e-06	8.5937e-06	418.54	140.24	121.22	41.844	6.4646e-06	51.557	0.00050682	0.00050995	0.00016258	1374.6	5.4781e-06	5.7314e-06	1376.6	372.43	5.5403e-06	5.6976e-06	427.07	142.77	123.58	42.884	6.2489e-06	52.924	156.314	137.990	129.395	89.834	228.751	151.469	89.620	94.384	316.167	218.581	93.752	98.277	98.736	103.221	237.121	102.629	-8191	255	
1398.140	1	1	0	0	0.19004	0.1811	0.13525	0.3025	0.19252	0.16557	0.12277	0.088911	0.12521	0.15549	0.16661	0.068986	0.20563	0.23704	0.33496	0.29594	-1.625	-2.4583	-2.1271	-2.3896	-2.5125	-2.0229	-2.6562	-2.4167	-2.0625	-2.5271	-2.1562	-2.325	-2.6104	-2.2042	-2.2292	-2.3896	132.970	181.547	292.322	82.656	361.119	354.597	233.842	302.027	212.571	132.549	107.619	229.488	379.100	395.461	422.982	422.856	0.00054367	0.00054507	7.0478e-05	1354.6	1.085e-06	2.3342e-06	1348.9	365.76	6.0589e-06	7.394e-06	417.92	140.3	121.92	41.9	6.4104e-06	51.678	0.0005018	0.00053994	0.00015889	1372.5	5.3816e-06	6.095e-06	1373.6	372.63	5.483e-06	6.071e-06	426.18	142.86	123.82	42.949	6.0824e-06	52.855	160.806	219.313	343.818	89.754	247.884	236.337	89.753	94.358	230.521	204.077	93.680	98.367	98.957	103.087	132.420	102.452	-8191	255	
1398.234	1	1	0	0	0.19247	0.12382	0.13409	0.09396	0.19942	0.087901	0.12534	0.15525	0.12221	0.12899	0.27897	0.15153	0.11444	0.46391	0.19233	0.035446	-1.5396	-2.3167	-2.2167	-2.4521	-2.4792	-2.0354	-2.4479	-2.4646	-2.0271	-2.3312	-2.3229	-2.0208	-2.6146	-2.3396	-2.1854	-2.6333	344.902	130.716	122.063	393.637	110.702	157.922	406.892	425.471	115.395	182.545	326.581	337.767	363.060	436.340	247.613	166.895	0.00052928	0.0005269	0.0001167	1356.2	6.3799e-06	6.7104e-06	1355.1	367.28	4.1576e-06	2.8433e-06	419.34	140.26	121.44	41.909	2.9902e-06	51.408	0.00050232	0.0005687	0.00015213	1372.3	5.4864e-06	6.3232e-06	1374.5	372.77	5.5661e-06	6.3233e-06	425.54	142.6	123.82	43.051	5.834e-06	52.831	157.218	196.312	131.029	89.722	194.363	183.454	89.767	94.387	189.222	293.205	93.765	98.072	98.876	103.321	344.540	102.518	-8191	255	
1398.330	1	1	0	0	0.40132	0.1955	0.18891	0.21699	0.12895	0.18905	0.42425	0.10598	0.10767	0.043318	0.19597	0.17822	0.18678	0.23909	0.26407	0.11882	-1.5896	-2.2438	-2.3021	-2.1646	-2.3833	-2.1937	-2.4813	-2.6521	-2.1604	-2.4771	-2.3187	-2.025	-2.4708	-2.2062	-2.1729	-2.6417	201.494	225.555	411.683	404.145	348.750	162.604	81.348	229.164	429.426	326.299	148.093	91.776	394.006	393.693	97.468	104.172	0.00055264	0.00016059	0.00022022	1356.3	8.1289e-06	2.1493e-06	1359.6	366.84	6.2616e-06	1.8525e-06	417.99	140.09	121.95	41.718	7.0568e-06	51.659	0.00053007	0.00058434	0.00014705	1372	5.8208e-06	6.2956e-06	1374.2	372.33	5.9291e-06	6.3046e-06	425.32	142.65	124.42	42.921	5.7177e-06	52.828	154.936	173.617	141.409	89.909	240.061	82.658	89.780	94.309	242.776	127.833	93.631	98.069	98.999	103.257	243.527	102.354	-8191	255	
1398.426	1	1	0	0	0.21584	0.15258	0.22673	0.33163	0.11938	0.13019	0.34076	0.11858	0.09102	0.069434	0.051543	0.30308	0.12891	0.050228	0.11425	0.21996	-1.675	-2.325	-2.4104	-2.1729	-2.2375	-2.3854	-2.2958	-2.5083	-2.3312	-2.0854	-2.6667	-2.0812	-2.3229	-2.3563	-2.1333	-2.4979	249.260	347.961	201.788	369.606	121.527	77.046	349.553	397.143	370.358	309.359	176.204	87.902	236.415	137.636	140.477	409.916	0.00056978	0.00039348	0.00029529	1358.6	4.5833e-06	2.0613e-06	1357.4	366.83	8.4227e-06	5.6867e-06	419.07	140.25	121.74	41.569	4.4362e-06	51.818	0.00056297	0.000566	0.00014279	1371.8	6.155e-06	6.0827e-06	1373.4	372.46	6.2798e-06	6.0525e-06	425.38	142.59	124.51	42.817	5.6386e-06	52.909	151.307	143.038	171.901	89.598	238.330	248.188	89.594	94.484	224.998	189.884	93.811	98.241	98.864	103.409	249.265	102.682	-8191	255	
1398.523	1	1	0	0	0.23551	0.31781	0.033432	0.28661	0.12779	0.034886	0.22736	0.2338	0.057183	0.17313	0.1694	0.20491	0.11802	0.091453	0.053198	0.11561	-1.5854	-2.3583	-2.3	-2.2417	-2.35	-2.3292	-2.3271	-2.8833	-2.1146	-2.3042	-2.5875	-2.2208	-2.5375	-2.3042	-1.9792	-2.425	182.569	270.632	304.578	433.034	171.393	169.438	364.683	409.924	127.204	266.638	138.194	305.567	309.273	393.486	289.744	416.224	0.0005258	0.00021322	0.00013137	1357.3	4.1795e-06	4.3031e-06	1353	366.93	3.8147e-06	5.4644e-06	418.26	140.14	121.59	41.914	3.5106e-06	51.697	0.00058414	0.00054797	0.00014003	1373	6.3153e-06	5.8826e-06	1370.4	373.02	6.3393e-06	5.8271e-06	424.24	142.91	124.72	42.854	5.4428e-06	53.021	150.826	235.385	119.585	89.716	259.512	177.316	89.898	94.770	248.609	228.332	94.021	98.204	98.856	103.394	217.673	102.390	-8191	255	
1398.643	1	1	0	0	0.1034	0.11676	0.16372	0.2964	0.29249	0.10844	0.23462	0.29536	0.22702	0.13474	0.10059	0.23229	0.31791	0.153	0.32984	0.16179	-1.7812	-2.0729	-2.5708	-2.1437	-2.4062	-2.3854	-2.3438	-2.4708	-2.2021	-2.0062	-2.7083	-2.3479	-2.4146	-2.525	-1.85	-2.5771	213.691	285.835	341.922	431.194	135.891	111.964	414.802	87.057	256.226	189.910	95.486	340.082	423.472	416.401	158.534	208.579	0.00052072	0.00048556	0.00012686	1356.9	6.3449e-06	3.9657e-06	1355.2	366.77	8.4414e-07	8.8145e-06	418.9	140.49	121.81	41.705	7.8118e-06	51.882	0.00057307	0.00052383	0.00013605	1373.9	6.2331e-06	5.6751e-06	1371.8	373.8	6.2092e-06	5.6935e-06	424.3	143.12	124.51	42.768	5.3988e-06	53.198	153.226	88.365	134.762	89.820	232.910	304.421	89.656	94.418	207.689	179.427	94.028	98.024	98.934	103.333	196.839	102.584	-8191	255	
1398.739	1	1	0	0	0.10054	0.10184	0.062258	0.24734	0.13741	0.078056	0.29691	0.21526	0.15592	0.13856	0.23661	0.15987	0.088068	0.38796	0.18586	0.14139	-1.8	-2.0646	-2.5604	-2.2313	-2.3	-2.3792	-2.1458	-2.5354	-2.3229	-2.1354	-2.5896	-2.1479	-2.2958	-2.6	-2.0729	-2.5021	83.022	107.455	308.520	428.266	262.852	219.300	406.008	430.416	230.077	207.595	396.760	248.873	76.503	408.802	382.532	405.713	0.00050252	0.00060822	0.00021407	1356.6	1.4071e-06	4.8333e-06	1355.5	367.68	3.3108e-06	6.4221e-06	418.18	140.3	121.18	41.947	7.8132e-06	51.842	0.00055543	0.00051346	0.00013652	1376.6	6.0265e-06	5.6146e-06	1369.7	374.37	5.9713e-06	5.5892e-06	424.52	143.32	124	42.679	5.7789e-06	53.303	149.251	227.967	178.918	89.668	285.860	268.693	89.613	94.385	277.137	250.754	93.983	98.139	98.903	103.120	207.243	102.647	-8191	255	
1398.836	1	1	0	0	0.181	0.095168	0.20338	0.22584	0.15228	0.13813	0.27577	0.1237	0.045574	0.07043	0.20084	0.10028	0.10491	0.18311	0.29323	0.19231	-1.9937	-1.9042	-2.4854	-2.175	-2.0875	-2.3708	-2.2687	-2.4313	-2.2792	-2.0979	-2.5062	-2.3271	-2.1083	-2.4729	-2.0271	-2.3583	273.471	396.067	390.135	423.411	384.546	248.723	396.944	175.346	365.250	372.193	412.231	434.424	326.406	124.365	190.314	80.185	0.00053637	0.0003324	0.00023753	1361.7	1.9019e-06	2.9502e-06	1353.9	365.82	6.5683e-06	1.9208e-06	417.83	139.9	121.68	41.717	5.6439e-06	51.54	0.00053828	0.00050388	0.00014552	1379	5.8071e-06	5.4583e-06	1372.9	373.34	5.7358e-06	5.4382e-06	425.34	143.17	123.91	42.624	6.1185e-06	53.125	158.142	192.419	118.108	89.803	245.409	164.376	89.738	94.505	227.445	271.357	94.018	98.242	98.969	103.358	257.071	102.637	-8191	255	
1398.907	1	1	0	0	0.19599	0.12494	0.16154	0.17665	0.17021	0.21399	0.1782	0.25136	0.38505	0.082943	0.24162	0.042079	0.12153	0.25947	0.16529	0.063701	-2.0125	-2.0625	-2.2792	-2.3458	-2.025	-2.5458	-2.15	-2.4146	-2.3688	-2.1208	-2.5042	-2.275	-2.1208	-2.5271	-2.0208	-2.1625	253.702	435.861	80.948	305.074	348.023	429.134	323.982	392.202	147.427	372.791	361.953	282.256	171.021	89.615	432.231	79.391	0.00046168	0.00050834	0.00025388	1357	2.2441e-06	4.0306e-06	1352.7	367.27	6.9715e-06	5.5434e-06	416.81	140.11	121.28	41.949	7.7767e-06	51.696	0.0005265	0.00050491	0.00015684	1375.5	5.8e-06	5.4911e-06	1374.1	373.64	5.7091e-06	5.559e-06	426.23	143.16	123.76	42.637	6.444e-06	53.099	153.496	208.171	139.582	89.884	202.072	218.168	89.742	94.257	224.427	207.137	94.188	98.183	98.881	103.241	190.407	102.741	-8191	255	
1399.026	1	1	0	0	0.090916	0.091721	0.11974	0.24918	0.20556	0.20401	0.28628	0.36712	0.05319	0.10287	0.18943	0.18257	0.14707	0.2892	0.40017	0.10286	-1.9896	-1.9937	-2.3458	-2.3042	-2.2396	-2.5083	-2.3917	-2.4146	-2.4708	-2.0187	-2.5771	-2.3896	-2.1854	-2.5938	-2.2938	-2.1417	196.284	111.274	110.877	377.492	252.875	393.721	322.660	394.080	322.712	311.037	422.853	355.518	372.564	340.309	349.901	384.541	0.00048083	0.00033595	0.00020018	1357	7.9893e-07	3.7667e-06	1347.4	366.5	1.6494e-06	8.8967e-06	418.12	139.53	120.96	41.693	6.1718e-06	51.432	0.00051908	0.00051171	0.00016308	1375.1	5.6064e-06	5.6843e-06	1375	372.36	5.573e-06	5.7719e-06	427.14	142.62	123.48	42.718	6.475e-06	52.868	154.132	100.975	146.892	89.703	255.595	189.845	89.914	94.496	242.661	231.824	93.940	98.156	98.836	103.494	236.041	102.316	-8191	255	
1399.122	1	1	0	0	0.1417	0.080608	0.12344	0.23053	0.37577	0.08733	0.20825	0.29573	0.19439	0.053097	0.20031	0.077812	0.25608	0.12919	0.10528	0.10204	-2.1688	-1.9875	-2.2604	-2.4042	-2.2354	-2.4354	-2.2375	-2.2625	-2.4021	-1.9667	-2.3625	-2.3479	-1.9562	-2.3854	-2.2396	-2.3583	396.541	103.737	315.672	80.248	100.748	223.522	387.937	383.200	266.251	398.051	177.949	326.479	330.532	162.714	176.256	150.240	0.00065871	0.0002426	7.1372e-05	1354.8	3.0886e-06	7.311e-06	1356.5	365.59	5.7124e-06	3.0781e-06	417.53	139.36	121.6	41.591	2.3707e-06	51.927	0.00050331	0.00054813	0.00016376	1371.1	5.5666e-06	6.0884e-06	1374.9	371.89	5.4996e-06	6.1749e-06	426.4	142.41	123.49	42.751	6.2596e-06	52.96	157.483	111.071	111.882	89.853	181.446	197.428	89.617	94.386	240.111	189.572	93.947	98.133	98.668	103.295	285.205	102.390	-8191	255	
1399.220	1	1	0	0	0.24079	0.10676	0.12687	0.41018	0.1319	0.20698	0.28479	0.26357	0.020528	0.19645	0.16758	0.25728	0.1909	0.18977	0.21617	0.19505	-1.9833	-2.1167	-2.3146	-2.5646	-1.8083	-2.1854	-2.2271	-2.1354	-2.3458	-2.1771	-2.3333	-2.4896	-2.1521	-2.4229	-2.0396	-2.125	245.856	422.207	120.065	85.276	372.366	82.979	392.435	410.816	135.491	107.514	418.226	433.333	422.748	251.860	109.817	319.725	0.00056293	0.00021625	0.0002771	1355.2	4.7996e-06	2.5584e-06	1353.7	365.1	5.1994e-06	5.9923e-06	419.27	139.11	121.01	41.658	1.6265e-06	51.567	0.00050785	0.00057466	0.0001594	1369.7	5.6499e-06	6.3856e-06	1372.5	371.26	5.6332e-06	6.4671e-06	425.82	142.15	123.38	42.845	6.014e-06	52.839	162.429	421.591	183.962	89.827	253.829	258.216	89.562	94.354	238.653	140.404	93.814	98.192	98.905	103.594	130.117	102.824	-8191	255	
1399.339	1	1	0	0	0.11208	0.027656	0.24116	0.095922	0.033526	0.10333	0.20008	0.10914	0.0609	0.049038	0.24058	0.2032	0.055182	0.066935	0.26028	0.2094	-2.1479	-2.0687	-2.2208	-2.6604	-2.0458	-2.3771	-2.7167	-2.1042	-2.4833	-2.2729	-2.2896	-2.6583	-2.1333	-2.3146	-2.4125	-2.0417	156.176	216.008	331.758	420.016	361.616	259.029	344.878	327.788	369.908	209.601	92.028	117.995	404.966	106.467	117.115	335.020	0.0005023	0.00043159	0.00011573	1352.3	1.9772e-06	2.4376e-06	1347.9	364.47	7.7102e-06	5.1841e-06	415.81	139.13	121.28	41.489	5.7943e-06	51.49	0.00052648	0.00059586	0.00015355	1368.4	5.9045e-06	6.5232e-06	1368.7	371.34	5.9508e-06	6.5013e-06	424.2	141.82	123.81	42.81	5.8902e-06	52.735	158.734	161.987	217.126	89.852	188.428	188.436	89.736	94.386	196.103	110.281	93.619	98.321	99.006	103.622	218.382	102.594	-8191	255	
1399.435	1	1	0	0	0.21988	0.23565	0.18867	0.2371	0.15597	0.15677	0.20645	0.026606	0.11912	0.10604	0.054243	0.39786	0.17786	0.079795	0.15151	0.20005	-2.0062	-2.05	-2.1396	-2.4479	-2.0521	-2.1667	-2.4833	-2.0563	-2.3688	-2.2125	-2.0479	-2.3896	-2.2083	-2.35	-2.2146	-2.1583	234.323	111.690	382.615	90.584	129.324	129.090	405.482	121.406	307.326	228.790	144.129	436.512	433.915	121.391	137.645	415.682	0.00059975	0.00014288	0.00014558	1350.3	2.0738e-06	3.9193e-06	1350.9	364.87	3.4421e-06	2.852e-06	417.27	139.35	120.41	41.532	4.3827e-06	51.541	0.0005592	0.00058685	0.0001499	1366.7	6.2629e-06	6.3603e-06	1369.3	371.64	6.2898e-06	6.3039e-06	424.35	141.98	124.04	42.773	5.7696e-06	52.669	155.013	310.976	354.267	89.772	178.887	228.601	89.804	94.711	273.949	108.678	93.896	98.236	98.620	103.484	249.815	102.286	-8191	255	
1399.507	1	1	0	0	0.34978	0.10068	0.1073	0.13003	0.026177	0.2439	0.40439	0.11867	0.107	0.082929	0.083786	0.25153	0.13914	0.14983	0.11861	0.20712	-1.8021	-2.1771	-1.9458	-2.6271	-2.0896	-2.0896	-2.4958	-2.275	-2.2021	-2.2417	-2.1063	-2.4083	-2.2396	-2.1125	-2.45	-2.1	153.369	219.437	185.080	397.661	121.430	300.033	413.815	82.803	284.921	405.840	362.694	79.955	380.613	328.283	212.533	395.648	0.00051594	0.00053913	9.0259e-05	1353.9	2.5212e-06	4.4907e-06	1350.9	366.07	3.2095e-06	2.1703e-06	416.42	139.39	120.73	41.562	2.5493e-06	51.682	0.00058024	0.00056021	0.00014735	1368.7	6.4799e-06	6.1008e-06	1368.7	371.83	6.4825e-06	6.0111e-06	423.83	142.11	124.06	42.708	5.5581e-06	52.854	159.318	205.544	113.643	89.780	157.972	190.721	89.723	94.500	186.261	171.403	93.824	98.155	98.617	103.506	245.817	102.568	-8191	255	
1399.627	1	1	0	0	0.2087	0.27844	0.19349	0.29779	0.15808	0.14636	0.30607	0.20237	0.30806	0.25332	0.13368	0.16698	0.13402	0.24172	0.19867	0.1561	-2.0396	-2.2167	-2.0104	-2.4583	-1.9937	-2.1583	-2.5104	-2.1292	-2.1021	-2.15	-2.1021	-2.4813	-2.1188	-2.1854	-2.3958	-1.9896	126.549	185.245	156.007	416.850	152.423	133.224	340.933	323.335	164.707	351.271	177.376	388.516	248.055	420.495	279.613	369.493	0.00057647	0.00042023	0.00016256	1355.6	3.816e-06	4.7083e-06	1354.5	366.73	5.3533e-06	7.5578e-06	417.43	139.23	120.9	41.446	2.2685e-06	51.467	0.00059878	0.000538	0.00014453	1371.2	6.5125e-06	5.9665e-06	1368.5	372.49	6.5235e-06	5.8662e-06	423.79	142.78	124.06	42.645	5.5403e-06	53.027	156.571	206.383	223.061	89.940	169.078	182.724	89.604	94.445	224.165	307.205	93.973	98.410	98.661	103.211	120.570	102.467	-8191	255	
1399.724	1	1	0	0	0.20691	0.070435	0.10771	0.12411	0.217	0.17397	0.14387	0.38366	0.065833	0.086469	0.22696	0.23862	0.11284	0.10715	0.30477	0.30917	-1.9375	-2.2625	-2.075	-2.4375	-2.1125	-2.1042	-2.6521	-2.3937	-2.1458	-2.3875	-2.1042	-2.5187	-2.2104	-2.1354	-2.3312	-2.3667	148.597	403.374	227.312	169.260	344.182	400.163	369.731	348.704	340.914	299.088	423.888	82.418	351.425	99.227	280.992	429.148	0.00050825	0.0002132	0.00023754	1354.5	3.5828e-06	2.717e-06	1352.4	364.19	6.5865e-06	3.2881e-06	419.41	139.18	121.06	41.781	5.6123e-06	51.207	0.00058059	0.00052482	0.00014409	1374.3	6.2597e-06	5.8224e-06	1367.6	372.67	6.2012e-06	5.7277e-06	424.3	142.97	123.78	42.72	5.6931e-06	53.063	157.274	277.727	141.299	89.757	209.127	354.567	89.779	94.440	251.140	147.143	93.718	98.111	98.879	103.351	247.539	102.628	-8191	255	
1399.820	1	1	0	0	0.38203	0.2635	0.066218	0.23497	0.27302	0.30018	0.07214	0.21857	0.1453	0.23215	0.051052	0.15489	0.066688	0.26537	0.18091	0.080233	-1.825	-2.3438	-1.9	-2.4417	-2.0875	-1.9146	-2.5854	-2.1063	-1.9854	-2.2917	-2.2	-2.325	-2.2917	-2.0625	-2.4417	-2.1396	258.829	136.024	82.201	109.704	424.889	148.929	243.172	407.887	229.292	433.056	429.283	127.565	151.359	88.650	175.690	426.776	0.00043117	0.00034804	4.3431e-05	1355.6	6.0126e-06	6.3169e-06	1354.4	365.46	1.9754e-06	1.6171e-06	418.56	139.09	120.99	41.677	6.0008e-06	51.537	0.00055941	0.00051431	0.00014652	1374.8	6.0393e-06	5.7412e-06	1369.4	373.05	6.0083e-06	5.5357e-06	425.07	142.96	123.54	42.618	6.0228e-06	53.181	152.530	109.406	367.708	89.834	186.030	191.133	89.702	94.396	184.731	261.836	94.026	98.310	98.852	103.345	199.806	102.445	-8191	255	
1399.940	1	1	0	0	0.13179	0.055035	0.10585	0.31483	0.027623	0.25778	0.41355	0.06787	0.087121	0.13312	0.20731	0.24566	0.069881	0.22322	0.09767	0.10578	-1.7896	-2.5521	-2.0542	-2.5271	-2.075	-1.9292	-2.5812	-2.1875	-2.1521	-2.3979	-2.1417	-2.1854	-2.5958	-2.1021	-2.2125	-2.4417	349.628	158.427	211.191	419.548	127.422	142.558	388.050	374.412	322.890	118.577	399.504	238.859	82.523	308.903	100.088	312.322	0.00055719	0.00047476	0.00023973	1356.3	3.0075e-06	1.0107e-06	1354	365.73	3.5716e-06	5.7457e-06	416.36	139.91	121.2	41.664	4.9763e-06	51.678	0.00053826	0.0004962	0.0001554	1376.6	5.7892e-06	5.5042e-06	1373.5	372.92	5.7766e-06	5.4581e-06	426.56	143.21	123.64	42.667	6.3498e-06	53.116	146.797	135.238	152.812	89.750	251.856	237.664	89.569	94.586	222.837	211.560	93.971	98.479	98.578	103.225	243.605	102.593	-8191	255	
1400.037	1	1	0	0	0.12814	0.13992	0.13775	0.22378	0.019748	0.12261	0.21933	0.070641	0.21756	0.19734	0.28836	0.12362	0.25471	0.23504	0.22661	0.21284	-1.7604	-2.5896	-2.1167	-2.3958	-2.4042	-1.9333	-2.5979	-2.4208	-2.05	-2.375	-2.1188	-2.4542	-2.5	-2.275	-2.4271	-2.25	239.604	339.679	144.248	325.478	291.608	237.613	373.440	336.373	249.150	256.508	94.971	341.098	429.851	386.419	137.399	419.893	0.00048605	0.00026686	5.4436e-05	1359.2	3.4806e-06	5.8786e-06	1357.6	366.65	1.8574e-06	2.8198e-06	419.31	139.58	120.74	41.838	5.3279e-06	51.553	0.00052694	0.00049998	0.00016321	1375	5.644e-06	5.6624e-06	1375.3	373.01	5.6385e-06	5.6254e-06	427.17	142.75	123.48	42.709	6.3713e-06	52.885	159.265	83.186	256.258	89.845	250.265	241.240	89.699	94.425	170.922	423.891	93.835	98.384	99.061	103.591	214.484	102.398	-8191	255	
1400.131	1	1	0	0	0.19341	0.071006	0.16307	0.087002	0.10862	0.081695	0.31932	0.32215	0.059294	0.0064337	0.095257	0.15149	0.14036	0.027031	0.16059	0.21306	-1.725	-2.4167	-2.1771	-2.375	-2.5667	-1.9667	-2.3833	-2.3396	-1.9146	-2.3563	-2.3063	-2.1688	-2.425	-2.1354	-2.3646	-2.3333	158.783	134.229	383.139	358.251	156.644	383.385	321.129	174.083	265.273	187.925	178.722	130.152	212.323	399.388	305.859	419.513	0.00049977	0.00041622	0.00022772	1353.9	5.2911e-06	7.1375e-06	1354.1	366.62	2.838e-06	6.0325e-06	418.59	139.91	120.6	41.648	4.7922e-06	51.557	0.0005106	0.00052319	0.00016071	1371.9	5.3737e-06	5.839e-06	1373.8	372.29	5.4191e-06	5.8749e-06	426.67	142.6	123.06	42.797	6.1781e-06	52.718	155.445	214.751	155.444	89.905	280.124	195.251	89.774	94.354	250.424	185.628	93.877	98.433	98.802	103.372	192.276	102.432	-8191	255	
1400.227	1	1	0	0	0.18343	0.068474	0.18188	0.12923	0.16308	0.13427	0.26834	0.1632	0.24652	0.10402	0.15976	0.20141	0.38556	0.15742	0.1698	0.13037	-1.6083	-2.4917	-2.0667	-2.3229	-2.3333	-2.0187	-2.3042	-2.5104	-1.9958	-2.2958	-2.3167	-2.0458	-2.5854	-2.2687	-2.2938	-2.6479	420.374	104.575	435.373	131.066	126.707	403.261	77.538	422.822	81.573	83.413	77.400	316.970	431.467	421.015	245.964	426.413	0.00054152	0.00047673	0.00032185	1354.7	3.0504e-06	2.0307e-06	1358.6	367.01	5.1485e-06	9.7819e-06	418.27	139.79	121.83	41.89	9.2882e-06	51.622	0.00049511	0.00054438	0.00015367	1369.7	5.3313e-06	6.1308e-06	1373.9	371.83	5.3964e-06	6.1261e-06	425.16	142.44	123.62	42.883	5.9112e-06	52.688	155.311	207.173	122.029	89.951	174.133	128.606	89.681	94.522	161.202	203.275	93.857	98.347	98.721	103.231	225.312	102.197	-8191	255	
1400.323	1	1	0	0	0.17594	0.18249	0.14746	0.14548	0.086463	0.23054	0.19987	0.20515	0.17802	0.27467	0.13571	0.11257	0.40208	0.27086	0.081961	0.21035	-1.5521	-2.2646	-2.1396	-2.2271	-2.45	-2.175	-2.2417	-2.4354	-2.1396	-2.3146	-2.3792	-2.0792	-2.4458	-2.1667	-2.1396	-2.575	338.122	237.989	100.500	405.488	403.544	116.606	419.064	387.982	160.131	174.814	411.837	209.109	354.396	100.793	363.396	144.393	0.00059676	0.00016431	0.00024267	1358.2	7.218e-06	2.8577e-06	1355.2	365.35	9.771e-06	7.9374e-06	416.22	139.75	121.22	41.767	6.6198e-06	51.556	0.0005014	0.00056296	0.00014806	1370.6	5.4854e-06	6.2127e-06	1371	371.27	5.6131e-06	6.2261e-06	424.16	142.39	123.64	42.887	5.6951e-06	52.672	149.202	145.730	173.873	89.788	225.430	224.682	89.787	94.504	230.396	210.703	93.994	98.205	98.636	103.380	186.184	102.454	-8191	255	
1400.419	1	1	0	0	0.27626	0.099252	0.1188	0.17501	0.28449	0.16388	0.15736	0.15477	0.15478	0.23497	0.15152	0.27037	0.041161	0.21279	0.14559	0.16657	-1.6167	-2.2979	-2.2188	-2.1	-2.3146	-2.2125	-2.3104	-2.5833	-2.0396	-2.3646	-2.5021	-2.1083	-2.3958	-2.4271	-2.225	-2.5792	119.080	323.313	99.247	364.706	335.594	197.366	431.294	85.117	223.024	310.889	368.127	334.468	331.306	77.364	234.460	166.789	0.00052514	0.00026703	0.00015764	1355.7	5.0951e-06	5.7473e-07	1354.1	367.15	6.772e-06	5.9338e-06	417.73	139.38	121.78	41.621	2.9058e-06	51.57	0.00052792	0.00056076	0.00014115	1368.7	5.7904e-06	6.1087e-06	1369.7	371.77	5.9691e-06	6.0602e-06	423.56	142.07	124.05	42.786	5.4946e-06	52.711	151.178	131.272	132.782	89.714	207.507	194.805	89.580	94.385	216.192	318.349	93.817	98.432	98.786	103.351	194.388	102.657	-8191	255	
1400.516	1	1	0	0	0.28153	0.1523	0.090211	0.28824	0.10513	0.0586	0.1186	0.24768	0.058347	0.19995	0.10534	0.099466	0.088177	0.026914	0.082625	0.051736	-1.7313	-2.2104	-2.325	-2.2917	-2.25	-2.3646	-2.3229	-2.4875	-2.0333	-2.2292	-2.4208	-2.2646	-2.4854	-2.2979	-1.9604	-2.5167	125.701	317.734	280.961	382.993	115.440	178.729	384.216	409.584	374.832	282.044	310.038	335.698	327.869	243.422	429.962	407.916	0.00048061	0.0001801	3.3845e-05	1357.6	4.9838e-06	2.6704e-06	1352.8	366.79	6.358e-06	4.6673e-06	418.96	139.83	121.45	41.768	4.6143e-06	51.67	0.00055915	0.00054264	0.00013841	1368.7	6.1158e-06	5.877e-06	1370.8	371.64	6.2062e-06	5.8598e-06	424.08	142.24	124.35	42.779	5.4824e-06	52.751	154.747	187.894	191.702	89.932	217.822	264.915	89.545	94.469	231.917	234.665	93.949	98.307	98.945	103.039	182.245	102.901	-8191	255	
1400.612	1	1	0	0	0.20219	0.076872	0.087154	0.28611	0.14052	0.18365	0.27076	0.24922	0.12604	0.10918	0.31429	0.14385	0.22279	0.25701	0.096495	0.13949	-1.5833	-2.1604	-2.2979	-2.3542	-2.4938	-2.1688	-2.1312	-2.7375	-2.0604	-2.05	-2.6104	-2.1896	-2.3229	-2.3333	-2.0854	-2.4583	82.100	188.501	302.059	99.390	112.425	111.118	318.520	410.083	148.865	215.416	382.030	309.180	387.586	388.236	176.855	205.459	0.00049651	0.00036762	0.00015456	1357.5	4.1814e-06	6.0211e-07	1356.1	365.9	3.2583e-06	1.968e-06	418.07	140.39	121.46	41.808	3.7199e-06	51.723	0.00057141	0.00052357	0.00013595	1371.4	6.2573e-06	5.6578e-06	1369	372.06	6.2696e-06	5.6588e-06	423.9	142.79	124.01	42.691	5.39e-06	52.973	153.167	316.667	144.071	89.792	204.464	117.185	89.771	94.321	208.264	95.506	93.862	98.150	99.053	103.304	318.097	102.496	-8191	255	
1400.731	1	1	0	0	0.29723	0.065729	0.29973	0.17564	0.11025	0.092678	0.27546	0.26935	0.17816	0.087482	0.2835	0.19718	0.090823	0.16758	0.10559	0.11201	-1.9312	-1.9729	-2.4333	-2.325	-2.3229	-2.3812	-2.0229	-2.4729	-2.2604	-2.0438	-2.5375	-2.2104	-2.3	-2.4604	-1.8417	-2.5333	184.533	176.768	173.398	154.630	102.651	355.018	327.779	83.784	219.619	107.000	402.238	386.840	436.149	105.336	115.764	96.885	0.00057698	0.00031171	0.0001736	1352.5	3.6003e-06	2.3774e-06	1350.9	368.48	1.8583e-06	5.4697e-06	419.06	139.8	121	41.623	1.1387e-05	51.766	0.00056459	0.00051241	0.00013456	1373.3	6.0634e-06	5.5467e-06	1370.1	373.4	6.0024e-06	5.554e-06	424.11	143.2	124.08	42.573	5.4855e-06	53.209	161.879	173.005	88.053	89.745	293.250	136.857	89.656	94.192	218.195	254.579	94.218	98.202	98.878	103.219	201.165	102.588	-8191	255	
1400.804	1	1	0	0	0.36372	0.11589	0.33971	0.19223	0.11332	0.20019	0.056802	0.15288	0.040204	0.20806	0.04788	0.11859	0.11898	0.16224	0.11314	0.1853	-1.8875	-2.0875	-2.3688	-2.5021	-2.1479	-2.3042	-2.2625	-2.3937	-2.225	-1.7625	-2.4667	-2.3146	-2.1604	-2.45	-2.2938	-2.4375	430.084	172.230	194.970	79.532	233.083	344.450	423.887	343.616	291.008	161.924	366.304	77.238	163.568	387.766	108.862	182.844	0.00056045	0.00025942	0.00022854	1356.8	4.4342e-06	2.2139e-06	1351.3	367.82	8.4982e-06	4.6686e-06	417.79	139.35	121.32	41.79	8.1474e-06	51.509	0.00054465	0.00050546	0.00013751	1374.1	5.8095e-06	5.4489e-06	1369.3	373.47	5.8204e-06	5.5216e-06	423.92	143.11	123.88	42.601	5.8015e-06	53.127	153.172	160.866	155.054	89.754	199.513	292.075	89.558	94.612	242.436	197.677	93.819	98.306	98.958	103.340	240.143	102.652	-8191	255	
1400.900	1	1	0	0	0.23509	0.36591	0.11491	0.16427	0.29125	0.13486	0.11746	0.17236	0.36572	0.075647	0.14647	0.11217	0.16143	0.061376	0.14968	0.12325	-1.7854	-1.7812	-2.3167	-2.4354	-2.05	-2.3479	-2.1854	-2.3646	-2.2021	-1.9229	-2.5354	-2.1813	-2.2208	-2.5104	-2.1542	-2.325	364.541	200.129	335.330	104.981	396.572	159.538	386.053	204.083	324.792	401.167	352.948	369.944	372.420	383.216	113.012	310.063	0.00051684	0.00029533	0.00011003	1359.4	3.6708e-06	3.773e-06	1355.8	366.3	5.5983e-06	1.5253e-06	416.74	139.02	121.09	41.819	7.8945e-06	51.557	0.00052132	0.00049716	0.00014715	1376.8	5.7039e-06	5.3195e-06	1373.8	373.18	5.6184e-06	5.3368e-06	425.49	142.6	123.7	42.584	6.0981e-06	53.053	152.507	217.025	166.444	89.794	246.402	199.171	89.579	94.516	232.069	214.662	93.640	98.360	98.809	103.567	198.924	102.543	-8191	255	
1401.021	1	1	0	0	0.089681	0.11511	0.31081	0.13507	0.089755	0.013668	0.04994	0.04226	0.16662	0.13303	0.045261	0.20228	0.28155	0.34194	0.054224	0.15645	-2.0187	-2.075	-2.4083	-2.1583	-1.8813	-2.5312	-2.2812	-2.4938	-2.5854	-1.8542	-2.4208	-2.4146	-2.0542	-2.55	-2.2271	-2.2812	159.988	232.057	177.670	121.929	100.675	301.172	338.476	388.052	361.579	397.056	117.370	80.548	417.542	405.672	341.859	404.435	0.00047486	0.00078607	0.00019195	1357.2	4.774e-06	9.9205e-06	1355.2	366.57	5.0546e-06	6.6866e-06	418.03	139.78	121.44	41.854	1.786e-06	51.705	0.0005038	0.00048463	0.00015445	1373.5	5.4513e-06	5.2619e-06	1373.8	372.65	5.4167e-06	5.3983e-06	426.25	142.67	123.64	42.649	6.2213e-06	53.004	154.024	176.835	141.213	89.842	154.403	186.172	89.691	94.305	228.147	189.134	93.770	98.363	98.806	103.308	85.262	102.689	-8191	255	
1401.115	1	1	0	0	0.11608	0.057924	0.19066	0.14252	0.091893	0.30491	0.21027	0.17417	0.27416	0.18401	0.15021	0.11445	0.36025	0.15096	0.05951	0.30245	-2.1042	-2.0812	-2.2917	-2.3125	-1.9021	-2.3083	-2.3479	-2.3854	-2.2125	-1.8813	-2.5062	-2.2333	-2.0667	-2.2958	-2.1729	-2.3021	179.482	251.067	281.614	79.706	267.938	417.720	372.314	92.759	369.089	273.200	427.392	82.994	343.732	386.263	141.125	383.671	0.00048851	0.00027781	0.00036118	1357.8	7.0723e-06	3.9897e-06	1357.3	366.65	2.8734e-06	6.9229e-06	417.7	139.56	121.16	41.746	3.8767e-06	51.593	0.00048886	0.00050611	0.00015822	1372.2	5.3308e-06	5.5492e-06	1374.9	372.77	5.2525e-06	5.6559e-06	426.65	142.46	123.61	42.828	6.1337e-06	52.842	155.634	196.389	194.817	89.659	212.641	258.390	89.630	94.521	228.325	188.950	94.014	98.342	98.906	103.114	251.634	102.279	-8191	255	
1401.211	1	1	0	0	0.2064	0.30059	0.40808	0.10367	0.10975	0.13295	0.086194	0.49558	0.23163	0.32499	0.076504	0.010652	0.1403	0.062093	0.18653	0.29128	-2.0938	-1.9813	-2.1458	-2.4292	-1.9229	-2.2438	-2.4125	-2.2604	-2.4542	-2.1063	-2.5521	-2.3854	-2.1354	-2.525	-2.2271	-2.3479	293.678	204.007	186.238	358.309	331.272	109.457	295.371	427.827	377.571	186.488	86.543	251.302	416.961	339.470	192.995	100.335	0.00053629	0.00081369	0.00020857	1356.7	3.1306e-06	2.5479e-06	1356	367.6	3.3542e-06	4.1394e-06	419.2	139.04	121.4	41.817	2.5355e-06	51.709	0.00047982	0.00053596	0.00015481	1370.2	5.2376e-06	5.8942e-06	1374.3	372.69	5.2039e-06	5.9903e-06	425.88	142.17	123.67	42.863	5.8794e-06	52.873	152.682	153.472	168.480	89.947	261.354	133.768	89.682	94.503	200.900	199.751	93.828	98.292	98.749	103.243	263.402	102.714	-8191	255	
1401.308	1	1	0	0	0.21392	0.11448	0.20614	0.12123	0.14814	0.068762	0.0547	0.35555	0.086741	0.142	0.34432	0.36311	0.12756	0.20201	0.20674	0.21309	-2.1333	-2.0979	-2.1229	-2.6042	-1.9083	-2.3521	-2.5271	-2.0417	-2.3958	-2.0792	-2.3042	-2.3458	-1.9792	-2.4729	-2.1792	-1.9979	156.014	160.786	378.521	374.855	272.025	374.243	193.187	299.896	90.211	432.401	96.742	346.967	276.366	252.099	180.727	365.787	0.00054145	0.00026583	6.7624e-05	1355.7	7.1208e-06	4.285e-06	1353.2	367.31	3.353e-06	6.0803e-06	416.53	139.7	121.36	41.824	4.373e-06	51.56	0.00048467	0.00055309	0.0001478	1371.1	5.3927e-06	6.1785e-06	1370.8	372.37	5.4092e-06	6.1594e-06	424.6	142.06	123.59	42.964	5.5722e-06	52.737	154.974	178.798	92.784	89.943	239.267	220.386	89.849	94.536	170.803	218.164	93.660	98.337	98.892	103.417	219.674	102.630	-8191	255	
1401.404	1	1	0	0	0.10108	0.099458	0.13034	0.067055	0.13081	0.22198	0.12361	0.53094	0.081042	0.18528	0.09113	0.17164	0.17689	0.17082	0.084851	0.13202	-1.9479	-2.1125	-2.0167	-2.6458	-2.075	-2.1083	-2.425	-2.25	-2.4271	-2.1813	-2.1042	-2.4542	-2.1896	-2.2771	-2.2938	-2.1104	370.721	182.349	320.808	213.273	141.236	149.904	390.378	402.371	313.081	158.147	408.811	363.511	285.274	409.655	176.970	380.266	0.0006252	0.00016159	1.9512e-05	1354.8	4.9561e-06	5.0235e-06	1349.6	366.86	4.4481e-06	3.3969e-06	417.39	139.4	121.89	41.82	7.0366e-06	51.861	0.00050592	0.00055652	0.00014301	1368.1	5.7417e-06	6.0782e-06	1369.2	372.08	5.7193e-06	5.9919e-06	424.97	141.98	124.13	42.909	5.404e-06	52.805	154.355	212.266	151.366	89.798	264.699	249.717	89.706	94.289	210.446	104.713	93.987	98.254	98.735	103.398	225.967	102.496	-8191	255	
1401.500	1	1	0	0	0.3571	0.29138	0.28892	0.30742	0.13434	0.024403	0.15809	0.11707	0.14756	0.20822	0.15362	0.22446	0.079884	0.052631	0.20331	0.18879	-2.1063	-2.2	-2.1375	-2.725	-2.1063	-2.3646	-2.6146	-2.1333	-2.2583	-2.2521	-2.1521	-2.5917	-1.8521	-2.3083	-2.2438	-2.0917	279.352	127.360	241.240	357.280	381.743	417.475	388.661	79.254	161.161	223.906	392.558	429.801	229.563	419.979	92.299	326.365	0.00056805	0.0002741	0.00012709	1355.5	4.1644e-06	2.1849e-06	1354.9	367.68	4.0194e-06	6.8623e-06	419.18	139.66	121.41	41.711	3.6843e-06	51.575	0.00053304	0.00053862	0.0001384	1368.4	5.9276e-06	5.8304e-06	1368.2	372.39	5.9686e-06	5.7527e-06	423.52	142.06	124.15	42.859	5.2356e-06	52.736	151.095	432.861	258.586	89.651	225.251	435.276	89.846	94.389	216.214	250.189	93.853	98.370	98.779	103.371	271.150	102.536	-8191	255	
1401.620	1	1	0	0	0.1367	0.16199	0.0045735	0.18941	0.18621	0.26619	0.15077	0.4867	0.11859	0.19116	0.19036	0.22141	0.06135	0.46436	0.27421	0.22345	-1.8813	-2.0833	-1.9188	-2.625	-1.9854	-2.0833	-2.5354	-1.975	-2.2292	-2.225	-2.2833	-2.5292	-2.1312	-2.2292	-2.3083	-2.2229	215.298	265.964	197.846	338.718	151.046	432.900	413.840	300.188	424.148	169.167	159.991	415.626	177.881	330.700	128.704	77.845	0.00054745	0.00012978	0.00013424	1351.3	3.2231e-06	4.4852e-06	1350.1	367.3	5.526e-06	3.9185e-06	418.92	139.22	121.85	41.913	3.237e-06	51.88	0.00055174	0.00050517	0.00013382	1368.4	6.0227e-06	5.5709e-06	1366.6	372.65	6.0562e-06	5.4764e-06	423.7	142.08	124.16	42.767	5.2268e-06	52.958	153.341	197.756	269.779	89.714	184.305	198.844	89.647	94.341	258.173	425.343	94.060	98.092	98.871	103.273	243.565	102.653	-8191	255	
1401.717	1	1	0	0	0.14803	0.14381	0.067027	0.16904	0.13259	0.1604	0.1472	0.15091	0.34328	0.16463	0.1577	0.20727	0.35035	0.20244	0.1449	0.16878	-1.8771	-2.3	-2.0542	-2.6792	-2.1042	-2.0312	-2.4479	-1.9875	-2.3042	-2.2833	-2.1354	-2.4958	-2.3625	-2.2938	-2.2521	-2.1667	292.461	359.552	169.243	145.188	360.258	434.502	374.175	346.126	243.698	159.124	144.207	330.959	376.736	396.631	254.678	116.551	0.00050983	0.00018939	0.00016358	1354	3.0317e-06	2.9477e-06	1352.4	367.02	5.1643e-06	2.1019e-06	417.3	139.57	121.52	41.854	6.0554e-06	51.831	0.00055404	0.00050155	0.00013345	1370.6	6.0068e-06	5.5236e-06	1366.9	373.19	5.9266e-06	5.4027e-06	423.21	142.9	123.89	42.727	5.1487e-06	53.087	156.291	178.655	178.686	89.807	227.894	295.931	89.657	94.547	218.095	219.187	94.080	98.445	98.627	103.359	241.443	102.659	-8191	255	
1401.813	1	1	0	0	0.082049	0.094914	0.082804	0.094297	0.10951	0.2268	0.19198	0.13176	0.17865	0.1784	0.31517	0.18417	0.15095	0.13153	0.093075	0.025655	-1.7958	-2.2375	-1.8333	-2.6208	-2.1562	-2.1458	-2.6771	-2.2562	-2.1083	-2.5625	-2.1333	-2.4188	-2.2271	-2.0333	-2.5542	-2.4146	407.329	306.060	175.904	308.698	162.464	258.762	345.468	381.128	196.457	341.950	106.379	389.306	89.123	124.709	408.094	411.970	0.00048925	0.00057224	3.1331e-05	1356.2	4.0707e-06	8.1977e-06	1353.5	366.92	3.9315e-06	5.4261e-06	418.76	139.73	121.19	41.837	3.797e-06	51.565	0.00053014	0.00048644	0.00013337	1371.9	5.7038e-06	5.3711e-06	1365.6	373.69	5.7017e-06	5.2571e-06	423.22	142.86	123.74	42.636	5.4393e-06	53.11	148.163	154.024	110.060	89.914	199.354	178.101	89.677	94.456	190.159	170.963	94.040	98.408	98.853	103.395	218.904	102.732	-8191	255	
1401.909	1	1	0	0	0.19564	0.11474	0.18311	0.30816	0.33642	0.16043	0.061997	0.2565	0.29965	0.22342	0.2527	0.11687	0.42758	0.20851	0.048413	0.17562	-1.6812	-2.3229	-1.95	-2.4208	-2.1	-2.0625	-2.5229	-2.2583	-2.1542	-2.4292	-2.125	-2.2292	-2.4813	-1.9271	-2.325	-2.3	401.382	126.529	161.192	86.744	260.916	309.984	277.221	103.081	223.322	394.914	436.032	159.013	391.776	398.352	236.325	95.576	0.00056497	0.00057924	0.00046076	1354.7	3.7427e-06	4.1383e-06	1348.5	366.73	1.0261e-05	3.4249e-06	419.36	139.96	121.15	41.736	5.1591e-06	51.582	0.00051584	0.00047294	0.0001413	1372.1	5.4958e-06	5.2356e-06	1369.9	373.85	5.5095e-06	5.1263e-06	425.61	142.85	123.49	42.55	5.7547e-06	52.992	161.856	181.023	155.657	89.778	262.977	248.348	89.614	94.329	222.980	265.695	93.944	98.235	98.672	103.314	219.564	102.541	-8191	255	
1402.028	1	1	0	0	0.20539	0.094123	0.06835	0.15954	0.20072	0.19289	0.096854	0.39097	0.091484	0.19221	0.40022	0.3167	0.18668	0.32945	0.24607	0.1097	-1.6313	-2.3396	-2.0563	-2.3854	-2.4229	-2.0438	-2.5229	-2.3729	-1.9562	-2.5729	-2.3688	-2.2125	-2.4854	-2.15	-2.3896	-2.4271	86.403	106.207	428.509	423.400	280.099	222.872	378.229	409.383	149.287	198.348	363.889	369.000	84.638	99.179	307.272	400.700	0.00053027	0.00028404	0.0002553	1356.9	3.634e-06	6.3327e-06	1355.7	366.88	4.21e-06	1.8843e-06	419.37	139.56	121.68	41.651	4.1689e-06	51.7	0.00049955	0.00046303	0.0001498	1371.3	5.3474e-06	5.1254e-06	1371.4	372.87	5.3605e-06	5.1248e-06	426	142.48	123.5	42.603	6.0407e-06	52.89	152.967	221.845	170.428	89.728	187.521	186.298	89.657	94.679	231.456	409.743	93.842	98.354	98.771	103.541	264.353	102.447	-8191	255	
1402.099	1	1	0	0	0.19579	0.18352	0.15348	0.29197	0.18622	0.25236	0.12347	0.17019	0.09169	0.13706	0.16017	0.17056	0.18617	0.077492	0.15389	0.16788	-1.6271	-2.4354	-2.0625	-2.4042	-2.4583	-1.9458	-2.6208	-2.1604	-2.0375	-2.3979	-2.2542	-2.275	-2.4729	-2.0062	-2.4396	-2.5125	134.564	372.839	369.930	414.244	285.480	332.148	353.727	399.311	185.407	289.775	139.292	384.707	169.936	202.279	91.079	352.156	0.00056182	0.00024479	0.00022352	1356.3	1.828e-06	8.6995e-06	1353.4	366.34	4.8145e-06	3.3101e-06	417.06	139.67	121.45	41.811	6.0654e-06	51.63	0.00048794	0.00047624	0.00015507	1370.9	5.185e-06	5.3499e-06	1372.5	372.2	5.2485e-06	5.3757e-06	426.02	142.35	123.17	42.726	5.9871e-06	52.794	159.779	193.833	178.057	89.827	233.289	213.538	89.689	94.463	185.569	209.873	93.871	98.284	98.851	103.427	288.046	102.750	-8191	255	
1402.196	1	1	0	0	0.18176	0.064113	0.23042	0.1356	0.16265	0.089306	0.28611	0.22774	0.059495	0.15099	0.012403	0.10267	0.042247	0.19758	0.1678	0.1681	-1.4875	-2.5792	-2.0938	-2.3187	-2.3396	-1.9854	-2.4521	-2.5104	-1.9521	-2.2729	-2.3646	-2.0625	-2.4375	-2.1292	-2.2229	-2.3479	298.188	393.517	293.053	416.416	386.063	299.858	410.715	366.972	274.292	77.865	372.304	290.411	182.395	170.098	150.895	329.393	0.00051159	0.00089992	0.00019381	1354.6	2.9812e-06	1.9946e-06	1353.6	367.3	3.246e-06	5.5726e-06	420.22	140.2	121.21	41.634	9.3372e-06	52.05	0.00047653	0.00050701	0.00015041	1368	5.1009e-06	5.7035e-06	1371.3	371.98	5.2356e-06	5.8097e-06	426.47	142.28	123.31	42.751	5.9621e-06	52.872	155.589	171.462	132.702	89.889	257.343	140.018	89.679	94.545	246.831	209.040	93.942	98.291	98.878	103.498	191.858	102.696	-8191	255	
1402.292	1	1	0	0	0.14521	0.074976	0.24414	0.43821	0.074572	0.11531	0.24615	0.13027	0.24352	0.08525	0.26975	0.20465	0.30568	0.12537	0.17186	0.095132	-1.4688	-2.2875	-2.2562	-2.0854	-2.475	-2.0812	-2.4333	-2.5042	-2	-2.3812	-2.3688	-1.9937	-2.5062	-2.3063	-1.975	-2.4896	421.236	248.053	120.203	395.333	282.485	193.639	404.494	371.692	393.706	86.227	282.215	331.436	163.624	116.893	87.806	253.767	0.00055064	0.00064517	3.2863e-05	1354	2.8504e-06	8.7949e-06	1358.3	365.36	7.5154e-06	5.7327e-06	418.69	139.54	121.05	41.539	2.8562e-06	51.663	0.00048755	0.00055535	0.00014831	1368.5	5.2534e-06	6.12e-06	1371.5	371.79	5.3978e-06	6.1698e-06	424.98	142.05	123.26	42.818	5.7469e-06	52.624	153.438	178.141	124.698	89.750	261.262	176.373	89.681	94.469	230.601	178.449	93.994	98.239	98.856	103.493	188.117	102.446	-8191	255	
1402.412	1	1	0	0	0.18442	0.35113	0.19951	0.17008	0.08854	0.19358	0.28985	0.14931	0.072322	0.34502	0.086058	0.21784	0.26687	0.20056	0.19109	0.38439	-1.4792	-2.2458	-2.1625	-2.0979	-2.2625	-2.1771	-2.4792	-2.4688	-2.0292	-2.1063	-2.4479	-1.9354	-2.6896	-2.2333	-2.0854	-2.5667	396.314	142.614	185.833	115.135	155.146	136.604	403.835	376.590	283.341	79.410	188.052	404.581	379.300	376.980	354.965	403.735	0.00051784	0.0003584	6.703e-05	1354	5.7798e-06	6.499e-06	1351.9	367.7	1.0087e-05	2.9578e-06	417.19	139.35	121.1	41.792	1.3201e-06	51.464	0.00051567	0.00056732	0.00014314	1367.1	5.6682e-06	6.2345e-06	1368.1	371.92	5.7818e-06	6.2268e-06	423.62	142	123.8	42.766	5.6889e-06	52.571	153.914	161.016	116.583	89.908	210.157	177.426	89.789	94.384	194.973	194.945	93.928	98.261	98.858	103.597	349.449	102.585	-8191	255	
1402.509	1	1	0	0	0.26905	0.26036	0.18002	0.48668	0.053042	0.13211	0.15761	0.26085	0.23058	0.17788	0.3347	0.094059	0.142	0.17299	0.16172	0.17181	-1.6667	-2.1437	-2.3542	-2.1479	-2.3333	-2.0625	-2.2708	-2.5604	-2.1	-2.2771	-2.425	-2.0438	-2.3792	-2.2875	-2.0229	-2.5958	208.600	128.953	216.635	383.153	376.028	109.234	396.707	411.731	295.467	332.133	118.615	357.249	329.835	423.110	315.849	373.025	0.0006502	0.00013558	0.00019287	1349.2	4.1491e-06	3.6568e-06	1354	366.05	7.0579e-06	7.9988e-06	419.62	139.29	121	41.64	3.9951e-06	51.43	0.00054977	0.00056354	0.00014194	1367	6.0331e-06	6.1154e-06	1368	371.3	6.1614e-06	6.1028e-06	423.85	142.1	124.01	42.771	5.5988e-06	52.716	156.856	91.577	106.759	89.720	203.628	390.096	89.743	94.462	202.745	224.148	93.887	98.215	98.818	103.327	204.392	102.420	-8191	255	
1402.605	1	1	0	0	0.14586	0.21495	0.22208	0.35848	0.17144	0.17191	0.29372	0.044008	0.17221	0.47547	0.056915	0.1096	0.058857	0.27123	0.15013	0.048137	-1.5458	-2.2313	-2.3292	-2.2	-2.4208	-2.3021	-2.2	-2.5771	-2.1312	-2.1542	-2.5833	-1.9042	-2.3958	-2.3229	-1.7125	-2.6188	321.631	325.255	340.194	429.946	150.065	258.987	326.354	374.750	230.583	244.957	372.108	376.840	133.999	419.974	96.944	426.998	0.00058055	0.00041958	0.00016517	1353.2	6.6932e-06	5.4706e-06	1356.5	367.52	4.6737e-06	2.8701e-06	418.29	139.35	121.46	41.652	2.0443e-06	51.796	0.00057476	0.00054214	0.00013887	1369.6	6.3281e-06	5.8933e-06	1368.9	372.61	6.2614e-06	5.7879e-06	423.24	142.16	124.07	42.66	5.3633e-06	52.791	148.537	333.470	126.882	89.815	290.166	253.986	89.721	94.444	221.137	410.759	93.808	98.362	98.704	103.318	299.190	102.725	-8191	255	
1402.701	1	1	0	0	0.18454	0.16714	0.1383	0.23348	0.17557	0.29894	0.24671	0.34567	0.046512	0.05042	0.26307	0.23945	0.31871	0.20118	0.19142	0.20973	-1.8979	-2.0896	-2.5104	-2.2333	-2.2021	-2.2167	-2.0479	-2.4417	-1.9729	-2	-2.4667	-2.0667	-2.4479	-2.3125	-2.0104	-2.5583	78.544	370.448	398.482	347.466	204.175	432.300	395.721	360.229	130.650	345.267	346.010	133.176	331.740	431.881	190.648	239.121	0.00049934	0.00011405	0.00017845	1352.7	3.6149e-06	4.1065e-06	1354	366.96	6.1378e-06	2.4057e-06	419.5	139.5	121.19	41.746	9.8953e-06	51.707	0.00056338	0.00051017	0.00013144	1368.7	6.0835e-06	5.4896e-06	1367.6	372.92	6.0323e-06	5.4768e-06	423.62	142.84	124	42.586	5.2362e-06	53.041	161.121	335.028	196.840	89.820	148.549	97.929	89.653	94.358	290.440	229.995	93.990	98.280	98.906	103.436	259.068	102.626	-8191	255	
1402.797	1	1	0	0	0.19829	0.16285	0.21729	0.27206	0.26755	0.18941	0.26991	0.10034	0.23611	0.081663	0.31426	0.2717	0.13375	0.31162	0.088151	0.13053	-1.8167	-2.1375	-2.3604	-2.4062	-2.3271	-2.4667	-2.1896	-2.5354	-2.1937	-2.1958	-2.7083	-2.2167	-2.15	-2.3292	-1.9771	-2.2771	82.055	91.482	264.492	421.084	161.299	191.181	353.274	425.677	272.142	254.191	342.294	403.411	365.927	132.698	196.950	169.613	0.000465	0.00032192	0.00038439	1356.3	4.765e-06	6.3621e-06	1352.7	367.26	2.9378e-06	3.6431e-06	417.17	140.59	121.31	41.813	1.4227e-06	51.78	0.00053688	0.00049979	0.00013061	1370.9	5.7383e-06	5.2769e-06	1367	372.84	5.6734e-06	5.3012e-06	423.05	142.95	123.61	42.583	5.3906e-06	53.074	154.162	139.251	141.891	89.786	225.908	250.060	89.817	94.491	247.558	181.663	93.878	98.351	98.955	103.372	176.121	102.525	-8191	255	
1402.893	1	1	0	0	0.28387	0.08431	0.21213	0.48559	0.042925	0.23964	0.093573	0.1783	0.27456	0.19036	0.18668	0.30079	0.30003	0.32594	0.40185	0.29824	-2.1271	-2.0354	-2.4292	-2.4104	-2.1083	-2.4708	-2.2938	-2.5854	-2.2896	-1.8021	-2.375	-2.3125	-2.0604	-2.5479	-1.9479	-2.3396	278.915	149.934	239.938	375.205	300.738	116.706	108.630	342.201	128.923	434.555	420.527	412.225	355.925	137.200	409.864	427.777	0.00051063	0.00056629	0.00029562	1352	4.2748e-06	7.1141e-07	1353.2	366.3	2.6159e-06	2.6e-06	418.31	139.31	120.94	41.785	1.6012e-05	51.507	0.00051182	0.00048396	0.00013712	1372.2	5.6172e-06	5.2056e-06	1370.4	372.58	5.5085e-06	5.2683e-06	425.03	142.7	123.53	42.548	5.6492e-06	52.932	159.947	174.414	120.241	89.849	189.831	428.649	89.777	94.452	206.280	256.028	94.029	98.266	98.941	103.351	202.381	102.600	-8191	255	
1402.989	1	1	0	0	0.021617	0.091551	0.097826	0.27882	0.1411	0.17027	0.26204	0.23923	0.12071	0.35505	0.25307	0.35875	0.051334	0.023163	0.14556	0.22194	-1.7521	-1.8917	-2.3937	-2.3917	-1.9188	-2.5229	-2.2104	-2.4396	-2.4062	-2.0812	-2.4604	-2.0187	-2.0312	-2.3917	-2.0687	-2.4458	317.196	103.155	198.711	423.978	320.200	419.511	334.557	370.696	280.180	173.180	86.770	342.257	81.211	375.320	359.898	391.091	0.00058343	0.00034531	0.00038825	1353.7	4.6362e-06	6.0666e-06	1351.4	366.27	4.6031e-06	7.5843e-06	417.01	139.39	121.34	41.694	6.3037e-06	51.53	0.00049366	0.00047247	0.00014345	1370.2	5.4309e-06	5.0689e-06	1371.1	372.7	5.3069e-06	5.1688e-06	425.28	142.51	123.42	42.522	5.932e-06	52.936	157.967	196.209	112.579	89.813	210.193	277.134	89.777	94.398	270.666	160.163	93.906	98.266	98.856	103.294	230.725	102.748	-8191	255	
1403.108	1	1	0	0	0.18243	0.16993	0.23116	0.21935	0.19975	0.21907	0.42286	0.26431	0.037194	0.15606	0.080827	0.19244	0.23361	0.23862	0.068181	0.061888	-1.8354	-2.0187	-2.3104	-2.4917	-2.0375	-2.3292	-2.275	-2.1625	-2.4146	-2.0875	-2.6312	-2.3646	-2.2188	-2.5563	-2.2062	-2.3187	413.225	290.419	386.215	355.461	249.591	102.328	376.763	374.899	281.127	144.159	192.905	127.296	92.921	303.991	127.926	390.411	0.0004682	0.00056104	0.00016252	1354.7	3.0229e-06	6.5922e-06	1353.5	366.02	2.8813e-06	1.0599e-05	419.71	140.12	121.13	41.605	5.8133e-06	51.896	0.00047842	0.00047846	0.00015085	1369.4	5.2422e-06	5.1673e-06	1371	372.07	5.0735e-06	5.2692e-06	425.66	142.44	123.42	42.57	5.9379e-06	52.841	147.541	169.793	139.602	89.860	196.974	253.370	89.918	94.492	185.287	217.039	93.663	98.538	98.962	103.391	251.249	102.525	-8191	255	
1403.204	1	1	0	0	0.27781	0.19848	0.22252	0.3661	0.044719	0.058083	0.39002	0.27722	0.17965	0.24047	0.43529	0.068626	0.18883	0.21809	0.24813	0.15561	-2.2313	-1.975	-2.3292	-2.5458	-2.0563	-2.3396	-2.2667	-2.1979	-2.3521	-2.05	-2.3333	-2.3167	-2.3083	-2.5083	-2.2125	-2.3354	265.914	129.989	246.426	118.899	374.615	255.379	427.523	324.963	316.057	393.016	363.966	420.445	429.160	411.573	260.300	290.568	0.0005295	0.00034601	0.00012336	1352.2	3.5253e-06	3.724e-06	1356	366.2	4.1231e-06	8.2358e-06	417.02	139.63	121.56	41.615	2.148e-06	51.61	0.00046453	0.00050211	0.0001503	1367.8	5.1293e-06	5.4771e-06	1370.1	371.63	5.0499e-06	5.6428e-06	424.75	142.32	123.38	42.744	5.8694e-06	52.783	149.476	148.463	128.831	89.834	208.959	191.976	89.743	94.490	190.341	183.311	93.740	98.259	98.765	103.302	260.803	102.591	-8191	255	
1403.300	1	1	0	0	0.13186	0.32746	0.32036	0.044068	0.087887	0.20884	0.15421	0.0094946	0.14347	0.16447	0.21149	0.27751	0.2833	0.16695	0.2778	0.23679	-1.9875	-2.0458	-2.1042	-2.3417	-1.8229	-2.3563	-2.3458	-2.275	-2.5146	-2.2625	-2.4938	-2.3792	-2.0271	-2.3083	-2.2979	-2.0708	179.662	369.342	376.097	423.116	386.720	175.873	332.814	305.618	116.785	330.818	288.826	100.381	418.161	310.158	329.267	337.860	0.00059961	0.00049262	0.00020434	1354	4.1667e-06	5.2751e-06	1351.7	367.59	5.6039e-06	4.2563e-06	417.77	139.84	121.11	41.543	4.6692e-06	51.601	0.00046623	0.00052816	0.00014498	1367.5	5.1024e-06	5.8564e-06	1368.4	371.85	5.1091e-06	5.8663e-06	424.22	141.69	123.13	42.747	5.5797e-06	52.725	154.576	175.799	148.877	89.739	209.010	191.573	89.553	94.392	285.697	231.093	93.834	98.384	98.915	103.154	216.834	102.559	-8191	255	
1403.397	1	1	0	0	0.098332	0.27097	0.15632	0.36992	0.15326	0.22446	0.2862	0.27681	0.1219	0.19393	0.13285	0.15563	0.15888	0.15916	0.16818	0.21	-2.0438	-2.0563	-2.0604	-2.5146	-2.1	-2.35	-2.2542	-2.1167	-2.4688	-2.1333	-2.3333	-2.4292	-2.1604	-2.3042	-2.2646	-1.8333	81.022	302.250	421.366	406.828	294.038	315.626	90.926	80.607	195.833	384.631	179.119	272.525	367.898	350.398	304.835	107.301	0.00050379	0.00022465	0.00022401	1356.9	4.1503e-06	4.954e-06	1353.2	366.85	5.4521e-06	2.8057e-06	416.73	139.76	121.07	41.617	3.193e-06	51.784	0.00048309	0.00054835	0.00014257	1365.4	5.3759e-06	5.9504e-06	1365.8	371.17	5.3589e-06	5.88e-06	423.46	141.9	123.39	42.81	5.3318e-06	52.698	161.881	92.938	263.586	89.662	229.118	194.127	89.645	94.251	207.849	120.625	93.974	98.376	98.937	103.664	211.263	102.902	-8191	255	
1403.493	1	1	0	0	0.2026	0.30999	0.10608	0.038649	0.088513	0.22984	0.42531	0.31277	0.16405	0.083968	0.16626	0.032821	0.17789	0.24217	0.11223	0.054074	-1.875	-2.0563	-2.0604	-2.4958	-1.8167	-2.2521	-2.4208	-2.0604	-2.35	-2.3125	-2.2271	-2.5146	-2.1229	-2.2729	-2.3021	-2.1167	288.512	78.541	196.672	222.495	215.149	391.428	394.159	317.876	220.487	120.470	382.800	342.880	77.230	127.727	105.674	173.632	0.00056638	0.000494	0.00010214	1353.3	4.5122e-06	5.7941e-06	1353	366.55	9.8843e-06	4.1007e-06	418.09	139.78	121.41	41.621	2.566e-06	51.563	0.00050937	0.00053539	0.00013716	1366	5.707e-06	5.8337e-06	1367.3	371.32	5.7071e-06	5.6872e-06	423.66	141.75	123.86	42.677	5.143e-06	52.593	152.949	247.307	110.717	89.899	202.722	162.441	89.706	94.490	223.431	218.172	93.895	98.161	98.775	103.308	181.845	102.585	-8191	255	
1403.589	1	1	0	0	0.1592	0.23504	0.2567	0.26737	0.22089	0.049318	0.16347	0.16084	0.14236	0.11501	0.30418	0.088745	0.14703	0.20029	0.10189	0.098309	-1.8708	-2.1417	-1.9083	-2.5938	-2.1167	-2.0458	-2.4146	-2.0563	-2.2833	-2.2687	-1.9667	-2.2875	-2.2375	-2.1958	-2.4271	-2.125	166.943	182.276	202.963	399.439	359.067	285.927	411.973	412.386	304.942	123.502	402.101	279.263	99.100	104.432	166.500	415.135	0.00055976	0.00033549	8.1188e-05	1353.7	3.6194e-06	3.5161e-06	1350.2	366.12	6.1473e-06	4.8861e-06	417.62	139.37	121.08	41.68	6.0485e-06	51.828	0.00053102	0.00050266	0.00013144	1364.1	5.8099e-06	5.5065e-06	1364.4	370.92	5.8811e-06	5.4763e-06	423.04	141.88	123.85	42.609	5.0471e-06	52.747	158.368	90.702	163.190	89.757	178.279	211.112	89.531	94.635	196.931	172.542	94.091	98.116	98.553	103.312	189.318	102.395	-8191	255	
1403.710	1	1	0	0	0.22169	0.19319	0.1401	0.25483	0.03958	0.31185	0.30467	0.44588	0.13607	0.092015	0.17421	0.11924	0.14802	0.15612	0.23682	0.10684	-1.9188	-2.2854	-1.9271	-2.45	-2.0187	-1.8813	-2.5604	-2.1688	-2.2021	-2.0979	-1.9833	-2.5687	-2.2375	-2.0375	-2.3292	-2.1979	136.566	353.279	422.349	393.810	95.690	131.703	393.828	390.562	183.949	107.248	189.723	397.563	79.045	307.423	168.027	400.277	0.00059823	0.00039806	0.00014683	1355.3	6.1446e-06	6.8902e-06	1348.9	366.7	3.4457e-06	6.7574e-06	417.1	139.38	120.87	41.579	7.1065e-06	51.513	0.00054322	0.00048744	0.00013013	1367.4	5.9028e-06	5.3788e-06	1363	372.11	5.8738e-06	5.2391e-06	422.53	142.12	123.57	42.6	5.033e-06	52.958	152.515	258.603	183.240	89.697	207.791	224.785	89.648	94.483	259.003	197.132	93.638	98.205	98.799	103.364	199.075	102.512	-8191	255	
1403.806	1	1	0	0	0.084137	0.2048	0.034745	0.023162	0.44386	0.18689	0.13417	0.15744	0.26987	0.07349	0.15907	0.27193	0.17536	0.0043882	0.17618	0.14608	-1.8104	-2.2979	-1.9229	-2.7292	-2.1083	-1.9896	-2.4917	-1.9875	-2.2542	-2.4042	-1.9417	-2.4625	-2.4021	-2.2042	-2.5646	-2.2188	339.290	315.980	168.485	354.801	325.925	328.790	115.075	402.871	215.291	427.765	401.173	425.340	111.052	305.737	121.755	283.284	0.00048167	0.00017218	0.00023928	1355.4	2.9119e-06	4.6578e-06	1348.2	364.65	5.6526e-07	1.8822e-06	417.9	139.51	121.13	41.825	5.0039e-06	51.677	0.00052767	0.0004769	0.00012949	1368.5	5.6539e-06	5.2794e-06	1363.7	372.23	5.6224e-06	5.1717e-06	422.92	142.56	123.57	42.618	5.1193e-06	53.011	153.293	245.431	117.655	89.853	278.361	211.844	89.850	94.373	309.793	107.325	93.871	98.313	98.769	103.254	229.055	102.524	-8191	255	
1403.902	1	1	0	0	0.15711	0.373	0.19329	0.13133	0.13003	0.14968	0.10025	0.24792	0.22467	0.25422	0.31458	0.11691	0.1408	0.31318	0.15816	0.10018	-1.575	-2.3625	-1.9292	-2.4854	-2.1312	-1.975	-2.5917	-2.075	-2.0375	-2.2292	-2.0833	-2.35	-2.3417	-1.9292	-2.4208	-2.2833	155.439	226.108	114.500	382.434	110.514	434.123	381.042	409.966	153.929	419.886	388.618	310.919	90.942	390.122	183.742	117.433	0.00054755	0.00026119	0.00019956	1352.6	4.4713e-06	3.3089e-06	1351.5	365.59	2.7773e-06	6.2953e-06	417.91	139.89	120.95	41.64	9.1658e-06	51.791	0.00051262	0.00046707	0.00013448	1370	5.4427e-06	5.2221e-06	1365.6	372.33	5.4869e-06	5.0714e-06	423.67	142.79	123.13	42.473	5.4455e-06	52.946	162.151	231.992	168.851	89.730	242.023	164.635	89.526	94.189	230.597	214.773	94.048	98.318	98.610	103.342	213.354	102.843	-8191	255	
1403.973	1	1	0	0	0.14148	0.22203	0.11441	0.22146	0.21516	0.19862	0.19572	0.28512	0.21002	0.24856	0.21153	0.2307	0.19903	0.083134	0.035852	0.14266	-1.6542	-2.5146	-2.0458	-2.3937	-2.4354	-2.0083	-2.6125	-2.1729	-2.0979	-2.5187	-2.1354	-2.3208	-2.2938	-2.0896	-2.2396	-2.2458	229.337	365.767	215.945	382.347	252.600	81.829	325.011	355.020	118.459	184.326	86.424	337.658	251.002	114.018	282.940	342.279	0.00050176	7.4479e-05	0.00034564	1348.8	1.8211e-06	5.1396e-06	1350.3	366.93	7.4016e-06	1.1019e-06	417.86	138.88	121.07	41.713	9.0287e-06	51.809	0.0004991	0.00046133	0.00014362	1368.5	5.3122e-06	5.1567e-06	1367	372.74	5.4104e-06	5.0143e-06	425.05	142.3	123.22	42.532	5.7583e-06	52.836	159.692	193.073	164.794	89.961	240.849	188.041	89.645	94.499	205.542	314.329	93.690	98.300	98.656	103.407	214.150	102.564	-8191	255	
1404.094	1	1	0	0	0.15063	0.11625	0.30415	0.33503	0.19598	0.1028	0.34868	0.32481	0.20197	0.14671	0.11314	0.22727	0.27203	0.1034	0.3632	0.15548	-1.575	-2.3167	-2.1312	-2.3208	-2.3604	-2.1167	-2.5333	-2.2833	-2.0667	-2.3833	-2.0958	-2.4	-2.3833	-2.0312	-2.3896	-2.3792	223.533	376.883	137.752	435.355	211.613	313.179	321.586	368.537	209.526	150.626	157.884	373.580	127.774	149.536	162.932	119.518	0.00053341	0.00019758	0.00014576	1350.9	6.1855e-06	4.6216e-06	1353.3	365.06	3.2321e-06	7.3215e-06	418	139.33	120.54	41.592	3.9976e-06	51.415	0.00048467	0.00045781	0.00014854	1367.3	5.0979e-06	5.1168e-06	1367.9	371.85	5.2225e-06	5.1346e-06	425.22	142.1	122.87	42.52	5.9069e-06	52.728	164.508	130.969	120.589	89.871	228.436	236.197	89.527	94.604	199.357	214.922	93.742	98.405	98.777	103.698	255.541	102.646	-8191	255	
1404.189	1	1	0	0	0.21094	0.2712	0.303	0.25781	0.19294	0.10101	0.15566	0.20184	0.10264	0.25025	0.27336	0.16697	0.2572	0.17798	0.076665	0.11477	-1.3917	-2.4271	-2.0271	-2.2208	-2.3187	-2.0354	-2.3542	-2.3208	-1.8292	-2.4708	-2.0729	-2.1979	-2.5083	-2.0708	-2.2583	-2.5292	388.571	77.028	96.450	428.200	139.363	434.660	306.747	390.857	212.990	174.927	205.740	84.976	126.578	354.215	420.906	387.154	0.00053867	0.00039841	0.00017622	1352.9	5.8192e-07	4.4145e-06	1350.9	365.87	1.1973e-06	5.7441e-06	418.53	139.74	121.22	41.631	7.5359e-06	51.661	0.00047566	0.0004837	0.00014918	1367.2	4.9914e-06	5.3844e-06	1369.7	371.11	5.0787e-06	5.3868e-06	424.63	142.07	122.96	42.677	5.8234e-06	52.742	151.309	146.240	154.914	89.874	149.432	231.771	89.961	94.600	298.188	178.922	94.050	98.176	98.783	103.277	198.124	102.547	-8191	255	
1404.285	1	1	0	0	0.080378	0.15167	0.33987	0.13618	0.3638	0.17107	0.11997	0.21337	0.16991	0.07262	0.19563	0.19228	0.29784	0.18919	0.19816	0.19219	-1.4771	-2.3146	-2.1292	-2.275	-2.4667	-2.0396	-2.3812	-2.3688	-1.9646	-2.4542	-2.325	-2.1167	-2.4958	-2.2479	-2.3208	-2.45	379.127	349.246	421.483	175.017	242.628	118.256	137.878	379.169	242.963	252.425	78.592	208.753	380.624	394.259	373.882	410.714	0.00043527	0.00063956	9.3007e-05	1359	3.9358e-06	2.5832e-06	1350.8	366	6.0169e-06	4.0115e-06	417.58	139.24	121.05	41.701	7.2639e-06	51.5	0.00046836	0.00051376	0.0001463	1367.1	4.9788e-06	5.774e-06	1367.3	371	5.1024e-06	5.7643e-06	424.77	141.64	123.08	42.736	5.6632e-06	52.595	159.305	158.874	274.266	89.781	164.195	426.292	89.783	94.448	220.883	198.099	93.871	98.370	98.720	103.269	247.549	102.549	-8191	255	
1404.381	1	1	0	0	0.076728	0.20617	0.13862	0.22349	0.23558	0.22757	0.29022	0.14973	0.1032	0.16223	0.12079	0.28324	0.19671	0.1581	0.033603	0.18893	-1.6187	-2.3979	-2.2042	-2.0792	-2.2229	-2.2583	-2.4292	-2.4875	-1.9958	-2.3563	-2.1458	-2.25	-2.5229	-2.275	-2.0708	-2.6771	409.236	123.781	96.734	382.428	332.667	344.542	399.484	359.529	168.074	299.034	169.124	277.086	415.886	367.965	81.062	141.316	0.00062759	7.2104e-05	0.00020372	1352.7	4.0236e-06	8.2041e-06	1347.3	365.5	2.5814e-06	5.786e-06	416.85	139.02	121.04	41.574	2.4615e-07	51.48	0.00047664	0.00053635	0.00014026	1364.6	5.1616e-06	5.9242e-06	1364.5	370.22	5.3578e-06	5.9098e-06	423.42	141.46	123.02	42.73	5.4905e-06	52.454	159.465	79.357	165.074	89.700	225.899	210.416	89.765	94.542	240.883	251.765	93.845	98.398	98.729	103.297	135.006	102.756	-8191	255	
1404.501	1	1	0	0	0.11159	0.090998	0.018724	0.045106	0.24582	0.25635	0.17689	0.22298	0.074647	0.22234	0.296	0.21072	0.18745	0.35652	0.31359	0.03997	-1.4896	-2.2208	-2.2146	-2.2729	-2.3771	-2.2812	-2.4271	-2.4167	-2.1146	-2.0812	-2.4396	-2.175	-2.4479	-2.1854	-1.975	-2.5917	356.546	331.247	288.552	182.985	393.934	340.895	320.257	346.626	372.729	311.710	412.233	301.005	257.215	392.968	404.113	236.676	0.00059251	0.00012607	7.2031e-05	1348.2	3.8342e-06	2.6963e-06	1348.5	365.37	2.6235e-06	6.4328e-06	417.61	139.55	120.88	41.666	5.072e-06	51.482	0.00051245	0.0005416	0.00013824	1361	5.6091e-06	5.9682e-06	1363	369.79	5.8141e-06	5.9138e-06	422.58	141.52	123.49	42.627	5.4643e-06	52.334	158.738	111.108	206.229	89.768	200.509	282.212	89.801	94.586	222.208	279.624	93.810	98.231	98.852	103.307	206.125	102.833	-8191	255	
1404.573	1	1	0	0	0.13905	0.031322	0.15221	0.20447	0.11028	0.28097	0.14529	0.14819	0.14072	0.10159	0.30856	0.21772	0.3083	0.14805	0.27197	0.24529	-1.6708	-2.0542	-2.2125	-2.0604	-2.2313	-2.1958	-2.2333	-2.5958	-1.9937	-2.1083	-2.575	-2.2146	-2.3375	-2.1083	-2.0563	-2.4813	173.122	420.095	426.193	396.665	244.187	212.835	388.767	291.891	191.090	221.868	358.142	364.429	374.064	388.045	360.899	375.802	0.0005333	0.00013482	0.00014428	1354.2	7.1326e-06	8.2241e-06	1349.8	363.39	4.1156e-07	4.7742e-06	416.26	138.85	120.66	41.391	1.8688e-06	51.453	0.00054868	0.00053495	0.00013391	1364.5	5.9101e-06	5.7415e-06	1362.3	369.9	6.015e-06	5.6404e-06	422.79	141.46	123.47	42.505	5.3499e-06	52.6	160.915	164.525	142.233	89.930	190.747	209.425	89.630	94.470	383.009	171.230	93.737	98.375	98.923	103.453	326.260	102.729	-8191	255	
1404.669	1	1	0	0	0.32241	0.28122	0.04694	0.14531	0.16233	0.20636	0.30229	0.29964	0.0431	0.19269	0.30885	0.4016	0.29685	0.19306	0.23834	0.14994	-1.6479	-2.1021	-2.3271	-2.2687	-2.2771	-2.2583	-2.25	-2.5938	-2.0292	-2.0875	-2.5708	-2.0563	-2.4062	-2.375	-2.0667	-2.5792	91.652	136.709	376.440	369.434	336.457	378.786	429.290	323.761	149.235	86.669	361.766	389.979	179.172	88.181	217.687	369.539	0.00052743	0.00023927	0.00020488	1350.3	6.5884e-06	3.8301e-06	1347.7	365.42	2.2315e-06	1.5173e-06	417.17	138.94	121.06	41.576	6.9944e-06	51.391	0.0005617	0.00051524	0.00013233	1363	6.0709e-06	5.514e-06	1363.9	370.86	6.0948e-06	5.4987e-06	422.28	141.81	123.59	42.512	5.2585e-06	52.726	155.345	400.026	191.941	89.747	237.035	84.686	89.748	94.475	285.877	193.338	94.066	98.172	98.975	103.520	248.920	102.721	-8191	255	
1404.790	1	1	0	0	0.16077	0.033212	0.17017	0.29092	0.17198	0.3291	0.13404	0.12264	0.23873	0.09556	0.24427	0.12333	0.25641	0.20336	0.27028	0.21245	-1.8917	-2.1833	-2.3792	-2.1271	-2.1396	-2.3917	-2.1813	-2.6417	-1.9125	-2.0187	-2.4396	-2.1375	-2.3208	-2.3125	-1.7812	-2.4396	116.177	334.174	337.024	330.365	257.922	107.084	406.548	362.283	157.593	432.305	319.635	383.243	421.276	83.807	204.922	377.908	0.00042526	0.00043253	0.00027959	1352.7	5.0052e-06	1.4675e-06	1351.9	365.22	6.1657e-06	3.806e-06	416.67	138.85	120.65	41.53	3.8144e-06	51.62	0.0005444	0.0004992	0.00012963	1366.1	5.9228e-06	5.3908e-06	1362.5	371.33	5.8579e-06	5.4188e-06	422.04	142.12	123.31	42.384	5.3209e-06	52.876	148.379	200.450	170.308	89.938	229.799	188.669	89.663	94.499	210.990	270.955	93.743	98.284	98.939	103.139	266.157	102.931	-8191	255	
1404.886	1	1	0	0	0.14254	0.30922	0.089511	0.23137	0.024115	0.24407	0.5176	0.17292	0.066656	0.22937	0.16866	0.25626	0.27511	0.13048	0.10805	0.19301	-1.8687	-1.8583	-2.1312	-2.0854	-2.1125	-2.4917	-2.1562	-2.6375	-2.3396	-1.9792	-2.4688	-2.2896	-2.2479	-2.3896	-2.1333	-2.2562	275.996	421.267	197.094	102.686	124.088	134.797	370.774	324.500	86.112	242.941	227.156	340.761	411.224	82.625	301.718	300.754	0.00046831	0.00061695	0.00014811	1348.7	3.3381e-06	3.3074e-06	1347.8	365.16	4.7505e-06	3.8409e-06	417.91	138.86	120.17	41.516	8.7086e-06	51.295	0.00052619	0.00049293	0.00013336	1366.5	5.6894e-06	5.2199e-06	1361.9	371.41	5.5873e-06	5.2876e-06	422.81	142.26	122.82	42.409	5.4845e-06	52.743	166.964	154.352	127.530	89.889	199.589	183.882	89.607	94.352	208.405	246.622	93.908	98.520	98.958	103.439	219.202	102.595	-8191	255	
1404.982	1	1	0	0	0.10359	0.030539	0.07075	0.24478	0.23271	0.10732	0.33853	0.14925	0.12245	0.11631	0.13596	0.31459	0.22089	0.11328	0.070444	0.18919	-2.0292	-1.8563	-2.3771	-2.2062	-2.0563	-2.5729	-2.2188	-2.4667	-2.3167	-1.9417	-2.4688	-2.1583	-2.175	-2.4813	-1.9375	-2.3792	221.335	128.856	96.795	377.876	255.597	417.233	341.844	338.814	406.132	433.968	306.820	418.987	103.449	81.160	124.651	431.213	0.00044365	0.00047329	0.00014794	1349.4	1.7956e-06	3.3384e-06	1350.2	365.57	7.8001e-06	2.6e-06	417.01	138.98	120.46	41.461	4.4607e-06	51.408	0.00050552	0.00047614	0.00014073	1365.4	5.5273e-06	5.0853e-06	1363.7	371.45	5.4171e-06	5.197e-06	423.54	141.92	122.92	42.348	5.8686e-06	52.79	156.403	250.352	149.338	90.177	214.741	204.116	89.749	94.679	189.647	231.304	93.933	98.331	98.888	103.191	250.801	102.458	-8191	255	
1405.101	1	1	0	0	0.25784	0.1442	0.094301	0.30688	0.15941	0.082316	0.17431	0.23252	0.095637	0.21594	0.027101	0.14825	0.079528	0.18017	0.14463	0.11888	-2.0083	-1.85	-2.4062	-2.2167	-2.1312	-2.2354	-2.2458	-2.3479	-2.45	-2.0271	-2.2625	-2.4042	-2.1167	-2.5583	-1.9833	-2.1542	210.501	427.318	202.568	387.773	139.946	291.481	372.825	388.100	319.896	184.172	141.696	216.978	347.401	372.000	308.720	412.261	0.00046831	0.00054144	7.9633e-05	1351.4	3.9292e-06	6.9775e-06	1346.8	363.55	5.8264e-06	3.977e-06	416.33	139.19	120.26	41.513	6.4023e-06	51.436	0.00049839	0.00047643	0.00015088	1364.6	5.423e-06	5.1709e-06	1365.8	370.75	5.3198e-06	5.2904e-06	424.22	141.82	122.71	42.377	6.0906e-06	52.653	157.430	128.131	149.421	90.057	228.463	249.077	89.774	94.633	193.499	244.603	93.914	98.272	98.691	103.556	228.947	102.716	-8191	255	
1405.197	1	1	0	0	0.013685	0.29809	0.068278	0.41709	0.3154	0.30128	0.27763	0.26351	0.20122	0.19684	0.35947	0.28493	0.34038	0.31919	0.25386	0.43404	-1.8687	-2.0187	-2.1729	-2.3063	-1.7812	-2.4229	-2.2104	-2.4	-2.3729	-1.8729	-2.3771	-2.3417	-2.2125	-2.4271	-2.1792	-2.2938	282.635	257.842	280.725	423.888	232.101	377.958	137.772	318.935	321.246	379.337	367.179	239.013	412.180	405.317	256.102	368.407	0.00051211	0.00056705	6.6192e-05	1345.8	5.1466e-06	8.1382e-06	1343.4	364.75	2.7456e-06	9.6154e-06	417.27	138.35	120.25	41.464	3.5727e-06	51.144	0.00048688	0.00048985	0.00015554	1361.7	5.2748e-06	5.4624e-06	1365.1	370.37	5.2108e-06	5.5458e-06	424.57	141.44	122.52	42.45	6.0521e-06	52.414	146.320	174.866	120.713	89.834	276.447	217.033	89.728	94.440	260.287	176.794	93.469	98.201	98.913	103.320	153.603	102.768	-8191	255	
1405.269	1	1	0	0	0.2736	0.14723	0.12753	0.13613	0.15087	0.048295	0.095002	0.47964	0.17996	0.17332	0.040438	0.076014	0.10854	0.29426	0.044288	0.1007	-1.9396	-1.9562	-2.4333	-2.3937	-1.9688	-2.4333	-2.4604	-2.2917	-2.4	-2.0896	-2.2896	-2.3375	-2.1937	-2.5396	-2.2208	-2.1958	115.619	423.899	408.279	332.447	321.103	171.926	363.651	394.762	246.130	178.652	314.719	87.167	321.668	338.284	101.982	315.107	0.00060616	0.00071829	0.00015309	1345.1	4.144e-06	7.0329e-06	1345	364.57	8.5056e-06	3.1237e-06	415.89	138.83	120.36	41.493	3.4363e-06	51.7	0.00047466	0.00052712	0.00015273	1360.4	5.1968e-06	5.828e-06	1364.4	369.85	5.1136e-06	5.899e-06	423.73	141.48	122.72	42.607	5.8111e-06	52.717	158.980	170.503	133.066	90.027	214.398	252.313	89.709	94.302	224.243	255.943	93.653	98.172	98.627	103.490	198.383	102.635	-8191	255	
1405.365	1	1	0	0	0.18801	0.28705	0.15071	0.22737	0.34412	0.051552	0.37959	0.33947	0.03879	0.18826	0.17985	0.16806	0.21533	0.095813	0.098032	0.13015	-1.9854	-1.9917	-2.1188	-2.6104	-1.8479	-2.2438	-2.325	-2.2479	-2.3667	-2.1333	-2.2792	-2.5958	-2.0354	-2.4667	-2.1688	-2.0604	313.181	224.144	387.728	421.278	256.395	183.514	390.720	336.480	99.336	337.702	294.027	386.115	164.629	382.353	242.961	401.883	0.00057041	0.00046264	0.00023951	1348.7	5.1346e-06	3.3602e-06	1344.7	365.24	5.2677e-06	5.9765e-06	418.69	139.1	120.51	41.4	1.5711e-06	51.431	0.00048273	0.00055291	0.00014555	1361.2	5.3224e-06	6.0134e-06	1364.2	370.27	5.2968e-06	6.0593e-06	423.31	141.27	122.78	42.596	5.5103e-06	52.407	154.237	136.104	129.191	89.735	223.207	223.071	89.511	94.588	217.823	189.997	94.004	98.402	98.945	103.272	127.144	102.748	-8191	255	
1405.486	1	1	0	0	0.29682	0.19584	0.13477	0.29165	0.08286	0.13166	0.20645	0.056211	0.13369	0.2483	0.095431	0.29569	0.19637	0.10283	0.18188	0.19535	-2.225	-2.2292	-2.1396	-2.6813	-2.0521	-2.3646	-2.3625	-2.2417	-2.5729	-2.2062	-2.3875	-2.4188	-2.0312	-2.2771	-2.5146	-2.0958	207.834	134.968	313.924	399.038	192.888	76.640	346.312	217.602	78.640	262.299	151.753	407.546	314.411	107.389	148.168	95.879	0.00057551	0.00037058	0.00020684	1343.6	7.4608e-06	6.5068e-06	1340.5	364.7	8.5632e-06	5.6201e-06	416.65	138.87	120.71	41.606	1.5631e-06	51.352	0.00050286	0.00054856	0.00014019	1360.1	5.5222e-06	6.0034e-06	1360.2	370.21	5.612e-06	5.8461e-06	422.36	141.43	123.2	42.567	5.3614e-06	52.438	153.360	432.673	142.769	89.993	236.037	185.433	89.728	94.457	242.208	241.912	93.889	98.182	98.884	103.428	251.794	102.890	-8191	255	
1405.582	1	1	0	0	0.07165	0.071823	0.085172	0.22218	0.22074	0.28217	0.066161	0.31737	0.14324	0.19325	0.18081	0.13772	0.35141	0.045686	0.26117	0.081169	-1.9375	-2.1333	-1.9625	-2.55	-2.0396	-2.1979	-2.4708	-2.2417	-2.6229	-2.2313	-2.0083	-2.4417	-2.35	-2.2229	-2.3521	-2.0521	212.656	277.977	239.591	109.023	361.554	238.675	409.026	330.232	105.236	130.164	375.896	379.818	85.339	142.803	287.340	240.763	0.00055805	0.00031764	0.00018659	1349.3	3.2764e-06	1.3027e-06	1344.9	365.39	6.202e-06	4.7847e-06	416.57	138.89	120.66	41.64	5.6438e-06	51.532	0.00052918	0.0005288	0.00013702	1361.8	5.8884e-06	5.7216e-06	1361.1	370.18	5.9115e-06	5.7201e-06	422.56	141.25	123.33	42.602	5.2002e-06	52.543	150.279	291.642	418.510	90.096	225.347	200.030	89.784	94.501	190.021	219.566	93.975	98.548	98.639	103.424	246.571	102.722	-8191	255	
1405.678	1	1	0	0	0.29878	0.18257	0.1663	0.23737	0.25755	0.25294	0.075028	0.13897	0.30633	0.14633	0.091914	0.30038	0.22086	0.17924	0.1894	0.11344	-1.9229	-2.2021	-2.1208	-2.5958	-2.0646	-2.1229	-2.5708	-2.2708	-2.2979	-2.1688	-1.9896	-2.3563	-2.2062	-2.0646	-2.3896	-2.1854	309.652	155.721	166.871	364.153	177.095	154.581	423.289	431.644	194.578	287.139	194.557	408.620	82.153	313.235	109.539	297.514	0.00055586	0.0003966	0.00016454	1350.9	4.3693e-06	5.0992e-06	1345.6	365.38	4.4871e-06	4.5982e-06	416.78	139.25	120.73	41.584	4.5388e-06	51.364	0.00055058	0.00050779	0.0001334	1362.6	6.0204e-06	5.5115e-06	1360.9	370.32	5.9633e-06	5.4111e-06	422.55	141.84	123.47	42.51	5.0784e-06	52.702	152.183	176.722	96.230	89.802	184.900	145.951	89.736	94.629	237.722	151.818	93.963	98.357	98.829	103.425	212.565	102.627	-8191	255	
1405.774	1	1	0	0	0.27587	0.098998	0.04669	0.23692	0.14899	0.12409	0.16354	0.34133	0.15858	0.1901	0.046294	0.19021	0.21054	0.2062	0.13798	0.13107	-1.8563	-2.4208	-1.95	-2.5167	-2.1688	-2.1271	-2.6229	-2.1333	-2.3812	-2.3937	-2.1	-2.3563	-2.0854	-2.2542	-2.7771	-1.9937	81.802	137.606	420.064	374.700	392.420	77.987	390.554	379.444	117.978	434.077	390.230	338.280	412.931	405.332	199.025	294.721	0.00048563	0.00032624	0.000212	1349	2.2113e-06	1.4733e-06	1344.8	365.86	6.9209e-06	3.281e-06	416.4	138.8	121.05	41.621	4.2393e-06	51.498	0.00054251	0.00048645	0.00012977	1365.3	5.8706e-06	5.3535e-06	1359.7	371.35	5.7973e-06	5.2483e-06	421.75	141.9	123.28	42.472	5.0548e-06	52.763	158.594	175.549	193.284	89.847	250.067	250.174	89.577	94.580	195.770	177.554	93.987	98.155	98.874	103.506	264.042	102.453	-8191	255	
1405.870	1	1	0	0	0.078859	0.10706	0.1813	0.34379	0.12373	0.16734	0.17628	0.32388	0.099251	0.2628	0.19478	0.13211	0.25075	0.14748	0.11661	0.15687	-1.7687	-2.325	-1.9604	-2.4271	-2.3125	-2.1	-2.5167	-2.1458	-2.0375	-2.25	-2.1063	-2.2438	-2.1146	-2.05	-2.4625	-2.2646	149.715	201.123	393.356	418.750	160.427	209.141	240.920	429.736	98.589	382.777	385.862	258.865	394.897	123.910	173.712	351.660	0.00048375	0.00058292	0.00015475	1349.7	1.611e-06	5.3147e-06	1344.8	365.37	3.9079e-06	7.0805e-07	415.96	138.72	121.13	41.557	6.5437e-06	51.44	0.00051937	0.00047452	0.00013156	1366.5	5.6389e-06	5.2222e-06	1361.1	371.61	5.5936e-06	5.1455e-06	422.28	142.07	123.27	42.443	5.3577e-06	52.903	160.159	188.995	148.947	89.856	319.922	179.198	89.685	94.301	211.063	295.308	93.743	98.206	98.937	103.702	238.470	102.701	-8191	255	
1405.966	1	1	0	0	0.14943	0.2589	0.13466	0.17482	0.31644	0.13058	0.14317	0.043982	0.12578	0.10237	0.18095	0.18364	0.27639	0.043526	0.14124	0.20906	-1.7333	-2.3771	-2.1729	-2.5292	-2.3438	-2.0417	-2.5062	-2.3021	-2.1479	-2.4083	-1.9917	-2.4042	-2.0833	-1.9188	-2.2562	-2.275	244.228	76.531	117.837	408.077	165.695	158.156	345.207	116.376	331.910	149.315	334.352	320.718	360.894	119.933	398.457	286.931	0.00052728	0.00025458	0.00027608	1346.9	5.3074e-07	1.9775e-06	1348.3	365.36	5.0014e-06	5.2293e-06	418.41	139.1	121.09	41.537	5.3082e-06	51.521	0.00050748	0.00046392	0.00013968	1366.2	5.4631e-06	5.2083e-06	1362.5	372	5.4119e-06	5.019e-06	424.03	142.1	123.08	42.342	5.6892e-06	52.867	157.801	155.617	116.867	89.923	213.448	198.044	89.931	94.444	252.019	305.447	94.166	98.399	98.960	103.481	196.735	102.747	-8191	255	
1406.063	1	1	0	0	0.31794	0.31147	0.16579	0.1305	0.15706	0.15985	0.22827	0.36114	0.18771	0.08837	0.15251	0.15195	0.19104	0.22035	0.1576	0.11123	-1.5708	-2.2854	-1.9854	-2.3937	-2.2562	-2.0125	-2.4271	-2.325	-1.9917	-2.3583	-2.2188	-2.1542	-2.3312	-2.1292	-2.3833	-2.2625	169.898	303.118	436.390	294.400	214.984	400.419	372.287	392.959	260.325	238.827	422.017	210.557	386.502	212.101	302.838	123.676	0.00051777	0.00038557	0.00031306	1346.5	6.5787e-06	3.5998e-06	1346.8	365.72	2.8202e-06	6.6648e-06	417.06	139.07	120.68	41.787	8.4351e-06	51.739	0.00049705	0.00046025	0.00014813	1364.7	5.2844e-06	5.1114e-06	1365.3	371.79	5.3212e-06	5.0812e-06	424.06	142.16	122.92	42.552	5.9358e-06	52.855	160.858	162.592	165.281	89.884	196.261	245.065	89.627	94.671	191.607	222.756	94.023	98.447	98.931	103.391	229.934	102.528	-8191	255	
1406.181	1	1	0	0	0.30375	0.29197	0.18364	0.24904	0.20086	0.10858	0.27001	0.24324	0.32628	0.074532	0.18441	0.2132	0.094229	0.16237	0.14282	0.22368	-1.5583	-2.2917	-2.0062	-2.1896	-2.2896	-1.8521	-2.3937	-2.2812	-1.9167	-2.4979	-2.1562	-2.1521	-2.4062	-2.0438	-2.0833	-2.4458	238.040	244.047	435.874	350.803	173.605	102.554	388.697	432.716	305.417	190.930	125.263	84.324	107.676	99.444	233.463	346.296	0.00053901	0.00017196	0.00022094	1349.2	5.9971e-06	5.7491e-06	1346.8	364.23	8.1898e-06	7.4626e-06	416.18	139.37	120.86	41.575	5.4979e-06	51.389	0.00048588	0.00047381	0.0001533	1363.5	5.1223e-06	5.3546e-06	1366.8	371.05	5.2522e-06	5.3641e-06	424.41	142.1	122.72	42.533	6.0094e-06	52.573	156.616	252.402	95.082	89.953	276.029	204.341	89.725	94.458	238.896	213.915	94.101	98.332	99.136	103.321	200.758	102.422	-8191	255	
1406.278	1	1	0	0	0.20398	0.10315	0.18823	0.25378	0.1177	0.10017	0.064733	0.25676	0.11834	0.096622	0.080672	0.27488	0.38679	0.09113	0.055564	0.084428	-1.5333	-2.2229	-2.2771	-2.3396	-2.5187	-2.0917	-2.4167	-2.4375	-1.9271	-2.3146	-2.3667	-1.9979	-2.4375	-2.0854	-2.0917	-2.3875	212.516	333.593	138.394	407.394	116.457	201.572	78.069	346.741	141.046	282.307	280.362	363.986	386.479	223.564	331.315	382.072	0.00051668	0.0009978	0.00024121	1346.5	4.5261e-06	7.334e-06	1349.7	364.35	1.8854e-06	7.4107e-06	416.38	138.8	120.73	41.582	2.326e-06	51.552	0.00047124	0.00050241	0.00015102	1362.4	5.0209e-06	5.6274e-06	1367.1	370.49	5.1121e-06	5.6847e-06	423.57	141.69	122.85	42.675	5.7392e-06	52.562	158.423	166.085	172.746	89.831	208.070	201.338	89.753	94.387	248.735	266.829	93.799	98.102	98.919	103.482	173.249	102.794	-8191	255	
1406.374	1	1	0	0	0.05417	0.056206	0.1118	0.238	0.11216	0.12162	0.16727	0.20471	0.2128	0.14957	0.12503	0.20949	0.23229	0.21313	0.16613	0.13766	-1.5542	-2.2979	-2.075	-2.2104	-2.3271	-2.0792	-2.4	-2.5458	-2.1792	-2.3479	-2.3	-2.1208	-2.375	-2.0583	-1.9896	-2.4292	318.704	129.972	198.800	126.770	292.729	278.083	98.547	393.264	303.563	111.315	132.605	412.786	405.201	392.462	146.595	305.073	0.00059156	0.00058866	0.00018318	1348.7	4.7392e-06	5.1269e-06	1346.2	366.15	4.6309e-06	3.1588e-06	415.89	139.36	121.5	41.588	3.7336e-06	51.749	0.0004726	0.00052352	0.00014341	1363.4	5.029e-06	5.8729e-06	1364.4	370.42	5.1489e-06	5.8304e-06	423.1	141.83	122.85	42.698	5.488e-06	52.573	153.576	181.679	102.761	89.894	213.213	217.906	89.834	94.622	207.139	212.012	93.951	97.987	98.797	103.269	236.238	102.798	-8191	255	
1406.470	1	1	0	0	0.11881	0.22841	0.1876	0.47466	0.13422	0.22596	0.35303	0.32558	0.1513	0.14035	0.22861	0.3156	0.076064	0.10988	0.17324	0.39876	-1.6667	-2.1604	-2.3438	-2.2667	-2.4208	-2.1458	-2.2438	-2.5187	-1.9021	-2.1813	-2.2896	-2.0625	-2.65	-2.2562	-2.0542	-2.4896	143.872	125.970	394.745	380.147	395.286	138.843	108.631	395.627	206.229	184.309	129.489	390.203	228.553	190.401	404.879	350.669	0.00050486	0.00030594	0.00023402	1346.5	9.4064e-06	6.7944e-06	1347.7	364.88	5.9617e-06	2.6376e-06	415.02	139.77	121.37	41.764	2.7625e-06	51.56	0.00048156	0.00053189	0.00013593	1363	5.2631e-06	5.8355e-06	1364.5	370.27	5.43e-06	5.7824e-06	422.43	141.66	123.54	42.77	5.3017e-06	52.457	160.997	236.212	151.850	89.734	225.759	215.803	89.601	94.504	265.948	147.673	93.985	98.481	98.902	103.297	245.960	102.444	-8191	255	
1406.566	1	1	0	0	0.053702	0.10253	0.11883	0.25391	0.23959	0.14663	0.39669	0.25848	0.16852	0.25009	0.074701	0.24721	0.32662	0.15565	0.013155	0.20848	-1.7167	-2.0125	-2.1333	-2.0146	-2.2625	-2.0542	-2.3187	-2.3292	-2.0396	-2.1562	-2.3937	-2.2167	-2.4583	-2.1021	-2.0354	-2.4042	403.134	211.001	366.149	363.631	426.416	86.473	368.936	384.887	122.495	154.303	295.191	411.661	418.499	286.088	186.522	139.791	0.00060689	0.00038708	0.00015186	1355	4.7045e-06	4.3318e-06	1351.4	365.57	3.872e-06	4.9608e-06	418.75	139.32	121.32	41.778	3.7729e-06	51.472	0.0005161	0.00052981	0.00013286	1363.1	5.6698e-06	5.6376e-06	1363.5	370.48	5.7285e-06	5.5866e-06	422.42	141.78	123.47	42.689	5.1746e-06	52.55	151.512	147.496	146.624	89.866	231.404	241.236	89.578	94.435	201.189	119.518	93.896	98.286	98.868	103.200	193.368	102.775	-8191	255	
1406.662	1	1	0	0	0.12738	0.14545	0.044737	0.27167	0.099527	0.166	0.22912	0.19257	0.25834	0.20894	0.29071	0.20479	0.17401	0.21205	0.26442	0.19889	-1.7125	-1.9958	-2.2021	-2.2104	-2.2896	-2.1354	-2.1521	-2.5396	-2.1333	-2.2	-2.4667	-2.1167	-2.5	-2.3937	-1.9292	-2.6396	272.678	240.933	409.683	384.066	395.463	171.437	390.491	388.542	160.822	292.347	406.505	278.147	345.064	234.269	408.828	359.050	0.00059955	0.00055823	0.00010959	1348.4	6.7121e-06	4.4804e-06	1346.8	366.2	6.0852e-06	4.1412e-06	416.55	139.01	121.58	41.725	5.6462e-06	51.67	0.00053229	0.00050042	0.00012629	1363	5.7551e-06	5.3687e-06	1360.6	370.64	5.8604e-06	5.3056e-06	421.32	141.65	123.69	42.561	4.9986e-06	52.698	162.759	151.943	154.211	89.870	229.190	216.603	89.887	94.517	178.169	169.841	93.971	98.261	98.824	103.444	206.153	102.720	-8191	255	
1406.783	1	1	0	0	0.088312	0.31983	0.04285	0.44996	0.31857	0.28568	0.11391	0.27817	0.23496	0.26375	0.10393	0.079046	0.16657	0.26202	0.1086	0.077214	-1.6708	-1.9667	-2.1375	-2.2438	-2.2708	-2.4188	-2.1104	-2.6917	-2.0667	-2.2271	-2.6083	-2.0208	-2.2708	-2.45	-1.9958	-2.2062	192.109	329.238	131.254	386.177	323.016	313.952	380.393	363.055	319.495	384.598	394.144	91.631	383.189	390.132	268.969	301.774	0.00045197	6.9486e-05	4.9648e-05	1351.7	1.4468e-06	2.8868e-06	1348.5	367.4	1.4205e-06	4.0191e-06	417.16	139.81	120.65	41.765	2.449e-06	51.696	0.0005293	0.00047649	0.00012487	1364.3	5.6925e-06	5.1786e-06	1361.4	371.77	5.6493e-06	5.2202e-06	421.71	142.17	123.59	42.476	4.9437e-06	52.783	159.793	193.573	112.047	89.783	250.806	231.316	89.780	94.475	242.252	133.912	94.155	98.524	98.788	103.416	338.689	102.804	-8191	255	
1406.879	1	1	0	0	0.19899	0.24164	0.10785	0.19603	0.12507	0.33215	0.11942	0.070277	0.03723	0.21799	0.16485	0.087059	0.11819	0.13035	0.096162	0.21499	-1.8271	-1.9646	-2.4979	-2.2667	-2.1937	-2.4062	-2.1167	-2.4417	-2.2292	-2.0625	-2.4583	-2.1146	-2.175	-2.3896	-1.8333	-2.4104	124.116	100.229	257.386	386.715	227.199	223.869	403.634	378.363	237.641	396.791	385.571	217.717	388.833	142.184	398.578	384.054	0.00054173	0.00053759	0.00017451	1353.6	2.2113e-06	7.3424e-06	1354.4	366.02	2.0864e-06	6.0712e-06	417.08	139.89	120.92	41.734	8.8842e-06	51.553	0.00050714	0.00046925	0.00012353	1365.7	5.4842e-06	5.0045e-06	1362.5	371.99	5.3868e-06	5.0392e-06	421.52	142.46	123.19	42.462	5.1107e-06	52.855	167.885	215.209	154.408	89.849	242.270	247.230	89.771	94.698	313.939	226.057	93.935	98.247	98.737	103.407	197.208	102.741	-8191	255	
1406.975	1	1	0	0	0.15668	0.043091	0.065753	0.309	0.1787	0.23354	0.27793	0.050955	0.096391	0.072444	0.15923	0.2038	0.11954	0.071093	0.17766	0.020697	-1.875	-2.0104	-2.3187	-2.3937	-2.0583	-2.5625	-2.1604	-2.3604	-2.175	-1.8854	-2.4021	-2.1146	-2.1208	-2.4208	-1.8729	-2.4646	261.111	201.680	217.278	293.226	220.605	139.128	436.333	373.006	140.368	255.689	405.089	395.206	435.539	103.337	142.761	403.356	0.00045106	0.00041282	0.00031806	1349.8	3.6469e-06	2.6226e-06	1345.3	366.03	4.8808e-06	8.0802e-07	417.76	139.14	121.3	41.547	1.0442e-05	51.732	0.00048678	0.00045076	0.00012945	1366.6	5.2384e-06	4.8689e-06	1362.8	371.72	5.1574e-06	4.9078e-06	422.59	142.22	123.04	42.335	5.3947e-06	52.786	153.239	197.167	153.414	90.018	248.490	262.629	89.719	94.336	228.816	116.646	93.798	98.172	99.017	103.354	221.269	102.729	-8191	255	
1407.070	1	1	0	0	0.17084	0.093054	0.31281	0.29385	0.051153	0.13038	0.40408	0.22741	0.19391	0.1504	0.41779	0.36095	0.21295	0.1975	0.070325	0.30316	-1.8333	-1.9292	-2.4771	-2.1854	-2.1458	-2.5125	-2.1583	-2.1958	-2.375	-1.9458	-2.3146	-2.3542	-2.2229	-2.4396	-2.0354	-2.3896	152.927	328.874	250.363	432.835	220.432	228.462	358.895	382.391	260.390	188.382	404.557	127.072	404.332	349.978	154.781	295.273	0.00058839	5.418e-05	6.0482e-05	1348.4	5.1516e-06	2.5946e-06	1350.3	365.72	5.2916e-06	4.7172e-06	416.23	139.78	121.14	41.839	3.5962e-06	51.634	0.00047282	0.00044564	0.00013781	1365.2	5.0939e-06	4.7836e-06	1364.4	371.5	5.0886e-06	4.9051e-06	423.36	142.16	122.95	42.465	5.7053e-06	52.779	154.742	194.237	149.549	89.771	209.488	223.803	89.722	94.465	233.663	195.912	93.895	98.411	98.675	103.573	189.156	102.635	-8191	255	
1407.166	1	1	0	0	0.26774	0.45994	0.079245	0.07995	0.31831	0.10914	0.54254	0.35846	0.0738	0.10916	0.096963	0.22398	0.1077	0.3685	0.34739	0.21036	-1.9958	-1.8396	-2.2104	-2.3979	-1.8625	-2.2375	-2.2104	-2.0292	-2.3854	-1.9646	-2.4708	-2.2396	-2.2208	-2.5521	-2.0563	-2.2604	304.011	430.887	180.601	286.544	152.654	114.867	380.674	390.004	349.067	290.474	156.681	402.406	416.064	399.805	340.563	301.770	0.00048405	0.00010302	0.00015781	1348.4	4.2775e-06	7.4796e-06	1345.1	366.82	2.9771e-06	4.0283e-06	416	139.35	121.29	41.759	3.5174e-06	51.69	0.00046244	0.00045378	0.00014526	1363.3	5.0726e-06	4.9599e-06	1365	371.46	4.9049e-06	5.0929e-06	424.03	141.63	122.77	42.479	5.789e-06	52.683	160.984	207.072	176.273	89.864	273.709	187.912	89.743	94.393	174.708	182.155	93.956	98.083	98.909	103.301	193.366	103.002	-8191	255	
#DATA ENDS
