BOXY.EXE: ISS Imagent and Oximeter Data Acquisition Program Version 0.80
Ascii Record File

#ACQ INFORMATION
2  Detector Channels 
16  External MUX Channels 
1  Auxiliary Channels 
5000  Waveform (CCF) Frequency (Hz)
1  Waveforms Skipped 
30  Waveforms Averaged 
1  Cycles Averaged 
16  Acquisitions per Waveform 
10.0806  Updata Rate (Hz) 

#FILE INFORMATION
TRUE -- External MUX Channel results are PARSED.
FALSE -- AC DC and Phase are NOT grouped.
TRUE -- Companion Program Settings File CREATED.
FALSE -- AC data not excluded
FALSE -- DC data not excluded
FALSE -- Phase data not excluded
FALSE -- Auxillary Chn. data not excluded
Tab delimiters

#CALIBRATION STATE
TRUE -- Waveform Calibration Values APPLIED.


#AUX CALIBRATION VALUES
Val Type	aux-1	

Term	1.0000e+00	
Factor	0.0000e+00	


#WF CALIBRATION VALUES
A = Detector Channel
Val Type	A-AC1	A-AC2	A-AC3	A-AC4	A-AC5	A-AC6	A-AC7	A-AC8	A-AC9	A-AC10	A-AC11	A-AC12	A-AC13	A-AC14	A-AC15	A-AC16	A-DC1	A-DC2	A-DC3	A-DC4	A-DC5	A-DC6	A-DC7	A-DC8	A-DC9	A-DC10	A-DC11	A-DC12	A-DC13	A-DC14	A-DC15	A-DC16	A-Ph1	A-Ph2	A-Ph3	A-Ph4	A-Ph5	A-Ph6	A-Ph7	A-Ph8	A-Ph9	A-Ph10	A-Ph11	A-Ph12	A-Ph13	A-Ph14	A-Ph15	A-Ph16	

Term	0.00000e+00	0.00000e+00	0.00000e+00	0.00000e+00	0.00000e+00	0.00000e+00	0.00000e+00	0.00000e+00	0.00000e+00	0.00000e+00	0.00000e+00	0.00000e+00	0.00000e+00	0.00000e+00	0.00000e+00	0.00000e+00	0.00000e+00	0.00000e+00	0.00000e+00	0.00000e+00	0.00000e+00	0.00000e+00	0.00000e+00	0.00000e+00	0.00000e+00	0.00000e+00	0.00000e+00	0.00000e+00	0.00000e+00	0.00000e+00	0.00000e+00	0.00000e+00	0.00000e+00	0.00000e+00	0.00000e+00	0.00000e+00	0.00000e+00	0.00000e+00	0.00000e+00	0.00000e+00	0.00000e+00	0.00000e+00	0.00000e+00	0.00000e+00	0.00000e+00	0.00000e+00	0.00000e+00	0.00000e+00	
Factor	1.00000e+00	1.00000e+00	1.00000e+00	1.00000e+00	1.00000e+00	1.00000e+00	1.00000e+00	1.00000e+00	1.00000e+00	1.00000e+00	1.00000e+00	1.00000e+00	1.00000e+00	1.00000e+00	1.00000e+00	1.00000e+00	1.00000e+00	1.00000e+00	1.00000e+00	1.00000e+00	1.00000e+00	1.00000e+00	1.00000e+00	1.00000e+00	1.00000e+00	1.00000e+00	1.00000e+00	1.00000e+00	1.00000e+00	1.00000e+00	1.00000e+00	1.00000e+00	X	X	X	X	X	X	X	X	X	X	X	X	X	X	X	X	

B = Detector Channel
Val Type	B-AC1	B-AC2	B-AC3	B-AC4	B-AC5	B-AC6	B-AC7	B-AC8	B-AC9	B-AC10	B-AC11	B-AC12	B-AC13	B-AC14	B-AC15	B-AC16	B-DC1	B-DC2	B-DC3	B-DC4	B-DC5	B-DC6	B-DC7	B-DC8	B-DC9	B-DC10	B-DC11	B-DC12	B-DC13	B-DC14	B-DC15	B-DC16	B-Ph1	B-Ph2	B-Ph3	B-Ph4	B-Ph5	B-Ph6	B-Ph7	B-Ph8	B-Ph9	B-Ph10	B-Ph11	B-Ph12	B-Ph13	B-Ph14	B-Ph15	B-Ph16	

Term	0.00000e+00	0.00000e+00	0.00000e+00	0.00000e+00	0.00000e+00	0.00000e+00	0.00000e+00	0.00000e+00	0.00000e+00	0.00000e+00	0.00000e+00	0.00000e+00	0.00000e+00	0.00000e+00	0.00000e+00	0.00000e+00	0.00000e+00	0.00000e+00	0.00000e+00	0.00000e+00	0.00000e+00	0.00000e+00	0.00000e+00	0.00000e+00	0.00000e+00	0.00000e+00	0.00000e+00	0.00000e+00	0.00000e+00	0.00000e+00	0.00000e+00	0.00000e+00	-2.02558e+02	-1.16413e+02	-1.30120e+02	-1.82161e+02	-9.57707e+01	-1.01369e+02	-1.59306e+02	-1.62015e+02	-1.14350e+02	-5.77035e+01	-1.70639e+02	-1.72301e+02	-1.77500e+02	-1.76674e+02	-5.36760e+01	-1.49496e+02	
Factor	4.10936e-05	9.52974e-05	2.49006e-05	1.49428e-01	8.83243e-07	8.91524e-07	1.68800e-01	4.93801e-02	1.17695e-06	7.15398e-07	8.34437e-02	2.98807e-02	2.54106e-02	8.75613e-03	1.20421e-06	1.26828e-02	6.26555e-07	6.35961e-07	1.78841e-07	7.42432e-02	6.95763e-09	6.96690e-09	7.86376e-02	2.43642e-02	6.96256e-09	6.98071e-09	3.91092e-02	1.39300e-02	1.23175e-02	4.23067e-03	7.03845e-09	5.88851e-03	X	X	X	X	X	X	X	X	X	X	X	X	X	X	X	X	



#DISTANCE SETTINGS
A = Detector Channel
A-1	A-2	A-3	A-4	A-5	A-6	A-7	A-8	A-9	A-10	A-11	A-12	A-13	A-14	A-15	A-16	

2.5000e+00	3.0000e+00	2.5000e+00	3.0000e+00	2.0000e+00	3.0000e+00	1.5000e+00	3.0000e+00	3.0000e+00	3.0000e+00	3.0000e+00	3.0000e+00	3.0000e+00	3.0000e+00	1.5000e+00	3.0000e+00	

B = Detector Channel
B-1	B-2	B-3	B-4	B-5	B-6	B-7	B-8	B-9	B-10	B-11	B-12	B-13	B-14	B-15	B-16	

1.0000e+01	1.0000e+01	1.0000e+01	1.4400e+00	1.0000e+01	1.0000e+01	1.5100e+00	1.9400e+00	1.0000e+01	1.0000e+01	1.9900e+00	2.4900e+00	2.4100e+00	2.9000e+00	1.0000e+01	2.9800e+00	




#DATA BEGINS
time	group	step	mark	flag	A-AC1	A-AC2	A-AC3	A-AC4	A-AC5	A-AC6	A-AC7	A-AC8	A-AC9	A-AC10	A-AC11	A-AC12	A-AC13	A-AC14	A-AC15	A-AC16	A-DC1	A-DC2	A-DC3	A-DC4	A-DC5	A-DC6	A-DC7	A-DC8	A-DC9	A-DC10	A-DC11	A-DC12	A-DC13	A-DC14	A-DC15	A-DC16	A-Ph1	A-Ph2	A-Ph3	A-Ph4	A-Ph5	A-Ph6	A-Ph7	A-Ph8	A-Ph9	A-Ph10	A-Ph11	A-Ph12	A-Ph13	A-Ph14	A-Ph15	A-Ph16	B-AC1	B-AC2	B-AC3	B-AC4	B-AC5	B-AC6	B-AC7	B-AC8	B-AC9	B-AC10	B-AC11	B-AC12	B-AC13	B-AC14	B-AC15	B-AC16	B-DC1	B-DC2	B-DC3	B-DC4	B-DC5	B-DC6	B-DC7	B-DC8	B-DC9	B-DC10	B-DC11	B-DC12	B-DC13	B-DC14	B-DC15	B-DC16	B-Ph1	B-Ph2	B-Ph3	B-Ph4	B-Ph5	B-Ph6	B-Ph7	B-Ph8	B-Ph9	B-Ph10	B-Ph11	B-Ph12	B-Ph13	B-Ph14	B-Ph15	B-Ph16	aux-1	digaux	

6658.558	1	1	0	256	0.1839	0.3349	0.030378	0.1195	0.24071	0.050882	0.32013	0.32501	0.19518	0.22401	0.11356	0.29303	0.1676	0.13758	0.23879	0.29362	-1.4937	-1.8792	-2.1958	-1.9771	-1.9312	-2.1729	-2.1063	-2.1104	-2.1771	-1.775	-2.4062	-2.1083	-1.7292	-2.5417	-1.7896	-2.2833	55.371	330.089	122.311	389.899	306.850	266.387	64.836	377.867	290.578	272.833	318.928	72.775	348.795	374.100	79.933	388.195	0.0011438	0.00058942	0.00013459	1299.5	1.4057e-06	3.396e-06	1315.1	365.07	4.2867e-06	1.3473e-06	415.6	139.86	120.81	41.366	8.4825e-06	51.455	0.00040366	0.0003739	0.00010311	1310.3	4.3158e-06	4.0596e-06	1317.6	367.13	4.3393e-06	4.0911e-06	414.99	139.93	120.36	41.345	4.2605e-06	51.817	90.008	101.589	145.620	64.615	323.022	191.636	64.572	69.530	197.063	256.228	68.915	73.299	73.580	78.321	218.569	77.115	-8191	255	
6658.654	1	1	0	0	0.26381	0.12466	0.20329	0.12138	0.074119	0.20583	0.20391	0.33376	0.17676	0.34471	0.052367	0.30044	0.29171	0.15016	0.073767	0.10278	-1.8021	-1.6833	-2.1333	-2.3104	-1.6187	-2.2771	-2.0521	-2	-2.3646	-1.3771	-2.3208	-2.0146	-1.7042	-2.3729	-1.7563	-1.8771	155.350	66.318	395.712	258.414	184.411	301.793	378.652	397.528	381.125	69.010	370.614	80.460	270.652	61.819	338.084	54.867	0.0010774	0.00052693	0.00026977	1298.5	5.4403e-06	1.649e-06	1316.7	362.89	5.1785e-06	1.8816e-06	417.9	139.52	120.99	41.328	1.1645e-05	51.56	0.00039208	0.00036311	0.00010885	1309.2	4.2259e-06	3.922e-06	1319.3	366.45	4.1799e-06	3.9488e-06	416.82	139.64	120.24	41.287	4.4289e-06	51.638	78.070	163.478	126.171	64.832	146.366	87.631	64.799	69.524	169.465	287.669	68.808	73.310	73.835	78.229	203.017	77.141	-8191	255	
6658.750	1	1	0	0	0.015056	0.36016	0.0949	0.2698	0.20879	0.20286	0.16018	0.28244	0.099676	0.097687	0.27741	0.079147	0.052999	0.33213	0.10613	0.26507	-1.9604	-1.6896	-2.1167	-2.2854	-1.7229	-2.4396	-1.9729	-2.1458	-2.3042	-1.9042	-2.0938	-2.2938	-1.8583	-2.3229	-1.8208	-2.1188	370.111	320.960	349.770	328.641	101.926	393.816	357.289	323.970	285.554	329.612	384.434	402.216	56.070	396.659	403.849	352.658	0.0010303	0.00038485	0.00010042	1300.4	4.4554e-06	2.8071e-06	1310.9	363.89	3.6968e-06	3.2593e-06	416.79	139.53	120.77	41.193	7.454e-06	51.255	0.00038087	0.00035799	0.00011321	1306.3	4.0454e-06	3.9084e-06	1317	365.84	4.0713e-06	3.9938e-06	417.01	139.22	119.71	41.239	4.6511e-06	51.455	85.258	184.104	85.078	64.786	129.813	59.644	64.521	69.656	265.954	178.232	68.845	73.256	73.568	78.432	251.226	77.187	-8191	255	
6658.846	1	1	0	0	0.21816	0.20908	0.20753	0.1503	0.098071	0.283	0.16556	0.10853	0.25204	0.088688	0.12007	0.25203	0.20876	0.14	0.13763	0.2094	-1.9729	-1.7229	-1.8375	-2.3104	-1.8396	-2.3187	-2.2313	-1.9333	-2.5542	-1.7604	-1.9208	-2.3021	-1.6729	-2.4875	-2.0563	-1.7437	292.025	265.800	340.529	344.658	111.911	181.422	333.163	144.347	411.024	354.223	260.634	393.392	397.247	112.930	264.955	379.553	0.00093694	0.00070618	0.00016538	1298.3	1.0905e-06	5.685e-06	1309.7	364.05	9.1145e-06	5.5784e-06	418.05	139.58	120.34	41.228	2.2008e-06	51.418	0.00037735	0.0003789	0.00011872	1306	4.0699e-06	4.1596e-06	1319.4	365.83	4.0675e-06	4.2587e-06	418.96	138.99	119.8	41.444	4.6655e-06	51.451	76.519	171.787	97.803	64.845	101.902	204.246	64.332	69.438	152.084	245.110	68.798	73.252	73.823	78.456	238.173	77.333	-8191	255	
6658.942	1	1	0	0	0.25562	0.10633	0.10455	0.36874	0.046806	0.14321	0.14168	0.26351	0.21465	0.029206	0.18842	0.079703	0.28258	0.36124	0.16406	0.24659	-1.9208	-1.8333	-1.8729	-2.4958	-1.7896	-2.1729	-2.3104	-1.8937	-2.1562	-1.7958	-2.0938	-2.3812	-1.7604	-2.0771	-2.3417	-1.6562	187.910	285.719	73.910	387.602	262.164	96.351	408.956	362.833	326.817	276.547	332.120	193.729	345.708	406.749	342.196	328.139	0.00099553	0.00069877	7.13e-05	1302.8	3.5547e-06	2.1153e-06	1310.1	364.89	1.0007e-05	3.546e-06	417.1	138.9	120.62	41.092	3.9359e-06	51.271	0.00037193	0.00039946	0.00011655	1306.4	3.9679e-06	4.3684e-06	1321	365.49	3.9938e-06	4.4761e-06	417.75	138.46	119.56	41.563	4.5009e-06	51.3	94.337	168.995	223.395	64.699	162.466	180.852	64.426	69.544	157.955	218.561	68.562	73.267	73.595	78.374	239.972	77.378	-8191	255	
6659.063	1	1	0	0	0.18848	0.20539	0.21024	0.31982	0.28821	0.26869	0.33691	0.2478	0.074872	0.19619	0.36678	0.19949	0.12865	0.21286	0.11275	0.28527	-1.9125	-1.6812	-1.8354	-2.4062	-1.7646	-1.9937	-2.3271	-1.7854	-2.3479	-2.0271	-1.8208	-2.4146	-1.6833	-2.0021	-2.2479	-1.6896	350.776	258.452	175.848	402.120	113.127	86.060	369.030	56.467	188.789	133.716	372.039	97.704	362.062	77.115	320.283	295.401	0.0010204	0.00052196	2.8492e-05	1300.8	7.1628e-06	2.0241e-06	1314.6	365.28	3.1489e-06	3.44e-06	417.54	139.37	120.45	41.218	3.4028e-06	51.169	0.00037073	0.0004187	0.00011302	1304.4	4.0716e-06	4.5592e-06	1320.5	365.31	4.0934e-06	4.6119e-06	416.93	138.61	120.1	41.615	4.4052e-06	51.239	83.993	192.763	201.302	64.714	165.956	230.181	64.280	69.400	147.910	222.135	68.845	73.104	73.932	78.485	201.853	77.538	-8191	255	
6659.159	1	1	0	0	0.24242	0.20293	0.20618	0.1973	0.26264	0.23359	0.12802	0.34932	0.032187	0.12612	0.17217	0.19276	0.29121	0.14519	0.12027	0.064204	-1.7667	-1.7771	-1.7542	-2.45	-1.7229	-1.9396	-2.2625	-1.6875	-2.2208	-1.9104	-1.9229	-2.1167	-1.7771	-2.0625	-2.3187	-1.9625	185.271	138.112	94.180	346.316	300.718	300.857	308.134	377.663	256.741	176.315	311.665	345.329	349.303	308.763	282.288	137.318	0.0010139	0.00039745	9.0077e-05	1295.4	6.5504e-06	4.6897e-07	1313	362.88	1.0666e-05	2.3504e-06	417.59	139.81	120.36	41.049	1.6364e-06	51.143	0.00039361	0.00042863	0.00011121	1304.8	4.4041e-06	4.7298e-06	1318.6	365.22	4.4541e-06	4.7533e-06	416.79	138.69	120.75	41.722	4.4388e-06	51.269	78.328	95.789	101.570	64.771	186.776	347.413	64.451	69.591	177.950	160.318	68.848	73.333	73.826	78.568	187.910	77.358	-8191	255	
6659.255	1	1	0	0	0.2878	0.11455	0.27821	0.46062	0.11893	0.1044	0.32693	0.12393	0.12089	0.32115	0.21927	0.21755	0.14001	0.20618	0.099263	0.17637	-1.6875	-2.0021	-1.5875	-2.4271	-1.8125	-2.225	-2.3771	-1.9479	-2.0312	-1.9875	-1.7792	-2.2583	-1.825	-1.8604	-2.2521	-1.7333	130.908	101.717	339.257	337.645	297.774	62.178	369.610	390.679	337.242	99.568	409.392	317.130	343.296	65.069	348.115	56.176	0.0012433	0.00047474	0.00015803	1303.3	7.2477e-06	3.5588e-06	1312.8	365.13	5.3985e-06	1.4096e-06	418.63	139.74	121.49	41.14	3.0493e-06	51.409	0.00042877	0.00043182	0.0001122	1307.1	4.7195e-06	4.6925e-06	1321.3	365.95	4.8503e-06	4.7917e-06	418.07	139.22	121.8	41.748	4.6132e-06	51.752	86.439	390.997	52.464	64.653	139.127	174.200	64.484	69.443	166.326	178.491	68.743	73.291	73.744	78.381	177.358	77.550	-8191	255	
6659.351	1	1	0	0	0.21502	0.072816	0.1122	0.2766	0.36668	0.1342	0.15314	0.31378	0.10839	0.16638	0.28959	0.17026	0.1604	0.15789	0.22302	0.11065	-1.725	-2.1667	-1.4604	-2.2438	-2.1292	-1.8771	-2.4146	-1.9646	-2.0438	-2.1771	-1.8958	-2.3271	-2.0875	-1.8583	-2.3187	-1.9625	339.464	138.647	253.896	53.011	228.179	149.142	257.039	372.005	379.784	128.355	60.901	210.714	122.671	348.689	352.116	294.425	0.0011354	0.0004081	0.0001004	1306.3	6.6652e-06	4.7232e-06	1316.6	366.39	1.7579e-06	2.9853e-06	419.7	140.42	121.02	41.219	6.3838e-07	51.163	0.00047632	0.00044753	0.00011879	1319.1	5.2883e-06	4.969e-06	1328.9	369.43	5.3775e-06	5.0916e-06	420.87	140.9	122.77	41.906	4.8168e-06	52.223	90.697	185.336	76.777	64.729	193.575	405.533	64.709	69.188	192.076	265.150	68.814	73.230	73.902	78.332	342.492	77.679	-8191	255	
6659.446	1	1	0	0	0.036503	0.19153	0.21871	0.32499	0.069669	0.15429	0.30062	0.19622	0.29408	0.20334	0.062715	0.18392	0.18761	0.24169	0.3949	0.43822	-1.5708	-2.2229	-1.7167	-2.4083	-1.8958	-1.6729	-2.5083	-1.8917	-1.9667	-2.2	-1.8813	-2.1271	-2.1792	-1.75	-2.0229	-1.8146	288.701	151.158	115.327	403.846	73.880	344.321	349.016	307.574	201.657	131.893	69.061	311.601	322.998	86.101	274.414	59.194	0.0010326	0.0004755	9.2604e-05	1313	8.1389e-06	1.7813e-06	1330.6	366.55	5.0344e-06	3.1919e-06	419.31	140.43	120.91	41.315	5.1185e-06	51.452	0.00050355	0.00046648	0.00012265	1329.5	5.4716e-06	5.0447e-06	1335.6	371.41	5.4713e-06	5.0716e-06	421.64	141.83	122.67	42.004	4.8599e-06	52.562	82.600	256.187	187.160	64.730	127.859	221.831	64.514	69.426	271.625	195.613	68.554	73.135	73.741	78.493	262.589	77.342	-8191	255	
6659.542	1	1	0	0	0.12608	0.23092	0.16528	0.16325	0.19325	0.083814	0.20166	0.0045038	0.3504	0.10242	0.38333	0.21878	0.12998	0.20813	0.12957	0.091643	-1.6396	-2.35	-1.7458	-2.2438	-2	-1.7833	-2.5667	-2.175	-1.7938	-2.2625	-1.7687	-2.2625	-2.3208	-1.7792	-2.2313	-2.1229	209.937	227.856	184.161	385.039	104.339	385.497	332.082	402.566	164.652	324.571	321.486	357.463	268.104	89.804	407.032	183.388	0.0008805	0.00059639	8.7557e-05	1316.1	1.0234e-05	1.6373e-06	1325.2	366.51	7.599e-06	1.4491e-06	419.27	140.11	120.84	41.269	2.7298e-06	51.208	0.00049516	0.00046055	0.000125	1335.7	5.3548e-06	5.0362e-06	1340.4	372.94	5.3894e-06	5.0184e-06	422.84	142.23	122.53	41.921	5.1064e-06	52.672	70.667	161.563	161.551	64.959	172.710	71.233	64.533	69.656	173.482	232.636	68.634	73.424	73.758	78.327	331.648	77.410	-8191	255	
6659.638	1	1	0	0	0.18634	0.21215	0.16735	0.3387	0.1665	0.09845	0.47272	0.15777	0.3473	0.10823	0.28835	0.21119	0.22536	0.076943	0.10819	0.14576	-1.2687	-2.4229	-1.8292	-2.1146	-2.1771	-1.6479	-2.1917	-2.2438	-1.8354	-2.2188	-1.9417	-2.0812	-2.3542	-1.7854	-2.0833	-1.9062	377.007	99.156	253.001	409.186	126.214	209.190	347.570	352.072	283.226	238.402	390.810	301.895	55.491	343.336	312.530	254.421	0.0011008	0.00052083	0.0002045	1320.4	2.5705e-06	3.7869e-07	1331.1	366.81	6.3158e-06	6.2546e-06	420.97	139.84	120.97	41.368	1.9393e-05	51.417	0.00048565	0.00045358	0.00013275	1338	5.2661e-06	4.932e-06	1344.7	373.26	5.2152e-06	4.8929e-06	425.26	142.42	122.36	41.95	5.43e-06	52.78	85.462	342.940	144.952	64.742	165.841	282.975	64.573	69.287	140.766	153.568	68.631	73.285	73.962	78.365	217.570	77.447	-8191	255	
6659.734	1	1	0	0	0.11754	0.17998	0.25108	0.50487	0.029521	0.23801	0.16694	0.11326	0.1698	0.17185	0.069975	0.048954	0.12026	0.25876	0.074192	0.10971	-1.0583	-2.2458	-1.6812	-2.0938	-2.1833	-1.6688	-2.3063	-2.3021	-1.8229	-2.1625	-1.9583	-2.0396	-2.5104	-1.6125	-2.0125	-2.2958	327.347	309.258	148.115	71.925	52.144	74.974	344.253	208.611	52.129	185.643	345.906	259.005	353.062	349.730	272.311	375.707	0.00099183	0.00049955	0.00019585	1317.1	3.8231e-06	4.5716e-06	1330.5	367.18	6.3118e-06	2.0835e-06	421.05	139.92	121.09	41.307	7.4564e-06	51.375	0.00048027	0.00044734	0.00014049	1339.9	5.1928e-06	4.907e-06	1349.7	372.81	5.0984e-06	4.8923e-06	426.45	141.98	122.12	41.935	5.6038e-06	52.543	79.276	118.435	142.429	64.718	136.904	192.159	64.630	69.318	200.004	346.381	68.688	73.421	73.663	78.413	229.100	77.747	-8191	255	
6659.855	1	1	0	0	0.20867	0.10013	0.053547	0.33089	0.12556	0.046373	0.13168	0.15121	0.15162	0.12048	0.14891	0.0078945	0.032079	0.27911	0.18299	0.22147	-1.2146	-2.1896	-1.9292	-1.9917	-2.1208	-2.0021	-2.2667	-2.1208	-1.6146	-2.1083	-2.0896	-1.9271	-2.4896	-1.8354	-2.1292	-2.25	291.304	233.514	100.757	63.397	186.425	246.837	63.024	405.782	170.022	217.970	286.696	402.883	276.478	65.529	117.087	342.424	0.00092788	0.00088959	0.0001519	1317.2	3.4646e-06	2.2599e-06	1331.8	366.71	3.9052e-06	8.1375e-06	418.95	139.54	121.46	41.222	1.6015e-06	51.383	0.0004658	0.00045243	0.00014571	1335.4	5.0664e-06	5.0473e-06	1351.6	372.31	5.0476e-06	5.0949e-06	427.52	141.38	122.11	42.035	5.7248e-06	52.332	80.679	161.956	146.466	64.597	131.914	105.570	64.649	69.505	154.803	228.954	68.885	72.980	73.949	78.348	330.368	77.459	-8191	255	
6659.951	1	1	0	0	0.11009	0.099996	0.096784	0.19927	0.14581	0.23349	0.27823	0.19067	0.31233	0.17964	0.24166	0.16682	0.26519	0.14037	0.34085	0.083904	-1.3438	-2.2979	-1.8271	-1.7479	-2.2875	-1.7771	-2.1292	-2.3104	-1.4083	-2.1312	-2.2104	-1.8875	-2.2729	-1.9208	-1.7042	-2.3458	139.704	331.955	119.671	364.672	355.754	158.136	65.649	278.554	273.043	293.517	347.335	134.607	393.318	220.935	335.706	348.015	0.00082751	0.00037604	0.00014113	1316.3	3.395e-06	7.1491e-06	1337	366.95	7.8576e-06	7.9888e-06	419.7	140.39	121.1	41.405	4.5137e-06	51.365	0.00045627	0.00047471	0.0001456	1334.8	4.8647e-06	5.2762e-06	1352.7	371.25	4.8781e-06	5.3443e-06	425.77	141.51	121.69	42.257	5.5615e-06	52.226	79.108	238.065	82.844	64.727	278.191	137.936	64.561	69.437	186.974	207.826	68.828	73.304	73.560	78.455	235.557	77.237	-8191	255	
6660.023	1	1	0	0	0.23112	0.21521	0.4062	0.31446	0.1091	0.091258	0.26954	0.32568	0.059706	0.086734	0.11646	0.36201	0.093349	0.10284	0.18703	0.14453	-1.2417	-2.0104	-1.9792	-1.7625	-2.3708	-1.775	-1.9708	-2.2333	-1.6729	-2.0021	-2.1042	-1.4979	-2.3042	-2.0354	-1.925	-2.3729	185.307	145.604	258.059	382.842	398.988	405.578	384.401	300.135	158.467	312.918	379.112	122.984	91.466	140.612	172.814	150.183	0.0009791	0.00064943	9.7028e-05	1318.7	5.0113e-06	2.8204e-06	1329.8	367.13	9.63e-06	1.7171e-06	421.4	139.82	120.76	41.315	5.7025e-06	51.421	0.0004495	0.0005003	0.00014132	1333.7	4.8635e-06	5.5459e-06	1348.4	371.13	4.9226e-06	5.5593e-06	425.41	140.89	121.81	42.417	5.3951e-06	52.142	79.594	191.711	208.537	64.823	224.954	152.237	64.562	69.415	126.983	197.951	68.756	73.760	73.682	78.298	190.015	77.545	-8191	255	
6660.143	1	1	0	0	0.16913	0.2236	0.087927	0.36256	0.073908	0.10929	0.1183	0.2084	0.021349	0.16339	0.19303	0.1673	0.1674	0.12607	0.22435	0.007472	-1.3188	-2.2167	-2.1292	-1.7062	-2.3563	-2.1792	-1.9854	-2.4729	-1.6458	-2.0979	-2.2521	-1.675	-2.2417	-2.0771	-1.7229	-2.5083	338.913	64.272	193.387	352.776	187.641	320.481	286.529	368.448	285.182	406.304	366.398	66.321	393.248	194.287	390.396	232.438	0.0011642	0.00061073	5.8078e-05	1317.9	5.7981e-06	2.9709e-06	1331.4	365.44	8.6547e-06	1.4093e-06	421.97	139.78	121.02	41.443	1.5996e-06	51.583	0.00046576	0.00051454	0.00013597	1333.1	5.0343e-06	5.6434e-06	1345.9	369.76	5.152e-06	5.5914e-06	424.36	140.87	122.37	42.391	5.2134e-06	52.083	79.492	177.882	154.843	64.773	182.362	351.730	64.437	69.485	146.233	296.248	68.784	73.385	73.817	78.302	281.287	77.403	-8191	255	
6660.239	1	1	0	0	0.1715	0.21983	0.093935	0.34541	0.33236	0.12547	0.54292	0.2015	0.3983	0.25205	0.19244	0.29144	0.23972	0.44395	0.17186	0.25022	-1.4667	-1.9521	-2.2104	-1.8042	-2.0958	-1.8208	-1.9229	-2.4479	-1.8833	-2.0583	-2.3875	-1.9604	-2.0625	-2.1146	-1.6021	-2.3458	378.107	330.668	384.887	367.513	64.319	129.619	324.006	55.707	141.959	232.994	387.485	392.357	98.974	374.866	240.331	79.194	0.0014769	0.0003987	8.062e-05	1317.1	6.5204e-06	5.1284e-06	1329.4	366.39	1.4564e-05	2.9744e-06	417.9	139.48	120.92	41.16	5.3825e-06	51.419	0.00048817	0.00050325	0.00013067	1331.5	5.2807e-06	5.48e-06	1344.1	369.73	5.3788e-06	5.3806e-06	422.45	140.45	122.56	42.155	4.9677e-06	51.956	82.311	215.293	380.276	64.692	194.005	117.068	64.634	69.544	144.323	160.219	68.895	73.495	73.785	78.316	200.961	77.452	-8191	255	
6660.336	1	1	0	0	0.20446	0.32241	0.14044	0.2376	0.11868	0.25326	0.32135	0.14801	0.13106	0.16078	0.072989	0.0266	0.11435	0.03391	0.46277	0.36434	-1.25	-1.8062	-2.1792	-1.6	-2.1417	-2.0438	-1.9771	-2.3354	-1.7729	-1.9875	-2.3312	-1.925	-2.0938	-2.25	-1.6917	-2.3396	126.328	287.904	187.068	383.481	281.813	118.518	367.253	322.408	222.943	302.406	108.324	264.728	344.375	331.370	156.999	289.434	0.0010712	0.00023304	7.9974e-05	1315.4	7.0073e-06	2.8463e-06	1329.1	366.07	3.0866e-06	1.9729e-06	419.99	139.79	121.12	41.215	4.397e-06	51.446	0.00049841	0.00047617	0.00012406	1329	5.3231e-06	5.1367e-06	1340.8	369.22	5.4029e-06	5.0302e-06	421	140.6	122.58	42.005	4.7371e-06	52.046	80.773	246.941	75.966	64.545	164.960	131.509	64.634	69.500	222.893	312.267	68.754	73.161	73.678	78.244	154.499	77.591	-8191	255	
6660.456	1	1	0	0	0.19888	0.071539	0.030556	0.16795	0.26516	0.038626	0.31436	0.10809	0.1251	0.119	0.21026	0.14836	0.2678	0.23264	0.15476	0.13464	-1.4583	-1.6667	-2.2687	-2.0062	-1.8708	-2.1792	-1.8479	-2.4125	-2.05	-1.5958	-2.4708	-1.8771	-1.9854	-2.3521	-1.7583	-2.1354	246.773	234.596	134.882	368.936	55.268	118.082	57.890	319.730	375.853	180.171	59.545	374.327	290.776	378.868	67.082	107.276	0.0010441	0.00035235	4.2009e-05	1316.5	5.2097e-06	2.922e-06	1332.5	366.81	6.016e-06	5.2603e-07	418.75	140.46	121.18	41.235	7.6514e-06	51.489	0.00049585	0.00045071	0.00011952	1330.1	5.288e-06	4.9284e-06	1338.7	370.59	5.2964e-06	4.8185e-06	420.5	141.2	122.52	41.876	4.6006e-06	52.265	87.734	191.324	138.756	64.729	164.213	102.765	64.478	69.360	108.847	154.309	68.827	73.246	73.799	78.246	278.403	77.452	-8191	255	
6660.551	1	1	0	0	0.28414	0.26153	0.11758	0.42019	0.043843	0.099387	0.22185	0.44381	0.08443	0.24697	0.26339	0.099822	0.095685	0.044253	0.11091	0.07162	-1.6396	-1.7625	-2.4083	-1.9542	-1.9333	-2.2583	-1.9229	-2.1792	-2.0271	-1.7333	-2.3333	-1.9646	-2.0271	-2.3667	-1.6396	-2.1646	259.366	381.938	168.709	371.149	284.418	235.289	361.576	376.547	94.884	114.603	345.187	76.825	389.924	253.647	66.696	384.890	0.0007573	0.00079953	3.3441e-05	1315.1	6.1225e-06	1.4476e-06	1328.9	366.71	9.5517e-06	1.8284e-06	420.24	140.31	120.68	41.383	1.0859e-05	51.266	0.00047922	0.00043844	0.00011593	1332.6	5.1179e-06	4.778e-06	1337.2	370.87	5.1429e-06	4.7511e-06	420.23	141.51	121.88	41.826	4.743e-06	52.397	92.153	121.182	79.800	64.732	122.778	195.952	64.419	69.387	387.001	158.136	68.804	73.396	73.824	78.670	209.846	77.600	-8191	255	
6660.622	1	1	0	0	0.26324	0.18324	0.23753	0.17204	0.21478	0.21973	0.24015	0.38583	0.071465	0.16681	0.086949	0.15103	0.38247	0.10458	0.14249	0.28338	-1.6437	-1.475	-2.3312	-2.0687	-1.8125	-2.3146	-1.8083	-2.2833	-2.3583	-1.5854	-2.2646	-2.2708	-1.8833	-2.5083	-1.7729	-1.9958	332.070	169.088	301.387	102.382	112.285	157.021	408.898	387.680	221.140	361.207	144.712	346.300	72.712	271.791	183.767	336.024	0.00094834	5.4964e-05	0.00010805	1316.2	3.2204e-06	3.8683e-06	1329.7	366.46	2.3698e-06	2.8642e-06	418.71	139.84	121.21	41.162	9.9397e-06	51.597	0.00046998	0.00043143	0.00012125	1335.4	5.0165e-06	4.7222e-06	1340.1	371.5	5.0092e-06	4.7567e-06	421.48	141.89	121.87	41.772	5.0663e-06	52.512	83.126	171.440	109.176	64.733	159.750	211.892	64.517	69.499	115.707	303.375	68.827	73.295	73.753	78.411	226.691	77.744	-8191	255	
6660.743	1	1	0	0	0.024823	0.29143	0.1035	0.55067	0.28187	0.1468	0.41209	0.04956	0.10656	0.11994	0.070336	0.062306	0.061671	0.073563	0.18436	0.086072	-1.8396	-1.5854	-2.2417	-2.1083	-1.6521	-2.5792	-2.1271	-1.9896	-2.475	-1.75	-2.0979	-2.4104	-1.9417	-2.2938	-1.7125	-2.1188	174.188	116.647	247.088	379.929	272.565	179.821	367.757	309.434	338.837	272.544	311.409	259.815	278.476	83.437	313.735	399.740	0.0010841	0.00011319	0.00016264	1319.2	2.8037e-06	5.0774e-06	1330.3	366.27	7.8867e-06	3.6635e-06	420.73	140.28	121.52	41.272	6.9758e-06	51.477	0.00045344	0.00042466	0.00012893	1334.7	4.8846e-06	4.5802e-06	1343.6	370.72	4.8434e-06	4.6155e-06	422.93	141.43	121.71	41.722	5.2638e-06	52.307	92.118	166.226	149.977	64.736	84.996	191.186	64.620	69.597	114.060	243.978	68.850	73.102	73.788	78.166	194.548	77.408	-8191	255	
6660.839	1	1	0	0	0.18062	0.21635	0.059949	0.10745	0.029382	0.13663	0.10204	0.12358	0.15544	0.04628	0.26798	0.030772	0.28929	0.092066	0.20718	0.15855	-1.9396	-1.8875	-1.9667	-2.3417	-1.6417	-2.3438	-2.1854	-1.7687	-2.125	-1.8125	-2.175	-2.3271	-1.5375	-2.4083	-1.8333	-2.0333	172.360	124.775	197.465	346.647	227.682	271.988	346.838	58.160	397.856	230.407	389.271	52.058	363.773	384.593	202.815	368.255	0.001148	0.00056999	0.00020568	1313.9	5.3176e-06	7.3977e-06	1333.7	365.94	2.4822e-06	6.3643e-06	419.61	140.49	120.59	41.515	4.1202e-06	51.383	0.00044122	0.00042565	0.00013388	1332.3	4.7683e-06	4.6453e-06	1345.2	370.53	4.7659e-06	4.7353e-06	424.15	141.01	121.35	41.789	5.4667e-06	52.07	78.955	224.159	96.673	64.567	129.827	191.722	64.613	69.469	151.314	234.467	68.862	73.291	73.747	78.307	247.853	77.348	-8191	255	
6660.935	1	1	0	0	0.35747	0.1809	0.24447	0.23199	0.10545	0.061637	0.12277	0.32762	0.15389	0.15116	0.17718	0.34135	0.29244	0.17414	0.17129	0.17979	-2.0167	-1.8708	-1.9875	-2.475	-1.6583	-2.2354	-2.325	-1.8854	-2.4062	-1.7583	-1.9854	-2.3958	-1.7229	-2.2521	-2.0958	-1.8708	258.544	180.956	260.391	375.923	381.969	210.065	81.271	334.817	91.639	211.600	247.321	403.497	83.059	378.741	377.031	397.262	0.00083579	0.00021887	7.0467e-05	1314	3.0154e-06	4.0151e-06	1330.6	366.39	6.8528e-06	7.7198e-06	418.34	139.41	120.96	41.194	4.545e-06	51.362	0.00043438	0.00044483	0.00013707	1329.8	4.695e-06	4.8778e-06	1344.9	369.48	4.6625e-06	5.0186e-06	423.55	140.58	121.03	41.94	5.3832e-06	52.068	95.265	145.478	191.752	64.702	143.922	218.843	64.520	69.343	217.453	177.154	68.905	73.294	73.893	78.427	289.698	77.493	-8191	255	
6661.031	1	1	0	0	0.321	0.23952	0.11812	0.31273	0.13948	0.16423	0.1777	0.1482	0.0092063	0.13445	0.18694	0.24232	0.4114	0.45257	0.086945	0.14577	-1.8021	-1.7021	-1.8667	-2.4125	-1.6063	-2.2167	-2.3167	-1.7833	-2.425	-1.9438	-2.0833	-2.3396	-1.8521	-2.4125	-1.9396	-1.8917	173.513	383.256	98.249	372.808	322.492	360.647	373.385	340.747	370.454	71.625	372.928	343.403	383.318	350.046	322.505	339.559	0.0010439	0.00032678	5.5813e-05	1315	4.3771e-06	7.1956e-06	1327.7	367.02	1.0909e-05	2.0872e-06	417.93	139.38	120.41	41.251	4.5131e-06	51.348	0.00042491	0.00046968	0.00013518	1328.1	4.6154e-06	5.1883e-06	1344.1	369.61	4.6157e-06	5.2604e-06	423.52	140.51	121.2	42.098	5.178e-06	51.948	88.002	159.690	118.291	64.680	234.356	139.934	64.460	69.488	177.700	136.442	68.837	73.169	73.808	78.592	308.155	77.360	-8191	255	
6661.152	1	1	0	0	0.042988	0.064962	0.23319	0.13947	0.28872	0.21965	0.32439	0.21787	0.32756	0.19068	0.38479	0.14026	0.39821	0.28288	0.18177	0.080269	-1.8125	-1.9292	-1.8083	-2.4875	-1.7833	-1.9729	-2.4688	-1.8396	-2.3792	-1.9083	-1.8813	-2.5896	-1.8333	-2.2	-2.025	-1.65	280.684	226.302	246.174	65.662	340.865	165.403	359.893	374.771	142.479	243.095	403.619	62.218	339.440	85.686	362.514	359.238	0.0010354	0.00093111	0.00011296	1316.8	8.166e-06	4.715e-06	1325.6	365.29	5.3573e-06	2.9934e-06	418.75	139.82	121.27	41.317	2.6383e-06	51.259	0.00043104	0.00048695	0.00013069	1328	4.7482e-06	5.2908e-06	1340.3	368.43	4.7439e-06	5.3305e-06	421.93	140.03	121.57	42.137	4.9404e-06	51.751	78.040	112.636	117.962	64.757	169.363	223.951	64.439	69.386	119.767	246.012	68.791	73.168	73.774	78.509	285.182	77.633	-8191	255	
6661.248	1	1	0	0	0.10727	0.074691	0.15478	0.15844	0.17319	0.086691	0.25306	0.36174	0.29767	0.16012	0.13595	0.21532	0.11904	0.24169	0.088712	0.38865	-1.775	-2.0583	-1.8604	-2.4958	-1.7875	-1.8104	-2.2479	-1.9167	-2.1833	-2.05	-1.6875	-2.4896	-1.825	-1.8062	-2.1771	-1.8062	157.692	151.826	321.930	386.331	119.275	231.553	390.364	356.316	204.566	74.194	335.051	284.863	351.377	348.340	141.010	326.492	0.0012873	0.00024533	0.00020134	1316.4	8.9416e-06	9.1062e-07	1324.8	365.63	1.4749e-05	3.1548e-06	417.15	140	121.11	41.221	4.7939e-06	51.156	0.00044749	0.00048462	0.00012517	1325.9	5.0093e-06	5.2268e-06	1338.4	368.49	5.0116e-06	5.2671e-06	421.22	140.05	122.02	41.932	4.8602e-06	51.635	79.330	181.940	133.929	64.768	200.148	260.808	64.544	69.328	174.628	208.580	68.927	72.928	73.750	78.408	230.990	77.549	-8191	255	
6661.320	1	1	0	0	0.18001	0.16388	0.079485	0.32293	0.36461	0.29632	0.21626	0.32332	0.10736	0.18149	0.31304	0.010874	0.30397	0.049581	0.14625	0.25801	-1.7708	-1.9896	-1.7396	-2.3604	-1.8854	-1.775	-2.4792	-1.7708	-2.1688	-2.2354	-1.6958	-2.3563	-2.2875	-1.9271	-2.4479	-1.7938	176.441	341.171	143.014	393.514	228.888	398.571	359.248	64.771	272.407	92.288	359.361	189.703	394.094	263.480	358.310	356.076	0.0011348	0.00054277	0.00013503	1315.5	3.5324e-06	2.5924e-06	1328.5	366.46	1.0848e-05	5.3193e-07	418.61	139.79	120.87	41.089	5.3747e-06	51.353	0.00047544	0.00046705	0.00012282	1324	5.2233e-06	5.0674e-06	1336.6	368.5	5.2062e-06	5.0086e-06	419.85	139.9	122.34	41.883	4.712e-06	51.853	71.801	80.100	126.360	64.732	146.865	111.024	64.421	69.444	157.162	163.203	68.715	73.286	73.614	78.706	202.033	77.544	-8191	255	
6661.416	1	1	0	0	0.25475	0.15809	0.095807	0.086106	0.16047	0.035809	0.31389	0.20674	0.13525	0.24609	0.24273	0.057393	0.35234	0.25873	0.10901	0.21507	-1.5063	-2.1917	-1.5438	-2.5229	-1.9125	-1.7188	-2.5833	-1.8083	-1.9875	-2.2542	-1.925	-2.2812	-2.1833	-1.8083	-2.3521	-1.7625	315.227	300.409	130.530	95.233	52.779	161.179	354.774	385.765	294.819	121.877	341.212	303.427	99.293	62.101	155.912	339.387	0.0012722	0.00012843	0.00010793	1315.3	4.4567e-06	2.9509e-06	1327.7	365.32	4.1865e-06	1.5238e-06	418.38	139.08	120.86	41.249	8.9112e-07	51.361	0.00048746	0.00045183	0.00011927	1326	5.2852e-06	4.9043e-06	1334.4	369.32	5.225e-06	4.8863e-06	419.27	140.17	122.08	41.823	4.5633e-06	52.053	87.446	340.398	92.381	64.608	223.958	393.906	64.524	69.456	374.051	154.013	68.697	73.078	73.650	78.491	345.092	77.825	-8191	255	
6661.535	1	1	0	0	0.1873	0.17377	0.24421	0.27592	0.013912	0.2399	0.2099	0.073137	0.15069	0.05182	0.21441	0.27955	0.21608	0.25038	0.13288	0.21955	-1.4	-2.2354	-1.5583	-2.3625	-1.9813	-1.7083	-2.4313	-2.0563	-2.0938	-2.2188	-1.7875	-2.4083	-1.9937	-1.5875	-2.425	-1.9167	363.727	201.316	341.469	55.335	191.213	331.947	326.166	122.902	260.601	195.317	333.316	376.994	89.437	318.782	183.963	318.348	0.00085697	0.00042702	0.00010676	1320.2	1.8133e-06	7.6382e-07	1323.5	364.73	6.3409e-06	4.6375e-06	416.89	139.67	120.89	41.19	1.1931e-06	51.197	0.0004788	0.00043631	0.00011641	1330.6	5.1867e-06	4.7817e-06	1332.1	369.82	5.1429e-06	4.7821e-06	419.16	140.88	121.93	41.683	4.6205e-06	52.27	81.338	138.128	131.300	64.706	234.076	376.369	64.545	69.544	241.072	197.615	68.795	73.264	73.548	78.186	209.815	77.693	-8191	255	
6661.631	1	1	0	0	0.1777	0.31078	0.1439	0.17185	0.14798	0.28065	0.31883	0.078755	0.12847	0.24372	0.18941	0.043527	0.1331	0.13438	0.095326	0.063958	-1.4312	-2.2875	-1.7104	-2.3271	-2.2396	-1.825	-2.3604	-2.1917	-1.8979	-2.3458	-1.9188	-2.1063	-2.3438	-1.7479	-2.3979	-2.075	176.623	103.106	113.079	402.842	61.306	70.995	334.030	311.724	109.290	297.459	295.707	123.696	313.287	68.547	208.583	375.426	0.00099054	0.00061982	0.00015111	1313.1	4.7515e-06	2.3407e-06	1322.2	365.28	7.5935e-06	2.5362e-06	417.65	139.92	120.6	41.184	8.2595e-06	51.147	0.00047019	0.00043065	0.00011959	1329.9	5.01e-06	4.671e-06	1332.4	370.35	4.9391e-06	4.6287e-06	420.1	141.39	121.31	41.63	4.8338e-06	52.352	82.886	99.866	107.653	64.670	104.781	188.724	64.757	69.524	207.389	187.822	68.926	73.202	73.812	78.404	248.843	77.508	-8191	255	
6661.727	1	1	0	0	0.35961	0.085207	0.13323	0.40315	0.21145	0.25882	0.20273	0.2992	0.11559	0.22854	0.12898	0.31716	0.027062	0.28386	0.096514	0.28705	-1.3104	-2.2812	-1.9062	-2.0812	-2.4437	-1.5646	-2.3333	-2.1875	-1.5021	-2.3979	-1.7333	-2.0958	-2.2	-1.8896	-1.9188	-2.2	106.331	207.560	71.098	394.305	131.798	234.552	250.652	358.241	125.826	282.236	339.457	362.672	165.110	376.969	186.045	148.545	0.0011152	0.00038247	0.000203	1316.4	3.4839e-06	1.9991e-06	1325.7	365.62	5.0529e-06	1.8296e-06	417.23	139.89	121.08	40.958	1.2099e-05	51.083	0.00045345	0.00042111	0.00012617	1330.4	4.8479e-06	4.6326e-06	1337.5	370.61	4.8425e-06	4.5297e-06	421.68	140.91	121.43	41.523	5.1088e-06	52.141	71.493	171.350	152.433	64.696	63.505	70.737	64.636	69.457	180.639	274.995	68.748	73.441	73.616	78.425	221.254	77.358	-8191	255	
6661.823	1	1	0	0	0.16021	0.22092	0.11813	0.23851	0.2983	0.042339	0.31668	0.26491	0.10522	0.24338	0.17495	0.066651	0.31195	0.072843	0.11249	0.29434	-1.2062	-2.1188	-1.8167	-2.0375	-2.125	-1.6	-2.4792	-2.3167	-1.6313	-2.2271	-2.1229	-1.7792	-2.2771	-1.7271	-2.25	-2.3417	384.178	170.286	243.751	84.785	99.985	174.285	399.769	353.260	397.063	115.490	328.103	338.795	370.373	407.124	329.218	322.746	0.0008621	0.00033259	8.6751e-05	1314.9	4.9588e-06	4.0784e-06	1326.2	365.29	9.7583e-06	5.7249e-06	418.42	138.59	120.75	41.129	1.2668e-05	51.386	0.00044133	0.00041456	0.00013236	1330.4	4.7602e-06	4.5526e-06	1339.2	369.63	4.7105e-06	4.5645e-06	423.26	140.33	121.07	41.583	5.2949e-06	52.09	83.960	153.860	86.101	64.840	160.160	204.153	64.568	69.384	167.829	267.461	68.885	73.102	73.786	78.302	244.061	77.339	-8191	255	
6661.919	1	1	0	0	0.14296	0.048643	0.057768	0.48548	0.098219	0.12761	0.22113	0.056949	0.073945	0.2058	0.13655	0.2617	0.15252	0.1949	0.14773	0.23744	-1.3604	-1.9937	-1.8479	-1.8917	-2.3958	-1.8062	-2.1083	-2.5062	-1.6604	-2.3375	-2.2208	-1.7917	-2.4	-1.9729	-1.9854	-2.1437	132.143	162.381	134.895	368.830	167.630	73.484	326.759	291.568	81.195	318.468	376.241	321.071	103.281	315.089	257.006	389.982	0.0010415	0.00057284	0.00016463	1317.3	4.2622e-06	7.4232e-06	1322.5	365.67	2.8316e-06	5.5369e-06	417.01	139.5	120.51	41.116	4.7759e-06	51.073	0.0004294	0.00042312	0.00013576	1328.2	4.6059e-06	4.7276e-06	1340.2	369.14	4.5777e-06	4.7297e-06	422.75	140.28	120.92	41.707	5.2537e-06	51.825	86.685	151.740	150.776	64.716	80.986	202.892	64.680	69.632	370.193	238.093	68.790	73.305	73.490	78.544	191.325	77.332	-8191	255	
6662.016	1	1	0	0	0.04692	0.14992	0.23708	0.11327	0.1368	0.26243	0.46424	0.22234	0.21731	0.2959	0.080604	0.17206	0.057232	0.023629	0.093153	0.2565	-1.2104	-2.0875	-1.9438	-1.6083	-2.5375	-1.6958	-2.2583	-2.2021	-1.6479	-2.2438	-2.1271	-1.8	-2.1771	-1.9854	-1.9104	-2.2708	271.334	252.220	139.117	281.065	57.065	246.527	314.069	102.490	404.544	288.697	244.370	399.700	205.884	385.788	72.051	367.622	0.00094082	0.00027119	0.00022902	1313.2	4.4207e-06	6.4517e-06	1328.1	366.1	3.0117e-06	7.6421e-06	417.89	139.48	120.45	41.073	3.1171e-06	51.372	0.00042075	0.00044681	0.00013287	1324.1	4.4638e-06	4.9913e-06	1339.4	368.65	4.464e-06	4.9677e-06	422.18	139.87	120.54	41.844	5.0611e-06	51.753	88.694	156.435	121.793	64.649	165.206	143.399	64.473	69.576	229.481	195.825	68.877	73.515	73.747	78.223	282.589	77.533	-8191	255	
6662.136	1	1	0	0	0.075117	0.09808	0.20532	0.14945	0.077523	0.048487	0.21044	0.2354	0.019996	0.13641	0.13959	0.076004	0.23394	0.38611	0.30337	0.19778	-1.4667	-2.1375	-2.3146	-1.9458	-2.1437	-1.7812	-2.0938	-2.3875	-1.6542	-2.1479	-2.1542	-2.0604	-2.2896	-2.1646	-1.7563	-2.3125	250.234	129.352	172.450	279.838	347.610	201.792	368.532	322.433	244.584	69.747	168.858	356.427	385.440	402.595	99.390	151.439	0.0011576	0.00069053	0.00014272	1310.2	6.507e-06	2.2781e-06	1322.5	364.34	1.3842e-05	4.5031e-06	419.03	139.55	120.43	41.122	3.3993e-06	51.207	0.00041931	0.00046927	0.00012927	1323.2	4.573e-06	5.2245e-06	1336.8	367.57	4.646e-06	5.246e-06	421.54	139.7	120.92	42.002	4.9546e-06	51.698	81.636	154.132	126.478	64.738	218.292	146.156	64.448	69.390	186.408	266.823	68.668	73.235	73.713	78.537	228.528	77.776	-8191	255	
6662.232	1	1	0	0	0.12209	0.15689	0.23086	0.33211	0.31097	0.38913	0.38051	0.26165	0.14406	0.1754	0.025564	0.24439	0.2365	0.30566	0.1898	0.38228	-1.2167	-2.0958	-2.1521	-1.8771	-2.4104	-1.8542	-1.9646	-2.5812	-1.8792	-2	-2.4	-1.725	-2.2104	-1.9375	-1.7	-2.5104	167.430	183.544	285.660	385.051	190.831	202.220	391.888	302.514	283.767	103.055	186.447	408.031	396.006	389.371	382.739	289.228	0.0012788	0.00088327	0.00016471	1310.1	6.4188e-06	1.2813e-06	1323.3	364.28	1.0936e-05	1.8645e-06	415.94	139.25	120.34	41.028	4.1698e-07	51.437	0.00044546	0.0004822	0.00012589	1321.5	4.8551e-06	5.2919e-06	1335.7	367.42	4.9789e-06	5.2727e-06	419.74	139.6	121.23	42.018	4.8776e-06	51.63	77.236	173.432	153.748	64.820	150.122	191.675	64.315	69.177	159.895	229.933	68.892	73.351	73.708	78.195	376.226	77.614	-8191	255	
6662.328	1	1	0	0	0.20388	0.24299	0.16943	0.314	0.044903	0.32345	0.39033	0.11643	0.33088	0.050525	0.24897	0.35892	0.029302	0.15443	0.31624	0.070249	-1.1958	-1.9833	-2.4042	-1.9	-2.25	-2.1583	-1.8146	-2.475	-1.8208	-1.9917	-2.3438	-1.8458	-2.1813	-2.0458	-1.6125	-2.45	309.759	183.810	343.201	341.330	124.097	125.534	387.324	213.289	139.083	394.560	331.494	410.655	265.352	68.226	406.358	64.151	0.001157	0.00035258	7.8818e-05	1311.8	4.719e-06	6.0882e-06	1323.1	365.01	1.3174e-05	1.6229e-06	417.98	139.6	120.83	41.068	5.7231e-06	51.274	0.00047182	0.00047152	0.00012342	1321.7	5.0999e-06	5.1513e-06	1335	367.49	5.2234e-06	5.118e-06	420.58	139.68	121.9	41.921	4.8389e-06	51.736	89.630	234.644	344.355	64.755	177.948	161.073	64.468	69.263	149.912	229.507	68.704	73.206	73.786	78.422	187.094	77.542	-8191	255	
6662.425	1	1	0	0	0.13249	0.19162	0.07773	0.23893	0.18301	0.19454	0.39691	0.084205	0.11699	0.18945	0.44106	0.19256	0.33987	0.099043	0.29802	0.17023	-1.6042	-1.6583	-2.2438	-1.7833	-1.9604	-2.1896	-1.8333	-2.3854	-1.9625	-1.9062	-2.6021	-1.8125	-2.1958	-2.1583	-1.8521	-2.2771	82.835	311.946	395.549	371.303	157.063	150.887	328.081	83.701	386.207	360.021	369.790	79.689	336.144	265.625	402.484	311.009	0.001235	0.00031593	0.00017056	1313.3	7.4191e-06	7.247e-06	1324.3	366.4	4.6768e-06	2.0252e-06	417.5	139.23	121.09	41.157	6.775e-06	50.986	0.00048801	0.00045918	0.00012095	1324.6	5.2737e-06	4.9725e-06	1334.4	368.35	5.2982e-06	4.9364e-06	418.97	139.95	122.01	41.722	4.7075e-06	51.799	88.953	70.857	193.458	64.769	170.516	223.078	64.367	69.235	194.062	269.909	68.803	73.457	74.047	78.289	257.962	77.558	-8191	255	
6662.543	1	1	0	0	0.27424	0.25305	0.075844	0.21512	0.12959	0.29743	0.34434	0.10627	0.23008	0.24719	0.1132	0.20302	0.19188	0.26915	0.25311	0.24845	-1.4417	-1.4271	-2.2792	-2.0687	-2.0479	-2.2125	-1.75	-2.2292	-1.9875	-1.4979	-2.3875	-1.8458	-2.0958	-2.3375	-1.5521	-2.1521	380.313	128.325	64.303	409.436	189.920	211.455	332.783	329.174	79.057	68.157	241.218	275.431	70.714	384.142	200.831	313.403	0.00069318	0.00093338	0.00011451	1310.9	1.888e-06	2.1201e-06	1322.7	364.85	1.3618e-06	3.3007e-06	418.24	139.26	120.52	41.043	3.7805e-06	51.451	0.00048784	0.00044266	0.00011661	1326.3	5.2348e-06	4.8618e-06	1332.4	369.14	5.2122e-06	4.8343e-06	419.22	140.73	121.71	41.648	4.5965e-06	52.131	65.728	141.663	204.628	64.665	373.857	134.951	64.659	69.510	207.879	178.750	68.701	73.331	73.725	78.173	219.116	77.236	-8191	255	
6662.615	1	1	0	0	0.14513	0.13934	0.11639	0.070244	0.15045	0.14342	0.083724	0.2574	0.078025	0.043481	0.11585	0.09989	0.039012	0.23792	0.20649	0.18914	-1.7313	-1.5021	-2.2083	-1.8542	-1.9417	-2.0271	-1.9771	-2.2396	-2.1937	-1.5167	-2.3458	-1.9583	-2.0333	-2.4271	-1.6917	-2.0104	135.206	253.592	340.973	392.497	247.986	251.188	357.213	299.194	278.187	57.391	309.350	87.207	107.223	64.180	95.593	283.276	0.0010002	0.00023463	0.00019328	1311.2	5.0442e-06	3.6457e-06	1325.5	366.25	1.4838e-06	2.968e-06	418.23	139.29	120.7	41.138	1.2763e-05	51.406	0.00047173	0.00043393	0.0001159	1328.4	5.0207e-06	4.6864e-06	1332.2	369.94	4.9517e-06	4.6598e-06	418.78	140.75	121.43	41.535	4.6276e-06	52.215	75.726	348.376	138.050	64.757	181.942	110.038	64.790	69.394	258.799	117.788	68.896	73.152	73.942	78.340	185.136	77.492	-8191	255	
6662.711	1	1	0	0	0.10511	0.1787	0.022601	0.31505	0.11499	0.15753	0.291	0.27851	0.11032	0.21284	0.16133	0.21399	0.15161	0.06811	0.25445	0.30068	-1.6708	-1.4937	-2.15	-2.075	-1.8667	-2.35	-2.0583	-2.0042	-2.2083	-1.6729	-2.1396	-1.925	-1.75	-2.4833	-1.7188	-2.1458	344.081	86.553	346.521	354.365	186.342	183.610	312.071	381.053	200.420	73.294	347.316	319.653	306.325	136.142	389.477	345.382	0.00087963	0.00032088	0.00017818	1308.9	7.388e-06	9.3283e-07	1328.6	365.12	8.9901e-06	3.4771e-06	419.7	139.63	120.85	41.154	5.3943e-06	51.342	0.00044191	0.00041373	0.00011922	1327.5	4.7126e-06	4.4806e-06	1333.1	369.74	4.7428e-06	4.4698e-06	420.51	140.88	121.32	41.477	4.8588e-06	52.128	77.797	199.913	143.433	64.858	184.150	280.337	64.483	69.467	218.390	359.933	68.902	73.182	73.926	78.279	230.363	77.138	-8191	255	
6662.807	1	1	0	0	0.077714	0.13211	0.23782	0.32354	0.012851	0.25692	0.24758	0.28478	0.25481	0.089778	0.24196	0.011329	0.18261	0.167	0.21016	0.18426	-1.6625	-1.7188	-2.1167	-2.2646	-1.8188	-2.3563	-2.0833	-1.925	-2.2333	-1.8375	-2.1	-2.3438	-1.7458	-2.3417	-1.8438	-2.0938	372.599	145.336	281.973	344.295	205.204	72.852	381.467	323.835	369.198	374.987	394.272	142.304	325.555	350.720	400.480	383.329	0.0010195	0.0001458	0.00024383	1309.5	6.2222e-06	1.5387e-06	1321.7	364.23	1.9899e-06	2.8554e-06	418.41	139.34	120.09	41.032	4.8664e-06	51.128	0.00043315	0.00040023	0.00012421	1326.3	4.5887e-06	4.3086e-06	1335.2	368.63	4.5276e-06	4.3518e-06	421.07	140.22	120.51	41.41	5.0196e-06	51.951	72.493	399.050	152.108	64.729	167.028	69.554	64.437	69.413	201.111	219.550	68.810	73.205	73.661	78.466	210.011	77.406	-8191	255	
6662.928	1	1	0	0	0.29943	0.11367	0.040351	0.032799	0.097026	0.1081	0.084694	0.25182	0.31793	0.11697	0.21584	0.39636	0.29497	0.084215	0.16192	0.16962	-1.6396	-1.7854	-1.9813	-2.3604	-1.5979	-2.175	-2.1583	-1.8479	-2.3729	-1.6063	-2.1583	-2.3812	-1.7292	-2.2812	-2.0458	-1.8229	237.318	208.263	79.478	395.485	206.663	270.410	317.363	257.322	256.168	177.766	261.829	376.422	62.320	374.805	153.001	373.385	0.00085665	7.2045e-05	0.00010978	1308.2	2.0287e-06	4.655e-06	1320.7	365.4	5.6407e-06	3.7339e-06	417.89	139.14	120.78	41.142	4.6116e-06	51.132	0.00041505	0.00040169	0.00012784	1322.2	4.4606e-06	4.4095e-06	1335.8	368.58	4.4246e-06	4.5137e-06	420.76	139.87	120.55	41.616	5.0707e-06	51.665	76.124	168.746	168.869	64.750	133.721	232.265	64.415	69.224	122.775	243.553	68.853	73.245	73.850	78.369	179.823	77.253	-8191	255	
6663.024	1	1	0	0	0.15266	0.091991	0.1361	0.17286	0.060043	0.389	0.1369	0.32112	0.15387	0.085859	0.078348	0.15109	0.36351	0.29438	0.28857	0.33972	-1.7479	-1.6604	-1.8583	-2.2646	-1.4208	-2.3458	-2.3042	-1.8167	-2.2458	-1.9042	-1.9958	-2.3125	-1.75	-2.175	-1.9688	-1.7292	342.450	219.846	401.147	56.389	250.446	291.328	360.736	401.264	184.576	401.373	330.130	87.204	359.869	353.916	88.941	362.557	0.0008066	0.00089709	0.00017392	1310.1	5.2888e-06	8.6431e-06	1324.5	364.75	6.7385e-06	4.9816e-06	418.13	139.5	120.52	41.335	2.6731e-06	51.535	0.00040026	0.00042069	0.0001271	1320.5	4.3295e-06	4.649e-06	1336.7	367.32	4.3039e-06	4.7524e-06	420.35	139.62	120.38	41.771	4.9541e-06	51.721	59.651	117.770	142.399	64.695	205.311	170.740	64.477	69.401	147.955	226.775	68.817	73.218	73.794	78.569	116.356	77.567	-8191	255	
6663.120	1	1	0	0	0.26195	0.41403	0.23822	0.31615	0.19544	0.062265	0.23461	0.20463	0.027954	0.046699	0.27813	0.02482	0.40834	0.034061	0.13243	0.26551	-1.9646	-1.9417	-1.6396	-2.3312	-1.6562	-2.0375	-2.3312	-1.7896	-2.1375	-1.9188	-2.0729	-2.0979	-1.9125	-1.9937	-2.1292	-1.775	224.819	155.900	95.374	392.497	280.039	245.474	118.514	217.867	223.356	85.105	59.488	263.591	354.666	393.352	348.453	349.659	0.0011945	0.00054429	6.5923e-05	1311.6	2.6089e-06	4.8682e-06	1319.5	364.81	8.4204e-06	4.942e-06	419.39	139.45	121.24	41.207	1.7157e-06	51.438	0.0004001	0.00044316	0.00012346	1319.4	4.3154e-06	4.8697e-06	1332.9	367.22	4.3142e-06	4.9301e-06	420.23	139.29	120.66	41.808	4.7497e-06	51.501	82.357	135.652	115.717	64.774	193.588	97.586	64.711	69.526	122.200	281.293	69.003	73.406	73.828	78.532	145.978	77.305	-8191	255	
6663.217	1	1	0	0	0.14913	0.057174	0.065895	0.077185	0.16939	0.17378	0.12149	0.17419	0.27566	0.10862	0.25213	0.12386	0.34399	0.27379	0.12646	0.27741	-1.675	-1.8521	-1.6417	-2.3042	-1.6479	-2.0187	-2.3375	-1.8354	-1.8958	-2.0979	-1.6354	-2.5583	-1.6688	-2.0479	-2.0771	-1.7563	190.328	292.666	209.984	407.382	409.332	248.972	101.771	95.513	208.263	86.186	389.193	284.283	96.599	360.224	323.119	348.805	0.0011954	0.00056219	0.00013448	1305.6	6.7503e-06	2.5249e-06	1324.7	364.95	7.3112e-06	1.6036e-06	417.93	139.7	120.54	41.218	9.6273e-06	51.333	0.0004084	0.00045766	0.00012012	1315.9	4.4576e-06	4.9648e-06	1331.7	367.19	4.5589e-06	5.0288e-06	419.59	139.25	120.83	41.816	4.6281e-06	51.486	91.967	187.392	113.248	64.789	203.026	390.320	64.654	69.536	171.378	206.834	68.753	73.357	73.639	78.457	282.297	77.333	-8191	255	
6663.313	1	1	0	0	0.040269	0.19903	0.019607	0.14534	0.11211	0.22172	0.2962	0.15063	0.31945	0.24907	0.37194	0.41686	0.32281	0.29947	0.10297	0.098944	-1.7146	-2.0042	-1.4083	-2.5687	-1.75	-1.925	-2.5292	-1.7583	-2.1312	-1.8229	-1.7375	-2.3083	-1.8813	-2.0563	-2.0938	-1.7812	337.588	320.839	341.977	376.357	274.728	258.489	380.227	123.995	184.361	143.920	363.007	395.539	397.240	300.144	322.115	410.050	0.0013197	0.00026295	6.1392e-05	1306.4	4.8133e-06	3.3043e-06	1320.3	365.32	8.5964e-06	1.078e-06	417.95	139.36	120.13	41.278	2.4762e-06	51.163	0.0004321	0.00045199	0.00011648	1313.3	4.7807e-06	4.9052e-06	1329.1	366.47	4.8011e-06	4.9251e-06	418.85	138.96	121.29	41.719	4.5159e-06	51.481	76.436	352.657	256.795	64.587	171.845	166.279	64.403	69.543	142.858	268.296	68.764	73.333	73.644	78.421	283.116	77.515	-8191	255	
6663.409	1	1	0	0	0.06662	0.21627	0.048325	0.32441	0.11805	0.45702	0.073149	0.038421	0.050834	0.21854	0.23555	0.26018	0.18655	0.23556	0.19911	0.065519	-1.7375	-2.0583	-1.5792	-2.3479	-1.8687	-1.8062	-2.5458	-1.7458	-2.1021	-2.0729	-1.8062	-2.3458	-2.1	-1.7854	-2.1979	-1.9354	170.594	54.325	129.798	377.250	383.954	371.850	231.498	286.710	383.125	262.810	385.681	70.503	70.487	410.273	143.734	131.884	0.00091738	0.00020033	5.1798e-05	1309.4	1.8277e-06	4.5388e-06	1322.1	365.66	6.1546e-06	3.7844e-06	417.91	139.52	121.12	41.317	2.6322e-06	51.2	0.00045521	0.00043951	0.00011517	1316.6	4.9745e-06	4.7394e-06	1328	367.47	4.9767e-06	4.7359e-06	417.84	139.44	121.7	41.689	4.3859e-06	51.625	70.253	408.377	102.577	64.957	186.860	73.534	64.568	69.416	185.148	128.863	69.097	73.314	73.969	78.345	305.753	77.620	-8191	255	
6663.505	1	1	0	0	0.11726	0.15024	0.050788	0.20135	0.16951	0.22338	0.24647	0.30406	0.20756	0.0084952	0.18769	0.37764	0.35888	0.15557	0.27971	0.098298	-1.4583	-2.1396	-1.3646	-2.3812	-1.9604	-1.8771	-2.3958	-2.1604	-1.8354	-2.1312	-1.8979	-2.1813	-2.15	-1.8479	-2.2604	-1.9813	145.058	80.769	116.050	376.346	94.302	222.606	343.563	336.935	339.290	111.329	343.795	364.335	400.849	318.203	271.733	90.685	0.0011608	0.00038255	8.8505e-05	1304.7	3.7588e-06	4.3042e-06	1320.9	365.9	9.4773e-06	1.9381e-06	417.47	139.56	120.74	41.158	5.9395e-06	51.315	0.0004553	0.00041844	0.00011092	1317.7	4.9866e-06	4.5738e-06	1326.2	368.09	4.8875e-06	4.5301e-06	417.08	139.94	121.52	41.569	4.3035e-06	51.859	77.936	183.725	154.301	64.830	324.651	352.953	64.447	69.477	172.721	216.313	68.755	73.131	73.827	78.407	238.928	77.342	-8191	255	
6663.624	1	1	0	0	0.084509	0.20176	0.35182	0.21835	0.15178	0.11152	0.23536	0.077178	0.27726	0.27744	0.46225	0.040276	0.299	0.17817	0.30967	0.097867	-1.5646	-2.0854	-1.6583	-2.1792	-2.0375	-1.6271	-2.4396	-1.8521	-2.0083	-2.2938	-1.75	-2.0833	-2.1396	-1.8292	-2.1604	-1.9375	156.326	308.146	309.686	358.968	366.748	310.930	325.115	408.337	192.883	268.283	377.096	96.258	370.117	78.973	216.855	244.306	0.00098961	9.5886e-05	2.6145e-05	1310.7	2.3873e-06	5.2443e-06	1321.2	364.65	1.5129e-06	2.873e-06	418.15	139.62	121.24	41.256	7.8496e-06	51.351	0.00044727	0.00041087	0.0001092	1321.1	4.788e-06	4.446e-06	1325	368.45	4.7484e-06	4.4104e-06	416.79	140.37	121.23	41.56	4.3646e-06	51.989	69.272	245.198	400.287	64.709	209.485	130.324	64.548	69.449	240.929	309.349	68.536	73.343	73.874	78.288	280.964	77.557	-8191	255	
6663.720	1	1	0	0	0.092163	0.033428	0.24579	0.13657	0.21422	0.14132	0.22603	0.20209	0.38847	0.032941	0.3217	0.17968	0.31624	0.17599	0.1554	0.14458	-1.0979	-2.3292	-1.8521	-2.2167	-2.325	-1.5271	-2.5521	-2.4229	-1.7313	-2.2979	-1.7083	-2.1917	-2.2458	-1.65	-2.0771	-2.1188	76.460	296.452	271.295	351.687	370.123	270.323	394.303	395.594	233.212	115.331	102.078	390.276	411.287	351.072	281.553	305.683	0.0011205	0.00070768	0.00024816	1304.6	3.8626e-06	1.4171e-06	1324.8	364.38	6.6419e-06	4.001e-06	418.33	139.68	120.12	41.089	1.5715e-05	51.476	0.00042882	0.00039613	0.00011295	1320.8	4.6416e-06	4.3151e-06	1328.8	368.77	4.579e-06	4.2777e-06	418.07	140.39	120.61	41.448	4.581e-06	52.005	71.192	210.721	148.137	64.633	63.602	359.428	64.615	69.355	207.249	251.135	68.965	73.415	73.763	78.160	263.634	77.562	-8191	255	
6663.816	1	1	0	0	0.25407	0.19777	0.10071	0.27552	0.10017	0.046394	0.19862	0.10989	0.097872	0.231	0.23387	0.22027	0.16146	0.18734	0.11728	0.034304	-1.1688	-2.3333	-1.7563	-2.2042	-2.0062	-1.7313	-2.4292	-2.1146	-1.7917	-2.4125	-2.0125	-1.9979	-2.3354	-1.8917	-1.9625	-2.2458	148.522	122.579	179.430	351.198	348.561	387.674	378.552	72.503	234.353	115.771	370.212	374.093	151.573	246.068	230.597	160.904	0.0010359	0.00036995	8.4978e-05	1309.3	4.5409e-07	4.3684e-06	1320.6	364.54	2.0264e-06	9.1599e-07	415.22	140.09	120.73	41.282	1.2965e-05	51.465	0.00041766	0.00038707	0.00011855	1322.7	4.4665e-06	4.2307e-06	1329.3	368.65	4.4651e-06	4.2232e-06	419.89	140.23	120.85	41.475	4.8286e-06	51.879	69.811	373.894	120.215	64.901	203.904	149.995	64.706	69.574	135.100	58.748	68.933	73.286	73.600	78.432	211.369	77.467	-8191	255	
6663.912	1	1	0	0	0.21672	0.26273	0.26715	0.34747	0.24325	0.082186	0.14769	0.15698	0.15061	0.090586	0.07534	0.289	0.15843	0.27416	0.13615	0.13664	-1.1792	-2.1458	-1.8354	-1.9438	-2.1813	-1.6521	-2.3542	-2.2667	-1.425	-2.3021	-2.0625	-1.9312	-2.2729	-1.7333	-1.9771	-2.3646	255.922	292.698	291.751	339.102	404.111	334.411	321.457	246.126	198.819	216.005	219.423	65.011	323.918	329.255	132.759	384.357	0.00078595	0.00040147	5.8686e-05	1310.8	5.8018e-06	1.8029e-06	1322.9	364.93	6.0868e-06	3.2318e-06	418.87	139.52	120.92	41.207	9.1492e-06	51.026	0.00041086	0.00038718	0.0001248	1322.7	4.4018e-06	4.2974e-06	1332.3	368.06	4.3848e-06	4.2951e-06	421.47	139.8	120.62	41.519	4.9682e-06	51.608	82.259	85.798	100.889	65.008	179.078	199.678	64.571	69.396	135.001	187.816	68.895	73.019	74.028	78.367	171.291	77.531	-8191	255	
6664.008	1	1	0	0	0.084146	0.23587	0.12901	0.32469	0.19812	0.21428	0.23176	0.17728	0.026496	0.094531	0.31763	0.14898	0.28425	0.27733	0.021836	0.12911	-1.2229	-2.1167	-1.6271	-1.9396	-2.2875	-1.7104	-2.0458	-2.2979	-1.7229	-1.9729	-2.1021	-1.8667	-2.3333	-1.6688	-1.9292	-2.3271	270.606	377.911	135.402	396.781	341.025	165.498	322.828	353.184	61.073	324.319	329.139	56.893	372.323	82.910	61.519	351.864	0.00088504	0.00088182	0.00016169	1309.6	4.8826e-06	5.3156e-06	1320	363.22	7.2705e-06	2.7039e-06	417.72	139.34	120.29	41.179	5.344e-06	51.049	0.00040253	0.00040487	0.00012763	1318.7	4.2718e-06	4.5381e-06	1333.8	366.59	4.2734e-06	4.5415e-06	420.65	139.74	120.17	41.707	4.8791e-06	51.597	89.137	178.974	110.192	64.561	189.862	173.657	64.422	69.359	144.905	230.535	68.731	73.354	73.787	78.259	180.887	77.411	-8191	255	
6664.105	1	1	0	0	0.14281	0.32774	0.25374	0.27659	0.27226	0.29537	0.092917	0.20992	0.13827	0.15842	0.31843	0.30636	0.28879	0.24565	0.2137	0.15929	-1.1187	-1.9583	-1.9	-1.8438	-2.2062	-1.8125	-2.0792	-2.375	-1.7396	-2.0417	-2.2125	-1.7687	-2.1937	-1.9896	-1.7104	-2.3229	268.303	211.423	287.083	320.564	334.659	357.468	69.335	374.324	324.850	61.235	298.596	406.847	286.447	76.302	302.225	337.729	0.0010452	0.00017745	3.8559e-05	1308.4	4.0424e-06	1.0319e-05	1318.4	365.3	1.1139e-05	2.5541e-06	417.69	139.23	120.03	41.233	5.1314e-06	51.16	0.00039297	0.00042648	0.00012392	1318.1	4.2317e-06	4.7437e-06	1329.9	366.87	4.3232e-06	4.8022e-06	419.44	139.42	120.04	41.783	4.7461e-06	51.501	85.364	171.923	328.042	64.740	177.906	196.413	64.623	69.345	158.821	258.636	68.876	73.624	73.919	78.277	239.378	77.449	-8191	255	
6664.225	1	1	0	0	0.10301	0.23079	0.17238	0.38278	0.13985	0.24217	0.12434	0.36295	0.043307	0.1315	0.13405	0.12768	0.1412	0.14156	0.072302	0.24173	-1.2521	-2.0771	-1.9	-1.9729	-2.0917	-1.9896	-1.8813	-2.2625	-1.6	-1.8958	-2.1813	-1.8646	-2.4208	-2.025	-1.8042	-2.4958	142.624	330.007	216.864	58.646	262.088	56.477	55.405	391.950	60.138	103.723	274.900	77.065	326.766	160.586	214.230	91.512	0.00081311	0.00037715	0.00010988	1309.3	5.3513e-06	4.056e-06	1324.5	364.85	7.5233e-06	1.0231e-06	417.31	139.55	120.36	41.059	5.6867e-06	51.499	0.00040112	0.0004461	0.00011964	1316.5	4.3373e-06	4.9139e-06	1330.6	366.22	4.4247e-06	4.9043e-06	417.9	139.25	120.54	41.798	4.5793e-06	51.473	84.365	93.304	118.182	64.660	200.188	107.041	64.578	69.514	213.082	165.505	68.825	73.411	73.931	78.652	220.114	77.368	-8191	255	
6664.320	1	1	0	0	0.16045	0.32052	0.035084	0.18337	0.1956	0.12762	0.19147	0.065956	0.19081	0.11949	0.17612	0.30829	0.22498	0.024959	0.21382	0.12522	-1.1646	-1.875	-2.075	-1.8396	-2.0667	-2.0208	-2.0125	-2.5354	-1.75	-2.0125	-2.3646	-1.7	-2.3792	-2.0062	-1.7521	-2.4729	52.234	215.754	115.950	386.109	345.628	199.248	283.115	289.874	92.931	81.503	82.171	391.578	330.375	341.105	217.284	371.723	0.00099995	0.00045038	7.5261e-05	1306.3	8.2543e-06	3.7241e-06	1318.5	365.1	2.79e-06	1.0321e-06	416.29	139.52	120.2	41.231	3.1856e-06	50.856	0.00041982	0.00044401	0.00011649	1315.9	4.5886e-06	4.858e-06	1326.5	365.76	4.6837e-06	4.847e-06	417.7	139	120.89	41.745	4.5409e-06	51.311	73.176	208.036	91.939	64.651	89.111	131.735	64.436	69.382	240.586	63.192	68.849	73.344	73.755	78.480	88.322	77.423	-8191	255	
6664.416	1	1	0	0	0.23205	0.13711	0.25034	0.18412	0.14728	0.12015	0.079398	0.3492	0.11657	0.20702	0.10771	0.19297	0.13034	0.19433	0.079198	0.31268	-1.3979	-1.8	-2.2896	-1.7417	-2.0396	-2.2188	-1.7292	-2.4771	-1.9146	-1.9292	-2.4521	-1.7146	-2.25	-2.2438	-1.5938	-2.4083	409.660	405.651	191.919	345.914	255.677	305.338	206.430	305.769	197.011	369.847	236.358	372.711	368.395	340.570	245.009	399.963	0.00089237	0.00024391	0.00011335	1306.1	4.3783e-06	3.9317e-06	1315.2	363.96	5.2349e-06	2.5986e-06	416.82	140.31	120.79	41.088	4.894e-06	51.161	0.00044294	0.00043657	0.00011344	1314.3	4.8335e-06	4.7227e-06	1324.5	365.94	4.8714e-06	4.6466e-06	417.09	139.33	121.35	41.583	4.3567e-06	51.454	86.457	227.988	160.925	64.733	168.689	184.492	64.463	69.504	157.677	148.309	68.599	73.115	73.783	78.322	115.751	77.710	-8191	255	
6664.489	1	1	0	0	0.1822	0.13632	0.13513	0.2606	0.095876	0.23566	0.37736	0.30823	0.41346	0.13042	0.09732	0.11376	0.20815	0.19514	0.15213	0.32643	-1.3979	-1.8917	-2.2562	-1.8312	-1.9937	-2.3479	-1.8312	-2.2729	-1.9458	-1.7563	-2.5125	-1.6375	-2.1208	-2.0667	-1.6083	-2.1896	342.979	390.480	248.704	382.521	59.788	348.394	317.092	65.616	392.039	358.796	376.883	101.014	52.039	73.188	293.195	336.713	0.0011973	0.00022563	0.00011425	1309.1	7.1858e-06	2.6857e-06	1322.4	364.19	6.3149e-06	3.5912e-06	416.95	139.37	120.68	41.149	5.2375e-06	51.318	0.00044954	0.00041553	0.00011017	1315.2	4.8498e-06	4.4993e-06	1323.8	366.3	4.8457e-06	4.5181e-06	416.03	139.62	121.45	41.502	4.2453e-06	51.666	77.164	92.205	105.792	64.759	202.946	311.676	64.744	69.463	156.471	283.946	68.857	73.557	73.736	78.311	242.866	77.416	-8191	255	
6664.608	1	1	0	0	0.09352	0.16399	0.21762	0.39513	0.062119	0.12957	0.14673	0.31895	0.055187	0.16116	0.068848	0.13068	0.33032	0.053133	0.12199	0.057136	-1.7417	-1.5812	-2.275	-1.9292	-2.0042	-2.1	-1.9958	-2.0292	-2.2125	-1.6333	-2.35	-1.9104	-1.9667	-2.35	-1.6	-2.125	349.046	252.079	267.862	374.055	117.923	267.175	375.268	392.598	192.553	371.361	277.618	75.215	124.625	400.858	153.161	174.862	0.00069188	0.00017435	0.00017901	1311.5	5.1053e-06	2.8635e-06	1317.6	363.14	3.264e-06	8.9345e-07	416.25	139.6	121.06	41.201	4.6491e-06	51.334	0.00044582	0.00040761	0.00010697	1321.9	4.7791e-06	4.4046e-06	1322.1	367.5	4.7039e-06	4.3977e-06	415.84	140.11	121.16	41.487	4.2718e-06	51.867	79.665	124.033	139.895	64.805	54.108	145.147	64.631	69.583	380.730	374.248	68.777	73.137	73.741	78.448	216.896	77.483	-8191	255	
6664.704	1	1	0	0	0.22595	0.13511	0.18635	0.13298	0.080042	0.16447	0.3734	0.27705	0.08996	0.015592	0.36623	0.11256	0.22441	0.2043	0.14593	0.21083	-1.7979	-1.5438	-2.175	-2.0604	-2.0104	-2.5125	-1.8875	-2.2979	-2.0667	-1.7646	-2.2146	-2.0958	-1.6917	-2.3104	-1.7188	-2.1312	74.310	260.739	212.959	86.910	102.201	404.579	339.576	368.740	248.712	121.646	350.571	319.026	352.294	57.109	74.137	93.223	0.00084741	0.000611	0.00014953	1305.9	1.7403e-06	1.5389e-06	1324.3	365.83	2.2917e-06	2.4218e-06	418.3	139.85	120.7	41.147	8.5027e-06	51.484	0.00042942	0.00039705	0.00010924	1319.8	4.6196e-06	4.292e-06	1323.9	368.6	4.5663e-06	4.3168e-06	416.82	140.37	120.65	41.393	4.4858e-06	51.96	75.256	136.871	88.014	64.609	185.683	286.333	64.582	69.303	147.540	244.041	68.854	73.208	73.844	78.372	260.192	77.573	-8191	255	
6664.800	1	1	0	0	0.16465	0.27359	0.20819	0.34527	0.22772	0.056176	0.1656	0.10042	0.10343	0.2949	0.32007	0.32252	0.22076	0.089877	0.039972	0.050793	-1.7375	-1.5312	-2.2333	-2.0833	-1.6667	-2.3583	-1.8333	-2.0292	-1.9312	-1.8	-2.2687	-1.8875	-1.7313	-2.4188	-1.8146	-2.3438	57.246	102.244	108.231	384.949	250.488	252.780	306.769	364.756	367.002	217.053	222.992	64.373	69.651	409.667	196.717	347.548	0.00084195	0.00018321	8.9774e-05	1309.5	2.9734e-06	2.3033e-06	1321.6	364.95	2.5407e-06	3.8086e-06	415.23	139.4	120.62	41.122	7.5406e-06	51.108	0.00041707	0.00038385	0.00011404	1319.6	4.4496e-06	4.1652e-06	1326	367.94	4.4271e-06	4.214e-06	417.58	139.9	120.44	41.255	4.7098e-06	51.731	88.832	306.372	193.040	64.898	152.562	146.782	64.544	69.507	292.020	254.755	68.608	73.183	73.725	78.332	284.492	77.497	-8191	255	
6664.897	1	1	0	0	0.16547	0.10066	0.2805	0.15512	0.246	0.21105	0.28901	0.26433	0.34739	0.24468	0.28935	0.27087	0.25779	0.33874	0.24027	0.18339	-1.6854	-1.6542	-2.0542	-2.3792	-1.4396	-2.2854	-1.8687	-2.05	-2.1583	-1.6938	-2.0563	-2.0521	-1.6646	-2.2938	-1.9458	-1.7667	196.559	365.979	54.043	334.952	240.759	127.090	341.443	357.826	229.090	246.372	309.456	342.603	395.052	380.090	149.251	274.806	0.0010794	0.00063818	0.00028378	1307.2	5.0103e-06	3.2593e-06	1317.7	365.4	8.6208e-06	7.6655e-07	417.51	138.43	120.46	41.172	8.7627e-06	51.095	0.00040631	0.00038322	0.0001198	1316.4	4.3736e-06	4.1749e-06	1328.2	367.91	4.3377e-06	4.2386e-06	419.79	139.53	120.13	41.371	4.8668e-06	51.577	80.437	179.810	154.382	64.691	199.527	126.611	64.639	69.183	180.576	91.815	68.876	73.463	73.891	78.325	162.152	77.620	-8191	255	
6665.017	1	1	0	0	0.17284	0.19503	0.10904	0.2157	0.22241	0.3225	0.099734	0.2073	0.33601	0.033966	0.34349	0.085157	0.08741	0.3907	0.071416	0.13977	-1.8104	-1.9729	-1.9104	-2.4437	-1.6208	-2.2375	-1.9917	-1.8833	-2.3458	-1.7229	-2.1312	-2.2562	-2.0375	-2.225	-2.0583	-1.8396	318.696	363.285	282.386	392.510	293.324	242.191	368.237	360.738	138.730	336.150	316.056	215.982	381.915	335.828	163.242	380.996	0.00093001	0.000584	7.644e-05	1305.1	4.3436e-06	1.9867e-06	1313.9	364.49	8.3286e-06	4.8432e-06	414.79	139.5	120.49	41.101	3.6834e-06	51.279	0.0003953	0.00039391	0.0001242	1314.5	4.2979e-06	4.32e-06	1326.6	366.54	4.2238e-06	4.4624e-06	418.67	139.37	119.96	41.441	4.848e-06	51.505	79.603	158.777	140.028	64.855	126.167	98.545	64.569	69.723	199.124	226.130	68.936	73.307	73.712	78.439	319.957	77.390	-8191	255	
6665.089	1	1	0	0	0.27635	0.19309	0.18099	0.22299	0.091187	0.42092	0.23473	0.18288	0.24553	0.057864	0.20462	0.23115	0.15206	0.21114	0.25891	0.23554	-1.7875	-1.6542	-2.1542	-2.5229	-1.6063	-2.1479	-2.3208	-1.7854	-2.3125	-1.8083	-1.8354	-2.3375	-1.5542	-2.2625	-2.0333	-1.6938	123.869	391.185	264.723	397.265	127.656	141.698	331.688	252.125	66.433	366.615	366.280	343.827	380.784	346.348	140.659	340.768	0.0010918	0.00032492	8.1186e-05	1304.8	2.1652e-06	8.4767e-06	1319.8	362.94	1.196e-05	5.3002e-06	415.61	139.62	120.27	40.978	7.3514e-06	50.902	0.00038379	0.00041264	0.00012139	1313.9	4.2088e-06	4.5871e-06	1327.9	365.9	4.1741e-06	4.682e-06	418.97	139.17	119.86	41.559	4.6497e-06	51.279	75.560	90.238	255.477	64.718	123.959	164.963	64.425	69.361	132.432	190.819	68.822	73.177	73.927	78.388	197.644	77.769	-8191	255	
6665.185	1	1	0	0	0.16539	0.32598	0.29477	0.41379	0.087941	0.2335	0.33277	0.16031	0.12871	0.22128	0.097063	0.30228	0.3146	0.031994	0.14828	0.049693	-1.8667	-1.5542	-1.8833	-2.2396	-1.8583	-2.2521	-2.2396	-1.6542	-2.1771	-1.7896	-1.8479	-2.4354	-1.8021	-1.9875	-2.0333	-1.8042	59.052	256.765	291.500	346.853	216.087	75.670	349.614	308.144	405.115	129.552	52.253	298.167	343.484	307.789	257.139	365.205	0.0011797	0.00056354	0.00015657	1305.1	4.6198e-06	5.2813e-06	1317.7	364.39	5.7731e-06	2.8741e-06	416.18	139.25	120.8	41.059	3.5431e-06	51.159	0.00038175	0.00043316	0.00011712	1312.6	4.1881e-06	4.7082e-06	1323.6	366.02	4.1933e-06	4.7299e-06	417.03	138.83	120.1	41.617	4.4735e-06	51.209	81.643	168.303	183.788	64.820	145.874	122.139	64.570	69.252	211.350	287.971	68.828	73.407	73.769	78.439	157.166	77.339	-8191	255	
6665.306	1	1	0	0	0.14038	0.35996	0.31648	0.25654	0.29245	0.11939	0.36909	0.41163	0.078432	0.14219	0.17591	0.21038	0.22311	0.52621	0.049159	0.084705	-1.9167	-1.7062	-1.9042	-2.4417	-1.7229	-1.9375	-2.4313	-1.7042	-2.1292	-2.0667	-1.7	-2.3104	-1.8937	-2.0583	-2.2833	-1.8375	271.011	379.754	155.577	367.312	149.259	132.278	55.400	408.042	276.219	197.208	162.125	385.622	403.952	307.793	85.142	286.318	0.0012354	0.00026582	0.00014841	1300	4.4935e-06	6.9642e-06	1316.6	363.67	1.6368e-06	3.7336e-06	417.77	139.15	120.25	41.096	2.8671e-06	51.296	0.000396	0.00043414	0.00011293	1307	4.3826e-06	4.6996e-06	1320.2	364.96	4.3788e-06	4.6791e-06	417.13	138.31	120.3	41.671	4.3497e-06	51.18	74.300	126.393	117.179	64.618	189.133	244.893	64.383	69.455	301.666	214.948	68.890	73.291	73.649	78.718	272.921	77.429	-8191	255	
6665.402	1	1	0	0	0.15823	0.22578	0.23972	0.072477	0.060391	0.14289	0.36624	0.28936	0.096881	0.24283	0.43795	0.32152	0.22664	0.44425	0.045731	0.34324	-1.8396	-2.0792	-1.5438	-2.7375	-1.9167	-1.8521	-2.2396	-1.6375	-1.9271	-2.0812	-1.8021	-2.35	-1.9854	-1.6979	-2.225	-1.8813	88.958	128.785	378.932	298.001	73.287	360.890	328.698	359.085	214.011	104.191	351.220	336.518	405.000	393.454	87.912	397.823	0.00091354	0.00052625	0.00012444	1305.6	5.6735e-06	8.6341e-06	1316.8	364.4	7.8826e-06	2.2883e-06	416.47	139.97	120.89	41.148	6.2339e-06	51.154	0.00041617	0.00042552	0.0001103	1309.7	4.6173e-06	4.5833e-06	1320	365.34	4.6362e-06	4.5455e-06	415.93	138.88	120.98	41.564	4.2245e-06	51.166	77.447	130.539	110.547	64.831	153.303	198.922	64.502	69.484	186.128	323.028	68.958	73.252	73.808	78.403	220.746	77.567	-8191	255	
6665.498	1	1	0	0	0.22351	0.22861	0.15139	0.064913	0.14622	0.19496	0.22115	0.30014	0.16776	0.087667	0.21456	0.21728	0.037383	0.1444	0.063008	0.22741	-1.5729	-1.9958	-1.5688	-2.45	-1.9292	-1.95	-2.4104	-1.7583	-2.0438	-2.1979	-1.7375	-2.45	-2.1188	-1.8813	-2.3271	-1.7354	237.719	133.847	105.940	178.453	300.055	68.654	400.259	372.212	275.890	138.137	379.631	394.812	391.886	408.148	350.119	85.929	0.0010973	0.00081646	2.8895e-05	1308.1	6.9816e-06	3.8381e-06	1315.1	364.18	7.004e-07	1.4477e-06	414.5	140.34	120.84	41.234	3.2268e-06	51.095	0.00043269	0.00040377	0.00010589	1311.4	4.6688e-06	4.3406e-06	1318.1	365.66	4.686e-06	4.3176e-06	414.71	139.14	121.11	41.435	4.1142e-06	51.46	68.714	362.026	184.300	64.668	195.987	125.142	64.474	69.535	189.671	271.468	68.650	73.249	73.987	78.423	183.793	77.767	-8191	255	
6665.617	1	1	0	0	0.26495	0.047955	0.079168	0.10876	0.12098	0.28707	0.36884	0.33358	0.29093	0.16903	0.046744	0.20757	0.42786	0.16678	0.16399	0.084241	-1.8417	-2.0146	-1.7625	-2.3479	-1.9167	-1.7333	-2.4167	-1.9167	-2.0708	-2.2229	-1.7938	-2.3187	-2.1354	-1.9062	-2.3042	-1.9292	310.224	81.777	300.382	99.585	196.181	343.483	364.086	335.501	206.118	166.851	368.153	401.350	56.033	355.328	400.700	356.110	0.0011027	0.00044559	6.954e-05	1301	6.1723e-06	5.6533e-06	1313.5	363.61	2.7303e-06	9.4482e-07	416.18	139.76	120.4	41.265	7.8184e-06	51.447	0.00043252	0.00039514	0.00010514	1311.3	4.6555e-06	4.3022e-06	1316.6	366.28	4.6128e-06	4.2931e-06	414.75	139.61	120.79	41.364	4.1153e-06	51.757	86.519	85.942	139.618	64.961	227.870	126.876	64.453	69.414	94.137	234.716	68.856	73.398	73.803	78.409	211.754	77.508	-8191	255	
6665.713	1	1	0	0	0.088489	0.29352	0.12533	0.1883	0.15143	0.093363	0.31507	0.21145	0.094612	0.066696	0.20736	0.080816	0.27639	0.16045	0.14038	0.16498	-1.5688	-1.8625	-1.7125	-2.3667	-2.3187	-1.6812	-2.3354	-2.1667	-1.5604	-2.3875	-1.9292	-2.1958	-2.2792	-1.7125	-2.3063	-1.9813	327.751	407.279	195.743	346.876	149.073	159.934	324.636	392.980	296.494	229.881	404.999	319.813	359.746	347.751	137.527	367.133	0.00089508	0.00029292	0.00012004	1302.1	3.6287e-06	4.7597e-06	1316.7	363.76	5.5594e-06	4.1144e-06	418.63	139.2	120.16	41.254	8.0941e-06	51.288	0.00042047	0.00038745	0.00010539	1315.7	4.4977e-06	4.2077e-06	1318.6	367.19	4.4398e-06	4.1598e-06	416.15	139.75	120.33	41.349	4.2477e-06	51.824	83.515	185.929	143.035	64.745	71.382	136.642	64.510	69.563	215.895	151.080	68.710	73.328	73.655	78.230	316.080	77.623	-8191	255	
6665.785	1	1	0	0	0.2899	0.24693	0.1508	0.1904	0.24544	0.14607	0.17323	0.27009	0.098598	0.27226	0.26587	0.15232	0.14485	0.38281	0.21715	0.028375	-1.3292	-2.4146	-1.75	-2.3271	-2.2188	-1.8354	-2.4208	-2.2229	-1.8542	-2.3479	-1.8563	-2.1417	-2.25	-1.7125	-2.3292	-2.0292	73.759	223.301	288.407	393.781	175.381	161.124	343.699	401.143	71.369	268.007	377.155	217.351	114.543	79.564	72.340	115.869	0.00090741	0.00050995	0.00020702	1305.6	5.8129e-06	5.9029e-06	1318.7	364.22	5.1631e-06	3.0907e-07	417.87	139	120.72	40.968	6.9621e-06	51.288	0.00040966	0.00037938	0.00011114	1317.5	4.3343e-06	4.1371e-06	1322.3	367.84	4.3651e-06	4.1093e-06	417.4	139.66	120.28	41.185	4.4843e-06	51.724	77.207	112.011	151.917	64.442	147.405	184.695	64.444	69.238	87.049	75.650	68.738	73.168	73.694	78.281	252.858	77.460	-8191	255	
6665.905	1	1	0	0	0.35709	0.15939	0.17366	0.36578	0.27359	0.17893	0.36877	0.23625	0.31276	0.19628	0.2962	0.18386	0.066779	0.18963	0.256	0.2124	-1.4312	-2.4354	-1.8333	-2.1542	-2.2125	-1.7521	-2.2542	-2.3208	-1.6271	-2.1813	-2.0104	-1.9229	-2.3125	-1.7354	-1.8917	-2.25	362.029	176.766	225.548	363.694	294.358	80.404	352.097	64.347	174.609	271.877	337.701	123.652	354.301	410.009	379.600	386.194	0.0011354	0.00070088	0.00019056	1303.1	1.2362e-06	3.1544e-06	1316.5	364.64	4.0964e-06	5.6455e-06	417.62	139.47	121.08	41.176	1.0489e-05	51.039	0.00039982	0.00036881	0.0001165	1315.1	4.2385e-06	4.0368e-06	1324.4	366.93	4.214e-06	4.0412e-06	418.81	139.74	120.28	41.255	4.713e-06	51.561	86.627	129.972	145.482	64.756	214.942	156.999	64.536	69.513	144.671	179.330	68.761	72.921	73.692	78.370	238.563	77.723	-8191	255	
6666.001	1	1	0	0	0.055011	0.34109	0.129	0.027615	0.075566	0.16443	0.14646	0.11737	0.25878	0.29348	0.21774	0.23358	0.24038	0.1697	0.38279	0.08705	-1.1667	-2.2729	-1.7417	-2.2333	-2.0396	-1.825	-2.2542	-2.4375	-1.6333	-2.1375	-2.0396	-1.8146	-2.125	-1.8937	-1.9604	-2.1292	378.935	115.420	352.886	254.790	122.846	299.522	351.080	266.300	375.792	220.078	387.650	318.601	103.046	385.829	345.607	380.943	0.00086832	0.00041311	4.4685e-05	1306.2	4.7624e-06	4.0904e-06	1317.8	364.9	1.2673e-06	4.3188e-06	417.3	139.96	120.57	41.205	4.5225e-06	51.346	0.00039334	0.00037621	0.00011963	1314.1	4.179e-06	4.1992e-06	1327.1	366.24	4.1594e-06	4.1723e-06	418.58	139.29	119.77	41.409	4.7189e-06	51.43	77.204	206.170	177.418	64.718	168.376	185.444	64.474	69.374	89.339	230.700	68.764	73.502	73.804	78.512	70.207	77.545	-8191	255	
6666.098	1	1	0	0	0.21217	0.26929	0.13991	0.37863	0.14309	0.035853	0.25817	0.093836	0.16017	0.070172	0.162	0.18427	0.048956	0.082237	0.0935	0.091011	-1.1938	-1.975	-1.8771	-2.0417	-2.4792	-1.6812	-2.1125	-2.2771	-1.5938	-2.2708	-2.0938	-1.7812	-2.3875	-1.7792	-1.7042	-2.1667	154.180	97.893	395.722	56.314	179.134	306.369	85.208	366.087	397.473	216.418	71.921	323.828	222.730	77.579	214.824	128.440	0.00085705	0.00051355	4.5698e-05	1299.9	2.3556e-06	6.2152e-06	1311.6	364.44	3.231e-06	2.687e-06	416.3	139.39	120.34	41.062	2.9633e-06	51.152	0.00037872	0.00038995	0.00011996	1309	4.0451e-06	4.4024e-06	1322.5	365.43	4.0469e-06	4.4575e-06	418.27	138.98	119.7	41.509	4.6311e-06	51.306	80.134	170.136	184.313	64.620	151.759	136.020	64.475	69.566	405.439	214.297	68.872	73.293	73.837	78.503	402.311	77.483	-8191	255	
6666.194	1	1	0	0	0.15684	0.1157	0.090943	0.32688	0.15134	0.1213	0.23498	0.39051	0.098364	0.070387	0.036715	0.26062	0.10174	0.21773	0.33188	0.14244	-1.2229	-2.0083	-1.9729	-1.7542	-2.3229	-1.9396	-2.0604	-2.5708	-1.4771	-2.0042	-2.3438	-1.8687	-2.5417	-1.8896	-1.8958	-2.5	324.277	166.400	58.526	374.798	174.526	355.817	354.323	325.029	258.806	295.652	78.332	364.542	381.170	119.431	338.322	396.546	0.00097947	0.00039542	7.0558e-05	1299.9	7.7513e-07	4.1298e-06	1314.1	362.85	1.2212e-05	1.3473e-06	415.34	139.7	120.54	41.034	7.9735e-06	51.157	0.00037645	0.00041743	0.00011722	1308.9	4.0815e-06	4.6348e-06	1322.2	364.91	4.1002e-06	4.6569e-06	417.18	138.82	119.92	41.581	4.4983e-06	51.289	94.911	134.375	215.923	64.748	165.739	177.294	64.513	69.462	162.637	63.096	68.664	73.177	73.816	78.524	293.715	77.712	-8191	255	
6666.314	1	1	0	0	0.22993	0.10891	0.2651	0.28045	0.18407	0.20071	0.17674	0.31922	0.070194	0.31536	0.077164	0.081908	0.52395	0.27389	0.099656	0.2468	-1.2167	-2.1146	-1.9438	-1.8354	-2.025	-1.9	-2	-2.3812	-1.8271	-1.9583	-2.4042	-1.5104	-2.1292	-2.1542	-1.5875	-2.2979	246.701	339.976	185.259	364.576	295.441	296.195	111.755	53.649	392.179	211.535	100.949	212.345	108.910	358.254	103.315	345.304	0.0013145	0.000495	8.5456e-05	1301.8	7.4037e-06	3.1561e-06	1315.2	363.16	1.6112e-05	5.8279e-06	416.54	139.26	120.17	40.991	1.3324e-06	51.05	0.00039096	0.00043127	0.00011323	1307.8	4.2507e-06	4.7026e-06	1320.5	364.66	4.3755e-06	4.7294e-06	416.09	138.35	120.13	41.574	4.3683e-06	51.175	83.598	119.261	190.158	64.779	139.136	196.127	64.598	69.415	177.421	238.554	68.796	73.178	73.654	78.465	195.388	77.398	-8191	255	
6666.386	1	1	0	0	0.16921	0.11158	0.12333	0.14327	0.23366	0.30104	0.2141	0.052456	0.11577	0.090414	0.16936	0.018801	0.24021	0.20502	0.11739	0.20966	-1.4167	-1.85	-2.2646	-1.6417	-2.1375	-2.0958	-1.9729	-2.5729	-1.7917	-1.8312	-2.2792	-1.7229	-2.2833	-2.3458	-1.5833	-2.3	306.084	174.243	306.495	275.922	348.949	134.584	312.138	58.797	370.628	236.901	65.911	99.577	280.806	108.091	371.996	287.720	0.0012897	0.00068057	6.6561e-05	1305.6	5.8361e-06	4.0394e-06	1316.1	362.86	9.5508e-06	4.1153e-06	416.41	139.25	120.62	40.984	4.9701e-06	51.102	0.00041448	0.00042675	0.00010945	1308.5	4.4661e-06	4.5861e-06	1319.7	364.7	4.5722e-06	4.5472e-06	415.77	138.28	120.47	41.466	4.2451e-06	51.061	74.199	170.900	300.373	64.847	192.398	387.699	64.470	69.584	172.041	336.192	68.925	73.190	73.752	78.565	284.590	77.652	-8191	255	
6666.482	1	1	0	0	0.34662	0.27849	0.065673	0.36468	0.14064	0.1824	0.33334	0.40552	0.19741	0.27168	0.13277	0.42539	0.24807	0.12856	0.25042	0.15862	-1.6729	-1.8333	-2.2896	-2.0917	-1.925	-1.9896	-1.7854	-2.3021	-1.8875	-1.7417	-2.375	-1.7917	-2.2917	-2.2687	-1.5542	-2.4167	67.994	383.078	189.865	354.534	340.932	151.853	369.835	383.095	357.915	127.907	383.393	397.347	327.423	406.096	337.173	391.623	0.001043	0.00020783	6.7403e-05	1301.1	1.5252e-06	4.5597e-06	1315.9	363.75	1.4039e-05	2.8429e-06	414.52	139.7	120.83	41.047	1.9679e-06	51.594	0.00042655	0.00040447	0.00010609	1306.4	4.5979e-06	4.3915e-06	1317.3	364.55	4.64e-06	4.2891e-06	413.96	138.89	120.69	41.277	4.0786e-06	51.33	81.184	399.159	318.402	64.784	134.325	167.145	64.520	69.566	120.013	306.643	68.759	73.379	73.754	78.292	267.119	77.718	-8191	255	
6666.578	1	1	0	0	0.13607	0.1245	0.13416	0.24374	0.22829	0.25635	0.24076	0.048037	0.26909	0.081967	0.24834	0.2093	0.27474	0.15375	0.24041	0.34721	-1.4875	-1.8229	-2.4042	-1.9312	-2.15	-2.0938	-1.9937	-2.3583	-1.9062	-1.8104	-2.375	-1.9062	-2.0312	-2.1625	-1.7854	-2.1229	86.692	130.283	321.003	395.538	175.613	188.320	310.252	158.664	202.841	317.062	272.857	405.730	403.981	121.741	344.898	341.242	0.0011288	0.00036587	0.00011906	1299.9	4.7788e-06	4.6782e-06	1313.2	363.99	3.6567e-06	3.7983e-06	416.63	140.12	120.59	41.265	1.0619e-06	51.243	0.00042347	0.0003853	0.00010226	1307.6	4.5818e-06	4.2148e-06	1314.7	365.29	4.5207e-06	4.1793e-06	413.75	139.47	120.61	41.302	3.9971e-06	51.475	86.270	57.469	222.768	64.771	176.005	184.829	64.611	69.361	156.427	297.186	68.967	73.254	73.787	78.460	247.635	77.425	-8191	255	
6666.697	1	1	0	0	0.085943	0.23675	0.26383	0.16247	0.025079	0.11492	0.24563	0.31228	0.10345	0.21819	0.22259	0.1478	0.35328	0.1629	0.26697	0.12664	-1.775	-1.6958	-2.2521	-2.0687	-1.8042	-2.2771	-1.8042	-2.375	-1.9917	-1.7333	-2.1771	-1.8896	-2.1	-2.3833	-1.6562	-2.1021	134.046	154.328	267.314	398.993	223.829	371.549	341.085	390.293	402.113	277.533	318.297	379.969	403.104	185.980	316.879	317.341	0.00091749	0.00023264	7.6164e-05	1296.9	9.9334e-07	4.5411e-06	1308.7	364.53	7.9369e-06	8.7979e-07	415.57	139.17	120.4	40.95	1.1653e-05	51.202	0.00041313	0.0003772	0.00010069	1309.7	4.3818e-06	4.0785e-06	1312.9	366.75	4.3389e-06	4.0717e-06	413.9	139.41	120.2	41.158	4.001e-06	51.572	77.158	123.137	175.124	64.687	115.107	120.789	64.511	69.597	166.612	398.138	68.852	73.087	73.838	78.431	258.066	77.416	-8191	255	
6666.793	1	1	0	0	0.18557	0.27025	0.20314	0.15876	0.094537	0.089948	0.28607	0.14751	0.14235	0.19068	0.11621	0.27378	0.19964	0.27511	0.079865	0.06412	-1.7313	-1.3687	-2.1396	-2.1396	-1.8625	-2.2521	-1.8937	-2.1188	-2.1375	-1.6604	-2.3312	-2.0833	-2	-2.3937	-1.8646	-1.9083	124.240	345.628	343.832	89.030	339.449	311.723	406.900	344.737	380.572	168.647	101.883	158.050	386.036	370.200	257.801	52.967	0.0008538	2.0774e-05	0.00012834	1301.3	5.558e-06	2.326e-06	1315.7	365.46	5.784e-06	6.0484e-06	416.37	140.14	120.87	41.125	1.1611e-05	51.369	0.00039397	0.00036355	0.00010233	1311.4	4.1741e-06	3.9347e-06	1315.4	367.04	4.1642e-06	3.9468e-06	414.92	140.06	120.26	41.21	4.2369e-06	51.485	88.577	283.980	97.556	64.855	182.509	59.471	64.455	69.476	155.528	156.815	68.633	73.269	73.744	78.270	230.759	77.305	-8191	255	
6666.889	1	1	0	0	0.12697	0.15635	0.05963	0.14264	0.22379	0.28896	0.26901	0.22248	0.1678	0.13449	0.19817	0.098797	0.14861	0.22822	0.15443	0.20043	-1.8937	-1.6229	-2.1667	-2.1625	-1.6875	-2.2562	-1.9375	-2.0187	-2.0208	-1.6646	-2.3083	-2.1667	-1.8	-2.4604	-1.6854	-1.8458	353.250	131.197	123.117	320.553	310.190	370.820	340.713	345.678	322.378	379.103	386.176	379.063	304.800	56.869	53.754	400.250	0.0012167	0.00020057	0.00019758	1301.1	2.7071e-06	1.3523e-06	1314	363.61	5.7477e-06	4.0743e-06	416.67	139.35	120.51	41.138	9.075e-06	51.194	0.00038521	0.0003575	0.00011003	1311.5	4.151e-06	3.8738e-06	1320	366.17	4.0858e-06	3.944e-06	416.49	139.39	119.89	41.142	4.5153e-06	51.472	87.090	182.245	142.190	64.847	369.485	154.394	64.417	69.550	113.652	242.301	68.591	73.236	73.888	78.271	202.072	77.402	-8191	255	
6666.986	1	1	0	0	0.10238	0.16888	0.14721	0.25184	0.12503	0.2172	0.218	0.32709	0.1979	0.087236	0.20136	0.16979	0.08808	0.11379	0.13645	0.23167	-1.8833	-1.5938	-2.1479	-2.3146	-1.5667	-2.3104	-2.0042	-1.8771	-2.2021	-1.7104	-2.1625	-2.1875	-1.7542	-2.2854	-2.0062	-1.9	124.480	302.202	98.536	348.036	329.255	221.791	339.458	381.678	176.770	277.657	348.824	360.347	344.653	64.223	264.160	303.343	0.00082346	0.00045827	0.00024233	1301.7	1.4429e-06	8.3163e-06	1315	364.24	1.8212e-06	4.1368e-06	416.26	139.28	120.49	41.086	7.3895e-06	51.069	0.00037644	0.00036077	0.00011508	1309.9	4.0438e-06	3.9494e-06	1321.3	365.89	3.9838e-06	4.0301e-06	418.08	138.83	119.73	41.204	4.603e-06	51.229	83.590	175.342	118.565	64.715	80.384	151.964	64.364	69.451	93.182	204.708	68.785	73.161	73.958	78.347	209.831	77.503	-8191	255	
6667.082	1	1	0	0	0.24069	0.074409	0.26681	0.25696	0.098563	0.087911	0.33093	0.40681	0.048355	0.076911	0.27684	0.19581	0.14773	0.070179	0.13426	0.25407	-2.0438	-1.6271	-2.2583	-2.3229	-1.55	-2.2021	-2.2708	-1.9167	-2.1333	-1.6958	-1.9875	-2.4229	-1.6375	-2.1437	-2.0187	-1.625	310.765	91.118	69.086	61.994	375.444	66.468	340.735	274.859	234.526	78.151	385.238	368.689	404.470	128.224	381.267	361.805	0.0012341	0.00033188	6.3047e-05	1295	1.7838e-06	8.6164e-06	1314.8	364.71	8.1458e-06	5.6167e-06	415.95	140.01	120.63	41.037	3.3158e-06	51.122	0.00036664	0.00037668	0.00011599	1306.5	3.9652e-06	4.1643e-06	1320.7	365.36	3.933e-06	4.2864e-06	417.08	138.78	119.6	41.333	4.5045e-06	51.185	74.294	234.338	259.120	64.696	354.804	173.352	64.528	69.367	204.549	230.761	68.782	73.281	73.966	78.311	136.728	77.269	-8191	255	
6667.178	1	1	0	0	0.028886	0.090634	0.20467	0.11654	0.17509	0.15414	0.21814	0.18465	0.19857	0.15174	0.28516	0.16101	0.10706	0.1635	0.22238	0.17506	-1.7729	-1.5083	-1.9167	-2.2438	-1.6562	-2.1937	-2.35	-1.8042	-2.3125	-1.8625	-1.8937	-2.4542	-1.6042	-2.3396	-2.0812	-1.8375	350.813	270.496	270.575	56.488	138.823	58.970	332.060	392.223	322.568	89.876	397.350	156.558	389.140	336.699	322.180	319.560	0.00089906	0.00062294	0.00013782	1304.7	6.524e-06	7.4284e-06	1312.9	363.34	1.5465e-06	2.4424e-06	415.53	139.01	120.7	40.994	2.3961e-06	51.246	0.00036194	0.00040215	0.00011374	1307.7	3.9337e-06	4.3782e-06	1318.4	364.65	3.9321e-06	4.5045e-06	416.51	138.52	119.75	41.462	4.4007e-06	51.134	88.025	148.227	145.746	64.551	149.972	211.208	64.615	69.486	190.994	156.376	68.910	73.176	73.679	78.397	123.147	77.680	-8191	255	
6667.299	1	1	0	0	0.098061	0.23062	0.18104	0.082755	0.037248	0.15161	0.31904	0.071837	0.16583	0.11625	0.099441	0.17844	0.20416	0.15563	0.23715	0.26768	-1.6042	-1.9625	-1.8417	-2.3854	-1.8958	-2.0667	-2.25	-1.9271	-2.1167	-2.0042	-1.8813	-2.4146	-1.7875	-1.9208	-2.0812	-1.7563	270.865	331.022	358.480	385.365	95.851	97.886	324.583	88.455	331.370	198.600	314.219	386.100	64.624	409.707	80.326	279.772	0.0011215	0.00060572	0.00021081	1302.7	8.1926e-06	6.5962e-06	1312.3	362.34	6.2544e-06	1.3167e-06	416.58	138.96	120.19	41.029	1.2875e-06	51.272	0.00037338	0.00041746	0.00011049	1304.6	4.1093e-06	4.536e-06	1317.7	364.2	4.1052e-06	4.5675e-06	415.15	138.11	119.85	41.486	4.2226e-06	51.095	82.331	158.247	85.271	64.692	204.954	407.380	64.437	69.448	130.868	221.312	68.744	73.367	73.785	78.531	314.892	77.378	-8191	255	
6667.395	1	1	0	0	0.24187	0.15977	0.15622	0.24402	0.16115	0.13358	0.19319	0.079885	0.27024	0.13443	0.14551	0.097817	0.41985	0.41136	0.040873	0.3021	-1.6063	-1.7958	-1.8292	-2.3708	-1.8188	-1.9021	-2.3875	-1.825	-2	-2.1271	-1.9521	-2.0333	-1.8958	-1.8729	-2.1625	-1.6417	182.444	120.217	247.137	376.726	162.959	68.290	398.787	73.382	329.068	205.278	307.419	350.298	370.265	400.059	231.187	73.131	0.001194	0.00041927	0.00010483	1300.3	1.2933e-05	1.3972e-06	1310.6	364.36	1.0256e-05	2.5434e-06	416.24	138.93	119.97	40.884	6.751e-06	51.101	0.00039467	0.0004156	0.00010799	1303.3	4.3578e-06	4.4807e-06	1314.6	364.42	4.3265e-06	4.4571e-06	414.7	138.19	120.18	41.379	4.1397e-06	50.998	81.735	131.902	194.421	64.640	197.393	113.928	64.608	69.406	158.931	389.140	68.956	73.063	73.955	78.108	191.305	77.452	-8191	255	
6667.489	1	1	0	0	0.12144	0.18949	0.051739	0.71703	0.071398	0.185	0.40687	0.15584	0.18701	0.12059	0.29468	0.31304	0.35515	0.17946	0.13074	0.17477	-1.6083	-2.1042	-1.5146	-2.4208	-1.8	-1.7417	-2.4333	-1.7375	-2.0333	-2.1063	-1.7167	-2.3	-1.9604	-1.8604	-2.2042	-1.7354	126.893	144.659	346.015	342.977	121.436	145.001	363.648	383.165	268.419	59.048	132.095	53.375	70.877	121.960	291.760	405.502	0.0011269	0.00039206	9.4706e-05	1299.7	5.384e-06	1.3647e-06	1306.9	363.93	7.6069e-06	3.0914e-06	415.94	139.17	120.5	41	1.0274e-05	51.129	0.00040794	0.00039995	0.00010506	1303.8	4.4781e-06	4.3472e-06	1315.3	364.46	4.4822e-06	4.263e-06	413.88	138.25	120.64	41.234	3.9735e-06	51.147	83.349	231.380	149.166	64.704	164.378	158.614	64.305	69.503	144.510	95.051	68.735	73.421	73.793	78.300	204.949	77.508	-8191	255	
6667.587	1	1	0	0	0.37491	0.096998	0.29465	0.1736	0.28469	0.027059	0.25232	0.44	0.10881	0.30137	0.11437	0.24688	0.15438	0.14939	0.19531	0.17592	-1.5667	-2.1667	-1.4021	-2.4062	-1.6458	-1.7812	-2.2438	-1.6583	-2.0687	-2.2125	-1.8125	-2.3229	-2.0854	-1.7979	-2.2313	-1.8375	162.709	160.603	145.002	281.627	171.281	69.807	348.854	61.428	401.951	211.859	304.011	373.366	97.481	137.277	300.118	306.785	0.0010078	0.00011127	0.00010751	1305.4	2.3358e-06	1.8464e-06	1312.1	365.16	4.3748e-06	1.932e-06	415.6	139.21	120.21	41.098	7.1855e-06	51.227	0.00041394	0.00038321	0.00010097	1305.9	4.461e-06	4.14e-06	1311.2	365.73	4.3926e-06	4.046e-06	413.08	138.73	120.07	41.268	3.8394e-06	51.372	80.954	68.249	94.606	64.839	164.939	226.870	64.731	69.695	238.885	392.658	68.762	73.379	73.666	78.473	218.196	77.702	-8191	255	
6667.681	1	1	0	0	0.10589	0.19051	0.32554	0.31193	0.17068	0.22822	0.21605	0.24115	0.11369	0.25596	0.274	0.14872	0.27352	0.049382	0.17432	0.20344	-1.4229	-2.1833	-1.8375	-2.2792	-2.1312	-1.7625	-2.5229	-1.9792	-1.9604	-2.2062	-1.6437	-2.0542	-2.1021	-1.7792	-2.1896	-2.0167	271.334	197.577	88.893	378.366	218.671	161.857	345.187	336.714	219.525	209.916	393.359	95.509	328.176	61.607	280.523	328.132	0.00098242	0.00019139	5.7647e-05	1301.9	2.7188e-06	2.8026e-06	1316.2	364.21	4.1072e-06	5.5981e-07	416.02	139.12	120.45	40.988	1.5903e-06	51.171	0.00040647	0.00037204	9.9806e-05	1310	4.39e-06	4.0898e-06	1315.9	366.46	4.3584e-06	4.0435e-06	413.96	139.13	120.45	41.14	3.929e-06	51.495	76.487	200.311	226.711	64.765	167.877	252.448	64.522	69.359	272.205	192.661	68.788	73.372	73.838	78.248	64.626	77.356	-8191	255	
6667.778	1	1	0	0	0.11329	0.23967	0.048362	0.19576	0.08757	0.19053	0.16903	0.14868	0.23225	0.091387	0.30416	0.41908	0.14724	0.19568	0.15509	0.086801	-1.3062	-2.3604	-1.4521	-2.1688	-2.0667	-1.4813	-2.3104	-1.9771	-1.9688	-2.2917	-1.7938	-2.05	-2.1562	-1.6646	-2.1771	-2.1917	108.509	119.050	354.792	346.928	61.447	233.823	57.326	348.574	168.193	303.075	343.573	382.371	306.807	399.341	280.401	102.113	0.0010175	0.00016867	0.00012861	1302.5	1.734e-06	7.5657e-07	1313.5	364.16	5.1513e-06	2.9292e-06	416.24	139.57	120.05	41.001	1.3693e-05	51.135	0.00039461	0.00036271	0.00010159	1309.3	4.1985e-06	3.9534e-06	1314.8	366.46	4.1861e-06	3.9185e-06	414.94	139.34	119.66	41.103	4.1625e-06	51.48	87.044	180.707	187.009	64.742	172.206	356.446	64.560	69.385	210.884	232.691	68.792	73.108	73.924	78.391	207.622	77.624	-8191	255	
6667.874	1	1	0	0	0.25955	0.12354	0.096028	0.24707	0.18065	0.18707	0.36979	0.39122	0.15957	0.15702	0.16414	0.36775	0.23939	0.048336	0.25596	0.056915	-1.2771	-2.0812	-1.8167	-2.0208	-2.2062	-1.6979	-2.1562	-2.4354	-1.8	-2.4208	-1.7542	-1.9271	-2.5708	-1.7042	-2.1354	-2.0833	286.621	358.173	307.028	330.032	326.783	161.563	381.940	91.807	289.448	104.284	78.221	402.918	222.665	129.557	233.154	365.376	0.0011298	0.00068641	0.00015573	1300.8	4.4638e-06	2.4733e-06	1309.4	363.21	4.1426e-06	5.6757e-06	416.48	139.56	119.76	41.105	7.8619e-06	51.465	0.00038332	0.00035487	0.0001082	1309.5	4.1047e-06	3.8885e-06	1316.1	365.64	4.1254e-06	3.8563e-06	416	139.01	119.51	41.103	4.373e-06	51.353	79.945	124.699	109.709	64.684	218.794	127.305	64.547	69.475	121.738	135.188	68.827	73.211	73.696	78.559	240.252	77.323	-8191	255	
6667.970	1	1	0	0	0.27219	0.11424	0.034686	0.30782	0.19259	0.20498	0.23166	0.14301	0.22978	0.22963	0.11747	0.19123	0.058881	0.088739	0.146	0.13547	-1.1187	-2.2708	-1.8	-1.9937	-2.0438	-1.5042	-2.275	-1.9958	-1.5792	-2.2687	-1.9312	-2.0125	-2.1896	-1.8604	-2.0312	-2.1437	199.281	115.725	146.702	360.388	375.686	120.002	198.867	371.201	259.065	53.168	391.808	277.614	254.499	167.997	73.811	63.792	0.00102	0.00068464	6.426e-05	1298.5	5.4986e-06	4.9071e-06	1309.5	364.09	1.7842e-06	1.9989e-06	415.91	139.72	120.57	41.126	7.8675e-06	51.135	0.00037723	0.00035089	0.00011213	1306.3	3.9853e-06	3.8718e-06	1316.5	365.34	3.9888e-06	3.8716e-06	416.6	138.77	119.58	41.114	4.4812e-06	51.21	87.773	168.661	104.469	64.870	136.261	144.670	64.807	69.445	139.944	199.195	68.772	73.318	73.515	78.365	149.175	77.358	-8191	255	
6668.090	1	1	0	0	0.064174	0.098486	0.18313	0.4333	0.21334	0.16491	0.084772	0.10707	0.16314	0.089594	0.33914	0.14251	0.10342	0.33693	0.074351	0.33211	-1.3521	-2.0396	-1.9854	-1.9333	-2.35	-1.6354	-1.9729	-2.5	-1.5979	-1.9708	-2.1375	-1.8354	-2.4042	-1.7979	-1.8396	-2.2604	339.808	397.982	75.022	372.024	196.490	378.578	311.539	398.175	110.590	355.135	340.149	94.589	380.293	56.659	159.731	397.163	0.0010831	0.0010346	9.6811e-05	1298.7	5.8048e-06	4.2049e-06	1309.1	363.45	1.5955e-06	8.0218e-06	416.34	139.82	120.47	41.092	6.418e-06	51.167	0.00036694	0.00036199	0.00011475	1305.6	3.8615e-06	4.036e-06	1317.2	364.71	3.8517e-06	4.0822e-06	416.14	138.63	119.09	41.233	4.4527e-06	51.111	76.514	141.292	160.208	64.852	179.762	135.639	64.571	69.461	175.582	243.692	68.810	73.394	73.967	78.642	239.886	77.751	-8191	255	
6668.187	1	1	0	0	0.10906	0.24179	0.10332	0.18812	0.059524	0.12626	0.29262	0.084101	0.22665	0.078689	0.40589	0.049687	0.11152	0.27145	0.2364	0.059787	-1.1229	-2.125	-1.9562	-1.9271	-2.3583	-1.7646	-2.1396	-2.4146	-1.5083	-2.0104	-2.1917	-1.8729	-2.3063	-1.8854	-1.8729	-2.3563	228.090	406.941	185.854	384.239	158.414	266.882	345.311	348.926	323.895	206.371	376.000	365.602	302.992	78.590	408.996	309.107	0.00090732	0.00095597	4.2558e-05	1297.9	5.28e-06	6.2985e-06	1307.7	364.33	5.3818e-06	5.3651e-06	415.41	139.27	120.67	41.151	1.0585e-05	51.19	0.00035825	0.00038297	0.00011199	1302.1	3.8236e-06	4.2894e-06	1316.5	364.81	3.8466e-06	4.3077e-06	415.88	138.19	119.16	41.396	4.2575e-06	51.023	84.501	120.600	237.359	64.787	160.951	221.320	64.531	69.262	145.929	229.150	68.931	73.228	73.543	78.433	291.605	77.626	-8191	255	
6668.258	1	1	0	0	0.19967	0.13511	0.20039	0.12383	0.15135	0.12257	0.26847	0.18531	0.15504	0.085959	0.06142	0.15765	0.18045	0.27871	0.24991	0.15535	-1.1604	-2.1625	-1.9167	-1.9438	-2.2917	-2.0062	-2.0833	-2.6271	-1.5688	-1.9604	-2.2208	-1.5854	-2.3208	-1.9833	-1.4958	-2.3438	232.405	407.303	257.795	80.863	143.509	113.270	273.329	354.722	225.420	191.199	87.732	99.393	59.474	104.892	261.623	369.254	0.0011888	0.0005782	0.00010676	1296.2	7.3203e-06	8.0491e-06	1311.8	362.74	9.9966e-06	3.2085e-06	415.42	139.12	120.39	40.873	7.0982e-06	51.164	0.00035881	0.00039567	0.00010759	1300.6	3.8314e-06	4.3916e-06	1314.4	363.53	3.9259e-06	4.3974e-06	414.35	138.14	119.28	41.357	4.1582e-06	50.84	85.945	194.292	152.503	64.798	194.662	126.459	64.447	69.516	146.112	201.392	69.086	73.308	73.732	78.414	180.217	77.553	-8191	255	
6668.379	1	1	0	0	0.065639	0.24375	0.17003	0.45767	0.2608	0.075897	0.14508	0.40511	0.14766	0.1594	0.13779	0.28868	0.059918	0.38689	0.27469	0.11387	-1.2458	-1.9396	-2.0563	-1.6354	-2.2938	-1.9333	-2.0125	-2.4604	-1.7333	-1.5792	-2.1396	-1.9729	-2.2021	-2.025	-1.6833	-2.3812	59.954	58.210	111.498	410.728	81.831	279.973	322.855	365.417	161.716	258.302	52.219	354.740	99.058	350.707	378.030	177.765	0.0012227	0.00059479	9.2843e-05	1298.6	8.9893e-06	2.437e-06	1308.2	363.69	7.4063e-06	5.5699e-07	415.46	139.55	120.62	40.963	6.4697e-06	51.144	0.0003776	0.00040441	0.00010349	1301.6	4.1021e-06	4.4318e-06	1314	363.46	4.2094e-06	4.3615e-06	413.98	138.11	120.07	41.325	4.1362e-06	50.89	84.568	133.682	363.553	64.635	177.972	402.328	64.468	69.439	172.827	202.688	68.561	73.091	73.757	78.452	212.996	77.554	-8191	255	
#DATA ENDS
