BOXY.EXE: ISS Imagent and Oximeter Data Acquisition Program Version 0.80
Ascii Record File

#ACQ INFORMATION
2  Detector Channels 
16  External MUX Channels 
1  Auxiliary Channels 
5000  Waveform (CCF) Frequency (Hz)
1  Waveforms Skipped 
30  Waveforms Averaged 
1  Cycles Averaged 
16  Acquisitions per Waveform 
10.0806  Updata Rate (Hz) 

#FILE INFORMATION
TRUE -- External MUX Channel results are PARSED.
FALSE -- AC DC and Phase are NOT grouped.
TRUE -- Companion Program Settings File CREATED.
FALSE -- AC data not excluded
FALSE -- DC data not excluded
FALSE -- Phase data not excluded
FALSE -- Auxillary Chn. data not excluded
Tab delimiters

#CALIBRATION STATE
TRUE -- Waveform Calibration Values APPLIED.


#AUX CALIBRATION VALUES
Val Type	aux-1	

Term	1.0000e+00	
Factor	0.0000e+00	


#WF CALIBRATION VALUES
A = Detector Channel
Val Type	A-AC1	A-AC2	A-AC3	A-AC4	A-AC5	A-AC6	A-AC7	A-AC8	A-AC9	A-AC10	A-AC11	A-AC12	A-AC13	A-AC14	A-AC15	A-AC16	A-DC1	A-DC2	A-DC3	A-DC4	A-DC5	A-DC6	A-DC7	A-DC8	A-DC9	A-DC10	A-DC11	A-DC12	A-DC13	A-DC14	A-DC15	A-DC16	A-Ph1	A-Ph2	A-Ph3	A-Ph4	A-Ph5	A-Ph6	A-Ph7	A-Ph8	A-Ph9	A-Ph10	A-Ph11	A-Ph12	A-Ph13	A-Ph14	A-Ph15	A-Ph16	

Term	0.00000e+00	0.00000e+00	0.00000e+00	0.00000e+00	0.00000e+00	0.00000e+00	0.00000e+00	0.00000e+00	0.00000e+00	0.00000e+00	0.00000e+00	0.00000e+00	0.00000e+00	0.00000e+00	0.00000e+00	0.00000e+00	0.00000e+00	0.00000e+00	0.00000e+00	0.00000e+00	0.00000e+00	0.00000e+00	0.00000e+00	0.00000e+00	0.00000e+00	0.00000e+00	0.00000e+00	0.00000e+00	0.00000e+00	0.00000e+00	0.00000e+00	0.00000e+00	0.00000e+00	0.00000e+00	0.00000e+00	0.00000e+00	0.00000e+00	0.00000e+00	0.00000e+00	0.00000e+00	0.00000e+00	0.00000e+00	0.00000e+00	0.00000e+00	0.00000e+00	0.00000e+00	0.00000e+00	0.00000e+00	
Factor	1.00000e+00	1.00000e+00	1.00000e+00	1.00000e+00	1.00000e+00	1.00000e+00	1.00000e+00	1.00000e+00	1.00000e+00	1.00000e+00	1.00000e+00	1.00000e+00	1.00000e+00	1.00000e+00	1.00000e+00	1.00000e+00	1.00000e+00	1.00000e+00	1.00000e+00	1.00000e+00	1.00000e+00	1.00000e+00	1.00000e+00	1.00000e+00	1.00000e+00	1.00000e+00	1.00000e+00	1.00000e+00	1.00000e+00	1.00000e+00	1.00000e+00	1.00000e+00	X	X	X	X	X	X	X	X	X	X	X	X	X	X	X	X	

B = Detector Channel
Val Type	B-AC1	B-AC2	B-AC3	B-AC4	B-AC5	B-AC6	B-AC7	B-AC8	B-AC9	B-AC10	B-AC11	B-AC12	B-AC13	B-AC14	B-AC15	B-AC16	B-DC1	B-DC2	B-DC3	B-DC4	B-DC5	B-DC6	B-DC7	B-DC8	B-DC9	B-DC10	B-DC11	B-DC12	B-DC13	B-DC14	B-DC15	B-DC16	B-Ph1	B-Ph2	B-Ph3	B-Ph4	B-Ph5	B-Ph6	B-Ph7	B-Ph8	B-Ph9	B-Ph10	B-Ph11	B-Ph12	B-Ph13	B-Ph14	B-Ph15	B-Ph16	

Term	0.00000e+00	0.00000e+00	0.00000e+00	0.00000e+00	0.00000e+00	0.00000e+00	0.00000e+00	0.00000e+00	0.00000e+00	0.00000e+00	0.00000e+00	0.00000e+00	0.00000e+00	0.00000e+00	0.00000e+00	0.00000e+00	0.00000e+00	0.00000e+00	0.00000e+00	0.00000e+00	0.00000e+00	0.00000e+00	0.00000e+00	0.00000e+00	0.00000e+00	0.00000e+00	0.00000e+00	0.00000e+00	0.00000e+00	0.00000e+00	0.00000e+00	0.00000e+00	-1.60165e+02	-1.56046e+02	-1.61601e+02	-1.84043e+02	-1.15639e+02	-8.35182e+01	-1.55479e+02	-1.62015e+02	-1.02200e+02	-1.19732e+02	-1.85372e+02	-1.70396e+02	-1.86982e+02	-1.76531e+02	-6.46452e+01	-1.49226e+02	
Factor	2.80052e-05	7.83278e-05	3.39611e-05	2.47397e-01	8.53685e-07	8.94540e-07	1.74294e-01	5.63954e-02	8.49358e-07	1.01448e-06	2.25253e-01	3.31667e-02	6.79303e-02	9.94483e-03	1.03214e-06	1.41766e-02	3.98363e-07	4.02558e-07	1.11943e-07	1.12903e-01	4.40606e-09	4.40072e-09	7.81490e-02	2.63565e-02	4.40888e-09	4.39813e-09	8.24592e-02	1.43961e-02	2.55369e-02	4.44917e-03	4.40686e-09	6.06539e-03	X	X	X	X	X	X	X	X	X	X	X	X	X	X	X	X	



#DISTANCE SETTINGS
A = Detector Channel
A-1	A-2	A-3	A-4	A-5	A-6	A-7	A-8	A-9	A-10	A-11	A-12	A-13	A-14	A-15	A-16	

2.5000e+00	3.0000e+00	2.5000e+00	3.0000e+00	2.0000e+00	3.0000e+00	1.5000e+00	3.0000e+00	3.0000e+00	3.0000e+00	3.0000e+00	3.0000e+00	3.0000e+00	3.0000e+00	1.5000e+00	3.0000e+00	

B = Detector Channel
B-1	B-2	B-3	B-4	B-5	B-6	B-7	B-8	B-9	B-10	B-11	B-12	B-13	B-14	B-15	B-16	

1.0000e+01	1.0000e+01	1.0000e+01	1.4400e+00	1.0000e+01	1.0000e+01	1.5100e+00	1.9400e+00	1.0000e+01	1.0000e+01	1.9900e+00	2.4900e+00	2.4100e+00	2.9000e+00	1.0000e+01	2.9800e+00	




#DATA BEGINS
time	group	step	mark	flag	A-AC1	A-AC2	A-AC3	A-AC4	A-AC5	A-AC6	A-AC7	A-AC8	A-AC9	A-AC10	A-AC11	A-AC12	A-AC13	A-AC14	A-AC15	A-AC16	A-DC1	A-DC2	A-DC3	A-DC4	A-DC5	A-DC6	A-DC7	A-DC8	A-DC9	A-DC10	A-DC11	A-DC12	A-DC13	A-DC14	A-DC15	A-DC16	A-Ph1	A-Ph2	A-Ph3	A-Ph4	A-Ph5	A-Ph6	A-Ph7	A-Ph8	A-Ph9	A-Ph10	A-Ph11	A-Ph12	A-Ph13	A-Ph14	A-Ph15	A-Ph16	B-AC1	B-AC2	B-AC3	B-AC4	B-AC5	B-AC6	B-AC7	B-AC8	B-AC9	B-AC10	B-AC11	B-AC12	B-AC13	B-AC14	B-AC15	B-AC16	B-DC1	B-DC2	B-DC3	B-DC4	B-DC5	B-DC6	B-DC7	B-DC8	B-DC9	B-DC10	B-DC11	B-DC12	B-DC13	B-DC14	B-DC15	B-DC16	B-Ph1	B-Ph2	B-Ph3	B-Ph4	B-Ph5	B-Ph6	B-Ph7	B-Ph8	B-Ph9	B-Ph10	B-Ph11	B-Ph12	B-Ph13	B-Ph14	B-Ph15	B-Ph16	aux-1	digaux	

18976.400	1	1	0	256	0.19798	0.27165	0.10767	0.24311	0.18709	0.081795	0.056536	0.085639	0.22933	0.15522	0.22383	0.13451	0.13809	0.17952	0.093822	0.084519	-1.0146	-1.9229	-1.5875	-1.6187	-1.7896	-1.6083	-1.9312	-1.8896	-1.4979	-1.9458	-1.5708	-1.5875	-1.9521	-1.5542	-1.7792	-1.8917	286.314	154.259	381.682	372.801	178.747	243.530	179.577	443.915	121.623	243.732	98.158	99.185	440.476	417.030	116.436	126.582	0.00040879	0.00027401	8.2585e-05	1101.8	1.9782e-06	3.6851e-06	1199.8	224.91	3.2587e-06	3.2503e-06	287.33	80.439	63.269	18.112	4.3262e-06	25.05	7.7656e-05	7.3947e-05	2.0635e-05	987.56	8.2111e-07	8.1191e-07	1110.6	207.5	8.2161e-07	8.1868e-07	226.13	71.929	50.108	16.585	8.2165e-07	22.621	146.261	199.724	99.765	101.902	194.226	240.324	101.846	109.329	221.903	103.151	108.809	115.547	115.401	122.791	290.365	122.748	-8191	255	
18976.473	1	1	0	0	0.30397	0.12705	0.34764	0.020226	0.06336	0.12682	0.25531	0.17887	0.032528	0.3026	0.011043	0.036184	0.15793	0.23908	0.25566	0.2777	-1.0979	-1.7979	-1.7458	-1.6958	-1.9625	-1.3333	-1.8937	-1.8146	-1.2979	-1.6771	-1.9521	-1.35	-2.0229	-1.6021	-1.6479	-1.9729	162.439	333.314	244.726	241.308	378.415	361.129	349.945	135.791	198.053	340.747	397.294	123.742	319.985	412.170	281.824	408.571	0.00036961	0.00010926	0.0001077	1114.2	1.4449e-06	1.1437e-06	1206.4	226.67	2.3831e-06	3.1805e-06	288.11	80.099	63.453	18.3	9.3562e-07	25.046	7.8572e-05	7.5937e-05	2.1099e-05	992.81	8.3825e-07	8.3788e-07	1115.8	208.37	8.3767e-07	8.3373e-07	226.82	71.915	50.223	16.634	8.3985e-07	22.706	140.171	189.093	140.875	101.798	255.943	275.036	101.749	109.444	171.888	147.424	109.212	115.490	115.648	123.305	297.849	122.513	-8191	255	
18976.594	1	1	0	0	0.035501	0.26994	0.083974	0.082026	0.33377	0.085698	0.14797	0.24242	0.27555	0.22746	0.13753	0.2111	0.21473	0.20842	0.062327	0.16329	-0.94167	-1.9104	-2.0021	-1.5312	-2.0458	-1.6771	-1.7646	-1.8958	-1.3896	-1.7021	-1.8563	-1.5125	-1.9396	-1.7354	-1.5979	-2.0938	404.759	243.683	259.334	120.524	417.110	170.178	447.891	398.753	422.633	231.321	100.843	381.244	345.407	98.153	263.784	334.968	0.00030115	0.00016455	0.00010843	1118.5	2.1013e-06	2.1476e-06	1215.1	227.42	1.9588e-06	1.4073e-06	289.86	80.634	63.901	18.082	2.6958e-06	25.226	8.1146e-05	7.8348e-05	2.2281e-05	998.7	8.8925e-07	8.9024e-07	1122.1	209.64	9.0511e-07	8.9016e-07	228.53	72.569	50.947	16.704	9.2181e-07	22.874	131.322	309.623	240.717	101.841	182.679	271.286	101.855	109.422	179.207	441.028	108.806	115.924	115.089	123.198	190.372	122.818	-8191	255	
18976.689	1	1	0	0	0.28215	0.21728	0.21239	0.20228	0.10212	0.15413	0.05549	0.13715	0.091213	0.1314	0.19153	0.37405	0.086624	0.19812	0.21731	0.13214	-1.1354	-1.7896	-1.5896	-1.5688	-1.7938	-1.6938	-1.7	-1.9271	-1.5562	-1.6208	-1.6771	-1.3917	-1.7083	-1.7563	-1.5812	-1.8667	114.909	250.565	358.976	422.467	396.523	197.612	340.337	287.334	440.426	186.896	377.491	130.851	201.156	187.999	443.486	319.157	0.00027189	0.00013588	5.9433e-05	1117.6	2.4436e-06	3.1605e-06	1213.5	227.37	2.4446e-06	4.1127e-06	288.2	80.775	64.095	18.179	3.3218e-06	25.054	8.6854e-05	8.4303e-05	2.3576e-05	1003.7	9.257e-07	9.2667e-07	1122.3	209.75	9.3608e-07	9.3228e-07	228.74	72.781	51.162	16.739	9.5427e-07	22.95	151.505	247.960	132.293	101.762	91.571	250.905	101.771	109.482	293.657	222.714	109.283	115.475	115.242	122.927	146.721	122.313	-8191	255	
18976.785	1	1	0	0	0.10756	0.15132	0.29461	0.31656	0.14915	0.11384	0.18159	0.25175	0.23783	0.44018	0.099902	0.22579	0.014397	0.10404	0.10143	0.25407	-1.2917	-1.65	-2.0167	-1.5521	-1.9167	-1.675	-1.4979	-2.0104	-1.6437	-1.7458	-1.9354	-1.5583	-1.8813	-1.7854	-1.4708	-1.8875	300.324	336.885	147.568	382.681	107.784	332.236	351.846	405.782	263.207	254.099	380.527	367.402	344.252	359.504	341.187	291.133	0.00038061	4.113e-05	5.8709e-05	1114.7	2.9433e-06	1.1428e-06	1213.8	228.57	1.8298e-06	2.1855e-06	286.09	81.163	63.94	18.317	1.702e-06	25.138	9.0613e-05	8.5637e-05	2.4377e-05	1002.2	9.5932e-07	9.5535e-07	1124	210.6	9.7042e-07	9.5773e-07	229.9	72.83	51.001	16.815	9.7419e-07	22.937	149.381	115.316	137.117	101.953	246.550	184.588	101.829	109.215	263.565	202.347	109.557	115.346	116.029	123.260	195.495	122.621	-8191	255	
18976.904	1	1	0	0	0.19291	0.033107	0.23686	0.2037	0.14553	0.017612	0.086072	0.30366	0.11558	0.10745	0.10863	0.21696	0.039125	0.25437	0.02856	0.20844	-1.1292	-1.275	-1.9521	-1.5708	-1.8375	-1.9271	-1.5146	-1.9271	-1.5542	-1.3479	-1.8875	-1.2896	-1.8375	-1.8	-1.4292	-2.0354	231.542	390.409	176.225	340.077	163.091	155.769	350.400	378.960	200.532	204.235	228.710	381.545	284.401	340.819	433.112	127.972	0.00036144	0.00020363	7.5397e-05	1126.9	4.1597e-06	2.1415e-06	1215.3	228.47	1.584e-06	1.7608e-06	291.73	80.597	63.937	18.3	4.9842e-07	25.213	9.1707e-05	8.9528e-05	2.4723e-05	1005	9.9051e-07	9.7799e-07	1125.3	210.86	9.9187e-07	9.8162e-07	230.96	72.803	51.649	16.849	1.0299e-06	23.075	145.660	178.739	177.448	101.741	187.898	424.296	101.746	109.202	156.497	240.020	108.763	115.361	115.476	122.801	250.150	122.862	-8191	255	
18977.002	1	1	0	0	0.12707	0.12853	0.41697	0.12879	0.10054	0.24327	0.37744	0.19073	0.13022	0.063519	0.082742	0.039986	0.28093	0.27142	0.23252	0.023437	-1.3667	-1.4833	-1.9833	-1.5875	-1.625	-1.9625	-1.4292	-1.9333	-2.0333	-1.5229	-2.1125	-1.6771	-1.7021	-1.9396	-1.5667	-1.8104	437.498	316.806	131.891	355.223	306.868	267.595	341.422	336.085	215.248	120.994	343.701	439.693	445.148	421.399	299.292	319.934	0.00042518	0.00026957	0.00011783	1114.3	1.7824e-06	1.2015e-06	1217.1	228.9	2.6615e-06	2.0667e-06	290.9	80.434	64.193	18.472	2.792e-06	25.438	9.7141e-05	9.5775e-05	2.6812e-05	1005.1	1.065e-06	1.0832e-06	1127.7	211.88	1.0885e-06	1.0666e-06	232.75	73.35	52.054	16.997	1.0574e-06	23.137	152.047	409.414	163.120	101.963	204.902	159.054	101.655	109.029	245.980	235.201	109.903	115.381	115.773	122.796	239.223	122.784	-8191	255	
18977.098	1	1	0	0	0.24007	0.24805	0.24887	0.13957	0.26014	0.32152	0.048042	0.11972	0.076625	0.33394	0.16182	0.090896	0.21228	0.35871	0.216	0.17858	-1.3813	-1.4062	-1.9854	-1.5417	-1.7292	-1.8604	-1.7146	-1.9979	-1.7583	-1.5271	-2.0521	-1.8438	-1.5167	-2.0146	-1.5521	-1.7958	141.252	365.088	383.348	128.405	336.913	105.541	316.966	397.229	208.037	159.194	147.793	331.450	94.363	438.847	360.692	364.633	0.00045417	0.00012787	0.00012291	1123.2	1.4347e-06	1.983e-06	1218	229.62	1.8544e-06	3.5842e-06	291.64	80.718	64.792	18.334	1.3434e-06	25.48	9.8239e-05	9.5428e-05	2.6365e-05	1007.7	1.0583e-06	1.0602e-06	1129.1	212.74	1.0765e-06	1.0731e-06	233.16	73.409	52.19	17.028	1.1022e-06	23.227	145.553	129.986	421.810	101.470	403.903	395.228	101.898	109.183	216.775	305.010	108.927	115.635	116.282	122.928	177.254	122.599	-8191	255	
18977.168	1	1	0	0	0.15085	0.26405	0.16023	0.20146	0.15612	0.12507	0.63975	0.085686	0.18283	0.30344	0.18291	0.20879	0.14379	0.17245	0.22771	0.33691	-1.4979	-1.4771	-1.775	-1.5938	-1.5688	-1.8917	-1.6083	-1.7042	-1.7917	-1.4292	-1.8417	-1.7083	-1.4542	-2.0667	-1.6	-1.6792	204.498	153.033	110.001	415.764	285.792	220.921	411.329	282.392	232.804	168.005	345.859	417.329	294.818	367.444	335.643	416.489	0.00038875	0.00013833	0.0001556	1123	1.1194e-06	4.3552e-06	1222.1	231.48	1.2744e-06	2.4589e-06	292.16	80.745	64.562	18.284	4.3019e-06	25.263	0.0001034	0.00010043	2.7843e-05	1013.6	1.089e-06	1.0781e-06	1136.5	214.46	1.0527e-06	1.0267e-06	233.14	73.402	51.944	16.953	1.019e-06	23.135	139.924	447.378	236.238	101.904	185.615	214.574	101.796	109.275	314.396	131.294	108.285	115.587	115.781	122.885	205.689	122.157	-8191	255	
18977.289	1	1	0	0	0.19911	0.2075	0.096877	0.16086	0.12193	0.10511	0.16005	0.11399	0.052039	0.070276	0.20049	0.31263	0.23659	0.12245	0.32849	0.22654	-1.5187	-1.3896	-1.8208	-1.8563	-1.5646	-1.925	-1.7104	-1.6667	-1.9375	-1.3458	-1.9583	-1.8021	-1.4917	-2.0938	-1.5938	-1.6958	278.650	294.141	237.250	446.512	216.383	188.828	358.711	343.492	147.378	116.630	107.944	388.083	147.726	108.772	397.646	409.757	0.00038252	0.00016816	0.00016329	1122	9.7485e-07	2.5285e-06	1223.4	229.69	2.8066e-06	1.1047e-06	293.68	80.924	64.684	18.103	1.7817e-06	25.05	9.3539e-05	9.0538e-05	2.5197e-05	1009.5	9.7606e-07	9.5481e-07	1132	212.22	9.165e-07	8.8607e-07	230.62	72.754	50.919	16.629	8.3505e-07	22.623	151.018	300.076	427.450	102.002	214.910	217.082	101.823	109.246	208.317	265.702	108.491	115.294	115.375	122.921	191.861	122.501	-8191	255	
18977.385	1	1	0	0	0.25765	0.25051	0.025341	0.1573	0.15495	0.053547	0.1409	0.22186	0.13783	0.20748	0.06367	0.086887	0.060628	0.26559	0.28551	0.042835	-1.6562	-1.3813	-1.8188	-1.8646	-1.5125	-2.0375	-1.8042	-1.7042	-2.0208	-1.6063	-1.5938	-1.7	-1.5063	-1.9312	-1.6812	-1.7604	382.050	106.016	384.920	375.180	417.408	294.089	281.117	93.140	410.613	394.310	406.299	445.059	236.385	412.006	394.394	284.142	0.00035916	0.00021065	0.000173	1115	3.1158e-06	3.9488e-06	1220	228.3	1.8083e-06	1.6172e-06	289.79	80.601	63.638	18.172	1.3473e-06	25.12	7.7465e-05	7.2069e-05	1.9936e-05	997.26	7.9568e-07	7.6701e-07	1121.8	209.71	7.5729e-07	7.5533e-07	226.08	71.791	49.821	16.427	7.5816e-07	22.471	135.687	119.489	157.410	101.582	186.789	258.387	101.730	109.242	204.963	229.947	109.221	115.693	115.373	123.496	332.453	122.830	-8191	255	
18977.480	1	1	0	0	0.22506	0.050318	0.29541	0.33562	0.23796	0.2271	0.13511	0.19647	0.32135	0.245	0.15962	0.17594	0.048774	0.18295	0.12897	0.20885	-1.6292	-1.5104	-1.7229	-1.7396	-1.3937	-2.1375	-1.9792	-1.5187	-1.9167	-1.5229	-1.6833	-1.975	-1.3917	-2.0021	-1.8458	-1.5729	135.817	432.464	388.493	447.859	261.200	437.025	286.899	450.180	440.798	113.196	131.411	419.245	111.279	385.215	402.539	150.679	0.00034716	9.2184e-05	2.9412e-05	1112.8	1.8729e-06	2.2959e-06	1212	227.94	2.4231e-06	2.7294e-06	290.61	80.605	63.968	18.112	3.1995e-06	24.86	7.1121e-05	6.8696e-05	1.9194e-05	994.76	7.844e-07	7.8509e-07	1119.5	209.68	8.4178e-07	8.4517e-07	228.32	72.193	50.678	16.643	8.7772e-07	22.74	139.320	274.983	344.521	101.663	240.703	203.854	101.890	109.003	251.824	186.795	108.370	115.691	115.660	122.772	145.865	122.177	-8191	255	
18977.576	1	1	0	0	0.095449	0.16876	0.14003	0.077812	0.092637	0.17431	0.33552	0.12095	0.081957	0.19489	0.22247	0.14768	0.10285	0.2263	0.18006	0.041324	-1.6625	-1.575	-1.7771	-1.9813	-1.7104	-1.8937	-1.8667	-1.4833	-1.9125	-1.675	-1.775	-1.8937	-1.6542	-1.8583	-1.7042	-1.4937	109.511	100.716	254.892	376.071	439.947	218.395	412.598	364.648	313.584	270.419	363.597	406.823	334.333	147.743	158.598	119.121	0.00033904	0.00033384	0.00019117	1123.8	7.7166e-07	2.7466e-06	1217.4	230.52	4.4661e-06	7.9199e-07	289.31	80.29	63.88	18.126	1.436e-06	25.112	8.5114e-05	8.371e-05	2.3142e-05	1004.4	9.3841e-07	9.116e-07	1128.6	212.23	9.3148e-07	9.2314e-07	230.58	72.543	50.787	16.659	8.8536e-07	22.764	137.488	107.556	152.105	102.010	105.204	221.785	101.925	109.254	181.525	261.912	108.688	115.857	115.914	122.571	187.717	122.622	-8191	255	
18977.695	1	1	0	0	0.068018	0.29306	0.056733	0.12442	0.34819	0.079259	0.23859	0.20704	0.24113	0.22875	0.067836	0.16713	0.085306	0.28907	0.11602	0.20828	-1.4667	-1.4062	-1.3813	-1.9354	-1.5646	-1.6792	-2.0958	-1.4083	-1.9146	-1.6979	-1.475	-1.8521	-1.5354	-1.9354	-1.9958	-1.4583	355.703	352.512	401.757	396.836	385.473	262.235	434.342	129.804	390.456	227.414	152.760	382.686	299.257	450.948	315.712	405.714	0.00029991	0.00010855	4.7486e-05	1122.2	3.2314e-06	1.8005e-06	1221.8	230.07	1.7851e-06	4.3471e-06	289.94	79.998	64.172	17.878	3.3972e-06	25.009	8.2108e-05	7.877e-05	2.1707e-05	1002.3	8.3887e-07	8.2972e-07	1125.7	210.98	8.2671e-07	8.2439e-07	227.95	71.991	50.535	16.477	8.3375e-07	22.584	134.766	438.552	392.973	101.612	198.535	208.272	101.813	109.092	276.356	157.258	109.377	115.833	115.394	122.976	264.224	122.503	-8191	255	
18977.770	1	1	0	0	0.21438	0.17308	0.094773	0.28177	0.15353	0.18994	0.25381	0.20416	0.12692	0.10889	0.04183	0.11822	0.21111	0.083024	0.077232	0.15925	-1.4312	-1.7	-1.6542	-1.9417	-1.6354	-1.975	-2.1729	-1.4354	-1.9708	-1.7229	-1.6542	-1.9417	-1.4479	-1.625	-1.9562	-1.3833	392.962	216.731	283.630	126.355	423.973	266.100	101.618	311.802	398.266	421.291	294.332	366.457	128.796	243.531	157.612	201.551	0.00038149	2.8843e-05	0.00010633	1113.3	9.1262e-07	1.9821e-06	1217.9	228.76	8.1583e-07	3.7832e-06	291.84	81.14	64.179	17.989	2.2582e-06	25.344	7.9919e-05	7.6442e-05	2.1624e-05	1000	8.6109e-07	8.5073e-07	1123.6	210.7	8.7714e-07	8.6986e-07	229.26	72.541	50.775	16.517	8.7637e-07	22.785	138.351	119.019	215.392	101.873	181.525	186.246	101.784	109.589	445.088	131.798	109.282	115.827	115.510	122.888	255.916	122.472	-8191	255	
18977.865	1	1	0	0	0.13173	0.28306	0.096061	0.21986	0.12768	0.13345	0.28056	0.087879	0.2902	0.19939	0.20087	0.051098	0.084517	0.31955	0.047624	0.072175	-1.4354	-1.6625	-1.5667	-1.9458	-1.5396	-1.7396	-2.0438	-1.5229	-1.8958	-1.5938	-1.475	-1.9646	-1.5542	-1.7208	-1.9146	-1.5083	410.550	255.612	288.032	103.761	99.076	131.786	356.255	376.951	165.340	149.060	423.172	398.322	368.319	324.605	213.232	158.316	0.0003478	0.0001822	9.1453e-05	1119.8	3.1496e-06	1.8761e-06	1216.9	229.51	2.912e-06	6.9497e-07	292.97	80.133	63.684	17.919	2.5148e-06	24.875	8.3202e-05	7.9383e-05	2.2146e-05	1001.9	8.599e-07	8.4233e-07	1124.9	210.62	8.288e-07	8.1667e-07	227.71	71.846	50.069	16.372	8.0117e-07	22.486	146.542	272.110	155.494	101.955	194.640	270.598	101.944	109.429	266.328	345.653	109.059	115.903	115.677	123.233	135.100	122.793	-8191	255	
18977.984	1	1	0	0	0.37052	0.10592	0.089052	0.17247	0.18034	0.06874	0.25546	0.19291	0.12409	0.1619	0.12905	0.24401	0.21041	0.066871	0.13198	0.12501	-1.4729	-1.7958	-1.3625	-1.8271	-1.8417	-1.5979	-2.0979	-1.6125	-1.7687	-1.9208	-1.3854	-1.9438	-1.7125	-1.525	-1.8208	-1.5292	242.098	444.430	297.357	113.335	432.379	206.787	329.114	165.067	424.025	413.030	102.472	282.632	123.930	274.355	237.555	431.599	0.00035694	0.00027744	6.7191e-05	1118.1	3.9098e-06	2.6697e-06	1213.2	228.02	2.7387e-06	2.3608e-06	289.04	79.929	63.585	17.893	3.8047e-06	24.817	7.4276e-05	7.3189e-05	2.0246e-05	995.18	8.0353e-07	7.9628e-07	1121.1	209.43	8.1206e-07	8.0687e-07	227.07	71.686	49.941	16.366	8.008e-07	22.438	142.654	169.105	142.012	101.878	206.213	424.480	101.652	109.180	175.515	160.962	109.313	115.416	116.072	123.216	285.840	122.727	-8191	255	
18978.080	1	1	0	0	0.028786	0.19325	0.12589	0.30755	0.091382	0.18406	0.2892	0.15887	0.10631	0.2005	0.31301	0.13025	0.0087682	0.092288	0.17102	0.066254	-1.3021	-1.9396	-1.4896	-1.9479	-1.6063	-1.5208	-2.2021	-1.6354	-1.6854	-1.8792	-1.3563	-1.9646	-1.75	-1.3375	-1.9771	-1.6542	312.868	327.860	387.042	346.013	427.668	410.353	313.044	146.826	165.230	206.042	394.754	405.851	343.521	126.403	353.458	321.950	0.00040864	0.0002517	0.00015565	1113.1	1.4878e-06	2.4159e-06	1213.2	228.46	6.8988e-07	1.2207e-06	290.64	79.687	62.952	17.838	2.4766e-06	24.729	7.5184e-05	7.2908e-05	1.9618e-05	995.73	7.8758e-07	7.6156e-07	1118.8	208.58	7.4444e-07	7.3545e-07	225.1	71.226	49.428	16.189	7.2829e-07	22.218	144.891	95.820	116.664	101.883	99.899	374.212	101.643	109.429	222.422	170.997	108.885	115.575	115.563	123.291	279.551	122.298	-8191	255	
18978.178	1	1	0	0	0.23364	0.0369	0.19749	0.093714	0.083398	0.15091	0.27358	0.15973	0.30871	0.052763	0.24101	0.33259	0.14539	0.13411	0.23832	0.24866	-1.3354	-1.7167	-1.2563	-1.8563	-1.6854	-1.3625	-2.0729	-1.7708	-1.7354	-1.8083	-1.5667	-1.6708	-1.75	-1.5583	-1.8854	-1.7208	386.846	401.788	176.527	207.393	163.530	165.881	353.187	307.723	377.101	353.822	380.060	281.002	425.182	289.163	210.339	296.873	0.00037551	0.00015747	6.5036e-05	1115.4	2.1774e-06	1.006e-06	1208.7	226.47	2.2939e-06	4.6833e-07	287.64	79.709	63.324	17.876	3.6735e-06	24.678	7.0107e-05	6.7378e-05	1.8817e-05	994.51	7.4418e-07	7.4051e-07	1114.8	208.39	7.7092e-07	7.4717e-07	225.05	71.354	49.602	16.239	7.4487e-07	22.274	139.097	159.436	146.945	101.680	207.107	259.226	101.823	109.657	246.053	340.232	108.684	115.967	115.301	122.958	297.254	122.732	-8191	255	
18978.273	1	1	0	0	0.12096	0.12747	0.15485	0.10974	0.1215	0.41799	0.27922	0.18541	0.16843	0.15038	0.10952	0.117	0.1906	0.11697	0.26606	0.17254	-1.0938	-1.8604	-1.4771	-1.9771	-1.7708	-1.3521	-2.025	-1.8854	-1.4771	-2.1979	-1.5875	-1.8229	-1.8312	-1.4854	-1.7458	-1.7625	313.734	150.608	358.698	103.555	152.029	342.345	443.382	445.489	180.095	418.543	304.624	401.592	339.602	129.678	144.725	173.369	0.00038111	8.8218e-05	8.9822e-05	1112	1.6089e-06	7.7305e-07	1205.7	226.93	7.1525e-07	1.1823e-06	285.95	79.461	62.539	17.701	2.1872e-06	24.78	7.1079e-05	6.8234e-05	1.8663e-05	993.02	7.3754e-07	7.2785e-07	1116.7	207.52	7.2089e-07	7.0255e-07	223.65	71.052	49.03	16.111	6.9826e-07	22.209	143.944	283.640	149.538	101.955	417.697	149.039	101.726	109.354	170.928	151.883	108.960	115.800	115.935	123.303	209.687	122.527	-8191	255	
18978.395	1	1	0	0	0.084479	0.35709	0.11378	0.11433	0.15532	0.10233	0.2037	0.12569	0.12259	0.12313	0.14005	0.13883	0.1754	0.10877	0.10228	0.28338	-1.3042	-1.9521	-1.4021	-1.6063	-1.7646	-1.4646	-1.9792	-1.7208	-1.4438	-1.8896	-1.4667	-1.9417	-1.8917	-1.3583	-2.0271	-1.6688	313.084	317.041	232.066	433.452	165.477	296.961	405.552	301.897	165.354	155.714	394.575	313.340	130.496	115.295	124.106	304.423	0.00033274	0.00040605	3.3119e-05	1109.7	1.9852e-06	7.1853e-07	1211.2	224.65	2.243e-06	4.8298e-07	288.58	79.373	63.193	17.677	1.7007e-06	24.93	6.5754e-05	6.3415e-05	1.7645e-05	989.78	6.885e-07	6.8233e-07	1115	206.8	7.0089e-07	6.796e-07	223.42	70.893	48.917	16.063	6.8724e-07	22.174	138.112	115.768	145.791	101.808	162.657	281.314	101.858	109.349	153.236	171.947	109.242	115.647	115.077	123.058	358.989	122.946	-8191	255	
18978.465	1	1	0	0	0.29428	0.24612	0.16881	0.15921	0.10262	0.21893	0.22288	0.20784	0.18413	0.089721	0.22223	0.046797	0.13433	0.18399	0.13724	0.18533	-1.0979	-1.8667	-1.3	-1.5312	-1.8687	-1.3229	-1.8583	-1.8021	-1.3625	-1.8708	-1.7563	-1.6646	-1.9562	-1.5104	-1.7542	-2.0479	284.875	392.491	162.072	324.322	193.920	439.881	327.310	194.975	95.491	299.835	412.854	338.537	129.145	383.229	390.685	110.107	0.00034274	0.00013064	0.0001736	1111.5	1.4088e-06	1.9974e-06	1210.1	225.7	2.5146e-06	1.4955e-06	287.28	79.702	63.692	17.724	2.278e-06	24.719	6.4985e-05	6.2681e-05	1.7571e-05	990.73	6.8977e-07	6.8667e-07	1113.9	206.86	6.9656e-07	6.8902e-07	222.61	70.98	49.217	16.115	6.851e-07	22.102	148.623	379.541	149.736	101.918	155.769	135.921	101.910	109.638	150.092	134.117	108.682	115.630	115.978	123.456	264.380	123.043	-8191	255	
18978.586	1	1	0	0	0.12985	0.20827	0.28389	0.16053	0.097243	0.32028	0.062979	0.14491	0.2046	0.32941	0.32202	0.15492	0.15048	0.60335	0.20552	0.14004	-1.0625	-1.9896	-1.6729	-1.7021	-2.1104	-1.6792	-1.9583	-1.9917	-1.6271	-2.0521	-1.7479	-1.6604	-2.0792	-1.6583	-1.7292	-1.8917	391.498	400.636	232.194	372.783	428.556	384.056	281.556	325.437	150.029	186.249	443.731	169.899	161.566	432.737	369.377	177.078	0.00032184	0.00012078	9.5728e-05	1114.5	5.3292e-06	8.0711e-07	1214.3	225.72	4.3547e-06	8.0935e-07	286.44	79.481	63.867	17.888	4.0562e-06	24.84	6.6544e-05	6.3476e-05	1.7684e-05	990.17	6.9925e-07	6.9866e-07	1116.5	207.08	6.9606e-07	6.8778e-07	223.1	70.938	49.224	16.151	7.0615e-07	22.19	145.265	375.802	203.466	101.942	212.133	141.861	101.835	109.299	230.227	195.479	109.021	115.363	116.304	122.902	296.857	122.592	-8191	255	
18978.682	1	1	0	0	0.11199	0.093273	0.39329	0.19466	0.16189	0.33579	0.21453	0.11983	0.18699	0.049838	0.11872	0.11559	0.027058	0.1446	0.092978	0.17955	-0.8875	-1.9229	-1.7854	-1.6562	-2	-1.5521	-1.6604	-2.0687	-1.4438	-1.7083	-1.8646	-1.4729	-1.8687	-1.8083	-1.5333	-2.075	201.502	189.382	412.104	401.188	210.345	402.286	128.049	371.174	369.052	142.534	348.776	121.813	194.509	429.438	163.771	347.003	0.00042207	0.00036923	0.00010805	1109.4	1.7851e-06	1.0634e-06	1206.8	226.6	3.4804e-06	4.8964e-06	289.11	79.05	63.211	17.733	3.5989e-06	24.896	6.7689e-05	6.4435e-05	1.7826e-05	992.12	7.0077e-07	6.8747e-07	1115	207	6.8223e-07	6.8283e-07	223.85	70.68	49.134	16.086	6.8484e-07	22.188	153.190	182.488	142.284	101.898	187.626	252.332	101.582	109.095	250.096	205.652	108.886	115.561	115.971	123.245	272.053	122.246	-8191	255	
18978.777	1	1	0	0	0.19657	0.26442	0.16108	0.29215	0.0731	0.19772	0.223	0.05169	0.14921	0.050276	0.30529	0.17386	0.10633	0.16164	0.25441	0.10817	-1.0771	-1.7167	-1.6875	-1.5938	-2.0479	-1.6958	-1.5438	-1.9896	-1.4375	-1.65	-1.9813	-1.5083	-1.9	-1.7563	-1.5375	-1.9875	328.575	441.229	284.475	416.048	134.520	156.044	96.083	210.762	332.196	131.617	280.905	360.013	345.879	436.405	289.870	327.195	0.00033692	1.8518e-05	2.8385e-05	1115.2	2.1173e-06	3.1416e-06	1207.7	226.16	2.5867e-06	9.199e-07	286.66	78.869	62.761	17.661	3.5669e-06	24.747	6.4966e-05	6.1311e-05	1.7211e-05	990.9	6.8309e-07	6.8105e-07	1113.5	206.8	6.9283e-07	6.7859e-07	222.72	70.686	49.04	16.107	6.7622e-07	22.106	147.401	386.821	450.018	102.002	163.597	288.218	101.815	109.322	250.789	93.895	109.131	115.684	115.810	123.191	272.550	122.305	-8191	255	
18978.873	1	1	0	0	0.23673	0.2558	0.086251	0.1371	0.11047	0.17941	0.19997	0.022291	0.051015	0.22152	0.12961	0.24474	0.17829	0.17827	0.097038	0.060616	-1.075	-1.5875	-2.0729	-1.5771	-1.8771	-1.7146	-1.6021	-2.1188	-1.5938	-1.6271	-1.875	-1.7229	-1.8542	-1.7542	-1.4937	-2.0729	246.760	224.823	345.203	286.819	101.135	325.822	373.318	187.402	347.968	297.432	377.263	337.212	208.004	171.682	195.094	369.184	0.00035477	0.00010122	8.5665e-05	1114.1	1.5654e-06	1.4586e-06	1208.3	225.81	3.9912e-06	6.9968e-07	286.31	79.705	63.05	17.828	1.7016e-06	24.822	6.5091e-05	6.2535e-05	1.724e-05	993.31	6.783e-07	6.7969e-07	1115.8	207.14	6.9382e-07	6.7254e-07	222.68	71.046	48.886	16.141	6.8352e-07	22.102	141.258	256.914	118.970	101.846	184.141	111.794	102.005	109.246	190.110	119.769	109.102	115.618	115.568	123.094	169.475	123.060	-8191	255	
18978.992	1	1	0	0	0.25511	0.10423	0.042076	0.22964	0.11902	0.033341	0.31115	0.24293	0.25296	0.15672	0.193	0.076013	0.15985	0.14458	0.3241	0.25502	-1.3854	-1.6458	-1.7938	-1.4771	-1.7542	-1.85	-1.6875	-2.0292	-1.5771	-1.5458	-1.8479	-1.5458	-1.8542	-1.8042	-1.3375	-2.0521	225.279	276.477	361.433	319.313	395.157	375.796	309.820	436.060	167.968	261.100	194.362	281.283	202.545	451.237	243.233	171.229	0.00042795	0.0002159	3.6434e-05	1113.2	6.1633e-07	1.516e-06	1213.2	225.51	2.3156e-06	1.3004e-06	285.88	79.493	62.769	17.68	2.7355e-06	24.667	6.557e-05	6.2869e-05	1.7281e-05	990.88	7.0032e-07	6.9127e-07	1115.9	206.76	7.0282e-07	6.9038e-07	222.7	70.985	48.963	16.146	6.882e-07	22.117	131.892	319.354	440.201	101.862	418.255	285.167	101.840	109.346	252.172	364.787	108.802	115.459	115.083	123.735	238.125	122.656	-8191	255	
18979.064	1	1	0	0	0.28412	0.066174	0.061595	0.22253	0.27966	0.20101	0.1343	0.17009	0.1489	0.052345	0.10229	0.25884	0.24956	0.1376	0.41043	0.15598	-1.3021	-1.5625	-1.7708	-1.6604	-1.7479	-1.8708	-1.5604	-1.9542	-1.6708	-1.7271	-2.1042	-1.7104	-1.7729	-1.9479	-1.5146	-1.875	207.544	265.498	166.220	397.579	296.306	252.195	414.639	446.845	98.196	360.465	316.593	129.135	387.165	368.389	150.651	337.667	0.00031632	0.00026089	8.3872e-05	1107.5	1.4304e-07	2.0912e-06	1207.6	225.79	1.0216e-06	6.3005e-07	286.65	79.067	62.88	17.671	1.0461e-06	24.809	6.6123e-05	6.182e-05	1.7387e-05	989.99	6.8318e-07	6.7191e-07	1112.7	206.53	6.7548e-07	6.7712e-07	223.15	70.795	48.867	16.149	6.7689e-07	22.055	141.867	121.417	437.013	102.309	141.170	223.163	101.680	109.403	289.061	197.618	109.293	115.445	115.302	123.016	208.078	123.017	-8191	255	
18979.160	1	1	0	0	0.18166	0.17199	0.1718	0.079961	0.26625	0.15105	0.21233	0.15686	0.22619	0.026088	0.09495	0.14234	0.28751	0.25639	0.023963	0.28698	-1.3458	-1.3813	-1.9958	-1.7667	-1.6917	-1.9604	-1.6271	-1.8833	-1.8292	-1.4625	-1.9542	-1.6646	-1.6063	-2.0042	-1.5417	-1.8208	136.370	415.486	356.573	126.703	213.466	362.816	282.888	326.084	420.517	341.957	266.337	363.522	128.641	391.231	319.102	236.965	0.00030128	0.00010682	6.8856e-05	1112.1	9.6891e-07	2.0105e-06	1209.9	227.08	2.3878e-06	1.5711e-06	288.51	79.354	63.055	17.796	2.9087e-06	24.746	6.5388e-05	6.2375e-05	1.7315e-05	991.46	6.8359e-07	6.8512e-07	1114.6	207.57	6.9446e-07	6.9192e-07	222.64	70.834	49.045	16.141	6.7839e-07	22.031	142.667	330.563	119.271	102.001	368.995	218.281	101.865	109.514	283.294	119.085	108.967	116.132	115.731	123.166	121.163	122.715	-8191	255	
18979.258	1	1	0	0	0.18289	0.36194	0.068628	0.081404	0.08433	0.34113	0.24381	0.077936	0.066373	0.078308	0.057308	0.1926	0.28601	0.15622	0.13703	0.16132	-1.4542	-1.3687	-1.7583	-1.6396	-1.7833	-2.2333	-1.5542	-1.7917	-1.9333	-1.5479	-2.0021	-1.6708	-1.6146	-1.775	-1.5021	-1.5958	154.289	134.409	360.747	292.483	340.615	118.925	381.056	361.689	176.024	218.715	369.079	359.460	433.933	334.587	305.573	350.163	0.0003096	0.00027617	7.1559e-05	1110.5	3.6481e-06	2.8645e-06	1201.5	226.03	2.9823e-06	8.3996e-07	287.03	79.333	62.343	17.841	1.5859e-06	24.4	6.4052e-05	6.0722e-05	1.7093e-05	990.28	6.6977e-07	6.5329e-07	1111.8	207.14	6.5611e-07	6.484e-07	221.71	70.631	48.743	16.075	6.3539e-07	21.927	120.424	134.076	140.753	101.916	247.345	227.804	101.705	109.314	256.963	204.927	108.690	116.004	115.744	123.114	356.779	122.681	-8191	255	
18979.354	1	1	0	0	0.28817	0.24471	0.041716	0.13989	0.071298	0.29487	0.15182	0.26472	0.07328	0.10682	0.14871	0.17449	0.023808	0.19867	0.15169	0.15438	-1.4062	-1.325	-1.8104	-1.7667	-1.575	-1.9896	-1.6042	-1.7875	-1.775	-1.4042	-1.85	-1.7625	-1.4771	-1.8188	-1.5729	-1.7437	171.679	146.934	401.046	360.538	443.138	438.940	133.693	443.090	377.803	254.139	369.549	208.253	96.694	413.645	166.366	304.595	0.00037657	0.00033217	0.00018543	1113.6	2.6601e-06	1.5219e-06	1207.3	225.49	5.3618e-07	4.0879e-06	289.06	78.807	62.791	17.559	2.5093e-06	24.458	6.0935e-05	5.6896e-05	1.6048e-05	988.69	6.437e-07	6.3062e-07	1110.8	205.96	6.3696e-07	6.3891e-07	222.12	70.381	48.658	15.996	6.3847e-07	21.914	137.735	217.212	151.707	101.872	148.513	131.292	101.852	109.866	208.556	259.159	108.860	115.951	115.517	123.063	294.703	122.766	-8191	255	
18979.475	1	1	0	0	0.084341	0.16134	0.081206	0.15776	0.16565	0.23471	0.1729	0.36131	0.18758	0.095299	0.19856	0.23552	0.12194	0.11336	0.07817	0.27325	-1.3771	-1.3292	-1.9083	-1.8292	-1.4583	-1.9979	-1.7167	-1.5354	-1.9104	-1.5229	-1.6562	-1.8875	-1.6896	-1.7854	-1.6417	-1.95	296.912	226.120	302.285	412.652	372.378	391.409	435.356	421.553	208.921	122.319	164.837	384.275	188.990	437.945	306.921	253.676	0.00031938	0.00012396	0.00021642	1104.2	2.4849e-06	1.0121e-06	1208.1	224.78	5.4301e-06	2.4831e-06	286.21	79.748	63.257	17.732	1.3573e-06	24.551	6.2105e-05	6.0426e-05	1.6447e-05	984.95	6.4965e-07	6.4702e-07	1110.1	205.89	6.6116e-07	6.3591e-07	220.92	70.517	48.697	16.057	6.4094e-07	21.93	149.006	321.512	166.939	101.932	172.178	187.870	101.807	109.494	280.377	131.078	108.966	115.758	115.468	122.776	338.697	122.624	-8191	255	
18979.570	1	1	0	0	0.13994	0.23439	0.060186	0.1943	0.22495	0.19188	0.15308	0.074272	0.15026	0.2119	0.17747	0.22577	0.14549	0.30703	0.3087	0.14954	-1.4729	-1.2313	-1.7333	-1.8563	-1.4479	-1.9312	-1.8979	-1.6417	-1.8958	-1.4813	-1.7083	-1.9875	-1.4438	-1.8958	-1.5917	-1.5562	444.728	438.820	105.555	347.587	106.047	351.502	261.168	425.589	396.462	124.232	176.661	392.559	389.990	203.871	169.002	401.604	0.00032145	0.00019532	8.1271e-05	1108.9	3.9444e-06	3.4417e-07	1200.9	224.59	1.8987e-06	1.8964e-06	285.21	78.628	63.266	17.716	2.102e-06	24.513	6.1644e-05	5.823e-05	1.6244e-05	981.4	6.4142e-07	6.3612e-07	1104.5	205.82	6.4049e-07	6.3835e-07	220.36	70.174	48.7	15.985	6.5763e-07	21.954	142.958	189.536	218.814	101.765	123.228	339.538	101.815	109.458	279.377	276.237	108.956	115.707	115.737	123.325	272.026	122.824	-8191	255	
18979.666	1	1	0	0	0.29673	0.0605	0.12677	0.13736	0.09264	0.071954	0.13448	0.24633	0.10893	0.083931	0.17977	0.13778	0.11818	0.11175	0.049722	0.15316	-1.5083	-1.4562	-1.6854	-2.0062	-1.5562	-2.0667	-1.8875	-1.5104	-1.9542	-1.4438	-1.8	-1.8708	-1.4458	-1.8771	-1.8042	-1.6667	186.507	317.880	415.908	407.294	345.963	214.287	270.483	442.571	202.665	391.305	440.014	341.353	160.236	428.794	163.961	376.719	0.00037053	0.00033591	0.0001641	1106.3	2.3852e-06	2.7617e-06	1201.9	224.78	1.9712e-06	6.4147e-07	285.21	79.303	62.416	17.763	2.9483e-06	24.526	6.2063e-05	6.0026e-05	1.6811e-05	985.18	6.7302e-07	6.6113e-07	1109.5	206.2	6.9377e-07	6.9724e-07	222.59	70.603	48.95	16.154	6.9986e-07	22.026	164.329	238.223	138.087	101.822	174.992	236.460	101.890	109.229	196.195	179.492	109.097	115.395	115.689	123.476	278.420	123.004	-8191	255	
18979.764	1	1	0	0	0.10119	0.063693	0.30078	0.17138	0.083272	0.09131	0.40047	0.17786	0.13619	0.16548	0.12236	0.057626	0.26208	0.22464	0.20742	0.061628	-1.5104	-1.5271	-1.6542	-2.1354	-1.425	-1.8271	-1.9583	-1.6229	-1.9604	-1.6646	-1.6229	-2.0271	-1.3292	-1.7437	-1.8729	-1.5083	274.101	355.646	120.005	339.632	131.053	446.884	348.797	245.116	426.554	163.130	302.705	350.185	411.986	147.352	94.764	252.542	0.00035864	0.00014773	0.00010843	1104.2	2.9469e-06	2.6593e-06	1207.5	224.05	1.7665e-06	4.0653e-06	283.63	79.264	62.682	17.713	3.1129e-06	24.678	6.6748e-05	6.3401e-05	1.7584e-05	986.68	6.9942e-07	6.8518e-07	1110.4	205.8	6.9444e-07	7.0188e-07	221.41	70.651	48.901	16.098	6.9358e-07	22.004	130.994	188.997	157.643	101.719	193.124	123.172	101.514	109.529	159.583	229.667	109.298	115.697	115.243	123.099	208.446	122.517	-8191	255	
18979.857	1	1	0	0	0.11871	0.39185	0.34485	0.20684	0.11559	0.23372	0.031281	0.23618	0.23794	0.10087	0.088799	0.14999	0.10621	0.1563	0.090298	0.097278	-1.5854	-1.6479	-1.475	-1.9583	-1.45	-1.5479	-2.0292	-1.6396	-1.9146	-1.8417	-1.4021	-2.1063	-1.5542	-1.7687	-1.9417	-1.3604	425.002	216.058	428.079	405.215	345.201	360.476	257.518	360.178	437.171	278.302	146.142	219.167	268.235	121.248	327.487	361.511	0.0003927	0.00016165	8.3956e-05	1108.7	2.4944e-06	9.7553e-07	1209.8	223.97	3.5471e-06	1.6432e-06	287.94	78.766	62.54	17.589	3.6462e-06	24.704	6.6171e-05	6.2197e-05	1.7647e-05	987.4	6.8981e-07	6.6466e-07	1111.3	205.22	6.5405e-07	6.3874e-07	220.53	70.216	48.33	15.971	6.4238e-07	21.901	144.009	95.092	101.112	101.805	200.753	277.189	101.635	109.318	241.407	214.951	109.158	115.490	115.935	122.698	175.352	122.422	-8191	255	
18979.955	1	1	0	0	0.27917	0.037287	0.29727	0.091928	0.060677	0.32776	0.25644	0.14139	0.24351	0.095457	0.23679	0.080889	0.10284	0.2484	0.2163	0.38534	-1.4583	-1.8	-1.3271	-1.9792	-1.5812	-1.6604	-1.9729	-1.425	-1.6688	-1.8146	-1.4375	-2.0417	-1.4625	-1.4521	-1.7958	-1.6562	138.901	377.284	235.685	416.559	171.008	266.619	298.408	341.788	330.792	380.350	385.455	369.838	401.714	300.676	138.035	439.800	0.00032482	8.6558e-05	7.9263e-05	1107.2	2.0018e-06	1.9461e-06	1200.9	224.47	3.7015e-06	6.9251e-07	284.78	79.626	62.773	17.858	2.8136e-06	24.514	6.1714e-05	5.7812e-05	1.6254e-05	985.68	6.6427e-07	6.5538e-07	1109.1	205.69	6.8592e-07	6.8363e-07	222.07	70.741	49.057	16.199	7.1031e-07	22.064	131.888	108.362	219.851	101.809	437.814	179.719	101.948	109.378	200.193	237.686	109.213	115.135	116.061	123.027	268.918	122.303	-8191	255	
18980.074	1	1	0	0	0.22014	0.24086	0.16428	0.26125	0.081143	0.20531	0.2597	0.11023	0.080462	0.28873	0.18417	0.10919	0.20037	0.12767	0.095931	0.14175	-1.3458	-1.8771	-1.2625	-2.0229	-1.4771	-1.725	-2.1354	-1.5	-1.8042	-1.8563	-1.5979	-1.9667	-1.5396	-1.8021	-2.1063	-1.7042	163.081	283.638	195.307	423.982	400.256	263.524	377.404	134.387	123.086	269.441	363.514	149.869	148.324	200.319	104.270	275.525	0.00038615	0.00016652	8.263e-05	1108	1.7787e-06	4.3267e-06	1207.5	224.52	9.7558e-07	4.7831e-06	288.47	79.175	63.086	17.904	4.2155e-06	24.612	6.9096e-05	6.6575e-05	1.8514e-05	989.36	7.3279e-07	7.2886e-07	1111.5	206.22	7.4007e-07	7.3295e-07	223.14	70.718	49.11	16.265	7.4954e-07	22.127	147.020	450.475	193.704	101.888	154.764	145.850	101.829	108.944	97.951	196.573	108.651	115.750	115.739	122.839	276.502	122.505	-8191	255	
18980.170	1	1	0	0	0.11563	0.19428	0.15507	0.082708	0.082989	0.13652	0.29353	0.18749	0.3189	0.029277	0.39498	0.14457	0.32498	0.24154	0.24827	0.25437	-1.4042	-1.9271	-1.4833	-1.9188	-1.6	-1.5583	-2.4458	-1.6313	-1.6875	-1.8417	-1.4292	-1.8604	-1.7042	-1.4667	-1.9667	-1.625	289.498	359.096	105.073	385.784	366.464	442.745	449.938	436.751	105.401	346.447	376.989	366.123	267.346	97.337	174.398	348.937	0.0003046	0.00017931	7.6952e-05	1106.5	2.2993e-06	8.1189e-07	1207.3	226.2	2.4234e-06	2.7533e-06	289.52	79.37	63.405	18.073	4.248e-06	25.08	7.0726e-05	6.8398e-05	1.8949e-05	989.26	7.6556e-07	7.5422e-07	1115.3	207.59	7.8043e-07	7.7353e-07	225.37	71.239	49.892	16.436	8.0192e-07	22.445	131.857	417.147	162.473	101.913	219.065	214.362	101.661	109.215	268.067	216.521	108.617	115.832	115.781	123.157	195.984	122.175	-8191	255	
18980.266	1	1	0	0	0.21926	0.052388	0.23445	0.2298	0.28014	0.14482	0.20245	0.47838	0.23066	0.24682	0.15125	0.25985	0.0063059	0.22822	0.16648	0.32151	-1.2896	-1.9854	-1.2729	-1.6313	-1.6771	-1.7292	-2.1312	-1.7896	-1.6938	-2.0021	-1.3042	-2.0438	-1.7646	-1.5417	-1.9937	-1.7396	125.637	292.600	346.145	201.952	120.251	339.681	122.527	398.570	259.893	251.987	271.952	93.796	262.658	213.036	111.840	108.506	0.00037154	0.0002098	0.00010521	1111.1	2.8052e-06	1.9765e-06	1213.1	226.86	3.1767e-06	2.942e-06	288.77	79.589	63.917	18.075	3.731e-06	25.005	7.5251e-05	7.3039e-05	2.0584e-05	994.16	8.0983e-07	8.1231e-07	1118	208.55	8.2763e-07	8.2521e-07	225.22	71.503	50.031	16.507	8.1032e-07	22.428	137.573	228.891	189.046	101.848	179.182	211.583	101.784	109.147	275.555	193.237	108.873	115.492	115.593	123.383	271.231	122.360	-8191	255	
18980.361	1	1	0	0	0.087684	0.22621	0.088233	0.33982	0.24597	0.10454	0.25694	0.29925	0.11477	0.36507	0.20153	0.26	0.32287	0.24883	0.11134	0.53331	-1.1792	-1.8271	-1.4375	-1.9042	-1.9292	-1.5417	-1.9396	-1.675	-1.4042	-2.0042	-1.4771	-1.8188	-1.8	-1.5812	-1.8667	-1.6417	267.689	137.890	266.013	429.666	151.831	294.223	388.231	409.615	342.811	258.196	123.438	443.458	421.731	172.317	378.586	437.984	0.00035179	1.4099e-05	0.00012406	1111.5	3.1128e-06	1.5412e-06	1209.3	225.63	5.2324e-06	2.8235e-06	285.61	78.681	62.214	17.682	1.9598e-06	24.655	7.7102e-05	7.2025e-05	2.0221e-05	992.64	7.8184e-07	7.7595e-07	1113.4	207.3	7.4643e-07	7.3452e-07	222.74	70.74	49.195	16.207	7.517e-07	22.211	132.767	371.561	172.218	101.904	175.249	407.834	101.783	109.543	228.154	139.869	108.932	115.863	115.405	122.823	270.563	122.548	-8191	255	
18980.457	1	1	0	0	0.26555	0.163	0.15536	0.21001	0.11748	0.27684	0.22516	0.045729	0.17375	0.14859	0.097743	0.093806	0.16009	0.082893	0.10409	0.098874	-1.0208	-1.9604	-1.4292	-1.8062	-1.8813	-1.7542	-1.9521	-1.9354	-1.4062	-1.9396	-1.5729	-1.7521	-1.8167	-1.4292	-1.6854	-1.8021	380.918	372.921	404.228	381.316	395.389	375.842	368.654	300.556	439.399	98.197	391.211	432.046	94.065	293.456	196.813	419.021	0.00027364	0.00039187	9.1057e-05	1106.3	2.8315e-06	4.0596e-06	1202.5	225.34	2.7318e-06	3.463e-06	285.83	78.898	61.869	17.948	2.6819e-06	24.639	7.2081e-05	6.9858e-05	1.9328e-05	986.93	7.8664e-07	7.776e-07	1109.3	207.43	8.0084e-07	8.0091e-07	223.72	70.925	49.548	16.34	7.8692e-07	22.241	136.821	214.401	182.568	101.802	232.923	212.113	101.700	109.107	227.017	124.624	108.759	115.272	115.759	123.208	241.182	122.636	-8191	255	
18980.555	1	1	0	0	0.13495	0.115	0.29321	0.26538	0.23263	0.12235	0.15391	0.50437	0.39904	0.076438	0.13453	0.1361	0.040037	0.2018	0.3082	0.24947	-1.1896	-1.75	-1.6271	-1.6104	-1.7896	-1.4062	-1.9125	-1.9292	-1.5354	-1.9625	-1.5771	-1.65	-1.8479	-1.2458	-1.725	-1.8875	417.257	156.143	448.757	388.908	276.707	256.199	379.663	345.009	130.238	289.714	220.787	185.070	157.107	448.448	394.675	432.219	0.00038015	0.00034995	9.0859e-05	1102	2.5977e-06	2.0729e-06	1201.6	224.4	1.0648e-06	1.0174e-06	283.07	78.412	62.293	17.774	2.1441e-06	24.819	7.4111e-05	6.9251e-05	1.9533e-05	984.87	7.4764e-07	7.3894e-07	1108.7	206.17	7.3628e-07	7.1793e-07	222.47	70.63	48.936	16.224	7.415e-07	22.127	154.140	116.601	276.525	101.722	219.506	98.015	101.654	109.540	271.580	147.651	109.130	115.718	116.487	123.627	297.135	122.457	-8191	255	
18980.650	1	1	0	0	0.093034	0.13033	0.21386	0.19181	0.12488	0.17939	0.17757	0.31553	0.2444	0.27527	0.18458	0.23867	0.10764	0.18448	0.27197	0.18207	-0.94792	-1.9438	-1.6792	-1.7604	-1.8083	-1.5083	-1.9625	-1.8521	-1.2896	-1.8813	-1.6688	-1.4875	-2.0062	-1.7375	-1.6875	-1.8875	194.287	209.382	251.324	343.844	168.680	363.688	449.092	398.144	262.393	156.352	148.310	370.091	171.448	97.415	403.084	206.027	0.00041332	0.00022463	5.456e-05	1104.8	1.695e-06	1.8582e-06	1200.8	224.03	2.7516e-06	3.937e-06	286.32	79.52	62.948	17.851	4.7909e-07	24.674	7.1048e-05	6.7911e-05	1.8862e-05	985.1	7.4581e-07	7.4577e-07	1109	205.82	7.4899e-07	7.4341e-07	222.62	70.885	49.132	16.251	7.5138e-07	22.199	157.988	224.183	318.345	101.745	116.111	210.531	101.833	109.311	201.027	235.471	108.965	115.424	115.709	123.160	299.576	122.787	-8191	255	
18980.770	1	1	0	0	0.12739	0.21627	0.11693	0.13194	0.26795	0.14003	0.48592	0.13172	0.15282	0.023018	0.39841	0.31378	0.22557	0.22229	0.21584	0.10073	-1.0167	-1.7146	-1.6208	-1.4771	-1.9833	-1.6125	-1.7979	-1.9688	-1.3125	-1.8188	-1.6833	-1.4521	-1.9188	-1.4396	-1.4625	-1.7042	278.130	174.584	359.426	443.067	180.308	296.540	377.304	409.183	192.262	125.648	122.275	318.900	420.495	216.689	377.947	230.631	0.00043129	0.00023983	6.7193e-05	1103.2	2.3964e-06	1.042e-06	1204.7	225.45	1.4352e-06	1.9306e-06	287.42	79.161	63.239	17.673	8.6416e-07	24.631	7.2932e-05	6.8953e-05	1.9297e-05	985.65	7.8125e-07	7.7339e-07	1109.7	207.08	7.9333e-07	7.906e-07	224.37	71.046	49.806	16.264	8.25e-07	22.259	139.587	138.468	395.278	101.868	259.404	262.485	101.842	109.737	242.655	217.362	109.113	115.723	115.583	123.357	175.954	122.258	-8191	255	
18980.865	1	1	0	0	0.22137	0.075436	0.092778	0.23519	0.23707	0.15804	0.29618	0.1555	0.17226	0.2524	0.066107	0.14305	0.089882	0.10286	0.22977	0.22357	-1.0208	-1.7646	-1.725	-1.4833	-1.7667	-1.8813	-1.8167	-2.0146	-1.5375	-1.7875	-1.7396	-1.4542	-1.9146	-1.7354	-1.5667	-2	105.024	280.764	231.129	326.064	146.055	380.766	124.561	233.782	357.706	167.792	306.547	151.094	92.889	341.270	204.971	386.087	0.00033769	9.166e-05	0.00011738	1108.9	2.2502e-06	1.4363e-06	1206.3	225.97	3.8421e-06	1.2115e-06	285.48	79.466	62.111	17.873	2.3821e-06	24.87	7.9895e-05	7.7805e-05	2.2219e-05	991.59	8.6192e-07	8.6004e-07	1117.4	208.02	8.8399e-07	8.8885e-07	226.23	71.537	49.852	16.479	8.7855e-07	22.524	152.078	223.155	177.979	101.903	174.305	221.392	101.693	109.311	226.078	274.181	108.773	115.505	115.330	123.144	314.173	122.546	-8191	255	
18980.938	1	1	0	0	0.13867	0.041565	0.10955	0.13454	0.1894	0.26961	0.2173	0.10862	0.066063	0.094994	0.061261	0.13474	0.14069	0.19391	0.22875	0.074067	-0.83542	-1.8563	-1.7812	-1.5875	-1.9792	-1.65	-1.6896	-1.9521	-1.4937	-1.75	-1.9562	-1.3875	-1.9521	-1.725	-1.5229	-2.0938	122.346	449.623	256.481	145.823	427.434	238.452	374.525	361.983	272.193	444.073	420.737	160.110	246.151	400.315	169.758	392.080	0.00038398	0.00022723	6.9375e-05	1113.7	1.737e-06	1.9638e-06	1207.3	225.79	2.2681e-06	1.1549e-06	289.28	79.454	63.301	17.96	2.52e-06	24.878	8.4118e-05	7.927e-05	2.1967e-05	994.99	8.7045e-07	8.6072e-07	1116.4	208.2	8.7362e-07	8.7537e-07	226.82	71.431	50.15	16.458	8.7716e-07	22.431	129.785	428.818	158.390	101.915	210.213	195.410	101.532	109.389	224.132	133.549	109.000	115.725	115.494	123.068	259.084	122.428	-8191	255	
18981.035	1	1	0	0	0.21801	0.13382	0.10557	0.15466	0.15806	0.10948	0.39516	0.15549	0.11934	0.21541	0.16613	0.29814	0.061559	0.094564	0.15766	0.11839	-1.3292	-1.4646	-1.8333	-1.7188	-1.8917	-1.9062	-1.6917	-2.0646	-1.6646	-1.5083	-1.6542	-1.4958	-1.7313	-1.6875	-1.475	-2.0479	397.340	194.474	369.440	375.382	426.127	129.377	402.875	335.368	240.129	426.534	160.177	121.280	432.937	403.477	395.754	352.810	0.00040236	0.0001816	4.0615e-05	1104.1	9.9072e-07	1.2463e-06	1209.2	226.6	5.058e-06	1.2624e-06	290.09	79.243	63.638	17.865	3.4025e-06	24.673	8.1041e-05	7.921e-05	2.1882e-05	991.66	8.5433e-07	8.5686e-07	1113.6	208.27	8.6597e-07	8.5577e-07	225.97	71.279	50.159	16.389	8.6071e-07	22.363	149.750	284.051	142.160	101.822	178.197	120.966	101.873	109.239	207.343	163.722	109.086	115.572	116.087	122.909	153.810	122.467	-8191	255	
18981.154	1	1	0	0	0.2914	0.10388	0.40915	0.21382	0.15669	0.11038	0.32543	0.21945	0.19399	0.077543	0.068912	0.35437	0.24928	0.066115	0.11003	0.20972	-1.225	-1.4417	-2.0979	-1.3854	-1.6375	-1.8396	-1.7083	-2.0729	-1.4	-1.5021	-1.8896	-1.6354	-1.7292	-1.7812	-1.4062	-2.0687	206.343	396.590	233.899	350.422	131.838	243.586	343.960	136.694	322.142	419.142	192.087	337.769	216.202	299.734	260.651	382.110	0.00030122	0.0001624	7.6796e-05	1106.9	4.6942e-06	4.1948e-06	1209.5	225.33	7.7198e-07	3.164e-06	289.74	79.466	63.637	17.997	1.8744e-06	24.636	8.1393e-05	7.8011e-05	2.2028e-05	993.93	8.713e-07	8.6095e-07	1117.5	208.07	8.7063e-07	8.6676e-07	226.35	71.515	50.227	16.511	8.826e-07	22.383	134.989	125.499	396.928	101.761	147.469	379.402	101.809	109.533	426.248	180.444	108.827	115.226	116.310	123.133	173.662	122.601	-8191	255	
18981.250	1	1	0	0	0.1748	0.27562	0.12858	0.12152	0.15582	0.35231	0.26441	0.15885	0.070896	0.14687	0.16631	0.092676	0.17579	0.27606	0.17891	0.11383	-1.2479	-1.6	-1.925	-1.85	-1.475	-1.8104	-1.5396	-1.7792	-1.8604	-1.5771	-1.85	-1.2896	-1.6688	-1.7	-1.3937	-1.9167	318.180	120.825	430.310	337.022	189.740	279.224	417.073	205.750	368.871	430.876	370.085	372.110	112.326	158.765	252.463	132.419	0.00032739	0.00014231	1.9613e-05	1104	4.0668e-06	8.4598e-07	1206.7	226.38	1.8748e-06	2.7105e-06	286.64	79.888	63.076	17.936	4.331e-06	24.729	8.2942e-05	7.9771e-05	2.2397e-05	993.79	8.737e-07	8.8801e-07	1118.1	208.72	8.9174e-07	8.8393e-07	227.03	71.582	50.269	16.49	8.9479e-07	22.474	152.904	185.484	150.537	102.139	186.293	375.342	101.735	109.206	146.138	220.247	108.923	115.503	115.648	122.893	316.914	122.574	-8191	255	
18981.346	1	1	0	0	0.26367	0.19823	0.11103	0.17548	0.20796	0.18712	0.33315	0.18809	0.13675	0.10618	0.12487	0.2186	0.080272	0.27277	0.15767	0.24325	-1.3479	-1.4333	-1.7313	-1.5438	-1.775	-1.95	-1.5854	-1.875	-1.9125	-1.4021	-2.0312	-1.5812	-1.4458	-2.0854	-1.5021	-1.8042	405.287	348.120	375.441	143.067	256.245	424.898	424.683	426.809	277.403	448.116	132.071	386.312	435.355	216.057	122.903	243.361	0.0003287	0.00023816	6.1633e-05	1113.6	3.223e-06	3.5286e-06	1210.1	226.27	4.5143e-06	3.4611e-06	286.8	79.91	63.659	17.981	2.7323e-06	24.851	8.5846e-05	8.3548e-05	2.3351e-05	997.04	9.261e-07	9.1186e-07	1118.6	209.13	9.2365e-07	9.3412e-07	227.14	71.795	50.787	16.59	9.4217e-07	22.593	149.091	158.698	270.096	101.986	151.160	315.934	101.958	108.972	170.159	252.044	108.616	115.709	116.395	122.984	254.498	122.208	-8191	255	
18981.467	1	1	0	0	0.17079	0.24586	0.13648	0.28417	0.16244	0.037134	0.22781	0.13757	0.048153	0.056313	0.086734	0.15655	0.17896	0.12085	0.13086	0.21341	-1.4042	-1.4021	-2.075	-1.7771	-1.4833	-2.0708	-1.7125	-1.85	-1.7792	-1.4667	-1.9292	-1.5875	-1.3833	-1.8979	-1.5542	-1.6958	237.073	191.807	104.882	446.009	118.989	368.968	447.474	259.064	204.718	280.617	405.630	393.409	119.625	359.822	280.484	348.169	0.0003656	0.00016439	6.5195e-05	1114.7	1.4085e-06	1.7676e-06	1216.1	226.34	1.4656e-06	1.1181e-06	283.57	79.611	63.139	18.008	3.124e-06	24.923	8.8584e-05	8.7181e-05	2.3786e-05	1000.5	9.5965e-07	9.5692e-07	1123.8	209.46	9.6217e-07	9.5453e-07	228.29	72.043	51.008	16.646	9.4665e-07	22.64	147.444	117.217	443.964	101.731	137.637	137.841	101.606	109.282	93.718	253.091	109.223	115.948	115.070	122.879	240.303	122.336	-8191	255	
18981.562	1	1	0	0	0.049839	0.15086	0.14524	0.25299	0.20643	0.20365	0.31633	0.30966	0.21001	0.076881	0.29213	0.20556	0.21398	0.11999	0.19339	0.047609	-1.4771	-1.1938	-1.7375	-1.6104	-1.3958	-1.7	-1.6313	-1.6896	-1.8687	-1.4292	-1.8521	-1.6208	-1.3771	-1.9062	-1.5667	-1.4854	418.658	162.926	291.147	393.497	384.628	159.440	324.223	440.610	136.116	448.484	390.169	223.549	336.407	110.830	126.022	200.111	0.00036763	0.00032335	6.8368e-05	1116.1	1.8364e-06	7.4275e-07	1219.7	228.44	2.5802e-06	2.0967e-06	291.38	80.475	63.238	17.962	1.7644e-06	25.104	8.7988e-05	8.6029e-05	2.3714e-05	1002.5	9.217e-07	9.3121e-07	1126.5	210.79	9.3786e-07	9.2393e-07	228.88	72.275	50.679	16.617	9.1405e-07	22.669	154.445	113.009	190.865	101.694	267.835	137.750	101.692	109.334	110.393	137.192	109.539	115.758	115.552	123.178	144.827	122.519	-8191	255	
18981.635	1	1	0	0	0.18022	0.25326	0.16163	0.11347	0.12804	0.12246	0.16477	0.17588	0.0022533	0.35708	0.119	0.09703	0.2043	0.13785	0.056513	0.15825	-1.4333	-1.5292	-1.8104	-1.8208	-1.3292	-1.8021	-1.5812	-1.3771	-1.8583	-1.4562	-1.625	-1.8229	-1.3937	-1.9167	-1.8083	-1.5917	204.994	316.046	294.835	181.790	296.188	361.191	379.295	98.164	280.912	100.097	260.525	219.936	238.547	91.419	321.665	419.056	0.00030963	0.00022073	0.00010106	1112.1	2.5801e-06	2.6474e-06	1219.1	228.14	1.8743e-06	2.0822e-06	292.01	80.516	63.688	17.965	2.0786e-06	24.92	8.7039e-05	8.409e-05	2.3519e-05	1002.5	9.3334e-07	9.3178e-07	1126.6	211.5	9.4401e-07	9.3447e-07	230.07	72.353	50.935	16.673	9.3215e-07	22.673	143.998	177.842	117.699	101.719	207.444	233.301	101.903	109.091	254.829	224.506	108.714	115.255	115.729	122.918	167.108	122.440	-8191	255	
18981.756	1	1	0	0	0.31315	0.2237	0.12593	0.18843	0.2246	0.21893	0.26986	0.21053	0.2767	0.34279	0.083936	0.15612	0.063662	0.1135	0.189	0.20024	-1.5333	-1.4167	-1.7375	-1.8937	-1.2896	-1.7146	-1.9542	-1.4271	-1.8958	-1.5229	-1.5938	-1.8729	-1.4021	-1.9396	-1.6646	-1.4062	100.316	128.107	172.540	96.085	422.912	411.807	434.327	400.932	389.004	384.120	431.452	439.521	247.310	243.818	132.953	192.459	0.00040481	9.592e-05	2.3134e-05	1122	8.4453e-07	8.4233e-07	1218.8	229.58	3.5029e-06	2.9922e-06	293.37	80.079	63.999	18.253	2.4777e-06	24.943	8.78e-05	8.529e-05	2.3846e-05	1005	9.3709e-07	9.3093e-07	1127.6	211.7	9.2456e-07	9.3026e-07	230.16	72.341	50.923	16.709	9.2307e-07	22.655	141.599	414.662	444.056	101.624	102.359	268.333	101.855	109.308	253.143	219.514	109.477	115.790	115.371	123.143	248.232	122.861	-8191	255	
18981.850	1	1	0	0	0.06455	0.42501	0.25013	0.46256	0.15459	0.11048	0.21429	0.38212	0.17313	0.14337	0.08446	0.11485	0.27422	0.067187	0.13437	0.12407	-1.3729	-1.5021	-1.7646	-1.9583	-1.4396	-1.8229	-1.9062	-1.4521	-2.0229	-1.5562	-1.5979	-1.9083	-1.55	-1.8563	-1.7646	-1.6333	347.614	339.017	412.234	444.694	436.371	176.459	332.764	377.636	200.389	140.202	297.325	277.722	132.596	438.255	231.866	211.976	0.0003154	0.00014752	2.1009e-05	1125.4	3.3122e-06	5.796e-06	1217.3	229.78	2.5782e-06	3.5561e-06	291.23	79.959	64.041	18.07	4.9634e-06	25.067	8.6821e-05	8.5086e-05	2.3659e-05	1004.8	9.496e-07	9.3329e-07	1128.9	212.2	9.5779e-07	9.3526e-07	230.12	72.403	51.151	16.691	9.5217e-07	22.74	153.850	194.936	258.591	101.668	196.320	217.920	101.622	109.429	207.915	191.194	109.181	115.298	115.718	122.835	213.618	122.745	-8191	255	
18981.945	1	1	0	0	0.20097	0.30756	0.13552	0.20868	0.24761	0.13859	0.078406	0.30705	0.036252	0.12144	0.14817	0.093722	0.17419	0.14405	0.22628	0.029082	-1.4792	-1.6292	-1.5042	-1.8958	-1.4771	-1.7188	-1.95	-1.5438	-1.9417	-1.5583	-1.3896	-1.8417	-1.5979	-1.7354	-1.9708	-1.5354	280.173	118.220	273.554	450.117	186.624	100.853	314.066	362.814	307.019	260.598	279.210	421.020	253.619	334.744	323.594	371.403	0.00037901	0.00039067	4.1495e-05	1125.3	1.6425e-06	1.2854e-06	1223.9	229.44	2.1469e-06	1.6932e-06	289.09	80.06	64.161	18.128	3.0419e-06	24.776	8.9257e-05	8.5283e-05	2.3927e-05	1007.4	9.5086e-07	9.2797e-07	1129.2	211.97	9.3566e-07	9.441e-07	230.91	72.287	51.12	16.718	9.477e-07	22.686	141.895	260.399	338.596	101.792	240.751	105.650	101.603	109.239	206.662	137.053	109.220	115.362	115.371	122.928	264.944	122.510	-8191	255	
18982.066	1	1	0	0	0.036543	0.20409	0.17551	0.1278	0.20992	0.26015	0.21746	0.050178	0.083848	0.14373	0.081335	0.19504	0.17899	0.19205	0.30612	0.19746	-1.2542	-1.8896	-1.525	-2.1021	-1.5167	-1.7792	-2.05	-1.3396	-1.8583	-1.6104	-1.45	-2.0625	-1.4292	-1.6229	-1.7354	-1.4896	244.290	125.510	421.331	423.269	116.053	268.899	384.636	319.399	444.377	437.369	105.518	380.239	210.062	423.892	249.350	345.729	0.00038983	0.00025637	9.0711e-05	1125.6	3.2189e-06	4.4509e-07	1220.2	230.97	2.3071e-06	9.9173e-07	291.9	80.754	64.133	18.054	1.1344e-06	25.21	9.052e-05	8.7193e-05	2.436e-05	1006.1	9.5824e-07	9.5089e-07	1129.2	212.86	9.684e-07	9.542e-07	231.79	72.794	51.383	16.743	9.7289e-07	22.849	140.844	135.552	220.352	101.665	96.902	349.475	101.806	108.997	200.894	136.160	109.265	115.384	115.917	123.011	223.851	122.683	-8191	255	
18982.162	1	1	0	0	0.19823	0.13607	0.28173	0.075754	0.29578	0.28843	0.17878	0.2092	0.20707	0.020773	0.11188	0.10496	0.061537	0.1957	0.19176	0.1945	-1.1812	-1.5792	-1.5333	-1.8917	-1.5562	-1.7417	-2.0792	-1.4792	-1.6604	-1.8646	-1.4646	-1.9354	-1.6917	-1.6896	-1.8687	-1.45	301.270	236.753	407.846	307.011	394.440	214.955	348.266	399.154	241.310	155.208	393.299	439.085	309.113	311.168	197.792	126.910	0.00041379	0.00017168	0.00017591	1120.8	8.8298e-07	1.4957e-06	1219.7	231.39	4.5218e-06	3.0712e-06	295.03	79.915	64.014	18.29	4.4889e-06	24.978	9.0694e-05	8.8103e-05	2.4569e-05	1007.9	9.8066e-07	9.7399e-07	1130.6	213.49	9.8376e-07	9.7266e-07	232.68	72.656	51.451	16.838	9.9495e-07	22.851	146.231	321.252	183.569	101.703	104.883	225.952	101.800	109.304	195.448	165.282	109.123	115.429	115.760	123.135	224.027	122.248	-8191	255	
18982.234	1	1	0	0	0.15256	0.064551	0.084005	0.10054	0.28532	0.070973	0.11028	0.28654	0.16629	0.12105	0.06901	0.31067	0.2568	0.26356	0.16879	0.2467	-1.125	-1.6604	-1.4667	-2.2583	-1.725	-1.5917	-2.1625	-1.6146	-1.8687	-1.7083	-1.475	-1.9333	-1.8021	-1.6896	-1.9146	-1.5708	255.684	425.188	223.216	111.306	241.335	241.076	197.530	442.875	151.380	384.420	211.841	150.175	368.317	150.159	174.516	175.155	0.0004043	0.00016839	4.1781e-05	1124.2	3.3765e-06	8.9828e-07	1226.9	231.37	1.6946e-06	1.3091e-06	289.52	80.443	64.431	18.14	1.9397e-06	25.203	9.3618e-05	9.0659e-05	2.5456e-05	1009.3	1.0028e-06	9.8097e-07	1131.1	213.91	1.0145e-06	1.0041e-06	231.81	72.913	51.599	16.809	9.9971e-07	22.872	144.316	126.851	314.892	101.969	239.731	171.174	101.760	109.359	209.833	207.989	108.891	115.202	115.445	123.169	136.424	122.238	-8191	255	
18982.330	1	1	0	0	0.23847	0.1286	0.071393	0.19391	0.18366	0.099488	0.19342	0.069358	0.074656	0.12715	0.15478	0.072065	0.076911	0.10649	0.11609	0.12052	-1.4583	-1.8188	-1.4208	-2.1646	-1.5938	-1.5042	-2.0104	-1.6104	-1.4896	-2.0333	-1.5333	-1.9792	-1.6771	-1.3792	-2.0604	-1.5958	193.974	436.668	328.859	314.397	338.824	92.505	342.424	137.869	366.296	203.882	110.649	102.728	435.374	284.854	148.952	110.096	0.00036075	0.00023993	0.00010666	1125.8	3.4367e-06	8.9345e-07	1222.8	230.73	4.5072e-06	9.2877e-07	293.26	80.351	64.418	18.265	3.3113e-06	25.209	9.3592e-05	9.0141e-05	2.4997e-05	1009.2	1.0004e-06	9.7863e-07	1131.1	213.8	9.843e-07	9.7805e-07	232.87	72.863	51.827	16.847	9.9852e-07	22.911	146.627	207.897	105.357	101.722	183.192	258.222	101.621	109.235	218.279	390.325	109.408	115.690	115.485	123.426	398.138	122.516	-8191	255	
18982.451	1	1	0	0	0.19933	0.091596	0.085081	0.1969	0.1738	0.26085	0.16864	0.24855	0.091077	0.19555	0.14093	0.18491	0.038721	0.26041	0.23704	0.098174	-1.2667	-2.0125	-1.5917	-1.8833	-1.9208	-1.3229	-2.0354	-1.6917	-1.5	-1.8958	-1.5042	-1.7229	-1.95	-1.4396	-1.9813	-1.5	202.632	425.125	351.414	129.003	428.432	174.533	449.142	340.083	225.776	409.647	422.451	265.284	300.543	423.358	318.057	187.253	0.00033547	0.00023673	0.00010071	1123.8	1.3448e-06	2.1879e-06	1225.6	231.01	1.3899e-06	3.1872e-06	295.52	81.428	63.658	18.287	1.4936e-06	25.125	9.3923e-05	9.2352e-05	2.565e-05	1008.1	1.0142e-06	1.0068e-06	1131.8	214.12	1.0064e-06	9.9923e-07	232.82	73.267	51.698	16.895	9.8759e-07	22.896	136.960	119.378	172.110	101.973	213.188	213.532	101.704	109.252	289.430	216.416	109.271	115.386	115.354	123.030	312.108	122.413	-8191	255	
18982.549	1	1	0	0	0.14981	0.14514	0.17259	0.36458	0.089161	0.11603	0.13688	0.21139	0.25438	0.21096	0.26272	0.080554	0.17043	0.30952	0.11995	0.11239	-0.89583	-2.1208	-1.3146	-1.7729	-1.6333	-1.3729	-1.8479	-1.7542	-1.4708	-1.9354	-1.6854	-1.7667	-1.9083	-1.3375	-1.9292	-1.7833	411.543	357.618	306.997	307.714	260.191	410.319	443.251	220.680	417.596	289.019	395.264	208.793	336.915	98.979	291.807	300.790	0.0003815	0.00022333	4.3766e-05	1123.8	5.0816e-07	1.1782e-06	1229.1	230.93	4.4883e-06	1.9277e-06	295	80.778	64.298	18.182	5.1238e-06	25.226	9.3575e-05	9.0122e-05	2.5052e-05	1008.3	9.9951e-07	9.9103e-07	1133.2	213.9	1.0027e-06	9.9199e-07	233.15	73.055	51.628	16.861	9.9139e-07	22.896	147.779	97.475	203.425	101.703	128.174	105.986	101.805	109.048	209.646	138.199	109.454	115.531	115.782	122.880	194.570	122.355	-8191	255	
18982.645	1	1	0	0	0.10164	0.21738	0.31818	0.17672	0.19927	0.32224	0.38362	0.28801	0.30991	0.10974	0.21262	0.22859	0.28547	0.0039871	0.056198	0.063547	-0.90833	-1.8229	-1.4625	-1.9062	-1.8333	-1.5688	-1.9021	-1.8417	-1.5562	-1.8083	-1.6313	-1.4854	-1.9062	-1.5083	-1.8229	-1.8271	343.444	278.473	358.672	433.888	357.425	149.225	361.328	390.759	190.914	110.313	307.406	409.968	341.576	165.683	389.931	415.954	0.00041223	5.2741e-05	7.1987e-05	1122.4	4.9188e-06	2.5402e-06	1223	231.29	3.2841e-06	2.332e-06	291.94	80.098	64.276	18.413	1.6701e-06	25.327	9.2156e-05	8.9314e-05	2.4669e-05	1007.5	9.7452e-07	9.5436e-07	1133.3	213.74	9.6661e-07	9.6339e-07	231.91	72.69	51.44	16.853	9.406e-07	22.917	149.521	137.325	222.060	101.822	199.301	232.713	101.854	109.143	163.023	174.954	108.578	115.587	116.113	122.929	202.502	122.255	-8191	255	
18982.740	1	1	0	0	0.24365	0.063728	0.23555	0.35665	0.18462	0.26422	0.16171	0.30952	0.21695	0.35247	0.15053	0.34476	0.16713	0.073043	0.31745	0.083816	-0.85833	-1.9771	-1.6792	-1.5104	-2.0062	-1.3521	-1.9333	-1.8979	-1.3958	-1.8229	-1.6396	-1.6333	-2.0104	-1.5438	-1.6417	-1.9458	133.892	263.296	432.457	373.985	194.618	152.029	417.120	376.335	366.087	331.561	272.025	327.695	438.748	407.009	261.899	401.503	0.00029174	0.00015619	1.595e-05	1120.8	2.126e-07	3.4627e-07	1220.3	230.74	3.3537e-06	3.8805e-06	292.58	80.671	64.007	18.199	4.2698e-06	25.062	8.7807e-05	8.5195e-05	2.3743e-05	1004.8	9.5281e-07	9.3836e-07	1129.3	213.3	9.5665e-07	9.6767e-07	231.23	72.786	51.431	16.813	9.5285e-07	22.871	146.516	149.122	265.700	101.485	382.810	327.109	101.590	109.029	200.379	229.501	109.237	115.429	115.618	123.289	263.272	122.444	-8191	255	
18982.836	1	1	0	0	0.2891	0.022131	0.13782	0.47956	0.17744	0.16828	0.38827	0.35094	0.22378	0.081655	0.045297	0.18082	0.14164	0.14492	0.077467	0.23318	-0.80625	-1.8521	-1.7646	-1.3625	-1.9771	-1.2812	-1.7437	-1.8	-1.3271	-1.7229	-1.7687	-1.6917	-1.9521	-1.5021	-1.4542	-1.8917	239.974	434.672	251.219	123.266	356.402	421.169	401.724	359.385	298.479	352.610	287.337	131.501	431.755	352.821	254.591	331.579	0.00029108	0.00012062	0.00010345	1119	6.1168e-07	9.7099e-07	1218.2	231.25	5.4063e-07	8.1965e-07	290.48	80.414	64.369	18.241	2.4471e-06	25.101	9.0325e-05	8.7568e-05	2.4043e-05	1005.4	9.7367e-07	9.6359e-07	1128.9	213.49	9.7168e-07	9.5868e-07	231.9	72.83	51.456	16.803	9.9297e-07	22.934	156.730	160.300	436.473	102.014	179.596	278.108	101.716	109.217	165.820	252.240	108.969	115.533	114.828	122.870	342.446	122.555	-8191	255	
18982.932	1	1	0	0	0.14766	0.23177	0.2451	0.20531	0.13625	0.083744	0.34541	0.28262	0.15026	0.14747	0.073173	0.020273	0.22618	0.20483	0.21981	0.071512	-0.98333	-1.7292	-1.875	-1.5146	-1.9333	-1.5083	-1.8125	-1.8854	-1.45	-1.8083	-1.8146	-1.4896	-1.9917	-1.4521	-1.7625	-1.8417	368.512	259.028	443.972	397.230	253.744	414.155	386.176	353.215	122.720	375.178	367.823	411.915	159.854	387.041	200.419	290.404	0.00037996	0.00031596	0.00011405	1120.5	8.6553e-07	4.674e-06	1215.9	231.38	4.9369e-06	3.378e-06	291.77	80.329	64.396	18.09	1.1491e-06	25.056	9.1994e-05	9.0702e-05	2.5087e-05	1009.9	9.8974e-07	9.8514e-07	1130.3	213.93	1.0009e-06	1.0069e-06	232.18	72.95	51.658	16.817	1.0031e-06	22.925	149.265	182.136	129.760	101.849	135.100	299.461	101.821	109.377	236.334	197.218	108.959	115.677	115.891	122.950	216.268	122.673	-8191	255	
18983.027	1	1	0	0	0.21553	0.16514	0.10885	0.33296	0.27506	0.12231	0.24651	0.32678	0.24519	0.071509	0.21297	0.1425	0.17515	0.13046	0.22261	0.19697	-1.0688	-1.7896	-1.7292	-1.5521	-1.8458	-1.8583	-1.7812	-2.0187	-1.4521	-1.8521	-1.8271	-1.3792	-1.9875	-1.6083	-1.6625	-1.9979	292.336	182.026	292.171	428.591	357.196	444.639	337.892	162.759	417.451	314.533	117.948	415.381	376.907	245.824	425.196	104.645	0.00034033	0.00024218	5.6984e-05	1123.9	3.8707e-06	1.6903e-06	1221.5	229.98	2.2306e-06	4.2009e-06	294.75	80.101	63.553	18.181	2.0902e-06	25.06	9.3278e-05	9.1387e-05	2.5099e-05	1008.3	1.0019e-06	9.9953e-07	1131.5	214.07	1.0127e-06	9.8574e-07	233.4	72.873	51.669	16.864	1.0245e-06	22.979	143.304	118.448	128.492	101.603	171.472	149.911	101.872	109.093	188.894	127.815	109.129	115.193	115.477	122.894	375.435	122.795	-8191	255	
18983.146	1	1	0	0	0.22533	0.21729	0.23074	0.42326	0.061451	0.052752	0.34287	0.010224	0.20203	0.21987	0.076392	0.094337	0.10915	0.40428	0.21846	0.062874	-1.25	-1.7417	-1.925	-1.5229	-1.9562	-1.7687	-1.7979	-2.0292	-1.6292	-1.7333	-1.9771	-1.6333	-1.9271	-1.8417	-1.6042	-2.0854	428.247	427.191	411.454	416.324	203.523	141.859	422.501	209.482	381.507	404.052	127.756	201.967	113.126	394.914	251.280	353.480	0.0002908	0.00040948	0.0001364	1126	1.6017e-06	2.9636e-06	1222.1	231.8	1.9919e-06	4.7856e-06	292.92	80.375	63.817	18.279	1.4026e-06	25.338	9.557e-05	9.1861e-05	2.5746e-05	1008.7	1.0203e-06	1.0093e-06	1131.1	214.38	1.0255e-06	1.0116e-06	233.68	72.987	51.712	16.882	1.0074e-06	23.023	130.085	168.329	181.851	101.772	246.979	289.561	101.565	109.251	158.721	151.763	108.768	115.514	115.802	122.506	442.478	122.308	-8191	255	
18983.242	1	1	0	0	0.11466	0.08487	0.16168	0.31481	0.14843	0.19399	0.34291	0.07089	0.15495	0.030681	0.098639	0.26378	0.17915	0.24033	0.24263	0.18056	-1.0771	-1.5812	-1.8854	-1.475	-1.7604	-1.9354	-1.5125	-1.9917	-1.4021	-1.6021	-2.0167	-1.5063	-1.85	-1.9438	-1.0771	-2.0521	209.310	95.486	257.057	438.958	412.752	228.101	355.447	241.802	207.399	184.912	322.959	384.575	332.571	118.267	279.190	324.040	0.00038008	0.00023801	7.0648e-05	1123.2	1.412e-06	7.2156e-07	1219.6	232.09	2.2655e-06	2.161e-06	293.91	80.494	64.524	18.268	1.3661e-06	25.175	9.4085e-05	9.1998e-05	2.561e-05	1007.1	1.0201e-06	1.001e-06	1131.1	214.21	1.0184e-06	1.0004e-06	232.65	72.864	51.705	16.859	1.0106e-06	22.942	156.683	210.646	174.458	101.689	218.132	304.571	101.637	109.252	267.823	178.769	109.111	115.572	115.420	123.146	102.553	122.678	-8191	255	
18983.340	1	1	0	0	0.092945	0.17498	0.10347	0.067353	0.18623	0.30432	0.2114	0.11761	0.24596	0.22266	0.10804	0.16651	0.077204	0.048494	0.15742	0.11896	-1.225	-1.525	-1.9479	-1.575	-1.5458	-1.8854	-1.4979	-1.9625	-1.8042	-1.6042	-2.0771	-1.3604	-1.5083	-1.9021	-1.3438	-1.6979	324.629	263.548	222.889	295.995	428.985	134.813	335.418	431.825	327.168	178.253	157.197	94.420	201.061	327.154	327.705	383.008	0.00035958	0.00019974	0.0002428	1121.5	2.1965e-06	4.5197e-07	1218.8	232.26	3.0293e-06	1.0421e-06	292.42	79.906	64.191	18.233	1.4057e-06	25.323	9.3092e-05	9.1121e-05	2.557e-05	1007.8	1.0024e-06	9.8497e-07	1130.8	214.3	9.999e-07	9.8963e-07	232.23	72.795	51.466	16.836	9.8888e-07	22.904	144.819	124.459	156.990	101.701	234.072	152.950	101.805	109.120	239.256	230.705	109.355	115.241	115.496	123.150	221.945	122.643	-8191	255	
18983.436	1	1	0	0	0.28792	0.20572	0.063408	0.43258	0.17377	0.14769	0.26961	0.15744	0.10386	0.022354	0.22321	0.22808	0.32573	0.27862	0.12003	0.21195	-1.1542	-1.3667	-1.8937	-1.5812	-1.7188	-2.0187	-1.6583	-1.9312	-1.6958	-1.4583	-2.0479	-1.4917	-1.6146	-1.9896	-1.375	-1.7167	202.084	361.806	108.145	414.384	121.736	96.034	419.108	271.126	173.067	374.427	247.823	200.488	447.313	365.962	230.302	305.691	0.0004154	0.00054814	9.6189e-05	1122.5	3.8179e-06	2.8711e-06	1221.5	231.37	4.0716e-06	3.0409e-06	293.07	80.482	63.958	18.17	1.7957e-06	25.174	9.2228e-05	8.9886e-05	2.4925e-05	1007.2	9.8396e-07	9.5857e-07	1128.6	213.47	9.8006e-07	9.6991e-07	232.21	72.8	51.383	16.831	9.789e-07	22.939	149.315	433.452	131.038	101.571	255.428	397.731	101.764	109.269	224.781	227.257	109.013	115.763	115.432	122.783	331.805	122.915	-8191	255	
18983.531	1	1	0	0	0.24662	0.24299	0.12429	0.32254	0.20732	0.059861	0.088027	0.13	0.057914	0.41264	0.063108	0.34942	0.13881	0.36351	0.42878	0.16899	-1.3771	-1.3042	-1.7354	-1.7563	-1.4688	-1.7896	-1.6437	-1.7833	-1.8042	-1.2667	-1.7708	-1.7375	-1.5021	-1.9312	-1.4646	-1.8354	114.921	440.556	356.663	399.701	111.129	241.487	350.395	146.742	312.552	381.205	163.722	389.181	434.704	96.072	228.781	383.424	0.0003952	7.7847e-05	6.8056e-05	1120.7	1.7031e-06	2.1647e-06	1223.6	231.01	4.93e-06	4.7638e-06	290.9	80.521	63.146	18.192	2.8308e-06	25.19	9.2375e-05	8.9915e-05	2.5045e-05	1007.2	9.9494e-07	9.8811e-07	1130.1	213.64	9.8977e-07	9.8463e-07	231.51	72.807	51.427	16.793	9.792e-07	22.962	134.386	305.068	140.585	101.654	151.977	167.887	101.808	109.074	202.340	211.363	109.266	115.386	115.300	122.889	215.174	122.689	-8191	255	
18983.629	1	1	0	0	0.063455	0.14181	0.23455	0.19216	0.26929	0.3648	0.36081	0.1693	0.17027	0.14018	0.12966	0.18212	0.15624	0.31145	0.023684	0.36599	-1.2708	-1.2083	-1.5375	-1.8104	-1.3	-1.9542	-1.6063	-1.7417	-1.9521	-1.3271	-1.7958	-1.6771	-1.4688	-1.875	-1.6333	-1.6375	154.406	306.828	161.324	441.156	296.717	203.300	400.391	414.668	219.975	349.659	421.552	322.264	132.046	113.995	101.663	176.872	0.00030711	0.00030223	0.00012397	1122.4	6.2443e-07	2.9538e-06	1222.6	231.31	3.1839e-06	1.0811e-06	293.56	80.79	64.13	18.165	3.8658e-06	25.083	9.0896e-05	8.8014e-05	2.4419e-05	1006.1	9.5816e-07	9.4419e-07	1129.5	213.44	9.5154e-07	9.4126e-07	231.85	72.625	51.238	16.751	9.2895e-07	22.835	148.847	187.389	184.178	102.003	274.239	213.351	101.688	109.240	222.408	207.447	108.765	115.513	115.777	122.944	282.750	122.372	-8191	255	
18983.748	1	1	0	0	0.081506	0.29532	0.13917	0.33161	0.18445	0.27446	0.17779	0.18567	0.35588	0.13044	0.12993	0.20135	0.1598	0.027628	0.15145	0.28044	-1.4583	-1.2333	-1.8167	-1.7375	-1.5979	-1.8917	-1.6771	-1.7979	-1.85	-1.4792	-1.8271	-1.8333	-1.4354	-1.95	-1.5375	-1.475	449.947	415.436	144.713	116.349	388.102	435.805	101.481	362.334	147.347	292.914	415.506	385.234	147.250	328.433	150.974	412.897	0.00036382	0.00011837	4.2883e-05	1119	3.1117e-06	2.7674e-06	1221.5	230.8	2.7069e-06	2.5546e-06	291.93	80.211	63.359	18.077	3.8592e-06	25.13	8.7228e-05	8.4817e-05	2.376e-05	1003.9	9.373e-07	9.284e-07	1128.2	213.18	9.4112e-07	9.244e-07	230.89	72.435	51.021	16.748	9.3603e-07	22.79	149.943	173.613	106.934	101.826	181.761	297.971	101.544	109.333	212.992	302.827	108.744	115.950	115.151	123.115	301.169	122.450	-8191	255	
18983.844	1	1	0	0	0.082794	0.26328	0.11695	0.29644	0.05768	0.25144	0.17869	0.20331	0.33199	0.24399	0.20909	0.40868	0.089382	0.20144	0.15713	0.050597	-1.5146	-1.45	-1.6792	-1.8917	-1.4771	-1.9021	-1.875	-1.5771	-1.9375	-1.3083	-1.4396	-1.7354	-1.2542	-1.8604	-1.6729	-1.55	151.865	290.893	331.217	378.810	432.578	402.616	392.497	442.946	329.454	397.397	175.383	114.566	170.540	390.497	381.907	177.289	0.00036129	0.00023655	5.4951e-05	1121	4.661e-06	1.0823e-06	1219.8	232.08	8.7184e-07	1.3703e-06	288.97	80.364	64.297	18.187	3.0361e-07	25.117	8.8426e-05	8.616e-05	2.3767e-05	1004.4	9.4697e-07	9.2492e-07	1127.2	213.65	9.3672e-07	9.3326e-07	230.86	72.494	51.444	16.829	9.475e-07	22.851	143.350	439.623	129.328	101.899	193.678	241.316	101.430	109.566	149.464	108.940	109.000	115.210	115.756	122.998	130.414	122.543	-8191	255	
18983.939	1	1	0	0	0.19264	0.20655	0.090445	0.072985	0.16766	0.10558	0.12118	0.10188	0.39336	0.27093	0.26911	0.18868	0.01878	0.1333	0.077092	0.055101	-1.4458	-1.5396	-1.6396	-2.0958	-1.4604	-1.6771	-1.8229	-1.5083	-1.9417	-1.5604	-1.6083	-1.7771	-1.5167	-1.7292	-1.425	-1.3583	168.576	384.420	409.469	145.632	393.037	164.650	397.378	448.025	190.549	249.107	101.250	111.331	246.378	444.165	335.908	104.932	0.00039985	0.00013712	7.1355e-05	1119.1	2.1717e-06	2.9743e-06	1218.1	232.11	4.1915e-06	1.9161e-06	291.01	80.048	64.626	18.376	4.9754e-06	25.182	9.145e-05	8.7622e-05	2.4356e-05	1006.1	9.8597e-07	9.7366e-07	1129.1	213.85	9.814e-07	9.6975e-07	231.77	72.437	51.447	16.827	9.7972e-07	22.881	153.529	125.065	182.030	101.858	226.564	293.389	101.800	109.350	246.592	279.984	109.035	115.791	115.569	122.965	295.715	122.514	-8191	255	
18984.035	1	1	0	0	0.10594	0.22851	0.063316	0.26963	0.16538	0.22833	0.2527	0.34763	0.27421	0.14617	0.10775	0.1161	0.30044	0.10269	0.15385	0.18815	-1.5354	-1.7125	-1.6542	-2.1896	-1.4917	-1.7979	-1.8479	-1.4188	-2.0521	-1.6167	-1.5979	-2.0812	-1.6437	-1.6812	-1.7854	-1.5417	98.950	151.575	434.862	408.865	142.501	451.122	384.014	405.211	109.411	287.948	237.705	392.367	267.319	198.314	432.123	126.590	0.00039872	6.9713e-05	7.2874e-05	1121.2	1.9217e-06	2.1666e-06	1223.4	230.91	1.9299e-06	1.4219e-06	290.93	80.521	63.826	18.216	9.0412e-07	25.202	9.2398e-05	8.9489e-05	2.5066e-05	1007.8	9.9307e-07	9.7762e-07	1132.8	213.92	9.9866e-07	9.9348e-07	232.52	72.691	51.695	16.863	1.0224e-06	22.951	155.676	241.984	163.460	101.775	194.049	142.738	101.801	109.290	232.547	133.286	109.385	115.573	115.451	122.910	272.923	122.387	-8191	255	
18984.109	1	1	0	0	0.21272	0.4754	0.23217	0.15946	0.054934	0.16677	0.14493	0.029332	0.13176	0.31218	0.20348	0.26835	0.039881	0.14952	0.15917	0.29058	-1.4917	-1.6812	-1.4479	-2.1333	-1.5458	-1.7417	-2.1729	-1.3813	-1.8354	-1.6812	-1.3667	-1.9604	-1.5104	-1.7667	-1.9333	-1.3958	133.902	196.498	285.621	294.086	331.304	99.250	205.810	224.303	317.791	198.077	124.142	147.928	352.472	186.572	243.690	162.010	0.00037941	0.00015349	6.4163e-05	1117.1	3.6756e-06	1.8828e-06	1227.2	232.18	2.6024e-06	3.8525e-06	290.17	80.514	63.886	18.27	5.3556e-06	25.221	9.5799e-05	9.2994e-05	2.5842e-05	1007.4	1.0118e-06	9.9812e-07	1131.2	213.94	1.0018e-06	9.8882e-07	232.36	72.895	51.718	16.855	1.0078e-06	22.993	133.361	199.064	130.938	101.883	117.177	100.557	101.775	109.062	170.311	174.760	109.922	115.708	115.574	123.202	238.664	122.215	-8191	255	
18984.229	1	1	0	0	0.031651	0.20885	0.10671	0.055331	0.22311	0.14056	0.12548	0.25862	0.060017	0.22406	0.24169	0.30076	0.29955	0.25863	0.31569	0.18394	-1.4146	-1.725	-1.4333	-2.0292	-1.6187	-1.7062	-2.0208	-1.5354	-1.7313	-1.9417	-1.6646	-1.9771	-1.5417	-1.7583	-1.7938	-1.4375	396.767	335.377	264.996	419.694	238.109	153.966	130.015	427.828	255.259	362.102	134.524	376.874	375.522	367.398	378.919	126.904	0.00040606	0.00022751	9.2364e-05	1119.6	1.4967e-06	2.3863e-06	1218.9	231.11	3.0132e-06	4.6673e-06	291.79	80.493	64.401	18.124	2.1945e-06	25.232	9.398e-05	9.1241e-05	2.5419e-05	1006.6	1.005e-06	9.9854e-07	1130.6	213.72	1.0032e-06	9.9294e-07	232.09	72.822	51.623	16.875	1.0206e-06	22.982	137.842	124.772	339.449	101.690	126.772	291.105	101.868	108.971	205.274	422.086	108.936	115.505	115.576	123.094	267.917	122.356	-8191	255	
18984.324	1	1	0	0	0.14073	0.38097	0.17992	0.046746	0.19452	0.22101	0.0729	0.14234	0.15534	0.20041	0.10537	0.17191	0.34294	0.015786	0.090329	0.25787	-1.2625	-1.8333	-1.2458	-1.8083	-1.8	-1.6021	-2.0146	-1.5063	-1.7292	-1.8896	-1.4542	-1.9	-1.7646	-1.4229	-2.0208	-1.6417	120.620	240.265	445.600	377.132	260.204	344.454	439.614	177.394	392.896	140.784	212.215	369.014	432.730	277.570	134.643	374.915	0.0004259	0.00020148	4.2546e-05	1122.7	1.6369e-06	1.3314e-06	1221	230.74	8.8528e-07	2.0932e-06	293.17	80.173	64.137	18.221	2.8858e-06	25.129	9.5897e-05	9.3344e-05	2.5999e-05	1008.1	1.0419e-06	1.0308e-06	1129.4	214.05	1.0435e-06	1.0597e-06	233.53	73.075	52.06	16.916	1.052e-06	22.986	152.769	157.510	96.424	101.928	126.791	382.021	101.773	109.266	123.122	366.734	109.078	115.607	115.634	122.867	380.986	122.404	-8191	255	
18984.420	1	1	0	0	0.14237	0.20549	0.11769	0.05457	0.2011	0.11423	0.31418	0.18998	0.31184	0.31293	0.21461	0.28562	0.30129	0.19039	0.20878	0.10758	-1.3979	-1.8458	-1.3	-1.7646	-1.3896	-1.225	-2.0229	-1.6021	-1.5458	-1.6542	-1.4167	-1.8292	-1.5688	-1.325	-1.7625	-1.5938	424.804	396.676	250.454	356.017	397.384	293.061	410.311	229.360	310.815	208.459	293.029	406.963	262.520	448.321	130.731	152.433	0.00034847	0.00034607	4.2337e-05	1118.6	2.0637e-06	1.3553e-06	1222.8	231.17	3.9804e-06	3.5085e-06	294.23	80.703	63.404	18.219	3.6588e-06	25.255	0.00010082	9.8041e-05	2.7149e-05	1008.3	1.0652e-06	1.0588e-06	1131.5	214.32	1.0579e-06	1.0543e-06	234	73.088	51.744	16.94	1.0617e-06	23.077	141.634	185.825	271.278	101.820	160.798	232.265	101.675	109.150	212.306	275.493	109.046	114.998	115.094	123.099	227.316	122.443	-8191	255	
18984.539	1	1	0	0	0.17125	0.086271	0.19834	0.13859	0.19339	0.22491	0.36742	0.23462	0.11182	0.25207	0.27123	0.21775	0.14475	0.28266	0.070987	0.1638	-0.88125	-1.8375	-1.2896	-1.9042	-1.5729	-1.4667	-2.0479	-1.6688	-1.5271	-1.9646	-1.4438	-1.7313	-1.6437	-1.5125	-1.7292	-1.8021	131.111	293.509	201.623	374.394	322.290	302.035	422.036	324.753	263.664	449.679	215.305	310.592	360.310	358.370	122.544	209.444	0.00031881	0.00023975	0.00017255	1124.2	6.4066e-07	1.5731e-06	1216.7	232.24	1.8235e-06	5.22e-06	291.33	80.805	64.627	18.21	2.0687e-06	25.028	9.8704e-05	9.6499e-05	2.6805e-05	1009.2	1.0466e-06	1.034e-06	1127.9	214.6	1.04e-06	1.0329e-06	232.46	73.023	51.737	16.879	1.0485e-06	22.996	145.858	183.833	132.323	101.803	446.257	274.059	101.923	109.124	227.776	186.943	109.215	115.508	116.115	122.856	115.168	122.287	-8191	255	
18984.637	1	1	0	0	0.079041	0.1448	0.17824	0.53619	0.085698	0.076421	0.19633	0.035432	0.1727	0.1057	0.12734	0.12035	0.10448	0.15365	0.15407	0.18726	-1.1083	-2.0438	-1.5562	-1.7833	-1.8271	-1.5042	-2.1417	-1.6667	-1.5667	-1.8917	-1.65	-1.8438	-1.65	-1.6292	-1.8062	-1.7062	137.699	125.508	128.120	411.699	430.800	222.510	439.093	239.118	287.196	313.779	390.693	194.823	406.763	257.123	209.163	438.027	0.00043543	0.00030613	4.9258e-05	1124.9	3.4292e-06	2.4378e-06	1212	231.52	1.7928e-06	2.9261e-06	292.84	80.501	63.969	18.182	3.5837e-06	24.947	9.983e-05	9.764e-05	2.6681e-05	1009.5	1.048e-06	1.0481e-06	1129.3	214.34	1.0565e-06	1.0222e-06	233.39	72.776	51.711	16.895	1.0507e-06	23.03	142.475	390.154	336.540	101.621	179.937	244.097	101.776	109.276	226.753	177.580	108.781	115.566	114.787	122.799	304.976	122.335	-8191	255	
18984.730	1	1	0	0	0.17237	0.070277	0.15659	0.16713	0.23484	0.057467	0.39616	0.16718	0.2739	0.07805	0.23292	0.15197	0.11571	0.22081	0.16484	0.10887	-1.1333	-1.9979	-1.3438	-1.7542	-1.9	-1.3333	-1.8396	-1.7458	-1.5562	-1.8542	-1.6104	-1.4	-1.7792	-1.2083	-1.7375	-1.7271	252.020	134.801	304.965	411.174	184.116	265.346	414.294	292.941	277.007	446.911	433.883	322.313	292.362	268.944	387.630	160.730	0.00040446	0.00030571	6.6002e-05	1113.6	1.5452e-06	1.4048e-06	1220.3	231.62	5.2647e-06	1.3463e-06	292.98	80.547	64.29	18.237	4.3742e-06	25.059	9.8357e-05	9.5945e-05	2.6604e-05	1005.9	1.0402e-06	1.0257e-06	1130.4	213.83	1.0398e-06	1.019e-06	232.81	72.909	51.795	16.842	1.0108e-06	22.918	137.744	96.695	252.710	101.948	109.945	152.138	101.699	108.960	252.563	146.285	108.807	115.322	115.599	122.680	231.722	122.555	-8191	255	
18984.828	1	1	0	0	0.26742	0.33792	0.19724	0.30302	0.028491	0.095761	0.29413	0.19783	0.31396	0.25696	0.042877	0.10426	0.087969	0.42156	0.24658	0.20292	-1.0354	-1.8333	-1.4167	-1.7542	-2.0229	-1.4917	-1.8937	-1.8771	-1.4083	-1.8771	-1.5271	-1.7958	-1.8687	-1.5125	-1.5688	-1.8625	263.552	362.697	282.180	372.445	228.438	244.665	343.648	424.617	336.561	105.231	277.349	156.485	298.630	214.384	281.116	433.853	0.00035802	0.00036094	5.5235e-05	1122.8	5.2723e-06	1.2225e-06	1221.2	232.61	2.4681e-06	2.8534e-06	294.47	80.679	64.665	18.151	5.6722e-06	25.265	9.4298e-05	9.0901e-05	2.5456e-05	1009.1	1.0105e-06	1.0041e-06	1130.6	214.32	9.9947e-07	9.8866e-07	232.46	72.896	51.555	16.824	1.0117e-06	22.939	152.051	126.905	258.350	101.864	238.471	184.611	101.683	109.285	164.626	161.749	109.014	115.921	115.227	123.203	213.572	122.488	-8191	255	
18984.926	1	1	0	0	0.30278	0.18414	0.29189	0.29229	0.21659	0.22791	0.29592	0.39532	0.24782	0.12323	0.27601	0.077429	0.12515	0.02065	0.20699	0.021468	-1.0708	-1.7	-1.6833	-1.7333	-2.0479	-1.6104	-1.8375	-1.7479	-1.325	-1.9167	-1.7479	-1.6521	-1.9229	-1.5583	-1.5812	-1.8813	302.486	269.007	143.389	392.061	234.364	292.620	335.587	427.747	235.569	102.587	239.459	287.173	97.195	156.369	441.944	190.236	0.00043297	0.00016719	0.0001327	1119.2	3.4783e-06	3.192e-06	1219.5	232.2	1.0214e-06	5.9973e-06	294.29	79.96	63.764	18.099	5.0992e-06	25.095	9.4634e-05	9.2052e-05	2.5332e-05	1007.5	1.0207e-06	1.0031e-06	1131.5	213.93	1.0083e-06	9.9395e-07	233.11	72.686	51.501	16.822	9.9958e-07	22.833	141.509	437.170	121.268	101.515	188.346	442.535	101.884	109.256	257.210	207.071	109.128	115.612	115.765	122.897	291.956	122.532	-8191	255	
18985.020	1	1	0	0	0.25003	0.30661	0.17499	0.070496	0.074628	0.20499	0.35064	0.17025	0.21058	0.20015	0.17663	0.10508	0.053838	0.25237	0.17628	0.52857	-0.84583	-1.8937	-1.7812	-1.5562	-1.8417	-1.6458	-1.525	-1.8292	-1.3146	-1.7167	-1.675	-1.3	-1.8521	-1.6229	-1.4875	-2.0062	273.516	407.904	302.681	416.558	95.890	223.852	442.596	401.074	168.475	393.010	147.797	298.770	262.074	429.900	246.315	103.585	0.00025164	0.00021754	0.00011081	1117.7	2.8646e-06	3.3903e-06	1216	231.3	5.4245e-07	1.7672e-06	291.76	80.375	64.009	18.176	4.5361e-06	25.148	9.2961e-05	9.1355e-05	2.5423e-05	1005.2	1.0016e-06	9.9971e-07	1128.7	214.12	1.0075e-06	1.0058e-06	232.69	72.828	51.435	16.847	1.0172e-06	22.882	132.486	440.251	121.214	101.921	185.938	223.805	102.016	109.237	265.919	359.066	108.906	115.425	115.315	122.620	237.982	122.547	-8191	255	
18985.115	1	1	0	0	0.14618	0.09209	0.083075	0.15636	0.17113	0.14948	0.2646	0.18259	0.20342	0.14658	0.11065	0.090937	0.24207	0.066833	0.0056329	0.024602	-1.0104	-1.6729	-1.7271	-1.3958	-1.7458	-1.6708	-1.6667	-2.0854	-1.3917	-1.8167	-1.8646	-1.6063	-1.9021	-1.7146	-1.6604	-2.0229	94.095	123.577	410.649	259.480	171.649	93.563	378.038	361.890	246.103	250.064	308.571	223.784	318.636	189.938	445.204	308.265	0.00032088	0.00032674	0.00012834	1121.7	2.9435e-06	2.8015e-06	1216.1	231.89	3.5586e-06	3.6638e-06	288.75	80.387	64.449	18.284	2.6548e-06	25.181	9.3563e-05	9.188e-05	2.5166e-05	1006.7	9.9609e-07	9.9529e-07	1128.8	213.6	1.0094e-06	9.9983e-07	231.62	72.753	51.552	16.82	9.9189e-07	22.911	134.959	150.215	130.869	101.983	217.057	363.040	101.731	109.250	138.121	116.010	108.814	115.147	115.200	123.230	312.449	122.057	-8191	255	
18985.236	1	1	0	0	0.27445	0.20518	0.2237	0.33618	0.461	0.38837	0.25029	0.29498	0.34924	0.3833	0.17055	0.18853	0.060328	0.14946	0.25788	0.11018	-0.95417	-1.675	-2.0771	-1.5833	-1.8083	-1.7854	-1.6833	-1.9438	-1.5312	-1.5625	-1.7812	-1.5479	-1.8479	-1.7479	-1.4896	-2.0354	139.018	377.668	131.807	332.236	314.870	288.659	435.326	424.698	207.155	280.986	435.599	367.888	195.449	400.486	257.490	329.678	0.00039679	0.00043811	2.092e-05	1121.2	1.4905e-06	3.3342e-07	1218.3	231.2	1.046e-06	9.1597e-07	290.99	80.093	63.985	18.206	2.8548e-06	24.861	9.2854e-05	8.8979e-05	2.5107e-05	1007	9.9134e-07	9.7776e-07	1129	213.99	9.8931e-07	9.8206e-07	231.55	72.746	51.358	16.802	9.8173e-07	22.821	154.831	198.247	96.556	101.677	264.564	351.744	101.549	109.456	430.778	280.331	109.063	115.866	115.591	122.851	270.311	122.778	-8191	255	
18985.332	1	1	0	0	0.44311	0.083526	0.40234	0.12551	0.085647	0.2527	0.10307	0.21444	0.033954	0.19742	0.17693	0.12288	0.35737	0.080896	0.053659	0.2234	-1.25	-1.6875	-1.9833	-1.425	-1.6979	-1.9062	-1.5688	-2.0167	-1.4875	-1.5021	-1.9104	-1.4062	-1.7938	-1.75	-1.5083	-1.9937	197.030	195.547	436.950	436.067	327.688	258.117	124.367	370.071	314.653	211.499	435.453	114.825	323.351	99.874	114.325	291.999	0.00038567	0.00020838	6.9896e-05	1118.9	1.6279e-06	3.1735e-06	1217.4	231.46	3.6053e-06	1.8251e-06	290.66	79.996	64.307	18.219	3.306e-06	25.151	9.1967e-05	8.9145e-05	2.4828e-05	1004.6	9.8191e-07	9.7003e-07	1128.5	213.65	9.8997e-07	9.785e-07	231.33	72.584	51.452	16.811	9.7916e-07	22.841	152.343	214.958	121.825	101.835	209.205	276.865	101.927	109.415	253.416	219.049	108.959	115.492	115.674	123.061	276.208	122.794	-8191	255	
18985.404	1	1	0	0	0.0321	0.14093	0.36573	0.2394	0.21427	0.053635	0.091744	0.41895	0.19656	0.15193	0.092897	0.23096	0.36451	0.1786	0.047237	0.11649	-1.2042	-1.7	-2.0458	-1.5646	-1.9	-1.8042	-1.5625	-1.8438	-1.7292	-1.5125	-1.9146	-1.5146	-1.6958	-1.8542	-1.3188	-1.9271	385.458	303.216	252.892	104.669	260.850	274.699	332.184	403.463	133.866	278.861	380.083	377.336	434.341	397.784	327.697	111.454	0.00042458	0.00035575	8.05e-05	1114.4	2.3067e-06	1.5345e-06	1217.4	231.11	3.6411e-06	3.7231e-06	290.7	80.762	64.146	18.146	1.6694e-06	25.072	9.212e-05	9.0051e-05	2.4635e-05	1004.4	9.6779e-07	9.6101e-07	1127.1	213.65	9.7809e-07	9.7663e-07	231.36	72.79	51.418	16.771	9.6942e-07	22.817	148.882	110.474	212.611	101.678	172.133	251.272	101.685	109.384	207.148	139.510	109.186	115.821	115.926	123.297	243.558	122.730	-8191	255	
18985.525	1	1	0	0	0.16619	0.31846	0.30953	0.25648	0.093867	0.17407	0.084385	0.49907	0.0084301	0.20176	0.25179	0.062381	0.11243	0.1218	0.11059	0.0631	-1.1938	-1.5458	-1.875	-1.4833	-1.7	-1.8354	-1.6208	-1.8729	-1.7167	-1.5271	-1.8937	-1.4958	-1.6396	-1.8333	-1.5063	-1.9021	167.206	316.771	226.930	391.100	109.938	425.750	373.897	373.261	374.267	365.681	152.566	430.730	166.188	263.321	133.962	191.133	0.00035493	0.00021755	6.6209e-05	1121.8	3.129e-07	4.9461e-07	1220.1	230.86	3.7507e-06	4.2967e-06	291.86	80.522	64.268	18.235	1.9989e-06	24.993	8.9954e-05	8.8334e-05	2.4553e-05	1005.2	9.6381e-07	9.6347e-07	1129.6	213.41	9.7828e-07	9.6238e-07	231.55	72.638	51.301	16.766	9.6722e-07	22.79	145.549	149.482	107.687	101.908	138.986	279.097	101.737	109.126	242.171	183.318	108.720	115.581	115.500	123.125	373.087	122.597	-8191	255	
18985.621	1	1	0	0	0.15853	0.32027	0.17406	0.040732	0.17087	0.29725	0.1817	0.26867	0.2303	0.11161	0.29178	0.28524	0.14276	0.15502	0.26422	0.26329	-1.4354	-1.3833	-1.8729	-1.5521	-1.6313	-2.0479	-1.9083	-1.9688	-1.7104	-1.5125	-1.9396	-1.6854	-1.7188	-2.0938	-1.6021	-1.6688	326.615	163.631	307.135	424.834	302.442	101.458	391.010	449.940	375.531	373.420	391.480	415.578	92.704	257.142	91.777	232.495	0.00043578	7.8372e-05	7.6658e-05	1123	1.2667e-06	4.1706e-06	1218.1	231.53	9.8335e-07	1.5513e-06	289.88	80.345	63.691	18.258	3.5297e-06	25.018	9.0345e-05	8.7645e-05	2.4602e-05	1005.5	9.6387e-07	9.515e-07	1128.1	213.72	9.7058e-07	9.6562e-07	231.45	72.668	51.346	16.809	9.727e-07	22.91	140.925	108.485	119.207	101.629	182.774	193.757	101.720	109.415	425.878	249.721	108.903	115.367	115.341	122.802	339.391	122.589	-8191	255	
18985.717	1	1	0	0	0.18605	0.1986	0.093507	0.21455	0.1544	0.16047	0.17017	0.19471	0.079431	0.14124	0.18482	0.39502	0.21309	0.070409	0.25656	0.21636	-1.3792	-1.2479	-1.8021	-1.7333	-1.3937	-1.7938	-1.6688	-1.8042	-1.7354	-1.375	-1.6646	-1.5583	-1.4542	-1.8167	-1.2917	-1.7375	228.367	141.035	310.295	326.576	186.907	450.895	371.372	391.980	183.768	144.836	266.635	435.150	283.734	166.814	365.626	412.423	0.00042055	0.00030868	0.00010772	1121.1	9.8008e-07	1.5621e-06	1218.8	232.42	2.0381e-06	3.1047e-06	288.81	80.429	63.722	18.299	4.4937e-06	25.127	9.1989e-05	8.9006e-05	2.459e-05	1004.7	9.7139e-07	9.6244e-07	1128.4	213.57	9.7613e-07	9.7261e-07	231.3	72.67	51.227	16.786	9.6496e-07	22.824	159.435	144.059	120.879	101.545	372.723	435.568	101.525	109.291	157.404	158.587	108.989	115.196	115.679	122.643	280.655	122.171	-8191	255	
18985.812	1	1	0	0	0.18824	0.21734	0.098509	0.059066	0.22022	0.080149	0.23753	0.018385	0.16373	0.29396	0.11325	0.22241	0.14668	0.13613	0.15874	0.15232	-1.3937	-1.4021	-1.75	-1.7646	-1.5625	-1.9104	-1.725	-1.7083	-1.9146	-1.5063	-1.8771	-1.7229	-1.4583	-1.8917	-1.4771	-1.7188	410.268	303.214	439.218	106.498	381.860	191.465	430.638	288.998	256.581	144.096	404.542	446.079	233.809	101.708	336.950	160.687	0.00045218	0.00010061	5.0975e-05	1118.8	4.015e-06	8.9699e-07	1219.5	230.28	3.4155e-06	1.9324e-06	292.76	80.735	63.596	18.212	8.5344e-07	25.178	9.0857e-05	8.8355e-05	2.4587e-05	1006.1	9.6899e-07	9.532e-07	1128.5	213.49	9.7705e-07	9.654e-07	232.4	72.688	51.239	16.784	9.7076e-07	22.893	126.689	193.222	127.494	101.894	157.603	223.067	101.681	109.267	221.418	140.222	108.960	115.417	115.260	123.047	219.995	122.670	-8191	255	
18985.932	1	1	0	0	0.14246	0.26047	0.30562	0.36247	0.14955	0.27085	0.061216	0.05495	0.31266	0.25091	0.24914	0.28161	0.11396	0.34476	0.23419	0.26461	-1.6521	-1.2833	-1.5146	-1.7833	-1.4562	-1.8438	-1.8188	-1.6375	-1.8625	-1.5667	-1.8333	-1.7188	-1.4875	-1.9292	-1.5729	-1.5208	218.799	182.725	433.384	388.089	104.439	100.777	398.766	298.573	435.465	122.498	431.535	396.470	400.226	257.374	191.817	373.817	0.0003084	0.00023462	9.0991e-05	1122	7.7926e-07	5.9622e-07	1220	231.2	1.1301e-06	1.2725e-06	289.59	80.614	63.807	18.103	3.4327e-06	25.099	9.1185e-05	8.9676e-05	2.5062e-05	1005.6	9.8926e-07	9.6281e-07	1128.9	213.49	9.6866e-07	9.6325e-07	232.2	72.795	51.377	16.767	9.5175e-07	22.862	141.711	359.872	96.800	102.030	183.248	206.057	102.067	109.263	390.669	228.068	109.026	115.576	115.266	123.073	254.797	122.147	-8191	255	
18986.004	1	1	0	0	0.229	0.093538	0.10957	0.35328	0.13359	0.15523	0.50348	0.3422	0.27057	0.14231	0.10616	0.12016	0.2379	0.046909	0.11665	0.13843	-1.5104	-1.3312	-1.6938	-1.8979	-1.4042	-1.8542	-1.8625	-1.625	-1.9708	-1.4521	-1.6792	-1.9521	-1.4125	-1.9417	-1.6396	-1.4896	346.293	259.312	121.736	391.885	313.556	430.397	374.713	378.881	422.512	228.556	159.303	97.123	445.782	99.522	177.361	325.847	0.00036569	0.0003183	0.00017358	1122.5	5.5571e-06	1.0696e-06	1217.8	230.8	1.3116e-06	5.5981e-07	290.6	80.088	64.512	18.155	1.1132e-06	25.202	9.1064e-05	8.8532e-05	2.4393e-05	1007.4	9.6591e-07	9.6386e-07	1128.8	213.51	9.7894e-07	9.5997e-07	230.74	72.574	51.262	16.731	9.5532e-07	22.867	136.337	429.811	123.463	101.849	206.761	127.914	101.547	109.320	187.685	326.383	108.983	115.957	115.487	122.772	242.309	122.839	-8191	255	
18986.100	1	1	0	0	0.31447	0.018768	0.22078	0.27615	0.063745	0.24629	0.17946	0.13349	0.082112	0.25511	0.10479	0.10197	0.10225	0.25752	0.10415	0.35643	-1.5271	-1.6333	-1.5458	-1.9625	-1.6313	-1.8542	-1.8833	-1.5625	-1.9896	-1.6229	-1.6271	-1.775	-1.4688	-1.675	-1.8583	-1.5375	92.544	237.605	228.587	448.395	305.965	379.322	334.417	432.700	337.078	331.846	135.854	381.577	261.406	166.185	438.513	107.889	0.00037781	0.00021861	0.00021753	1124.1	4.4026e-06	2.2693e-06	1218.7	230.78	1.8127e-06	1.2596e-06	288.98	80.108	64.283	18.181	4.6593e-06	25.233	9.0852e-05	8.8315e-05	2.4737e-05	1005.8	9.7707e-07	9.6583e-07	1128.3	213.23	9.8214e-07	9.8054e-07	231.34	72.582	51.568	16.807	9.802e-07	22.836	131.666	281.555	152.629	102.030	199.804	124.052	101.679	108.971	172.257	422.819	109.295	115.188	115.954	122.932	303.777	122.562	-8191	255	
18986.195	1	1	0	0	0.079749	0.32817	0.033772	0.22365	0.15122	0.14563	0.25255	0.24631	0.14834	0.15031	0.091793	0.10933	0.20893	0.059992	0.31239	0.16523	-1.5292	-1.7167	-1.4542	-2.1792	-1.5063	-1.7958	-1.9813	-1.4667	-1.6958	-1.6104	-1.4583	-1.9354	-1.5854	-1.7938	-1.9896	-1.5542	231.298	101.646	223.829	416.488	421.304	290.618	410.303	100.163	380.341	273.853	368.290	334.598	415.296	135.158	167.462	230.153	0.0003513	0.00042414	4.2007e-05	1117.1	4.4716e-06	3.264e-06	1215.4	230.51	3.068e-06	1.6664e-06	294.18	80.46	64.054	18.229	9.0421e-07	24.97	9.3239e-05	8.9164e-05	2.4896e-05	1005.6	9.6722e-07	9.8033e-07	1127.7	213.16	9.7345e-07	9.6966e-07	232.22	72.691	51.437	16.785	9.9019e-07	22.832	148.857	283.304	162.291	101.877	213.140	272.245	101.638	109.366	181.642	443.389	108.408	115.631	115.610	122.510	381.202	122.617	-8191	255	
#DATA ENDS
