BOXY.EXE: ISS Imagent and Oximeter Data Acquisition Program Version 0.80
Ascii Record File

#ACQ INFORMATION
2  Detector Channels 
16  External MUX Channels 
1  Auxiliary Channels 
5000  Waveform (CCF) Frequency (Hz)
1  Waveforms Skipped 
30  Waveforms Averaged 
1  Cycles Averaged 
16  Acquisitions per Waveform 
10.0806  Updata Rate (Hz) 

#FILE INFORMATION
TRUE -- External MUX Channel results are PARSED.
FALSE -- AC DC and Phase are NOT grouped.
TRUE -- Companion Program Settings File CREATED.
FALSE -- AC data not excluded
FALSE -- DC data not excluded
FALSE -- Phase data not excluded
FALSE -- Auxillary Chn. data not excluded
Tab delimiters

#CALIBRATION STATE
TRUE -- Waveform Calibration Values APPLIED.


#AUX CALIBRATION VALUES
Val Type	aux-1	

Term	1.0000e+00	
Factor	0.0000e+00	


#WF CALIBRATION VALUES
A = Detector Channel
Val Type	A-AC1	A-AC2	A-AC3	A-AC4	A-AC5	A-AC6	A-AC7	A-AC8	A-AC9	A-AC10	A-AC11	A-AC12	A-AC13	A-AC14	A-AC15	A-AC16	A-DC1	A-DC2	A-DC3	A-DC4	A-DC5	A-DC6	A-DC7	A-DC8	A-DC9	A-DC10	A-DC11	A-DC12	A-DC13	A-DC14	A-DC15	A-DC16	A-Ph1	A-Ph2	A-Ph3	A-Ph4	A-Ph5	A-Ph6	A-Ph7	A-Ph8	A-Ph9	A-Ph10	A-Ph11	A-Ph12	A-Ph13	A-Ph14	A-Ph15	A-Ph16	

Term	0.00000e+00	0.00000e+00	0.00000e+00	0.00000e+00	0.00000e+00	0.00000e+00	0.00000e+00	0.00000e+00	0.00000e+00	0.00000e+00	0.00000e+00	0.00000e+00	0.00000e+00	0.00000e+00	0.00000e+00	0.00000e+00	0.00000e+00	0.00000e+00	0.00000e+00	0.00000e+00	0.00000e+00	0.00000e+00	0.00000e+00	0.00000e+00	0.00000e+00	0.00000e+00	0.00000e+00	0.00000e+00	0.00000e+00	0.00000e+00	0.00000e+00	0.00000e+00	0.00000e+00	0.00000e+00	0.00000e+00	0.00000e+00	0.00000e+00	0.00000e+00	0.00000e+00	0.00000e+00	0.00000e+00	0.00000e+00	0.00000e+00	0.00000e+00	0.00000e+00	0.00000e+00	0.00000e+00	0.00000e+00	
Factor	1.00000e+00	1.00000e+00	1.00000e+00	1.00000e+00	1.00000e+00	1.00000e+00	1.00000e+00	1.00000e+00	1.00000e+00	1.00000e+00	1.00000e+00	1.00000e+00	1.00000e+00	1.00000e+00	1.00000e+00	1.00000e+00	1.00000e+00	1.00000e+00	1.00000e+00	1.00000e+00	1.00000e+00	1.00000e+00	1.00000e+00	1.00000e+00	1.00000e+00	1.00000e+00	1.00000e+00	1.00000e+00	1.00000e+00	1.00000e+00	1.00000e+00	1.00000e+00	X	X	X	X	X	X	X	X	X	X	X	X	X	X	X	X	

B = Detector Channel
Val Type	B-AC1	B-AC2	B-AC3	B-AC4	B-AC5	B-AC6	B-AC7	B-AC8	B-AC9	B-AC10	B-AC11	B-AC12	B-AC13	B-AC14	B-AC15	B-AC16	B-DC1	B-DC2	B-DC3	B-DC4	B-DC5	B-DC6	B-DC7	B-DC8	B-DC9	B-DC10	B-DC11	B-DC12	B-DC13	B-DC14	B-DC15	B-DC16	B-Ph1	B-Ph2	B-Ph3	B-Ph4	B-Ph5	B-Ph6	B-Ph7	B-Ph8	B-Ph9	B-Ph10	B-Ph11	B-Ph12	B-Ph13	B-Ph14	B-Ph15	B-Ph16	

Term	0.00000e+00	0.00000e+00	0.00000e+00	0.00000e+00	0.00000e+00	0.00000e+00	0.00000e+00	0.00000e+00	0.00000e+00	0.00000e+00	0.00000e+00	0.00000e+00	0.00000e+00	0.00000e+00	0.00000e+00	0.00000e+00	0.00000e+00	0.00000e+00	0.00000e+00	0.00000e+00	0.00000e+00	0.00000e+00	0.00000e+00	0.00000e+00	0.00000e+00	0.00000e+00	0.00000e+00	0.00000e+00	0.00000e+00	0.00000e+00	0.00000e+00	0.00000e+00	-1.60165e+02	-1.56046e+02	-1.61601e+02	-1.84043e+02	-1.15639e+02	-8.35182e+01	-1.55479e+02	-1.62015e+02	-1.02200e+02	-1.19732e+02	-1.85372e+02	-1.70396e+02	-1.86982e+02	-1.76531e+02	-6.46452e+01	-1.49226e+02	
Factor	2.80052e-05	7.83278e-05	3.39611e-05	2.47397e-01	8.53685e-07	8.94540e-07	1.74294e-01	5.63954e-02	8.49358e-07	1.01448e-06	2.25253e-01	3.31667e-02	6.79303e-02	9.94483e-03	1.03214e-06	1.41766e-02	3.98363e-07	4.02558e-07	1.11943e-07	1.12903e-01	4.40606e-09	4.40072e-09	7.81490e-02	2.63565e-02	4.40888e-09	4.39813e-09	8.24592e-02	1.43961e-02	2.55369e-02	4.44917e-03	4.40686e-09	6.06539e-03	X	X	X	X	X	X	X	X	X	X	X	X	X	X	X	X	



#DISTANCE SETTINGS
A = Detector Channel
A-1	A-2	A-3	A-4	A-5	A-6	A-7	A-8	A-9	A-10	A-11	A-12	A-13	A-14	A-15	A-16	

2.5000e+00	3.0000e+00	2.5000e+00	3.0000e+00	2.0000e+00	3.0000e+00	1.5000e+00	3.0000e+00	3.0000e+00	3.0000e+00	3.0000e+00	3.0000e+00	3.0000e+00	3.0000e+00	1.5000e+00	3.0000e+00	

B = Detector Channel
B-1	B-2	B-3	B-4	B-5	B-6	B-7	B-8	B-9	B-10	B-11	B-12	B-13	B-14	B-15	B-16	

1.0000e+01	1.0000e+01	1.0000e+01	1.4400e+00	1.0000e+01	1.0000e+01	1.5100e+00	1.9400e+00	1.0000e+01	1.0000e+01	1.9900e+00	2.4900e+00	2.4100e+00	2.9000e+00	1.0000e+01	2.9800e+00	




#DATA BEGINS
time	group	step	mark	flag	A-AC1	A-AC2	A-AC3	A-AC4	A-AC5	A-AC6	A-AC7	A-AC8	A-AC9	A-AC10	A-AC11	A-AC12	A-AC13	A-AC14	A-AC15	A-AC16	A-DC1	A-DC2	A-DC3	A-DC4	A-DC5	A-DC6	A-DC7	A-DC8	A-DC9	A-DC10	A-DC11	A-DC12	A-DC13	A-DC14	A-DC15	A-DC16	A-Ph1	A-Ph2	A-Ph3	A-Ph4	A-Ph5	A-Ph6	A-Ph7	A-Ph8	A-Ph9	A-Ph10	A-Ph11	A-Ph12	A-Ph13	A-Ph14	A-Ph15	A-Ph16	B-AC1	B-AC2	B-AC3	B-AC4	B-AC5	B-AC6	B-AC7	B-AC8	B-AC9	B-AC10	B-AC11	B-AC12	B-AC13	B-AC14	B-AC15	B-AC16	B-DC1	B-DC2	B-DC3	B-DC4	B-DC5	B-DC6	B-DC7	B-DC8	B-DC9	B-DC10	B-DC11	B-DC12	B-DC13	B-DC14	B-DC15	B-DC16	B-Ph1	B-Ph2	B-Ph3	B-Ph4	B-Ph5	B-Ph6	B-Ph7	B-Ph8	B-Ph9	B-Ph10	B-Ph11	B-Ph12	B-Ph13	B-Ph14	B-Ph15	B-Ph16	aux-1	digaux	

18870.811	1	1	0	768	0.32583	0.11695	0.13087	0.15843	0.082683	0.23577	0.42013	0.11403	0.14549	0.25774	0.070048	0.14576	0.21659	0.20818	0.1693	0.17702	-1.4167	-1.8875	-2.1875	-1.7896	-1.8375	-1.8687	-1.8667	-2.2479	-1.8521	-1.7042	-2.1437	-1.7604	-1.8167	-1.9062	-1.5479	-2.0854	107.398	163.213	147.131	405.314	218.639	91.506	359.308	272.113	413.137	398.549	168.565	392.125	217.020	432.864	217.222	290.330	0.00053743	0.00038936	0.00044033	1348.4	6.4435e-06	1.7231e-06	1347.1	365.78	3.4885e-06	9.5383e-06	416.77	140.3	121.27	41.59	6.6887e-06	51.305	0.00057803	0.00057462	0.0001602	1379.4	6.2732e-06	6.2984e-06	1376	374.54	6.2799e-06	6.2537e-06	430.88	143.77	125.48	43.106	6.2569e-06	53.207	130.517	429.446	432.764	100.044	156.142	323.428	99.767	104.664	183.412	240.423	103.991	108.456	109.099	113.729	181.603	112.516	-8191	255	
18870.906	1	1	0	0	0.093638	0.08088	0.072536	0.27857	0.31185	0.18591	0.068783	0.14924	0.13725	0.27759	0.41501	0.17451	0.32328	0.10839	0.31033	0.19294	-1.3563	-1.6917	-2.2083	-1.9125	-1.9688	-2.2083	-1.6812	-2.1021	-1.9792	-1.7021	-2.075	-1.5625	-1.8917	-2.0583	-1.4542	-2.0833	359.996	215.610	425.352	419.393	101.863	340.601	376.903	405.938	331.338	255.327	415.608	115.543	390.992	167.864	343.914	332.216	0.00066538	5.5283e-05	0.00014	1349.6	1.195e-05	4.1535e-06	1344.8	365.9	7.0594e-06	7.0001e-06	419.96	139.58	122.06	41.584	1.0387e-05	51.351	0.00057283	0.00056916	0.00015789	1376.7	6.2118e-06	6.2063e-06	1371.4	373.93	6.2062e-06	6.1922e-06	429.27	143.34	125.34	42.998	6.2153e-06	53.244	141.881	99.069	214.780	100.122	177.719	235.959	99.992	104.607	254.218	222.073	104.658	108.363	108.811	113.383	276.622	112.933	-8191	255	
18871.004	1	1	0	0	0.33202	0.17133	0.14775	0.24962	0.2251	0.13111	0.26311	0.30556	0.19373	0.091403	0.2735	0.25612	0.22794	0.18482	0.19188	0.17994	-1.3813	-1.4083	-2.1417	-1.9562	-1.6146	-2.0271	-1.8229	-2.1083	-1.9	-1.7375	-2.1458	-1.6292	-1.8375	-2.1146	-1.6583	-1.8896	106.147	114.411	387.491	411.777	373.150	132.814	361.647	434.942	369.713	379.415	249.418	340.225	162.433	445.539	418.051	87.591	0.00061912	0.00046508	7.1455e-05	1350.5	1.8577e-06	4.0699e-06	1342.8	366.22	5.954e-06	1.0217e-05	419.62	139.14	121.95	41.684	1.0874e-05	51.975	0.00056804	0.00056577	0.00015755	1377	6.1876e-06	6.1979e-06	1370	373.98	6.2286e-06	6.2595e-06	430.1	143.32	125.47	43.098	6.2759e-06	53.375	141.933	145.614	94.539	99.967	132.649	208.921	99.869	104.625	243.380	152.725	104.141	108.312	108.330	113.691	301.678	112.495	-8191	255	
18871.100	1	1	0	0	0.048076	0.18202	0.23117	0.13425	0.23461	0.069422	0.22842	0.14456	0.027672	0.23219	0.15648	0.18894	0.09324	0.14957	0.057416	0.19769	-1.4271	-1.5125	-1.6896	-1.8312	-1.6708	-2.2375	-1.5979	-2.0375	-2.0687	-1.5729	-2.0125	-1.7687	-1.5812	-2.2167	-1.6521	-2.0104	340.427	151.085	392.774	341.662	212.197	261.174	377.408	140.824	332.692	251.402	373.798	390.746	440.842	399.182	152.578	98.489	0.00074743	0.00025907	0.00029788	1353.8	9.5144e-07	2.587e-07	1347.2	366.93	4.7456e-06	2.5047e-06	420.14	139.78	121.74	41.693	4.9707e-06	51.524	0.00057585	0.00057423	0.00016022	1379	6.3196e-06	6.2735e-06	1375.5	374.84	6.2536e-06	6.251e-06	430.17	143.64	125.61	43.101	6.2877e-06	53.442	126.263	163.614	196.174	100.174	426.796	343.731	100.042	104.500	276.839	285.299	103.479	107.957	108.659	113.848	315.605	112.908	-8191	255	
18871.195	1	1	0	0	0.065546	0.35587	0.023303	0.15791	0.47341	0.032119	0.27265	0.15661	0.25536	0.084971	0.2869	0.21446	0.10888	0.066732	0.095788	0.27464	-1.5229	-1.4917	-2.0646	-1.9708	-1.6979	-2.0042	-1.7188	-1.9292	-1.8667	-1.5146	-1.9021	-1.8229	-1.5896	-2.3812	-1.7271	-1.8917	261.174	207.266	146.726	113.574	435.173	90.959	433.722	113.642	319.653	218.392	267.753	425.058	105.149	415.178	382.535	149.727	0.00076578	0.00024781	0.00011943	1354	6.2839e-06	7.9669e-07	1351	367.37	6.3055e-06	7.4466e-06	417.94	139.59	122.25	41.824	4.4702e-06	51.583	0.00057601	0.00057449	0.00015989	1382.1	6.3236e-06	6.3193e-06	1377	375.02	6.2952e-06	6.2803e-06	431.06	143.67	125.58	43.117	6.2813e-06	53.475	140.483	436.919	234.859	100.039	185.163	210.183	99.817	104.687	216.334	172.118	104.113	108.336	108.281	113.669	169.313	112.466	-8191	255	
18871.291	1	1	0	0	0.30539	0.27847	0.098366	0.073333	0.2265	0.16875	0.14141	0.11528	0.26437	0.11688	0.050129	0.035029	0.27613	0.14442	0.17798	0.23495	-1.5271	-1.6125	-1.9188	-2.0062	-1.4083	-2.0917	-2.1312	-2.0083	-2.0125	-1.6708	-1.8167	-2.0896	-1.5187	-2.0583	-1.8021	-1.8125	132.722	92.027	286.930	430.425	270.540	365.056	420.400	185.400	231.206	396.795	182.866	181.080	380.448	395.422	177.028	418.158	0.00074135	0.00019865	0.00036712	1350.4	3.7773e-06	2.7918e-06	1348.1	365.75	5.9146e-06	2.8219e-06	417.08	138.84	122.09	41.632	4.4117e-06	51.413	0.00057582	0.0005744	0.00015985	1381.1	6.2996e-06	6.3068e-06	1377.2	375.38	6.3784e-06	6.365e-06	432.62	143.87	125.94	43.205	6.3536e-06	53.5	153.405	157.094	190.673	100.125	235.445	400.165	99.851	104.574	252.224	309.389	104.340	108.441	108.884	113.681	226.397	112.772	-8191	255	
18871.412	1	1	0	0	0.26366	0.059486	0.14954	0.18405	0.1524	0.046221	0.16456	0.18801	0.1066	0.23185	0.066022	0.13676	0.099965	0.32762	0.20942	0.41182	-1.6417	-1.5333	-1.8333	-2.1	-1.5917	-2	-2.175	-1.7812	-1.9667	-1.55	-1.7125	-1.9	-1.5312	-2.0938	-1.9104	-1.7854	243.152	146.616	142.462	379.487	414.069	102.482	372.168	429.757	218.628	151.958	347.330	410.861	130.211	404.614	94.114	369.384	0.0008054	0.00029127	0.00018779	1355.8	4.3097e-06	3.3099e-06	1349.6	365.88	5.0593e-06	5.0459e-06	416.44	139.95	122.18	41.566	9.1606e-06	51.568	0.00058524	0.0005825	0.00016228	1384.8	6.3955e-06	6.3959e-06	1379.3	375.79	6.3976e-06	6.3564e-06	432.56	144	126.41	43.234	6.3629e-06	53.554	141.998	404.425	233.014	100.148	211.192	344.850	100.030	104.419	262.670	209.028	104.772	108.428	109.006	113.415	190.275	112.789	-8191	255	
18871.508	1	1	0	0	0.010951	0.20788	0.060893	0.06659	0.20194	0.12456	0.16215	0.21789	0.078451	0.17526	0.36218	0.15729	0.2364	0.30431	0.088725	0.076928	-1.6208	-1.5396	-1.9417	-2.1271	-1.5729	-1.9354	-2.0333	-1.7229	-2.1771	-1.6396	-1.9021	-2.1	-1.6938	-1.9646	-1.8667	-1.4688	105.845	420.120	321.106	330.652	257.753	313.980	431.550	442.437	394.015	309.779	113.548	231.409	167.276	363.198	198.948	440.473	0.00082711	0.00020586	0.00016399	1350	8.42e-06	6.2015e-06	1350.5	367.37	1.0182e-05	4.8337e-06	417.8	140.45	121.1	41.826	2.8223e-06	51.436	0.00058617	0.00058462	0.00016234	1382.7	6.3682e-06	6.3533e-06	1380.6	375.43	6.3605e-06	6.3559e-06	432.55	144.47	126.07	43.274	6.3799e-06	53.533	131.829	413.002	137.039	99.578	217.200	231.434	99.907	104.871	173.359	234.127	104.588	108.272	108.656	113.561	220.572	112.801	-8191	255	
18871.602	1	1	0	0	0.099549	0.047992	0.10703	0.27267	0.1086	0.19879	0.301	0.11116	0.067964	0.2717	0.13911	0.096445	0.1259	0.19773	0.19321	0.084128	-1.6417	-1.6771	-1.7854	-2.0167	-1.5792	-1.9417	-2.1729	-1.7417	-2.0438	-1.8521	-1.7708	-2.2771	-1.7521	-2.0125	-1.9375	-1.3937	284.562	120.353	140.536	134.488	191.887	138.562	428.797	438.763	115.442	158.441	287.568	233.852	293.992	382.414	336.759	111.900	0.00083147	0.00079954	9.6756e-05	1350	2.3147e-06	2.9721e-06	1350.6	366.64	4.8424e-06	2.2403e-06	418.66	139.61	122.59	41.603	1.3331e-05	51.664	0.00057977	0.00058235	0.0001622	1381.3	6.3699e-06	6.3685e-06	1380.5	376.02	6.3531e-06	6.345e-06	433.04	144.17	126.2	43.159	6.3331e-06	53.44	149.375	158.259	252.770	99.941	438.383	330.012	99.837	104.900	129.556	243.596	104.654	108.393	108.640	113.697	255.163	112.898	-8191	255	
18871.699	1	1	0	0	0.11324	0.15328	0.17765	0.13306	0.1868	0.1883	0.12668	0.13297	0.13942	0.15789	0.18774	0.26819	0.10548	0.12459	0.17708	0.034642	-1.5938	-1.7604	-1.575	-2.1208	-1.6271	-1.9625	-2.1688	-1.5521	-2.0292	-1.775	-1.7583	-2.3167	-1.7396	-2	-2.0729	-1.4854	189.601	342.655	360.609	342.799	191.701	238.534	353.023	396.414	145.272	331.887	409.099	91.045	395.342	414.766	403.977	431.111	0.00065014	0.00030509	0.00027318	1355.2	3.3052e-06	5.3253e-06	1353.6	367.74	2.0065e-06	1.007e-05	419.4	139.78	120.49	41.871	9.7699e-06	51.781	0.00057601	0.00057417	0.00015994	1381.9	6.2598e-06	6.2743e-06	1378.4	375.47	6.2671e-06	6.2714e-06	431.07	143.91	125.43	43.16	6.2375e-06	53.305	142.025	109.339	357.957	99.743	179.032	356.383	99.765	104.471	216.737	124.164	104.007	108.425	108.766	113.369	361.972	112.715	-8191	255	
18871.795	1	1	0	0	0.087703	0.063168	0.24643	0.18848	0.16674	0.053397	0.20302	0.10318	0.12897	0.31022	0.17438	0.086917	0.068119	0.15965	0.039718	0.16753	-1.6667	-1.6604	-1.6187	-2.1021	-1.6604	-1.7375	-2.1854	-1.7125	-1.7875	-1.9604	-1.6187	-2.3167	-1.7188	-1.8729	-2.0417	-1.7771	392.868	341.634	406.121	443.833	266.966	330.298	347.933	390.911	196.856	115.704	373.399	400.881	404.655	398.863	141.470	423.502	0.00068064	0.00032142	0.00021483	1350.5	3.0615e-06	6.4231e-06	1350.9	366.37	3.53e-06	8.1175e-07	420.54	139.71	122.85	41.808	1.4424e-05	51.866	0.00056953	0.00056756	0.00015813	1379.5	6.1958e-06	6.1953e-06	1377.8	374.83	6.1823e-06	6.1948e-06	429.75	143.53	125.57	43.124	6.2265e-06	53.471	132.847	164.596	395.286	100.095	149.909	241.193	100.000	104.664	224.542	129.071	104.281	108.575	108.661	113.877	259.610	112.656	-8191	255	
18871.891	1	1	0	0	0.28674	0.29019	0.10974	0.33558	0.21411	0.1116	0.14123	0.036322	0.28452	0.19449	0.2232	0.20959	0.03769	0.083194	0.05232	0.28488	-1.5292	-1.8854	-1.5396	-2.15	-1.6042	-1.5187	-2.3521	-1.7854	-1.9688	-1.8771	-1.6417	-2.1104	-1.8979	-1.7479	-1.9896	-1.8062	426.078	426.113	348.129	415.509	422.779	135.448	291.408	318.615	438.232	389.662	321.283	420.992	257.713	144.442	306.702	425.209	0.00063545	0.00027037	0.00014745	1355.4	1.2929e-06	3.8296e-06	1358	366.84	3.4374e-06	2.1698e-06	419.57	139.63	122.9	41.857	1.0682e-05	51.903	0.00056781	0.0005685	0.00015812	1381.3	6.2334e-06	6.1956e-06	1381.1	375	6.2266e-06	6.2396e-06	431.74	143.54	125.79	43.143	6.2351e-06	53.452	126.694	107.885	400.722	100.145	100.477	176.865	99.873	104.616	225.895	134.659	104.119	108.415	108.732	113.491	211.781	112.751	-8191	255	
18872.012	1	1	0	0	0.21331	0.15588	0.21496	0.22874	0.083543	0.27851	0.36745	0.13702	0.11239	0.27811	0.39661	0.12266	0.35227	0.16932	0.12912	0.25696	-1.4354	-2.1542	-1.5729	-2.0938	-1.7896	-1.5771	-2.2938	-1.9062	-1.85	-2.0625	-1.8813	-2.0375	-1.9062	-1.7292	-1.9646	-1.85	195.542	132.097	97.061	421.222	172.327	352.738	414.531	303.031	237.759	244.212	397.043	436.061	174.704	374.965	399.732	325.265	0.00079131	0.00073141	0.00015056	1354.1	4.2994e-06	5.6834e-06	1349.7	367.05	5.1906e-06	3.6243e-06	420.06	139.35	122.38	41.634	2.9813e-06	51.597	0.00057183	0.00057254	0.00015932	1383.3	6.261e-06	6.252e-06	1380.3	375.34	6.2396e-06	6.2103e-06	430.37	143.88	125.79	43.128	6.2493e-06	53.343	143.904	107.190	121.001	100.059	202.417	331.474	99.823	104.700	173.988	400.890	104.442	108.387	108.403	113.621	202.649	112.495	-8191	255	
18872.107	1	1	0	0	0.2838	0.23384	0.05122	0.1944	0.074353	0.17229	0.31941	0.27748	0.25278	0.18225	0.22567	0.1243	0.18019	0.11756	0.10238	0.26318	-1.1833	-1.9813	-1.6292	-2.2042	-1.9333	-1.5167	-2.3688	-1.875	-1.7646	-1.9729	-1.5917	-1.8479	-1.9417	-1.6187	-2.0271	-1.8979	258.076	287.867	164.682	323.481	163.907	170.868	400.148	439.210	251.514	222.108	345.822	417.248	307.877	154.709	302.151	438.741	0.00065394	0.00056035	0.00016094	1356.6	6.3473e-06	3.4513e-06	1356.5	366.93	5.4224e-06	3.8373e-06	423.13	140.09	122.05	41.7	2.7989e-06	51.785	0.00057025	0.0005715	0.00015925	1383.7	6.2372e-06	6.2616e-06	1380.9	375.64	6.2306e-06	6.2635e-06	431.15	143.89	125.87	43.1	6.2291e-06	53.356	146.410	160.908	369.649	99.990	190.683	255.875	99.843	104.762	108.736	90.495	104.135	108.451	108.316	113.432	179.968	112.971	-8191	255	
18872.203	1	1	0	0	0.12486	0.21757	0.070196	0.28221	0.023024	0.022725	0.19274	0.14499	0.15597	0.12825	0.040429	0.26253	0.22424	0.23081	0.068246	0.1164	-1.4396	-2.0187	-1.5604	-1.9688	-2.0479	-1.5146	-2.15	-1.775	-1.7146	-1.925	-1.5875	-1.9312	-2.0187	-1.6604	-1.8917	-2.0125	296.922	391.557	279.771	426.682	146.263	352.729	428.687	359.674	137.319	433.857	410.986	411.855	88.960	97.009	290.860	296.326	0.00064156	0.00066684	0.00018824	1360.4	7.3574e-06	6.0419e-06	1355.4	367.51	6.8065e-06	9.0819e-06	414.23	140.42	123.42	41.536	3.6928e-06	51.648	0.00056632	0.00056777	0.00015755	1381.3	6.172e-06	6.1604e-06	1379.6	374.54	6.1564e-06	6.198e-06	429.18	143.76	125.57	43.013	6.2007e-06	53.334	133.780	127.162	113.298	99.956	177.156	279.835	99.860	104.869	210.721	234.618	103.934	108.363	108.983	113.850	275.210	112.326	-8191	255	
18872.301	1	1	0	0	0.20941	0.23403	0.27036	0.17279	0.16577	0.24271	0.2532	0.081679	0.25515	0.11061	0.31117	0.04033	0.019283	0.37845	0.078843	0.10377	-1.1292	-2.1229	-1.5688	-1.8875	-2.1729	-1.5104	-2.2583	-2.1042	-1.5104	-2.1146	-1.7646	-1.7521	-2.1437	-1.5208	-1.7563	-1.9396	230.672	316.219	443.878	181.060	285.157	111.312	375.543	334.123	313.437	367.041	134.333	155.508	431.905	151.155	206.379	270.416	0.00087549	0.00083779	0.00015811	1357	9.7306e-06	9.4224e-06	1355.3	366.72	6.1571e-06	6.6522e-06	420.18	139.68	121.84	41.708	5.5577e-06	51.648	0.00056485	0.00056416	0.00015752	1381.9	6.1411e-06	6.1343e-06	1377.1	374.81	6.1275e-06	6.1209e-06	428.73	143.44	124.96	43.037	6.1267e-06	53.301	149.219	210.730	102.455	99.938	183.207	226.523	99.847	104.739	279.271	310.608	104.577	108.247	108.791	113.772	268.633	112.899	-8191	255	
18872.371	1	1	0	0	0.095673	0.1485	0.25783	0.2981	0.092454	0.080363	0.18564	0.23072	0.077149	0.060316	0.16692	0.11146	0.045454	0.20853	0.28892	0.055967	-1.0771	-1.9167	-1.6083	-1.7188	-2.05	-1.5396	-1.8104	-1.9625	-1.5854	-2.0083	-1.7354	-1.6146	-2.1063	-1.575	-1.6542	-2.0833	320.785	332.900	443.100	348.985	270.645	265.996	408.238	339.553	444.018	312.745	259.229	354.515	110.311	428.437	283.780	190.025	0.00065706	0.00084793	7.7617e-05	1359.6	4.4206e-06	1.3111e-06	1355.8	367.24	2.809e-06	1.8005e-06	419.87	139.99	122.43	41.724	8.4039e-06	51.467	0.00056288	0.00056177	0.00015629	1380.8	6.154e-06	6.1575e-06	1379.1	374.78	6.1815e-06	6.1441e-06	429.55	143.66	125.57	43.13	6.1995e-06	53.359	143.990	102.349	333.609	99.590	108.385	298.929	99.738	104.430	188.924	257.936	104.033	108.462	108.368	113.492	243.161	112.305	-8191	255	
18872.492	1	1	0	0	0.075333	0.033839	0.22767	0.25983	0.14768	0.24131	0.3319	0.22112	0.2128	0.10263	0.072086	0.15339	0.2875	0.27433	0.21127	0.23742	-1.0875	-1.8625	-1.8104	-1.6729	-1.9604	-1.6854	-1.9792	-1.9708	-1.4271	-1.8458	-1.7104	-1.6833	-2.2271	-1.7104	-1.8396	-2.0229	169.127	222.946	164.130	413.339	212.181	92.592	358.019	404.951	215.554	91.405	248.533	411.023	236.011	101.882	377.674	320.975	0.00070739	0.00025061	0.0001807	1358.2	4.4548e-06	6.5034e-06	1355.7	366	6.3706e-06	1.9715e-06	418.34	140.12	121.85	41.535	5.9819e-06	51.518	0.00056779	0.00056776	0.00015819	1384.4	6.1929e-06	6.2242e-06	1380.7	374.89	6.2378e-06	6.2203e-06	429.85	143.58	125.75	43.039	6.2392e-06	53.403	155.614	221.277	182.760	99.786	175.248	208.026	99.576	104.482	302.741	392.038	103.701	108.071	108.401	112.842	401.539	112.281	-8191	255	
18872.588	1	1	0	0	0.13786	0.071282	0.067627	0.18334	0.14258	0.35395	0.34254	0.33401	0.103	0.1211	0.060698	0.27109	0.19872	0.35824	0.15922	0.23355	-0.95417	-1.9875	-1.8062	-1.6437	-2.0854	-1.7583	-1.85	-2.1688	-1.5646	-1.7958	-2.0396	-1.6187	-2.0312	-1.8937	-1.7854	-2.075	400.704	396.057	158.169	172.504	286.274	299.167	380.899	418.724	419.418	416.384	323.875	338.185	234.610	421.896	323.105	278.628	0.00080524	0.00042107	0.0003163	1356.5	5.2501e-07	3.1298e-06	1355.7	366.72	1.4695e-05	2.3925e-06	420.3	140.34	123.75	41.66	8.4138e-07	51.582	0.00057071	0.00056885	0.00015858	1383.6	6.2354e-06	6.2452e-06	1381.8	374.8	6.2288e-06	6.2195e-06	430.68	143.8	125.67	43.111	6.2161e-06	53.326	134.412	383.850	159.166	99.848	281.545	325.559	99.607	104.276	237.563	212.296	104.176	108.078	108.565	113.578	283.173	112.508	-8191	255	
18872.684	1	1	0	0	0.27884	0.14914	0.24345	0.31132	0.22249	0.050227	0.10541	0.27488	0.13584	0.25488	0.26039	0.090661	0.092797	0.12537	0.094818	0.19999	-1.1708	-1.7313	-2.0687	-1.7563	-1.9542	-1.7437	-1.9167	-2.2229	-1.5854	-1.8417	-2.2042	-1.5896	-2.1625	-1.9125	-1.5771	-2.1542	180.218	248.763	408.004	366.141	358.628	292.540	252.030	405.478	145.558	167.932	354.471	312.855	295.119	328.285	375.166	200.934	0.00075484	0.00029131	0.00041536	1359.8	3.9111e-06	4.9512e-06	1353.9	365.94	8.5093e-06	6.3275e-06	414.92	139.48	123.11	41.649	3.6568e-06	51.828	0.0005679	0.00056649	0.00015722	1382.4	6.1394e-06	6.164e-06	1378.4	374.66	6.1168e-06	6.125e-06	427.23	143.29	125.04	42.949	6.1025e-06	53.21	153.014	88.061	101.771	99.842	224.400	229.353	99.634	104.404	163.043	181.723	104.170	108.397	108.310	113.422	290.774	112.467	-8191	255	
18872.781	1	1	0	0	0.031916	0.12265	0.26272	0.16244	0.19881	0.21298	0.34539	0.05163	0.10958	0.28254	0.23218	0.16139	0.1996	0.081304	0.13989	0.048385	-1.1812	-1.7146	-1.9813	-1.6583	-1.9521	-1.8521	-1.9312	-2.0229	-1.5625	-1.7938	-2.0229	-1.5938	-1.9813	-2.0333	-1.5792	-2.225	222.451	309.045	206.556	364.745	135.883	344.053	360.331	437.910	108.448	433.808	383.552	420.550	420.567	183.803	300.693	207.705	0.0007594	0.00059591	0.00019425	1353.2	5.173e-06	1.1497e-06	1351.9	366.34	6.9902e-06	4.9763e-06	417.93	139.37	122.65	41.603	4.7615e-06	51.283	0.00055958	0.00055896	0.00015555	1378.4	6.0862e-06	6.0903e-06	1376.3	373.6	6.0643e-06	6.0454e-06	427.02	143.02	124.6	42.888	6.0598e-06	52.953	150.205	417.724	154.322	100.186	176.433	186.523	99.895	104.652	178.661	110.445	103.835	107.929	108.491	113.576	265.806	112.942	-8191	255	
18872.900	1	1	0	0	0.13152	0.13706	0.071654	0.14509	0.28077	0.058857	0.29921	0.029044	0.059692	0.2356	0.25447	0.11867	0.15561	0.28265	0.22137	0.075755	-1.4438	-1.5354	-2.0146	-1.7125	-2	-1.9896	-1.7938	-2.2604	-1.6417	-1.8125	-1.975	-1.775	-2.1292	-2.0792	-1.5583	-2.075	119.500	150.786	379.491	381.749	346.199	412.400	350.724	412.121	351.909	219.602	431.798	245.807	399.761	443.806	396.557	160.141	0.00067129	0.0002247	0.00020074	1357.1	6.6949e-06	3.2644e-06	1352.4	366.62	8.2999e-06	3.1357e-06	420.68	140.22	122.3	41.595	1.4407e-06	51.417	0.00055243	0.00055072	0.00015226	1375.7	5.9953e-06	5.9992e-06	1373.1	373.08	6.0086e-06	5.9875e-06	425.12	142.75	123.92	42.77	6.0142e-06	52.968	129.163	404.853	158.790	100.262	163.753	202.847	99.842	104.667	189.169	281.538	104.134	108.471	108.732	113.636	293.484	112.499	-8191	255	
18872.973	1	1	0	0	0.16448	0.13031	0.12509	0.33846	0.066955	0.087495	0.25489	0.12202	0.27438	0.23501	0.14148	0.20293	0.0047286	0.30692	0.11237	0.21974	-1.5667	-1.6833	-1.9333	-1.8479	-1.7896	-2.1354	-1.6875	-2.1104	-1.7313	-1.6958	-2.0938	-1.75	-1.9458	-2.0146	-1.5458	-2.0479	251.356	367.036	123.757	420.529	407.464	278.475	407.608	344.278	233.460	233.208	187.264	382.329	100.249	90.932	185.995	189.672	0.00049308	0.00051039	0.0001884	1354.2	3.339e-06	5.5964e-07	1349.2	366.28	1.5322e-06	7.2189e-06	419.58	139.89	122.53	41.759	2.5461e-06	51.42	0.00054886	0.00054951	0.00015242	1375.4	6.04e-06	6.0139e-06	1374.1	373.81	6.0332e-06	6.0153e-06	426.66	142.99	124.84	42.848	6.0722e-06	53.05	128.129	248.731	393.091	99.916	177.666	342.465	99.664	104.649	362.645	257.720	104.022	108.339	109.000	113.289	252.121	112.938	-8191	255	
18873.092	1	1	0	0	0.13737	0.26969	0.040752	0.043625	0.15986	0.30932	0.41808	0.29403	0.074216	0.26796	0.080616	0.10699	0.26393	0.24711	0.19573	0.21239	-1.1833	-1.7146	-2.0229	-1.6688	-1.8125	-2.0292	-1.8729	-2.0729	-1.9167	-1.5833	-2.1875	-1.8646	-1.7583	-2.1208	-1.6688	-2.0292	91.015	288.785	401.821	166.180	426.215	426.548	351.611	385.861	176.503	247.401	381.251	293.328	102.677	284.097	365.322	87.686	0.00062137	0.00021429	8.8763e-05	1350.6	3.7081e-06	6.5408e-06	1351.1	366.38	5.3965e-06	4.518e-06	415.85	139.46	122.81	41.477	7.4888e-06	51.526	0.00055557	0.00055386	0.000155	1377.6	6.0818e-06	6.108e-06	1374.1	373.84	6.0964e-06	6.0728e-06	426.25	142.98	124.82	42.894	6.0769e-06	53.026	136.602	238.950	132.430	100.042	255.439	173.959	99.567	104.921	219.690	95.050	104.347	108.361	108.683	113.559	269.584	112.698	-8191	255	
18873.188	1	1	0	0	0.22775	0.18537	0.086167	0.030146	0.2506	0.13914	0.27167	0.21893	0.22721	0.075287	0.040491	0.11742	0.26731	0.32477	0.12475	0.30024	-1.5229	-1.4167	-2.0896	-1.8771	-1.6229	-1.9646	-1.7563	-2.0083	-1.875	-1.5375	-2.2	-1.8833	-1.7917	-2.1667	-1.6187	-1.9458	414.943	125.151	169.403	253.834	117.519	398.375	338.042	127.619	298.801	169.680	312.431	114.480	125.400	433.462	391.327	172.844	0.00089735	0.00041304	0.0002424	1355.9	9.4061e-06	5.1156e-07	1356	366.57	3.8931e-06	1.1935e-05	416.85	139.43	122.23	41.584	4.9255e-06	51.502	0.00055776	0.00055625	0.00015476	1378.6	6.0681e-06	6.1107e-06	1376.9	373.79	6.1447e-06	6.1194e-06	428.09	143.23	124.93	42.947	6.1718e-06	53.182	140.820	387.439	189.993	100.080	226.186	200.080	100.041	104.656	194.227	174.845	104.262	108.436	108.626	113.693	236.707	112.888	-8191	255	
18873.283	1	1	0	0	0.092978	0.039742	0.12692	0.20103	0.1407	0.17363	0.16555	0.22284	0.098204	0.25031	0.14971	0.32257	0.10428	0.22082	0.26471	0.20289	-1.525	-1.4271	-1.85	-1.8375	-1.4833	-1.9958	-1.9021	-1.6187	-1.8896	-1.4312	-2.025	-1.825	-1.5875	-2.0708	-1.65	-1.7604	236.758	190.965	373.106	103.611	184.566	412.753	91.165	378.045	258.709	98.270	195.863	410.369	418.366	371.987	379.174	309.666	0.0007521	0.00041161	1.3407e-05	1357.7	6.1257e-06	1.5305e-06	1350.1	365.49	1.9587e-06	4.4448e-06	419.58	139.47	122.61	41.53	9.9734e-06	51.464	0.00056576	0.00056532	0.00015667	1383.3	6.1747e-06	6.1727e-06	1376.7	373.92	6.1638e-06	6.197e-06	429.52	143.41	125.67	43.033	6.2501e-06	53.321	149.579	158.768	412.349	99.905	216.304	385.353	99.791	104.601	220.141	388.939	104.483	108.261	108.809	113.439	190.143	112.491	-8191	255	
18873.381	1	1	0	0	0.25809	0.26774	0.21415	0.26579	0.059537	0.13914	0.29488	0.21264	0.20974	0.069291	0.33467	0.20558	0.18203	0.17744	0.10644	0.27703	-1.3083	-1.6854	-1.9208	-2.1229	-1.5812	-2.0417	-1.8813	-1.8354	-1.9583	-1.6313	-1.9292	-1.8958	-1.7062	-2.1042	-1.8167	-1.7271	311.815	115.443	224.273	395.018	245.754	414.244	430.778	394.426	354.090	96.681	261.892	379.319	349.091	439.554	363.021	434.979	0.00090086	0.00050723	5.3407e-05	1354.9	5.5947e-06	6.2619e-06	1351.6	366.52	5.471e-06	8.1651e-06	416.51	139.82	121.74	41.723	3.8174e-06	51.516	0.0005708	0.00056689	0.0001582	1380.1	6.2194e-06	6.1911e-06	1377.2	374.25	6.184e-06	6.1731e-06	428.87	143.36	125.2	42.966	6.1813e-06	53.189	133.638	205.325	161.027	99.969	202.068	169.197	99.882	104.610	225.001	230.403	104.196	108.256	108.448	113.367	185.888	112.531	-8191	255	
18873.502	1	1	0	0	0.12936	0.30848	0.098397	0.22795	0.16473	0.061599	0.14399	0.28796	0.082713	0.12834	0.081991	0.18751	0.12993	0.12566	0.32226	0.35995	-1.5042	-1.6187	-1.9458	-2.1625	-1.4125	-1.9771	-1.8771	-1.5958	-1.9729	-1.7979	-2.0167	-1.7667	-1.5438	-2.0875	-1.575	-1.7375	253.498	172.051	385.639	298.160	240.698	294.228	371.980	389.031	329.003	339.964	385.916	98.102	114.391	134.249	197.438	429.825	0.00062707	0.00010643	0.00034355	1353.6	2.4908e-06	1.1104e-06	1348.6	366.21	3.3638e-06	3.0015e-06	415.73	139.41	121.59	41.659	3.4286e-06	51.54	0.00056598	0.00056402	0.00015629	1378.3	6.128e-06	6.1242e-06	1375.5	373.54	6.1135e-06	6.0793e-06	427.68	142.88	124.6	42.861	6.0779e-06	52.986	140.040	272.734	401.994	100.003	97.620	243.872	99.913	104.562	221.290	132.027	104.388	108.306	108.943	113.283	87.551	112.914	-8191	255	
18873.596	1	1	0	0	0.092112	0.068117	0.29303	0.20216	0.036986	0.10424	0.25976	0.14507	0.26664	0.10937	0.25567	0.061975	0.11896	0.15178	0.14896	0.10119	-1.6479	-1.5479	-1.5729	-2.1146	-1.4542	-2.0458	-2.0167	-1.5896	-2.0938	-1.5542	-1.8188	-2.15	-1.6562	-1.9729	-1.8021	-1.7708	311.928	131.291	172.198	394.920	156.502	412.149	368.097	106.821	437.641	100.518	398.298	160.906	361.572	97.947	290.198	363.860	0.00080767	0.00043518	0.0003845	1353.9	9.3224e-06	1.9204e-06	1352.8	364.67	3.9098e-06	6.3981e-06	418.53	139.33	122.15	41.54	9.5841e-06	51.303	0.00055256	0.00055323	0.0001539	1375.8	6.0352e-06	6.049e-06	1373.4	373.23	6.0516e-06	6.036e-06	426.06	142.63	124.26	42.834	6.0424e-06	53.011	130.247	120.222	129.640	99.999	228.706	363.037	99.836	104.577	355.947	355.927	103.914	108.414	108.908	113.554	246.171	112.582	-8191	255	
18873.670	1	1	0	0	0.11892	0.24953	0.20314	0.28192	0.012677	0.17517	0.18329	0.25662	0.17889	0.093334	0.22139	0.14972	0.050488	0.077821	0.38465	0.25963	-1.6021	-1.5	-1.4521	-1.8396	-1.6708	-1.8833	-2.0833	-1.7604	-1.8875	-1.8375	-1.5833	-2.2333	-1.5083	-1.9458	-1.9604	-1.375	224.026	435.013	441.744	281.846	390.830	178.253	390.832	91.191	205.999	366.239	398.659	139.184	395.376	424.286	435.938	398.321	0.00067954	0.00043729	0.00010444	1351.2	3.9611e-06	4.1034e-06	1351.9	365.05	1.968e-06	6.839e-06	419.38	139.45	122.44	41.436	7.7505e-06	51.226	0.00055297	0.00055254	0.00015418	1372.7	6.0105e-06	6.004e-06	1372.9	373.07	6.0195e-06	6.0339e-06	425.76	142.79	124.25	42.788	6.0441e-06	52.941	142.099	108.509	104.530	100.220	224.835	272.739	99.719	104.642	184.674	187.889	104.054	108.266	108.764	113.697	276.806	112.741	-8191	255	
18873.787	1	1	0	0	0.12937	0.26494	0.18423	0.21089	0.081264	0.067193	0.24327	0.23257	0.18423	0.42807	0.079319	0.302	0.31003	0.27241	0.25207	0.30369	-1.4937	-1.7479	-1.4937	-1.975	-1.6542	-1.8729	-2.0833	-1.5229	-1.8646	-1.7812	-1.4542	-2.2292	-1.4917	-1.7875	-1.9396	-1.6583	235.537	286.934	330.167	223.982	331.283	240.643	420.901	336.469	243.349	120.198	423.499	370.336	444.217	378.682	173.609	365.243	0.0006297	0.0004074	6.2871e-05	1350.5	4.7251e-06	7.6313e-06	1347.6	364.4	8.7949e-06	3.0129e-06	419.1	139.11	121.7	41.572	5.6372e-06	51.313	0.00055157	0.00055244	0.00015395	1375.8	6.0491e-06	6.0232e-06	1371.8	372.74	6.0224e-06	6.0342e-06	426.05	142.55	124.23	42.773	6.0173e-06	52.909	133.181	96.573	366.094	100.301	131.038	194.645	99.647	104.689	237.043	252.878	104.518	108.237	108.538	113.494	389.836	113.044	-8191	255	
18873.885	1	1	0	0	0.35377	0.058785	0.18792	0.27379	0.11337	0.22879	0.082102	0.34446	0.14202	0.15689	0.072625	0.50587	0.27268	0.32828	0.27906	0.066433	-1.4167	-1.8292	-1.6521	-2.2	-1.5292	-1.7417	-2.1375	-1.6437	-1.75	-1.8042	-1.4771	-2.0396	-1.8188	-1.6979	-1.9646	-1.5167	234.610	88.931	393.894	388.732	211.838	220.335	217.167	424.730	100.503	363.846	247.573	399.687	428.530	362.004	418.790	414.673	0.00054244	0.00037438	5.2546e-05	1350.7	3.5612e-06	3.2801e-06	1348.5	366.68	9.2211e-06	4.163e-06	421.62	139.37	121.99	41.652	7.3055e-06	51.187	0.00054933	0.0005484	0.000152	1371.8	5.9814e-06	5.9808e-06	1372.7	373.04	5.9714e-06	6.0099e-06	425.57	142.69	124.1	42.781	6.0006e-06	52.88	148.195	151.611	163.143	100.115	442.366	361.103	99.899	104.842	192.058	90.429	103.498	107.850	108.771	113.586	304.217	112.401	-8191	255	
18873.980	1	1	0	0	0.30762	0.28364	0.11844	0.36944	0.37506	0.16659	0.22628	0.23757	0.2719	0.24336	0.20325	0.36557	0.20174	0.22774	0.01521	0.22484	-1.3458	-1.9479	-1.5333	-2.0958	-1.8083	-1.6479	-2.1063	-1.7188	-2.0187	-1.8937	-1.5458	-2.0563	-1.7417	-1.5792	-2.0917	-1.7333	381.105	88.809	279.603	99.582	343.089	89.725	396.089	418.422	91.189	371.438	438.660	407.029	360.971	411.256	297.280	102.827	0.00055984	0.00072955	0.00012028	1357.3	2.0306e-06	4.9854e-06	1351.2	366.58	6.9528e-06	7.3569e-06	420.07	140.03	122.48	41.624	6.8296e-06	51.649	0.00054635	0.00054794	0.00015213	1374.1	5.9719e-06	5.9749e-06	1372.7	372.71	5.9541e-06	5.9627e-06	425.15	142.66	124.08	42.735	5.946e-06	52.94	126.198	107.694	189.988	100.223	369.147	168.954	99.909	104.571	153.131	298.727	103.978	108.467	108.392	113.508	260.062	112.766	-8191	255	
18874.076	1	1	0	0	0.11204	0.027672	0.33673	0.12807	0.1329	0.20707	0.14208	0.27539	0.046683	0.17061	0.19805	0.12847	0.27436	0.14567	0.16642	0.23963	-1.3875	-1.9375	-1.4854	-2.0833	-1.825	-1.7521	-2.2188	-1.6625	-1.6875	-1.925	-1.5896	-1.875	-1.8146	-1.6375	-2.0792	-1.6938	173.030	172.449	118.332	418.175	271.913	328.590	376.505	341.079	349.985	408.787	434.056	126.646	108.807	423.547	366.816	331.031	0.00085396	0.00073197	0.00021094	1349.7	4.1034e-06	4.1225e-06	1348.9	366.95	5.8955e-06	3.1322e-06	418.36	139.2	120.87	41.601	2.5231e-06	51.358	0.00054412	0.00054406	0.00015069	1370.4	5.9026e-06	5.8856e-06	1369.1	372.13	5.8499e-06	5.8757e-06	422	141.92	122.67	42.581	5.834e-06	52.696	143.788	204.169	140.087	99.955	159.988	111.225	99.618	104.729	254.039	178.604	104.328	108.122	108.034	113.407	252.740	112.739	-8191	255	
18874.197	1	1	0	0	0.29899	0.27329	0.21617	0.2381	0.21592	0.060292	0.1314	0.31662	0.21182	0.28037	0.40268	0.34148	0.15536	0.14873	0.048994	0.095885	-1.2687	-2.0583	-1.5729	-1.9854	-1.8937	-1.65	-2.3396	-1.5958	-1.5708	-2.0708	-1.6521	-1.9625	-1.9396	-1.5979	-1.9	-1.85	291.034	441.734	434.420	405.934	241.764	112.481	145.901	435.236	246.755	396.070	244.321	333.999	427.624	375.374	103.206	223.864	0.00058594	0.00041782	0.00024568	1352.7	6.9661e-06	3.0813e-06	1350.7	366.83	1.7901e-06	4.9829e-06	416.55	139.49	121.91	41.728	3.7087e-06	51.382	0.00053342	0.00053386	0.00014814	1367	5.8131e-06	5.8078e-06	1366.8	371.55	5.788e-06	5.7758e-06	420.83	141.86	122.71	42.547	5.7797e-06	52.545	132.935	231.320	446.384	100.219	169.813	216.053	99.813	104.830	315.858	205.674	104.406	108.713	108.552	113.726	182.748	112.825	-8191	255	
18874.268	1	1	0	0	0.045184	0.12354	0.22972	0.37517	0.36075	0.044056	0.29939	0.059755	0.19121	0.24246	0.10278	0.15079	0.22212	0.39985	0.30213	0.18318	-1.0542	-2.0021	-1.4646	-1.9875	-1.8729	-1.3917	-2.1688	-2.0917	-1.6688	-2.1125	-1.6583	-1.7458	-2.15	-1.5396	-1.8687	-1.6958	126.616	268.363	183.458	377.261	221.278	100.134	397.605	427.171	114.283	134.446	215.162	127.067	326.509	391.207	214.148	417.851	0.00063476	0.00022443	0.00019454	1346.3	5.423e-06	3.5401e-06	1341.2	365.24	3.4714e-06	3.7244e-06	414.73	139.69	121.47	41.416	9.0733e-06	51.358	0.00052995	0.00052991	0.00014728	1366	5.8148e-06	5.7927e-06	1364.6	371.14	5.8095e-06	5.7706e-06	420.55	141.98	122.43	42.503	5.7678e-06	52.587	142.025	250.517	166.974	99.914	233.285	412.861	99.786	104.641	190.546	293.092	104.114	108.490	108.564	113.610	216.485	112.864	-8191	255	
18874.365	1	1	0	0	0.027974	0.16392	0.34355	0.30979	0.12418	0.13921	0.22335	0.15223	0.27308	0.20777	0.20584	0.24798	0.24522	0.048772	0.29317	0.11302	-1.1146	-1.9813	-1.5396	-1.8292	-2.0563	-1.6313	-2.0938	-1.9917	-1.4854	-2.0729	-1.7396	-1.7708	-1.975	-1.4438	-1.7708	-2.0875	195.857	350.548	379.137	381.213	201.132	92.258	347.268	396.225	200.349	121.814	432.486	90.349	94.993	426.025	126.970	364.080	0.00067839	0.00079008	0.00014702	1351.5	7.103e-06	5.985e-06	1348.6	364.9	6.5277e-06	9.3337e-06	418.64	139.41	122.14	41.446	9.2023e-06	51.387	0.0005277	0.00052473	0.00014571	1366.6	5.7297e-06	5.7446e-06	1366.3	370.37	5.7532e-06	5.7346e-06	420.37	141.79	122.5	42.534	5.7844e-06	52.562	140.515	210.919	223.247	100.244	215.039	181.661	99.747	104.783	194.707	232.432	104.061	108.320	108.699	113.598	402.788	112.665	-8191	255	
18874.461	1	1	0	0	0.20062	0.10458	0.07587	0.17688	0.14827	0.18729	0.35548	0.17212	0.045891	0.020247	0.17206	0.079296	0.19858	0.19766	0.12633	0.15615	-1.05	-2.025	-1.75	-1.8271	-2.0958	-1.5125	-2.2271	-2.0667	-1.4354	-2.1083	-1.8646	-1.7979	-2.0833	-1.725	-1.85	-2.1437	215.370	234.760	97.283	98.466	329.892	429.400	407.161	391.901	287.168	408.822	362.026	373.030	262.688	193.145	88.647	329.341	0.00064984	0.00052337	0.00049631	1353.3	4.1358e-06	5.0343e-06	1355.2	365.96	9.9548e-06	3.8756e-06	415.87	139.97	122.33	41.588	8.1533e-06	51.467	0.00053053	0.00052816	0.00014826	1370	5.8614e-06	5.8727e-06	1373.9	372.18	5.8988e-06	5.8516e-06	422.23	142.31	122.96	42.551	5.7541e-06	52.539	115.383	179.588	103.976	100.176	127.018	206.171	99.849	104.872	160.132	88.496	103.836	108.202	108.677	113.909	228.788	112.868	-8191	255	
18874.580	1	1	0	0	0.1804	0.21587	0.34456	0.098845	0.13544	0.28772	0.26834	0.090044	0.24416	0.16937	0.13101	0.20938	0.044467	0.10209	0.14184	0.13522	-1.0042	-1.9042	-1.6688	-1.6708	-1.9875	-1.5542	-1.925	-2.1	-1.3417	-2.1729	-1.8229	-1.7167	-1.9667	-1.5521	-1.7313	-2.2646	262.582	267.219	196.612	320.784	394.599	109.987	346.543	387.856	438.568	306.852	432.739	190.716	330.937	133.782	312.962	372.846	0.00064103	0.00022612	8.1743e-05	1349.3	5.4356e-06	5.0684e-06	1345	364.86	2.7674e-06	6.801e-06	417.27	139	121.2	41.496	2.8555e-06	51.37	0.00052379	0.00051939	0.00014307	1362	5.5915e-06	5.5335e-06	1360.4	368.97	5.4749e-06	5.4444e-06	413.69	140.34	120.16	41.958	5.4174e-06	51.954	128.433	214.451	155.500	100.354	138.396	199.787	99.832	104.894	420.596	139.360	104.446	108.504	108.577	113.337	207.532	112.499	-8191	255	
18874.676	1	1	0	0	0.037257	0.33517	0.26863	0.25573	0.11817	0.2428	0.15535	0.325	0.061773	0.31215	0.23096	0.23582	0.23115	0.28432	0.12194	0.22121	-0.96458	-1.8188	-1.8208	-1.6125	-2.0792	-1.6187	-1.9312	-2.1625	-1.5167	-1.7896	-2.0438	-1.5729	-2.075	-1.7896	-1.8146	-2.2229	186.885	259.473	251.176	391.306	261.322	238.657	369.672	431.738	354.861	275.673	313.411	403.973	437.866	416.992	204.111	418.137	0.0008002	0.00033532	0.00012367	1347.5	8.8674e-06	3.7167e-06	1344.6	362.99	5.1344e-06	2.5934e-06	415.78	138.96	121.06	41.504	3.9909e-06	51.283	0.00049901	0.00050153	0.00013977	1356.6	5.5377e-06	5.5776e-06	1358.9	369.5	5.6746e-06	5.6515e-06	418.59	141.5	122.37	42.485	5.7933e-06	52.581	147.535	180.614	152.632	100.024	191.003	223.794	99.724	104.491	117.770	201.643	104.093	108.453	108.424	113.808	291.792	112.579	-8191	255	
18874.773	1	1	0	0	0.23545	0.25215	0.11879	0.1889	0.36509	0.13142	0.37954	0.35539	0.24047	0.25391	0.13703	0.29229	0.2749	0.16699	0.13998	0.23487	-1.2708	-1.7875	-1.9458	-1.6	-1.9833	-1.7521	-1.9062	-2.2021	-1.6146	-1.8104	-1.9062	-1.5833	-1.8729	-1.8208	-1.6521	-2.1854	133.165	307.846	116.248	379.122	281.937	100.051	392.273	358.670	244.583	345.420	193.312	111.440	412.557	263.486	419.106	109.584	0.00071443	9.0636e-05	0.00014164	1357.9	3.9588e-06	2.9353e-06	1348.8	364.84	4.204e-06	3.0786e-06	416.14	139.18	121.6	41.67	5.02e-06	51.636	0.00053464	0.00053469	0.0001482	1371.3	5.8938e-06	5.8713e-06	1371.5	371.6	5.8769e-06	5.8661e-06	423.02	142.2	123.32	42.704	5.8922e-06	52.797	125.945	153.127	166.398	99.872	124.582	194.242	99.724	104.759	209.788	123.049	104.390	108.318	108.927	113.795	386.620	112.769	-8191	255	
18874.867	1	1	0	0	0.34675	0.1487	0.10236	0.24095	0.25063	0.13297	0.18879	0.16868	0.16484	0.29608	0.17955	0.35389	0.1955	0.25128	0.18423	0.0507	-1.1229	-1.6688	-1.9979	-1.4479	-1.7375	-1.8896	-1.9583	-2.1854	-1.5417	-1.6792	-1.9396	-1.6333	-2.0125	-1.8687	-1.6042	-2.2646	347.419	222.313	302.968	393.857	100.376	440.000	386.171	355.373	180.521	321.082	358.419	394.107	436.764	402.958	189.592	95.452	0.00081946	0.00057345	0.00029912	1351.7	1.55e-06	4.4097e-06	1347.9	364.46	4.4853e-06	2.7637e-06	415.47	139.73	122.61	41.555	4.3091e-06	51.592	0.00053747	0.00053331	0.0001492	1367.8	5.8062e-06	5.8005e-06	1368.8	371	5.7842e-06	5.7726e-06	421.4	141.93	122.76	42.499	5.7835e-06	52.585	136.662	150.782	109.740	99.772	408.414	210.288	99.969	104.560	441.140	136.542	104.660	108.235	108.885	113.828	267.341	112.762	-8191	255	
18874.965	1	1	0	0	0.1256	0.20739	0.053741	0.34383	0.14869	0.17712	0.21348	0.17771	0.10893	0.23584	0.26249	0.13445	0.3171	0.15844	0.044837	0.18864	-1.35	-1.7062	-2.0083	-1.6354	-1.7104	-2.1333	-1.8792	-2.4125	-1.7333	-1.5521	-2.1	-1.6896	-1.9562	-2.0896	-1.6083	-2.0771	94.756	265.890	404.402	383.276	267.222	335.335	364.962	281.334	308.826	404.157	126.243	182.093	396.569	441.561	412.582	418.509	0.00050596	0.00028223	2.9888e-05	1352.5	9.4653e-06	3.469e-06	1347.4	365.03	5.9272e-06	6.7253e-06	417.65	139.72	122.19	41.518	2.0472e-06	51.16	0.00053341	0.00053005	0.0001483	1366.9	5.8107e-06	5.8017e-06	1366	370.96	5.8164e-06	5.7918e-06	422.16	142.26	123.11	42.531	5.8274e-06	52.574	146.992	426.440	414.253	99.852	160.701	201.020	99.960	104.867	169.632	228.371	104.063	108.357	108.234	113.599	335.117	112.808	-8191	255	
18875.061	1	1	0	0	0.12564	0.14729	0.1418	0.10562	0.20942	0.11225	0.093029	0.12033	0.080387	0.10389	0.11971	0.15779	0.0091478	0.18847	0.12764	0.13088	-1.2896	-1.6604	-1.9667	-1.7104	-1.8792	-2.05	-1.85	-2.0646	-1.7146	-1.5479	-2.0854	-1.6979	-1.8417	-2.1688	-1.85	-2.0708	302.386	352.372	109.820	437.569	250.753	168.199	329.661	96.136	434.668	149.555	311.751	444.924	370.737	93.520	294.734	418.264	0.00072624	0.00038866	1.6886e-05	1350.9	3.3065e-06	7.1091e-06	1351.5	365.21	9.3298e-06	7.4784e-06	417.84	140.03	121.84	41.596	9.1126e-06	51.39	0.00053506	0.00053255	0.00014776	1369.7	5.7949e-06	5.8203e-06	1368.7	371.66	5.7941e-06	5.7814e-06	421.54	142.25	122.81	42.523	5.7987e-06	52.625	135.629	220.985	410.206	99.907	422.807	168.155	100.045	104.668	250.899	104.443	104.718	108.461	108.949	113.725	199.244	112.905	-8191	255	
18875.182	1	1	0	0	0.068248	0.21763	0.1834	0.29535	0.12122	0.082681	0.14164	0.32292	0.065863	0.14385	0.071571	0.24966	0.18897	0.11312	0.14402	0.18209	-1.3208	-1.5042	-1.8563	-1.9292	-1.6313	-1.8583	-1.8292	-2.0417	-1.8792	-1.6604	-2.0208	-1.8375	-1.9021	-2.0938	-1.5271	-2.1146	363.033	342.311	442.807	367.948	307.622	444.934	364.305	355.209	230.807	209.136	242.293	269.570	366.267	367.096	209.969	146.233	0.00063905	0.001132	7.9315e-05	1348.4	1.8718e-06	5.6405e-06	1353.7	365.96	3.463e-06	8.8987e-06	416.11	140.04	122.9	41.466	4.2085e-06	51.426	0.00052999	0.00052651	0.00014746	1367.8	5.7528e-06	5.7517e-06	1371.1	371.36	5.745e-06	5.7399e-06	419.55	142.1	122.7	42.474	5.7948e-06	52.648	135.656	182.359	288.625	100.128	239.518	223.129	100.012	104.926	153.140	191.146	104.088	108.239	108.409	113.582	190.603	112.712	-8191	255	
18875.277	1	1	0	0	0.083291	0.11541	0.13429	0.2094	0.41919	0.199	0.19175	0.20986	0.19093	0.13121	0.1762	0.22503	0.093088	0.10908	0.22231	0.15109	-1.3917	-1.5479	-1.9896	-1.8042	-1.9438	-2.2583	-1.8708	-1.8979	-1.9083	-1.5771	-1.8542	-1.6938	-1.6604	-1.9292	-1.7021	-1.9	277.525	390.304	110.438	311.266	134.676	375.510	390.884	137.610	410.640	353.730	347.603	406.709	114.087	105.113	365.918	402.312	0.00063404	0.00044132	0.00015862	1358	9.2993e-07	3.9065e-06	1354.9	366.34	8.4748e-06	1.0362e-05	414.53	139.82	122.07	41.584	1.0905e-05	51.123	0.00053075	0.00052995	0.00014698	1369.7	5.783e-06	5.7641e-06	1369.7	371.45	5.7666e-06	5.7601e-06	420.82	141.79	122.45	42.483	5.7342e-06	52.385	139.986	137.705	199.632	100.274	264.780	299.573	100.030	104.719	209.923	441.991	103.943	108.320	108.459	113.726	253.601	112.812	-8191	255	
18875.373	1	1	0	0	0.12297	0.21388	0.15191	0.28747	0.18455	0.32947	0.22259	0.20158	0.13438	0.23774	0.26227	0.23217	0.14871	0.14594	0.12948	0.21678	-1.5583	-1.625	-2.1021	-1.9125	-1.65	-2.1583	-1.5938	-1.8042	-2.0417	-1.55	-1.9292	-1.8062	-1.5646	-2.125	-1.7521	-1.5958	393.777	172.867	253.565	146.816	200.111	434.189	388.066	375.995	430.566	351.462	409.988	373.010	94.060	354.019	302.404	441.825	0.00075432	0.00038087	4.161e-05	1355.6	1.9799e-06	1.6685e-06	1347.8	365.09	5.2377e-06	2.6304e-06	416.63	139.17	122.35	41.542	5.1465e-06	51.344	0.00052284	0.0005189	0.00014365	1364.9	5.6481e-06	5.6013e-06	1362.8	370.11	5.6249e-06	5.6113e-06	418.17	141.16	121.78	42.273	5.605e-06	52.251	134.926	339.420	197.823	100.344	105.706	373.357	99.858	104.702	180.766	253.951	104.425	108.602	108.341	113.715	201.617	112.761	-8191	255	
18875.494	1	1	0	0	0.21535	0.0057322	0.040083	0.2854	0.041867	0.17761	0.38711	0.15636	0.19454	0.035063	0.020623	0.3654	0.079887	0.17997	0.10385	0.16113	-1.6125	-1.6187	-1.8396	-1.9167	-1.7354	-1.9271	-1.7229	-1.6125	-2.125	-1.4479	-1.8687	-1.9833	-1.6354	-2.1167	-1.7833	-1.8312	202.641	399.074	431.517	91.205	398.436	123.585	421.327	416.792	208.047	383.295	361.580	381.847	155.698	399.148	125.030	97.950	0.00078278	8.8586e-05	0.0001731	1353.9	1.9436e-06	1.0051e-05	1345.9	364.83	5.0119e-06	4.552e-06	412.55	139.13	120.83	41.563	9.9878e-06	51.423	0.0005097	0.00051005	0.00014047	1360.2	5.5148e-06	5.5082e-06	1360.8	368.6	5.5066e-06	5.4838e-06	415.27	140.7	120.84	42.113	5.5028e-06	52.179	146.080	196.289	108.404	100.278	175.438	234.823	99.987	104.612	172.228	188.547	104.126	108.306	108.607	113.611	222.429	112.680	-8191	255	
18875.566	1	1	0	0	0.097031	0.17072	0.17922	0.17379	0.22677	0.053091	0.28026	0.13439	0.21988	0.099303	0.14492	0.37799	0.35135	0.11589	0.033997	0.21433	-1.7208	-1.6396	-1.6542	-1.9438	-1.5312	-1.825	-1.9604	-1.7292	-2.1417	-1.6375	-1.9271	-2.1063	-1.4813	-1.8937	-1.8396	-1.7729	392.946	224.476	291.214	147.601	341.198	208.746	421.332	397.196	407.520	402.525	346.336	90.554	430.717	95.421	334.140	96.906	0.00075493	0.00053534	0.00018361	1350	9.0646e-06	3.1921e-06	1343.9	365.6	3.9007e-06	8.6563e-06	417.21	139.12	122.09	41.364	6.9914e-06	51.107	0.00050477	0.00050371	0.00014006	1356.8	5.5206e-06	5.5211e-06	1358.2	368.66	5.4928e-06	5.4819e-06	415.3	140.75	120.78	42.094	5.4947e-06	52.059	147.136	388.276	147.121	99.961	220.646	247.624	99.631	104.691	168.565	186.066	104.102	108.515	109.179	113.838	201.073	112.829	-8191	255	
18875.662	1	1	0	0	0.09881	0.089597	0.25594	0.29352	0.14863	0.16502	0.27864	0.20735	0.060718	0.11989	0.17717	0.29873	0.16979	0.22753	0.11674	0.16992	-1.7271	-1.4896	-1.7729	-2.0208	-1.5208	-1.9146	-1.8958	-1.7417	-1.9562	-1.7042	-1.6688	-2.2125	-1.6	-1.9833	-1.9646	-1.6604	220.964	118.966	421.950	387.818	309.737	414.000	359.751	381.047	319.226	333.433	261.570	348.195	317.354	381.637	324.035	361.141	0.00073141	0.00061725	1.5445e-05	1339.8	5.6485e-06	8.9197e-06	1348	364.37	2.4822e-06	3.696e-06	417.65	139.12	121.56	41.407	3.4814e-06	51.26	0.00050517	0.00050407	0.00014052	1355.4	5.5323e-06	5.5135e-06	1358.1	369.05	5.5394e-06	5.5167e-06	414.44	140.54	121.05	42.069	5.5192e-06	52.067	134.833	232.652	227.936	100.054	120.568	111.772	100.006	104.626	250.084	300.133	103.969	108.369	108.856	113.497	287.692	112.671	-8191	255	
18875.756	1	1	0	0	0.29515	0.12052	0.12443	0.16458	0.081387	0.35602	0.37791	0.168	0.1801	0.16262	0.1255	0.12419	0.11491	0.12477	0.24058	0.14987	-1.5958	-1.8438	-1.6833	-2.1042	-1.5812	-1.9417	-2.2167	-1.6625	-1.9958	-1.8833	-1.8021	-2.0854	-1.7104	-1.9833	-1.9729	-1.6917	437.772	406.345	238.633	119.178	266.276	214.700	406.034	357.750	323.158	162.842	151.108	361.460	404.203	412.737	328.750	379.384	0.00076554	0.00088274	5.5289e-05	1347.9	4.0362e-06	2.9438e-06	1342.5	364.75	9.3932e-06	6.0287e-06	416.83	138.76	121.41	41.399	1.24e-05	51.231	0.00050482	0.00050306	0.00014066	1353.7	5.4978e-06	5.4899e-06	1357.8	368.31	5.4806e-06	5.4832e-06	415.34	140.53	120.61	42.085	5.4435e-06	51.919	146.284	242.093	202.921	100.386	147.419	206.091	99.717	104.454	242.682	397.204	104.212	108.458	108.580	113.732	249.540	112.522	-8191	255	
18875.877	1	1	0	0	0.19146	0.090379	0.20099	0.32893	0.22976	0.11993	0.44518	0.28434	0.21741	0.21102	0.12526	0.19931	0.11193	0.17807	0.12331	0.073543	-1.6042	-1.9396	-1.4646	-2.1375	-1.7146	-1.7896	-2.1354	-1.7375	-1.8458	-1.85	-1.7208	-2.075	-1.7021	-1.8687	-1.925	-1.6417	150.436	325.892	89.594	439.843	342.893	423.091	397.021	433.238	118.308	292.487	218.741	199.158	173.108	446.231	211.136	436.114	0.00062759	0.00037147	0.00010088	1346.6	6.5493e-06	5.2666e-06	1347.6	364.51	9.1048e-06	3.4644e-06	416.01	140	121.38	41.121	7.7686e-06	51.41	0.00049694	0.00049614	0.00013772	1351.9	5.4311e-06	5.4083e-06	1356.8	368.34	5.4281e-06	5.415e-06	413.41	140.52	120.47	42.01	5.4397e-06	51.954	137.831	153.089	335.980	100.464	223.673	239.978	99.687	104.723	185.746	401.982	104.386	108.315	108.700	113.744	258.249	112.880	-8191	255	
18875.973	1	1	0	0	0.21077	0.20043	0.29326	0.18377	0.053889	0.16563	0.17132	0.37482	0.0099061	0.10021	0.20144	0.121	0.17349	0.31808	0.11331	0.10626	-1.5229	-1.9292	-1.6229	-2.2229	-1.7958	-1.6208	-2.4646	-1.8042	-1.7687	-1.8937	-1.6646	-2.0708	-1.6437	-1.7042	-1.9271	-1.6625	207.775	316.080	441.858	444.724	119.368	297.169	366.522	425.326	224.121	248.756	376.796	124.793	223.566	417.979	415.982	414.595	0.00068047	0.00015297	0.0002083	1349.9	8.1218e-06	8.3222e-06	1348.4	364.89	7.7835e-06	7.1112e-06	417.72	138.77	122.39	41.562	4.282e-06	51.343	0.00049644	0.0004924	0.0001379	1353.8	5.3969e-06	5.3752e-06	1356.1	368.23	5.3716e-06	5.3391e-06	412.85	140.23	120.3	42.014	5.3507e-06	51.922	135.979	118.276	296.014	100.301	133.787	208.242	99.883	104.648	263.659	218.638	104.322	108.541	108.746	113.759	206.129	112.611	-8191	255	
18876.068	1	1	0	0	0.17456	0.11592	0.20641	0.16509	0.33398	0.35056	0.17254	0.1832	0.20445	0.28005	0.35478	0.2132	0.17753	0.24353	0.32082	0.037141	-1.3833	-1.9208	-1.5625	-2.025	-1.7208	-1.6125	-2.4813	-1.5854	-1.7833	-1.8083	-1.4875	-2.1021	-1.8792	-1.7333	-2.0354	-1.7896	343.162	93.641	351.431	97.780	196.497	420.490	144.774	389.841	319.388	235.591	141.826	386.007	315.842	148.278	243.448	394.287	0.00065743	0.00034823	0.00012759	1344	2.2592e-06	6.406e-07	1338.8	363.39	5.0798e-06	2.4544e-06	421	139.37	122.1	41.511	3.1255e-06	51.329	0.00048773	0.00048972	0.00013601	1350.9	5.3801e-06	5.353e-06	1355	367.43	5.401e-06	5.4024e-06	413.2	140.11	120.5	42.038	5.434e-06	52.018	127.613	188.349	143.692	100.081	230.219	445.582	99.895	104.300	176.201	296.593	104.421	108.542	108.764	113.778	137.239	112.710	-8191	255	
18876.141	1	1	0	0	0.024777	0.050262	0.1477	0.10615	0.095614	0.1865	0.20149	0.040967	0.20846	0.29768	0.33562	0.26139	0.10224	0.32611	0.071417	0.22134	-1.2229	-2.0979	-1.5167	-2.1042	-1.7354	-1.6313	-2.2479	-1.8583	-1.7583	-1.8542	-1.6812	-2.0208	-1.8021	-1.6104	-2.0563	-1.8438	95.530	192.146	200.359	392.868	444.108	418.091	428.827	303.047	353.103	229.629	230.734	150.425	112.238	386.063	391.438	347.206	0.00068837	0.00042114	9.2888e-05	1352.2	2.4483e-06	2.8718e-06	1346.4	364.12	1.6637e-06	3.1247e-06	415.96	139.07	122.84	41.386	1.258e-05	51.291	0.00050169	0.00049879	0.00013962	1356.9	5.5049e-06	5.4932e-06	1359.4	368.96	5.5212e-06	5.509e-06	415.86	140.82	121.2	42.235	5.5668e-06	52.17	148.311	146.596	168.725	100.197	105.269	218.171	99.842	104.683	203.070	434.874	104.219	108.206	108.490	113.941	233.683	112.787	-8191	255	
18876.262	1	1	0	0	0.35363	0.026828	0.090746	0.10863	0.19858	0.21198	0.28248	0.083611	0.13804	0.20573	0.14489	0.049059	0.17922	0.23646	0.10407	0.28278	-1.3146	-2.0146	-1.6229	-2.1063	-1.8583	-1.6667	-2.1083	-1.775	-1.5604	-2.0104	-1.525	-1.9625	-1.8458	-1.4875	-1.7208	-1.725	129.739	276.341	224.341	408.776	297.281	115.240	90.752	346.839	444.008	128.971	391.299	442.568	161.445	296.594	187.507	392.610	0.00078432	0.00057223	0.00022213	1350.7	4.7411e-06	3.1795e-06	1346.4	363.95	2.5967e-06	9.3298e-06	417.24	139.53	122.81	41.403	2.7642e-06	51.252	0.0005121	0.00051229	0.00014352	1363.1	5.6397e-06	5.6968e-06	1363	370.21	5.6483e-06	5.6767e-06	419.27	141.55	122.17	42.3	5.6779e-06	52.367	131.036	192.472	89.153	100.047	264.205	167.564	99.872	104.638	337.417	286.932	103.814	107.954	108.631	113.501	176.962	112.285	-8191	255	
18876.357	1	1	0	0	0.04684	0.19415	0.18891	0.16685	0.2256	0.23679	0.37039	0.056429	0.10816	0.21772	0.15429	0.10338	0.25528	0.17898	0.09463	0.20426	-1.1417	-2.0687	-1.5	-2.0875	-1.9562	-1.4937	-2.0187	-1.7583	-1.5833	-2.1792	-1.55	-1.9104	-1.9188	-1.4833	-2.0854	-2.1104	277.188	178.497	352.962	304.899	117.058	206.125	374.211	167.756	153.801	97.028	443.468	409.724	120.277	374.445	246.444	97.828	0.00090168	0.00039143	2.9779e-05	1351.1	2.0563e-06	5.7e-06	1348.5	364.85	7.085e-06	5.5287e-06	418.45	138.92	122.45	41.562	9.036e-06	51.287	0.00052193	0.0005207	0.0001446	1364.4	5.6775e-06	5.6582e-06	1364.6	370.56	5.641e-06	5.6253e-06	418.02	141.13	121.85	42.297	5.622e-06	52.212	128.153	130.809	163.060	100.146	213.702	195.566	99.764	104.501	207.661	354.161	104.361	108.391	108.638	113.541	245.544	112.725	-8191	255	
18876.453	1	1	0	0	0.14532	0.11072	0.32443	0.46976	0.41176	0.26302	0.032927	0.17247	0.15194	0.29197	0.32066	0.32634	0.27454	0.26347	0.25692	0.065592	-1.0187	-2.0438	-1.6063	-1.6792	-1.8667	-1.4312	-1.9792	-2.0333	-1.4438	-2.0062	-1.8479	-1.8729	-2.0917	-1.6333	-1.7646	-2.0146	308.894	252.960	280.756	401.784	187.340	127.971	379.336	408.501	388.257	369.170	312.128	98.043	325.849	119.092	105.251	434.938	0.00069164	0.00051563	0.00011451	1351.4	6.2115e-06	4.7183e-06	1339.6	365.48	1.6567e-06	3.6687e-06	414.73	138.68	121.45	41.566	8.9293e-06	51.576	0.00051529	0.00050897	0.00014102	1358.5	5.5347e-06	5.5041e-06	1356.2	368.55	5.4801e-06	5.4839e-06	414.73	140.62	121.16	42.14	5.5427e-06	52.228	144.068	135.291	350.542	100.174	163.492	289.551	99.913	104.594	362.929	185.608	103.978	108.143	108.824	113.543	244.837	112.803	-8191	255	
18876.574	1	1	0	0	0.21638	0.16756	0.13694	0.20561	0.15883	0.17884	0.20227	0.26036	0.22315	0.053203	0.23775	0.15947	0.099623	0.25393	0.11963	0.13527	-1.2	-2.0375	-1.5625	-1.7083	-2.0312	-1.5104	-1.9729	-2.0312	-1.6458	-1.9729	-1.8625	-1.6562	-2.0062	-1.6792	-1.9354	-2.0854	424.171	378.630	364.749	340.798	351.887	321.765	261.871	297.874	143.678	291.890	256.937	123.672	100.170	389.161	364.582	354.924	0.00071147	0.0004274	0.0001977	1345.4	4.5534e-06	5.8014e-06	1347.6	364.09	4.7445e-06	5.3825e-06	416.19	139.38	123	41.524	7.7797e-06	51.098	0.00050972	0.00050793	0.00014133	1356.6	5.5519e-06	5.5468e-06	1359.1	369.09	5.5509e-06	5.522e-06	415.41	140.8	121.11	42.217	5.539e-06	52.14	135.583	208.479	366.460	100.151	147.505	245.467	99.791	104.763	220.776	154.091	104.444	108.132	108.575	113.496	305.105	112.747	-8191	255	
18876.670	1	1	0	0	0.15946	0.1786	0.30687	0.34323	0.25681	0.046749	0.10412	0.36313	0.045696	0.1722	0.28671	0.12672	0.17902	0.4527	0.17175	0.16976	-1.1229	-2.0083	-1.6458	-1.6771	-1.9312	-1.4042	-1.9188	-2.0604	-1.5146	-2.0542	-1.9292	-1.6396	-2.0229	-1.6479	-1.7292	-2.0708	227.503	373.852	164.255	338.914	146.869	113.602	313.636	428.061	175.907	236.659	145.779	424.325	169.907	351.017	279.522	371.161	0.00073125	0.00059415	8.2808e-05	1352	9.9357e-06	4.0616e-07	1346.2	365.29	5.189e-06	2.8953e-06	418.41	139.02	121.94	41.281	1.7652e-06	51.216	0.00050644	0.00050449	0.00013977	1356.5	5.5024e-06	5.4762e-06	1360	368.94	5.4971e-06	5.4556e-06	414.34	140.77	120.49	42.057	5.4218e-06	52.057	128.463	404.898	263.121	100.024	161.855	304.905	99.951	104.490	295.839	256.254	104.086	108.623	108.481	113.604	186.680	112.761	-8191	255	
18876.766	1	1	0	0	0.10195	0.063882	0.11954	0.32133	0.21034	0.23724	0.39285	0.24409	0.28429	0.11577	0.19606	0.2053	0.043531	0.10319	0.14835	0.45404	-1.1708	-1.7917	-1.9333	-1.7458	-1.9937	-1.7083	-2.0417	-2.0854	-1.3583	-1.7812	-1.9271	-1.5146	-2.1146	-1.7625	-1.6521	-2.0708	130.760	87.260	438.437	436.562	333.081	386.329	373.544	372.121	133.639	227.652	151.230	401.720	426.924	127.674	413.340	397.090	0.00071858	7.8342e-05	0.00014776	1346.3	3.6547e-06	3.995e-06	1346.9	364.55	5.3999e-07	7.1446e-06	419.04	139.14	121.67	41.338	6.1046e-06	51.292	0.00049765	0.00049478	0.00013866	1353.6	5.4328e-06	5.4463e-06	1357.4	368.35	5.4837e-06	5.4933e-06	414.82	140.81	121.15	42.158	5.5755e-06	52.21	140.630	384.433	223.441	100.052	274.005	93.454	100.010	104.673	204.605	162.465	104.182	108.316	108.623	113.512	273.606	112.437	-8191	255	
18876.861	1	1	0	0	0.13466	0.15343	0.22174	0.2984	0.34837	0.133	0.24028	0.27316	0.26535	0.35654	0.17094	0.10362	0.28885	0.019067	0.138	0.054173	-1.2521	-1.8042	-1.8479	-1.8104	-1.9062	-1.8062	-1.8396	-2.0896	-1.5292	-1.7646	-1.7458	-1.6958	-2.0125	-1.9312	-1.7875	-2.2083	153.388	262.260	430.299	418.482	421.811	441.899	397.105	420.336	444.865	371.054	396.645	124.413	412.651	323.137	346.108	218.878	0.00074006	0.00021625	4.3264e-05	1350.3	2.1849e-06	5.8605e-06	1345.5	365.01	7.3573e-06	2.5959e-06	417.73	139.32	123.51	41.729	1.0139e-05	51.256	0.00051193	0.00051227	0.00014294	1360.9	5.6394e-06	5.6319e-06	1363.5	370.4	5.6971e-06	5.7088e-06	419.94	141.74	122.91	42.573	5.7477e-06	52.525	139.645	133.290	355.965	100.067	438.442	229.066	99.771	104.752	219.299	246.872	104.329	108.704	108.926	113.948	259.107	112.659	-8191	255	
18876.957	1	1	0	0	0.18529	0.16645	0.044141	0.099984	0.14307	0.15302	0.20579	0.27587	0.071883	0.12689	0.1037	0.31313	0.10219	0.19457	0.19161	0.11458	-1.0438	-1.675	-1.9917	-1.6812	-2.075	-1.9833	-1.7854	-2.0771	-1.7021	-1.7583	-2.0875	-1.5792	-1.9312	-1.8021	-1.4396	-2.1333	398.301	97.908	189.348	286.491	421.088	270.636	97.497	370.634	199.239	308.961	110.462	435.576	182.255	420.313	375.403	355.833	0.00067299	0.00017384	8.2691e-05	1354.7	6.6964e-06	1.4652e-06	1358.7	366.25	9.1064e-06	2.8117e-06	415.98	139.9	121.4	41.614	2.6802e-06	50.938	0.0005315	0.00052861	0.00014687	1371.3	5.7662e-06	5.7543e-06	1370.6	371.74	5.7157e-06	5.7222e-06	419.25	141.74	122.05	42.384	5.6586e-06	52.308	156.383	111.642	290.601	99.973	159.170	384.769	100.109	104.547	143.820	184.597	104.259	108.298	108.756	113.793	211.168	112.534	-8191	255	
18877.053	1	1	0	0	0.11062	0.21461	0.15426	0.26686	0.23177	0.33584	0.19204	0.3443	0.042565	0.1015	0.16059	0.088069	0.32365	0.17893	0.23222	0.10645	-1.2417	-1.7979	-1.9729	-1.5979	-1.7542	-1.9104	-1.75	-2.1562	-1.7583	-1.5604	-2.175	-1.5104	-1.7188	-1.9062	-1.4667	-2.0354	437.805	257.339	279.198	426.914	401.365	339.566	87.009	105.837	420.978	440.239	105.807	258.036	109.977	434.122	224.325	183.764	0.0004704	0.0003951	0.00018709	1347.3	6.7627e-06	8.1398e-06	1349.2	364.92	1.1798e-05	7.7237e-06	418.87	139.27	121.93	41.438	2.3862e-06	51.114	0.00051292	0.00051251	0.00014173	1359.4	5.5776e-06	5.5671e-06	1361.6	369.64	5.5582e-06	5.5247e-06	416.09	141	121.31	42.265	5.5413e-06	52.09	159.166	309.274	104.590	99.870	212.328	179.472	99.801	104.918	181.832	224.331	104.257	108.623	109.029	113.460	305.933	112.850	-8191	255	
18877.174	1	1	0	0	0.18336	0.0159	0.15076	0.16051	0.084522	0.17682	0.1839	0.26335	0.26548	0.31041	0.15059	0.2852	0.16881	0.20037	0.3692	0.1217	-1.2979	-1.6104	-1.8062	-1.6229	-1.7958	-1.9354	-1.6229	-2.2625	-1.8646	-1.6396	-2.1063	-1.6437	-1.7417	-2.075	-1.4667	-2.1	205.915	121.304	225.896	94.879	207.610	292.205	411.373	359.056	425.745	387.333	143.994	372.653	131.735	291.664	107.338	191.358	0.00072611	0.00038362	0.00039139	1354.2	6.0855e-06	7.6779e-06	1350.7	364.53	7.8399e-06	3.2091e-06	417.06	139.75	122.22	41.548	3.7394e-06	51.396	0.00050874	0.0005084	0.00014208	1362.1	5.5816e-06	5.5715e-06	1364.5	369.81	5.6213e-06	5.6331e-06	418.74	141.33	121.87	42.325	5.6241e-06	52.413	138.951	219.762	441.790	99.897	161.974	226.034	99.854	104.676	115.645	96.123	104.297	108.431	109.029	113.726	123.543	112.602	-8191	255	
18877.270	1	1	0	0	0.29939	0.30003	0.16992	0.28507	0.15525	0.15336	0.22325	0.24106	0.19508	0.10167	0.063165	0.2921	0.30135	0.23176	0.19337	0.10698	-1.4854	-1.5542	-2.0854	-1.8333	-1.6125	-2.0833	-1.5562	-2.0062	-1.8	-1.6979	-1.8542	-1.7979	-1.7875	-2.1104	-1.4729	-2.0646	199.191	261.385	311.022	101.677	185.553	194.675	91.725	406.802	248.079	256.545	339.465	168.172	102.065	409.543	228.740	379.085	0.00061228	0.00017513	0.000178	1348.7	4.5595e-06	3.8537e-06	1354.6	364.95	5.4849e-06	6.5931e-06	418.41	139.42	121.62	41.433	4.9925e-06	51.25	0.00051606	0.00051432	0.00014281	1362.8	5.6308e-06	5.6256e-06	1366.3	370.26	5.6256e-06	5.6091e-06	417.24	141.19	121.7	42.258	5.5777e-06	52.25	127.101	145.623	121.211	100.028	263.392	158.863	99.907	104.785	165.734	170.197	104.060	108.265	108.503	113.124	236.214	112.656	-8191	255	
18877.365	1	1	0	0	0.11188	0.098659	0.10961	0.14155	0.1157	0.095643	0.12547	0.16176	0.075028	0.2029	0.23565	0.22344	0.39769	0.28879	0.19653	0.071424	-1.2417	-1.4708	-2.1271	-1.7625	-1.55	-2.1875	-1.7229	-2.0667	-1.8146	-1.675	-2.1417	-1.9125	-1.8021	-2.1958	-1.7417	-1.8792	136.579	296.265	192.635	393.784	304.738	346.207	93.996	303.404	360.471	439.069	126.822	394.238	162.816	375.584	257.996	394.979	0.00076814	0.00022577	0.00036699	1349	3.302e-06	3.7109e-06	1346.4	365.72	9.4707e-06	8.9195e-06	415.76	139.2	122.83	41.384	6.6503e-07	51.424	0.00051036	0.00051095	0.00014195	1362.8	5.575e-06	5.549e-06	1361.6	369.63	5.5378e-06	5.562e-06	415.93	140.82	121.27	42.155	5.5354e-06	52.19	133.913	119.912	348.410	100.046	320.484	182.634	99.782	104.590	195.592	192.680	103.929	108.328	108.840	113.559	257.453	112.506	-8191	255	
18877.438	1	1	0	0	0.12186	0.14591	0.088102	0.09164	0.24456	0.15225	0.12406	0.23836	0.16016	0.065635	0.17285	0.33881	0.12997	0.34643	0.13598	0.13572	-1.6562	-1.5229	-1.8396	-2.0833	-1.5854	-2.0146	-1.8687	-1.7917	-1.8188	-1.5125	-2.0083	-2.125	-1.7229	-2.0792	-1.7042	-1.9688	363.462	257.917	277.345	385.331	267.829	293.746	350.552	388.506	412.138	426.247	339.804	429.933	242.797	431.921	323.379	326.271	0.0007093	0.00039767	0.00024828	1350.4	1.0168e-06	6.9416e-06	1347.9	364.61	6.4094e-06	4.2643e-06	414.99	138.7	122.47	41.527	8.2373e-06	51.521	0.00050799	0.00050594	0.00014076	1358.2	5.5484e-06	5.5411e-06	1361.8	369.65	5.5384e-06	5.5273e-06	416.55	141.04	121.13	42.272	5.5228e-06	52.248	143.918	134.686	159.357	100.034	419.309	257.530	99.638	104.550	219.390	212.651	104.437	108.477	108.639	113.543	293.059	112.813	-8191	255	
18877.533	1	1	0	0	0.1245	0.22484	0.1012	0.33257	0.01563	0.1958	0.099467	0.28689	0.18849	0.077822	0.084448	0.20364	0.22208	0.4044	0.33531	0.075541	-1.6354	-1.9208	-1.8354	-1.9896	-1.5854	-2.1854	-1.8854	-1.5104	-2.1333	-1.6625	-1.8771	-2.1479	-1.6396	-2.0792	-1.8563	-1.8188	315.916	128.614	97.575	376.452	418.521	157.240	344.217	381.102	223.377	130.284	253.562	91.828	121.433	363.095	153.458	159.065	0.00079493	0.00035392	0.00020634	1347	3.3454e-06	3.277e-06	1351.9	365.74	3.3439e-06	2.2551e-06	417.45	138.96	121.83	41.518	3.4437e-06	51.416	0.00050765	0.00050467	0.00014002	1357.9	5.4942e-06	5.5151e-06	1360.5	369.79	5.5236e-06	5.5172e-06	415.38	140.91	121.49	42.205	5.5246e-06	52.223	130.987	411.530	193.299	100.362	231.500	270.663	99.891	104.705	221.210	246.859	104.495	108.612	108.579	113.671	91.197	112.744	-8191	255	
18877.654	1	1	0	0	0.14427	0.14599	0.11998	0.36741	0.12958	0.32211	0.13788	0.3983	0.11791	0.096686	0.18422	0.18149	0.18565	0.25562	0.053884	0.24382	-1.8062	-1.4729	-1.8937	-1.9729	-1.4521	-1.9771	-1.7188	-1.7521	-2.075	-1.6146	-2.025	-2.1667	-1.65	-2.1333	-1.8354	-1.7521	288.149	407.379	340.524	402.820	343.224	188.741	404.554	413.049	308.406	398.017	139.079	401.248	233.332	165.162	212.457	360.498	0.00081856	0.00070762	0.00037666	1349.8	4.9929e-06	6.2645e-06	1349.4	364.9	4.8579e-06	4.2555e-06	417.81	139.85	122.93	41.475	9.4597e-07	51.445	0.00050762	0.00050643	0.00014049	1359.7	5.5415e-06	5.5402e-06	1363.4	369.52	5.5311e-06	5.5193e-06	416.58	141.25	121.57	42.295	5.579e-06	52.318	135.678	145.159	214.122	99.894	236.181	220.366	99.956	104.733	252.534	114.902	104.679	108.474	109.384	113.710	247.547	112.926	-8191	255	
18877.748	1	1	0	0	0.036453	0.12892	0.13345	0.2156	0.12803	0.11905	0.31576	0.28741	0.20436	0.28355	0.044747	0.069027	0.14918	0.23833	0.35848	0.22407	-1.5333	-1.65	-1.7583	-2.0396	-1.4375	-2.0083	-1.9875	-1.7458	-2.2396	-1.7896	-1.7208	-2.1	-1.625	-2.0042	-1.9417	-1.4333	202.335	190.582	102.836	382.374	272.044	176.359	383.547	326.778	230.987	340.868	160.409	351.726	444.579	380.861	210.426	395.186	0.00077035	0.00040812	0.00025755	1356.3	1.0668e-05	5.3204e-06	1347.7	364.21	7.8925e-06	3.3235e-06	419.95	139.67	122.38	41.61	2.4683e-06	51.233	0.00050944	0.000509	0.00014172	1361	5.5692e-06	5.5274e-06	1364.1	369.29	5.5181e-06	5.5069e-06	416.59	141	121.37	42.286	5.5168e-06	52.124	136.532	106.676	345.232	100.027	257.971	188.325	99.826	104.821	208.575	161.974	104.212	108.248	109.287	113.784	279.798	112.764	-8191	255	
18877.846	1	1	0	0	0.19111	0.15083	0.36679	0.1595	0.12433	0.25108	0.42667	0.27381	0.12998	0.026539	0.18232	0.23345	0.2293	0.30712	0.020976	0.25137	-1.5125	-1.6208	-1.8021	-2.0563	-1.5375	-1.7687	-2.1854	-1.7042	-2.0333	-1.7854	-1.5708	-2.0958	-1.5458	-1.85	-1.8958	-1.6167	172.029	169.682	164.110	426.491	133.793	123.538	323.268	441.438	132.302	387.291	108.016	419.224	142.350	131.580	160.894	414.026	0.00091774	0.00063929	0.00018929	1354.3	4.8608e-06	4.503e-06	1349.5	364.65	4.3249e-06	5.1801e-06	417.11	139.48	121.76	41.581	6.3069e-06	51.087	0.00050716	0.00050518	0.00014118	1362.5	5.5468e-06	5.5265e-06	1365.2	369.35	5.5401e-06	5.5212e-06	416.29	141.06	121.22	42.299	5.5441e-06	52.172	140.371	431.321	254.876	100.156	193.544	234.096	99.741	104.668	230.043	174.195	104.578	108.410	108.584	113.868	265.730	112.978	-8191	255	
18877.941	1	1	0	0	0.079354	0.11081	0.14547	0.25304	0.10372	0.046007	0.36787	0.099389	0.24167	0.070712	0.17551	0.37799	0.25511	0.22265	0.18552	0.15473	-1.4583	-1.725	-1.5354	-2.1479	-1.4646	-1.7583	-2.3146	-1.6771	-1.9188	-1.575	-1.6458	-2.025	-1.6396	-1.7812	-1.8146	-1.5396	138.675	373.122	326.479	107.036	223.791	165.715	396.143	92.644	191.807	207.060	394.798	358.031	143.476	156.053	132.751	308.126	0.00060889	0.00016351	0.00011676	1352.3	1.5256e-06	5.1224e-06	1348.8	366.08	1.4138e-06	7.4149e-06	416.68	139.75	121.78	41.486	7.0333e-06	51.061	0.00050756	0.0005099	0.00014163	1363.9	5.5576e-06	5.5485e-06	1364.8	369.69	5.5364e-06	5.5356e-06	416.59	141.31	121.29	42.261	5.5445e-06	52.117	140.014	438.002	190.219	100.110	240.177	276.001	99.609	104.466	340.495	172.907	104.106	108.404	108.619	113.597	347.000	112.845	-8191	255	
18878.037	1	1	0	0	0.1499	0.15006	0.11364	0.12259	0.059782	0.32197	0.22946	0.079794	0.2265	0.19999	0.28454	0.29089	0.24925	0.28885	0.059026	0.37309	-1.3271	-1.6833	-1.4062	-2.3125	-1.4688	-1.6562	-2.1167	-1.6792	-2.1021	-2.0187	-1.5	-2.0021	-1.6229	-1.8417	-2.0854	-1.7417	394.604	288.922	237.578	441.470	334.321	258.099	386.011	367.230	252.455	124.750	403.464	409.226	101.034	419.064	327.229	428.120	0.00076958	0.00015487	7.8051e-05	1357.3	3.3393e-06	6.0232e-06	1351.6	363.19	4.1409e-06	8.4031e-06	420.15	139.94	121.45	41.25	5.4109e-06	51.197	0.00051088	0.00050939	0.00014119	1364.2	5.5716e-06	5.5536e-06	1363.7	369.34	5.5834e-06	5.5633e-06	417.64	141.49	121.42	42.236	5.5859e-06	52.271	141.899	376.460	157.311	99.857	248.672	154.832	99.891	104.785	191.044	434.238	104.011	108.342	108.880	113.689	187.894	112.727	-8191	255	
18878.135	1	1	0	0	0.17467	0.32008	0.03928	0.25726	0.30116	0.14957	0.5051	0.3893	0.09369	0.23517	0.39488	0.06546	0.23193	0.19255	0.076605	0.16901	-1.1792	-1.7125	-1.5708	-1.9771	-1.7313	-1.6688	-2.2708	-1.7437	-1.6458	-1.8542	-1.4604	-1.9979	-1.8208	-1.7125	-2.0146	-1.7	258.254	308.171	323.680	120.203	432.854	184.707	347.349	401.466	104.837	321.798	91.255	412.007	392.848	244.052	414.461	242.289	0.00077545	0.00031428	0.00017678	1356.1	7.0025e-06	1.6318e-06	1349.3	364.26	5.5147e-06	6.8602e-07	418.98	139.59	122.65	41.376	2.4128e-06	51.396	0.00051476	0.00051286	0.00014257	1363.8	5.6123e-06	5.6356e-06	1364.8	370.22	5.6462e-06	5.6699e-06	419.38	141.39	122.3	42.401	5.7099e-06	52.479	144.386	190.067	165.867	100.204	188.933	188.210	99.878	104.399	159.723	371.923	104.343	108.347	108.691	113.719	265.783	112.489	-8191	255	
18878.254	1	1	0	0	0.12908	0.31026	0.2384	0.2074	0.18911	0.11111	0.10746	0.14357	0.22284	0.13689	0.046928	0.2849	0.057669	0.10535	0.325	0.25681	-1.2729	-1.8333	-1.3104	-2.1042	-1.7854	-1.5938	-2.2042	-1.8979	-1.7083	-1.8354	-1.575	-2.1521	-1.7958	-1.6479	-1.9896	-1.7062	328.068	390.767	215.672	357.937	417.855	218.617	154.637	289.508	313.551	216.466	259.409	394.094	411.699	260.586	259.452	326.641	0.00080042	0.00038796	0.00014538	1352.1	9.6292e-06	7.6409e-06	1348.8	365.53	2.9013e-06	2.8757e-06	417.81	139.18	122.77	41.691	3.9638e-06	51.273	0.00052575	0.00052381	0.00014607	1366.9	5.7196e-06	5.7234e-06	1367.5	370.89	5.7511e-06	5.7689e-06	420.78	141.74	122.57	42.554	5.8045e-06	52.624	136.473	106.364	178.830	100.203	231.178	260.371	99.939	104.568	231.976	136.570	104.269	108.175	108.769	113.520	409.182	112.752	-8191	255	
18878.350	1	1	0	0	0.17843	0.20574	0.27446	0.38523	0.11297	0.21567	0.24514	0.17661	0.22318	0.12658	0.23988	0.26854	0.0901	0.044164	0.15484	0.069137	-1.2604	-2	-1.5	-1.9833	-1.825	-1.6646	-2.2438	-1.6812	-1.6792	-1.9833	-1.6958	-1.95	-1.7979	-1.475	-2.0354	-1.8292	306.072	204.723	192.039	439.318	385.353	441.952	88.527	393.140	336.069	261.463	94.236	356.543	120.649	136.009	176.454	109.086	0.00076103	0.00039142	0.00032258	1355.9	3.8367e-06	2.6606e-06	1349	366.11	4.0289e-06	2.8153e-06	415.61	139.81	121.84	41.686	2.593e-06	51.414	0.00053064	0.00053091	0.00014722	1370.9	5.8177e-06	5.8141e-06	1369.4	371.47	5.8577e-06	5.841e-06	421.52	142.03	122.94	42.58	5.8487e-06	52.678	142.266	415.571	143.250	100.062	184.063	257.118	99.935	104.768	230.128	200.153	104.260	108.403	108.968	113.671	298.991	112.939	-8191	255	
18878.447	1	1	0	0	0.20135	0.13161	0.22695	0.09241	0.17433	0.21824	0.38494	0.19403	0.14213	0.23981	0.16837	0.28896	0.0012727	0.15228	0.35535	0.15327	-1.1479	-1.9521	-1.4417	-1.9146	-2.0417	-1.4854	-2.1667	-1.7646	-1.4542	-2.1292	-1.6479	-1.8542	-1.925	-1.6688	-1.9021	-1.8354	142.945	299.807	159.629	446.168	107.321	200.389	427.190	329.503	400.489	150.835	357.155	436.292	180.000	87.612	386.372	127.976	0.00064553	0.00075063	8.4458e-05	1365.7	4.9765e-06	6.6714e-06	1353.8	366.19	3.4622e-06	4.9852e-06	415.91	139.84	122.7	41.592	5.1592e-06	51.413	0.00053295	0.00053457	0.00014836	1374.5	5.8311e-06	5.8441e-06	1371.6	371.55	5.8232e-06	5.8235e-06	422.35	142.26	123.07	42.474	5.7966e-06	52.66	137.316	191.073	271.727	99.764	386.461	159.176	99.869	104.639	168.622	437.583	104.040	108.544	108.827	113.395	209.303	112.731	-8191	255	
18878.543	1	1	0	0	0.19462	0.059433	0.28864	0.13669	0.044546	0.05153	0.16708	0.18163	0.047074	0.087511	0.025798	0.03206	0.14063	0.38635	0.24985	0.092245	-1.0458	-1.9792	-1.6292	-1.7896	-2.0854	-1.6229	-2.0708	-1.8417	-1.5688	-1.9229	-1.6854	-1.7167	-2.0833	-1.5104	-1.8438	-2.025	284.182	261.713	314.731	370.743	366.790	300.143	391.738	332.408	303.076	222.753	321.485	371.741	314.091	425.810	137.341	288.808	0.00075083	0.00066847	0.00022036	1354.3	3.3952e-06	1.5345e-06	1350.8	365.38	5.5221e-06	4.8208e-06	417.14	139.73	121.75	41.519	7.2475e-06	51.395	0.00052995	0.00052892	0.00014714	1369.2	5.7451e-06	5.7519e-06	1368.3	370.56	5.7388e-06	5.7069e-06	420.05	141.74	121.98	42.391	5.6854e-06	52.422	150.638	173.005	145.997	99.915	222.776	347.896	99.991	104.409	151.926	302.753	104.185	108.445	108.862	113.712	186.916	112.745	-8191	255	
18878.662	1	1	0	0	0.206	0.19796	0.15561	0.29089	0.1757	0.29782	0.38904	0.029003	0.14592	0.11961	0.011355	0.10687	0.042129	0.12621	0.12877	0.19268	-1.0854	-1.8333	-1.4979	-1.8458	-1.9688	-1.5292	-2.1188	-2.0521	-1.6167	-2.0521	-1.7896	-1.7396	-2.0146	-1.6583	-1.625	-2.0083	392.846	341.555	322.600	119.590	185.158	217.495	382.516	266.599	125.331	339.774	198.678	288.395	227.737	96.810	389.224	402.110	0.00071433	0.00037471	0.00016311	1356.9	1.27e-06	6.1934e-06	1348.3	365.4	1.731e-06	6.2183e-06	416.2	139.51	122.18	41.522	4.9293e-06	51.506	0.00051786	0.00051385	0.0001431	1365.8	5.5957e-06	5.6042e-06	1365.2	369.87	5.6166e-06	5.5695e-06	417.14	141.14	121.56	42.338	5.6155e-06	52.264	144.792	124.764	361.717	99.989	144.287	393.400	99.791	104.714	444.339	276.851	104.259	108.290	108.754	113.830	151.829	112.713	-8191	255	
18878.734	1	1	0	0	0.30716	0.067428	0.12236	0.16686	0.054625	0.11377	0.34329	0.19131	0.12745	0.17501	0.061561	0.13118	0.2162	0.32366	0.2567	0.24057	-1.0438	-1.9542	-1.6396	-1.4375	-1.9958	-1.5583	-2.2375	-2.1521	-1.4438	-2.0042	-1.8583	-1.8062	-2.1771	-1.7687	-1.7333	-2.1375	245.821	350.091	391.483	322.015	409.953	125.226	407.982	392.644	102.594	204.805	437.007	327.055	118.882	413.819	441.325	400.939	0.00068271	0.0009349	0.00028844	1355.7	3.227e-06	1.7328e-06	1347.4	364.46	9.4684e-06	5.7074e-06	416.3	139.29	122.57	41.36	5.0355e-06	51.403	0.00051406	0.00051208	0.00014246	1364.3	5.5968e-06	5.6273e-06	1363.8	370.14	5.636e-06	5.6093e-06	416.47	141.29	121.61	42.235	5.6258e-06	52.346	138.903	120.370	393.305	100.113	246.243	358.425	99.881	104.623	189.529	376.803	104.334	108.284	108.276	113.336	268.250	112.338	-8191	255	
18878.854	1	1	0	0	0.16985	0.082646	0.0045962	0.42777	0.18864	0.16135	0.13954	0.17059	0.2239	0.14689	0.036326	0.080748	0.11238	0.35662	0.16527	0.2397	-1.15	-1.8083	-1.7792	-1.675	-2.0208	-1.7729	-1.8271	-2.0187	-1.6146	-2.0875	-1.9354	-1.4625	-1.9792	-1.6938	-1.5875	-2.2354	187.486	219.418	395.226	377.270	202.958	173.034	446.083	347.714	370.754	173.337	124.161	338.791	227.106	142.428	389.455	371.789	0.00074096	0.00048711	0.00018024	1352.9	3.8002e-06	7.6207e-07	1346.9	364.93	9.7372e-06	4.6733e-06	417.38	139.59	121.29	41.355	7.5851e-06	51.184	0.00051377	0.00051255	0.00014188	1364.2	5.5978e-06	5.5669e-06	1363.6	369.45	5.5843e-06	5.5593e-06	416.2	141	121.1	42.201	5.5406e-06	52.152	133.650	152.242	222.489	100.085	139.580	340.353	99.721	104.777	207.395	170.732	104.044	108.423	108.923	113.903	300.149	113.124	-8191	255	
18878.949	1	1	0	0	0.27658	0.2004	0.14009	0.38876	0.098801	0.20449	0.3829	0.31534	0.35934	0.25958	0.14816	0.098467	0.15131	0.10452	0.21648	0.24594	-1.0042	-1.7812	-1.9083	-1.6688	-1.925	-1.7104	-1.8417	-2.1562	-1.5125	-1.7563	-2.0167	-1.6479	-1.8604	-1.8021	-1.4979	-2.1	380.264	283.237	90.383	418.044	171.417	90.297	352.889	411.319	248.180	153.757	387.614	420.254	166.434	396.073	430.790	310.852	0.00077679	0.000136	0.00021106	1355	2.4167e-06	3.3612e-06	1350.8	365.28	8.4976e-06	7.5242e-06	415.16	139.23	122.09	41.402	3.4836e-06	51.294	0.00050838	0.0005047	0.00014075	1363.6	5.512e-06	5.5088e-06	1363	368.49	5.5079e-06	5.4803e-06	415.25	140.73	121.18	42.151	5.5203e-06	52.248	151.949	280.754	154.447	100.109	179.015	237.677	99.914	104.517	138.612	191.302	104.485	108.332	108.412	113.687	256.824	112.805	-8191	255	
18879.047	1	1	0	0	0.15509	0.11068	0.19421	0.25483	0.20266	0.17759	0.26958	0.3062	0.028156	0.14639	0.27346	0.32308	0.066651	0.20555	0.26066	0.23849	-1.1771	-1.8979	-1.9458	-1.6521	-2.0042	-1.9417	-1.7083	-1.8292	-1.7229	-1.7146	-2.0667	-1.65	-2.0271	-1.8458	-1.5667	-2.0521	372.242	134.923	316.498	417.233	207.883	108.113	375.143	401.472	195.699	217.422	362.902	364.849	119.952	314.310	164.351	350.607	0.00085852	0.0008672	6.8237e-05	1347.3	2.4707e-06	3.8808e-06	1347.1	365.73	1.1236e-05	7.954e-06	417.55	138.97	122.35	41.528	3.206e-06	51.421	0.00050647	0.00050462	0.00014071	1361.7	5.5202e-06	5.5047e-06	1363.3	369.23	5.5326e-06	5.4886e-06	416.05	140.92	121.33	42.201	5.5293e-06	52.274	160.737	130.425	267.785	100.065	239.250	243.383	99.835	104.695	152.134	103.189	104.250	108.259	108.509	113.465	176.362	112.523	-8191	255	
18879.143	1	1	0	0	0.20924	0.26814	0.079042	0.1779	0.12881	0.15377	0.30927	0.17331	0.30709	0.020172	0.201	0.10858	0.19985	0.28225	0.2398	0.29367	-1.1875	-1.6917	-1.8104	-1.5812	-1.7958	-1.9625	-1.7146	-2.3187	-1.7208	-1.6146	-2.1437	-1.8167	-1.9729	-1.7479	-1.6875	-2.0708	160.412	118.414	386.792	415.827	94.613	286.134	308.010	404.736	383.444	433.669	121.997	230.103	246.312	107.220	299.597	243.003	0.00084842	0.00064329	0.00015217	1350.9	2.0548e-06	2.6893e-06	1348.5	364.41	3.1967e-06	1.865e-06	417.62	139.98	122.39	41.552	3.7353e-06	51.28	0.00050815	0.00050719	0.00014163	1361	5.5482e-06	5.5676e-06	1364.3	369.18	5.5634e-06	5.5332e-06	417.04	141.17	121.6	42.226	5.572e-06	52.243	161.091	152.400	186.416	100.123	239.053	190.079	99.740	104.615	175.088	248.747	104.079	108.070	108.269	113.277	251.191	112.363	-8191	255	
18879.238	1	1	0	0	0.083708	0.26753	0.10216	0.26992	0.15203	0.15489	0.3226	0.45536	0.20907	0.11673	0.071749	0.033986	0.16482	0.20035	0.23675	0.30504	-1.2604	-1.6271	-1.9104	-1.5271	-1.8354	-2.2146	-1.6625	-2.0729	-1.7938	-1.6688	-2.1396	-1.6083	-1.8354	-1.9146	-1.5146	-2.0938	164.819	327.987	111.334	352.849	378.662	222.764	430.121	340.548	412.819	209.142	186.378	93.594	214.785	245.646	368.177	399.389	0.00070573	0.00021747	0.00014032	1352.9	5.8722e-06	2.3734e-06	1348.6	363.86	5.6469e-06	2.455e-06	418.35	139.32	121.86	41.508	1.0731e-05	51.404	0.00051124	0.00051149	0.0001422	1363.8	5.6082e-06	5.6057e-06	1363.3	369.51	5.5896e-06	5.5779e-06	417.58	141.14	121.42	42.249	5.5634e-06	52.21	137.565	266.491	330.311	99.531	158.729	179.949	99.691	104.494	436.449	165.603	104.126	108.429	108.597	113.492	273.981	112.826	-8191	255	
18879.336	1	1	0	0	0.019154	0.26588	0.10214	0.10168	0.16449	0.209	0.056831	0.33909	0.19939	0.28104	0.059809	0.18254	0.11351	0.1882	0.11392	0.23324	-1.2104	-1.3542	-1.9875	-1.9813	-1.5667	-1.9667	-1.7875	-2.1521	-1.8354	-1.6229	-2.0042	-1.6104	-1.5604	-2.0417	-1.6917	-2.0438	353.032	287.418	143.366	373.784	211.248	434.238	424.259	304.099	406.178	174.823	446.235	125.244	352.605	384.595	314.590	410.186	0.00066112	5.667e-05	4.8433e-05	1355	7.6085e-06	3.4829e-06	1345	366.37	4.6438e-06	3.7235e-06	418.12	139.7	122.25	41.362	2.9307e-06	51.462	0.00050851	0.0005052	0.00014124	1362.7	5.5356e-06	5.537e-06	1363.4	370.34	5.5134e-06	5.5455e-06	416.25	141.07	121.35	42.137	5.5384e-06	52.076	144.563	402.071	210.882	100.222	215.956	228.395	99.914	104.510	161.602	205.314	104.373	108.609	108.760	113.662	189.301	112.835	-8191	255	
18879.432	1	1	0	0	0.12021	0.15944	0.2444	0.28475	0.085605	0.016327	0.39702	0.21123	0.039428	0.24964	0.24953	0.13881	0.17308	0.11076	0.15453	0.18352	-1.4688	-1.6146	-2.0646	-1.8062	-1.575	-1.8833	-1.8687	-1.8792	-1.9792	-1.575	-2.0563	-2.0375	-1.4542	-2.0917	-1.7083	-1.8563	228.269	441.069	411.172	86.922	271.248	381.000	406.019	405.226	305.429	446.704	194.256	92.682	362.896	363.210	334.619	399.095	0.000791	0.00047892	5.4181e-05	1351.1	4.7126e-06	4.0337e-06	1351.9	364.9	1.1072e-05	7.3854e-06	415.88	139.25	122.1	41.724	5.0928e-06	51.18	0.00050489	0.00050402	0.00013997	1362.2	5.4949e-06	5.518e-06	1363.1	369.08	5.5189e-06	5.5321e-06	414.92	140.96	121.05	42.198	5.4941e-06	52.2	143.221	226.388	350.825	100.320	185.287	229.329	99.996	104.777	166.861	167.184	104.263	108.274	108.757	113.689	110.046	112.416	-8191	255	
18879.527	1	1	0	0	0.26576	0.17106	0.045551	0.18864	0.20671	0.18135	0.3251	0.15502	0.094417	0.16827	0.20405	0.17271	0.1315	0.38855	0.076949	0.4165	-1.4188	-1.5667	-1.9583	-1.9083	-1.5229	-2.0792	-1.7812	-1.8312	-2.0229	-1.5854	-2.0104	-1.9417	-1.5042	-1.9917	-1.6875	-1.85	106.003	354.514	206.171	406.366	89.296	154.756	440.537	336.418	409.442	101.907	354.400	423.748	172.556	341.827	240.004	389.972	0.00071471	0.00037823	0.00022548	1351.7	6.1631e-06	6.0752e-06	1351.7	365.07	6.2356e-06	3.8188e-06	416.71	139.2	121.49	41.686	1.6611e-06	51.166	0.00050387	0.00050118	0.00013958	1359.4	5.4758e-06	5.4675e-06	1362.4	368.83	5.4865e-06	5.4488e-06	414.45	140.78	120.84	42.122	5.4239e-06	52.024	138.115	110.341	135.201	99.977	275.037	116.477	100.118	104.731	250.207	216.603	104.563	108.201	108.931	113.647	351.634	112.967	-8191	255	
18879.623	1	1	0	0	0.4376	0.091896	0.025383	0.17457	0.093592	0.1467	0.39236	0.25773	0.20749	0.058119	0.15772	0.16347	0.13269	0.21055	0.18468	0.18429	-1.4521	-1.575	-1.9417	-1.9312	-1.4083	-2.1625	-1.9042	-1.8146	-1.9771	-1.5396	-1.7792	-1.8729	-1.5229	-2.0375	-1.5917	-1.8604	399.804	292.754	313.701	359.025	98.414	396.477	405.231	369.935	174.815	145.809	397.229	185.183	105.361	96.556	321.259	337.262	0.0004725	0.00031408	0.00012856	1354.7	3.6416e-06	5.3102e-06	1344.9	364.05	1.753e-06	6.5672e-06	416.81	139.71	121.69	41.502	6.4196e-06	51.175	0.00049912	0.00049857	0.00013882	1358.7	5.4287e-06	5.4452e-06	1360.3	368.45	5.4422e-06	5.4035e-06	413.69	140.42	120.48	42.079	5.4543e-06	52.026	140.476	126.461	202.442	100.098	207.999	251.958	99.989	104.865	276.408	157.271	104.168	108.352	109.028	113.498	252.295	112.695	-8191	255	
18879.742	1	1	0	0	0.37475	0.10489	0.05925	0.20164	0.24225	0.32731	0.20448	0.16096	0.34057	0.12458	0.25926	0.20859	0.28653	0.1814	0.15884	0.19704	-1.5292	-1.3521	-1.8062	-2.2646	-1.6208	-1.9062	-1.9458	-1.8229	-1.9625	-1.4854	-1.8083	-2.0667	-1.4854	-2.0875	-1.9333	-1.5938	156.721	95.425	372.607	404.039	269.899	322.739	341.705	428.682	310.490	181.104	160.904	410.974	393.549	339.283	250.589	435.165	0.00085881	0.00044094	0.00029327	1351.9	1.002e-05	7.1387e-06	1352.9	365.75	5.8264e-06	5.7787e-06	415.29	139.87	121.59	41.506	4.3387e-06	51.266	0.0005	0.00050124	0.00013892	1359	5.442e-06	5.4698e-06	1363.2	369.15	5.4652e-06	5.4452e-06	413.35	140.48	120.51	42.082	5.4206e-06	51.985	125.928	131.515	225.171	100.220	203.465	146.326	99.870	104.844	295.898	420.743	104.488	108.539	108.917	113.648	280.219	113.054	-8191	255	
18879.838	1	1	0	0	0.089251	0.072579	0.10156	0.18886	0.20606	0.16983	0.25519	0.31634	0.11777	0.17319	0.25287	0.33012	0.11068	0.17605	0.094437	0.15238	-1.525	-1.65	-1.6521	-2.1437	-1.4438	-1.9146	-1.8563	-1.7167	-1.8167	-1.7563	-1.8479	-2.1625	-1.4708	-1.8125	-1.8104	-1.5292	226.619	275.899	147.697	365.761	283.337	438.014	406.767	304.242	411.807	87.805	421.017	382.383	175.611	391.273	309.786	311.582	0.00065285	0.00020293	0.00017748	1350.6	2.7958e-06	7.9911e-07	1349.7	364.68	1.0136e-06	2.187e-06	417.02	139.93	122.39	41.444	8.5609e-06	51.374	0.00049593	0.0004962	0.00013832	1357.4	5.4057e-06	5.4098e-06	1361.2	368.38	5.3981e-06	5.3828e-06	412.86	140.57	120.31	41.964	5.3815e-06	51.899	134.095	231.225	423.487	100.324	241.569	198.250	99.764	104.594	217.723	321.130	104.055	108.561	108.625	113.422	237.397	112.645	-8191	255	
18879.934	1	1	0	0	0.20904	0.071317	0.17319	0.29492	0.33272	0.38206	0.3432	0.25441	0.14792	0.19167	0.20441	0.14427	0.18674	0.16692	0.14154	0.11622	-1.3167	-1.6583	-1.5729	-2.1271	-1.5021	-1.8042	-2.0083	-1.6708	-1.9729	-1.8083	-1.7062	-2.1854	-1.6146	-1.9937	-1.7729	-1.5896	193.983	410.938	236.494	344.715	374.202	428.031	365.761	435.054	204.917	115.553	414.721	394.946	398.316	200.674	402.734	359.319	0.00073849	0.00044489	7.7146e-05	1351.1	3.2015e-06	2.1406e-06	1350.5	365.96	4.5633e-06	4.0927e-06	416.91	138.52	122.59	41.611	1.6179e-06	51.222	0.00049406	0.00049022	0.00013658	1354.7	5.3726e-06	5.3568e-06	1360.8	368.37	5.3643e-06	5.3908e-06	413	140.53	120.56	42.096	5.4435e-06	51.947	136.819	165.120	303.095	100.098	243.063	207.614	99.708	104.692	287.930	88.297	103.891	108.289	108.584	113.738	191.576	112.523	-8191	255	
18880.029	1	1	0	0	0.29512	0.21636	0.23184	0.098824	0.11751	0.19194	0.23161	0.14028	0.03648	0.22574	0.084294	0.202	0.08122	0.24011	0.17257	0.18064	-1.3854	-1.5729	-1.4542	-2.1979	-1.575	-2	-2.0896	-1.8125	-1.8083	-1.7083	-1.5458	-1.8417	-1.6667	-1.7146	-2.0625	-1.6625	201.549	197.377	282.721	422.109	153.886	245.708	371.771	106.938	249.070	193.363	201.309	103.131	122.443	339.917	207.069	383.344	0.00071913	0.00016574	0.00015739	1355.1	4.4701e-06	1.1638e-05	1347.5	363.97	1.038e-05	8.2601e-07	418.69	139.63	121.67	41.357	4.2685e-06	51.318	0.00049723	0.0004946	0.00013823	1357.3	5.4213e-06	5.4085e-06	1359.1	368.1	5.4062e-06	5.3546e-06	413.46	140.36	120.2	42.043	5.3744e-06	51.939	123.875	235.505	426.256	99.841	101.109	232.404	99.836	104.800	249.522	357.235	104.557	108.419	108.713	113.752	287.951	112.888	-8191	255	
18880.127	1	1	0	0	0.173	0.1158	0.26687	0.032709	0.12735	0.37801	0.28643	0.29172	0.006272	0.1932	0.42615	0.16332	0.16159	0.12696	0.16492	0.056233	-1.5125	-1.6667	-1.35	-2.0729	-1.4958	-1.6917	-2.1125	-1.6875	-1.8604	-1.9354	-1.4979	-2.1792	-1.6771	-1.8646	-2.1021	-1.5646	235.508	431.800	242.466	227.700	175.659	288.431	420.310	407.270	270.312	163.008	433.915	401.935	272.701	331.430	98.266	247.729	0.00075329	0.00055496	0.00022734	1351.3	6.1622e-06	5.9215e-06	1346.6	365.62	7.8158e-06	1.0005e-06	418.69	138.89	121.78	41.515	1.2343e-06	51.267	0.00049296	0.00049428	0.00013724	1356.6	5.4052e-06	5.3757e-06	1358.4	368.52	5.3751e-06	5.3879e-06	413.02	140.47	120.27	42.059	5.377e-06	51.867	140.809	197.273	163.452	99.946	173.585	96.588	99.769	104.867	157.377	182.211	104.311	108.492	108.933	113.516	313.122	112.941	-8191	255	
18880.223	1	1	0	0	0.15267	0.24483	0.056987	0.26302	0.37938	0.049906	0.19075	0.13747	0.28503	0.15072	0.28513	0.32798	0.087945	0.076731	0.15734	0.37998	-1.5083	-1.7458	-1.5187	-1.9521	-1.5125	-1.6688	-2.125	-1.7479	-1.7083	-2.1146	-1.6437	-2.0396	-1.6625	-1.7979	-2.0917	-1.6583	297.601	188.332	214.909	421.133	335.623	167.873	132.599	399.361	291.941	381.550	317.895	270.748	414.118	160.846	250.795	396.218	0.00081287	0.00019937	0.00013439	1357.3	3.6113e-06	3.2044e-06	1345.3	364.87	4.1234e-06	3.7563e-06	413.86	139.31	121.81	41.417	8.4489e-06	51.209	0.00049182	0.00049068	0.00013679	1356.5	5.3595e-06	5.3355e-06	1357.6	367.73	5.363e-06	5.3494e-06	412.2	140.23	119.98	41.986	5.339e-06	51.894	162.634	229.485	275.996	100.157	196.168	260.995	99.757	104.728	173.794	418.443	104.344	108.376	108.871	113.572	243.133	112.825	-8191	255	
18880.344	1	1	0	0	0.039769	0.26819	0.15183	0.11458	0.36795	0.06158	0.17051	0.20231	0.22599	0.03817	0.23258	0.094035	0.20798	0.20069	0.11607	0.25652	-1.4438	-1.9958	-1.4937	-1.9479	-1.9083	-1.6646	-2.35	-1.8542	-1.5979	-1.9917	-1.6646	-2.0146	-1.7292	-1.6187	-2.0771	-1.7354	175.988	334.146	226.034	90.410	214.729	316.229	273.733	383.569	326.356	409.081	370.365	319.780	419.853	346.618	250.598	355.038	0.00067337	0.00042156	0.00014299	1348.5	2.1982e-06	3.93e-06	1345.9	365.43	7.0292e-06	6.6642e-06	415.79	138.75	122.57	41.546	2.1725e-06	51.178	0.00048771	0.00049028	0.00013621	1354.4	5.3668e-06	5.354e-06	1357.2	368.32	5.3588e-06	5.3403e-06	411.92	140.22	120.29	41.955	5.3574e-06	51.796	157.901	233.861	418.493	99.887	143.028	398.997	99.832	104.762	223.793	194.725	103.992	108.443	108.877	113.596	153.331	112.909	-8191	255	
18880.439	1	1	0	0	0.057948	0.19323	0.3276	0.24856	0.15353	0.19255	0.5951	0.36443	0.20785	0.035883	0.086413	0.19716	0.048422	0.28919	0.30677	0.1048	-1.2792	-1.9937	-1.6292	-1.8458	-1.8813	-1.4271	-2.2542	-1.8521	-1.5063	-2.1	-1.4813	-1.8729	-2	-1.4292	-1.9979	-1.8125	416.156	208.461	308.358	405.666	215.591	139.412	426.159	440.371	436.185	359.415	186.610	432.921	240.457	400.429	228.892	319.201	0.00092204	0.0001724	0.00012579	1347.4	2.4763e-06	4.806e-06	1345.4	364.08	1.6256e-06	8.5557e-06	414.25	139.45	122.37	41.317	7.8064e-06	51.296	0.00048961	0.00048962	0.00013559	1352.5	5.3462e-06	5.3401e-06	1357.5	367.5	5.3334e-06	5.336e-06	410.82	140.25	120.25	41.921	5.3461e-06	51.848	148.212	186.037	187.914	100.125	423.719	183.343	99.778	104.777	238.449	128.955	103.774	108.419	108.441	113.732	263.960	112.727	-8191	255	
18880.535	1	1	0	0	0.17793	0.19358	0.29579	0.34636	0.077966	0.2136	0.16688	0.29042	0.11668	0.21106	0.14607	0.1147	0.029868	0.26341	0.33097	0.2305	-1.0292	-2.1917	-1.4271	-1.9333	-1.9104	-1.7104	-2.0292	-2.0292	-1.5604	-2.1208	-1.6396	-1.8458	-2.0271	-1.5458	-1.8917	-1.9292	261.149	427.830	368.361	413.186	129.064	88.153	310.009	410.569	148.846	307.178	104.502	363.344	418.639	419.257	368.865	404.856	0.00074206	0.00027303	0.00026296	1348.8	4.8357e-06	4.0119e-06	1345.3	365.64	1.2995e-06	3.8481e-06	417.11	139.36	120.51	41.499	4.3551e-06	51.312	0.00049256	0.00048976	0.00013686	1356.7	5.3808e-06	5.3625e-06	1358.6	368.38	5.3807e-06	5.3796e-06	413.15	140.41	120.07	42.009	5.3926e-06	51.991	133.612	148.414	212.983	100.393	210.078	196.984	99.822	104.545	263.777	378.043	104.451	107.994	108.655	113.550	244.708	112.684	-8191	255	
18880.631	1	1	0	0	0.34122	0.093078	0.17773	0.15382	0.15821	0.070424	0.18541	0.33541	0.12748	0.16859	0.17015	0.35193	0.15188	0.20332	0.11852	0.35218	-1.0688	-1.975	-1.5625	-1.8	-1.9625	-1.575	-1.9292	-2.0458	-1.5917	-2.0687	-1.7646	-1.7458	-2.0479	-1.625	-1.8958	-1.9062	362.355	205.662	106.727	213.647	322.826	174.305	392.469	385.591	288.039	293.399	438.028	347.630	283.668	438.266	411.317	384.578	0.0006943	0.0002409	4.1919e-05	1356.3	5.2777e-06	6.4566e-06	1349.2	363.72	2.7418e-06	1.6315e-06	416.03	139.04	121.88	41.729	3.1736e-06	51.307	0.00049429	0.000492	0.00013703	1357	5.4027e-06	5.4051e-06	1360.8	367.79	5.3907e-06	5.3727e-06	413.41	140.44	120.4	42.11	5.4052e-06	51.999	135.425	139.425	325.337	99.934	177.490	230.080	99.933	104.905	147.279	205.957	104.138	108.356	109.110	113.469	171.375	112.651	-8191	255	
#DATA ENDS
