BOXY.EXE: ISS Imagent and Oximeter Data Acquisition Program Version 0.80
Ascii Record File

#ACQ INFORMATION
2  Detector Channels 
16  External MUX Channels 
1  Auxiliary Channels 
5000  Waveform (CCF) Frequency (Hz)
1  Waveforms Skipped 
30  Waveforms Averaged 
1  Cycles Averaged 
16  Acquisitions per Waveform 
10.0806  Updata Rate (Hz) 

#FILE INFORMATION
TRUE -- External MUX Channel results are PARSED.
FALSE -- AC DC and Phase are NOT grouped.
TRUE -- Companion Program Settings File CREATED.
FALSE -- AC data not excluded
FALSE -- DC data not excluded
FALSE -- Phase data not excluded
FALSE -- Auxillary Chn. data not excluded
Tab delimiters

#CALIBRATION STATE
TRUE -- Waveform Calibration Values APPLIED.


#AUX CALIBRATION VALUES
Val Type	aux-1	

Term	1.0000e+00	
Factor	0.0000e+00	


#WF CALIBRATION VALUES
A = Detector Channel
Val Type	A-AC1	A-AC2	A-AC3	A-AC4	A-AC5	A-AC6	A-AC7	A-AC8	A-AC9	A-AC10	A-AC11	A-AC12	A-AC13	A-AC14	A-AC15	A-AC16	A-DC1	A-DC2	A-DC3	A-DC4	A-DC5	A-DC6	A-DC7	A-DC8	A-DC9	A-DC10	A-DC11	A-DC12	A-DC13	A-DC14	A-DC15	A-DC16	A-Ph1	A-Ph2	A-Ph3	A-Ph4	A-Ph5	A-Ph6	A-Ph7	A-Ph8	A-Ph9	A-Ph10	A-Ph11	A-Ph12	A-Ph13	A-Ph14	A-Ph15	A-Ph16	

Term	0.00000e+00	0.00000e+00	0.00000e+00	0.00000e+00	0.00000e+00	0.00000e+00	0.00000e+00	0.00000e+00	0.00000e+00	0.00000e+00	0.00000e+00	0.00000e+00	0.00000e+00	0.00000e+00	0.00000e+00	0.00000e+00	0.00000e+00	0.00000e+00	0.00000e+00	0.00000e+00	0.00000e+00	0.00000e+00	0.00000e+00	0.00000e+00	0.00000e+00	0.00000e+00	0.00000e+00	0.00000e+00	0.00000e+00	0.00000e+00	0.00000e+00	0.00000e+00	0.00000e+00	0.00000e+00	0.00000e+00	0.00000e+00	0.00000e+00	0.00000e+00	0.00000e+00	0.00000e+00	0.00000e+00	0.00000e+00	0.00000e+00	0.00000e+00	0.00000e+00	0.00000e+00	0.00000e+00	0.00000e+00	
Factor	1.00000e+00	1.00000e+00	1.00000e+00	1.00000e+00	1.00000e+00	1.00000e+00	1.00000e+00	1.00000e+00	1.00000e+00	1.00000e+00	1.00000e+00	1.00000e+00	1.00000e+00	1.00000e+00	1.00000e+00	1.00000e+00	1.00000e+00	1.00000e+00	1.00000e+00	1.00000e+00	1.00000e+00	1.00000e+00	1.00000e+00	1.00000e+00	1.00000e+00	1.00000e+00	1.00000e+00	1.00000e+00	1.00000e+00	1.00000e+00	1.00000e+00	1.00000e+00	X	X	X	X	X	X	X	X	X	X	X	X	X	X	X	X	

B = Detector Channel
Val Type	B-AC1	B-AC2	B-AC3	B-AC4	B-AC5	B-AC6	B-AC7	B-AC8	B-AC9	B-AC10	B-AC11	B-AC12	B-AC13	B-AC14	B-AC15	B-AC16	B-DC1	B-DC2	B-DC3	B-DC4	B-DC5	B-DC6	B-DC7	B-DC8	B-DC9	B-DC10	B-DC11	B-DC12	B-DC13	B-DC14	B-DC15	B-DC16	B-Ph1	B-Ph2	B-Ph3	B-Ph4	B-Ph5	B-Ph6	B-Ph7	B-Ph8	B-Ph9	B-Ph10	B-Ph11	B-Ph12	B-Ph13	B-Ph14	B-Ph15	B-Ph16	

Term	0.00000e+00	0.00000e+00	0.00000e+00	0.00000e+00	0.00000e+00	0.00000e+00	0.00000e+00	0.00000e+00	0.00000e+00	0.00000e+00	0.00000e+00	0.00000e+00	0.00000e+00	0.00000e+00	0.00000e+00	0.00000e+00	0.00000e+00	0.00000e+00	0.00000e+00	0.00000e+00	0.00000e+00	0.00000e+00	0.00000e+00	0.00000e+00	0.00000e+00	0.00000e+00	0.00000e+00	0.00000e+00	0.00000e+00	0.00000e+00	0.00000e+00	0.00000e+00	-2.02558e+02	-1.16413e+02	-1.30120e+02	-1.82161e+02	-9.57707e+01	-1.01369e+02	-1.59306e+02	-1.62015e+02	-1.14350e+02	-5.77035e+01	-1.70639e+02	-1.72301e+02	-1.77500e+02	-1.76674e+02	-5.36760e+01	-1.49496e+02	
Factor	4.10936e-05	9.52974e-05	2.49006e-05	1.49428e-01	8.83243e-07	8.91524e-07	1.68800e-01	4.93801e-02	1.17695e-06	7.15398e-07	8.34437e-02	2.98807e-02	2.54106e-02	8.75613e-03	1.20421e-06	1.26828e-02	6.26555e-07	6.35961e-07	1.78841e-07	7.42432e-02	6.95763e-09	6.96690e-09	7.86376e-02	2.43642e-02	6.96256e-09	6.98071e-09	3.91092e-02	1.39300e-02	1.23175e-02	4.23067e-03	7.03845e-09	5.88851e-03	X	X	X	X	X	X	X	X	X	X	X	X	X	X	X	X	



#DISTANCE SETTINGS
A = Detector Channel
A-1	A-2	A-3	A-4	A-5	A-6	A-7	A-8	A-9	A-10	A-11	A-12	A-13	A-14	A-15	A-16	

2.5000e+00	3.0000e+00	2.5000e+00	3.0000e+00	2.0000e+00	3.0000e+00	1.5000e+00	3.0000e+00	3.0000e+00	3.0000e+00	3.0000e+00	3.0000e+00	3.0000e+00	3.0000e+00	1.5000e+00	3.0000e+00	

B = Detector Channel
B-1	B-2	B-3	B-4	B-5	B-6	B-7	B-8	B-9	B-10	B-11	B-12	B-13	B-14	B-15	B-16	

1.0000e+01	1.0000e+01	1.0000e+01	1.4400e+00	1.0000e+01	1.0000e+01	1.5100e+00	1.9400e+00	1.0000e+01	1.0000e+01	1.9900e+00	2.4900e+00	2.4100e+00	2.9000e+00	1.0000e+01	2.9800e+00	




#DATA BEGINS
time	group	step	mark	flag	A-AC1	A-AC2	A-AC3	A-AC4	A-AC5	A-AC6	A-AC7	A-AC8	A-AC9	A-AC10	A-AC11	A-AC12	A-AC13	A-AC14	A-AC15	A-AC16	A-DC1	A-DC2	A-DC3	A-DC4	A-DC5	A-DC6	A-DC7	A-DC8	A-DC9	A-DC10	A-DC11	A-DC12	A-DC13	A-DC14	A-DC15	A-DC16	A-Ph1	A-Ph2	A-Ph3	A-Ph4	A-Ph5	A-Ph6	A-Ph7	A-Ph8	A-Ph9	A-Ph10	A-Ph11	A-Ph12	A-Ph13	A-Ph14	A-Ph15	A-Ph16	B-AC1	B-AC2	B-AC3	B-AC4	B-AC5	B-AC6	B-AC7	B-AC8	B-AC9	B-AC10	B-AC11	B-AC12	B-AC13	B-AC14	B-AC15	B-AC16	B-DC1	B-DC2	B-DC3	B-DC4	B-DC5	B-DC6	B-DC7	B-DC8	B-DC9	B-DC10	B-DC11	B-DC12	B-DC13	B-DC14	B-DC15	B-DC16	B-Ph1	B-Ph2	B-Ph3	B-Ph4	B-Ph5	B-Ph6	B-Ph7	B-Ph8	B-Ph9	B-Ph10	B-Ph11	B-Ph12	B-Ph13	B-Ph14	B-Ph15	B-Ph16	aux-1	digaux	

7926.606	1	1	0	256	0.071487	0.16992	0.25779	0.24057	0.15718	0.17441	0.20819	0.11168	0.27639	0.11405	0.21427	0.064411	0.27137	0.053494	0.26849	0.0023772	-1.7271	-1.5083	-1.8646	-1.9479	-1.3458	-2.3917	-1.6354	-1.8521	-2.1437	-1.4292	-1.9583	-2.1021	-1.5604	-2.3187	-1.7083	-1.6875	181.179	352.158	382.693	116.588	392.012	360.340	403.704	353.346	365.448	104.565	97.614	113.154	346.421	111.188	353.801	180.000	0.00156	0.00064136	0.00012569	564.7	2.9459e-06	1.4478e-06	908.5	182.87	1.2507e-06	2.7055e-06	397.4	168.48	73.516	28.145	8.6753e-06	77.333	0.00017819	0.00015054	4.6894e-05	544.01	1.7539e-06	1.6381e-06	861.29	175.66	1.7515e-06	1.6142e-06	369.54	155.36	68.646	26.462	1.8668e-06	71.033	73.370	165.872	149.941	70.768	143.691	94.974	71.172	76.511	261.101	262.535	76.458	81.386	81.636	86.140	258.281	85.476	-8191	255	
7926.702	1	1	0	0	0.11473	0.23792	0.1678	0.17045	0.20374	0.2237	0.30451	0.18265	0.32992	0.14949	0.21226	0.055385	0.19787	0.22695	0.080665	0.0731	-1.8292	-1.7396	-1.8333	-2.1833	-1.4479	-2.1667	-1.7771	-1.7708	-2.0583	-1.6313	-2.1167	-2.2229	-1.3479	-2.0792	-1.6958	-1.8729	411.818	408.203	294.164	138.225	355.559	129.093	365.774	278.916	273.208	168.781	330.485	415.649	138.297	400.989	185.534	270.939	0.0014322	0.00022079	9.9624e-05	568.06	6.8237e-07	4.0811e-06	908.87	184.93	8.5203e-06	3.4167e-06	399.28	169.46	74.162	28.272	4.7573e-06	78.302	0.00017367	0.00015176	4.7729e-05	546.19	1.7128e-06	1.6949e-06	864.21	176.39	1.7328e-06	1.724e-06	371.15	156.24	69.083	26.748	1.9499e-06	71.894	84.544	82.031	181.037	70.881	228.365	170.377	70.940	76.363	145.565	181.590	76.549	81.444	81.369	86.411	170.297	85.180	-8191	255	
7926.798	1	1	0	0	0.18478	0.14279	0.10533	0.12889	0.13593	0.087652	0.3856	0.24114	0.14942	0.1589	0.32814	0.18406	0.19279	0.1737	0.21161	0.25225	-1.7229	-1.7667	-1.7042	-2.1292	-1.6542	-2.0417	-2.0896	-1.5146	-2.2271	-1.875	-1.7958	-2.2417	-1.5917	-2.2354	-2.0771	-1.6646	171.660	295.672	176.676	125.554	203.563	64.016	388.693	351.029	332.908	113.839	82.289	147.371	344.485	363.594	219.077	322.364	0.001507	4.9869e-05	9.597e-05	567.36	5.2707e-06	2.0987e-06	914.67	184.54	2.2997e-06	2.4957e-06	401.09	171.22	74.933	28.572	4.4188e-06	78.556	0.00017384	0.00016058	4.8561e-05	546.27	1.6775e-06	1.7823e-06	867.32	177.2	1.7241e-06	1.8576e-06	372.88	157.37	69.533	26.995	1.9151e-06	72.021	81.114	387.613	161.117	70.566	193.597	180.539	71.391	76.169	94.422	238.610	76.328	81.425	81.438	86.569	218.336	85.520	-8191	255	
7926.895	1	1	0	0	0.079082	0.20246	0.12981	0.11547	0.16226	0.097847	0.26278	0.17752	0.092956	0.4271	0.29494	0.11804	0.18611	0.16031	0.080347	0.15787	-1.7812	-1.7437	-1.6708	-2.1833	-1.4062	-2.2188	-1.9896	-1.7167	-1.9646	-1.8167	-1.8354	-2.3563	-1.5479	-1.8792	-1.9333	-1.7667	238.599	142.277	329.175	61.492	207.875	83.596	333.040	376.017	95.122	92.801	381.670	70.875	126.828	293.012	279.494	210.495	0.001419	0.00052871	0.00014305	572.08	5.6043e-06	3.0265e-06	915.88	186.34	6.4991e-06	4.3674e-06	400.61	171.36	74.011	28.709	3.6107e-06	78.898	0.00016875	0.00016897	4.8603e-05	547.95	1.6955e-06	1.9418e-06	865.46	177.43	1.7413e-06	1.9565e-06	372.41	157.06	69.252	27.205	1.9174e-06	72.419	85.725	175.790	193.257	70.761	155.135	106.169	71.158	76.385	175.803	292.300	76.620	81.408	81.509	86.353	180.715	85.140	-8191	255	
7926.966	1	1	0	0	0.21793	0.40038	0.18313	0.10955	0.2926	0.29213	0.10523	0.17029	0.26058	0.16817	0.34358	0.35993	0.31575	0.19462	0.14834	0.4507	-1.6625	-1.7479	-1.8021	-2.2354	-1.525	-1.9729	-2.2062	-1.4958	-2.1854	-1.8146	-1.6354	-2.3479	-1.7583	-1.7625	-2.2042	-1.7875	237.005	228.268	224.961	63.137	400.874	366.352	414.639	404.744	92.885	128.219	65.815	364.908	379.591	82.627	121.045	356.478	0.0013878	0.00022631	2.28e-05	567.37	4.7932e-06	5.9199e-06	910.4	184.86	4.4444e-06	2.0087e-06	400.81	170.99	74.551	28.975	2.042e-06	79.186	0.00017964	0.00018172	4.8042e-05	545.41	1.837e-06	1.9937e-06	864.12	176.95	1.8691e-06	2.0252e-06	372.14	157.21	70.058	27.399	1.921e-06	72.738	84.099	192.436	165.496	70.566	172.870	164.234	71.012	76.543	98.766	162.493	76.682	81.153	81.619	86.463	183.741	85.171	-8191	255	
7927.087	1	1	0	0	0.15541	0.18245	0.15442	0.27056	0.13092	0.10711	0.40019	0.17184	0.20838	0.040364	0.29248	0.40677	0.12337	0.19263	0.21304	0.23327	-1.7271	-1.9583	-1.6417	-2.325	-1.7521	-2.0917	-2.2042	-1.4833	-2.0625	-1.9646	-1.7375	-2.4583	-1.7646	-2	-2.0854	-1.8083	396.882	291.027	124.478	407.788	271.095	232.721	343.491	388.608	220.260	301.382	64.576	367.069	119.959	95.289	161.641	376.818	0.0016824	0.00029197	0.00016664	571.57	6.0207e-06	4.4005e-06	909.25	187.14	8.0664e-06	2.1922e-06	403.51	171.67	75.849	29.353	3.2032e-06	80.316	0.00019323	0.00018647	4.8331e-05	545.89	1.964e-06	1.9989e-06	865.15	178.18	2.0493e-06	2.0326e-06	375.37	158.99	71.294	27.878	1.9127e-06	73.803	85.182	190.240	97.216	70.573	170.206	235.957	71.087	76.522	131.934	206.255	76.564	81.351	81.973	86.304	312.647	85.336	-8191	255	
7927.183	1	1	0	0	0.088554	0.11442	0.21821	0.15342	0.14721	0.056553	0.090382	0.23017	0.10466	0.025727	0.31044	0.21495	0.044532	0.17725	0.11556	0.11675	-1.5625	-1.7917	-1.4229	-2.2396	-1.7917	-1.8729	-2.0229	-1.7729	-1.7	-1.9854	-1.6479	-2.2542	-2.1792	-1.6146	-2.2188	-1.9958	155.847	247.572	244.468	283.337	303.833	355.520	196.525	385.566	279.983	223.313	297.580	387.962	319.345	416.704	129.244	401.059	0.0015658	0.00034905	3.8841e-05	571.32	4.8963e-06	1.0094e-06	915.62	188.86	5.4062e-06	1.9074e-06	403.88	173.01	75.79	29.493	2.8712e-06	80.125	0.00020382	0.00018335	4.8356e-05	547.16	2.1291e-06	1.9927e-06	869.41	180.12	2.1069e-06	2.0149e-06	375.72	159.43	71.237	27.845	1.8552e-06	73.719	83.265	151.061	143.493	70.558	190.911	245.792	70.851	76.200	199.354	188.173	76.567	81.103	81.435	86.486	187.853	85.364	-8191	255	
7927.279	1	1	0	0	0.20192	0.059654	0.13984	0.23274	0.22116	0.16855	0.080603	0.23183	0.13556	0.042992	0.18644	0.030798	0.20459	0.32635	0.16841	0.1381	-1.6896	-2.1375	-1.4542	-2.1562	-1.8375	-1.6896	-2.2521	-1.6083	-1.6708	-2.2188	-1.5208	-2.1521	-1.8813	-1.5146	-2.2562	-1.8042	88.916	148.333	295.050	59.992	352.342	195.801	412.465	118.482	209.297	103.001	259.059	107.918	67.388	291.541	277.426	406.444	0.0015518	0.00022435	0.00018172	568.41	3.4534e-06	1.1836e-06	913.22	187.33	6.3121e-06	2.4755e-06	404.06	174.04	75.59	29.308	2.1254e-06	80.922	0.0002016	0.00017608	4.5106e-05	547.19	2.0343e-06	1.8685e-06	866.15	179.91	1.9553e-06	1.8642e-06	376.32	160.32	71.088	27.755	1.7739e-06	74.125	91.383	177.692	180.610	70.912	183.792	167.748	71.303	76.231	128.129	310.462	76.611	81.149	81.749	86.294	296.131	85.282	-8191	255	
7927.375	1	1	0	0	0.2098	0.1069	0.077417	0.23499	0.15869	0.19992	0.21335	0.080375	0.26475	0.17214	0.18365	0.43607	0.17357	0.29071	0.062656	0.055289	-1.3542	-2.025	-1.6437	-2.0687	-1.9062	-1.5333	-2.2292	-1.9458	-1.7792	-2.2396	-1.6562	-2.0958	-2.125	-1.6187	-2.1937	-1.8792	251.948	398.318	102.642	347.169	293.771	145.888	377.697	362.576	91.235	201.153	352.591	366.624	353.198	389.149	204.836	362.442	0.0015999	0.00041086	6.8118e-05	570.83	3.3994e-06	5.4317e-06	911.27	187.97	5.9852e-06	6.2233e-07	403.03	172.45	75.54	29.423	8.8918e-06	80.005	0.00019265	0.00016753	4.4982e-05	548.24	1.9697e-06	1.7869e-06	867.57	180.3	1.8843e-06	1.8151e-06	375.41	159.64	70.827	27.716	1.7849e-06	73.646	86.496	163.419	168.370	70.630	256.711	125.858	71.344	76.334	167.356	175.522	76.826	81.362	81.608	86.549	229.642	85.412	-8191	255	
7927.494	1	1	0	0	0.061919	0.091057	0.30298	0.045726	0.066882	0.01428	0.18641	0.1752	0.16917	0.17143	0.30548	0.15637	0.12074	0.24526	0.017052	0.053325	-1.4979	-2.1312	-1.6979	-1.85	-2.0625	-1.4917	-2.2396	-1.95	-1.4917	-2.2938	-1.7812	-2.1417	-2.1625	-1.4292	-2.0354	-2.0917	399.246	128.432	333.566	406.002	398.907	206.055	95.735	332.461	86.997	130.380	358.517	355.965	364.822	348.075	113.372	99.464	0.0013897	0.00029746	0.00013448	571.72	3.0221e-06	2.8244e-06	911.51	187.51	4.5804e-06	3.3251e-06	403.44	171.32	75.322	29.121	3.8808e-06	79.374	0.00018305	0.00016069	4.5143e-05	548.62	1.8182e-06	1.6906e-06	866.17	179.34	1.7713e-06	1.6881e-06	373.48	158.27	70.302	27.327	1.7708e-06	73.046	78.621	107.211	124.997	70.832	181.693	417.636	71.213	76.303	219.751	166.485	76.342	81.074	81.306	86.483	245.579	85.086	-8191	255	
7927.568	1	1	0	0	0.25583	0.18912	0.10409	0.13987	0.098609	0.062394	0.37787	0.026719	0.27454	0.095298	0.28508	0.40481	0.12439	0.11031	0.025254	0.21391	-1.2208	-2.1063	-1.6688	-1.8417	-2.2438	-1.4479	-2.1604	-2.0771	-1.525	-2.3458	-1.9021	-1.9521	-2.4646	-1.5771	-2.0542	-2.2625	384.713	336.406	97.497	79.896	96.050	333.301	324.334	392.054	100.855	173.031	322.876	409.826	363.060	358.632	78.898	122.456	0.0014462	0.00032144	8.8047e-05	570.31	4.256e-06	2.2e-06	909.94	187.69	4.7834e-06	1.116e-06	402.25	171.65	75.138	29.154	6.8742e-06	79.465	0.00017	0.00014725	4.4758e-05	545.58	1.6865e-06	1.5693e-06	863.74	178.42	1.6384e-06	1.5565e-06	373.37	157.97	69.874	27.271	1.7455e-06	72.847	82.195	166.048	112.420	71.007	176.031	231.863	71.410	76.314	221.107	219.846	76.368	81.221	81.756	86.202	227.662	85.401	-8191	255	
7927.687	1	1	0	0	0.035557	0.090555	0.09579	0.1398	0.13869	0.12882	0.20241	0.093046	0.15728	0.11877	0.23665	0.29155	0.38253	0.21575	0.31065	0.32795	-1.1313	-1.9521	-1.7208	-1.6958	-2.1667	-1.8083	-2.175	-2.0375	-1.6646	-2.1188	-1.9	-1.7375	-2.2	-1.7208	-1.7604	-2.2021	300.176	382.591	112.444	336.104	176.260	399.534	104.142	352.109	71.858	370.239	229.898	370.391	374.166	111.631	273.792	355.821	0.0014756	0.00046968	0.00014419	569.17	2.8467e-06	4.3268e-06	917.37	187.11	1.9905e-06	4.5664e-06	401.88	172.09	75.609	29.171	3.3459e-06	79.378	0.0001609	0.00013878	4.3857e-05	545.39	1.5719e-06	1.5668e-06	868.78	178.31	1.5744e-06	1.5701e-06	374.53	158.28	70.136	27.344	1.7301e-06	72.973	85.619	186.361	158.257	70.724	159.666	172.132	71.073	76.159	115.428	214.877	76.645	81.181	81.789	86.639	248.842	85.222	-8191	255	
7927.783	1	1	0	0	0.16182	0.13732	0.055926	0.19024	0.12833	0.14898	0.37511	0.11663	0.3075	0.044466	0.12518	0.27086	0.083175	0.1311	0.30063	0.26498	-1.075	-2.1458	-1.8667	-1.7792	-2.0958	-1.8292	-1.8042	-2.2375	-1.4813	-2.0958	-1.8937	-1.8083	-2.1083	-1.7938	-1.5458	-2.1833	142.648	326.175	209.624	345.736	329.559	163.691	266.634	395.842	283.655	125.501	324.824	382.663	330.153	412.498	360.601	261.845	0.0015995	0.00074201	0.00012164	572.26	4.6315e-06	3.6797e-06	916.33	186.76	4.7967e-06	2.4614e-06	404.31	172	75.705	29.11	2.4456e-06	79.56	0.00015555	0.00014578	4.465e-05	546.11	1.5374e-06	1.6426e-06	869.08	178.31	1.5361e-06	1.6383e-06	375.1	157.99	70.016	27.408	1.6964e-06	73.046	85.784	157.853	108.657	71.130	195.717	169.588	71.198	76.129	143.850	198.037	76.757	80.986	81.442	86.701	187.910	85.266	-8191	255	
7927.879	1	1	0	0	0.18402	0.17789	0.15351	0.29307	0.26701	0.085215	0.30006	0.3234	0.11471	0.041417	0.24834	0.27425	0.17468	0.15009	0.0099922	0.085968	-1.075	-2.1562	-1.6125	-1.5729	-1.9104	-1.7417	-1.7292	-2.1021	-1.5583	-1.8708	-2.2042	-1.5667	-2.1146	-2.0521	-1.6146	-2.3854	413.303	96.515	349.687	370.178	323.959	98.625	71.794	349.685	161.274	129.803	402.902	342.645	352.111	121.466	287.788	381.654	0.0014652	0.0004807	0.00015439	569.56	4.001e-06	3.8957e-06	918.65	188.53	3.3539e-06	2.006e-06	404.33	172.61	74.918	29.125	3.3793e-06	79.901	0.00015372	0.00015507	4.3979e-05	545.08	1.5282e-06	1.7161e-06	869.17	178.68	1.5329e-06	1.7334e-06	374.43	158.35	69.812	27.477	1.6642e-06	72.991	88.163	182.890	204.933	70.916	166.350	178.830	71.097	76.664	136.177	123.758	76.514	81.298	81.939	86.336	211.894	85.290	-8191	255	
7927.975	1	1	0	0	0.066546	0.34385	0.17878	0.2485	0.057462	0.12131	0.21281	0.24425	0.094391	0.19658	0.4253	0.38975	0.16443	0.2018	0.26527	0.059388	-1.2292	-1.8542	-2.0354	-1.4083	-2.0042	-1.8854	-1.8188	-2.3458	-1.4125	-2.0542	-2.2	-1.6458	-2.1167	-1.9354	-1.7208	-2.0875	267.807	81.895	88.365	416.156	220.130	79.301	323.152	376.122	352.767	174.164	58.785	167.804	68.774	305.943	158.316	164.293	0.0015531	0.0002073	8.4149e-05	572.14	5.4597e-06	2.099e-06	910.19	185.92	5.4551e-06	3.6563e-06	402.7	171.96	75.248	29.063	8.3445e-06	79.083	0.00015703	0.00015819	4.236e-05	544.5	1.5872e-06	1.7244e-06	862.91	177.37	1.6053e-06	1.709e-06	372.96	157.57	69.88	27.283	1.6165e-06	72.474	88.734	137.640	101.199	70.446	171.248	290.637	71.169	76.209	220.877	246.797	76.547	81.282	81.963	86.686	255.108	85.110	-8191	255	
7928.096	1	1	0	0	0.43961	0.26937	0.16878	0.021117	0.14311	0.20882	0.33553	0.10542	0.25144	0.053603	0.30035	0.29954	0.24119	0.16143	0.11636	0.14049	-1.1667	-1.9604	-2.0771	-1.7792	-1.9917	-1.8958	-1.5187	-2.3563	-1.7563	-1.7479	-2.4042	-1.7167	-2.0604	-1.9458	-1.4917	-2.35	77.850	344.544	417.296	398.094	341.517	309.417	385.391	379.768	378.037	285.011	400.720	62.017	400.183	335.385	324.765	377.668	0.0015245	0.00059672	0.00010118	568.52	5.4006e-06	4.3861e-06	916.44	186.61	1.2398e-06	2.3375e-06	402.92	171.88	75.977	29.07	6.7566e-07	79.628	0.00016813	0.0001563	4.2248e-05	543.58	1.704e-06	1.7064e-06	864.93	177.36	1.7249e-06	1.6819e-06	373.57	157.98	70.507	27.299	1.6306e-06	72.806	79.756	119.403	112.222	70.624	159.041	137.142	71.062	76.196	212.737	226.258	76.400	81.370	81.352	86.712	90.315	85.436	-8191	255	
7928.167	1	1	0	0	0.23866	0.1889	0.1561	0.14263	0.30708	0.092979	0.14186	0.17946	0.16264	0.13471	0.055807	0.24982	0.082196	0.24994	0.088812	0.027933	-1.2188	-1.6083	-2.1312	-1.5875	-1.8062	-2.0438	-1.5083	-2.1167	-1.9667	-1.4937	-2.4604	-1.7833	-1.9604	-2.2104	-1.5812	-2.2167	102.410	216.417	338.546	354.164	315.014	390.261	144.974	59.512	167.375	172.301	276.233	418.189	257.456	393.191	88.205	320.851	0.0015556	2.8109e-05	3.8991e-05	570.47	4.4489e-06	1.908e-06	913.43	187.38	4.6151e-06	6.2708e-07	403.31	171.82	75.349	28.852	2.8651e-06	78.885	0.00017774	0.00015523	4.1935e-05	543.91	1.7598e-06	1.6896e-06	865.39	178.02	1.7611e-06	1.6437e-06	373.6	157.68	69.984	27.133	1.5539e-06	72.432	80.879	205.823	89.860	70.459	220.229	189.720	71.006	76.512	157.728	104.077	76.839	81.276	81.710	86.759	217.679	85.303	-8191	255	
7928.263	1	1	0	0	0.17325	0.023474	0.18272	0.36384	0.073085	0.25232	0.28887	0.29386	0.064006	0.21506	0.22923	0.24424	0.16124	0.35914	0.18328	0.020646	-1.3958	-1.475	-2.2333	-1.7771	-1.6917	-2.1708	-1.6896	-2.1479	-1.7958	-1.5688	-2.3396	-1.9562	-1.7938	-2.2917	-1.475	-2.3354	389.286	327.015	310.258	67.501	279.093	78.986	341.653	395.862	413.534	101.174	410.266	269.207	359.868	315.843	229.550	193.517	0.001443	7.7273e-05	0.0001084	570.56	2.6115e-06	4.6941e-06	919.59	187.31	3.1984e-06	6.5536e-07	401.76	171.73	74.934	28.76	5.4505e-06	79.212	0.00017115	0.00014555	3.9102e-05	545.53	1.7064e-06	1.6087e-06	867.97	178.22	1.7297e-06	1.57e-06	372.93	158.03	69.904	27.069	1.5421e-06	72.648	88.902	157.124	151.615	70.768	206.609	164.421	71.069	76.153	133.540	251.939	76.580	81.410	81.580	86.760	203.556	85.170	-8191	255	
7928.384	1	1	0	0	0.23883	0.090389	0.26274	0.12166	0.25774	0.18111	0.24672	0.1001	0.19118	0.085097	0.33694	0.20489	0.28617	0.37664	0.16038	0.091761	-1.525	-1.5333	-2.0646	-1.9542	-1.7125	-2.3688	-1.7563	-2.1396	-1.8083	-1.7833	-2.0625	-2.1208	-1.6417	-2.0958	-1.6271	-2.0271	59.964	67.212	206.172	156.733	69.171	220.564	368.642	416.166	244.762	391.910	381.290	80.623	409.632	406.724	108.837	317.500	0.0016652	0.00028791	0.00012051	571.51	3.9973e-06	2.7032e-06	920.5	188.39	1.0183e-06	2.3933e-06	404.4	171.97	74.447	28.844	2.4473e-06	79.429	0.00016874	0.00014301	3.9033e-05	547.61	1.6833e-06	1.5877e-06	869	178.59	1.6824e-06	1.595e-06	373.15	158.32	69.753	27.01	1.6425e-06	72.615	86.432	237.009	155.852	70.702	120.513	416.184	71.223	76.205	309.296	249.893	76.677	81.203	81.548	86.478	252.027	85.173	-8191	255	
7928.478	1	1	0	0	0.092617	0.13686	0.17036	0.15701	0.12998	0.27009	0.17471	0.44256	0.3076	0.15718	0.036589	0.044482	0.18247	0.23392	0.19529	0.29114	-1.6708	-1.3125	-2.0771	-1.9333	-1.6646	-2.1458	-1.7958	-1.9792	-2.125	-1.5688	-2.2521	-1.9604	-1.7062	-2.2208	-1.8354	-1.7417	387.739	207.080	160.562	400.740	205.752	203.246	130.073	333.913	204.772	250.478	232.502	353.826	234.633	382.506	412.858	344.973	0.001559	0.00046359	0.00012232	569.29	3.3195e-06	4.608e-06	916.83	186.67	1.8208e-07	2.5211e-06	400.51	171.16	74.671	28.719	7.4343e-06	79.037	0.00017321	0.00014549	4.2134e-05	547.16	1.6803e-06	1.602e-06	865.79	177.59	1.7331e-06	1.5915e-06	372.38	157.72	69.734	26.984	1.7246e-06	72.529	82.247	227.256	191.813	71.036	146.190	173.449	71.268	76.035	292.218	275.378	76.413	81.210	81.774	86.686	217.318	85.221	-8191	255	
7928.575	1	1	0	0	0.17035	0.16529	0.050123	0.098266	0.21581	0.081456	0.32113	0.11901	0.23116	0.18723	0.15269	0.40428	0.064893	0.14648	0.047762	0.22006	-1.8229	-1.5438	-2.1417	-1.7875	-1.6042	-2.1354	-1.7417	-1.8354	-1.9979	-1.6875	-2.1167	-2.1292	-1.6396	-2.1958	-1.8542	-1.9042	169.625	135.452	113.672	243.789	408.330	80.762	360.207	179.415	276.881	355.821	266.381	336.009	180.680	374.379	134.613	300.854	0.0014533	0.00028323	0.00011885	569.24	5.1928e-06	5.3279e-06	909.62	187.68	3.8897e-06	2.0414e-06	401	171.24	74.743	28.835	5.1607e-06	79.093	0.00017453	0.00014494	4.4412e-05	547.16	1.6713e-06	1.5823e-06	865.35	178.1	1.6974e-06	1.5985e-06	373.2	157.66	69.521	27.009	1.7938e-06	72.498	89.938	128.274	190.811	70.558	166.829	162.502	71.301	76.841	178.812	208.333	76.506	81.163	81.300	86.479	226.316	85.379	-8191	255	
7928.671	1	1	0	0	0.34873	0.32876	0.084762	0.019692	0.074379	0.16423	0.11846	0.32366	0.25403	0.10378	0.21629	0.19518	0.20024	0.10052	0.16851	0.12699	-1.8167	-1.7062	-1.8687	-2.25	-1.5458	-2.1667	-2.1396	-1.7979	-2.3354	-1.8292	-1.9854	-2.25	-1.6354	-2.2521	-1.8667	-1.7417	239.046	171.829	185.020	217.184	176.245	236.675	331.127	335.635	74.388	58.271	403.448	369.373	101.431	400.936	255.348	301.638	0.0013806	0.00010382	0.00014466	568.21	1.4226e-06	4.9701e-06	911.44	187.26	6.5806e-06	3.0911e-06	404.74	171.57	75.457	28.886	3.7668e-06	79.242	0.00016605	0.0001474	4.5937e-05	545.67	1.6307e-06	1.6138e-06	868.59	177.92	1.6502e-06	1.6448e-06	374.89	158.52	69.948	27.082	1.8288e-06	72.742	85.202	192.843	187.446	70.893	300.365	199.632	71.280	76.069	132.497	239.439	76.943	81.365	81.840	86.633	197.928	85.304	-8191	255	
7928.791	1	1	0	0	0.21728	0.17724	0.073724	0.17032	0.17845	0.077201	0.45203	0.45612	0.34496	0.080546	0.17249	0.22558	0.17684	0.039572	0.23067	0.21381	-2.0062	-1.7021	-1.8146	-2.3208	-1.4937	-2.3563	-1.9604	-1.8062	-2.1104	-1.8937	-1.9667	-2.3771	-1.7437	-2.0354	-1.9792	-1.7667	74.027	253.138	247.737	296.872	146.459	136.422	408.423	237.871	99.396	168.098	395.723	381.216	300.480	324.366	117.194	411.795	0.0016757	0.00021655	0.00014522	567.58	5.8029e-07	4.9963e-06	918.89	187.39	5.6084e-06	2.5355e-06	405.5	172.18	75.057	28.828	3.6733e-06	78.911	0.00016444	0.00015481	4.6036e-05	545.44	1.6e-06	1.6856e-06	871	177.89	1.5987e-06	1.7303e-06	375.61	158.14	69.749	27.021	1.8094e-06	72.62	82.959	180.569	128.402	70.684	292.984	172.714	71.026	76.617	179.495	173.794	76.301	81.481	81.654	86.500	337.872	85.455	-8191	255	
7928.863	1	1	0	0	0.079803	0.16624	0.057425	0.22153	0.063034	0.14377	0.22041	0.21754	0.19093	0.13141	0.20391	0.15306	0.046672	0.1645	0.14847	0.32841	-1.7771	-1.5042	-1.7229	-2.3688	-1.5292	-2.2792	-2.1188	-1.7437	-2.125	-1.9479	-1.9979	-2.4771	-1.7083	-2.1042	-1.9896	-1.8208	374.104	171.958	238.492	304.160	62.797	306.341	304.295	335.892	333.113	111.700	79.172	82.168	196.965	157.167	257.070	383.279	0.0018	0.00038369	5.9599e-05	576.37	6.1455e-06	2.7914e-06	922.48	186.74	2.5e-06	3.1141e-06	404.61	171.79	74.654	28.489	5.0259e-06	78.959	0.00016229	0.00015903	4.4508e-05	548.24	1.5916e-06	1.7574e-06	873.28	177.76	1.5908e-06	1.7803e-06	374.82	157.82	69.385	26.895	1.7152e-06	72.399	86.412	203.944	312.879	70.754	140.437	130.530	71.315	76.274	186.213	228.178	76.504	81.167	81.892	86.793	129.223	85.554	-8191	255	
7928.959	1	1	0	0	0.11742	0.12753	0.23152	0.22977	0.19181	0.24159	0.1713	0.27322	0.12013	0.055769	0.14982	0.25927	0.11192	0.28335	0.10342	0.26193	-1.7313	-1.8833	-1.7208	-2.4688	-1.9042	-2.2167	-2.2917	-1.75	-2.1854	-1.9479	-1.7625	-2.3854	-1.8708	-2	-2.4979	-1.6146	344.024	255.913	119.340	327.317	226.688	402.015	357.026	203.184	69.066	344.066	350.250	418.559	263.639	389.092	372.733	403.952	0.0014675	0.0004713	0.00011648	571.73	3.9102e-06	5.5429e-06	913.47	187	4.8654e-06	2.2311e-06	400.99	170.58	74.254	28.218	4.3015e-06	78.713	0.00016169	0.00016085	4.1881e-05	545.3	1.605e-06	1.754e-06	867.15	176.76	1.6294e-06	1.7624e-06	372.49	157	69.304	26.695	1.6928e-06	71.977	83.925	160.093	127.901	70.870	212.066	125.211	71.290	76.692	146.050	219.806	76.674	81.114	81.753	86.709	199.074	85.389	-8191	255	
7929.055	1	1	0	0	0.094477	0.084955	0.10439	0.26242	0.17105	0.17073	0.16683	0.17533	0.33306	0.098469	0.28481	0.37136	0.20629	0.21409	0.18099	0.16994	-1.6979	-1.7771	-1.8438	-2.1479	-1.6854	-2.0687	-2.3771	-1.7375	-2.0146	-1.8375	-1.6896	-2.3333	-1.9979	-1.8625	-2.15	-2.0917	95.202	202.991	331.411	389.678	126.889	127.983	325.522	364.304	282.357	325.448	411.252	301.984	416.433	85.421	300.132	339.852	0.0015819	0.00022171	0.0001049	570.48	4.7489e-06	6.0117e-06	916.62	186.02	3.8213e-06	3.3566e-06	400.36	171.56	74.232	28.413	5.6301e-06	78.865	0.00016857	0.00015629	4.1774e-05	542.63	1.6977e-06	1.7117e-06	866.48	176.54	1.71e-06	1.726e-06	372.33	157.35	69.439	26.664	1.6686e-06	72.142	86.499	208.577	216.032	70.767	201.575	190.037	71.147	76.120	193.356	157.692	76.939	81.369	82.003	86.770	202.201	85.768	-8191	255	
7929.176	1	1	0	0	0.28322	0.16314	0.11415	0.078238	0.099388	0.26212	0.21949	0.13232	0.13644	0.22313	0.069835	0.19812	0.18427	0.1224	0.23206	0.1532	-1.3604	-2.1646	-1.5229	-2.2417	-1.8021	-1.7708	-2.5917	-1.7354	-1.9417	-2.3125	-1.6875	-2.3458	-1.8	-1.8083	-2.1188	-1.9396	193.491	189.158	127.120	247.340	361.743	387.372	314.167	214.172	224.730	377.744	216.133	80.294	122.659	352.153	109.647	390.886	0.0015683	0.00047984	0.00018678	569.59	4.1643e-06	1.8872e-06	916.91	185.15	5.5135e-06	2.6515e-06	403.1	172.91	75.131	28.54	4.3809e-06	79.198	0.00017813	0.00015851	4.1828e-05	544.7	1.786e-06	1.7154e-06	868.05	176.96	1.8042e-06	1.7561e-06	373.27	158.17	70.092	26.802	1.6566e-06	72.532	84.418	143.104	214.720	71.139	154.137	206.408	71.395	76.721	150.380	123.321	76.833	81.875	81.632	86.990	207.530	85.477	-8191	255	
7929.272	1	1	0	0	0.11593	0.15511	0.26656	0.075207	0.38212	0.36278	0.24746	0.098617	0.10639	0.13625	0.23858	0.30061	0.12199	0.090514	0.37862	0.12198	-1.3896	-2.1667	-1.3	-2.2562	-1.875	-1.575	-2.1396	-2.0458	-1.7687	-2.3167	-1.5979	-2.2979	-2.1479	-1.6688	-2.2292	-1.8271	308.099	364.750	394.372	313.004	321.057	201.853	379.020	76.735	407.643	224.745	401.841	343.996	413.330	291.087	189.271	226.357	0.001422	0.00041067	0.00013461	570.05	2.4319e-06	4.3316e-06	921.63	186.24	3.0251e-06	2.2372e-06	404.25	172.25	75.19	28.525	9.4144e-06	79.456	0.00017832	0.00015671	4.1042e-05	545.01	1.783e-06	1.6742e-06	869.82	177.7	1.7685e-06	1.6709e-06	374.49	158.62	70.076	26.783	1.5951e-06	72.805	84.668	114.224	121.973	71.089	140.353	161.403	71.604	76.529	162.356	212.196	76.840	81.705	81.676	86.692	170.896	85.716	-8191	255	
7929.368	1	1	0	0	0.15787	0.051117	0.058338	0.22164	0.16544	0.15329	0.10556	0.17798	0.14099	0.07736	0.20337	0.10149	0.25934	0.056289	0.2483	0.14994	-1.4062	-2.1917	-1.4813	-1.9833	-2.125	-1.7771	-2.4625	-1.8042	-2	-1.9583	-1.7833	-2.2062	-1.9833	-1.5354	-2.2042	-2.0917	183.453	111.295	215.703	410.420	65.082	87.710	341.950	371.992	323.740	170.336	202.210	254.147	350.468	298.906	382.050	62.091	0.0014146	0.00070495	9.2654e-05	573.4	4.3e-06	2.9322e-06	917.41	186.69	4.3543e-06	1.8366e-06	404.64	172.6	74.612	28.286	1.8498e-06	79.007	0.00017394	0.00015305	4.0283e-05	547.55	1.7389e-06	1.6408e-06	867.84	178.24	1.7009e-06	1.6374e-06	374.37	158.64	69.711	26.591	1.6262e-06	72.614	89.382	164.976	102.544	71.136	184.312	386.282	71.552	76.542	133.399	260.563	77.119	81.535	81.862	86.947	231.348	85.663	-8191	255	
7929.464	1	1	0	0	0.1951	0.099886	0.30752	0.15269	0.056566	0.23944	0.38648	0.061827	0.14934	0.12056	0.36223	0.33997	0.1222	0.24485	0.17798	0.24941	-1.2354	-2.2104	-1.6229	-2.1271	-2.1479	-1.5479	-2.5104	-2.1146	-1.7396	-2.4333	-1.6625	-2.1312	-2.2333	-1.7938	-2.0083	-2.0125	394.323	119.490	232.631	75.385	338.065	242.467	317.859	366.066	386.371	182.332	365.072	65.336	356.533	355.094	67.184	345.621	0.0014898	0.00052224	0.00012279	574.23	1.9538e-06	2.9065e-06	921.99	185.21	5.2173e-06	1.5486e-06	402.65	171.16	74.817	28.496	6.1764e-06	79.04	0.00017121	0.00014799	4.1836e-05	547.96	1.6996e-06	1.5769e-06	868.92	177.66	1.6793e-06	1.5888e-06	373.24	157.79	69.711	26.672	1.7305e-06	72.575	88.733	177.340	190.930	71.116	158.175	231.576	71.587	76.792	159.783	209.720	77.046	81.730	81.812	86.890	238.583	85.568	-8191	255	
7929.559	1	1	0	0	0.024426	0.256	0.11665	0.13765	0.058921	0.19576	0.13311	0.040496	0.1349	0.16937	0.45803	0.2617	0.26598	0.31069	0.2705	0.2688	-1.2646	-2.4125	-1.7	-1.9625	-2.3958	-1.5562	-2.2	-2.225	-1.6021	-2.4437	-1.7437	-1.8958	-2.0979	-1.9208	-2.025	-2.4667	323.105	307.434	111.051	111.679	187.916	345.367	362.152	129.364	295.084	243.585	376.786	383.227	386.132	364.077	256.491	330.452	0.0014719	0.00058547	0.00014948	567.99	4.8159e-07	5.6618e-06	915.96	185.12	3.0541e-06	4.0011e-06	402.25	171.36	74.668	28.363	5.326e-06	79.762	0.00017055	0.00014702	4.5083e-05	545.97	1.7012e-06	1.6014e-06	866.85	177.02	1.7105e-06	1.6139e-06	374.23	158.06	69.763	26.736	1.8585e-06	72.946	89.706	151.043	137.213	70.835	406.908	184.624	71.586	76.290	125.867	223.015	77.018	81.534	82.204	86.822	190.719	85.506	-8191	255	
7929.657	1	1	0	0	0.145	0.094036	0.22499	0.226	0.30844	0.33358	0.18256	0.17057	0.092591	0.19321	0.22569	0.16447	0.23375	0.055249	0.23321	0.17986	-1.1229	-2.1271	-1.8854	-1.8833	-2.2042	-1.7146	-2.1229	-2.2333	-1.6271	-2.1625	-2.1042	-1.8062	-2.3771	-1.6938	-2.0979	-2.2583	187.232	376.460	241.796	90.893	410.419	189.968	369.380	246.168	255.919	412.989	61.290	390.137	376.277	354.980	79.761	304.919	0.0015296	0.00012972	6.7022e-05	571.28	4.8421e-06	3.514e-06	916.69	186.01	6.1895e-06	5.7353e-06	402.44	173.49	75.233	28.729	5.404e-06	79.746	0.00017174	0.00015202	4.7717e-05	546.76	1.7171e-06	1.6932e-06	871.32	177.86	1.6933e-06	1.7251e-06	375.4	159.23	70.144	27.032	1.8945e-06	73.302	81.368	162.334	160.734	71.070	198.541	208.698	71.425	76.370	163.377	244.936	76.660	81.681	81.691	87.226	258.961	85.694	-8191	255	
7929.776	1	1	0	0	0.12461	0.2294	0.13103	0.24959	0.096488	0.071918	0.043662	0.32909	0.30223	0.25262	0.16606	0.071108	0.28404	0.34743	0.2858	0.098203	-1.2083	-2.0438	-1.8875	-1.7833	-2.0958	-1.7042	-1.9958	-2.2333	-1.6896	-2.2313	-2.175	-1.5917	-2.2938	-1.8417	-2.0625	-2.3542	397.902	91.310	76.267	408.183	405.637	314.577	333.078	347.072	185.689	329.456	394.470	315.217	408.898	336.850	388.300	370.607	0.0015928	0.00034489	6.4859e-05	569.64	2.5145e-06	3.7974e-06	921.23	187.94	4.398e-06	1.3155e-06	402.45	173.28	75.234	28.788	6.0872e-06	80.221	0.00017019	0.00016241	4.8854e-05	546.63	1.6854e-06	1.8053e-06	872.58	178.61	1.6702e-06	1.7956e-06	376.23	159.31	70.173	27.15	1.8738e-06	73.621	85.593	157.167	97.126	71.053	171.352	125.807	71.414	76.514	159.633	230.352	76.827	81.576	81.978	86.935	242.341	85.556	-8191	255	
7929.872	1	1	0	0	0.17653	0.020777	0.1132	0.23257	0.070206	0.12936	0.15913	0.27707	0.26339	0.099632	0.27645	0.11793	0.0097836	0.33644	0.31418	0.15261	-1.2437	-2.0812	-1.9688	-1.6688	-2.2313	-1.9625	-2.0979	-2.4042	-1.5333	-2.1479	-2.1354	-1.6333	-2.1	-1.9188	-1.8625	-2.5438	367.451	297.300	258.168	308.189	159.692	379.786	191.027	401.710	389.243	218.744	347.093	276.941	378.252	388.698	152.400	394.209	0.0016383	0.00045106	1.886e-05	569.7	9.7113e-07	3.244e-06	920.27	187.64	7.5841e-06	3.5363e-06	406.03	174.03	75.551	28.972	1.798e-06	80.338	0.00017039	0.00017078	4.8551e-05	546.62	1.7045e-06	1.8962e-06	873.49	178.7	1.7003e-06	1.8839e-06	378.31	159.69	70.382	27.291	1.8478e-06	73.478	81.634	128.476	68.124	70.948	131.073	197.173	71.622	76.678	185.449	237.483	76.773	81.363	81.753	87.091	302.965	85.815	-8191	255	
7929.968	1	1	0	0	0.17985	0.16937	0.22694	0.17307	0.1406	0.044257	0.098248	0.13986	0.33204	0.28076	0.17032	0.16663	0.21276	0.16274	0.17909	0.23795	-1.2042	-2.0563	-1.8875	-1.6292	-2.0438	-2.0646	-1.8687	-2.3354	-1.8062	-1.9833	-2.1771	-1.8333	-1.9417	-2.1417	-1.7	-2.4562	289.382	128.454	131.943	313.325	91.811	214.983	350.961	415.881	413.887	85.865	395.142	75.436	61.190	83.786	407.735	359.267	0.0015594	0.00032827	0.00012452	568.52	3.6878e-06	1.3503e-06	915.34	188.08	4.665e-06	1.4662e-06	402.93	172.87	75.336	28.496	5.6714e-06	79.446	0.00017532	0.00017017	4.6468e-05	543.91	1.7781e-06	1.896e-06	869.97	178.71	1.7657e-06	1.8624e-06	375.66	158.74	70.223	27.04	1.7806e-06	73.017	86.312	117.539	148.877	70.878	176.419	122.254	71.376	76.372	191.336	230.303	76.570	81.486	81.877	86.735	232.221	85.395	-8191	255	
7930.089	1	1	0	0	0.27261	0.15631	0.249	0.34785	0.10152	0.12045	0.14834	0.15439	0.32928	0.1742	0.027947	0.08001	0.20056	0.27588	0.19909	0.028323	-1.3062	-1.85	-2.1667	-1.5125	-1.9146	-1.9396	-1.5625	-2.3146	-1.6	-2.0938	-2.2375	-1.6625	-2.2396	-2.3312	-1.7125	-2.6333	363.545	151.824	390.000	341.647	185.600	261.557	209.871	322.771	327.034	400.117	331.739	282.633	121.198	87.932	155.664	131.757	0.0014145	0.00030663	5.1223e-05	563.88	6.3581e-06	4.1462e-06	910.37	187.43	9.5397e-06	2.3598e-06	405.67	172.8	75.273	28.868	4.2981e-06	79.994	0.00017988	0.00016632	4.4769e-05	541.87	1.7839e-06	1.8294e-06	865.09	177.7	1.8008e-06	1.7879e-06	375.09	158.55	70.325	27.098	1.7093e-06	73.154	77.361	313.964	366.874	70.999	157.701	211.241	71.566	76.625	140.869	151.486	76.871	81.149	81.912	87.021	343.255	85.753	-8191	255	
7930.160	1	1	0	0	0.17807	0.1699	0.13333	0.073157	0.22218	0.25531	0.28278	0.16209	0.078334	0.18411	0.15125	0.25948	0.19308	0.1487	0.21848	0.13389	-1.4021	-1.7479	-2.1646	-1.6979	-2.0187	-2.0771	-1.7729	-2.0438	-1.9813	-1.8271	-2.1792	-1.7458	-2.0083	-1.9958	-1.5375	-2.2771	360.767	59.691	387.270	207.972	69.803	193.910	408.772	121.329	393.630	355.016	341.562	325.568	367.055	251.648	142.637	160.155	0.0014758	0.00042186	4.5726e-05	570.98	1.5862e-06	6.048e-06	916.02	186.78	2.358e-06	3.0169e-06	404.29	173	75.6	28.914	4.1612e-06	80.053	0.00018453	0.00016401	4.3388e-05	543.61	1.8292e-06	1.794e-06	868.2	177.79	1.8893e-06	1.7958e-06	375.51	159.41	70.7	27.188	1.7025e-06	73.359	83.915	134.120	141.786	71.311	120.193	205.618	71.468	76.480	133.206	168.744	76.797	81.578	81.657	86.572	171.130	85.602	-8191	255	
7930.256	1	1	0	0	0.25273	0.18878	0.14156	0.16755	0.20563	0.1121	0.13957	0.17544	0.06432	0.062502	0.26912	0.13208	0.40274	0.021036	0.096718	0.36	-1.6146	-1.6271	-2.1083	-1.8125	-1.5875	-2.0979	-1.6646	-2.3187	-1.9771	-1.8729	-2.2979	-1.9583	-1.7437	-2.2812	-1.5562	-2.0875	318.081	234.420	171.797	398.667	397.928	194.862	368.825	242.287	265.947	196.606	63.056	77.446	413.882	293.045	263.112	321.475	0.0014271	0.00028376	1.2742e-06	565.47	4.9875e-06	3.2192e-06	921.28	186.87	2.1844e-06	1.7907e-06	404.77	173.54	75.488	29.014	3.2501e-06	80.745	0.00018783	0.00016181	4.2684e-05	543.43	1.8596e-06	1.7832e-06	868.88	178.45	1.8732e-06	1.7436e-06	375.62	160.09	70.738	27.341	1.6737e-06	73.857	83.123	112.871	305.968	71.200	184.588	156.424	71.462	76.734	228.918	133.957	77.057	81.533	81.942	86.965	176.169	85.614	-8191	255	
7930.352	1	1	0	0	0.13421	0.1643	0.13532	0.16897	0.13521	0.14373	0.1452	0.11003	0.29769	0.23537	0.12918	0.35786	0.11146	0.035179	0.027725	0.22882	-1.4125	-1.625	-2	-1.8729	-1.8271	-2.2521	-1.6167	-2.1063	-2.0042	-1.5417	-2.1604	-1.9708	-1.7667	-2.2604	-1.8396	-2.0229	324.223	97.642	229.365	358.914	159.799	128.048	281.602	346.644	292.073	179.245	389.096	341.400	388.629	224.937	364.974	58.814	0.0016334	8.7844e-05	8.39e-05	566.48	1.4076e-06	2.1015e-06	920.04	188.26	4.206e-06	1.4024e-06	405.25	175.67	76.138	29.282	4.2655e-06	80.669	0.00018577	0.00015675	4.1618e-05	544.82	1.7864e-06	1.7055e-06	869.74	179.67	1.7984e-06	1.6714e-06	377.48	161.29	71.125	27.501	1.6667e-06	74.197	92.195	182.088	255.760	71.060	158.196	212.823	71.705	76.761	160.325	279.102	76.944	81.552	81.952	86.996	251.177	85.388	-8191	255	
7930.471	1	1	0	0	0.1651	0.10623	0.16662	0.33389	0.12478	0.2145	0.28725	0.20853	0.13231	0.25178	0.086172	0.10565	0.21533	0.40595	0.165	0.092907	-1.8646	-1.5104	-2.1229	-1.9667	-1.4604	-2.175	-1.7938	-2.1042	-2.1917	-1.4583	-2.35	-1.9917	-1.8312	-2.2104	-1.7021	-2.0292	400.491	152.491	274.683	401.204	194.073	114.248	387.407	314.622	123.648	170.572	305.015	362.565	368.839	356.346	378.042	363.018	0.0015607	0.00053252	0.00010771	565.03	2.5621e-06	6.1343e-06	918.34	187.88	9.492e-06	2.5162e-06	407.32	173.73	75.438	29.07	1.0406e-05	80.668	0.00017656	0.00014827	4.2658e-05	544.35	1.7122e-06	1.6326e-06	867.89	179.42	1.7568e-06	1.5952e-06	377.56	160.49	70.887	27.309	1.7373e-06	73.951	83.588	190.671	107.584	71.075	136.392	148.901	71.701	76.496	176.527	172.737	76.727	81.816	82.023	86.824	227.836	85.622	-8191	255	
7930.568	1	1	0	0	0.13314	0.2105	0.24626	0.084528	0.21832	0.11832	0.33397	0.12862	0.11995	0.34102	0.27545	0.20734	0.056805	0.23611	0.28781	0.11997	-1.8062	-1.5354	-2.0917	-2.2854	-1.7021	-2.0917	-2.0792	-1.875	-2.1437	-1.8229	-2.0792	-2.1479	-1.6604	-2.5	-1.7687	-2.0021	336.902	85.618	394.504	362.230	275.148	281.499	353.494	248.022	180.884	217.383	328.707	370.798	359.632	65.117	140.847	353.748	0.001634	5.4664e-05	0.00014735	563.08	2.1381e-06	5.2105e-06	912.23	187.1	2.0951e-06	3.0226e-06	406.24	173.79	75.957	29.319	8.0604e-06	80.628	0.00017145	0.00014457	4.4047e-05	541.87	1.6792e-06	1.5834e-06	865.63	179.05	1.6644e-06	1.6002e-06	377.01	160.37	70.8	27.429	1.8041e-06	73.906	82.389	388.628	131.812	71.083	128.661	136.154	71.657	76.822	106.540	211.412	76.958	81.343	82.126	86.870	224.131	85.510	-8191	255	
7930.664	1	1	0	0	0.31254	0.036066	0.22751	0.15925	0.16609	0.043643	0.12045	0.080084	0.018499	0.090178	0.090595	0.21069	0.25763	0.13758	0.13195	0.08765	-1.7479	-1.5875	-1.9854	-1.9292	-1.6208	-2.2167	-2	-1.5438	-2.0521	-1.5104	-2.1208	-2.2667	-1.4479	-2.0771	-1.8854	-1.6896	70.053	70.112	142.037	81.055	332.969	132.383	322.892	356.439	132.215	194.193	155.433	60.030	114.891	194.764	86.894	392.764	0.0016033	0.00034889	2.5568e-05	567.58	4.0347e-06	3.8285e-06	916.36	187.67	3.7969e-06	3.595e-06	408.54	174.26	75.994	29.493	5.5058e-06	80.682	0.00016967	0.0001459	4.5298e-05	541.7	1.5933e-06	1.603e-06	869.22	178.96	1.6292e-06	1.6226e-06	378.4	160.67	70.865	27.555	1.8045e-06	74.113	84.338	158.974	179.020	71.126	118.769	189.607	71.562	76.328	110.791	219.647	76.828	81.702	81.671	87.005	239.767	85.353	-8191	255	
7930.737	1	1	0	0	0.088144	0.078726	0.10591	0.2617	0.18341	0.15666	0.10089	0.11443	0.29914	0.1243	0.28494	0.25301	0.20012	0.13729	0.44649	0.19103	-1.6208	-1.6854	-1.95	-2.1375	-1.7479	-2.1437	-2.1292	-1.7042	-2.3729	-1.5396	-2.0417	-2.2542	-1.5625	-1.925	-2.0833	-1.7333	399.239	144.117	384.394	122.222	415.152	248.756	192.130	394.299	107.827	146.280	360.626	165.855	398.615	277.944	380.149	345.233	0.0016554	0.00033343	8.1023e-05	563.17	2.6187e-06	2.9784e-06	914.41	187.16	7.1341e-06	2.334e-06	408.45	175.59	76.4	29.354	4.9227e-06	81.293	0.00016194	0.00015251	4.4784e-05	540.89	1.6022e-06	1.6797e-06	868.66	179.31	1.6084e-06	1.7286e-06	378.27	161.06	71.013	27.634	1.8121e-06	74.394	83.585	178.053	110.709	70.977	217.258	243.624	71.435	76.567	185.822	261.182	76.751	81.560	82.137	86.690	259.577	85.643	-8191	255	
7930.856	1	1	0	0	0.15294	0.085744	0.21292	0.30338	0.18576	0.18558	0.29937	0.16803	0.051392	0.18025	0.23196	0.2216	0.24234	0.30689	0.37642	0.2525	-1.7604	-1.5292	-1.6771	-2.3646	-1.6458	-1.9	-2.0458	-1.725	-2.2375	-1.8958	-1.8917	-2.4271	-1.6292	-2.0125	-1.825	-1.7583	131.402	368.414	124.733	298.366	102.503	75.648	391.611	330.781	135.289	388.769	165.423	398.279	246.914	143.077	326.458	337.749	0.0016338	0.0001405	0.00015602	564.42	4.6816e-06	3.0221e-06	919.85	188.72	5.8035e-06	1.6885e-06	408.09	175.47	75.87	29.279	7.0773e-06	81.298	0.00016367	0.00016137	4.4749e-05	542.18	1.6264e-06	1.7821e-06	871.88	179.24	1.6344e-06	1.8143e-06	379.11	161.48	71.13	27.648	1.7676e-06	74.53	84.391	234.597	73.668	70.937	186.512	157.179	71.383	76.492	150.133	176.389	76.987	81.475	82.023	86.970	184.090	85.726	-8191	255	
7930.952	1	1	0	0	0.27831	0.1936	0.076062	0.15196	0.2075	0.16686	0.10135	0.11488	0.092795	0.26981	0.17682	0.32227	0.050961	0.18798	0.077726	0.19466	-1.6146	-1.85	-1.6104	-2.3021	-1.5583	-1.7542	-2.3312	-1.6688	-2.0771	-1.9083	-1.6854	-2.2708	-1.5729	-1.9729	-2.1792	-1.7708	84.318	317.808	61.163	384.208	390.563	212.112	299.910	312.055	400.253	105.383	84.752	401.227	151.072	97.942	296.640	139.215	0.0016115	0.00050639	8.2242e-05	569.03	2.1499e-06	1.6531e-06	920.77	187.45	1.078e-05	2.5395e-06	407.71	174.5	76.646	29.56	7.6798e-06	80.867	0.00016677	0.0001655	4.4346e-05	543.1	1.6348e-06	1.8116e-06	871.4	179.02	1.6808e-06	1.8383e-06	378.55	160.7	71.174	27.634	1.7367e-06	73.946	82.536	164.478	152.419	70.765	179.564	162.357	71.449	76.574	152.056	191.622	76.815	81.474	82.203	86.815	205.514	85.848	-8191	255	
7931.048	1	1	0	0	0.24177	0.13312	0.21631	0.12187	0.06837	0.17804	0.16814	0.11205	0.18494	0.17282	0.24904	0.36777	0.10246	0.27396	0.14603	0.31479	-1.5417	-2.1458	-1.5604	-2.3583	-1.7188	-1.8354	-2.3187	-1.6167	-1.9271	-1.8042	-1.7292	-2.0771	-1.9375	-1.7083	-2.3729	-1.5146	114.187	121.209	234.515	311.731	281.480	267.400	120.807	357.480	208.703	64.344	347.060	338.490	332.707	324.389	108.895	357.897	0.0015942	0.00026821	0.00014118	564.69	3.3954e-06	2.5157e-06	913.24	187.47	4.1781e-06	9.8394e-07	405.72	174.48	76.063	29.137	3.6764e-06	80.709	0.00017521	0.00016236	4.352e-05	540.69	1.7483e-06	1.7524e-06	867.31	178.42	1.7674e-06	1.7802e-06	376.25	160.06	71.074	27.458	1.7142e-06	73.905	90.192	208.606	94.482	71.081	225.362	218.275	71.384	76.438	142.815	232.743	76.936	81.388	82.082	87.161	214.173	85.434	-8191	255	
7931.169	1	1	0	0	0.1646	0.25522	0.19474	0.20423	0.21162	0.028733	0.1523	0.25702	0.13224	0.20806	0.090404	0.23039	0.027766	0.13987	0.024793	0.145	-1.6375	-2.0125	-1.5354	-2.3104	-1.9021	-1.725	-2.3563	-1.7188	-1.7833	-2.1562	-1.6146	-2.2292	-1.9021	-1.6833	-2.0792	-1.9396	246.872	221.175	310.586	375.577	116.813	342.861	400.386	94.103	405.539	186.736	322.123	355.269	150.604	96.577	137.626	356.330	0.0015568	0.00054272	6.9579e-05	568.1	5.0828e-06	4.8223e-06	921.63	188.55	6.8045e-06	2.3002e-06	405.87	174.74	76.055	29.139	3.7624e-06	81.16	0.0001813	0.00016109	4.3205e-05	542.37	1.8444e-06	1.7525e-06	869.81	178.86	1.8132e-06	1.7576e-06	376.78	160.34	71.181	27.482	1.6577e-06	74.269	82.087	145.674	176.753	70.669	206.322	194.521	71.639	76.561	151.745	113.051	77.287	81.503	82.048	87.019	207.436	85.510	-8191	255	
7931.265	1	1	0	0	0.38279	0.16201	0.18645	0.19729	0.24008	0.063705	0.14782	0.20025	0.14014	0.24807	0.091239	0.39374	0.10385	0.21095	0.11593	0.21236	-1.4229	-1.9688	-1.4688	-2.1667	-2.0604	-1.6187	-2.3375	-1.8042	-1.625	-2.175	-1.35	-2.0646	-2.2042	-1.6021	-2.225	-1.7708	299.021	259.276	163.225	330.455	154.465	276.673	222.836	418.470	343.781	64.207	345.368	370.789	313.100	321.074	269.069	398.827	0.0016178	0.00015811	0.00012638	569.19	3.7708e-06	4.3754e-06	916.51	189.02	2.206e-06	2.8653e-06	409.77	175.23	76.073	29.341	4.9848e-06	81.776	0.00018419	0.00015709	4.1844e-05	543.14	1.8429e-06	1.7213e-06	868.55	179.64	1.8042e-06	1.7304e-06	378.55	161.06	71.268	27.653	1.659e-06	74.75	83.038	136.604	145.642	70.916	149.013	155.638	71.617	76.767	203.306	202.009	76.869	81.292	82.241	86.569	219.342	85.663	-8191	255	
7931.337	1	1	0	0	0.23484	0.1052	0.13554	0.29773	0.26352	0.1135	0.28961	0.073281	0.24488	0.11062	0.097324	0.15929	0.19035	0.16341	0.12408	0.31893	-1.45	-1.9813	-1.6771	-2.15	-1.7563	-1.6271	-2.1979	-1.8125	-1.8	-2.4396	-1.8604	-2.2167	-1.9583	-1.7792	-2.1833	-1.7354	190.918	314.358	214.551	285.516	324.116	297.054	367.950	162.856	154.991	103.081	252.335	332.659	374.284	206.622	308.825	348.281	0.0015673	0.00010804	0.00018992	566.18	5.1436e-06	3.9863e-06	919.21	189.43	6.0015e-06	3.7753e-06	409.16	175.24	76.402	29.663	5.9192e-06	82.324	0.0001796	0.00015579	4.1549e-05	542.82	1.8146e-06	1.6914e-06	870.41	180.73	1.7719e-06	1.7227e-06	379.74	162.27	71.88	27.913	1.721e-06	75.436	83.991	127.788	131.948	71.098	210.859	199.261	71.169	76.642	181.201	111.161	76.964	81.636	81.874	87.003	233.635	85.646	-8191	255	
7931.457	1	1	0	0	0.15824	0.26266	0.16545	0.31155	0.28012	0.26421	0.18805	0.07479	0.3686	0.12212	0.21495	0.11416	0.39171	0.49666	0.16518	0.15169	-1.1917	-2.1604	-1.7125	-1.9708	-2.1521	-1.5021	-2.2104	-2.0812	-1.5625	-2.2833	-1.7417	-2.0312	-2.2417	-1.5125	-2.1188	-2.0312	391.624	180.586	246.879	155.554	367.569	90.574	291.926	397.307	385.781	267.762	336.644	89.197	369.734	61.686	190.202	398.444	0.0016599	0.00011905	0.00015594	564.18	1.7014e-06	1.7681e-06	918.44	189.33	2.6654e-06	3.3272e-06	408.33	176.99	77.302	29.814	4.656e-06	81.836	0.00017931	0.000155	4.41e-05	541.99	1.7799e-06	1.6752e-06	870.89	180.88	1.7681e-06	1.6677e-06	379.64	162.32	71.914	27.951	1.7983e-06	75.181	79.175	330.107	118.367	71.193	392.069	199.744	71.557	76.693	201.281	150.511	76.856	81.451	82.098	86.923	277.905	85.647	-8191	255	
7931.552	1	1	0	0	0.19191	0.23125	0.20089	0.19718	0.20732	0.22605	0.21406	0.15552	0.11131	0.16117	0.21824	0.071832	0.20259	0.17171	0.079422	0.27641	-1.0417	-2.4	-1.8771	-1.8229	-2.3	-1.6458	-2.1021	-2.425	-1.4312	-2.225	-1.8583	-1.9604	-2.2083	-1.6583	-1.9271	-2.2562	335.398	174.708	70.618	356.260	264.887	405.633	378.278	188.368	129.820	331.572	380.869	139.787	400.899	259.016	98.168	262.000	0.0015599	0.00034985	0.00012417	560.62	5.9543e-06	3.7333e-06	913.56	188.04	7.9564e-06	3.1271e-06	409.72	175.32	77.024	29.815	5.9857e-06	81.689	0.00017597	0.00015057	4.6523e-05	538.54	1.7414e-06	1.6387e-06	867.25	179.81	1.7226e-06	1.6479e-06	379.77	161.84	71.893	27.955	1.8385e-06	74.959	87.466	140.279	111.900	70.764	161.905	161.973	71.493	76.439	161.659	183.233	76.755	81.644	81.766	86.868	195.783	85.612	-8191	255	
7931.648	1	1	0	0	0.089021	0.13119	0.12132	0.18446	0.039066	0.16428	0.36713	0.11308	0.048821	0.13634	0.37057	0.2528	0.015557	0.03842	0.146	0.12974	-0.95	-2.2146	-1.7521	-1.6646	-2.1729	-1.5729	-2.125	-1.9188	-1.4937	-2.0375	-1.75	-1.7958	-2.1208	-1.7417	-1.9458	-2.2354	352.831	117.449	173.990	83.671	381.900	272.670	358.600	324.019	69.248	70.367	361.232	368.329	372.077	237.630	127.083	215.002	0.0016381	0.00053072	0.00013144	564.21	7.0811e-06	6.5708e-06	918.2	189.45	5.0295e-06	2.233e-06	410.2	176.48	76.63	29.815	5.848e-06	81.805	0.00016857	0.00015058	4.7293e-05	539.96	1.6833e-06	1.6737e-06	870.46	180.02	1.6734e-06	1.7236e-06	380.62	162.08	71.619	27.998	1.8897e-06	75.136	87.214	211.663	163.718	71.188	190.245	207.824	71.541	76.541	207.681	224.518	76.735	81.599	82.254	87.099	246.634	85.544	-8191	255	
7931.769	1	1	0	0	0.20662	0.11668	0.17329	0.081852	0.08653	0.18514	0.085547	0.22801	0.072049	0.26985	0.13042	0.22369	0.12795	0.369	0.22475	0.21806	-1.0438	-2.2271	-2	-1.6812	-2.0729	-1.8104	-1.8937	-2.2479	-1.6979	-2.0854	-2.1521	-1.7083	-2.1333	-1.7271	-1.9125	-2.2792	393.601	239.913	150.121	166.891	401.609	388.795	305.436	405.120	292.296	151.872	113.413	413.284	83.440	355.601	239.389	313.044	0.0016714	0.0004777	0.00012531	561.27	5.2618e-06	5.9533e-06	922.37	188.19	2.79e-06	3.693e-06	410.06	176.28	77.025	29.81	1.5858e-06	82.243	0.00017184	0.00016395	4.9215e-05	540.35	1.7059e-06	1.832e-06	872.55	180	1.7126e-06	1.8604e-06	381.25	162.33	71.684	28.128	1.9068e-06	75.362	88.309	159.691	185.655	71.046	209.619	164.201	71.746	76.609	58.630	203.369	76.635	81.437	82.187	86.432	227.003	85.657	-8191	255	
7931.865	1	1	0	0	0.063914	0.10544	0.11557	0.055006	0.095202	0.13779	0.067133	0.32943	0.25483	0.15349	0.059709	0.20017	0.15192	0.2994	0.1992	0.025469	-1.1083	-1.9479	-1.8771	-1.5438	-1.9937	-1.9646	-1.8271	-2.1292	-1.4292	-2.0396	-2.1813	-1.7938	-2.0583	-2.0042	-1.6083	-2.2417	384.635	68.341	336.604	367.442	180.288	104.107	354.637	397.529	397.169	286.265	255.080	334.530	339.796	351.120	312.383	239.315	0.0016282	0.00055728	4.735e-05	566.22	2.5654e-06	4.6614e-06	923.07	189.32	7.6478e-06	3.9816e-06	411.46	177.62	77.112	29.941	8.5511e-06	82.089	0.00017002	0.0001733	4.8709e-05	541.71	1.7075e-06	1.9043e-06	872.95	180.31	1.7072e-06	1.9383e-06	382.09	162.59	71.956	28.307	1.8443e-06	75.479	88.379	209.615	181.629	70.831	221.378	172.822	71.421	76.723	199.982	208.057	76.991	81.441	82.255	87.008	189.173	85.695	-8191	255	
7931.961	1	1	0	0	0.052374	0.10656	0.13432	0.058684	0.18566	0.071413	0.19162	0.048334	0.36101	0.19273	0.11995	0.083418	0.22792	0.18897	0.090354	0.30497	-1.2375	-1.9792	-2.3354	-1.5583	-2.1958	-1.8021	-1.7667	-2.1437	-1.6583	-1.9292	-2.1104	-1.7021	-2.2146	-2.0521	-1.5146	-2.2021	223.831	304.944	262.123	366.119	234.269	71.721	395.672	145.818	393.813	204.881	340.663	380.833	411.333	256.129	347.939	367.001	0.0016985	0.00024848	2.2054e-05	563.7	3.7293e-06	3.8316e-06	916.97	189.15	4.9303e-06	5.2866e-06	408.71	176.18	77.038	29.756	4.6774e-06	81.897	0.00017516	0.00017622	4.6904e-05	539.74	1.7663e-06	1.9309e-06	871.14	180.13	1.8186e-06	1.916e-06	381.05	162.27	71.955	28.137	1.8354e-06	75.178	89.176	312.513	271.766	71.087	160.120	231.098	71.635	76.595	132.810	217.801	77.091	81.624	82.019	86.961	182.013	85.551	-8191	255	
7932.032	1	1	0	0	0.19597	0.087778	0.12766	0.26732	0.11716	0.11263	0.39493	0.18202	0.28202	0.10384	0.18138	0.18548	0.17159	0.18073	0.14372	0.076518	-1.4438	-1.7062	-2.2542	-1.7375	-2.0229	-1.9896	-1.7437	-2.1437	-1.7125	-1.6208	-2.4167	-1.5896	-1.9708	-2.0792	-1.4646	-2.2854	124.834	309.587	71.393	364.933	319.343	93.505	311.693	374.279	192.926	120.409	382.599	323.141	176.177	58.853	274.011	249.467	0.0015789	0.0002792	0.00014432	561.67	6.3276e-06	1.8125e-06	916.45	188.58	5.695e-06	1.5248e-06	411.23	175.95	77.047	30.154	4.3956e-06	82.208	0.00018651	0.00017652	4.7166e-05	538.18	1.9234e-06	1.9305e-06	867.29	179.55	1.941e-06	1.9258e-06	380.58	161.99	72.338	28.324	1.8535e-06	75.472	83.067	133.353	129.484	71.144	154.927	315.650	71.467	76.715	105.083	188.877	76.864	81.519	81.978	86.880	207.549	85.542	-8191	255	
7932.153	1	1	0	0	0.13277	0.1635	0.33155	0.066999	0.10434	0.13419	0.33863	0.28221	0.15634	0.14711	0.14826	0.038445	0.26296	0.45177	0.24946	0.3238	-1.4146	-1.5417	-2.1125	-1.6042	-1.825	-1.9771	-1.6688	-2.0646	-1.7146	-1.5438	-2.5062	-1.8563	-1.9583	-2.2271	-1.5312	-2.0375	66.560	344.589	316.230	140.852	122.836	294.964	350.760	405.213	263.903	244.001	85.128	345.157	66.547	71.121	126.985	309.940	0.0017247	0.00058769	0.00012265	562.44	6.2954e-06	2.1403e-06	916.75	188.57	2.1664e-06	2.9269e-06	408.62	176.57	76.821	29.788	6.7915e-06	81.999	0.00019875	0.00017527	4.694e-05	538.19	2.0108e-06	1.9002e-06	868.24	180.12	1.9967e-06	1.8752e-06	380.18	162.86	72.241	28.239	1.7897e-06	75.467	83.469	122.014	172.836	71.003	171.921	179.743	71.633	76.631	135.631	202.143	76.807	81.569	81.750	86.942	223.630	85.381	-8191	255	
7932.249	1	1	0	0	0.38738	0.1265	0.2624	0.1291	0.080632	0.36174	0.048346	0.13603	0.069899	0.083129	0.12561	0.22747	0.14208	0.088591	0.10996	0.10318	-1.4562	-1.7708	-2.1292	-1.6	-2.1042	-2.1271	-1.6021	-2.1729	-2.0646	-1.4833	-2.4479	-1.9896	-1.975	-2.2229	-1.5958	-2.2208	138.414	381.740	332.920	340.866	324.153	214.728	92.577	81.570	124.734	189.794	369.387	311.261	402.008	138.619	250.146	158.170	0.0015764	0.00013715	0.00010916	560.94	1.0909e-06	3.9155e-06	913.85	190.15	3.2214e-06	1.8733e-06	411.39	177.31	77.777	30.114	5.8584e-06	82.885	0.00020244	0.00017132	4.6641e-05	540.71	2.026e-06	1.9476e-06	869.27	181.6	2.0383e-06	1.8937e-06	382.15	164.04	72.892	28.519	1.8222e-06	76.361	89.196	192.134	123.569	71.083	184.536	199.345	71.555	76.558	184.370	160.935	77.025	81.655	81.777	86.968	239.445	85.340	-8191	255	
7932.345	1	1	0	0	0.34552	0.34037	0.26334	0.24293	0.13503	0.17043	0.23345	0.25623	0.14032	0.12068	0.2696	0.18535	0.17263	0.13581	0.13407	0.35228	-1.3917	-1.6375	-2.1583	-1.8062	-1.8292	-2.3875	-1.6667	-2.2167	-2.1271	-1.6125	-2.2938	-1.8896	-1.7938	-2.1937	-1.7646	-1.9833	284.228	171.331	405.420	320.366	58.934	106.827	345.875	372.134	368.224	259.802	82.547	243.772	328.115	131.265	389.714	335.643	0.0017154	0.0007352	6.4305e-05	563.03	2.2691e-06	6.2647e-06	918.87	190.85	2.6811e-06	3.6138e-06	411.03	177.99	77.448	30.112	5.9855e-06	83.024	0.00019815	0.00016977	4.6116e-05	542.16	1.9454e-06	1.858e-06	871.66	182.33	1.939e-06	1.8007e-06	382.96	164.22	72.742	28.443	1.819e-06	76.236	84.702	195.993	182.408	71.179	149.586	239.826	71.442	76.476	179.626	187.547	77.092	81.634	82.120	86.702	236.069	85.810	-8191	255	
7932.442	1	1	0	0	0.085738	0.23358	0.21219	0.26788	0.25976	0.17853	0.17975	0.13982	0.022725	0.11836	0.068188	0.29211	0.13086	0.13659	0.28519	0.16625	-1.6833	-1.4167	-2.0021	-1.9937	-1.6854	-2.1063	-1.8125	-1.8438	-2.0563	-1.6187	-2.0396	-1.9312	-1.6479	-2.0792	-1.6875	-2.0979	240.266	103.241	267.739	307.235	412.033	357.030	369.348	345.690	186.797	412.904	242.341	371.348	199.327	164.766	326.029	82.601	0.001567	0.00058778	0.00011586	562.49	6.3958e-06	2.6267e-06	920.67	189.22	3.8753e-06	1.3358e-06	411.69	176.78	77.043	29.976	6.095e-06	82.148	0.0001868	0.00015985	4.5714e-05	543	1.8348e-06	1.7537e-06	873.35	180.81	1.8268e-06	1.71e-06	381.97	162.75	71.883	28.058	1.8052e-06	75.396	86.086	165.305	132.956	71.167	189.394	118.819	71.564	76.551	148.998	80.250	77.285	81.778	82.101	86.679	239.488	85.776	-8191	255	
7932.538	1	1	0	0	0.1031	0.24852	0.081645	0.13053	0.057162	0.11448	0.15495	0.44158	0.065441	0.27399	0.10337	0.28875	0.14031	0.20373	0.2517	0.40584	-1.6271	-1.6417	-2.0854	-2.0333	-1.775	-2.1646	-1.95	-1.9896	-1.9896	-1.7042	-2.0271	-2.2042	-1.7521	-2.2042	-1.775	-2.1875	279.244	318.293	263.088	278.284	387.715	340.729	204.515	357.474	323.179	382.153	100.126	351.777	150.109	169.327	332.934	385.417	0.0017188	0.00060084	0.0001354	565.43	1.389e-06	2.9116e-06	916.97	188.8	5.7059e-06	4.5615e-06	408.8	176.33	76.855	29.886	2.1228e-06	81.812	0.00017764	0.00014912	4.5788e-05	541.65	1.7386e-06	1.6551e-06	870.01	179.66	1.7353e-06	1.6375e-06	379.72	161.96	71.529	27.913	1.842e-06	75.064	83.544	132.591	149.335	71.118	100.200	118.426	71.559	76.721	107.106	200.316	76.852	81.431	81.962	86.598	184.897	85.699	-8191	255	
7932.632	1	1	0	0	0.087134	0.20108	0.05405	0.14033	0.10358	0.14078	0.31348	0.18712	0.035033	0.1764	0.13427	0.19839	0.12092	0.11342	0.24172	0.21167	-1.5562	-1.6625	-1.9188	-2.1125	-1.4625	-2.3146	-1.8167	-1.7167	-2.2917	-1.7104	-2.1104	-2.2167	-1.6271	-2.0896	-1.8896	-1.8687	404.604	100.816	115.409	249.826	310.505	242.472	382.152	88.603	370.279	215.460	66.318	350.055	121.610	353.943	377.107	326.182	0.0016029	0.00059662	0.00011574	562.42	3.0614e-06	2.9912e-06	913.83	189.65	5.3448e-06	2.8748e-06	409.17	175.29	76.829	29.968	5.9311e-06	82.245	0.00017427	0.00015196	4.7317e-05	539.85	1.704e-06	1.6794e-06	869.39	180.02	1.6688e-06	1.6789e-06	380.47	161.85	71.576	28.015	1.8438e-06	75.299	79.822	175.289	160.292	70.940	146.807	150.571	71.158	76.622	206.092	241.769	76.543	81.645	81.946	86.719	204.075	85.253	-8191	255	
7932.730	1	1	0	0	0.17374	0.22544	0.21859	0.12693	0.024609	0.13123	0.14097	0.25913	0.21635	0.063022	0.15847	0.31222	0.16507	0.22859	0.083507	0.2638	-1.6771	-1.5667	-1.9396	-2.0563	-1.4417	-2.0917	-1.9583	-1.5312	-2.2104	-1.9062	-1.8333	-2.3042	-1.6146	-1.9208	-2.0604	-1.6688	368.888	176.452	149.545	384.332	285.243	209.971	61.047	406.203	344.395	257.757	393.158	379.643	134.080	91.374	221.549	342.448	0.0015445	0.00050211	4.4306e-05	564.61	1.958e-06	5.6107e-06	917.53	189.75	6.4827e-06	3.4194e-06	410.26	177.17	77.299	30.084	7.9213e-06	82.608	0.00016603	0.00015866	4.6613e-05	540.2	1.6248e-06	1.7452e-06	870.13	180.19	1.6415e-06	1.8008e-06	382.13	163.06	71.963	28.281	1.8629e-06	75.532	89.317	143.470	374.303	70.872	195.601	152.542	71.534	76.676	168.073	237.365	76.823	81.567	82.264	86.872	242.723	85.462	-8191	255	
7932.849	1	1	0	0	0.10779	0.14357	0.057816	0.1322	0.2313	0.06132	0.34382	0.23365	0.25134	0.17463	0.2087	0.059888	0.087166	0.26788	0.18784	0.18116	-1.6875	-1.6167	-1.7875	-2.3396	-1.4667	-1.8979	-2.0104	-1.5958	-2.4417	-1.7708	-1.8708	-2.3438	-1.7854	-2.025	-1.9583	-1.6688	253.645	168.496	416.386	328.684	271.805	133.181	306.185	99.816	352.369	258.025	61.876	206.446	155.816	392.234	197.561	371.191	0.0016039	0.00043151	6.8041e-05	568.28	4.183e-06	6.3706e-06	921.81	189.95	6.9462e-06	5.3807e-06	412.2	178.53	77.87	30.146	2.6203e-06	82.89	0.00016811	0.00016926	4.7342e-05	542.19	1.6868e-06	1.8768e-06	873.98	180.85	1.7356e-06	1.946e-06	383.09	163.87	72.445	28.466	1.9083e-06	76.113	83.936	181.486	159.677	71.059	197.464	172.100	71.413	76.651	127.791	257.992	76.739	81.685	81.806	86.902	287.025	85.749	-8191	255	
7932.945	1	1	0	0	0.13597	0.075951	0.21207	0.1178	0.1125	0.044103	0.068009	0.24165	0.22137	0.085032	0.21842	0.064755	0.090849	0.3199	0.15073	0.22114	-1.6604	-1.7917	-1.5417	-2.4271	-1.9583	-1.9813	-2.4479	-1.6833	-1.9625	-1.9917	-2.0396	-2.2979	-1.6854	-1.9854	-2.175	-1.8917	177.293	197.078	291.034	304.564	371.720	110.447	404.947	386.047	409.038	395.488	417.616	189.978	222.275	367.573	84.015	362.377	0.0017125	0.00071817	0.00016373	564.01	5.8534e-06	2.7313e-06	921.47	189.66	3.7281e-06	4.243e-06	411.8	176.83	76.942	29.981	6.9739e-06	82.485	0.00017953	0.00017943	4.7208e-05	539.9	1.788e-06	1.9185e-06	873.83	180.72	1.8013e-06	1.9174e-06	382.08	162.94	72.157	28.292	1.8133e-06	75.504	79.573	160.839	198.838	71.144	190.730	130.534	71.619	76.745	185.108	191.312	77.235	81.616	82.376	86.706	230.134	85.629	-8191	255	
7933.041	1	1	0	0	0.23846	0.32561	0.14979	0.066223	0.22676	0.26652	0.25481	0.17355	0.11721	0.10588	0.1339	0.24699	0.18725	0.066201	0.21986	0.27004	-1.9375	-1.8083	-1.5917	-2.2542	-1.7896	-1.7833	-2.4083	-1.7042	-2.2021	-1.9396	-1.6083	-2.4854	-1.7125	-1.725	-2.2188	-1.5875	266.831	117.097	174.609	304.291	108.957	277.923	360.481	103.995	235.262	117.729	345.425	281.938	403.372	241.133	318.911	361.195	0.0018064	0.00013123	0.00020596	564.1	3.4418e-06	2.7742e-06	915.67	189.36	6.988e-06	3.7955e-06	410.38	177.24	77.182	30.055	4.0486e-06	82.602	0.00018485	0.00017432	4.6099e-05	537.89	1.8797e-06	1.8659e-06	868.37	180	1.879e-06	1.8958e-06	380.17	162.81	72.351	28.358	1.8078e-06	75.668	78.138	127.208	106.654	71.045	262.865	113.533	71.616	76.644	183.716	265.949	76.611	81.843	81.545	87.195	234.586	85.594	-8191	255	
7933.137	1	1	0	0	0.15103	0.12263	0.22147	0.13735	0.37171	0.077286	0.22116	0.17122	0.25978	0.22719	0.11776	0.20261	0.13861	0.29968	0.094602	0.07923	-1.8292	-1.8833	-1.6333	-2.3625	-1.725	-1.6958	-2.3896	-1.5542	-2.025	-2.2896	-1.575	-2.3187	-1.8438	-1.8	-2.3271	-1.9188	386.571	141.673	112.533	306.611	146.651	198.009	137.032	414.837	238.697	244.234	136.428	153.472	391.654	95.962	396.939	327.336	0.0015558	0.00021367	0.00010805	559.85	1.8591e-06	4.7438e-06	916.29	189.94	7.6791e-06	4.004e-06	410.64	177.71	77.86	30.355	6.7571e-06	82.924	0.00019113	0.00017095	4.5968e-05	537.17	1.9645e-06	1.8611e-06	868.32	180.89	1.9599e-06	1.8706e-06	381.01	163.45	72.967	28.504	1.7793e-06	76.209	87.707	136.590	147.961	70.698	162.806	217.787	71.656	76.680	159.275	208.635	76.799	81.586	81.741	87.132	215.016	85.662	-8191	255	
7933.258	1	1	0	0	0.33785	0.24592	0.04929	0.06115	0.33692	0.10543	0.51526	0.07776	0.25896	0.16629	0.15421	0.32906	0.14138	0.066647	0.1254	0.14511	-1.3875	-2.1708	-1.2667	-2.2271	-2.0167	-1.65	-2.3688	-1.6167	-1.8438	-2.2604	-1.9125	-2.1375	-1.9833	-1.7375	-2.0708	-1.7333	230.980	135.777	246.218	316.591	87.966	351.944	387.961	327.277	124.704	385.312	350.658	383.267	155.410	184.519	61.142	381.688	0.0015636	0.00014065	4.7496e-05	556.51	5.2149e-06	3.0978e-06	919.5	190.03	5.8894e-06	5.755e-06	411.83	178.02	78.419	30.522	6.0739e-06	83.512	0.0001937	0.0001687	4.4362e-05	536.51	1.9537e-06	1.7936e-06	866.84	181.44	1.9132e-06	1.8497e-06	382.32	164.23	73.205	28.59	1.7237e-06	76.503	88.403	378.169	130.876	71.137	208.521	196.494	71.617	76.619	144.811	177.020	76.806	81.455	82.256	87.052	256.569	85.532	-8191	255	
7933.330	1	1	0	0	0.24727	0.13614	0.021725	0.28617	0.26469	0.14559	0.17301	0.25972	0.080048	0.14259	0.078895	0.27097	0.117	0.074188	0.24158	0.11976	-1.3833	-2.2771	-1.8104	-1.9146	-1.9979	-1.7646	-2.2458	-1.8125	-1.7271	-2.2812	-1.7042	-2.25	-2.0771	-1.4896	-2.2021	-2.0771	145.620	173.944	207.988	382.319	267.893	265.880	416.983	410.987	259.939	96.065	353.587	65.053	111.555	206.768	79.607	360.523	0.0017032	0.00053338	6.9439e-05	556.2	1.668e-06	1.6728e-06	916.98	190.61	1.6627e-06	5.643e-06	414.8	178.8	78.144	30.409	6.7508e-06	83.147	0.00018716	0.00016183	4.3178e-05	538.18	1.8672e-06	1.7712e-06	870.85	182.51	1.8149e-06	1.7599e-06	383.68	164.8	73.183	28.534	1.743e-06	76.326	89.296	174.050	99.141	71.361	144.560	214.989	71.402	77.168	71.939	235.563	77.071	81.809	81.845	87.043	200.385	85.705	-8191	255	
7933.450	1	1	0	0	0.085108	0.18356	0.14696	0.23947	0.27711	0.19368	0.15527	0.070131	0.15051	0.22148	0.22154	0.13204	0.27688	0.11311	0.18598	0.19883	-1.3958	-2.0417	-1.5667	-1.9542	-1.9833	-1.7208	-2.3125	-2.025	-1.6646	-2.3021	-1.8354	-1.8604	-2.1896	-1.5333	-2.0521	-2.2292	97.685	308.544	227.897	364.821	359.855	317.055	59.101	171.450	172.800	255.958	411.110	291.316	408.813	381.969	397.682	359.150	0.0018054	0.00040806	0.00017737	559.17	5.6557e-06	4.7624e-06	917.98	189.26	4.0319e-06	2.7287e-06	412.82	178.39	77.426	30.285	9.457e-06	82.974	0.00018045	0.00015591	4.3769e-05	538.95	1.8095e-06	1.6643e-06	869.84	181.19	1.7785e-06	1.6623e-06	381.96	163.98	72.444	28.306	1.7957e-06	76.022	85.967	211.519	128.725	71.250	158.777	165.375	71.476	76.687	192.894	195.713	76.932	81.519	82.182	87.134	253.728	85.701	-8191	255	
7933.546	1	1	0	0	0.15954	0.13374	0.11289	0.28056	0.2701	0.072325	0.1859	0.049794	0.19419	0.091127	0.04081	0.24565	0.20097	0.047824	0.075474	0.2534	-1.3146	-2.1083	-1.6	-2.075	-2.1958	-1.4229	-2.0958	-2.0667	-1.6729	-2.1896	-1.8708	-1.9312	-2.3083	-1.6208	-1.9854	-2.1458	122.033	97.919	199.692	302.184	90.133	199.422	392.847	410.621	370.774	279.896	177.910	338.747	371.218	378.341	354.350	364.176	0.0015883	0.00075558	9.0411e-05	560.13	2.2076e-06	2.4507e-06	915.24	189.34	8.6909e-06	1.2655e-06	409.15	176.84	77.179	30.126	1.6808e-06	82.728	0.00017697	0.00015056	4.6619e-05	537.06	1.773e-06	1.6337e-06	868.89	180.69	1.7577e-06	1.6651e-06	381.24	163.22	72.133	28.275	1.8657e-06	75.905	86.637	157.884	221.013	71.268	159.454	361.425	71.600	76.418	171.436	125.650	76.949	81.502	82.307	86.905	177.603	85.622	-8191	255	
7933.641	1	1	0	0	0.14755	0.1575	0.23064	0.031	0.032504	0.25168	0.30955	0.10796	0.15473	0.27146	0.11477	0.36109	0.27208	0.11903	0.17161	0.24163	-1.2083	-1.875	-1.9937	-1.7021	-2.3333	-1.6562	-1.8438	-2.1458	-1.6292	-2.15	-2.1813	-1.8937	-2.1708	-1.8125	-2.075	-2.2313	338.743	141.090	111.515	59.056	350.086	374.453	330.881	204.828	263.855	126.355	411.516	94.497	120.041	116.613	277.747	328.851	0.0014135	0.00032004	8.8708e-05	560.98	1.8444e-06	5.3049e-06	916.03	189.46	5.1619e-06	4.9504e-06	411.77	177.15	78.279	30.093	2.4363e-06	82.476	0.00017555	0.00015242	4.7784e-05	536.58	1.7047e-06	1.6842e-06	869.59	181	1.6726e-06	1.7051e-06	382.52	163.39	72.434	28.335	1.8712e-06	75.861	94.580	200.557	80.021	71.285	81.450	156.972	71.697	76.834	196.116	259.665	76.651	81.807	82.219	87.405	233.064	85.570	-8191	255	
7933.737	1	1	0	0	0.37142	0.13281	0.017329	0.10015	0.079085	0.11222	0.11384	0.068805	0.22265	0.29424	0.10673	0.2483	0.27988	0.24596	0.27871	0.10585	-1.1313	-2.1167	-2.0875	-1.6938	-2.3771	-1.7292	-2.2167	-2.2479	-1.5958	-2.1208	-2.1479	-1.6833	-2.3	-1.925	-1.7125	-2.1937	174.018	105.379	193.432	135.834	248.368	208.289	366.580	375.493	369.685	376.419	98.462	325.542	369.316	336.775	142.690	157.728	0.0015422	0.00063811	0.00011566	559.46	1.5508e-06	6.8548e-06	913.69	189.99	1.0209e-05	6.5064e-06	410.6	178.44	77.721	30.2	2.8799e-06	83.427	0.00016642	0.0001581	4.7752e-05	536.4	1.639e-06	1.772e-06	870.85	180.45	1.6315e-06	1.7658e-06	382.75	164	72.292	28.47	1.8147e-06	76.39	85.190	180.570	171.380	71.346	402.251	187.673	71.588	76.575	146.754	298.269	76.829	81.472	82.081	86.911	182.618	85.524	-8191	255	
7933.858	1	1	0	0	0.11657	0.18269	0.13835	0.1919	0.055314	0.25783	0.13146	0.15282	0.1262	0.18035	0.15989	0.16552	0.16351	0.18797	0.16535	0.21239	-1.3021	-1.8729	-1.9438	-1.5625	-2.1396	-1.8875	-2.0208	-2.1354	-1.5562	-1.9688	-2.3104	-1.9375	-2.1562	-2.0604	-1.7375	-2.1688	134.439	161.643	333.069	394.278	124.984	125.780	407.538	73.935	225.180	334.832	385.375	393.484	233.887	383.317	94.739	303.125	0.0016692	0.00021057	0.00013086	560.51	1.9256e-06	1.1871e-06	916.32	188.55	5.997e-06	1.6463e-06	412.55	178.86	77.711	30.295	3.8963e-06	83.381	0.0001641	0.00016337	4.633e-05	536.12	1.6405e-06	1.8137e-06	872.07	180.21	1.6592e-06	1.838e-06	383.76	164.22	72.459	28.528	1.7972e-06	76.234	84.885	131.095	206.396	71.423	229.922	195.462	71.715	76.787	112.356	246.189	76.916	81.750	82.485	86.791	217.435	85.614	-8191	255	
7933.929	1	1	0	0	0.14327	0.19939	0.15924	0.24051	0.14502	0.27369	0.11435	0.083012	0.11817	0.15587	0.38896	0.22129	0.15601	0.14998	0.037656	0.22121	-1.3188	-1.9583	-1.9292	-1.7625	-2.2917	-1.8146	-1.7396	-2.2854	-1.5792	-2.1792	-2	-1.6812	-2.3917	-1.8958	-1.6875	-2.3521	104.470	129.651	177.543	78.507	234.233	269.997	363.392	278.653	275.582	72.546	344.467	308.463	338.750	237.680	215.990	319.167	0.0017308	0.00063164	8.0636e-05	561.88	1.2816e-06	2.3998e-06	919.01	189.64	2.7811e-06	2.0924e-06	410.94	176.87	77.269	29.792	2.7907e-06	82.119	0.00017117	0.0001657	4.5274e-05	536.89	1.6634e-06	1.8218e-06	871.3	180.31	1.7055e-06	1.7958e-06	381.36	162.58	72.01	28.116	1.7038e-06	75.068	85.636	186.004	355.652	71.384	186.454	125.567	71.508	76.964	153.606	240.403	76.864	81.643	82.007	86.989	217.755	85.355	-8191	255	
7934.025	1	1	0	0	0.28575	0.19037	0.15206	0.17484	0.30954	0.2415	0.28318	0.37321	0.013019	0.15702	0.33483	0.11037	0.19502	0.25161	0.053168	0.11644	-1.1083	-1.7792	-1.9854	-1.875	-1.9833	-1.8563	-1.7188	-2.2958	-1.8417	-1.8563	-2.4458	-1.7437	-2.3125	-2.1312	-1.5958	-2.2229	225.679	80.365	270.796	358.269	198.517	359.437	395.816	390.656	111.377	100.417	336.319	302.115	224.867	76.065	194.503	234.325	0.0014851	0.00017133	0.00012968	557.88	6.1115e-06	4.2123e-06	913.22	188.09	1.0592e-05	1.4166e-06	407.6	176.06	76.512	29.869	6.2493e-06	82.025	0.000174	0.00016277	4.3142e-05	534.26	1.7357e-06	1.7655e-06	865.88	178.85	1.7397e-06	1.7252e-06	378.69	161.62	71.504	27.915	1.6592e-06	74.873	82.351	205.591	184.932	71.135	178.070	168.436	71.383	76.175	157.191	280.244	76.818	81.641	82.016	86.862	193.072	85.567	-8191	255	
7934.122	1	1	0	0	0.32159	0.28748	0.16493	0.12331	0.17164	0.18985	0.18286	0.34183	0.088519	0.22399	0.20712	0.10416	0.085021	0.18375	0.22299	0.43688	-1.3229	-1.6354	-2.3521	-1.7875	-1.9438	-2.2771	-1.6271	-2.3125	-1.8833	-1.6604	-2.2188	-1.8333	-2.0312	-2.2062	-1.5604	-2.2125	90.871	122.367	262.943	371.253	203.515	136.590	324.854	371.816	182.666	382.565	394.299	383.013	160.882	325.209	227.950	390.547	0.0015766	0.00074404	0.00015327	562.88	6.2512e-06	1.8858e-06	917.7	186.83	3.9193e-06	1.7892e-06	409.09	175.55	76.447	29.598	6.5006e-06	81.802	0.00017853	0.00015855	4.1792e-05	536.64	1.7955e-06	1.743e-06	867.55	178.33	1.8217e-06	1.6958e-06	378.7	161.6	71.278	27.866	1.6291e-06	74.809	84.674	137.734	151.959	71.071	129.886	402.543	71.296	76.594	117.219	385.077	76.948	81.505	81.821	86.740	299.241	85.608	-8191	255	
7934.218	1	1	0	0	0.47242	0.10373	0.33017	0.16541	0.095704	0.14104	0.39857	0.2734	0.26113	0.15854	0.090827	0.11556	0.46476	0.063515	0.24127	0.087446	-1.4021	-1.5	-2.1813	-1.625	-2.0458	-2.2479	-1.625	-2.1479	-1.9042	-1.8333	-2.3021	-1.9229	-1.8042	-2.1688	-1.9396	-2.2333	91.673	205.494	258.913	298.694	163.443	228.707	342.990	200.036	74.067	215.907	284.806	389.668	404.098	148.240	77.900	69.288	0.0016288	0.00035105	5.9263e-05	558.44	3.1767e-06	1.2282e-06	918.73	187.68	3.002e-06	2.0046e-06	407.67	175.04	75.754	29.154	4.3804e-06	81.227	0.00018129	0.00015293	4.1105e-05	536.28	1.7912e-06	1.656e-06	867.32	178.74	1.7716e-06	1.635e-06	376.67	161.06	70.644	27.444	1.5395e-06	74.382	88.171	220.573	180.152	70.891	168.668	94.249	71.559	76.780	282.403	204.958	77.199	81.333	82.169	87.042	234.274	85.525	-8191	255	
7934.338	1	1	0	0	0.023033	0.10939	0.076902	0.19563	0.24829	0.16573	0.13762	0.29885	0.090022	0.22723	0.11145	0.19814	0.17527	0.049351	0.29009	0.18243	-1.5875	-1.8583	-2.425	-1.9021	-1.7646	-2.2208	-1.7167	-2.1271	-2.0208	-1.9021	-2.0458	-2.0208	-1.8667	-2.3688	-1.6458	-2.2542	347.130	279.776	265.358	89.938	374.492	340.776	372.271	290.871	340.622	246.570	110.019	348.149	135.921	64.867	364.276	198.505	0.0015949	0.00023836	0.0001062	559.16	4.824e-06	2.8348e-06	918.31	187.43	4.0646e-06	4.5297e-06	407.32	175.07	76.52	29.304	5.2224e-06	81.129	0.00017419	0.00014605	3.9458e-05	537.87	1.7049e-06	1.6077e-06	866.2	179.11	1.7145e-06	1.5715e-06	378.39	161.16	71.007	27.376	1.5537e-06	74.333	85.627	417.567	147.109	70.907	201.389	190.337	71.633	76.740	164.536	245.789	76.777	81.493	82.005	87.152	253.051	85.484	-8191	255	
7934.433	1	1	0	0	0.097482	0.3303	0.32012	0.29376	0.17413	0.096667	0.15387	0.1065	0.29965	0.13885	0.33477	0.073466	0.18849	0.017427	0.16846	0.0074886	-1.6646	-1.6437	-2.2354	-2.1312	-1.7604	-2.3396	-1.9688	-2.0167	-2.0167	-1.7563	-2.1208	-2.0833	-1.6479	-2.4979	-1.7667	-2.1792	290.945	174.746	140.714	352.602	292.153	363.439	244.564	244.628	357.180	174.493	62.922	349.688	156.424	67.471	63.155	396.767	0.0014139	0.00040462	0.0001007	563.35	2.3778e-06	3.4774e-06	918.04	188.05	4.7319e-06	1.5436e-06	409.18	176.85	76.955	29.725	5.331e-06	81.828	0.00016816	0.00013985	3.9922e-05	538.71	1.6071e-06	1.5245e-06	867.43	179.11	1.6377e-06	1.5424e-06	379.17	162.54	71.392	27.785	1.6772e-06	74.948	84.385	106.524	171.494	71.199	209.572	165.793	71.319	76.874	185.738	324.285	76.633	81.470	81.995	86.556	288.822	85.823	-8191	255	
7934.531	1	1	0	0	0.19032	0.12767	0.16522	0.34602	0.046803	0.090995	0.18495	0.073806	0.21295	0.20849	0.29023	0.27132	0.27816	0.044609	0.097979	0.10857	-1.5833	-1.5979	-2.2792	-1.9208	-1.7167	-2.2792	-1.8687	-1.9208	-2.2896	-1.4917	-2.0604	-2.0792	-1.7167	-2.2771	-1.7542	-2.1208	202.487	367.208	183.594	318.283	327.526	76.752	316.274	348.179	287.964	226.427	79.862	400.499	173.002	211.529	336.689	356.656	0.0015756	0.00052659	0.00012957	559.06	3.2023e-06	2.5861e-06	914.41	187.1	5.061e-06	1.2347e-06	408.42	175.59	76.31	29.658	7.6505e-06	82.145	0.00016742	0.00014078	4.3062e-05	536.48	1.6256e-06	1.5525e-06	866.32	178.07	1.6158e-06	1.5067e-06	378.63	161.58	70.912	27.769	1.7394e-06	75.097	84.281	151.865	218.473	70.804	242.053	89.848	71.651	76.742	132.465	231.987	77.112	81.554	82.036	87.219	253.201	85.719	-8191	255	
7934.627	1	1	0	0	0.25649	0.29995	0.20686	0.24353	0.14151	0.1062	0.33998	0.15969	0.09804	0.035077	0.27361	0.24332	0.076834	0.12362	0.17491	0.46824	-1.7458	-1.6833	-2.1375	-2.1917	-1.4292	-2.3271	-2.0062	-1.9479	-2.2625	-1.8333	-2.1688	-2.1375	-1.5917	-2.2375	-2.0646	-1.8646	304.058	260.797	263.091	328.251	128.057	155.209	394.072	84.172	136.405	95.499	73.509	399.733	110.317	115.635	182.966	382.443	0.0015424	0.00080147	6.2555e-05	557.12	1.6974e-06	4.2741e-06	913.99	188.34	8.0799e-06	4.8736e-06	408.72	176.14	76.65	29.455	2.5863e-06	81.946	0.00016314	0.00013959	4.3612e-05	533.14	1.5691e-06	1.5412e-06	867.07	178.69	1.5542e-06	1.5436e-06	379.28	162.16	71.188	27.784	1.7037e-06	75.092	84.379	199.701	167.404	70.968	154.627	189.705	71.707	76.710	165.489	217.158	76.554	81.480	81.597	86.956	203.681	85.716	-8191	255	
7934.721	1	1	0	0	0.19305	0.112	0.13298	0.14036	0.24379	0.22081	0.22197	0.2119	0.19045	0.12207	0.10398	0.15762	0.5162	0.12996	0.13871	0.14889	-1.8833	-1.6896	-1.8083	-2.2771	-1.5083	-2.2479	-2.1437	-1.6646	-2.3646	-1.8646	-2.0583	-2.2667	-1.6354	-2.0812	-2.2667	-1.8312	173.245	149.541	95.276	113.441	284.494	112.069	381.890	355.247	145.745	138.404	301.557	322.046	387.310	413.033	233.674	340.513	0.0013325	0.00036983	6.4779e-05	554.62	3.8365e-06	3.816e-06	917.17	188.67	4.4564e-06	4.5533e-06	410.15	176.52	77.407	29.813	1.8671e-06	82.189	0.0001547	0.00014386	4.3037e-05	534.09	1.5096e-06	1.6133e-06	868.44	178.61	1.5311e-06	1.6656e-06	380.08	162.54	71.399	27.954	1.7663e-06	75.345	77.691	200.511	111.816	70.673	252.608	190.787	71.703	76.772	176.444	190.760	76.896	81.538	81.976	86.776	148.587	85.526	-8191	255	
7934.817	1	1	0	0	0.063331	0.18996	0.21381	0.33035	0.12984	0.099322	0.30706	0.10546	0.4263	0.15255	0.11755	0.21579	0.29026	0.2049	0.032797	0.18825	-1.6833	-1.7833	-1.7271	-2.2917	-1.6562	-1.9479	-2.0896	-1.8083	-2.1292	-1.8813	-1.7938	-2.1396	-1.6646	-1.8854	-2.0208	-1.7729	231.561	320.133	108.477	309.496	259.302	102.115	162.909	177.255	179.018	380.966	353.840	106.601	95.742	414.004	246.050	371.166	0.001599	0.00056071	7.7005e-05	559.79	1.1052e-06	3.9781e-06	918.66	188.19	3.7329e-07	5.9713e-06	410.91	176.78	77.035	29.783	2.0985e-06	82.71	0.00015871	0.00015773	4.3784e-05	534.57	1.5635e-06	1.7116e-06	870.08	179.37	1.5539e-06	1.7398e-06	380.74	162.66	71.395	28.009	1.7193e-06	75.462	86.258	156.976	116.473	71.018	207.571	167.866	71.528	76.824	106.295	218.208	76.871	81.854	81.963	86.759	177.598	85.825	-8191	255	
7934.938	1	1	0	0	0.11913	0.33642	0.13852	0.22423	0.040757	0.20223	0.063522	0.23567	0.47549	0.23859	0.23118	0.058692	0.15832	0.14413	0.12884	0.14703	-1.7812	-1.9958	-1.6229	-2.1979	-1.8146	-1.8875	-2.1688	-1.7313	-2.0875	-2.0917	-1.6521	-2.3167	-1.9188	-2.0333	-2.1125	-1.7583	403.501	164.561	236.378	405.565	160.222	113.981	175.857	368.953	368.710	402.706	265.121	231.851	363.314	245.414	387.166	334.790	0.0016357	0.0002386	0.00011073	557.36	3.4348e-06	3.5482e-06	911.76	187.5	1.5072e-06	4.6342e-06	408.19	175.64	76.817	29.635	3.9231e-06	81.85	0.00016052	0.00016042	4.254e-05	534.38	1.6089e-06	1.741e-06	867.51	178.01	1.6354e-06	1.7275e-06	379.05	162.34	71.307	27.937	1.6933e-06	75.047	81.903	144.224	109.136	71.009	221.463	214.035	71.764	76.467	203.044	246.494	76.828	81.805	81.666	86.904	221.117	85.547	-8191	255	
7935.034	1	1	0	0	0.05357	0.20641	0.18679	0.24735	0.069863	0.097083	0.21235	0.28837	0.1434	0.44952	0.10643	0.19258	0.065813	0.15795	0.10608	0.4002	-1.5562	-2.0104	-1.5771	-2.2083	-1.7188	-2.0521	-2.3104	-1.5	-2.2646	-1.9958	-1.6333	-2.2021	-1.875	-1.7583	-2.2083	-1.5021	179.766	414.859	254.709	110.831	254.105	255.953	313.806	401.392	395.593	387.623	309.750	417.154	84.482	335.213	174.719	399.907	0.0017297	0.00046	5.4902e-05	557.4	3.8106e-06	3.3354e-06	916.34	187.06	9.7887e-06	1.3881e-06	408.4	176.15	76.94	29.645	1.1215e-05	82.003	0.0001678	0.00016034	4.2139e-05	532.02	1.7149e-06	1.6956e-06	865.98	177.95	1.6938e-06	1.7126e-06	378.81	162.05	71.389	27.804	1.6327e-06	75.067	92.428	194.347	140.913	70.873	199.162	79.260	71.417	76.509	152.307	206.039	76.815	81.682	82.060	86.906	209.203	85.460	-8191	255	
7935.130	1	1	0	0	0.055485	0.31895	0.042142	0.21546	0.21066	0.17511	0.14066	0.12238	0.090089	0.26312	0.23537	0.27037	0.10575	0.25264	0.18907	0.19711	-1.5333	-1.8021	-1.5771	-2.1521	-1.9979	-1.6625	-2.1646	-1.6688	-1.9188	-2.1479	-1.5229	-2.2062	-1.7354	-1.8146	-2.2729	-1.9146	204.926	337.440	300.240	342.303	169.841	274.936	342.103	215.659	155.424	301.869	316.152	101.594	103.699	200.918	414.951	410.693	0.0014325	0.00015343	0.00012771	556.4	4.4446e-06	3.9648e-06	919.71	187.86	8.7218e-06	3.0674e-06	411.45	177.38	77.103	29.856	6.6268e-06	82.225	0.00017346	0.00015642	4.0103e-05	532.3	1.768e-06	1.6422e-06	865.86	178.44	1.7387e-06	1.695e-06	379.79	162.63	71.816	27.951	1.5974e-06	75.334	83.679	153.369	149.476	70.858	195.550	146.995	71.282	76.812	189.762	185.913	76.885	81.511	82.284	86.955	232.615	85.543	-8191	255	
7935.226	1	1	0	0	0.19437	0.02566	0.34877	0.084086	0.082625	0.14368	0.21243	0.068563	0.288	0.4397	0.15411	0.21686	0.17415	0.23309	0.13982	0.31202	-1.3604	-2.1333	-1.3729	-2.1854	-1.7479	-1.8104	-2.3063	-2.0583	-1.6708	-2.175	-1.4354	-2.0708	-1.8917	-1.5854	-2.2083	-1.9667	401.991	309.940	158.675	173.402	312.833	401.172	369.689	330.575	367.653	252.126	189.719	361.845	351.644	318.578	79.497	360.462	0.0015694	0.00073004	0.00017174	556.63	4.3437e-06	2.8271e-06	919.61	186.64	5.6849e-06	1.1636e-06	412.03	178.34	77.515	29.856	8.321e-06	82.376	0.00017623	0.00015211	4.0139e-05	532.28	1.7911e-06	1.6549e-06	866.68	178.86	1.7425e-06	1.6603e-06	380.81	163.35	72.042	28.065	1.5815e-06	75.671	83.047	112.840	181.422	71.155	180.544	201.859	71.617	76.644	116.960	221.527	76.757	81.576	81.808	87.220	216.512	85.671	-8191	255	
7935.323	1	1	0	0	0.06054	0.24092	0.10001	0.17934	0.092249	0.28157	0.093361	0.33116	0.26753	0.073255	0.14593	0.29509	0.16786	0.34999	0.10173	0.059494	-1.1708	-2.1813	-1.4396	-2.1625	-1.9208	-1.7896	-2.2167	-1.8521	-1.8146	-2.2	-1.5479	-2.2313	-2.0792	-1.7563	-2.0479	-2.1167	133.540	287.585	81.198	62.363	84.361	168.363	352.006	383.985	202.691	200.634	356.061	369.257	353.615	61.967	379.571	405.154	0.0017051	0.00030005	7.1455e-05	560.25	3.4267e-06	3.2604e-06	918.69	189.21	2.4858e-06	1.6998e-06	409.67	178.25	76.352	29.779	1.8396e-06	82.896	0.0001768	0.00015005	3.9873e-05	535.82	1.7346e-06	1.595e-06	869.47	179.88	1.7152e-06	1.6139e-06	380.52	163.52	71.576	27.922	1.597e-06	75.845	91.572	164.928	126.139	71.225	161.357	118.789	71.587	76.662	135.178	209.264	77.045	81.677	81.780	86.832	157.296	85.580	-8191	255	
7935.419	1	1	0	0	0.14886	0.10743	0.067355	0.15491	0.12367	0.29648	0.17796	0.14908	0.038482	0.047154	0.13947	0.23791	0.10482	0.11951	0.17202	0.23946	-1.0542	-2.3604	-1.5292	-2.0021	-2.0312	-1.625	-2.2625	-1.9021	-1.6521	-2.4104	-1.75	-1.9229	-2.1833	-1.5542	-2.275	-2.0958	85.147	337.726	61.728	317.032	220.111	92.828	125.171	376.410	405.008	286.239	246.471	342.871	263.222	393.688	392.251	382.147	0.0016195	0.00024599	0.00010492	556.68	1.801e-06	2.4411e-06	912.78	187.21	1.1443e-06	4.9644e-06	408.57	177.66	76.763	30.022	5.6271e-06	82.753	0.0001704	0.0001441	4.129e-05	533.71	1.6987e-06	1.5833e-06	865.32	179.05	1.6558e-06	1.6073e-06	379.9	163.2	71.513	27.996	1.6912e-06	75.808	80.414	191.843	139.381	71.025	204.514	253.628	71.332	77.013	107.248	158.566	77.155	81.506	81.751	86.830	248.126	85.594	-8191	255	
7935.515	1	1	0	0	0.14582	0.10176	0.11816	0.29436	0.14049	0.13038	0.072345	0.043548	0.13452	0.25053	0.15505	0.054319	0.15365	0.067554	0.25176	0.062034	-1.0875	-2.3438	-1.775	-1.65	-2.275	-1.7396	-2.1729	-1.8833	-1.7812	-2.2667	-1.8229	-1.6313	-2.3229	-1.6896	-1.9875	-1.9979	142.548	72.622	147.827	376.189	62.325	207.873	166.214	112.934	125.578	264.915	363.894	123.227	158.285	332.358	145.700	262.554	0.0015898	0.00060358	0.00014634	555.31	5.8801e-06	4.2837e-06	911.94	187.27	1.7093e-06	2.4351e-06	408.61	177.14	77.146	29.887	6.574e-06	82.705	0.00016754	0.00014314	4.3804e-05	533.66	1.6931e-06	1.5601e-06	867.54	179	1.622e-06	1.5729e-06	380.6	163.03	71.646	27.982	1.7848e-06	75.831	79.934	162.643	135.703	70.982	167.999	194.127	71.367	76.768	360.387	207.744	77.203	81.645	82.162	86.990	235.903	85.633	-8191	255	
7935.634	1	1	0	0	0.17752	0.18672	0.093838	0.20394	0.22762	0.26958	0.17517	0.2365	0.20574	0.068093	0.16759	0.30491	0.22161	0.22276	0.18201	0.11839	-1.0146	-2.3417	-1.7917	-2.0104	-2.2438	-1.7521	-2.2229	-2.0854	-1.6167	-2.125	-2.1437	-1.7354	-2.1854	-1.7	-1.8354	-2.2854	244.073	287.624	129.577	340.353	78.628	184.631	321.937	414.474	132.974	266.349	287.100	371.191	301.411	359.015	318.948	338.817	0.0015833	0.00054987	0.00019486	552.16	3.09e-06	1.353e-06	917.69	188.74	2.461e-06	1.955e-06	412.14	178.29	77.269	29.897	5.1392e-06	82.909	0.00016725	0.00014563	4.64e-05	532.9	1.6406e-06	1.5947e-06	868.22	179.89	1.6212e-06	1.6528e-06	382.36	163.69	71.955	28.226	1.8352e-06	76.222	82.466	134.026	138.666	71.093	213.486	266.833	71.788	76.630	212.099	227.298	76.874	81.677	81.920	86.636	304.663	85.700	-8191	255	
7935.730	1	1	0	0	0.2456	0.081147	0.083279	0.10386	0.05176	0.24829	0.19035	0.25594	0.22981	0.12152	0.15243	0.2719	0.12076	0.11986	0.19694	0.13775	-1.0958	-2.1375	-1.8062	-1.8021	-2.3125	-1.8854	-1.975	-2.3083	-1.5583	-2.2729	-2.0187	-1.7563	-2.2854	-1.7896	-1.6083	-2.3854	227.514	137.338	328.315	60.764	222.745	397.334	337.057	403.047	98.718	225.360	94.589	120.869	226.309	106.609	374.131	294.529	0.0015846	0.00036806	9.0805e-05	553.57	2.9811e-06	4.648e-06	915.06	187.47	8.3608e-06	5.4425e-06	412.89	178.52	77.166	30.001	4.5381e-06	83.341	0.00016401	0.00015314	4.6698e-05	531.85	1.6524e-06	1.7243e-06	869.22	179.39	1.5968e-06	1.7616e-06	383.57	164.2	71.888	28.209	1.8078e-06	76.373	83.826	131.680	169.317	71.115	151.762	173.304	71.682	76.835	212.165	187.888	76.847	81.467	82.017	86.736	237.229	85.701	-8191	255	
7935.802	1	1	0	0	0.0049639	0.095284	0.35056	0.025549	0.092924	0.10504	0.21041	0.28778	0.13672	0.080504	0.34239	0.14054	0.31381	0.18714	0.17586	0.11858	-1.0604	-2.025	-2.1979	-1.7313	-2.2021	-1.7333	-1.8604	-2.2083	-1.5146	-2.2396	-2.0833	-1.8083	-2.1729	-1.9104	-1.7625	-2.3292	95.835	353.462	257.221	292.642	299.381	247.209	343.641	322.842	350.075	184.897	341.777	414.562	194.337	383.906	414.632	360.158	0.0016688	0.00013253	0.00010536	554.94	3.5096e-06	7.8447e-06	917.49	188.67	2.6656e-06	1.7643e-06	412.48	178.87	77.985	30.025	5.898e-06	82.617	0.00016394	0.00016081	4.6517e-05	533.57	1.6239e-06	1.819e-06	871.14	179.68	1.6528e-06	1.8111e-06	382.48	164.06	72.088	28.306	1.7546e-06	75.948	85.575	116.446	147.229	71.169	209.068	151.249	71.762	76.723	142.343	224.916	76.638	81.749	82.249	86.844	216.515	85.741	-8191	255	
7935.898	1	1	0	0	0.20107	0.22987	0.29985	0.30551	0.19847	0.14309	0.15734	0.21197	0.41159	0.079729	0.25045	0.22601	0.10154	0.15303	0.17484	0.23916	-1.3	-2.0042	-1.9667	-1.6354	-2.025	-1.8542	-2.0604	-2.2542	-1.6771	-1.9292	-2.1625	-1.65	-2.2333	-1.8521	-1.725	-2.5104	293.702	75.849	334.154	322.385	68.079	284.370	393.050	321.356	252.774	208.963	130.469	314.418	390.712	359.144	202.910	360.034	0.0016881	0.00049153	0.00021435	554.87	4.7712e-07	9.3245e-07	914.51	188.06	4.7503e-06	1.7682e-06	410.69	177.37	76.893	29.83	2.5148e-06	82.688	0.00016592	0.00016517	4.5538e-05	531.59	1.6684e-06	1.8491e-06	865.26	178.63	1.6774e-06	1.7839e-06	380.58	163.06	71.838	28.207	1.7077e-06	75.735	85.809	169.766	169.210	71.064	358.147	65.387	71.464	76.964	168.668	353.831	77.087	81.655	82.330	86.961	221.969	85.644	-8191	255	
7936.018	1	1	0	0	0.015443	0.11758	0.20443	0.18098	0.27878	0.2421	0.078812	0.061815	0.11188	0.087795	0.20256	0.15322	0.12668	0.13694	0.2134	0.27241	-1.3396	-1.7417	-2.2562	-1.7604	-2.2333	-2.0938	-1.8438	-2.2896	-1.7938	-1.7375	-2.3229	-1.6896	-2.0979	-2.0521	-1.5438	-2.4729	318.125	295.060	339.677	267.550	101.165	198.431	313.870	141.766	135.351	330.313	239.531	308.413	320.699	86.445	230.561	367.767	0.0016137	6.8962e-05	9.6489e-05	555.08	1.114e-06	4.7075e-06	911.17	188.21	8.9273e-06	1.7664e-06	411.73	178.13	77.247	29.668	5.1827e-06	82.628	0.00017328	0.0001606	4.2969e-05	530.69	1.7126e-06	1.7844e-06	862.8	178.62	1.7571e-06	1.7539e-06	381.03	163.35	72.113	28.102	1.6701e-06	75.756	86.299	198.588	173.319	71.277	140.662	197.822	71.475	77.005	176.753	119.110	76.996	81.606	81.814	86.897	211.194	85.753	-8191	255	
7936.115	1	1	0	0	0.12812	0.19484	0.091598	0.21717	0.16062	0.10473	0.11714	0.1212	0.065305	0.22198	0.13366	0.19098	0.080364	0.22864	0.25029	0.19813	-1.4708	-1.8521	-2.0375	-1.7896	-1.8833	-2.1333	-1.5729	-2.2729	-1.85	-1.7646	-2.2917	-1.875	-2.0646	-2.0875	-1.6396	-2.4667	383.304	149.823	240.913	276.810	382.334	76.085	354.406	395.874	375.010	197.089	358.519	414.006	354.439	141.626	127.124	337.005	0.0017491	0.00061581	0.000123	554.23	2.6603e-06	4.9744e-06	912.69	188.18	2.7073e-06	2.0418e-06	410.55	177.84	77.209	30.015	1.7794e-06	82.899	0.00017954	0.00015734	4.2108e-05	530.33	1.7832e-06	1.7157e-06	865.16	178.64	1.7862e-06	1.6859e-06	380.39	163.64	72.005	28.13	1.6075e-06	75.958	83.469	193.704	152.187	71.119	171.248	76.135	71.823	76.870	134.850	143.492	76.939	81.674	81.911	87.061	291.183	85.629	-8191	255	
7936.211	1	1	0	0	0.17406	0.18676	0.103	0.066526	0.21638	0.15408	0.35554	0.18926	0.073078	0.1866	0.24872	0.28637	0.089243	0.20135	0.23957	0.24485	-1.5417	-1.6458	-2.2083	-1.6604	-1.8875	-2.2125	-1.7542	-2.1937	-1.9292	-1.6854	-2.5208	-1.975	-2.1667	-2.0687	-1.7563	-2.2188	236.904	158.931	279.811	194.396	213.234	240.653	353.844	414.092	257.905	139.716	356.280	414.469	312.946	398.166	294.414	412.586	0.0015341	0.00063578	0.00012527	555.63	3.9116e-06	2.1021e-06	917.38	189.3	1.8794e-06	4.3386e-06	412.9	179.09	77.766	30.187	7.7131e-06	83.533	0.00018303	0.00015354	4.0854e-05	532.57	1.8015e-06	1.718e-06	866.66	179.96	1.8134e-06	1.6915e-06	382.5	164.43	72.312	28.244	1.6046e-06	76.432	86.445	155.520	113.177	71.214	202.405	308.549	71.529	76.767	262.713	222.062	76.847	81.753	81.858	86.702	233.226	85.660	-8191	255	
7936.331	1	1	0	0	0.044511	0.2462	0.14065	0.076315	0.12399	0.1374	0.35628	0.25149	0.25963	0.32692	0.18829	0.10732	0.071931	0.051151	0.3343	0.08674	-1.775	-1.7479	-2.2083	-1.8479	-1.7583	-2.4188	-1.7313	-2.2146	-1.9604	-1.6479	-2.5312	-1.9937	-1.7563	-2.2375	-1.5875	-2.2021	356.092	184.561	406.202	272.509	251.752	402.952	356.685	407.070	191.296	247.215	72.951	355.234	129.380	184.134	169.838	261.006	0.0017865	0.00045346	3.9333e-05	557.64	3.9169e-06	4.8682e-06	918.54	187.6	3.4572e-06	2.1223e-06	413.5	178.13	77.351	30.087	3.9331e-06	83.304	0.00018281	0.00015192	4.0697e-05	534.21	1.7466e-06	1.6916e-06	869.41	179.68	1.779e-06	1.652e-06	381.82	164.24	72.193	28.173	1.6491e-06	76.313	84.506	263.136	292.987	71.092	165.968	180.610	71.725	76.974	100.252	305.240	77.176	81.611	82.368	87.207	227.789	85.708	-8191	255	
7936.426	1	1	0	0	0.37741	0.16962	0.23722	0.087662	0.18414	0.21721	0.32521	0.041078	0.39979	0.019944	0.29163	0.1911	0.18139	0.14223	0.26537	0.10336	-1.6042	-1.5562	-2.2292	-2.0354	-1.75	-2.25	-1.6229	-2.0062	-2.0854	-1.5562	-2.4333	-1.8542	-1.6625	-2.4229	-1.7667	-2.1417	319.681	190.067	357.522	222.602	375.236	414.747	73.322	263.577	267.300	228.943	335.467	411.441	114.630	299.003	175.534	137.930	0.0017756	0.00015106	9.4057e-05	553.66	3.1932e-06	1.1905e-06	912.95	188.74	2.5063e-06	2.0525e-06	409.34	178.69	77.492	30.03	5.5698e-06	83.304	0.00017671	0.0001485	4.2002e-05	531.31	1.7195e-06	1.6351e-06	865.12	179.54	1.7282e-06	1.6107e-06	380.9	164.03	71.919	28.131	1.7279e-06	76.333	82.578	244.749	130.987	70.890	156.796	167.594	71.629	76.761	127.034	274.211	76.815	81.644	82.264	86.893	271.386	85.803	-8191	255	
#DATA ENDS
