BOXY.EXE: ISS Imagent and Oximeter Data Acquisition Program Version 0.80
Ascii Record File

#ACQ INFORMATION
2  Detector Channels 
16  External MUX Channels 
1  Auxiliary Channels 
5000  Waveform (CCF) Frequency (Hz)
1  Waveforms Skipped 
30  Waveforms Averaged 
1  Cycles Averaged 
16  Acquisitions per Waveform 
10.0806  Updata Rate (Hz) 

#FILE INFORMATION
TRUE -- External MUX Channel results are PARSED.
FALSE -- AC DC and Phase are NOT grouped.
TRUE -- Companion Program Settings File CREATED.
FALSE -- AC data not excluded
FALSE -- DC data not excluded
FALSE -- Phase data not excluded
FALSE -- Auxillary Chn. data not excluded
Tab delimiters

#CALIBRATION STATE
TRUE -- Waveform Calibration Values APPLIED.


#AUX CALIBRATION VALUES
Val Type	aux-1	

Term	1.0000e+00	
Factor	0.0000e+00	


#WF CALIBRATION VALUES
A = Detector Channel
Val Type	A-AC1	A-AC2	A-AC3	A-AC4	A-AC5	A-AC6	A-AC7	A-AC8	A-AC9	A-AC10	A-AC11	A-AC12	A-AC13	A-AC14	A-AC15	A-AC16	A-DC1	A-DC2	A-DC3	A-DC4	A-DC5	A-DC6	A-DC7	A-DC8	A-DC9	A-DC10	A-DC11	A-DC12	A-DC13	A-DC14	A-DC15	A-DC16	A-Ph1	A-Ph2	A-Ph3	A-Ph4	A-Ph5	A-Ph6	A-Ph7	A-Ph8	A-Ph9	A-Ph10	A-Ph11	A-Ph12	A-Ph13	A-Ph14	A-Ph15	A-Ph16	

Term	0.00000e+00	0.00000e+00	0.00000e+00	0.00000e+00	0.00000e+00	0.00000e+00	0.00000e+00	0.00000e+00	0.00000e+00	0.00000e+00	0.00000e+00	0.00000e+00	0.00000e+00	0.00000e+00	0.00000e+00	0.00000e+00	0.00000e+00	0.00000e+00	0.00000e+00	0.00000e+00	0.00000e+00	0.00000e+00	0.00000e+00	0.00000e+00	0.00000e+00	0.00000e+00	0.00000e+00	0.00000e+00	0.00000e+00	0.00000e+00	0.00000e+00	0.00000e+00	0.00000e+00	0.00000e+00	0.00000e+00	0.00000e+00	0.00000e+00	0.00000e+00	0.00000e+00	0.00000e+00	0.00000e+00	0.00000e+00	0.00000e+00	0.00000e+00	0.00000e+00	0.00000e+00	0.00000e+00	0.00000e+00	
Factor	1.00000e+00	1.00000e+00	1.00000e+00	1.00000e+00	1.00000e+00	1.00000e+00	1.00000e+00	1.00000e+00	1.00000e+00	1.00000e+00	1.00000e+00	1.00000e+00	1.00000e+00	1.00000e+00	1.00000e+00	1.00000e+00	1.00000e+00	1.00000e+00	1.00000e+00	1.00000e+00	1.00000e+00	1.00000e+00	1.00000e+00	1.00000e+00	1.00000e+00	1.00000e+00	1.00000e+00	1.00000e+00	1.00000e+00	1.00000e+00	1.00000e+00	1.00000e+00	X	X	X	X	X	X	X	X	X	X	X	X	X	X	X	X	

B = Detector Channel
Val Type	B-AC1	B-AC2	B-AC3	B-AC4	B-AC5	B-AC6	B-AC7	B-AC8	B-AC9	B-AC10	B-AC11	B-AC12	B-AC13	B-AC14	B-AC15	B-AC16	B-DC1	B-DC2	B-DC3	B-DC4	B-DC5	B-DC6	B-DC7	B-DC8	B-DC9	B-DC10	B-DC11	B-DC12	B-DC13	B-DC14	B-DC15	B-DC16	B-Ph1	B-Ph2	B-Ph3	B-Ph4	B-Ph5	B-Ph6	B-Ph7	B-Ph8	B-Ph9	B-Ph10	B-Ph11	B-Ph12	B-Ph13	B-Ph14	B-Ph15	B-Ph16	

Term	0.00000e+00	0.00000e+00	0.00000e+00	0.00000e+00	0.00000e+00	0.00000e+00	0.00000e+00	0.00000e+00	0.00000e+00	0.00000e+00	0.00000e+00	0.00000e+00	0.00000e+00	0.00000e+00	0.00000e+00	0.00000e+00	0.00000e+00	0.00000e+00	0.00000e+00	0.00000e+00	0.00000e+00	0.00000e+00	0.00000e+00	0.00000e+00	0.00000e+00	0.00000e+00	0.00000e+00	0.00000e+00	0.00000e+00	0.00000e+00	0.00000e+00	0.00000e+00	-2.02558e+02	-1.16413e+02	-1.30120e+02	-1.82161e+02	-9.57707e+01	-1.01369e+02	-1.59306e+02	-1.62015e+02	-1.14350e+02	-5.77035e+01	-1.70639e+02	-1.72301e+02	-1.77500e+02	-1.76674e+02	-5.36760e+01	-1.49496e+02	
Factor	4.10936e-05	9.52974e-05	2.49006e-05	1.49428e-01	8.83243e-07	8.91524e-07	1.68800e-01	4.93801e-02	1.17695e-06	7.15398e-07	8.34437e-02	2.98807e-02	2.54106e-02	8.75613e-03	1.20421e-06	1.26828e-02	6.26555e-07	6.35961e-07	1.78841e-07	7.42432e-02	6.95763e-09	6.96690e-09	7.86376e-02	2.43642e-02	6.96256e-09	6.98071e-09	3.91092e-02	1.39300e-02	1.23175e-02	4.23067e-03	7.03845e-09	5.88851e-03	X	X	X	X	X	X	X	X	X	X	X	X	X	X	X	X	



#DISTANCE SETTINGS
A = Detector Channel
A-1	A-2	A-3	A-4	A-5	A-6	A-7	A-8	A-9	A-10	A-11	A-12	A-13	A-14	A-15	A-16	

2.5000e+00	3.0000e+00	2.5000e+00	3.0000e+00	2.0000e+00	3.0000e+00	1.5000e+00	3.0000e+00	3.0000e+00	3.0000e+00	3.0000e+00	3.0000e+00	3.0000e+00	3.0000e+00	1.5000e+00	3.0000e+00	

B = Detector Channel
B-1	B-2	B-3	B-4	B-5	B-6	B-7	B-8	B-9	B-10	B-11	B-12	B-13	B-14	B-15	B-16	

1.0000e+01	1.0000e+01	1.0000e+01	1.4400e+00	1.0000e+01	1.0000e+01	1.5100e+00	1.9400e+00	1.0000e+01	1.0000e+01	1.9900e+00	2.4900e+00	2.4100e+00	2.9000e+00	1.0000e+01	2.9800e+00	




#DATA BEGINS
time	group	step	mark	flag	A-AC1	A-AC2	A-AC3	A-AC4	A-AC5	A-AC6	A-AC7	A-AC8	A-AC9	A-AC10	A-AC11	A-AC12	A-AC13	A-AC14	A-AC15	A-AC16	A-DC1	A-DC2	A-DC3	A-DC4	A-DC5	A-DC6	A-DC7	A-DC8	A-DC9	A-DC10	A-DC11	A-DC12	A-DC13	A-DC14	A-DC15	A-DC16	A-Ph1	A-Ph2	A-Ph3	A-Ph4	A-Ph5	A-Ph6	A-Ph7	A-Ph8	A-Ph9	A-Ph10	A-Ph11	A-Ph12	A-Ph13	A-Ph14	A-Ph15	A-Ph16	B-AC1	B-AC2	B-AC3	B-AC4	B-AC5	B-AC6	B-AC7	B-AC8	B-AC9	B-AC10	B-AC11	B-AC12	B-AC13	B-AC14	B-AC15	B-AC16	B-DC1	B-DC2	B-DC3	B-DC4	B-DC5	B-DC6	B-DC7	B-DC8	B-DC9	B-DC10	B-DC11	B-DC12	B-DC13	B-DC14	B-DC15	B-DC16	B-Ph1	B-Ph2	B-Ph3	B-Ph4	B-Ph5	B-Ph6	B-Ph7	B-Ph8	B-Ph9	B-Ph10	B-Ph11	B-Ph12	B-Ph13	B-Ph14	B-Ph15	B-Ph16	aux-1	digaux	

6640.696	1	1	0	768	0.16833	0.19548	0.11694	0.2753	0.15191	0.18511	0.33844	0.071129	0.26198	0.197	0.3123	0.13863	0.12181	0.22093	0.1895	0.069212	-1.6229	-2.3708	-1.6812	-2.3979	-2.2562	-1.6771	-2.4396	-2.0021	-1.85	-2.4125	-1.8208	-2.2458	-2.25	-1.8833	-2.1958	-2.0833	101.006	373.013	316.607	372.380	150.451	58.699	351.427	198.126	356.415	194.447	382.910	256.834	169.778	217.385	259.157	313.606	0.00046524	0.0003314	0.00012879	1159.8	6.4507e-06	5.6413e-06	1273.8	245.94	5.0049e-06	5.8604e-06	308.24	86.592	67.66	19.598	5.1393e-06	27.503	0.00056629	0.00052271	0.00013962	1159.4	6.1632e-06	5.6663e-06	1254.1	253.06	6.0808e-06	5.6662e-06	315.8	92.274	72.93	21.667	5.6148e-06	30.733	69.608	75.235	78.286	66.876	216.591	198.840	66.799	74.498	372.455	308.206	73.851	80.794	80.964	87.375	303.989	86.976	-8191	255	
6640.793	1	1	0	0	0.12846	0.046499	0.34614	0.47363	0.2982	0.11025	0.079809	0.17311	0.15859	0.094347	0.21087	0.062102	0.18495	0.071457	0.22447	0.10581	-1.3	-2.2021	-1.7146	-2.2583	-2.0979	-1.6979	-2.5042	-2.3083	-1.9562	-2.4042	-1.8687	-2.2229	-2.2542	-1.7542	-2.3208	-2.1208	327.267	116.885	282.364	350.217	315.655	359.988	229.937	322.555	299.685	71.505	140.333	378.094	178.593	131.208	198.592	78.795	0.00069954	0.00084052	6.7601e-05	1158.2	2.1193e-06	3.888e-06	1262.7	244.6	1.7544e-06	3.3829e-06	308.05	86.58	67.717	19.626	7.1004e-06	27.671	0.00054679	0.00051014	0.00014474	1161.6	5.9005e-06	5.5445e-06	1255.4	252.7	5.9156e-06	5.5245e-06	316.82	92.44	72.388	21.613	5.8754e-06	30.665	80.860	80.378	140.019	66.666	317.814	258.923	66.723	74.332	167.843	405.527	73.806	80.445	81.159	87.758	273.114	87.332	-8191	255	
6640.889	1	1	0	0	0.26328	0.10309	0.03101	0.18594	0.051116	0.090781	0.18707	0.2857	0.14982	0.048697	0.20696	0.12792	0.20245	0.036198	0.21761	0.13105	-1.4042	-2.4167	-1.7687	-2.1458	-2.25	-1.8021	-2.3958	-2.0563	-1.8104	-2.4271	-1.9875	-2.0563	-2.4625	-1.7208	-2.1813	-2.3354	367.186	370.304	248.108	367.351	254.023	398.043	400.762	358.296	278.527	339.647	370.094	356.138	312.609	101.254	280.985	186.732	0.00041758	0.00035476	0.000171	1153.4	5.9576e-06	4.2325e-06	1263.9	246.02	3.8538e-06	4.3972e-06	308.7	86.974	67.651	19.609	6.8e-06	27.378	0.00052255	0.00049055	0.00015162	1158.8	5.6429e-06	5.3159e-06	1257.2	252.28	5.5682e-06	5.2677e-06	317.36	91.694	71.741	21.405	6.0071e-06	30.351	84.593	386.739	196.294	66.903	81.048	370.280	66.998	74.307	211.573	207.602	73.833	80.976	80.908	88.198	223.505	87.952	-8191	255	
6640.985	1	1	0	0	0.15618	0.11017	0.30115	0.32405	0.1799	0.10387	0.14461	0.377	0.14523	0.17128	0.29705	0.36625	0.15253	0.23802	0.33618	0.23193	-1.1771	-2.1583	-2.0146	-2.1188	-2.1729	-1.8167	-2.2479	-2.2062	-1.75	-2.3729	-2.0771	-2.0542	-2.3521	-1.9458	-2.1854	-2.1479	286.518	251.793	357.626	339.329	134.835	378.583	365.654	381.363	174.950	120.142	98.199	246.884	293.859	113.751	257.911	383.638	0.00080668	0.0004125	0.00019638	1154.9	3.3607e-06	4.078e-06	1264.1	243.72	6.7624e-06	5.6901e-06	307.88	86.164	67.459	19.711	6.4294e-06	27.425	0.00049501	0.00047843	0.0001535	1153.4	5.4237e-06	5.2854e-06	1257.2	250.23	5.4092e-06	5.3297e-06	319.03	91.189	71.435	21.596	6.2858e-06	30.22	69.217	182.473	169.774	66.742	136.836	57.463	66.896	74.203	315.806	232.980	73.903	80.596	80.780	88.149	318.015	86.983	-8191	255	
6641.079	1	1	0	0	0.14024	0.029415	0.1524	0.086114	0.20895	0.13561	0.39775	0.12167	0.21611	0.026201	0.19716	0.10909	0.47806	0.099464	0.076133	0.018922	-1.3792	-2.2896	-1.9438	-2.0021	-2.4688	-1.8958	-2.3979	-2.2833	-1.95	-2.3458	-2.075	-1.8021	-2.2292	-1.6604	-1.8396	-2.2896	390.589	106.030	234.998	285.289	208.376	160.157	381.826	252.732	292.370	203.124	367.393	151.900	360.248	299.577	86.083	191.174	0.00071435	0.00059239	0.00016579	1156.1	5.3583e-06	3.2911e-06	1254.3	244.43	1.8889e-06	6.1407e-06	306.51	86.082	67.297	19.786	4.8126e-06	27.51	0.00049022	0.00050425	0.00016058	1151.5	5.3399e-06	5.6058e-06	1258	249.74	5.2649e-06	5.6337e-06	318.12	90.817	70.91	21.78	6.1481e-06	30.016	61.947	93.146	155.092	66.668	171.925	87.344	66.937	74.426	229.015	203.506	74.030	80.370	81.026	88.147	136.475	87.310	-8191	255	
6641.177	1	1	0	0	0.16019	0.16861	0.13822	0.1633	0.13216	0.28339	0.16482	0.17778	0.15785	0.14318	0.15056	0.16453	0.29285	0.25898	0.043154	0.09944	-1.2104	-2.3708	-1.9625	-2.0917	-2.4396	-1.8083	-1.9854	-2.3333	-1.7313	-2.3125	-2.1167	-1.9854	-2.2771	-1.9646	-1.8646	-2.4167	76.621	173.383	147.803	86.597	353.492	365.712	327.163	349.120	94.822	313.946	317.006	207.939	106.899	336.486	188.173	327.025	0.00040495	0.00064478	5.2714e-05	1150.1	1.1106e-06	4.1125e-06	1263	244.41	1.2507e-06	5.5185e-06	308.24	86.652	67.462	19.689	5.4228e-06	27.429	0.00047532	0.00052993	0.0001557	1147.3	5.2839e-06	5.9381e-06	1258.8	248.91	5.2874e-06	6.0186e-06	317.75	90.47	71.073	21.964	5.9975e-06	29.902	413.558	171.009	178.908	66.712	123.207	126.332	66.933	74.307	99.460	242.414	73.769	80.781	80.909	88.111	225.973	87.364	-8191	255	
6641.296	1	1	0	0	0.21256	0.17386	0.21739	0.18502	0.13436	0.040191	0.25126	0.14062	0.2641	0.046289	0.16086	0.36648	0.071576	0.21607	0.15649	0.22968	-1.3833	-1.9583	-2.1229	-1.7958	-2.4188	-2.0667	-2.0875	-2.3812	-1.7604	-1.9583	-2.2917	-1.7333	-2.3917	-2.2708	-1.9125	-2.3688	308.395	186.461	408.215	394.746	370.200	100.924	338.475	363.600	207.889	222.392	90.615	346.656	341.344	69.550	216.726	359.073	0.00088437	0.00076787	0.00022433	1151.7	6.1021e-06	4.7446e-06	1254.6	244.26	4.739e-06	8.89e-06	308.04	85.74	67.605	19.551	4.9082e-06	27.56	0.00048939	0.00056129	0.00015095	1147.9	5.3646e-06	6.2335e-06	1252.4	249.13	5.5283e-06	6.2802e-06	317.18	90.198	71.741	22.056	5.8176e-06	29.868	86.948	140.121	361.055	66.718	208.581	315.659	66.576	74.239	107.195	190.376	74.121	80.659	80.498	88.019	65.946	87.036	-8191	255	
6641.392	1	1	0	0	0.22753	0.26877	0.03585	0.202	0.3512	0.30401	0.10979	0.35574	0.18882	0.13869	0.24257	0.067351	0.2311	0.2483	0.096398	0.062487	-1.3563	-2.0438	-2.1771	-1.9562	-2.1208	-2.0062	-2.1271	-2.3583	-1.8542	-2.0354	-2.2479	-1.8062	-2.2792	-2.1104	-1.7083	-2.4208	111.371	66.857	70.843	368.880	216.032	194.661	271.581	383.900	66.697	397.407	413.871	181.150	360.745	402.138	175.736	88.760	0.00096721	0.00034635	9.5905e-05	1159.8	3.4252e-06	5.3427e-06	1264.2	244.54	8.2943e-06	6.1006e-06	308.09	86.639	67.799	19.378	7.8047e-06	27.453	0.00052096	0.00057613	0.00014851	1149.7	5.8063e-06	6.3859e-06	1253.7	248.7	6.0063e-06	6.373e-06	316.2	90.49	72.623	22.063	5.8486e-06	29.93	83.714	200.638	173.763	66.745	225.951	101.315	66.750	74.171	203.422	258.485	73.831	80.874	81.047	88.121	402.908	87.643	-8191	255	
6641.488	1	1	0	0	0.25613	0.16342	0.076302	0.056071	0.29846	0.20319	0.13533	0.13993	0.13357	0.40096	0.38105	0.1937	0.14564	0.081402	0.27553	0.094735	-1.5917	-1.8771	-2.1542	-1.8396	-2.3542	-2.3646	-1.9729	-2.4208	-1.925	-1.6646	-2.4271	-1.8062	-2.1583	-2.1771	-1.7208	-2.2792	241.869	291.479	170.738	381.982	274.687	172.337	356.269	333.294	167.246	98.287	393.166	326.985	299.501	96.600	405.303	242.584	0.00061808	0.00060251	0.00014657	1152.1	9.0966e-06	5.4972e-06	1258.4	243.21	1.3707e-05	2.1708e-06	307.62	86.395	66.976	19.565	6.1697e-06	27.484	0.00056788	0.00057431	0.00014795	1150.2	6.3233e-06	6.3005e-06	1254.1	248.61	6.4285e-06	6.2758e-06	316.15	90.686	73.051	22.028	5.7654e-06	30.056	91.933	275.748	60.988	66.675	124.227	200.098	66.769	74.331	159.641	219.913	73.969	80.583	80.826	87.812	63.015	87.497	-8191	255	
6641.584	1	1	0	0	0.29473	0.087719	0.18791	0.35414	0.15083	0.10926	0.20545	0.1552	0.053061	0.25921	0.13276	0.25689	0.088609	0.30925	0.21485	0.21203	-1.6583	-1.8583	-2.3187	-1.9	-1.9979	-2.1104	-1.8958	-2.6208	-2.125	-1.775	-2.5292	-1.7958	-2.1208	-2.375	-1.6271	-2.3771	199.474	266.731	408.993	386.555	122.646	242.055	283.439	405.245	203.762	246.277	408.967	114.787	349.665	112.843	347.165	227.418	0.00054062	0.00017902	0.00011774	1157.4	2.6418e-06	5.2089e-06	1259.5	243.17	1.1675e-05	9.1599e-06	308.59	86.136	67.257	19.592	3.1434e-06	27.379	0.00059819	0.0005595	0.00014635	1152.6	6.5359e-06	6.0763e-06	1252.8	249.88	6.6649e-06	6.0634e-06	315.29	91.385	73.415	21.9	5.7628e-06	30.383	416.221	65.183	337.150	67.017	350.285	93.262	66.639	74.436	233.716	197.630	73.829	80.247	80.981	88.002	70.870	87.212	-8191	255	
6641.681	1	1	0	0	0.27232	0.15315	0.25685	0.51294	0.069626	0.045509	0.18009	0.32379	0.14545	0.401	0.2135	0.25988	0.23609	0.1913	0.14591	0.29692	-1.5063	-1.9021	-2.4167	-2.0854	-1.9729	-2.2125	-2.0667	-2.1292	-1.9229	-1.9667	-2.3875	-1.9646	-1.8958	-2.6167	-1.8792	-2.1792	292.257	129.251	91.344	341.195	138.563	212.090	65.816	316.583	311.709	180.895	102.693	364.255	66.486	375.360	324.830	282.557	0.00053525	0.00032306	0.00014794	1151.6	5.4919e-06	4.3626e-06	1260.9	244.22	7.4303e-06	2.8351e-06	306.97	85.948	67.154	19.635	5.1302e-06	27.452	0.0006027	0.00054851	0.0001452	1155.8	6.5176e-06	5.9838e-06	1251.6	251.31	6.5299e-06	5.9783e-06	315.11	91.889	73.055	21.809	5.7221e-06	30.656	64.649	344.623	391.603	66.828	328.502	114.696	66.590	74.573	71.999	81.940	73.969	80.658	80.664	87.734	189.382	87.647	-8191	255	
6641.777	1	1	0	0	0.2864	0.1547	0.10268	0.058101	0.25145	0.18245	0.41302	0.18393	0.28866	0.18474	0.29757	0.20824	0.16097	0.21602	0.11071	0.22063	-1.775	-1.6146	-2.3563	-2.1375	-1.7563	-2.3333	-1.8583	-2.2229	-2.2729	-1.6625	-2.4708	-2.0312	-1.8333	-2.3542	-1.8104	-2.2271	129.932	264.943	260.780	191.075	336.024	393.192	389.766	119.060	181.364	394.974	334.115	393.532	189.346	75.350	339.723	410.163	0.00034616	0.00039638	0.00014256	1157.3	5.0413e-06	1.6486e-06	1261	243.11	2.8113e-06	2.2596e-06	308.44	86.448	67.218	19.528	1.5249e-05	27.253	0.00058343	0.00053482	0.00014538	1159.7	6.2894e-06	5.8523e-06	1252	251.8	6.2728e-06	5.7919e-06	315.87	92.599	72.451	21.651	5.8254e-06	30.761	56.574	385.124	120.072	66.801	332.369	81.602	67.037	74.558	263.566	282.547	73.928	80.428	80.970	87.684	242.207	87.714	-8191	255	
6641.897	1	1	0	0	0.24517	0.21431	0.031351	0.2841	0.081626	0.047885	0.21079	0.19866	0.19212	0.17572	0.077845	0.36332	0.11397	0.094602	0.11324	0.26974	-1.8375	-1.7396	-2.2146	-2.025	-1.7333	-2.3875	-2.0521	-2.0854	-2.2479	-1.625	-2.1396	-2.1688	-1.8729	-2.3896	-1.9125	-2.1833	169.160	63.955	252.681	412.718	232.621	121.437	327.802	415.806	383.109	83.970	297.843	398.628	68.951	143.828	400.621	94.387	0.00062366	0.00018834	0.00025182	1156.2	3.8666e-06	3.6589e-06	1260.9	243.31	4.661e-06	3.8943e-06	305.48	85.88	67.163	19.6	2.0425e-05	27.328	0.00054986	0.00051248	0.00014826	1161.3	5.9062e-06	5.4952e-06	1252.9	251	5.8096e-06	5.4188e-06	315.8	91.921	71.678	21.476	6.1104e-06	30.559	100.202	112.995	173.995	67.032	405.980	111.508	66.704	74.365	152.683	128.846	73.964	80.867	80.736	87.661	218.848	87.165	-8191	255	
6641.992	1	1	0	0	0.34541	0.057451	0.023736	0.24289	0.18096	0.11406	0.055981	0.4723	0.2539	0.16581	0.076604	0.12176	0.062744	0.072329	0.11991	0.096304	-2.05	-1.7542	-2.2792	-2.2938	-1.7521	-2.2771	-2.0229	-2.0312	-2.1958	-1.75	-2.3438	-2.4562	-1.8021	-2.2958	-1.9667	-1.9167	75.375	111.829	289.149	392.489	270.078	304.012	334.372	338.500	275.854	64.159	216.622	142.454	341.120	334.966	366.126	371.136	0.00076076	0.0004113	0.00028305	1151.7	8.1013e-06	2.8061e-06	1259.9	242.91	4.8498e-06	6.1274e-06	305.35	86.208	66.978	19.593	8.1646e-06	27.356	0.00052868	0.00049688	0.00015731	1158.5	5.7615e-06	5.5094e-06	1258.5	250.34	5.7946e-06	5.5752e-06	318.06	91.671	71.722	21.586	6.5078e-06	30.446	61.570	264.460	150.148	66.742	216.800	215.088	66.871	74.445	332.024	116.060	74.287	80.503	80.902	88.037	182.053	87.832	-8191	255	
6642.088	1	1	0	0	0.16369	0.27415	0.23399	0.27988	0.18238	0.2761	0.27902	0.32027	0.089955	0.042953	0.28635	0.096248	0.20302	0.020274	0.054327	0.27642	-1.8875	-1.8417	-1.8813	-2.4646	-1.7333	-2.3208	-2.3063	-1.7458	-2.3438	-1.9062	-2.2875	-2.2625	-1.775	-2.3396	-2.1833	-1.95	370.510	404.268	80.994	413.215	288.491	405.862	333.637	331.123	174.723	245.936	413.319	404.926	309.544	260.129	409.441	349.079	0.00075505	0.00020935	0.00018445	1152.7	2.7513e-06	2.8245e-06	1264.8	243.62	7.4294e-06	2.3931e-06	306.66	86.041	67.676	19.713	5.3668e-06	27.296	0.00051708	0.0005104	0.00016387	1157.1	5.6528e-06	5.6079e-06	1262.9	249.5	5.6209e-06	5.7649e-06	319.48	90.905	71.644	21.713	6.5546e-06	30.279	79.029	326.460	167.883	66.983	246.708	308.261	66.940	74.226	92.962	146.227	74.145	80.958	81.164	87.964	214.694	87.429	-8191	255	
6642.184	1	1	0	0	0.18154	0.17107	0.14035	0.26211	0.20689	0.035182	0.28079	0.32016	0.18363	0.038263	0.23311	0.13314	0.2012	0.10181	0.13417	0.1861	-1.9438	-1.7104	-1.95	-2.5292	-1.7583	-2.1667	-2.2771	-1.7938	-2.2542	-2.1167	-2.0771	-2.2083	-1.7792	-2.1875	-2.1854	-1.925	118.087	171.917	75.580	77.063	136.465	376.354	389.956	361.927	81.064	254.351	56.592	243.252	386.891	70.749	84.900	346.435	0.00067793	0.00060209	0.00015456	1152	2.072e-06	1.1974e-06	1264.2	242.42	3.6899e-06	8.2888e-06	305.78	86.579	67.449	19.608	1.0244e-05	27.209	0.00050739	0.00054023	0.00016795	1154.4	5.5616e-06	6.0817e-06	1263.9	249.26	5.5969e-06	6.2747e-06	319.31	91.293	71.878	22.028	6.5886e-06	30.23	85.603	185.642	270.067	66.826	136.262	157.280	67.039	74.472	344.026	244.995	74.216	80.843	80.771	87.855	167.920	87.494	-8191	255	
6642.258	1	1	0	0	0.20985	0.096792	0.1076	0.137	0.083355	0.16356	0.1933	0.18367	0.22413	0.20652	0.11939	0.071057	0.18336	0.22393	0.040271	0.183	-1.8438	-1.8771	-2.0438	-2.5521	-1.6792	-2.2667	-2.2146	-1.6313	-2.2271	-1.9917	-2.1146	-2.2729	-1.8188	-2.0625	-2.1479	-1.8125	273.013	375.750	72.005	108.666	232.213	186.489	355.823	362.040	217.249	193.402	307.690	361.948	114.653	367.092	225.054	364.691	0.00067921	0.00025551	0.00013709	1152.1	6.9228e-06	4.3391e-06	1259.7	243	6.9002e-06	5.6304e-06	305.85	86.285	67.379	19.565	4.2876e-06	27.319	0.00051743	0.00058578	0.0001646	1152.6	5.5733e-06	6.4222e-06	1260.7	248.75	5.6024e-06	6.4332e-06	317.45	90.686	71.408	22.087	6.1715e-06	29.986	97.649	158.838	172.259	66.804	231.671	181.903	66.863	74.294	166.424	270.495	73.865	80.706	81.049	88.388	345.451	87.213	-8191	255	
6642.376	1	1	0	0	0.22448	0.21975	0.14307	0.49891	0.086315	0.15209	0.28443	0.25418	0.26403	0.21766	0.20854	0.031785	0.40228	0.16101	0.14936	0.065014	-1.9833	-2.0292	-1.7583	-2.3979	-1.8854	-2.1146	-2.4646	-1.7521	-2.3438	-2.1333	-1.8229	-2.4375	-1.7563	-2.1542	-2.3354	-1.6896	360.975	314.710	414.242	393.095	214.994	333.681	410.072	386.245	311.764	205.519	381.691	288.988	124.687	314.255	211.066	184.362	0.00057206	0.00035318	6.8718e-05	1154.9	9.3569e-07	5.4008e-06	1258.6	243.01	3.8011e-06	2.0726e-06	307.4	86.514	67.092	19.621	9.4107e-06	27.371	0.00051442	0.00059524	0.00015446	1149.5	5.7266e-06	6.414e-06	1253.6	248	5.6931e-06	6.3662e-06	315.48	90.151	71.621	21.986	5.6922e-06	29.637	87.519	147.591	115.441	66.826	242.526	343.732	66.989	74.514	107.413	158.812	73.884	80.585	81.490	88.060	353.230	87.567	-8191	255	
6642.473	1	1	0	0	0.11699	0.23518	0.18736	0.25137	0.13719	0.1675	0.34046	0.33911	0.23094	0.17232	0.15702	0.268	0.31606	0.18521	0.019189	0.20217	-1.7229	-1.9854	-1.7396	-2.4271	-1.8521	-1.9188	-2.4396	-1.7812	-2.3854	-2.1833	-1.6646	-2.3729	-1.7604	-2.0687	-2.4167	-1.7437	104.888	140.827	300.881	129.132	61.177	79.625	374.933	338.217	289.284	76.867	409.644	387.196	340.672	312.977	279.029	228.585	0.0008349	0.00034981	6.0176e-05	1150	3.7947e-06	9.2132e-07	1258.9	242.56	4.9845e-06	4.9951e-06	306.57	85.983	67.396	19.561	1.5663e-05	27.369	0.00051527	0.00055408	0.00014046	1144.2	5.6963e-06	5.9282e-06	1248	246.36	5.7309e-06	5.9067e-06	313.36	89.501	72.272	21.767	5.5438e-06	29.621	91.230	162.621	115.707	66.908	211.159	126.107	66.603	74.420	158.761	177.163	73.883	80.460	81.028	87.838	320.018	87.947	-8191	255	
6642.569	1	1	0	0	0.17464	0.037012	0.11537	0.40989	0.22282	0.16017	0.38665	0.13674	0.026028	0.15851	0.11184	0.2245	0.065219	0.35227	0.13209	0.043765	-1.7896	-2.2271	-1.6833	-2.5229	-1.9354	-1.775	-2.6229	-1.8667	-2.0146	-2.1521	-1.7854	-2.4437	-2.025	-1.6458	-2.4188	-1.7208	80.149	151.767	113.474	310.956	77.378	411.110	396.576	296.215	221.643	111.526	353.936	80.188	349.292	313.865	140.605	288.463	0.00087848	0.00036739	0.00033802	1153.5	6.0487e-06	8.5112e-06	1259	242.71	1.0045e-05	4.9093e-06	306.76	86.386	67.269	19.44	3.3525e-06	27.339	0.0005467	0.00054033	0.00013865	1146.6	6.1402e-06	5.8321e-06	1249	247.14	6.1255e-06	5.8276e-06	313.21	89.968	72.639	21.642	5.4027e-06	29.791	96.495	392.452	349.854	66.736	182.797	351.044	66.752	74.476	194.184	140.827	73.387	80.362	80.889	88.009	280.965	87.418	-8191	255	
6642.665	1	1	0	0	0.44331	0.1677	0.049152	0.24941	0.28833	0.15948	0.2974	0.088628	0.18075	0.32556	0.28894	0.18703	0.27895	0.25228	0.22118	0.23954	-1.4896	-2.3458	-1.5958	-2.4479	-1.9667	-1.825	-2.5042	-1.7542	-2.0729	-2.4667	-2.0104	-2.2979	-1.9229	-1.8896	-2.4313	-1.85	248.531	120.405	66.851	314.609	325.792	414.909	331.266	340.366	413.027	283.930	386.228	403.048	385.889	115.399	153.326	393.013	0.00053723	0.00060893	0.00025217	1146.7	6.6753e-06	1.036e-05	1252.7	242.5	5.0581e-06	2.022e-06	306.28	86.155	67.861	19.351	6.5473e-06	27.408	0.00055766	0.00051452	0.00013523	1144.6	6.0843e-06	5.5356e-06	1243.2	247.89	6.0371e-06	5.5573e-06	312.19	90.317	72.562	21.483	5.3236e-06	30.188	78.368	63.996	196.325	66.804	183.211	79.005	66.799	74.349	410.225	382.835	74.098	80.730	80.938	87.451	206.727	87.853	-8191	255	
6642.785	1	1	0	0	0.11912	0.1975	0.11985	0.1195	0.068885	0.10332	0.33654	0.21224	0.080971	0.22359	0.25113	0.11383	0.16946	0.053187	0.19387	0.076093	-1.5	-2.2812	-1.7	-2.4333	-2.1104	-1.8229	-2.6396	-1.9833	-1.7313	-2.3458	-1.8375	-2.1542	-2.2542	-1.7563	-2.2438	-1.9979	149.081	372.397	300.755	353.108	90.272	70.686	320.097	402.859	110.100	318.674	276.204	345.756	363.251	289.426	204.007	364.171	0.00073518	0.00097382	7.2109e-05	1156.5	3.8413e-06	6.3594e-06	1249.6	241.6	9.6779e-06	2.04e-06	308.28	86.859	66.605	19.382	9.9487e-06	27.154	0.00055337	0.0005107	0.00013594	1152.2	6.0341e-06	5.5014e-06	1239.9	248.18	5.8434e-06	5.3985e-06	311.14	90.591	71.322	21.208	5.0409e-06	29.89	88.057	232.717	219.350	66.806	343.185	57.603	66.781	74.164	132.112	99.021	74.034	80.785	80.832	88.215	200.771	87.274	-8191	255	
6642.857	1	1	0	0	0.071496	0.17306	0.2413	0.16325	0.12006	0.28379	0.15194	0.027341	0.38172	0.23211	0.024822	0.21709	0.33399	0.04779	0.17038	0.16167	-1.4083	-2.275	-1.8	-2.1271	-2.0167	-1.625	-2.3771	-1.925	-1.9417	-2.3146	-1.7188	-2.0771	-2.2188	-1.8292	-2.2417	-2.2687	137.391	201.018	369.157	69.378	111.011	222.272	337.061	106.802	301.108	104.107	112.946	392.935	68.140	290.258	164.897	388.771	0.00023929	0.00011091	0.00010606	1143.4	1.1784e-06	3.628e-06	1253.8	241.14	2.8692e-06	3.1898e-06	304.36	85.672	66.907	19.432	1.3664e-05	27.021	0.00048837	0.0004593	0.00012594	1140.5	5.2616e-06	4.8639e-06	1231.9	245.52	5.1103e-06	4.8216e-06	308.16	89.512	70.054	20.898	4.996e-06	29.666	60.226	338.253	178.801	66.821	186.667	213.549	66.870	74.409	339.054	175.314	74.034	80.748	81.094	88.256	232.201	86.960	-8191	255	
6642.978	1	1	0	0	0.44542	0.32222	0.078964	0.24463	0.16997	0.33053	0.2668	0.30248	0.10286	0.1897	0.33525	0.1667	0.087379	0.2917	0.1201	0.23129	-1.3813	-2.2438	-1.8312	-2.1479	-2.3708	-1.5354	-2.35	-1.9896	-1.7667	-2.2021	-2.2333	-2.1729	-2.4083	-1.8146	-2.1833	-2.2104	168.177	359.385	132.419	327.160	168.535	184.548	363.885	391.386	140.651	415.197	78.070	170.286	209.344	64.850	315.339	410.879	0.00082675	0.00050067	0.00023193	1145.7	4.7449e-06	3.4023e-06	1248.7	240.07	3.298e-06	3.1948e-06	305.68	85.753	66.462	19.321	5.3295e-06	27.093	0.00045346	0.00043123	0.00013063	1139.5	4.9965e-06	4.6872e-06	1234.7	244.87	4.9604e-06	4.7304e-06	310.52	89.591	69.949	20.854	5.4462e-06	29.664	84.253	225.063	156.163	66.805	262.928	275.510	66.777	74.216	115.441	309.706	74.085	80.949	80.956	87.918	233.438	87.534	-8191	255	
6643.072	1	1	0	0	0.34724	0.15884	0.30732	0.068269	0.067562	0.22172	0.39	0.081074	0.17819	0.10391	0.17584	0.17888	0.11756	0.083657	0.14848	0.24922	-1.4271	-2.3354	-1.65	-1.85	-2.2875	-1.8521	-2.2396	-2.1312	-1.6542	-2.3208	-1.9813	-1.7667	-2.2313	-1.8625	-2.1229	-2.2396	63.946	348.482	206.158	230.328	123.679	181.313	262.100	134.469	409.407	120.479	394.741	372.415	120.391	218.885	248.318	353.816	0.00035195	3.3138e-05	0.00020789	1144.8	4.8739e-06	4.1563e-06	1250.6	239.3	8.7179e-06	2.676e-06	303.6	85.403	66.822	19.334	9.8632e-06	27.124	0.00046332	0.00044252	0.00014539	1140.4	5.1703e-06	5.0423e-06	1241	245.14	5.2797e-06	5.1307e-06	313.87	90.127	70.638	21.23	6.1326e-06	29.908	69.406	83.216	168.198	66.665	78.463	104.094	66.745	74.312	143.886	375.627	74.003	80.854	80.875	87.824	232.384	87.694	-8191	255	
6643.168	1	1	0	0	0.19731	0.14228	0.21598	0.25246	0.20037	0.066358	0.27737	0.24998	0.28055	0.17946	0.20149	0.26416	0.10132	0.21644	0.36728	0.24859	-1.1063	-2.2583	-2.0021	-2.0583	-2.3646	-1.9125	-2.2708	-2.1437	-1.6583	-2.2708	-2.0854	-1.7646	-2.3896	-1.7708	-1.8208	-2.3979	175.494	146.205	325.460	337.205	137.906	233.434	350.565	385.558	303.505	193.101	284.391	87.790	135.987	167.502	96.617	99.333	0.00060852	0.00083524	0.00016755	1143.7	3.0118e-06	5.5535e-06	1248	240.19	9.2233e-06	4.9464e-06	304.58	85.263	67.079	19.391	3.5115e-06	27.095	0.00049025	0.00049448	0.00015994	1142	5.346e-06	5.5832e-06	1248.6	246.39	5.3828e-06	5.7213e-06	316.3	90.219	70.919	21.647	6.3302e-06	29.983	90.840	109.644	136.967	66.988	285.589	162.588	66.806	74.186	225.039	210.016	73.876	80.586	81.559	88.065	71.606	87.657	-8191	255	
6643.264	1	1	0	0	0.15549	0.18606	0.051663	0.22837	0.27295	0.17935	0.2331	0.18831	0.072121	0.070287	0.092904	0.15486	0.23501	0.18393	0.20611	0.12511	-1.3667	-2.0875	-1.975	-1.8479	-2.1979	-1.825	-1.8917	-2.4479	-1.6688	-2.3354	-2.1792	-1.8042	-2.3125	-1.8083	-2.0312	-2.35	281.093	166.067	216.443	407.067	323.503	244.371	210.343	393.476	405.767	306.871	399.758	392.049	379.017	394.840	104.041	355.478	0.00066388	0.00062694	0.00011653	1148.2	6.3305e-06	7.5023e-06	1251.5	239.48	7.6617e-06	1.1927e-06	305.53	85.608	67.095	19.484	5.1531e-06	27.176	0.00049591	0.00054429	0.00016217	1143.2	5.4222e-06	6.0787e-06	1249.4	246.11	5.4108e-06	6.1624e-06	316.36	90.356	70.888	21.91	6.2146e-06	29.895	92.844	162.732	247.868	66.665	71.884	163.084	66.757	74.622	189.725	240.790	73.959	80.631	81.258	88.229	347.076	87.373	-8191	255	
6643.385	1	1	0	0	0.35773	0.14436	0.20946	0.092307	0.17936	0.2178	0.16694	0.18816	0.16807	0.048974	0.066062	0.081879	0.088067	0.12315	0.23893	0.19621	-1.4021	-1.9958	-2.0375	-1.8625	-2.2979	-1.9854	-1.9292	-2.4167	-1.7917	-1.9604	-2.1896	-1.6771	-2.3771	-1.8625	-1.8542	-2.3063	294.699	204.234	377.602	379.388	195.456	303.408	358.181	384.019	86.209	148.547	157.235	378.190	97.815	390.764	387.778	102.663	0.00050737	0.00024112	0.00013774	1141.5	3.4128e-06	2.7329e-06	1248.2	239.26	1.0352e-05	5.0913e-06	305.15	85.688	66.945	19.496	3.5095e-06	27.29	0.000497	0.00057546	0.00015742	1141.5	5.5323e-06	6.3473e-06	1246.8	245.58	5.5997e-06	6.4338e-06	315.25	89.614	71.311	22.012	6.0204e-06	29.863	77.798	67.807	349.976	66.750	174.022	67.802	66.715	74.574	216.299	288.268	74.031	80.943	81.053	87.798	394.460	87.674	-8191	255	
6643.481	1	1	0	0	0.1357	0.24085	0.075392	0.09854	0.068685	0.13233	0.22709	0.15742	0.1177	0.26885	0.064273	0.096038	0.2417	0.080261	0.19039	0.073374	-1.1896	-1.9896	-2.0938	-1.9479	-2.3542	-2.0042	-1.8333	-2.5708	-1.8146	-1.7646	-2.3229	-1.7563	-2.1104	-2.1104	-1.7854	-2.4313	355.539	129.378	347.704	256.389	100.065	374.876	369.029	164.499	361.796	259.939	332.945	332.090	147.651	93.887	157.151	153.970	0.00048761	0.0001953	5.0385e-05	1142.2	6.0118e-06	9.7065e-06	1252.4	240.74	6.9894e-06	3.0485e-06	305.66	85.505	67.127	19.487	1.3556e-06	27.221	0.00052448	0.00058743	0.0001512	1140	5.8316e-06	6.442e-06	1244.8	245.79	5.9524e-06	6.3874e-06	313.69	89.656	71.901	21.984	5.7774e-06	29.686	68.709	396.273	94.784	66.882	155.488	178.346	66.803	74.506	163.991	370.766	73.784	80.697	81.331	87.878	130.400	87.577	-8191	255	
6643.553	1	1	0	0	0.070353	0.17464	0.080354	0.20546	0.09838	0.20898	0.25126	0.15299	0.26287	0.26153	0.089273	0.21582	0.1493	0.28412	0.17078	0.15073	-1.3687	-1.95	-2.1896	-1.8604	-2.1562	-2.2021	-1.9562	-2.4646	-1.9958	-1.8521	-2.4562	-1.8625	-1.9292	-2.2313	-1.6979	-2.3729	156.739	82.430	66.538	403.121	222.927	350.547	350.616	384.162	82.280	295.541	143.094	90.852	83.878	388.591	307.517	56.696	0.00063543	2.8189e-05	0.00015325	1146.2	4.1671e-06	3.108e-06	1251.9	240.92	6.976e-06	2.4321e-06	304.99	85.731	67	19.435	3.5111e-06	27.12	0.00055612	0.00057241	0.00014792	1141.8	6.1958e-06	6.2564e-06	1246.3	246.27	6.3367e-06	6.2078e-06	313.41	90.099	72.533	21.848	5.7932e-06	29.858	84.725	324.003	193.695	66.692	211.750	176.969	66.825	74.206	168.984	167.814	74.082	80.590	80.890	88.134	77.102	87.375	-8191	255	
6643.674	1	1	0	0	0.11576	0.18745	0.41543	0.40295	0.021188	0.17109	0.42462	0.219	0.20703	0.18586	0.19635	0.066852	0.25138	0.11076	0.10943	0.21815	-1.4562	-1.9688	-2.1104	-2.0292	-2.1021	-2.1542	-2.0042	-2.3187	-1.8771	-1.8563	-2.4188	-1.7833	-2.1646	-2.1208	-1.6958	-2.3854	315.449	267.315	336.616	366.892	154.581	118.284	334.668	404.695	131.506	384.280	73.544	349.658	89.396	358.405	323.134	340.386	0.00037575	0.00045917	0.00025933	1144.5	1.7597e-06	9.3074e-07	1257.1	239.62	3.4138e-06	4.5149e-07	304.19	86.153	66.903	19.312	4.4968e-06	27.355	0.00058942	0.00056036	0.00014727	1144.9	6.4571e-06	6.1133e-06	1245.6	246.12	6.5417e-06	5.9783e-06	312.65	90.562	72.817	21.692	5.6133e-06	30.062	85.815	66.915	412.452	66.762	394.991	195.643	66.774	74.435	212.733	171.979	73.749	80.601	81.080	88.113	118.294	88.161	-8191	255	
6643.770	1	1	0	0	0.24579	0.072425	0.19264	0.33197	0.074798	0.062718	0.30816	0.31291	0.14542	0.17095	0.044335	0.35592	0.28997	0.090717	0.08802	0.46976	-1.6083	-1.6792	-2.2667	-1.8396	-2.0375	-2.1729	-1.8104	-2.2562	-2.1333	-1.8479	-2.3208	-1.8542	-1.9583	-2.3708	-1.6583	-2.3417	340.089	121.787	83.272	383.279	386.241	57.684	378.675	356.091	136.373	185.034	409.180	84.025	274.543	398.712	236.695	310.455	0.00056319	0.00032535	0.00014587	1150.7	4.8957e-06	4.7505e-06	1255.1	240.13	3.2921e-06	2.5599e-06	306.11	86.117	66.618	19.438	6.9766e-06	27.337	0.0005856	0.00053064	0.00014058	1149	6.2453e-06	5.7601e-06	1242.6	247.11	6.1553e-06	5.5888e-06	311.33	90.645	71.811	21.427	5.3127e-06	30.146	90.505	93.678	405.828	66.591	378.621	272.010	66.866	74.079	318.159	369.409	73.824	80.973	80.796	88.035	247.342	87.804	-8191	255	
6643.866	1	1	0	0	0.27064	0.22498	0.028051	0.11144	0.16891	0.073646	0.17354	0.19736	0.42717	0.11522	0.18663	0.075134	0.045537	0.22456	0.065574	0.18134	-1.6708	-1.6604	-2.35	-2.0229	-1.8188	-2.5396	-1.8667	-2.1708	-2.1188	-1.7083	-2.6083	-2.1125	-1.9646	-2.5146	-1.65	-2.0896	74.354	393.937	168.855	386.241	195.976	261.739	317.179	80.187	125.921	90.444	299.840	364.129	370.669	361.288	118.869	286.369	0.00057344	0.00044018	7.0409e-05	1148.1	1.2591e-06	4.1591e-06	1253.4	240.83	6.6679e-06	3.3788e-06	305.43	85.655	66.861	19.601	1.0868e-05	27.224	0.00054462	0.00049862	0.00013572	1150.3	5.8722e-06	5.5103e-06	1241.9	248.02	5.9354e-06	5.5599e-06	311.82	91.676	71.801	21.481	5.5635e-06	30.376	81.016	167.744	160.038	66.823	355.813	356.417	66.831	74.268	141.643	413.211	73.971	80.583	81.292	87.932	194.003	87.421	-8191	255	
6643.985	1	1	0	0	0.27114	0.41799	0.21448	0.45887	0.14455	0.21026	0.14513	0.10428	0.13974	0.17198	0.39701	0.29598	0.51307	0.15793	0.18655	0.12923	-1.8312	-1.7292	-2.2458	-2.2458	-1.8062	-2.3458	-2.0187	-2.3063	-2.2792	-1.75	-2.3479	-2.1	-1.6938	-2.5479	-1.7	-1.9125	109.738	354.837	206.103	401.500	210.215	398.398	321.770	393.892	389.706	227.268	315.981	376.234	337.111	93.712	260.369	95.170	0.00047553	0.0006137	0.00011824	1149.1	2.8524e-06	2.626e-06	1256.4	241.13	1.1634e-05	5.3741e-06	305.73	85.638	66.74	19.573	6.481e-06	27.333	0.00053881	0.00049867	0.00014418	1153.1	5.7821e-06	5.3908e-06	1245.7	248.41	5.5966e-06	5.2946e-06	312.96	91.018	70.927	21.264	5.6698e-06	30.181	91.846	384.590	146.637	66.704	120.912	136.461	66.952	74.597	142.655	78.948	74.000	80.969	80.923	88.303	251.350	87.698	-8191	255	
6644.081	1	1	0	0	0.074768	0.18612	0.08827	0.23501	0.06679	0.35891	0.1256	0.20481	0.17701	0.2441	0.081767	0.20657	0.14972	0.058639	0.11193	0.11079	-1.8833	-1.8208	-2.1104	-2.2104	-1.7354	-2.2083	-2.0938	-2.0021	-2.2667	-1.5479	-2.2875	-2.3104	-1.8021	-2.3229	-1.85	-2	349.154	407.496	275.599	276.622	347.096	262.671	305.182	407.270	251.714	150.924	213.875	147.027	231.535	257.845	281.929	366.581	0.00042622	0.00064546	0.0002386	1147.1	6.1904e-06	5.9025e-06	1248.1	240.5	5.3171e-06	5.1616e-06	306.06	86.004	66.66	19.433	4.8573e-06	27.033	0.00049467	0.00046399	0.00014422	1145.7	5.2792e-06	5.0456e-06	1242.5	246.56	5.3071e-06	5.0486e-06	314.09	90.272	70.65	21.184	5.92e-06	29.889	76.019	158.247	162.174	66.801	211.816	98.444	66.765	74.606	381.424	268.061	74.267	80.739	81.367	88.039	219.800	87.760	-8191	255	
6644.153	1	1	0	0	0.26649	0.2586	0.20476	0.51467	0.26043	0.13879	0.060313	0.068482	0.12097	0.3337	0.066411	0.09929	0.046296	0.16923	0.24307	0.094202	-2.0958	-1.675	-2.1021	-2.1562	-1.6812	-2.3396	-2.0896	-2.0583	-2.3	-1.6938	-2.0021	-2.3125	-1.7875	-2.2479	-2.0104	-1.875	129.339	67.952	268.445	369.564	402.689	74.802	297.520	74.841	59.287	386.021	120.826	75.794	148.855	412.032	383.710	175.188	0.00036919	0.00053089	0.00012942	1147	2.5955e-06	1.6582e-06	1255.6	239.29	4.1226e-06	9.4171e-06	305.15	85.402	67.323	19.465	1.418e-05	27.226	0.00048373	0.00046554	0.00015078	1141.2	5.198e-06	5.1483e-06	1246.3	245	5.0889e-06	5.1204e-06	313.72	89.428	70.244	21.157	5.9144e-06	29.535	82.528	189.510	190.609	66.935	79.041	149.343	66.834	74.748	276.555	190.919	73.789	80.688	80.877	88.520	210.936	87.543	-8191	255	
6644.249	1	1	0	0	0.084805	0.32522	0.10811	0.28003	0.05154	0.27411	0.16987	0.27485	0.078483	0.15724	0.33373	0.20765	0.26166	0.14252	0.15731	0.1075	-1.8792	-1.8396	-2.0187	-2.4146	-1.5792	-2.3542	-2.1458	-1.7854	-2.1813	-1.8271	-2	-2.3479	-1.5708	-2.1042	-1.9771	-1.8979	93.521	321.517	365.433	346.663	354.748	303.508	260.508	313.319	406.454	130.391	370.771	384.629	364.758	309.352	366.624	267.872	0.00067386	0.00038931	0.00022026	1140.6	4.6297e-06	6.6477e-06	1246.2	240.24	4.7489e-06	5.3103e-06	304.08	85.653	66.348	19.346	3.4004e-06	27.126	0.00045442	0.00047194	0.00014827	1136.6	4.9581e-06	5.2809e-06	1241.1	244.27	4.9185e-06	5.365e-06	312.68	89.167	69.653	21.313	5.6178e-06	29.263	81.383	99.309	132.072	66.887	412.603	119.539	66.824	74.432	156.892	259.763	73.883	80.715	80.928	88.336	222.350	87.645	-8191	255	
6644.345	1	1	0	0	0.13129	0.099277	0.16762	0.20189	0.2533	0.10485	0.094635	0.24389	0.23338	0.3596	0.16977	0.11122	0.18481	0.08525	0.089822	0.084558	-1.8375	-1.775	-1.8729	-2.3708	-1.7062	-2.2042	-2.2854	-1.7146	-2.3792	-1.9729	-1.8708	-2.3479	-1.75	-2.0208	-2.0667	-1.7708	258.590	178.946	216.715	402.346	179.150	257.576	408.488	357.546	121.332	264.232	406.707	153.798	375.658	300.405	324.000	316.795	0.00070339	0.00066832	0.00015502	1135.6	3.6732e-06	4.2468e-06	1244.3	239.22	1.6848e-06	2.4008e-06	304.78	85.13	66.971	19.308	9.7366e-06	27.217	0.00043564	0.00048974	0.00013723	1128.9	4.6655e-06	5.3272e-06	1234.9	242.4	4.7708e-06	5.5054e-06	310.3	88.618	69.904	21.483	5.5652e-06	29.355	84.193	136.330	317.637	66.799	158.923	209.936	66.871	74.446	413.819	118.140	73.987	80.800	81.035	88.126	226.139	87.371	-8191	255	
6644.465	1	1	0	0	0.28159	0.067149	0.20094	0.17674	0.20532	0.32192	0.2377	0.14756	0.11387	0.18105	0.03722	0.35291	0.15802	0.19035	0.3277	0.039726	-1.8563	-1.8354	-1.6417	-2.5667	-1.6708	-2.0125	-2.4271	-1.7979	-2.3583	-2.0521	-1.8854	-2.3792	-1.7979	-2.0396	-2.0333	-1.8458	352.227	213.065	343.477	334.789	243.732	139.274	412.348	61.159	163.946	343.774	372.978	375.415	245.978	101.530	294.104	259.385	0.00045039	0.00027394	5.3173e-05	1141.4	2.8798e-06	7.5373e-06	1245.2	239.16	2.4699e-06	1.6982e-06	304.12	85.193	66.186	19.479	1.1029e-06	26.886	0.00046463	0.00054005	0.00014141	1133.1	5.1979e-06	5.8822e-06	1237.8	243.23	5.2271e-06	5.928e-06	310.21	88.329	70.3	21.56	5.341e-06	29.105	74.539	212.270	194.582	66.913	195.369	258.549	66.817	74.052	223.487	390.416	74.055	80.644	80.878	88.466	386.077	87.492	-8191	255	
6644.562	1	1	0	0	0.038967	0.085471	0.16898	0.42296	0.20533	0.14772	0.29127	0.10185	0.11148	0.10101	0.26669	0.20973	0.10093	0.047542	0.14311	0.39473	-1.7479	-2.0104	-2.0042	-2.4771	-1.7458	-2.0271	-2.425	-1.7917	-1.9521	-1.9438	-1.6583	-2.425	-1.7479	-1.7708	-2.2667	-1.7875	351.407	259.543	130.764	360.779	160.860	164.722	349.308	212.268	110.429	86.344	277.236	389.238	295.111	384.746	125.998	379.539	0.00094572	0.00046298	3.2768e-05	1139	7.7778e-06	6.3158e-06	1250.2	238.67	1.3897e-05	5.556e-06	303.14	85.355	67.005	19.453	9.0553e-06	27.421	0.00048282	0.00052147	0.00013282	1128.3	5.3219e-06	5.5578e-06	1232.7	241.78	5.344e-06	5.5531e-06	308.35	87.929	70.702	21.344	5.1139e-06	29.107	76.159	278.062	391.893	66.763	155.622	401.153	66.732	74.345	173.171	124.690	74.093	80.978	81.144	87.972	144.929	87.061	-8191	255	
6644.658	1	1	0	0	0.19661	0.076127	0.2825	0.30694	0.14992	0.29677	0.42333	0.07955	0.10954	0.18573	0.33879	0.17209	0.20324	0.15191	0.033866	0.0515	-1.4833	-2.1458	-1.6	-2.2938	-1.9542	-2.0667	-2.4	-1.6771	-1.9271	-2.15	-1.7104	-2.3083	-2.0458	-1.8333	-2.4104	-1.6771	109.856	159.223	162.512	397.513	64.018	173.295	302.061	273.609	226.934	243.132	276.441	110.516	390.970	282.788	290.485	262.015	0.00066063	0.00037205	0.00011216	1138	8.3227e-06	4.0896e-06	1245.4	237.99	1.1412e-05	3.6175e-06	303.81	85.257	66.315	19.389	5.8497e-06	27.156	0.00049824	0.00050092	0.00012931	1128.8	5.6231e-06	5.4137e-06	1229.3	242.13	5.6738e-06	5.4516e-06	307.42	88.272	71.178	21.317	5.0928e-06	29.289	81.906	146.288	164.226	66.844	155.473	114.642	66.844	74.567	138.997	236.921	74.505	81.341	81.096	88.251	96.765	88.007	-8191	255	
6644.754	1	1	0	0	0.033468	0.112	0.2251	0.13489	0.087484	0.1012	0.38435	0.41719	0.16722	0.012441	0.39764	0.055327	0.022872	0.25907	0.33192	0.10243	-1.6042	-2.2979	-1.4875	-2.425	-2.2229	-1.8125	-2.7479	-1.8396	-2.0458	-2.3688	-1.7083	-2.1333	-2.0708	-1.7458	-2.35	-1.9208	254.209	121.222	120.438	98.651	233.850	197.259	365.039	383.823	197.787	390.573	398.490	331.647	222.994	148.874	85.043	165.221	0.00059985	0.00096128	2.8818e-05	1143	5.8047e-06	4.2192e-06	1244.2	238.59	5.8855e-06	4.272e-06	305.07	85.895	66.644	19.383	3.182e-06	26.904	0.00052704	0.0004886	0.00012969	1132.6	5.8726e-06	5.3462e-06	1230.2	244.11	5.8611e-06	5.3849e-06	308.78	89.234	71.31	21.178	5.06e-06	29.555	71.073	314.156	57.563	66.811	173.894	305.348	66.834	74.504	178.937	167.593	74.283	80.818	81.062	88.227	125.426	87.502	-8191	255	
6644.850	1	1	0	0	0.32698	0.11385	0.22856	0.3152	0.22339	0.1711	0.093046	0.14058	0.02258	0.16768	0.15121	0.27377	0.1868	0.13363	0.13246	0.30421	-1.5146	-2.2708	-1.6812	-2.3438	-2.1937	-1.7854	-2.5208	-1.9792	-1.9667	-2.2958	-1.9771	-2.1833	-2.1583	-1.775	-2.0312	-1.8875	259.600	145.671	142.177	392.545	59.621	187.716	211.611	389.051	285.165	253.039	327.955	86.423	74.634	82.743	341.978	400.698	0.00046755	0.00066373	5.5077e-05	1141.1	4.1641e-06	4.9366e-06	1236.9	239.06	6.9946e-06	5.115e-06	303.66	85.258	66.679	19.312	7.0735e-06	27.03	0.00052044	0.00048176	0.00012656	1135.9	5.6824e-06	5.1831e-06	1224.9	244.87	5.5785e-06	5.1617e-06	307.95	89.641	71.042	21.083	5.0117e-06	29.84	105.819	71.011	62.364	66.853	228.412	311.978	66.817	74.716	321.536	124.899	73.844	81.042	81.336	88.405	227.882	87.425	-8191	255	
6644.946	1	1	0	0	0.13132	0.06057	0.15468	0.36852	0.20719	0.11853	0.34451	0.157	0.16681	0.071868	0.28929	0.11268	0.14979	0.21572	0.15345	0.10636	-1.5021	-2.2667	-1.6417	-2.175	-2.3896	-1.6542	-2.3583	-2.0896	-1.9979	-2.3271	-1.6875	-2.0354	-2.2	-1.8271	-2.0917	-2.1667	206.293	343.506	260.059	371.367	359.288	266.190	383.652	414.946	75.144	225.246	104.435	400.210	233.661	59.522	260.578	209.748	0.00054316	6.089e-05	7.2699e-05	1138.3	1.398e-06	4.7741e-06	1242.2	238	7.6551e-06	3.781e-06	303.91	85.568	66.514	19.346	9.6393e-06	27.053	0.00049794	0.00046739	0.00012804	1136.7	5.4659e-06	5.0823e-06	1229.2	244.82	5.3913e-06	5.1087e-06	308.86	89.91	70.471	20.987	5.2375e-06	29.889	89.130	232.668	201.482	66.936	67.207	350.360	66.834	74.520	382.969	242.382	74.113	80.809	80.922	88.418	229.721	87.258	-8191	255	
6645.065	1	1	0	0	0.074012	0.091531	0.14323	0.1038	0.24117	0.089419	0.27574	0.26079	0.091871	0.034698	0.0020648	0.31123	0.15901	0.10948	0.16895	0.23232	-1.3458	-2.0812	-1.8771	-2.1833	-2.3438	-1.6479	-2.2958	-2.1583	-1.6542	-2.2	-1.9104	-2.1333	-2.1729	-1.7417	-2.3417	-1.9438	61.402	146.368	174.249	362.571	247.921	154.616	382.596	387.321	340.982	179.272	180.000	370.973	103.525	225.112	167.224	362.083	0.00041393	0.00045368	0.00021195	1138.2	2.0667e-06	2.3892e-06	1240.6	238.26	4.7977e-06	1.3561e-06	303.49	85.164	66.69	19.345	3.787e-06	27.022	0.00047978	0.0004498	0.00013473	1136.2	5.179e-06	4.8677e-06	1230.3	244.36	5.0984e-06	4.7804e-06	309.55	89.477	69.835	20.819	5.3529e-06	29.579	104.410	117.027	144.104	66.875	216.195	289.583	66.877	74.169	411.190	201.144	74.002	80.654	81.002	88.165	219.862	87.409	-8191	255	
6645.161	1	1	0	0	0.12281	0.19607	0.16897	0.15143	0.019219	0.084698	0.15721	0.13818	0.10137	0.049574	0.26174	0.037631	0.13552	0.32318	0.063261	0.1702	-1.3521	-2.1625	-1.9208	-2.0083	-2.4042	-1.9438	-2.3417	-2.0979	-1.7917	-2.425	-2.0542	-1.875	-2.2646	-1.6021	-1.9271	-2.0062	297.545	202.326	88.460	332.928	312.113	370.201	352.999	103.171	165.958	316.555	310.930	200.470	117.219	312.557	186.877	312.848	0.00079829	0.00033316	0.00023909	1135.7	1.2082e-06	7.4821e-06	1235.7	239.25	9.3685e-06	7.7795e-06	303.44	85.159	66.411	19.306	3.7999e-06	26.883	0.00045613	0.00043138	0.00013889	1133.1	4.946e-06	4.7465e-06	1230.1	243.75	4.898e-06	4.7421e-06	310.54	88.791	69.409	20.883	5.5734e-06	29.348	87.452	231.363	134.869	66.686	263.838	131.054	66.640	74.414	145.006	278.606	73.582	80.807	81.237	88.464	244.097	87.672	-8191	255	
6645.257	1	1	0	0	0.038255	0.13141	0.18836	0.18791	0.059785	0.078538	0.17198	0.18154	0.21977	0.069786	0.15222	0.15591	0.099983	0.28843	0.30924	0.060703	-1.225	-2.3812	-1.9813	-2.0708	-2.1958	-1.7938	-2.3042	-2.2771	-1.6896	-2.1917	-2.3208	-1.8333	-2.25	-1.7208	-2.0625	-2.4104	120.467	209.614	198.709	367.062	156.926	86.131	353.997	401.378	381.150	392.556	115.509	139.742	357.835	251.830	117.009	272.008	0.00042717	0.00028031	9.5607e-05	1134.1	2.1272e-06	9.7015e-06	1242.9	237.48	2.7572e-06	3.6415e-06	302.69	85.722	66.34	19.251	7.6856e-06	27.079	0.00044263	0.00044328	0.00014399	1129.2	4.8525e-06	5.0004e-06	1236.3	242.34	4.8008e-06	4.9833e-06	310.74	88.42	69.148	20.977	5.544e-06	29.139	88.824	183.829	180.361	66.748	105.585	206.915	66.877	74.281	296.393	227.336	74.197	81.005	81.376	88.054	364.546	87.261	-8191	255	
6645.378	1	1	0	0	0.13062	0.085693	0.078877	0.16967	0.28575	0.17886	0.28362	0.09052	0.20005	0.19186	0.17731	0.11746	0.16392	0.29024	0.089634	0.15741	-1.2146	-2.1792	-1.9396	-1.7812	-2.2875	-1.8542	-2.0396	-2.2687	-1.8125	-2.1292	-2.1792	-1.7958	-2.2771	-2.0375	-1.925	-2.3479	60.577	276.738	272.378	59.798	241.229	360.480	315.013	350.076	209.843	150.494	386.833	409.106	289.036	303.975	117.697	415.043	0.00065814	0.00061844	0.00019631	1136.9	2.9574e-06	9.0757e-06	1245.2	238.62	7.4728e-06	1.7856e-06	303.26	85.326	66.723	19.413	9.0607e-06	26.992	0.00042745	0.00046302	0.00013973	1126.6	4.6533e-06	5.1579e-06	1231.2	241.59	4.646e-06	5.2135e-06	309.31	87.927	69.082	21.21	5.3317e-06	28.943	85.842	145.210	159.365	66.656	265.830	129.810	66.582	74.427	181.740	208.812	74.047	80.763	81.255	88.113	278.999	87.669	-8191	255	
6645.450	1	1	0	0	0.012078	0.21665	0.10403	0.22494	0.10181	0.070496	0.12393	0.14114	0.064079	0.23357	0.29181	0.035498	0.12884	0.037334	0.39704	0.11521	-1.5083	-2.1104	-2.175	-1.9396	-2.3146	-1.875	-2.1375	-2.3083	-1.7563	-2.075	-2.1917	-1.7833	-2.3271	-2.0625	-1.8708	-2.4521	82.822	385.489	265.142	397.632	293.505	77.450	416.085	66.170	212.131	242.987	285.332	358.552	80.620	346.575	221.007	319.585	0.00064154	0.00078252	0.00018472	1135.1	6.356e-06	4.3921e-06	1236	238.35	9.3482e-06	3.1274e-06	302.52	85.247	66.48	19.248	2.8865e-06	27.005	0.00042408	0.00048648	0.00013481	1124.4	4.6516e-06	5.4257e-06	1224.9	241.07	4.8167e-06	5.4697e-06	308.68	88.014	69.392	21.326	5.2285e-06	28.935	73.854	112.487	257.925	66.817	185.137	286.147	66.944	74.742	149.848	198.783	73.842	80.996	80.946	88.036	83.644	87.323	-8191	255	
6645.546	1	1	0	0	0.12292	0.27926	0.091886	0.14601	0.22807	0.075956	0.17456	0.22068	0.23687	0.085826	0.3781	0.15436	0.24509	0.21008	0.20794	0.10179	-1.3917	-1.9604	-2.1437	-1.7917	-2.3187	-1.9417	-1.7687	-2.3458	-1.9771	-2.0104	-2.4521	-1.6542	-2.4583	-2.2458	-1.8188	-2.4271	59.208	330.020	247.440	353.436	259.339	100.235	390.433	317.430	261.649	70.879	346.388	327.597	68.780	186.135	413.502	345.143	0.00052541	0.00053632	0.00010904	1135	6.4169e-06	5.4394e-06	1234.7	237.8	7.4754e-06	4.212e-06	303.17	85.219	66.34	19.276	2.3506e-06	26.902	0.00045269	0.0005074	0.00013129	1123.4	4.9688e-06	5.5113e-06	1223.6	240.38	4.9935e-06	5.4598e-06	307.59	87.529	69.748	21.181	4.9841e-06	28.821	92.234	125.501	197.479	66.975	182.881	224.604	66.933	74.437	169.312	306.987	73.920	80.820	81.146	87.903	158.707	87.161	-8191	255	
6645.642	1	1	0	0	0.17727	0.28314	0.15092	0.09503	0.25234	0.043108	0.37569	0.33829	0.25207	0.2565	0.24949	0.16917	0.19827	0.18321	0.047138	0.093122	-1.4396	-1.9312	-2.1229	-1.8083	-2.2896	-2.1896	-1.8729	-2.4604	-2.0083	-1.9896	-2.5271	-1.5979	-2.05	-2.1188	-1.7354	-2.3646	295.902	246.264	293.359	365.342	397.241	67.629	361.452	57.362	80.247	140.599	332.912	386.854	391.718	256.105	411.220	111.434	0.00095883	0.00056369	0.00014409	1137.2	8.3032e-06	8.0327e-07	1240.6	237.86	6.9683e-06	3.3489e-06	302.94	84.682	66.662	19.297	5.3744e-06	26.914	0.00047166	0.00048652	0.00012483	1121.9	5.2054e-06	5.3162e-06	1224	240.43	5.2793e-06	5.2365e-06	306.48	87.38	70.318	21.109	4.8444e-06	28.755	88.581	239.509	387.619	66.875	135.433	301.092	67.018	74.401	164.162	183.734	74.066	80.841	81.036	88.207	176.404	87.744	-8191	255	
6645.763	1	1	0	0	0.17732	0.14701	0.20691	0.48268	0.096001	0.30376	0.19976	0.097789	0.0048971	0.093632	0.048512	0.043054	0.2621	0.074408	0.1458	0.075459	-1.5104	-1.9521	-2.2812	-1.8792	-2.0083	-2.1625	-1.6167	-2.2646	-1.9667	-1.6375	-2.2896	-1.9875	-1.9729	-2.2583	-1.5146	-2.2792	181.179	329.318	250.690	385.779	374.587	157.200	306.017	127.939	198.580	250.163	110.849	69.963	219.010	245.723	415.364	348.173	0.00068455	0.00061668	6.3807e-05	1138.8	3.4615e-06	5.1534e-06	1243.3	236.91	5.941e-06	1.3472e-06	303.75	85.412	65.833	19.308	5.1322e-06	27.214	0.00048832	0.00046371	0.00012173	1123.8	5.3465e-06	5.0295e-06	1222.9	240.17	5.3733e-06	4.9761e-06	305.27	87.718	70.302	20.931	4.6252e-06	28.981	97.288	197.446	269.335	66.921	324.264	338.453	66.653	74.406	126.526	83.216	73.866	81.197	80.794	88.185	85.216	87.279	-8191	255	
6645.857	1	1	0	0	0.18203	0.22548	0.17315	0.32413	0.17118	0.13505	0.2572	0.20809	0.33881	0.21944	0.1759	0.082443	0.30286	0.076397	0.30781	0.17399	-1.4875	-1.6042	-2.2354	-1.9438	-1.9	-2.3937	-1.6688	-2.1771	-2.0312	-1.9042	-2.425	-1.8333	-1.9479	-2.3271	-1.6521	-2.125	358.233	277.107	286.019	366.863	302.906	293.544	356.645	387.910	282.094	105.060	130.927	68.105	413.932	134.625	397.913	177.918	0.00058709	0.00049065	6.1905e-05	1135.6	9.096e-06	4.466e-06	1234.8	237.87	4.0283e-06	1.1446e-06	301.7	85.268	66.211	19.309	1.2403e-05	27.057	0.00048668	0.00044196	0.00011718	1124.7	5.2841e-06	4.8203e-06	1218.9	241.36	5.3165e-06	4.8324e-06	304.31	88.395	70.09	20.826	4.5964e-06	29.243	68.829	142.820	254.737	66.930	211.179	237.280	66.785	74.537	156.461	276.796	73.908	80.908	81.211	88.332	238.304	87.332	-8191	255	
6645.953	1	1	0	0	0.099442	0.13094	0.15453	0.37285	0.026586	0.086014	0.2108	0.34643	0.059334	0.068436	0.11293	0.17276	0.33668	0.090031	0.11006	0.24963	-1.7458	-1.6625	-2.2188	-2.0687	-1.8583	-2.3146	-1.7417	-2.1625	-1.9042	-1.6187	-2.3354	-1.9396	-1.8771	-2.2354	-1.7833	-2.1979	172.786	328.530	349.845	349.717	101.407	308.458	349.952	331.296	104.651	341.929	339.470	398.850	68.176	341.716	91.194	335.349	0.00038495	8.0135e-05	8.7834e-05	1137.7	4.1522e-06	3.8576e-06	1240	238.16	4.1894e-06	3.1591e-06	303.71	85.007	66.375	19.306	7.5969e-06	27.07	0.00047631	0.00043566	0.00011633	1127.1	5.1198e-06	4.6749e-06	1218.9	242.07	5.0511e-06	4.7132e-06	304.81	88.845	69.854	20.747	4.7079e-06	29.428	62.181	262.274	171.676	66.869	291.226	377.380	66.873	74.494	117.411	115.290	74.111	80.793	81.072	88.092	226.936	87.823	-8191	255	
6646.027	1	1	0	0	0.14838	0.13124	0.18034	0.11208	0.071591	0.16243	0.092323	0.13188	0.10211	0.11224	0.23441	0.31442	0.058464	0.12998	0.13681	0.072609	-1.7354	-1.5396	-2.1167	-2.1792	-1.6667	-2.2208	-1.6375	-2.1292	-2.2979	-1.7188	-2.2979	-2.0187	-1.8229	-2.1937	-1.7583	-2.1354	247.122	302.422	326.095	371.615	60.263	136.668	332.827	230.555	335.609	180.355	265.136	338.156	185.034	255.470	243.301	69.401	0.00061398	0.00021177	6.4509e-05	1136.6	1.6278e-06	2.1856e-06	1240.3	237.37	1.2622e-05	4.6532e-06	302.25	84.83	66.124	19.309	3.5896e-06	26.788	0.0004599	0.00042696	0.00012098	1129.8	4.9649e-06	4.6506e-06	1222.9	242.69	4.9533e-06	4.6114e-06	305.82	88.916	69.281	20.67	4.959e-06	29.432	82.292	313.033	141.537	66.874	59.159	285.133	67.001	74.553	152.834	292.453	73.764	80.416	80.981	88.382	250.243	87.428	-8191	255	
6646.145	1	1	0	0	0.25101	0.62212	0.12189	0.19165	0.27293	0.24342	0.19273	0.21765	0.16325	0.17513	0.083367	0.091564	0.10329	0.10544	0.18789	0.33483	-1.6562	-1.5396	-2.1312	-2.0896	-1.7	-2.4583	-2.0938	-2.0125	-2.1875	-1.6896	-2.0938	-2.1042	-1.7188	-2.4917	-1.8667	-1.9458	166.505	154.846	234.962	69.423	81.864	394.618	391.712	303.840	146.665	137.423	394.438	303.830	62.522	82.239	138.202	184.405	0.00054522	0.00064433	0.00037317	1135.5	2.145e-06	2.2552e-06	1243	237.78	3.5705e-06	7.1253e-06	303.31	85.207	65.86	19.331	8.6933e-06	26.926	0.0004442	0.00041608	0.0001277	1128.8	4.7785e-06	4.527e-06	1227.2	242.48	4.7449e-06	4.5613e-06	307.1	88.692	69.006	20.585	5.1286e-06	29.091	92.569	306.049	145.411	66.709	259.637	198.795	66.888	74.504	270.462	206.251	74.141	80.745	81.089	88.204	205.650	87.314	-8191	255	
6646.242	1	1	0	0	0.17321	0.34556	0.10005	0.24042	0.10916	0.043898	0.11792	0.23676	0.082917	0.1836	0.08461	0.2255	0.11337	0.12245	0.17149	0.14006	-1.8292	-1.6396	-1.9833	-2.3292	-1.6333	-2.3458	-2.1708	-1.9688	-2.2625	-1.5979	-2.2625	-2.2333	-1.7938	-2.1229	-2.1312	-1.9479	222.105	72.661	102.723	383.675	117.773	207.127	259.001	391.107	166.792	181.897	237.125	290.302	321.185	108.135	248.810	377.634	0.00064236	0.00019085	0.00019371	1131.4	5.5571e-06	5.3856e-06	1232.9	237.18	4.5163e-06	2.6697e-06	303.53	85.151	66.049	19.126	3.6356e-06	26.771	0.00041226	0.00039634	0.00012751	1120.1	4.375e-06	4.2714e-06	1216.7	238.9	4.3111e-06	4.3175e-06	305.29	87.172	68.026	20.442	5.0655e-06	28.624	97.815	183.190	150.354	66.816	281.649	170.868	67.083	74.655	78.818	408.630	74.060	80.750	81.156	88.261	346.987	86.807	-8191	255	
6646.338	1	1	0	0	0.10934	0.28062	0.28035	0.3557	0.16673	0.062125	0.34967	0.22808	0.1023	0.19655	0.088143	0.14906	0.16798	0.20878	0.14984	0.078515	-1.8771	-1.7375	-1.825	-2.1979	-1.6229	-2.4	-2.2729	-1.9104	-2.4417	-1.7271	-2.1146	-2.225	-1.8229	-2.1542	-2.0042	-1.775	163.202	399.871	65.388	394.861	121.779	360.768	358.682	276.042	154.685	195.526	186.171	100.379	264.702	247.923	100.455	189.293	0.00055661	0.00062827	1.9757e-05	1125.4	3.1542e-06	2.5079e-06	1232.4	237.11	2.4932e-06	5.4018e-06	302.65	85.005	65.838	19.401	4.5452e-06	26.895	0.00039177	0.00040932	0.00012782	1113	4.3154e-06	4.5918e-06	1219.2	239.06	4.3181e-06	4.7254e-06	307.01	87.173	68.172	20.806	5.1279e-06	28.755	96.986	175.271	361.209	66.857	213.062	111.523	66.820	74.675	154.327	260.516	74.111	80.982	81.077	88.261	115.782	87.602	-8191	255	
6646.458	1	1	0	0	0.098106	0.032074	0.10877	0.27849	0.10423	0.060443	0.34476	0.12235	0.1133	0.044855	0.36014	0.27948	0.2361	0.3065	0.063937	0.12035	-1.9792	-1.9896	-1.7396	-2.3646	-1.6896	-2.125	-2.1979	-1.8312	-2.2771	-1.8937	-1.9	-2.2396	-1.6688	-1.9771	-2.1375	-1.6958	159.008	276.044	90.995	69.784	285.648	308.187	304.396	275.853	98.321	150.487	352.068	352.481	400.939	75.333	133.455	154.840	0.00053237	0.00063894	2.4511e-05	1122.4	6.2e-06	3.9069e-06	1230.7	236.25	2.5636e-06	6.3093e-06	303.43	84.332	65.838	19.146	5.0264e-06	26.968	0.00039976	0.00044456	0.00012749	1113.1	4.31e-06	4.859e-06	1217.4	238.87	4.3122e-06	4.9537e-06	305.25	86.671	68.276	20.9	4.9534e-06	28.555	75.477	88.464	219.788	66.880	260.960	207.125	66.782	74.520	197.434	246.848	74.105	80.505	80.945	88.259	314.599	87.295	-8191	255	
6646.555	1	1	0	0	0.26255	0.17299	0.22762	0.31892	0.014882	0.058892	0.30096	0.16226	0.34992	0.22301	0.046179	0.16814	0.25262	0.2846	0.23414	0.11372	-1.9396	-1.9875	-1.7167	-2.4688	-1.6479	-1.9167	-2.2271	-1.6313	-2.1562	-1.9312	-1.9583	-2.3312	-1.7313	-2.0479	-2.0771	-1.7354	154.082	143.382	168.610	63.596	242.942	365.728	366.807	335.033	61.945	357.022	335.152	309.448	405.405	368.545	85.489	223.465	0.00070237	0.00011021	4.6567e-05	1123.8	5.105e-06	4.9354e-06	1233.7	237.81	2.8487e-06	5.4486e-07	301.78	85.058	65.742	19.221	1.314e-06	26.915	0.000406	0.00047147	0.00012526	1114.2	4.545e-06	5.1527e-06	1219	238.93	4.5703e-06	5.2638e-06	305.26	87.079	68.753	21.087	4.8614e-06	28.614	61.996	145.426	395.194	66.616	163.561	260.243	66.864	74.543	148.203	128.363	73.758	81.095	81.369	88.193	253.757	87.545	-8191	255	
6646.651	1	1	0	0	0.34316	0.31172	0.12847	0.11499	0.16285	0.18991	0.23674	0.15756	0.21833	0.16259	0.18762	0.16667	0.047652	0.14598	0.21064	0.28227	-1.7833	-2.1333	-1.7479	-2.5062	-1.6271	-2.0062	-2.5104	-1.7292	-2.0375	-2.1958	-1.8708	-2.3083	-1.8229	-2.1625	-2.3604	-1.6625	276.457	175.176	251.158	308.658	93.984	78.832	68.219	138.186	218.062	61.744	162.292	360.057	268.435	218.573	331.458	397.408	0.00084725	0.0010705	0.00015233	1126.9	5.0814e-06	3.7335e-06	1228.8	234.96	7.1271e-06	1.8359e-06	302.54	84.748	66.387	19.331	9.5525e-06	26.946	0.00043637	0.00048365	0.00012285	1114.7	4.8984e-06	5.2157e-06	1214.8	238.35	4.913e-06	5.1966e-06	304.4	86.74	69.457	21.036	4.7483e-06	28.657	101.222	223.388	143.059	66.889	178.521	365.503	66.695	74.392	171.408	105.343	73.879	80.968	81.103	88.040	130.939	87.448	-8191	255	
6646.747	1	1	0	0	0.14553	0.092529	0.064979	0.38942	0.1231	0.13618	0.072502	0.093492	0.03058	0.026944	0.095228	0.16682	0.15776	0.14	0.15821	0.098517	-1.6083	-2.1521	-1.65	-2.4417	-2.0625	-1.9479	-2.5521	-1.9125	-1.9625	-2.1625	-1.6292	-2.3396	-2.1146	-1.8625	-2.2938	-1.8396	361.059	155.291	275.033	382.393	145.960	87.744	276.675	381.739	142.813	86.156	106.437	387.537	72.428	110.256	124.033	140.633	0.00071641	0.00013671	0.00021359	1132	6.7219e-06	3.0998e-06	1231.8	237.13	2.3062e-06	3.3235e-06	300.78	85.216	65.89	19.208	5.3792e-06	26.89	0.00046873	0.00046865	0.00012229	1116.5	5.2401e-06	5.1455e-06	1215.7	239.21	5.3132e-06	5.1625e-06	304.35	87.295	70.192	21.03	4.7595e-06	28.81	97.529	242.818	376.892	66.962	142.906	407.514	66.871	74.449	176.337	166.465	73.847	80.943	81.406	88.443	389.113	87.822	-8191	255	
6646.843	1	1	0	0	0.27894	0.043631	0.10324	0.10964	0.048572	0.18559	0.26218	0.013965	0.37651	0.19711	0.13006	0.045681	0.13389	0.23006	0.14263	0.20363	-1.5167	-2.0354	-1.6292	-2.425	-1.8208	-1.7771	-2.5146	-1.9646	-1.9729	-2.3771	-1.8083	-2.2792	-2.0417	-1.9125	-2.2479	-1.8854	83.611	77.432	289.469	65.970	309.932	400.494	387.273	134.676	393.499	252.838	245.760	64.970	192.856	66.207	320.882	160.230	0.00062048	4.8693e-05	0.00030205	1136.7	4.9076e-06	2.578e-06	1231.4	236.98	3.2464e-06	3.936e-06	302.76	84.574	66.434	19.188	3.761e-06	26.89	0.00049091	0.0004585	0.00012051	1119.9	5.4181e-06	4.9283e-06	1217.1	239.75	5.3945e-06	4.9515e-06	304.12	87.624	70.243	20.866	4.6095e-06	28.959	85.291	326.130	174.504	67.107	232.417	131.970	66.632	74.387	104.545	147.600	73.752	80.825	81.166	88.466	368.441	87.517	-8191	255	
6646.939	1	1	0	0	0.22701	0.29066	0.27795	0.26373	0.13073	0.20938	0.40224	0.28219	0.070965	0.27557	0.090714	0.15515	0.099318	0.10967	0.11101	0.16928	-1.5375	-2.3104	-1.7458	-2.3771	-1.9667	-1.7625	-2.7292	-1.9458	-1.9104	-2.3208	-1.7083	-2.0938	-2.1271	-1.775	-2.2229	-1.925	163.142	81.880	232.845	331.829	307.610	77.403	338.544	69.181	320.026	217.903	136.375	260.952	396.079	306.431	256.689	355.768	0.00077246	0.00037734	0.00010365	1136.9	5.2945e-06	1.9821e-06	1230.5	236.97	2.7115e-06	2.1241e-06	301	84.249	65.721	19.368	4.2737e-06	27.03	0.0004854	0.00044436	0.00011749	1124.9	5.2877e-06	4.8401e-06	1213.6	240.89	5.2109e-06	4.7869e-06	303.45	88.28	69.709	20.824	4.7026e-06	29.415	83.850	342.985	183.901	66.864	189.490	309.551	66.914	74.306	63.873	363.149	74.048	80.698	80.904	88.202	228.231	87.715	-8191	255	
6647.058	1	1	0	0	0.10797	0.14829	0.21515	0.14602	0.070502	0.11312	0.1937	0.42326	0.16465	0.16503	0.25404	0.21637	0.15271	0.33108	0.22823	0.25875	-1.5792	-2.4313	-1.6562	-2.0479	-2.2917	-1.7979	-2.3146	-2.2146	-1.85	-2.2896	-1.8104	-2.0417	-2.0604	-1.6958	-2.1208	-1.8729	192.643	120.906	250.940	314.596	66.926	335.626	313.273	373.154	216.796	92.156	121.660	74.507	62.330	105.525	184.416	337.038	0.00037905	0.00049148	7.7655e-05	1131.8	1.1058e-06	2.8027e-07	1235	237.31	2.1419e-06	4.1174e-06	304.51	85.138	65.833	19.206	1.6429e-06	27.209	0.00047697	0.00044268	0.00012181	1127.4	5.2681e-06	4.8539e-06	1217	242.78	5.218e-06	4.8491e-06	306.45	88.97	69.723	20.785	4.9203e-06	29.557	95.426	310.042	106.943	66.890	223.725	405.767	66.844	74.505	322.551	369.750	74.073	81.049	81.147	88.528	340.430	87.486	-8191	255	
6647.154	1	1	0	0	0.21575	0.1689	0.13803	0.22296	0.08711	0.37448	0.1624	0.27092	0.11144	0.18816	0.31045	0.18556	0.17497	0.088554	0.3372	0.13651	-1.3542	-2.4229	-1.8458	-2.1208	-2.125	-1.6521	-2.4583	-2.0417	-1.8062	-2.3833	-1.8667	-1.9917	-2.2062	-1.625	-2.1937	-1.975	135.872	398.595	332.750	386.280	149.497	73.172	306.151	337.701	237.701	123.269	285.818	336.799	280.530	185.196	278.054	232.496	0.00030376	0.00053695	0.00021419	1129.2	7.0512e-06	3.1028e-06	1234.4	237.62	4.2374e-06	2.6464e-06	300.74	84.651	65.83	19.278	1.0586e-05	26.8	0.00045997	0.00043512	0.00012726	1126.6	5.0029e-06	4.6879e-06	1219.6	242.27	4.893e-06	4.5944e-06	306.12	88.603	69.061	20.658	5.0384e-06	29.248	407.194	278.349	177.703	66.714	283.027	291.245	66.852	74.637	142.348	232.048	74.090	80.797	81.243	88.161	229.863	87.045	-8191	255	
6647.250	1	1	0	0	0.16838	0.059163	0.21898	0.14146	0.14322	0.30048	0.21202	0.27155	0.29256	0.13258	0.14141	0.18312	0.22344	0.19312	0.28942	0.15562	-1.1771	-2.3542	-1.8896	-2.1479	-2.225	-1.8292	-2.2729	-2.2354	-1.7021	-2.3042	-1.9458	-2.0771	-2.2229	-1.7896	-1.9438	-2.1354	103.616	341.526	187.111	367.652	289.994	185.864	72.741	327.656	346.233	261.034	320.858	148.220	292.844	71.052	383.861	343.626	0.00018765	0.00031178	0.00017125	1130	1.5749e-06	9.5494e-06	1239	236.98	1.0483e-06	6.6311e-06	303.98	85.235	66.684	19.337	5.6854e-06	26.974	0.00042921	0.00041053	0.00012863	1122.2	4.7034e-06	4.4881e-06	1224	241.28	4.6588e-06	4.5304e-06	308.19	88.181	69.053	20.721	5.3533e-06	29.225	100.071	69.491	147.034	66.760	210.692	199.249	66.809	74.479	206.361	243.081	74.291	80.812	80.538	88.455	179.702	87.525	-8191	255	
6647.322	1	1	0	0	0.14451	0.064899	0.11561	0.098572	0.21706	0.24171	0.010814	0.27797	0.29406	0.12077	0.094328	0.25343	0.29262	0.17776	0.14239	0.19499	-1.1646	-2.4208	-1.9146	-1.9396	-2.1271	-1.5812	-2.2687	-2.2958	-1.7687	-2.0229	-2.0167	-1.8	-2.3125	-1.6875	-1.9375	-2.1562	154.761	188.409	159.253	375.712	239.104	90.067	255.301	391.321	66.129	280.716	114.382	326.218	400.975	68.589	337.056	403.364	0.00076511	0.00039534	0.00020011	1125.8	5.7946e-06	9.8663e-06	1230.4	237.05	1.613e-06	2.6968e-06	302.43	85.031	66.01	19.198	5.8251e-06	26.966	0.00043503	0.00042967	0.0001389	1121	4.7774e-06	4.8042e-06	1225.8	240.98	4.7619e-06	4.9309e-06	309.85	88.166	69.01	20.918	5.573e-06	29.064	71.341	112.599	165.832	66.783	154.460	177.222	66.804	74.574	250.943	231.605	73.935	80.858	81.361	88.437	232.511	87.286	-8191	255	
6647.443	1	1	0	0	0.26946	0.12775	0.04088	0.24736	0.11843	0.10391	0.15242	0.17121	0.12409	0.032969	0.20622	0.084375	0.33843	0.03484	0.19467	0.073948	-0.96042	-2.0563	-1.9083	-1.9458	-2.2667	-1.7208	-1.9688	-2.175	-1.7062	-2.2729	-2.2917	-1.7896	-2.4083	-1.8062	-2.0333	-2.1937	169.811	265.243	128.690	60.946	138.452	332.718	381.920	289.721	71.900	69.941	336.106	154.810	199.860	305.148	72.205	102.327	0.00044236	0.00028927	4.2223e-05	1126.7	1.2849e-06	6.3935e-06	1233.6	238.58	6.7109e-06	6.4618e-06	302.09	84.433	66.385	19.209	3.2545e-06	26.736	0.00042991	0.00046356	0.00014187	1118.8	4.6866e-06	5.1179e-06	1224.5	240.88	4.6913e-06	5.2089e-06	308.72	87.703	68.936	21.145	5.4173e-06	28.984	107.197	214.251	408.802	66.800	226.420	217.334	66.892	74.610	101.614	234.448	73.790	80.953	81.347	88.185	228.606	88.159	-8191	255	
6647.539	1	1	0	0	0.16485	0.17354	0.038699	0.40597	0.077527	0.086209	0.19412	0.17624	0.17214	0.24552	0.20963	0.17576	0.097708	0.22228	0.29717	0.11329	-1.3563	-2.0625	-2.2125	-1.8542	-2.3	-1.9271	-2.0604	-2.2792	-1.6708	-2.1792	-2.1917	-1.7646	-2.1208	-1.9	-1.6854	-2.4896	412.208	354.420	256.456	323.117	338.813	313.242	393.325	345.814	92.046	122.448	199.240	269.056	392.851	392.768	176.025	202.254	0.00079422	0.00083032	0.00016123	1130.2	3.1103e-06	4.71e-06	1231.7	237.64	8.7513e-06	5.7657e-06	303.25	85.08	66.41	19.235	5.07e-06	27.055	0.00043263	0.00049185	0.00013774	1120.7	4.7898e-06	5.5181e-06	1224.1	240.77	4.9004e-06	5.6431e-06	309.53	88.014	69.501	21.44	5.4728e-06	29.13	90.154	181.200	306.603	66.873	172.769	147.627	66.755	74.509	168.867	121.723	73.784	80.624	81.202	88.093	212.410	86.926	-8191	255	
6647.635	1	1	0	0	0.13744	0.33707	0.1796	0.068593	0.14014	0.23412	0.28379	0.23931	0.072624	0.024451	0.074417	0.086154	0.083181	0.061426	0.2138	0.18452	-1.2917	-1.9646	-2.1833	-1.7917	-2.1437	-1.9771	-1.9958	-2.4188	-1.8875	-2.0208	-2.2562	-1.6083	-2.2625	-2.0083	-1.8188	-2.4167	355.753	229.664	122.222	62.009	416.253	251.422	359.168	63.329	401.780	268.268	348.074	392.847	114.258	166.303	180.732	235.611	0.00056529	0.00017848	6.2867e-05	1132.3	9.9856e-06	4.8811e-06	1231.8	239.08	5.8576e-06	5.2187e-06	302.81	84.58	65.904	19.198	4.6766e-06	26.798	0.00046289	0.00052611	0.00013838	1122.4	5.1653e-06	5.8056e-06	1224.6	241.75	5.2089e-06	5.7128e-06	307.94	87.704	69.802	21.359	5.1856e-06	28.911	94.131	80.685	150.626	66.795	175.057	169.074	66.700	74.397	161.622	174.775	73.952	80.977	81.112	88.162	195.134	87.416	-8191	255	
6647.731	1	1	0	0	0.3136	0.13617	0.065371	0.15904	0.12909	0.074315	0.11771	0.21072	0.11801	0.19028	0.12665	0.1627	0.023884	0.21879	0.13179	0.12686	-1.4	-1.9125	-2.0729	-1.6792	-2.125	-2.0146	-1.9417	-2.2958	-1.7375	-1.9	-2.4083	-1.725	-2.0271	-2.225	-1.6083	-2.475	88.618	338.556	248.814	70.339	325.711	143.312	376.912	319.808	219.200	394.412	127.670	317.023	214.687	375.124	56.948	74.023	0.00069862	0.00065098	7.446e-05	1128.6	6.1329e-06	4.8889e-06	1239.9	237.22	1.2915e-05	1.24e-06	300.77	85.316	66.759	19.169	3.1255e-06	26.976	0.00048746	0.00051234	0.00013202	1119.7	5.409e-06	5.6315e-06	1224	240.36	5.5443e-06	5.5829e-06	306.91	87.915	70.574	21.244	5.1028e-06	28.998	75.644	111.771	281.791	66.682	194.368	319.159	66.755	74.263	186.051	301.795	74.025	80.684	81.090	88.164	90.647	87.875	-8191	255	
6647.850	1	1	0	0	0.19086	0.1852	0.1877	0.30543	0.18257	0.1107	0.092351	0.091659	0.2231	0.088916	0.1949	0.17111	0.098577	0.095869	0.11208	0.028402	-1.5604	-1.9208	-2.1979	-1.8937	-2.0542	-2.1833	-1.8167	-2.2167	-1.9312	-1.8604	-2.3438	-1.8958	-1.9646	-2.2	-1.7437	-2.1688	293.289	198.611	361.805	408.222	60.307	106.004	351.662	171.698	154.026	184.242	138.663	105.028	151.590	202.729	225.155	190.031	0.00061144	0.00085	0.00023383	1130.6	5.7767e-06	4.5623e-08	1238.7	237.36	7.8782e-06	3.5085e-06	301.92	84.537	66.485	19.165	4.3058e-06	27.225	0.00051782	0.00049904	0.00013125	1120.8	5.7072e-06	5.4659e-06	1223.8	241.38	5.8099e-06	5.401e-06	307.11	88.214	71.111	21.189	5.085e-06	29.371	62.086	233.559	169.969	66.982	75.482	114.690	66.913	74.631	159.502	193.712	73.897	80.599	81.398	88.379	132.201	87.374	-8191	255	
6647.923	1	1	0	0	0.14273	0.31416	0.22802	0.18495	0.064682	0.31	0.091133	0.011072	0.11024	0.15036	0.13006	0.27047	0.13214	0.062351	0.12057	0.13365	-1.6896	-1.7708	-2.3292	-1.9083	-1.9042	-2.2396	-1.5896	-2.2313	-1.8771	-1.7188	-2.375	-1.7792	-2.0833	-2.1333	-1.6333	-2.1437	106.737	276.430	163.210	354.588	261.278	222.939	370.303	239.635	152.798	326.987	382.417	403.821	374.329	106.534	133.202	210.463	0.00055888	0.0003093	5.5484e-05	1133.9	4.8518e-06	2.9507e-06	1233.8	237.98	9.393e-06	3.3402e-06	302.4	85.036	66.282	19.369	2.3905e-06	27.141	0.00053584	0.00048675	0.00012868	1125.1	5.7408e-06	5.3001e-06	1217.4	242.36	5.7161e-06	5.1607e-06	306.36	89.008	70.548	21.066	4.9309e-06	29.584	75.061	280.096	247.994	66.874	111.932	197.581	66.730	74.538	204.748	248.404	73.757	80.662	80.911	88.264	414.026	87.303	-8191	255	
6648.020	1	1	0	0	0.17958	0.08731	0.2402	0.50525	0.10565	0.078001	0.30261	0.25065	0.13135	0.072327	0.25581	0.26372	0.40274	0.055383	0.24538	0.15639	-1.5417	-1.7208	-2.2938	-1.8854	-2.0479	-2.1771	-1.95	-2.2833	-2.1042	-1.8479	-2.4813	-1.8062	-2.0604	-2.3812	-1.8229	-2.1562	204.858	166.571	221.000	404.128	86.525	381.153	362.644	348.418	95.514	63.846	357.334	347.964	415.458	231.396	277.861	209.931	0.00031672	0.000402	0.00014153	1128.5	3.0501e-06	2.935e-06	1232.1	236.92	7.0267e-06	3.0374e-06	302.93	84.533	66.439	19.328	7.9582e-06	26.934	0.00051736	0.00047327	0.00012655	1128	5.6492e-06	5.2014e-06	1219.5	243.46	5.6145e-06	5.1487e-06	305.9	89.561	70.428	21.031	5.0196e-06	29.694	88.368	241.295	135.486	66.858	194.790	219.864	66.811	74.561	286.653	72.528	73.975	80.693	80.713	88.483	188.443	87.472	-8191	255	
6648.138	1	1	0	0	0.077308	0.23314	0.25508	0.1836	0.26494	0.18883	0.037063	0.26505	0.094815	0.032434	0.11008	0.23303	0.092163	0.24884	0.12668	0.15882	-1.7979	-1.8813	-2.0875	-2.2896	-1.8687	-2.4083	-1.9333	-2.3563	-2.1729	-1.5729	-2.3708	-2.0812	-1.9479	-2.25	-1.6917	-2.0917	232.429	262.230	404.425	266.072	335.155	335.335	80.401	374.527	200.107	358.910	326.130	412.673	198.713	381.003	148.437	118.364	0.00026549	0.00044688	0.00011643	1126	7.4268e-06	2.4618e-06	1242.1	236.63	7.0284e-06	2.296e-06	302.29	85.163	66.195	19.256	6.7118e-06	27.204	0.00049165	0.00045408	0.00012835	1128.6	5.1886e-06	4.9187e-06	1221.4	243.09	5.17e-06	4.7633e-06	305.99	89.334	69.525	20.831	5.111e-06	29.654	89.331	63.279	93.462	66.831	122.225	77.475	66.774	74.182	212.437	330.788	73.628	80.955	80.907	88.049	212.750	87.419	-8191	255	
6648.235	1	1	0	0	0.11963	0.49088	0.20639	0.15253	0.034053	0.15666	0.1897	0.18447	0.20926	0.11969	0.12929	0.17005	0.071693	0.042647	0.27287	0.068691	-1.6854	-1.5229	-2.3125	-2.1979	-1.7771	-2.3	-1.9167	-2.2271	-2.2146	-1.5729	-2.1417	-2.0583	-1.775	-2.3396	-1.8188	-1.9208	377.563	296.127	280.441	102.613	57.467	316.157	118.600	153.409	221.013	227.858	360.837	293.630	96.851	326.654	247.900	234.031	0.00052706	0.00056332	0.00022266	1131.7	5.7734e-06	1.4927e-06	1234.1	237.03	5.0003e-06	7.4655e-06	304.44	84.836	66.107	19.185	2.6395e-06	26.801	0.00046123	0.00042947	0.00013218	1127.3	4.9419e-06	4.7244e-06	1220.5	242.34	4.9541e-06	4.653e-06	308.47	88.954	69.312	20.729	5.4047e-06	29.363	88.591	161.617	148.259	66.829	173.254	290.928	66.820	74.403	201.346	209.727	73.871	80.760	81.030	88.176	337.885	87.690	-8191	255	
6648.331	1	1	0	0	0.11828	0.1071	0.096525	0.27369	0.048711	0.047401	0.18244	0.17039	0.23567	0.16168	0.07215	0.087037	0.28753	0.30948	0.3111	0.12417	-1.8042	-1.5271	-2.2146	-2.1	-1.5708	-2.4042	-2.0667	-1.8875	-2.3208	-1.5604	-2.0521	-2.3646	-1.7271	-2.2771	-1.8646	-2.0167	197.837	297.643	262.205	67.678	367.363	106.233	354.500	262.946	162.895	270.209	301.059	66.529	365.553	298.493	291.810	381.461	0.0006746	0.00073715	0.00020339	1130.6	2.7747e-06	4.2449e-06	1237.3	238.66	7.6825e-06	4.5016e-06	302.33	85.052	66.13	19.181	1.2395e-06	26.754	0.00044511	0.00042917	0.00013989	1125.6	4.888e-06	4.7664e-06	1226.1	242.61	4.9255e-06	4.844e-06	309.5	88.609	69.246	20.945	5.6476e-06	29.229	68.007	164.760	243.774	66.723	189.550	79.671	66.926	74.424	213.257	200.179	73.614	80.574	81.052	87.746	239.323	87.502	-8191	255	
6648.427	1	1	0	0	0.23204	0.25039	0.29909	0.17884	0.2502	0.20535	0.24624	0.11183	0.02969	0.22007	0.035596	0.18154	0.23717	0.086439	0.21099	0.17755	-2.0333	-1.9125	-1.9479	-2.4375	-1.5896	-2.0896	-2.2542	-1.8771	-2.0792	-1.8146	-2.1375	-2.1979	-1.8167	-2.2021	-2.0812	-1.8792	297.096	391.928	123.188	306.038	113.974	74.016	345.927	319.098	188.431	376.162	362.038	291.521	59.343	323.873	243.781	349.830	0.00062076	0.00088724	5.1029e-05	1128.8	5.618e-06	7.6031e-06	1239.9	237.59	5.1442e-06	2.4897e-06	303.07	84.801	66.239	19.282	1.2715e-05	27.139	0.00044262	0.0004505	0.00014237	1123	4.7509e-06	4.965e-06	1229.3	241.18	4.7371e-06	4.9836e-06	309.33	87.869	69.03	20.987	5.4956e-06	29.095	415.267	157.018	275.004	66.795	135.693	194.367	66.889	74.463	183.913	203.090	74.101	80.625	81.199	88.220	279.624	87.563	-8191	255	
6648.547	1	1	0	0	0.31016	0.031904	0.16586	0.2098	0.2702	0.14695	0.49186	0.046701	0.28298	0.17298	0.17602	0.15305	0.13345	0.1546	0.17167	0.21083	-1.9917	-1.8146	-1.9417	-2.4062	-1.8604	-2.2375	-2.2771	-1.9708	-2.2562	-1.9667	-1.9667	-2.2375	-1.7896	-2.2875	-2.0854	-1.6938	109.821	374.373	401.755	377.213	222.768	151.000	345.617	74.821	124.976	238.338	348.143	401.786	273.530	85.409	86.243	380.082	0.00073086	0.00010834	9.8428e-05	1124.6	3.0766e-06	3.8004e-06	1231.2	238.08	4.862e-06	1.5235e-06	300.98	84.911	65.816	19.309	4.8038e-06	27.129	0.00042595	0.00046974	0.00013704	1118.4	4.6418e-06	5.1733e-06	1222.5	240.53	4.5887e-06	5.2715e-06	307.54	87.697	68.789	21.135	5.2369e-06	28.86	109.503	144.867	257.641	66.866	235.869	159.763	66.945	74.544	213.385	75.226	73.980	80.931	81.127	88.033	397.179	87.125	-8191	255	
6648.619	1	1	0	0	0.090231	0.45313	0.048217	0.15264	0.32067	0.23555	0.5087	0.23407	0.092569	0.098322	0.24187	0.10737	0.13304	0.21132	0.16163	0.21037	-1.825	-1.975	-1.9729	-2.5104	-1.7875	-2.0958	-2.3708	-1.7521	-2.275	-1.9042	-1.8667	-2.4771	-1.7229	-2.1396	-2.3833	-1.675	103.594	75.159	117.731	367.993	97.830	382.660	344.746	342.092	229.471	239.805	64.857	59.724	371.431	371.722	301.563	63.255	0.00087633	0.00018603	0.00013614	1129.5	7.8782e-06	8.0213e-06	1231.5	237.34	7.3932e-06	5.9833e-06	300.88	85.003	66.433	19.351	3.6489e-06	26.852	0.00042174	0.00049039	0.00013195	1117.2	4.6881e-06	5.3714e-06	1219.8	240.01	4.7961e-06	5.4833e-06	306.5	87.578	69.317	21.215	5.0502e-06	28.861	82.503	341.174	392.439	67.054	176.834	119.665	66.838	74.418	186.920	235.579	73.903	80.920	81.245	88.560	338.546	87.409	-8191	255	
6648.740	1	1	0	0	0.071006	0.33989	0.10646	0.30255	0.054742	0.28443	0.31936	0.19781	0.016117	0.067179	0.044891	0.058953	0.25569	0.21311	0.046843	0.17655	-1.8708	-1.9312	-1.7104	-2.7521	-1.6083	-2.0896	-2.3688	-2.0917	-2.3271	-2.0729	-1.7188	-2.6479	-1.7854	-1.9021	-2.2125	-1.6417	157.834	258.820	84.170	412.579	278.089	257.441	260.615	380.573	201.416	368.054	333.697	307.425	416.391	404.055	161.459	390.534	0.00066825	0.00047865	4.5023e-05	1125.2	6.3404e-06	4.0457e-06	1233.9	236.92	9.1518e-06	1.6189e-06	301.67	84.204	66.062	19.316	8.6416e-06	26.947	0.00044429	0.00049462	0.00012694	1114.1	4.9647e-06	5.403e-06	1218	239.36	4.9514e-06	5.3605e-06	305.15	86.875	69.575	21.154	4.8393e-06	28.673	94.962	189.657	410.107	66.847	186.263	193.630	66.833	74.552	187.999	80.114	74.085	80.692	81.029	88.111	287.863	87.495	-8191	255	
6648.836	1	1	0	0	0.087479	0.18544	0.047923	0.27467	0.037838	0.030707	0.10268	0.11653	0.095874	0.092116	0.033229	0.09138	0.34464	0.11527	0.16334	0.10242	-1.7458	-2.0938	-1.7958	-2.4167	-1.8563	-1.8167	-2.3104	-1.6771	-2.0708	-2.275	-1.7625	-2.4333	-1.8292	-1.8333	-2.4417	-1.7396	286.815	165.016	341.952	364.472	63.278	100.230	254.002	211.428	109.585	360.959	202.646	403.507	373.616	351.868	335.947	383.825	0.00060094	0.00065218	5.6073e-05	1130.9	3.5348e-06	7.1461e-06	1235.5	237.97	5.7611e-06	5.674e-06	302	84.202	66.177	19.289	1.0663e-05	27.133	0.00046148	0.00047063	0.00012035	1114.2	5.0517e-06	4.9622e-06	1213.9	238.89	5.0953e-06	4.9642e-06	303.88	86.774	69.824	20.9	4.6366e-06	28.702	86.515	377.928	211.465	66.810	145.755	278.868	67.030	74.698	179.761	384.625	73.827	81.375	80.826	88.242	177.317	87.816	-8191	255	
6648.930	1	1	0	0	0.14912	0.14382	0.23128	0.32017	0.2674	0.07865	0.42115	0.31489	0.14777	0.15698	0.21308	0.097127	0.081076	0.24252	0.17783	0.26016	-1.675	-2.1667	-1.8292	-2.625	-2.0375	-1.7375	-2.4104	-1.7792	-2.0229	-2.2583	-1.7229	-2.125	-1.975	-1.7625	-2.3354	-1.9396	230.667	371.325	264.857	371.031	100.302	117.154	316.092	381.857	210.706	318.387	338.595	69.777	348.491	397.297	392.793	395.481	0.00064545	0.00064121	7.5147e-05	1125.8	4.8324e-06	1.6748e-06	1229.3	237.52	6.9011e-06	2.5111e-06	302.53	85.499	65.822	19.153	6.9013e-06	26.872	0.00047351	0.00045111	0.00011759	1112.4	5.2552e-06	4.8703e-06	1212	239.92	5.2433e-06	4.8557e-06	303.51	87.4	69.803	20.716	4.5224e-06	28.921	74.268	388.036	415.354	66.671	190.907	155.946	66.899	74.920	202.344	244.452	73.915	80.666	81.241	88.351	169.041	87.447	-8191	255	
6649.026	1	1	0	0	0.1492	0.39871	0.08894	0.18634	0.18577	0.092232	0.21853	0.29747	0.12312	0.12935	0.05572	0.16667	0.16015	0.17172	0.36215	0.065598	-1.5562	-2.3292	-1.65	-2.35	-2.05	-1.7792	-2.2771	-1.8396	-1.7583	-2.275	-1.75	-2.1896	-2.275	-1.9708	-2.3187	-1.8833	162.423	238.598	278.820	377.068	141.308	318.942	62.142	323.139	346.658	217.489	353.586	343.954	299.597	91.945	118.121	260.687	0.00056084	0.00032013	0.00013981	1131.4	3.8836e-06	7.8207e-06	1227.6	237.19	5.2693e-06	2.8302e-06	302.8	84.957	66.478	19.186	1.3697e-06	26.954	0.00047226	0.00043144	0.00011471	1117	5.1983e-06	4.6558e-06	1207.5	240.62	5.112e-06	4.6717e-06	302.96	87.801	69.72	20.683	4.4939e-06	29.086	90.523	242.209	79.722	66.661	244.099	240.453	67.259	74.763	375.222	120.537	74.071	80.731	81.145	88.323	178.714	88.080	-8191	255	
6649.147	1	1	0	0	0.13674	0.17861	0.20101	0.14537	0.15661	0.17605	0.24348	0.5735	0.054556	0.2007	0.14911	0.082411	0.23597	0.4503	0.25148	0.33128	-1.5771	-2.3667	-1.6792	-2.2313	-2.2542	-1.8563	-2.4229	-2.0625	-1.8188	-2.3792	-1.7313	-1.9979	-2.2	-1.7333	-2.2896	-1.8604	189.015	92.024	406.803	364.671	70.019	251.337	295.007	349.730	286.061	182.391	251.854	117.321	380.451	394.688	74.354	395.129	0.00033945	0.00055769	0.00011291	1127.8	6.9899e-06	4.8674e-06	1224.9	237.61	7.5709e-06	2.6581e-06	301.22	84.57	65.832	19.277	7.7462e-06	27.045	0.00045373	0.00042007	0.00011461	1117.6	4.9255e-06	4.5286e-06	1207.4	240.85	4.7713e-06	4.4342e-06	301.91	87.706	68.771	20.52	4.4373e-06	29.096	110.897	257.491	92.336	66.874	312.675	69.612	66.924	74.592	176.982	225.548	73.994	80.671	81.098	88.237	193.799	87.476	-8191	255	
6649.219	1	1	0	0	0.081192	0.34106	0.15631	0.14847	0.11692	0.16554	0.10535	0.12597	0.07866	0.090815	0.06714	0.21394	0.2173	0.29294	0.26657	0.22815	-1.2938	-2.3833	-1.5083	-2.1542	-2.0792	-1.8208	-2.5146	-2.1792	-1.8521	-2.3146	-1.9042	-2.1604	-2.2812	-1.8104	-2.1771	-2.1542	181.812	310.801	255.101	161.207	161.099	105.832	374.999	222.698	331.501	68.791	315.027	384.921	351.657	286.099	345.440	104.682	0.00049533	0.00016508	0.00019896	1124.8	7.6948e-06	8.6048e-07	1230.3	236.93	4.094e-06	5.7729e-06	300.93	84.587	65.537	19.184	1.4271e-05	26.886	0.00042125	0.00039624	0.00011575	1116.6	4.6379e-06	4.3389e-06	1209.5	240.42	4.6335e-06	4.3826e-06	303.9	87.931	68.473	20.485	4.8858e-06	29.135	102.323	218.535	163.699	66.977	224.444	117.129	66.827	74.604	250.171	137.111	74.203	81.172	80.816	88.496	227.210	87.538	-8191	255	
6649.315	1	1	0	0	0.19773	0.2317	0.11945	0.059172	0.019844	0.27446	0.12605	0.3876	0.41414	0.14989	0.23409	0.18374	0.22913	0.22715	0.13501	0.22207	-1.2604	-2.2938	-1.8854	-2.1792	-2.0646	-1.6708	-2.2729	-2.0187	-1.8563	-2.2958	-1.9229	-2.1208	-2.4229	-1.7437	-2.0812	-2.2958	371.980	369.365	345.922	108.581	273.528	118.683	335.566	373.619	221.675	247.469	68.079	265.562	369.846	349.835	361.661	70.452	0.00061933	0.00042564	0.00022705	1121.1	3.2037e-06	3.2474e-06	1231.8	236.55	2.1292e-06	1.0243e-06	301.63	84.878	65.943	19.317	3.9463e-06	26.809	0.0004226	0.00039864	0.00012732	1116.2	4.6105e-06	4.3941e-06	1215.4	240.01	4.5851e-06	4.4241e-06	305.48	87.735	68.536	20.592	5.1784e-06	28.966	94.493	182.500	127.102	66.910	218.568	245.027	66.905	74.302	395.308	340.625	73.805	80.819	80.744	88.483	119.758	87.528	-8191	255	
6649.411	1	1	0	0	0.3201	0.17525	0.15369	0.28484	0.11245	0.10504	0.28492	0.098348	0.035845	0.12123	0.032647	0.18129	0.26099	0.42834	0.36248	0.16411	-1.1104	-2.1042	-1.9896	-1.8979	-2.2729	-1.7146	-2.1354	-2.1125	-1.6104	-2.4875	-2.1208	-1.7875	-2.3271	-1.8729	-1.8917	-2.3104	357.251	181.333	185.827	405.345	317.355	402.421	360.048	74.214	111.315	77.479	360.119	87.549	72.946	392.585	182.033	324.853	0.00029724	0.00060664	0.00034551	1126.7	2.6974e-06	6.7781e-06	1224.8	235.87	3.8144e-06	3.059e-06	300.42	84.907	66.385	19.116	7.3615e-06	26.796	0.00041567	0.0004063	0.0001327	1114.5	4.5266e-06	4.5245e-06	1216	239.41	4.4898e-06	4.5785e-06	305.93	87.174	68.322	20.621	5.1813e-06	28.777	125.887	155.523	147.425	66.739	215.830	179.858	66.945	74.287	216.711	140.429	73.718	80.734	80.749	88.019	231.107	87.279	-8191	255	
6649.507	1	1	0	0	0.13712	0.19523	0.16088	0.48268	0.17206	0.20747	0.11315	0.32471	0.18172	0.26044	0.29733	0.0722	0.20245	0.37609	0.29582	0.2722	-1.1313	-2.0542	-1.8396	-1.7771	-2.2792	-1.7313	-2.0042	-2.3292	-1.575	-2.1792	-2.0771	-1.8042	-2.4125	-1.8625	-2.0521	-2.3042	84.090	293.805	82.576	388.570	126.727	78.174	381.835	363.577	136.912	126.895	332.639	324.383	192.693	413.790	123.821	301.014	0.0005723	0.00070471	5.8912e-05	1120	6.2776e-06	1.1036e-05	1225.6	236.63	8.538e-07	3.2095e-06	298.88	84.73	65.612	19.224	5.9752e-06	26.766	0.0004047	0.00042716	0.00013196	1109.3	4.3333e-06	4.7617e-06	1211.9	238.56	4.3152e-06	4.735e-06	304.79	86.711	67.526	20.682	4.9027e-06	28.509	73.445	103.257	393.582	67.074	274.259	184.698	66.858	74.202	160.284	181.665	74.189	80.681	80.773	88.454	158.411	87.791	-8191	255	
6649.628	1	1	0	0	0.22517	0.037542	0.088008	0.32673	0.19722	0.30427	0.18466	0.15771	0.35802	0.18137	0.27408	0.18571	0.27664	0.19643	0.082226	0.07679	-1.2625	-2.1604	-2.0979	-1.8271	-2.3542	-1.7687	-2.1083	-2.5271	-1.7583	-2.0542	-2.2104	-1.9167	-2.2062	-1.8042	-1.9833	-2.4521	394.919	381.646	174.622	347.480	172.289	286.248	324.968	309.025	239.455	246.295	58.004	232.602	396.075	378.218	371.779	390.824	0.00054746	0.000419	0.00012797	1119.2	3.4334e-06	2.3363e-06	1220.8	236.2	5.0811e-06	6.4776e-07	300.79	85.037	65.318	19.165	9.2625e-06	26.88	0.00038485	0.00043827	0.00012443	1104.1	4.2231e-06	4.8883e-06	1208.9	237.27	4.3177e-06	4.9363e-06	302.98	86.379	67.679	20.815	4.7044e-06	28.32	97.997	149.673	226.633	66.770	255.916	331.535	66.738	74.530	237.093	72.136	73.720	80.979	81.354	87.998	230.191	87.835	-8191	255	
6649.724	1	1	0	0	0.075258	0.22649	0.13246	0.40905	0.13201	0.17072	0.29521	0.37125	0.17737	0.037453	0.17328	0.10697	0.27393	0.27083	0.18978	0.038039	-1.1646	-1.8667	-2.0667	-1.8021	-2.1896	-2.0083	-2.1125	-2.3646	-1.7583	-1.9854	-2.2333	-1.7667	-2.2333	-1.9562	-1.6313	-2.2458	380.249	230.743	390.336	339.333	62.630	114.434	366.419	316.944	179.138	281.888	305.883	93.226	405.103	315.190	111.927	132.228	0.00065562	0.00060279	0.00015456	1118.8	6.6838e-06	2.0027e-06	1215.6	235.24	5.7174e-06	1.1612e-06	298.41	84.03	65.753	19.011	4.6846e-06	26.998	0.00039788	0.00044974	0.00011703	1102.6	4.3431e-06	4.9371e-06	1201.5	235.93	4.4411e-06	4.9252e-06	301.26	85.733	67.867	20.754	4.5188e-06	28.269	99.184	149.442	256.923	66.862	209.172	104.835	66.891	74.626	158.898	348.205	74.373	80.988	81.437	88.418	291.273	87.800	-8191	255	
6649.820	1	1	0	0	0.1452	0.19226	0.14202	0.19818	0.16575	0.19031	0.39482	0.20911	0.21454	0.10405	0.13356	0.33006	0.032785	0.27414	0.2226	0.28535	-1.4	-1.7042	-2.0396	-1.7292	-2.2229	-2.1562	-1.8042	-2.4104	-1.7854	-1.8771	-2.1958	-1.6479	-2.0708	-2.0312	-1.5979	-2.3729	411.226	133.044	164.000	70.911	185.497	380.073	366.791	213.037	154.642	323.588	321.213	381.643	370.069	363.112	106.850	92.885	0.00091474	0.00052334	8.2794e-05	1117.2	8.2886e-06	3.6715e-06	1221.4	234.82	9.0206e-06	3.1254e-06	299.31	84.439	65.46	19.167	3.576e-06	27.017	0.00041708	0.00044237	0.00011418	1101	4.5956e-06	4.8116e-06	1199.7	235.58	4.707e-06	4.794e-06	300.29	85.827	68.501	20.649	4.4478e-06	28.247	91.129	121.896	120.527	66.759	135.129	56.719	66.932	74.228	199.671	414.417	73.914	80.765	81.121	88.634	364.099	87.715	-8191	255	
6649.916	1	1	0	0	0.094505	0.12481	0.29779	0.22347	0.28991	0.20759	0.14042	0.19767	0.30186	0.31888	0.26695	0.052243	0.13066	0.1503	0.17696	0.36834	-1.3312	-1.8563	-2.2792	-1.8521	-2.025	-2.1083	-1.9146	-2.1708	-1.7188	-1.6938	-2.2854	-1.575	-2.1771	-2.1188	-1.5917	-2.2979	136.065	199.793	208.869	74.005	149.764	306.015	309.237	367.663	392.887	298.104	78.396	218.719	67.339	225.131	407.450	138.244	0.00077379	0.0003908	0.00012223	1119.9	2.1202e-06	4.4728e-06	1217.2	235.71	5.0385e-06	2.6528e-06	298.94	84.347	65.504	19.066	2.9078e-06	26.672	0.00044449	0.00043247	0.00011187	1100.6	4.8907e-06	4.7118e-06	1199.5	236.25	4.9238e-06	4.6479e-06	299.88	86.199	68.856	20.569	4.3269e-06	28.286	85.658	367.952	90.065	66.943	232.948	365.468	66.917	74.604	160.618	183.064	73.738	80.395	81.425	88.465	281.887	87.826	-8191	255	
6650.012	1	1	0	0	0.1775	0.063873	0.046885	0.39587	0.23814	0.13482	0.18613	0.26943	0.082045	0.22802	0.18756	0.10176	0.23378	0.23552	0.055995	0.051473	-1.4042	-1.5167	-2.2167	-1.7229	-1.7083	-2.2812	-1.7875	-2.2687	-1.9229	-1.6208	-2.3187	-1.8542	-2.1437	-2.1562	-1.6958	-2.3021	122.629	313.135	233.670	396.090	112.197	329.377	395.226	398.152	383.233	58.580	291.935	261.385	116.487	218.885	340.467	373.212	0.00045745	0.00054535	8.763e-05	1117.7	2.0786e-06	1.5714e-06	1220.2	236.06	4.719e-06	3.2086e-06	299.09	84.201	65.724	18.945	1.2061e-06	26.792	0.00045613	0.00041884	0.00011036	1103.8	4.99e-06	4.5698e-06	1197.6	237.39	5.0158e-06	4.5258e-06	299.35	86.617	68.878	20.491	4.3224e-06	28.735	98.770	309.491	300.645	66.973	235.654	377.261	66.897	74.870	245.334	258.141	74.073	80.974	81.083	88.230	59.664	87.556	-8191	255	
6650.109	1	1	0	0	0.24821	0.19865	0.12669	0.11594	0.28025	0.22686	0.17504	0.16232	0.22208	0.07317	0.19962	0.14855	0.12133	0.2446	0.30102	0.25736	-1.5083	-1.7271	-2.3771	-1.8333	-1.7479	-2.25	-1.9771	-2.1042	-2.1021	-1.5875	-2.3625	-1.8583	-1.7437	-2.0812	-1.6	-2.2438	252.947	243.177	366.469	280.236	57.306	272.810	72.946	383.334	125.498	299.928	370.685	148.611	228.022	339.577	359.481	96.927	0.00041674	0.00082704	0.00011769	1119.3	5.8012e-06	1.2874e-06	1218.9	233.82	5.4097e-06	2.9663e-06	299.42	83.751	65.633	19.139	1.0388e-05	26.842	0.00044971	0.00041456	0.00011044	1107.8	4.9012e-06	4.5169e-06	1199.3	238.05	4.9105e-06	4.4871e-06	299.86	87.022	68.601	20.454	4.3934e-06	28.854	92.521	145.822	335.626	67.003	133.925	308.919	66.904	74.451	403.238	160.943	74.027	80.783	81.265	88.161	240.609	87.895	-8191	255	
6650.227	1	1	0	0	0.191	0.079214	0.081663	0.3148	0.21184	0.18536	0.29322	0.26905	0.20236	0.19999	0.10702	0.37544	0.1945	0.070265	0.18981	0.38786	-1.7188	-1.55	-2.3208	-1.9396	-1.6771	-2.3312	-1.7479	-2.0208	-2.1354	-1.5479	-2.2521	-2.125	-1.7646	-2.2583	-1.9458	-1.9417	294.142	80.313	325.815	393.994	120.908	372.456	387.704	407.354	105.772	176.459	311.648	64.039	58.812	354.807	100.587	370.070	0.00047078	0.00039361	0.00020672	1117.5	2.5966e-06	4.7732e-06	1218.3	235.81	1.2493e-06	3.2318e-06	298.56	84.394	64.972	19.128	5.8954e-06	26.792	0.0004363	0.00040676	0.0001114	1109.3	4.7151e-06	4.3613e-06	1199.8	239.03	4.6883e-06	4.3492e-06	300.34	87.588	68.009	20.41	4.545e-06	28.93	74.573	149.354	89.815	66.880	322.716	82.432	66.785	74.364	108.429	392.707	74.126	81.151	80.939	88.630	222.762	87.500	-8191	255	
6650.324	1	1	0	0	0.20224	0.19589	0.23497	0.47108	0.27442	0.20084	0.27146	0.22537	0.17197	0.19658	0.25076	0.12317	0.13398	0.052374	0.13545	0.12639	-1.6979	-1.5708	-1.9979	-2.375	-1.9167	-2.1396	-2.0042	-2.0771	-2.1063	-1.6042	-2.2188	-1.9375	-1.6896	-2.3187	-1.8438	-1.8625	111.778	185.509	325.343	401.849	355.320	212.046	403.300	379.147	157.538	244.492	327.332	345.757	344.165	276.999	342.059	156.574	0.00047223	0.00030617	0.00024632	1119.3	4.9272e-06	1.7993e-06	1215.8	235.38	1.6213e-06	8.6663e-07	298.25	84.229	65.95	19.193	1.0563e-05	26.582	0.00041578	0.00039098	0.00011706	1108.1	4.49e-06	4.2086e-06	1200.5	238.27	4.4635e-06	4.2367e-06	302.17	87.107	68.017	20.351	4.847e-06	28.764	113.922	84.479	153.508	67.043	196.289	220.420	66.901	74.472	407.026	130.574	73.697	80.769	81.322	87.926	179.104	88.033	-8191	255	
6650.420	1	1	0	0	0.19247	0.16011	0.17077	0.44747	0.097735	0.021819	0.30219	0.13273	0.066935	0.11111	0.045613	0.22941	0.093687	0.07202	0.091012	0.13216	-1.9062	-1.6187	-2.1125	-2.1937	-1.7146	-2.5292	-1.925	-1.9229	-2.425	-1.7896	-2.2125	-2.1729	-1.6313	-2.3042	-1.9125	-1.9771	224.632	378.825	271.221	63.267	391.323	95.572	350.389	63.560	133.399	371.210	361.745	94.964	63.743	185.924	270.846	272.063	0.00073258	8.1171e-05	9.0702e-05	1119.3	3.18e-06	9.336e-06	1225.2	234.87	8.4543e-06	3.2881e-07	299.46	84.506	65.751	19.092	5.2734e-06	26.87	0.00040479	0.00039074	0.0001237	1109.6	4.4158e-06	4.2285e-06	1208.8	237.92	4.3749e-06	4.339e-06	303.45	87.061	67.927	20.368	5.0086e-06	28.661	405.518	87.656	108.987	67.045	295.323	203.074	66.751	74.606	252.014	254.446	74.092	80.614	81.063	88.136	383.457	87.481	-8191	255	
6650.516	1	1	0	0	0.10857	0.32362	0.39167	0.11078	0.1455	0.02733	0.15385	0.12008	0.21195	0.26291	0.27118	0.18797	0.015351	0.23846	0.05168	0.1418	-1.8479	-1.6896	-1.8438	-2.3417	-1.475	-2.0958	-2.0958	-1.7542	-2.3021	-1.8979	-2.1437	-2.1583	-1.6417	-2.2292	-2.1208	-1.8625	118.689	336.409	374.047	378.370	77.417	121.629	362.463	258.377	403.149	333.732	360.026	323.403	370.681	214.961	139.690	277.158	0.0004105	0.00058993	0.00012152	1118.4	5.1742e-06	7.4483e-06	1220.8	235.02	2.7726e-06	6.6811e-06	299.11	83.543	65.443	18.845	5.5661e-06	26.931	0.0003986	0.0004061	0.00012812	1105.1	4.3758e-06	4.446e-06	1208.6	237.52	4.3447e-06	4.5698e-06	304.54	86.46	67.76	20.566	5.0619e-06	28.7	64.784	161.435	251.199	67.065	140.670	198.460	66.926	74.604	358.724	239.535	73.671	80.604	81.421	88.691	62.328	87.723	-8191	255	
#DATA ENDS
