BOXY.EXE: ISS Imagent and Oximeter Data Acquisition Program Version 0.80
Ascii Record File

#ACQ INFORMATION
2  Detector Channels 
16  External MUX Channels 
1  Auxiliary Channels 
5000  Waveform (CCF) Frequency (Hz)
1  Waveforms Skipped 
30  Waveforms Averaged 
1  Cycles Averaged 
16  Acquisitions per Waveform 
10.0806  Updata Rate (Hz) 

#FILE INFORMATION
TRUE -- External MUX Channel results are PARSED.
FALSE -- AC DC and Phase are NOT grouped.
TRUE -- Companion Program Settings File CREATED.
FALSE -- AC data not excluded
FALSE -- DC data not excluded
FALSE -- Phase data not excluded
FALSE -- Auxillary Chn. data not excluded
Tab delimiters

#CALIBRATION STATE
TRUE -- Waveform Calibration Values APPLIED.


#AUX CALIBRATION VALUES
Val Type	aux-1	

Term	1.0000e+00	
Factor	0.0000e+00	


#WF CALIBRATION VALUES
A = Detector Channel
Val Type	A-AC1	A-AC2	A-AC3	A-AC4	A-AC5	A-AC6	A-AC7	A-AC8	A-AC9	A-AC10	A-AC11	A-AC12	A-AC13	A-AC14	A-AC15	A-AC16	A-DC1	A-DC2	A-DC3	A-DC4	A-DC5	A-DC6	A-DC7	A-DC8	A-DC9	A-DC10	A-DC11	A-DC12	A-DC13	A-DC14	A-DC15	A-DC16	A-Ph1	A-Ph2	A-Ph3	A-Ph4	A-Ph5	A-Ph6	A-Ph7	A-Ph8	A-Ph9	A-Ph10	A-Ph11	A-Ph12	A-Ph13	A-Ph14	A-Ph15	A-Ph16	

Term	0.00000e+00	0.00000e+00	0.00000e+00	0.00000e+00	0.00000e+00	0.00000e+00	0.00000e+00	0.00000e+00	0.00000e+00	0.00000e+00	0.00000e+00	0.00000e+00	0.00000e+00	0.00000e+00	0.00000e+00	0.00000e+00	0.00000e+00	0.00000e+00	0.00000e+00	0.00000e+00	0.00000e+00	0.00000e+00	0.00000e+00	0.00000e+00	0.00000e+00	0.00000e+00	0.00000e+00	0.00000e+00	0.00000e+00	0.00000e+00	0.00000e+00	0.00000e+00	0.00000e+00	0.00000e+00	0.00000e+00	0.00000e+00	0.00000e+00	0.00000e+00	0.00000e+00	0.00000e+00	0.00000e+00	0.00000e+00	0.00000e+00	0.00000e+00	0.00000e+00	0.00000e+00	0.00000e+00	0.00000e+00	
Factor	1.00000e+00	1.00000e+00	1.00000e+00	1.00000e+00	1.00000e+00	1.00000e+00	1.00000e+00	1.00000e+00	1.00000e+00	1.00000e+00	1.00000e+00	1.00000e+00	1.00000e+00	1.00000e+00	1.00000e+00	1.00000e+00	1.00000e+00	1.00000e+00	1.00000e+00	1.00000e+00	1.00000e+00	1.00000e+00	1.00000e+00	1.00000e+00	1.00000e+00	1.00000e+00	1.00000e+00	1.00000e+00	1.00000e+00	1.00000e+00	1.00000e+00	1.00000e+00	X	X	X	X	X	X	X	X	X	X	X	X	X	X	X	X	

B = Detector Channel
Val Type	B-AC1	B-AC2	B-AC3	B-AC4	B-AC5	B-AC6	B-AC7	B-AC8	B-AC9	B-AC10	B-AC11	B-AC12	B-AC13	B-AC14	B-AC15	B-AC16	B-DC1	B-DC2	B-DC3	B-DC4	B-DC5	B-DC6	B-DC7	B-DC8	B-DC9	B-DC10	B-DC11	B-DC12	B-DC13	B-DC14	B-DC15	B-DC16	B-Ph1	B-Ph2	B-Ph3	B-Ph4	B-Ph5	B-Ph6	B-Ph7	B-Ph8	B-Ph9	B-Ph10	B-Ph11	B-Ph12	B-Ph13	B-Ph14	B-Ph15	B-Ph16	

Term	0.00000e+00	0.00000e+00	0.00000e+00	0.00000e+00	0.00000e+00	0.00000e+00	0.00000e+00	0.00000e+00	0.00000e+00	0.00000e+00	0.00000e+00	0.00000e+00	0.00000e+00	0.00000e+00	0.00000e+00	0.00000e+00	0.00000e+00	0.00000e+00	0.00000e+00	0.00000e+00	0.00000e+00	0.00000e+00	0.00000e+00	0.00000e+00	0.00000e+00	0.00000e+00	0.00000e+00	0.00000e+00	0.00000e+00	0.00000e+00	0.00000e+00	0.00000e+00	-1.39278e+02	-1.18623e+02	-1.35795e+02	-1.82111e+02	-6.77916e+01	-8.69060e+01	-1.58920e+02	-1.62015e+02	-8.07281e+01	-9.04246e+01	-1.70527e+02	-1.72392e+02	-1.77825e+02	-1.76618e+02	-8.58281e+01	-1.49177e+02	
Factor	2.08840e-05	1.12845e-04	4.51227e-05	1.72743e-01	1.01973e-06	1.29749e-06	1.94666e-01	5.53233e-02	1.05499e-06	1.31565e-06	9.43069e-02	3.35196e-02	2.78317e-02	9.88634e-03	1.30373e-06	1.45576e-02	1.37347e-06	1.43500e-06	4.00220e-07	8.51377e-02	1.56614e-08	1.57660e-08	8.99492e-02	2.72962e-02	1.56928e-08	1.57274e-08	4.45325e-02	1.58891e-02	1.37582e-02	4.84121e-03	1.57627e-08	6.86061e-03	X	X	X	X	X	X	X	X	X	X	X	X	X	X	X	X	



#DISTANCE SETTINGS
A = Detector Channel
A-1	A-2	A-3	A-4	A-5	A-6	A-7	A-8	A-9	A-10	A-11	A-12	A-13	A-14	A-15	A-16	

2.5000e+00	3.0000e+00	2.5000e+00	3.0000e+00	2.0000e+00	3.0000e+00	1.5000e+00	3.0000e+00	3.0000e+00	3.0000e+00	3.0000e+00	3.0000e+00	3.0000e+00	3.0000e+00	1.5000e+00	3.0000e+00	

B = Detector Channel
B-1	B-2	B-3	B-4	B-5	B-6	B-7	B-8	B-9	B-10	B-11	B-12	B-13	B-14	B-15	B-16	

1.0000e+01	1.0000e+01	1.0000e+01	1.4400e+00	1.0000e+01	1.0000e+01	1.5100e+00	1.9400e+00	1.0000e+01	1.0000e+01	1.9900e+00	2.4900e+00	2.4100e+00	2.9000e+00	1.0000e+01	2.9800e+00	




#DATA BEGINS
time	group	step	mark	flag	A-AC1	A-AC2	A-AC3	A-AC4	A-AC5	A-AC6	A-AC7	A-AC8	A-AC9	A-AC10	A-AC11	A-AC12	A-AC13	A-AC14	A-AC15	A-AC16	A-DC1	A-DC2	A-DC3	A-DC4	A-DC5	A-DC6	A-DC7	A-DC8	A-DC9	A-DC10	A-DC11	A-DC12	A-DC13	A-DC14	A-DC15	A-DC16	A-Ph1	A-Ph2	A-Ph3	A-Ph4	A-Ph5	A-Ph6	A-Ph7	A-Ph8	A-Ph9	A-Ph10	A-Ph11	A-Ph12	A-Ph13	A-Ph14	A-Ph15	A-Ph16	B-AC1	B-AC2	B-AC3	B-AC4	B-AC5	B-AC6	B-AC7	B-AC8	B-AC9	B-AC10	B-AC11	B-AC12	B-AC13	B-AC14	B-AC15	B-AC16	B-DC1	B-DC2	B-DC3	B-DC4	B-DC5	B-DC6	B-DC7	B-DC8	B-DC9	B-DC10	B-DC11	B-DC12	B-DC13	B-DC14	B-DC15	B-DC16	B-Ph1	B-Ph2	B-Ph3	B-Ph4	B-Ph5	B-Ph6	B-Ph7	B-Ph8	B-Ph9	B-Ph10	B-Ph11	B-Ph12	B-Ph13	B-Ph14	B-Ph15	B-Ph16	aux-1	digaux	

1417.394	1	1	0	256	0.43683	0.0725	0.42683	0.26568	0.27449	0.14695	0.17562	0.26225	0.13735	0.054515	0.15488	0.11342	0.24654	0.050684	0.16603	0.038042	-1.9396	-1.6479	-2.2625	-2.2708	-2.0687	-2.4938	-2.1854	-2.0792	-2.1625	-1.9333	-2.3667	-2.1354	-2.1562	-2.3958	-2.1188	-2.0271	102.449	167.161	261.683	343.740	94.872	358.779	401.799	133.702	148.899	213.006	420.186	85.429	407.875	262.478	287.193	409.774	0.00020877	0.00078812	7.2038e-05	1131.6	7.2027e-06	1.1366e-05	1228.7	242.05	2.0628e-07	2.948e-06	301.59	84.674	67.376	20.126	3.0439e-06	27.349	0.0010639	0.0011793	0.00036509	1161.1	1.2113e-05	1.2856e-05	1262	256.33	1.172e-05	1.3133e-05	329.05	94.289	75.078	23.567	1.4173e-05	32.041	151.916	201.874	303.089	92.123	217.162	127.707	92.194	99.447	225.945	184.646	99.502	105.841	106.121	112.621	154.234	112.676	-8191	255	
1417.489	1	1	0	0	0.066654	0.10184	0.26031	0.22947	0.16482	0.2198	0.1416	0.35441	0.18875	0.16186	0.16613	0.33886	0.25601	0.21143	0.15739	0.12055	-1.8333	-2.0375	-2.1271	-2.3354	-2.0604	-2.15	-2.4479	-2.0438	-2.4188	-2.0042	-2.1333	-2.2604	-1.9917	-2.3708	-1.9729	-1.8146	127.815	216.538	228.958	434.859	394.015	155.325	439.724	437.138	384.090	285.045	419.879	406.780	120.640	389.503	266.553	289.155	0.00043551	0.00073497	0.00055833	1133.3	6.996e-06	9.2103e-06	1226.4	242.36	2.8209e-06	4.5276e-06	301.61	85.134	67.632	20.171	1.1056e-06	27.313	0.0010697	0.0012703	0.00036078	1161.6	1.2352e-05	1.4154e-05	1263.8	257.13	1.2176e-05	1.423e-05	328.1	94.313	75.45	23.82	1.3378e-05	31.799	137.859	177.906	323.085	92.016	290.609	121.909	92.065	99.191	204.566	255.653	99.420	105.861	106.381	113.274	170.754	112.768	-8191	255	
1417.585	1	1	0	0	0.34063	0.1942	0.17841	0.28111	0.073536	0.23734	0.12975	0.16846	0.045414	0.14483	0.041045	0.16554	0.26379	0.15331	0.025639	0.14042	-2.0042	-2.0312	-2.0167	-2.5687	-1.8979	-2.2458	-2.2521	-1.8375	-2.2938	-2.0542	-2.2438	-2.5021	-1.9417	-2.3708	-2.2188	-2.0687	245.556	289.596	283.232	373.345	247.410	267.606	367.818	109.467	333.835	253.748	136.650	293.706	97.934	139.087	336.328	338.586	0.0003473	0.00092387	0.0002292	1133.1	8.7173e-06	1.276e-05	1223.9	243.58	7.2737e-06	4.1043e-06	303.15	84.766	66.902	19.906	5.2387e-06	27.177	0.0010797	0.001281	0.00033316	1157.4	1.2246e-05	1.4106e-05	1254.3	255.62	1.2263e-05	1.3898e-05	325.3	93.511	75.596	23.679	1.2667e-05	31.601	156.103	205.314	323.734	92.094	208.212	188.681	91.889	99.403	195.486	374.278	99.174	105.584	106.507	112.389	440.771	112.489	-8191	255	
1417.681	1	1	0	0	0.16677	0.22562	0.050476	0.13157	0.061422	0.28539	0.18638	0.069577	0.24412	0.21622	0.046262	0.3529	0.10223	0.17132	0.34929	0.077127	-1.9229	-2.1896	-2.0333	-2.6562	-1.9562	-2.3312	-2.4708	-1.8937	-2.3563	-2.1792	-2.2938	-2.3521	-2.1708	-2.325	-2.2979	-1.9875	342.786	432.230	437.873	383.639	428.340	312.580	373.925	90.843	171.607	272.010	166.363	369.832	132.048	325.525	279.107	397.311	0.00034742	0.00093274	6.6322e-05	1139.3	6.4014e-06	8.6313e-06	1227	241.61	5.3229e-06	4.2018e-06	301.38	85.274	67.38	19.904	2.1573e-06	27.117	0.0011547	0.0012968	0.00032943	1159.9	1.3657e-05	1.4427e-05	1257.8	255.98	1.3951e-05	1.443e-05	326.34	94.179	77.134	23.779	1.2934e-05	31.909	148.066	409.371	204.812	92.039	150.195	278.783	92.274	99.735	158.942	304.149	98.886	105.731	106.076	112.859	191.590	112.276	-8191	255	
1417.777	1	1	0	0	0.14038	0.098392	0.13334	0.15813	0.13114	0.15165	0.20121	0.15191	0.069278	0.1315	0.21257	0.27333	0.19674	0.30293	0.24245	0.13431	-1.9167	-2.3667	-1.9688	-2.5604	-2.1167	-2.1208	-2.4396	-2.0958	-2.4375	-2.3625	-1.9646	-2.4875	-2.2021	-2.325	-2.4208	-2.0979	116.070	404.510	265.660	139.200	147.601	415.485	408.192	191.031	318.280	196.789	347.866	397.983	307.595	115.787	245.222	342.444	0.00043151	0.00020913	0.00016396	1138.4	9.7253e-06	5.2248e-06	1226.4	241.65	5.117e-06	5.0709e-06	301.33	84.301	67.127	19.979	6.2074e-06	26.944	0.0012734	0.0012818	0.00032661	1160.9	1.4338e-05	1.3831e-05	1254.9	255.98	1.4264e-05	1.3384e-05	324.02	93.807	76.801	23.323	1.2179e-05	31.881	176.546	405.425	353.267	92.039	243.178	344.938	92.080	99.621	223.708	298.215	99.105	105.674	105.846	112.799	270.781	113.061	-8191	255	
1417.898	1	1	0	0	0.15656	0.32335	0.15536	0.067802	0.17485	0.55663	0.029508	0.09014	0.16764	0.21378	0.26098	0.27362	0.088849	0.084222	0.15426	0.1785	-2.025	-2.4167	-1.8792	-2.5396	-2	-2.0208	-2.6479	-1.9729	-2.3042	-2.1292	-1.9229	-2.2354	-1.9021	-2.0396	-2.5125	-1.9646	255.452	370.510	256.270	373.691	408.108	191.414	286.654	315.822	401.389	336.961	385.460	135.574	217.012	218.710	182.888	423.391	0.00028749	0.001115	0.00024738	1138.1	5.76e-06	7.2595e-06	1225.9	242.28	1.0921e-05	2.1321e-06	301.39	84.401	66.638	19.915	4.7534e-06	27.265	0.0012755	0.0011876	0.00031344	1163.2	1.4559e-05	1.3222e-05	1253.4	257.59	1.4618e-05	1.306e-05	324.35	95.308	76.959	23.349	1.2414e-05	32.459	155.416	258.167	93.760	92.235	222.070	302.634	91.998	99.457	352.775	287.224	99.294	105.904	105.574	112.784	256.766	112.419	-8191	255	
1417.969	1	1	0	0	0.20017	0.14931	0.16279	0.3185	0.23705	0.21142	0.129	0.21135	0.19651	0.25475	0.17084	0.13466	0.20755	0.32638	0.35409	0.14059	-1.7854	-2.0563	-1.8479	-2.3854	-2.0833	-2.1021	-2.5167	-2.1958	-2.1292	-2.25	-2.1688	-2.2938	-2.1625	-1.9333	-2.3625	-2.0792	352.750	105.319	210.929	409.037	133.640	124.354	412.097	426.663	298.961	414.625	134.204	413.164	380.939	415.743	360.309	292.183	0.00021313	0.00052952	0.00043098	1132.1	4.8354e-06	6.5467e-07	1223.8	241.25	3.5294e-06	7.9378e-06	300.72	84.448	66.277	19.921	4.9928e-06	27.002	0.0012772	0.0011914	0.00031931	1170.1	1.4312e-05	1.3135e-05	1252	258.61	1.4091e-05	1.2657e-05	323.84	95.762	76.133	23.143	1.2297e-05	32.538	172.775	319.095	184.168	92.141	321.850	166.342	92.204	99.516	409.126	83.408	99.044	105.775	106.180	113.107	200.459	112.337	-8191	255	
1418.066	1	1	0	0	0.11345	0.14075	0.069075	0.15374	0.17091	0.022016	0.27173	0.42035	0.25479	0.062465	0.14817	0.085577	0.15477	0.16518	0.34803	0.06876	-1.7354	-2.3542	-1.8458	-2.4083	-2.2208	-1.8958	-2.5	-2.0563	-2.0771	-2.2875	-2	-2.2792	-2.2979	-2	-2.3417	-2.2125	358.075	398.683	211.222	343.185	344.781	202.390	440.693	174.751	158.884	342.273	436.394	368.035	96.698	169.663	414.728	368.309	0.00030196	0.00086769	0.00028504	1135.7	2.6008e-06	5.53e-06	1228.5	242.96	4.7341e-06	2.626e-06	300.01	84.617	66.175	19.85	1.2021e-05	27.208	0.0011877	0.0011275	0.00031804	1171.1	1.3201e-05	1.2452e-05	1255.1	259.3	1.3133e-05	1.2218e-05	323.96	95.819	75.269	23.06	1.2916e-05	32.462	155.540	192.605	185.116	92.020	307.534	327.498	92.172	99.491	313.573	396.086	99.398	105.577	106.079	113.092	228.700	112.631	-8191	255	
1418.186	1	1	0	0	0.27053	0.11789	0.33264	0.096517	0.040752	0.30804	0.13359	0.14017	0.1718	0.11271	0.12083	0.078152	0.38073	0.14134	0.070242	0.26891	-1.6917	-2.4062	-2.1229	-2.3771	-2.1479	-1.8687	-2.2521	-2.0687	-2.1375	-2.3354	-2.2583	-2.2708	-2.3083	-1.8646	-2.1229	-2.2146	139.998	292.990	200.000	174.258	189.680	397.612	337.892	294.930	179.904	304.123	315.528	196.944	380.682	384.153	343.735	108.542	0.00037513	0.00059774	0.0004778	1138	3.6873e-06	4.6858e-06	1228.2	242	2.7869e-06	2.5474e-06	300.65	84.105	66.36	19.825	5.2549e-06	27.038	0.0011338	0.0010796	0.00033412	1169.9	1.235e-05	1.1874e-05	1256.3	256.86	1.23e-05	1.1658e-05	325.81	94.702	74.579	22.807	1.3515e-05	32.135	176.283	335.699	151.854	92.258	133.967	319.814	92.112	99.583	392.583	206.844	99.527	105.659	105.982	113.377	249.121	112.741	-8191	255	
1418.282	1	1	0	0	0.32012	0.27045	0.21654	0.21161	0.18162	0.255	0.099305	0.10424	0.20801	0.18971	0.17113	0.18599	0.12429	0.26049	0.16698	0.082233	-1.4979	-2.3	-2.0521	-2.325	-2.4688	-1.8438	-2.5271	-2.0854	-1.975	-2.1979	-2.1312	-2.1333	-2.2833	-2.0917	-2.3479	-2.0938	155.078	191.404	240.113	410.675	352.750	111.116	418.626	341.467	300.895	195.597	330.179	131.119	426.302	377.270	440.015	362.044	0.00020341	0.00034845	0.00030371	1135.2	5.0732e-06	1.0431e-05	1228.7	240.58	2.7031e-06	1.7166e-05	299.1	84.14	66.318	19.77	2.1964e-06	27.095	0.0011036	0.0010787	0.00035514	1166.6	1.2404e-05	1.2347e-05	1264.2	256.99	1.2618e-05	1.2366e-05	329.14	94.824	74.81	23.062	1.4547e-05	31.967	156.839	206.657	115.532	92.138	436.257	211.161	92.071	99.347	194.456	169.204	99.037	105.659	105.961	113.275	343.236	112.761	-8191	255	
1418.379	1	1	0	0	0.42906	0.16515	0.19702	0.20404	0.12539	0.36321	0.25275	0.20663	0.1364	0.20772	0.030806	0.029141	0.33657	0.36929	0.30942	0.043139	-1.5042	-2.425	-1.9396	-2.2521	-2.275	-1.8021	-2.3958	-2.2479	-1.7917	-2.4354	-2.1583	-2.1	-2.5229	-2.025	-2.2562	-2.4938	295.191	112.152	124.520	88.046	370.052	188.544	429.878	421.445	182.284	370.330	327.776	378.102	167.269	97.779	228.680	266.612	0.00023242	0.00025303	0.00029909	1134.9	3.5389e-06	1.1247e-05	1225.3	240.69	9.1625e-06	4.8923e-06	301.48	84.78	66.555	19.791	5.03e-06	27.173	0.0011014	0.0011657	0.00036827	1164.3	1.1958e-05	1.2931e-05	1262.5	254.99	1.2082e-05	1.2898e-05	328.29	94.076	74.295	23.246	1.3999e-05	31.725	158.107	168.648	124.474	92.256	270.358	179.331	92.371	99.448	277.838	219.228	99.334	105.754	106.084	113.424	231.839	112.365	-8191	255	
1418.475	1	1	0	0	0.14845	0.22549	0.15049	0.0069621	0.16901	0.078167	0.16234	0.4364	0.14229	0.23882	0.15935	0.028982	0.25678	0.12876	0.24697	0.20239	-1.6979	-2.1958	-2.0479	-2	-2.5438	-1.8583	-2.1437	-2.1646	-2.0125	-2.4646	-2.0438	-1.9271	-2.4167	-2.0521	-2.0542	-2.175	380.965	100.711	145.763	166.336	103.709	167.866	90.390	390.450	173.992	142.492	85.581	439.459	408.126	122.916	306.122	87.153	0.00022208	0.00085491	0.00034476	1135.6	1.007e-05	4.779e-06	1226.4	240.45	7.6934e-06	1.0921e-05	299.54	84.738	66.967	19.81	3.5493e-06	26.91	0.0010616	0.0012335	0.00035606	1161.6	1.1885e-05	1.3808e-05	1262.4	254.54	1.2192e-05	1.4038e-05	326.75	94.01	74.834	23.611	1.3741e-05	31.578	155.455	150.880	310.604	92.087	215.076	286.548	92.339	99.349	216.166	206.803	99.255	105.650	105.928	112.994	402.990	112.704	-8191	255	
1418.569	1	1	0	0	0.16821	0.32508	0.10114	0.49263	0.10479	0.36976	0.15838	0.18391	0.063711	0.075573	0.28895	0.16626	0.1005	0.16739	0.072733	0.038078	-1.6896	-2.3271	-2.0792	-2.1167	-2.3937	-2.2083	-2.2375	-2.1708	-2.0042	-2.2583	-2.3583	-1.9708	-2.4708	-1.9667	-2.1917	-2.3875	418.539	250.382	243.107	366.571	101.276	421.652	434.356	86.830	440.476	264.642	83.888	441.729	169.914	108.935	350.531	126.317	0.00033893	0.00036456	0.00037418	1135.2	4.2008e-06	4.3923e-06	1229.6	241.12	1.2836e-05	2.2034e-06	300.03	83.843	67.063	19.816	4.1871e-06	27.068	0.0011101	0.0013102	0.00034438	1161.2	1.2568e-05	1.466e-05	1258.1	254.71	1.2954e-05	1.4707e-05	325.57	93.727	75.357	23.714	1.3187e-05	31.527	145.036	85.110	351.931	92.282	243.275	198.446	92.125	100.015	197.780	222.421	98.885	105.627	106.352	112.589	92.560	112.501	-8191	255	
1418.667	1	1	0	0	0.092089	0.09719	0.058861	0.3312	0.2555	0.16913	0.029327	0.26828	0.30691	0.18052	0.20265	0.10788	0.18366	0.26298	0.27867	0.32703	-1.4458	-2.2042	-2.1729	-1.9937	-2.3604	-2.0479	-2.0563	-2.3896	-1.9688	-2.3937	-2.2958	-1.8729	-2.3896	-1.9208	-1.9562	-2.3458	168.814	112.218	175.118	155.181	216.335	399.492	137.997	315.523	275.427	365.565	369.007	138.885	93.271	343.652	193.696	423.326	0.00036771	0.00025478	0.00021267	1135.1	9.9823e-06	9.0309e-06	1220.4	240.9	1.0535e-05	3.5195e-06	301.44	83.946	66.75	19.771	2.5882e-06	27.28	0.0011739	0.0013171	0.0003253	1159	1.3212e-05	1.4168e-05	1254.1	253.87	1.3421e-05	1.3846e-05	322.79	92.832	75.758	23.375	1.2406e-05	31.316	152.667	351.006	200.286	92.241	217.195	269.447	92.039	99.558	196.839	194.697	99.521	105.691	106.006	113.048	325.844	112.243	-8191	255	
1418.786	1	1	0	0	0.043824	0.14324	0.11112	0.2466	0.014631	0.17669	0.11945	0.17171	0.16613	0.20799	0.26982	0.072194	0.1277	0.32984	0.077734	0.20844	-1.6417	-2.1562	-2.275	-2.025	-2.2792	-2.1146	-2.3083	-2.4188	-2.1146	-2.225	-2.4729	-2.0979	-2.1521	-1.9792	-1.9042	-2.4146	412.423	120.594	373.986	419.011	185.243	362.925	358.539	279.107	99.489	197.988	130.031	348.600	316.040	287.002	141.272	250.931	0.00033884	0.0002884	0.00029809	1131.2	1.0957e-05	5.7342e-06	1221.5	241.21	5.551e-06	2.4511e-06	300.79	83.478	66.599	19.69	4.2641e-06	26.969	0.0012041	0.0012273	0.00030713	1156.7	1.3605e-05	1.3233e-05	1251.9	253.66	1.3877e-05	1.3137e-05	321.05	93.084	76.265	23.12	1.2138e-05	31.553	159.548	322.802	336.865	92.122	202.288	382.317	92.058	99.642	214.109	354.582	99.284	106.014	106.261	113.097	389.429	112.600	-8191	255	
1418.882	1	1	0	0	0.16326	0.03351	0.1622	0.24788	0.051387	0.10409	0.37356	0.27386	0.19667	0.17001	0.080126	0.20621	0.15558	0.16376	0.18526	0.12331	-1.625	-1.9917	-2.275	-2.1458	-2.3	-2.2875	-2.1208	-2.3917	-1.9	-2.1604	-2.7104	-1.9333	-2.1375	-2.2292	-1.9792	-2.2938	196.049	421.761	142.550	119.067	250.103	238.186	328.630	402.071	150.226	105.212	177.544	423.318	369.501	410.929	384.279	437.135	0.00033108	0.00061807	0.00016578	1134.8	2.206e-06	5.171e-06	1221.8	241.82	3.8208e-06	2.8179e-06	300.46	84.377	66.189	19.679	8.1696e-06	27.161	0.0012613	0.0011897	0.00030634	1162.5	1.42e-05	1.2834e-05	1249.2	255.16	1.3995e-05	1.2718e-05	320.29	94.317	75.955	22.942	1.1787e-05	31.896	161.389	296.394	221.660	92.345	188.534	319.744	92.190	99.387	247.994	310.485	99.350	105.582	106.003	113.147	149.490	112.508	-8191	255	
1418.978	1	1	0	0	0.18925	0.088776	0.22194	0.18287	0.09621	0.27209	0.33501	0.0511	0.11525	0.026835	0.21375	0.13714	0.1914	0.32079	0.15699	0.20567	-1.7687	-1.9333	-2.3167	-2.0938	-2.2958	-2.1896	-1.95	-2.3208	-2.0792	-2.0771	-2.5729	-1.9937	-2.2458	-2.3792	-2.1854	-2.4354	195.225	278.470	151.737	414.798	353.503	193.305	402.154	422.159	293.753	256.445	389.215	84.244	362.183	346.023	109.021	303.482	0.0003072	0.00067817	0.00019742	1136.9	6.3467e-06	5.607e-06	1226.5	240.22	2.6597e-06	9.6029e-06	299.22	83.831	65.858	19.789	8.1883e-06	27.218	0.0012144	0.0011361	0.00029968	1166	1.3727e-05	1.2509e-05	1249.6	256.55	1.3644e-05	1.2537e-05	320.74	95.103	75.691	22.985	1.2322e-05	32.343	139.715	108.094	213.977	92.168	304.038	383.729	91.948	99.672	268.192	327.101	99.256	106.063	106.216	112.995	104.528	112.742	-8191	255	
1419.074	1	1	0	0	0.14376	0.22989	0.021777	0.13839	0.17089	0.19738	0.154	0.16469	0.32277	0.14953	0.21673	0.20833	0.087131	0.19524	0.10369	0.16848	-1.7437	-2.0375	-2.3521	-2.2646	-2.2438	-2.3958	-2.1458	-2.3917	-2.375	-1.9833	-2.525	-2.2313	-2.0958	-2.3604	-1.8979	-2.3833	389.417	391.158	132.814	157.470	178.934	440.836	325.023	320.576	395.730	129.672	368.470	382.557	298.730	92.856	415.782	306.049	0.00010765	0.00092741	0.00019162	1128.8	6.7143e-06	1.6702e-06	1223.1	240.4	2.9287e-06	2.4814e-06	299.58	83.609	66.028	19.5	6.5856e-06	26.815	0.0012007	0.0011352	0.0003119	1169.7	1.3323e-05	1.2221e-05	1252.1	257.46	1.2985e-05	1.2382e-05	322.33	95.041	74.991	22.786	1.2877e-05	32.311	102.122	383.938	143.182	92.150	285.858	395.193	92.028	99.557	321.753	309.669	99.324	105.842	106.240	113.254	206.291	112.525	-8191	255	
1419.195	1	1	0	0	0.092881	0.13354	0.093964	0.14673	0.17571	0.053909	0.16022	0.13555	0.11807	0.029255	0.064765	0.19212	0.27585	0.14849	0.15468	0.19989	-1.85	-1.9958	-2.3292	-2.2062	-1.9104	-2.4437	-2.025	-2.4188	-2.1208	-2.0312	-2.5167	-2.2375	-2.2208	-2.3833	-2.0667	-2.4521	91.663	258.107	167.835	309.069	431.017	124.299	397.599	383.925	170.739	219.843	376.346	95.158	435.239	104.156	328.126	114.138	0.00016167	0.00081328	0.00039822	1128.8	4.0181e-06	8.835e-06	1225.2	240.19	3.4564e-06	3.7502e-06	299.13	83.401	66.173	19.575	7.9698e-06	26.828	0.0011291	0.0011039	0.0003293	1168.4	1.268e-05	1.1939e-05	1256.1	256.16	1.2544e-05	1.2149e-05	324.88	94.587	74.697	22.694	1.3942e-05	32.069	185.110	197.234	150.616	91.910	265.032	190.702	92.329	99.704	264.239	180.256	99.123	106.032	106.250	113.197	200.763	112.494	-8191	255	
1419.267	1	1	0	0	0.061716	0.13652	0.13276	0.04287	0.25443	0.20104	0.40543	0.21864	0.15008	0.29501	0.32121	0.15914	0.057583	0.09162	0.16132	0.12727	-1.8208	-2.0208	-2.2062	-2.1396	-2.1458	-2.2792	-2.0521	-2.1083	-2.3708	-1.9958	-2.3833	-2.2417	-2.1042	-2.4271	-2.0875	-2.1	364.686	104.476	362.752	348.536	83.616	428.266	384.458	339.852	253.490	237.183	131.467	335.095	339.194	104.363	84.365	104.113	0.00033783	0.0009531	9.5486e-05	1132.9	6.2782e-06	3.5592e-06	1219.3	238.94	3.1409e-06	8.1076e-06	297.11	83.733	66.316	19.644	3.1515e-06	26.974	0.0011003	0.0011172	0.00035628	1164.6	1.2715e-05	1.2317e-05	1260.6	255.2	1.2665e-05	1.2728e-05	327.14	94.497	74.767	22.896	1.4975e-05	31.984	164.690	187.039	426.128	92.038	239.072	177.788	92.176	99.552	326.421	227.763	99.289	105.755	106.337	112.902	336.783	112.278	-8191	255	
1419.363	1	1	0	0	0.34409	0.29319	0.097833	0.11461	0.16631	0.18479	0.22737	0.19272	0.17247	0.12363	0.19977	0.04688	0.012113	0.17619	0.0346	0.061356	-1.8833	-2.0375	-2.2167	-2.4375	-1.8729	-2.25	-2.3521	-2.2167	-2.3708	-1.8521	-2.3479	-2.2292	-2.0521	-2.2062	-2.1875	-2.0146	436.379	406.109	301.491	419.954	270.784	374.584	315.085	390.996	127.801	386.808	415.995	252.189	314.170	416.106	288.084	392.217	0.0002036	0.00063465	0.00030354	1136.5	4.2872e-06	8.1146e-06	1217.7	239.31	1.8009e-06	8.1236e-06	298.66	83.851	65.697	19.369	6.2173e-06	26.875	0.0011106	0.0011982	0.0003766	1163.5	1.2454e-05	1.301e-05	1261.2	254.06	1.2176e-05	1.3245e-05	327.31	93.586	73.937	23.003	1.4376e-05	31.574	164.938	175.468	111.991	92.074	352.817	126.730	92.144	99.328	336.857	195.429	99.483	105.810	106.046	113.655	358.079	113.405	-8191	255	
1419.459	1	1	0	0	0.18742	0.06454	0.15911	0.22452	0.37169	0.09644	0.35302	0.23308	0.16541	0.10886	0.096022	0.063625	0.22869	0.068076	0.1069	0.18681	-1.8917	-1.9417	-2.1708	-2.4833	-1.8354	-2.2833	-2.275	-2.2771	-2.3917	-2.1188	-2.2479	-2.3083	-1.8875	-2.3563	-2.1771	-2.0729	245.154	278.909	171.858	116.509	288.272	416.636	416.105	391.635	283.753	203.265	249.386	99.958	140.190	347.837	280.929	96.580	0.00034568	0.0016635	0.00021349	1128.2	2.068e-06	1.2352e-05	1211.8	239.02	4.48e-06	1.5666e-05	296.46	83.244	65.945	19.502	7.125e-06	26.698	0.0010601	0.0012521	0.00036262	1155.8	1.2102e-05	1.3854e-05	1254.6	253.05	1.211e-05	1.407e-05	325.28	92.933	74.12	23.372	1.3936e-05	31.516	143.079	103.343	189.059	92.343	260.726	155.765	92.177	99.617	179.571	173.360	99.493	106.062	106.505	113.082	358.822	112.687	-8191	255	
1419.578	1	1	0	0	0.14354	0.13823	0.15208	0.19808	0.22218	0.073881	0.19373	0.068488	0.13182	0.24252	0.21299	0.30501	0.17731	0.20227	0.24452	0.20808	-1.9813	-2.1771	-2.1688	-2.3312	-2.0854	-2.2917	-2.45	-2.1312	-2.3688	-1.9021	-2.15	-2.6979	-1.9104	-2.1688	-2.2062	-1.8958	98.456	148.155	384.662	405.371	375.945	138.984	97.480	289.001	334.149	110.407	140.616	149.263	164.868	261.679	286.177	382.424	0.00032113	0.00040558	0.00021414	1129	7.3232e-06	4.9433e-06	1219.6	236.23	1.1233e-05	4.7527e-06	297.09	83.339	66.035	19.59	4.1293e-07	26.841	0.0011	0.0013288	0.00035156	1155.3	1.2754e-05	1.4747e-05	1253.5	252.11	1.2749e-05	1.4806e-05	323.67	92.678	74.694	23.45	1.3382e-05	31.382	148.589	103.926	321.699	92.239	159.145	115.038	92.336	99.632	214.761	426.399	99.575	105.913	106.159	113.536	414.967	112.913	-8191	255	
1419.674	1	1	0	0	0.11226	0.030353	0.18884	0.38194	0.09657	0.20197	0.3287	0.21565	0.1146	0.024615	0.051965	0.07495	0.20596	0.2311	0.073993	0.21834	-1.925	-2.2792	-2.0729	-2.4333	-1.9208	-2.1937	-2.4792	-1.9937	-2.5771	-2.1833	-1.95	-2.4	-2.0458	-2.1458	-2.1479	-1.8292	173.447	307.607	153.869	431.818	222.897	192.337	358.142	338.013	320.246	236.410	179.718	249.099	402.018	359.323	96.136	205.392	0.00036354	0.00068392	8.0642e-05	1122.8	5.717e-06	7.7887e-06	1219.4	238.31	8.8914e-06	1.1195e-05	297.82	83.062	65.919	19.338	2.5538e-06	26.765	0.001176	0.001345	0.00033641	1151.8	1.3523e-05	1.4615e-05	1250	252.12	1.3686e-05	1.4491e-05	321.97	92.472	75.64	23.341	1.294e-05	31.368	151.046	432.131	341.398	92.158	233.188	145.027	92.070	99.493	251.444	182.070	99.305	105.882	106.199	113.331	106.087	112.594	-8191	255	
1419.770	1	1	0	0	0.080683	0.04497	0.26414	0.1706	0.059605	0.10882	0.22947	0.12351	0.12742	0.23748	0.21807	0.17785	0.20027	0.23904	0.15198	0.10007	-1.9229	-2.1167	-1.9062	-2.6167	-1.9542	-2.2792	-2.4917	-2.0187	-2.4458	-2.25	-2.1042	-2.4771	-2.0146	-2.2667	-2.125	-2.0833	154.497	318.068	225.642	404.967	331.904	297.249	400.898	247.102	125.498	433.271	425.858	393.551	422.155	424.829	430.223	407.334	0.00036454	0.00050101	0.00019497	1128.3	2.1988e-07	4.7192e-06	1214.1	237.91	8.5586e-06	4.6373e-06	297.79	83.117	65.842	19.438	9.121e-06	26.782	0.0012523	0.0012918	0.00033234	1155.5	1.4494e-05	1.4252e-05	1250	253.28	1.488e-05	1.4264e-05	323.03	93.359	76.511	23.362	1.3188e-05	31.861	160.595	196.364	294.721	92.143	355.776	411.481	92.219	99.777	238.068	320.090	99.445	106.011	106.132	113.149	102.537	112.907	-8191	255	
1419.866	1	1	0	0	0.18149	0.091615	0.014265	0.16142	0.22048	0.22933	0.041047	0.10331	0.19133	0.28196	0.054496	0.19578	0.18556	0.18712	0.19722	0.17106	-1.8104	-2.1688	-1.9208	-2.4896	-1.9813	-2.1063	-2.5479	-2.0187	-2.2438	-2.3104	-2.0687	-2.4542	-2.175	-1.9875	-2.1958	-2.1437	144.991	361.459	361.634	196.554	341.209	94.269	85.960	274.732	284.355	401.455	105.689	212.651	306.573	188.004	89.909	94.559	0.00026767	0.00050218	0.00016673	1130.9	4.6264e-06	3.239e-06	1215.9	240.52	7.0816e-07	6.4227e-06	297.36	84.195	65.71	19.45	1.1406e-05	27.082	0.001374	0.0013022	0.00034226	1163.3	1.5519e-05	1.414e-05	1249.6	254.9	1.5084e-05	1.3446e-05	321.09	93.991	75.988	22.965	1.2332e-05	31.906	120.356	161.535	264.606	91.873	307.270	177.863	92.033	99.716	211.090	367.218	99.272	105.879	106.222	113.372	210.777	112.656	-8191	255	
1419.962	1	1	0	0	0.15446	0.30514	0.3847	0.17035	0.23472	0.055104	0.037294	0.10257	0.10047	0.26255	0.27603	0.08294	0.22092	0.24355	0.22171	0.18003	-1.9167	-2.1771	-1.7979	-2.6292	-2.2917	-1.9688	-2.6375	-1.9729	-2.2271	-2.3021	-1.8813	-2.2521	-2.3187	-1.9521	-2.2979	-1.9729	422.070	246.228	405.649	368.418	240.939	231.101	330.787	326.494	213.954	111.536	121.371	304.971	192.496	350.677	89.390	146.442	0.00036362	0.00067269	0.00013381	1130.3	2.0639e-06	5.955e-06	1220.4	239.47	9.8145e-06	3.8134e-06	298.19	83.438	65.86	19.563	2.4954e-06	26.902	0.0012729	0.001179	0.0003155	1163.1	1.428e-05	1.3128e-05	1245.5	255.02	1.4149e-05	1.266e-05	320.25	94.372	75.415	22.871	1.2089e-05	32.135	144.562	247.324	157.031	92.153	143.401	246.159	92.023	99.354	398.184	127.786	99.142	106.037	106.255	113.317	347.626	113.125	-8191	255	
1420.059	1	1	0	0	0.13371	0.13848	0.10495	0.061383	0.1359	0.23111	0.26517	0.080425	0.069225	0.28288	0.065529	0.036635	0.23126	0.23182	0.23015	0.12385	-1.6854	-2.2833	-1.9167	-2.4542	-2.3417	-1.9021	-2.2938	-1.9813	-1.9104	-2.2354	-1.8833	-2.3625	-2.3375	-2.0771	-2.3229	-2.0708	113.971	153.186	83.112	387.088	260.597	350.702	123.304	129.260	391.921	167.582	223.373	282.833	384.341	436.908	195.300	189.371	0.00010742	0.00043698	0.00037113	1126.4	1.9149e-06	4.8666e-06	1219.5	238.62	2.4164e-06	7.1174e-06	298.97	83.427	65.542	19.529	6.5935e-06	26.901	0.0011996	0.001121	0.00031332	1163.8	1.3234e-05	1.2399e-05	1247.1	255.3	1.3246e-05	1.211e-05	320.77	94.447	74.582	22.749	1.2966e-05	32.317	193.390	152.125	366.993	92.045	219.218	168.513	92.155	99.605	412.017	295.133	98.975	105.957	106.654	113.201	190.777	112.723	-8191	255	
1420.155	1	1	0	0	0.11172	0.10083	0.03815	0.26037	0.050095	0.17945	0.10996	0.25733	0.26078	0.25261	0.17618	0.15976	0.032897	0.15828	0.28213	0.31948	-1.7146	-2.3937	-2.0271	-2.2917	-2.0354	-1.9979	-2.5375	-2.15	-2.0917	-2.5479	-2.0417	-2.0812	-2.275	-2.0458	-2.1792	-2.0896	398.948	119.532	197.709	374.178	122.513	424.925	386.281	180.564	366.663	170.927	84.167	134.717	317.237	151.426	98.818	278.937	0.00022373	0.0007194	0.00046481	1129.9	6.0058e-06	6.1904e-07	1217.7	238.62	4.6859e-06	3.1297e-06	298.47	83.534	65.64	19.563	8.284e-06	26.59	0.0011639	0.0011149	0.00033755	1167.3	1.293e-05	1.2459e-05	1250.6	255.69	1.3011e-05	1.2121e-05	323.43	94.505	74.21	22.67	1.3549e-05	31.84	174.289	395.448	129.788	92.046	218.277	116.058	92.151	99.480	367.937	284.888	99.329	105.631	106.312	113.054	169.047	112.757	-8191	255	
1420.275	1	1	0	0	0.24732	0.20931	0.32626	0.53213	0.29817	0.098451	0.13127	0.06964	0.43119	0.025702	0.051297	0.20702	0.26495	0.25989	0.24532	0.02464	-1.5958	-2.3479	-2.0292	-2.3	-2.3438	-2.0938	-2.5458	-2.1604	-2.0625	-2.2438	-2.0208	-2.1729	-2.2062	-2.0187	-2.3125	-2.3146	348.031	140.997	143.897	405.000	83.116	319.719	96.814	375.433	330.676	99.350	342.789	435.079	301.894	210.381	126.237	276.587	0.00037601	0.00075044	0.00025707	1128.4	8.4348e-06	6.4109e-06	1222.6	238.93	8.2103e-06	2.6238e-06	297.85	82.868	65.39	19.488	6.2177e-06	26.654	0.0011107	0.001085	0.00034921	1161.7	1.2313e-05	1.2121e-05	1255	254.08	1.2505e-05	1.2108e-05	325.57	93.648	73.948	22.697	1.4364e-05	31.622	172.781	100.783	155.208	91.992	245.947	196.099	92.195	99.469	228.472	164.693	99.383	106.162	106.366	113.135	147.779	112.750	-8191	255	
1420.371	1	1	0	0	0.086097	0.1708	0.16023	0.22788	0.19776	0.18153	0.26087	0.25269	0.20574	0.18868	0.3003	0.21897	0.2264	0.14469	0.10192	0.044411	-1.6104	-2.3354	-2.0333	-2.2417	-2.4292	-2.0229	-2.3667	-2.1958	-1.8958	-2.3771	-2.2396	-2	-2.5583	-2.1229	-2.1979	-2.4354	188.119	384.157	165.273	109.924	301.041	257.618	306.149	414.180	142.359	415.589	382.900	122.712	439.189	97.138	129.189	161.947	0.00034121	0.00074596	0.00024916	1124.8	7.8509e-06	6.7878e-06	1217	236.68	3.3006e-06	1.4531e-05	295.73	83.169	65.742	19.498	2.2714e-06	26.713	0.0011026	0.0011427	0.00036765	1158.6	1.2091e-05	1.2761e-05	1256	251.97	1.2227e-05	1.2707e-05	324.75	92.674	73.467	22.872	1.4188e-05	31.28	170.938	190.925	182.076	91.981	232.658	213.686	92.266	99.541	388.204	247.542	99.072	105.933	106.393	113.550	176.264	113.074	-8191	255	
1420.468	1	1	0	0	0.13513	0.067871	0.17355	0.32864	0.14909	0.31547	0.1476	0.15002	0.2423	0.22926	0.15844	0.15943	0.3664	0.14857	0.44354	0.37835	-1.5187	-2.3292	-2.0771	-2.2146	-2.3604	-2.05	-2.5292	-2.4313	-1.9042	-2.4813	-2.1333	-2	-2.4417	-2.0687	-2.1271	-2.2687	379.601	162.507	95.995	136.354	373.094	369.756	358.968	384.474	429.900	290.699	109.665	433.592	96.325	437.693	306.778	156.396	0.00026461	0.00070671	0.00026904	1127.8	5.0137e-06	6.7105e-06	1210	236.78	5.6374e-06	1.01e-05	294.73	82.634	65.07	19.46	8.739e-06	26.901	0.0010629	0.0011975	0.00035622	1154.3	1.1801e-05	1.3554e-05	1253.3	251.1	1.2078e-05	1.3632e-05	323.11	92.508	73.302	23.183	1.3753e-05	31.237	155.560	165.136	338.957	91.976	252.425	156.169	91.938	99.542	289.375	174.527	99.496	105.951	106.382	113.468	285.755	113.295	-8191	255	
1420.562	1	1	0	0	0.13692	0.25672	0.059755	0.24507	0.13033	0.38246	0.23785	0.13399	0.34226	0.033673	0.2861	0.15273	0.2724	0.28035	0.2039	0.18675	-1.4479	-2.2417	-2.1125	-2.0271	-2.2938	-2.1167	-2.3375	-2.45	-1.9083	-2.0792	-2.2604	-2.0875	-2.5396	-1.9333	-2.1083	-2.4646	183.513	210.218	210.070	382.980	136.099	281.306	416.104	318.473	367.903	377.189	365.820	198.198	171.025	427.910	256.984	171.381	0.00035829	0.00088327	0.00014478	1127.6	6.6145e-06	5.729e-06	1219.7	238.48	1.1761e-06	8.8306e-06	297.06	82.488	65.464	19.46	1.0522e-06	26.813	0.0010841	0.0012857	0.00034432	1152	1.2138e-05	1.4152e-05	1251.3	250.76	1.253e-05	1.4317e-05	322.14	91.975	73.81	23.248	1.3106e-05	31.07	179.349	214.338	185.482	92.009	229.076	253.622	92.237	99.698	396.068	200.502	99.328	106.059	106.242	113.309	342.929	112.529	-8191	255	
1420.658	1	1	0	0	0.16361	0.03818	0.095394	0.19089	0.2161	0.28694	0.11739	0.14543	0.17692	0.11076	0.26303	0.13381	0.10747	0.045144	0.13021	0.032263	-1.4896	-2.2583	-2.4062	-2.0354	-2.3458	-2.0938	-2.2	-2.3	-1.8792	-2.3271	-2.2188	-1.925	-2.5062	-2.0833	-2.0917	-2.4021	173.126	125.874	165.648	385.151	298.679	406.257	86.305	380.311	358.923	161.740	409.913	162.128	327.502	160.812	130.082	373.981	0.00036161	0.0002514	9.6345e-05	1119.6	5.4704e-06	6.0903e-06	1220.8	237.59	1.1768e-05	3.7982e-06	294.9	83.002	66.016	19.531	5.7811e-06	26.688	0.0011333	0.0013071	0.00032724	1148.6	1.2908e-05	1.4277e-05	1246.8	250.13	1.3248e-05	1.4046e-05	319.08	91.91	74.676	23.112	1.2683e-05	30.979	145.118	203.395	424.695	92.218	244.518	317.762	92.093	99.513	218.924	223.497	99.088	105.965	106.026	113.105	327.682	113.401	-8191	255	
1420.754	1	1	0	0	0.26125	0.194	0.10308	0.11312	0.17601	0.17042	0.27507	0.12791	0.16244	0.1026	0.11543	0.059261	0.1265	0.092298	0.11939	0.11028	-1.5458	-2.2646	-2.3375	-2.0333	-2.2083	-2.1063	-2.1229	-2.4417	-1.9813	-2.05	-2.4292	-1.9271	-2.2938	-2.1708	-2.0958	-2.4083	95.480	319.480	388.296	413.509	390.198	432.931	426.488	364.341	121.547	369.886	371.743	197.946	85.447	367.722	210.407	210.956	0.00039513	0.00062308	0.00032501	1127.5	2.4679e-06	9.1965e-06	1213.7	236.62	1.1346e-05	9.1947e-06	295.52	82.893	65.483	19.325	3.0218e-06	26.758	0.0012024	0.0012546	0.0003152	1148.8	1.3646e-05	1.3584e-05	1242.5	249.8	1.3858e-05	1.3463e-05	317.89	92.015	75.085	22.91	1.2407e-05	31.1	167.104	307.555	229.993	92.297	109.817	103.504	92.092	99.644	205.677	107.880	99.592	106.107	106.061	113.066	110.484	112.948	-8191	255	
1420.875	1	1	0	0	0.24575	0.10977	0.034438	0.090864	0.1297	0.19984	0.34946	0.090824	0.1421	0.07296	0.27679	0.21621	0.14284	0.41085	0.11783	0.10811	-1.5417	-1.8563	-2.2396	-2.1542	-2.2875	-2.2062	-2.1958	-2.4021	-2.0229	-2.1146	-2.3708	-2.0875	-2.225	-2.2083	-1.9312	-2.5896	143.960	412.272	90.867	425.325	211.907	373.576	407.399	383.092	307.569	408.295	403.589	350.846	301.420	96.890	338.772	227.863	0.00026065	0.00012876	0.00019318	1124.8	8.7428e-06	1.9298e-06	1219.4	236.71	3.7946e-06	6.8521e-06	295.01	82.829	65.125	19.21	7.8282e-06	26.814	0.0012507	0.0012043	0.00030657	1151.6	1.4074e-05	1.2951e-05	1243.8	250.74	1.4233e-05	1.2913e-05	316.88	92.683	75.119	22.663	1.209e-05	31.451	179.707	133.359	275.415	92.103	279.715	330.613	92.138	99.843	372.553	278.517	99.214	105.870	106.139	112.943	179.344	112.903	-8191	255	
1420.971	1	1	0	0	0.13873	0.17724	0.077332	0.059305	0.15983	0.22141	0.25898	0.055906	0.19776	0.062104	0.25075	0.10994	0.31191	0.26386	0.1139	0.32865	-1.3958	-2.0833	-2.4167	-2.0583	-2.0146	-2.2708	-2.2292	-2.4646	-2.2708	-1.9937	-2.3417	-2.0917	-2.2479	-2.4333	-1.8563	-2.3458	388.262	257.903	122.526	210.631	112.251	339.215	386.452	157.809	291.182	347.147	321.274	249.517	436.854	169.466	230.374	332.285	0.00027333	0.00049105	0.00013524	1124.8	8.6288e-06	3.8309e-06	1216.6	236.75	1.5247e-06	2.1996e-06	294.34	82.689	65.672	19.366	9.3704e-06	26.418	0.0012429	0.0011539	0.00030248	1155.7	1.3905e-05	1.2451e-05	1241.5	251.96	1.3604e-05	1.2527e-05	316.72	93.339	74.966	22.529	1.2046e-05	31.753	175.048	219.931	423.003	92.248	407.034	197.573	92.230	99.664	156.798	245.901	98.800	105.745	106.630	113.362	183.521	112.757	-8191	255	
1421.067	1	1	0	0	0.17655	0.2691	0.17289	0.41651	0.37727	0.30427	0.099667	0.29006	0.25543	0.096843	0.02605	0.10472	0.13964	0.08889	0.27161	0.3368	-1.7396	-2.0687	-2.2146	-2.175	-2.1792	-2.375	-2.2271	-2.5292	-2.0438	-2.0042	-2.5208	-2.2917	-2.1375	-2.3312	-1.8875	-2.2167	295.636	306.345	436.273	382.718	219.554	157.365	354.679	390.556	122.698	197.390	90.234	330.069	83.969	182.071	200.959	91.330	0.00040524	0.00064582	0.00021086	1124.3	5.9904e-06	2.3908e-06	1214.4	236.6	4.4762e-06	9.2713e-06	295.52	82.992	65.326	19.488	4.5441e-06	26.767	0.0011915	0.001134	0.00030455	1160	1.3449e-05	1.2357e-05	1241.2	253.41	1.3171e-05	1.2436e-05	318.55	94.195	74.536	22.579	1.2975e-05	32.049	172.671	122.910	151.112	92.101	292.342	314.306	92.290	99.480	389.360	340.857	99.456	105.833	106.200	113.291	230.669	112.731	-8191	255	
1421.139	1	1	0	0	0.21367	0.10133	0.1722	0.21601	0.30677	0.11072	0.14691	0.22934	0.13847	0.22307	0.13932	0.1007	0.21912	0.22588	0.0082484	0.21825	-1.5562	-2.0417	-2.1833	-2.1792	-2.1146	-2.3333	-2.0583	-2.3896	-2.1979	-1.9896	-2.3229	-2.1417	-2.15	-2.2875	-1.9083	-2.3104	212.064	379.674	218.480	350.660	303.356	182.206	90.586	419.960	434.191	218.896	120.381	124.633	250.662	97.588	178.894	427.024	0.00016461	0.000314	0.00015011	1123.6	3.4544e-06	9.2596e-06	1219.9	236.96	5.5264e-06	3.4135e-06	296.48	81.941	65.339	19.277	6.967e-06	26.421	0.001169	0.0011384	0.00033109	1162.7	1.3029e-05	1.2316e-05	1248.3	254.09	1.2921e-05	1.2261e-05	321.5	94.058	74.041	22.457	1.3854e-05	31.964	167.157	222.023	401.665	92.237	104.086	143.339	92.121	99.623	272.419	210.703	99.189	106.068	106.379	113.450	144.832	113.296	-8191	255	
1421.260	1	1	0	0	0.085965	0.082328	0.031624	0.40321	0.091442	0.28371	0.28069	0.17382	0.18563	0.20027	0.17212	0.27641	0.18495	0.063626	0.12724	0.034408	-2.0938	-1.7396	-2.2583	-2.2917	-2.1063	-2.3812	-2.2125	-2.2458	-2.15	-2.1042	-2.3396	-2.0792	-1.9083	-2.3208	-2.1167	-2.3312	412.164	304.824	250.434	420.779	392.921	208.685	384.026	109.901	363.227	298.807	175.344	391.086	168.103	165.395	130.901	412.120	0.00039984	0.0001128	7.6823e-05	1127.5	3.6011e-06	9.3871e-06	1220	235.96	4.5226e-06	4.5172e-06	297	82.582	65.752	19.381	8.8246e-06	26.722	0.0011256	0.0011156	0.00035379	1160.7	1.2797e-05	1.2177e-05	1253	252.86	1.2546e-05	1.2421e-05	324.07	93.495	73.758	22.564	1.4505e-05	31.782	146.209	255.446	134.858	92.122	134.874	211.518	92.405	99.780	207.022	296.581	99.097	106.081	106.413	113.584	253.962	112.732	-8191	255	
1421.356	1	1	0	0	0.31067	0.14383	0.16785	0.20098	0.099504	0.066038	0.19357	0.19794	0.095819	0.36234	0.10411	0.088531	0.51094	0.23714	0.022206	0.097654	-1.9792	-2.0729	-2.3083	-2.3063	-2.0875	-2.2854	-2.3125	-2.0854	-2.3063	-2.0042	-2.4479	-2.2042	-2.0875	-2.475	-2.125	-1.95	231.196	410.468	137.297	352.445	85.564	292.991	385.257	401.541	216.428	412.763	335.101	152.092	262.438	93.211	202.688	394.682	0.00037673	0.00051568	0.00032527	1122.4	6.1341e-06	5.7532e-06	1210.6	235.79	7.6763e-06	1.5174e-05	297.11	82.758	65.329	19.588	4.8047e-06	26.572	0.0011119	0.0011648	0.00037521	1156.7	1.2698e-05	1.2927e-05	1255.5	252.16	1.2673e-05	1.3375e-05	326.12	93.114	73.819	22.946	1.4896e-05	31.575	176.469	166.717	149.534	92.183	207.549	271.924	92.012	99.654	195.548	224.254	99.163	105.656	106.641	113.237	382.437	113.324	-8191	255	
1421.452	1	1	0	0	0.20538	0.16084	0.26194	0.21416	0.15595	0.21641	0.11782	0.27465	0.14878	0.12493	0.29512	0.41493	0.31386	0.090344	0.15429	0.082792	-1.8458	-1.9375	-2.1312	-2.3042	-2.0146	-2.4437	-2.2562	-2.1479	-2.5896	-1.9792	-2.2292	-2.1333	-2.0958	-2.35	-2.0146	-2.2	284.956	401.281	358.726	300.980	226.202	91.948	231.091	159.397	194.169	421.578	344.011	411.658	362.554	441.933	225.848	312.109	0.00035991	0.0012958	0.00024558	1124.5	4.3316e-06	4.9211e-06	1216.3	236.66	3.531e-06	3.7069e-06	295.26	82.73	65.799	19.5	8.6105e-06	26.67	0.0011124	0.0012623	0.00037677	1156.6	1.2582e-05	1.4095e-05	1258	252.18	1.2626e-05	1.4577e-05	325.09	93.042	74.14	23.362	1.4781e-05	31.627	174.024	186.110	235.795	92.124	257.576	233.602	92.220	99.986	242.204	408.441	99.048	105.917	106.416	113.640	237.898	113.194	-8191	255	
1421.548	1	1	0	0	0.15842	0.17379	0.40047	0.20485	0.27617	0.22056	0.28509	0.13106	0.029707	0.13075	0.18386	0.36829	0.083289	0.10513	0.16946	0.20761	-2.0521	-2.0812	-2.1875	-2.4792	-1.9354	-2.175	-2.3688	-2.1458	-2.4667	-1.9625	-2.2708	-2.4521	-1.95	-2.3333	-2.1104	-2.025	112.875	203.457	146.343	418.395	428.658	204.978	393.792	155.599	162.419	154.334	403.753	90.870	377.962	274.448	104.200	81.992	0.00030061	0.0010468	0.00015459	1125	6.9581e-06	5.1287e-06	1217.2	236.38	6.3901e-06	9.071e-06	297.34	82.367	65.355	19.463	6.2232e-06	26.67	0.0011418	0.0013801	0.00037487	1156.7	1.3218e-05	1.5386e-05	1255.9	252.14	1.3399e-05	1.5655e-05	324.19	92.942	74.784	23.636	1.4368e-05	31.621	142.073	220.485	408.469	92.059	213.951	186.388	92.403	99.668	201.799	133.939	99.152	106.037	106.382	113.398	328.783	113.578	-8191	255	
1421.667	1	1	0	0	0.084121	0.16339	0.32044	0.28515	0.12627	0.14228	0.19129	0.12043	0.062942	0.21429	0.15516	0.18704	0.25826	0.25335	0.1066	0.068221	-2.0875	-2.3354	-2.0187	-2.55	-1.8896	-2.275	-2.5229	-2.1354	-2.3542	-1.9542	-2.1854	-2.3875	-2.0208	-2.0125	-2.2042	-1.9979	224.510	436.389	439.950	440.058	415.701	174.316	400.105	145.247	358.136	323.475	129.410	416.048	402.670	138.485	251.194	352.709	0.00042432	0.00029027	0.00026428	1129.5	8.9043e-06	6.0128e-06	1215.7	235.48	6.5541e-06	9.8225e-07	294.84	82.524	65.592	19.317	7.2985e-06	26.325	0.0012209	0.0014325	0.00036228	1155.1	1.4122e-05	1.5776e-05	1252.8	251.69	1.4447e-05	1.58e-05	323.55	93.103	75.95	23.68	1.4279e-05	31.587	168.063	136.346	273.031	92.221	221.956	274.444	92.306	99.796	220.846	338.124	99.412	106.153	106.676	113.245	405.620	112.869	-8191	255	
1421.739	1	1	0	0	0.16853	0.3886	0.27986	0.1998	0.25032	0.070772	0.45529	0.29485	0.17845	0.23358	0.14436	0.13	0.086201	0.30047	0.34624	0.1004	-1.9417	-2.1625	-2.0312	-2.3542	-2.0271	-2.2687	-2.5125	-2.075	-2.3542	-2.1396	-2.0896	-2.3292	-1.9771	-2.1542	-2.2438	-1.9979	83.929	198.516	89.833	85.354	301.444	412.418	393.505	416.465	162.576	145.094	95.868	199.578	160.995	122.941	135.211	244.261	0.00039501	0.00017266	0.00031116	1126.3	5.5457e-06	6.2138e-06	1213	236.39	8.3235e-06	1.0318e-05	295.23	82.789	65.426	19.38	9.7465e-06	26.662	0.0013571	0.001445	0.00036593	1155.7	1.5574e-05	1.5767e-05	1250	252.26	1.5752e-05	1.5441e-05	323.34	93.081	76.632	23.486	1.3915e-05	31.738	151.473	248.555	273.786	92.243	215.548	376.215	92.002	99.501	233.982	385.284	99.096	105.748	106.433	113.291	267.880	112.649	-8191	255	
1421.836	1	1	0	0	0.23036	0.20106	0.20997	0.43229	0.4436	0.1907	0.10344	0.13721	0.068527	0.15398	0.062125	0.18108	0.16699	0.18007	0.27318	0.13787	-1.8333	-2.1354	-1.9167	-2.5396	-1.95	-1.7917	-2.4708	-2.0208	-2.2625	-2.0771	-1.9958	-2.4896	-2.1708	-2.0042	-2.2979	-2.0708	325.922	275.155	313.919	413.740	424.869	363.746	424.081	288.895	196.294	171.342	340.756	108.450	122.221	117.469	150.601	129.175	0.00037748	0.00059671	0.00044816	1121.9	4.7401e-06	5.0059e-06	1208.4	237.12	6.4087e-06	5.0083e-06	295.71	82.853	64.917	19.297	4.0748e-06	26.675	0.0014126	0.0013558	0.00035632	1158.6	1.6082e-05	1.5005e-05	1249.2	253.97	1.6294e-05	1.4731e-05	322.59	94.106	76.933	23.314	1.3744e-05	32.181	154.003	304.404	223.531	91.946	175.698	168.043	91.869	99.556	194.522	293.661	99.041	106.059	106.396	113.674	112.747	112.971	-8191	255	
1421.955	1	1	0	0	0.16316	0.12966	0.16606	0.45328	0.071288	0.06423	0.10882	0.20935	0.13933	0.14216	0.085629	0.12306	0.3331	0.18328	0.16241	0.24501	-1.7792	-2.2875	-1.9229	-2.5375	-2.1667	-1.9771	-2.625	-2.2375	-2.1583	-2.2062	-1.875	-2.4521	-2.1792	-2.1354	-2.3354	-2.0938	158.556	102.431	170.323	362.925	381.048	190.672	295.580	420.202	176.796	165.590	395.992	407.643	437.150	188.560	264.656	378.101	0.00025919	0.00039346	0.00022751	1126.2	8.0219e-06	4.9478e-06	1218.8	235.9	3.8862e-06	4.4568e-06	296.25	82.892	65.282	19.323	7.9446e-06	26.611	0.0014182	0.0013097	0.00034744	1164	1.5874e-05	1.4451e-05	1250.5	254.8	1.5903e-05	1.4249e-05	322.18	95.126	76.618	23.13	1.3573e-05	32.609	202.029	370.907	359.222	92.320	402.291	171.718	92.254	99.829	389.332	231.564	99.585	106.214	106.553	113.344	232.899	112.823	-8191	255	
1422.051	1	1	0	0	0.018743	0.07646	0.33759	0.16126	0.37642	0.17955	0.1557	0.32445	0.05802	0.13422	0.30659	0.076261	0.12892	0.087622	0.1403	0.062368	-1.6667	-2.2854	-1.8833	-2.3854	-2.1271	-2.0396	-2.5146	-2.1625	-2.3	-2.2667	-2.1396	-2.375	-2.2208	-1.8813	-2.5125	-2.0958	363.799	336.638	345.250	83.193	100.839	145.744	343.800	377.916	291.011	310.391	349.689	419.723	345.768	84.163	176.285	332.941	0.00035662	9.2369e-05	0.00021009	1130.3	5.9239e-06	2.8033e-06	1207.8	236.83	6.0017e-06	1.1115e-05	294.85	82.799	65.181	19.293	1.2045e-05	26.662	0.001366	0.0012687	0.00034573	1170.4	1.5062e-05	1.3859e-05	1247.8	255.95	1.4794e-05	1.3473e-05	322.38	95.322	75.38	22.937	1.388e-05	32.677	164.696	195.658	105.620	92.131	270.694	105.683	92.667	99.535	130.060	417.381	99.585	105.891	106.205	113.289	213.389	113.274	-8191	255	
1422.148	1	1	0	0	0.14021	0.282	0.37161	0.23626	0.014733	0.29301	0.033065	0.12669	0.33596	0.1471	0.1646	0.25338	0.065508	0.09123	0.17598	0.1386	-1.625	-2.3042	-1.6104	-2.2292	-2.2938	-2.0479	-2.4292	-2.4167	-2.1312	-2.3229	-2.1063	-2.3917	-2.325	-2.075	-2.325	-2.0812	340.860	125.923	160.473	384.376	396.986	351.143	297.113	181.788	101.874	335.435	271.427	413.188	341.959	105.349	158.394	386.136	0.0002279	0.00041034	0.0003528	1121.7	1.8574e-06	5.122e-06	1217.9	235.62	5.0129e-06	6.947e-06	295.84	82.731	65.666	19.303	2.2533e-06	26.499	0.0012842	0.0012251	0.00035997	1170.6	1.4165e-05	1.3493e-05	1254.5	255.95	1.4204e-05	1.3275e-05	324.12	95.204	74.92	22.878	1.4716e-05	32.479	165.641	356.378	136.883	92.012	415.652	322.540	92.200	99.801	359.284	243.564	99.286	106.251	106.417	113.242	327.236	112.490	-8191	255	
1422.268	1	1	0	0	0.094707	0.12456	0.22172	0.33172	0.070499	0.19045	0.1806	0.060879	0.21272	0.16938	0.054584	0.17985	0.067641	0.34683	0.17191	0.058633	-1.6083	-2.325	-1.7625	-2.4688	-2.3021	-1.9229	-2.5354	-2.2354	-2.0854	-2.5146	-2.1813	-2.3354	-2.3146	-1.8958	-2.3104	-2.1833	291.163	114.321	230.370	356.307	313.495	100.215	331.435	371.506	158.588	409.604	207.006	346.867	118.903	143.945	413.467	438.465	0.00028095	0.00029469	0.00018925	1122.8	4.9424e-06	5.2774e-06	1218.4	234.85	8.5193e-07	6.3745e-06	295.6	82.622	65.421	19.288	5.392e-06	26.533	0.0012306	0.0011965	0.00038427	1167.8	1.3763e-05	1.33e-05	1261.4	254.46	1.3916e-05	1.3203e-05	327.37	94.68	74.788	22.938	1.5791e-05	32.288	164.163	105.605	124.275	91.949	313.159	191.983	92.064	99.465	82.600	167.714	99.536	106.025	106.264	113.187	194.227	113.022	-8191	255	
1422.363	1	1	0	0	0.36548	0.22515	0.30776	0.092073	0.15484	0.4543	0.48632	0.1456	0.049875	0.066754	0.096527	0.11211	0.14296	0.19722	0.17231	0.28135	-1.6042	-2.3917	-2.2292	-2.3771	-2.3542	-1.8458	-2.4313	-2.2167	-1.8333	-2.4979	-1.9937	-2.0854	-2.3979	-1.8708	-2.3208	-2.0687	185.056	184.876	172.098	107.240	224.443	182.600	368.599	404.590	105.767	373.272	86.633	107.463	259.038	346.811	425.501	439.589	0.00027531	0.00095267	0.00022799	1123.3	5.1894e-06	1.2814e-05	1218.4	236.11	1.5297e-06	5.1774e-06	295.12	82.85	64.67	19.44	8.5167e-06	26.697	0.0012355	0.0012538	0.00041027	1168.5	1.3929e-05	1.4268e-05	1268.8	255.17	1.4182e-05	1.4494e-05	330.91	94.869	74.958	23.417	1.6832e-05	32.241	159.966	180.074	96.677	92.248	249.422	188.869	92.308	99.631	408.152	179.482	99.257	105.918	106.434	113.479	317.320	112.842	-8191	255	
1422.436	1	1	0	0	0.072949	0.22437	0.18866	0.17486	0.085844	0.29987	0.4263	0.12548	0.11486	0.15228	0.15862	0.088349	0.10421	0.11883	0.20705	0.16363	-1.4917	-2.25	-2.0542	-2.1542	-2.2979	-2.0021	-2.3667	-2.1292	-1.9271	-2.375	-2.0938	-2.0708	-2.2792	-2.0229	-2.1917	-2.2917	142.150	193.823	210.401	426.815	298.071	228.477	378.193	350.871	419.544	321.624	106.953	200.753	83.372	216.135	142.075	331.180	0.00024088	0.0010254	0.00020878	1124.3	4.4928e-06	7.7106e-06	1218.4	235.35	8.1283e-06	1.2415e-05	294.84	82.57	65.322	19.336	1.1661e-06	26.407	0.0012544	0.0013893	0.00042201	1167.9	1.3935e-05	1.5603e-05	1269.3	254.7	1.4086e-05	1.5665e-05	329.42	94.366	74.872	23.741	1.6022e-05	32.029	155.820	231.256	131.154	92.084	200.160	271.942	92.158	99.599	399.510	215.581	99.370	106.126	106.176	113.625	435.658	112.745	-8191	255	
1422.557	1	1	0	0	0.17302	0.076632	0.10784	0.28211	0.16114	0.34719	0.2864	0.29262	0.20756	0.29531	0.18274	0.019478	0.36472	0.034539	0.30443	0.18838	-1.4667	-2.3625	-2.0917	-2.2146	-2.2687	-1.8833	-2.2729	-2.3917	-1.9604	-2.3312	-2.1208	-1.9875	-2.4	-2.1333	-2.1042	-2.1917	176.899	85.750	422.608	106.224	83.943	203.798	91.526	422.315	232.012	370.310	91.158	138.743	426.930	207.878	150.233	120.754	0.0003124	0.0002164	0.00023467	1124.4	1.0535e-05	8.952e-06	1217.5	235.58	9.0818e-06	2.2241e-06	295.22	82.201	65.868	19.4	7.181e-06	26.565	0.0012338	0.0014481	0.00040068	1165.1	1.3724e-05	1.6127e-05	1264	253.37	1.3948e-05	1.6076e-05	326.24	93.596	75.151	23.838	1.4937e-05	31.827	183.914	190.647	327.516	92.141	243.203	268.277	92.056	99.551	230.171	146.323	99.280	106.008	106.605	113.374	100.757	112.341	-8191	255	
1422.651	1	1	0	0	0.12366	0.31808	0.33138	0.06338	0.11473	0.20182	0.13736	0.08893	0.22396	0.27179	0.30717	0.26035	0.20159	0.029949	0.07895	0.088893	-1.4104	-2.1396	-2.275	-2.0708	-2.4583	-2.2812	-2.325	-2.4417	-2.0479	-2.3833	-2.1833	-2.0375	-2.2875	-2.2167	-2.0312	-2.4688	228.451	224.402	92.561	174.637	189.106	120.593	438.596	237.476	327.569	173.286	420.906	283.793	91.461	352.905	202.697	257.726	0.00055918	0.00041603	0.00026531	1125.7	8.9009e-06	4.9628e-06	1214.1	236.62	6.481e-06	1.4309e-06	294.79	82.959	65.754	19.272	9.7629e-06	26.578	0.0012515	0.0014707	0.000376	1162.4	1.4167e-05	1.617e-05	1257.2	252.83	1.4599e-05	1.6026e-05	324.42	93.355	75.786	23.711	1.4483e-05	31.727	154.207	259.271	192.316	92.078	225.984	193.341	92.374	99.537	205.200	156.312	99.364	105.855	106.209	112.855	244.828	112.803	-8191	255	
1422.747	1	1	0	0	0.24039	0.29984	0.068906	0.19215	0.24485	0.18216	0.17154	0.091	0.16405	0.25013	0.29682	0.1052	0.297	0.24038	0.25004	0.18499	-1.6125	-2.0646	-2.2375	-2.075	-2.3563	-2.1229	-2.0312	-2.6292	-2.0208	-2.2562	-2.4854	-2.0417	-2.3917	-2.1792	-1.9896	-2.4625	274.633	163.416	223.606	382.138	101.461	289.899	381.738	376.545	258.717	270.766	114.657	90.949	310.874	105.610	427.530	347.059	0.0002283	0.00072242	0.00012704	1129.4	9.3225e-06	1.545e-06	1217.5	237.29	6.1481e-06	8.0661e-06	294.59	83.388	65.812	19.352	7.1616e-06	26.662	0.001345	0.0014606	0.00036837	1162.9	1.5523e-05	1.5915e-05	1257.8	252.79	1.5961e-05	1.5839e-05	323.92	93.752	77.047	23.649	1.4379e-05	31.779	163.787	326.018	413.238	92.139	170.001	170.722	92.019	99.706	218.869	364.072	99.228	106.121	106.298	113.384	122.522	112.679	-8191	255	
1422.843	1	1	0	0	0.25984	0.04934	0.13752	0.26365	0.33337	0.089906	0.23904	0.13928	0.10845	0.20875	0.22652	0.21609	0.19284	0.1373	0.15878	0.045499	-1.6104	-2.3187	-2.1396	-2.2896	-2.2938	-2.3104	-2.2521	-2.6729	-2.1479	-2.2375	-2.4646	-2.0271	-2.3625	-2.35	-1.8271	-2.4938	148.662	399.374	408.545	102.202	378.889	217.434	381.123	234.893	362.482	242.627	161.030	394.648	131.798	140.921	358.599	436.046	0.0003672	0.00075761	8.8277e-05	1127.6	5.7973e-06	9.512e-06	1220.1	237.39	8.8357e-07	1.0532e-06	294.77	83.089	65.412	19.388	7.9591e-06	26.988	0.001421	0.001405	0.00035504	1163.9	1.6177e-05	1.5202e-05	1256.3	253.64	1.632e-05	1.4871e-05	322.12	94.156	77.061	23.357	1.3912e-05	32.16	176.979	185.737	89.260	92.191	158.626	92.801	92.577	99.515	192.245	267.678	99.330	106.044	106.590	112.897	286.165	112.849	-8191	255	
1422.964	1	1	0	0	0.09693	0.1417	0.16685	0.28079	0.042094	0.060776	0.27815	0.15317	0.18285	0.12885	0.10233	0.027563	0.15267	0.21131	0.091029	0.3807	-1.7417	-1.9729	-2.2333	-2.2479	-2.2812	-2.3833	-2.1229	-2.4375	-2.1646	-2.0708	-2.5229	-1.8062	-2.2125	-2.3292	-2.1125	-2.4896	273.905	437.863	374.491	402.250	266.956	132.391	332.199	100.514	94.594	142.354	244.769	430.422	186.214	420.575	193.122	84.320	0.0003379	0.00066693	0.00033468	1132.1	9.7806e-06	8.4441e-06	1211.3	237.91	4.5864e-06	4.0177e-06	295.01	82.539	65.141	19.167	3.2337e-06	26.736	0.0014133	0.0013217	0.00034182	1167.8	1.5646e-05	1.4195e-05	1250.7	254.73	1.5501e-05	1.3993e-05	319.99	94.534	76.175	22.972	1.3093e-05	32.233	154.633	383.822	136.077	92.261	230.403	408.698	92.164	99.575	105.733	265.553	99.486	105.912	106.365	113.062	262.165	112.689	-8191	255	
1423.036	1	1	0	0	0.13154	0.10268	0.1473	0.044911	0.17777	0.061103	0.185	0.22466	0.093252	0.24337	0.12989	0.22954	0.25557	0.11005	0.094352	0.35073	-1.7208	-1.8729	-2.3479	-1.9792	-2.2	-2.3542	-1.9396	-2.3563	-2.3604	-2.0292	-2.5625	-1.9792	-2.15	-2.6167	-1.9062	-2.3396	151.348	415.114	419.288	405.052	363.617	206.979	109.478	256.429	181.556	130.408	282.751	262.425	406.073	315.191	232.478	352.082	0.00014124	0.00070937	0.00033194	1127	5.8774e-06	7.1758e-06	1214.5	236.08	8.2339e-06	6.7752e-06	295.08	82.77	64.992	19.437	9.0764e-06	26.869	0.0013007	0.001229	0.00032686	1168.6	1.4699e-05	1.3348e-05	1249.8	255.22	1.4416e-05	1.3343e-05	320.24	95.186	75.453	22.887	1.3476e-05	32.576	213.752	212.451	146.646	92.296	119.042	231.110	92.064	99.524	257.229	112.025	99.362	106.099	106.250	113.488	229.972	113.032	-8191	255	
1423.132	1	1	0	0	0.26568	0.058785	0.12856	0.16309	0.19767	0.17881	0.18505	0.21713	0.26737	0.15051	0.071133	0.16287	0.35976	0.18532	0.06898	0.2338	-1.5812	-1.8813	-2.2625	-2.2479	-1.9167	-2.3688	-1.9688	-2.3667	-2.0687	-1.8792	-2.6021	-2.2396	-2.1125	-2.2229	-2.0646	-2.3271	324.717	252.228	307.717	431.310	195.929	195.548	165.622	385.905	218.050	369.557	387.936	209.358	412.947	438.676	139.932	411.066	0.00024201	0.00044811	0.00021527	1125.6	8.5097e-06	7.0549e-06	1223.4	236.6	1.0362e-05	1.05e-05	294.43	82.875	65.35	19.453	1.112e-05	26.804	0.0012422	0.0012091	0.00034301	1170.4	1.3907e-05	1.2964e-05	1254.4	255.54	1.363e-05	1.2869e-05	322.06	94.791	74.617	22.705	1.3873e-05	32.241	173.246	179.222	148.494	92.034	385.815	250.724	92.431	99.601	334.606	408.554	99.174	106.004	106.079	113.012	201.630	112.598	-8191	255	
1423.228	1	1	0	0	0.15111	0.20885	0.13445	0.068357	0.099408	0.060451	0.13866	0.05541	0.23643	0.11684	0.13682	0.31849	0.086172	0.25083	0.069354	0.026986	-1.7896	-1.9833	-2.2896	-2.2354	-1.9625	-2.3896	-2.2375	-2.1771	-2.2938	-2.0812	-2.4688	-2.1458	-2.0917	-2.4542	-1.9146	-2.1937	435.654	357.313	119.265	427.203	332.224	329.204	110.260	89.000	378.759	196.020	107.505	387.560	374.698	102.857	435.908	146.129	0.00032123	0.00042702	0.0005149	1127.2	1.2005e-06	1.3934e-05	1220.6	235.67	4.5532e-06	6.3024e-06	296.48	82.373	65.282	19.459	3.7787e-06	26.573	0.0011691	0.0011533	0.00035709	1165.6	1.3135e-05	1.2409e-05	1257.9	253.65	1.3064e-05	1.2728e-05	324.46	93.826	74.403	22.701	1.4774e-05	32.014	151.898	390.645	164.355	92.469	234.462	251.311	92.329	99.851	244.535	255.412	98.955	105.775	106.465	113.212	221.043	112.639	-8191	255	
1423.349	1	1	0	0	0.13861	0.096997	0.027983	0.34763	0.22333	0.073983	0.46826	0.30795	0.15348	0.28738	0.2417	0.25128	0.34024	0.24837	0.09577	0.070339	-1.9396	-1.9646	-2.4854	-2.3688	-1.8458	-2.225	-2.1458	-2.0375	-2.4104	-1.9083	-2.4458	-2.1917	-2.0896	-2.3812	-1.9521	-2.225	408.252	135.137	401.759	410.539	385.136	297.865	410.476	353.003	146.006	185.312	120.707	387.490	104.921	385.260	380.263	393.840	0.00036242	0.0014338	0.00047922	1124.1	3.6817e-06	5.2723e-06	1214.2	236.29	1.7621e-06	7.457e-06	295.65	82.486	65.335	19.302	3.5166e-06	26.397	0.0011411	0.001169	0.00037715	1161.9	1.2924e-05	1.2882e-05	1260	253.18	1.2711e-05	1.3177e-05	326.37	93.385	74.067	22.882	1.5145e-05	31.761	160.689	171.904	125.672	92.152	281.046	246.483	92.212	99.452	134.332	172.090	99.417	106.149	106.447	113.406	203.822	113.078	-8191	255	
1423.443	1	1	0	0	0.33343	0.064979	0.15037	0.19744	0.12564	0.057043	0.3047	0.36967	0.038184	0.1532	0.12563	0.074254	0.13148	0.20525	0.25086	0.22278	-1.9271	-2.1437	-2.1312	-2.2229	-1.8917	-2.4271	-2.2458	-2.1833	-2.3292	-2.125	-2.4542	-2.1917	-2.1542	-2.4104	-2.3	-2.2604	103.193	345.317	85.400	358.960	170.789	375.145	387.089	415.620	273.617	304.190	369.684	344.167	256.961	134.613	335.594	279.947	0.00036868	0.0017414	0.0002304	1126.3	6.7789e-06	7.936e-06	1219.4	236.85	7.1132e-06	1.5382e-05	295.97	82.462	65.31	19.366	2.4465e-06	26.637	0.0011263	0.0012592	0.00038675	1159.1	1.2935e-05	1.3976e-05	1262.4	252.37	1.2556e-05	1.4175e-05	326.03	92.893	73.984	23.272	1.4869e-05	31.757	149.874	177.549	407.522	92.195	407.929	210.345	92.220	99.632	204.605	212.246	99.446	106.292	106.198	113.421	285.213	112.696	-8191	255	
1423.539	1	1	0	0	0.044655	0.17737	0.21427	0.24696	0.19355	0.29566	0.17731	0.1473	0.22289	0.25095	0.27264	0.15263	0.17597	0.26427	0.058482	0.15009	-2.1708	-2.1312	-2.2146	-2.4146	-1.9917	-2.3625	-2.325	-2	-2.2396	-2.0104	-1.9896	-2.3125	-2.0125	-2.3396	-2.2708	-1.9146	274.554	235.404	436.937	417.545	263.972	283.606	434.106	233.878	243.148	209.715	225.233	397.758	378.502	418.200	132.736	381.136	0.00031541	0.00025331	7.5058e-05	1128.6	7.2036e-06	1.677e-05	1214	236.5	3.9238e-06	1.2653e-05	296.68	83.297	65.45	19.447	1.1438e-05	26.4	0.0011304	0.0013498	0.00037612	1160.1	1.3006e-05	1.5068e-05	1259.5	252.27	1.3024e-05	1.5286e-05	324.6	93.161	74.454	23.595	1.4351e-05	31.558	137.884	182.135	309.401	92.258	214.513	205.625	92.105	99.568	203.333	207.850	99.047	105.797	106.491	113.401	83.714	112.964	-8191	255	
1423.637	1	1	0	0	0.1051	0.237	0.15616	0.2068	0.17814	0.20027	0.1531	0.14565	0.087597	0.25479	0.16366	0.11223	0.22	0.20571	0.26227	0.32522	-1.7958	-1.9771	-2.0521	-2.5771	-1.9667	-2.1646	-2.3187	-1.9917	-2.1667	-2.0292	-2.1688	-2.3708	-1.8729	-2.1854	-2.1917	-1.7271	147.211	288.553	393.135	106.077	323.338	292.349	167.870	426.997	417.900	124.109	163.647	440.787	280.600	211.091	361.569	367.837	0.0003796	0.0015572	0.00031247	1126.4	1.0496e-05	2.1464e-06	1217.7	236.16	4.6838e-06	8.3074e-06	295.26	83.135	66.032	19.238	1.9353e-06	26.693	0.0011877	0.001417	0.00036427	1158.4	1.3635e-05	1.5513e-05	1255.5	251.58	1.3693e-05	1.5377e-05	322.49	92.711	75.388	23.577	1.3788e-05	31.491	162.865	112.292	383.450	92.259	195.169	219.834	92.408	99.333	160.854	365.809	99.613	106.003	106.379	113.401	223.070	112.823	-8191	255	
1423.731	1	1	0	0	0.17308	0.3009	0.35753	0.16697	0.19401	0.063188	0.21937	0.20473	0.14355	0.13541	0.19187	0.35591	0.38073	0.26736	0.26829	0.27462	-1.8333	-2.0438	-1.9479	-2.1917	-1.9229	-2.1208	-2.3917	-1.8937	-2.3083	-2.0812	-1.8979	-2.3125	-2.0896	-2.3479	-2.1562	-2.0375	327.410	131.033	198.098	421.252	208.056	305.675	302.758	102.769	181.379	433.750	367.470	352.180	369.711	102.309	240.619	433.736	0.00039866	0.00044314	0.0001151	1130.4	1.1503e-05	7.4369e-06	1221.1	237.61	3.9003e-06	3.9103e-06	297.72	82.552	65.533	19.554	1.0375e-05	26.784	0.001254	0.0013875	0.000349	1158.4	1.4545e-05	1.5155e-05	1254	252	1.4776e-05	1.4953e-05	322.81	92.701	76.173	23.448	1.3585e-05	31.657	137.598	296.135	86.478	92.241	202.940	217.065	92.248	99.562	282.412	402.792	99.321	105.997	106.239	113.275	222.033	112.659	-8191	255	
1423.829	1	1	0	0	0.33218	0.086233	0.23847	0.18884	0.074509	0.09527	0.44207	0.14392	0.20167	0.13448	0.21985	0.21375	0.33727	0.25078	0.32434	0.074589	-1.9146	-2.1667	-2.0979	-2.5167	-1.8958	-2.1437	-2.4667	-2.0542	-2.4542	-2.2104	-1.8042	-2.5812	-2.0812	-2.0458	-2.3583	-2.0792	248.466	202.338	175.564	113.428	274.802	366.958	353.104	430.288	201.487	108.066	98.526	181.289	125.096	226.512	294.831	251.324	0.00026222	0.00093076	8.7294e-05	1131.7	7.057e-06	4.6244e-06	1219.5	237.81	4.2898e-06	9.9834e-06	295.69	82.632	66.189	19.445	2.0653e-06	26.76	0.0013435	0.001335	0.00034449	1160.5	1.5372e-05	1.4542e-05	1252.9	252.87	1.5479e-05	1.4344e-05	322.12	93.425	76.8	23.296	1.339e-05	32.03	144.402	307.237	240.430	92.203	288.572	90.275	92.116	99.739	187.011	338.791	99.077	105.756	106.375	113.175	257.632	112.689	-8191	255	
1423.948	1	1	0	0	0.11239	0.30915	0.12912	0.048195	0.11392	0.27463	0.085054	0.068422	0.11023	0.19381	0.24585	0.13342	0.077212	0.019963	0.11406	0.064686	-1.9271	-2.2375	-2.0458	-2.5771	-2.0792	-2.1833	-2.4458	-2.0083	-2.2771	-2.2188	-2.1562	-2.3375	-2.2854	-2.125	-2.3021	-2.0687	142.575	378.690	275.946	342.746	84.406	103.194	114.047	412.839	167.676	424.837	410.519	140.297	238.286	183.669	83.071	111.539	0.00031741	0.00038896	0.00028917	1131.3	3.5594e-06	6.7583e-06	1220.1	237.04	3.7924e-06	3.0395e-06	295.42	83.149	65.33	19.298	4.7881e-06	26.887	0.0013984	0.0012955	0.00034258	1166.3	1.5847e-05	1.445e-05	1252.8	254.96	1.5893e-05	1.428e-05	322.02	95.101	76.737	23.304	1.3434e-05	32.624	142.575	428.705	226.763	92.193	257.808	361.581	92.174	99.537	330.257	229.925	99.269	105.954	106.336	113.498	372.399	113.051	-8191	255	
1424.044	1	1	0	0	0.040722	0.25595	0.22538	0.281	0.10536	0.33763	0.20028	0.10734	0.22132	0.24487	0.11907	0.26723	0.16286	0.12794	0.26838	0.17648	-1.8646	-2.2229	-1.9333	-2.2479	-2.0208	-2.0417	-2.5146	-2.1688	-2.1229	-2.1208	-1.9667	-2.4167	-2.1896	-2.0938	-2.2125	-2	156.059	237.711	374.186	371.227	432.062	136.761	378.622	354.175	332.657	89.171	228.432	441.338	352.783	310.277	183.055	368.327	0.00014014	0.0011638	0.00020926	1130.8	7.9891e-06	8.1745e-06	1215.5	236.7	6.7367e-06	1.049e-06	294.98	83.126	64.939	19.487	8.4251e-06	26.857	0.0013812	0.0012803	0.0003428	1170.7	1.5211e-05	1.3922e-05	1250.1	256.14	1.5029e-05	1.3687e-05	321.3	95.707	75.782	23.122	1.3668e-05	32.796	133.361	305.482	165.549	92.319	354.948	300.194	92.052	99.799	326.411	174.705	99.349	105.848	106.433	112.907	278.531	112.943	-8191	255	
1424.141	1	1	0	0	0.21363	0.18455	0.4077	0.23935	0.11687	0.21124	0.020076	0.080161	0.22287	0.12866	0.18372	0.14276	0.1411	0.15846	0.14014	0.2081	-1.8937	-2.2625	-2.0167	-2.1625	-2.1854	-1.9708	-2.3688	-2.0729	-2.0333	-2.3021	-1.9813	-2.1604	-2.3167	-2.1312	-2.4625	-2.175	383.098	139.657	198.136	429.923	193.679	291.021	414.119	407.948	240.678	178.149	413.480	85.917	430.396	363.593	350.059	177.474	0.00019429	0.00097323	0.00041666	1132.2	1.6872e-06	3.6951e-06	1216.2	236.46	7.9732e-06	4.5602e-06	296.16	83.221	65.628	19.464	7.451e-06	26.582	0.0013226	0.0012495	0.00035761	1175.3	1.4668e-05	1.376e-05	1254.7	256.91	1.4479e-05	1.3364e-05	324.63	95.827	75.467	22.956	1.4367e-05	32.581	152.430	282.452	135.371	92.143	274.000	243.004	92.232	99.398	299.760	243.415	99.283	106.267	106.063	113.129	164.504	112.908	-8191	255	
1424.237	1	1	0	0	0.33167	0.1792	0.12805	0.077608	0.0592	0.21683	0.078986	0.18429	0.18889	0.22391	0.17779	0.10313	0.15716	0.20902	0.14362	0.39606	-1.6021	-2.4208	-2.0042	-2.2313	-2.2521	-1.8937	-2.4188	-2.4	-2.0187	-2.4104	-2.1312	-2.2375	-2.4604	-2.275	-2.4292	-2.2646	120.643	159.916	417.904	152.363	107.672	166.123	418.130	316.031	173.399	306.949	425.883	222.962	144.819	292.072	316.375	101.270	0.00019904	0.00022201	0.00041956	1126.4	1.9515e-06	4.4994e-06	1220.6	236.16	5.4009e-06	2.6534e-06	296	82.268	65.165	19.644	3.1056e-06	26.638	0.0012401	0.001194	0.00037048	1169.8	1.3716e-05	1.3176e-05	1259.4	255.52	1.3839e-05	1.3012e-05	326.51	94.693	74.51	22.922	1.5037e-05	32.16	150.718	140.288	142.065	92.311	304.076	259.679	92.156	99.820	243.109	159.464	99.370	105.996	106.295	113.414	307.400	112.555	-8191	255	
1424.333	1	1	0	0	0.044722	0.097445	0.22426	0.051842	0.22932	0.10662	0.30894	0.27622	0.13731	0.091773	0.14718	0.1443	0.23027	0.31058	0.16624	0.094644	-1.6521	-2.3542	-1.9542	-2.4229	-2.1813	-2	-2.5417	-2.2646	-2.0625	-2.4229	-2.2292	-2.1146	-2.2875	-2.1125	-2.3667	-2.4437	218.651	83.750	108.569	185.342	359.086	324.509	93.052	307.688	385.786	287.986	345.636	342.227	400.421	382.087	362.063	181.050	0.00029948	0.00011123	0.00015745	1125.6	4.994e-06	1.3486e-05	1219.4	236.61	4.6386e-06	4.7594e-06	297.11	82.393	65.623	19.519	1.6995e-06	26.811	0.0011908	0.0011832	0.00038631	1165.9	1.3146e-05	1.3197e-05	1265.2	253.56	1.3245e-05	1.3138e-05	327.31	93.98	74.206	23.053	1.5291e-05	31.916	164.284	436.093	114.410	92.216	390.218	204.982	92.075	99.487	245.272	124.288	99.309	106.007	106.469	113.063	244.444	112.890	-8191	255	
1424.429	1	1	0	0	0.35875	0.2127	0.062178	0.13324	0.0423	0.17088	0.11603	0.18189	0.20657	0.20719	0.10632	0.18932	0.26083	0.08287	0.18497	0.23529	-1.5333	-2.4437	-2.0854	-2.2646	-2.3563	-1.9375	-2.4167	-2.2125	-1.8667	-2.4042	-2.2771	-2.1667	-2.3271	-2.0542	-2.2292	-2.425	157.526	103.605	271.104	182.284	391.284	408.563	329.668	329.056	270.489	139.253	405.569	206.316	102.453	279.811	406.589	438.771	0.00030302	0.00091236	0.00023052	1131.5	6.5496e-06	1.1574e-05	1218.6	236.83	7.4788e-06	7.3553e-06	297.21	83.278	65.646	19.559	5.7188e-06	26.734	0.0011483	0.0012312	0.00038372	1164.3	1.2532e-05	1.366e-05	1260.3	252.07	1.2481e-05	1.3793e-05	325.6	93.184	73.783	23.252	1.453e-05	31.496	169.930	122.002	147.825	92.334	305.255	151.937	92.151	99.428	260.651	215.116	99.293	106.007	106.286	112.987	201.400	112.715	-8191	255	
1424.525	1	1	0	0	0.18366	0.14006	0.21679	0.13053	0.056933	0.11349	0.21694	0.22633	0.11676	0.052639	0.17401	0.081519	0.14514	0.020731	0.023898	0.34133	-1.6938	-2.4562	-2.1271	-2.1583	-2.3937	-2.0375	-2.4333	-2.5521	-1.8125	-2.2896	-2.1979	-2.0687	-2.4688	-2.2833	-2.1875	-2.3542	138.941	198.794	402.515	159.949	212.810	163.212	409.618	84.297	225.796	134.398	130.600	148.929	391.890	268.798	262.719	420.251	0.00039052	0.0011703	0.00023829	1131.6	5.1994e-06	1.6736e-05	1218.9	236.28	2.7166e-06	4.2911e-06	295.75	82.6	65.563	19.494	7.5644e-06	26.675	0.0011022	0.0012825	0.00036254	1158.5	1.2309e-05	1.4224e-05	1253.7	251.14	1.2451e-05	1.4286e-05	322.25	92.426	73.704	23.297	1.3703e-05	31.293	172.178	101.912	245.190	92.047	250.252	234.649	92.088	99.468	228.291	151.715	98.994	106.191	106.531	113.320	279.474	112.844	-8191	255	
1424.644	1	1	0	0	0.22361	0.063469	0.06737	0.19577	0.34605	0.10526	0.098149	0.17234	0.25543	0.074369	0.17475	0.34358	0.34968	0.12528	0.078286	0.34344	-1.4604	-2.325	-2.1437	-2.2812	-2.275	-2.0708	-2.2604	-2.3875	-1.9312	-2.3208	-2.4146	-2.1521	-2.2792	-2.0042	-2.1625	-2.2917	169.252	365.501	332.744	426.938	111.662	247.591	283.399	346.284	302.168	400.101	418.692	100.201	122.882	275.064	206.428	160.300	0.00043605	0.00081646	0.00013725	1131.5	1.0166e-05	9.6882e-06	1213.7	237.27	1.6795e-05	3.4742e-06	294.82	82.878	65.224	19.562	6.7977e-06	26.556	0.0011221	0.0013276	0.0003421	1154.9	1.2635e-05	1.4652e-05	1249.9	250.35	1.3019e-05	1.4541e-05	320.59	92.388	74.329	23.339	1.3092e-05	31.089	155.656	230.906	90.941	92.145	246.218	129.137	92.471	99.295	200.924	99.467	99.370	105.916	106.323	113.466	262.734	112.836	-8191	255	
1424.740	1	1	0	0	0.35869	0.10414	0.18303	0.17578	0.13538	0.27223	0.12902	0.24706	0.070786	0.26927	0.15373	0.096785	0.21738	0.49842	0.23702	0.079221	-1.6458	-2.2313	-2.1208	-2.0583	-2.35	-2.2875	-2.2583	-2.4479	-2.0896	-2.2979	-2.3521	-1.9708	-2.2938	-2.1917	-2.0187	-2.3312	404.286	441.481	123.140	110.174	160.460	322.227	348.040	404.850	374.896	104.173	435.520	378.958	377.606	99.012	115.149	392.575	0.00052763	0.0007356	0.0002009	1125.2	1.5536e-06	5.4328e-06	1217.3	236	8.7506e-06	4.5384e-06	295.24	82.886	65.31	19.312	6.0182e-06	26.931	0.0011892	0.0013106	0.00032523	1151.3	1.3467e-05	1.4147e-05	1246.7	249.36	1.3809e-05	1.4078e-05	319.23	92.031	74.998	23.125	1.2621e-05	31.01	159.860	319.544	383.535	92.206	289.223	315.236	92.190	99.827	197.551	332.121	99.039	106.156	106.277	113.183	161.128	113.233	-8191	255	
1424.836	1	1	0	0	0.13505	0.095472	0.11408	0.11569	0.14011	0.1051	0.20371	0.070266	0.046314	0.20498	0.23982	0.12381	0.053659	0.19599	0.074821	0.14525	-1.5979	-2.075	-2.4958	-2.1896	-2.3896	-2.3521	-2.0271	-2.3396	-2.075	-2.0917	-2.4583	-1.9729	-2.3333	-2.1104	-2.0125	-2.3542	252.938	238.546	324.991	416.816	380.074	118.329	418.505	409.448	418.337	106.350	404.431	207.738	244.743	160.058	158.471	177.442	0.0003873	0.00022752	0.00011302	1122.3	5.8583e-06	1.9979e-06	1225.3	236.16	6.0255e-06	5.8334e-06	295.79	82.725	65.418	19.3	5.347e-06	26.833	0.0012347	0.0012328	0.00031273	1149.5	1.389e-05	1.3304e-05	1245.3	249.26	1.3997e-05	1.3119e-05	317.28	91.921	75.353	22.802	1.2382e-05	31.28	176.286	360.753	91.731	92.305	231.299	230.826	92.210	99.639	283.893	230.105	99.338	105.947	106.420	113.087	280.248	112.647	-8191	255	
1424.910	1	1	0	0	0.21499	0.23191	0.32409	0.37255	0.20391	0.18839	0.39085	0.14784	0.15303	0.3698	0.20549	0.13176	0.11289	0.50562	0.15429	0.17492	-1.5167	-2.0875	-2.5187	-2.0729	-2.2604	-2.1604	-2.2313	-2.3333	-2.0521	-2.1458	-2.3812	-2.0125	-2.2833	-2.3271	-1.8104	-2.3729	102.237	148.302	322.100	429.061	274.123	402.318	383.337	248.900	291.641	197.930	294.475	98.157	269.167	371.111	195.649	440.092	0.00033365	0.00042478	0.00011253	1124.5	1.0612e-05	2.2148e-06	1214.8	236.59	4.3434e-06	9.4361e-06	294.43	82.6	65.206	19.395	4.9802e-06	26.6	0.0012736	0.0011883	0.00030869	1154.4	1.4259e-05	1.2925e-05	1240.2	251.15	1.4076e-05	1.2686e-05	316.47	92.792	75.058	22.69	1.2018e-05	31.629	153.846	146.164	257.859	92.363	174.350	355.429	92.709	99.611	191.422	299.919	99.348	106.120	106.724	113.093	162.942	113.065	-8191	255	
1425.029	1	1	0	0	0.11487	0.17614	0.34661	0.28603	0.10968	0.095584	0.16648	0.18975	0.16319	0.49227	0.31636	0.10117	0.26039	0.1762	0.30323	0.09422	-1.9	-2.0833	-2.2458	-2.0312	-2.1813	-2.2354	-2.1708	-2.5292	-2.1208	-1.9854	-2.5792	-2.2792	-2.1875	-2.5729	-1.9542	-2.3729	172.037	196.565	287.698	112.257	436.589	241.619	353.650	427.103	209.770	156.420	106.905	257.276	142.265	117.962	397.591	144.227	0.00038121	0.00039309	0.00033413	1126.3	4.5643e-06	7.032e-06	1217.1	237.25	3.5527e-06	2.0873e-06	296.01	82.991	65.041	19.493	3.8411e-06	26.698	0.0012192	0.0011402	0.0003021	1160.4	1.3702e-05	1.237e-05	1241.2	252.89	1.3583e-05	1.255e-05	316.7	93.803	74.383	22.594	1.2202e-05	31.928	175.593	224.353	171.951	92.158	397.822	234.818	92.092	99.778	422.283	302.584	99.104	105.974	106.376	113.521	299.361	112.784	-8191	255	
1425.125	1	1	0	0	0.33585	0.15139	0.19041	0.21584	0.20748	0.096692	0.12503	0.081824	0.10598	0.26681	0.31571	0.17772	0.20754	0.16343	0.24357	0.056711	-1.7812	-2.0104	-2.1625	-2.025	-2.1917	-2.4458	-2.0417	-2.3688	-2.2438	-1.9833	-2.4437	-2.3	-2.0583	-2.4542	-1.9125	-2.2417	259.973	240.855	350.507	393.671	266.144	394.745	432.124	333.120	271.867	213.741	437.030	420.255	426.132	376.505	309.281	253.318	0.00029654	0.00040422	0.0002957	1127.5	7.5055e-06	2.8749e-06	1214.6	237.28	6.6695e-06	5.7966e-06	295.68	82.554	66.156	19.267	9.2083e-06	26.449	0.0011636	0.0011108	0.00031076	1163.1	1.3088e-05	1.2064e-05	1244.6	253.53	1.2853e-05	1.2029e-05	318.62	93.892	74.28	22.467	1.3002e-05	31.927	144.602	385.416	124.239	92.281	287.193	132.703	92.158	99.662	402.522	438.859	99.422	106.082	106.402	113.509	198.355	113.113	-8191	255	
1425.221	1	1	0	0	0.24812	0.0451	0.11294	0.35679	0.14927	0.19947	0.57593	0.16606	0.21423	0.21226	0.12103	0.30577	0.22035	0.19695	0.10315	0.11206	-1.8292	-1.9333	-2.2687	-2.3021	-2.0625	-2.3292	-2.25	-2.2792	-2.275	-2.0354	-2.3812	-2.0563	-2.1	-2.6125	-2.0417	-2.2854	153.486	107.911	324.712	418.017	166.622	343.983	350.357	296.075	318.134	426.426	359.769	339.198	85.872	277.829	247.160	325.995	0.00026863	0.00062864	0.00034361	1131.6	2.9645e-06	8.0672e-06	1215.9	235.91	5.634e-06	3.64e-06	294.92	82.083	65.108	19.333	4.3644e-06	26.715	0.0011184	0.0010977	0.00033644	1162.2	1.2662e-05	1.1967e-05	1248.8	252.78	1.243e-05	1.1957e-05	321.27	93.438	73.661	22.467	1.3815e-05	31.802	162.075	373.801	142.831	92.190	109.369	270.825	92.180	99.459	201.139	197.900	98.994	105.898	106.349	113.289	138.956	113.214	-8191	255	
1425.317	1	1	0	0	0.1044	0.035113	0.23852	0.13373	0.19115	0.17258	0.13139	0.21421	0.10526	0.15569	0.1781	0.06618	0.068993	0.061641	0.28027	0.12106	-1.6542	-1.9021	-2.2438	-2.2667	-1.9167	-2.1437	-2.0271	-2.1125	-2.3583	-2.0854	-2.3375	-2.1417	-1.9604	-2.2625	-2.1271	-2.3688	90.424	276.651	133.862	356.410	232.921	117.208	434.987	187.646	254.255	436.849	436.679	384.843	386.458	429.194	256.201	332.604	0.00029038	0.00039487	0.0001009	1124.9	1.2212e-06	4.247e-06	1213.5	236.63	6.2221e-06	9.1594e-06	294.93	82.633	65.174	19.44	1.0789e-05	26.751	0.0010854	0.0011011	0.0003538	1156.8	1.2367e-05	1.2119e-05	1253.1	252.18	1.2157e-05	1.2271e-05	323.82	92.849	73.578	22.673	1.4403e-05	31.554	150.612	399.744	188.857	92.339	247.587	310.557	92.057	99.755	282.804	316.940	99.205	106.173	106.154	113.289	154.502	112.910	-8191	255	
1425.438	1	1	0	0	0.11608	0.12965	0.29276	0.26416	0.23891	0.087488	0.11119	0.22804	0.19453	0.10228	0.16265	0.2578	0.16462	0.17532	0.064871	0.25113	-1.9458	-1.8292	-2.0958	-2.2583	-1.8563	-2.4042	-2.2333	-2.1979	-2.1833	-2.0833	-2.3458	-2.175	-1.8333	-2.1917	-2.0021	-1.975	249.854	284.534	84.841	430.812	293.809	307.627	396.030	423.679	391.978	389.038	351.094	133.615	264.042	425.227	256.763	395.938	0.0003071	0.0013092	0.00021571	1125.1	6.3455e-06	6.6276e-06	1214	236.62	6.9184e-06	1.458e-05	295.54	82.561	65.785	19.669	4.7143e-06	26.699	0.0010782	0.0011703	0.00036622	1155.2	1.2273e-05	1.2973e-05	1255	251.62	1.2299e-05	1.3443e-05	324.04	92.793	73.617	23.097	1.4439e-05	31.442	141.324	183.125	188.474	92.109	260.987	273.474	92.495	99.608	311.267	176.321	99.253	106.038	106.347	113.379	311.261	112.674	-8191	255	
1425.532	1	1	0	0	0.068823	0.20662	0.10666	0.2923	0.22492	0.12007	0.054222	0.21572	0.11767	0.24583	0.24039	0.025775	0.31814	0.07398	0.083665	0.06618	-2.0083	-2.0104	-2.1833	-2.3042	-1.775	-2.3292	-2.1979	-2.0563	-2.3104	-2.0938	-2.2521	-2.3167	-1.8188	-2.4437	-2.2667	-1.9438	321.691	202.799	149.478	99.716	233.180	137.358	196.550	402.229	297.045	234.701	143.391	117.058	147.210	146.380	337.163	198.851	0.00035762	0.00079414	6.1887e-05	1126.2	6.4225e-06	5.0882e-06	1212.9	236.69	8.3991e-06	1.2602e-05	294.15	82.42	65.403	19.57	2.285e-06	26.754	0.0010818	0.0012726	0.00036358	1154.4	1.2272e-05	1.4105e-05	1252.5	251.25	1.2189e-05	1.4301e-05	322.48	92.281	73.754	23.294	1.3716e-05	31.301	159.360	221.535	222.280	92.258	245.900	215.552	92.351	99.842	214.358	230.517	98.901	105.814	106.471	113.270	226.024	112.749	-8191	255	
1425.630	1	1	0	0	0.086527	0.10068	0.11883	0.35058	0.23586	0.12241	0.2092	0.31285	0.16176	0.14882	0.075791	0.076269	0.26529	0.37626	0.14334	0.24343	-1.9667	-2.1083	-2.1417	-2.5542	-1.9229	-2.3104	-2.3604	-2.2146	-2.4083	-2.1937	-2.1042	-2.2917	-2.0729	-2.3312	-2.2125	-1.9521	282.476	145.212	399.015	359.762	379.588	230.823	349.757	391.065	288.335	137.494	358.062	88.849	403.100	106.699	115.594	332.498	0.00040561	0.00095825	0.00015316	1127.5	4.0694e-06	1.0407e-05	1217.2	236.97	7.5732e-06	3.6497e-06	295.86	82.643	65.484	19.481	1.1015e-05	26.595	0.0010943	0.0013175	0.00034313	1152.5	1.2467e-05	1.4495e-05	1246.7	250.07	1.2567e-05	1.4405e-05	320.29	91.688	74.109	23.241	1.289e-05	31.072	157.946	278.383	280.262	92.152	217.770	200.517	92.475	99.554	193.912	264.980	98.948	105.793	106.304	113.624	384.638	113.086	-8191	255	
1425.724	1	1	0	0	0.24533	0.071186	0.072707	0.14418	0.26954	0.29883	0.17012	0.081486	0.1266	0.10408	0.20026	0.25048	0.063344	0.073498	0.1706	0.1209	-2.0958	-1.975	-2.1583	-2.4521	-1.9771	-2.3438	-2.3875	-1.9604	-2.4042	-2.05	-2.0938	-2.4125	-2.0021	-2.3312	-2.1333	-1.8583	156.911	110.531	386.614	378.760	233.080	145.884	333.405	328.871	351.619	186.967	368.094	87.391	176.757	400.560	171.110	389.560	0.00041392	0.00014435	0.00022365	1127.5	1.3257e-05	6.6126e-06	1221.7	235.44	7.6354e-06	5.9253e-06	296.92	82.469	65.394	19.448	8.1707e-06	26.764	0.0011491	0.0012922	0.00032681	1147.9	1.3296e-05	1.4241e-05	1244.6	249.39	1.3636e-05	1.4046e-05	319.96	91.608	74.832	23.163	1.2632e-05	31.088	141.858	314.006	169.987	92.224	237.085	310.254	92.120	99.745	234.578	441.286	99.567	105.829	106.305	113.393	313.599	112.737	-8191	255	
1425.821	1	1	0	0	0.2029	0.17983	0.3459	0.24073	0.081796	0.12096	0.42259	0.17543	0.26486	0.28541	0.11336	0.056994	0.2366	0.14309	0.12173	0.24879	-1.8042	-1.9354	-1.7896	-2.4708	-1.8083	-2.1958	-2.3583	-1.8271	-2.0708	-2.0271	-1.9979	-2.2958	-1.9083	-2.1667	-2.2062	-2.0729	114.566	202.998	367.549	110.457	276.258	82.852	429.873	419.570	157.487	178.430	391.272	430.660	349.297	82.450	375.476	325.816	0.0003185	0.00069707	7.8158e-05	1124	1.1999e-05	1.6343e-06	1211.8	236.13	5.6637e-06	7.3785e-06	294.95	82.902	65.526	19.404	3.8905e-06	26.675	0.0012272	0.0012414	0.00032019	1145.8	1.395e-05	1.3376e-05	1238.7	249.44	1.397e-05	1.3202e-05	317.52	91.875	75.213	22.848	1.2185e-05	31.227	167.362	293.945	138.895	92.305	257.839	107.385	92.153	99.731	433.627	400.651	99.199	105.205	106.344	113.353	255.019	112.754	-8191	255	
1425.917	1	1	0	0	0.23691	0.25206	0.031326	0.25114	0.092394	0.16575	0.33116	0.033185	0.11776	0.15511	0.042107	0.17213	0.24876	0.11419	0.19847	0.12573	-1.7729	-2.1729	-1.9229	-2.5062	-2.0792	-2.1229	-2.5625	-1.9125	-2.2979	-2.1042	-2.0208	-2.3354	-2.0042	-2.0896	-2.1521	-2.0292	310.331	86.929	250.074	276.660	409.581	129.890	87.116	434.557	82.211	116.928	273.388	359.590	179.185	309.990	198.908	87.018	0.00022871	0.00058394	0.00016435	1120.3	3.4214e-06	6.5679e-06	1216.7	236.67	3.0734e-06	6.5424e-06	293.21	82.524	64.993	19.328	7.1885e-06	26.645	0.0012685	0.0011902	0.00031221	1149.6	1.426e-05	1.2957e-05	1239.3	251.17	1.426e-05	1.2751e-05	316.75	92.605	74.848	22.626	1.1887e-05	31.488	157.856	326.662	267.139	92.278	125.493	112.156	92.210	99.794	265.984	380.870	99.500	106.073	106.492	113.419	287.832	112.718	-8191	255	
1426.037	1	1	0	0	0.14011	0.041863	0.11754	0.091161	0.56531	0.17859	0.12184	0.41381	0.12774	0.044649	0.31858	0.25553	0.34825	0.13437	0.15789	0.10361	-1.5812	-2.3375	-1.7313	-2.3292	-2.2208	-2.0271	-2.3812	-1.8292	-2.1458	-2.1875	-1.9958	-2.3417	-2.1042	-1.9833	-2.3875	-1.8667	437.990	136.282	166.743	96.825	197.077	132.373	420.979	417.567	375.778	169.762	416.523	107.472	379.867	94.526	435.634	82.296	0.00020586	0.00080534	0.00040104	1121	5.733e-06	8.1036e-06	1213.4	234.95	5.3875e-06	7.9048e-06	294.28	82.624	64.753	19.297	6.6075e-06	26.519	0.0012352	0.0011407	0.00030463	1152.8	1.3712e-05	1.264e-05	1234.9	251.99	1.373e-05	1.2415e-05	316.95	93.285	74.332	22.64	1.2229e-05	31.97	147.666	334.211	146.002	92.167	157.378	439.622	92.497	99.767	242.002	310.407	99.407	105.834	106.255	113.469	284.148	113.020	-8191	255	
1426.133	1	1	0	0	0.35397	0.18699	0.11959	0.15998	0.31564	0.15843	0.039377	0.31512	0.11007	0.069151	0.051719	0.15551	0.16768	0.073125	0.20199	0.27112	-1.8083	-2.0667	-1.9146	-2.4729	-2.3708	-1.9646	-2.4667	-2.1125	-2.0854	-2.3667	-1.9979	-2.2583	-2.2958	-1.8979	-2.2	-2.1688	188.081	230.122	171.390	265.743	411.856	190.918	332.845	374.311	302.897	391.702	401.359	82.476	109.361	230.759	209.469	250.801	0.00032082	0.00034419	0.00033147	1123.5	2.9278e-06	1.7807e-06	1213.1	236.65	1.0127e-05	8.5917e-08	295.3	82.6	65.12	19.41	1.2005e-05	26.577	0.0011954	0.0011335	0.00032093	1161.1	1.3411e-05	1.2649e-05	1241.5	254.05	1.3469e-05	1.2488e-05	319.7	94.295	74.254	22.67	1.3236e-05	32.106	178.194	284.155	180.200	92.337	387.804	235.066	92.251	99.631	289.297	288.532	99.204	106.035	106.018	113.466	205.151	112.715	-8191	255	
1426.205	1	1	0	0	0.0024754	0.028269	0.14638	0.13576	0.075095	0.16366	0.055131	0.069291	0.24116	0.12238	0.19686	0.23361	0.056018	0.23114	0.030102	0.30923	-1.6083	-2.4167	-1.8937	-2.3479	-2.1188	-1.975	-2.4396	-2.2208	-2.3083	-2.0563	-2.0729	-2.1479	-2.2292	-1.875	-2.3104	-1.9792	421.114	81.761	137.453	436.755	430.307	377.898	91.053	346.124	167.746	255.359	356.892	383.180	219.401	385.009	342.054	367.687	0.00022634	0.00063027	0.00047485	1122.7	2.4415e-06	6.8468e-06	1213.3	235.8	5.0404e-06	1.84e-05	294.8	81.957	65.028	19.372	5.607e-06	26.509	0.0011754	0.0011298	0.00034542	1162.4	1.3094e-05	1.2572e-05	1246.5	253.53	1.3192e-05	1.2445e-05	322.54	94.014	73.889	22.68	1.427e-05	32.065	158.482	331.058	175.770	92.382	318.668	304.331	92.327	99.500	414.656	209.387	99.285	105.916	106.304	113.141	192.406	112.759	-8191	255	
1426.301	1	1	0	0	0.24352	0.17204	0.31598	0.35621	0.11872	0.020327	0.069762	0.33108	0.05018	0.046394	0.17191	0.11592	0.11213	0.033028	0.069267	0.19575	-1.5375	-2.3104	-1.9583	-2.3187	-2.1479	-1.9937	-2.4083	-2.2687	-2.0208	-2.4146	-2.2188	-2.1667	-2.3229	-1.9479	-2.2083	-2.3958	276.351	247.934	419.099	401.183	209.632	212.766	230.594	248.520	311.190	364.543	437.924	373.593	411.728	202.374	321.125	399.937	0.0001535	0.00057127	0.0003297	1123.5	4.573e-06	2.1132e-06	1217.4	235.35	9.3978e-06	3.5203e-06	294.28	82.288	65.162	19.475	8.082e-06	26.601	0.0011705	0.0011307	0.00036962	1157.7	1.2864e-05	1.2666e-05	1253.9	252.17	1.2651e-05	1.2402e-05	324.11	92.987	73.331	22.605	1.4238e-05	31.342	163.006	170.019	150.950	92.281	210.459	236.637	92.541	99.723	260.969	402.116	99.306	106.085	106.390	113.481	190.594	112.713	-8191	255	
1426.422	1	1	0	0	0.12122	0.19272	0.10153	0.16883	0.070001	0.14762	0.34209	0.45018	0.14243	0.1889	0.046936	0.21774	0.098281	0.1237	0.19216	0.21068	-1.4458	-2.1729	-1.9875	-1.95	-2.2583	-2.0042	-2.5083	-2.2604	-1.7375	-2.2917	-2.0042	-2.0687	-2.2854	-2.1063	-2.0021	-2.3521	83.875	114.160	284.709	123.718	164.194	413.808	404.226	89.890	90.207	230.885	378.721	349.714	132.654	139.936	161.747	375.563	0.00013977	0.0016254	0.00017996	1120.3	5.0404e-06	1.0201e-05	1210.5	235.05	2.0997e-06	2.991e-06	294.8	82.334	65.331	19.432	3.2561e-07	26.489	0.001078	0.0011088	0.0003545	1149.1	1.149e-05	1.2254e-05	1246.2	248.63	1.1527e-05	1.2162e-05	320.58	91.434	72.439	22.599	1.339e-05	30.939	183.316	134.222	408.120	92.228	316.686	221.905	92.236	99.687	121.656	441.555	99.197	106.185	106.623	113.579	192.998	113.247	-8191	255	
1426.518	1	1	0	0	0.16422	0.057373	0.15237	0.13617	0.18458	0.18874	0.33067	0.14132	0.35456	0.14605	0.22397	0.23096	0.23111	0.26609	0.15873	0.24986	-1.6333	-2.3875	-2.1146	-2.2896	-2.2812	-2.025	-2.1521	-2.0979	-1.8125	-2.2979	-2.05	-2.1312	-2.3438	-2.0625	-1.9958	-2.2229	95.581	330.543	82.789	87.666	386.727	216.878	301.459	410.934	119.681	136.708	440.106	424.750	91.138	429.608	112.537	326.503	0.00025954	0.0010293	0.00012383	1123.6	4.9664e-06	1.8072e-05	1207.3	237.06	5.5701e-06	8.0961e-06	293.41	82.421	65.222	19.281	7.4283e-06	26.527	0.0010265	0.0011702	0.00034454	1148.5	1.148e-05	1.3385e-05	1244.7	249.61	1.1892e-05	1.3594e-05	320.31	91.795	72.692	22.971	1.3376e-05	31.03	154.390	150.495	223.300	92.027	155.816	222.606	92.263	99.617	272.801	146.987	99.242	106.180	106.636	113.334	167.514	112.979	-8191	255	
1426.612	1	1	0	0	0.19325	0.24318	0.12198	0.15022	0.10097	0.26685	0.21092	0.1197	0.094776	0.21565	0.12347	0.12251	0.25745	0.13136	0.089449	0.021843	-1.5688	-2.3417	-2.0521	-2.1333	-2.4188	-1.8604	-2.2896	-2.2438	-1.7375	-2.0792	-2.0729	-1.9354	-2.2042	-2.15	-2.1833	-2.3917	140.985	212.322	406.809	417.996	262.982	407.006	332.940	410.675	207.176	159.021	129.117	259.604	132.253	277.460	314.084	385.575	0.00038126	0.00075647	0.0001268	1120.4	4.983e-06	4.2172e-06	1208.5	235.2	5.0458e-06	6.136e-06	294.47	82.262	64.852	19.397	7.2917e-06	26.539	0.0010639	0.0012751	0.00033406	1146.4	1.2069e-05	1.412e-05	1242.5	248.71	1.2469e-05	1.4306e-05	319.08	91.565	73.551	23.167	1.3012e-05	30.961	154.902	203.307	258.497	92.146	263.208	223.824	92.057	99.614	203.236	398.212	99.171	105.935	105.926	113.357	215.618	112.657	-8191	255	
1426.710	1	1	0	0	0.059208	0.082838	0.066313	0.08797	0.10515	0.3209	0.10161	0.069148	0.18424	0.031993	0.23446	0.18032	0.18591	0.1178	0.228	0.15654	-1.45	-2.1063	-2.2417	-2.0438	-2.4	-2.3	-2.0812	-2.3479	-2.0208	-2.2146	-2.2292	-1.8208	-2.1562	-2.1396	-2.0604	-2.4583	203.152	344.534	239.958	419.362	163.854	410.713	252.605	225.217	116.108	111.796	99.186	318.010	365.939	325.620	437.275	261.337	0.00041792	0.00048982	0.00019073	1122	3.6558e-06	8.1795e-06	1207.5	234.9	6.6792e-06	2.0378e-06	293.75	82.436	65.118	19.291	1.5435e-06	26.634	0.0011544	0.0013135	0.00032978	1147.8	1.3194e-05	1.4468e-05	1241.4	249.11	1.3798e-05	1.4458e-05	319.39	91.777	74.978	23.153	1.3088e-05	31.051	162.262	124.033	113.302	92.191	318.183	424.359	92.333	99.552	148.964	420.326	99.440	106.006	106.083	113.112	247.565	112.651	-8191	255	
1426.805	1	1	0	0	0.26215	0.27162	0.22546	0.25173	0.14934	0.12673	0.152	0.15052	0.082899	0.14455	0.11065	0.27497	0.17775	0.27059	0.27907	0.21681	-1.3833	-2.2729	-2.2875	-2.1896	-2.3229	-2.1542	-2.2542	-2.4021	-2.1063	-2.2146	-2.2146	-1.9729	-2.3812	-2.1604	-1.8583	-2.4708	251.455	369.657	419.844	302.980	433.528	351.009	365.320	127.717	218.229	185.776	113.621	261.607	290.086	116.249	167.497	425.642	0.00028368	0.00090999	0.00026965	1125.2	6.5995e-06	3.3551e-06	1212.5	236.19	7.1071e-06	7.5997e-06	293.01	82.78	65.109	19.297	4.2116e-06	26.668	0.0012517	0.0012864	0.00032417	1149.6	1.4056e-05	1.3758e-05	1240.3	249.26	1.4143e-05	1.3551e-05	316.69	91.718	75.093	22.825	1.2351e-05	31.088	160.979	209.685	169.605	92.312	167.807	218.990	92.077	100.088	167.085	346.573	99.468	105.880	106.162	113.399	439.990	112.935	-8191	255	
1426.901	1	1	0	0	0.08607	0.12474	0.29142	0.041825	0.20468	0.064095	0.23026	0.17888	0.219	0.15835	0.28309	0.11752	0.10593	0.28106	0.12561	0.12695	-1.8479	-2.1333	-2.2479	-1.9521	-2.3937	-2.0458	-2.0708	-2.3646	-1.7896	-2.05	-2.5187	-1.9958	-2.3458	-2.1375	-1.7917	-2.3271	228.129	182.473	134.696	345.237	196.499	364.978	141.408	393.065	441.697	370.120	420.834	424.135	340.976	317.703	160.238	306.898	0.00034703	6.3272e-05	0.00010047	1122.2	6.6127e-06	9.2557e-06	1212.8	236	2.9707e-06	3.2584e-06	294.48	82.777	65.048	19.232	7.4757e-06	26.835	0.0012655	0.0011999	0.000305	1149.3	1.4175e-05	1.2954e-05	1237.5	249.37	1.4227e-05	1.2952e-05	316.46	92.507	75.037	22.592	1.2003e-05	31.498	149.059	209.359	398.829	92.230	277.464	280.271	92.215	99.749	287.152	223.815	99.318	105.525	106.511	113.845	340.843	113.302	-8191	255	
1426.997	1	1	0	0	0.20429	0.15327	0.070094	0.23432	0.19879	0.19667	0.10732	0.24249	0.20786	0.14387	0.11325	0.3716	0.24993	0.1652	0.20899	0.081099	-1.5562	-2.0333	-2.1875	-2.0583	-2.1708	-2.1604	-1.9271	-2.3396	-2.0792	-1.925	-2.4771	-1.975	-2.1479	-2.2833	-1.9396	-2.2875	204.451	94.586	386.902	419.573	179.119	104.208	379.821	206.375	92.054	342.703	340.034	119.175	434.891	119.944	118.185	368.643	0.00023702	0.00045688	0.00017489	1118.8	1.048e-05	1.0491e-05	1213.8	235.7	5.1713e-06	3.7497e-06	295.13	82.385	65.445	19.416	6.039e-06	26.686	0.0012372	0.0011394	0.00029767	1150.4	1.3695e-05	1.2269e-05	1236.1	251.27	1.3439e-05	1.227e-05	315.09	93.01	74.329	22.465	1.1748e-05	31.59	144.259	306.521	299.782	92.325	209.300	229.331	92.356	99.632	284.497	261.149	99.338	105.900	106.662	113.377	205.667	113.046	-8191	255	
1427.118	1	1	0	0	0.12822	0.18322	0.2391	0.022987	0.18039	0.21304	0.37377	0.22467	0.10639	0.12725	0.11918	0.091925	0.15474	0.063658	0.1429	0.21983	-1.6375	-1.8917	-2.2646	-2.2375	-2.1792	-2.2833	-1.9667	-2.3771	-2.1542	-2.0083	-2.2667	-2	-2.1708	-2.275	-2.0417	-2.3292	417.797	138.339	320.708	117.554	111.661	302.820	275.532	342.241	325.050	201.041	94.408	292.183	406.636	102.209	315.090	118.717	7.7058e-05	0.00058032	0.00010803	1124.2	6.345e-06	2.4046e-06	1206.6	235.85	7.9323e-06	5.6709e-06	294.92	82.569	64.884	19.425	2.2383e-05	26.593	0.0011519	0.0011063	0.00030028	1157.3	1.2945e-05	1.1898e-05	1234.2	252.16	1.2829e-05	1.207e-05	317.11	93.579	73.816	22.417	1.2665e-05	31.882	142.224	202.941	203.261	92.269	308.321	263.247	92.328	99.558	240.917	277.964	98.871	105.893	106.847	113.431	169.676	112.996	-8191	255	
1427.214	1	1	0	0	0.12366	0.016409	0.18109	0.25259	0.067567	0.17071	0.35344	0.22657	0.27442	0.028025	0.14103	0.22381	0.28534	0.17168	0.21061	0.28061	-1.8458	-1.7062	-2.3	-2.0771	-2.2146	-2.3312	-1.9979	-2.1937	-2.1042	-2.0062	-2.5604	-1.8667	-2.075	-2.3271	-1.9125	-2.1021	393.332	397.559	149.529	187.641	162.598	158.791	347.260	374.902	118.763	384.014	152.293	203.853	230.072	96.665	286.978	371.638	0.00033132	0.00098564	0.0003878	1125.1	7.3291e-06	7.8526e-06	1213.2	235.41	5.1259e-06	5.5639e-06	294.35	82.225	64.934	19.517	1.9412e-06	26.486	0.0011252	0.0011003	0.0003235	1157.7	1.2643e-05	1.1848e-05	1243.9	252.44	1.2559e-05	1.1951e-05	319.59	93.418	73.252	22.414	1.362e-05	31.655	151.837	263.378	163.393	92.070	407.098	103.575	92.098	99.559	283.079	290.316	98.976	106.300	106.013	113.506	203.855	112.830	-8191	255	
#DATA ENDS
