BOXY.EXE: ISS Imagent and Oximeter Data Acquisition Program Version 0.80
Ascii Record File

#ACQ INFORMATION
2  Detector Channels 
16  External MUX Channels 
1  Auxiliary Channels 
5000  Waveform (CCF) Frequency (Hz)
1  Waveforms Skipped 
30  Waveforms Averaged 
1  Cycles Averaged 
16  Acquisitions per Waveform 
10.0806  Updata Rate (Hz) 

#FILE INFORMATION
TRUE -- External MUX Channel results are PARSED.
FALSE -- AC DC and Phase are NOT grouped.
TRUE -- Companion Program Settings File CREATED.
FALSE -- AC data not excluded
FALSE -- DC data not excluded
FALSE -- Phase data not excluded
FALSE -- Auxillary Chn. data not excluded
Tab delimiters

#CALIBRATION STATE
TRUE -- Waveform Calibration Values APPLIED.


#AUX CALIBRATION VALUES
Val Type	aux-1	

Term	1.0000e+00	
Factor	0.0000e+00	


#WF CALIBRATION VALUES
A = Detector Channel
Val Type	A-AC1	A-AC2	A-AC3	A-AC4	A-AC5	A-AC6	A-AC7	A-AC8	A-AC9	A-AC10	A-AC11	A-AC12	A-AC13	A-AC14	A-AC15	A-AC16	A-DC1	A-DC2	A-DC3	A-DC4	A-DC5	A-DC6	A-DC7	A-DC8	A-DC9	A-DC10	A-DC11	A-DC12	A-DC13	A-DC14	A-DC15	A-DC16	A-Ph1	A-Ph2	A-Ph3	A-Ph4	A-Ph5	A-Ph6	A-Ph7	A-Ph8	A-Ph9	A-Ph10	A-Ph11	A-Ph12	A-Ph13	A-Ph14	A-Ph15	A-Ph16	

Term	0.00000e+00	0.00000e+00	0.00000e+00	0.00000e+00	0.00000e+00	0.00000e+00	0.00000e+00	0.00000e+00	0.00000e+00	0.00000e+00	0.00000e+00	0.00000e+00	0.00000e+00	0.00000e+00	0.00000e+00	0.00000e+00	0.00000e+00	0.00000e+00	0.00000e+00	0.00000e+00	0.00000e+00	0.00000e+00	0.00000e+00	0.00000e+00	0.00000e+00	0.00000e+00	0.00000e+00	0.00000e+00	0.00000e+00	0.00000e+00	0.00000e+00	0.00000e+00	0.00000e+00	0.00000e+00	0.00000e+00	0.00000e+00	0.00000e+00	0.00000e+00	0.00000e+00	0.00000e+00	0.00000e+00	0.00000e+00	0.00000e+00	0.00000e+00	0.00000e+00	0.00000e+00	0.00000e+00	0.00000e+00	
Factor	1.00000e+00	1.00000e+00	1.00000e+00	1.00000e+00	1.00000e+00	1.00000e+00	1.00000e+00	1.00000e+00	1.00000e+00	1.00000e+00	1.00000e+00	1.00000e+00	1.00000e+00	1.00000e+00	1.00000e+00	1.00000e+00	1.00000e+00	1.00000e+00	1.00000e+00	1.00000e+00	1.00000e+00	1.00000e+00	1.00000e+00	1.00000e+00	1.00000e+00	1.00000e+00	1.00000e+00	1.00000e+00	1.00000e+00	1.00000e+00	1.00000e+00	1.00000e+00	X	X	X	X	X	X	X	X	X	X	X	X	X	X	X	X	

B = Detector Channel
Val Type	B-AC1	B-AC2	B-AC3	B-AC4	B-AC5	B-AC6	B-AC7	B-AC8	B-AC9	B-AC10	B-AC11	B-AC12	B-AC13	B-AC14	B-AC15	B-AC16	B-DC1	B-DC2	B-DC3	B-DC4	B-DC5	B-DC6	B-DC7	B-DC8	B-DC9	B-DC10	B-DC11	B-DC12	B-DC13	B-DC14	B-DC15	B-DC16	B-Ph1	B-Ph2	B-Ph3	B-Ph4	B-Ph5	B-Ph6	B-Ph7	B-Ph8	B-Ph9	B-Ph10	B-Ph11	B-Ph12	B-Ph13	B-Ph14	B-Ph15	B-Ph16	

Term	0.00000e+00	0.00000e+00	0.00000e+00	0.00000e+00	0.00000e+00	0.00000e+00	0.00000e+00	0.00000e+00	0.00000e+00	0.00000e+00	0.00000e+00	0.00000e+00	0.00000e+00	0.00000e+00	0.00000e+00	0.00000e+00	0.00000e+00	0.00000e+00	0.00000e+00	0.00000e+00	0.00000e+00	0.00000e+00	0.00000e+00	0.00000e+00	0.00000e+00	0.00000e+00	0.00000e+00	0.00000e+00	0.00000e+00	0.00000e+00	0.00000e+00	0.00000e+00	-6.12039e+01	-1.44425e+02	-1.08068e+02	-1.84347e+02	-5.19798e+01	-7.86493e+01	-1.55676e+02	-1.62015e+02	-4.36136e+01	-4.70465e+01	-1.85868e+02	-1.70497e+02	-1.86153e+02	-1.76891e+02	-6.22403e+01	-1.49739e+02	
Factor	1.76752e-05	1.77526e-04	4.41225e-05	2.09872e-01	1.71985e-06	1.69135e-06	1.50687e-01	4.89530e-02	1.19486e-06	1.67719e-06	1.96740e-01	2.89969e-02	6.06658e-02	8.76056e-03	1.53137e-06	1.25586e-02	2.96907e-06	3.31255e-06	9.26113e-07	1.08229e-01	3.61040e-08	3.65309e-08	7.35335e-02	2.54357e-02	3.58943e-08	3.64924e-08	9.61184e-02	1.45856e-02	3.09233e-02	4.56795e-03	3.60924e-08	6.33166e-03	X	X	X	X	X	X	X	X	X	X	X	X	X	X	X	X	



#DISTANCE SETTINGS
A = Detector Channel
A-1	A-2	A-3	A-4	A-5	A-6	A-7	A-8	A-9	A-10	A-11	A-12	A-13	A-14	A-15	A-16	

2.5000e+00	3.0000e+00	2.5000e+00	3.0000e+00	2.0000e+00	3.0000e+00	1.5000e+00	3.0000e+00	3.0000e+00	3.0000e+00	3.0000e+00	3.0000e+00	3.0000e+00	3.0000e+00	1.5000e+00	3.0000e+00	

B = Detector Channel
B-1	B-2	B-3	B-4	B-5	B-6	B-7	B-8	B-9	B-10	B-11	B-12	B-13	B-14	B-15	B-16	

1.0000e+01	1.0000e+01	1.0000e+01	1.4400e+00	1.0000e+01	1.0000e+01	1.5100e+00	1.9400e+00	1.0000e+01	1.0000e+01	1.9900e+00	2.4900e+00	2.4100e+00	2.9000e+00	1.0000e+01	2.9800e+00	




#DATA BEGINS
time	group	step	mark	flag	A-AC1	A-AC2	A-AC3	A-AC4	A-AC5	A-AC6	A-AC7	A-AC8	A-AC9	A-AC10	A-AC11	A-AC12	A-AC13	A-AC14	A-AC15	A-AC16	A-DC1	A-DC2	A-DC3	A-DC4	A-DC5	A-DC6	A-DC7	A-DC8	A-DC9	A-DC10	A-DC11	A-DC12	A-DC13	A-DC14	A-DC15	A-DC16	A-Ph1	A-Ph2	A-Ph3	A-Ph4	A-Ph5	A-Ph6	A-Ph7	A-Ph8	A-Ph9	A-Ph10	A-Ph11	A-Ph12	A-Ph13	A-Ph14	A-Ph15	A-Ph16	B-AC1	B-AC2	B-AC3	B-AC4	B-AC5	B-AC6	B-AC7	B-AC8	B-AC9	B-AC10	B-AC11	B-AC12	B-AC13	B-AC14	B-AC15	B-AC16	B-DC1	B-DC2	B-DC3	B-DC4	B-DC5	B-DC6	B-DC7	B-DC8	B-DC9	B-DC10	B-DC11	B-DC12	B-DC13	B-DC14	B-DC15	B-DC16	B-Ph1	B-Ph2	B-Ph3	B-Ph4	B-Ph5	B-Ph6	B-Ph7	B-Ph8	B-Ph9	B-Ph10	B-Ph11	B-Ph12	B-Ph13	B-Ph14	B-Ph15	B-Ph16	aux-1	digaux	

26987.992	1	1	0	256	0.30298	0.22564	0.2956	0.24596	0.18965	0.34759	0.28517	0.10232	0.29538	0.096485	0.27867	0.35532	0.098332	0.20479	0.041134	0.041588	-1.0208	-1.7646	-1.8958	-1.4937	-1.75	-1.6771	-1.7812	-2.0604	-1.5833	-1.6167	-1.7938	-1.4438	-1.7771	-1.8438	-1.4667	-1.875	234.357	120.137	120.926	177.413	172.595	394.395	392.200	450.153	318.340	410.714	430.138	434.424	355.754	392.241	207.215	206.030	0.00029248	0.00038912	0.00016232	1081.4	5.45e-06	1.0314e-05	1172.2	231.01	2.5315e-06	8.0883e-06	294.18	82.341	64.333	18.999	2.1329e-06	26.598	0.0010362	0.0011	0.00030594	1087.3	1.1417e-05	1.1604e-05	1173.2	235.06	1.0905e-05	1.0855e-05	308.69	85.398	71.076	20.411	1.0426e-05	28.246	244.215	355.495	197.156	125.860	306.272	275.168	125.910	133.364	285.617	245.440	132.806	140.141	140.788	146.681	213.704	146.205	-8191	255	
26988.090	1	1	0	0	0.13926	0.10451	0.17713	0.11848	0.4224	0.091057	0.27652	0.21763	0.28784	0.11711	0.28209	0.2068	0.23197	0.09566	0.14287	0.086716	-1.1375	-1.4021	-1.8271	-1.525	-1.9167	-1.9021	-1.775	-2.0292	-1.4813	-1.5917	-1.9	-1.4438	-1.7646	-1.8	-1.2625	-2.0125	473.357	408.182	297.230	447.240	235.268	206.954	405.616	427.475	234.154	391.291	154.733	424.445	458.664	427.507	177.009	127.608	0.0002854	0.00060384	9.6257e-05	1078.3	5.5818e-06	6.621e-06	1170.3	230.22	3.4202e-06	1.8094e-06	289.35	81.354	64.885	18.911	6.3416e-06	26.483	0.00088397	0.0009435	0.00026041	1081	1.0122e-05	1.0129e-05	1166.4	233.01	9.8151e-06	9.9931e-06	304.3	84.509	70.128	20.179	9.8015e-06	27.966	246.166	248.551	266.654	125.646	272.125	279.676	125.924	133.624	207.556	233.816	132.809	139.899	139.950	146.740	283.266	146.170	-8191	255	
26988.186	1	1	0	0	0.20939	0.24855	0.22968	0.15994	0.20856	0.23671	0.19802	0.17009	0.23972	0.26438	0.082097	0.070635	0.077937	0.14327	0.065979	0.17068	-1.2188	-1.5438	-2.1042	-1.4688	-1.6771	-2.0167	-1.5833	-1.9854	-1.8208	-1.7083	-1.9688	-1.4813	-1.7729	-1.7208	-1.5604	-2.0375	471.841	281.382	343.075	118.925	318.981	288.403	364.163	400.349	318.630	411.594	331.330	147.499	360.015	155.146	214.898	384.338	0.00025889	0.0007578	0.00015746	1073.2	6.2018e-06	3.9949e-06	1167.9	228.69	5.0814e-06	3.8405e-06	291.76	81.604	64.489	19.068	1.2554e-06	26.354	0.00082291	0.00088003	0.00024744	1073.7	9.6495e-06	9.831e-06	1163.6	231.86	9.6004e-06	9.6892e-06	303.56	84.15	69.864	20.127	9.4559e-06	27.812	250.375	123.969	182.210	125.781	239.713	370.121	125.944	133.750	285.829	258.410	132.919	139.551	140.280	146.729	354.793	146.367	-8191	255	
26988.281	1	1	0	0	0.21862	0.3369	0.10121	0.11579	0.2271	0.088357	0.42903	0.25375	0.056109	0.14812	0.10841	0.19513	0.17661	0.14262	0.21163	0.12611	-1.4292	-1.475	-1.9167	-1.8167	-1.7625	-2.0958	-1.6833	-1.725	-1.8333	-1.4937	-2.0604	-1.6792	-1.6917	-2.0167	-1.4062	-1.9813	152.394	237.129	314.048	229.458	265.905	117.072	366.690	377.891	171.979	223.146	138.733	359.901	445.280	450.526	371.031	439.148	0.00025566	0.00091015	1.4301e-05	1071.9	7.0452e-06	4.6342e-06	1163.9	229.3	3.8934e-06	1.353e-06	285.72	81.298	64.914	18.714	9.9487e-06	26.411	0.00080506	0.0008653	0.00023943	1071.6	9.3934e-06	9.3429e-06	1161.9	231.56	9.2831e-06	9.3017e-06	301.92	84.196	69.802	19.999	9.3635e-06	27.816	255.925	419.355	457.067	125.916	201.167	279.066	126.080	133.435	287.845	344.738	133.132	139.634	140.188	146.909	289.455	146.335	-8191	255	
26988.379	1	1	0	0	0.23169	0.087815	0.070607	0.13027	0.4322	0.09765	0.21351	0.20796	0.27143	0.038965	0.19566	0.17861	0.034703	0.16032	0.16594	0.20878	-1.3729	-1.5729	-1.9229	-1.7062	-1.5354	-1.9	-1.6125	-1.8	-1.7229	-1.5938	-1.8687	-1.6021	-1.6083	-2.125	-1.6437	-1.6854	136.593	310.893	434.557	162.000	206.108	364.411	427.450	374.105	214.627	304.989	120.006	366.496	310.306	408.278	221.367	168.649	0.0002982	0.00048905	7.75e-05	1065.5	9.2365e-06	6.6298e-06	1166.6	227.9	3.6627e-06	2.9935e-06	288.03	80.765	64.86	18.854	7.0896e-06	26.332	0.00080295	0.00086284	0.00024195	1070.2	9.5219e-06	9.7352e-06	1162.8	231.24	9.4068e-06	9.5903e-06	301.71	83.86	69.644	20.047	9.309e-06	27.813	258.871	182.952	244.690	125.745	266.660	270.395	125.955	133.431	193.654	141.203	133.134	139.764	140.410	146.974	330.832	146.239	-8191	255	
26988.498	1	1	0	0	0.1393	0.17215	0.13109	0.22521	0.023294	0.11308	0.24945	0.11052	0.23852	0.29239	0.29604	0.17312	0.045921	0.12313	0.11494	0.30104	-1.5521	-1.6604	-2.1417	-1.8979	-1.5292	-2.0292	-1.8271	-1.8292	-2.0917	-1.4937	-1.925	-1.8646	-1.6354	-1.9833	-1.5396	-1.9	376.728	245.508	281.962	147.136	374.667	419.754	416.379	172.005	138.598	465.884	145.276	463.860	367.046	470.500	157.373	171.158	0.00034057	0.00051389	0.00011759	1068.2	5.5621e-06	2.449e-06	1166.6	228.89	1.7697e-06	2.2797e-06	288.79	81.699	64.939	18.862	3.4484e-06	26.166	0.00079786	0.00085574	0.00023621	1071.2	9.376e-06	9.4339e-06	1160.7	231.22	9.4411e-06	9.5035e-06	302.95	84.235	70.122	20.128	9.7018e-06	27.972	261.944	177.444	185.358	126.029	209.072	177.085	126.279	133.241	299.775	242.942	133.242	139.937	139.989	146.680	285.689	146.144	-8191	255	
26988.594	1	1	0	0	0.18605	0.16095	0.14497	0.27699	0.17133	0.13262	0.19401	0.26338	0.17235	0.22597	0.27809	0.085623	0.084538	0.32961	0.1533	0.23428	-1.4813	-1.4708	-1.7979	-1.8083	-1.3333	-1.7917	-1.7917	-1.7625	-2.0542	-1.5812	-1.8979	-1.8583	-1.3708	-1.8625	-1.65	-1.5875	375.379	292.877	406.843	451.505	212.480	352.063	358.482	388.055	220.368	417.841	413.426	434.585	162.919	456.629	333.174	318.080	0.00026922	0.00067834	0.00019004	1070.9	2.8988e-06	5.0079e-06	1167.3	228.53	4.0984e-06	9.056e-07	288.57	80.733	64.55	18.888	1.8081e-06	26.214	0.00085543	0.00092304	0.00025471	1073.9	1.0071e-05	1.0061e-05	1163.8	232.29	1.0056e-05	1.0035e-05	303.43	84.318	70.292	20.2	9.7977e-06	27.899	248.998	427.694	290.691	125.752	233.880	264.990	125.837	133.331	299.031	324.436	133.018	139.727	140.062	146.420	302.564	146.409	-8191	255	
26988.664	1	1	0	0	0.26599	0.12263	0.040285	0.33958	0.060219	0.061831	0.075929	0.23649	0.070025	0.06392	0.14463	0.27529	0.12262	0.14745	0.15951	0.14622	-1.5375	-1.5646	-1.8479	-2.2458	-1.4188	-1.9062	-1.9958	-1.7667	-2.0354	-1.5417	-1.8521	-2.0333	-1.5458	-1.7583	-1.7396	-1.4583	414.707	363.889	462.069	441.917	192.284	323.420	336.185	444.931	428.079	172.421	139.896	444.174	383.632	449.236	130.917	310.931	0.00030409	0.00025494	0.00014584	1067	2.5405e-06	1.2368e-06	1164.9	229.27	4.0761e-06	5.6379e-06	289.37	81.268	64.533	18.997	2.0271e-06	26.294	0.00083926	0.00088207	0.00024619	1072.6	9.5853e-06	9.606e-06	1161.4	232.15	9.4029e-06	9.4727e-06	302.04	84.246	69.762	20.149	9.3548e-06	27.916	244.573	447.627	392.150	125.725	209.970	464.161	125.936	133.263	235.034	246.708	132.871	139.535	140.490	146.739	308.363	146.248	-8191	255	
26988.764	1	1	0	0	0.081469	0.26393	0.094079	0.13818	0.23233	0.14775	0.1137	0.22116	0.033484	0.18328	0.43722	0.26723	0.36959	0.1819	0.16136	0.42259	-1.5688	-1.5625	-1.8104	-2.0354	-1.3188	-1.7521	-2.0583	-1.8167	-1.9583	-1.5958	-1.6833	-2.0708	-1.4667	-1.7792	-1.8208	-1.6021	398.160	412.794	153.953	406.944	221.374	359.423	381.247	429.657	404.379	141.471	319.925	182.225	230.829	135.900	419.085	465.516	0.00025052	0.00042709	0.00020065	1069.1	6.7672e-06	1.3117e-05	1166.6	227.93	4.1813e-06	5.3422e-06	286.45	81.468	64.323	18.944	1.1696e-05	26.142	0.00080159	0.0008569	0.00024353	1071.8	9.4588e-06	9.5654e-06	1160.5	231.34	9.5061e-06	9.6055e-06	303.1	84.089	69.686	20.067	9.6975e-06	27.82	258.350	230.530	229.695	126.058	254.115	181.395	125.914	133.503	250.678	354.112	133.213	139.683	140.522	147.001	319.952	146.205	-8191	255	
26988.881	1	1	0	0	0.12426	0.13184	0.062082	0.24167	0.40167	0.21914	0.15924	0.13808	0.094575	0.31352	0.25005	0.11836	0.13781	0.26871	0.17588	0.14188	-1.6354	-1.4854	-1.6667	-1.9229	-1.3104	-1.7917	-1.8896	-1.7333	-2.0479	-1.6354	-1.7146	-2.1354	-1.6042	-1.7604	-1.7896	-1.6292	410.859	132.719	300.859	414.728	131.079	284.484	390.402	364.993	280.596	288.605	406.168	470.454	306.218	384.457	399.414	131.333	0.00023066	0.00025542	0.00021051	1071.9	9.2241e-06	5.5582e-06	1165.1	228.01	7.8742e-06	1.1405e-05	287.72	81.317	64.954	18.874	9.7243e-07	26.235	0.00082761	0.00088818	0.00024712	1073.2	9.743e-06	9.5805e-06	1162.1	231.74	9.6419e-06	9.7717e-06	303.58	84.083	69.892	20.135	9.5881e-06	27.829	249.370	237.563	255.747	125.862	322.299	146.812	125.955	133.499	329.937	235.159	133.335	139.602	140.444	146.496	441.727	146.154	-8191	255	
26988.979	1	1	0	0	0.17765	0.16723	0.19636	0.18221	0.29712	0.19289	0.079366	0.12018	0.079873	0.17227	0.08828	0.12978	0.14233	0.26128	0.35794	0.41275	-1.4104	-1.5833	-1.5833	-2.1042	-1.4021	-1.7167	-2.0854	-1.4271	-1.8167	-1.7812	-1.5458	-2.0396	-1.5417	-1.7208	-1.9229	-1.4896	281.606	443.076	414.581	122.952	320.919	277.232	388.032	275.544	169.486	267.750	127.106	388.347	340.177	381.848	374.043	150.143	0.00031013	0.0011294	0.00016965	1062.4	1.7134e-06	5.1228e-06	1167.4	227.51	3.5339e-06	4.2322e-06	289.54	81.181	64.769	18.923	3.2844e-06	26.189	0.00081559	0.00087925	0.00024605	1069.3	9.5564e-06	9.6152e-06	1161.1	231.11	9.5167e-06	9.6662e-06	302.49	84.059	69.851	20.101	9.5972e-06	27.858	249.116	475.390	221.570	125.942	119.723	193.287	126.010	133.747	380.308	213.018	132.733	139.757	140.072	146.675	313.308	146.110	-8191	255	
26989.074	1	1	0	0	0.063203	0.057759	0.17654	0.13923	0.13603	0.13656	0.14648	0.050804	0.050841	0.40356	0.19299	0.21003	0.21408	0.2611	0.21485	0.11549	-1.3729	-1.5938	-1.4875	-2.0042	-1.7083	-1.6417	-1.9292	-1.6021	-1.7437	-1.9375	-1.6292	-1.9833	-1.575	-1.4542	-2.0458	-1.7042	301.193	312.807	288.898	463.036	131.439	222.653	311.813	367.143	268.097	141.602	305.778	427.004	334.000	367.198	423.116	160.402	0.0003253	2.3208e-05	0.00011378	1071.7	6.4793e-06	6.5651e-06	1162.7	228.42	4.7374e-06	1.673e-06	288.23	81.065	64.93	18.853	2.001e-06	26.162	0.00080884	0.00087313	0.00024249	1071.2	9.5096e-06	9.568e-06	1159.9	231.31	9.3783e-06	9.65e-06	301.95	83.85	69.549	19.985	9.4007e-06	27.715	250.149	255.488	308.323	125.695	209.398	214.442	125.815	133.682	283.818	201.935	133.186	139.644	140.158	147.140	154.033	146.449	-8191	255	
26989.170	1	1	0	0	0.086844	0.24658	0.20895	0.33288	0.078525	0.10849	0.13159	0.18223	0.20846	0.27573	0.21407	0.16148	0.15935	0.26894	0.058117	0.10728	-1.5521	-1.9417	-1.4396	-2.1937	-1.8875	-1.5854	-2.2979	-1.5458	-1.675	-1.7646	-1.6708	-1.8937	-1.7854	-1.5021	-2.0187	-1.6021	438.272	302.874	376.412	415.308	232.155	431.245	426.112	122.444	260.418	197.873	176.526	426.299	454.151	468.647	264.021	473.501	0.00028524	0.00075995	2.9432e-05	1066.5	6.6497e-06	1.4879e-06	1168	227.65	8.4427e-06	6.432e-06	283.45	80.601	64.479	18.868	5.3833e-06	26.147	0.00079014	0.00083756	0.0002343	1067.8	9.0588e-06	9.197e-06	1157.6	230.03	8.9357e-06	9.0225e-06	298.83	83.473	69.066	19.892	8.9548e-06	27.612	246.082	236.141	404.972	125.724	201.129	416.637	125.799	133.528	297.467	315.711	133.418	139.487	140.171	146.562	332.397	146.486	-8191	255	
26989.289	1	1	0	0	0.21589	0.20496	0.21168	0.10657	0.18021	0.066951	0.026936	0.258	0.14222	0.054222	0.32558	0.077519	0.051714	0.14454	0.18166	0.058011	-1.3312	-1.8458	-1.4813	-2.0083	-1.7417	-1.4417	-2.3208	-1.6812	-1.65	-1.925	-1.4729	-1.8312	-1.7125	-1.4792	-1.9083	-1.6646	237.172	296.167	453.405	200.393	378.148	254.934	270.814	185.447	409.572	382.254	180.698	392.461	376.281	419.878	475.032	329.249	0.00030731	0.0004515	0.0001393	1060.2	5.058e-06	4.3385e-06	1163.8	226.75	5.7224e-06	2.1023e-06	287.63	80.553	63.758	18.747	1.1133e-05	25.954	0.00076031	0.00081273	0.00022678	1064.6	8.8906e-06	8.9309e-06	1158.3	229.58	8.9089e-06	8.9241e-06	300.15	83.282	68.71	19.869	8.9367e-06	27.516	236.321	208.392	342.060	125.683	273.578	182.929	125.934	133.403	290.155	372.286	133.030	139.937	140.111	146.593	268.811	146.403	-8191	255	
26989.361	1	1	0	0	0.276	0.28284	0.16352	0.52402	0.11358	0.2162	0.25042	0.33771	0.090288	0.12837	0.09129	0.043196	0.10242	0.19747	0.1595	0.086943	-1.2812	-1.7979	-1.7021	-1.7938	-1.775	-1.325	-2.1021	-1.8937	-1.5458	-2.0542	-1.5938	-1.9083	-1.6812	-1.6583	-2.0583	-1.7313	137.396	188.299	365.342	450.884	253.490	339.704	459.126	473.091	393.978	270.515	249.100	466.778	382.994	419.808	290.863	396.642	0.0003302	0.00054956	2.3992e-05	1066.1	6.6813e-06	2.0349e-06	1159.9	227.18	5.8386e-07	2.3588e-06	286.63	80.912	63.638	18.649	2.2694e-06	26.193	0.00076478	0.00082266	0.00022766	1065.2	8.8286e-06	8.7838e-06	1156.1	229.22	8.8066e-06	8.885e-06	299.57	83.275	68.432	19.754	8.6634e-06	27.51	265.736	190.743	438.058	125.831	281.521	384.930	126.122	133.300	454.563	206.300	132.401	139.622	140.703	147.031	435.483	146.117	-8191	255	
26989.482	1	1	0	0	0.28232	0.13924	0.24968	0.39215	0.11669	0.020447	0.4673	0.16579	0.11463	0.093786	0.15864	0.15246	0.21052	0.10213	0.10783	0.16706	-1.0479	-2.0042	-1.6042	-1.9083	-2.0104	-1.4083	-2.1542	-1.9667	-1.5875	-1.8813	-1.5854	-1.7583	-2.0542	-1.6271	-1.9062	-1.775	421.910	184.576	362.508	434.665	321.176	194.143	415.100	378.421	340.461	341.292	399.338	324.838	318.359	176.398	442.259	355.050	0.00029534	0.0002585	0.00027089	1066.6	8.5815e-06	2.6218e-06	1161.6	226.71	3.5255e-06	4.4159e-06	286.91	80.309	63.561	18.623	2.9222e-06	26.022	0.00074208	0.00079107	0.00022004	1065.1	8.6955e-06	8.8043e-06	1154	228.77	8.6446e-06	8.7437e-06	298.53	83.016	68.112	19.746	8.5713e-06	27.416	249.806	465.207	266.616	125.884	331.967	319.736	125.936	133.750	210.807	344.917	132.548	139.558	140.773	147.092	237.783	146.536	-8191	255	
26989.578	1	1	0	0	0.028548	0.052509	0.036018	0.25448	0.065966	0.24247	0.20791	0.11516	0.14161	0.23072	0.048263	0.3457	0.23488	0.078211	0.044187	0.060225	-1.2313	-2.05	-1.6875	-1.7563	-2.0812	-1.3521	-2.05	-1.8292	-1.4729	-2.0729	-1.775	-1.6167	-2.2083	-1.6437	-1.875	-2.0167	401.679	153.494	253.267	419.149	126.217	361.707	121.835	393.429	277.636	462.326	425.534	142.467	135.119	128.135	460.433	424.816	0.00036283	0.0004482	5.2653e-05	1068.1	2.9765e-06	5.6881e-06	1166.2	226.67	4.2511e-06	4.8707e-06	283.8	79.913	64.307	18.555	7.4256e-06	25.991	0.00073448	0.0007932	0.00022043	1064.4	8.5855e-06	8.6386e-06	1154.7	228.32	8.681e-06	8.7709e-06	298.02	82.814	68.33	19.654	8.7879e-06	27.468	256.293	129.945	203.281	125.649	304.799	164.876	125.879	133.645	227.924	278.171	132.902	139.790	140.603	146.813	271.832	146.423	-8191	255	
26989.674	1	1	0	0	0.17945	0.24546	0.36703	0.25995	0.25594	0.1602	0.25781	0.085935	0.3382	0.080219	0.14683	0.12527	0.3213	0.34526	0.25122	0.12409	-1.1938	-2.1104	-1.4771	-1.8917	-1.9708	-1.4771	-2.0146	-2.1021	-1.6208	-1.9792	-1.7104	-1.7167	-2.1625	-1.6479	-1.9813	-2.0667	334.250	460.116	138.607	474.318	384.727	147.444	355.692	365.892	373.971	199.918	458.620	137.778	215.152	123.504	294.753	342.909	0.0002656	0.00027778	0.000249	1062.8	8.5742e-06	7.8698e-06	1162.5	226.4	1.1274e-06	7.2579e-06	286	80.309	63.431	18.635	5.9217e-06	26.007	0.00077401	0.00082482	0.000231	1065.7	9.1227e-06	9.099e-06	1155.9	229.37	9.1832e-06	9.0625e-06	300.07	82.957	68.613	19.779	8.9793e-06	27.496	267.803	168.564	248.510	125.796	203.500	257.504	126.196	133.376	326.132	253.416	133.092	139.856	140.075	146.850	324.990	146.471	-8191	255	
26989.770	1	1	0	0	0.17228	0.33021	0.16303	0.071851	0.212	0.099927	0.15876	0.18078	0.19801	0.17388	0.14439	0.27538	0.33515	0.082954	0.42194	0.045528	-0.99792	-1.6583	-1.6437	-1.6958	-2.1083	-1.5917	-2.0104	-2.0146	-1.6313	-1.9729	-1.6812	-1.6688	-2.1771	-1.7583	-1.7333	-2.1188	342.034	446.189	361.701	463.624	121.139	152.360	433.040	165.537	270.941	398.101	277.613	453.477	171.315	223.546	217.980	375.887	0.00031207	0.00045145	4.6944e-05	1064	6.1484e-06	4.3804e-07	1162	225.67	2.5144e-06	6.9409e-06	287.2	80.045	63.288	18.453	5.6812e-06	25.858	0.00076773	0.00082329	0.00023318	1065.2	9.0145e-06	9.0094e-06	1155.3	228.75	8.7924e-06	8.7826e-06	297.37	82.594	68.072	19.578	8.5909e-06	27.303	257.004	192.908	302.199	125.597	244.494	380.741	126.018	133.385	251.532	311.410	133.140	140.188	140.796	147.119	325.602	146.553	-8191	255	
26989.891	1	1	0	0	0.22984	0.2379	0.12554	0.1532	0.32202	0.098109	0.13223	0.3009	0.2131	0.12731	0.031199	0.27478	0.26146	0.2942	0.3153	0.20149	-0.87292	-1.8042	-1.8604	-1.6083	-2.0208	-1.7896	-1.9521	-2.0604	-1.3604	-1.8146	-2.0625	-1.7354	-2.0896	-1.8229	-1.8208	-2.2375	259.082	187.363	402.240	131.226	465.041	150.558	399.848	454.057	462.254	454.689	267.916	376.837	241.609	453.684	215.442	133.238	0.00027703	0.0008616	0.00015554	1066.5	5.3275e-06	3.5944e-06	1162.2	225.58	2.4436e-06	1.8667e-06	284.18	80.183	63.585	18.551	4.2963e-06	25.716	0.00073532	0.00079207	0.0002223	1064.7	8.7012e-06	8.6979e-06	1154.7	228.4	8.5268e-06	8.7224e-06	297.76	82.624	67.883	19.642	8.8422e-06	27.283	239.587	200.593	293.684	125.546	329.680	128.785	126.086	133.453	356.140	330.921	132.844	139.848	141.004	147.277	208.634	146.478	-8191	255	
26989.963	1	1	0	0	0.20231	0.096326	0.27569	0.16815	0.13176	0.23219	0.27867	0.50013	0.14233	0.15222	0.31566	0.17896	0.16762	0.11848	0.095052	0.14405	-1.3188	-1.7354	-1.925	-1.6229	-2.0146	-1.7833	-1.75	-2.0729	-1.7792	-1.9688	-2.0938	-1.575	-1.8521	-1.7938	-1.6417	-2.1979	457.080	161.896	462.848	345.296	200.585	225.945	408.367	405.314	171.528	158.862	442.805	375.337	367.387	449.811	394.370	433.968	0.00031481	0.000751	0.00025298	1061.4	1.168e-05	3.7742e-06	1157.1	226.25	5.3388e-06	1.0076e-05	288.62	79.745	63.441	18.576	1.2195e-06	25.826	0.00076317	0.00082574	0.00023108	1064.7	9.1497e-06	9.2489e-06	1153.7	228.83	9.1763e-06	9.3812e-06	300.19	82.947	68.729	19.73	9.2608e-06	27.414	248.290	209.642	319.565	125.678	320.545	197.145	126.151	133.273	269.330	329.049	132.765	139.771	140.408	147.055	244.157	146.525	-8191	255	
26990.059	1	1	0	0	0.06396	0.13964	0.24146	0.20707	0.25868	0.078597	0.23452	0.025078	0.078064	0.21915	0.16475	0.18549	0.095691	0.092034	0.039112	0.10416	-1.2042	-1.8708	-1.8417	-1.5875	-1.85	-1.7646	-1.8542	-2.0938	-1.6583	-1.6458	-2.0104	-1.4583	-1.9062	-1.9146	-1.5063	-2.0604	144.685	191.957	137.878	412.818	187.547	417.988	418.984	201.475	391.920	474.405	206.137	150.781	325.892	269.871	281.278	144.542	0.00029563	0.00055685	0.00017259	1065	3.7846e-06	4.4354e-06	1162.5	226.94	3.6215e-06	9.0145e-06	284.57	80.779	63.429	18.614	2.8451e-06	26.097	0.00080114	0.00085541	0.000237	1067.3	9.3283e-06	9.4636e-06	1157.8	229.47	9.3016e-06	9.3921e-06	300	83.326	68.633	19.751	9.5754e-06	27.56	246.513	146.661	276.919	125.684	334.655	336.178	126.129	133.553	281.726	293.053	132.435	139.907	140.377	146.802	257.107	146.607	-8191	255	
26990.154	1	1	0	0	0.22734	0.25114	0.15439	0.022616	0.15848	0.10679	0.21296	0.42363	0.26849	0.25112	0.21065	0.11887	0.13402	0.16135	0.152	0.06858	-1.0688	-1.5021	-1.9875	-1.7646	-1.9729	-1.5958	-1.5604	-1.9604	-1.5438	-1.5979	-1.8146	-1.4104	-1.75	-1.6771	-1.3979	-1.9417	322.485	455.852	397.915	270.222	178.485	423.613	441.637	151.342	186.892	388.248	473.207	417.310	457.871	143.588	346.555	451.686	0.00024289	0.00027498	0.00011061	1063	3.737e-06	1.1893e-06	1166.5	226.87	6.5947e-06	5.9201e-06	287.53	80.48	63.903	18.444	8.0687e-06	26.05	0.00080694	0.00087732	0.00024233	1068.1	9.5634e-06	9.6296e-06	1160.9	230.15	9.7216e-06	9.7223e-06	301.83	83.18	69.107	19.803	9.6859e-06	27.631	282.268	161.264	262.588	125.851	233.690	149.841	125.985	133.314	274.163	310.173	132.871	139.926	140.719	146.625	285.936	146.301	-8191	255	
26990.275	1	1	0	0	0.04646	0.16495	0.22686	0.24045	0.061882	0.05729	0.053796	0.21073	0.074422	0.087756	0.091128	0.093985	0.23806	0.32301	0.10882	0.18018	-1.4	-1.5562	-1.9354	-1.65	-1.6542	-1.8021	-1.55	-2.1708	-1.9292	-1.6417	-1.9917	-1.7062	-1.6917	-1.9083	-1.4396	-1.9771	157.020	196.887	201.047	464.195	447.325	374.826	128.386	418.008	458.689	325.323	399.834	394.363	284.951	432.661	137.262	233.500	0.0003748	0.00040133	0.00013581	1069.4	8.1818e-06	1.5094e-06	1166.4	227.83	1.8555e-06	4.1152e-06	285.9	80.24	64.221	18.745	2.4529e-06	26.055	0.00083569	0.00088397	0.00024949	1072.7	9.8464e-06	9.8712e-06	1160.5	230.67	9.7754e-06	9.9334e-06	303.16	83.5	69.538	19.917	9.957e-06	27.655	258.232	441.904	288.754	125.768	334.999	280.870	126.071	133.541	310.320	296.120	133.499	139.835	139.733	146.888	421.318	146.103	-8191	255	
26990.371	1	1	0	0	0.068763	0.16824	0.094535	0.27131	0.073571	0.15103	0.042228	0.40276	0.18525	0.28194	0.21102	0.16739	0.1855	0.18901	0.17788	0.42311	-1.3104	-1.4042	-1.8813	-1.8729	-1.7146	-1.7958	-1.7417	-2.0979	-1.9729	-1.5354	-1.9333	-1.5771	-1.5458	-2.0125	-1.5417	-1.7812	384.973	414.248	174.704	120.132	137.784	425.602	458.798	454.527	402.308	460.437	124.633	416.248	211.597	151.865	257.894	409.954	0.00027078	0.0001957	0.00014482	1062.6	3.9791e-06	6.6494e-06	1167.2	227.16	2.1885e-06	6.0891e-06	289.15	80.836	63.585	18.814	1.0125e-05	25.945	0.00085403	0.00091592	0.00025411	1071.6	1.0003e-05	1.011e-05	1161.8	230.7	9.9697e-06	1.01e-05	303.66	83.695	69.274	19.964	9.9445e-06	27.604	256.189	157.188	158.644	125.769	379.968	255.154	126.103	133.479	239.749	381.766	132.851	139.380	140.247	147.076	261.945	146.540	-8191	255	
26990.467	1	1	0	0	0.14479	0.23599	0.17123	0.17235	0.17187	0.17593	0.47372	0.18935	0.15305	0.279	0.19484	0.17144	0.17665	0.17911	0.1306	0.16804	-1.2854	-1.4937	-2.1	-1.6896	-1.6688	-1.9583	-1.7479	-1.8	-1.8125	-1.2417	-2.0083	-1.7854	-1.4875	-2.0125	-1.4583	-1.7771	154.380	319.752	148.373	148.305	337.845	166.273	389.097	450.385	297.682	374.297	397.945	392.383	125.105	404.620	164.793	230.202	0.00037551	8.2817e-05	0.00014298	1072.1	1.1191e-05	7.2852e-06	1162.5	227.34	1.9605e-06	3.7329e-06	286.41	80.021	63.253	18.672	8.5353e-07	25.821	0.00084883	0.00090649	0.00025454	1073.2	9.9099e-06	9.9154e-06	1159.6	230.39	9.8805e-06	9.9864e-06	301.91	83.316	69.511	19.891	9.9901e-06	27.679	252.698	236.800	276.932	125.961	291.624	284.861	126.067	133.378	332.907	320.492	133.029	139.868	140.475	146.574	422.744	146.561	-8191	255	
26990.586	1	1	0	0	0.30459	0.10152	0.12143	0.14333	0.16881	0.15943	0.38484	0.18558	0.20892	0.014118	0.037022	0.14719	0.094851	0.21383	0.18127	0.22723	-1.4729	-1.3667	-1.7625	-1.8687	-1.4958	-1.8896	-1.6958	-1.6333	-1.9833	-1.3667	-1.9458	-1.7917	-1.5604	-1.9979	-1.5688	-1.4458	438.273	381.118	164.603	424.463	241.303	232.793	409.958	428.153	306.788	133.477	182.332	207.315	289.225	215.611	130.476	341.573	0.00028557	0.00095244	0.00016656	1068.6	2.3633e-06	4.7974e-06	1159.8	226.92	1.3472e-06	9.8618e-06	288.57	80.43	63.921	18.685	6.2049e-06	26.005	0.00085182	0.0009174	0.00025731	1072.9	9.9705e-06	1.0109e-05	1159.3	230.25	9.8857e-06	1.0024e-05	302.13	83.54	69.549	19.904	9.9064e-06	27.693	262.229	178.001	256.231	125.908	339.032	174.911	125.921	133.500	307.597	293.138	133.245	139.726	140.905	146.933	241.441	146.232	-8191	255	
26990.658	1	1	0	0	0.3791	0.22695	0.21139	0.16792	0.14599	0.21084	0.20583	0.33941	0.068528	0.11934	0.23832	0.20316	0.11462	0.22366	0.073305	0.019304	-1.6375	-1.4604	-1.6146	-1.8854	-1.4146	-1.8479	-1.925	-1.8729	-1.9125	-1.5354	-1.7875	-1.6979	-1.4312	-2.0833	-1.8937	-1.4937	235.098	308.243	330.520	340.020	449.758	465.184	379.253	401.131	157.473	305.046	190.652	337.921	279.564	364.330	320.959	217.383	0.00025804	0.0007851	0.00011633	1072.7	9.6423e-06	5.0997e-06	1168.2	227.09	4.5361e-06	4.505e-06	286.87	80.715	63.764	18.713	5.0571e-06	26.017	0.00083535	0.0009066	0.00025178	1072.7	9.964e-06	9.9844e-06	1161.5	230.37	9.7994e-06	9.9895e-06	301.8	83.593	69.217	19.894	9.9949e-06	27.693	244.930	248.074	458.648	125.854	289.429	277.755	125.927	133.490	255.419	302.205	133.045	140.058	141.007	146.811	193.274	146.142	-8191	255	
26990.754	1	1	0	0	0.22676	0.27692	0.27555	0.28028	0.14146	0.050401	0.16187	0.14573	0.20908	0.15369	0.20191	0.19073	0.078384	0.20686	0.098445	0.081559	-1.4833	-1.5896	-1.7938	-1.8917	-1.4479	-1.7854	-1.7062	-1.6729	-1.9688	-1.6042	-1.7833	-2.0979	-1.4813	-1.9667	-1.8375	-1.5646	227.990	182.833	178.227	395.621	386.576	165.842	383.879	388.381	273.913	203.591	120.350	435.248	385.884	248.583	217.598	152.376	0.00029058	0.0010173	0.00025881	1071.9	3.5153e-06	5.8637e-06	1163.5	226.85	6.8544e-06	2.672e-06	287.2	80.66	63.199	18.62	6.688e-06	25.696	0.00084168	0.00089319	0.00025038	1073.1	9.7361e-06	9.7133e-06	1159.3	230.04	9.4335e-06	9.468e-06	301.68	83.257	68.728	19.738	9.3154e-06	27.459	256.050	472.180	221.434	125.773	222.334	224.860	126.177	133.374	229.921	179.267	133.363	139.611	140.121	146.929	255.053	146.301	-8191	255	
26990.850	1	1	0	0	0.037807	0.20166	0.27938	0.24153	0.18077	0.14625	0.25932	0.086452	0.21276	0.1117	0.066764	0.1423	0.11086	0.051861	0.071946	0.22863	-1.5063	-1.5667	-1.5104	-1.8229	-1.4042	-1.8354	-1.9333	-1.5167	-1.8875	-1.6083	-1.6104	-1.8146	-1.2062	-1.8104	-1.8104	-1.4438	365.857	316.132	148.666	441.333	250.616	344.477	441.833	176.022	396.738	231.803	179.591	413.505	299.556	264.018	121.941	166.927	0.0002766	0.00026697	4.9061e-05	1065.3	1.0217e-05	6.8924e-06	1161.1	226.01	6.2994e-06	1.2619e-06	286.43	80.359	64.383	18.579	3.1238e-06	26.001	0.00079262	0.00084191	0.00023109	1068.8	9.2105e-06	9.2181e-06	1158.2	229.55	9.1406e-06	9.2912e-06	300.15	83.098	69.172	19.773	9.2843e-06	27.613	252.924	471.558	235.692	125.774	266.153	290.744	126.254	133.490	278.828	339.896	133.111	139.652	140.320	146.971	258.203	146.047	-8191	255	
26990.969	1	1	0	0	0.32696	0.12318	0.20522	0.27645	0.17077	0.28012	0.20277	0.43984	0.23291	0.24267	0.10056	0.20336	0.2301	0.16262	0.22228	0.12223	-1.2687	-1.6333	-1.6021	-1.8354	-1.5229	-1.675	-1.8708	-1.6437	-1.9604	-1.6646	-1.5292	-1.9542	-1.3979	-1.6042	-1.9292	-1.4896	333.578	441.518	429.605	434.181	196.692	356.725	386.838	469.867	334.125	475.109	267.616	462.495	159.508	265.256	267.692	415.450	0.00028048	0.00047525	6.8475e-05	1072.2	4.8369e-06	4.6103e-06	1162.4	227.49	3.1639e-06	6.1987e-06	286.25	80.15	64.151	18.62	2.4474e-06	26.032	0.00080146	0.00086235	0.00024065	1071.2	9.5522e-06	9.4748e-06	1159.1	230.27	9.3861e-06	9.4931e-06	300.73	83.038	69.05	19.812	9.3166e-06	27.583	242.528	246.698	252.837	125.708	255.631	246.369	126.010	133.431	255.788	242.499	132.987	139.428	140.963	147.001	319.510	146.468	-8191	255	
26991.064	1	1	0	0	0.11194	0.033413	0.13962	0.25857	0.16244	0.15389	0.21369	0.23634	0.25961	0.16898	0.11149	0.19245	0.087605	0.4716	0.15313	0.24026	-1.5479	-1.7188	-1.6021	-2.1437	-1.4604	-1.7417	-2.1708	-1.4667	-1.7896	-1.6437	-1.3917	-1.9833	-1.6854	-1.775	-1.8958	-1.5125	352.770	174.918	263.850	348.067	177.471	216.068	439.848	325.434	284.368	191.821	435.430	319.082	316.664	389.462	306.932	381.440	0.00031086	0.00052943	9.3488e-05	1064.1	8.1682e-06	2.5125e-06	1166.2	226.86	5.0091e-06	5.484e-06	287.92	80.255	64.497	18.634	6.6421e-06	26.115	0.00079378	0.000844	0.00023324	1068.7	9.0343e-06	9.0897e-06	1159.4	229.39	9.0299e-06	9.0852e-06	299.63	83.101	68.847	19.761	9.1261e-06	27.576	238.131	242.294	279.636	125.824	298.387	250.849	125.925	133.240	318.498	316.582	132.849	139.811	141.044	146.721	344.709	146.396	-8191	255	
26991.160	1	1	0	0	0.030014	0.080052	0.34369	0.23084	0.30635	0.19791	0.10022	0.046733	0.25105	0.15288	0.21018	0.18525	0.1245	0.15081	0.28967	0.19064	-1.35	-1.6292	-1.4396	-1.9917	-1.5812	-1.7292	-1.9875	-1.6604	-1.7875	-1.7917	-1.3896	-1.9792	-1.4708	-1.4542	-1.8708	-1.5312	357.744	454.224	144.337	354.076	446.976	401.257	276.503	298.264	419.306	285.099	213.539	453.984	125.217	440.220	347.515	290.369	0.00023504	0.00067323	9.1622e-05	1071.1	8.5571e-06	9.7146e-07	1163.9	226.89	1.2315e-06	2.1628e-06	287.64	80.396	63.76	18.741	7.0359e-06	26.03	0.00077616	0.00084145	0.00023708	1071.4	9.1441e-06	9.3574e-06	1159.8	229.98	9.3792e-06	9.5237e-06	301.8	83.29	69.262	19.903	9.6841e-06	27.613	246.019	124.604	379.691	125.919	260.142	136.802	125.822	133.743	249.612	400.879	132.911	139.707	140.325	146.941	348.637	146.226	-8191	255	
26991.258	1	1	0	0	0.23903	0.050841	0.22745	0.12011	0.18254	0.26111	0.35247	0.053653	0.40751	0.24379	0.31822	0.18645	0.32373	0.17329	0.21999	0.19805	-1.4625	-1.8833	-1.3792	-2.0896	-1.5083	-1.5438	-2.2833	-1.7229	-1.7896	-1.8542	-1.6417	-1.8521	-1.7604	-1.5646	-1.9583	-1.5063	264.541	169.921	431.517	288.156	335.906	400.805	451.630	335.189	433.445	127.381	383.861	254.786	451.244	350.713	372.862	469.607	0.0002512	0.00084077	0.00014359	1069.2	3.7561e-06	9.9236e-06	1165.4	226.49	2.3316e-06	8.0347e-06	287.24	80.378	64.245	18.659	5.8769e-06	26.09	0.00081546	0.00088516	0.00024809	1071.6	9.7226e-06	9.7753e-06	1160.5	230.09	9.5658e-06	9.7708e-06	301.4	83.489	69.577	19.91	9.6663e-06	27.615	260.637	159.217	217.561	125.686	202.871	245.642	126.004	133.438	406.311	332.647	132.867	139.779	140.702	147.157	122.834	146.328	-8191	255	
26991.354	1	1	0	0	0.21919	0.038423	0.39745	0.092259	0.22677	0.13348	0.16108	0.23014	0.21353	0.16059	0.099992	0.19385	0.105	0.062106	0.051658	0.066176	-1.3417	-2.0271	-1.5229	-1.9	-1.8375	-1.5896	-2.1063	-1.7333	-1.825	-1.9708	-1.6625	-2.0146	-1.6625	-1.4875	-1.7917	-1.6354	159.670	335.309	263.253	415.514	201.791	297.474	415.366	429.836	117.220	172.800	338.400	116.343	201.864	133.098	151.662	400.150	0.00030128	0.00086908	8.6818e-05	1074.6	4.1031e-06	2.5565e-06	1168.7	227.66	1.535e-06	2.4126e-06	288.32	80.407	64.007	18.679	4.5475e-06	26.072	0.00082442	0.00088327	0.00024916	1075.1	9.8436e-06	9.7703e-06	1162.6	230.83	9.8885e-06	9.9946e-06	302.72	83.559	69.519	19.969	9.9349e-06	27.709	257.576	195.841	131.697	125.824	320.385	191.962	126.033	133.598	405.227	132.136	133.115	139.742	140.381	146.713	217.472	146.428	-8191	255	
26991.449	1	1	0	0	0.19731	0.15548	0.17317	0.23965	0.21669	0.14555	0.28587	0.15074	0.08978	0.087916	0.25202	0.17796	0.25763	0.075673	0.22541	0.22432	-1.4208	-1.7917	-1.5792	-1.9667	-1.7458	-1.3958	-2.2812	-1.6604	-1.6688	-1.925	-1.4354	-1.9229	-1.9708	-1.2833	-1.8354	-1.6792	304.745	350.597	185.983	434.579	238.763	168.681	331.273	422.552	447.397	140.681	401.228	211.807	263.567	450.097	335.887	374.013	0.00028513	0.00071894	0.00022288	1067.3	1.1551e-05	2.5374e-06	1163.8	227.87	3.992e-06	1.6672e-06	288.86	80.9	63.23	18.808	1.1292e-05	26.008	0.00085066	0.0009169	0.00025639	1073.9	9.9667e-06	1.0223e-05	1162.5	230.6	9.9811e-06	1.0089e-05	302.58	83.759	69.169	19.917	9.6828e-06	27.617	258.341	211.622	229.025	125.680	290.658	196.434	126.073	133.666	324.887	334.172	133.104	139.956	140.938	146.780	291.008	146.685	-8191	255	
26991.570	1	1	0	0	0.060814	0.1751	0.20799	0.21717	0.21326	0.16014	0.16522	0.091275	0.28483	0.26805	0.32295	0.34702	0.11769	0.11158	0.13474	0.18189	-1.0917	-1.9188	-1.5375	-1.8479	-1.9729	-1.4292	-1.9	-1.6729	-1.5583	-1.9417	-1.6	-1.7583	-1.8354	-1.2896	-1.975	-1.9688	467.917	152.129	346.776	407.628	177.266	349.412	270.136	205.960	356.392	344.358	147.256	318.506	321.134	321.960	246.556	314.704	0.00031298	0.00079098	0.00013944	1067.1	6.2267e-06	6.6631e-06	1163.8	227.23	4.9344e-06	1.158e-05	285.47	80.231	63.369	18.77	3.7708e-06	25.838	0.00083501	0.00088658	0.00024699	1070.9	9.634e-06	9.8657e-06	1159	230.12	9.56e-06	9.6411e-06	301.06	83.31	69.096	19.869	9.6804e-06	27.651	245.909	176.126	197.671	125.974	225.043	372.315	126.041	133.227	298.249	270.863	132.779	139.995	140.319	146.740	123.782	146.150	-8191	255	
26991.666	1	1	0	0	0.28807	0.26354	0.15661	0.23689	0.13128	0.21801	0.21083	0.22138	0.12398	0.14347	0.17339	0.038914	0.2119	0.2743	0.06903	0.36403	-0.96667	-1.8146	-1.5083	-1.9854	-1.7229	-1.4937	-2.0563	-1.9167	-1.55	-2.1146	-1.7021	-1.725	-1.6958	-1.5042	-1.6938	-1.8271	445.479	320.003	274.059	419.086	461.447	450.077	327.401	168.036	266.522	467.434	330.365	135.188	441.245	130.690	421.515	393.664	0.00029373	0.00035911	8.24e-05	1070.2	5.4771e-06	9.8085e-06	1167.7	227.57	3.515e-06	7.7517e-06	286.36	80.151	63.077	18.65	6.0891e-06	25.994	0.00082759	0.0008858	0.00024677	1070.7	9.6992e-06	9.7192e-06	1160.2	230.48	9.5735e-06	9.6077e-06	300.98	83.145	69.117	19.885	9.5829e-06	27.602	236.205	277.093	206.114	125.719	310.096	248.606	125.818	133.430	287.511	290.812	133.147	139.924	140.246	146.905	343.470	145.796	-8191	255	
26991.762	1	1	0	0	0.21336	0.18331	0.11249	0.10631	0.21938	0.12487	0.19681	0.34825	0.06617	0.28185	0.2347	0.19565	0.12746	0.14235	0.17722	0.31466	-1.0771	-1.725	-1.6896	-1.6146	-1.95	-1.5562	-1.8646	-2.0354	-1.3438	-1.8896	-1.8687	-1.5042	-1.9646	-1.6667	-1.8229	-1.9667	354.802	238.255	182.721	405.220	246.891	439.728	421.202	376.744	288.143	170.525	194.115	230.565	454.494	145.277	233.842	448.401	0.00024047	0.00095626	0.00019861	1068.4	1.0358e-05	3.2802e-06	1166.3	226.79	4.7343e-06	2.1185e-06	287.57	80.532	63.484	18.762	6.337e-06	26.065	0.00081385	0.00085923	0.00024217	1069.7	9.5253e-06	9.4786e-06	1159.1	229.84	9.3131e-06	9.5502e-06	300.55	83.321	69.212	19.876	9.3511e-06	27.596	241.542	161.959	239.844	125.931	288.947	286.853	126.094	133.295	303.471	396.730	132.841	139.463	140.243	146.998	202.162	146.262	-8191	255	
26991.859	1	1	0	0	0.28228	0.054976	0.3516	0.20848	0.12965	0.17779	0.16444	0.22949	0.21769	0.044726	0.12557	0.26231	0.13179	0.20604	0.16358	0.41835	-0.84583	-1.7563	-1.4833	-1.55	-1.8188	-1.6521	-1.7896	-1.9792	-1.4917	-1.8208	-1.8125	-1.5938	-1.8771	-1.8729	-1.7292	-2.0229	436.935	402.955	421.965	423.181	237.645	376.019	432.132	405.281	261.255	230.602	369.629	212.716	396.187	446.350	160.161	342.381	0.00034159	0.00058966	3.2222e-05	1060.6	1.2795e-06	4.695e-06	1162.7	226.76	5.1371e-06	1.5883e-06	285.78	80.988	63.637	18.658	3.1258e-06	25.954	0.00082153	0.00085222	0.00024287	1068.1	9.5451e-06	9.5902e-06	1158	229.89	9.4428e-06	9.6489e-06	300.81	83.337	68.972	19.824	9.3869e-06	27.598	253.120	473.400	203.756	126.030	172.017	219.022	126.014	133.416	293.511	459.346	133.146	140.109	140.203	146.876	467.717	146.142	-8191	255	
26991.953	1	1	0	0	0.24174	0.38337	0.24627	0.19588	0.058946	0.027122	0.25704	0.31308	0.10646	0.13785	0.23246	0.30777	0.062341	0.2074	0.34349	0.10468	-1.0917	-1.8646	-1.8667	-1.7188	-1.8208	-1.6292	-1.7958	-2.0375	-1.5271	-1.8729	-1.9521	-1.3667	-1.9208	-1.7292	-1.5917	-2.0042	122.110	225.540	234.419	424.713	343.785	400.958	393.173	446.814	407.701	311.424	144.719	211.254	469.826	285.917	283.115	414.713	0.00027694	0.00032574	0.00011163	1062.7	3.0066e-06	5.5484e-06	1166.2	227.66	6.8817e-06	1.6023e-06	287.16	80.53	63.572	18.711	4.5188e-06	26.142	0.00079298	0.00085656	0.0002385	1067.3	9.2838e-06	9.4743e-06	1158.8	230.56	9.3605e-06	9.2738e-06	300.84	83.299	68.983	19.88	9.4394e-06	27.656	264.429	130.297	149.599	125.736	302.956	358.207	126.069	133.572	306.254	147.425	133.351	139.853	141.140	146.978	306.432	146.760	-8191	255	
26992.049	1	1	0	0	0.20757	0.19191	0.143	0.1655	0.37011	0.13873	0.26889	0.3467	0.2346	0.15604	0.22394	0.098965	0.17183	0.32995	0.095907	0.040039	-1.1479	-1.7229	-1.8667	-1.6646	-1.7458	-1.8417	-1.6458	-2.0271	-1.4625	-1.6063	-1.9458	-1.6167	-1.8604	-1.7687	-1.7	-2.0833	279.278	176.126	155.509	262.201	248.228	288.361	440.882	454.385	160.674	188.747	414.901	384.733	164.221	380.842	119.838	379.512	0.00024475	0.0004413	0.00010296	1071.4	2.7288e-06	3.3814e-06	1167.3	226.77	2.7097e-06	5.1968e-06	287.57	80.452	64.046	18.651	2.9142e-06	26.072	0.00081734	0.00087446	0.00024546	1071.7	9.5934e-06	9.7522e-06	1160.3	229.93	9.5653e-06	9.6855e-06	301.55	83.343	69.485	19.906	9.6676e-06	27.71	258.933	295.648	188.627	125.834	260.850	163.644	126.017	133.366	322.883	305.957	132.978	139.774	140.784	146.696	246.289	146.246	-8191	255	
26992.145	1	1	0	0	0.2279	0.11513	0.28164	0.23547	0.089725	0.17248	0.29827	0.1154	0.11284	0.050102	0.18647	0.066468	0.028526	0.18889	0.15542	0.012987	-0.98542	-1.5646	-1.8312	-1.6229	-1.9083	-1.825	-1.6562	-2.1104	-1.6042	-1.5354	-1.8729	-1.5146	-1.7437	-1.8	-1.6333	-1.9104	182.925	400.283	166.994	386.509	221.917	179.213	385.445	319.365	307.637	457.392	474.643	392.632	315.086	148.533	273.231	157.952	0.0003419	0.00034349	0.00024941	1069.9	3.2557e-06	2.6676e-06	1165.5	227.43	3.594e-06	2.9026e-06	288.66	80.516	63.072	18.682	9.5847e-06	26.17	0.00081847	0.00086887	0.00024684	1072	9.7148e-06	9.6761e-06	1160.5	230.39	9.7431e-06	9.6447e-06	302.42	83.26	69.347	19.923	9.6967e-06	27.705	259.884	275.174	312.740	125.733	304.436	286.733	126.197	133.549	267.644	334.411	132.824	139.967	139.929	147.177	263.812	145.997	-8191	255	
26992.242	1	1	0	0	0.22038	0.15004	0.089919	0.31642	0.047551	0.16264	0.47819	0.14791	0.12696	0.05564	0.091871	0.19362	0.092369	0.048383	0.096949	0.31904	-1.2563	-1.4083	-1.775	-1.4125	-1.8854	-1.9104	-1.575	-2.1354	-1.6542	-1.4937	-1.9375	-1.575	-1.6313	-1.7938	-1.3417	-1.9333	185.001	195.870	243.020	323.254	217.107	368.090	124.262	374.653	234.757	129.216	406.354	364.949	258.890	436.799	265.567	461.871	0.00028223	0.00070052	0.00016329	1067.1	2.6096e-06	3.2606e-06	1167.8	227.38	7.7553e-06	9.7771e-06	287.93	80.671	63.866	18.7	4.1421e-06	26.141	0.00083623	0.0008855	0.00025249	1071.6	9.7985e-06	9.9809e-06	1162.6	230.82	1.0023e-05	1.0222e-05	303.7	83.874	69.667	20.059	1.0603e-05	27.868	241.929	247.080	156.367	125.840	228.510	271.304	125.988	133.660	289.182	195.589	133.095	139.886	139.941	146.658	255.064	146.484	-8191	255	
26992.361	1	1	0	0	0.052903	0.15252	0.33359	0.24956	0.20826	0.15294	0.28172	0.13295	0.14431	0.34559	0.12195	0.15393	0.10241	0.27803	0.20397	0.2847	-1.3646	-1.5063	-1.8979	-1.7375	-1.7292	-1.9312	-1.6812	-1.9167	-1.8396	-1.4604	-1.8521	-1.7771	-1.6646	-2.0333	-1.3292	-1.9042	254.587	286.880	120.236	438.233	409.245	299.313	438.685	158.319	163.861	134.951	219.501	458.849	405.040	416.764	253.723	414.564	0.00031227	0.0011361	0.0002513	1072.6	6.1012e-06	1.0138e-05	1168.8	229.09	1.9438e-06	7.0258e-07	287.27	80.011	64.048	18.717	5.2853e-06	26.273	0.00089598	0.00097858	0.0002747	1076.7	1.0696e-05	1.0749e-05	1165.1	232.04	1.0603e-05	1.0759e-05	305.44	83.746	70.024	20.044	1.0263e-05	27.783	260.664	156.449	215.649	125.681	297.990	317.241	125.863	133.410	201.170	444.363	133.021	139.726	140.625	146.928	338.746	146.220	-8191	255	
26992.457	1	1	0	0	0.23325	0.19528	0.1724	0.094195	0.043935	0.15891	0.47313	0.046837	0.13152	0.14947	0.29112	0.15276	0.15328	0.065036	0.21317	0.2383	-1.4438	-1.3229	-2.0375	-1.8021	-1.55	-2.1021	-1.7083	-1.8646	-1.7583	-1.6	-2.1188	-1.6417	-1.6521	-1.9729	-1.5229	-1.8854	170.647	315.156	129.560	177.788	245.247	342.187	393.524	403.689	250.717	136.781	438.862	228.173	392.793	134.712	466.421	382.436	0.00030798	0.00046725	0.00017563	1074.7	1.3781e-06	7.2799e-06	1166	225.94	7.3966e-06	1.6611e-06	287.33	80.428	63.887	18.601	6.3832e-06	25.976	0.00086175	0.00092808	0.00025486	1075.6	9.953e-06	9.9427e-06	1161.4	230.56	9.9029e-06	1.0016e-05	301.87	83.485	69.458	19.955	9.9445e-06	27.706	259.626	128.483	301.456	125.689	196.138	241.993	125.890	133.574	262.038	418.469	132.792	139.783	140.264	146.788	257.460	146.412	-8191	255	
26992.529	1	1	0	0	0.17495	0.26439	0.30161	0.15756	0.22845	0.23672	0.28633	0.12751	0.52327	0.15864	0.17171	0.18009	0.1966	0.2682	0.11168	0.10498	-1.4417	-1.3188	-1.875	-1.6833	-1.375	-1.8833	-1.7708	-1.8625	-1.8771	-1.4562	-1.9771	-1.8667	-1.7125	-2.1333	-1.6437	-1.7979	330.532	218.112	435.744	433.477	402.528	231.830	433.851	379.398	145.049	116.525	458.082	411.982	463.955	430.244	464.596	298.309	0.00032486	0.00033695	0.00016695	1070.6	3.9842e-06	1.692e-06	1162.7	229.08	5.4583e-06	1.1441e-05	289.65	79.877	64.29	18.705	4.7188e-06	26.147	0.00085394	0.00090749	0.00025494	1073.8	1.0119e-05	1.0154e-05	1160.8	230.69	9.8388e-06	9.9745e-06	301.77	83.38	69.452	19.881	9.7679e-06	27.613	252.334	266.983	191.467	125.690	329.507	318.426	126.117	133.471	195.149	258.668	132.630	139.374	139.985	146.563	331.932	146.530	-8191	255	
26992.650	1	1	0	0	0.080427	0.19192	0.2421	0.17308	0.067848	0.14155	0.1949	0.61903	0.1209	0.12933	0.17891	0.20559	0.29774	0.2067	0.2403	0.10981	-1.5146	-1.6271	-1.8646	-1.9146	-1.375	-2.0042	-1.8563	-1.7833	-1.825	-1.4875	-1.8167	-2.0604	-1.5458	-2.1	-1.7833	-1.625	444.134	416.183	220.384	372.720	170.639	331.472	432.262	387.038	428.086	377.963	457.033	418.748	250.249	413.731	430.238	258.648	0.00031976	0.00054698	0.0001647	1067.1	1.7753e-06	2.2683e-06	1162	226.38	3.9643e-06	5.252e-06	287.39	80.216	63.897	18.665	5.4332e-06	26.099	0.00083192	0.0008899	0.00024566	1069.7	9.4993e-06	9.5037e-06	1157.9	229.54	9.2689e-06	9.4537e-06	300.54	83.109	68.906	19.806	9.3387e-06	27.514	243.942	263.970	171.343	125.833	399.924	148.331	126.027	133.674	211.983	178.780	133.645	139.879	140.512	146.784	298.095	146.584	-8191	255	
26992.746	1	1	0	0	0.018473	0.19925	0.44426	0.23691	0.11325	0.21932	0.26684	0.081584	0.10593	0.055527	0.27027	0.10636	0.2218	0.11807	0.2951	0.21523	-1.7083	-1.5562	-1.9854	-1.9438	-1.4083	-1.6437	-1.8479	-1.6313	-1.9104	-1.6167	-1.8229	-1.9937	-1.6021	-1.9458	-1.8188	-1.7208	143.953	438.415	454.642	119.292	230.996	176.433	434.734	436.091	258.632	472.843	456.138	424.688	471.949	131.764	256.861	377.508	0.00033589	0.00070814	9.0614e-05	1074.6	4.1671e-06	1.9449e-06	1169	226.27	1.5411e-06	3.9987e-06	286.23	80.815	63.555	18.765	3.3824e-06	26.014	0.00080012	0.00085387	0.00023829	1070.3	9.4156e-06	9.3949e-06	1161.5	229.86	9.3879e-06	9.5833e-06	299.81	83.322	68.815	19.838	9.6099e-06	27.616	252.042	194.658	431.073	125.652	272.046	117.961	125.857	133.482	317.690	223.458	133.369	139.608	140.559	146.236	228.358	146.190	-8191	255	
26992.844	1	1	0	0	0.1613	0.079919	0.049948	0.2039	0.080456	0.038283	0.54329	0.1582	0.24222	0.080976	0.16858	0.17414	0.24931	0.16649	0.21148	0.33441	-1.4688	-1.6063	-1.6354	-1.9875	-1.6437	-1.6812	-2.0312	-1.7521	-1.9583	-1.5521	-1.5271	-2.1562	-1.7188	-2.0354	-2	-1.6917	409.991	355.306	227.802	127.237	130.150	288.287	435.111	256.770	245.650	455.160	293.735	297.869	357.284	437.449	178.716	440.322	0.00028918	3.4196e-05	0.00012893	1071.3	5.6246e-06	6.371e-06	1166.6	228.64	1.3757e-06	3.649e-06	288	80.086	63.385	18.502	5.143e-06	25.909	0.00082431	0.00089399	0.00025001	1071.6	9.9579e-06	9.8631e-06	1159.7	230.25	9.773e-06	9.7783e-06	301.92	83.255	69.404	19.786	9.7816e-06	27.606	245.508	229.531	390.181	125.949	303.897	207.883	125.839	133.468	248.355	362.563	132.826	139.561	140.480	146.802	362.938	146.242	-8191	255	
26992.963	1	1	0	0	0.2482	0.069949	0.12968	0.40347	0.34692	0.18273	0.11943	0.14509	0.11	0.26806	0.077157	0.3005	0.17416	0.16228	0.26403	0.20154	-1.5792	-1.6042	-1.6167	-2.1583	-1.5396	-1.7958	-2.1042	-1.5375	-2.0229	-1.6437	-1.7104	-2.0542	-1.6854	-1.8958	-1.8229	-1.6708	354.061	235.355	223.500	437.405	428.837	387.494	379.627	407.477	470.197	383.718	360.332	456.031	453.281	323.558	461.798	247.048	0.00031115	4.3537e-05	0.00026498	1071	3.0416e-06	6.6224e-06	1164.8	226.81	3.9868e-06	6.1636e-06	285.24	80.434	63.841	18.654	5.9913e-06	26.213	0.00083646	0.00089075	0.00025069	1073.2	9.8784e-06	9.7862e-06	1158.9	229.96	9.7285e-06	9.8064e-06	301.65	83.477	69.232	19.852	9.7134e-06	27.669	240.136	361.692	292.682	125.821	160.153	190.724	126.081	133.497	270.193	231.727	132.951	139.745	140.483	147.044	424.868	146.261	-8191	255	
26993.059	1	1	0	0	0.25342	0.15269	0.084548	0.17174	0.092457	0.18063	0.31572	0.38082	0.10201	0.29956	0.15099	0.30252	0.06306	0.20733	0.086382	0.068195	-1.4167	-1.6437	-1.6521	-2.1542	-1.5729	-1.6417	-2.0083	-1.3896	-1.8	-1.7396	-1.5292	-1.9104	-1.5896	-1.6979	-1.9979	-1.5208	321.923	139.805	468.730	430.323	204.210	329.864	380.661	452.606	128.001	254.041	281.881	474.506	301.396	343.644	118.631	416.589	0.00023726	0.0003732	2.6112e-05	1065.5	8.9411e-06	6.8716e-06	1161.8	227.03	3.4195e-07	6.6542e-06	285.52	80.236	63.369	18.482	5.8709e-06	26.047	0.00082243	0.00087963	0.00024963	1070.1	9.6919e-06	9.7571e-06	1157.3	230.23	9.7444e-06	9.8776e-06	301.97	83.249	69.195	19.812	9.8509e-06	27.644	255.869	122.170	377.957	125.821	232.588	255.695	126.029	133.586	417.052	260.665	132.931	139.736	140.581	147.035	182.162	146.464	-8191	255	
26993.129	1	1	0	0	0.067103	0.09538	0.35553	0.25303	0.094814	0.11797	0.086581	0.31652	0.069366	0.035113	0.27646	0.13903	0.071792	0.11097	0.23083	0.51239	-1.3813	-1.7333	-1.4292	-2.2438	-1.5	-1.5187	-2.2833	-1.575	-1.775	-1.8813	-1.5812	-2.1437	-1.7229	-1.65	-2.075	-1.6667	278.465	306.153	459.940	407.675	326.419	256.257	420.818	403.440	182.784	448.935	243.619	394.638	391.996	170.183	403.432	421.120	0.00029266	0.00042978	0.00011401	1073.6	6.8279e-06	3.8447e-06	1162.2	226.44	2.1161e-06	3.3907e-06	287.14	79.832	63.974	18.619	2.0275e-06	25.91	0.00083195	0.00089595	0.00024946	1070.6	9.5336e-06	9.6503e-06	1157.7	229.37	9.5196e-06	9.5617e-06	301.23	83.065	68.928	19.8	9.5801e-06	27.51	244.286	142.399	220.969	125.775	339.119	277.588	126.104	133.465	184.572	213.077	133.173	139.483	140.555	147.090	362.596	146.430	-8191	255	
26993.250	1	1	0	0	0.15895	0.35691	0.14938	0.087621	0.17118	0.078983	0.4121	0.17663	0.18406	0.25807	0.10259	0.42898	0.13179	0.10841	0.043854	0.020874	-1.2521	-1.8354	-1.5583	-2.1208	-1.7271	-1.6146	-2.0583	-1.6333	-1.8875	-1.8312	-1.5667	-1.8937	-1.6729	-1.7229	-1.9854	-1.7104	128.432	405.295	422.827	216.148	282.138	243.376	400.083	182.390	278.223	359.733	202.474	427.570	149.743	158.958	475.070	399.090	0.00030261	0.00051559	0.00022568	1067.2	8.6203e-06	5.6395e-06	1160.3	226.92	8.8709e-06	8.6305e-06	287.35	80.21	63.796	18.58	4.2785e-06	26.03	0.00082106	0.00089028	0.00024949	1068.9	9.8074e-06	9.8717e-06	1157.6	230.09	9.8374e-06	9.9605e-06	301.65	83.354	69.271	19.871	9.7793e-06	27.605	246.376	193.893	244.601	125.601	262.477	251.255	126.051	133.455	305.807	276.550	132.985	139.618	140.749	146.846	254.959	146.186	-8191	255	
26993.346	1	1	0	0	0.17278	0.12634	0.16238	0.16227	0.21437	0.17431	0.037647	0.25033	0.078856	0.17929	0.17428	0.19823	0.33968	0.2507	0.22231	0.203	-1.1812	-1.8563	-1.3687	-1.9708	-1.7146	-1.6979	-2.1583	-1.6354	-1.7542	-1.95	-1.3083	-2.0438	-1.8771	-1.5042	-1.7938	-1.6542	435.294	366.249	217.947	447.089	198.193	366.680	358.603	441.359	228.418	177.269	289.609	159.630	400.546	459.134	230.579	464.412	0.00020796	0.0009888	0.00021366	1067.8	9.3641e-06	4.7439e-06	1163.1	226.74	6.5019e-06	5.9506e-06	287.92	80.2	63.126	18.578	3.4055e-06	25.825	0.00082494	0.00088235	0.00024832	1070.8	9.6513e-06	9.7733e-06	1158.3	229.71	9.5794e-06	9.8107e-06	301.07	83.11	68.938	19.815	9.8291e-06	27.546	250.348	206.617	261.896	125.890	271.583	156.835	126.002	133.524	303.714	138.339	133.219	139.837	140.356	147.129	144.217	146.614	-8191	255	
26993.441	1	1	0	0	0.1671	0.18549	0.17426	0.27522	0.22983	0.26859	0.29095	0.33536	0.22964	0.30881	0.024401	0.033312	0.13112	0.045062	0.17042	0.12802	-1.1708	-2.0833	-1.6104	-1.7229	-1.6375	-1.5542	-2.1562	-1.9396	-1.7938	-1.8146	-1.4896	-2.0083	-2.0354	-1.5146	-2.0542	-1.6187	154.241	380.389	389.727	392.051	256.666	144.070	385.671	159.004	133.611	248.827	138.953	368.097	296.904	427.387	151.342	470.071	0.0002351	0.00054091	9.4844e-05	1064	2.5743e-06	6.2155e-06	1166.3	227.05	3.5302e-06	5.6374e-06	287.03	80.305	63.222	18.553	4.5715e-06	26.028	0.0008487	0.00090922	0.00025323	1069.1	9.977e-06	1.0028e-05	1160.9	230.32	9.8536e-06	1.0056e-05	302.61	83.335	69.08	19.827	9.6813e-06	27.594	247.719	265.291	287.048	125.755	322.026	231.389	126.035	133.581	128.835	389.798	132.970	139.899	140.685	146.411	273.695	146.361	-8191	255	
26993.539	1	1	0	0	0.03517	0.083447	0.24453	0.22951	0.32264	0.23249	0.20658	0.29761	0.17687	0.20462	0.15487	0.17086	0.17213	0.14987	0.12768	0.27308	-1.3083	-2.05	-1.4708	-1.9646	-1.8271	-1.55	-2.1583	-1.9521	-1.5167	-2.1958	-1.6417	-1.8896	-1.8833	-1.3917	-1.9104	-1.7333	294.292	315.352	393.346	451.893	171.610	168.296	432.794	449.453	190.672	440.082	304.306	468.490	450.484	368.148	165.938	296.338	0.00028426	0.00052586	0.00011914	1069.4	1.3383e-05	2.7074e-06	1160.6	226.33	5.8674e-06	4.996e-06	284.83	80.832	62.857	18.768	3.5779e-06	26.096	0.0008355	0.00089032	0.00025026	1071.1	9.8901e-06	9.9946e-06	1158.3	229.76	9.8797e-06	1.0027e-05	302.48	83.507	68.953	19.911	9.7493e-06	27.623	243.070	279.073	164.580	125.920	303.850	204.434	126.018	133.633	326.029	291.744	133.147	139.462	140.741	146.860	130.302	146.414	-8191	255	
26993.658	1	1	0	0	0.26109	0.13253	0.22395	0.19825	0.06066	0.13845	0.4107	0.36672	0.097486	0.14335	0.083275	0.14883	0.23278	0.28827	0.12743	0.0507	-1.1	-2.1333	-1.4958	-1.7854	-2.0458	-1.5292	-1.9583	-1.8875	-1.4146	-2.0625	-1.6021	-1.5812	-1.8917	-1.4062	-1.7208	-1.9521	303.103	238.650	191.021	473.087	138.880	128.958	440.740	413.916	175.922	281.352	278.170	193.496	143.703	338.062	168.361	303.102	0.00032671	0.00048263	0.00021317	1067.8	3.2693e-06	5.2588e-06	1159.7	226.3	3.5794e-06	4.1972e-06	284.99	80.282	64.252	18.67	9.3419e-06	26.04	0.00084419	0.0008901	0.00025195	1069.5	9.8675e-06	9.9369e-06	1157.8	229.7	9.9394e-06	9.931e-06	301.33	83.097	69.217	19.851	9.7766e-06	27.611	254.306	158.008	168.170	126.074	317.058	203.412	125.686	133.750	179.715	390.867	132.960	139.734	140.468	146.860	224.874	145.906	-8191	255	
26993.756	1	1	0	0	0.32537	0.17902	0.29789	0.36115	0.12771	0.22931	0.22422	0.18131	0.1201	0.2163	0.19073	0.29158	0.088165	0.08738	0.15497	0.11212	-1.0312	-1.7979	-1.6812	-2.0104	-1.8896	-1.5542	-1.9104	-1.8229	-1.4	-1.9062	-1.7021	-1.6375	-1.8354	-1.4708	-1.8583	-2.1396	393.516	296.084	452.639	392.206	332.134	259.539	439.154	377.874	316.559	214.075	194.793	332.130	440.587	423.876	180.943	373.696	0.00032688	3.0015e-05	0.00011374	1066.4	3.963e-06	5.2713e-06	1162.9	225.99	1.7118e-06	4.1883e-06	285.86	80.391	63.666	18.493	1.9891e-06	26.042	0.00083589	0.00089382	0.00025176	1070.9	9.8693e-06	9.8767e-06	1157.9	229.29	9.6332e-06	9.6125e-06	300.21	83.108	68.939	19.75	9.5692e-06	27.444	241.553	196.711	259.657	125.998	206.677	237.703	126.091	133.416	447.643	221.399	133.092	139.971	140.733	146.456	186.749	146.403	-8191	255	
26993.826	1	1	0	0	0.2322	0.23457	0.25801	0.24021	0.075861	0.12888	0.36756	0.2709	0.16295	0.091345	0.16596	0.25323	0.073884	0.1462	0.091934	0.14783	-0.96667	-2.0604	-1.6083	-1.7188	-1.9833	-1.4062	-2.0396	-1.9667	-1.4146	-1.7479	-1.6458	-1.5125	-2.1042	-1.6833	-1.6708	-2.1729	397.840	276.971	234.092	443.847	245.655	145.724	411.756	193.088	243.313	191.453	254.835	280.147	437.989	422.865	397.165	410.052	0.00029543	0.00072464	0.00035538	1064.2	1.401e-06	3.2681e-06	1158.1	225.3	5.8598e-06	7.0425e-06	288.93	80.324	63.425	18.721	4.1417e-06	26.111	0.00082077	0.00088061	0.00024621	1070.5	9.698e-06	9.6087e-06	1155.5	228.88	9.5689e-06	9.5025e-06	300.73	83.101	68.575	19.736	9.4633e-06	27.467	259.122	203.900	251.497	125.957	280.441	290.253	126.035	133.473	190.363	417.519	132.924	140.006	141.048	147.103	228.384	146.201	-8191	255	
26993.924	1	1	0	0	0.3256	0.13355	0.089168	0.30685	0.26688	0.24514	0.40867	0.097551	0.14225	0.1642	0.35807	0.13314	0.14595	0.2209	0.17326	0.27517	-0.975	-1.7771	-1.8354	-1.4792	-1.9458	-1.6625	-1.9208	-1.9396	-1.5063	-1.8354	-1.7708	-1.3417	-1.9708	-1.6875	-1.6229	-2.0354	200.455	209.354	174.493	121.109	246.082	251.347	394.355	227.022	425.628	274.807	461.351	180.700	245.930	403.087	337.109	293.560	0.00020021	0.00055033	0.00023745	1062.5	2.2678e-07	7.2622e-06	1162.1	226.38	1.6574e-06	6.1633e-06	286.79	79.274	63.735	18.602	7.9074e-06	25.976	0.00081195	0.00086673	0.00024495	1065.7	9.5418e-06	9.6705e-06	1155.9	229.13	9.5156e-06	9.6256e-06	301.34	82.869	68.731	19.699	9.5515e-06	27.497	246.151	277.809	172.024	126.128	215.167	229.031	126.225	133.509	381.217	397.804	133.329	140.102	140.533	146.790	346.533	146.443	-8191	255	
26994.043	1	1	0	0	0.13316	0.16486	0.35011	0.13237	0.033455	0.10894	0.21383	0.034311	0.22927	0.18174	0.091985	0.15042	0.14311	0.0012795	0.12746	0.079625	-1.0875	-1.8458	-1.8042	-1.6833	-2	-1.8188	-1.8604	-2.0812	-1.6146	-1.75	-1.9583	-1.6229	-1.9875	-1.7875	-1.5396	-1.9542	278.923	416.303	224.006	223.157	304.522	333.103	315.736	290.707	218.029	213.481	237.930	449.848	237.557	180.000	424.006	470.687	0.00031456	0.00094417	0.00011094	1066.8	1.2207e-05	6.4383e-06	1160.7	225.66	6.6451e-06	3.0565e-06	282.84	80.321	63.354	18.563	8.6083e-06	25.818	0.00081645	0.00086429	0.00024513	1068.7	9.6242e-06	9.6688e-06	1156.5	229.02	9.5827e-06	9.6813e-06	300.69	83.191	69.113	19.791	9.7938e-06	27.563	244.334	472.989	230.504	126.241	279.962	293.363	126.130	133.597	302.119	201.235	133.116	139.646	140.961	146.869	240.696	146.581	-8191	255	
26994.139	1	1	0	0	0.071293	0.199	0.18258	0.31803	0.17686	0.20867	0.19719	0.1976	0.10907	0.13559	0.26293	0.32077	0.24279	0.16689	0.15934	0.25396	-1.2021	-1.8271	-1.7188	-1.4146	-1.7625	-1.6688	-1.7729	-1.9729	-1.7229	-1.7833	-1.9583	-1.55	-1.7271	-1.9896	-1.5125	-2.0521	162.468	187.616	299.132	234.844	410.393	405.620	425.910	402.499	224.445	396.253	180.797	191.056	461.418	264.491	303.196	286.974	0.00035374	0.00021959	0.00020338	1063.4	2.4397e-06	3.0452e-06	1160.1	226.58	1.9542e-06	6.0331e-06	283.89	79.543	63.582	18.52	1.076e-06	25.934	0.00084885	0.00090637	0.00025677	1068.3	9.9491e-06	1.0095e-05	1154.7	229.41	9.9727e-06	1.0024e-05	300.62	82.908	69.122	19.767	9.7754e-06	27.542	266.660	262.764	183.511	125.543	364.180	338.522	126.099	133.258	237.317	212.842	132.811	140.106	140.627	146.873	369.312	146.783	-8191	255	
26994.234	1	1	0	0	0.10643	0.14512	0.037619	0.21862	0.08116	0.15187	0.38493	0.21661	0.10079	0.23602	0.2246	0.081199	0.32247	0.10835	0.065631	0.21042	-1.3271	-1.4833	-2.0229	-1.6771	-1.7229	-1.7896	-1.6812	-2.0229	-1.7375	-1.5812	-2.0458	-1.6958	-1.8875	-1.7542	-1.3979	-1.8813	354.852	324.784	373.472	470.668	200.982	172.029	435.304	411.808	336.600	412.026	191.042	264.354	439.090	274.351	410.931	406.881	0.00028529	0.00015946	0.0001787	1063.4	5.5124e-06	4.2333e-06	1159.8	225.15	4.0754e-06	6.1744e-06	287.38	79.608	63.213	18.464	2.961e-06	25.806	0.00083115	0.0008909	0.00025023	1066.9	9.4362e-06	9.6159e-06	1155.1	228.65	9.3567e-06	9.5707e-06	299.65	82.732	68.538	19.622	9.4379e-06	27.414	239.565	231.309	302.050	125.987	235.863	330.708	125.838	133.430	377.514	321.548	132.968	139.894	140.053	147.299	296.130	146.434	-8191	255	
26994.330	1	1	0	0	0.16028	0.091761	0.18084	0.14142	0.17004	0.23663	0.38054	0.18194	0.14696	0.12357	0.0019054	0.36825	0.1562	0.095995	0.055318	0.3791	-1.2	-1.5125	-2.0708	-1.5729	-1.5208	-1.7354	-1.7396	-2.0208	-1.7875	-1.5146	-2.1208	-1.6083	-1.5875	-2.0042	-1.5417	-1.725	436.671	239.338	312.212	456.051	444.004	146.897	435.013	408.056	194.420	463.709	180.000	282.214	437.590	117.962	463.414	237.805	0.00026459	0.00015562	0.00011014	1063.6	7.9173e-06	1.7863e-06	1161.8	226.12	2.3338e-06	5.0298e-06	283.2	79.953	63.001	18.576	4.1457e-06	25.729	0.0008146	0.00087901	0.00024465	1066.3	9.5467e-06	9.6799e-06	1155.1	228.92	9.464e-06	9.4862e-06	298.64	82.762	68.471	19.687	9.2811e-06	27.396	248.100	142.008	247.690	125.945	284.757	200.375	126.144	133.690	335.281	242.325	133.004	139.833	140.212	147.231	274.398	146.747	-8191	255	
26994.428	1	1	0	0	0.050599	0.11143	0.18496	0.3583	0.19752	0.214	0.28235	0.10783	0.062534	0.036439	0.26378	0.14941	0.068709	0.11991	0.31344	0.064798	-1.2521	-1.6417	-1.8833	-1.6021	-1.6146	-1.9937	-1.6875	-1.8083	-1.875	-1.5667	-2.0104	-1.5854	-1.7271	-2.0938	-1.7042	-1.8604	168.388	157.046	139.874	421.427	387.043	218.151	333.643	338.649	190.795	259.295	330.076	424.639	123.955	375.981	192.493	136.837	0.00024429	8.8711e-05	0.00015877	1064.4	5.1288e-06	1.2272e-05	1158.7	225.91	3.1503e-06	3.2547e-06	281.3	79.583	63.414	18.47	5.0067e-06	25.879	0.00080083	0.0008576	0.0002342	1066.7	9.2301e-06	9.3254e-06	1153.7	228.19	9.3407e-06	9.506e-06	298.2	82.764	68.71	19.717	9.4052e-06	27.39	244.204	211.026	237.856	125.932	413.568	232.051	125.987	133.572	211.619	270.756	133.245	139.366	139.939	146.567	273.200	145.775	-8191	255	
26994.523	1	1	0	0	0.10582	0.10542	0.068893	0.19718	0.11262	0.071667	0.21856	0.17155	0.2025	0.1006	0.155	0.15798	0.11339	0.33344	0.05054	0.14361	-1.3563	-1.5021	-1.975	-1.75	-1.7938	-1.9396	-1.6437	-1.8729	-1.825	-1.6604	-1.8625	-1.6458	-1.5458	-2.0479	-1.45	-1.6063	349.454	399.123	222.972	444.849	457.610	461.499	136.659	465.949	440.104	185.067	170.812	397.332	313.409	309.980	237.017	346.047	0.00024483	0.00052802	0.0001606	1063.9	8.1574e-07	1.2442e-05	1159.2	226.13	4.0679e-06	3.6943e-06	285.58	80.114	61.861	18.348	8.2375e-06	25.598	0.00081442	0.00088282	0.00024304	1064.4	9.5117e-06	9.6917e-06	1154.8	228.59	9.5536e-06	9.7775e-06	300.6	82.861	68.278	19.655	9.6366e-06	27.368	246.474	228.967	231.524	125.733	236.207	219.505	126.126	133.373	256.071	179.096	133.203	139.800	140.163	146.575	255.873	146.402	-8191	255	
26994.643	1	1	0	0	0.0054875	0.2816	0.049193	0.14394	0.20637	0.020875	0.34337	0.15269	0.12998	0.19902	0.18272	0.1326	0.16826	0.037749	0.20641	0.28534	-1.5833	-1.2875	-1.8438	-1.6583	-1.6729	-1.95	-1.8188	-1.7896	-2.1458	-1.5417	-1.9167	-1.8396	-1.5958	-1.875	-1.7208	-1.6792	255.349	295.917	123.347	198.187	154.320	310.761	394.945	444.667	312.941	355.404	214.924	150.498	412.349	353.891	471.876	389.460	0.00020843	0.00052989	0.00023404	1062.4	1.0963e-05	6.8389e-06	1163.4	225.8	3.6658e-06	7.3492e-06	286.68	79.233	63.356	18.597	2.4467e-06	25.87	0.00082332	0.00088187	0.00024429	1066.2	9.5657e-06	9.6432e-06	1155.2	228.65	9.4482e-06	9.6832e-06	299.71	82.762	68.864	19.729	9.6137e-06	27.475	257.340	295.908	279.691	126.002	270.854	268.232	125.819	133.514	275.121	199.465	133.652	140.177	140.621	146.869	354.873	146.502	-8191	255	
26994.740	1	1	0	0	0.17834	0.038606	0.19287	0.16339	0.050132	0.25145	0.12543	0.14761	0.1247	0.15151	0.17304	0.2374	0.46092	0.035246	0.239	0.13445	-1.4458	-1.3333	-1.7875	-1.8396	-1.5271	-1.9375	-1.8896	-1.7917	-2.1771	-1.5729	-1.7604	-1.8771	-1.4854	-1.8417	-1.7354	-1.4917	418.395	256.295	226.359	433.062	175.596	258.544	352.622	178.442	353.634	244.537	454.213	149.376	369.072	233.110	119.350	246.840	0.00034207	0.00052847	1.9274e-05	1064.3	6.1536e-06	3.9921e-06	1161	224.58	1.8377e-06	2.1806e-06	286.19	80.311	63.429	18.576	3.9686e-06	25.92	0.00081241	0.00088557	0.00024413	1067.2	9.785e-06	9.725e-06	1157.3	228.3	9.641e-06	9.6683e-06	300.2	83.048	68.934	19.722	9.7327e-06	27.533	246.683	157.160	209.394	125.675	317.962	263.789	125.997	133.516	205.476	194.679	133.292	139.889	140.690	146.799	226.399	146.507	-8191	255	
26994.836	1	1	0	0	0.17385	0.38675	0.13714	0.13372	0.2193	0.28348	0.20212	0.1441	0.13912	0.054724	0.25379	0.21047	0.15055	0.092531	0.15377	0.19829	-1.6167	-1.7042	-1.7417	-1.8417	-1.5708	-2.1042	-1.8042	-1.6417	-1.9771	-1.5521	-1.7583	-1.9271	-1.5792	-1.9271	-1.7354	-1.5167	351.142	121.419	212.307	160.264	236.434	322.547	366.699	470.237	474.289	258.693	397.055	439.893	213.881	423.531	161.599	335.294	0.00022272	0.0010497	0.00019152	1065.4	6.1865e-06	2.233e-06	1158.1	225.51	7.49e-06	1.4144e-06	282.85	79.806	63.567	18.492	4.0734e-06	25.884	0.00081933	0.00087687	0.00024586	1068.6	9.6846e-06	9.8122e-06	1155	228.6	9.7186e-06	9.8004e-06	299.03	82.941	68.89	19.707	9.7146e-06	27.501	253.796	284.831	211.566	125.690	287.576	241.154	125.931	133.778	308.955	187.752	133.232	139.506	140.953	147.062	358.723	146.212	-8191	255	
26994.932	1	1	0	0	0.44029	0.099024	0.1988	0.14896	0.076393	0.10628	0.27203	0.20328	0.15237	0.10645	0.12771	0.076277	0.25408	0.044995	0.17929	0.17927	-1.4917	-1.475	-1.7792	-2.0729	-1.6021	-2.05	-2.0396	-1.7375	-1.8958	-1.575	-1.7854	-2.1458	-1.5688	-1.6167	-1.8354	-1.6479	451.594	258.393	240.231	295.243	258.055	182.688	425.621	288.501	324.095	222.798	202.058	182.264	426.025	296.076	443.692	392.428	0.00027286	0.00075645	3.4588e-05	1065.7	5.9761e-06	3.2596e-06	1160.6	225.46	4.0744e-06	6.7711e-06	284.95	79.83	62.559	18.658	4.4296e-06	25.775	0.00083561	0.00089004	0.00024779	1067.5	9.7263e-06	9.71e-06	1155	228.61	9.5906e-06	9.6809e-06	299.94	82.838	68.47	19.693	9.6237e-06	27.41	254.938	207.030	373.103	125.903	298.441	263.747	125.715	133.586	255.347	286.204	133.050	139.916	140.351	146.773	267.799	146.636	-8191	255	
26995.025	1	1	0	0	0.20378	0.19022	0.26224	0.1734	0.14798	0.07713	0.40544	0.29257	0.18477	0.25517	0.24309	0.20765	0.14557	0.1478	0.11394	0.24969	-1.4458	-1.6396	-1.7875	-1.9792	-1.3771	-1.6583	-2.1188	-1.5396	-1.6562	-1.5708	-1.5938	-2.1188	-1.5896	-1.5688	-1.7354	-1.5063	253.497	196.558	362.475	434.609	135.455	294.280	407.156	473.420	366.056	422.422	139.443	335.605	426.880	347.214	299.997	356.478	0.00027029	0.00052763	0.00024083	1056.1	3.1729e-06	2.5535e-06	1160.5	225.34	4.9854e-06	6.67e-07	285.01	79.629	63.001	18.376	2.5247e-06	25.845	0.00081392	0.00087179	0.00024562	1065.1	9.6322e-06	9.6583e-06	1154.1	228.46	9.6375e-06	9.7958e-06	299.69	82.821	68.839	19.698	9.5669e-06	27.443	252.147	165.775	222.862	125.977	287.033	212.165	126.135	133.424	335.387	470.563	132.810	139.633	140.162	147.294	303.231	146.598	-8191	255	
26995.121	1	1	0	0	0.037833	0.26465	0.34336	0.20534	0.11436	0.23504	0.4669	0.10584	0.1845	0.098404	0.12615	0.058375	0.2391	0.1528	0.089173	0.071753	-1.4208	-1.6313	-1.3958	-1.9688	-1.4625	-1.5458	-1.9146	-1.5417	-1.7708	-1.75	-1.5542	-2.0625	-1.7333	-1.7729	-1.9125	-1.6417	132.393	382.318	203.016	420.777	178.958	428.515	427.407	434.177	410.355	434.894	403.467	411.360	396.339	127.803	202.826	393.968	0.0002926	0.00084604	0.00018678	1062.8	3.867e-06	7.0043e-06	1159.9	224.55	6.1171e-06	5.3663e-06	282.4	79.534	63.585	18.68	4.0194e-06	25.832	0.000814	0.00087799	0.00024589	1065.9	9.5501e-06	9.5915e-06	1155.4	228.27	9.4815e-06	9.6989e-06	299.11	82.759	68.802	19.806	9.6653e-06	27.448	254.643	264.762	335.472	125.801	226.567	314.763	126.162	133.448	327.298	273.373	132.850	139.541	140.643	146.813	413.528	146.152	-8191	255	
26995.219	1	1	0	0	0.23008	0.058069	0.18989	0.16187	0.36733	0.4485	0.21048	0.057834	0.1809	0.34732	0.30845	0.20861	0.214	0.51433	0.20454	0.1196	-1.4813	-1.7271	-1.4625	-2.0125	-1.7771	-1.6854	-2.0708	-1.5667	-1.95	-1.8604	-1.5688	-2.0625	-1.6854	-1.7354	-1.8792	-1.4417	263.469	394.526	116.485	118.293	338.063	425.883	442.398	162.288	117.498	178.346	141.737	130.944	338.803	413.494	473.847	392.891	0.00034035	0.0003564	0.00020944	1062.5	4.1852e-06	2.4558e-06	1157.2	226.09	1.7795e-06	5.7213e-06	284	80.14	63.315	18.419	4.1832e-06	25.773	0.00082389	0.00087939	0.00024834	1066.2	9.7287e-06	9.6114e-06	1152.6	228.31	9.4873e-06	9.6843e-06	299.48	82.79	68.769	19.676	9.5863e-06	27.371	256.800	345.772	219.567	125.660	140.530	365.080	125.979	133.487	242.313	360.509	133.158	139.563	139.950	146.374	227.507	146.606	-8191	255	
26995.340	1	1	0	0	0.20051	0.072179	0.3923	0.45566	0.084077	0.29849	0.15767	0.085947	0.29454	0.12726	0.16563	0.050997	0.19756	0.36819	0.082371	0.085627	-1.2812	-1.8042	-1.4958	-2.1875	-1.8542	-1.5958	-2.1167	-1.7563	-1.6979	-1.9979	-1.5896	-2.0312	-1.7938	-1.6083	-2.0812	-1.5229	386.464	119.954	315.750	443.926	334.441	456.718	443.908	323.161	282.379	472.383	454.983	134.825	122.508	436.547	448.976	307.830	0.00026421	0.000104	7.2798e-05	1064.2	5.065e-06	2.9514e-06	1158.7	225.7	6.7732e-06	6.2709e-06	286.54	79.887	63.321	18.446	3.774e-06	25.61	0.00081341	0.00087284	0.00024016	1064.7	9.4043e-06	9.5378e-06	1153.5	228.26	9.2597e-06	9.5304e-06	298.79	82.778	68.504	19.662	9.3629e-06	27.403	241.590	303.116	242.016	126.027	206.004	252.460	126.088	133.525	313.877	201.382	133.054	139.724	140.377	147.164	304.218	146.697	-8191	255	
26995.436	1	1	0	0	0.40801	0.20002	0.16536	0.15473	0.11711	0.16064	0.20694	0.14552	0.31527	0.25049	0.23225	0.28976	0.045026	0.13399	0.11222	0.19894	-1.2583	-2.0021	-1.5333	-2.1917	-1.7375	-1.5833	-2.2	-1.6729	-1.8229	-1.9146	-1.6208	-1.9521	-1.9479	-1.6208	-1.9479	-1.7271	369.128	372.834	156.264	389.906	358.320	349.648	347.899	353.142	228.326	212.744	309.512	142.156	273.561	446.204	163.899	178.508	0.00028335	0.00080637	0.00010778	1059.5	3.158e-06	9.1771e-06	1157.6	225.94	1.3608e-06	6.0521e-06	284.91	79.903	62.809	18.577	3.2797e-06	25.517	0.00079452	0.00085957	0.00024539	1063.5	9.497e-06	9.6429e-06	1153.9	228.5	9.4987e-06	9.6006e-06	298.91	82.75	68.655	19.684	9.4239e-06	27.342	264.109	189.388	315.046	125.904	325.088	236.459	126.045	133.617	348.195	343.824	133.178	139.783	140.826	147.254	292.441	146.602	-8191	255	
26995.531	1	1	0	0	0.31353	0.20281	0.13601	0.15322	0.13445	0.11477	0.11545	0.15709	0.20454	0.073455	0.24109	0.22748	0.22111	0.10091	0.11658	0.088988	-1.2812	-1.8271	-1.3354	-1.8937	-1.6479	-1.5312	-2.1437	-1.6646	-1.5771	-2.1271	-1.6437	-1.7604	-1.7542	-1.6125	-2.0229	-1.9396	232.479	385.153	181.080	413.486	399.553	301.576	430.384	241.626	438.876	200.932	176.359	381.539	242.885	449.998	417.786	346.100	0.0002323	0.00036294	9.0283e-05	1062.9	3.764e-06	3.7609e-06	1161.6	224.85	1.3521e-06	3.3914e-06	286.42	79.785	63.095	18.491	6.0055e-06	25.745	0.00081533	0.00087538	0.0002422	1066.2	9.4207e-06	9.5907e-06	1154.2	228.14	9.7036e-06	9.8514e-06	300.6	82.884	68.97	19.731	9.9698e-06	27.493	247.436	239.648	210.392	125.856	254.245	378.595	125.983	133.625	415.444	377.967	133.209	139.842	140.419	146.883	285.671	146.279	-8191	255	
26995.629	1	1	0	0	0.20346	0.13194	0.1403	0.17277	0.12719	0.12176	0.099581	0.21593	0.13594	0.013541	0.31243	0.074426	0.11018	0.14752	0.081064	0.30586	-1.0812	-1.8521	-1.4521	-1.8979	-1.9438	-1.4771	-1.9771	-1.7854	-1.4729	-2.0896	-1.6979	-1.8813	-1.9896	-1.3833	-1.8042	-1.8167	301.511	286.647	414.753	448.070	455.101	393.903	436.941	125.672	434.842	470.566	449.938	204.773	451.709	420.196	417.899	412.088	0.0003267	0.00030417	9.0831e-05	1063.9	6.4664e-06	4.45e-06	1156.4	224.83	5.6754e-06	6.7123e-06	284.06	79.928	63.757	18.46	3.5824e-06	25.692	0.00087242	0.00093479	0.00025931	1067.8	1.0258e-05	1.0291e-05	1154.3	228.85	1.0258e-05	1.0283e-05	301.23	83.099	69.439	19.789	1.0099e-05	27.532	251.749	291.320	273.405	125.935	307.340	347.049	125.797	133.576	327.017	298.190	133.634	140.183	140.321	146.962	272.380	146.686	-8191	255	
26995.725	1	1	0	0	0.072512	0.14181	0.19531	0.19733	0.032032	0.13299	0.29314	0.065239	0.031527	0.19038	0.33387	0.32736	0.079553	0.1232	0.12304	0.28888	-1.075	-1.8312	-1.5771	-1.8479	-2.0021	-1.4979	-2.0083	-1.8708	-1.5646	-1.9	-1.525	-1.6667	-1.9917	-1.4896	-1.7729	-1.8375	419.229	416.060	262.457	132.231	183.671	318.463	451.240	425.737	281.566	439.822	145.170	125.731	427.279	388.821	125.725	473.693	0.00025691	0.00039954	0.00025934	1063.1	2.9013e-06	7.4051e-06	1156.3	225.1	5.2593e-06	2.033e-06	282.36	79.811	63.549	18.648	3.5202e-06	25.77	0.00086098	0.00092506	0.00026112	1066.7	1.022e-05	1.0032e-05	1154.1	228.9	1.0033e-05	1.0016e-05	300.35	82.916	69.375	19.842	9.9443e-06	27.469	245.891	198.820	237.647	126.031	438.075	261.368	125.935	133.735	261.214	231.997	132.832	139.933	140.206	146.650	218.997	146.297	-8191	255	
26995.820	1	1	0	0	0.15344	0.32584	0.044521	0.28149	0.062167	0.21602	0.17432	0.14832	0.090621	0.12118	0.27284	0.13878	0.11723	0.20531	0.1822	0.26262	-1.0583	-1.9521	-1.4833	-1.5938	-2.0271	-1.4813	-1.8896	-1.8438	-1.375	-1.8958	-1.6729	-1.7354	-2.075	-1.6083	-1.7958	-1.9896	471.035	465.899	145.701	435.918	311.817	168.148	371.424	427.650	241.996	178.134	267.239	421.545	347.273	286.203	263.643	115.776	0.00031967	0.00032884	7.1372e-05	1061.1	5.5071e-06	3.9573e-06	1157.5	224.67	6.3063e-06	1.7305e-06	285.22	79.854	63.309	18.393	3.0775e-06	25.832	0.00085026	0.00091053	0.00025244	1065.7	9.9122e-06	9.8845e-06	1154.1	228.35	9.7778e-06	9.8022e-06	300.03	82.735	69.016	19.659	9.7303e-06	27.501	252.863	346.245	245.129	125.775	306.426	280.328	126.058	133.459	316.276	204.197	133.489	139.869	140.125	147.098	277.026	146.006	-8191	255	
26995.916	1	1	0	0	0.056491	0.072416	0.068343	0.2991	0.19879	0.051267	0.16281	0.15303	0.11874	0.082678	0.44049	0.09657	0.23582	0.066644	0.24639	0.12233	-1.1833	-1.8563	-1.6396	-1.7	-1.9813	-1.5917	-1.7938	-1.9	-1.5521	-1.8271	-1.75	-1.5792	-1.925	-1.7229	-1.7875	-1.925	304.583	300.910	345.016	212.012	344.703	182.986	390.802	438.037	193.760	440.038	306.964	376.438	413.875	191.966	457.044	284.844	0.00037263	0.00031594	2.0761e-05	1064.4	6.1283e-06	5.3363e-06	1159.1	224.81	8.6908e-06	7.5254e-06	285.79	79.959	63.465	18.534	4.3808e-06	26.099	0.00084434	0.00090418	0.00024945	1067.3	9.7974e-06	9.9667e-06	1154.3	228.43	9.8981e-06	9.9733e-06	301.07	82.924	68.831	19.758	9.8507e-06	27.475	253.565	216.297	266.977	125.997	400.541	267.181	125.842	133.469	312.926	387.626	133.097	139.632	140.351	147.067	320.668	146.318	-8191	255	
26996.012	1	1	0	0	0.095005	0.097627	0.22291	0.15411	0.058158	0.28264	0.1805	0.15345	0.14492	0.22324	0.10155	0.069551	0.099336	0.11323	0.28583	0.11598	-0.95625	-1.8604	-1.675	-1.6833	-1.8896	-1.5708	-1.6771	-2.0938	-1.4479	-1.7	-1.9958	-1.6146	-1.9896	-1.775	-1.775	-2.2	263.905	171.543	188.845	375.064	276.112	310.607	365.257	435.804	276.899	135.054	430.111	155.854	133.222	422.240	270.065	245.228	0.00026953	0.00094055	0.00025514	1059.6	5.9929e-06	4.2033e-06	1159.4	225.55	2.0311e-06	8.5198e-06	283.84	79.223	63.546	18.505	1.9592e-06	25.742	0.0008276	0.00088242	0.00024457	1066.3	9.6514e-06	9.7028e-06	1152.4	228.6	9.4858e-06	9.5513e-06	299.31	82.529	68.459	19.689	9.5228e-06	27.37	255.904	165.379	230.605	125.843	256.357	274.280	126.206	133.397	387.331	263.719	133.208	139.651	140.650	146.481	399.068	146.398	-8191	255	
26996.131	1	1	0	0	0.024053	0.2919	0.16102	0.1419	0.2357	0.33691	0.23077	0.20696	0.19334	0.13877	0.11174	0.19037	0.17932	0.29012	0.18427	0.29047	-0.75208	-1.6896	-1.9208	-1.6333	-2.0062	-1.7458	-1.6542	-2.1375	-1.5708	-1.8979	-1.7167	-1.4104	-1.7313	-1.7437	-1.6208	-2.0812	275.344	131.286	240.669	428.135	445.088	187.211	335.155	425.938	115.712	334.390	361.730	130.449	314.512	349.516	131.793	463.430	0.00023777	0.00045972	0.00017503	1065.4	6.3973e-06	4.4395e-06	1157.8	225.12	3.2318e-06	2.2614e-06	285.32	79.733	63.416	18.435	5.7794e-06	25.631	0.00081487	0.00087203	0.00024428	1064.7	9.6441e-06	9.7449e-06	1152.7	227.78	9.5968e-06	9.6033e-06	299.36	82.664	68.684	19.686	9.7144e-06	27.387	239.110	464.563	187.546	126.032	400.859	261.735	125.977	133.455	304.418	187.324	132.446	140.148	140.878	146.611	347.992	146.513	-8191	255	
26996.227	1	1	0	0	0.20263	0.063176	0.21774	0.22421	0.083236	0.062161	0.044745	0.10215	0.29406	0.11352	0.11029	0.18223	0.31762	0.12585	0.17417	0.27272	-0.98958	-1.7375	-1.95	-1.6458	-1.9062	-1.7104	-1.7083	-2.0167	-1.7625	-1.5938	-2.1896	-1.5625	-1.8917	-1.8375	-1.5667	-2.075	129.418	226.534	116.187	176.048	365.213	438.542	440.557	383.384	177.883	236.496	354.128	432.448	390.828	285.278	170.932	455.096	0.00033222	0.00021899	7.5084e-05	1065.6	6.6183e-06	3.7848e-06	1155.9	226.68	4.8708e-06	6.9041e-06	284.48	79.53	62.918	18.434	2.5255e-06	25.677	0.00081951	0.00086781	0.0002465	1063.4	9.6084e-06	9.569e-06	1152.8	228.44	9.6445e-06	9.5994e-06	299.47	82.4	68.581	19.664	9.517e-06	27.339	252.793	434.372	224.665	125.905	254.682	265.465	125.894	133.336	339.943	349.607	133.404	139.773	140.393	147.172	188.308	146.377	-8191	255	
26996.322	1	1	0	0	0.17642	0.14563	0.21674	0.36449	0.26111	0.17781	0.021341	0.13839	0.20563	0.1144	0.14983	0.1106	0.048836	0.31681	0.15324	0.29633	-1.2	-1.6604	-1.9854	-1.6167	-1.9042	-1.7583	-1.4813	-1.9833	-1.5521	-1.5938	-2.1292	-1.6979	-1.5896	-1.8979	-1.4896	-2.1042	361.242	454.777	160.356	403.683	390.436	370.420	122.106	376.753	329.842	324.032	338.159	358.620	209.236	133.040	416.989	368.531	0.00028863	0.00057282	7.0179e-05	1059.3	6.9654e-06	6.8906e-06	1158.3	224.28	4.0407e-06	4.6638e-06	284.18	79.773	63.027	18.384	5.2761e-06	25.818	0.00081004	0.00087019	0.00024013	1064.4	9.4647e-06	9.413e-06	1151.7	227.6	9.4187e-06	9.6052e-06	299.28	82.642	68.147	19.604	9.4259e-06	27.402	238.586	277.390	172.250	125.821	241.522	317.923	126.048	133.516	282.380	375.135	132.705	139.705	140.122	147.002	288.412	146.724	-8191	255	
26996.420	1	1	0	0	0.11011	0.24793	0.073206	0.17466	0.080592	0.091189	0.52838	0.11739	0.217	0.13045	0.030908	0.11993	0.22026	0.26249	0.22107	0.13802	-1.2729	-1.4438	-1.8896	-1.4937	-1.7625	-1.8062	-1.6375	-2.0354	-1.7708	-1.6437	-1.9854	-1.6208	-1.7833	-1.9312	-1.5125	-1.9625	180.897	286.116	318.103	421.532	180.053	449.691	450.235	381.048	219.359	255.857	393.842	206.981	276.332	182.481	224.282	251.571	0.00027755	0.0011192	0.00023778	1060.5	4.5404e-06	3.9118e-06	1159.4	224.77	8.5264e-06	3.4596e-07	285.69	79.498	63.08	18.305	7.4333e-06	26.042	0.0008013	0.00085892	0.00024099	1062.5	9.3258e-06	9.5015e-06	1151.5	227.89	9.2683e-06	9.3698e-06	298.8	82.5	67.965	19.497	9.026e-06	27.365	246.840	467.204	216.128	125.947	248.617	212.174	125.800	133.361	304.177	202.124	133.299	140.276	141.022	147.118	294.882	146.563	-8191	255	
26996.516	1	1	0	0	0.24543	0.11847	0.068123	0.25518	0.034215	0.17668	0.19768	0.14616	0.13405	0.11469	0.26955	0.35034	0.13912	0.13345	0.043592	0.25484	-1.4188	-1.6229	-2.0417	-1.8646	-1.7292	-1.9875	-1.7417	-1.8208	-1.9083	-1.4271	-1.9792	-1.6979	-1.7396	-2.0604	-1.5833	-1.85	196.869	427.574	121.746	362.288	127.296	203.711	455.633	421.095	383.116	283.767	264.112	117.013	246.783	196.041	134.981	255.219	0.00025382	0.00025232	0.0001548	1064.3	9.0322e-06	7.2539e-06	1157	225.24	4.2232e-06	3.5506e-06	285.87	79.794	63.183	18.412	5.6144e-06	25.741	0.00078334	0.0008356	0.00023219	1063.7	9.1765e-06	9.2809e-06	1151.6	227.45	9.1604e-06	9.2371e-06	299.15	82.528	68.314	19.623	9.1466e-06	27.336	253.616	385.576	227.434	125.565	294.310	223.008	125.984	133.511	274.546	121.938	133.071	140.068	140.797	146.717	364.838	146.471	-8191	255	
26996.611	1	1	0	0	0.0329	0.06623	0.16245	0.17415	0.23448	0.097667	0.22374	0.20762	0.13822	0.0595	0.13498	0.11528	0.0698	0.04554	0.093657	0.10123	-1.375	-1.6979	-1.9729	-1.8042	-1.4604	-2.1562	-1.6437	-1.9333	-1.675	-1.4917	-1.9146	-1.7125	-1.6708	-2.0229	-1.8125	-1.7208	351.725	377.601	189.921	138.932	241.865	269.317	383.428	373.394	252.040	344.448	256.989	339.016	322.261	240.972	310.445	462.778	0.00024368	0.00067281	0.00023661	1062.8	6.6486e-06	6.2776e-06	1153.2	223.82	4.7451e-06	2.4427e-06	283.76	79.907	63.065	18.485	3.1354e-06	25.963	0.00079366	0.00084237	0.00023306	1063.6	9.168e-06	9.2291e-06	1150	227.37	9.0631e-06	9.2811e-06	297.68	82.671	68.235	19.602	9.3208e-06	27.372	255.691	261.735	216.239	125.962	265.234	298.080	125.880	133.673	361.107	451.606	132.749	140.010	140.455	146.960	193.228	146.745	-8191	255	
26996.732	1	1	0	0	0.090365	0.21336	0.20701	0.30006	0.20011	0.34556	0.27514	0.28257	0.07252	0.25114	0.22198	0.39425	0.11603	0.34642	0.07164	0.26612	-1.3542	-1.5	-1.8687	-1.8229	-1.5375	-1.9667	-1.9354	-1.7708	-1.9	-1.5521	-1.8979	-1.8333	-1.4792	-2.1188	-1.6083	-1.55	387.983	167.757	259.513	409.924	470.401	279.346	350.345	409.715	332.525	349.659	173.558	343.154	132.728	270.644	389.384	322.207	0.00028232	0.00075198	8.1651e-05	1063.5	3.6497e-06	3.7947e-06	1156.4	225.53	4.6527e-06	7.5405e-06	285.04	79.868	63.121	18.439	5.7961e-06	25.898	0.00079931	0.00084312	0.00023686	1064.2	9.4097e-06	9.4496e-06	1150.2	227.81	9.4345e-06	9.5611e-06	299.42	82.632	68.639	19.61	9.3567e-06	27.391	241.308	245.645	212.875	125.955	224.248	137.931	125.995	133.583	264.375	267.588	133.097	139.422	140.526	146.812	343.644	146.252	-8191	255	
26996.828	1	1	0	0	0.10084	0.18557	0.19862	0.11144	0.42462	0.15249	0.22059	0.2926	0.13349	0.14953	0.26965	0.015491	0.24365	0.24172	0.1006	0.28269	-1.425	-1.5396	-1.7146	-1.975	-1.6437	-2.1104	-1.6542	-1.8312	-1.9833	-1.5187	-1.8687	-1.9729	-1.5792	-2.0417	-1.9229	-1.6729	456.047	167.146	365.707	140.464	451.797	419.296	384.875	407.329	349.186	166.917	290.094	321.452	297.894	134.803	121.710	281.236	0.00030773	0.0010775	0.00017412	1061.4	4.6343e-06	2.4488e-06	1157.2	224.69	3.4517e-06	1.1296e-06	283.03	80.007	63.17	18.445	2.336e-06	25.693	0.00080698	0.00086736	0.00024176	1063.1	9.589e-06	9.4868e-06	1152.5	227.8	9.5306e-06	9.5505e-06	299.04	82.591	68.479	19.642	9.5357e-06	27.345	263.836	211.284	175.474	125.822	350.876	317.072	125.900	133.667	245.629	334.148	133.177	139.698	140.497	146.870	176.104	146.886	-8191	255	
26996.924	1	1	0	0	0.10087	0.22837	0.078471	0.11494	0.36029	0.17268	0.1578	0.18934	0.076183	0.23372	0.15476	0.38392	0.08625	0.15774	0.25713	0.064636	-1.6479	-1.5125	-1.7667	-2.0042	-1.5604	-1.9375	-1.8708	-1.6333	-2.0542	-1.5521	-1.8563	-1.8917	-1.5104	-1.9271	-1.7188	-1.6104	425.616	135.364	246.039	389.887	315.196	144.665	361.950	171.043	463.578	201.099	378.005	428.226	233.451	292.660	146.575	387.508	0.00026774	0.00051223	0.00021154	1060.8	8.7287e-06	3.7996e-06	1158.5	225.65	1.346e-06	4.7587e-06	282.29	79.702	62.449	18.454	3.5081e-06	25.896	0.00081706	0.0008736	0.00024411	1065.6	9.7284e-06	9.5294e-06	1152.4	227.75	9.4189e-06	9.4828e-06	298.06	82.369	68.299	19.635	9.3437e-06	27.384	253.399	443.675	302.995	125.759	283.864	386.909	126.068	133.569	306.624	411.372	132.988	139.528	140.630	147.345	329.135	146.857	-8191	255	
26997.020	1	1	0	0	0.068979	0.10562	0.15728	0.15341	0.087748	0.093435	0.14591	0.19292	0.11636	0.17132	0.20145	0.28842	0.24229	0.12463	0.10692	0.035368	-1.6104	-1.5646	-1.4562	-1.8792	-1.4688	-2.0062	-1.9979	-1.5583	-1.8937	-1.6729	-1.8687	-2.0854	-1.4167	-1.9	-1.9729	-1.6521	152.961	203.281	255.930	438.617	178.674	297.381	442.120	157.923	340.852	263.061	331.908	415.750	372.988	439.724	438.830	212.578	0.00027119	0.00059346	0.00025469	1065.6	4.0505e-06	6.489e-06	1155.1	225.3	3.9974e-06	4.4636e-06	283.77	79.427	62.979	18.64	6.0694e-06	25.753	0.00078998	0.00084867	0.00024045	1063.3	9.2947e-06	9.4107e-06	1150.4	227.73	9.3193e-06	9.47e-06	298.72	82.336	68.33	19.665	9.5294e-06	27.287	250.681	175.410	236.577	125.892	262.657	305.717	126.061	133.473	283.391	340.699	132.883	139.651	140.781	146.999	180.062	146.738	-8191	255	
26997.115	1	1	0	0	0.1406	0.40222	0.22434	0.21432	0.014215	0.25694	0.22679	0.27314	0.08712	0.17609	0.16161	0.061679	0.13122	0.085286	0.13689	0.13571	-1.4875	-1.5708	-1.5292	-1.9708	-1.5312	-1.8167	-2.0438	-1.4896	-2.1125	-1.6792	-1.6396	-2.1104	-1.4417	-1.7479	-1.9979	-1.5938	350.619	149.922	138.379	448.903	117.374	186.401	377.730	390.581	321.008	181.877	333.612	129.751	269.893	468.568	420.077	231.216	0.0003218	0.0003985	0.00025214	1061.7	2.1805e-06	8.9101e-06	1158.1	224.25	4.7384e-06	4.4522e-06	285.35	79.96	63.105	18.319	2.9608e-06	25.663	0.00080254	0.00086311	0.00024079	1062.8	9.418e-06	9.4315e-06	1151.1	227.26	9.2941e-06	9.4545e-06	298.27	82.625	68.349	19.587	9.3147e-06	27.291	256.467	248.966	271.270	125.799	160.876	326.354	126.123	133.487	227.512	208.685	132.932	139.476	141.027	147.017	296.476	146.199	-8191	255	
26997.213	1	1	0	0	0.14079	0.16321	0.23999	0.2029	0.26574	0.27463	0.25207	0.13439	0.032495	0.067023	0.071145	0.20383	0.2122	0.14185	0.15761	0.31103	-1.5979	-1.5771	-1.4813	-2.1146	-1.5729	-1.6854	-1.9937	-1.4229	-1.8438	-1.8042	-1.4229	-1.9312	-1.6437	-1.8896	-2.0292	-1.5688	175.774	148.850	278.071	325.908	467.502	458.119	395.049	423.797	437.614	385.864	391.496	407.743	319.742	234.264	210.967	165.290	0.00019547	0.00025238	4.8678e-05	1059	8.5516e-06	6.8617e-06	1154.5	223.7	8.8284e-06	1.4941e-06	283.84	79.658	63.423	18.501	2.4115e-06	25.813	0.00079694	0.00086021	0.00023956	1061.1	9.4033e-06	9.2502e-06	1150.3	227.29	9.2426e-06	9.2725e-06	297.85	82.321	68.057	19.616	9.2714e-06	27.311	252.298	166.527	334.069	126.075	228.443	332.869	125.973	133.800	314.023	309.760	132.969	140.041	140.633	146.873	237.133	146.794	-8191	255	
26997.309	1	1	0	0	0.13996	0.13464	0.33291	0.099412	0.30032	0.15576	0.31604	0.18303	0.12179	0.095188	0.391	0.21154	0.31979	0.27338	0.039697	0.20293	-1.4667	-1.7604	-1.4667	-2.0021	-1.5438	-1.7771	-2.1646	-1.5917	-1.925	-1.7188	-1.5812	-2.0312	-1.7833	-1.7292	-2.0542	-1.6875	188.579	276.983	225.360	142.951	271.522	236.377	386.311	425.678	154.902	187.672	289.715	128.329	182.902	116.363	214.091	384.730	0.00026553	0.00059525	0.00014036	1066	2.4018e-06	1.1973e-05	1153.4	223.25	6.5664e-06	3.0262e-06	283.68	79.754	63.283	18.591	1.9274e-06	25.74	0.00079496	0.00085647	0.0002385	1064.9	9.2435e-06	9.4143e-06	1150	227.41	9.3422e-06	9.459e-06	298.05	82.605	68.355	19.708	9.2657e-06	27.289	245.390	267.705	142.358	125.831	325.068	200.338	126.150	133.492	316.730	428.160	133.277	139.570	140.491	147.250	229.239	146.359	-8191	255	
26997.404	1	1	0	0	0.18155	0.37209	0.091162	0.13313	0.2189	0.22636	0.13711	0.40299	0.049863	0.10034	0.13238	0.28642	0.28495	0.13382	0.27076	0.097835	-1.3021	-1.9854	-1.4229	-2.1125	-1.7042	-1.6208	-2.2021	-1.7188	-1.7208	-1.8312	-1.3729	-2.0375	-1.8937	-1.7021	-2	-1.6833	159.214	350.871	403.958	116.749	230.477	376.449	200.102	445.544	451.280	313.833	116.278	433.485	382.042	224.854	135.536	249.265	0.00025977	0.00075285	9.6119e-05	1063.7	1.7706e-06	5.553e-06	1162.9	225.24	3.4603e-06	9.2147e-07	286.2	79.331	62.985	18.442	5.1906e-06	25.871	0.00081064	0.000863	0.00024084	1066.1	9.6426e-06	9.5884e-06	1153.9	228.06	9.4655e-06	9.6046e-06	299.64	82.565	68.489	19.675	9.435e-06	27.325	255.491	140.584	423.040	125.684	295.184	191.721	125.916	133.584	230.092	300.566	133.075	139.547	139.811	146.769	272.725	146.196	-8191	255	
26997.523	1	1	0	0	0.2677	0.020476	0.26613	0.10162	0.21403	0.18397	0.18292	0.17396	0.1001	0.15374	0.40288	0.18876	0.038088	0.19288	0.13971	0.075676	-1.3292	-1.9229	-1.6437	-2.1583	-1.6917	-1.6125	-2.1396	-1.7812	-1.6104	-2.0438	-1.6229	-2.0229	-1.9521	-1.7188	-2.0354	-1.7729	223.208	374.376	439.381	388.027	297.874	321.238	417.247	462.778	248.261	124.239	381.720	313.733	146.504	354.982	454.074	297.799	0.00029776	0.00076335	0.00024836	1062.9	2.4033e-06	5.4579e-06	1160.8	224.74	4.8189e-06	3.754e-06	284.7	79.807	62.787	18.532	5.194e-06	25.706	0.00081045	0.00086712	0.00024374	1064.6	9.382e-06	9.598e-06	1153.9	227.98	9.4101e-06	9.4768e-06	298.64	82.435	68.398	19.683	9.4442e-06	27.348	250.481	193.073	240.306	125.884	350.276	196.829	126.028	133.445	286.749	324.901	132.978	139.606	140.648	147.099	276.204	146.156	-8191	255	
26997.596	1	1	0	0	0.22909	0.17143	0.17383	0.14227	0.16034	0.12197	0.2497	0.12782	0.16598	0.19147	0.23584	0.15216	0.21856	0.12014	0.081559	0.18845	-1.2062	-1.8021	-1.5792	-1.8875	-1.8292	-1.4375	-2.1646	-1.7917	-1.5812	-2.0292	-1.6479	-1.7354	-1.95	-1.5979	-1.9542	-1.85	212.366	146.564	210.084	395.458	319.102	421.384	388.395	428.450	257.226	195.689	220.936	338.466	374.042	261.812	273.050	380.708	0.00023772	0.00022636	4.3973e-05	1060.5	6.7201e-06	9.1156e-06	1155.9	224.6	3.5509e-06	3.5216e-06	282.73	79.519	62.319	18.368	3.7436e-06	25.967	0.00080745	0.00086386	0.00024407	1063.2	9.5466e-06	9.7016e-06	1151.7	227.89	9.518e-06	9.5183e-06	299.02	82.587	68.297	19.679	9.4833e-06	27.362	247.467	203.564	251.587	125.931	316.525	271.647	126.125	133.523	268.007	321.954	132.447	140.040	140.171	146.979	267.222	146.604	-8191	255	
26997.691	1	1	0	0	0.20873	0.16166	0.17429	0.28467	0.040947	0.24069	0.2807	0.28859	0.16928	0.084124	0.32055	0.30424	0.055547	0.16544	0.30941	0.2512	-1.2	-1.8312	-1.6167	-1.9708	-1.9604	-1.6792	-2.2333	-2.0354	-1.6104	-2.1667	-1.8521	-1.7042	-2.1	-1.5083	-1.9688	-1.8354	226.443	359.978	292.661	436.913	306.294	118.576	218.863	471.151	378.148	156.533	431.117	447.421	466.855	178.203	304.230	443.286	0.00025466	0.00072296	0.00010332	1059.9	2.7158e-06	7.6427e-06	1151.7	224.56	3.3461e-06	7.2262e-06	283.92	79.729	62.786	18.703	2.6641e-06	25.812	0.00081914	0.00086842	0.00024106	1062.3	9.5564e-06	9.5313e-06	1150.5	228.09	9.4211e-06	9.5786e-06	298.69	82.49	68.585	19.689	9.534e-06	27.409	257.900	438.077	369.981	125.823	160.922	255.318	125.926	133.501	271.870	373.505	133.030	139.847	140.537	146.710	412.223	146.480	-8191	255	
26997.812	1	1	0	0	0.21478	0.30344	0.023229	0.12613	0.10998	0.20361	0.24663	0.20352	0.16431	0.071807	0.145	0.15614	0.10263	0.055293	0.26201	0.12722	-1.1583	-2.1104	-1.7458	-1.7271	-2.0833	-1.4896	-2.1833	-1.9896	-1.325	-2.1417	-1.7437	-1.6875	-2.0208	-1.425	-1.9312	-1.9083	174.041	324.480	190.958	425.347	386.311	317.920	453.147	314.856	376.850	182.820	427.495	330.001	313.133	273.923	447.442	203.486	0.0002869	0.00050433	0.00011282	1059.2	5.721e-06	2.0725e-06	1155.7	225.03	5.4154e-06	2.8111e-06	282.72	79.621	62.829	18.49	6.2202e-06	25.847	0.00082359	0.00087284	0.00024515	1062.2	9.5856e-06	9.7284e-06	1151.8	227.77	9.6555e-06	9.5841e-06	298.2	82.583	68.131	19.659	9.2958e-06	27.387	244.148	160.457	218.487	125.948	287.514	388.918	126.028	133.139	339.804	371.353	133.205	139.656	140.807	146.909	268.146	146.226	-8191	255	
#DATA ENDS
