BOXY.EXE: ISS Imagent and Oximeter Data Acquisition Program Version 0.80
Ascii Record File

#ACQ INFORMATION
2  Detector Channels 
16  External MUX Channels 
1  Auxiliary Channels 
5000  Waveform (CCF) Frequency (Hz)
1  Waveforms Skipped 
30  Waveforms Averaged 
1  Cycles Averaged 
16  Acquisitions per Waveform 
10.0806  Updata Rate (Hz) 

#FILE INFORMATION
TRUE -- External MUX Channel results are PARSED.
FALSE -- AC DC and Phase are NOT grouped.
TRUE -- Companion Program Settings File CREATED.
FALSE -- AC data not excluded
FALSE -- DC data not excluded
FALSE -- Phase data not excluded
FALSE -- Auxillary Chn. data not excluded
Tab delimiters

#CALIBRATION STATE
TRUE -- Waveform Calibration Values APPLIED.


#AUX CALIBRATION VALUES
Val Type	aux-1	

Term	1.0000e+00	
Factor	0.0000e+00	


#WF CALIBRATION VALUES
A = Detector Channel
Val Type	A-AC1	A-AC2	A-AC3	A-AC4	A-AC5	A-AC6	A-AC7	A-AC8	A-AC9	A-AC10	A-AC11	A-AC12	A-AC13	A-AC14	A-AC15	A-AC16	A-DC1	A-DC2	A-DC3	A-DC4	A-DC5	A-DC6	A-DC7	A-DC8	A-DC9	A-DC10	A-DC11	A-DC12	A-DC13	A-DC14	A-DC15	A-DC16	A-Ph1	A-Ph2	A-Ph3	A-Ph4	A-Ph5	A-Ph6	A-Ph7	A-Ph8	A-Ph9	A-Ph10	A-Ph11	A-Ph12	A-Ph13	A-Ph14	A-Ph15	A-Ph16	

Term	0.00000e+00	0.00000e+00	0.00000e+00	0.00000e+00	0.00000e+00	0.00000e+00	0.00000e+00	0.00000e+00	0.00000e+00	0.00000e+00	0.00000e+00	0.00000e+00	0.00000e+00	0.00000e+00	0.00000e+00	0.00000e+00	0.00000e+00	0.00000e+00	0.00000e+00	0.00000e+00	0.00000e+00	0.00000e+00	0.00000e+00	0.00000e+00	0.00000e+00	0.00000e+00	0.00000e+00	0.00000e+00	0.00000e+00	0.00000e+00	0.00000e+00	0.00000e+00	0.00000e+00	0.00000e+00	0.00000e+00	0.00000e+00	0.00000e+00	0.00000e+00	0.00000e+00	0.00000e+00	0.00000e+00	0.00000e+00	0.00000e+00	0.00000e+00	0.00000e+00	0.00000e+00	0.00000e+00	0.00000e+00	
Factor	1.00000e+00	1.00000e+00	1.00000e+00	1.00000e+00	1.00000e+00	1.00000e+00	1.00000e+00	1.00000e+00	1.00000e+00	1.00000e+00	1.00000e+00	1.00000e+00	1.00000e+00	1.00000e+00	1.00000e+00	1.00000e+00	1.00000e+00	1.00000e+00	1.00000e+00	1.00000e+00	1.00000e+00	1.00000e+00	1.00000e+00	1.00000e+00	1.00000e+00	1.00000e+00	1.00000e+00	1.00000e+00	1.00000e+00	1.00000e+00	1.00000e+00	1.00000e+00	X	X	X	X	X	X	X	X	X	X	X	X	X	X	X	X	

B = Detector Channel
Val Type	B-AC1	B-AC2	B-AC3	B-AC4	B-AC5	B-AC6	B-AC7	B-AC8	B-AC9	B-AC10	B-AC11	B-AC12	B-AC13	B-AC14	B-AC15	B-AC16	B-DC1	B-DC2	B-DC3	B-DC4	B-DC5	B-DC6	B-DC7	B-DC8	B-DC9	B-DC10	B-DC11	B-DC12	B-DC13	B-DC14	B-DC15	B-DC16	B-Ph1	B-Ph2	B-Ph3	B-Ph4	B-Ph5	B-Ph6	B-Ph7	B-Ph8	B-Ph9	B-Ph10	B-Ph11	B-Ph12	B-Ph13	B-Ph14	B-Ph15	B-Ph16	

Term	0.00000e+00	0.00000e+00	0.00000e+00	0.00000e+00	0.00000e+00	0.00000e+00	0.00000e+00	0.00000e+00	0.00000e+00	0.00000e+00	0.00000e+00	0.00000e+00	0.00000e+00	0.00000e+00	0.00000e+00	0.00000e+00	0.00000e+00	0.00000e+00	0.00000e+00	0.00000e+00	0.00000e+00	0.00000e+00	0.00000e+00	0.00000e+00	0.00000e+00	0.00000e+00	0.00000e+00	0.00000e+00	0.00000e+00	0.00000e+00	0.00000e+00	0.00000e+00	-2.02558e+02	-1.16413e+02	-1.30120e+02	-1.82161e+02	-9.57707e+01	-1.01369e+02	-1.59306e+02	-1.62015e+02	-1.14350e+02	-5.77035e+01	-1.70639e+02	-1.72301e+02	-1.77500e+02	-1.76674e+02	-5.36760e+01	-1.49496e+02	
Factor	4.10936e-05	9.52974e-05	2.49006e-05	1.49428e-01	8.83243e-07	8.91524e-07	1.68800e-01	4.93801e-02	1.17695e-06	7.15398e-07	8.34437e-02	2.98807e-02	2.54106e-02	8.75613e-03	1.20421e-06	1.26828e-02	6.26555e-07	6.35961e-07	1.78841e-07	7.42432e-02	6.95763e-09	6.96690e-09	7.86376e-02	2.43642e-02	6.96256e-09	6.98071e-09	3.91092e-02	1.39300e-02	1.23175e-02	4.23067e-03	7.03845e-09	5.88851e-03	X	X	X	X	X	X	X	X	X	X	X	X	X	X	X	X	



#DISTANCE SETTINGS
A = Detector Channel
A-1	A-2	A-3	A-4	A-5	A-6	A-7	A-8	A-9	A-10	A-11	A-12	A-13	A-14	A-15	A-16	

2.5000e+00	3.0000e+00	2.5000e+00	3.0000e+00	2.0000e+00	3.0000e+00	1.5000e+00	3.0000e+00	3.0000e+00	3.0000e+00	3.0000e+00	3.0000e+00	3.0000e+00	3.0000e+00	1.5000e+00	3.0000e+00	

B = Detector Channel
B-1	B-2	B-3	B-4	B-5	B-6	B-7	B-8	B-9	B-10	B-11	B-12	B-13	B-14	B-15	B-16	

1.0000e+01	1.0000e+01	1.0000e+01	1.4400e+00	1.0000e+01	1.0000e+01	1.5100e+00	1.9400e+00	1.0000e+01	1.0000e+01	1.9900e+00	2.4900e+00	2.4100e+00	2.9000e+00	1.0000e+01	2.9800e+00	




#DATA BEGINS
time	group	step	mark	flag	A-AC1	A-AC2	A-AC3	A-AC4	A-AC5	A-AC6	A-AC7	A-AC8	A-AC9	A-AC10	A-AC11	A-AC12	A-AC13	A-AC14	A-AC15	A-AC16	A-DC1	A-DC2	A-DC3	A-DC4	A-DC5	A-DC6	A-DC7	A-DC8	A-DC9	A-DC10	A-DC11	A-DC12	A-DC13	A-DC14	A-DC15	A-DC16	A-Ph1	A-Ph2	A-Ph3	A-Ph4	A-Ph5	A-Ph6	A-Ph7	A-Ph8	A-Ph9	A-Ph10	A-Ph11	A-Ph12	A-Ph13	A-Ph14	A-Ph15	A-Ph16	B-AC1	B-AC2	B-AC3	B-AC4	B-AC5	B-AC6	B-AC7	B-AC8	B-AC9	B-AC10	B-AC11	B-AC12	B-AC13	B-AC14	B-AC15	B-AC16	B-DC1	B-DC2	B-DC3	B-DC4	B-DC5	B-DC6	B-DC7	B-DC8	B-DC9	B-DC10	B-DC11	B-DC12	B-DC13	B-DC14	B-DC15	B-DC16	B-Ph1	B-Ph2	B-Ph3	B-Ph4	B-Ph5	B-Ph6	B-Ph7	B-Ph8	B-Ph9	B-Ph10	B-Ph11	B-Ph12	B-Ph13	B-Ph14	B-Ph15	B-Ph16	aux-1	digaux	

7897.917	1	1	0	512	0.067142	0.045166	0.27496	0.23863	0.24123	0.063296	0.11775	0.11261	0.080253	0.25392	0.15768	0.32364	0.072034	0.074262	0.25525	0.10153	-1.2875	-1.9979	-1.6729	-1.6604	-2.3937	-1.4438	-1.9646	-2.0646	-1.6542	-2.15	-2.0812	-1.7375	-2.2438	-1.6417	-1.825	-2.0771	404.562	70.102	81.986	356.917	383.085	275.435	344.284	324.835	301.679	362.973	324.717	368.729	107.799	296.105	108.414	158.781	0.0012225	0.00025718	0.0002051	578.59	5.7094e-06	3.7144e-06	883.17	173.81	1.8874e-06	2.1816e-06	362.25	144.01	64.479	23.719	3.1379e-06	64.003	0.00038937	0.00038276	0.00012326	593.3	4.2862e-06	4.242e-06	884.06	178.47	4.2063e-06	4.4041e-06	359.69	140.63	66.016	24.361	5.0159e-06	62.096	78.094	180.497	181.236	70.284	262.315	163.985	71.078	76.166	199.622	163.472	76.399	81.491	81.532	86.586	141.084	85.312	-8191	255	
7898.013	1	1	0	0	0.094544	0.099825	0.26343	0.10829	0.092734	0.062331	0.26461	0.2091	0.10514	0.14042	0.06636	0.031612	0.31247	0.22452	0.0068056	0.16848	-1.1958	-2.1312	-1.8042	-1.7687	-2.2375	-1.6187	-2.1771	-2.3021	-1.7021	-2.2313	-2.2062	-1.45	-2.2771	-1.9208	-1.7875	-2.2458	211.310	212.057	323.620	193.284	110.209	395.909	346.122	131.379	235.187	333.716	61.898	371.589	261.679	89.947	285.760	293.360	0.0013582	0.0006063	9.9005e-05	581.42	3.8906e-06	1.8022e-06	890.16	174.99	3.3692e-06	3.5369e-06	364.1	144.23	64.972	23.733	6.3283e-06	64.442	0.0004	0.00042225	0.0001289	594.26	4.3009e-06	4.6446e-06	889.13	179.38	4.1507e-06	4.6542e-06	360.91	140.66	66.143	24.62	4.8e-06	62.387	82.105	120.766	256.850	70.194	138.324	142.043	70.936	76.004	118.100	228.041	76.199	81.256	81.705	86.610	279.120	85.357	-8191	255	
7898.109	1	1	0	0	0.075191	0.2849	0.16147	0.14366	0.12339	0.1706	0.21407	0.18391	0.22279	0.043739	0.015419	0.21396	0.14215	0.082477	0.091776	0.18704	-1.2458	-1.9979	-1.8167	-1.7042	-2.3625	-1.8729	-1.9521	-2.4688	-1.4104	-1.9625	-2.1458	-1.6479	-2.2333	-1.6833	-1.6313	-2.4479	75.571	365.734	148.535	405.303	132.587	300.484	280.759	313.661	404.168	258.858	352.875	59.934	397.095	243.402	107.617	385.963	0.0013914	0.00068899	1.5593e-05	583.68	6.8021e-06	4.4515e-06	884.31	175.59	5.6691e-06	2.6413e-06	362.49	144.87	65.283	23.651	3.1407e-06	64.251	0.00038774	0.0004319	0.00012154	593.19	4.228e-06	4.8085e-06	885.28	179.19	4.2595e-06	5.0514e-06	360.2	141.05	66.607	24.978	4.8808e-06	62.361	80.089	100.800	226.710	70.316	217.229	217.756	71.054	76.026	172.416	277.178	76.585	81.306	81.542	86.863	254.954	85.440	-8191	255	
7898.205	1	1	0	0	0.25773	0.064544	0.092171	0.29664	0.052634	0.092463	0.21277	0.3755	0.11743	0.12547	0.11139	0.19548	0.07724	0.20276	0.16867	0.18164	-1.0854	-2.1958	-1.8062	-1.6771	-2.0458	-2.1396	-1.7062	-2.2042	-1.7437	-1.8625	-2.2708	-1.5667	-2.1979	-2.0542	-1.6729	-2.2	189.381	92.602	217.336	86.598	267.408	297.164	344.417	359.819	110.158	367.174	362.104	153.380	331.536	149.855	213.972	403.057	0.001283	0.00028695	5.8328e-05	585.02	4.2429e-06	3.5626e-06	886.27	175.27	1.4457e-05	6.5488e-06	361.95	145.25	65.481	24.039	3.8958e-06	64.496	0.00042753	0.00047863	0.00012607	594.9	4.8151e-06	5.3713e-06	885.69	179.47	4.8614e-06	5.4043e-06	360.53	141.54	68.182	25.358	5.0942e-06	62.811	96.008	136.655	346.137	70.631	233.431	405.595	70.730	76.377	200.555	321.695	76.530	81.293	81.427	86.488	206.063	85.142	-8191	255	
7898.324	1	1	0	0	0.060241	0.17571	0.30275	0.060853	0.17046	0.23811	0.29229	0.29893	0.16548	0.017611	0.15085	0.31819	0.17292	0.15768	0.19892	0.22657	-1.4333	-1.5083	-2.125	-1.6792	-1.9354	-2.0438	-1.6437	-2.2792	-1.9021	-1.7854	-2.4021	-1.8042	-1.9021	-2.1083	-1.5938	-2.1229	132.649	184.695	88.596	375.108	347.392	69.754	408.350	339.029	108.517	396.472	414.479	312.395	73.795	139.391	382.802	95.804	0.0011539	0.00036901	0.00011663	580.26	6.5233e-06	8.3029e-07	884.35	174.87	1.4836e-05	1.3424e-06	364.25	144.91	65.58	24.095	7.9982e-06	64.717	0.00048764	0.00049587	0.00012908	595.61	5.3571e-06	5.4694e-06	887.47	180.27	5.3762e-06	5.401e-06	361.48	142.2	68.639	25.234	4.8979e-06	63.011	94.056	403.536	193.869	70.521	207.642	153.678	70.933	76.371	154.321	313.502	76.475	81.161	81.270	86.674	332.812	85.509	-8191	255	
7898.397	1	1	0	0	0.1649	0.12389	0.23336	0.11172	0.16039	0.24397	0.12732	0.23701	0.095584	0.17865	0.040425	0.25147	0.15093	0.22471	0.37823	0.43022	-1.35	-1.7958	-2.1854	-1.6333	-1.9333	-1.8396	-1.8354	-2.3667	-1.7062	-1.8854	-2.2438	-1.5521	-2.0563	-1.9729	-1.6187	-2.3521	307.979	303.650	274.128	223.013	74.019	248.693	284.514	390.820	129.503	177.469	164.522	354.241	148.990	256.646	240.392	337.777	0.0013982	0.0011309	6.1554e-05	585.38	1.0742e-05	2.8147e-06	884.01	175.02	8.863e-06	3.3054e-06	366.5	146.27	65.705	24.217	4.6984e-06	65.064	0.00051159	0.00048264	0.00012827	599.26	5.6221e-06	5.3388e-06	885.67	181.96	5.7119e-06	5.2737e-06	362.97	143.83	69.732	25.449	5.0195e-06	63.84	81.151	318.579	101.509	70.635	148.030	268.222	71.086	76.369	203.584	173.281	76.766	81.288	81.516	86.709	126.114	85.388	-8191	255	
7898.494	1	1	0	0	0.032237	0.10968	0.13308	0.13084	0.2418	0.20098	0.35418	0.34401	0.12313	0.024208	0.049691	0.1027	0.27351	0.23604	0.21708	0.1021	-1.4292	-1.65	-2.2292	-1.8479	-1.6833	-2.0625	-1.9729	-2.1771	-1.9979	-1.7667	-2.35	-1.8208	-1.8917	-2.3979	-1.4208	-2.25	231.400	261.593	303.387	389.263	297.849	81.691	324.198	398.846	103.554	104.944	402.305	60.919	327.567	279.730	109.883	403.136	0.0015263	0.00090206	3.2725e-05	585.25	5.5262e-06	7.8835e-06	885.94	176.73	2.4665e-06	1.9584e-06	364.74	146.83	65.782	24.147	5.2434e-06	65.376	0.0005435	0.00047787	0.00012834	603.41	5.6711e-06	5.1332e-06	885.66	182.99	5.503e-06	4.9314e-06	361.97	144.12	68.949	25.127	4.5839e-06	63.744	78.864	74.591	92.474	70.725	98.449	301.158	71.164	75.983	301.736	202.328	76.814	81.487	81.375	87.020	215.092	85.373	-8191	255	
7898.612	1	1	0	0	0.19986	0.11987	0.087669	0.10183	0.24349	0.37552	0.27776	0.019749	0.19883	0.24274	0.13566	0.25831	0.28383	0.26994	0.11786	0.23697	-1.4771	-1.5812	-2.1729	-1.85	-1.6917	-2.1958	-1.6729	-1.9458	-2.1875	-1.6167	-2.3979	-1.9271	-1.6167	-2.2938	-1.65	-2.0625	125.523	277.720	413.443	317.225	386.649	108.400	78.138	241.669	333.156	165.470	178.920	347.633	411.349	247.886	125.184	385.081	0.0013741	0.00043493	6.8811e-05	586.39	1.2695e-05	7.4505e-06	884.96	176.85	6.0906e-06	1.8572e-06	366.01	146.25	65.639	24.113	1.1241e-05	65.184	0.0004854	0.0004265	0.00011812	602.18	5.0555e-06	4.7353e-06	884.54	183.25	5.1285e-06	4.6976e-06	361.9	144.28	68.362	25.04	4.7889e-06	63.678	82.530	173.321	73.380	70.685	314.898	204.381	71.054	76.386	292.137	269.082	76.506	81.524	81.994	86.533	277.300	85.340	-8191	255	
7898.709	1	1	0	0	0.071016	0.23105	0.18292	0.18863	0.36466	0.10065	0.31893	0.36892	0.26843	0.22484	0.41507	0.24665	0.25141	0.21346	0.047687	0.10624	-1.7021	-1.5042	-2.1937	-2.1167	-1.6187	-2.3583	-1.8458	-1.9875	-2.2708	-1.6562	-2.1208	-2.2729	-1.8396	-2.2021	-1.6208	-2.0312	132.536	355.917	125.027	272.607	307.588	415.938	289.717	390.024	259.386	103.754	334.439	384.377	99.422	86.419	144.957	227.600	0.0014131	0.00050556	0.00014422	581.74	4.645e-06	1.7393e-06	883.93	176.45	5.4118e-06	6.2926e-06	364.68	145.04	65.235	23.92	1.9454e-05	64.34	0.00047682	0.00042901	0.00012636	605.06	5.059e-06	4.7765e-06	885.03	182.92	5.0214e-06	4.6906e-06	361.35	143.71	67.82	24.818	5.2763e-06	63.398	109.206	105.889	79.932	70.469	98.088	88.573	70.987	76.325	115.244	206.996	76.444	81.322	81.653	86.908	190.504	85.470	-8191	255	
7898.805	1	1	0	0	0.039783	0.3051	0.22935	0.19611	0.11483	0.22493	0.20787	0.22278	0.044478	0.13864	0.15194	0.2207	0.21882	0.26397	0.12698	0.13161	-1.6833	-1.2313	-2.2354	-2.0833	-1.6458	-2.3896	-1.8875	-1.8979	-2.2812	-1.6333	-2.2146	-1.9	-1.5667	-2.3542	-1.8521	-1.8167	91.615	110.249	159.315	363.617	369.376	106.244	328.371	314.800	186.585	210.787	159.215	175.182	114.509	126.752	289.146	371.901	0.0014166	0.0008993	0.00025161	580.24	4.4313e-06	4.4502e-06	881.27	176.27	6.6859e-06	2.0248e-06	366.07	145.67	65.846	24.087	5.946e-06	64.972	0.00047934	0.00044281	0.00013982	605.52	5.1011e-06	4.9604e-06	890.57	184.15	5.1858e-06	4.889e-06	365.52	144.02	68.003	24.968	5.5568e-06	63.329	83.090	218.362	110.511	70.518	190.148	176.164	70.951	76.081	104.225	261.523	76.302	81.435	81.551	86.599	219.838	85.278	-8191	255	
7898.925	1	1	0	0	0.40128	0.12558	0.082047	0.25754	0.18295	0.12152	0.092223	0.23364	0.20101	0.30742	0.074019	0.35494	0.13645	0.1905	0.14206	0.35179	-1.8771	-1.6729	-1.9229	-1.9979	-1.7146	-2.1208	-1.9479	-1.7062	-2.3583	-1.6313	-2.1271	-2.0021	-1.6583	-2.0646	-1.9604	-1.6875	169.391	373.639	124.162	316.529	248.537	244.102	377.768	324.473	304.963	253.436	175.972	316.247	102.310	173.566	394.426	316.926	0.0011696	0.00053875	0.00017291	580.19	6.2437e-06	5.5692e-06	887.3	175.05	1.5826e-06	9.31e-06	364.74	145.8	66.383	24.063	6.7576e-06	65.092	0.00044894	0.0004212	0.00013713	599.17	4.6252e-06	4.6496e-06	891.48	181.07	4.5502e-06	4.6097e-06	363.78	143.02	67.419	24.915	5.1728e-06	63.161	82.546	149.309	127.554	70.458	183.391	161.465	71.243	76.194	366.501	223.195	76.439	81.380	81.418	86.600	250.457	85.495	-8191	255	
7898.997	1	1	0	0	0.17005	0.21024	0.091098	0.1705	0.15072	0.09365	0.25828	0.42354	0.1763	0.31886	0.13777	0.14346	0.3687	0.23995	0.24829	0.16263	-1.8813	-1.4417	-1.9292	-2.2271	-1.6021	-2.0354	-2.125	-1.6417	-2.2854	-1.6187	-1.8833	-2.3104	-1.5854	-2.0583	-2.0042	-1.5688	371.038	328.597	82.781	150.330	149.820	400.945	86.249	356.257	216.029	233.554	96.921	65.115	182.193	126.255	192.948	329.862	0.0012487	0.00062331	4.4589e-05	578.33	2.5086e-06	2.9734e-06	885.18	176.43	7.1689e-06	8.424e-06	368.68	146.79	65.842	24.197	1.0096e-05	65.377	0.00041182	0.00042227	0.00013207	595.59	4.3439e-06	4.7674e-06	890.57	180.93	4.434e-06	4.8225e-06	364.59	143.07	67.202	25.218	5.1732e-06	63.392	83.042	152.108	246.468	70.515	211.600	102.181	71.022	76.507	102.363	251.111	76.789	81.498	82.065	86.701	104.747	85.090	-8191	255	
7899.093	1	1	0	0	0.3431	0.1787	0.22667	0.056582	0.10166	0.10719	0.21189	0.28912	0.19339	0.15803	0.2319	0.19439	0.1305	0.30101	0.21204	0.14339	-1.8208	-1.8	-1.9042	-2.3125	-1.725	-2.1562	-2.1417	-1.4625	-2.2979	-1.8333	-1.8604	-2.3208	-1.7271	-2.0375	-1.7792	-1.6625	222.303	109.394	63.799	124.085	244.795	386.633	333.966	380.393	139.363	264.778	366.861	282.867	96.291	378.325	129.891	397.323	0.0013976	0.00032437	0.00013752	585.6	4.3861e-06	3.9283e-06	888.45	177.38	6.8237e-06	2.7862e-07	366.82	146.58	65.593	24.175	2.7374e-06	65.28	0.00042093	0.00047159	0.00013295	600.03	4.6139e-06	5.3189e-06	894.04	181.87	4.7037e-06	5.4157e-06	364.4	143.18	67.739	25.382	5.0842e-06	63.168	78.829	175.277	271.909	70.407	206.187	244.075	70.730	75.821	130.336	341.013	76.727	81.253	81.410	86.880	124.073	85.070	-8191	255	
7899.214	1	1	0	0	0.21095	0.20492	0.10185	0.092133	0.28264	0.27682	0.070286	0.12665	0.17619	0.10268	0.28985	0.25305	0.31061	0.13495	0.18031	0.28772	-1.7792	-1.8792	-1.6771	-2.2396	-1.6229	-1.9333	-2.3646	-1.7271	-2.0167	-2.1875	-1.7938	-2.4146	-1.6854	-2.0292	-2.2062	-1.7125	376.078	328.747	359.482	395.154	195.054	173.686	313.843	116.065	236.115	354.359	71.051	416.413	377.811	374.176	395.102	336.630	0.0014463	0.00024756	0.00019788	581.48	9.3309e-06	5.1389e-06	883.55	175.71	5.9418e-06	1.3831e-06	365.43	145.34	65.664	23.921	4.2229e-06	64.715	0.00043337	0.00048272	0.00012327	593.74	4.5734e-06	5.1033e-06	883.19	179	4.5631e-06	5.0671e-06	358.95	141.27	67.332	24.937	4.6695e-06	62.469	83.596	194.240	141.093	70.291	198.501	83.009	70.643	76.404	158.974	155.018	76.600	81.522	81.278	86.500	412.328	85.308	-8191	255	
7899.308	1	1	0	0	0.055958	0.14651	0.17112	0.045203	0.21292	0.1909	0.15741	0.094894	0.14	0.097556	0.073425	0.22781	0.1844	0.18082	0.085493	0.23064	-1.7125	-1.8875	-1.6063	-2.1729	-1.7833	-1.7042	-2.2792	-1.4813	-2.0938	-1.9375	-1.6896	-2.0917	-1.8292	-1.6271	-2.2938	-1.8021	292.604	224.414	263.655	357.247	193.991	87.348	399.647	389.220	347.738	308.019	222.985	398.345	337.417	377.513	171.735	327.284	0.00162	0.00067311	0.00012734	582.19	5.1928e-06	5.7623e-06	883.19	176.97	7.3263e-06	4.737e-06	364.73	145.56	66.117	24.155	7.8978e-06	65.125	0.00044671	0.00046353	0.00011788	591.87	4.9129e-06	5.1297e-06	883.26	180.11	5.0831e-06	5.2039e-06	360.28	142.26	68.784	25.276	4.996e-06	63.324	85.726	406.683	139.504	70.277	173.167	121.220	70.802	76.078	170.546	158.525	76.624	81.218	81.684	86.676	156.994	85.428	-8191	255	
7899.404	1	1	0	0	0.2011	0.10048	0.12307	0.18892	0.32204	0.069773	0.22015	0.26597	0.21782	0.27824	0.40469	0.13503	0.23153	0.19823	0.10085	0.20446	-1.6375	-2.0146	-1.4229	-2.3292	-1.8125	-1.6104	-2.2646	-1.8042	-2.0271	-2.0667	-1.6979	-2.2313	-2.0667	-1.6833	-2.2167	-1.7875	128.918	411.280	142.417	335.731	103.228	221.992	376.011	295.585	245.075	276.172	68.106	117.948	354.534	400.398	239.252	61.021	0.00102	0.00064011	0.00016858	583.54	8.7197e-06	4.1563e-06	885.06	176.85	5.3388e-06	6.2518e-06	366.47	147.54	66.56	24.252	4.2933e-06	65.209	0.00050919	0.0004903	0.0001257	598.87	5.6548e-06	5.3473e-06	888.44	182.72	5.8123e-06	5.4283e-06	363.14	144.16	69.993	25.359	4.9931e-06	63.643	77.167	234.710	186.790	70.675	157.799	131.634	71.004	75.959	150.100	89.252	76.410	81.311	81.437	86.727	255.812	85.244	-8191	255	
7899.500	1	1	0	0	0.12346	0.060243	0.25285	0.26405	0.16868	0.13401	0.24764	0.18226	0.099526	0.30874	0.22919	0.15489	0.12122	0.087952	0.32137	0.34101	-1.4896	-2.1292	-1.2958	-2.2313	-1.9021	-1.7396	-2.3146	-1.8104	-1.6104	-2.1958	-1.8813	-2.3771	-1.8875	-1.8229	-2.2083	-1.9167	121.563	83.466	233.822	407.207	211.292	281.746	309.840	74.580	345.839	235.653	85.255	285.843	96.622	349.903	262.423	354.229	0.0012955	0.00048022	0.00014038	584.51	5.1704e-06	5.3006e-06	885.82	179.33	7.1815e-06	6.4745e-07	369.72	148.18	66.867	24.409	3.9044e-06	66.026	0.00052586	0.0004819	0.00012602	602.89	5.7176e-06	5.1642e-06	887.24	184.51	5.6599e-06	5.2344e-06	364.97	145.4	70.064	25.4	4.9963e-06	64.522	88.644	196.578	340.314	70.454	413.631	180.703	70.979	76.252	188.018	238.498	76.822	81.275	81.827	86.486	161.843	85.512	-8191	255	
7899.574	1	1	0	0	0.20981	0.20894	0.13264	0.20565	0.1166	0.23021	0.065717	0.20013	0.34377	0.11989	0.17466	0.38854	0.44093	0.046321	0.040449	0.30548	-1.2646	-2.1458	-1.6896	-1.9688	-2.0604	-1.7229	-2.2562	-1.8042	-1.9083	-2.2146	-1.8396	-2.1813	-2.0938	-1.5812	-2.1771	-1.8396	105.562	349.466	234.951	281.017	75.958	298.793	369.414	106.451	298.281	129.340	303.963	402.432	379.134	275.822	190.340	373.846	0.0014404	0.00057519	0.00021818	589.03	2.9495e-06	2.5145e-06	895.16	179.03	3.1021e-06	4.3255e-06	368.98	148.69	66.206	24.555	1.1926e-05	66.134	0.0005212	0.00047777	0.00012649	608.98	5.6213e-06	5.1104e-06	890.76	186.39	5.4255e-06	5.1087e-06	366.04	146.8	69.61	25.407	5.0303e-06	64.783	93.054	155.496	194.009	70.723	117.751	313.858	71.206	76.504	366.608	230.365	76.242	81.246	81.702	86.564	274.828	85.234	-8191	255	
7899.693	1	1	0	0	0.22785	0.29292	0.27289	0.21609	0.17723	0.19955	0.20044	0.093841	0.12365	0.14843	0.089328	0.16342	0.31605	0.27596	0.13442	0.099043	-1.1479	-2.0229	-1.575	-2.2021	-1.9562	-1.6917	-2.2542	-2.1896	-1.7146	-2.3563	-1.6938	-1.975	-2.1104	-1.6896	-2.1792	-2.0021	367.713	265.899	228.478	82.941	415.859	145.038	366.866	380.746	119.743	338.645	284.360	325.164	290.847	384.003	299.900	387.320	0.001447	0.00049135	0.00013044	582.82	6.8794e-06	4.062e-06	886.27	177.14	6.4686e-06	1.2052e-06	366.91	147.75	66.775	24.256	1.5403e-05	65.33	0.00048314	0.00045172	0.00012632	607.16	5.099e-06	4.7086e-06	889.78	185.13	4.9462e-06	4.7433e-06	364.16	145.24	68.76	25.094	5.042e-06	63.956	89.134	277.082	175.552	70.440	213.962	145.636	71.100	76.067	351.122	300.958	76.509	81.174	81.113	86.563	245.998	85.301	-8191	255	
7899.789	1	1	0	0	0.1627	0.24166	0.10711	0.23792	0.073251	0.14463	0.2711	0.13286	0.19447	0.037181	0.13714	0.067224	0.13865	0.33834	0.32435	0.31178	-1.3958	-2.0729	-1.65	-2.0958	-2.2042	-1.5396	-2.1813	-2.1021	-1.7563	-2.3	-1.7687	-1.9667	-2.1396	-1.5167	-2.1583	-2.1729	132.979	375.599	296.631	406.377	219.409	182.785	361.490	153.402	176.924	399.919	340.007	284.538	314.212	395.786	155.513	364.529	0.0012207	0.00042173	0.000157	579.22	4.3649e-06	5.832e-06	889.92	175.82	4.1155e-06	4.3339e-06	365.63	146.34	66.635	24.222	2.3395e-06	65.054	0.00044492	0.0004142	0.00012827	599.54	4.7791e-06	4.4593e-06	886.72	181.96	4.4949e-06	4.3603e-06	362.16	143.02	67.841	24.65	4.9006e-06	63.076	81.824	210.093	160.667	70.456	394.575	245.354	71.014	76.045	198.196	380.735	76.271	81.294	81.454	86.239	272.066	85.324	-8191	255	
7899.885	1	1	0	0	0.22473	0.15106	0.03978	0.29698	0.30171	0.074141	0.28169	0.060861	0.2439	0.16503	0.1173	0.18069	0.20331	0.24215	0.10659	0.25602	-1.1917	-2.1958	-1.8583	-1.8792	-2.1562	-1.7521	-1.7708	-2.1021	-1.4417	-2.2521	-1.825	-1.7354	-2.4562	-1.4188	-1.8792	-2.2271	99.467	253.653	341.839	361.122	151.101	176.920	406.439	65.360	379.719	140.733	391.290	328.964	410.103	334.721	308.026	364.165	0.001326	0.00049553	8.098e-05	580.4	2.4574e-06	8.9138e-06	889.71	178.08	2.4292e-06	6.3028e-06	365.61	146.68	66.457	24.411	1.1397e-06	65.551	0.00040603	0.00038893	0.00012582	595.95	4.3584e-06	4.2733e-06	886.15	181.71	4.2734e-06	4.4552e-06	363.87	142.99	67.826	25.031	5.1367e-06	63.478	73.815	243.215	357.843	70.498	268.278	235.478	71.216	76.073	190.490	246.167	76.715	80.863	81.428	86.155	402.820	84.865	-8191	255	
7900.006	1	1	0	0	0.080838	0.27161	0.16349	0.13277	0.077902	0.26739	0.18559	0.14925	0.071171	0.31634	0.20129	0.20116	0.13324	0.19644	0.2066	0.14418	-0.89167	-2.1958	-1.8188	-1.6313	-2.2208	-1.5333	-2.0604	-2.3312	-1.5625	-2.3688	-1.7979	-1.7479	-2.4	-1.7021	-1.9646	-2.2042	264.364	178.544	96.565	370.938	377.921	213.771	416.895	377.155	206.823	82.646	317.729	286.637	410.070	98.007	132.135	369.617	0.0014724	0.0012942	0.00016797	583.76	3.0554e-06	1.9109e-06	887.13	177.96	4.6688e-06	3.3241e-06	368.89	147.06	67.031	24.532	6.5884e-06	65.63	0.00040865	0.00042385	0.00013167	595.59	4.4028e-06	4.7169e-06	890.45	182.25	4.3491e-06	4.8646e-06	366.44	143.75	68.305	25.436	5.1289e-06	63.658	77.402	122.696	99.517	70.672	238.484	161.604	70.939	75.881	59.933	146.672	76.589	81.289	81.356	86.677	165.544	85.216	-8191	255	
7900.102	1	1	0	0	0.31694	0.15351	0.15793	0.25171	0.21274	0.18902	0.16406	0.13202	0.10275	0.27562	0.40788	0.196	0.25195	0.23906	0.25513	0.27533	-1.0625	-1.8729	-2.125	-1.4667	-2.1979	-1.9708	-1.8229	-2.4375	-1.6146	-2.025	-2.2479	-1.7042	-2.1792	-1.8354	-1.8417	-2.1771	413.985	329.472	362.231	338.507	393.813	72.558	391.412	215.895	186.120	123.177	326.142	94.854	85.235	325.241	242.854	72.452	0.001173	0.00085304	0.00016626	589.35	1.355e-06	5.5627e-06	889.03	179.78	9.5172e-06	6.2652e-06	370.12	148.34	66.389	24.612	5.7143e-06	65.765	0.00041387	0.00046325	0.00013182	597.19	4.468e-06	5.1099e-06	890.02	182.37	4.3913e-06	5.099e-06	366.14	143.79	68.195	25.595	4.7933e-06	63.65	83.467	163.641	366.742	70.817	172.246	138.669	71.111	76.264	209.442	179.249	76.813	81.616	81.699	86.388	160.042	85.488	-8191	255	
7900.198	1	1	0	0	0.20771	0.062697	0.095927	0.081436	0.12316	0.11283	0.12719	0.025625	0.26628	0.26492	0.14563	0.08415	0.12404	0.098699	0.05601	0.049591	-1.025	-1.7062	-1.9333	-1.7604	-2.1146	-1.8604	-1.7708	-2.2604	-1.6729	-2.0333	-2.2771	-1.7521	-2.3167	-2.0708	-1.7729	-2.4625	351.047	373.654	229.323	399.436	246.623	88.159	202.577	364.412	66.448	133.260	369.496	389.426	338.657	90.638	298.730	121.041	0.0013049	0.0008874	3.6478e-06	585.37	3.3787e-06	8.2264e-06	890.81	177.4	1.408e-05	5.902e-06	368.98	147.43	66.498	24.139	2.3511e-06	64.32	0.00041884	0.00046457	0.00012312	597.28	4.6064e-06	5.2006e-06	888.46	181.61	4.7041e-06	5.2642e-06	363.97	142.6	68.341	25.355	4.9201e-06	62.631	85.030	183.344	150.499	70.146	196.200	158.648	70.989	76.558	149.502	187.692	76.416	81.343	81.425	86.401	304.069	85.210	-8191	255	
7900.294	1	1	0	0	0.22579	0.1158	0.17534	0.19022	0.18721	0.10671	0.40265	0.44188	0.048632	0.2608	0.078519	0.20547	0.24946	0.14221	0.1489	0.52321	-1.1625	-1.9646	-2.0229	-1.6104	-2.0979	-1.9875	-1.8083	-2.2812	-1.7667	-1.6729	-2.2104	-1.8708	-1.9688	-2.1771	-1.5667	-2.3625	271.078	322.574	169.789	256.723	369.483	189.500	374.282	288.416	364.153	69.961	164.886	146.813	331.436	325.064	262.508	315.583	0.0014394	0.00058235	3.2793e-05	586.28	6.9057e-06	3.2091e-06	881.93	174.76	1.076e-05	5.8448e-06	361.45	142.81	64.615	23.31	1.1052e-05	63.563	0.00047911	0.00050824	0.00013252	601.66	5.5007e-06	5.7804e-06	888.35	180.77	5.6913e-06	5.7216e-06	359.76	140.47	68.394	25.005	5.2142e-06	62.18	76.391	110.274	167.900	70.318	161.809	60.776	71.068	76.272	146.862	141.698	76.375	81.562	81.584	86.427	197.952	85.286	-8191	255	
7900.390	1	1	0	0	0.20559	0.24807	0.075177	0.27234	0.40269	0.087144	0.097711	0.11075	0.19757	0.41287	0.36885	0.21515	0.18215	0.13301	0.10056	0.05487	-1.4542	-1.8062	-2.1063	-1.6229	-2.0062	-2.3354	-1.6646	-2.3958	-1.7354	-1.7771	-2.6271	-1.8667	-2.1667	-2.1667	-1.6667	-2.3042	154.141	382.265	350.588	314.103	228.275	352.929	305.643	310.696	362.937	81.754	379.843	404.010	168.093	281.879	335.472	282.317	0.001491	0.00039196	1.0684e-05	583.11	4.8031e-06	4.5809e-06	879.13	175.31	1.7013e-05	2.4609e-06	359.36	142.46	63.398	23.335	1.3115e-05	62.536	0.00053991	0.00051428	0.00013412	601.54	5.872e-06	5.6022e-06	883.66	180.81	5.9609e-06	5.4605e-06	357.38	140.04	68.228	24.703	5.2967e-06	61.739	75.774	152.239	105.077	70.310	109.388	228.601	70.850	76.008	191.302	366.158	76.387	81.193	82.188	86.878	187.075	85.212	-8191	255	
7900.486	1	1	0	0	0.26913	0.073336	0.18473	0.092489	0.040579	0.062673	0.39893	0.19174	0.05022	0.19877	0.10835	0.26756	0.10907	0.097742	0.099737	0.25862	-1.4875	-1.7146	-2.1875	-1.6979	-2.0583	-2.1458	-1.5292	-2.2812	-2.0854	-1.7458	-2.4917	-1.8896	-1.9167	-2.2333	-1.5854	-2.3271	358.208	249.050	130.140	387.282	387.786	144.323	115.443	64.985	165.586	69.326	315.293	385.299	78.013	103.653	178.415	121.516	0.0013504	0.00049283	9.3723e-05	587.5	6.0358e-06	4.5682e-06	877.57	173.5	5.9864e-06	3.5338e-06	357.69	140.77	63.305	23.01	9.7382e-06	63.271	0.00057649	0.00051367	0.00013864	610.89	6.2693e-06	5.7311e-06	884.85	181.37	6.3381e-06	5.7558e-06	357.04	140.54	68.309	24.62	5.4269e-06	62.411	67.979	392.082	175.577	70.558	191.178	328.339	70.823	76.219	151.952	248.743	76.552	81.487	81.739	86.142	196.798	85.478	-8191	255	
7900.605	1	1	0	0	0.064856	0.16898	0.07804	0.34337	0.1374	0.056302	0.30203	0.18494	0.20218	0.17119	0.17127	0.36287	0.069211	0.10585	0.38878	0.15707	-1.5063	-1.7208	-2.1896	-1.8354	-1.8396	-2.0604	-1.7062	-2.0812	-1.9729	-1.6354	-2.2438	-2	-1.7854	-2.1104	-1.7333	-2.0438	64.861	261.612	75.765	375.003	88.084	186.278	350.105	266.262	151.036	300.165	311.525	291.596	165.875	386.677	151.825	256.924	0.0012961	0.00047873	0.00020555	585.01	5.6012e-06	4.468e-06	879.68	174.6	4.9305e-06	6.4035e-06	360.35	142.41	63.946	23.18	9.0653e-06	62.982	0.00058174	0.00051211	0.00014112	614.66	6.1845e-06	5.7566e-06	888.06	184.63	6.2779e-06	5.7527e-06	360.15	142.52	68.524	24.774	5.9126e-06	62.888	74.868	259.771	124.825	70.761	212.854	122.804	71.193	76.237	241.075	325.110	76.500	81.287	82.233	86.888	209.361	85.437	-8191	255	
7900.701	1	1	0	0	0.032425	0.10054	0.19478	0.053892	0.10023	0.18792	0.25655	0.12639	0.1884	0.10419	0.1402	0.12243	0.40248	0.15821	0.26878	0.3306	-1.7812	-1.6854	-2.3646	-1.8896	-1.725	-2.1771	-1.7938	-1.9229	-2.2313	-1.6833	-2.2583	-2.1979	-1.7792	-2.3438	-1.7125	-2.1146	361.393	61.430	230.119	215.919	283.256	262.448	333.548	328.897	263.655	150.052	415.584	413.570	369.703	134.419	69.708	321.635	0.0011225	0.00033059	0.00022185	587.63	3.6263e-06	6.3338e-06	884.38	172.72	5.2861e-06	5.076e-06	354.66	141.04	62.833	22.859	4.9752e-06	62.037	0.00058837	0.0005291	0.00015324	621.82	6.1773e-06	5.8313e-06	895.36	184.79	6.1502e-06	5.7158e-06	359.46	141.91	67.648	24.519	6.4352e-06	62.312	93.995	404.831	163.293	70.300	384.753	114.502	71.155	76.196	245.207	236.234	76.570	81.455	81.652	86.607	252.574	85.443	-8191	255	
7900.798	1	1	0	0	0.14541	0.23362	0.15632	0.43007	0.12434	0.061562	0.18304	0.26914	0.083223	0.065922	0.13151	0.32604	0.2427	0.17205	0.21146	0.17121	-1.8083	-1.7	-1.925	-2.1792	-1.5688	-2.4938	-1.8188	-1.7958	-2.2438	-1.5896	-2.2542	-2.0312	-1.5854	-2.2687	-1.7313	-1.8708	164.763	305.237	60.190	413.072	66.453	133.846	369.081	83.000	200.233	143.749	72.955	309.869	76.121	365.611	64.375	305.237	0.001418	0.00054462	0.00038584	582.37	7.6665e-06	2.2792e-06	870.66	170.3	4.1589e-06	2.5549e-06	349.91	138.46	61.946	22.518	5.7979e-06	61.335	0.00058668	0.00054248	0.00016875	621.86	6.1949e-06	5.934e-06	893.71	182.59	6.23e-06	5.8461e-06	358.25	139.64	66.662	24.173	6.9118e-06	61.412	97.929	228.973	150.872	70.279	347.215	211.655	71.071	76.066	335.141	326.509	76.442	81.268	81.053	86.624	266.742	85.418	-8191	255	
7900.869	1	1	0	0	0.12624	0.16908	0.21922	0.22523	0.17134	0.032637	0.10638	0.077634	0.067736	0.1109	0.11561	0.048208	0.14631	0.34519	0.1399	0.26059	-1.6437	-1.6896	-1.9396	-2.1312	-1.5063	-2.075	-1.9667	-1.8521	-2.0146	-1.7	-2.075	-2.0771	-1.6604	-2.1729	-1.9354	-1.8542	143.063	337.855	69.736	76.559	361.135	325.106	350.281	409.902	284.033	112.680	329.255	92.981	294.961	91.196	315.087	313.790	0.00098406	0.00030968	8.0881e-05	583.72	6.2007e-06	5.534e-06	874.91	170.89	5.0298e-06	7.443e-06	351.77	138.38	61.72	22.465	4.0146e-06	61.304	0.00057282	0.00054025	0.00017799	619.6	6.1365e-06	6.1862e-06	898.94	183.12	6.2953e-06	6.2421e-06	362.04	139.72	66.885	24.508	7.3845e-06	61.394	88.934	65.770	166.104	70.290	311.988	251.016	71.070	75.981	169.811	238.757	76.451	81.417	81.228	86.609	99.266	85.398	-8191	255	
7900.990	1	1	0	0	0.063388	0.2284	0.18142	0.23979	0.12976	0.14945	0.13344	0.36531	0.13446	0.15781	0.12411	0.28959	0.23387	0.22602	0.12668	0.21684	-1.8354	-1.6625	-1.7437	-2.25	-1.4521	-2.0125	-2.0812	-1.7125	-2.1979	-1.6437	-2.0208	-2.1875	-1.5542	-2.0062	-1.9937	-1.8354	169.948	396.178	330.453	60.586	226.464	315.673	322.866	374.249	58.434	378.323	296.013	360.158	164.965	409.212	109.401	240.856	0.0012927	0.00021811	0.00026252	584.26	3.9376e-06	1.6336e-06	876.19	169.34	8.4791e-06	5.0052e-06	348.16	139.2	62.036	22.44	7.1901e-07	61.094	0.00058526	0.00060603	0.00019075	619.5	6.3638e-06	6.9557e-06	906.33	182.63	6.5051e-06	7.0809e-06	362.89	140.2	67.398	25.023	7.7578e-06	61.576	76.013	90.396	62.508	70.084	184.332	152.029	71.215	75.951	272.259	272.706	76.220	81.209	81.615	87.126	260.954	85.440	-8191	255	
7901.086	1	1	0	0	0.15863	0.20529	0.11043	0.082895	0.12707	0.081254	0.32126	0.20453	0.2116	0.13953	0.061613	0.28352	0.11558	0.042943	0.16042	0.31704	-1.75	-1.8167	-1.6979	-2.3854	-1.6375	-1.9896	-2.3417	-1.6458	-2.3167	-1.8417	-2.0333	-2.4562	-1.5396	-2.1688	-1.95	-1.7625	65.156	125.522	212.824	60.920	324.934	384.978	359.278	295.264	394.750	294.294	401.998	383.848	397.109	264.345	83.026	383.752	0.0010949	0.00052865	0.00012641	587.59	1.3374e-05	7.0862e-06	871.75	170.59	4.0867e-06	3.2901e-06	350.44	137.81	62.235	22.271	7.1627e-06	61.133	0.00061316	0.00068795	0.00019609	624.64	6.6729e-06	7.7773e-06	906.05	183.6	6.9465e-06	7.9989e-06	363.5	140.06	68.045	25.365	7.8183e-06	61.65	92.407	174.872	318.547	70.280	160.917	164.925	70.659	76.055	224.092	251.532	76.487	81.196	81.807	86.434	404.792	85.486	-8191	255	
7901.182	1	1	0	0	0.090053	0.067501	0.15043	0.22664	0.26249	0.14182	0.15872	0.23118	0.13116	0.21268	0.19577	0.25239	0.10659	0.16765	0.080846	0.11724	-1.7896	-1.7938	-1.6229	-2.2313	-1.7333	-2.0438	-2.3396	-1.7021	-2.2021	-1.8	-2.0438	-2.5333	-1.8125	-1.8292	-2.15	-1.5292	252.429	134.888	162.887	64.375	220.435	317.318	349.731	330.206	267.816	81.643	354.804	348.942	196.166	145.706	376.552	238.651	0.0011182	0.00032274	0.00018166	585.22	8.0166e-06	3.2028e-06	872.88	170.07	1.5155e-05	5.466e-06	352.63	137.82	61.496	22.163	2.5604e-06	61.148	0.00065956	0.00075186	0.00019462	626.68	7.1804e-06	8.1892e-06	905.67	182.42	7.2701e-06	8.162e-06	361.61	139.94	68.68	25.371	7.5689e-06	61.444	93.280	222.451	381.448	70.206	180.896	260.469	71.089	76.088	164.452	104.680	76.658	81.269	81.314	86.614	316.305	85.464	-8191	255	
7901.278	1	1	0	0	0.077738	0.33118	0.057233	0.54714	0.18917	0.3176	0.23923	0.12714	0.14817	0.12477	0.28578	0.24284	0.14376	0.35632	0.2879	0.061627	-1.5812	-1.7708	-1.5917	-2.2521	-1.7417	-1.9646	-2.2146	-1.6042	-2.0458	-1.9292	-1.7563	-2.3479	-1.7625	-1.85	-2.0667	-2.0062	232.516	407.424	281.426	373.533	176.712	180.905	396.619	234.093	194.879	297.088	363.980	354.779	368.938	323.500	297.252	303.912	0.0016292	0.00029849	0.00012101	587.41	2.728e-06	3.8958e-06	869.79	169.99	1.4132e-05	1.6511e-06	343.54	135.69	60.569	21.995	5.3655e-06	60.616	0.00071433	0.00077478	0.0001943	627.19	8.1683e-06	8.7145e-06	905.91	184.21	8.7779e-06	9.1512e-06	361.33	140.12	71.287	25.842	8.8414e-06	61.944	75.290	163.821	408.183	70.182	237.677	382.284	71.352	76.002	179.727	414.319	76.252	81.079	80.870	86.617	181.563	85.500	-8191	255	
7901.397	1	1	0	0	0.2052	0.2882	0.36969	0.14196	0.279	0.11274	0.46987	0.17241	0.13624	0.1298	0.33776	0.25021	0.14027	0.18026	0.13705	0.15576	-1.6063	-2.1562	-1.5208	-2.1667	-1.8521	-1.9438	-2.2313	-1.8917	-2.0208	-2.1792	-1.7583	-2.2625	-1.9208	-1.7417	-2.3771	-1.7938	335.748	204.557	256.555	58.300	229.096	175.445	361.368	403.782	348.075	407.929	362.101	360.851	403.327	372.498	193.509	309.960	0.0011083	0.00039644	0.00031945	585.17	4.0039e-06	3.7025e-06	865.23	167.44	1.0992e-05	2.1208e-06	343.46	135.76	60.569	22.181	8.5386e-06	60.946	0.00089787	0.00089478	0.00022614	641.05	1.0238e-05	9.6537e-06	912.93	187.32	1.0402e-05	9.9085e-06	365.4	142.5	73.937	26.265	9.5088e-06	63.53	89.065	347.192	392.873	70.464	255.332	253.948	70.746	75.988	364.656	145.837	76.491	81.306	81.085	86.608	335.959	85.569	-8191	255	
7901.493	1	1	0	0	0.14198	0.27511	0.09077	0.17461	0.16542	0.1975	0.2954	0.076356	0.18708	0.046937	0.0095426	0.08568	0.17156	0.098048	0.21647	0.22335	-1.5979	-2.1896	-1.5792	-2.4021	-1.9896	-1.7646	-2.5958	-1.7708	-2.0104	-2.1667	-1.7333	-2.2729	-2.0896	-1.65	-2.3479	-1.7667	244.029	140.915	311.686	297.730	108.282	349.678	332.245	270.631	139.021	111.125	191.040	387.953	343.256	281.706	115.078	303.273	0.0010235	0.0011129	0.00015538	585.8	9.2775e-06	1.2432e-05	863.93	169.24	8.5171e-06	4.1069e-06	345.87	137.32	61.188	22.343	6.9368e-06	61.449	0.0010033	0.00092836	0.00024141	657.69	1.1408e-05	1.0187e-05	923.84	194.32	1.157e-05	1.054e-05	371.57	146.76	76.145	26.675	1.0177e-05	65.225	75.863	298.334	390.347	70.355	233.769	374.315	70.977	75.998	362.802	101.913	76.098	81.548	80.931	86.739	284.949	85.401	-8191	255	
7901.567	1	1	0	0	0.10442	0.1188	0.15139	0.10032	0.27927	0.35059	0.31969	0.35214	0.35879	0.2878	0.071817	0.057157	0.26501	0.1616	0.17716	0.22652	-1.7	-2.1104	-1.7208	-1.9813	-2.1167	-1.7271	-2.4271	-1.925	-1.85	-2.1625	-1.7708	-2.1104	-2.3708	-1.4438	-2.2438	-1.8937	85.588	265.446	361.977	90.005	61.962	192.781	309.161	382.135	305.811	264.501	320.610	363.406	224.667	409.063	264.160	93.437	0.0010914	0.00063859	7.0746e-05	588.61	5.5543e-07	6.5848e-06	868.2	169.8	5.5047e-06	9.6098e-06	345.48	135.92	60.52	22.002	9.7349e-06	60.586	0.0010478	0.00096147	0.00025155	670.21	1.1496e-05	1.0316e-05	926.05	198.36	1.1379e-05	1.0526e-05	371.95	147.73	74.84	26.255	1.0261e-05	65.223	71.885	80.144	237.924	70.280	244.839	307.462	70.929	76.082	104.253	88.254	76.312	81.250	81.260	86.491	257.088	85.423	-8191	255	
7901.686	1	1	0	0	0.070689	0.040331	0.18401	0.34276	0.10699	0.18324	0.41093	0.42138	0.22081	0.13319	0.23029	0.1711	0.23368	0.12491	0.12518	0.21127	-1.3542	-2.2062	-1.5438	-2.1937	-2.1437	-1.5979	-2.5375	-2.1208	-1.6146	-2.2812	-2.0062	-1.9208	-2.3458	-1.6333	-1.9083	-2.1104	188.963	214.952	95.914	239.746	93.530	118.886	405.417	360.726	328.728	258.654	174.657	346.996	380.785	170.286	272.186	123.900	0.00089293	0.00011448	0.00031543	586.99	3.5693e-06	9.7995e-06	864.86	168.8	7.1905e-06	3.0055e-06	345.86	136.68	61.097	22.065	1.8837e-05	61.005	0.00097452	0.00090728	0.00025117	668.13	1.0357e-05	9.418e-06	924.7	195.78	9.7735e-06	9.3186e-06	369.93	145.95	72.061	25.584	9.8292e-06	64.336	87.017	168.760	129.818	70.256	179.980	277.569	70.812	76.065	392.375	84.761	76.366	81.534	81.355	86.799	204.177	85.458	-8191	255	
7901.782	1	1	0	0	0.1221	0.0861	0.18624	0.063599	0.30597	0.080149	0.23187	0.2961	0.14579	0.11833	0.2728	0.25551	0.09312	0.10242	0.11326	0.31116	-1.45	-2.1396	-1.8167	-1.9438	-2.35	-1.4667	-2.0812	-2.0646	-1.5354	-2.15	-2.0062	-1.7917	-2.1542	-1.8583	-2.0542	-2.1021	88.531	404.149	126.218	133.149	61.155	376.841	383.230	255.976	271.435	177.818	378.433	163.528	239.924	69.050	120.162	344.548	0.0011582	0.00037548	0.00020676	577.09	4.8701e-06	3.0137e-06	860.33	166.33	4.0766e-06	5.5217e-06	342.86	135.11	60.549	21.913	5.1427e-06	59.803	0.0008472	0.00081016	0.00024536	652.35	9.2531e-06	8.5464e-06	915.44	190.56	8.8718e-06	8.6647e-06	366.9	142.7	70.412	25.081	9.8641e-06	62.753	87.292	77.248	165.396	70.748	339.794	225.800	71.000	75.794	311.777	206.096	76.416	81.172	81.396	86.972	251.628	85.215	-8191	255	
7901.878	1	1	0	0	0.21016	0.25126	0.17247	0.11296	0.13845	0.13663	0.39088	0.30949	0.33009	0.059724	0.29117	0.081917	0.13114	0.29382	0.18471	0.17775	-1.3104	-2.2479	-1.8687	-1.8583	-2.1896	-1.6333	-2.1063	-2.2958	-1.4958	-2.3771	-2.0479	-1.9417	-2.2417	-1.7625	-1.8937	-2.1771	137.274	338.601	132.490	355.748	138.598	415.045	355.021	356.535	128.277	294.475	312.555	390.158	378.782	343.048	306.906	405.465	0.0014288	0.00071582	0.00019982	576.88	8.0779e-06	9.6077e-06	861.9	166.21	1.3533e-05	3.527e-06	339.58	133.75	60.157	21.523	1.0253e-05	59.675	0.00078784	0.00078668	0.00025425	644.39	8.8279e-06	8.5938e-06	920.4	188.61	8.7134e-06	9.0324e-06	369.92	141.41	70.258	25.36	1.084e-05	62.714	68.510	175.567	145.566	70.629	349.763	217.507	71.133	75.843	219.871	226.298	76.389	81.305	81.665	86.502	178.723	85.402	-8191	255	
7901.974	1	1	0	0	0.071481	0.10741	0.13916	0.31091	0.12797	0.029384	0.24128	0.22999	0.20425	0.032427	0.16092	0.30402	0.10201	0.14729	0.10553	0.25053	-1.1729	-2.2417	-2.0792	-1.5938	-2.4125	-1.75	-2.1458	-2.1229	-1.6979	-2.1917	-2.0187	-1.8771	-2.2104	-1.7333	-1.8292	-2.2458	166.940	372.053	142.795	408.742	175.915	380.683	320.314	272.873	105.062	95.273	286.326	359.708	303.804	349.840	134.372	376.080	0.00064841	0.00049128	0.0001319	580.64	4.6002e-06	1.6567e-05	859.68	166.02	3.7743e-06	5.3947e-06	341.42	135.33	59.814	21.879	4.7981e-07	60.383	0.00082423	0.00087355	0.000277	646.96	9.1425e-06	9.6902e-06	926.75	189.15	9.0113e-06	1.0164e-05	375.35	142.57	71.049	26.369	1.1069e-05	63.383	96.648	207.752	77.237	70.561	168.078	189.426	71.025	76.060	85.167	247.952	76.390	81.458	81.248	87.207	256.016	85.285	-8191	255	
7902.095	1	1	0	0	0.21685	0.17223	0.050728	0.25979	0.23271	0.28484	0.16602	0.19952	0.1238	0.11784	0.2871	0.099822	0.1312	0.16222	0.075897	0.1778	-1.125	-2.0687	-2.0479	-1.675	-2.2812	-1.8146	-2.0354	-1.9562	-1.6958	-1.9562	-2.2229	-1.9667	-2.0271	-1.9542	-1.6917	-2.2667	201.666	230.382	357.060	76.958	201.660	222.395	65.657	65.484	163.074	397.060	405.031	82.896	202.743	405.957	146.382	359.395	0.0011807	0.0011915	0.00020061	581.93	3.318e-06	4.1809e-06	862.24	166.72	5.0394e-06	7.9767e-06	343.12	135.46	60.463	21.84	2.8673e-06	60.18	0.00084455	0.00096486	0.000275	645.49	9.2269e-06	1.0498e-05	926.25	189.55	9.0469e-06	1.0558e-05	371.99	141.73	70.599	26.329	9.901e-06	62.55	77.397	140.404	345.633	70.226	105.912	170.440	70.733	75.828	207.534	212.665	76.921	81.349	81.196	87.149	85.303	85.373	-8191	255	
7902.166	1	1	0	0	0.19796	0.13911	0.053332	0.075474	0.19133	0.098672	0.16997	0.20148	0.223	0.10305	0.23954	0.25127	0.19894	0.25895	0.18014	0.2952	-1.4021	-1.7854	-2.0625	-1.6313	-2.1958	-1.8583	-1.6938	-2.3125	-1.6604	-2.1167	-2.4	-1.7271	-2.3292	-1.9958	-1.7313	-2.425	254.405	335.748	201.282	92.214	134.907	209.732	311.958	323.131	77.904	80.960	407.098	356.655	374.431	415.142	126.073	382.854	0.0014406	0.001305	0.00014093	580.82	7.6222e-06	5.749e-06	863.05	166.84	1.0026e-05	2.0082e-06	342.68	135.85	60.579	21.732	1.2909e-05	60.612	0.00081534	0.00094108	0.00024845	638.03	9.0837e-06	1.0355e-05	914.17	186.65	9.0531e-06	1.0306e-05	366.24	140.65	70.903	26.235	9.237e-06	62.403	92.378	146.875	279.676	70.191	186.537	117.111	71.043	75.857	180.241	130.473	76.245	81.293	81.252	86.712	319.488	85.124	-8191	255	
7902.287	1	1	0	0	0.090766	0.24496	0.17856	0.26676	0.24832	0.37991	0.16932	0.082409	0.19697	0.21851	0.054365	0.19057	0.030993	0.14543	0.10973	0.36064	-1.3542	-1.8937	-2.2396	-1.7896	-2.2271	-1.7604	-1.7354	-2.5667	-1.7354	-1.8937	-2.5625	-1.8208	-2.2792	-2.1833	-1.6375	-2.3583	334.657	281.757	215.281	374.318	348.596	190.493	356.090	220.413	142.272	282.697	342.172	284.576	401.289	278.581	402.957	297.878	0.0013778	0.00079176	0.00010298	579.35	1.0997e-05	6.7494e-06	860.82	166.42	1.4154e-05	5.1816e-06	339.62	135.47	60.117	21.933	4.7472e-06	60.77	0.00086358	0.00093925	0.00024059	635.33	9.7757e-06	1.0392e-05	908.78	186.4	9.9263e-06	1.0226e-05	364.94	140.46	72.571	26.311	9.2961e-06	62.641	74.434	193.697	141.518	70.402	122.638	359.229	71.231	76.028	165.312	395.636	76.441	80.864	81.654	86.812	132.669	85.555	-8191	255	
7902.383	1	1	0	0	0.079953	0.28728	0.28056	0.26871	0.18333	0.15243	0.33005	0.16381	0.2463	0.24048	0.14967	0.19407	0.11771	0.03442	0.38055	0.13859	-1.3583	-1.8354	-2.2917	-1.7042	-2.2313	-2.1042	-1.7229	-2.3292	-2.0104	-1.825	-2.4896	-1.8125	-2.2354	-2.3104	-1.6437	-2.0979	105.853	315.413	254.917	388.426	91.285	344.879	411.837	336.905	395.170	308.254	160.015	331.891	119.497	136.839	153.960	390.492	0.0016136	0.00095306	4.1791e-05	581.79	6.2768e-06	1.3472e-05	856.31	166.7	1.0384e-05	8.2168e-06	342.15	135.44	61.174	21.976	3.6784e-06	60.5	0.00094212	0.00091497	0.00023924	638.16	1.0369e-05	1.0031e-05	905.92	187.46	1.058e-05	9.8519e-06	363.95	141.57	73.365	25.956	8.898e-06	62.807	89.386	266.230	246.439	70.547	211.618	98.683	71.143	76.003	134.922	75.228	76.648	81.485	81.567	86.711	260.092	85.589	-8191	255	
7902.478	1	1	0	0	0.21014	0.2073	0.065274	0.38841	0.10163	0.098753	0.11116	0.1205	0.070982	0.15419	0.17327	0.33618	0.12896	0.055268	0.2118	0.21815	-1.6896	-1.8188	-2.0979	-1.7604	-2.0167	-2.1083	-1.7563	-2.2917	-2.0646	-1.8625	-2.2958	-1.6854	-2.1229	-2.1292	-1.6167	-1.9708	391.946	153.655	336.258	398.867	73.640	197.579	400.081	336.632	298.948	218.766	366.539	382.674	184.890	284.485	93.932	336.690	0.0011907	0.0011307	8.9104e-05	585.34	6.3334e-06	5.8587e-06	855.28	167.48	3.4194e-06	5.7185e-06	340.06	135.37	60.041	21.728	8.6495e-06	60.424	0.00095154	0.00085064	0.00022835	643.79	1.0417e-05	9.5923e-06	902.82	189.93	1.0764e-05	9.6442e-06	364.44	143.75	73.916	26.146	9.5639e-06	64.117	84.480	375.288	342.012	70.365	214.080	263.924	70.934	75.791	405.481	93.514	76.661	81.402	81.229	86.683	132.609	85.478	-8191	255	
7902.574	1	1	0	0	0.1883	0.073662	0.12664	0.16625	0.16889	0.077592	0.13758	0.11041	0.14525	0.13172	0.20094	0.18698	0.2212	0.19647	0.20899	0.10446	-1.6104	-1.9417	-2.1229	-1.8687	-1.7188	-2.4458	-1.6896	-1.9292	-2.0833	-1.6354	-2.3458	-1.8917	-1.9813	-2.3271	-1.7896	-2.3333	395.837	100.344	186.471	124.451	172.705	356.588	323.149	359.989	327.811	201.709	407.506	367.187	81.626	370.141	334.371	70.961	0.0011384	0.00076015	0.00020652	580.5	5.7294e-06	4.8695e-06	857.83	167.52	6.9621e-06	2.5629e-06	342.81	135.68	60.4	22.096	3.2943e-06	60.788	0.0010326	0.00092913	0.00025295	662.5	1.1149e-05	1.0222e-05	911.23	194.36	1.075e-05	9.5949e-06	366.89	145.31	72.556	25.819	9.0677e-06	64.336	74.567	177.865	226.570	70.026	163.719	384.262	70.726	76.205	118.464	110.757	76.611	81.317	81.262	86.915	231.010	85.707	-8191	255	
7902.694	1	1	0	0	0.15746	0.3603	0.19523	0.087209	0.15682	0.082833	0.018752	0.086244	0.1845	0.11786	0.13132	0.41775	0.25948	0.11849	0.28168	0.20573	-1.75	-1.6042	-2.1333	-2.075	-2.0125	-2.1396	-1.8833	-1.9562	-2.2229	-1.5917	-2.2854	-2.1063	-1.9875	-2.2396	-1.7417	-2.05	115.514	318.492	333.543	135.173	175.794	62.985	105.947	117.634	299.845	396.265	330.849	60.143	80.966	155.962	69.864	315.219	0.00085286	0.00088543	0.00030302	580.59	4.2355e-06	5.6226e-06	858.22	167.25	2.6967e-06	2.6806e-06	344.04	136.26	61.294	22.186	1.4233e-05	60.86	0.00089562	0.00081182	0.00023305	652.97	9.418e-06	8.9443e-06	907.3	192.15	9.4267e-06	8.6034e-06	366.2	145.2	71.255	25.603	9.3684e-06	63.923	76.506	221.371	148.256	70.496	180.491	378.247	71.088	75.974	400.865	294.897	76.717	81.212	81.383	86.831	191.001	85.307	-8191	255	
7902.766	1	1	0	0	0.21402	0.26542	0.093235	0.15129	0.24094	0.27496	0.26456	0.19929	0.19942	0.030185	0.13919	0.090664	0.098584	0.20967	0.153	0.13908	-1.9417	-1.6437	-2.25	-2.1333	-1.8104	-2.1979	-1.8375	-1.8625	-2.2833	-1.6667	-2.0729	-2.225	-1.5104	-2.3604	-1.7875	-2.1125	246.180	184.309	217.071	310.760	360.084	229.495	253.253	76.756	242.663	357.415	415.318	358.483	100.153	208.645	212.330	362.699	0.00099486	0.00047158	0.0001428	577.73	6.3455e-06	6.8106e-06	855.27	165.94	9.485e-06	7.2572e-06	340.79	135.03	59.474	21.726	1.2475e-05	59.905	0.00085737	0.00079303	0.00024991	654.05	9.3237e-06	8.9539e-06	912.25	191.39	9.5879e-06	8.9989e-06	368.95	143.46	70.48	25.391	1.0798e-05	63.141	85.583	254.858	93.749	70.158	152.692	322.488	71.126	75.847	138.875	131.404	76.257	81.431	81.591	86.670	179.517	85.168	-8191	255	
7902.862	1	1	0	0	0.10299	0.14552	0.18756	0.18498	0.051455	0.17447	0.24504	0.1695	0.17703	0.10915	0.21874	0.1426	0.10888	0.17064	0.085768	0.20732	-1.7396	-1.6667	-1.9458	-2.2167	-1.7188	-2.2271	-1.9438	-1.8854	-2.0625	-1.5125	-1.975	-2.1396	-1.5896	-2.2792	-1.7542	-1.9083	137.519	326.555	223.963	340.271	135.448	240.263	303.376	271.096	412.187	102.425	92.112	320.601	412.182	337.713	294.153	406.644	0.001	0.0013659	0.00018243	580.63	7.0595e-06	1.7089e-06	852.29	165.05	1.1976e-05	9.7002e-06	339.99	134.76	60.273	22.117	6.5349e-06	60.131	0.00089305	0.00085255	0.00028398	657.68	9.7159e-06	9.7605e-06	925.07	191.16	9.9012e-06	9.6241e-06	374.08	143.62	70.815	25.932	1.104e-05	63.109	86.753	167.698	187.826	70.474	311.668	236.786	71.045	76.086	195.956	180.984	76.496	81.297	81.466	86.677	207.656	85.446	-8191	255	
7902.958	1	1	0	0	0.27158	0.2221	0.43001	0.14991	0.27083	0.16377	0.12738	0.078997	0.20748	0.13278	0.17656	0.18178	0.12132	0.11043	0.12781	0.24093	-1.4479	-1.7604	-1.7563	-2.0312	-1.6688	-2.1667	-2.1521	-1.6187	-2.3708	-1.7771	-1.9062	-2.4688	-1.5542	-2.1	-2.0062	-1.6521	322.191	314.932	149.936	69.498	278.096	362.659	331.520	347.922	277.562	154.479	370.763	373.285	402.600	78.741	106.673	293.892	0.0007111	0.00095874	4.2085e-05	573.84	7.2586e-06	1.0357e-05	851.64	166.72	4.1957e-06	3.4104e-06	341.61	136.26	60.855	22.188	1.1817e-05	61.506	0.00085175	0.00087136	0.00027905	645.08	9.1096e-06	9.9099e-06	923.59	190.03	9.2649e-06	1e-05	374.03	143.56	70.965	26.43	1.0851e-05	63.566	85.995	158.085	162.440	70.351	137.141	134.986	70.481	76.491	418.107	256.620	76.818	81.374	81.666	86.756	399.727	85.333	-8191	255	
7903.077	1	1	0	0	0.26431	0.35577	0.19737	0.22013	0.10686	0.14104	0.29973	0.076246	0.092429	0.072275	0.11449	0.12365	0.10867	0.11511	0.24716	0.15708	-1.9708	-1.7563	-1.5292	-2.2875	-1.3396	-2.1625	-2.1646	-1.45	-2.3104	-1.7771	-2.1813	-2.2729	-1.8417	-2.2687	-1.9021	-1.875	64.795	121.371	167.191	125.069	174.364	199.215	357.747	223.726	163.298	232.191	322.286	266.569	154.632	311.755	58.824	144.354	0.0010716	0.002282	0.00015861	579.83	5.3974e-06	1.1674e-05	861.39	168.73	8.305e-06	1.2377e-05	345.5	137.11	60.958	22.019	9.79e-06	60.412	0.00083231	0.00092792	0.00026502	642.31	8.7736e-06	1.0181e-05	920.41	188.25	8.9363e-06	1.0214e-05	371.17	143.22	70.565	26.454	1.0234e-05	62.728	90.901	131.365	201.872	70.827	285.302	166.167	70.794	76.393	226.992	236.512	76.591	81.463	81.648	86.825	168.165	85.521	-8191	255	
7903.173	1	1	0	0	0.061454	0.15241	0.18586	0.14812	0.074512	0.24341	0.22841	0.18513	0.27709	0.075547	0.1105	0.28384	0.36024	0.091943	0.28535	0.079415	-1.6875	-1.8229	-1.6417	-2.4062	-1.5458	-2.025	-2.2812	-1.5792	-2.1583	-1.9542	-1.7542	-2.35	-1.6583	-1.8708	-2.275	-1.6854	109.265	69.295	282.591	314.022	111.022	113.830	368.696	103.434	214.260	372.787	367.310	416.688	410.633	188.790	388.874	324.919	0.0012009	0.00036995	8.4475e-05	582.15	1.2852e-05	1.3699e-05	860.81	166.23	1.4986e-05	6.3731e-06	340.01	134.6	59.71	21.552	3.5041e-06	59.741	0.00086025	0.00099337	0.00026108	645.33	9.5343e-06	1.1125e-05	920.03	187.45	9.9134e-06	1.1225e-05	366.08	140.95	71.218	26.388	1.0075e-05	62.021	77.820	154.795	317.628	70.450	172.951	173.451	71.104	75.967	167.110	198.451	76.399	81.595	81.652	86.819	400.593	85.295	-8191	255	
7903.270	1	1	0	0	0.12522	0.29626	0.27277	0.097464	0.085041	0.080847	0.13067	0.073735	0.082548	0.23019	0.25872	0.19323	0.30373	0.062581	0.39027	0.20439	-1.7667	-2.0083	-1.7271	-1.9771	-1.9375	-1.925	-2.3854	-1.6437	-2.1937	-1.9625	-1.7875	-2.3021	-1.8625	-2.0708	-2.3292	-1.65	199.351	387.250	322.870	259.410	175.821	210.525	291.417	374.701	364.080	175.768	97.419	376.857	362.870	58.025	122.546	367.238	0.0018187	0.00037129	8.5399e-05	577.15	1.0447e-05	9.5318e-07	845.15	164.96	1.7922e-05	4.4473e-06	336.31	132.76	59.601	21.263	1.7139e-05	59.581	0.00092676	0.0010046	0.00025186	639.02	1.0218e-05	1.0844e-05	906.74	185.79	1.039e-05	1.082e-05	361.71	139.69	72.239	26.007	9.7854e-06	61.692	95.244	126.489	336.662	70.874	167.664	393.960	70.732	75.984	169.375	366.691	76.302	81.544	81.558	86.355	223.580	85.528	-8191	255	
7903.366	1	1	0	0	0.12821	0.07402	0.12543	0.30774	0.19029	0.37187	0.27765	0.21451	0.17288	0.26974	0.081158	0.070888	0.2922	0.043405	0.083405	0.21232	-1.5896	-2.1021	-1.6333	-2.3146	-1.9604	-1.6333	-2.4521	-1.7417	-2.0042	-1.9604	-1.7	-2.0208	-1.7292	-1.6729	-2.4875	-1.7604	399.022	155.731	113.803	103.063	334.048	407.149	358.815	87.482	163.982	343.453	409.312	326.963	393.741	148.715	184.573	94.456	0.0017624	0.00085573	0.00028893	574.33	7.53e-06	6.8204e-06	853.26	165.73	1.6483e-05	6.4799e-06	339.41	134.59	60.228	21.519	9.1426e-06	59.938	0.00097038	0.00095438	0.00023942	636.06	1.0579e-05	1.0054e-05	904.23	185.77	1.0664e-05	1.0047e-05	360.71	140.85	72.921	25.662	9.3865e-06	62.319	88.135	227.555	144.758	70.671	136.143	71.183	70.972	75.977	191.424	170.883	76.380	81.373	81.183	86.420	291.096	85.204	-8191	255	
7903.462	1	1	0	0	0.27153	0.069336	0.23165	0.25619	0.041465	0.20528	0.051143	0.21139	0.34616	0.14398	0.11913	0.11691	0.26239	0.14989	0.23786	0.12231	-1.7042	-2.0417	-1.4646	-2.2396	-1.6938	-1.6562	-2.25	-1.9	-1.6729	-2.225	-1.4375	-2.4104	-1.975	-1.5688	-2.0687	-1.8708	152.397	141.565	316.208	79.941	262.153	225.996	98.207	286.324	290.454	324.384	60.561	311.714	230.305	382.631	185.359	350.743	0.0014301	0.00080873	0.00011663	577.34	2.3535e-06	6.0777e-06	854.77	166.7	1.3805e-06	4.1184e-06	338.64	134.18	59.852	21.883	6.7024e-06	60.492	0.0009838	0.00090601	0.00023269	642.67	1.0831e-05	9.655e-06	900.24	188.5	1.0655e-05	9.6683e-06	360.54	142.16	72.608	25.568	9.168e-06	63.149	97.429	330.418	328.895	70.621	71.055	329.031	71.019	76.378	93.676	146.045	76.422	81.547	81.136	86.736	185.173	85.773	-8191	255	
7903.558	1	1	0	0	0.088232	0.17975	0.13235	0.2143	0.23159	0.13	0.14895	0.18026	0.23414	0.073663	0.17039	0.016969	0.081014	0.046045	0.14597	0.19579	-1.4583	-2.2625	-1.4438	-2.2604	-1.9104	-1.5604	-2.3729	-1.9312	-1.6	-2.25	-1.7771	-2	-2.1167	-1.3854	-2.2917	-1.7458	391.548	379.643	202.942	380.723	390.531	223.767	312.190	369.461	323.526	376.218	345.053	208.246	107.548	105.021	392.333	351.674	0.001342	0.00042633	0.00028081	578.89	4.2856e-06	3.8745e-06	854.95	166.22	2.9774e-06	1.1534e-05	341.47	135.16	60.094	21.641	4.0549e-06	60.503	0.0009494	0.00086651	0.00022601	648.46	1.0397e-05	9.2021e-06	903.16	190.99	1.0199e-05	9.4523e-06	361.65	143.8	72.267	25.346	9.1489e-06	63.654	77.707	360.718	376.177	70.593	146.145	226.146	71.001	75.880	136.811	387.720	76.568	81.356	81.006	86.387	98.921	85.543	-8191	255	
7903.654	1	1	0	0	0.18375	0.19058	0.23	0.093224	0.084702	0.26031	0.19459	0.22768	0.041732	0.41632	0.1816	0.11256	0.14611	0.19452	0.10871	0.12305	-1.5521	-2.1813	-1.7479	-2.0479	-2.3271	-1.6229	-2.1896	-2.0375	-1.6104	-2.4083	-1.7062	-1.9937	-1.9438	-1.5708	-1.9688	-2.1292	321.023	182.441	174.427	283.696	95.314	332.124	333.303	260.780	198.306	340.494	355.037	390.442	168.487	366.192	180.038	375.763	0.00086983	0.0021645	0.00019098	580.1	3.3904e-06	5.3527e-06	856.25	166.76	4.2249e-06	3.6793e-06	343.13	135.27	59.966	21.954	1.7254e-05	60.455	0.00088903	0.00082881	0.00022585	648.85	9.5243e-06	8.7017e-06	901.38	191.01	9.2901e-06	8.8315e-06	363.01	143.7	70.972	25.202	9.3837e-06	63.6	70.878	224.904	151.537	70.445	415.093	384.852	71.021	75.680	237.836	193.260	76.319	81.114	81.515	86.665	225.908	85.571	-8191	255	
7903.775	1	1	0	0	0.12759	0.19496	0.17517	0.28257	0.097959	0.45879	0.30187	0.17284	0.16066	0.32518	0.2626	0.17832	0.083778	0.18612	0.065094	0.30474	-1.2646	-2.3292	-1.75	-1.85	-2.0125	-1.6792	-2.1479	-1.9875	-1.6708	-2.2	-1.75	-1.8729	-2.1771	-1.6979	-2.1	-2.1958	193.029	373.724	205.222	95.296	397.966	81.078	341.027	362.354	282.779	248.374	384.713	62.166	263.299	212.556	306.055	334.229	0.0011593	0.00052316	0.00036966	575.87	4.5799e-06	3.383e-06	850.46	167.36	1.997e-05	7.5624e-06	342.52	137.48	61.7	22.61	7.8089e-06	61.807	0.00083291	0.0007944	0.00024066	646.13	9.1358e-06	8.487e-06	905.28	191.23	8.908e-06	8.551e-06	367.96	144.6	71.462	25.629	9.6705e-06	64.289	79.880	160.502	168.145	70.366	312.136	276.415	70.828	76.017	403.818	277.124	76.234	81.262	81.464	86.950	205.130	85.545	-8191	255	
7903.869	1	1	0	0	0.30543	0.22748	0.20688	0.10879	0.28491	0.068377	0.054535	0.13313	0.10106	0.24986	0.215	0.28035	0.18657	0.30435	0.24545	0.23099	-1.2604	-2.1083	-1.7021	-2.025	-2.2354	-1.7188	-2.2917	-2.1188	-1.5229	-2.1979	-1.9521	-1.6583	-2.3625	-1.7271	-1.7667	-2.2687	299.220	206.551	244.980	155.409	345.235	166.172	345.135	316.914	189.970	258.483	94.086	410.766	309.356	78.275	301.130	357.058	0.0012429	0.00070884	0.00018971	571.84	8.6566e-06	1.0543e-05	861.12	168.88	9.7961e-06	1.0175e-05	347.76	139	61.883	22.835	3.9796e-06	62.005	0.00077323	0.00075953	0.00024331	632.86	8.5072e-06	8.1219e-06	909.81	189.22	8.1051e-06	8.271e-06	371.23	144.04	70.731	25.753	9.5265e-06	64.052	86.696	85.995	234.226	70.448	77.154	171.383	70.985	76.166	177.906	201.466	76.614	81.405	81.902	86.474	167.121	85.317	-8191	255	
7903.967	1	1	0	0	0.087031	0.16626	0.050473	0.075647	0.24399	0.14645	0.31316	0.39441	0.095083	0.14192	0.039656	0.3285	0.18742	0.12638	0.19646	0.17734	-1.0833	-2.0625	-1.9042	-1.6979	-2.175	-1.6979	-1.9	-2.2292	-1.4146	-2.1854	-2.0708	-1.6396	-2.45	-1.5667	-1.9979	-2.1708	403.105	117.638	303.888	171.362	378.602	113.745	361.141	392.944	348.187	118.032	129.776	59.550	283.143	324.318	215.217	330.089	0.0011432	0.00029764	0.00024166	570.89	3.8184e-06	9.7537e-06	861.87	168.88	7.0052e-06	3.2983e-06	347.78	139.23	62.354	22.698	1.0953e-05	62.366	0.00073293	0.00076849	0.00024342	627.46	8.0817e-06	8.3962e-06	910.32	187.46	7.8209e-06	8.6852e-06	371.1	143.27	70.284	26.094	9.3196e-06	64.022	91.676	104.754	69.309	70.916	189.192	120.522	71.130	76.024	321.226	199.793	76.216	81.422	81.765	86.618	174.778	85.596	-8191	255	
7904.062	1	1	0	0	0.08887	0.14016	0.11652	0.18789	0.16301	0.36911	0.066987	0.08866	0.13381	0.049494	0.29602	0.10439	0.075997	0.07036	0.20405	0.11174	-1.3167	-2.1792	-2.1021	-1.4562	-2.2167	-1.8521	-2.0104	-2.2938	-1.7292	-2.1833	-1.9208	-1.7542	-2.1458	-1.7979	-1.7479	-2.125	132.354	280.829	317.864	368.652	144.116	390.427	396.429	84.342	167.029	373.450	327.152	174.104	60.117	185.672	98.157	59.882	0.0015302	0.00073229	4.4466e-05	576.18	5.6594e-06	9.1642e-06	860.01	170.95	1.4918e-06	9.1471e-06	349.11	141.01	62.642	22.877	9.3769e-06	62.656	0.00071487	0.00081161	0.00023716	625.29	7.8909e-06	8.9358e-06	909.06	187.44	7.8137e-06	9.2013e-06	371.52	144.45	71.263	26.853	9.6471e-06	64.536	77.028	205.324	206.907	70.742	186.062	158.427	70.798	75.936	234.352	238.505	76.584	81.487	81.758	86.945	249.226	85.629	-8191	255	
7904.158	1	1	0	0	0.20908	0.06681	0.24931	0.1765	0.21422	0.12217	0.27815	0.12217	0.28049	0.059751	0.33161	0.3751	0.0056813	0.11321	0.16559	0.13706	-1.3125	-1.9375	-2.1021	-1.6979	-2.3896	-1.8396	-1.8354	-2.2417	-1.8979	-2.0438	-2.0438	-2	-2.3792	-2.0896	-1.9208	-2.5542	137.271	117.010	374.599	338.449	177.526	305.527	346.008	190.972	181.559	149.933	376.738	323.421	211.527	371.412	324.006	196.447	0.001165	0.00095157	0.00016585	579.03	7.9912e-06	1.5159e-05	855.45	168.02	2.3897e-05	2.3838e-06	346.81	137.58	62.345	22.641	1.1272e-05	62.397	0.00082636	0.0009804	0.00026667	643.64	9.8105e-06	1.122e-05	918.41	190.76	9.7728e-06	1.1188e-05	374.24	144.32	73.496	27.423	9.8578e-06	64.564	71.993	217.190	394.454	70.671	191.492	118.329	71.096	76.148	138.080	115.945	76.542	81.083	81.449	86.893	369.439	85.344	-8191	255	
7904.254	1	1	0	0	0.184	0.20476	0.23582	0.26346	0.14356	0.1228	0.14647	0.23191	0.042737	0.11369	0.13495	0.12806	0.18634	0.13687	0.12019	0.1159	-1.375	-1.7062	-2.15	-1.6458	-1.9583	-2.1417	-1.7729	-2.1042	-1.8604	-1.8708	-2.3417	-1.7292	-2.0479	-2.1167	-1.5979	-2.2875	145.013	107.413	113.603	352.121	175.784	309.872	185.772	412.456	198.997	164.555	309.969	64.990	61.313	58.889	139.294	402.243	0.0014784	0.0001286	8.2345e-05	571.49	1.4287e-05	1.043e-05	849.8	169.46	2.7064e-05	1.5944e-06	347.72	139.13	62.653	22.824	5.923e-06	62.756	0.00089123	0.00097176	0.00024811	630.68	9.88e-06	1.0624e-05	905.99	189.53	1.0093e-05	1.0606e-05	371.69	144.55	74.349	27.291	9.4385e-06	64.611	100.184	104.523	71.845	70.600	170.212	74.554	70.745	75.803	150.525	363.821	76.867	81.550	81.752	86.781	276.739	85.292	-8191	255	
7904.374	1	1	0	0	0.0621	0.26253	0.22501	0.33054	0.40088	0.17135	0.12318	0.10191	0.26765	0.16431	0.23121	0.33566	0.32408	0.11368	0.1266	0.21175	-1.4438	-1.7833	-2.2021	-1.8083	-1.9854	-2.0125	-1.7396	-2.4437	-1.7708	-1.7	-2.1979	-1.7583	-2.2188	-2.1167	-1.7188	-2.2229	268.288	98.208	313.840	401.311	385.350	411.740	358.935	267.452	300.834	261.424	390.043	172.044	333.120	320.215	295.087	345.056	0.0017319	0.0010707	0.0001432	576	1.2126e-05	6.6716e-06	857.73	168.52	7.9398e-06	5.0584e-06	347.83	141.5	63.084	23.375	4.5969e-06	64.637	0.00094211	0.00092902	0.00024398	633.18	1.0486e-05	1.0246e-05	905.36	189.72	1.0701e-05	1.0026e-05	372.14	147.27	76.375	27.593	9.3306e-06	66.89	83.630	345.795	143.107	70.705	195.083	343.755	70.987	76.181	196.562	310.339	76.392	81.110	81.324	86.873	389.579	85.325	-8191	255	
7904.471	1	1	0	0	0.26156	0.095013	0.17128	0.38801	0.24471	0.1224	0.15125	0.19236	0.16032	0.34083	0.11294	0.12713	0.25345	0.19889	0.33668	0.034451	-1.5417	-1.7354	-2.175	-2.2104	-1.75	-2.1479	-1.5688	-2.2313	-1.8104	-1.6021	-2.4458	-1.5646	-2.0042	-2.0583	-1.6458	-2.2354	180.255	291.041	223.626	354.189	339.488	70.404	341.866	402.891	283.506	86.939	363.383	383.397	349.146	320.562	373.953	268.448	0.0014368	0.00055203	0.0002255	571.11	2.851e-06	6.5257e-06	856.6	172.22	1.1236e-05	1.8094e-06	357.14	145.1	64.554	23.994	1.014e-05	65.58	0.00099348	0.00089439	0.00024041	637.01	1.0718e-05	9.6495e-06	905.97	194.74	1.0695e-05	9.4959e-06	378.32	151.61	77.117	27.827	8.8149e-06	67.954	83.394	86.018	152.222	70.042	369.875	219.478	71.013	76.303	251.335	100.545	76.510	81.110	81.888	86.359	201.142	85.290	-8191	255	
7904.567	1	1	0	0	0.10017	0.20233	0.12478	0.27896	0.14389	0.045209	0.13526	0.26572	0.1911	0.11672	0.25531	0.27013	0.090934	0.21946	0.13696	0.10369	-1.5625	-1.4271	-2.1146	-1.7208	-1.8146	-2.1958	-1.7104	-2.3375	-1.9208	-1.6333	-2.4083	-2.0042	-2.0229	-2.1188	-1.7417	-2.2667	306.988	318.350	89.764	83.884	319.027	119.717	392.654	318.912	401.890	393.203	418.212	382.721	374.357	245.436	71.445	60.768	0.00094057	0.00047949	0.00024485	575.14	5.0906e-06	5.4562e-06	862.74	172.55	9.6552e-06	2.4963e-06	356.34	145.53	64.838	24.037	6.5914e-06	65.967	0.00094251	0.00083281	0.0002275	643.89	9.9726e-06	9.1281e-06	906.25	195.63	9.6572e-06	8.6153e-06	374.11	152.04	75.048	27.252	8.2333e-06	67.79	95.810	134.903	118.589	70.762	283.721	271.186	70.947	76.437	244.982	349.788	76.642	81.444	81.686	87.008	251.735	85.354	-8191	255	
7904.663	1	1	0	0	0.34076	0.057339	0.2894	0.21692	0.24834	0.13214	0.18376	0.1681	0.12739	0.14962	0.22365	0.098676	0.049453	0.18475	0.12584	0.36629	-1.6625	-1.6729	-2.3396	-1.9542	-1.6313	-2.2458	-1.6792	-2.0563	-1.8438	-1.8146	-2.4125	-2.1229	-1.9813	-2.2562	-1.5625	-2.0938	321.412	392.181	290.064	59.691	252.110	413.448	266.810	127.707	145.403	159.839	333.849	286.466	297.832	380.106	77.852	97.494	0.0014091	0.00037483	0.00019331	571.92	1.788e-06	6.3686e-06	861.8	171.52	4.1873e-06	5.5443e-06	353.6	141.78	64.096	23.427	1.974e-05	63.836	0.00083343	0.00075008	0.00021563	639.63	8.918e-06	8.5337e-06	902.67	194.65	9.0951e-06	8.3393e-06	372.79	149.77	73.496	26.703	8.8765e-06	66.487	78.977	213.149	108.613	70.813	112.069	342.163	70.951	76.233	183.944	202.046	76.372	81.399	81.248	86.413	227.402	85.403	-8191	255	
7904.759	1	1	0	0	0.08597	0.17072	0.24112	0.17769	0.29282	0.15556	0.238	0.20165	0.09183	0.15049	0.23046	0.2011	0.063362	0.1879	0.067058	0.20625	-1.7104	-1.5562	-2.1458	-2	-1.6771	-2.5125	-1.825	-2.1292	-2.2375	-1.6042	-2.4188	-2.0333	-1.6083	-2.2792	-1.7396	-2.0771	333.633	262.580	192.041	68.776	321.692	317.249	58.496	383.813	85.648	303.965	371.923	71.330	286.037	87.627	112.372	369.378	0.0010774	0.00024692	0.00017483	573.93	3.6976e-06	2.5829e-06	857.85	169.59	7.367e-06	3.0135e-06	348.7	139.52	62.114	22.835	1.3768e-05	62.611	0.00080971	0.0007396	0.00022878	640.63	8.4931e-06	8.2056e-06	906.73	191.31	8.7954e-06	8.2433e-06	372.6	146.82	71.673	26.088	9.9312e-06	65.244	74.699	197.459	166.458	70.772	93.741	113.348	70.907	76.146	225.074	82.491	76.347	81.374	81.541	87.157	194.757	85.491	-8191	255	
7904.855	1	1	0	0	0.18225	0.26336	0.040704	0.21679	0.22537	0.26295	0.12871	0.16688	0.10265	0.12496	0.30138	0.11494	0.21832	0.11213	0.28588	0.1467	-1.7083	-1.5792	-1.9708	-2.0125	-1.5271	-2.1292	-1.925	-1.8042	-2.1437	-1.6771	-1.8333	-2.4562	-1.6708	-2.2417	-2.0333	-1.9	409.980	134.117	189.068	150.208	143.286	182.001	347.371	373.108	308.588	208.936	400.192	158.942	222.182	416.551	248.188	61.617	0.0011325	0.00040341	0.00036225	576.24	6.3501e-06	1.2682e-05	855.44	168.14	3.2558e-06	1.2212e-05	347.24	138.33	61.968	22.671	1.0892e-05	62.472	0.00082906	0.00078314	0.00025691	644.52	8.7902e-06	8.769e-06	917.41	189.99	8.9813e-06	8.7375e-06	374.28	145.39	71.072	26.107	1.0274e-05	64.605	91.694	319.886	133.207	70.053	412.435	192.720	71.147	76.297	325.841	236.380	76.730	81.390	81.797	86.584	151.185	85.041	-8191	255	
7904.950	1	1	0	0	0.18895	0.12983	0.19648	0.29679	0.11474	0.13568	0.1969	0.062403	0.078639	0.43105	0.26202	0.14788	0.082496	0.10206	0.2194	0.099224	-1.9042	-1.5896	-2.0875	-2.1417	-1.5896	-2.2292	-2.1021	-1.6187	-2.5563	-1.7042	-2.0104	-2.1	-1.6646	-2.2208	-1.8875	-1.8542	171.944	242.544	84.057	333.707	65.377	125.621	384.319	384.978	235.804	335.386	84.277	401.877	81.535	70.090	361.214	123.758	0.0014862	0.001549	0.00018291	574.01	8.52e-06	7.3881e-06	862.8	167.33	9.9727e-06	9.8308e-06	345.76	137.13	60.842	22.09	8.5035e-06	60.976	0.00079898	0.00080515	0.00025591	635.69	8.2845e-06	8.9281e-06	916.43	186.94	8.4493e-06	9.0334e-06	371.5	142.56	69.333	25.875	1.0253e-05	63.028	88.921	184.801	330.337	70.375	114.939	209.747	71.059	75.904	127.323	213.813	76.385	81.317	81.524	86.649	73.695	85.569	-8191	255	
7905.047	1	1	0	0	0.030377	0.19182	0.069112	0.15559	0.090045	0.13974	0.14839	0.1899	0.11611	0.05396	0.12485	0.49175	0.068733	0.19302	0.49055	0.17029	-1.6479	-1.6083	-1.8146	-2.4562	-1.5604	-2.0438	-2.0833	-1.625	-2.1542	-1.7917	-1.75	-2.4167	-1.5562	-2.1896	-2.1604	-1.6292	160.636	252.510	351.422	363.953	405.171	206.147	160.606	274.479	161.509	149.892	269.503	383.599	380.736	127.209	397.870	238.480	0.001128	0.0003782	3.5197e-05	578.12	3.8936e-06	1.0438e-05	853.6	165.21	7.9485e-06	7.667e-06	340.23	134.5	59.253	21.417	3.9227e-06	60.515	0.00079669	0.00088102	0.00025479	636.88	8.4203e-06	9.7583e-06	913.4	184.91	8.7016e-06	1.0045e-05	366.28	140.99	69.217	26.01	1.0241e-05	62.383	74.646	275.670	272.632	70.364	134.042	171.243	70.614	76.355	188.290	155.108	76.575	81.244	81.623	86.909	88.721	85.286	-8191	255	
7905.166	1	1	0	0	0.098868	0.28072	0.26945	0.32492	0.19414	0.25734	0.12846	0.042997	0.055163	0.093404	0.068935	0.16565	0.17016	0.16116	0.014177	0.1999	-1.9312	-1.7729	-1.8229	-2.2375	-1.9271	-2.0187	-2.3333	-1.75	-2.1	-1.95	-1.7375	-2.3625	-1.6708	-2.05	-2.0312	-1.7583	193.526	245.189	350.809	345.161	208.283	376.555	257.686	114.020	167.842	353.445	415.061	60.953	62.839	378.355	207.892	355.422	0.0012283	0.0018614	0.00018179	575.28	3.508e-06	1.3194e-05	843.38	162.89	1.7493e-05	2.7556e-06	336.31	132.98	58.936	21.353	6.5949e-06	60.09	0.00084406	0.00097391	0.0002556	638.33	9.2076e-06	1.0692e-05	905.06	183.61	9.3254e-06	1.0626e-05	361.95	139.63	69.695	26.028	9.6362e-06	62.025	88.305	184.984	178.057	70.376	209.074	250.664	70.959	76.136	168.109	205.137	76.411	81.200	81.352	86.600	109.219	85.444	-8191	255	
7905.263	1	1	0	0	0.24171	0.30786	0.079832	0.19945	0.084626	0.023434	0.11027	0.048787	0.10711	0.11402	0.24301	0.13063	0.18303	0.12032	0.090374	0.098497	-1.7229	-2	-1.6063	-2.4208	-1.4396	-1.9688	-2.2896	-1.8458	-2.0854	-2.2771	-1.8687	-2.4062	-1.7167	-1.9208	-2.2625	-1.6792	244.298	243.053	381.358	415.277	199.367	388.839	291.478	272.241	202.084	186.612	236.495	360.866	372.554	412.358	209.056	399.495	0.0013146	0.000473	0.00018965	573.27	1.4245e-05	7.8586e-06	844.69	163.74	5.893e-06	8.4148e-06	338.3	133.77	59.39	21.643	1.001e-05	60.317	0.00087799	0.00096122	0.0002382	633.03	9.6866e-06	1.0347e-05	901.85	183.59	1.0073e-05	1.0681e-05	362.21	140.67	71.761	26.222	9.7564e-06	62.619	89.216	111.685	359.951	70.701	198.094	319.190	70.927	76.067	187.441	386.970	76.302	81.083	81.414	86.592	227.614	85.337	-8191	255	
7905.334	1	1	0	0	0.16008	0.24005	0.22799	0.014643	0.22222	0.32535	0.32765	0.30206	0.032849	0.16981	0.16333	0.060257	0.1692	0.13697	0.099705	0.20872	-1.5771	-2.1417	-1.7021	-2.2479	-2.025	-1.7292	-2.4792	-1.7771	-2.1271	-2.0667	-1.7667	-2.3292	-1.8937	-1.8813	-2.2917	-1.8396	283.604	275.945	306.360	414.026	303.347	185.843	389.271	416.225	348.220	150.544	262.635	375.155	336.875	233.876	413.233	313.514	0.0011755	0.00099272	5.1658e-05	573.91	8.0906e-06	3.6585e-06	850.35	165.3	2.0626e-05	2.7794e-06	343.08	136.91	60.717	22.032	2.6605e-06	61.727	0.00095317	0.00094732	0.00023687	632.82	1.0367e-05	9.9944e-06	902.69	185.04	1.0317e-05	9.8678e-06	363.14	142.74	72.912	26.004	8.8991e-06	63.634	93.736	345.599	255.393	70.456	217.292	366.016	71.073	76.246	182.625	262.073	76.466	81.291	81.282	86.561	79.589	85.340	-8191	255	
7905.455	1	1	0	0	0.11268	0.091772	0.20461	0.28984	0.2077	0.27698	0.15584	0.25747	0.25146	0.34559	0.2437	0.11538	0.11883	0.11381	0.22625	0.13842	-1.5292	-2.0938	-1.6229	-2.2729	-2.1979	-1.5688	-2.4813	-1.7875	-1.9229	-2.1167	-1.6437	-2.2417	-2.0833	-1.7229	-2.2812	-1.8333	376.356	164.948	194.773	60.038	169.381	405.912	336.066	387.645	302.618	343.155	366.221	126.084	312.146	355.953	81.205	281.435	0.0011818	0.00050328	0.00025286	575.09	7.8065e-06	9.2976e-06	857.61	169.62	9.2072e-06	2.805e-06	351.55	144.1	63.971	23.604	8.5392e-06	64.844	0.00091717	0.00084306	0.00021513	632.49	9.9546e-06	8.8199e-06	897.93	187.87	9.4113e-06	8.4575e-06	365.27	147.35	73.244	26.272	7.4301e-06	65.568	85.411	324.923	344.421	70.302	200.739	287.646	70.828	76.036	232.255	160.325	76.282	81.285	81.352	86.643	280.436	85.426	-8191	255	
7905.551	1	1	0	0	0.24093	0.098797	0.11335	0.24271	0.21906	0.093278	0.40197	0.27457	0.35421	0.27934	0.26288	0.13144	0.15637	0.078566	0.19749	0.28319	-1.4438	-2.1625	-1.65	-2.1896	-1.8438	-1.7938	-2.1854	-1.8438	-1.7646	-2.2771	-1.6667	-2.2938	-1.9896	-1.6958	-2.2104	-1.9292	395.961	159.457	262.732	115.243	74.934	174.416	338.726	181.112	105.655	292.192	346.990	393.196	410.667	311.808	78.313	83.776	0.00088002	0.00031708	8.9139e-05	574.49	1.7868e-06	7.8721e-06	862.33	170.53	1.0325e-05	6.0371e-06	347.2	139.43	61.618	22.332	1.2807e-05	61.79	0.00077262	0.00070789	0.00018585	627.47	8.7524e-06	7.9217e-06	895.41	188.53	9.0682e-06	8.4502e-06	361.88	145.18	71.628	25.562	8.2731e-06	64.536	77.048	179.154	370.662	70.459	273.947	321.797	71.010	76.098	346.851	353.266	76.619	81.340	81.557	86.615	271.617	85.318	-8191	255	
7905.647	1	1	0	0	0.1011	0.1816	0.21227	0.078675	0.077072	0.33161	0.15231	0.14649	0.25378	0.14959	0.13314	0.10563	0.13027	0.14776	0.27327	0.34557	-1.275	-2.2313	-1.4854	-2.025	-2.0354	-1.7938	-2.1833	-2.1375	-1.65	-2.4313	-1.775	-2.1333	-2.5146	-1.5667	-2.4062	-2.0354	180.011	409.001	242.790	171.256	373.903	277.100	378.041	395.798	156.833	305.982	345.231	247.608	208.172	356.796	250.074	365.300	0.00090311	0.00036388	0.00028566	572.03	6.5762e-06	8.9355e-07	852.56	169.01	8.0279e-06	4.7471e-06	347.51	140.79	62.005	22.951	1.8398e-05	63.087	0.00079984	0.00075316	0.00020483	634.49	8.731e-06	7.8345e-06	891.3	189.47	8.3723e-06	7.9439e-06	364.19	146.29	71.063	25.624	8.4038e-06	65.066	99.089	319.010	108.742	70.568	357.368	392.047	70.931	76.273	403.094	95.660	76.648	81.007	81.358	86.600	241.131	85.339	-8191	255	
7905.768	1	1	0	0	0.174	0.033156	0.19935	0.16068	0.37466	0.24613	0.083795	0.18454	0.31545	0.29708	0.16443	0.25178	0.11784	0.11957	0.21915	0.26341	-1.2875	-2.3125	-1.8708	-1.9208	-2.0583	-1.7062	-2.2458	-1.9542	-1.5208	-2.4146	-1.9271	-1.7313	-2.175	-1.6583	-1.9646	-2.3042	79.618	63.321	217.625	121.286	209.112	403.997	225.234	307.432	229.962	103.871	344.999	87.726	158.060	338.772	184.005	385.228	0.0010132	0.00060005	0.00026928	573.39	6.0791e-06	3.8345e-06	859.36	166.68	2.579e-06	1.7286e-06	345.6	138.22	60.965	22.165	1.1604e-05	62.232	0.00074897	0.00071089	0.00021477	631.97	8.1795e-06	7.5376e-06	898.62	187.38	7.8719e-06	7.6815e-06	363.99	143.67	69.42	24.952	8.8485e-06	63.771	96.979	361.604	139.975	70.262	244.230	65.778	70.834	76.171	277.433	242.698	76.552	81.086	81.752	87.195	231.067	85.353	-8191	255	
7905.862	1	1	0	0	0.25367	0.058827	0.03953	0.085745	0.21117	0.014515	0.099778	0.14229	0.084365	0.15386	0.33645	0.12636	0.1236	0.19588	0.29879	0.24365	-1.2458	-2.2792	-1.8125	-2.1271	-2.0583	-1.5833	-2.35	-1.9937	-1.5938	-2.0833	-2.0229	-1.8521	-2.2604	-1.7437	-1.8292	-2.0479	65.278	92.191	334.238	213.232	319.485	206.305	269.378	161.213	286.170	323.894	307.834	324.841	235.551	337.882	168.822	318.462	0.0010993	0.00019737	0.00020915	569.83	7.4059e-06	5.1357e-06	855.6	167.27	7.171e-06	2.7747e-06	343.86	136.23	60.098	21.983	4.7425e-06	60.909	0.00071283	0.0006991	0.00022423	625.4	7.717e-06	7.385e-06	900.09	184.7	7.3557e-06	7.39e-06	363.68	140.99	67.64	24.575	8.7082e-06	62.231	77.933	316.198	142.805	70.444	193.766	232.938	71.140	76.130	256.454	226.121	76.538	81.502	81.935	86.764	373.223	85.136	-8191	255	
7905.936	1	1	0	0	0.17478	0.19745	0.26802	0.19256	0.32798	0.053079	0.27088	0.40183	0.23759	0.16778	0.074698	0.1666	0.20503	0.10063	0.11136	0.10631	-1.2854	-2.1583	-1.8083	-2.0208	-1.9979	-1.6833	-2.025	-2.2354	-1.3312	-2.3104	-2.2313	-1.7417	-2.3	-1.9667	-2.0438	-2.3625	135.251	393.377	76.520	363.452	159.213	207.030	84.775	374.226	128.055	81.242	404.119	58.761	73.581	146.846	59.395	359.823	0.0013371	0.0010176	0.0001657	573.49	5.3601e-06	8.5806e-06	856.09	165.24	4.0678e-06	4.372e-06	338.26	134.63	59.272	21.455	1.0334e-05	60.092	0.00067846	0.00071696	0.00023006	625.4	7.7819e-06	8.1217e-06	904.59	182.77	7.6074e-06	8.3447e-06	362.08	138.94	67.204	24.707	8.937e-06	61.614	83.263	175.731	224.821	70.373	289.136	136.008	70.819	75.817	105.192	144.757	76.269	81.299	81.569	86.666	119.946	85.498	-8191	255	
7906.054	1	1	0	0	0.25336	0.27777	0.089744	0.27295	0.23081	0.35367	0.13925	0.13511	0.28568	0.098552	0.1162	0.19018	0.25378	0.057373	0.12648	0.24901	-1.1604	-2.1667	-2.1271	-1.6896	-2.325	-1.8312	-1.9542	-2.3292	-1.7708	-2.2542	-2.1063	-1.6812	-2.2687	-2.0354	-1.8208	-2.2146	291.098	378.635	389.010	411.611	190.049	362.871	346.752	371.696	413.154	110.903	379.371	416.127	373.270	326.561	183.496	382.990	0.001408	0.00096287	0.00015625	576.75	8.3788e-06	7.012e-06	851.22	163.91	5.0017e-06	7.6694e-06	337.54	132.25	58.207	20.997	5.9051e-06	58.759	0.00068003	0.00077542	0.0002268	621.91	7.6497e-06	8.6249e-06	895.31	180.81	7.504e-06	8.789e-06	357.27	136.19	66.439	24.721	8.9363e-06	60.529	86.084	137.742	285.859	70.376	231.808	166.956	70.869	76.083	211.325	239.274	76.381	81.285	81.244	86.734	325.437	85.548	-8191	255	
7906.151	1	1	0	0	0.10317	0.1673	0.077597	0.12768	0.10581	0.11725	0.21897	0.14778	0.12011	0.26567	0.18161	0.11256	0.17004	0.19555	0.097482	0.29824	-1.1063	-2.0563	-2.0958	-1.8021	-2.3333	-1.8167	-1.9917	-2.2917	-1.925	-1.8708	-2.1813	-1.8458	-2.1458	-2.175	-1.7104	-2.3083	379.791	313.717	281.027	239.385	85.126	206.368	83.017	129.439	65.767	98.933	82.629	275.106	88.136	158.246	357.890	368.641	0.0018491	0.00096763	2.2297e-05	570.35	1.3056e-05	2.4816e-06	841.68	161.53	1.0699e-05	2.3782e-06	334.33	131.32	57.559	20.748	1.0962e-05	58.503	0.00073758	0.00086103	0.00023003	621.51	8.2096e-06	9.3849e-06	889.46	178.74	8.1501e-06	9.4199e-06	353.23	135.42	66.925	24.776	8.5553e-06	60.185	96.001	206.676	360.162	70.427	216.042	175.373	70.886	75.716	196.203	239.988	76.253	81.137	81.493	87.017	373.619	85.343	-8191	255	
7906.247	1	1	0	0	0.119	0.29922	0.12183	0.365	0.27314	0.038071	0.23683	0.13317	0.12831	0.065487	0.15756	0.16231	0.34942	0.2703	0.10565	0.27229	-1.2729	-1.8979	-2.0354	-1.6104	-2.1312	-1.7354	-1.8729	-2.3396	-1.8042	-1.8188	-2.3187	-1.4521	-2.125	-2.1125	-1.6417	-2.3958	111.333	250.967	278.025	64.667	288.846	348.024	152.600	382.452	376.503	81.024	305.131	104.031	343.438	393.962	323.115	348.695	0.0012688	0.00054432	0.00012355	569.61	1.4918e-05	6.8073e-06	845.5	161.87	5.6445e-06	9.0161e-06	333.24	131.91	58.21	20.906	5.4348e-06	59.137	0.00078193	0.00085965	0.00022089	619.43	8.7781e-06	9.4422e-06	885.92	179.07	8.8758e-06	9.3108e-06	352.86	135.92	68.352	24.783	8.3381e-06	60.509	73.926	138.338	351.091	70.399	121.344	164.112	70.970	76.356	180.448	88.417	76.604	81.306	81.026	86.264	414.840	85.493	-8191	255	
7906.343	1	1	0	0	0.15552	0.29997	0.24929	0.16337	0.20883	0.3295	0.30788	0.15639	0.15373	0.23649	0.11063	0.28	0.1866	0.11475	0.18395	0.30081	-1.5938	-1.8125	-2.425	-1.7333	-2.1542	-2.0896	-1.8417	-2.3479	-1.8208	-1.7729	-2.2062	-1.9062	-2.0354	-2.1625	-1.6375	-2.3146	58.342	274.459	369.139	244.939	304.072	127.460	349.088	354.705	248.372	405.285	417.430	99.785	109.195	87.426	94.983	385.461	0.0013628	0.00036119	0.00030292	573.89	2.4651e-06	9.0678e-06	846.73	162.48	4.2175e-06	4.3152e-06	335.97	132.99	58.841	21.021	3.2339e-06	59.5	0.00083881	0.00082419	0.00021517	620.28	9.3041e-06	9.0812e-06	884.09	180.14	9.2494e-06	8.7965e-06	353.62	136.95	69.309	24.646	8.0926e-06	61.127	97.222	322.603	98.752	70.479	236.486	74.954	70.925	75.843	156.588	129.864	76.237	81.444	82.104	86.126	408.280	85.680	-8191	255	
7906.464	1	1	0	0	0.12034	0.082568	0.11449	0.13942	0.068365	0.20298	0.42394	0.17163	0.15149	0.25067	0.23308	0.37814	0.047308	0.19079	0.30076	0.12532	-1.5104	-1.6042	-2.0479	-1.7646	-2.0104	-2.2104	-1.7917	-2.2083	-1.9458	-1.6521	-2.2125	-1.7208	-1.9188	-2.2458	-1.6938	-2.0354	129.523	61.926	415.570	88.321	416.067	376.563	336.510	62.047	408.251	411.682	83.907	391.370	307.685	325.777	327.306	90.728	0.001577	0.00067996	4.4258e-05	574.77	1.3902e-05	4.4212e-06	851.68	163.35	1.2243e-05	2.3201e-06	335.71	132.78	58.157	20.929	6.1057e-06	59.313	0.00086102	0.00078523	0.00020981	624.59	9.4015e-06	8.5848e-06	884.9	181.3	9.2992e-06	8.2305e-06	351.61	137.37	68.34	24.098	7.5891e-06	60.909	87.799	343.662	313.300	70.577	141.753	372.428	71.093	76.139	253.899	174.906	76.129	81.430	81.578	86.770	299.700	85.353	-8191	255	
7906.560	1	1	0	0	0.078279	0.087055	0.070688	0.12293	0.11558	0.15624	0.20344	0.10746	0.055851	0.34428	0.057908	0.30849	0.34803	0.047879	0.12556	0.33696	-1.6437	-1.6292	-2.3854	-1.8687	-1.7542	-2.3646	-1.5562	-2.1104	-2.0938	-1.6146	-2.1792	-1.8396	-1.875	-2.0896	-1.6271	-1.9417	321.788	58.304	415.704	407.010	249.890	127.881	399.456	62.499	183.005	168.168	128.261	335.959	275.646	298.959	148.258	246.837	0.00099641	0.00096772	0.00017363	569.89	6.23e-06	1.7637e-06	850.98	162.28	6.4991e-06	2.3767e-06	335.78	131.37	57.518	20.747	3.6798e-06	58.295	0.00080542	0.00070793	0.00019197	623.7	8.3758e-06	7.7273e-06	876.45	180.37	8.2926e-06	7.4466e-06	346.74	136.16	66.196	23.523	7.2605e-06	60.141	103.119	142.291	268.817	70.343	198.253	364.006	70.889	76.094	80.789	244.044	76.427	81.384	81.519	86.647	151.205	85.339	-8191	255	
7906.631	1	1	0	0	0.2019	0.098332	0.036543	0.25943	0.092969	0.3265	0.13883	0.23761	0.084162	0.062194	0.2746	0.35463	0.026344	0.020129	0.048353	0.17269	-1.725	-1.5125	-2.275	-1.9125	-1.7708	-2.3583	-2.0187	-2.0729	-2.1312	-1.6354	-2.3542	-2.3104	-1.7167	-2.2542	-1.7854	-1.9458	77.570	321.924	196.746	332.787	367.098	145.119	74.416	344.300	105.921	352.181	364.589	394.861	278.569	249.826	297.164	257.484	0.0013657	0.00067006	0.00011596	569.17	5.5104e-06	6.4268e-06	841.1	161.46	4.4955e-06	3.4525e-06	337.45	132.07	58.346	21.003	1.4337e-05	59.343	0.00073083	0.0006567	0.00018723	622.19	7.6733e-06	7.2319e-06	871.01	178.92	7.4728e-06	6.7615e-06	346.37	136.12	65.055	23.296	7.0113e-06	60.355	91.702	222.011	66.627	70.575	195.519	116.971	71.109	75.819	299.380	323.874	76.376	81.234	81.164	86.582	271.463	85.472	-8191	255	
7906.727	1	1	0	0	0.38252	0.18034	0.3454	0.16082	0.12175	0.087681	0.1925	0.18012	0.13596	0.099092	0.29132	0.38999	0.10728	0.074284	0.13514	0.11318	-1.6812	-1.425	-2.1375	-2.1167	-1.6646	-2.2417	-1.8	-1.9354	-2.0938	-1.5542	-2.3312	-1.95	-1.7188	-2.3312	-1.8062	-1.9854	79.641	371.308	262.360	404.968	397.335	168.784	318.826	359.251	299.856	245.039	101.094	94.999	142.124	324.642	179.009	317.414	0.00096866	0.00071208	9.9393e-05	571.51	4.6475e-06	9.2433e-07	849.87	162.38	8.5359e-06	4.7207e-06	337.65	132.42	58.794	21.311	7.0706e-06	60.24	0.00063987	0.00058404	0.00017991	614.6	6.7703e-06	6.556e-06	876.34	177.92	6.9292e-06	6.4681e-06	349.3	136.19	64.882	23.392	7.4666e-06	60.83	99.914	404.292	87.712	70.475	331.892	224.803	70.999	76.205	274.090	361.073	76.466	81.620	81.240	86.878	210.706	85.121	-8191	255	
7906.848	1	1	0	0	0.16978	0.14088	0.1416	0.1006	0.24497	0.085322	0.25827	0.31175	0.12596	0.1723	0.10173	0.11459	0.27783	0.070302	0.32588	0.27386	-1.7104	-1.3771	-2.1562	-2.1583	-1.5438	-2.2438	-1.8792	-1.7125	-2.1688	-1.5083	-1.9771	-2.1792	-1.6854	-2.2479	-2.0917	-1.7354	188.625	400.826	75.468	289.129	79.317	373.866	364.676	230.336	110.510	413.520	118.960	375.329	358.132	170.757	198.220	204.703	0.0013311	0.00063967	2.4603e-05	572.69	2.2346e-06	1.0088e-05	851.98	164.18	6.3552e-06	2.6867e-06	341.55	136.29	60.185	21.995	6.5152e-06	61.952	0.0006275	0.0005816	0.00019038	613.06	6.5946e-06	6.5303e-06	883.92	178.52	6.6556e-06	6.5124e-06	355.38	138.27	65.823	24.023	7.6419e-06	61.822	69.347	399.348	346.576	70.480	147.845	143.695	71.045	76.241	399.692	199.167	76.168	81.225	81.193	86.378	247.871	85.221	-8191	255	
7906.943	1	1	0	0	0.20259	0.017064	0.010693	0.21377	0.22538	0.15929	0.21475	0.05003	0.2337	0.27176	0.38547	0.18543	0.30997	0.1594	0.087692	0.24279	-1.9062	-1.6833	-2.1854	-2.1458	-1.6729	-2.0854	-2.1896	-1.7188	-2.3063	-1.8667	-2.1333	-2.35	-1.675	-2.3187	-1.9646	-1.7833	284.015	147.977	169.400	408.724	346.804	249.950	361.638	415.199	271.608	201.165	410.503	331.085	368.877	365.326	90.701	97.634	0.0013044	0.00016631	4.24e-05	574.69	1.1674e-05	1.2058e-05	862.48	167.64	5.6329e-06	6.5047e-06	343.64	136.71	59.601	21.657	9.442e-06	61.337	0.00060785	0.00061122	0.00019352	610.6	6.3726e-06	6.7602e-06	888.53	178.44	6.4159e-06	6.8174e-06	355.64	137.7	64.918	24.055	7.5944e-06	61.157	82.965	136.686	277.151	70.676	205.481	187.858	71.026	75.752	252.219	203.344	76.565	81.306	82.084	86.415	188.720	85.327	-8191	255	
7907.039	1	1	0	0	0.13462	0.12459	0.20261	0.16868	0.28545	0.16635	0.22445	0.26047	0.22516	0.15227	0.21165	0.095082	0.26441	0.24381	0.14836	0.17769	-1.8417	-1.7021	-1.7479	-2.0833	-1.6063	-2.1208	-1.9833	-1.6542	-2.2812	-1.9479	-2.0438	-2.5417	-1.8	-2.025	-2.0646	-1.8104	96.171	317.178	270.229	349.395	292.522	181.646	334.377	369.597	72.668	162.949	81.304	353.756	314.839	128.894	387.626	346.205	0.0011687	0.0010864	0.00023062	572.3	9.708e-06	1.7607e-06	859.74	166.62	6.7748e-06	4.1598e-06	345.85	137.3	59.656	21.541	1.5773e-06	60.573	0.00059256	0.00063869	0.0001853	605.06	6.055e-06	6.8557e-06	879.97	176.47	5.9248e-06	6.7144e-06	351.52	136.78	64.28	23.902	6.8686e-06	60.199	86.148	174.652	182.006	70.565	195.605	156.869	70.923	76.348	349.186	219.502	76.351	81.615	81.503	86.783	300.354	85.453	-8191	255	
7907.135	1	1	0	0	0.16349	0.18706	0.28932	0.19941	0.30547	0.10552	0.15521	0.22456	0.27054	0.13621	0.20407	0.1148	0.38544	0.15881	0.23936	0.11294	-1.9479	-2.0104	-2.0354	-2.1042	-1.8146	-2.0771	-2.1958	-2.0667	-2.225	-1.9396	-2.1271	-2.3	-1.7604	-2.1063	-2.1417	-1.7021	226.213	223.670	390.637	365.284	260.946	234.307	70.524	144.180	300.622	122.970	217.988	390.554	397.294	416.660	257.979	301.863	0.0015582	0.00061655	8.5819e-05	573	8.029e-06	6.5987e-06	858.71	164.62	1.1142e-05	5.1297e-06	344.42	136.31	59.8	21.628	8.5794e-06	61.346	0.00058004	0.00065954	0.00017524	603.54	6.3817e-06	7.2878e-06	875.45	174.69	6.4144e-06	7.1817e-06	349.14	135.87	64.769	23.976	6.5814e-06	60.307	81.012	189.095	129.576	70.805	166.286	233.856	71.224	76.248	199.707	111.908	76.499	81.373	81.515	86.864	149.875	85.796	-8191	255	
7907.231	1	1	0	0	0.017617	0.15066	0.29603	0.093556	0.11809	0.20552	0.13145	0.19007	0.20292	0.22469	0.20377	0.08457	0.32565	0.095293	0.10616	0.022354	-1.7771	-2.0521	-1.7521	-2.5417	-1.6063	-1.8354	-2.2042	-1.7375	-1.9292	-2.0563	-1.4937	-2.5	-1.7062	-2.0854	-2.2	-1.8312	132.737	393.135	396.433	375.424	206.568	170.357	333.611	400.154	380.979	300.637	368.661	399.236	211.567	384.735	397.464	148.205	0.0014089	0.00017596	0.00015793	573.62	4.3046e-06	4.0557e-07	861.45	166.36	1.8906e-05	1.5523e-06	345.1	137.8	60.409	21.642	1.0032e-05	61.456	0.00059889	0.00064841	0.00016348	599.67	6.5493e-06	7.0347e-06	876.18	174.47	6.7133e-06	7.0374e-06	349	136.33	66.121	23.929	6.39e-06	60.445	84.396	93.132	402.846	70.459	90.881	229.642	71.279	76.008	190.262	143.178	76.685	81.802	82.067	87.199	217.819	85.515	-8191	255	
7907.327	1	1	0	0	0.091873	0.28258	0.20125	0.18321	0.25616	0.21492	0.29506	0.13338	0.23294	0.085967	0.18373	0.2204	0.13297	0.11098	0.25485	0.22509	-1.6437	-2.0229	-1.6417	-2.4167	-1.8333	-1.8458	-2.3312	-1.7292	-2.1375	-2.0375	-1.8792	-2.4208	-1.9458	-1.7896	-2.3125	-1.6542	362.501	324.222	394.717	361.445	78.402	267.258	327.170	416.365	122.226	399.539	373.728	346.550	401.280	152.637	334.449	395.587	0.0015745	0.00052773	9.5722e-05	577.72	9.9285e-06	2.9651e-06	868.69	168.22	1.019e-05	6.0825e-06	349.4	140.2	61.17	21.985	5.3146e-06	62.636	0.00062816	0.00062319	0.0001563	601.19	6.8205e-06	6.5067e-06	874.66	175	6.6133e-06	6.2546e-06	349.33	137.72	66.004	23.675	5.6707e-06	60.967	85.205	67.752	245.205	70.692	172.170	404.756	71.230	76.263	102.927	403.969	76.758	81.674	82.263	87.070	217.533	85.633	-8191	255	
7907.448	1	1	0	0	0.097839	0.098877	0.22804	0.092015	0.039673	0.2109	0.38344	0.35235	0.30792	0.07476	0.17376	0.036445	0.087409	0.091073	0.29303	0.10575	-1.55	-2.1333	-1.5542	-2.4896	-1.7708	-1.9417	-2.3063	-1.7896	-2.0021	-2.3229	-1.9021	-2.4583	-1.9604	-1.8833	-2.2062	-1.8042	238.414	125.329	355.893	305.927	154.786	396.861	388.671	204.708	320.359	346.701	301.544	351.782	79.324	266.725	193.242	61.961	0.0013068	0.00059143	0.00015528	576.75	7.4136e-06	1.4326e-06	867.78	168.08	4.891e-06	4.12e-06	348.4	138.04	60.657	21.643	1.0142e-05	61.61	0.0005849	0.00054097	0.00014097	598.84	6.4582e-06	5.8821e-06	871.67	175.33	6.5534e-06	6.0672e-06	347.34	137.24	65.772	23.346	5.8188e-06	60.748	83.858	414.162	213.650	70.777	275.377	321.225	71.289	76.483	215.107	109.736	76.913	81.636	81.973	86.576	308.667	85.749	-8191	255	
7907.544	1	1	0	0	0.099704	0.086413	0.1815	0.26364	0.12875	0.21847	0.56215	0.18048	0.13794	0.28737	0.22099	0.15172	0.14895	0.34459	0.12012	0.24199	-1.3813	-2.2188	-1.5667	-2.1813	-2.0833	-1.5958	-2.3708	-1.9208	-2.0542	-2.3021	-1.8396	-2.0167	-2.1583	-1.5396	-2.4417	-2.0229	101.011	403.452	69.212	326.957	68.272	251.414	328.491	60.481	295.624	320.230	60.391	401.753	398.361	159.943	322.918	340.772	0.0012436	0.00042114	0.00014786	579.7	2.1925e-06	2.573e-06	863.02	166.84	5.732e-06	1.4405e-06	346.23	136.71	60.021	21.66	1.0301e-05	61.367	0.00061072	0.00055509	0.00014627	606.85	6.6873e-06	6.0348e-06	868.93	176.73	6.5907e-06	6.1743e-06	346.19	136.99	65.397	23.185	5.9631e-06	60.86	82.481	176.643	289.904	70.617	177.073	308.356	71.530	76.436	138.981	174.606	76.709	81.759	81.804	87.014	259.194	85.830	-8191	255	
7907.640	1	1	0	0	0.37126	0.19598	0.081917	0.064029	0.39711	0.10717	0.34819	0.11356	0.27004	0.096652	0.13732	0.221	0.18896	0.23906	0.29715	0.36705	-1.5125	-2.1125	-1.7104	-2.0292	-2.1333	-1.4854	-2.3958	-1.9854	-1.7833	-2.2292	-1.7667	-2.1583	-2.3083	-1.6667	-2.0958	-2.1854	384.954	373.805	304.255	133.490	162.674	286.487	64.999	95.286	377.686	350.135	400.677	334.226	323.979	303.616	291.404	409.226	0.0010109	0.000209	0.00020127	577.07	3.2898e-06	5.4029e-06	860.28	166.42	1.0806e-05	4.155e-06	345.58	136.89	59.835	21.746	1.2245e-05	61.333	0.00058881	0.00055649	0.00015299	608.45	6.5102e-06	5.9874e-06	872.53	178.3	6.5445e-06	6.2832e-06	348.67	138.17	65.371	23.393	6.6632e-06	61.424	84.894	142.559	121.669	71.031	167.797	232.124	71.093	76.681	401.771	205.045	76.643	81.706	82.124	87.079	227.866	85.739	-8191	255	
7907.736	1	1	0	0	0.14625	0.11264	0.15892	0.23768	0.10958	0.22485	0.042754	0.086899	0.17428	0.16258	0.12575	0.044182	0.27462	0.12454	0.074599	0.26655	-1.3896	-2.4417	-1.7979	-2.1854	-2.0479	-1.8	-2.2958	-2.0354	-1.5229	-2.4542	-1.8417	-2.0812	-2.0125	-1.7021	-1.9771	-2.2167	261.751	128.749	157.426	323.488	214.985	201.063	116.532	308.988	130.640	186.136	106.709	138.864	137.058	389.507	328.915	306.128	0.0011178	0.0001814	0.00019759	573.89	8.7344e-06	5.8544e-06	868.08	166.96	6.8783e-06	3.2102e-06	346.96	137.55	60.22	22.004	7.9653e-06	61.97	0.00060102	0.00057576	0.00017066	612.65	6.6414e-06	6.1213e-06	882.36	179	6.4341e-06	6.2434e-06	353.19	138.57	65.426	23.57	7.0083e-06	61.872	87.862	297.274	186.043	70.452	185.056	186.600	71.178	76.533	249.365	171.181	76.873	81.651	81.710	87.449	251.359	85.519	-8191	255	
#DATA ENDS
