BOXY.EXE: ISS Imagent and Oximeter Data Acquisition Program Version 0.80
Ascii Record File

#ACQ INFORMATION
2  Detector Channels 
16  External MUX Channels 
1  Auxiliary Channels 
5000  Waveform (CCF) Frequency (Hz)
1  Waveforms Skipped 
30  Waveforms Averaged 
1  Cycles Averaged 
16  Acquisitions per Waveform 
10.0806  Updata Rate (Hz) 

#FILE INFORMATION
TRUE -- External MUX Channel results are PARSED.
FALSE -- AC DC and Phase are NOT grouped.
TRUE -- Companion Program Settings File CREATED.
FALSE -- AC data not excluded
FALSE -- DC data not excluded
FALSE -- Phase data not excluded
FALSE -- Auxillary Chn. data not excluded
Tab delimiters

#CALIBRATION STATE
TRUE -- Waveform Calibration Values APPLIED.


#AUX CALIBRATION VALUES
Val Type	aux-1	

Term	1.0000e+00	
Factor	0.0000e+00	


#WF CALIBRATION VALUES
A = Detector Channel
Val Type	A-AC1	A-AC2	A-AC3	A-AC4	A-AC5	A-AC6	A-AC7	A-AC8	A-AC9	A-AC10	A-AC11	A-AC12	A-AC13	A-AC14	A-AC15	A-AC16	A-DC1	A-DC2	A-DC3	A-DC4	A-DC5	A-DC6	A-DC7	A-DC8	A-DC9	A-DC10	A-DC11	A-DC12	A-DC13	A-DC14	A-DC15	A-DC16	A-Ph1	A-Ph2	A-Ph3	A-Ph4	A-Ph5	A-Ph6	A-Ph7	A-Ph8	A-Ph9	A-Ph10	A-Ph11	A-Ph12	A-Ph13	A-Ph14	A-Ph15	A-Ph16	

Term	0.00000e+00	0.00000e+00	0.00000e+00	0.00000e+00	0.00000e+00	0.00000e+00	0.00000e+00	0.00000e+00	0.00000e+00	0.00000e+00	0.00000e+00	0.00000e+00	0.00000e+00	0.00000e+00	0.00000e+00	0.00000e+00	0.00000e+00	0.00000e+00	0.00000e+00	0.00000e+00	0.00000e+00	0.00000e+00	0.00000e+00	0.00000e+00	0.00000e+00	0.00000e+00	0.00000e+00	0.00000e+00	0.00000e+00	0.00000e+00	0.00000e+00	0.00000e+00	0.00000e+00	0.00000e+00	0.00000e+00	0.00000e+00	0.00000e+00	0.00000e+00	0.00000e+00	0.00000e+00	0.00000e+00	0.00000e+00	0.00000e+00	0.00000e+00	0.00000e+00	0.00000e+00	0.00000e+00	0.00000e+00	
Factor	1.00000e+00	1.00000e+00	1.00000e+00	1.00000e+00	1.00000e+00	1.00000e+00	1.00000e+00	1.00000e+00	1.00000e+00	1.00000e+00	1.00000e+00	1.00000e+00	1.00000e+00	1.00000e+00	1.00000e+00	1.00000e+00	1.00000e+00	1.00000e+00	1.00000e+00	1.00000e+00	1.00000e+00	1.00000e+00	1.00000e+00	1.00000e+00	1.00000e+00	1.00000e+00	1.00000e+00	1.00000e+00	1.00000e+00	1.00000e+00	1.00000e+00	1.00000e+00	X	X	X	X	X	X	X	X	X	X	X	X	X	X	X	X	

B = Detector Channel
Val Type	B-AC1	B-AC2	B-AC3	B-AC4	B-AC5	B-AC6	B-AC7	B-AC8	B-AC9	B-AC10	B-AC11	B-AC12	B-AC13	B-AC14	B-AC15	B-AC16	B-DC1	B-DC2	B-DC3	B-DC4	B-DC5	B-DC6	B-DC7	B-DC8	B-DC9	B-DC10	B-DC11	B-DC12	B-DC13	B-DC14	B-DC15	B-DC16	B-Ph1	B-Ph2	B-Ph3	B-Ph4	B-Ph5	B-Ph6	B-Ph7	B-Ph8	B-Ph9	B-Ph10	B-Ph11	B-Ph12	B-Ph13	B-Ph14	B-Ph15	B-Ph16	

Term	0.00000e+00	0.00000e+00	0.00000e+00	0.00000e+00	0.00000e+00	0.00000e+00	0.00000e+00	0.00000e+00	0.00000e+00	0.00000e+00	0.00000e+00	0.00000e+00	0.00000e+00	0.00000e+00	0.00000e+00	0.00000e+00	0.00000e+00	0.00000e+00	0.00000e+00	0.00000e+00	0.00000e+00	0.00000e+00	0.00000e+00	0.00000e+00	0.00000e+00	0.00000e+00	0.00000e+00	0.00000e+00	0.00000e+00	0.00000e+00	0.00000e+00	0.00000e+00	-2.02558e+02	-1.16413e+02	-1.30120e+02	-1.82161e+02	-9.57707e+01	-1.01369e+02	-1.59306e+02	-1.62015e+02	-1.14350e+02	-5.77035e+01	-1.70639e+02	-1.72301e+02	-1.77500e+02	-1.76674e+02	-5.36760e+01	-1.49496e+02	
Factor	4.10936e-05	9.52974e-05	2.49006e-05	1.49428e-01	8.83243e-07	8.91524e-07	1.68800e-01	4.93801e-02	1.17695e-06	7.15398e-07	8.34437e-02	2.98807e-02	2.54106e-02	8.75613e-03	1.20421e-06	1.26828e-02	6.26555e-07	6.35961e-07	1.78841e-07	7.42432e-02	6.95763e-09	6.96690e-09	7.86376e-02	2.43642e-02	6.96256e-09	6.98071e-09	3.91092e-02	1.39300e-02	1.23175e-02	4.23067e-03	7.03845e-09	5.88851e-03	X	X	X	X	X	X	X	X	X	X	X	X	X	X	X	X	



#DISTANCE SETTINGS
A = Detector Channel
A-1	A-2	A-3	A-4	A-5	A-6	A-7	A-8	A-9	A-10	A-11	A-12	A-13	A-14	A-15	A-16	

2.5000e+00	3.0000e+00	2.5000e+00	3.0000e+00	2.0000e+00	3.0000e+00	1.5000e+00	3.0000e+00	3.0000e+00	3.0000e+00	3.0000e+00	3.0000e+00	3.0000e+00	3.0000e+00	1.5000e+00	3.0000e+00	

B = Detector Channel
B-1	B-2	B-3	B-4	B-5	B-6	B-7	B-8	B-9	B-10	B-11	B-12	B-13	B-14	B-15	B-16	

1.0000e+01	1.0000e+01	1.0000e+01	1.4400e+00	1.0000e+01	1.0000e+01	1.5100e+00	1.9400e+00	1.0000e+01	1.0000e+01	1.9900e+00	2.4900e+00	2.4100e+00	2.9000e+00	1.0000e+01	2.9800e+00	




#DATA BEGINS
time	group	step	mark	flag	A-AC1	A-AC2	A-AC3	A-AC4	A-AC5	A-AC6	A-AC7	A-AC8	A-AC9	A-AC10	A-AC11	A-AC12	A-AC13	A-AC14	A-AC15	A-AC16	A-DC1	A-DC2	A-DC3	A-DC4	A-DC5	A-DC6	A-DC7	A-DC8	A-DC9	A-DC10	A-DC11	A-DC12	A-DC13	A-DC14	A-DC15	A-DC16	A-Ph1	A-Ph2	A-Ph3	A-Ph4	A-Ph5	A-Ph6	A-Ph7	A-Ph8	A-Ph9	A-Ph10	A-Ph11	A-Ph12	A-Ph13	A-Ph14	A-Ph15	A-Ph16	B-AC1	B-AC2	B-AC3	B-AC4	B-AC5	B-AC6	B-AC7	B-AC8	B-AC9	B-AC10	B-AC11	B-AC12	B-AC13	B-AC14	B-AC15	B-AC16	B-DC1	B-DC2	B-DC3	B-DC4	B-DC5	B-DC6	B-DC7	B-DC8	B-DC9	B-DC10	B-DC11	B-DC12	B-DC13	B-DC14	B-DC15	B-DC16	B-Ph1	B-Ph2	B-Ph3	B-Ph4	B-Ph5	B-Ph6	B-Ph7	B-Ph8	B-Ph9	B-Ph10	B-Ph11	B-Ph12	B-Ph13	B-Ph14	B-Ph15	B-Ph16	aux-1	digaux	

6692.890	1	1	0	256	0.1659	0.10283	0.20944	0.30795	0.1405	0.10561	0.11814	0.28853	0.11654	0.095316	0.10503	0.2469	0.24211	0.33554	0.10445	0.10559	-1.3687	-2.0042	-2.1229	-1.7188	-2.25	-1.7667	-1.9042	-2.3563	-1.6146	-2.0646	-2.2375	-1.7729	-2.3146	-2.0896	-1.6979	-2.5083	239.207	121.092	301.295	401.902	192.790	346.989	85.384	389.859	286.055	114.841	312.231	106.622	299.614	140.451	399.805	129.704	0.0010862	0.00093107	0.0001556	1308.9	1.3965e-05	5.2715e-06	1306.2	359.31	1.1637e-05	6.9253e-06	409.19	136.8	118.89	40.254	7.1098e-06	50.508	0.00063302	0.00071538	0.00019324	1346.4	6.8939e-06	7.9694e-06	1353.5	371.6	7.1592e-06	8.0764e-06	429.85	142.92	124.02	43.111	7.6022e-06	53.126	82.861	218.724	401.201	64.546	190.627	217.500	64.391	69.375	149.423	213.053	68.732	72.892	73.555	78.319	122.328	77.537	-8191	255	
6692.986	1	1	0	0	0.1356	0.23993	0.1321	0.16514	0.15359	0.20672	0.25205	0.25722	0.21697	0.34826	0.19252	0.12076	0.058451	0.068862	0.18713	0.39063	-1.1021	-1.7938	-2.1208	-1.8646	-2.0438	-2.1021	-1.8333	-2.6396	-1.8625	-1.7667	-2.2292	-1.6	-2.1167	-2.1396	-1.7083	-2.4396	408.482	147.073	190.503	58.929	378.047	214.549	369.610	353.587	166.354	180.848	315.472	167.996	407.633	281.578	145.986	316.958	0.0014063	0.0008603	6.2132e-05	1308.4	1.1018e-05	1.0147e-06	1308.9	358.81	1.2804e-05	1.5125e-06	412.16	137.57	118.9	40.544	4.8721e-06	50.681	0.00068073	0.00074005	0.00019122	1344.5	7.3903e-06	8.0167e-06	1351.8	370.62	7.4628e-06	7.8663e-06	428.28	142.51	124.35	42.877	7.1253e-06	52.849	81.208	373.682	159.007	64.576	183.700	309.670	64.488	69.478	225.011	235.657	68.682	73.281	73.944	78.205	409.110	77.199	-8191	255	
6693.083	1	1	0	0	0.065479	0.22252	0.10981	0.22542	0.10407	0.11361	0.49661	0.11753	0.38712	0.19779	0.10144	0.071512	0.24423	0.13305	0.12703	0.1388	-1.2479	-2	-2.0729	-1.6833	-2.1042	-1.9833	-1.8354	-2.4604	-1.7667	-1.6688	-2.2875	-1.6625	-1.9354	-2.1312	-1.4312	-2.2812	402.151	72.428	60.925	360.965	282.847	369.533	368.044	91.530	380.463	328.154	129.587	111.003	287.524	113.962	146.374	56.554	0.0011218	0.0003854	6.8369e-05	1309.4	1.1566e-05	5.585e-06	1310.4	358.93	3.9377e-06	4.3403e-06	408.86	138.26	118.76	40.519	1.2556e-06	50.464	0.00069011	0.00069111	0.00017856	1340.6	7.4683e-06	7.4399e-06	1344.4	369.43	7.4992e-06	7.2492e-06	424.08	142.12	124.46	42.594	6.6943e-06	52.701	68.850	316.440	137.951	64.389	162.281	137.816	64.485	69.286	184.382	90.041	68.931	73.391	73.670	78.284	293.593	77.589	-8191	255	
6693.179	1	1	0	0	0.08312	0.17288	0.14085	0.25988	0.30285	0.070073	0.16124	0.23931	0.28025	0.10271	0.1272	0.2316	0.24435	0.41051	0.041649	0.19421	-1.4479	-1.6708	-2.2354	-1.7938	-1.9646	-2.0542	-1.75	-2.2083	-2.0958	-1.5562	-2.3333	-1.8813	-2.0125	-2.2167	-1.4062	-2.1083	294.995	247.160	339.524	84.057	303.978	400.200	62.142	405.166	368.300	172.129	342.859	397.045	392.507	55.924	273.831	58.642	0.000945	0.00072983	0.00010961	1307.5	5.374e-07	3.5064e-06	1302.3	358.2	1.2269e-05	1.2111e-06	409.37	136.74	118.47	40.691	1.0875e-05	50.358	0.00068814	0.00064435	0.00016882	1339.6	7.5175e-06	6.982e-06	1337.8	369.79	7.499e-06	6.9347e-06	422.27	142.18	124.23	42.393	6.5273e-06	53.032	82.483	399.253	189.965	64.622	205.712	203.717	64.551	69.540	201.779	166.315	68.854	73.288	73.759	78.204	149.855	77.574	-8191	255	
6693.299	1	1	0	0	0.11805	0.24625	0.27042	0.17005	0.087896	0.22715	0.22897	0.24409	0.11122	0.29528	0.17481	0.23308	0.066016	0.20923	0.18507	0.077464	-1.5979	-1.6917	-2.5333	-1.8646	-1.9646	-2.2062	-1.7938	-2.2354	-2.1646	-1.5875	-2.4792	-1.8563	-2.0042	-2.3667	-1.525	-2.325	390.030	173.622	229.857	57.511	376.408	118.358	348.435	371.798	190.220	273.627	73.475	310.919	391.416	99.152	108.869	355.481	0.00083802	0.00063698	0.0001346	1301.6	4.1671e-06	5.8418e-06	1299.9	358.51	1.0608e-06	7.0934e-06	407.2	137.06	118.96	40.504	1.0615e-05	50.619	0.0006776	0.00062295	0.00016305	1339.2	7.3887e-06	6.8144e-06	1334.4	370.68	7.3426e-06	6.7921e-06	420.93	143.1	123.85	42.3	6.4758e-06	53.397	92.271	314.544	161.504	64.739	250.058	304.324	64.578	69.547	280.529	119.032	68.865	73.282	73.852	78.306	228.589	77.382	-8191	255	
6693.395	1	1	0	0	0.15748	0.22165	0.19229	0.37748	0.20295	0.33926	0.47412	0.26574	0.15855	0.29009	0.12461	0.30035	0.13167	0.20607	0.071118	0.14714	-1.6208	-1.6542	-2.0604	-1.9833	-1.5396	-2.1729	-1.9521	-2.1396	-1.95	-1.7104	-2.3063	-1.9042	-1.6938	-2.2021	-1.6896	-2.1583	145.055	368.396	166.628	335.079	313.557	329.694	317.916	346.102	59.898	235.882	242.062	374.843	341.776	69.484	209.873	132.349	0.00088482	0.00015061	0.00012692	1301.8	3.1112e-06	6.4393e-06	1301.7	357.75	2.0032e-06	2.1607e-06	410.27	137.24	118.71	40.249	5.5571e-06	50.521	0.00065733	0.00060349	0.00016456	1341.3	7.0108e-06	6.4951e-06	1331.3	371.12	6.9192e-06	6.4834e-06	422.1	143.42	123.26	42.026	6.6514e-06	53.347	89.637	146.334	164.531	64.803	78.074	193.466	64.492	69.277	356.802	330.295	68.752	73.019	73.702	78.434	246.867	77.663	-8191	255	
6693.490	1	1	0	0	0.26699	0.028641	0.28275	0.14348	0.078895	0.043857	0.20046	0.29367	0.10326	0.084559	0.13321	0.062058	0.24437	0.057295	0.24567	0.29119	-1.4813	-1.5146	-2.1854	-2.0396	-1.5896	-2.2458	-1.825	-1.8667	-2.1208	-1.5187	-2.2021	-2.2146	-1.7771	-2.3417	-1.7563	-2.2146	411.283	333.684	159.917	352.040	295.653	356.551	382.057	361.062	244.023	228.592	322.842	363.200	326.778	367.184	89.891	410.794	0.001034	0.00019754	0.00029046	1297.8	1.0224e-05	9.9082e-06	1300.2	358.09	7.1271e-06	5.7727e-07	411.57	137.17	119	40.498	1.5019e-05	50.585	0.00062639	0.00058935	0.00017188	1341.4	6.8638e-06	6.4451e-06	1339.2	371.75	6.8516e-06	6.5185e-06	425.72	143.64	123.45	42.072	7.2572e-06	53.479	79.605	183.586	137.579	64.760	247.264	183.517	64.650	69.512	249.176	76.397	68.670	73.212	73.508	78.165	189.916	77.512	-8191	255	
6693.586	1	1	0	0	0.10761	0.28851	0.11306	0.22072	0.10345	0.37845	0.14632	0.12665	0.15416	0.16455	0.090076	0.046962	0.049945	0.091882	0.10232	0.24965	-1.7646	-1.575	-2.0854	-2.1333	-1.5667	-2.3063	-1.7604	-2.0292	-2.2333	-1.5875	-2.075	-2.1688	-1.6313	-2.4271	-1.7167	-2.0354	307.857	184.753	172.258	344.788	284.890	362.710	328.255	249.313	59.124	222.773	357.289	358.080	372.437	260.682	295.627	361.070	0.0010702	0.00014513	0.00022734	1302.8	4.6379e-06	4.4029e-06	1305.3	358.79	2.8381e-06	1.5725e-06	410.43	137.33	119.06	40.566	1.1796e-05	50.358	0.00062734	0.00058995	0.00018636	1344	6.7879e-06	6.4435e-06	1346.3	371.52	6.7402e-06	6.4688e-06	427.51	143.12	123.1	42.195	7.5818e-06	53.274	72.156	110.503	147.265	64.712	112.498	202.970	64.740	69.394	157.148	202.382	68.964	73.199	73.630	78.373	199.470	77.139	-8191	255	
6693.659	1	1	0	0	0.16428	0.3727	0.19591	0.43421	0.44332	0.10351	0.13561	0.34123	0.095978	0.14522	0.28245	0.42571	0.10999	0.2767	0.18645	0.2236	-1.7771	-1.4646	-2.0125	-2.2521	-1.6771	-2.3042	-2.1396	-1.8188	-2.3667	-1.6792	-2.2188	-2.0583	-1.6896	-2.2333	-1.8542	-1.6646	328.119	135.275	219.659	404.645	239.313	75.360	356.565	384.384	258.054	235.787	383.042	376.570	305.346	357.576	189.536	363.202	0.00093248	0.0012065	0.00011858	1299.4	2.8782e-06	4.8668e-06	1304.4	360.09	3.4639e-06	1.0284e-05	412.11	137.49	118.54	40.549	8.787e-06	50.545	0.00061154	0.00061123	0.00019569	1338.6	6.7267e-06	6.7709e-06	1350.5	371.05	6.6806e-06	6.902e-06	429.77	142.89	122.76	42.462	7.7758e-06	53.149	85.517	157.109	111.493	64.625	317.392	241.795	64.351	69.250	55.353	207.980	68.927	73.133	73.706	78.072	265.436	77.285	-8191	255	
6693.778	1	1	0	0	0.16236	0.096361	0.16981	0.14833	0.29929	0.049729	0.29707	0.093053	0.074936	0.38147	0.37691	0.11876	0.15428	0.079869	0.32645	0.1814	-1.8625	-1.7	-1.9667	-2.2521	-1.5312	-2.3146	-2.2062	-2.1104	-2.4125	-1.6208	-2.0167	-2.2167	-1.8125	-2.0625	-2.0458	-1.6292	387.099	277.647	72.011	390.016	253.828	199.163	348.838	394.584	242.753	95.896	376.759	267.921	59.865	96.254	126.485	312.171	0.001131	0.00015334	0.00015766	1296.6	4.2732e-06	7.488e-06	1304.5	358.97	3.8921e-06	8.6163e-06	410.63	136.79	119.37	40.596	4.9251e-06	50.753	0.00060159	0.00064612	0.00019398	1336.2	6.5187e-06	7.0648e-06	1347.4	370.09	6.4101e-06	7.1876e-06	428.09	142.12	122.63	42.739	7.4626e-06	52.918	78.456	83.637	163.452	64.740	218.307	187.110	64.530	69.422	85.741	203.316	68.927	73.088	73.710	78.532	216.885	77.467	-8191	255	
6693.874	1	1	0	0	0.083909	0.071695	0.24596	0.14525	0.23247	0.1563	0.356	0.22511	0.30349	0.0090008	0.2353	0.31525	0.13616	0.37671	0.074755	0.19305	-1.6021	-1.7729	-1.7729	-2.3979	-1.6896	-2.0917	-2.1271	-1.6625	-2.0646	-1.85	-1.9167	-2.3125	-1.7	-1.9604	-1.9396	-1.8771	304.995	301.660	263.761	349.703	256.691	200.018	362.717	410.775	78.597	261.943	319.085	406.472	366.239	67.594	410.776	152.475	0.00102	0.00045306	2.5842e-05	1299.2	7.0354e-06	1.1526e-05	1304.9	359.55	1.2786e-05	7.2114e-06	412.28	136.91	119.13	40.51	7.051e-06	50.61	0.00059106	0.00067607	0.00018751	1334.5	6.5241e-06	7.4008e-06	1343.3	369.65	6.5354e-06	7.5711e-06	427.78	142	122.96	42.814	7.2559e-06	52.828	86.343	222.820	144.068	64.768	149.067	194.268	64.326	69.279	131.713	235.027	69.007	73.304	73.708	78.217	80.962	77.382	-8191	255	
6693.971	1	1	0	0	0.16612	0.15577	0.12287	0.16158	0.22504	0.20831	0.15602	0.50884	0.063288	0.097706	0.27237	0.12682	0.29823	0.35917	0.21053	0.41305	-1.6313	-1.5688	-1.7229	-2.3771	-1.8042	-2.1333	-2.1688	-1.7667	-2.2562	-2.0312	-1.6583	-2.5292	-1.8438	-1.9542	-2.0354	-1.6417	330.414	354.381	339.423	405.956	284.999	366.607	122.413	359.848	176.612	357.521	396.538	217.937	335.842	368.975	184.994	350.994	0.0013164	0.00072779	8.9163e-05	1301	5.7775e-06	3.7486e-06	1300.4	359.1	7.5679e-06	7.7804e-06	410.97	137.57	118.59	40.332	5.5164e-06	50.725	0.00061575	0.00069654	0.00018125	1334	6.8632e-06	7.5964e-06	1339.2	369.07	6.9274e-06	7.6698e-06	426.06	141.76	123.5	42.862	7.0907e-06	52.753	71.389	126.036	331.981	64.808	195.373	150.538	64.523	69.555	192.067	180.684	69.011	73.412	73.961	78.208	58.061	77.528	-8191	255	
6694.067	1	1	0	0	0.247	0.22391	0.09165	0.37221	0.097612	0.2858	0.23662	0.46118	0.082693	0.21607	0.18143	0.12321	0.21886	0.24543	0.12544	0.10574	-1.6208	-2.0104	-1.6479	-2.4521	-1.7167	-2.1188	-2.4208	-1.575	-2.0479	-1.9167	-1.6333	-2.2896	-1.8458	-1.8208	-2.1521	-1.6979	303.478	115.400	114.957	386.164	76.508	315.692	281.116	369.387	373.891	321.770	402.341	212.313	399.271	57.744	186.941	314.654	0.0013226	0.00024266	8.8869e-05	1299.6	5.4834e-06	4.9006e-06	1303.1	358.43	6.9765e-06	1.7528e-06	410.94	137.45	119.18	40.467	7.3321e-06	50.48	0.00066578	0.00070204	0.00018118	1333	7.516e-06	7.6842e-06	1340.9	369.48	7.5338e-06	7.6386e-06	425.98	142	124.64	42.758	7.0669e-06	52.815	92.224	355.729	57.783	64.635	179.168	386.305	64.289	69.511	136.595	136.959	68.673	73.298	73.938	78.219	278.912	77.515	-8191	255	
6694.187	1	1	0	0	0.13989	0.3034	0.12826	0.23484	0.16817	0.17876	0.22953	0.35044	0.084761	0.066843	0.23511	0.15509	0.15461	0.21162	0.14689	0.25711	-1.6875	-2.0625	-1.6354	-2.4167	-1.7229	-1.6292	-2.3312	-1.8146	-1.8167	-2.35	-1.6646	-2.175	-2.0187	-1.7708	-2.1521	-1.6708	383.508	165.374	334.446	111.859	225.870	70.954	278.448	322.805	345.025	329.034	349.083	53.824	410.465	62.455	277.010	56.606	0.0011293	0.0004087	0.00012986	1296.6	6.5817e-06	4.7273e-06	1303.9	358.47	6.9178e-06	6.7943e-06	411.13	137.22	118.57	40.372	9.1511e-06	50.74	0.0007037	0.00068583	0.00017876	1334	7.7846e-06	7.3895e-06	1339	370.21	7.7809e-06	7.3414e-06	425.55	142.46	124.99	42.726	6.8299e-06	53.238	87.704	216.354	267.188	64.573	283.462	360.647	64.462	69.628	191.404	151.801	68.886	73.259	73.986	78.307	222.799	77.590	-8191	255	
6694.284	1	1	0	0	0.10083	0.22389	0.1627	0.18808	0.29064	0.20636	0.16266	0.14472	0.1636	0.13023	0.13679	0.27488	0.1881	0.30515	0.37833	0.15803	-1.5938	-2.225	-1.4396	-2.3042	-2.0542	-1.6271	-2.4458	-1.9792	-1.9188	-2.1833	-1.6458	-2.275	-2.0333	-1.6625	-2.1417	-1.8354	335.818	391.905	337.042	52.936	139.749	144.027	344.625	246.677	73.439	325.245	252.493	360.756	340.421	355.922	253.786	93.817	0.00091387	0.00028076	3.9877e-05	1297.8	9.508e-06	7.9409e-07	1300.3	358.34	9.5855e-06	2.747e-06	409.32	138.04	118.67	40.593	2.752e-06	50.65	0.00071428	0.00065739	0.00017431	1338	7.7793e-06	7.151e-06	1335.4	371.34	7.7451e-06	7.1119e-06	423.4	143.46	124.65	42.549	6.7168e-06	53.536	73.329	282.237	53.378	64.658	130.055	65.922	64.717	69.461	53.535	89.079	68.823	73.263	73.700	78.452	203.359	77.670	-8191	255	
6694.380	1	1	0	0	0.12782	0.27451	0.074164	0.1276	0.24863	0.1474	0.28689	0.19201	0.14176	0.42435	0.19258	0.054049	0.15335	0.07384	0.19036	0.12622	-1.4896	-2.0812	-1.4646	-2.3021	-2.0812	-1.6417	-2.3625	-1.7479	-1.875	-2.3063	-1.7938	-2.1917	-2.0979	-1.8083	-2.3771	-1.9979	89.463	250.108	91.973	346.867	281.207	245.449	58.409	57.753	315.867	63.075	139.271	68.630	81.141	160.666	234.280	288.095	0.0012816	0.00043625	0.00015263	1297.3	3.0917e-06	3.8329e-06	1304.5	358.72	5.7861e-06	3.963e-06	410.53	137.45	118.85	40.586	1.0672e-05	50.549	0.00069805	0.0006397	0.00017194	1344.2	7.5826e-06	7.022e-06	1337.1	373.37	7.4872e-06	6.9757e-06	424.98	144.09	124.34	42.426	6.8579e-06	53.812	73.656	125.511	92.959	64.583	368.636	182.018	64.610	69.644	204.989	241.986	68.997	72.855	73.806	78.357	235.234	77.428	-8191	255	
6694.476	1	1	0	0	0.0332	0.090956	0.23029	0.28113	0.19619	0.18132	0.15523	0.17404	0.14502	0.10407	0.14261	0.21421	0.30227	0.12278	0.25213	0.23093	-1.2229	-2.2083	-1.6958	-2.1875	-2.1312	-1.7167	-2.5021	-2.0917	-1.5896	-2.15	-1.6354	-2.2625	-2.2875	-1.8625	-2.1292	-2.0542	304.971	152.733	63.495	393.920	74.041	286.499	324.087	373.187	74.610	286.351	64.788	379.445	375.618	137.373	257.344	405.878	0.0011309	0.00038928	0.00015099	1298.4	4.6564e-06	4.0091e-06	1304.6	358.34	4.1344e-06	2.6854e-06	410.12	136.97	118.42	40.547	4.5444e-06	50.56	0.00067429	0.00062938	0.0001786	1347.2	7.3443e-06	6.9048e-06	1340.5	373.83	7.3354e-06	6.8515e-06	427.51	144.44	123.85	42.412	7.3636e-06	53.896	86.582	365.036	115.712	64.759	408.433	181.808	64.543	69.257	191.951	62.020	68.771	73.186	73.541	78.331	230.997	77.437	-8191	255	
6694.570	1	1	0	0	0.14104	0.16033	0.13193	0.2157	0.11884	0.088422	0.31335	0.39674	0.061682	0.097107	0.039416	0.080251	0.092636	0.23396	0.21385	0.1017	-1.4417	-2.225	-1.75	-2.1229	-2.1854	-1.4771	-2.2896	-2.2687	-1.4792	-2.3021	-1.8854	-1.85	-2.3625	-1.5021	-1.8937	-1.9875	243.193	410.203	188.892	375.776	314.849	132.411	356.760	375.972	125.702	301.373	308.009	298.864	395.598	391.876	358.219	410.882	0.0010265	0.00025819	0.00035405	1298.1	4.3426e-06	5.9632e-06	1305.9	358.65	6.8575e-06	8.7043e-06	411.56	137.55	118.62	40.293	1.3535e-05	50.629	0.00066193	0.00062275	0.00019126	1347.7	7.1761e-06	6.8064e-06	1346.7	373.12	7.1912e-06	6.8038e-06	430.78	144.03	123.69	42.325	7.7831e-06	53.763	94.965	176.391	124.645	64.773	188.264	255.232	64.608	69.370	134.619	122.197	68.933	72.991	73.570	78.360	210.008	77.453	-8191	255	
6694.668	1	1	0	0	0.26808	0.20201	0.097161	0.25868	0.14974	0.16399	0.12529	0.28255	0.23868	0.26135	0.23883	0.24377	0.17802	0.2755	0.20078	0.1722	-1.2917	-2.1271	-1.8062	-2.0438	-2.2375	-1.6333	-2.1729	-2.225	-1.6979	-2.3042	-1.9333	-1.7604	-2.2625	-1.725	-1.9042	-2.4375	318.839	129.428	207.939	288.646	389.586	169.691	306.594	333.830	88.852	349.355	96.557	104.612	62.996	79.255	165.293	365.025	0.00097206	0.00044267	0.00021263	1304.5	1.4892e-06	3.1903e-06	1304.2	358.34	6.1132e-06	2.4868e-06	410.18	137.39	118.67	40.47	2.7712e-06	50.545	0.00065157	0.00061931	0.00020051	1345	7.0252e-06	6.8379e-06	1350.2	372.21	6.9794e-06	6.9071e-06	430.8	143.56	123.39	42.511	7.9595e-06	53.43	71.740	159.064	118.258	64.527	316.285	235.288	64.549	69.348	125.768	211.730	68.932	73.282	73.946	78.284	310.774	77.396	-8191	255	
6694.787	1	1	0	0	0.18884	0.18612	0.20051	0.46391	0.18635	0.13796	0.30759	0.077053	0.1091	0.16577	0.2439	0.19886	0.12724	0.058546	0.16174	0.11251	-1.0979	-2.1792	-2.0979	-2.0312	-2.1437	-1.5896	-2	-2.2646	-1.5812	-2.2542	-2.1688	-2.0833	-2.3854	-1.9521	-1.9021	-2.1312	305.097	377.264	305.024	368.956	194.260	290.353	304.110	314.006	259.683	277.558	359.480	373.060	85.152	190.403	347.072	348.338	0.0010115	0.0007851	0.00011945	1297.3	1.6354e-06	5.5675e-06	1303.2	359.11	7.674e-06	5.3708e-06	409.3	137.93	119.24	40.68	7.245e-06	50.564	0.00063593	0.00064459	0.00020435	1340.4	6.8487e-06	7.2271e-06	1352.7	371.57	6.8999e-06	7.313e-06	432.17	143.63	123.33	42.929	8.0729e-06	53.497	91.551	165.016	223.323	64.726	185.508	179.701	64.617	69.407	205.542	231.218	68.841	73.143	73.931	78.322	334.906	77.332	-8191	255	
6694.883	1	1	0	0	0.16134	0.09334	0.29616	0.16508	0.18386	0.2675	0.085686	0.21776	0.34614	0.31699	0.2593	0.10884	0.1099	0.20262	0.062208	0.091157	-1.1625	-2.1354	-1.8	-1.9562	-2.2062	-1.8792	-2.0583	-2.3458	-1.6271	-2.0792	-2.0375	-1.8479	-2.2896	-1.9792	-1.7062	-2.2021	309.173	345.773	389.499	56.348	399.335	288.143	351.681	355.598	143.301	252.934	338.706	57.893	404.471	65.907	390.096	368.925	0.0010225	0.0010994	0.00010967	1300.2	8.0037e-07	1.1291e-05	1308.8	361.12	1.5121e-05	4.6511e-06	411.08	137.09	119.27	40.413	1.3485e-06	50.936	0.00063784	0.00070326	0.00020471	1342.5	6.9125e-06	7.8626e-06	1355.7	372.67	6.9768e-06	7.9122e-06	431.94	143.11	123.68	43.161	7.8246e-06	53.416	89.648	145.541	213.505	64.657	73.195	148.648	64.446	69.335	120.585	169.923	68.700	73.361	73.812	78.301	186.843	77.277	-8191	255	
6694.979	1	1	0	0	0.24333	0.10752	0.13456	0.22422	0.14795	0.14866	0.38848	0.40187	0.23857	0.14552	0.17189	0.17594	0.17503	0.24171	0.23157	0.070171	-1.2208	-1.9875	-1.9708	-1.6604	-2.1333	-2.0687	-1.7667	-2.4437	-1.5333	-1.8458	-2.1312	-1.6604	-2.3542	-1.9396	-1.7208	-2.3042	167.243	325.009	131.283	353.356	141.344	112.745	281.561	365.888	222.989	147.510	293.274	113.920	354.185	85.874	186.860	77.255	0.0010559	0.00036989	8.6752e-05	1306.1	7.323e-06	3.0248e-06	1304.3	358.57	8.3788e-06	6.473e-06	410.2	137.63	119.47	40.571	3.2719e-06	50.447	0.00064579	0.00073526	0.0001964	1343.6	7.002e-06	8.1344e-06	1349.6	371.45	7.1961e-06	8.1614e-06	429.31	143.17	124.36	43.317	7.6674e-06	53.248	73.510	144.646	96.124	64.852	149.462	62.186	64.501	69.278	197.597	165.331	68.721	73.204	73.897	78.179	244.619	77.297	-8191	255	
6695.075	1	1	0	0	0.071672	0.052259	0.26312	0.11702	0.20529	0.063093	0.2096	0.30481	0.16327	0.19573	0.32156	0.14725	0.15044	0.22262	0.16847	0.090767	-1.2521	-1.9333	-2.1396	-1.6938	-2.2208	-1.8438	-1.6562	-2.3646	-1.8292	-1.8521	-2.3042	-1.7687	-2.1771	-2.2062	-1.6833	-2.1396	335.869	132.198	150.951	290.121	353.390	92.270	322.127	362.272	394.201	227.596	314.235	375.117	348.835	52.836	348.116	286.819	0.0011791	0.00061501	0.00016042	1305.6	1.3054e-05	1.3078e-05	1307.1	360.74	1.9116e-05	1.1629e-06	411.11	138.54	119.65	40.574	2.2847e-06	50.543	0.00069532	0.00076074	0.00019603	1346.1	7.6638e-06	8.2955e-06	1353.2	372.28	7.8506e-06	8.2463e-06	429.61	143.58	125.6	43.336	7.529e-06	53.209	77.327	155.170	357.308	64.766	170.708	336.263	64.398	69.491	142.346	305.619	68.683	73.111	73.754	78.395	80.776	77.277	-8191	255	
6695.172	1	1	0	0	0.137	0.10971	0.13853	0.19252	0.07344	0.23498	0.51759	0.1948	0.14167	0.053258	0.25877	0.050447	0.28832	0.15548	0.10258	0.14243	-1.3396	-1.5646	-2.0875	-1.8625	-1.9813	-1.9521	-1.9875	-2.325	-1.65	-1.9813	-2.2229	-1.9375	-2.1562	-2.1729	-1.8604	-2.1625	374.680	391.131	248.981	339.244	398.574	83.007	377.351	371.550	362.353	70.435	340.590	226.366	383.414	389.988	109.223	194.290	0.0013888	0.00015929	0.00010629	1304	8.5814e-06	3.771e-06	1311.5	359.5	2.4178e-05	1.8168e-06	411.19	138.49	119.17	40.666	8.9618e-06	50.672	0.00073003	0.00072944	0.00018809	1344.2	7.9702e-06	7.9306e-06	1351.8	371.44	8.1071e-06	7.8387e-06	428.64	143.43	125.93	43.109	7.3121e-06	53.471	76.559	178.579	176.531	64.688	181.721	118.804	64.548	69.451	168.696	90.323	68.735	73.230	73.753	78.396	205.937	77.117	-8191	255	
6695.268	1	1	0	0	0.41629	0.16421	0.29535	0.39644	0.089433	0.053058	0.44164	0.032858	0.15401	0.065312	0.21366	0.30376	0.098301	0.26587	0.2139	0.27769	-1.4833	-1.7604	-2.0833	-1.8083	-2.0375	-2.1604	-1.8563	-2.2687	-2.1354	-1.6854	-2.3458	-1.9417	-1.8896	-2.0625	-1.525	-2.3375	141.397	346.141	62.575	345.891	388.797	360.145	330.564	233.895	82.487	300.002	68.347	364.066	223.440	369.763	386.971	329.508	0.00098601	0.0005116	0.00018584	1308.1	4.4357e-06	5.6576e-06	1309.8	360.82	3.3353e-06	6.2671e-06	411.98	137.81	119.3	40.629	3.637e-06	50.714	0.00075481	0.0007064	0.00018644	1348.3	8.2962e-06	7.7277e-06	1348.9	373.59	8.3993e-06	7.7856e-06	428.34	144.52	126.51	43.099	7.4538e-06	53.957	75.355	329.449	391.543	64.641	162.674	359.582	64.508	69.445	84.512	389.605	68.713	73.073	73.790	78.229	165.446	77.535	-8191	255	
6695.364	1	1	0	0	0.045613	0.1909	0.10799	0.40058	0.14428	0.25094	0.14381	0.42216	0.14987	0.023689	0.11191	0.45555	0.27057	0.25024	0.21764	0.11543	-1.6437	-1.6167	-2.3354	-1.8542	-1.6938	-2.2146	-1.8229	-2.3875	-2.0375	-1.7062	-2.3063	-1.7333	-2.0062	-2.1875	-1.5896	-1.9958	290.575	146.405	350.979	57.367	105.602	190.911	342.610	322.064	201.398	155.716	65.350	380.838	98.419	55.132	368.855	90.326	0.0010435	0.00018565	9.7349e-05	1310.9	9.1489e-06	4.6523e-06	1316.7	361.42	6.3256e-06	3.7861e-06	412.8	138.67	118.88	40.693	3.4239e-06	51.154	0.00077982	0.00071262	0.00018804	1360.6	8.4172e-06	7.7555e-06	1354.5	376.77	8.401e-06	7.7018e-06	429.32	145.97	126.24	43.061	7.4562e-06	54.519	72.367	395.232	189.861	64.799	225.345	136.734	64.431	69.556	162.902	203.005	68.657	73.058	73.580	78.246	241.883	77.515	-8191	255	
6695.483	1	1	0	0	0.12741	0.21162	0.20285	0.32912	0.30298	0.19456	0.57286	0.11864	0.42757	0.24124	0.050792	0.24428	0.09247	0.1754	0.048266	0.23625	-1.6167	-1.6604	-2.0083	-2.1104	-1.7354	-2.3583	-1.8375	-2.2938	-1.9771	-1.7833	-2.2208	-2.0146	-1.8687	-2.4188	-1.7083	-2.2625	196.985	365.160	286.965	375.035	411.056	76.197	331.508	335.907	278.417	362.681	299.360	354.892	97.361	384.970	319.774	339.136	0.00093864	0.00037056	9.6312e-05	1311.5	4.755e-06	1.5794e-06	1320.8	361.92	4.5942e-06	3.8206e-06	413.23	138.32	119.2	40.616	5.8731e-06	50.911	0.00075132	0.00069881	0.00018966	1365.6	8.1605e-06	7.6263e-06	1358.9	378.16	8.1831e-06	7.6375e-06	431.23	146.88	125.81	42.98	7.8891e-06	54.878	98.607	89.844	218.156	64.607	304.584	248.701	64.402	69.260	274.773	349.005	68.842	73.236	73.642	77.884	195.395	77.172	-8191	255	
6695.556	1	1	0	0	0.20392	0.086564	0.1468	0.27713	0.15415	0.1311	0.095567	0.31491	0.071087	0.12903	0.19895	0.24022	0.1766	0.35726	0.25002	0.37617	-1.7458	-1.8729	-1.9979	-2.2313	-1.6521	-2.3521	-2.0292	-2.3667	-2.1583	-1.6437	-2.3125	-2.0021	-1.8354	-2.1854	-1.8354	-1.8729	203.781	318.645	177.416	369.833	151.741	106.343	352.681	335.374	283.665	351.536	401.921	376.514	330.331	385.596	400.303	245.769	0.00095285	0.00030335	0.00014719	1312.8	3.92e-06	1.9047e-06	1318.6	361.86	1.274e-05	1.4198e-06	414.4	138.33	119.91	40.769	1.0926e-05	50.823	0.00074575	0.00070266	0.00020651	1373.3	8.2348e-06	7.7799e-06	1370.7	380.91	8.3126e-06	7.8894e-06	438.11	148.05	126.98	43.29	8.9754e-06	55.329	86.791	153.893	118.881	64.675	142.597	297.588	64.541	69.291	272.940	317.954	68.839	73.342	73.704	78.111	220.958	77.058	-8191	255	
6695.651	1	1	0	0	0.28098	0.28049	0.21266	0.16874	0.14179	0.017369	0.31014	0.30755	0.25417	0.27936	0.31849	0.16735	0.19755	0.24949	0.15063	0.29224	-1.7	-1.6812	-1.7917	-2.0229	-1.6042	-2.1896	-2.0854	-1.8937	-2.3063	-1.5146	-2.0187	-2.0458	-1.6542	-2.3375	-1.8375	-1.8875	364.295	175.899	129.875	297.314	193.374	267.950	341.046	360.336	180.768	187.241	405.732	353.905	92.772	358.344	406.302	355.321	0.0010495	0.0006232	0.00015794	1317.9	3.8879e-06	1.2198e-06	1321.5	361.94	6.8782e-06	1.5653e-06	414.75	138.78	119.42	40.817	1.1373e-05	50.875	0.00077392	0.00073116	0.00023066	1381.1	8.4146e-06	7.971e-06	1384.8	381.24	8.2411e-06	7.9836e-06	440.98	147.8	126.35	43.402	9.2547e-06	54.893	91.061	180.299	125.680	64.569	282.713	298.523	64.587	69.356	191.580	210.243	68.776	73.234	73.577	78.378	238.236	77.289	-8191	255	
6695.749	1	1	0	0	0.056425	0.064093	0.074331	0.13822	0.085657	0.13233	0.19236	0.32552	0.17182	0.086625	0.07993	0.33319	0.16742	0.12461	0.17624	0.095175	-1.7062	-1.6521	-2.1146	-2.1625	-1.575	-2.1688	-2.2646	-1.8312	-2.175	-1.6979	-2.1625	-2.0938	-1.6104	-2.2313	-1.9229	-1.85	177.655	272.827	383.321	345.580	331.072	392.164	408.054	320.148	237.060	324.669	110.722	398.355	381.762	217.162	71.119	107.094	0.0010388	0.0011156	0.00030961	1319.4	1.0224e-05	9.2108e-06	1324.6	362.62	1.0539e-05	7.1727e-06	415.35	138.11	119.58	40.799	6.8018e-06	51.223	0.00074132	0.0007338	0.00023557	1373.8	8.1066e-06	8.102e-06	1386.1	379.67	7.9962e-06	8.2416e-06	442.37	146.8	125.89	43.51	9.2669e-06	54.689	74.796	197.368	153.987	64.398	189.045	192.877	64.737	69.371	78.373	242.578	68.731	73.334	73.723	78.347	231.351	77.142	-8191	255	
6695.867	1	1	0	0	0.18273	0.31455	0.081252	0.2125	0.26468	0.10125	0.20439	0.028094	0.10224	0.1173	0.32418	0.21704	0.30664	0.19022	0.25025	0.1063	-1.7563	-1.7667	-1.875	-2.4188	-1.5146	-2.1646	-2.2021	-1.8625	-2.3937	-1.6479	-2.1375	-2.1958	-1.6333	-2.0604	-1.9875	-1.9542	326.119	117.292	284.894	359.766	90.598	271.743	396.265	210.032	369.486	158.000	367.324	294.808	378.480	362.760	333.401	382.755	0.00096403	0.00089323	5.5581e-05	1321	1.6108e-06	3.5807e-06	1319.2	361.67	7.913e-06	8.3392e-06	413.06	138.82	119.91	40.785	1.0658e-05	50.935	0.00071789	0.00077025	0.00023363	1372.1	7.833e-06	8.515e-06	1382.7	378.02	7.795e-06	8.7404e-06	440.63	146.18	125.79	43.866	9.0654e-06	54.497	73.532	139.822	273.603	64.474	52.790	168.080	64.202	69.459	152.482	159.580	68.971	73.044	73.768	78.040	82.414	77.083	-8191	255	
6695.964	1	1	0	0	0.1038	0.10739	0.053497	0.37467	0.16818	0.16129	0.21409	0.33788	0.16186	0.20806	0.088864	0.17461	0.29272	0.23916	0.11899	0.29251	-1.9146	-1.7563	-1.9146	-2.3104	-1.8229	-1.8604	-2.1979	-1.8396	-2.2375	-1.9875	-1.9396	-2.5312	-1.7771	-2.1292	-2.0521	-1.6875	322.053	249.991	368.053	361.838	168.255	153.258	374.072	328.824	168.781	267.845	333.836	363.160	403.026	65.663	218.988	362.985	0.0010127	0.00074222	3.6304e-05	1317.1	9e-06	1.2056e-05	1324.3	362.21	1.1948e-05	5.5293e-06	412.95	138.1	120.01	40.811	6.6752e-06	50.685	0.00071698	0.00082303	0.00022798	1369.1	7.9226e-06	8.9846e-06	1380.1	377.89	7.8926e-06	9.0861e-06	438.3	145.71	125.93	43.979	8.5624e-06	54.134	57.021	145.188	124.780	64.480	200.281	155.027	64.416	69.485	155.210	282.292	68.668	73.180	73.514	78.184	403.840	77.316	-8191	255	
6696.060	1	1	0	0	0.22769	0.05952	0.079073	0.21221	0.32829	0.19866	0.11029	0.23227	0.14886	0.092184	0.11785	0.10567	0.37162	0.27444	0.077538	0.42692	-1.6792	-1.7167	-1.6667	-2.3667	-1.5354	-2.0583	-2.3021	-1.5708	-2.125	-1.8667	-1.8062	-2.4437	-1.7229	-2.0083	-2.2354	-1.6854	90.647	380.124	68.771	372.159	64.115	118.884	267.626	400.219	374.247	264.460	249.311	407.205	51.311	319.937	158.036	360.134	0.0012148	0.0011601	0.0001843	1322.1	9.1472e-06	5.5141e-06	1323.8	362.25	1.0066e-05	3.9196e-06	412.73	138.27	120.54	40.905	5.6893e-06	50.999	0.00072666	0.00082804	0.00021553	1366.4	8.1353e-06	9.0824e-06	1374.4	377.14	8.1996e-06	9.0871e-06	436.8	145.23	126.87	44.067	8.2603e-06	54.117	80.351	185.256	89.384	64.424	173.957	191.069	64.375	69.219	136.793	69.656	68.588	73.112	73.851	78.016	54.832	77.121	-8191	255	
6696.180	1	1	0	0	0.20363	0.16058	0.14714	0.18534	0.12083	0.10818	0.56135	0.3312	0.082795	0.1885	0.38716	0.013985	0.1203	0.13887	0.042765	0.27203	-1.575	-1.8563	-1.7729	-2.4938	-1.8604	-1.9521	-2.4042	-1.8708	-2.1	-2.2	-1.5917	-2.3688	-2.0396	-2	-2.2812	-1.6708	155.310	135.401	66.348	399.845	410.297	366.698	390.931	366.749	353.455	333.799	348.313	92.218	138.016	377.292	356.708	91.271	0.0014103	0.0011992	9.865e-06	1318.8	1.3401e-05	3.4824e-06	1320.3	362.65	1.2966e-05	8.9844e-06	412.11	139.17	120.47	40.875	3.7331e-06	50.811	0.00076636	0.00081248	0.00020795	1363.6	8.5373e-06	8.7652e-06	1370.5	376.51	8.6258e-06	8.7377e-06	434.32	144.99	127.93	43.789	8.0704e-06	54.078	77.151	406.842	200.159	64.671	207.368	393.057	64.290	69.217	151.834	403.391	68.739	73.185	73.586	78.257	167.688	77.249	-8191	255	
6696.252	1	1	0	0	0.15471	0.15533	0.12197	0.32995	0.22811	0.24642	0.48384	0.11575	0.1035	0.26485	0.20362	0.30417	0.45843	0.18436	0.13525	0.48984	-1.5542	-2.2042	-1.6688	-2.4958	-1.8021	-1.8854	-2.6312	-1.8	-2.0729	-2.1396	-1.6875	-2.2083	-2.0354	-1.85	-2.5958	-1.8604	349.590	324.341	297.617	328.231	99.051	109.465	343.843	399.250	401.130	105.297	410.028	378.401	337.481	188.105	92.285	358.260	0.0013085	0.00064654	0.00011942	1326.3	8.5553e-06	3.9408e-06	1321.4	362.42	6.6692e-06	5.7261e-06	415.13	138.49	119.51	40.822	7.8187e-06	51.022	0.00080952	0.00078673	0.000206	1367.5	8.9913e-06	8.4989e-06	1370.4	377.21	8.9047e-06	8.394e-06	434.31	145.53	128	43.668	7.8287e-06	54.424	79.469	104.234	322.628	64.408	169.155	147.548	64.502	69.356	168.181	355.028	68.621	72.994	73.723	78.163	225.969	77.327	-8191	255	
6696.348	1	1	0	0	0.13698	0.088682	0.060502	0.24973	0.31947	0.092443	0.14677	0.13194	0.12793	0.21408	0.17006	0.054561	0.047918	0.28527	0.078019	0.20326	-1.6271	-2.2667	-1.5521	-2.3333	-1.8333	-1.6396	-2.4208	-1.875	-1.9333	-2.0354	-1.7125	-2.2271	-2.2417	-1.9458	-2.2083	-1.8958	371.737	119.449	85.371	69.972	192.652	79.695	388.773	338.553	302.177	383.242	315.452	372.778	314.284	401.269	95.449	372.216	0.0007698	0.00052874	0.00017177	1323.2	8.6189e-06	2.2309e-06	1325.1	363.03	5.8371e-06	1.5595e-06	413.56	139.08	119.29	40.796	8.9466e-06	50.753	0.00081291	0.00074949	0.00019807	1370.1	8.8942e-06	8.1597e-06	1369.1	379	8.8517e-06	8.085e-06	433.08	146.62	127.71	43.407	7.5944e-06	54.755	80.938	348.031	72.507	64.742	194.981	161.586	64.338	69.371	70.948	400.911	68.739	73.230	73.700	78.410	322.584	76.945	-8191	255	
6696.469	1	1	0	0	0.16618	0.081179	0.016571	0.25186	0.12165	0.18431	0.22722	0.38197	0.044339	0.066105	0.14283	0.39027	0.038771	0.084608	0.19995	0.21481	-1.5771	-2.1833	-1.6688	-1.9729	-2.1437	-1.4792	-2.5312	-1.9104	-1.9583	-2.4208	-1.7604	-2.05	-2.3667	-1.7417	-2.3646	-1.9167	132.426	337.768	297.727	372.225	403.422	140.605	344.649	394.233	337.418	316.322	312.559	351.377	203.468	362.966	74.734	331.589	0.00069767	0.00055893	5.5598e-05	1320.9	1.0726e-06	5.6088e-06	1323.7	361.51	3.4447e-06	1.5576e-06	415.11	138.91	119.88	40.769	9.1797e-06	51.094	0.00079012	0.00072529	0.00019501	1375.6	8.5937e-06	7.9256e-06	1367.5	380.41	8.4833e-06	7.8955e-06	432.94	147.38	127.11	43.284	7.7794e-06	55.078	67.751	84.188	189.449	64.752	134.940	382.812	64.255	69.203	128.537	271.419	68.730	73.158	73.655	78.174	191.170	77.250	-8191	255	
6696.563	1	1	0	0	0.35054	0.43459	0.1409	0.18625	0.025739	0.31032	0.18596	0.14938	0.27955	0.073207	0.32419	0.21076	0.14422	0.19715	0.11446	0.28225	-1.3667	-1.9771	-1.7083	-2.1021	-2.2333	-1.6271	-2.5792	-2.0125	-1.825	-2.1063	-1.9	-1.9229	-2.2375	-1.7146	-2.2271	-2.125	168.914	209.159	79.323	383.955	128.411	318.940	384.062	301.499	104.908	372.526	363.478	383.116	154.756	247.791	150.736	395.050	0.00088547	0.00022622	0.00023399	1323.1	4.0846e-06	4.8055e-06	1322.8	362.86	1.0972e-05	2.4848e-06	413.56	138.47	119.67	40.834	1.1654e-05	51.077	0.0007636	0.00071096	0.00020172	1380.6	8.2653e-06	7.7512e-06	1369.1	381.09	8.2325e-06	7.6939e-06	435.45	147.5	126.53	43.18	8.2455e-06	55.26	80.337	294.138	142.635	64.601	102.207	101.622	64.543	69.549	145.361	283.360	68.951	72.960	73.733	78.246	208.003	77.226	-8191	255	
6696.659	1	1	0	0	0.12505	0.34265	0.14356	0.36445	0.24712	0.11595	0.27421	0.077897	0.11979	0.17306	0.27101	0.15927	0.31956	0.21275	0.01119	0.11909	-1.0083	-2.1646	-1.6313	-1.9646	-2.2542	-1.6792	-2.2146	-2.175	-1.5833	-2.3542	-1.7292	-2.2	-2.2	-1.8354	-2.2625	-2.1063	378.979	264.652	85.578	363.926	157.941	177.999	75.572	66.254	282.869	397.278	348.986	158.590	365.425	370.990	157.287	381.403	0.0010049	0.00065271	0.00029514	1321.6	5.5487e-06	2.4178e-06	1325.6	363.99	3.0017e-06	1.4493e-06	413.35	138.57	119.54	40.797	1.4726e-05	50.929	0.00074375	0.0006984	0.00021455	1378.2	8.0841e-06	7.597e-06	1377.4	380.97	8.0844e-06	7.6033e-06	438.48	147.19	126.29	43.198	8.7013e-06	54.842	78.752	397.597	143.837	64.507	276.521	397.174	64.527	69.487	168.560	158.252	69.143	73.226	73.534	78.384	229.516	77.321	-8191	255	
6696.780	1	1	0	0	0.31218	0.17011	0.047801	0.30575	0.13289	0.24553	0.29294	0.1902	0.070491	0.21188	0.16567	0.058305	0.31725	0.19691	0.022576	0.27837	-1.1792	-2.2208	-1.975	-1.9458	-2.125	-1.6	-2.3146	-1.9604	-1.8	-2.3021	-2.1188	-1.8021	-2.3583	-1.8333	-2.2104	-2.0333	128.225	229.909	60.081	411.044	401.651	316.771	298.243	371.411	250.105	301.511	59.109	200.032	87.997	393.234	331.752	400.028	0.00074682	0.00044942	0.00018167	1322	1.8884e-06	2.7777e-06	1325.4	362.06	1.0855e-05	9.0932e-06	415.12	138.28	120.06	40.992	9.097e-06	51.02	0.0007292	0.00069348	0.0002243	1375.4	7.8649e-06	7.7285e-06	1382.3	379.41	7.8795e-06	7.7943e-06	440.13	146.54	126.07	43.396	9.0374e-06	54.629	117.200	192.124	134.577	64.720	405.077	181.678	64.399	69.367	182.688	191.926	68.737	73.315	73.431	78.307	161.984	77.341	-8191	255	
6696.852	1	1	0	0	0.058285	0.10461	0.090144	0.053903	0.1372	0.12859	0.29812	0.30934	0.071814	0.15181	0.21936	0.10376	0.37659	0.22674	0.20844	0.29217	-1.3042	-2.0542	-1.9729	-1.9229	-2.2792	-1.7667	-2.2333	-2.4229	-1.5312	-2.1437	-2.0438	-1.6292	-2.5208	-1.7417	-1.975	-2.2667	340.635	117.282	110.509	356.568	79.396	188.804	365.603	316.833	191.057	298.180	330.312	89.811	329.368	266.957	110.254	345.367	0.00097564	0.0011729	7.4324e-05	1326.4	2.791e-06	4.8424e-06	1324.3	362.25	5.852e-06	9.4209e-06	413.15	137.96	119.49	40.92	2.2821e-06	50.968	0.00071655	0.0007325	0.00023208	1374.9	7.7548e-06	8.2148e-06	1384.1	378.59	7.7667e-06	8.2793e-06	440.25	146.04	125.66	43.712	8.9211e-06	54.445	81.534	174.467	159.334	64.579	264.960	190.339	64.534	69.343	59.989	225.087	68.943	73.027	73.719	78.415	400.809	77.215	-8191	255	
6696.948	1	1	0	0	0.055241	0.13788	0.28299	0.21433	0.12595	0.17612	0.23604	0.13751	0.22819	0.31049	0.078168	0.33253	0.17132	0.083423	0.085474	0.20702	-1.0771	-2.1771	-1.8979	-1.9688	-2.3479	-1.9958	-1.9688	-2.2083	-1.5875	-1.975	-2.2646	-1.6229	-2.3542	-1.9438	-1.9312	-2.2167	210.414	231.211	358.612	361.312	389.703	290.018	364.944	347.703	328.167	257.705	250.891	372.630	379.774	97.215	311.225	366.302	0.0011323	0.0015917	4.9941e-05	1324.2	5.3632e-06	1.1934e-05	1326.9	362.08	1.0055e-05	1.7965e-06	413.02	138.48	120.26	40.983	9.7709e-06	50.907	0.00070459	0.00076976	0.00022561	1370.5	7.5237e-06	8.596e-06	1379.8	377.38	7.6063e-06	8.6339e-06	437.97	145.43	125.54	43.907	8.5467e-06	54.147	82.373	179.041	90.921	64.587	190.380	166.457	64.432	69.397	216.264	232.703	68.737	73.194	73.877	78.167	180.191	77.098	-8191	255	
6697.068	1	1	0	0	0.23861	0.15256	0.19139	0.12043	0.13416	0.36272	0.063191	0.077556	0.24128	0.12076	0.19367	0.19019	0.069881	0.29649	0.14737	0.14386	-1.1	-1.9125	-2.05	-1.8583	-2.2979	-2.1083	-2.0417	-2.4313	-1.5604	-2.1021	-2.0938	-1.7708	-2.2458	-2.0125	-1.6812	-2.3438	209.698	75.799	374.498	389.462	192.857	367.986	92.857	327.474	254.706	115.966	387.507	326.998	158.318	359.816	297.424	294.454	0.0011714	0.0013311	9.7912e-05	1323.5	8.0198e-06	7.3014e-06	1321.1	362.66	1.5087e-05	5.4992e-06	412.99	138.31	120.16	40.777	4.646e-06	50.72	0.00070326	0.00079462	0.00021358	1366.2	7.5929e-06	8.7245e-06	1373.4	376.31	7.7154e-06	8.7301e-06	435.59	144.76	125.87	43.942	8.0291e-06	53.816	85.626	169.413	370.842	64.491	186.404	247.001	64.368	69.164	151.255	213.265	68.462	73.076	73.829	78.166	259.928	77.211	-8191	255	
6697.165	1	1	0	0	0.16589	0.070903	0.087304	0.15831	0.15495	0.077709	0.31869	0.15007	0.261	0.43076	0.32065	0.056694	0.24109	0.1694	0.08475	0.23172	-1.3771	-1.8979	-2.1542	-1.9375	-2.1604	-2.1354	-1.8625	-2.4875	-1.7604	-1.8771	-2.1437	-1.7313	-2.1917	-1.9646	-1.7354	-2.4062	129.845	335.714	250.927	323.785	76.034	309.189	359.690	363.903	98.536	104.134	368.315	187.488	321.000	292.290	132.774	281.064	0.0013612	0.00031977	0.00018047	1326.7	6.3526e-06	8.6179e-06	1327.7	364.03	1.8394e-05	3.6596e-06	413.03	138.62	119.95	41.086	9.1673e-06	51.16	0.00071812	0.00078457	0.0002031	1365.3	7.96e-06	8.6551e-06	1373.1	376.4	8.1877e-06	8.6048e-06	434.59	144.96	127.06	43.884	7.9684e-06	53.985	83.372	97.121	371.172	64.386	188.349	142.234	64.363	69.224	161.156	127.087	68.829	73.000	73.560	78.178	241.463	77.349	-8191	255	
6697.261	1	1	0	0	0.14111	0.20212	0.052685	0.19085	0.38075	0.12457	0.19801	0.0050037	0.13061	0.11237	0.1309	0.38134	0.28242	0.052714	0.24535	0.38361	-1.3542	-2.025	-2.1688	-1.7979	-2.0125	-2.1833	-1.7313	-2.3542	-1.7625	-1.8292	-2.3979	-1.9292	-2.0917	-2.3458	-1.5646	-2.3625	97.848	356.196	284.465	117.676	175.612	149.056	373.627	215.232	126.504	230.891	263.156	390.901	410.859	311.961	368.433	336.346	0.0012511	0.001247	0.0001231	1323.1	7.1107e-06	5.1655e-06	1326.4	362.42	1.1405e-05	2.725e-06	414.96	139.43	120.63	41.154	5.9031e-06	51.113	0.00077117	0.0007734	0.0001986	1366.1	8.405e-06	8.4141e-06	1372.8	376.15	8.6206e-06	8.317e-06	434.05	145.59	128.03	43.853	7.7705e-06	54.27	93.412	372.386	208.913	64.658	207.295	358.126	64.516	69.404	200.392	115.949	68.598	73.205	73.602	78.141	294.849	77.531	-8191	255	
6697.357	1	1	0	0	0.11714	0.31233	0.042511	0.26228	0.027876	0.11837	0.24128	0.092049	0.13073	0.16011	0.55323	0.15933	0.085799	0.21127	0.13375	0.19652	-1.6854	-1.7542	-2.175	-1.8708	-2.0458	-2.0687	-1.7396	-2.2979	-1.9062	-1.8521	-2.2687	-1.7854	-2.0042	-2.2625	-1.4292	-2.2208	128.432	221.800	157.486	365.457	116.373	309.490	372.167	410.610	267.767	267.718	338.457	337.446	399.052	304.572	163.348	185.460	0.00089617	0.00064463	0.00011213	1330	1.8332e-06	1.5218e-06	1326.4	365.79	1.2823e-05	3.2564e-06	415.74	139.31	120.65	41.205	5.9788e-06	51.494	0.00079505	0.00074536	0.0001964	1374.7	8.696e-06	8.1153e-06	1375.1	379.22	8.7952e-06	8.08e-06	434.29	146.68	128.59	43.777	7.6424e-06	54.776	81.817	282.825	355.571	64.712	170.692	112.791	64.416	69.537	165.373	406.555	68.485	73.074	73.586	78.070	160.446	77.300	-8191	255	
6697.453	1	1	0	0	0.12311	0.09279	0.29387	0.58949	0.11392	0.12062	0.26674	0.25304	0.27411	0.22786	0.22457	0.30129	0.30097	0.31877	0.14479	0.28175	-1.3687	-1.6875	-2.1125	-1.9542	-1.8563	-2.2021	-1.7292	-2.1562	-2.0521	-1.6812	-2.3875	-1.8	-2.1979	-2.3104	-1.575	-2.2687	119.721	108.669	363.762	343.274	93.202	82.443	364.215	409.277	370.262	399.821	317.684	71.356	375.936	94.287	204.206	361.884	0.00088843	0.00058233	9.6394e-05	1333.8	3.4298e-06	3.3164e-06	1336.4	364.21	2.4859e-06	3.4644e-06	415.69	139.54	120.76	41.266	1.146e-05	51.512	0.00079969	0.00073006	0.00019289	1382	8.6565e-06	7.9339e-06	1378.3	380.46	8.5916e-06	7.9265e-06	433.56	147.72	128.09	43.659	7.6452e-06	55.257	83.789	76.477	162.588	64.532	193.206	391.281	64.524	69.235	192.109	270.902	68.635	73.386	73.875	78.120	199.583	77.279	-8191	255	
6697.547	1	1	0	0	0.16903	0.070795	0.063303	0.27415	0.10277	0.097949	0.238	0.3015	0.17547	0.20646	0.04897	0.25436	0.22295	0.3539	0.24543	0.23724	-1.4771	-1.5458	-2.2958	-2.1063	-1.7333	-2.375	-1.6583	-2.1583	-2.1813	-1.8125	-2.2833	-2.0396	-1.7771	-2.2562	-1.75	-1.8792	396.915	299.770	334.621	336.290	225.231	401.532	122.964	320.864	194.279	69.224	112.865	388.577	351.009	55.479	156.931	56.771	0.0008289	0.0010226	0.00019474	1334.8	9.459e-06	4.1428e-06	1336.1	364.63	6.0639e-06	6.3235e-06	418.65	139.35	120.9	41.283	2.961e-06	51.474	0.00077755	0.00071593	0.00019442	1390.7	8.3634e-06	7.7444e-06	1380.6	382.26	8.2379e-06	7.77e-06	436.06	148.3	127.75	43.643	7.9171e-06	55.382	74.758	140.496	126.306	64.557	136.188	302.490	64.344	69.404	322.177	146.163	68.615	73.169	73.613	78.004	193.162	77.282	-8191	255	
6697.644	1	1	0	0	0.069822	0.09883	0.1312	0.20305	0.19316	0.2183	0.42159	0.24293	0.16003	0.12415	0.1999	0.44482	0.39836	0.2048	0.078933	0.024589	-1.6021	-1.4979	-2.1333	-2.0312	-1.8	-2.2646	-1.8875	-2.1292	-2.2417	-1.5208	-2.3063	-2.0208	-1.6958	-2.4271	-1.8646	-1.9438	130.319	402.157	313.729	362.279	137.393	229.225	351.813	379.376	202.579	234.340	78.072	381.493	333.545	61.658	201.846	298.023	0.00085395	0.00012383	0.00010858	1339.6	1.1282e-06	2.8948e-06	1335.3	363.71	2.5304e-06	4.6839e-06	417.49	139.71	121.54	41.359	6.7116e-06	51.482	0.00074355	0.00070164	0.00020292	1392.9	8.0563e-06	7.5297e-06	1386.5	382.03	7.9881e-06	7.5514e-06	438.05	148.43	127.42	43.564	8.2881e-06	55.366	77.165	283.829	107.385	64.686	310.884	129.957	64.393	69.445	157.095	132.597	68.900	73.154	73.648	78.363	198.494	77.263	-8191	255	
6697.741	1	1	0	0	0.20456	0.088702	0.057977	0.29111	0.20507	0.13729	0.30244	0.21616	0.13672	0.13716	0.22516	0.1612	0.21147	0.057079	0.077914	0.051257	-1.6271	-1.7083	-2.1	-2.4146	-1.5604	-2.3333	-2.0354	-1.8937	-2.2333	-1.5354	-2.4125	-2.1833	-1.6979	-2.3875	-1.6583	-2.0771	237.826	209.345	353.618	360.235	112.204	110.223	90.332	379.038	249.934	74.408	345.058	386.913	398.980	118.164	358.369	232.925	0.0010879	0.0003519	0.00020715	1335	1.6963e-06	2.0171e-06	1340.8	364.36	6.0265e-06	3.6375e-06	417.8	139.57	121.44	41.446	8.5378e-06	51.563	0.00071632	0.00068358	0.00021317	1388.5	7.8294e-06	7.443e-06	1391.7	381.34	7.7469e-06	7.4589e-06	440.94	147.8	126.91	43.556	8.562e-06	54.991	78.920	400.254	153.624	64.668	120.883	138.885	64.359	69.241	139.081	364.866	68.611	72.917	73.597	78.330	165.072	77.096	-8191	255	
6697.860	1	1	0	0	0.23594	0.18308	0.1693	0.18143	0.38195	0.10525	0.1539	0.1056	0.09029	0.1756	0.15411	0.25305	0.056107	0.14655	0.088791	0.26355	-1.4937	-1.6042	-2.075	-2.2562	-1.7271	-2.1688	-2.1583	-1.9417	-2.2479	-1.7833	-2.2333	-2.2958	-1.6979	-2.2146	-1.8729	-1.6146	214.947	141.810	369.943	326.780	338.465	67.100	321.855	362.181	341.903	391.470	351.168	184.163	83.245	388.540	109.325	359.247	0.00094959	0.00089184	0.00030548	1338.4	3.0594e-06	4.4078e-06	1339	364.05	7.1017e-06	6.9224e-06	418.81	139.99	121.59	41.49	5.9178e-06	51.533	0.00069607	0.00068668	0.0002186	1385.6	7.5613e-06	7.4997e-06	1393.7	379.48	7.4688e-06	7.6552e-06	441.44	147.03	126.63	43.751	8.6962e-06	54.735	75.671	162.503	116.084	64.589	81.798	235.194	64.392	69.386	220.996	254.309	68.647	73.070	73.653	77.942	162.468	77.399	-8191	255	
6697.956	1	1	0	0	0.17852	0.18748	0.0077803	0.31225	0.22102	0.11998	0.15838	0.21272	0.027557	0.069883	0.30406	0.075049	0.22815	0.24528	0.1745	0.09827	-2.0938	-1.6354	-2.0396	-2.3167	-1.6729	-2.1979	-2.2562	-2.0396	-2.3	-1.6896	-2.1792	-2.1583	-1.7313	-2.1312	-1.85	-1.6625	190.758	242.450	244.662	343.044	399.341	402.420	101.834	398.978	289.503	263.109	352.608	397.671	325.710	391.070	85.657	267.456	0.0010233	0.00070115	0.00017618	1337.8	5.8456e-06	7.3122e-06	1342	363.68	6.1513e-06	3.7519e-06	417.98	140.06	121.45	41.367	5.3322e-06	51.322	0.00067897	0.00072137	0.00021906	1382.1	7.3808e-06	7.9627e-06	1394	378.92	7.297e-06	8.1924e-06	439.52	146.48	126.28	44	8.4827e-06	54.603	89.279	193.400	65.829	64.465	201.857	223.763	64.348	69.167	155.111	176.955	68.748	73.101	73.747	78.214	103.102	77.440	-8191	255	
6698.053	1	1	0	0	0.20475	0.011391	0.1605	0.36498	0.13932	0.19826	0.096153	0.25788	0.22611	0.028347	0.29576	0.089598	0.23138	0.31857	0.034334	0.25053	-1.8167	-1.9979	-1.8792	-2.3187	-1.5958	-1.875	-2.1333	-1.9375	-1.9792	-1.8042	-1.8604	-2.3771	-1.7354	-1.9479	-2.0146	-1.7146	91.072	211.304	408.787	393.288	59.139	159.262	276.965	358.958	371.436	303.999	384.127	134.830	397.340	344.940	138.839	360.513	0.0011886	0.0010368	3.6489e-05	1335.4	1.8226e-06	9.5758e-06	1340	364.35	1.3878e-05	2.2829e-06	417.05	139.68	121.55	41.28	7.0997e-06	51.455	0.00066459	0.00076061	0.00021251	1380.1	7.3853e-06	8.3742e-06	1391.7	378.65	7.4142e-06	8.5913e-06	438.97	146.08	126.86	44.262	8.1765e-06	54.518	78.532	165.587	328.551	64.546	116.774	155.938	64.304	69.223	161.394	170.524	68.617	73.376	73.802	78.287	51.312	77.445	-8191	255	
6698.149	1	1	0	0	0.21537	0.046493	0.12902	0.13617	0.14477	0.27631	0.15421	0.1475	0.088552	0.17435	0.096897	0.22478	0.17914	0.20271	0.18547	0.26694	-1.9146	-1.8292	-1.7542	-2.2229	-1.6313	-1.9229	-2.3354	-1.8563	-2.2313	-2.0875	-1.9	-2.3146	-1.6771	-2.1708	-2.1688	-1.5771	139.565	317.431	231.339	397.436	282.419	308.661	257.947	235.600	406.764	87.266	329.590	55.742	380.683	383.944	288.735	106.873	0.0011657	0.0003249	0.00013115	1344.2	4.5328e-06	6.8255e-06	1338.6	364.17	1.347e-05	6.0576e-06	417.41	140.63	121.69	41.463	4.2344e-06	51.685	0.00069798	0.0007927	0.00020624	1379.6	7.7406e-06	8.6327e-06	1387.8	378.43	7.8182e-06	8.689e-06	437.57	146.2	127.71	44.309	7.9738e-06	54.471	78.755	118.691	121.477	64.644	198.818	78.825	64.314	69.205	162.208	229.709	68.580	73.191	73.607	77.970	237.821	77.420	-8191	255	
6698.245	1	1	0	0	0.069663	0.20426	0.11099	0.34013	0.07056	0.15335	0.42562	0.26564	0.18846	0.24582	0.20592	0.1317	0.23812	0.26226	0.15932	0.12214	-1.8479	-2.1479	-1.8646	-2.5229	-1.9917	-1.8937	-2.2958	-1.925	-2.2458	-1.8604	-1.7938	-2.3646	-2.0708	-1.7854	-2.3125	-1.6812	378.411	78.979	61.770	94.657	63.237	114.209	398.083	397.297	148.115	110.629	368.754	410.302	410.051	71.460	164.484	380.208	0.0013929	0.00089799	0.00019372	1338.9	8.5086e-06	2.1585e-06	1341.6	365.64	1.2052e-05	2.8328e-06	417.58	140.14	121.39	41.514	1.293e-05	51.559	0.00073215	0.00078294	0.00020156	1379.1	8.2141e-06	8.4935e-06	1385.8	377.98	8.3091e-06	8.4354e-06	436.83	146.12	128.59	44.211	7.7508e-06	54.481	75.698	107.181	131.266	64.683	213.713	291.230	64.289	69.400	191.860	145.703	68.623	73.096	73.596	77.996	280.970	77.409	-8191	255	
6698.341	1	1	0	0	0.26071	0.14591	0.092364	0.34217	0.11672	0.048131	0.19329	0.19139	0.3582	0.18105	0.37323	0.10945	0.41229	0.18034	0.017243	0.40075	-1.7604	-1.9417	-1.65	-2.6125	-1.8729	-1.8438	-2.4562	-1.7917	-2.0271	-2.3333	-1.8479	-2.3667	-2	-1.9312	-2.2333	-1.7271	126.825	157.166	244.689	338.867	67.748	98.007	301.557	221.197	389.839	133.365	384.599	376.098	317.818	143.930	208.858	69.047	0.0012064	0.00061492	0.00020334	1338.5	5.2875e-06	3.7899e-06	1339.7	364.67	1.016e-05	5.0802e-06	416.57	140.52	121.47	41.314	5.4281e-06	51.627	0.00076993	0.00075631	0.00019662	1378.9	8.5218e-06	8.1516e-06	1383.1	378.37	8.524e-06	8.075e-06	435.6	146.55	129.01	43.995	7.544e-06	54.785	73.855	369.715	169.240	64.557	124.142	367.114	64.258	69.365	183.744	372.981	69.034	72.996	73.917	78.279	120.311	77.180	-8191	255	
6698.462	1	1	0	0	0.21663	0.08093	0.14982	0.16403	0.22799	0.18309	0.39683	0.27534	0.048961	0.19943	0.31372	0.15707	0.17369	0.27018	0.25798	0.093151	-1.7958	-2.0958	-1.7542	-2.4375	-1.9396	-1.9875	-2.725	-1.7333	-1.8854	-2.2958	-1.5583	-2.1896	-2.1063	-1.7604	-2.3417	-1.7208	191.451	409.721	237.197	388.901	299.625	292.036	340.831	51.443	372.303	106.421	333.406	325.740	375.904	305.684	305.057	289.500	0.0011886	0.00035128	5.5572e-05	1344.5	3.9991e-06	2.5934e-06	1334	366.16	5.5735e-06	5.5826e-06	416.33	140.99	121.48	41.591	1.0471e-05	51.827	0.00078233	0.00072002	0.000191	1384.6	8.5483e-06	7.8288e-06	1382	380.27	8.4167e-06	7.7624e-06	434.33	147.6	128.74	43.829	7.3203e-06	55.131	92.023	199.682	226.665	64.601	219.136	140.385	64.548	69.363	59.857	271.266	68.971	73.113	73.629	78.073	230.805	77.469	-8191	255	
6698.556	1	1	0	0	0.17361	0.12285	0.18077	0.20505	0.039952	0.22423	0.33165	0.20793	0.21245	0.22991	0.29978	0.31784	0.10929	0.12812	0.14836	0.12294	-1.4771	-2.0771	-1.5438	-2.3604	-1.9729	-1.7958	-2.4562	-1.9562	-1.8146	-2.2458	-1.8833	-2.1937	-2.1312	-1.9062	-2.2208	-1.9208	314.901	153.199	342.976	373.557	58.608	177.310	396.060	402.872	240.410	78.276	365.457	382.506	213.854	319.341	128.654	126.786	0.00069788	0.00031981	0.00013945	1335.5	2.6045e-06	4.1056e-06	1342.5	365.97	6.6868e-06	1.6217e-06	419.79	140.42	121.51	41.576	7.3466e-06	51.56	0.00076259	0.0006994	0.00018657	1389	8.2659e-06	7.6122e-06	1382.6	381.89	8.1425e-06	7.6035e-06	435.59	148.38	128.28	43.69	7.3731e-06	55.326	100.811	155.635	140.412	64.494	235.869	183.554	64.089	69.335	248.350	387.662	68.947	73.032	73.650	78.187	59.343	77.316	-8191	255	
6698.652	1	1	0	0	0.23306	0.29728	0.085066	0.22462	0.21541	0.13223	0.25706	0.44634	0.16986	0.2067	0.41333	0.32874	0.045667	0.22332	0.1719	0.19054	-1.5479	-2.1792	-1.4542	-2.2062	-2.1521	-1.8021	-2.3104	-1.9604	-1.8646	-2.3625	-1.9292	-2.0229	-2.3896	-1.6875	-2.2875	-1.9854	349.477	54.377	378.053	330.650	258.617	72.004	62.192	365.217	137.114	278.303	79.341	362.835	359.779	68.213	51.879	391.681	0.00081863	0.00059285	9.561e-05	1344.5	1.3003e-06	7.7743e-06	1347.6	366.34	1.0075e-05	3.6966e-07	418.92	140.67	121.83	41.56	1.6132e-05	51.703	0.00073206	0.00067681	0.00019115	1395.3	7.9609e-06	7.396e-06	1386.5	382.47	7.8457e-06	7.3938e-06	437.42	148.7	127.84	43.679	7.8002e-06	55.478	97.709	381.416	63.579	64.641	246.348	86.961	64.459	69.420	189.624	304.453	68.932	73.072	73.357	78.116	158.976	77.050	-8191	255	
6698.724	1	1	0	0	0.28577	0.088064	0.12609	0.083525	0.17441	0.31572	0.43502	0.1272	0.092047	0.19919	0.26869	0.32197	0.36471	0.18494	0.046641	0.22073	-1.3708	-2.4104	-1.625	-2.3312	-2.2521	-1.7687	-2.3708	-2.2042	-1.7271	-2.2521	-1.9771	-1.9646	-2.3542	-1.9729	-1.9646	-2.2146	257.380	300.499	88.470	352.474	115.916	68.303	381.742	323.381	227.484	355.008	335.679	339.294	64.949	375.241	217.403	406.431	0.00098694	0.00028284	0.00034718	1345.7	2.0148e-06	4.9367e-06	1344.5	365.7	4.4871e-06	6.2246e-06	419.21	141.48	122.19	41.685	1.0109e-05	51.798	0.00070476	0.00066223	0.00020122	1394.3	7.6584e-06	7.216e-06	1390.8	381.64	7.5834e-06	7.1458e-06	439.71	148.2	127.31	43.653	8.179e-06	55.187	82.919	75.693	120.280	64.417	356.739	134.936	64.341	69.428	366.301	200.216	68.767	73.126	73.484	77.970	210.643	76.931	-8191	255	
6698.845	1	1	0	0	0.22458	0.12316	0.095221	0.15995	0.27236	0.1079	0.21272	0.31842	0.059587	0.096169	0.2374	0.20949	0.19067	0.34209	0.083632	0.079242	-1.2854	-2.2396	-1.6208	-2.2812	-2.1875	-1.5083	-2.3292	-2.1521	-1.7104	-2.1792	-2.0771	-2.1146	-2.4792	-1.7833	-2.0125	-2.2271	165.849	153.525	349.070	374.516	141.478	56.366	334.509	391.822	154.591	332.683	313.439	374.234	345.462	68.184	110.386	383.386	0.00093934	0.00033646	0.00022768	1342.1	5.0651e-06	3.7989e-06	1342.5	365	3.7623e-06	5.6736e-07	418.53	140.54	121.93	41.547	1.908e-06	51.756	0.00068704	0.0006528	0.0002113	1390.6	7.4275e-06	7.2139e-06	1393.3	380.07	7.412e-06	7.2714e-06	441.67	147.39	127.03	43.701	8.47e-06	54.944	81.560	186.740	134.681	64.598	202.126	331.687	64.520	69.267	355.470	262.711	68.733	73.012	73.685	78.255	304.290	77.173	-8191	255	
6698.941	1	1	0	0	0.13236	0.11724	0.11675	0.11465	0.074479	0.048111	0.23367	0.29611	0.12607	0.0234	0.16142	0.20537	0.11327	0.167	0.30844	0.18361	-1.2604	-2.1271	-1.7188	-1.7333	-2.3021	-1.75	-2.1646	-2.4375	-1.5771	-2.1104	-1.9083	-1.8312	-2.4979	-1.9188	-1.8833	-2.3479	360.102	180.595	153.037	337.853	378.066	110.436	338.224	345.343	52.085	319.869	310.669	365.105	315.490	65.417	51.635	398.210	0.00099332	0.00051738	0.00021609	1342.7	3.9695e-06	7.8418e-06	1344.9	364.97	2.397e-06	4.818e-06	416.47	140.8	121	41.637	3.3501e-06	51.944	0.000679	0.00067794	0.00021586	1387.7	7.2476e-06	7.5982e-06	1398.1	379.07	7.2364e-06	7.6576e-06	440.21	147	126.46	43.997	8.297e-06	54.77	75.921	138.561	92.869	64.680	86.077	182.940	64.267	69.255	74.469	222.076	68.751	72.989	73.583	78.216	100.136	77.320	-8191	255	
6699.037	1	1	0	0	0.15328	0.21043	0.075787	0.34872	0.1135	0.0949	0.33216	0.14263	0.15655	0.11708	0.18875	0.25841	0.34953	0.26372	0.077977	0.19049	-1.2313	-2.1104	-2.0542	-2.1104	-2.4833	-1.7125	-2.2729	-2.4854	-1.6208	-2.1208	-2.3479	-1.875	-2.1833	-1.8333	-1.8729	-2.2646	396.773	209.318	168.960	328.812	111.679	237.146	321.460	375.514	213.393	127.675	397.449	396.726	280.343	74.044	91.249	279.877	0.0011662	0.00095633	0.000109	1342.2	4.7884e-06	1.1299e-05	1349.7	364.2	1.21e-06	3.823e-06	418.6	141.33	122.35	41.589	3.1498e-06	51.714	0.00065524	0.00071589	0.00021155	1383.6	7.1368e-06	8.0473e-06	1396.9	378.39	7.1743e-06	8.1441e-06	439.56	146.86	126.71	44.239	8.1041e-06	54.546	79.798	152.824	234.692	64.554	257.781	162.924	64.337	69.209	215.809	236.839	68.465	73.177	73.447	78.419	347.290	77.079	-8191	255	
6699.133	1	1	0	0	0.23264	0.17917	0.20047	0.1663	0.14693	0.16482	0.55145	0.056365	0.16512	0.32831	0.15307	0.23607	0.33954	0.30517	0.28817	0.16197	-1.1958	-1.9167	-1.9979	-1.9083	-2.3229	-2.0208	-1.9937	-2.4625	-1.5771	-1.7833	-2.1875	-1.6771	-2.4062	-1.8687	-1.8125	-2.2104	250.697	97.000	247.174	79.764	337.995	158.564	326.537	104.138	141.028	393.864	334.624	57.893	347.773	86.287	62.255	360.486	0.00095091	0.00090131	0.00019772	1338.2	9.5671e-06	2.0007e-06	1347.7	365.08	1.6357e-05	2.0953e-06	417.64	140.03	122.13	41.599	5.641e-06	51.698	0.00066132	0.00075181	0.00020452	1379.7	7.2601e-06	8.3733e-06	1391.6	377.98	7.3543e-06	8.3991e-06	438.32	146.29	127.16	44.431	7.8181e-06	54.479	80.915	167.415	121.246	64.548	202.848	119.190	64.667	69.369	190.528	278.157	68.642	73.119	73.527	78.111	393.337	77.259	-8191	255	
6699.254	1	1	0	0	0.091295	0.1238	0.19967	0.21396	0.1961	0.39599	0.1748	0.2641	0.20467	0.12172	0.20779	0.33919	0.26727	0.26304	0.35896	0.071233	-1.2875	-1.9937	-2.0708	-1.7188	-2.0042	-1.9896	-1.9104	-2.4646	-1.9271	-1.8292	-2.2562	-1.5979	-2.0625	-2.1167	-1.6187	-2.3563	276.394	83.337	130.382	95.597	381.572	329.687	407.473	395.579	362.220	332.346	359.827	340.053	378.262	393.318	77.493	396.696	0.0013203	0.00034592	9.184e-05	1339.9	6.6048e-06	4.3201e-06	1341.4	366.26	9.4919e-06	3.0414e-06	417.88	141.1	122.31	41.672	4.7854e-06	51.97	0.00069582	0.00076278	0.0001977	1379.2	7.6624e-06	8.3748e-06	1388.9	377.39	7.837e-06	8.291e-06	436.29	146.15	127.93	44.349	7.5711e-06	54.378	102.265	298.553	62.882	64.588	168.754	155.405	64.479	69.312	136.071	95.762	68.538	73.021	73.492	78.239	218.497	77.231	-8191	255	
6699.350	1	1	0	0	0.19659	0.22641	0.12313	0.46038	0.17027	0.32525	0.31046	0.25807	0.091168	0.26606	0.12049	0.1996	0.060565	0.22364	0.28927	0.3372	-1.3042	-1.7125	-2.2375	-1.9604	-2.0083	-2.0875	-1.7687	-2.325	-1.9229	-1.8271	-2.2021	-1.9271	-2.05	-2.1437	-1.4562	-2.3104	74.880	254.003	114.063	387.205	129.804	106.562	322.285	366.733	276.312	283.455	302.711	73.381	125.092	66.170	135.858	351.970	0.0014301	0.00035158	6.5071e-05	1338.4	7.1786e-06	3.9107e-06	1337.9	364.81	5.0158e-06	4.0095e-06	417.09	140.84	121.58	41.74	8.459e-06	51.853	0.00072808	0.00072747	0.00019006	1377.3	7.9115e-06	7.9716e-06	1382.1	376.68	8.0654e-06	7.8735e-06	434.62	146.18	128.23	44.059	7.3627e-06	54.386	75.611	371.533	118.811	64.474	156.611	94.793	64.431	69.126	232.064	251.170	68.492	73.014	73.344	78.266	247.832	77.138	-8191	255	
6699.421	1	1	0	0	0.24249	0.14009	0.031592	0.36723	0.031887	0.071213	0.30442	0.42051	0.11634	0.1382	0.36151	0.13268	0.18298	0.12318	0.16716	0.21269	-1.4333	-1.65	-2.3208	-1.9833	-2.1292	-2.0958	-1.8708	-2.2229	-1.8146	-1.8542	-2.2458	-1.7271	-1.9375	-2.1917	-1.5917	-2.2792	387.438	311.872	95.343	320.579	381.694	167.660	330.987	345.203	383.985	263.400	409.410	341.042	126.877	67.350	206.578	64.084	0.0012906	0.00069183	0.00012649	1342.4	3.4445e-06	4.4912e-06	1346.1	364.69	4.9783e-06	3.7124e-06	417.58	140.94	122.28	41.532	2.1647e-06	52.111	0.00075942	0.00071363	0.00018697	1383.5	8.2709e-06	7.7388e-06	1383.4	377.95	8.2402e-06	7.5721e-06	433.6	146.91	128.79	43.833	7.1125e-06	54.758	81.018	361.540	96.791	64.387	97.465	365.430	64.306	69.287	221.699	52.168	68.781	73.066	73.618	78.026	176.753	77.407	-8191	255	
6699.542	1	1	0	0	0.087249	0.31764	0.25154	0.39235	0.15194	0.22362	0.15855	0.13817	0.050613	0.27786	0.10334	0.09214	0.21798	0.14421	0.2249	0.13976	-1.4312	-1.7958	-2.2938	-2.0875	-1.8479	-2.5625	-1.7042	-2.3354	-1.9833	-1.8021	-2.3479	-2.0187	-1.7437	-2.1042	-1.4771	-2.2354	132.439	216.679	233.669	353.768	136.543	383.580	251.641	296.961	204.576	118.233	60.097	405.207	290.129	380.942	92.932	366.317	0.00097476	0.00078109	7.4866e-05	1346.4	3.5541e-06	7.0903e-06	1342.1	364.13	5.2611e-06	3.3702e-06	419.2	140.51	121.57	41.608	4.9555e-06	51.712	0.00074681	0.00067731	0.00018008	1386.7	8.0858e-06	7.4374e-06	1382	379.26	8.0785e-06	7.4271e-06	433.47	147.63	128.22	43.734	7.1275e-06	55.078	85.681	177.649	314.872	64.486	184.726	187.475	64.081	69.102	83.526	245.322	68.753	73.409	73.579	77.975	223.738	77.315	-8191	255	
6699.636	1	1	0	0	0.10512	0.13115	0.1862	0.34993	0.048604	0.20108	0.19401	0.12893	0.095696	0.13638	0.086191	0.29303	0.19918	0.16888	0.19712	0.13885	-1.6042	-1.6458	-2.2021	-2.0167	-1.7896	-2.2375	-1.8417	-2.1396	-2.1604	-1.6542	-2.4479	-1.8687	-1.9958	-2.3063	-1.6313	-2	116.614	181.634	200.059	379.141	405.679	156.661	355.892	264.052	67.306	331.991	213.591	282.744	350.380	300.788	161.045	70.184	0.0010536	0.00044377	0.00018419	1341.9	2.3665e-06	3.0779e-06	1344.9	366.01	6.7289e-06	3.4093e-06	417.59	141	121.73	41.792	1.1491e-05	51.91	0.00072404	0.00066985	0.00018175	1391.1	7.8276e-06	7.3065e-06	1383.6	381.01	7.7969e-06	7.2223e-06	434.24	148.28	127.75	43.597	7.3817e-06	55.288	85.700	133.464	191.517	64.436	375.761	297.945	64.181	69.404	100.180	137.654	68.606	73.164	73.672	78.110	253.239	77.380	-8191	255	
6699.733	1	1	0	0	0.024494	0.1185	0.22012	0.38701	0.084962	0.3109	0.19613	0.23955	0.22401	0.11459	0.094526	0.074167	0.22956	0.080479	0.069049	0.26044	-1.6979	-1.7	-2.2146	-2.3063	-1.7292	-2.3375	-1.8792	-1.9708	-2.3917	-1.5771	-2.4604	-2.1625	-1.8917	-2.4875	-1.5208	-2.1042	309.739	299.861	112.625	361.673	385.739	295.925	360.937	370.305	298.915	203.413	394.065	306.799	60.055	270.273	208.944	311.011	0.00084847	0.00049588	0.00022381	1347.1	4.6233e-06	2.3534e-06	1345.2	364.42	7.9535e-06	4.5318e-06	416.44	140.12	121.95	41.477	9.4952e-06	52.026	0.00069725	0.00065201	0.00018818	1393.8	7.5219e-06	7.0451e-06	1389.4	380.65	7.4703e-06	7.0827e-06	435.83	148.06	127.1	43.522	7.7824e-06	55.262	86.285	163.077	149.631	64.475	183.015	102.568	64.339	69.238	323.847	306.854	68.704	73.385	73.596	77.999	257.113	77.315	-8191	255	
6699.829	1	1	0	0	0.097278	0.079972	0.096836	0.37101	0.13716	0.13886	0.32656	0.11618	0.18606	0.18923	0.14375	0.12108	0.32127	0.13662	0.28689	0.39043	-1.6208	-1.3104	-2.0667	-2.2958	-1.5812	-2.3167	-1.8125	-2.1125	-2.2604	-1.7417	-2.1729	-2.2229	-1.9542	-2.4813	-1.8833	-1.7167	357.940	255.835	260.409	366.641	299.175	136.102	323.148	314.303	115.779	132.912	69.597	77.220	328.242	62.247	285.153	339.649	0.0013595	0.00023078	0.00010179	1346.6	5.4006e-06	2.2541e-06	1342.6	365.49	1.5237e-06	7.302e-07	417.45	140.54	121.55	41.715	8.955e-06	51.801	0.00068134	0.0006441	0.0002005	1391.2	7.3269e-06	6.9313e-06	1391.5	379.94	7.264e-06	7.0287e-06	438.61	147.49	126.77	43.537	8.1633e-06	54.939	67.607	105.510	184.048	64.634	164.246	235.553	64.412	69.153	140.509	375.354	68.724	72.935	73.789	78.184	217.012	77.399	-8191	255	
6699.949	1	1	0	0	0.16381	0.06253	0.25396	0.28775	0.13837	0.3672	0.32672	0.17601	0.37778	0.32028	0.17731	0.19415	0.27339	0.29414	0.16436	0.32291	-1.9542	-1.5292	-1.8833	-2.2792	-1.6292	-2.3042	-2.1021	-2.0687	-2.2583	-1.7229	-2.1437	-2.1188	-1.8229	-2.2646	-1.8917	-1.8083	377.808	144.685	280.145	370.448	94.082	307.328	284.907	400.212	144.486	213.082	66.917	252.514	373.337	400.706	315.404	270.862	0.0010569	0.00048886	0.00032224	1341.1	9.2629e-06	3.0173e-06	1344.4	364.32	1.8467e-06	7.1039e-06	420.38	140.87	122.07	41.669	4.0374e-06	51.812	0.0006604	0.00065074	0.00020694	1386.1	7.1787e-06	7.1011e-06	1394.9	378.87	7.1438e-06	7.3207e-06	440.66	147.08	126.58	43.784	8.2929e-06	54.763	94.520	106.308	155.221	64.644	144.918	287.186	64.345	69.360	409.722	214.600	68.770	73.167	73.438	78.102	152.325	77.368	-8191	255	
6700.021	1	1	0	0	0.099887	0.24305	0.15755	0.36448	0.16381	0.27932	0.41766	0.19332	0.059348	0.054616	0.17372	0.16318	0.014339	0.19095	0.23159	0.046881	-1.7667	-1.6333	-2.0396	-2.2729	-1.5104	-2.1	-2.2229	-1.8833	-2.1979	-1.7437	-2.0875	-2.1979	-1.7271	-2.2583	-2.0458	-1.8	131.938	128.086	276.970	349.593	206.620	347.905	374.169	226.861	298.595	53.255	341.727	131.903	151.526	384.188	396.105	279.727	0.001151	0.001179	0.00010299	1341.6	3.4236e-06	1.1837e-05	1346.7	364.99	7.66e-06	5.8742e-06	417.02	140.11	121.66	41.608	4.0989e-06	51.74	0.00064518	0.00068183	0.00020738	1382.7	7.0104e-06	7.5268e-06	1393.3	378.21	6.96e-06	7.7215e-06	438.47	146.08	126.24	43.929	8.0478e-06	54.514	88.118	163.870	197.698	64.397	191.189	189.316	64.402	69.251	137.355	222.976	68.635	72.871	73.566	78.170	101.785	77.397	-8191	255	
6700.142	1	1	0	0	0.11224	0.22128	0.054314	0.3559	0.15213	0.041469	0.24533	0.16512	0.14245	0.073461	0.14498	0.13449	0.33585	0.20831	0.1326	0.26376	-1.9708	-1.9021	-1.7833	-2.3917	-1.6354	-2.1146	-2.0687	-1.6875	-2.1604	-1.8771	-1.9292	-2.5792	-1.6646	-2.0854	-2.0292	-1.8167	235.187	154.590	265.122	392.183	153.915	184.634	379.846	266.708	96.874	276.026	57.393	60.207	386.804	342.624	300.341	262.598	0.0010306	0.00094937	0.00010902	1337.7	2.6582e-06	6.2409e-06	1345.4	364.51	1.2308e-05	4.4988e-06	419.95	140.99	122.35	41.558	5.8931e-06	51.929	0.00063941	0.00072114	0.00020271	1379.9	7.0202e-06	7.9448e-06	1389.8	377.17	6.96e-06	8.0683e-06	437.62	145.92	126.53	44.106	7.7306e-06	54.403	67.056	131.968	67.951	64.658	128.650	224.514	64.312	69.216	185.221	207.146	68.763	73.045	73.688	78.249	284.076	77.318	-8191	255	
6700.238	1	1	0	0	0.061461	0.2454	0.082834	0.22001	0.17364	0.28667	0.10964	0.24333	0.14206	0.2484	0.18844	0.32682	0.096688	0.18403	0.38945	0.19961	-1.6604	-1.8854	-1.7604	-2.4146	-1.5333	-1.9667	-2.4833	-1.7333	-2.4042	-2.0333	-1.8229	-2.3771	-1.9083	-2.0812	-2.1104	-1.6667	210.181	363.146	408.715	361.730	218.534	118.170	317.706	381.160	74.895	58.980	385.554	338.958	240.253	83.019	303.749	344.029	0.00097967	0.00036437	0.00020878	1345.3	1.068e-05	6.6789e-06	1340.9	363.49	1.483e-05	4.3655e-06	419.13	140.79	121.8	41.704	5.935e-06	51.45	0.00064812	0.00073716	0.00019449	1379.8	7.2162e-06	8.0719e-06	1384.4	375.9	7.2687e-06	8.129e-06	435.55	145.55	127.03	44.15	7.3526e-06	54.085	74.776	193.914	188.713	64.538	187.948	146.033	64.242	69.334	155.655	139.160	68.515	73.059	73.959	78.147	207.449	77.039	-8191	255	
6700.334	1	1	0	0	0.1388	0.11143	0.17775	0.2969	0.16763	0.077692	0.53143	0.13247	0.15311	0.13754	0.55177	0.12293	0.29204	0.22686	0.26404	0.22156	-1.75	-2.0667	-1.6083	-2.5042	-1.7292	-1.9312	-2.3187	-1.8521	-2.2042	-1.8396	-1.6625	-2.55	-1.9792	-1.9542	-2.1208	-1.7833	197.920	198.255	73.827	367.079	148.033	323.954	404.927	322.827	391.465	194.051	361.012	114.786	350.006	312.506	64.885	304.048	0.0013277	0.00064274	0.00018652	1342.6	1.0014e-05	2.6328e-06	1341.4	364.42	1.6548e-05	2.8303e-06	417.02	140.36	121.97	41.357	2.7896e-06	51.7	0.00067947	0.0007247	0.00018575	1374.2	7.5297e-06	7.8619e-06	1380.2	375.57	7.6528e-06	7.8705e-06	433.76	145.12	127.66	43.894	7.309e-06	54.139	75.581	155.841	204.853	64.586	158.474	335.372	64.113	69.460	176.102	195.919	68.722	73.197	73.450	78.159	227.095	77.322	-8191	255	
6700.430	1	1	0	0	0.10293	0.17429	0.14864	0.43301	0.32014	0.15975	0.14806	0.41527	0.3904	0.22211	0.15157	0.27651	0.15309	0.02888	0.2504	0.2453	-1.7708	-2.4062	-1.5938	-2.5354	-1.85	-1.6708	-2.6479	-1.825	-1.9521	-2.1104	-1.8021	-2.3438	-2.0938	-1.8771	-2.1167	-1.7104	233.508	331.773	208.965	395.064	69.008	107.470	341.460	352.995	288.931	231.252	280.500	353.823	364.702	359.721	150.712	331.302	0.0013644	0.00048049	9.144e-05	1337.4	9.6391e-06	3.7348e-06	1337.3	365.03	4.0804e-06	5.2699e-06	416.46	140.56	121.21	41.511	4.7988e-06	51.681	0.00072275	0.0007089	0.00018511	1373.1	8.0438e-06	7.637e-06	1378.4	376.14	7.9762e-06	7.5629e-06	433.11	145.7	127.65	43.789	7.0297e-06	54.288	71.415	388.916	363.704	64.583	173.427	390.836	64.339	69.165	167.224	354.780	68.584	73.232	73.584	78.067	73.516	77.255	-8191	255	
6700.549	1	1	0	0	0.14198	0.38952	0.11928	0.43095	0.098934	0.18319	0.16791	0.17716	0.22918	0.12774	0.26249	0.093773	0.06624	0.073324	0.12536	0.016423	-1.5667	-2.1042	-1.5729	-2.2396	-1.9479	-1.7188	-2.5312	-1.8312	-2.2042	-2.1333	-1.7687	-2.1437	-2.1458	-1.7396	-2.1312	-1.8625	338.888	189.581	260.886	368.822	291.068	158.900	385.855	202.094	64.252	268.442	73.459	339.627	401.247	169.563	172.340	57.596	0.0011381	0.00011688	3.6056e-05	1339.2	4.4473e-06	5.7694e-06	1336.7	364.69	5.4141e-06	8.0098e-06	418.42	140.74	121.66	41.462	4.872e-06	52.02	0.00073043	0.00067489	0.00017789	1376.6	7.9718e-06	7.3347e-06	1373.1	377.06	7.9075e-06	7.2998e-06	431.46	146.37	127.8	43.539	6.8454e-06	54.678	80.557	379.989	59.861	64.416	117.418	120.537	64.439	69.369	232.780	400.215	68.643	73.181	73.807	77.924	220.975	77.441	-8191	255	
6700.645	1	1	0	0	0.074137	0.23579	0.10905	0.31444	0.058801	0.1126	0.11278	0.22713	0.12958	0.13844	0.13319	0.28602	0.38061	0.25495	0.1449	0.12636	-1.3333	-2.075	-1.4542	-2.4104	-1.9958	-1.6917	-2.6292	-1.9917	-2.0312	-2.2125	-1.7375	-2.0417	-2.1479	-1.6917	-2.1271	-1.8792	63.335	183.045	302.803	352.657	321.922	320.488	370.643	327.630	259.042	306.879	360.978	397.689	72.106	322.224	173.850	132.914	0.0011246	0.00040492	4.1392e-05	1338	4.3186e-06	3.2564e-06	1340.6	364.29	2.3878e-06	3.6561e-06	417.66	140.03	121.26	41.59	1.956e-05	51.991	0.00071323	0.00065109	0.00017494	1380.6	7.7865e-06	7.1489e-06	1374.8	378.29	7.682e-06	7.1793e-06	431.79	147.1	127.23	43.532	6.981e-06	55.064	75.741	208.880	278.845	64.559	131.537	395.783	64.564	69.436	148.771	261.380	68.645	73.274	73.475	78.126	188.301	77.209	-8191	255	
6700.717	1	1	0	0	0.25671	0.19634	0.041176	0.073509	0.054115	0.2471	0.062715	0.22541	0.091514	0.30344	0.082991	0.11634	0.40566	0.12085	0.16798	0.19002	-1.5021	-2.1958	-1.7271	-2.1604	-2.1396	-1.6167	-2.4292	-2.0208	-1.65	-2.2917	-1.7062	-1.9688	-2.1708	-1.5396	-2.1729	-2.0771	163.315	180.469	351.862	405.044	239.514	58.544	400.646	387.348	410.270	145.604	393.927	408.561	386.179	80.047	297.118	64.956	0.00096591	3.7484e-05	0.00015707	1338	3.2685e-06	1.5135e-06	1338.7	365.49	5.371e-06	3.7551e-06	415.62	140.02	122.5	41.552	1.5858e-05	51.721	0.00069801	0.00065295	0.00018204	1386	7.5842e-06	7.0768e-06	1376.2	380.06	7.5304e-06	7.0606e-06	432.93	147.62	127.17	43.381	7.4158e-06	55.131	78.064	251.610	159.302	64.499	179.524	335.127	64.323	69.137	356.858	339.052	68.815	73.273	73.692	78.125	219.404	77.311	-8191	255	
6700.813	1	1	0	0	0.28674	0.19668	0.27386	0.21662	0.12376	0.11273	0.21868	0.16959	0.19477	0.44956	0.19812	0.33676	0.11796	0.34182	0.15395	0.059615	-1.4104	-2.2125	-1.6958	-2.0604	-2.3375	-1.5312	-2.2896	-2.0771	-1.6771	-2.2083	-1.8708	-1.9521	-2.1854	-1.6771	-2.0104	-2.0917	102.101	103.651	262.499	357.862	284.014	150.971	364.232	347.747	91.953	356.447	399.192	402.321	382.163	363.455	124.601	405.774	0.00077935	0.00084343	0.00031947	1340.9	3.718e-06	3.8075e-06	1347.8	364.17	7.2696e-06	2.6538e-06	417.35	139.98	121.49	41.477	1.3543e-05	51.786	0.00067683	0.00063551	0.00019167	1387.5	7.3936e-06	6.9888e-06	1382.9	379.67	7.3642e-06	6.9931e-06	436.7	147.16	126.59	43.424	7.8809e-06	54.992	65.836	223.506	115.666	64.685	242.817	140.552	64.222	69.386	86.115	257.120	68.832	72.998	73.590	78.185	200.613	77.204	-8191	255	
6700.934	1	1	0	0	0.32073	0.13086	0.14928	0.3086	0.13362	0.13236	0.18755	0.23394	0.074845	0.21851	0.30344	0.18433	0.45449	0.21964	0.066409	0.16763	-1.2958	-2.1271	-1.9167	-2.0229	-2.25	-1.7563	-2.2958	-2.2771	-1.6542	-2.1437	-2.0938	-1.8583	-2.2562	-1.825	-1.9917	-2.0917	359.874	61.732	204.468	324.195	111.881	137.327	120.675	373.507	269.864	192.747	356.323	294.215	76.713	101.728	372.546	314.456	0.0010454	0.0013077	0.00022109	1339.9	4.2736e-06	7.5828e-06	1337.5	363.86	8.1039e-06	5.4783e-06	416.4	139.48	121.66	41.643	6.3626e-06	51.621	0.00066546	0.00064004	0.00020435	1383.7	7.2133e-06	6.9911e-06	1387.1	378.55	7.1653e-06	7.0541e-06	437.93	146.72	126.23	43.466	8.0789e-06	54.61	80.084	186.755	161.631	64.668	124.616	182.469	64.485	69.256	244.565	225.213	68.738	73.122	73.716	78.107	252.499	77.042	-8191	255	
6701.030	1	1	0	0	0.080409	0.27784	0.32923	0.37586	0.078583	0.23149	0.22868	0.27883	0.074071	0.18893	0.30726	0.16989	0.19969	0.27183	0.040608	0.13933	-1.0917	-2.0146	-2.0625	-2.025	-2.3063	-1.5583	-2.25	-2.1292	-1.625	-2.1167	-2.0646	-1.9312	-2.4979	-1.7083	-2.0875	-2.1979	229.262	221.598	408.755	340.370	206.059	215.757	396.922	354.252	311.297	208.691	390.193	332.241	355.936	398.627	136.058	241.191	0.00089937	0.0010128	0.00012542	1339.9	7.436e-06	9.9774e-06	1338.5	363.5	2.451e-06	7.2569e-06	418.29	140.75	121.07	41.575	9.1953e-06	51.52	0.00064524	0.0006453	0.00020603	1379.7	6.943e-06	7.1772e-06	1386.8	376.84	6.9446e-06	7.2642e-06	437.88	146.14	125.71	43.712	7.9682e-06	54.331	82.113	182.014	195.637	64.669	93.806	112.228	64.444	69.292	97.818	228.738	68.726	73.091	73.535	78.316	303.104	77.317	-8191	255	
6701.126	1	1	0	0	0.16791	0.11339	0.084054	0.16371	0.17605	0.061265	0.14124	0.096492	0.33965	0.153	0.092461	0.21419	0.30032	0.026519	0.20207	0.18858	-0.99583	-2.3542	-1.8312	-1.9083	-2.1292	-1.7479	-2.225	-2.3646	-1.5625	-2.0458	-2.2583	-1.6333	-2.3229	-1.8521	-1.9729	-2.2479	67.272	134.269	305.952	137.338	59.064	287.979	371.705	140.820	101.776	133.773	78.764	240.532	398.161	377.525	120.218	357.465	0.0008914	0.00045465	0.00016662	1338.6	5.5369e-06	1.1978e-05	1339.1	363.39	7.4862e-06	7.5186e-06	416.84	140.57	121.17	41.64	8.3146e-06	51.934	0.00062766	0.00067924	0.00020255	1375.4	6.7665e-06	7.6297e-06	1383.1	375.71	6.8335e-06	7.7032e-06	435.81	145.82	125.68	43.952	7.7661e-06	54.299	86.657	208.332	119.922	64.461	126.702	185.600	64.195	69.260	167.685	195.168	68.712	73.042	73.738	78.271	175.736	77.339	-8191	255	
6701.222	1	1	0	0	0.24166	0.21625	0.33879	0.16241	0.21715	0.11731	0.33824	0.22322	0.20042	0.058502	0.12486	0.087141	0.2306	0.1158	0.24796	0.30967	-1.2542	-1.8	-1.9937	-1.7604	-2.2562	-1.6875	-1.9333	-2.2938	-1.6229	-1.8042	-2.0708	-1.6521	-2.1354	-2.0208	-1.6375	-2.4083	332.396	398.204	200.834	304.260	288.140	405.765	367.891	362.656	201.082	295.784	369.411	362.727	395.072	125.871	164.789	339.093	0.0013237	0.00049105	0.00019356	1337.4	1.1311e-05	2.4491e-06	1338	364.11	4.1784e-06	8.4866e-06	418.26	140.56	121.18	41.554	1.8297e-06	51.625	0.00063318	0.0007144	0.00019613	1375.5	6.9111e-06	7.9648e-06	1383	375.22	6.9766e-06	7.9962e-06	435.12	145.42	126.13	44.067	7.4918e-06	54.059	89.122	151.044	360.822	64.557	195.580	129.036	64.250	69.326	207.853	247.631	68.890	72.983	73.548	78.111	320.837	77.167	-8191	255	
6701.318	1	1	0	0	0.12759	0.32767	0.074687	0.40866	0.21172	0.14092	0.28442	0.30307	0.13066	0.20448	0.1958	0.1613	0.19088	0.1273	0.13463	0.20635	-1.025	-1.9021	-1.9646	-1.9771	-2.075	-1.9604	-1.9229	-2.5875	-1.6667	-1.9833	-2.1979	-1.6938	-2.0833	-2.0604	-1.7062	-2.5125	338.031	131.118	322.551	380.217	170.318	77.664	332.998	335.688	75.286	170.874	299.731	386.282	94.301	68.762	344.355	394.781	0.0015198	0.00049651	0.00011099	1337.5	9.0843e-06	2.2987e-06	1343.4	363.23	8.4076e-06	7.8328e-06	416.69	140.24	121.43	41.342	7.0841e-06	51.553	0.00066341	0.00073332	0.00018883	1373	7.3106e-06	8.0252e-06	1381	374.95	7.4682e-06	7.9076e-06	433.99	145.29	126.96	44.052	7.2753e-06	53.996	72.102	102.575	123.199	64.605	183.465	110.333	64.235	69.441	167.068	210.908	68.587	73.096	73.387	78.030	358.173	77.299	-8191	255	
6701.414	1	1	0	0	0.42909	0.17923	0.12881	0.23564	0.20638	0.098612	0.1954	0.27673	0.30125	0.23637	0.2068	0.23232	0.1742	0.26276	0.07268	0.061868	-1.3375	-1.8062	-2.1708	-1.9333	-2.2354	-1.9833	-1.7021	-2.2833	-1.8104	-1.6375	-2.5458	-1.7417	-2.1646	-2.3208	-1.4688	-2.3146	169.204	199.313	405.560	54.731	170.484	360.895	368.281	324.915	123.136	373.974	325.234	409.376	301.712	82.420	269.980	208.248	0.0013394	0.0006011	0.00021083	1338.5	6.7326e-06	4.3342e-06	1342.5	364.52	1.2198e-05	4.2505e-06	416.38	140.42	122.26	41.344	3.9645e-06	51.49	0.00070274	0.00071293	0.00018563	1374.8	7.7857e-06	7.7841e-06	1379.5	375.06	7.8892e-06	7.7372e-06	432.93	145.42	127.88	43.742	7.2123e-06	54.104	73.910	228.346	90.382	64.626	144.140	121.009	64.323	69.251	147.814	141.491	68.666	73.389	73.442	78.407	250.927	77.260	-8191	255	
6701.511	1	1	0	0	0.17592	0.090473	0.13496	0.31495	0.12085	0.056545	0.39534	0.082228	0.20845	0.21876	0.42872	0.18871	0.11138	0.047865	0.1196	0.35834	-1.4937	-1.8188	-2.225	-1.7854	-2.0292	-2.0667	-1.8021	-2.2417	-2.0563	-1.7042	-2.5271	-1.9562	-2.0229	-2.2396	-1.5042	-2.2417	340.222	136.950	249.590	372.120	102.976	273.242	392.043	350.396	266.715	215.248	319.573	377.660	133.257	259.186	127.338	93.017	0.001183	0.00044296	0.0001893	1339.7	4.5455e-06	3.6087e-06	1340.6	363.85	1.3123e-05	2.614e-06	415.49	140.54	121.65	41.419	5.2603e-07	51.753	0.00073536	0.0006932	0.00018168	1376.6	7.9759e-06	7.5135e-06	1377.4	375.46	7.9883e-06	7.3949e-06	430.84	146.22	127.89	43.686	6.9322e-06	54.468	89.300	275.443	75.635	64.625	142.552	369.027	64.553	69.302	166.127	392.020	68.839	73.173	73.534	77.989	296.316	77.416	-8191	255	
6701.629	1	1	0	0	0.26244	0.3265	0.037941	0.23045	0.16416	0.18827	0.18447	0.19118	0.13554	0.10267	0.26242	0.30723	0.30891	0.29702	0.085	0.075885	-1.4958	-1.4937	-2.1688	-2.0354	-1.8146	-2.3271	-1.6458	-2.3417	-2.0896	-1.8062	-2.3875	-1.6958	-1.8375	-2.2229	-1.3813	-2.3021	209.882	260.424	81.685	342.075	186.741	407.082	358.317	375.743	64.533	100.095	371.179	399.596	52.772	349.162	400.212	269.804	0.00063924	0.00031228	0.00010689	1334.8	6.5905e-06	3.9791e-06	1339	364.27	3.6578e-06	8.8374e-07	417.08	140.63	121.82	41.634	1.1096e-05	51.742	0.00072916	0.00066497	0.00017549	1378.6	7.8985e-06	7.2562e-06	1374.4	377.4	7.9021e-06	7.2142e-06	431.21	146.9	127.55	43.545	6.915e-06	54.826	56.489	190.160	112.323	64.688	185.515	227.008	64.619	69.141	278.908	359.685	68.674	73.120	73.512	78.194	280.088	77.270	-8191	255	
6701.726	1	1	0	0	0.1293	0.15457	0.19821	0.3753	0.15772	0.18882	0.11413	0.25262	0.15109	0.25887	0.14073	0.18011	0.12116	0.18342	0.061344	0.28096	-1.5812	-1.7625	-2.275	-2.0438	-1.8979	-2.1479	-2.0083	-2.2146	-1.9688	-1.8042	-2.2896	-2.1292	-1.6208	-2.3125	-1.8083	-2.0646	301.746	171.222	402.812	56.315	121.395	368.478	53.069	376.564	182.369	69.034	396.279	398.593	63.894	363.301	67.893	254.914	0.001034	0.00062837	0.0001584	1338.8	7.9126e-06	2.2574e-06	1337	364.42	4.3964e-06	4.2299e-06	417.75	140.79	121.35	41.638	1.4588e-05	51.485	0.00071409	0.00065281	0.00017591	1384.6	7.6482e-06	7.0889e-06	1376.2	378.53	7.5941e-06	7.0966e-06	432.13	147.53	126.96	43.442	7.1224e-06	55.003	71.388	175.666	172.723	64.507	112.376	87.857	64.347	69.168	98.342	359.277	68.712	73.173	73.458	78.249	235.404	77.343	-8191	255	
6701.822	1	1	0	0	0.23366	0.14556	0.116	0.3545	0.1729	0.2799	0.17118	0.16524	0.2211	0.45642	0.17735	0.17254	0.17391	0.37141	0.13829	0.16721	-1.7417	-1.5938	-2.1646	-1.9937	-1.8583	-2.2375	-1.8417	-2.0187	-2.0875	-1.7437	-2.4271	-1.8604	-1.8375	-2.3021	-1.6646	-1.8208	327.074	164.423	321.691	368.110	156.280	378.679	281.354	75.021	212.140	172.370	310.700	177.536	77.622	68.230	289.396	107.527	0.00083355	0.0005644	0.00018573	1338.7	3.9112e-06	3.2658e-06	1342.8	363.88	4.4677e-06	6.8886e-06	415.53	140.11	121.57	41.633	7.2748e-06	51.786	0.00068765	0.00064007	0.00018407	1387	7.3677e-06	6.9891e-06	1379.7	378.89	7.3423e-06	6.9755e-06	433.67	147.47	126.68	43.447	7.6013e-06	54.981	99.183	66.058	183.596	64.594	290.199	409.481	64.420	69.164	109.072	301.483	68.831	73.033	73.426	78.258	272.972	77.332	-8191	255	
6701.918	1	1	0	0	0.10092	0.15827	0.067597	0.14082	0.28327	0.16854	0.25843	0.14336	0.1891	0.17639	0.23882	0.2602	0.32483	0.15971	0.038416	0.34922	-1.9229	-1.775	-2.2271	-2.2833	-1.6104	-2.2979	-2.0729	-2.0938	-2.1562	-1.4771	-2.2188	-2.1521	-1.5833	-2.3604	-1.8125	-1.9583	248.137	296.749	131.853	314.918	100.885	124.064	307.288	124.343	110.871	61.291	204.774	268.116	56.793	283.232	355.256	312.591	0.0010635	0.00058212	0.00020242	1336	1.7608e-06	4.3173e-06	1340.6	363.26	7.1776e-06	4.7235e-06	416.55	140.16	121.51	41.478	2.0876e-06	51.574	0.00066839	0.00062492	0.00019456	1383.8	7.2496e-06	6.8295e-06	1384	378.45	7.2674e-06	6.8618e-06	436.62	146.92	126.29	43.347	7.936e-06	54.704	81.081	157.212	118.350	64.549	360.672	93.929	64.686	69.251	261.325	104.545	68.795	73.063	73.701	78.436	116.173	76.968	-8191	255	
6702.014	1	1	0	0	0.12632	0.11872	0.23357	0.28061	0.085178	0.11062	0.040158	0.22652	0.28902	0.10451	0.25936	0.20284	0.051225	0.03836	0.29377	0.17738	-1.8208	-1.6792	-1.9896	-2.4792	-1.5646	-2.3312	-2.0938	-1.9917	-2.1188	-1.6104	-2.275	-2.2021	-1.7292	-2.1833	-1.7875	-1.7792	272.932	287.814	290.570	393.236	194.075	392.297	158.748	362.043	145.713	313.670	91.583	406.349	71.718	389.263	257.390	273.173	0.0007358	0.0011447	4.034e-05	1332.2	2.9693e-06	4.513e-06	1339.8	362.94	8.585e-06	6.5268e-06	417.07	140.62	121.49	41.656	8.7888e-06	51.577	0.00065333	0.00062969	0.00020391	1380.7	7.0708e-06	6.9288e-06	1388.2	376.7	7.0099e-06	7.1176e-06	437.21	146.35	125.89	43.503	8.085e-06	54.418	88.835	181.141	133.416	64.634	155.124	168.615	64.444	69.136	143.310	223.432	68.600	72.918	73.571	78.120	257.182	77.244	-8191	255	
6702.110	1	1	0	0	0.23567	0.12037	0.12648	0.21386	0.18334	0.046959	0.28398	0.34077	0.11516	0.13651	0.18699	0.20187	0.3001	0.18675	0.056737	0.29745	-1.6979	-1.9375	-1.7646	-2.4938	-1.6271	-2.0417	-2.2208	-1.7687	-2.4375	-1.675	-2.0771	-2.2792	-1.6437	-2.0187	-1.9667	-1.7146	328.695	230.178	364.422	377.623	165.139	62.694	366.147	338.560	297.645	61.791	89.472	345.417	76.841	53.688	62.818	259.769	0.00060582	0.0014311	0.00024535	1338.1	6.9005e-06	6.4283e-06	1344.9	365.54	6.9516e-06	7.1518e-06	416.97	140.09	121.47	41.705	9.5716e-06	51.729	0.00063387	0.00066715	0.00020509	1378.7	6.8803e-06	7.3411e-06	1388.5	377.3	6.8151e-06	7.4948e-06	437.05	145.84	125.69	43.839	7.9269e-06	54.28	66.724	165.369	153.919	64.530	141.623	217.003	64.260	69.538	126.271	261.780	68.640	73.301	73.475	78.120	84.506	77.315	-8191	255	
6702.231	1	1	0	0	0.072997	0.15242	0.21793	0.19618	0.34356	0.018946	0.16529	0.34955	0.12629	0.14339	0.33166	0.059771	0.20977	0.33626	0.14993	0.059745	-1.8167	-1.7583	-1.8854	-2.4813	-1.6313	-2.1917	-2.0104	-1.775	-2.0792	-1.8375	-2.1354	-2.2875	-1.875	-2.1083	-2.2229	-1.8083	348.058	401.980	362.484	410.793	257.142	178.510	291.709	353.482	104.904	245.338	211.964	51.645	302.187	408.448	88.561	308.460	0.001178	0.0011509	0.00010932	1335.5	1.0701e-05	9.0971e-06	1344.7	364.67	6.2184e-06	9.5277e-06	417.29	140.66	121.84	41.464	1.7524e-06	51.662	0.00062395	0.00070273	0.00019884	1375.3	6.7641e-06	7.7314e-06	1385.4	375.61	6.7849e-06	7.7925e-06	435.25	145.49	125.87	43.911	7.627e-06	54.062	72.069	154.248	216.828	64.643	201.592	156.171	64.114	69.180	156.941	225.710	68.812	73.038	73.798	78.050	313.085	77.245	-8191	255	
6702.327	1	1	0	0	0.12218	0.13018	0.14161	0.13367	0.16506	0.13876	0.1953	0.13671	0.028759	0.054045	0.18432	0.079416	0.13859	0.21151	0.10523	0.078858	-1.7583	-1.8604	-1.6938	-2.4104	-1.8479	-2.0458	-2.3063	-1.7062	-2.1458	-1.9458	-1.6812	-2.3896	-1.8208	-1.9354	-2.0542	-1.7104	148.713	98.645	345.213	314.990	125.049	227.832	350.912	298.593	73.481	252.485	70.752	110.526	345.245	349.241	213.618	307.704	0.001313	0.00050978	0.00016113	1339	7.4118e-06	6.0593e-06	1339.6	363.6	1.2934e-05	5.2505e-06	418.79	141.19	121.1	41.51	5.8513e-06	51.721	0.00063434	0.00072582	0.00019075	1374.1	7.049e-06	7.886e-06	1381.2	374.86	7.0489e-06	7.9889e-06	433.86	145.42	126.35	44.047	7.3427e-06	53.964	85.549	196.971	394.809	64.548	180.019	165.882	64.315	69.259	189.533	378.929	68.578	72.898	73.400	78.039	187.828	77.233	-8191	255	
6702.421	1	1	0	0	0.01657	0.16562	0.058692	0.38564	0.31147	0.11023	0.26023	0.25497	0.13359	0.12939	0.30614	0.084535	0.25246	0.10225	0.14709	0.23492	-1.8708	-1.8937	-1.7125	-2.6104	-1.6229	-1.9937	-2.2542	-1.7167	-2.225	-2.1146	-1.7229	-2.5812	-1.8	-1.9312	-2.2333	-1.7792	189.371	277.725	98.335	355.418	236.196	217.709	300.764	324.919	98.874	184.537	390.119	70.588	63.054	394.105	56.840	400.046	0.0013176	0.00031126	3.6769e-05	1341.2	1.0904e-05	4.9816e-06	1341.2	364.61	7.2918e-06	1.8569e-06	416.83	140.6	121.86	41.278	7.1329e-06	51.901	0.00066245	0.00071239	0.00018277	1373.2	7.3612e-06	7.7167e-06	1377.4	374.59	7.4137e-06	7.7041e-06	432.43	144.92	127.26	43.777	7.0658e-06	53.933	79.572	293.717	380.358	64.408	186.700	404.771	64.187	69.260	182.392	346.949	68.618	73.186	73.497	78.029	246.803	77.128	-8191	255	
6702.517	1	1	0	0	0.29347	0.23212	0.049474	0.17736	0.10124	0.046516	0.27919	0.2653	0.2938	0.26251	0.25339	0.11038	0.24951	0.31302	0.043253	0.21312	-1.7021	-2.0167	-1.65	-2.4646	-1.8542	-1.9042	-2.4729	-1.7938	-2.0667	-2.0708	-1.7625	-2.2458	-2.0771	-1.9188	-2.3646	-1.9417	390.538	247.804	325.122	319.933	168.656	286.766	345.536	291.549	176.990	89.730	95.187	113.132	60.609	102.405	165.941	75.501	0.0010873	0.00057606	8.1646e-05	1339.4	3.0146e-06	4.5494e-06	1344.5	363.38	1.6473e-05	3.0163e-06	415.29	140.92	121.78	41.565	2.583e-06	51.976	0.00069601	0.00068829	0.00017838	1370.2	7.714e-06	7.4298e-06	1376.2	374.29	7.7261e-06	7.386e-06	430.36	145.12	127.56	43.649	6.8814e-06	54.104	75.807	354.655	166.181	64.565	129.024	138.599	64.359	69.047	166.030	326.097	68.588	72.874	73.709	78.139	193.920	77.365	-8191	255	
6702.591	1	1	0	0	0.12242	0.14201	0.037992	0.13614	0.32356	0.23874	0.2217	0.12369	0.15016	0.13139	0.15718	0.19769	0.055096	0.13012	0.22299	0.17831	-1.5875	-2.0792	-1.5562	-2.4188	-1.9792	-1.7938	-2.5125	-2.0563	-2.1875	-2.175	-1.7896	-2.3021	-2.0854	-2.0083	-2.2438	-2.0792	126.043	294.002	364.500	397.930	124.485	276.970	305.241	407.074	136.067	401.148	397.483	205.319	298.365	295.959	301.849	60.856	0.0012057	0.00036687	0.00015075	1339.4	4.3798e-06	2.4928e-06	1338.1	363.43	7.7407e-06	4.4199e-06	415.39	140.68	121.85	41.492	6.0026e-06	51.699	0.00070593	0.00065863	0.00017298	1372.6	7.7363e-06	7.1272e-06	1371.7	375.19	7.6737e-06	7.0768e-06	428.9	146.11	127.35	43.456	6.6915e-06	54.456	94.025	144.349	177.227	64.724	230.776	72.080	64.511	69.504	206.406	202.822	68.942	73.287	73.589	78.060	371.976	77.438	-8191	255	
6702.710	1	1	0	0	0.14296	0.30264	0.1805	0.10237	0.16895	0.25998	0.35339	0.13331	0.29867	0.26523	0.25975	0.15404	0.082128	0.082734	0.22307	0.20542	-1.5312	-2.1104	-1.5667	-2.2521	-1.9333	-1.75	-2.4188	-1.9979	-1.7333	-2.2479	-1.775	-2.2875	-2.2229	-1.7563	-2.1375	-2.0729	260.393	250.345	121.127	379.541	140.805	295.416	375.107	386.127	337.999	238.452	377.196	353.460	409.796	252.790	311.453	354.320	0.0011165	0.00050821	0.00014732	1335.5	3.2618e-06	3.2997e-06	1342.8	363.34	7.7487e-06	4.5093e-06	416.45	139.46	121.14	41.436	1.3537e-05	51.922	0.00069443	0.00064091	0.00017111	1377.1	7.6026e-06	6.9525e-06	1371.4	377.18	7.5311e-06	7.0231e-06	429.56	146.47	126.94	43.373	6.8209e-06	54.799	89.522	393.754	196.407	64.701	132.717	132.256	64.365	69.315	274.383	108.253	68.748	73.140	73.443	78.299	227.185	77.158	-8191	255	
#DATA ENDS
