BOXY.EXE: ISS Imagent and Oximeter Data Acquisition Program Version 0.80
Ascii Record File

#ACQ INFORMATION
2  Detector Channels 
16  External MUX Channels 
1  Auxiliary Channels 
5000  Waveform (CCF) Frequency (Hz)
1  Waveforms Skipped 
30  Waveforms Averaged 
1  Cycles Averaged 
16  Acquisitions per Waveform 
10.0806  Updata Rate (Hz) 

#FILE INFORMATION
TRUE -- External MUX Channel results are PARSED.
FALSE -- AC DC and Phase are NOT grouped.
TRUE -- Companion Program Settings File CREATED.
FALSE -- AC data not excluded
FALSE -- DC data not excluded
FALSE -- Phase data not excluded
FALSE -- Auxillary Chn. data not excluded
Tab delimiters

#CALIBRATION STATE
TRUE -- Waveform Calibration Values APPLIED.


#AUX CALIBRATION VALUES
Val Type	aux-1	

Term	1.0000e+00	
Factor	0.0000e+00	


#WF CALIBRATION VALUES
A = Detector Channel
Val Type	A-AC1	A-AC2	A-AC3	A-AC4	A-AC5	A-AC6	A-AC7	A-AC8	A-AC9	A-AC10	A-AC11	A-AC12	A-AC13	A-AC14	A-AC15	A-AC16	A-DC1	A-DC2	A-DC3	A-DC4	A-DC5	A-DC6	A-DC7	A-DC8	A-DC9	A-DC10	A-DC11	A-DC12	A-DC13	A-DC14	A-DC15	A-DC16	A-Ph1	A-Ph2	A-Ph3	A-Ph4	A-Ph5	A-Ph6	A-Ph7	A-Ph8	A-Ph9	A-Ph10	A-Ph11	A-Ph12	A-Ph13	A-Ph14	A-Ph15	A-Ph16	

Term	0.00000e+00	0.00000e+00	0.00000e+00	0.00000e+00	0.00000e+00	0.00000e+00	0.00000e+00	0.00000e+00	0.00000e+00	0.00000e+00	0.00000e+00	0.00000e+00	0.00000e+00	0.00000e+00	0.00000e+00	0.00000e+00	0.00000e+00	0.00000e+00	0.00000e+00	0.00000e+00	0.00000e+00	0.00000e+00	0.00000e+00	0.00000e+00	0.00000e+00	0.00000e+00	0.00000e+00	0.00000e+00	0.00000e+00	0.00000e+00	0.00000e+00	0.00000e+00	0.00000e+00	0.00000e+00	0.00000e+00	0.00000e+00	0.00000e+00	0.00000e+00	0.00000e+00	0.00000e+00	0.00000e+00	0.00000e+00	0.00000e+00	0.00000e+00	0.00000e+00	0.00000e+00	0.00000e+00	0.00000e+00	
Factor	1.00000e+00	1.00000e+00	1.00000e+00	1.00000e+00	1.00000e+00	1.00000e+00	1.00000e+00	1.00000e+00	1.00000e+00	1.00000e+00	1.00000e+00	1.00000e+00	1.00000e+00	1.00000e+00	1.00000e+00	1.00000e+00	1.00000e+00	1.00000e+00	1.00000e+00	1.00000e+00	1.00000e+00	1.00000e+00	1.00000e+00	1.00000e+00	1.00000e+00	1.00000e+00	1.00000e+00	1.00000e+00	1.00000e+00	1.00000e+00	1.00000e+00	1.00000e+00	X	X	X	X	X	X	X	X	X	X	X	X	X	X	X	X	

B = Detector Channel
Val Type	B-AC1	B-AC2	B-AC3	B-AC4	B-AC5	B-AC6	B-AC7	B-AC8	B-AC9	B-AC10	B-AC11	B-AC12	B-AC13	B-AC14	B-AC15	B-AC16	B-DC1	B-DC2	B-DC3	B-DC4	B-DC5	B-DC6	B-DC7	B-DC8	B-DC9	B-DC10	B-DC11	B-DC12	B-DC13	B-DC14	B-DC15	B-DC16	B-Ph1	B-Ph2	B-Ph3	B-Ph4	B-Ph5	B-Ph6	B-Ph7	B-Ph8	B-Ph9	B-Ph10	B-Ph11	B-Ph12	B-Ph13	B-Ph14	B-Ph15	B-Ph16	

Term	0.00000e+00	0.00000e+00	0.00000e+00	0.00000e+00	0.00000e+00	0.00000e+00	0.00000e+00	0.00000e+00	0.00000e+00	0.00000e+00	0.00000e+00	0.00000e+00	0.00000e+00	0.00000e+00	0.00000e+00	0.00000e+00	0.00000e+00	0.00000e+00	0.00000e+00	0.00000e+00	0.00000e+00	0.00000e+00	0.00000e+00	0.00000e+00	0.00000e+00	0.00000e+00	0.00000e+00	0.00000e+00	0.00000e+00	0.00000e+00	0.00000e+00	0.00000e+00	-1.53398e+02	-1.29654e+02	-1.26074e+02	-1.83912e+02	-7.55620e+01	-6.87672e+01	-1.55668e+02	-1.62015e+02	-8.01815e+01	-7.08960e+01	-1.85569e+02	-1.70567e+02	-1.87259e+02	-1.76693e+02	-7.46193e+01	-1.49436e+02	
Factor	2.31531e-05	1.78356e-04	5.60774e-05	2.30928e-01	1.52510e-06	1.94289e-06	1.64567e-01	5.06850e-02	1.44833e-06	2.13848e-06	2.09326e-01	2.95219e-02	6.28061e-02	8.86269e-03	1.65171e-06	1.24599e-02	1.74899e-05	4.03054e-05	1.13277e-05	1.22350e-01	3.89920e-07	4.56949e-07	8.23138e-02	2.69963e-02	3.70752e-07	4.58795e-07	1.07547e-01	1.53148e-02	3.38387e-02	4.76071e-03	4.01584e-07	6.51452e-03	X	X	X	X	X	X	X	X	X	X	X	X	X	X	X	X	



#DISTANCE SETTINGS
A = Detector Channel
A-1	A-2	A-3	A-4	A-5	A-6	A-7	A-8	A-9	A-10	A-11	A-12	A-13	A-14	A-15	A-16	

2.5000e+00	3.0000e+00	2.5000e+00	3.0000e+00	2.0000e+00	3.0000e+00	1.5000e+00	3.0000e+00	3.0000e+00	3.0000e+00	3.0000e+00	3.0000e+00	3.0000e+00	3.0000e+00	1.5000e+00	3.0000e+00	

B = Detector Channel
B-1	B-2	B-3	B-4	B-5	B-6	B-7	B-8	B-9	B-10	B-11	B-12	B-13	B-14	B-15	B-16	

1.0000e+01	1.0000e+01	1.0000e+01	1.4400e+00	1.0000e+01	1.0000e+01	1.5100e+00	1.9400e+00	1.0000e+01	1.0000e+01	1.9900e+00	2.4900e+00	2.4100e+00	2.9000e+00	1.0000e+01	2.9800e+00	




#DATA BEGINS
time	group	step	mark	flag	A-AC1	A-AC2	A-AC3	A-AC4	A-AC5	A-AC6	A-AC7	A-AC8	A-AC9	A-AC10	A-AC11	A-AC12	A-AC13	A-AC14	A-AC15	A-AC16	A-DC1	A-DC2	A-DC3	A-DC4	A-DC5	A-DC6	A-DC7	A-DC8	A-DC9	A-DC10	A-DC11	A-DC12	A-DC13	A-DC14	A-DC15	A-DC16	A-Ph1	A-Ph2	A-Ph3	A-Ph4	A-Ph5	A-Ph6	A-Ph7	A-Ph8	A-Ph9	A-Ph10	A-Ph11	A-Ph12	A-Ph13	A-Ph14	A-Ph15	A-Ph16	B-AC1	B-AC2	B-AC3	B-AC4	B-AC5	B-AC6	B-AC7	B-AC8	B-AC9	B-AC10	B-AC11	B-AC12	B-AC13	B-AC14	B-AC15	B-AC16	B-DC1	B-DC2	B-DC3	B-DC4	B-DC5	B-DC6	B-DC7	B-DC8	B-DC9	B-DC10	B-DC11	B-DC12	B-DC13	B-DC14	B-DC15	B-DC16	B-Ph1	B-Ph2	B-Ph3	B-Ph4	B-Ph5	B-Ph6	B-Ph7	B-Ph8	B-Ph9	B-Ph10	B-Ph11	B-Ph12	B-Ph13	B-Ph14	B-Ph15	B-Ph16	aux-1	digaux	

33898.066	1	1	0	768	0.12511	0.17501	0.11147	0.19326	0.024495	0.20436	0.14062	0.14155	0.10597	0.16495	0.076794	0.26353	0.13281	0.13919	0.09597	0.15882	-1.6688	-2.0312	-1.6187	-2.0062	-1.8937	-1.7687	-2.1875	-1.8792	-1.7958	-2.1521	-1.5104	-1.9813	-1.8271	-1.7917	-1.9021	-1.6229	283.388	51.490	241.921	362.931	124.177	356.343	254.849	388.767	143.735	379.198	145.013	194.005	107.847	351.219	237.956	320.729	0.00043359	0.00034579	0.00013622	409.47	2.7325e-06	2.3276e-06	494.2	165.18	3.0495e-06	3.1143e-06	229.17	99.1	67.815	29.025	4.5315e-06	48.865	0.00073206	0.001153	0.00031479	427.19	1.1624e-05	1.1784e-05	513.06	173.03	1.0057e-05	1.2726e-05	241.07	103.49	71.895	30.633	1.1561e-05	51.474	126.246	114.626	110.384	44.485	165.141	140.622	43.442	49.286	166.465	192.842	47.253	51.117	53.134	57.576	191.712	55.053	-8191	255	
33898.164	1	1	0	0	0.17907	0.096671	0.18354	0.016986	0.26137	0.27945	0.31727	0.12089	0.14599	0.17131	0.025095	0.046671	0.021483	0.1375	0.22372	0.29348	-1.4792	-2.0438	-1.5729	-2.0854	-1.8521	-1.8167	-1.9	-1.8042	-1.7417	-2.0292	-1.5875	-2.0479	-1.8167	-1.5812	-2.0521	-1.8521	198.055	163.911	140.818	322.492	104.241	299.444	326.970	55.971	268.213	115.189	320.626	312.364	57.183	361.477	339.762	333.772	0.00042856	0.00020172	9.329e-05	416.45	4.8418e-06	3.7395e-06	496.93	166.11	1.5722e-06	2.8958e-06	232.29	99.288	68.569	28.786	3.246e-06	49.229	0.00071636	0.0011693	0.00031727	430.51	1.1772e-05	1.1477e-05	515.76	173.47	9.9501e-06	1.2959e-05	241.93	103.91	72.392	30.618	1.1341e-05	51.939	126.415	89.042	105.122	44.589	164.954	193.074	43.699	49.393	164.146	156.293	47.469	51.391	53.624	57.716	152.014	54.921	-8191	255	
33898.262	1	1	0	0	0.31175	0.30772	0.05741	0.27273	0.017501	0.30016	0.064504	0.12674	0.13103	0.061862	0.21612	0.085019	0.061131	0.23753	0.12248	0.25787	-1.4271	-2.0271	-1.5875	-1.8333	-1.9	-1.6958	-2.1854	-1.8417	-1.5854	-2.1	-1.5604	-1.9062	-1.9104	-1.6063	-2.0917	-1.8312	211.008	157.668	49.258	126.888	32.395	312.579	227.053	165.569	109.837	35.458	346.076	356.084	233.721	358.794	271.529	281.603	0.0004808	0.00039499	0.0001011	414.96	4.3322e-06	5.506e-06	498.27	166.71	2.3864e-06	2.5859e-06	230.25	99.388	68.639	29.043	3.4762e-06	49.434	0.00074114	0.0011495	0.00032544	430.09	1.1148e-05	1.2183e-05	516.8	173.67	9.7554e-06	1.2107e-05	242.1	104.09	72.344	30.705	1.0897e-05	52.058	128.930	131.235	128.113	44.583	169.878	193.126	43.676	49.276	185.625	164.192	46.968	50.954	53.454	57.764	184.445	54.806	-8191	255	
33898.355	1	1	0	0	0.32319	0.25728	0.27214	0.19338	0.12531	0.14671	0.19953	0.35998	0.47818	0.10227	0.27713	0.23635	0.30613	0.33	0.23211	0.077769	-1.2458	-2.1562	-1.3792	-1.9813	-1.75	-1.4604	-2.0604	-1.7833	-1.5479	-2.0583	-1.75	-1.7062	-2.1875	-1.625	-1.8292	-2.0479	387.559	166.977	100.354	116.732	174.669	315.401	282.757	45.268	262.278	172.157	339.781	354.970	277.293	354.325	289.047	59.392	0.00040816	0.00062107	0.00010139	413.27	2.315e-06	4.4209e-06	496.79	166	3.2165e-06	3.4715e-06	231.74	99.183	68.344	28.837	3.291e-06	48.721	0.00070437	0.0011138	0.00032109	429.52	1.0853e-05	1.1864e-05	516.27	173.24	9.7245e-06	1.1912e-05	242.57	103.66	72.146	30.542	1.0635e-05	51.349	124.074	108.605	123.359	44.564	164.000	176.708	43.696	49.302	170.389	167.584	47.946	51.309	53.352	57.318	170.946	54.751	-8191	255	
33898.453	1	1	0	0	0.11872	0.19492	0.14612	0.10041	0.05722	0.15884	0.14795	0.27734	0.21353	0.14999	0.11729	0.11523	0.42232	0.19186	0.035203	0.15585	-1.3062	-2	-1.7146	-1.8104	-2.1146	-1.6854	-2.1937	-1.8604	-1.6479	-2.1792	-1.7833	-1.75	-2.0542	-1.6063	-1.9917	-1.8771	108.175	316.895	215.969	317.916	76.665	319.175	76.039	352.074	376.200	220.201	369.861	142.643	76.389	365.902	62.707	305.388	0.00046357	0.00014345	0.00013462	410.68	2.1086e-06	4.3458e-06	495.97	165.84	3.7825e-06	5.6506e-06	229.11	98.17	68.002	28.653	4.6766e-06	48.468	0.0007485	0.001096	0.00032447	427.71	1.105e-05	1.2521e-05	513.62	172.85	1.0407e-05	1.2084e-05	241	102.91	72.087	30.44	1.0728e-05	51.137	128.355	79.117	126.324	45.259	164.098	197.307	43.677	49.164	187.087	193.652	47.675	51.047	53.104	57.653	181.123	55.197	-8191	255	
33898.547	1	1	0	0	0.093802	0.083418	0.11882	0.21494	0.099203	0.11832	0.21296	0.35853	0.2528	0.26706	0.31561	0.15811	0.28842	0.051589	0.35611	0.18608	-1.2625	-2.0187	-1.7042	-1.7583	-2.0104	-1.6917	-1.9854	-2.0438	-1.4292	-1.9333	-1.8021	-1.7542	-2.1375	-1.6458	-1.8708	-2.0896	137.024	226.321	190.771	59.383	122.228	137.929	372.538	369.741	235.317	169.622	303.886	76.136	335.232	46.775	91.491	260.137	0.00044336	0.00032145	0.0001051	409.53	1.6276e-06	2.2482e-06	498	165.68	3.6243e-06	3.5146e-06	229.88	98.663	68.175	28.683	3.0479e-06	48.785	0.00076172	0.0011369	0.00033094	427.5	1.1274e-05	1.2782e-05	514.54	173.03	1.0583e-05	1.1785e-05	241.21	103.36	72.019	30.458	1.0727e-05	51.497	128.109	144.712	125.593	44.190	190.638	158.745	43.723	49.363	189.533	207.832	47.387	50.892	53.181	57.319	148.881	54.948	-8191	255	
33898.668	1	1	0	0	0.3361	0.1952	0.29358	0.27123	0.27141	0.16142	0.1527	0.35291	0.071271	0.049525	0.28022	0.35772	0.20629	0.28697	0.34956	0.14462	-1.025	-2.0563	-1.7771	-1.725	-2.0771	-1.6958	-1.8271	-1.9917	-1.6292	-1.9854	-1.9042	-1.6646	-2.0542	-1.6917	-1.85	-2.0479	198.454	371.415	118.067	314.537	218.087	342.799	268.688	298.567	182.776	75.217	374.865	367.652	72.198	307.542	35.517	234.469	0.00042052	0.00041343	7.7619e-05	413.63	1.5978e-06	5.3801e-06	497.38	165.4	3.7565e-06	4.8259e-06	228.78	99.618	67.786	28.722	2.4493e-06	49.387	0.00077998	0.0010415	0.00033901	428.54	1.1053e-05	1.3366e-05	516.31	173.08	1.0871e-05	1.2032e-05	242.23	104.04	71.716	30.452	1.0793e-05	51.863	123.612	140.154	153.950	44.579	149.658	163.364	43.762	49.277	208.703	142.309	47.126	51.051	53.171	57.472	203.745	55.072	-8191	255	
33898.766	1	1	0	0	0.26706	0.089115	0.15258	0.41732	0.074014	0.21361	0.27179	0.18364	0.1126	0.18257	0.24283	0.23367	0.18633	0.20946	0.1285	0.29364	-1.1938	-2.0271	-1.9562	-1.5646	-2.1188	-1.7396	-1.8937	-1.9583	-1.6396	-1.8188	-2.0271	-1.5792	-2.0646	-1.85	-1.6979	-2.0646	83.375	58.318	295.112	390.378	285.298	376.972	340.228	51.475	73.489	326.876	77.936	388.269	146.787	336.183	98.081	355.415	0.00042697	0.00032429	0.00010492	412.16	2.8716e-06	4.9765e-06	502.38	166.11	5.1096e-06	3.4838e-06	232.13	99.531	67.625	28.68	3.9208e-06	48.703	0.00079853	0.0010508	0.00032796	429.39	1.1049e-05	1.3237e-05	517.48	173.37	1.0814e-05	1.1801e-05	242.45	103.73	71.754	30.43	1.0936e-05	51.266	127.103	121.882	146.364	44.465	209.825	142.411	43.824	49.552	177.238	111.625	47.209	51.383	53.459	57.383	197.597	55.031	-8191	255	
33898.859	1	1	0	0	0.24751	0.12854	0.19922	0.15115	0.1821	0.089294	0.28311	0.15339	0.045664	0.1453	0.092848	0.10855	0.081177	0.17961	0.27821	0.34935	-1.3563	-1.9042	-1.95	-1.4271	-2.0271	-1.6354	-1.7729	-2.2167	-1.6208	-1.8917	-2.1667	-1.7437	-1.8458	-1.8687	-1.5938	-2.1979	166.546	236.897	290.066	275.924	136.797	96.251	357.002	168.315	113.714	71.498	158.080	371.953	248.133	320.973	383.620	385.261	0.00042388	0.00035077	0.00012985	409.95	2.6055e-06	2.7017e-06	496.72	165.45	2.4418e-06	5.7686e-06	228.65	97.986	67.872	28.699	3.4032e-06	48.279	0.00078198	0.0010601	0.00033398	426.2	1.078e-05	1.2917e-05	512.8	172.51	1.0944e-05	1.1805e-05	241.46	102.83	71.718	30.317	1.0931e-05	50.956	123.106	118.160	102.194	44.677	160.057	159.838	43.815	49.732	140.379	209.540	46.929	51.451	53.442	57.601	195.002	54.711	-8191	255	
33898.957	1	1	0	0	0.28481	0.11883	0.16498	0.28461	0.29985	0.26384	0.29514	0.30938	0.37605	0.099988	0.18861	0.23094	0.20078	0.22269	0.26515	0.14532	-1.2958	-1.7833	-1.8937	-1.7583	-1.9458	-2.0708	-1.5208	-2.2854	-1.7708	-1.8458	-2.2208	-1.5896	-1.9562	-1.9604	-1.6229	-2.2604	322.597	338.294	264.555	119.979	51.531	367.463	218.016	355.804	166.059	123.394	144.498	338.157	378.866	378.025	73.734	267.656	0.00045085	0.00036902	0.00018251	409.7	2.5337e-06	3.683e-06	498.04	164.16	3.3315e-06	4.3565e-06	228.72	98.804	67.552	28.751	1.3356e-06	48.739	0.00079783	0.0010385	0.00032423	426.41	1.0332e-05	1.292e-05	515.09	172.49	1.1071e-05	1.1466e-05	241.04	103.28	71.573	30.351	1.139e-05	51.221	129.669	122.725	98.535	44.715	184.398	180.311	43.955	49.389	190.290	188.796	47.425	51.480	53.569	57.947	216.937	54.701	-8191	255	
33899.055	1	1	0	0	0.054833	0.082119	0.2352	0.11496	0.032716	0.24412	0.15805	0.042455	0.19811	0.13808	0.21375	0.30934	0.15101	0.20355	0.072282	0.35696	-1.2375	-1.7875	-2.1729	-1.8062	-1.85	-1.725	-1.6458	-1.9583	-1.5292	-1.7833	-2.0708	-1.5854	-1.8083	-2.1	-1.5771	-1.9292	188.404	157.856	319.526	262.308	86.647	58.641	255.027	35.332	55.210	89.064	122.678	383.439	369.954	81.089	249.168	353.674	0.00044002	0.00019235	0.00011281	408.59	2.6901e-06	6.3652e-06	497.61	166.24	3.0359e-06	4.2455e-06	230.51	98.928	67.987	28.673	5.5135e-06	49.145	0.00080702	0.0010762	0.00032305	427.22	1.0763e-05	1.3696e-05	516.04	173.1	1.1082e-05	1.2533e-05	243.38	103.92	72.247	30.472	1.1797e-05	51.733	124.600	70.883	117.534	44.941	183.736	174.827	43.703	49.461	188.590	177.649	47.310	51.329	53.609	57.249	201.096	54.591	-8191	255	
33899.148	1	1	0	0	0.20818	0.32667	0.15482	0.10436	0.23843	0.29154	0.26024	0.2142	0.33575	0.13447	0.41433	0.1963	0.20919	0.089382	0.055672	0.2241	-1.3937	-1.5646	-2.1146	-1.6104	-1.8125	-1.8083	-1.6125	-2.1958	-1.7167	-1.4354	-2.0583	-1.8062	-1.7875	-2.1479	-1.6396	-2.0125	94.069	319.510	326.350	80.573	50.199	253.441	165.705	364.203	128.134	67.582	64.802	32.395	282.625	296.467	126.314	249.598	0.00044006	0.00042317	0.00011257	413.83	2.5866e-06	4.9004e-06	505.73	167.1	4.0095e-06	3.4606e-06	235.12	99.595	68.17	28.691	3.785e-06	48.834	0.00082399	0.0010943	0.00034134	430.52	1.0764e-05	1.3461e-05	521.83	174.05	1.1494e-05	1.2731e-05	245.27	104.2	71.998	30.441	1.2113e-05	51.391	122.099	101.715	111.409	44.430	163.825	176.750	43.933	49.422	187.664	212.036	47.016	51.240	53.189	57.385	212.381	55.102	-8191	255	
33899.270	1	1	0	0	0.20505	0.07158	0.17428	0.23968	0.2035	0.25588	0.32687	0.20957	0.26072	0.32909	0.2698	0.29764	0.13402	0.3733	0.22933	0.26735	-1.5667	-1.4854	-2.1708	-1.6208	-1.7917	-2.1042	-1.4542	-1.9688	-1.9771	-1.675	-2.1521	-1.6146	-1.7354	-2.1	-1.5083	-2.0417	289.726	147.073	337.157	381.748	368.752	66.432	279.881	42.939	97.353	120.472	279.231	278.011	242.460	34.814	156.984	357.481	0.00043377	0.00044071	8.9239e-05	412.97	2.7698e-06	1.3837e-06	497.15	164.97	2.1955e-06	5.61e-06	233.36	98.003	68.035	28.632	2.0974e-06	48.026	0.00081077	0.00109	0.00031012	430	1.0209e-05	1.3276e-05	517.38	172.94	1.1527e-05	1.2509e-05	242.36	102.71	71.684	30.218	1.2073e-05	50.595	129.337	117.797	114.786	44.388	143.829	195.407	43.854	49.486	161.308	196.709	46.678	51.047	52.891	57.518	169.458	54.587	-8191	255	
33899.363	1	1	0	0	0.18529	0.20223	0.075415	0.1224	0.14612	0.14486	0.14542	0.24502	0.16147	0.19038	0.194	0.48578	0.39347	0.14277	0.20232	0.062613	-1.3021	-1.5333	-2.0187	-1.6979	-1.8667	-2.15	-1.6	-2.0938	-1.9062	-1.7146	-2.15	-1.9979	-1.6167	-1.9625	-1.6167	-2.0271	324.283	349.564	353.422	378.519	328.457	390.555	187.766	109.728	311.408	107.438	347.706	385.633	382.702	236.042	286.110	338.014	0.00044017	0.00036745	9.9724e-05	413.2	2.1852e-06	3.4415e-06	498.1	165.14	2.227e-06	2.0724e-06	231.23	98.041	67.444	28.5	2.5565e-06	48.507	0.00081496	0.001108	0.00030594	428.6	1.0557e-05	1.2806e-05	514.87	172.38	1.1269e-05	1.2325e-05	242.15	102.88	71.159	30.231	1.192e-05	51.046	125.791	120.522	100.619	44.270	198.114	160.170	43.634	49.225	159.920	146.607	47.270	50.819	53.526	57.352	177.804	54.928	-8191	255	
33899.461	1	1	0	0	0.22364	0.23221	0.28838	0.40096	0.028305	0.26409	0.15974	0.14498	0.44726	0.37336	0.032431	0.24101	0.19607	0.30209	0.11723	0.58412	-1.5104	-1.5958	-2.1188	-1.8417	-1.5562	-2.2333	-1.6875	-1.8792	-1.9542	-1.5083	-2.1521	-1.7208	-1.6187	-2.2625	-1.6625	-1.6333	355.491	349.331	380.651	115.190	149.346	76.757	305.897	44.618	60.853	57.877	170.650	286.394	364.052	339.585	379.004	329.764	0.00045387	0.00022763	0.00017483	410.87	2.7788e-06	4.5776e-06	494.8	164.26	3.6025e-06	4.3309e-06	232.22	98.705	68.053	28.517	3.1661e-06	49.228	0.00080002	0.0011209	0.00030488	426.01	1.0501e-05	1.2772e-05	515.08	171.81	1.1235e-05	1.2646e-05	242.31	103.75	71.603	30.301	1.174e-05	51.75	129.357	131.311	127.462	44.075	176.233	164.799	43.483	49.678	186.752	173.677	47.588	51.038	53.343	57.600	198.391	54.731	-8191	255	
33899.559	1	1	0	0	0.038409	0.10263	0.077642	0.2922	0.18213	0.16722	0.18444	0.32909	0.16843	0.17267	0.18255	0.10105	0.27199	0.24029	0.14302	0.23962	-1.5833	-1.5125	-2.0208	-1.6458	-1.5854	-2.1042	-1.7833	-1.7354	-1.975	-1.6688	-1.9083	-1.9104	-1.9146	-2.05	-1.8479	-1.6417	253.985	285.859	356.230	126.422	337.852	376.208	348.072	315.780	388.542	303.844	47.025	75.195	293.571	272.684	38.290	73.425	0.00043766	0.0004999	0.00012498	407.57	3.3182e-06	4.9597e-06	496.31	165.2	3.4843e-06	4.3933e-06	233.51	100.01	67.909	28.622	2.8725e-06	49.173	0.00080621	0.0011695	0.00030372	424.32	1.0836e-05	1.2283e-05	515.44	172.4	1.1107e-05	1.2685e-05	244.04	104.64	71.847	30.431	1.1981e-05	51.818	125.604	120.938	95.610	44.950	169.543	190.934	43.634	49.213	151.819	169.339	46.889	50.854	53.012	57.323	181.133	54.718	-8191	255	
33899.629	1	1	0	0	0.14325	0.091277	0.17647	0.20649	0.19994	0.20693	0.13182	0.12306	0.18416	0.18088	0.2595	0.28466	0.088115	0.2261	0.17909	0.18785	-1.2771	-1.5938	-1.9188	-1.9771	-1.5333	-1.8958	-1.875	-1.7167	-2.0354	-1.6917	-1.8375	-1.9708	-1.5438	-1.9354	-1.7771	-1.525	83.102	95.635	225.734	382.122	83.816	124.771	322.109	67.528	258.103	114.489	62.139	268.247	216.162	363.655	382.177	320.349	0.00041842	0.00033345	8.1655e-05	408.43	2.9372e-06	4.753e-06	498.7	166.13	4.318e-06	3.0508e-06	231.81	98.884	67.615	28.639	4.6526e-06	47.868	0.00077109	0.0011228	0.0002848	425.42	1.0894e-05	1.1579e-05	516.52	172.87	1.0487e-05	1.2622e-05	243.16	103.43	71.743	30.238	1.1705e-05	50.707	126.160	118.400	129.279	44.390	166.562	158.201	43.597	48.989	170.303	154.845	46.967	51.452	53.248	57.288	193.788	54.843	-8191	255	
33899.750	1	1	0	0	0.38413	0.12794	0.29221	0.11464	0.17685	0.23889	0.14941	0.19709	0.46083	0.11937	0.21069	0.12213	0.05763	0.12536	0.12379	0.2619	-1.7375	-1.7687	-1.8042	-2	-1.6667	-2.075	-1.9312	-1.7938	-2.1333	-1.6604	-1.8563	-2.0417	-1.6688	-2.05	-1.8479	-1.6104	75.683	85.367	253.055	304.622	264.760	140.591	258.018	202.486	287.013	123.661	294.257	48.668	72.627	292.564	367.125	32.465	0.00041407	0.00024165	0.00013472	413.45	2.9778e-06	3.0514e-06	500.39	165.78	3.4712e-06	4.8853e-06	233.13	98.895	68.112	28.553	4.2467e-06	48.462	0.00073097	0.0010986	0.00026193	428.07	1.0701e-05	1.0972e-05	518.8	173.26	9.7639e-06	1.2139e-05	243.46	103.79	71.765	30.286	1.15e-05	51.123	130.248	104.519	123.810	44.808	173.085	149.356	44.058	49.671	164.262	156.816	47.159	50.818	52.818	56.964	196.547	54.384	-8191	255	
33899.848	1	1	0	0	0.081797	0.057307	0.18242	0.16206	0.061724	0.034118	0.39196	0.31069	0.31109	0.22567	0.077989	0.028038	0.10681	0.049666	0.283	0.12743	-1.6875	-1.75	-1.7042	-2.1667	-1.725	-1.9396	-2.0646	-1.4875	-2.0208	-1.7333	-1.7938	-2.0604	-1.4917	-2.0771	-1.8792	-1.5896	277.797	77.587	283.028	77.842	324.573	67.836	242.998	252.836	91.293	104.282	349.248	67.192	254.762	271.396	203.074	193.389	0.00043828	0.00029659	0.00013635	411.69	4.7777e-06	4.436e-06	502.23	165.79	3.4845e-06	6.1604e-06	233.46	99.771	68.061	28.662	2.213e-06	49.182	0.00072696	0.0011013	0.00027406	428.59	1.0573e-05	1.0976e-05	519.38	173.23	9.4974e-06	1.2144e-05	245.32	104.33	72.176	30.336	1.1551e-05	51.654	123.284	123.089	133.825	44.616	155.719	207.880	44.161	49.249	187.438	195.473	47.617	51.117	53.155	57.233	171.872	54.436	-8191	255	
33899.941	1	1	0	0	0.18893	0.15752	0.061939	0.039674	0.25138	0.099831	0.38285	0.16175	0.11686	0.079616	0.31511	0.1431	0.11016	0.15266	0.21641	0.25399	-1.5833	-1.7062	-1.675	-2.1104	-1.8104	-1.9042	-2.0271	-1.8479	-1.8833	-2.0396	-1.6854	-2.0458	-1.625	-2.1312	-2.05	-1.5625	38.873	217.000	213.735	74.338	152.596	202.552	284.637	332.211	225.359	235.136	236.546	385.821	174.653	339.028	55.304	292.199	0.00045119	0.00043442	0.00015351	407.93	3.5656e-06	2.4195e-06	502.99	165.95	3.436e-06	5.8482e-06	237.36	100.7	68.197	28.829	4.2671e-06	49.528	0.0007204	0.0011464	0.00027498	426.1	1.0476e-05	1.076e-05	519.44	173.18	9.8327e-06	1.2398e-05	246.92	105.02	72.242	30.501	1.1659e-05	52.137	126.477	113.781	165.690	44.437	187.496	156.909	43.863	49.394	195.612	185.282	47.115	51.130	53.056	57.413	171.734	55.028	-8191	255	
33900.039	1	1	0	0	0.19471	0.12776	0.22726	0.1268	0.09391	0.080679	0.13291	0.18569	0.11894	0.10489	0.090693	0.16102	0.09158	0.069604	0.2055	0.15859	-1.6354	-1.825	-1.4688	-2.0479	-1.7104	-1.825	-1.9583	-1.4854	-2.1063	-1.9208	-1.8333	-1.9979	-1.8667	-1.8312	-1.9708	-1.875	387.730	226.243	320.875	377.812	380.690	248.750	260.155	221.706	206.203	175.162	382.716	339.461	167.423	195.632	169.386	198.701	0.00041159	0.00027475	6.0442e-05	409.46	2.1218e-06	1.8557e-06	502.72	165.35	3.1825e-06	2.8092e-06	232.61	99.152	67.346	28.545	2.6984e-06	48.661	0.00071603	0.0011156	0.00029322	425.6	1.0427e-05	1.0787e-05	519.89	172.88	9.1267e-06	1.2221e-05	244.21	104.16	71.766	30.29	1.1202e-05	51.163	123.860	129.934	135.037	44.160	176.665	193.381	43.777	49.331	155.064	152.440	47.297	51.099	52.834	57.541	173.842	54.772	-8191	255	
33900.156	1	1	0	0	0.25492	0.30819	0.29799	0.22267	0.09023	0.15666	0.24596	0.24875	0.15361	0.30697	0.25231	0.21862	0.010024	0.35671	0.21477	0.21393	-1.3771	-2.0417	-1.625	-2.3042	-1.5646	-1.6063	-2.0521	-1.5875	-1.9958	-1.8917	-1.3979	-1.9896	-1.8271	-1.7604	-2.0646	-1.6625	362.487	49.768	285.685	333.132	87.786	295.961	139.066	284.265	246.448	91.955	153.345	284.071	230.738	357.540	352.517	251.329	0.00042861	0.00039906	6.5316e-05	408.86	3.8791e-06	4.113e-06	500.51	164.86	2.7957e-06	4.3084e-06	232.19	99.013	67.719	28.656	1.9929e-06	48.55	0.00072102	0.0011175	0.00029469	423.71	1.0937e-05	1.1735e-05	517.01	172.29	9.4959e-06	1.2732e-05	243.61	103.78	71.844	30.207	1.135e-05	51.155	127.823	106.732	98.241	44.230	181.424	216.262	43.446	49.454	189.879	196.819	46.764	51.387	53.716	57.438	249.441	54.941	-8191	255	
33900.230	1	1	0	0	0.1856	0.096242	0.22775	0.23562	0.16622	0.32174	0.28008	0.20229	0.25613	0.054957	0.24259	0.18625	0.12139	0.032185	0.053325	0.15458	-1.5187	-1.8833	-1.5	-2.1708	-1.6271	-1.65	-2.2271	-1.8312	-1.8083	-2.125	-1.7083	-1.9792	-1.9292	-1.7146	-2.0583	-1.8208	236.099	101.769	372.620	183.742	38.741	315.214	379.054	304.111	187.236	167.968	375.617	58.792	387.998	49.761	113.214	42.649	0.00044309	0.00015527	0.00014255	409.31	4.0415e-06	3.0308e-06	498.93	165.71	3.9983e-06	4.4067e-06	234.43	99.404	68.034	28.702	3.3687e-06	48.834	0.00072172	0.0011434	0.00029983	424.01	1.0915e-05	1.2299e-05	516.99	172.66	9.3105e-06	1.2949e-05	244.48	104.2	72.007	30.218	1.108e-05	51.462	128.928	138.794	118.049	44.302	195.281	194.905	43.370	49.095	194.747	183.457	46.861	51.024	53.287	57.501	165.826	54.685	-8191	255	
33900.348	1	1	0	0	0.087789	0.095948	0.3981	0.12179	0.25181	0.12997	0.15569	0.16391	0.18776	0.31716	0.099669	0.13821	0.11695	0.20445	0.18939	0.32586	-1.4438	-1.9292	-1.6021	-1.9271	-1.8979	-1.5938	-2.1312	-1.6708	-1.8292	-2.1021	-1.6708	-2.0187	-1.9542	-1.7667	-2.0167	-1.7583	266.352	356.175	243.502	180.481	60.284	147.446	355.462	338.025	220.378	283.884	185.465	290.995	356.297	119.449	87.309	305.507	0.0004224	0.00035801	0.00013437	408.33	3.4343e-06	4.6458e-06	501.24	165.2	4.0588e-06	4.4015e-06	233.27	99.595	68.187	28.557	4.4649e-06	49.15	0.00071785	0.0011149	0.00031	423.87	1.097e-05	1.1488e-05	519.34	172.76	9.8798e-06	1.2814e-05	245.77	104.73	72.05	30.265	1.0625e-05	51.817	132.665	129.258	136.804	44.854	184.556	167.042	43.674	49.398	177.825	177.499	47.273	51.211	52.883	57.442	203.024	54.703	-8191	255	
33900.445	1	1	0	0	0.061482	0.10211	0.30946	0.11458	0.19218	0.088231	0.1793	0.23584	0.13116	0.11373	0.12064	0.082292	0.39667	0.097965	0.095239	0.18608	-1.2875	-1.7396	-1.4792	-1.7437	-1.9917	-1.5417	-2.0375	-1.9229	-1.7812	-2.15	-1.6792	-2.0083	-1.9854	-1.6417	-1.8646	-1.7896	160.727	165.921	200.419	329.199	272.161	211.498	311.663	265.304	383.103	324.745	65.830	78.312	265.498	321.932	282.552	370.290	0.00043799	0.00043256	0.00011435	408.74	1.3021e-06	5.5275e-06	502	165.46	4.2246e-06	2.2228e-06	235.11	100.47	68.162	28.444	4.0464e-06	48.697	0.00072492	0.0011222	0.00030663	426.9	1.1062e-05	1.1904e-05	521.3	173.2	9.8272e-06	1.2252e-05	246.77	104.9	72.158	30.129	1.0305e-05	51.259	126.618	122.315	111.820	44.943	181.529	165.128	43.759	49.107	178.706	193.243	46.768	51.099	53.545	57.576	199.240	54.660	-8191	255	
33900.539	1	1	0	0	0.11141	0.18862	0.36268	0.15516	0.18633	0.14283	0.025429	0.10306	0.30165	0.31671	0.17513	0.093799	0.18602	0.23961	0.17184	0.04829	-1.3	-1.8104	-1.6	-1.8771	-2.1021	-1.6729	-2.1188	-1.9021	-1.5604	-2.0354	-1.675	-1.8208	-1.9688	-1.4021	-1.9479	-1.9188	213.174	103.335	316.876	204.823	42.315	82.161	315.588	342.078	289.484	114.436	80.901	273.908	78.310	359.378	311.935	387.606	0.00046339	0.00013343	0.00010594	406.94	4.6469e-06	5.7186e-06	500.32	164.49	4.4114e-06	2.9279e-06	230.98	99.715	67.54	28.372	2.7143e-06	48.796	0.00074835	0.0010955	0.00030321	423.98	1.1198e-05	1.1625e-05	517.52	171.69	1.0324e-05	1.179e-05	243.29	104.09	71.747	30.004	1.0131e-05	51.312	128.363	145.406	163.391	44.563	185.303	180.412	43.797	49.445	174.957	148.726	46.862	51.078	52.858	57.579	167.341	54.674	-8191	255	
33900.637	1	1	0	0	0.13062	0.29773	0.19221	0.25202	0.13965	0.10986	0.16469	0.049777	0.14024	0.28556	0.21007	0.065366	0.11606	0.31462	0.061088	0.22936	-1.0729	-1.9292	-1.725	-1.8771	-1.9979	-1.4646	-2.0417	-1.8479	-1.6562	-1.9771	-1.7687	-1.8062	-2.2062	-1.6542	-1.9021	-2.0375	124.476	84.625	223.241	347.370	163.646	353.535	118.180	41.788	104.946	333.495	324.644	280.141	379.393	341.879	43.080	294.594	0.0004242	0.00029291	0.000112	403.31	3.9933e-06	3.923e-06	492.28	164.04	3.0908e-06	3.1943e-06	233.68	99.489	67.955	28.459	2.8723e-06	49.001	0.00074383	0.0010645	0.00031991	418.88	1.1311e-05	1.2912e-05	511.56	170.65	1.0539e-05	1.1849e-05	243.43	104.28	71.763	30.071	1.0523e-05	51.829	123.414	113.794	122.821	44.328	165.358	201.342	43.673	49.211	198.458	187.393	47.182	51.205	53.027	57.554	178.012	55.105	-8191	255	
33900.758	1	1	0	0	0.091389	0.16425	0.22175	0.34931	0.1295	0.068419	0.10042	0.27146	0.10198	0.21288	0.16917	0.17482	0.25543	0.26558	0.025056	0.18037	-1.0292	-1.9188	-1.6354	-1.5583	-2.1813	-1.75	-2.0875	-1.9562	-1.7042	-1.9458	-1.8188	-1.8083	-1.8687	-1.55	-1.9813	-2.1167	66.058	241.721	369.167	55.123	351.310	39.413	31.399	270.186	184.669	357.931	241.375	294.119	299.715	63.212	361.014	53.490	0.00040353	0.00021191	0.00010357	399.56	2.2142e-06	2.6191e-06	494.78	163.62	3.3186e-06	4.8854e-06	230.6	100.18	67.622	28.648	4.8826e-06	49.598	0.00075061	0.00104	0.00031725	417.46	1.1055e-05	1.2332e-05	512.34	170.69	1.0635e-05	1.1384e-05	243.9	105.07	71.65	30.264	1.0317e-05	52.38	127.462	92.669	170.469	44.589	201.429	190.455	43.485	49.133	157.991	136.340	47.245	51.322	53.677	57.637	182.563	54.777	-8191	255	
33900.855	1	1	0	0	0.16078	0.1162	0.31773	0.20965	0.19045	0.025762	0.21748	0.073125	0.23285	0.15482	0.02863	0.10845	0.20265	0.019244	0.15533	0.2549	-1.0688	-1.9854	-1.75	-1.5542	-2.0646	-1.7625	-1.8292	-2.1188	-1.5667	-1.9396	-1.8396	-1.8146	-2.0375	-1.8312	-1.7042	-2.1917	257.022	365.068	73.258	204.482	178.126	183.014	259.129	223.946	309.915	244.017	353.784	242.354	44.088	165.649	48.855	374.667	0.0004544	0.0002137	0.00012522	405.7	3.5216e-06	4.3239e-06	499.55	164.85	3.4438e-06	4.4087e-06	236.38	101.83	69.668	28.95	3.6468e-06	50.002	0.00075334	0.00098673	0.00030295	420.36	9.9389e-06	1.175e-05	517.99	172.14	9.7145e-06	1.0451e-05	247.26	106.78	73.056	30.658	9.7702e-06	52.697	124.658	139.966	146.366	44.855	183.925	194.993	43.680	49.223	190.898	151.923	47.591	51.163	53.586	57.540	195.417	54.805	-8191	255	
33900.926	1	1	0	0	0.13203	0.11225	0.23103	0.25086	0.41157	0.15222	0.26663	0.33889	0.096042	0.18441	0.091902	0.14716	0.14598	0.17769	0.14021	0.20252	-1.2271	-2.0938	-1.8979	-1.5875	-1.8917	-1.7104	-1.8417	-2.1292	-1.5083	-2.025	-1.7896	-1.6375	-1.8771	-1.8375	-1.5312	-2.1667	225.394	96.380	158.213	360.443	143.847	64.961	354.912	371.646	193.243	288.623	119.739	350.197	56.796	56.558	350.451	117.371	0.00043397	0.00028628	0.00011357	404.94	2.867e-06	3.8193e-06	501.03	165.37	3.0579e-06	4.0512e-06	235.95	101.35	69.333	28.867	3.651e-06	49.68	0.00071654	0.0008905	0.00029202	421.79	9.3849e-06	1.1358e-05	518.75	172.67	9.4658e-06	1.0193e-05	247.57	106.36	72.831	30.533	9.5159e-06	52.197	128.299	99.807	91.650	44.225	150.981	205.459	43.532	49.089	184.563	175.373	46.755	51.224	53.175	57.376	229.606	54.629	-8191	255	
33901.047	1	1	0	0	0.20147	0.21853	0.26149	0.20905	0.17109	0.34977	0.23877	0.32516	0.14818	0.14508	0.12396	0.25349	0.39185	0.081113	0.18574	0.24811	-1.2958	-1.8937	-1.9896	-1.5583	-1.8771	-1.6771	-1.5333	-2.2375	-1.7042	-1.8146	-2.1104	-1.6479	-1.6917	-1.9125	-1.4562	-2.1604	364.388	136.531	181.704	45.374	79.050	237.203	289.009	370.523	84.021	389.676	358.317	285.062	387.264	245.007	198.503	342.339	0.00043321	0.00023429	0.00016606	406.01	2.9906e-06	4.7491e-06	503.11	166.07	3.4161e-06	4.4779e-06	235.24	101.28	69.135	28.694	3.8185e-06	49.492	0.00071938	0.00089537	0.00029204	421.77	9.2192e-06	1.1573e-05	519.69	172.9	9.499e-06	1.0271e-05	246.8	106.25	72.544	30.448	9.9978e-06	52.342	124.016	110.500	133.366	44.819	176.925	180.325	43.737	49.598	202.587	170.171	47.455	51.244	53.304	56.947	146.787	54.935	-8191	255	
33901.141	1	1	0	0	0.067325	0.096161	0.10101	0.2753	0.18829	0.2619	0.16411	0.31077	0.34485	0.27729	0.26779	0.22112	0.15863	0.22146	0.053523	0.096642	-1.2146	-1.6521	-1.9875	-1.5979	-1.9438	-1.8208	-1.6417	-2.0687	-1.9542	-1.8917	-1.8687	-1.6604	-1.925	-2.0646	-1.5063	-2.2917	125.067	284.329	208.206	360.330	291.230	296.693	377.608	387.395	309.658	341.921	387.142	270.379	40.009	315.879	381.217	212.695	0.00044683	0.00044546	0.00015542	405.17	3.8984e-06	3.4862e-06	500.65	166.01	2.6095e-06	2.5012e-06	236.27	101.43	68.508	28.792	2.4906e-06	49.932	0.00071749	0.00092996	0.00028938	422.25	9.0559e-06	1.1875e-05	519.98	172.9	9.5639e-06	1.0585e-05	247.59	106.27	72.565	30.439	1.0179e-05	52.509	122.165	132.254	127.725	44.613	199.312	187.869	43.612	49.434	202.795	153.017	46.853	50.912	53.509	57.453	166.611	54.920	-8191	255	
33901.238	1	1	0	0	0.14541	0.051287	0.066859	0.23879	0.29488	0.34268	0.22009	0.19209	0.041546	0.23168	0.12119	0.1874	0.22696	0.19039	0.16972	0.15563	-1.1896	-1.7083	-1.9958	-1.8229	-1.7042	-1.9875	-1.6396	-2.0125	-1.7792	-1.7687	-1.9479	-1.5354	-1.7313	-1.8979	-1.6292	-2.1125	87.254	242.279	384.475	142.149	329.495	61.044	307.533	58.136	279.394	47.681	224.815	348.773	129.714	71.389	78.937	154.238	0.00042151	0.00034664	0.00011805	406.88	3.3435e-06	3.5178e-06	504.87	165.47	3.0863e-06	2.375e-06	237.88	101.81	68.751	28.632	4.309e-06	50.181	0.000738	0.00095675	0.00029018	422.52	8.9852e-06	1.2036e-05	522.6	172.61	1.0227e-05	1.0735e-05	248.08	106.74	72.645	30.353	1.0749e-05	52.65	130.986	110.733	141.377	44.255	206.245	168.319	43.453	49.249	176.047	199.467	46.639	50.914	53.172	57.425	181.817	54.877	-8191	255	
33901.359	1	1	0	0	0.11237	0.18515	0.022947	0.079776	0.056219	0.071156	0.2619	0.092468	0.045111	0.2689	0.1151	0.16868	0.095738	0.097662	0.19151	0.046142	-1.4167	-1.7021	-1.8146	-1.7333	-1.7896	-2.0021	-1.6333	-2.1167	-1.8708	-1.6313	-1.9958	-1.8125	-1.8917	-2.0563	-1.5229	-1.8896	335.645	174.280	348.132	97.389	66.406	375.310	295.295	34.988	355.285	311.797	220.469	130.508	57.146	126.929	90.618	81.163	0.00044894	0.00051517	0.00015276	406.61	2.3245e-06	3.3375e-06	502.14	165.51	3.7303e-06	2.4325e-06	234.1	101.15	68.673	28.595	4.3507e-06	49.444	0.00076737	0.00099874	0.00028754	422.26	9.1103e-06	1.1825e-05	520.31	172.34	1.0378e-05	1.1359e-05	247.1	106.17	72.293	30.226	1.0548e-05	51.978	127.437	106.958	133.985	44.559	201.395	184.644	43.834	49.238	137.202	152.535	47.213	51.112	52.898	57.623	172.235	54.693	-8191	255	
33901.453	1	1	0	0	0.25517	0.33058	0.14005	0.22261	0.33401	0.061231	0.28517	0.17175	0.32462	0.26684	0.17877	0.14173	0.12435	0.25919	0.14487	0.13328	-1.45	-1.4583	-1.8354	-1.6063	-1.7208	-2.1167	-1.5479	-1.8729	-1.9146	-1.5688	-1.7917	-1.8417	-1.525	-2.0354	-1.5583	-1.8667	273.589	154.889	190.231	376.898	241.825	389.542	62.630	373.899	251.077	93.398	282.365	78.301	302.429	37.925	212.236	355.014	0.00041808	0.00023243	0.00010275	402.55	2.0304e-06	3.5196e-06	501.28	165.55	3.6342e-06	4.7504e-06	235.75	101.96	68.999	28.664	3.4946e-06	49.452	0.00073895	0.00096154	0.00026922	421.27	9.0859e-06	1.1422e-05	520.75	172.7	1.01e-05	1.0839e-05	248.2	106.74	72.699	30.42	1.0055e-05	52.246	126.651	141.130	144.249	44.487	212.354	172.818	43.778	49.131	166.887	123.620	47.728	50.947	53.180	57.234	182.056	54.914	-8191	255	
33901.527	1	1	0	0	0.13574	0.11226	0.12418	0.28964	0.057664	0.039258	0.025769	0.21285	0.074725	0.14181	0.25282	0.22767	0.25113	0.066511	0.14732	0.21045	-1.6896	-1.4021	-2.0062	-1.8854	-1.6708	-1.9208	-1.8687	-1.6667	-1.8625	-1.6125	-1.9792	-1.9875	-1.5896	-2.1604	-1.7771	-1.8375	48.674	167.673	103.144	121.895	133.506	68.358	69.258	350.128	126.592	356.852	247.840	88.367	300.504	381.603	342.470	360.982	0.0004529	0.00031825	8.3698e-05	411.51	5.3964e-06	2.6738e-06	508.24	166.23	1.6118e-06	4.5251e-06	237.7	102.07	68.639	28.678	3.6473e-06	49.585	0.00073757	0.00096582	0.00025813	424.79	9.5677e-06	1.0684e-05	524.55	173.48	9.9871e-06	1.1065e-05	248.42	106.92	72.771	30.301	1.0614e-05	52.357	129.963	132.591	154.973	44.374	168.777	191.285	43.428	49.080	165.308	178.005	46.869	51.286	53.041	57.405	188.219	54.636	-8191	255	
33901.621	1	1	0	0	0.25908	0.28588	0.25644	0.02299	0.10892	0.30027	0.14855	0.24156	0.11234	0.083916	0.092099	0.13484	0.16473	0.26629	0.11025	0.1296	-1.6187	-1.4	-2.0042	-1.8438	-1.7062	-1.8271	-1.8375	-1.7563	-1.9458	-1.4792	-1.9104	-1.9375	-1.6063	-2.0521	-1.7313	-1.75	213.577	378.813	325.236	353.969	43.306	293.011	297.086	146.270	61.865	75.969	309.911	47.179	40.425	308.170	217.203	110.617	0.00044916	0.00060663	0.00011535	409.94	1.9777e-06	3.8417e-06	508.54	166	4.3899e-06	5.7517e-06	238.99	102.1	68.658	28.697	4.0531e-06	50.055	0.00076169	0.0010053	0.00026634	426.67	9.6164e-06	1.0605e-05	527.8	173.52	1.0246e-05	1.1369e-05	248.92	106.86	72.65	30.3	1.1368e-05	52.44	126.319	128.638	118.300	44.712	189.296	161.997	43.761	49.103	185.408	144.178	47.273	50.965	52.631	57.326	173.528	54.745	-8191	255	
33901.719	1	1	0	0	0.23875	0.24464	0.032692	0.30028	0.21489	0.33377	0.090993	0.3738	0.2198	0.32127	0.1857	0.40212	0.16017	0.40814	0.25819	0.23698	-1.5958	-1.5667	-1.9229	-1.875	-1.4688	-1.925	-1.825	-1.8667	-1.8729	-1.5708	-1.9042	-2.0438	-1.6292	-2.0125	-1.85	-1.6708	151.177	140.959	84.231	361.496	362.149	269.119	64.867	389.880	193.520	184.414	48.031	368.901	155.506	342.765	80.773	221.191	0.00047226	0.00045835	0.00014598	410.86	2.5375e-06	3.6998e-06	504.1	165.22	9.9265e-07	3.4601e-06	234.78	100.77	68.115	28.286	4.4796e-06	48.811	0.00075203	0.0010453	0.00027557	425.82	9.8853e-06	1.0777e-05	522.41	172.28	1.0205e-05	1.1468e-05	246.02	105.83	72.138	29.994	1.1081e-05	51.42	126.944	130.247	143.160	44.363	192.195	198.915	44.042	49.793	158.155	188.572	46.691	51.078	53.522	57.639	182.609	54.768	-8191	255	
33901.840	1	1	0	0	0.053762	0.16816	0.18434	0.17424	0.2114	0.06001	0.30913	0.18084	0.17829	0.082112	0.25352	0.30846	0.13761	0.23379	0.17505	0.17416	-1.7771	-1.6042	-1.8563	-1.9438	-1.5021	-2.0125	-1.8417	-1.75	-2.0896	-1.7583	-1.7938	-2.1063	-1.6271	-2.0354	-2.0458	-1.7812	328.941	270.573	80.675	111.417	186.592	154.624	351.632	35.455	93.094	322.927	288.896	350.071	191.755	66.293	37.908	360.092	0.00042903	0.00042692	0.00010289	404.86	2.2941e-06	3.3588e-06	497.16	164.94	3.1663e-06	3.3554e-06	233.95	100.13	68.185	28.316	4.2265e-06	48.868	0.00073563	0.0010436	0.00026431	421.63	9.9958e-06	1.041e-05	516.76	171.51	9.5399e-06	1.1753e-05	245.21	105.05	72.085	30.019	1.1176e-05	51.434	127.142	138.601	97.615	44.413	180.485	187.090	43.825	49.511	177.464	186.343	47.143	50.780	52.730	57.543	174.218	55.249	-8191	255	
33901.934	1	1	0	0	0.081589	0.18355	0.20324	0.10863	0.10486	0.14528	0.17545	0.093756	0.26747	0.30919	0.25024	0.19868	0.22001	0.011366	0.11493	0.056626	-1.5521	-1.625	-1.8229	-2.0833	-1.6458	-1.9813	-2.1625	-1.7083	-2.1021	-1.7042	-1.7062	-2.2375	-1.6417	-1.8896	-2.0479	-1.6604	193.205	379.881	233.037	243.499	89.458	182.969	125.108	50.126	141.164	187.366	241.481	295.472	389.458	299.677	339.505	50.691	0.00042912	0.00045878	0.00012204	402.61	2.6286e-06	3.1106e-06	500.22	164.42	3.5268e-06	2.8168e-06	232.75	100.22	68.302	28.447	2.3447e-06	49.147	0.00071712	0.0010639	0.00027548	419.07	1.0098e-05	1.0695e-05	517.22	171.3	8.9737e-06	1.2015e-05	245.31	105.51	72.192	30.092	1.1044e-05	51.784	126.542	102.841	88.067	44.724	199.373	135.886	43.681	49.289	161.293	156.445	47.179	51.111	53.332	57.595	170.743	55.053	-8191	255	
33902.031	1	1	0	0	0.25666	0.33682	0.061642	0.16669	0.30145	0.074528	0.17758	0.20046	0.045128	0.191	0.19578	0.053162	0.12025	0.064158	0.27242	0.1861	-1.7333	-1.7104	-1.8208	-2.0646	-1.7812	-1.8271	-1.9833	-1.7146	-1.8833	-2.0229	-1.5688	-2.3083	-1.4958	-1.9479	-2.0417	-1.5938	388.683	157.226	184.081	365.183	117.917	100.129	354.664	95.610	307.999	332.587	295.711	270.797	189.781	227.357	269.497	321.319	0.00045015	0.0006254	0.00013351	406.32	3.9514e-06	2.7117e-06	505.81	165.27	3.1732e-06	2.1017e-06	236.83	101.8	69.22	28.413	2.3907e-06	49.682	0.0006961	0.0010868	0.00027418	422.1	1.0156e-05	1.0253e-05	522.95	172.27	8.9019e-06	1.2069e-05	248.44	106.47	72.976	30.186	1.0957e-05	52.393	125.074	133.695	126.176	44.157	187.267	170.808	43.454	49.585	165.560	189.892	47.467	51.252	53.051	57.441	154.100	54.948	-8191	255	
33902.125	1	1	0	0	0.2299	0.054908	0.11085	0.028241	0.16219	0.082771	0.18971	0.30181	0.30933	0.053321	0.37636	0.13488	0.1376	0.18317	0.047397	0.18348	-1.525	-1.7604	-1.6562	-1.9521	-1.7833	-1.8188	-2.1417	-1.6354	-2.0812	-2.0333	-1.6021	-1.9479	-1.6625	-1.8354	-1.9042	-1.7792	169.062	128.132	356.518	105.204	263.960	158.637	177.934	52.987	95.099	353.809	53.089	141.387	349.964	51.366	69.480	84.355	0.00043561	0.00038836	0.00010192	407.99	2.3539e-06	4.5421e-06	504.74	166.08	3.6122e-06	3.265e-06	237.57	101.51	68.736	28.493	3.289e-06	48.839	0.00069625	0.0010783	0.00027961	425.56	1.0093e-05	1.0192e-05	525.82	173.49	8.8247e-06	1.204e-05	248.52	106.39	72.568	30.149	1.0636e-05	51.527	125.110	107.587	132.063	44.450	187.095	177.334	43.656	48.869	160.439	164.962	46.997	51.302	53.298	57.290	193.547	54.775	-8191	255	
33902.223	1	1	0	0	0.16218	0.19187	0.08593	0.045817	0.43586	0.25341	0.12075	0.25124	0.17524	0.1629	0.25706	0.12881	0.23961	0.023587	0.1886	0.16233	-1.5375	-1.9396	-1.6042	-1.9167	-1.8542	-1.8208	-2.1146	-1.5938	-1.9229	-1.9875	-1.5104	-2.1063	-1.8083	-1.7604	-2.0104	-1.4896	384.410	49.312	117.390	78.009	84.925	131.229	134.852	353.899	236.152	116.661	148.951	381.341	59.923	32.670	383.591	34.179	0.00040573	0.00033157	0.00014032	408.93	2.2879e-06	4.1075e-06	501.24	165.08	2.3089e-06	3.8617e-06	236.2	99.832	68.032	28.252	1.7423e-06	48.669	0.00067522	0.0010741	0.0002743	424.9	1.0355e-05	1.0578e-05	520.99	172.15	9.1159e-06	1.2205e-05	246.26	105	72.387	30.002	1.0132e-05	51.201	129.662	137.538	103.796	44.582	194.967	192.255	43.636	49.433	190.441	172.846	47.616	51.208	53.032	57.174	191.605	54.613	-8191	255	
33902.320	1	1	0	0	0.37671	0.022399	0.18835	0.11882	0.059375	0.15547	0.31712	0.1188	0.24271	0.25589	0.15451	0.2722	0.34256	0.092948	0.14224	0.13973	-1.3521	-1.9729	-1.6667	-1.9083	-1.7625	-1.6792	-2.0708	-1.7313	-1.8958	-2.0563	-1.7854	-2.1417	-1.8937	-1.5229	-2.0687	-1.7479	78.779	54.572	54.106	158.052	372.392	91.438	262.072	336.662	292.663	84.442	82.610	312.041	315.132	368.983	258.608	48.643	0.00043056	0.00020964	0.00013505	406.08	4.0155e-06	3.041e-06	504.25	164.87	3.0929e-06	3.6509e-06	235.7	100.83	68.652	28.437	3.8845e-06	48.897	0.00069482	0.0010564	0.00028013	422.48	1.0846e-05	1.0795e-05	522.26	172.35	9.0332e-06	1.1597e-05	246.57	105.41	72.646	30.049	1.0286e-05	51.541	125.561	136.052	126.730	44.381	178.293	179.200	43.702	49.271	188.282	161.645	47.148	51.002	53.623	57.354	205.453	54.517	-8191	255	
33902.438	1	1	0	0	0.14936	0.25722	0.22954	0.29541	0.012386	0.1929	0.23245	0.2313	0.050467	0.1803	0.26555	0.37395	0.12231	0.18383	0.14082	0.20304	-1.4708	-1.8813	-1.5979	-1.9646	-1.9188	-1.6688	-1.9542	-1.8875	-1.7812	-2.1625	-1.4729	-1.9146	-1.8542	-1.5604	-2.1146	-1.8875	120.290	314.043	103.217	83.528	322.804	103.746	59.644	333.760	247.705	200.090	204.268	206.059	360.332	374.813	295.594	174.454	0.00046549	0.00015812	7.0519e-05	410.75	4.577e-06	2.3861e-06	510.19	166.62	3.4427e-06	5.6288e-06	237.82	101.39	69.226	28.346	4.4817e-06	49.414	0.00070018	0.0010604	0.00028034	426.85	1.0721e-05	1.0795e-05	527.76	173.71	8.9753e-06	1.1396e-05	248.97	106.3	73.136	30.177	9.7761e-06	51.937	126.270	80.012	99.992	43.996	178.258	194.248	43.506	49.398	193.600	178.476	47.464	51.384	53.317	57.439	169.711	54.642	-8191	255	
33902.535	1	1	0	0	0.11643	0.020756	0.19976	0.076302	0.1803	0.071531	0.27846	0.12049	0.17527	0.10283	0.17126	0.13436	0.30441	0.0336	0.27187	0.17305	-1.3729	-2.0021	-1.5708	-1.8396	-1.9271	-1.7125	-1.9583	-1.7646	-1.7646	-2.1292	-1.7667	-1.8729	-1.9917	-1.7229	-1.9062	-1.875	335.127	368.462	148.016	55.975	308.041	150.673	289.885	344.330	58.787	71.746	119.005	362.118	300.141	223.743	33.652	175.311	0.00042985	0.00040657	0.00010317	417.87	2.4209e-06	2.6592e-06	515.01	168.42	3.3009e-06	4.5257e-06	239.41	102.22	69.401	28.509	3.0707e-06	48.948	0.00072612	0.0010156	0.00027824	433.02	1.0802e-05	1.1336e-05	535.61	175.72	9.1862e-06	1.1154e-05	251.42	106.93	73.044	30.173	9.8447e-06	51.663	124.126	131.460	116.337	44.566	180.535	157.293	43.724	49.263	162.562	159.490	47.332	50.986	53.259	57.104	191.570	54.852	-8191	255	
33902.629	1	1	0	0	0.1578	0.14772	0.23838	0.064972	0.17818	0.14336	0.37719	0.22707	0.10613	0.047664	0.20644	0.11298	0.22161	0.19901	0.16952	0.083085	-1.1187	-1.9229	-1.4958	-1.9125	-1.9937	-1.4375	-2.0625	-1.8396	-1.8042	-2.0438	-1.8	-1.8917	-2.0667	-1.6688	-1.9875	-1.8375	55.875	65.416	61.273	219.241	373.708	182.076	352.028	349.897	205.045	249.615	133.053	372.621	205.918	126.380	290.195	76.181	0.00045546	0.00049601	0.00013951	415.42	2.2835e-06	2.2017e-06	512.12	167.86	3.4231e-06	6.1927e-06	238.12	100.43	68.778	28.303	3.2274e-06	48.465	0.00070197	0.00097077	0.00028742	432.81	1.0307e-05	1.1255e-05	531.98	174.92	9.2402e-06	1.0762e-05	247.84	105.26	72.72	29.987	9.6957e-06	51.097	126.357	114.200	151.224	44.480	198.124	148.897	43.213	49.270	192.737	172.369	47.276	51.498	52.884	57.323	175.333	54.844	-8191	255	
33902.750	1	1	0	0	0.028144	0.11244	0.19162	0.36378	0.26062	0.14464	0.17567	0.11667	0.14879	0.31274	0.34314	0.21199	0.14077	0.25271	0.2009	0.077035	-1.2	-2.1562	-1.9021	-1.8604	-2.0104	-1.5104	-2.0354	-2.1083	-1.6125	-1.9583	-1.6958	-1.5958	-2.1021	-1.5812	-2.0187	-1.9979	296.923	285.674	114.182	134.911	85.949	115.935	369.192	65.827	130.899	321.143	45.494	198.864	238.757	362.262	39.392	357.530	0.0004183	0.00027708	0.00011659	415.44	3.9915e-06	3.4485e-06	514.3	166.66	3.299e-06	3.4293e-06	237.05	100.99	68.292	28.38	4.3355e-06	48.653	0.00071479	0.00096397	0.00029473	432.05	1.0154e-05	1.1673e-05	531.14	174.17	9.4743e-06	1.0594e-05	247.49	105.39	72.297	29.931	9.6104e-06	51.217	122.672	140.396	136.270	44.413	172.241	186.705	43.482	49.142	181.197	177.318	47.417	51.034	53.783	57.502	200.899	54.839	-8191	255	
33902.824	1	1	0	0	0.2162	0.13856	0.10081	0.37207	0.10774	0.14649	0.075064	0.018201	0.21183	0.080772	0.18126	0.2495	0.21985	0.14345	0.22297	0.049993	-1.1479	-1.9104	-1.7333	-1.5812	-2.1437	-1.5812	-1.9854	-1.9771	-1.4792	-2.1292	-1.8792	-1.7083	-2.1771	-1.6667	-1.8687	-2.1646	360.536	146.712	331.205	328.374	254.363	46.097	349.044	119.080	187.793	362.967	292.168	270.387	202.259	41.307	135.811	101.075	0.00046473	0.0005865	7.0438e-05	412.12	2.1913e-06	4.1879e-06	513.23	165.41	3.3564e-06	2.1837e-06	236.27	100.94	68.588	28.297	2.2974e-06	49.156	0.00071268	0.0009659	0.00029242	429.66	9.8755e-06	1.1242e-05	530.2	173.31	9.3885e-06	1.0736e-05	247.59	105.67	72.565	29.995	9.884e-06	51.81	124.136	132.832	137.370	44.618	145.534	201.807	43.627	49.353	179.476	179.019	47.146	50.900	53.214	57.493	226.637	54.291	-8191	255	
33902.918	1	1	0	0	0.11279	0.31648	0.21269	0.28774	0.069009	0.16497	0.031405	0.14797	0.066677	0.015913	0.12543	0.21659	0.21858	0.34986	0.11233	0.45901	-1.0958	-2.05	-1.9167	-1.5854	-2.075	-1.825	-1.9	-2.0938	-1.7167	-2	-1.8667	-1.5771	-1.9688	-1.8354	-1.7042	-2.0917	260.093	285.265	185.836	58.393	369.289	228.747	197.239	354.391	227.945	385.179	226.527	347.540	303.108	59.082	79.305	304.945	0.00043153	0.00044385	0.0001124	413.16	2.7876e-06	2.2182e-06	510.35	166.29	3.9677e-06	3.6558e-06	236.34	102.25	68.839	28.475	3.3593e-06	49.275	0.00071982	0.00097002	0.00029702	428.81	9.2882e-06	1.1832e-05	529.94	173.31	9.4449e-06	1.0585e-05	248.56	106.69	72.566	30.141	9.8204e-06	51.976	124.978	101.356	116.378	44.662	190.392	167.004	43.617	49.172	188.113	175.124	47.220	51.127	53.150	57.297	171.275	54.768	-8191	255	
33903.016	1	1	0	0	0.22169	0.21426	0.298	0.2279	0.035077	0.069664	0.12707	0.20503	0.085204	0.32806	0.15181	0.16784	0.025676	0.087148	0.12247	0.095138	-1.1063	-1.8062	-1.9312	-1.5333	-1.8563	-1.8521	-1.7917	-2.05	-1.6396	-1.8854	-2.0938	-1.5	-1.8667	-1.6125	-1.7583	-2.1937	197.451	261.332	306.992	294.338	45.824	52.918	54.917	390.616	66.367	278.121	44.866	242.187	317.115	155.553	388.235	42.900	0.00046037	0.00038324	0.00011614	411.5	4.1768e-06	9.3904e-07	509.55	165	3.807e-06	5.1549e-06	236.76	100.17	68.241	28.098	2.5638e-06	48.471	0.00073662	0.00092694	0.00030179	426.9	9.6221e-06	1.177e-05	527.35	172.38	9.7855e-06	1.0558e-05	247.8	105.02	72.048	29.812	9.8095e-06	51.029	124.011	126.400	119.714	44.165	155.987	103.184	43.671	49.336	187.525	186.890	47.403	51.112	53.050	57.528	179.888	54.922	-8191	255	
33903.133	1	1	0	0	0.18255	0.042846	0.10123	0.08058	0.21434	0.18451	0.14275	0.19742	0.095547	0.12749	0.081048	0.23562	0.12296	0.044773	0.29767	0.28527	-1.3292	-1.8042	-1.9604	-1.4896	-2.0146	-1.825	-1.6146	-2.1292	-1.6021	-1.8167	-2.1708	-1.7542	-1.9104	-1.8896	-1.6458	-2.25	77.669	69.304	91.364	92.792	150.764	170.724	244.414	313.494	145.534	337.758	354.189	363.994	369.619	154.787	58.949	242.150	0.00042232	0.0003441	8.1948e-05	409.13	2.7546e-06	3.1791e-06	510.59	166.25	4.7316e-06	3.115e-06	237.59	100.48	68.663	28.244	3.5954e-06	48.66	0.0007313	0.0009502	0.00029145	427.51	9.3841e-06	1.201e-05	528.81	173.21	1.0074e-05	1.0474e-05	247.46	105.25	72.253	29.89	9.7075e-06	51.278	125.855	138.931	117.305	44.438	188.126	199.213	43.608	48.892	205.530	207.814	47.584	51.069	53.085	57.259	192.639	54.656	-8191	255	
33903.230	1	1	0	0	0.044942	0.14044	0.072022	0.18275	0.065079	0.1574	0.29925	0.2348	0.34223	0.13735	0.19376	0.055276	0.15444	0.1196	0.15527	0.29102	-1.3104	-1.7104	-2.0354	-1.5146	-2.0271	-1.8833	-1.5792	-2.1312	-1.8771	-1.8167	-2.0187	-1.7792	-2.0312	-2.0875	-1.7708	-2.1104	234.171	228.303	238.447	162.605	317.262	187.025	332.586	376.048	182.406	378.876	274.247	77.495	351.257	62.327	249.110	330.143	0.00041144	0.00027173	0.00010187	411.16	3.338e-06	4.9904e-06	513.1	167.18	4.1568e-06	5.9289e-06	236.84	100.55	68.532	28.31	2.4645e-06	49.066	0.00072277	0.0009481	0.00029193	429.05	9.3459e-06	1.2161e-05	530.93	173.91	1.0059e-05	1.0767e-05	248.16	105.71	72.264	29.94	9.9124e-06	51.609	127.449	108.641	129.494	44.437	140.711	177.442	43.583	49.378	182.132	162.728	47.675	51.172	53.586	57.447	184.826	54.581	-8191	255	
33903.324	1	1	0	0	0.17188	0.18146	0.15513	0.13574	0.18404	0.15179	0.042657	0.3954	0.1555	0.045246	0.4034	0.35765	0.14357	0.15456	0.24477	0.26081	-1.3583	-1.5792	-2.0729	-1.5187	-1.5792	-2	-1.6458	-1.9875	-1.8021	-1.5979	-2.075	-1.7458	-1.8083	-1.8604	-1.5833	-2.0708	286.335	106.583	257.761	158.575	62.151	99.808	349.309	250.985	336.229	113.189	76.507	262.337	101.398	335.343	70.098	276.308	0.0004253	0.0003526	5.097e-05	418.28	3.5741e-06	5.3811e-06	514.8	167.21	3.9086e-06	4.1433e-06	237.48	101.47	68.701	28.432	4.0841e-06	48.954	0.00074802	0.0010019	0.00027486	433.29	9.3849e-06	1.2198e-05	532.9	174.24	1.02e-05	1.0585e-05	249.79	106.17	72.436	29.983	1.0548e-05	51.792	127.874	119.175	106.521	44.465	168.307	173.044	43.685	49.267	155.532	152.076	47.316	51.088	53.003	57.114	162.068	54.345	-8191	255	
33903.398	1	1	0	0	0.25785	0.098388	0.19924	0.14402	0.05979	0.28302	0.31819	0.075589	0.13989	0.11723	0.14503	0.51129	0.36737	0.30153	0.11713	0.18828	-1.4167	-1.5562	-2.0583	-1.7938	-1.8625	-2.0375	-1.5063	-1.8917	-1.7812	-1.7292	-2.125	-1.6313	-1.8479	-2.0208	-1.5042	-1.9021	137.870	41.633	348.960	63.828	58.894	111.989	353.232	51.061	98.045	340.392	194.039	388.847	104.625	196.455	205.733	192.430	0.00043645	0.00029869	0.00011059	416.41	3.1163e-06	4.6742e-06	515.52	166.5	1.6172e-06	4.218e-06	236.9	99.558	67.933	27.829	3.8754e-06	47.744	0.00077859	0.00098732	0.00028477	434.05	9.6733e-06	1.2e-05	535.13	174.13	1.0549e-05	1.1008e-05	247.14	104.36	71.905	29.496	1.092e-05	50.265	124.563	116.616	129.967	44.105	171.168	188.068	43.679	48.933	190.388	176.620	46.936	51.137	53.523	57.452	169.666	54.754	-8191	255	
33903.520	1	1	0	0	0.10558	0.10128	0.14791	0.38949	0.29008	0.097875	0.19531	0.040325	0.21905	0.060763	0.33182	0.15122	0.097498	0.093402	0.17942	0.2115	-1.4375	-1.4667	-1.9417	-1.725	-1.7208	-2.1188	-1.6229	-1.7958	-1.9292	-1.7146	-2.0354	-2.0208	-1.6771	-2.0104	-1.7062	-1.9854	267.659	177.242	123.796	375.842	328.752	99.964	152.968	273.870	154.999	208.368	310.165	317.085	290.934	155.658	60.780	340.196	0.00044716	0.00048414	4.7571e-05	415.37	4.0217e-06	3.7126e-06	508.66	166.12	3.1823e-06	4.7077e-06	233.54	98.564	67.89	27.679	3.8989e-06	47.662	0.0007701	0.0010057	0.00027791	433.57	9.8853e-06	1.1972e-05	531.11	173.22	1.0447e-05	1.1326e-05	244.99	103.14	71.544	29.327	1.0977e-05	50.057	125.344	100.649	129.320	44.526	164.794	162.308	43.690	49.180	202.653	191.613	46.755	50.989	52.978	57.461	183.766	54.913	-8191	255	
33903.613	1	1	0	0	0.13063	0.27552	0.14517	0.22417	0.26225	0.05852	0.31576	0.33261	0.16322	0.18618	0.12373	0.22945	0.12045	0.029398	0.25303	0.26817	-1.6083	-1.3771	-2.0896	-1.7354	-1.6146	-2.3229	-1.8167	-1.8333	-2.0646	-1.4729	-2.2396	-1.8625	-1.7313	-2.1333	-1.7125	-1.9458	222.888	242.241	254.993	389.916	168.041	94.100	198.363	375.794	224.618	179.489	321.389	385.662	167.912	217.897	382.513	336.616	0.00044123	0.00039731	0.0001007	414.23	3.6758e-06	2.3277e-06	510.97	165.83	2.8489e-06	3.8017e-06	235.35	98.869	67.611	27.789	3.2838e-06	48.18	0.00073804	0.0010626	0.00028343	431.25	9.6521e-06	1.1526e-05	529.52	172.64	1.0303e-05	1.1148e-05	244.78	103.78	71.5	29.43	1.1209e-05	50.669	127.251	115.277	117.982	44.383	177.810	209.905	43.496	49.307	203.866	205.950	47.195	50.863	53.254	57.377	199.669	54.847	-8191	255	
33903.711	1	1	0	0	0.13323	0.084248	0.14417	0.23078	0.15445	0.29476	0.19389	0.081844	0.25934	0.080727	0.15938	0.17209	0.19874	0.2181	0.038755	0.087041	-1.5771	-1.375	-1.75	-1.8625	-1.5229	-1.9562	-1.8813	-1.6938	-1.9167	-1.8333	-1.9	-1.9479	-1.5979	-2.0458	-1.8375	-2.0125	217.747	308.940	255.131	326.219	330.424	150.507	32.099	307.749	260.450	367.487	298.840	310.747	77.881	103.259	118.093	68.675	0.00042488	0.00029049	0.00013772	416.2	2.8458e-06	1.8828e-06	511.77	165.49	3.4261e-06	3.8083e-06	236.35	99.822	67.713	27.922	3.435e-06	48.614	0.00075389	0.0010552	0.00027954	431.29	9.7171e-06	1.1435e-05	529.99	172.99	1.0308e-05	1.1879e-05	246.99	104.75	71.635	29.577	1.1445e-05	51.185	131.247	126.634	108.398	44.265	188.715	153.999	43.648	49.127	198.432	169.413	47.610	50.937	53.665	57.154	162.231	54.818	-8191	255	
33903.832	1	1	0	0	0.21237	0.32002	0.21222	0.057702	0.33219	0.072398	0.11687	0.15595	0.17995	0.12414	0.24127	0.16467	0.12602	0.15516	0.14531	0.10733	-1.5771	-1.5021	-2.0708	-2.0146	-1.6104	-2.2313	-1.9813	-1.7542	-2.0646	-1.7062	-1.9375	-1.9125	-1.4438	-2.075	-1.6708	-1.8583	138.772	204.513	91.240	375.381	165.021	223.735	353.115	386.019	43.619	249.849	313.574	296.624	218.259	278.149	283.869	293.183	0.00043316	0.00028828	0.00010352	417.05	2.3001e-06	4.9672e-06	515.67	166.23	3.1709e-06	2.843e-06	235.21	100.96	67.838	27.945	3.7669e-06	48.309	0.00074678	0.0010641	0.00027682	432.06	9.9909e-06	1.1133e-05	532.96	173.64	9.757e-06	1.1714e-05	247.09	105.2	72.03	29.636	1.15e-05	50.882	127.317	155.134	142.570	44.348	160.896	165.963	43.638	49.307	208.343	151.378	47.423	51.012	53.393	57.282	192.051	54.709	-8191	255	
33903.930	1	1	0	0	0.036796	0.17445	0.21124	0.20696	0.23178	0.22667	0.054472	0.16366	0.016688	0.17003	0.097422	0.089716	0.1264	0.044191	0.072549	0.20735	-1.6812	-1.7104	-1.8062	-1.9083	-1.5917	-2.0896	-1.8604	-1.7583	-2.0833	-1.4729	-1.7042	-2.0604	-1.4896	-1.9958	-1.9271	-1.7875	231.230	300.283	266.589	70.855	236.289	221.564	139.571	321.231	375.373	142.445	110.219	229.263	355.578	113.513	75.993	360.046	0.00042652	0.00034398	0.00016222	414.28	1.4695e-06	3.7812e-06	515.82	165.54	3.0493e-06	2.8726e-06	235.57	99.754	68.331	27.854	3.5469e-06	48.196	0.00073214	0.0010686	0.00027786	431.27	1.0412e-05	1.0887e-05	531.23	172.99	9.5036e-06	1.1966e-05	246.37	104.59	72.027	29.559	1.1344e-05	50.836	128.959	125.817	130.404	44.352	198.631	206.587	43.340	49.589	176.455	189.218	47.271	51.007	52.939	57.410	186.583	54.638	-8191	255	
33904.023	1	1	0	0	0.17795	0.21486	0.026853	0.096196	0.21068	0.40991	0.37635	0.20971	0.22266	0.16677	0.2498	0.082085	0.11739	0.073543	0.17578	0.26502	-1.6354	-1.7271	-1.75	-1.9896	-1.6729	-1.8667	-2.0271	-1.6625	-1.9875	-1.8	-1.6938	-2.1083	-1.5917	-2.0187	-1.8417	-1.8	320.460	141.763	212.151	283.402	290.496	163.942	273.568	362.066	172.520	93.154	170.638	146.172	173.431	368.213	234.649	309.155	0.00045057	0.00036448	8.9104e-05	417.63	2.3354e-06	3.9961e-06	515.29	167.83	3.3295e-06	5.0368e-06	236.63	100.57	68.39	27.982	1.4298e-06	48.623	0.00072055	0.0010708	0.00026882	432.35	1.0004e-05	1.094e-05	533.95	173.8	9.533e-06	1.162e-05	247.58	105.01	72.475	29.634	1.1028e-05	51.14	124.861	114.648	120.743	44.369	169.345	192.393	43.539	49.174	183.579	160.086	47.625	51.018	53.256	57.469	178.211	54.936	-8191	255	
33904.121	1	1	0	0	0.076721	0.2216	0.29492	0.23884	0.1487	0.32446	0.1126	0.20746	0.099484	0.23508	0.3355	0.31914	0.243	0.37991	0.0086338	0.13684	-1.5583	-1.8917	-1.6458	-2.0625	-1.7062	-2.0042	-1.9125	-1.6667	-1.8917	-1.8229	-1.625	-1.9583	-1.5625	-1.8438	-2.0125	-1.5667	244.270	200.060	370.904	41.869	112.637	107.808	230.534	141.312	73.352	137.330	374.008	366.410	162.911	337.584	223.833	304.165	0.00042722	0.00032801	8.8942e-05	415.99	1.0813e-06	2.5171e-06	517.77	166.9	2.7634e-06	3.4207e-06	236.27	101.69	69.158	28.146	3.5602e-06	49.133	0.00070991	0.0010899	0.000259	433.82	1.0562e-05	1.04e-05	536.32	174.43	9.3491e-06	1.2083e-05	248.97	105.99	72.596	29.781	1.0907e-05	51.614	124.202	177.678	116.580	44.378	203.755	172.931	43.247	48.943	207.558	227.783	47.564	50.936	53.180	57.358	173.320	54.697	-8191	255	
33904.215	1	1	0	0	0.040847	0.4393	0.25041	0.1513	0.23713	0.098828	0.26966	0.29136	0.17047	0.10491	0.1171	0.083497	0.076952	0.34588	0.23318	0.30962	-1.4542	-1.7167	-1.5521	-2.1125	-1.5833	-1.9188	-2.0917	-1.5333	-2.0479	-1.7854	-1.6688	-2.2458	-1.5792	-1.8833	-2.15	-1.5854	349.361	162.867	208.075	309.555	135.074	258.294	287.223	287.683	52.036	79.141	258.265	189.851	302.965	84.509	239.373	316.068	0.00046551	0.00047284	0.00013634	418.36	4.0433e-06	5.7325e-06	518.29	167.96	2.1902e-06	3.1465e-06	239.81	101.24	68.461	28.07	2.9313e-06	48.987	0.00071505	0.0010761	0.00027151	434.7	1.0254e-05	1.0696e-05	536.81	174.88	8.983e-06	1.2154e-05	250.32	106.03	72.382	29.733	1.0582e-05	51.426	124.618	123.002	151.756	44.411	169.128	184.683	43.859	48.973	146.057	178.277	47.308	51.352	53.054	57.290	222.490	54.696	-8191	255	
33904.309	1	1	0	0	0.14109	0.11351	0.085819	0.31506	0.29901	0.18803	0.1593	0.25811	0.03851	0.19197	0.083469	0.07021	0.10294	0.16578	0.024143	0.12561	-1.475	-1.9125	-1.5708	-1.9833	-1.7396	-1.7542	-2.1854	-1.6187	-1.8813	-1.8813	-1.5271	-2.2271	-1.7458	-1.4708	-1.9688	-1.7021	276.437	226.260	245.892	354.845	242.107	353.969	390.268	339.244	113.351	53.849	289.990	300.431	121.923	258.503	185.839	152.273	0.0004286	0.00021269	7.3734e-05	414.63	3.2649e-06	5.0478e-06	517.5	166.96	3.8289e-06	4.9336e-06	235.97	99.703	68.093	27.688	3.8412e-06	48.032	0.00071384	0.0010809	0.00027916	433.37	1.075e-05	1.0736e-05	533.92	174.3	9.1699e-06	1.2185e-05	246.63	104.52	72.01	29.473	1.0707e-05	50.675	126.718	145.734	172.112	44.386	178.076	188.182	43.377	49.073	174.454	191.170	46.893	50.784	53.150	57.277	184.480	54.666	-8191	255	
33904.430	1	1	0	0	0.15861	0.07557	0.083402	0.28279	0.32458	0.06682	0.23233	0.19003	0.17266	0.099581	0.17493	0.13639	0.18	0.14599	0.34801	0.27716	-1.5312	-1.9458	-1.6896	-1.8167	-1.8729	-1.4792	-2.1167	-1.5542	-1.7979	-2.0083	-1.4021	-2.0292	-1.7792	-1.6667	-2.1688	-1.6917	144.383	224.985	47.791	88.285	228.208	106.750	303.244	259.437	167.023	354.349	60.431	205.494	88.625	82.936	280.404	59.457	0.00042542	0.00040583	9.9192e-05	418.46	2.0702e-06	3.0591e-06	515.51	166.06	3.025e-06	2.4715e-06	235.68	100.1	67.907	27.855	3.3445e-06	48.373	0.00068925	0.0010792	0.00029617	433.08	1.0961e-05	1.0804e-05	533.65	173.75	9.526e-06	1.1979e-05	246.82	104.62	72.092	29.541	1.0631e-05	50.984	126.466	102.051	129.331	44.617	183.804	176.654	43.338	48.958	159.417	154.110	47.666	51.354	53.222	57.245	158.685	54.732	-8191	255	
33904.527	1	1	0	0	0.37629	0.18512	0.14117	0.27071	0.09939	0.2327	0.15923	0.10231	0.060803	0.23188	0.16383	0.37907	0.15198	0.1431	0.045958	0.091526	-1.6063	-1.9937	-1.5958	-2.0854	-1.9125	-1.7208	-2.0583	-1.8208	-1.7625	-1.9979	-1.425	-2.0146	-1.8312	-1.5833	-2.0146	-1.6625	93.122	62.449	206.306	320.012	327.292	288.479	368.731	283.718	199.261	121.944	363.113	51.066	115.913	353.018	33.846	128.750	0.00043028	0.00031427	0.00014858	414.4	3.3154e-06	4.8613e-06	514.13	166.45	3.2608e-06	2.7039e-06	234.17	100.13	68.016	27.909	2.9668e-06	48.595	0.000702	0.0010618	0.00028926	430.7	1.0731e-05	1.0954e-05	532.62	173.66	9.1483e-06	1.1548e-05	247.16	104.82	72.076	29.553	1.0821e-05	51.387	127.481	122.690	112.616	44.566	175.755	171.423	43.399	49.443	185.727	146.906	47.229	51.475	53.480	57.855	171.751	54.878	-8191	255	
33904.621	1	1	0	0	0.28594	0.19784	0.030905	0.059642	0.15059	0.26407	0.1597	0.31399	0.13979	0.2201	0.15477	0.15939	0.12777	0.18116	0.36262	0.31169	-1.2812	-2.1708	-1.5333	-1.9062	-1.9146	-1.6479	-2.0083	-1.7292	-1.6063	-2.0375	-1.7271	-1.8854	-2.0667	-1.6333	-2.0604	-1.7563	38.728	221.878	216.667	39.590	267.851	271.726	377.991	378.717	301.115	131.466	35.418	296.901	241.651	67.504	376.218	378.499	0.00042219	0.0002933	4.4398e-05	412.68	1.1846e-06	3.6662e-06	515.08	165.42	3.007e-06	4.0205e-06	236.94	100.7	67.481	27.986	2.7497e-06	48.75	0.00072	0.0011183	0.00030585	428.82	1.1431e-05	1.234e-05	531.43	173.12	1.0258e-05	1.2858e-05	247.52	105.52	71.807	29.645	1.0688e-05	51.563	126.903	92.791	136.902	44.302	160.835	157.985	43.728	49.315	198.066	170.379	47.322	51.416	53.330	57.483	171.803	54.528	-8191	255	
33904.695	1	1	0	0	0.013642	0.095474	0.086193	0.33126	0.13863	0.17838	0.38994	0.19444	0.19285	0.07987	0.12227	0.19381	0.09743	0.073349	0.11293	0.21027	-1.25	-1.7833	-1.5208	-1.8813	-1.9292	-1.5667	-2.0521	-1.8875	-1.4375	-2.0938	-1.4625	-1.7812	-1.7917	-1.7542	-1.8479	-1.7875	344.479	60.629	154.634	91.863	157.200	385.072	350.222	370.796	218.358	121.072	322.793	325.467	235.133	385.131	352.265	379.667	0.00044553	0.00044278	0.00014025	412.4	4.946e-06	5.0068e-06	510.68	165.63	3.0563e-06	3.2418e-06	232.88	99.208	67.389	27.728	4.4969e-06	47.878	0.00075287	0.001082	0.00032534	427.84	1.0952e-05	1.2563e-05	527.27	172.62	1.0136e-05	1.217e-05	245.3	103.88	71.417	29.359	1.018e-05	50.514	129.462	136.490	142.991	44.338	167.946	186.555	43.679	49.177	148.129	184.358	47.429	50.910	53.259	57.495	195.808	54.735	-8191	255	
33904.816	1	1	0	0	0.13245	0.22686	0.18159	0.084352	0.18276	0.25907	0.11656	0.10323	0.077545	0.22267	0.28771	0.053339	0.1812	0.14749	0.15558	0.13131	-1.1646	-2.1042	-1.7563	-1.725	-1.8333	-1.4021	-1.8813	-1.7604	-1.5938	-2.2646	-1.7333	-1.5542	-2.1208	-1.5625	-1.9083	-2.0375	161.084	179.248	229.697	52.640	176.557	269.782	176.197	272.944	370.507	73.695	382.599	316.071	248.562	346.982	330.701	116.437	0.00043473	0.00030165	7.0794e-05	410.03	2.6401e-06	4.7867e-06	509.16	164.58	2.9305e-06	3.9021e-06	233.8	99.54	67.5	27.878	2.3298e-06	48.057	0.00074463	0.0010584	0.00031257	428.03	1.0959e-05	1.2715e-05	528.67	172.52	9.9184e-06	1.1715e-05	245.12	104.09	71.403	29.444	1.0178e-05	50.615	123.496	118.027	91.092	44.502	197.790	171.237	43.668	49.132	204.373	195.611	47.280	51.063	53.288	57.780	171.707	54.973	-8191	255	
33904.910	1	1	0	0	0.14438	0.077354	0.16156	0.30905	0.13503	0.16639	0.49876	0.19117	0.16478	0.098151	0.14082	0.34767	0.3194	0.17743	0.16356	0.12774	-1.0604	-1.9854	-1.9188	-1.6375	-2.1646	-1.5854	-1.9542	-1.9271	-1.4562	-1.8667	-1.8792	-1.7479	-2.0854	-1.7437	-1.6646	-1.9021	268.743	347.761	80.805	312.315	140.864	322.783	329.935	337.292	325.082	44.265	364.130	308.409	336.900	311.313	382.334	277.566	0.00042833	0.00017743	0.00013502	414.54	2.8853e-06	4.3945e-06	508.69	166.29	2.5243e-06	5.1704e-06	236.65	100.69	68.33	27.796	4.4422e-06	48.292	0.00073013	0.0010378	0.00032711	430.42	1.0276e-05	1.2628e-05	530.28	173.31	1.0451e-05	1.1768e-05	247.54	104.72	71.904	29.483	1.044e-05	51.017	127.759	102.183	119.162	44.410	163.102	157.819	43.626	49.325	189.134	188.220	47.445	51.367	53.187	57.527	184.749	55.460	-8191	255	
33905.008	1	1	0	0	0.20206	0.41506	0.41958	0.19348	0.3227	0.16074	0.14129	0.092586	0.12791	0.17551	0.14406	0.14767	0.17907	0.13713	0.19174	0.05888	-1.1479	-1.9667	-1.8	-1.5354	-1.9667	-1.6875	-2.075	-2.0979	-1.5771	-2.1208	-1.7958	-1.6396	-2.1271	-1.775	-1.7333	-2.1292	43.880	240.576	303.705	203.846	356.059	102.140	288.870	286.265	132.774	144.734	66.131	364.910	163.777	302.689	121.404	195.749	0.00043706	0.00038017	0.00016381	415.08	3.5168e-06	3.4933e-06	516.65	166.72	3.7566e-06	6.7017e-06	236.69	100.22	67.815	28.009	3.2947e-06	48.673	0.00075418	0.0010225	0.00032808	432.28	1.0974e-05	1.2927e-05	534.97	174.21	1.0595e-05	1.0886e-05	248.73	105.1	71.854	29.612	9.9551e-06	51.384	126.187	115.169	125.449	44.377	197.047	176.919	43.640	49.257	188.455	195.831	47.309	51.114	53.323	57.277	212.535	54.828	-8191	255	
33905.105	1	1	0	0	0.28691	0.30426	0.11403	0.10023	0.14261	0.14301	0.11085	0.06144	0.20452	0.08932	0.18897	0.3083	0.40144	0.19711	0.16011	0.13221	-1.1604	-1.9271	-1.8646	-1.4792	-1.9104	-1.9062	-1.9667	-1.9937	-1.6229	-1.9042	-2.05	-1.4479	-2.0042	-1.6521	-1.6104	-2.2354	316.172	256.272	52.842	319.105	48.555	48.307	289.363	375.689	51.378	385.623	383.815	98.166	55.567	263.226	198.920	74.187	0.00047066	0.00044011	9.3178e-05	419.08	2.2945e-06	4.1862e-06	518.55	167.83	3.3165e-06	5.2656e-06	237.17	98.981	67.609	27.888	2.9995e-06	47.818	0.00076897	0.0010093	0.00030807	436.74	1.0183e-05	1.2743e-05	537.35	174.88	1.0855e-05	1.1478e-05	247.61	104.04	71.667	29.446	1.0843e-05	50.237	127.707	139.198	122.255	44.517	159.655	185.206	43.861	49.197	178.184	189.916	46.911	51.341	53.141	57.643	201.567	54.848	-8191	255	
33905.199	1	1	0	0	0.076287	0.32855	0.12726	0.15368	0.30541	0.04224	0.14304	0.18802	0.26665	0.074287	0.05589	0.32969	0.20416	0.32197	0.056309	0.17724	-1.2104	-1.6333	-1.9	-1.4625	-1.9042	-1.7729	-1.6583	-2.0042	-1.45	-1.9333	-1.9688	-1.5417	-1.9229	-1.7437	-1.6417	-2.0021	168.112	274.722	177.607	274.293	278.621	279.077	126.029	80.601	110.100	274.803	101.403	314.118	87.152	117.169	294.164	224.087	0.0004625	0.0002971	0.00012617	413.58	2.5979e-06	2.7041e-06	508.76	165.29	3.1163e-06	4.7796e-06	231.54	98.666	67.385	27.656	4.7755e-06	47.921	0.00078821	0.0010782	0.00034351	431.98	1.0613e-05	1.3615e-05	529	172.15	1.1165e-05	1.2164e-05	243.93	103.31	71.296	29.311	1.19e-05	50.386	123.701	130.459	119.957	44.381	202.120	171.838	43.719	49.284	175.518	183.065	47.119	51.206	53.957	57.731	182.949	54.564	-8191	255	
33905.297	1	1	0	0	0.2687	0.33626	0.16926	0.017967	0.10782	0.07046	0.15668	0.081316	0.32021	0.10502	0.2669	0.30571	0.096501	0.39587	0.13923	0.25229	-1.425	-1.6854	-2.0979	-1.4688	-2.0417	-1.7167	-1.5833	-2.1063	-1.7396	-1.6938	-2.0042	-1.4792	-1.8229	-1.9333	-1.3937	-1.9271	295.305	240.199	224.941	182.784	43.964	156.269	373.808	335.075	127.727	261.708	39.418	268.484	253.455	360.004	151.923	318.579	0.0004254	0.00017262	8.742e-05	407.76	1.8981e-06	2.2389e-06	503.78	163.92	3.9389e-06	2.4395e-06	230.95	99.055	66.671	27.891	2.0164e-06	48.31	0.0008323	0.0011045	0.00034849	425.76	1.1022e-05	1.3938e-05	523.23	171.18	1.1662e-05	1.2489e-05	243.22	103.55	71.012	29.348	1.2057e-05	50.78	127.547	135.796	158.098	44.642	113.125	175.127	43.462	49.273	173.839	184.143	47.265	51.241	53.451	57.579	188.869	55.065	-8191	255	
33905.395	1	1	0	0	0.2436	0.043313	0.29134	0.26432	0.35625	0.13997	0.1718	0.25024	0.27146	0.19891	0.21489	0.055578	0.11295	0.11948	0.1381	0.45793	-1.1667	-1.8271	-2.2438	-1.4542	-1.8687	-2.0583	-1.4292	-1.8833	-1.9292	-1.8646	-1.9208	-1.5438	-2.0083	-1.9792	-1.5812	-1.9625	126.231	166.441	63.485	44.075	48.080	225.632	106.324	102.451	122.575	247.540	98.463	95.978	291.814	97.424	332.801	351.350	0.00041149	0.00037897	4.9757e-05	408.73	3.8342e-06	3.3192e-06	506.6	164.81	3.5109e-06	4.489e-06	231.87	99.44	67.786	27.692	4.3204e-06	48.308	0.00081467	0.0011089	0.00033872	425.93	1.0767e-05	1.3654e-05	526.33	171.97	1.2039e-05	1.2457e-05	244.74	104.3	71.465	29.346	1.1582e-05	50.934	128.751	111.304	60.702	44.093	211.276	174.080	43.505	48.923	177.556	165.826	47.230	51.035	53.413	57.382	199.183	54.964	-8191	255	
33905.512	1	1	0	0	0.032015	0.053764	0.10228	0.2457	0.079055	0.29662	0.13548	0.17317	0.17489	0.24428	0.18442	0.35977	0.12202	0.27854	0.076349	0.29019	-1.0896	-1.6917	-2.1125	-1.7167	-1.8979	-2.1042	-1.6042	-1.9479	-1.8896	-1.5958	-2.0229	-1.6917	-1.7542	-2.0729	-1.5583	-1.9729	60.768	152.132	187.710	120.841	84.592	91.134	156.874	162.129	179.076	106.766	145.358	335.069	270.610	366.286	64.540	204.320	0.00044988	0.00018466	0.00010777	411.21	3.7033e-06	4.1397e-06	515.48	165.67	2.5874e-06	3.7044e-06	234.4	99.351	67.755	27.691	1.6127e-06	47.653	0.00082359	0.0010809	0.00031588	429.83	1.0395e-05	1.3137e-05	531.48	173.02	1.1053e-05	1.2675e-05	246.39	104.21	71.666	29.348	1.2365e-05	50.309	123.319	119.037	104.722	44.690	198.660	180.870	43.735	49.574	182.343	170.345	47.059	51.117	53.628	57.436	181.707	54.698	-8191	255	
33905.609	1	1	0	0	0.14248	0.11473	0.10623	0.17019	0.19773	0.04363	0.0516	0.27546	0.18878	0.14946	0.077021	0.2405	0.0096732	0.22853	0.080486	0.077073	-1.4396	-1.4854	-1.8875	-1.6917	-1.7292	-2.2062	-1.7167	-1.8813	-1.8292	-1.5125	-2.1646	-1.6979	-1.6604	-1.9375	-1.7687	-1.825	273.843	257.916	331.445	267.844	266.587	64.788	266.265	223.501	176.330	390.547	140.799	349.172	230.172	69.489	390.212	345.958	0.00042926	0.00024962	7.4658e-05	416.82	4.4488e-06	3.7613e-06	510.01	165.24	3.2754e-06	4.7118e-06	231.9	98.345	67.477	27.622	1.6848e-06	47.783	0.00081088	0.0011136	0.00031729	432.83	1.073e-05	1.3189e-05	531.14	172.84	1.1427e-05	1.2841e-05	244.07	103.2	71.328	29.252	1.1689e-05	50.222	124.449	129.965	107.265	44.688	177.805	152.929	43.140	48.752	177.380	192.154	47.508	51.221	53.071	57.658	205.200	54.668	-8191	255	
33905.703	1	1	0	0	0.13243	0.17582	0.10645	0.074125	0.20844	0.25516	0.24734	0.29644	0.17237	0.23467	0.11474	0.097306	0.064172	0.22647	0.049044	0.24153	-1.3979	-1.5458	-1.9792	-1.9021	-1.6125	-2.1146	-1.6896	-1.7604	-2.0208	-1.5042	-1.975	-1.7104	-1.5542	-2.1333	-1.7667	-2.0292	274.932	112.620	205.712	163.993	382.691	306.916	359.977	236.695	109.896	286.674	82.239	341.777	269.242	219.361	301.028	305.819	0.0004423	0.00047444	0.00017358	417.63	2.553e-06	2.8076e-06	515.55	166.55	3.7648e-06	3.1073e-06	235.17	99.383	67.836	27.685	3.2347e-06	47.968	0.00082243	0.0011376	0.00030368	434.87	1.101e-05	1.3074e-05	534.27	173.75	1.15e-05	1.2899e-05	245.93	103.83	71.685	29.26	1.2479e-05	50.481	128.982	119.718	97.939	44.409	156.951	145.829	43.565	49.197	183.614	209.134	47.267	51.015	53.017	57.164	174.399	54.510	-8191	255	
33905.801	1	1	0	0	0.24362	0.11287	0.088892	0.24085	0.14342	0.19808	0.21772	0.19162	0.3074	0.26507	0.28292	0.32873	0.27703	0.13744	0.078112	0.25269	-1.4792	-1.5604	-2.0667	-1.9542	-1.5083	-1.9875	-1.6292	-1.7333	-1.9438	-1.5625	-1.8708	-2.05	-1.6292	-1.8708	-1.7021	-1.9083	132.603	38.932	209.129	308.795	150.188	63.681	335.193	304.933	171.860	142.105	273.103	306.839	121.505	75.473	40.020	275.193	0.00045203	0.00035576	0.00010747	420.41	2.7464e-06	4.2468e-06	520.6	167.57	2.7889e-06	1.1103e-06	236.97	99.087	68.122	27.759	3.9717e-06	47.7	0.00080822	0.0011364	0.00030382	437.69	1.0845e-05	1.2456e-05	538.9	174.47	1.1208e-05	1.2726e-05	246.79	104.22	71.89	29.387	1.2373e-05	50.601	124.875	95.784	128.451	44.346	159.459	184.348	43.482	48.783	188.726	200.101	47.319	50.944	52.805	57.148	159.761	54.683	-8191	255	
33905.922	1	1	0	0	0.17004	0.1133	0.2794	0.096491	0.14423	0.13992	0.15615	0.11231	0.10333	0.17557	0.054703	0.1739	0.3133	0.2694	0.099325	0.19308	-1.75	-1.5979	-1.825	-1.9375	-1.7188	-2.0604	-1.8271	-1.5896	-1.9521	-1.6333	-2.0208	-2.1167	-1.6208	-1.9292	-1.6125	-1.6437	117.404	245.431	40.596	176.255	329.092	359.200	313.988	193.666	56.794	293.818	77.894	32.698	225.580	352.610	107.704	36.502	0.00040498	0.00034917	9.5293e-05	424.49	2.8294e-06	2.6932e-06	521.77	166.91	2.6296e-06	3.1489e-06	237.57	99.599	67.855	27.823	3.1438e-06	47.861	0.00079055	0.0011748	0.00029622	440.59	1.103e-05	1.2156e-05	541.58	174.82	1.0715e-05	1.3041e-05	248.23	104.5	71.931	29.364	1.1919e-05	50.509	130.595	95.782	128.150	44.165	152.170	182.791	43.641	49.079	185.635	183.384	46.964	51.099	52.979	57.313	187.753	54.928	-8191	255	
33905.992	1	1	0	0	0.22337	0.1262	0.0849	0.099141	0.25931	0.13998	0.15473	0.13048	0.29202	0.055759	0.26385	0.21695	0.1896	0.27522	0.11792	0.2433	-1.525	-1.4062	-1.6562	-1.8833	-1.45	-2.1396	-1.775	-1.5375	-1.8687	-1.5333	-1.8875	-2.0292	-1.5083	-1.9417	-1.85	-1.7167	68.725	132.366	246.887	167.790	314.656	277.055	84.478	371.483	249.392	276.290	286.947	316.468	348.539	251.150	264.557	356.409	0.00044187	0.00041262	9.306e-05	423.54	3.1208e-06	3.7125e-06	519.89	167.37	2.7608e-06	3.4201e-06	233.2	97.644	67.875	27.536	4.3313e-06	47.216	0.00076504	0.0011652	0.00028473	439.5	1.1e-05	1.1611e-05	539.91	174.55	1.0594e-05	1.2893e-05	244.84	102.72	71.779	29.198	1.1732e-05	49.765	127.870	113.455	132.060	44.377	171.556	194.264	43.310	49.138	173.771	185.212	47.095	50.955	53.398	57.249	165.111	54.657	-8191	255	
33906.113	1	1	0	0	0.068775	0.076805	0.23813	0.095672	0.13472	0.2256	0.10012	0.17338	0.31517	0.23981	0.14858	0.035497	0.078122	0.23276	0.03307	0.27412	-1.575	-1.8646	-1.6979	-1.9292	-1.6479	-1.8708	-2.0125	-1.5125	-2.0396	-1.6896	-1.8854	-2.0521	-1.5583	-1.9521	-1.9458	-1.7792	385.550	290.039	125.193	356.221	242.109	229.273	390.918	196.768	204.053	98.541	157.640	95.235	367.674	227.100	73.519	354.223	0.00041608	0.00029941	7.9279e-05	425.47	2.8343e-06	3.1187e-06	526.17	166.92	3.2369e-06	4.6806e-06	233.79	98.174	67.931	27.578	2.781e-06	47.225	0.00074682	0.0011235	0.0002962	444.76	1.1096e-05	1.1175e-05	543.75	174.59	1.0233e-05	1.2753e-05	245.61	102.59	71.459	29.238	1.1756e-05	49.832	126.471	171.687	101.337	44.353	186.458	162.196	43.877	48.911	155.821	185.849	47.290	51.360	53.350	57.408	198.227	54.717	-8191	255	
33906.207	1	1	0	0	0.066576	0.058881	0.13055	0.28346	0.090797	0.29319	0.12413	0.36367	0.10194	0.29403	0.2334	0.21637	0.16361	0.13677	0.15176	0.076227	-1.6313	-1.8021	-1.7313	-2.0104	-1.5542	-1.9417	-1.9208	-1.5521	-2.1604	-1.6021	-1.6104	-2.2021	-1.6917	-1.9062	-1.975	-1.7313	96.688	273.207	369.359	338.720	365.300	118.839	294.521	380.252	133.748	210.404	225.706	317.880	317.496	256.754	327.720	362.188	0.00044209	0.00020864	7.9456e-05	428.13	3.4522e-06	3.8231e-06	527.99	167.31	2.4481e-06	4.9634e-06	233.43	98.342	67.233	27.6	2.4684e-06	47.688	0.00076023	0.001165	0.00029086	444.69	1.1348e-05	1.1197e-05	545.32	174.97	1.0356e-05	1.3418e-05	245.48	102.75	71.497	29.268	1.183e-05	50.155	126.702	104.915	146.223	44.713	133.897	190.542	43.452	49.188	187.084	149.124	47.146	51.245	53.706	57.488	190.835	54.886	-8191	255	
33906.305	1	1	0	0	0.29526	0.27356	0.093427	0.2113	0.34879	0.14771	0.30821	0.0879	0.14404	0.049825	0.0612	0.17726	0.31271	0.25851	0.10625	0.10393	-1.5187	-1.7604	-1.7875	-2.1813	-1.5562	-1.8729	-2.0667	-1.7271	-1.9604	-1.9354	-1.8792	-2.1333	-1.7188	-1.8625	-2.0687	-1.6792	306.956	316.452	258.057	365.018	202.829	323.972	358.237	338.173	137.780	326.344	359.980	347.100	87.406	85.002	191.195	370.296	0.00041343	0.00044228	4.1423e-05	425.64	3.2703e-06	3.4964e-06	526.16	167.23	2.5766e-06	2.0802e-06	234.15	98.919	67.916	27.742	4.8426e-06	48.102	0.0007415	0.0011716	0.00031005	442.49	1.162e-05	1.1371e-05	543.59	174.63	9.577e-06	1.3195e-05	246.53	103.68	71.912	29.297	1.18e-05	50.684	124.506	109.631	127.154	44.255	178.710	131.278	43.402	49.056	208.332	193.157	47.442	51.174	53.063	57.525	191.973	54.346	-8191	255	
33906.398	1	1	0	0	0.16527	0.02809	0.33336	0.24588	0.23074	0.19637	0.28865	0.095204	0.14615	0.16781	0.16116	0.18269	0.33871	0.21028	0.0467	0.1245	-1.4896	-1.9604	-1.5208	-2.0438	-1.7125	-1.5625	-2.0979	-1.4792	-2.0479	-1.9062	-1.6771	-2.0312	-1.8625	-1.8042	-2.1562	-1.4542	308.856	321.856	45.403	299.392	137.121	202.512	338.327	222.839	127.940	197.592	97.176	346.463	74.616	119.947	327.469	382.537	0.00046683	0.00035681	0.00018851	424.46	1.4139e-06	5.4351e-07	521.15	166.95	3.5388e-06	4.6275e-06	232.88	98.288	67.884	27.493	3.2097e-06	47.514	0.00072969	0.0011582	0.00030878	441.57	1.146e-05	1.1789e-05	540.66	174.08	9.6187e-06	1.3414e-05	244.25	103.11	71.679	29.128	1.2089e-05	49.953	124.833	94.661	127.330	44.115	193.475	390.071	43.668	49.013	184.687	169.470	46.736	51.023	53.476	57.825	153.415	54.863	-8191	255	
33906.520	1	1	0	0	0.29879	0.061078	0.07485	0.24753	0.077261	0.070719	0.084644	0.18808	0.13437	0.15109	0.13581	0.26068	0.1146	0.18507	0.15807	0.18157	-1.2563	-1.8583	-1.3896	-1.8917	-1.7583	-1.6542	-2.2687	-1.5917	-1.9083	-2.0792	-1.5896	-2.1042	-1.8813	-1.6146	-2.2375	-1.675	295.995	111.445	372.110	352.025	269.068	310.509	334.867	352.329	336.208	142.334	313.932	352.560	366.933	385.263	146.309	328.797	0.00043021	0.00040335	8.5512e-05	420.9	1.8992e-06	3.0283e-06	518.15	166.34	3.26e-06	4.6541e-06	230.08	98.432	67.859	27.393	1.7645e-06	47.568	0.00072303	0.0011531	0.000313	438.91	1.1639e-05	1.2359e-05	537.3	173.49	9.8334e-06	1.32e-05	243.73	103	71.647	29.127	1.1237e-05	50.151	124.594	115.395	100.847	44.786	168.097	150.594	43.532	48.820	192.714	157.122	46.969	51.286	53.554	57.383	205.045	54.838	-8191	255	
33906.594	1	1	0	0	0.15938	0.13095	0.098225	0.16026	0.089992	0.014603	0.10308	0.050621	0.23348	0.25649	0.10312	0.17416	0.20462	0.16851	0.12006	0.22545	-1.2875	-1.9479	-1.6562	-1.925	-1.9708	-1.7396	-2.1354	-1.7521	-1.7104	-2.1229	-1.4604	-2.1292	-2.0896	-1.7479	-2.1979	-1.9583	124.485	234.279	194.116	126.180	289.628	192.917	338.762	235.252	143.960	115.664	321.064	308.718	138.356	299.935	85.175	263.133	0.00041374	0.00039028	0.00012171	419.79	3.8924e-06	3.6105e-06	515.48	166.39	2.926e-06	3.0615e-06	234.42	99.06	67.302	27.479	3.1551e-06	48.012	0.00072762	0.0011717	0.00031824	435.74	1.1878e-05	1.2353e-05	536.26	173.85	1.0371e-05	1.3066e-05	245.17	103.31	71.438	29.16	1.1105e-05	50.575	123.987	107.747	88.040	44.607	195.438	209.621	43.568	48.990	157.409	122.729	47.038	50.945	53.341	57.320	200.179	54.837	-8191	255	
33906.688	1	1	0	0	0.10389	0.13844	0.11218	0.084855	0.14276	0.25855	0.23989	0.4077	0.0050096	0.23245	0.29488	0.21551	0.081468	0.22092	0.1235	0.26225	-1.3146	-2.1458	-1.4875	-1.75	-1.9625	-1.6688	-2.0917	-1.975	-1.8167	-2.175	-1.65	-1.8792	-1.8958	-1.4146	-2.0542	-1.9208	80.843	125.619	223.500	382.711	46.376	277.072	285.857	345.639	37.743	369.580	360.383	251.761	82.614	341.435	260.330	380.973	0.00041618	0.00045496	7.3313e-05	417.71	1.9865e-06	4.1882e-06	517.16	166.32	2.332e-06	4.7415e-06	232.84	99.011	67.778	27.513	3.2794e-06	48.437	0.00074857	0.0011584	0.00032631	435.71	1.1638e-05	1.284e-05	535.5	173.48	1.0181e-05	1.2734e-05	245.65	103.93	71.756	29.23	1.0628e-05	51.013	125.421	119.426	139.397	44.507	181.411	173.354	43.712	49.115	171.292	196.772	47.237	51.347	52.839	57.418	171.576	54.573	-8191	255	
33906.785	1	1	0	0	0.087326	0.17876	0.19867	0.011655	0.088665	0.11285	0.11131	0.27	0.073571	0.16943	0.13588	0.13507	0.21869	0.15213	0.12179	0.21318	-1.3167	-1.9562	-1.4875	-1.5917	-1.9646	-1.5146	-1.7396	-1.7917	-1.5312	-1.8917	-1.5521	-1.7938	-2.1104	-1.7083	-2.0333	-1.9625	349.208	219.875	234.519	239.747	273.381	322.202	135.495	89.487	383.252	147.817	390.083	368.270	121.235	34.838	373.201	325.432	0.00044382	0.00019686	0.00013595	414.79	3.2202e-06	3.4193e-06	517.18	167.13	2.5419e-06	5.438e-06	234.08	98.884	67.427	27.451	2.6152e-06	47.663	0.00076657	0.0011375	0.00032466	433.63	1.213e-05	1.2508e-05	536.53	173.44	1.0562e-05	1.2826e-05	245.5	103.58	71.448	29.093	1.0511e-05	50.193	125.290	110.263	119.910	44.463	190.200	223.383	43.807	49.260	178.692	187.045	47.460	51.648	53.618	57.403	184.533	54.848	-8191	255	
33906.879	1	1	0	0	0.26044	0.083402	0.077371	0.12892	0.37897	0.2546	0.094999	0.3991	0.34995	0.19348	0.11625	0.23305	0.13132	0.16873	0.09857	0.40987	-1.3625	-2.025	-1.9083	-1.5833	-2.1437	-1.7563	-1.9937	-2	-1.6583	-2.0312	-1.8771	-1.7229	-1.9813	-1.8062	-1.8229	-2.0083	326.390	124.465	216.390	33.403	277.379	245.572	323.548	328.086	159.846	368.632	301.173	371.571	196.734	38.446	370.753	76.856	0.00040746	0.00028035	0.00010278	415.4	3.3089e-06	3.7195e-06	516.57	165.61	3.5816e-06	4.9223e-06	234.08	98.532	67.727	27.475	4.2907e-06	47.526	0.00075586	0.0011548	0.00033138	433.92	1.2028e-05	1.336e-05	533.69	173.17	1.07e-05	1.2568e-05	243.75	103.05	71.637	29.122	1.0704e-05	50.22	126.039	114.214	79.279	44.504	127.447	172.752	43.755	48.991	159.972	187.646	47.676	50.929	53.392	57.361	167.363	54.869	-8191	255	
33907.000	1	1	0	0	0.078596	0.29443	0.20374	0.26	0.21959	0.2083	0.24077	0.12253	0.28188	0.2033	0.15648	0.19676	0.027144	0.35577	0.091986	0.089856	-1.2	-1.8375	-1.8188	-1.6333	-2.2042	-1.7667	-2.0604	-2	-1.5229	-1.9771	-1.8937	-1.6208	-2.1479	-1.725	-1.6521	-2.1813	211.909	266.021	44.581	338.907	34.918	169.144	320.007	378.087	90.844	161.643	117.830	376.691	300.821	351.533	215.910	385.127	0.00039579	0.00022607	0.00012364	418.31	2.8017e-06	2.721e-06	519.56	166.23	4.3044e-06	2.5799e-06	231.59	98.463	67.252	27.469	3.8052e-06	48.016	0.00076471	0.0010926	0.00034078	435.92	1.0924e-05	1.2765e-05	536.86	173.71	1.0553e-05	1.1915e-05	245.06	103.49	71.531	29.193	1.0749e-05	50.557	129.028	129.049	90.836	44.635	181.100	168.640	43.717	49.244	186.436	152.116	47.350	51.253	53.537	57.322	174.120	54.536	-8191	255	
33907.094	1	1	0	0	0.24909	0.33989	0.2796	0.36697	0.25715	0.34564	0.052056	0.14017	0.22476	0.14924	0.221	0.28904	0.12228	0.20177	0.1837	0.062509	-1.0458	-2.0604	-1.5854	-1.5104	-2.1562	-1.6229	-1.725	-1.9667	-1.5792	-1.95	-1.8729	-1.5083	-1.9813	-1.6292	-1.6896	-2.0042	71.736	231.250	386.600	387.261	185.192	33.241	32.710	184.458	139.555	224.346	70.829	335.452	45.367	377.454	240.606	303.205	0.00042771	0.00022891	0.00012823	421.16	4.3663e-06	3.2336e-06	521.72	167.44	3.5608e-06	3.203e-06	233.6	99.033	67.155	27.635	3.7811e-06	48.34	0.00078289	0.00098866	0.00033384	438.07	1.1146e-05	1.2599e-05	540.08	174.52	1.076e-05	1.1593e-05	246.23	104.03	71.545	29.289	1.1223e-05	50.882	125.370	115.989	134.772	44.199	209.990	173.558	43.357	49.190	155.022	177.567	46.957	51.482	53.248	57.605	169.736	54.530	-8191	255	
33907.191	1	1	0	0	0.07442	0.22002	0.1679	0.22065	0.11089	0.18808	0.24564	0.12925	0.036301	0.1404	0.21725	0.17104	0.14583	0.24209	0.24993	0.097572	-0.94792	-1.9542	-1.7687	-1.6125	-1.9917	-1.6958	-1.6854	-2.0354	-1.4917	-1.8438	-1.8312	-1.7271	-1.8854	-1.8896	-1.5438	-2.0375	326.248	64.344	65.032	162.832	69.789	123.358	85.772	71.303	269.780	266.141	80.980	125.713	293.149	287.743	233.066	366.060	0.00043254	0.00026164	0.00012571	424.67	1.9993e-06	1.7301e-06	525.15	167.77	3.1261e-06	2.662e-06	235.81	99.726	67.975	27.559	4.1547e-06	47.743	0.00076161	0.0010565	0.00033922	439.94	1.0507e-05	1.3093e-05	542.56	174.62	1.0808e-05	1.1751e-05	247.83	104.41	72.001	29.206	1.1333e-05	50.423	128.022	179.256	138.415	44.694	169.938	117.136	43.818	49.101	179.851	173.773	47.010	51.255	53.254	57.408	180.813	54.527	-8191	255	
33907.289	1	1	0	0	0.14353	0.087572	0.05167	0.23329	0.23665	0.26038	0.098676	0.11701	0.12689	0.2194	0.26872	0.20931	0.088941	0.31448	0.24256	0.061636	-1.1063	-1.7208	-1.8958	-1.6375	-1.8937	-1.9271	-1.6688	-1.9958	-1.6333	-1.725	-1.8958	-1.5542	-1.7437	-1.8458	-1.5333	-2.1542	155.271	214.484	77.934	352.629	40.196	380.817	203.794	386.035	185.915	171.979	83.975	328.951	250.389	377.595	280.242	211.010	0.00040478	0.00036475	0.00010238	422.07	2.2336e-06	2.9307e-06	522	167.57	3.9725e-06	1.6475e-06	233.01	98.336	67.559	27.425	1.7577e-06	47.47	0.00076897	0.0010111	0.00032371	440.07	1.0595e-05	1.3351e-05	540.88	174.53	1.1007e-05	1.1823e-05	244.05	102.88	71.432	29.059	1.1397e-05	49.996	127.170	129.597	149.319	44.310	187.606	234.068	43.241	48.968	163.091	190.431	47.740	51.193	52.837	57.134	209.361	54.839	-8191	255	
33907.383	1	1	0	0	0.25941	0.21724	0.079876	0.21846	0.070255	0.20883	0.080545	0.080131	0.10059	0.15638	0.064118	0.20154	0.27209	0.11188	0.13772	0.27084	-1.2708	-1.7437	-1.875	-1.4729	-1.8854	-1.8563	-1.6583	-2.0729	-1.6063	-1.65	-2.0812	-1.6896	-1.8833	-1.9188	-1.4604	-1.9688	265.343	338.218	215.760	371.585	233.223	293.355	150.721	362.384	119.063	138.635	41.754	379.543	70.390	149.186	278.027	280.520	0.00043639	0.00023569	9.7483e-05	424.01	2.5597e-06	5.4197e-06	519.09	167.14	3.8789e-06	3.2303e-06	234.76	98.582	67.589	27.488	4.2717e-06	47.764	0.00077644	0.0010701	0.00032501	441.17	1.0289e-05	1.3611e-05	539.61	174.18	1.1374e-05	1.2181e-05	245.86	103.68	71.771	29.176	1.156e-05	50.481	128.156	107.132	126.876	44.262	156.251	205.617	43.722	49.028	154.246	164.776	47.277	51.244	52.989	57.506	156.169	54.607	-8191	255	
33907.480	1	1	0	0	0.057991	0.2185	0.26143	0.25101	0.017101	0.12696	0.2162	0.34683	0.32575	0.20242	0.15938	0.209	0.16916	0.27453	0.13728	0.27294	-1.3167	-1.7583	-1.9604	-1.5521	-1.8396	-2.1271	-1.6333	-2	-1.7771	-1.7354	-2.1437	-1.5646	-1.9417	-2.1604	-1.4521	-2	105.314	316.051	72.235	169.674	350.567	386.644	377.774	364.142	162.182	64.704	99.498	362.267	313.983	82.064	231.350	273.193	0.00041148	0.0002341	6.5927e-05	422.01	2.0606e-06	4.2046e-06	521.58	166.27	3.4673e-06	4.2943e-06	234.66	98.664	67.71	27.559	4.3594e-06	48.116	0.0007885	0.0010693	0.00032629	440.4	1.0433e-05	1.326e-05	540.17	174.04	1.1382e-05	1.2229e-05	246.51	103.78	71.388	29.188	1.1891e-05	50.939	125.525	146.406	109.895	44.559	192.292	173.980	43.479	49.468	208.354	158.532	47.740	51.232	53.300	57.363	174.156	54.850	-8191	255	
33907.602	1	1	0	0	0.29308	0.24193	0.261	0.15836	0.19102	0.13071	0.1834	0.12833	0.27468	0.19815	0.13069	0.23415	0.33648	0.07426	0.086659	0.14367	-1.3396	-1.4479	-2.0542	-1.8354	-1.775	-2.1521	-1.8083	-1.9167	-1.7958	-1.5771	-2.1188	-1.7375	-1.775	-2.0083	-1.4583	-2.0271	135.044	55.195	364.951	305.437	343.492	68.820	150.913	296.088	329.529	314.579	208.618	161.616	198.988	317.744	292.054	59.597	0.00042941	0.00029135	0.00014437	415.94	4.4869e-06	2.8246e-06	515.64	166.31	2.7809e-06	3.5429e-06	237.89	99.977	67.776	27.59	2.6851e-06	48.791	0.00081576	0.0011384	0.00032367	432.39	1.0481e-05	1.3435e-05	535.43	173.33	1.1446e-05	1.2584e-05	247.75	104.78	71.521	29.237	1.2034e-05	51.4	128.944	94.421	120.344	44.566	180.482	201.824	43.589	49.414	182.367	150.741	47.237	51.307	53.160	57.430	186.481	54.977	-8191	255	
33907.695	1	1	0	0	0.13856	0.18728	0.09705	0.10893	0.12947	0.056893	0.077546	0.23459	0.037087	0.12554	0.25672	0.15036	0.15898	0.33731	0.13312	0.031161	-1.3396	-1.55	-1.9167	-1.8937	-1.75	-1.9896	-1.6479	-2.1083	-1.9	-1.6833	-2.0687	-1.7625	-1.7167	-2.0958	-1.4958	-2.0396	281.013	300.475	102.849	335.418	212.496	199.959	324.522	34.258	132.069	317.169	43.083	270.334	57.666	56.336	375.970	95.967	0.00044435	0.00055849	0.00012091	411.15	3.9261e-06	1.2502e-06	512.78	165.27	3.2158e-06	3.4926e-06	233.37	99.002	67.835	27.386	2.6829e-06	48.146	0.00080647	0.0011428	0.00030191	428.33	1.072e-05	1.3742e-05	531.27	172.54	1.1778e-05	1.2396e-05	245.17	103.81	71.437	29.037	1.2036e-05	50.69	124.354	136.637	116.361	44.576	157.572	208.956	43.655	49.056	169.741	195.087	46.812	51.033	53.021	57.390	193.117	54.973	-8191	255	
33907.793	1	1	0	0	0.058229	0.060024	0.34951	0.077003	0.15666	0.2669	0.28751	0.25035	0.31558	0.19181	0.37183	0.1474	0.23644	0.18351	0.32048	0.35414	-1.5583	-1.6396	-2.1792	-1.8167	-1.7833	-2.2354	-1.6063	-1.7979	-1.9917	-1.625	-1.9958	-1.9	-1.4562	-1.9979	-1.8271	-1.8646	292.772	371.561	303.251	50.799	213.752	90.461	228.788	228.510	181.747	327.686	331.688	384.609	36.962	356.195	235.486	383.031	0.00042997	0.00017281	0.000147	408.4	4.384e-06	2.3973e-06	510.57	164.91	3.1111e-06	3.5956e-06	233.45	99.235	67.783	27.464	1.8543e-06	48.201	0.00082268	0.0011554	0.0003067	427.74	1.083e-05	1.2836e-05	529	171.99	1.1414e-05	1.2729e-05	245.33	104.27	71.381	29.219	1.2211e-05	50.978	130.159	138.508	139.645	44.275	188.116	168.157	43.293	49.327	178.139	164.683	47.329	51.194	53.210	57.403	177.216	54.921	-8191	255	
33907.891	1	1	0	0	0.068748	0.18623	0.16604	0.27886	0.25115	0.050171	0.043883	0.32866	0.045375	0.19139	0.19933	0.15492	0.1142	0.10846	0.18398	0.028073	-1.6313	-1.5333	-1.7563	-1.8625	-1.3979	-1.8271	-1.7812	-1.8813	-2.0625	-1.5104	-2.1021	-1.8521	-1.4896	-1.9875	-1.6479	-1.5792	256.359	272.737	348.652	152.371	179.889	195.893	48.313	339.837	297.566	47.314	160.505	302.693	242.293	387.910	97.756	319.652	0.00043202	0.00019592	0.00017921	412.02	5.0983e-06	2.7295e-06	513.38	164.83	3.6687e-06	4.0251e-06	237.52	100.38	67.605	27.535	3.9563e-06	49.214	0.00081233	0.0011465	0.00030146	429.11	1.0726e-05	1.2876e-05	533.42	172.92	1.1418e-05	1.2678e-05	246.64	104.97	71.851	29.283	1.2605e-05	51.589	128.753	81.008	138.902	44.701	187.706	141.562	43.608	48.856	203.499	205.540	46.859	51.275	53.190	57.452	153.909	54.492	-8191	255	
#DATA ENDS
