BOXY.EXE: ISS Imagent and Oximeter Data Acquisition Program Version 0.80
Ascii Record File

#ACQ INFORMATION
2  Detector Channels 
16  External MUX Channels 
1  Auxiliary Channels 
5000  Waveform (CCF) Frequency (Hz)
1  Waveforms Skipped 
30  Waveforms Averaged 
1  Cycles Averaged 
16  Acquisitions per Waveform 
10.0806  Updata Rate (Hz) 

#FILE INFORMATION
TRUE -- External MUX Channel results are PARSED.
FALSE -- AC DC and Phase are NOT grouped.
TRUE -- Companion Program Settings File CREATED.
FALSE -- AC data not excluded
FALSE -- DC data not excluded
FALSE -- Phase data not excluded
FALSE -- Auxillary Chn. data not excluded
Tab delimiters

#CALIBRATION STATE
TRUE -- Waveform Calibration Values APPLIED.


#AUX CALIBRATION VALUES
Val Type	aux-1	

Term	1.0000e+00	
Factor	0.0000e+00	


#WF CALIBRATION VALUES
A = Detector Channel
Val Type	A-AC1	A-AC2	A-AC3	A-AC4	A-AC5	A-AC6	A-AC7	A-AC8	A-AC9	A-AC10	A-AC11	A-AC12	A-AC13	A-AC14	A-AC15	A-AC16	A-DC1	A-DC2	A-DC3	A-DC4	A-DC5	A-DC6	A-DC7	A-DC8	A-DC9	A-DC10	A-DC11	A-DC12	A-DC13	A-DC14	A-DC15	A-DC16	A-Ph1	A-Ph2	A-Ph3	A-Ph4	A-Ph5	A-Ph6	A-Ph7	A-Ph8	A-Ph9	A-Ph10	A-Ph11	A-Ph12	A-Ph13	A-Ph14	A-Ph15	A-Ph16	

Term	0.00000e+00	0.00000e+00	0.00000e+00	0.00000e+00	0.00000e+00	0.00000e+00	0.00000e+00	0.00000e+00	0.00000e+00	0.00000e+00	0.00000e+00	0.00000e+00	0.00000e+00	0.00000e+00	0.00000e+00	0.00000e+00	0.00000e+00	0.00000e+00	0.00000e+00	0.00000e+00	0.00000e+00	0.00000e+00	0.00000e+00	0.00000e+00	0.00000e+00	0.00000e+00	0.00000e+00	0.00000e+00	0.00000e+00	0.00000e+00	0.00000e+00	0.00000e+00	0.00000e+00	0.00000e+00	0.00000e+00	0.00000e+00	0.00000e+00	0.00000e+00	0.00000e+00	0.00000e+00	0.00000e+00	0.00000e+00	0.00000e+00	0.00000e+00	0.00000e+00	0.00000e+00	0.00000e+00	0.00000e+00	
Factor	1.00000e+00	1.00000e+00	1.00000e+00	1.00000e+00	1.00000e+00	1.00000e+00	1.00000e+00	1.00000e+00	1.00000e+00	1.00000e+00	1.00000e+00	1.00000e+00	1.00000e+00	1.00000e+00	1.00000e+00	1.00000e+00	1.00000e+00	1.00000e+00	1.00000e+00	1.00000e+00	1.00000e+00	1.00000e+00	1.00000e+00	1.00000e+00	1.00000e+00	1.00000e+00	1.00000e+00	1.00000e+00	1.00000e+00	1.00000e+00	1.00000e+00	1.00000e+00	X	X	X	X	X	X	X	X	X	X	X	X	X	X	X	X	

B = Detector Channel
Val Type	B-AC1	B-AC2	B-AC3	B-AC4	B-AC5	B-AC6	B-AC7	B-AC8	B-AC9	B-AC10	B-AC11	B-AC12	B-AC13	B-AC14	B-AC15	B-AC16	B-DC1	B-DC2	B-DC3	B-DC4	B-DC5	B-DC6	B-DC7	B-DC8	B-DC9	B-DC10	B-DC11	B-DC12	B-DC13	B-DC14	B-DC15	B-DC16	B-Ph1	B-Ph2	B-Ph3	B-Ph4	B-Ph5	B-Ph6	B-Ph7	B-Ph8	B-Ph9	B-Ph10	B-Ph11	B-Ph12	B-Ph13	B-Ph14	B-Ph15	B-Ph16	

Term	0.00000e+00	0.00000e+00	0.00000e+00	0.00000e+00	0.00000e+00	0.00000e+00	0.00000e+00	0.00000e+00	0.00000e+00	0.00000e+00	0.00000e+00	0.00000e+00	0.00000e+00	0.00000e+00	0.00000e+00	0.00000e+00	0.00000e+00	0.00000e+00	0.00000e+00	0.00000e+00	0.00000e+00	0.00000e+00	0.00000e+00	0.00000e+00	0.00000e+00	0.00000e+00	0.00000e+00	0.00000e+00	0.00000e+00	0.00000e+00	0.00000e+00	0.00000e+00	-8.92709e+01	-1.28825e+02	-1.24038e+02	-1.83962e+02	-5.99715e+01	-6.47401e+01	-1.57159e+02	-1.62015e+02	-5.48480e+01	-7.10995e+01	-1.70729e+02	-1.70839e+02	-1.80289e+02	-1.77652e+02	-5.59847e+01	-1.50740e+02	
Factor	1.90359e-05	1.64344e-04	4.45320e-05	1.64583e-01	1.33975e-06	1.74344e-06	1.90588e-01	5.69177e-02	1.10681e-06	1.67741e-06	9.57273e-02	3.69650e-02	2.87415e-02	1.05468e-02	1.51595e-06	1.54879e-02	3.70208e-06	4.20420e-06	1.17489e-06	8.23578e-02	4.54401e-08	4.62410e-08	8.95767e-02	2.86398e-02	4.53497e-08	4.63083e-08	4.63350e-02	1.80061e-02	1.45506e-02	5.30554e-03	4.58462e-08	7.52433e-03	X	X	X	X	X	X	X	X	X	X	X	X	X	X	X	X	



#DISTANCE SETTINGS
A = Detector Channel
A-1	A-2	A-3	A-4	A-5	A-6	A-7	A-8	A-9	A-10	A-11	A-12	A-13	A-14	A-15	A-16	

2.5000e+00	3.0000e+00	2.5000e+00	3.0000e+00	2.0000e+00	3.0000e+00	1.5000e+00	3.0000e+00	3.0000e+00	3.0000e+00	3.0000e+00	3.0000e+00	3.0000e+00	3.0000e+00	1.5000e+00	3.0000e+00	

B = Detector Channel
B-1	B-2	B-3	B-4	B-5	B-6	B-7	B-8	B-9	B-10	B-11	B-12	B-13	B-14	B-15	B-16	

1.0000e+01	1.0000e+01	1.0000e+01	1.4400e+00	1.0000e+01	1.0000e+01	1.5100e+00	1.9400e+00	1.0000e+01	1.0000e+01	1.9900e+00	2.4900e+00	2.4100e+00	2.9000e+00	1.0000e+01	2.9800e+00	




#DATA BEGINS
time	group	step	mark	flag	A-AC1	A-AC2	A-AC3	A-AC4	A-AC5	A-AC6	A-AC7	A-AC8	A-AC9	A-AC10	A-AC11	A-AC12	A-AC13	A-AC14	A-AC15	A-AC16	A-DC1	A-DC2	A-DC3	A-DC4	A-DC5	A-DC6	A-DC7	A-DC8	A-DC9	A-DC10	A-DC11	A-DC12	A-DC13	A-DC14	A-DC15	A-DC16	A-Ph1	A-Ph2	A-Ph3	A-Ph4	A-Ph5	A-Ph6	A-Ph7	A-Ph8	A-Ph9	A-Ph10	A-Ph11	A-Ph12	A-Ph13	A-Ph14	A-Ph15	A-Ph16	B-AC1	B-AC2	B-AC3	B-AC4	B-AC5	B-AC6	B-AC7	B-AC8	B-AC9	B-AC10	B-AC11	B-AC12	B-AC13	B-AC14	B-AC15	B-AC16	B-DC1	B-DC2	B-DC3	B-DC4	B-DC5	B-DC6	B-DC7	B-DC8	B-DC9	B-DC10	B-DC11	B-DC12	B-DC13	B-DC14	B-DC15	B-DC16	B-Ph1	B-Ph2	B-Ph3	B-Ph4	B-Ph5	B-Ph6	B-Ph7	B-Ph8	B-Ph9	B-Ph10	B-Ph11	B-Ph12	B-Ph13	B-Ph14	B-Ph15	B-Ph16	aux-1	digaux	

1972.122	1	1	0	768	0.084996	0.11441	0.21887	0.093649	0.24865	0.10365	0.1161	0.24398	0.21574	0.16662	0.15	0.19836	0.20089	0.012277	0.13138	0.070036	-2.4896	-2.7875	-3.3354	-2.5938	-2.9958	-3.275	-2.6646	-3.2333	-3.0729	-2.6875	-3.4437	-2.7396	-3.0312	-3.2896	-2.5563	-3.3125	225.578	270.045	329.520	304.551	71.324	368.120	125.948	310.415	74.144	287.645	408.979	326.916	139.253	59.056	399.526	63.966	9.6584e-05	0.00061285	0.00011515	573.92	2.5012e-06	6.9898e-06	572.55	121.4	9.6676e-07	5.5427e-06	146.62	46.351	39.625	14.023	2.6649e-06	17.986	0.00084758	0.00097096	0.00026561	551.55	1.0575e-05	1.0538e-05	553.75	120.29	1.0449e-05	1.0896e-05	146.46	47.251	40.444	14.606	1.0628e-05	18.46	225.487	138.688	137.905	64.207	246.430	185.487	63.438	71.409	312.504	278.576	68.979	74.715	76.037	83.569	126.320	79.221	-8191	255	
1972.218	1	1	0	0	0.023649	0.080374	0.14803	0.31802	0.08353	0.14122	0.10065	0.27345	0.061433	0.074955	0.20351	0.0617	0.17719	0.15274	0.25331	0.22751	-2.625	-2.6979	-3.4354	-2.8583	-3.0208	-3.3563	-2.6167	-3.4292	-3.0563	-2.7042	-3.4521	-2.7042	-2.9417	-3.1479	-2.6354	-3.3438	81.273	178.108	93.084	392.018	232.304	342.662	166.575	351.785	238.354	319.746	130.960	333.281	354.103	311.877	131.833	281.967	0.00010899	0.00066397	6.8159e-05	561.98	2.6973e-06	5.0992e-06	565.1	119.87	3.8085e-06	2.9996e-06	144.47	44.979	38.851	13.95	1.1626e-06	17.465	0.00086949	0.00096894	0.00026901	543.27	1.035e-05	1.0505e-05	545.37	118.92	9.9193e-06	1.0189e-05	143.75	46.306	39.662	14.382	9.6092e-06	18.006	220.652	172.917	195.566	64.057	221.498	397.558	64.059	71.467	209.259	241.431	69.136	74.315	76.828	82.991	209.622	78.719	-8191	255	
1972.314	1	1	0	0	0.31631	0.14039	0.14719	0.1617	0.19531	0.095416	0.18943	0.1579	0.16668	0.097079	0.22512	0.31572	0.13443	0.085938	0.11304	0.039515	-2.7771	-2.6479	-3.2771	-2.9688	-2.7604	-3.4042	-2.5875	-3.1771	-3.3375	-2.6729	-3.3875	-2.7167	-2.4542	-3.2375	-2.7021	-3.0146	348.138	247.557	97.574	402.371	143.962	318.296	366.616	406.952	293.007	69.176	305.751	371.647	392.079	306.211	123.503	62.509	0.00015882	0.00043736	8.6285e-05	548.42	3.0307e-06	2.5156e-06	551.23	118.82	2.4866e-06	5.0002e-06	141.62	45.039	38.763	13.765	3.6099e-06	17.479	0.00077824	0.00087033	0.00024162	529.83	9.3139e-06	9.3589e-06	530.32	116.63	9.1436e-06	9.3894e-06	140.6	45.699	39.284	14.172	9.0337e-06	17.861	198.684	59.684	342.910	64.077	149.846	289.354	63.877	71.132	271.133	272.452	68.976	74.122	76.568	82.843	218.333	79.293	-8191	255	
1972.410	1	1	0	0	0.16069	0.1361	0.12532	0.2509	0.174	0.1194	0.028147	0.29402	0.2289	0.137	0.090706	0.12034	0.35987	0.2853	0.041458	0.22017	-2.7458	-2.4437	-3.2646	-3.0708	-2.6271	-3.4354	-2.6667	-3.1104	-3.3646	-2.6958	-3.2104	-2.9667	-2.5	-3.3708	-2.8979	-2.8146	204.090	407.659	287.544	54.483	175.470	79.483	325.178	251.683	61.396	332.938	242.778	380.839	404.691	130.377	222.525	393.247	0.00018348	0.00040516	9.5534e-05	536.27	4.207e-06	4.0561e-06	540.79	117.83	2.2684e-06	3.0062e-06	140.22	44.824	38.673	13.807	2.4259e-06	17.386	0.00074306	0.00082985	0.00022942	517.17	9.0889e-06	9.0413e-06	522.55	115.68	8.817e-06	9.1821e-06	140.08	45.426	38.959	14.138	8.9912e-06	17.816	188.679	79.859	310.055	64.000	314.274	90.337	63.734	70.734	308.594	261.248	68.544	74.293	76.351	83.041	127.005	79.191	-8191	255	
1972.506	1	1	0	0	0.02228	0.11327	0.19912	0.3202	0.10713	0.14286	0.084763	0.10425	0.06328	0.085392	0.15023	0.19238	0.13987	0.070864	0.28562	0.1413	-2.9021	-2.5917	-3.1604	-3.1854	-2.5875	-3.4375	-2.9375	-2.9271	-3.4667	-2.6437	-3.1042	-3.0083	-2.6271	-3.4354	-2.7271	-2.7417	354.362	244.641	95.135	64.383	234.938	208.766	321.590	191.757	336.431	342.039	161.309	136.391	363.697	95.835	209.847	234.341	0.00010023	0.00012636	9.2699e-05	529.47	6.6405e-06	3.6977e-06	538.15	116.34	4.7673e-06	2.7633e-06	141.48	44.781	38.308	13.825	2.9788e-06	17.464	0.00073966	0.0008212	0.00022922	512.76	8.9811e-06	9.0524e-06	517.13	115.01	8.8087e-06	8.9934e-06	139.5	45.435	38.784	14.07	8.8825e-06	17.876	196.494	321.940	200.161	63.737	246.606	409.678	63.652	71.133	269.862	63.864	68.917	73.935	76.921	82.931	313.037	78.524	-8191	255	
1972.602	1	1	0	0	0.26022	0.081444	0.096541	0.097862	0.1509	0.13201	0.15074	0.20449	0.2619	0.17573	0.35262	0.06056	0.13817	0.26128	0.10862	0.1973	-3.0062	-2.6271	-3.1896	-3.3542	-2.7479	-3.2938	-2.9354	-2.8792	-3.3833	-2.6	-3.1208	-3.0917	-2.5708	-3.1958	-2.9813	-2.5521	260.208	288.282	337.237	172.040	363.033	254.554	98.302	303.380	228.880	362.735	55.609	326.345	97.365	69.689	388.379	106.522	0.00015006	0.00047947	0.00020447	532.67	7.1611e-07	4.4355e-06	537.27	116.67	4.0901e-06	1.0728e-06	139.59	45.086	38.338	13.79	9.6019e-07	17.579	0.00072523	0.00081157	0.00022382	511.07	8.8709e-06	8.7724e-06	516.4	115.19	8.8084e-06	8.9377e-06	140.41	45.731	39.047	14.184	9.1192e-06	18.034	189.977	412.952	119.209	64.237	142.680	349.975	63.674	71.652	134.665	109.549	68.647	74.102	76.418	82.848	257.663	79.213	-8191	255	
1972.721	1	1	0	0	0.21643	0.067517	0.017583	0.18078	0.31992	0.36131	0.08936	0.079799	0.1973	0.22564	0.4852	0.25753	0.076819	0.13425	0.11059	0.26856	-2.9792	-2.5833	-2.8875	-3.3708	-2.4833	-3.3396	-2.8542	-2.8396	-3.475	-2.9437	-2.9667	-3.3125	-2.525	-3.325	-3.1188	-2.7438	331.989	148.299	396.119	269.484	311.382	168.182	252.493	218.207	91.627	247.170	265.652	192.654	400.222	399.785	243.967	65.047	0.00015854	1.2709e-05	0.00013818	535.32	3.5068e-06	2.1434e-06	543.5	117.58	1.9249e-06	5.7501e-06	141.48	44.265	38.837	13.835	6.1918e-06	17.201	0.00076466	0.00085764	0.00024064	516.67	9.4765e-06	9.5316e-06	523.82	116.12	9.573e-06	9.7225e-06	141.29	45.766	39.28	14.193	9.7615e-06	17.863	192.747	235.081	281.521	63.722	325.706	267.520	63.720	70.777	217.324	243.548	68.940	74.851	76.409	82.469	295.539	78.399	-8191	255	
1972.818	1	1	0	0	0.13103	0.14291	0.21245	0.1089	0.098875	0.28659	0.07056	0.13653	0.10713	0.13974	0.059871	0.13675	0.28459	0.0058144	0.10018	0.077475	-3.0396	-2.8	-2.8521	-3.4417	-2.6875	-3.2146	-3.3583	-2.7229	-3.2146	-2.8667	-2.7583	-3.5062	-2.7625	-2.9646	-3.1521	-2.6188	215.091	250.774	133.056	393.272	285.618	268.181	178.494	285.206	152.284	203.536	167.826	257.415	149.800	333.321	285.671	99.131	0.00013664	0.00014028	0.00012267	546.51	4.2041e-06	1.0551e-06	547.89	117.4	2.1935e-06	8.5085e-06	142.07	44.854	38.622	14.002	6.288e-06	17.355	0.00079208	0.0008726	0.00024734	523.66	9.6181e-06	9.6832e-06	528.62	116.56	9.5379e-06	9.8197e-06	142.11	45.902	39.497	14.359	1.017e-05	18.023	202.101	157.740	264.982	63.916	270.144	81.358	63.756	71.168	296.645	189.236	68.933	74.952	76.995	83.136	207.105	79.111	-8191	255	
1972.914	1	1	0	0	0.13586	0.12555	0.24042	0.18686	0.21781	0.21607	0.21328	0.12095	0.19191	0.26965	0.12657	0.20789	0.17915	0.20115	0.049052	0.050991	-3.1104	-2.8958	-2.8417	-3.4625	-2.85	-2.9688	-3.2083	-2.7042	-3.3833	-2.9354	-2.7104	-3.5646	-2.6937	-3.1104	-3.3979	-2.7271	348.809	75.857	203.275	130.534	348.506	256.910	204.809	403.246	92.074	367.083	56.587	87.671	87.929	124.488	241.889	196.465	0.00016593	0.00083046	0.00011277	562.86	2.3304e-06	2.3635e-06	566.72	119.54	3.3659e-07	3.8544e-06	143.35	45.07	38.634	13.848	8.9225e-07	17.332	0.00083547	0.00094598	0.0002688	543.24	1.0364e-05	1.0816e-05	546.18	118.76	1.0751e-05	1.0997e-05	144.64	46.712	40.02	14.445	1.1246e-05	18.149	170.059	125.843	258.217	64.496	270.410	249.536	64.027	71.945	214.691	203.461	69.808	75.142	76.322	83.325	75.272	79.554	-8191	255	
1973.010	1	1	0	0	0.15677	0.18379	0.10464	0.32315	0.17337	0.14041	0.16364	0.37615	0.11586	0.025641	0.21922	0.21131	0.21723	0.10815	0.048652	0.26842	-2.8042	-3.0917	-2.7417	-3.4229	-2.7833	-2.9917	-3.3833	-2.5667	-2.9875	-3.0875	-2.5187	-3.4167	-2.7083	-2.8333	-3.2917	-2.5792	122.387	362.832	391.410	386.283	246.545	164.192	57.203	339.127	105.383	395.329	372.838	249.291	325.790	301.662	228.948	396.951	0.00015098	0.0010968	0.00017463	552.84	3.4292e-06	6.0614e-06	552.43	118.69	3.0816e-06	1.3235e-06	142.47	45.268	38.761	13.777	3.0697e-06	17.48	0.00093859	0.0010241	0.00028973	536.96	1.1024e-05	1.1246e-05	538.11	118.71	1.093e-05	1.107e-05	144.71	46.822	39.933	14.441	1.1238e-05	18.268	188.948	145.009	386.108	64.351	165.939	178.368	63.883	71.854	403.073	76.204	68.936	74.443	76.479	83.035	227.109	79.260	-8191	255	
1973.106	1	1	0	0	0.40229	0.16458	0.09172	0.13334	0.23418	0.19638	0.23656	0.23585	0.038923	0.0055952	0.18775	0.16561	0.10801	0.20668	0.176	0.062271	-3.0125	-3.1479	-2.4542	-3.3354	-2.75	-2.8396	-3.4625	-2.6063	-2.9938	-3.1104	-2.4521	-3.1833	-2.9521	-2.8021	-3.3479	-2.7792	366.558	275.161	399.298	350.633	72.418	259.524	329.287	349.075	145.822	364.363	285.580	167.011	131.662	327.180	184.362	269.364	0.00015684	0.00086101	0.00018705	556.49	4.2403e-06	1.1867e-06	558.23	119.47	3.7774e-06	2.5676e-06	142.54	45.531	38.559	13.739	2.9975e-06	17.142	0.00090497	0.0010206	0.00028669	538.77	1.0936e-05	1.1136e-05	541.49	119.13	1.1153e-05	1.109e-05	144.34	46.899	39.974	14.417	1.1095e-05	18.114	194.596	86.602	169.474	63.931	271.068	138.262	63.920	71.847	210.610	301.822	68.848	75.067	76.845	83.326	224.210	80.156	-8191	255	
1973.202	1	1	0	0	0.070379	0.14243	0.11083	0.45276	0.11611	0.16733	0.21375	0.22074	0.22145	0.055217	0.20725	0.15874	0.2819	0.13901	0.12919	0.21512	-2.5354	-3.3	-2.4313	-3.35	-3.0938	-2.7313	-3.4896	-2.8354	-2.9792	-3.2771	-2.6375	-3.1854	-2.9188	-2.6312	-3.3833	-2.8729	261.302	245.010	190.213	54.007	377.058	227.895	338.685	326.981	341.719	251.081	248.055	316.765	89.842	162.617	78.673	309.080	0.00020911	0.00029283	0.00011609	560.98	2.1464e-06	3.6334e-06	563.34	119.42	3.854e-06	4.0844e-06	143.07	45.25	39.032	13.82	8.7612e-06	17.247	0.00090627	0.0010253	0.00028812	543.26	1.1042e-05	1.1398e-05	545.97	119.6	1.143e-05	1.1267e-05	145.23	46.819	40.23	14.389	1.125e-05	18.114	202.150	143.196	208.666	64.705	254.426	233.867	64.177	71.776	185.325	185.202	69.408	75.093	76.696	83.972	263.487	79.153	-8191	255	
1973.323	1	1	0	0	0.17284	0.10879	0.16869	0.23755	0.08867	0.14935	0.23066	0.13805	0.09319	0.17542	0.12498	0.12087	0.23852	0.31696	0.071876	0.077013	-2.5479	-3.2812	-2.5312	-3.1292	-3.2292	-2.7667	-3.3479	-2.6583	-2.8479	-3.4062	-2.5958	-3.0083	-3.2625	-2.6813	-3.4458	-2.8146	54.086	400.178	241.206	290.446	349.275	289.404	312.303	378.428	369.623	288.237	163.578	372.133	288.266	98.148	213.399	343.024	0.00019067	0.00033916	0.00020785	573.84	6.8265e-06	9.9087e-06	573.02	121.9	1.7164e-06	5.4684e-06	144.37	45.44	39.113	13.831	4.4583e-06	17.175	0.00094887	0.0010411	0.00029442	554.38	1.1364e-05	1.1665e-05	555.16	120.98	1.1502e-05	1.1583e-05	145.65	47.155	40.296	14.415	1.1368e-05	18.069	195.160	121.650	236.554	64.370	202.419	186.182	63.678	71.741	305.327	243.668	70.060	74.695	77.018	84.162	251.809	79.671	-8191	255	
1973.419	1	1	0	0	0.13958	0.24597	0.048403	0.18595	0.19982	0.16897	0.23019	0.035194	0.21253	0.10451	0.26082	0.25091	0.20335	0.13477	0.034166	0.16443	-2.4	-3.4875	-2.7854	-3.0271	-3.1542	-2.6646	-3.5021	-2.9125	-2.7583	-3.5229	-2.7896	-3.0583	-3.3125	-2.5125	-3.2979	-3.2625	67.108	303.264	316.064	379.217	342.823	156.118	289.450	88.064	351.850	373.058	84.639	384.524	403.760	128.023	278.026	314.809	0.00015575	0.00053261	3.5999e-05	572.99	5.3739e-06	1.7242e-06	572.74	120.74	2.4099e-06	3.0134e-06	142.93	44.294	39.046	13.641	4.9731e-06	17.057	0.00094083	0.0010405	0.00029141	556.78	1.1162e-05	1.1232e-05	554.03	120.29	1.0816e-05	1.0869e-05	144.42	46.199	39.914	14.198	1.0599e-05	17.867	203.140	82.092	401.312	64.324	248.119	329.929	63.967	71.432	317.937	151.450	69.057	74.239	76.508	83.102	192.491	79.243	-8191	255	
1973.513	1	1	0	0	0.12208	0.13267	0.063884	0.2126	0.37848	0.049963	0.12766	0.022636	0.030081	0.056083	0.2025	0.14047	0.069342	0.18319	0.34376	0.13828	-2.4	-3.4729	-2.7771	-3.0021	-3.3521	-2.5563	-3.4396	-3.0854	-2.6583	-3.5958	-2.8125	-2.8167	-3.3958	-2.5896	-3.1396	-3.1229	229.006	313.717	374.933	235.513	127.686	331.830	319.785	166.301	133.969	178.989	355.691	271.521	308.290	340.926	191.316	388.588	0.0001421	0.0002537	0.0002366	560.9	1.2579e-06	5.6115e-06	557.14	118.34	7.6045e-07	9.8894e-07	142.91	45.274	38.702	13.572	4.6847e-06	17.288	0.00087777	0.00096815	0.00026274	541.44	1.0268e-05	1.0308e-05	541.36	118.22	1.0463e-05	1.0517e-05	143.76	46.426	39.527	14.159	1.0653e-05	17.964	167.204	90.431	94.226	63.888	339.144	278.750	63.744	71.259	200.586	135.453	69.297	74.206	76.771	83.225	117.737	79.636	-8191	255	
1973.609	1	1	0	0	0.1222	0.26344	0.1167	0.25967	0.12217	0.25821	0.25452	0.16977	0.16408	0.25626	0.086055	0.1138	0.22823	0.24474	0.021781	0.12946	-2.3229	-3.4	-2.9042	-2.7208	-3.4542	-2.7167	-3.1583	-3.1646	-2.5021	-3.1167	-2.7104	-2.7562	-3.3625	-2.5938	-3.0479	-3.2771	289.005	143.694	87.822	297.835	92.665	134.449	344.812	301.049	220.464	390.389	125.113	107.010	400.307	411.297	197.274	187.546	0.00017316	0.000194	0.00010092	555.76	4.2067e-06	3.406e-06	555.77	120.02	3.6794e-06	7.9176e-06	142.22	44.698	38.636	13.445	2.9366e-06	17.05	0.00087574	0.00096167	0.00027503	536.75	1.0738e-05	1.0814e-05	537.74	118.78	1.0815e-05	1.0894e-05	144.09	46.322	39.74	14.14	1.1166e-05	17.838	199.382	172.880	141.640	64.580	213.627	380.743	64.138	71.929	161.533	277.865	69.536	74.565	76.951	82.962	394.628	79.494	-8191	255	
1973.683	1	1	0	0	0.091975	0.17213	0.23078	0.048047	0.13995	0.30137	0.032809	0.1232	0.21078	0.041656	0.058656	0.014597	0.16557	0.18363	0.20844	0.031311	-2.1937	-3.3125	-3.05	-2.7396	-3.3187	-2.7438	-2.9813	-3.2604	-2.5	-3.1312	-3.0687	-2.7396	-3.4146	-2.9271	-3.0167	-3.4646	240.201	163.160	159.318	56.150	145.896	121.175	237.818	389.290	116.951	123.375	267.525	85.397	120.419	54.072	384.240	120.782	0.000183	0.00070464	0.00012962	558.95	5.6896e-06	7.78e-06	552.89	119.33	2.2076e-06	7.2409e-06	141.21	44.932	38.314	13.505	6.3515e-06	16.821	0.00092032	0.0010324	0.00028246	540.6	1.1239e-05	1.1516e-05	538.76	119.07	1.1205e-05	1.121e-05	144.05	46.344	39.565	14.083	1.1383e-05	17.747	214.300	77.557	289.855	64.391	173.687	231.897	63.915	71.848	354.951	144.203	69.063	74.754	77.071	83.629	279.375	79.587	-8191	255	
1973.802	1	1	0	0	0.24057	0.14071	0.21864	0.045725	0.123	0.05762	0.16532	0.27719	0.16864	0.042088	0.18102	0.13031	0.26657	0.023924	0.21957	0.18537	-2.1729	-3.1063	-3.125	-2.6063	-3.4313	-2.8771	-3.0083	-3.2375	-2.4792	-3.1604	-3.0938	-2.5792	-3.45	-2.7771	-2.8312	-3.35	215.612	389.881	214.803	215.661	76.382	336.592	356.020	325.383	322.857	134.118	243.299	235.056	360.296	406.285	230.243	161.474	8.4551e-05	0.00063625	0.00022052	560.74	8.4829e-06	4.0258e-06	562.68	118.96	4.3597e-06	4.2476e-06	141.6	44.518	38.099	13.447	5.524e-06	17.014	0.0009352	0.0010418	0.00028992	543.11	1.1144e-05	1.1347e-05	543.18	119.23	1.1059e-05	1.1218e-05	143.88	46.261	39.652	14.082	1.0956e-05	17.758	201.953	184.939	112.288	64.101	258.579	181.579	63.981	71.801	183.023	136.918	69.413	74.543	76.843	82.690	187.887	79.939	-8191	255	
1973.898	1	1	0	0	0.17972	0.31173	0.052621	0.18872	0.3086	0.076237	0.1648	0.099613	0.069093	0.12829	0.076147	0.078073	0.14482	0.16833	0.28759	0.13402	-2.3229	-3.0375	-3.1854	-2.7938	-3.2958	-3.2042	-2.9229	-3.4167	-2.6979	-2.8896	-3.275	-2.4208	-3.125	-3.0229	-2.9188	-3.2896	69.888	215.379	298.877	244.026	248.579	357.904	319.711	410.598	251.286	297.310	247.365	63.691	140.857	218.325	374.948	306.442	0.00014604	0.00057935	0.0002601	563.73	3.4392e-06	1.1711e-06	561.73	119.57	3.5185e-06	4.9792e-06	144.59	44.647	38.379	13.52	5.7322e-06	16.98	0.00090901	0.0010073	0.00028247	544.39	1.0943e-05	1.1157e-05	543.06	119.08	1.1161e-05	1.1403e-05	144.87	46.547	39.738	14.161	1.1338e-05	17.938	226.180	96.998	95.738	64.310	294.922	118.684	64.396	71.715	197.753	242.765	69.645	75.070	76.855	83.567	383.134	79.889	-8191	255	
1973.994	1	1	0	0	0.047822	0.06083	0.19135	0.13639	0.035673	0.23104	0.35722	0.032932	0.12927	0.19371	0.089877	0.10897	0.098845	0.032894	0.19395	0.080563	-2.3104	-2.9646	-3.3729	-2.8042	-3.2583	-3.1083	-2.7271	-3.4708	-2.8417	-2.8229	-3.5604	-2.5542	-3.2208	-2.8354	-2.5896	-3.2625	88.923	227.468	353.309	407.121	110.586	400.550	346.585	372.792	233.669	235.673	94.474	230.770	290.667	155.027	98.139	292.376	7.1456e-05	0.00022965	9.8511e-05	561.5	3.1458e-06	1.4425e-06	557.44	120.03	4.0022e-06	6.3014e-06	144.59	45.177	38.524	13.568	1.7801e-06	17.461	0.00093443	0.0010311	0.00028925	541.94	1.1029e-05	1.1159e-05	542.5	119	1.0901e-05	1.1053e-05	145.04	46.508	39.717	14.108	1.0999e-05	17.965	213.127	142.068	410.781	64.311	189.504	129.961	63.980	71.286	268.719	146.349	69.107	74.359	77.297	82.963	309.335	79.356	-8191	255	
1974.115	1	1	0	0	0.24972	0.23099	0.14291	0.059333	0.24962	0.29261	0.28088	0.051864	0.20616	0.24487	0.20009	0.066116	0.058633	0.040875	0.15339	0.2685	-2.55	-2.9062	-3.3042	-2.725	-3.1354	-3.2833	-2.7333	-3.3625	-2.8125	-2.7188	-3.4604	-2.7208	-3.2792	-3.2625	-2.7188	-3.3563	191.604	83.179	171.250	384.757	344.195	214.023	352.200	300.092	369.234	266.685	302.314	372.894	242.381	56.524	127.971	283.576	9.711e-05	0.00042441	4.5896e-05	558.49	3.135e-06	9.4246e-06	556.86	117.73	2.3324e-06	2.5139e-06	142.04	44.444	38.51	13.583	5.1672e-06	16.958	0.00089673	0.00099581	0.00027289	538.85	1.0613e-05	1.0526e-05	537.91	117.6	1.0348e-05	1.0566e-05	142.04	45.879	39.312	13.98	1.0507e-05	17.632	233.929	108.202	377.522	64.577	277.056	183.267	64.246	71.584	326.008	293.202	69.090	74.695	76.564	83.184	215.573	79.124	-8191	255	
1974.211	1	1	0	0	0.23592	0.061886	0.068143	0.06421	0.086521	0.30212	0.11775	0.22527	0.078989	0.14736	0.1967	0.056923	0.28797	0.17395	0.1015	0.06425	-2.5479	-2.7521	-3.4688	-2.8146	-3.1583	-3.2083	-2.5875	-3.2083	-2.9604	-2.7729	-3.4854	-2.7062	-3.0146	-3.2958	-2.4792	-3.4917	152.319	74.954	334.563	260.404	284.939	359.507	168.140	126.293	232.164	311.056	396.451	151.336	362.418	398.802	410.499	213.697	9.2147e-05	0.00052215	8.9887e-05	561.61	6.2785e-06	1.5002e-06	558.38	119.85	4.1735e-06	3.2675e-06	142.45	44.63	38.42	13.617	1.3679e-06	16.809	0.00085588	0.00095764	0.00026623	539.29	1.0438e-05	1.0486e-05	539.82	118.41	1.0564e-05	1.0818e-05	143.35	46.09	39.578	14.121	1.1128e-05	17.695	192.966	206.506	318.603	64.113	193.907	74.998	63.829	71.736	88.431	163.925	69.444	74.644	76.516	83.031	220.538	78.937	-8191	255	
1974.282	1	1	0	0	0.1938	0.12107	0.14463	0.043183	0.091804	0.37712	0.14553	0.046468	0.1488	0.052577	0.023438	0.1641	0.26153	0.13836	0.08169	0.17124	-2.6479	-2.6937	-3.3625	-2.9021	-2.9021	-3.3479	-2.6854	-3.3604	-3.1437	-2.7062	-3.5625	-2.975	-2.85	-3.1729	-2.6146	-3.2271	291.219	59.057	75.348	298.449	357.573	176.681	319.877	284.767	171.373	344.563	235.705	321.698	347.470	320.250	145.979	158.305	4.7191e-05	0.00081028	6.1793e-05	562.28	2.2319e-06	4.023e-06	561.09	119.45	3.9633e-06	1.199e-06	141.75	44.973	38.239	13.271	1.2308e-05	17.068	0.00092283	0.0010388	0.00028867	545.91	1.1473e-05	1.1469e-05	544.35	119.53	1.1568e-05	1.1806e-05	144.73	46.646	39.875	14.05	1.1805e-05	17.869	175.971	345.341	346.182	64.421	161.784	148.817	63.706	71.293	246.057	126.798	69.439	74.908	76.895	83.575	201.809	79.219	-8191	255	
1974.403	1	1	0	0	0.22202	0.10666	0.10288	0.3197	0.066164	0.3078	0.30047	0.14606	0.33238	0.12883	0.14807	0.084194	0.20468	0.055395	0.17298	0.20831	-3.0083	-2.4688	-3.4646	-2.8958	-2.6562	-3.4604	-2.6063	-3.2062	-3.2313	-2.5042	-3.3833	-3.0958	-2.8187	-3.5417	-2.5333	-2.9562	154.425	412.871	324.607	65.948	309.690	323.714	389.591	274.221	78.900	53.783	105.054	322.890	236.239	106.260	89.082	331.166	5.4886e-05	0.00071108	0.0001378	565.64	1.9967e-06	1.8573e-06	569.99	120.86	3.606e-07	1.9959e-06	144.22	45.036	38.684	13.409	2.7827e-06	16.973	0.00098043	0.0010975	0.00030291	550.58	1.2029e-05	1.191e-05	551.97	121.28	1.1994e-05	1.2317e-05	146.36	46.769	40.137	14.155	1.2183e-05	18.04	175.241	129.488	232.338	64.400	228.310	348.297	64.067	71.312	260.703	285.381	69.270	75.133	76.542	83.488	71.107	79.470	-8191	255	
1974.499	1	1	0	0	0.20377	0.24649	0.212	0.1237	0.16213	0.10614	0.17088	0.10354	0.22835	0.18452	0.21945	0.059784	0.09796	0.1119	0.2289	0.26668	-3.05	-2.8146	-3.075	-2.9083	-2.7542	-3.5438	-2.775	-3.1417	-3.5208	-2.6104	-3.2458	-2.9292	-2.7208	-3.3792	-2.7083	-2.8563	405.529	67.204	142.243	368.299	169.742	184.071	340.819	403.219	142.448	398.688	356.157	394.268	289.754	208.896	387.870	399.715	9.2875e-05	0.00066366	0.00013983	569.04	3.6512e-06	5.7886e-06	566.53	120.72	7.9687e-07	3.0534e-06	144.68	45.162	38.519	13.568	5.5903e-06	16.947	0.0010053	0.0011087	0.0003122	554.23	1.2032e-05	1.2212e-05	552.97	121.29	1.22e-05	1.2398e-05	147.03	46.979	40.17	14.253	1.2311e-05	17.972	198.891	172.806	410.962	64.323	294.951	124.207	63.590	71.463	397.990	282.782	69.085	75.009	76.714	83.371	226.228	79.980	-8191	255	
1974.594	1	1	0	0	0.25268	0.088359	0.1731	0.31124	0.14648	0.16089	0.22629	0.18427	0.14649	0.099554	0.2896	0.16569	0.016903	0.064905	0.12317	0.14068	-3.0812	-2.5687	-3.0104	-3.2604	-2.6271	-3.5167	-3.0375	-2.6979	-3.3354	-2.6729	-3.3271	-3.2938	-2.5312	-3.4333	-2.8937	-2.7438	176.566	214.191	153.049	371.032	388.931	332.103	303.944	172.628	303.639	168.781	333.369	178.620	195.222	168.283	310.330	351.957	9.267e-05	0.00031104	0.00020543	575.92	2.6295e-06	3.496e-06	567.23	121.59	1.4632e-06	2.2174e-06	144.6	44.762	38.504	13.327	2.3127e-06	16.871	0.0010156	0.0011324	0.00031872	556.3	1.2241e-05	1.2271e-05	551.76	121.35	1.2146e-05	1.2351e-05	146.56	46.696	40.144	14.11	1.2521e-05	17.832	195.937	71.339	225.224	64.294	164.480	287.737	63.958	71.531	115.533	259.904	68.734	75.039	76.368	83.555	273.017	79.385	-8191	255	
1974.714	1	1	0	0	0.24315	0.10264	0.29115	0.22063	0.25551	0.06957	0.082344	0.079858	0.17054	0.25914	0.033272	0.18197	0.1943	0.075521	0.17251	0.24167	-3.1729	-2.5458	-3.1813	-3.1958	-2.3833	-3.3333	-3.1562	-2.6562	-3.4229	-2.6771	-3.0542	-3.3958	-2.6208	-3.2438	-2.9458	-2.7604	279.257	201.727	93.607	385.580	321.026	147.634	274.747	221.824	364.708	364.294	186.950	365.261	393.289	157.912	87.057	391.827	0.00012303	0.00025578	7.253e-05	580.73	1.7723e-06	2.293e-06	579.39	121.2	1.1671e-06	7.0931e-06	143.37	44.524	38.399	13.34	6.0338e-06	16.701	0.0010193	0.0011496	0.00032052	564.77	1.2488e-05	1.2447e-05	562.57	121.77	1.2127e-05	1.2408e-05	146.33	46.572	39.968	13.984	1.1668e-05	17.666	204.655	411.681	249.133	64.280	284.034	206.577	63.972	71.910	178.418	267.055	68.928	74.446	76.859	83.316	70.118	78.998	-8191	255	
1974.810	1	1	0	0	0.093727	0.23443	0.21359	0.057619	0.32234	0.17234	0.19577	0.071352	0.048497	0.089346	0.098949	0.21423	0.05766	0.12707	0.033163	0.24692	-3.1583	-2.7	-2.9667	-3.2812	-2.7146	-3.1146	-2.9958	-2.7229	-3.5396	-2.7708	-2.9313	-3.2854	-2.5958	-3.0729	-3.2	-2.7479	115.563	261.752	168.537	111.610	147.349	377.107	287.283	337.958	389.246	76.525	353.312	182.738	228.622	141.917	167.055	398.594	0.00010668	0.0001205	8.1618e-05	572.52	3.5166e-06	1.048e-05	571.03	121.14	3.7014e-06	9.6898e-06	145.44	45.605	38.899	13.585	7.558e-06	17.085	0.00096675	0.0010856	0.00030938	555.07	1.21e-05	1.2479e-05	555.45	121.88	1.2276e-05	1.2797e-05	148.53	47.355	40.792	14.378	1.2667e-05	18.199	185.710	230.046	183.190	64.483	189.936	149.971	64.373	71.991	188.921	189.748	69.292	74.854	76.904	82.786	299.029	79.818	-8191	255	
1974.907	1	1	0	0	0.15295	0.10834	0.096485	0.11113	0.2504	0.18149	0.1935	0.17082	0.15979	0.19369	0.12498	0.16959	0.28465	0.093377	0.26886	0.17076	-3.0604	-2.7875	-2.8458	-3.3375	-2.5938	-3.1167	-3.1958	-2.6521	-3.2208	-2.9146	-2.9479	-3.3438	-2.5479	-3.0438	-3.275	-2.6208	266.168	206.952	119.680	386.707	241.308	381.382	363.541	352.981	311.449	222.456	402.265	289.996	199.879	84.865	376.239	304.253	0.00011802	0.00072465	9.5918e-05	594.57	5.5806e-06	3.4241e-06	592.83	124.31	4.3678e-06	3.9994e-06	148.25	45.986	39.091	13.768	7.2856e-06	17.201	0.0010227	0.0011531	0.00032241	576.14	1.2382e-05	1.2488e-05	573.05	124.21	1.2298e-05	1.2528e-05	150.16	47.863	40.976	14.497	1.2467e-05	18.211	211.609	298.161	203.762	64.263	218.254	201.638	64.448	71.676	209.344	197.877	69.139	74.631	77.101	82.844	269.935	79.759	-8191	255	
1974.978	1	1	0	0	0.061089	0.1728	0.077008	0.26219	0.082056	0.097974	0.14148	0.15325	0.24595	0.11433	0.34806	0.1403	0.26452	0.17552	0.38294	0.081289	-2.9625	-2.8146	-2.6604	-3.4271	-2.6167	-3.0646	-3.2188	-2.525	-3.0687	-3.0354	-2.5729	-3.3583	-2.7542	-2.9188	-3.1917	-2.4958	78.254	84.802	235.481	90.227	147.276	158.065	370.339	376.461	293.483	164.740	55.892	256.442	246.460	266.825	270.497	148.076	0.00015725	0.00074243	9.4398e-05	598.55	7.6374e-06	3.0411e-06	590.3	121.87	8.222e-06	6.7715e-06	145.79	45.171	39.132	13.635	5.8314e-06	16.939	0.0010377	0.0011425	0.00031972	577.49	1.2026e-05	1.2207e-05	572.65	122.52	1.1848e-05	1.1759e-05	147.17	46.934	40.466	14.232	1.1765e-05	17.887	208.317	319.447	165.770	64.632	348.120	193.381	64.156	71.565	253.972	207.426	69.527	75.049	77.089	82.847	142.465	79.282	-8191	255	
1975.099	1	1	0	0	0.2068	0.085473	0.080255	0.23377	0.084646	0.097654	0.19981	0.15201	0.23612	0.26032	0.043966	0.17383	0.14796	0.12429	0.14961	0.16707	-2.8271	-3.1146	-2.7042	-3.3812	-2.8375	-2.9646	-3.4667	-2.8021	-3.1583	-3.1167	-2.7167	-3.4896	-2.9583	-2.7562	-3.4083	-2.6271	155.456	334.194	117.164	53.316	126.958	200.161	152.213	378.980	119.165	101.040	65.207	343.968	111.497	195.832	323.438	360.042	6.0991e-05	0.00023499	0.00015446	610.2	2.4357e-06	7.4382e-06	614.6	125.08	3.2262e-06	6.4675e-06	147.53	45.435	39.548	13.629	3.3837e-06	17.028	0.00097321	0.0011037	0.00031529	591.3	1.2511e-05	1.2786e-05	596.44	125.45	1.2797e-05	1.2989e-05	150.95	48.017	41.467	14.519	1.3113e-05	18.12	137.481	284.945	227.327	64.663	305.920	110.209	63.785	71.262	292.620	186.988	69.608	74.342	77.344	83.062	232.588	80.584	-8191	255	
1975.195	1	1	0	0	0.26161	0.19257	0.18569	0.01747	0.12092	0.11619	0.12889	0.17748	0.22324	0.23264	0.022192	0.16501	0.097918	0.1644	0.16073	0.16567	-2.6979	-3.0917	-2.5271	-3.4313	-2.9333	-2.7062	-3.4938	-2.6917	-2.9188	-3.3563	-2.8063	-3.3667	-3.0542	-2.8563	-3.5208	-2.6771	203.786	171.401	53.832	272.499	185.238	405.653	352.724	399.467	239.813	324.409	257.427	124.565	208.447	214.160	355.929	353.876	0.00015338	0.00039213	0.00023219	621.62	6.1969e-06	6.9181e-06	617.81	124.26	2.4937e-06	9.2177e-06	147.88	45.184	39.361	13.527	2.1786e-06	16.988	0.0010905	0.0012053	0.00034118	603.56	1.3125e-05	1.3368e-05	599.2	125.84	1.3125e-05	1.3182e-05	150.93	47.918	41.399	14.37	1.3319e-05	18.053	212.780	303.739	139.323	64.426	142.414	353.814	64.014	71.445	292.308	95.685	69.375	74.201	77.023	82.818	303.679	79.231	-8191	255	
1975.291	1	1	0	0	0.14975	0.13938	0.11804	0.22554	0.080207	0.21064	0.30038	0.049234	0.061763	0.18537	0.23065	0.37669	0.11808	0.20097	0.1145	0.15308	-2.7083	-3.3	-2.5208	-3.2604	-3.0646	-2.7729	-3.4146	-2.75	-3.0521	-3.3521	-2.7542	-3.1833	-3.1792	-2.4875	-3.6354	-2.8812	408.772	400.847	61.977	384.785	89.978	79.115	378.029	58.384	107.035	330.626	81.162	56.188	325.226	397.272	148.709	386.884	0.00017361	0.00046269	6.3082e-05	611.61	3.292e-06	3.1957e-06	611.17	125.29	6.2832e-06	4.4506e-06	148.75	45.385	39.999	13.612	6.14e-06	17.018	0.0010688	0.0012052	0.00034137	596.1	1.3077e-05	1.3358e-05	591.02	125.37	1.3103e-05	1.3185e-05	150.59	47.955	41.395	14.371	1.3181e-05	18.064	176.397	168.229	169.687	64.457	160.706	142.152	64.125	71.488	184.653	394.380	69.329	74.452	76.869	83.288	295.843	79.445	-8191	255	
1975.387	1	1	0	0	0.27407	0.062529	0.062959	0.22076	0.12806	0.11418	0.17567	0.09115	0.22937	0.14902	0.12048	0.32669	0.18686	0.20114	0.27986	0.12068	-2.4458	-3.2708	-2.6271	-3.375	-3.0417	-2.6542	-3.3917	-2.8771	-2.5875	-3.2521	-2.6562	-3.1729	-3.1562	-2.7208	-3.2833	-2.9208	374.664	79.094	153.497	94.836	287.654	74.985	226.356	362.227	131.536	65.973	117.802	85.362	223.659	269.318	380.163	79.615	8.1281e-05	0.00023043	0.00011523	608.46	9.1002e-06	3.3141e-06	601.86	123.57	2.946e-06	5.5661e-06	147.46	45.24	39.292	13.577	4.5396e-06	17.127	0.0010726	0.0012048	0.00033326	590.49	1.2795e-05	1.32e-05	585.66	124.45	1.306e-05	1.3218e-05	151.05	47.955	41.138	14.413	1.3438e-05	18.187	202.289	404.690	365.656	63.973	226.761	105.941	63.553	72.003	252.228	244.951	69.222	74.414	76.394	82.367	358.393	79.744	-8191	255	
1975.506	1	1	0	0	0.15198	0.17785	0.15194	0.16512	0.21624	0.13423	0.087959	0.092716	0.036639	0.2153	0.35596	0.25785	0.11445	0.18593	0.12882	0.24637	-2.2854	-3.3604	-2.7625	-3.0104	-3.2396	-2.7646	-3.3333	-3.0896	-2.6875	-3.3604	-2.8583	-2.8208	-3.2375	-2.625	-3.2062	-3.075	287.491	70.706	71.335	286.130	115.775	144.993	354.711	321.417	330.103	406.340	87.625	405.091	334.513	152.429	367.065	91.442	0.00014925	0.00087072	1.8311e-05	607.86	2.871e-06	6.4739e-06	602.26	124.08	5.7345e-07	6.3333e-06	145.97	44.97	39.133	13.465	3.4402e-06	16.684	0.0011026	0.0012205	0.00034008	589.8	1.3236e-05	1.3369e-05	583.9	124.53	1.3227e-05	1.3299e-05	149.8	47.453	40.845	14.274	1.3145e-05	17.822	171.942	191.982	223.610	64.537	138.516	249.063	64.331	71.586	218.222	154.635	69.460	74.653	76.461	83.294	256.514	79.682	-8191	255	
1975.580	1	1	0	0	0.1817	0.12726	0.16702	0.19284	0.23904	0.20783	0.15938	0.11671	0.054351	0.17886	0.14696	0.23323	0.23943	0.21684	0.15875	0.18172	-2.3521	-3.4604	-2.7896	-2.9875	-3.3312	-2.5083	-3.0917	-3.1896	-2.6833	-3.5062	-2.8854	-2.7812	-3.4208	-2.6979	-3.2	-3.1375	263.297	197.836	320.881	381.660	267.280	138.787	377.177	361.680	161.918	194.833	286.323	169.887	195.792	321.614	381.266	285.509	0.00013862	0.00044376	4.6958e-05	603.47	4.412e-06	7.833e-06	593.01	123.68	3.7369e-06	3.1151e-07	145.3	44.691	38.75	13.439	4.871e-06	16.624	0.0010865	0.0012289	0.00034269	586.81	1.32e-05	1.3451e-05	580.48	124.39	1.3403e-05	1.3763e-05	149.49	47.529	40.91	14.265	1.3494e-05	17.913	220.501	392.860	156.704	64.423	218.775	200.843	64.111	71.890	182.601	149.978	69.605	74.699	76.833	83.428	164.200	79.971	-8191	255	
1975.676	1	1	0	0	0.11619	0.13374	0.097755	0.24909	0.20647	0.1443	0.11338	0.28121	0.027446	0.18274	0.075603	0.20689	0.068486	0.1377	0.034616	0.20271	-2.4208	-3.3812	-2.8396	-2.8542	-3.2896	-2.9333	-3.2354	-3.3083	-2.6875	-3.3229	-3.1375	-2.625	-3.5062	-2.8708	-3.1396	-3.325	203.183	324.923	350.483	357.288	316.012	342.429	237.307	326.553	81.433	388.051	157.096	85.552	173.376	408.601	364.205	114.080	0.00012038	0.00047485	1.442e-05	601.16	7.7506e-06	6.818e-06	596.17	123.9	3.0524e-06	5.2851e-06	145	44.858	39.066	13.429	4.2028e-06	16.707	0.0011091	0.0012538	0.00034953	584.86	1.3519e-05	1.3766e-05	580.38	124.48	1.3358e-05	1.3669e-05	149.76	47.693	40.998	14.274	1.3599e-05	17.994	176.165	337.694	125.251	64.380	180.639	230.835	63.951	71.707	268.134	375.680	69.821	74.935	76.526	83.308	387.038	79.424	-8191	255	
1975.795	1	1	0	0	0.11119	0.15836	0.13032	0.18117	0.24073	0.098305	0.25974	0.29116	0.22694	0.1159	0.15226	0.28152	0.21467	0.098309	0.19063	0.34256	-2.2812	-3.3812	-3.0167	-2.7562	-3.3375	-2.6417	-2.9479	-3.3958	-2.5187	-3.2625	-3.0875	-2.5875	-3.3896	-2.9292	-2.9333	-3.3542	330.934	103.737	331.980	343.204	359.843	229.909	359.204	388.473	246.693	354.087	347.292	294.012	130.367	66.593	114.111	139.662	0.00015966	0.0011295	3.0663e-05	598.36	2.4492e-07	4.4891e-06	588.83	122.71	3.7894e-06	3.4465e-06	147.22	44.98	39.353	13.389	2.9822e-06	16.979	0.0011124	0.0012481	0.00034134	581.35	1.3249e-05	1.3398e-05	576.52	123.9	1.3128e-05	1.3385e-05	149.76	47.686	40.953	14.28	1.3215e-05	18.17	175.799	192.443	277.589	64.079	181.037	57.307	63.829	71.498	218.097	294.489	69.752	75.368	76.809	82.880	288.419	79.214	-8191	255	
1975.891	1	1	0	0	0.29698	0.21087	0.27562	0.11253	0.025979	0.2378	0.12271	0.29855	0.1384	0.062391	0.25537	0.229	0.25211	0.025053	0.25763	0.1156	-2.1042	-3.175	-3.1396	-2.7479	-3.4625	-2.7208	-2.875	-3.4417	-2.6208	-3.1688	-3.325	-2.7375	-3.4333	-2.9	-2.8146	-3.5646	362.883	129.719	281.563	355.934	70.507	82.797	338.180	373.191	82.825	412.047	277.560	380.701	300.198	322.357	149.401	83.855	0.00019709	0.0001442	6.937e-05	600.44	6.0817e-06	3.1493e-06	598.04	124.21	3.3976e-06	4.8478e-06	146.93	45.582	39.077	13.427	5.048e-06	16.832	0.0011056	0.0012281	0.00034363	584.23	1.3299e-05	1.3516e-05	582.93	124.88	1.3419e-05	1.3644e-05	150.84	47.909	41.122	14.345	1.345e-05	18.131	182.966	77.346	90.626	64.066	213.497	361.752	64.089	71.507	130.910	279.311	69.698	74.786	76.892	83.172	235.925	79.448	-8191	255	
1975.987	1	1	0	0	0.223	0.071147	0.22554	0.30212	0.022243	0.17803	0.29204	0.040365	0.046877	0.24145	0.044137	0.095375	0.1674	0.17096	0.19762	0.082869	-2.3021	-3.0687	-3.2313	-2.7208	-3.5125	-2.9875	-2.6021	-3.4021	-2.6021	-3.175	-3.3646	-2.8	-3.3292	-3.0917	-2.7208	-3.375	354.802	86.747	116.076	334.880	134.847	368.194	339.769	348.544	373.719	128.526	172.526	363.303	188.181	242.589	249.794	104.484	0.00015985	0.00057662	0.00022625	609.43	9.0441e-06	9.7027e-06	603.62	125.6	4.8239e-06	3.1044e-06	146.04	45.445	39.394	13.681	1.211e-06	16.843	0.0011108	0.0012452	0.00035065	591.53	1.3605e-05	1.3932e-05	588.4	126.09	1.3964e-05	1.4261e-05	151.48	48.277	41.605	14.523	1.4244e-05	18.133	200.660	360.936	177.774	64.146	240.794	356.203	64.056	71.508	233.364	157.172	69.183	74.848	76.620	83.399	206.664	79.055	-8191	255	
1976.083	1	1	0	0	0.29758	0.13743	0.13579	0.21669	0.26527	0.09356	0.046569	0.19236	0.1786	0.12294	0.14026	0.21266	0.047295	0.20312	0.038088	0.072262	-2.4771	-2.9417	-3.1958	-2.5625	-3.3021	-2.9708	-2.7854	-3.5229	-2.8812	-2.7917	-3.5146	-2.6542	-3.2458	-3.1896	-2.6708	-3.5396	80.997	95.818	393.952	300.971	366.763	238.503	378.960	396.425	224.328	186.604	390.089	121.591	267.447	412.929	107.711	367.778	0.000175	0.00097181	3.6651e-05	613.18	4.6508e-06	2.9981e-06	598.78	124.62	3.5352e-06	1.1301e-05	148.2	45.132	39.118	13.503	6.139e-06	16.694	0.0011674	0.0012995	0.00035881	597.14	1.3893e-05	1.3945e-05	587.86	125.5	1.3676e-05	1.3942e-05	150.7	47.875	41.245	14.369	1.3786e-05	18.05	208.283	277.826	401.121	64.606	238.554	233.356	63.716	71.305	233.255	302.581	69.308	75.128	76.803	83.517	88.964	79.758	-8191	255	
1976.179	1	1	0	0	0.17613	0.1683	0.14055	0.05037	0.12043	0.14684	0.17326	0.34111	0.12238	0.13629	0.18869	0.12794	0.063528	0.13426	0.14491	0.24058	-2.3375	-2.7833	-3.3375	-2.6458	-3.0833	-3.1021	-2.8146	-3.4479	-2.725	-2.7542	-3.3521	-2.5812	-2.9896	-3.2938	-2.6146	-3.4042	181.833	261.622	98.349	303.531	217.551	56.682	337.099	198.785	252.673	263.123	241.004	72.912	409.184	368.433	307.305	258.010	0.00012635	0.0005126	9.2776e-06	614.83	1.5989e-06	2.9135e-06	608.48	124.87	3.0896e-06	7.5446e-06	147.18	45.426	38.83	13.529	3.3222e-06	16.96	0.0011351	0.0012598	0.00035052	597.83	1.3631e-05	1.3725e-05	593.88	125.4	1.3381e-05	1.3577e-05	151.09	47.937	41.138	14.357	1.3349e-05	18.054	177.556	128.260	261.711	64.350	139.527	315.130	63.819	71.224	151.357	138.091	69.558	74.586	76.496	82.844	233.816	79.762	-8191	255	
1976.275	1	1	0	0	0.045164	0.20168	0.034908	0.13642	0.22316	0.27562	0.17923	0.244	0.11465	0.23136	0.11831	0.064516	0.24239	0.09089	0.15226	0.1781	-2.5979	-2.6771	-3.4729	-2.8229	-3.0583	-3.425	-2.4583	-3.5021	-3.075	-2.6562	-3.5542	-2.6437	-3.0062	-3.3083	-2.6042	-3.1167	69.664	361.274	261.902	57.303	361.902	407.623	374.878	283.587	233.500	378.528	149.088	218.534	308.849	322.602	229.641	83.351	6.3556e-05	0.00045618	0.00015229	607.73	3.2579e-06	4.3307e-06	604.01	124.23	3.7551e-06	2.6576e-06	146.54	45.837	39.477	13.559	3.8889e-06	16.922	0.0010932	0.0012332	0.00034275	592.75	1.3448e-05	1.3405e-05	586.09	125.23	1.3345e-05	1.3471e-05	150.71	48.019	41.216	14.431	1.3789e-05	18.15	173.309	83.441	212.233	64.311	265.154	231.967	63.806	71.680	384.651	392.530	69.178	74.880	76.721	83.346	54.699	79.668	-8191	255	
1976.396	1	1	0	0	0.32477	0.098051	0.051985	0.080151	0.25573	0.12464	0.072064	0.08636	0.031394	0.15958	0.086869	0.028791	0.14364	0.18012	0.21991	0.092115	-2.775	-2.5854	-3.3896	-2.8979	-2.6875	-3.3563	-2.6646	-3.1583	-3.2208	-2.8083	-3.4229	-2.8875	-2.8729	-3.3063	-2.6396	-3.0062	211.794	203.268	154.005	64.658	141.791	185.396	86.446	205.354	276.651	335.521	145.251	266.394	110.756	145.404	276.616	186.388	1.598e-05	0.00019947	0.0001415	614.95	5.3319e-06	6.4668e-06	607.33	125.6	4.8565e-06	6.0056e-06	149.04	45.668	39.665	13.483	3.0966e-06	16.791	0.0011247	0.0012891	0.0003605	598.58	1.4279e-05	1.4606e-05	594.78	127.26	1.4679e-05	1.522e-05	154.11	48.818	42.155	14.611	1.6036e-05	18.533	132.800	93.933	258.512	64.267	261.047	264.942	63.437	71.655	283.140	322.834	69.074	74.662	77.559	82.876	408.668	79.955	-8191	255	
1976.492	1	1	0	0	0.11809	0.23938	0.076026	0.30558	0.10984	0.027504	0.21187	0.11607	0.22024	0.12045	0.10836	0.24446	0.31372	0.18501	0.14479	0.20341	-2.8333	-2.6875	-3.4458	-2.9021	-2.6813	-3.4083	-2.6354	-3.0271	-3.1813	-2.5812	-3.35	-2.9021	-2.5667	-3.4583	-2.6458	-2.85	273.555	187.698	384.751	122.038	267.517	112.841	111.685	239.461	255.309	185.062	198.440	215.179	283.313	277.266	243.685	189.151	0.00012763	0.001056	0.00010625	629.85	5.1098e-06	5.6209e-06	631.97	130.18	1.1497e-06	8.9355e-06	153.35	46.556	40.264	13.744	7.9664e-06	16.905	0.0013421	0.0015506	0.00043813	618.68	1.7574e-05	1.7942e-05	620.16	133.95	1.8436e-05	1.8706e-05	161.97	50.904	44.041	15.144	1.8423e-05	18.914	182.736	233.472	95.492	64.546	298.040	94.508	64.298	71.948	355.351	205.657	69.747	75.132	77.050	83.777	380.285	80.110	-8191	255	
1976.587	1	1	0	0	0.3808	0.2229	0.18705	0.1022	0.061824	0.1456	0.11703	0.092857	0.2017	0.080053	0.1305	0.196	0.054885	0.16897	0.11242	0.20602	-2.8167	-2.5417	-3.2896	-3.0646	-2.6292	-3.2833	-2.8563	-2.6292	-3.1979	-2.4604	-3.0396	-2.9813	-2.6604	-3.2146	-2.8333	-2.9042	269.512	225.083	193.874	366.654	238.553	135.252	344.116	268.239	162.676	275.357	146.682	230.798	64.255	288.887	362.379	177.757	0.00021911	0.00026787	1.2027e-05	651.74	5.4557e-06	1.5241e-05	636.51	131.05	1.7606e-06	1.2097e-05	155.34	46.582	40.808	13.729	3.9109e-06	16.989	0.001533	0.0017366	0.0004803	640.86	1.8955e-05	1.9176e-05	630.44	135.41	1.8459e-05	1.8702e-05	162.73	51.068	44.15	15.06	1.7666e-05	18.82	181.514	275.018	79.077	63.975	237.832	106.288	63.814	71.551	388.378	222.940	69.751	75.003	76.450	83.696	62.453	79.577	-8191	255	
1976.683	1	1	0	0	0.20937	0.15685	0.24969	0.23517	0.083363	0.15857	0.25185	0.14368	0.12117	0.19676	0.051979	0.045655	0.22657	0.26893	0.18031	0.14366	-3.1375	-2.5646	-3.0417	-3.3333	-2.6312	-3.4437	-3.1042	-2.8021	-3.4667	-2.75	-3.175	-3.2521	-2.5583	-3.4083	-2.8771	-2.875	170.192	400.245	352.868	403.841	156.784	205.705	383.848	328.061	193.826	146.269	350.197	254.427	61.246	178.424	287.964	292.200	0.00019091	0.00067604	0.00030517	644.33	1.0927e-06	2.9162e-06	631.47	128.21	2.7499e-06	6.3352e-06	151.68	45.711	40.455	13.487	7.6185e-06	16.921	0.001414	0.001525	0.00042834	629.78	1.5999e-05	1.5972e-05	616.6	130	1.5043e-05	1.5203e-05	155.31	48.816	42.369	14.575	1.4296e-05	18.175	212.914	192.674	94.278	64.114	162.620	339.817	64.145	72.067	192.965	134.112	69.767	75.002	76.994	83.474	206.097	79.586	-8191	255	
1976.803	1	1	0	0	0.10124	0.15139	0.026204	0.2271	0.16469	0.055554	0.20973	0.21162	0.28153	0.095935	0.1349	0.25044	0.23758	0.019106	0.16895	0.24872	-3.0271	-2.6562	-2.8604	-3.2479	-2.6292	-3.3	-3.1271	-2.7313	-3.3854	-2.8167	-3.0146	-3.1979	-2.5208	-3.3979	-3.0604	-2.5354	291.921	207.679	122.846	368.716	172.506	278.925	366.264	382.895	207.317	231.675	293.108	105.975	186.124	95.367	115.205	101.042	0.00018926	0.00029149	5.7854e-05	622.86	2.167e-06	2.5086e-06	610.01	124.24	3.5013e-06	1.902e-06	148.51	45.579	39.492	13.375	3.8511e-06	16.927	0.001164	0.0012996	0.0003588	605.76	1.3794e-05	1.4124e-05	593.93	125.94	1.3659e-05	1.4114e-05	152.31	48.176	41.363	14.405	1.396e-05	18.154	186.579	66.941	241.195	64.286	330.883	161.028	64.108	71.551	350.825	260.391	69.046	75.094	76.458	83.066	215.367	79.643	-8191	255	
1976.875	1	1	0	0	0.16049	0.1341	0.1131	0.2476	0.1398	0.15408	0.11661	0.046626	0.056227	0.11152	0.094518	0.29066	0.39904	0.079811	0.34013	0.091077	-2.9021	-2.8729	-2.8646	-3.2833	-2.575	-3.175	-3.2583	-2.4958	-3.3667	-2.6188	-2.8854	-3.2458	-2.6104	-2.8937	-3.1688	-2.6917	279.913	280.164	242.831	296.031	120.345	169.076	96.705	385.780	182.846	332.145	71.939	250.205	96.189	344.550	90.035	182.193	0.00025565	0.00024066	0.00012456	612.72	4.0564e-06	6.3437e-06	602.92	124.87	2.9826e-06	5.8999e-06	147.72	45.287	39.218	13.636	4.3973e-06	16.841	0.0011543	0.0012708	0.00035752	596.57	1.4134e-05	1.4168e-05	587.77	126.31	1.398e-05	1.4297e-05	152.11	48.18	41.556	14.425	1.4388e-05	18.091	203.598	197.169	354.405	64.673	101.680	121.245	64.421	72.396	196.095	248.009	69.642	75.569	77.319	84.039	144.189	79.947	-8191	255	
1976.971	1	1	0	0	0.17025	0.11826	0.11633	0.15667	0.17473	0.24649	0.095221	0.24143	0.15695	0.069065	0.095138	0.097329	0.16369	0.12225	0.25542	0.22107	-2.9562	-2.8958	-2.8229	-3.2625	-2.7125	-3.0729	-3.1188	-2.5542	-2.9417	-2.9979	-2.9062	-3.3896	-2.7042	-2.9833	-3.275	-2.6437	309.882	244.108	281.626	109.689	198.769	309.290	266.689	374.651	197.673	157.890	180.356	406.102	351.277	379.493	400.310	62.515	0.00011846	6.2508e-05	0.00012129	616.18	4.1534e-06	1.5281e-06	610.45	125.24	7.4578e-06	1.3733e-06	146.78	45.08	39.315	13.416	1.2383e-05	16.709	0.0011824	0.0013053	0.00036301	602.08	1.3869e-05	1.4093e-05	594.6	126.09	1.382e-05	1.407e-05	151.87	48.109	41.479	14.37	1.43e-05	18.079	204.488	364.497	132.324	64.627	265.468	278.413	64.228	72.251	250.397	314.453	69.560	75.398	77.593	83.570	224.590	80.376	-8191	255	
1977.067	1	1	0	0	0.2588	0.11258	0.14142	0.25262	0.12023	0.035163	0.051619	0.22228	0.078892	0.071671	0.063089	0.3197	0.12858	0.32634	0.27861	0.070962	-2.9583	-2.9708	-2.8	-3.4583	-2.775	-3.0875	-3.3312	-2.5958	-3.3292	-3.0687	-2.65	-3.4396	-2.7958	-2.9146	-3.3021	-2.8063	324.721	325.383	153.011	352.174	127.861	397.253	408.748	92.059	283.382	301.731	358.466	313.011	139.755	329.100	121.053	267.996	0.00022105	0.00064355	0.0001459	625.89	4.9533e-06	6.4556e-06	613	124.78	5.4297e-06	1.4247e-06	146.79	45.334	39.147	13.411	4.0824e-06	16.781	0.0011886	0.0013168	0.00037791	610.15	1.4504e-05	1.4781e-05	600.05	126.96	1.4841e-05	1.4873e-05	153.01	48.505	41.537	14.419	1.491e-05	18.153	180.514	120.013	319.059	64.640	198.730	312.561	64.580	72.366	299.955	408.296	69.182	75.456	77.552	83.472	179.049	79.989	-8191	255	
1977.163	1	1	0	0	0.0092533	0.049393	0.23866	0.10954	0.24541	0.22048	0.089042	0.039763	0.0082653	0.10209	0.28985	0.17778	0.17419	0.20562	0.085713	0.11789	-2.8917	-3.0396	-2.5833	-3.5021	-2.8854	-2.7917	-3.3125	-2.5438	-3.1417	-3.3688	-2.5708	-3.4271	-2.7292	-2.7687	-3.3417	-2.6146	170.161	251.023	129.066	113.790	210.062	98.031	324.863	310.096	239.583	351.997	323.257	282.177	168.880	136.467	357.016	159.308	0.00016764	0.0010534	2.3304e-05	624.98	2.4729e-06	4.8668e-06	614.76	126.38	2.6734e-06	5.0373e-06	149.56	46.156	39.897	13.493	3.2154e-06	16.845	0.0012381	0.0013672	0.00038585	608.9	1.4791e-05	1.5202e-05	602.63	127.84	1.4905e-05	1.5272e-05	154.52	49.059	42.189	14.55	1.5346e-05	18.396	193.516	62.648	214.548	64.527	159.606	260.678	64.449	72.033	113.021	219.871	69.636	75.092	77.499	83.651	270.954	79.927	-8191	255	
1977.284	1	1	0	0	0.083223	0.35608	0.11348	0.19671	0.17173	0.1181	0.046486	0.053299	0.059925	0.304	0.28076	0.085362	0.185	0.098517	0.20174	0.19616	-2.5938	-3.2646	-2.4813	-3.3979	-2.7479	-2.7979	-3.5208	-2.7396	-2.9854	-3.2542	-2.5729	-3.3167	-3.0542	-2.7271	-3.3604	-2.6667	361.397	229.011	108.881	76.971	71.034	350.173	332.063	378.160	267.550	121.837	82.873	174.436	334.488	162.831	298.285	403.238	0.00018313	0.00021525	8.5473e-05	625.09	8.5283e-06	1.7082e-06	614.89	125.67	3.6977e-06	8.0033e-06	148.38	45.554	39.484	13.356	3.2938e-06	16.66	0.0012262	0.0013581	0.0003851	610.71	1.4597e-05	1.512e-05	600.9	127.51	1.4548e-05	1.4879e-05	153.51	48.563	41.695	14.45	1.4844e-05	18.164	215.960	405.181	91.222	64.471	207.839	84.325	64.521	72.117	313.770	164.523	69.920	75.572	77.619	83.858	273.700	80.066	-8191	255	
1977.380	1	1	0	0	0.27895	0.077274	0.056874	0.11193	0.21477	0.080318	0.17834	0.14644	0.10588	0.1237	0.33934	0.13268	0.17473	0.21795	0.24398	0.17473	-2.4729	-3.2521	-2.6417	-3.1604	-3.2188	-2.5333	-3.5	-2.8979	-2.8125	-3.2729	-2.5312	-3.2104	-3.1083	-2.4604	-3.2458	-2.9313	331.203	284.880	142.245	132.801	308.068	124.677	339.746	303.630	198.126	235.048	408.048	382.521	98.973	103.147	176.889	99.398	0.00018948	0.00080566	0.00017563	624.63	3.1562e-06	8.4545e-06	614.33	125.5	6.6926e-06	3.7252e-06	147.46	45.159	39.18	13.289	4.0636e-06	16.629	0.0012122	0.0013516	0.00038369	605.97	1.4649e-05	1.5088e-05	599.73	127.43	1.489e-05	1.5265e-05	153.38	48.395	41.797	14.425	1.5141e-05	18.069	207.119	173.287	242.319	64.769	381.427	188.116	64.500	72.167	223.471	117.418	69.569	75.314	77.359	82.927	159.363	79.580	-8191	255	
1977.476	1	1	0	0	0.10747	0.085812	0.15806	0.083889	0.18053	0.20149	0.24103	0.073999	0.017664	0.12216	0.1224	0.25213	0.39789	0.10078	0.22139	0.065811	-2.4792	-3.4292	-2.4562	-3.1479	-3.0917	-2.7188	-3.2938	-2.9437	-2.7042	-3.3812	-2.7562	-3.0354	-3.2917	-2.5	-3.1813	-2.9708	164.676	290.475	224.582	293.460	381.268	334.340	303.731	275.000	114.404	86.601	300.613	141.993	336.415	117.393	409.446	138.574	0.00011114	0.00044319	0.00022939	628.43	1.8378e-06	4.2647e-06	618.26	125.95	3.7595e-06	4.0764e-06	148.34	45.528	39.124	13.419	8.3334e-06	16.777	0.0012469	0.001372	0.00038694	608.88	1.488e-05	1.5414e-05	602.34	127.72	1.4823e-05	1.5378e-05	153.67	48.502	41.779	14.429	1.5124e-05	18.186	172.380	206.047	276.885	64.694	170.725	298.814	64.645	72.309	243.698	144.101	69.943	75.650	77.501	83.930	233.580	80.072	-8191	255	
1977.573	1	1	0	0	0.22553	0.077249	0.42873	0.20269	0.24356	0.092402	0.12695	0.12766	0.11403	0.17219	0.074483	0.089677	0.16184	0.16652	0.27993	0.13151	-2.4583	-3.3771	-2.7104	-2.9271	-3.2667	-2.6229	-3.1979	-2.9479	-2.9271	-3.4667	-2.9167	-2.7958	-3.2646	-2.4396	-3.2083	-3.075	286.284	205.419	292.268	374.765	231.602	316.426	83.408	352.491	236.339	237.649	349.083	215.907	183.550	244.845	163.910	392.988	7.3219e-05	0.00077158	0.00016348	623.12	6.96e-06	7.4464e-06	614.59	124.95	1.0131e-05	2.7041e-06	147.83	45.244	39.382	13.28	1.6569e-06	16.713	0.0012511	0.0013784	0.00038976	608.02	1.4823e-05	1.5079e-05	599.84	127.18	1.4913e-05	1.5008e-05	152.98	48.364	41.764	14.424	1.5022e-05	18.186	236.055	176.925	219.175	64.523	196.903	302.509	64.001	72.174	171.785	307.779	70.122	75.054	77.508	83.684	341.594	80.108	-8191	255	
1977.667	1	1	0	0	0.058403	0.10706	0.39689	0.17902	0.16136	0.15009	0.17739	0.0044819	0.27261	0.20873	0.060208	0.20022	0.21765	0.19409	0.090857	0.070245	-2.3729	-3.2917	-2.7125	-2.9125	-3.4458	-2.5687	-3.3083	-3.0208	-2.6562	-3.3812	-2.8438	-2.7771	-3.5146	-2.8292	-3.0021	-3.0687	302.278	170.731	280.597	372.094	339.583	180.560	359.896	346.144	314.688	108.440	323.871	369.960	309.391	394.628	242.000	405.713	0.00014195	0.00078063	5.2074e-05	622.04	5.5284e-06	1.453e-06	606.29	125.24	3.2472e-06	1.0495e-05	149.4	45.583	39.534	13.442	4.4539e-06	16.839	0.0012248	0.0013644	0.00037642	605.89	1.4881e-05	1.4692e-05	595.38	126.92	1.4646e-05	1.4792e-05	153.47	48.594	41.819	14.447	1.4405e-05	18.247	144.935	116.585	286.604	64.626	71.307	160.433	64.697	72.207	208.272	396.209	70.049	75.482	76.938	83.533	259.369	79.625	-8191	255	
1977.765	1	1	0	0	0.20209	0.14237	0.19318	0.19564	0.12085	0.32056	0.12506	0.089705	0.12326	0.29202	0.13079	0.15999	0.12731	0.29599	0.022155	0.025275	-2.0021	-3.1729	-2.9583	-2.7729	-3.1708	-2.4688	-3.0208	-3.1417	-2.5104	-3.3792	-2.9167	-2.6688	-3.5083	-2.6833	-3.0146	-3.2292	310.708	228.523	410.067	396.274	227.616	254.561	342.581	198.160	178.110	64.669	333.150	362.637	333.436	71.616	78.726	207.793	0.00017737	0.00084085	3.9431e-05	623.3	7.8264e-06	4.4106e-06	612.68	125.56	4.4868e-06	2.6175e-06	146.87	45.269	39.22	13.404	3.3158e-06	16.734	0.0011948	0.0013169	0.00036503	606.2	1.4315e-05	1.4148e-05	597.07	126.16	1.3827e-05	1.381e-05	150.78	47.965	41.173	14.234	1.3646e-05	17.869	196.894	394.537	321.896	64.733	154.992	297.187	64.219	71.749	129.987	73.622	69.599	73.816	76.372	82.621	59.335	79.022	-8191	255	
1977.884	1	1	0	0	0.048759	0.17934	0.19065	0.13559	0.14328	0.32436	0.054286	0.11236	0.32588	0.16883	0.2365	0.11237	0.16612	0.17838	0.10825	0.026698	-2.2167	-3.2438	-2.9813	-2.5729	-3.2542	-2.8229	-2.9792	-3.4792	-2.7458	-3.0604	-3.0979	-2.7854	-3.3375	-2.875	-2.8333	-3.4125	185.068	213.702	148.921	387.633	257.486	364.083	215.081	363.766	349.803	294.921	144.763	410.448	141.274	94.293	73.782	141.573	3.665e-05	0.00045622	0.00011718	625.69	5.3946e-06	6.3931e-06	616.65	124.51	6.9758e-06	6.1575e-06	145.66	45.211	39.133	13.28	4.5236e-06	16.755	0.0011201	0.0012323	0.00034958	609.08	1.3613e-05	1.3865e-05	600.18	125.52	1.3765e-05	1.3724e-05	150.35	47.585	41.073	14.222	1.3495e-05	17.867	169.324	171.908	342.916	64.079	163.992	145.073	64.425	71.975	203.379	310.504	69.626	74.293	77.101	83.429	213.014	79.893	-8191	255	
1977.980	1	1	0	0	0.061974	0.06613	0.25063	0.33509	0.057784	0.36129	0.16415	0.26526	0.14129	0.035001	0.031002	0.024713	0.13741	0.15296	0.23524	0.18275	-2.2479	-3.2354	-3.2292	-2.6188	-3.3292	-2.9083	-2.8583	-3.3125	-2.5187	-3.1375	-3.3354	-2.7625	-3.3125	-2.9271	-2.7292	-3.3417	176.856	161.121	133.858	358.534	220.860	408.950	324.372	124.060	116.866	79.316	376.769	148.095	356.076	92.287	157.115	72.736	0.00010522	0.0006755	1.931e-05	619.15	2.7335e-06	3.9501e-06	608.01	123.61	2.5112e-06	7.7838e-06	145.65	45.666	39.361	13.438	6.4775e-06	16.731	0.0011052	0.0012299	0.00034101	600.38	1.319e-05	1.3365e-05	593.25	124.77	1.3233e-05	1.3539e-05	150.43	47.678	41.183	14.266	1.3776e-05	18.027	212.783	329.583	369.118	64.202	193.090	119.400	63.581	71.638	71.868	223.668	69.107	74.871	76.554	83.405	117.856	79.969	-8191	255	
1978.076	1	1	0	0	0.06056	0.21954	0.3438	0.40655	0.082962	0.31089	0.33842	0.20684	0.11149	0.29128	0.065079	0.093965	0.13194	0.2117	0.17997	0.17095	-2.2833	-2.8563	-3.2167	-2.7083	-3.3021	-2.9708	-2.7729	-3.4667	-2.6875	-2.9125	-3.3458	-2.5687	-3.3083	-3.2083	-2.5333	-3.4208	233.100	375.857	266.469	360.025	319.266	141.668	88.963	182.265	104.999	294.143	216.049	240.548	408.367	313.667	356.980	282.435	0.00012952	0.00077676	5.705e-05	626.46	4.8658e-06	4.7742e-06	617.36	124.68	4.1237e-06	7.048e-06	147.79	45.633	39.144	13.536	4.6608e-06	16.94	0.0011274	0.0012601	0.00035864	607.98	1.3941e-05	1.4022e-05	600.71	126.23	1.399e-05	1.4397e-05	152.53	48.324	41.482	14.46	1.4282e-05	18.176	230.491	133.626	233.809	64.242	221.832	250.051	63.896	71.425	222.392	89.708	69.907	74.559	77.299	83.222	197.610	79.236	-8191	255	
1978.172	1	1	0	0	0.018508	0.061275	0.21249	0.14119	0.19196	0.28757	0.22659	0.16268	0.1673	0.22483	0.10315	0.12206	0.22702	0.13921	0.18346	0.12131	-2.3583	-3.0021	-3.3833	-2.6521	-3.1937	-3.0438	-2.7854	-3.3	-2.8167	-2.8812	-3.2104	-2.6312	-3.075	-3.2521	-2.5146	-3.3937	323.589	236.241	389.872	258.010	402.958	54.912	298.629	118.368	249.235	205.028	403.502	101.360	68.324	401.065	335.246	151.202	0.00015385	0.00039665	0.00037327	624.41	4.0623e-06	9.8151e-06	608.26	122.75	2.2693e-06	5.6365e-06	147.08	44.357	38.656	13.445	3.3503e-06	16.776	0.0011411	0.0012724	0.00035386	604.86	1.3508e-05	1.3499e-05	593.75	123.93	1.2707e-05	1.2986e-05	149.54	47.171	40.447	14.169	1.2553e-05	17.805	211.588	398.946	145.504	64.206	320.135	91.051	63.944	71.285	125.662	100.517	69.544	74.787	76.300	83.088	203.603	79.342	-8191	255	
1978.268	1	1	0	0	0.1304	0.035113	0.26499	0.28739	0.12407	0.18899	0.18898	0.19593	0.13805	0.39324	0.13522	0.064556	0.060829	0.12967	0.22824	0.16242	-2.4562	-2.7583	-3.4062	-2.7562	-3.025	-3.2917	-2.6646	-3.3229	-3.0062	-2.7021	-3.3708	-2.7708	-3.1604	-3.2979	-2.6208	-3.225	271.678	142.757	322.919	130.025	380.537	125.946	355.137	57.996	248.586	313.031	348.533	55.384	355.717	339.315	78.102	53.622	0.00013994	0.00016081	0.00015362	618.47	5.1237e-06	7.6885e-06	615.29	122.26	3.5332e-06	3.7772e-06	145.78	44.925	39.311	13.554	4.1144e-06	16.944	0.00099042	0.0011151	0.00030508	598.17	1.1896e-05	1.1975e-05	593.22	122.27	1.1858e-05	1.2276e-05	147.76	47.002	40.644	14.26	1.283e-05	17.923	174.889	362.509	136.307	64.433	150.466	230.361	63.800	71.564	308.746	379.449	69.026	75.045	77.019	83.362	176.003	79.051	-8191	255	
1978.365	1	1	0	0	0.4507	0.076412	0.14521	0.27132	0.071954	0.090414	0.044006	0.13324	0.1727	0.079887	0.11111	0.1373	0.28474	0.17076	0.23369	0.17969	-2.5917	-2.6146	-3.3583	-2.8729	-2.9833	-3.2271	-2.4542	-3.2292	-3.0812	-2.6417	-3.4146	-2.5146	-2.6979	-3.3917	-2.6875	-3.0563	53.760	320.009	153.938	300.016	116.587	92.256	67.284	224.368	384.669	204.647	261.405	307.155	225.281	372.628	316.392	114.903	9.2752e-05	0.0007458	0.00020802	647.11	1.6241e-06	3.4578e-06	639.76	126.11	2.109e-06	7.991e-06	148.37	45.996	40	13.558	5.0428e-06	16.921	0.001064	0.0012286	0.00034877	629.01	1.3864e-05	1.4449e-05	623.85	127.42	1.4306e-05	1.4717e-05	153.53	48.834	42.293	14.638	1.5315e-05	18.484	209.167	240.354	237.462	64.272	391.576	236.455	63.578	71.002	317.677	143.400	68.792	74.100	76.370	82.423	326.250	78.523	-8191	255	
1978.485	1	1	0	0	0.24622	0.38819	0.14498	0.15287	0.1238	0.22725	0.21279	0.013581	0.16502	0.037135	0.18376	0.32863	0.19691	0.16705	0.069627	0.032247	-2.8083	-2.6375	-3.3625	-2.9188	-2.8792	-3.3042	-2.5771	-3.1229	-3.2417	-2.6625	-3.3396	-2.8896	-2.7438	-3.3104	-2.6667	-3.0938	100.953	325.765	355.465	401.607	307.903	324.831	341.479	319.283	342.834	96.237	90.959	401.523	310.589	376.203	210.130	292.057	6.5808e-05	0.00069231	0.00032625	666.16	8.9108e-06	5.492e-06	655.99	129.75	1.9706e-06	3.0595e-06	150.74	46.344	40.132	13.571	9.8065e-06	16.98	0.0012833	0.0014704	0.00041238	651.13	1.6277e-05	1.6561e-05	642.72	131.82	1.614e-05	1.6385e-05	157.38	49.653	42.727	14.71	1.5212e-05	18.394	201.098	309.551	209.644	63.998	194.251	332.980	63.666	71.448	147.868	410.895	69.022	74.753	76.502	82.889	207.138	79.108	-8191	255	
1978.580	1	1	0	0	0.21609	0.22272	0.02778	0.034104	0.12542	0.11982	0.13976	0.096319	0.26751	0.27395	0.12881	0.18139	0.13491	0.19597	0.11624	0.055863	-2.8417	-2.4917	-3.2833	-2.8833	-2.8375	-3.4437	-2.7562	-2.925	-3.2625	-2.6479	-3.4542	-3.0917	-2.5938	-3.4042	-2.5667	-3.0125	314.181	145.533	86.705	194.832	318.316	154.864	117.556	282.413	256.931	200.136	304.176	365.700	284.706	94.065	191.772	386.540	0.00018457	0.00068581	0.0001553	642.97	2.6417e-06	7.3572e-06	637.14	126.59	1.705e-06	7.6765e-06	149.66	45.872	39.86	13.624	2.3536e-06	16.898	0.0012342	0.0013612	0.00037508	627.12	1.434e-05	1.4428e-05	616.83	127	1.4178e-05	1.4322e-05	152.77	48.568	41.866	14.604	1.4185e-05	18.347	191.489	140.455	89.862	64.300	352.748	407.369	63.821	71.673	209.723	144.325	69.218	74.970	76.931	83.154	111.034	79.302	-8191	255	
1978.676	1	1	0	0	0.055372	0.23663	0.10285	0.22137	0.29008	0.18354	0.21888	0.065623	0.093676	0.10955	0.17635	0.1145	0.19519	0.13399	0.12589	0.16344	-3.0104	-2.4833	-3.1375	-3.0438	-2.6333	-3.3792	-2.8063	-2.7979	-3.2104	-2.5458	-3.0458	-3.1104	-2.5396	-3.3958	-2.9062	-2.9125	286.044	166.566	316.685	322.250	280.826	351.244	230.348	140.693	192.808	378.410	117.779	378.022	325.604	96.942	296.868	76.120	0.00012314	0.00028079	0.00013934	652.33	5.8255e-06	8.3535e-06	638.67	126.33	4.8221e-06	1.1411e-05	149.11	45.767	39.182	13.576	1.9764e-06	16.79	0.0011725	0.0013078	0.00036175	632.27	1.3843e-05	1.394e-05	621.19	126.74	1.2924e-05	1.3264e-05	151.65	47.831	41.19	14.332	1.2685e-05	17.892	175.247	71.573	222.030	64.455	245.552	368.622	63.624	71.210	195.634	189.685	68.916	74.872	75.872	82.997	219.316	79.140	-8191	255	
1978.747	1	1	0	0	0.21634	0.084948	0.12372	0.30526	0.066646	0.20564	0.12106	0.1064	0.11341	0.11933	0.073508	0.05042	0.21034	0.21104	0.24364	0.088131	-2.9958	-2.7104	-3.1646	-3.1104	-2.6792	-3.4667	-3.0354	-2.7313	-3.225	-2.5854	-3.175	-3.2896	-2.55	-3.3021	-2.8875	-2.6604	135.858	187.619	312.720	66.585	143.469	195.772	302.974	327.672	74.073	186.432	270.442	200.839	114.670	92.245	77.240	332.370	8.9683e-05	0.00033155	0.0001482	639.04	8.6012e-07	2.1732e-06	631.9	123.92	2.7966e-06	3.3539e-06	146	45.177	39.439	13.32	3.3841e-06	16.648	0.0010527	0.0011661	0.00032505	621.56	1.2823e-05	1.2756e-05	614.25	124.81	1.2846e-05	1.2994e-05	149.71	47.258	40.997	14.166	1.2718e-05	17.778	251.328	240.759	166.216	64.313	135.648	212.686	63.577	71.472	128.176	220.614	69.057	74.203	76.655	82.801	256.299	78.928	-8191	255	
1978.868	1	1	0	0	0.056968	0.15729	0.18131	0.25178	0.17031	0.1269	0.036307	0.093973	0.05699	0.19357	0.078117	0.052104	0.1486	0.2347	0.035494	0.14255	-2.9792	-2.7458	-2.9646	-3.2396	-2.7458	-3.1625	-3.1021	-2.6042	-3.4375	-2.5146	-2.9	-3.3958	-2.2667	-2.9958	-3.2042	-2.4646	118.399	63.309	315.662	385.745	226.570	367.311	126.201	306.666	190.848	145.546	377.288	214.397	103.606	237.120	78.880	143.289	0.00013787	0.00047801	0.00015045	640.22	3.1843e-06	6.5131e-07	634.67	123.78	1.7704e-06	4.0836e-06	146.82	44.867	38.991	13.451	7.5832e-06	16.796	0.0010465	0.001174	0.00032779	619.23	1.2687e-05	1.2774e-05	612.44	124.08	1.2599e-05	1.274e-05	149.18	47.065	40.573	14.186	1.2697e-05	17.818	236.758	410.818	194.253	64.258	333.868	258.801	63.937	71.223	292.192	89.249	68.926	74.457	76.685	82.800	142.485	79.061	-8191	255	
1978.964	1	1	0	0	0.21354	0.080473	0.31043	0.044514	0.094741	0.10155	0.30735	0.094071	0.1273	0.12506	0.093078	0.026783	0.12363	0.22697	0.19068	0.12963	-3.0521	-2.7708	-2.8	-3.2271	-2.5667	-3.0563	-2.9521	-2.6854	-3.2292	-2.7562	-2.7604	-3.2146	-2.5771	-3.1271	-3.1125	-2.7188	81.506	200.692	332.610	266.611	157.000	55.048	397.245	312.036	331.259	140.593	55.199	207.182	388.203	201.461	321.844	413.177	0.00013266	0.00073504	0.00012332	636.61	1.878e-06	1.0299e-06	624.89	124.76	2.7524e-06	6.9269e-06	147.7	45.413	39.63	13.665	6.2084e-06	16.669	0.0010433	0.0011697	0.00033293	615.56	1.2823e-05	1.3071e-05	609.11	124.55	1.2969e-05	1.326e-05	150.62	47.842	41.177	14.355	1.3284e-05	17.916	206.863	121.503	388.600	64.221	57.700	241.766	63.762	71.240	175.632	354.842	68.487	74.425	76.731	82.761	236.781	79.104	-8191	255	
1979.060	1	1	0	0	0.22692	0.12046	0.0854	0.0076047	0.2421	0.15553	0.19567	0.032401	0.1364	0.284	0.14307	0.12243	0.11208	0.15998	0.1068	0.10391	-3.0271	-3.1521	-2.9479	-3.5083	-2.7542	-2.9417	-3.1813	-2.5125	-3.2708	-2.9708	-2.7771	-3.4875	-2.6875	-2.9708	-3.4375	-2.525	169.329	118.516	272.860	221.808	401.174	100.772	302.809	412.926	162.769	252.641	130.581	272.948	336.550	378.737	193.256	240.493	0.00010266	0.0003291	0.00024298	650.55	2.5295e-06	8.0766e-06	643.74	126.54	3.932e-06	3.1909e-06	149.43	46.594	40.276	13.644	2.3107e-06	17.019	0.0010996	0.0012188	0.00035265	630.8	1.3523e-05	1.3899e-05	626.45	127.56	1.4048e-05	1.431e-05	153.82	49.049	42.323	14.613	1.4725e-05	18.424	183.680	57.918	96.403	64.141	303.527	257.921	63.747	71.153	390.175	227.168	68.206	74.505	76.129	82.687	78.175	78.992	-8191	255	
1979.156	1	1	0	0	0.17412	0.14866	0.088392	0.13628	0.057934	0.046958	0.25794	0.18724	0.14616	0.10558	0.35521	0.12264	0.083607	0.11977	0.17174	0.15116	-2.8042	-2.9646	-2.4354	-3.3708	-2.7604	-3.025	-3.4375	-2.5333	-3.1396	-2.9813	-2.9271	-3.4333	-2.9354	-2.9292	-3.2958	-2.6125	327.236	357.078	178.543	243.726	294.756	232.981	357.993	129.698	110.419	181.335	98.036	124.733	396.522	119.279	349.906	262.180	6.8366e-05	0.00099515	0.00014557	669.86	5.2196e-06	7.0108e-06	663.07	128.59	3.6453e-06	5.0164e-06	151.87	46.183	40.492	13.688	2.9252e-06	16.997	0.0012223	0.0013919	0.0003941	650.58	1.5385e-05	1.56e-05	647.8	131.16	1.5642e-05	1.5979e-05	157.56	49.758	43.027	14.825	1.5576e-05	18.412	213.284	111.699	138.449	64.249	250.885	149.263	63.698	71.398	139.574	125.310	69.104	74.385	76.971	82.387	272.114	78.444	-8191	255	
1979.277	1	1	0	0	0.11047	0.065631	0.096711	0.21119	0.14894	0.019833	0.11272	0.36549	0.076697	0.17465	0.3078	0.17217	0.21209	0.29426	0.17319	0.235	-2.7792	-3.1521	-2.6875	-3.2104	-2.9313	-2.6729	-3.475	-2.5896	-2.8812	-3.1667	-2.3833	-3.1604	-3.1417	-2.7729	-3.3958	-2.7771	238.307	247.744	203.818	351.895	408.852	141.923	281.732	370.618	141.210	346.223	286.174	188.237	274.345	110.709	139.770	359.032	9.1596e-05	0.00056472	5.6759e-05	672.44	5.0162e-06	6.5481e-06	657.43	128.82	4.0834e-06	2.7768e-06	151.21	46.597	40.412	13.567	4.6476e-07	16.592	0.0012899	0.0014286	0.00040542	654.76	1.5457e-05	1.5774e-05	643	130.43	1.5422e-05	1.5779e-05	156.84	49.565	42.734	14.68	1.5439e-05	18.144	235.778	125.719	109.228	64.146	266.157	168.522	63.692	71.437	388.376	120.475	69.399	74.504	76.317	82.299	353.537	79.565	-8191	255	
1979.349	1	1	0	0	0.10274	0.16465	0.14877	0.19581	0.21955	0.31778	0.28508	0.24752	0.226	0.16665	0.23888	0.3126	0.15887	0.13326	0.14666	0.17619	-2.7479	-3.1271	-2.6125	-3.2583	-3.1021	-2.7604	-3.4667	-2.7542	-2.9375	-3.4396	-2.4979	-3.2438	-3.0354	-2.6729	-3.4271	-2.7854	395.427	379.285	256.937	372.038	170.215	374.701	391.808	411.767	107.927	81.216	111.175	175.796	66.429	411.964	287.508	187.299	0.00018366	0.00027376	4.7968e-05	667.1	4.5641e-06	1.7032e-06	648.42	127.52	4.9262e-06	6.527e-06	150.02	46.216	40.288	13.679	4.9673e-06	16.831	0.0012575	0.0014045	0.00039207	648.7	1.4812e-05	1.5051e-05	635.9	128.95	1.4504e-05	1.4502e-05	154.13	48.852	42.245	14.593	1.4092e-05	18.077	151.909	86.885	224.743	64.147	183.865	359.907	64.082	70.871	202.439	96.490	68.792	74.082	76.314	82.941	266.545	79.263	-8191	255	
1979.445	1	1	0	0	0.22715	0.30762	0.07105	0.43059	0.12439	0.21537	0.28072	0.14108	0.16759	0.16778	0.23586	0.11579	0.24874	0.24979	0.098853	0.14362	-2.4813	-3.3583	-2.6646	-3.3104	-3.0646	-2.6542	-3.3708	-2.6875	-2.8625	-3.4021	-2.5333	-3.0833	-3.1167	-2.5333	-3.2833	-2.9958	200.056	388.537	73.392	295.350	112.342	328.640	387.536	348.902	193.362	64.475	339.538	314.512	117.535	360.532	79.124	196.292	0.00021573	0.0005218	0.00012744	659.87	5.9127e-06	3.0417e-06	645.41	126.27	2.7582e-06	5.988e-06	147.24	45.62	39.922	13.598	5.6326e-06	16.982	0.0011535	0.001297	0.00036055	639.6	1.3815e-05	1.4066e-05	625.24	127.22	1.3521e-05	1.3653e-05	151.61	48.201	41.555	14.409	1.3005e-05	17.977	230.677	343.403	385.261	63.798	355.774	295.124	63.838	71.346	345.408	289.729	68.792	74.463	76.803	82.117	412.796	79.613	-8191	255	
1979.566	1	1	0	0	0.16877	0.22358	0.11804	0.057375	0.22465	0.19514	0.23882	0.10038	0.24189	0.085826	0.067509	0.077575	0.16213	0.25057	0.1181	0.14886	-2.3729	-3.3042	-2.5625	-3.1021	-3.1333	-2.6937	-3.2625	-3.0917	-2.5604	-3.4167	-2.5875	-3.0042	-3.1146	-2.65	-3.3333	-3.1021	358.507	334.984	116.192	402.920	394.060	352.088	336.855	101.595	131.311	253.697	127.529	140.744	60.803	397.116	334.008	225.778	0.00016138	0.00047328	0.00012381	651.21	1.8143e-06	9.1509e-06	645.64	125.88	5.5783e-06	4.6793e-06	148.06	45.71	39.477	13.534	5.6731e-06	16.961	0.0010823	0.00119	0.0003288	629.92	1.2963e-05	1.3117e-05	624.24	126.21	1.2978e-05	1.3271e-05	151.57	48.024	41.614	14.424	1.3221e-05	18.093	190.441	211.001	230.250	64.044	193.717	251.110	63.553	71.323	246.132	171.288	68.857	74.794	76.289	82.626	181.469	79.213	-8191	255	
1979.660	1	1	0	0	0.21585	0.09721	0.074445	0.11464	0.03668	0.23667	0.21215	0.024296	0.22636	0.15518	0.14509	0.087239	0.1278	0.15163	0.095606	0.066847	-2.3146	-3.3667	-2.6771	-2.8229	-3.3625	-2.5521	-3.2792	-2.9938	-2.6375	-3.275	-2.8542	-2.7958	-3.4979	-2.4708	-3.0521	-3.0292	221.129	118.130	280.067	370.709	317.158	109.409	166.547	116.731	273.519	299.278	388.343	314.166	260.419	278.668	411.637	281.648	0.00013373	0.00047694	0.00011202	649.3	3.9868e-06	6.421e-06	646.79	126.36	5.5112e-06	7.5555e-06	149.04	45.795	39.838	13.593	5.6724e-06	16.951	0.0010962	0.001229	0.00034403	632.14	1.349e-05	1.3757e-05	626.85	126.97	1.3662e-05	1.3927e-05	152.78	48.463	41.915	14.532	1.3847e-05	18.144	201.196	123.713	234.199	63.947	131.777	153.615	63.570	71.046	230.962	224.150	68.688	74.760	76.269	82.558	261.837	79.012	-8191	255	
1979.758	1	1	0	0	0.11959	0.065427	0.1161	0.059491	0.31573	0.23852	0.13835	0.11659	0.17854	0.21451	0.27887	0.16775	0.14984	0.15886	0.094961	0.12617	-2.2021	-3.4104	-2.5167	-2.7979	-3.325	-2.6104	-3.1292	-3.1042	-2.5354	-3.2646	-2.9833	-2.8958	-3.3396	-2.6	-3.0854	-3.1813	223.276	70.109	101.954	239.210	347.863	201.544	355.019	114.320	148.380	392.585	75.930	235.624	155.080	230.824	58.224	80.862	0.0001487	0.00049445	0.00025786	657.25	2.9498e-06	2.8055e-06	648.73	126.95	3.5643e-06	6.8306e-06	148.03	45.63	39.672	13.656	2.1539e-06	16.622	0.0011517	0.0012785	0.00036354	640.06	1.4213e-05	1.4194e-05	630.08	127.8	1.4382e-05	1.4347e-05	152.13	48.327	41.624	14.442	1.394e-05	17.94	212.500	153.894	160.469	64.065	72.931	340.395	63.582	70.981	299.893	230.911	68.890	74.229	76.616	82.533	129.151	79.215	-8191	255	
1979.877	1	1	0	0	0.10645	0.087237	0.15327	0.27822	0.042584	0.20119	0.25843	0.18857	0.068126	0.075502	0.21454	0.098488	0.1256	0.40137	0.16945	0.24807	-2.1312	-3.3312	-2.8604	-2.8125	-3.2958	-2.6833	-2.8833	-3.3	-2.6063	-3.2125	-3.0312	-2.6333	-3.325	-2.5292	-2.95	-3.3333	346.030	402.747	233.430	302.137	154.215	88.120	345.463	299.746	133.558	84.620	120.480	131.791	309.612	366.346	86.277	168.407	8.5174e-05	0.0008328	0.0001406	645.28	2.4556e-06	3.6261e-06	631.72	124.2	4.5679e-06	7.6049e-06	146.45	45.206	38.935	13.408	6.5825e-06	16.925	0.0011226	0.0012504	0.00035147	626.84	1.3602e-05	1.354e-05	615.39	125.6	1.328e-05	1.3393e-05	150.14	47.597	41.037	14.265	1.2985e-05	17.916	245.079	173.288	163.616	64.044	166.882	219.116	63.691	71.079	111.494	142.270	68.803	73.602	76.456	82.629	261.236	79.169	-8191	255	
1979.973	1	1	0	0	0.22469	0.17561	0.10652	0.17491	0.24812	0.094996	0.058328	0.1116	0.14256	0.070623	0.028635	0.17812	0.1117	0.18822	0.063113	0.067185	-2.2021	-3.1188	-3.0521	-2.4958	-3.3875	-2.9	-2.9792	-3.1917	-2.5104	-2.8583	-3.1167	-2.6312	-3.4479	-2.7229	-2.7583	-3.1562	126.435	110.181	272.543	320.959	133.110	119.082	225.785	384.247	406.006	207.908	366.399	207.068	266.816	344.100	61.920	322.784	8.6126e-05	0.00023407	6.7835e-05	630.85	6.4455e-06	2.5949e-06	620.17	124.06	6.3669e-06	7.8829e-06	145.67	45.173	39.296	13.687	7.2093e-06	16.881	0.0010554	0.0011733	0.0003229	612.62	1.2389e-05	1.2678e-05	602.55	123.77	1.2299e-05	1.2714e-05	148.82	47.246	40.702	14.294	1.2584e-05	17.951	196.438	273.639	203.746	64.253	204.667	219.781	63.699	71.451	207.978	181.060	69.117	74.132	76.538	82.755	96.183	79.149	-8191	255	
1980.045	1	1	0	0	0.20778	0.21502	0.1935	0.26453	0.068096	0.036465	0.19444	0.27292	0.09594	0.14765	0.075726	0.11192	0.18407	0.23105	0.15132	0.39112	-2.1854	-3.0417	-3.1396	-2.5396	-3.4313	-2.8479	-2.6625	-3.2333	-2.6375	-2.9729	-3.2271	-2.7792	-3.2542	-2.875	-2.5083	-3.1146	393.555	90.566	281.524	342.098	123.828	89.336	82.712	352.471	233.117	142.035	351.892	321.048	290.815	148.063	212.774	88.573	0.0002445	0.00014795	2.3105e-06	629.56	4.2169e-06	6.7331e-06	621.16	124.26	3.5534e-06	8.1741e-06	145.41	45.565	39.142	13.544	2.6589e-06	16.708	0.0010382	0.0011604	0.00032571	609.82	1.2523e-05	1.3054e-05	604.3	124.55	1.2894e-05	1.3515e-05	150.09	47.89	41.188	14.403	1.3826e-05	17.964	224.708	97.872	194.037	64.062	159.987	143.238	63.795	71.428	209.437	233.775	69.481	75.116	76.635	82.941	202.636	78.792	-8191	255	
1980.165	1	1	0	0	0.27596	0.054266	0.2151	0.21052	0.35306	0.27462	0.17395	0.27944	0.050237	0.14672	0.16912	0.11267	0.25996	0.096228	0.028794	0.24977	-2.4083	-2.8771	-3.2583	-2.7104	-3.0333	-3.0938	-2.6083	-3.4104	-2.7812	-2.8354	-3.3708	-2.4833	-3.2104	-3.0292	-2.7458	-3.2833	233.008	377.284	143.022	340.842	58.949	412.285	270.044	352.371	119.503	163.419	273.611	244.421	336.879	68.082	233.131	261.719	0.00018456	0.00064889	9.5556e-05	646.33	9.5387e-07	9.1959e-06	635.25	124.55	2.028e-07	2.0823e-06	148.42	45.352	39.415	13.466	5.1993e-06	16.746	0.001129	0.0012786	0.00035746	624.99	1.3918e-05	1.442e-05	617.17	126.19	1.3952e-05	1.4433e-05	151.96	48.054	41.616	14.524	1.4776e-05	18.096	198.625	225.764	130.450	64.134	332.198	230.425	63.690	71.532	305.413	121.078	69.070	74.146	76.466	82.707	182.290	79.181	-8191	255	
1980.261	1	1	0	0	0.066188	0.058447	0.16505	0.084294	0.12253	0.19994	0.12035	0.38205	0.22943	0.37206	0.19532	0.14224	0.054258	0.13746	0.26265	0.24201	-2.4417	-2.8417	-3.0646	-2.7	-3.0667	-3.1229	-2.7125	-3.3625	-2.7667	-2.7604	-3.3958	-2.6354	-3.0146	-3.2542	-2.6813	-3.3937	104.655	210.951	341.805	81.452	337.178	364.408	364.027	202.735	377.026	110.586	394.746	165.966	364.319	337.641	355.623	97.210	0.00012935	0.00055618	0.00010715	650.86	2.0186e-06	1.7646e-06	640.65	126.52	1.59e-06	8.0247e-06	149.12	45.152	39.867	13.906	5.4644e-06	17.324	0.0011812	0.0013535	0.00037483	633.54	1.4605e-05	1.505e-05	625.29	127.96	1.5044e-05	1.5232e-05	153.29	48.287	42.157	14.986	1.4633e-05	18.652	207.606	106.462	115.177	64.293	355.784	243.090	63.721	71.425	106.762	245.155	69.312	74.685	77.170	83.182	277.826	78.765	-8191	255	
1980.357	1	1	0	0	0.2475	0.15549	0.27579	0.19994	0.30263	0.16711	0.2816	0.1437	0.081531	0.050421	0.12597	0.098325	0.14882	0.17676	0.066446	0.11749	-2.4542	-2.6854	-3.2917	-2.6937	-2.9229	-3.375	-2.6458	-3.4625	-3.0062	-2.6208	-3.3312	-2.8271	-3.0542	-3.2167	-2.6833	-3.2875	302.888	316.385	277.795	142.379	238.101	279.808	331.729	189.772	345.134	100.020	381.598	379.919	354.303	325.420	254.932	102.971	0.000137	0.00083349	0.00026468	634.63	2.7033e-06	5.7528e-06	615.19	128.14	2.3547e-06	7.1549e-06	152.5	46.748	41.905	14.896	3.3263e-06	18.326	0.0011823	0.0013198	0.00036511	618.76	1.4134e-05	1.4638e-05	602.03	129.37	1.377e-05	1.3987e-05	155.78	49.561	43.427	15.673	1.2494e-05	19.409	185.468	111.829	211.694	64.377	195.756	205.601	63.986	71.727	369.179	177.014	70.144	75.777	77.869	84.578	277.037	81.165	-8191	255	
1980.454	1	1	0	0	0.046879	0.14352	0.044139	0.1932	0.19068	0.090528	0.18078	0.27185	0.26444	0.21048	0.20024	0.15782	0.11954	0.16932	0.029054	0.18299	-2.625	-2.8042	-3.2188	-2.9271	-2.775	-3.3063	-2.7104	-3.0917	-2.9917	-2.6667	-3.425	-2.7438	-2.8208	-3.4313	-2.5479	-3.0479	95.712	81.467	80.233	98.774	79.129	107.703	353.819	366.210	132.749	223.116	340.807	70.307	124.181	366.844	280.382	375.452	0.00013313	0.0010288	0.00022461	569.47	2.827e-06	1.7607e-06	578.67	137.33	3.2154e-06	1.738e-06	162.08	50.01	44.04	16.053	1.9612e-06	19.768	0.00097126	0.0010763	0.00029367	551.92	1.0982e-05	1.1021e-05	561.58	136.05	1.0388e-05	1.064e-05	161.85	51.071	44.666	16.434	9.8769e-06	20.358	197.306	100.615	188.567	65.287	87.141	297.261	65.414	73.215	357.706	179.274	70.854	76.454	79.345	86.042	258.157	81.756	-8191	255	
1980.550	1	1	0	0	0.21862	0.42013	0.16583	0.11069	0.21518	0.20804	0.19671	0.14348	0.12019	0.28508	0.022649	0.045326	0.15449	0.15377	0.22022	0.34063	-2.7896	-2.6813	-3.3021	-2.9	-2.8292	-3.3563	-2.8146	-3.1208	-3.3438	-2.7687	-3.4167	-2.9292	-2.6979	-3.3937	-2.6375	-3.1417	146.115	391.735	218.189	386.157	320.173	88.818	382.077	142.770	169.919	147.928	171.355	327.619	256.257	245.767	383.454	369.612	0.00017163	0.00045994	0.00015737	558.2	2.3659e-06	3.5408e-06	580.72	139.27	1.6223e-06	4.5829e-06	162.44	50.811	44.94	16.769	4.853e-06	20.731	0.00080911	0.00089515	0.00024548	542.53	9.3433e-06	9.3469e-06	558.08	137.67	9.0864e-06	9.2172e-06	162.35	51.506	45.334	17.038	9.2509e-06	21.03	178.114	117.943	102.721	65.272	256.409	258.122	65.093	73.091	243.588	265.312	70.880	77.089	78.868	85.984	252.991	81.966	-8191	255	
1980.644	1	1	0	0	0.23871	0.10452	0.21309	0.2612	0.13823	0.10402	0.081639	0.1504	0.026153	0.19347	0.051655	0.20346	0.25977	0.20337	0.19093	0.15132	-2.9833	-2.5167	-2.9542	-2.9396	-2.7646	-3.4542	-2.7604	-2.95	-3.2208	-2.6667	-3.4333	-3.0958	-2.6562	-3.2313	-2.7479	-3.025	203.849	202.792	145.019	387.123	167.254	210.491	55.348	377.797	134.830	127.728	69.772	378.795	125.404	363.408	85.825	309.343	0.00021454	0.00018106	0.00016316	585.04	3.2363e-06	3.3514e-06	596.56	141.7	1.8364e-06	5.9655e-06	163.77	50.821	44.35	16.396	4.8231e-06	20.023	0.00077542	0.0008536	0.00023686	563.46	9.196e-06	9.1574e-06	573.95	139.69	8.9891e-06	9.0052e-06	162.86	51.477	45.134	16.662	8.6138e-06	20.213	224.345	129.713	106.158	65.247	264.702	57.785	64.961	72.980	338.382	163.713	70.913	76.581	78.787	85.778	245.914	81.665	-8191	255	
1980.740	1	1	0	0	0.24313	0.11006	0.032422	0.10477	0.15657	0.16714	0.21785	0.16162	0.16273	0.096619	0.085789	0.26751	0.12838	0.22425	0.19388	0.13627	-3.0438	-2.5062	-3.125	-3.2271	-2.8208	-3.4104	-2.9604	-2.75	-3.3708	-2.6604	-3.0396	-3.2438	-2.6792	-3.2812	-2.8187	-2.9521	382.757	177.184	301.718	392.355	365.197	208.767	369.749	350.143	334.298	176.075	217.872	294.588	171.931	55.928	344.051	338.461	0.00011784	0.00048632	3.0469e-05	573.55	5.2302e-06	5.4716e-06	578.55	137.61	7.0377e-06	5.648e-06	162.11	50.04	43.67	16.395	3.8018e-06	19.868	0.00071048	0.00076452	0.00021519	555.35	8.2338e-06	8.1227e-06	558.09	134.9	7.9629e-06	8.107e-06	158.58	50.109	44.015	16.377	7.8958e-06	20.025	197.002	153.058	96.460	65.167	271.871	268.177	64.911	73.072	247.777	321.218	70.779	76.732	78.877	85.671	347.060	81.657	-8191	255	
1980.838	1	1	0	0	0.061362	0.10242	0.20666	0.24349	0.16895	0.10267	0.1793	0.087717	0.17939	0.12354	0.24706	0.054394	0.15948	0.27775	0.039049	0.26822	-2.8417	-2.7062	-3.0521	-3.25	-2.65	-3.2687	-3.0792	-2.725	-3.4562	-2.5771	-3.0292	-3.2708	-2.7188	-3.3104	-3.0979	-2.8063	407.746	267.129	60.932	68.151	132.490	272.429	323.199	302.238	62.921	399.019	338.810	279.583	98.867	155.050	247.345	206.896	0.00011987	0.00054158	5.8919e-05	576.86	6.3623e-06	6.2519e-06	574.22	135.65	5.1091e-06	7.079e-06	160.33	50.06	43.857	16.381	6.1021e-06	20.157	0.00065708	0.00071255	0.00020175	553.11	7.974e-06	7.9402e-06	554.03	134.04	7.661e-06	7.7914e-06	157.44	50.361	44.034	16.524	7.8558e-06	20.21	172.574	202.511	337.795	65.685	198.670	329.855	64.829	74.017	408.724	177.686	70.921	76.821	79.494	86.154	119.978	81.741	-8191	255	
1980.957	1	1	0	0	0.20923	0.22285	0.21534	0.15563	0.019424	0.23747	0.26643	0.050919	0.094243	0.18553	0.10281	0.12683	0.11598	0.017247	0.20887	0.13483	-2.8417	-2.7333	-2.9708	-3.25	-2.5625	-3.1875	-3.2125	-2.7562	-3.3	-2.8396	-2.8208	-3.3625	-2.4354	-3.0187	-3.1021	-2.7375	320.443	386.993	243.363	383.829	196.798	258.689	60.623	62.220	208.079	100.188	330.968	190.706	350.008	346.182	69.426	72.806	0.00014084	0.00066355	0.00010347	571.83	3.8806e-06	2.933e-06	578.24	135.97	3.2465e-06	2.0702e-06	159.19	49.956	44.153	16.305	1.7357e-06	19.777	0.0006538	0.00072922	0.00020268	550.82	7.8963e-06	8.006e-06	555.85	133.73	8.0189e-06	8.1259e-06	157.06	50.436	44.203	16.448	8.2406e-06	20.048	188.202	121.454	82.256	65.195	158.759	193.888	64.847	73.456	244.251	290.274	70.959	77.094	79.739	86.009	83.557	81.623	-8191	255	
1981.053	1	1	0	0	0.067561	0.11466	0.25072	0.32568	0.057214	0.040211	0.064714	0.14767	0.23315	0.2775	0.26914	0.13643	0.11982	0.20416	0.22726	0.41511	-3.0208	-2.9229	-2.8646	-3.5354	-2.6458	-3.0042	-3.2021	-2.5687	-3.2125	-2.8854	-2.575	-3.3563	-2.6021	-2.9979	-3.2729	-2.5687	154.051	98.968	404.450	345.249	57.577	397.299	128.676	225.733	257.037	306.263	370.694	317.938	99.419	386.896	401.968	216.132	0.00013401	0.00018221	0.00025101	579.29	5.2951e-06	6.6544e-06	579.04	134.57	2.9008e-06	5.3105e-06	155.74	48.848	42.894	15.61	1.2823e-06	18.765	0.00069291	0.00076422	0.00021853	558.46	8.4314e-06	8.6482e-06	557.82	132.92	8.6615e-06	8.7832e-06	155.04	49.463	43.275	15.856	8.8194e-06	19.234	221.985	148.741	90.953	65.494	256.952	134.808	64.450	73.570	208.314	206.249	70.565	76.993	79.042	85.964	159.344	81.053	-8191	255	
1981.149	1	1	0	0	0.15002	0.13063	0.14412	0.12138	0.18965	0.14018	0.222	0.13342	0.1343	0.16876	0.13148	0.052551	0.10523	0.24491	0.1369	0.024701	-3	-2.825	-2.7417	-3.3563	-2.6167	-2.7458	-3.1188	-2.5792	-3.1688	-3.0812	-2.5167	-3.3271	-2.7896	-2.9208	-3.2229	-2.5271	189.962	299.216	341.450	297.602	174.059	215.117	350.125	108.765	360.973	378.921	68.616	154.066	77.882	340.659	352.327	221.977	0.00012046	0.00026251	8.2023e-05	576.36	8.1923e-07	7.9287e-06	567.57	131.84	5.1053e-06	4.5554e-06	153.58	47.963	42.276	15.162	1.5945e-06	18.649	0.00074521	0.00081928	0.00022912	554.47	8.928e-06	9.3126e-06	551.1	130.63	9.285e-06	9.4227e-06	153.33	48.957	43.001	15.683	9.6648e-06	19.108	220.511	302.053	106.658	65.054	173.661	214.331	64.608	73.358	331.865	211.330	70.787	76.952	79.383	86.098	263.924	81.695	-8191	255	
1981.246	1	1	0	0	0.16078	0.15989	0.1637	0.17746	0.15706	0.12037	0.21499	0.12365	0.12342	0.32206	0.13659	0.10158	0.10904	0.22692	0.10453	0.12076	-2.9354	-2.9938	-2.6188	-3.4542	-2.6979	-2.9229	-3.2458	-2.7521	-3.3458	-3.1208	-2.6729	-3.3208	-2.7583	-2.9521	-3.3792	-2.65	332.769	348.961	273.051	313.522	325.656	403.069	400.787	383.982	194.878	125.091	310.000	252.541	79.627	402.733	328.389	66.033	0.00014063	0.0001595	0.00012028	587.31	2.811e-06	6.093e-06	580.22	130.81	3.0612e-06	3.8045e-06	153.01	47.89	41.565	15.079	5.9668e-06	18.291	0.00081464	0.00089336	0.00025398	568.36	9.7402e-06	9.9159e-06	562.22	129.6	9.8323e-06	1.0052e-05	152.25	48.752	42.702	15.553	1.0151e-05	19.029	215.613	406.149	222.106	64.927	281.332	228.671	64.637	73.413	196.873	199.304	70.554	77.425	79.055	86.129	179.488	82.330	-8191	255	
1981.342	1	1	0	0	0.21535	0.055566	0.097766	0.28649	0.26324	0.33466	0.14707	0.093733	0.071567	0.23048	0.1534	0.23834	0.081712	0.17546	0.10692	0.12212	-2.6833	-3.1	-2.7604	-3.4125	-2.7771	-2.7375	-3.2396	-2.6208	-3.0187	-3.1229	-2.5708	-3.1396	-2.9292	-2.7479	-3.4437	-2.825	327.202	217.867	120.328	363.591	317.584	185.353	377.856	210.171	250.331	186.417	76.644	386.464	57.286	384.120	245.883	409.973	0.00017592	6.2175e-05	0.00013029	599.6	3.1658e-06	4.0028e-06	593.79	131.16	4.5224e-06	4.5245e-06	151.93	47.18	41.429	14.84	3.4865e-06	18.497	0.00085676	0.00093722	0.0002656	579.77	1.0223e-05	1.0543e-05	576.34	130.1	1.0344e-05	1.0424e-05	153	48.733	42.326	15.337	1.0061e-05	18.907	181.793	222.771	160.331	65.003	390.318	254.792	64.281	72.731	303.756	205.753	70.297	76.610	78.177	85.299	65.065	80.621	-8191	255	
1981.438	1	1	0	0	0.059467	0.20708	0.31332	0.30762	0.076368	0.12042	0.067389	0.11135	0.21699	0.13863	0.24237	0.30594	0.21698	0.23046	0.20729	0.20424	-2.6396	-3.4813	-2.4083	-3.375	-2.8542	-2.8229	-3.3812	-3.0021	-2.8979	-3.2771	-2.7333	-3.1667	-3.0563	-2.6875	-3.3521	-2.8167	174.712	355.736	409.931	365.208	168.538	70.825	282.247	355.053	196.983	412.849	128.073	355.283	84.070	292.528	331.904	380.484	7.3194e-05	0.0001283	4.9876e-05	609.97	5.38e-06	2.4681e-06	600.49	130.43	3.3609e-06	7.1058e-06	152.88	46.974	41.417	14.674	2.4937e-06	18.057	0.00084056	0.0009028	0.00025706	587.97	9.9818e-06	1.0104e-05	580.22	129.25	1.036e-05	1.0417e-05	153.04	48.408	42.499	15.188	1.0518e-05	18.697	177.865	246.320	87.137	64.740	194.950	183.738	64.166	73.261	237.340	196.478	70.395	76.223	78.898	85.433	181.857	81.552	-8191	255	
1981.558	1	1	0	0	0.31695	0.18246	0.22133	0.14197	0.076982	0.11153	0.16277	0.35913	0.10446	0.12059	0.19015	0.20251	0.088793	0.16345	0.24707	0.17454	-2.3875	-3.2313	-2.5354	-3.0062	-3.15	-2.5729	-3.3229	-2.6896	-2.7729	-3.4667	-2.7042	-2.8625	-3.2354	-2.5958	-3.3292	-2.8792	119.878	209.627	158.326	324.501	412.181	60.625	360.308	291.570	354.480	138.553	166.158	254.935	106.949	55.304	367.294	249.815	0.00010864	0.00056113	2.4042e-05	627.54	2.0619e-06	3.4532e-06	614.74	131.4	1.5044e-06	5.7312e-06	149.39	45.854	41.223	14.545	1.8703e-06	17.528	0.00087907	0.00096267	0.00027096	605.6	1.0374e-05	1.0552e-05	594.01	129.33	1.0458e-05	1.0475e-05	150.92	47.752	41.986	14.98	1.0522e-05	18.35	211.115	62.602	257.040	64.009	159.516	126.882	64.254	73.158	256.814	187.799	71.208	75.826	78.415	84.873	101.403	81.192	-8191	255	
1981.653	1	1	0	0	0.14274	0.099097	0.14527	0.13489	0.32853	0.23496	0.067316	0.18003	0.23437	0.049938	0.30288	0.1167	0.23224	0.11721	0.21031	0.024468	-2.3042	-3.3063	-2.5667	-3.0667	-3.1125	-2.8063	-3.4375	-3.0417	-2.6667	-3.3792	-2.8896	-3.0417	-3.3875	-2.4771	-3.1437	-2.9646	137.078	163.509	75.405	352.931	147.791	63.731	89.866	292.036	141.263	67.593	404.244	397.967	156.068	315.570	218.531	195.591	0.00014122	0.00022826	0.00010788	647.44	2.3312e-06	9.3377e-06	639.91	131.09	4.8144e-06	8.8054e-06	151.58	46.788	41.217	14.524	4.2605e-06	17.734	0.00086875	0.00095707	0.00026688	624.52	1.0237e-05	1.0521e-05	616.08	129.91	1.0356e-05	1.0574e-05	151.77	47.986	42.222	15.091	1.05e-05	18.483	210.373	64.363	172.827	64.511	205.628	170.976	64.235	72.274	160.162	165.593	70.039	75.910	78.782	84.877	312.159	80.810	-8191	255	
1981.749	1	1	0	0	0.070426	0.18378	0.083754	0.1207	0.079207	0.21291	0.049621	0.18202	0.084416	0.17909	0.15207	0.12156	0.2768	0.25089	0.05516	0.048908	-2.1729	-3.3646	-2.8333	-2.9521	-3.4854	-2.6229	-3.1604	-3.075	-2.6292	-3.3729	-3.0583	-2.5375	-3.3125	-2.6104	-2.9667	-3.2146	67.096	339.883	117.954	110.057	322.776	246.409	269.879	386.658	78.185	240.749	367.638	404.298	359.434	169.859	327.200	331.760	0.00011934	0.00060445	0.00039426	659.58	2.1698e-06	4.7697e-06	649.76	130.65	4.0063e-06	6.1513e-06	153.28	46.87	41.029	14.705	9.3483e-06	17.642	0.00087081	0.00097289	0.000271	635.85	1.0584e-05	1.0778e-05	624.58	130.3	1.0662e-05	1.0767e-05	153.67	48.369	42.372	15.156	1.0711e-05	18.613	180.815	189.357	177.891	64.005	54.641	230.219	63.802	72.111	146.388	222.140	69.797	75.857	77.951	83.977	223.597	79.898	-8191	255	
1981.845	1	1	0	0	0.31505	0.0571	0.29932	0.29996	0.3126	0.22865	0.07163	0.093772	0.13371	0.19389	0.26589	0.1152	0.12414	0.2078	0.14906	0.19972	-2.1542	-3.1833	-2.9813	-2.6979	-3.2938	-2.5479	-3.1646	-3.2042	-2.625	-3.4375	-2.9333	-2.7604	-3.4646	-2.6708	-3.0917	-3.2833	318.076	314.069	362.129	406.772	228.796	132.087	61.344	341.290	335.336	253.109	325.324	207.839	379.609	140.164	66.901	312.684	0.00023283	7.5642e-05	0.00018647	705.56	2.5436e-06	2.6567e-06	682.24	134.93	2.4585e-06	6.3991e-06	154.03	47.934	41.511	14.537	2.0291e-06	17.925	0.00088926	0.00099408	0.00027339	678.38	1.0511e-05	1.0671e-05	658.57	133.36	1.0673e-05	1.086e-05	155.23	48.867	42.641	15.152	1.0788e-05	18.637	181.185	95.930	81.779	63.593	232.259	61.844	63.115	71.990	204.890	193.794	70.079	75.265	77.607	84.609	272.229	80.445	-8191	255	
1981.941	1	1	0	0	0.22231	0.25233	0.13174	0.075698	0.27682	0.18267	0.17525	0.14903	0.16015	0.11069	0.25248	0.051564	0.11047	0.19458	0.11115	0.10136	-2.2667	-3.1063	-2.9583	-2.6437	-3.3375	-2.6833	-2.8167	-3.3625	-2.4104	-3.2583	-3.0833	-2.7375	-3.4979	-2.7125	-2.8229	-3.2125	369.071	175.649	103.490	214.622	263.522	166.702	313.043	280.750	405.994	116.122	312.750	240.976	212.423	78.478	263.328	372.309	0.00016685	0.00034513	5.7684e-05	702.53	6.7629e-06	6.6255e-06	677.73	133.84	2.2053e-06	4.6015e-06	154.24	47.06	41.32	14.461	3.6837e-06	17.682	0.0008926	0.00099484	0.00027526	674.76	1.065e-05	1.1055e-05	654.48	132.55	1.0708e-05	1.1199e-05	155.29	48.56	42.571	15.082	1.1117e-05	18.507	180.638	371.652	342.370	63.872	147.139	157.014	63.434	72.166	106.453	228.480	69.560	76.131	77.660	84.743	212.843	80.603	-8191	255	
#DATA ENDS
