BOXY.EXE: ISS Imagent and Oximeter Data Acquisition Program Version 0.80
Ascii Record File

#ACQ INFORMATION
2  Detector Channels 
16  External MUX Channels 
1  Auxiliary Channels 
5000  Waveform (CCF) Frequency (Hz)
1  Waveforms Skipped 
30  Waveforms Averaged 
1  Cycles Averaged 
16  Acquisitions per Waveform 
10.0806  Updata Rate (Hz) 

#FILE INFORMATION
TRUE -- External MUX Channel results are PARSED.
FALSE -- AC DC and Phase are NOT grouped.
TRUE -- Companion Program Settings File CREATED.
FALSE -- AC data not excluded
FALSE -- DC data not excluded
FALSE -- Phase data not excluded
FALSE -- Auxillary Chn. data not excluded
Tab delimiters

#CALIBRATION STATE
TRUE -- Waveform Calibration Values APPLIED.


#AUX CALIBRATION VALUES
Val Type	aux-1	

Term	1.0000e+00	
Factor	0.0000e+00	


#WF CALIBRATION VALUES
A = Detector Channel
Val Type	A-AC1	A-AC2	A-AC3	A-AC4	A-AC5	A-AC6	A-AC7	A-AC8	A-AC9	A-AC10	A-AC11	A-AC12	A-AC13	A-AC14	A-AC15	A-AC16	A-DC1	A-DC2	A-DC3	A-DC4	A-DC5	A-DC6	A-DC7	A-DC8	A-DC9	A-DC10	A-DC11	A-DC12	A-DC13	A-DC14	A-DC15	A-DC16	A-Ph1	A-Ph2	A-Ph3	A-Ph4	A-Ph5	A-Ph6	A-Ph7	A-Ph8	A-Ph9	A-Ph10	A-Ph11	A-Ph12	A-Ph13	A-Ph14	A-Ph15	A-Ph16	

Term	0.00000e+00	0.00000e+00	0.00000e+00	0.00000e+00	0.00000e+00	0.00000e+00	0.00000e+00	0.00000e+00	0.00000e+00	0.00000e+00	0.00000e+00	0.00000e+00	0.00000e+00	0.00000e+00	0.00000e+00	0.00000e+00	0.00000e+00	0.00000e+00	0.00000e+00	0.00000e+00	0.00000e+00	0.00000e+00	0.00000e+00	0.00000e+00	0.00000e+00	0.00000e+00	0.00000e+00	0.00000e+00	0.00000e+00	0.00000e+00	0.00000e+00	0.00000e+00	0.00000e+00	0.00000e+00	0.00000e+00	0.00000e+00	0.00000e+00	0.00000e+00	0.00000e+00	0.00000e+00	0.00000e+00	0.00000e+00	0.00000e+00	0.00000e+00	0.00000e+00	0.00000e+00	0.00000e+00	0.00000e+00	
Factor	1.00000e+00	1.00000e+00	1.00000e+00	1.00000e+00	1.00000e+00	1.00000e+00	1.00000e+00	1.00000e+00	1.00000e+00	1.00000e+00	1.00000e+00	1.00000e+00	1.00000e+00	1.00000e+00	1.00000e+00	1.00000e+00	1.00000e+00	1.00000e+00	1.00000e+00	1.00000e+00	1.00000e+00	1.00000e+00	1.00000e+00	1.00000e+00	1.00000e+00	1.00000e+00	1.00000e+00	1.00000e+00	1.00000e+00	1.00000e+00	1.00000e+00	1.00000e+00	X	X	X	X	X	X	X	X	X	X	X	X	X	X	X	X	

B = Detector Channel
Val Type	B-AC1	B-AC2	B-AC3	B-AC4	B-AC5	B-AC6	B-AC7	B-AC8	B-AC9	B-AC10	B-AC11	B-AC12	B-AC13	B-AC14	B-AC15	B-AC16	B-DC1	B-DC2	B-DC3	B-DC4	B-DC5	B-DC6	B-DC7	B-DC8	B-DC9	B-DC10	B-DC11	B-DC12	B-DC13	B-DC14	B-DC15	B-DC16	B-Ph1	B-Ph2	B-Ph3	B-Ph4	B-Ph5	B-Ph6	B-Ph7	B-Ph8	B-Ph9	B-Ph10	B-Ph11	B-Ph12	B-Ph13	B-Ph14	B-Ph15	B-Ph16	

Term	0.00000e+00	0.00000e+00	0.00000e+00	0.00000e+00	0.00000e+00	0.00000e+00	0.00000e+00	0.00000e+00	0.00000e+00	0.00000e+00	0.00000e+00	0.00000e+00	0.00000e+00	0.00000e+00	0.00000e+00	0.00000e+00	0.00000e+00	0.00000e+00	0.00000e+00	0.00000e+00	0.00000e+00	0.00000e+00	0.00000e+00	0.00000e+00	0.00000e+00	0.00000e+00	0.00000e+00	0.00000e+00	0.00000e+00	0.00000e+00	0.00000e+00	0.00000e+00	-2.67418e+02	-1.23981e+02	-1.44473e+02	-1.81854e+02	-1.05914e+02	-7.68791e+01	-1.57311e+02	-1.62015e+02	-7.09312e+01	-7.89950e+01	-1.71511e+02	-1.71453e+02	-1.84794e+02	-1.77817e+02	-1.04389e+02	-1.50452e+02	
Factor	5.71809e-05	8.97066e-05	3.11288e-05	1.96425e-01	1.13358e-06	8.75478e-07	1.57363e-01	5.65123e-02	1.42736e-06	9.07431e-07	8.42968e-02	3.04734e-02	2.81487e-02	8.63089e-03	1.04281e-06	1.25646e-02	5.48854e-07	5.55714e-07	1.54520e-07	9.50652e-02	6.08120e-09	6.08269e-09	7.27127e-02	2.73195e-02	6.08719e-09	6.08483e-09	3.88846e-02	1.39013e-02	1.32012e-02	4.11566e-03	6.08014e-09	5.73139e-03	X	X	X	X	X	X	X	X	X	X	X	X	X	X	X	X	



#DISTANCE SETTINGS
A = Detector Channel
A-1	A-2	A-3	A-4	A-5	A-6	A-7	A-8	A-9	A-10	A-11	A-12	A-13	A-14	A-15	A-16	

2.5000e+00	3.0000e+00	2.5000e+00	3.0000e+00	2.0000e+00	3.0000e+00	1.5000e+00	3.0000e+00	3.0000e+00	3.0000e+00	3.0000e+00	3.0000e+00	3.0000e+00	3.0000e+00	1.5000e+00	3.0000e+00	

B = Detector Channel
B-1	B-2	B-3	B-4	B-5	B-6	B-7	B-8	B-9	B-10	B-11	B-12	B-13	B-14	B-15	B-16	

1.0000e+01	1.0000e+01	1.0000e+01	1.4400e+00	1.0000e+01	1.0000e+01	1.5100e+00	1.9400e+00	1.0000e+01	1.0000e+01	1.9900e+00	2.4900e+00	2.4100e+00	2.9000e+00	1.0000e+01	2.9800e+00	




#DATA BEGINS
time	group	step	mark	flag	A-AC1	A-AC2	A-AC3	A-AC4	A-AC5	A-AC6	A-AC7	A-AC8	A-AC9	A-AC10	A-AC11	A-AC12	A-AC13	A-AC14	A-AC15	A-AC16	A-DC1	A-DC2	A-DC3	A-DC4	A-DC5	A-DC6	A-DC7	A-DC8	A-DC9	A-DC10	A-DC11	A-DC12	A-DC13	A-DC14	A-DC15	A-DC16	A-Ph1	A-Ph2	A-Ph3	A-Ph4	A-Ph5	A-Ph6	A-Ph7	A-Ph8	A-Ph9	A-Ph10	A-Ph11	A-Ph12	A-Ph13	A-Ph14	A-Ph15	A-Ph16	B-AC1	B-AC2	B-AC3	B-AC4	B-AC5	B-AC6	B-AC7	B-AC8	B-AC9	B-AC10	B-AC11	B-AC12	B-AC13	B-AC14	B-AC15	B-AC16	B-DC1	B-DC2	B-DC3	B-DC4	B-DC5	B-DC6	B-DC7	B-DC8	B-DC9	B-DC10	B-DC11	B-DC12	B-DC13	B-DC14	B-DC15	B-DC16	B-Ph1	B-Ph2	B-Ph3	B-Ph4	B-Ph5	B-Ph6	B-Ph7	B-Ph8	B-Ph9	B-Ph10	B-Ph11	B-Ph12	B-Ph13	B-Ph14	B-Ph15	B-Ph16	aux-1	digaux	

954.618	1	1	0	768	0.092822	0.096633	0.12076	0.049141	0.25103	0.056696	0.10895	0.099687	0.18857	0.20067	0.17044	0.24456	0.20898	0.07935	0.22314	0.26841	-4.8958	-4.3604	-5.0104	-5.1188	-4.4	-5.3021	-4.8063	-4.8146	-5.225	-4.375	-5.1562	-5.0729	-4.5167	-5.5146	-4.7667	-4.6042	122.341	153.959	145.924	409.291	437.756	225.180	384.926	384.304	101.568	365.160	414.170	390.065	243.968	323.467	96.002	323.527	0.0016704	0.00070279	7.882e-05	1348.8	2.2817e-06	1.9215e-06	1355.4	367.03	2.8836e-06	1.8821e-06	416.33	140	121.35	41.374	3.8226e-06	51.634	0.00056834	0.00056551	0.00015791	1382.2	6.2239e-06	6.1867e-06	1382.3	375.88	6.2007e-06	6.201e-06	428.75	143.83	124.97	43.008	6.1418e-06	53.312	390.928	206.805	136.167	104.225	225.498	275.499	103.894	108.743	231.007	273.829	107.937	112.654	113.094	117.662	273.030	116.405	-8191	255	
954.714	1	1	0	0	0.2625	0.17274	0.1735	0.32055	0.079783	0.24476	0.1882	0.12288	0.11095	0.13967	0.29492	0.11997	0.25742	0.18725	0.25761	0.075457	-5.0042	-4.4833	-4.8104	-5.225	-4.4229	-5.2979	-4.9583	-4.625	-5.3292	-4.5625	-4.8708	-5.1271	-4.4167	-5.1854	-4.7438	-4.4354	119.237	295.803	136.396	401.367	418.344	228.199	382.119	424.419	324.858	222.876	448.786	431.090	120.515	398.792	226.651	120.228	0.0015434	0.00071226	0.00020278	1353.4	6.0274e-06	3.3923e-06	1351.5	366.82	9.8802e-06	4.646e-06	418.01	140.78	122.24	41.518	4.8881e-06	51.154	0.00056523	0.0005607	0.00015658	1383.3	6.1481e-06	6.1531e-06	1379.9	375.17	6.1827e-06	6.1481e-06	428.51	143.63	125.09	42.931	6.1656e-06	53.262	392.812	209.650	225.066	104.080	181.771	371.032	103.779	108.814	345.022	204.345	108.190	112.644	112.973	117.552	245.392	116.688	-8191	255	
954.810	1	1	0	0	0.16397	0.17822	0.095975	0.13469	0.06028	0.095359	0.37355	0.18497	0.11739	0.0093864	0.054028	0.04905	0.037056	0.30649	0.10445	0.21249	-5.0792	-4.4688	-4.9083	-5.3625	-4.2979	-5.1167	-5.2667	-4.5375	-5.2562	-4.7479	-4.825	-5.2917	-4.4042	-5.2354	-5.0771	-4.5312	188.058	222.822	382.860	326.993	330.167	143.394	389.331	403.962	431.658	149.997	293.876	382.011	138.897	311.604	95.459	400.282	0.0017444	0.00064286	0.00036697	1348.6	5.8143e-06	9.2433e-06	1350.7	366.46	8.3448e-06	7.4099e-06	419.31	140.02	121.87	41.611	6.3647e-06	50.984	0.00056909	0.00056581	0.00015816	1381.4	6.2252e-06	6.2592e-06	1381.1	375.49	6.2412e-06	6.2437e-06	429.3	143.94	125.15	43.098	6.2131e-06	53.277	394.190	261.287	185.824	103.976	194.806	243.780	103.874	108.730	249.384	199.123	108.129	112.763	112.937	117.529	147.139	116.519	-8191	255	
954.906	1	1	0	0	0.15271	0.048749	0.091476	0.1278	0.043816	0.036376	0.24444	0.16318	0.21836	0.021644	0.25347	0.062054	0.23149	0.11511	0.031653	0.29089	-4.7979	-4.5625	-4.6979	-5.4646	-4.5563	-5.0646	-5.1917	-4.5708	-5.2812	-4.9417	-4.7958	-5.475	-4.4854	-4.9583	-5.1604	-4.4146	227.008	425.788	432.396	384.805	152.100	359.852	378.193	113.942	257.517	103.332	103.047	427.750	433.448	287.319	199.711	195.366	0.0016542	0.00035505	0.00016985	1356.5	5.459e-06	8.6366e-06	1352.3	367.18	7.7961e-06	2.0506e-06	417.06	140.55	122.31	41.657	6.0025e-06	51.142	0.00057423	0.00056848	0.00015876	1386.1	6.2284e-06	6.2182e-06	1382.7	375.56	6.2117e-06	6.1842e-06	428.8	143.67	124.95	43.053	6.1175e-06	53.197	392.992	168.227	178.614	104.121	259.593	274.019	103.787	108.708	193.694	170.033	108.107	112.625	112.965	117.473	167.758	116.653	-8191	255	
955.003	1	1	0	0	0.11615	0.056889	0.12281	0.057901	0.11802	0.0019945	0.10707	0.16075	0.14024	0.16385	0.13451	0.18744	0.11468	0.16046	0.14512	0.18857	-5.0229	-4.75	-4.2917	-5.4625	-4.65	-4.8438	-5.2688	-4.3896	-5.2208	-4.8729	-4.6979	-5.4688	-4.6312	-4.9542	-5.2937	-4.4646	410.245	306.039	313.873	237.791	442.916	180.000	359.189	438.203	125.110	313.411	168.636	402.790	175.155	151.994	332.826	402.399	0.0016879	0.00049692	0.00013937	1349.8	1.1393e-05	8.2886e-06	1352.7	366.05	1.5052e-05	4.5499e-06	416.06	140.77	121.59	41.592	2.8875e-06	51.39	0.00056421	0.0005615	0.00015554	1381.3	6.1533e-06	6.1269e-06	1381.2	375.04	6.1019e-06	6.0898e-06	427.97	143.6	124.69	43.007	6.0695e-06	53.181	403.476	269.112	149.153	104.058	203.809	275.662	103.820	108.722	262.376	272.510	108.149	112.483	113.145	117.430	160.437	116.566	-8191	255	
955.099	1	1	0	0	0.052922	0.13003	0.29303	0.035306	0.048022	0.14757	0.30967	0.093126	0.05816	0.17941	0.16039	0.10278	0.062644	0.18585	0.21968	0.066873	-4.8812	-5.0104	-4.5792	-5.4104	-4.5042	-4.7208	-5.3021	-4.625	-5.1771	-4.9812	-4.3167	-5.5062	-4.7375	-4.6208	-5.2104	-4.3438	105.148	273.679	234.285	310.960	108.040	314.406	346.418	292.576	188.155	264.015	331.965	256.748	435.857	421.449	253.837	349.486	0.0012316	0.00058028	0.00011663	1350.9	6.0381e-06	3.8249e-06	1353.4	365.53	8.763e-06	4.2574e-06	417.2	140.99	121.44	41.615	4.0202e-06	51.421	0.00056035	0.0005549	0.00015484	1381.1	6.104e-06	6.1409e-06	1379.7	374.79	6.1319e-06	6.1596e-06	428.43	144.05	124.73	43.052	6.1647e-06	53.277	398.768	156.631	164.356	104.027	163.388	138.804	103.590	108.729	269.616	123.260	107.758	112.793	113.154	117.538	215.438	116.161	-8191	255	
955.219	1	1	0	0	0.16636	0.15869	0.20888	0.087153	0.21445	0.14893	0.16634	0.20449	0.083359	0.13436	0.078018	0.12273	0.1638	0.0936	0.1212	0.15269	-4.6896	-5.1729	-4.3229	-5.2979	-4.6104	-4.65	-5.5563	-4.4958	-4.7667	-5.0271	-4.4542	-5.2042	-5.0208	-4.5792	-5.2562	-4.5479	258.919	154.068	234.279	359.063	334.556	95.635	432.504	308.451	422.629	335.333	209.654	398.656	385.902	337.229	122.476	381.804	0.0017665	0.00028212	7.9872e-05	1349.6	1.3099e-06	6.9186e-06	1354.1	366.87	7.38e-06	8.0762e-06	415.75	141.09	121.84	41.499	8.5944e-06	51.453	0.00056706	0.00055936	0.00015618	1380.8	6.1082e-06	6.1265e-06	1381.4	374.69	6.1381e-06	6.1069e-06	427.44	143.82	124.94	43.003	6.1115e-06	53.212	385.735	187.063	162.512	104.156	444.150	177.826	103.828	108.727	132.427	271.185	107.936	112.628	113.144	117.413	198.101	116.883	-8191	255	
955.316	1	1	0	0	0.16365	0.1269	0.15405	0.21068	0.19858	0.1842	0.26627	0.46854	0.03263	0.047255	0.017865	0.22016	0.074554	0.19589	0.13996	0.14601	-4.4604	-5.0208	-4.3313	-5.4	-4.8104	-4.2708	-5.4313	-4.6833	-4.9458	-5.2979	-4.4458	-5.1354	-4.8521	-4.6833	-5.3438	-4.6979	371.913	333.576	401.600	406.801	166.369	403.693	323.706	346.664	111.060	199.404	211.027	151.559	131.837	103.198	163.360	133.248	0.0015702	0.00014134	0.00033275	1348.9	7.5823e-06	1.5051e-06	1351.4	367.05	6.0539e-06	7.8799e-06	417.54	140.73	122.4	41.559	6.7133e-07	51.176	0.00056322	0.00055671	0.00015507	1379.1	6.0776e-06	6.0859e-06	1379.7	374.56	6.0514e-06	6.0916e-06	428.09	143.67	124.9	43.018	6.1312e-06	53.229	402.930	319.736	196.548	103.958	213.798	271.254	103.909	108.768	282.924	212.618	107.951	112.603	113.154	117.332	192.690	116.599	-8191	255	
955.410	1	1	0	0	0.15448	0.18637	0.13915	0.26931	0.101	0.32162	0.27709	0.30074	0.20123	0.15325	0.087267	0.20905	0.13558	0.046517	0.072719	0.17023	-4.4	-5.0771	-4.1583	-5.15	-5.0417	-4.5458	-5.475	-4.8396	-4.6375	-5.2583	-4.4896	-5.1104	-5.2562	-4.4417	-5.2188	-4.7083	109.088	362.266	346.528	437.542	280.539	280.137	406.936	412.359	211.451	391.532	314.278	180.245	139.599	138.501	99.843	372.927	0.0019785	0.00022838	0.00028738	1354.3	6.0779e-06	7.6918e-06	1352.3	366.52	2.3229e-06	2.2898e-06	417.72	140.93	121.65	41.688	4.9434e-06	51.54	0.00056565	0.00056043	0.0001559	1380.4	6.1082e-06	6.1037e-06	1380.5	375.13	6.0992e-06	6.0887e-06	427.44	143.71	124.83	43.015	6.115e-06	53.179	391.353	179.584	190.724	103.750	254.370	243.673	103.872	108.788	221.750	380.191	108.080	112.477	113.089	117.722	97.611	116.747	-8191	255	
955.508	1	1	0	0	0.30325	0.13449	0.095392	0.295	0.2629	0.15394	0.13701	0.11611	0.24555	0.17892	0.011034	0.039979	0.2809	0.17699	0.12097	0.36472	-4.2625	-5.2188	-4.4146	-5.0292	-5.2458	-4.4354	-5.1833	-4.8708	-4.4667	-5.3083	-4.4854	-5.0479	-5.3208	-4.5667	-5.2937	-5.0396	324.195	223.167	362.444	94.466	110.340	209.484	441.205	129.936	368.074	231.857	354.904	289.296	297.564	369.381	420.927	425.694	0.0015587	0.00031833	0.00010342	1350.3	1.9085e-06	9.4672e-06	1352.7	366.47	9.5307e-06	2.3511e-06	417.92	140.6	122.27	41.516	6.4997e-06	51.356	0.00056144	0.00055472	0.00015486	1381.3	6.0893e-06	6.1212e-06	1378.4	374.56	6.1071e-06	6.1004e-06	427.55	143.71	124.91	42.923	6.0588e-06	53.095	404.050	237.395	156.355	104.138	241.267	278.499	103.766	109.020	165.588	121.450	108.173	112.754	113.408	117.683	215.694	116.577	-8191	255	
955.602	1	1	0	0	0.05457	0.15254	0.085981	0.27887	0.20751	0.034769	0.3604	0.12167	0.19698	0.13575	0.28012	0.33587	0.065741	0.10564	0.079574	0.11539	-4.175	-5.2708	-4.5188	-4.8854	-5.1792	-4.3229	-5.3958	-5.1708	-4.5646	-5.5396	-4.5958	-4.8083	-5.1854	-4.6104	-4.9187	-5.0667	296.340	154.110	229.904	434.959	295.371	320.132	382.251	183.495	127.471	274.361	424.210	383.927	345.837	149.875	357.666	358.167	0.0018012	0.00042519	0.00017368	1350.6	1.7548e-06	5.172e-06	1351.9	367	4.9043e-06	2.8334e-06	415.97	140.96	122.45	41.52	5.6426e-06	51.244	0.00055892	0.00055325	0.00015466	1379.7	6.0595e-06	6.069e-06	1379.5	374.76	6.1203e-06	6.0894e-06	427.54	143.67	124.91	42.983	6.0645e-06	53.19	392.437	99.422	120.126	104.068	339.835	201.418	103.832	108.830	221.799	273.689	108.011	112.709	113.191	117.763	232.992	116.755	-8191	255	
955.698	1	1	0	0	0.13747	0.069511	0.13992	0.15965	0.029733	0.21702	0.066252	0.10736	0.13901	0.12744	0.3015	0.13232	0.20717	0.30847	0.083105	0.23571	-4.0979	-5.3979	-4.775	-4.75	-5.2542	-4.4146	-5.2208	-5.3125	-4.3708	-5.3417	-4.8688	-4.7208	-5.325	-4.3229	-4.9083	-5.3521	114.634	347.933	348.304	430.924	230.652	256.365	360.518	226.509	415.615	101.851	298.047	413.827	365.834	115.983	147.770	295.868	0.0016316	0.00072192	0.0001046	1350.7	5.5734e-06	2.3328e-06	1352.1	365.06	2.1566e-06	2.7915e-06	417.37	140.72	122.06	41.552	2.8181e-06	50.891	0.00056157	0.00055629	0.00015379	1379.6	6.0646e-06	6.0813e-06	1378.8	373.98	6.063e-06	6.0494e-06	427.42	143.65	124.71	42.979	6.0345e-06	53.097	396.036	172.394	185.389	104.097	152.297	333.895	103.687	108.782	373.164	260.441	108.351	112.253	113.150	117.580	158.470	116.678	-8191	255	
955.819	1	1	0	0	0.057099	0.13158	0.092802	0.2669	0.073623	0.27017	0.16604	0.23938	0.078808	0.079346	0.1039	0.33666	0.19497	0.082317	0.11876	0.077073	-4.1854	-5.0146	-4.7229	-4.8021	-5.3958	-4.4604	-4.9792	-5.3167	-4.5083	-5.0833	-4.8271	-4.5292	-5.3792	-4.8104	-4.6062	-5.4333	130.680	209.475	415.892	303.191	402.315	419.994	391.205	408.197	101.791	270.710	372.421	417.183	413.024	385.225	139.161	386.323	0.0017635	0.00064582	0.00025375	1349.1	5.3155e-06	8.3394e-06	1352.4	366.38	8.6112e-06	2.5318e-06	415.7	141.14	122.36	41.55	2.2543e-06	51.696	0.00056158	0.00055187	0.00015344	1379.6	6.0075e-06	6.0422e-06	1378	374.33	6.0357e-06	6.0481e-06	426.71	143.62	124.82	42.939	6.0862e-06	53.274	395.866	204.218	149.954	104.075	212.676	170.967	103.595	108.892	199.120	284.844	108.041	112.625	113.328	117.682	155.092	116.806	-8191	255	
955.915	1	1	0	0	0.12302	0.073584	0.15381	0.15915	0.0031694	0.1403	0.1256	0.23382	0.16998	0.1527	0.028528	0.23821	0.14929	0.29117	0.18822	0.23483	-3.9354	-5.0542	-4.9979	-4.6375	-5.0917	-4.5813	-5.0229	-5.5208	-4.5	-5.0208	-5.2479	-4.3729	-5.1687	-4.6875	-4.5458	-5.3167	309.999	438.132	413.271	367.931	341.097	169.406	395.306	396.167	145.035	274.779	432.585	127.155	120.500	449.225	312.296	348.245	0.0018575	0.0001678	0.0002438	1353.7	1.1279e-05	5.1232e-06	1356	367.09	5.7276e-06	2.062e-06	416.76	140.13	122.05	41.717	3.6574e-06	51.111	0.00055867	0.00055529	0.0001538	1379.4	6.0736e-06	6.0824e-06	1379.9	374.73	6.0946e-06	6.0785e-06	427.8	143.4	124.92	43.049	6.158e-06	53.238	388.360	447.351	435.767	104.082	156.637	257.922	103.749	108.945	263.804	242.061	108.223	112.689	113.180	117.326	320.602	116.934	-8191	255	
956.011	1	1	0	0	0.053241	0.14967	0.087149	0.045901	0.047939	0.12288	0.17177	0.14383	0.19032	0.043883	0.063908	0.045343	0.13752	0.087105	0.14852	0.33119	-4.1083	-4.9917	-4.9917	-4.4646	-5.0354	-4.7896	-4.7875	-5.3938	-4.4667	-4.9146	-5.2604	-4.5146	-5.1875	-4.8562	-4.3333	-5.475	102.235	171.546	138.351	401.362	326.253	440.763	396.619	190.472	429.986	150.309	432.646	321.977	98.276	346.938	283.929	389.585	0.0014122	0.00054744	0.00021236	1349.3	1.5478e-05	6.9385e-06	1355.2	366.49	2.9424e-06	9.1173e-07	417.58	140.26	122.09	41.474	5.2965e-06	51.26	0.00056875	0.00055941	0.00015682	1381.6	6.1733e-06	6.1604e-06	1379.5	374.91	6.1568e-06	6.1415e-06	428.44	143.71	124.8	42.977	6.1832e-06	53.271	377.894	185.890	178.421	103.931	191.643	178.982	103.807	108.738	277.936	368.670	108.305	112.399	112.978	117.545	211.628	116.661	-8191	255	
956.107	1	1	0	0	0.11729	0.15433	0.11834	0.4237	0.2021	0.077726	0.20339	0.22271	0.13913	0.080248	0.20385	0.040007	0.14184	0.081584	0.045801	0.091419	-4.1479	-4.7896	-5.2104	-4.5312	-5.0687	-4.8625	-4.6625	-5.4812	-4.4	-4.6646	-5.3521	-4.4792	-5.3271	-5.1104	-4.3979	-5.3	171.133	156.223	329.786	443.589	287.923	398.206	409.810	340.637	317.708	313.255	448.468	320.378	390.215	436.527	417.359	385.041	0.0016932	0.00015248	0.00036468	1350.1	3.6687e-06	5.5412e-06	1351.5	365.36	8.2835e-06	1.5238e-06	416.46	141.16	121.9	41.509	3.9049e-06	51.442	0.00056676	0.0005683	0.00015701	1381.7	6.1863e-06	6.1944e-06	1379	374.83	6.203e-06	6.2029e-06	428.16	143.84	125.17	43.078	6.1816e-06	53.332	398.867	435.307	185.967	104.054	236.531	195.402	103.790	108.750	233.349	105.622	108.224	112.673	113.043	117.614	215.242	116.985	-8191	255	
956.179	1	1	0	0	0.14226	0.18532	0.19675	0.24858	0.074714	0.10572	0.19731	0.10916	0.11847	0.21188	0.11133	0.052136	0.11446	0.13625	0.03188	0.12037	-4.1813	-4.5167	-5.1396	-4.4979	-5.0042	-4.9458	-4.7646	-5.5813	-4.475	-4.6646	-5.4083	-4.5625	-5.2104	-5.2625	-4.3833	-5.3771	223.434	246.278	338.743	375.136	449.115	169.356	418.289	326.868	255.552	171.345	119.107	433.967	181.148	450.770	286.569	325.867	0.0017111	0.00059185	0.00015451	1353.6	8.7813e-06	6.6504e-06	1353.9	367.2	1.5059e-05	6.1762e-06	418.53	140.54	122.27	41.592	2.4937e-06	51.551	0.000569	0.00056459	0.00015656	1381.4	6.1423e-06	6.1236e-06	1380.4	375.21	6.1254e-06	6.1427e-06	428.31	143.74	125.25	43.07	6.1529e-06	53.311	387.667	142.521	93.636	104.118	198.367	227.232	103.863	108.830	242.630	307.370	108.194	112.842	113.402	117.693	202.409	116.876	-8191	255	
956.300	1	1	0	0	0.069046	0.10991	0.1172	0.12895	0.1824	0.17438	0.30169	0.26063	0.17686	0.17889	0.25773	0.39276	0.16875	0.062951	0.13718	0.32079	-4.4292	-4.55	-5.175	-4.6813	-4.9146	-5.0813	-4.6292	-5.4208	-4.8479	-4.5083	-5.3896	-4.675	-5.0312	-5.2729	-4.2958	-5.4229	361.105	409.863	192.874	124.989	322.558	274.375	438.661	116.156	110.754	220.415	332.876	379.026	155.476	262.182	279.078	358.054	0.0015473	0.0003783	0.00022211	1346.7	9.2559e-06	1.8038e-06	1353.4	367.49	2.5829e-06	4.3639e-06	415.69	140.67	122.11	41.76	1.1667e-05	50.988	0.0005698	0.0005621	0.00015716	1381.2	6.1577e-06	6.1772e-06	1379.4	375.79	6.1725e-06	6.162e-06	428.42	143.61	124.97	43.122	6.1211e-06	53.08	403.393	220.421	249.128	104.237	218.712	239.411	103.831	108.998	217.386	208.452	108.169	112.639	113.310	117.693	220.252	116.778	-8191	255	
956.396	1	1	0	0	0.10543	0.14002	0.19686	0.36254	0.25316	0.051033	0.39432	0.24718	0.090042	0.10375	0.15342	0.15935	0.047848	0.21844	0.054372	0.13439	-4.5896	-4.4104	-5.4458	-4.6792	-4.7854	-5.3708	-4.6542	-5.0646	-4.8812	-4.2104	-5.2667	-4.6813	-4.8417	-5.35	-4.3375	-5.0375	217.665	157.630	118.969	401.193	264.202	104.109	410.810	379.046	445.222	247.527	426.592	402.953	132.242	389.362	365.418	355.095	0.0018515	0.00037911	7.3535e-05	1352.9	7.9247e-06	7.7648e-06	1353.5	366.59	7.379e-06	3.4313e-06	417.63	140.68	121.69	41.428	7.4567e-06	51.617	0.00056599	0.00056297	0.00015541	1381.6	6.1594e-06	6.145e-06	1381.3	375.23	6.1729e-06	6.1385e-06	428.06	143.9	124.91	43.008	6.078e-06	53.339	385.673	167.921	224.171	104.140	447.004	218.334	103.561	108.800	331.863	222.969	108.169	112.716	113.083	117.713	168.523	116.664	-8191	255	
956.492	1	1	0	0	0.12301	0.12592	0.29871	0.092705	0.14052	0.19476	0.27888	0.25023	0.28593	0.20665	0.066885	0.21771	0.18481	0.053963	0.30995	0.085519	-4.6271	-4.3354	-5.1542	-4.8854	-4.6917	-5.2292	-4.4437	-5.0271	-5.0354	-4.4542	-5.5083	-4.9563	-4.5062	-5.5625	-4.5333	-4.9417	268.305	301.911	249.352	442.251	256.428	326.647	357.563	386.376	297.148	96.066	370.654	173.855	126.440	440.627	433.234	288.025	0.001686	0.00086131	8.2416e-05	1348.1	2.2078e-06	8.5184e-06	1353.4	367.6	1.5101e-05	6.8426e-07	416.02	141.58	122.28	41.379	6.8395e-06	51.56	0.00056031	0.00055805	0.00015504	1378.9	6.0868e-06	6.052e-06	1380.3	375.55	6.0608e-06	6.0707e-06	427.77	143.72	124.85	42.992	6.0972e-06	53.233	383.131	216.186	239.610	104.096	178.097	222.792	104.046	108.903	247.746	179.622	108.142	112.693	113.261	117.713	172.025	116.715	-8191	255	
956.588	1	1	0	0	0.16771	0.13375	0.13248	0.105	0.025087	0.088983	0.26143	0.20777	0.12442	0.25282	0.062339	0.12428	0.24314	0.21791	0.052431	0.15265	-4.8854	-4.3146	-5.0687	-5.0042	-4.475	-5.3042	-4.8042	-4.9146	-5.2	-4.3438	-5.3708	-5.125	-4.475	-5.4854	-4.5333	-4.7854	92.296	307.811	348.304	96.483	425.187	308.790	355.990	375.685	415.617	293.392	109.987	432.833	132.594	385.403	291.781	169.968	0.0018027	0.00029111	0.00020909	1352.9	8.4349e-06	3.9361e-06	1356.7	366.82	3.5391e-06	1.6267e-06	415.8	140.19	121.84	41.651	9.8481e-06	51.5	0.00056175	0.00056254	0.00015548	1383.8	6.1646e-06	6.1768e-06	1382.3	375.32	6.1569e-06	6.1891e-06	427.25	143.61	124.84	43.068	6.1418e-06	53.28	383.581	197.774	119.031	104.042	169.001	282.351	103.955	108.959	263.253	107.793	108.226	112.839	113.172	117.752	202.150	116.974	-8191	255	
956.707	1	1	0	0	0.10258	0.25665	0.14669	0.37879	0.1024	0.27364	0.19509	0.20506	0.077717	0.158	0.17217	0.1374	0.16107	0.26169	0.094371	0.030546	-5.125	-4.2479	-4.9583	-5.0229	-4.3958	-5.3854	-5.0042	-4.6813	-5.2688	-4.4062	-5.1125	-5.0167	-4.4542	-5.3104	-4.7083	-4.7479	160.155	164.041	336.396	415.546	174.040	354.831	407.719	436.994	135.206	380.884	315.673	352.286	97.408	438.547	433.729	298.719	0.0014655	0.00047203	0.00020234	1352.9	5.1296e-06	1.4087e-06	1355.2	367.22	1.7424e-05	4.0968e-06	416.84	141.08	122.02	41.553	8.053e-06	51.278	0.00056208	0.00055572	0.0001547	1380.1	6.0829e-06	6.0893e-06	1379.8	375.02	6.1033e-06	6.1156e-06	428.28	144	124.98	43.096	6.0981e-06	53.34	400.048	189.581	169.512	104.244	262.803	182.599	103.812	108.650	262.198	327.343	108.352	112.889	112.968	117.507	188.332	116.878	-8191	255	
956.780	1	1	0	0	0.045395	0.24221	0.15607	0.13178	0.030391	0.21542	0.26746	0.23591	0.18995	0.16245	0.22806	0.079919	0.016062	0.22686	0.23328	0.10959	-5.15	-4.4458	-4.9667	-5.3	-4.3896	-5.1771	-4.9604	-4.6438	-5.4688	-4.5729	-4.9958	-5.2417	-4.4479	-5.2562	-4.7729	-4.7708	429.498	302.100	244.859	357.537	122.272	139.698	317.959	344.072	97.897	306.259	110.427	333.595	337.280	380.546	159.346	234.762	0.0017865	0.00036689	8.6754e-05	1348.5	4.2684e-06	4.9827e-06	1353.5	367.17	1.4218e-05	6.0322e-06	417.61	141.22	122.41	41.433	3.1405e-06	51.367	0.00055834	0.00055753	0.00015508	1380.5	6.1451e-06	6.1091e-06	1379.7	374.97	6.0966e-06	6.1539e-06	428.48	144.14	125.21	43.093	6.1345e-06	53.301	385.084	212.484	180.041	104.212	207.951	224.769	104.043	108.854	221.944	213.810	108.261	112.929	113.304	117.968	422.070	116.700	-8191	255	
956.899	1	1	0	0	0.099428	0.40467	0.13875	0.17602	0.087295	0.35253	0.36134	0.15049	0.16652	0.1413	0.14162	0.15729	0.20214	0.23888	0.30234	0.16374	-5.1729	-4.5312	-4.925	-5.275	-4.2417	-5.1458	-5.1896	-4.8187	-5.2667	-4.3646	-4.7396	-5.4646	-4.6188	-5.1271	-4.8146	-4.5396	183.485	418.990	326.767	442.021	311.343	259.315	378.876	110.881	111.626	430.574	288.357	107.141	430.070	194.513	438.312	290.728	0.0018523	0.00097315	3.1501e-05	1356.4	4.2772e-06	9.6933e-06	1354.9	368.06	5.3028e-06	3.2603e-06	416.72	140.78	122.09	41.564	7.9777e-06	51.423	0.00057304	0.00056537	0.00015844	1383.4	6.2157e-06	6.1723e-06	1381.6	375.78	6.1746e-06	6.1882e-06	428.17	143.79	125.13	43.075	6.1253e-06	53.315	403.570	272.334	433.285	104.136	202.799	248.420	103.833	108.788	412.083	220.442	108.030	112.872	112.990	117.642	219.097	116.596	-8191	255	
956.996	1	1	0	0	0.12702	0.20921	0.044203	0.25087	0.11816	0.126	0.24721	0.32966	0.25344	0.10434	0.094521	0.28748	0.18293	0.14851	0.10398	0.16854	-5.0271	-4.6708	-4.7812	-5.3354	-4.1167	-4.9354	-5.3208	-4.6188	-5.3146	-4.7146	-4.6479	-5.4667	-4.5146	-4.8375	-4.8083	-4.575	189.874	184.663	238.417	407.945	234.242	330.031	388.454	366.577	115.474	378.996	194.151	109.110	430.987	131.406	186.601	395.776	0.0017725	0.00027158	0.00018375	1356.1	9.0653e-06	2.5722e-06	1351.5	365.56	1.4694e-05	3.8118e-06	416.79	140.71	122.12	41.69	8.2871e-06	51.3	0.00056331	0.00055873	0.00015631	1381.9	6.0912e-06	6.0982e-06	1380.1	374.43	6.0759e-06	6.0769e-06	427.79	143.63	124.79	43.07	6.0623e-06	53.151	399.543	190.778	356.132	104.235	210.653	262.340	104.066	108.828	237.830	261.530	108.175	112.853	113.315	117.797	130.017	116.550	-8191	255	
957.092	1	1	0	0	0.28589	0.084771	0.097131	0.21712	0.025785	0.40081	0.1894	0.051606	0.19186	0.038124	0.30064	0.061988	0.26797	0.084872	0.13172	0.19064	-4.8938	-4.8333	-4.4812	-5.5646	-4.4521	-4.6813	-5.4292	-4.4958	-5.1708	-4.65	-4.725	-5.4729	-4.5979	-4.7542	-5.1646	-4.5521	380.822	367.852	315.883	107.060	314.926	124.479	414.540	404.727	168.523	136.845	101.016	374.267	417.075	434.951	166.754	324.227	0.0021089	0.00069043	0.0002153	1354.2	2.8703e-06	2.9645e-06	1349.8	366.83	1.1014e-05	5.3201e-06	415.77	141.6	122.92	41.749	9.8805e-06	51.288	0.00055476	0.00055444	0.00015366	1380.9	6.034e-06	6.0522e-06	1378.3	374.39	6.0448e-06	6.061e-06	427.46	144.09	125.01	43.092	6.0796e-06	53.226	398.270	135.942	223.650	104.152	258.452	328.577	103.934	108.788	184.655	198.441	108.201	112.786	113.338	117.539	150.382	116.603	-8191	255	
957.188	1	1	0	0	0.18177	0.13335	0.23041	0.28205	0.27623	0.10182	0.11324	0.1224	0.16843	0.1177	0.28126	0.044779	0.19202	0.30696	0.02063	0.13464	-4.9625	-4.8958	-4.4208	-5.45	-4.4875	-4.6375	-5.5729	-4.6542	-5.0417	-4.7688	-4.5542	-5.2875	-4.8771	-4.7875	-5.175	-4.5333	354.183	215.748	346.062	429.623	369.004	301.972	380.595	397.667	93.878	186.823	397.281	429.424	397.773	158.529	332.323	179.787	0.0017927	0.00074385	0.00021574	1350.3	1.0177e-05	4.7985e-06	1354.6	366.02	5.5686e-06	4.7043e-06	416.86	140.75	122.06	41.496	1.309e-06	51.162	0.00055903	0.00055725	0.00015552	1380.6	6.0995e-06	6.1248e-06	1380	374.81	6.1027e-06	6.1292e-06	428	143.73	124.92	43.03	6.075e-06	53.179	389.510	196.063	435.254	104.325	216.575	319.982	103.977	108.798	177.061	254.797	108.153	112.615	113.143	117.856	214.169	116.555	-8191	255	
957.308	1	1	0	0	0.24829	0.10053	0.09444	0.33604	0.22788	0.10335	0.08603	0.27272	0.090721	0.10903	0.23441	0.13157	0.16713	0.042259	0.16202	0.29946	-4.5188	-5.0042	-4.5479	-5.3	-4.6354	-4.6333	-5.6333	-4.5833	-5.0146	-5.1417	-4.5375	-5.3583	-4.7167	-4.4042	-5.2292	-4.6771	213.216	273.914	109.840	375.241	213.037	367.974	430.963	396.929	308.834	299.353	374.053	189.411	342.737	125.602	388.316	403.199	0.001855	0.0003915	0.00014401	1350.2	5.7023e-06	5.1766e-06	1355.3	365.84	1.0315e-05	2.1187e-06	417.57	140.38	122.36	41.593	5.0551e-06	51.337	0.00056182	0.00055336	0.00015506	1380.4	6.063e-06	6.0824e-06	1380.9	374.65	6.0789e-06	6.1165e-06	428.47	143.91	125.2	43.079	6.1458e-06	53.279	394.219	290.919	147.127	103.936	143.375	189.087	103.894	108.960	248.889	307.818	108.182	112.943	113.363	117.726	172.020	116.585	-8191	255	
957.403	1	1	0	0	0.24088	0.12987	0.031813	0.069847	0.1125	0.15222	0.25713	0.1229	0.096382	0.0625	0.13272	0.071997	0.25688	0.13244	0.13254	0.15531	-4.5833	-5.2562	-4.4042	-5.2917	-4.7688	-4.4167	-5.6271	-4.7521	-4.8083	-5.2208	-4.4792	-5.3958	-4.9646	-4.5292	-5.2979	-4.6958	246.559	108.282	182.338	161.613	136.392	297.438	344.665	422.189	216.017	380.630	405.946	378.273	443.660	432.608	134.704	420.765	0.0017586	3.3823e-06	0.00032357	1358.2	7.9425e-06	3.1037e-06	1361.5	366.61	7.711e-06	9.1723e-06	417.8	140.79	122.26	41.669	5.227e-06	51.239	0.00056428	0.00056272	0.00015675	1385.6	6.1569e-06	6.1361e-06	1384.2	375.37	6.1696e-06	6.1739e-06	428.81	144.11	125.34	43.193	6.1744e-06	53.375	394.595	330.111	128.112	104.230	228.040	303.546	103.861	108.989	268.302	196.030	108.562	112.756	113.337	117.706	260.799	117.105	-8191	255	
957.501	1	1	0	0	0.11715	0.092116	0.2332	0.066291	0.19164	0.21284	0.096919	0.29819	0.1086	0.074906	0.1329	0.11393	0.084925	0.076081	0.042734	0.11867	-4.6083	-5.3438	-4.4563	-5.2229	-5.0167	-4.3	-5.525	-4.8167	-4.8	-5.2937	-4.2708	-5.1188	-5.2146	-4.4417	-5.2292	-4.7583	112.657	230.636	422.730	330.076	98.496	235.643	158.253	423.204	169.821	225.526	428.367	345.572	91.608	425.070	314.198	412.425	0.0017227	2.7713e-05	9.7505e-05	1353	4.0796e-06	3.0594e-06	1353.6	367.09	3.4178e-06	7.0896e-06	417.88	140.59	121.9	41.652	4.9693e-06	51.586	0.00057254	0.00056892	0.00015822	1386.4	6.2269e-06	6.2391e-06	1383.6	375.82	6.2989e-06	6.2996e-06	429.71	144.42	125.49	43.24	6.3049e-06	53.524	396.435	155.799	403.760	104.287	256.004	175.799	104.056	108.950	318.307	158.204	108.205	112.785	113.469	118.015	225.199	117.021	-8191	255	
957.595	1	1	0	0	0.15915	0.29366	0.031392	0.21627	0.079652	0.19487	0.31041	0.14105	0.076244	0.14359	0.058669	0.36488	0.060104	0.073631	0.17499	0.13951	-4.1583	-5.3646	-4.525	-4.9146	-5.0542	-4.4313	-5.45	-4.9688	-4.3917	-5.2375	-4.7229	-4.9354	-5.2875	-4.5271	-5.1062	-5.1229	231.951	255.034	320.114	378.119	172.504	216.359	390.422	373.045	338.445	409.052	269.370	335.022	318.263	401.654	367.576	343.337	0.0020763	0.00026861	0.00030357	1355.3	1.5307e-05	8.1379e-06	1358	369.07	1.6835e-05	5.9864e-06	417.29	141.8	121.95	41.674	1.0753e-05	51.529	0.00058355	0.00057653	0.00015992	1387.9	6.2782e-06	6.3154e-06	1386.8	376.66	6.3115e-06	6.2676e-06	430.44	144.57	125.72	43.238	6.275e-06	53.437	392.823	198.824	224.034	104.237	229.142	214.200	104.013	109.006	206.287	252.572	108.277	112.930	113.079	117.837	206.302	116.969	-8191	255	
957.691	1	1	0	0	0.11349	0.038791	0.067564	0.22091	0.33116	0.1922	0.34032	0.027907	0.058163	0.18669	0.3059	0.10884	0.17731	0.28139	0.21143	0.34317	-4.0021	-5.2479	-4.5813	-5.1229	-5.1958	-4.3896	-5.2042	-5.0938	-4.3896	-5.2646	-4.8125	-4.8167	-5.3812	-4.4979	-4.9708	-5.1083	362.457	400.660	390.442	112.606	310.845	192.850	351.356	358.502	157.594	318.418	397.595	365.127	444.067	204.010	187.764	159.109	0.001424	0.00099828	0.00012964	1358.1	8.6942e-06	3.7838e-06	1354.3	367.37	7.6954e-06	2.9809e-06	418.02	141.03	121.77	41.511	8.1627e-06	51.334	0.00057585	0.00056964	0.00015815	1387.4	6.2533e-06	6.2592e-06	1386.2	376.19	6.268e-06	6.2785e-06	429.58	144.52	125.37	43.248	6.2667e-06	53.372	394.820	158.590	161.552	104.122	191.872	163.549	104.136	108.892	252.704	214.336	108.217	112.995	113.318	117.748	200.468	116.981	-8191	255	
957.787	1	1	0	0	0.036069	0.047167	0.15497	0.20546	0.063579	0.19801	0.29413	0.33194	0.07274	0.05415	0.18476	0.13578	0.36234	0.32325	0.14282	0.1913	-4.1979	-5.3646	-4.6854	-4.7729	-5.2333	-4.4563	-5.2229	-5.2271	-4.3729	-5.2208	-4.9521	-4.7458	-5.3313	-4.3604	-4.7542	-5.2833	99.141	233.279	326.866	198.891	309.507	295.866	336.301	108.042	142.916	417.231	429.182	220.666	350.060	418.065	370.042	361.303	0.0013848	0.00042219	6.3871e-05	1354.5	7.7522e-06	9.5357e-06	1358.2	367.29	9.6426e-06	3.0293e-06	418.36	141.25	122.63	41.599	1.2403e-05	51.409	0.00057957	0.00057244	0.00015853	1387.1	6.2879e-06	6.2684e-06	1386.9	376.23	6.2909e-06	6.2522e-06	429.82	144.4	125.54	43.196	6.2287e-06	53.456	396.548	301.672	412.978	104.223	173.558	139.814	103.981	108.972	233.063	226.445	108.243	112.899	113.480	117.569	218.124	116.770	-8191	255	
957.884	1	1	0	0	0.048747	0.20652	0.14177	0.10955	0.16135	0.23243	0.2328	0.078287	0.24112	0.041817	0.19223	0.19875	0.2113	0.10032	0.10019	0.24574	-4.1438	-5.2229	-4.8417	-4.4604	-5.3333	-4.5813	-5.0979	-5.2042	-4.2917	-5.1479	-4.9458	-4.6771	-5.3021	-4.4271	-4.6917	-5.5375	343.243	424.279	442.372	397.290	434.538	280.991	356.323	163.442	338.779	354.866	351.194	343.770	408.916	92.723	230.365	97.122	0.0019135	0.00044175	0.00019644	1351.8	7.92e-06	6.6559e-06	1358.6	367.91	1.2211e-05	3.2699e-06	418.14	141.07	122.71	41.728	3.5197e-06	51.692	0.00057574	0.00057116	0.00015884	1385.2	6.2835e-06	6.2546e-06	1386.5	376.27	6.2639e-06	6.2791e-06	429.97	144.52	125.68	43.235	6.2334e-06	53.561	382.813	309.040	191.311	104.334	152.427	203.238	103.908	109.002	265.753	420.877	108.437	112.862	113.294	117.806	262.178	116.741	-8191	255	
958.004	1	1	0	0	0.10019	0.029957	0.13598	0.16809	0.1845	0.15157	0.21017	0.18031	0.16961	0.11745	0.15529	0.13966	0.28025	0.0663	0.2319	0.092022	-4.0458	-5.1708	-4.8438	-4.6646	-5.3229	-4.7167	-4.8313	-5.4375	-4.4313	-4.8896	-5.125	-4.4437	-5.2396	-4.8812	-4.7021	-5.4479	122.895	417.681	256.839	420.352	162.546	188.574	405.733	372.678	436.504	409.867	423.303	152.762	385.031	117.404	330.260	214.977	0.0017209	0.0005779	0.00020194	1353.2	5.789e-06	1.8399e-06	1354.6	366.58	1.0901e-05	2.4592e-06	417.09	141.5	122.56	41.692	6.4554e-06	51.269	0.00057451	0.00057037	0.00015879	1385.4	6.2458e-06	6.2376e-06	1384.4	375.89	6.2244e-06	6.2428e-06	429.24	144.65	125.52	43.275	6.2886e-06	53.473	391.001	217.518	146.641	104.389	248.570	322.339	104.043	108.990	278.748	391.342	108.383	113.037	113.369	117.797	201.519	116.850	-8191	255	
958.076	1	1	0	0	0.06695	0.2068	0.10692	0.34922	0.10149	0.21617	0.0049638	0.20765	0.13206	0.03797	0.040225	0.24114	0.26175	0.2047	0.073206	0.25534	-4.0896	-4.8667	-5.2292	-4.5396	-5.1813	-4.7292	-4.6937	-5.4187	-4.3521	-4.9146	-5.3667	-4.4563	-5.1958	-4.8187	-4.4417	-5.3833	176.251	277.870	396.404	399.808	117.297	443.660	334.335	357.318	362.867	117.361	263.915	114.432	112.472	91.243	189.192	411.715	0.002061	0.00060655	0.00017048	1355.2	5.8142e-06	2.7272e-06	1357.6	367.09	6.413e-06	8.6392e-06	416.91	141.67	122.83	41.82	2.1806e-06	51.312	0.00057668	0.00057464	0.00015995	1387.4	6.2435e-06	6.2613e-06	1385.1	376.58	6.2643e-06	6.2673e-06	428.88	144.88	125.56	43.264	6.2787e-06	53.486	393.079	160.605	177.251	104.317	175.667	225.639	103.825	109.101	350.700	267.437	108.439	112.715	113.213	117.725	250.023	117.105	-8191	255	
958.172	1	1	0	0	0.20757	0.089351	0.11144	0.23691	0.23606	0.19561	0.27433	0.20927	0.10798	0.014834	0.25715	0.16095	0.051229	0.093345	0.092596	0.16072	-3.9854	-4.825	-5.2729	-4.5062	-5.1271	-4.8292	-4.7229	-5.5792	-4.5854	-4.6	-5.3438	-4.3938	-5.2604	-4.9812	-4.3229	-5.3542	349.129	170.721	218.457	411.350	382.688	115.220	377.432	405.529	324.708	285.069	432.925	395.113	412.791	129.775	171.324	384.599	0.0019449	0.00068616	0.000231	1350.9	1.4188e-06	5.1215e-06	1354.4	367.59	6.4104e-06	1.5248e-07	417.57	141.66	122.48	41.75	2.1913e-06	51.669	0.00057746	0.00057685	0.00015941	1384.7	6.3073e-06	6.2675e-06	1384.2	376.6	6.2822e-06	6.2908e-06	429.71	144.49	125.82	43.282	6.3071e-06	53.579	389.527	236.937	218.355	104.248	384.849	208.531	103.934	109.212	272.168	308.843	108.524	112.789	113.220	117.769	186.281	116.900	-8191	255	
958.268	1	1	0	0	0.2627	0.17306	0.24377	0.35497	0.026498	0.18809	0.11269	0.23428	0.14096	0.15605	0.24218	0.10345	0.11321	0.080446	0.11776	0.19916	-4.2771	-4.7312	-5.2438	-4.5167	-5.0375	-4.9688	-4.5	-5.3458	-4.7396	-4.6562	-5.2146	-4.6333	-5.0625	-5.1354	-4.2417	-5.2188	324.293	300.685	339.978	118.303	357.033	364.974	98.707	304.061	127.285	116.741	357.508	353.795	386.334	228.647	344.235	397.665	0.0017028	0.00044075	0.00016494	1352.9	7.41e-06	5.3297e-06	1354.6	368.41	7.9031e-06	2.6719e-06	417.08	140.67	122.27	41.697	8.7009e-06	51.556	0.00057845	0.00057474	0.00015911	1385.5	6.242e-06	6.2363e-06	1385.2	376.64	6.2537e-06	6.2863e-06	429.69	144.38	125.56	43.223	6.2591e-06	53.528	395.736	101.307	238.049	104.275	152.697	299.814	104.025	109.203	154.905	271.622	108.441	112.743	113.373	117.461	390.328	115.415	-8191	255	
958.389	1	1	0	0	0.038937	0.14304	0.24395	0.16364	0.15638	0.11503	0.063423	0.28758	0.090117	0.059386	0.28645	0.052363	0.04958	0.18969	0.14843	0.26427	-4.3104	-4.5646	-5.2479	-4.5042	-4.9021	-5.1396	-4.5417	-5.1167	-4.8187	-4.6958	-5.3854	-4.5563	-4.7625	-5.1813	-4.3396	-5.2562	338.608	257.223	137.343	401.395	342.943	195.512	291.777	385.141	147.205	342.119	398.814	375.502	329.582	369.636	165.395	387.812	0.0021629	0.0010074	3.9547e-05	1349.1	2.3129e-06	2.3648e-06	1351.8	365.91	1.2815e-05	4.28e-06	416.64	140.53	122.18	41.468	8.6483e-06	51.583	0.00057761	0.000576	0.00015958	1384.2	6.2961e-06	6.2729e-06	1384.7	376.02	6.2716e-06	6.3031e-06	429.77	144.32	125.73	43.222	6.3604e-06	53.574	400.508	219.939	435.750	102.856	192.272	322.372	102.270	107.485	248.577	130.836	106.795	111.195	111.599	116.200	180.476	115.203	-8191	255	
958.483	1	1	0	0	0.035868	0.04902	0.092586	0.093996	0.079703	0.16979	0.16113	0.074311	0.14295	0.10993	0.17972	0.22683	0.28385	0.19155	0.37532	0.10021	-4.6937	-4.7479	-5.1292	-4.5312	-4.4542	-5.1833	-4.5771	-5.1667	-4.8938	-4.4042	-5.3021	-4.4604	-4.5708	-5.3438	-4.4083	-5.1438	323.795	356.725	132.805	204.365	102.377	116.200	369.689	323.476	330.838	167.465	369.078	419.431	127.518	440.474	214.133	274.200	0.0019873	0.00047791	0.00024757	1352.9	6.9436e-06	7.2772e-06	1354.6	366.97	2.6781e-06	7.0465e-06	417.32	141.12	121.79	41.572	6.3441e-06	51.527	0.00058013	0.000579	0.00015975	1387.1	6.3274e-06	6.3129e-06	1384.8	376.64	6.2744e-06	6.2771e-06	430.34	144.44	125.4	43.268	6.2537e-06	53.481	396.155	195.438	169.837	102.636	190.073	265.728	102.532	107.384	204.285	229.370	106.923	111.307	111.881	116.494	159.780	115.283	-8191	255	
958.581	1	1	0	0	0.091043	0.13982	0.24366	0.25097	0.17126	0.13914	0.2082	0.044432	0.18619	0.15568	0.097034	0.07973	0.19762	0.068517	0.033511	0.070806	-4.6917	-4.3583	-5.1229	-4.725	-4.6188	-5.2312	-4.675	-5.0375	-4.8833	-4.4542	-5.3458	-4.975	-4.7771	-5.4104	-4.3562	-4.8938	124.420	427.884	197.035	396.073	365.738	260.814	443.982	130.300	176.540	310.492	231.000	207.074	381.725	165.475	398.638	256.520	0.0018868	0.00062071	0.00012034	1356	3.3698e-06	5.2598e-06	1351.2	366.8	7.2688e-06	3.8337e-06	416.63	140.87	121.74	41.421	7.2088e-06	51.398	0.00057597	0.00057085	0.00015823	1386.3	6.2094e-06	6.2225e-06	1382.3	376.29	6.1807e-06	6.2154e-06	428.87	144.34	125.05	43.127	6.1565e-06	53.402	390.841	177.782	110.350	102.910	192.631	225.045	102.464	107.410	240.469	157.598	106.712	111.432	111.973	116.500	179.125	115.443	-8191	255	
958.676	1	1	0	0	0.079949	0.14746	0.18129	0.33553	0.13712	0.24352	0.22522	0.085031	0.067348	0.21778	0.049878	0.092365	0.16388	0.045766	0.10827	0.30714	-4.8354	-4.325	-5.2896	-4.9646	-4.4104	-5.2021	-4.6021	-4.9917	-5.1583	-4.3479	-5.2042	-5.0083	-4.4167	-5.4271	-4.4313	-4.8604	357.277	256.088	256.903	413.775	333.020	127.393	393.048	99.300	358.221	203.546	400.857	128.381	184.072	366.126	440.459	116.939	0.0019461	0.0006669	0.00011907	1346.9	5.5437e-06	1.7575e-06	1354.4	364.43	7.7803e-06	5.5236e-06	415.8	140.56	121.73	41.625	1.8812e-06	51.54	0.00056985	0.0005648	0.0001564	1383.3	6.2255e-06	6.2012e-06	1382.5	375.28	6.1864e-06	6.2302e-06	429.13	144.3	125.41	43.138	6.2147e-06	53.505	381.287	247.581	135.004	102.881	155.113	291.569	102.700	107.559	202.898	217.707	106.805	111.341	111.773	116.462	268.789	115.355	-8191	255	
958.772	1	1	0	0	0.05867	0.20506	0.17358	0.33092	0.099253	0.11545	0.25829	0.092186	0.082195	0.13305	0.19184	0.15036	0.17688	0.26512	0.094777	0.26577	-4.9563	-4.5229	-4.9208	-5.025	-4.3688	-5.2854	-4.7792	-4.8083	-5.2896	-4.4979	-5.0229	-4.9979	-4.3313	-5.2417	-4.7	-4.7271	425.176	138.677	427.594	116.731	354.120	128.532	338.860	136.885	279.836	115.293	387.748	400.826	384.122	392.378	264.051	382.954	0.0016649	0.00035836	0.00017245	1350.3	4.1948e-06	2.7599e-06	1350.9	366.44	8.2215e-06	5.7591e-07	416.92	141.32	122.32	41.591	9.4338e-06	51.311	0.00057159	0.00056826	0.00015812	1383.9	6.2177e-06	6.2104e-06	1382.3	375.32	6.2027e-06	6.2127e-06	428.81	144.53	125.32	43.21	6.1991e-06	53.342	394.156	185.809	117.623	102.901	185.378	97.736	102.714	107.296	198.101	248.786	107.071	111.511	111.710	116.375	217.250	115.376	-8191	255	
958.868	1	1	0	0	0.22308	0.15623	0.18585	0.25044	0.055649	0.060189	0.46166	0.21753	0.11686	0.12074	0.1307	0.22788	0.14657	0.0040657	0.19867	0.16868	-5.0125	-4.2021	-4.7708	-5.0646	-4.5083	-5.4021	-4.8021	-4.4333	-5.2208	-4.3271	-4.9667	-5.2021	-4.4042	-5.1312	-4.825	-4.5792	213.788	333.355	320.463	363.456	413.155	359.688	368.799	134.164	153.719	325.352	413.013	417.580	178.678	350.909	287.251	282.882	0.0020707	7.9441e-05	7.2714e-05	1343.1	4.1624e-06	2.6523e-06	1350	367.75	1.0135e-05	6.0549e-06	417.83	140.68	122.08	41.691	3.3531e-06	51.413	0.00057116	0.00056774	0.00015838	1381.3	6.2003e-06	6.1701e-06	1381.4	376.25	6.1695e-06	6.1594e-06	428.9	144.13	124.99	43.157	6.1084e-06	53.415	395.043	313.285	260.461	102.868	200.406	160.887	102.596	107.500	243.051	251.676	106.678	111.352	111.723	116.392	205.155	114.103	-8191	255	
958.988	1	1	0	0	0.047613	0.18857	0.26092	0.24746	0.11869	0.14607	0.18295	0.2688	0.098662	0.16293	0.3161	0.26	0.092785	0.029471	0.23008	0.18308	-4.8479	-4.4542	-4.6542	-5.0792	-4.2542	-5.0333	-4.9479	-4.4875	-5.2146	-4.5	-4.7896	-5.3187	-4.4083	-5.0333	-5.0208	-4.4354	241.979	350.392	329.248	395.626	223.744	91.078	420.869	92.795	94.191	97.325	378.377	424.812	260.177	444.975	280.993	196.757	0.0017305	0.00045167	0.00023546	1347.6	4.3454e-06	3.0072e-06	1347.5	365.96	5.7963e-06	8.065e-06	415.19	140.92	121.99	41.426	7.8829e-06	51.44	0.00056801	0.00056527	0.00015803	1382.2	6.1915e-06	6.2174e-06	1384	375.87	6.2178e-06	6.224e-06	429.14	144.02	125.16	43.121	6.1756e-06	53.462	388.265	241.823	97.952	101.623	207.208	207.464	101.529	106.641	319.269	173.668	106.311	110.691	111.382	115.670	248.696	114.610	-8191	255	
959.085	1	1	0	0	0.016852	0.14129	0.046754	0.15299	0.34813	0.20629	0.24065	0.10085	0.037599	0.057654	0.099661	0.28696	0.1995	0.10228	0.1609	0.20813	-4.8021	-4.6333	-4.6542	-5.2292	-4.275	-5.0021	-5.3708	-4.5	-5.2583	-4.8583	-4.6208	-5.5	-4.3729	-5.1458	-5.1	-4.6083	428.684	314.933	411.754	382.150	154.638	273.255	354.833	338.394	388.102	270.184	180.415	298.183	386.133	424.222	424.956	371.972	0.0014403	0.00031614	8.0493e-05	1345.3	5.1572e-06	3.6485e-06	1352	366.69	1.0604e-05	5.6242e-06	414.86	140.94	122.01	41.601	3.6782e-06	51.298	0.00057374	0.00056515	0.00015836	1383.9	6.2612e-06	6.2831e-06	1384.1	375.74	6.29e-06	6.3329e-06	429.35	144.56	125.59	43.26	6.3144e-06	53.486	402.151	129.487	403.973	102.217	133.882	94.386	102.166	107.141	252.560	168.322	106.492	110.814	111.292	115.943	169.751	114.800	-8191	255	
959.181	1	1	0	0	0.20512	0.07204	0.21182	0.05558	0.10714	0.36457	0.17246	0.13765	0.10828	0.10931	0.12867	0.19696	0.061015	0.12989	0.099717	0.19208	-4.8042	-4.7896	-4.6104	-5.4104	-4.3042	-4.8521	-5.3625	-4.4896	-5.1854	-4.7479	-4.5542	-5.4792	-4.7396	-4.8229	-5.0437	-4.5062	93.072	438.057	272.992	385.753	181.785	173.527	395.709	351.489	249.924	342.370	257.671	432.724	191.867	399.548	216.572	234.488	0.0016616	0.00046414	0.00010861	1349.2	1.0867e-05	4.1375e-06	1356.2	366.64	8.6295e-06	2.3396e-06	417.3	141.61	122.88	41.474	2.2487e-06	51.32	0.00058034	0.0005755	0.00015988	1385.9	6.2791e-06	6.28e-06	1386.2	376.35	6.2674e-06	6.3072e-06	429.86	144.43	125.57	43.249	6.2618e-06	53.503	385.309	198.074	256.411	102.362	201.539	275.613	102.257	107.184	269.894	178.625	106.573	110.786	111.610	116.001	248.061	115.100	-8191	255	
959.301	1	1	0	0	0.12461	0.18702	0.071444	0.28651	0.14296	0.16467	0.034759	0.23478	0.10221	0.094905	0.016535	0.14456	0.097183	0.086623	0.085497	0.050458	-4.8396	-5.0771	-4.5396	-5.5979	-4.5958	-4.8396	-5.3875	-4.4104	-5.0312	-4.7854	-4.6625	-5.3229	-4.8771	-4.7667	-5.3187	-4.6792	91.293	285.841	420.085	92.769	387.358	203.757	238.849	419.297	287.092	234.712	362.050	381.705	322.710	445.367	399.916	253.600	0.0016951	0.00061981	0.00029542	1354.1	8.8543e-06	2.3964e-06	1357.5	366.72	1.0088e-05	3.1684e-07	417.79	141.12	122.5	41.631	6.775e-06	51.609	0.00058082	0.00057271	0.00015951	1384.9	6.2714e-06	6.2549e-06	1386	375.56	6.2984e-06	6.2815e-06	429.93	144.7	125.72	43.336	6.3568e-06	53.645	389.188	200.870	235.086	102.692	214.783	109.615	102.905	107.784	309.297	123.942	106.871	111.526	112.064	116.633	204.561	115.727	-8191	255	
959.373	1	1	0	0	0.15317	0.10098	0.081951	0.059173	0.12855	0.072835	0.27481	0.12463	0.068495	0.12034	0.12003	0.0907	0.12308	0.077524	0.18173	0.082736	-4.8208	-4.95	-4.3083	-5.5104	-4.6854	-4.6646	-5.5125	-4.5417	-4.8375	-5.1604	-4.6208	-5.4792	-4.9208	-4.5792	-5.3313	-4.6271	105.414	302.434	363.139	422.625	171.285	149.225	442.937	395.276	193.490	291.706	427.751	201.687	414.121	144.068	128.085	254.287	0.0015816	0.00052566	0.00015065	1356.9	1.0055e-05	7.6806e-06	1357.6	366.89	7.7497e-06	2.2431e-06	417.54	140.83	122.48	41.583	6.1631e-06	51.449	0.00058497	0.00057814	0.00016226	1388.5	6.3503e-06	6.385e-06	1387.3	376.84	6.3685e-06	6.3862e-06	430.63	144.38	125.93	43.327	6.3553e-06	53.596	407.350	423.166	107.311	103.039	246.002	292.907	102.831	107.761	282.490	308.965	107.285	111.634	112.099	116.537	243.529	115.607	-8191	255	
959.469	1	1	0	0	0.1828	0.19428	0.17284	0.11277	0.036711	0.16697	0.073625	0.21801	0.14599	0.23504	0.18177	0.13141	0.29993	0.12267	0.22931	0.29916	-4.4646	-5.2479	-4.3812	-5.2333	-4.8854	-4.6813	-5.6646	-4.8854	-4.8313	-5.1646	-4.6333	-5.3292	-5.1188	-4.55	-5.1729	-4.7688	382.699	105.637	148.856	118.535	285.954	333.806	400.242	433.037	152.533	231.894	382.753	416.948	117.435	303.009	303.004	402.516	0.0017831	8.7052e-05	0.00017299	1352.3	8.1935e-06	4.7427e-07	1352.7	366.81	6.1428e-06	7.9706e-06	417.01	141.58	122.09	41.601	4.3831e-06	51.559	0.00058468	0.0005824	0.00016257	1387.7	6.4059e-06	6.4372e-06	1387.2	376.99	6.4871e-06	6.4391e-06	430.31	144.99	125.82	43.326	6.456e-06	53.788	391.353	428.164	247.336	103.172	258.823	346.955	102.732	108.055	225.221	212.301	107.316	111.625	112.115	116.730	239.104	115.558	-8191	255	
959.565	1	1	0	0	0.094617	0.20024	0.18605	0.35468	0.084747	0.18155	0.10547	0.17197	0.14135	0.11954	0.12858	0.088165	0.092588	0.17751	0.20411	0.075768	-4.3125	-5.3167	-4.3458	-5.0396	-4.9583	-4.5833	-5.7333	-4.975	-4.6917	-5.2229	-4.5729	-5.075	-5.1667	-4.5938	-5.3938	-4.9854	138.745	238.467	181.748	383.004	319.707	133.091	189.048	391.751	262.274	152.156	357.908	391.291	134.011	449.087	292.285	102.630	0.0013667	0.00051834	0.00028388	1351.2	7.6046e-06	2.4052e-06	1356.8	367.14	1.3349e-05	5.1716e-06	417.49	140.77	122.1	41.761	2.5243e-06	51.466	0.00059606	0.00059051	0.00016534	1388.1	6.47e-06	6.4649e-06	1387.7	377.53	6.4745e-06	6.5027e-06	430.7	144.86	126.12	43.435	6.4422e-06	53.618	388.604	160.635	153.402	103.119	231.093	273.440	102.736	107.744	193.268	286.730	107.179	111.649	112.152	116.645	136.727	115.809	-8191	255	
959.684	1	1	0	0	0.097595	0.12204	0.15462	0.078946	0.070431	0.19377	0.06285	0.25147	0.14187	0.090695	0.070883	0.25452	0.25176	0.027888	0.10315	0.12536	-4.2896	-5.2208	-4.4917	-5.1667	-5.2271	-4.2625	-5.3438	-5.0687	-4.5938	-5.5333	-4.6438	-4.8792	-5.2375	-4.3938	-5.1896	-5.125	367.514	280.682	108.653	352.051	233.994	193.126	105.485	381.335	286.710	449.865	233.665	152.684	97.190	310.970	366.418	338.060	0.0016079	0.00038843	0.00017406	1355.6	2.5481e-06	4.4672e-06	1355.1	366.88	1.0474e-05	3.1577e-06	416.17	141.11	121.72	41.645	6.4412e-06	51.457	0.00060008	0.00058987	0.00016508	1390.7	6.4915e-06	6.4645e-06	1387.9	377.36	6.4356e-06	6.488e-06	430.4	144.9	125.86	43.442	6.479e-06	53.663	402.406	124.005	109.905	103.101	220.514	194.471	102.972	107.869	293.552	267.083	107.365	111.703	112.166	116.515	178.423	115.721	-8191	255	
959.780	1	1	0	0	0.15004	0.12616	0.016348	0.19958	0.097859	0.28737	0.213	0.45549	0.10799	0.059662	0.16465	0.16391	0.25338	0.24387	0.29841	0.082898	-4.2063	-5.4667	-4.7083	-4.7208	-5.2083	-4.3958	-5.3708	-5.1708	-4.325	-5.3042	-4.5854	-4.7562	-5.4375	-4.4583	-5.0146	-5.0771	215.609	177.976	106.672	90.348	410.645	356.913	401.543	391.311	444.417	100.656	324.937	123.057	179.467	378.058	439.631	143.805	0.0018137	0.00077585	7.8872e-05	1356.2	1.4014e-06	4.2684e-06	1352.9	366.7	3.1193e-06	2.8045e-06	416.96	141.41	121.94	41.684	5.3186e-06	51.278	0.00059419	0.0005912	0.00016522	1389.1	6.4452e-06	6.4944e-06	1385.3	377	6.4877e-06	6.4798e-06	430.79	145.08	126.14	43.441	6.4584e-06	53.635	393.201	163.072	175.691	103.065	176.839	191.812	102.609	108.002	216.270	364.655	107.046	111.951	112.368	116.643	144.777	115.253	-8191	255	
959.877	1	1	0	0	0.10381	0.11728	0.19936	0.11448	0.076548	0.13183	0.30266	0.20399	0.14335	0.17616	0.28736	0.17124	0.1515	0.1352	0.081319	0.10016	-3.9667	-5.4167	-4.6708	-4.6062	-5.2479	-4.3812	-5.3187	-5.3	-4.2271	-5.3021	-5.0354	-4.7104	-5.5104	-4.5958	-4.9375	-5.3333	397.958	268.559	307.285	422.351	371.704	299.684	397.957	372.679	186.204	300.200	419.194	410.249	131.362	233.708	303.754	425.340	0.0019319	0.0002926	0.00021672	1350.8	4.3207e-06	1.609e-06	1346.8	366.16	9.434e-06	6.4327e-06	416.55	140.87	122.62	41.843	1.2387e-05	51.38	0.00059554	0.00059002	0.00016358	1387.9	6.4515e-06	6.4413e-06	1385.8	376.61	6.4232e-06	6.4384e-06	430.85	144.96	125.87	43.4	6.448e-06	53.651	394.486	213.674	238.054	103.154	248.205	247.435	102.980	107.874	93.173	223.679	107.404	111.703	112.101	116.773	218.224	115.966	-8191	255	
959.948	1	1	0	0	0.025523	0.067751	0.27035	0.13271	0.055655	0.12675	0.11982	0.052841	0.23022	0.07754	0.12032	0.26455	0.12722	0.059608	0.20001	0.12685	-4.2063	-5.2354	-4.7792	-4.575	-5.2167	-4.3896	-5.0583	-5.2833	-4.475	-4.9958	-4.9417	-4.5854	-5.4688	-4.7188	-4.775	-5.2146	335.735	231.326	249.658	446.925	223.438	227.683	363.262	92.157	391.394	196.225	280.284	408.616	430.327	176.159	159.717	415.051	0.0016565	0.00086319	0.00023974	1350.8	1.4731e-05	4.7235e-06	1353.7	367.36	7.1333e-06	2.1401e-06	418.15	140.93	122.28	41.527	4.0256e-06	51.326	0.0005957	0.00058668	0.00016357	1386.7	6.4401e-06	6.4431e-06	1385.8	377.01	6.4593e-06	6.4396e-06	430.42	144.78	126.05	43.282	6.4097e-06	53.632	386.218	176.759	160.911	103.097	222.211	273.987	102.775	107.700	322.471	226.863	107.427	111.582	112.419	116.630	267.080	115.757	-8191	255	
960.069	1	1	0	0	0.08938	0.14292	0.057536	0.11208	0.24595	0.006598	0.226	0.056825	0.059806	0.16185	0.086548	0.2732	0.27098	0.26354	0.2556	0.059896	-3.9458	-5.0521	-4.9646	-4.6958	-5.175	-4.6708	-4.7667	-5.3292	-4.4292	-5.2042	-5.1062	-4.4667	-5.2875	-4.7271	-4.8625	-5.55	371.218	147.524	440.596	101.068	405.568	347.298	360.125	170.242	166.141	334.589	204.667	427.175	387.821	118.508	156.976	107.606	0.0015414	0.00024155	0.00022516	1350.7	1.035e-05	3.4753e-06	1353.9	364.81	1.2114e-05	2.272e-06	418.12	141.45	121.58	41.5	6.6045e-06	51.482	0.00059233	0.00058836	0.00016429	1387.6	6.4452e-06	6.4576e-06	1385.7	376.01	6.4539e-06	6.4334e-06	430.64	144.87	125.59	43.249	6.4762e-06	53.617	382.509	410.233	248.558	103.128	260.002	181.188	102.739	107.879	257.196	231.036	107.112	111.857	112.406	116.751	220.405	115.856	-8191	255	
960.165	1	1	0	0	0.10993	0.11008	0.087155	0.14779	0.1091	0.12192	0.30862	0.077202	0.076961	0.18742	0.15283	0.073886	0.10345	0.13487	0.20233	0.23381	-4.0813	-4.8938	-5.1813	-4.5563	-5.2167	-4.8917	-4.8146	-5.3354	-4.3542	-4.8354	-5.4313	-4.5062	-5.3792	-4.8125	-4.3208	-5.5	114.579	415.430	441.458	433.563	255.443	327.480	421.267	422.296	442.480	245.571	114.050	361.514	164.727	139.037	119.256	408.557	0.0014963	0.00027416	0.00014756	1351.5	5.4708e-06	1.1199e-06	1352.9	366.55	9.0562e-06	3.4613e-06	416.67	140.55	121.98	41.669	5.0623e-06	51.675	0.00059777	0.00059139	0.00016366	1388.2	6.4864e-06	6.486e-06	1386	377.47	6.505e-06	6.5451e-06	430.42	144.87	126.03	43.401	6.5136e-06	53.841	388.997	262.568	167.000	103.184	241.772	346.957	102.817	107.960	296.453	270.844	107.121	111.708	112.199	116.826	177.073	115.690	-8191	255	
960.261	1	1	0	0	0.063901	0.1225	0.030821	0.19844	0.12849	0.020958	0.064433	0.15378	0.18858	0.19326	0.23478	0.12733	0.13719	0.20742	0.073676	0.17775	-4.2167	-4.7479	-5.1333	-4.5083	-5.2521	-4.875	-4.6625	-5.2333	-4.6771	-4.7562	-5.5604	-4.4521	-5.2458	-4.9771	-4.3229	-5.3562	222.545	299.243	277.974	95.523	281.008	360.598	307.465	196.969	362.638	123.174	416.173	429.323	98.260	435.889	206.819	367.940	0.0016936	0.00074656	0.000166	1352.3	5.7408e-06	6.2302e-06	1355.7	367.21	1.0481e-05	5.4505e-06	416.74	141.05	121.88	41.649	2.8693e-06	51.651	0.0005943	0.00059217	0.00016505	1388.5	6.5088e-06	6.4924e-06	1387.3	377.2	6.4759e-06	6.4699e-06	430.64	144.97	125.79	43.396	6.5049e-06	53.742	389.943	225.449	156.942	103.165	198.948	154.894	102.933	107.901	225.174	250.684	107.500	111.524	112.017	116.936	227.396	115.780	-8191	255	
960.382	1	1	0	0	0.053465	0.09224	0.23598	0.22399	0.090738	0.19977	0.23914	0.26729	0.032678	0.11646	0.26325	0.045568	0.046885	0.10943	0.070596	0.32071	-4.2417	-4.5792	-5.3812	-4.5896	-5.0583	-4.8688	-4.6208	-5.3729	-4.7	-4.5521	-5.3438	-4.4479	-4.9521	-5.3875	-4.4812	-5.3	267.712	133.435	430.866	102.286	394.219	175.919	366.892	409.619	269.908	305.854	327.794	162.907	199.600	112.801	444.913	420.645	0.0019303	0.00024346	0.0001456	1350.8	5.2929e-06	9.6762e-07	1346.2	367.09	6.4035e-07	3.9246e-06	415.92	140.71	122.63	41.375	7.1309e-06	51.387	0.00059813	0.00059695	0.0001647	1387.9	6.5093e-06	6.4798e-06	1384.9	377.34	6.5024e-06	6.5257e-06	431.23	145.04	125.96	43.352	6.591e-06	53.786	388.968	268.014	400.927	102.967	273.532	313.989	102.767	107.854	146.235	301.025	107.123	111.872	112.269	116.826	250.242	115.896	-8191	255	
960.476	1	1	0	0	0.18235	0.071271	0.01434	0.12884	0.047204	0.1091	0.1528	0.17327	0.11303	0.1146	0.10975	0.23875	0.098142	0.43245	0.22505	0.12723	-4.3604	-4.6958	-5.25	-4.5938	-4.7604	-5.1062	-4.5708	-5.2979	-4.8625	-4.5417	-5.6146	-4.6771	-4.8333	-5.2292	-4.3729	-5.3417	261.750	417.490	354.043	383.541	226.174	140.777	371.042	353.975	194.449	351.139	116.080	349.515	433.428	384.929	199.765	371.773	0.0017477	0.00035795	0.00011155	1355	6.1819e-06	3.8216e-06	1345.9	365.39	8.4522e-06	5.4358e-06	416.88	140.92	122.18	41.622	5.3159e-06	51.476	0.00060573	0.00060294	0.00016831	1392.2	6.6104e-06	6.571e-06	1386.4	377.32	6.5411e-06	6.5879e-06	431.62	144.86	126.11	43.48	6.5467e-06	53.822	399.901	251.066	285.156	103.213	177.243	272.489	102.871	107.750	205.891	227.315	107.322	111.714	112.114	116.680	437.713	115.789	-8191	255	
960.572	1	1	0	0	0.2087	0.072173	0.1391	0.16159	0.029415	0.14111	0.1739	0.067247	0.18026	0.02806	0.19231	0.10344	0.14061	0.20305	0.037747	0.13588	-4.8771	-4.5854	-5.2479	-4.6604	-4.6687	-5.2937	-4.5188	-5.2854	-4.9333	-4.5771	-5.5979	-4.6562	-4.6188	-5.3333	-4.3021	-5.05	200.016	210.556	321.936	432.967	311.209	324.342	437.702	342.238	239.659	396.901	349.257	409.028	123.889	365.558	236.665	449.470	0.0017002	0.0011219	0.00039659	1348.1	1.0405e-05	9.2689e-06	1356.2	367.33	8.1642e-06	5.2879e-06	416.58	141.11	122.38	41.708	1.4872e-06	51.178	0.00059909	0.00059857	0.00016593	1387.5	6.5175e-06	6.4611e-06	1386.9	377.42	6.4906e-06	6.5403e-06	430.92	145.08	126.06	43.484	6.4799e-06	53.604	396.850	194.037	163.032	103.311	198.979	274.935	102.895	108.050	254.387	145.846	107.457	111.827	112.293	116.807	208.257	115.891	-8191	255	
960.670	1	1	0	0	0.20955	0.16581	0.10057	0.225	0.23702	0.15265	0.20207	0.12329	0.1407	0.2009	0.11972	0.15204	0.10475	0.14962	0.12783	0.10751	-4.6917	-4.2896	-5.2833	-4.7479	-4.5167	-5.1354	-4.5979	-5.0083	-5.0813	-4.4437	-5.375	-5.0375	-4.9021	-5.4812	-4.3667	-5.0083	377.707	168.850	329.110	413.350	90.453	262.648	381.801	370.405	240.624	365.409	394.166	130.020	420.583	293.713	223.505	363.194	0.0016582	0.00032465	0.00024504	1348.5	6.4104e-06	5.5342e-06	1355.2	366.02	1.1028e-05	1.1909e-05	415.45	141.19	122.16	41.524	7.1023e-06	51.082	0.0005951	0.00059424	0.00016517	1388.3	6.4598e-06	6.4922e-06	1386.4	376.57	6.4749e-06	6.5002e-06	430.02	144.74	126.02	43.336	6.4644e-06	53.657	397.699	199.119	110.959	103.279	313.971	212.731	102.810	107.927	225.911	286.940	107.360	112.001	112.158	116.760	216.365	115.773	-8191	255	
960.765	1	1	0	0	0.012835	0.24422	0.088509	0.1556	0.11411	0.22065	0.1488	0.19687	0.35203	0.13606	0.21519	0.022311	0.23918	0.042902	0.20154	0.068083	-4.8292	-4.4437	-5.2125	-4.9354	-4.3146	-5.1708	-4.7708	-5.0708	-5.275	-4.3333	-5.1333	-5.1104	-4.6833	-5.3938	-4.5625	-4.8604	283.445	119.072	152.778	412.860	200.631	345.517	308.349	345.994	289.360	337.128	400.782	216.897	385.347	359.190	433.189	164.707	0.001381	6.4955e-05	5.8796e-05	1352.5	8.548e-06	2.9442e-06	1354.4	365.52	2.0051e-06	3.9482e-06	416.06	141	122.44	41.446	7.8085e-06	51.623	0.00059643	0.00059164	0.00016464	1388	6.4629e-06	6.4537e-06	1385	376.37	6.434e-06	6.4209e-06	430.16	144.47	125.64	43.24	6.3366e-06	53.63	384.780	196.184	96.248	103.160	188.992	175.100	103.001	107.814	129.506	245.945	107.207	111.716	112.207	116.802	223.906	115.503	-8191	255	
960.861	1	1	0	0	0.1582	0.23223	0.056489	0.25285	0.11652	0.078522	0.17178	0.16379	0.11058	0.10465	0.17875	0.28131	0.060734	0.16586	0.036167	0.054267	-5.0625	-4.5167	-4.9437	-5.1042	-4.4667	-5.4313	-4.8646	-4.7729	-5.4458	-4.5792	-5.05	-4.9187	-4.4917	-5.6125	-4.7521	-4.7292	401.823	201.161	104.660	428.165	450.004	174.710	344.428	328.516	435.484	283.989	411.174	99.862	234.054	260.904	167.558	326.156	0.0015931	0.00041924	0.00030379	1351.7	1.0039e-05	5.3306e-06	1357.7	366.91	1.6311e-05	2.1242e-06	417.01	140.98	122.21	41.518	7.6884e-06	51.359	0.00058421	0.00058198	0.00016171	1385.7	6.356e-06	6.3615e-06	1385.5	376.41	6.3591e-06	6.3239e-06	429.9	144.46	125.55	43.286	6.3255e-06	53.595	396.628	163.936	408.353	103.379	238.424	235.963	102.916	108.117	211.324	356.422	107.292	111.924	112.586	116.760	203.391	116.123	-8191	255	
960.981	1	1	0	0	0.092795	0.25909	0.17962	0.086763	0.089923	0.26361	0.19952	0.14366	0.014186	0.20184	0.1739	0.33295	0.13912	0.10597	0.15348	0.094651	-5.0854	-4.5521	-5.1417	-5.2792	-4.4917	-5.2146	-4.9479	-4.8313	-5.325	-4.2958	-5.0125	-5.225	-4.5729	-5.3438	-4.8208	-4.6562	100.589	109.029	102.443	145.403	239.454	224.666	409.321	316.577	100.625	384.006	437.670	420.815	141.675	350.956	314.191	342.280	0.0016481	0.00066575	0.0002672	1350.2	5.8729e-06	6.6204e-06	1351.9	367.22	6.186e-06	5.2019e-07	415.24	140.8	121.9	41.802	6.8977e-06	51.454	0.00058596	0.00058166	0.00016168	1386.4	6.3984e-06	6.3845e-06	1385.9	376.46	6.403e-06	6.4093e-06	429.62	144.62	125.77	43.362	6.3352e-06	53.584	395.252	272.239	210.832	103.382	243.033	205.859	103.158	108.075	283.375	291.480	107.310	112.002	112.026	116.619	142.792	116.003	-8191	255	
961.078	1	1	0	0	0.074703	0.0974	0.17104	0.25631	0.095486	0.14808	0.17162	0.20801	0.10371	0.03556	0.10685	0.078969	0.34205	0.1394	0.026932	0.17905	-5.0354	-4.5417	-4.7833	-5.4542	-4.4042	-5.0875	-5.1833	-4.5708	-5.125	-4.5625	-4.7417	-5.275	-4.65	-5.4396	-4.9333	-4.4896	417.068	117.783	120.870	359.480	252.906	121.448	385.408	389.491	230.857	114.148	389.530	364.691	410.701	235.912	248.613	394.866	0.00184	0.00062522	0.00014706	1351.9	7.7019e-06	1.8268e-06	1352.7	367.56	1.9923e-06	8.6307e-06	416.3	141.03	123	41.681	6.6443e-06	51.506	0.00058699	0.00058151	0.00016246	1386.5	6.3453e-06	6.3501e-06	1383.1	376.81	6.3886e-06	6.4032e-06	430.51	144.68	126.01	43.356	6.4642e-06	53.711	396.969	278.014	357.571	103.377	118.009	269.685	103.188	108.006	153.232	235.090	107.252	112.238	112.167	116.814	241.609	115.917	-8191	255	
961.174	1	1	0	0	0.14142	0.079491	0.07016	0.12954	0.12364	0.072601	0.17702	0.24554	0.27514	0.035731	0.17559	0.2901	0.21989	0.20132	0.19217	0.15274	-5.1479	-4.6417	-4.6104	-5.3938	-4.2896	-5.0687	-5.1979	-4.4625	-5.3292	-4.6479	-4.6021	-5.4563	-4.6958	-5.0042	-5.1375	-4.3125	317.926	227.330	334.295	93.842	307.102	150.103	329.914	429.400	328.212	311.388	329.275	398.991	418.839	347.150	355.240	405.684	0.0013451	0.00090067	0.0003119	1352.4	5.3207e-06	3.0151e-06	1350.3	366.61	2.2856e-06	3.4029e-06	416.82	141.24	122.72	41.733	7.3386e-06	51.372	0.00059114	0.00058786	0.00016273	1390.4	6.4123e-06	6.4112e-06	1383.4	376.55	6.4084e-06	6.3631e-06	429.76	144.5	125.8	43.326	6.3835e-06	53.584	396.837	193.898	176.181	103.309	283.050	257.981	103.227	108.158	288.305	230.899	107.345	111.796	112.436	116.835	232.923	116.217	-8191	255	
961.245	1	1	0	0	0.10096	0.27558	0.14598	0.22302	0.095883	0.22064	0.15608	0.026317	0.098958	0.09339	0.1225	0.24593	0.17217	0.13698	0.15548	0.11813	-4.9833	-4.7854	-4.6771	-5.3042	-4.4583	-4.8896	-5.4646	-4.5271	-5.1438	-4.8854	-4.8104	-5.4167	-4.5708	-4.8438	-5.3333	-4.5	414.999	162.852	117.638	295.440	260.445	366.965	104.469	139.487	227.527	324.407	334.967	117.610	172.657	372.549	393.314	349.925	0.0020157	0.00081366	0.00019305	1352.1	3.3113e-06	3.9366e-06	1350.8	366.16	9.7554e-06	7.9892e-06	417.52	141.04	122.38	41.873	3.8664e-06	51.336	0.00059039	0.00058827	0.00016491	1388.5	6.4871e-06	6.5058e-06	1384.6	376.73	6.478e-06	6.4637e-06	430.36	144.77	125.94	43.432	6.4388e-06	53.599	395.029	125.931	105.701	103.425	297.137	267.909	102.978	108.209	273.658	309.337	107.404	111.914	112.402	116.795	244.872	116.034	-8191	255	
961.366	1	1	0	0	0.18439	0.17195	0.14002	0.022512	0.15616	0.27033	0.033536	0.18163	0.12139	0.075186	0.21811	0.11912	0.11141	0.0085294	0.099345	0.095445	-4.65	-4.9604	-4.4938	-5.15	-4.5917	-4.8979	-5.7146	-4.6229	-5.0938	-4.95	-4.4563	-5.3292	-4.55	-4.8688	-5.1583	-4.3063	156.312	190.830	185.260	121.517	136.322	188.460	121.072	430.110	94.969	207.781	418.272	96.554	146.994	414.567	130.979	351.455	0.001748	0.00036488	0.00013911	1352.4	2.0122e-06	4.9793e-06	1352.8	366.45	9.3196e-06	2.2519e-06	416.55	140.74	122.51	41.721	4.0937e-06	51.272	0.00059132	0.00058685	0.0001639	1387.5	6.4472e-06	6.431e-06	1384.3	376.51	6.4204e-06	6.4012e-06	429.59	144.73	125.7	43.358	6.4305e-06	53.576	402.485	178.860	186.920	103.582	336.143	161.178	103.266	108.139	177.666	111.072	107.482	111.998	112.477	116.899	143.508	116.068	-8191	255	
961.462	1	1	0	0	0.18118	0.19141	0.16257	0.33556	0.15867	0.42742	0.12284	0.067516	0.066466	0.071842	0.20821	0.28794	0.22456	0.1978	0.083368	0.087539	-4.7625	-5.0479	-4.4187	-5.3125	-4.7604	-4.6479	-5.5479	-4.5	-4.8063	-5.1146	-4.4333	-5.3208	-4.9271	-4.6562	-5.3396	-4.4458	156.410	213.036	361.341	99.411	183.942	218.200	344.107	448.163	122.458	210.860	349.600	420.200	418.192	368.695	253.994	271.893	0.0017324	0.00044722	0.00027786	1351.6	1.4068e-06	5.2471e-06	1353.5	364.26	6.729e-06	4.4575e-06	416.65	140.83	122.39	41.626	3.5999e-06	51.506	0.00058977	0.00058485	0.00016442	1385.4	6.4e-06	6.4415e-06	1385.2	375.72	6.3928e-06	6.3971e-06	429.53	144.71	125.86	43.329	6.3723e-06	53.602	391.408	242.783	143.564	103.659	433.188	327.601	103.324	108.217	329.716	156.502	107.403	112.006	112.481	117.325	187.720	116.072	-8191	255	
961.557	1	1	0	0	0.17613	0.082172	0.086265	0.082021	0.1572	0.15036	0.23874	0.29654	0.16252	0.15495	0.1342	0.11242	0.11431	0.18026	0.17571	0.14061	-4.6833	-5.2729	-4.2542	-5.3375	-5.0208	-4.4729	-5.3812	-4.6958	-4.7979	-5.0813	-4.4229	-5.1813	-5.1625	-4.4688	-5.1687	-4.8208	106.353	260.014	443.946	424.340	226.676	92.243	372.371	363.249	187.826	392.226	353.696	408.144	100.593	101.107	396.919	100.642	0.0011703	0.00030997	0.0001946	1347.9	7.9392e-06	4.5433e-07	1353	366.51	1.2354e-05	2.8974e-06	416.49	141.07	121.9	41.419	5.8864e-06	51.263	0.00058808	0.00058178	0.00016184	1386.2	6.3669e-06	6.3894e-06	1384.6	376.13	6.3728e-06	6.4027e-06	429.99	144.63	125.56	43.271	6.4206e-06	53.569	412.667	274.647	160.399	103.639	99.800	369.837	103.270	108.333	218.601	198.022	107.297	112.401	112.640	117.094	124.343	115.982	-8191	255	
961.653	1	1	0	0	0.16567	0.14398	0.016041	0.28916	0.08704	0.017562	0.19581	0.22266	0.15326	0.15863	0.18968	0.20097	0.22384	0.14187	0.057793	0.28492	-4.4187	-5.1687	-4.2312	-5.3167	-5.0938	-4.5813	-5.5188	-4.8063	-4.5792	-5.5333	-4.5771	-5.2833	-5.1167	-4.5271	-5.2229	-4.8229	398.388	428.785	207.532	441.187	339.543	243.784	408.442	387.023	406.126	164.711	444.294	312.590	100.809	419.750	261.922	401.178	0.0016398	0.0004302	0.00011848	1350.4	1.0961e-05	9.4929e-06	1351.3	367.19	6.6301e-06	8.0955e-06	416.87	140.91	122.08	41.494	3.5632e-06	51.592	0.00058908	0.00058825	0.00016382	1388.1	6.4466e-06	6.48e-06	1384.7	376.96	6.4738e-06	6.478e-06	430.45	144.85	125.68	43.313	6.4164e-06	53.741	401.309	266.029	140.232	103.626	234.168	263.709	103.366	108.139	301.322	194.997	107.517	112.038	112.788	116.936	280.736	116.210	-8191	255	
961.773	1	1	0	0	0.24993	0.17136	0.25798	0.25274	0.0571	0.23348	0.25438	0.2045	0.14829	0.33446	0.11759	0.059621	0.17034	0.24307	0.13593	0.18917	-4.4	-5.2	-4.3208	-5.0062	-4.9771	-4.3458	-5.4563	-5.0646	-4.4229	-5.3313	-4.5021	-4.8708	-5.1937	-4.3917	-5.0062	-4.9313	127.493	212.693	103.773	438.582	104.028	168.658	366.113	94.423	286.515	108.436	382.993	200.368	442.025	379.299	311.341	392.266	0.0013904	0.00063991	0.00017589	1348.3	7.8437e-06	1.6887e-06	1352.6	366.61	2.0317e-05	2.8882e-06	414.8	140.82	122.06	41.618	9.9951e-06	51.465	0.00059306	0.00058949	0.00016379	1386.8	6.4024e-06	6.4053e-06	1383.5	376.25	6.4259e-06	6.4146e-06	428.75	144.45	125.72	43.287	6.4042e-06	53.594	391.725	98.353	304.933	103.270	213.407	319.545	103.124	108.116	236.900	109.400	107.631	112.085	112.488	116.778	164.780	115.912	-8191	255	
961.845	1	1	0	0	0.064878	0.072466	0.047475	0.34182	0.084546	0.16444	0.29267	0.093634	0.10236	0.28553	0.1534	0.17997	0.2614	0.40369	0.15851	0.18515	-4.1458	-5.4854	-4.3854	-4.7188	-5.1813	-4.1542	-5.4708	-5.0813	-4.5229	-5.3646	-4.7729	-4.6729	-5.3292	-4.4458	-4.9896	-5.075	96.541	257.145	158.696	387.820	346.797	415.784	350.011	348.558	349.840	441.289	160.313	306.088	441.236	417.604	199.002	110.447	0.0016029	0.00030939	8.112e-05	1348.3	8.6154e-06	6.3274e-06	1356.1	366.74	1.2166e-05	4.5974e-06	415.78	140.02	122.34	41.52	1.0615e-06	51.22	0.00059145	0.00058746	0.00016348	1386.3	6.4304e-06	6.4269e-06	1384.5	376.1	6.4165e-06	6.4283e-06	429.5	144.26	125.77	43.324	6.4266e-06	53.692	390.198	176.284	407.782	103.451	170.427	220.072	103.255	108.265	207.873	328.579	107.555	111.916	112.797	116.894	193.134	116.035	-8191	255	
961.941	1	1	0	0	0.014891	0.036844	0.11147	0.19338	0.12042	0.050604	0.1108	0.075093	0.17809	0.2202	0.066518	0.11901	0.25912	0.32425	0.16122	0.15739	-4.2438	-5.475	-4.6833	-4.6438	-5.3063	-4.4771	-5.3063	-5.2688	-4.2917	-5.0563	-4.8688	-4.6062	-5.3542	-4.5354	-4.8313	-5.2	363.237	244.533	309.182	348.576	102.969	232.323	361.019	125.117	444.880	341.406	121.414	410.941	130.726	117.605	253.800	333.644	0.0018687	0.00070065	7.8918e-05	1349.5	4.5571e-06	4.5949e-06	1352.9	365.4	4.5379e-06	3.8835e-06	416.64	141.71	121.92	41.551	5.398e-06	51.438	0.00060052	0.00059007	0.00016452	1387.1	6.4504e-06	6.46e-06	1385.3	376.31	6.4541e-06	6.4443e-06	429.27	144.84	125.76	43.28	6.393e-06	53.58	399.436	245.506	149.232	103.306	231.123	320.077	103.170	107.984	234.172	238.752	107.418	112.005	112.223	117.046	267.006	116.328	-8191	255	
962.062	1	1	0	0	0.19973	0.16072	0.031075	0.14584	0.16852	0.18089	0.049821	0.24247	0.26287	0.21642	0.22277	0.18676	0.25281	0.12281	0.048254	0.064386	-4.125	-5.2333	-4.9521	-4.6438	-5.1229	-4.3667	-5.1042	-5.4521	-4.2042	-5.1625	-5.0708	-4.6417	-5.3396	-4.725	-4.6896	-5.4229	238.035	426.349	93.018	393.613	194.899	163.613	417.175	411.400	128.663	347.568	429.117	446.512	422.708	120.690	102.231	324.013	0.0018235	0.00067299	8.1752e-05	1352.2	5.0307e-06	4.3665e-06	1353	366.9	8.5659e-06	4.2582e-06	415.88	140.38	122.39	41.536	5.0749e-06	51.243	0.00058872	0.00058723	0.00016157	1385.7	6.446e-06	6.4511e-06	1385.9	376.74	6.4857e-06	6.5044e-06	430.23	144.72	126	43.339	6.5186e-06	53.687	392.944	153.688	155.554	103.380	207.484	224.647	103.207	108.348	185.441	95.128	107.663	112.038	112.475	116.868	206.963	116.187	-8191	255	
962.158	1	1	0	0	0.11414	0.13033	0.20839	0.12921	0.13188	0.20654	0.14668	0.090671	0.15106	0.15396	0.31603	0.054511	0.13769	0.066445	0.20798	0.14332	-4.1604	-5.1625	-4.7583	-4.5375	-5.25	-4.5979	-4.9688	-5.3417	-4.3646	-5.0771	-5.1	-4.4875	-5.2208	-4.625	-4.7042	-5.5188	341.726	137.699	154.346	405.278	214.069	312.978	332.476	102.033	399.807	163.960	445.829	193.859	232.624	368.037	274.257	395.089	0.001667	0.00049807	0.00021277	1350	5.2579e-06	3.695e-07	1353.5	365.27	5.8248e-06	2.6006e-06	416.83	140.89	122.59	41.77	5.7989e-06	51.285	0.00060196	0.00059368	0.00016501	1386.9	6.4743e-06	6.457e-06	1385.6	376.6	6.499e-06	6.5258e-06	430.06	144.81	125.97	43.379	6.4985e-06	53.636	396.970	192.154	92.997	103.403	191.833	409.154	103.190	108.108	240.997	307.037	107.418	112.023	112.440	117.167	195.026	116.029	-8191	255	
962.254	1	1	0	0	0.067689	0.11027	0.085624	0.12514	0.028159	0.34097	0.13289	0.32808	0.086228	0.16009	0.13514	0.10864	0.12196	0.14509	0.19724	0.15761	-4.1062	-4.9375	-5.0896	-4.5	-5.1021	-4.7583	-4.8604	-5.5167	-4.3854	-4.8375	-5.2229	-4.55	-5.3958	-5.0542	-4.4375	-5.3938	368.634	229.253	292.373	374.520	130.117	110.980	416.265	408.439	180.096	394.751	356.191	358.621	98.090	278.877	224.601	247.073	0.001716	0.00083115	0.00016591	1348.9	6.2917e-06	5.2377e-06	1351.4	366.62	1.0519e-05	6.3908e-06	416.04	141.24	122.01	41.601	9.7239e-07	51.225	0.00060086	0.00059637	0.00016656	1386.1	6.5228e-06	6.5131e-06	1385.3	377.23	6.5335e-06	6.5322e-06	430.43	144.92	125.65	43.352	6.5203e-06	53.681	394.838	93.252	138.884	103.205	300.466	216.970	103.133	108.126	243.843	250.940	107.684	112.074	112.384	117.269	119.812	115.909	-8191	255	
962.350	1	1	0	0	0.17551	0.16892	0.22457	0.031686	0.24743	0.12395	0.14282	0.2834	0.15781	0.15904	0.35003	0.15899	0.30264	0.17159	0.13661	0.17337	-4.2333	-4.9812	-5.1521	-4.6	-5.1562	-4.9375	-4.8187	-5.5813	-4.6354	-4.8354	-5.2958	-4.3167	-5.0271	-5.0646	-4.4062	-5.4417	243.248	231.216	330.344	305.902	398.307	144.556	326.953	365.202	275.703	292.483	399.926	393.360	414.484	418.739	249.500	357.307	0.0017099	0.00066876	0.00022023	1352	1.0497e-05	3.6224e-06	1353	366.09	7.3933e-06	3.182e-06	416.39	140.72	122.28	41.522	6.6703e-06	51.491	0.00060074	0.00059617	0.00016593	1387.1	6.5137e-06	6.5143e-06	1383.8	377.05	6.4945e-06	6.5244e-06	430.97	144.98	125.77	43.376	6.5142e-06	53.624	399.403	208.521	139.123	103.268	222.774	337.653	103.296	108.026	256.792	361.532	107.760	111.796	112.311	116.843	159.278	116.245	-8191	255	
962.471	1	1	0	0	0.019246	0.18055	0.28586	0.29627	0.082526	0.12603	0.057804	0.22364	0.091606	0.15834	0.28167	0.26373	0.14506	0.058983	0.11407	0.17806	-4.2688	-4.5229	-5.1687	-4.7354	-4.9625	-5.0687	-4.4854	-5.4375	-4.6583	-4.6	-5.4812	-4.5854	-4.9292	-5.1667	-4.5	-5.45	293.518	183.944	249.976	403.482	400.557	157.853	422.236	370.454	182.888	350.831	388.253	399.079	110.009	122.955	175.142	387.439	0.0016473	0.00079629	3.166e-05	1342.2	6.9354e-06	7.6729e-06	1348.9	365.57	5.674e-06	6.7064e-06	416.95	140.51	122.44	41.61	8.1435e-06	51.294	0.00059692	0.00059501	0.00016536	1384.3	6.4931e-06	6.5184e-06	1383.9	376.95	6.5451e-06	6.5705e-06	431.26	144.83	126.08	43.443	6.5611e-06	53.755	393.252	355.201	144.986	103.359	223.433	198.295	103.029	108.009	241.473	148.266	107.537	111.731	112.325	116.758	181.145	116.217	-8191	255	
962.543	1	1	0	0	0.092062	0.18712	0.054434	0.048981	0.17556	0.15744	0.19519	0.24201	0.19879	0.13571	0.18768	0.3283	0.2834	0.094121	0.093676	0.12681	-4.4542	-4.6438	-5.2312	-4.6312	-4.9938	-5.0625	-4.4104	-5.3646	-4.8292	-4.3562	-5.1646	-4.6625	-5.1083	-5.3146	-4.2937	-5.2792	98.175	332.907	366.773	278.623	223.066	374.549	90.648	344.798	105.793	351.622	424.645	368.922	105.912	427.957	363.109	418.110	0.0020211	0.00053754	0.00027672	1353.2	3.5897e-06	2.9069e-06	1354.1	365.45	6.3514e-06	4.1446e-06	418.26	141.09	122.03	41.445	7.2986e-06	51.54	0.00060563	0.0006053	0.00016852	1389.6	6.6362e-06	6.6542e-06	1386.9	377.18	6.6654e-06	6.6383e-06	431.88	145.2	125.97	43.424	6.6019e-06	53.751	390.641	235.326	125.433	103.657	211.712	402.105	103.040	108.084	257.682	147.721	107.647	112.021	112.371	116.795	172.917	115.634	-8191	255	
962.661	1	1	0	0	0.10678	0.16731	0.019221	0.12825	0.03745	0.13061	0.31013	0.15061	0.26091	0.080493	0.13697	0.22664	0.073644	0.10467	0.12977	0.08623	-4.7375	-4.4563	-5.3979	-4.4792	-4.7812	-5.3333	-4.6354	-5.2333	-4.9792	-4.425	-5.5875	-4.8583	-4.7896	-5.2417	-4.4479	-5.0292	139.978	312.044	184.688	381.240	393.966	206.887	388.913	389.925	370.192	351.625	218.260	371.968	391.319	401.094	120.342	429.489	0.0020925	0.00087058	0.00013328	1346.9	1.0432e-05	4.3759e-06	1348.7	364.8	1.0314e-05	1.8049e-06	415.98	141.27	121.62	41.712	1.0522e-05	51.32	0.00060519	0.00060322	0.0001682	1387.2	6.5952e-06	6.5704e-06	1384.5	376.95	6.5676e-06	6.5752e-06	431.58	144.96	125.96	43.41	6.582e-06	53.72	396.932	166.032	422.720	103.444	200.605	192.175	103.112	108.232	215.647	195.065	107.114	111.875	112.278	116.754	239.395	116.068	-8191	255	
962.758	1	1	0	0	0.15319	0.077364	0.094201	0.10596	0.061184	0.1279	0.20032	0.1601	0.10115	0.1622	0.32143	0.18475	0.084251	0.13296	0.12968	0.048932	-4.7875	-4.3125	-5.3708	-4.7854	-4.6271	-5.3458	-4.675	-5.0125	-5.1208	-4.3521	-5.3958	-4.8875	-4.5938	-5.3187	-4.3042	-5.075	391.728	385.941	312.083	413.102	399.760	218.049	360.671	401.008	342.990	216.635	429.574	447.751	400.713	437.890	240.749	284.521	0.0021128	0.00046491	0.00013462	1349.6	5.8629e-06	8.2946e-06	1356.4	365.8	3.9807e-06	4.7544e-06	415.28	141	121.86	41.567	4.6534e-06	51.488	0.00060345	0.00060221	0.00016742	1386.3	6.5814e-06	6.6171e-06	1386.5	377.59	6.6031e-06	6.606e-06	431.3	145.24	126.05	43.46	6.578e-06	53.79	392.940	197.818	253.994	103.461	206.538	196.442	103.080	108.032	194.367	228.601	107.251	111.926	112.506	117.112	209.130	116.027	-8191	255	
962.854	1	1	0	0	0.28767	0.13226	0.073375	0.0825	0.10891	0.16321	0.14046	0.094302	0.12404	0.14039	0.0512	0.2786	0.085492	0.15777	0.14855	0.22046	-5.0188	-4.2604	-5.0813	-4.9604	-4.4229	-5.4667	-4.8	-4.8604	-5.1146	-4.5583	-5.2771	-4.9521	-4.4417	-5.3646	-4.7229	-4.8896	146.446	368.141	117.501	118.345	149.218	281.790	407.377	435.569	346.301	449.350	416.076	122.399	95.352	379.160	336.206	439.433	0.0017115	0.0008714	0.00025343	1346.2	1.1174e-05	4.0589e-06	1347.3	366.79	1.1692e-05	8.3596e-06	416.54	140.89	121.45	41.62	1.5316e-06	51.491	0.0006035	0.00059952	0.00016742	1386.8	6.5715e-06	6.5653e-06	1383.4	377.44	6.5817e-06	6.581e-06	430.59	144.77	125.91	43.449	6.5411e-06	53.777	404.330	436.719	110.784	103.363	191.699	297.784	103.221	108.067	230.997	145.649	107.104	111.965	112.289	117.081	294.915	115.799	-8191	255	
962.950	1	1	0	0	0.21505	0.12953	0.13692	0.274	0.27451	0.054049	0.17821	0.12134	0.13316	0.16252	0.084671	0.2372	0.23135	0.24666	0.029707	0.070725	-4.8938	-4.4854	-5.0125	-5.0271	-4.3688	-5.35	-4.8333	-4.5646	-5.2188	-4.3187	-4.9896	-5.0687	-4.4479	-5.2896	-4.7229	-4.7937	171.376	369.640	241.840	103.988	439.832	332.420	343.694	390.705	422.740	400.070	132.079	358.547	399.301	364.874	182.873	156.311	0.0017411	0.0005935	0.0001384	1350.2	1.1589e-05	5.3697e-06	1351.6	365.8	7.7301e-06	4.1697e-06	414.9	140.53	121.69	41.475	1.2752e-05	51.469	0.00060205	0.00059624	0.00016565	1387.7	6.5271e-06	6.521e-06	1383.1	376.78	6.5045e-06	6.5777e-06	429.49	144.62	125.8	43.3	6.5097e-06	53.633	397.270	123.061	211.779	103.335	232.079	232.688	103.227	108.188	252.719	163.763	107.457	111.776	112.180	117.106	217.242	116.021	-8191	255	
963.070	1	1	0	0	0.17368	0.084468	0.14105	0.11783	0.1142	0.13261	0.27753	0.3523	0.18552	0.075593	0.11531	0.29494	0.24381	0.18718	0.14367	0.19876	-4.8833	-4.2833	-4.8125	-5.225	-4.4	-5.0354	-4.8812	-4.5979	-5.3042	-4.3708	-4.9979	-5.2812	-4.4625	-5.0396	-4.9271	-4.7771	124.540	389.451	394.927	440.536	233.782	228.890	418.264	281.776	158.131	440.468	449.748	146.564	328.061	345.458	240.249	148.536	0.0019458	0.00081083	0.0001323	1350.6	7.2604e-06	7.6153e-06	1354.3	365.71	6.8599e-06	3.3576e-06	415.07	140.88	121.88	41.644	1.0495e-05	51.511	0.00060111	0.00059469	0.00016499	1386.6	6.4813e-06	6.5019e-06	1385.1	376.44	6.4854e-06	6.4472e-06	429.74	144.8	125.69	43.37	6.422e-06	53.637	393.639	209.681	290.002	103.518	258.041	280.993	103.137	108.183	216.929	384.350	107.839	111.895	112.577	116.966	178.373	115.874	-8191	255	
963.142	1	1	0	0	0.25993	0.034562	0.044466	0.1205	0.13357	0.1647	0.1314	0.16435	0.27889	0.041765	0.17857	0.29566	0.23326	0.24639	0.10697	0.27235	-4.9542	-4.3625	-4.8417	-5.5146	-4.275	-5.0542	-5.1438	-4.5396	-5.175	-4.6771	-4.7542	-5.2417	-4.4583	-5.2104	-4.9688	-4.4521	191.685	442.680	315.891	369.990	440.005	104.586	431.530	404.493	269.078	199.533	436.883	442.741	411.117	368.956	208.984	91.222	0.0016936	0.00023405	0.00014843	1350.8	9.1126e-06	1.1022e-05	1349.8	366.11	1.3544e-05	6.9575e-06	417.11	140.59	122.03	41.601	4.1008e-06	51.224	0.00059103	0.00059204	0.00016461	1386.3	6.4305e-06	6.4084e-06	1383.4	376.18	6.4259e-06	6.424e-06	429.95	144.53	125.43	43.317	6.4427e-06	53.617	392.624	166.422	213.262	103.485	156.223	340.384	103.101	108.133	198.126	293.050	107.351	111.875	112.449	116.942	199.315	115.935	-8191	255	
963.238	1	1	0	0	0.24346	0.08451	0.22939	0.266	0.15513	0.10923	0.34816	0.13044	0.18517	0.071296	0.069179	0.18386	0.097112	0.14851	0.084961	0.1275	-5.0396	-4.4729	-4.7021	-5.3771	-4.3792	-4.8979	-5.3104	-4.5104	-5.2188	-4.8792	-4.6354	-5.1583	-4.4521	-4.9875	-5.0646	-4.4625	94.710	288.006	172.585	346.658	315.817	284.523	372.809	402.503	273.081	224.758	403.099	275.172	151.707	172.369	286.818	376.202	0.0019991	0.00065784	9.3358e-05	1350.9	8.5909e-06	4.3662e-07	1351.9	365.95	5.6417e-06	5.2814e-06	417.55	141.32	121.84	41.529	3.2319e-06	51.265	0.0005924	0.00059046	0.00016444	1387.9	6.4522e-06	6.4855e-06	1382.6	376.08	6.4662e-06	6.4922e-06	430.54	144.62	125.7	43.273	6.4543e-06	53.594	391.177	170.054	154.267	103.507	258.012	416.938	103.217	107.851	264.568	247.156	107.433	112.116	112.309	117.019	279.045	115.892	-8191	255	
963.334	1	1	0	0	0.043995	0.13114	0.25047	0.16877	0.099266	0.30253	0.099765	0.2501	0.28536	0.15572	0.21254	0.13716	0.29881	0.28639	0.18423	0.12742	-5.075	-4.8688	-4.6104	-5.4396	-4.3958	-4.9208	-5.425	-4.5062	-5.1813	-4.9042	-4.7708	-5.5479	-4.5583	-4.7833	-5.3542	-4.5417	327.554	419.337	202.408	366.463	447.116	419.259	91.625	402.669	310.853	107.290	370.766	403.965	448.953	315.248	320.891	246.435	0.0017544	0.0007254	5.7627e-05	1347.6	3.5324e-06	3.0403e-06	1350.5	365.93	3.6527e-06	2.9498e-06	416.01	140.93	121.47	41.581	6.458e-06	51.192	0.0005923	0.00058793	0.00016449	1385.7	6.4393e-06	6.421e-06	1384.4	376.46	6.4722e-06	6.4564e-06	430.17	144.72	125.65	43.325	6.4653e-06	53.688	399.981	146.545	120.458	103.501	423.086	144.744	103.188	108.198	156.315	202.168	107.386	111.956	112.209	117.005	187.318	115.918	-8191	255	
963.431	1	1	0	0	0.1418	0.068974	0.13718	0.2257	0.06342	0.053855	0.17132	0.15364	0.11691	0.12902	0.22277	0.16764	0.12061	0.35612	0.16249	0.039183	-4.7521	-4.8083	-4.4208	-5.5167	-4.325	-4.5771	-5.3792	-4.5396	-5.1	-4.925	-4.5417	-5.3458	-4.475	-4.6896	-5.3	-4.5833	125.803	127.387	410.203	214.454	328.902	442.793	380.979	428.904	208.267	293.641	335.863	368.144	105.406	396.326	241.969	410.529	0.0020409	0.00057616	8.5864e-05	1352.7	8.0956e-06	4.8826e-06	1353.8	366.72	1.213e-05	6.8801e-06	415.72	140.38	122.13	41.755	7.1561e-06	51.237	0.00059395	0.0005902	0.00016438	1386.9	6.4513e-06	6.4475e-06	1385	376.2	6.4691e-06	6.4862e-06	430.11	144.52	125.84	43.432	6.5295e-06	53.696	394.111	223.170	113.603	103.249	232.194	203.632	103.212	108.050	206.281	317.922	107.520	111.970	112.549	117.000	160.115	115.919	-8191	255	
963.549	1	1	0	0	0.15817	0.21556	0.39476	0.11273	0.15429	0.10491	0.087157	0.24364	0.17057	0.24711	0.23899	0.21274	0.17481	0.091761	0.042146	0.091617	-4.7333	-5.0854	-4.5167	-5.3562	-4.5729	-4.6854	-5.4646	-4.4667	-4.925	-5.2188	-4.5792	-5.2521	-4.8208	-4.8354	-5.4229	-4.675	354.232	446.052	317.430	356.450	163.693	243.294	333.077	361.970	367.285	308.216	422.223	323.209	395.499	306.557	277.354	280.006	0.0018321	0.00090057	0.00020871	1349.2	1.0205e-05	6.8722e-06	1355.8	365.42	1.8935e-05	1.6548e-06	415.96	141.11	121.85	41.703	6.9965e-06	51.349	0.00060233	0.00059933	0.00016678	1387.9	6.5656e-06	6.553e-06	1386.2	376.23	6.565e-06	6.5533e-06	430.62	144.93	125.79	43.408	6.451e-06	53.642	400.072	181.401	117.831	103.382	221.168	203.837	103.151	108.271	255.448	206.685	107.607	111.910	112.686	116.805	228.920	116.016	-8191	255	
963.646	1	1	0	0	0.15933	0.19663	0.16547	0.33126	0.095428	0.041094	0.04926	0.20829	0.11919	0.18182	0.27144	0.17041	0.13738	0.10398	0.056631	0.17135	-4.4708	-5.2292	-4.3854	-5.2979	-4.65	-4.4229	-5.4479	-4.6375	-4.7063	-5.1458	-4.4375	-5.2792	-5.1188	-4.4958	-5.3542	-4.7625	386.278	306.673	179.322	444.210	212.150	288.548	283.643	405.866	303.600	325.583	397.522	390.125	126.207	112.081	133.438	339.813	0.0016772	0.00019957	6.2739e-05	1348.8	8.2533e-06	9.4187e-06	1351.9	365.04	9.3868e-06	4.7613e-06	416.42	140.47	121.98	41.564	6.3975e-06	51.25	0.00059667	0.00059039	0.00016448	1384.9	6.4263e-06	6.4708e-06	1384.4	375.76	6.4559e-06	6.4233e-06	429.97	144.53	125.54	43.324	6.4389e-06	53.56	389.059	446.278	127.755	103.405	189.257	250.310	103.188	108.133	253.712	288.681	107.394	111.794	112.490	117.105	125.424	116.139	-8191	255	
963.742	1	1	0	0	0.16903	0.11944	0.11785	0.16	0.35321	0.14534	0.2272	0.25676	0.21542	0.12465	0.15041	0.2197	0.11221	0.18795	0.075125	0.12541	-4.2521	-5.3646	-4.2917	-5.1917	-4.9833	-4.5583	-5.5854	-4.7833	-4.5458	-5.2542	-4.4354	-5.0437	-5.3104	-4.4854	-5.1333	-4.5	401.798	216.083	335.715	391.537	307.029	146.477	424.865	113.156	417.618	142.395	129.410	348.309	101.752	380.178	118.018	436.052	0.0016857	0.00065405	0.00024461	1352.6	8.2333e-06	4.169e-06	1349.3	364.84	5.7154e-06	5.2083e-06	417.26	140.48	122.19	41.659	7.2436e-06	51.305	0.00059525	0.00059079	0.00016438	1387.8	6.4735e-06	6.484e-06	1384	376.08	6.5155e-06	6.5161e-06	430.77	144.79	125.88	43.467	6.5182e-06	53.689	395.215	138.296	446.512	103.403	170.227	144.542	103.391	108.209	418.088	209.307	107.495	111.933	112.631	117.113	224.860	116.215	-8191	255	
963.838	1	1	0	0	0.06251	0.21476	0.2616	0.21977	0.034646	0.091447	0.3158	0.23388	0.086349	0.20035	0.20794	0.11848	0.19743	0.34488	0.21682	0.11278	-4.2812	-5.2396	-4.5813	-5.0938	-5.0729	-4.3083	-5.2979	-4.9	-4.5104	-5.2688	-4.7083	-4.8625	-5.0875	-4.3208	-5.2292	-4.9542	297.705	173.471	243.746	369.446	275.309	325.992	424.691	389.852	246.345	153.982	376.040	370.449	372.943	115.689	135.767	300.387	0.0015599	0.00074246	0.00015757	1350.1	8.11e-06	7.4448e-06	1354.2	365.56	4.6066e-06	2.41e-06	416.74	141.16	122.04	41.687	1.9227e-06	51.28	0.00060579	0.00059865	0.0001665	1387.3	6.5454e-06	6.4588e-06	1385.4	376.25	6.4661e-06	6.4484e-06	429.54	144.75	125.63	43.288	6.3657e-06	53.513	391.628	437.283	153.422	103.300	227.385	282.905	103.262	108.296	334.076	156.505	107.330	111.728	112.580	117.085	350.228	116.165	-8191	255	
963.934	1	1	0	0	0.15701	0.11719	0.060164	0.085256	0.11185	0.19925	0.041409	0.13541	0.204	0.19137	0.30168	0.20689	0.25375	0.14103	0.069663	0.085109	-4.1479	-5.3625	-4.5479	-4.9292	-5.3292	-4.4583	-5.2979	-5.0146	-4.4479	-5.5333	-4.7146	-4.8271	-5.2646	-4.4375	-5.0917	-5.1771	116.429	333.391	122.342	445.674	408.196	289.914	370.324	398.202	183.535	178.744	449.060	406.047	412.818	378.898	381.922	358.591	0.001696	0.00058489	0.00019681	1349.6	4.2826e-06	7.7379e-07	1352.4	366.27	3.3384e-06	4.3568e-06	415.22	140.86	121.94	41.588	7.9348e-06	51.342	0.00058713	0.00058108	0.00016127	1382.4	6.3122e-06	6.348e-06	1382.1	375.46	6.3121e-06	6.2819e-06	428.35	144.15	125.09	43.18	6.2509e-06	53.36	394.866	188.400	108.387	103.340	177.005	312.033	103.375	108.262	227.600	200.071	107.634	112.097	112.732	117.125	443.302	116.123	-8191	255	
964.030	1	1	0	0	0.19674	0.13997	0.2158	0.10945	0.097304	0.27068	0.20025	0.12205	0.18272	0.17269	0.038745	0.18078	0.14766	0.11454	0.1375	0.29352	-4.1542	-5.0521	-4.6188	-4.7271	-5.2937	-4.5458	-5.2438	-5.1792	-4.3917	-5.2083	-4.8146	-4.625	-5.3417	-4.4208	-4.8125	-5.3458	312.938	444.406	440.038	364.744	131.558	430.966	331.311	400.149	178.784	413.296	245.499	141.095	97.772	442.446	170.022	413.505	0.0017784	0.00025722	0.00043219	1354.3	3.014e-06	2.2506e-06	1351.9	364.86	8.4459e-06	3.3157e-06	418.17	139.93	121.29	41.554	1.0117e-06	51.419	0.00057579	0.00057134	0.00015874	1383.5	6.2435e-06	6.259e-06	1381.4	374.78	6.3048e-06	6.2839e-06	429.1	144.21	125.13	43.192	6.3658e-06	53.546	382.829	418.558	192.067	103.273	161.440	442.471	103.320	108.121	233.807	414.785	107.683	111.846	112.497	116.841	232.346	116.101	-8191	255	
964.151	1	1	0	0	0.10339	0.22951	0.1774	0.17902	0.26584	0.062606	0.30757	0.23524	0.23929	0.1577	0.2178	0.20477	0.014503	0.16121	0.17918	0.11946	-3.9167	-5.2104	-4.7562	-4.5604	-5.2333	-4.6042	-5.0979	-5.3729	-4.2083	-5.1021	-4.7958	-4.6917	-5.5333	-4.6333	-4.8833	-5.2146	356.224	305.960	361.684	407.384	356.922	286.883	386.848	423.931	267.472	263.381	97.267	429.558	431.912	403.688	331.052	269.954	0.0015718	0.00032092	0.00020978	1350	1.0555e-05	3.8742e-06	1348.2	363.4	8.4101e-06	1.2426e-05	417.54	140.95	121.72	41.539	2.0134e-06	51.452	0.00058458	0.00058143	0.00016151	1384.6	6.3878e-06	6.3779e-06	1383.3	375.26	6.4473e-06	6.3961e-06	428.96	144.7	125.6	43.272	6.4287e-06	53.638	387.882	280.288	259.369	103.329	183.329	273.087	103.177	108.314	242.170	221.016	107.550	112.130	112.722	117.131	339.448	116.199	-8191	255	
964.247	1	1	0	0	0.056258	0.087615	0.15337	0.19431	0.099221	0.037531	0.37903	0.24148	0.076059	0.080128	0.05554	0.11034	0.23932	0.1128	0.07934	0.3056	-4.2042	-5.0083	-4.8187	-4.5292	-5.3208	-4.7479	-4.8833	-5.3729	-4.3479	-4.8562	-4.8146	-4.3417	-5.3604	-4.5583	-4.6208	-5.2396	352.922	294.979	155.819	393.085	233.973	359.709	394.331	406.445	161.799	319.879	173.797	167.061	128.915	275.123	316.894	413.961	0.0019265	0.00033372	0.00019729	1348.8	3.929e-06	3.4091e-06	1350.1	367.56	1.2054e-05	5.3039e-06	416.22	140.81	121.61	41.611	7.5431e-06	51.497	0.0005896	0.00058316	0.0001622	1383.5	6.4107e-06	6.3994e-06	1383.2	375.91	6.3694e-06	6.3915e-06	429.25	144.46	125.36	43.33	6.4428e-06	53.579	392.537	182.291	134.353	103.463	274.766	225.400	103.117	108.392	262.130	232.682	107.711	112.139	112.564	116.747	236.524	115.934	-8191	255	
964.343	1	1	0	0	0.17056	0.082711	0.24015	0.22267	0.19467	0.13496	0.1291	0.17521	0.29694	0.11547	0.063786	0.079317	0.12523	0.14144	0.29601	0.13898	-3.9521	-4.8438	-4.9	-4.5687	-5.1083	-4.8167	-4.8313	-5.3479	-4.3479	-4.8313	-5.3458	-4.3396	-5.0646	-4.7979	-4.2625	-5.2771	198.136	117.200	209.163	402.152	290.912	201.241	366.192	106.911	393.951	239.384	113.211	253.451	409.091	122.583	289.428	403.638	0.0017759	0.00014997	0.00012008	1345.7	9.9548e-06	5.6176e-06	1351.6	366.85	2.0582e-05	5.9578e-06	415.09	140.96	122.02	41.56	7.3088e-06	51.602	0.00058912	0.00058848	0.00016266	1385.3	6.3965e-06	6.3955e-06	1382.2	376.28	6.3744e-06	6.3497e-06	428.67	144.64	125.35	43.242	6.3395e-06	53.541	402.417	380.074	162.815	103.320	234.264	230.654	103.264	108.241	276.923	260.141	107.678	111.956	112.398	117.239	178.406	116.273	-8191	255	
964.439	1	1	0	0	0.20228	0.074593	0.028244	0.017147	0.087471	0.031084	0.14993	0.044918	0.035671	0.13846	0.11875	0.021109	0.10581	0.14259	0.030559	0.19534	-4.15	-4.8958	-5.2146	-4.425	-5.1062	-4.8167	-4.6396	-5.35	-4.3938	-4.7146	-5.3688	-4.525	-5.0417	-5.1167	-4.3646	-5.3917	103.029	206.286	398.386	392.434	443.570	90.798	323.266	221.155	368.813	280.018	380.954	296.695	121.119	415.250	265.140	108.886	0.0016178	0.00081733	5.5499e-05	1348.2	2.3205e-06	5.8801e-06	1350.3	365.65	2.8176e-06	7.4069e-06	414.51	140.57	122.42	41.521	5.9203e-06	51.468	0.00058403	0.00057838	0.00016177	1383.6	6.3602e-06	6.3761e-06	1382.4	375.74	6.3751e-06	6.3838e-06	429.11	144.31	125.59	43.243	6.3316e-06	53.439	389.006	126.636	240.673	103.660	201.493	163.189	103.306	108.421	172.009	366.332	107.646	111.986	112.373	117.222	329.237	116.331	-8191	255	
#DATA ENDS
