BOXY.EXE: ISS Imagent and Oximeter Data Acquisition Program Version 0.80
Ascii Record File

#ACQ INFORMATION
2  Detector Channels 
16  External MUX Channels 
1  Auxiliary Channels 
5000  Waveform (CCF) Frequency (Hz)
1  Waveforms Skipped 
30  Waveforms Averaged 
1  Cycles Averaged 
16  Acquisitions per Waveform 
10.0806  Updata Rate (Hz) 

#FILE INFORMATION
TRUE -- External MUX Channel results are PARSED.
FALSE -- AC DC and Phase are NOT grouped.
TRUE -- Companion Program Settings File CREATED.
FALSE -- AC data not excluded
FALSE -- DC data not excluded
FALSE -- Phase data not excluded
FALSE -- Auxillary Chn. data not excluded
Tab delimiters

#CALIBRATION STATE
TRUE -- Waveform Calibration Values APPLIED.


#AUX CALIBRATION VALUES
Val Type	aux-1	

Term	1.0000e+00	
Factor	0.0000e+00	


#WF CALIBRATION VALUES
A = Detector Channel
Val Type	A-AC1	A-AC2	A-AC3	A-AC4	A-AC5	A-AC6	A-AC7	A-AC8	A-AC9	A-AC10	A-AC11	A-AC12	A-AC13	A-AC14	A-AC15	A-AC16	A-DC1	A-DC2	A-DC3	A-DC4	A-DC5	A-DC6	A-DC7	A-DC8	A-DC9	A-DC10	A-DC11	A-DC12	A-DC13	A-DC14	A-DC15	A-DC16	A-Ph1	A-Ph2	A-Ph3	A-Ph4	A-Ph5	A-Ph6	A-Ph7	A-Ph8	A-Ph9	A-Ph10	A-Ph11	A-Ph12	A-Ph13	A-Ph14	A-Ph15	A-Ph16	

Term	0.00000e+00	0.00000e+00	0.00000e+00	0.00000e+00	0.00000e+00	0.00000e+00	0.00000e+00	0.00000e+00	0.00000e+00	0.00000e+00	0.00000e+00	0.00000e+00	0.00000e+00	0.00000e+00	0.00000e+00	0.00000e+00	0.00000e+00	0.00000e+00	0.00000e+00	0.00000e+00	0.00000e+00	0.00000e+00	0.00000e+00	0.00000e+00	0.00000e+00	0.00000e+00	0.00000e+00	0.00000e+00	0.00000e+00	0.00000e+00	0.00000e+00	0.00000e+00	0.00000e+00	0.00000e+00	0.00000e+00	0.00000e+00	0.00000e+00	0.00000e+00	0.00000e+00	0.00000e+00	0.00000e+00	0.00000e+00	0.00000e+00	0.00000e+00	0.00000e+00	0.00000e+00	0.00000e+00	0.00000e+00	
Factor	1.00000e+00	1.00000e+00	1.00000e+00	1.00000e+00	1.00000e+00	1.00000e+00	1.00000e+00	1.00000e+00	1.00000e+00	1.00000e+00	1.00000e+00	1.00000e+00	1.00000e+00	1.00000e+00	1.00000e+00	1.00000e+00	1.00000e+00	1.00000e+00	1.00000e+00	1.00000e+00	1.00000e+00	1.00000e+00	1.00000e+00	1.00000e+00	1.00000e+00	1.00000e+00	1.00000e+00	1.00000e+00	1.00000e+00	1.00000e+00	1.00000e+00	1.00000e+00	X	X	X	X	X	X	X	X	X	X	X	X	X	X	X	X	

B = Detector Channel
Val Type	B-AC1	B-AC2	B-AC3	B-AC4	B-AC5	B-AC6	B-AC7	B-AC8	B-AC9	B-AC10	B-AC11	B-AC12	B-AC13	B-AC14	B-AC15	B-AC16	B-DC1	B-DC2	B-DC3	B-DC4	B-DC5	B-DC6	B-DC7	B-DC8	B-DC9	B-DC10	B-DC11	B-DC12	B-DC13	B-DC14	B-DC15	B-DC16	B-Ph1	B-Ph2	B-Ph3	B-Ph4	B-Ph5	B-Ph6	B-Ph7	B-Ph8	B-Ph9	B-Ph10	B-Ph11	B-Ph12	B-Ph13	B-Ph14	B-Ph15	B-Ph16	

Term	0.00000e+00	0.00000e+00	0.00000e+00	0.00000e+00	0.00000e+00	0.00000e+00	0.00000e+00	0.00000e+00	0.00000e+00	0.00000e+00	0.00000e+00	0.00000e+00	0.00000e+00	0.00000e+00	0.00000e+00	0.00000e+00	0.00000e+00	0.00000e+00	0.00000e+00	0.00000e+00	0.00000e+00	0.00000e+00	0.00000e+00	0.00000e+00	0.00000e+00	0.00000e+00	0.00000e+00	0.00000e+00	0.00000e+00	0.00000e+00	0.00000e+00	0.00000e+00	-4.82867e+01	-1.31521e+02	-1.29090e+02	-1.82778e+02	-5.00932e+01	-6.85385e+01	-1.59964e+02	-1.62015e+02	-3.45550e+01	-6.98819e+01	-1.78192e+02	-1.73211e+02	-1.80356e+02	-1.77624e+02	-4.73150e+01	-1.50550e+02	
Factor	2.03344e-05	1.89891e-04	5.74514e-05	1.58307e-01	1.90108e-06	2.09202e-06	1.94733e-01	5.79786e-02	1.52646e-06	2.11415e-06	3.21294e-01	3.10011e-02	3.06678e-02	9.11195e-03	1.92150e-06	1.28799e-02	1.37867e-05	2.61164e-05	7.30315e-06	8.26885e-02	2.52523e-07	2.92360e-07	9.52919e-02	3.04267e-02	2.52502e-07	2.89608e-07	1.62620e-01	1.57850e-02	1.63068e-02	4.82875e-03	2.67683e-07	6.59689e-03	X	X	X	X	X	X	X	X	X	X	X	X	X	X	X	X	



#DISTANCE SETTINGS
A = Detector Channel
A-1	A-2	A-3	A-4	A-5	A-6	A-7	A-8	A-9	A-10	A-11	A-12	A-13	A-14	A-15	A-16	

2.5000e+00	3.0000e+00	2.5000e+00	3.0000e+00	2.0000e+00	3.0000e+00	1.5000e+00	3.0000e+00	3.0000e+00	3.0000e+00	3.0000e+00	3.0000e+00	3.0000e+00	3.0000e+00	1.5000e+00	3.0000e+00	

B = Detector Channel
B-1	B-2	B-3	B-4	B-5	B-6	B-7	B-8	B-9	B-10	B-11	B-12	B-13	B-14	B-15	B-16	

1.0000e+01	1.0000e+01	1.0000e+01	1.4400e+00	1.0000e+01	1.0000e+01	1.5100e+00	1.9400e+00	1.0000e+01	1.0000e+01	1.9900e+00	2.4900e+00	2.4100e+00	2.9000e+00	1.0000e+01	2.9800e+00	




#DATA BEGINS
time	group	step	mark	flag	A-AC1	A-AC2	A-AC3	A-AC4	A-AC5	A-AC6	A-AC7	A-AC8	A-AC9	A-AC10	A-AC11	A-AC12	A-AC13	A-AC14	A-AC15	A-AC16	A-DC1	A-DC2	A-DC3	A-DC4	A-DC5	A-DC6	A-DC7	A-DC8	A-DC9	A-DC10	A-DC11	A-DC12	A-DC13	A-DC14	A-DC15	A-DC16	A-Ph1	A-Ph2	A-Ph3	A-Ph4	A-Ph5	A-Ph6	A-Ph7	A-Ph8	A-Ph9	A-Ph10	A-Ph11	A-Ph12	A-Ph13	A-Ph14	A-Ph15	A-Ph16	B-AC1	B-AC2	B-AC3	B-AC4	B-AC5	B-AC6	B-AC7	B-AC8	B-AC9	B-AC10	B-AC11	B-AC12	B-AC13	B-AC14	B-AC15	B-AC16	B-DC1	B-DC2	B-DC3	B-DC4	B-DC5	B-DC6	B-DC7	B-DC8	B-DC9	B-DC10	B-DC11	B-DC12	B-DC13	B-DC14	B-DC15	B-DC16	B-Ph1	B-Ph2	B-Ph3	B-Ph4	B-Ph5	B-Ph6	B-Ph7	B-Ph8	B-Ph9	B-Ph10	B-Ph11	B-Ph12	B-Ph13	B-Ph14	B-Ph15	B-Ph16	aux-1	digaux	

1113.949	1	1	0	256	0.13612	0.10055	0.10512	0.14567	0.068816	0.41295	0.27864	0.17224	0.074593	0.15061	0.11707	0.18068	0.098835	0.14915	0.16524	0.1469	-1.6229	-2.7729	-2.1583	-2.3854	-2.8312	-1.9083	-2.5792	-2.5125	-1.8729	-2.6708	-2.2417	-2.2646	-2.6896	-1.7708	-2.5729	-2.5833	342.996	382.538	259.512	155.513	240.833	298.355	421.392	376.436	213.986	377.831	339.877	367.306	273.190	412.546	202.522	131.198	0.00033648	0.001924	0.00020616	397.02	3.9657e-05	2.1021e-05	388.94	111.62	1.8014e-06	3.4217e-05	112.46	44.718	40.412	13.198	6.8536e-06	14.232	0.070847	0.13737	0.037697	809.72	0.0012807	0.0015065	873.63	262.61	0.0012627	0.0014681	923.58	121.28	122.76	37.91	0.0013268	46.839	218.292	250.027	370.293	91.799	242.128	148.711	90.192	98.875	111.830	329.217	96.469	99.878	104.521	108.682	407.322	105.293	-8191	255	
1114.046	1	1	0	0	0.02463	0.28881	0.085416	0.22637	0.17084	0.096783	0.12903	0.16032	0.044988	0.20264	0.15437	0.073086	0.029062	0.3513	0.10092	0.17303	-1.7167	-2.7646	-2.2625	-2.2417	-2.7646	-2.0854	-2.5542	-2.7938	-2.0625	-2.7458	-2.4875	-2.1542	-2.9021	-2.2604	-2.3979	-2.7646	241.491	154.370	328.344	338.402	300.879	373.743	274.058	440.680	391.008	361.892	81.489	353.706	171.840	378.467	349.186	382.459	0.00049226	0.00043943	0.00018789	395.57	3.4776e-05	1.9178e-05	386.43	113.05	2.9643e-05	9.1555e-06	119.14	44.263	42.042	13.8	3.5792e-06	15.217	0.069768	0.13352	0.03646	808.22	0.0013004	0.0015134	871.65	268.47	0.0013229	0.0015313	953.37	127.22	130.38	40.085	0.0014019	50.303	221.856	306.953	147.016	91.695	204.169	432.231	90.520	99.112	226.105	145.766	94.281	100.729	103.984	108.304	283.331	104.105	-8191	255	
1114.142	1	1	0	0	0.040056	0.20461	0.1485	0.088708	0.13403	0.20745	0.11907	0.15316	0.093254	0.33224	0.14683	0.15709	0.21851	0.27193	0.13821	0.19535	-1.6625	-2.625	-2.4979	-2.3458	-2.825	-2.2687	-2.3312	-2.7438	-1.975	-2.6958	-2.3979	-2.1	-2.8083	-2.1896	-2.1188	-2.7562	152.256	335.132	225.514	183.428	302.044	161.601	153.842	225.669	392.759	370.201	239.179	421.254	263.705	419.894	233.658	343.227	0.00014672	0.0037022	0.0006949	389.77	2.6067e-05	1.3191e-05	382.45	113.85	1.5869e-05	4.1716e-05	118.32	47.56	43.911	14.798	2.4808e-05	16.627	0.076091	0.14377	0.039008	841.27	0.0014191	0.0016323	902.86	284.5	0.0014404	0.0016433	1015.9	137.9	139.49	42.806	0.0014936	54.455	127.336	378.457	149.805	92.247	287.174	417.235	90.506	99.732	437.930	371.485	95.424	101.529	104.549	109.287	305.092	105.032	-8191	255	
1114.238	1	1	0	0	0.20267	0.04112	0.046424	0.15623	0.22365	0.30296	0.18367	0.07437	0.3107	0.18184	0.042435	0.052277	0.10205	0.046549	0.30202	0.17367	-1.5729	-2.6333	-2.5333	-1.9604	-2.9625	-2.1583	-2.1562	-2.8083	-1.9271	-2.5563	-2.6292	-1.9104	-2.775	-2.1813	-2.2021	-2.8021	184.076	207.970	233.689	325.897	125.509	419.838	314.481	162.972	386.892	335.681	130.239	354.013	403.641	120.992	194.138	163.539	0.00014211	0.0041725	0.00094441	391.81	2.1179e-05	1.1896e-05	388.71	114.62	3.5469e-06	1.9982e-05	115.58	46.057	41.836	13.945	2.8443e-05	14.633	0.080112	0.14861	0.040717	869.43	0.0014587	0.0016417	915.85	287.07	0.0014089	0.001551	972.8	131.25	128.46	38.57	0.0013262	48.255	226.661	319.975	127.988	92.176	359.816	221.462	91.192	99.582	215.215	371.790	94.932	100.271	104.912	109.536	127.338	104.021	-8191	255	
1114.334	1	1	0	0	0.096463	0.1528	0.05461	0.20839	0.25673	0.24785	0.24198	0.06954	0.066518	0.065729	0.23086	0.06251	0.059062	0.32441	0.086662	0.21693	-1.5875	-2.3542	-2.6229	-2.1729	-2.5771	-2.2167	-2.0375	-2.8042	-2.0021	-2.3646	-2.6521	-1.7437	-2.8104	-2.3937	-1.9583	-2.8896	300.608	397.197	435.910	367.219	180.301	390.325	166.605	281.335	309.530	106.558	366.214	96.287	342.944	171.265	397.911	323.796	0.00018319	0.0049795	0.0014555	385.45	1.1839e-05	2.3018e-05	381.62	108.42	1.8591e-05	6.453e-06	106.59	41.603	38.567	12.29	4.6734e-05	13.284	0.069022	0.12613	0.035392	799.75	0.0012372	0.00139	838.7	258.24	0.0012184	0.0013645	888.11	118.57	117.29	35.169	0.0012734	45.216	107.721	286.368	382.679	92.517	313.474	298.060	91.307	99.139	409.789	242.707	97.101	101.078	104.327	109.302	209.919	105.055	-8191	255	
1114.430	1	1	0	0	0.083873	0.13224	0.21675	0.18145	0.1276	0.10776	0.26439	0.10216	0.14144	0.17099	0.071252	0.094759	0.25444	0.14201	0.075074	0.21754	-1.725	-2.2542	-2.5417	-1.9479	-2.6312	-2.3542	-1.9562	-3	-1.9062	-2.225	-2.6958	-1.9667	-2.575	-2.3854	-1.8479	-2.7188	359.323	129.698	201.441	428.291	233.058	183.079	114.699	328.875	265.981	128.291	386.171	146.712	133.828	313.040	185.122	375.767	4.4381e-05	0.0013336	0.00080687	387.79	8.0048e-06	2.3021e-05	373.01	103.09	1.566e-05	1.6264e-05	104.65	38.871	36.774	11.902	1.1074e-05	12.898	0.065646	0.1221	0.034938	788.62	0.0012034	0.0013723	828.77	252.71	0.001207	0.0013736	898.17	116.65	115.21	35.018	0.0013107	45.462	346.779	358.521	152.364	92.018	287.233	253.290	91.136	99.516	90.718	191.971	97.032	101.178	105.195	109.483	300.787	104.440	-8191	255	
1114.526	1	1	0	0	0.095369	0.21318	0.21818	0.22942	0.31611	0.1063	0.098948	0.22297	0.22901	0.064349	0.079378	0.3505	0.18481	0.12431	0.043938	0.12019	-1.8542	-2.1833	-2.5583	-2.0062	-2.5062	-2.6958	-2.0729	-2.7104	-2.2375	-2.2229	-2.7313	-1.75	-2.6063	-2.6333	-2.1792	-2.7292	398.181	335.335	210.668	347.601	402.501	115.408	257.876	435.398	337.640	234.081	416.630	158.761	132.871	424.817	257.750	396.893	0.00014995	0.00093335	0.00011909	379.32	2.2877e-06	2.1909e-05	374.48	102.82	1.9123e-05	3.8363e-05	104.98	39.379	37.288	12.148	1.1351e-05	12.977	0.066343	0.12595	0.036336	795.09	0.0012243	0.0014253	850.8	257.29	0.0012329	0.0014293	929.61	119.19	117.41	36.368	0.001356	46.709	100.492	206.625	197.416	92.198	221.572	201.416	90.621	99.535	370.764	294.026	95.008	102.076	105.449	109.312	193.903	104.379	-8191	255	
1114.647	1	1	0	0	0.16581	0.12102	0.47232	0.21533	0.090639	0.18996	0.29764	0.19097	0.098659	0.13686	0.087045	0.075875	0.060221	0.1338	0.24948	0.22187	-2.05	-2.1646	-2.75	-2.0854	-2.2354	-2.675	-2.0687	-2.7396	-2.4771	-2.1646	-2.9625	-1.9646	-2.0792	-2.6146	-1.8104	-2.7417	250.633	310.356	157.701	324.917	225.754	425.353	344.330	124.916	351.616	330.220	159.397	242.457	385.373	406.014	141.233	375.784	0.00033926	0.003052	0.00034249	379.69	9.9889e-06	2.9033e-05	379.27	103.79	1.1609e-05	1.3977e-05	107.04	41.317	38.67	12.975	3.8282e-05	14.085	0.067546	0.13034	0.03709	799.28	0.0012388	0.0014617	859.09	256.87	0.0012303	0.0014441	919.97	118.66	116.88	36.673	0.0013031	45.57	178.770	146.532	146.545	92.566	336.727	129.736	91.407	99.829	362.400	278.164	98.992	101.685	105.028	109.097	182.786	105.791	-8191	255	
1114.743	1	1	0	0	0.23148	0.22953	0.21976	0.062171	0.23661	0.27544	0.13173	0.14625	0.15495	0.26427	0.13336	0.24031	0.12115	0.17047	0.16857	0.12268	-2.3	-2.1063	-2.7125	-2.2292	-2.1063	-2.8438	-1.8917	-2.4792	-2.3187	-1.9333	-2.6354	-2.1958	-2.0958	-2.7521	-2.0292	-2.6792	376.216	231.671	308.307	371.379	404.400	371.291	394.203	385.394	390.237	277.150	302.333	99.796	293.756	274.821	164.854	400.118	0.00021305	0.002686	0.00065342	384.21	4.3416e-05	3.0568e-05	370.6	103.29	3.2896e-06	2.5757e-05	101.76	39.276	36.531	12.214	2.3184e-05	13.221	0.063916	0.12372	0.034448	767.16	0.001146	0.0013568	809.19	240.93	0.0011302	0.0013275	845.5	109.97	110.29	34.661	0.0012104	42.413	231.988	255.082	174.388	93.038	269.731	134.934	91.154	99.495	362.956	281.943	96.916	100.254	105.997	110.233	84.124	104.439	-8191	255	
1114.839	1	1	0	0	0.12634	0.28597	0.17176	0.26441	0.10005	0.43141	0.027319	0.1827	0.21864	0.068484	0.25214	0.13196	0.11266	0.063096	0.1115	0.21766	-2.3875	-1.9125	-2.6625	-2.3292	-2.0021	-2.8	-2.1063	-2.4021	-2.6021	-1.8417	-2.775	-2.3042	-2.1042	-2.8792	-1.9708	-2.3792	95.294	442.090	242.434	214.769	253.032	200.999	224.421	165.890	313.981	133.810	250.531	269.291	367.421	209.394	433.144	271.438	0.00031515	0.004614	0.0012315	374.21	1.8831e-05	2.7919e-05	359.21	101.61	1.4292e-05	4.431e-05	97.881	38.822	37.047	11.9	3.2445e-05	12.909	0.061417	0.11881	0.03289	740.99	0.0011176	0.0013193	780.88	234	0.0011152	0.0013013	822.12	107.76	110.05	34.299	0.0011912	42.091	168.052	214.559	245.150	91.920	289.305	205.255	91.158	100.188	262.499	389.040	97.589	102.289	105.671	110.228	98.594	105.342	-8191	255	
1114.935	1	1	0	0	0.20023	0.074489	0.17409	0.12083	0.16478	0.053421	0.24621	0.040746	0.41556	0.31193	0.23714	0.14642	0.29421	0.1843	0.097545	0.25546	-2.3271	-1.8937	-2.6146	-2.3146	-2.0708	-2.7958	-2.2042	-2.3479	-2.7125	-2.0208	-2.5792	-2.3688	-1.9667	-2.7687	-2.0479	-2.2792	198.825	371.324	396.235	341.267	119.482	160.188	417.924	433.568	352.177	342.052	387.161	392.967	88.185	88.605	254.833	427.177	0.00030185	0.0033613	0.00027907	379.55	1.7371e-05	3.8227e-05	363.06	99.305	9.0573e-06	2.5013e-05	96.794	38.246	35.664	12.159	6.489e-06	13.458	0.06222	0.11833	0.032506	743	0.0011359	0.0013202	780.12	233.25	0.0011284	0.001294	808.76	107.15	109.28	33.873	0.0011534	42.117	242.551	334.347	255.497	92.920	253.914	360.389	91.431	100.303	197.505	257.146	99.445	101.742	105.106	110.664	440.406	105.940	-8191	255	
1115.030	1	1	0	0	0.17463	0.064928	0.16289	0.24429	0.10608	0.16207	0.19485	0.1982	0.076619	0.26045	0.1806	0.13049	0.22538	0.191	0.13816	0.19333	-2.3583	-1.9292	-2.6167	-2.5687	-2	-2.7708	-2.1729	-2.3563	-2.8458	-1.7625	-2.5083	-2.4042	-1.8312	-2.9229	-2.2812	-2.1521	112.842	230.693	130.972	427.156	278.390	331.833	123.538	250.508	389.382	431.633	416.096	399.827	285.249	416.115	103.601	423.219	0.00024653	0.0014825	0.0010303	379.82	2.1548e-05	4.474e-05	360.54	100.99	1.4706e-05	2.7926e-05	106.28	40.552	36.464	13.06	1.8778e-05	14.639	0.061377	0.11559	0.031508	739.18	0.00113	0.0012955	775.94	234.38	0.0011358	0.0012889	808.71	110.79	111.86	35.142	0.0011785	44.589	409.940	112.532	193.078	92.922	339.872	396.924	92.015	100.767	332.374	392.529	98.203	102.705	106.720	110.707	234.251	106.087	-8191	255	
1115.126	1	1	0	0	0.13643	0.13965	0.17417	0.1361	0.21352	0.089172	0.3078	0.15432	0.081963	0.070798	0.074647	0.28907	0.29278	0.17402	0.14648	0.11387	-2.3458	-1.8292	-2.4854	-2.6271	-1.9062	-2.725	-2.2438	-2.0042	-2.75	-1.8062	-2.4521	-2.5625	-1.9083	-2.4313	-2.1458	-2.0021	382.551	324.542	429.972	407.805	197.020	111.763	371.520	105.933	289.854	253.902	294.906	224.637	242.551	378.771	113.776	164.309	4.6229e-05	0.0051569	0.0014662	377.05	4.1659e-05	4.5377e-06	360.33	99.428	2.7425e-05	1.3818e-05	95.824	38.703	34.976	12.684	6.9622e-06	14.237	0.06363	0.11804	0.032392	754.15	0.0011554	0.0013042	778.1	236.24	0.0011315	0.0012601	794.77	108.27	108.01	33.763	0.0011424	43.31	206.097	323.319	251.621	93.230	152.498	304.233	92.075	100.291	419.001	320.838	96.977	100.854	105.154	109.505	105.387	105.588	-8191	255	
1115.247	1	1	0	0	0.10525	0.13493	0.26629	0.21523	0.13992	0.098092	0.32621	0.12256	0.25626	0.18404	0.25305	0.19491	0.065197	0.099344	0.23736	0.1081	-2.2354	-2.1021	-2.1979	-2.6667	-2.0708	-2.4833	-2.3292	-2.0875	-2.8688	-2.0896	-2.3042	-2.8167	-1.9417	-2.2938	-2.4688	-1.9896	168.729	140.600	231.473	437.847	284.400	324.520	321.594	107.537	190.104	298.978	160.119	180.609	409.054	170.297	165.230	116.143	0.00017539	0.0018925	0.00025274	371.29	3.7234e-05	2.0032e-05	357.21	94.84	1.2787e-05	1.2084e-05	95.328	35.816	32.761	11.217	2.1602e-05	11.98	0.060954	0.11192	0.031421	740.72	0.0011127	0.0012526	766.88	231.34	0.0011081	0.0012325	797.82	106.24	105.03	32.045	0.0011679	41.462	189.223	268.174	110.312	91.978	265.650	221.993	91.263	98.902	126.165	306.088	95.954	101.380	105.024	109.923	380.242	104.671	-8191	255	
1115.343	1	1	0	0	0.065288	0.23885	0.26776	0.39875	0.10098	0.10595	0.3394	0.17148	0.1752	0.20026	0.25602	0.16824	0.1952	0.16864	0.062454	0.39313	-2.4167	-2.2146	-1.9937	-2.6271	-2.0229	-2.5167	-2.6479	-1.9458	-2.7646	-2.2062	-2.1125	-2.7687	-1.9875	-2.5021	-2.5938	-1.9896	231.393	156.338	270.441	389.413	374.058	242.225	313.625	328.818	258.380	199.939	325.996	272.362	161.447	270.368	132.257	420.944	9.9329e-05	0.00086896	0.0015039	367.49	7.1294e-06	1.9881e-05	350.26	92.557	1.0467e-05	2.4978e-05	91.245	34.449	32.239	10.935	1.1077e-05	11.813	0.060596	0.11175	0.032017	736.13	0.0011012	0.0012538	773.09	229.72	0.0011134	0.0012649	827.19	107.49	106.12	32.62	0.0012366	42.703	224.227	357.619	182.961	92.000	364.633	211.193	91.622	99.692	349.229	299.702	96.978	101.697	105.089	110.230	229.117	104.350	-8191	255	
1115.439	1	1	0	0	0.17842	0.060411	0.16022	0.065483	0.029244	0.19899	0.045835	0.25879	0.058578	0.061678	0.11463	0.12186	0.2831	0.21057	0.12557	0.074113	-2.3875	-2.2542	-2.0729	-2.9021	-2.0854	-2.3917	-2.625	-1.9458	-2.6854	-2.2583	-2.0875	-2.5104	-2.2667	-2.2729	-2.7	-2.0687	336.789	254.176	186.037	119.000	290.352	124.863	84.271	106.438	291.900	381.085	382.020	103.123	196.852	390.955	188.333	272.352	0.00012982	0.0034509	0.00046415	371.29	9.0368e-06	6.3934e-06	349.16	94.416	5.011e-06	2.5654e-05	97.042	34.931	32.86	10.747	2.0952e-05	11.643	0.062639	0.11812	0.034032	758	0.0011438	0.0013248	796.66	235.95	0.0011368	0.00131	850.23	108.04	106.33	33.069	0.0012477	42.487	257.513	82.682	287.760	91.340	413.967	380.871	90.427	99.188	191.067	141.478	97.597	101.214	105.199	110.160	112.606	104.723	-8191	255	
1115.535	1	1	0	0	0.040412	0.20786	0.1105	0.25158	0.13484	0.085596	0.29839	0.21905	0.44172	0.34306	0.17387	0.15192	0.046498	0.1651	0.03482	0.23986	-2.3521	-2.1646	-1.8354	-2.7458	-2.2417	-2.2938	-2.7021	-1.875	-2.6542	-2.3417	-1.9979	-2.5771	-2.0312	-2.0854	-2.5604	-2.1958	227.453	354.940	336.181	429.269	222.060	210.404	388.963	318.177	371.382	164.178	266.942	300.786	393.963	94.080	147.085	154.052	0.00029066	0.0021937	0.00051181	366.48	5.7513e-06	2.4079e-05	348.28	94.87	1.7692e-05	2.7071e-05	94.859	36.339	34.366	11.687	4.6708e-05	12.319	0.061858	0.11931	0.03404	748.16	0.0011248	0.0013354	792.42	234.84	0.0011252	0.001325	851.4	108.86	107.49	34.019	0.0012396	42.363	379.395	178.349	211.230	92.163	285.995	264.124	90.538	99.199	128.823	233.130	97.361	100.863	105.223	109.513	421.873	105.612	-8191	255	
1115.631	1	1	0	0	0.079397	0.14705	0.28845	0.23892	0.17521	0.11043	0.13252	0.43259	0.14309	0.11108	0.1561	0.083653	0.17572	0.16563	0.10071	0.2311	-2.0458	-2.4479	-1.8312	-2.8167	-2.225	-1.9438	-2.9667	-2.0354	-2.4271	-2.6792	-1.8083	-2.7438	-2.3208	-2.0396	-2.4292	-2.2021	173.145	418.889	106.716	160.927	440.366	264.716	368.152	406.512	230.342	131.576	424.544	86.645	92.185	141.798	432.079	385.820	5.9153e-05	0.0012709	0.00065295	372.34	2.9615e-05	2.6157e-05	360.21	99.081	1.25e-05	8.2517e-06	102.37	37.756	35.49	11.754	1.0208e-05	12.413	0.06114	0.1192	0.033435	743.71	0.0011069	0.0013241	790.15	233.28	0.0010959	0.0012889	824.3	106.11	106.24	33.433	0.0011814	40.851	157.715	133.963	374.597	91.243	205.282	245.183	90.062	98.898	221.584	414.937	98.291	101.025	104.784	108.375	416.055	105.055	-8191	255	
1115.727	1	1	0	0	0.26167	0.14039	0.20953	0.072499	0.045976	0.14279	0.11213	0.08021	0.17816	0.0070713	0.097377	0.12369	0.087135	0.097755	0.16209	0.20435	-1.9542	-2.5	-1.8083	-2.575	-2.4104	-2.0438	-2.7708	-1.9813	-2.3375	-2.7542	-1.9417	-2.7896	-2.5312	-2.05	-2.8479	-1.9875	179.522	383.002	289.828	420.258	142.447	82.508	364.579	400.073	404.574	170.747	259.653	409.582	167.446	370.752	259.474	277.754	0.00017597	0.0018691	0.0006782	378.88	1.738e-05	3.2083e-05	365.67	100.43	2.1833e-05	1.2025e-05	97.402	36.927	35.628	11.029	1.4196e-05	11.723	0.059609	0.11609	0.032165	734.15	0.0010926	0.0012965	785.23	230.84	0.0010944	0.0012791	806.9	104.28	106.26	32.6	0.0011608	39.953	278.635	433.727	369.060	92.006	272.014	410.649	90.724	99.513	340.175	395.455	96.572	101.295	104.769	109.593	341.348	105.079	-8191	255	
1115.823	1	1	0	0	0.18604	0.15646	0.11883	0.0549	0.17218	0.1322	0.24723	0.15265	0.16141	0.11886	0.12239	0.19756	0.1215	0.03074	0.22516	0.23234	-1.9229	-2.5417	-1.8917	-2.4396	-2.3563	-2.0062	-2.9396	-2.1896	-2.1375	-2.7792	-2.1562	-2.5958	-2.6458	-1.9062	-2.6271	-2.2896	357.462	294.110	345.142	354.345	223.526	419.546	321.871	104.280	270.558	277.975	245.214	335.410	101.863	418.868	328.146	217.260	0.00024255	0.00086938	0.00073475	382.46	2.3056e-05	4.5927e-05	359.64	101.96	2.8618e-06	1.3344e-05	97.675	37.79	35.121	11.38	2.3048e-05	11.939	0.060446	0.11602	0.031747	738.58	0.0011183	0.0013084	778.28	233.95	0.0011292	0.0013043	808.69	106.25	109.16	33.092	0.0011561	40.585	243.090	252.055	282.296	92.320	123.354	345.369	90.629	99.245	291.245	334.992	95.309	101.184	104.934	108.367	186.377	104.090	-8191	255	
1115.920	1	1	0	0	0.088016	0.10959	0.15378	0.21232	0.07468	0.23312	0.063672	0.02273	0.075055	0.099977	0.29072	0.12602	0.17086	0.28009	0.14407	0.10243	-1.6729	-2.8042	-1.9146	-2.55	-2.3833	-1.8854	-2.7958	-2.3646	-2.1354	-2.9396	-1.9625	-2.2188	-2.7521	-1.9521	-2.6021	-2.4542	372.408	421.572	402.171	289.767	398.576	308.909	272.417	194.513	363.321	252.248	143.963	181.338	107.617	105.349	202.958	274.554	0.00014885	0.0031601	0.00029691	372.4	2.245e-05	2.8131e-05	353.43	98.141	1.8314e-05	3.9532e-05	99.787	35.713	33.865	10.801	3.0576e-05	11.709	0.061508	0.11628	0.031319	736.71	0.0011293	0.0012977	765.06	232.19	0.0011327	0.0012878	796.11	105.35	107.41	32.278	0.0011364	40.469	293.482	384.139	412.399	92.335	80.700	83.807	90.276	98.417	291.288	371.540	97.977	101.266	104.653	109.125	166.218	105.537	-8191	255	
1116.016	1	1	0	0	0.064497	0.15492	0.16713	0.1631	0.20616	0.075944	0.19032	0.33445	0.055587	0.042741	0.19856	0.27151	0.086648	0.3109	0.20792	0.17636	-1.6938	-2.8917	-1.9542	-2.5167	-2.8646	-1.9521	-2.7479	-2.45	-2.1021	-2.7646	-2.1021	-2.35	-2.8708	-1.9312	-2.525	-2.5979	285.636	400.135	310.031	190.639	85.934	207.956	115.325	90.437	155.763	295.688	178.626	101.772	206.011	215.698	321.183	313.745	0.00019108	0.0028442	0.00092088	383.44	2.3801e-05	2.7715e-05	359.7	101.24	1.1731e-05	1.2502e-05	100.3	38.038	35.209	11.275	2.1905e-05	11.954	0.060907	0.11322	0.030751	738.76	0.0011054	0.0012495	760.85	232.84	0.001095	0.0012274	778.73	105.94	106.24	31.649	0.0011071	40.224	294.337	248.894	232.138	91.642	311.155	440.372	90.488	99.196	246.727	350.764	95.985	101.175	104.095	109.462	392.097	104.105	-8191	255	
1116.135	1	1	0	0	0.047324	0.20206	0.21652	0.083363	0.18948	0.16809	0.12796	0.074535	0.14064	0.20472	0.070313	0.18321	0.1826	0.087692	0.36761	0.046238	-1.6479	-2.6583	-2.3521	-2.3187	-3.0229	-2.0417	-2.5458	-2.5583	-1.9646	-2.825	-2.1396	-2.0896	-2.7417	-2.1437	-2.6333	-2.7313	331.636	325.360	294.077	249.807	257.390	105.125	243.831	284.762	152.550	406.222	159.658	423.504	244.643	217.878	323.026	385.305	0.00016922	0.0041658	0.00044615	378.08	3.9533e-05	4.3699e-05	361.24	101.14	1.5563e-05	1.3831e-05	103.98	36.845	34.948	10.901	3.9801e-05	11.098	0.058666	0.1073	0.029902	733.96	0.0010625	0.0011872	749.31	230.06	0.0010519	0.0011657	761.21	103.09	102.88	30.365	0.0010879	38.81	239.053	394.259	224.585	92.094	248.121	129.902	91.530	98.217	375.090	189.412	95.782	101.738	104.317	109.052	209.645	103.562	-8191	255	
1116.208	1	1	0	0	0.16612	0.05962	0.041884	0.19511	0.11668	0.10373	0.14793	0.080135	0.23783	0.051186	0.12773	0.11619	0.17056	0.31448	0.10803	0.12548	-1.6187	-2.6875	-2.3354	-2.3542	-2.9271	-2.1333	-2.6312	-2.7375	-1.7292	-2.6	-2.3917	-1.9917	-3.0062	-2.0729	-2.3	-2.775	436.975	364.026	408.954	435.476	91.564	80.916	379.028	193.915	92.624	100.511	130.362	339.646	137.978	334.861	214.849	104.267	0.00027546	0.0025227	0.00095902	378.73	7.5132e-06	2.3395e-05	355.46	99.256	2.4389e-05	1.2729e-05	101.07	35.379	34.301	10.661	3.4104e-05	10.946	0.056289	0.10317	0.029502	720.37	0.0010166	0.0011463	737.73	224.44	0.0010028	0.0011254	747.87	99.469	99.16	29.417	0.0010642	37.541	207.593	185.907	236.098	91.773	331.505	98.764	91.078	98.160	345.743	401.690	95.713	101.507	103.459	108.645	268.309	103.832	-8191	255	
1116.327	1	1	0	0	0.060123	0.014205	0.14244	0.11328	0.18157	0.067442	0.21156	0.31616	0.12043	0.26817	0.35921	0.067788	0.33698	0.077332	0.039089	0.18915	-1.4375	-2.5417	-2.3104	-2.0542	-2.9313	-2.2313	-2.0938	-2.7458	-1.9562	-2.4292	-2.3937	-1.95	-2.7583	-2.0646	-2.3771	-2.9958	292.865	230.756	337.168	346.352	262.918	149.335	428.712	110.980	381.283	329.541	269.445	111.543	149.559	227.802	342.727	217.022	8.1099e-05	0.0019117	0.00082245	377.74	1.1407e-05	2.8776e-05	357.44	100.17	6.1998e-06	2.7273e-05	102.85	36.392	35.444	10.742	1.4046e-05	11.32	0.053383	0.10001	0.028856	709.89	0.00096562	0.0011136	733.69	220.44	0.00095964	0.0011068	739.45	98.294	97.122	29.359	0.0010376	36.833	200.274	145.760	136.044	91.582	197.476	235.153	90.617	98.213	383.046	321.428	94.495	100.912	104.223	108.855	314.765	103.585	-8191	255	
1116.423	1	1	0	0	0.12632	0.19184	0.082821	0.07498	0.086073	0.13639	0.20469	0.079676	0.1176	0.27479	0.11045	0.20718	0.31258	0.099744	0.080141	0.16464	-1.4562	-2.5375	-2.5312	-2.0479	-2.7062	-2.175	-2.3729	-2.8083	-1.775	-2.3417	-2.4625	-1.9729	-2.7438	-2.2021	-2.0958	-2.8771	183.696	370.386	96.530	312.472	298.539	181.219	275.833	220.348	252.604	144.234	238.545	301.520	96.281	162.679	179.859	222.633	0.00016774	0.0015924	0.00078422	379.45	1.0326e-05	2.5848e-05	360.47	98.575	2.5261e-05	2.2201e-05	97.818	36.619	34.934	11.033	1.2414e-05	11.693	0.051214	0.098111	0.028032	694.95	0.00092673	0.0010959	727.13	214.5	0.00092387	0.0010842	719.24	96.127	95.19	29.514	0.0010204	36.522	236.244	136.772	92.449	91.205	106.266	288.548	89.947	98.312	103.234	132.409	97.920	100.281	104.564	108.940	299.411	103.846	-8191	255	
1116.519	1	1	0	0	0.07257	0.16132	0.38637	0.11752	0.16118	0.13124	0.11135	0.052363	0.25633	0.11837	0.32548	0.14773	0.21769	0.071716	0.31633	0.18173	-1.5792	-2.3854	-2.575	-1.8687	-2.6708	-2.2083	-2.1167	-2.7438	-2.1875	-2.2542	-2.6375	-1.8729	-2.6792	-2.4125	-1.7625	-2.6437	403.804	292.896	329.505	435.997	383.175	384.083	87.485	304.442	92.453	335.622	244.408	114.190	114.003	96.344	96.543	300.986	7.7606e-05	0.00327	0.00089152	374.55	3.2331e-05	1.1989e-05	359.88	97.774	3.298e-05	8.2717e-06	97.263	35.787	34.371	10.867	1.3905e-05	11.66	0.050579	0.098651	0.027662	683.05	0.00091916	0.0010902	712.09	208.14	0.00090205	0.0010625	691.48	92.013	92.359	28.614	0.00095912	34.554	200.244	407.318	304.169	91.501	99.370	124.985	90.966	98.733	309.508	192.010	96.460	100.532	104.671	109.275	206.896	103.883	-8191	255	
1116.615	1	1	0	0	0.057263	0.18477	0.17998	0.19543	0.47111	0.043957	0.026857	0.1553	0.059016	0.23651	0.37566	0.091674	0.12356	0.11594	0.096916	0.099654	-1.6063	-2.2417	-2.6333	-1.8667	-2.5104	-2.6063	-2.0687	-2.6917	-2.1229	-2.2083	-2.6333	-1.8583	-2.4646	-2.3583	-1.9833	-2.6417	266.991	239.976	142.397	87.335	102.585	163.594	342.854	184.220	410.100	330.686	275.764	215.280	200.440	151.866	317.852	177.502	0.0003768	0.0011089	0.00045173	375.86	2.7078e-05	7.4383e-06	358.31	95.397	1.9892e-05	2.5831e-05	96.295	33.99	31.963	9.9728	1.5875e-05	10.509	0.048186	0.09329	0.025865	658.12	0.00087387	0.0010366	688.09	199.78	0.00087248	0.0010261	661.52	87.522	89.224	27.089	0.00092079	32.826	226.164	220.821	393.385	92.089	261.896	270.476	90.648	98.708	182.912	193.735	97.966	101.502	104.807	109.232	100.726	105.287	-8191	255	
1116.736	1	1	0	0	0.16245	0.22849	0.032624	0.074757	0.08957	0.19903	0.21912	0.11177	0.11972	0.17856	0.097261	0.15777	0.098516	0.084131	0.25115	0.18252	-1.725	-2.0896	-2.7229	-2.0417	-2.3854	-2.525	-2.1	-2.6771	-2.1042	-1.9917	-2.8125	-1.9792	-2.2896	-2.5292	-1.9396	-2.7	385.387	322.422	428.340	210.635	324.254	408.463	266.855	371.654	280.746	208.567	290.540	96.278	135.796	152.802	138.598	417.730	0.00033113	0.0028742	0.00046277	377.11	1.0038e-05	4.1413e-06	360.74	95.265	1.6395e-05	5.0517e-06	88.065	33.346	32.272	9.5691	2.5385e-05	10.113	0.047218	0.090347	0.024643	652.33	0.00085541	0.001003	676.54	197.23	0.00085837	0.00099174	642.37	86.395	88.742	26.581	0.00090628	32.676	302.085	222.366	367.683	91.391	236.587	412.954	90.146	99.093	231.367	389.720	96.469	101.827	104.270	109.499	422.800	105.652	-8191	255	
1116.808	1	1	0	0	0.19234	0.28666	0.047815	0.10442	0.044581	0.083109	0.14852	0.16609	0.24364	0.19122	0.18997	0.072221	0.11157	0.15584	0.17355	0.099845	-1.9312	-1.8917	-2.6104	-2.0417	-2.2	-2.7146	-1.9792	-2.6104	-2.2771	-1.9229	-2.9458	-2.1875	-2.1646	-2.6771	-2.0354	-2.5125	128.973	199.864	372.397	385.646	215.623	306.335	189.404	331.977	275.492	279.336	299.277	115.756	370.698	377.082	415.304	82.087	0.0002056	0.0013949	0.00046716	378.48	1.1077e-05	1.0081e-06	354.2	94.683	2.0537e-05	1.4746e-05	93.546	31.899	31.066	9.3628	3.363e-05	10.209	0.048197	0.091261	0.024922	662.77	0.00088772	0.0010225	680.98	199.4	0.00088901	0.0010119	645.21	86.51	88.458	26.369	0.00089771	32.698	252.742	100.687	427.787	91.588	287.559	166.802	90.177	98.051	313.219	145.776	95.086	102.106	105.303	109.096	201.308	104.037	-8191	255	
1116.904	1	1	0	0	0.18661	0.37886	0.32053	0.066527	0.23728	0.11523	0.25263	0.062265	0.018721	0.10667	0.25639	0.21545	0.23702	0.096551	0.05201	0.12212	-2.1521	-1.7437	-2.4437	-2.0938	-2.3146	-2.5271	-2.0104	-2.5687	-2.5667	-2.0021	-2.7396	-2.1771	-2.0875	-2.7438	-2.1042	-2.5563	340.913	391.178	155.626	395.202	434.149	385.450	134.811	142.709	281.125	241.794	169.303	152.021	226.061	190.709	190.175	236.990	0.0002903	0.0024614	0.0003759	369.29	1.5135e-06	1.045e-06	350.3	94.031	1.6812e-05	3.436e-05	96.14	33.437	32.593	10.025	1.614e-05	10.961	0.047901	0.089515	0.024445	658.58	0.00087387	0.00099164	666.56	197.82	0.00086194	0.00096831	630.44	86.454	87.832	26.232	0.0008744	33.159	199.547	112.027	298.106	91.087	372.229	342.777	89.959	98.749	257.591	376.744	94.652	100.309	103.632	108.458	211.733	104.360	-8191	255	
1117.024	1	1	0	0	0.16157	0.36131	0.21662	0.081481	0.15196	0.10646	0.10414	0.1954	0.14797	0.12068	0.095036	0.071096	0.23478	0.29351	0.098317	0.031815	-2.1271	-1.9312	-2.5854	-2.0875	-1.9729	-2.7667	-1.7687	-2.2333	-2.5312	-1.7083	-2.7583	-2.2896	-1.7917	-2.7833	-2.0542	-2.2	236.965	139.747	305.678	335.313	228.897	370.171	302.587	230.549	179.714	123.327	299.671	378.709	101.637	86.566	311.971	245.611	0.00014069	0.0016862	0.00035876	378.71	4.3794e-06	1.687e-05	359.35	97.635	1.2654e-05	2.06e-05	102.84	37.101	34.614	10.988	1.6539e-05	11.824	0.046423	0.085594	0.023852	654.71	0.00084632	0.00095553	666.32	200.66	0.00084087	0.00093532	628.29	89.329	88.9	26.727	0.00086205	33.568	227.496	424.028	245.058	91.496	387.545	430.984	90.179	98.586	172.667	353.606	96.706	101.089	104.104	108.547	407.514	105.426	-8191	255	
1117.119	1	1	0	0	0.27625	0.055912	0.14918	0.025349	0.042367	0.1087	0.26021	0.34368	0.059113	0.16595	0.15595	0.2478	0.45478	0.13771	0.076623	0.31977	-2.2854	-1.8042	-2.4354	-2.3542	-2.1437	-2.7354	-2.0542	-2.2979	-2.6708	-2.0208	-2.55	-2.4521	-1.7812	-2.6958	-1.9625	-2.2313	319.073	199.701	377.697	362.504	184.062	160.918	363.562	403.823	218.112	325.043	330.827	232.544	333.574	397.010	324.105	305.349	0.00026802	0.00068053	0.0010009	378.86	1.1699e-05	2.0544e-05	365.84	97.703	1.0563e-05	1.1479e-05	99.871	35.639	33.722	10.374	3.5185e-05	11.046	0.044677	0.08183	0.023303	648.45	0.00080214	0.00091428	667.23	197.81	0.00079907	0.00090024	616.24	86.573	85.464	25.582	0.00084313	32.033	374.570	162.253	176.325	91.324	130.095	352.893	90.337	99.173	333.530	116.571	98.202	100.670	104.713	108.882	265.495	105.379	-8191	255	
1117.215	1	1	0	0	0.074455	0.0092375	0.17814	0.1533	0.25034	0.039375	0.11903	0.13259	0.15423	0.060468	0.1352	0.1286	0.24809	0.26966	0.20034	0.31949	-2.2271	-1.8062	-2.4271	-2.3521	-1.7979	-2.5792	-2.25	-1.9521	-2.6604	-1.8604	-2.3937	-2.5125	-1.9688	-2.7271	-2.4146	-2.075	354.395	262.946	338.794	165.362	211.638	227.531	153.251	258.287	221.890	214.000	345.361	257.097	435.521	427.091	375.252	250.918	4.2044e-05	0.0018732	0.0004162	374.1	2.4318e-05	7.8115e-06	351.06	93.27	2.3397e-06	1.593e-05	89.183	31.729	30.627	9.4488	9.0899e-06	10.104	0.042678	0.079867	0.022844	635.52	0.0007702	0.00088899	644.73	188.37	0.00076605	0.00088001	598.72	81.044	80.547	24.483	0.00084071	30.658	370.561	147.152	167.498	90.903	157.321	421.179	90.470	99.233	245.079	422.423	98.388	100.662	104.490	109.430	357.913	105.118	-8191	255	
1117.336	1	1	0	0	0.10058	0.026576	0.022983	0.23589	0.23169	0.23922	0.13563	0.23943	0.192	0.24702	0.13619	0.040162	0.3172	0.2161	0.096838	0.25322	-2.1813	-1.8646	-2.2771	-2.5146	-1.7229	-2.6146	-2.3292	-1.9813	-2.6667	-2.0979	-2.3479	-2.6604	-1.925	-2.6146	-2.425	-2.1458	353.393	151.178	217.939	439.698	279.034	267.708	433.222	153.149	292.314	272.845	375.465	230.499	163.551	331.595	394.337	245.116	6.9545e-05	0.00063204	0.00098883	366.44	2.5459e-05	2.9102e-05	341.21	88.873	1.6061e-05	1.5645e-05	90.43	30.912	30.319	9.582	9.3669e-06	10.394	0.042172	0.080656	0.023004	626.94	0.0007716	0.00090317	640.68	184.61	0.00076682	0.0008931	597.09	79.894	79.6	24.504	0.00082672	30.44	288.313	154.405	102.316	91.653	347.725	245.132	90.066	99.159	395.247	211.977	95.447	100.722	104.844	108.682	411.597	104.843	-8191	255	
1117.432	1	1	0	0	0.21964	0.16576	0.075167	0.040406	0.09372	0.027901	0.17802	0.26213	0.14763	0.075617	0.1091	0.15383	0.2727	0.26442	0.25247	0.19983	-2.4375	-2.1	-2.2125	-2.8958	-1.9208	-2.7	-2.4813	-1.9125	-2.4062	-2.0125	-2.2146	-2.7542	-1.9	-2.4646	-2.3229	-1.9021	321.348	440.538	350.015	376.134	347.383	195.500	346.279	107.101	155.542	234.098	89.776	145.603	364.413	237.492	343.168	287.055	0.00017347	0.00052352	0.00022181	362.91	1.1505e-05	9.6671e-06	338.56	87.052	1.4216e-05	3.8484e-05	85.316	31.541	30.264	10.099	4.1782e-06	11.162	0.041213	0.079642	0.022358	610.84	0.00075212	0.00088819	628.82	178.32	0.00074619	0.00087638	582.47	78.809	78.674	24.979	0.00081133	30.762	247.825	440.531	403.006	91.333	226.034	296.910	90.490	99.078	329.534	233.575	95.530	101.591	105.088	109.452	275.090	103.950	-8191	255	
1117.503	1	1	0	0	0.21206	0.1604	0.16677	0.17858	0.029297	0.16955	0.18142	0.25778	0.031172	0.1346	0.1427	0.16618	0.088692	0.10334	0.16082	0.18374	-2.0854	-2.0375	-2.0208	-2.7729	-1.9833	-2.4625	-2.4313	-1.9125	-2.6917	-2.2021	-2.1	-2.7562	-2.1562	-2.3479	-2.575	-1.7979	257.557	218.496	425.294	201.219	89.736	125.511	435.481	292.470	85.012	318.248	183.208	127.276	91.720	408.833	213.232	373.107	0.00027125	0.00036018	0.00031362	361.78	1.2063e-05	1.0863e-05	342.63	88.732	1.0487e-05	3.323e-06	86.068	32.237	30.52	10.355	8.7224e-06	11.444	0.041039	0.079293	0.022013	606.17	0.00074363	0.00087642	622.53	177.85	0.00073301	0.00085231	558.14	77.088	77.465	24.536	0.00075812	29.812	232.343	128.191	273.020	91.502	122.666	178.053	90.733	99.023	227.284	331.634	95.927	101.377	105.321	109.655	375.849	105.189	-8191	255	
1117.600	1	1	0	0	0.075676	0.28979	0.1178	0.20274	0.14395	0.1452	0.15696	0.20626	0.060744	0.21484	0.099967	0.20731	0.14783	0.21885	0.10794	0.13467	-2.2562	-2.3417	-2.0167	-2.5646	-2.2146	-2.3833	-2.675	-1.9771	-2.7604	-2.4833	-1.9542	-2.9062	-1.9708	-2.4271	-2.8438	-1.9188	420.519	394.661	235.093	402.284	262.206	116.659	369.425	180.950	299.417	106.611	98.736	402.268	353.995	283.696	183.610	328.342	0.0003774	0.0026934	0.00027809	362.41	2.2642e-05	2.6345e-05	339.14	89.446	3.1801e-06	1.7066e-05	91.404	32.45	31.075	9.8548	1.0546e-05	10.63	0.039185	0.075038	0.020671	594.36	0.00072133	0.00084214	608.58	175.71	0.00072582	0.00083264	546.8	76.8	77.716	23.983	0.00075069	29.23	321.728	114.676	232.982	92.047	221.860	324.299	90.737	99.338	221.557	291.384	94.776	101.274	104.839	109.391	253.569	105.578	-8191	255	
1117.696	1	1	0	0	0.18412	0.14149	0.23918	0.28462	0.2041	0.23538	0.2067	0.15566	0.35838	0.16313	0.081135	0.048861	0.21391	0.046737	0.20477	0.37951	-2.2354	-2.3521	-2.1063	-2.9208	-2.2917	-2.3375	-2.8104	-1.9125	-2.65	-2.4708	-1.9729	-2.7208	-2.0938	-1.9792	-2.7042	-1.9958	241.103	438.741	350.863	430.696	403.332	194.050	283.168	428.062	334.806	357.779	408.157	218.066	88.791	234.732	109.395	391.181	0.00025233	0.0015432	0.00074329	364.15	2.108e-05	3.7805e-05	339.2	90.203	2.0356e-05	1.1161e-05	88.23	32.312	30.691	10.006	1.1392e-05	10.839	0.039415	0.074319	0.020434	598.37	0.00072396	0.00083646	610.53	177.18	0.00073526	0.00083993	550.5	77.918	79.042	24.169	0.00076792	29.933	220.223	127.084	102.489	91.863	285.309	341.632	90.748	98.368	256.043	265.292	98.329	101.521	105.464	109.362	166.809	105.859	-8191	255	
1117.816	1	1	0	0	0.15284	0.16291	0.10731	0.16811	0.11986	0.18215	0.26463	0.17352	0.04758	0.15042	0.059642	0.16697	0.11623	0.14604	0.19373	0.13983	-2.1562	-2.4708	-2	-2.6896	-2.2375	-2.0396	-2.8479	-2.0375	-2.3375	-2.5354	-1.6583	-2.6729	-2.2375	-1.8333	-2.9229	-2.0271	165.708	107.449	192.423	147.263	226.138	343.199	105.839	189.901	184.505	412.905	412.999	200.074	90.968	300.833	354.996	141.858	0.00019628	0.0017807	0.00047079	366	2.0017e-05	1.3399e-05	341.99	90.428	9.5384e-06	9.3358e-06	89.959	32.824	31.532	10.106	2.1563e-05	11.218	0.040596	0.076192	0.020913	605.99	0.00074184	0.0008513	615.82	179.55	0.00074444	0.00083952	557.81	79.48	79.782	24.506	0.00076993	30.839	264.330	356.881	415.875	91.632	365.617	181.872	91.260	99.003	89.025	371.346	95.688	100.510	104.420	110.279	215.641	105.295	-8191	255	
1117.913	1	1	0	0	0.14125	0.183	0.11295	0.20245	0.22761	0.1472	0.046153	0.14559	0.09347	0.07135	0.055016	0.19814	0.24703	0.10755	0.19359	0.23346	-1.8333	-2.5542	-1.9396	-2.75	-2.1729	-2.0229	-2.7646	-1.9396	-2.1542	-2.55	-1.8375	-2.4833	-2.5563	-1.85	-2.5542	-2.0438	365.977	300.248	91.466	367.710	209.242	422.000	274.683	235.129	232.730	399.222	328.139	334.056	430.729	416.658	283.029	332.262	0.00010539	0.0020489	0.00041991	365.8	3.1064e-05	1.0024e-05	339.46	91.813	3.0604e-05	1.8455e-05	95.269	33.623	32.084	10.817	2.6139e-05	11.5	0.040644	0.075601	0.02106	608.8	0.00074147	0.00083986	615.21	181.44	0.00073635	0.00082489	555.37	80.157	79.724	24.636	0.00076434	30.867	274.642	376.073	330.567	91.678	115.846	163.824	90.076	98.441	403.301	407.909	95.598	101.029	103.952	108.461	156.914	104.822	-8191	255	
1118.009	1	1	0	0	0.048389	0.15994	0.078979	0.099458	0.12424	0.15984	0.28969	0.31285	0.38257	0.31272	0.18876	0.1579	0.3097	0.11836	0.10547	0.1895	-1.8521	-2.8063	-1.8896	-2.4875	-2.4792	-1.9604	-2.725	-1.9937	-2.0771	-2.7083	-1.9479	-2.4333	-2.4146	-1.9229	-2.6104	-2.3771	437.682	94.200	113.612	170.347	335.502	146.444	93.199	122.826	352.680	392.655	233.780	137.946	398.311	354.187	321.273	401.305	0.00022322	0.0013325	0.00040452	360.89	1.1911e-05	1.7977e-05	341.24	90.593	1.0763e-05	1.8477e-06	89.294	32.555	31.133	10.005	2.2297e-05	10.52	0.039575	0.072833	0.020696	600.59	0.00071447	0.00081271	608.98	178	0.00071237	0.00080309	548.86	78.136	77.405	23.675	0.00076232	29.648	113.034	187.539	313.444	90.980	219.193	373.418	90.514	98.510	152.656	247.076	97.227	100.425	103.761	109.135	239.176	105.831	-8191	255	
1118.105	1	1	0	0	0.097992	0.18046	0.10443	0.27046	0.18425	0.12364	0.25964	0.1568	0.20081	0.31076	0.27197	0.16475	0.10389	0.053539	0.38715	0.059057	-1.6583	-2.7771	-1.7812	-2.2896	-2.8667	-1.7833	-2.6813	-2.2687	-2.0542	-2.6521	-2.1271	-2.275	-2.6208	-1.9979	-2.5875	-2.4667	418.176	117.745	287.815	408.983	212.634	303.815	280.912	229.921	270.444	402.170	428.451	342.320	352.539	421.300	368.474	323.464	6.4469e-05	0.0024742	0.00048338	369.27	3.2607e-05	9.3506e-06	351.05	90.987	1.1556e-05	2.2113e-05	93.201	31.988	30.544	9.4037	1.7801e-05	10.153	0.038911	0.073238	0.020768	605.63	0.00070994	0.00082067	620.15	179.32	0.00071144	0.00081624	557.12	77.582	76.8	23.169	0.00077097	29.161	234.099	253.827	164.978	90.902	364.610	143.594	90.335	98.505	162.817	278.548	95.721	101.792	104.283	108.620	415.806	104.407	-8191	255	
1118.199	1	1	0	0	0.28732	0.053514	0.049206	0.42507	0.16795	0.19709	0.14559	0.064338	0.24624	0.10438	0.20176	0.21655	0.16463	0.24713	0.19397	0.047404	-1.4042	-2.7229	-1.9604	-2.425	-2.6208	-1.9167	-2.5854	-2.3167	-2.1292	-2.7104	-1.9937	-1.9	-2.7458	-1.9833	-2.4917	-2.5708	324.691	88.394	396.286	402.355	252.393	157.869	339.778	99.069	434.713	299.144	435.691	147.950	124.009	378.423	400.327	398.568	0.00020969	0.0017989	0.00072899	369.57	4.0082e-05	1.3111e-05	344.97	89.116	5.7988e-06	2.0618e-05	88.614	31.869	31.592	9.6478	2.1353e-05	10.4	0.038727	0.074189	0.021141	610.97	0.0007162	0.00084405	626.18	179.63	0.00072146	0.0008456	571.29	78.659	78.213	23.918	0.00079103	29.772	417.682	105.311	265.811	90.984	147.986	80.870	90.457	98.177	324.365	261.702	95.902	100.330	104.064	109.149	307.939	105.604	-8191	255	
1118.295	1	1	0	0	0.16683	0.078264	0.20138	0.31317	0.11434	0.4385	0.096909	0.2077	0.39031	0.23434	0.22444	0.057769	0.067899	0.19675	0.10956	0.26352	-1.4271	-2.7875	-2.0396	-1.9875	-2.6042	-1.9708	-2.4708	-2.6125	-1.8229	-2.6208	-2.0542	-2.2375	-2.8208	-2.0125	-2.3354	-2.6937	437.241	82.402	279.111	386.194	377.352	203.207	167.384	317.229	403.829	298.399	258.171	230.390	303.774	187.047	130.549	203.988	9.4028e-05	0.0010717	0.00068966	364.64	3.074e-05	1.5252e-05	342.98	89.759	1.3032e-05	1.3545e-05	90.758	32.546	31.296	10.115	1.7211e-05	11.178	0.039979	0.076883	0.021684	608.27	0.00073073	0.00086878	626.21	179.78	0.00073392	0.00086435	576.02	79.533	79.513	24.787	0.00080423	30.736	292.338	138.360	173.367	91.130	239.423	248.916	90.401	98.600	155.981	410.045	93.482	100.136	104.986	109.278	143.575	104.032	-8191	255	
1118.416	1	1	0	0	0.18021	0.10242	0.051046	0.14118	0.18547	0.15209	0.23002	0.30204	0.18188	0.34992	0.13123	0.31342	0.27371	0.060494	0.071582	0.19887	-1.6333	-2.5958	-2.3896	-2.0125	-2.8125	-1.8604	-2.3937	-2.7313	-1.9854	-2.5271	-2.3271	-1.9083	-2.7729	-2.2417	-2.3396	-2.6854	239.063	214.628	268.285	407.456	347.992	379.039	352.190	96.976	360.620	182.485	240.052	326.172	105.446	187.140	361.497	437.756	0.00013323	0.00066481	0.00033452	368.79	1.3544e-05	7.2118e-06	355.55	93.028	1.2029e-05	9.3553e-06	93.629	35.224	33.88	10.635	2.5548e-05	11.705	0.040934	0.079277	0.022076	615.5	0.00075349	0.00089239	643.79	185.3	0.00075949	0.0008923	592.5	82.865	83.343	25.79	0.00082211	31.663	236.611	307.892	242.319	91.163	104.369	286.193	90.568	98.415	268.610	433.301	96.159	101.014	105.439	108.295	405.189	103.916	-8191	255	
1118.512	1	1	0	0	0.12104	0.31048	0.12512	0.1081	0.15366	0.10522	0.18367	0.048087	0.13118	0.11531	0.21419	0.24718	0.051406	0.17396	0.18426	0.11732	-1.5396	-2.4813	-2.2792	-2.0062	-2.6146	-2.15	-2.2313	-2.6437	-1.775	-2.4188	-2.4062	-1.8146	-2.5167	-2.0896	-2.075	-2.8021	234.002	158.327	89.325	381.374	158.047	342.575	399.576	376.777	307.948	396.936	243.179	411.376	340.370	313.306	93.975	85.950	0.00020994	0.0010447	0.00074077	368.07	1.4464e-05	4.7983e-06	353.35	93.514	1.1858e-05	7.9557e-06	99.541	34.587	32.696	9.9244	1.5363e-05	11.005	0.04245	0.081976	0.022668	624.65	0.00079588	0.00093433	656.65	191.13	0.00082275	0.00095805	628.67	86.486	88.135	26.579	0.00089429	33.224	261.876	189.073	369.437	91.402	250.498	304.941	90.014	98.385	249.097	259.777	95.644	101.401	104.897	108.300	255.347	104.128	-8191	255	
1118.608	1	1	0	0	0.096483	0.093242	0.10538	0.15885	0.11044	0.12312	0.12106	0.10525	0.095727	0.33821	0.14586	0.066563	0.12767	0.066896	0.10477	0.24776	-1.6604	-2.6729	-2.4917	-1.9188	-2.5667	-2.3187	-1.8958	-2.7917	-2.1562	-2.2958	-2.6	-2.0604	-2.6813	-2.4146	-1.9688	-2.725	368.908	250.314	146.714	172.233	183.231	253.299	328.349	158.287	389.125	184.091	295.439	95.968	118.961	142.866	365.093	298.333	0.00019348	0.00061105	0.0001829	374.6	1.8926e-05	1.2626e-05	357.32	94.111	2.3976e-05	2.5457e-05	92.757	34.554	33.136	9.9447	3.2605e-05	11.161	0.047436	0.090328	0.024742	657.23	0.00088577	0.0010261	682.34	201.66	0.0009012	0.0010355	667.83	90.778	93.079	27.927	0.00095739	35.337	260.828	317.628	133.388	91.513	197.358	387.083	90.092	98.319	306.955	132.979	97.028	99.778	103.297	108.422	327.504	104.146	-8191	255	
1118.729	1	1	0	0	0.13255	0.020724	0.13858	0.10222	0.26368	0.33558	0.18588	0.12484	0.03871	0.027628	0.094211	0.21701	0.071804	0.25449	0.10227	0.14613	-1.6146	-2.1604	-2.5729	-1.7521	-2.4062	-2.3521	-1.9688	-2.7125	-2.0104	-2.4375	-2.6042	-1.8542	-2.5563	-2.4708	-1.9562	-2.6729	197.413	387.723	126.206	342.491	84.322	389.166	160.933	155.184	87.113	422.698	360.095	110.158	370.164	421.089	144.506	287.179	0.00028508	0.0014695	0.00069582	369.94	1.1615e-05	3.5339e-05	350.15	92.823	4.867e-06	1.7075e-05	97.185	34.791	32.841	10.427	2.0906e-05	11.593	0.051327	0.096898	0.026736	680.62	0.000957	0.0010969	704.13	210.58	0.00097539	0.0011109	715.62	96.674	98.315	29.419	0.0010348	37.987	183.961	262.450	403.945	90.974	215.737	243.943	90.636	98.886	279.526	94.222	95.313	100.690	103.854	109.244	344.474	104.170	-8191	255	
1118.801	1	1	0	0	0.21722	0.12856	0.29311	0.29063	0.066924	0.062428	0.16187	0.14678	0.1639	0.086811	0.26678	0.086752	0.33583	0.15032	0.026308	0.26039	-1.8125	-2.1375	-2.6125	-2.0438	-2.5792	-2.4062	-1.9333	-2.725	-2.275	-2.125	-2.6396	-2.0667	-2.5104	-2.8021	-1.8979	-2.7792	230.047	124.225	171.261	170.986	223.334	278.613	432.242	320.209	260.004	151.986	169.287	388.157	313.429	87.428	419.172	405.681	0.00019531	0.0010588	0.00095723	369.27	9.4642e-06	9.0096e-06	357.92	96.355	3.6761e-05	8.2729e-06	97.812	36.633	34.798	11.34	1.7621e-05	12.558	0.05548	0.10333	0.028781	707.41	0.0010304	0.0011662	737.8	222.79	0.0010488	0.0011792	765.65	103.93	103.98	31.358	0.0011046	40.747	162.009	283.217	384.167	91.580	285.841	198.833	90.446	98.537	436.906	139.772	96.949	101.069	105.201	109.210	315.685	104.194	-8191	255	
1118.897	1	1	0	0	0.11281	0.026479	0.080547	0.13311	0.22578	0.34593	0.12459	0.05844	0.24113	0.1706	0.066504	0.34095	0.39732	0.27732	0.36275	0.26089	-1.8375	-2.0625	-2.6813	-1.9688	-2.3812	-2.5208	-1.9208	-2.7	-2.1896	-1.9333	-2.7562	-2.0438	-2.15	-2.6229	-1.9042	-2.6104	115.707	95.882	250.413	384.701	361.083	343.299	286.026	424.401	351.906	142.579	388.409	227.570	359.334	92.512	266.931	188.080	6.1438e-05	0.001263	0.00030536	370.93	2.9986e-05	2.206e-05	360.18	97.795	4.2162e-05	2.2534e-05	105.58	36.421	34.878	10.797	2.1867e-05	11.813	0.057831	0.10709	0.030226	722.16	0.0010523	0.0011865	754.24	226.22	0.0010366	0.0011668	772.15	103.19	102.54	30.663	0.0011087	39.665	235.993	343.094	134.277	91.138	186.405	182.023	90.797	98.719	83.220	251.408	96.472	101.596	103.900	108.735	407.193	104.282	-8191	255	
1118.993	1	1	0	0	0.32249	0.15129	0.064938	0.12273	0.14142	0.019219	0.065265	0.050419	0.047547	0.19899	0.2015	0.15601	0.053391	0.13669	0.28126	0.098297	-1.9521	-2.0229	-2.7812	-2.3417	-2.4708	-2.7667	-2.0375	-2.6729	-2.575	-1.85	-2.7292	-2.1646	-2.1562	-2.6354	-1.9083	-2.5146	185.477	157.416	307.625	386.987	158.905	281.007	328.603	349.506	205.250	425.331	144.492	351.366	222.643	390.943	220.062	325.673	0.0001653	0.00039189	0.0019296	373.18	1.0277e-05	2.0352e-05	353.08	96.783	1.2771e-05	3.4629e-05	99.811	35.263	33.49	10.175	1.259e-05	11.317	0.056675	0.10657	0.030674	721.53	0.0010334	0.0011887	753.62	224.78	0.0010276	0.0011766	776.11	101.13	100.36	30.17	0.0011119	38.833	319.597	151.467	140.854	91.467	111.553	352.690	90.771	98.785	199.189	151.922	96.409	100.925	104.511	108.792	264.353	104.601	-8191	255	
1119.112	1	1	0	0	0.073101	0.093343	0.17185	0.071945	0.1093	0.27196	0.14051	0.19093	0.28107	0.20205	0.23727	0.09924	0.085565	0.25721	0.09416	0.30136	-2.0958	-1.8458	-2.7375	-2.1458	-2.3646	-2.7021	-2.0333	-2.5812	-2.5458	-2.025	-2.7396	-2.2292	-1.9104	-2.6646	-1.8583	-2.4125	403.037	253.691	330.287	231.265	285.000	120.258	175.749	352.185	436.359	299.897	176.647	216.709	284.839	333.080	136.120	286.364	0.00020045	0.0022453	0.0011533	375.54	1.8321e-05	2.4109e-05	358.85	98.233	1.4508e-05	1.6521e-05	99.077	36.788	35.062	10.982	3.5332e-05	11.845	0.055897	0.10699	0.030775	723.96	0.0010348	0.0012155	764.2	227.32	0.0010353	0.0012106	798.79	103.81	103.06	31.465	0.0011468	39.994	109.914	109.184	107.626	91.598	270.992	211.780	91.122	99.160	213.528	267.465	96.676	100.228	103.969	108.690	134.296	104.507	-8191	255	
1119.208	1	1	0	0	0.11481	0.11991	0.18663	0.14709	0.32366	0.22022	0.16002	0.21358	0.056869	0.098217	0.37906	0.13508	0.32835	0.20506	0.15817	0.22076	-2.1542	-1.8479	-2.5687	-2.3458	-2.0104	-2.675	-1.9833	-2.5875	-2.6896	-1.9896	-2.4875	-2.3354	-2.1354	-2.7042	-2.1188	-2.3208	225.196	297.911	315.547	405.473	155.776	384.243	391.376	378.792	88.262	292.592	95.427	144.953	129.610	362.252	283.496	106.375	0.00023191	0.00088127	0.00050697	368.27	1.3397e-05	4.3765e-05	360.46	98.44	1.1965e-05	1.4578e-05	98.71	37.091	35.493	10.945	3.2533e-06	12.188	0.057465	0.1113	0.031593	727.9	0.0010636	0.0012653	778.8	229.4	0.0010702	0.0012616	814.09	105.04	105.14	32.487	0.0011715	40.702	289.477	173.450	276.859	90.533	338.981	137.135	90.083	98.865	250.668	236.341	96.443	101.181	104.280	108.931	104.927	103.523	-8191	255	
1119.304	1	1	0	0	0.09042	0.065933	0.13209	0.089729	0.083233	0.14986	0.094025	0.15372	0.049275	0.051352	0.10513	0.12511	0.27689	0.16039	0.23813	0.32744	-2.2875	-2.0729	-2.6417	-2.3625	-1.9583	-2.6292	-2.0875	-2.0521	-2.6542	-1.9562	-2.5042	-2.5812	-1.9375	-2.6083	-2.1375	-2.1021	123.424	125.910	153.852	321.006	418.000	123.283	296.890	256.280	233.675	121.649	195.349	353.498	227.359	190.417	206.463	312.250	0.00036144	0.0027751	0.00052329	374.48	1.5716e-05	1.0261e-05	361.24	97.728	1.2103e-05	3.5624e-05	101.89	36.81	35.806	11.301	3.403e-05	12.317	0.059206	0.11501	0.032092	732.07	0.001086	0.001291	777.33	228.81	0.0010877	0.0012765	810.64	104.61	106.16	32.606	0.0011515	40.037	242.494	263.771	90.788	91.433	101.153	118.370	90.477	98.188	272.365	379.895	94.584	100.101	104.191	108.233	105.517	103.598	-8191	255	
1119.378	1	1	0	0	0.15476	0.13849	0.31169	0.21617	0.22065	0.11308	0.29108	0.096234	0.24173	0.19897	0.11214	0.038835	0.18751	0.10403	0.19602	0.41525	-2.3958	-1.8896	-2.3937	-2.4188	-1.95	-2.7313	-2.1625	-1.9542	-2.7271	-2.0083	-2.3521	-2.65	-2.0187	-2.6813	-2.3271	-1.9854	249.400	363.239	221.604	382.846	227.386	171.909	350.799	294.700	375.837	229.122	236.977	372.327	133.844	297.729	266.041	409.194	0.000244	0.0026242	0.0011526	371.57	2.7244e-05	2.1312e-05	354.83	96.786	3.6851e-05	3.0092e-05	94.853	35.248	33.415	10.269	7.2092e-06	11.254	0.059048	0.11341	0.031014	715.5	0.0010717	0.0012477	753.47	223.29	0.001069	0.001233	778.41	100.85	103.1	31.093	0.0011079	38.461	248.516	181.942	364.985	91.184	277.880	195.849	89.704	98.242	337.533	392.531	98.877	101.035	104.477	109.158	271.206	105.398	-8191	255	
1119.496	1	1	0	0	0.17951	0.063763	0.15179	0.07833	0.30876	0.036143	0.060504	0.28557	0.10289	0.13426	0.089627	0.10527	0.12682	0.16455	0.11978	0.1203	-2.4167	-1.9417	-2.3125	-2.6562	-1.9521	-2.6271	-2.45	-1.9937	-2.7104	-2.0438	-2.1333	-2.5687	-2.0229	-2.5167	-2.2729	-2.0354	280.082	272.747	213.670	153.082	119.355	418.735	329.110	375.376	269.308	429.288	177.871	327.406	111.587	195.526	170.113	214.412	0.00037938	0.0021745	0.00046724	373.49	1.7239e-05	2.0734e-05	355.84	95.515	1.0143e-05	1.988e-05	101.7	34.946	33.364	10.072	1.2081e-05	11.413	0.058437	0.11019	0.030038	713.06	0.0010583	0.0012161	741.76	220.18	0.0010481	0.0011958	752.44	99.54	101.44	30.278	0.0010738	38.222	211.817	141.270	383.156	91.276	252.141	404.139	90.652	98.213	98.069	357.173	94.184	99.985	103.827	108.332	387.485	104.204	-8191	255	
1119.593	1	1	0	0	0.22871	0.14406	0.19311	0.12416	0.22051	0.18133	0.23957	0.12579	0.088252	0.074186	0.12011	0.14386	0.12658	0.25436	0.058436	0.082097	-2.3021	-2.1375	-1.9396	-2.6417	-1.9729	-2.4729	-2.4688	-1.9354	-2.6604	-2.1271	-2.1396	-2.6667	-1.775	-2.5271	-2.4854	-2.0187	431.128	95.174	384.910	220.219	179.498	404.088	429.013	216.929	331.148	234.412	381.120	421.951	169.429	205.398	288.835	328.007	0.00012141	0.0011597	0.00029682	374.1	2.4157e-05	5.2432e-05	362.54	95.297	1.3339e-05	1.075e-05	102.28	35.542	33.695	10.219	2.1331e-05	11.445	0.057433	0.10734	0.02939	714.59	0.0010498	0.0011977	743.86	222.81	0.0010521	0.0011854	759.02	101.4	102.5	30.324	0.0010878	38.946	361.292	422.760	154.099	90.558	253.006	417.097	90.008	98.051	320.873	293.035	94.411	101.131	104.149	108.043	195.216	103.938	-8191	255	
1119.689	1	1	0	0	0.27312	0.20346	0.064472	0.091852	0.23652	0.22097	0.29941	0.041353	0.11042	0.22022	0.010009	0.043077	0.14523	0.33504	0.058779	0.20075	-2.325	-2.2396	-2.0812	-2.8042	-1.9271	-2.4521	-2.5563	-1.9979	-2.7583	-2.2354	-1.9958	-2.7375	-1.85	-2.1917	-2.4271	-2.0083	439.352	194.275	115.163	135.881	126.869	362.288	392.516	278.683	306.860	228.915	347.749	88.339	353.203	96.207	99.184	280.530	8.1454e-05	0.0036699	0.00061732	374.77	1.0342e-05	1.575e-05	355.38	95.647	2.4028e-05	3.7943e-05	101.13	36.029	34.377	10.613	6.6705e-06	11.74	0.057938	0.10672	0.029807	722.99	0.0010587	0.001199	747.12	224.96	0.0010634	0.001188	769.41	103.13	103.31	30.766	0.0011122	40.184	430.182	297.420	417.509	91.141	397.537	349.828	90.243	97.385	371.538	312.316	95.762	101.358	103.835	108.277	339.229	104.929	-8191	255	
1119.809	1	1	0	0	0.3928	0.13282	0.37682	0.22805	0.12197	0.12199	0.16975	0.19909	0.14074	0.077084	0.20164	0.39842	0.18189	0.15905	0.27234	0.071445	-2.0875	-2.4313	-1.9875	-2.7875	-1.7938	-2.3604	-2.6667	-2.0812	-2.5583	-2.4062	-1.6542	-2.6063	-2.1042	-1.9854	-2.9042	-1.9792	251.220	277.790	393.563	129.275	351.355	318.465	382.142	399.776	356.206	138.655	94.170	431.229	263.422	225.269	404.603	385.374	0.00020403	0.00069363	0.00077117	370.09	1.7338e-05	3.5461e-05	361.87	98.186	1.3573e-05	1.4056e-05	100.6	36.98	35.005	11.058	2.3355e-05	12.367	0.058562	0.10802	0.030626	729.96	0.0010688	0.0012088	761.99	229.51	0.0010667	0.0011991	789.45	105.48	104.16	31.158	0.0011228	40.249	337.820	363.868	176.013	90.710	384.272	320.587	89.758	98.698	401.943	170.554	96.446	99.599	104.011	108.872	304.515	104.275	-8191	255	
1119.905	1	1	0	0	0.33603	0.20061	0.1498	0.13756	0.12483	0.15795	0.21782	0.19129	0.34864	0.18509	0.02149	0.16391	0.076134	0.13765	0.21045	0.16298	-2.1625	-2.4062	-1.7812	-2.6542	-1.9792	-2.0875	-2.8583	-1.9167	-2.525	-2.4458	-1.9083	-2.4979	-2.2146	-2.0812	-2.4917	-2.025	147.789	363.009	374.267	372.421	88.963	234.330	119.593	338.302	178.942	330.108	133.442	314.567	134.089	410.707	373.590	223.981	0.00026662	0.0010795	0.00075429	376.36	3.0185e-05	3.5298e-05	362.25	97.714	7.6387e-06	2.023e-05	100.77	36.096	33.956	10.339	1.6812e-05	11.323	0.057047	0.10677	0.030734	728.62	0.0010454	0.0011995	765.79	227.27	0.0010371	0.001184	786.83	102.99	101.06	30.255	0.001126	38.953	409.621	181.142	126.305	91.259	404.861	102.779	90.085	98.401	406.155	295.079	94.758	100.886	104.325	108.494	389.466	104.602	-8191	255	
1119.977	1	1	0	0	0.15594	0.1673	0.26172	0.2333	0.071419	0.18867	0.11	0.12044	0.13087	0.13299	0.19675	0.2272	0.087881	0.28866	0.032374	0.059719	-1.9042	-2.6146	-1.8417	-2.7687	-2.3479	-2.2208	-2.9542	-1.9813	-2.3729	-2.4896	-1.9042	-2.5062	-2.4167	-2.1417	-2.7979	-2.025	130.633	237.639	211.816	285.923	391.422	301.345	377.031	412.212	195.362	323.793	99.508	359.015	366.103	150.919	184.462	208.936	0.0001181	0.0017081	0.00052426	377.63	3.0082e-05	7.4644e-06	365.36	98.087	6.6544e-06	3.0981e-05	102.8	35.324	33.813	10.254	1.8012e-05	11.24	0.056027	0.1066	0.030548	724.42	0.0010202	0.0011965	761.07	224.28	0.0010197	0.0011933	784.61	101.83	100.85	30.724	0.001132	38.907	251.855	146.495	168.883	90.751	360.124	242.056	90.108	98.278	265.863	324.622	99.939	101.023	103.724	108.781	286.068	105.062	-8191	255	
1120.098	1	1	0	0	0.15723	0.10612	0.094421	0.11073	0.27671	0.2244	0.052837	0.18737	0.076335	0.10249	0.16064	0.23352	0.20489	0.337	0.20244	0.19301	-1.7917	-2.5146	-1.7563	-2.6271	-2.3729	-2.0542	-2.9208	-2.1188	-2.1937	-2.6542	-1.7188	-2.5417	-2.4229	-1.975	-2.7708	-2.1917	367.571	290.665	334.325	406.182	169.990	400.485	154.075	288.524	122.817	318.433	140.584	329.481	104.379	263.144	326.113	119.000	0.00015731	0.0010379	0.00062135	373.86	2.7067e-05	2.0341e-05	355.49	97.033	2.3714e-05	2.2894e-05	100.38	34.991	33.699	10.363	1.6903e-05	11.174	0.056427	0.10935	0.030889	720.63	0.0010319	0.0012277	758.23	223.49	0.0010402	0.0012265	788.51	100.87	101.27	30.923	0.0011331	38.579	218.469	193.974	405.125	90.720	136.869	219.956	90.020	98.366	238.869	166.192	96.647	100.826	104.311	109.013	293.167	104.189	-8191	255	
1120.192	1	1	0	0	0.19229	0.064657	0.12232	0.12947	0.2106	0.22093	0.092259	0.3029	0.099195	0.1651	0.072165	0.070889	0.189	0.045246	0.20011	0.25611	-1.7146	-2.7333	-1.8896	-2.5479	-2.4917	-1.9083	-2.7021	-2.1479	-1.9583	-2.6604	-2.0396	-2.5438	-2.6229	-1.9854	-2.8854	-2.1417	96.862	181.054	400.454	172.694	333.536	121.379	437.368	163.518	276.083	166.233	346.886	199.531	88.512	154.954	162.272	114.701	0.00033624	0.0043681	0.00096556	376.75	1.2935e-05	1.5285e-05	358.33	97.563	3.1399e-05	3.4253e-05	101.21	37.579	35.73	10.907	1.7535e-05	12.115	0.056849	0.11077	0.030805	716.21	0.0010387	0.0012384	759.72	223.65	0.0010414	0.001229	783.21	102.36	103.58	31.638	0.001115	39.045	254.536	164.722	208.652	91.055	350.860	324.169	90.448	97.973	327.502	313.256	96.462	100.914	103.615	109.209	97.369	104.731	-8191	255	
1120.288	1	1	0	0	0.30746	0.043563	0.084538	0.12621	0.11894	0.12283	0.12194	0.10903	0.29477	0.079584	0.16859	0.19949	0.21635	0.084165	0.30062	0.11418	-1.75	-2.7729	-1.9937	-2.3875	-2.425	-1.7604	-2.675	-2.3063	-2.0333	-2.5792	-2.075	-2.4896	-2.7021	-1.925	-2.5583	-2.3833	385.821	234.575	249.513	328.702	212.729	297.691	226.860	122.869	153.703	411.944	205.740	230.629	177.345	296.107	297.173	335.478	0.00026342	0.00208	0.00064602	379.04	1.5851e-05	1.2782e-05	368.6	101.87	1.2783e-05	6.0515e-06	107.85	39.118	36.501	11.082	3.3444e-05	12.467	0.057021	0.10975	0.030177	715.34	0.0010442	0.0012252	759.84	224.43	0.0010383	0.0012044	768.03	102.5	104.11	31.394	0.0010778	38.709	257.240	160.728	240.505	91.507	248.287	366.277	90.098	98.343	347.895	125.805	95.705	100.892	104.329	109.192	436.542	104.479	-8191	255	
1120.409	1	1	0	0	0.11082	0.16039	0.08325	0.32935	0.19244	0.065292	0.2456	0.19227	0.13869	0.037587	0.16395	0.076962	0.16	0.22475	0.10662	0.24257	-1.4729	-2.6625	-1.9375	-2.25	-2.5708	-1.9917	-2.6271	-2.5563	-1.8542	-2.7375	-2.2375	-2.1	-2.7313	-2.0021	-2.4208	-2.5458	135.345	428.861	327.496	349.278	298.893	341.488	226.850	161.880	164.178	358.571	115.486	99.855	415.080	306.281	313.522	410.856	0.00037056	0.002981	0.00045939	378.55	1.7513e-05	7.431e-06	359.42	99.749	1.3117e-05	4.0301e-05	104.69	35.503	34.47	10.359	2.0442e-05	11.42	0.056611	0.10752	0.029225	711.59	0.0010386	0.0012023	742.44	222.02	0.0010396	0.0011844	745.87	99.283	101.64	30.093	0.0010549	37.678	227.535	207.194	129.067	91.261	299.545	185.612	90.265	98.950	242.094	335.100	94.388	100.526	104.513	109.179	211.468	104.423	-8191	255	
1120.505	1	1	0	0	0.15982	0.082196	0.13267	0.31439	0.1015	0.2464	0.19273	0.071995	0.24623	0.36998	0.20585	0.15105	0.097603	0.082098	0.15742	0.16843	-1.5208	-2.7521	-2.2104	-2.0917	-2.7375	-1.9271	-2.3521	-2.7208	-1.9958	-2.6958	-2.0438	-2.0271	-2.7146	-1.9438	-2.4896	-2.7646	272.301	205.434	431.882	430.383	389.003	218.820	237.365	320.722	323.785	121.593	118.656	388.076	221.635	396.735	99.314	250.810	0.00043341	0.00085754	4.4225e-05	375.75	1.3241e-05	2.6293e-05	358.45	99.363	1.3587e-06	1.4791e-05	104.1	35.968	34.114	10.29	1.2311e-05	11.258	0.056378	0.10572	0.028758	711.63	0.0010358	0.001183	737.26	223.02	0.0010452	0.0011813	750.91	100.93	102.42	30.088	0.0010738	38.527	265.199	349.368	394.062	91.708	210.209	321.560	90.039	98.041	260.146	390.524	94.543	100.842	104.168	109.251	308.325	103.958	-8191	255	
1120.601	1	1	0	0	0.23158	0.1943	0.18733	0.28599	0.042983	0.016464	0.26136	0.058354	0.14535	0.119	0.29025	0.094085	0.12002	0.15015	0.10596	0.23819	-1.5667	-2.6646	-2.4104	-1.8354	-2.7896	-2.2083	-2.2979	-2.7271	-1.8813	-2.725	-2.3125	-2.1479	-2.8354	-2.0187	-2.05	-2.7062	434.436	118.526	227.538	437.128	94.999	183.183	149.487	237.797	340.559	157.748	388.250	400.517	427.556	91.653	438.620	405.671	0.00025181	0.00079222	0.00051967	379.7	2.4019e-05	1.8605e-05	361.73	97.437	1.081e-05	4.8077e-06	104.02	36.914	34.418	10.462	1.7624e-05	11.742	0.057243	0.10606	0.0293	718.73	0.0010462	0.0011787	744.52	224.11	0.0010391	0.0011606	754.74	101.87	101.77	29.96	0.0010698	39.069	347.879	293.497	381.663	91.061	231.308	391.463	90.052	98.795	277.170	101.845	96.013	101.457	104.188	109.196	204.205	105.158	-8191	255	
1120.673	1	1	0	0	0.26535	0.22041	0.08342	0.092948	0.3962	0.056231	0.064442	0.077693	0.23815	0.069279	0.1835	0.071537	0.46029	0.11853	0.20142	0.13005	-1.5167	-2.4271	-2.5417	-1.8833	-2.6458	-2.1688	-2.1813	-2.6292	-1.8958	-2.5458	-2.5708	-1.8083	-2.8333	-2.0938	-2.0333	-2.7292	90.601	107.702	416.172	180.474	93.483	262.899	288.280	315.266	186.628	358.040	367.927	294.786	95.114	127.286	339.953	290.701	0.00028921	0.002357	0.00046458	379.4	1.4391e-05	1.6936e-05	368.52	99.952	3.6965e-05	2.2379e-05	105.61	36.997	35.654	10.914	2.8671e-05	11.893	0.056497	0.10374	0.029309	719.99	0.0010306	0.0011562	750.96	226.49	0.0010232	0.001149	759.52	102.56	101.71	30.271	0.0010868	39.485	288.303	352.294	141.186	91.586	249.490	191.991	91.074	98.693	420.497	130.425	98.132	100.758	103.511	109.041	293.727	105.091	-8191	255	
1120.794	1	1	0	0	0.22805	0.16366	0.11087	0.19152	0.079633	0.17174	0.29386	0.14245	0.34865	0.15632	0.10924	0.14327	0.10471	0.13264	0.18148	0.10058	-1.625	-2.375	-2.3042	-1.9271	-2.7062	-2.3187	-2.1104	-2.7167	-2.0708	-2.2104	-2.5979	-1.8896	-2.7646	-2.2917	-2.1771	-2.6917	228.382	116.249	300.448	120.405	260.293	123.341	357.047	375.754	82.992	407.602	165.012	124.462	333.188	248.900	316.829	408.605	0.00032361	0.00037274	0.00020604	372.09	1.7338e-05	2.5659e-05	357.32	98.656	3.0154e-05	5.6246e-06	104.6	37.054	35.388	10.791	2.4339e-05	11.738	0.055555	0.10331	0.029745	712.22	0.0010056	0.0011437	739.88	223.03	0.00099742	0.0011357	759.5	101	99.569	29.971	0.0010793	38.34	254.082	291.732	93.331	91.331	373.693	336.091	91.081	98.046	416.876	224.644	93.041	100.641	104.186	109.278	214.101	104.333	-8191	255	
1120.890	1	1	0	0	0.26283	0.068058	0.3013	0.16763	0.24046	0.063294	0.099751	0.069759	0.26416	0.14627	0.35745	0.055864	0.069451	0.23435	0.21096	0.16824	-1.5917	-2.3542	-2.6292	-1.8896	-2.6125	-2.3	-1.9042	-2.7417	-2.0521	-2.375	-2.6229	-2.0729	-2.6146	-2.2313	-1.7583	-2.675	416.608	117.579	221.720	424.318	210.953	220.334	419.238	206.693	177.357	127.371	348.764	329.837	329.345	106.293	373.078	104.246	0.00031074	0.00057894	0.00028516	378.72	1.5217e-05	3.1495e-05	355.73	100.09	1.8129e-05	3.4735e-05	102.55	37.643	35.846	11.169	4.5702e-06	11.659	0.05377	0.10206	0.029359	709.24	0.00097976	0.0011489	744.78	223.5	0.00097991	0.0011487	766.65	101.76	100.52	30.756	0.0010944	38.675	312.547	133.206	302.656	91.209	167.171	417.386	90.831	98.501	212.131	232.545	95.430	100.956	105.360	108.250	400.127	105.773	-8191	255	
1120.986	1	1	0	0	0.25	0.16244	0.22523	0.21281	0.22539	0.35054	0.10683	0.34635	0.12613	0.19999	0.2548	0.06786	0.11204	0.15864	0.10202	0.2065	-1.7333	-2.0375	-2.7667	-1.9271	-2.5667	-2.4958	-2.0333	-2.7875	-2.325	-2.1042	-2.7479	-1.8792	-2.3625	-2.5458	-2.05	-2.8542	188.233	122.667	340.993	259.343	330.024	313.153	120.151	349.086	337.179	311.335	284.967	241.174	367.109	440.545	106.550	334.598	0.00044915	0.0003476	0.00017234	379.07	2.8087e-05	3.798e-05	369.22	102.76	1.1238e-05	1.5585e-05	107.7	38.375	35.954	10.928	1.4182e-05	12.326	0.054033	0.1053	0.02983	714.88	0.00098661	0.001181	757.27	224.55	0.00099767	0.0011778	775.09	101.43	101.33	31.009	0.001104	38.826	257.988	332.420	384.218	91.315	333.631	247.613	90.291	99.236	380.000	379.237	95.899	101.506	103.976	109.697	319.118	103.935	-8191	255	
1121.080	1	1	0	0	0.20553	0.063005	0.25946	0.082401	0.11303	0.11644	0.063268	0.12166	0.12124	0.33602	0.30589	0.11505	0.070381	0.14621	0.013123	0.16284	-2	-2.0646	-2.7167	-1.9438	-2.5542	-2.6458	-1.8792	-2.7646	-2.15	-1.9937	-2.7687	-2.1396	-2.3625	-2.6771	-1.7625	-2.4604	366.465	155.664	193.678	321.664	344.735	153.831	286.016	135.114	345.974	162.409	340.715	234.251	151.692	109.960	435.931	108.074	0.00043621	0.0016249	0.00035132	379.06	3.711e-05	2.9821e-05	365.65	102.98	1.1784e-05	1.2484e-05	107.63	38.355	37.486	11.278	1.502e-05	12.543	0.055373	0.10835	0.030188	713.18	0.0010171	0.0012184	759.45	226.58	0.001022	0.0012089	778.73	101.94	103.33	31.687	0.0010939	38.789	243.819	106.963	239.770	91.272	189.840	276.996	90.333	98.778	267.282	436.085	95.696	100.327	104.078	108.115	169.653	104.404	-8191	255	
1121.178	1	1	0	0	0.1645	0.098107	0.20012	0.13442	0.059465	0.18649	0.16688	0.1284	0.14787	0.18533	0.37197	0.052848	0.099978	0.2139	0.28952	0.069102	-1.9083	-1.9958	-2.6688	-2.1646	-2.2229	-2.8854	-1.8542	-2.5563	-2.4729	-2.0104	-2.6417	-2.0875	-2.1312	-2.6917	-1.9042	-2.7271	136.447	191.324	112.446	372.811	189.885	392.827	144.799	319.640	147.362	263.446	423.907	422.295	274.021	212.319	211.104	431.686	0.00058392	0.0011072	0.00030898	378.24	2.9014e-05	2.3798e-05	367.61	103.59	2.152e-05	2.283e-05	111.7	38.557	37.76	11.373	2.3739e-05	12.641	0.055705	0.10775	0.029567	707.68	0.0010173	0.0012005	747.79	224.39	0.0010172	0.0011821	758.54	100.89	103.67	31.192	0.0010565	38.483	235.709	400.115	392.510	91.574	176.047	195.705	90.239	98.422	199.417	159.426	95.937	99.561	104.510	108.546	346.322	104.200	-8191	255	
1121.273	1	1	0	0	0.11292	0.086714	0.19159	0.11981	0.25754	0.052816	0.27379	0.18626	0.045188	0.11885	0.11615	0.15268	0.10498	0.18878	0.16053	0.38858	-2.1063	-1.7	-2.6417	-2.2521	-1.8792	-2.6562	-1.9833	-2.3979	-2.5875	-2.0729	-2.6292	-2.325	-1.8813	-2.7042	-1.9167	-2.2438	166.818	349.304	398.674	315.912	239.295	248.875	276.456	439.093	400.100	335.387	334.649	207.660	425.670	315.151	231.161	427.964	0.00022839	0.0016932	0.00025717	384.86	2.9762e-05	7.5321e-06	372.23	106.2	9.3495e-06	4.1202e-05	104.88	39.349	37.223	11.138	7.3691e-06	12.533	0.055654	0.10597	0.02867	709.54	0.0010165	0.0011755	744.95	225.27	0.0010184	0.0011646	745.31	101.42	103.73	30.887	0.0010426	38.654	236.852	227.494	426.575	91.246	246.778	304.232	89.594	98.509	269.463	244.482	95.626	100.614	104.700	109.244	86.500	104.620	-8191	255	
1121.369	1	1	0	0	0.11636	0.2011	0.14117	0.44752	0.082733	0.15275	0.23033	0.060466	0.056104	0.20382	0.10934	0.069293	0.10045	0.24646	0.069373	0.25514	-2.2396	-1.8937	-2.6875	-2.1896	-2.0708	-2.9354	-2.0083	-2.3042	-2.6688	-1.9708	-2.6396	-2.4542	-1.9833	-2.6729	-1.9958	-2.2917	255.392	334.805	118.918	430.054	99.700	136.802	286.529	142.569	378.260	229.291	182.837	413.961	158.470	98.568	412.765	352.245	0.0004637	0.0020484	0.00026292	384.25	3.2704e-05	2.364e-05	369.66	103.74	4.7651e-06	3.6149e-05	110.58	38.05	35.921	10.831	1.7258e-05	12.144	0.056366	0.10521	0.028568	715.78	0.001027	0.0011751	742.51	226.74	0.00103	0.0011633	744.31	102.16	103.24	30.573	0.0010478	38.992	251.338	298.975	188.684	91.212	189.075	83.158	90.481	98.249	365.059	417.691	93.755	101.557	104.803	108.924	195.654	105.620	-8191	255	
1121.489	1	1	0	0	0.018169	0.1623	0.059994	0.45648	0.17612	0.19756	0.068187	0.16428	0.1708	0.23549	0.17775	0.13251	0.10492	0.24175	0.15244	0.1796	-2.2354	-1.9625	-2.5667	-2.5292	-1.8646	-2.7833	-2.2583	-2.2771	-2.8208	-1.9521	-2.4104	-2.3333	-1.7021	-2.6312	-1.9646	-2.2125	104.677	350.425	99.360	334.523	91.739	384.792	114.654	287.016	95.988	177.066	251.489	238.275	277.466	195.877	264.460	372.392	0.00030534	0.0012816	0.0012546	381.7	1.9546e-05	1.8713e-05	359.42	103.91	2.8167e-05	4.3376e-05	109.66	39.402	36.783	11.656	1.674e-05	12.726	0.056308	0.10386	0.028663	717.7	0.0010229	0.0011514	732.21	225.93	0.0010084	0.001119	733.81	101.63	102.36	30.283	0.0010282	39.045	297.718	279.335	208.346	91.318	116.749	133.788	91.020	98.474	254.779	433.668	95.966	100.718	105.054	108.968	317.359	104.993	-8191	255	
1121.585	1	1	0	0	0.18958	0.11755	0.05867	0.19825	0.42972	0.34268	0.39944	0.016162	0.082585	0.048947	0.26121	0.033388	0.33894	0.22062	0.1255	0.36943	-2.3542	-2.0375	-2.2917	-2.6167	-1.8375	-2.7	-2.2396	-2.1146	-2.775	-2.1458	-2.2604	-2.7062	-1.9833	-2.6479	-2.2771	-1.9729	133.964	274.647	127.987	140.730	238.029	297.493	321.164	255.684	399.306	200.231	94.996	354.234	260.211	352.214	435.753	364.684	0.0002252	0.0028489	0.00011568	386.11	3.3666e-05	2.9898e-05	364.78	104.11	2.095e-06	2.0205e-05	109.76	38.763	37.303	11.263	2.3737e-05	12.342	0.054409	0.09914	0.027995	710.54	0.00098308	0.0011027	729.32	224.83	0.00097836	0.0010846	732.45	100.3	100.16	29.538	0.0010275	38.246	203.378	146.649	208.300	91.883	274.712	366.914	91.056	98.324	281.013	325.037	94.905	100.334	103.608	108.055	90.944	105.078	-8191	255	
1121.682	1	1	0	0	0.090955	0.12829	0.086411	0.148	0.12951	0.04328	0.14983	0.079386	0.11416	0.17358	0.18902	0.35367	0.10583	0.064514	0.12827	0.18437	-2.2667	-2.0667	-2.2625	-2.7	-2.075	-2.4042	-2.3208	-2.0062	-2.7208	-2.0542	-2.3583	-2.6229	-1.9979	-2.3729	-2.3854	-1.9792	203.469	386.009	274.772	359.544	269.726	408.904	296.487	223.308	175.536	279.357	93.551	305.725	316.681	379.860	335.463	394.517	0.00027947	0.001888	0.00041306	386.69	3.7891e-06	3.4965e-05	369.93	102.08	7.7277e-06	2.5132e-05	111.71	38.287	36.893	11.249	1.9906e-05	12.272	0.052734	0.097754	0.028048	711.12	0.00095835	0.0010995	739.51	223.97	0.00095961	0.0010871	742.09	100.58	99.288	29.632	0.0010504	38.207	272.254	404.447	167.186	91.673	96.355	153.089	90.534	98.750	327.362	262.047	96.296	101.268	104.386	109.226	220.507	103.785	-8191	255	
1121.778	1	1	0	0	0.12348	0.23222	0.12467	0.081812	0.1678	0.13156	0.14859	0.13266	0.13047	0.30711	0.11985	0.050786	0.24581	0.073239	0.49507	0.29916	-2.4542	-2.0312	-1.9708	-2.6583	-1.8354	-2.4458	-2.5458	-2.1083	-2.7458	-2.1646	-1.8937	-2.5417	-1.8229	-2.2188	-2.4542	-1.8188	308.057	331.030	438.829	300.734	156.444	118.586	340.840	136.283	270.712	377.841	400.570	204.366	370.585	397.893	173.494	404.175	0.00030619	0.0018832	0.00053898	387.36	6.4206e-06	3.3303e-05	364.37	103.54	2.3873e-05	2.5136e-05	109.83	37.273	36.332	10.969	1.0834e-05	12.2	0.052655	0.099509	0.028792	712.87	0.00095945	0.0011189	743.31	223.69	0.00095895	0.0011158	752.34	99.873	98.758	29.841	0.0010543	37.727	196.349	141.601	377.546	91.452	82.186	205.246	90.859	98.656	104.205	164.008	96.819	101.041	103.881	109.606	114.800	103.550	-8191	255	
1121.898	1	1	0	0	0.19572	0.10753	0.21904	0.26475	0.065487	0.17803	0.18327	0.061712	0.35804	0.19935	0.20579	0.25414	0.25067	0.12841	0.31044	0.21101	-2.2646	-2.0687	-1.9937	-2.8521	-2.0646	-2.2125	-2.4813	-1.7125	-2.575	-2.2771	-1.9354	-2.7729	-2.1417	-2.3563	-2.5104	-1.8979	129.799	418.743	283.599	354.740	160.139	173.774	226.961	440.092	383.593	96.454	378.432	438.650	88.698	95.712	426.022	408.733	0.00014651	0.00049421	8.3642e-05	382.22	1.2687e-05	6.7255e-06	365.75	104.38	2.2939e-05	1.2608e-05	104.89	37.3	36.278	10.78	2.732e-05	11.698	0.051851	0.10024	0.028343	701.06	0.00093786	0.001121	735.91	220.4	0.00094296	0.001114	739.39	97.877	97.877	29.674	0.0010461	37.016	238.120	261.708	422.613	91.307	350.165	194.908	90.192	98.748	414.338	232.637	95.543	100.495	104.170	109.333	231.691	105.037	-8191	255	
1121.970	1	1	0	0	0.23598	0.079516	0.081055	0.15299	0.063904	0.28023	0.23376	0.2314	0.16143	0.12784	0.26028	0.15274	0.30154	0.21108	0.10757	0.019133	-2.1458	-2.4479	-1.9875	-2.8958	-2.0021	-2.1917	-2.8417	-1.8167	-2.5292	-2.3917	-1.7771	-2.8979	-2.3042	-2.0667	-2.7396	-1.9958	172.899	334.253	152.318	397.837	134.947	388.559	406.733	278.279	426.361	374.704	317.126	183.624	127.419	403.552	371.268	419.331	0.00031782	0.0018429	0.0010559	384.01	3.2706e-05	2.1714e-05	367.01	102.02	1.9685e-05	1.9937e-05	108.69	37.107	35.958	10.423	1.8774e-05	12.109	0.052103	0.10175	0.028371	699.53	0.00094741	0.0011298	736.51	217.02	0.00094923	0.0011228	733.58	96.46	97.799	29.437	0.0010289	36.593	288.307	177.517	251.443	91.437	299.309	155.837	91.217	98.744	233.311	433.926	94.762	101.027	104.524	109.931	184.735	104.374	-8191	255	
1122.089	1	1	0	0	0.32026	0.25622	0.18718	0.25411	0.25356	0.096241	0.028461	0.27581	0.14154	0.15242	0.11563	0.22272	0.17898	0.069506	0.24122	0.099855	-2.0875	-2.4083	-1.8188	-2.7313	-2.0417	-1.9937	-2.8021	-1.9958	-2.2896	-2.6042	-1.8792	-2.4375	-2.2271	-2.1167	-2.6	-1.9979	252.205	413.340	170.167	430.059	426.250	155.431	284.164	318.587	173.552	406.283	397.287	209.406	411.794	126.076	276.947	110.705	0.00034752	0.0016993	0.00064034	391.32	1.5937e-05	1.0319e-05	372.92	103.47	1.0084e-05	2.657e-05	108.51	36.589	35.412	10.473	3.1597e-05	11.705	0.052319	0.10095	0.027916	700.08	0.0009562	0.0011333	739.11	217.37	0.00096876	0.0011313	730.33	96.73	98.843	29.681	0.0010315	36.948	219.240	373.733	393.652	91.834	183.147	269.071	90.296	98.772	222.308	102.068	95.881	100.809	104.864	108.861	324.149	105.018	-8191	255	
1122.185	1	1	0	0	0.24785	0.096633	0.12523	0.20124	0.14823	0.14651	0.28271	0.1543	0.30137	0.065377	0.068661	0.14618	0.085071	0.23202	0.26233	0.034469	-1.9229	-2.6437	-1.5958	-2.6146	-2.2604	-1.925	-2.7583	-2.0417	-2.2375	-2.6813	-1.8833	-2.5896	-2.3521	-1.9292	-2.8771	-1.9875	296.828	359.212	374.085	343.687	277.045	181.997	347.064	394.645	289.446	190.548	183.707	321.105	152.152	328.495	112.400	217.323	0.00032663	0.0014186	0.00087717	385.38	1.0041e-05	2.3334e-05	364.57	102.31	2.3234e-05	1.6285e-05	107.02	36.839	36.255	11.157	2.7642e-05	12.759	0.054319	0.10335	0.0282	705.04	0.00099729	0.0011578	729.12	219.28	0.00099169	0.0011336	720.37	97.089	100.03	30.052	0.00099433	37.414	131.683	259.071	293.977	91.764	279.924	222.986	90.055	99.215	238.641	375.693	96.039	101.041	104.257	108.963	313.141	103.223	-8191	255	
1122.281	1	1	0	0	0.086068	0.019481	0.14288	0.2441	0.089926	0.14322	0.44279	0.17807	0.20292	0.3408	0.2201	0.31521	0.13247	0.069808	0.098113	0.22378	-1.6083	-2.7333	-1.9271	-2.4104	-2.4625	-1.9542	-2.7292	-2.0938	-2.1854	-2.7292	-1.9583	-2.5687	-2.6125	-1.8417	-2.6	-2.0979	315.221	313.299	167.155	116.384	381.382	136.676	352.958	116.987	314.155	250.667	158.987	277.125	198.695	364.546	88.653	243.365	0.00018588	0.0019141	0.00026372	388.76	2.4155e-05	1.4259e-05	359.97	103.49	1.3392e-05	3.6513e-05	103.38	36.945	36.034	10.518	2.6185e-05	11.626	0.053153	0.10018	0.027096	700.86	0.00098506	0.0011246	720.33	221.15	0.00099147	0.0011216	719.54	98.688	100.5	29.262	0.0010026	37.025	263.922	317.640	283.392	91.434	108.262	137.596	90.932	98.581	138.193	419.992	97.025	100.401	105.109	108.768	421.006	104.620	-8191	255	
1122.377	1	1	0	0	0.12662	0.08654	0.138	0.17314	0.08601	0.12238	0.037215	0.22982	0.14596	0.20348	0.039507	0.16873	0.26286	0.17728	0.11752	0.3383	-1.5479	-2.6458	-1.9167	-2.3896	-2.2771	-1.975	-2.7583	-2.1375	-1.8312	-2.7896	-1.8813	-2.2458	-2.6146	-1.8563	-2.6771	-2.225	147.994	281.472	346.872	418.721	402.209	192.663	383.834	241.684	189.612	260.484	398.812	344.437	250.688	90.332	292.303	332.000	0.00020551	0.0037465	0.00083369	392.95	1.7329e-05	4.0202e-05	365.49	105.42	1.2319e-05	1.2305e-05	106.11	35.823	35.128	10.062	8.9449e-06	11.358	0.053483	0.099527	0.027556	716	0.00099879	0.0011325	731.9	226.3	0.001004	0.0011233	736.12	99.577	100.78	29.091	0.0010443	38.305	325.737	326.357	162.409	91.287	113.150	307.686	90.636	98.705	346.194	356.391	95.610	101.175	103.903	108.884	178.684	105.844	-8191	255	
1122.474	1	1	0	0	0.17533	0.14063	0.32533	0.13052	0.049638	0.24742	0.056184	0.30977	0.15506	0.17986	0.23485	0.12721	0.10797	0.10904	0.065121	0.23749	-1.5708	-2.5479	-1.9583	-2.3146	-2.6437	-1.7062	-2.6125	-2.5229	-1.8333	-2.9042	-2.0375	-2.1625	-2.6021	-1.9833	-2.4875	-2.5833	161.425	351.652	126.608	112.357	368.239	116.540	369.454	140.893	225.256	288.321	291.309	87.391	309.920	288.889	137.276	90.237	0.00018662	0.0011526	0.00061684	387.15	4.094e-06	2.5329e-05	364.74	103.43	3.8183e-06	2.8014e-05	103.76	34.219	33.332	9.8149	1.3383e-05	10.816	0.055801	0.10356	0.029133	733.09	0.0010409	0.0011791	752.52	232.69	0.0010563	0.001178	780.15	101.59	102.47	29.72	0.0011205	39.362	143.883	341.951	374.635	92.017	286.746	359.437	91.089	99.401	439.970	155.593	94.884	100.982	104.918	110.051	174.313	104.798	-8191	255	
1122.570	1	1	0	0	0.25012	0.12676	0.22226	0.12144	0.12182	0.17281	0.11994	0.15095	0.15231	0.16021	0.16182	0.078871	0.15328	0.16245	0.23992	0.22556	-1.4229	-2.6813	-2.1146	-2.25	-2.8021	-1.9542	-2.4479	-2.3625	-2.1063	-2.6646	-1.9833	-2.3042	-2.8833	-1.9354	-2.5333	-2.6688	434.084	143.208	93.221	425.550	342.511	120.775	162.826	241.806	407.099	267.805	143.774	274.206	209.088	409.392	356.134	406.466	0.0002172	0.00063932	0.0007963	384.22	1.4457e-05	1.3595e-05	352.07	103.88	4.3034e-06	1.1506e-05	107	34.393	33.819	9.9662	2.4729e-05	11.027	0.057921	0.10736	0.030816	739.82	0.0010576	0.001201	759.04	233.84	0.0010507	0.0011896	794.14	101.78	101.76	29.814	0.0011297	39.146	135.440	178.907	201.938	91.172	298.798	151.736	90.386	98.439	150.532	408.184	96.999	100.627	103.333	108.491	268.933	104.797	-8191	255	
1122.666	1	1	0	0	0.16091	0.011817	0.27518	0.36178	0.04002	0.08414	0.18553	0.1424	0.25222	0.28049	0.091565	0.2059	0.26273	0.18364	0.09788	0.38016	-1.4771	-2.6875	-2.3583	-2.1292	-2.6292	-2.0208	-2.3167	-2.6208	-1.825	-2.6937	-2.2604	-2.1125	-2.7917	-1.9958	-2.2625	-2.8021	384.958	96.441	280.648	341.722	427.162	277.388	103.333	88.791	435.049	159.275	336.619	121.452	112.398	184.533	209.107	99.585	0.00025216	0.0033254	0.00062687	391.38	1.8683e-05	3.2217e-05	364.29	103.78	9.9015e-06	2.5152e-05	105.13	35.41	35.081	9.8677	9.3705e-06	11.396	0.056674	0.1073	0.030899	740.22	0.0010303	0.001199	766.66	232.56	0.0010183	0.0011869	790.03	101.1	100.72	29.824	0.0011153	38.884	296.191	104.969	253.581	91.441	434.849	131.517	89.910	98.487	150.475	232.226	93.540	100.630	105.045	108.116	437.688	104.224	-8191	255	
1122.762	1	1	0	0	0.22005	0.082653	0.056211	0.18236	0.20518	0.13655	0.054946	0.21387	0.13727	0.069708	0.099154	0.096524	0.051602	0.15316	0.37885	0.20095	-1.4417	-2.6729	-2.1896	-1.9958	-2.7271	-2.1458	-2.1333	-2.6875	-1.7333	-2.525	-2.3812	-2.1042	-2.6667	-2.0042	-1.9	-2.75	297.204	310.012	194.524	399.789	231.664	395.420	435.053	119.881	135.653	161.483	124.192	322.884	395.254	166.364	227.774	311.564	0.0003056	0.0022808	0.00015729	396.78	2.5578e-05	8.1694e-06	377	105.21	8.7957e-07	2.9363e-05	112	34.483	34.563	9.7021	1.6563e-05	10.539	0.05562	0.10809	0.030641	742.36	0.0010231	0.0012145	776.34	232.79	0.0010301	0.0012206	802.96	100.74	102.15	30.242	0.0011451	38.444	239.489	83.254	311.590	91.513	288.203	391.980	90.000	99.063	234.172	291.297	95.269	100.593	103.469	108.925	166.392	103.286	-8191	255	
1122.858	1	1	0	0	0.26185	0.039636	0.025751	0.18396	0.038744	0.14966	0.10339	0.16876	0.092541	0.257	0.36869	0.23611	0.16714	0.15325	0.27097	0.14705	-1.5312	-2.3979	-2.4333	-2.1625	-2.8458	-2.2208	-2.2854	-2.9375	-1.9542	-2.4875	-2.3646	-1.9688	-2.5604	-2.2229	-2.0875	-2.6875	146.126	396.527	213.950	89.415	81.493	171.494	395.668	379.206	231.460	282.866	180.338	371.024	92.851	88.255	221.207	178.717	0.00030833	0.002505	0.0002172	394.61	1.6263e-05	1.8456e-05	369.1	102.83	1.1777e-05	3.2789e-05	103.45	32.341	33.111	9.2737	1.8365e-05	10.376	0.057438	0.11249	0.031537	746.01	0.0010628	0.0012681	780.74	232.38	0.0010695	0.0012715	818.57	100.07	103.58	30.743	0.0011775	38.692	304.203	304.507	276.792	91.283	230.773	436.229	90.157	98.143	132.300	195.436	94.736	101.521	103.773	109.792	389.862	103.636	-8191	255	
1122.977	1	1	0	0	0.28893	0.18396	0.14893	0.19644	0.18779	0.041011	0.19394	0.10161	0.15548	0.15935	0.18277	0.091088	0.14799	0.075778	0.12671	0.15692	-1.6229	-2.2354	-2.6646	-1.7896	-2.6875	-2.4708	-1.9479	-3.0125	-2.0021	-2.2438	-2.6188	-1.7021	-2.6604	-2.3667	-1.9583	-2.6958	268.817	163.228	393.208	224.201	183.451	407.219	411.503	312.723	108.854	91.586	259.264	105.574	412.617	430.377	152.143	152.213	0.00034715	0.0031534	0.00037352	393.28	2.042e-05	2.3505e-05	357.6	101.97	2.6769e-05	1.4222e-05	103.48	33.254	34.188	9.6125	5.3537e-06	11.094	0.05993	0.11679	0.032273	747.28	0.0011047	0.0013048	781.39	233.78	0.0010997	0.0012801	807.89	100.37	104.9	30.94	0.0011321	38.868	211.488	336.833	338.200	91.224	190.627	128.202	89.952	98.372	232.244	222.896	95.432	100.743	105.139	108.568	195.423	104.857	-8191	255	
1123.073	1	1	0	0	0.16494	0.16415	0.13137	0.069976	0.13415	0.059291	0.15295	0.098433	0.17518	0.15235	0.13015	0.11341	0.084215	0.21036	0.43696	0.14827	-1.5354	-2.15	-2.5354	-1.8854	-2.5146	-2.5187	-2.1458	-2.7896	-2.1583	-2.1271	-2.6604	-1.9813	-2.5583	-2.4271	-1.8104	-2.8167	353.055	392.856	393.698	378.728	112.056	246.932	334.181	381.639	217.392	281.858	191.500	327.909	273.561	92.993	221.206	379.646	0.00028978	0.0029673	0.00050954	396.34	3.7021e-05	5.8261e-06	374.44	107.37	3.1641e-05	6.2788e-06	115.02	37.252	37.246	10.747	7.2294e-06	12.385	0.058557	0.11118	0.03027	739.78	0.0010636	0.0012296	766.55	233.19	0.0010556	0.0012107	774.1	101.91	105.85	31.239	0.0010821	39.438	264.781	274.055	256.115	91.821	282.528	237.214	90.735	98.423	235.215	363.892	97.407	100.194	105.359	108.630	309.325	104.002	-8191	255	
1123.171	1	1	0	0	0.26187	0.17414	0.065525	0.060975	0.18412	0.25765	0.10285	0.20295	0.13343	0.14088	0.15958	0.34768	0.13954	0.11231	0.14603	0.067562	-1.7604	-2.0479	-2.7167	-2.0479	-2.4688	-2.5104	-1.8479	-2.6854	-2.1354	-1.9479	-2.6354	-2.0875	-2.4917	-2.5208	-1.9813	-2.7146	290.652	358.198	439.777	131.532	161.561	392.213	316.749	401.929	320.167	249.811	356.093	440.797	212.220	142.046	287.055	312.965	0.00050761	0.0020707	0.00064181	401.33	7.0181e-06	4.7057e-05	376.19	105.18	1.1347e-05	3.0698e-05	112.55	35.207	35.127	9.8912	6.5624e-06	11.39	0.057934	0.10841	0.029457	742.94	0.0010618	0.0012214	762.75	232.58	0.0010694	0.0012083	772.99	101.01	104.5	30.245	0.0010965	39.001	243.137	403.791	232.507	91.381	144.466	363.950	90.391	99.118	85.541	90.525	95.140	100.790	104.380	109.253	88.390	104.344	-8191	255	
1123.266	1	1	0	0	0.023474	0.049208	0.1306	0.22016	0.10836	0.09658	0.20501	0.066165	0.24117	0.10332	0.076549	0.033055	0.27367	0.10252	0.23886	0.26667	-1.8646	-2.0312	-2.8063	-2.1375	-2.2396	-2.5458	-1.8167	-2.5271	-2.3833	-1.9625	-2.8854	-2.1792	-2.3583	-2.5875	-1.9208	-2.4771	248.558	350.273	398.258	365.368	147.367	405.020	335.562	118.774	138.383	257.722	202.187	364.401	300.096	419.909	142.005	365.941	9.8402e-05	0.00034973	0.00043833	393.62	1.8019e-05	1.9568e-05	359.85	100.18	1.3658e-05	3.3795e-05	106.67	33.619	33.221	9.463	2.0957e-05	10.937	0.058437	0.10892	0.030114	745.85	0.0010787	0.0012276	760.17	233.28	0.0010931	0.0012311	794.83	102.81	105.52	30.506	0.0011527	40.368	266.977	321.742	151.301	91.061	139.999	342.394	90.094	99.503	376.948	291.147	95.768	101.050	104.554	108.745	226.164	104.845	-8191	255	
1123.362	1	1	0	0	0.051003	0.2731	0.067284	0.21539	0.061649	0.098953	0.050835	0.14322	0.21222	0.12648	0.099151	0.10684	0.054769	0.085673	0.17547	0.11379	-2.0062	-1.9813	-2.6937	-2.0563	-2.2521	-2.7354	-2.1042	-2.6188	-2.4625	-1.875	-2.7083	-2.1646	-2.1458	-2.6771	-1.975	-2.5083	100.212	123.369	181.681	182.824	297.528	85.001	328.085	397.511	411.442	178.925	82.573	423.347	325.257	282.463	241.775	238.967	0.00029685	0.0032025	0.00086702	387.88	7.0273e-06	1.4378e-05	361.11	97.481	7.5758e-06	2.4441e-05	105.01	33.821	33.651	10.021	2.9659e-05	11.559	0.061387	0.11331	0.031956	761.2	0.0011336	0.00128	781.15	237.31	0.0011314	0.0012651	824.02	105.44	106.79	31.128	0.0011802	41.352	192.863	83.782	433.097	91.436	431.465	116.156	91.269	99.003	97.717	261.525	96.867	100.990	104.491	109.464	289.611	104.928	-8191	255	
1123.458	1	1	0	0	0.24533	0.32145	0.10601	0.29552	0.12064	0.11853	0.072886	0.22262	0.18811	0.23533	0.10971	0.20201	0.22165	0.2036	0.10335	0.14307	-2.0667	-1.9188	-2.6562	-2.3729	-2.0354	-2.6521	-2.1188	-2.3521	-2.5708	-1.8312	-2.6896	-2.3458	-2.0458	-2.7062	-2.0229	-2.4083	429.313	228.178	304.115	352.770	88.108	180.833	425.949	431.494	117.702	371.129	240.728	419.121	123.245	386.169	164.267	320.945	0.000151	0.00045509	0.00092718	388.43	1.8515e-05	2.0654e-05	370.34	101.45	2.1666e-05	6.7939e-06	110.77	35.919	34.399	10.362	1.992e-05	12.271	0.060465	0.11145	0.031742	753.51	0.0010886	0.0012365	780.62	234.71	0.0010721	0.0012133	808.88	104.27	103.97	30.783	0.0011436	40.514	332.551	217.178	250.495	91.529	191.011	425.774	90.806	99.535	426.576	385.569	94.772	101.013	105.136	109.859	149.024	105.632	-8191	255	
1123.578	1	1	0	0	0.4731	0.0569	0.05506	0.16826	0.21899	0.14466	0.46163	0.21195	0.17519	0.21178	0.1722	0.12801	0.074227	0.14239	0.20865	0.19548	-2.3729	-1.8208	-2.5625	-2.3771	-1.8958	-2.6667	-2.1833	-2.3125	-2.6813	-2.0396	-2.4708	-2.4375	-2.0229	-2.6458	-2.1875	-2.0396	183.569	198.601	423.990	179.782	121.869	402.676	389.506	243.365	235.531	266.186	425.184	99.759	166.079	376.970	280.300	242.400	0.00016226	0.00068312	0.0012584	390.33	3.1121e-05	3.4046e-05	363.1	100.33	1.9742e-05	2.1474e-05	102.09	33.578	32.814	9.8452	1.1577e-05	11.198	0.057718	0.10876	0.031361	746.63	0.0010551	0.001223	771.99	230.59	0.0010515	0.001214	805.22	102.22	102.1	30.51	0.0011613	39.675	126.785	129.478	216.117	91.427	422.185	314.105	90.584	99.169	135.842	284.508	95.409	100.140	105.473	109.407	287.746	104.750	-8191	255	
1123.675	1	1	0	0	0.054776	0.07885	0.1411	0.21974	0.18911	0.13677	0.2206	0.077237	0.076965	0.21032	0.037472	0.18914	0.19714	0.1563	0.20248	0.037456	-2.25	-1.8146	-2.4813	-2.4458	-1.8979	-2.6375	-2.1875	-2.3396	-2.675	-1.8521	-2.5583	-2.3333	-1.8062	-2.8312	-2.3896	-2.1063	195.642	377.575	366.843	81.656	101.214	206.714	343.925	350.522	213.048	155.517	298.894	102.832	108.979	178.423	108.548	143.454	1.9961e-05	0.0015723	0.00068834	382.78	1.6459e-05	5.2647e-05	355.09	96.825	2.186e-05	1.8518e-05	104.32	32.249	32.76	9.4518	5.6329e-06	10.942	0.058203	0.11228	0.032085	744.34	0.0010771	0.0012764	778.96	231.26	0.0010854	0.001273	823.38	101.94	103.24	30.948	0.0011857	39.885	188.297	274.972	106.881	90.930	339.149	238.432	90.616	98.807	203.183	144.200	95.194	100.458	103.783	109.909	134.351	104.409	-8191	255	
1123.771	1	1	0	0	0.034076	0.23992	0.22004	0.10463	0.19217	0.045685	0.068671	0.20421	0.09615	0.13467	0.20965	0.06697	0.30746	0.022047	0.11655	0.15631	-2.4729	-2.0458	-2.2333	-2.4292	-1.8813	-2.5458	-2.3167	-1.8563	-2.7562	-2.1937	-2.4146	-2.6792	-2.0521	-2.5938	-2.4938	-1.9833	338.423	208.383	214.288	96.570	418.825	305.615	371.110	396.058	197.296	207.445	229.730	422.080	367.240	248.343	278.974	239.182	0.00035745	0.0016619	0.00055299	384.2	1.7816e-05	1.2979e-05	358.51	98.018	1.7953e-05	1.6375e-06	102.99	34.04	34.131	9.7761	1.7708e-05	11.367	0.05936	0.11533	0.032482	745.11	0.0010948	0.001307	784.83	232.06	0.0011035	0.0012915	825.33	102.51	104.65	31.383	0.0011752	39.796	202.400	124.168	359.809	91.720	338.012	279.547	90.747	99.048	297.197	421.014	94.921	100.806	104.660	109.222	160.058	104.611	-8191	255	
#DATA ENDS
