BOXY.EXE: ISS Imagent and Oximeter Data Acquisition Program Version 0.80
Ascii Record File

#ACQ INFORMATION
2  Detector Channels 
16  External MUX Channels 
1  Auxiliary Channels 
5000  Waveform (CCF) Frequency (Hz)
1  Waveforms Skipped 
30  Waveforms Averaged 
1  Cycles Averaged 
16  Acquisitions per Waveform 
10.0806  Updata Rate (Hz) 

#FILE INFORMATION
TRUE -- External MUX Channel results are PARSED.
FALSE -- AC DC and Phase are NOT grouped.
TRUE -- Companion Program Settings File CREATED.
FALSE -- AC data not excluded
FALSE -- DC data not excluded
FALSE -- Phase data not excluded
FALSE -- Auxillary Chn. data not excluded
Tab delimiters

#CALIBRATION STATE
TRUE -- Waveform Calibration Values APPLIED.


#AUX CALIBRATION VALUES
Val Type	aux-1	

Term	1.0000e+00	
Factor	0.0000e+00	


#WF CALIBRATION VALUES
A = Detector Channel
Val Type	A-AC1	A-AC2	A-AC3	A-AC4	A-AC5	A-AC6	A-AC7	A-AC8	A-AC9	A-AC10	A-AC11	A-AC12	A-AC13	A-AC14	A-AC15	A-AC16	A-DC1	A-DC2	A-DC3	A-DC4	A-DC5	A-DC6	A-DC7	A-DC8	A-DC9	A-DC10	A-DC11	A-DC12	A-DC13	A-DC14	A-DC15	A-DC16	A-Ph1	A-Ph2	A-Ph3	A-Ph4	A-Ph5	A-Ph6	A-Ph7	A-Ph8	A-Ph9	A-Ph10	A-Ph11	A-Ph12	A-Ph13	A-Ph14	A-Ph15	A-Ph16	

Term	0.00000e+00	0.00000e+00	0.00000e+00	0.00000e+00	0.00000e+00	0.00000e+00	0.00000e+00	0.00000e+00	0.00000e+00	0.00000e+00	0.00000e+00	0.00000e+00	0.00000e+00	0.00000e+00	0.00000e+00	0.00000e+00	0.00000e+00	0.00000e+00	0.00000e+00	0.00000e+00	0.00000e+00	0.00000e+00	0.00000e+00	0.00000e+00	0.00000e+00	0.00000e+00	0.00000e+00	0.00000e+00	0.00000e+00	0.00000e+00	0.00000e+00	0.00000e+00	0.00000e+00	0.00000e+00	0.00000e+00	0.00000e+00	0.00000e+00	0.00000e+00	0.00000e+00	0.00000e+00	0.00000e+00	0.00000e+00	0.00000e+00	0.00000e+00	0.00000e+00	0.00000e+00	0.00000e+00	0.00000e+00	
Factor	1.00000e+00	1.00000e+00	1.00000e+00	1.00000e+00	1.00000e+00	1.00000e+00	1.00000e+00	1.00000e+00	1.00000e+00	1.00000e+00	1.00000e+00	1.00000e+00	1.00000e+00	1.00000e+00	1.00000e+00	1.00000e+00	1.00000e+00	1.00000e+00	1.00000e+00	1.00000e+00	1.00000e+00	1.00000e+00	1.00000e+00	1.00000e+00	1.00000e+00	1.00000e+00	1.00000e+00	1.00000e+00	1.00000e+00	1.00000e+00	1.00000e+00	1.00000e+00	X	X	X	X	X	X	X	X	X	X	X	X	X	X	X	X	

B = Detector Channel
Val Type	B-AC1	B-AC2	B-AC3	B-AC4	B-AC5	B-AC6	B-AC7	B-AC8	B-AC9	B-AC10	B-AC11	B-AC12	B-AC13	B-AC14	B-AC15	B-AC16	B-DC1	B-DC2	B-DC3	B-DC4	B-DC5	B-DC6	B-DC7	B-DC8	B-DC9	B-DC10	B-DC11	B-DC12	B-DC13	B-DC14	B-DC15	B-DC16	B-Ph1	B-Ph2	B-Ph3	B-Ph4	B-Ph5	B-Ph6	B-Ph7	B-Ph8	B-Ph9	B-Ph10	B-Ph11	B-Ph12	B-Ph13	B-Ph14	B-Ph15	B-Ph16	

Term	0.00000e+00	0.00000e+00	0.00000e+00	0.00000e+00	0.00000e+00	0.00000e+00	0.00000e+00	0.00000e+00	0.00000e+00	0.00000e+00	0.00000e+00	0.00000e+00	0.00000e+00	0.00000e+00	0.00000e+00	0.00000e+00	0.00000e+00	0.00000e+00	0.00000e+00	0.00000e+00	0.00000e+00	0.00000e+00	0.00000e+00	0.00000e+00	0.00000e+00	0.00000e+00	0.00000e+00	0.00000e+00	0.00000e+00	0.00000e+00	0.00000e+00	0.00000e+00	-4.82867e+01	-1.31521e+02	-1.29090e+02	-1.82778e+02	-5.00932e+01	-6.85385e+01	-1.59964e+02	-1.62015e+02	-3.45550e+01	-6.98819e+01	-1.78192e+02	-1.73211e+02	-1.80356e+02	-1.77624e+02	-4.73150e+01	-1.50550e+02	
Factor	2.03344e-05	1.89891e-04	5.74514e-05	1.58307e-01	1.90108e-06	2.09202e-06	1.94733e-01	5.79786e-02	1.52646e-06	2.11415e-06	3.21294e-01	3.10011e-02	3.06678e-02	9.11195e-03	1.92150e-06	1.28799e-02	1.37867e-05	2.61164e-05	7.30315e-06	8.26885e-02	2.52523e-07	2.92360e-07	9.52919e-02	3.04267e-02	2.52502e-07	2.89608e-07	1.62620e-01	1.57850e-02	1.63068e-02	4.82875e-03	2.67683e-07	6.59689e-03	X	X	X	X	X	X	X	X	X	X	X	X	X	X	X	X	



#DISTANCE SETTINGS
A = Detector Channel
A-1	A-2	A-3	A-4	A-5	A-6	A-7	A-8	A-9	A-10	A-11	A-12	A-13	A-14	A-15	A-16	

2.5000e+00	3.0000e+00	2.5000e+00	3.0000e+00	2.0000e+00	3.0000e+00	1.5000e+00	3.0000e+00	3.0000e+00	3.0000e+00	3.0000e+00	3.0000e+00	3.0000e+00	3.0000e+00	1.5000e+00	3.0000e+00	

B = Detector Channel
B-1	B-2	B-3	B-4	B-5	B-6	B-7	B-8	B-9	B-10	B-11	B-12	B-13	B-14	B-15	B-16	

1.0000e+01	1.0000e+01	1.0000e+01	1.4400e+00	1.0000e+01	1.0000e+01	1.5100e+00	1.9400e+00	1.0000e+01	1.0000e+01	1.9900e+00	2.4900e+00	2.4100e+00	2.9000e+00	1.0000e+01	2.9800e+00	




#DATA BEGINS
time	group	step	mark	flag	A-AC1	A-AC2	A-AC3	A-AC4	A-AC5	A-AC6	A-AC7	A-AC8	A-AC9	A-AC10	A-AC11	A-AC12	A-AC13	A-AC14	A-AC15	A-AC16	A-DC1	A-DC2	A-DC3	A-DC4	A-DC5	A-DC6	A-DC7	A-DC8	A-DC9	A-DC10	A-DC11	A-DC12	A-DC13	A-DC14	A-DC15	A-DC16	A-Ph1	A-Ph2	A-Ph3	A-Ph4	A-Ph5	A-Ph6	A-Ph7	A-Ph8	A-Ph9	A-Ph10	A-Ph11	A-Ph12	A-Ph13	A-Ph14	A-Ph15	A-Ph16	B-AC1	B-AC2	B-AC3	B-AC4	B-AC5	B-AC6	B-AC7	B-AC8	B-AC9	B-AC10	B-AC11	B-AC12	B-AC13	B-AC14	B-AC15	B-AC16	B-DC1	B-DC2	B-DC3	B-DC4	B-DC5	B-DC6	B-DC7	B-DC8	B-DC9	B-DC10	B-DC11	B-DC12	B-DC13	B-DC14	B-DC15	B-DC16	B-Ph1	B-Ph2	B-Ph3	B-Ph4	B-Ph5	B-Ph6	B-Ph7	B-Ph8	B-Ph9	B-Ph10	B-Ph11	B-Ph12	B-Ph13	B-Ph14	B-Ph15	B-Ph16	aux-1	digaux	

1097.265	1	1	0	512	0.12043	0.16723	0.21092	0.27889	0.18863	0.095001	0.20959	0.081385	0.12137	0.077359	0.13066	0.023027	0.15909	0.21977	0.13271	0.13971	-1.6208	-2.2625	-2.7125	-2.1813	-2.4604	-2.5792	-1.9083	-2.6083	-2.2812	-2.2104	-2.7583	-2.15	-2.3917	-2.5062	-1.9917	-2.7812	157.916	160.114	406.527	359.378	291.953	120.216	328.641	366.863	209.831	382.626	290.258	167.121	361.615	114.805	121.495	103.942	0.00028183	0.0019087	0.00074124	517.55	3.7344e-05	1.9141e-05	507.81	123.92	7.7257e-06	2.014e-05	127.44	45.526	44.882	14.968	1.3426e-05	15.493	0.053129	0.097327	0.027821	842.38	0.00095891	0.0010815	871.07	243.31	0.00094757	0.0010606	741.1	106.69	106.15	33.076	0.0010089	40.624	329.905	133.449	434.401	91.359	296.712	152.803	90.432	98.171	349.893	225.089	96.709	100.065	104.072	108.479	395.561	103.929	-8191	255	
1097.361	1	1	0	0	0.12225	0.17163	0.042344	0.18691	0.18223	0.25308	0.16282	0.17025	0.18305	0.048998	0.084692	0.061017	0.16093	0.086374	0.14749	0.17912	-1.9604	-2.0354	-2.7708	-2.1188	-2.7062	-2.5458	-1.9813	-2.4833	-2.2604	-2.1688	-2.7	-1.9583	-2.3042	-2.6292	-2.0583	-2.6417	213.487	240.304	284.547	415.530	256.442	291.771	414.275	348.323	259.866	143.848	220.510	213.879	357.790	267.208	235.751	298.787	0.00019389	0.0020756	0.0008625	512.42	1.6199e-05	1.6417e-05	505.86	126.13	5.8834e-06	1.2497e-05	123.87	45.344	44.614	14.798	5.9154e-06	14.541	0.050491	0.09418	0.027252	822.95	0.0009161	0.001058	863.08	241.64	0.00092356	0.0010715	752.64	107.36	106.96	33.74	0.0010879	41.596	124.576	141.471	174.603	91.409	166.648	181.303	89.799	98.279	365.190	424.815	94.161	100.277	104.288	108.544	296.796	104.085	-8191	255	
1097.457	1	1	0	0	0.11247	0.18013	0.0801	0.19288	0.10305	0.1724	0.22965	0.072724	0.22583	0.20673	0.36987	0.063324	0.064622	0.18744	0.1203	0.053127	-1.9	-2.1854	-2.8021	-2.2292	-2.3187	-2.6875	-1.9854	-2.6292	-2.375	-1.9083	-2.7188	-2.0396	-2.1917	-2.7354	-1.8646	-2.6104	104.881	332.982	245.531	438.698	132.907	372.700	100.386	375.113	81.646	426.052	277.331	227.656	365.585	434.506	220.580	102.533	0.00029172	0.00095199	0.00035622	527.25	4.3049e-06	2.056e-05	519.02	126.95	1.8758e-05	3.7327e-05	121.77	46.836	46.024	14.943	1.952e-05	14.915	0.054	0.1047	0.030395	872.39	0.0010071	0.0012024	924.25	253.91	0.0010185	0.0012116	823.17	113.27	113.67	36.028	0.001174	43.909	220.415	252.177	234.177	91.512	338.253	209.448	90.624	98.452	253.386	169.218	96.203	100.423	104.987	108.266	132.176	104.633	-8191	255	
1097.576	1	1	0	0	0.17194	0.056844	0.292	0.16237	0.11379	0.29849	0.19508	0.11288	0.24595	0.12424	0.16893	0.19622	0.1612	0.21091	0.23937	0.23239	-2.0104	-2.0208	-2.6937	-2.1167	-2.1333	-2.6271	-2.1979	-2.4979	-2.4542	-2.0104	-2.825	-2.2271	-2.0604	-2.8667	-2	-2.5417	369.859	337.899	296.950	335.236	406.985	275.960	408.190	178.721	287.084	316.281	382.583	142.923	159.541	330.839	348.584	137.378	0.00038822	0.0020364	0.00078597	532.24	1.2455e-05	2.466e-05	524.13	124.33	2.1823e-05	5.0452e-05	122.64	45.111	44.622	14.431	3.0457e-05	14.55	0.059363	0.11803	0.033612	906.51	0.0011302	0.0013695	971.53	264.9	0.0011391	0.0013561	884.21	116.41	118	37.078	0.0012293	44.088	317.696	382.686	272.852	91.438	385.896	110.749	90.123	98.160	105.691	203.473	93.839	100.117	105.423	109.060	414.532	104.009	-8191	255	
1097.672	1	1	0	0	0.18502	0.0086832	0.12629	0.24355	0.16729	0.14282	0.11201	0.19952	0.10942	0.16086	0.12014	0.012507	0.3604	0.13534	0.23187	0.16904	-2.3583	-1.9792	-2.4646	-2.3833	-2.0083	-2.8083	-2.1229	-2.3458	-2.4917	-1.8937	-2.7167	-2.3438	-2.0938	-2.925	-2.125	-2.2021	433.374	142.719	242.852	385.348	227.378	99.407	122.809	204.974	325.315	433.957	261.449	433.988	394.849	109.391	136.274	185.024	0.00040782	0.0021325	0.00081602	527.86	1.1878e-05	6.0677e-06	514.06	125.01	2.7337e-05	6.3055e-06	121.62	45.049	44.613	14.444	1.5215e-05	14.562	0.062043	0.1222	0.033936	900.82	0.0011547	0.0013871	959.79	263.43	0.001176	0.0013863	893.5	118.57	123.56	38.606	0.0012994	46.436	258.972	282.627	284.193	91.559	195.673	284.069	90.131	98.218	261.788	328.092	97.769	100.733	104.564	108.385	409.743	105.682	-8191	255	
1097.768	1	1	0	0	0.20472	0.12624	0.20856	0.2491	0.36433	0.066391	0.16901	0.17201	0.084251	0.14696	0.20071	0.16798	0.12269	0.32617	0.36889	0.21002	-2.1125	-1.8625	-2.6083	-2.6083	-1.8896	-2.6271	-2.0729	-2.2729	-2.7333	-2.0104	-2.4979	-2.4833	-2.1208	-2.8042	-2.1708	-2.1917	224.894	188.417	129.185	306.610	270.059	415.024	88.665	336.270	316.849	159.686	307.807	131.463	236.191	438.583	281.989	396.812	0.00047009	0.0033404	0.0012313	536.45	1.6087e-05	4.5168e-05	521.74	128.23	1.4312e-05	2.5038e-05	132.68	49.102	47.857	15.421	2.7421e-05	16.35	0.068384	0.13224	0.036268	941.76	0.0012821	0.001503	999.85	280.06	0.0013012	0.0015027	955.72	129.47	134.58	41.631	0.0013831	50.824	207.265	392.064	346.578	91.423	150.271	110.736	90.474	97.444	359.076	92.467	98.979	101.171	104.178	108.420	398.723	104.546	-8191	255	
1097.864	1	1	0	0	0.071682	0.12086	0.067157	0.12914	0.21047	0.21757	0.30825	0.29327	0.2041	0.23039	0.066449	0.040822	0.052517	0.20261	0.14973	0.18235	-2.3021	-2.0167	-2.3	-2.4875	-2.0375	-2.7354	-2.2896	-2.0542	-2.5708	-2.0687	-2.5667	-2.7375	-1.8667	-2.8083	-2.4208	-2.0438	409.017	310.753	350.499	88.063	134.825	274.223	386.740	287.250	328.486	358.936	323.799	291.428	286.357	437.777	147.829	131.515	0.00050544	0.0031815	0.00023598	541.46	1.4979e-05	2.5577e-05	535.9	132.2	2.0288e-05	5.2146e-06	139.7	50.858	47.719	15.141	1.6355e-05	16.08	0.074914	0.141	0.037945	975.35	0.0013669	0.0015709	1031.6	293.29	0.0013675	0.0015409	973.59	134.42	137.28	41.493	0.0013911	51.564	250.201	422.278	182.438	91.415	184.933	212.923	90.050	98.607	198.488	188.771	96.998	100.668	104.255	108.153	331.741	104.713	-8191	255	
1097.961	1	1	0	0	0.17299	0.11874	0.14841	0.1174	0.11594	0.21223	0.11892	0.25994	0.13673	0.28317	0.1722	0.12107	0.087624	0.35441	0.17893	0.11845	-2.3625	-2.1396	-2.2708	-2.7271	-1.9521	-2.6292	-2.3604	-2.1521	-2.8396	-2.2313	-2.425	-2.6979	-1.8854	-2.4646	-2.3792	-1.9125	228.114	246.681	204.683	370.219	151.914	418.279	392.723	389.920	295.166	379.637	388.272	111.330	256.553	438.234	260.241	245.692	0.00010146	0.0032323	0.00096815	545.88	2.2043e-05	1.7659e-05	537.26	129.26	2.4883e-05	3.0911e-05	136.99	47.44	44.181	13.553	2.5079e-05	14.695	0.075835	0.14085	0.038433	996.67	0.0013992	0.0015875	1048	301.05	0.0014383	0.0016249	1038.2	140.12	141.57	41.946	0.0015208	53.836	288.815	382.135	174.074	91.286	156.351	304.538	89.540	98.156	98.297	404.537	93.256	101.075	103.865	109.452	250.172	103.506	-8191	255	
1098.057	1	1	0	0	0.1429	0.10654	0.22354	0.02983	0.14127	0.17664	0.12852	0.26577	0.050382	0.16295	0.030567	0.1305	0.26826	0.24375	0.16206	0.049351	-2.3167	-2.0438	-2.0875	-2.8	-1.9542	-2.4667	-2.6125	-1.9542	-2.8312	-2.1708	-2.0917	-2.7583	-1.7812	-2.525	-2.5938	-2.025	349.269	288.546	258.973	352.165	349.523	395.808	300.738	168.052	245.996	380.321	260.612	399.827	91.415	290.222	216.326	241.455	0.00019631	0.00026954	0.0013286	535.23	1.6083e-05	3.5465e-05	513.1	121.09	2.0503e-05	5.1667e-05	124.25	42.14	40.144	12.455	8.0632e-06	13.644	0.081287	0.14811	0.041068	1017.3	0.0014418	0.0016026	1031.1	292.7	0.0013864	0.0015201	976.64	126.93	126.68	36.979	0.0013485	47.498	174.658	332.674	222.571	91.341	363.227	408.797	90.060	98.158	194.328	152.941	94.031	99.965	103.514	108.762	262.779	104.039	-8191	255	
1098.177	1	1	0	0	0.22591	0.20341	0.34903	0.10202	0.24553	0.060197	0.41681	0.10746	0.17142	0.05466	0.22129	0.13945	0.27916	0.29753	0.049591	0.18103	-2.2062	-2.1479	-1.9667	-2.7146	-1.8563	-2.5333	-2.7021	-1.8208	-2.7667	-2.2458	-2.0146	-2.8521	-1.9667	-2.3	-2.6021	-1.9646	171.799	390.347	379.380	338.408	322.951	388.432	403.244	263.663	92.450	347.977	373.796	228.432	418.028	118.376	345.753	333.538	0.00025512	0.0018748	0.00094805	523.36	1.6453e-05	1.0826e-05	503.86	116.89	1.4837e-05	1.4751e-05	125.33	41.573	41.149	13.017	1.5068e-05	14.546	0.068818	0.12478	0.035316	932.82	0.0011943	0.0013335	942.81	261.9	0.0011492	0.0012771	856.84	114.48	113.62	34.087	0.0011774	43.613	365.240	144.104	140.264	90.521	224.778	255.080	89.912	98.180	350.194	328.069	94.592	101.163	104.336	109.198	370.424	103.361	-8191	255	
1098.273	1	1	0	0	0.24937	0.24683	0.37187	0.06439	0.12753	0.13454	0.14131	0.2265	0.17842	0.096124	0.31451	0.10877	0.098655	0.17649	0.027	0.20629	-2.375	-2.4729	-1.9688	-2.7604	-2.0563	-2.2396	-2.6292	-1.8667	-2.5229	-2.3042	-1.9875	-2.7708	-2.0396	-2.25	-2.6083	-1.9958	366.993	390.422	208.170	222.008	140.815	290.053	318.331	337.907	438.512	340.137	334.894	187.686	383.079	374.810	367.784	378.250	5.4641e-05	0.002117	0.00023401	516.73	3.3086e-05	2.8861e-05	503.97	124.71	1.2705e-05	6.7878e-06	131.59	47.885	45.667	15.156	2.1359e-06	16.658	0.058533	0.10872	0.031167	874.38	0.0010252	0.0011742	895.01	247.57	0.00096569	0.001095	758.2	108.64	105.52	33.245	0.00099973	41.245	104.288	107.824	317.700	91.450	379.902	387.044	90.424	98.221	359.948	190.988	97.656	100.923	104.354	109.157	413.805	103.543	-8191	255	
1098.368	1	1	0	0	0.025309	0.25026	0.34301	0.25079	0.35367	0.088874	0.073872	0.29669	0.1576	0.38483	0.2649	0.17764	0.059864	0.16045	0.14427	0.18669	-2.0979	-2.3	-1.875	-2.6604	-2.075	-2.2354	-2.9	-1.9813	-2.6021	-2.55	-1.9104	-2.6417	-2.1854	-2.225	-2.8042	-2.0292	288.611	273.236	438.872	141.647	201.528	234.919	164.809	345.137	354.729	327.288	303.230	150.046	123.372	241.891	248.464	144.352	0.00014384	0.0019352	0.00045619	504.95	2.0995e-05	2.5152e-05	496.48	125.37	8.7479e-06	1.3162e-05	125.88	47.212	44.722	14.293	2.0355e-05	14.913	0.048941	0.093577	0.027029	812.01	0.00090202	0.0010773	857.64	242.59	0.0009453	0.0011327	784.45	111.33	110.38	34.563	0.0011355	43.045	219.338	360.318	139.387	91.423	438.260	271.083	90.287	98.447	144.626	375.992	95.198	101.174	104.553	108.257	365.685	104.920	-8191	255	
1098.441	1	1	0	0	0.096754	0.24418	0.16615	0.067668	0.26168	0.26692	0.15729	0.091577	0.11002	0.18245	0.20998	0.14718	0.17174	0.11539	0.13197	0.27948	-2.1604	-2.4729	-2	-2.7708	-2.2979	-2.0646	-2.7292	-2.0396	-2.3333	-2.6229	-1.9875	-2.6458	-2.2104	-2.1146	-2.7771	-2.1562	339.596	85.573	429.751	409.240	437.146	347.576	366.755	341.060	254.467	283.797	171.717	327.740	417.528	304.027	424.292	200.266	0.00024606	0.001446	0.00020919	518.17	3.6258e-05	8.9015e-06	503.44	123.9	1.3033e-05	4.2119e-05	127.62	45.545	43.688	13.372	1.9673e-05	14.355	0.057497	0.11276	0.031813	876.58	0.0010702	0.0012831	925.6	257.38	0.0010878	0.0012957	856.21	115.5	115.85	35.785	0.0012223	43.979	255.859	197.248	433.614	91.022	212.647	120.194	90.430	98.109	194.201	385.285	98.659	100.797	104.081	109.139	100.195	102.630	-8191	255	
1098.560	1	1	0	0	0.11483	0.12476	0.24161	0.11905	0.18551	0.062715	0.17034	0.17256	0.14424	0.12026	0.19885	0.14532	0.052784	0.33106	0.16715	0.078589	-1.9312	-2.5708	-1.7625	-2.5854	-2.2208	-2.1417	-2.9271	-2.2	-2.2667	-2.7854	-2.0271	-2.5125	-2.4625	-1.8917	-2.7417	-2.2062	416.974	297.253	303.302	128.758	89.585	400.367	363.894	420.864	311.124	391.522	254.282	190.630	276.413	357.730	326.174	320.108	0.00044587	0.0049081	0.00014539	521.04	3.0825e-05	2.141e-05	506.62	121.55	1.4552e-05	5.2156e-06	126.1	43.583	42.956	13.341	1.5024e-05	14.786	0.061938	0.12086	0.033476	894.23	0.0011382	0.0013544	947.86	259.5	0.0011467	0.0013466	872.7	115.36	117.47	35.961	0.001213	43.964	246.538	145.168	179.401	91.406	294.407	109.656	89.694	98.610	292.517	299.488	95.136	100.443	105.025	108.668	160.140	103.950	-8191	255	
1098.656	1	1	0	0	0.18054	0.07873	0.2267	0.23437	0.16931	0.18349	0.080031	0.21218	0.070915	0.20154	0.14973	0.2331	0.23188	0.37233	0.083648	0.079516	-1.6688	-2.7521	-2.0208	-2.4958	-2.3354	-2.0062	-2.7792	-2.1646	-2.0833	-2.7542	-1.9833	-2.4625	-2.6417	-2.0021	-2.775	-2.2812	183.403	160.523	212.896	300.142	231.454	316.907	88.493	440.155	132.334	311.954	290.419	354.932	100.962	86.591	140.915	361.171	0.00054317	0.0022149	0.00045364	521.72	1.8938e-05	2.3864e-05	501.84	123.62	1.2861e-05	2.8957e-05	129.48	45.922	44.77	14.325	6.657e-06	15.889	0.062345	0.11915	0.032602	887.98	0.0011331	0.00132	920.1	256.19	0.0011219	0.0012896	832.31	114.77	117.52	36.183	0.0011602	44.307	221.768	225.848	202.824	91.347	238.829	101.346	90.417	98.419	108.247	153.589	95.894	101.039	104.378	108.346	213.863	104.633	-8191	255	
1098.752	1	1	0	0	0.10762	0.19874	0.16015	0.069828	0.035177	0.13439	0.16304	0.026069	0.25596	0.26736	0.21096	0.25591	0.22233	0.34116	0.33188	0.13866	-1.9604	-2.7021	-1.9729	-2.2521	-2.4729	-1.8875	-2.8396	-2.4042	-2.0333	-2.7313	-1.8021	-2.2938	-2.6021	-1.8958	-2.6688	-2.4813	245.796	246.033	213.591	106.727	258.640	211.226	168.317	403.303	137.213	315.043	161.062	358.561	404.602	410.188	109.899	146.700	9.8424e-05	0.0015674	0.000676	515.3	1.2179e-05	9.1997e-06	494.02	127.35	7.4533e-06	6.039e-06	127.56	48.794	46.847	15.101	2.1053e-05	16.611	0.061003	0.11573	0.031413	879.27	0.0011295	0.0012981	907.61	260.53	0.0011232	0.0012786	833.47	119.07	121.46	37.292	0.0011701	46.397	170.080	415.179	180.396	91.890	266.041	149.617	90.240	99.062	285.222	271.902	93.487	100.760	104.838	108.992	171.255	104.881	-8191	255	
1098.849	1	1	0	0	0.035623	0.22377	0.082134	0.18164	0.082502	0.12839	0.17079	0.15483	0.17245	0.056879	0.31211	0.24653	0.043754	0.06103	0.34872	0.16069	-1.6104	-2.8208	-2.075	-2.2833	-2.5896	-1.9833	-2.6646	-2.3792	-1.8729	-2.7604	-2.1271	-2.3479	-2.7146	-2.0812	-2.4583	-2.575	93.235	142.898	209.532	375.627	139.043	234.973	226.413	381.261	290.982	114.850	107.644	423.059	373.364	168.085	373.367	117.813	0.00051064	0.0043706	0.00071713	519.01	8.2142e-06	3.3989e-05	505.23	128.43	2.0338e-05	5.1697e-05	131.69	49.728	46.997	15.299	1.1239e-05	16.612	0.063025	0.11797	0.032105	896.68	0.0011565	0.0013102	922.05	267.67	0.00115	0.0012922	846.57	121.42	121.23	36.954	0.0011702	46.593	223.743	155.267	169.161	91.745	192.789	393.774	90.325	98.351	220.663	423.099	95.973	100.835	104.869	108.365	286.586	105.119	-8191	255	
1098.969	1	1	0	0	0.087127	0.086834	0.20458	0.14197	0.1275	0.14848	0.27471	0.066469	0.22084	0.12014	0.23639	0.063766	0.10056	0.21628	0.053212	0.13044	-1.5958	-2.6958	-1.9854	-2.1771	-2.7521	-2.0896	-2.4521	-2.6375	-1.9104	-2.6188	-2.4167	-2.0583	-2.7833	-2.0583	-2.4375	-2.6417	127.831	119.893	247.881	135.496	355.367	215.210	380.484	430.269	296.075	147.466	377.432	342.984	200.963	266.057	204.084	384.363	0.00025855	0.0016409	0.0014142	520.31	1.9781e-05	1.744e-05	496.8	127.38	1.6103e-05	2.0157e-05	131.93	47.597	45.502	14.509	3.705e-06	15.484	0.062396	0.11497	0.032118	896.29	0.0011521	0.001297	925.39	269.25	0.0011685	0.0013101	875.56	123.24	122.44	36.919	0.001242	47.377	303.625	313.820	214.697	91.701	392.679	208.566	90.770	98.962	100.943	350.549	95.200	101.284	104.697	109.096	432.380	104.486	-8191	255	
1099.041	1	1	0	0	0.0917	0.11754	0.16914	0.11355	0.073842	0.060733	0.24633	0.15827	0.23343	0.075935	0.13152	0.28578	0.18953	0.1729	0.27161	0.26471	-1.4146	-2.4042	-1.9792	-2.0854	-2.7687	-2.0792	-2.3542	-2.7083	-1.9	-2.5938	-2.525	-1.9937	-2.6708	-2.1063	-2.3979	-2.6792	243.182	294.100	222.439	367.707	133.450	145.254	110.106	119.619	324.398	309.748	323.752	90.768	168.518	311.430	155.156	333.075	0.00026031	0.001266	0.0010263	511.12	1.0232e-05	5.3316e-05	482.42	120.2	1.4977e-05	1.8421e-05	124.06	44.18	42.445	13.951	1.6151e-05	15.377	0.064945	0.12035	0.034128	906.29	0.0011814	0.0013259	921.3	264.84	0.0011532	0.0012896	860.68	116.43	116.03	35.331	0.0012021	45.259	196.872	261.611	149.864	91.537	433.815	202.464	90.169	99.082	147.365	218.924	95.412	100.894	105.294	108.587	371.294	103.431	-8191	255	
1099.137	1	1	0	0	0.023403	0.1003	0.11888	0.26752	0.20411	0.18412	0.043484	0.25076	0.22209	0.12743	0.1887	0.37674	0.29522	0.22644	0.32869	0.12991	-1.4562	-2.3896	-2.3438	-2.125	-2.5958	-2.2	-2.1521	-2.8375	-1.8729	-2.4917	-2.5021	-1.8625	-2.8	-2.1396	-2.0375	-2.8229	94.250	301.470	205.742	356.973	270.068	219.961	101.608	134.541	352.629	102.213	238.269	83.107	81.995	410.312	253.374	84.403	0.00025162	0.00051719	0.00047475	500.68	1.4154e-05	1.9482e-05	484.92	122.87	1.7252e-05	2.3057e-05	127.87	47.87	46.031	15.557	2.6754e-05	16.915	0.060902	0.11394	0.032741	876	0.001109	0.0012764	907.44	261.87	0.0011022	0.0012664	858.85	119.36	117.74	36.993	0.0011991	46.555	308.427	118.749	152.771	91.375	87.025	233.567	90.202	98.877	240.926	153.867	96.204	101.747	105.723	109.144	285.636	103.532	-8191	255	
1099.258	1	1	0	0	0.29958	0.19955	0.17654	0.10644	0.21082	0.12037	0.10507	0.19291	0.27872	0.28473	0.2621	0.29049	0.32948	0.10583	0.067999	0.16211	-1.7042	-2.225	-2.5563	-2.0292	-2.6729	-2.2104	-2.0687	-2.7292	-2.0354	-2.3854	-2.6771	-1.8771	-2.5312	-2.1771	-1.8125	-2.5083	122.486	332.154	120.144	398.139	184.631	304.517	401.670	316.157	266.301	227.761	135.277	441.786	387.450	341.815	206.165	306.300	0.00027684	0.0036682	0.0010415	509	2.7633e-05	4.3878e-05	485.87	125.33	2.5731e-05	3.5609e-05	133.73	47.5	45.833	14.963	3.1044e-05	16.28	0.059687	0.11437	0.032908	881.37	0.0010985	0.0012991	927.39	267.11	0.0011283	0.0013406	903.25	122.99	122.08	38.298	0.0013022	48.079	213.875	161.383	152.206	92.301	103.968	234.827	90.351	99.777	439.299	186.519	94.213	100.779	104.757	109.097	96.606	103.867	-8191	255	
1099.354	1	1	0	0	0.090175	0.25259	0.1437	0.22013	0.15774	0.29086	0.063217	0.038603	0.20537	0.17357	0.21032	0.23957	0.18418	0.086568	0.14989	0.11341	-1.5104	-2.2875	-2.5625	-1.8729	-2.7062	-2.3	-1.8167	-2.6417	-2.1083	-2.1979	-2.6792	-2.0521	-2.4542	-2.2667	-1.9979	-2.7062	245.505	439.062	399.978	189.278	289.708	158.000	436.080	135.881	368.727	203.087	419.298	138.145	356.771	245.901	317.992	426.731	0.00014426	0.002861	0.00025612	518.67	4.6024e-05	3.4082e-05	493.71	125.41	1.345e-05	4.4642e-05	122.78	46.538	44.938	14.28	1.3553e-05	15.152	0.065464	0.12828	0.036568	930.41	0.0012366	0.0014823	984.67	281.63	0.0012752	0.0015238	990.99	128.99	130.25	40.481	0.0014209	49.389	203.395	157.339	284.775	91.933	253.001	112.699	90.834	98.423	143.208	183.651	94.846	101.378	104.644	109.151	366.592	104.101	-8191	255	
1099.450	1	1	0	0	0.35877	0.10884	0.11755	0.12122	0.15904	0.2318	0.28818	0.083665	0.039729	0.1327	0.14812	0.17835	0.13733	0.12108	0.10527	0.046149	-1.6896	-2.0833	-2.5917	-1.9438	-2.4292	-2.5667	-1.925	-2.5792	-2.0812	-2.05	-2.5938	-1.9479	-2.3333	-2.4375	-1.6	-2.6688	175.391	115.726	357.925	422.268	347.346	404.193	324.903	356.322	222.518	112.682	412.415	326.860	213.744	94.272	259.373	307.048	0.0003217	0.003311	0.00075498	512.63	3.9999e-05	2.1215e-05	473.28	121.24	1.823e-05	2.7316e-05	113.81	42.801	41.423	13.677	1.1681e-05	14.483	0.070795	0.13692	0.037822	931.89	0.0012663	0.00149	955.48	271.25	0.0012272	0.001432	915.22	118.55	120.93	37.378	0.0012687	45.302	209.881	151.959	305.140	90.919	285.805	365.746	89.738	98.030	209.008	118.949	95.165	100.628	104.068	108.506	309.163	104.132	-8191	255	
1099.569	1	1	0	0	0.24194	0.18916	0.040348	0.27933	0.07576	0.25513	0.151	0.19627	0.11976	0.33687	0.15238	0.13038	0.066037	0.12068	0.25714	0.13357	-1.7042	-1.9625	-2.7083	-2.0625	-2.1208	-2.5646	-1.85	-2.6354	-2.4083	-1.9271	-2.675	-1.8333	-2.3	-2.5375	-1.9333	-2.5812	148.967	250.941	126.560	424.570	253.046	111.708	100.254	358.886	290.863	343.322	321.709	227.951	381.145	426.491	110.989	392.679	0.00046844	0.00096309	0.0006554	507.82	2.6571e-05	2.9467e-05	469.77	121.18	8.5024e-06	1.4709e-05	120.21	44.873	43.323	14.19	1.5633e-05	15.436	0.064244	0.12272	0.033673	881	0.0011526	0.0013403	897.48	255.44	0.0011185	0.0012811	819.44	111.16	113.34	34.827	0.0010913	42.159	248.592	408.027	313.989	90.810	261.745	325.253	89.540	98.337	81.818	174.179	93.193	100.541	104.532	107.972	431.543	102.763	-8191	255	
1099.665	1	1	0	0	0.086788	0.25728	0.24261	0.12434	0.27278	0.14013	0.2789	0.3141	0.093535	0.094091	0.036597	0.11653	0.13559	0.080852	0.2383	0.14741	-1.8854	-1.9479	-2.7146	-2.0271	-2.1312	-2.7333	-1.9917	-2.5583	-2.4313	-1.8604	-2.7083	-2.0854	-2.4042	-2.5	-1.7625	-2.3708	82.754	322.891	405.876	430.601	438.105	308.410	331.808	237.344	312.194	305.620	165.986	329.307	334.374	398.211	438.881	345.831	0.00027796	0.0010664	0.00038514	503.76	1.6109e-05	1.1162e-05	470.67	122.19	2.7233e-05	9.785e-06	121.74	45.794	43.576	14.576	1.7125e-05	16.096	0.056448	0.10701	0.029016	832.5	0.0010186	0.0011763	842.06	242.7	0.0010047	0.0011379	744.39	106.07	107.23	33.324	0.00097659	40.32	238.258	218.984	172.653	90.473	344.527	364.361	90.661	98.102	217.095	422.478	94.704	100.083	103.450	108.130	393.696	103.081	-8191	255	
1099.737	1	1	0	0	0.23196	0.18164	0.24294	0.20363	0.24033	0.17364	0.35954	0.27996	0.23672	0.20594	0.094582	0.029415	0.30653	0.19026	0.13373	0.089755	-1.9479	-1.8	-2.6375	-2.1146	-2.0125	-2.4917	-1.9833	-2.4021	-2.6042	-1.9229	-2.7417	-2.1104	-1.9667	-2.6854	-1.9688	-2.1771	225.790	198.194	344.250	89.826	146.461	394.355	317.462	81.867	103.180	382.182	162.139	262.369	324.889	344.385	398.686	101.979	0.00011633	0.0024354	0.0015542	483.93	1.5889e-05	3.1994e-05	447.75	123.52	6.4749e-06	2.2333e-05	128.33	48.029	45.817	17.135	1.7169e-05	18.469	0.050615	0.092805	0.02511	769.79	0.00085822	0.00095573	746.38	219.17	0.00077076	0.00084633	578.77	92.659	90.921	30.178	0.00069294	36.124	185.804	136.126	119.858	91.092	384.487	209.630	89.892	98.155	255.026	351.717	94.715	100.959	104.184	108.311	153.248	103.673	-8191	255	
1099.857	1	1	0	0	0.086784	0.068651	0.10116	0.17311	0.15063	0.16083	0.30027	0.16	0.016532	0.21853	0.26528	0.098501	0.24907	0.20635	0.11214	0.16333	-2.2125	-1.9188	-2.6479	-2.2729	-1.8083	-2.5792	-2.0521	-2.4708	-2.4417	-1.9562	-2.4313	-2.4896	-1.9708	-2.525	-1.9646	-2.4125	228.116	88.835	181.366	344.664	276.691	270.949	423.317	120.472	274.685	195.403	91.098	397.844	394.159	433.886	424.664	287.169	0.00041969	0.0018545	0.00075896	476	2.119e-05	1.7677e-05	444.51	116.12	1.1274e-05	2.2152e-05	112.31	42.433	40.888	13.095	1.1534e-05	13.628	0.036535	0.067719	0.019019	698.66	0.00068809	0.00078923	703.72	205.02	0.0007346	0.00084011	599.6	91.784	92.753	28.424	0.00085825	35.913	247.486	361.204	125.381	90.798	426.297	155.099	89.845	98.599	267.149	148.037	95.865	100.589	104.156	108.656	408.120	103.505	-8191	255	
1099.953	1	1	0	0	0.091059	0.19863	0.030765	0.13044	0.19495	0.23037	0.063237	0.11714	0.062594	0.1466	0.26522	0.089305	0.17448	0.36287	0.21169	0.026169	-2.3021	-1.8813	-2.2708	-2.5854	-2	-2.6604	-2.0583	-2.1104	-2.5708	-1.7188	-2.5771	-2.5771	-1.7458	-2.6375	-2.1188	-2.225	168.120	199.805	434.838	195.681	353.443	217.881	201.578	358.569	238.974	338.361	338.940	184.176	324.387	120.771	378.403	387.118	0.0001104	0.0015579	0.00077025	483.1	5.5717e-06	3.1301e-05	460.95	114.43	9.7907e-06	9.8214e-06	117.06	41.33	39.077	12.39	1.2533e-05	13.228	0.046244	0.085939	0.024443	771.52	0.0008603	0.00097746	782.33	222.28	0.00087388	0.00098099	681.63	97.495	97.081	29.305	0.00093803	36.932	286.657	337.326	156.890	90.571	402.366	420.667	90.063	98.414	118.160	375.909	95.010	100.167	104.338	108.923	271.758	104.483	-8191	255	
1100.050	1	1	0	0	0.21859	0.21893	0.13541	0.33823	0.009493	0.13497	0.14618	0.34866	0.21844	0.13344	0.1938	0.13686	0.12216	0.031176	0.12678	0.12123	-2.3458	-1.7437	-2.3792	-2.5167	-1.8333	-2.5771	-2.1896	-2.0292	-2.4813	-1.925	-2.2104	-2.5958	-1.8271	-2.5646	-2.1792	-2.0417	412.500	433.737	354.215	372.571	407.843	397.816	304.078	88.821	435.086	80.569	437.687	352.025	334.605	338.729	298.647	169.910	0.00031716	0.00084388	0.00083695	487.35	9.23e-06	1.0444e-05	451.38	115.2	2.1145e-05	1.5016e-05	118.93	41.013	39.905	12.844	1.8825e-05	13.68	0.047699	0.088215	0.025106	772.51	0.00084635	0.00096508	774.23	217.57	0.00082853	0.0009426	660.74	94.418	93.942	28.845	0.0008925	35.882	347.369	83.371	136.598	90.625	284.549	371.145	89.314	97.562	395.656	405.734	93.785	99.831	103.527	108.168	240.541	103.667	-8191	255	
1100.146	1	1	0	0	0.14448	0.20128	0.067647	0.23137	0.24015	0.072846	0.10978	0.20032	0.104	0.098119	0.21508	0.12625	0.15501	0.22297	0.10244	0.094709	-2.2875	-1.8563	-2.1125	-2.4604	-1.6625	-2.6104	-2.3563	-1.9083	-2.6917	-2.1937	-2.2125	-2.7021	-2.0583	-2.35	-2.2646	-1.7229	228.799	399.014	331.509	311.147	89.402	320.926	412.771	301.260	341.838	313.024	383.743	436.591	383.217	258.010	199.138	94.208	0.00017431	0.0033751	0.00046612	479.89	1.8364e-05	3.8904e-05	448.51	115.74	4.4304e-06	5.2435e-05	117.5	42.2	41.322	13.493	7.0581e-06	14.711	0.045014	0.085543	0.024343	755.11	0.00080822	0.0009439	758.62	214.71	0.00079099	0.00091474	636	92.42	91.4	28.614	0.00083122	34.828	223.333	141.752	242.189	90.495	107.882	219.564	89.485	98.088	433.436	236.044	95.315	100.233	103.617	108.724	269.194	103.991	-8191	255	
1100.266	1	1	0	0	0.17334	0.32515	0.053062	0.089666	0.0191	0.36239	0.33707	0.07213	0.30451	0.25946	0.13817	0.18621	0.2743	0.33624	0.17421	0.18967	-2.175	-2.0625	-2.1229	-2.7125	-1.8833	-2.6042	-2.4604	-1.9604	-2.4542	-2.075	-1.9979	-2.8021	-1.8396	-2.2938	-2.5583	-1.8937	82.985	105.935	263.726	383.928	126.865	200.665	410.512	119.157	180.843	235.975	322.332	87.267	270.083	312.647	132.200	358.646	0.00017549	0.0039309	0.00047511	477.53	6.2379e-06	6.5108e-06	448.56	116.74	1.0465e-05	2.0481e-05	120.15	42.332	40.988	12.963	3.45e-05	13.877	0.041236	0.079604	0.022592	730.05	0.00075833	0.00090602	745.67	211.9	0.000779	0.00092209	643.43	93.205	93.57	29.366	0.00090032	35.893	218.339	138.832	319.861	91.228	198.185	252.342	89.399	97.995	339.328	223.300	91.822	99.859	104.381	108.960	264.922	103.588	-8191	255	
1100.338	1	1	0	0	0.12127	0.12819	0.032718	0.15074	0.29671	0.036782	0.32385	0.11884	0.13067	0.31622	0.14929	0.0099998	0.20621	0.16494	0.23373	0.1787	-2.1458	-2.0729	-1.8708	-2.5604	-1.7896	-2.1833	-2.7542	-1.8271	-2.5354	-2.0917	-1.8354	-2.6458	-2.0417	-2.5104	-2.6896	-1.875	229.429	328.469	310.909	194.925	284.431	369.950	355.550	415.460	108.587	264.111	207.442	246.264	394.669	372.964	126.689	347.335	0.00042321	0.0024275	0.00024315	484.57	2.3309e-05	4.6701e-05	456.78	114.27	1.726e-05	9.2954e-06	110.85	40.441	39.323	12.443	1.7148e-05	13.215	0.045984	0.089618	0.025184	767.59	0.00085685	0.0010266	788.41	218.83	0.00086431	0.0010133	678.98	94.556	95.699	29.577	0.00092772	36.028	273.334	169.432	163.549	90.772	265.326	261.111	89.646	97.920	258.805	133.947	95.950	100.302	103.403	108.481	334.996	103.813	-8191	255	
1100.434	1	1	0	0	0.49098	0.26739	0.096765	0.18953	0.29155	0.31241	0.071959	0.047857	0.19785	0.081522	0.17726	0.14637	0.031768	0.12855	0.084433	0.12882	-2.2896	-2.3208	-1.9292	-2.6542	-1.8937	-2.4208	-2.6896	-2.0271	-2.4375	-2.4292	-1.9312	-2.5854	-2.1562	-2.1896	-2.7646	-1.8646	109.654	100.890	171.005	391.955	278.652	292.506	394.672	81.098	262.161	127.908	282.829	128.439	349.954	193.914	333.633	384.554	0.00033192	0.00088896	0.0011631	488.55	2.5533e-05	6.6912e-06	450.79	113.98	2.0421e-05	7.3999e-06	113.12	40.023	38.787	11.986	1.4284e-05	12.888	0.04836	0.093542	0.025935	781.1	0.00090929	0.001074	799.63	224.66	0.00093375	0.0010826	708.8	96.786	99.045	30.005	0.00095333	36.319	218.819	124.701	183.289	90.535	220.443	367.959	89.442	98.402	267.312	385.604	94.994	100.276	103.530	108.894	241.767	103.047	-8191	255	
1100.530	1	1	0	0	0.10291	0.11856	0.23262	0.093874	0.27074	0.10743	0.19397	0.042419	0.1365	0.12297	0.24083	0.1009	0.083191	0.086159	0.16825	0.12492	-2.0667	-2.275	-1.7563	-2.5854	-2.05	-2.0542	-2.6708	-1.9708	-2.35	-2.3063	-1.7833	-2.5521	-2.1437	-2.1583	-2.5875	-2.0104	239.750	340.551	182.735	147.375	265.312	177.322	130.698	138.353	189.015	102.040	327.326	151.777	221.423	81.654	417.448	392.840	0.00040457	0.0010725	0.00048179	486.27	1.9989e-05	2.6481e-05	445.06	113.94	1.3422e-05	1.4986e-05	113.78	41.03	39.189	12.679	2.9757e-05	13.925	0.049638	0.093759	0.025553	776.48	0.00089656	0.0010341	775.8	218.67	0.00087424	0.00099477	655.23	94.107	95.63	29.281	0.00088256	35.895	202.398	162.789	104.206	90.565	168.437	158.782	90.019	97.889	275.623	337.747	93.099	100.671	103.317	108.612	138.445	103.601	-8191	255	
1100.649	1	1	0	0	0.31807	0.20711	0.10434	0.26553	0.12748	0.24162	0.04907	0.24961	0.052356	0.23866	0.081457	0.29676	0.23277	0.038025	0.06162	0.050422	-1.9146	-2.4417	-1.7437	-2.5979	-2.225	-2.0625	-2.7333	-1.9062	-2.1021	-2.5771	-1.825	-2.4292	-2.4583	-1.9271	-2.7438	-2.0333	222.054	271.001	342.181	432.254	343.403	155.936	138.223	140.697	273.792	185.364	150.515	386.431	114.629	111.667	198.048	354.319	0.00053106	0.0040417	0.00022051	489.16	9.2397e-06	2.3116e-05	457.31	116.73	4.8747e-06	2.7227e-05	114.09	42.456	40.598	12.822	1.3054e-06	13.808	0.047126	0.088272	0.024071	764.42	0.0008544	0.00097856	768.47	219.56	0.00086191	0.00097417	653.08	96.284	97.089	29.611	0.00089391	36.658	236.618	408.601	168.100	90.592	425.278	252.661	89.422	97.981	375.588	369.771	93.388	100.091	103.434	108.352	138.960	103.977	-8191	255	
1100.745	1	1	0	0	0.09604	0.33405	0.37088	0.26199	0.23774	0.061985	0.15534	0.19864	0.033865	0.061561	0.28103	0.15245	0.21864	0.070994	0.16362	0.27397	-1.7083	-2.5187	-1.6958	-2.6542	-2.1937	-2.0604	-2.7125	-2.2625	-2.1917	-2.5479	-1.8646	-2.6312	-2.2812	-2.0479	-2.6583	-1.9292	373.000	263.618	244.416	439.415	374.935	406.050	144.696	197.287	146.286	207.998	121.799	179.708	346.636	132.418	299.924	438.589	0.00026672	0.00031764	0.0010698	492.94	1.8994e-05	1.6246e-05	455.91	115.83	9.0244e-06	5.4326e-06	112.34	40.764	39.639	12.457	2.6742e-05	13.338	0.04758	0.088194	0.024408	773.69	0.00086286	0.00097007	769.71	218.98	0.00084624	0.00094897	646.55	94.238	94.519	28.246	0.00085244	34.768	237.680	268.719	427.826	91.271	240.334	85.842	89.941	97.561	434.959	140.949	95.020	100.302	103.975	108.664	261.422	103.738	-8191	255	
1100.842	1	1	0	0	0.054972	0.17887	0.20246	0.23962	0.024404	0.032212	0.04102	0.2034	0.17365	0.092596	0.13018	0.23661	0.090213	0.30788	0.17287	0.18467	-1.7917	-2.6813	-1.8833	-2.4042	-2.3375	-1.8438	-2.7542	-2.2167	-2.0062	-2.7083	-1.9021	-2.2833	-2.5125	-2.1604	-2.5833	-2.1813	304.728	244.280	333.350	404.876	286.409	328.740	195.016	160.047	313.011	399.065	111.291	132.103	262.830	367.364	372.810	86.640	0.00010722	0.0016838	0.00040619	486.74	4.4495e-06	2.2704e-05	449.92	114.11	2.1416e-05	8.944e-06	114.77	40.753	39.489	12.237	7.6065e-06	13.123	0.044057	0.080921	0.022785	754.69	0.00080978	0.00092393	759.01	216.34	0.00083092	0.00093551	652.48	94.161	93.464	28.125	0.0008792	35.292	129.689	201.433	190.587	90.853	220.148	410.577	89.884	97.808	296.524	149.124	94.294	100.649	104.027	108.566	240.507	103.659	-8191	255	
1100.938	1	1	0	0	0.18516	0.2037	0.19509	0.2409	0.1653	0.057446	0.16561	0.11128	0.099475	0.193	0.29656	0.012534	0.2388	0.072867	0.12639	0.12032	-1.6187	-2.5625	-1.8979	-2.3271	-2.4646	-1.7375	-2.5917	-2.3521	-1.7563	-2.7854	-2.0979	-2.1917	-2.7354	-1.9604	-2.4542	-2.4167	115.685	348.159	147.883	361.267	227.427	124.504	371.095	338.673	172.676	244.660	204.823	188.711	328.521	92.575	322.573	146.062	0.00022561	0.0019028	0.00035685	491.59	3.7803e-05	1.4011e-05	464.05	112.67	9.5841e-06	7.9191e-06	112.44	40.366	39.463	12.465	2.4024e-05	13.817	0.045006	0.083633	0.023834	762.02	0.00080567	0.00092076	764.78	212.11	0.00079715	0.00090564	631.25	91.02	90.249	27.433	0.00084133	34.342	217.506	232.008	118.707	91.040	198.321	213.000	89.599	98.042	338.246	340.237	96.139	100.375	104.511	107.988	185.895	104.468	-8191	255	
1101.034	1	1	0	0	0.1379	0.24842	0.13858	0.14805	0.068278	0.1729	0.35048	0.061842	0.23058	0.17375	0.10446	0.13838	0.29209	0.12163	0.22242	0.26206	-1.4896	-2.6312	-2.1458	-2.2958	-2.5062	-1.9625	-2.4188	-2.4604	-1.7667	-2.6479	-2.0104	-2.1	-2.7104	-1.9729	-2.4875	-2.4542	176.370	316.253	399.840	129.790	222.617	211.671	410.334	94.449	361.055	322.712	279.434	136.542	430.119	391.486	289.238	224.756	0.00021656	0.0018143	0.00081027	490.41	2.142e-05	2.1901e-05	467.66	116.11	1.6464e-05	1.3789e-05	120.73	42.382	40.451	12.814	8.8506e-06	14.231	0.04159	0.078967	0.02235	743.9	0.00075407	0.00087624	759.08	209.29	0.0007477	0.00087157	616.97	91.081	89.444	27.748	0.00081942	34.444	191.733	132.596	111.984	90.999	395.846	155.958	90.014	98.200	102.038	151.181	94.938	100.386	103.952	109.044	108.402	103.782	-8191	255	
1101.130	1	1	0	0	0.28039	0.32084	0.18453	0.17002	0.037789	0.17339	0.19188	0.22889	0.1097	0.099412	0.082469	0.23977	0.37556	0.32595	0.13914	0.15127	-1.4729	-2.675	-2.1083	-1.9104	-2.6542	-2.0271	-2.4375	-2.5542	-2.0729	-2.65	-2.1188	-1.9917	-2.7854	-2.1021	-2.2604	-2.5042	299.141	380.145	91.917	346.534	304.731	396.075	334.842	435.603	303.428	278.621	147.406	338.354	424.003	407.024	140.075	82.458	0.00024462	0.00068136	0.00019969	491.93	1.011e-05	1.9638e-05	472.3	115.06	1.8839e-05	2.7828e-05	119.33	41.179	39.41	12.353	1.2751e-05	13.615	0.041059	0.079664	0.022558	745.39	0.00075937	0.00089939	769.29	209.79	0.00076894	0.00090388	626.36	90.736	90.203	27.803	0.00085188	34.192	232.713	130.606	268.518	90.866	94.614	324.479	89.403	98.547	215.428	225.319	96.020	100.183	103.713	108.267	427.500	103.483	-8191	255	
1101.251	1	1	0	0	0.12637	0.081707	0.14327	0.31583	0.26072	0.24527	0.41961	0.11501	0.040114	0.17154	0.27157	0.15096	0.052124	0.16604	0.029271	0.17688	-1.4396	-2.5	-2.2979	-1.7	-2.7375	-2.0833	-2.2042	-2.775	-1.7437	-2.5333	-2.575	-2.0667	-2.5354	-1.9708	-2.2667	-2.875	162.915	206.130	384.355	347.135	380.025	128.924	399.172	83.914	437.964	386.520	390.185	316.359	188.246	170.268	377.731	378.431	0.00024258	0.0011128	0.00085737	495.64	1.6298e-05	1.9158e-05	473.6	115.76	1.4655e-06	9.782e-06	116.33	40.335	39.106	11.871	1.8053e-05	12.884	0.043169	0.083754	0.023376	756.16	0.00079678	0.00094479	783.47	213.89	0.0008107	0.00094927	644.53	90.926	91.668	27.922	0.00086815	34.145	243.160	329.790	171.369	90.879	237.999	340.408	90.192	97.880	369.706	113.601	95.668	100.019	104.047	108.008	321.585	104.284	-8191	255	
1101.347	1	1	0	0	0.3856	0.31128	0.22361	0.27592	0.28759	0.051841	0.17927	0.27265	0.20113	0.08514	0.15246	0.26024	0.19995	0.16958	0.16108	0.11255	-1.5	-2.5896	-2.2229	-1.8417	-2.7833	-2.0729	-2.2687	-2.7208	-1.8958	-2.5021	-2.3375	-1.7792	-2.8083	-2.0542	-1.9188	-2.8854	353.281	235.225	221.406	403.339	151.513	328.428	305.984	421.852	386.880	295.918	120.575	156.474	165.824	432.410	112.094	384.414	0.00021679	0.0017611	0.00075702	498.6	6.2962e-06	7.4575e-06	465.73	114.47	8.2397e-06	3.272e-05	116.35	39.534	37.924	11.897	1.0239e-05	12.75	0.044372	0.08522	0.023479	760.37	0.00080684	0.00094059	772.2	211	0.00080011	0.00092501	625.97	89.382	90.359	27.405	0.00083922	33.461	269.349	416.776	127.400	91.157	239.081	322.861	89.777	98.267	374.407	389.392	95.876	100.585	104.284	108.935	190.384	104.429	-8191	255	
1101.441	1	1	0	0	0.25494	0.073555	0.031731	0.43791	0.045901	0.32961	0.20732	0.20527	0.19983	0.11215	0.14759	0.18582	0.30424	0.057284	0.14716	0.21942	-1.4146	-2.3688	-2.6396	-1.8458	-2.6042	-2.3063	-2.1625	-2.8937	-1.9333	-2.4062	-2.6604	-1.7521	-2.4729	-2.2479	-2.0896	-2.65	314.841	86.417	311.063	361.306	290.193	132.104	133.327	320.312	122.794	226.351	401.303	335.592	210.321	290.173	321.206	140.370	0.00019229	0.0026878	0.00056494	495.07	4.1883e-05	1.1549e-05	464.35	114.31	9.6362e-06	1.4129e-05	115.04	39.792	38.558	11.973	2.8019e-05	13.26	0.04374	0.082881	0.022626	750.77	0.00079429	0.00091665	757.28	207.48	0.00077477	0.00088311	595.28	86.594	87.657	26.584	0.00077355	32.653	329.239	424.027	432.379	90.876	160.991	275.703	90.102	98.337	174.394	251.749	94.982	100.024	103.504	108.443	239.297	104.242	-8191	255	
1101.539	1	1	0	0	0.065432	0.2383	0.27785	0.21443	0.22946	0.31032	0.1197	0.29391	0.23355	0.22986	0.077573	0.088904	0.026008	0.18058	0.01494	0.051008	-1.6167	-2.3688	-2.4604	-1.8479	-2.3854	-2.3146	-1.8813	-2.6458	-1.85	-2.0917	-2.5958	-2.0146	-2.5271	-2.2812	-1.9062	-2.5625	434.627	302.855	259.053	408.876	110.690	399.133	375.724	143.106	409.085	185.473	412.537	377.027	96.131	250.143	124.003	382.442	0.00027423	0.0013026	0.00060586	485.21	6.7854e-06	7.0572e-06	449.95	112.92	1.7395e-05	1.9288e-05	114.11	39.015	37.372	11.685	8.7923e-06	12.664	0.04076	0.076449	0.020907	726.59	0.00074702	0.00085934	726.21	204.41	0.00075864	0.00085925	587.2	86.245	87.156	26.312	0.00079226	32.841	327.273	302.285	317.326	91.379	435.736	299.419	89.970	98.113	414.584	367.206	95.022	100.349	104.924	109.269	359.581	104.957	-8191	255	
1101.633	1	1	0	0	0.066809	0.14367	0.25456	0.12499	0.31118	0.11333	0.23547	0.11469	0.051027	0.24786	0.21583	0.14944	0.016641	0.27067	0.17375	0.059182	-1.5292	-2.0708	-2.6771	-2.0875	-2.5229	-2.6042	-1.9625	-2.7604	-2	-2.0854	-2.6417	-1.8125	-2.3458	-2.5146	-2.1292	-2.7521	269.738	240.462	117.476	439.833	261.186	245.858	93.282	89.268	430.017	398.164	256.392	83.160	433.203	129.261	119.531	293.324	9.8349e-05	0.0026019	0.00040108	489.45	1.0126e-05	2.0187e-05	454.26	113.1	2.689e-06	8.8123e-06	113.72	37.714	36.602	11.704	5.3837e-06	12.435	0.042481	0.079481	0.022099	746.2	0.00079024	0.0008942	744.17	208.77	0.00078239	0.00088363	608.44	87.574	87.799	26.532	0.00082294	33.588	227.271	111.317	162.600	90.805	345.883	322.431	89.718	98.248	237.878	143.205	96.789	100.876	104.649	109.704	234.733	104.248	-8191	255	
1101.730	1	1	0	0	0.12494	0.31348	0.14616	0.13516	0.1565	0.22375	0.12301	0.15105	0.1369	0.30015	0.16698	0.00084123	0.096525	0.10873	0.25774	0.20914	-1.9333	-1.9521	-2.7521	-1.8729	-2.3333	-2.6063	-1.9667	-2.5146	-2.3646	-2.0687	-2.6917	-2.0563	-2.3542	-2.5271	-1.7083	-2.6854	410.871	283.334	139.071	392.770	198.401	372.846	367.410	335.999	233.982	253.456	85.546	180.000	379.985	93.253	94.236	136.210	7.1775e-05	0.0007182	0.00036074	491.79	5.7295e-06	2.1811e-05	460.42	111.85	2.0615e-05	2.2231e-05	113.56	37.507	36.471	11.629	1.0193e-05	12.807	0.04357	0.080387	0.022791	751.37	0.00079447	0.00089542	748.39	207.21	0.00077464	0.00086318	599.9	85.995	85.503	25.985	0.00080335	33.038	218.188	274.584	293.510	91.037	100.801	257.843	90.451	98.519	207.528	91.233	94.943	100.514	105.409	108.573	128.591	103.785	-8191	255	
1101.826	1	1	0	0	0.26563	0.064135	0.21139	0.13374	0.1565	0.1914	0.16946	0.062685	0.17075	0.18092	0.085633	0.1335	0.28342	0.063361	0.20863	0.043932	-2.0354	-1.9646	-2.5625	-2.0979	-2.2896	-2.5833	-1.8271	-2.4792	-2.4083	-1.95	-2.5938	-2.2479	-2.0896	-2.7438	-1.9083	-2.3146	418.061	189.717	352.887	433.879	110.190	86.550	99.176	277.271	402.913	139.623	364.762	362.299	105.538	427.053	234.940	112.643	0.00026388	0.0010698	0.0003118	484.08	1.2781e-05	6.3071e-06	446.12	109.97	1.6639e-05	1.0875e-05	107.78	37.08	35.672	11.712	8.8398e-06	12.785	0.041203	0.076656	0.021957	734.35	0.00074858	0.00085779	729.56	202.37	0.0007307	0.0008326	585.1	84.083	83.236	25.85	0.00078248	32.38	137.295	187.938	416.165	91.501	245.272	265.348	90.427	98.112	305.229	137.759	96.682	101.413	105.538	109.798	152.909	105.272	-8191	255	
1101.922	1	1	0	0	0.076777	0.18788	0.17583	0.11605	0.1502	0.22974	0.063066	0.070709	0.18548	0.04912	0.13337	0.07428	0.13239	0.12783	0.14556	0.099651	-2.0104	-1.7188	-2.5479	-2.1833	-2.0896	-2.8063	-1.9188	-2.3771	-2.3042	-1.9438	-2.7333	-2.5042	-2.0729	-2.8417	-1.8896	-2.4021	220.444	356.411	317.494	319.891	184.634	214.965	118.834	398.235	389.675	95.991	97.348	186.037	304.564	407.744	416.744	289.109	0.00018454	0.0022774	0.00035445	475.03	3.2077e-05	3.0064e-05	439.36	109.33	1.5129e-05	3.4384e-05	105.73	36.363	35.266	10.937	7.1983e-06	11.803	0.03976	0.075812	0.021858	727	0.0007499	0.00088248	736.29	203.92	0.00077466	0.00090401	623.56	86.166	85.901	26.434	0.00085928	33.007	132.628	277.832	190.049	90.945	99.092	201.218	90.268	98.014	352.302	143.620	96.676	101.377	104.609	109.868	335.732	105.301	-8191	255	
1102.043	1	1	0	0	0.095654	0.036408	0.096194	0.25387	0.077074	0.3459	0.11351	0.089419	0.13459	0.079916	0.11378	0.16828	0.1743	0.20217	0.24177	0.12432	-2.0979	-2.0396	-2.5687	-2.4146	-1.7417	-2.8792	-1.9917	-2.2313	-2.5083	-1.8708	-2.6625	-2.5458	-2.0812	-2.5938	-1.9833	-2.3563	220.640	136.526	153.204	419.131	97.514	386.745	82.119	377.392	306.232	241.709	380.203	392.812	289.442	86.308	222.357	222.857	0.00024834	0.0024892	0.00018998	477.36	1.8683e-05	2.4198e-05	442.11	107.92	2.3618e-06	1.2459e-05	100.21	35.437	33.764	10.829	1.2938e-05	12.044	0.043259	0.08356	0.023553	742.76	0.00078911	0.00093407	749.64	206.25	0.00079127	0.00093482	631.47	85.874	86.159	26.869	0.00087501	33.287	215.091	342.394	376.556	91.217	155.436	221.170	90.301	98.210	257.055	138.268	95.546	100.652	104.421	109.491	372.594	104.462	-8191	255	
1102.139	1	1	0	0	0.27887	0.36215	0.13258	0.22314	0.15553	0.32235	0.09966	0.059382	0.19201	0.1382	0.27364	0.12451	0.1887	0.21201	0.10784	0.16146	-2.2938	-2.0083	-2.6646	-2.3229	-1.9458	-2.7479	-2.2021	-2.3125	-2.6083	-2.0792	-2.6188	-2.3792	-1.8708	-2.5812	-2.0458	-2.0625	393.933	408.805	439.324	156.685	252.465	363.868	432.150	344.173	299.857	411.439	284.792	87.877	286.663	429.555	246.561	339.653	0.00030259	0.00050224	0.00065873	482.83	2.0188e-05	1.4095e-05	443.26	107.77	1.1435e-05	2.479e-05	102.55	33.711	33.119	10.798	2.4298e-05	12.144	0.044044	0.085146	0.023758	744.72	0.00079884	0.00094681	747.09	203.29	0.00079192	0.00092774	618.58	82.871	84.348	26.387	0.00084107	32.515	333.015	373.001	399.016	91.287	139.740	134.002	89.803	98.189	269.576	127.552	95.085	102.316	104.770	110.198	317.397	105.733	-8191	255	
1102.210	1	1	0	0	0.13271	0.14235	0.1405	0.32	0.19807	0.049546	0.48431	0.33676	0.31368	0.15559	0.22144	0.14087	0.1269	0.094972	0.066421	0.064631	-2.3063	-1.8417	-2.4792	-2.4896	-1.7729	-2.6562	-2.1625	-1.9417	-2.5687	-1.9167	-2.4583	-2.4729	-2.0854	-2.6562	-2.1625	-2.0542	265.180	117.947	136.860	410.131	412.357	307.601	334.318	188.379	350.717	190.554	103.569	219.048	423.999	326.357	228.442	220.274	0.00030089	0.001572	0.00040871	477.72	1.6894e-05	6.2077e-06	434.21	107.44	8.537e-06	7.6651e-06	102.35	34.646	33.413	11.434	1.046e-05	12.847	0.043067	0.082177	0.022609	728.15	0.0007674	0.00089196	714.62	196.48	0.00074184	0.00084855	568.49	79.543	80.67	25.487	0.00075504	31.326	252.410	137.846	257.765	90.819	116.478	125.322	90.183	97.834	211.594	426.283	95.295	101.330	104.808	108.582	180.416	104.900	-8191	255	
1102.331	1	1	0	0	0.32943	0.33041	0.22243	0.32681	0.30571	0.1431	0.19674	0.24959	0.12379	0.043729	0.052956	0.061607	0.019659	0.14973	0.14474	0.066685	-2.2583	-2.0312	-2.2687	-2.7979	-1.95	-2.4604	-2.4604	-1.825	-2.6813	-1.95	-2.3167	-2.5167	-1.9792	-2.4271	-2.2417	-1.925	260.070	102.598	264.422	328.671	127.265	432.331	107.461	384.603	348.068	228.116	422.943	92.200	409.862	407.703	287.637	146.431	0.00036127	0.0010631	0.00063314	468.78	7.636e-06	2.2487e-05	428.85	107.49	1.7238e-05	1.324e-05	104.01	35.421	34.301	11.377	3.4306e-05	12.977	0.039563	0.075006	0.020625	704.33	0.00072842	0.00084496	700.95	195.42	0.00073885	0.00084565	569.52	81.642	83.104	25.866	0.00077376	32.234	303.329	177.249	187.504	91.125	273.835	239.934	89.812	97.937	195.596	319.674	94.248	101.123	104.397	108.807	291.540	104.629	-8191	255	
1102.427	1	1	0	0	0.1161	0.20456	0.29761	0.09709	0.23155	0.17101	0.17261	0.1759	0.18788	0.29241	0.29551	0.10289	0.19429	0.095666	0.35063	0.42087	-2.1479	-2.1042	-2.1188	-2.6375	-1.8146	-2.5146	-2.3667	-1.7313	-2.6333	-2.2167	-2.0979	-2.6375	-1.6917	-2.3021	-2.4708	-1.8937	295.303	120.089	97.546	376.642	273.839	273.369	408.678	82.599	412.190	255.453	94.622	247.003	201.628	128.300	292.355	349.931	9.2375e-05	0.0011532	0.00047677	471.82	2.8963e-05	1.5539e-05	437.25	109.02	6.7821e-06	2.9551e-05	110.96	36	34.69	11.254	1.4829e-05	12.895	0.041583	0.077938	0.021446	720.62	0.00076453	0.0008825	717.29	201.27	0.00077191	0.00087088	588.71	84.619	84.863	26.335	0.0008009	33.209	201.751	158.122	129.815	90.778	237.020	212.922	89.876	97.780	433.640	321.767	93.700	100.647	104.605	108.623	183.719	104.236	-8191	255	
1102.522	1	1	0	0	0.25934	0.13038	0.15869	0.016614	0.18719	0.050845	0.30107	0.10715	0.05506	0.14362	0.0036065	0.14369	0.23515	0.033708	0.11443	0.13033	-2.2396	-2.1083	-1.8875	-2.7062	-1.9875	-2.3812	-2.5583	-1.7292	-2.7083	-2.2646	-1.9917	-2.7208	-2	-2.2625	-2.5792	-2.0563	438.012	139.270	283.172	257.310	177.116	195.410	241.782	136.052	213.304	271.059	324.236	425.664	341.275	437.481	403.539	390.600	0.00010589	0.0012724	0.00015027	469.16	9.7138e-06	3.1016e-05	432.03	107.59	1.7517e-05	7.1203e-06	101.9	35.673	34.102	11.665	2.4806e-05	12.788	0.042658	0.079523	0.021971	724.61	0.00077993	0.00088729	719.78	202.47	0.00078035	0.00087552	595.54	84.989	85.038	26.397	0.00081252	33.528	366.162	166.827	147.991	90.609	206.181	147.959	89.920	98.049	370.010	86.112	95.435	101.693	104.334	108.557	353.476	104.444	-8191	255	
1102.619	1	1	0	0	0.14128	0.16486	0.20414	0.17989	0.10324	0.23116	0.16327	0.042931	0.1941	0.2375	0.12218	0.063711	0.2865	0.1392	0.13045	0.047759	-2.1646	-2.1854	-1.9208	-2.9208	-2.0417	-2.2583	-2.6312	-1.8208	-2.475	-2.4833	-2.0042	-2.7229	-2.0687	-2.3854	-2.6667	-1.9333	264.339	226.595	224.951	274.678	343.949	192.574	164.511	418.935	240.482	398.399	117.825	204.225	84.394	210.750	118.658	414.347	0.0002454	0.0020617	0.00036075	468.34	2.8189e-05	2.3745e-05	432.6	109.55	9.64e-06	2.5845e-05	108.68	36.943	34.767	11.85	2.4174e-05	13.189	0.042425	0.077798	0.021793	719.18	0.00075631	0.0008598	714.6	201.4	0.00075812	0.00085037	593.5	85.389	84.538	26.415	0.00081823	33.684	305.145	129.282	165.178	90.966	366.148	116.747	89.746	97.842	266.541	287.926	94.481	101.022	104.092	109.062	246.562	104.728	-8191	255	
1102.738	1	1	0	0	0.12752	0.14323	0.48878	0.34008	0.0047029	0.086506	0.088636	0.089504	0.35579	0.047518	0.19543	0.34707	0.18003	0.17604	0.13794	0.23086	-2.3583	-2.4646	-1.875	-2.6771	-2.1104	-2.1	-2.6208	-1.9333	-2.3854	-2.65	-1.8687	-2.5812	-2.2271	-2.0667	-2.7146	-1.7875	98.135	95.158	201.297	400.256	301.215	179.367	329.329	428.096	285.091	280.361	314.599	207.017	374.738	437.777	281.977	303.779	8.0441e-05	0.0011212	0.00058511	470.49	1.0199e-05	2.8138e-05	441.04	109.24	1.7524e-05	1.8253e-05	109.41	37.137	34.591	11.675	1.9128e-05	13.515	0.042402	0.078919	0.02254	731.54	0.00077597	0.00089561	741.39	206.49	0.00078631	0.00089853	627.14	87.995	86.411	27.087	0.00085794	34.657	370.249	363.258	422.776	91.386	389.147	335.559	90.282	97.666	269.327	366.538	95.263	100.843	104.576	109.153	81.617	105.331	-8191	255	
1102.834	1	1	0	0	0.42836	0.2093	0.029386	0.30762	0.06159	0.26492	0.14552	0.18426	0.13629	0.066717	0.13322	0.11893	0.13781	0.28513	0.1169	0.077823	-1.9792	-2.5417	-1.8146	-2.7208	-2.3479	-1.9813	-2.7812	-2.1833	-2.3479	-2.5771	-1.9479	-2.5792	-2.3208	-1.9979	-2.7396	-2.0792	425.248	363.852	405.223	359.698	413.770	365.744	350.914	106.731	378.031	286.484	175.796	381.723	280.810	95.785	187.341	331.831	0.00019618	0.00068654	0.00018839	473.75	1.8155e-05	1.0034e-05	447.35	109.36	9.5013e-06	5.6406e-05	107	37.241	34.875	11.49	1.0196e-05	12.879	0.043529	0.083051	0.023822	747.76	0.00081272	0.00094978	763.5	212.1	0.00082203	0.0009598	659.11	90.359	89.079	27.968	0.00090937	35.197	245.954	268.464	254.040	90.886	156.462	263.678	90.167	97.869	91.566	250.066	95.633	101.259	104.333	109.029	123.217	105.020	-8191	255	
1102.931	1	1	0	0	0.038581	0.18793	0.23614	0.21534	0.23691	0.077508	0.36205	0.28933	0.10293	0.04142	0.15067	0.12036	0.26494	0.088419	0.13646	0.12043	-1.6979	-2.5938	-1.7708	-2.4542	-2.4271	-1.9208	-2.6937	-2.1229	-1.9917	-2.6	-1.8083	-2.4729	-2.475	-2.0583	-2.5854	-2.2313	140.575	124.502	84.599	108.628	361.360	353.451	218.686	90.228	119.348	318.583	158.953	423.374	392.597	127.185	230.667	329.505	0.00037871	0.0037355	0.00092142	470.67	1.7737e-05	3.1737e-06	436.81	108.09	1.2898e-05	1.8477e-05	102.03	36.718	34.485	11.487	3.1419e-05	12.881	0.045669	0.087831	0.024868	750.33	0.00083161	0.00098278	758.4	209.46	0.00082728	0.00097033	649.87	88.972	88.162	27.919	0.00089676	34.744	289.923	92.293	303.456	91.013	219.792	180.055	90.520	98.394	330.232	136.707	96.720	101.345	104.159	110.043	285.912	105.250	-8191	255	
1103.027	1	1	0	0	0.12803	0.17772	0.17262	0.16634	0.17757	0.072882	0.29924	0.068043	0.22371	0.033366	0.26329	0.0084815	0.073486	0.13825	0.12289	0.19705	-1.5833	-2.6583	-1.8917	-2.4542	-2.4292	-1.9813	-2.7229	-2.1708	-1.9396	-2.6604	-1.9729	-2.3563	-2.4396	-1.7625	-2.65	-2.3083	407.180	431.890	126.905	419.145	145.486	387.080	323.041	358.840	155.054	404.213	365.070	325.868	133.341	130.217	116.821	130.563	0.00025013	0.0018227	0.00057172	465.69	2.3362e-05	1.6642e-05	436.81	107.09	7.914e-06	1.9943e-05	105.49	36.951	34.318	11.585	9.0257e-06	12.827	0.045033	0.087058	0.024307	741.16	0.00081843	0.00097394	753.69	207.41	0.00081754	0.00095609	637.74	87.846	87.608	27.76	0.00087467	34.256	215.595	201.771	275.877	90.864	296.486	390.926	90.248	97.859	250.252	154.158	93.506	101.071	103.650	109.553	298.053	104.303	-8191	255	
1103.123	1	1	0	0	0.14233	0.21103	0.029332	0.071548	0.28304	0.11006	0.23052	0.13718	0.12294	0.17376	0.11454	0.24528	0.22972	0.1257	0.05175	0.080401	-1.3771	-2.65	-1.8479	-2.2167	-2.5208	-1.675	-2.7042	-2.4229	-2	-2.7375	-2.0229	-2.3792	-2.8438	-1.7125	-2.4896	-2.3563	397.991	85.214	335.925	310.183	354.371	418.958	358.872	341.277	211.951	321.717	280.871	211.154	314.573	156.695	343.515	278.083	0.00011151	0.0018205	0.00037835	470.86	4.1197e-05	1.4357e-05	443.59	108.02	1.3837e-05	1.2323e-05	109.12	35.89	34.011	10.923	3.2783e-05	12.293	0.044681	0.08599	0.023738	740.03	0.00082883	0.00097475	758.56	208.28	0.00084747	0.00098557	654.3	89.316	90.277	27.824	0.00091094	34.596	198.304	304.952	428.695	91.900	235.218	216.198	90.325	98.380	238.751	376.365	95.568	101.884	104.887	109.176	134.419	104.526	-8191	255	
1103.219	1	1	0	0	0.22703	0.43991	0.098606	0.080759	0.22216	0.20261	0.15881	0.28709	0.20871	0.12808	0.12172	0.22851	0.14177	0.19824	0.25166	0.22421	-1.4917	-2.5479	-2.0896	-2.0229	-2.7833	-1.975	-2.6021	-2.5708	-1.8	-2.5438	-2.0917	-2.1188	-2.4583	-2.0208	-2.3438	-2.5938	197.912	195.296	91.901	347.990	169.782	338.541	122.954	246.735	330.683	190.951	132.773	263.226	262.751	90.982	436.548	373.485	0.00045082	0.001462	0.00051533	471.91	1.3608e-05	4.4961e-05	437.77	107.96	1.6618e-05	7.2687e-06	104.57	34.939	32.744	10.7	3.1437e-05	11.912	0.047817	0.090848	0.024891	755.43	0.00088362	0.0010255	768.35	213.14	0.00089734	0.0010239	666.22	90.148	91.605	27.933	0.00092416	34.835	235.474	226.514	325.170	91.029	327.684	363.141	90.096	97.722	205.646	90.270	96.487	100.922	104.172	109.339	265.296	104.581	-8191	255	
1103.340	1	1	0	0	0.11718	0.29924	0.056491	0.098679	0.29157	0.20381	0.30279	0.23742	0.091641	0.10906	0.047046	0.087482	0.003673	0.12721	0.213	0.056086	-1.4146	-2.4729	-2.1562	-2.0083	-2.7396	-2.0021	-2.3771	-2.4083	-1.8896	-2.5938	-2.3729	-2.1729	-2.7104	-2.1063	-2.1979	-2.575	433.624	357.712	135.366	317.165	146.354	369.070	425.395	286.153	238.385	200.403	397.827	308.906	145.368	383.155	329.266	370.226	0.00013834	0.0015076	0.00075858	474.5	1.327e-05	1.373e-05	438.3	105.36	8.9474e-06	5.9395e-06	105.19	33.87	32.8	10.347	1.775e-05	11.322	0.049115	0.092195	0.025177	762.5	0.00089772	0.001028	764.46	213.04	0.00089589	0.0010135	659.34	89.495	90.393	27.181	0.00090433	34.403	168.241	286.930	278.300	91.173	254.034	215.921	90.387	98.090	343.328	242.398	95.051	101.521	104.821	109.448	247.323	104.642	-8191	255	
1103.434	1	1	0	0	0.074325	0.13081	0.22845	0.13603	0.17811	0.1931	0.20198	0.19927	0.18533	0.37314	0.12543	0.14397	0.14102	0.11591	0.19607	0.17113	-1.6354	-2.5687	-2.3292	-2.0042	-2.775	-2.2854	-2.3146	-2.5896	-1.9062	-2.5729	-2.5083	-1.725	-2.7812	-2.1917	-2.1896	-2.6208	409.409	350.344	335.250	297.936	330.926	355.640	93.142	308.447	309.563	138.781	358.410	297.324	323.233	127.729	267.359	159.457	0.0001917	0.0022973	0.00034515	473.63	2.3133e-05	3.7364e-05	436.3	106.19	3.0257e-06	2.2789e-05	99.902	34.669	33.276	10.414	7.2926e-06	11.956	0.047927	0.088594	0.024369	758.37	0.00086969	0.00098742	755.36	211.03	0.00086708	0.00097134	644.05	88.526	88.572	26.708	0.00087745	34.194	262.831	382.815	420.307	91.082	431.595	147.986	90.307	97.963	228.873	417.091	95.414	101.325	104.892	109.404	367.116	104.290	-8191	255	
1103.508	1	1	0	0	0.30385	0.10058	0.27967	0.10956	0.28369	0.22986	0.11245	0.078999	0.081307	0.29153	0.087998	0.058388	0.30406	0.13564	0.018194	0.07913	-1.3937	-2.4792	-2.3646	-1.8479	-2.8854	-2.1562	-2.1437	-2.5187	-2.075	-2.4062	-2.5042	-1.9271	-2.6146	-2.0917	-2.0312	-2.8479	88.674	293.920	362.971	352.093	282.266	366.878	440.443	360.214	195.069	215.591	232.102	299.360	218.349	303.393	129.387	379.153	0.00032772	0.00081933	0.00096481	477.27	2.2404e-05	6.447e-06	440.08	106.02	1.2944e-05	2.9091e-05	107.17	35.445	33.517	10.648	1.3732e-05	11.972	0.045863	0.084552	0.023746	753.42	0.00083004	0.0009359	746.09	208.31	0.00081992	0.00091806	630.06	87.578	86.838	26.167	0.00086138	33.67	336.332	378.539	124.214	91.757	404.657	358.349	90.866	98.633	291.421	97.243	93.554	100.993	105.028	110.155	155.672	104.308	-8191	255	
1103.604	1	1	0	0	0.075052	0.33379	0.12647	0.082409	0.1273	0.12753	0.080013	0.31224	0.11861	0.076887	0.16749	0.075056	0.07218	0.15044	0.13393	0.1968	-1.5896	-2.3375	-2.5042	-2.0563	-2.7021	-2.2271	-2.0417	-2.8	-2.0083	-2.2938	-2.5854	-2.0083	-2.5417	-2.275	-1.9562	-2.7667	431.804	250.358	215.914	113.246	321.838	416.313	302.915	374.299	399.396	121.864	434.382	308.459	135.591	333.282	107.392	223.208	9.5448e-05	0.0013269	0.00075715	468.94	6.9929e-06	3.3499e-05	433.87	106.88	1.0983e-05	1.241e-05	104.68	35.178	33.475	10.889	2.7568e-05	11.887	0.04399	0.081415	0.023264	738.54	0.00079381	0.00090438	737.36	205.45	0.00079135	0.00089901	622.9	86.185	84.963	26.026	0.00086362	33.412	356.434	335.765	128.622	91.334	93.085	156.223	90.488	97.627	288.702	219.338	91.387	100.923	103.913	108.221	306.437	104.155	-8191	255	
1103.723	1	1	0	0	0.25253	0.10199	0.25474	0.28566	0.23205	0.13173	0.19731	0.16786	0.3324	0.21935	0.39669	0.21527	0.38027	0.097261	0.25404	0.19565	-1.5896	-2.1542	-2.6146	-1.9458	-2.5708	-2.1354	-1.8312	-2.5687	-1.9479	-2.225	-2.5979	-1.8271	-2.5375	-2.3563	-1.875	-2.7542	314.584	119.106	345.485	373.570	271.449	392.469	322.551	313.125	238.752	351.771	189.817	113.724	153.775	310.241	226.317	116.394	1.4416e-05	0.00095043	0.00025841	470.9	1.1898e-05	3.0254e-05	436.63	106.61	2.2492e-05	2.148e-05	102.69	35.314	33.322	10.555	1.4025e-05	11.731	0.043699	0.082983	0.023934	743.65	0.00080318	0.00093869	751.47	207.28	0.00080699	0.00093656	644.65	87.241	86.016	26.652	0.00089732	33.941	213.277	132.745	121.904	90.539	203.355	317.837	89.584	97.381	393.048	220.220	94.829	100.269	103.621	108.694	197.298	103.192	-8191	255	
1103.819	1	1	0	0	0.18065	0.095497	0.11555	0.4201	0.22665	0.27627	0.21066	0.086281	0.23534	0.17039	0.065364	0.13801	0.15795	0.15753	0.14038	0.087339	-1.7146	-2.0042	-2.6	-1.9542	-2.4271	-2.3958	-2.0083	-2.7896	-2.1208	-1.9771	-2.6125	-1.7479	-2.2708	-2.5375	-1.7917	-2.5	213.422	297.353	418.211	364.357	358.952	381.603	111.588	422.448	308.681	270.660	120.595	368.729	332.744	326.363	412.062	118.510	9.4111e-05	0.0015633	0.0008589	470.78	1.2842e-05	2.402e-05	441.17	107.29	1.8172e-06	3.13e-05	108.59	34.83	33.131	10.597	8.5966e-06	12.01	0.04448	0.086212	0.024455	744.94	0.00080534	0.00095663	753.23	205.41	0.00079673	0.00094661	641.81	86.252	85.674	26.649	0.0008806	33.151	219.964	97.243	343.426	90.618	392.648	387.182	89.445	97.731	239.305	234.046	94.150	101.151	103.646	108.065	232.312	103.996	-8191	255	
1103.915	1	1	0	0	0.062726	0.25082	0.26942	0.26678	0.09637	0.11054	0.14153	0.3276	0.11561	0.1866	0.093351	0.10372	0.14152	0.29902	0.24538	0.12604	-1.6458	-1.9146	-2.8	-2.025	-2.3458	-2.5125	-1.9354	-2.4688	-2.3271	-1.9813	-2.775	-2.0062	-2.0812	-2.6	-2.0625	-2.4875	382.162	157.233	406.914	123.254	389.569	336.317	180.253	296.660	183.623	200.076	437.219	434.947	82.225	432.140	108.753	267.963	0.00010405	0.0018274	0.0013865	467	1.5788e-05	1.2833e-05	434.99	105.1	7.6822e-06	1.7709e-05	100.75	34.998	33.1	10.508	2.2331e-05	11.859	0.043782	0.085379	0.023903	734.41	0.00079956	0.00095192	744.93	202.43	0.00079835	0.00094947	633.3	84.818	84.931	26.524	0.00085753	32.478	238.185	360.446	300.985	90.730	123.515	128.144	89.565	97.270	284.265	415.121	94.616	100.031	103.666	107.563	427.593	104.633	-8191	255	
1104.011	1	1	0	0	0.078449	0.099749	0.26289	0.19112	0.052962	0.19846	0.14965	0.16342	0.14245	0.3653	0.19236	0.18604	0.12652	0.16108	0.15211	0.051411	-1.9042	-1.9708	-2.5229	-2.0521	-2.2396	-2.6312	-1.7708	-2.5521	-2.4938	-1.9646	-2.6854	-2.0833	-2.0667	-2.6312	-1.9312	-2.4792	283.195	97.908	304.032	343.915	230.293	322.896	108.316	332.600	168.366	252.399	393.254	435.557	158.683	397.145	269.125	325.397	0.00027614	0.0023361	0.00054946	467.04	9.2227e-06	2.0182e-05	432.96	105.04	7.9137e-06	1.7075e-05	95.182	34.345	33.109	10.115	1.3171e-05	11.495	0.043883	0.085352	0.023565	728.65	0.00080939	0.00096038	741.91	202.49	0.00082492	0.0009688	637	85.284	87.307	26.712	0.00087913	32.833	272.087	90.669	351.701	90.438	203.566	418.380	89.758	97.830	180.173	385.774	94.131	100.330	103.526	107.646	421.707	104.522	-8191	255	
1104.107	1	1	0	0	0.36025	0.29997	0.18913	0.12931	0.094646	0.02196	0.11848	0.096172	0.14711	0.20506	0.25334	0.028671	0.23857	0.32368	0.14636	0.08768	-2.0146	-1.7271	-2.5208	-2.2354	-1.9521	-2.5563	-2.0438	-2.3771	-2.6104	-1.65	-2.8021	-2.2354	-1.8771	-2.7188	-1.9646	-2.3625	305.920	252.011	368.034	90.107	362.992	426.856	249.334	381.294	272.620	183.106	86.090	403.979	218.029	343.468	250.650	206.560	0.00032279	0.0011537	0.00069614	472.01	1.8929e-05	1.6206e-05	436.69	104.9	2.9254e-06	1.868e-05	103.79	35.096	33.392	10.465	3.1969e-05	11.873	0.045883	0.087531	0.023755	738.85	0.0008373	0.00096991	745.7	204.1	0.00083553	0.00096048	628.93	86.484	88.248	26.855	0.00086659	33.611	271.357	237.988	316.931	90.456	223.735	399.858	89.675	97.828	131.577	241.482	95.216	100.478	104.075	108.636	352.987	103.574	-8191	255	
1104.203	1	1	0	0	0.20667	0.054337	0.15169	0.15208	0.25585	0.26098	0.097681	0.27778	0.14443	0.016556	0.10717	0.21997	0.31473	0.15948	0.15774	0.17696	-2.0667	-1.8667	-2.5771	-2.3688	-1.8646	-2.5438	-2.0104	-2.125	-2.7417	-1.8792	-2.4062	-2.3937	-2.2229	-2.5687	-2.0292	-2.2979	208.054	295.930	422.631	186.770	230.595	213.027	393.459	238.093	206.015	315.242	302.224	407.515	138.141	428.029	236.936	316.504	0.00011689	0.0019881	0.00018947	477.75	1.1585e-05	3.2351e-05	447.44	107.5	1.4098e-05	2.8107e-05	106.19	36.827	33.719	10.882	1.2543e-05	12.557	0.046514	0.087179	0.023746	748.95	0.00085711	0.00098275	758.26	208.95	0.00085284	0.00096094	631.71	88.903	88.784	26.924	0.00084686	34.383	239.706	315.585	236.597	90.390	349.252	106.986	89.818	97.789	93.551	122.696	97.661	99.924	103.977	108.104	203.132	105.074	-8191	255	
1104.299	1	1	0	0	0.093215	0.21285	0.13069	0.19448	0.042091	0.2267	0.068443	0.33598	0.20515	0.11633	0.2615	0.16633	0.2092	0.29579	0.13249	0.22924	-2.3	-1.9417	-2.4	-2.4146	-1.9667	-2.7333	-2.0771	-2.0292	-2.6354	-1.975	-2.4854	-2.5021	-1.7146	-2.5583	-2.1271	-2.1333	121.352	96.186	288.330	437.665	129.324	246.499	118.146	211.954	394.112	360.439	269.970	187.407	85.387	255.802	100.488	333.576	0.00046447	0.0018041	0.00046854	466.19	1.6838e-05	1.9906e-05	447.14	107.75	7.7742e-06	1.7978e-05	110.02	38.362	35.023	11.739	2.1471e-05	13.882	0.045964	0.084563	0.02326	742.33	0.00083346	0.00093525	746.42	208.08	0.00082011	0.00090928	616.16	89.642	87.67	26.819	0.00081828	34.722	264.011	381.073	141.437	90.281	337.617	342.906	89.420	97.757	242.232	215.419	94.497	100.494	104.950	108.400	307.580	103.849	-8191	255	
1104.420	1	1	0	0	0.13164	0.38691	0.12954	0.18913	0.10143	0.12677	0.1179	0.15316	0.14947	0.082408	0.22932	0.21363	0.21049	0.22241	0.092489	0.16859	-2.35	-2.0292	-2.3854	-2.4771	-1.7833	-2.6104	-2.2271	-2.0333	-2.75	-1.9208	-2.3146	-2.6396	-1.8646	-2.5646	-2.2042	-2.1208	158.912	299.112	382.298	389.687	84.161	338.819	306.285	425.195	239.110	382.437	104.336	437.506	390.979	233.219	209.755	154.273	4.7615e-05	0.001638	0.00013556	468.82	2.7815e-05	2.1463e-06	452.61	108.26	8.271e-06	1.7261e-05	114.29	38.899	34.403	11.765	1.3298e-05	13.725	0.043435	0.079183	0.022327	732.54	0.00079359	0.00088853	746.72	206.55	0.00079251	0.00087154	608.64	88.807	85.428	26.272	0.00081444	34.434	268.411	164.953	295.077	90.762	123.527	167.834	89.944	98.356	355.691	130.721	94.075	101.061	103.625	108.736	242.940	104.765	-8191	255	
1104.514	1	1	0	0	0.21879	0.25238	0.30276	0.065578	0.074507	0.090313	0.20856	0.026851	0.14567	0.10861	0.12109	0.13335	0.089095	0.083882	0.007486	0.14985	-2.1896	-1.9062	-2.1562	-2.8854	-1.9625	-2.6479	-2.4104	-1.9979	-2.6063	-2.0396	-2.2438	-2.7375	-2.0083	-2.4104	-2.5062	-1.9583	145.143	88.162	233.520	406.308	100.406	93.566	395.521	277.182	91.683	406.571	406.706	379.123	277.709	145.418	382.862	379.511	0.0002073	0.0011406	0.00016259	466.64	2.4295e-05	1.6573e-05	457.68	107.37	1.4894e-05	7.0375e-06	109.61	38.193	34.269	11.563	1.1942e-05	13.614	0.042402	0.077896	0.022733	731.58	0.0007837	0.00089711	760.86	207.29	0.00079764	0.00090405	639.51	90.41	86.487	26.936	0.00086738	35.475	292.727	282.599	359.156	90.672	292.722	142.325	89.892	97.367	325.278	361.740	96.540	100.988	104.284	109.076	314.362	104.357	-8191	255	
1104.612	1	1	0	0	0.10756	0.41412	0.17166	0.087814	0.15278	0.17818	0.29342	0.061313	0.12715	0.21788	0.15111	0.061757	0.053912	0.15289	0.061462	0.095604	-2.3812	-2.1458	-2.0938	-2.7042	-1.8625	-2.5979	-2.6042	-1.9479	-2.6167	-2.2	-2.0646	-2.7708	-1.7396	-2.3958	-2.5542	-1.8125	255.394	400.596	369.242	167.737	216.076	207.738	177.633	336.885	127.040	318.974	290.640	102.369	219.317	394.393	124.214	359.428	0.00013662	0.00082249	0.00040814	465.06	2.0206e-05	3.8229e-05	453.83	106.7	4.8381e-06	2.4891e-05	107.45	37.397	33.452	11.681	1.0795e-05	13.967	0.043587	0.081929	0.023855	735.47	0.00079015	0.00091901	762.55	205.16	0.00078753	0.00090895	636.01	88.625	84.662	27.223	0.00087034	35.647	109.282	186.010	307.803	90.881	238.008	196.311	90.737	98.307	142.248	182.429	93.728	100.477	103.747	108.416	251.108	104.902	-8191	255	
1104.731	1	1	0	0	0.40467	0.29311	0.20671	0.12169	0.015372	0.068233	0.27317	0.32373	0.15978	0.12819	0.3382	0.1476	0.22578	0.27773	0.061641	0.077941	-2.2021	-2.3042	-1.9229	-2.8625	-1.95	-2.3187	-2.5771	-1.8125	-2.5604	-2.1792	-1.9208	-2.6479	-2.1188	-2.2146	-2.5604	-1.9521	326.407	125.235	152.829	153.600	99.656	123.558	172.757	407.723	150.016	257.250	355.413	384.889	379.964	259.310	367.169	354.210	0.00031896	0.004626	0.0004879	454.81	3.5551e-05	8.9107e-06	447.77	105.89	1.9062e-05	1.0076e-05	109.01	38.961	34.984	12.875	1.7249e-06	15.559	0.043022	0.082961	0.023812	724.28	0.00078219	0.00093725	757.22	203.96	0.00078679	0.00093213	641.1	89.15	85.849	28.549	0.00085754	36.513	245.617	107.488	376.686	91.191	326.645	218.321	89.921	97.730	391.247	390.196	95.250	100.809	104.273	108.459	418.380	104.650	-8191	255	
1104.803	1	1	0	0	0.10227	0.016779	0.169	0.33509	0.1141	0.092347	0.11576	0.038511	0.086436	0.15258	0.10632	0.23186	0.23758	0.34526	0.20328	0.10038	-2.15	-2.4583	-1.9688	-2.6562	-2.0583	-2.3375	-2.7583	-2.0458	-2.5458	-2.3896	-2	-2.6604	-2.0229	-2.0875	-2.7438	-1.8438	392.642	333.853	134.894	370.876	211.408	346.219	277.414	370.180	228.465	134.795	339.786	411.401	296.401	148.316	179.858	86.502	0.00018615	0.0015567	0.0011421	460.09	1.6791e-05	3.0976e-05	455.38	109.28	1.4717e-05	1.1292e-05	111.76	38.586	34.138	12.446	4.2568e-05	14.872	0.042166	0.081867	0.022842	710.61	0.00074538	0.0008936	744.9	199.16	0.00073596	0.00087691	603.34	85.446	83.306	27.606	0.00082599	34.708	244.775	251.867	110.049	91.603	326.093	229.587	90.542	98.381	376.120	361.364	94.227	100.569	104.442	109.475	426.894	105.003	-8191	255	
1104.899	1	1	0	0	0.089507	0.17784	0.22529	0.15022	0.27182	0.093038	0.15746	0.099137	0.081684	0.20358	0.29377	0.14132	0.076886	0.074307	0.040961	0.18141	-2.1646	-2.5833	-1.8458	-2.8187	-2.1042	-2.0917	-2.9208	-1.9104	-2.5187	-2.6271	-1.8208	-2.7125	-2.3229	-2.2521	-2.8229	-2.0583	227.235	86.161	415.134	118.656	185.335	119.078	362.154	429.354	259.197	388.484	152.066	371.331	404.992	165.062	210.627	303.200	0.00031372	0.0011432	0.00052618	456.03	1.1667e-05	2.4361e-05	439.95	101.79	6.177e-06	1.9729e-05	101.06	34.997	32.638	10.903	1.1827e-05	13.154	0.042274	0.083086	0.02308	709.75	0.00079297	0.00094205	742.61	196.59	0.00079924	0.00093609	621.39	84.343	84.563	26.895	0.00085307	33.842	188.976	80.844	350.110	91.167	352.624	137.868	90.087	98.383	169.187	334.212	96.915	101.410	103.957	110.300	98.683	104.411	-8191	255	
1105.020	1	1	0	0	0.17219	0.079183	0.13383	0.019415	0.17656	0.22977	0.12208	0.034337	0.023688	0.042629	0.29623	0.14607	0.1224	0.19846	0.18331	0.25299	-1.9208	-2.7396	-1.8458	-2.7625	-2.3187	-1.7687	-2.8396	-2.2229	-2.3292	-2.6167	-1.8875	-2.7042	-2.525	-1.9167	-2.8312	-2.1167	244.092	376.411	141.498	221.793	197.019	418.972	331.721	323.766	197.392	186.694	132.793	347.360	432.904	157.338	175.754	318.265	0.000158	0.0010345	0.00067021	447.36	2.5854e-05	4.6722e-05	425.67	100.23	5.8829e-06	1.5189e-05	104.73	34.563	32.164	10.735	2.074e-05	12.879	0.044742	0.085702	0.023377	710.7	0.00082894	0.00096625	731.77	197.89	0.00083288	0.00095373	618.23	84.695	85.595	26.79	0.00084515	33.883	235.706	96.519	267.944	91.378	211.433	272.821	90.208	97.588	249.464	308.272	93.658	100.467	104.243	109.123	85.465	104.548	-8191	255	
1105.116	1	1	0	0	0.16656	0.34322	0.11302	0.044646	0.1149	0.20898	0.21132	0.10957	0.19998	0.14875	0.040593	0.10445	0.36098	0.14379	0.28989	0.28918	-1.9062	-2.5292	-1.8167	-2.6833	-2.475	-2.125	-2.7938	-2.3688	-2.2896	-2.7417	-2.0312	-2.6	-2.2729	-2.1104	-2.5604	-2.15	357.379	285.160	129.592	164.076	113.482	203.655	317.323	385.493	346.459	259.370	161.264	333.486	104.474	86.962	222.218	100.578	0.00025419	0.0023021	0.00036993	444.96	1.1796e-05	5.1345e-05	423.25	101.37	7.9042e-06	1.5572e-05	101.9	35.856	33.058	11.56	2.3898e-05	14.067	0.045172	0.084922	0.02295	708.74	0.00082343	0.00094671	721.28	198.85	0.00081973	0.00092302	603.72	85.5	85.235	26.765	0.00080451	34.162	314.931	270.623	307.677	91.037	351.025	425.177	90.147	97.776	151.268	325.318	96.186	101.067	104.297	109.066	107.217	104.055	-8191	255	
1105.212	1	1	0	0	0.20579	0.2245	0.11548	0.18658	0.17774	0.11461	0.20034	0.07891	0.3697	0.14691	0.082764	0.053388	0.26942	0.093773	0.076946	0.035854	-1.75	-2.6417	-1.9104	-2.4	-2.5271	-1.8312	-2.6458	-2.2729	-2.025	-2.525	-1.7188	-2.3229	-2.4396	-1.8271	-2.6312	-2.2542	317.895	195.562	381.110	97.416	185.585	368.106	285.143	235.596	342.132	379.617	198.039	247.108	204.142	365.251	284.116	366.248	0.0001995	0.0025205	0.00047883	452.9	2.3052e-05	3.4952e-06	435.46	103.33	6.9503e-06	1.4153e-05	108.22	36.243	32.682	11.182	2.2876e-05	12.546	0.042839	0.079131	0.021617	705.15	0.00078155	0.00088445	718.4	198.56	0.00079173	0.0008883	599.66	86.193	85.051	26.224	0.00083321	34.136	197.176	377.765	185.304	91.204	86.502	199.315	90.806	98.090	321.408	363.476	93.778	101.189	104.562	108.625	248.508	104.261	-8191	255	
1105.308	1	1	0	0	0.24544	0.14201	0.33503	0.10772	0.093608	0.12359	0.14925	0.24728	0.17439	0.16596	0.11038	0.10458	0.18442	0.10321	0.34299	0.12433	-1.475	-2.7313	-1.9917	-2.4521	-2.575	-1.8104	-2.55	-2.3646	-2.075	-2.7583	-2.2729	-2.075	-2.7167	-1.8104	-2.4479	-2.5125	234.447	81.961	216.001	411.105	256.463	324.049	88.481	422.328	113.244	103.252	350.963	316.876	358.132	102.636	389.141	305.296	7.8949e-05	0.0017347	0.000218	451.84	2.1698e-05	3.8228e-06	427.8	103.16	1.277e-05	1.7423e-05	106.74	35.381	32.333	10.844	6.1534e-06	12.38	0.044661	0.08248	0.023065	724.05	0.000821	0.00092028	731.64	203.12	0.00081966	0.00091322	625.28	87.483	86.036	26.298	0.00086585	34.264	406.098	368.137	310.726	90.686	394.206	127.123	89.782	97.374	291.652	319.906	97.647	100.391	104.138	109.051	263.671	105.044	-8191	255	
1105.404	1	1	0	0	0.34251	0.1526	0.11549	0.24851	0.16974	0.19858	0.15597	0.11156	0.17964	0.16226	0.1608	0.081081	0.050844	0.11691	0.2303	0.1645	-1.4667	-2.5083	-1.9667	-2.3396	-2.6021	-2.0083	-2.3854	-2.3646	-2.0542	-2.525	-2.0479	-2.0729	-2.65	-1.8521	-2.2833	-2.5646	243.739	235.114	320.718	384.701	337.479	200.257	356.190	175.039	108.632	311.172	280.284	165.061	365.982	101.784	210.825	298.812	0.00025998	0.002948	0.00041307	448.9	1.9822e-05	2.615e-05	425.41	102.43	1.0458e-05	1.6745e-05	104.25	35.094	32.441	11.101	2.5744e-05	13.078	0.044845	0.082439	0.023606	719.33	0.00080998	0.00091345	729.36	201.37	0.00079546	0.00089743	618.35	85.95	83.841	26.117	0.00084145	34.085	206.059	357.565	263.318	90.890	399.561	404.323	89.579	97.955	426.768	199.839	96.095	101.009	103.964	109.523	393.010	104.553	-8191	255	
1105.500	1	1	0	0	0.14066	0.17115	0.13951	0.11964	0.029643	0.1281	0.24225	0.095553	0.13977	0.38427	0.11779	0.044535	0.11261	0.075985	0.072834	0.22594	-1.3958	-2.6125	-2.2896	-2.2271	-2.6875	-2.0021	-2.2	-2.5438	-1.8104	-2.7125	-2.2792	-2.0146	-2.7313	-2.0958	-2.2687	-2.7167	316.088	265.010	407.047	278.547	146.739	331.969	382.865	251.544	343.380	158.152	318.244	107.963	352.656	171.220	123.251	291.800	0.00015461	0.001947	0.00034444	445.7	1.7847e-05	2.9137e-05	428.89	104.76	2.7107e-05	2.0308e-05	110.74	37.7	34.353	12.478	7.1875e-06	14.958	0.042244	0.078977	0.022603	703.3	0.00074849	0.0008571	714.4	196.61	0.00071799	0.00082407	581.77	83.911	79.919	26.168	0.00076118	33.583	252.686	248.784	126.525	90.853	258.750	244.107	90.565	98.387	381.384	256.137	94.697	100.677	104.657	108.713	91.479	104.424	-8191	255	
1105.595	1	1	0	0	0.12008	0.14974	0.10221	0.15221	0.11398	0.15424	0.16543	0.31758	0.081557	0.35116	0.27442	0.19744	0.014022	0.20711	0.20774	0.080473	-1.3896	-2.5458	-2.2854	-1.9625	-2.7625	-2.1333	-2.1208	-2.7833	-1.825	-2.5167	-2.3	-1.8167	-2.5479	-2.0479	-2.0938	-2.6479	217.010	208.877	278.030	382.369	157.929	270.213	141.644	103.250	415.770	105.763	83.646	167.742	321.355	420.071	278.909	364.537	0.00029717	0.00011452	0.00096472	443.76	9.5351e-06	8.7455e-06	430.77	103.86	4.9243e-06	5.2533e-06	99.744	37.084	34.714	12.387	2.349e-05	14.49	0.037315	0.071737	0.020521	674.49	0.00067645	0.00080208	694.26	187.89	0.00067226	0.00078948	554.19	80.316	77.289	25.531	0.00072704	32.206	301.422	135.299	395.864	91.397	251.602	136.928	89.930	98.135	438.639	220.594	93.979	101.262	104.702	108.814	263.090	104.704	-8191	255	
1105.693	1	1	0	0	0.01501	0.074991	0.18157	0.21063	0.14497	0.34441	0.050798	0.15808	0.26884	0.16973	0.11039	0.2192	0.12832	0.13988	0.053869	0.10141	-1.2396	-2.5042	-2.4437	-2.0062	-2.5958	-2.0292	-2.05	-2.7958	-1.7708	-2.225	-2.4083	-1.8083	-2.7562	-2.025	-1.9854	-2.7479	192.128	218.760	133.087	288.340	110.975	137.891	376.014	136.049	432.312	244.148	228.964	434.893	403.540	92.171	352.759	333.929	0.00013603	0.0017571	0.0003896	441.38	1.2705e-05	1.7375e-05	420.03	102.43	2.3446e-05	2.5478e-05	105.01	36.641	33.615	12.456	1.7905e-05	14.808	0.035736	0.06966	0.019587	658.11	0.00065545	0.00079124	675.65	184.23	0.00067816	0.00080832	557.07	80.171	78.822	26.34	0.00076169	33.105	234.406	107.259	383.180	91.439	323.424	170.665	90.055	98.373	221.668	150.444	95.484	101.254	104.596	109.478	262.800	104.614	-8191	255	
1105.812	1	1	0	0	0.13311	0.18786	0.044297	0.24021	0.16968	0.21417	0.22256	0.045422	0.20362	0.13608	0.041818	0.19084	0.23902	0.23593	0.083571	0.10302	-1.4083	-2.2271	-2.6312	-1.7229	-2.5667	-2.3583	-1.9354	-2.7146	-2.0167	-2.0958	-2.6667	-1.8708	-2.4479	-2.3063	-1.7062	-2.7479	275.791	112.461	379.093	343.321	308.946	386.873	362.481	268.559	111.832	228.799	284.392	358.921	161.033	358.887	144.583	142.572	0.00040246	0.0023488	0.00040431	431.22	2.4447e-05	1.6913e-06	416.04	100.08	1.7356e-05	8.7771e-06	101.55	37.717	34.019	12.851	1.96e-05	16.202	0.038685	0.075455	0.021017	664.82	0.00071377	0.00085016	687.28	186.98	0.00072439	0.00084825	573.36	82.262	81.693	27.581	0.00077975	35.19	246.302	250.711	227.734	91.133	262.326	99.752	90.406	98.011	279.914	137.889	94.726	100.832	104.599	109.616	379.652	103.896	-8191	255	
1105.908	1	1	0	0	0.092157	0.14775	0.027543	0.14247	0.13974	0.17379	0.21539	0.12552	0.18997	0.20573	0.15474	0.15574	0.19312	0.2623	0.14717	0.17934	-1.6125	-2.075	-2.4458	-1.8208	-2.5458	-2.3896	-2.0687	-2.6021	-2.0083	-2.1104	-2.9104	-1.8937	-2.4021	-2.3979	-1.8104	-2.6083	403.395	209.959	263.629	400.560	388.751	216.006	250.053	111.581	304.238	85.373	361.622	259.273	391.378	305.826	311.787	309.916	0.00023576	0.0034476	7.9679e-05	433.01	1.5268e-05	3.4783e-05	424.35	106.39	1.0379e-05	1.5434e-05	111.69	41.573	36.491	14.287	8.7135e-06	17.551	0.040599	0.077543	0.021267	672.22	0.00074567	0.00086671	701.05	193.84	0.00073926	0.00084941	571.73	86.418	84.109	28.52	0.00074616	36.262	263.757	304.810	292.926	91.556	240.005	218.059	90.484	98.327	218.397	162.258	97.702	100.785	104.638	108.270	173.985	104.067	-8191	255	
1106.004	1	1	0	0	0.12402	0.18107	0.32358	0.066652	0.051626	0.11383	0.099536	0.070612	0.12017	0.14035	0.17665	0.28375	0.0094691	0.20294	0.29002	0.087978	-1.7	-1.9792	-2.6229	-1.9	-2.2354	-2.6479	-2.1354	-2.6167	-2.15	-2.0083	-2.6292	-1.9646	-2.425	-2.4938	-1.7583	-2.6604	290.667	332.302	274.618	398.759	326.233	330.050	376.901	349.078	267.278	298.947	110.163	244.522	153.069	248.558	227.520	370.480	0.00024579	0.00025633	0.00072979	440.22	3.0065e-05	8.5143e-06	429.43	106.26	1.5762e-05	1.4809e-05	107.79	41.208	35.77	13.551	3.3984e-05	16.304	0.039557	0.074721	0.020283	669.19	0.00072485	0.00083353	689.19	191.86	0.00072149	0.00082681	561.3	86.526	83.938	27.951	0.00075944	35.866	234.929	380.848	129.375	91.211	345.310	405.162	89.813	97.821	216.312	92.620	94.678	101.047	104.780	108.862	124.909	104.512	-8191	255	
1106.100	1	1	0	0	0.34965	0.19537	0.21972	0.23531	0.31112	0.17441	0.23523	0.20688	0.22879	0.18499	0.19829	0.14356	0.12239	0.20853	0.094592	0.27587	-1.9813	-1.9542	-2.7	-2.0625	-2.3083	-2.4771	-1.8583	-2.5042	-2.1583	-2.0583	-2.6312	-2.0646	-2.2021	-2.6479	-1.8521	-2.4896	93.608	146.720	358.749	424.828	251.808	184.005	424.900	130.199	155.737	152.786	430.326	88.569	427.310	368.381	311.869	214.456	0.00032016	0.00079061	0.00021553	434.3	2.0496e-05	6.8856e-06	418.96	102.62	1.5802e-06	2.9213e-05	106.71	38.303	33.558	11.981	1.9218e-05	14.26	0.041352	0.077091	0.021313	684.05	0.00076661	0.00087463	698.22	195.46	0.00077814	0.00087311	592.26	87.373	84.378	26.734	0.00080157	34.708	289.705	390.913	439.637	91.368	258.246	406.693	90.494	97.970	261.790	170.681	97.728	101.183	104.116	109.681	256.161	105.394	-8191	255	
1106.196	1	1	0	0	0.12373	0.041695	0.23538	0.19954	0.22177	0.078198	0.22245	0.091431	0.16548	0.13444	0.10603	0.20935	0.046149	0.15061	0.21972	0.10861	-2.1458	-1.8271	-2.5083	-2.2438	-2.0583	-2.7208	-1.9917	-2.4646	-2.5125	-1.9979	-2.7667	-2.1917	-2.0938	-2.6771	-1.9417	-2.2771	247.446	422.065	321.586	400.050	288.055	247.396	415.934	429.356	265.702	414.827	206.851	331.909	255.947	421.805	308.330	377.251	0.00022139	0.0013905	0.00052476	426.73	1.3489e-05	8.8758e-06	412.93	97.385	1.4387e-05	3.2213e-05	102.67	37.77	32.161	11.667	1.6277e-05	14.315	0.042186	0.077467	0.021691	676.67	0.00076145	0.00085692	693.05	190.49	0.0007603	0.00084879	588.66	86.304	82.944	26.395	0.0008169	35.293	222.403	350.799	119.459	90.884	306.387	251.005	90.385	98.670	82.915	119.408	95.591	101.745	104.741	108.843	142.043	104.382	-8191	255	
1106.292	1	1	0	0	0.050856	0.22797	0.51972	0.097966	0.22031	0.091415	0.24756	0.10002	0.051607	0.13149	0.40945	0.060501	0.20828	0.084472	0.10512	0.14759	-2.1688	-1.5333	-2.45	-2.3229	-2.0458	-2.4667	-1.8458	-2.3167	-2.4646	-1.6812	-2.6583	-2.0875	-1.9438	-2.7125	-2.0375	-2.4688	330.281	319.976	348.281	134.684	122.260	432.195	394.315	86.161	359.546	240.613	82.618	330.690	294.193	367.884	93.338	331.577	0.00010804	0.00047183	0.00050376	431.04	9.7409e-06	8.3433e-06	424.2	99.763	1.9853e-05	1.3197e-05	106.06	37.787	32.831	11.185	1.2475e-05	13.846	0.043281	0.080289	0.023045	700.15	0.00081077	0.0009277	737.38	201.96	0.00083612	0.00095056	658.39	92.891	88.642	27.748	0.00092622	36.775	195.402	185.312	290.539	91.073	176.410	385.462	89.692	99.306	351.280	212.280	94.238	100.603	104.199	109.055	94.171	103.452	-8191	255	
1106.413	1	1	0	0	0.095459	0.21072	0.13751	0.29868	0.22922	0.21456	0.22058	0.27731	0.19817	0.11198	0.10037	0.17383	0.32213	0.16063	0.14272	0.15832	-2.2938	-1.8687	-2.6063	-2.4521	-1.8396	-2.7521	-2.1583	-2.1646	-2.5708	-1.7833	-2.425	-2.3792	-1.8042	-2.8458	-2.1312	-2.025	194.759	138.514	347.487	102.984	332.530	252.556	386.753	375.004	265.857	385.581	302.037	372.985	252.636	135.749	173.408	352.424	0.00010041	0.0012242	0.00017439	434.81	2.4623e-05	9.5737e-06	421.34	98.435	2.1946e-05	2.8557e-05	105.27	37.612	33.43	11.468	1.7035e-05	13.662	0.047048	0.088286	0.025523	722.83	0.00086093	0.00099479	754.11	205.85	0.00085776	0.00098772	673.21	93.33	88.518	28.177	0.00094154	36.907	235.882	185.352	368.526	90.979	255.200	344.832	90.366	98.166	324.013	312.893	93.863	100.620	104.539	108.391	124.352	105.060	-8191	255	
1106.507	1	1	0	0	0.066733	0.080673	0.20916	0.31318	0.13915	0.24553	0.16563	0.089713	0.28803	0.1519	0.23887	0.14239	0.19123	0.19039	0.21551	0.12525	-2.1979	-2.0708	-2.5417	-2.4521	-1.9896	-2.7313	-2.2104	-1.9146	-2.6063	-1.8937	-2.3688	-2.4375	-1.9333	-2.5896	-2.1771	-1.9667	405.288	80.611	226.202	296.070	224.738	304.372	415.068	86.944	354.257	428.621	286.241	410.781	210.273	430.437	359.465	187.727	0.00015887	0.00038993	0.00058748	427.58	2.0212e-05	3.2883e-05	420.21	97.986	2.8816e-05	3.4e-05	103.22	38.276	33.613	11.036	1.2639e-05	13.362	0.047212	0.090998	0.026185	724.74	0.00087758	0.0010434	769.24	208.39	0.00089484	0.0010472	701.14	95.558	90.965	28.82	0.00097305	37.049	297.497	374.294	373.217	90.900	180.221	204.480	90.396	98.014	383.014	218.057	97.076	100.917	105.041	109.339	147.588	105.153	-8191	255	
1106.604	1	1	0	0	0.28253	0.018946	0.095202	0.13901	0.094544	0.042766	0.19189	0.19488	0.16677	0.20654	0.12688	0.19097	0.085106	0.3081	0.13833	0.306	-2.2083	-2.1021	-2.4125	-2.6292	-1.9917	-2.4917	-2.2792	-1.9062	-2.6667	-1.9208	-2.2271	-2.35	-1.6625	-2.5375	-2.35	-1.9604	279.053	199.112	112.399	183.387	121.992	387.942	394.167	267.443	149.891	209.066	429.804	126.795	241.088	174.363	302.203	172.377	0.00023394	0.0022474	0.00038532	431.64	8.8598e-06	2.8952e-05	429.46	99.823	2.3615e-05	3.3859e-05	107.3	40.856	34.821	12.533	2.0579e-05	15.352	0.048409	0.09391	0.026434	724.43	0.00087203	0.001037	762.86	203.94	0.00083376	0.00096803	643.48	91.025	86.143	28.12	0.00084166	35.617	244.246	210.326	160.336	91.057	166.383	219.003	89.983	98.740	229.092	147.533	94.312	101.072	104.646	108.281	89.907	103.674	-8191	255	
1106.700	1	1	0	0	0.14091	0.17902	0.075798	0.051368	0.19157	0.064002	0.20527	0.083319	0.029794	0.16845	0.2194	0.3062	0.2406	0.16798	0.15735	0.19291	-2.3812	-2.0104	-2.1396	-2.5375	-1.9937	-2.5312	-2.5833	-1.925	-2.7	-2.1875	-2.0396	-2.6167	-1.9146	-2.3688	-2.4562	-2.0104	107.718	200.502	91.886	337.128	370.351	319.047	123.607	145.923	193.613	314.534	213.827	259.673	436.822	153.335	196.484	115.076	0.00022816	0.0024435	0.00061061	433.01	2.2346e-05	1.2201e-05	431.74	99.537	9.8644e-06	2.3823e-05	106.55	37.182	32.198	10.117	3.5976e-05	12.187	0.042098	0.081916	0.022945	688.48	0.0007975	0.0009655	748.03	200.28	0.00085517	0.0010077	669.76	91.959	90.309	27.831	0.00095408	35.521	200.266	275.090	415.224	91.233	224.103	311.867	90.471	98.807	193.521	403.822	94.819	100.581	103.769	108.600	392.464	104.998	-8191	255	
1106.796	1	1	0	0	0.057406	0.21687	0.6067	0.041995	0.12628	0.24864	0.11464	0.25031	0.10134	0.31861	0.1973	0.17199	0.1711	0.091002	0.021751	0.13853	-2.1937	-2.1875	-1.9896	-2.6083	-1.8792	-2.375	-2.5312	-1.875	-2.7458	-2.4062	-2.1646	-2.6729	-1.8312	-2.2208	-2.5729	-1.8188	373.607	139.109	314.767	139.636	296.632	252.850	139.747	244.342	221.883	172.301	318.401	398.818	212.867	305.432	392.227	190.327	0.00027444	0.0029766	0.00085959	440.85	1.5588e-05	1.9657e-05	423.79	97.773	1.264e-05	3.2656e-05	103.36	37.895	33.135	10.222	1.3007e-05	12.326	0.050042	0.096232	0.026459	735.14	0.00092706	0.0010852	772.87	207.82	0.00092371	0.0010575	683.99	93.43	92.12	27.815	0.00092954	35.415	204.756	365.681	315.069	91.091	230.291	97.569	90.822	98.185	281.755	127.614	94.805	101.206	104.105	109.118	270.314	104.286	-8191	255	
1106.892	1	1	0	0	0.11882	0.14308	0.33226	0.19713	0.20543	0.063702	0.18265	0.20601	0.16039	0.23882	0.10425	0.14308	0.19546	0.25654	0.15156	0.25881	-2.1125	-2.3646	-1.9458	-2.7979	-1.8729	-2.2812	-2.6813	-1.8958	-2.6562	-2.2604	-2.0938	-2.6833	-2.075	-2.1896	-2.5146	-1.8458	298.938	212.812	118.838	337.565	227.021	259.458	158.241	383.015	187.998	240.727	406.862	336.929	417.141	362.237	263.895	418.558	0.00020757	0.0017541	0.00050723	439.34	1.1334e-05	1.2015e-05	436.87	99.764	2.1509e-05	3.1584e-05	109.95	38.288	34.059	10.711	1.5626e-05	13.107	0.049179	0.092595	0.025247	725.85	0.00090181	0.0010439	764.96	207.02	0.00090985	0.0010373	676.32	95.08	93.446	28.328	0.00093764	36.83	155.122	93.632	420.273	91.324	282.726	81.534	90.715	98.515	190.010	155.706	95.205	101.957	104.216	109.303	306.611	105.177	-8191	255	
1106.988	1	1	0	0	0.13688	0.13554	0.30455	0.11371	0.19969	0.055517	0.17247	0.15905	0.083935	0.16984	0.19585	0.035346	0.1451	0.08235	0.17181	0.19571	-2.1875	-2.2354	-1.7375	-2.7958	-2.0438	-1.9979	-2.625	-2.075	-2.5146	-2.6437	-2.0146	-2.6333	-2.2479	-2.1229	-2.6937	-2.0458	361.874	413.453	272.482	355.932	396.327	207.539	85.546	425.636	154.792	116.167	210.144	82.101	135.484	178.977	333.081	179.118	0.00010346	0.0023055	0.0004199	443.87	2.4169e-05	1.2136e-07	444.16	104.5	1.3021e-05	2.6927e-05	118.07	41.543	35.981	11.657	1.8614e-05	14.492	0.050403	0.093808	0.025671	744.68	0.00092185	0.0010453	778.63	214.25	0.0009144	0.0010206	677.98	97.966	93.985	28.571	0.00090858	37.519	105.909	133.610	132.155	91.750	255.266	409.604	90.709	99.045	243.310	390.576	95.151	101.747	104.368	108.522	123.968	104.520	-8191	255	
1107.109	1	1	0	0	0.043065	0.084205	0.082952	0.18822	0.15235	0.17429	0.09446	0.175	0.19634	0.26187	0.10241	0.18461	0.33182	0.15954	0.15779	0.25083	-1.9042	-2.4562	-1.6979	-2.7208	-2.4021	-1.9458	-2.7146	-1.8	-2.2917	-2.5875	-2.0542	-2.5958	-2.4021	-1.8458	-2.8542	-2.1312	407.389	370.713	123.638	349.470	110.489	252.317	340.189	265.966	428.705	224.539	245.472	352.410	142.174	227.429	105.240	322.844	0.00011865	0.0014589	0.00051465	442.41	1.0692e-05	9.1746e-06	441.01	103.47	1.6937e-05	1.1195e-05	110.86	39.231	34.031	10.509	1.3903e-05	12.512	0.047974	0.088175	0.024551	733.47	0.00087997	0.00099167	769.06	213.34	0.00090797	0.0010236	698.68	99.07	95.73	28.575	0.0010122	38.277	208.272	124.814	87.741	91.807	249.061	367.509	90.537	99.040	282.039	103.737	95.397	101.439	104.201	109.129	100.988	104.450	-8191	255	
#DATA ENDS
