BOXY.EXE: ISS Imagent and Oximeter Data Acquisition Program Version 0.80
Ascii Record File

#ACQ INFORMATION
2  Detector Channels 
16  External MUX Channels 
1  Auxiliary Channels 
5000  Waveform (CCF) Frequency (Hz)
1  Waveforms Skipped 
30  Waveforms Averaged 
1  Cycles Averaged 
16  Acquisitions per Waveform 
10.0806  Updata Rate (Hz) 

#FILE INFORMATION
TRUE -- External MUX Channel results are PARSED.
FALSE -- AC DC and Phase are NOT grouped.
TRUE -- Companion Program Settings File CREATED.
FALSE -- AC data not excluded
FALSE -- DC data not excluded
FALSE -- Phase data not excluded
FALSE -- Auxillary Chn. data not excluded
Tab delimiters

#CALIBRATION STATE
TRUE -- Waveform Calibration Values APPLIED.


#AUX CALIBRATION VALUES
Val Type	aux-1	

Term	1.0000e+00	
Factor	0.0000e+00	


#WF CALIBRATION VALUES
A = Detector Channel
Val Type	A-AC1	A-AC2	A-AC3	A-AC4	A-AC5	A-AC6	A-AC7	A-AC8	A-AC9	A-AC10	A-AC11	A-AC12	A-AC13	A-AC14	A-AC15	A-AC16	A-DC1	A-DC2	A-DC3	A-DC4	A-DC5	A-DC6	A-DC7	A-DC8	A-DC9	A-DC10	A-DC11	A-DC12	A-DC13	A-DC14	A-DC15	A-DC16	A-Ph1	A-Ph2	A-Ph3	A-Ph4	A-Ph5	A-Ph6	A-Ph7	A-Ph8	A-Ph9	A-Ph10	A-Ph11	A-Ph12	A-Ph13	A-Ph14	A-Ph15	A-Ph16	

Term	0.00000e+00	0.00000e+00	0.00000e+00	0.00000e+00	0.00000e+00	0.00000e+00	0.00000e+00	0.00000e+00	0.00000e+00	0.00000e+00	0.00000e+00	0.00000e+00	0.00000e+00	0.00000e+00	0.00000e+00	0.00000e+00	0.00000e+00	0.00000e+00	0.00000e+00	0.00000e+00	0.00000e+00	0.00000e+00	0.00000e+00	0.00000e+00	0.00000e+00	0.00000e+00	0.00000e+00	0.00000e+00	0.00000e+00	0.00000e+00	0.00000e+00	0.00000e+00	0.00000e+00	0.00000e+00	0.00000e+00	0.00000e+00	0.00000e+00	0.00000e+00	0.00000e+00	0.00000e+00	0.00000e+00	0.00000e+00	0.00000e+00	0.00000e+00	0.00000e+00	0.00000e+00	0.00000e+00	0.00000e+00	
Factor	1.00000e+00	1.00000e+00	1.00000e+00	1.00000e+00	1.00000e+00	1.00000e+00	1.00000e+00	1.00000e+00	1.00000e+00	1.00000e+00	1.00000e+00	1.00000e+00	1.00000e+00	1.00000e+00	1.00000e+00	1.00000e+00	1.00000e+00	1.00000e+00	1.00000e+00	1.00000e+00	1.00000e+00	1.00000e+00	1.00000e+00	1.00000e+00	1.00000e+00	1.00000e+00	1.00000e+00	1.00000e+00	1.00000e+00	1.00000e+00	1.00000e+00	1.00000e+00	X	X	X	X	X	X	X	X	X	X	X	X	X	X	X	X	

B = Detector Channel
Val Type	B-AC1	B-AC2	B-AC3	B-AC4	B-AC5	B-AC6	B-AC7	B-AC8	B-AC9	B-AC10	B-AC11	B-AC12	B-AC13	B-AC14	B-AC15	B-AC16	B-DC1	B-DC2	B-DC3	B-DC4	B-DC5	B-DC6	B-DC7	B-DC8	B-DC9	B-DC10	B-DC11	B-DC12	B-DC13	B-DC14	B-DC15	B-DC16	B-Ph1	B-Ph2	B-Ph3	B-Ph4	B-Ph5	B-Ph6	B-Ph7	B-Ph8	B-Ph9	B-Ph10	B-Ph11	B-Ph12	B-Ph13	B-Ph14	B-Ph15	B-Ph16	

Term	0.00000e+00	0.00000e+00	0.00000e+00	0.00000e+00	0.00000e+00	0.00000e+00	0.00000e+00	0.00000e+00	0.00000e+00	0.00000e+00	0.00000e+00	0.00000e+00	0.00000e+00	0.00000e+00	0.00000e+00	0.00000e+00	0.00000e+00	0.00000e+00	0.00000e+00	0.00000e+00	0.00000e+00	0.00000e+00	0.00000e+00	0.00000e+00	0.00000e+00	0.00000e+00	0.00000e+00	0.00000e+00	0.00000e+00	0.00000e+00	0.00000e+00	0.00000e+00	-4.82867e+01	-1.31521e+02	-1.29090e+02	-1.82778e+02	-5.00932e+01	-6.85385e+01	-1.59964e+02	-1.62015e+02	-3.45550e+01	-6.98819e+01	-1.78192e+02	-1.73211e+02	-1.80356e+02	-1.77624e+02	-4.73150e+01	-1.50550e+02	
Factor	2.03344e-05	1.89891e-04	5.74514e-05	1.58307e-01	1.90108e-06	2.09202e-06	1.94733e-01	5.79786e-02	1.52646e-06	2.11415e-06	3.21294e-01	3.10011e-02	3.06678e-02	9.11195e-03	1.92150e-06	1.28799e-02	1.37867e-05	2.61164e-05	7.30315e-06	8.26885e-02	2.52523e-07	2.92360e-07	9.52919e-02	3.04267e-02	2.52502e-07	2.89608e-07	1.62620e-01	1.57850e-02	1.63068e-02	4.82875e-03	2.67683e-07	6.59689e-03	X	X	X	X	X	X	X	X	X	X	X	X	X	X	X	X	



#DISTANCE SETTINGS
A = Detector Channel
A-1	A-2	A-3	A-4	A-5	A-6	A-7	A-8	A-9	A-10	A-11	A-12	A-13	A-14	A-15	A-16	

2.5000e+00	3.0000e+00	2.5000e+00	3.0000e+00	2.0000e+00	3.0000e+00	1.5000e+00	3.0000e+00	3.0000e+00	3.0000e+00	3.0000e+00	3.0000e+00	3.0000e+00	3.0000e+00	1.5000e+00	3.0000e+00	

B = Detector Channel
B-1	B-2	B-3	B-4	B-5	B-6	B-7	B-8	B-9	B-10	B-11	B-12	B-13	B-14	B-15	B-16	

1.0000e+01	1.0000e+01	1.0000e+01	1.4400e+00	1.0000e+01	1.0000e+01	1.5100e+00	1.9400e+00	1.0000e+01	1.0000e+01	1.9900e+00	2.4900e+00	2.4100e+00	2.9000e+00	1.0000e+01	2.9800e+00	




#DATA BEGINS
time	group	step	mark	flag	A-AC1	A-AC2	A-AC3	A-AC4	A-AC5	A-AC6	A-AC7	A-AC8	A-AC9	A-AC10	A-AC11	A-AC12	A-AC13	A-AC14	A-AC15	A-AC16	A-DC1	A-DC2	A-DC3	A-DC4	A-DC5	A-DC6	A-DC7	A-DC8	A-DC9	A-DC10	A-DC11	A-DC12	A-DC13	A-DC14	A-DC15	A-DC16	A-Ph1	A-Ph2	A-Ph3	A-Ph4	A-Ph5	A-Ph6	A-Ph7	A-Ph8	A-Ph9	A-Ph10	A-Ph11	A-Ph12	A-Ph13	A-Ph14	A-Ph15	A-Ph16	B-AC1	B-AC2	B-AC3	B-AC4	B-AC5	B-AC6	B-AC7	B-AC8	B-AC9	B-AC10	B-AC11	B-AC12	B-AC13	B-AC14	B-AC15	B-AC16	B-DC1	B-DC2	B-DC3	B-DC4	B-DC5	B-DC6	B-DC7	B-DC8	B-DC9	B-DC10	B-DC11	B-DC12	B-DC13	B-DC14	B-DC15	B-DC16	B-Ph1	B-Ph2	B-Ph3	B-Ph4	B-Ph5	B-Ph6	B-Ph7	B-Ph8	B-Ph9	B-Ph10	B-Ph11	B-Ph12	B-Ph13	B-Ph14	B-Ph15	B-Ph16	aux-1	digaux	

1187.296	1	1	0	256	0.16946	0.16924	0.096169	0.19774	0.14633	0.020744	0.11351	0.1523	0.22176	0.054144	0.19783	0.19051	0.19923	0.41233	0.15272	0.18191	-1.4146	-2.6875	-2.1458	-1.9792	-2.4646	-1.7354	-2.2583	-2.5271	-1.7792	-2.5708	-2.1042	-1.9521	-2.5812	-1.8396	-2.2938	-2.6667	111.319	168.598	188.793	307.552	377.056	296.942	261.124	231.097	190.948	250.292	125.518	223.821	310.290	147.882	129.544	97.959	0.00030282	0.0010164	0.000155	447.86	2.5286e-05	1.8192e-05	486.08	159.62	4.3084e-06	7.8301e-06	188.61	69.2	53.879	22.846	1.5721e-05	29.213	0.018083	0.033583	0.0092493	550.77	0.00032867	0.00037883	606.77	199.49	0.00033217	0.00037904	400.23	90.006	76.175	29.679	0.00034998	38.156	237.330	432.266	319.621	92.671	172.506	97.129	91.172	98.534	116.636	148.308	95.751	100.937	104.648	108.173	287.427	104.596	-8191	255	
1187.368	1	1	0	0	0.13106	0.25986	0.18961	0.13382	0.10146	0.11063	0.15243	0.29826	0.2137	0.042969	0.14331	0.18471	0.16307	0.15502	0.29966	0.20089	-1.2437	-2.3979	-2.2479	-1.9333	-2.5125	-1.8292	-2.1521	-2.4792	-1.8854	-2.5333	-2.3708	-1.9979	-2.5125	-2.0979	-2.1271	-2.575	316.695	164.104	439.443	419.271	171.827	152.481	412.721	390.359	195.036	413.212	383.842	426.206	392.565	122.578	141.464	429.769	0.00033666	0.00069724	0.00066717	442.96	6.6945e-06	7.3123e-06	482.71	158.24	4.9799e-06	1.6399e-05	190.28	67.906	53.76	22.897	4.5641e-06	28.963	0.018545	0.034685	0.0096639	553.94	0.00034014	0.00038561	606.04	199.52	0.00034119	0.00038443	402.23	89.912	76.426	29.764	0.00036191	38.239	248.233	416.926	234.703	92.477	320.496	318.966	91.210	98.960	329.406	353.313	95.605	100.770	104.345	108.559	362.669	104.502	-8191	255	
1187.464	1	1	0	0	0.21558	0.076352	0.21147	0.13255	0.16008	0.22129	0.17516	0.23366	0.23696	0.0954	0.043304	0.1595	0.093321	0.19118	0.1214	0.1708	-1.4771	-2.4562	-2.5187	-1.8125	-2.4562	-1.8438	-2.0812	-2.7354	-1.8438	-2.2021	-2.3542	-1.8333	-2.5521	-2.1542	-2.1063	-2.7271	131.179	246.779	436.643	428.229	274.210	99.717	203.281	408.575	143.136	376.329	376.755	440.727	127.077	439.561	265.927	379.334	0.00033513	0.00047251	0.00054442	445.15	1.2944e-05	1.6194e-05	485.95	157.17	3.6594e-06	1.0963e-05	188.15	68.296	54.32	22.844	3.4511e-06	28.52	0.019073	0.035489	0.010011	559.21	0.00035377	0.00040495	615.18	202.48	0.00036565	0.0004181	425.07	92.053	78.342	30.22	0.00040229	38.921	257.898	140.192	298.417	92.740	195.593	250.616	91.021	99.033	405.310	357.197	95.866	100.878	103.985	108.494	123.865	104.818	-8191	255	
1187.585	1	1	0	0	0.22829	0.11069	0.26054	0.17259	0.30557	0.14488	0.084285	0.19378	0.17702	0.17854	0.21474	0.20025	0.10853	0.14863	0.046795	0.12958	-1.2958	-2.2104	-2.4354	-1.7583	-2.5479	-2.3104	-2.1583	-2.7604	-1.8083	-2.1771	-2.4437	-1.6396	-2.4208	-2.2771	-1.8042	-2.8229	300.468	375.701	367.973	406.536	236.958	336.893	430.336	407.058	312.692	246.309	126.612	135.089	103.952	113.031	339.659	387.927	0.00049113	0.0018693	0.0001923	445.07	1.0593e-05	2.3188e-05	482.49	158.18	4.8559e-06	2.185e-06	186.13	68.746	54.013	23.066	3.0741e-05	29.268	0.020943	0.039334	0.011211	575.51	0.00039205	0.00045393	633.43	208.51	0.00040523	0.00046955	457.58	95.105	81.286	31.468	0.00045535	40.839	258.388	137.013	253.950	92.960	219.341	440.190	91.399	98.647	343.713	347.597	95.725	100.629	103.682	108.394	277.671	104.287	-8191	255	
1187.681	1	1	0	0	0.19233	0.059381	0.24994	0.23182	0.16914	0.16278	0.23103	0.24638	0.3008	0.064575	0.33598	0.13349	0.1534	0.22532	0.43561	0.27207	-1.4562	-2.0854	-2.5396	-1.8792	-2.4562	-2.3	-1.8188	-2.6375	-1.9729	-2.225	-2.6562	-1.8438	-2.4062	-2.4479	-1.8521	-2.6917	91.474	343.404	256.134	370.893	353.745	135.054	95.478	409.877	205.252	166.599	178.800	396.311	86.171	440.159	237.209	179.665	0.0002569	0.00046192	0.00014823	442.62	8.3936e-06	1.6857e-05	476.88	156.78	9.1804e-06	3.6093e-05	185.75	67.675	54.002	22.734	2.2223e-05	28.722	0.023419	0.044371	0.01268	588.48	0.00043221	0.00050331	645.86	211.59	0.00043404	0.0005097	478.16	96.643	83.448	32.04	0.00049785	41.28	238.315	260.635	88.068	92.595	279.235	92.814	91.310	99.207	363.361	183.194	94.990	100.726	104.109	108.312	357.405	104.691	-8191	255	
1187.777	1	1	0	0	0.25529	0.024168	0.10838	0.24509	0.1488	0.10307	0.11949	0.076076	0.081756	0.12345	0.056326	0.024196	0.2076	0.14237	0.15795	0.34458	-1.6104	-1.9125	-2.6958	-1.7313	-2.4938	-2.2562	-1.9562	-2.5875	-2.2125	-1.9729	-2.6312	-2.1375	-2.2896	-2.5563	-1.7583	-2.5875	131.072	355.836	304.967	353.975	255.251	297.068	117.339	426.077	433.359	300.959	114.828	211.763	169.117	341.830	340.527	363.549	0.00032735	0.0013016	0.0006135	446.85	2.5719e-06	1.4692e-05	476.18	156.37	1.094e-05	1.2441e-05	186.92	66.247	53.091	22.281	2.1518e-05	27.892	0.025787	0.049039	0.01388	598.94	0.00046809	0.0005489	651.13	214.09	0.00045965	0.00053653	485	95.798	83.405	31.752	0.00051076	40.711	258.892	370.248	408.108	92.751	226.634	133.321	90.942	98.937	104.656	133.963	93.887	100.466	104.100	108.268	244.084	104.721	-8191	255	
1187.873	1	1	0	0	0.11245	0.25214	0.08561	0.13959	0.20545	0.19599	0.15579	0.24104	0.1703	0.13049	0.26646	0.31036	0.027052	0.37022	0.15211	0.18299	-1.9521	-1.7208	-2.5479	-1.9375	-2.1917	-2.6417	-1.8	-2.5271	-2.0979	-1.9188	-2.6771	-2.0146	-2.125	-2.5125	-1.85	-2.5271	416.314	172.698	177.407	342.603	268.903	323.541	349.065	433.346	322.014	213.598	135.574	103.147	351.396	408.493	135.442	102.814	0.00013834	0.0010438	0.00023645	442.8	5.1654e-06	2.6764e-05	472.28	155.16	1.5779e-05	2.3529e-05	186.32	65.928	52.56	22.253	1.9275e-05	28.468	0.026402	0.051733	0.014626	609	0.00050831	0.00060645	670.42	219.53	0.00052475	0.00061651	526.21	99.07	86.982	32.876	0.00055583	42.029	254.559	440.316	213.110	92.621	295.566	150.039	91.184	98.768	221.624	200.934	96.883	100.992	104.271	108.284	212.389	104.555	-8191	255	
1187.945	1	1	0	0	0.2351	0.1293	0.20251	0.013027	0.25493	0.36217	0.37183	0.14343	0.16439	0.093276	0.13696	0.050362	0.027359	0.2662	0.098674	0.2512	-1.9583	-1.9312	-2.6417	-1.8583	-2.0667	-2.5792	-1.7938	-2.3479	-2.3604	-1.9479	-2.6625	-2.1	-1.8604	-2.6937	-1.7062	-2.4167	324.520	246.784	150.368	103.979	217.916	395.418	415.181	369.861	297.410	210.226	371.334	430.310	282.871	415.548	246.362	419.402	0.00023714	0.001882	0.00017447	444.9	1.5306e-05	2.1867e-05	473.82	156.58	3.1006e-06	9.8987e-06	183.33	67.203	53.477	22.25	1.3987e-05	28.207	0.028515	0.054061	0.014966	612.37	0.00052004	0.00060869	669.94	219.7	0.0005228	0.00060402	520.1	99.406	87.114	32.778	0.00054642	41.92	242.505	210.216	364.726	92.599	309.438	130.037	91.455	98.930	311.368	377.584	96.401	100.782	103.778	108.121	144.248	104.551	-8191	255	
1188.066	1	1	0	0	0.18112	0.2676	0.19589	0.033194	0.14091	0.14041	0.27252	0.069076	0.12276	0.1158	0.11617	0.024707	0.018952	0.21246	0.067943	0.047601	-2.0583	-1.7979	-2.4708	-2.1437	-1.9188	-2.7167	-1.8833	-2.4521	-2.3771	-1.8833	-2.7146	-2.3312	-1.7479	-2.7125	-1.9312	-2.2667	132.842	96.130	90.413	293.487	241.305	370.574	373.555	111.114	192.364	207.647	207.621	380.810	421.372	413.581	430.577	185.376	9.6485e-05	0.0017161	0.00028029	445.08	8.9325e-06	1.9547e-05	472.62	157.13	4.6893e-06	2.2992e-05	181.17	66.276	52.706	22.091	1.9006e-05	27.837	0.028635	0.05421	0.014901	613.34	0.00052144	0.00059919	662.67	218.15	0.00051479	0.00058476	505.91	97.845	86.389	32.365	0.00053939	41.489	194.954	135.883	130.585	92.687	306.991	190.928	91.171	98.547	155.631	373.168	96.552	100.638	103.939	108.446	333.459	104.953	-8191	255	
1188.160	1	1	0	0	0.33101	0.23103	0.20979	0.3039	0.22807	0.13213	0.21312	0.12332	0.15182	0.27141	0.22306	0.29644	0.080409	0.09074	0.27464	0.14636	-1.9646	-1.8917	-2.5625	-2.3125	-1.7333	-2.5146	-1.7875	-2.025	-2.6063	-1.9042	-2.5312	-2.3146	-1.9688	-2.6354	-2.0104	-1.9208	189.735	112.485	371.344	307.265	298.693	129.734	296.232	190.001	120.477	195.152	227.050	422.433	412.894	348.669	195.056	252.790	0.00029272	0.00068489	0.00035516	447.74	1.3408e-05	6.4042e-06	467.52	155.93	2.0247e-05	2.3469e-05	179.97	64.432	51.783	21.392	1.8773e-05	27.049	0.029019	0.054724	0.0151	617.58	0.00053276	0.00060926	663.16	218.64	0.00052402	0.00059371	507.99	96.894	85.792	31.744	0.00053877	40.779	236.332	371.262	274.872	92.748	215.147	157.387	91.476	98.678	302.901	214.750	96.188	100.372	104.519	108.274	226.790	104.997	-8191	255	
1188.258	1	1	0	0	0.038564	0.19561	0.38594	0.043587	0.078735	0.22719	0.21923	0.03231	0.14258	0.21441	0.25941	0.24045	0.18241	0.17882	0.049486	0.18849	-2.2667	-1.7375	-2.0979	-2.3917	-1.7125	-2.4188	-1.9479	-2.1979	-2.6	-1.9604	-2.3563	-2.4917	-1.8542	-2.5771	-2.2062	-1.9417	332.615	388.977	287.207	329.097	390.489	138.759	237.251	325.495	425.345	349.754	342.274	107.013	389.183	398.677	100.013	121.578	0.00032524	0.0021777	0.00093452	446.49	1.892e-05	3.213e-05	470.86	153.62	6.2588e-06	1.8937e-05	175.8	63.719	51.29	21.226	7.2172e-06	27.262	0.028484	0.05274	0.014685	613.87	0.00051746	0.00058752	659.9	216.98	0.00051736	0.00058446	507	96.604	85.275	31.462	0.00053882	40.93	263.094	210.151	379.116	92.273	103.764	202.261	91.056	97.940	336.590	372.467	95.345	100.759	103.254	108.228	230.919	104.442	-8191	255	
1188.377	1	1	0	0	0.14738	0.13188	0.114	0.10426	0.24089	0.059719	0.1046	0.15606	0.077495	0.22191	0.080995	0.41319	0.19926	0.059176	0.058961	0.12592	-2.1458	-1.8229	-2.1583	-2.4208	-1.5896	-2.4646	-2.2667	-1.7729	-2.7562	-1.8896	-1.9458	-2.5146	-1.8646	-2.4833	-2.2083	-1.9562	215.092	253.580	129.791	277.657	302.209	118.275	134.754	365.070	213.441	257.522	167.304	405.444	369.583	84.622	388.078	312.059	0.00023991	0.002479	0.00034653	443.72	1.848e-05	9.2825e-06	470.5	153.76	5.4934e-06	1.4675e-05	180.46	64.416	51.734	21.262	5.8172e-06	26.877	0.028222	0.051983	0.014487	610.04	0.00049461	0.00056054	650.55	213.63	0.00047809	0.00053295	481.12	94.324	81.778	30.556	0.00048862	39.43	226.441	421.880	137.772	92.458	222.793	381.603	91.312	99.091	374.991	340.767	96.120	101.377	103.737	109.046	340.153	104.783	-8191	255	
1188.473	1	1	0	0	0.28039	0.21615	0.15048	0.12435	0.16366	0.27669	0.10435	0.3455	0.15582	0.065784	0.22765	0.10929	0.14353	0.12653	0.090644	0.31569	-2.1312	-1.8417	-2.1813	-2.5417	-1.7771	-2.4188	-2.3896	-1.8563	-2.6667	-1.9854	-2.0083	-2.5896	-1.8333	-2.3563	-2.4604	-2.0312	378.554	429.690	232.320	160.593	255.911	310.166	257.306	379.104	171.199	409.038	139.198	114.726	406.090	366.374	231.467	409.241	0.00020779	0.0011601	0.00080781	440.69	1.0586e-05	3.5275e-05	467.01	152.96	1.1119e-05	2.2936e-05	175.13	63.947	52.034	21.415	1.0865e-05	27.106	0.025309	0.046885	0.013312	592.6	0.00045243	0.00051967	635.28	209.04	0.00044376	0.00050013	461.37	92.006	79.636	30.127	0.00045935	38.726	239.964	360.738	208.337	92.776	280.574	377.070	91.839	98.761	240.995	179.120	96.760	101.058	104.331	108.846	402.940	105.442	-8191	255	
1188.569	1	1	0	0	0.20793	0.013917	0.045332	0.27643	0.13612	0.22339	0.34667	0.10043	0.31347	0.10049	0.095657	0.23053	0.21693	0.23325	0.15313	0.29398	-2.2771	-2.0896	-2.0812	-2.6833	-1.7917	-2.275	-2.5396	-1.8333	-2.6583	-2.075	-2.0229	-2.5833	-1.8729	-2.1542	-2.5729	-1.875	291.915	174.741	328.661	302.913	409.191	374.974	374.699	281.387	198.253	100.467	318.377	180.750	312.855	87.303	388.067	326.708	0.00030179	0.00064157	0.00062197	440.26	1.5848e-05	4.0901e-06	469.96	153.41	1.3584e-05	3.0731e-05	179.08	64.851	51.995	21.936	1.6841e-05	27.852	0.023337	0.044199	0.012631	584.12	0.00043088	0.00050975	636.15	209.09	0.00044673	0.00051728	476.66	94.129	81.514	31.111	0.00049328	40.333	235.452	345.903	123.532	92.844	273.804	172.281	91.779	98.540	156.570	202.013	95.931	100.568	104.540	108.332	256.852	104.979	-8191	255	
1188.665	1	1	0	0	0.090254	0.27623	0.25715	0.19544	0.29072	0.23893	0.094358	0.21083	0.061224	0.095167	0.088943	0.091012	0.19706	0.21506	0.29965	0.42831	-2.2438	-2.2958	-1.7812	-2.5479	-1.9375	-2.3688	-2.4708	-1.8438	-2.6771	-2.0667	-1.775	-2.7562	-1.8813	-2.1188	-2.6	-1.9188	239.643	148.730	196.105	295.026	230.716	282.352	181.459	328.814	263.886	140.883	301.494	196.516	408.575	332.221	345.634	326.551	0.00035111	0.001556	0.00045987	439.95	2.0965e-05	1.169e-05	471.98	155.54	2.6184e-06	1.7031e-05	186.49	66.305	52.586	22.46	1.3299e-05	28.222	0.025245	0.048216	0.013739	594.35	0.00046017	0.00054351	646.44	212.07	0.00046132	0.0005386	486.49	96.02	83.061	32.011	0.00051033	41.067	248.678	434.600	235.261	92.321	132.547	434.466	91.617	99.145	126.937	270.577	95.914	101.002	104.178	108.179	217.316	104.721	-8191	255	
1188.761	1	1	0	0	0.25579	0.061891	0.18897	0.082404	0.23627	0.20729	0.054878	0.042377	0.11282	0.24825	0.2369	0.26122	0.37821	0.081868	0.057171	0.2556	-2.175	-2.4354	-1.9104	-2.5125	-2.0604	-2.2396	-2.8187	-1.6104	-2.3125	-2.4938	-1.9	-2.7625	-2.0687	-2	-2.5979	-2.0417	437.586	184.849	349.327	424.990	134.600	259.167	92.296	92.209	175.215	262.002	344.319	240.484	415.116	144.176	140.127	440.269	0.00038329	0.00062488	0.0002985	439.18	1.4265e-05	1.5292e-05	469.78	155.83	1.4356e-05	7.5739e-06	183.86	65.717	52.723	22.311	1.8026e-05	27.988	0.026175	0.050059	0.014094	597.06	0.00047755	0.00056039	650.05	212.23	0.00046813	0.00054522	482.77	95.185	82.478	31.486	0.00049302	40.099	255.735	194.709	242.019	92.986	241.084	213.406	91.688	99.019	258.287	238.592	96.380	100.719	103.112	107.891	397.506	104.546	-8191	255	
1188.857	1	1	0	0	0.15736	0.11801	0.15931	0.066094	0.29216	0.19836	0.073123	0.11288	0.19783	0.080871	0.071917	0.24355	0.1876	0.33765	0.31366	0.062201	-1.8042	-2.4125	-1.7812	-2.7021	-2.0563	-1.8563	-2.7396	-1.8375	-2.1917	-2.6021	-1.8229	-2.6667	-2.3271	-1.8958	-2.5021	-1.9667	376.677	179.828	427.147	260.469	417.807	437.299	387.995	330.822	379.646	372.210	419.992	130.475	398.810	161.369	378.114	319.381	0.00022871	0.0013333	0.00013567	436.1	2.1996e-05	1.032e-05	465.07	154.05	1.3229e-05	1.605e-05	185.11	66.278	52.713	22.285	8.3855e-06	28.225	0.025143	0.047689	0.013145	584.88	0.00045438	0.00052959	635.46	209.35	0.00045274	0.00052348	470.93	94.367	82.139	31.464	0.00047563	40.069	251.377	226.557	236.262	92.319	277.353	180.633	91.094	98.487	337.890	389.347	95.098	100.247	103.831	107.778	263.330	104.439	-8191	255	
1188.978	1	1	0	0	0.20553	0.042289	0.10906	0.26776	0.14309	0.19675	0.2043	0.27521	0.27275	0.13307	0.14759	0.096821	0.090872	0.14193	0.16806	0.20889	-1.8833	-2.5062	-1.6479	-2.625	-2.425	-2.05	-2.6708	-2.1625	-2.2	-2.5875	-1.9	-2.525	-2.325	-1.9375	-2.5729	-2.0438	297.032	378.327	319.756	352.078	394.649	228.516	278.143	193.118	252.326	148.048	218.105	323.253	356.261	275.476	411.920	393.061	0.00025267	0.0005488	0.00064642	438.48	9.463e-06	1.5595e-05	467.42	154.21	9.1948e-06	7.6199e-06	182.69	66.732	52.838	22.323	5.6721e-06	28.63	0.024828	0.046544	0.012757	582.36	0.0004463	0.00051961	633.38	208.09	0.00044626	0.00050931	462.78	94.467	81.77	31.163	0.00046142	40.197	246.009	330.569	160.916	92.128	212.501	337.762	90.669	98.413	230.752	383.505	95.729	100.708	103.409	107.831	397.024	104.134	-8191	255	
1189.074	1	1	0	0	0.25762	0.039871	0.056348	0.23083	0.30433	0.29194	0.1607	0.15257	0.12801	0.22825	0.060487	0.14872	0.35203	0.37379	0.16928	0.038813	-1.9792	-2.5854	-1.7646	-2.3812	-2.3688	-1.7854	-2.5125	-2.175	-2.0875	-2.7125	-1.8021	-2.4021	-2.3771	-1.8604	-2.5479	-2.2188	394.717	352.674	299.438	398.510	85.918	275.448	92.466	334.356	359.560	170.870	292.416	286.668	352.670	133.116	176.268	217.336	0.00025901	0.001498	0.00050932	435.4	1.0357e-05	1.164e-05	469.87	154.57	1.2832e-05	1.5968e-05	186	67.153	52.667	22.374	1.3007e-05	28.385	0.024402	0.04587	0.01253	579.52	0.00044423	0.00051067	632.61	207.85	0.00043766	0.00049465	456.48	94.558	80.95	30.9	0.0004481	39.962	222.284	384.672	146.730	92.822	390.396	362.259	91.612	98.298	151.301	283.048	95.959	100.266	103.980	108.435	411.435	104.047	-8191	255	
1189.169	1	1	0	0	0.069561	0.17763	0.16968	0.31207	0.10613	0.1615	0.25026	0.040856	0.039164	0.051584	0.10986	0.28234	0.046511	0.22938	0.032341	0.079026	-1.6542	-2.4167	-1.7146	-2.2292	-2.6833	-1.9104	-2.6708	-2.1417	-1.7583	-2.5938	-2.0292	-2.1312	-2.5333	-1.7604	-2.5896	-2.1167	353.605	202.603	108.714	366.852	334.887	357.900	363.043	426.076	124.998	269.192	326.359	376.935	351.673	374.435	126.530	180.587	0.00042828	0.0018741	0.00061639	435.07	1.5992e-05	1.8082e-05	470.31	154.5	6.3994e-06	1.5434e-05	179.2	66.032	52.691	22.097	1.738e-05	27.918	0.023873	0.044571	0.012361	579.22	0.00043735	0.00049797	628.14	207.4	0.00043485	0.00048727	454.87	93.441	80.626	30.627	0.00045055	39.481	248.112	130.017	356.207	92.550	130.915	191.466	91.291	98.713	307.928	320.137	95.562	100.611	103.848	108.374	238.512	104.108	-8191	255	
1189.265	1	1	0	0	0.041835	0.18019	0.066413	0.14536	0.1302	0.12319	0.067975	0.32098	0.16212	0.23278	0.34961	0.060296	0.20307	0.17982	0.084956	0.1309	-1.4417	-2.6271	-2.0271	-2.175	-2.4229	-1.8604	-2.4938	-2.1708	-1.7771	-2.6063	-1.8875	-2.0396	-2.7104	-1.95	-2.4708	-2.5458	95.419	196.857	309.768	355.954	411.609	415.644	192.211	391.143	101.731	416.524	324.585	93.786	434.735	214.050	419.085	438.195	0.00034629	0.00059123	0.00035303	438.75	1.8517e-05	9.9051e-06	468.35	154.69	1.8962e-05	2.2966e-05	182.51	66.078	52.11	21.877	9.7153e-06	28.023	0.023773	0.044084	0.012447	581.69	0.00043566	0.00049864	631.59	209.24	0.00044486	0.0004992	465.87	94.345	81.322	30.781	0.00046796	39.905	238.138	279.295	194.825	92.594	406.979	125.983	91.007	98.463	335.965	283.944	95.088	100.671	103.443	108.300	216.502	104.409	-8191	255	
1189.361	1	1	0	0	0.21868	0.049687	0.049751	0.30999	0.1333	0.14454	0.018731	0.18786	0.14012	0.19186	0.31616	0.32381	0.14374	0.13578	0.10986	0.12639	-1.4813	-2.6271	-2.0354	-2.1042	-2.6771	-1.6604	-2.3854	-2.4646	-1.8104	-2.7375	-2.1458	-1.8958	-2.7104	-1.9188	-2.2687	-2.5187	236.481	439.273	332.395	122.209	386.300	330.928	232.981	141.972	412.894	159.957	90.808	321.662	156.047	342.688	135.060	264.691	0.00032602	0.0018092	0.00047994	443.25	1.4725e-05	1.3648e-05	470.05	154.71	1.2513e-05	2.2111e-05	183.45	66.311	52.142	22.097	1.4167e-05	28.272	0.024105	0.044887	0.01274	585.6	0.00043924	0.00050132	635.14	209.48	0.00043601	0.00049808	466.59	94.492	81.188	30.97	0.00047214	40.247	262.281	382.544	377.066	92.168	326.413	324.284	91.343	98.531	140.804	268.114	95.973	100.709	103.524	108.037	185.903	104.653	-8191	255	
1189.457	1	1	0	0	0.23953	0.21464	0.091708	0.12801	0.020762	0.14624	0.26789	0.26621	0.082184	0.14804	0.29304	0.13915	0.045344	0.049466	0.24036	0.035968	-1.5875	-2.5438	-1.9542	-1.9625	-2.6146	-1.9438	-2.2396	-2.4208	-1.7729	-2.4896	-2.3229	-2.0083	-2.5021	-1.7979	-2.1292	-2.5625	311.755	231.502	284.788	387.409	431.003	413.193	385.169	311.160	369.355	364.128	310.741	308.991	167.075	139.962	129.413	152.064	0.00035862	0.00056514	0.00034117	439.79	1.2418e-05	1.3966e-05	468.54	154.05	1.6183e-05	2.5912e-05	180.78	65.509	51.903	21.627	1.6818e-05	27.528	0.024333	0.046097	0.013119	590.3	0.0004497	0.00052433	644	210.96	0.00045781	0.0005318	484.45	95.438	82.568	31.208	0.00050907	40.246	227.827	111.620	313.143	92.476	368.561	221.471	91.517	99.119	371.572	396.589	95.680	100.685	104.241	108.513	255.236	104.067	-8191	255	
1189.553	1	1	0	0	0.049567	0.048701	0.22886	0.33888	0.15987	0.13883	0.16796	0.04029	0.11249	0.089245	0.21767	0.24968	0.17733	0.16606	0.15196	0.25234	-1.3396	-2.4292	-2.2771	-1.9292	-2.575	-2	-2.1979	-2.5646	-1.9042	-2.55	-2.4958	-1.9375	-2.6375	-1.9396	-2.1292	-2.7333	158.435	258.321	120.358	366.079	219.230	252.431	82.420	325.512	236.371	249.063	101.533	426.402	146.475	275.332	348.256	386.314	0.00024508	0.001021	0.00015179	438.29	2.9009e-05	2.2345e-05	464.33	153.01	5.1396e-06	9.319e-06	178.6	64.675	51.412	21.63	1.5072e-05	27.297	0.02605	0.049784	0.014134	597.58	0.0004819	0.00056654	648.12	213.16	0.00048381	0.00056389	497.26	95.35	83.188	31.41	0.00051521	40.187	283.947	84.639	225.829	92.445	233.021	344.431	91.317	99.049	247.961	267.199	95.366	100.597	104.014	108.057	366.052	104.069	-8191	255	
1189.649	1	1	0	0	0.24704	0.09694	0.25974	0.10371	0.10741	0.22726	0.16554	0.1697	0.17942	0.054414	0.070192	0.19284	0.075012	0.10558	0.09559	0.26632	-1.4958	-2.5167	-2.4313	-1.9562	-2.7062	-2.2687	-1.8271	-2.7354	-1.9667	-2.5458	-2.45	-1.8792	-2.6458	-2.5396	-1.9438	-2.6562	435.948	307.251	231.132	382.724	209.188	158.733	328.189	363.436	233.525	85.499	193.659	95.278	140.270	215.483	199.217	373.413	1.1152e-05	0.00051268	0.00039615	438.1	1.1238e-05	1.519e-05	462.67	154.15	5.0094e-06	2.919e-05	179.17	64.944	51.71	22.089	4.2825e-06	27.928	0.026122	0.049758	0.013933	591.86	0.00046981	0.00055434	641.53	211.09	0.00046704	0.00054568	483.78	94.714	82.362	31.391	0.00050026	40.252	261.072	422.314	163.921	92.384	185.045	267.875	91.411	98.786	327.842	294.590	96.384	101.102	103.756	108.685	110.036	104.668	-8191	255	
1189.770	1	1	0	0	0.095084	0.10907	0.12586	0.10439	0.089105	0.2004	0.092558	0.068099	0.047751	0.19679	0.050916	0.50202	0.31263	0.050313	0.20353	0.16102	-1.4917	-2.0438	-2.4042	-1.8708	-2.5708	-2.3438	-1.9979	-2.6771	-1.7083	-2.3875	-2.6521	-2.0083	-2.5875	-2.3688	-1.8708	-2.7104	438.445	255.680	93.026	114.916	227.543	393.733	98.307	212.616	82.558	307.050	408.307	114.412	395.951	207.825	245.450	151.926	0.00029639	0.0015705	0.00041455	438.56	1.4708e-05	2.4669e-06	468.73	153.41	1.5975e-05	2.2268e-05	180.59	66.19	52.528	22.289	1.4878e-05	28.742	0.025587	0.04865	0.013533	586.8	0.00046272	0.00053997	637.79	209.18	0.0004583	0.00052909	471	94.671	81.946	31.339	0.00047345	40.467	275.580	106.097	244.058	92.850	304.185	318.399	91.484	98.976	365.233	285.787	96.631	100.863	104.156	108.826	307.779	104.661	-8191	255	
1189.842	1	1	0	0	0.097413	0.2241	0.13655	0.2025	0.17236	0.10599	0.14973	0.17635	0.24198	0.079794	0.14027	0.080629	0.078679	0.074978	0.17105	0.1726	-1.7542	-2.2687	-2.7875	-1.8	-2.4167	-2.4854	-1.9333	-2.7042	-2.0792	-2.2438	-2.6479	-2.0458	-2.4604	-2.6708	-1.8958	-2.8604	179.812	358.546	305.988	438.105	176.377	286.230	423.836	128.220	364.025	110.562	100.791	373.638	365.590	132.467	320.887	369.975	0.00042704	0.0010834	9.0176e-05	433.26	1.4419e-05	2.0499e-05	462.95	152.3	1.047e-05	3.3386e-06	184.93	66.875	52.405	22.121	1.1359e-05	28.463	0.024636	0.046562	0.012892	578.77	0.00045018	0.000521	630.37	207.36	0.00044627	0.00051164	464.63	94.183	81.496	31.129	0.00046459	40.064	218.613	180.438	317.485	92.657	199.962	190.208	91.642	98.612	305.559	149.786	95.697	100.698	104.472	108.215	238.201	104.929	-8191	255	
1189.938	1	1	0	0	0.12745	0.086626	0.094786	0.20291	0.12141	0.13874	0.19783	0.038032	0.19697	0.28183	0.30529	0.23956	0.062287	0.065278	0.21643	0.29667	-1.725	-2.05	-2.7104	-1.8854	-2.2062	-2.5583	-1.9438	-2.7646	-2.3667	-2.0583	-2.8146	-1.9604	-2.2562	-2.8187	-1.9292	-2.5708	302.859	142.652	182.613	347.180	218.658	196.818	312.930	327.743	224.959	202.062	182.842	414.414	413.982	157.411	94.407	97.213	0.00046973	0.0011346	0.00022868	432.35	2.7293e-05	2.6441e-06	467.9	153.3	1.331e-05	6.1641e-06	183.47	65.588	51.904	21.98	2.4303e-05	28.149	0.024591	0.045934	0.012639	577.71	0.00044621	0.00051165	626.67	207.93	0.00044661	0.00050833	463.7	94.066	81.319	30.859	0.00046103	39.905	221.492	300.296	114.599	93.175	198.436	406.409	91.648	99.242	205.530	282.874	96.226	100.512	104.060	108.653	351.684	104.697	-8191	255	
1190.058	1	1	0	0	0.15229	0.216	0.41574	0.15446	0.11214	0.12124	0.32294	0.13872	0.172	0.1246	0.23124	0.22893	0.018661	0.24276	0.11836	0.14362	-1.8646	-1.9917	-2.7313	-2.1937	-2.2646	-2.425	-2.0958	-2.5854	-2.225	-2.0375	-2.5292	-2.0979	-2.2833	-2.6729	-2.0417	-2.5917	228.126	364.698	152.552	362.062	136.322	131.180	302.544	402.055	180.016	318.784	384.913	82.802	400.593	364.784	345.040	364.848	0.00022598	0.0016204	0.00025271	434.17	1.4361e-05	2.0855e-05	467.03	154.51	1.0538e-05	8.8818e-06	184.41	66.275	52.382	22	1.0263e-05	28.505	0.024113	0.044932	0.01238	577.34	0.00043409	0.0004972	624.96	206.94	0.00043446	0.00049154	456.97	93.888	80.649	30.673	0.00044978	39.993	250.450	289.040	153.401	92.963	179.291	228.176	91.163	98.917	98.356	252.484	96.637	101.125	104.410	108.873	217.143	104.995	-8191	255	
1190.153	1	1	0	0	0.037964	0.2873	0.26589	0.12909	0.1461	0.22424	0.089602	0.2009	0.14919	0.15002	0.12808	0.4179	0.25525	0.10309	0.08594	0.31195	-2.1021	-1.7979	-2.6396	-2.1208	-2.1104	-2.8583	-1.9542	-2.4083	-2.5438	-1.9896	-2.6708	-2.2333	-2.0854	-2.7333	-1.8833	-2.3625	110.622	206.202	433.409	334.740	247.576	206.581	398.685	140.634	236.152	208.597	162.289	357.270	101.127	314.474	188.960	304.779	0.00025928	0.0010112	0.00026567	435.85	3.2176e-06	2.5727e-05	470.43	154.58	2.3941e-06	2.1393e-05	182.27	66.342	52.014	22.079	1.2398e-05	27.909	0.023504	0.043494	0.012166	573.59	0.00042037	0.00047741	623.73	205.51	0.00041638	0.00046763	449.23	92.822	79.233	30.145	0.00043542	39.175	251.925	201.413	295.176	93.156	412.930	326.135	91.710	99.106	219.009	301.624	96.356	101.230	104.336	108.411	121.525	104.862	-8191	255	
1190.249	1	1	0	0	0.21735	0.16519	0.081291	0.081446	0.27923	0.14039	0.071937	0.12014	0.19112	0.15121	0.36743	0.15711	0.22357	0.23675	0.14983	0.26199	-2.2625	-1.8292	-2.4729	-2.2313	-2.0646	-2.4833	-1.9979	-2.4292	-2.6	-1.6417	-2.7646	-2.3292	-1.9167	-2.6833	-2.0021	-2.1354	153.995	155.213	109.007	287.672	269.622	415.086	430.216	351.789	240.558	88.333	323.210	416.511	430.617	400.613	216.366	140.794	0.00025652	0.0013077	0.00014452	432.87	7.6459e-06	1.1985e-05	466.1	153.7	7.3624e-06	9.4368e-06	180.4	65.13	51.815	21.794	9.3013e-06	27.633	0.022506	0.041686	0.011825	564.65	0.00040231	0.00046539	615.83	203.11	0.00040148	0.00045555	441.91	91.341	78.144	29.832	0.00042505	38.634	271.926	251.091	102.742	92.466	311.470	228.517	91.383	98.933	168.689	309.979	96.182	100.881	104.197	108.838	346.285	105.179	-8191	255	
1190.345	1	1	0	0	0.1966	0.023973	0.07959	0.090344	0.058262	0.16394	0.32268	0.18244	0.15188	0.12234	0.16784	0.28302	0.098478	0.10116	0.075975	0.28994	-2.2188	-1.7938	-2.5583	-2.3771	-1.8729	-2.7479	-2.2604	-2.1479	-2.6708	-2.0208	-2.6	-2.3792	-1.7292	-2.7792	-2.2729	-1.9917	88.107	141.285	262.451	404.190	418.491	402.173	377.394	362.614	347.904	328.699	227.091	97.735	319.546	105.262	408.033	426.365	0.00022903	0.00039722	0.00036053	432.72	1.484e-05	1.5489e-05	467.66	153.86	1.1595e-05	1.0403e-05	177.49	65.316	52.174	21.758	1.0551e-05	28.171	0.02184	0.040855	0.011647	564.65	0.00039474	0.00046308	617.03	203.27	0.00040095	0.00046363	445.22	91.547	78.014	29.952	0.00043214	39.029	268.174	144.943	188.701	92.581	230.096	281.320	91.846	99.253	352.094	104.582	95.861	101.248	104.175	109.089	360.578	104.734	-8191	255	
1190.466	1	1	0	0	0.057441	0.11838	0.10776	0.20368	0.017506	0.25692	0.22082	0.10785	0.1484	0.12455	0.25829	0.099322	0.085087	0.11109	0.035602	0.14795	-2.2375	-1.8667	-2.4188	-2.6063	-1.8021	-2.7125	-2.3438	-2.0438	-2.8312	-1.9312	-2.3771	-2.4146	-2.0375	-2.5125	-2.2562	-1.8167	209.823	85.383	156.988	383.579	412.966	353.965	92.240	193.830	301.975	345.281	178.630	375.763	436.719	389.888	211.978	394.759	0.00012411	0.001868	0.00015066	434.16	4.4647e-06	1.5166e-05	469.75	153.63	9.9897e-06	1.159e-05	185.18	66.699	52.039	22.199	6.946e-06	28.659	0.021991	0.041879	0.011926	567.57	0.00040628	0.00047977	624	204.75	0.00041344	0.00048355	455.77	93.719	79.703	30.885	0.00045662	40.073	232.093	175.797	175.339	92.587	109.650	84.767	91.172	98.489	266.209	404.709	95.962	100.032	103.655	107.733	92.637	104.059	-8191	255	
1190.537	1	1	0	0	0.14359	0.24451	0.061775	0.17168	0.25089	0.27887	0.13121	0.19123	0.12592	0.17268	0.1483	0.25787	0.17205	0.26804	0.14951	0.33927	-2.1958	-2.0792	-2.1458	-2.4125	-1.8417	-2.7021	-2.1937	-1.9521	-2.5896	-1.9125	-2.1417	-2.6708	-1.7479	-2.3979	-2.2625	-2.0333	166.577	275.651	381.614	104.876	321.977	376.305	425.966	349.819	260.151	270.292	234.370	82.884	226.771	255.813	438.148	314.524	0.00024198	0.00085432	0.00023219	429.9	5.707e-06	2.0348e-05	467.06	152.75	1.0811e-05	1.4727e-05	179.34	66.068	51.976	22.021	1.0854e-05	28.474	0.023418	0.044744	0.012502	571.96	0.00042126	0.00049598	626.03	204.65	0.0004207	0.00049122	456.92	92.896	79.385	30.556	0.00045365	39.366	245.473	262.521	231.198	91.988	217.670	290.327	90.945	98.320	236.645	236.151	96.092	100.523	103.443	107.930	184.100	104.354	-8191	255	
1190.658	1	1	0	0	0.20267	0.077966	0.15333	0.13121	0.10622	0.13676	0.035045	0.18907	0.1657	0.23741	0.12605	0.32952	0.3379	0.039539	0.25144	0.072444	-2.1854	-1.8708	-2.0125	-2.5771	-1.8771	-2.6917	-2.4062	-1.8271	-2.4729	-2.0229	-1.9021	-2.6917	-1.9813	-2.3125	-2.3354	-1.8	272.579	351.161	168.385	353.507	369.423	368.156	201.261	412.640	261.810	360.609	413.237	389.921	364.361	141.311	231.610	221.914	0.00034909	0.0017106	0.00013854	429.91	6.7991e-06	1.3105e-05	464.1	153.37	9.3077e-06	1.4854e-05	182.28	66.12	52.735	22.196	1.9816e-05	28.585	0.023228	0.044369	0.012328	566.45	0.00042218	0.00049401	620.14	204.09	0.00042226	0.00048523	450.26	92.426	79.234	30.541	0.0004345	39.319	261.895	409.834	311.967	92.131	321.063	332.446	91.110	98.630	392.364	254.455	95.723	100.693	103.702	108.366	259.862	104.693	-8191	255	
1190.754	1	1	0	0	0.27498	0.12001	0.29305	0.1604	0.27867	0.20721	0.026078	0.092706	0.29516	0.16371	0.50739	0.18901	0.063937	0.20632	0.33174	0.042621	-2.2812	-2.1562	-1.9083	-2.8542	-1.6979	-2.2396	-2.5542	-1.9562	-2.5146	-2.1771	-2.0917	-2.7167	-1.9521	-2.0021	-2.6271	-1.8854	81.194	142.700	343.865	313.277	326.849	200.818	401.595	256.549	120.288	439.652	423.407	336.828	198.435	315.690	161.814	132.943	0.00043797	0.001396	0.00080878	430.93	3.4891e-06	1.0313e-05	465.39	153.16	1.3843e-05	6.4775e-06	182.64	67.011	52.374	22.365	1.203e-05	28.789	0.022615	0.042491	0.011695	562.32	0.00040958	0.00047026	613.09	202.2	0.00040041	0.00045703	433.81	91.742	78.077	30.228	0.00040709	39.059	233.621	214.708	132.764	92.772	380.294	402.762	91.530	98.625	202.709	371.302	95.231	100.527	103.421	108.358	113.504	104.107	-8191	255	
1190.850	1	1	0	0	0.11619	0.33742	0.13849	0.12391	0.30935	0.096075	0.2243	0.18347	0.2725	0.16131	0.17256	0.28026	0.0429	0.11796	0.17931	0.22939	-2.2458	-2.3979	-1.9208	-2.6625	-1.925	-2.2562	-2.725	-1.9333	-2.5083	-2.4938	-1.9417	-2.7521	-2.0854	-2.1979	-2.7188	-2.0333	204.907	219.837	156.836	135.660	137.898	161.078	411.946	396.113	135.604	84.020	132.839	91.463	119.216	351.433	144.640	115.528	0.00016586	0.00074376	0.00033941	431.98	7.2223e-06	2.6945e-05	468.27	153.72	6.567e-06	7.4273e-06	182.67	66.721	52.134	21.735	1.3868e-05	28.447	0.021498	0.039944	0.011109	558.96	0.00039373	0.00045886	615.67	201.94	0.00040609	0.00046047	439.19	92.536	78.639	30.05	0.00042322	39.058	214.233	387.188	146.932	92.668	257.989	103.791	91.393	98.827	107.537	438.816	95.851	100.857	104.497	108.607	267.964	104.639	-8191	255	
1190.947	1	1	0	0	0.054415	0.28483	0.38197	0.15684	0.39649	0.34703	0.2182	0.14081	0.080553	0.091957	0.23277	0.18824	0.29009	0.18438	0.10624	0.04697	-2.1854	-2.325	-2.0354	-2.8083	-2.1333	-1.9458	-2.9083	-2.1042	-2.3979	-2.5563	-1.8125	-2.6979	-2.2083	-2.0563	-2.8042	-1.8854	152.459	321.445	435.959	128.692	353.347	300.359	209.014	329.090	342.992	364.882	143.286	158.378	106.700	200.648	159.573	183.255	0.00034147	0.0012093	0.0002507	430.01	1.1217e-05	1.7455e-05	465.69	151.66	6.6452e-06	2.2424e-05	185	64.557	51.127	21.062	6.8245e-06	27.028	0.022396	0.041593	0.011636	567.19	0.0004141	0.00047758	618.45	202.71	0.000416	0.00046935	442.14	90.815	77.882	29.215	0.00042244	37.852	250.882	124.477	81.417	92.257	292.184	288.239	91.457	98.633	216.897	257.008	95.434	100.148	103.672	108.547	315.129	104.164	-8191	255	
1191.065	1	1	0	0	0.11047	0.16311	0.24695	0.14439	0.094001	0.10595	0.27084	0.16842	0.21863	0.12996	0.17666	0.20986	0.065709	0.10567	0.22607	0.20792	-2.0146	-2.5396	-1.9125	-2.8208	-2.2313	-1.9604	-2.8354	-1.9271	-2.3167	-2.5271	-1.6479	-2.5187	-2.2792	-1.8875	-2.7438	-1.9937	186.074	81.261	105.844	408.526	179.563	309.993	426.082	352.198	280.700	153.227	124.988	394.439	155.937	169.881	375.767	356.582	0.00032833	0.0007338	0.00072483	432.34	2.0334e-05	1.5205e-05	463.08	150.46	5.9697e-06	2.9508e-06	174.42	62.075	49.593	20.359	1.6497e-05	25.919	0.022074	0.040861	0.011536	565.76	0.0004027	0.00046147	612.05	200.77	0.00041395	0.00046906	442.8	89.209	77.427	28.771	0.00045576	37.556	282.541	139.197	216.763	93.056	251.203	388.331	91.025	98.706	118.046	192.026	95.633	100.780	104.261	108.077	269.933	104.257	-8191	255	
1191.137	1	1	0	0	0.26238	0.066134	0.20767	0.08489	0.069173	0.4175	0.17365	0.014792	0.20266	0.059845	0.10675	0.21179	0.14822	0.18893	0.026105	0.081605	-1.6562	-2.4146	-1.6938	-2.4896	-2.375	-1.8521	-2.5583	-2.1042	-2.1063	-2.5312	-1.8396	-2.5833	-2.4479	-2.0375	-2.6542	-2.2208	163.941	133.934	425.194	347.995	347.641	424.068	320.128	146.136	420.680	370.943	391.095	232.248	401.498	349.205	326.004	224.270	0.00032842	0.0011461	0.00039823	434.55	1.5558e-05	7.2412e-06	456.9	147.14	1.6759e-05	7.1994e-06	171.29	60.118	48.348	19.69	6.321e-07	25.471	0.023944	0.044732	0.012737	580.86	0.00044296	0.00051131	627.59	202.9	0.00044924	0.00051087	463.49	89.404	77.764	28.683	0.00048313	37.55	264.434	300.861	439.878	92.406	338.058	400.508	91.163	98.363	213.186	358.235	96.510	100.640	103.708	108.098	236.878	104.845	-8191	255	
1191.233	1	1	0	0	0.21675	0.098568	0.19638	0.045815	0.18691	0.1694	0.11473	0.14312	0.27877	0.020938	0.26578	0.032031	0.21309	0.061792	0.15759	0.16525	-1.7417	-2.5771	-1.9562	-2.3458	-2.2917	-1.9062	-2.7146	-2.1021	-1.7396	-2.5917	-1.7167	-2.2146	-2.3958	-1.8417	-2.5646	-2.0042	197.796	373.968	99.945	203.045	206.636	383.243	93.461	172.663	332.797	111.663	406.612	145.044	132.723	215.592	241.072	195.615	0.00027609	0.0016343	0.00021512	432.15	1.4944e-05	1.0428e-05	461.32	146.93	1.885e-05	1.4108e-05	169.27	59.812	47.998	19.403	1.8253e-05	24.615	0.024747	0.046774	0.013289	584.25	0.00045261	0.00052366	630.54	202.65	0.00045332	0.00052432	469.24	89.05	77.782	28.618	0.00049876	37.074	267.804	236.062	423.607	92.720	274.264	241.699	91.532	98.928	353.701	118.794	96.229	100.857	104.044	108.631	353.193	104.985	-8191	255	
1191.329	1	1	0	0	0.19144	0.23376	0.1149	0.41082	0.24857	0.02346	0.17682	0.10864	0.28341	0.15972	0.25343	0.12197	0.19231	0.069204	0.072226	0.089568	-1.4667	-2.625	-1.7354	-2.2208	-2.675	-1.7375	-2.4521	-2.2104	-1.8083	-2.4542	-1.975	-2.0625	-2.5229	-1.7021	-2.3958	-2.1875	186.936	130.489	137.101	369.694	148.857	162.730	367.412	230.285	174.949	312.292	103.104	128.491	127.262	181.955	218.049	416.133	0.0004119	0.00066487	0.00041456	426.76	1.0839e-05	2.0224e-05	450.37	144.4	5.7245e-06	2.5142e-05	165.83	58.591	47.216	19.021	1.444e-05	24.275	0.025127	0.04776	0.013448	579.82	0.00045614	0.00053449	624.12	200.86	0.00045954	0.00053972	471.06	88.239	77.544	28.463	0.0004996	36.646	235.556	236.067	122.271	92.464	409.731	312.413	91.387	99.184	374.393	216.948	96.676	101.369	104.590	108.793	267.658	104.775	-8191	255	
1191.450	1	1	0	0	0.17228	0.21237	0.0011994	0.14356	0.11002	0.25806	0.17925	0.082632	0.29281	0.19053	0.13102	0.24501	0.066042	0.20461	0.30622	0.18766	-1.4438	-2.5417	-1.8625	-2.0312	-2.7625	-1.6604	-2.3688	-2.2667	-1.7083	-2.6521	-1.9875	-1.9688	-2.6417	-1.8875	-2.1917	-2.3958	435.707	134.532	180.000	379.291	109.126	203.074	404.312	277.791	436.823	375.817	85.424	215.063	148.516	192.538	279.773	250.778	0.0004347	0.0016048	0.0003401	425.73	9.7735e-06	1.8382e-05	448.26	141.95	1.162e-05	5.5032e-06	167.6	58.882	47.441	19.326	1.0255e-05	24.703	0.025244	0.048593	0.013507	576.13	0.00046082	0.00054312	624.54	199.3	0.00045856	0.00053585	464.24	87.598	76.793	28.456	0.00047947	36.63	268.982	404.174	206.476	93.140	217.728	337.102	91.609	99.459	397.731	228.205	96.261	100.422	104.129	108.440	252.650	104.296	-8191	255	
1191.546	1	1	0	0	0.13774	0.08532	0.21979	0.095373	0.082212	0.2571	0.16656	0.26833	0.1897	0.28924	0.24169	0.33223	0.20258	0.12932	0.16848	0.12665	-1.5	-2.4625	-1.9958	-1.8458	-2.4896	-1.8667	-2.3021	-2.5792	-1.7521	-2.5083	-2.1729	-1.9896	-2.5708	-1.8521	-2.1229	-2.5979	107.527	373.919	235.348	96.894	309.915	429.164	313.888	101.019	318.818	352.544	378.076	391.631	416.653	167.566	323.503	349.247	0.0004865	0.0010963	0.00025951	424.08	1.9168e-05	1.6063e-05	449.25	143.66	5.6955e-06	3.2005e-06	167.66	60.344	48.186	19.798	7.7439e-06	25.689	0.024549	0.046769	0.01294	569.4	0.0004471	0.00052497	618.36	198.54	0.0004496	0.00052306	462.65	88.962	78.229	29.003	0.00048995	37.904	237.374	426.584	321.223	92.679	290.753	191.628	91.216	98.727	332.344	351.561	96.256	100.912	104.020	108.791	389.428	104.927	-8191	255	
1191.642	1	1	0	0	0.074698	0.28745	0.050451	0.2825	0.087276	0.12211	0.10511	0.19175	0.34837	0.24926	0.22765	0.16529	0.14575	0.24739	0.2671	0.062942	-1.4396	-2.3646	-2.0333	-1.9062	-2.4271	-1.775	-2.0312	-2.3937	-1.6812	-2.4729	-2.4521	-1.8312	-2.7938	-2.125	-2.2958	-2.6208	373.454	236.662	333.486	434.005	236.446	212.655	387.908	139.398	123.726	208.977	242.720	197.497	347.265	350.189	411.847	242.959	0.00036757	0.0032192	0.00030564	424.76	7.2382e-06	1.9162e-05	457.55	145.67	4.2521e-06	2.5801e-05	165.68	59.74	47.425	19.468	7.2305e-06	24.887	0.025728	0.048958	0.013485	575.42	0.00047551	0.00055384	629.26	202.86	0.00048027	0.0005544	475.38	90.331	79.504	29.211	0.00050524	37.907	238.984	194.564	203.799	92.547	386.959	351.893	91.957	99.140	256.634	135.847	96.518	101.570	104.613	108.648	175.511	105.135	-8191	255	
1191.738	1	1	0	0	0.10343	0.11373	0.24608	0.35944	0.10045	0.16367	0.20828	0.20144	0.26739	0.081135	0.1756	0.15409	0.25003	0.1549	0.20082	0.069021	-1.5292	-2.4208	-2.3187	-1.9625	-2.5208	-2.2208	-2.0208	-2.6042	-1.9562	-2.2146	-2.3688	-1.7542	-2.5625	-2.0667	-1.8792	-2.4562	128.028	414.731	135.172	367.642	159.951	178.920	366.306	103.604	181.257	135.035	143.761	273.063	414.327	378.168	220.187	374.074	0.00047884	0.0013881	0.00026251	421.42	5.9114e-06	5.7799e-06	446.64	145.81	1.2982e-06	4.1024e-06	164.94	60.067	48.072	19.341	6.6726e-06	24.784	0.026903	0.051066	0.014081	583.38	0.00050282	0.00058238	633.98	205.6	0.00050681	0.00057593	484.58	91.038	80.739	29.329	0.00052554	38.253	239.788	179.093	398.221	92.627	108.749	272.231	91.988	98.838	92.434	409.396	94.591	101.049	104.181	108.273	259.215	105.124	-8191	255	
1191.835	1	1	0	0	0.19896	0.057326	0.061675	0.20396	0.10091	0.19387	0.15553	0.32815	0.031682	0.15742	0.29108	0.074481	0.33053	0.14269	0.01897	0.30817	-1.3687	-2.3375	-2.3458	-1.6833	-2.4437	-2.2396	-2.0833	-2.6417	-2.0646	-2.3	-2.6771	-1.8229	-2.4188	-2.1604	-1.8146	-2.7812	345.884	281.605	335.019	438.492	255.956	247.352	262.483	396.488	137.442	277.852	194.522	130.978	434.887	89.691	413.772	388.122	0.00033704	0.0007889	0.00072191	426.76	1.0493e-05	1.0861e-06	451.14	144.6	6.4999e-06	9.3522e-06	170.08	59.624	47.193	19.469	1.1249e-05	24.941	0.027978	0.052291	0.014404	590.98	0.00051472	0.00058407	637.66	207.62	0.00051416	0.00058566	496.31	92.7	81.573	29.748	0.0005477	38.946	284.925	322.044	161.877	92.715	398.188	199.650	91.603	99.285	433.132	396.083	96.270	101.520	103.910	108.575	283.921	105.607	-8191	255	
1191.931	1	1	0	0	0.1106	0.18063	0.18607	0.17543	0.16643	0.1938	0.28677	0.04576	0.22906	0.10064	0.27742	0.13919	0.18602	0.20037	0.25754	0.17816	-1.4604	-2.1104	-2.5896	-1.9604	-2.5167	-2.2083	-1.9583	-2.3458	-2.2125	-2.0333	-2.5812	-1.7021	-2.4167	-2.4542	-1.8354	-2.7313	361.316	174.556	392.642	288.875	364.994	364.418	390.932	194.838	331.670	379.097	250.096	106.576	335.484	146.498	413.401	321.514	0.00029255	0.0017155	0.00029826	421.92	1.7676e-05	7.7964e-06	449.38	144.16	8.3314e-06	2.4465e-05	168.42	59.821	47.858	19.269	9.2386e-06	24.847	0.028999	0.053957	0.015025	599.04	0.00052855	0.00060019	644.1	208.76	0.00051506	0.00058266	497.68	92.712	81.265	29.472	0.00054696	38.78	247.585	159.856	99.023	92.634	109.668	277.249	91.280	98.686	221.757	112.640	97.247	100.590	104.062	108.266	200.058	104.702	-8191	255	
1192.027	1	1	0	0	0.18042	0.22133	0.13455	0.39868	0.11355	0.19831	0.23718	0.086541	0.26628	0.22206	0.1675	0.054387	0.19174	0.25341	0.24256	0.15161	-1.6125	-1.9375	-2.6417	-1.8708	-2.3167	-2.3646	-1.8854	-2.6646	-2.1167	-1.9583	-2.6979	-1.9479	-2.4333	-2.6125	-1.9562	-2.7146	435.856	422.972	319.469	331.755	225.019	157.660	287.192	381.527	368.547	327.600	106.054	274.065	135.524	367.682	388.971	263.315	0.00025998	0.0011221	0.00043036	424.26	2.2303e-05	9.0707e-06	448.19	144.42	7.7826e-06	1.2137e-05	170.03	58.515	47.296	19.366	1.7086e-05	24.377	0.028488	0.053088	0.014987	595.87	0.00051304	0.00058709	639.68	206.87	0.00050453	0.00057181	493.8	91.082	79.787	29.205	0.0005386	38.04	262.497	372.169	277.342	92.548	134.652	342.625	90.949	98.540	423.880	161.562	95.700	100.607	103.758	107.980	357.165	104.457	-8191	255	
1192.148	1	1	0	0	0.21456	0.11752	0.17052	0.10237	0.16477	0.018273	0.057436	0.16949	0.015973	0.23539	0.16914	0.17177	0.15384	0.23607	0.25391	0.1545	-1.5375	-2.0604	-2.6167	-1.9729	-2.1688	-2.7313	-1.9708	-2.5438	-2.4875	-1.9229	-2.7188	-1.9729	-2.1604	-2.5	-1.7229	-2.4833	412.547	319.875	169.152	385.100	193.133	364.808	384.425	290.551	179.313	239.448	138.186	137.346	431.311	399.355	151.394	414.781	0.00031269	0.00082523	0.00036647	421.2	9.4533e-06	9.8544e-06	444	142.48	8.9234e-06	1.6111e-05	165.97	57.979	46.259	18.699	1.2239e-05	23.793	0.027926	0.05282	0.015157	595.77	0.00052523	0.00061777	647.67	208.82	0.00054276	0.00063083	526.44	93.049	82.571	29.741	0.00060511	38.953	219.943	263.937	241.489	92.343	304.761	132.871	91.331	99.175	223.817	233.222	96.396	101.573	104.801	108.701	294.675	104.514	-8191	255	
1192.242	1	1	0	0	0.26586	0.17345	0.22909	0.26763	0.19239	0.05843	0.16979	0.19237	0.12887	0.1127	0.19429	0.071131	0.17108	0.23252	0.11281	0.23543	-1.9604	-1.8979	-2.6771	-2.0271	-1.8333	-2.4729	-1.6854	-2.4688	-2.35	-1.7292	-2.4938	-1.9646	-2.0687	-2.6437	-1.9	-2.4313	350.597	389.196	185.483	431.348	370.952	165.822	303.647	198.871	190.877	195.862	195.898	225.569	377.960	82.664	433.700	383.989	0.00035452	0.0015859	0.00042587	421.66	7.6968e-06	3.0039e-05	442.93	142.46	6.189e-06	2.4801e-05	165.71	56.638	45.554	18.326	3.5333e-05	23.258	0.031222	0.0598	0.017089	615.74	0.00058582	0.00069726	668.74	215.37	0.00059583	0.00069548	558.64	95.023	85.361	30.483	0.00066117	39.683	260.130	141.930	360.614	92.790	88.027	271.477	91.851	99.194	187.066	231.489	95.857	101.052	104.408	108.950	363.436	105.508	-8191	255	
1192.338	1	1	0	0	0.14147	0.16298	0.21851	0.13504	0.13	0.24925	0.15528	0.13654	0.11652	0.17436	0.22656	0.25249	0.30486	0.16046	0.16078	0.11658	-2.0146	-1.4979	-2.5625	-2.0187	-1.8771	-2.5542	-1.9333	-2.3292	-2.3458	-1.8208	-2.4042	-2.1667	-2.0521	-2.6708	-1.9438	-2.2521	255.079	290.881	187.813	320.834	83.339	310.866	391.486	147.544	440.447	345.911	147.465	147.910	316.186	162.740	393.489	107.883	0.00025656	0.0015066	0.00035851	420.46	9.8568e-06	8.216e-06	438.86	139.83	2.1492e-05	1.4641e-05	157.92	54.908	45.051	17.973	1.4994e-05	22.584	0.033896	0.065305	0.01835	627.76	0.00062907	0.00074506	680.89	217.18	0.00063987	0.00075104	579.7	95.791	86.712	30.816	0.00068289	39.442	206.559	154.559	280.454	92.552	172.455	214.895	91.637	98.938	271.115	329.634	97.274	101.533	104.494	109.471	310.118	105.626	-8191	255	
1192.434	1	1	0	0	0.14974	0.077795	0.091338	0.20877	0.16636	0.056941	0.25335	0.31541	0.072796	0.086747	0.090867	0.17374	0.26289	0.079262	0.22662	0.15299	-2.0583	-1.8062	-2.4479	-2.3083	-2.0625	-2.5958	-2.0354	-2.0938	-2.5083	-1.8854	-2.3729	-2.3271	-1.7146	-2.7646	-2.0062	-2.1417	171.431	268.116	83.786	339.025	371.347	419.708	308.145	358.152	157.110	118.659	104.000	324.163	111.807	166.779	167.967	380.561	0.00049626	0.0011286	0.00012945	420.7	6.6654e-06	2.2967e-05	434.6	140.95	7.9664e-06	1.9876e-05	157.49	56.071	46.14	18.682	1.7105e-05	23.489	0.034442	0.065734	0.018072	621.07	0.00061312	0.0007129	663.09	213.2	0.00060208	0.00069847	548.71	94.033	85.445	30.688	0.00063904	39.269	252.726	375.243	276.774	92.663	407.912	179.898	91.609	99.616	303.891	299.729	96.617	101.332	104.806	109.181	342.882	105.388	-8191	255	
1192.530	1	1	0	0	0.046926	0.047802	0.17588	0.17296	0.097291	0.07107	0.17869	0.14539	0.26535	0.097865	0.064083	0.044579	0.21639	0.2856	0.13602	0.14527	-2.3229	-1.825	-2.375	-2.5229	-1.7812	-2.5896	-1.9771	-1.9104	-2.55	-1.9125	-2.4271	-2.4979	-1.8792	-2.4667	-2.2208	-1.9708	437.576	429.000	427.416	420.984	283.031	322.405	405.392	155.133	365.798	268.860	222.302	198.148	300.188	422.898	432.316	323.909	0.00037227	0.0011868	0.00026439	419.9	1.8246e-05	8.6986e-06	439.02	141.2	1.971e-05	1.6019e-05	162.65	57.408	46.284	18.721	2.862e-06	23.791	0.032959	0.062439	0.017073	609.74	0.00058753	0.0006764	652.72	210.9	0.00056891	0.00065023	520.72	92.171	82.724	29.823	0.00058729	38.689	244.701	194.186	119.132	93.333	111.895	272.869	91.739	99.220	295.760	158.407	95.832	101.307	104.783	109.280	87.600	106.071	-8191	255	
1192.627	1	1	0	0	0.071729	0.24056	0.28212	0.31723	0.30612	0.33762	0.087183	0.20567	0.16766	0.16053	0.30698	0.24179	0.15379	0.05872	0.033626	0.28951	-2.1271	-1.9458	-2.0646	-2.4771	-1.9229	-2.5729	-2.3896	-1.8104	-2.5917	-2.0125	-2.2438	-2.6104	-1.9125	-2.6854	-2.2146	-1.975	111.957	142.687	258.871	348.237	117.577	214.117	288.608	153.004	242.415	396.831	373.714	127.957	190.764	158.045	261.531	374.101	0.00017586	0.00052359	0.00080509	423.93	1.2877e-05	1.5446e-05	444.25	143.23	1.0142e-05	1.9736e-05	167.04	57.993	46.777	18.747	2.3082e-05	24.267	0.031186	0.058429	0.016108	606.77	0.00057257	0.00066196	655.09	212.24	0.00057544	0.00065402	527.1	94.258	84.153	30.155	0.00059231	39.362	229.055	171.687	315.231	93.294	318.361	402.615	92.008	99.546	246.615	228.723	95.877	101.494	105.384	109.569	307.749	105.467	-8191	255	
1192.747	1	1	0	0	0.16513	0.16269	0.053432	0.30399	0.10558	0.064072	0.1261	0.35045	0.036341	0.23437	0.15313	0.078174	0.38139	0.12083	0.28436	0.083253	-2.1708	-2.0125	-1.8188	-2.6125	-1.7333	-2.3208	-2.3708	-1.8	-2.5417	-2.1125	-1.8563	-2.6208	-1.8125	-2.5708	-2.2583	-1.7375	193.465	346.416	360.400	440.673	415.143	109.188	103.740	376.282	238.606	192.506	289.223	189.106	335.040	118.282	128.963	186.087	0.00024711	0.0025488	0.00046022	424.3	1.238e-05	4.3778e-06	450.47	142.91	1.6643e-05	1.0378e-05	163.56	57.969	46.358	18.832	9.7521e-06	24.083	0.031374	0.058836	0.016324	614.19	0.00058381	0.00067079	664.99	214.8	0.00059511	0.00067284	541.77	95.516	85.377	30.43	0.00062331	39.813	278.451	84.742	287.097	93.199	94.528	282.737	91.910	99.654	117.406	164.559	97.006	101.857	105.663	109.529	155.935	105.938	-8191	255	
1192.843	1	1	0	0	0.31559	0.15805	0.28437	0.30339	0.20951	0.19103	0.13025	0.24174	0.12734	0.10623	0.17288	0.19846	0.07852	0.2895	0.1224	0.27724	-2.2438	-2.0958	-1.8625	-2.7417	-1.8958	-2.2687	-2.3667	-1.7542	-2.675	-2.2208	-1.9167	-2.6271	-1.8896	-2.3688	-2.4729	-1.7396	85.626	326.971	229.889	380.398	99.618	270.290	366.717	399.501	291.646	304.231	148.003	108.385	217.678	164.195	199.834	318.329	0.00014035	0.0016943	0.00049132	427.99	5.1278e-06	1.2932e-05	447.58	143.25	1.8206e-05	2.3294e-05	167.52	57.819	46.916	18.847	6.9134e-06	23.844	0.032985	0.061492	0.017248	627.17	0.00061015	0.00069865	675.41	219.41	0.00062151	0.00070154	565.87	98.264	88.114	31.198	0.00067873	41.188	247.292	279.256	219.600	93.681	126.393	381.237	92.580	99.998	320.254	120.985	97.514	101.855	105.249	109.751	357.503	105.889	-8191	255	
1192.939	1	1	0	0	0.032424	0.16105	0.055168	0.07904	0.1933	0.11986	0.21117	0.26931	0.44046	0.17442	0.20611	0.15885	0.1359	0.19497	0.28275	0.19345	-2.2229	-2.3354	-1.8729	-2.6375	-1.8854	-2.2583	-2.5771	-1.8167	-2.4437	-2.3396	-1.8417	-2.7771	-2.0062	-2.0583	-2.6229	-1.9479	340.577	202.058	211.090	410.781	152.196	247.296	249.066	395.461	421.668	136.987	177.427	281.065	283.515	264.323	155.227	88.725	0.00028188	0.0015573	0.00024499	428.56	2.0548e-05	5.1271e-06	446.93	144.96	1.6559e-05	2.1635e-05	163.48	57.829	46.37	18.666	2.0026e-05	24.056	0.035794	0.066859	0.019045	649.24	0.00067495	0.00077642	707.68	229.4	0.00070349	0.00081142	639.49	105.54	96.017	33.936	0.0008533	45.711	248.467	180.584	398.430	93.679	241.402	174.672	92.115	99.524	377.393	418.689	98.008	101.689	105.022	110.225	107.276	106.232	-8191	255	
1193.011	1	1	0	0	0.17468	0.14867	0.1706	0.089849	0.14402	0.13884	0.08019	0.14473	0.25588	0.072068	0.10276	0.16582	0.14357	0.29347	0.12126	0.19335	-1.9896	-2.2812	-1.7687	-2.6167	-1.9937	-2.0979	-2.5812	-1.7188	-2.4333	-2.4271	-1.9167	-2.6729	-2.0875	-2.0938	-2.5771	-1.8333	323.187	345.897	224.308	435.526	279.605	248.580	179.239	303.507	292.715	153.613	157.377	205.666	435.790	139.243	388.018	216.179	0.00033751	0.0032194	0.00035037	433.86	1.9103e-05	1.9197e-05	446.26	142.99	2.5589e-05	9.3345e-06	162.04	56.087	45.601	18.265	1.647e-05	22.949	0.045361	0.086993	0.025022	721.51	0.00086857	0.00101	781.74	250.33	0.00086427	0.00099156	727.41	111.59	100.86	34.956	0.00092036	45.754	286.556	319.054	158.106	93.826	281.299	242.149	92.479	100.191	320.525	194.974	98.023	102.176	105.670	110.243	160.092	107.193	-8191	255	
1193.130	1	1	0	0	0.14615	0.049722	0.23848	0.0099728	0.22272	0.095644	0.11235	0.045094	0.22807	0.17476	0.091255	0.2473	0.068403	0.26488	0.25603	0.34038	-1.9271	-2.3875	-1.8417	-2.6917	-2.0771	-2.0771	-2.6083	-1.8646	-2.3375	-2.6229	-1.825	-2.4521	-2.2083	-1.8458	-2.6417	-1.9375	102.035	282.309	395.798	230.162	228.222	346.211	244.511	431.027	193.597	428.341	85.691	169.655	89.383	399.391	211.297	301.254	0.00031473	0.0019258	0.0003691	434.47	2.0946e-05	2.0016e-05	444.74	141.7	2.8876e-06	1.187e-05	160.87	56.327	45.868	18.136	2.0294e-05	22.785	0.04609	0.08776	0.024666	711.36	0.00082603	0.00096731	759.89	242.47	0.00081244	0.00093996	692.6	107	97.382	33.936	0.00086241	43.968	290.273	180.276	391.988	94.165	154.657	123.656	92.997	100.188	200.294	262.533	96.465	101.981	105.005	110.082	368.005	106.785	-8191	255	
1193.226	1	1	0	0	0.040897	0.28225	0.14158	0.19579	0.22504	0.058421	0.091721	0.055633	0.13802	0.13698	0.33345	0.10182	0.26406	0.3464	0.046595	0.16927	-1.775	-2.5125	-1.6979	-2.6188	-2.125	-1.7062	-2.6312	-1.9062	-2.0917	-2.4833	-1.6542	-2.2875	-2.4125	-2.1063	-2.5208	-2.0771	321.062	221.698	374.660	89.016	417.426	227.369	387.607	214.378	227.129	113.238	214.441	371.548	141.664	141.257	183.469	366.693	0.00026168	0.0013419	0.0004851	429.37	4.4235e-05	1.7669e-05	440.8	140.9	6.33e-06	2.5092e-05	162.79	55.352	44.954	17.907	1.7394e-05	22.617	0.043275	0.082969	0.023149	687.65	0.0007791	0.00091594	741.15	235.74	0.00078051	0.00091078	671.07	104.74	95.896	33.58	0.00083991	43.3	244.701	146.338	242.756	93.976	276.948	131.967	92.676	99.870	250.824	271.199	97.578	102.561	105.697	109.808	162.862	106.948	-8191	255	
1193.322	1	1	0	0	0.28069	0.22827	0.060643	0.22567	0.15041	0.19721	0.18723	0.13013	0.12259	0.14087	0.22775	0.1044	0.11415	0.16234	0.14244	0.23514	-1.75	-2.5104	-1.925	-2.3729	-2.2458	-1.8417	-2.5271	-2.0292	-2.1937	-2.7438	-1.8396	-2.4396	-2.6312	-1.8708	-2.6458	-2.025	162.999	369.786	120.625	195.678	325.527	270.658	116.311	407.536	254.218	171.456	397.459	214.776	399.143	262.145	377.860	190.216	0.00015375	0.00099871	0.00037739	426.85	3.7473e-05	1.223e-05	442.79	141.23	1.0341e-05	7.7819e-06	163.72	56.183	45.116	17.95	2.0392e-05	22.902	0.042796	0.082111	0.022781	682.55	0.00077968	0.00091876	739.65	234.84	0.00078381	0.00091314	669.94	105.23	97.181	33.786	0.00085054	43.88	337.657	294.568	434.432	93.781	140.474	192.952	93.005	100.428	143.039	218.078	96.943	102.675	105.577	110.495	386.497	106.647	-8191	255	
1193.418	1	1	0	0	0.088495	0.036503	0.1574	0.14996	0.17761	0.22075	0.094731	0.15743	0.27811	0.14536	0.061347	0.41954	0.085157	0.12546	0.11748	0.36538	-1.5396	-2.5896	-1.8167	-2.2021	-2.5417	-1.8458	-2.7229	-2.1813	-1.8021	-2.6	-1.9312	-2.2104	-2.5875	-1.6604	-2.3354	-2.3292	226.876	237.703	270.432	143.010	377.865	249.274	317.361	310.801	244.115	339.030	338.543	366.660	158.175	436.563	388.896	402.022	0.00027787	0.00063493	0.0003433	429.33	2.4307e-05	1.2905e-05	433.76	140.82	1.8234e-05	1.3767e-05	161.28	56.284	45.337	18.156	2.1037e-05	23.313	0.044247	0.084105	0.023205	688.62	0.00080476	0.00093547	740.98	236.76	0.00080168	0.00092646	671.08	105.68	97.559	33.917	0.00083491	44.026	243.459	399.895	83.989	94.691	313.791	432.731	92.613	100.496	268.195	111.628	96.737	103.117	105.756	110.525	311.983	106.681	-8191	255	
1193.539	1	1	0	0	0.05961	0.099446	0.18603	0.23735	0.077692	0.14203	0.12863	0.075735	0.17759	0.16213	0.088237	0.22322	0.22796	0.069658	0.10028	0.11213	-1.5375	-2.7354	-2.1375	-2.1042	-2.6292	-1.8375	-2.5854	-2.2833	-1.8917	-2.6813	-2.0417	-1.95	-2.6083	-1.6562	-2.5479	-2.3667	335.906	198.637	129.261	264.687	225.688	434.535	299.702	376.925	358.786	96.400	86.185	253.509	178.257	318.018	350.051	376.879	0.00028397	0.0026845	0.00037921	424.16	1.9949e-05	1.2345e-05	434.68	142.14	6.5993e-06	1.3149e-05	169.28	57.104	45.904	18.93	1.4221e-05	24.226	0.043712	0.08206	0.022303	676.3	0.00077471	0.00089121	717.48	232.17	0.00074213	0.00083856	617.48	102.12	92.395	32.656	0.00071481	42.258	254.169	208.289	271.384	94.238	202.145	208.387	93.347	100.618	216.163	114.716	97.700	103.140	105.774	110.292	267.087	106.997	-8191	255	
1193.635	1	1	0	0	0.10776	0.14164	0.055952	0.21024	0.16449	0.32316	0.1205	0.22398	0.30487	0.20937	0.29695	0.1631	0.09171	0.10713	0.28199	0.13085	-1.3875	-2.5812	-2.1083	-2.1208	-2.825	-1.8771	-2.3542	-2.575	-1.9521	-2.4896	-2.1562	-1.8896	-2.6688	-1.8458	-2.1146	-2.5396	88.314	185.906	224.648	272.267	107.313	407.917	300.059	418.832	375.529	172.311	159.224	85.240	376.487	352.928	427.151	163.403	0.00025552	0.0021874	0.0007886	417.41	1.6638e-05	9.3934e-06	436.49	144.37	1.052e-05	3.1403e-05	164.36	59.862	47.172	19.161	1.2286e-05	24.959	0.037222	0.069243	0.01908	639.2	0.00067694	0.00078133	692.12	226.41	0.00068672	0.00078241	601.15	102.55	91.438	32.563	0.00070625	42.866	211.946	272.415	264.937	94.719	411.331	268.512	93.428	100.491	440.213	337.266	97.440	101.564	104.546	108.863	213.878	105.360	-8191	255	
1193.707	1	1	0	0	0.26696	0.027963	0.17986	0.038991	0.13896	0.24032	0.12857	0.15998	0.24508	0.17348	0.30625	0.1673	0.090209	0.20047	0.084177	0.10872	-1.5354	-2.6021	-2.1854	-1.8667	-2.7333	-1.7938	-2.2625	-2.5833	-1.9188	-2.5271	-2.325	-1.8396	-2.7417	-1.9396	-1.9792	-2.5896	345.740	232.970	290.202	370.048	305.773	209.553	104.755	405.127	305.748	231.365	400.546	176.300	383.195	146.747	428.985	342.530	0.00041783	0.00027924	0.00039799	421.76	7.3703e-06	8.6229e-06	442.88	142.78	1.0854e-05	2.5269e-05	169.9	59.584	47.212	19.338	1.0383e-05	24.84	0.036789	0.068202	0.018974	640.6	0.00066998	0.00076259	691.38	226.37	0.0006794	0.00076891	600.73	102.79	91.37	32.509	0.00070997	42.932	270.301	308.616	101.277	93.518	277.316	295.271	92.301	99.866	186.943	175.868	97.773	101.494	104.806	109.290	238.986	104.758	-8191	255	
1193.828	1	1	0	0	0.20484	0.054169	0.087167	0.094982	0.11124	0.2333	0.15556	0.18171	0.18464	0.29906	0.056103	0.063165	0.062095	0.21454	0.17782	0.17014	-1.4417	-2.3708	-2.0833	-1.8083	-2.3875	-1.8854	-1.9604	-2.6229	-1.8813	-2.4854	-2.3417	-1.9417	-2.6167	-2.1125	-2.1979	-2.8312	280.560	373.186	287.487	433.953	400.383	113.733	307.647	367.429	391.470	110.078	337.110	136.906	272.067	170.074	355.073	127.864	0.00062569	0.0008209	0.00025046	424	5.4796e-06	4.0468e-06	442.93	140.6	1.2858e-06	9.0242e-06	166.31	58.385	45.945	18.83	1.2459e-05	24.114	0.036687	0.06799	0.019208	640.86	0.00066408	0.00075719	691.53	224.15	0.00066512	0.00075511	593.66	100.63	89.186	31.777	0.00071014	42.153	252.905	198.354	184.250	93.174	390.343	159.580	91.672	99.046	282.205	181.346	96.364	101.535	104.604	108.479	426.089	104.373	-8191	255	
1193.924	1	1	0	0	0.29956	0.1153	0.31856	0.26993	0.15912	0.15294	0.05283	0.3441	0.047145	0.27661	0.19056	0.39944	0.10481	0.31656	0.31292	0.20991	-1.3354	-2.35	-2.4542	-1.7104	-2.6021	-2.0687	-2.0333	-2.6333	-1.8937	-2.2083	-2.4229	-1.9271	-2.6375	-2.0062	-2.0062	-2.5354	305.131	307.108	129.957	283.924	215.029	137.546	236.301	202.656	388.319	123.323	97.926	108.862	385.877	386.082	413.119	325.093	0.0004083	0.0027962	0.00021987	416.36	1.2484e-05	2.5644e-05	439.38	142.67	7.0731e-06	2.2541e-05	159.91	59.25	46.985	19.149	1.1275e-05	24.66	0.03613	0.067761	0.019267	633.82	0.00065778	0.00075642	688.72	224.2	0.00066101	0.00076589	606.07	102.37	90.873	32.646	0.00074263	43.164	246.787	419.921	279.088	92.650	406.715	186.781	91.207	98.760	288.685	420.822	96.806	101.105	104.955	108.655	119.153	105.213	-8191	255	
1194.020	1	1	0	0	0.10213	0.14939	0.081692	0.09762	0.32813	0.21389	0.21318	0.18192	0.29896	0.15989	0.13957	0.23593	0.14341	0.21837	0.24077	0.12953	-1.6771	-2.0979	-2.5854	-1.8354	-2.6146	-2.0646	-2.0667	-2.7083	-2.1146	-2.2479	-2.6042	-1.8375	-2.6167	-2.5771	-1.9646	-2.8667	119.629	230.822	379.755	365.466	246.069	146.949	344.930	296.140	421.784	375.800	163.337	390.826	369.039	202.896	106.154	371.706	0.0004103	0.0011285	0.00087241	414.17	7.2906e-06	2.2978e-05	437.19	142.63	1.8984e-06	3.4808e-05	165.38	58.11	46.393	19.023	1.6238e-05	24.361	0.03779	0.072663	0.020559	646.97	0.00069098	0.00080678	700.33	226.37	0.00067704	0.00079061	612.76	102.01	90.453	32.552	0.00073694	42.723	269.575	169.923	139.484	92.181	122.664	254.250	91.097	98.452	319.046	299.295	95.293	100.778	104.496	108.425	346.411	104.619	-8191	255	
1194.139	1	1	0	0	0.15227	0.15492	0.25294	0.044142	0.12289	0.23629	0.096803	0.18713	0.17836	0.089274	0.2088	0.10256	0.15145	0.17126	0.055757	0.034885	-1.4333	-2.2521	-2.5625	-1.7313	-2.3937	-2.3333	-2	-2.7667	-2.2458	-1.9917	-2.6667	-1.8479	-2.4437	-2.3563	-1.7521	-2.5792	186.545	267.557	358.147	325.159	396.081	311.062	388.155	287.279	187.637	248.165	154.176	331.550	389.205	100.674	422.669	142.454	0.00041352	0.0012878	0.0004806	418.05	2.192e-05	1.8638e-05	437.35	142.27	1.0039e-05	6.7836e-06	164.76	58.235	46.718	18.897	1.8596e-05	24.219	0.037277	0.071948	0.020311	645.89	0.00068928	0.00081577	705.27	226.75	0.00069431	0.00081897	625.73	102.92	92.681	33.211	0.00077553	43.401	222.569	240.183	402.644	92.271	286.037	114.569	90.993	97.977	196.303	139.719	95.440	101.155	105.224	109.085	421.458	104.735	-8191	255	
1194.235	1	1	0	0	0.18637	0.28837	0.15872	0.44767	0.29188	0.11664	0.26952	0.10797	0.066585	0.20462	0.081018	0.099758	0.1353	0.2276	0.18021	0.18464	-1.7396	-1.8146	-2.6813	-1.9	-2.2438	-2.5438	-1.9458	-2.4958	-2.2625	-1.8958	-2.6	-1.8354	-2.2708	-2.5917	-1.8583	-2.5708	260.477	321.483	185.074	377.600	185.081	97.963	125.046	157.530	259.559	284.419	364.589	429.426	286.906	420.304	349.163	361.146	0.00022853	0.0035772	0.00042529	420.24	2.0621e-05	8.3811e-06	430.25	139.6	1.1391e-05	1.1493e-05	157.69	56.908	45.63	18.517	2.7989e-05	23.607	0.040021	0.077988	0.021798	662.86	0.00075584	0.00089062	722.93	232.75	0.00076879	0.00089304	661.35	105.45	96.894	34.28	0.00084788	44.71	224.016	382.498	160.275	92.063	261.372	252.816	90.730	98.251	181.348	172.537	95.742	101.103	103.792	108.159	317.811	104.267	-8191	255	
1194.307	1	1	0	0	0.34657	0.28714	0.23925	0.045222	0.11972	0.049442	0.046801	0.16756	0.085863	0.26181	0.30006	0.36549	0.22727	0.29976	0.10072	0.36441	-1.9521	-1.8833	-2.55	-1.9208	-1.9604	-2.5958	-1.8354	-2.4625	-2.2896	-1.5604	-2.4896	-1.9271	-2.0375	-2.4437	-1.7375	-2.3458	421.739	333.052	273.004	234.229	155.003	126.096	98.261	361.940	345.496	406.148	436.646	371.084	221.093	399.207	214.766	350.288	0.0003946	0.0021618	0.00089445	421.43	2.0367e-05	1.4061e-05	433.67	139.93	1.0512e-05	1.2319e-05	158.8	56.743	45.625	18.591	2.1512e-05	24.032	0.044592	0.085505	0.023752	688.84	0.0008294	0.00096748	741.28	239.58	0.00082381	0.00095388	687.96	107.87	99.088	34.718	0.00085544	45.203	225.028	81.578	187.341	92.156	215.939	339.937	90.874	98.525	189.430	196.269	95.745	100.306	104.083	108.186	214.467	105.155	-8191	255	
1194.427	1	1	0	0	0.22916	0.30781	0.12407	0.11093	0.052523	0.16846	0.33762	0.11971	0.26039	0.2922	0.2355	0.48207	0.19123	0.25502	0.28771	0.13176	-1.9229	-1.8146	-2.5938	-2.1417	-2.05	-2.6604	-1.9604	-2.3604	-2.3563	-1.7125	-2.5187	-2.2333	-1.85	-2.5854	-1.8813	-2.375	367.218	93.013	325.203	349.965	324.324	281.017	87.936	342.812	264.994	192.473	230.698	91.692	364.349	219.174	233.040	147.757	0.00021592	0.0010491	0.00010435	422.37	7.9442e-06	6.1768e-06	433.21	142.55	9.4073e-06	5.5995e-06	162.99	57.776	45.924	18.748	1.5099e-05	24.531	0.045024	0.084736	0.023327	686.91	0.00081366	0.00092685	725.09	236.21	0.00077944	0.00088128	646.26	105.82	95.99	33.859	0.00078786	44.548	244.255	101.030	99.256	91.788	331.016	297.462	90.780	98.389	185.067	328.252	95.251	100.176	103.644	108.344	234.621	104.514	-8191	255	
1194.523	1	1	0	0	0.083994	0.12206	0.23409	0.11896	0.16524	0.18632	0.18187	0.063921	0.25309	0.24716	0.10888	0.15107	0.051472	0.1559	0.1563	0.31842	-2.1562	-1.8125	-2.6063	-2.3521	-1.8333	-2.6333	-1.8937	-2.1896	-2.5917	-2.0042	-2.7854	-2.2792	-2.0521	-2.6271	-1.8896	-2.1375	180.490	267.241	165.691	354.529	311.202	225.967	114.898	234.984	346.746	184.223	386.130	406.165	332.730	193.076	212.137	409.247	0.00049584	0.00043032	0.00034907	421.68	2.9841e-05	4.5398e-06	437.4	142.33	4.5398e-06	1.5529e-05	160.08	57.345	45.19	18.583	1.2752e-05	24.004	0.041844	0.078597	0.021707	671.49	0.00077086	0.00088919	724.92	238.27	0.00081149	0.00094064	699.84	112.54	104.23	36.307	0.000962	48.62	261.088	326.532	122.319	91.734	273.393	369.453	90.479	97.931	114.510	328.204	96.646	100.146	104.020	108.235	130.013	104.296	-8191	255	
1194.619	1	1	0	0	0.096108	0.14565	0.078975	0.12901	0.32624	0.2219	0.12865	0.22565	0.26563	0.15716	0.19942	0.038852	0.15319	0.31376	0.28561	0.13305	-2.2646	-1.8937	-2.4729	-2.175	-1.8271	-2.7062	-2.0312	-2.1188	-2.5854	-1.8625	-2.3375	-2.425	-1.8604	-2.7167	-2.0479	-1.9312	128.244	430.237	411.648	146.525	116.323	200.034	109.731	430.904	149.344	181.371	270.769	193.720	148.977	246.039	224.665	351.124	0.0002405	0.0018073	0.00085214	421.56	3.1967e-05	1.2121e-05	430.45	140.55	1.5495e-05	2.623e-05	163.38	56.091	45.31	18.26	1.9816e-05	23.436	0.051604	0.095973	0.02692	731.17	0.00094343	0.0010777	779.37	254.51	0.00093357	0.0010454	748.14	114.35	105.01	35.912	0.00096548	48.135	237.903	362.342	287.667	92.429	213.940	426.132	90.111	98.611	235.934	333.477	96.615	100.845	103.838	107.734	283.856	104.536	-8191	255	
1194.716	1	1	0	0	0.29813	0.17896	0.18783	0.056433	0.18528	0.21466	0.072787	0.34506	0.045733	0.22273	0.21402	0.14009	0.35755	0.2088	0.06913	0.32067	-2.2896	-1.7729	-2.3625	-2.4771	-1.8312	-2.6896	-2.1979	-1.9708	-2.6292	-1.7812	-2.3792	-2.5687	-1.6896	-2.7167	-2.3187	-2.0292	400.495	216.650	206.117	155.315	238.674	322.853	203.228	283.639	293.142	110.714	149.302	86.235	91.586	252.103	384.544	105.858	0.00040613	0.0016299	0.0004306	423.78	6.767e-06	1.4605e-05	430.75	139.84	1.3661e-05	1.057e-05	159.34	56.186	45.099	17.997	4.3433e-05	23.33	0.050827	0.093888	0.026361	722.38	0.00089629	0.0010155	764.82	247.55	0.00087595	0.00099189	720.95	111.38	101.56	35.042	0.00094401	46.885	184.483	272.823	381.028	92.367	230.662	211.882	90.541	98.199	193.855	273.381	94.487	101.328	104.430	108.116	145.350	104.779	-8191	255	
1194.812	1	1	0	0	0.21767	0.1689	0.18324	0.23434	0.079402	0.30566	0.097755	0.14384	0.18382	0.37722	0.046104	0.32859	0.18984	0.20639	0.12312	0.16501	-2.3125	-1.7958	-2.1479	-2.5021	-1.8229	-2.5438	-2.2958	-2.1063	-2.6396	-1.8646	-2.1437	-2.5563	-1.8354	-2.5062	-2.35	-1.7938	155.641	400.347	357.542	324.398	359.273	212.440	241.340	379.910	150.065	434.351	224.894	198.813	148.309	117.543	338.328	361.540	0.00033072	0.0050103	0.00039204	422.72	3.7788e-06	2.9221e-05	434.58	139.2	1.303e-05	1.0615e-05	159.4	55.007	44.285	17.642	2.4512e-06	22.478	0.049469	0.093466	0.026744	731.76	0.00092353	0.0010737	790.65	254.92	0.00093861	0.0010724	772.7	114.81	104.3	35.489	0.0009781	46.685	204.092	381.328	289.770	92.342	436.919	275.125	91.320	98.833	375.531	333.889	96.585	100.456	104.228	108.300	247.480	104.949	-8191	255	
1194.932	1	1	0	0	0.19567	0.18335	0.16329	0.16814	0.14397	0.075841	0.18786	0.057233	0.22963	0.25082	0.39567	0.16319	0.12405	0.14408	0.15834	0.054041	-2.3417	-1.9937	-2.125	-2.7604	-1.7479	-2.4375	-2.6437	-1.8729	-2.5146	-2.0917	-1.8208	-2.7521	-1.9729	-2.3042	-2.5042	-1.8708	407.414	244.018	274.249	433.805	179.271	279.302	313.008	244.578	425.443	301.301	122.987	338.984	307.945	125.713	217.626	88.258	0.00055065	0.0029971	0.0003799	423.02	2.345e-05	2.7883e-05	434.12	139.65	1.6272e-05	2.1625e-05	157.16	55.014	44.638	17.59	1.8148e-05	22.727	0.048345	0.090797	0.025464	713.01	0.00085521	0.00099542	759.42	242.5	0.00083211	0.00096401	702.32	107.5	97.883	33.951	0.00089305	44.358	200.372	219.895	102.937	92.678	163.463	284.152	91.407	98.826	246.239	164.632	97.116	101.587	104.437	108.870	306.265	104.388	-8191	255	
1195.004	1	1	0	0	0.1398	0.048431	0.095893	0.033319	0.33918	0.044007	0.1673	0.061194	0.043488	0.22915	0.36253	0.11942	0.34465	0.085533	0.14448	0.23333	-2.0854	-2.2875	-1.9438	-2.6833	-1.9604	-2.2979	-2.6146	-1.9167	-2.4396	-2.1542	-1.925	-2.7333	-1.9333	-2.2958	-2.6375	-1.9583	130.922	123.968	418.591	271.805	265.783	191.514	84.411	142.363	302.030	210.283	155.999	202.707	366.010	135.096	136.128	187.905	0.0001257	0.00057839	0.00074273	423.71	1.9123e-05	2.7121e-05	432.98	138.13	1.7598e-05	1.3768e-05	156.46	55.044	45.153	17.865	1.9352e-05	22.944	0.045121	0.086836	0.024377	698.28	0.00082351	0.0009694	751.51	241.77	0.00084294	0.00098871	716.95	109.29	100.35	34.839	0.00091811	45.375	229.552	216.572	288.182	92.754	208.776	267.053	90.287	98.639	259.197	323.714	93.428	100.610	103.528	107.883	257.993	104.429	-8191	255	
1195.100	1	1	0	0	0.1277	0.064902	0.12874	0.10456	0.19352	0.11006	0.22631	0.31206	0.13719	0.26638	0.11698	0.11922	0.21457	0.13534	0.13619	0.23775	-2.2271	-2.1937	-1.8937	-2.6333	-1.8312	-2.0458	-2.6521	-1.65	-2.3771	-2.2979	-1.9146	-2.6396	-1.9854	-2.0896	-2.5792	-1.9292	107.010	416.682	104.248	118.004	426.873	94.708	359.522	86.602	280.762	261.174	328.660	87.298	148.916	80.884	367.399	362.540	0.00024697	0.0038054	0.0009406	423.96	4.9671e-06	1.5455e-05	439.1	141.68	1.3269e-05	6.3067e-06	166.57	58.456	46.384	18.949	6.8269e-06	24.635	0.045811	0.086915	0.023829	685.45	0.00078524	0.00090785	726.49	232.3	0.00073724	0.00084614	635.93	103.73	93.658	33.518	0.00077749	44.073	246.429	141.900	170.150	91.924	281.903	187.802	90.493	98.414	297.063	421.633	93.694	100.441	103.663	108.080	431.707	104.745	-8191	255	
1195.219	1	1	0	0	0.003719	0.18688	0.18032	0.18793	0.14408	0.035881	0.27198	0.10475	0.13475	0.13586	0.29785	0.16826	0.16943	0.13392	0.2081	0.23193	-1.7792	-2.3688	-1.7188	-2.6167	-2.0271	-2.0104	-2.6375	-1.8208	-2.3771	-2.3354	-1.8458	-2.6333	-2.2958	-1.9917	-2.7021	-1.8792	371.411	145.416	224.395	311.911	231.818	199.689	418.586	273.760	321.632	348.454	187.741	408.454	305.382	396.389	161.043	158.392	0.0004686	0.0017696	0.00039521	420.88	1.9798e-05	2.2705e-05	441.14	143.33	5.2626e-06	2.075e-05	163.95	58.911	46.932	19.152	1.7428e-05	25.142	0.04073	0.077957	0.021461	661.86	0.00074364	0.00086901	719.65	231.89	0.00073975	0.00085211	640.08	105.62	95.631	34.056	0.00079093	44.695	228.739	172.443	428.326	92.063	289.288	352.140	91.018	98.129	239.192	383.602	94.790	101.122	103.808	108.362	314.620	105.007	-8191	255	
1195.315	1	1	0	0	0.21492	0.10525	0.17481	0.27474	0.13998	0.030931	0.15063	0.089814	0.20731	0.28569	0.069133	0.22221	0.10239	0.083138	0.056482	0.23471	-1.6896	-2.6229	-1.8188	-2.6104	-2.0375	-1.9312	-2.5625	-1.8438	-2.2479	-2.3854	-1.8	-2.5104	-2.1708	-2.0187	-2.5563	-2.1	263.416	262.743	407.793	403.223	404.247	244.055	322.059	334.257	321.312	299.852	128.276	338.927	307.816	214.299	298.271	353.289	0.00027877	0.0028309	0.00067745	418.5	1.1189e-05	2.9843e-05	436.83	143.24	9.4798e-06	3.0818e-05	164.56	58.548	46.772	19.109	3.1159e-05	24.69	0.041891	0.079428	0.021757	666.43	0.00076689	0.00088347	719.57	234.33	0.00076728	0.0008818	651.29	106.84	97.208	34.337	0.00081051	45.101	223.401	217.680	279.820	92.670	110.252	297.807	91.179	98.383	216.269	283.038	96.675	100.442	103.487	108.550	362.576	104.419	-8191	255	
1195.411	1	1	0	0	0.17538	0.17689	0.19356	0.14447	0.22924	0.20585	0.31638	0.2332	0.22978	0.25154	0.19886	0.10626	0.26832	0.060539	0.066882	0.088415	-1.6229	-2.5583	-1.8104	-2.5917	-2.3563	-1.8479	-2.6667	-2.0771	-2.0083	-2.7333	-2.0208	-2.3979	-2.2458	-1.8438	-2.4271	-2.1167	221.812	129.497	396.349	387.839	111.174	122.236	313.400	384.242	204.822	300.342	197.239	267.254	363.491	84.243	412.451	113.501	0.00026882	0.0027895	0.00030403	416.85	1.8447e-05	2.5149e-05	438.96	142.43	1.0991e-05	1.3122e-05	165.3	59.284	46.781	18.937	1.9559e-05	24.456	0.042628	0.080133	0.022172	673.76	0.00078716	0.00090579	729.02	237.86	0.00079322	0.00089213	660.99	108.22	97.173	33.96	0.00079485	44.687	213.932	233.001	343.466	92.778	105.934	351.425	91.222	98.101	212.331	216.740	94.717	100.708	103.857	107.628	194.236	104.309	-8191	255	
1195.508	1	1	0	0	0.3258	0.10536	0.13972	0.3364	0.22794	0.22123	0.11078	0.15048	0.038537	0.29575	0.28404	0.21325	0.023197	0.19523	0.32597	0.16312	-1.6042	-2.4271	-1.8208	-2.3396	-2.4333	-1.7833	-2.5854	-2.2062	-1.9896	-2.6917	-1.7604	-2.3042	-2.6021	-1.75	-2.4688	-2.2104	369.306	245.682	153.066	341.496	384.702	202.908	131.854	110.033	155.704	398.345	129.898	308.825	405.681	440.000	297.446	179.735	7.1241e-06	0.00029441	0.00072307	415.96	1.8413e-05	1.144e-05	446.38	143.55	1.0662e-05	2.3959e-05	166	59.398	46.505	19.154	8.9173e-06	24.75	0.041374	0.076709	0.021162	662.18	0.00073186	0.00082908	709.8	229.97	0.00070918	0.000797	607.98	102.91	91.304	32.17	0.0007099	42.63	250.046	310.948	149.187	92.786	298.378	152.818	90.802	98.408	201.384	195.071	93.944	101.347	104.291	108.717	157.975	105.548	-8191	255	
1195.604	1	1	0	0	0.18882	0.080701	0.078368	0.16715	0.18694	0.1718	0.091698	0.25635	0.28142	0.097636	0.33349	0.14263	0.15837	0.070475	0.31664	0.18842	-1.5771	-2.5417	-1.9104	-2.1229	-2.5083	-1.7833	-2.4458	-2.2229	-1.5646	-2.4729	-1.9167	-2.1021	-2.4646	-1.6187	-2.4833	-2.3688	284.877	111.020	172.279	400.920	271.965	274.933	382.545	394.441	393.279	107.618	81.930	282.838	130.437	107.361	390.570	270.213	0.00035468	0.0015377	0.0002184	420.65	1.6675e-05	1.0266e-05	444.38	144.25	6.9966e-06	3.5264e-05	167.14	59.005	46.554	19.347	1.6007e-05	24.45	0.036822	0.068069	0.019104	639.5	0.0006643	0.00075462	688.11	223.11	0.00064483	0.00072345	575.06	99.348	87.524	31.248	0.00065318	41.236	242.593	262.003	314.566	91.918	104.034	173.573	90.987	98.113	303.659	265.935	96.430	101.279	104.764	108.227	378.436	104.354	-8191	255	
1195.700	1	1	0	0	0.12794	0.14214	0.057527	0.24057	0.077585	0.12847	0.10635	0.16579	0.095462	0.057211	0.076894	0.21622	0.075691	0.056068	0.16196	0.30492	-1.3854	-2.4458	-1.8917	-2.0708	-2.3812	-1.6896	-2.3854	-2.2354	-1.7125	-2.6	-1.9333	-1.9896	-2.4583	-1.7521	-2.3208	-2.4667	261.537	280.692	196.596	367.943	358.775	330.574	122.829	398.459	260.365	329.127	333.916	415.304	218.567	422.186	347.748	417.595	0.00010063	0.0027523	0.00032004	419.35	2.3898e-05	2.5543e-05	440.18	142.31	1.9459e-05	2.288e-05	165.13	58.378	46.376	19.128	9.0013e-06	24.837	0.033716	0.063048	0.018007	623.89	0.00062341	0.00071941	678.29	220.86	0.00062755	0.00072186	579.23	99.655	88.154	31.795	0.00069475	42.178	278.985	116.943	222.629	92.334	263.485	429.402	90.946	98.507	223.214	275.444	94.244	100.600	103.216	108.017	130.311	104.789	-8191	255	
1195.820	1	1	0	0	0.13144	0.12451	0.16019	0.13812	0.092969	0.13709	0.27474	0.16397	0.17407	0.12183	0.18	0.14284	0.075898	0.15973	0.22029	0.1899	-1.3146	-2.5625	-1.9542	-1.9667	-2.4896	-1.7604	-2.2687	-2.3583	-1.5312	-2.4938	-2.1396	-1.8042	-2.3812	-2.0667	-2.05	-2.5042	289.635	412.919	210.015	203.642	414.333	415.274	234.090	321.072	85.448	248.080	240.900	80.992	129.871	206.698	402.264	372.359	0.00024362	0.0030317	0.00035128	418.08	2.0728e-05	2.1889e-05	438.55	141.95	1.3781e-05	1.8634e-05	167.51	59.505	47.234	19.276	2.7703e-05	25.071	0.035394	0.067683	0.019324	638.63	0.00066324	0.00078019	702.1	228.13	0.00069166	0.00081249	628.59	104.52	93.043	33.271	0.00075699	43.623	217.452	138.650	151.884	91.971	300.846	116.328	91.131	98.432	205.199	227.674	94.977	100.312	103.612	107.856	252.462	104.312	-8191	255	
1195.917	1	1	0	0	0.074477	0.10989	0.13631	0.055558	0.12926	0.16141	0.036463	0.094512	0.10972	0.30694	0.14021	0.087839	0.18183	0.053025	0.18667	0.091487	-1.3167	-2.4479	-2.1333	-1.9354	-2.5125	-1.8917	-2.2292	-2.4771	-1.6875	-2.3125	-2.0687	-1.775	-2.5771	-2.1333	-1.8542	-2.7292	86.495	393.887	274.290	139.758	105.661	373.588	140.634	331.699	230.914	122.860	407.753	433.015	98.685	289.889	174.616	154.515	0.00042346	0.0017744	0.00039824	420.04	1.5584e-05	9.7604e-06	445.16	142.75	1.255e-05	2.0101e-05	165.69	58.285	46.747	18.691	2.1504e-05	24.355	0.037889	0.072243	0.020323	646.48	0.0006845	0.00080536	703.22	226.84	0.00067966	0.00079202	606.3	101.05	89.885	32.058	0.00070971	41.763	250.984	81.221	239.779	92.577	219.478	97.986	90.702	97.256	98.865	308.102	96.042	100.036	103.249	107.413	391.583	103.905	-8191	255	
1196.013	1	1	0	0	0.30323	0.17692	0.17291	0.37536	0.18324	0.13197	0.15032	0.15408	0.10982	0.067388	0.15652	0.15986	0.13859	0.11447	0.076386	0.13817	-1.4375	-2.3146	-2.2542	-1.7646	-2.4854	-2.0312	-1.9146	-2.6229	-1.8979	-2.0792	-2.4813	-1.5625	-2.6271	-2.0938	-2.125	-2.5438	97.875	434.907	339.574	144.201	93.091	240.102	94.478	370.779	175.707	187.016	141.913	275.913	313.104	94.844	117.843	303.586	0.00021164	0.001287	0.00047336	422	2.1189e-05	2.6433e-05	436.7	142.64	7.8875e-06	9.1824e-06	161.06	57.722	46.129	18.657	9.7285e-06	23.802	0.036033	0.069315	0.019397	639.22	0.00066702	0.00078726	692.31	224.42	0.0006821	0.00080154	612.98	101.05	91.674	32.626	0.00074823	42.348	243.491	438.510	89.032	91.693	156.832	331.852	91.124	97.829	160.978	219.987	95.941	101.124	104.280	108.654	270.611	105.022	-8191	255	
1196.109	1	1	0	0	0.12025	0.27345	0.21584	0.18601	0.28176	0.12872	0.18709	0.19343	0.13698	0.096471	0.23961	0.19617	0.08368	0.29001	0.17908	0.077808	-1.3667	-2.0583	-2.4062	-1.5167	-2.3438	-2.0687	-1.7896	-2.5708	-1.9708	-2.1396	-2.5104	-1.8042	-2.5083	-2.0458	-1.8604	-2.6063	255.090	367.079	394.207	278.534	347.824	408.308	135.419	188.065	428.343	162.298	143.493	394.802	280.448	294.679	122.509	403.744	0.0003609	0.0031348	0.00042029	419.02	1.7433e-05	3.1154e-05	433.86	141.16	2.8831e-05	2.3134e-05	161.94	57.469	45.716	18.644	1.105e-05	24.12	0.03867	0.074244	0.020648	650.4	0.00071768	0.00083991	707.15	229.78	0.00073967	0.00086371	645.54	105.38	96.398	33.957	0.00081536	44.448	222.784	116.427	206.499	91.852	413.135	336.831	90.811	98.284	400.549	246.203	96.085	100.285	103.714	107.215	235.714	104.168	-8191	255	
1196.203	1	1	0	0	0.1886	0.19063	0.2006	0.21599	0.14812	0.090148	0.1766	0.33925	0.065161	0.05558	0.14588	0.094553	0.17151	0.12835	0.17895	0.13064	-1.4625	-2.0333	-2.4938	-1.6646	-2.3833	-2.2042	-1.8646	-2.3854	-2.0333	-1.8438	-2.4104	-1.7125	-2.3396	-2.3542	-1.7667	-2.7229	395.419	319.458	428.597	95.267	343.998	378.267	419.984	358.021	319.634	185.530	337.414	159.138	422.079	377.754	107.546	413.133	0.00044155	0.00094959	0.00045093	409.75	2.7715e-05	1.0288e-05	436.72	141.05	1.5822e-05	1.9195e-05	163.19	58.717	46.554	18.94	1.371e-05	24.817	0.042776	0.080216	0.021998	661.89	0.00075951	0.00086776	709.65	229.69	0.00073529	0.00083772	625.98	104.15	94.333	33.393	0.00076195	44.121	208.245	364.773	383.298	92.092	205.240	240.584	90.818	97.994	161.528	297.935	95.363	99.411	103.221	107.532	275.055	103.887	-8191	255	
1196.299	1	1	0	0	0.24169	0.1267	0.068402	0.18424	0.14183	0.14023	0.10697	0.19851	0.2236	0.27204	0.1597	0.14721	0.151	0.098528	0.20385	0.08205	-1.4896	-1.9562	-2.6833	-1.8458	-2.15	-2.3917	-1.7229	-2.5333	-2.1979	-1.7687	-2.55	-2.0062	-2.0354	-2.5042	-1.5021	-2.5208	349.506	405.564	306.905	149.460	174.318	158.936	245.233	396.196	300.335	331.584	157.365	432.399	90.793	139.822	411.177	115.892	0.0004286	0.002383	0.00028859	411.2	6.693e-06	2.1097e-05	429.52	142.8	2.6935e-05	1.3134e-05	167.89	59.755	46.894	19.411	1.2599e-05	24.746	0.040241	0.075272	0.020662	645.73	0.00072069	0.00081985	696.15	227.74	0.00069974	0.00079003	603.51	103.1	91.452	32.569	0.00070942	42.993	260.252	367.234	217.529	91.614	382.611	300.757	90.465	97.884	219.176	159.704	95.747	100.102	103.226	107.328	177.713	104.021	-8191	255	
1196.396	1	1	0	0	0.035338	0.14452	0.21343	0.12391	0.062865	0.051586	0.39294	0.079261	0.1226	0.2784	0.18564	0.16701	0.27268	0.16289	0.35794	0.078853	-1.8958	-1.8042	-2.4	-1.9271	-2.0229	-2.4813	-1.6146	-2.3708	-2.1896	-1.8771	-2.4313	-1.7896	-2.0875	-2.4167	-1.7313	-2.3896	351.383	221.624	381.811	297.781	301.539	82.975	131.407	305.774	236.806	183.199	358.026	395.749	332.663	246.246	310.346	84.174	0.00024308	0.00096988	0.00021873	411.11	1.4954e-05	2.2888e-05	435.03	141.77	2.1314e-05	1.8021e-05	163.37	57.642	46.23	18.667	6.1823e-06	23.976	0.037784	0.070811	0.019876	643.79	0.0007114	0.00082243	703.18	231.6	0.0007379	0.0008375	635.5	105.04	94.887	33.143	0.00079104	44.286	230.153	433.308	436.827	91.590	186.374	330.614	90.506	97.468	315.902	430.272	95.084	100.000	103.161	107.751	102.524	103.898	-8191	255	
1196.492	1	1	0	0	0.099589	0.1667	0.16521	0.3961	0.063599	0.16357	0.22181	0.21232	0.2084	0.060269	0.069578	0.06094	0.20182	0.17868	0.15292	0.10199	-1.725	-1.7771	-2.4271	-2.1896	-1.9562	-2.675	-1.7563	-2.3688	-2.3771	-1.675	-2.5917	-1.9604	-1.75	-2.3771	-1.7708	-2.1562	379.840	241.715	283.401	426.732	229.487	141.324	115.047	344.664	246.853	422.667	310.175	434.922	413.150	423.204	138.553	128.974	0.00019296	0.002497	0.00014591	416.1	1.1699e-05	1.1866e-05	436.09	141.43	6.729e-06	1.5504e-05	167.36	57.477	46.831	18.995	6.8544e-06	24.45	0.042189	0.079127	0.022624	681.15	0.00080532	0.00092222	740.76	242.87	0.00082094	0.00093058	694.17	110.66	100.24	35.089	0.00088747	47.174	257.857	148.215	377.080	91.847	110.981	357.052	90.028	97.319	175.631	329.875	95.511	99.647	103.224	107.555	145.808	103.686	-8191	255	
1196.612	1	1	0	0	0.25172	0.21324	0.19734	0.12445	0.25724	0.15447	0.12556	0.21846	0.17367	0.11609	0.065497	0.15421	0.0644	0.19863	0.12089	0.2047	-2.1437	-1.7417	-2.6542	-2.1604	-1.7375	-2.5521	-1.8396	-2.1813	-2.4896	-1.5479	-2.35	-2.0271	-1.9229	-2.4708	-2.0375	-2.0958	116.264	111.397	101.760	90.739	336.449	231.323	323.587	108.733	418.248	86.601	141.340	357.505	239.136	398.069	141.007	321.898	0.0004836	0.0015409	0.00044894	414.3	1.6035e-05	8.5617e-06	432.1	142.16	4.3817e-06	2.4083e-05	160.91	58.719	45.921	19.023	1.838e-05	24.316	0.046667	0.088564	0.025628	711.5	0.0009063	0.0010595	789.26	258.89	0.0009577	0.001107	802.73	121.64	110.54	38.433	0.0010776	51.282	231.759	121.611	145.069	91.121	144.155	182.943	90.163	97.306	164.250	122.519	95.423	99.859	102.256	107.528	407.066	104.253	-8191	255	
1196.707	1	1	0	0	0.31009	0.23681	0.22349	0.33355	0.025547	0.136	0.43645	0.24688	0.21417	0.15365	0.23789	0.39867	0.17778	0.27175	0.17366	0.15888	-2.1354	-1.6479	-2.4667	-2.3104	-2.075	-2.4542	-1.8854	-2.1646	-2.6	-1.9375	-2.2708	-2.3396	-1.7812	-2.5083	-2.0583	-2.0542	402.809	179.892	381.327	428.639	362.016	349.568	331.539	235.709	293.744	295.059	83.563	419.274	265.362	375.282	365.619	374.688	0.00033359	0.00067004	8.6138e-05	413.12	9.8073e-06	2.3075e-05	426.65	141.75	1.5049e-05	1.1169e-05	164.71	57.297	45.557	18.718	1.8405e-05	23.83	0.055514	0.10659	0.030594	761.97	0.001047	0.0012312	836.18	271.5	0.0010453	0.0012044	844.19	122.73	111.84	38.696	0.0010865	50.409	263.579	337.076	335.796	91.045	295.874	317.952	90.617	97.865	186.677	262.470	96.291	99.446	102.839	107.672	331.607	103.996	-8191	255	
1196.803	1	1	0	0	0.10467	0.37342	0.25036	0.20327	0.11802	0.28572	0.089516	0.16661	0.12667	0.22589	0.13145	0.36252	0.19524	0.22027	0.26911	0.17498	-2.1417	-1.7625	-2.1792	-2.4292	-1.7333	-2.5667	-2.0938	-1.9396	-2.4125	-1.9042	-2.2083	-2.4271	-1.6562	-2.4562	-1.9625	-1.8458	126.518	381.613	415.989	252.148	278.497	156.095	206.640	381.283	236.561	125.497	83.808	423.544	105.384	387.787	438.458	225.720	0.00036076	0.0020707	0.00048623	419.08	3.8844e-05	3.4818e-05	432.05	140.2	1.6301e-05	1.901e-05	165.11	56.719	45.921	18.547	1.1779e-05	23.741	0.054086	0.1031	0.02893	741.31	0.00096654	0.0011275	794.7	256.74	0.00093556	0.0010852	773.53	115.98	105.99	36.762	0.00097226	47.462	266.247	213.629	353.511	91.855	244.920	206.869	90.779	97.293	183.593	279.079	94.760	100.025	102.499	107.335	435.495	103.357	-8191	255	
1196.899	1	1	0	0	0.39716	0.20546	0.044669	0.23399	0.33133	0.27906	0.097464	0.19067	0.037346	0.27215	0.20316	0.18297	0.25495	0.057419	0.051613	0.13129	-2.2333	-1.7271	-2.0687	-2.3271	-1.4271	-2.55	-2.2438	-1.8438	-2.5042	-1.8438	-2.2292	-2.5604	-1.8854	-2.4	-2.0625	-1.6896	136.045	95.859	205.018	402.317	383.961	337.475	304.875	180.311	88.446	169.945	374.866	260.488	343.806	158.338	224.876	291.592	0.00035546	0.00078944	0.0002504	417.63	3.8545e-06	2.8891e-05	430.3	141.57	1.13e-05	5.172e-06	163.08	58.279	46.415	18.754	1.9238e-05	24.241	0.048849	0.092691	0.025696	701.91	0.00086386	0.0010022	753.94	242.91	0.00082733	0.00095568	692.73	109.08	99.26	35.077	0.00086961	45.847	230.456	398.275	258.766	91.389	205.341	402.821	90.412	97.830	90.612	227.732	95.165	99.963	102.650	107.788	109.957	104.123	-8191	255	
1196.995	1	1	0	0	0.067326	0.25889	0.26958	0.16973	0.19709	0.10329	0.27696	0.33267	0.2164	0.13007	0.063806	0.12778	0.16118	0.067147	0.13159	0.13592	-2.0062	-1.775	-2.0062	-2.4354	-1.8104	-2.3542	-2.3438	-1.6729	-2.5896	-1.975	-1.95	-2.5771	-1.8167	-2.3708	-2.5271	-1.8188	113.536	437.317	287.503	223.581	286.668	239.003	351.920	400.487	241.165	332.123	278.278	421.531	368.844	317.214	102.735	188.166	0.00053769	0.00080843	0.00081856	414.11	2.2556e-05	2.0213e-05	432.47	143.06	9.5447e-06	2.1499e-05	162.87	58.802	46.976	19.088	1.1473e-05	24.644	0.045091	0.086225	0.023985	684.62	0.00082664	0.00096601	743.95	241.23	0.00082455	0.00094366	690.09	109.94	100.36	35.52	0.00087136	46.173	236.659	433.155	261.719	91.730	237.229	288.553	90.170	97.707	272.760	185.245	95.638	99.995	102.638	107.225	262.325	103.845	-8191	255	
1197.091	1	1	0	0	0.053678	0.092084	0.12506	0.088527	0.13403	0.23377	0.13606	0.16404	0.22857	0.034301	0.2394	0.094059	0.19837	0.022729	0.2057	0.22693	-2.3396	-1.975	-1.875	-2.6792	-1.9188	-2.2375	-2.4375	-1.7792	-2.5146	-2.1562	-1.825	-2.6771	-1.8104	-2.1	-2.4833	-1.7938	278.430	316.905	108.355	367.589	422.296	295.225	120.360	413.792	232.527	106.160	370.833	239.993	138.219	131.089	138.560	351.222	0.00033888	0.0019314	0.00091302	411.99	1.2099e-05	4.0795e-05	429.03	141.89	1.1452e-05	1.8869e-05	166.07	57.835	45.612	18.866	2.4076e-05	23.961	0.045946	0.086992	0.024044	685.6	0.00085253	0.00099086	745.74	245.19	0.00087	0.00099703	718.12	112.8	103.63	36.089	0.00091999	47.175	266.573	349.373	139.006	92.071	164.982	374.879	90.173	97.990	93.771	116.316	94.692	99.613	103.225	107.106	164.636	103.754	-8191	255	
#DATA ENDS
