BOXY.EXE: ISS Imagent and Oximeter Data Acquisition Program Version 0.80
Ascii Record File

#ACQ INFORMATION
2  Detector Channels 
16  External MUX Channels 
1  Auxiliary Channels 
5000  Waveform (CCF) Frequency (Hz)
1  Waveforms Skipped 
30  Waveforms Averaged 
1  Cycles Averaged 
16  Acquisitions per Waveform 
10.0806  Updata Rate (Hz) 

#FILE INFORMATION
TRUE -- External MUX Channel results are PARSED.
FALSE -- AC DC and Phase are NOT grouped.
TRUE -- Companion Program Settings File CREATED.
FALSE -- AC data not excluded
FALSE -- DC data not excluded
FALSE -- Phase data not excluded
FALSE -- Auxillary Chn. data not excluded
Tab delimiters

#CALIBRATION STATE
TRUE -- Waveform Calibration Values APPLIED.


#AUX CALIBRATION VALUES
Val Type	aux-1	

Term	1.0000e+00	
Factor	0.0000e+00	


#WF CALIBRATION VALUES
A = Detector Channel
Val Type	A-AC1	A-AC2	A-AC3	A-AC4	A-AC5	A-AC6	A-AC7	A-AC8	A-AC9	A-AC10	A-AC11	A-AC12	A-AC13	A-AC14	A-AC15	A-AC16	A-DC1	A-DC2	A-DC3	A-DC4	A-DC5	A-DC6	A-DC7	A-DC8	A-DC9	A-DC10	A-DC11	A-DC12	A-DC13	A-DC14	A-DC15	A-DC16	A-Ph1	A-Ph2	A-Ph3	A-Ph4	A-Ph5	A-Ph6	A-Ph7	A-Ph8	A-Ph9	A-Ph10	A-Ph11	A-Ph12	A-Ph13	A-Ph14	A-Ph15	A-Ph16	

Term	0.00000e+00	0.00000e+00	0.00000e+00	0.00000e+00	0.00000e+00	0.00000e+00	0.00000e+00	0.00000e+00	0.00000e+00	0.00000e+00	0.00000e+00	0.00000e+00	0.00000e+00	0.00000e+00	0.00000e+00	0.00000e+00	0.00000e+00	0.00000e+00	0.00000e+00	0.00000e+00	0.00000e+00	0.00000e+00	0.00000e+00	0.00000e+00	0.00000e+00	0.00000e+00	0.00000e+00	0.00000e+00	0.00000e+00	0.00000e+00	0.00000e+00	0.00000e+00	0.00000e+00	0.00000e+00	0.00000e+00	0.00000e+00	0.00000e+00	0.00000e+00	0.00000e+00	0.00000e+00	0.00000e+00	0.00000e+00	0.00000e+00	0.00000e+00	0.00000e+00	0.00000e+00	0.00000e+00	0.00000e+00	
Factor	1.00000e+00	1.00000e+00	1.00000e+00	1.00000e+00	1.00000e+00	1.00000e+00	1.00000e+00	1.00000e+00	1.00000e+00	1.00000e+00	1.00000e+00	1.00000e+00	1.00000e+00	1.00000e+00	1.00000e+00	1.00000e+00	1.00000e+00	1.00000e+00	1.00000e+00	1.00000e+00	1.00000e+00	1.00000e+00	1.00000e+00	1.00000e+00	1.00000e+00	1.00000e+00	1.00000e+00	1.00000e+00	1.00000e+00	1.00000e+00	1.00000e+00	1.00000e+00	X	X	X	X	X	X	X	X	X	X	X	X	X	X	X	X	

B = Detector Channel
Val Type	B-AC1	B-AC2	B-AC3	B-AC4	B-AC5	B-AC6	B-AC7	B-AC8	B-AC9	B-AC10	B-AC11	B-AC12	B-AC13	B-AC14	B-AC15	B-AC16	B-DC1	B-DC2	B-DC3	B-DC4	B-DC5	B-DC6	B-DC7	B-DC8	B-DC9	B-DC10	B-DC11	B-DC12	B-DC13	B-DC14	B-DC15	B-DC16	B-Ph1	B-Ph2	B-Ph3	B-Ph4	B-Ph5	B-Ph6	B-Ph7	B-Ph8	B-Ph9	B-Ph10	B-Ph11	B-Ph12	B-Ph13	B-Ph14	B-Ph15	B-Ph16	

Term	0.00000e+00	0.00000e+00	0.00000e+00	0.00000e+00	0.00000e+00	0.00000e+00	0.00000e+00	0.00000e+00	0.00000e+00	0.00000e+00	0.00000e+00	0.00000e+00	0.00000e+00	0.00000e+00	0.00000e+00	0.00000e+00	0.00000e+00	0.00000e+00	0.00000e+00	0.00000e+00	0.00000e+00	0.00000e+00	0.00000e+00	0.00000e+00	0.00000e+00	0.00000e+00	0.00000e+00	0.00000e+00	0.00000e+00	0.00000e+00	0.00000e+00	0.00000e+00	-2.34514e+02	-1.29768e+02	-1.30127e+02	-1.84443e+02	-8.22941e+01	-6.40824e+01	-1.56720e+02	-1.62015e+02	-7.26260e+01	-6.78743e+01	-1.72091e+02	-1.69816e+02	-1.86035e+02	-1.76734e+02	-7.55040e+01	-1.49635e+02	
Factor	5.55501e-05	1.82107e-04	4.65506e-05	3.36067e-01	2.21863e-06	2.08987e-06	1.79340e-01	5.49720e-02	3.07935e-06	1.85942e-06	9.27168e-02	3.06035e-02	5.57620e-02	9.79774e-03	2.10663e-06	1.41981e-02	8.47988e-06	1.03975e-05	2.90508e-06	1.65852e-01	1.11247e-07	1.15048e-07	8.36732e-02	2.73498e-02	1.08864e-07	1.14871e-07	4.47458e-02	1.47719e-02	2.76586e-02	4.92130e-03	1.11357e-07	6.90630e-03	X	X	X	X	X	X	X	X	X	X	X	X	X	X	X	X	



#DISTANCE SETTINGS
A = Detector Channel
A-1	A-2	A-3	A-4	A-5	A-6	A-7	A-8	A-9	A-10	A-11	A-12	A-13	A-14	A-15	A-16	

2.5000e+00	3.0000e+00	2.5000e+00	3.0000e+00	2.0000e+00	3.0000e+00	1.5000e+00	3.0000e+00	3.0000e+00	3.0000e+00	3.0000e+00	3.0000e+00	3.0000e+00	3.0000e+00	1.5000e+00	3.0000e+00	

B = Detector Channel
B-1	B-2	B-3	B-4	B-5	B-6	B-7	B-8	B-9	B-10	B-11	B-12	B-13	B-14	B-15	B-16	

1.0000e+01	1.0000e+01	1.0000e+01	1.4400e+00	1.0000e+01	1.0000e+01	1.5100e+00	1.9400e+00	1.0000e+01	1.0000e+01	1.9900e+00	2.4900e+00	2.4100e+00	2.9000e+00	1.0000e+01	2.9800e+00	




#DATA BEGINS
time	group	step	mark	flag	A-AC1	A-AC2	A-AC3	A-AC4	A-AC5	A-AC6	A-AC7	A-AC8	A-AC9	A-AC10	A-AC11	A-AC12	A-AC13	A-AC14	A-AC15	A-AC16	A-DC1	A-DC2	A-DC3	A-DC4	A-DC5	A-DC6	A-DC7	A-DC8	A-DC9	A-DC10	A-DC11	A-DC12	A-DC13	A-DC14	A-DC15	A-DC16	A-Ph1	A-Ph2	A-Ph3	A-Ph4	A-Ph5	A-Ph6	A-Ph7	A-Ph8	A-Ph9	A-Ph10	A-Ph11	A-Ph12	A-Ph13	A-Ph14	A-Ph15	A-Ph16	B-AC1	B-AC2	B-AC3	B-AC4	B-AC5	B-AC6	B-AC7	B-AC8	B-AC9	B-AC10	B-AC11	B-AC12	B-AC13	B-AC14	B-AC15	B-AC16	B-DC1	B-DC2	B-DC3	B-DC4	B-DC5	B-DC6	B-DC7	B-DC8	B-DC9	B-DC10	B-DC11	B-DC12	B-DC13	B-DC14	B-DC15	B-DC16	B-Ph1	B-Ph2	B-Ph3	B-Ph4	B-Ph5	B-Ph6	B-Ph7	B-Ph8	B-Ph9	B-Ph10	B-Ph11	B-Ph12	B-Ph13	B-Ph14	B-Ph15	B-Ph16	aux-1	digaux	

2656.316	1	1	0	256	0.18781	0.16191	0.21486	0.057149	0.29307	0.13138	0.19043	0.16765	0.13681	0.23761	0.14276	0.1524	0.17069	0.14369	0.29623	0.085103	-2.6562	-3.0354	-3.3125	-3.0687	-2.9667	-3.2646	-3.0542	-3.2062	-3.1271	-2.8479	-3.2375	-3.1083	-3.0104	-3.2562	-3.1688	-3.4042	239.634	87.502	54.101	86.988	132.252	54.902	299.678	297.921	56.326	65.471	193.637	94.785	349.458	70.628	385.410	124.590	0.0014004	0.0011049	0.0001929	697.61	7.714e-06	1.386e-05	1003.5	217.16	2.5548e-05	3.7858e-06	334.64	139.69	67.567	21.93	3.6463e-06	59.191	0.0046878	0.0055932	0.0015557	759.23	5.9729e-05	6.1521e-05	1007	223.3	5.8698e-05	6.1254e-05	345	141.97	78.486	23.82	6.0147e-05	61.182	46.263	180.764	125.946	54.051	156.560	166.795	54.427	59.258	183.255	176.651	58.833	64.095	63.870	69.397	120.025	68.468	-8191	255	
2656.412	1	1	0	0	0.29818	0.14687	0.11962	0.18992	0.10234	0.20548	0.074465	0.18819	0.087266	0.104	0.093891	0.048531	0.16831	0.14531	0.062998	0.08599	-2.7062	-2.8063	-3.3229	-3.0021	-3.0062	-3.3104	-3.0917	-3.2479	-3.1479	-2.9375	-3.325	-3.0938	-2.9729	-3.1813	-2.8375	-3.3	325.561	376.125	200.203	45.657	192.910	393.926	345.190	395.118	65.601	87.722	336.163	191.290	53.421	119.672	177.715	385.781	0.001105	0.0013377	4.6452e-05	704.54	8.8388e-06	6.4174e-06	1010.5	219.14	1.2643e-05	1.038e-05	333.79	139.79	67.828	21.871	9.2827e-06	59.191	0.0046998	0.0056079	0.0015729	760.67	5.9587e-05	6.1688e-05	1008.8	224.08	5.8368e-05	6.0887e-05	345.71	142.29	78.65	23.768	5.9561e-05	61.056	55.239	145.807	240.638	54.527	252.715	241.700	54.323	59.489	92.188	196.414	59.133	64.356	64.337	69.007	177.579	68.530	-8191	255	
2656.484	1	1	0	0	0.12262	0.16613	0.08436	0.44	0.17231	0.11242	0.087352	0.22434	0.055477	0.20203	0.26446	0.16402	0.13268	0.1538	0.12044	0.19816	-2.75	-2.9875	-3.1896	-3.1542	-2.9125	-3.2021	-3.1479	-3.2083	-3.1979	-3.0125	-3.3979	-3.2104	-3.0812	-3.1854	-3.0875	-3.1063	301.749	235.799	209.157	69.822	386.166	308.979	302.858	59.938	387.277	273.980	287.752	361.976	251.789	363.075	182.238	331.500	0.0015166	0.00089118	0.0001727	709.73	6.6887e-06	6.1916e-06	1011.3	218.94	1.9039e-05	1.4152e-06	338.14	140.74	67.994	22.058	8.4029e-06	59.506	0.0046667	0.0055141	0.0015453	762.97	5.9141e-05	6.1248e-05	1011.6	223.91	5.7916e-05	6.0762e-05	347.02	142.52	78.448	23.873	5.8925e-05	61.279	60.078	257.513	105.213	54.604	209.636	92.790	54.593	59.173	215.360	396.859	58.989	64.284	63.942	69.413	228.652	68.822	-8191	255	
2656.605	1	1	0	0	0.15009	0.13165	0.12444	0.073988	0.11406	0.23366	0.076586	0.12482	0.079939	0.23373	0.088445	0.01679	0.216	0.029241	0.07169	0.23628	-2.8646	-2.9354	-3.0771	-3.2979	-2.8875	-3.1562	-3.0417	-3.1792	-3.2438	-2.7833	-3.2812	-3.1375	-3.0271	-3.3125	-3.1104	-3.0354	176.955	197.758	213.373	75.090	165.553	365.845	351.914	319.107	167.231	202.022	59.741	401.298	238.130	115.018	338.572	303.013	0.0013202	0.0019567	0.00038211	706.87	8.4356e-06	2.8112e-06	1010.4	218.16	1.2161e-05	9.6757e-06	335.27	139.45	68.203	21.737	1.0338e-05	58.743	0.0046305	0.0054961	0.0015453	759.8	5.8395e-05	6.1008e-05	1009.3	223.17	5.7491e-05	6.0092e-05	345.16	141.62	78.149	23.649	5.8998e-05	60.589	52.778	113.096	134.434	54.429	152.291	356.097	54.313	59.453	276.397	195.959	59.020	64.255	64.024	69.349	273.361	68.923	-8191	255	
2656.701	1	1	0	0	0.19065	0.22697	0.10866	0.24859	0.061777	0.090703	0.28096	0.022496	0.29984	0.25371	0.12964	0.037257	0.088631	0.26725	0.25214	0.15832	-2.7812	-2.9562	-3.1646	-3.2333	-2.8604	-3.2417	-3.2271	-3.0771	-3.2708	-2.9917	-3.0854	-3.1958	-3.0542	-3.1875	-3.0646	-3.3	349.745	330.248	146.970	356.016	298.633	256.469	391.678	390.515	93.529	210.800	362.372	110.267	249.558	319.121	127.278	398.258	0.0015136	0.00063471	0.00014215	704.97	1.6837e-05	8.3593e-06	1004.2	217.66	9.8808e-06	6.5815e-06	336.27	138.9	67.337	21.815	1.5361e-05	59.08	0.0046061	0.0054732	0.0015275	757.16	5.8262e-05	6.0862e-05	1004.5	222.29	5.726e-05	6.0361e-05	344.43	141.24	77.989	23.652	5.7951e-05	60.819	42.368	167.345	100.366	54.321	161.892	137.728	54.242	59.198	52.962	271.803	59.183	64.383	64.148	69.057	189.585	68.865	-8191	255	
2656.797	1	1	0	0	0.26554	0.17052	0.066109	0.036702	0.26907	0.096713	0.26778	0.11904	0.12081	0.06799	0.072542	0.19936	0.27739	0.19065	0.18792	0.25354	-2.8479	-2.8	-3.0229	-3.2875	-2.8208	-3.2521	-3.2188	-3.0375	-3.3271	-3.15	-3.1396	-3.2604	-2.8354	-3.2812	-2.9896	-3.0312	89.543	161.288	256.756	139.167	229.065	276.167	376.225	275.600	302.484	262.079	291.761	99.111	384.002	378.664	183.564	275.288	0.0010224	0.00061892	9.9436e-05	703.83	8.1556e-06	5.8813e-06	1007.5	218.34	1.6623e-05	9.1815e-06	333.62	139.47	67.74	21.971	1.1299e-05	59.048	0.0046162	0.0054286	0.0015223	756.62	5.8152e-05	6.0855e-05	1007.1	222.95	5.6981e-05	5.9917e-05	344.44	141.84	78.14	23.645	5.8599e-05	60.924	42.969	84.518	250.228	54.541	169.297	307.019	54.715	59.583	179.327	214.933	59.118	64.181	63.874	68.517	167.500	68.718	-8191	255	
2656.893	1	1	0	0	0.023819	0.24016	0.044648	0.059374	0.18201	0.1461	0.20637	0.033742	0.20281	0.096869	0.068467	0.11426	0.13902	0.35202	0.073693	0.079996	-2.7583	-3.0583	-3.0187	-3.3354	-2.9062	-3.2042	-3.4104	-2.9458	-3.1688	-3.0792	-3.2104	-3.3542	-3.0125	-3.1125	-3.3271	-3.0208	345.033	299.608	106.555	281.348	339.008	221.572	224.348	84.342	195.358	355.675	327.835	280.621	191.542	69.306	181.331	54.107	0.0011994	0.00051604	0.00022869	706	8.1746e-06	5.1061e-06	1008.2	218.79	2.503e-05	3.8508e-06	336.73	139.9	67.655	21.966	9.8174e-06	59.472	0.0046462	0.0054441	0.0015367	760.16	5.8618e-05	6.1255e-05	1008.3	223.45	5.8497e-05	6.1517e-05	346.54	142.54	78.553	23.836	5.9275e-05	61.365	42.544	151.724	108.369	54.222	269.351	151.913	54.579	59.449	167.112	212.012	59.019	64.110	64.624	69.566	131.546	68.638	-8191	255	
2657.012	1	1	0	0	0.073224	0.18786	0.11278	0.049966	0.088576	0.097964	0.13889	0.11723	0.14228	0.11858	0.21379	0.017522	0.11265	0.17836	0.20356	0.12304	-2.8812	-3.0333	-2.8937	-3.3458	-3.0167	-3.2188	-3.3771	-3.0646	-3.1917	-3.0708	-2.9417	-3.3688	-2.825	-2.8958	-3.2438	-2.9667	190.453	43.487	377.101	97.684	88.091	362.847	351.461	47.878	236.155	364.223	339.662	157.143	333.073	330.661	330.598	181.309	0.0014567	0.0011778	0.00012613	707.23	1.018e-05	1.0438e-05	1012	219.33	1.8439e-05	6.2109e-06	337.41	140.28	67.822	22.069	1.1117e-05	59.592	0.0046697	0.0055082	0.0015263	762.04	5.8946e-05	6.0562e-05	1012.5	224.28	5.7809e-05	6.0831e-05	346.88	142.55	78.339	23.825	5.8932e-05	61.312	44.993	143.291	131.376	54.142	211.869	159.995	54.571	59.374	182.229	198.897	59.116	64.066	64.178	69.338	193.794	68.705	-8191	255	
2657.108	1	1	0	0	0.17066	0.12255	0.04765	0.063261	0.055145	0.089138	0.21771	0.41655	0.12316	0.14181	0.15814	0.12443	0.037243	0.11322	0.033038	0.27763	-2.8604	-3.075	-3.0167	-3.2667	-2.9125	-3.0354	-3.4979	-2.8521	-3.2188	-3.2896	-3.0833	-3.2708	-2.9437	-2.8479	-3.2958	-2.9042	265.451	250.151	221.065	375.447	268.605	191.987	375.124	309.720	128.592	190.717	279.972	281.225	99.226	65.263	187.470	50.342	0.00098032	0.0011105	7.3243e-05	706.15	8.9085e-06	1.2733e-05	1007.7	218.23	1.2222e-05	3.5414e-06	335.32	139.1	67.29	21.919	5.8786e-06	59.352	0.0047157	0.0054985	0.0015559	760.31	5.9797e-05	6.1312e-05	1007.9	222.65	5.7838e-05	6.0811e-05	345.11	141.74	78.019	23.803	5.9025e-05	61.104	47.888	98.493	68.208	54.375	349.546	145.112	54.478	59.193	252.422	134.517	59.256	64.223	64.439	69.446	140.978	68.551	-8191	255	
2657.182	1	1	0	0	0.10316	0.28357	0.15819	0.18157	0.091519	0.055571	0.13438	0.039971	0.15233	0.17157	0.21564	0.087916	0.16639	0.1477	0.16545	0.233	-2.7875	-2.9479	-2.9667	-3.2625	-2.9958	-3.0417	-3.5083	-2.9271	-3.125	-3.1354	-3.0417	-3.2812	-3.0104	-3.0104	-3.2167	-3.0083	167.028	95.047	113.557	355.519	101.741	108.493	316.653	283.531	114.854	338.973	324.832	290.127	284.297	312.979	129.978	302.276	0.001011	0.00015637	0.0001472	704.69	1.1209e-05	4.511e-06	1006	217.88	1.4449e-05	3.389e-06	336.05	139.79	67.72	21.963	7.6835e-06	59.829	0.0046668	0.0055041	0.0015349	760.16	5.9061e-05	6.0981e-05	1007.1	223.18	5.8446e-05	6.1056e-05	345.42	142.17	78.223	23.809	5.9516e-05	61.426	399.435	48.643	115.499	54.502	150.811	247.784	54.394	59.029	215.769	376.992	58.873	64.081	63.886	69.562	131.461	68.740	-8191	255	
2657.301	1	1	0	0	0.13392	0.1479	0.059338	0.18878	0.080798	0.14818	0.12619	0.1177	0.2306	0.017551	0.28374	0.016201	0.13209	0.11772	0.14625	0.023956	-2.625	-3.2146	-2.9042	-3.2562	-3.0208	-2.8625	-3.2167	-3.0208	-2.9667	-3.2271	-2.8792	-3.05	-3.2812	-3.0146	-3.4208	-3.2479	115.135	193.560	177.296	384.151	170.348	282.039	50.031	82.479	49.118	141.201	351.692	202.994	78.325	214.915	105.016	43.653	0.0012676	0.0001544	0.00014796	705.71	1.0815e-05	6.3611e-06	1007.7	219.61	8.3798e-06	3.795e-06	336.81	140.94	67.761	22.032	1.43e-05	59.521	0.0046473	0.0054892	0.0015297	761.74	5.9123e-05	6.0641e-05	1009.7	223.7	5.7902e-05	6.072e-05	346.11	142.67	78.3	23.81	5.919e-05	61.335	49.354	401.094	105.245	54.538	288.182	219.132	54.357	59.226	250.332	123.652	58.891	64.148	64.283	69.040	156.637	68.807	-8191	255	
2657.397	1	1	0	0	0.099757	0.090921	0.15138	0.27403	0.090374	0.22903	0.16753	0.27305	0.13327	0.14484	0.062287	0.10758	0.24102	0.25209	0.14082	0.28481	-2.6958	-3.2021	-2.8729	-3.2458	-3.0292	-2.7979	-3.3146	-2.9938	-3.1542	-3.1896	-2.9083	-3.2979	-3.2229	-2.9188	-3.3646	-3.2	74.917	75.790	59.203	106.927	262.856	309.473	373.544	363.290	357.318	46.278	230.285	193.728	353.079	284.914	322.967	307.818	0.0010599	0.0011902	0.00028977	708.71	6.2011e-06	5.9314e-06	1018.3	219.14	2.4279e-05	5.8677e-06	337.52	140.73	68.222	21.806	3.6002e-06	59.122	0.0046047	0.0054655	0.001523	762.92	5.7998e-05	6.0273e-05	1015.3	224.14	5.6927e-05	5.9865e-05	347.34	142.8	78.5	23.639	5.792e-05	60.848	41.182	110.260	193.448	54.581	175.457	123.991	54.675	59.047	169.066	141.513	59.002	64.226	63.746	69.128	260.226	68.820	-8191	255	
2657.493	1	1	0	0	0.13373	0.016071	0.20659	0.1009	0.18272	0.028499	0.16426	0.30953	0.10863	0.15393	0.092393	0.23074	0.17939	0.04299	0.19283	0.19637	-2.5458	-3.2229	-3.2	-3.1937	-3.3708	-3.1042	-3.5167	-3.1417	-2.9479	-3.5458	-3.0771	-3.1771	-3.2542	-2.8917	-3.1979	-3.3063	168.713	335.864	181.048	270.474	300.154	102.640	396.078	388.750	338.547	82.297	296.853	93.485	248.830	379.835	286.306	383.058	0.0011991	0.0010737	0.0001953	706.24	1.2684e-05	2.9521e-06	1009.9	219.49	2.3658e-05	1.8751e-06	336.85	139.84	67.489	21.679	7.6485e-06	58.578	0.0045275	0.0054251	0.0015152	759.27	5.7796e-05	5.9558e-05	1009.1	223.74	5.6735e-05	5.9715e-05	345.77	141.88	77.934	23.488	5.7626e-05	60.452	399.851	55.540	93.037	54.090	145.568	305.456	54.562	59.047	216.790	53.942	58.986	64.516	64.201	69.231	311.357	68.930	-8191	255	
2657.589	1	1	0	0	0.082615	0.082744	0.028249	0.1098	0.14246	0.43077	0.096919	0.26478	0.29479	0.15469	0.19963	0.10575	0.16843	0.23214	0.1161	0.20375	-2.6063	-3.2792	-2.95	-3.1104	-3.275	-3	-3.2229	-3.2188	-2.9479	-3.45	-3.1667	-3.175	-3.1146	-3.0812	-3.0979	-3.2917	118.796	300.649	202.673	103.021	320.721	90.812	215.754	292.048	187.994	145.952	370.091	322.215	297.806	356.877	261.592	325.656	0.0012268	0.00085866	0.00023592	703.59	2.3491e-06	4.214e-06	1010.2	219.38	4.3647e-06	5.4407e-06	335.49	139.55	67.169	21.429	1.593e-05	58.953	0.0044957	0.0054664	0.0014859	755.58	5.7846e-05	5.9367e-05	1007.4	223.56	5.6305e-05	5.9362e-05	344.89	141.88	77.858	23.377	5.7193e-05	60.563	400.964	331.396	102.529	54.460	134.634	198.281	54.636	59.265	53.382	184.329	59.019	64.299	64.697	68.893	205.842	68.687	-8191	255	
2657.710	1	1	0	0	0.19392	0.32081	0.30606	0.24368	0.1835	0.21789	0.25888	0.2297	0.10999	0.018147	0.16865	0.036377	0.10744	0.080546	0.19044	0.07888	-2.6354	-3.2667	-2.9167	-3.05	-3.2479	-2.9979	-3.2792	-3.2125	-2.9958	-3.1937	-3.1979	-3.1646	-3.3229	-3.0438	-3.0917	-3.4667	143.275	104.809	161.422	278.337	66.510	397.684	318.529	354.790	196.200	221.828	387.760	307.612	45.144	315.743	237.073	227.971	0.0012635	0.0016736	9.1421e-05	703.84	8.4433e-06	3.0038e-06	1008.9	220.62	1.3644e-05	1.4431e-05	336.94	141.01	67.797	21.651	6.6289e-06	58.914	0.0045012	0.0054311	0.0014837	758.71	5.7724e-05	5.9066e-05	1008.2	224.44	5.5904e-05	5.9073e-05	346.44	142.49	78.409	23.513	5.7507e-05	60.57	395.886	120.346	275.099	54.576	206.920	247.636	54.527	59.343	185.077	256.645	59.034	64.196	64.507	69.056	65.730	68.863	-8191	255	
2657.781	1	1	0	0	0.40633	0.13033	0.1208	0.20545	0.052466	0.099958	0.032163	0.173	0.29002	0.20384	0.097249	0.10918	0.24722	0.38712	0.2496	0.36884	-2.5708	-3.275	-3.0875	-2.9583	-3.2708	-2.9625	-3.3771	-3.4396	-3.0604	-3.2979	-3.1958	-2.9729	-3.2292	-3.0271	-3.0396	-3.3854	48.668	120.717	254.668	218.174	372.636	105.363	387.457	367.786	246.787	322.284	213.164	377.739	257.810	391.900	332.065	381.318	0.0011716	0.0007932	0.00016733	707.47	9.4796e-06	1.2556e-05	1013.6	221.39	1.8182e-05	6.7089e-06	335.65	141.49	68.238	21.894	6.0328e-06	59.287	0.0044812	0.0053826	0.0014954	760.47	5.7319e-05	5.9402e-05	1012.2	225.85	5.6701e-05	6.0457e-05	347.22	143.32	78.896	23.672	5.7969e-05	61.096	57.518	380.379	165.712	54.469	171.115	174.371	54.516	59.213	231.723	136.868	59.275	64.285	63.887	69.410	250.578	68.758	-8191	255	
2657.902	1	1	0	0	0.072982	0.072136	0.086433	0.33219	0.051581	0.084123	0.077552	0.16283	0.11738	0.070132	0.17503	0.24891	0.22218	0.32217	0.15282	0.094547	-2.625	-3.275	-3.1354	-2.9667	-3.275	-2.9417	-3.3292	-3.55	-2.9813	-3.0542	-3.3917	-2.9771	-3.0521	-2.8979	-2.9146	-3.2687	235.903	401.017	385.918	103.962	82.256	384.630	363.961	263.072	346.123	232.818	269.944	126.753	201.220	332.039	177.247	317.837	0.0011846	0.00063139	0.00026263	713.61	6.6358e-06	1.5878e-05	1008.5	220.13	1.3832e-05	2.5733e-06	337.2	140.98	68.131	21.665	5.8663e-06	59.254	0.0045669	0.005418	0.001513	761.19	5.8132e-05	6.0289e-05	1009.9	224.89	5.7184e-05	6.0955e-05	347.32	142.58	78.883	23.512	5.8435e-05	60.83	65.647	66.541	94.064	54.426	188.530	214.412	54.522	59.299	215.289	166.310	58.717	64.318	64.457	68.772	79.221	68.654	-8191	255	
2657.998	1	1	0	0	0.16583	0.27622	0.039661	0.11059	0.15334	0.23321	0.3031	0.12127	0.024439	0.16709	0.051776	0.37181	0.15094	0.04886	0.099391	0.39076	-2.6667	-3.0542	-3.2396	-2.8937	-3.2625	-3.1354	-2.9458	-3.4188	-2.9479	-2.9042	-3.1417	-2.9958	-3.1417	-3.175	-3.0167	-3.2958	49.735	240.655	299.334	236.128	371.385	202.864	335.368	342.949	234.063	251.989	170.540	392.593	395.295	370.447	195.813	291.199	0.001051	0.00085744	2.2051e-06	698.21	8.5822e-06	1.7311e-05	1009.5	219.12	1.0465e-05	3.4718e-06	338.8	141.39	68.34	21.641	6.1245e-06	59.366	0.0046267	0.0054831	0.0015285	757.18	5.8809e-05	6.043e-05	1007.3	224.43	5.7451e-05	6.0849e-05	348.04	143.29	79.043	23.544	5.8265e-05	61.049	47.821	194.018	291.692	54.360	262.183	223.668	54.776	59.229	254.801	241.061	59.007	64.136	64.499	69.479	102.413	68.865	-8191	255	
2658.092	1	1	0	0	0.051818	0.10987	0.061842	0.051032	0.16606	0.08307	0.12718	0.21167	0.05529	0.18185	0.14435	0.23614	0.21776	0.16548	0.33195	0.15276	-2.475	-3.0542	-3.2875	-2.9708	-3.2042	-2.9	-3.2125	-3.2271	-2.9521	-3.1625	-3.4521	-2.8979	-3.2708	-3.0729	-2.8708	-3.3792	175.986	183.587	158.580	48.832	222.454	400.301	106.010	317.162	248.735	113.107	84.758	76.944	374.104	77.295	146.492	105.592	0.00094835	0.00058594	0.00010797	706.15	1.9402e-05	1.096e-05	1012	219.51	9.2245e-06	3.0364e-06	338.81	142.26	67.824	21.963	6.7086e-06	59.625	0.0046264	0.0054944	0.0015487	763.09	5.9037e-05	6.1241e-05	1011.6	225.48	5.7255e-05	6.0535e-05	349.31	143.91	79.04	23.779	5.9512e-05	61.389	46.403	134.762	74.598	54.454	165.348	202.868	54.502	59.229	198.262	249.994	58.904	64.201	64.191	68.969	111.300	68.882	-8191	255	
2658.189	1	1	0	0	0.13491	0.3071	0.33833	0.14781	0.20522	0.20571	0.042038	0.15039	0.1875	0.090836	0.076142	0.030871	0.038358	0.11544	0.11115	0.12876	-2.6063	-2.9875	-3.1625	-2.8937	-3.3083	-3.1875	-3.1937	-3.2667	-2.9646	-3.0417	-3.3271	-2.9375	-2.9437	-3.0917	-2.8625	-3.1646	48.884	390.972	63.038	105.000	182.649	325.213	135.227	260.471	225.831	392.516	192.387	204.253	327.077	156.779	353.063	347.931	0.0011702	0.00092143	0.00027113	706.53	8.9115e-06	4.4566e-06	1015.4	223.06	1.9793e-05	1.2178e-05	340.64	142.23	68.521	21.939	1.1653e-05	59.974	0.0045996	0.0054893	0.0015377	762.74	5.8827e-05	6.0896e-05	1015.5	227.09	5.7061e-05	6.0294e-05	351.24	144.31	78.911	23.792	5.7682e-05	61.534	57.254	388.655	182.137	54.397	253.626	131.604	54.362	59.160	123.386	260.531	58.930	64.011	64.138	69.288	216.167	68.945	-8191	255	
2658.309	1	1	0	0	0.07058	0.085974	0.14228	0.29486	0.33983	0.2519	0.14024	0.094746	0.14188	0.21037	0.25086	0.034429	0.081611	0.063205	0.069387	0.14214	-2.8958	-2.9208	-3.3333	-3.1333	-3.1521	-3.2271	-3.0667	-3.2208	-3.0771	-2.9021	-3.4188	-3.1625	-3.0375	-3.3271	-3.0292	-3.3187	361.871	392.274	254.183	74.339	169.843	236.661	169.269	353.383	298.166	184.903	283.147	92.886	59.982	222.493	55.078	311.700	0.0011765	0.0005475	0.00030243	711.32	1.1538e-05	8.9212e-06	1013.3	222.17	9.3219e-06	1.9754e-07	342.44	141.94	68.639	21.856	1.0714e-05	58.957	0.0045502	0.005363	0.0015119	764.98	5.7338e-05	5.881e-05	1014.5	227.01	5.53e-05	5.876e-05	350.87	143.57	78.469	23.652	5.7348e-05	60.798	51.633	195.977	157.432	54.001	181.509	205.533	54.253	59.275	141.016	369.760	58.993	64.071	63.680	69.374	250.498	68.739	-8191	255	
2658.405	1	1	0	0	0.12097	0.12561	0.1569	0.1121	0.14951	0.054876	0.087651	0.147	0.25065	0.26837	0.12192	0.1963	0.21934	0.26181	0.089021	0.14463	-2.7313	-2.9167	-3.1063	-3.0375	-3.1354	-3.1917	-3.0875	-3.2062	-3.0979	-2.6937	-3.1771	-3.1354	-3.0875	-3.2125	-3.0062	-3.0417	42.753	58.542	177.566	386.073	361.940	378.473	178.154	152.526	329.478	381.595	90.110	271.910	225.867	137.430	262.576	345.879	0.0014258	0.00034453	0.00026554	709.54	7.4237e-06	2.7134e-06	1011.2	220.32	1.0815e-05	6.9002e-06	339.56	141.34	68.088	21.718	8.0155e-06	59.176	0.0044799	0.0053207	0.0014995	759.46	5.6847e-05	5.9105e-05	1008.3	225.04	5.5439e-05	5.8826e-05	348.71	142.88	78.19	23.555	5.6758e-05	60.789	42.366	85.067	102.280	54.422	264.357	200.898	54.545	59.040	157.341	391.670	58.762	64.314	64.184	69.243	82.653	68.704	-8191	255	
2658.477	1	1	0	0	0.12917	0.24453	0.16666	0.20289	0.12142	0.10081	0.19221	0.20962	0.10262	0.10456	0.1541	0.18244	0.14857	0.028235	0.14769	0.25696	-2.7292	-2.8187	-3.1604	-3.0208	-2.9375	-3.275	-2.8042	-3.1708	-3.3042	-2.9854	-3.1125	-3.0292	-3.0104	-3.2354	-2.7771	-3.0896	219.805	245.644	275.668	103.268	235.356	223.282	159.720	359.492	59.535	205.819	265.551	74.638	108.532	318.742	360.110	327.085	0.001301	0.00067898	0.00029382	714.12	7.4986e-06	8.1517e-06	1007.4	220.49	2.3626e-05	7.4134e-06	340.02	140.71	68.094	21.618	3.8338e-06	58.931	0.0044831	0.0052754	0.0014988	760.88	5.7099e-05	5.9241e-05	1007.6	225.07	5.5948e-05	5.8956e-05	349.15	142.77	78.054	23.543	5.7125e-05	60.804	394.610	139.500	172.451	54.474	168.823	204.298	54.383	59.281	179.331	211.139	58.884	64.179	64.317	68.947	367.055	68.866	-8191	255	
2658.573	1	1	0	0	0.11215	0.26154	0.16323	0.18334	0.065159	0.18663	0.24959	0.17928	0.27518	0.14861	0.30878	0.151	0.28237	0.13912	0.12401	0.23054	-2.7146	-2.8396	-3.1312	-3.0375	-2.925	-3.2042	-3.0646	-3.1521	-3.3208	-3.0687	-3.225	-3.2917	-2.8271	-3.3771	-3.1042	-3.1271	114.131	145.411	200.376	367.582	354.261	162.730	292.318	319.085	60.329	202.852	364.264	355.028	399.492	239.299	136.096	84.855	0.0012379	0.00029866	0.0002621	704.93	1.4322e-05	1.5538e-05	1010.5	221.09	1.6187e-05	4.257e-06	340.26	140.4	67.846	21.691	8.9046e-06	59.059	0.0045191	0.0052985	0.0014963	759.06	5.6775e-05	5.913e-05	1009.2	224.87	5.5756e-05	5.9073e-05	350.07	142.59	78.197	23.545	5.6806e-05	60.913	43.256	309.222	144.195	54.559	134.297	180.222	54.529	59.078	62.366	229.611	59.217	64.219	64.570	69.112	175.789	68.762	-8191	255	
2658.669	1	1	0	0	0.028538	0.073445	0.24848	0.11737	0.12824	0.40236	0.040468	0.1053	0.19354	0.44303	0.12283	0.17941	0.16427	0.16137	0.22877	0.18962	-2.8438	-2.8521	-3.1937	-3.2313	-2.8021	-3.2333	-3.1708	-3.0646	-3.2417	-2.975	-3.2354	-3.175	-2.8833	-3.3042	-3.1083	-3.1708	232.991	343.683	257.190	73.250	160.338	369.993	369.964	341.614	183.434	186.579	391.332	305.963	138.181	316.189	167.887	322.284	0.0014535	0.00011403	0.00015454	710.37	7.0224e-06	8.6349e-06	1006.7	220.07	1.3958e-05	7.4891e-06	339.34	140.88	67.529	21.768	1.0592e-05	58.917	0.0045262	0.0053569	0.0015011	760.62	5.7825e-05	6.031e-05	1009.9	224.92	5.7269e-05	6.0045e-05	348.72	142.76	78.225	23.649	5.804e-05	60.826	50.948	58.093	186.907	53.905	349.590	241.825	54.476	59.484	208.375	217.999	58.922	64.221	64.628	69.156	244.125	68.862	-8191	255	
2658.790	1	1	0	0	0.13144	0.23422	0.087698	0.062786	0.22343	0.1876	0.24459	0.20553	0.24778	0.060525	0.37515	0.18655	0.038306	0.35432	0.29484	0.17431	-2.6875	-2.8625	-3.0979	-3.2125	-2.9646	-3.0979	-3.1375	-2.9604	-3.0833	-3.0438	-3.1229	-3.15	-2.9875	-3.1979	-3.1229	-2.9521	142.176	366.010	221.379	90.293	294.748	71.907	262.649	302.246	283.181	144.503	305.889	312.114	358.644	355.184	371.963	73.418	0.0014821	0.00047884	2.9449e-05	703.27	1.4704e-05	1.0988e-05	1005.7	218.44	1.8678e-05	6.749e-06	337.17	139.62	67.308	21.836	9.6543e-06	58.939	0.004623	0.0054204	0.0015197	759.75	5.8103e-05	5.9851e-05	1005.4	223.17	5.795e-05	6.0056e-05	347.34	141.88	78.042	23.654	5.9104e-05	60.871	53.883	238.062	373.418	54.184	87.002	203.884	54.613	59.262	194.493	145.116	59.164	64.058	63.638	69.028	204.184	68.613	-8191	255	
2658.886	1	1	0	0	0.082576	0.10818	0.25272	0.22163	0.02535	0.29868	0.2377	0.30345	0.11208	0.132	0.055786	0.10005	0.084976	0.11134	0.087714	0.33934	-2.8354	-2.9021	-2.9979	-3.2062	-3.0312	-3.1188	-3.2771	-2.9292	-3.1708	-2.9583	-2.9938	-3.3812	-2.9417	-3.1271	-3.0271	-3.0146	66.213	276.046	67.673	382.046	397.112	260.936	391.267	345.536	351.530	400.960	335.068	114.884	111.131	282.610	43.295	327.691	0.0012543	0.00031467	0.00013716	703.16	1.1836e-05	1.205e-05	1005.8	216.8	6.0169e-06	1.1454e-05	337.88	139.52	67.703	21.785	1.2848e-05	59.3	0.0046642	0.0055206	0.0015259	758.75	5.885e-05	6.1063e-05	1006.5	222.59	5.8317e-05	6.0353e-05	347.79	142.05	78.233	23.703	5.9294e-05	61.265	54.829	300.728	300.885	54.477	233.734	198.098	54.584	59.016	280.454	189.407	58.802	64.044	64.311	68.785	195.962	68.632	-8191	255	
2658.982	1	1	0	0	0.029298	0.25336	0.22202	0.14083	0.092677	0.17515	0.22334	0.14038	0.17806	0.34003	0.21485	0.30605	0.13731	0.41561	0.022194	0.2145	-2.8271	-2.9396	-2.925	-3.1021	-3.0646	-3.0646	-3.2521	-2.9208	-3.1417	-2.9646	-3.0125	-3.2938	-2.8375	-3.0354	-3.125	-3.0396	105.370	332.757	367.785	95.239	331.988	136.153	391.028	318.208	383.252	50.764	70.612	376.162	293.462	71.182	217.323	301.656	0.00099652	0.00032249	0.00026771	708.03	1.7706e-05	1.0217e-05	1008.7	217.61	1.6154e-05	1.3072e-05	338.71	140.8	67.202	22.039	6.7541e-06	59.515	0.0046659	0.0055351	0.0015414	760.85	5.8953e-05	6.1548e-05	1008	223.09	5.8357e-05	6.124e-05	348.94	142.73	78.03	23.753	5.9075e-05	61.297	45.416	165.216	96.675	54.896	118.746	179.661	54.366	59.046	237.961	228.233	58.893	64.355	64.167	69.091	147.158	68.885	-8191	255	
2659.078	1	1	0	0	0.15449	0.11281	0.24171	0.037672	0.081318	0.060833	0.17884	0.21822	0.072933	0.24607	0.11311	0.13609	0.054372	0.23708	0.15875	0.34815	-2.7417	-2.8875	-3.0146	-3.1521	-3.0625	-3.0354	-3.4792	-3.0312	-3.1562	-3.1792	-2.9917	-3.2438	-3.0375	-3.1167	-3.2271	-3.0042	151.999	384.314	83.797	259.978	211.482	49.574	303.085	307.920	175.010	266.917	121.112	379.088	63.230	103.030	258.339	338.576	0.0011097	0.00044253	0.00045451	709.78	9.1277e-06	3.3945e-06	1011.3	219.71	1.0967e-05	2.7835e-06	342.21	140.64	67.788	21.696	6.5419e-06	59.575	0.004614	0.0055054	0.0015419	762.69	5.8286e-05	6.0837e-05	1011.1	224.1	5.7536e-05	6.0516e-05	351.44	142.88	78.254	23.654	5.9128e-05	61.24	54.501	103.459	143.574	54.250	283.691	331.471	54.545	59.027	128.477	395.587	58.912	64.232	64.110	68.765	169.308	68.700	-8191	255	
2659.173	1	1	0	0	0.19857	0.049934	0.088534	0.30984	0.13989	0.13626	0.26945	0.14625	0.28694	0.11821	0.1756	0.33412	0.20805	0.10861	0.14445	0.14965	-2.6	-3.0125	-2.8708	-3.15	-2.7229	-3.1104	-3.3521	-2.9938	-2.9792	-2.9813	-2.925	-3.2625	-3.0021	-3.0208	-3.1604	-2.9854	182.653	363.622	46.959	311.733	122.815	253.007	343.368	387.914	355.967	367.120	378.508	365.976	113.017	373.023	366.850	256.148	0.0014872	0.0010637	0.00039402	704.05	9.7985e-06	1.3534e-05	1007.4	218.76	3.75e-06	1.0125e-05	339.6	139.14	65.773	21.809	7.4706e-06	58.726	0.0045696	0.0054117	0.0015114	758.22	5.7904e-05	5.9204e-05	1008	223	5.6584e-05	5.9678e-05	347.94	141.11	76.992	23.473	5.7274e-05	60.442	47.549	261.574	158.560	53.881	75.959	251.500	54.623	59.218	271.362	224.767	58.768	64.663	64.374	68.919	242.239	68.498	-8191	255	
2659.271	1	1	0	0	0.088326	0.12308	0.087445	0.12206	0.043652	0.16869	0.39872	0.15622	0.24848	0.23973	0.10949	0.0857	0.08927	0.20247	0.099826	0.048944	-2.575	-3.0896	-2.7958	-3.35	-2.9062	-3.0687	-3.2854	-2.925	-2.8937	-3.0875	-3.0167	-3.1417	-2.9896	-2.9479	-3.2687	-2.8271	52.710	45.966	182.470	193.417	230.641	329.639	355.264	394.970	282.872	231.994	309.563	53.301	209.110	72.672	42.261	125.869	0.00091482	0.00053608	0.00035347	702.95	1.0778e-05	4.9046e-06	1004.8	217.82	2.707e-05	9.2011e-06	338.44	139.52	67.211	21.678	8.4659e-06	59.198	0.0045039	0.0053535	0.0014745	757.32	5.6693e-05	5.8854e-05	1004.6	222.5	5.5232e-05	5.8945e-05	347.24	141.33	77.345	23.497	5.7641e-05	60.75	46.999	165.970	104.080	54.376	149.691	231.235	54.495	59.134	194.303	136.441	59.167	64.180	64.378	69.442	340.939	68.496	-8191	255	
2659.390	1	1	0	0	0.13605	0.22856	0.26982	0.29037	0.20676	0.14271	0.14837	0.32971	0.083523	0.28528	0.12659	0.20401	0.16745	0.24588	0.1678	0.12703	-2.4729	-3.1833	-2.8125	-3.2208	-3.0792	-2.8354	-3.4479	-2.8438	-3.0521	-3.1417	-2.9062	-3.3	-3.1479	-2.9167	-2.9792	-3.025	122.725	66.087	72.879	320.061	395.573	306.867	348.833	50.155	210.186	195.549	241.018	266.099	229.406	107.143	53.100	324.239	0.0011332	0.00044976	0.00027427	703.86	1.7821e-05	5.7118e-06	1004.4	217.36	1.3708e-05	4.0627e-06	337.17	138.9	66.46	21.66	1.2233e-05	59.219	0.0044719	0.0053403	0.0014782	756.14	5.6581e-05	5.8634e-05	1006.2	222.31	5.5774e-05	5.8602e-05	346.46	141.05	77.096	23.513	5.6994e-05	60.938	51.676	188.063	203.459	54.443	146.855	194.826	54.702	58.968	257.809	62.730	58.619	64.247	64.271	69.181	141.391	68.667	-8191	255	
2659.486	1	1	0	0	0.12522	0.19178	0.11739	0.037568	0.10729	0.18161	0.21199	0.21549	0.098967	0.36745	0.094624	0.14319	0.095446	0.14007	0.09855	0.045436	-2.5104	-3.2062	-2.7104	-3.1396	-3.1729	-2.8208	-3.4188	-3.0667	-2.8688	-3.1479	-2.8396	-3.2479	-3.3521	-2.9479	-3.4104	-3.1917	376.849	199.874	176.271	332.943	393.515	294.176	400.474	197.963	171.017	313.679	306.392	252.303	207.554	386.998	200.359	67.067	0.0011844	0.0010742	0.00012105	710.31	4.6589e-06	5.6034e-06	1008.2	217.44	2.1997e-05	5.4317e-06	336.25	138.45	66.131	21.759	1.4796e-06	59.064	0.0044784	0.0052836	0.0014784	758.23	5.6717e-05	5.8154e-05	1005.7	221.35	5.5624e-05	5.8789e-05	345.97	140.5	76.96	23.568	5.7384e-05	60.97	70.716	155.371	395.834	54.394	266.830	325.029	54.357	59.082	202.443	264.675	58.944	64.135	64.896	69.002	381.009	68.474	-8191	255	
2659.582	1	1	0	0	0.053944	0.075928	0.16724	0.14566	0.18894	0.13789	0.082559	0.22532	0.19943	0.16037	0.20389	0.047958	0.17809	0.035625	0.30753	0.047232	-2.5792	-3.2438	-2.725	-3.1333	-3.1063	-2.9458	-3.3688	-3.0083	-2.7458	-3.1021	-3.1167	-3.1292	-3.2479	-2.9479	-3.0979	-3.1312	170.062	381.013	90.290	91.916	321.475	355.153	50.063	398.846	293.727	394.248	276.493	248.976	200.363	128.397	389.238	102.738	0.0013247	0.00072111	0.00020787	703.66	8.509e-06	8.6211e-06	1007.3	216.03	1.8853e-05	9.1619e-06	335.77	137.9	66.361	21.461	7.7523e-06	59.121	0.0045042	0.0053508	0.001494	757.89	5.7302e-05	5.9109e-05	1002.3	220.53	5.5949e-05	5.9286e-05	344.22	139.59	76.562	23.407	5.6509e-05	60.552	44.670	118.777	99.293	54.119	362.205	205.404	54.499	59.253	160.721	186.050	58.864	64.131	63.901	68.817	274.777	68.666	-8191	255	
2659.678	1	1	0	0	0.14894	0.23552	0.2085	0.18806	0.1375	0.12927	0.13302	0.15991	0.11219	0.1407	0.11582	0.044126	0.10392	0.25264	0.05587	0.25885	-2.4271	-3.1917	-2.6917	-3.1042	-3.2188	-3.0521	-3.2729	-3.0792	-3.0083	-3.1833	-2.9625	-2.9917	-3.2521	-2.9208	-3.1729	-3.2458	323.722	289.635	95.092	258.742	370.101	157.305	44.218	191.032	293.431	67.033	362.000	129.994	149.510	351.884	103.961	342.506	0.0011472	0.00068928	0.00039365	704.21	8.5717e-06	1.6204e-05	1006.2	216.85	6.0775e-06	5.5807e-06	337.03	138.17	66.735	21.711	3.4257e-06	59.109	0.0044519	0.0052657	0.0014672	752.57	5.67e-05	5.7406e-05	1003.1	220.97	5.4952e-05	5.8636e-05	346.25	140.2	76.782	23.493	5.7665e-05	60.875	44.863	170.220	151.042	54.425	190.926	208.800	54.532	58.903	225.096	117.218	59.140	64.237	64.358	68.979	341.765	68.747	-8191	255	
2659.774	1	1	0	0	0.16774	0.18314	0.26398	0.06038	0.27762	0.12638	0.1463	0.18029	0.086764	0.060905	0.06696	0.074632	0.21142	0.16623	0.18032	0.31639	-2.6021	-3.1271	-3.075	-3.05	-3.1583	-3.2188	-3.1833	-3.3812	-2.8396	-3.3063	-3.1125	-3.0229	-3.2625	-3.0479	-3.0938	-3.2771	388.381	163.217	165.938	110.284	350.256	138.395	304.021	180.110	308.201	394.791	334.687	285.160	151.140	379.632	285.685	367.773	0.0011743	0.0011676	0.0002007	701.37	1.2948e-05	6.4207e-06	1006.3	216.03	1.175e-05	3.4677e-06	338.52	138.39	66.962	21.776	7.8124e-06	59.332	0.0045091	0.005362	0.001502	756.52	5.8217e-05	5.9332e-05	1004.4	221.35	5.6415e-05	6.0102e-05	347.92	140.59	77.422	23.517	5.764e-05	61.105	51.871	116.071	251.217	53.963	278.173	388.197	54.398	59.386	299.874	94.401	58.920	64.334	64.576	69.269	216.195	68.538	-8191	255	
2659.870	1	1	0	0	0.18591	0.23737	0.13262	0.067292	0.14567	0.12372	0.056819	0.12373	0.18979	0.41045	0.20077	0.090087	0.19636	0.20354	0.13903	0.28053	-2.5312	-3.0917	-3.0687	-2.9583	-3.1937	-2.9417	-3.0521	-3.2188	-2.9333	-3.2292	-3.2625	-2.9396	-3.3583	-2.8688	-2.9729	-3.4417	317.959	181.527	278.934	120.479	178.299	318.966	196.941	324.027	287.474	387.434	206.366	205.182	161.488	319.138	178.266	56.411	0.0011514	0.00019362	0.00036995	706.98	8.3833e-06	2.5077e-06	1002.9	216.85	1.4744e-05	9.7233e-06	341.71	139.1	66.583	21.926	1.014e-05	59.655	0.0045422	0.0053797	0.0015136	758.52	5.7702e-05	5.9286e-05	1005	222.1	5.6472e-05	6.0069e-05	350.1	141.12	77.474	23.645	5.8343e-05	61.32	45.394	110.113	138.794	54.263	306.738	88.106	54.759	59.110	201.900	227.072	58.513	64.343	63.977	69.002	187.096	68.775	-8191	255	
2659.967	1	1	0	0	0.036055	0.1136	0.17958	0.21884	0.15116	0.21966	0.034485	0.2032	0.13456	0.12642	0.18394	0.15973	0.10057	0.036103	0.21837	0.17201	-2.4479	-3.0938	-3.125	-2.9208	-3.1937	-3.0792	-3.1562	-3.3417	-3.0375	-3.1833	-3.2479	-2.8479	-3.0208	-3.1063	-2.9583	-3.4125	79.958	373.279	204.672	46.621	89.247	102.874	132.084	270.189	372.456	179.600	145.758	363.858	65.457	207.146	113.267	378.118	0.0012169	0.00097024	0.00021564	701.4	1.5456e-05	5.0492e-06	1007.7	217.26	5.7477e-06	2.4201e-06	340.6	138.66	65.66	21.711	6.2673e-06	58.909	0.004543	0.0054365	0.001509	759.85	5.8597e-05	5.9756e-05	1008.4	222.12	5.6604e-05	6.0172e-05	349.6	141.1	77.23	23.605	5.8347e-05	60.978	55.419	161.432	287.895	54.233	112.146	176.428	54.714	59.533	95.023	308.491	58.721	63.934	63.938	69.331	240.270	68.542	-8191	255	
2660.085	1	1	0	0	0.29053	0.13392	0.091389	0.11139	0.1258	0.16895	0.030032	0.082903	0.23358	0.12811	0.18443	0.34324	0.13331	0.10785	0.037618	0.3105	-2.475	-2.9708	-3.1813	-2.8688	-3.2958	-2.9562	-2.9417	-3.3521	-2.8563	-3.1083	-3.3354	-3.0542	-3.15	-3.1167	-2.7604	-3.3812	202.493	96.971	182.956	390.620	72.282	199.899	389.387	363.378	83.899	97.573	231.419	334.769	116.914	363.160	214.353	392.341	0.0012469	0.00099338	0.00027365	700.6	1.3672e-05	4.9319e-06	1001.4	217.03	2.1079e-05	4.0602e-06	339.74	138.38	66.993	21.677	8.6963e-06	59.06	0.0045403	0.0054041	0.0015164	754.3	5.836e-05	5.96e-05	1002.4	221.58	5.6942e-05	6.0123e-05	349.34	140.37	77.369	23.494	5.8392e-05	60.946	50.118	149.009	114.039	54.255	200.803	252.949	54.710	59.390	168.881	65.845	58.747	64.255	64.527	69.063	201.348	68.612	-8191	255	
2660.182	1	1	0	0	0.24263	0.40552	0.17131	0.1464	0.099863	0.10178	0.29665	0.22042	0.12611	0.22062	0.025308	0.050586	0.25275	0.11447	0.20808	0.052907	-2.5375	-2.9104	-3.2083	-2.9313	-3.0375	-3.1083	-2.9562	-3.2125	-2.8417	-3.1042	-3.175	-3.0208	-3.0458	-3.1188	-3.0208	-3.1333	211.668	392.008	133.709	84.296	79.949	74.327	350.284	42.453	210.544	246.240	365.951	184.689	360.698	166.527	60.459	75.156	0.0011444	0.00025239	0.00022234	699.69	3.4288e-06	1.0443e-05	1006.8	217	1.187e-05	5.3103e-06	341.78	138.71	66.413	21.616	3.9026e-06	59.241	0.0045563	0.0055069	0.0015322	756.67	5.8531e-05	6.0073e-05	1005.1	222.16	5.6603e-05	5.9504e-05	350.76	140.92	77.19	23.48	5.7578e-05	60.89	51.501	169.022	113.965	54.085	93.825	362.011	54.737	59.473	277.296	233.750	58.832	64.379	64.197	69.115	328.708	68.578	-8191	255	
2660.278	1	1	0	0	0.16867	0.094837	0.11386	0.13677	0.26132	0.18618	0.11812	0.19099	0.31757	0.020698	0.12601	0.10632	0.1308	0.40004	0.16317	0.28667	-2.6875	-3.0312	-3.1604	-2.9583	-3.1042	-3.0521	-2.9542	-3.2479	-3.0833	-2.8521	-3.2938	-3.1375	-2.9479	-3.0917	-2.8688	-3.2667	88.368	126.946	41.677	324.208	98.765	109.161	290.016	241.273	287.926	41.813	256.882	396.102	371.570	60.119	104.387	383.091	0.001343	0.00030563	0.00013571	707.57	1.0401e-05	6.077e-06	1014.9	219.3	1.6965e-05	1.0338e-05	340.46	139.38	66.506	21.599	8.3795e-06	59.147	0.0045221	0.0054184	0.0015035	759.43	5.7912e-05	5.9296e-05	1007.9	223.27	5.58e-05	5.9152e-05	351.43	141.33	77.171	23.511	5.7224e-05	60.922	42.112	70.519	129.818	54.439	150.941	116.911	54.513	59.515	146.050	197.661	59.218	64.110	64.418	69.453	175.154	68.957	-8191	255	
2660.351	1	1	0	0	0.028075	0.15013	0.2379	0.060893	0.10192	0.24362	0.36064	0.1186	0.11616	0.021221	0.3252	0.10713	0.026731	0.024708	0.054626	0.20881	-2.5271	-2.925	-3.1333	-2.9833	-2.9958	-3.3792	-3.0312	-3.2417	-3.2583	-3.0292	-3.375	-3.0208	-3.0812	-3.2542	-3.0021	-3.0604	103.962	225.118	61.087	320.341	378.242	343.003	187.998	216.753	67.539	221.101	400.503	367.875	103.261	348.758	389.646	259.183	0.001151	0.00082271	0.00020439	707.77	7.5237e-06	1.2725e-05	1010.3	219.08	1.2288e-05	1.1702e-05	340.75	139.35	65.885	21.656	2.4307e-06	58.707	0.004501	0.0053475	0.0014922	759.09	5.7225e-05	5.9493e-05	1008.1	223.12	5.6379e-05	5.9213e-05	350.64	141.08	76.8	23.352	5.6605e-05	60.585	59.555	359.603	161.080	54.406	216.169	222.999	54.614	59.458	116.313	242.734	58.752	64.219	64.426	69.166	303.461	68.523	-8191	255	
2660.470	1	1	0	0	0.20137	0.083691	0.24955	0.27106	0.021895	0.22315	0.15234	0.13018	0.12056	0.1434	0.27602	0.08522	0.32643	0.045215	0.039858	0.19882	-2.6667	-2.7917	-3.0458	-3.025	-2.925	-3.3396	-3.1688	-3.2146	-3.0833	-3.0833	-3.0917	-3.0792	-2.9938	-3.2771	-3.0104	-3.175	296.249	254.500	82.073	295.114	396.893	78.658	216.426	285.923	132.111	271.466	143.472	306.475	96.396	198.457	69.349	346.403	0.0012482	0.00038937	4.8242e-05	705.57	1.5682e-05	7.8235e-06	1001.4	217.11	1.2195e-05	1.2827e-05	339.79	137.67	66.819	21.476	9.8761e-06	58.508	0.0044832	0.0053642	0.0014964	754.58	5.6749e-05	5.8831e-05	998.96	221.39	5.6057e-05	5.8306e-05	348.64	139.69	77.023	23.303	5.6066e-05	60.308	397.836	203.969	147.227	54.101	187.524	195.787	54.138	58.878	181.251	161.670	58.698	64.137	64.170	69.460	189.399	68.419	-8191	255	
2660.566	1	1	0	0	0.25326	0.2404	0.1278	0.17342	0.11434	0.040545	0.27124	0.26594	0.20702	0.32631	0.17572	0.19664	0.18149	0.11672	0.067264	0.1216	-2.7958	-2.8563	-3.1688	-3.0375	-3.0396	-3.3167	-3.0833	-3.1375	-3.3438	-2.8646	-3.2646	-3.2521	-2.9396	-3.3354	-3.0583	-3.1542	224.689	326.389	125.713	74.451	333.238	277.852	349.303	347.414	107.510	50.251	361.571	300.561	79.020	289.376	150.649	292.897	0.0011451	0.00023007	0.00012973	704.52	1.2151e-05	2.0052e-06	1001	217.27	1.8128e-05	4.9917e-06	338.03	138.72	66.242	21.52	1.2187e-05	59.002	0.0045243	0.0053205	0.0015	754.54	5.681e-05	5.8741e-05	1001	221.61	5.654e-05	5.8634e-05	348.2	140.51	77.111	23.461	5.7929e-05	60.797	49.160	251.830	230.442	54.432	151.971	159.954	54.730	59.137	174.523	192.913	58.806	64.267	64.918	68.543	186.876	68.665	-8191	255	
2660.662	1	1	0	0	0.21336	0.077314	0.075213	0.16612	0.24952	0.25041	0.14372	0.21444	0.24341	0.16357	0.19941	0.13721	0.1239	0.060088	0.043937	0.091718	-2.7792	-2.9521	-3.2542	-3.1021	-2.95	-3.3187	-3.0708	-2.9562	-3.2208	-2.9729	-3.0646	-3.0354	-2.8958	-3.1688	-3.1292	-3.0333	105.860	175.067	349.976	236.010	214.842	82.824	369.753	331.874	389.626	322.051	49.539	98.767	300.688	385.536	241.570	165.448	0.0012655	0.00036658	0.00021924	706.69	5.608e-06	1.1664e-05	1003.9	216.57	1.6822e-05	1.2765e-05	339.85	138.66	67.132	21.864	4.7003e-06	59.44	0.0046088	0.0053752	0.0015161	758.24	5.7688e-05	5.9742e-05	1001	221.91	5.6862e-05	5.9152e-05	350.19	140.96	77.243	23.58	5.8298e-05	61.184	45.384	310.158	62.731	54.318	174.471	243.263	54.457	59.288	253.318	214.637	58.726	64.068	64.513	68.805	127.579	68.679	-8191	255	
2660.783	1	1	0	0	0.023452	0.17136	0.063938	0.073822	0.11837	0.18997	0.14829	0.40257	0.12585	0.082984	0.16744	0.16198	0.21508	0.19458	0.10831	0.083163	-2.7792	-2.8646	-3.0729	-3.1958	-2.9729	-3.1688	-3.0771	-3.0062	-3.3083	-2.9229	-3.3083	-3.1437	-3.1917	-3.2625	-3.0625	-2.8438	74.565	340.825	150.150	295.885	226.104	133.998	380.120	373.170	320.440	191.881	318.488	398.186	393.649	209.613	161.091	283.634	0.0011337	0.00071917	0.00024898	705.46	1.2774e-05	9.3963e-06	1008.5	217.89	1.2343e-05	4.1864e-06	342.91	139.68	67.753	21.81	1.3441e-05	59.554	0.0046163	0.0053993	0.0015232	758.21	5.7772e-05	6.0031e-05	1007.5	222.08	5.666e-05	5.9659e-05	350.71	141.38	77.444	23.676	5.8904e-05	61.347	45.028	145.219	125.426	54.149	382.745	152.660	54.791	59.257	142.156	217.225	58.963	64.168	64.057	69.224	194.131	68.699	-8191	255	
2660.879	1	1	0	0	0.074272	0.23941	0.059562	0.06345	0.053723	0.056296	0.26261	0.17585	0.10632	0.022317	0.44244	0.10453	0.26635	0.15455	0.1442	0.14754	-2.7583	-2.8729	-3.1146	-3.0833	-2.9521	-3.1792	-3.1625	-2.9333	-3.1583	-2.9792	-3.0104	-3.3	-2.8625	-2.9458	-3.1312	-2.9021	114.698	372.256	343.982	377.316	203.057	213.548	342.321	371.511	96.280	244.880	381.336	247.132	293.438	322.798	46.474	355.118	0.0011871	0.00080299	0.00014137	704.16	4.23e-06	9.9047e-06	1001.5	216.53	4.4839e-06	2.106e-05	338.12	138.58	66.438	21.779	6.0255e-06	58.56	0.0046107	0.0054261	0.00153	756.52	5.834e-05	6.0301e-05	1000.8	221.17	5.6815e-05	6.0089e-05	347.59	140.41	76.827	23.533	5.848e-05	60.629	45.496	102.798	154.751	54.329	319.603	237.690	54.448	59.306	80.572	180.795	58.881	64.193	64.070	69.200	243.909	68.725	-8191	255	
2660.951	1	1	0	0	0.17088	0.023778	0.15024	0.11119	0.10745	0.13138	0.1188	0.16929	0.13574	0.015768	0.37503	0.13923	0.11701	0.06801	0.16353	0.26276	-2.7938	-2.8229	-2.9896	-3.3833	-2.6896	-3.2271	-3.2375	-2.9792	-3.2333	-2.925	-2.9625	-3.2313	-2.9333	-3.0938	-3.125	-2.9167	272.220	73.922	285.588	210.400	196.512	85.384	387.937	328.615	221.842	126.965	65.641	366.988	130.186	305.268	70.499	352.451	0.0012603	0.0012784	7.5258e-05	703.46	9.5736e-06	6.3612e-06	1000.1	216.01	3.6248e-06	5.1868e-06	338.89	138.47	66.676	21.715	6.7572e-06	59.131	0.0046218	0.0054374	0.0015201	756.73	5.764e-05	6.0175e-05	1000.1	220.75	5.672e-05	5.9566e-05	348.55	140.42	76.799	23.562	5.7085e-05	60.724	56.742	147.781	61.345	54.498	213.230	220.835	54.523	59.067	128.859	332.318	58.891	64.165	64.471	69.214	130.217	68.600	-8191	255	
2661.071	1	1	0	0	0.082016	0.38642	0.19242	0.14425	0.086021	0.042089	0.21633	0.22218	0.067868	0.035838	0.16481	0.13261	0.16124	0.14083	0.21109	0.07502	-2.6417	-2.9646	-2.95	-3.3292	-3.0875	-3.1833	-3.2708	-2.9792	-3.4271	-2.9833	-3.0625	-3.2896	-2.9813	-3.0938	-3.25	-3.1792	69.655	259.535	377.262	211.658	296.495	333.275	328.768	83.974	217.514	126.609	392.544	73.739	295.119	217.799	281.373	320.780	0.0010652	0.00090161	9.5177e-05	705.19	7.5843e-06	2.3553e-06	1004	216.97	4.7428e-06	1.3463e-05	340.91	138.11	66.463	21.632	1.0039e-05	58.948	0.0045071	0.0053728	0.0014982	755.79	5.6931e-05	5.9452e-05	1003.8	221.08	5.5317e-05	5.8954e-05	349.21	140.4	76.947	23.399	5.654e-05	60.574	51.449	124.621	75.475	54.211	207.744	216.180	54.385	59.336	181.973	163.457	58.725	64.117	64.366	69.449	130.275	68.584	-8191	255	
2661.166	1	1	0	0	0.28042	0.076915	0.22438	0.11882	0.27219	0.06605	0.10009	0.36813	0.036337	0.20842	0.14432	0.14024	0.16177	0.15397	0.30562	0.1796	-2.7292	-3.125	-2.8708	-3.2875	-2.8854	-3.0563	-3.2979	-2.9667	-3.1354	-3.0854	-2.9729	-3.2604	-3.1312	-2.9792	-3.1521	-3.1188	205.785	221.270	118.478	345.761	48.118	179.460	321.624	362.644	337.069	336.444	363.356	391.482	165.064	177.100	175.546	205.106	0.0011521	0.00086554	3.3292e-05	705.1	2.8358e-06	1.8019e-06	1009.1	217.67	1.2583e-05	4.7321e-06	342.59	138.08	66.972	21.547	8.1998e-06	59.253	0.0045112	0.0053077	0.0014821	757.74	5.6409e-05	5.8323e-05	1005.5	221.94	5.5485e-05	5.802e-05	349.79	140.49	76.826	23.369	5.6106e-05	60.77	47.709	146.070	123.949	54.244	274.448	141.689	54.463	58.986	155.356	197.895	58.846	64.501	64.309	69.178	195.586	68.849	-8191	255	
2661.264	1	1	0	0	0.22647	0.12555	0.19378	0.17639	0.078294	0.21429	0.3684	0.11166	0.24946	0.16058	0.21502	0.15885	0.099171	0.19357	0.038704	0.19547	-2.7979	-3.0521	-2.9208	-3.2	-3.0812	-2.5729	-3.2354	-3.0542	-3.1458	-3.0833	-2.8625	-3.225	-3.1167	-2.9729	-3.375	-3.0125	386.535	341.116	161.923	277.407	63.060	85.705	316.053	189.640	127.598	253.737	253.154	341.612	105.977	104.328	57.406	341.328	0.0013763	0.0013574	0.0001624	707.47	8.7641e-06	7.309e-06	1005.1	216.38	9.6934e-06	3.0493e-06	339.02	136.69	66.412	21.688	4.6383e-07	58.68	0.0044583	0.0052801	0.0014536	756.57	5.6074e-05	5.7084e-05	1002.7	220.82	5.5245e-05	5.7971e-05	348.04	139.68	76.527	23.276	5.615e-05	60.217	52.662	133.690	390.979	54.272	252.792	55.880	54.613	59.304	210.774	144.145	58.702	64.018	64.612	69.182	320.561	68.562	-8191	255	
2661.383	1	1	0	0	0.16679	0.041233	0.090785	0.099423	0.12467	0.086919	0.06376	0.086575	0.071622	0.13041	0.20556	0.076247	0.09179	0.048869	0.11443	0.12591	-2.6417	-3.2271	-2.7729	-3.1125	-3.025	-2.775	-3.2938	-2.9354	-3.0167	-3.1958	-2.9521	-3.1854	-3.2062	-2.9604	-3.0958	-3.1437	41.309	349.595	361.075	334.345	300.907	84.615	324.775	46.907	102.578	68.046	376.544	171.808	93.990	189.860	153.388	376.536	0.001445	0.0012538	2.7459e-05	701.12	1.8275e-06	6.0448e-06	1001.8	216.34	5.7748e-06	4.4519e-06	338.43	138.03	65.873	21.423	4.0494e-06	58.718	0.0044118	0.0052339	0.0014337	753.43	5.5401e-05	5.7136e-05	1000.1	220.5	5.4803e-05	5.7399e-05	347.68	139.81	76.395	23.161	5.6513e-05	60.183	57.169	176.292	73.618	54.317	121.257	94.807	54.560	59.174	244.487	174.236	58.784	63.755	64.568	69.316	270.883	68.749	-8191	255	
2661.479	1	1	0	0	0.12619	0.035945	0.15604	0.21052	0.14968	0.11122	0.11573	0.38097	0.23921	0.12364	0.10273	0.2437	0.090525	0.057125	0.13121	0.20733	-2.7188	-3.2229	-2.7729	-3.2083	-3.1458	-2.9229	-3.4458	-3.1417	-3.0375	-3.4313	-3.0792	-3.1979	-3.0833	-3.0708	-3.1375	-3.1271	343.127	143.485	319.412	395.261	295.579	383.909	50.160	379.990	229.634	296.712	71.270	342.890	351.582	164.943	238.139	58.882	0.0010834	0.00042777	0.00016212	702.09	7.3895e-06	1.292e-05	997.98	216.2	6.2473e-06	3.3306e-06	339.03	137.79	66.02	21.36	1.2525e-05	58.644	0.0044338	0.0052274	0.0014434	752.72	5.647e-05	5.7963e-05	997.75	220.9	5.5517e-05	5.9148e-05	349.24	140.17	76.688	23.29	5.7251e-05	60.459	399.860	107.039	117.102	54.221	152.697	222.307	54.426	59.101	381.014	173.918	58.491	64.405	63.947	69.618	248.350	68.496	-8191	255	
2661.575	1	1	0	0	0.28991	0.18328	0.027833	0.14981	0.22996	0.12153	0.092741	0.26298	0.083941	0.13207	0.23102	0.08852	0.12588	0.27873	0.10716	0.099173	-2.6292	-3.1771	-2.9479	-3.0854	-2.95	-3.1562	-3.3417	-3	-2.9083	-3.3271	-3.0667	-3.0417	-3.225	-2.8354	-3.0604	-3.1396	292.628	79.092	175.954	318.751	352.236	174.293	239.469	350.101	316.328	109.740	103.690	144.994	360.153	59.974	278.419	317.623	0.0013461	0.0012822	0.00018422	703.12	8.9628e-06	1.3934e-06	1002.1	216.66	1.6424e-05	8.6133e-06	342.39	138.25	66.164	21.446	6.3933e-06	58.767	0.0044891	0.0053679	0.0014803	754.59	5.7151e-05	5.8392e-05	1002.5	221.53	5.6019e-05	5.8936e-05	350.41	140.7	77.045	23.232	5.786e-05	60.589	49.701	82.712	171.854	54.446	220.702	226.637	54.636	59.260	163.476	195.399	58.891	64.061	64.517	69.488	171.023	68.927	-8191	255	
2661.647	1	1	0	0	0.063924	0.050938	0.16014	0.1616	0.18809	0.15821	0.15319	0.1386	0.17149	0.18861	0.24863	0.25899	0.19088	0.33606	0.2007	0.30788	-2.4708	-3.1063	-2.9437	-3.0812	-3.2583	-2.8688	-3.2583	-3.0917	-2.9771	-3.3021	-3.1458	-3.0812	-3.1542	-3.0938	-3.1354	-3.2917	108.109	104.492	145.714	172.432	215.502	358.885	353.102	47.336	196.027	60.164	377.720	345.823	362.837	44.464	153.180	398.722	0.0011284	0.00014527	0.00015546	709.6	9.3543e-06	9.4148e-06	1002.6	217.48	1.7845e-05	1.495e-05	341.52	139.36	66.23	21.561	1.1784e-05	58.744	0.0045204	0.00538	0.0015102	759.9	5.7981e-05	5.9625e-05	1003	222.4	5.6983e-05	6.0619e-05	351.41	141.16	77.182	23.282	5.8534e-05	60.469	51.352	94.281	141.950	54.115	89.538	139.131	54.541	59.030	208.324	219.922	58.787	63.980	64.019	68.979	170.600	68.467	-8191	255	
2661.767	1	1	0	0	0.14906	0.16421	0.066706	0.2764	0.16045	0.20143	0.21352	0.078303	0.10525	0.13454	0.11321	0.040044	0.26969	0.043706	0.074473	0.12575	-2.45	-3.4521	-2.9854	-2.9792	-3.2042	-3.0438	-3.2188	-3.1667	-2.8354	-3.2854	-3.125	-3.1542	-3.1958	-3.0417	-3.0646	-3.4792	255.740	210.107	258.926	107.386	391.830	347.205	317.667	300.375	394.231	233.307	191.365	326.236	186.186	399.539	201.163	280.910	0.0012845	0.0008494	0.00026523	706.02	1.1264e-05	7.4813e-06	998.83	217.28	5.7851e-06	1.5992e-05	341.8	138.96	66.556	21.462	4.9692e-06	59.034	0.00455	0.0054374	0.0015219	755.93	5.8169e-05	6.0076e-05	999.6	222.18	5.7113e-05	6.0597e-05	351.11	141.17	77.523	23.378	5.8775e-05	60.793	45.538	128.080	165.449	54.202	215.517	217.304	54.611	59.207	176.777	216.416	59.041	64.322	64.246	69.213	139.990	68.696	-8191	255	
2661.863	1	1	0	0	0.17771	0.13467	0.14941	0.18301	0.072576	0.14658	0.049693	0.21237	0.018177	0.28085	0.097284	0.14026	0.12936	0.08811	0.18552	0.10564	-2.4229	-3.2313	-3.1688	-2.9875	-3.3812	-2.9875	-3.2042	-3.2208	-2.925	-3.3021	-3.225	-2.9958	-3.3417	-3.025	-2.8792	-3.2646	163.622	333.450	395.511	384.625	325.187	181.726	245.332	327.462	280.447	86.435	350.753	309.222	342.192	203.014	65.006	370.859	0.0014701	0.0016909	0.00013606	700.39	1.4517e-05	1.3307e-05	999.99	218.91	7.0694e-06	3.6755e-07	343.32	139.74	66.848	21.651	8.0418e-06	58.759	0.0045806	0.0054441	0.001521	756.26	5.7882e-05	5.9931e-05	1001.5	223.45	5.6497e-05	6.0004e-05	351.78	141.32	77.609	23.334	5.7945e-05	60.562	43.642	123.283	116.406	54.833	179.628	137.695	54.768	59.492	264.815	54.842	58.752	64.245	64.307	68.986	112.400	68.430	-8191	255	
2661.959	1	1	0	0	0.11351	0.035564	0.17313	0.2318	0.1323	0.16248	0.37168	0.11299	0.098032	0.12562	0.059206	0.046995	0.085368	0.065187	0.065539	0.14039	-2.4688	-3.0667	-2.9979	-2.8333	-3.0917	-3.2292	-2.9875	-3.2958	-2.7875	-3.0542	-3.0896	-2.85	-3.0917	-3.1229	-2.8271	-3.3458	114.701	353.476	88.215	362.011	362.881	224.524	319.470	235.658	206.156	118.123	326.160	83.383	111.481	244.452	255.867	310.690	0.0012823	0.001394	0.00023956	706.26	1.1442e-05	1.4468e-05	1010.1	218.33	8.0143e-06	8.6612e-06	345.2	139.29	66.877	21.55	9.2396e-06	59.183	0.0044996	0.0053741	0.001509	755.55	5.7025e-05	5.917e-05	1005.4	223.36	5.5634e-05	5.9391e-05	352.96	141.33	77.561	23.439	5.7904e-05	60.918	47.959	109.335	115.149	54.187	185.796	290.776	54.499	59.011	111.346	153.677	58.695	63.974	64.528	69.085	128.145	68.758	-8191	255	
2662.056	1	1	0	0	0.087663	0.28688	0.036192	0.37885	0.050952	0.02929	0.13044	0.13883	0.068295	0.15543	0.18075	0.24682	0.11312	0.17703	0.23216	0.20972	-2.4042	-3.1396	-3.1667	-2.9062	-3.1958	-2.9771	-3.1354	-3.2958	-2.9062	-2.9833	-3.3146	-3.1646	-3.1292	-3.1646	-2.8333	-3.2396	352.976	242.216	226.238	360.899	301.383	51.312	62.236	365.457	398.484	113.754	195.071	362.952	379.691	289.115	92.852	298.250	0.0010676	0.00099493	0.0002885	704.87	3.7352e-06	2.4378e-06	1005.3	219.39	5.5518e-06	1.3305e-05	343.05	139.61	67.165	21.594	1.0369e-05	58.524	0.0045431	0.0053665	0.0015108	755.94	5.7561e-05	5.95e-05	1005	224.01	5.5805e-05	5.9401e-05	352.52	141.61	77.538	23.358	5.6965e-05	60.552	48.031	96.716	115.315	54.303	242.522	259.174	54.588	59.663	175.859	227.203	58.731	64.298	64.419	69.005	99.462	68.602	-8191	255	
2662.174	1	1	0	0	0.16716	0.055354	0.030218	0.084755	0.13391	0.209	0.2024	0.23113	0.12155	0.10065	0.081956	0.090499	0.27025	0.21124	0.15856	0.28771	-2.6417	-2.8812	-3.0292	-2.8854	-3.3937	-2.9896	-2.9938	-3.4625	-3.025	-3.1458	-3.3625	-3.0667	-3.0604	-3.0812	-3.0292	-3.4333	382.264	270.429	270.996	298.560	61.174	306.015	319.164	267.343	149.958	299.929	77.787	377.964	325.317	57.996	118.025	336.642	0.0014309	0.0012529	0.00015182	706.03	2.0167e-05	9.8669e-06	1005	218.05	8.2041e-06	1.1089e-05	341.25	138.73	66.469	21.581	5.6519e-06	58.623	0.0045159	0.0053285	0.0014967	755.83	5.7512e-05	5.9337e-05	1001.4	222.13	5.6029e-05	5.9391e-05	350.1	140.6	77.245	23.303	5.6993e-05	60.412	396.484	129.531	332.960	54.293	223.582	274.305	54.460	59.193	353.949	203.522	58.538	64.006	64.606	68.681	274.074	68.662	-8191	255	
2662.246	1	1	0	0	0.21371	0.016903	0.098804	0.27361	0.10201	0.12739	0.26958	0.18797	0.14574	0.015247	0.037874	0.091054	0.08178	0.061383	0.23104	0.11634	-2.6146	-3.0083	-3.2396	-3.0479	-3.2167	-3.2417	-3.1042	-3.225	-2.8917	-3.0292	-3.2562	-3.0333	-3.1667	-3.1583	-2.8917	-3.2896	242.783	365.913	264.048	78.919	121.501	179.700	319.405	339.504	73.375	271.543	62.616	44.567	310.828	227.989	155.703	276.071	0.0012192	0.00086681	0.00032484	701.31	6.9519e-06	6.1558e-06	999.04	217.28	2.9018e-05	6.3162e-06	340.1	138.96	67.082	21.577	1.0524e-05	59.156	0.0045081	0.0053528	0.0015037	753.51	5.8105e-05	5.992e-05	998.29	222.29	5.7177e-05	6.0747e-05	350.51	141.08	77.732	23.529	5.8565e-05	60.885	54.250	252.425	184.418	54.325	75.996	135.714	54.562	59.409	186.443	143.762	59.042	63.953	64.133	69.214	180.172	68.628	-8191	255	
2662.344	1	1	0	0	0.23274	0.15337	0.28239	0.23729	0.17543	0.21783	0.32916	0.084601	0.23992	0.21107	0.13243	0.2584	0.10816	0.18355	0.12167	0.094417	-2.7208	-2.9146	-3.1333	-3.1188	-3.2375	-3.1688	-3.0125	-3.1854	-3.1146	-2.8937	-3.3646	-3.05	-3.0583	-3.225	-2.9208	-3.1458	167.175	269.375	272.651	83.831	330.789	99.111	365.630	362.449	322.196	195.661	303.335	320.875	231.257	357.554	269.885	386.944	0.0012357	0.00082036	0.00033314	700.88	6.867e-06	8.4917e-06	998.53	216.63	9.129e-06	1.4489e-05	341.83	138.99	66.598	21.695	1.7383e-05	59.194	0.0046527	0.0054282	0.0015407	754.75	5.8959e-05	6.0774e-05	1002.8	222.32	5.7912e-05	6.1322e-05	352.01	141.42	77.752	23.638	5.8754e-05	61.151	53.649	94.698	120.996	54.346	216.414	223.018	54.463	58.954	347.270	149.556	58.673	64.353	63.982	69.187	151.302	68.812	-8191	255	
2662.463	1	1	0	0	0.27967	0.1487	0.073645	0.20693	0.1056	0.1785	0.14168	0.12029	0.30127	0.065282	0.047709	0.14843	0.063262	0.18716	0.11974	0.36258	-2.85	-2.7896	-3.3708	-2.925	-3.0563	-3.2271	-3.0521	-3.1917	-3.2792	-3.0646	-3.175	-3.0729	-2.9292	-3.2958	-2.8979	-3.1937	62.014	91.770	210.082	171.135	171.204	277.945	359.748	339.940	340.089	359.144	293.404	53.527	188.389	271.056	136.083	374.444	0.0011691	0.00042969	3.8895e-05	703.85	5.8911e-06	3.0719e-06	1004.3	217.75	1.82e-05	1.2036e-05	343.2	139.24	67.079	21.796	1.0249e-05	59.422	0.0046519	0.0054932	0.001547	758.23	5.8653e-05	6.109e-05	1003.7	222.67	5.7637e-05	6.0131e-05	352.65	141.54	77.888	23.643	5.8284e-05	61.181	46.103	188.035	254.406	54.500	189.957	167.308	54.327	58.957	220.801	264.989	58.619	64.232	64.165	68.790	61.547	68.575	-8191	255	
2662.559	1	1	0	0	0.30871	0.036048	0.041155	0.062431	0.0087768	0.3031	0.057834	0.042848	0.33305	0.13469	0.25158	0.10366	0.39993	0.17517	0.052428	0.042697	-2.6312	-2.8542	-3.2146	-3.0271	-3.1354	-3.3479	-3.1896	-3.1917	-3.1583	-2.9854	-3.4688	-3.1937	-2.9708	-3.2333	-2.9146	-3.1896	322.392	226.844	394.439	161.783	170.823	380.360	234.047	108.491	164.606	388.330	249.200	202.319	253.163	336.388	172.940	50.039	0.0013153	0.00066958	0.00012588	707.6	5.6192e-06	8.8817e-06	1006.8	217.65	1.5262e-05	3.9754e-06	343.52	138.26	66.958	21.6	6.7932e-07	58.667	0.0045695	0.0054402	0.0015233	757.15	5.8567e-05	5.9709e-05	1002.8	222.65	5.7122e-05	5.9376e-05	352.14	140.46	76.989	23.368	5.692e-05	60.51	58.440	134.342	92.971	54.658	45.244	143.789	54.403	58.938	253.164	237.927	58.842	64.143	64.172	69.160	162.112	68.588	-8191	255	
2662.655	1	1	0	0	0.08506	0.13191	0.048747	0.28997	0.29058	0.054355	0.10584	0.11813	0.25221	0.15543	0.044996	0.087957	0.0085712	0.052134	0.20872	0.17186	-2.85	-2.9167	-3.1458	-3.2687	-2.95	-3.2313	-3.0729	-3.1229	-3.3271	-3.0417	-3.2583	-3.3604	-3.0062	-3.4042	-2.8479	-3.25	390.654	362.979	241.508	338.320	49.309	158.187	394.789	221.293	232.516	183.268	352.631	352.654	128.338	242.802	290.321	46.683	0.001107	0.0004674	0.00020829	697.03	6.9989e-06	1.8779e-05	1002.9	216.75	1.6351e-05	1.3175e-05	342.16	137.94	66.926	21.467	6.1534e-06	58.433	0.0044431	0.0052646	0.001497	751.35	5.6711e-05	5.9044e-05	1001.2	222.34	5.5968e-05	5.8511e-05	351.06	140.17	77.233	23.343	5.7173e-05	60.206	53.606	116.692	135.679	54.130	140.903	206.546	54.397	58.837	167.342	262.929	58.893	64.103	63.888	68.846	167.993	68.685	-8191	255	
2662.751	1	1	0	0	0.087577	0.11831	0.20776	0.17484	0.20816	0.26112	0.14881	0.18012	0.10971	0.053377	0.22897	0.33409	0.090781	0.2167	0.023236	0.09167	-2.8375	-2.8542	-3.2396	-3.0875	-3.0333	-3.2938	-3.1354	-3.2146	-3.0917	-2.9479	-3.2354	-3.0896	-2.8521	-3.3021	-2.8708	-2.9271	114.673	53.570	220.909	334.128	372.496	110.672	333.501	242.018	202.608	319.587	95.493	278.135	309.728	379.061	103.078	385.126	0.0012857	0.00061278	0.00035133	699.2	6.3618e-06	1.3138e-06	1005.6	217.82	1.7712e-05	3.429e-06	343.12	139.17	66.091	21.634	1.2619e-05	58.605	0.0044549	0.0052885	0.0014972	753.41	5.6674e-05	5.9306e-05	1001.4	222.38	5.644e-05	5.9559e-05	352.54	140.8	77.038	23.377	5.8701e-05	60.546	44.522	315.908	99.463	54.274	93.572	365.608	54.474	58.942	226.758	222.639	58.852	64.245	64.150	69.003	224.382	68.695	-8191	255	
2662.848	1	1	0	0	0.05129	0.1397	0.19209	0.080998	0.069623	0.15107	0.31772	0.14336	0.062746	0.087821	0.17317	0.30569	0.087136	0.18223	0.19144	0.14972	-2.8167	-2.9479	-3.125	-3.2042	-3.0208	-3.1292	-3.3479	-3.0125	-3.1396	-3.1875	-3.1396	-3.2687	-2.6396	-3.3667	-3.2208	-3.0021	156.241	277.797	135.016	49.126	257.415	82.115	311.190	43.864	77.583	302.434	357.067	83.743	203.145	213.109	226.824	359.199	0.00146	0.00030719	2.5369e-05	699.47	1.067e-05	1.1739e-05	1006	218.08	7.934e-06	9.1523e-06	343.14	138.5	66.618	21.565	1.2161e-05	58.677	0.0045466	0.0054114	0.0015061	755.36	5.7121e-05	5.9526e-05	1003.3	222.31	5.6703e-05	5.9784e-05	353.71	141.1	77.28	23.374	5.844e-05	60.584	43.417	173.686	267.222	54.445	216.735	168.531	54.507	59.183	259.158	189.743	59.100	64.374	64.515	69.145	147.358	68.756	-8191	255	
2662.944	1	1	0	0	0.038448	0.047906	0.21255	0.13718	0.15312	0.084407	0.37689	0.15518	0.13978	0.10879	0.14476	0.15809	0.22202	0.083209	0.25161	0.083827	-2.8438	-3.0167	-3.0375	-3.2687	-2.8667	-3.2687	-3.1792	-3.0187	-3.3187	-3.0312	-3.0896	-3.4208	-2.9062	-3.0646	-3.2083	-3.0062	232.111	280.878	110.774	377.440	223.371	274.642	329.840	264.901	375.810	217.628	56.087	182.720	355.016	332.128	292.164	71.058	0.001007	0.00034836	6.7962e-05	702.09	1.4188e-05	6.1188e-06	1001.5	217.05	1.3499e-05	9.1948e-06	345.1	138.83	66.844	21.603	8.1931e-06	58.767	0.0045816	0.0054668	0.0015317	755.9	5.8158e-05	6.0924e-05	1002.2	222.63	5.7474e-05	6.0047e-05	353.78	140.84	77.184	23.333	5.8093e-05	60.399	65.484	90.120	157.786	54.264	167.922	148.885	54.387	58.901	211.900	228.969	59.013	63.937	64.455	68.912	254.109	68.614	-8191	255	
2663.064	1	1	0	0	0.11812	0.1523	0.31931	0.32045	0.10441	0.25152	0.21418	0.22685	0.23374	0.037313	0.1026	0.19964	0.057163	0.064983	0.33466	0.19906	-2.7479	-2.9896	-2.8417	-3.3271	-2.9333	-3.1688	-3.3479	-2.8729	-3.2396	-3.0667	-3.1417	-3.1188	-3.1312	-3.0958	-3.0896	-2.9688	277.617	255.511	122.094	399.148	52.073	97.338	362.547	374.292	329.718	120.223	122.455	373.117	185.172	340.004	353.510	387.778	0.0013808	0.002111	8.1267e-05	703.54	1.1932e-05	1.0037e-05	1003.8	217.93	1.1151e-05	4.1592e-06	343.89	138.36	67.37	21.56	3.2181e-06	58.439	0.0045957	0.0054682	0.001516	756.39	5.8159e-05	6.0443e-05	999.79	222.83	5.7279e-05	6.026e-05	353.68	141.07	77.572	23.384	5.8429e-05	60.266	52.456	164.865	169.214	54.508	132.411	247.354	54.293	59.451	267.473	284.605	58.837	64.288	63.868	69.435	83.199	68.712	-8191	255	
2663.160	1	1	0	0	0.24579	0.11921	0.17435	0.33138	0.13802	0.1258	0.052056	0.050308	0.23652	0.17976	0.14703	0.19488	0.16878	0.11203	0.05152	0.095761	-2.9542	-3.0583	-2.8417	-3.1896	-3.0021	-3.0396	-3.35	-2.9562	-3.1458	-3.0729	-2.7812	-3.3438	-2.9792	-3.0354	-3.175	-2.9375	189.065	231.515	253.527	344.659	248.406	337.800	262.835	327.750	103.567	294.813	291.358	98.997	295.401	82.488	248.454	242.198	0.0011043	0.001027	0.00013273	703.36	1.8013e-05	6.2315e-06	1000.1	219.07	1.264e-05	8.5409e-06	345.58	139.23	67.582	21.357	6.6176e-06	58.802	0.0045968	0.0054388	0.001509	756.97	5.7789e-05	5.9987e-05	999.81	223.53	5.6258e-05	5.9748e-05	353.84	141.13	77.541	23.224	5.7616e-05	60.372	392.299	144.675	135.080	54.252	156.031	276.219	54.343	59.131	222.844	236.074	58.841	63.860	64.391	69.138	250.011	68.454	-8191	255	
2663.255	1	1	0	0	0.24824	0.25252	0.11909	0.19344	0.14508	0.13328	0.11382	0.17605	0.29393	0.12874	0.031134	0.29642	0.2118	0.078547	0.093469	0.10316	-2.6583	-3.0542	-2.85	-3.1312	-2.8479	-3.0938	-3.3833	-2.8979	-3.075	-3.0875	-3.1583	-3.2979	-2.9875	-3.0083	-3.1229	-2.875	293.806	146.932	78.773	328.736	349.551	354.258	400.170	317.621	346.098	85.860	91.904	361.826	326.186	202.391	298.688	154.911	0.0010426	0.00080734	0.00015705	704.95	1.4585e-06	1.1145e-05	1003.2	218.35	2.2308e-05	4.1862e-06	346.27	139.74	66.825	21.509	1.315e-05	58.932	0.0045388	0.0053439	0.0015035	756.06	5.7574e-05	5.9667e-05	1003.4	223.26	5.6328e-05	5.9326e-05	354.5	141.56	77.514	23.39	5.7579e-05	60.462	55.218	158.876	377.751	54.252	264.702	109.995	54.553	58.917	231.363	190.713	58.815	64.168	64.851	69.014	155.063	68.505	-8191	255	
2663.351	1	1	0	0	0.037479	0.15101	0.13412	0.093858	0.26384	0.1287	0.04688	0.14156	0.049775	0.11602	0.21828	0.066914	0.10165	0.23773	0.043801	0.089247	-2.6	-3.0396	-2.9479	-3.2313	-2.9521	-2.7646	-3.1688	-3.0187	-2.9271	-3.2896	-2.8833	-3.3042	-3.1896	-2.9833	-3.2479	-3.2375	382.414	192.089	51.763	305.292	193.755	253.957	84.359	82.612	254.654	90.276	237.308	341.721	378.134	379.907	243.855	279.799	0.0012746	0.00083519	0.00020115	709.18	1.2175e-05	8.9537e-06	1004.5	219.34	1.4547e-05	1.6051e-05	347.84	139.54	66.642	21.497	6.6788e-06	58.606	0.0045194	0.0053803	0.0014838	759.53	5.7005e-05	5.8507e-05	1003.5	224.03	5.635e-05	5.8836e-05	355.09	141.58	77.352	23.188	5.731e-05	60.149	52.556	155.434	102.271	54.127	193.457	298.707	54.584	58.889	240.664	262.887	59.058	64.103	64.473	69.027	87.310	68.643	-8191	255	
2663.472	1	1	0	0	0.17873	0.36095	0.049918	0.13354	0.24938	0.30558	0.32869	0.36847	0.18767	0.16177	0.18724	0.20034	0.33041	0.2121	0.28253	0.15128	-2.6646	-3.0563	-2.8292	-3.0083	-3.1604	-2.9271	-3.4333	-3.0625	-2.9042	-3.15	-2.9583	-3.3229	-3.2021	-2.9458	-3.1688	-3.1333	174.478	62.611	391.105	181.305	59.393	362.305	59.460	339.271	64.137	71.984	346.717	377.980	385.407	260.392	355.725	246.735	0.0010886	0.00083934	0.00022864	701.98	8.4302e-06	3.607e-06	1003	216.89	1.2497e-05	1.0078e-05	342.86	138.23	67.035	21.47	2.8974e-06	58.09	0.0045418	0.005314	0.0014916	753.4	5.6767e-05	5.8953e-05	998.87	222.23	5.5488e-05	5.8756e-05	352.43	140.46	77.194	23.183	5.6729e-05	59.951	399.865	109.927	130.234	54.384	111.124	139.678	54.310	59.279	201.166	302.728	58.550	64.287	64.374	68.926	166.664	68.344	-8191	255	
2663.543	1	1	0	0	0.1142	0.41054	0.21614	0.22011	0.19311	0.14612	0.21137	0.22816	0.070612	0.089268	0.097575	0.17583	0.21447	0.24121	0.037806	0.22711	-2.5354	-3.1292	-2.9646	-3.1146	-3.3208	-2.8625	-3.3208	-2.95	-2.8146	-3.2062	-3.0812	-3.1979	-3.2188	-2.9667	-3.2438	-3.2083	119.020	250.241	51.146	70.051	61.999	393.462	368.917	115.999	383.156	178.607	280.420	295.099	314.671	104.917	176.926	267.686	0.0012595	0.00061853	0.00017412	695.69	1.429e-05	1.9859e-05	1004.5	217.46	1.518e-06	1.0766e-05	343.52	139.21	66.424	21.535	9.1215e-06	58.581	0.0044635	0.00529	0.0014806	752.12	5.6997e-05	5.8412e-05	999.38	222.79	5.5962e-05	5.9409e-05	353.39	141.03	77.37	23.372	5.7756e-05	60.413	58.419	118.067	133.533	54.402	265.394	103.234	54.598	59.234	217.713	183.752	58.837	64.356	64.188	69.137	91.433	68.504	-8191	255	
2663.639	1	1	0	0	0.25888	0.15668	0.11999	0.11145	0.24153	0.14179	0.085584	0.14749	0.21256	0.2944	0.38114	0.25113	0.37972	0.15731	0.14239	0.22326	-2.5604	-3.1917	-2.9	-3.0563	-3.1292	-2.9708	-3.2562	-3.2771	-2.8187	-3.0854	-3.2208	-3.0292	-3.2646	-2.9562	-3.1833	-3.1854	240.503	201.505	97.738	190.003	111.044	92.697	275.581	270.550	246.527	248.318	391.421	338.080	390.719	190.244	371.322	362.654	0.0013958	0.00036092	0.00030719	701.52	9.3861e-06	1.1517e-05	998.65	218.35	2.4461e-05	2.511e-06	344.26	138.92	67.077	21.634	3.8544e-06	58.695	0.0045683	0.0054168	0.0015329	753.27	5.7684e-05	6.0087e-05	1000.5	222.97	5.6634e-05	6.0092e-05	353.51	141.57	77.925	23.468	5.8735e-05	60.72	41.773	374.907	204.471	54.247	209.626	221.612	54.437	59.119	248.987	319.333	58.659	64.127	64.408	69.022	90.103	68.550	-8191	255	
2663.736	1	1	0	0	0.050896	0.23151	0.20334	0.049801	0.13903	0.19963	0.25082	0.05491	0.22315	0.096003	0.42117	0.18143	0.25534	0.1065	0.068811	0.064005	-2.4083	-3.2917	-2.7521	-3.0146	-3.0771	-2.9708	-3.1729	-3.2625	-2.8104	-3.3021	-3.1583	-3.125	-3.15	-2.9667	-3.0833	-3.1667	88.914	296.240	43.726	292.750	195.416	196.024	308.228	83.815	344.584	265.198	365.748	335.479	333.494	190.882	90.695	338.831	0.0014436	0.00063976	0.0004377	703.9	1.3171e-05	1.3924e-05	1003.7	218.05	1.8893e-05	2.8788e-06	345.32	139.7	67.356	21.64	2.1454e-06	58.813	0.0046093	0.0054597	0.0015252	757.87	5.8399e-05	6.0237e-05	1003.3	222.87	5.6615e-05	6.1023e-05	354.57	141.84	78.064	23.465	5.9129e-05	60.776	397.268	170.383	117.017	54.341	169.473	85.574	54.197	59.269	207.485	361.956	58.571	64.056	64.533	69.110	164.090	68.652	-8191	255	
2663.856	1	1	0	0	0.26546	0.32012	0.13588	0.22866	0.22275	0.19821	0.065517	0.37338	0.048385	0.072265	0.20538	0.26312	0.13741	0.35295	0.069714	0.084671	-2.4688	-3.2271	-2.9542	-2.8312	-3.1854	-2.8833	-3.2396	-3.1	-2.7958	-3.15	-3.0708	-2.9396	-3.2812	-3	-3.0021	-3.325	215.521	150.784	96.275	331.632	217.806	378.473	171.515	333.548	322.790	400.177	48.893	353.063	206.254	79.235	250.266	286.509	0.0011655	0.00076857	0.00031231	697.05	6.8497e-06	6.7593e-06	995.98	217.29	9.2889e-06	7.522e-06	343.34	138.9	66.393	21.496	8.7985e-06	58.849	0.0045831	0.0055676	0.0015369	754.71	5.8764e-05	6.1086e-05	998.11	222.34	5.7628e-05	6.1518e-05	352.75	141.08	77.421	23.53	5.9199e-05	60.69	47.728	145.510	57.863	54.179	223.963	243.678	54.465	59.228	229.112	111.511	58.874	64.297	64.314	68.863	101.538	68.614	-8191	255	
2663.952	1	1	0	0	0.13596	0.02969	0.071556	0.069987	0.1033	0.33655	0.1301	0.16126	0.21541	0.17851	0.12856	0.17233	0.14859	0.14764	0.15014	0.3529	-2.3563	-3.1083	-3.0021	-2.9271	-3.2104	-3.0354	-3.1021	-3.3146	-2.8625	-3.2042	-3.2875	-2.9042	-3.0792	-3.0583	-3.0604	-3.3812	396.829	160.506	165.649	64.061	49.386	189.724	363.556	349.214	397.904	114.659	63.480	249.518	179.904	174.043	211.473	314.543	0.0012861	0.00054447	4.7495e-05	700.48	1.2043e-05	5.9296e-06	1001.6	218.15	5.0203e-06	6.3957e-06	343.67	138.53	67.4	21.665	1.0242e-05	59.159	0.0045869	0.0055824	0.0015508	755.64	5.9335e-05	6.1051e-05	1000.9	222.64	5.7669e-05	6.1069e-05	353.68	141.12	78.116	23.544	5.8531e-05	60.762	400.998	120.147	362.705	54.460	223.267	53.149	54.680	59.230	211.661	344.386	58.877	63.772	64.429	69.195	313.314	68.719	-8191	255	
2664.049	1	1	0	0	0.07619	0.12304	0.17655	0.29348	0.24449	0.22459	0.29857	0.096866	0.21313	0.30452	0.23785	0.23054	0.15115	0.23068	0.25254	0.10857	-2.5146	-3.0542	-3.1854	-2.9083	-3.2833	-3.0875	-3.1458	-3.1229	-3.1312	-3.1354	-3.3812	-3.15	-3.1792	-2.9979	-2.9479	-3.2583	132.258	125.555	335.561	350.714	284.522	216.831	342.048	389.014	96.557	121.862	58.713	336.317	192.604	66.375	308.667	183.709	0.0015945	0.00078444	0.00028757	702.9	6.1461e-06	9.9327e-06	1000.7	218.45	9.9396e-06	1.0871e-05	343.1	139.6	67.641	21.756	8.4794e-06	58.952	0.004566	0.0055159	0.0015284	754.94	5.8317e-05	6.0197e-05	999.35	223.23	5.6907e-05	6.0234e-05	354.08	141.53	77.845	23.501	5.79e-05	60.739	49.934	146.500	156.905	54.303	100.455	135.957	54.705	59.125	275.415	283.102	58.737	64.070	64.089	69.161	239.068	68.485	-8191	255	
2664.145	1	1	0	0	0.14701	0.13911	0.26231	0.10767	0.13424	0.13214	0.086797	0.088136	0.067508	0.31733	0.16448	0.33936	0.1326	0.11372	0.081478	0.15523	-2.4625	-3.0458	-3.1854	-2.8021	-3.1979	-3.1021	-3.0479	-3.2958	-2.9583	-3.1188	-3.2479	-3.0083	-3.1396	-3.0458	-2.8917	-3.2354	96.251	257.068	79.764	89.192	178.717	67.771	390.875	118.295	370.418	355.963	366.951	280.592	290.341	235.873	64.543	163.019	0.0012475	0.0013016	0.00033169	703.56	5.4307e-06	7.0904e-06	1002.2	219.83	1.0241e-05	1.0189e-05	343.28	140.38	67.53	21.634	9.6775e-06	58.61	0.0045474	0.0054921	0.0015223	755.29	5.7683e-05	5.9546e-05	1002.6	223.53	5.6451e-05	5.9294e-05	354.55	141.85	77.793	23.457	5.7532e-05	60.632	54.038	134.223	115.105	54.174	83.402	305.746	54.659	59.265	321.809	381.351	58.669	64.194	64.511	68.906	255.664	68.638	-8191	255	
2664.239	1	1	0	0	0.21886	0.19358	0.13081	0.19069	0.08037	0.20054	0.066777	0.15171	0.05673	0.055046	0.20553	0.034018	0.099217	0.050133	0.1638	0.091565	-2.5938	-3.0687	-3.0583	-2.8667	-3.0625	-3.1771	-3.1167	-3.3104	-2.8438	-3.1125	-3.3208	-3.0917	-2.8958	-3.1854	-3.1	-3.1083	55.343	318.548	194.373	282.610	388.683	93.536	313.091	268.366	327.876	389.683	42.715	295.473	233.866	305.206	286.036	74.636	0.0012371	0.0007204	0.00022494	699.18	1.4827e-05	4.4988e-06	996.84	217.51	1.8025e-05	6.1674e-06	344.61	138.55	66.827	21.444	2.048e-05	58.192	0.0045295	0.0053582	0.0014784	753.51	5.7315e-05	5.8828e-05	998.9	222.4	5.6322e-05	5.8217e-05	352.73	140.37	77.321	23.204	5.6916e-05	59.883	399.313	105.945	123.440	53.945	141.185	122.452	54.482	59.393	325.133	58.048	58.523	64.134	64.739	69.165	174.766	68.551	-8191	255	
2664.335	1	1	0	0	0.40074	0.087122	0.3433	0.18103	0.061555	0.064958	0.13121	0.18284	0.067786	0.28417	0.30045	0.064099	0.079951	0.1706	0.24376	0.08302	-2.6208	-3.0792	-3.1042	-2.9229	-3.1708	-3.1604	-3.05	-3.2583	-3.2708	-2.875	-3.2083	-2.9042	-2.9062	-3.2167	-3.0708	-3.2229	155.456	177.781	192.689	130.940	210.668	104.272	325.223	311.035	305.466	52.663	384.649	135.048	390.313	196.035	154.626	382.024	0.0011242	0.00063065	0.0001064	697.01	2.2944e-05	1.0121e-05	990.49	217	1.9502e-05	1.2962e-05	342.74	137.74	67.048	21.486	1.2488e-05	58.586	0.0044901	0.0053157	0.0014778	749.68	5.6943e-05	5.8443e-05	993.28	221.87	5.6019e-05	5.9418e-05	351.75	140.43	77.3	23.333	5.8172e-05	60.363	46.339	133.396	153.366	54.276	170.400	250.702	54.345	59.112	260.596	157.858	58.832	64.429	64.690	68.944	144.757	68.542	-8191	255	
2664.431	1	1	0	0	0.22547	0.056768	0.13864	0.21947	0.088652	0.094544	0.36282	0.3866	0.36683	0.090459	0.16314	0.18024	0.25231	0.20227	0.26855	0.15212	-2.65	-2.8375	-3.2375	-3.1417	-2.9729	-3.3229	-3.1083	-3.2021	-3.1333	-3.0938	-3.3333	-3.1229	-3.1375	-3.2208	-2.9146	-3.3333	217.091	384.287	380.017	333.385	281.401	236.049	378.742	348.996	213.745	380.476	357.568	310.067	82.505	91.858	229.657	373.306	0.0010446	0.00091258	0.00043993	701.21	7.132e-06	4.438e-06	995.16	217.93	8.5934e-06	3.5212e-06	343.9	138.75	67.039	21.509	1.9767e-05	58.753	0.004565	0.0053785	0.0015166	751.56	5.7137e-05	5.9246e-05	996.06	222.56	5.6541e-05	5.9054e-05	352.96	140.67	77.472	23.381	5.8592e-05	60.412	41.540	139.799	99.824	54.244	362.952	202.660	54.384	59.172	224.101	60.489	58.519	64.087	64.691	68.768	125.754	68.608	-8191	255	
2664.552	1	1	0	0	0.18485	0.15422	0.11183	0.047277	0.30055	0.065806	0.21113	0.15243	0.026572	0.26679	0.10927	0.24793	0.11309	0.14051	0.023041	0.17282	-2.8	-2.8	-3.2521	-3.0104	-2.7458	-3.3375	-3.0729	-3.1771	-3.1813	-2.7771	-3.3146	-3.0875	-2.7604	-3.1146	-3.0625	-3.1188	100.478	205.566	242.089	220.861	84.697	104.824	305.736	350.635	122.577	308.575	302.372	376.851	264.671	128.990	138.485	373.186	0.0013329	0.00050891	1.3573e-05	704.27	1.0506e-05	2.093e-05	1002.1	217.88	1.2886e-05	2.6682e-06	344.28	139.06	67.323	21.606	2.349e-05	58.829	0.0045762	0.0054579	0.0015202	755.79	5.7712e-05	5.9808e-05	998.41	222.63	5.674e-05	5.9935e-05	354.16	141.35	77.712	23.502	5.8596e-05	60.661	54.059	153.677	178.644	54.202	335.835	226.726	54.527	59.085	204.510	74.343	58.818	64.090	64.786	69.279	247.667	68.849	-8191	255	
2664.648	1	1	0	0	0.071894	0.11165	0.0095758	0.27919	0.044866	0.12136	0.11311	0.1376	0.029729	0.26523	0.26021	0.22245	0.23405	0.11987	0.089076	0.33166	-3.0854	-2.9354	-3.2083	-3.0771	-3.1479	-3.3917	-3.0187	-3.0542	-3.225	-2.9229	-3.2208	-3.1063	-2.9333	-3.3083	-2.9854	-3.1708	125.078	173.158	338.602	273.319	338.121	316.129	284.802	341.244	234.032	293.963	169.355	54.576	262.073	202.011	250.582	392.247	0.0013484	0.00061183	0.00013687	700.08	4.4182e-06	9.2671e-06	999.95	217.56	4.79e-06	8.9314e-06	345.31	138.74	67.23	21.757	1.6491e-06	58.761	0.0045934	0.0054357	0.0015443	753.72	5.8164e-05	6.0454e-05	998.56	222.43	5.6711e-05	6.0442e-05	353.7	141.06	77.723	23.516	5.8974e-05	60.469	52.816	208.496	47.328	54.135	258.920	166.606	54.473	59.062	268.041	262.863	58.563	63.972	64.385	69.387	363.701	68.655	-8191	255	
2664.744	1	1	0	0	0.14019	0.11898	0.19457	0.15726	0.16559	0.18021	0.19916	0.074477	0.25349	0.12078	0.24897	0.071633	0.068567	0.2832	0.273	0.089852	-2.7	-2.8958	-3.0542	-3.0729	-2.7896	-3.1854	-3.0292	-3.1604	-3.4458	-2.9938	-3.1958	-3.0396	-2.7188	-3.1354	-3.1896	-3.2521	113.462	208.821	366.768	72.835	327.641	388.717	392.393	394.619	130.134	216.612	341.465	152.655	123.617	55.399	213.026	327.177	0.001125	0.0012602	0.00010439	705.94	1.0018e-05	1.5672e-05	996.98	216.22	9.3122e-06	4.7274e-06	343.67	138.85	67.252	21.683	1.3442e-05	58.743	0.0046157	0.0054566	0.0015354	753.94	5.8136e-05	6.1069e-05	994.52	221.87	5.7484e-05	6.015e-05	352.64	140.92	77.55	23.5	5.8574e-05	60.582	47.800	210.353	139.346	54.302	170.801	221.946	54.528	59.394	229.938	123.175	58.747	64.244	64.825	69.573	191.068	69.122	-8191	255	
2664.840	1	1	0	0	0.14562	0.020794	0.14225	0.18542	0.33498	0.10063	0.11246	0.13087	0.12359	0.15957	0.19309	0.092825	0.10622	0.50157	0.25069	0.24585	-2.7917	-2.8896	-3.25	-3.1292	-2.8792	-3.2146	-2.9125	-2.9146	-3.2021	-2.9188	-3.0958	-3.3875	-2.8458	-3.2021	-3.1437	-2.9604	319.225	361.367	274.325	65.401	266.481	55.658	79.159	149.745	64.242	199.145	280.647	81.040	101.775	83.015	161.966	328.387	0.0010812	0.00089127	0.00020622	698.36	1.8452e-05	9.6439e-06	994.06	217.67	1.4072e-05	1.2813e-05	343.43	138.59	67.479	21.8	7.7462e-06	58.936	0.0046137	0.0054323	0.0015257	752.97	5.8528e-05	6.0494e-05	994.9	222.45	5.7015e-05	5.9861e-05	353.37	140.95	77.648	23.508	5.7704e-05	60.499	45.582	84.750	120.757	54.308	225.860	224.310	54.516	59.299	255.520	231.847	58.543	64.096	64.917	69.370	244.095	68.352	-8191	255	
2664.937	1	1	0	0	0.15566	0.16138	0.18318	0.086778	0.16215	0.088807	0.10722	0.0055193	0.043485	0.054237	0.18462	0.16578	0.066711	0.13019	0.065361	0.11833	-2.9271	-2.9458	-2.9958	-3.1083	-2.8312	-3.275	-3.3479	-2.8958	-3.1083	-3.075	-3.1063	-3.2708	-2.9021	-3.2104	-3.1917	-2.9146	48.962	90.354	257.174	94.039	374.190	65.254	319.094	192.613	234.513	378.967	70.910	369.927	145.362	384.595	335.543	328.657	0.0015154	0.00062729	0.00036268	697.61	6.9954e-06	1.1343e-05	996.4	218.38	2.081e-05	4.4559e-06	344.55	139.31	66.912	21.637	9.5192e-06	58.916	0.004525	0.0053104	0.0014928	750.51	5.7191e-05	5.9445e-05	997.54	222.26	5.6307e-05	5.9136e-05	353.65	141.36	77.3	23.42	5.6418e-05	60.593	55.045	189.519	205.003	54.403	275.717	228.296	54.457	59.087	197.319	260.160	58.819	64.404	63.950	68.827	267.726	68.521	-8191	255	
2665.033	1	1	0	0	0.11026	0.23479	0.21058	0.34555	0.083559	0.11852	0.17995	0.18895	0.30062	0.17243	0.077944	0.13571	0.09329	0.27597	0.34344	0.28864	-2.8271	-2.9729	-2.9917	-3.3542	-2.9729	-3.0771	-3.2188	-2.9604	-3.1583	-2.7854	-3.1813	-3.4313	-2.9938	-3.0854	-3.1792	-2.9083	204.554	131.949	100.273	385.731	169.117	359.918	87.818	308.511	264.513	105.143	324.429	329.762	277.895	99.993	147.515	370.120	0.0012652	0.00082225	0.00015539	706.09	1.1035e-05	1.1368e-05	1003.1	217.73	2.0223e-05	8.7912e-06	343.82	138.58	66.96	21.726	2.5561e-06	58.352	0.0045167	0.0053566	0.0014924	754.82	5.6928e-05	5.8956e-05	998.68	222.47	5.6067e-05	5.8808e-05	352.22	140.46	76.979	23.438	5.6753e-05	60.065	400.086	164.668	329.397	54.371	195.539	168.917	54.698	59.143	183.629	158.658	58.728	64.090	64.103	69.255	244.316	68.569	-8191	255	
2665.153	1	1	0	0	0.13672	0.2209	0.2281	0.18718	0.16119	0.17758	0.11349	0.19725	0.19516	0.12684	0.04035	0.10594	0.19451	0.048232	0.10588	0.033936	-2.7438	-2.9	-2.7771	-3.2583	-2.9917	-3.1354	-3.2917	-2.8063	-3.2208	-3.0792	-2.9437	-3.4042	-3.0708	-2.9625	-3.1708	-3.0458	236.271	219.860	227.002	347.332	212.173	364.962	373.749	59.695	207.315	327.301	269.242	364.670	382.150	143.701	343.079	328.009	0.001014	0.00025541	0.00018747	697.47	5.0303e-06	5.5808e-06	989.27	215.77	1.3359e-05	5.6892e-06	342.2	138.17	66.154	21.496	1.5085e-05	58.256	0.0044977	0.005283	0.0014693	750.58	5.6253e-05	5.8169e-05	992.09	221	5.5881e-05	5.7813e-05	350.64	139.96	76.66	23.283	5.6491e-05	60	49.799	84.332	138.432	54.483	216.253	248.165	54.233	59.054	192.916	107.329	58.837	64.013	64.478	68.972	112.120	68.705	-8191	255	
2665.248	1	1	0	0	0.17063	0.083723	0.034426	0.3879	0.031447	0.046342	0.30305	0.26103	0.24748	0.252	0.25588	0.10823	0.33043	0.22052	0.044462	0.3201	-2.7938	-3.0854	-2.8792	-3.1417	-2.9396	-3.0021	-3.2958	-2.9625	-3.2375	-3.1542	-2.9604	-3.2708	-3.1312	-3.0021	-3.3042	-3.0979	359.302	267.606	76.925	357.987	328.307	382.482	388.705	346.942	213.172	133.833	316.324	118.700	368.738	98.425	224.284	306.036	0.00095488	0.0005287	8.9101e-05	693.06	4.5316e-06	1.6325e-05	990.84	215.51	3.9342e-06	9.1304e-06	341.19	138.28	66.827	21.662	9.579e-06	59.085	0.0044989	0.0053014	0.001476	748.96	5.7065e-05	5.871e-05	992.99	220.46	5.7291e-05	5.9845e-05	351.45	140.32	77.208	23.451	5.9174e-05	60.464	42.074	132.204	59.651	54.365	113.610	195.026	54.716	59.234	171.519	143.582	58.622	64.069	64.768	69.121	204.151	68.489	-8191	255	
2665.344	1	1	0	0	0.066833	0.23266	0.20932	0.11178	0.090375	0.094681	0.3034	0.18378	0.10441	0.083087	0.2392	0.12388	0.24782	0.041689	0.097758	0.22763	-2.575	-3.1688	-3.0104	-3.1813	-3.0708	-2.9458	-3.2229	-3.1833	-3.3083	-3.1271	-2.9375	-3.1125	-2.9562	-3.0104	-3.2625	-2.8854	84.041	243.486	218.290	353.640	255.538	72.710	323.885	333.218	348.001	224.049	334.166	372.301	277.058	297.877	328.666	323.308	0.0013346	0.00087873	0.00011178	691.06	1.6708e-05	3.408e-06	996.67	215.47	6.3984e-06	9.7743e-06	342.88	138.1	66.759	21.752	3.8563e-06	58.659	0.0046141	0.0054291	0.0015218	751.01	5.8338e-05	6.017e-05	994.23	221	5.7588e-05	6.023e-05	352.07	140.49	77.194	23.604	5.917e-05	60.711	53.750	142.059	66.734	54.578	153.018	303.192	54.532	59.304	119.242	227.895	58.970	64.082	64.439	69.366	155.361	68.563	-8191	255	
2665.416	1	1	0	0	0.25147	0.093874	0.041761	0.21055	0.12728	0.22622	0.33594	0.12381	0.082593	0.23486	0.31857	0.1352	0.19618	0.14192	0.10746	0.14659	-2.6146	-3.2479	-2.6646	-3.0917	-3.0833	-2.7625	-3.2854	-3.0458	-2.9021	-3.0062	-2.9104	-3.1437	-3.1083	-2.8854	-3.0854	-3.0354	253.227	254.726	257.507	362.741	330.177	231.990	333.719	325.079	291.870	111.281	360.800	224.223	129.953	175.069	185.496	227.836	0.0012491	0.0013479	9.7727e-05	698.23	4.466e-06	6.9842e-06	994.27	216.44	1.4524e-05	1.3346e-05	344	138.94	66.892	21.812	1.9787e-05	58.828	0.0046333	0.0054574	0.0015198	751	5.8525e-05	5.9816e-05	996.28	221.11	5.7688e-05	6.0635e-05	353.19	140.76	77.337	23.573	5.9828e-05	60.621	52.973	145.694	254.923	54.431	71.937	260.661	54.574	59.310	182.403	211.504	58.687	64.373	64.382	69.094	57.191	68.521	-8191	255	
2665.536	1	1	0	0	0.19815	0.16146	0.069634	0.19427	0.081247	0.199	0.25408	0.42651	0.24455	0.20515	0.14238	0.064175	0.054942	0.17384	0.29561	0.1601	-2.5729	-3.0917	-2.8792	-3.2167	-3.3604	-3.0729	-3.3646	-3.1521	-2.7667	-3.0417	-2.9167	-3.4542	-2.9938	-2.9958	-3.1417	-3.0042	203.570	41.438	122.366	394.815	160.233	140.308	356.032	385.822	162.614	147.840	90.629	153.618	133.062	70.160	211.128	148.437	0.0012336	0.00090212	0.00024266	690.96	5.351e-06	1.3479e-05	992.74	215.1	1.7671e-05	4.86e-06	342.27	137.15	66.375	21.675	8.5724e-06	58.181	0.0046433	0.0055935	0.0015362	748.56	5.9245e-05	6.0838e-05	992.27	220.22	5.8171e-05	6.1208e-05	351.59	139.98	77.202	23.481	5.982e-05	60.334	392.591	69.724	62.951	54.386	229.396	117.437	54.239	59.157	175.941	269.499	58.962	64.015	64.527	69.324	191.704	68.735	-8191	255	
2665.632	1	1	0	0	0.15348	0.21612	0.11094	0.23504	0.08614	0.10421	0.2188	0.33233	0.18921	0.16877	0.24903	0.20268	0.068075	0.08411	0.14382	0.013394	-2.4875	-3.1437	-2.9625	-3.1271	-3.1458	-2.9688	-3.3312	-3.0479	-2.8604	-3.3937	-3.1229	-3.2438	-3.0187	-3.0021	-3.2646	-3.0875	154.287	145.209	251.380	302.081	47.949	190.593	265.899	356.295	129.429	185.377	366.466	386.515	236.627	41.737	54.543	180.765	0.0013467	0.00074638	0.00010979	694.33	1.5074e-05	1.358e-05	991.33	215.17	1.3101e-05	5.4287e-06	341.28	137.73	66.051	21.804	6.2205e-06	58.453	0.0046683	0.0055502	0.0015373	749.6	5.9103e-05	6.127e-05	991.71	220.5	5.7721e-05	6.121e-05	351.38	140.06	77.244	23.49	5.976e-05	60.304	46.152	257.255	145.214	54.427	124.576	219.002	54.648	59.341	153.186	191.774	58.532	64.116	64.524	69.180	186.709	68.776	-8191	255	
2665.729	1	1	0	0	0.12709	0.25646	0.12427	0.057926	0.28848	0.06643	0.27204	0.24735	0.094046	0.10727	0.13282	0.14188	0.1202	0.10401	0.16522	0.15411	-2.3583	-3.2562	-2.8708	-2.9021	-3.3167	-2.925	-3.2229	-3.1979	-2.7292	-3.0729	-3.0271	-3.0646	-3.3375	-2.9833	-3.0375	-3.1188	396.317	305.724	101.448	206.756	216.469	52.949	333.392	356.360	243.035	191.049	59.216	329.687	93.165	383.644	234.811	303.347	0.0011117	0.00069033	0.00029828	695.06	1.3e-05	9.6537e-06	989.96	214.64	2.7085e-05	7.824e-06	343.01	138.4	66.556	21.473	1.1576e-05	58.703	0.0046052	0.0055207	0.0015418	750.78	5.8814e-05	6.0505e-05	993.42	220.68	5.6656e-05	6.065e-05	352.71	140	77.408	23.403	5.8635e-05	60.382	56.215	93.138	142.816	53.975	206.622	384.555	54.326	59.122	171.152	251.822	58.707	64.546	64.345	68.993	318.227	68.670	-8191	255	
2665.825	1	1	0	0	0.11574	0.32071	0.12305	0.12321	0.16918	0.10935	0.31285	0.25674	0.1182	0.13454	0.16429	0.19642	0.10762	0.11808	0.1105	0.2331	-2.4708	-3.0979	-2.9729	-2.8604	-3.2042	-2.95	-3.2083	-3.1979	-3.0021	-3.0958	-3.225	-3.1375	-3.1	-3.0083	-3.0771	-3.4188	284.675	146.096	149.860	300.152	245.556	190.646	383.215	320.530	152.588	196.945	82.303	365.913	307.390	338.741	379.925	384.797	0.0010597	0.00050201	0.00032028	700.61	1.1076e-05	1.0569e-05	993.49	216.57	1.4902e-05	4.7025e-06	343.6	138.29	66.567	21.733	1.5538e-05	58.276	0.004601	0.0055098	0.0015299	752.01	5.8638e-05	6.0273e-05	995.83	221.24	5.679e-05	6.0232e-05	353.55	140.46	77.317	23.455	5.8278e-05	60.313	53.103	321.123	164.794	54.699	175.174	152.094	54.517	59.110	214.947	203.465	58.723	64.042	64.212	69.299	62.351	68.545	-8191	255	
2665.945	1	1	0	0	0.19431	0.049775	0.092937	0.24474	0.14822	0.30692	0.27542	0.25465	0.19165	0.09201	0.044327	0.10612	0.16097	0.18336	0.17288	0.21501	-2.5646	-3.1583	-3.0312	-3.0167	-3.3063	-3.0333	-3.0667	-3.3583	-2.9479	-3.2708	-3.1625	-3.0771	-3.2875	-3.1667	-2.9792	-3.1625	112.185	168.726	303.658	388.620	280.289	399.347	361.115	385.869	240.540	147.473	281.769	322.846	220.508	60.585	284.013	301.232	0.0011825	0.00056483	0.00020662	696.87	1.4268e-05	1.2154e-05	992.04	216.03	6.9465e-06	1.1652e-05	342	137.55	66.173	21.578	4.6199e-06	58.281	0.0045951	0.005469	0.0015212	749.69	5.8283e-05	6.0196e-05	991.33	220.57	5.6594e-05	6.0555e-05	350.85	139.71	76.913	23.306	5.7822e-05	59.876	49.270	160.279	107.088	54.224	197.111	121.496	54.678	59.299	122.168	182.336	58.455	63.945	64.506	68.945	290.195	68.343	-8191	255	
2666.017	1	1	0	0	0.14982	0.1879	0.10088	0.16609	0.11764	0.1688	0.36516	0.20297	0.22351	0.22752	0.29098	0.1993	0.063903	0.12688	0.16206	0.26344	-2.6792	-3.0938	-3.2229	-2.9708	-3.1771	-2.9813	-3.15	-3.1771	-2.9333	-2.9979	-3.2687	-2.9167	-3.1396	-2.9917	-3.0125	-3.2292	137.437	387.859	128.306	400.527	372.696	305.663	361.091	350.078	229.512	53.894	375.347	106.779	319.341	255.310	77.479	388.799	0.0010386	0.00032103	8.5458e-05	689.12	9.6419e-06	5.1303e-06	990.69	214.97	1.2986e-05	2.6839e-06	343.55	137.89	66.768	21.4	1.3471e-05	58.314	0.0044956	0.005383	0.0014926	745.38	5.8218e-05	5.9562e-05	989.8	220.94	5.6251e-05	5.9537e-05	351.95	139.57	77.144	23.295	5.8051e-05	59.977	48.681	89.439	331.294	54.357	119.438	151.499	54.621	59.318	163.438	41.483	58.752	64.173	64.464	69.321	181.768	68.790	-8191	255	
2666.113	1	1	0	0	0.038768	0.18048	0.13662	0.19457	0.092211	0.10062	0.42632	0.10409	0.11721	0.11692	0.059204	0.063255	0.056111	0.26244	0.14764	0.03471	-2.425	-3.0042	-2.9938	-3.075	-3.2208	-3.125	-3.1083	-3.2708	-3.2104	-3.1604	-3.2333	-2.8458	-3.2292	-3.0687	-3.0104	-3.2708	187.395	156.905	42.400	347.386	324.775	121.729	315.433	334.586	373.636	200.441	93.624	91.656	42.623	349.832	244.012	193.722	0.0011256	0.00079459	2.6775e-05	695.03	5.1384e-06	1.0091e-05	988.91	216.24	7.2149e-06	5.179e-06	340.87	137.91	65.844	21.326	5.2451e-06	58.313	0.0045591	0.0053642	0.0015096	747.52	5.7908e-05	5.9045e-05	989.54	221.16	5.6142e-05	5.93e-05	351.89	139.88	76.907	23.223	5.7632e-05	60.08	54.787	108.745	375.823	54.280	101.296	131.142	54.513	59.197	226.087	120.688	59.003	64.033	64.909	69.102	216.691	68.548	-8191	255	
#DATA ENDS
