BOXY.EXE: ISS Imagent and Oximeter Data Acquisition Program Version 0.80
Ascii Record File

#ACQ INFORMATION
2  Detector Channels 
16  External MUX Channels 
1  Auxiliary Channels 
5000  Waveform (CCF) Frequency (Hz)
1  Waveforms Skipped 
30  Waveforms Averaged 
1  Cycles Averaged 
16  Acquisitions per Waveform 
10.0806  Updata Rate (Hz) 

#FILE INFORMATION
TRUE -- External MUX Channel results are PARSED.
FALSE -- AC DC and Phase are NOT grouped.
TRUE -- Companion Program Settings File CREATED.
FALSE -- AC data not excluded
FALSE -- DC data not excluded
FALSE -- Phase data not excluded
FALSE -- Auxillary Chn. data not excluded
Tab delimiters

#CALIBRATION STATE
TRUE -- Waveform Calibration Values APPLIED.


#AUX CALIBRATION VALUES
Val Type	aux-1	

Term	1.0000e+00	
Factor	0.0000e+00	


#WF CALIBRATION VALUES
A = Detector Channel
Val Type	A-AC1	A-AC2	A-AC3	A-AC4	A-AC5	A-AC6	A-AC7	A-AC8	A-AC9	A-AC10	A-AC11	A-AC12	A-AC13	A-AC14	A-AC15	A-AC16	A-DC1	A-DC2	A-DC3	A-DC4	A-DC5	A-DC6	A-DC7	A-DC8	A-DC9	A-DC10	A-DC11	A-DC12	A-DC13	A-DC14	A-DC15	A-DC16	A-Ph1	A-Ph2	A-Ph3	A-Ph4	A-Ph5	A-Ph6	A-Ph7	A-Ph8	A-Ph9	A-Ph10	A-Ph11	A-Ph12	A-Ph13	A-Ph14	A-Ph15	A-Ph16	

Term	0.00000e+00	0.00000e+00	0.00000e+00	0.00000e+00	0.00000e+00	0.00000e+00	0.00000e+00	0.00000e+00	0.00000e+00	0.00000e+00	0.00000e+00	0.00000e+00	0.00000e+00	0.00000e+00	0.00000e+00	0.00000e+00	0.00000e+00	0.00000e+00	0.00000e+00	0.00000e+00	0.00000e+00	0.00000e+00	0.00000e+00	0.00000e+00	0.00000e+00	0.00000e+00	0.00000e+00	0.00000e+00	0.00000e+00	0.00000e+00	0.00000e+00	0.00000e+00	0.00000e+00	0.00000e+00	0.00000e+00	0.00000e+00	0.00000e+00	0.00000e+00	0.00000e+00	0.00000e+00	0.00000e+00	0.00000e+00	0.00000e+00	0.00000e+00	0.00000e+00	0.00000e+00	0.00000e+00	0.00000e+00	
Factor	1.00000e+00	1.00000e+00	1.00000e+00	1.00000e+00	1.00000e+00	1.00000e+00	1.00000e+00	1.00000e+00	1.00000e+00	1.00000e+00	1.00000e+00	1.00000e+00	1.00000e+00	1.00000e+00	1.00000e+00	1.00000e+00	1.00000e+00	1.00000e+00	1.00000e+00	1.00000e+00	1.00000e+00	1.00000e+00	1.00000e+00	1.00000e+00	1.00000e+00	1.00000e+00	1.00000e+00	1.00000e+00	1.00000e+00	1.00000e+00	1.00000e+00	1.00000e+00	X	X	X	X	X	X	X	X	X	X	X	X	X	X	X	X	

B = Detector Channel
Val Type	B-AC1	B-AC2	B-AC3	B-AC4	B-AC5	B-AC6	B-AC7	B-AC8	B-AC9	B-AC10	B-AC11	B-AC12	B-AC13	B-AC14	B-AC15	B-AC16	B-DC1	B-DC2	B-DC3	B-DC4	B-DC5	B-DC6	B-DC7	B-DC8	B-DC9	B-DC10	B-DC11	B-DC12	B-DC13	B-DC14	B-DC15	B-DC16	B-Ph1	B-Ph2	B-Ph3	B-Ph4	B-Ph5	B-Ph6	B-Ph7	B-Ph8	B-Ph9	B-Ph10	B-Ph11	B-Ph12	B-Ph13	B-Ph14	B-Ph15	B-Ph16	

Term	0.00000e+00	0.00000e+00	0.00000e+00	0.00000e+00	0.00000e+00	0.00000e+00	0.00000e+00	0.00000e+00	0.00000e+00	0.00000e+00	0.00000e+00	0.00000e+00	0.00000e+00	0.00000e+00	0.00000e+00	0.00000e+00	0.00000e+00	0.00000e+00	0.00000e+00	0.00000e+00	0.00000e+00	0.00000e+00	0.00000e+00	0.00000e+00	0.00000e+00	0.00000e+00	0.00000e+00	0.00000e+00	0.00000e+00	0.00000e+00	0.00000e+00	0.00000e+00	-3.55938e+01	-1.27701e+02	-1.25281e+02	-1.82617e+02	-5.40153e+01	-6.01161e+01	-1.56707e+02	-1.61923e+02	-3.23848e+01	-6.96501e+01	-1.72081e+02	-1.72121e+02	-1.82310e+02	-1.75613e+02	-4.80221e+01	-1.49421e+02	
Factor	1.75935e-05	1.27067e-04	3.90881e-05	1.69756e-01	1.41494e-06	1.43045e-06	1.51472e-01	4.16107e-02	1.27005e-06	1.46452e-06	7.00974e-02	2.89022e-02	2.93523e-02	6.32495e-03	1.47419e-06	9.43134e-03	9.40978e-06	1.53733e-05	4.30930e-06	8.73817e-02	1.59016e-07	1.71387e-07	7.34779e-02	2.15944e-02	1.53695e-07	1.73083e-07	3.51862e-02	1.45699e-02	1.52597e-02	3.31565e-03	1.61020e-07	4.78232e-03	X	X	X	X	X	X	X	X	X	X	X	X	X	X	X	X	



#DISTANCE SETTINGS
A = Detector Channel
A-1	A-2	A-3	A-4	A-5	A-6	A-7	A-8	A-9	A-10	A-11	A-12	A-13	A-14	A-15	A-16	

1.0000e+01	1.0000e+01	1.0000e+01	1.4500e+00	1.0000e+01	1.0000e+01	1.5100e+00	1.9500e+00	1.0000e+01	1.0000e+01	2.0100e+00	2.5000e+00	2.4400e+00	2.9500e+00	1.0000e+01	3.0100e+00	

B = Detector Channel
B-1	B-2	B-3	B-4	B-5	B-6	B-7	B-8	B-9	B-10	B-11	B-12	B-13	B-14	B-15	B-16	

1.0000e+01	1.0000e+01	1.0000e+01	1.4500e+00	1.0000e+01	1.0000e+01	1.5100e+00	1.9500e+00	1.0000e+01	1.0000e+01	2.0100e+00	2.5000e+00	2.4400e+00	2.9500e+00	1.0000e+01	3.0100e+00	




#DATA BEGINS
time	group	step	mark	flag	A-AC1	A-AC2	A-AC3	A-AC4	A-AC5	A-AC6	A-AC7	A-AC8	A-AC9	A-AC10	A-AC11	A-AC12	A-AC13	A-AC14	A-AC15	A-AC16	A-DC1	A-DC2	A-DC3	A-DC4	A-DC5	A-DC6	A-DC7	A-DC8	A-DC9	A-DC10	A-DC11	A-DC12	A-DC13	A-DC14	A-DC15	A-DC16	A-Ph1	A-Ph2	A-Ph3	A-Ph4	A-Ph5	A-Ph6	A-Ph7	A-Ph8	A-Ph9	A-Ph10	A-Ph11	A-Ph12	A-Ph13	A-Ph14	A-Ph15	A-Ph16	B-AC1	B-AC2	B-AC3	B-AC4	B-AC5	B-AC6	B-AC7	B-AC8	B-AC9	B-AC10	B-AC11	B-AC12	B-AC13	B-AC14	B-AC15	B-AC16	B-DC1	B-DC2	B-DC3	B-DC4	B-DC5	B-DC6	B-DC7	B-DC8	B-DC9	B-DC10	B-DC11	B-DC12	B-DC13	B-DC14	B-DC15	B-DC16	B-Ph1	B-Ph2	B-Ph3	B-Ph4	B-Ph5	B-Ph6	B-Ph7	B-Ph8	B-Ph9	B-Ph10	B-Ph11	B-Ph12	B-Ph13	B-Ph14	B-Ph15	B-Ph16	aux-1	digaux	

1380.807	1	1	0	512	0.079079	0.12811	0.085588	0.0086147	0.16665	0.058657	0.48666	0.17515	0.15771	0.078563	0.070495	0.081839	0.21722	0.097012	0.08879	0.40062	-3.7042	-3.2604	-4.0604	-4.1312	-3.0542	-4.1833	-3.8083	-3.4688	-4.1375	-3.2896	-3.9792	-4.0021	-3.3146	-4.3625	-3.7313	-3.5854	348.096	233.566	52.222	120.792	114.362	40.254	326.125	306.970	175.430	202.089	102.695	301.388	322.063	346.900	42.073	292.250	0.00048016	0.0010691	0.00027735	1581.4	1.0717e-05	6.8627e-06	1518.2	433.7	7.3192e-06	7.0505e-06	433.16	152.1	134.06	59.568	5.3052e-06	75.673	0.0034535	0.0054025	0.0014943	1403.7	5.572e-05	5.9009e-05	1342.1	385.59	5.3807e-05	5.9344e-05	387.45	138	122.83	53.623	5.5808e-05	67.82	229.892	94.558	70.661	14.573	215.373	108.805	13.652	18.854	197.378	117.859	17.108	22.163	23.211	26.932	198.380	24.174	-8191	255	
1380.903	1	1	0	0	0.10827	0.1157	0.12718	0.1355	0.10907	0.089474	0.12535	0.16154	0.18809	0.098549	0.19266	0.21938	0.15414	0.21108	0.083884	0.18276	-3.875	-3.3312	-3.8042	-4.1	-3.2812	-4.0271	-3.8875	-3.5958	-4.1021	-3.2562	-3.7604	-4.175	-3.1833	-4.2208	-3.6521	-3.4042	201.779	231.124	226.346	314.473	264.400	298.148	332.415	325.045	321.909	261.889	13.960	64.745	284.207	284.937	313.722	336.227	0.00042174	0.00058974	0.00033451	1589.3	4.9306e-06	7.5102e-06	1536	435.68	6.5833e-06	6.5197e-06	432.5	153.25	135.92	58.976	4.3579e-06	74.606	0.0034028	0.0052933	0.0014622	1410	5.4709e-05	5.7599e-05	1350.5	386.99	5.2314e-05	5.9615e-05	388.99	138.51	123.32	53.306	5.5971e-05	67.138	228.656	122.785	105.533	14.483	215.030	132.830	13.661	18.982	202.403	245.594	17.137	22.034	23.359	27.370	128.697	24.252	-8191	255	
1381.022	1	1	0	0	0.22628	0.010602	0.084799	0.28874	0.226	0.16026	0.10069	0.24125	0.17368	0.1726	0.14076	0.15364	0.080176	0.15223	0.12544	0.10068	-3.7458	-3.2292	-3.4375	-4.1188	-3.2167	-4.0583	-4.0729	-3.3708	-4.1	-3.4417	-3.5167	-4.2104	-3.325	-3.9521	-3.875	-3.2438	263.806	68.125	282.897	316.422	261.185	73.552	323.706	310.120	313.767	26.289	349.143	339.065	2.254	296.708	51.112	306.463	0.00046524	0.00053327	0.00010176	1582.8	5.2832e-06	1.7823e-06	1520.8	435.7	8.4484e-06	1.0045e-05	427.11	151.14	134.1	59.16	9.87e-06	74.182	0.0034248	0.0052694	0.0014682	1410.5	5.583e-05	5.8498e-05	1342.8	386.76	5.4409e-05	5.9206e-05	384.84	137.2	122.61	53.164	5.5521e-05	66.517	228.383	181.335	62.037	14.475	176.189	180.041	13.638	18.944	147.440	203.837	17.366	21.529	23.589	26.834	219.324	24.328	-8191	255	
1381.118	1	1	0	0	0.084076	0.15737	0.086784	0.1767	0.041107	0.16144	0.43563	0.32781	0.092723	0.11139	0.09381	0.18679	0.24953	0.2641	0.19419	0.40426	-3.7729	-3.4146	-3.3312	-4.3208	-3.1813	-3.8292	-4.3187	-3.3229	-4.0333	-3.675	-3.4458	-4.3208	-3.3812	-4.0687	-3.9167	-3.3229	153.372	248.204	141.132	323.296	266.029	84.615	306.933	296.145	163.881	109.491	82.608	344.548	8.676	331.252	337.053	321.544	0.00051971	0.00095757	0.00041654	1586.6	8.9195e-06	8.9726e-06	1510	433.31	5.0139e-06	4.2803e-06	431.66	151.65	134.87	59.255	7.1536e-06	74.381	0.003443	0.0053632	0.00152	1409.2	5.5803e-05	5.9638e-05	1338.8	386.51	5.3916e-05	5.9993e-05	386.6	137.44	122.9	53.147	5.5984e-05	66.653	229.644	102.985	131.207	14.618	208.681	192.491	13.731	18.760	248.965	195.670	17.033	21.804	23.048	26.905	149.683	24.333	-8191	255	
1381.214	1	1	0	0	0.1715	0.17355	0.21608	0.17831	0.20443	0.096131	0.1556	0.088612	0.10272	0.025352	0.35332	0.22007	0.12757	0.10574	0.12586	0.38458	-3.6333	-3.8104	-3.3479	-4.1271	-3.3396	-3.6104	-4.2229	-3.4042	-4	-3.725	-3.45	-4.2208	-3.4521	-3.6188	-4.0208	-3.375	21.879	197.453	83.375	312.069	68.377	67.988	11.522	337.289	244.085	355.987	200.675	337.304	41.485	270.809	93.209	358.927	0.00048499	0.00063315	0.00046817	1586.8	1.1628e-05	1.0291e-05	1526.3	436.56	6.7636e-06	8.8535e-06	433.2	152.61	135.71	59.361	1.2972e-05	75.313	0.0035035	0.0053763	0.0014928	1408.9	5.615e-05	6.0229e-05	1349.2	387.25	5.3695e-05	5.9866e-05	389.05	138.41	123.7	53.394	5.612e-05	67.466	229.431	99.073	75.075	14.770	185.690	150.510	13.879	18.825	207.238	129.455	17.368	22.101	23.495	27.140	182.076	24.103	-8191	255	
1381.310	1	1	0	0	0.16989	0.067418	0.065122	0.34968	0.13762	0.13045	0.20323	0.024791	0.10329	0.079643	0.29195	0.21443	0.21216	0.22443	0.11153	0.070591	-3.4083	-3.7875	-3.2708	-4.3208	-3.4375	-3.2792	-4.3521	-3.3688	-3.8083	-3.8646	-3.3833	-4.0521	-3.4771	-3.5479	-4.1667	-3.4271	304.528	266.767	245.177	336.432	75.669	287.635	264.249	254.428	30.920	119.497	280.473	247.700	316.446	340.398	165.681	164.054	0.0004457	0.00097398	0.00022502	1589.9	1.2242e-05	3.0571e-06	1528.6	437.05	4.0883e-06	1.5814e-05	433.71	151.79	135.71	59.307	1.8851e-05	74.568	0.0035206	0.0054089	0.0015105	1414.4	5.6609e-05	6.0236e-05	1354.6	387.55	5.5429e-05	6.0431e-05	390.09	138.06	123.64	53.343	5.7277e-05	67.03	226.663	3.230	185.839	14.820	157.627	38.717	13.923	18.904	145.906	153.370	16.944	21.719	23.747	27.278	190.188	24.205	-8191	255	
1381.406	1	1	0	0	0.15415	0.037325	0.21294	0.22445	0.17522	0.12149	0.19301	0.1108	0.23859	0.18103	0.15247	0.36709	0.087579	0.11201	0.15126	0.20799	-3.4542	-4.0583	-3.2021	-4.2104	-3.4729	-3.4146	-4.3021	-3.6167	-3.6208	-4.1333	-3.3521	-4.2188	-3.7333	-3.4042	-4.1333	-3.4854	253.673	274.242	130.303	296.177	264.125	9.795	332.566	308.877	282.311	168.824	210.926	325.269	58.958	22.321	190.140	247.555	0.00051671	0.00079161	0.00028204	1600.9	1.3031e-05	6.7058e-06	1527.5	435.86	9.622e-06	1.1059e-05	429.87	153.89	135.67	59.194	1.7881e-05	74.324	0.0035776	0.0055062	0.0015757	1416.6	5.774e-05	6.1073e-05	1348.8	387.98	5.51e-05	6.1993e-05	388.11	138.61	123.52	53.343	5.8374e-05	66.885	235.503	73.192	76.942	14.761	165.659	138.596	14.055	19.091	265.048	156.172	16.961	21.615	23.398	27.223	169.605	24.075	-8191	255	
1381.502	1	1	0	0	0.35102	0.14616	0.093697	0.3552	0.18834	0.22429	0.061357	0.264	0.35059	0.19693	0.088931	0.16053	0.12383	0.22349	0.22779	0.22734	-3.2521	-4.0667	-3.2458	-4.2542	-3.825	-3.3063	-4.3229	-3.6167	-3.5917	-4.0708	-3.1937	-3.9229	-4.025	-3.3375	-4.1	-3.725	255.530	210.998	336.686	352.321	34.757	191.870	331.653	311.432	22.836	128.506	124.427	313.815	71.477	354.163	140.933	303.426	0.00042608	0.00087333	0.0002205	1593.1	2.0198e-05	1.0766e-05	1526.9	437.74	8.8159e-06	1.0945e-05	431.65	152.06	134.28	59.148	1.0239e-06	74.794	0.0036022	0.0053985	0.0015543	1415.7	5.6673e-05	6.0994e-05	1351.5	388.96	5.5589e-05	6.2116e-05	388.33	138.24	123.27	53.316	5.8208e-05	67.163	232.196	84.917	62.143	14.781	167.141	134.937	13.939	18.714	261.871	168.299	16.988	22.469	23.286	27.255	175.729	24.207	-8191	255	
1381.623	1	1	0	0	0.11227	0.07025	0.087291	0.14153	0.25703	0.072352	0.10078	0.14934	0.2026	0.21172	0.15853	0.082854	0.27259	0.14729	0.14811	0.25498	-3.0646	-4.05	-3.35	-4.0458	-3.9667	-3.2917	-4.2167	-3.7625	-3.375	-4.2458	-3.4167	-3.7979	-4.2063	-3.4979	-4.2063	-3.7458	348.527	96.727	39.437	307.297	109.622	343.697	229.124	327.000	236.323	212.567	285.090	79.283	348.225	358.133	255.391	346.257	0.00045822	0.0016288	0.00045488	1605	6.2294e-06	1.2579e-05	1527.9	435.15	9.7909e-06	1.3376e-05	432.42	153.68	135.34	58.999	5.8022e-06	74.851	0.0036451	0.005434	0.0015475	1422.1	5.6523e-05	6.1896e-05	1353.3	386.68	5.5591e-05	6.242e-05	388.56	139.22	123.31	53.192	5.7815e-05	67.4	229.204	107.906	86.714	14.677	286.511	158.723	13.977	18.871	210.212	125.560	17.265	22.029	23.401	27.137	156.524	24.171	-8191	255	
1381.719	1	1	0	0	0.17533	0.10726	0.13948	0.32136	0.088233	0.031139	0.30852	0.16594	0.14971	0.037777	0.056344	0.4164	0.19305	0.12952	0.095335	0.2306	-2.8854	-4.1396	-3.3667	-3.8854	-4.1021	-3.2792	-4.2042	-3.9917	-3.2625	-4.1458	-3.3937	-3.5646	-4.0958	-3.4354	-3.7938	-3.9917	299.827	359.868	321.410	284.641	107.442	11.176	318.325	260.422	151.569	186.413	31.833	313.513	87.461	285.647	333.142	262.379	0.00036506	0.00062129	0.00019957	1595.7	1.2387e-06	1.4903e-05	1532.6	430.03	6.1716e-06	1.1673e-05	428.39	152.92	133.66	58.386	1.3285e-05	73.428	0.0036178	0.0054982	0.0015354	1416.4	5.702e-05	6.2177e-05	1356.3	383.17	5.6621e-05	6.3334e-05	384.42	138.47	122.37	52.629	5.9118e-05	66.215	224.125	9.635	73.148	15.024	289.745	137.249	14.008	19.065	167.078	145.218	17.125	22.087	23.428	27.268	214.650	24.407	-8191	255	
1381.813	1	1	0	0	0.19466	0.12947	0.073859	0.19807	0.047347	0.10306	0.066445	0.22933	0.081361	0.019434	0.0662	0.15526	0.063675	0.077986	0.19089	0.28166	-3.1167	-4.0292	-3.4813	-3.5833	-4.15	-3.3542	-3.925	-4.225	-3.1354	-4.1583	-3.7646	-3.5542	-4.3104	-3.3875	-3.75	-4.1729	288.327	3.179	161.662	3.318	63.088	222.945	329.648	293.773	234.291	279.799	268.331	308.341	337.614	330.880	72.681	245.549	0.00044374	0.0010186	0.00034509	1595.5	1.6143e-05	8.6276e-06	1523.6	426.45	5.7613e-06	1.1032e-05	424.42	152.83	134.11	58.604	1.5062e-05	74.637	0.0036631	0.0055798	0.0015819	1414.9	5.7886e-05	6.299e-05	1347.5	381.15	5.5709e-05	6.288e-05	382.17	139.04	122.72	52.736	5.9473e-05	67.09	234.975	137.837	112.852	14.892	139.677	146.802	13.775	18.978	105.984	298.595	17.615	22.048	23.452	27.389	170.158	24.194	-8191	255	
1381.910	1	1	0	0	0.053862	0.25366	0.16133	0.18386	0.065641	0.18921	0.14141	0.12363	0.20619	0.09541	0.27646	0.11158	0.11742	0.13901	0.3443	0.10856	-2.8396	-4.1771	-3.5333	-3.4708	-4.2125	-3.3375	-3.9333	-4.0271	-3.2333	-4.0104	-3.7729	-3.3396	-4.2333	-3.6042	-3.5542	-4.1104	97.129	117.832	243.190	285.634	271.427	330.363	265.571	14.907	287.042	116.824	280.952	292.932	128.075	7.433	241.174	248.505	0.00045833	0.00068627	0.00025866	1603.5	1.3131e-05	5.5003e-06	1524.2	428.01	7.0355e-06	6.4084e-06	425.6	154.87	133.72	58.542	9.1536e-06	74.926	0.0036806	0.0055765	0.0015462	1420.1	5.8333e-05	6.275e-05	1350.4	381.4	5.577e-05	6.2517e-05	383.06	140.59	122.5	52.722	5.8167e-05	67.099	224.190	95.478	68.575	15.033	203.801	175.162	14.009	18.905	192.780	47.672	17.460	21.969	23.844	27.053	290.111	24.379	-8191	255	
1382.006	1	1	0	0	0.22169	0.097915	0.13851	0.22103	0.12149	0.18509	0.28823	0.18388	0.13425	0.09915	0.14381	0.13778	0.11325	0.17721	0.20861	0.17546	-2.7125	-3.8958	-3.6958	-3.4458	-3.9833	-3.3417	-3.85	-4.4292	-3.2188	-4.0792	-3.9792	-3.3271	-4.2333	-3.6896	-3.5604	-4.2396	160.646	143.877	250.512	315.600	114.727	63.399	272.056	6.431	121.181	123.892	256.317	353.067	338.786	3.255	278.826	219.085	0.00049481	0.0013921	0.00042343	1596.5	3.3726e-06	1.289e-05	1531.7	426.67	4.9418e-06	1.0121e-05	425.19	155.67	134.8	58.003	1.0159e-05	75.446	0.0036108	0.0055048	0.0015607	1415.9	5.737e-05	6.0976e-05	1353	378.9	5.5051e-05	6.1967e-05	382.63	141.52	122.51	52.463	5.8123e-05	67.468	223.030	105.741	97.027	14.914	219.883	164.019	14.058	19.151	170.245	97.328	17.073	22.451	23.449	27.075	97.024	24.411	-8191	255	
1382.102	1	1	0	0	0.1866	0.062935	0.12017	0.32565	0.14246	0.099702	0.20275	0.20881	0.14067	0.19837	0.19519	0.24344	0.34481	0.20984	0.10422	0.29669	-2.9229	-4.0208	-3.8771	-3.3354	-4.1146	-3.525	-3.7313	-4.4333	-3.1458	-3.8146	-4.0458	-3.2812	-4.0687	-3.8312	-3.3146	-4.2063	196.424	241.529	95.870	330.022	329.933	126.108	258.523	14.258	359.994	148.456	331.848	326.224	343.734	286.542	43.271	280.240	0.00039105	0.0014956	0.00027211	1597.7	1.6857e-06	9.0388e-06	1531.2	427.06	1.2987e-05	8.5077e-06	424.29	154.89	133.82	58.208	7.6666e-06	74.211	0.0035922	0.0055437	0.001569	1414.7	5.6819e-05	6.1521e-05	1354.5	378.2	5.6061e-05	6.2218e-05	382.38	140.46	122.24	52.323	6.0017e-05	66.596	211.568	102.215	36.090	14.792	219.918	167.510	14.127	19.257	251.256	109.541	17.181	22.043	23.116	26.889	151.630	24.395	-8191	255	
1382.198	1	1	0	0	0.14406	0.15887	0.11218	0.29632	0.16661	0.1494	0.29898	0.39999	0.079493	0.10142	0.11363	0.25844	0.11183	0.28609	0.13621	0.2841	-2.9854	-3.8583	-4.1208	-3.4479	-3.9313	-3.7833	-3.4167	-4.2854	-3.2021	-3.5583	-4.1292	-3.2812	-3.9875	-4.075	-3.1688	-4.2396	307.639	6.333	251.246	336.955	194.887	322.974	304.718	315.901	192.861	70.414	349.854	35.148	39.644	14.206	84.875	287.577	0.00034867	0.00121	0.00042886	1587.7	9.724e-06	8.9675e-06	1521.5	427.24	5.1322e-06	1.1649e-05	422.59	155.3	133.25	58.316	7.0286e-06	74.203	0.0037072	0.0057945	0.0016096	1409.5	5.9737e-05	6.4638e-05	1347.9	377.85	5.7465e-05	6.4371e-05	381.69	140.64	122.21	52.408	6.1672e-05	66.81	238.433	125.952	88.447	15.108	156.127	101.202	13.825	19.136	122.213	46.855	17.235	22.019	23.687	26.879	216.099	24.261	-8191	255	
1382.319	1	1	0	0	0.17699	0.21576	0.14696	0.33326	0.081888	0.12857	0.36073	0.19557	0.095499	0.17456	0.24796	0.26287	0.23175	0.27353	0.086439	0.21009	-2.9542	-3.525	-4.0604	-3.2542	-3.9604	-3.8854	-3.3583	-4.2167	-3.5292	-3.4146	-4.1896	-3.2354	-4.0625	-4.175	-3.225	-4.2771	330.506	262.079	29.555	356.128	228.091	16.739	252.650	292.651	107.326	267.407	291.642	275.176	327.621	296.176	323.312	317.947	0.00040048	0.0011119	0.00023708	1585	5.721e-06	1.4344e-05	1531.4	426.38	4.3392e-06	7.5398e-06	429.54	156.38	134.54	59.086	1.7691e-05	75.085	0.0038342	0.0058927	0.0016393	1412.4	6.0223e-05	6.531e-05	1354.2	380.52	5.8741e-05	6.6256e-05	385.87	141.67	122.98	52.99	6.0741e-05	67.742	236.767	97.958	90.929	14.706	191.040	91.692	14.080	19.093	146.235	230.585	17.177	22.093	23.974	27.078	176.266	24.419	-8191	255	
1382.415	1	1	0	0	0.16443	0.10967	0.015252	0.20033	0.16105	0.13888	0.23117	0.22685	0.077995	0.13842	0.058562	0.15291	0.072873	0.14908	0.24332	0.41948	-3.3021	-3.35	-4.1375	-3.575	-3.7458	-4.1417	-3.5354	-4.2896	-3.5708	-3.3271	-4.3792	-3.5521	-3.8792	-4.225	-3.2542	-4.1771	91.602	352.333	214.816	269.103	257.731	191.796	342.218	296.996	157.124	177.525	254.953	92.688	78.170	345.859	294.164	351.663	0.00043128	0.00044425	0.00015267	1583.2	7.0209e-06	5.9502e-06	1531.6	429.11	1.3551e-05	7.221e-06	428.83	157.77	133.8	59.223	1.8772e-05	75.781	0.0038045	0.0058757	0.0016491	1413.6	6.2086e-05	6.5762e-05	1359.3	382	5.9592e-05	6.687e-05	387.84	142.85	123.25	53.203	6.221e-05	68.464	218.036	83.794	54.696	14.779	153.425	159.864	13.931	19.024	248.239	193.272	17.393	22.342	23.646	27.095	176.259	24.258	-8191	255	
1382.487	1	1	0	0	0.25006	0.1498	0.095421	0.1898	0.2993	0.2063	0.19513	0.26945	0.14853	0.077535	0.21316	0.14784	0.17953	0.35671	0.2866	0.27008	-3.6104	-3.3146	-4.275	-3.5375	-3.675	-4.1375	-3.5187	-4.0563	-3.7375	-3.2458	-4.275	-3.5187	-3.6875	-4.3896	-3.3792	-4.0687	315.878	34.241	270.338	5.922	252.955	203.940	310.372	298.746	129.506	172.412	274.475	326.552	320.203	326.132	227.589	280.642	0.0004877	0.00096251	0.00010586	1597.3	1.0292e-05	1.1417e-05	1537	428.86	7.2988e-06	4.7997e-06	428.88	154.59	133.71	58.303	1.0684e-05	74.434	0.0038564	0.0060309	0.0016685	1419.3	6.2564e-05	6.6728e-05	1359.3	382.49	5.9713e-05	6.7919e-05	387.19	141.4	123.1	52.648	6.5077e-05	67.126	221.827	67.217	306.524	14.828	136.743	116.700	13.752	19.271	255.522	103.227	17.528	22.188	23.732	27.381	224.969	24.582	-8191	255	
1382.583	1	1	0	0	0.083204	0.13088	0.1371	0.2197	0.1742	0.20343	0.14817	0.15086	0.23001	0.25836	0.38022	0.16993	0.085504	0.28391	0.04561	0.0974	-3.6208	-3.1813	-4.1271	-3.75	-3.4125	-4.1521	-3.6312	-3.9458	-3.8625	-3.3	-4.1042	-3.7104	-3.4958	-4.5	-3.3604	-3.9479	349.419	144.434	85.227	231.761	329.706	10.647	324.656	76.100	246.215	15.212	354.200	66.634	332.288	322.739	265.572	338.412	0.00045558	0.00051712	0.000153	1589.1	5.0843e-06	8.0855e-06	1524.7	428.34	5.6135e-06	5.8819e-06	427.42	155.04	134.22	58.284	9.0738e-06	74.589	0.0039672	0.0062021	0.0017381	1414.6	6.4723e-05	7.0014e-05	1350.2	382.25	6.3195e-05	7.137e-05	386.61	141.48	123.3	52.707	6.6925e-05	67.344	211.756	304.923	65.733	14.940	210.421	191.355	13.984	18.987	112.614	102.169	17.464	22.411	23.640	27.139	146.172	24.393	-8191	255	
1382.703	1	1	0	0	0.19647	0.13925	0.24626	0.39179	0.12343	0.21309	0.16977	0.25995	0.29321	0.079001	0.24856	0.53252	0.060206	0.22018	0.044244	0.22356	-3.7396	-3.3146	-4.0687	-3.8125	-3.3208	-4.1	-3.6917	-3.8083	-4.1083	-3.325	-4.1604	-3.8146	-3.2167	-4.2438	-3.4979	-3.8896	353.689	34.779	272.790	301.869	318.365	203.639	304.899	290.403	316.761	282.140	281.048	268.828	71.862	243.906	88.544	303.179	0.00046696	0.00082514	0.00020517	1588.3	1.4119e-05	8.734e-06	1532.7	429.5	3.9464e-06	4.7436e-06	432.17	155.83	134.24	58.502	1.498e-05	74.79	0.0040471	0.006388	0.0017721	1414.8	6.6652e-05	7.3018e-05	1356.9	384.13	6.423e-05	7.3218e-05	390.12	142.24	123.84	52.915	6.9047e-05	67.624	212.566	117.933	98.348	14.836	199.698	145.402	13.553	19.437	176.814	228.233	17.540	21.824	23.892	27.554	262.177	24.455	-8191	255	
1382.799	1	1	0	0	0.09643	0.18898	0.12682	0.35981	0.060156	0.2114	0.25172	0.24639	0.14252	0.15267	0.11744	0.16043	0.30936	0.25582	0.14955	0.081816	-3.8167	-3.2271	-3.8521	-4.0354	-3.0938	-4.2438	-3.6208	-3.7438	-4.0979	-3.3833	-3.9667	-3.9396	-3.2458	-4.2292	-3.6396	-3.6604	219.706	305.885	74.478	288.154	12.684	35.912	269.803	291.523	18.955	54.974	206.706	295.208	356.851	278.436	12.698	244.872	0.00042505	0.00010235	0.00035358	1588	7.8849e-06	5.1451e-06	1527.3	431.37	1.23e-05	1.3615e-05	429.19	156.64	134.1	58.043	2.3071e-05	75.31	0.004244	0.0067492	0.0018856	1418.1	6.9022e-05	7.4362e-05	1357.4	384.63	6.7699e-05	7.6387e-05	390.96	142.7	123.43	52.77	7.1469e-05	67.972	239.386	47.851	153.788	14.713	229.901	323.481	13.504	19.226	146.435	119.410	17.674	21.866	23.876	27.286	257.072	24.695	-8191	255	
1382.896	1	1	0	0	0.17065	0.21951	0.10082	0.077507	0.14583	0.1458	0.31247	0.15275	0.17931	0.10607	0.082344	0.16234	0.15858	0.22702	0.1416	0.29146	-3.95	-3.2313	-3.7562	-4.2937	-3.2917	-4.2167	-3.9104	-3.5938	-4.0938	-3.425	-3.8979	-4.2958	-3.2396	-4.1354	-3.7083	-3.6771	291.078	263.938	290.275	289.700	354.794	37.533	268.469	339.397	50.154	264.964	305.502	41.439	338.466	311.092	238.085	276.321	0.00046577	0.0012788	0.00021438	1592.8	3.7575e-06	6.2788e-06	1526.5	428.72	6.4519e-06	1.5876e-05	429.42	155.11	134.15	58.38	1.8932e-05	74.276	0.0044359	0.0069008	0.0019319	1418	7.243e-05	7.7828e-05	1357.7	384.04	7.007e-05	7.7495e-05	390.14	141.61	123.91	52.721	7.3421e-05	67.294	219.502	82.348	55.374	14.632	182.762	7.485	14.084	19.009	217.358	133.304	17.031	22.017	23.825	27.388	187.117	24.489	-8191	255	
1383.014	1	1	0	0	0.28669	0.076155	0.036772	0.23673	0.29512	0.080087	0.27151	0.38333	0.18292	0.16306	0.082533	0.23221	0.2693	0.095032	0.01963	0.056336	-3.9771	-3.2042	-3.5625	-4.2438	-3.2625	-4.0146	-4.0437	-3.3771	-4.2562	-3.5479	-3.7083	-4.225	-3.2875	-4.1042	-4.0708	-3.4604	162.840	34.133	146.608	320.096	29.598	168.136	250.909	320.453	94.287	269.653	203.735	34.696	270.444	286.772	237.142	209.096	0.00052744	0.0012021	0.00026641	1578.6	7.8743e-06	1.2826e-05	1519.7	431.13	1.8645e-06	8.2453e-06	431.29	154.9	133.67	58.137	7.8408e-06	74.632	0.00448	0.0070119	0.0019703	1411.7	7.3097e-05	7.911e-05	1352.4	385.17	7.1275e-05	8.0735e-05	390.85	141.9	123.74	52.797	7.4436e-05	67.742	228.873	103.075	94.773	14.821	358.437	148.979	13.948	19.323	48.006	93.902	17.304	21.896	23.500	27.460	220.608	24.123	-8191	255	
1383.111	1	1	0	0	0.25364	0.038595	0.080333	0.16065	0.14605	0.12358	0.1842	0.33877	0.25095	0.15011	0.34747	0.068761	0.10744	0.21772	0.26044	0.094748	-3.9104	-3.4667	-3.4813	-4.3146	-3.2292	-3.8312	-4.15	-3.375	-4.0396	-3.6167	-3.5208	-4.2083	-3.45	-4.0292	-4.0229	-3.4167	220.752	203.845	31.192	20.204	89.337	343.531	326.505	286.664	338.771	68.180	324.877	14.420	337.487	8.067	349.466	17.883	0.00046511	0.0012758	0.00012821	1590.2	1.0217e-05	1.3918e-05	1522.4	434.38	7.5266e-06	9.2504e-06	435.35	155.93	134.54	58.08	1.1928e-05	74.71	0.00455	0.0070898	0.0020158	1418.1	7.4238e-05	7.8631e-05	1357.3	387.75	7.1666e-05	8.1116e-05	394.37	142.12	123.6	52.75	7.5277e-05	67.533	216.875	96.247	18.238	14.710	81.340	222.349	13.673	19.179	263.838	183.961	17.370	21.980	23.640	27.294	182.498	24.276	-8191	255	
1383.182	1	1	0	0	0.20182	0.062339	0.2145	0.22683	0.024891	0.15655	0.37752	0.11836	0.093947	0.072376	0.20913	0.17811	0.42566	0.28384	0.077187	0.23706	-3.7167	-3.7167	-3.475	-4.4042	-3.4354	-3.7125	-4.1917	-3.3063	-3.9833	-3.7792	-3.5167	-4.4062	-3.5396	-3.7271	-4.0729	-3.5542	82.807	65.111	351.751	356.250	101.764	262.408	303.048	3.140	231.306	74.297	25.693	160.505	38.259	330.022	81.088	270.439	0.00044299	0.00093111	0.00016275	1586.2	8.1194e-06	1.2237e-05	1525.6	433.39	4.7518e-06	1.2978e-05	434.33	154.35	132.44	57.638	1.0201e-05	74.081	0.0047032	0.0073059	0.0020667	1417.7	7.7056e-05	8.2672e-05	1357.4	388.11	7.3043e-05	8.2624e-05	394.17	141.67	123.17	52.32	7.7823e-05	67.258	252.446	80.068	51.926	15.114	182.185	113.413	14.044	19.309	68.741	116.377	17.021	22.067	23.556	27.301	205.463	24.490	-8191	255	
1383.303	1	1	0	0	0.14597	0.18709	0.15315	0.29331	0.064432	0.15548	0.18748	0.2814	0.088126	0.20922	0.15168	0.27969	0.031024	0.27329	0.12384	0.13559	-3.5938	-3.7542	-3.2875	-4.3479	-3.5458	-3.6625	-4.3333	-3.3812	-3.9562	-3.8667	-3.4729	-4.2292	-3.6437	-3.7375	-4.3083	-3.4208	132.730	84.649	218.816	314.698	323.923	220.129	335.669	320.687	324.529	330.294	246.114	327.950	307.307	11.209	237.211	1.236	0.00051448	0.0013543	0.00026385	1583.9	1.5837e-05	9.9406e-06	1523.6	431.54	1.8958e-05	9.8001e-06	431.18	152.32	131.47	57.173	9.1778e-06	72.586	0.0048015	0.007618	0.0021309	1418.8	7.9553e-05	8.4867e-05	1357.2	387.13	7.6917e-05	8.5804e-05	393.23	140.65	122.86	51.96	8.2171e-05	66.078	224.560	32.837	95.528	15.069	164.702	87.509	14.244	19.087	189.543	130.209	17.262	21.991	23.845	27.287	243.280	24.587	-8191	255	
1383.399	1	1	0	0	0.051289	0.09552	0.17292	0.36107	0.13252	0.11563	0.067322	0.060429	0.097091	0.061567	0.18577	0.12151	0.059529	0.077005	0.15738	0.23704	-3.4875	-3.825	-3.1708	-4.3562	-3.5083	-3.4479	-4.2917	-3.5458	-3.6458	-3.9458	-3.4021	-4.1083	-3.8375	-3.5062	-4.1	-3.7521	173.385	326.637	77.144	326.387	228.549	214.589	332.508	352.280	122.114	72.142	60.115	302.538	130.058	1.168	272.810	273.059	0.00033206	0.00084513	0.00029618	1581.4	1.2022e-05	3.1224e-06	1521.1	436.86	8.8126e-06	1.6859e-05	433.69	153.57	132.69	57.964	7.6132e-06	74.15	0.0049172	0.0077264	0.0021391	1419.5	7.9624e-05	8.5187e-05	1353.4	390.92	7.6851e-05	8.7076e-05	394.51	140.69	123.57	52.347	8.0481e-05	66.988	210.547	355.806	177.149	15.033	98.602	37.237	14.049	18.940	245.326	183.972	17.547	22.108	23.605	27.173	147.230	24.142	-8191	255	
1383.495	1	1	0	0	0.18892	0.10716	0.13924	0.31502	0.060764	0.087692	0.31319	0.19645	0.15257	0.11944	0.20511	0.15105	0.096708	0.43743	0.11278	0.23621	-3.3458	-4.075	-3.4021	-4.1542	-3.8146	-3.25	-4.4479	-3.6167	-3.7354	-4.075	-3.4875	-3.9292	-3.8042	-3.2313	-4.1625	-3.5646	338.856	359.106	42.438	360.555	53.869	70.552	302.241	334.670	349.303	160.960	299.884	249.239	228.584	284.276	224.925	310.162	0.0004112	0.0008712	0.00027254	1595.2	1.0939e-05	3.6953e-06	1527	438.16	1.8579e-05	1.2563e-05	437.26	153.91	132.7	57.56	6.2872e-06	74.078	0.0048321	0.0076183	0.002146	1424.7	7.9433e-05	8.4855e-05	1361.6	392.86	7.7615e-05	8.8311e-05	399.53	142.11	124.04	52.413	8.1971e-05	67.179	217.709	35.181	95.350	15.229	148.839	136.148	14.051	19.282	188.122	215.551	17.174	22.172	23.920	27.160	26.195	24.198	-8191	255	
1383.616	1	1	0	0	0.1412	0.11365	0.2407	0.17272	0.15495	0.10752	0.28929	0.22922	0.16078	0.27956	0.21423	0.21653	0.21512	0.19861	0.12168	0.089095	-3.2104	-4.0375	-3.2458	-4.0917	-3.9562	-3.4	-4.3125	-3.8125	-3.3708	-4.1583	-3.5771	-3.9521	-4.0354	-3.3208	-4.1917	-3.8646	297.747	185.164	306.179	273.833	130.741	287.081	260.339	320.710	334.088	281.805	2.410	2.639	288.916	28.739	285.844	222.659	0.00053946	0.00045756	0.0002191	1587.4	1.0154e-05	4.1931e-06	1528	437.76	8.3265e-06	8.7249e-06	437.88	153.43	132.55	57.012	2.0824e-05	73.235	0.0050964	0.0079876	0.0022315	1426.8	8.2837e-05	8.9445e-05	1366.6	393.13	8.136e-05	9.1788e-05	399.21	142.04	123.48	51.876	8.7461e-05	66.749	212.848	84.248	14.165	15.152	214.815	120.913	13.930	18.909	296.148	126.524	17.323	21.972	23.398	27.219	164.371	24.511	-8191	255	
1383.712	1	1	0	0	0.39076	0.15416	0.21743	0.20084	0.091224	0.14266	0.32474	0.29938	0.16048	0.058142	0.20735	0.074709	0.072247	0.091769	0.093723	0.17534	-2.925	-4.0979	-3.3417	-3.7562	-4.0104	-3.2417	-4.2104	-3.8396	-3.2188	-4.1021	-3.4708	-3.6271	-4.1062	-3.5146	-3.9083	-3.9271	312.040	234.073	163.079	306.793	174.323	123.176	247.186	334.892	214.951	340.353	342.922	211.771	342.432	358.446	108.001	1.661	0.00038135	0.0002204	0.00020926	1578.8	9.3907e-06	9.5113e-06	1520.6	434.61	1.0492e-05	1.1088e-05	430.17	150.94	131.14	55.989	3.7664e-06	71.305	0.005275	0.0083216	0.0023774	1420.2	8.7231e-05	9.4073e-05	1357.5	389.87	8.5054e-05	9.559e-05	393.85	139.9	122.29	51.106	8.9335e-05	65.103	229.164	327.958	235.252	14.876	179.224	145.601	14.140	18.876	174.021	78.832	17.605	22.101	23.450	27.421	257.544	24.051	-8191	255	
1383.784	1	1	0	0	0.055402	0.09427	0.17083	0.2194	0.12327	0.10061	0.24756	0.27699	0.15049	0.21702	0.085015	0.14539	0.15017	0.14514	0.11846	0.098273	-2.8937	-4.1167	-3.4292	-3.7854	-4.0896	-3.3208	-4.0479	-3.9417	-3.1375	-4.175	-3.6542	-3.5125	-4.3479	-3.3208	-3.7667	-4.2125	302.583	293.834	62.498	262.685	347.609	182.272	290.663	289.910	304.280	277.321	108.316	359.177	149.018	14.464	14.134	281.620	0.00044595	0.00056207	0.00025992	1574.1	1.1553e-05	5.9145e-06	1516.9	433.23	1.6562e-05	9.4134e-06	431.87	151.38	130.68	55.887	3.2944e-06	71.647	0.005527	0.0087056	0.0024378	1415.5	8.7691e-05	9.6161e-05	1356	389.02	8.5027e-05	9.5366e-05	395.97	140.14	122.4	51.114	8.9393e-05	65.442	246.699	100.244	305.480	15.071	215.623	168.035	13.880	19.158	218.033	106.901	17.032	22.410	23.513	27.022	357.798	24.244	-8191	255	
1383.880	1	1	0	0	0.018326	0.29727	0.21199	0.24376	0.19098	0.092041	0.14714	0.24794	0.10218	0.098406	0.27357	0.19002	0.1868	0.40228	0.15965	0.23109	-3.1437	-4.1125	-3.3542	-3.575	-4.1375	-3.2417	-3.9875	-4.3063	-3.1125	-4.1	-3.7958	-3.625	-4.2542	-3.4938	-3.4562	-4.0854	161.532	189.355	235.688	266.480	232.252	60.803	304.961	344.296	47.665	359.208	4.021	284.980	358.692	321.815	24.219	322.622	0.00042916	0.00036735	0.00012838	1585.5	6.8891e-06	5.0614e-06	1518.2	439.33	1.4706e-05	1.2564e-05	437.76	152.39	132.26	56.485	3.3199e-06	72.701	0.0054486	0.0085428	0.0023982	1419.5	8.6645e-05	9.3932e-05	1359	392.67	8.4636e-05	9.453e-05	398.33	140.89	123.22	51.473	8.7538e-05	66.35	226.271	358.884	297.574	14.953	114.475	100.864	13.904	18.880	176.522	95.536	17.190	22.111	23.711	27.049	240.814	24.083	-8191	255	
1383.976	1	1	0	0	0.13028	0.23122	0.16046	0.37379	0.14971	0.052687	0.1513	0.20707	0.10751	0.07778	0.1636	0.11262	0.13942	0.26202	0.13345	0.21356	-2.8875	-4.0271	-3.7833	-3.3729	-4.1083	-3.4	-3.85	-4.2812	-3.1	-3.9062	-3.9313	-3.4542	-4.2063	-3.6083	-3.3979	-4.4938	23.100	212.033	93.361	350.058	62.167	95.194	295.291	301.426	331.954	16.415	321.004	79.579	5.227	289.532	55.292	345.807	0.0004404	0.00085712	0.00041243	1580.3	2.0071e-05	2.4024e-05	1535.3	439.92	2.8254e-06	6.5431e-06	440.3	153.45	131.64	56.572	2.0545e-05	73.016	0.0052836	0.0083137	0.0023587	1419	8.6553e-05	9.3226e-05	1369.7	394.26	8.3354e-05	9.2665e-05	401.57	141.72	123.63	51.506	8.8263e-05	66.606	221.583	31.576	47.159	15.127	156.972	176.482	14.224	19.020	71.468	241.004	17.262	21.898	23.532	27.218	139.270	24.304	-8191	255	
1384.095	1	1	0	0	0.13376	0.13133	0.048955	0.051016	0.23412	0.048681	0.15438	0.11144	0.13715	0.1012	0.42168	0.31257	0.1706	0.33394	0.19324	0.2994	-2.8063	-3.9583	-3.7687	-3.475	-4.2083	-3.6625	-3.7604	-4.4	-3.2313	-3.8229	-4.1146	-3.2146	-4.2729	-3.8667	-3.3729	-4.4458	188.778	279.876	10.518	338.196	286.955	104.465	308.305	82.823	120.401	76.458	306.935	348.922	289.156	323.288	306.156	350.990	0.00053395	0.0013899	0.00039725	1582.7	1.2895e-05	7.7764e-06	1525.3	437.95	2.0947e-05	9.9746e-06	436.58	151.09	130.53	55.654	6.6699e-06	71.627	0.0053265	0.008576	0.0023945	1419.5	8.8086e-05	9.4882e-05	1359.8	392.83	8.546e-05	9.6982e-05	398.39	139.6	122.34	50.804	9.1426e-05	65.259	234.181	155.246	122.499	14.907	148.158	175.330	14.126	18.936	223.651	94.381	17.564	22.115	23.731	27.102	232.921	24.569	-8191	255	
1384.191	1	1	0	0	0.078335	0.16485	0.16102	0.3394	0.10292	0.082518	0.27689	0.022402	0.22468	0.095612	0.11135	0.15101	0.38485	0.24838	0.10305	0.16331	-2.9688	-3.8083	-3.9479	-3.3375	-3.9458	-3.7083	-3.6063	-4.2458	-3.4771	-3.6729	-4.3292	-3.3042	-4.225	-3.9958	-3.375	-4.3021	255.345	271.057	196.231	352.366	64.963	104.176	282.494	11.173	30.315	190.359	216.459	62.645	324.174	26.537	333.189	276.165	0.00055286	0.0010743	0.00017584	1569.1	8.0079e-06	4.7599e-06	1510.3	435.13	1.0253e-05	1.6211e-05	434.69	148.91	129.54	54.854	1.0911e-05	70.655	0.005546	0.0087094	0.00246	1413.5	9.1384e-05	9.8346e-05	1353.1	391.53	8.8702e-05	0.00010007	398.33	138.52	121.79	50.181	9.4686e-05	64.639	221.253	56.847	83.238	15.066	87.399	263.966	13.973	19.036	219.756	158.355	17.417	22.000	23.704	27.229	117.879	24.435	-8191	255	
1384.287	1	1	0	0	0.28935	0.10521	0.10448	0.067831	0.24314	0.093862	0.28906	0.22618	0.053967	0.10217	0.2667	0.097518	0.21886	0.22735	0.15085	0.10528	-3.1125	-3.6167	-4.1167	-3.3104	-3.9813	-3.8208	-3.5896	-4.4333	-3.3521	-3.6146	-4.1729	-3.3937	-3.8417	-4.0604	-3.125	-4.3646	175.812	310.036	305.205	3.822	183.895	228.455	294.310	324.627	345.571	11.722	234.128	313.130	350.704	304.589	211.843	280.742	0.00047222	0.0012032	0.00027781	1566.1	9.8965e-06	9.3441e-06	1506.6	434.6	4.7334e-06	4.2502e-06	437.47	147.97	128.42	54.305	1.1305e-05	69.858	0.0057098	0.0091276	0.0025536	1411.5	9.4887e-05	0.00010315	1350.8	392.55	9.2233e-05	0.00010401	400.22	137.97	121.75	49.802	9.8751e-05	64.147	232.940	85.801	158.472	14.811	140.086	44.079	14.191	19.060	131.609	152.730	17.266	21.911	23.926	27.501	105.897	24.521	-8191	255	
1384.408	1	1	0	0	0.17469	0.093745	0.19746	0.12909	0.093174	0.19404	0.34514	0.24264	0.084215	0.18599	0.078853	0.079152	0.24479	0.16924	0.16924	0.37214	-3.1333	-3.4938	-4.0792	-3.4396	-3.8083	-3.9771	-3.4229	-4.2479	-3.4562	-3.4125	-4.3896	-3.4271	-3.8458	-4.1375	-3.1875	-4.3063	22.320	125.364	252.016	257.615	318.093	294.457	301.037	286.355	360.023	216.776	332.344	148.091	328.206	35.012	174.667	262.946	0.00031153	0.00083539	0.00030845	1565	1.7075e-05	1.2967e-05	1509.9	437.8	1.055e-05	1.3326e-05	438.93	149.38	129.67	54.363	1.2085e-05	70.348	0.0060229	0.0095197	0.0026591	1413.5	9.877e-05	0.0001044	1354.8	395.06	9.4232e-05	0.00010659	403.22	138.92	122.29	49.931	9.918e-05	64.748	213.248	86.114	114.850	15.231	175.937	100.915	14.164	19.002	205.775	151.085	17.540	21.977	23.734	27.285	200.964	24.424	-8191	255	
1384.479	1	1	0	0	0.1949	0.17381	0.042391	0.21904	0.11401	0.26391	0.18102	0.14725	0.13668	0.30223	0.13663	0.1151	0.11113	0.24963	0.085256	0.29609	-3.4208	-3.3229	-4.2104	-3.7021	-3.6458	-4.3875	-3.5167	-4.3854	-3.7125	-3.075	-4.1875	-3.4208	-3.6229	-4.3167	-3.125	-4.0521	309.883	292.615	257.223	343.341	103.166	333.356	249.843	357.783	107.447	136.636	1.571	282.746	266.954	336.727	255.571	339.553	0.00041694	0.0011309	0.00035844	1574.2	5.1285e-06	4.8599e-06	1511.9	436.81	8.8471e-06	9.2508e-06	434.19	148.48	128.65	53.728	8.4179e-06	69.309	0.0059255	0.0094612	0.0026607	1413.6	9.8863e-05	0.00010486	1353.6	394.23	9.4984e-05	0.00010714	399.31	137.78	121.36	49.412	9.9237e-05	63.464	223.719	85.549	85.605	14.634	157.839	92.730	13.931	19.118	186.852	227.026	17.121	22.293	23.793	27.091	263.325	24.360	-8191	255	
1384.576	1	1	0	0	0.10877	0.18851	0.14288	0.17481	0.026702	0.11473	0.079842	0.14405	0.12714	0.069151	0.14071	0.19421	0.29515	0.17761	0.12959	0.18987	-3.6208	-3.2396	-4.2417	-3.6833	-3.4292	-4.2875	-3.5271	-4.0979	-3.9583	-3.2208	-4.3187	-3.6771	-3.425	-4.3875	-3.2833	-3.9958	351.380	192.809	87.145	352.680	36.827	147.252	312.143	259.552	213.677	78.970	280.182	359.690	284.350	343.654	287.664	311.458	0.00046202	0.00060166	0.00025243	1560.7	5.1284e-06	3.5154e-06	1499.1	434.17	1.9207e-05	2.122e-05	429.4	147.04	127.85	53.723	6.1033e-06	69.341	0.0058633	0.0095017	0.0026218	1407.4	9.713e-05	0.00010416	1345.4	391.27	9.375e-05	0.00010612	396.39	136.99	120.73	49.287	9.9204e-05	63.465	231.446	131.567	160.023	14.859	243.968	65.523	13.970	19.084	199.030	131.199	17.293	22.164	23.632	27.327	145.466	24.840	-8191	255	
1384.696	1	1	0	0	0.087474	0.14949	0.15775	0.23981	0.16515	0.098132	0.13633	0.022632	0.18964	0.09918	0.072085	0.19219	0.30456	0.28486	0.15491	0.043594	-3.6667	-3.2021	-4.0813	-3.6937	-3.4375	-4.0979	-3.6292	-3.9417	-4.15	-3.2083	-4.3354	-3.8896	-3.2521	-4.2542	-3.3771	-3.6354	227.708	170.465	322.753	274.969	265.882	336.340	312.889	280.856	291.992	282.435	243.683	37.822	337.110	327.234	10.496	5.880	0.00038573	0.0003399	0.00040077	1558.5	1.8471e-05	8.7117e-06	1503	435.9	5.335e-06	5.0845e-06	432.24	146.28	127.49	53.1	2.0855e-05	69.274	0.0059444	0.0095195	0.0026635	1406	9.8131e-05	0.0001045	1350.4	392.67	9.6233e-05	0.00010811	398.5	137.33	121.13	49.028	0.00010333	63.544	244.875	208.458	175.289	14.862	158.612	116.516	14.060	19.075	271.637	108.766	17.126	22.031	23.625	27.219	162.748	24.707	-8191	255	
1384.792	1	1	0	0	0.051746	0.057002	0.080154	0.18822	0.26283	0.19022	0.2804	0.11106	0.1164	0.16761	0.053365	0.072049	0.16809	0.45475	0.20357	0.17691	-3.8167	-3.2479	-3.8312	-3.9229	-3.3167	-4.1937	-3.6333	-3.7396	-4.1875	-3.1583	-4.2458	-4.0646	-3.275	-4.4854	-3.6937	-3.625	181.713	120.440	223.957	325.622	7.200	85.084	310.471	293.344	191.110	120.389	170.496	230.678	352.404	332.779	280.948	349.717	0.00048328	0.00038864	0.00042327	1551.2	1.1601e-05	7.7674e-06	1502.7	431.32	1.4581e-05	1.4293e-05	433.88	146.59	127.03	52.796	1.7881e-05	68.419	0.0062827	0.010038	0.002836	1404.9	0.00010413	0.00011219	1348.1	390.23	0.00010009	0.00011475	400.25	137.61	120.7	48.718	0.00010851	63.13	224.840	123.483	133.631	14.905	135.569	230.997	13.834	19.269	187.772	189.270	17.600	21.847	23.763	27.367	38.267	24.323	-8191	255	
1384.887	1	1	0	0	0.13382	0.028759	0.10889	0.48318	0.073398	0.097079	0.1369	0.44244	0.13449	0.05015	0.23903	0.07554	0.27616	0.35178	0.2912	0.19276	-3.9625	-3.3521	-3.7771	-4.1333	-3.2125	-4.2	-3.7667	-3.6979	-4.2792	-3.3563	-3.9062	-4.1562	-3.2188	-4.3417	-3.6792	-3.6188	232.669	179.677	174.471	303.690	249.434	20.882	260.780	281.377	320.665	197.185	307.285	267.128	345.755	325.628	144.651	330.232	0.00041052	0.0014825	0.00028799	1539.8	7.6986e-06	9.3702e-06	1488.4	430.35	1.6299e-05	1.5786e-05	431.81	144.91	127.49	53.049	1.6513e-05	68.497	0.0065987	0.010548	0.0029418	1399.2	0.00010851	0.00011647	1342.8	389.86	0.00010395	0.00011709	398.15	136.65	121.03	48.896	0.00010763	63.038	209.411	57.514	123.820	14.848	138.960	61.285	13.843	19.068	158.102	168.516	17.317	22.168	23.956	27.303	357.376	24.513	-8191	255	
1384.985	1	1	0	0	0.032939	0.18556	0.13371	0.27152	0.23784	0.13034	0.034159	0.26728	0.17881	0.0015841	0.26951	0.103	0.2484	0.033294	0.085399	0.33005	-3.7271	-3.3063	-3.7188	-4.4229	-3.1104	-4.1125	-3.8854	-3.5583	-4.2188	-3.4458	-3.775	-4.0979	-3.3667	-4.2417	-3.9854	-3.3833	126.732	268.855	98.285	27.009	185.303	344.071	126.450	339.737	294.466	180.000	273.682	329.108	3.756	337.715	122.574	298.140	0.00031772	0.0013555	0.00012348	1552.9	1.3763e-05	6.9687e-06	1497.4	433.45	1.9934e-05	1.3659e-05	435	146.64	127.2	53.655	1.4119e-05	69.275	0.0064543	0.01023	0.0028773	1404.7	0.00010468	0.00011437	1346.6	392.04	0.00010125	0.00011343	401.64	137.65	121.24	49.444	0.00010417	63.792	208.616	65.880	325.119	14.828	143.373	162.680	14.069	19.158	11.323	148.936	17.449	22.069	23.304	27.401	170.563	24.469	-8191	255	
1385.079	1	1	0	0	0.088861	0.19253	0.10915	0.29151	0.073793	0.070129	0.33783	0.29934	0.11941	0.16951	0.26825	0.13215	0.31725	0.22924	0.094332	0.14051	-3.8625	-3.4271	-3.5125	-4.2271	-3.3146	-3.9188	-4.0417	-3.4479	-4.1542	-3.6188	-3.5771	-4.3333	-3.3771	-4.0771	-3.9292	-3.5333	129.032	65.731	271.060	306.644	313.492	334.003	288.121	321.717	243.475	339.551	302.944	274.529	306.706	352.347	127.675	347.344	0.00043241	0.00046192	0.00028746	1565.2	3.4598e-07	1.1765e-05	1510.4	438.35	4.8185e-06	4.6735e-06	437.94	148	127.6	53.471	2.4899e-05	69.191	0.0063274	0.0099868	0.0028285	1411.5	0.0001021	0.00011039	1359	395.35	9.9042e-05	0.00011191	403.15	138.73	121.45	49.243	0.00010526	63.609	244.592	229.794	88.637	14.924	184.528	124.073	13.920	19.141	309.495	19.615	17.622	21.695	23.484	27.241	162.631	24.406	-8191	255	
1385.175	1	1	0	0	0.0535	0.15245	0.094268	0.15235	0.07297	0.23458	0.22416	0.24798	0.10571	0.13885	0.19932	0.23135	0.267	0.17438	0.39199	0.1838	-3.8479	-3.6813	-3.375	-4.5167	-3.2729	-3.9729	-4.2625	-3.4292	-4.0729	-3.7521	-3.425	-4.2958	-3.4771	-3.8229	-4.1667	-3.4938	16.528	350.024	335.118	318.918	349.706	81.659	5.228	343.579	32.217	308.848	255.677	341.828	271.521	31.464	101.721	26.400	0.00049169	0.00079251	0.00013352	1560.8	3.9125e-06	3.8522e-06	1505.7	435.51	1.7323e-05	7.221e-06	434.35	146.29	126.51	52.665	2.509e-06	68.36	0.0065037	0.010207	0.0029074	1409.6	0.00010749	0.0001162	1353.5	392.8	0.00010501	0.00011704	402.27	137.64	120.66	48.723	0.00010914	63.047	218.272	122.617	268.303	14.869	172.255	214.394	14.196	19.124	160.062	104.370	17.348	21.897	23.265	27.254	270.496	24.843	-8191	255	
1385.296	1	1	0	0	0.13164	0.15299	0.10551	0.19324	0.019591	0.093973	0.48478	0.34131	0.14349	0.1107	0.1771	0.1481	0.050233	0.28946	0.074676	0.22198	-3.7292	-3.775	-3.3458	-4.525	-3.2938	-3.4667	-4.3562	-3.2854	-3.9375	-3.8854	-3.3958	-4.2188	-3.5187	-3.5104	-4.1937	-3.3729	142.123	145.095	69.150	5.394	7.074	171.982	284.177	332.185	193.589	256.548	254.972	331.347	66.067	324.069	10.532	299.368	0.00044134	0.0010721	0.00010651	1558.2	1.0275e-05	1.1806e-05	1495.4	435.62	4.6343e-06	1.2537e-06	435.9	145.32	125.3	52.315	1.6543e-05	67.253	0.0066531	0.010528	0.0029245	1408.9	0.0001092	0.0001179	1347	392.97	0.00010535	0.00012038	401.89	136.68	120.17	48.31	0.00011189	62.239	230.351	134.407	222.885	15.008	222.529	108.705	14.226	18.837	1.234	22.469	17.670	22.180	23.578	27.558	181.863	24.672	-8191	255	
1385.392	1	1	0	0	0.13732	0.12062	0.26878	0.14809	0.27579	0.023543	0.2495	0.14044	0.15129	0.19373	0.1819	0.30942	0.29921	0.31478	0.29509	0.29879	-3.5083	-3.925	-3.2208	-4.2458	-3.6063	-3.4104	-4.3979	-3.4562	-3.8833	-3.8396	-3.2625	-4.0792	-3.8708	-3.3583	-4.1333	-3.6104	39.896	328.941	33.577	31.135	228.007	98.638	344.684	351.777	333.419	334.247	260.963	315.190	290.502	324.259	92.567	297.098	0.00057342	0.0013369	0.00030553	1547	6.8075e-06	4.6238e-06	1484.1	427.92	6.1523e-06	1.191e-05	431.53	143.46	124.97	51.674	1.0808e-05	67.007	0.0068132	0.010804	0.0030098	1403.4	0.00011032	0.00012136	1341.5	389.93	0.00010872	0.00012216	399.54	135.67	119.8	48.028	0.00011404	62.046	231.918	101.635	215.981	14.978	141.338	105.068	14.078	19.215	312.496	161.189	17.589	22.278	23.122	27.650	152.757	24.543	-8191	255	
1385.488	1	1	0	0	0.20593	0.23042	0.10644	0.2278	0.059277	0.26949	0.1504	0.16185	0.18766	0.22624	0.25549	0.1974	0.067959	0.17562	0.12307	0.26023	-3.35	-4.0708	-3.15	-4.0062	-3.7021	-3.4	-4.3167	-3.6729	-3.6146	-4.1333	-3.2229	-4.0563	-3.8146	-3.3583	-4.1917	-3.6375	317.659	279.733	24.057	311.837	208.578	234.392	280.537	313.178	257.102	265.069	291.566	293.193	183.385	348.686	277.673	255.624	0.00054697	0.001155	0.00028226	1545	7.391e-06	7.4435e-06	1493	429.8	9.4361e-06	1.015e-05	430.23	145.04	125.41	52.678	8.9258e-06	68.462	0.0067757	0.011003	0.0030633	1402.8	0.00011259	0.00012053	1348.7	390.06	0.00010984	0.00012416	401.84	137.19	120.64	48.549	0.00011715	63.23	229.854	105.019	229.818	15.095	58.106	86.089	14.210	19.018	174.721	132.588	17.656	22.503	23.035	27.632	198.452	24.558	-8191	255	
1385.584	1	1	0	0	0.14409	0.11498	0.11918	0.15472	0.10553	0.10297	0.16059	0.33273	0.1021	0.24395	0.29748	0.20649	0.11677	0.20084	0.19871	0.20544	-3.4042	-4.0083	-3.3	-4.0146	-3.8688	-3.3104	-4.4333	-3.6542	-3.4292	-4.1438	-3.3688	-3.6604	-4.0333	-3.275	-4.1771	-3.7708	318.796	326.168	67.805	41.175	208.702	266.153	271.694	354.813	194.197	152.977	359.708	332.116	46.230	356.207	175.624	311.156	0.00032826	0.00051596	0.00012871	1557	6.0628e-06	2.332e-05	1512.1	433.88	4.8978e-06	1.1594e-05	435.9	145.54	126.89	52.681	1.8499e-05	68.477	0.0071723	0.011473	0.0031973	1412.7	0.00011843	0.000126	1361.4	393.49	0.00011367	0.00012786	405.77	138.71	121.93	48.921	0.00012135	63.446	230.809	84.696	99.918	15.220	125.806	186.873	14.110	18.982	225.082	72.226	17.630	22.229	23.027	27.429	154.134	24.439	-8191	255	
1385.680	1	1	0	0	0.14989	0.25546	0.19412	0.33498	0.10786	0.065307	0.10284	0.30007	0.14163	0.13084	0.20022	0.18205	0.11339	0.14089	0.23811	0.17839	-2.9146	-4.2167	-3.1958	-3.9833	-3.9917	-3.2229	-4.3562	-3.9208	-3.1833	-4.0312	-3.6542	-3.9604	-4.1521	-3.3854	-3.9188	-3.9708	257.892	34.791	42.103	350.986	25.821	273.714	360.040	281.434	325.262	120.090	290.790	28.426	227.014	14.706	298.167	355.184	0.00020131	0.0015195	0.00027418	1547.8	5.248e-06	9.353e-06	1508.8	435.28	1.3011e-05	1.5549e-05	436.38	145.79	126.76	52.918	1.1619e-05	68.798	0.0071756	0.011481	0.0032753	1412.8	0.00011837	0.00012772	1358	395.41	0.00011327	0.00012798	405.61	138.32	121.88	48.95	0.00011818	63.603	216.899	150.898	46.607	15.102	160.292	287.931	14.286	18.970	242.352	305.685	17.377	21.701	23.282	27.083	100.973	24.468	-8191	255	
1385.777	1	1	0	0	0.094656	0.27046	0.088455	0.17271	0.133	0.17612	0.41071	0.28172	0.11691	0.050468	0.13961	0.11435	0.2589	0.076843	0.11085	0.15471	-3.0208	-4.225	-3.4229	-3.8312	-4.0375	-3.2917	-4.1583	-3.9813	-3.1312	-4.0833	-3.6479	-3.6188	-4.1979	-3.3375	-3.8417	-4.1354	108.303	96.521	337.729	326.027	218.055	122.482	279.222	317.984	68.558	169.377	52.602	317.449	359.516	331.422	284.129	3.139	0.00039979	0.0011119	0.00027222	1552.7	2.3925e-06	7.0445e-06	1515.4	435.73	3.9886e-06	2.202e-05	437.38	148.08	126.38	52.878	1.9561e-05	69.042	0.0071208	0.011339	0.0031794	1413.5	0.00011617	0.00012521	1362.6	396.05	0.00011371	0.00012723	406.6	139.37	121.91	49.148	0.00011858	63.929	221.161	18.418	113.947	14.991	4.807	162.349	14.474	18.987	244.443	35.404	17.387	21.849	23.247	27.150	227.706	24.440	-8191	255	
1385.873	1	1	0	0	0.093933	0.11239	0.16103	0.3443	0.036679	0.32606	0.34709	0.37284	0.14116	0.14279	0.32592	0.15338	0.12058	0.1898	0.15231	0.079312	-2.75	-4.0938	-3.5625	-3.4562	-4.1854	-3.2812	-4.0271	-4.1562	-3.1979	-4.3	-3.6208	-3.4562	-4.1417	-3.4688	-3.7	-4.2854	28.230	35.611	220.066	238.150	307.895	339.041	307.453	267.492	164.740	346.878	270.229	33.019	21.619	329.582	53.106	346.355	0.00023543	0.00056346	0.00058186	1565.7	1.8226e-06	2.6464e-06	1517.6	441.7	1.6574e-05	2.6043e-06	444.02	150.44	129.4	54.534	1.7646e-05	70.702	0.0070689	0.011329	0.0032131	1421.5	0.00011633	0.00012481	1367.1	401.04	0.00011225	0.00012449	412.17	141.21	123.97	50.192	0.00011611	65.248	223.922	236.619	75.206	15.270	280.972	263.733	14.412	18.866	240.763	53.916	17.314	22.450	23.370	27.082	199.061	24.534	-8191	255	
1385.967	1	1	0	0	0.12411	0.077309	0.1677	0.23128	0.025151	0.25945	0.24544	0.24713	0.19641	0.029647	0.18766	0.021649	0.19203	0.10017	0.21723	0.089479	-2.9313	-4.0062	-3.6792	-3.6188	-4.2292	-3.4333	-3.8563	-4.2354	-3.3292	-4.0437	-3.8583	-3.5021	-4.2396	-3.6375	-3.7042	-4.2438	6.961	315.667	220.299	346.096	274.333	37.408	317.052	334.746	48.292	168.541	16.971	309.971	339.586	332.569	13.943	277.369	0.00027058	0.00030752	0.00031275	1563.8	2.0773e-05	1.2933e-05	1530.2	440.89	7.074e-06	1.0311e-05	441.71	147.32	127.97	53.048	8.3707e-06	68.812	0.0070273	0.011117	0.0030902	1423.2	0.00011819	0.00012728	1377.7	401.81	0.00011589	0.00013208	412.33	140.35	123.68	49.34	0.00012629	63.949	221.046	187.395	188.094	15.485	208.647	186.159	14.425	19.120	196.169	288.908	17.105	22.092	23.199	27.146	211.412	24.462	-8191	255	
1386.065	1	1	0	0	0.35889	0.060194	0.086094	0.31262	0.051442	0.15314	0.1096	0.045794	0.29156	0.19205	0.3018	0.20413	0.11181	0.074009	0.10871	0.29846	-2.8812	-3.9437	-3.7875	-3.4729	-4.0563	-3.3896	-3.7104	-4.3187	-3.1917	-3.8271	-4.0854	-3.4375	-4.2937	-3.7458	-3.4437	-4.3979	301.958	38.634	243.131	15.393	108.682	86.598	288.132	311.948	72.049	64.380	0.969	280.026	43.297	5.861	52.010	263.685	0.00039907	0.0011279	0.00010299	1558.6	7.6157e-06	9.5771e-06	1497.9	435.99	8.1478e-06	6.1599e-06	442.16	145.08	126.87	52.502	4.3919e-06	67.65	0.0077202	0.012268	0.0034496	1419.2	0.00012903	0.00013963	1361.8	399.06	0.00012616	0.00014342	410.67	138.85	123.54	48.897	0.00013387	63.336	224.087	33.291	29.709	15.197	138.894	148.693	14.495	18.841	161.482	311.697	17.462	22.111	23.821	27.044	7.858	24.499	-8191	255	
1386.184	1	1	0	0	0.2213	0.23211	0.08864	0.14826	0.19733	0.1903	0.21593	0.239	0.073533	0.11	0.21441	0.46978	0.1847	0.16036	0.11951	0.15655	-3.0604	-3.7708	-4.0687	-3.3854	-4.2021	-3.5354	-3.6604	-4.3354	-3.2042	-3.7562	-4.1312	-3.3042	-4.1562	-3.8396	-3.3042	-4.275	87.592	39.895	7.642	17.102	142.440	313.672	276.960	309.281	34.704	53.769	345.277	302.509	63.627	344.452	280.528	124.792	0.00043371	0.0012727	0.00044591	1550.8	7.3266e-06	8.3817e-06	1501.8	442.28	2.3319e-06	1.5152e-05	442.41	147.17	128.54	52.808	1.9105e-05	68.634	0.0081631	0.013076	0.0037004	1424	0.00014155	0.00015455	1370.1	405.66	0.00014631	0.00016633	420.37	142.86	127.57	49.777	0.00016411	64.91	201.589	110.001	11.844	15.000	243.675	227.044	14.127	19.095	231.206	86.453	17.189	21.588	23.435	27.012	186.541	24.673	-8191	255	
1386.280	1	1	0	0	0.10502	0.11554	0.10644	0.31063	0.14343	0.23998	0.27927	0.18583	0.20656	0.27064	0.35923	0.26291	0.19872	0.23959	0.11817	0.13595	-2.8667	-3.6271	-4.0146	-3.4229	-4.0625	-3.8125	-3.7021	-4.3521	-3.5667	-3.5833	-4.1458	-3.375	-3.9188	-3.9229	-3.2521	-4.2812	354.273	130.990	321.517	308.567	129.001	238.170	322.598	309.320	24.720	135.380	343.724	299.950	335.598	81.793	123.365	199.080	0.00035225	0.0012643	0.00035824	1553.1	6.0567e-06	1.944e-05	1513.5	447.12	6.4658e-06	1.5237e-05	447.69	150.19	131.46	53.627	8.0107e-06	69.601	0.0097878	0.015776	0.004503	1444.1	0.00016591	0.0001818	1391.5	413.33	0.00016832	0.00019554	431.24	147.63	132.69	51.046	0.00019165	66.699	194.032	70.717	114.509	14.771	241.479	150.166	14.018	18.964	193.862	187.766	16.713	21.352	23.517	26.791	16.652	24.007	-8191	255	
1386.376	1	1	0	0	0.15752	0.1601	0.26941	0.44089	0.11271	0.25089	0.078605	0.21191	0.16759	0.14511	0.18662	0.05161	0.052816	0.27496	0.12644	0.15525	-3.1042	-3.4833	-4.1292	-3.4437	-3.7396	-3.7979	-3.4167	-4.4208	-3.6167	-3.4729	-4.2208	-3.3083	-4.0771	-4.2542	-3.1021	-4.2125	115.675	294.269	155.078	357.418	254.261	49.364	359.662	340.329	171.065	171.222	288.549	293.725	216.984	270.839	30.438	303.289	0.00049449	0.00078149	0.00020146	1574.5	5.6769e-06	1.7597e-05	1517.6	449.32	4.7552e-06	1.4348e-05	453.31	150.02	132.37	53.324	1.6361e-05	68.357	0.011708	0.018887	0.0053509	1472.2	0.00019703	0.00021639	1411.1	419.82	0.00019512	0.00022327	438.64	149.7	135.25	51.284	0.0002128	66.248	236.413	55.789	25.656	14.991	57.206	139.446	14.027	18.453	101.859	92.256	17.247	21.760	23.077	26.791	147.951	24.312	-8191	255	
1386.472	1	1	0	0	0.13819	0.27324	0.08975	0.21455	0.223	0.18366	0.20126	0.45975	0.094432	0.19859	0.22296	0.18154	0.075282	0.26213	0.17384	0.12868	-3.4688	-3.4125	-4.2417	-3.4854	-3.7062	-4.0062	-3.5083	-4.1896	-3.7521	-3.25	-4.2667	-3.5625	-3.7042	-4.3187	-3.2729	-4.0667	284.351	286.492	128.357	252.291	36.889	261.228	300.084	293.371	46.963	114.244	323.650	19.077	75.103	351.273	53.497	177.119	0.00070292	0.00039904	0.00067483	1567.7	5.4536e-06	4.5324e-06	1497	446.74	1.0689e-05	9.7928e-06	447.77	147.78	131.36	52.744	2.0701e-05	67.8	0.012795	0.020454	0.0057065	1470.5	0.00020857	0.00022568	1398.7	419.49	0.00020061	0.00022649	436.28	148.06	134.63	51.006	0.00020534	65.624	241.610	39.402	15.568	14.840	199.136	182.052	13.835	18.686	238.738	225.822	16.954	21.211	22.637	26.936	242.921	24.400	-8191	255	
1386.569	1	1	0	131072	0.16053	0.10361	0.23911	0.2051	0.064305	0.070246	0.079669	0.21332	0.18061	0.087927	0.26408	0.17591	0.1822	0.1213	0.22545	0.12249	-3.525	-3.1979	-4.2562	-3.7042	-3.6521	-4.1208	-3.4583	-3.9646	-3.9458	-3.1458	-4.3292	-3.5104	-3.4771	-4.2521	-3.2271	-3.9437	140.930	53.814	38.611	21.958	98.996	77.322	232.905	347.883	57.939	237.667	248.189	346.119	30.752	35.483	189.715	305.685	0.00057331	0.0012722	0.00063545	1560.8	1.9174e-05	1.0376e-05	1503.8	455.85	9.3209e-06	1.6984e-05	451.44	150.75	133.53	53.684	2.9162e-06	69.212	0.012139	0.019471	0.0054839	1466.6	0.00020177	0.00021541	1395.8	423.62	0.00019012	0.00021779	437.57	149.11	135.03	51.291	0.00019905	66.532	232.200	64.374	93.722	14.649	161.742	133.424	14.169	18.760	298.621	181.317	16.921	21.617	22.449	26.726	353.180	24.276	-8191	255	
1386.665	1	1	0	0	0.25262	0.065633	0.15726	0.30763	0.094484	0.24688	0.44683	0.22935	0.077345	0.16438	0.17051	0.26469	0.30602	0.22112	0.23783	0.25486	-3.575	-3.0187	-3.9479	-3.7042	-3.4479	-4.0896	-3.4896	-3.8937	-4.05	-3.1729	-4.2354	-3.8479	-3.4292	-4.3354	-3.3417	-3.8125	228.688	141.316	73.340	12.390	262.564	194.650	303.825	8.933	117.612	303.157	297.326	317.610	255.378	40.474	212.742	339.009	0.00042742	0.0010004	0.00041386	1561.7	1.7106e-05	7.7204e-06	1513.4	454.57	1.1633e-05	1.3095e-05	453.7	150.19	133.17	53.698	1.322e-05	69.3	0.011735	0.018865	0.0052675	1465.7	0.00019588	0.00021147	1399.1	424.32	0.00018835	0.00020989	438.68	148.82	135.17	51.372	0.00019462	66.37	207.913	24.477	48.209	14.913	160.256	87.140	13.968	18.779	225.552	153.836	16.918	21.929	22.737	26.851	97.381	24.369	-8191	255	
1386.785	1	1	0	0	0.19094	0.15344	0.11712	0.13199	0.11983	0.089148	0.26257	0.28916	0.1174	0.21441	0.17901	0.07991	0.084908	0.11785	0.21186	0.34089	-3.8083	-3.0146	-3.9125	-3.8167	-3.2521	-4.0417	-3.675	-3.7125	-4.0167	-3.1479	-4.0542	-3.925	-3.3542	-4.2562	-3.4667	-3.7	42.885	357.001	73.923	304.289	25.254	187.629	300.039	318.357	212.191	165.996	357.836	76.321	346.924	306.827	19.375	291.667	0.00056106	0.0015675	0.00065635	1558.8	2.5112e-05	9.8348e-06	1501	454.41	1.1012e-05	2.9549e-05	449.91	146.24	130.03	52.327	2.0413e-05	66.721	0.011505	0.018418	0.0051897	1463.2	0.00019249	0.00020585	1392.3	422.07	0.00018616	0.00021127	433.66	145.93	133	50.021	0.00019691	64.177	239.086	128.322	93.703	14.597	58.439	329.580	13.919	18.757	229.518	108.067	17.139	21.739	22.925	26.989	80.494	24.043	-8191	255	
1386.880	1	1	0	0	0.10023	0.035379	0.09632	0.14588	0.10442	0.1926	0.27813	0.23732	0.10373	0.0098556	0.34969	0.084137	0.3131	0.1091	0.098368	0.10678	-3.6917	-3.0938	-3.9375	-3.9688	-3.1229	-4.1708	-3.625	-3.3875	-4.0854	-3.0958	-3.8604	-3.9354	-3.1917	-4.3042	-3.6146	-3.4271	120.502	315.106	96.689	5.772	302.714	106.994	310.468	316.527	311.973	52.819	306.853	244.087	165.614	48.576	187.614	326.676	0.00035842	0.00050264	0.00020809	1548.9	2.0487e-05	1.2191e-05	1477.2	450.04	2.0715e-05	1.09e-05	442.93	145.2	128.35	51.613	1.1045e-05	66.651	0.011572	0.018584	0.0052241	1452.1	0.00019088	0.00020259	1372.8	417.2	0.0001786	0.00020077	425.78	143.26	129.99	49.203	0.0001801	63.612	281.552	144.395	166.372	14.774	174.654	178.801	13.679	18.617	170.335	156.173	17.360	21.785	22.851	26.982	141.180	24.012	-8191	255	
1386.953	1	1	0	0	0.30119	0.17099	0.083682	0.26264	0.19746	0.027832	0.19388	0.30299	0.11054	0.19431	0.25845	0.074757	0.35466	0.15598	0.10203	0.31051	-3.8146	-3.2729	-3.675	-4.0021	-3.0833	-3.7771	-3.7958	-3.4938	-4.0312	-3.2646	-3.9333	-4.0979	-3.3333	-4.0479	-3.8563	-3.4	340.367	50.729	81.497	309.425	233.107	320.425	349.123	328.766	258.542	160.841	304.105	306.310	336.149	9.559	237.547	342.420	0.00041991	0.001692	0.0002385	1549.1	1.0328e-05	1.5128e-05	1485.9	449.01	4.7769e-06	1.3424e-05	442.13	144.34	128.21	51.347	4.1331e-06	66.263	0.010541	0.01668	0.0046962	1441.1	0.00017009	0.00018314	1366.9	413.41	0.00016122	0.00018216	422.75	141.73	127.8	48.733	0.00016847	62.968	270.387	115.802	15.124	14.939	123.711	140.503	14.052	18.673	142.818	182.297	17.215	21.774	22.962	27.059	122.802	24.276	-8191	255	
1387.072	1	1	0	0	0.18287	0.12316	0.28039	0.22723	0.13596	0.066092	0.31545	0.30868	0.2041	0.26698	0.16688	0.48772	0.18562	0.1227	0.077501	0.49822	-3.8125	-3.3	-3.325	-4.1917	-3.0187	-4.0208	-4.0062	-3.4146	-4.1188	-3.4104	-3.6125	-4.2063	-3.3688	-3.875	-3.7479	-3.2	301.150	128.872	300.817	327.240	294.801	325.651	246.956	343.144	267.549	83.031	243.675	310.907	62.737	53.892	41.455	309.969	0.00055939	0.0020136	0.00013924	1549.8	2.1911e-05	9.9133e-06	1480.7	440.13	1.0438e-05	1.5468e-05	437.48	142.94	125.75	50.853	3.0959e-05	65.665	0.0099939	0.015891	0.0044822	1435.7	0.00016359	0.00017681	1359.9	406.61	0.00015562	0.00017524	416.53	139.6	125.36	48.064	0.00016227	62.169	251.778	140.465	296.098	15.012	98.692	227.764	13.924	19.023	148.314	70.221	17.406	21.964	22.938	27.056	184.713	24.450	-8191	255	
1387.168	1	1	0	0	0.14016	0.13599	0.43383	0.11226	0.28364	0.21858	0.1807	0.44087	0.065354	0.070614	0.26007	0.21728	0.12245	0.30418	0.18206	0.33283	-3.6646	-3.5979	-3.2771	-4.2333	-3.1688	-3.6542	-4.1229	-3.3667	-3.9333	-3.5625	-3.3667	-4.2667	-3.4417	-3.7729	-3.8333	-3.2229	226.964	257.695	318.195	354.683	281.907	215.566	278.945	300.593	134.001	262.740	312.009	4.502	71.506	255.521	184.131	235.013	0.00017463	0.0013773	0.00065725	1544.7	8.5619e-06	5.4282e-06	1474.4	435	1.1881e-05	1.4411e-05	431.97	141.75	124.01	49.914	1.4092e-05	63.632	0.0096626	0.015376	0.0043575	1426	0.00016079	0.00017195	1349.1	400.54	0.00015359	0.00017264	409.59	138	123.4	47.256	0.00016111	60.658	198.189	297.578	148.061	15.139	230.826	279.224	13.796	19.018	96.699	110.606	17.153	21.698	23.394	27.112	230.761	24.333	-8191	255	
1387.264	1	1	0	0	0.18645	0.3852	0.11672	0.1956	0.29822	0.126	0.070086	0.068389	0.22658	0.13119	0.063932	0.27259	0.08948	0.12711	0.19148	0.17175	-3.6833	-3.7042	-3.1271	-4.2812	-3.3896	-3.5896	-4.2979	-3.4625	-4.0021	-3.7396	-3.4396	-4.2542	-3.3688	-3.6292	-4.1646	-3.3521	212.966	51.430	178.232	25.094	325.909	224.657	308.769	305.242	166.641	182.719	221.551	10.019	327.248	337.147	65.369	350.372	0.00060736	0.0003052	0.00027156	1533.4	1.1702e-05	5.5343e-06	1467.9	428.08	8.7055e-06	2.79e-05	423.11	139.18	121.38	49.279	1.1227e-05	63.935	0.0095893	0.015508	0.0043562	1419.5	0.00015976	0.00017175	1343.5	396.1	0.00015234	0.00017131	405.83	135.63	121.26	46.676	0.00015567	60.326	219.039	325.086	105.710	14.844	179.045	248.673	13.920	18.617	183.423	155.774	17.547	22.031	23.270	27.205	197.360	24.365	-8191	255	
1387.360	1	1	0	0	0.14567	0.26675	0.27092	0.089805	0.23099	0.1479	0.1404	0.10885	0.1559	0.11614	0.35358	0.31729	0.28206	0.13023	0.14254	0.32185	-3.6167	-3.7542	-3.3208	-4.1438	-3.4354	-3.4354	-4.3938	-3.3396	-3.75	-3.875	-3.3375	-4.2833	-3.6188	-3.4875	-4.2104	-3.4417	155.175	223.947	294.918	319.771	173.573	295.914	20.947	6.014	281.298	87.919	328.271	309.224	356.763	19.033	101.553	11.535	0.00055786	0.00076948	0.00039804	1532.3	2.8837e-05	1.4396e-05	1464.4	432.04	3.1239e-05	1.2847e-05	426.51	139.26	123.18	49.523	1.5671e-05	64.113	0.0093497	0.015034	0.0042084	1416.1	0.0001539	0.00016589	1341.2	396.73	0.00014661	0.00016557	405.86	135.71	121.83	46.678	0.00015391	60.585	223.910	323.672	107.655	14.701	201.493	160.136	13.857	18.880	238.541	293.844	17.293	21.832	23.186	27.062	117.112	24.637	-8191	255	
1387.481	1	1	0	0	0.1239	0.13163	0.15011	0.23479	0.17681	0.20733	0.2484	0.19281	0.044065	0.13782	0.27862	0.19167	0.079784	0.19935	0.11772	0.051762	-3.3271	-4.0521	-3.1771	-4.15	-3.7292	-3.2604	-4.2917	-3.5208	-3.6312	-4.0708	-3.2438	-4.1188	-3.8125	-3.3937	-4.1771	-3.6604	21.824	328.723	320.732	326.108	333.141	333.244	228.138	329.986	87.455	46.622	321.625	291.267	39.746	356.031	172.866	113.692	0.00038609	0.001507	0.00056713	1536	7.5953e-06	2.045e-05	1464	431.58	1.4791e-05	1.0274e-05	427.32	139	120.95	49.058	8.4935e-06	63.268	0.0091445	0.014681	0.0040842	1417	0.00015156	0.00016241	1340.6	395.88	0.00014719	0.00016422	404.96	135.4	120.94	46.434	0.00015371	59.916	219.308	154.688	71.402	15.120	75.809	92.964	14.411	18.805	195.896	132.894	16.787	22.313	23.136	27.065	250.023	24.649	-8191	255	
1387.577	1	1	0	0	0.18357	0.07897	0.05906	0.084717	0.2861	0.15393	0.36359	0.14921	0.33175	0.27058	0.2634	0.28284	0.23272	0.13078	0.19107	0.084635	-3.2521	-4.025	-3.3271	-4.1521	-3.625	-3.2188	-4.2104	-3.6937	-3.5167	-4.1771	-3.4688	-4.1021	-3.9917	-3.2583	-4.0104	-3.5021	24.297	318.808	294.866	42.137	246.180	305.888	265.358	308.936	296.250	198.237	356.819	35.311	324.588	353.044	272.073	308.878	0.00034521	0.0018853	0.00018291	1527.5	1.1233e-05	1.0424e-05	1451.2	427.56	8.2905e-06	5.239e-06	418.72	135.95	120.12	48.467	1.7239e-05	61.672	0.0092175	0.01465	0.0041404	1412	0.0001521	0.0001653	1325.7	393.34	0.00014655	0.00016374	397.96	132.6	119.27	45.71	0.00015244	58.514	233.330	52.941	72.531	15.188	160.376	142.033	14.024	18.503	68.465	120.793	17.078	21.925	23.063	26.785	234.671	24.387	-8191	255	
1387.649	1	1	0	0	0.16858	0.16012	0.098412	0.36895	0.17388	0.056958	0.14854	0.17206	0.28594	0.17625	0.16936	0.073493	0.1406	0.37095	0.20737	0.31033	-3.1271	-4.2167	-3.0375	-3.7917	-3.9104	-3.0375	-4.4167	-3.6646	-3.3	-4.1354	-3.3438	-3.6875	-3.9938	-3.2542	-3.9062	-3.7417	265.207	155.983	72.448	308.439	6.283	129.284	250.971	296.427	315.655	342.383	340.439	33.998	55.286	339.809	313.428	339.315	0.00042945	0.0015726	0.00029969	1523.3	2.5441e-05	6.4737e-06	1444.8	425.33	1.7366e-05	1.2145e-05	419.5	134.55	119.09	47.465	1.5238e-05	61.147	0.0091251	0.014458	0.0041041	1403.4	0.00014926	0.00016171	1319	391.06	0.00014465	0.00016135	395.76	131.42	118.21	44.993	0.00014826	58.011	234.383	191.252	81.504	14.982	151.997	158.442	14.061	18.761	278.400	215.015	16.914	21.668	23.327	27.216	226.729	24.217	-8191	255	
1387.745	1	1	0	0	0.22177	0.10107	0.19314	0.16582	0.23183	0.06993	0.28677	0.19415	0.17042	0.16925	0.37163	0.02735	0.26504	0.1437	0.18109	0.15817	-3.0083	-4.1312	-3.2979	-3.7521	-4.2229	-3.0563	-4.2021	-3.7667	-3.2729	-4.1396	-3.5083	-3.5583	-4.1104	-3.2917	-3.8438	-3.8937	233.458	86.822	89.155	331.985	278.127	294.244	352.480	51.626	341.747	100.276	4.407	20.310	40.076	339.884	7.013	262.943	0.00043065	0.00069209	0.00017755	1519.4	1.2914e-05	1.9319e-06	1432.1	425.52	1.6858e-05	8.5448e-06	414.52	134.87	118.87	47.318	7.2275e-06	61.41	0.0088885	0.014307	0.004021	1400.7	0.00014704	0.00015779	1316	389.32	0.00014267	0.00016017	393.85	131.41	117.65	44.737	0.00014888	58.195	207.851	83.795	242.987	14.978	149.226	254.425	13.952	18.475	239.887	182.952	17.118	22.292	23.082	27.359	131.898	24.060	-8191	255	
1387.864	1	1	0	0	0.12814	0.096579	0.19745	0.49752	0.26156	0.12603	0.36114	0.39426	0.18216	0.063579	0.35928	0.0075738	0.23323	0.25725	0.25264	0.31839	-2.8271	-4.1479	-3.4313	-3.6458	-4.075	-3.325	-3.8208	-4.0625	-3.1229	-4.1021	-3.6208	-3.5667	-4.2479	-3.2125	-3.7687	-4.1188	235.220	258.008	224.618	328.960	232.045	221.551	307.819	335.843	104.909	36.580	290.283	322.058	280.304	16.371	239.272	264.874	0.00032661	0.00098476	0.0001162	1514.7	5.7176e-06	4.0203e-06	1449.4	418.21	1.2737e-05	1.8e-05	413.15	133.61	117.11	46.812	1.321e-05	60.163	0.0088593	0.014279	0.0039939	1398.5	0.00014726	0.00015821	1318.5	385.31	0.00014245	0.00016086	391.93	130.23	116.6	44.224	0.00015065	56.943	212.876	103.580	125.655	14.942	38.572	177.797	13.829	19.151	124.175	182.435	17.397	22.053	23.214	27.388	184.077	24.564	-8191	255	
1387.960	1	1	0	0	0.14205	0.16134	0.15487	0.14524	0.25344	0.18248	0.30794	0.27231	0.057743	0.1766	0.37398	0.25297	0.048704	0.17475	0.17198	0.24079	-2.8125	-4.0292	-3.6771	-3.6042	-4.1479	-3.3208	-3.8396	-4.0938	-3.3167	-4.0583	-3.7896	-3.3563	-4.2292	-3.5917	-3.5354	-4.1229	139.419	114.031	108.731	31.080	15.877	197.072	318.273	307.630	176.849	113.328	31.464	313.344	345.034	343.551	50.794	326.575	0.00022107	0.001279	0.00057063	1507.8	7.3807e-06	7.1272e-06	1423.9	418.45	1.9511e-05	1.0067e-05	408.42	132.12	116.98	46.038	2.4381e-05	59.185	0.0090616	0.014591	0.004108	1388.7	0.00015058	0.00016093	1305.2	383.58	0.00014519	0.0001635	388.18	128.96	116.62	43.733	0.00015188	56.429	237.902	42.099	81.189	14.949	245.811	121.408	13.920	18.803	216.568	112.372	17.126	21.744	23.663	27.310	235.017	24.443	-8191	255	
1388.058	1	1	0	0	0.060122	0.16779	0.17697	0.18503	0.2463	0.23354	0.30461	0.11083	0.17749	0.24216	0.033974	0.20374	0.15671	0.15352	0.070374	0.13626	-2.9437	-3.8229	-3.7208	-3.4208	-4.1625	-3.3271	-3.7042	-4.2188	-3.3042	-3.925	-4.0437	-3.2479	-4.1042	-3.5646	-3.2833	-4.0646	20.576	34.861	338.962	132.990	165.029	219.931	310.771	224.886	74.327	73.045	275.024	28.254	327.243	134.079	20.407	17.643	0.00025301	0.00059812	0.00016092	1506.9	5.6713e-06	5.7138e-06	1423	416.62	9.1092e-06	9.2516e-06	407.26	131.48	116.49	46.439	2.0287e-05	59.268	0.0089756	0.014422	0.0040263	1388	0.00014873	0.00016116	1303.5	382.41	0.00014297	0.00016196	387.73	128.68	116.27	43.896	0.00015102	56.538	234.562	117.895	248.340	14.709	190.187	165.745	14.222	19.126	57.657	150.782	17.274	22.211	23.406	27.284	208.073	24.117	-8191	255	
1388.177	1	1	0	0	0.1664	0.072107	0.083805	0.36369	0.21744	0.010408	0.076736	0.27206	0.2473	0.14326	0.2015	0.24398	0.13123	0.25807	0.059648	0.12184	-2.8083	-3.8	-3.8979	-3.3	-4.1813	-3.4333	-3.5833	-4.3917	-3.2854	-3.7229	-4.1833	-3.3854	-3.9979	-3.6104	-3.3688	-4.2417	116.062	261.865	158.378	295.109	261.580	257.346	286.967	347.977	343.853	296.212	90.545	93.059	337.553	278.702	267.993	293.379	0.00030351	0.0010535	0.00022111	1503.1	1.2468e-05	3.8686e-06	1425	417.04	1.7836e-05	8.6303e-06	410.86	133.62	117.72	46.277	1.0345e-05	59.561	0.0089378	0.014486	0.00402	1387.1	0.0001491	0.00016026	1305.3	383.2	0.00014345	0.00016203	389.56	129.4	116.47	43.806	0.00014924	56.742	245.604	152.762	185.698	15.227	99.832	337.906	14.122	18.867	179.828	133.774	17.082	21.928	23.803	27.282	200.369	24.545	-8191	255	
1388.249	1	1	0	0	0.25748	0.2292	0.21897	0.25925	0.021121	0.25668	0.1871	0.19809	0.094724	0.09591	0.17236	0.13104	0.25514	0.37785	0.13682	0.20004	-2.9208	-3.5521	-3.8417	-3.5292	-4.1687	-3.7854	-3.2854	-4.2271	-3.2229	-3.5208	-4.1125	-3.2875	-3.8542	-3.975	-3.2396	-4.3146	345.896	288.589	60.193	301.788	12.890	317.469	318.144	292.348	139.159	115.529	37.003	246.536	345.495	313.378	352.875	2.235	0.00036334	0.00021479	0.0002799	1507.3	8.3785e-06	1.0264e-06	1431.3	419.02	9.5618e-06	2.2946e-05	408.55	130.93	116.85	45.985	6.9747e-06	58.955	0.0088399	0.014157	0.0039809	1390.5	0.00014773	0.0001584	1309.4	384.42	0.0001439	0.00016121	389.57	128.63	116.24	43.664	0.00015228	56.198	195.289	146.870	339.038	15.015	220.327	70.938	14.049	18.903	83.431	168.692	17.405	21.887	23.647	27.103	145.148	24.616	-8191	255	
1388.345	1	1	0	0	0.32065	0.16365	0.15629	0.10562	0.13512	0.060502	0.35429	0.40195	0.13871	0.13977	0.11129	0.12304	0.038421	0.1627	0.089177	0.26905	-3.0375	-3.5021	-4.0062	-3.4417	-3.9208	-3.8146	-3.4167	-4.1875	-3.5	-3.4979	-4.2688	-3.3	-3.7833	-4.1042	-3.2833	-4.225	138.132	88.858	302.052	340.041	185.714	304.961	307.874	259.395	226.043	190.248	8.058	349.002	244.934	316.411	27.791	229.876	0.00020372	0.0015264	0.00030608	1494.6	1.3696e-06	1.7468e-05	1415.8	417.04	9.4879e-06	1.3728e-05	405.22	130.2	117.19	46.314	1.2896e-05	58.468	0.0090324	0.014612	0.0040672	1387.5	0.00015033	0.00016304	1299.7	382.99	0.00014544	0.00016395	386.45	127.74	115.91	43.639	0.00015053	55.856	247.507	147.403	215.340	15.093	274.370	134.234	14.018	18.879	225.847	149.132	16.983	22.353	23.448	27.288	210.836	24.641	-8191	255	
1388.465	1	1	0	0	0.13589	0.012179	0.1008	0.20108	0.097543	0.10146	0.24864	0.056477	0.33264	0.13787	0.191	0.11588	0.080415	0.27631	0.048342	0.046063	-3.3604	-3.3	-4.1708	-3.4271	-3.7687	-4.1	-3.625	-4.2521	-3.6625	-3.2958	-4.2667	-3.3521	-3.8833	-4.3104	-3.2167	-4.1917	325.275	141.310	79.639	214.787	273.596	82.359	312.261	73.239	333.062	354.701	331.900	253.674	17.900	230.226	214.985	216.086	0.00023934	0.0010168	0.00043305	1498	1.1279e-05	1.4172e-05	1419	416.18	6.6417e-06	1.3562e-05	406.66	130.57	115.49	46.078	1.1729e-05	58.789	0.008956	0.014393	0.0040412	1385.1	0.00014865	0.00015854	1299	383.03	0.00014211	0.00015958	386.79	127.79	115.41	43.61	0.00014769	56.049	235.777	40.581	104.378	14.859	145.576	207.661	14.134	18.882	116.963	78.604	16.688	21.989	23.189	27.354	219.033	24.644	-8191	255	
1388.561	1	1	0	0	0.25407	0.18828	0.24634	0.26768	0.13322	0.096784	0.40986	0.15925	0.14637	0.0317	0.38936	0.023422	0.12729	0.10506	0.23159	0.17693	-3.4604	-3.1854	-4.0417	-3.6625	-3.7771	-4.0146	-3.3958	-4.1625	-3.8708	-3.2604	-4.3542	-3.525	-3.5979	-4.3604	-3.2625	-3.9792	66.165	180.214	256.220	226.903	106.310	46.041	327.726	319.798	268.019	1.348	329.318	277.507	18.508	69.907	216.940	314.379	0.00032663	0.0017184	0.00025407	1506.7	2.0568e-05	1.6076e-05	1419	417.5	2.8157e-06	7.3295e-06	405.76	132.33	116.51	46.315	1.6344e-05	59.603	0.0088998	0.014251	0.0039771	1390.4	0.0001452	0.00015807	1299.7	382.66	0.00013862	0.00015731	387.37	128.21	115.81	43.717	0.00014432	56.505	248.246	121.258	118.780	14.968	180.326	31.042	13.886	19.186	329.960	208.198	17.545	21.545	23.602	27.140	58.827	24.271	-8191	255	
1388.658	1	1	0	0	0.28253	0.15919	0.11234	0.29051	0.31935	0.12172	0.19287	0.27561	0.20311	0.10684	0.079216	0.18989	0.10759	0.37744	0.067994	0.33797	-3.6625	-3.1979	-4.1708	-3.8729	-3.4146	-4.1583	-3.4042	-3.95	-3.975	-3.1208	-4.2167	-3.6813	-3.5833	-4.2479	-3.3187	-3.9875	300.055	94.332	217.479	18.762	329.786	358.131	341.795	261.145	121.361	145.671	290.757	315.385	98.305	347.695	332.996	266.223	0.00033156	0.00039723	0.00063417	1511.7	1.5729e-05	1.561e-05	1431.2	415.35	1.8366e-06	6.3192e-06	406.33	131.11	114.89	45.879	8.3626e-06	58.278	0.0086729	0.013961	0.0038966	1390.6	0.00014313	0.00015468	1303.3	381.15	0.00013793	0.00015725	384.33	127.04	114.43	43.127	0.00014556	55.269	220.154	39.024	28.765	14.938	213.006	163.710	14.159	19.003	353.446	104.981	17.168	21.846	23.972	27.122	55.443	24.698	-8191	255	
1388.778	1	1	0	0	0.15275	0.12881	0.037604	0.23435	0.14269	0.13487	0.31345	0.27291	0.15451	0.17736	0.37414	0.25222	0.23272	0.16572	0.22427	0.1825	-3.7	-3.375	-3.9542	-3.7958	-3.2333	-4.1125	-3.4188	-3.9583	-4.1375	-3.3667	-4.1917	-3.8021	-3.2687	-4.3521	-3.5687	-3.7979	290.512	346.087	70.619	18.866	80.187	326.695	307.129	322.299	305.143	325.815	339.558	298.019	49.950	23.717	311.472	303.603	0.00052191	0.0016473	7.1869e-05	1497.7	6.1019e-06	5.7523e-06	1412.7	407.36	6.6025e-06	1.2537e-05	398.94	128.15	113.52	44.777	4.5501e-06	57.991	0.0084947	0.013763	0.0038442	1379.9	0.00014103	0.00015223	1287.5	374.91	0.00013653	0.00015386	376.9	124.56	112.73	42.359	0.00014119	54.739	231.329	71.556	176.970	14.973	325.296	217.863	13.995	19.084	187.325	216.596	17.206	22.242	23.782	27.382	94.554	24.795	-8191	255	
1388.850	1	1	0	0	0.096181	0.30802	0.19501	0.20248	0.18151	0.10856	0.21174	0.14566	0.20173	0.16951	0.15494	0.063234	0.20496	0.043282	0.13057	0.19072	-3.8396	-3.2292	-3.8896	-4.0938	-3.0771	-4.175	-3.6	-3.6854	-4.1438	-3.2812	-4.1375	-4.0312	-3.1958	-4.3021	-3.5667	-3.5812	176.501	96.748	138.103	321.624	231.790	37.845	269.106	280.105	133.986	304.492	74.034	211.777	336.083	47.408	221.491	330.747	0.0003066	0.00052167	0.00035591	1487.8	1.7841e-05	5.8406e-07	1414	403.59	3.6671e-06	1.9681e-05	394.92	128.07	112.76	44.669	1.5769e-05	57.494	0.0083195	0.013212	0.0036878	1369.3	0.00013465	0.00014536	1285.3	370.02	0.00012689	0.0001427	373.19	123.82	110.87	42.016	0.00013033	54.152	215.043	35.592	27.508	15.045	209.392	129.468	14.291	19.334	268.840	96.847	17.415	21.928	23.676	27.471	180.696	24.626	-8191	255	
1388.946	1	1	0	0	0.22262	0.13677	0.2081	0.28827	0.16385	0.15989	0.35346	0.40297	0.087642	0.12111	0.35378	0.15373	0.037028	0.23815	0.14672	0.022798	-4.0458	-3.2438	-3.7458	-4.1354	-3.2646	-4.0375	-3.8187	-3.525	-4.0062	-3.4562	-3.9437	-4.2167	-3.2271	-4.1875	-3.8083	-3.4062	267.704	259.718	84.057	20.484	103.627	138.813	334.639	350.199	304.886	207.894	292.499	305.341	208.283	18.453	30.404	332.536	0.00038337	0.00045293	0.00015347	1486.3	1.8839e-05	9.5884e-06	1403.7	401.04	6.9906e-06	9.2109e-06	391.01	127.36	111.41	44.484	1.1584e-05	57.218	0.007622	0.012155	0.0034137	1361.7	0.00012479	0.0001329	1277.8	365.16	0.00011544	0.00012889	367.59	122.19	108.68	41.575	0.00011753	53.587	229.070	257.813	92.224	14.925	257.718	109.638	13.963	18.994	308.351	228.863	16.968	22.019	23.828	27.729	217.309	24.642	-8191	255	
1389.040	1	1	0	0	0.1812	0.18936	0.21732	0.11179	0.062058	0.13193	0.20212	0.23117	0.089125	0.098189	0.17076	0.22129	0.1154	0.1919	0.11719	0.15233	-3.7646	-3.4188	-3.8021	-4.1562	-3.3854	-4.0312	-4.0437	-3.4854	-4.2729	-3.5917	-3.7167	-4.1375	-3.3958	-4.0417	-3.9604	-3.425	134.726	215.783	12.586	58.593	170.714	135.239	344.487	358.281	194.449	155.897	18.383	39.073	342.596	230.919	335.460	344.062	0.00042378	0.0012089	0.00036167	1483.5	1.2617e-05	9.3718e-06	1401.4	395.06	1.0607e-05	2.5793e-05	382.98	123.29	108.56	42.509	5.378e-06	54.499	0.0068826	0.01086	0.0030334	1349.9	0.00011068	0.000117	1264.8	357.85	0.00010481	0.00011953	356.32	117.83	105.29	39.643	0.00010621	50.776	220.936	80.429	124.038	15.180	152.201	183.517	13.924	19.047	192.615	84.249	17.520	22.436	24.092	27.739	209.624	25.091	-8191	255	
1389.161	1	1	0	0	0.14563	0.28209	0.048994	0.20521	0.019967	0.13046	0.18614	0.058271	0.24425	0.10218	0.099643	0.098357	0.069202	0.22683	0.22435	0.17385	-4.0896	-3.6854	-3.3792	-4.4583	-3.3833	-3.7938	-4.175	-3.4104	-4.1167	-3.6708	-3.4021	-4.1771	-3.4	-3.975	-4.2396	-3.4813	275.497	72.100	127.450	336.964	7.963	17.146	335.278	283.967	289.426	62.570	3.756	305.869	339.035	343.842	210.376	20.265	0.00031682	0.00024313	0.0005409	1472.9	1.1059e-05	1.287e-05	1380.7	383.01	4.9068e-06	1.7682e-05	372.09	119.88	106.57	41.476	8.915e-06	52.983	0.0062341	0.0099374	0.0027766	1328.5	0.00010207	0.00010799	1237.1	347.07	9.4886e-05	0.00010646	346.54	113.83	101.65	38.453	9.5104e-05	49.198	232.933	337.256	56.961	15.039	79.559	176.802	14.361	18.978	100.527	121.431	17.279	22.172	23.996	27.957	195.720	24.931	-8191	255	
1389.256	1	1	0	0	0.28211	0.22909	0.11874	0.28552	0.13239	0.25462	0.26138	0.11844	0.41167	0.3231	0.16761	0.19476	0.12928	0.2134	0.21512	0.076584	-3.5958	-3.7083	-3.3	-4.4	-3.3063	-3.6833	-4.2896	-3.5958	-3.8812	-3.7458	-3.4271	-4.1292	-3.4	-3.8042	-4.0542	-3.3875	15.636	47.090	333.795	24.563	116.637	182.607	228.613	15.078	23.737	85.689	52.068	201.750	280.751	313.711	154.285	174.743	0.00038065	0.00086747	0.00015374	1460	1.1681e-05	1.0031e-05	1364.5	380.45	1.2707e-05	5.5603e-06	371.85	120.15	104.76	40.969	1.021e-05	52.447	0.0055761	0.0088524	0.0024557	1318.8	9.0548e-05	9.7218e-05	1226.7	343.3	8.3719e-05	9.3526e-05	343.07	112.08	99.539	37.759	8.5258e-05	48.406	213.887	36.093	78.448	14.673	328.931	149.198	13.966	19.197	255.876	255.103	17.198	22.798	23.869	27.835	175.056	24.608	-8191	255	
1389.352	1	1	0	0	0.26789	0.19305	0.22227	0.24355	0.27978	0.015257	0.16519	0.31479	0.11698	0.076818	0.24731	0.17447	0.17242	0.12215	0.08334	0.30979	-3.6458	-3.8688	-3.1312	-4.3562	-3.2167	-3.3833	-4.3708	-3.4125	-3.9667	-3.8979	-3.2104	-4.0917	-3.5625	-3.5917	-4.1229	-3.4729	89.266	205.730	350.666	313.754	117.669	240.779	246.939	52.853	334.768	89.770	244.900	50.802	320.520	2.702	349.686	222.047	0.00018365	0.00073746	5.1359e-05	1449.5	1.0916e-05	1.6339e-06	1357.3	378.37	7.6692e-06	4.9614e-06	371.7	118.18	104.28	40.686	1.1402e-05	52.702	0.0051589	0.0081199	0.0022599	1302.1	8.1898e-05	8.8245e-05	1217	340.31	7.7594e-05	8.7048e-05	339.92	110.79	98.228	37.261	7.7254e-05	48.179	219.315	112.708	183.289	14.972	67.449	189.837	14.142	19.143	165.110	344.407	17.640	22.459	23.726	28.051	197.861	24.918	-8191	255	
1389.450	1	1	0	0	0.086871	0.0097605	0.030829	0.43654	0.11754	0.084293	0.37586	0.207	0.025209	0.14714	0.26732	0.096069	0.23027	0.30362	0.18449	0.1682	-3.5854	-3.9229	-3.3542	-4.2833	-3.7208	-3.3917	-4.3292	-3.5729	-3.5396	-4.1729	-3.3229	-4.2042	-3.8292	-3.4479	-4.0229	-3.4146	81.013	116.167	307.369	6.145	88.079	114.655	304.864	325.767	234.975	233.523	326.887	225.438	353.836	327.781	302.767	348.132	0.00036526	0.00062956	0.0002194	1451.5	1.041e-05	9.3017e-06	1358.9	374.87	9.895e-06	1.3471e-05	362.17	115.25	101.77	39.481	7.5226e-06	49.756	0.0046834	0.0072111	0.00204	1297.7	7.379e-05	7.9842e-05	1209.3	335.97	7.1449e-05	7.9728e-05	331.15	107.13	95.759	36.032	7.2881e-05	45.504	241.782	84.664	109.207	15.109	199.601	55.398	14.081	19.410	175.067	118.322	17.333	22.675	24.099	28.286	156.369	24.897	-8191	255	
1389.544	1	1	0	0	0.18866	0.28445	0.28333	0.28854	0.10837	0.11861	0.073682	0.24215	0.077743	0.01804	0.21864	0.078489	0.14051	0.1957	0.23679	0.16853	-3.3563	-3.95	-3.1333	-4.0375	-3.6188	-3.4479	-4.3083	-3.4646	-3.5875	-4.1042	-3.3063	-4.0458	-4.0208	-3.3167	-4.225	-3.4542	335.856	295.996	267.446	336.285	151.330	350.016	11.492	358.816	233.047	179.324	11.847	360.166	300.723	351.198	66.990	256.134	0.00021196	0.00073219	0.00015524	1432.7	5.4257e-06	7.3359e-06	1339	366.71	1.6019e-06	1.1752e-05	355.53	113.1	99.65	38.605	7.716e-06	48.91	0.0043282	0.0068295	0.0019369	1282.2	7.1016e-05	7.5655e-05	1189.9	328.67	6.6613e-05	7.4146e-05	324.92	104.85	93.661	35.377	6.9538e-05	44.899	235.588	76.683	103.765	15.018	218.697	288.405	13.928	19.057	46.897	114.373	17.499	22.446	24.315	28.196	183.524	24.868	-8191	255	
1389.640	1	1	0	0	0.12467	0.1485	0.21975	0.20922	0.10113	0.092877	0.080161	0.27025	0.24987	0.17007	0.20517	0.16528	0.080655	0.24512	0.082018	0.15714	-3.1604	-4.1562	-3.3167	-4.0354	-3.7771	-3.1771	-4.3708	-3.7604	-3.3917	-4.1771	-3.5146	-3.6917	-3.9979	-3.2167	-4.0021	-3.7146	241.121	352.994	264.695	340.180	44.027	81.535	304.217	288.979	8.108	190.310	21.042	315.457	277.908	12.393	291.234	47.956	0.00037557	0.00099578	0.00017832	1436.3	1.9643e-05	9.414e-06	1338.6	366.87	8.2766e-06	1.0798e-05	359.89	113.83	100.13	38.619	5.2548e-06	49.761	0.004175	0.006574	0.0018288	1280.3	6.6917e-05	7.2459e-05	1191.9	328.11	6.435e-05	7.2315e-05	326.19	105.74	93.904	35.424	6.7697e-05	45.407	237.215	102.457	78.612	14.998	187.945	194.487	14.094	19.333	108.775	39.408	17.395	22.256	24.225	27.917	208.445	24.855	-8191	255	
1389.736	1	1	0	0	0.13584	0.078813	0.31631	0.088628	0.17183	0.18805	0.28906	0.21285	0.15625	0.06714	0.24136	0.10234	0.20177	0.22555	0.047998	0.051302	-3.0792	-3.9625	-3.2646	-3.7771	-4.0687	-3.2292	-4.1792	-3.9167	-3.2625	-4.2542	-3.5104	-3.75	-4.0875	-3.2875	-4.0667	-3.9958	343.655	222.254	180.097	15.755	226.198	354.506	279.978	324.071	244.948	46.785	22.209	11.653	29.301	7.405	21.430	228.523	0.00029207	0.00058808	0.00016255	1437	4.7784e-06	5.9781e-06	1349.7	368.98	1.4426e-05	6.9843e-06	360.83	116.31	101.3	39.133	3.2233e-06	50.127	0.0040226	0.0063522	0.0017871	1281.2	6.5328e-05	7.0476e-05	1197.8	330.13	6.3603e-05	7.1298e-05	328.53	106.62	94.253	35.674	6.6015e-05	45.771	236.286	53.143	111.447	15.141	175.660	136.131	14.127	19.219	300.827	159.199	17.938	22.451	23.843	28.187	55.185	24.923	-8191	255	
1389.857	1	1	0	0	0.14513	0.14121	0.22926	0.14134	0.1943	0.015308	0.26806	0.13081	0.13526	0.1618	0.51713	0.079584	0.25599	0.046634	0.11081	0.1244	-2.8458	-4.2312	-3.3875	-3.6937	-4.1854	-3.2708	-4.0917	-4.0021	-3.2375	-4.0958	-3.5792	-3.5563	-4.2063	-3.4479	-3.9104	-3.9188	96.513	84.487	83.291	300.814	127.459	18.321	288.569	322.244	313.530	66.191	336.587	221.585	304.586	181.326	225.765	62.892	0.00025693	0.00091981	0.00024005	1440.6	1.3079e-05	6.0364e-06	1330.7	369.1	1.0324e-05	1.3691e-05	355.85	112.67	100.23	38.436	1.1194e-05	49.129	0.0039389	0.0061595	0.001726	1283	6.4264e-05	7.045e-05	1189.9	330.33	6.183e-05	6.9218e-05	324.36	104.32	93.321	35.15	6.5286e-05	44.646	236.230	97.873	21.908	15.271	95.068	320.246	13.949	19.397	199.459	268.147	17.309	22.734	24.354	28.206	236.231	24.754	-8191	255	
1389.953	1	1	0	0	0.16715	0.11682	0.17256	0.21804	0.064226	0.035428	0.35489	0.1061	0.23306	0.1757	0.19258	0.24656	0.10949	0.12314	0.21303	0.15365	-2.9375	-4.0646	-3.3688	-3.5833	-4.2312	-3.3604	-4.0125	-4.225	-3.1625	-4.1062	-3.6458	-3.4229	-4.2708	-3.4583	-3.7562	-4.1083	224.198	1.441	236.962	303.451	113.828	295.231	321.579	236.791	178.048	331.414	322.371	296.710	30.441	181.123	168.516	332.130	0.00022436	0.00024476	0.00011284	1430	1.1375e-05	9.4617e-06	1342.3	367.48	5.9215e-06	9.377e-06	357.38	112.83	101.36	38.651	8.3892e-06	48.894	0.0039693	0.0062312	0.0017452	1279.1	6.3199e-05	6.8958e-05	1188.6	329.6	6.3575e-05	7.0941e-05	325.64	104.5	94.277	35.251	6.6657e-05	44.81	208.883	107.473	147.361	15.123	241.585	235.147	14.118	19.228	232.475	224.533	17.220	22.792	24.294	28.029	177.460	24.692	-8191	255	
1390.049	1	1	0	0	0.08156	0.071898	0.11075	0.21901	0.23823	0.062895	0.2347	0.089528	0.13511	0.094508	0.16745	0.14986	0.0922	0.29779	0.16203	0.054801	-2.8958	-3.9875	-3.6667	-3.6375	-4.2083	-3.3688	-3.8479	-4.2646	-3.275	-3.8167	-3.8708	-3.2354	-4.1667	-3.5708	-3.4542	-4.1854	204.663	51.596	200.350	327.333	225.540	53.986	299.435	234.935	21.614	214.604	307.850	344.399	73.936	351.949	145.841	343.768	0.00041127	0.00031168	0.00012796	1440.9	1.0783e-05	1.1689e-05	1353.4	373.88	1.0256e-05	1.6321e-05	363.16	114.64	101.97	39.308	8.1687e-06	50.228	0.0041054	0.006443	0.0018037	1286	6.6286e-05	7.2143e-05	1198.8	334.45	6.6529e-05	7.3908e-05	330.54	106.53	95.824	36.01	7.2484e-05	46.195	232.266	32.095	316.246	14.992	98.040	185.155	14.304	19.180	180.450	164.181	17.181	22.406	24.484	27.963	112.072	24.730	-8191	255	
1390.145	1	1	0	0	0.040306	0.19975	0.16049	0.26216	0.11063	0.072055	0.14593	0.05638	0.019426	0.16987	0.33739	0.043018	0.21611	0.20613	0.24108	0.15224	-2.8104	-3.7667	-3.9021	-3.475	-4.0938	-3.4875	-3.5583	-4.4688	-3.0708	-3.9021	-4.0583	-3.3812	-4.2125	-3.8688	-3.4979	-4.3229	142.563	242.242	36.735	327.645	256.967	163.406	338.971	348.847	325.328	213.751	22.867	55.635	23.545	301.850	248.139	253.809	0.00037989	0.00038557	0.00016738	1459.1	7.2962e-06	1.1578e-05	1369.6	384.34	1.0015e-05	9.2333e-06	376.82	117.53	105.42	40.899	7.8417e-06	52.545	0.0045113	0.0072547	0.0020477	1304.7	7.7636e-05	8.3661e-05	1222.8	344.63	7.8519e-05	8.8368e-05	344.72	110.78	100.03	37.749	8.5705e-05	48.501	231.486	94.092	140.963	15.172	229.327	156.595	14.343	19.504	207.379	136.754	16.807	22.624	23.590	27.754	135.331	25.297	-8191	255	
1390.241	1	1	0	0	0.014508	0.3016	0.11903	0.11246	0.29428	0.13462	0.25495	0.081587	0.12422	0.12502	0.12932	0.20365	0.18934	0.17507	0.17591	0.028376	-3.0458	-3.5563	-4.0875	-3.5375	-4.0896	-3.8646	-3.5771	-4.3229	-3.35	-3.5438	-4.1354	-3.2542	-3.9625	-3.9479	-3.2562	-4.2792	231.792	80.728	249.467	24.227	349.181	93.227	259.226	270.995	73.248	304.495	344.928	350.194	172.951	319.399	172.224	143.345	0.00034735	0.00030552	0.00032279	1476.9	1.058e-05	1.3982e-05	1392.7	396.97	9.2932e-06	9.7353e-06	385.76	120.43	108.98	42.075	1.5809e-05	53.254	0.0053053	0.0085146	0.0024114	1332.3	9.0057e-05	9.6379e-05	1245	357.47	8.8913e-05	0.00010058	355.04	114.12	103.94	39.089	9.6717e-05	49.375	232.850	97.524	61.129	14.967	190.332	174.330	14.009	19.238	198.318	63.638	17.004	22.468	23.846	27.796	204.587	24.946	-8191	255	
1390.338	1	1	0	0	0.16855	0.19101	0.17778	0.088616	0.22185	0.056126	0.09412	0.21385	0.13514	0.11704	0.43575	0.16689	0.11352	0.19581	0.060418	0.17037	-2.9625	-3.5729	-4.225	-3.2687	-3.8312	-4.0021	-3.4167	-4.2604	-3.5271	-3.5625	-4.4083	-3.2333	-3.9958	-4.0708	-3.2125	-4.3333	159.974	36.553	2.802	352.165	237.929	304.182	229.293	345.854	5.324	218.900	264.355	296.293	227.631	29.062	330.088	270.694	0.00040455	0.00071418	0.00017705	1493	1.3959e-05	5.457e-06	1396.8	401.02	1.4182e-05	8.7146e-06	388.93	121.56	109.61	42.679	1.6535e-06	54.007	0.0058751	0.0093876	0.0026131	1348.8	9.8568e-05	0.00010621	1253	362.26	9.7143e-05	0.0001102	359.43	115.35	105.56	39.543	0.00010253	50.144	209.290	338.708	332.266	15.302	229.429	129.995	14.299	19.154	171.793	72.362	17.165	22.389	24.200	27.560	265.118	24.937	-8191	255	
1390.457	1	1	0	0	0.1735	0.06204	0.1248	0.023295	0.13286	0.24468	0.24717	0.19824	0.17185	0.11299	0.22141	0.097043	0.22724	0.05538	0.030298	0.32509	-3.3208	-3.5604	-4.3562	-3.4729	-3.8646	-4.1896	-3.4146	-4.2063	-3.6479	-3.275	-4.2042	-3.2479	-3.8875	-4.1208	-3.2083	-4.2229	15.122	277.558	346.931	332.564	214.353	265.588	285.751	338.268	237.140	56.135	302.128	169.985	266.959	106.995	22.263	303.335	0.0003451	0.0012882	0.00031605	1498.2	1.0421e-05	3.5815e-06	1401.9	407.45	6.8543e-06	8.5965e-06	388.73	123.74	110.78	43.201	6.7897e-06	55.2	0.0061372	0.0097408	0.0026976	1353.6	0.00010029	0.0001081	1262.3	366.41	9.6983e-05	0.00010983	362.2	116.89	106.39	40.063	0.00010197	51.035	231.922	93.499	112.298	15.091	172.743	242.656	14.282	19.210	318.016	203.581	17.202	22.269	24.120	27.603	220.829	24.789	-8191	255	
1390.553	1	1	0	0	0.13219	0.15021	0.1109	0.28759	0.25962	0.25466	0.25901	0.24024	0.24237	0.15136	0.2341	0.19148	0.16787	0.3539	0.27258	0.16844	-3.4313	-3.175	-4.1833	-3.6417	-3.5646	-4.15	-3.4271	-4.2042	-3.9521	-3.3083	-4.3625	-3.5646	-3.5354	-4.1375	-3.3563	-4.1104	333.868	63.578	343.892	321.773	303.645	48.807	266.953	298.726	22.825	153.613	172.636	83.384	66.829	316.294	356.281	318.298	0.00025041	0.0012395	0.00049356	1496.6	1.3642e-05	2.3373e-05	1418.2	408.16	4.8748e-06	1.2078e-05	393.78	125.07	111.32	43.551	1.0598e-05	54.848	0.0059657	0.0095469	0.0027066	1354	9.9423e-05	0.00010597	1270.5	367.68	9.5516e-05	0.00010904	365.01	117.89	106.83	40.313	0.00010164	51.29	249.234	60.710	257.490	15.113	54.506	103.056	14.219	19.335	274.650	131.193	17.441	22.268	24.007	27.895	321.582	24.857	-8191	255	
1390.649	1	1	0	0	0.16434	0.28224	0.24935	0.064073	0.21332	0.26452	0.16156	0.17216	0.020626	0.16987	0.137	0.14011	0.1868	0.25913	0.22814	0.26973	-3.6083	-3.3187	-4.0292	-3.6146	-3.525	-4.2271	-3.4562	-3.8104	-3.9562	-3.2188	-4.3	-3.5208	-3.3708	-4.3833	-3.4333	-3.9958	341.104	306.875	297.620	327.301	315.775	186.723	292.526	297.326	47.205	196.719	342.345	181.059	301.781	352.379	48.143	263.500	0.00040984	0.0012006	0.00036418	1503.1	2.609e-06	1.3041e-05	1407.1	407.28	9.1494e-06	1.3852e-05	393.66	124.19	111.29	43.348	1.9114e-05	54.386	0.0060971	0.0097948	0.0027382	1360.7	0.00010212	0.00011059	1265.7	369.23	9.8882e-05	0.00011096	365.51	117.23	107.05	40.332	0.00010543	50.665	227.121	50.241	85.844	14.959	138.824	247.779	13.547	19.099	269.478	143.283	17.312	22.125	24.093	27.369	139.098	24.761	-8191	255	
#DATA ENDS
