BOXY.EXE: ISS Imagent and Oximeter Data Acquisition Program Version 0.80
Ascii Record File

#ACQ INFORMATION
2  Detector Channels 
16  External MUX Channels 
1  Auxiliary Channels 
5000  Waveform (CCF) Frequency (Hz)
1  Waveforms Skipped 
30  Waveforms Averaged 
1  Cycles Averaged 
16  Acquisitions per Waveform 
10.0806  Updata Rate (Hz) 

#FILE INFORMATION
TRUE -- External MUX Channel results are PARSED.
FALSE -- AC DC and Phase are NOT grouped.
TRUE -- Companion Program Settings File CREATED.
FALSE -- AC data not excluded
FALSE -- DC data not excluded
FALSE -- Phase data not excluded
FALSE -- Auxillary Chn. data not excluded
Tab delimiters

#CALIBRATION STATE
TRUE -- Waveform Calibration Values APPLIED.


#AUX CALIBRATION VALUES
Val Type	aux-1	

Term	1.0000e+00	
Factor	0.0000e+00	


#WF CALIBRATION VALUES
A = Detector Channel
Val Type	A-AC1	A-AC2	A-AC3	A-AC4	A-AC5	A-AC6	A-AC7	A-AC8	A-AC9	A-AC10	A-AC11	A-AC12	A-AC13	A-AC14	A-AC15	A-AC16	A-DC1	A-DC2	A-DC3	A-DC4	A-DC5	A-DC6	A-DC7	A-DC8	A-DC9	A-DC10	A-DC11	A-DC12	A-DC13	A-DC14	A-DC15	A-DC16	A-Ph1	A-Ph2	A-Ph3	A-Ph4	A-Ph5	A-Ph6	A-Ph7	A-Ph8	A-Ph9	A-Ph10	A-Ph11	A-Ph12	A-Ph13	A-Ph14	A-Ph15	A-Ph16	

Term	0.00000e+00	0.00000e+00	0.00000e+00	0.00000e+00	0.00000e+00	0.00000e+00	0.00000e+00	0.00000e+00	0.00000e+00	0.00000e+00	0.00000e+00	0.00000e+00	0.00000e+00	0.00000e+00	0.00000e+00	0.00000e+00	0.00000e+00	0.00000e+00	0.00000e+00	0.00000e+00	0.00000e+00	0.00000e+00	0.00000e+00	0.00000e+00	0.00000e+00	0.00000e+00	0.00000e+00	0.00000e+00	0.00000e+00	0.00000e+00	0.00000e+00	0.00000e+00	0.00000e+00	0.00000e+00	0.00000e+00	0.00000e+00	0.00000e+00	0.00000e+00	0.00000e+00	0.00000e+00	0.00000e+00	0.00000e+00	0.00000e+00	0.00000e+00	0.00000e+00	0.00000e+00	0.00000e+00	0.00000e+00	
Factor	1.00000e+00	1.00000e+00	1.00000e+00	1.00000e+00	1.00000e+00	1.00000e+00	1.00000e+00	1.00000e+00	1.00000e+00	1.00000e+00	1.00000e+00	1.00000e+00	1.00000e+00	1.00000e+00	1.00000e+00	1.00000e+00	1.00000e+00	1.00000e+00	1.00000e+00	1.00000e+00	1.00000e+00	1.00000e+00	1.00000e+00	1.00000e+00	1.00000e+00	1.00000e+00	1.00000e+00	1.00000e+00	1.00000e+00	1.00000e+00	1.00000e+00	1.00000e+00	X	X	X	X	X	X	X	X	X	X	X	X	X	X	X	X	

B = Detector Channel
Val Type	B-AC1	B-AC2	B-AC3	B-AC4	B-AC5	B-AC6	B-AC7	B-AC8	B-AC9	B-AC10	B-AC11	B-AC12	B-AC13	B-AC14	B-AC15	B-AC16	B-DC1	B-DC2	B-DC3	B-DC4	B-DC5	B-DC6	B-DC7	B-DC8	B-DC9	B-DC10	B-DC11	B-DC12	B-DC13	B-DC14	B-DC15	B-DC16	B-Ph1	B-Ph2	B-Ph3	B-Ph4	B-Ph5	B-Ph6	B-Ph7	B-Ph8	B-Ph9	B-Ph10	B-Ph11	B-Ph12	B-Ph13	B-Ph14	B-Ph15	B-Ph16	

Term	0.00000e+00	0.00000e+00	0.00000e+00	0.00000e+00	0.00000e+00	0.00000e+00	0.00000e+00	0.00000e+00	0.00000e+00	0.00000e+00	0.00000e+00	0.00000e+00	0.00000e+00	0.00000e+00	0.00000e+00	0.00000e+00	0.00000e+00	0.00000e+00	0.00000e+00	0.00000e+00	0.00000e+00	0.00000e+00	0.00000e+00	0.00000e+00	0.00000e+00	0.00000e+00	0.00000e+00	0.00000e+00	0.00000e+00	0.00000e+00	0.00000e+00	0.00000e+00	-5.64756e+01	-1.47905e+02	-1.44937e+02	-1.86522e+02	-8.92632e+01	-5.44903e+01	-1.58969e+02	-1.62015e+02	-6.59647e+01	-7.38087e+01	-1.73753e+02	-1.69919e+02	-1.80448e+02	-1.77370e+02	-4.09621e+01	-1.50374e+02	
Factor	2.12419e-05	8.28046e-05	2.41116e-05	6.97792e-01	9.07386e-07	9.69914e-07	1.84788e-01	5.57895e-02	9.81085e-07	9.63530e-07	9.73165e-02	3.11963e-02	2.75452e-02	1.04083e-02	8.82609e-07	1.50879e-02	5.16863e-07	5.25153e-07	1.46014e-07	2.71606e-01	5.76128e-09	5.76601e-09	8.04995e-02	2.57462e-02	5.77309e-09	5.77174e-09	4.20780e-02	1.35895e-02	1.24038e-02	4.63209e-03	5.77017e-09	6.39012e-03	X	X	X	X	X	X	X	X	X	X	X	X	X	X	X	X	



#DISTANCE SETTINGS
A = Detector Channel
A-1	A-2	A-3	A-4	A-5	A-6	A-7	A-8	A-9	A-10	A-11	A-12	A-13	A-14	A-15	A-16	

2.5000e+00	3.0000e+00	2.5000e+00	3.0000e+00	2.0000e+00	3.0000e+00	1.5000e+00	3.0000e+00	3.0000e+00	3.0000e+00	3.0000e+00	3.0000e+00	3.0000e+00	3.0000e+00	1.5000e+00	3.0000e+00	

B = Detector Channel
B-1	B-2	B-3	B-4	B-5	B-6	B-7	B-8	B-9	B-10	B-11	B-12	B-13	B-14	B-15	B-16	

1.0000e+01	1.0000e+01	1.0000e+01	1.4400e+00	1.0000e+01	1.0000e+01	1.5100e+00	1.9400e+00	1.0000e+01	1.0000e+01	1.9900e+00	2.4900e+00	2.4100e+00	2.9000e+00	1.0000e+01	2.9800e+00	




#DATA BEGINS
time	group	step	mark	flag	A-AC1	A-AC2	A-AC3	A-AC4	A-AC5	A-AC6	A-AC7	A-AC8	A-AC9	A-AC10	A-AC11	A-AC12	A-AC13	A-AC14	A-AC15	A-AC16	A-DC1	A-DC2	A-DC3	A-DC4	A-DC5	A-DC6	A-DC7	A-DC8	A-DC9	A-DC10	A-DC11	A-DC12	A-DC13	A-DC14	A-DC15	A-DC16	A-Ph1	A-Ph2	A-Ph3	A-Ph4	A-Ph5	A-Ph6	A-Ph7	A-Ph8	A-Ph9	A-Ph10	A-Ph11	A-Ph12	A-Ph13	A-Ph14	A-Ph15	A-Ph16	B-AC1	B-AC2	B-AC3	B-AC4	B-AC5	B-AC6	B-AC7	B-AC8	B-AC9	B-AC10	B-AC11	B-AC12	B-AC13	B-AC14	B-AC15	B-AC16	B-DC1	B-DC2	B-DC3	B-DC4	B-DC5	B-DC6	B-DC7	B-DC8	B-DC9	B-DC10	B-DC11	B-DC12	B-DC13	B-DC14	B-DC15	B-DC16	B-Ph1	B-Ph2	B-Ph3	B-Ph4	B-Ph5	B-Ph6	B-Ph7	B-Ph8	B-Ph9	B-Ph10	B-Ph11	B-Ph12	B-Ph13	B-Ph14	B-Ph15	B-Ph16	aux-1	digaux	

680.571	1	1	0	768	0.045288	0.14179	0.10115	0.15695	0.12552	0.085679	0.25546	0.26466	0.13624	0.19175	0.16622	0.10151	0.03492	0.27412	0.085369	0.16079	-2.625	-3.4042	-3.1813	-3.1729	-3.3854	-2.9583	-3.4062	-3.45	-2.975	-3.4708	-3.0875	-3.3333	-3.4271	-3.1417	-3.2542	-3.3812	239.908	374.528	125.140	373.972	385.881	362.969	375.716	365.980	364.273	309.754	370.237	202.844	214.744	73.109	271.440	385.494	0.00042427	0.00055074	8.5817e-05	1364.3	1.5837e-06	9.4972e-06	1371.7	366	4.4002e-06	6.4975e-06	418.57	140.24	121.63	41.966	1.7675e-06	51.733	0.00053245	0.00051195	0.00016252	1376.8	5.7201e-06	5.7844e-06	1381.9	371.78	5.7335e-06	5.7994e-06	427.07	142.51	122.83	42.6	6.3628e-06	52.728	226.572	179.257	216.284	72.321	415.723	270.002	72.579	77.354	230.856	188.592	76.680	81.703	82.133	86.072	356.132	85.187	-8191	255	
680.667	1	1	0	0	0.059075	0.021709	0.076739	0.053143	0.098546	0.091164	0.36566	0.23464	0.12615	0.060932	0.33132	0.16586	0.13517	0.028667	0.22505	0.22754	-2.5875	-3.5563	-3.225	-3.0875	-3.5646	-3.1646	-3.45	-3.5792	-3.1188	-3.4313	-3.2625	-3.2438	-3.4083	-3.1	-3.2396	-3.3438	239.090	112.891	135.091	278.488	236.470	130.378	354.024	208.727	256.381	177.138	325.666	69.084	73.397	370.710	133.208	364.205	0.00043036	0.00046741	8.5084e-05	1365	4.9023e-06	6.1327e-06	1369.4	365.37	7.9974e-06	7.7922e-06	418.94	140.4	121.87	41.859	2.3551e-06	51.841	0.00051547	0.00054058	0.00016108	1368.9	5.5535e-06	6.0384e-06	1380.8	370.37	5.5689e-06	6.1098e-06	426.62	142.46	122.77	42.921	6.1683e-06	52.601	233.856	142.787	184.467	72.159	377.206	214.964	72.635	77.262	286.758	232.498	76.680	81.731	81.825	86.060	228.540	85.354	-8191	255	
680.763	1	1	0	0	0.10341	0.1373	0.1746	0.13582	0.15848	0.13187	0.037995	0.37295	0.28374	0.12506	0.30366	0.15387	0.21555	0.23605	0.079768	0.061027	-2.5333	-3.3396	-3.2438	-3.1292	-3.5542	-2.9854	-3.5062	-3.4792	-2.8917	-3.4833	-3.2708	-3.1875	-3.2979	-3.1292	-3.2479	-3.5333	325.246	401.452	205.255	342.803	100.855	371.596	280.345	414.041	403.488	336.410	389.405	367.141	151.174	385.847	297.380	314.074	0.00040019	0.00062253	0.00010767	1359.2	5.8684e-06	4.7573e-06	1367.5	366.26	1.2116e-05	9.1636e-06	418.18	140.06	121.79	41.759	3.2734e-06	51.744	0.00050902	0.00056434	0.000155	1366.5	5.5392e-06	6.3049e-06	1377.8	370.11	5.6507e-06	6.33e-06	424.6	141.93	122.96	42.984	6.0452e-06	52.48	220.894	183.502	147.999	72.601	156.602	255.477	72.701	77.382	195.330	212.142	76.406	81.657	82.074	86.139	300.679	85.059	-8191	255	
680.859	1	1	0	0	0.21679	0.18855	0.13819	0.073624	0.34735	0.25074	0.18097	0.17906	0.37386	0.18322	0.11257	0.13661	0.14935	0.22134	0.20477	0.28305	-2.6688	-3.3583	-3.3479	-3.0312	-3.4375	-3.2208	-3.4979	-3.725	-3.0417	-3.3646	-3.4	-3.1354	-3.5083	-3.15	-3.2292	-3.6229	125.296	382.823	355.648	274.144	322.034	114.525	378.091	334.090	68.800	377.375	372.912	411.948	78.582	394.310	396.611	101.819	0.00053627	0.00051545	0.00018311	1357.9	7.0966e-06	2.2127e-06	1372	365.4	9.9461e-06	3.9397e-06	417.74	140.54	122.32	41.589	1.5184e-06	51.74	0.00052897	0.00058093	0.00015106	1357.5	5.8137e-06	6.3828e-06	1375.7	369.23	5.9923e-06	6.3509e-06	423.44	141.78	123.93	43.001	5.9959e-06	52.455	236.991	148.600	212.456	72.172	158.405	382.500	72.747	77.359	201.806	81.829	76.476	81.622	82.125	85.989	63.500	85.200	-8191	255	
680.955	1	1	0	0	0.33616	0.2638	0.032468	0.074433	0.28064	0.23391	0.049948	0.1827	0.18815	0.2377	0.27403	0.42529	0.18683	0.15595	0.11448	0.19011	-2.75	-3.2438	-3.1896	-3.0854	-3.5375	-3.1146	-3.3646	-3.5042	-3.0292	-3.35	-3.4562	-3.1104	-3.5	-3.1813	-2.9771	-3.6458	122.261	307.662	159.409	360.855	310.006	314.769	153.079	400.801	334.945	413.825	406.955	75.966	292.589	92.631	416.866	59.928	0.00051233	0.00027577	6.1809e-05	1372.9	8.3198e-06	1.239e-06	1367.1	366.28	8.3035e-06	1.9627e-06	418.16	140.61	122.14	41.769	7.5801e-06	51.891	0.00056155	0.00057576	0.00015	1361.5	6.1584e-06	6.2597e-06	1374.6	369.31	6.2587e-06	6.2061e-06	422.96	141.95	124.61	42.911	5.8472e-06	52.539	223.840	193.902	151.772	72.615	197.556	269.494	72.620	77.363	211.277	98.718	76.494	81.603	81.798	86.328	191.476	85.342	-8191	255	
681.051	1	1	0	0	0.11706	0.047919	0.25012	0.18266	0.33736	0.24565	0.064945	0.11238	0.11812	0.15859	0.15437	0.059	0.24811	0.23527	0.23077	0.22672	-2.5646	-3.2562	-3.4167	-3	-3.4396	-3.2354	-3.2104	-3.6083	-3.1229	-3.3708	-3.4625	-3.0875	-3.3729	-3.3375	-3.075	-3.6	324.840	144.059	105.636	66.353	185.515	193.122	117.420	411.436	286.913	295.427	394.760	260.704	411.149	59.848	214.194	379.149	0.00044231	6.3533e-05	6.9627e-05	1373.3	7.1589e-06	4.6069e-06	1367.4	366.73	3.4503e-06	2.7768e-06	420.33	140.69	121.92	41.866	1.8724e-06	52.085	0.00058074	0.00055959	0.00014578	1364.1	6.3633e-06	6.0727e-06	1373.4	370.52	6.4484e-06	6.082e-06	422.06	142.46	124.76	42.812	5.777e-06	52.897	235.239	248.847	107.442	72.700	197.561	385.311	72.603	77.451	351.554	316.110	76.437	81.649	82.127	86.145	231.903	85.280	-8191	255	
681.170	1	1	0	0	0.17472	0.13487	0.17301	0.2307	0.097364	0.22937	0.32957	0.26148	0.21382	0.034368	0.14955	0.39057	0.11857	0.041874	0.15202	0.17352	-2.75	-3.2021	-3.3979	-3.0083	-3.3354	-3.3937	-3.1333	-3.6792	-3.2438	-3.2375	-3.7208	-3.1	-3.4667	-3.45	-3.0604	-3.5312	298.546	386.656	412.071	76.996	123.964	402.268	377.087	334.423	320.234	76.889	374.907	397.018	95.728	380.121	319.725	320.146	0.0003927	0.00022146	0.00012627	1370.1	5.1318e-06	7.6902e-07	1364.9	367.07	9.5519e-06	5.4844e-06	418.79	140.74	121.57	41.854	5.7682e-06	51.884	0.00058417	0.00055142	0.00014219	1380.8	6.3847e-06	5.933e-06	1371	372.04	6.363e-06	5.9698e-06	421.27	143.2	124.5	42.686	5.6615e-06	53.193	234.946	178.065	386.840	72.518	193.031	344.506	72.588	77.237	214.360	128.454	76.591	81.805	82.289	86.139	253.954	85.478	-8191	255	
681.266	1	1	0	0	0.084553	0.34967	0.32936	0.15991	0.089354	0.11591	0.2676	0.097499	0.10546	0.0081668	0.074101	0.07369	0.25585	0.10338	0.13365	0.1327	-2.6167	-2.8667	-3.5604	-3.1146	-3.2521	-3.2292	-3.2333	-3.6021	-3.1354	-3.0625	-3.65	-3.3771	-3.3979	-3.5021	-3.15	-3.5292	293.595	361.320	281.005	70.771	399.421	169.757	351.807	332.349	236.550	296.722	105.700	318.419	403.572	83.771	350.658	141.254	0.00037532	0.00027424	4.0705e-05	1374	3.2908e-06	6.7823e-06	1369.8	367.9	4.6752e-06	7.2395e-07	417.64	140.41	121.82	41.811	5.269e-06	52.214	0.00057206	0.00054	0.00014215	1392	6.1988e-06	5.8439e-06	1371.4	373.39	6.1429e-06	5.7941e-06	421.06	143.53	123.94	42.505	5.7572e-06	53.388	224.678	155.328	123.281	72.591	60.278	111.816	72.581	77.524	254.910	397.537	76.672	81.517	82.243	86.163	200.791	85.298	-8191	255	
681.363	1	1	0	0	0.096322	0.20373	0.19753	0.26609	0.093245	0.064628	0.25824	0.24019	0.21753	0.07784	0.21306	0.25914	0.23812	0.19131	0.083264	0.11708	-2.8271	-3.1312	-3.5271	-3.2521	-3.0417	-3.3083	-3.1813	-3.3688	-3.3417	-3.05	-3.6354	-3.2396	-3.1312	-3.5479	-2.8271	-3.3583	321.297	238.318	93.199	405.995	99.649	151.204	397.625	353.190	68.300	218.020	363.375	66.057	365.194	345.661	340.537	373.888	0.00056424	0.00025294	0.00024505	1364.4	3.1231e-06	2.2831e-06	1372.9	366.88	3.6393e-06	1.4736e-06	419.03	140.29	121.83	41.918	8.2427e-06	52.129	0.00054375	0.00052113	0.00014491	1390.7	5.9526e-06	5.589e-06	1374.2	372.93	5.8575e-06	5.5886e-06	422.84	143.18	123.42	42.296	5.9499e-06	53.222	230.443	187.616	120.831	72.741	274.949	94.694	72.492	77.431	210.637	126.270	76.809	81.644	82.058	85.957	264.970	85.125	-8191	255	
681.459	1	1	0	0	0.084556	0.11974	0.21281	0.068094	0.31974	0.23849	0.18822	0.16287	0.032331	0.19024	0.27268	0.081183	0.18007	0.27082	0.031532	0.20702	-2.9104	-2.8375	-3.3604	-3.2479	-3.1854	-3.5417	-3.4396	-3.5917	-3.4333	-2.9979	-3.3771	-3.2833	-3.1604	-3.6771	-3.1625	-3.3229	415.485	237.929	344.263	306.570	268.240	83.202	386.232	412.990	251.977	366.112	361.952	212.536	157.233	255.915	376.371	100.155	0.00043453	0.00045843	0.00023544	1374.5	2.8478e-06	4.4997e-06	1370.2	366.39	6.2993e-06	3.0771e-06	419.35	140.39	121.23	41.961	7.9144e-06	52.106	0.00052563	0.00049982	0.00014983	1379.5	5.7251e-06	5.3451e-06	1375.8	371.49	5.5857e-06	5.367e-06	424.5	142.36	122.86	42.279	6.0085e-06	52.817	237.381	110.442	142.906	72.760	154.253	231.018	72.709	77.521	228.952	191.544	76.715	81.571	82.004	86.005	255.416	85.153	-8191	255	
681.555	1	1	0	0	0.10963	0.060175	0.2231	0.11011	0.18017	0.31189	0.22862	0.1439	0.23842	0.34574	0.10547	0.027561	0.47638	0.10383	0.046297	0.038932	-3.0208	-3.0083	-3.4667	-3.4521	-3.0604	-3.4167	-3.1979	-3.2354	-3.5563	-2.9021	-3.4437	-3.3146	-3.0042	-3.3604	-3.0438	-3.2708	384.228	118.799	108.698	343.546	387.694	155.828	82.849	412.463	409.248	151.782	395.960	281.594	62.048	394.657	123.028	344.813	0.00046315	0.0005366	8.3034e-05	1375.2	3.9033e-06	7.8237e-06	1364.6	365.52	2.5845e-06	1.0042e-05	419.32	140.17	121.68	41.919	7.051e-06	51.973	0.00049748	0.00048997	0.00015175	1361.7	5.4361e-06	5.3195e-06	1372.1	370.22	5.3264e-06	5.4139e-06	423.71	141.69	122.41	42.278	5.9478e-06	52.473	241.328	127.810	140.012	72.553	308.432	194.418	72.893	77.370	305.736	210.762	76.733	81.492	81.994	86.149	274.733	85.047	-8191	255	
681.651	1	1	0	0	0.081472	0.088729	0.24013	0.30662	0.13934	0.076142	0.22812	0.15906	0.10433	0.10071	0.1072	0.27496	0.4017	0.045313	0.2387	0.11116	-2.9562	-2.8125	-3.4021	-3.3917	-3.0021	-3.5583	-3.3271	-3.2396	-3.4521	-3.2354	-3.4646	-3.4979	-3.2188	-3.6021	-3.2958	-3.1875	119.282	87.576	82.546	374.770	277.166	361.072	418.031	314.976	234.344	268.446	268.124	335.352	301.757	409.609	92.691	181.675	0.00044846	0.00028278	0.00012047	1353.7	5.1376e-06	7.5306e-06	1362.7	364.99	2.5413e-06	4.4058e-06	417.02	139.58	121.38	41.69	1.8843e-06	51.59	0.00047615	0.00050401	0.00015014	1345.1	5.2618e-06	5.5719e-06	1369.5	368.48	5.1777e-06	5.7186e-06	422.27	140.95	121.83	42.503	5.8416e-06	52.255	227.386	213.729	103.904	72.178	131.116	209.317	72.528	77.485	206.731	159.309	76.625	81.564	82.149	85.936	240.731	85.175	-8191	255	
681.772	1	1	0	0	0.19367	0.1489	0.073601	0.048409	0.21745	0.14214	0.23429	0.26757	0.096395	0.13937	0.15502	0.21468	0.16651	0.32058	0.15534	0.20082	-3.2104	-3.1625	-3.175	-3.4125	-3.1271	-3.4938	-3.5938	-3.2667	-3.425	-3.1458	-3.3167	-3.5312	-2.9688	-3.4146	-3.4	-3.0896	374.651	251.767	341.885	419.246	263.969	408.103	312.309	385.783	78.500	87.947	151.689	359.403	346.433	403.685	111.892	103.824	0.00056673	0.00037757	5.7454e-05	1343.6	5.9976e-06	4.1361e-06	1352.5	362.62	5.3457e-06	1.017e-05	412.62	138.59	120.24	41.373	4.8007e-06	51.236	0.00047288	0.00052964	0.00014637	1338.1	5.2293e-06	5.8471e-06	1362.8	367.16	5.2416e-06	5.9225e-06	420.1	140.19	121.79	42.465	5.6466e-06	51.959	233.123	138.148	135.329	72.492	145.703	207.139	72.463	77.318	214.373	224.866	76.772	81.228	82.051	85.874	237.685	85.099	-8191	255	
681.868	1	1	0	0	0.27784	0.073047	0.07313	0.18059	0.21324	0.26557	0.11786	0.16219	0.038197	0.19019	0.29747	0.027199	0.18398	0.20115	0.079666	0.097155	-3.0125	-3.075	-3.1375	-3.5167	-2.8312	-3.4417	-3.4896	-3.1562	-3.3958	-3.2583	-3.3667	-3.4958	-3.1271	-3.5062	-3.2562	-3.2667	158.139	274.536	146.452	170.805	149.223	271.770	388.393	185.108	236.154	95.104	377.130	88.291	359.950	303.028	83.634	363.217	0.00058949	0.00039003	0.00018312	1343.9	5.8532e-06	2.4601e-06	1348.5	360.62	8.2145e-06	2.6824e-06	412.83	138.96	120.08	41.379	1.7681e-07	51.569	0.00048695	0.00054289	0.00014233	1330.3	5.4387e-06	5.9037e-06	1359.8	365.68	5.4562e-06	5.8875e-06	417.71	139.82	121.98	42.455	5.436e-06	51.76	230.169	154.721	279.226	72.357	191.166	216.018	72.702	77.375	200.218	140.912	76.831	81.619	82.011	85.769	100.820	85.371	-8191	255	
681.964	1	1	0	0	0.33212	0.14871	0.17287	0.14119	0.16014	0.14118	0.27495	0.1154	0.16188	0.27416	0.19643	0.27498	0.34427	0.17106	0.040394	0.2856	-3.0583	-3.2792	-3.125	-3.4104	-3.1229	-3.4271	-3.6083	-3.2583	-3.4833	-3.2875	-3.2333	-3.5812	-3.2438	-3.4479	-3.4646	-3.0958	343.479	388.510	321.691	374.889	363.297	278.684	365.219	379.391	369.780	323.467	283.726	384.206	305.885	396.571	182.835	406.880	0.000602	0.00021825	0.0001657	1350.9	4.1192e-06	2.2e-06	1348.7	362.32	2.0025e-06	1.528e-06	413.96	138.54	120.6	41.436	3.243e-06	51.694	0.00050407	0.00052477	0.00013749	1320.5	5.6244e-06	5.7361e-06	1357.8	365.53	5.6615e-06	5.6778e-06	417.67	139.79	122.89	42.313	5.2922e-06	51.941	227.953	200.567	135.439	71.878	170.276	241.535	72.430	77.322	222.198	159.781	76.532	81.381	81.929	86.131	220.965	85.131	-8191	255	
682.058	1	1	0	0	0.084841	0.11286	0.14095	0.14566	0.23932	0.1616	0.1854	0.15953	0.29658	0.11147	0.11164	0.077019	0.26628	0.28244	0.11943	0.22254	-2.8563	-3.2938	-3.1771	-3.5833	-3.0292	-3.3646	-3.7042	-3.1896	-3.3292	-3.1937	-3.1521	-3.6188	-3.1396	-3.3625	-3.4583	-3.0646	354.931	323.055	127.145	277.944	69.410	419.509	290.696	298.304	249.003	394.847	282.455	237.020	415.696	383.395	73.285	277.765	0.00057703	0.00044675	7.3638e-05	1343.8	3.7754e-06	8.0327e-06	1347.9	362.9	9.0495e-06	2.8416e-06	413.39	138.74	120.64	41.563	2.6839e-06	51.431	0.00052555	0.00050667	0.0001341	1325.9	5.8057e-06	5.5458e-06	1355.8	366.07	5.7835e-06	5.4818e-06	416.73	140.31	122.94	42.257	5.1206e-06	52.122	232.020	221.589	206.798	72.520	260.555	336.868	72.703	77.555	274.124	387.706	76.549	81.706	81.925	85.921	285.162	85.218	-8191	255	
682.132	1	1	0	0	0.15793	0.11905	0.16713	0.25313	0.2434	0.0084141	0.14477	0.06845	0.1218	0.1394	0.13449	0.26706	0.092362	0.22359	0.13162	0.093496	-2.8875	-3.2958	-3.0812	-3.4521	-3.3438	-3.2708	-3.7042	-3.2	-3.2021	-3.4125	-3.0646	-3.4083	-3.2354	-3.1667	-3.4083	-3.1208	137.536	392.473	221.395	360.900	165.283	208.909	364.871	364.638	370.563	112.417	374.352	296.222	61.969	358.986	252.679	252.934	0.00041427	0.00013109	9.0817e-05	1348	2.6613e-06	8.1172e-06	1353.2	362.45	4.6688e-06	1.957e-06	415.23	139.29	121.19	41.51	5.9856e-06	51.427	0.00052504	0.00048772	0.00012949	1336.6	5.7524e-06	5.3621e-06	1353.6	367.59	5.7004e-06	5.3244e-06	415.75	141.34	122.95	42.132	4.9871e-06	52.402	230.679	222.089	235.621	72.292	64.692	145.376	72.595	77.238	213.984	279.825	76.574	81.679	82.029	86.061	267.483	85.146	-8191	255	
682.251	1	1	0	0	0.13365	0.11696	0.23848	0.12399	0.2103	0.21504	0.3062	0.21077	0.063995	0.15653	0.38768	0.08252	0.35412	0.2098	0.063421	0.19746	-2.9104	-3.2979	-3.0021	-3.4417	-3.225	-3.1312	-3.4021	-3.1854	-3.1208	-3.3958	-3.1146	-3.4625	-3.2646	-3.0896	-3.5875	-3.3063	104.632	231.557	185.332	112.302	63.030	93.578	362.784	338.465	340.201	193.193	378.396	344.064	380.148	124.057	316.470	397.805	0.00047907	0.00024172	2.4939e-05	1351.6	2.2557e-06	5.9361e-06	1347.9	362.09	1.8897e-06	3.1294e-06	415.37	139.52	121.02	41.475	5.0507e-06	51.883	0.00051083	0.00047738	0.00012795	1351.6	5.5461e-06	5.2571e-06	1353.5	368.51	5.5376e-06	5.1903e-06	416.81	141.92	122.56	42.091	5.1138e-06	52.775	238.581	156.393	206.490	72.277	117.078	199.777	72.588	77.276	289.201	282.263	76.634	81.626	82.106	86.274	219.813	84.991	-8191	255	
682.347	1	1	0	0	0.025557	0.22111	0.24165	0.12473	0.10982	0.17405	0.20502	0.12545	0.16664	0.24116	0.27422	0.099645	0.19746	0.20897	0.41501	0.30658	-2.9396	-3.2917	-3.1333	-3.3542	-3.2521	-2.9708	-3.4708	-3.3292	-3.0062	-3.3104	-3.1042	-3.3979	-3.3708	-3.1375	-3.5375	-3.3958	122.212	239.623	226.471	285.406	315.394	61.929	391.889	343.612	342.659	102.579	388.757	374.818	97.869	316.213	157.145	347.067	0.00040754	0.0001407	7.0039e-05	1351.1	2.8707e-06	2.6049e-06	1354.5	364.23	3.8744e-06	3.303e-06	417.52	140.49	121.46	41.694	8.8558e-06	51.971	0.00049615	0.00046336	0.00013176	1355.4	5.3649e-06	5.0859e-06	1360.5	369.76	5.3285e-06	4.9952e-06	418.78	142.16	122.42	42.046	5.333e-06	52.735	235.223	116.728	131.763	71.962	197.578	262.861	72.546	77.234	343.919	314.909	76.541	81.422	82.287	86.208	249.298	85.485	-8191	255	
682.443	1	1	0	0	0.14196	0.23386	0.16755	0.24667	0.15823	0.11059	0.34896	0.24581	0.20439	0.12336	0.12849	0.15175	0.13623	0.10485	0.0097625	0.086717	-2.7458	-3.5771	-3.0708	-3.2771	-3.2979	-2.9958	-3.5854	-3.3375	-2.9625	-3.3917	-3.0812	-3.5854	-3.25	-3.2083	-3.5208	-3.3125	372.832	348.324	78.305	122.369	362.868	147.441	360.663	361.526	398.659	156.453	395.175	344.225	327.602	402.236	202.562	378.979	0.00041927	3.8181e-05	0.00020357	1359.2	7.6864e-06	1.4186e-06	1366.9	364.25	1.3521e-06	2.4405e-06	417.22	139.81	121.85	41.684	5.1863e-06	51.856	0.0004823	0.00045015	0.00013787	1352.5	5.2256e-06	4.9739e-06	1367.3	368.81	5.2606e-06	4.9324e-06	420.45	141.6	122.31	42.007	5.5897e-06	52.48	226.534	398.286	148.761	72.324	147.409	396.010	72.585	77.420	275.358	139.818	76.587	81.411	81.922	86.055	187.717	85.308	-8191	255	
682.539	1	1	0	0	0.11016	0.30176	0.077342	0.05436	0.13583	0.068688	0.21861	0.27099	0.23328	0.13204	0.056701	0.084961	0.22577	0.048968	0.085678	0.051257	-2.6937	-3.4646	-2.9354	-3.1125	-3.5687	-3.2667	-3.5667	-3.5083	-3.0229	-3.4396	-3.1875	-3.2833	-3.6979	-3.1396	-3.4188	-3.45	266.973	338.011	244.038	217.520	402.685	178.429	316.093	361.924	68.047	162.330	101.112	61.499	406.617	368.452	402.859	249.107	0.00039639	0.00026785	7.2299e-05	1354.2	6.2734e-07	6.3061e-06	1358.7	365.55	7.1258e-07	5.7496e-06	416.56	139.29	121.25	41.809	5.1607e-06	51.729	0.00047338	0.00045495	0.00014304	1344.2	5.0829e-06	5.102e-06	1366.7	368.3	5.1243e-06	5.0915e-06	421.23	141.05	121.77	42.205	5.644e-06	52.259	232.639	146.092	139.879	72.520	277.655	253.195	72.539	77.444	366.993	214.698	76.772	81.236	82.079	85.975	172.776	85.070	-8191	255	
682.660	1	1	0	0	0.22343	0.27711	0.077151	0.23466	0.24163	0.1996	0.42538	0.11033	0.25978	0.26706	0.25578	0.21649	0.14656	0.25948	0.095034	0.22747	-2.4688	-3.3333	-3.0167	-3.1292	-3.2542	-2.9667	-3.6354	-3.5396	-2.9833	-3.3021	-3.3458	-3.0187	-3.6208	-3.2979	-3.4646	-3.5563	79.972	213.232	370.900	313.613	224.483	72.722	409.812	193.521	131.886	173.290	410.352	376.455	375.807	77.068	197.565	274.095	0.0003927	0.00088385	2.6264e-05	1358.7	4.2327e-06	6.1495e-06	1363.8	365.57	1.4885e-06	5.9816e-06	417.63	140	120.96	41.764	3.7516e-06	51.853	0.00046084	0.00047287	0.00014256	1335.9	4.9474e-06	5.2954e-06	1369.3	368.1	4.9459e-06	5.2992e-06	420.77	140.97	121.35	42.318	5.5003e-06	52.143	235.304	135.945	279.288	72.420	146.991	247.884	72.498	77.330	258.493	206.056	76.577	81.475	82.133	86.110	272.802	84.946	-8191	255	
682.731	1	1	0	0	0.050272	0.22828	0.14148	0.3789	0.2479	0.11183	0.35452	0.34009	0.29899	0.23313	0.10135	0.1295	0.19542	0.083963	0.16354	0.19967	-2.6042	-3.4521	-3.1021	-3.0104	-3.5042	-2.9083	-3.5187	-3.5125	-3.0021	-3.3312	-3.4521	-3.15	-3.4917	-3.2042	-3.2729	-3.5792	345.167	392.195	113.424	358.280	212.579	92.788	334.481	330.327	128.492	240.477	74.721	331.664	83.677	219.336	109.434	291.124	0.00040967	0.0001982	8.4029e-05	1351.4	2.6413e-06	3.3733e-06	1356.3	363.81	8.2247e-06	2.2564e-06	415.48	139.69	121.16	41.717	1.8169e-06	51.787	0.00044997	0.00049416	0.00013817	1329.9	4.8729e-06	5.5368e-06	1364.1	366.97	4.9911e-06	5.5631e-06	419.51	140.72	121.66	42.483	5.3586e-06	51.959	227.850	140.963	264.489	72.509	95.998	216.615	72.477	77.349	229.850	231.332	76.591	81.620	82.006	85.860	299.912	85.129	-8191	255	
682.852	1	1	0	0	0.13103	0.17623	0.19998	0.10698	0.066851	0.17747	0.20536	0.24091	0.043042	0.029742	0.18927	0.04686	0.11063	0.26935	0.14325	0.075096	-2.4688	-3.5312	-3.3812	-2.9604	-3.4229	-3.2104	-3.3063	-3.7479	-3.1979	-3.3104	-3.6042	-2.9479	-3.5375	-3.4458	-3.0938	-3.5708	389.686	265.241	98.888	367.401	385.145	179.250	344.864	351.592	397.196	386.047	88.364	368.416	72.726	389.702	318.324	211.816	0.00062192	0.00066373	9.6798e-05	1352	4.3105e-06	2.6599e-06	1354.9	363.22	8.8103e-06	4.9556e-06	415.68	139.43	120.46	41.663	4.7382e-06	51.511	0.00046577	0.00051309	0.00013494	1325.9	5.1146e-06	5.6493e-06	1360.7	365.91	5.253e-06	5.6836e-06	417.99	140.23	122.07	42.465	5.3283e-06	51.801	235.302	149.209	416.927	72.438	168.179	232.222	72.628	77.393	240.528	226.922	76.428	81.489	81.725	86.003	377.130	85.098	-8191	255	
682.948	1	1	0	0	0.36064	0.068004	0.20177	0.11453	0.12521	0.080604	0.10113	0.091389	0.11938	0.14571	0.22493	0.109	0.09696	0.16166	0.15078	0.065795	-2.55	-3.2833	-3.2396	-3.0938	-3.4437	-3.1063	-3.1917	-3.6625	-3.0604	-3.3312	-3.4458	-3.0104	-3.4688	-3.25	-3.0083	-3.6125	186.834	251.869	165.238	112.865	367.475	346.636	408.092	78.144	270.242	344.720	361.450	200.504	67.516	308.702	176.374	137.476	0.00060221	0.00031749	0.00016526	1349.3	4.3045e-06	6.3578e-06	1345.7	360.35	7.5283e-06	2.5134e-06	412.83	138.75	119.39	41.226	4.3614e-06	51.066	0.00049866	0.00051712	0.00013423	1319.7	5.4833e-06	5.6594e-06	1355.7	364.58	5.6413e-06	5.6041e-06	416.32	139.8	122.13	42.278	5.2846e-06	51.652	235.007	158.163	109.438	72.249	248.722	115.197	72.583	77.249	164.913	165.555	76.663	81.437	82.105	85.857	378.231	85.048	-8191	255	
683.044	1	1	0	0	0.12781	0.04246	0.09299	0.25942	0.013249	0.41337	0.1775	0.17074	0.12881	0.038429	0.29353	0.29998	0.11614	0.24773	0.2138	0.23982	-2.6604	-3.1833	-3.5187	-3.0354	-3.4437	-3.4042	-3.3312	-3.5354	-3.0875	-3.3021	-3.4417	-3.1375	-3.2958	-3.4104	-2.9583	-3.4292	166.753	350.668	412.654	390.492	227.478	258.795	416.260	407.552	320.045	206.231	395.135	404.152	397.212	79.241	329.176	88.106	0.00048076	9.4587e-05	4.3192e-05	1340.2	1.8802e-06	1.9964e-06	1346.6	362.07	2.3032e-06	3.8253e-06	414.53	139.81	120.27	41.317	4.0744e-06	51.614	0.00052092	0.00050555	0.00013152	1323.3	5.7036e-06	5.4594e-06	1352.7	364.98	5.7006e-06	5.3808e-06	415.68	140.59	122.75	42.129	5.0161e-06	51.982	235.166	176.690	187.686	72.172	151.976	326.471	72.414	77.298	319.592	270.972	76.636	81.814	82.003	86.109	175.124	85.029	-8191	255	
683.140	1	1	0	0	0.16074	0.14149	0.067371	0.2065	0.38129	0.24707	0.051109	0.27797	0.066458	0.083317	0.18579	0.24189	0.12834	0.15997	0.31374	0.15918	-2.7042	-3.2625	-3.375	-2.9771	-3.3042	-3.2167	-3.2854	-3.7667	-3.1917	-3.1562	-3.6771	-3.1396	-3.4042	-3.3354	-3.0354	-3.6354	147.720	220.127	114.667	365.248	123.116	165.919	381.927	356.847	119.070	121.604	303.313	388.445	354.912	352.591	215.850	347.103	0.00057099	0.00047808	0.00010211	1342.1	2.1525e-06	6.4281e-06	1352.8	362.33	1.6976e-06	1.88e-06	413.19	139.4	120.86	41.462	2.5152e-06	51.572	0.00051454	0.00047667	0.00012478	1328.4	5.5546e-06	5.2048e-06	1353	366.96	5.5076e-06	5.2091e-06	413.87	141.06	122.68	42.058	4.9061e-06	52.278	231.142	98.888	181.473	72.272	262.034	191.837	72.432	77.477	231.309	316.736	76.637	81.629	82.015	85.955	279.336	85.234	-8191	255	
683.259	1	1	0	0	0.091132	0.059719	0.21846	0.10555	0.26535	0.23301	0.25079	0.12429	0.20681	0.30829	0.33741	0.21574	0.055037	0.40569	0.19339	0.21181	-2.7833	-3.0354	-3.4646	-3.0458	-3.4083	-3.4417	-3.15	-3.5979	-3.3438	-3.1125	-3.625	-3.1937	-3.3979	-3.4646	-3.0333	-3.6188	270.873	242.484	247.525	347.095	243.437	397.783	360.419	199.922	392.509	327.447	395.077	353.856	358.776	377.159	82.902	406.185	0.00028504	0.0001832	0.00014789	1349.8	9.9635e-07	5.91e-06	1348.9	360.67	6.0111e-07	1.0745e-06	412	138.58	119.95	41.406	3.3251e-06	51.264	0.00050169	0.00047202	0.00012349	1345.2	5.5041e-06	5.1739e-06	1353	368.37	5.5092e-06	5.2397e-06	415.12	141.52	122.33	42.043	5.1733e-06	52.594	242.692	66.674	143.866	72.179	149.051	220.615	72.563	77.174	321.877	155.543	76.516	81.399	81.868	85.811	293.863	85.077	-8191	255	
683.355	1	1	0	0	0.22863	0.07506	0.12962	0.187	0.2066	0.34293	0.30356	0.2006	0.069627	0.1094	0.30665	0.21327	0.20157	0.35671	0.24812	0.065297	-2.9375	-3.2125	-3.5479	-3.2146	-3.3146	-3.4313	-3.2458	-3.4354	-3.2667	-3.0042	-3.7375	-3.2188	-3.3083	-3.4979	-3.2125	-3.5229	210.442	298.344	179.204	87.734	252.155	323.599	413.996	370.462	100.105	95.358	85.968	367.681	403.786	374.610	223.078	349.303	0.00048304	0.00039456	0.00020004	1343	2.5038e-06	3.1018e-06	1343.8	360.78	1.4094e-06	2.5757e-06	413.41	137.42	118.8	40.983	8.1165e-06	51.305	0.00050283	0.00047488	0.00013178	1359.2	5.473e-06	5.1396e-06	1356.5	368.38	5.4092e-06	5.1595e-06	416.94	141.36	121.79	41.822	5.4419e-06	52.574	226.380	143.076	168.040	72.218	287.551	163.802	72.626	77.347	239.289	112.175	76.590	81.503	81.929	85.711	235.893	84.929	-8191	255	
683.427	1	1	0	0	0.12196	0.071171	0.11369	0.26535	0.074626	0.017418	0.38513	0.17193	0.16892	0.22236	0.25798	0.050848	0.15894	0.051809	0.15098	0.081505	-3.0375	-3.0521	-3.3937	-3.3937	-2.9604	-3.375	-3.2667	-3.3729	-3.3688	-2.9062	-3.3792	-3.3583	-3.3833	-3.4792	-3.0875	-3.4979	138.812	236.526	68.387	342.479	307.490	99.729	405.769	414.879	398.081	129.868	374.927	83.610	122.677	221.821	379.469	392.233	0.00040251	0.00021728	0.000208	1338.1	1.7235e-06	8.381e-06	1341.8	359.61	3.2169e-06	6.662e-07	412.86	138.64	120.22	41.337	7.1777e-06	51.494	0.00048906	0.00046644	0.00013854	1351	5.3364e-06	5.0209e-06	1359.8	367.52	5.2748e-06	5.0547e-06	419.05	141.33	121.67	41.78	5.6964e-06	52.374	246.635	162.128	165.391	72.186	270.671	212.570	72.428	77.349	251.686	415.424	76.498	81.232	81.697	86.057	234.791	85.165	-8191	255	
683.548	1	1	0	0	0.10154	0.11119	0.024088	0.10994	0.09992	0.14014	0.095199	0.059615	0.11229	0.32324	0.34601	0.12645	0.29983	0.19317	0.059211	0.20531	-3.0833	-3.0542	-3.4458	-3.2417	-3.2354	-3.6521	-3.2875	-3.3458	-3.5812	-2.9	-3.5104	-3.4729	-3.0729	-3.5354	-3.2167	-3.3021	359.498	410.614	299.660	367.369	274.035	381.358	328.421	320.977	369.927	289.388	83.981	68.656	85.505	156.417	314.257	363.206	0.00044741	0.00013193	0.00017466	1328.1	4.5921e-06	1.7314e-06	1348.6	360.59	2.9609e-06	1.0015e-05	411.5	138.51	119.81	41.191	7.8191e-06	51.527	0.00047981	0.00046854	0.00014462	1341.6	5.2786e-06	5.1174e-06	1363.4	367.35	5.2156e-06	5.2519e-06	420.2	140.9	121.49	42.035	5.8586e-06	52.309	231.739	128.127	129.753	72.196	102.222	196.909	72.564	77.422	334.954	193.967	76.600	81.221	81.715	85.998	229.768	84.957	-8191	255	
683.644	1	1	0	0	0.1897	0.12921	0.23358	0.14189	0.15966	0.059253	0.47836	0.30473	0.11415	0.18353	0.31182	0.33229	0.10516	0.089104	0.07542	0.3701	-3.0896	-2.9604	-3.4292	-3.2438	-3.0854	-3.3417	-3.1583	-3.0958	-3.3479	-3.1708	-3.3375	-3.4125	-3.1188	-3.3792	-3.2271	-3.1167	324.198	158.991	223.816	143.737	209.409	105.226	382.573	284.860	68.042	325.899	87.530	388.720	98.738	413.905	296.961	82.960	0.00040193	0.00046877	0.00010354	1335.8	2.9647e-06	7.388e-06	1345.5	360.99	5.9192e-06	8.4807e-06	413.84	138.89	120.13	41.37	4.876e-06	51.45	0.00047249	0.00049384	0.00014835	1339.3	5.1679e-06	5.4253e-06	1364.2	366.98	5.1306e-06	5.5472e-06	421.25	140.77	121.43	42.279	5.7514e-06	52.192	224.127	141.863	412.629	72.158	105.580	189.334	72.487	77.264	95.445	252.567	76.572	81.484	81.849	85.996	118.660	85.075	-8191	255	
683.740	1	1	0	0	0.2214	0.046388	0.087037	0.16295	0.17266	0.12934	0.44584	0.057211	0.076819	0.062827	0.053991	0.15259	0.18871	0.21889	0.081423	0.075583	-3.1708	-2.9833	-3.2708	-3.1979	-2.8604	-3.5771	-3.5604	-3.1979	-3.3646	-3.2167	-3.3208	-3.5625	-3.2979	-3.4833	-3.2792	-3.2313	65.153	78.368	401.042	279.552	327.815	61.322	337.744	308.270	131.809	404.813	84.847	364.355	257.222	104.779	68.855	300.340	0.000545	0.00025216	0.00014431	1342.4	4.6542e-06	9.7437e-07	1346.1	361.21	1.0689e-05	6.2747e-06	413.31	139.84	120.56	41.59	6.2725e-06	51.215	0.00046354	0.00051659	0.0001438	1334.6	5.1109e-06	5.6796e-06	1362.2	366.39	5.0915e-06	5.7834e-06	418.96	140.61	121.46	42.508	5.5208e-06	51.973	234.229	182.674	120.113	72.537	195.364	258.506	72.437	77.114	216.045	250.375	76.675	81.519	82.152	86.211	165.524	84.952	-8191	255	
683.861	1	1	0	0	0.17728	0.10212	0.10644	0.16939	0.056065	0.13377	0.2168	0.13041	0.27178	0.1604	0.24166	0.31072	0.16804	0.12459	0.17314	0.10475	-3.1229	-3.1042	-3.1271	-3.4042	-3.0458	-3.4625	-3.3583	-3.2021	-3.5021	-3.3229	-3.3688	-3.5167	-3.1292	-3.4771	-3.4104	-3.0812	377.816	283.313	118.609	114.318	324.375	354.157	401.419	287.799	218.229	260.772	381.668	196.267	349.492	349.362	126.271	158.203	0.00060777	0.00058264	0.00010457	1343.7	6.8424e-06	6.5578e-06	1347	359.78	9.1154e-06	4.7915e-06	412	138.05	120.37	41.195	2.6929e-06	51.438	0.00047047	0.00052666	0.00013857	1328.5	5.2284e-06	5.7409e-06	1360.9	365.88	5.2823e-06	5.8048e-06	417.7	140.08	122.37	42.505	5.3773e-06	51.899	215.506	210.326	96.427	72.120	205.022	231.124	72.450	77.165	227.319	210.275	76.589	81.462	81.955	85.630	221.696	84.902	-8191	255	
683.955	1	1	0	0	0.069187	0.088493	0.02959	0.18553	0.2801	0.30406	0.2833	0.093781	0.2719	0.3475	0.091485	0.34311	0.11601	0.19568	0.26294	0.13863	-3.0417	-3.0312	-3.0521	-3.6292	-2.9542	-3.2354	-3.4625	-3.0938	-3.4729	-3.1729	-3.1875	-3.4729	-3.2062	-3.4646	-3.2854	-3.125	93.202	150.776	208.735	174.833	400.069	400.803	390.763	311.697	266.623	84.773	343.867	324.833	178.664	326.039	141.502	413.333	0.00058942	0.00025854	0.00010253	1343.1	5.8319e-06	3.2362e-06	1347.2	361.6	7.8433e-06	2.4265e-06	414.37	139.23	120.64	41.448	3.8553e-06	51.625	0.00049695	0.00052548	0.0001364	1323	5.5915e-06	5.7301e-06	1360	366	5.6296e-06	5.7081e-06	417.96	140.2	123.02	42.4	5.3448e-06	51.934	234.410	192.963	171.877	72.181	170.994	207.224	72.456	77.275	192.696	292.519	76.659	81.487	81.882	86.025	178.572	85.142	-8191	255	
684.029	1	1	0	0	0.052258	0.12408	0.11681	0.069263	0.17851	0.15221	0.26906	0.31996	0.12879	0.062787	0.32993	0.27343	0.10121	0.096983	0.046984	0.15952	-2.8375	-3.1979	-3.0625	-3.4854	-3.1396	-3.1854	-3.5083	-3.15	-3.4042	-3.3104	-3.2375	-3.6146	-3.2354	-3.2458	-3.35	-3.1792	170.380	392.076	333.937	366.421	294.023	349.759	343.100	372.211	184.964	254.903	381.779	406.587	64.104	404.847	199.077	192.763	0.00047791	0.00058798	6.3177e-05	1350.8	8.6641e-06	4.7486e-06	1352	363.13	4.4822e-06	6.0059e-06	413.64	139.52	120.84	41.674	2.3063e-06	51.71	0.00052107	0.00051469	0.00013546	1327.5	5.8251e-06	5.6034e-06	1357.8	366.75	5.8535e-06	5.5763e-06	417.14	140.61	123.44	42.42	5.2457e-06	52.265	228.784	68.390	190.843	72.009	196.155	382.331	72.479	77.547	224.518	390.735	76.704	81.510	81.693	86.007	71.107	85.273	-8191	255	
684.125	1	1	0	0	0.23539	0.11939	0.15346	0.16465	0.31264	0.11296	0.12635	0.2178	0.15929	0.10311	0.36753	0.13106	0.041673	0.19283	0.09264	0.34507	-2.9771	-3.2083	-2.9417	-3.3438	-3.0458	-3.1729	-3.5708	-3.0333	-3.3854	-3.35	-3.05	-3.6521	-3.2729	-3.2479	-3.6229	-3.1604	73.926	382.390	272.032	273.301	113.929	119.837	290.897	361.179	313.884	81.112	399.566	122.544	281.093	197.102	329.178	334.853	0.00046097	0.00024291	5.2485e-05	1360.9	2.9888e-06	4.3637e-06	1352.3	363.23	3.1698e-06	6.123e-06	415.42	139.34	121.1	41.478	2.8535e-06	51.603	0.0005373	0.00050454	0.00013236	1343.3	5.8965e-06	5.5176e-06	1358	368.26	5.8796e-06	5.4923e-06	417.62	141.51	123.35	42.323	5.1869e-06	52.597	229.649	176.753	166.408	71.745	167.873	94.854	72.576	77.267	221.423	213.662	76.556	81.449	82.139	85.947	242.238	85.191	-8191	255	
684.221	1	1	0	0	0.26084	0.046066	0.20851	0.098888	0.17561	0.1369	0.10189	0.22121	0.1255	0.15716	0.14238	0.40016	0.077392	0.16932	0.12659	0.10549	-2.8583	-3.2708	-3.2042	-3.4833	-3.1562	-3.0521	-3.6437	-3.25	-3.1625	-3.425	-3.05	-3.4729	-3.075	-3.0875	-3.325	-3.1979	246.528	407.217	287.193	106.701	375.512	309.668	320.723	377.884	404.015	131.909	278.501	362.335	69.350	88.402	127.982	410.620	0.00039136	9.2202e-05	1.9519e-05	1357.6	9.8749e-07	5.7563e-06	1355.6	362.97	6.4194e-07	4.2001e-06	414.68	139.34	121.21	41.714	2.2078e-06	51.526	0.00053433	0.00049885	0.00013349	1362.8	5.7769e-06	5.4796e-06	1359.1	370.01	5.7706e-06	5.414e-06	417.48	142.33	123.1	42.315	5.2884e-06	52.943	221.836	303.924	401.795	72.476	206.815	332.274	72.566	77.292	232.560	185.396	76.712	81.473	81.900	86.248	383.929	84.985	-8191	255	
684.340	1	1	0	0	0.10693	0.27111	0.14417	0.22487	0.11192	0.099032	0.23229	0.13263	0.083632	0.062818	0.071296	0.28244	0.39195	0.13377	0.026873	0.045033	-2.6667	-3.4813	-3.0229	-3.3063	-3.3354	-3.0042	-3.7146	-3.1729	-3.1854	-3.4708	-3.0479	-3.2521	-3.325	-3.0521	-3.5396	-3.2083	163.073	89.125	148.196	364.392	374.973	139.686	356.106	85.061	384.899	282.099	343.914	410.003	345.884	351.268	274.008	298.049	0.0003882	0.00046439	9.7831e-05	1350.6	7.1719e-06	4.0828e-06	1357.3	362.78	4.4647e-06	2.5206e-06	416.27	139.49	121.03	41.57	1.0041e-05	51.619	0.00051949	0.00048759	0.00013667	1370.8	5.6703e-06	5.382e-06	1366.1	371.22	5.6563e-06	5.3186e-06	420.37	142.63	123.04	42.214	5.6235e-06	53.014	229.167	172.102	171.065	72.444	377.469	170.713	72.518	77.311	104.091	235.340	76.818	81.795	81.734	85.790	217.308	84.974	-8191	255	
684.436	1	1	0	0	0.04541	0.18212	0.04643	0.2365	0.17648	0.11946	0.13641	0.095267	0.17038	0.14852	0.33412	0.31803	0.02682	0.063023	0.26754	0.1481	-2.5854	-3.3563	-2.9625	-3.2812	-3.3604	-2.9042	-3.6396	-3.3	-3.0187	-3.4729	-3.0854	-3.4583	-3.4	-2.9062	-3.4708	-3.1562	270.783	325.234	194.307	180.501	353.340	378.945	367.251	348.047	326.393	228.340	405.167	390.571	66.120	412.849	292.400	351.507	0.00043732	0.00043473	0.00017964	1343.6	4.8299e-06	4.1227e-06	1354.6	362.81	5.3546e-06	3.5427e-06	414.03	139.47	120.49	41.415	1.7044e-06	51.39	0.00051313	0.00047838	0.00014619	1370.5	5.5912e-06	5.3057e-06	1371.4	370.62	5.6141e-06	5.2758e-06	422.38	142.45	122.78	42.191	5.9493e-06	52.8	242.583	416.345	139.044	72.100	77.230	62.334	72.510	77.285	301.838	155.933	76.739	81.398	81.885	85.862	221.124	85.011	-8191	255	
684.532	1	1	0	0	0.40136	0.12182	0.18602	0.17823	0.13389	0.22972	0.31329	0.23566	0.25489	0.11382	0.29793	0.14041	0.13951	0.21497	0.11058	0.18252	-2.6771	-3.3604	-2.8229	-3.2938	-3.4104	-2.9667	-3.5542	-3.2812	-2.9208	-3.4708	-3.1833	-3.2687	-3.5021	-3.0687	-3.3417	-3.3688	338.249	199.306	391.736	361.287	259.161	353.729	408.567	372.150	199.724	117.933	347.301	102.265	377.772	88.312	85.849	414.630	0.00048245	0.00051069	0.00018422	1350.4	6.6968e-06	5.8683e-06	1355.9	361.69	3.5063e-06	8.3305e-06	415.46	140.37	121.33	41.661	2.7004e-06	51.515	0.00050969	0.00048558	0.0001531	1369	5.5228e-06	5.4645e-06	1375.7	369.65	5.5358e-06	5.4537e-06	424.62	142.37	122.65	42.476	6.1361e-06	52.731	223.553	126.611	81.443	72.074	255.481	382.748	72.355	77.316	286.192	213.081	76.597	81.738	81.966	85.896	212.429	85.037	-8191	255	
684.628	1	1	0	0	0.33784	0.11406	0.089696	0.29719	0.040984	0.15666	0.13022	0.13667	0.042438	0.15147	0.1249	0.13845	0.25375	0.1372	0.12498	0.054916	-2.7771	-3.5062	-3.175	-3.0521	-3.4562	-3.1042	-3.3792	-3.4271	-2.9875	-3.3958	-3.2042	-3.1917	-3.5	-3.0417	-3.2708	-3.4604	65.784	327.337	377.785	109.548	278.337	354.870	324.413	365.166	402.368	332.913	379.180	348.030	412.064	373.613	327.878	139.613	0.00046881	0.00058466	5.7686e-05	1363.1	3.9227e-06	1.0213e-05	1359.6	362.37	1.8061e-06	9.0735e-06	414.67	139.37	121.23	41.511	5.6798e-06	51.477	0.00049962	0.00050966	0.00015646	1364.3	5.4312e-06	5.7524e-06	1381.6	370.05	5.4519e-06	5.7677e-06	425.73	142.4	122.95	42.834	6.0364e-06	52.667	231.786	183.673	141.202	72.346	260.107	207.523	72.441	77.254	241.103	268.349	76.579	81.532	81.798	85.893	236.312	85.291	-8191	255	
684.724	1	1	0	0	0.12073	0.098123	0.23177	0.12365	0.10825	0.19558	0.20156	0.12751	0.059309	0.059611	0.046594	0.18808	0.16054	0.29767	0.061946	0.11128	-2.5208	-3.4583	-3.1771	-3.1458	-3.4667	-3.0479	-3.3167	-3.3438	-2.9479	-3.4521	-3.2479	-3.0312	-3.5896	-3.2292	-3.1208	-3.3042	87.567	372.975	111.444	363.532	262.095	118.037	409.433	66.020	142.782	86.170	257.087	314.755	77.552	363.971	101.765	107.897	0.00051338	0.0010433	5.6702e-05	1357.6	5.0407e-06	7.6572e-06	1364.6	365.93	1.0756e-05	6.8421e-06	418.62	140.68	121.65	41.951	7.2048e-07	52.059	0.00049025	0.00053626	0.00015183	1362.1	5.3142e-06	5.9766e-06	1380.2	370.77	5.3535e-06	5.9864e-06	424.6	142.48	122.92	43.045	5.8431e-06	52.629	226.636	131.043	192.726	72.068	226.592	209.650	72.491	77.528	222.331	161.005	76.795	81.508	81.982	85.868	416.642	85.060	-8191	255	
684.820	1	1	0	0	0.16421	0.16184	0.2198	0.30488	0.13615	0.16929	0.27189	0.23479	0.18528	0.23522	0.066368	0.1753	0.24545	0.19144	0.12373	0.22842	-2.55	-3.3563	-3.2583	-3.1104	-3.55	-3.1312	-3.4479	-3.5979	-2.8792	-3.3312	-3.4729	-3.1583	-3.5479	-3.2333	-3.1229	-3.5667	316.026	213.151	357.466	324.316	367.999	146.019	392.169	363.375	101.688	270.140	59.283	272.209	154.541	387.461	243.880	371.230	0.0006557	0.00034748	7.7511e-05	1363.6	9.1889e-06	1.6368e-06	1368.7	366.04	8.671e-06	3.7254e-06	417.11	140.05	122.21	41.883	6.0345e-06	52.114	0.00050055	0.00055703	0.00014801	1354.2	5.5156e-06	6.1907e-06	1380.2	370.04	5.6866e-06	6.2471e-06	423.94	142.02	123.9	43.184	5.8261e-06	52.606	235.665	202.359	256.802	72.240	177.004	182.613	72.643	77.140	203.136	132.372	76.692	81.469	82.078	85.929	241.791	84.990	-8191	255	
684.941	1	1	0	0	0.049498	0.03032	0.12847	0.11686	0.067641	0.14701	0.28756	0.18461	0.16734	0.17196	0.43934	0.20838	0.031713	0.18905	0.17361	0.18446	-2.4938	-3.3021	-3.2979	-3.15	-3.5021	-3.0958	-3.2104	-3.6625	-3.1167	-3.1854	-3.4	-3.1333	-3.2979	-3.3312	-3.0563	-3.5563	160.434	101.778	348.160	399.599	77.999	323.620	348.290	416.327	233.490	60.016	358.728	350.404	337.928	343.963	288.136	325.442	0.00060378	0.00011775	5.7357e-05	1365.2	5.5819e-06	3.2068e-06	1364.9	366.11	8.7977e-06	2.3001e-06	417.5	141.3	121.95	41.85	9.2466e-07	52.195	0.00053684	0.00056334	0.00014642	1355.5	5.8509e-06	6.1668e-06	1376.7	370.09	5.9895e-06	6.1033e-06	423.28	142.14	124.35	43.038	5.6805e-06	52.601	217.190	381.684	315.615	72.523	180.025	403.033	72.499	77.286	202.279	386.463	76.680	81.374	81.926	85.751	194.992	85.223	-8191	255	
685.035	1	1	0	0	0.23314	0.21412	0.22994	0.10719	0.034416	0.15047	0.14653	0.041507	0.19457	0.038642	0.16428	0.30499	0.21884	0.23649	0.12419	0.11598	-2.5521	-3.1958	-3.2646	-2.8729	-3.5146	-3.2958	-3.2917	-3.4938	-3.0479	-3.1604	-3.4354	-3.0938	-3.2687	-3.4729	-2.9625	-3.4562	176.461	390.940	419.206	255.860	370.104	259.037	400.692	350.248	129.553	292.230	65.022	71.259	87.691	419.496	145.351	365.398	0.00062868	0.00022706	0.00016791	1371.4	3.6074e-06	5.2275e-06	1371	367.62	6.8971e-06	4.4239e-06	418.73	140.83	122.19	41.752	1.3489e-06	52	0.00055473	0.00054502	0.00014196	1355.7	6.0563e-06	5.9286e-06	1378.4	370.69	6.1666e-06	5.8982e-06	421.82	142.5	124.85	42.832	5.5194e-06	52.803	229.517	232.832	351.233	72.504	254.828	214.749	72.668	77.523	229.412	357.020	76.596	81.627	81.950	86.123	218.023	85.427	-8191	255	
685.132	1	1	0	0	0.17438	0.2811	0.024063	0.30783	0.092249	0.023395	0.19788	0.09794	0.13681	0.067253	0.10279	0.069579	0.21048	0.19791	0.16555	0.081933	-2.7375	-3.0729	-3.4521	-2.9854	-3.2438	-3.2062	-3.2167	-3.5917	-3.1	-3.0604	-3.5687	-3.1417	-3.4208	-3.3187	-3.0521	-3.4042	268.701	316.877	389.909	401.909	270.837	62.846	66.279	356.628	59.450	184.487	350.145	277.126	389.470	332.395	383.245	226.002	0.00050338	0.00029281	0.00012285	1371.3	3.9328e-06	3.802e-06	1375.7	366.02	6.7302e-06	1.8247e-06	418.19	140.68	121.91	41.944	3.5342e-06	52.074	0.0005639	0.00052827	0.00013785	1366.9	6.1268e-06	5.7328e-06	1377	371.6	6.1251e-06	5.714e-06	420.95	143.27	124.84	42.783	5.4214e-06	53.133	226.937	129.973	343.595	72.288	155.376	379.168	72.742	77.297	211.466	139.232	76.695	81.533	81.913	86.253	265.016	85.183	-8191	255	
685.252	1	1	0	0	0.15725	0.17954	0.089284	0.18541	0.19283	0.16493	0.13126	0.14775	0.23195	0.2146	0.11482	0.21263	0.2048	0.12763	0.34976	0.21125	-2.7687	-3.0271	-3.325	-3	-3.1958	-3.2333	-3.1917	-3.5042	-3.2083	-2.9458	-3.3708	-2.9958	-3.2687	-3.5458	-2.9958	-3.3812	206.827	155.765	180.686	69.971	384.856	374.905	230.316	279.589	178.091	72.390	72.463	404.140	67.022	85.282	212.390	355.872	0.00042434	0.00045884	7.6699e-05	1372	6.9361e-06	1.4637e-06	1367.2	366.3	3.4894e-06	9.7327e-06	417.5	140.62	121.43	41.677	8.6897e-06	51.774	0.00055158	0.00051523	0.00013496	1379.2	6.0064e-06	5.6241e-06	1373.8	373.19	5.99e-06	5.6597e-06	421.05	143.68	124.21	42.582	5.5395e-06	53.346	233.748	411.656	239.483	72.594	196.357	217.806	72.502	77.454	344.539	173.215	76.635	81.475	81.968	86.014	241.100	85.154	-8191	255	
685.324	1	1	0	0	0.041267	0.15475	0.14151	0.075445	0.1271	0.096542	0.2728	0.028742	0.1052	0.14152	0.18615	0.19613	0.33652	0.034822	0.19514	0.26268	-3.0271	-2.8292	-3.5458	-2.9604	-3.0104	-3.3563	-3.225	-3.35	-3.2521	-2.9688	-3.5104	-3.225	-3.05	-3.4604	-3.0083	-3.2521	309.078	85.415	218.841	197.562	255.345	263.866	353.533	371.981	359.866	171.616	410.506	113.119	83.072	295.063	304.972	290.769	0.00044256	9.0217e-05	0.00016696	1362.1	2.2565e-06	2.8224e-06	1360.8	364.55	6.0261e-06	1.5082e-06	419.34	140.46	121.26	41.657	4.1971e-06	51.454	0.00054505	0.00051634	0.00014081	1388.9	5.93e-06	5.5645e-06	1373	373.54	5.9276e-06	5.6208e-06	423.26	143.92	123.93	42.432	5.8777e-06	53.338	242.079	253.237	139.828	72.527	238.514	385.417	72.510	77.321	335.726	330.775	76.405	81.531	82.071	85.836	243.238	84.963	-8191	255	
685.420	1	1	0	0	0.062573	0.2081	0.11872	0.092009	0.18908	0.077479	0.23463	0.11318	0.045568	0.12243	0.13297	0.048173	0.21399	0.044604	0.12689	0.29171	-2.9542	-2.7708	-3.4	-3.2938	-3.1521	-3.5312	-3.2646	-3.5563	-3.2333	-3.0979	-3.5583	-3.2958	-3.1437	-3.4896	-2.9062	-3.4854	114.924	312.654	112.691	286.432	122.382	172.711	404.988	307.322	360.138	69.141	373.686	131.097	314.988	348.043	144.557	137.468	0.00047585	0.00052711	0.00018974	1352.8	4.8152e-06	3.1635e-06	1355.5	365.5	3.764e-06	6.7822e-06	417.04	139.35	120.39	41.581	9.7023e-06	51.628	0.00053449	0.00051139	0.00015001	1388.5	5.8748e-06	5.4922e-06	1375.8	372.91	5.8184e-06	5.5063e-06	424.67	142.95	123.06	42.333	6.1202e-06	52.949	228.513	121.729	173.884	72.403	122.203	365.438	72.405	77.404	116.626	139.914	76.552	81.212	81.873	85.824	223.157	85.063	-8191	255	
685.516	1	1	0	0	0.11024	0.19084	0.26992	0.1768	0.057167	0.27418	0.091776	0.43286	0.046835	0.22059	0.093335	0.22648	0.18078	0.12841	0.13446	0.14593	-3.0271	-2.8583	-3.2875	-3.2875	-2.9542	-3.6188	-3.3792	-3.2458	-3.3208	-3.1208	-3.4854	-3.3042	-3.1896	-3.3792	-3.0708	-3.1958	71.314	161.988	357.749	66.755	171.537	207.050	374.840	366.089	323.727	65.257	314.367	261.922	69.146	77.853	183.967	81.301	0.00053144	0.00056338	0.00010725	1355.8	5.1318e-06	5.4727e-06	1356.7	363.65	7.5415e-06	1.7093e-06	414.79	139.27	120.48	41.804	5.1089e-06	51.633	0.00051604	0.00049546	0.00015358	1371.6	5.5875e-06	5.3858e-06	1374.4	370.39	5.5227e-06	5.4705e-06	424.01	142.07	122.4	42.282	6.0327e-06	52.609	232.855	128.456	102.063	71.836	160.013	185.761	72.585	77.336	157.725	278.545	76.715	81.565	81.663	86.042	227.152	85.296	-8191	255	
685.637	1	1	0	0	0.15016	0.098901	0.12807	0.28739	0.21018	0.11851	0.019321	0.17139	0.15022	0.20442	0.097768	0.053389	0.13355	0.20282	0.1441	0.21258	-3.0104	-2.9396	-3.2542	-3.0521	-2.8917	-3.3937	-3.2521	-3.3833	-3.5729	-3.0229	-3.1833	-3.3583	-3.0792	-3.4771	-3.225	-3.0625	172.907	213.156	232.272	312.419	346.642	121.573	229.679	389.459	143.562	336.171	132.104	261.951	394.917	362.465	417.191	386.040	0.0003534	0.00038093	0.00010327	1346.6	1.4965e-06	4.0521e-06	1356.2	363.04	5.9413e-06	8.6061e-06	413.91	138.83	120.7	41.292	2.503e-06	51.451	0.00048768	0.00050058	0.00015157	1351.7	5.3141e-06	5.5223e-06	1371.9	369.02	5.2073e-06	5.6198e-06	422.46	141.26	121.97	42.378	5.8904e-06	52.345	221.885	122.291	324.164	72.163	391.216	230.709	72.653	77.290	250.268	178.319	76.743	81.650	81.780	85.960	294.353	85.348	-8191	255	
685.733	1	1	0	0	0.24017	0.19764	0.024709	0.17345	0.35312	0.050703	0.15918	0.27428	0.035941	0.19202	0.20228	0.13758	0.13615	0.13909	0.23903	0.1245	-3.0229	-2.9313	-3.0563	-3.5229	-2.9375	-3.4958	-3.4042	-3.2333	-3.3271	-3.075	-3.3146	-3.3833	-3.0167	-3.5521	-3.1562	-3.0521	395.293	276.242	105.656	287.623	411.247	174.256	327.617	354.141	72.867	299.285	109.391	137.695	81.692	125.503	233.577	370.245	0.00045852	0.00086229	4.8328e-05	1335.2	3.0942e-06	7.263e-06	1352.1	361.25	1.1407e-05	1.1126e-05	412.87	138.71	120.04	41.23	2.7897e-06	51.515	0.00047428	0.00052709	0.00014886	1341.2	5.2342e-06	5.8255e-06	1367.3	367.91	5.2669e-06	5.9533e-06	422.21	141.32	122.13	42.643	5.8325e-06	52.31	241.590	150.433	186.908	72.181	147.756	255.942	72.521	77.248	208.049	167.846	76.495	81.551	81.888	86.065	336.241	85.127	-8191	255	
685.829	1	1	0	0	0.10285	0.16026	0.040733	0.17368	0.14424	0.10989	0.20917	0.35269	0.1166	0.17571	0.27807	0.074195	0.24617	0.22706	0.084838	0.30308	-2.9333	-3.0354	-3.1292	-3.3646	-2.9458	-3.3333	-3.3833	-3.0062	-3.2938	-3.0062	-3.3042	-3.3896	-3.0396	-3.2979	-3.1625	-2.9917	404.256	236.762	292.792	396.944	390.983	282.484	67.169	396.658	184.568	103.483	371.292	113.866	301.425	407.013	352.424	396.822	0.00052021	0.00027788	2.1618e-05	1353	3.6474e-06	3.2965e-06	1354.2	362.81	1.224e-05	6.1185e-06	415.22	140.14	121.17	41.781	6.4885e-06	51.682	0.00049398	0.00055469	0.00014828	1344.9	5.5325e-06	6.1319e-06	1367.5	368.04	5.5595e-06	6.1643e-06	421.34	140.98	122.68	42.79	5.7523e-06	52.314	237.121	177.794	198.386	72.516	166.311	190.013	72.577	77.359	223.386	319.796	76.581	81.436	82.138	86.175	222.452	85.420	-8191	255	
685.901	1	1	0	0	0.16047	0.047688	0.27522	0.24466	0.23303	0.15458	0.29834	0.11451	0.35579	0.26429	0.22969	0.2628	0.26284	0.23544	0.090183	0.46642	-2.8583	-3.0083	-3.0062	-3.4292	-2.9667	-3.1917	-3.4437	-2.9292	-3.3042	-2.9188	-3.0521	-3.3646	-3.1833	-3.3167	-3.3875	-3.0146	294.632	174.226	294.739	77.837	169.535	114.543	392.822	367.752	185.070	388.536	411.603	358.454	357.306	91.545	338.001	402.405	0.00060175	0.00050441	0.0001295	1349.8	8.895e-06	7.8019e-07	1359.1	363.75	5.1e-06	4.1159e-06	418.33	138.9	120.83	41.598	1.7188e-06	51.493	0.00052323	0.00056041	0.00014668	1343.8	5.8661e-06	6.1442e-06	1367.4	367.93	5.9222e-06	6.1104e-06	421.36	140.89	123.54	42.745	5.6668e-06	52.177	221.011	219.142	135.796	72.378	175.099	290.966	72.552	77.405	240.058	375.274	76.436	81.676	81.732	85.836	307.166	85.163	-8191	255	
686.021	1	1	0	0	0.28792	0.11631	0.23004	0.14968	0.37498	0.017724	0.24368	0.3962	0.1763	0.22815	0.091929	0.24742	0.26988	0.19143	0.10395	0.19415	-2.7542	-3.0812	-2.9208	-3.5062	-3.0938	-3.1354	-3.6292	-3.1396	-3.3625	-3.3563	-3.1625	-3.3625	-3.1417	-3.2771	-3.2667	-2.9188	273.758	343.061	372.132	84.164	385.951	218.397	402.573	348.658	294.142	244.886	360.742	374.773	83.549	303.117	60.879	59.926	0.00053606	0.00058649	0.00013603	1356.3	8.9057e-06	1.4259e-06	1356	364.64	3.739e-06	3.8539e-06	415.53	139.6	120.74	41.695	5.1128e-06	51.597	0.00055155	0.00054661	0.00014326	1342.6	6.1134e-06	5.9449e-06	1366.1	368.57	6.1462e-06	5.9118e-06	420.22	141.14	123.92	42.579	5.5305e-06	52.398	227.564	361.970	380.974	72.143	191.743	188.994	72.703	77.608	199.986	280.376	76.654	81.609	82.253	86.135	250.931	85.221	-8191	255	
686.116	1	1	0	0	0.27525	0.21175	0.18015	0.092744	0.098491	0.11107	0.15115	0.41754	0.058296	0.21324	0.2722	0.13412	0.4874	0.36218	0.083108	0.18909	-2.7896	-3.1688	-2.8458	-3.4646	-3.0271	-3.0875	-3.4792	-2.9375	-3.2458	-3.3812	-3.0521	-3.3396	-3.15	-2.9896	-3.3312	-3.125	209.127	212.995	61.013	237.745	73.275	128.024	364.664	350.215	182.542	300.552	96.629	379.452	365.424	384.923	329.949	73.429	0.00053525	0.00018665	9.9608e-05	1354	4.1501e-06	3.8311e-06	1361.5	364.05	5.3879e-06	5.7912e-06	414.07	139.96	120.97	41.661	6.687e-06	51.993	0.00056385	0.00053074	0.00013958	1350.8	6.1673e-06	5.7955e-06	1363.9	369.64	6.1444e-06	5.7362e-06	418.52	141.89	123.79	42.436	5.3857e-06	52.836	226.036	66.669	167.155	72.589	203.150	319.926	72.751	77.466	235.435	121.741	76.608	81.570	81.713	85.958	287.092	85.506	-8191	255	
686.214	1	1	0	0	0.2519	0.24773	0.11358	0.13584	0.2329	0.24428	0.19288	0.30305	0.1093	0.070935	0.052992	0.16685	0.21094	0.096131	0.27879	0.17592	-2.8646	-3.15	-2.7354	-3.4708	-3.0938	-2.925	-3.5125	-3.1813	-3.2562	-3.4021	-3.1146	-3.3979	-3.3187	-2.9667	-3.3292	-2.9667	62.998	167.185	268.239	403.070	363.638	135.394	346.980	340.418	234.374	247.428	245.472	373.189	379.977	264.008	173.395	223.295	0.0004658	0.00041982	0.00017778	1349.5	2.2406e-06	6.7792e-06	1362	363.51	3.1635e-06	3.3753e-06	415.48	139.91	120.93	41.319	5.0925e-06	51.567	0.00055139	0.00051736	0.00013651	1363.8	6.0165e-06	5.6622e-06	1361.2	370.21	5.9648e-06	5.5837e-06	418.72	142.49	123.55	42.331	5.3894e-06	53.001	236.247	82.653	68.412	72.568	352.664	269.115	72.528	77.547	115.339	188.644	76.531	81.784	82.272	86.084	279.911	85.361	-8191	255	
686.333	1	1	0	0	0.19207	0.074211	0.15075	0.11228	0.24969	0.15352	0.22274	0.21119	0.057188	0.078714	0.19682	0.32091	0.3553	0.22528	0.30451	0.23614	-2.7479	-3.3271	-3.0021	-3.2417	-3.3187	-2.9125	-3.5104	-3.1813	-2.9646	-3.4583	-3.1604	-3.4708	-3.3812	-3.0563	-3.4396	-3.1396	334.548	371.621	202.538	313.459	170.865	118.246	123.320	347.450	413.067	212.059	301.417	314.071	391.540	350.024	397.171	408.667	0.00046391	0.00062135	0.00016846	1349.4	9.6509e-07	3.8114e-06	1357.1	363.79	8.3822e-06	2.3212e-06	414.14	139.61	120.89	41.574	2.9517e-06	51.605	0.00053831	0.00050583	0.00014027	1374.5	5.857e-06	5.5804e-06	1363.1	371.02	5.8192e-06	5.4867e-06	419.35	142.6	122.81	42.235	5.6637e-06	53.039	217.490	108.028	161.201	72.784	296.220	190.010	72.699	77.207	216.348	190.295	76.852	81.677	82.098	86.107	176.864	85.090	-8191	255	
686.429	1	1	0	0	0.12262	0.21804	0.11948	0.040299	0.070968	0.050489	0.055788	0.4858	0.17411	0.10768	0.03475	0.38798	0.1338	0.13339	0.10108	0.11707	-2.5646	-3.5396	-2.8937	-3.2875	-3.2938	-2.9333	-3.4375	-3.3542	-3.0167	-3.4375	-3.1625	-3.4562	-3.4708	-2.8354	-3.2667	-3.2146	322.628	267.184	86.570	85.588	389.806	296.867	121.180	356.565	389.397	377.915	71.563	353.871	255.722	63.628	170.313	343.997	0.00042147	0.00041446	0.00029823	1355.5	1.8033e-06	4.4703e-07	1352.9	363.07	6.3792e-06	6.0056e-07	414.82	139.36	120.81	41.577	7.0997e-06	51.471	0.00052295	0.0004907	0.00014653	1374.4	5.6672e-06	5.3937e-06	1367.2	370.29	5.6666e-06	5.287e-06	422.22	142.21	122.56	42.17	5.9169e-06	52.787	221.105	101.368	166.842	72.446	312.424	113.981	72.539	77.280	210.400	266.649	76.542	81.125	82.305	86.118	276.730	85.357	-8191	255	
686.525	1	1	0	0	0.0874	0.17308	0.17176	0.17684	0.061737	0.065248	0.22206	0.24737	0.045897	0.12833	0.096452	0.24456	0.19906	0.16628	0.082227	0.213	-2.6083	-3.4146	-3.0104	-3.0938	-3.3	-3.0104	-3.3958	-3.25	-3.2458	-3.525	-3.1	-3.425	-3.45	-3.2667	-3.1771	-3.1104	374.815	373.278	75.496	402.480	358.321	260.152	396.716	396.549	194.795	140.105	344.566	306.115	370.221	337.376	372.224	198.702	0.00055483	0.00058393	0.00024395	1352.9	2.6844e-06	5.0371e-06	1361.8	364.56	5.5519e-06	6.8679e-06	414.73	139.73	120.8	41.725	3.1173e-06	51.626	0.0005129	0.00048565	0.00015277	1369.4	5.5698e-06	5.4208e-06	1373.1	369.9	5.5857e-06	5.4608e-06	424.16	142.14	122.62	42.392	6.1558e-06	52.723	239.289	131.169	155.267	72.371	157.526	246.733	72.649	77.242	414.690	203.057	76.570	81.789	81.971	85.873	221.894	84.934	-8191	255	
686.621	1	1	0	0	0.13785	0.19396	0.14931	0.25031	0.096764	0.28234	0.15075	0.29291	0.063986	0.10289	0.065303	0.13742	0.18509	0.16026	0.17643	0.041452	-2.6437	-3.3771	-3.1917	-3.3125	-3.4021	-2.975	-3.3583	-3.3146	-2.9896	-3.3438	-3.15	-3.2083	-3.375	-2.9521	-3.3063	-3.325	308.053	405.065	159.166	113.317	366.112	116.966	340.904	357.526	265.851	265.961	358.839	143.811	60.867	384.047	255.778	388.244	0.00045032	0.00080671	7.0951e-05	1354.5	4.5343e-06	7.2147e-06	1359.3	362.5	3.7641e-06	7.4754e-06	416.21	139.65	120.74	41.55	1.4652e-06	51.433	0.00050599	0.00050852	0.00015731	1361.5	5.4509e-06	5.7069e-06	1375.7	369.31	5.4777e-06	5.7445e-06	424.38	141.87	122.29	42.595	6.1059e-06	52.616	231.829	90.869	144.198	72.349	313.287	225.831	72.504	77.395	90.234	247.571	76.607	81.601	81.990	86.012	376.374	85.206	-8191	255	
686.717	1	1	0	0	0.13116	0.17789	0.10888	0.15753	0.24653	0.068259	0.15399	0.1114	0.2821	0.18571	0.21929	0.099432	0.23375	0.18124	0.19533	0.3474	-2.6083	-3.2604	-3.0771	-3.225	-3.4042	-3.2229	-3.4708	-3.4667	-2.7812	-3.5021	-3.3417	-3.1188	-3.6063	-3.1458	-3.3	-3.3458	297.788	114.281	335.853	104.430	304.837	62.023	312.677	383.568	356.700	288.042	411.335	100.895	409.887	402.406	394.450	334.543	0.0004511	0.00027829	7.2853e-05	1343.4	3.4293e-06	4.3781e-06	1361.6	364.43	8.3713e-06	7.4345e-06	415.96	140.6	122.09	41.705	3.5019e-06	51.798	0.0004935	0.00053596	0.00015292	1355.9	5.3353e-06	5.9487e-06	1375.3	368.98	5.3868e-06	5.9855e-06	423.12	141.76	122.62	42.824	5.9389e-06	52.506	229.988	114.224	180.340	72.555	229.660	218.826	72.596	77.425	231.822	232.680	76.745	81.535	82.115	85.950	101.022	85.218	-8191	255	
686.813	1	1	0	0	0.1156	0.22548	0.026337	0.11661	0.050424	0.1023	0.11784	0.11312	0.19428	0.22612	0.29112	0.15578	0.19088	0.20488	0.11852	0.44738	-2.5396	-3.4229	-3.0708	-2.9313	-3.4229	-3.0292	-3.2	-3.4271	-2.9896	-3.3521	-3.2208	-3.0687	-3.5833	-3.1646	-3.1125	-3.5354	283.992	349.501	112.573	367.765	147.803	121.913	376.652	369.138	248.091	314.853	360.867	111.263	332.121	415.263	164.183	374.652	0.00043626	0.00058751	0.00017761	1352.4	9.3687e-06	7.7251e-06	1347	362.84	7.1143e-06	3.9165e-06	416.72	140.41	121.93	41.782	5.2571e-06	51.689	0.00049623	0.00055355	0.00014839	1350.6	5.4194e-06	6.1223e-06	1370.6	368.43	5.5461e-06	6.0963e-06	422.26	141.83	123.13	43.025	5.7511e-06	52.298	241.301	160.167	104.714	72.275	188.409	206.327	72.428	77.297	225.316	214.698	76.447	81.711	82.236	85.661	241.198	85.039	-8191	255	
686.934	1	1	0	0	0.27927	0.030417	0.14199	0.090399	0.21137	0.13442	0.058287	0.20273	0.10248	0.087407	0.18685	0.081169	0.15934	0.1718	0.089613	0.23794	-2.5312	-3.275	-3.2542	-2.8396	-3.5479	-3.1896	-3.2125	-3.6167	-3.0208	-3.2396	-3.4208	-3.0792	-3.5354	-3.2917	-3.1688	-3.5271	363.402	287.615	69.490	384.250	337.436	123.575	240.581	368.373	368.031	336.095	79.604	250.089	417.799	379.119	268.962	355.024	0.0006257	9.4027e-05	0.00012237	1361.9	9.9862e-06	2.1813e-06	1359.3	365.21	9.0839e-06	5.0181e-06	416.52	139.59	121.14	41.723	5.0548e-06	51.897	0.00052128	0.00055987	0.00014537	1348.6	5.7708e-06	6.1557e-06	1371.4	368.09	5.945e-06	6.1508e-06	421.53	141.25	123.7	42.818	5.7655e-06	52.26	232.086	145.890	154.867	72.417	183.678	183.047	72.672	77.488	227.529	163.968	76.740	81.586	82.019	86.083	186.640	85.307	-8191	255	
687.028	1	1	0	0	0.14401	0.14046	0.15383	0.34081	0.22238	0.16632	0.25562	0.046528	0.12277	0.18044	0.064272	0.025174	0.2313	0.11555	0.16338	0.048238	-2.4604	-3.2979	-3.3625	-2.9833	-3.425	-3.2375	-3.3167	-3.5042	-2.9833	-3.3187	-3.5042	-3.0646	-3.5354	-3.2	-3.0167	-3.4833	178.104	124.163	279.293	216.799	128.726	319.589	230.781	351.742	162.223	272.298	250.583	174.747	178.058	120.242	108.010	375.032	0.00054755	0.00028546	3.1461e-05	1361.6	5.0504e-06	4.284e-06	1359.9	365.43	4.2651e-06	4.2162e-06	416.89	139.99	121.25	41.631	4.1884e-06	51.706	0.00055419	0.00055283	0.00014505	1347.7	6.1722e-06	6.0684e-06	1368.8	368.55	6.2491e-06	6.0546e-06	421.08	141.57	124.27	42.727	5.7408e-06	52.489	226.276	220.977	351.725	72.323	157.736	368.405	72.705	77.670	263.903	90.977	76.620	81.700	82.003	86.093	246.079	85.379	-8191	255	
687.125	1	1	0	0	0.1194	0.12668	0.08888	0.12538	0.097573	0.18738	0.18032	0.38565	0.37944	0.10661	0.067112	0.16497	0.12121	0.28255	0.10855	0.29092	-2.6104	-3.0792	-3.3979	-2.8563	-3.475	-3.2542	-2.9938	-3.5062	-3.1521	-3.1104	-3.5125	-2.9792	-3.3458	-3.3521	-2.8667	-3.5208	238.147	417.824	417.156	264.195	334.644	158.279	370.908	342.869	266.050	319.392	336.007	389.361	62.391	59.966	403.142	261.637	0.00053448	0.00029381	3.6722e-05	1360.9	4.2745e-06	8.7265e-06	1360.9	364.72	7.2332e-06	3.5498e-06	418.29	139.55	120.8	41.544	2.4454e-06	51.669	0.00058174	0.00054954	0.00014416	1368	6.4283e-06	6.0888e-06	1371.2	369.91	6.4856e-06	6.1108e-06	421.26	142.54	124.4	42.681	5.7957e-06	53.011	236.709	211.683	169.049	72.374	208.458	283.074	72.440	77.410	186.556	147.894	76.541	81.595	82.132	86.000	197.125	85.116	-8191	255	
687.198	1	1	0	0	0.22593	0.12299	0.13018	0.25069	0.13667	0.14503	0.3909	0.21986	0.14824	0.25354	0.18362	0.1989	0.21552	0.14849	0.26978	0.16368	-2.5521	-3.1708	-3.425	-3.0625	-3.2167	-3.3292	-3.1792	-3.6437	-3.1688	-2.9625	-3.5417	-2.9521	-3.2667	-3.2458	-3.0187	-3.4604	130.392	91.502	375.629	144.387	105.679	400.116	328.928	397.139	130.686	147.591	86.816	408.993	380.821	411.926	237.394	268.263	0.00037563	0.00011374	0.00016589	1363.3	1.9905e-06	2.216e-06	1363.3	363.78	2.6912e-06	6.8138e-06	413.6	139.42	121.35	41.422	6.5024e-06	51.556	0.00059308	0.00055543	0.00014536	1390.8	6.5093e-06	6.0859e-06	1370.5	372.11	6.4934e-06	6.1364e-06	420.44	143.32	124.45	42.585	5.9052e-06	53.405	228.589	406.859	99.775	72.702	194.809	325.573	72.707	77.588	217.564	196.077	77.042	81.635	81.999	86.047	246.455	85.393	-8191	255	
687.317	1	1	0	0	0.20347	0.054616	0.03657	0.29066	0.16876	0.1678	0.43588	0.19301	0.14361	0.048672	0.23539	0.11073	0.31837	0.23804	0.089547	0.09494	-2.6271	-2.9083	-3.3021	-3.0917	-3.2687	-3.4062	-3.3354	-3.4188	-3.1375	-2.9313	-3.3979	-3.1646	-3.0833	-3.4813	-2.8896	-3.375	360.480	220.910	188.745	95.053	159.734	107.898	378.141	289.507	351.805	191.323	402.982	142.213	147.504	302.257	232.093	323.577	0.00032709	0.0002913	0.00014548	1350	3.033e-06	4.2434e-06	1361.8	363.84	3.1209e-06	4.703e-06	416.02	139.51	121.15	41.629	6.3744e-06	51.873	0.00057961	0.00054806	0.0001477	1399.4	6.274e-06	5.8986e-06	1373.2	372.67	6.2121e-06	5.8959e-06	422.12	143.62	123.96	42.489	6.0055e-06	53.517	212.355	125.916	131.217	72.347	175.470	187.123	72.674	77.494	183.726	355.402	77.061	81.737	82.226	85.949	253.457	85.188	-8191	255	
687.413	1	1	0	0	0.14388	0.096275	0.19903	0.13503	0.075076	0.034542	0.12229	0.091262	0.060592	0.19132	0.033917	0.29258	0.043715	0.26214	0.20854	0.23631	-2.8771	-2.9354	-3.4708	-3.0625	-3.0979	-3.5083	-3.0667	-3.4292	-3.2583	-2.9396	-3.6083	-3.2771	-3.0312	-3.4604	-2.9667	-3.2917	325.537	250.075	311.578	76.423	136.312	336.665	363.769	401.877	357.468	106.003	378.205	360.025	284.452	301.902	128.033	319.071	0.00041525	0.00047986	0.00024669	1352.1	2.415e-06	3.5038e-06	1364.2	362.88	1.5232e-06	7.1719e-06	415.99	139.74	121.16	41.429	3.8166e-06	51.423	0.00055675	0.00052773	0.00015389	1396.8	6.0856e-06	5.7072e-06	1377.9	372.59	6.0608e-06	5.8005e-06	424.9	143.54	123.67	42.338	6.4287e-06	53.278	227.914	143.304	117.345	72.538	236.360	360.748	72.762	77.366	185.654	223.219	76.666	81.561	81.972	86.350	266.359	85.305	-8191	255	
687.509	1	1	0	0	0.31663	0.13898	0.11917	0.099639	0.28605	0.24534	0.14613	0.32464	0.21038	0.2141	0.12899	0.047711	0.21925	0.094901	0.15666	0.20427	-2.8042	-2.8229	-3.2812	-3.2354	-2.9104	-3.3812	-3.175	-3.4354	-3.2896	-2.8042	-3.4437	-3.3125	-3.1188	-3.4792	-3.0479	-3.225	106.604	90.005	100.174	237.040	263.598	312.282	378.152	363.692	192.988	155.979	343.152	358.784	95.786	319.203	73.198	74.475	0.00040075	0.00017596	0.00014158	1358.5	5.5519e-06	7.0559e-06	1362.7	363.13	4.4756e-06	5.8627e-06	415.42	139.17	120.16	41.746	1.2282e-06	51.466	0.00055276	0.00053246	0.00016465	1395.8	6.0865e-06	5.8469e-06	1383.1	371.92	6.0504e-06	5.9417e-06	427.42	142.92	123.29	42.571	6.6921e-06	53.132	225.956	129.620	112.418	72.442	274.377	250.672	72.599	77.416	154.088	227.210	76.433	81.399	82.095	86.020	398.777	85.233	-8191	255	
687.605	1	1	0	0	0.025482	0.18232	0.20044	0.11474	0.14584	0.079811	0.27193	0.27139	0.28688	0.18558	0.053458	0.10208	0.13438	0.15017	0.14131	0.28988	-3.1958	-3.0938	-3.3521	-3.2354	-2.8271	-3.6271	-3.2729	-3.3833	-3.2812	-2.9125	-3.3958	-3.3583	-2.9542	-3.6562	-3.025	-3.2229	252.006	374.603	393.313	344.206	415.803	353.333	347.069	355.006	361.515	361.754	223.974	391.525	362.961	345.519	140.548	371.306	0.00047891	0.00025155	0.00016935	1361	2.3162e-06	9.8118e-06	1365.3	364.75	4.2561e-06	2.7028e-06	416.89	139.64	120.72	41.618	6.2284e-06	51.646	0.00054635	0.0005557	0.00017006	1387.7	5.9777e-06	6.0687e-06	1384.8	371.49	5.861e-06	6.1944e-06	427.73	142.51	123	42.741	6.5872e-06	52.904	229.614	155.551	168.582	72.235	97.648	208.858	72.505	77.361	308.156	206.025	76.613	81.467	82.316	86.281	242.740	85.380	-8191	255	
687.701	1	1	0	0	0.3219	0.20843	0.27534	0.032111	0.20649	0.17819	0.22954	0.19256	0.20759	0.066936	0.1622	0.096285	0.11325	0.12739	0.11211	0.21928	-3.0667	-2.9375	-3.2583	-3.3042	-3.0396	-3.4062	-3.2896	-3.1167	-3.2458	-2.9938	-3.4271	-3.475	-2.9188	-3.3563	-3.3187	-3.1021	355.554	83.760	353.159	123.038	410.277	347.922	394.434	356.593	160.361	293.502	117.197	413.089	60.203	125.082	210.657	415.234	0.00041684	0.0013695	0.00012451	1362.5	2.3243e-06	1.3446e-05	1367.3	365	7.8453e-06	5.0421e-06	414.81	139.59	120.9	41.684	2.9236e-06	51.688	0.00052719	0.00057488	0.00016427	1377.7	5.7639e-06	6.2867e-06	1382.2	370.22	5.6566e-06	6.3563e-06	425.9	142.17	122.7	42.978	6.2868e-06	52.783	225.752	122.340	83.774	72.518	122.748	233.626	72.577	77.722	229.270	329.046	76.720	81.522	82.134	86.076	316.947	85.434	-8191	255	
687.798	1	1	0	0	0.10423	0.13773	0.3064	0.085983	0.065199	0.044201	0.21575	0.30396	0.11228	0.19032	0.18249	0.20415	0.192	0.28536	0.31547	0.19395	-2.9792	-3.0833	-3.1583	-3.3896	-2.8979	-3.2729	-3.4583	-3.1146	-3.5438	-3.1312	-3.2958	-3.3542	-2.8625	-3.4562	-3.3625	-2.8854	223.020	145.084	188.062	344.229	221.569	84.603	332.279	358.588	321.262	397.247	382.202	104.507	388.498	387.893	268.446	347.698	0.00050824	0.00023901	1.9896e-05	1356.3	1.1086e-05	3.307e-06	1362.1	364.35	8.6919e-06	8.3249e-06	415.86	140.38	121.08	42.03	3.1843e-06	51.824	0.00051728	0.00058475	0.000157	1365.9	5.7344e-06	6.4103e-06	1377.3	369.84	5.7038e-06	6.4194e-06	423.59	141.79	123.25	43.113	5.985e-06	52.622	221.495	244.747	155.241	72.075	191.988	297.410	72.428	77.519	228.924	163.087	76.617	81.557	82.303	85.980	185.321	85.286	-8191	255	
687.894	1	1	0	0	0.1507	0.14857	0.17319	0.27199	0.23989	0.084334	0.25263	0.3696	0.23766	0.084011	0.043653	0.11646	0.34749	0.056959	0.098932	0.12089	-2.8208	-3.075	-3.2458	-3.3937	-2.8375	-3.4729	-3.5062	-3.1208	-3.4042	-3.2083	-3.3	-3.5438	-3.0542	-3.4771	-3.4188	-2.9458	116.304	155.017	187.126	315.257	342.479	171.913	393.379	400.967	184.226	89.488	321.873	95.372	334.321	174.837	286.645	310.079	0.00057843	0.00024806	7.2883e-05	1360.6	4.2575e-06	3.3003e-06	1366.9	365.38	1.477e-05	7.7175e-06	415.96	139.91	121.69	41.625	5.0025e-06	51.785	0.00053148	0.00057802	0.00015059	1354.7	5.9362e-06	6.2956e-06	1374.1	369.3	5.9719e-06	6.3292e-06	422.76	141.54	124.1	42.937	5.8897e-06	52.47	224.419	241.518	67.793	72.550	208.214	274.957	72.609	77.360	191.312	175.969	76.618	81.659	82.160	86.092	212.545	85.280	-8191	255	
688.014	1	1	0	0	0.15582	0.086773	0.1784	0.1577	0.24811	0.16638	0.19474	0.15252	0.062339	0.13106	0.090355	0.056035	0.18959	0.064671	0.027608	0.20101	-2.9521	-3.0375	-2.9958	-3.4854	-3.1375	-3.3896	-3.4437	-3.1104	-3.3271	-3.1771	-3.175	-3.4542	-3.1146	-3.1562	-3.4729	-2.9708	239.988	412.523	344.778	403.001	280.732	406.313	364.098	338.737	129.731	115.231	336.928	145.854	66.085	313.860	261.142	374.663	0.00057974	0.00058121	0.00019876	1359.2	6.288e-06	7.7662e-06	1366.1	364.24	4.8136e-06	1.4462e-06	415.15	139.62	121.1	41.51	5.8844e-06	51.752	0.00056638	0.0005755	0.00015157	1359.5	6.4252e-06	6.3504e-06	1375.3	369.6	6.5083e-06	6.3281e-06	423.26	141.81	124.7	42.916	5.9356e-06	52.859	237.448	307.139	409.969	72.494	213.763	276.474	72.747	77.490	172.517	259.464	76.673	81.581	82.033	86.075	228.301	85.132	-8191	255	
688.111	1	1	0	0	0.17345	0.19279	0.125	0.19361	0.094928	0.11419	0.098351	0.21078	0.20415	0.13349	0.26586	0.074278	0.17105	0.12103	0.21897	0.18592	-2.975	-3.1562	-2.9792	-3.4813	-3.1437	-3.2313	-3.5521	-3.2062	-3.3854	-3.3042	-2.9917	-3.5187	-3.1396	-3.1375	-3.4146	-2.8854	130.512	279.153	303.541	292.913	285.882	314.385	299.623	395.483	354.266	374.493	316.840	103.789	408.616	322.673	269.449	94.692	0.00052931	0.00028305	0.00017207	1369.2	7.3668e-06	5.3442e-06	1362.7	363.52	2.4596e-06	6.2218e-06	416.33	139.74	120.8	41.643	3.5036e-06	51.589	0.00060146	0.00057362	0.00015162	1372.8	6.6714e-06	6.3089e-06	1373.6	370.89	6.6696e-06	6.2126e-06	422.65	142.55	124.77	42.836	5.8306e-06	53.139	239.711	415.543	387.240	72.301	182.511	209.777	72.548	77.513	165.047	203.312	76.654	81.654	81.983	85.987	248.175	85.090	-8191	255	
688.205	1	1	0	0	0.079683	0.24122	0.12473	0.047789	0.042703	0.22564	0.37743	0.14972	0.13317	0.19635	0.20541	0.23627	0.23073	0.17292	0.108	0.034512	-3.0417	-3.3312	-2.9021	-3.4	-2.9771	-3.1063	-3.4396	-3.2188	-3.2583	-3.3583	-3.0667	-3.4646	-3.2313	-3.1646	-3.5625	-3.175	385.941	265.999	119.268	379.471	303.730	162.394	336.888	100.923	187.913	79.025	259.078	397.644	393.063	392.226	229.209	80.976	0.00049879	0.00042088	2.7407e-05	1352	1.1762e-06	1.4146e-06	1362.8	364.94	5.2549e-06	4.1688e-06	416.49	140.34	121.41	41.843	3.8869e-06	52.179	0.00060006	0.00055947	0.00014735	1387.8	6.5188e-06	6.0602e-06	1371.9	372.92	6.4013e-06	5.9592e-06	421.36	143.53	124.45	42.742	5.581e-06	53.452	240.880	168.734	310.939	72.307	66.786	241.910	72.601	77.417	195.240	131.376	76.745	81.629	81.911	85.946	235.970	85.435	-8191	255	
688.303	1	1	0	0	0.073453	0.088667	0.21749	0.074128	0.07292	0.07897	0.22023	0.33561	0.20561	0.13225	0.24082	0.15531	0.35594	0.30417	0.19007	0.098111	-2.7062	-3.275	-2.9375	-3.3875	-3.2167	-3.1208	-3.6729	-3.3	-3.2188	-3.2583	-2.8479	-3.3583	-3.2812	-2.9917	-3.3312	-3.1437	359.379	410.084	94.964	72.614	304.573	319.660	67.605	374.423	410.512	194.057	66.107	363.123	368.850	59.735	75.205	313.194	0.00054245	0.00032778	8.5363e-05	1365.9	5.0883e-06	2.1249e-06	1365.5	366.88	2.9174e-06	4.723e-06	419.8	140.93	122.3	41.76	8.0091e-06	52.233	0.00055624	0.00052165	0.00014196	1387.9	6.0169e-06	5.6683e-06	1370.6	372.9	5.9005e-06	5.4813e-06	421.89	143.63	124.02	42.504	5.5501e-06	53.372	237.941	367.372	179.851	72.371	365.034	251.021	72.533	77.457	318.108	203.850	76.515	81.561	81.848	86.213	223.681	85.063	-8191	255	
688.422	1	1	0	0	0.31938	0.12758	0.17738	0.039097	0.28982	0.1943	0.13436	0.15166	0.23349	0.077585	0.16059	0.32671	0.19341	0.10322	0.12213	0.26151	-2.7062	-3.4021	-3.025	-3.2562	-3.2938	-3.1229	-3.6333	-3.1667	-3.1188	-3.3917	-3.1875	-3.3479	-3.1646	-2.9688	-3.4562	-3.2583	82.530	223.759	141.521	117.283	311.051	347.979	81.101	400.742	351.073	173.777	239.608	76.027	66.345	274.141	201.427	377.221	0.00036641	0.00017448	0.00019568	1367.6	4.9015e-06	5.3445e-06	1373.9	365.66	4.4823e-06	5.6552e-06	416.96	140.27	121.12	41.601	4.2212e-06	51.719	0.00052537	0.0004955	0.00014554	1392	5.8326e-06	5.5669e-06	1381.3	374.05	5.9859e-06	5.6415e-06	426.13	143.95	123.9	42.53	6.331e-06	53.514	237.688	419.301	142.324	72.528	234.613	297.556	72.728	77.494	187.707	175.916	76.963	81.604	82.028	86.073	195.782	85.364	-8191	255	
688.493	1	1	0	0	0.2391	0.18657	0.24271	0.36617	0.25763	0.2071	0.053034	0.18967	0.089771	0.047766	0.06463	0.086319	0.2525	0.29391	0.15015	0.03072	-2.6521	-3.4417	-2.7958	-3.2604	-3.3604	-2.9375	-3.4917	-3.2271	-2.95	-3.4375	-3.1167	-3.3812	-3.4646	-2.9646	-3.3208	-3.1271	374.957	75.002	320.694	405.593	94.040	264.751	394.020	343.053	270.773	254.514	213.351	387.986	303.613	319.274	238.294	259.554	0.00044791	0.00049073	0.00021011	1363.3	4.849e-06	7.6637e-07	1364.3	363.97	6.495e-06	6.5192e-06	414.41	139.13	120.37	41.583	3.814e-06	51.589	0.00056795	0.00053445	0.00016758	1408.1	6.2635e-06	6.0761e-06	1387.6	373.36	6.3756e-06	6.0817e-06	428.77	143.71	123.7	42.71	6.8719e-06	53.509	220.437	188.946	105.755	72.591	278.347	62.775	72.495	77.586	167.899	208.117	76.455	81.762	81.995	86.224	227.546	85.050	-8191	255	
688.614	1	1	0	0	0.15532	0.23534	0.26151	0.20542	0.12108	0.29598	0.14631	0.30368	0.029753	0.075266	0.17544	0.29253	0.18073	0.2449	0.13547	0.22476	-2.5812	-3.3729	-2.9417	-3.0833	-3.3083	-2.8875	-3.3146	-3.3042	-2.8604	-3.3604	-3.2896	-3.225	-3.5479	-3.0125	-3.3417	-3.2979	229.833	377.209	138.919	74.633	284.591	93.788	392.500	377.668	210.741	194.270	351.240	320.896	86.441	78.614	94.253	66.984	0.00040186	0.00062613	6.9442e-05	1356.7	4.9954e-06	9.5935e-06	1358.5	362.73	5.0396e-06	8.3203e-06	415.05	138.93	120.27	41.389	3.7929e-06	51.451	0.00056892	0.00056217	0.0001754	1400.4	6.1349e-06	6.3176e-06	1387.6	371.65	6.2036e-06	6.3583e-06	430.25	143.24	123.35	42.929	6.8692e-06	53.211	244.861	93.166	174.598	72.696	70.930	232.317	72.684	77.467	338.894	219.390	76.508	81.743	82.015	85.949	173.305	85.188	-8191	255	
688.710	1	1	0	0	0.14064	0.20204	0.12832	0.092571	0.21733	0.22234	0.16215	0.21073	0.12228	0.22196	0.2911	0.093705	0.20842	0.40855	0.10607	0.22034	-2.4604	-3.2646	-3.1167	-2.9458	-3.4104	-3.0896	-3.3937	-3.4896	-2.9146	-3.225	-3.2396	-3.2375	-3.4896	-3.0542	-3.1833	-3.4333	402.481	215.727	154.553	218.256	382.657	244.545	316.467	374.348	383.910	414.463	353.956	372.179	67.853	397.896	251.731	341.766	0.00041732	0.00068032	9.5279e-05	1357.9	2.4284e-06	1.0108e-05	1365.1	364.67	5.1875e-06	5.1611e-06	414.13	139.63	121.39	41.776	1.2927e-06	51.514	0.00055216	0.00058725	0.00017199	1390.2	5.9514e-06	6.5894e-06	1386.9	371.43	6.0277e-06	6.5959e-06	428.15	142.97	123.5	43.277	6.6069e-06	53.01	230.553	122.463	69.716	72.344	216.802	209.686	72.603	77.488	227.977	212.674	76.792	81.443	81.938	85.980	302.354	85.103	-8191	255	
688.806	1	1	0	0	0.1999	0.20386	0.1079	0.19149	0.068664	0.08019	0.067776	0.12332	0.16556	0.16697	0.15653	0.21188	0.071461	0.31379	0.2493	0.34159	-2.6125	-3.4083	-3.1479	-3.0271	-3.4417	-3.0542	-3.3542	-3.5312	-2.8875	-3.3187	-3.2583	-3.0396	-3.4271	-3.0938	-3.1042	-3.4708	315.601	272.947	65.656	112.378	404.445	414.164	302.640	146.590	82.051	86.029	296.816	379.792	80.189	342.722	387.553	361.568	0.00061354	0.00048111	0.0001819	1368.7	7.6654e-06	1.9342e-06	1368.1	364.02	8.4065e-06	7.2342e-06	415.7	139.18	120.98	41.367	2.8034e-07	51.607	0.00054846	0.00060702	0.00016605	1386.3	5.9758e-06	6.7889e-06	1385.8	371.04	6.1111e-06	6.8219e-06	426.42	142.37	123.51	43.239	6.5087e-06	52.771	234.574	178.549	414.017	72.431	205.485	142.461	72.650	77.577	223.201	148.290	76.507	81.654	81.860	86.184	218.286	85.377	-8191	255	
688.902	1	1	0	0	0.25393	0.21078	0.042919	0.21432	0.22916	0.22611	0.1231	0.093956	0.28667	0.19739	0.24705	0.21842	0.30394	0.15256	0.22907	0.11632	-2.5375	-3.3396	-3.0646	-2.9	-3.4917	-3.0938	-3.375	-3.4938	-2.9188	-3.3146	-3.3729	-2.9542	-3.45	-3.2396	-3.0625	-3.4354	376.359	165.440	256.909	169.020	235.085	358.482	399.677	384.952	312.843	227.829	70.795	378.734	405.302	405.882	162.998	382.493	0.00050397	0.0005523	0.00011531	1356.8	5.4541e-06	2.4032e-06	1362	361.3	1.122e-05	2.3147e-06	412.36	138.89	120.26	41.554	5.3861e-06	51.462	0.00057361	0.00062745	0.00016223	1377.3	6.3474e-06	6.897e-06	1380.3	369	6.5146e-06	6.8694e-06	424.38	142.02	124.04	43.234	6.4378e-06	52.743	234.200	275.528	213.404	72.501	170.667	134.548	72.639	77.447	196.994	194.461	76.677	81.715	82.003	86.194	170.880	85.349	-8191	255	
689.023	1	1	0	0	0.20715	0.0091304	0.097673	0.15226	0.089	0.22916	0.36038	0.051924	0.040062	0.20252	0.27422	0.10458	0.15217	0.18483	0.073389	0.10451	-2.6042	-3.0292	-3.3292	-2.9562	-3.3417	-3.2625	-3.1583	-3.4542	-3.0125	-3.1146	-3.2313	-3.0354	-3.4417	-3.2792	-3.0021	-3.4833	319.098	327.500	129.555	313.963	131.381	77.485	339.453	269.524	294.289	308.817	291.117	69.159	316.306	332.753	175.521	369.507	0.00061507	0.00059757	7.7571e-05	1355.6	1.4339e-05	3.2532e-06	1356.5	361.89	1.0034e-05	2.254e-06	412.33	138.91	120.29	41.43	2.1127e-06	51.349	0.00061166	0.00062274	0.00016041	1377.4	6.7146e-06	6.7309e-06	1377.2	368.67	6.7974e-06	6.7187e-06	423.98	141.72	124.57	43.003	6.2806e-06	52.725	227.411	157.686	258.484	72.390	188.730	196.323	72.434	77.451	248.932	74.912	76.465	81.605	82.118	86.224	125.855	85.060	-8191	255	
689.095	1	1	0	0	0.2397	0.17024	0.26526	0.27832	0.19544	0.14015	0.30726	0.038002	0.054455	0.13173	0.11265	0.25406	0.091093	0.2041	0.14558	0.10451	-2.6729	-3.0979	-3.3875	-2.8833	-3.2958	-3.2625	-3.1312	-3.4354	-3.1771	-3.2354	-3.3458	-3.2208	-3.3646	-3.3604	-2.9729	-3.4104	375.328	129.346	353.574	305.533	248.375	333.037	372.611	356.608	189.354	391.256	87.964	395.061	314.170	59.830	253.292	60.956	0.00067922	8.652e-05	0.00011339	1360.9	2.9244e-06	3.2683e-06	1355.9	361.48	5.8882e-06	3.3257e-06	414.18	138.75	120.48	41.355	2.8665e-06	51.088	0.00062704	0.00060006	0.00015715	1383	6.9066e-06	6.5446e-06	1372.6	369.28	6.9708e-06	6.5308e-06	422.37	142.55	125.02	42.835	6.185e-06	53.018	238.481	157.407	221.457	72.569	229.925	409.084	72.649	77.516	191.148	139.767	76.760	81.738	81.990	86.015	354.480	85.155	-8191	255	
689.191	1	1	0	0	0.10109	0.16307	0.18842	0.1385	0.11055	0.12068	0.13878	0.22176	0.18598	0.18111	0.10076	0.16671	0.21634	0.12363	0.20269	0.060836	-2.6792	-3.1021	-3.3312	-3.0771	-3.3229	-3.1417	-3.0792	-3.4188	-2.9979	-3.2542	-3.5979	-2.9938	-3.3917	-3.3521	-2.9021	-3.3563	365.891	100.290	276.539	93.045	65.967	221.699	79.843	375.395	162.304	182.234	409.045	403.924	64.216	381.693	81.266	104.223	0.00039333	0.00042904	0.00013783	1359.5	2.8859e-06	8.1385e-06	1356.1	360.47	6.2768e-06	5.323e-06	413.25	138.21	119.6	41.09	2.8889e-06	51.162	0.00063183	0.00059335	0.00015427	1401.4	6.9474e-06	6.4398e-06	1371.2	371.28	6.9014e-06	6.5173e-06	421.24	143.07	124.51	42.699	6.1886e-06	53.464	246.171	370.474	163.921	72.558	66.695	358.870	72.528	77.445	124.628	283.786	76.662	81.740	82.103	86.225	279.537	85.312	-8191	255	
689.285	1	1	0	0	0.17913	0.22997	0.21827	0.37633	0.050263	0.18573	0.17747	0.10886	0.099573	0.29452	0.052197	0.16765	0.1813	0.23891	0.10305	0.28234	-2.7479	-2.9938	-3.2896	-3.0646	-3.1562	-3.2479	-3.0812	-3.4333	-3.1188	-2.9458	-3.3688	-3.0771	-3.2854	-3.4979	-3.1396	-3.3063	393.476	335.506	298.017	74.987	87.637	256.961	373.250	350.093	152.932	208.094	275.512	65.440	371.450	286.666	380.472	72.674	0.00040757	0.00013795	0.00029193	1344.9	3.1458e-06	3.9556e-06	1349.7	358.85	5.2762e-06	7.1818e-06	410.52	137.1	119.18	41.077	8.0637e-06	51.395	0.00061532	0.00058444	0.00015577	1412.2	6.7549e-06	6.3401e-06	1370.4	371.56	6.6431e-06	6.3196e-06	421.45	143.38	123.61	42.502	6.3402e-06	53.602	220.861	390.904	98.493	72.243	61.652	393.218	72.702	77.379	250.350	100.725	76.827	81.537	82.207	85.987	231.253	85.270	-8191	255	
689.383	1	1	0	0	0.12732	0.10304	0.11105	0.063038	0.11057	0.22104	0.23065	0.23476	0.1694	0.18636	0.14304	0.19386	0.37051	0.2362	0.36062	0.064267	-2.5604	-3.0812	-3.375	-3.0021	-3.0542	-3.4667	-3.1146	-3.4979	-3.3312	-3.0375	-3.4229	-3.2375	-3.1542	-3.6083	-2.9938	-3.4104	130.416	370.217	116.069	121.606	294.317	141.298	251.167	357.894	369.371	212.485	409.895	69.054	361.292	401.620	373.655	113.571	0.00048981	0.00033816	0.00018847	1361.9	8.1205e-07	6.9868e-06	1354.6	361.21	2.2936e-06	2.9299e-06	415.48	138.44	120	41.37	1.2076e-05	51.276	0.00059768	0.00056916	0.00016178	1416.7	6.5681e-06	6.1434e-06	1373.4	371.42	6.4846e-06	6.1831e-06	424.65	143.08	123.45	42.356	6.6701e-06	53.461	237.956	93.580	127.950	72.467	309.536	112.962	72.840	77.438	80.676	61.617	76.873	81.448	82.372	86.256	228.991	85.148	-8191	255	
689.502	1	1	0	0	0.17589	0.3098	0.10954	0.077667	0.396	0.045249	0.3458	0.25957	0.063099	0.17831	0.23519	0.26075	0.074039	0.17697	0.11519	0.12482	-2.7708	-2.7917	-3.3292	-3.1667	-3.1	-3.4292	-3.2062	-3.4	-3.4083	-2.9813	-3.4625	-3.1813	-3.0604	-3.3542	-3.0771	-3.2812	383.873	224.093	232.733	287.297	175.753	145.826	403.923	355.625	98.266	161.586	315.779	343.496	141.454	362.826	161.588	86.658	0.00040372	0.00033166	0.00013085	1357.3	1.1526e-06	4.8328e-06	1354.6	360.36	3.6305e-06	4.1012e-06	415.99	139.18	120.31	41.504	8.1091e-06	51.209	0.00058368	0.00055653	0.00016927	1407	6.4143e-06	6.0435e-06	1378.3	370.67	6.3586e-06	6.1212e-06	427.38	142.98	123.36	42.462	6.9077e-06	53.253	223.773	95.597	184.870	72.846	398.199	210.450	72.641	77.587	226.456	205.923	76.743	81.766	82.150	86.154	228.672	85.210	-8191	255	
689.598	1	1	0	0	0.33389	0.23516	0.1816	0.078888	0.17284	0.14174	0.10688	0.24202	0.15392	0.18538	0.047589	0.16043	0.14839	0.35951	0.17655	0.24047	-2.9313	-3.0187	-3.2417	-3.1479	-3.0667	-3.4083	-3.2083	-3.1083	-3.3354	-2.8792	-3.4875	-3.15	-3.0708	-3.3521	-3.0771	-3.0458	152.985	412.723	320.768	260.326	88.444	132.384	305.394	349.337	160.335	144.999	404.427	344.138	392.204	401.286	339.448	329.677	0.00052546	0.00062584	0.00012942	1359.1	3.2623e-06	8.196e-06	1357.1	362.3	3.745e-06	1.0383e-05	415.58	138.81	119.71	41.568	1.5729e-06	51.365	0.00056748	0.00056438	0.00017603	1395.7	6.2522e-06	6.216e-06	1381.5	370.03	6.1812e-06	6.4221e-06	428.42	142.46	122.97	42.808	7.0655e-06	53.169	226.233	163.551	140.567	72.522	257.125	200.467	72.689	77.655	259.281	232.789	76.632	81.609	82.173	86.243	373.959	85.386	-8191	255	
689.694	1	1	0	0	0.12472	0.17951	0.27248	0.13105	0.16688	0.11254	0.079717	0.2051	0.11896	0.11339	0.34119	0.19792	0.13275	0.25232	0.11087	0.12309	-2.9437	-3.0542	-3.1271	-3.0896	-3	-3.4833	-3.2	-3.0625	-3.3688	-3.1104	-3.375	-3.2583	-2.8833	-3.2521	-3.1896	-3.1292	101.816	139.069	298.730	290.261	208.534	307.786	252.173	382.111	114.774	256.102	379.471	174.939	211.080	217.332	266.668	372.130	0.0004919	0.00099009	5.1146e-05	1349	3.2474e-06	1.4597e-05	1361.3	361.07	6.9219e-06	8.1725e-06	415.23	139.41	120.52	41.459	1.1704e-06	51.227	0.00056346	0.00060702	0.00017943	1396.5	6.262e-06	6.7359e-06	1382.8	369.83	6.1894e-06	6.8824e-06	428.28	142.59	123.02	43.099	6.9483e-06	53.067	222.493	157.821	256.177	72.427	230.515	229.251	72.619	77.500	217.995	223.880	76.876	81.572	82.096	86.283	113.654	85.293	-8191	255	
689.791	1	1	0	0	0.1354	0.053841	0.13744	0.066582	0.22802	0.18129	0.2211	0.32287	0.029607	0.1654	0.22081	0.3539	0.16318	0.26944	0.10941	0.16181	-2.9833	-3.0708	-3.2146	-3.1979	-3.0625	-3.2125	-3.3187	-3.0354	-3.2042	-3.0875	-3.3875	-3.3646	-2.8375	-3.3917	-3.1729	-3.0875	364.632	314.248	399.643	348.358	214.582	99.255	368.802	381.424	291.564	84.885	372.238	409.037	365.951	400.719	95.699	407.726	0.00051512	0.00055573	9.4174e-05	1354.4	6.6393e-06	6.1644e-06	1360.3	362.96	6.0401e-06	5.3612e-06	414.48	138.81	121.01	41.462	4.0322e-06	51.46	0.00056172	0.00064002	0.00017423	1389.3	6.2586e-06	6.9766e-06	1379.7	369.85	6.2005e-06	7.0311e-06	426.73	141.89	123.43	43.177	6.62e-06	52.818	236.551	95.774	391.348	72.539	173.910	275.330	72.641	77.443	250.951	173.107	76.715	81.628	82.012	86.205	218.747	85.257	-8191	255	
689.887	1	1	0	0	0.097847	0.061338	0.12762	0.075125	0.2087	0.096242	0.063585	0.11508	0.1104	0.21254	0.15618	0.27867	0.27125	0.1692	0.045222	0.21481	-3.0646	-2.9979	-3.025	-3.2604	-2.8688	-3.2812	-3.4854	-3.0521	-3.3063	-3.1	-3.2	-3.3688	-3	-3.2646	-3.2104	-2.9542	267.356	59.567	261.998	156.320	114.287	242.505	249.602	407.757	174.480	234.255	248.066	355.530	71.990	104.009	350.817	125.380	0.00072219	0.00048183	6.0356e-05	1355.8	6.9794e-06	2.7228e-06	1355.7	363	6.5151e-06	3.8177e-06	413.85	138.62	120.17	41.502	2.0325e-06	51.249	0.00057634	0.00063812	0.00016668	1376.9	6.4692e-06	6.9978e-06	1375.5	368.89	6.4961e-06	6.9979e-06	424.68	141.48	123.98	43.136	6.519e-06	52.688	237.590	150.608	313.937	72.493	229.406	357.919	72.727	77.468	215.429	153.823	76.596	81.742	82.157	86.150	117.285	85.336	-8191	255	
689.983	1	1	0	0	0.11361	0.16879	0.39223	0.15648	0.22724	0.11707	0.14807	0.13245	0.13409	0.20862	0.15983	0.19441	0.061986	0.16307	0.20251	0.1932	-3.0187	-3.0312	-2.9792	-3.3792	-2.8063	-3.3208	-3.4667	-3.0021	-3.3604	-3.1604	-3.1729	-3.6104	-3.1229	-3.3021	-3.4437	-3.0187	350.329	149.428	86.653	297.578	100.178	330.548	419.138	378.263	394.171	202.703	394.807	395.124	391.100	75.175	156.500	415.530	0.00054954	0.00034274	4.2146e-05	1362	2.3972e-06	6.5625e-06	1354.1	361.92	1.2003e-05	4.1655e-06	414.3	138.46	120.24	41.379	3.2658e-06	51.341	0.00060956	0.00063097	0.00016445	1375.5	6.8141e-06	6.8679e-06	1373.9	368.16	6.8277e-06	6.784e-06	423.67	141.19	124.55	42.991	6.308e-06	52.667	232.142	100.387	147.245	72.778	96.206	105.507	72.722	77.551	182.521	165.665	76.653	81.763	82.097	86.338	357.421	85.140	-8191	255	
690.103	1	1	0	0	0.097945	0.088586	0.08846	0.10735	0.36576	0.035995	0.18204	0.26699	0.14861	0.24662	0.15603	0.19871	0.072163	0.19267	0.25815	0.29082	-2.9521	-3.2979	-3.0271	-3.3812	-2.9583	-3.2167	-3.3875	-2.9583	-3.3438	-3.1271	-3.0687	-3.4958	-3.1292	-3.0354	-3.2562	-2.9292	220.383	147.522	167.386	284.460	390.178	322.724	80.858	378.638	312.882	71.172	371.705	410.946	256.128	361.726	124.087	368.984	0.00052241	0.00043456	0.00016768	1353.8	6.8992e-06	8.4673e-06	1359.2	363.61	6.8241e-06	1.2635e-06	416.56	138.55	120.28	41.22	3.9121e-06	51.728	0.00062652	0.00060445	0.00015954	1372.7	6.9171e-06	6.5919e-06	1369.1	369.06	6.903e-06	6.4955e-06	422.43	141.72	124.57	42.735	6.081e-06	53.027	232.195	145.433	195.916	72.795	161.903	203.901	72.540	77.641	212.835	299.040	76.646	81.837	82.258	86.115	288.050	85.059	-8191	255	
690.198	1	1	0	0	0.087145	0.3013	0.11787	0.27248	0.1824	0.11897	0.18527	0.13475	0.07987	0.13402	0.20997	0.12993	0.23198	0.10808	0.089819	0.23862	-2.85	-3.2188	-2.8667	-3.4083	-3.1146	-3.1146	-3.7208	-3.1396	-3.1417	-3.3583	-2.9771	-3.4167	-3.2729	-3.1375	-3.4854	-3.0604	267.896	375.099	133.405	112.775	295.130	404.962	380.815	389.173	363.309	366.538	385.537	382.634	70.726	334.377	65.507	311.044	0.00048071	0.00055615	6.1478e-05	1362.8	5.0843e-06	1.7509e-06	1358.8	362.23	3.7365e-06	3.0406e-06	413.42	138.94	120.43	41.436	5.1102e-06	51.647	0.0006292	0.00058446	0.00015482	1390.9	6.8557e-06	6.4482e-06	1367.2	370.47	6.8553e-06	6.3917e-06	421.25	142.92	124.34	42.753	6.042e-06	53.436	224.780	113.443	275.244	72.579	181.484	346.723	72.843	77.720	287.395	394.192	76.754	81.846	82.132	86.479	289.964	85.268	-8191	255	
690.294	1	1	0	0	0.098489	0.13475	0.18817	0.0033825	0.15567	0.11535	0.27315	0.18976	0.049125	0.16226	0.18374	0.2689	0.061237	0.15577	0.13382	0.33182	-2.85	-3.3229	-2.6458	-3.3146	-3.1688	-3.0375	-3.4667	-3.2958	-3.1667	-3.3958	-3.0208	-3.4146	-3.0062	-3.0479	-3.4375	-3.1625	180.367	184.361	268.063	307.691	214.919	80.561	417.585	113.407	258.767	281.573	371.835	278.419	84.313	388.744	368.439	372.823	0.00043484	0.00025597	6.9795e-05	1354.8	4.852e-06	4.6828e-06	1360.5	362.64	7.8304e-06	1.2266e-06	416.03	139.14	119.88	41.351	8.8811e-06	51.228	0.00061687	0.000577	0.00015498	1405.8	6.6696e-06	6.3129e-06	1367.5	371.93	6.6289e-06	6.265e-06	422.25	143.26	123.68	42.556	6.1688e-06	53.623	253.479	170.209	116.536	72.609	65.684	270.712	72.508	77.383	202.596	66.628	76.846	81.669	82.213	86.418	241.046	85.191	-8191	255	
690.390	1	1	0	0	0.055582	0.047244	0.20584	0.28463	0.25498	0.11619	0.1481	0.22388	0.08833	0.16355	0.17586	0.12574	0.33492	0.25928	0.29091	0.152	-2.7479	-3.3417	-2.9771	-3.4	-3.2042	-2.9979	-3.5729	-3.1375	-3.0375	-3.3354	-3.0104	-3.3688	-3.3187	-2.7333	-3.3979	-3.2687	292.648	292.639	97.676	410.720	99.362	82.353	283.012	381.890	106.978	196.745	377.949	269.349	389.122	342.663	67.079	310.163	0.0005161	0.00016175	0.00026729	1358	2.9578e-06	6.0588e-06	1359.2	362	1.1284e-06	3.9366e-06	417.15	139.18	120.83	41.662	5.8646e-06	51.437	0.00059527	0.00055969	0.00015986	1412.4	6.4504e-06	6.1519e-06	1371.9	371.65	6.4618e-06	6.0389e-06	425.22	143.46	123.57	42.586	6.4777e-06	53.462	243.044	323.768	120.190	72.751	201.886	380.262	72.702	77.690	61.600	278.231	76.878	81.524	82.198	86.306	258.001	85.115	-8191	255	
#DATA ENDS
