BOXY.EXE: ISS Imagent and Oximeter Data Acquisition Program Version 0.80
Ascii Record File

#ACQ INFORMATION
2  Detector Channels 
16  External MUX Channels 
1  Auxiliary Channels 
5000  Waveform (CCF) Frequency (Hz)
1  Waveforms Skipped 
30  Waveforms Averaged 
1  Cycles Averaged 
16  Acquisitions per Waveform 
10.0806  Updata Rate (Hz) 

#FILE INFORMATION
TRUE -- External MUX Channel results are PARSED.
FALSE -- AC DC and Phase are NOT grouped.
TRUE -- Companion Program Settings File CREATED.
FALSE -- AC data not excluded
FALSE -- DC data not excluded
FALSE -- Phase data not excluded
FALSE -- Auxillary Chn. data not excluded
Tab delimiters

#CALIBRATION STATE
TRUE -- Waveform Calibration Values APPLIED.


#AUX CALIBRATION VALUES
Val Type	aux-1	

Term	1.0000e+00	
Factor	0.0000e+00	


#WF CALIBRATION VALUES
A = Detector Channel
Val Type	A-AC1	A-AC2	A-AC3	A-AC4	A-AC5	A-AC6	A-AC7	A-AC8	A-AC9	A-AC10	A-AC11	A-AC12	A-AC13	A-AC14	A-AC15	A-AC16	A-DC1	A-DC2	A-DC3	A-DC4	A-DC5	A-DC6	A-DC7	A-DC8	A-DC9	A-DC10	A-DC11	A-DC12	A-DC13	A-DC14	A-DC15	A-DC16	A-Ph1	A-Ph2	A-Ph3	A-Ph4	A-Ph5	A-Ph6	A-Ph7	A-Ph8	A-Ph9	A-Ph10	A-Ph11	A-Ph12	A-Ph13	A-Ph14	A-Ph15	A-Ph16	

Term	0.00000e+00	0.00000e+00	0.00000e+00	0.00000e+00	0.00000e+00	0.00000e+00	0.00000e+00	0.00000e+00	0.00000e+00	0.00000e+00	0.00000e+00	0.00000e+00	0.00000e+00	0.00000e+00	0.00000e+00	0.00000e+00	0.00000e+00	0.00000e+00	0.00000e+00	0.00000e+00	0.00000e+00	0.00000e+00	0.00000e+00	0.00000e+00	0.00000e+00	0.00000e+00	0.00000e+00	0.00000e+00	0.00000e+00	0.00000e+00	0.00000e+00	0.00000e+00	0.00000e+00	0.00000e+00	0.00000e+00	0.00000e+00	0.00000e+00	0.00000e+00	0.00000e+00	0.00000e+00	0.00000e+00	0.00000e+00	0.00000e+00	0.00000e+00	0.00000e+00	0.00000e+00	0.00000e+00	0.00000e+00	
Factor	1.00000e+00	1.00000e+00	1.00000e+00	1.00000e+00	1.00000e+00	1.00000e+00	1.00000e+00	1.00000e+00	1.00000e+00	1.00000e+00	1.00000e+00	1.00000e+00	1.00000e+00	1.00000e+00	1.00000e+00	1.00000e+00	1.00000e+00	1.00000e+00	1.00000e+00	1.00000e+00	1.00000e+00	1.00000e+00	1.00000e+00	1.00000e+00	1.00000e+00	1.00000e+00	1.00000e+00	1.00000e+00	1.00000e+00	1.00000e+00	1.00000e+00	1.00000e+00	X	X	X	X	X	X	X	X	X	X	X	X	X	X	X	X	

B = Detector Channel
Val Type	B-AC1	B-AC2	B-AC3	B-AC4	B-AC5	B-AC6	B-AC7	B-AC8	B-AC9	B-AC10	B-AC11	B-AC12	B-AC13	B-AC14	B-AC15	B-AC16	B-DC1	B-DC2	B-DC3	B-DC4	B-DC5	B-DC6	B-DC7	B-DC8	B-DC9	B-DC10	B-DC11	B-DC12	B-DC13	B-DC14	B-DC15	B-DC16	B-Ph1	B-Ph2	B-Ph3	B-Ph4	B-Ph5	B-Ph6	B-Ph7	B-Ph8	B-Ph9	B-Ph10	B-Ph11	B-Ph12	B-Ph13	B-Ph14	B-Ph15	B-Ph16	

Term	0.00000e+00	0.00000e+00	0.00000e+00	0.00000e+00	0.00000e+00	0.00000e+00	0.00000e+00	0.00000e+00	0.00000e+00	0.00000e+00	0.00000e+00	0.00000e+00	0.00000e+00	0.00000e+00	0.00000e+00	0.00000e+00	0.00000e+00	0.00000e+00	0.00000e+00	0.00000e+00	0.00000e+00	0.00000e+00	0.00000e+00	0.00000e+00	0.00000e+00	0.00000e+00	0.00000e+00	0.00000e+00	0.00000e+00	0.00000e+00	0.00000e+00	0.00000e+00	-1.74148e+02	-1.27087e+02	-1.30125e+02	-1.81316e+02	-8.55190e+01	-6.66878e+01	-1.57075e+02	-1.62015e+02	-8.14386e+01	-6.69092e+01	-1.71893e+02	-1.70622e+02	-1.79843e+02	-1.76980e+02	-7.36244e+01	-1.49926e+02	
Factor	3.06324e-05	1.62235e-04	4.72445e-05	1.48920e-01	1.49831e-06	1.76165e-06	1.72106e-01	6.28372e-02	1.68338e-06	1.86821e-06	8.65051e-02	2.99025e-02	3.08083e-02	9.61349e-03	1.55958e-06	1.36815e-02	1.62461e-05	2.79970e-05	7.84780e-06	7.48325e-02	2.67660e-07	3.17064e-07	8.15900e-02	3.16269e-02	2.77634e-07	3.15248e-07	4.25007e-02	1.47081e-02	1.57617e-02	4.89367e-03	2.89544e-07	6.76532e-03	X	X	X	X	X	X	X	X	X	X	X	X	X	X	X	X	



#DISTANCE SETTINGS
A = Detector Channel
A-1	A-2	A-3	A-4	A-5	A-6	A-7	A-8	A-9	A-10	A-11	A-12	A-13	A-14	A-15	A-16	

2.5000e+00	3.0000e+00	2.5000e+00	3.0000e+00	2.0000e+00	3.0000e+00	1.5000e+00	3.0000e+00	3.0000e+00	3.0000e+00	3.0000e+00	3.0000e+00	3.0000e+00	3.0000e+00	1.5000e+00	3.0000e+00	

B = Detector Channel
B-1	B-2	B-3	B-4	B-5	B-6	B-7	B-8	B-9	B-10	B-11	B-12	B-13	B-14	B-15	B-16	

1.0000e+01	1.0000e+01	1.0000e+01	1.4400e+00	1.0000e+01	1.0000e+01	1.5100e+00	1.9400e+00	1.0000e+01	1.0000e+01	1.9900e+00	2.4900e+00	2.4100e+00	2.9000e+00	1.0000e+01	2.9800e+00	




#DATA BEGINS
time	group	step	mark	flag	A-AC1	A-AC2	A-AC3	A-AC4	A-AC5	A-AC6	A-AC7	A-AC8	A-AC9	A-AC10	A-AC11	A-AC12	A-AC13	A-AC14	A-AC15	A-AC16	A-DC1	A-DC2	A-DC3	A-DC4	A-DC5	A-DC6	A-DC7	A-DC8	A-DC9	A-DC10	A-DC11	A-DC12	A-DC13	A-DC14	A-DC15	A-DC16	A-Ph1	A-Ph2	A-Ph3	A-Ph4	A-Ph5	A-Ph6	A-Ph7	A-Ph8	A-Ph9	A-Ph10	A-Ph11	A-Ph12	A-Ph13	A-Ph14	A-Ph15	A-Ph16	B-AC1	B-AC2	B-AC3	B-AC4	B-AC5	B-AC6	B-AC7	B-AC8	B-AC9	B-AC10	B-AC11	B-AC12	B-AC13	B-AC14	B-AC15	B-AC16	B-DC1	B-DC2	B-DC3	B-DC4	B-DC5	B-DC6	B-DC7	B-DC8	B-DC9	B-DC10	B-DC11	B-DC12	B-DC13	B-DC14	B-DC15	B-DC16	B-Ph1	B-Ph2	B-Ph3	B-Ph4	B-Ph5	B-Ph6	B-Ph7	B-Ph8	B-Ph9	B-Ph10	B-Ph11	B-Ph12	B-Ph13	B-Ph14	B-Ph15	B-Ph16	aux-1	digaux	

27484.035	1	1	0	256	0.10011	0.089045	0.10604	0.041009	0.21247	0.24696	0.37206	0.16244	0.24941	0.012164	0.2244	0.12225	0.22856	0.37077	0.3108	0.037926	-1.4813	-2.1292	-2.5333	-2.0167	-2.3167	-2.2979	-1.9312	-2.5542	-2.1583	-2.0812	-2.4771	-2.2354	-2.3229	-2.2896	-2.0271	-2.3875	333.832	147.906	128.202	219.331	135.069	264.246	380.598	349.910	339.873	330.482	73.242	305.954	118.354	56.780	205.739	57.402	0.00057601	0.00038883	0.00010892	599.25	4.4502e-06	2.9884e-06	581.64	219.02	3.9258e-06	4.5638e-06	222.72	102.66	99.904	45.567	5.4812e-06	48.886	0.00060788	0.00062614	0.00017533	597.41	6.1004e-06	6.7654e-06	579.86	219.16	6.2913e-06	6.9867e-06	223.86	103.03	100.28	46.067	7.0232e-06	49.229	112.214	124.057	114.847	58.978	181.514	188.653	58.027	62.641	206.545	198.865	60.298	63.761	65.926	69.112	203.641	66.536	-8191	255	
27484.133	1	1	0	0	0.091279	0.23117	0.088887	0.013147	0.31439	0.20046	0.20648	0.15129	0.20505	0.13075	0.20827	0.10489	0.066911	0.093206	0.35713	0.17514	-1.7	-2.1604	-2.3	-2.2792	-2.2354	-2.3688	-2.2	-2.5375	-2.0625	-2.0792	-2.5563	-2.0708	-2.2396	-2.3021	-2.0708	-2.3771	312.288	209.579	89.428	309.602	150.313	148.297	308.409	224.499	317.311	178.352	400.632	347.813	399.253	376.825	307.224	339.218	0.00059095	0.00036544	0.00014803	601.44	3.1175e-06	4.3422e-06	583.74	219.37	4.7756e-06	4.463e-06	223.2	102.6	99.976	45.525	4.5715e-06	48.758	0.00060584	0.00063547	0.00016497	599.91	6.2058e-06	6.8737e-06	581.49	219.36	6.2092e-06	6.7411e-06	223.52	103.2	100.27	46.037	7.1306e-06	49.226	110.326	135.518	120.748	58.952	184.012	184.100	57.755	62.621	184.210	186.557	60.273	63.819	65.481	69.219	204.220	66.755	-8191	255	
27484.229	1	1	0	0	0.19036	0.13485	0.13711	0.043781	0.12056	0.16102	0.16653	0.16996	0.16067	0.14141	0.15311	0.2248	0.21633	0.10157	0.17738	0.25193	-1.7667	-2.0354	-2.3958	-1.9646	-2.1958	-2.4646	-2.0938	-2.5667	-2.0479	-2.0062	-2.4854	-2.2583	-2.1917	-2.4396	-2.175	-2.3063	285.083	321.834	280.284	332.625	121.034	149.091	160.280	396.267	182.819	343.740	96.069	382.797	276.662	275.858	75.553	311.691	0.00057241	0.0003827	0.0001073	600.62	3.9804e-06	3.432e-06	581.72	219.17	5.0455e-06	5.7357e-06	222.16	102.06	100.32	45.634	5.0281e-06	48.695	0.00060652	0.00062445	0.00016722	598.68	6.396e-06	7.0322e-06	579.48	219.19	6.4278e-06	6.9256e-06	223.25	102.67	100.25	46.004	6.7747e-06	49.146	111.230	127.853	106.229	58.880	171.603	197.310	57.983	62.579	185.114	180.145	60.108	63.759	65.694	69.041	193.693	67.037	-8191	255	
27484.350	1	1	0	0	0.10874	0.20704	0.12265	0.21025	0.18973	0.1023	0.22877	0.21918	0.14907	0.19383	0.1727	0.16376	0.18509	0.17585	0.11547	0.085986	-1.8104	-1.7667	-2.5021	-2.0438	-2.1188	-2.3833	-2.2583	-2.3271	-2.3417	-2.0208	-2.3958	-2.1979	-2.15	-2.4938	-2.0167	-2.2875	342.530	162.539	105.223	403.257	384.177	219.153	282.607	357.284	211.754	265.461	57.172	94.073	349.306	64.198	167.377	303.059	0.00058401	0.00040316	9.9398e-05	601.02	5.0487e-06	5.7228e-06	583.42	219.96	4.3426e-06	3.3552e-06	223.94	102.05	100.26	45.565	4.0485e-06	48.79	0.00060304	0.00061214	0.0001667	599.47	6.2822e-06	6.8017e-06	579.91	219.81	6.3341e-06	6.9302e-06	223.53	102.72	100.2	45.958	6.519e-06	49.203	111.562	147.951	117.646	59.007	191.091	207.694	57.845	62.799	163.375	162.032	60.110	63.845	65.597	69.010	178.851	67.028	-8191	255	
27484.443	1	1	0	0	0.16454	0.14083	0.14052	0.22414	0.30127	0.13093	0.21961	0.22701	0.077654	0.33411	0.21068	0.083359	0.41415	0.45386	0.20216	0.16673	-1.7396	-2.0271	-2.3708	-2.3896	-2.1333	-2.5146	-2.0938	-2.1854	-2.2542	-1.9771	-2.3542	-2.1479	-2.1729	-2.4958	-2.0312	-2.3542	100.389	130.146	160.604	390.033	123.878	74.158	298.701	370.042	129.607	325.536	355.738	370.215	361.780	354.071	316.232	245.868	0.00058493	0.00039524	0.00010525	602.55	4.6372e-06	4.5992e-06	582.85	219.65	4.1031e-06	3.8919e-06	222.46	102.59	100.11	45.509	5.1233e-06	48.659	0.00060276	0.00063652	0.00016685	600.24	6.3034e-06	6.9411e-06	580.3	219.78	6.4897e-06	6.9236e-06	223.37	102.74	100.26	45.87	6.61e-06	49.078	107.659	132.762	122.162	58.930	170.428	195.812	57.774	62.915	193.952	191.628	60.294	63.610	65.964	69.199	198.648	66.857	-8191	255	
27484.518	1	1	0	0	0.16269	0.41501	0.13195	0.080227	0.11323	0.029672	0.21647	0.18198	0.28528	0.042733	0.21887	0.27511	0.10343	0.20685	0.032523	0.068262	-1.7896	-2.0312	-2.2958	-2.4396	-2.2292	-2.3958	-2.1	-2.25	-2.4458	-2.0604	-2.3771	-2.2208	-1.8	-2.6083	-1.8333	-2.25	265.590	183.237	116.160	254.386	276.126	240.731	398.101	132.120	140.250	105.462	393.993	362.222	398.950	77.549	208.777	255.403	0.00058334	0.0004285	4.5093e-05	602.02	3.6588e-06	5.0405e-06	581.11	219.75	6.0541e-06	3.4267e-06	223.85	102.19	100.19	45.718	3.9253e-06	49.029	0.00061268	0.00060969	0.00016631	600	6.1562e-06	6.7145e-06	581.13	220.26	6.5846e-06	6.6997e-06	224.84	102.94	100.44	46.098	6.7602e-06	49.446	110.082	136.593	159.247	58.975	187.289	210.641	57.905	62.930	198.122	183.637	60.406	63.724	65.711	69.175	197.252	66.905	-8191	255	
27484.637	1	1	0	0	0.16653	0.16685	0.094325	0.19979	0.28261	0.42805	0.3459	0.12304	0.126	0.062415	0.15973	0.20511	0.36397	0.055686	0.081297	0.18723	-1.95	-1.9438	-2.0958	-2.2917	-1.8833	-2.3104	-2.2792	-2.1229	-2.475	-2.0687	-2.2479	-2.4396	-2.0542	-2.5208	-2.2542	-2.0917	202.184	205.639	384.691	403.864	167.968	187.060	356.306	392.462	236.282	175.803	45.683	386.618	404.033	388.506	345.478	46.760	0.00058636	0.00021757	7.9614e-05	602.95	3.7528e-06	5.1872e-06	584.31	221.5	3.7626e-06	3.7246e-06	225.2	102.82	100.58	45.598	4.5767e-06	48.97	0.00062003	0.00062602	0.00017427	603.66	6.3792e-06	6.6022e-06	583.86	221.74	6.2971e-06	6.8199e-06	225.15	103.45	100.75	46.046	6.8893e-06	49.44	111.752	144.061	134.981	59.002	201.940	176.397	57.698	62.541	174.172	214.080	60.332	63.648	65.686	69.245	196.520	67.031	-8191	255	
27484.732	1	1	0	0	0.15958	0.31794	0.16142	0.042033	0.33876	0.18193	0.05271	0.1754	0.22146	0.15645	0.11792	0.13025	0.23822	0.35339	0.090544	0.29995	-1.9417	-2.0458	-2.2687	-2.2667	-1.9104	-2.4938	-2.3292	-2.1146	-2.3563	-2.1167	-2.2354	-2.3333	-2.0604	-2.4521	-2.2833	-2.0542	270.670	239.800	176.083	214.936	286.322	231.934	400.342	319.473	144.197	245.153	352.791	384.565	337.451	381.925	353.130	347.429	0.00054385	0.00039323	0.00010916	602.86	2.7838e-06	4.3603e-06	583.21	221.47	3.6145e-06	4.0335e-06	224.1	102.38	100.36	45.39	3.6184e-06	48.67	0.00058733	0.00060351	0.00016755	602.39	6.1902e-06	6.449e-06	582.42	221.59	6.2138e-06	6.5204e-06	224.62	102.8	100.5	45.799	6.7452e-06	49.169	108.737	140.484	125.557	58.959	179.102	204.914	57.907	62.481	181.582	203.874	60.350	63.833	65.694	69.236	212.326	66.757	-8191	255	
27484.828	1	1	0	0	0.22814	0.20031	0.075988	0.19684	0.12387	0.08437	0.14806	0.040914	0.050482	0.41491	0.31372	0.19369	0.20002	0.25378	0.090609	0.071722	-2.0062	-1.9625	-2.2	-2.3958	-2.1	-2.2583	-2.2083	-2.0312	-2.4479	-2.1083	-2.0333	-2.4688	-2.0292	-2.1937	-2.3312	-2.0604	92.090	299.038	68.213	325.785	287.700	364.263	317.102	193.433	245.375	125.573	383.013	135.196	72.945	98.354	122.328	157.268	0.00057502	0.00039901	0.00014034	604.4	3.747e-06	3.8778e-06	581.56	221.32	4.8942e-06	3.4423e-06	224.3	102.86	100.04	45.435	3.921e-06	48.972	0.00058043	0.00060491	0.00016626	601.18	6.0664e-06	6.334e-06	581.46	221.77	5.9969e-06	6.4961e-06	224.95	102.98	100.35	45.819	6.6173e-06	49.209	112.540	129.855	131.787	59.072	190.316	209.589	58.005	62.539	187.729	211.088	60.192	63.659	65.508	69.535	197.142	66.730	-8191	255	
27484.924	1	1	0	0	0.17003	0.37068	0.19075	0.26418	0.16477	0.32102	0.23587	0.17959	0.20167	0.12314	0.142	0.1705	0.13641	0.51731	0.12377	0.097791	-1.8833	-2.0854	-2.0812	-2.5312	-2.0458	-2.2646	-2.3396	-2.0438	-2.325	-2.1292	-2.0896	-2.5104	-2.2771	-2.3667	-2.3771	-2.0896	165.090	385.076	360.457	324.482	395.973	178.215	216.975	390.558	183.459	271.104	135.150	77.908	357.456	368.913	311.788	363.325	0.00062353	0.00043851	0.00011545	603.23	3.9955e-06	3.9185e-06	583.31	222.18	3.9986e-06	3.3267e-06	223.82	102.89	99.963	45.296	4.4132e-06	49.182	0.00059	0.00055306	0.00015871	601.82	5.5946e-06	6.4754e-06	581.2	221.39	5.9344e-06	6.3805e-06	224.94	103.22	100.5	45.866	6.335e-06	49.405	109.701	141.300	117.031	58.927	185.292	193.118	57.821	62.627	169.876	221.304	60.299	63.647	65.660	69.417	190.599	66.532	-8191	255	
27485.020	1	1	0	0	0.10672	0.038451	0.12291	0.12173	0.26789	0.25306	0.15303	0.13709	0.13636	0.12336	0.29844	0.19627	0.21439	0.19768	0.052301	0.13139	-1.875	-1.9167	-1.8417	-2.5083	-2.025	-1.9562	-2.325	-1.9958	-2.3438	-2.1792	-2.1188	-2.6146	-2.15	-2.1729	-2.2229	-2.0563	360.923	53.158	280.929	249.967	190.118	275.313	286.338	367.766	258.615	321.457	275.548	341.571	223.277	312.937	186.977	368.739	0.00054202	0.00036904	0.00015051	602.15	4.6269e-06	4.5211e-06	583.69	220.33	4.5217e-06	3.8612e-06	227.39	103.18	100.44	45.685	4.2989e-06	49.208	0.00057115	0.00058117	0.00016562	601.6	5.6688e-06	6.5335e-06	582.77	221.27	6.0727e-06	6.5401e-06	225.87	103.32	100.68	45.971	6.4188e-06	49.605	110.849	130.988	139.334	58.985	196.246	207.136	57.678	62.368	197.213	168.714	60.291	63.740	65.793	69.203	196.862	66.815	-8191	255	
27485.115	1	1	0	0	0.048149	0.41283	0.18832	0.30037	0.29544	0.16817	0.19682	0.17578	0.19842	0.19259	0.091752	0.16966	0.022148	0.17958	0.22037	0.25656	-1.9042	-2.2354	-1.9292	-2.3417	-2.0062	-2.0583	-2.4667	-2.0563	-2.1167	-2.2271	-2.2208	-2.6	-2.0542	-2.1333	-2.3187	-2.175	85.546	367.894	356.557	356.656	338.391	264.989	364.567	348.077	172.631	206.076	76.733	329.128	119.537	117.203	111.898	335.587	0.0006057	0.0004406	0.00010132	607.68	3.779e-06	3.8267e-06	588.4	222.28	3.3592e-06	4.6289e-06	226.59	103.15	100.1	45.763	4.2951e-06	49.313	0.00058828	0.00061529	0.00016762	606.3	6.1177e-06	6.8935e-06	585.84	222.41	6.3833e-06	6.6872e-06	226.87	103.54	100.83	46.094	6.8393e-06	49.651	110.086	134.271	127.698	59.147	163.504	191.505	57.886	62.426	191.633	187.567	60.540	64.034	65.868	69.092	203.569	66.741	-8191	255	
27485.213	1	1	0	0	0.19988	0.046413	0.1511	0.19875	0.18836	0.042942	0.39923	0.37731	0.26048	0.29658	0.18263	0.24781	0.15258	0.2618	0.099834	0.23816	-1.7458	-2.2687	-1.8979	-2.3833	-2.1917	-2.1583	-2.3833	-2	-2.2458	-2.2896	-1.9292	-2.3833	-2.1292	-2.1083	-2.5563	-2.2833	360.212	323.043	346.207	337.244	302.549	161.621	289.246	304.274	237.100	176.410	103.285	336.516	113.651	370.175	346.323	374.985	0.00056464	0.00028895	0.00012865	607.34	3.8796e-06	4.6695e-06	587.25	222.88	4.0794e-06	2.7839e-06	227.18	103.59	100.65	45.705	4.9857e-06	49.527	0.00060899	0.00062935	0.00017864	605.75	6.3592e-06	7.1828e-06	586.62	222.9	6.4897e-06	6.879e-06	227.07	103.58	101.09	46.083	6.8465e-06	49.531	110.478	156.314	146.150	58.995	182.101	183.145	57.823	62.481	191.523	199.989	60.519	64.150	65.637	69.152	195.623	66.649	-8191	255	
27485.309	1	1	0	0	0.23585	0.12097	0.2031	0.077367	0.15625	0.17285	0.17279	0.14129	0.1491	0.18153	0.20826	0.04831	0.35019	0.23216	0.15788	0.13109	-1.7229	-2.2938	-1.8208	-2.575	-2.2646	-1.9958	-2.5062	-2.2125	-2.0771	-2.2812	-2.1646	-2.3542	-2.3396	-2.1542	-2.3771	-2.1937	194.333	270.623	387.059	291.093	400.268	303.017	273.129	257.611	115.218	191.789	261.974	52.431	61.230	54.563	230.084	384.127	0.00061172	0.00036504	0.00013009	608.88	2.5747e-06	3.1194e-06	589.64	223.68	4.2757e-06	2.9504e-06	227.75	103.5	101.27	45.736	4.754e-06	49.091	0.00062483	0.00064317	0.00018071	608.13	6.5616e-06	7.4081e-06	588.2	223.71	6.6141e-06	7.1745e-06	228.46	104.06	101.25	46.168	7.0015e-06	49.56	109.361	154.601	128.104	58.997	185.300	169.475	57.664	62.591	186.052	189.902	60.367	63.799	65.674	69.270	173.829	66.755	-8191	255	
27485.428	1	1	0	0	0.31705	0.11133	0.18776	0.19045	0.20724	0.17682	0.46263	0.2578	0.46415	0.1592	0.32034	0.095132	0.13734	0.29785	0.26064	0.12324	-1.6208	-2.3542	-1.9396	-2.2667	-2.1813	-1.8896	-2.425	-2.1354	-2.0229	-2.4646	-2.05	-2.4021	-2.4583	-2.0354	-2.2729	-2.2729	316.253	48.909	56.189	340.256	80.012	59.012	390.066	394.544	206.793	282.657	156.194	366.277	57.095	352.409	328.020	168.087	0.00059195	0.00031426	0.00012254	612.04	4.9179e-06	3.6586e-06	590.82	223.06	4.2365e-06	2.6169e-06	228.36	104.54	100.84	45.873	5.4787e-06	49.53	0.00063096	0.00065017	0.00018241	609.18	6.5828e-06	7.6498e-06	589.82	224.05	6.7106e-06	7.2041e-06	228.95	104.42	101.29	46.257	7.2573e-06	49.75	110.122	126.577	105.629	59.098	175.750	196.813	57.685	62.828	207.229	174.812	60.294	63.705	65.768	69.244	177.004	67.019	-8191	255	
27485.523	1	1	0	0	0.39743	0.052624	0.34829	0.2463	0.2311	0.093202	0.1953	0.20899	0.1121	0.22316	0.050857	0.0093129	0.19601	0.16301	0.22814	0.18538	-1.5958	-2.4813	-1.9438	-2.4771	-2.2375	-1.9042	-2.4958	-2.1437	-2.1833	-2.5708	-2.1667	-2.2896	-2.3583	-2.0396	-2.1667	-2.3292	382.767	360.032	341.288	381.472	111.509	229.128	84.667	342.810	71.160	391.147	52.929	341.895	277.005	352.868	361.667	130.020	0.00061566	0.00046675	9.9458e-05	613.11	4.982e-06	3.6389e-06	593.25	225.01	5.6799e-06	4.0533e-06	228.61	103.96	100.83	45.704	5.0297e-06	49.675	0.00063089	0.00064335	0.00018081	611.06	6.4372e-06	7.4061e-06	591.61	224.98	6.9177e-06	6.8153e-06	229.5	104.38	101.41	46.153	7.0281e-06	49.806	108.941	129.999	122.186	59.042	183.943	168.688	57.770	62.667	193.750	182.044	60.550	63.659	65.931	69.118	193.712	66.735	-8191	255	
27485.621	1	1	0	0	0.13595	0.080172	0.15172	0.27212	0.055299	0.37358	0.54009	0.053412	0.093487	0.29004	0.30592	0.22278	0.13957	0.33576	0.087528	0.12513	-1.4521	-2.5438	-2.1396	-2.2333	-2.5354	-1.8625	-2.4979	-2.3583	-1.9708	-2.3229	-2.0771	-2.0833	-2.6188	-2.1104	-2.2313	-2.5083	389.950	362.338	127.355	392.130	339.568	126.126	315.013	334.775	376.667	250.686	260.190	293.201	176.470	359.538	354.955	258.695	0.00057254	0.00033649	9.8374e-05	612.72	4.9468e-06	3.5955e-06	593.16	224.28	3.2304e-06	4.1307e-06	227.56	103.67	101.46	45.694	5.3576e-06	49.28	0.00062646	0.00064072	0.00018043	611.15	6.5761e-06	7.2641e-06	591.13	224.31	6.8888e-06	7.0996e-06	229.19	104	101.56	46.056	7.2609e-06	49.718	114.432	145.111	145.392	59.161	174.035	171.639	57.896	62.305	188.804	181.855	60.275	63.856	65.552	69.351	200.323	66.881	-8191	255	
27485.740	1	1	0	0	0.04316	0.039307	0.15705	0.066469	0.16287	0.09235	0.095775	0.17571	0.07196	0.24111	0.15327	0.38579	0.23314	0.27763	0.33735	0.46974	-1.4562	-2.6042	-2.0771	-2.3396	-2.5208	-1.9833	-2.4396	-2.4208	-1.8292	-2.3229	-2.1917	-2.1958	-2.3604	-2.4188	-2.1688	-2.3479	221.673	298.638	382.504	80.884	307.855	201.502	403.526	354.572	288.300	289.440	314.281	324.474	203.621	386.084	159.201	316.046	0.00060111	0.00044501	0.00013537	613.19	3.3082e-06	3.3649e-06	592.35	224.18	4.3494e-06	4.6367e-06	228.19	103.78	100.74	45.853	4.2652e-06	49.645	0.00063563	0.00062422	0.00017994	612.24	6.2008e-06	6.8334e-06	592.99	224.81	6.765e-06	6.9486e-06	229.2	104.23	101.25	46.262	7.1173e-06	49.921	112.970	143.274	126.768	59.091	186.281	218.413	57.806	62.618	187.263	162.329	60.609	63.988	65.662	69.277	199.565	66.665	-8191	255	
27485.812	1	1	0	0	0.21106	0.099836	0.16951	0.12816	0.28519	0.21808	0.26347	0.30028	0.081177	0.32078	0.19319	0.14758	0.20435	0.45817	0.14111	0.081596	-1.45	-2.3354	-2.2292	-2.0708	-2.3396	-2.0292	-2.1792	-2.4417	-1.7708	-2.3458	-2.4021	-1.9958	-2.5875	-2.0708	-2.35	-2.6146	143.449	362.335	93.544	74.109	51.791	244.436	339.081	284.704	393.871	94.130	236.590	297.470	345.294	380.758	353.270	248.202	0.00057744	0.00027222	8.8576e-05	617.63	3.5955e-06	3.9368e-06	597.62	226.25	4.0818e-06	4.0274e-06	231.22	104.82	101.63	45.729	5.3472e-06	49.512	0.0006203	0.00062655	0.00017725	615.76	6.0815e-06	6.7389e-06	596.16	226.24	6.5961e-06	6.9512e-06	231.11	104.75	101.79	46.24	6.9822e-06	50.005	113.519	134.681	126.954	59.034	160.970	183.927	57.939	63.018	169.594	199.349	60.150	63.994	65.848	69.335	208.644	66.958	-8191	255	
27485.908	1	1	0	0	0.22157	0.33583	0.27955	0.25603	0.15394	0.0935	0.30377	0.19141	0.15822	0.18481	0.09345	0.17426	0.18526	0.071965	0.063759	0.21639	-1.55	-2.2229	-2.1854	-2.0167	-2.3229	-1.9792	-2.0812	-2.5375	-2.0146	-2.3354	-2.3312	-2.1479	-2.3937	-2.1708	-2.1521	-2.5771	350.093	139.769	89.124	74.715	277.917	291.836	311.518	44.746	168.527	313.926	366.275	374.101	58.171	245.591	81.549	314.815	0.00061245	0.00033088	0.00014659	614.95	4.178e-06	4.8564e-06	597.92	225.68	4.9204e-06	5.6087e-06	231.42	104.64	101.54	45.886	4.1354e-06	49.575	0.00062321	0.00061768	0.00017556	614.65	6.0742e-06	6.7568e-06	597.19	225.87	6.3688e-06	6.7122e-06	231.55	104.91	101.97	46.296	7.1366e-06	49.903	110.681	127.294	125.359	58.989	183.325	205.271	57.481	62.533	179.385	190.651	60.284	63.634	65.466	69.263	181.698	66.718	-8191	255	
27486.029	1	1	0	0	0.17565	0.14882	0.18793	0.23028	0.02689	0.10521	0.22384	0.34148	0.22667	0.14481	0.067835	0.028746	0.38935	0.12996	0.066035	0.12464	-1.4729	-2.2188	-2.1979	-1.8771	-2.3771	-2.3792	-2.2375	-2.3229	-1.95	-2.2313	-2.3667	-1.9688	-2.5292	-2.4458	-2.0958	-2.5812	373.626	52.267	88.769	148.186	142.094	272.071	303.762	336.155	352.969	183.223	290.945	135.220	344.396	46.767	368.003	320.560	0.00056644	0.00040286	0.00010909	613.41	4.3178e-06	4.285e-06	592.72	224.26	3.9741e-06	5.3908e-06	230.11	103.71	101.39	45.517	2.7794e-06	49.417	0.00060994	0.00064276	0.00016974	612.35	6.121e-06	6.7621e-06	591.11	224.15	6.4249e-06	6.9676e-06	229.4	104.18	101.39	45.974	6.8091e-06	49.69	110.454	134.673	139.378	58.857	183.292	186.445	57.879	62.606	177.814	190.014	60.247	63.597	65.674	69.311	186.870	67.023	-8191	255	
27486.125	1	1	0	0	0.082668	0.31711	0.085854	0.13444	0.14051	0.15362	0.3812	0.1169	0.081326	0.072865	0.11308	0.14077	0.068997	0.18844	0.072385	0.19329	-1.4875	-2.2188	-2.4104	-2.0396	-2.2896	-2.3688	-2.1521	-2.425	-2.2417	-2.2958	-2.4208	-2.0625	-2.3833	-2.3688	-2.0042	-2.5021	378.023	180.428	207.555	380.103	378.974	60.522	315.437	53.849	325.975	229.384	99.288	283.998	100.236	89.269	194.513	167.915	0.00060128	0.00051209	8.5403e-05	612.8	3.6334e-06	5.4205e-06	594.11	224.31	3.6991e-06	4.6588e-06	228.67	103.85	101.34	45.615	4.4555e-06	49.19	0.00061197	0.0006388	0.00016995	611.89	6.2894e-06	6.8281e-06	590.95	224.08	6.4706e-06	6.9394e-06	229.15	104.1	101.49	45.935	6.5642e-06	49.697	108.004	163.326	151.145	58.911	166.896	195.523	57.755	62.600	205.629	204.585	60.050	64.070	65.936	69.444	212.191	66.642	-8191	255	
27486.221	1	1	0	0	0.14467	0.35169	0.25127	0.14309	0.20091	0.12697	0.060788	0.10041	0.20309	0.24968	0.19457	0.14885	0.056345	0.36243	0.18243	0.23138	-1.6417	-2.2708	-2.4021	-2.0875	-2.2229	-2.2479	-2.1542	-2.4292	-2.1458	-2.0271	-2.5479	-2	-2.1604	-2.2833	-1.9708	-2.3958	340.386	254.490	253.410	359.215	263.468	87.715	326.715	301.694	219.517	300.137	112.147	379.140	271.931	368.252	185.100	171.983	0.0005752	0.00031112	0.00011249	609.41	4.0452e-06	3.1849e-06	594.52	224.83	4.8189e-06	2.6849e-06	230.52	103.94	101.21	45.609	3.9148e-06	49.221	0.00061657	0.00063787	0.00016945	610.76	6.3062e-06	6.7872e-06	592.62	224.45	6.5238e-06	6.9873e-06	230.37	104.2	101.35	45.962	6.7928e-06	49.631	109.919	130.117	161.960	59.135	171.078	155.624	57.795	62.566	179.197	204.893	60.358	63.552	65.664	69.242	211.679	66.552	-8191	255	
27486.316	1	1	0	0	0.1182	0.052871	0.10541	0.19393	0.18359	0.11276	0.12987	0.17381	0.038062	0.073249	0.25668	0.28798	0.17722	0.17061	0.20444	0.24059	-1.7833	-2.2208	-2.3896	-2.0979	-2.325	-2.3833	-2.125	-2.5604	-2.2958	-2.0458	-2.6417	-2.1937	-2.0104	-2.4542	-1.9771	-2.4104	183.801	341.004	165.974	311.374	121.782	211.603	101.361	213.717	331.823	175.118	358.222	116.962	81.434	59.399	276.145	58.359	0.00056607	0.00042984	0.00011734	605.19	3.9804e-06	3.9819e-06	588.63	222.33	4.4949e-06	4.3482e-06	227.24	103.73	100.7	45.247	3.6622e-06	49.314	0.00061796	0.00062503	0.00016371	606.47	6.1601e-06	6.6636e-06	586.43	222.7	6.1351e-06	6.6734e-06	228.15	104.13	100.89	45.739	6.7741e-06	49.656	114.653	143.898	127.838	59.055	166.856	184.560	57.952	62.611	198.104	191.649	60.237	63.975	65.886	69.197	187.133	66.737	-8191	255	
27486.412	1	1	0	0	0.18413	0.090808	0.29837	0.27412	0.16877	0.16874	0.2029	0.15329	0.33062	0.21613	0.1806	0.47679	0.26832	0.18522	0.11428	0.27133	-1.8417	-2.0812	-2.3458	-2.1021	-2.175	-2.3917	-2.175	-2.4792	-2.3729	-1.9708	-2.3729	-2.1479	-2.2396	-2.2917	-1.9729	-2.3104	294.041	176.446	131.569	62.010	175.524	125.383	149.517	366.708	319.033	57.405	82.983	73.044	387.007	368.971	308.332	385.354	0.00059119	0.00028947	0.0001008	607.35	3.4197e-06	3.8544e-06	586.62	222.21	4.3419e-06	3.812e-06	227.63	103.46	99.891	45.293	4.896e-06	48.986	0.00061671	0.00060474	0.0001678	605.79	6.1952e-06	6.5778e-06	585.92	222.08	6.3329e-06	6.6747e-06	227.43	103.79	100.53	45.691	6.8133e-06	49.362	111.374	143.100	123.461	58.824	154.987	177.495	57.841	62.659	194.358	204.069	60.611	63.756	66.078	69.162	192.594	66.730	-8191	255	
27486.508	1	1	0	0	0.046474	0.12375	0.090401	0.18008	0.38093	0.39083	0.14641	0.1573	0.20628	0.12237	0.14544	0.13168	0.076052	0.10654	0.20902	0.054566	-1.8083	-1.9604	-2.3063	-2.1958	-2.1583	-2.6083	-2.1021	-2.1896	-2.2146	-2.05	-2.3208	-2.2667	-2.0854	-2.4833	-1.7667	-2.1417	98.784	362.564	120.782	331.906	221.552	95.220	71.435	57.339	132.065	269.443	219.127	92.887	125.969	394.478	394.083	56.415	0.00061399	0.00040524	7.9574e-05	603.27	3.2462e-06	3.0428e-06	585.43	220.49	1.8314e-06	3.752e-06	226.3	103.21	99.956	45.025	4.0377e-06	48.946	0.00060104	0.00061803	0.00016959	603.08	5.8305e-06	6.4318e-06	583.02	221.34	6.0669e-06	6.6314e-06	226.88	103.36	100.51	45.512	6.4683e-06	49.262	110.785	122.520	114.314	59.266	201.503	194.802	57.840	62.663	166.486	180.226	60.405	64.009	65.529	69.361	197.048	66.941	-8191	255	
27486.604	1	1	0	0	0.27947	0.20336	0.089358	0.12665	0.093058	0.219	0.17357	0.053524	0.13387	0.28369	0.30917	0.05971	0.19062	0.27886	0.080441	0.22426	-2.0292	-2.0521	-2.1792	-2.2625	-2	-2.5042	-2.2625	-2.2792	-2.2646	-2.1021	-2.3792	-2.2833	-1.9729	-2.5187	-2.0229	-2.2687	69.673	187.588	280.628	339.103	384.345	288.228	163.617	358.714	90.943	388.978	397.543	237.296	405.052	52.142	259.472	335.951	0.00062623	0.00033877	0.00012513	602.17	3.0712e-06	3.1231e-06	585.73	220.46	5.3685e-06	3.5432e-06	226.97	103.77	99.701	45.332	4.4403e-06	49.162	0.00060723	0.0005887	0.00016513	602.33	5.8601e-06	6.5289e-06	583.3	221.13	6.038e-06	6.4232e-06	226.74	103.66	100.5	45.779	6.385e-06	49.622	112.427	127.535	129.136	59.007	199.628	195.480	57.912	63.136	186.493	195.436	60.422	63.863	65.854	69.203	192.629	66.770	-8191	255	
27486.701	1	1	0	0	0.049584	0.1365	0.023712	0.19509	0.26566	0.1571	0.082585	0.23175	0.38011	0.082225	0.30485	0.12851	0.16223	0.10025	0.23038	0.061098	-1.8792	-1.8479	-2.3479	-2.3625	-2.1604	-2.3104	-2.0708	-2.5229	-2.4313	-2.0938	-2.4708	-2.3063	-1.9062	-2.4437	-2.1063	-2.2479	328.105	355.393	137.177	49.698	172.177	124.184	115.223	104.265	139.316	232.112	59.666	232.889	384.491	168.393	196.281	402.296	0.00057429	0.00037269	7.5776e-05	608.03	5.3104e-06	4.5534e-06	581.97	220.87	3.3032e-06	3.988e-06	225.17	103.55	100.27	45.311	3.6376e-06	49.486	0.00058259	0.00058724	0.00016207	603.95	5.7999e-06	6.3796e-06	581.72	220.5	5.7777e-06	6.4297e-06	226.05	104.01	100.64	45.837	6.3121e-06	49.74	110.157	143.692	140.035	59.145	197.500	199.262	57.861	62.756	198.347	183.556	60.295	63.745	65.991	69.232	210.831	66.953	-8191	255	
27486.820	1	1	0	0	0.29443	0.1718	0.1712	0.093764	0.043524	0.17244	0.082447	0.22091	0.3023	0.12695	0.08589	0.14178	0.15911	0.20726	0.14464	0.15363	-1.8875	-2.05	-2.2854	-2.3979	-1.8167	-2.3563	-2.3042	-2.1021	-2.4354	-2.2167	-2.4271	-2.3854	-1.975	-2.5021	-2.1937	-1.8979	201.710	189.954	345.172	268.227	380.047	146.313	306.199	305.859	142.796	71.262	366.468	151.668	391.591	54.122	372.892	182.637	0.00056958	0.0004119	0.00010955	603.51	3.0434e-06	4.3128e-06	587.19	220.02	4.2717e-06	3.8883e-06	225.39	103.38	100.12	45.264	3.2005e-06	49.229	0.00057227	0.00059272	0.00016368	600.04	5.7887e-06	6.268e-06	582.86	220.19	5.9385e-06	6.4468e-06	225.85	103.7	100.33	45.738	6.3048e-06	49.496	111.337	143.216	154.499	59.032	186.105	213.740	57.900	62.647	194.286	192.932	60.378	63.858	65.835	69.614	178.916	67.155	-8191	255	
27486.918	1	1	0	0	0.10611	0.12594	0.17839	0.29462	0.03894	0.083319	0.28717	0.1132	0.19904	0.094275	0.16439	0.1917	0.17405	0.33602	0.1905	0.21477	-1.9292	-1.9417	-2.0833	-2.3292	-2.0375	-2.4604	-2.3646	-2.2958	-2.2917	-2.1937	-2.4458	-2.4021	-1.9729	-2.2917	-2.2438	-2.1104	369.719	379.056	402.634	363.233	71.064	72.087	344.365	119.404	237.153	342.148	319.727	341.264	371.235	398.682	250.757	295.598	0.00058754	0.00024172	8.8656e-05	598.13	3.1978e-06	4.1426e-06	578.93	220.29	4.9067e-06	4.1023e-06	227.05	103.17	100.08	45.237	4.6317e-06	48.884	0.00057843	0.0005828	0.00015741	597.57	5.8049e-06	6.2363e-06	579.56	220.55	5.9379e-06	6.1703e-06	226.03	103.5	100.35	45.575	6.2439e-06	49.206	109.787	140.693	135.169	59.125	186.747	196.408	58.010	62.541	186.054	180.373	60.236	63.923	65.837	69.243	191.739	66.959	-8191	255	
27486.988	1	1	0	0	0.3177	0.025197	0.18075	0.034221	0.067249	0.046151	0.14007	0.12636	0.094601	0.21409	0.072327	0.057114	0.29279	0.15357	0.26329	0.12336	-1.9583	-1.8687	-2.0292	-2.4188	-1.8625	-2.2542	-2.3396	-1.9542	-2.5271	-2.2521	-2.4208	-2.5479	-1.9104	-2.3812	-2.2271	-2.1042	241.251	163.843	46.792	126.136	216.966	61.309	392.830	86.000	82.299	83.663	271.218	232.205	331.146	320.065	116.280	334.806	0.00056128	0.00040151	0.00011416	601.44	3.8147e-06	3.3334e-06	579.64	219.13	3.4282e-06	3.7044e-06	224.96	102.98	99.929	44.887	4.1536e-06	48.66	0.00056445	0.00055107	0.00015965	597.52	5.7469e-06	6.2686e-06	577.26	219.22	5.8193e-06	6.2215e-06	224.99	103.3	100.26	45.376	5.9749e-06	49.025	111.861	142.985	118.560	59.041	181.535	175.614	57.804	62.527	207.173	190.539	60.700	63.922	65.716	69.344	178.022	66.848	-8191	255	
27487.109	1	1	0	0	0.093263	0.14068	0.42201	0.25616	0.13176	0.16983	0.22239	0.15967	0.15999	0.31089	0.21904	0.17682	0.36924	0.46342	0.23155	0.33541	-2.0104	-2.0271	-1.9104	-2.3917	-1.95	-2.2979	-2.4083	-2.1646	-2.5271	-2.4146	-2.0271	-2.6292	-2.2167	-2.3646	-2.1312	-2.1604	81.523	374.401	303.373	160.234	198.927	78.552	48.513	391.482	233.882	317.695	46.215	355.659	46.307	363.367	56.832	279.783	0.00056972	0.00038828	8.4537e-05	596.4	5.1243e-06	2.8049e-06	577.86	218.14	3.5197e-06	3.3968e-06	224.44	103.01	99.852	44.987	4.6119e-06	49.11	0.00057829	0.00056846	0.00015674	595.12	5.8322e-06	6.1497e-06	575.31	218.69	5.688e-06	6.3174e-06	224.52	103.3	100.24	45.445	6.0708e-06	49.356	111.367	138.130	131.710	59.213	159.019	181.792	57.904	62.959	204.381	188.241	60.477	63.831	66.085	69.520	189.758	66.895	-8191	255	
27487.205	1	1	0	0	0.36934	0.34068	0.12355	0.08002	0.17122	0.0048471	0.026851	0.11125	0.051295	0.11147	0.1694	0.21086	0.13901	0.30344	0.14412	0.28006	-1.9937	-2.1854	-2.0042	-2.3563	-1.9104	-2.175	-2.45	-2.0333	-2.2271	-2.3271	-1.8604	-2.4896	-1.9958	-2.2521	-2.2938	-2.0979	317.889	338.853	331.115	112.871	373.910	90.093	357.550	167.831	263.577	99.423	359.565	322.776	96.359	394.827	50.382	391.403	0.00060311	0.00033049	6.1219e-05	595.73	3.4258e-06	3.7343e-06	578.89	219.47	4.8428e-06	3.3231e-06	225.02	103.45	99.499	44.922	4.5344e-06	48.74	0.00058896	0.00055872	0.00015916	594.51	5.869e-06	6.1788e-06	575.32	218.95	5.8297e-06	6.0895e-06	225.01	103.44	99.889	45.317	6.0539e-06	49.143	110.115	135.889	151.364	58.924	165.964	178.992	57.745	62.637	177.259	206.142	60.392	63.944	65.604	69.234	204.100	66.982	-8191	255	
27487.301	1	1	0	0	0.10764	0.13404	0.33717	0.11688	0.33635	0.30172	0.11276	0.29297	0.12004	0.16219	0.13854	0.32792	0.14196	0.32587	0.25986	0.099019	-1.9542	-2.0896	-1.825	-2.3479	-2	-2.1229	-2.5583	-1.9354	-2.2396	-2.2542	-2.0479	-2.2333	-2.0271	-2.1	-2.4062	-2.0667	323.279	81.339	283.181	188.882	123.103	293.237	100.561	90.289	110.986	99.660	315.296	52.575	278.063	296.466	131.060	358.455	0.00056968	0.0002843	0.00012042	597.33	4.4842e-06	3.8714e-06	577.41	218.49	3.8631e-06	5.4869e-06	223.87	102.71	99.387	44.713	4.3839e-06	48.774	0.00057694	0.00056898	0.00016144	596.2	5.9515e-06	6.4661e-06	574.79	218.73	5.9443e-06	6.1434e-06	223.92	102.65	99.76	45.228	6.1492e-06	48.957	109.440	118.537	119.813	59.247	183.788	191.775	57.657	62.753	171.137	184.569	60.573	63.761	65.516	69.365	209.258	66.681	-8191	255	
27487.422	1	1	0	0	0.15575	0.13815	0.099696	0.23809	0.13092	0.1497	0.2279	0.17153	0.25578	0.14746	0.11919	0.085694	0.3637	0.28405	0.31007	0.29027	-1.6688	-2.25	-1.9188	-2.3417	-2.3542	-2.1729	-2.4437	-2.1562	-2.0875	-2.3125	-2.0083	-2.3979	-2.3208	-2.2208	-2.4	-2.1708	273.942	226.937	128.526	339.483	393.767	182.508	159.927	359.099	370.657	238.020	328.949	267.353	363.183	383.499	224.403	360.616	0.00058579	0.00035054	0.00013807	598.63	4.0777e-06	4.0404e-06	578.75	218.19	4.9191e-06	4.4619e-06	224.53	102.89	99.503	44.887	4.0858e-06	48.504	0.00057674	0.00056268	0.00016181	597.39	5.671e-06	6.4714e-06	575.83	219.32	6.097e-06	6.261e-06	224.49	102.92	100.05	45.339	6.1184e-06	48.926	109.710	140.619	129.912	59.076	184.208	196.006	57.881	62.680	191.941	185.550	60.420	63.913	66.140	69.232	206.145	66.899	-8191	255	
27487.518	1	1	0	0	0.14857	0.069133	0.089554	0.24271	0.079358	0.092077	0.26947	0.21245	0.067178	0.18095	0.2506	0.13986	0.20011	0.33874	0.10098	0.076788	-1.6625	-2.3229	-2.0479	-2.4042	-2.3167	-1.9937	-2.4521	-2.3521	-2.0979	-2.3521	-2.0583	-2.3583	-2.2208	-2.2292	-2.325	-2.2313	187.523	229.443	257.004	350.684	236.622	225.503	341.735	358.804	319.975	334.137	378.697	369.174	52.878	76.483	160.051	139.582	0.00057263	0.00042084	0.00015601	600.69	3.1226e-06	3.5176e-06	580.29	220.2	5.4255e-06	3.9555e-06	226.68	103.08	100.04	44.766	3.278e-06	48.364	0.00059149	0.00059272	0.00016201	599.37	5.6097e-06	6.5229e-06	579.43	220.57	6.0287e-06	6.0777e-06	225.91	103.17	100.34	45.299	6.3289e-06	48.941	110.233	138.170	130.733	58.868	165.547	183.802	57.753	62.394	178.274	185.920	60.517	63.929	65.786	69.319	189.678	67.169	-8191	255	
27487.613	1	1	0	0	0.16333	0.1498	0.12965	0.017968	0.11472	0.22221	0.20666	0.080931	0.054722	0.47642	0.077649	0.029369	0.10268	0.016021	0.11478	0.20321	-1.5375	-2.3146	-2.3146	-2.275	-2.3979	-2.0167	-2.4521	-2.2583	-2.2396	-2.4354	-2.0146	-2.2083	-2.2479	-1.8917	-2.3104	-2.3417	299.599	159.740	212.755	361.366	328.997	301.936	304.180	350.307	180.923	64.229	390.409	56.991	358.352	46.425	93.520	320.869	0.00054235	0.00045087	0.00010161	605.25	3.8074e-06	3.4547e-06	585.17	222.19	4.0544e-06	2.7879e-06	226.98	103.51	100.39	45.212	4.4613e-06	48.961	0.00057122	0.00056175	0.00016652	603.31	5.6638e-06	6.6174e-06	582.94	221.89	6.0518e-06	6.2866e-06	227.41	103.73	100.72	45.588	6.2801e-06	49.258	109.397	149.984	126.731	59.120	176.646	194.635	57.993	62.500	188.762	214.031	60.123	63.662	65.576	69.209	187.879	66.939	-8191	255	
27487.709	1	1	0	0	0.16922	0.15586	0.18402	0.15592	0.19029	0.31986	0.3029	0.19208	0.20257	0.094756	0.35188	0.21963	0.20539	0.33431	0.19688	0.12591	-1.5708	-2.4688	-2.0396	-2.3646	-2.2458	-1.9375	-2.4354	-2.2646	-2.0021	-2.3417	-2.0312	-2.2292	-2.4979	-1.9729	-2.2375	-2.2938	307.723	301.768	166.080	318.577	104.626	73.370	180.745	349.956	116.576	319.815	56.954	72.964	310.178	333.139	335.523	298.956	0.00056492	0.00043005	8.454e-05	604.35	4.9799e-06	4.4847e-06	584.32	222.32	4.697e-06	4.0977e-06	227.5	103.12	100.45	45.045	3.902e-06	48.711	0.00057769	0.00058514	0.00016415	603.09	6.1902e-06	6.8598e-06	583.3	221.84	6.278e-06	6.4718e-06	227.37	103.46	100.97	45.541	6.759e-06	49.046	112.153	104.830	136.903	59.279	178.089	198.068	58.038	62.645	188.442	208.708	60.603	63.836	65.632	69.358	194.727	66.959	-8191	255	
27487.805	1	1	0	0	0.11509	0.1872	0.093374	0.34976	0.2768	0.14791	0.18991	0.087596	0.15315	0.26496	0.40961	0.21098	0.30609	0.20548	0.090491	0.32556	-1.6646	-2.3146	-2.1479	-2.2208	-2.4958	-2.0438	-2.5542	-2.3417	-2.0563	-2.4979	-2.1396	-2.2583	-2.5229	-2.1208	-2.3333	-2.5062	145.656	75.516	101.421	375.079	177.207	133.316	365.495	44.766	244.334	48.382	383.278	403.254	340.900	324.932	203.176	287.785	0.00059732	0.00032739	0.00013867	608.05	2.7749e-06	6.3074e-06	585.41	221.93	3.7416e-06	4.995e-06	227.61	103.34	100.69	45.121	3.6146e-06	48.668	0.0005941	0.00057423	0.00016938	604.29	5.9694e-06	7.0818e-06	583.72	222.48	6.3248e-06	6.7818e-06	227.58	103.75	101.08	45.526	6.7144e-06	49.001	112.992	132.138	147.904	58.973	186.635	189.402	57.731	62.578	162.681	200.852	60.156	63.728	65.916	69.332	195.145	66.761	-8191	255	
27487.900	1	1	0	0	0.2342	0.38487	0.18039	0.24428	0.2427	0.26423	0.21645	0.24046	0.09548	0.25319	0.33433	0.14477	0.23188	0.059533	0.17866	0.28527	-1.7167	-2.5083	-2.2542	-2.1562	-2.5229	-2.0042	-2.3083	-2.3688	-2.2417	-2.5354	-2.2188	-2.0958	-2.4313	-2.2021	-2.1458	-2.4729	245.081	211.591	235.820	311.075	193.157	76.137	338.845	367.076	308.799	56.467	382.041	68.484	300.135	318.853	178.735	331.639	0.00056868	0.00049318	0.00013193	608.14	3.0402e-06	2.5453e-06	587.14	221.35	5.2392e-06	7.6512e-06	227.62	103.1	100.58	45.162	3.7236e-06	48.929	0.00060943	0.00060264	0.00016726	605.74	5.9889e-06	6.8103e-06	584.84	222	6.2936e-06	6.877e-06	227.81	103.53	100.85	45.675	6.9086e-06	49.195	108.849	133.123	135.702	58.921	182.078	179.015	57.972	62.760	192.421	190.822	60.477	63.732	65.865	69.537	211.896	66.893	-8191	255	
27487.996	1	1	0	0	0.13563	0.30952	0.027643	0.19875	0.16604	0.046604	0.21661	0.1502	0.21632	0.16723	0.11318	0.25073	0.15543	0.046641	0.1302	0.073611	-1.4417	-2.2938	-2.1875	-2.0458	-2.3792	-2.0979	-2.3792	-2.4042	-2.0583	-2.4667	-2.325	-2.2104	-2.5167	-2.1333	-2.1042	-2.5583	183.499	172.109	372.862	295.012	137.350	159.556	132.424	371.863	276.198	128.681	383.647	395.918	305.220	187.539	404.381	245.326	0.00054819	0.00030622	0.00013436	609.49	5.4027e-06	3.7528e-06	589.84	222.93	3.2133e-06	3.8015e-06	228.51	103.49	100.88	45.43	4.3543e-06	49.019	0.00061052	0.0006199	0.00017053	607.81	5.9097e-06	6.6742e-06	587.64	222.72	6.5365e-06	6.7502e-06	228.68	103.87	100.93	45.841	6.9104e-06	49.378	112.479	95.029	132.949	59.144	180.935	218.588	57.723	62.599	203.234	193.477	60.181	63.956	65.942	69.319	193.412	66.742	-8191	255	
27488.117	1	1	0	0	0.062003	0.17491	0.25122	0.29634	0.23155	0.17402	0.2248	0.32654	0.35867	0.035038	0.22124	0.060089	0.1912	0.14474	0.10339	0.18345	-1.6187	-2.2792	-2.3354	-1.9062	-2.4083	-2.1479	-2.1292	-2.3271	-2.0083	-2.1771	-2.2458	-1.95	-2.525	-2.2292	-2.025	-2.5396	347.264	74.080	268.696	363.651	148.596	183.549	363.950	375.524	187.923	107.427	382.343	178.614	308.902	395.135	341.429	346.872	0.00058524	0.00030536	9.6006e-05	607.45	3.8703e-06	4.9509e-06	588.78	224.17	4.9928e-06	3.0311e-06	229.18	103.51	100.59	45.343	3.4095e-06	48.693	0.00060595	0.00062387	0.0001649	606.62	6.2409e-06	6.8658e-06	587.97	223.42	6.8217e-06	6.8704e-06	228.5	103.95	100.93	45.714	6.6933e-06	49.152	113.488	163.005	138.574	59.013	158.828	188.478	57.968	62.999	166.360	229.274	60.134	64.013	65.542	69.279	200.167	66.943	-8191	255	
27488.215	1	1	0	0	0.19076	0.12098	0.31984	0.10046	0.20299	0.4167	0.23251	0.13122	0.066046	0.31475	0.28308	0.47371	0.24548	0.25366	0.053006	0.1233	-1.6292	-2.175	-2.2646	-2.1813	-2.4896	-2.2354	-2.1854	-2.3542	-2.0146	-2.1333	-2.5271	-1.9562	-2.5979	-2.3792	-2.025	-2.4104	276.374	358.761	155.813	218.520	383.712	180.249	377.795	45.122	244.357	331.342	86.160	359.450	65.387	305.341	402.662	267.909	0.00060687	0.00054146	0.00010554	606.87	2.6442e-06	4.4716e-06	585.05	223.17	4.8709e-06	4.7428e-06	227.06	102.69	100.79	45.026	4.4303e-06	48.567	0.00061708	0.00061144	0.00017334	605.53	6.3067e-06	6.7951e-06	584.73	222.74	6.4162e-06	6.8724e-06	227.99	103.35	100.93	45.476	7.0787e-06	49.043	108.733	128.015	138.911	58.982	152.000	184.086	57.677	62.567	189.800	214.246	60.591	63.833	66.132	69.262	182.017	67.181	-8191	255	
27488.285	1	1	0	0	0.065994	0.071052	0.20352	0.12485	0.23525	0.16761	0.27191	0.27665	0.29929	0.14263	0.075769	0.10664	0.097613	0.094808	0.012482	0.074853	-1.6833	-2.3125	-2.5438	-2.0167	-2.3438	-2.2417	-2.1354	-2.5354	-1.9625	-2.0917	-2.4667	-2.1	-2.2458	-2.2792	-1.9771	-2.4604	209.916	237.167	199.394	392.214	226.662	334.554	402.351	381.128	214.592	105.211	105.952	50.108	343.160	385.824	116.156	368.504	0.00058602	0.00042109	9.29e-05	607.49	2.5409e-06	2.8641e-06	589.83	222.27	4.7161e-06	6.7826e-06	228.1	103.42	101.12	45.316	4.5734e-06	48.804	0.00062243	0.00059791	0.00016992	607.04	6.5097e-06	7.0527e-06	586.34	222.87	6.5955e-06	7.1095e-06	228.93	103.9	101.27	45.653	7.4473e-06	49.161	110.825	140.504	153.029	59.218	198.475	207.637	57.858	62.735	198.128	190.876	60.439	63.728	65.724	69.186	189.235	67.145	-8191	255	
27488.383	1	1	0	0	0.22781	0.17739	0.16328	0.30131	0.33185	0.10389	0.15836	0.13351	0.1559	0.10656	0.18165	0.38348	0.25623	0.072549	0.20997	0.079801	-1.7979	-2.025	-2.4479	-2.175	-2.2333	-2.3771	-2.0187	-2.4208	-2.2771	-2.1896	-2.4542	-2.0625	-2.4833	-2.5	-1.9937	-2.375	276.910	70.467	380.004	362.384	351.588	48.159	233.422	276.056	380.824	197.141	338.386	357.434	170.138	375.096	111.390	276.787	0.0005757	0.00040815	0.00011871	605.04	3.411e-06	2.8814e-06	588.58	223.79	3.7014e-06	4.3877e-06	228.17	104.11	101.36	45.225	5.3902e-06	48.88	0.00062304	0.00064102	0.0001744	606.21	6.498e-06	6.8763e-06	588.19	223.75	6.654e-06	7.365e-06	229.43	104.31	101.59	45.69	7.2054e-06	49.293	105.762	128.090	131.378	59.325	211.114	211.829	57.955	62.497	192.487	202.272	60.462	63.583	65.895	69.281	191.305	66.723	-8191	255	
27488.502	1	1	0	0	0.2625	0.1389	0.038043	0.20573	0.18326	0.26157	0.14922	0.28739	0.19627	0.072412	0.22584	0.28542	0.21052	0.17331	0.28227	0.041145	-1.6625	-2.0104	-2.3375	-2.1312	-2.2438	-2.3375	-2.0687	-2.1042	-2.1396	-2.0104	-2.575	-2.35	-2.3937	-2.4833	-1.9937	-2.3542	122.303	168.385	82.670	246.557	377.032	354.514	65.739	245.285	209.115	298.006	60.209	236.331	325.322	252.941	157.747	341.044	0.00059711	0.0002519	7.5053e-05	606.72	3.4872e-06	3.7706e-06	590.99	223.97	3.2375e-06	5.1644e-06	229.15	104.59	101.83	45.417	5.0768e-06	49.161	0.00062636	0.00067549	0.00017967	606.58	6.5961e-06	6.947e-06	589.83	223.8	6.8674e-06	7.2001e-06	230.2	104.72	101.84	45.911	7.159e-06	49.491	110.458	142.700	122.426	59.099	190.335	206.206	57.981	62.544	194.168	196.154	60.334	63.942	65.688	69.197	202.825	67.044	-8191	255	
27488.598	1	1	0	0	0.29836	0.24974	0.092697	0.14369	0.16794	0.081946	0.10659	0.29395	0.19798	0.29579	0.10877	0.03961	0.14949	0.22037	0.12538	0.2398	-2.0042	-1.9833	-2.5563	-2.2229	-2.2917	-2.2667	-1.9937	-2.3187	-2.1604	-2.1042	-2.3479	-2.0771	-2.0104	-2.3875	-1.9083	-2.2625	225.393	129.834	395.283	81.945	66.949	338.415	313.364	76.809	402.989	114.795	184.088	276.354	339.625	321.617	245.983	186.399	0.00057982	0.00015488	0.00012814	606.33	3.5671e-06	4.0922e-06	589.04	223.66	6.0714e-06	3.9421e-06	229.21	103.71	101.88	45.459	2.8243e-06	49.099	0.0006228	0.00063722	0.00017849	606.64	6.3809e-06	7.0804e-06	587.61	223.68	6.61e-06	7.2652e-06	229.11	104.17	101.67	45.908	7.2102e-06	49.409	108.625	135.509	118.352	58.876	169.592	186.984	57.702	62.588	170.906	198.735	60.411	63.824	65.848	69.287	198.854	66.936	-8191	255	
27488.693	1	1	0	0	0.12127	0.13923	0.15019	0.0824	0.13355	0.20417	0.27925	0.17537	0.21215	0.21202	0.34271	0.060966	0.29817	0.23623	0.026887	0.18849	-2.0687	-1.9292	-2.3	-2.175	-2.0167	-2.4333	-2.1542	-2.2792	-2.3125	-2.1979	-2.4708	-2.2979	-2.0771	-2.4417	-2.075	-2.25	199.437	106.128	115.440	313.658	53.705	119.858	336.148	283.251	223.755	151.428	203.294	205.827	269.242	72.204	101.889	80.992	0.00062099	0.00030822	0.00010876	609.77	3.6085e-06	2.1854e-06	591.28	223.74	4.0516e-06	3.7891e-06	228.66	104.13	101.36	45.523	2.5581e-06	48.845	0.00062267	0.00065717	0.00018209	609.44	6.4963e-06	7.0619e-06	590.25	223.95	6.3862e-06	7.0885e-06	229.98	104.28	101.61	45.817	7.0793e-06	49.386	108.958	153.943	126.936	58.928	182.532	180.613	57.998	62.364	193.981	173.342	60.463	63.825	65.800	69.450	238.080	67.045	-8191	255	
27488.789	1	1	0	0	0.15309	0.20892	0.039928	0.2689	0.23831	0.16528	0.31063	0.31309	0.0876	0.26275	0.22901	0.3778	0.15882	0.03386	0.16789	0.19452	-1.7812	-2.1125	-2.3729	-2.2271	-2.225	-2.5187	-2.0125	-2.2146	-2.5167	-1.8813	-2.1312	-2.3708	-2.0458	-2.525	-2.1104	-2.3208	229.374	147.357	65.520	142.898	392.434	400.979	310.972	396.622	187.268	180.145	345.831	341.390	176.237	67.737	127.310	54.053	0.00058428	0.00045961	0.00011964	607.31	4.5744e-06	5.1375e-06	591.81	223.28	4.3066e-06	3.7859e-06	229.1	104.65	101.17	45.358	3.3048e-06	49.116	0.00060476	0.000629	0.00017832	607.4	6.5738e-06	7.1115e-06	588.91	223.69	6.6788e-06	7.1233e-06	229.97	104.52	101.66	45.866	6.9581e-06	49.572	111.202	115.895	103.994	59.077	166.469	197.482	57.996	62.783	176.546	187.580	60.493	63.798	65.648	69.126	199.462	67.169	-8191	255	
27488.910	1	1	0	0	0.41076	0.12085	0.16107	0.16783	0.12322	0.14668	0.18185	0.32134	0.20528	0.32068	0.20272	0.21218	0.08107	0.054048	0.14942	0.38947	-1.9438	-1.9729	-2.2375	-2.3167	-1.925	-2.3917	-2.2562	-2.3167	-2.4062	-1.8708	-2.4062	-2.4125	-1.9208	-2.3604	-2.2396	-2.1708	65.485	65.370	379.830	385.397	215.204	291.307	394.062	293.416	351.809	299.915	398.052	226.967	45.803	72.269	396.473	310.044	0.0005841	0.00038747	0.00013009	608.4	4.6716e-06	2.6489e-06	591.94	223.57	2.5803e-06	5.405e-06	228.85	104.24	101.25	45.603	3.3803e-06	49.288	0.00062473	0.00064906	0.00017479	608.07	6.5744e-06	7.0897e-06	589	223.47	6.3613e-06	7.1423e-06	229.65	104.69	101.92	46.016	7.2121e-06	49.797	105.238	109.495	111.383	58.990	190.798	171.720	57.757	62.725	198.747	188.337	60.530	63.665	65.581	69.292	203.881	67.161	-8191	255	
27488.980	1	1	0	0	0.39314	0.10255	0.14108	0.14447	0.12471	0.049433	0.092015	0.18533	0.099309	0.16447	0.070395	0.12648	0.27627	0.27445	0.28859	0.26654	-1.9979	-2.0896	-2.2479	-2.3854	-1.9729	-2.3979	-2.2313	-2.2646	-2.4979	-2.1312	-2.1833	-2.5167	-2.2042	-2.3917	-2.3042	-2.1979	221.715	206.567	240.854	88.437	108.278	119.939	169.999	200.864	160.470	57.975	246.275	357.232	361.047	392.658	267.211	308.461	0.00056529	0.0004168	8.4295e-05	607.82	4.2763e-06	4.0164e-06	591.27	224.08	3.8285e-06	5.4573e-06	229.17	104.21	101.61	45.228	4.1228e-06	48.983	0.00059958	0.00063232	0.00017383	607.55	6.5911e-06	7.1789e-06	589.16	224.5	6.7656e-06	7.1154e-06	230.35	104.53	101.71	45.752	6.9931e-06	49.398	116.064	162.049	144.319	58.983	185.768	172.690	57.895	62.573	190.498	203.307	60.496	64.012	65.878	69.362	180.712	67.068	-8191	255	
27489.102	1	1	0	0	0.17879	0.090997	0.30153	0.24056	0.26813	0.078182	0.26952	0.11249	0.16331	0.068012	0.17246	0.053915	0.20153	0.25314	0.30131	0.27404	-2.1083	-2.1396	-2.2646	-2.65	-1.9979	-2.4646	-2.3563	-2	-2.4583	-1.9813	-2.1271	-2.3896	-1.9062	-2.4354	-2.25	-2.1458	319.099	57.779	346.620	364.285	394.076	380.012	369.238	366.086	138.240	187.349	268.881	326.889	45.636	399.081	346.141	335.745	0.00060565	0.00032912	5.3147e-05	604.96	3.4582e-06	3.7319e-06	587	223.9	3.6451e-06	3.6045e-06	230.68	104.1	101.45	45.317	5.2072e-06	49.214	0.00062057	0.00060695	0.00017187	604.85	6.5621e-06	7.1577e-06	586.33	223.48	6.7164e-06	6.9676e-06	229.84	104.61	101.73	45.799	7.3092e-06	49.546	108.550	152.624	156.540	58.943	180.667	192.303	57.998	62.862	191.966	163.919	60.470	63.891	65.850	69.008	201.412	67.171	-8191	255	
27489.197	1	1	0	0	0.076904	0.11271	0.15719	0.40867	0.10362	0.20679	0.078927	0.29831	0.11861	0.24327	0.15135	0.17402	0.41826	0.23478	0.21415	0.3453	-1.6688	-2.1542	-2.1042	-2.4313	-2.0229	-2.3229	-2.3958	-2.1125	-2.3208	-2.0792	-2.1625	-2.6042	-1.9854	-2.4042	-2.3958	-2.2146	179.980	81.165	69.811	355.211	95.596	165.885	200.923	333.561	195.107	113.773	379.267	78.448	51.439	356.759	116.080	295.887	0.00062713	0.00025883	0.00012172	607.49	3.6312e-06	4.5472e-06	590.84	221.97	3.9233e-06	3.6398e-06	230.09	104.24	101.17	45.395	3.4801e-06	49.162	0.00064003	0.00062451	0.00018454	607.84	6.6753e-06	7.2535e-06	588.52	223.54	6.4729e-06	7.1351e-06	230.43	104.74	101.79	45.813	7.1077e-06	49.62	108.146	134.146	127.964	58.970	193.809	180.083	57.602	62.398	199.040	184.188	60.549	63.987	65.844	69.497	204.795	66.945	-8191	255	
27489.295	1	1	0	0	0.19736	0.094362	0.14762	0.2065	0.22368	0.11556	0.18019	0.3761	0.18886	0.20909	0.20724	0.09366	0.10325	0.083811	0.065624	0.4156	-1.7667	-2.1688	-2.0354	-2.4583	-2.0375	-2.0771	-2.5563	-2.075	-2.2104	-2.3167	-2.0854	-2.4313	-2.1	-2.1604	-2.4625	-2.1875	49.243	305.244	235.846	372.426	177.210	163.870	115.482	81.612	166.641	308.937	124.003	290.706	327.748	118.876	209.694	379.240	0.00058671	0.00043678	0.00010186	609.14	4.2091e-06	2.2829e-06	591.87	224.57	4.3408e-06	2.5375e-06	230.29	105.24	101.26	45.305	2.7478e-06	49.063	0.00063631	0.00064259	0.00017998	607.52	6.5209e-06	7.2165e-06	589.28	223.89	6.7471e-06	7.0307e-06	231.01	105.21	101.97	45.909	7.0401e-06	49.797	106.272	129.862	131.324	58.863	174.313	191.768	57.798	62.542	191.941	168.379	60.541	63.679	66.020	69.165	187.457	67.065	-8191	255	
27489.391	1	1	0	0	0.27413	0.15854	0.25997	0.1008	0.21335	0.2024	0.20731	0.012865	0.098228	0.16162	0.31238	0.051929	0.18427	0.30677	0.022094	0.17464	-1.9354	-2.4417	-1.9	-2.4417	-2.0438	-2.1375	-2.4417	-2.1667	-2.3375	-2.325	-2.1625	-2.4458	-2.1542	-2.375	-2.4688	-2.1083	242.031	219.661	217.662	379.566	257.871	136.062	78.253	227.159	89.806	241.311	334.585	402.975	346.388	359.707	110.651	371.631	0.00055185	0.00043361	9.5609e-05	609.52	4.8161e-06	4.7169e-06	589.87	222.94	5.0953e-06	5.4945e-06	230.34	104.62	101.51	45.277	3.7892e-06	49.105	0.00062409	0.00065694	0.00018107	607.11	6.3815e-06	7.0606e-06	588.7	223.53	6.5753e-06	7.0064e-06	230.7	105	102	45.776	7.3363e-06	49.547	107.675	111.291	140.981	59.026	171.146	229.919	57.621	62.689	167.863	177.423	60.726	63.719	65.904	69.535	183.302	66.876	-8191	255	
27489.510	1	1	0	0	0.32715	0.10769	0.035126	0.1288	0.13671	0.096208	0.15604	0.17418	0.14045	0.26179	0.093071	0.17181	0.10765	0.15287	0.1484	0.1152	-1.7396	-2.3604	-1.8208	-2.5563	-2.2562	-2.1229	-2.5062	-2.0604	-2.1688	-2.2667	-2.0083	-2.4062	-2.4083	-2.0479	-2.4208	-2.2417	145.560	385.772	87.446	403.191	151.137	379.966	195.070	312.624	349.331	260.616	58.298	298.899	309.794	247.946	111.337	368.591	0.00059257	0.00040541	8.9578e-05	606.16	5.1619e-06	2.8621e-06	592.5	224.07	4.7588e-06	4.8441e-06	231.27	104.89	101.98	45.276	2.6269e-06	49.04	0.00062568	0.00063886	0.00018689	605.39	6.4679e-06	7.2872e-06	589.1	223.8	6.6632e-06	7.0964e-06	230.37	105.06	101.98	45.772	6.8224e-06	49.526	107.442	141.629	151.526	58.857	184.949	210.723	57.834	62.840	184.042	183.709	60.530	63.886	65.785	69.403	160.024	67.031	-8191	255	
27489.580	1	1	0	0	0.12287	0.10855	0.25616	0.17568	0.16092	0.19449	0.076736	0.23568	0.20357	0.25861	0.10468	0.14579	0.22425	0.34658	0.16081	0.1183	-1.8875	-2.3708	-2.0354	-2.4021	-2.175	-2.0854	-2.5104	-2.0646	-2.1375	-2.4417	-2.1063	-2.4792	-2.3563	-2.2333	-2.4479	-2.2521	111.087	130.356	184.099	326.873	288.394	194.093	373.177	45.962	213.418	356.287	324.253	331.096	61.104	370.431	249.041	358.334	0.00057561	0.0004483	0.00011908	609.08	3.2626e-06	3.3442e-06	590.31	223.02	4.0618e-06	4.5984e-06	229.81	104.89	102.04	45.433	4.0034e-06	49.294	0.00061783	0.00064516	0.00018104	606.18	6.3603e-06	7.2066e-06	588.52	223.55	6.4475e-06	7.0596e-06	230.56	105.17	102.01	45.85	6.826e-06	49.772	110.865	118.766	151.615	59.158	200.792	204.187	57.873	62.629	162.443	193.904	60.557	63.918	66.065	69.427	189.519	67.049	-8191	255	
27489.678	1	1	0	0	0.153	0.35851	0.32864	0.21085	0.12618	0.083999	0.38373	0.2648	0.17025	0.26708	0.078627	0.13207	0.22725	0.22304	0.22481	0.059694	-1.7479	-2.4396	-2.075	-2.4521	-2.2313	-2.0146	-2.4188	-2.3083	-2.0542	-2.4125	-2.1688	-2.4188	-2.2854	-1.9229	-2.5187	-2.1729	62.242	134.412	330.650	404.063	49.909	62.821	392.150	124.859	269.736	382.508	298.105	179.401	364.354	77.056	360.271	191.831	0.00058605	0.00031381	0.00012318	607.28	3.5035e-06	1.8326e-06	587.97	223.44	5.6883e-06	3.7231e-06	230.94	104.87	101.87	45.564	4.4505e-06	49.792	0.0006312	0.00064492	0.00017795	606.91	6.3737e-06	7.1049e-06	588.71	223.84	6.6765e-06	6.921e-06	230.64	105.32	102.09	45.948	6.5051e-06	49.972	109.080	131.465	147.154	59.011	194.428	206.028	57.798	62.826	189.858	198.135	60.480	63.830	65.801	69.343	202.055	66.932	-8191	255	
27489.799	1	1	0	0	0.08494	0.26797	0.10246	0.10433	0.1871	0.25096	0.30251	0.33168	0.10362	0.16358	0.17052	0.28361	0.062679	0.10729	0.24078	0.22729	-1.6083	-2.4333	-2.0833	-2.1417	-2.3458	-2.0229	-2.3021	-2.0667	-2.0042	-2.3438	-2.0375	-2.1354	-2.5187	-2.2042	-2.5375	-2.425	381.323	157.008	230.469	273.867	160.034	343.402	345.702	324.172	159.312	110.321	389.100	57.181	323.823	347.742	114.950	345.023	0.00064327	0.0004049	0.00013374	610.28	3.5812e-06	4.5043e-06	590.78	223.86	3.8557e-06	3.8637e-06	230.78	105.31	101.95	45.567	4.1538e-06	49.668	0.0006292	0.0006367	0.00018006	607.32	6.2911e-06	7.1273e-06	590.55	224.44	6.4989e-06	6.7647e-06	230.98	105.58	102.13	45.965	6.7536e-06	49.911	112.323	122.354	129.022	59.171	178.509	205.167	57.831	62.674	177.324	177.064	60.734	64.178	66.110	69.405	179.968	67.044	-8191	255	
27489.895	1	1	0	0	0.17002	0.20953	0.10935	0.089455	0.13343	0.28305	0.24726	0.29086	0.11356	0.24038	0.26962	0.11435	0.035552	0.31188	0.14679	0.11505	-1.5792	-2.5604	-2.2146	-2.4	-2.4583	-2.0583	-2.3271	-2.3271	-2.0479	-2.4375	-2.3271	-2.2167	-2.4646	-2.1417	-2.5021	-2.4229	223.187	82.293	70.220	224.261	82.779	241.762	338.228	69.104	324.983	331.308	382.308	115.252	195.579	351.771	180.087	309.348	0.00056476	0.0003639	0.00011175	606.38	3.8658e-06	3.0225e-06	587.5	223.66	3.7725e-06	4.2627e-06	229.34	104.81	101.47	45.359	5.5074e-06	49.367	0.00061701	0.00061273	0.00017116	605.37	6.3212e-06	7.0217e-06	584.74	222.99	6.5047e-06	6.68e-06	229.79	104.97	101.77	45.881	6.9261e-06	49.758	111.849	152.679	125.277	59.025	176.350	207.260	57.642	62.619	172.682	192.723	60.589	63.999	65.679	69.413	197.017	66.747	-8191	255	
27489.990	1	1	0	0	0.35455	0.17429	0.04601	0.1678	0.12286	0.32676	0.13906	0.39003	0.26724	0.066576	0.12545	0.15807	0.23744	0.19972	0.15829	0.38095	-1.7271	-2.3854	-2.1667	-2.1583	-2.4021	-2.1312	-2.3896	-2.3708	-2.0521	-2.5062	-2.2021	-2.1333	-2.5167	-2.1125	-2.3708	-2.4417	111.281	188.268	91.808	83.290	173.765	378.979	329.833	384.893	358.884	398.509	388.323	303.421	381.924	199.441	270.629	320.366	0.00059691	0.00049888	0.00013143	606.36	3.978e-06	3.9789e-06	589.57	221.38	3.9041e-06	3.0718e-06	228.87	105.04	101.86	45.539	2.4729e-06	49.204	0.00063319	0.00061547	0.00016902	604.2	6.3101e-06	6.7317e-06	586.53	222.2	6.5967e-06	6.3982e-06	229.6	105.11	102.01	45.919	6.7524e-06	49.815	113.526	122.801	147.561	59.264	198.496	187.165	57.885	62.724	158.153	213.489	60.646	63.756	65.815	69.451	213.380	66.963	-8191	255	
27490.086	1	1	0	0	0.3397	0.39749	0.0988	0.3753	0.26768	0.092181	0.12347	0.086125	0.24457	0.25166	0.086647	0.29442	0.18558	0.16476	0.22282	0.20762	-1.4813	-2.3708	-2.175	-2.225	-2.5958	-2.1292	-2.3417	-2.3917	-2.1292	-2.3271	-2.3333	-2.1542	-2.6604	-2.1854	-2.2396	-2.4479	166.744	150.676	174.867	353.861	75.763	189.446	357.376	349.528	90.566	344.939	64.963	285.815	60.461	348.724	164.035	353.161	0.00059595	0.00032442	9.7671e-05	603.72	3.6039e-06	2.4235e-06	587.77	222.26	3.2236e-06	4.1476e-06	230.14	104.69	101.84	45.391	3.9095e-06	49.419	0.00061187	0.00060824	0.00017156	603.51	5.8216e-06	6.5936e-06	585.04	222.63	6.4469e-06	6.6261e-06	230.08	105.14	101.88	45.931	6.5147e-06	49.88	109.953	157.048	124.180	59.013	163.039	189.718	57.819	62.475	195.299	200.781	60.336	63.897	66.115	69.432	200.653	66.953	-8191	255	
27490.184	1	1	0	0	0.14931	0.22348	0.048299	0.29492	0.12236	0.061288	0.35042	0.20749	0.37298	0.082776	0.23471	0.10543	0.15063	0.086161	0.16717	0.061742	-1.6896	-2.2667	-2.3104	-2.1958	-2.3521	-2.1792	-2.2687	-2.4688	-2.0917	-2.3292	-2.3896	-2.1792	-2.4938	-2.0417	-2.2167	-2.7146	161.841	334.395	367.468	373.080	190.374	288.408	342.376	387.455	238.761	95.777	395.034	220.136	213.204	233.133	322.784	125.711	0.00056755	0.00038475	0.00011989	609.42	3.661e-06	4.3136e-06	584.97	221.84	4.781e-06	3.1592e-06	228.76	105.23	101.28	45.423	4.0606e-06	49.803	0.0006048	0.0005943	0.00017282	606.29	5.9945e-06	6.7039e-06	585.81	222.65	6.2948e-06	6.7325e-06	229.44	105.49	101.9	45.897	6.8387e-06	50.09	111.352	146.698	147.622	58.906	182.451	184.260	57.759	62.899	176.059	190.405	60.597	63.729	65.940	69.350	195.273	67.068	-8191	255	
27490.279	1	1	0	0	0.056718	0.15188	0.12543	0.2695	0.1806	0.14812	0.012857	0.11769	0.22573	0.15311	0.03284	0.44032	0.40213	0.13455	0.077743	0.15662	-1.5812	-2.35	-2.2708	-2.25	-2.525	-2.1875	-2.2729	-2.6063	-2.3146	-2.4583	-2.5375	-2.0375	-2.5	-2.4646	-2.2188	-2.6646	154.509	118.984	103.515	304.449	400.589	113.707	202.739	342.115	377.605	145.091	226.009	347.596	345.060	371.057	399.512	63.178	0.00058353	0.0003449	9.0705e-05	607.16	3.6473e-06	3.0494e-06	586.88	224.36	3.4506e-06	3.2251e-06	230.5	105.23	101.24	45.523	5.0012e-06	49.306	0.00060378	0.00061897	0.00017175	604.04	6.0346e-06	6.6881e-06	584.66	222.87	6.2606e-06	6.5749e-06	229.4	105.16	101.86	45.851	7.022e-06	49.64	107.351	131.115	146.013	59.001	170.461	203.664	57.785	62.896	149.660	194.411	60.008	63.873	65.992	69.351	199.314	67.218	-8191	255	
27490.375	1	1	0	0	0.24523	0.08565	0.14596	0.15537	0.18453	0.21534	0.14737	0.26603	0.26544	0.11512	0.022467	0.18611	0.41644	0.1558	0.20416	0.16593	-1.7208	-2.35	-2.3792	-1.9792	-2.2938	-2.4396	-2.0604	-2.5625	-2.0479	-2.3583	-2.55	-2.0542	-2.6333	-2.3917	-2.1688	-2.4042	252.492	293.166	278.007	394.681	85.207	139.179	71.136	363.232	235.917	99.768	254.788	233.482	367.006	381.483	271.400	339.635	0.00059768	0.00032266	0.00014938	605.3	4.0905e-06	4.1279e-06	585.88	221.38	4.4358e-06	3.3027e-06	228.45	104.44	101.31	45.172	5.0671e-06	49.361	0.00059836	0.00061453	0.00017013	602.44	5.9644e-06	6.8684e-06	583.56	221.99	6.079e-06	6.6044e-06	228.8	104.81	101.69	45.745	6.6486e-06	49.7	108.626	140.756	137.575	58.992	183.986	206.776	57.767	62.772	187.661	219.225	60.361	64.061	65.581	69.440	186.196	66.905	-8191	255	
27490.471	1	1	0	0	0.22867	0.30468	0.15866	0.14989	0.052138	0.19968	0.1666	0.054749	0.15828	0.13685	0.096796	0.072436	0.060219	0.035376	0.25991	0.1536	-1.6063	-2.0854	-2.3333	-2.1292	-2.3354	-2.4354	-2.0146	-2.4458	-2.1479	-2.1417	-2.4083	-2.2833	-2.3812	-2.4562	-1.9083	-2.4437	229.055	350.805	288.593	390.382	330.239	142.437	48.844	355.042	383.740	275.661	313.710	314.690	316.728	107.984	129.041	310.263	0.00058555	0.00041757	4.7365e-05	600.43	4.4329e-06	2.3549e-06	581	221.57	3.2855e-06	2.8141e-06	228.12	104.66	101.37	45.257	5.4194e-06	49.17	0.00060026	0.00061471	0.0001686	601.05	6.2471e-06	6.5936e-06	581.63	221.94	6.3416e-06	6.6478e-06	229.06	104.87	101.5	45.731	6.8055e-06	49.611	109.148	149.668	134.538	58.878	159.992	240.825	58.141	63.003	198.477	185.120	60.381	63.781	65.771	69.496	192.783	67.023	-8191	255	
27490.590	1	1	0	0	0.041756	0.11058	0.28815	0.087632	0.056252	0.12811	0.078824	0.24791	0.087574	0.059636	0.28391	0.28672	0.30847	0.067669	0.44263	0.14671	-1.7313	-1.9271	-2.3937	-2.0521	-2.2542	-2.3187	-2.0854	-2.4896	-2.3667	-2.05	-2.5146	-2.1042	-2.2271	-2.5542	-1.9729	-2.475	115.215	250.902	142.849	362.110	345.306	205.395	249.550	361.486	272.270	391.213	346.008	375.252	390.614	191.328	225.069	78.577	0.00058053	0.00012797	0.00013996	605.3	3.3255e-06	4.4394e-06	586.38	222.19	4.0742e-06	4.4594e-06	228.72	104.51	100.89	45.218	5.0206e-06	49.294	0.00059562	0.00060684	0.00016699	602.33	6.0229e-06	6.9008e-06	582.02	221.89	6.3908e-06	6.6734e-06	228.46	104.95	101.49	45.642	6.6076e-06	49.656	108.829	159.448	132.588	58.799	167.390	181.016	57.525	62.345	189.897	198.818	60.495	63.789	65.656	69.613	193.413	66.832	-8191	255	
27490.686	1	1	0	0	0.22225	0.069134	0.1112	0.19245	0.14912	0.09232	0.11356	0.26052	0.13396	0.23005	0.17832	0.29773	0.20277	0.19899	0.1976	0.31132	-1.85	-1.9125	-2.5396	-2.2396	-2.1625	-2.3458	-2.1271	-2.4708	-2.3312	-2.0917	-2.5104	-2.2687	-2.4437	-2.5458	-2.0083	-2.2833	183.745	356.241	382.472	372.367	133.436	359.414	336.830	317.905	302.051	382.224	137.773	365.975	74.373	396.328	220.452	217.597	0.00055874	0.00034324	9.4333e-05	602.3	3.2141e-06	3.8407e-06	586.5	223.14	3.4193e-06	4.0848e-06	228.66	104.29	100.15	45.094	3.191e-06	48.758	0.00059847	0.0006388	0.00015805	601.09	6.0419e-06	6.657e-06	581.6	222.51	6.3856e-06	6.877e-06	228.08	104.69	101.21	45.532	6.7078e-06	49.246	110.373	136.614	124.297	59.085	162.975	177.638	57.887	62.524	169.673	205.816	60.440	63.784	65.806	69.334	191.162	67.024	-8191	255	
27490.781	1	1	0	0	0.14997	0.24658	0.05036	0.10818	0.071952	0.10799	0.077944	0.27509	0.19822	0.31866	0.19526	0.18951	0.12939	0.10258	0.10476	0.037916	-1.8729	-2.0729	-2.4062	-2.2	-2.3021	-2.6167	-2.2042	-2.3042	-2.4979	-1.9167	-2.2229	-2.4313	-2.1396	-2.4667	-2.1604	-2.3542	171.523	269.633	183.549	383.657	254.304	226.370	213.237	369.266	283.687	296.710	308.341	371.253	47.414	94.669	197.879	115.745	0.00060333	0.00030455	0.00014772	600.96	5.0992e-06	6.0508e-06	581.3	221.78	3.0352e-06	4.8025e-06	226.53	103.49	100.36	45.193	2.8983e-06	48.958	0.00060368	0.00062124	0.00016713	600.21	6.1305e-06	6.9146e-06	580.22	221.4	6.3324e-06	6.7338e-06	227.09	103.99	100.91	45.482	6.7066e-06	49.233	111.812	150.103	122.545	58.928	175.659	187.539	57.911	62.608	178.673	201.040	60.347	63.911	65.663	69.406	195.539	66.964	-8191	255	
27490.879	1	1	0	0	0.18348	0.15517	0.14325	0.10458	0.28095	0.047199	0.19842	0.1537	0.12117	0.14628	0.17191	0.23657	0.25898	0.22303	0.16591	0.278	-2.1083	-2.0833	-2.6229	-2.2521	-1.9396	-2.6729	-2.4979	-2.2479	-2.3646	-2.0042	-2.3354	-2.2875	-1.9208	-2.4604	-2.1063	-2.1458	191.323	134.867	343.889	338.244	388.860	205.735	206.848	62.395	372.458	260.656	272.677	247.116	357.880	317.729	337.786	307.616	0.00058124	0.0001578	8.3297e-05	604.53	4.0371e-06	3.919e-06	581.17	221.39	4.3573e-06	4.2935e-06	227.38	103.64	100.75	45.035	3.9603e-06	48.804	0.00061485	0.00061949	0.00016438	602.02	6.1868e-06	6.5698e-06	580.36	221.69	6.5736e-06	6.7719e-06	226.95	103.98	100.99	45.353	6.6788e-06	49.221	110.617	130.332	146.443	58.997	180.291	198.850	57.905	62.734	170.039	201.897	60.320	63.719	65.957	69.365	224.330	67.133	-8191	255	
27490.973	1	1	0	0	0.38263	0.17857	0.066918	0.26201	0.14201	0.15631	0.087214	0.15569	0.16481	0.28318	0.24616	0.091042	0.093003	0.27254	0.38601	0.31246	-1.9146	-1.7604	-2.3771	-2.2979	-1.8729	-2.3167	-2.2604	-2.2479	-2.3042	-1.9729	-2.3354	-2.4833	-2.0354	-2.2833	-2.2604	-2.1854	203.201	179.705	206.832	366.134	230.852	132.332	372.713	72.723	60.563	351.952	391.700	46.700	397.249	47.390	214.532	317.086	0.00058215	0.00038507	0.00011327	606.36	3.4757e-06	4.8823e-06	582.24	222.63	4.1941e-06	2.6948e-06	227.04	104.41	100.71	44.875	6.1328e-06	48.989	0.00060825	0.00063238	0.00017501	602.82	6.4305e-06	6.4463e-06	581.71	222.19	6.4648e-06	6.7699e-06	227.39	104.27	101.11	45.332	6.9967e-06	49.29	109.970	123.853	108.984	59.108	191.124	191.791	58.030	62.770	190.308	168.438	60.560	63.805	65.828	69.142	197.780	66.755	-8191	255	
27491.094	1	1	0	0	0.32924	0.25752	0.17227	0.072029	0.070742	0.061251	0.090822	0.12355	0.21624	0.049859	0.13015	0.030825	0.17381	0.1518	0.092758	0.023309	-1.7625	-2.0167	-2.0646	-2.3167	-1.8813	-2.3042	-2.2	-2.15	-2.5354	-1.9458	-2.3854	-2.5083	-1.8813	-2.6312	-2.1146	-2.1813	247.966	98.474	168.336	270.964	115.232	163.842	295.165	88.774	71.298	130.542	322.006	366.722	234.663	103.120	54.640	175.283	0.00056757	0.00049845	0.00010554	602.04	4.4135e-06	4.1061e-06	584.13	221.59	4.6463e-06	5.294e-06	227.55	104.14	101.12	44.846	3.8426e-06	48.597	0.00060216	0.00063839	0.00018114	603.17	6.3536e-06	6.5652e-06	583.85	222.25	6.2109e-06	6.8488e-06	228.23	104.26	101.29	45.35	6.8984e-06	49.187	110.536	144.979	128.256	59.026	160.178	189.165	57.808	62.440	177.997	186.184	60.232	63.745	65.843	69.533	202.421	66.873	-8191	255	
27491.189	1	1	0	0	0.34758	0.12304	0.093976	0.10342	0.039725	0.10481	0.25485	0.13806	0.13738	0.15584	0.24857	0.29541	0.046856	0.30728	0.011489	0.20111	-1.9417	-2.0208	-2.0729	-2.4833	-1.9792	-2.3729	-2.3667	-2.1437	-2.4021	-2.1646	-2.2708	-2.3792	-2.1604	-2.4062	-2.2958	-2.1167	315.883	286.833	299.861	294.083	205.902	198.816	365.462	360.038	226.322	352.925	390.638	330.401	330.333	356.990	240.469	372.830	0.0005659	0.00051052	0.00011081	601.67	4.5112e-06	3.5491e-06	581.83	222	5.5464e-06	4.1533e-06	227.89	102.82	100.54	44.747	4.547e-06	48.801	0.00058923	0.0006094	0.00017555	601.29	6.0552e-06	6.6735e-06	580.12	222.12	6.6528e-06	7.0714e-06	227.8	103.75	101.07	45.259	7.1529e-06	49.115	110.605	140.940	124.948	59.188	183.904	201.085	57.619	62.638	187.270	200.791	60.206	63.865	65.683	69.278	220.892	66.732	-8191	255	
27491.285	1	1	0	0	0.063912	0.09939	0.16506	0.31193	0.27496	0.10255	0.22036	0.34327	0.23328	0.10145	0.18112	0.31005	0.27452	0.14356	0.38327	0.20273	-1.9583	-2.1562	-2.0229	-2.6479	-2.0104	-2.3542	-2.2458	-2.1771	-2.4542	-2.2125	-2.0292	-2.3979	-2.0687	-2.2667	-2.3125	-2.0708	207.566	254.248	60.290	346.210	183.521	220.038	58.214	356.623	332.654	160.631	303.623	400.905	50.250	211.203	231.712	369.573	0.0006003	0.00039278	0.00010926	606.54	3.7422e-06	3.5109e-06	585.74	221.63	5.0265e-06	3.2755e-06	227.66	103.8	100.87	44.972	3.3644e-06	48.569	0.00061282	0.00062369	0.0001811	604.36	6.232e-06	7.0712e-06	583.49	222.71	6.6962e-06	6.8494e-06	228.27	104.16	101.37	45.443	6.9159e-06	49.221	108.856	140.449	124.115	58.903	169.220	179.740	57.861	62.730	177.325	196.644	60.453	63.853	65.902	69.339	208.781	66.893	-8191	255	
27491.383	1	1	0	0	0.13923	0.10979	0.021222	0.24591	0.1041	0.19554	0.28364	0.43554	0.182	0.29854	0.21616	0.036945	0.15131	0.058769	0.11082	0.17163	-1.9417	-2.1333	-2.0083	-2.65	-1.9167	-2.4083	-2.4271	-2.1312	-2.3833	-2.4	-2.0833	-2.5396	-2.1979	-2.3833	-2.3312	-2.0187	164.040	173.958	394.006	377.979	229.958	324.861	338.194	341.760	143.755	399.513	317.418	308.170	307.613	58.001	55.405	275.137	0.00058695	0.00052033	0.0001129	605.86	3.5977e-06	5.6632e-06	588.87	223.47	4.1168e-06	3.998e-06	229.97	104.01	101.14	45.073	4.0841e-06	49.043	0.00060097	0.00066265	0.0001824	605.49	6.5532e-06	6.9873e-06	585.15	223.12	6.3017e-06	7.1903e-06	229.41	104.56	101.66	45.51	6.8803e-06	49.498	107.686	146.588	144.948	58.942	162.693	198.043	57.868	63.043	168.392	187.648	60.298	63.900	65.714	69.368	189.707	66.977	-8191	255	
27491.479	1	1	0	0	0.11823	0.041692	0.21339	0.29643	0.095295	0.1591	0.083598	0.030652	0.11063	0.099623	0.095292	0.22667	0.12687	0.3979	0.053284	0.25752	-1.9375	-2.2896	-2.0917	-2.6375	-2.0333	-2.1479	-2.4083	-2.1646	-2.3875	-2.3312	-2.0812	-2.4062	-2.1188	-2.2042	-2.4917	-1.9896	277.668	212.497	246.177	393.112	268.825	83.169	131.048	160.225	392.643	92.300	366.948	131.083	315.623	358.477	305.234	225.344	0.0005735	0.00051408	0.00010424	608.26	4.0367e-06	4.5651e-06	589.76	223.48	3.7954e-06	4.8396e-06	228.91	104.43	100.66	45.166	5.0623e-06	49.365	0.00061823	0.0006402	0.00018598	606.5	6.29e-06	7.0785e-06	587.44	223.77	6.7702e-06	7.0504e-06	229.75	104.84	101.66	45.639	6.9816e-06	49.767	110.924	134.716	114.768	58.927	174.787	179.077	57.841	62.512	189.708	204.153	60.422	63.812	65.986	69.607	184.591	67.111	-8191	255	
27491.574	1	1	0	0	0.15578	0.21578	0.2483	0.34475	0.17715	0.13478	0.12593	0.10695	0.22038	0.38732	0.12598	0.1014	0.22373	0.19869	0.188	0.10826	-1.9979	-2.1896	-1.9167	-2.4625	-2.2292	-2.0604	-2.5271	-2.0979	-2.3104	-2.5458	-2.2542	-2.4938	-2.1333	-2.2271	-2.8042	-2.0708	175.552	273.592	347.231	395.516	58.651	167.520	50.250	63.808	100.363	310.075	394.760	253.094	316.345	342.935	45.942	173.257	0.0006087	0.0004297	0.00012574	610.69	3.9046e-06	3.1485e-06	590.79	222.91	4.0192e-06	3.7389e-06	229.84	104.28	101.28	45.128	4.9815e-06	49.297	0.00063807	0.00063641	0.00018439	608.59	6.4802e-06	7.1762e-06	588.56	223.5	6.7182e-06	6.9742e-06	230.15	104.91	101.56	45.621	6.9412e-06	49.609	112.485	145.593	143.464	59.072	195.034	187.319	57.830	62.747	192.513	225.921	60.380	63.925	65.771	69.456	192.524	67.010	-8191	255	
27491.670	1	1	0	0	0.3563	0.19635	0.20528	0.22074	0.10076	0.1989	0.22713	0.078337	0.12405	0.14531	0.18812	0.20319	0.14444	0.032088	0.24841	0.052397	-1.8438	-2.3	-1.9312	-2.4646	-2.1229	-2.0062	-2.6375	-1.8667	-2.3958	-2.5042	-2.2229	-2.3375	-2.2562	-2.0521	-2.4042	-2.1083	113.073	178.939	58.367	125.564	324.963	233.319	172.939	350.545	102.647	243.237	281.653	75.070	167.178	266.868	292.612	280.506	0.00060775	0.00027143	0.00011966	609.39	1.941e-06	4.9054e-06	591.43	223.52	3.7774e-06	4.8254e-06	229.2	104.21	100.95	45.258	5.6219e-06	49.3	0.00063942	0.00064481	0.00017955	608.5	6.5995e-06	7.1155e-06	589.2	223.58	6.9287e-06	7.1614e-06	230.41	104.79	101.6	45.578	7.0395e-06	49.733	108.066	124.916	127.062	59.068	194.516	208.310	57.777	62.808	177.824	189.581	60.368	63.497	65.767	69.412	206.926	66.799	-8191	255	
27491.766	1	1	0	0	0.26947	0.17975	0.20232	0.088096	0.11877	0.25123	0.0891	0.39326	0.062393	0.030051	0.35448	0.14552	0.091159	0.02002	0.19573	0.148	-1.8542	-2.0312	-1.9354	-2.3063	-2.2354	-1.8604	-2.4437	-2.1792	-2.2562	-2.4688	-2.0104	-2.2458	-2.4292	-2	-2.5312	-2.0396	223.112	113.745	196.250	87.830	156.955	365.909	218.314	375.233	194.039	311.241	288.273	346.405	167.725	316.975	76.662	276.361	0.00053899	0.00040755	0.00010572	609.31	3.9739e-06	4.321e-06	592.84	223.92	4.0682e-06	3.1015e-06	229.05	105	101.41	45.334	3.3892e-06	49.301	0.00061464	0.00064055	0.00017991	609.81	6.4456e-06	7.2271e-06	590.69	224.47	6.8969e-06	6.9256e-06	230.56	105.33	101.99	45.822	7.0806e-06	49.918	108.782	133.310	148.996	58.998	182.795	191.124	57.646	62.688	178.609	194.366	60.342	63.778	65.743	69.563	179.347	67.033	-8191	255	
27491.885	1	1	0	0	0.106	0.17258	0.041671	0.14717	0.13325	0.15457	0.41941	0.19668	0.13633	0.15504	0.14145	0.062795	0.15447	0.26138	0.053131	0.069389	-1.6583	-2.4917	-1.9354	-2.3896	-2.2313	-1.9125	-2.3937	-2.2125	-1.9312	-2.375	-1.9562	-2.3937	-2.3792	-2.1479	-2.2833	-2.2833	119.827	63.031	138.366	317.423	238.687	100.282	346.967	332.815	215.360	357.643	360.753	116.873	83.334	303.558	169.064	186.866	0.00057811	0.00054335	8.5795e-05	613.09	4.5128e-06	3.5846e-06	594.81	225.15	5.7139e-06	4.2329e-06	231.22	105.15	101.83	45.556	3.8504e-06	49.796	0.00062927	0.00064848	0.00018029	611.63	6.5041e-06	7.4543e-06	592.21	225.09	7.0629e-06	7.1594e-06	231.95	105.79	102.37	45.93	7.0884e-06	50.172	111.534	147.513	152.351	59.223	189.662	195.692	57.586	62.524	182.980	181.432	60.481	63.808	66.002	68.990	170.673	66.855	-8191	255	
27491.980	1	1	0	0	0.17365	0.31043	0.014638	0.14387	0.16751	0.10864	0.09878	0.2109	0.10804	0.12859	0.28671	0.15271	0.11391	0.26007	0.20154	0.15221	-1.6333	-2.3063	-1.9333	-2.3104	-2.1688	-1.9	-2.3812	-2.1167	-1.9646	-2.3667	-2.1896	-2.2583	-2.3042	-2.1604	-2.3104	-2.3292	234.240	177.694	239.649	336.989	198.472	139.870	313.885	88.285	45.853	199.577	272.519	314.802	354.427	385.883	226.191	148.690	0.00057583	0.00055483	0.00011693	609.56	3.9604e-06	3.9298e-06	592.46	225.83	3.2509e-06	3.3375e-06	231.19	105.24	101.82	45.412	5.1248e-06	49.39	0.00062101	0.00064446	0.00018401	610.41	6.3408e-06	7.2324e-06	591.1	224.88	6.7621e-06	6.9039e-06	231.54	105.52	102.14	45.819	7.2006e-06	49.832	111.427	125.457	143.742	58.794	174.106	198.987	57.671	62.877	190.972	211.171	60.626	63.909	65.896	69.309	204.441	66.875	-8191	255	
27492.078	1	1	0	0	0.077397	0.23311	0.23758	0.080903	0.20203	0.10803	0.11026	0.089467	0.073558	0.15663	0.35905	0.08804	0.053837	0.44841	0.054285	0.22876	-1.5125	-2.4479	-2.2438	-2.2875	-2.375	-1.8146	-2.5125	-2.3458	-2.0771	-2.475	-2.1562	-2.2354	-2.4375	-2.1188	-2.4083	-2.4521	108.975	273.249	301.939	87.251	95.316	209.439	335.696	57.444	49.533	397.740	353.018	267.519	257.980	282.997	259.394	311.038	0.0005754	0.00030519	0.00011882	612.69	3.428e-06	3.0605e-06	590.79	224.07	4.5334e-06	3.9378e-06	230.56	104.85	101.33	45.268	3.0953e-06	49.469	0.00062937	0.00063909	0.00018357	610.97	6.3419e-06	7.0923e-06	590.83	224.76	6.8408e-06	6.9263e-06	231.18	105.28	101.91	45.702	7.1873e-06	49.86	108.274	156.078	121.587	58.959	192.794	184.737	57.805	62.576	195.263	229.277	60.616	63.895	65.629	69.398	206.881	67.215	-8191	255	
27492.174	1	1	0	0	0.10868	0.27425	0.4294	0.23558	0.31208	0.13412	0.24763	0.22835	0.21946	0.20575	0.1132	0.080386	0.2868	0.22706	0.12975	0.11834	-1.5833	-2.25	-2.0729	-2.1542	-2.3479	-2.1104	-2.1542	-2.2687	-2.0312	-2.4354	-2.1021	-2.0229	-2.6146	-2.0042	-2.1375	-2.2667	288.928	402.669	59.644	348.513	118.753	357.633	277.838	323.707	78.600	310.408	258.600	323.311	216.966	102.696	216.738	309.486	0.00059064	0.00043446	0.00012347	610.84	4.7928e-06	4.962e-06	592.44	225.11	4.625e-06	6.6216e-06	229.78	104.59	101.7	45.236	4.7275e-06	49.411	0.00062219	0.00063612	0.00018212	610.4	6.5471e-06	7.3374e-06	591.26	224.27	6.8142e-06	7.4648e-06	230.73	105.11	101.8	45.638	7.5589e-06	50.027	111.550	143.954	120.327	59.239	202.237	196.790	57.635	62.699	179.258	195.474	60.606	63.802	65.991	69.483	175.506	66.759	-8191	255	
27492.270	1	1	0	0	0.23235	0.17099	0.037205	0.19733	0.053055	0.11453	0.31475	0.13404	0.033551	0.0949	0.32732	0.24669	0.089191	0.14249	0.031945	0.24349	-1.5771	-2.1521	-2.2188	-2.0833	-2.5479	-1.9979	-2.2542	-2.4813	-1.7833	-2.3667	-2.2521	-2.1354	-2.4583	-2.2313	-2.0938	-2.4229	155.591	106.216	244.630	388.047	318.708	241.863	336.324	318.920	396.398	317.883	55.122	355.300	396.407	383.466	163.788	217.769	0.00060582	0.00038825	0.00013017	609.8	4.214e-06	2.7928e-06	590.51	225.18	5.8193e-06	5.3055e-06	231.4	105.11	101.66	45.139	2.5075e-06	49.634	0.00063333	0.00065851	0.00018334	609.74	6.5197e-06	7.196e-06	589.23	224.18	7.1207e-06	7.6237e-06	230.93	105.52	101.92	45.689	7.2042e-06	50.09	108.839	142.082	102.869	59.218	182.283	186.472	57.748	62.910	192.695	182.009	60.299	63.883	65.685	69.520	184.304	66.963	-8191	255	
27492.365	1	1	0	0	0.09531	0.164	0.23486	0.13098	0.22017	0.23791	0.19259	0.44291	0.35747	0.29905	0.091849	0.18832	0.36218	0.21447	0.18426	0.061469	-1.3042	-2.275	-2.2313	-2.1208	-2.3229	-2.0583	-2.2	-2.4917	-2.0521	-2.3083	-2.1583	-2.1833	-2.3333	-2.3063	-2.0563	-2.5771	196.161	262.822	167.399	288.631	344.186	249.660	396.726	367.187	344.442	342.223	370.732	386.331	184.595	333.130	334.142	145.114	0.00056566	0.00029201	9.1345e-05	609.94	5.0477e-06	3.8799e-06	593.44	224.21	4.2104e-06	3.6804e-06	231.81	105.22	101.59	45.489	5.514e-06	49.782	0.00062571	0.00066353	0.00018379	608.11	6.5671e-06	6.9411e-06	590.89	224.14	6.7471e-06	7.4346e-06	231.74	105.84	102.09	45.853	7.0606e-06	50.042	111.462	143.180	138.539	58.790	198.436	200.806	57.738	62.725	184.557	186.009	60.364	63.792	65.815	69.229	201.763	66.889	-8191	255	
27492.463	1	1	0	0	0.13275	0.14223	0.22995	0.19149	0.15868	0.24866	0.10362	0.24793	0.098507	0.14918	0.095322	0.14087	0.28161	0.053457	0.10692	0.17785	-1.5292	-2.175	-2.2083	-2.0438	-2.4062	-2.25	-2.0521	-2.4437	-2.0812	-2.2667	-2.3583	-2.0125	-2.4646	-2.2667	-2.1146	-2.4792	92.224	234.824	144.708	76.609	333.973	296.110	360.725	200.312	186.231	334.170	172.999	304.541	67.488	92.798	151.794	331.558	0.0005705	0.00043418	0.00011897	607.47	4.0145e-06	4.9333e-06	589.68	223.11	4.0082e-06	4.5652e-06	230.3	105.4	101.2	45.386	3.6422e-06	49.392	0.000623	0.00063862	0.00017193	606.06	6.5276e-06	7.3169e-06	586.47	223	6.6453e-06	7.1634e-06	230.16	105.59	101.83	45.716	6.9883e-06	49.867	113.521	151.399	115.081	58.873	174.089	195.321	57.772	62.607	187.910	192.477	60.294	63.837	65.702	69.279	183.748	66.984	-8191	255	
27492.582	1	1	0	0	0.074852	0.19078	0.14979	0.26478	0.16317	0.11361	0.25502	0.38407	0.17335	0.23234	0.15112	0.20481	0.15296	0.13163	0.13397	0.23637	-1.6042	-2.1813	-2.5167	-2.1813	-2.4	-2.3958	-2.2729	-2.4208	-2.2729	-2.0875	-2.5479	-2.0875	-2.4125	-2.5187	-2.1083	-2.4333	402.127	404.416	222.736	404.192	232.637	340.565	350.448	393.321	175.906	248.171	118.416	51.295	296.381	71.713	219.829	355.752	0.00061785	0.00027893	0.00017875	603.46	4.207e-06	2.56e-06	589.14	222.15	3.8453e-06	3.8662e-06	229.44	105.18	101.27	45.353	4.087e-06	49.377	0.00063143	0.00064405	0.0001806	604.61	6.4183e-06	7.3169e-06	586.52	222.91	6.599e-06	7.1397e-06	229.55	105.34	101.59	45.6	6.9533e-06	49.915	109.767	141.937	113.654	59.225	188.170	186.631	57.847	62.624	203.491	179.183	60.615	63.695	65.680	69.422	199.319	66.879	-8191	255	
27492.680	1	1	0	0	0.048388	0.084494	0.20663	0.10724	0.10043	0.18778	0.40776	0.092553	0.20343	0.16294	0.2173	0.088041	0.13763	0.035003	0.08775	0.15603	-1.6333	-2.0792	-2.5083	-2.1729	-2.2687	-2.3187	-2.0896	-2.375	-2.0396	-2.3187	-2.475	-2.0604	-2.3063	-2.6	-2.1167	-2.5208	398.747	343.122	132.462	84.683	147.902	325.041	299.003	355.945	82.309	211.450	352.244	208.815	388.764	390.196	334.743	55.537	0.00057207	0.00037217	0.0001236	606.99	4.3728e-06	2.6047e-06	589.23	221.83	5.2788e-06	2.2739e-06	228.02	105.21	101.34	45.138	3.8637e-06	49.659	0.00062263	0.00062043	0.00017417	604.75	6.5186e-06	7.0084e-06	586.25	222.32	6.7216e-06	6.8698e-06	229.18	105.45	101.72	45.661	6.8755e-06	50.103	110.699	146.311	128.638	59.017	181.957	210.008	57.849	62.937	193.971	164.316	60.570	63.808	65.708	69.462	187.224	67.023	-8191	255	
27492.775	1	1	0	0	0.16454	0.12647	0.11167	0.29097	0.12311	0.19096	0.13895	0.31095	0.15725	0.10206	0.23051	0.079545	0.26832	0.10911	0.13736	0.091154	-1.7687	-2.2188	-2.3438	-2.3354	-2.2021	-2.3104	-2.0021	-2.3937	-2.3458	-2.0917	-2.6208	-2.2625	-2.4271	-2.6646	-2.0729	-2.3479	363.894	131.802	323.597	382.871	221.411	151.687	207.387	214.997	81.883	265.577	239.851	372.462	393.413	354.280	249.665	261.127	0.00059914	0.00052695	8.6034e-05	603.47	4.7479e-06	3.5227e-06	586.09	222.76	5.3094e-06	6.2122e-06	229.74	105.59	100.67	45.336	4.0982e-06	49.959	0.0006185	0.00063851	0.00017584	603.7	6.2599e-06	6.8268e-06	584.72	222.41	6.4347e-06	6.965e-06	230.12	105.99	101.51	45.694	7.1143e-06	50.26	109.329	134.556	113.967	59.218	176.173	194.616	58.049	62.766	216.136	191.663	60.378	63.834	65.835	69.378	191.996	67.283	-8191	255	
27492.871	1	1	0	0	0.045309	0.10071	0.13339	0.20419	0.13153	0.3148	0.119	0.2376	0.10431	0.21313	0.073623	0.18177	0.20266	0.076515	0.065116	0.3504	-1.6208	-1.9667	-2.3583	-2.325	-2.2146	-2.4313	-1.9292	-2.3958	-2.3875	-2.1688	-2.4833	-2.1625	-2.2375	-2.5583	-2.1542	-2.3521	69.220	49.781	338.345	98.197	341.953	178.132	297.145	330.070	72.457	306.529	355.019	359.533	356.829	329.522	100.836	365.866	0.00059052	0.00036362	0.00012383	603.58	2.1621e-06	3.5176e-06	583.6	220.61	5.0732e-06	4.1695e-06	229.51	105.06	101.41	45.005	4.4859e-06	49.532	0.0006252	0.00062533	0.00017054	602.26	6.2415e-06	6.7898e-06	582.41	221.23	6.1779e-06	7.074e-06	229.08	105.42	101.71	45.548	6.8658e-06	49.942	108.797	126.900	139.121	59.079	160.867	205.591	57.808	62.630	189.002	208.195	60.315	64.055	65.789	69.429	195.902	67.032	-8191	255	
27492.967	1	1	0	0	0.10504	0.43343	0.29172	0.16182	0.18029	0.065837	0.2839	0.085155	0.13218	0.057217	0.24299	0.15429	0.052898	0.30049	0.19368	0.26942	-1.8771	-1.8729	-2.1542	-2.4979	-2.0604	-2.5083	-2.2458	-2.2667	-2.2667	-1.9542	-2.4188	-2.2333	-2.1875	-2.4979	-2.2062	-2.3292	69.371	309.040	309.147	281.593	315.899	391.154	92.940	328.697	53.647	281.722	403.129	155.597	308.769	395.611	386.020	360.388	0.0006302	0.00039726	0.00013937	605.33	3.5448e-06	4.664e-06	583.31	221.34	5.3129e-06	4.3757e-06	229.11	105.03	101.14	45.075	5.4577e-06	49.449	0.00061715	0.0006332	0.00017326	602.33	6.3391e-06	6.9305e-06	583	221.98	6.278e-06	6.8606e-06	229.1	105.55	101.65	45.522	7.0015e-06	49.976	111.053	125.838	129.925	59.060	154.565	188.129	58.093	63.062	189.303	189.174	60.414	64.050	65.821	69.523	184.515	66.956	-8191	255	
27493.062	1	1	0	0	0.21179	0.12361	0.01689	0.17698	0.088502	0.18845	0.13258	0.1717	0.22817	0.091574	0.058953	0.32674	0.074065	0.35877	0.075177	0.14743	-1.875	-1.9125	-2.5187	-2.3167	-2.1458	-2.4875	-2.2771	-2.1437	-2.4208	-2.2479	-2.45	-2.4083	-2.1063	-2.4604	-2.0458	-2.2542	309.740	321.831	171.449	50.563	352.731	291.768	389.876	65.674	149.943	85.663	254.002	389.566	330.172	303.321	106.302	360.405	0.00060123	0.0004616	0.00010233	602.75	4.0179e-06	3.8047e-06	583.32	221.23	3.942e-06	3.7063e-06	228.61	105.05	101.52	45.195	4.3643e-06	49.69	0.00061732	0.00060701	0.00017193	601.44	6.1885e-06	6.6689e-06	583.93	222.16	6.2381e-06	7.0451e-06	229.77	105.62	101.89	45.656	6.8278e-06	50.054	111.688	115.851	131.675	59.082	169.438	207.428	57.566	62.743	187.532	205.546	60.310	63.986	66.014	69.474	205.103	67.031	-8191	255	
27493.182	1	1	0	0	0.35596	0.12954	0.27116	0.12387	0.14917	0.081657	0.21999	0.075894	0.31478	0.32226	0.16738	0.17111	0.17273	0.20018	0.23483	0.037912	-1.7458	-1.9479	-2.3771	-2.3354	-2.0187	-2.6312	-2.1042	-2.2625	-2.4458	-1.9979	-2.4333	-2.5208	-2.0875	-2.7188	-2.1521	-2.3438	251.540	380.143	115.637	151.264	269.650	305.280	346.283	392.412	139.482	137.726	46.953	396.718	218.446	320.000	354.697	162.975	0.00061918	0.00029855	0.00011758	606.23	4.5236e-06	4.2871e-06	589.46	222.27	3.9565e-06	4.6604e-06	229.73	105.13	101.93	45.327	5.306e-06	49.877	0.00060656	0.00062585	0.00017229	604.62	6.2242e-06	6.7957e-06	585.89	222.24	6.4585e-06	6.8415e-06	230.38	105.74	101.92	45.729	6.7295e-06	50.335	111.303	157.209	139.354	59.057	186.144	180.104	57.749	62.565	211.159	195.954	60.204	64.032	65.876	69.268	165.728	67.005	-8191	255	
27493.279	1	1	0	0	0.056236	0.099835	0.063326	0.10708	0.13567	0.29051	0.13167	0.097203	0.31745	0.12513	0.068994	0.18437	0.25272	0.23733	0.099395	0.18499	-2.1104	-1.8521	-2.3312	-2.4208	-2.0542	-2.3729	-2.15	-2.1458	-2.4542	-2.1521	-2.2583	-2.4479	-2.0458	-2.4458	-2.1479	-2.1083	92.963	94.359	261.082	322.874	198.017	381.373	279.975	78.008	233.892	143.259	366.137	370.131	313.200	293.994	216.688	369.039	0.00058638	0.00033994	0.00013064	606.75	3.3707e-06	3.4076e-06	588.98	222.59	5.1788e-06	3.4542e-06	229.45	105.14	101.62	45.152	5.1246e-06	49.434	0.00060168	0.00062719	0.00017324	605.25	6.3313e-06	7.1188e-06	588.15	223.1	6.3393e-06	6.68e-06	230.22	105.73	102.16	45.662	6.9484e-06	49.947	110.189	118.526	144.325	58.753	176.899	203.983	57.843	62.765	171.137	194.854	60.406	63.959	65.735	69.263	185.395	66.846	-8191	255	
27493.350	1	1	0	0	0.067243	0.26094	0.17331	0.042823	0.15209	0.21231	0.55356	0.25022	0.11212	0.032986	0.13543	0.35977	0.13115	0.12194	0.20533	0.16442	-1.9542	-1.8917	-2.1188	-2.625	-2.1104	-2.3187	-2.2729	-2.2521	-2.5417	-2.1813	-2.2104	-2.4729	-2.1542	-2.3187	-2.2854	-2.1042	181.984	180.142	338.697	135.574	112.904	47.335	326.350	298.541	285.399	62.197	253.768	84.368	159.952	339.439	91.173	273.462	0.00059024	0.00042401	0.00010498	603.48	5.5628e-06	3.8578e-06	585.64	223.5	3.5196e-06	3.9653e-06	230.42	105.36	101.84	45.188	3.169e-06	49.322	0.00061404	0.00063466	0.00017317	604.48	6.4629e-06	7.1075e-06	586.06	223.74	6.5863e-06	7.0359e-06	230.23	105.75	102.05	45.67	7.0528e-06	49.971	109.950	141.695	129.104	59.092	179.861	188.392	57.900	62.733	181.829	193.030	60.625	63.875	65.675	69.501	182.635	67.006	-8191	255	
27493.445	1	1	0	0	0.007694	0.10961	0.19999	0.12	0.2451	0.14195	0.028719	0.14242	0.17036	0.1473	0.15272	0.17706	0.31433	0.16361	0.20874	0.10378	-2.0104	-2.2313	-2.1271	-2.6292	-1.9354	-2.2458	-2.4583	-1.9708	-2.4042	-2.2958	-2.2146	-2.4375	-2.1375	-2.3292	-2.5	-1.9521	247.732	301.089	347.755	312.532	256.135	246.132	189.121	390.490	140.902	186.608	282.099	93.220	107.406	153.351	382.945	71.906	0.00058274	0.00032408	9.8675e-05	605.15	4.3716e-06	3.091e-06	587.24	223.7	4.1784e-06	6.1339e-06	229.83	105.52	101.94	45.234	2.71e-06	49.606	0.00062311	0.00064212	0.00017303	604.43	6.3079e-06	7.2403e-06	586.02	223.45	6.5632e-06	7.0839e-06	230.17	105.74	102.17	45.684	6.934e-06	50.095	111.791	132.292	124.643	58.990	178.746	196.623	57.918	62.921	199.996	206.028	60.606	63.811	65.650	69.524	177.071	67.389	-8191	255	
27493.543	1	1	0	0	0.13004	0.26157	0.21093	0.29606	0.064007	0.10452	0.045908	0.060981	0.12124	0.074855	0.090572	0.16676	0.11057	0.13305	0.1648	0.30661	-1.9208	-2.2229	-2.0458	-2.3583	-2.1312	-2.1625	-2.2229	-1.9167	-2.6625	-2.1437	-2.0042	-2.5583	-2.1792	-2.2083	-2.3292	-1.9875	66.534	282.128	271.242	367.477	74.879	403.008	274.245	346.460	230.726	189.467	387.900	362.221	157.740	148.796	105.301	343.728	0.00059859	0.00049942	7.7342e-05	603.73	3.0615e-06	6.0541e-06	587.34	222.12	4.7807e-06	3.4447e-06	229.08	105.65	102	45.082	2.2169e-06	49.742	0.00062541	0.0006227	0.00017659	604.38	6.411e-06	7.0448e-06	585.86	222.67	6.5799e-06	6.9236e-06	230.47	105.93	102.15	45.666	6.7681e-06	50.157	109.677	129.055	140.549	58.911	194.546	197.773	57.967	62.838	176.376	207.291	60.442	63.799	66.036	69.405	198.932	67.066	-8191	255	
27493.662	1	1	0	0	0.18205	0.31561	0.10758	0.20494	0.26194	0.072941	0.25703	0.13096	0.11739	0.24567	0.046245	0.12114	0.092296	0.10328	0.14041	0.18515	-1.8583	-2.0792	-2.0542	-2.4833	-2.1667	-2.2479	-2.4104	-2.0062	-2.4583	-2.4229	-2.0875	-2.5083	-2.15	-2.3917	-2.4958	-2.1604	175.834	202.662	360.698	380.918	199.055	328.210	317.976	349.364	145.424	196.098	163.311	256.361	168.512	135.027	272.079	186.993	0.00060577	0.00038246	0.00014129	604.87	2.6077e-06	3.5978e-06	585.09	222.96	4.6611e-06	4.0776e-06	229.43	105.64	101.59	45.091	4.2519e-06	49.394	0.00062476	0.00064265	0.00018112	604.04	6.5538e-06	7.0309e-06	583.87	222.29	6.5169e-06	6.7857e-06	229.53	106.08	101.99	45.577	7.0842e-06	49.935	112.938	151.938	120.754	58.939	159.485	208.396	57.746	62.767	179.705	204.171	60.506	64.163	65.915	69.332	191.725	66.894	-8191	255	
27493.760	1	1	0	0	0.17848	0.26033	0.14972	0.069934	0.11501	0.15678	0.17908	0.12119	0.24342	0.099826	0.15808	0.21244	0.33452	0.16772	0.11736	0.21157	-1.9125	-2.1312	-1.8521	-2.4875	-2.3396	-1.9625	-2.5625	-2.0812	-2.3	-2.3792	-2.0625	-2.4792	-2.3208	-2.1167	-2.5354	-2.1771	239.302	392.101	358.440	253.034	130.027	319.615	81.571	164.850	255.225	362.705	354.298	367.349	321.549	65.192	140.649	52.490	0.00059622	0.0005096	8.9117e-05	599.94	5.5409e-06	5.2292e-06	584.25	222.36	3.3378e-06	5.4108e-06	227.87	105.14	101.03	44.919	3.5589e-06	49.495	0.00062531	0.00063967	0.00017654	600.24	6.5276e-06	7.4101e-06	580.98	222.13	6.6754e-06	6.8869e-06	228.3	105.4	101.63	45.357	7.0661e-06	49.702	109.714	137.747	118.004	59.122	182.210	190.373	57.710	62.553	200.549	180.337	60.627	63.965	65.818	69.198	178.739	66.950	-8191	255	
27493.855	1	1	0	0	0.082177	0.091483	0.21856	0.22397	0.22756	0.18084	0.0063318	0.42126	0.18829	0.17958	0.2118	0.28524	0.28151	0.083806	0.061502	0.16219	-1.9562	-2.3771	-2.0125	-2.6271	-2.1979	-2.0167	-2.5896	-1.9396	-2.2271	-2.4313	-1.9813	-2.5021	-2.4813	-1.9292	-2.4292	-2.2583	85.933	128.952	229.450	372.582	277.676	74.378	87.621	68.061	213.288	120.925	346.959	61.457	332.480	370.656	125.392	345.494	0.00057904	0.00026011	9.7251e-05	600.22	4.1602e-06	2.8793e-06	582.48	221.23	2.6879e-06	6.1371e-06	228.01	104.6	101.75	44.923	4.6845e-06	49.164	0.00062602	0.0006255	0.00018393	599.43	6.251e-06	6.9345e-06	579.9	221.57	6.6013e-06	6.835e-06	228.41	105.35	101.68	45.349	6.7621e-06	49.778	109.975	143.634	142.489	58.961	184.674	166.976	58.053	62.604	197.907	184.273	60.702	64.084	65.930	69.344	202.923	66.963	-8191	255	
#DATA ENDS
