BOXY.EXE: ISS Imagent and Oximeter Data Acquisition Program Version 0.80
Ascii Record File

#ACQ INFORMATION
2  Detector Channels 
16  External MUX Channels 
1  Auxiliary Channels 
5000  Waveform (CCF) Frequency (Hz)
1  Waveforms Skipped 
30  Waveforms Averaged 
1  Cycles Averaged 
16  Acquisitions per Waveform 
10.0806  Updata Rate (Hz) 

#FILE INFORMATION
TRUE -- External MUX Channel results are PARSED.
FALSE -- AC DC and Phase are NOT grouped.
TRUE -- Companion Program Settings File CREATED.
FALSE -- AC data not excluded
FALSE -- DC data not excluded
FALSE -- Phase data not excluded
FALSE -- Auxillary Chn. data not excluded
Tab delimiters

#CALIBRATION STATE
TRUE -- Waveform Calibration Values APPLIED.


#AUX CALIBRATION VALUES
Val Type	aux-1	

Term	1.0000e+00	
Factor	0.0000e+00	


#WF CALIBRATION VALUES
A = Detector Channel
Val Type	A-AC1	A-AC2	A-AC3	A-AC4	A-AC5	A-AC6	A-AC7	A-AC8	A-AC9	A-AC10	A-AC11	A-AC12	A-AC13	A-AC14	A-AC15	A-AC16	A-DC1	A-DC2	A-DC3	A-DC4	A-DC5	A-DC6	A-DC7	A-DC8	A-DC9	A-DC10	A-DC11	A-DC12	A-DC13	A-DC14	A-DC15	A-DC16	A-Ph1	A-Ph2	A-Ph3	A-Ph4	A-Ph5	A-Ph6	A-Ph7	A-Ph8	A-Ph9	A-Ph10	A-Ph11	A-Ph12	A-Ph13	A-Ph14	A-Ph15	A-Ph16	

Term	0.00000e+00	0.00000e+00	0.00000e+00	0.00000e+00	0.00000e+00	0.00000e+00	0.00000e+00	0.00000e+00	0.00000e+00	0.00000e+00	0.00000e+00	0.00000e+00	0.00000e+00	0.00000e+00	0.00000e+00	0.00000e+00	0.00000e+00	0.00000e+00	0.00000e+00	0.00000e+00	0.00000e+00	0.00000e+00	0.00000e+00	0.00000e+00	0.00000e+00	0.00000e+00	0.00000e+00	0.00000e+00	0.00000e+00	0.00000e+00	0.00000e+00	0.00000e+00	0.00000e+00	0.00000e+00	0.00000e+00	0.00000e+00	0.00000e+00	0.00000e+00	0.00000e+00	0.00000e+00	0.00000e+00	0.00000e+00	0.00000e+00	0.00000e+00	0.00000e+00	0.00000e+00	0.00000e+00	0.00000e+00	
Factor	1.00000e+00	1.00000e+00	1.00000e+00	1.00000e+00	1.00000e+00	1.00000e+00	1.00000e+00	1.00000e+00	1.00000e+00	1.00000e+00	1.00000e+00	1.00000e+00	1.00000e+00	1.00000e+00	1.00000e+00	1.00000e+00	1.00000e+00	1.00000e+00	1.00000e+00	1.00000e+00	1.00000e+00	1.00000e+00	1.00000e+00	1.00000e+00	1.00000e+00	1.00000e+00	1.00000e+00	1.00000e+00	1.00000e+00	1.00000e+00	1.00000e+00	1.00000e+00	X	X	X	X	X	X	X	X	X	X	X	X	X	X	X	X	

B = Detector Channel
Val Type	B-AC1	B-AC2	B-AC3	B-AC4	B-AC5	B-AC6	B-AC7	B-AC8	B-AC9	B-AC10	B-AC11	B-AC12	B-AC13	B-AC14	B-AC15	B-AC16	B-DC1	B-DC2	B-DC3	B-DC4	B-DC5	B-DC6	B-DC7	B-DC8	B-DC9	B-DC10	B-DC11	B-DC12	B-DC13	B-DC14	B-DC15	B-DC16	B-Ph1	B-Ph2	B-Ph3	B-Ph4	B-Ph5	B-Ph6	B-Ph7	B-Ph8	B-Ph9	B-Ph10	B-Ph11	B-Ph12	B-Ph13	B-Ph14	B-Ph15	B-Ph16	

Term	0.00000e+00	0.00000e+00	0.00000e+00	0.00000e+00	0.00000e+00	0.00000e+00	0.00000e+00	0.00000e+00	0.00000e+00	0.00000e+00	0.00000e+00	0.00000e+00	0.00000e+00	0.00000e+00	0.00000e+00	0.00000e+00	0.00000e+00	0.00000e+00	0.00000e+00	0.00000e+00	0.00000e+00	0.00000e+00	0.00000e+00	0.00000e+00	0.00000e+00	0.00000e+00	0.00000e+00	0.00000e+00	0.00000e+00	0.00000e+00	0.00000e+00	0.00000e+00	-2.48330e+02	-1.42001e+02	-1.28918e+02	-1.82543e+02	-9.10688e+01	-6.49576e+01	-1.59484e+02	-1.62015e+02	-1.00181e+02	-6.41897e+01	-1.73451e+02	-1.69948e+02	-1.80549e+02	-1.77176e+02	-8.75784e+01	-1.49574e+02	
Factor	5.96916e-05	1.28151e-04	4.06723e-05	1.85368e-01	1.60694e-06	1.57342e-06	1.66390e-01	4.98697e-02	1.84472e-06	1.64029e-06	1.16195e-01	2.94105e-02	3.75885e-02	8.90816e-03	1.48073e-06	1.26652e-02	2.18147e-06	2.27945e-06	6.35774e-07	9.79401e-02	2.48019e-08	2.50556e-08	8.24126e-02	2.63979e-02	2.47667e-08	2.50275e-08	5.87102e-02	1.49757e-02	1.97217e-02	4.72932e-03	2.48310e-08	6.48694e-03	X	X	X	X	X	X	X	X	X	X	X	X	X	X	X	X	



#DISTANCE SETTINGS
A = Detector Channel
A-1	A-2	A-3	A-4	A-5	A-6	A-7	A-8	A-9	A-10	A-11	A-12	A-13	A-14	A-15	A-16	

2.5000e+00	3.0000e+00	2.5000e+00	3.0000e+00	2.0000e+00	3.0000e+00	1.5000e+00	3.0000e+00	3.0000e+00	3.0000e+00	3.0000e+00	3.0000e+00	3.0000e+00	3.0000e+00	1.5000e+00	3.0000e+00	

B = Detector Channel
B-1	B-2	B-3	B-4	B-5	B-6	B-7	B-8	B-9	B-10	B-11	B-12	B-13	B-14	B-15	B-16	

1.0000e+01	1.0000e+01	1.0000e+01	1.4400e+00	1.0000e+01	1.0000e+01	1.5100e+00	1.9400e+00	1.0000e+01	1.0000e+01	1.9900e+00	2.4900e+00	2.4100e+00	2.9000e+00	1.0000e+01	2.9800e+00	




#DATA BEGINS
time	group	step	mark	flag	A-AC1	A-AC2	A-AC3	A-AC4	A-AC5	A-AC6	A-AC7	A-AC8	A-AC9	A-AC10	A-AC11	A-AC12	A-AC13	A-AC14	A-AC15	A-AC16	A-DC1	A-DC2	A-DC3	A-DC4	A-DC5	A-DC6	A-DC7	A-DC8	A-DC9	A-DC10	A-DC11	A-DC12	A-DC13	A-DC14	A-DC15	A-DC16	A-Ph1	A-Ph2	A-Ph3	A-Ph4	A-Ph5	A-Ph6	A-Ph7	A-Ph8	A-Ph9	A-Ph10	A-Ph11	A-Ph12	A-Ph13	A-Ph14	A-Ph15	A-Ph16	B-AC1	B-AC2	B-AC3	B-AC4	B-AC5	B-AC6	B-AC7	B-AC8	B-AC9	B-AC10	B-AC11	B-AC12	B-AC13	B-AC14	B-AC15	B-AC16	B-DC1	B-DC2	B-DC3	B-DC4	B-DC5	B-DC6	B-DC7	B-DC8	B-DC9	B-DC10	B-DC11	B-DC12	B-DC13	B-DC14	B-DC15	B-DC16	B-Ph1	B-Ph2	B-Ph3	B-Ph4	B-Ph5	B-Ph6	B-Ph7	B-Ph8	B-Ph9	B-Ph10	B-Ph11	B-Ph12	B-Ph13	B-Ph14	B-Ph15	B-Ph16	aux-1	digaux	

3068.928	1	1	0	256	0.17807	0.31521	0.21093	0.17762	0.038067	0.13985	0.090816	0.38667	0.21855	0.19466	0.040503	0.084515	0.19687	0.15144	0.084675	0.091558	-0.92292	-2.2625	-1.6375	-1.9062	-1.9771	-1.3438	-2.3063	-2.0875	-1.4292	-2.1583	-1.5833	-1.5625	-2.2458	-1.4813	-1.9271	-2.0021	253.217	302.882	247.976	404.617	170.385	320.424	407.155	459.343	281.913	434.670	194.146	413.931	416.800	415.051	289.166	454.774	0.0019678	0.00040005	8.1017e-05	1448.8	8.3842e-06	2.7096e-06	1453.3	396.98	7.9341e-06	7.3348e-06	452.63	152.59	134.37	45.237	1.4444e-05	55.781	0.0008359	0.00082953	0.00023086	1488.9	8.99e-06	9.0948e-06	1490.2	408.7	9.004e-06	9.1638e-06	470.29	158.29	138.97	47.24	9.0471e-06	58.526	418.084	143.781	292.895	125.498	246.149	307.043	124.948	129.893	231.652	245.876	129.328	133.620	133.892	138.653	220.127	137.663	-8191	255	
3069.023	1	1	0	0	0.26378	0.021877	0.33607	0.31183	0.16524	0.094696	0.27454	0.60127	0.30835	0.17582	0.15822	0.17119	0.36877	0.12092	0.20604	0.35624	-0.81458	-2.1583	-1.6646	-1.8396	-2.1188	-1.4583	-2.1417	-2.2792	-1.1083	-2.1	-1.8792	-1.5667	-2.3729	-1.5271	-1.8979	-2.1354	177.685	429.869	219.195	399.697	445.406	359.454	377.302	414.634	382.240	157.665	257.053	448.703	422.271	358.323	300.965	398.032	0.0020223	0.00088217	9.5527e-05	1453.2	7.6447e-06	3.0246e-06	1453.4	396.69	4.3824e-06	5.0728e-06	454.8	153.41	134.4	45.355	7.2974e-07	56.001	0.00084023	0.00083222	0.00023232	1493.4	9.0172e-06	9.1181e-06	1490	408.53	9.1625e-06	9.1462e-06	471.26	158.28	138.82	47.263	9.2296e-06	58.689	421.887	239.365	434.757	125.317	276.812	356.551	124.921	129.847	180.332	244.609	129.123	133.637	134.095	138.553	302.916	137.675	-8191	255	
3069.119	1	1	0	0	0.034172	0.09556	0.25686	0.39788	0.19486	0.099241	0.2756	0.024638	0.23149	0.26714	0.30111	0.093645	0.050348	0.35807	0.15121	0.29709	-0.92917	-2.0083	-1.6479	-1.6271	-2.1271	-1.425	-1.9917	-2.2333	-1.3125	-1.875	-2.0333	-1.5792	-2.3042	-1.7375	-1.6271	-2.2979	453.457	346.599	130.308	424.716	231.023	312.065	357.092	396.083	409.890	223.644	449.157	203.229	427.865	143.981	247.075	445.952	0.0021034	0.00046857	6.5978e-05	1456.2	9.2369e-06	4.1908e-06	1454.9	397.69	1.0985e-05	3.3688e-06	452.55	152.5	134.3	45.2	7.7829e-06	55.85	0.0008636	0.00084881	0.00023533	1492.8	9.2717e-06	9.3367e-06	1492.5	408.68	9.2821e-06	9.2771e-06	471.21	158.19	138.84	47.29	9.2393e-06	58.526	421.521	138.867	235.322	125.376	239.512	284.366	125.380	129.761	219.431	129.127	129.181	133.713	134.288	138.638	219.106	137.679	-8191	255	
3069.215	1	1	0	0	0.38107	0.29909	0.1781	0.23549	0.20055	0.11048	0.42722	0.052891	0.091877	0.034791	0.10689	0.25504	0.13831	0.19061	0.070698	0.241	-0.6375	-1.8979	-1.7583	-1.4854	-2.3187	-1.6562	-1.9125	-2.3375	-1.1667	-1.9729	-2.0438	-1.5938	-2.3542	-1.9125	-1.4417	-2.1562	269.749	301.823	141.683	377.750	178.047	452.289	397.653	417.990	258.788	126.827	393.712	459.898	336.663	377.894	451.624	435.743	0.0020217	0.00022741	9.3067e-05	1449.3	5.8914e-06	6.773e-06	1450	396.99	7.8311e-06	2.6003e-06	454.05	152.59	134.3	45.268	9.3291e-06	55.708	0.000853	0.00084151	0.000234	1490.4	9.1837e-06	9.2891e-06	1491.2	408.6	9.1588e-06	9.1777e-06	471.22	157.86	138.72	47.287	9.0865e-06	58.544	420.353	161.100	149.015	125.336	245.049	284.197	125.062	129.789	257.679	265.880	129.274	133.546	133.992	138.862	240.589	137.967	-8191	255	
3069.311	1	1	0	0	0.135	0.059364	0.31873	0.21986	0.23379	0.076919	0.34238	0.15678	0.16749	0.24475	0.20994	0.29267	0.1481	0.030064	0.15186	0.042034	-0.94792	-1.7708	-1.8771	-1.4417	-2.0333	-1.65	-1.6729	-2.3479	-1.3396	-1.7917	-1.9708	-1.2646	-2.0333	-1.8396	-1.5042	-2.1396	456.867	259.189	388.845	127.575	333.481	332.653	422.902	397.515	252.333	352.017	392.950	148.894	181.216	371.361	257.129	327.279	0.0018953	0.00020462	0.00013298	1446.3	8.2675e-06	1.0805e-05	1454.3	396.65	1.0643e-05	1.2313e-05	452.53	152.94	134.28	45.245	6.6316e-06	55.983	0.00085021	0.00082608	0.00023167	1487.2	8.9966e-06	9.1484e-06	1490.5	408.38	9.0723e-06	9.0743e-06	470.42	158.25	138.68	47.314	9.1125e-06	58.618	420.415	457.138	215.822	125.356	226.259	186.333	124.945	129.835	183.743	248.327	129.004	133.552	134.003	138.598	289.760	137.767	-8191	255	
3069.407	1	1	0	0	0.10273	0.11215	0.10706	0.20632	0.093055	0.16551	0.40966	0.2866	0.10349	0.17683	0.26341	0.19943	0.29157	0.15971	0.11583	0.27165	-1.0104	-1.6917	-2.0979	-1.4708	-1.9458	-1.5333	-1.4729	-2.2729	-1.4375	-1.7042	-2.4396	-1.3667	-2.1146	-2.0042	-1.4604	-2.3625	240.201	407.540	328.407	134.268	197.432	385.845	418.916	425.184	317.937	174.213	436.304	420.874	394.348	409.844	417.304	401.349	0.0019007	0.00030531	0.00032568	1443.8	1.0147e-05	4.4894e-06	1453.5	396.87	9.1932e-06	3.6336e-06	450.96	152.34	134.15	44.93	7.7913e-06	56.032	0.00084984	0.00084034	0.00023427	1487.1	9.0699e-06	9.1379e-06	1490	408.23	8.9753e-06	9.1206e-06	469.69	157.7	138.6	47.152	8.9791e-06	58.593	426.693	190.903	240.798	125.238	285.208	359.625	124.804	129.853	221.226	282.503	129.365	133.663	134.326	138.633	209.306	137.547	-8191	255	
3069.528	1	1	0	0	0.23444	0.12128	0.27386	0.25053	0.11013	0.12996	0.28421	0.14047	0.35819	0.22502	0.057042	0.41301	0.062767	0.19852	0.050769	0.22557	-1.0042	-1.6417	-2.0042	-1.3146	-1.7896	-1.6479	-1.6917	-2.1667	-1.6875	-1.4833	-2.35	-1.45	-1.6958	-1.9708	-1.1854	-2.2479	355.968	344.754	254.382	366.259	385.231	332.260	413.754	408.696	243.997	267.965	394.745	360.616	353.123	457.612	314.043	408.733	0.0020768	0.00011898	0.00028728	1445.6	5.6436e-06	1.514e-06	1449.7	396.59	2.113e-06	2.474e-06	453.79	151.47	133.47	45.07	6.5557e-06	55.785	0.00084162	0.00082807	0.00023049	1485.4	8.9824e-06	8.9861e-06	1488.8	407.99	9.0277e-06	9.0505e-06	470.49	157.45	138.4	47.036	8.9393e-06	58.378	423.156	199.699	221.313	125.102	208.711	192.186	124.931	129.841	239.736	237.617	129.293	133.562	134.038	138.424	245.503	137.979	-8191	255	
3069.624	1	1	0	0	0.15119	0.2295	0.14354	0.52092	0.085609	0.22048	0.23367	0.25379	0.073322	0.21578	0.11851	0.0087559	0.2969	0.28126	0.021052	0.10713	-1.375	-1.5167	-2.1146	-1.5438	-1.9125	-2.0479	-1.4104	-2.3125	-1.65	-1.4583	-2.3208	-1.5292	-1.8167	-2.2208	-1.3062	-2.2375	345.138	367.162	122.402	438.922	249.005	438.262	375.516	414.833	273.888	321.205	405.762	470.115	203.598	132.673	303.997	137.356	0.0019156	0.0005278	0.00011328	1443.6	7.2041e-06	4.7592e-06	1450.9	395.63	6.0561e-06	4.13e-06	451.88	153.1	133.35	45.093	3.9479e-06	56.069	0.0008221	0.00081667	0.00022318	1483.3	8.856e-06	8.8027e-06	1486.2	407.53	8.8122e-06	8.8452e-06	468.3	157.62	137.88	47.06	8.7947e-06	58.386	418.645	240.397	197.622	125.436	236.883	235.813	125.058	129.689	164.323	247.478	129.256	133.619	134.100	138.562	250.027	137.885	-8191	255	
3069.720	1	1	0	0	0.11592	0.16613	0.35147	0.56867	0.018621	0.23762	0.41524	0.20791	0.29391	0.32872	0.2653	0.22893	0.02357	0.47065	0.11528	0.3387	-1.4979	-1.2854	-2.0771	-1.6229	-1.7875	-2.1604	-1.6229	-2.2125	-1.8292	-1.1979	-2.2292	-1.6938	-1.7354	-2.225	-1.5271	-2.0563	165.292	420.271	352.154	136.286	453.211	352.859	424.429	139.882	260.631	121.780	463.595	455.654	424.509	419.049	386.592	449.466	0.0021221	0.00034152	0.00010165	1446.6	7.2448e-06	5.5805e-06	1444	395.65	7.231e-06	3.5434e-06	452.23	152.6	133.92	45.169	5.8441e-06	56.062	0.00081735	0.00080096	0.00022479	1482.9	8.7774e-06	8.7474e-06	1484.2	406.83	8.7125e-06	8.7573e-06	468.54	157.49	137.98	47.055	8.6613e-06	58.353	422.165	163.288	229.528	125.484	211.808	246.006	125.158	130.023	231.314	275.478	129.650	133.525	134.256	138.784	235.394	137.823	-8191	255	
3069.817	1	1	0	0	0.17844	0.11487	0.1425	0.49402	0.37594	0.27066	0.27141	0.41929	0.075601	0.38505	0.077883	0.25905	0.22782	0.076965	0.20256	0.23422	-1.5896	-1.1896	-2.2042	-1.8146	-1.7042	-2.2417	-1.6812	-1.9104	-1.9875	-1.2625	-2.05	-1.6354	-1.4771	-2.0938	-1.3042	-1.9792	402.743	356.483	376.306	407.952	130.640	391.216	410.062	391.520	295.684	302.193	301.857	430.034	457.230	186.293	134.832	402.258	0.0017953	0.00034987	0.00016168	1444.2	8.4864e-06	1.08e-05	1447.2	396.36	1.6772e-05	6.0748e-06	451.7	152.53	133.12	45.279	5.6304e-06	55.712	0.00080423	0.00079721	0.00022183	1481.3	8.7563e-06	8.6934e-06	1480.4	406.81	8.6216e-06	8.6729e-06	467.83	157.24	137.55	47.052	8.5144e-06	58.246	422.519	212.905	224.369	125.476	244.996	226.727	125.196	130.128	238.581	263.558	129.260	133.317	134.054	138.823	272.940	138.075	-8191	255	
3069.888	1	1	0	0	0.33403	0.10869	0.07399	0.15262	0.32973	0.14345	0.22787	0.35846	0.088613	0.027957	0.25843	0.46333	0.055264	0.1256	0.041693	0.29136	-1.5604	-1.1292	-2.1146	-1.9188	-1.5208	-2.1292	-1.5625	-1.8917	-2.0125	-1.4104	-2.1063	-1.8875	-1.5021	-2.3354	-1.5229	-1.8146	212.994	258.520	239.009	402.878	117.683	357.963	438.334	380.706	223.267	303.473	350.497	403.989	312.712	341.619	338.932	417.098	0.0015871	0.00020393	0.00020069	1440.3	6.838e-06	7.7415e-06	1452.6	393.68	7.3151e-06	7.2111e-06	450.28	152.85	134.02	45.269	1.0858e-05	55.625	0.00079955	0.00077703	0.00021625	1482.2	8.4611e-06	8.4314e-06	1483.2	405.92	8.389e-06	8.4395e-06	467.34	157.14	137.75	46.996	8.3163e-06	58.255	418.082	214.878	180.071	125.446	273.573	301.145	125.154	129.954	252.655	227.127	129.588	133.603	134.324	139.013	221.325	138.380	-8191	255	
3070.007	1	1	0	0	0.16332	0.13676	0.18839	0.21771	0.29176	0.19463	0.39528	0.24564	0.24287	0.24071	0.24868	0.36575	0.16663	0.17035	0.1512	0.34039	-1.8875	-1.4937	-2.0125	-2.1375	-1.3729	-2.0917	-1.9042	-1.7771	-2.3688	-1.4833	-1.9208	-2.1708	-1.4771	-2.2313	-1.5167	-1.5792	182.257	231.236	174.931	437.561	130.255	271.883	382.330	402.359	199.153	431.475	336.634	404.463	127.523	450.664	235.960	369.079	0.0016936	0.0005168	0.00016424	1436.5	1.0826e-05	4.9944e-06	1443.4	396.82	1.1695e-05	6.13e-06	451.91	152.3	133.24	44.91	1.3294e-05	55.92	0.00078479	0.00076503	0.00021086	1478.3	8.3944e-06	8.4923e-06	1479.6	406.52	8.3815e-06	8.5231e-06	467.69	157.21	137.53	46.941	8.696e-06	58.355	426.757	179.050	172.167	125.523	245.225	340.813	125.222	130.184	222.855	177.775	129.564	133.721	134.499	138.983	297.904	138.256	-8191	255	
3070.103	1	1	0	0	0.14036	0.23451	0.17881	0.41109	0.15097	0.16594	0.28883	0.31273	0.15755	0.053881	0.18577	0.098248	0.27967	0.27271	0.32953	0.24239	-1.8021	-1.5042	-1.85	-2.1875	-1.1729	-1.9896	-1.9	-1.5354	-2.0875	-1.5854	-1.7208	-2.0354	-1.3458	-2.0708	-1.7375	-1.4604	361.373	270.383	210.577	401.257	405.067	267.002	409.901	414.215	410.290	414.437	464.285	131.939	373.600	425.800	192.793	401.750	0.001892	0.00043066	0.00015846	1443.7	1.0885e-05	2.966e-06	1450.4	396.55	7.1975e-06	1.0708e-05	451.7	152.53	133.36	44.975	4.9957e-06	55.875	0.00081377	0.00079804	0.00022487	1483.7	8.7988e-06	8.959e-06	1483	406.88	8.8027e-06	8.8081e-06	468.44	157.38	137.66	46.928	8.5072e-06	58.269	420.397	296.136	122.861	125.373	250.299	284.337	125.142	130.153	244.489	255.788	129.619	133.655	134.258	139.044	233.589	138.227	-8191	255	
3070.201	1	1	0	0	0.088779	0.30683	0.174	0.31694	0.18966	0.30562	0.20644	0.21956	0.23523	0.40759	0.16087	0.14928	0.14211	0.30543	0.036617	0.07844	-1.7875	-1.4208	-1.6938	-2.1562	-1.2479	-2.2292	-2.0938	-1.3583	-2.1833	-1.5438	-1.9042	-2.3167	-1.6271	-1.9271	-1.7479	-1.4542	274.728	252.014	398.105	388.585	334.263	189.200	138.240	368.510	179.245	386.579	466.396	403.341	424.842	445.145	421.627	292.271	0.0022774	0.00036291	0.00022517	1443.8	1.1931e-05	1.0077e-05	1446.1	393.26	1.5284e-05	5.4191e-06	450.6	152.16	133.55	44.93	6.9315e-06	55.477	0.000793	0.00076927	0.00021565	1480.2	8.4346e-06	8.5078e-06	1480	405.26	8.4781e-06	8.5164e-06	466.51	156.93	137.55	46.899	8.3619e-06	58.177	420.017	159.097	215.560	125.372	255.431	274.634	125.056	130.110	184.081	212.711	129.533	133.564	134.441	139.318	204.226	138.064	-8191	255	
3070.320	1	1	0	0	0.12215	0.23345	0.13871	0.14825	0.20625	0.24565	0.054855	0.22683	0.2107	0.35729	0.37209	0.10929	0.054432	0.34656	0.25228	0.14349	-1.7687	-1.3771	-1.5042	-2.3958	-1.2208	-1.6938	-2.3646	-1.4583	-2.0042	-1.6896	-1.3646	-2.3812	-1.3625	-1.9083	-1.9792	-1.4604	367.223	223.907	405.488	430.650	406.936	202.019	461.689	416.483	132.003	385.087	167.421	280.679	342.198	114.582	232.852	425.154	0.001875	0.00025121	0.00019206	1434.7	1.1853e-05	8.7625e-06	1446	393.35	1.1111e-05	1.1981e-05	451.87	152.97	133.18	45.174	1.1236e-05	55.575	0.00078456	0.00076236	0.00021331	1473.5	8.3253e-06	8.4445e-06	1478.6	404.97	8.3302e-06	8.2988e-06	466.4	157.06	137.12	46.945	8.3664e-06	58.126	423.191	250.296	298.031	125.272	279.865	260.003	125.110	129.997	213.290	270.072	129.502	133.452	134.423	138.894	261.950	138.285	-8191	255	
3070.416	1	1	0	0	0.19353	0.13978	0.048367	0.15491	0.20973	0.01972	0.19413	0.22845	0.10814	0.15266	0.22553	0.079338	0.29364	0.11605	0.11343	0.16508	-1.6958	-1.6833	-1.4125	-2.3833	-1.3958	-1.7021	-2.3396	-1.5604	-2.0042	-1.7458	-1.3833	-2.2875	-1.5063	-1.7938	-2.1104	-1.4979	281.061	173.365	204.567	430.395	432.140	405.121	400.336	382.086	434.263	385.686	131.843	277.506	113.475	394.141	215.294	466.210	0.0019339	0.00016754	0.00018563	1441.4	9.2496e-06	3.2306e-06	1442.1	394.26	6.3928e-06	7.7388e-06	450.52	152.42	133.35	44.966	7.6833e-06	55.747	0.00078886	0.0007627	0.00021459	1477.2	8.4182e-06	8.4961e-06	1478.6	405.41	8.4058e-06	8.5184e-06	466.78	156.94	137.53	46.86	8.574e-06	58.247	418.284	216.103	195.665	125.460	225.577	218.683	125.127	130.078	203.685	223.077	129.428	133.625	134.069	139.042	195.573	138.162	-8191	255	
3070.488	1	1	0	0	0.057398	0.21856	0.18342	0.22699	0.47961	0.30092	0.42597	0.33469	0.31461	0.17801	0.06177	0.2049	0.22585	0.091578	0.12226	0.10239	-1.5917	-1.6875	-1.3792	-2.3917	-1.6333	-1.7083	-2.2792	-1.5104	-2.0187	-2.1667	-1.4688	-2.2708	-1.6875	-1.5458	-2.1021	-1.4958	179.980	420.245	409.999	395.032	471.506	329.363	376.822	432.635	141.807	359.760	134.983	373.892	384.456	227.341	192.935	349.510	0.0019236	0.0003396	0.0001207	1438.4	4.1268e-06	7.0408e-06	1442	394.02	5.7741e-06	3.2519e-06	450.95	151.93	132.66	44.959	6.586e-06	55.768	0.00079848	0.00078863	0.00022129	1479	8.4971e-06	8.6664e-06	1478.3	405.55	8.6251e-06	8.6248e-06	467.34	157.01	137.09	46.832	8.4133e-06	58.103	417.857	264.141	147.774	125.703	176.281	255.506	125.121	130.091	179.372	260.602	129.690	133.684	134.179	138.735	200.409	137.983	-8191	255	
3070.608	1	1	0	0	0.035849	0.18985	0.093531	0.33608	0.21877	0.23908	0.25595	0.3751	0.21853	0.19456	0.091812	0.072019	0.19974	0.098672	0.26245	0.25928	-1.2687	-1.8333	-1.2687	-2.2104	-1.5812	-1.3083	-2.3604	-1.7	-1.7771	-1.9625	-1.4354	-2.2708	-1.7812	-1.7479	-2.1229	-1.5562	229.410	160.284	132.116	419.438	441.832	289.430	377.490	446.778	176.546	434.035	308.289	432.986	179.965	159.897	471.625	379.534	0.0021065	0.0007632	5.1035e-05	1433.6	3.2409e-06	4.5564e-06	1442.8	393.96	1.2492e-05	9.9811e-06	449.79	151.9	134.12	45.012	6.8803e-06	55.341	0.00079011	0.00077204	0.0002155	1474.3	8.3752e-06	8.4811e-06	1477.8	404.83	8.2556e-06	8.441e-06	465.77	156.65	137.33	46.871	8.3039e-06	58.057	420.215	174.152	450.003	125.506	240.403	248.646	124.860	129.853	203.374	215.731	129.385	133.602	134.040	138.596	120.409	137.564	-8191	255	
3070.705	1	1	0	0	0.12697	0.069219	0.17936	0.30016	0.07549	0.042626	0.29748	0.29495	0.15966	0.22295	0.21179	0.011214	0.060472	0.086896	0.20545	0.22708	-1.2854	-2.1417	-1.5	-2.3771	-1.5229	-1.2313	-2.4	-1.6313	-1.5688	-2.0646	-1.4417	-2.1292	-2.0042	-1.4	-1.9479	-1.7188	397.542	218.905	260.767	428.562	390.278	319.394	367.786	401.912	257.936	376.181	192.807	287.348	257.741	389.242	417.475	415.388	0.0022066	0.00024106	0.00025995	1439.6	1.1532e-05	9.2977e-06	1442.7	393.25	1.3464e-05	1.8364e-05	448.48	152.11	133.28	44.861	1.123e-05	55.626	0.00077965	0.00075597	0.00020791	1476.2	8.2953e-06	8.3847e-06	1477.1	404.49	8.3114e-06	8.2605e-06	465.23	156.54	137.06	46.709	8.2181e-06	58.122	420.350	404.663	189.960	125.389	261.048	301.267	125.007	129.840	253.295	269.489	129.479	133.376	134.339	138.828	260.614	137.738	-8191	255	
3070.801	1	1	0	0	0.065813	0.19696	0.13303	0.21287	0.15454	0.21007	0.35314	0.24232	0.18365	0.14856	0.24633	0.15135	0.25506	0.26673	0.1267	0.16859	-1.2083	-2.1104	-1.2979	-2.0042	-1.9042	-1.3042	-2.3875	-1.8	-1.4333	-2.0667	-1.4667	-2.0104	-2.1646	-1.4312	-2.1562	-1.7375	468.126	397.422	223.713	440.712	329.939	416.157	384.514	454.948	269.801	367.376	365.276	332.582	119.376	434.684	235.022	450.325	0.0018127	0.00060152	8.5363e-05	1437.6	1.4617e-05	3.0089e-06	1441.3	393.67	1.642e-05	7.1121e-06	451.03	151.85	133.22	44.786	6.9655e-06	55.539	0.00076393	0.00075429	0.00021031	1473.3	8.1978e-06	8.3236e-06	1477.7	404.01	8.3245e-06	8.3533e-06	464.63	156.23	137.23	46.747	8.1731e-06	58.046	419.147	159.841	197.741	125.390	265.928	254.565	125.213	129.986	229.072	265.321	129.190	133.439	134.269	138.744	220.426	138.120	-8191	255	
3070.920	1	1	0	0	0.14493	0.097827	0.06461	0.40585	0.2561	0.15543	0.24841	0.42427	0.17937	0.27436	0.13305	0.30647	0.022182	0.096679	0.19626	0.20801	-1.0938	-2.1271	-1.4104	-1.8042	-2.0583	-1.2542	-2.4	-1.9375	-1.35	-2.0771	-1.4146	-1.6646	-2.1063	-1.4354	-1.8563	-1.8792	300.652	336.905	370.806	442.360	223.327	460.436	465.403	431.385	128.612	427.744	462.214	389.003	221.933	386.934	240.750	225.693	0.0020207	0.00068193	0.0001417	1441.5	8.6441e-06	1.0832e-05	1439.2	392.69	7.3933e-06	1.1445e-05	448.27	151.54	133.46	44.95	5.1049e-06	55.716	0.00076731	0.00075947	0.00020943	1475.1	8.2559e-06	8.1802e-06	1475.1	403.57	8.106e-06	8.1457e-06	465.22	156.14	137.06	46.696	8.0568e-06	58.031	419.656	230.654	258.001	125.473	224.277	274.778	125.214	129.702	231.413	233.625	129.328	133.731	134.085	138.808	215.858	137.780	-8191	255	
3071.016	1	1	0	0	0.097784	0.15539	0.068575	0.3207	0.19216	0.072629	0.13994	0.22644	0.18016	0.18731	0.48633	0.18716	0.066286	0.17516	0.13252	0.13241	-0.98125	-2.0833	-1.4042	-1.5896	-2.15	-1.25	-2.1833	-1.9542	-1.2583	-2.1792	-1.6313	-1.55	-2.3979	-1.45	-1.9229	-2.1312	128.177	308.218	440.358	429.387	236.498	122.263	345.088	414.681	358.383	343.715	452.618	308.723	367.856	387.422	249.710	288.370	0.0019378	0.00021141	0.00014803	1437.2	1.3884e-05	4.3915e-06	1443.3	392.03	2.8485e-06	5.6642e-06	452.13	151.26	131.93	44.662	4.1343e-06	55.49	0.00075915	0.00073337	0.00020463	1472.3	7.9662e-06	8.005e-06	1475.3	403.17	8.0188e-06	7.8901e-06	464.68	155.83	136.35	46.591	7.9961e-06	57.939	408.730	164.357	177.328	125.516	256.583	258.194	125.096	129.883	258.114	251.336	129.353	133.785	134.059	138.641	210.178	137.917	-8191	255	
3071.087	1	1	0	0	0.22126	0.093047	0.21944	0.15108	0.12165	0.19453	0.26052	0.3217	0.1682	0.12184	0.15982	0.28241	0.11183	0.21755	0.17728	0.14491	-0.90833	-2.2146	-1.6042	-1.5167	-1.9792	-1.3438	-2.1437	-2.2375	-1.2271	-2.0646	-1.875	-1.5812	-2.4	-1.4167	-1.8521	-2.1333	439.532	172.373	415.800	397.780	220.022	136.296	410.421	461.622	307.412	335.379	412.437	134.233	455.561	382.256	187.137	436.738	0.0019008	0.00077674	0.00016656	1439.1	9.0038e-06	4.2346e-06	1439.8	394.3	4.8414e-06	5.8103e-06	449.45	151.9	132.77	44.722	9.5584e-06	55.552	0.00074378	0.00073075	0.00020266	1473.3	8.1012e-06	8.0455e-06	1474.1	404.03	8.1303e-06	8.2264e-06	465.22	156.44	136.77	46.683	8.2285e-06	58.115	420.277	205.176	265.408	125.456	228.094	222.856	125.366	129.928	273.919	295.116	129.077	133.598	133.971	138.832	201.984	137.975	-8191	255	
3071.208	1	1	0	0	0.25808	0.3322	0.13251	0.14045	0.057178	0.17925	0.11797	0.30313	0.20412	0.19023	0.11274	0.15156	0.095396	0.040447	0.05472	0.14084	-1.0625	-2.1604	-1.7938	-1.4021	-2.2562	-1.5646	-1.9312	-2.3021	-1.3563	-2.0292	-1.9688	-1.5979	-2.1958	-1.5833	-1.7375	-2.1479	261.163	270.126	394.631	133.540	412.702	324.038	356.593	380.498	359.752	375.561	150.182	449.263	430.837	128.015	430.873	390.240	0.0019854	0.00027694	0.00013771	1438.7	8.3857e-06	6.4849e-06	1438.5	392.5	1.4193e-05	4.4819e-06	450.45	152.07	133.48	44.788	8.9923e-06	55.702	0.00076295	0.00074983	0.00021064	1476.1	8.2946e-06	8.3401e-06	1477.5	404.61	8.4048e-06	8.4775e-06	466.09	156.85	137.32	46.797	8.6399e-06	58.204	418.685	201.395	238.561	125.299	254.103	262.085	125.175	129.973	185.583	147.898	129.581	133.599	134.074	138.747	242.486	137.946	-8191	255	
3071.304	1	1	0	0	0.14371	0.25948	0.15395	0.019354	0.18262	0.097059	0.16104	0.32145	0.2457	0.18745	0.081699	0.29653	0.17486	0.2701	0.12535	0.22366	-0.92708	-1.9312	-1.8708	-1.45	-2.1021	-1.5625	-1.7563	-2.4271	-1.3396	-2.0229	-2.0271	-1.4188	-2.0812	-1.8333	-1.3042	-2.2729	141.213	129.365	248.997	159.668	222.534	459.009	415.104	452.486	211.398	312.924	159.081	189.226	144.344	377.281	366.746	446.526	0.0022135	0.00018884	0.00036624	1442.9	7.8845e-06	5.5567e-06	1446.2	395.35	9.4163e-06	5.4756e-06	450.68	152.16	132.82	44.99	5.9185e-06	55.929	0.00080979	0.00079769	0.00022141	1480.2	8.7056e-06	8.7973e-06	1481.5	406	8.7225e-06	8.7875e-06	467.32	157.11	137.87	46.933	8.7187e-06	58.376	422.212	303.757	197.599	125.341	216.361	221.165	125.265	129.871	231.142	197.993	129.468	133.589	134.254	138.770	278.024	138.316	-8191	255	
3071.400	1	1	0	0	0.13549	0.23729	0.16801	0.12446	0.19782	0.11711	0.3818	0.18237	0.088168	0.093597	0.096931	0.055224	0.13834	0.11709	0.16462	0.077395	-0.98125	-1.8729	-2.0271	-1.5854	-2.0771	-1.8292	-1.6354	-2.2375	-1.4417	-1.6896	-2.2021	-1.3021	-2.1042	-1.9125	-1.3583	-2.375	264.920	172.754	119.790	410.454	376.728	309.451	407.509	421.202	367.570	318.330	309.633	459.655	169.835	418.338	235.025	133.426	0.0017841	0.00070546	0.00017257	1441.1	1.1189e-05	7.2746e-06	1445.2	394.24	1.2884e-05	7.3797e-06	452.22	151.68	133.57	44.853	2.2597e-06	55.627	0.00081073	0.00079558	0.0002216	1480.4	8.7127e-06	8.7429e-06	1481.4	405.32	8.6719e-06	8.7236e-06	467.6	156.71	137.56	46.844	8.7101e-06	58.34	425.863	229.116	214.823	125.483	217.845	263.907	125.117	130.074	223.428	206.120	129.577	133.711	134.410	138.797	338.591	137.989	-8191	255	
3071.497	1	1	0	0	0.29538	0.070478	0.16756	0.20596	0.34271	0.32136	0.5045	0.10865	0.18497	0.22999	0.016525	0.22708	0.38	0.13783	0.066453	0.19463	-1.0583	-1.6521	-2.0479	-1.4937	-2.0333	-1.8375	-1.5875	-2.2167	-1.55	-1.5021	-2.0833	-1.5417	-2.0375	-2.0292	-1.3167	-2.1625	191.008	399.885	446.547	319.614	361.169	251.466	358.979	422.044	451.512	289.285	239.350	401.661	429.116	378.421	317.534	412.847	0.001859	0.00068196	2.0933e-05	1444	4.0487e-06	2.3307e-06	1448.3	395.43	1.0023e-05	6.6989e-06	449.83	152.37	133.5	45.105	1.0644e-05	55.91	0.00081441	0.00080192	0.00022388	1478.3	8.7647e-06	8.7866e-06	1481	406.25	8.8161e-06	8.7844e-06	466.65	156.98	137.72	46.925	8.8909e-06	58.528	417.230	137.976	359.450	125.482	221.346	352.090	125.324	129.787	240.194	254.973	129.204	133.619	134.269	138.803	273.418	138.199	-8191	255	
3071.593	1	1	0	0	0.1842	0.13246	0.25563	0.22342	0.23625	0.23695	0.22823	0.21369	0.22595	0.058618	0.025726	0.050752	0.094145	0.14203	0.24125	0.35666	-1.1437	-1.6562	-2.2354	-1.5896	-1.9354	-1.9688	-1.4792	-2.2542	-1.7479	-1.525	-2.2979	-1.5625	-1.8271	-2.1271	-1.4396	-2.1562	348.177	453.419	253.023	416.019	191.038	450.912	142.616	455.646	221.620	453.070	347.755	154.972	366.228	461.174	216.342	418.212	0.0019619	0.0008131	0.00011579	1437.1	7.8355e-06	4.2398e-06	1450.4	396.16	1.1376e-05	5.64e-06	448.63	152.31	133.32	44.906	8.4245e-06	56.096	0.00084424	0.00082944	0.00023155	1481.5	9.1639e-06	9.1982e-06	1482.8	406.99	9.1946e-06	9.2075e-06	468.25	157.22	138	46.992	9.1215e-06	58.672	418.747	191.313	152.430	125.308	237.314	232.966	125.239	129.983	248.943	261.339	129.556	133.588	134.499	138.726	252.780	138.160	-8191	255	
3071.713	1	1	0	0	0.11809	0.12859	0.033851	0.1815	0.14209	0.13398	0.45537	0.2191	0.42815	0.18853	0.12375	0.28056	0.12712	0.2841	0.10783	0.16388	-1.2958	-1.5583	-2.0854	-1.5021	-1.6625	-2.0542	-1.5896	-2.2854	-1.7271	-1.3312	-2.4083	-1.8333	-1.7417	-2.1458	-1.3292	-2.2188	420.076	259.687	228.633	175.762	219.569	129.898	365.776	427.227	294.167	463.943	437.979	437.434	433.677	420.038	272.088	406.916	0.0019777	0.00039747	7.0031e-05	1445.8	3.4656e-06	2.0352e-06	1445.6	395.13	6.6496e-06	1.1176e-06	453.55	153.23	134.07	45.098	4.6642e-06	55.982	0.00085889	0.00084995	0.00023465	1483.7	9.3143e-06	9.2647e-06	1485.6	407.18	9.2497e-06	9.3035e-06	469.31	157.6	138.01	47.08	9.1256e-06	58.59	418.392	119.944	192.751	125.435	145.179	235.074	125.138	130.127	192.398	353.074	129.313	133.662	134.461	138.986	255.233	138.272	-8191	255	
3071.785	1	1	0	0	0.32058	0.099366	0.06792	0.31839	0.21271	0.047974	0.26569	0.22865	0.10736	0.19144	0.24467	0.31702	0.33247	0.18443	0.16864	0.18975	-1.3604	-1.225	-1.9917	-1.6167	-1.6146	-2.0271	-1.6938	-2.1208	-2.0062	-1.3979	-2.1292	-1.7396	-1.6583	-2.2646	-1.4188	-2.0229	135.582	204.521	386.891	443.895	359.258	136.474	468.838	365.532	411.171	244.666	130.998	143.294	114.554	388.014	224.991	150.930	0.0019551	0.0004392	0.00013918	1439.7	8.2382e-06	9.6404e-06	1447.7	395.21	1.2668e-05	1.1594e-05	451.63	151.52	133.26	44.899	4.3706e-06	56.268	0.00083914	0.0008246	0.00023059	1481.6	8.9015e-06	8.9718e-06	1483.6	406.35	8.9281e-06	8.8926e-06	468.55	156.67	137.8	46.769	8.8531e-06	58.537	417.646	169.482	257.689	125.296	265.445	285.114	125.233	130.180	227.351	304.482	129.719	133.541	134.578	138.662	279.836	138.325	-8191	255	
3071.881	1	1	0	0	0.30228	0.23368	0.07862	0.26379	0.2612	0.22739	0.22574	0.11154	0.2099	0.052942	0.22532	0.065319	0.13095	0.15578	0.2358	0.10341	-1.7229	-1.2	-2.0667	-1.6958	-1.3354	-2.0917	-1.5688	-1.9292	-2.1813	-1.3229	-2.1708	-1.9417	-1.3167	-2.1854	-1.2854	-1.9875	393.122	249.055	181.498	446.711	281.969	230.394	466.252	112.555	248.412	358.762	122.625	471.023	188.163	113.869	315.327	257.403	0.002027	0.00032105	0.0002592	1441.6	9.9289e-06	9.5369e-07	1445.8	393.91	1.3177e-05	3.3263e-06	451.69	151.92	133.32	44.736	8.0256e-06	55.607	0.00082366	0.00080803	0.00022619	1478.5	8.8657e-06	8.8276e-06	1479	405.04	8.7191e-06	8.759e-06	466.64	156.55	137.09	46.636	8.5921e-06	58.315	419.154	221.991	208.795	125.520	239.914	190.369	125.379	130.159	212.268	126.389	129.815	133.879	134.520	138.956	237.139	138.023	-8191	255	
3072.002	1	1	0	0	0.10789	0.1894	0.07404	0.39356	0.13368	0.087873	0.1282	0.16062	0.056745	0.18306	0.28972	0.050641	0.21568	0.12173	0.11656	0.13583	-1.7396	-1.2729	-2.0167	-2.0938	-1.1917	-2.2208	-1.8167	-1.9979	-2.1104	-1.4729	-1.9354	-2.0042	-1.5583	-2.2687	-1.5938	-1.8083	246.477	117.845	235.199	130.078	188.020	267.907	451.267	466.205	327.241	161.940	310.010	132.456	430.866	142.767	372.805	116.075	0.0019037	0.00036984	0.00013944	1441.5	7.4194e-06	4.2735e-06	1445.6	392.51	8.3867e-06	4.4343e-06	451.1	151.29	132.46	44.512	7.6436e-06	55.883	0.00079863	0.00077676	0.00021615	1477.4	8.5201e-06	8.5196e-06	1474.9	403.37	8.3043e-06	8.3579e-06	465.62	156.09	136.74	46.416	8.2393e-06	58.126	420.400	163.414	292.397	125.666	278.180	198.192	125.205	130.257	213.490	325.172	129.661	133.519	134.473	138.979	249.572	138.111	-8191	255	
3072.096	1	1	0	0	0.12935	0.38162	0.14504	0.38951	0.11917	0.3633	0.38423	0.061482	0.24078	0.18579	0.05375	0.26714	0.11405	0.23461	0.071721	0.19865	-1.7812	-1.2979	-1.8896	-2.1083	-1.5125	-2.2146	-1.9417	-1.6167	-2.0417	-1.4792	-1.9417	-2.0521	-1.5208	-2.1437	-1.6958	-1.5958	461.935	419.391	273.104	425.520	239.526	126.648	458.334	345.545	366.805	323.061	241.491	336.014	454.494	405.358	190.441	344.927	0.0020892	0.00046182	0.00016991	1438.9	5.5029e-06	1.0108e-05	1439.3	391.87	8.393e-06	6.7761e-06	453.21	151.81	132.76	44.605	4.6932e-06	55.69	0.00076653	0.00075513	0.00020938	1473.4	8.1743e-06	8.3165e-06	1473.9	402.72	8.149e-06	8.1529e-06	465.49	155.99	136.56	46.39	8.1217e-06	58.031	423.655	195.297	218.796	125.439	161.062	251.488	125.347	130.180	214.472	333.995	129.532	133.916	134.317	138.876	204.549	137.997	-8191	255	
3072.192	1	1	0	0	0.14211	0.15195	0.13372	0.263	0.12976	0.34398	0.17254	0.072026	0.18049	0.097717	0.094139	0.23127	0.29233	0.10969	0.096394	0.1655	-1.7812	-1.2437	-1.7458	-2.1688	-1.3479	-2.0104	-1.9646	-1.6917	-2.1104	-1.45	-1.8813	-2.2479	-1.4062	-2.1417	-1.7437	-1.4271	455.262	372.641	261.526	423.514	429.860	188.699	119.196	439.656	434.187	365.611	426.478	377.752	280.215	316.273	249.318	386.321	0.0018579	0.00040657	0.00024014	1438.7	7.4594e-06	5.983e-06	1442.9	392.16	7.3402e-06	8.3413e-06	450.3	151.13	132.98	44.632	7.7163e-06	55.699	0.00075351	0.00074253	0.00020727	1472	8.1171e-06	8.0985e-06	1474.5	402.72	8.1068e-06	8.0951e-06	464.09	155.66	136.49	46.39	8.012e-06	58.071	420.126	235.588	182.848	125.602	232.296	297.626	125.304	130.165	263.509	200.066	129.523	133.729	134.274	138.877	255.007	137.983	-8191	255	
3072.288	1	1	0	0	0.18985	0.072293	0.23811	0.22225	0.10814	0.25273	0.35269	0.50134	0.15281	0.15815	0.14748	0.25623	0.20519	0.13886	0.21087	0.37032	-1.8396	-1.5646	-1.6042	-2.3458	-1.4	-1.8687	-2.1896	-1.4458	-2.1188	-1.4396	-1.7021	-2.2979	-1.4104	-2.0354	-1.9188	-1.4333	471.116	121.739	224.229	457.382	433.601	345.396	401.950	396.205	148.211	248.358	126.731	375.464	204.250	428.815	393.615	395.412	0.0020848	0.00062053	0.00017617	1442	9.4716e-06	1.0449e-05	1440.5	392.36	4.6154e-06	4.9054e-06	448.61	150.97	132.82	44.591	3.257e-06	55.604	0.00074852	0.00073474	0.00020363	1473.2	7.9886e-06	8.1215e-06	1475.6	402.24	7.99e-06	8.036e-06	463.88	155.78	136.5	46.37	8.1047e-06	57.903	421.639	229.773	217.689	125.432	234.854	212.155	125.024	129.973	159.969	369.759	129.685	133.550	134.328	139.093	199.299	138.118	-8191	255	
3072.385	1	1	0	0	0.14125	0.15645	0.13669	0.10417	0.42908	0.12499	0.20336	0.32723	0.13854	0.09537	0.25903	0.18747	0.32338	0.16373	0.12965	0.28195	-1.7021	-1.6417	-1.3917	-2.4625	-1.3979	-1.8062	-2.1458	-1.4896	-2.0625	-1.5979	-1.4021	-2.3729	-1.5104	-1.7188	-1.9271	-1.3479	152.078	222.481	119.712	470.579	378.263	407.575	124.962	398.990	450.203	434.340	467.580	441.487	462.156	133.849	318.179	372.276	0.0021654	0.00046675	0.00015778	1437.1	1.2146e-05	7.713e-06	1449.8	392.29	1.1482e-05	7.9214e-06	445.82	151.65	132.41	44.384	5.7419e-06	55.64	0.00075275	0.00073958	0.00020586	1471.9	8.0595e-06	8.1327e-06	1474.1	402.65	8.0691e-06	8.0004e-06	462.62	155.89	136.1	46.306	8.1064e-06	57.958	416.850	159.357	190.800	125.529	266.109	290.212	125.050	130.101	231.362	242.163	129.379	133.824	134.454	138.998	218.779	137.893	-8191	255	
3072.481	1	1	0	0	0.16953	0.062986	0.37156	0.26071	0.098712	0.20269	0.15409	0.29253	0.29695	0.18385	0.14912	0.06246	0.09374	0.21641	0.10438	0.38379	-1.6604	-1.7021	-1.2437	-2.375	-1.4833	-1.7375	-2.3708	-1.4396	-1.9854	-1.9604	-1.5604	-2.2958	-1.5458	-1.675	-2.2042	-1.4917	223.649	352.640	121.661	415.914	231.641	379.895	395.130	387.183	433.360	145.269	464.149	405.582	116.842	118.402	391.582	424.799	0.0019349	0.00011737	0.00011599	1435.5	8.2959e-06	8.6731e-07	1442.1	391.73	8.6497e-06	5.1243e-06	447.05	151.21	132.24	44.504	3.6342e-06	55.212	0.00075663	0.00073257	0.00020659	1471.7	8.1548e-06	8.0983e-06	1473.9	401.55	8.0942e-06	8.077e-06	462.62	155.57	135.94	46.288	8.0324e-06	57.772	419.798	288.207	191.411	125.256	250.349	271.598	125.059	130.154	238.041	275.033	129.471	133.739	134.541	139.001	123.439	138.101	-8191	255	
3072.601	1	1	0	0	0.37398	0.18887	0.17723	0.46901	0.37667	0.26217	0.29656	0.29538	0.075751	0.08659	0.21017	0.11552	0.19397	0.32577	0.11747	0.0929	-1.7625	-1.9937	-1.2208	-2.3458	-1.4604	-1.5938	-2.4729	-1.6604	-1.9229	-1.9417	-1.4312	-2.2521	-1.6729	-1.425	-2.0625	-1.4333	338.897	119.511	216.624	464.006	372.422	122.995	408.429	443.845	246.196	433.669	443.933	415.637	458.918	465.317	308.052	440.866	0.0017784	0.00084875	0.00024874	1430.4	4.8748e-06	6.0745e-06	1442.1	391.67	1.0861e-05	2.7811e-06	446.9	151.41	132.76	44.442	5.4195e-06	55.471	0.00075711	0.00073166	0.00020289	1468.4	7.9461e-06	7.9658e-06	1469.9	401.81	7.9685e-06	7.9656e-06	462.35	155.63	136.04	46.258	7.906e-06	57.734	416.901	180.014	190.862	125.545	297.318	280.049	125.072	129.784	229.934	189.910	129.380	133.846	134.294	138.913	255.469	138.002	-8191	255	
3072.698	1	1	0	0	0.11979	0.25225	0.14084	0.32148	0.28666	0.18632	0.38722	0.24505	0.10705	0.42367	0.2179	0.055468	0.16298	0.20056	0.20347	0.046871	-1.3917	-2.0354	-1.3521	-2.0854	-1.5542	-1.5271	-2.175	-1.5667	-1.8687	-1.9458	-1.4	-2.1375	-1.7042	-1.5938	-2.2208	-1.5875	423.548	439.541	267.406	439.705	310.960	358.580	384.279	112.855	403.183	427.978	119.195	251.963	449.932	113.666	189.687	394.007	0.0017961	0.00023985	0.00034229	1431.8	7.5598e-06	6.0141e-06	1435.5	390.09	4.4314e-06	3.6995e-06	448.72	150.61	132.73	44.463	2.4324e-06	55.611	0.00074702	0.00072896	0.00020268	1467.6	7.9788e-06	8.024e-06	1469.2	400.84	7.9477e-06	7.9944e-06	462.47	155.34	136.05	46.199	7.9177e-06	57.889	416.820	188.384	210.797	125.519	277.937	298.641	125.377	130.110	255.786	124.588	129.165	133.606	134.380	138.987	151.261	137.930	-8191	255	
3072.794	1	1	0	0	0.061959	0.12529	0.016711	0.17172	0.18896	0.42167	0.4091	0.1051	0.13715	0.12112	0.31303	0.20117	0.24607	0.41792	0.13654	0.18172	-1.2083	-1.9958	-1.3687	-2.0438	-1.8229	-1.425	-2.4104	-1.7854	-1.6187	-2.1167	-1.3979	-2.05	-1.9583	-1.3979	-2.0583	-1.5958	268.815	362.776	396.861	388.924	378.176	458.172	393.651	136.130	137.136	299.060	408.945	154.117	409.825	153.300	200.702	325.024	0.0018051	0.00058986	4.9482e-05	1424	6.8211e-06	8.0509e-06	1438.4	391.95	5.3733e-06	7.566e-06	445.03	151.17	132.07	44.453	4.085e-06	55.568	0.00074427	0.00072204	0.0002031	1463.3	7.9298e-06	8.0412e-06	1468.5	401.26	7.9236e-06	8.0141e-06	462.24	155.26	135.72	46.255	7.9373e-06	57.806	428.836	195.287	401.271	125.444	285.339	294.420	125.152	129.995	295.763	235.723	129.295	133.999	134.195	139.020	173.917	137.723	-8191	255	
3072.890	1	1	0	0	0.30207	0.046768	0.094328	0.34151	0.23847	0.23898	0.16505	0.22705	0.15034	0.27307	0.11757	0.28351	0.25483	0.24713	0.17122	0.25106	-1.0063	-2.1229	-1.4625	-2.1417	-1.7875	-1.3958	-2.2854	-1.5917	-1.3479	-2.1667	-1.4292	-1.9167	-2.0208	-1.3875	-2.125	-1.675	410.349	306.216	326.240	447.216	433.980	142.225	428.374	116.399	267.082	125.446	440.992	333.005	244.377	415.181	144.487	418.932	0.0022316	0.00030407	0.00020703	1431	9.5719e-06	8.446e-06	1433.9	391.35	1.0309e-05	2.1781e-06	446.97	150.89	132.6	44.313	3.5426e-06	55.401	0.00074693	0.00072326	0.00020212	1462.7	8.0043e-06	7.9467e-06	1465.8	400.57	7.9781e-06	8.0359e-06	461.57	155.5	136.02	46.142	8.0363e-06	57.724	424.504	167.027	194.312	125.662	219.205	322.026	125.366	129.912	210.999	221.346	129.411	133.958	134.167	138.875	220.793	138.040	-8191	255	
3073.010	1	1	0	0	0.072664	0.079208	0.10528	0.2453	0.18182	0.43556	0.1699	0.085398	0.10923	0.052042	0.34274	0.23548	0.13489	0.076863	0.19845	0.081066	-1.0729	-2.1583	-1.2354	-1.8375	-2.1396	-1.2875	-2.2958	-1.8729	-1.3354	-2.0479	-1.5083	-1.7917	-2.2271	-1.2792	-2.0438	-1.9229	211.031	398.434	373.031	465.226	301.862	338.462	357.815	414.039	210.053	211.835	402.625	385.439	174.078	444.107	400.052	319.327	0.0019324	0.00084895	0.00016024	1427.2	1.1881e-05	1.2162e-05	1434.7	389.38	1.326e-05	3.5844e-06	445.93	150.6	132.54	44.515	4.5508e-06	55.28	0.00074896	0.00072963	0.00020434	1463	7.9912e-06	8.0646e-06	1466.9	400.62	7.9813e-06	8.1059e-06	461.21	155.19	135.9	46.262	8.1082e-06	57.747	426.397	189.473	140.093	125.551	226.201	253.470	125.273	129.981	200.005	317.215	129.615	133.897	134.311	138.756	255.703	137.724	-8191	255	
3073.080	1	1	0	0	0.15977	0.11667	0.0094416	0.19419	0.21624	0.11648	0.17425	0.24639	0.18524	0.10784	0.30659	0.31001	0.3056	0.25503	0.34153	0.33746	-1.0063	-2.0396	-1.3708	-1.5875	-2.0104	-1.1938	-2.1083	-2.3083	-1.1583	-2.1417	-1.8729	-1.5562	-2.1292	-1.5271	-1.5917	-2.2	412.562	239.837	197.863	293.499	242.843	466.750	364.356	425.310	198.677	428.481	393.106	388.062	410.068	117.736	231.375	447.352	0.0020347	0.00033901	0.00018577	1424	7.3434e-06	6.5395e-06	1436.6	389.49	5.1993e-06	7.4419e-06	448.49	150.94	132.09	44.309	1.4798e-05	55.112	0.00076154	0.00074163	0.00020852	1461.4	8.1895e-06	8.1709e-06	1465	400.93	8.1168e-06	8.1907e-06	462.38	155.35	135.92	46.225	8.1833e-06	57.789	423.292	187.217	209.504	125.776	227.358	232.021	125.453	130.167	232.740	224.037	129.663	133.986	134.634	139.248	220.949	137.958	-8191	255	
3073.177	1	1	0	0	0.053826	0.39196	0.092039	0.27569	0.056106	0.15348	0.5056	0.11705	0.18288	0.089827	0.084644	0.27183	0.1879	0.4009	0.16601	0.25131	-0.80625	-2.1146	-1.6604	-1.5375	-2.1458	-1.2771	-2.0375	-2.4062	-1.2896	-2.1604	-1.6812	-1.4792	-2.325	-1.5917	-1.6771	-2.0875	281.491	226.102	417.784	435.224	247.740	328.667	417.387	416.117	119.720	153.117	414.108	360.638	464.758	429.043	421.865	435.579	0.0021095	0.00033291	0.00017911	1427.8	1.2247e-05	5.5258e-06	1430.8	389.87	4.9459e-06	5.4902e-06	446.37	151.24	132.73	44.386	4.0575e-06	55.198	0.00076811	0.00075704	0.00021024	1461.4	8.27e-06	8.3488e-06	1465	400.68	8.3251e-06	8.376e-06	461.9	155.59	136.06	46.274	8.2122e-06	57.768	420.670	195.822	190.400	125.675	239.767	263.664	125.476	130.149	166.241	258.464	129.753	133.874	134.529	139.119	259.967	137.901	-8191	255	
3073.273	1	1	0	0	0.058139	0.15443	0.17658	0.1843	0.063746	0.043374	0.12488	0.34135	0.15425	0.090231	0.29674	0.40569	0.10794	0.56289	0.25438	0.19457	-0.97083	-1.8646	-1.8896	-1.4021	-1.9771	-1.5688	-1.7271	-2.2917	-1.3729	-1.8	-1.7396	-1.5667	-2.1271	-1.6083	-1.4625	-2.1521	135.470	383.783	442.836	462.485	326.368	351.482	425.359	379.487	272.415	356.990	112.337	410.284	162.361	464.389	420.234	117.539	0.0018023	0.00061762	9.1899e-05	1433	6.6328e-06	9.5018e-06	1435	390.39	1.0662e-05	1.1566e-05	445.71	151.16	132.41	44.364	3.6342e-06	55.581	0.00077114	0.00075662	0.00021017	1465.9	8.2378e-06	8.3278e-06	1465.7	400.9	8.2864e-06	8.3742e-06	461.72	155.36	136.19	46.202	8.3247e-06	57.918	420.924	211.023	231.830	125.594	240.487	271.979	125.345	129.902	235.209	286.250	129.396	133.747	134.536	138.915	213.215	138.169	-8191	255	
3073.393	1	1	0	0	0.16072	0.30283	0.21329	0.23492	0.24794	0.19248	0.30546	0.32139	0.18958	0.14609	0.17064	0.074028	0.32334	0.30625	0.10876	0.14875	-1.0792	-1.7437	-1.9167	-1.4333	-2.1521	-1.5771	-1.5458	-2.3875	-1.1333	-1.9312	-1.9396	-1.4896	-2.1188	-1.8146	-1.6208	-2.3208	117.063	277.300	162.039	116.558	232.703	291.219	425.750	369.792	376.097	349.203	421.251	454.660	450.760	418.002	134.112	226.180	0.0022443	0.00073809	0.00020199	1430.2	6.0324e-06	5.8105e-06	1428.9	389.81	8.4205e-06	7.6109e-06	447.72	150.38	132.36	44.362	7.9155e-06	55.475	0.00077767	0.00076374	0.00021296	1464.4	8.3569e-06	8.2414e-06	1464.9	401.41	8.2403e-06	8.2363e-06	462.17	155.32	136.11	46.259	8.2274e-06	57.898	416.018	219.051	255.255	125.384	254.869	298.275	125.564	130.189	236.899	301.129	129.451	133.610	134.625	138.857	272.921	137.906	-8191	255	
3073.489	1	1	0	0	0.050178	0.11104	0.20962	0.25271	0.16478	0.24082	0.25175	0.27748	0.095056	0.28792	0.29002	0.26295	0.26211	0.24492	0.17535	0.073057	-1.1646	-1.9583	-2.0333	-1.4813	-1.8	-1.6854	-1.4167	-2.2417	-1.4417	-1.5604	-2.3604	-1.5125	-1.9937	-1.8729	-1.2771	-2.3604	466.946	428.903	115.510	422.408	177.733	138.357	413.606	411.417	139.322	277.307	192.199	125.832	447.404	459.667	405.396	451.852	0.0017023	0.00055093	7.6574e-05	1431.1	1.2444e-05	7.8743e-06	1433.8	391.9	1.068e-05	1.3034e-05	446.19	150.84	132.63	44.564	3.1412e-06	55.384	0.00076915	0.0007537	0.0002092	1466.2	8.2591e-06	8.3735e-06	1468.1	401.53	8.3544e-06	8.399e-06	462.29	155.42	136.27	46.329	8.2486e-06	57.793	428.712	164.185	277.526	125.553	245.391	195.129	125.327	130.348	229.033	276.844	129.581	133.880	134.165	139.084	195.714	138.286	-8191	255	
3073.586	1	1	0	0	0.28247	0.34526	0.40475	0.091177	0.091695	0.14943	0.29186	0.060494	0.12605	0.16193	0.27359	0.17402	0.15649	0.13648	0.070182	0.44722	-1.2083	-1.5229	-2.0854	-1.4813	-1.875	-1.8937	-1.4312	-2.2562	-1.3958	-1.4646	-2.3458	-1.4521	-1.975	-2.0062	-1.2479	-2.2188	318.182	301.789	318.377	150.370	428.218	402.751	446.269	428.674	389.716	469.331	416.344	148.229	467.271	139.337	458.965	400.173	0.0020275	0.00038351	0.00012703	1423.9	4.3428e-06	7.0056e-06	1432.1	391.24	6.2895e-06	1.2646e-05	446.78	150.76	132.37	44.328	2.0825e-06	55.445	0.00077051	0.0007621	0.00020841	1462.4	8.2855e-06	8.2665e-06	1467	401.44	8.2148e-06	8.2099e-06	462.37	155.32	136.16	46.212	8.1456e-06	57.875	415.996	252.812	164.525	125.766	241.376	182.363	125.442	130.094	200.920	246.547	129.457	133.621	134.345	138.987	197.180	138.155	-8191	255	
3073.682	1	1	0	0	0.01588	0.027136	0.26864	0.14761	0.00956	0.2762	0.23338	0.13635	0.17217	0.10398	0.14736	0.28142	0.22979	0.32565	0.23506	0.34979	-1.2792	-1.4813	-2.1292	-1.5333	-2.0187	-1.8937	-1.5562	-2.2167	-1.6917	-1.3958	-2.3688	-1.5625	-1.8125	-2.1396	-1.2729	-2.1958	256.397	350.815	195.231	415.508	414.269	461.358	443.987	112.140	330.032	254.702	285.319	467.294	432.069	306.081	405.433	441.928	0.0018038	0.00038977	0.0001721	1426.8	7.2871e-06	1.2188e-05	1431.9	389.18	6.8654e-06	7.8683e-06	445.7	150.71	132.03	44.371	6.1475e-06	55.321	0.00077229	0.00075163	0.00021011	1463.7	8.2584e-06	8.218e-06	1466.1	400.66	8.0902e-06	8.0816e-06	462.1	155.03	135.98	46.165	8.071e-06	57.704	421.406	144.589	228.597	125.433	244.119	279.668	125.193	130.110	225.076	293.343	129.502	133.754	134.721	138.953	227.823	138.230	-8191	255	
3073.778	1	1	0	0	0.1413	0.1993	0.19347	0.14755	0.21627	0.31324	0.20701	0.39238	0.27557	0.42676	0.0095646	0.071821	0.015694	0.14985	0.23867	0.10306	-1.3458	-1.2125	-2.1625	-1.6146	-1.5688	-1.9854	-1.4333	-2.0604	-1.8021	-1.2125	-2.15	-1.5396	-1.5729	-1.9458	-1.3583	-1.9271	349.941	213.343	167.491	190.102	282.277	292.258	411.553	378.004	345.425	281.128	193.859	326.961	286.680	383.887	383.404	454.749	0.0019881	0.00022745	0.0002086	1425.8	9.9615e-06	6.1231e-06	1433.7	389.97	9.4471e-06	5.5834e-06	449.08	151.5	132.42	44.235	6.8538e-06	55.418	0.00075066	0.00073893	0.0002048	1462.6	8.145e-06	8.1749e-06	1463.9	400.81	8.0699e-06	8.0928e-06	463.37	155.17	135.9	46.15	8.1414e-06	57.733	428.368	176.019	238.741	125.627	252.202	248.517	125.353	130.288	194.245	293.548	129.490	133.872	134.260	138.920	240.692	138.100	-8191	255	
3073.874	1	1	0	0	0.14079	0.11368	0.29754	0.20875	0.16378	0.16338	0.20508	0.14068	0.020587	0.030775	0.34237	0.084702	0.13953	0.44236	0.097945	0.16245	-1.4583	-1.2271	-2.225	-1.8146	-1.5063	-1.9854	-1.6125	-1.9417	-1.9021	-1.4146	-2.15	-1.7333	-1.4438	-2.3854	-1.2687	-2.0604	338.584	464.180	272.226	456.271	443.629	126.001	424.022	353.719	454.280	298.871	428.856	402.483	124.368	433.952	423.536	317.505	0.0018581	0.00046323	0.00019527	1428.6	7.4768e-06	8.0189e-06	1429.5	389.99	1.1721e-05	1.687e-06	447.84	150.25	132.11	44.35	7.3424e-06	55.554	0.00075447	0.00074719	0.00020749	1463.2	8.0459e-06	8.2384e-06	1464	400.87	8.0343e-06	8.1246e-06	462.12	155.04	135.8	46.205	7.9906e-06	57.817	420.994	210.204	162.087	125.638	228.643	255.594	125.218	130.226	182.605	347.527	129.517	133.707	134.344	138.849	242.571	138.199	-8191	255	
3073.970	1	1	0	0	0.12467	0.26814	0.022316	0.2101	0.2847	0.12239	0.37155	0.26738	0.010181	0.3777	0.014852	0.13156	0.17256	0.36833	0.39385	0.32639	-1.625	-1.1583	-1.9438	-1.7896	-1.3583	-2.15	-1.65	-1.7812	-1.775	-1.3854	-2.2021	-2.0646	-1.4146	-2.1583	-1.4	-1.7188	152.463	172.861	405.973	437.319	447.390	168.848	327.503	422.459	410.882	278.331	343.333	444.392	330.941	424.274	238.563	466.868	0.0021455	0.00056655	0.00028792	1428.2	3.9494e-06	5.3969e-06	1430.8	389.9	5.3178e-06	7.6507e-06	447.37	150.04	132	44.438	5.3855e-06	55.327	0.0007448	0.00073026	0.00020487	1462.5	7.9581e-06	8.0505e-06	1464.4	399.88	7.9315e-06	8.0437e-06	461.91	154.87	135.68	46.162	7.9387e-06	57.752	421.218	276.688	189.408	125.367	187.431	284.611	125.224	129.990	189.765	259.984	129.610	133.978	134.595	138.956	242.889	137.930	-8191	255	
3074.089	1	1	0	0	0.20642	0.10636	0.19952	0.20149	0.12814	0.13134	0.12136	0.17654	0.21152	0.38849	0.056304	0.14659	0.31222	0.15283	0.211	0.045543	-1.8167	-1.2417	-1.8917	-2.1729	-1.4542	-2.2646	-1.7333	-1.8625	-2.1688	-1.1146	-2.0417	-2.1458	-1.6354	-2.2354	-1.6125	-1.5125	382.357	192.851	342.141	441.129	376.737	367.126	164.805	424.847	445.885	402.045	344.425	445.318	340.814	395.164	351.233	249.415	0.0020481	0.00093474	0.00024789	1427.4	6.5077e-06	4.7049e-06	1432.7	390.14	1.0765e-05	7.0223e-06	447.39	150.59	131.96	44.326	8.9411e-06	55.287	0.0007461	0.00073061	0.0002026	1459.7	7.8569e-06	7.9393e-06	1463.4	400.23	7.8991e-06	7.88e-06	461.56	154.84	135.54	46.135	7.9317e-06	57.621	417.879	195.573	167.335	125.703	239.259	237.994	125.130	130.298	201.847	276.515	129.553	133.530	134.171	139.124	193.307	138.242	-8191	255	
3074.185	1	1	0	0	0.057472	0.05129	0.20522	0.26808	0.11132	0.11926	0.18418	0.11409	0.30099	0.2322	0.35184	0.33579	0.082445	0.10817	0.23748	0.23406	-1.7625	-1.3146	-1.8438	-2.1458	-1.1521	-2.1604	-1.9042	-1.7437	-2.1646	-1.5438	-1.775	-2.0583	-1.5167	-2.1333	-1.6	-1.4104	447.177	425.442	153.416	115.918	135.718	449.212	361.990	371.689	287.261	231.239	374.165	117.611	141.930	130.396	396.563	455.507	0.0019816	0.00018668	0.0002039	1422.6	3.1436e-06	3.2808e-06	1431.3	390.01	5.8229e-06	1.0654e-05	445.67	150.35	132.02	44.318	6.1886e-06	55.164	0.00073683	0.00071942	0.00020054	1459	7.8345e-06	7.9201e-06	1460.7	399.98	7.8007e-06	7.798e-06	461.47	154.71	135.61	46.087	7.8596e-06	57.61	422.458	266.857	212.989	125.208	214.591	198.299	125.132	130.063	192.819	312.117	129.713	133.585	134.428	139.053	239.437	137.981	-8191	255	
3074.281	1	1	0	0	0.1231	0.13368	0.15423	0.24844	0.044331	0.021911	0.28153	0.38251	0.14405	0.14403	0.1088	0.081749	0.2497	0.34518	0.058785	0.21145	-1.7479	-1.5458	-1.7208	-2.4604	-1.4625	-2.1417	-1.9646	-1.4208	-2.1271	-1.475	-1.6208	-2.0583	-1.2229	-2.0083	-1.6479	-1.4896	167.184	132.404	388.779	113.960	389.403	309.385	383.627	409.740	235.605	238.256	460.443	170.798	115.947	133.439	226.811	121.015	0.0022691	0.00046059	0.00011253	1426	8.4121e-06	5.8432e-06	1430.6	390.42	3.7896e-06	1.0316e-05	446.96	150.04	131.3	44.173	8.5799e-06	55.344	0.00073531	0.00071155	0.00020258	1458.4	7.7922e-06	7.9035e-06	1463	399.95	7.8622e-06	7.8498e-06	461.84	154.73	135.22	46.082	7.8207e-06	57.68	424.803	193.079	168.854	125.490	240.929	267.513	125.110	130.292	248.805	270.893	129.495	133.723	134.171	138.946	241.069	137.997	-8191	255	
3074.378	1	1	0	0	0.19847	0.21651	0.23273	0.24284	0.127	0.17789	0.21094	0.36326	0.11983	0.2303	0.20732	0.072731	0.32755	0.16036	0.18031	0.19856	-1.7667	-1.5292	-1.4229	-2.2521	-1.2104	-1.7896	-2.0625	-1.2625	-1.9771	-1.5042	-1.5417	-2.1521	-1.3729	-1.8417	-1.8188	-1.3271	426.647	423.910	459.439	439.879	395.000	257.406	314.702	444.567	261.284	235.985	411.834	395.102	447.959	470.846	415.709	273.984	0.0020462	0.00078413	0.00022036	1423.7	4.7028e-06	3.6804e-06	1425.3	390.54	8.6023e-06	5.2156e-06	446.9	150.24	132.34	44.157	5.2971e-06	55.3	0.00074419	0.00071958	0.00019968	1459.7	7.9004e-06	7.9725e-06	1461.4	400.16	7.8328e-06	7.9308e-06	461.72	154.65	135.86	46.099	7.9531e-06	57.741	415.920	201.817	203.729	125.511	259.767	145.837	125.198	130.084	192.513	200.485	129.345	133.640	134.215	138.840	202.347	138.063	-8191	255	
3074.474	1	1	0	0	0.30892	0.13004	0.13723	0.11902	0.16408	0.12439	0.13866	0.3663	0.13562	0.10362	0.17246	0.12708	0.2029	0.27932	0.14947	0.13535	-1.6729	-1.6104	-1.3479	-2.3708	-1.3542	-1.6688	-2.2083	-1.325	-2.175	-1.8062	-1.3625	-2.2812	-1.4021	-1.8333	-2.1521	-1.3083	174.252	351.843	344.864	363.549	318.849	274.909	396.699	452.296	449.581	187.070	285.750	424.014	115.486	426.921	371.785	328.725	0.0019987	0.00083045	0.00019855	1431.4	7.1244e-06	4.2249e-06	1430.3	389.76	1.2204e-05	5.9192e-06	448.2	150.65	132.04	44.217	6.3793e-06	55.35	0.00074884	0.00072443	0.00020396	1463.3	7.9914e-06	8.047e-06	1463.2	399.96	7.9868e-06	8.1251e-06	462.22	155.11	135.81	46.165	8.0923e-06	57.82	419.659	203.965	217.856	125.528	184.757	292.256	125.172	130.166	271.213	322.550	129.495	133.924	134.432	138.788	241.239	138.339	-8191	255	
3074.570	1	1	0	0	0.28049	0.079732	0.15732	0.10651	0.1194	0.032701	0.14383	0.055038	0.23775	0.27031	0.15531	0.048017	0.28662	0.2773	0.094115	0.21692	-1.5521	-1.7792	-1.3896	-2.2313	-1.4521	-1.7833	-2.5042	-1.525	-1.8396	-1.7542	-1.5063	-2.4167	-1.55	-1.6354	-2.1708	-1.4937	114.494	217.254	269.500	405.645	349.836	265.362	357.661	184.995	353.149	160.218	453.226	173.752	150.137	116.001	450.374	316.355	0.0018947	0.00039586	0.00020938	1427.5	8.3957e-06	2.9884e-06	1441.8	389.46	5.9891e-06	6.3464e-06	446.39	150.96	131.92	44.471	8.728e-06	55.458	0.00076589	0.00074798	0.00020748	1463	8.1724e-06	8.1597e-06	1467.6	400.77	8.2181e-06	8.218e-06	462.15	155.14	135.75	46.277	8.1958e-06	57.857	423.034	155.783	207.770	125.470	208.499	399.428	125.209	129.912	202.819	341.166	129.609	133.607	134.249	138.718	239.594	137.699	-8191	255	
3074.690	1	1	0	0	0.27685	0.19822	0.15661	0.17875	0.15481	0.17284	0.32305	0.33717	0.21352	0.24002	0.19628	0.11674	0.11746	0.14898	0.26709	0.1371	-1.5125	-1.8292	-1.3521	-2.3354	-1.6063	-1.4792	-2.3271	-1.4375	-1.5688	-1.9438	-1.2729	-2.1188	-1.8667	-1.5625	-2.0417	-1.4062	384.958	443.158	220.654	133.898	419.043	299.866	414.817	409.314	403.122	416.930	275.736	185.992	238.368	363.637	462.138	415.078	0.0016913	0.00017764	0.00021073	1430	1.0359e-05	8.4791e-06	1430.8	390.35	7.5934e-06	4.8461e-06	447.76	149.99	131.67	44.29	5.6782e-06	55.317	0.00076824	0.00075388	0.0002104	1463.9	8.2584e-06	8.2285e-06	1466	400.77	8.3343e-06	8.1319e-06	462.62	154.82	135.75	46.178	8.1914e-06	57.834	420.708	147.316	223.326	125.468	264.943	266.551	124.917	129.747	261.806	281.128	129.322	133.483	133.958	138.968	248.888	137.923	-8191	255	
3074.787	1	1	0	0	0.072799	0.21368	0.13783	0.17341	0.16184	0.15193	0.45103	0.3134	0.091542	0.10047	0.27946	0.2559	0.41027	0.30836	0.13775	0.1775	-1.4354	-2.0375	-1.2396	-2.3583	-1.6521	-1.5521	-2.4875	-1.5292	-1.7333	-2.1375	-1.4083	-2.2562	-1.7938	-1.5	-2.3042	-1.5667	224.487	373.107	285.284	464.498	145.239	376.615	384.057	456.935	172.796	315.039	363.033	394.294	428.847	409.285	123.277	444.744	0.0020385	0.00032068	0.00016749	1425.6	4.2756e-06	7.5862e-06	1431.7	390.49	7.4692e-06	9.3725e-06	448.07	150.94	132.04	44.38	3.5595e-06	55.192	0.00076698	0.00074877	0.00020904	1464.7	8.0702e-06	8.1214e-06	1466	400.13	8.1184e-06	8.212e-06	462.29	155.43	135.96	46.133	8.0986e-06	57.754	419.288	166.175	178.757	125.505	280.080	290.722	125.124	129.871	227.027	227.843	129.192	133.689	133.989	138.888	128.329	137.564	-8191	255	
3074.881	1	1	0	0	0.040187	0.31189	0.21652	0.083115	0.050617	0.093847	0.15462	0.26448	0.19741	0.14349	0.15305	0.42498	0.36084	0.068967	0.095804	0.067707	-1.1812	-2.1042	-1.1292	-1.9792	-1.8854	-1.2604	-2.2938	-1.675	-1.6625	-2.2604	-1.6458	-1.875	-1.8937	-1.2563	-2.1604	-1.7854	127.841	278.944	199.165	409.662	365.709	407.280	315.360	442.765	255.943	167.831	319.344	436.620	464.231	412.342	299.506	389.209	0.0020051	0.00077823	0.0001883	1429.5	1.0042e-05	3.9251e-06	1438.2	390.82	1.3033e-05	5.8111e-06	447.62	150.38	132.31	44.405	3.1673e-06	55.404	0.00076377	0.00073741	0.00020693	1465.8	8.0992e-06	8.1995e-06	1467.2	400.51	8.1757e-06	8.192e-06	461.73	155.11	135.94	46.137	8.0594e-06	57.738	426.636	161.249	258.225	125.209	250.008	453.796	125.092	129.729	248.776	241.997	129.462	133.676	134.028	138.711	225.277	137.750	-8191	255	
3074.954	1	1	0	0	0.21705	0.12472	0.2419	0.25936	0.099631	0.10252	0.25198	0.30571	0.11627	0.078862	0.1516	0.16286	0.38634	0.077763	0.25468	0.029973	-1.0167	-2.2854	-1.4333	-2.0229	-2.0458	-1.2521	-2.2625	-1.8833	-1.3062	-2.2958	-1.4729	-2.0042	-2.1312	-1.2646	-1.9625	-2.0396	259.957	261.883	171.362	415.741	230.964	317.146	452.386	428.999	429.382	175.151	154.294	464.277	453.568	418.171	147.182	394.560	0.0020097	0.0005283	9.9971e-05	1427.6	7.4685e-06	6.2462e-06	1430.6	390.63	1.1056e-05	2.2468e-06	447.48	150.73	131.52	44.164	1.297e-05	55.315	0.00075808	0.0007362	0.00020378	1462.4	7.971e-06	8.0361e-06	1463.9	399.83	8.0051e-06	8.0147e-06	461.65	154.75	135.52	46.054	7.8443e-06	57.738	420.567	191.378	199.086	125.292	201.833	225.996	125.276	129.862	211.588	260.236	129.443	133.814	134.202	138.880	260.722	137.902	-8191	255	
3075.073	1	1	0	0	0.10515	0.073938	0.22662	0.22664	0.2161	0.068508	0.44006	0.45999	0.14434	0.15324	0.067566	0.15464	0.18327	0.17959	0.23196	0.20173	-1.2229	-2.1354	-1.4521	-2.0292	-2.1396	-1.3312	-2.1917	-2.0229	-1.1583	-2.2188	-1.5938	-1.6521	-2.2521	-1.4854	-1.9875	-1.9917	129.256	416.196	144.935	439.365	163.235	227.122	421.257	445.628	372.419	450.290	269.925	142.150	253.820	352.617	253.826	440.152	0.0021311	0.00049853	0.00016429	1422.1	5.7161e-06	7.8814e-06	1435.9	389.7	5.5655e-06	9.2907e-06	443.17	150.43	131.97	44.237	8.5399e-06	55.375	0.00074192	0.000721	0.0002016	1459.1	7.8757e-06	7.9819e-06	1464.9	399.87	7.9387e-06	7.8839e-06	460.11	154.97	135.67	46.039	7.8563e-06	57.593	420.380	156.884	260.163	125.644	129.338	301.802	125.196	130.114	204.348	273.638	129.494	133.727	134.317	138.854	313.078	137.954	-8191	255	
3075.169	1	1	0	0	0.19113	0.17987	0.33615	0.066793	0.13998	0.13095	0.13573	0.31139	0.069358	0.24648	0.28474	0.10431	0.15936	0.18938	0.15193	0.14315	-0.94792	-2.0938	-1.3271	-1.6667	-2.1208	-1.3625	-2.1813	-2.0563	-1.3354	-1.9813	-1.725	-1.275	-2.3729	-1.3875	-1.8208	-2.1875	123.824	170.574	459.014	375.637	447.264	273.508	382.131	426.306	468.128	204.175	452.776	340.391	410.362	437.780	211.382	395.518	0.0020413	0.00034744	0.00015664	1428	9.7358e-06	4.0049e-06	1432	388.74	3.1691e-06	5.6383e-06	444.85	150.2	131.8	44.175	9.0894e-06	55.291	0.00073684	0.00072208	0.00020151	1461.2	7.834e-06	7.8096e-06	1462.6	398.94	7.7817e-06	7.868e-06	460.04	154.52	135.46	45.984	7.6733e-06	57.527	423.054	144.928	208.691	125.712	216.696	296.373	125.280	129.870	184.051	279.043	129.305	133.695	133.949	138.990	268.777	138.018	-8191	255	
3075.266	1	1	0	0	0.11877	0.21128	0.2872	0.41245	0.029155	0.19412	0.079172	0.27777	0.16805	0.078127	0.27927	0.19557	0.26515	0.099321	0.10262	0.094382	-0.98333	-2.1479	-1.6688	-1.4708	-1.9396	-1.4458	-2	-2.1188	-1.1583	-1.8771	-1.9083	-1.3229	-2.1583	-1.6667	-1.6521	-2.2	410.875	199.553	406.511	447.248	216.424	468.265	403.574	421.591	278.965	260.263	359.617	399.491	379.124	275.707	405.679	468.827	0.0017035	0.0012287	0.00012775	1427.4	5.3037e-06	9.1687e-06	1426.9	388.38	5.4095e-06	3.0011e-06	443.64	150.15	131.51	44.409	9.0073e-06	55.235	0.00072838	0.00071523	0.00019763	1459.6	7.6962e-06	7.789e-06	1459.7	399.01	7.7311e-06	7.7356e-06	459.18	154.47	135.38	46.04	7.716e-06	57.478	417.617	159.021	201.032	125.421	237.014	291.867	125.375	129.917	216.989	237.633	129.354	133.883	134.450	138.621	253.520	138.191	-8191	255	
3075.362	1	1	0	0	0.16093	0.03596	0.059966	0.17562	0.081164	0.090897	0.37506	0.34799	0.20469	0.081705	0.10877	0.11075	0.21524	0.20843	0.10341	0.11756	-0.80833	-2.0604	-1.7417	-1.6042	-2.0896	-1.5229	-2.0812	-2.2958	-1.1521	-1.7833	-1.9937	-1.1875	-2.2542	-1.7479	-1.3375	-2.1771	135.287	177.508	393.443	177.160	122.651	290.888	443.399	396.793	215.717	239.475	405.149	395.883	428.783	417.272	436.797	357.729	0.0019822	0.00039746	0.00011366	1422.7	1.0055e-05	9.8709e-06	1426.7	388.78	5.9542e-06	5.003e-06	445.9	150.5	132.08	43.981	5.3332e-06	55.234	0.00072403	0.00071384	0.00019793	1456.6	7.8001e-06	7.7595e-06	1459.6	398.52	7.7165e-06	7.7701e-06	459.08	154.39	135.2	45.925	7.7655e-06	57.571	426.142	192.406	232.627	125.487	205.601	240.173	125.156	130.038	258.886	250.507	129.381	133.939	134.544	138.841	263.515	137.973	-8191	255	
3075.482	1	1	0	0	0.038789	0.044809	0.14253	0.29358	0.52065	0.14077	0.32747	0.11823	0.20181	0.068911	0.12254	0.50754	0.24579	0.24725	0.16138	0.043207	-0.85833	-1.8	-1.9562	-1.5312	-2.2771	-1.7104	-1.4479	-2.1667	-1.3563	-1.7396	-2.1063	-1.2958	-2.1875	-1.8896	-1.3146	-2.375	250.236	114.021	440.832	470.658	136.749	265.600	419.608	373.654	243.837	323.510	439.906	465.883	325.212	442.060	323.458	152.167	0.0021202	0.00073204	0.0001094	1421.5	2.8141e-06	9.3578e-06	1430.8	388.09	1.5069e-05	9.2426e-06	446.01	150.5	131.37	44.23	1.2438e-05	55.501	0.00072429	0.00070623	0.00019815	1456.2	7.7988e-06	7.7605e-06	1460.2	398.71	7.7204e-06	7.7977e-06	459.82	154.57	135.21	45.935	7.8356e-06	57.628	430.390	194.121	146.789	125.534	144.711	240.817	125.129	130.215	251.752	270.914	129.604	133.840	134.588	138.883	220.591	138.100	-8191	255	
3075.554	1	1	0	0	0.21238	0.10598	0.027829	0.31204	0.041472	0.086004	0.30301	0.31416	0.12477	0.19733	0.19916	0.070391	0.17145	0.14103	0.29573	0.30855	-0.9625	-1.6208	-1.9021	-1.5292	-2.1625	-1.7292	-1.3917	-2.2896	-1.4896	-1.5917	-2.1312	-1.4937	-1.9312	-1.9833	-1.3438	-2.2583	148.231	305.421	315.150	468.976	137.795	380.688	400.164	421.734	303.125	316.662	148.973	384.251	412.509	261.338	306.133	385.568	0.001912	0.0003237	0.00010128	1425.8	6.2862e-06	8.3917e-06	1425.7	388.38	3.7895e-06	6.656e-06	445.75	150.84	131.84	44.151	5.1443e-06	55.236	0.00074424	0.00072002	0.00020047	1457.2	7.7888e-06	7.912e-06	1459.1	398.93	7.72e-06	7.8805e-06	460.63	154.66	135.38	45.99	7.8236e-06	57.608	423.485	287.163	160.905	125.499	231.348	285.239	125.405	130.275	285.420	284.299	129.444	133.575	134.409	138.885	225.735	138.344	-8191	255	
3075.650	1	1	0	0	0.31092	0.2231	0.18993	0.19962	0.18547	0.18572	0.067683	0.37536	0.16446	0.12151	0.23727	0.16154	0.31626	0.29743	0.054574	0.086523	-1.1292	-1.5938	-2.0021	-1.475	-1.9771	-2.0687	-1.5229	-2.5104	-1.5333	-1.5417	-2.2562	-1.5646	-1.9229	-2.0875	-1.2542	-2.275	428.974	340.103	292.408	418.210	220.846	395.242	470.870	405.988	168.431	142.816	122.378	433.611	429.192	406.140	340.952	180.302	0.0022356	0.0007878	0.00011577	1417.1	5.9626e-06	3.6159e-06	1435.6	389.3	1.3137e-05	6.6688e-06	445.64	150.16	132.06	44.084	5.1746e-06	55.358	0.00074016	0.00071788	0.00020171	1455.4	7.9125e-06	7.9218e-06	1460.9	398.97	7.8321e-06	7.8591e-06	460.17	154.44	135.32	45.937	7.9826e-06	57.543	426.579	146.971	181.454	125.559	229.428	399.602	125.200	130.252	252.061	254.897	129.536	133.961	134.249	138.822	202.868	138.143	-8191	255	
3075.771	1	1	0	0	0.36507	0.23549	0.034196	0.25748	0.21503	0.12762	0.24412	0.18332	0.26854	0.084767	0.082449	0.1536	0.33959	0.13369	0.59102	0.10429	-1.2437	-1.6104	-2.1229	-1.6437	-1.7083	-2.0042	-1.5229	-2.3125	-1.8104	-1.5312	-2.2667	-1.55	-1.7083	-2.0458	-1.2563	-2.0625	128.743	132.974	409.795	443.402	367.172	457.990	348.350	414.439	450.144	125.729	444.704	457.169	423.632	371.057	269.562	410.598	0.0020177	0.00043656	0.00014571	1420	1.1751e-05	7.1605e-06	1428.6	388.46	3.9287e-06	4.8688e-06	444.95	150.09	130.95	44.327	5.7719e-06	55.28	0.00074041	0.00072715	0.00020106	1455.8	7.9622e-06	7.8527e-06	1459.3	398.86	7.9262e-06	7.9337e-06	460	154.41	135.11	46.015	7.876e-06	57.576	417.522	153.769	163.114	125.550	239.166	220.626	125.226	130.018	282.721	235.421	129.677	133.658	134.590	139.000	254.395	138.192	-8191	255	
3075.867	1	1	0	0	0.15623	0.20729	0.12654	0.17822	0.1921	0.29339	0.46445	0.16214	0.16022	0.15734	0.17895	0.32945	0.2416	0.22767	0.31801	0.16567	-1.4688	-1.4354	-2.1375	-1.7292	-1.4792	-2.1354	-1.3604	-2.1229	-1.7437	-1.3208	-2.2292	-1.6958	-1.4729	-2.2896	-1.2313	-2.0458	153.314	244.331	253.585	304.895	315.047	402.751	414.387	468.981	222.271	183.261	447.741	428.674	118.605	469.060	428.544	381.723	0.0019186	0.00036635	0.00012314	1415.4	8.3252e-06	1.1827e-05	1423	388.53	1.1352e-05	3.5405e-06	444.22	150.38	131.08	44.132	1.2836e-05	55.28	0.0007404	0.00071492	0.00020134	1453.3	7.8907e-06	7.9768e-06	1457.4	398.96	7.9167e-06	7.9146e-06	459.77	154.42	134.82	46.026	7.8061e-06	57.534	422.730	196.851	258.503	125.551	244.549	281.942	125.237	130.052	233.995	333.533	129.792	133.719	134.333	138.912	219.281	138.414	-8191	255	
3075.963	1	1	0	0	0.11743	0.12144	0.076752	0.32871	0.36433	0.17055	0.247	0.27321	0.25076	0.10055	0.3155	0.15499	0.15518	0.20919	0.16283	0.094756	-1.4562	-1.275	-2.0938	-1.7062	-1.4396	-2.2562	-1.625	-1.9729	-1.8104	-1.2437	-2.2146	-1.6333	-1.5417	-2.0563	-1.5438	-1.8729	416.094	232.142	411.978	372.766	188.604	412.297	358.142	456.086	243.480	177.083	372.604	126.349	314.170	452.803	460.107	414.149	0.0017463	0.0003783	0.00031229	1419.9	6.669e-06	4.8786e-06	1424.7	388.95	9.0115e-06	7.5509e-06	444.73	150.1	132.14	44.36	8.2372e-07	55.271	0.00073368	0.00071826	0.00019886	1454.1	7.8809e-06	7.8853e-06	1456.4	398.82	7.9272e-06	7.8889e-06	459.74	154.69	135.33	46.039	7.8529e-06	57.64	418.216	139.994	227.793	125.705	203.403	332.419	125.282	130.285	251.608	248.449	129.426	133.929	134.448	138.902	231.491	138.122	-8191	255	
3076.082	1	1	0	0	0.08267	0.19158	0.24453	0.1796	0.03861	0.20954	0.32865	0.18284	0.17356	0.07503	0.35431	0.14973	0.20929	0.099802	0.10383	0.1198	-1.5896	-1.3625	-1.9292	-1.7812	-1.3	-2.3271	-1.7188	-1.8125	-1.9813	-1.3646	-2.0167	-2.0729	-1.3771	-2.2	-1.5812	-1.8667	443.695	469.654	320.616	468.191	347.843	229.258	402.001	431.558	191.224	278.787	396.833	405.377	379.837	324.130	189.462	333.379	0.0018147	0.0004941	0.00012218	1424	4.9944e-06	6.2396e-06	1426.5	387.8	1.1461e-05	4.2399e-06	447.75	150.02	131.66	44.19	5.6046e-06	55.434	0.00073649	0.00072302	0.00020083	1455.2	7.9499e-06	7.8781e-06	1457.3	398.33	7.8037e-06	7.8199e-06	460.49	154.43	135.48	46.021	7.9043e-06	57.655	422.951	166.253	233.441	125.545	233.781	197.008	125.339	130.285	274.157	195.570	129.554	133.924	134.337	139.278	299.905	138.156	-8191	255	
3076.178	1	1	0	0	0.3003	0.15427	0.32445	0.2288	0.19691	0.11045	0.50567	0.30517	0.19554	0.21537	0.16077	0.042429	0.026058	0.21748	0.11965	0.1647	-1.6708	-1.2938	-1.8875	-2.0938	-1.3354	-2.2521	-1.8021	-1.6875	-1.8979	-1.1917	-2.0271	-2.1208	-1.4917	-2.2375	-1.5646	-1.6042	468.989	275.534	209.567	453.624	332.028	148.628	425.868	407.955	291.688	204.282	455.123	342.545	462.913	423.988	253.645	390.817	0.0020181	0.00029418	0.00015028	1418.5	3.8526e-06	5.8634e-06	1427.9	389.73	5.9786e-06	9.0853e-06	445.94	150.41	130.96	44.201	1.0147e-05	55.085	0.00074114	0.00071932	0.00020266	1454	8.0079e-06	7.9754e-06	1459.8	399.34	8.0569e-06	8.0856e-06	461.09	155.07	135.12	46.077	8.1983e-06	57.624	423.161	166.444	173.316	125.488	186.988	244.419	125.227	130.242	253.903	220.197	129.635	133.761	134.570	139.094	186.685	138.086	-8191	255	
3076.250	1	1	0	0	0.090292	0.16853	0.1288	0.20279	0.065847	0.055362	0.11324	0.23883	0.458	0.31682	0.36865	0.38578	0.17827	0.064898	0.14552	0.13916	-1.8312	-1.2979	-1.6333	-2.0292	-1.2458	-2.2083	-1.8625	-1.2188	-2.0104	-1.3708	-1.7687	-2.0708	-1.4188	-2.1063	-1.6708	-1.5125	424.469	255.560	358.975	401.076	177.644	362.781	322.516	418.024	168.406	334.969	427.465	431.315	451.851	192.897	471.303	192.158	0.0020234	0.00064103	0.00018824	1418.8	5.5532e-06	1.1554e-05	1423.9	387.79	9.9605e-06	7.4312e-06	446.86	150.38	132.12	44.178	6.5689e-06	55.443	0.00076492	0.00076312	0.00021227	1457.7	8.3364e-06	8.369e-06	1460	399.51	8.3806e-06	8.2829e-06	461.14	154.79	135.71	46.007	8.1874e-06	57.715	421.535	218.184	207.781	125.569	241.532	225.542	125.353	130.347	208.957	301.482	129.571	133.899	134.087	138.899	181.498	138.245	-8191	255	
3076.370	1	1	0	0	0.1685	0.05616	0.23196	0.39636	0.20635	0.22215	0.24587	0.18113	0.18454	0.099384	0.15709	0.20941	0.15691	0.071901	0.10756	0.22605	-1.8021	-1.4125	-1.6917	-2.1292	-1.2563	-2.0042	-2.1167	-1.6375	-2.0729	-1.4188	-1.6396	-2.2771	-1.2625	-2.0604	-1.975	-1.5083	197.295	269.398	314.396	469.417	304.899	320.566	404.014	460.729	468.786	144.986	469.294	407.342	123.515	264.361	253.213	316.959	0.0019126	0.00094437	0.00013697	1418.6	8.1546e-06	5.3275e-06	1424.2	389.28	6.7596e-06	4.5552e-06	444.99	149.77	131.59	44.041	2.5116e-06	55.264	0.00076031	0.00074396	0.00020541	1454.6	7.9866e-06	8.0179e-06	1456.5	399.58	7.899e-06	7.9089e-06	459.91	154.28	135.16	45.873	7.8088e-06	57.542	415.265	200.580	242.708	125.433	248.781	218.973	125.435	130.120	177.556	363.581	129.778	133.756	134.281	139.137	249.950	138.069	-8191	255	
3076.467	1	1	0	0	0.22698	0.13359	0.16718	0.14411	0.19152	0.14117	0.43031	0.12503	0.059936	0.17281	0.15058	0.3082	0.24903	0.10425	0.11987	0.23357	-1.7708	-1.4542	-1.5021	-2.2854	-1.3042	-1.9271	-2.2146	-1.4896	-2.1646	-1.6833	-1.7771	-2.1708	-1.4979	-1.9667	-2.0854	-1.2083	280.468	167.173	225.904	340.414	167.025	311.773	431.688	441.078	320.054	185.145	313.851	415.145	199.139	134.656	288.697	427.052	0.0019215	0.00011441	0.00018425	1424.4	7.7075e-06	1.9364e-06	1427.4	387.39	2.3912e-06	7.3433e-06	444.03	150.08	131.83	44.03	1.4331e-05	55.285	0.00073759	0.00071539	0.00020046	1455.6	7.8431e-06	7.8815e-06	1458.5	398.5	7.8201e-06	7.8538e-06	459.69	154.44	135.13	45.984	7.8492e-06	57.452	413.666	167.062	231.348	125.833	224.249	314.867	125.436	130.208	180.697	296.739	129.625	133.900	133.936	139.014	241.410	137.999	-8191	255	
3076.563	1	1	0	0	0.19691	0.20302	0.23648	0.17575	0.19209	0.14939	0.22992	0.16165	0.11364	0.18732	0.1896	0.20503	0.12099	0.2477	0.31237	0.36034	-1.7896	-1.6646	-1.3979	-2.5083	-1.2812	-1.7521	-2.1875	-1.35	-2.1271	-1.7563	-1.4125	-2.4021	-1.5458	-1.7188	-1.9667	-1.3729	438.362	238.693	307.985	456.818	402.774	222.207	464.949	418.273	404.242	287.108	468.555	440.685	171.511	116.777	266.853	403.801	0.0019487	0.00062806	0.00016735	1416.9	1.3089e-06	2.2619e-06	1426	388.58	8.2108e-06	7.9523e-06	444.6	150.58	132.24	44.239	7.8994e-06	54.867	0.00073725	0.00072003	0.00020032	1454	7.844e-06	7.907e-06	1456.1	398.72	7.8544e-06	7.8694e-06	459.14	154.37	135.29	46.039	7.8909e-06	57.431	426.471	145.083	174.139	125.422	194.159	326.469	124.946	130.085	266.746	237.802	129.143	133.358	134.305	138.778	237.437	137.848	-8191	255	
3076.659	1	1	0	0	0.06641	0.25232	0.21372	0.34068	0.12834	0.049937	0.37778	0.18235	0.15944	0.25696	0.028053	0.31872	0.17529	0.12239	0.18277	0.23589	-1.4813	-1.8417	-1.3479	-2.2062	-1.5875	-1.5229	-2.4771	-1.5063	-2.0271	-1.8042	-1.3896	-2.4	-1.5854	-1.5938	-2.0396	-1.3292	185.650	139.286	268.807	466.863	114.359	327.872	406.372	361.904	351.753	296.000	391.165	128.125	434.137	425.919	130.311	448.445	0.0019304	0.0002833	0.00020211	1418	5.7632e-06	4.9417e-06	1429.8	386.81	1.3676e-05	6.56e-06	446.36	149.48	131.66	44.285	3.6333e-06	54.983	0.00073753	0.00071474	0.00019996	1454.5	7.898e-06	7.8793e-06	1460.8	398.04	7.782e-06	7.8306e-06	460.01	154.36	134.93	45.968	7.8313e-06	57.362	421.771	189.739	238.582	125.382	245.888	273.669	124.894	129.761	237.953	219.362	129.535	133.550	134.136	138.789	232.327	137.837	-8191	255	
3076.778	1	1	0	0	0.050357	0.01322	0.053567	0.23418	0.13329	0.20826	0.33781	0.47204	0.19929	0.21715	0.098742	0.044002	0.06949	0.25087	0.21052	0.29241	-1.3833	-1.9188	-1.3438	-2.2208	-1.6417	-1.4979	-2.3438	-1.6375	-1.6521	-1.7854	-1.4417	-2.2062	-1.7146	-1.5187	-2.0854	-1.5208	335.657	283.507	192.315	466.600	124.495	437.611	400.816	422.368	149.089	247.856	421.307	382.239	429.103	394.020	337.589	243.170	0.0021317	0.00050957	0.00026286	1415.3	8.2864e-06	1.1462e-05	1426.2	387.71	5.1485e-06	2.8355e-06	445.52	149.19	131.03	44.266	9.962e-06	55.166	0.00072623	0.00071163	0.00019804	1453.1	7.7577e-06	7.7749e-06	1456.8	398.15	7.6418e-06	7.7808e-06	459.31	153.99	134.86	45.98	7.6758e-06	57.362	422.293	198.680	256.160	125.522	275.089	266.285	125.061	129.897	221.874	226.764	129.354	133.661	134.224	139.071	199.230	137.836	-8191	255	
3076.851	1	1	0	0	0.11662	0.083433	0.16839	0.28871	0.11802	0.11577	0.41658	0.028765	0.19725	0.21543	0.068484	0.18479	0.036025	0.25587	0.085192	0.064147	-1.3312	-2.0104	-1.1187	-2.1625	-1.8167	-1.5104	-2.3771	-1.6583	-1.6313	-2.1375	-1.3354	-2.0563	-1.9625	-1.25	-1.8813	-1.6792	397.549	172.278	124.258	310.102	381.091	244.300	433.374	286.802	129.199	112.026	366.196	422.525	318.626	120.213	238.942	136.495	0.0020689	0.00035812	0.00017429	1421	1.1058e-05	5.8688e-06	1427.1	387.17	1.7626e-06	5.2101e-06	443.31	150.04	131.51	44.175	4.5114e-06	54.896	0.00072272	0.00070146	0.00019659	1455.1	7.6417e-06	7.7604e-06	1456.7	397.26	7.6283e-06	7.6864e-06	457.97	154.05	134.72	45.894	7.5329e-06	57.127	420.694	172.155	145.324	125.605	249.003	339.954	125.278	129.997	252.511	140.609	129.679	133.712	134.055	138.881	220.060	137.851	-8191	255	
3076.947	1	1	0	0	0.19563	0.05809	0.30358	0.16058	0.043571	0.11635	0.29045	0.11297	0.060702	0.1832	0.18751	0.20508	0.26558	0.17081	0.089436	0.040155	-1.3396	-2.1625	-1.325	-1.875	-1.7979	-1.3417	-2.3625	-1.6167	-1.4542	-2.0021	-1.3937	-1.9833	-2.0292	-1.3417	-1.9896	-1.7938	420.020	114.072	203.157	369.996	394.378	424.723	445.814	349.485	116.773	228.400	411.608	424.781	441.466	421.550	182.008	137.821	0.0018899	0.0011536	0.00010331	1415.9	7.0713e-06	4.7561e-06	1418.4	387.75	5.7741e-06	8.2439e-06	443.09	149.74	131.37	44.127	7.4844e-06	54.886	0.00070372	0.00068244	0.00019076	1449	7.4936e-06	7.5345e-06	1451.2	397.18	7.4291e-06	7.5094e-06	456.77	153.8	134.61	45.809	7.4452e-06	57.117	427.777	238.533	212.746	125.445	251.828	188.498	125.151	130.063	258.420	219.842	129.493	133.907	134.319	138.683	232.239	137.788	-8191	255	
3077.044	1	1	0	0	0.14066	0.24606	0.15231	0.23414	0.19466	0.11145	0.3525	0.33473	0.10996	0.14925	0.2661	0.11768	0.24065	0.11628	0.065822	0.11596	-0.96667	-2.0417	-1.0771	-2.0417	-1.7771	-1.1792	-2.2708	-1.9729	-1.3604	-2.2521	-1.2313	-1.6167	-2.2021	-1.2979	-1.9188	-1.7958	157.894	438.033	171.142	441.516	162.137	429.960	349.941	402.045	322.036	356.170	137.445	391.088	392.034	440.202	279.152	225.816	0.0017513	0.00056778	0.000218	1417.2	7.4104e-06	1.8453e-06	1422.8	386.08	1.5732e-05	5.8181e-06	443.59	149.34	130.5	44.095	1.0994e-05	54.846	0.00069213	0.00067523	0.00018524	1451.2	7.2891e-06	7.2709e-06	1451.9	396.04	7.2539e-06	7.2684e-06	456.84	153.6	133.9	45.708	7.2309e-06	57.068	421.554	192.112	205.207	125.519	204.447	312.705	125.121	129.853	211.614	253.209	129.379	133.459	134.193	138.813	218.688	137.752	-8191	255	
3077.162	1	1	0	0	0.074949	0.050861	0.19104	0.1875	0.045027	0.14483	0.078785	0.21524	0.30706	0.15023	0.049934	0.088605	0.18684	0.17852	0.188	0.29811	-1.0187	-2.2167	-1.4729	-1.8062	-2.0292	-1.175	-2.1875	-2.0854	-1.1667	-2	-1.5917	-1.4917	-2.3063	-1.375	-1.9375	-1.9688	456.947	128.979	345.427	315.216	341.557	434.920	368.055	451.372	197.490	420.718	446.313	368.998	129.941	120.816	396.869	115.222	0.0020218	0.00033542	8.1681e-05	1416.5	9.0382e-06	1.3478e-05	1426.3	386.51	7.9346e-06	1.0235e-05	443.9	149.19	131.3	43.856	5.5697e-06	54.766	0.00068458	0.00066628	0.00018496	1448.9	7.277e-06	7.2427e-06	1453.8	395.88	7.1623e-06	7.2516e-06	456.64	153.45	134.3	45.622	7.2443e-06	56.965	420.960	211.694	164.447	125.587	212.475	272.925	125.147	130.132	228.058	262.673	129.556	133.709	134.417	139.036	188.390	137.850	-8191	255	
3077.259	1	1	0	0	0.29123	0.046938	0.25232	0.27973	0.13084	0.17451	0.13888	0.045007	0.31677	0.25046	0.0064112	0.23125	0.2127	0.39174	0.37639	0.03967	-1.0208	-2.2188	-1.5354	-1.5042	-2.225	-1.2625	-1.9813	-1.9688	-1.2458	-2.1208	-1.9833	-1.3042	-2.2042	-1.6021	-1.6042	-2.0187	201.148	140.904	127.817	460.254	162.657	315.962	293.118	157.683	343.221	404.198	277.132	405.017	468.328	373.925	431.183	132.549	0.0018809	0.00046819	0.00015653	1412.7	7.9338e-06	6.9935e-06	1417.7	386.7	1.212e-05	1.0218e-05	442.34	149.28	131.2	43.987	6.7522e-06	54.959	0.00068484	0.0006571	0.0001822	1444.9	7.2681e-06	7.2582e-06	1450.6	396.42	7.2261e-06	7.2598e-06	455.96	153.6	134.23	45.667	7.2551e-06	57.009	420.111	259.596	163.421	125.460	231.489	298.681	125.151	129.966	193.612	217.939	129.173	133.597	134.202	138.828	260.771	137.888	-8191	255	
3077.355	1	1	0	0	0.14362	0.18983	0.095624	0.1044	0.061597	0.14879	0.19525	0.12472	0.28572	0.13891	0.13803	0.20222	0.22865	0.054187	0.14395	0.10432	-0.92083	-2.0146	-1.7042	-1.4104	-1.9625	-1.5604	-2.0917	-2.2604	-1.225	-1.9542	-2.0542	-1.4062	-2.2938	-1.6104	-1.6187	-2.0479	291.219	438.833	466.615	128.514	389.483	271.385	385.430	140.443	129.531	266.584	465.457	279.938	279.763	150.870	227.882	235.004	0.0019674	0.0002917	0.0002439	1415.6	3.6289e-06	8.5144e-06	1417.1	386.23	1.321e-05	4.6783e-06	441.24	149.13	131.33	44.148	4.1243e-06	54.783	0.00068895	0.0006705	0.00018668	1447.7	7.311e-06	7.2563e-06	1449.7	395.94	7.3525e-06	7.3e-06	456.07	153.25	134.17	45.794	7.3746e-06	56.998	420.377	147.623	185.405	125.496	203.091	277.681	125.285	129.978	232.613	325.203	129.439	133.805	134.040	138.754	273.443	138.008	-8191	255	
3077.451	1	1	0	0	0.15442	0.29872	0.1905	0.045166	0.2093	0.17906	0.35922	0.034113	0.0876	0.4959	0.14851	0.11543	0.062155	0.16896	0.29547	0.055391	-0.71875	-1.7708	-1.6479	-1.3917	-2.1813	-1.4458	-1.825	-2.3146	-1.35	-1.6875	-1.8438	-1.4312	-2.1292	-1.6771	-1.2771	-2.2521	405.655	329.752	189.604	357.578	381.270	325.922	397.264	318.017	264.257	331.300	422.768	429.663	120.535	327.900	157.457	386.476	0.0019542	0.00039733	0.00024959	1411.5	4.2065e-06	4.25e-06	1422.3	387.72	9.4681e-06	6.4904e-06	443.43	149.75	130.96	44.075	4.5651e-06	54.969	0.00069112	0.00067539	0.0001876	1444.8	7.3608e-06	7.4403e-06	1452.2	396.28	7.4221e-06	7.426e-06	456.03	153.6	134.08	45.798	7.4149e-06	57.164	413.928	166.046	130.042	125.393	231.921	224.378	125.223	129.900	220.465	285.663	129.152	133.746	134.446	138.910	235.088	137.773	-8191	255	
3077.547	1	1	0	0	0.045513	0.11527	0.35584	0.27112	0.14961	0.04529	0.22718	0.067374	0.055946	0.2671	0.051803	0.32577	0.23075	0.1525	0.064811	0.16891	-0.94792	-1.95	-1.9292	-1.4417	-2.1167	-1.7417	-1.6979	-2.3542	-1.3083	-1.9771	-2.2583	-1.3979	-2.1063	-1.8813	-1.2875	-2.0708	455.836	469.118	402.464	433.812	325.812	196.645	433.163	433.054	365.151	141.550	449.619	382.708	121.402	180.871	276.898	450.529	0.002048	0.00067062	0.00019141	1415.1	6.9861e-06	1.6602e-06	1420.7	386.63	6.2636e-06	2.8387e-06	441.62	149.58	131.68	44.076	3.3514e-06	55.071	0.00070123	0.00068047	0.00018926	1446.5	7.4564e-06	7.4536e-06	1449.4	396.35	7.3899e-06	7.4287e-06	456.19	153.42	134.28	45.786	7.3838e-06	57.171	415.392	161.076	237.259	125.478	263.097	127.367	125.276	130.005	183.552	263.558	129.427	133.517	134.296	139.113	271.183	137.945	-8191	255	
3077.643	1	1	0	0	0.16309	0.010529	0.20633	0.36625	0.20506	0.059783	0.29576	0.20048	0.18561	0.16731	0.13827	0.19697	0.045228	0.11062	0.035309	0.1157	-0.975	-1.7687	-2.1104	-1.475	-2.0917	-1.7292	-1.6396	-2.3563	-1.4458	-1.6083	-2.0875	-1.3833	-1.9396	-1.8813	-1.3208	-1.9896	145.089	161.353	409.086	432.047	166.233	128.985	404.538	465.099	338.555	359.810	440.406	133.680	123.146	163.050	267.800	377.299	0.0019969	0.00022301	0.00024567	1411.1	8.4793e-06	3.0113e-06	1418.3	386.96	9.0221e-06	6.2101e-06	442.22	148.72	131.01	43.94	6.997e-06	54.901	0.00069966	0.00067945	0.00018955	1446.5	7.4343e-06	7.4278e-06	1449.5	396.76	7.2896e-06	7.3313e-06	456.77	153.09	134.14	45.658	7.3844e-06	57.092	416.724	243.239	191.965	125.585	182.935	259.654	125.148	130.118	219.678	244.605	129.594	133.616	134.440	138.914	248.201	137.814	-8191	255	
3077.764	1	1	0	0	0.079328	0.2599	0.173	0.13296	0.17123	0.15885	0.2492	0.27786	0.12464	0.2297	0.28311	0.085389	0.33418	0.11816	0.23457	0.40695	-1.0979	-1.5458	-2.1375	-1.3833	-1.8292	-2.0958	-1.4229	-2.275	-1.6375	-1.3625	-2.225	-1.4583	-1.9542	-2.0312	-1.2958	-2.1979	432.621	128.508	437.580	319.046	338.121	395.315	447.281	426.467	145.585	404.696	427.136	435.915	124.652	143.315	379.178	366.115	0.0018205	0.00013516	9.852e-05	1412.7	1.8106e-06	6.1945e-06	1420	386.3	3.9814e-06	5.9795e-06	443.14	150.03	131.17	44.002	6.882e-06	55.042	0.00068403	0.00067074	0.00018606	1444.2	7.2947e-06	7.233e-06	1448.8	396.07	7.2788e-06	7.3531e-06	456.36	153.51	134.17	45.667	7.2853e-06	57.093	416.637	405.560	233.999	125.512	190.540	294.930	125.211	130.124	142.120	309.326	129.345	133.667	134.438	138.830	240.763	138.228	-8191	255	
3077.860	1	1	0	0	0.16743	0.085357	0.10807	0.1615	0.19252	0.096616	0.37551	0.23213	0.17625	0.10161	0.093401	0.43209	0.21293	0.18745	0.056706	0.17777	-1.3833	-1.4146	-2.1458	-1.5417	-1.6458	-2.1417	-1.4854	-2.2271	-1.7104	-1.4542	-2.3625	-1.4979	-1.8208	-2.0792	-1.2313	-2.0812	232.268	381.869	445.005	433.904	357.760	181.932	406.410	433.134	153.255	443.212	353.374	367.655	405.377	407.275	128.757	457.063	0.001938	0.00063439	0.0002317	1409.4	5.5402e-06	6.8431e-06	1423.2	385.73	1.389e-05	9.369e-06	443.78	149.06	131.81	44.143	6.3267e-06	55.026	0.00068886	0.00066507	0.00018648	1445.9	7.3381e-06	7.2249e-06	1450.7	396.58	7.256e-06	7.3166e-06	456.23	153.19	134.36	45.783	7.3117e-06	57.094	418.310	201.392	190.590	125.259	250.222	222.157	125.220	130.104	239.866	291.994	129.611	133.621	134.422	138.849	213.012	138.032	-8191	255	
3077.954	1	1	0	0	0.3152	0.15635	0.16507	0.14375	0.063557	0.19475	0.18668	0.040237	0.21664	0.32506	0.18068	0.44265	0.18539	0.27821	0.11788	0.028983	-1.45	-1.3646	-2.0208	-1.4604	-1.5354	-1.975	-1.3667	-2.2062	-1.7979	-1.3875	-2.4479	-1.5396	-1.4708	-2.3104	-1.4042	-2.0771	401.440	318.002	283.314	436.973	221.542	408.263	402.108	445.136	421.260	416.685	418.369	138.333	338.624	411.197	122.620	186.245	0.0017481	0.00056424	0.00018505	1412.9	6.4144e-06	6.8479e-06	1420.3	387.63	9.9578e-06	4.8391e-06	442.1	149.74	131.69	44.08	4.2805e-06	55.082	0.00068731	0.00066845	0.00018745	1444.2	7.3415e-06	7.2956e-06	1449.1	396.6	7.3017e-06	7.3019e-06	456.15	153.34	134.4	45.801	7.3468e-06	57.148	420.193	198.499	216.285	125.438	241.593	176.513	125.178	130.002	243.685	272.661	129.612	133.519	134.306	138.719	271.973	138.112	-8191	255	
3078.052	1	1	0	0	0.10218	0.21377	0.11499	0.1646	0.11219	0.090694	0.2873	0.22337	0.24684	0.047284	0.1089	0.25697	0.086289	0.2162	0.26931	0.090686	-1.6208	-1.2792	-2.1583	-1.7667	-1.3771	-2.1167	-1.5583	-2.0563	-2.0583	-1.3521	-2.2417	-1.9542	-1.5688	-2.3542	-1.2062	-1.8875	289.106	301.451	112.406	402.006	400.156	418.488	384.188	425.056	458.927	438.646	330.402	121.256	426.206	419.367	371.675	281.428	0.0018792	0.00045548	0.00019781	1415.7	7.7303e-06	4.3813e-06	1422.5	386.34	1.2085e-05	3.3349e-06	442.54	149.57	131.85	43.916	8.8295e-06	55.018	0.00068385	0.00066329	0.00018849	1447.6	7.3163e-06	7.4127e-06	1451.9	396.39	7.3307e-06	7.3587e-06	457.1	153.67	134.38	45.789	7.3497e-06	57.21	420.281	265.494	224.601	125.474	217.699	291.904	124.993	130.295	209.291	459.832	129.435	133.817	134.336	138.804	236.863	137.988	-8191	255	
3078.147	1	1	0	0	0.1604	0.10976	0.060943	0.24743	0.28022	0.14234	0.4464	0.026601	0.019187	0.051195	0.12356	0.12822	0.039388	0.15873	0.23212	0.28818	-1.6167	-1.2854	-2.0021	-1.9833	-1.3854	-2.0979	-1.7729	-1.9937	-2.1479	-1.4188	-2.1271	-2.0938	-1.4771	-2.3458	-1.6354	-1.9146	250.219	362.681	459.078	117.904	223.317	360.858	428.297	198.754	430.201	337.862	421.134	294.973	408.538	402.904	425.980	420.935	0.0019367	0.00064508	0.00014271	1408.3	5.8464e-06	7.6424e-06	1419.6	386.05	9.5102e-06	5.5447e-06	441.42	149.64	130.93	43.853	7.4211e-06	54.824	0.00069284	0.00067446	0.00018947	1445.5	7.4323e-06	7.5337e-06	1450.4	396.44	7.4603e-06	7.5118e-06	456.82	153.66	134.18	45.768	7.5053e-06	57.088	430.174	214.453	212.025	125.440	224.280	244.430	125.201	130.030	230.416	282.358	129.546	133.782	134.633	138.731	191.528	138.095	-8191	255	
3078.243	1	1	0	0	0.26274	0.16383	0.12628	0.21314	0.13326	0.018537	0.19965	0.14075	0.051061	0.18688	0.098377	0.18271	0.19926	0.23333	0.12339	0.29535	-1.7979	-1.4312	-2.1417	-2.2208	-1.2208	-2.1312	-1.8104	-1.5958	-2.1813	-1.2917	-1.7354	-1.9583	-1.3958	-2.1417	-1.7167	-1.4833	342.185	286.350	416.592	427.828	463.518	382.723	351.818	418.398	234.400	346.315	428.625	119.345	130.293	468.745	323.492	423.000	0.0020308	0.00076417	0.00018856	1417.7	8.0176e-06	5.935e-06	1420.3	386.5	3.9549e-06	6.566e-06	441.35	149.69	130.75	44.287	7.7911e-06	54.864	0.00069818	0.00068235	0.00019071	1449	7.498e-06	7.5075e-06	1450.9	396.21	7.5166e-06	7.4563e-06	457.43	153.58	134.29	45.801	7.5339e-06	57.186	416.447	178.673	182.197	125.496	261.723	313.892	125.201	130.119	113.715	195.723	129.681	133.944	134.056	138.722	196.759	138.145	-8191	255	
3078.339	1	1	0	0	0.14266	0.074537	0.22184	0.24255	0.20049	0.22957	0.21392	0.19699	0.1262	0.29997	0.096105	0.40204	0.22048	0.097796	0.18595	0.34859	-1.7812	-1.3354	-1.5688	-2.3083	-1.1292	-1.9062	-1.9521	-1.5917	-1.9562	-1.5083	-1.825	-2.2229	-1.2417	-2.1437	-1.7333	-1.5063	365.577	268.846	381.385	356.018	247.965	144.187	399.272	439.810	245.994	453.576	139.958	447.122	424.985	430.271	218.092	406.193	0.0019317	0.00011713	0.0001347	1415.6	6.8303e-06	8.5656e-06	1416.2	386.48	1.0577e-05	7.6659e-06	445.35	150	131.11	44.19	7.3219e-06	54.871	0.00070506	0.00069224	0.00019057	1449.3	7.4931e-06	7.5851e-06	1450.1	396.3	7.537e-06	7.5794e-06	458.51	153.96	134.48	45.805	7.4971e-06	57.138	420.591	164.332	211.302	125.510	222.778	287.385	125.242	130.198	190.119	245.223	129.630	133.522	134.365	139.238	239.578	137.801	-8191	255	
3078.460	1	1	0	0	0.088331	0.23846	0.18224	0.29877	0.16343	0.093445	0.1802	0.29334	0.21164	0.084949	0.026728	0.21538	0.12559	0.23479	0.31348	0.13588	-1.8687	-1.3479	-1.4312	-2.3625	-1.1938	-1.9417	-2.1375	-1.4667	-2.1583	-1.6063	-1.5854	-2.3833	-1.3625	-1.8438	-1.925	-1.45	408.929	313.418	395.380	455.554	114.059	458.452	366.943	406.722	329.571	152.384	132.185	451.668	384.041	435.991	199.628	359.782	0.0017465	0.00071164	0.0001874	1408.7	1.9077e-06	5.9452e-06	1420.1	384.48	8.8314e-06	7.7506e-06	443.75	149.16	131.53	44.189	4.5683e-06	54.979	0.00070455	0.00068013	0.00018966	1445.3	7.4047e-06	7.4964e-06	1451.8	395.96	7.4039e-06	7.429e-06	456.79	153.78	134.23	45.839	7.3947e-06	57.125	413.853	212.144	160.315	125.595	250.834	274.933	125.266	130.202	242.572	446.522	129.560	133.584	134.311	139.137	277.704	138.007	-8191	255	
3078.556	1	1	0	0	0.073491	0.15958	0.22221	0.26445	0.26503	0.26847	0.2148	0.28745	0.16599	0.26731	0.23529	0.24841	0.14937	0.072312	0.036109	0.12363	-1.7188	-1.5479	-1.5854	-2.3458	-1.4479	-1.775	-2.2917	-1.4208	-2.2229	-1.425	-1.5583	-2.2146	-1.4104	-1.7333	-2.0229	-1.425	420.633	342.252	401.819	461.694	293.070	249.212	375.871	436.457	301.319	136.394	225.425	432.182	457.523	389.708	294.426	325.882	0.0017606	0.00038193	0.00019234	1417.6	1.3597e-05	2.7397e-06	1423.7	384.83	8.0306e-06	4.0899e-06	445.36	149.09	131.91	43.877	6.6794e-06	54.737	0.00068645	0.00067235	0.0001854	1448.1	7.2599e-06	7.2345e-06	1451	395.38	7.1689e-06	7.3338e-06	456.6	153.4	134.26	45.624	7.3735e-06	56.976	417.569	188.025	186.672	125.494	273.532	276.472	125.379	130.163	193.844	243.276	129.668	133.860	134.204	139.160	217.044	137.969	-8191	255	
3078.652	1	1	0	0	0.046509	0.24126	0.19632	0.40652	0.12609	0.14518	0.11986	0.24043	0.12328	0.20886	0.15945	0.14789	0.22254	0.22696	0.18521	0.044817	-1.6104	-1.6708	-1.2812	-2.3333	-1.5521	-1.7792	-2.325	-1.5604	-2.0292	-2.0542	-1.5896	-2.4458	-1.6083	-1.6042	-2.3229	-1.4312	164.482	305.773	367.663	415.167	147.538	293.982	393.576	437.625	390.562	420.847	401.863	462.401	428.039	467.736	137.117	427.790	0.0019892	0.00040368	6.7601e-05	1410.8	7.8723e-06	4.3173e-06	1419	387.02	6.1688e-06	3.5538e-06	443.03	150.14	130.97	43.981	3.5477e-06	54.988	0.00069547	0.0006765	0.00018938	1444.2	7.4837e-06	7.5059e-06	1448.6	396.04	7.4249e-06	7.4413e-06	457.22	153.66	134.05	45.726	7.479e-06	57.024	420.402	220.401	157.705	125.440	201.536	272.244	125.280	130.211	187.565	288.832	129.503	133.728	134.138	139.039	244.317	137.832	-8191	255	
3078.724	1	1	0	0	0.20994	0.079061	0.084796	0.23508	0.075908	0.23329	0.27203	0.2124	0.34489	0.095692	0.22782	0.16996	0.31986	0.31832	0.083566	0.085234	-1.65	-1.8292	-1.3271	-2.1917	-1.4708	-1.6396	-2.4042	-1.4958	-1.975	-2.025	-1.3667	-2.1063	-1.7333	-1.7104	-2.1104	-1.5083	288.047	116.455	447.691	355.608	464.042	153.810	433.176	387.944	283.497	466.042	359.778	465.407	405.469	121.039	312.941	461.730	0.0020837	0.00084196	0.00019765	1415.6	8.2695e-06	5.3722e-06	1419	385.72	6.8868e-06	3.9846e-06	443.19	149.4	130.08	44.06	7.3692e-06	54.626	0.00070927	0.0006902	0.00019066	1445.4	7.6317e-06	7.5343e-06	1448.7	395.77	7.5979e-06	7.5971e-06	457.16	153.66	134.1	45.775	7.5779e-06	57.067	424.807	151.716	181.915	125.478	272.910	270.696	125.182	130.143	190.715	292.865	129.382	133.793	134.347	139.011	262.703	138.256	-8191	255	
#DATA ENDS
