BOXY.EXE: ISS Imagent and Oximeter Data Acquisition Program Version 0.80
Ascii Record File

#ACQ INFORMATION
2  Detector Channels 
16  External MUX Channels 
1  Auxiliary Channels 
5000  Waveform (CCF) Frequency (Hz)
1  Waveforms Skipped 
30  Waveforms Averaged 
1  Cycles Averaged 
16  Acquisitions per Waveform 
10.0806  Updata Rate (Hz) 

#FILE INFORMATION
TRUE -- External MUX Channel results are PARSED.
FALSE -- AC DC and Phase are NOT grouped.
TRUE -- Companion Program Settings File CREATED.
FALSE -- AC data not excluded
FALSE -- DC data not excluded
FALSE -- Phase data not excluded
FALSE -- Auxillary Chn. data not excluded
Tab delimiters

#CALIBRATION STATE
TRUE -- Waveform Calibration Values APPLIED.


#AUX CALIBRATION VALUES
Val Type	aux-1	

Term	1.0000e+00	
Factor	0.0000e+00	


#WF CALIBRATION VALUES
A = Detector Channel
Val Type	A-AC1	A-AC2	A-AC3	A-AC4	A-AC5	A-AC6	A-AC7	A-AC8	A-AC9	A-AC10	A-AC11	A-AC12	A-AC13	A-AC14	A-AC15	A-AC16	A-DC1	A-DC2	A-DC3	A-DC4	A-DC5	A-DC6	A-DC7	A-DC8	A-DC9	A-DC10	A-DC11	A-DC12	A-DC13	A-DC14	A-DC15	A-DC16	A-Ph1	A-Ph2	A-Ph3	A-Ph4	A-Ph5	A-Ph6	A-Ph7	A-Ph8	A-Ph9	A-Ph10	A-Ph11	A-Ph12	A-Ph13	A-Ph14	A-Ph15	A-Ph16	

Term	0.00000e+00	0.00000e+00	0.00000e+00	0.00000e+00	0.00000e+00	0.00000e+00	0.00000e+00	0.00000e+00	0.00000e+00	0.00000e+00	0.00000e+00	0.00000e+00	0.00000e+00	0.00000e+00	0.00000e+00	0.00000e+00	0.00000e+00	0.00000e+00	0.00000e+00	0.00000e+00	0.00000e+00	0.00000e+00	0.00000e+00	0.00000e+00	0.00000e+00	0.00000e+00	0.00000e+00	0.00000e+00	0.00000e+00	0.00000e+00	0.00000e+00	0.00000e+00	0.00000e+00	0.00000e+00	0.00000e+00	0.00000e+00	0.00000e+00	0.00000e+00	0.00000e+00	0.00000e+00	0.00000e+00	0.00000e+00	0.00000e+00	0.00000e+00	0.00000e+00	0.00000e+00	0.00000e+00	0.00000e+00	
Factor	1.00000e+00	1.00000e+00	1.00000e+00	1.00000e+00	1.00000e+00	1.00000e+00	1.00000e+00	1.00000e+00	1.00000e+00	1.00000e+00	1.00000e+00	1.00000e+00	1.00000e+00	1.00000e+00	1.00000e+00	1.00000e+00	1.00000e+00	1.00000e+00	1.00000e+00	1.00000e+00	1.00000e+00	1.00000e+00	1.00000e+00	1.00000e+00	1.00000e+00	1.00000e+00	1.00000e+00	1.00000e+00	1.00000e+00	1.00000e+00	1.00000e+00	1.00000e+00	X	X	X	X	X	X	X	X	X	X	X	X	X	X	X	X	

B = Detector Channel
Val Type	B-AC1	B-AC2	B-AC3	B-AC4	B-AC5	B-AC6	B-AC7	B-AC8	B-AC9	B-AC10	B-AC11	B-AC12	B-AC13	B-AC14	B-AC15	B-AC16	B-DC1	B-DC2	B-DC3	B-DC4	B-DC5	B-DC6	B-DC7	B-DC8	B-DC9	B-DC10	B-DC11	B-DC12	B-DC13	B-DC14	B-DC15	B-DC16	B-Ph1	B-Ph2	B-Ph3	B-Ph4	B-Ph5	B-Ph6	B-Ph7	B-Ph8	B-Ph9	B-Ph10	B-Ph11	B-Ph12	B-Ph13	B-Ph14	B-Ph15	B-Ph16	

Term	0.00000e+00	0.00000e+00	0.00000e+00	0.00000e+00	0.00000e+00	0.00000e+00	0.00000e+00	0.00000e+00	0.00000e+00	0.00000e+00	0.00000e+00	0.00000e+00	0.00000e+00	0.00000e+00	0.00000e+00	0.00000e+00	0.00000e+00	0.00000e+00	0.00000e+00	0.00000e+00	0.00000e+00	0.00000e+00	0.00000e+00	0.00000e+00	0.00000e+00	0.00000e+00	0.00000e+00	0.00000e+00	0.00000e+00	0.00000e+00	0.00000e+00	0.00000e+00	-1.60646e+02	-1.31022e+02	-1.25289e+02	-1.86209e+02	-7.18792e+01	-6.66958e+01	-1.58474e+02	-1.62015e+02	-7.97830e+01	-6.76213e+01	-1.72128e+02	-1.71386e+02	-1.83279e+02	-1.77394e+02	-7.09845e+01	-1.49699e+02	
Factor	2.28142e-05	1.35801e-04	4.02598e-05	2.77733e-01	1.31646e-06	1.49048e-06	1.53129e-01	4.67114e-02	1.21370e-06	1.46712e-06	7.52218e-02	2.47388e-02	3.57489e-02	7.91092e-03	1.34422e-06	1.11941e-02	1.85564e-05	4.45642e-05	1.25709e-05	1.49093e-01	4.45853e-07	5.11453e-07	7.76909e-02	2.52998e-02	4.01722e-07	5.10017e-07	3.95400e-02	1.30392e-02	1.96821e-02	4.33613e-03	4.36568e-07	5.95756e-03	X	X	X	X	X	X	X	X	X	X	X	X	X	X	X	X	



#DISTANCE SETTINGS
A = Detector Channel
A-1	A-2	A-3	A-4	A-5	A-6	A-7	A-8	A-9	A-10	A-11	A-12	A-13	A-14	A-15	A-16	

2.5000e+00	3.0000e+00	2.5000e+00	3.0000e+00	2.0000e+00	3.0000e+00	1.5000e+00	3.0000e+00	3.0000e+00	3.0000e+00	3.0000e+00	3.0000e+00	3.0000e+00	3.0000e+00	1.5000e+00	3.0000e+00	

B = Detector Channel
B-1	B-2	B-3	B-4	B-5	B-6	B-7	B-8	B-9	B-10	B-11	B-12	B-13	B-14	B-15	B-16	

1.0000e+01	1.0000e+01	1.0000e+01	1.4400e+00	1.0000e+01	1.0000e+01	1.5100e+00	1.9400e+00	1.0000e+01	1.0000e+01	1.9900e+00	2.4900e+00	2.4100e+00	2.9000e+00	1.0000e+01	2.9800e+00	




#DATA BEGINS
time	group	step	mark	flag	A-AC1	A-AC2	A-AC3	A-AC4	A-AC5	A-AC6	A-AC7	A-AC8	A-AC9	A-AC10	A-AC11	A-AC12	A-AC13	A-AC14	A-AC15	A-AC16	A-DC1	A-DC2	A-DC3	A-DC4	A-DC5	A-DC6	A-DC7	A-DC8	A-DC9	A-DC10	A-DC11	A-DC12	A-DC13	A-DC14	A-DC15	A-DC16	A-Ph1	A-Ph2	A-Ph3	A-Ph4	A-Ph5	A-Ph6	A-Ph7	A-Ph8	A-Ph9	A-Ph10	A-Ph11	A-Ph12	A-Ph13	A-Ph14	A-Ph15	A-Ph16	B-AC1	B-AC2	B-AC3	B-AC4	B-AC5	B-AC6	B-AC7	B-AC8	B-AC9	B-AC10	B-AC11	B-AC12	B-AC13	B-AC14	B-AC15	B-AC16	B-DC1	B-DC2	B-DC3	B-DC4	B-DC5	B-DC6	B-DC7	B-DC8	B-DC9	B-DC10	B-DC11	B-DC12	B-DC13	B-DC14	B-DC15	B-DC16	B-Ph1	B-Ph2	B-Ph3	B-Ph4	B-Ph5	B-Ph6	B-Ph7	B-Ph8	B-Ph9	B-Ph10	B-Ph11	B-Ph12	B-Ph13	B-Ph14	B-Ph15	B-Ph16	aux-1	digaux	

35761.094	1	1	0	256	0.21923	0.068237	0.2813	0.45341	0.14322	0.15437	0.17932	0.23776	0.24797	0.14912	0.21371	0.35284	0.30759	0.128	0.17382	0.1856	-1.5479	-2.6167	-1.9896	-2.0958	-2.6292	-1.8646	-2.8312	-2.5729	-1.825	-2.6521	-2.2583	-2.1813	-2.7354	-1.9229	-2.3583	-2.3688	138.118	153.015	368.656	386.091	403.955	411.079	410.088	411.062	117.407	365.839	348.753	372.901	65.291	105.060	409.119	358.873	0.00064005	0.00041604	0.00015221	1407.4	5.6182e-06	5.9513e-06	1395.8	383.73	3.5354e-06	5.8239e-06	429.37	143.23	124.9	41.958	6.4481e-06	51.754	0.00075989	0.00090419	0.00026698	1425.9	9.5673e-06	1.062e-05	1423.1	390.83	9.9945e-06	1.0699e-05	439.1	145.96	127.76	43.279	1.09e-05	53.391	133.057	151.074	158.313	77.699	217.913	213.389	77.405	81.898	219.822	215.000	81.119	85.693	86.317	90.969	204.574	90.177	-8191	255	
35761.211	1	1	0	0	0.19611	0.2017	0.21837	0.19923	0.079885	0.087826	0.17726	0.11188	0.16643	0.075947	0.32198	0.11119	0.18946	0.1525	0.13396	0.16231	-1.4917	-2.7	-2.1292	-1.9979	-2.7479	-2.0208	-2.5521	-2.6979	-1.8708	-2.6396	-2.4313	-2.1396	-2.8438	-2.0583	-2.3375	-2.6979	380.530	243.714	275.775	91.716	299.624	104.170	266.935	313.523	133.789	137.670	411.273	218.391	370.719	229.092	265.854	399.009	0.00059122	0.00039083	0.000119	1405.8	5.3248e-06	4.3617e-06	1402.6	383.81	4.4283e-06	5.2138e-06	427.7	142.19	124.82	41.905	4.4334e-06	51.509	0.00080968	0.0010271	0.00028379	1430	1.0337e-05	1.1345e-05	1426.5	391.11	9.9577e-06	1.0294e-05	437.97	145.41	127.43	43.055	9.911e-06	53.196	129.916	120.127	164.595	77.550	212.334	180.224	77.186	82.167	195.393	230.085	81.636	85.917	86.738	91.051	224.742	90.436	-8191	255	
35761.309	1	1	0	0	0.15858	0.18217	0.016838	0.29892	0.17016	0.10842	0.26574	0.18865	0.15867	0.076348	0.21899	0.1571	0.29426	0.17982	0.057967	0.15953	-1.4604	-2.5229	-2.25	-2.0479	-2.7	-2.0458	-2.5021	-2.8542	-2.0333	-2.6188	-2.725	-2.2208	-2.7521	-2.2542	-2.1354	-2.7812	386.263	103.327	172.166	89.712	241.689	393.322	406.595	359.590	174.738	241.580	364.548	369.568	336.493	65.769	388.146	290.807	0.00064791	0.00043991	0.00012958	1387.8	5.079e-06	5.3798e-06	1386.7	378.91	7.0234e-06	4.7872e-06	425.88	140.67	123.8	41.547	4.2933e-06	51.045	0.00075355	0.00089788	0.00024948	1411.1	9.1502e-06	1.0152e-05	1408.6	386.47	9.0329e-06	9.1516e-06	434.25	144.2	126.26	42.672	9.2689e-06	52.732	133.191	149.964	157.355	77.774	219.806	224.252	77.802	82.330	211.371	222.335	81.694	86.119	86.597	91.488	206.569	90.656	-8191	255	
35761.402	1	1	0	0	0.18163	0.1721	0.061436	0.16432	0.081127	0.17549	0.12287	0.10984	0.18813	0.15742	0.17938	0.073605	0.25084	0.22751	0.09011	0.11717	-1.4521	-2.4896	-2.2792	-1.9479	-2.5396	-2.1083	-2.2833	-2.9667	-1.9083	-2.4271	-2.7208	-2.0563	-2.6875	-2.2917	-1.8917	-2.7333	409.585	380.037	67.747	390.105	165.154	146.324	342.934	339.742	186.855	387.067	78.456	402.995	293.549	315.927	269.845	356.095	0.00063037	0.00048633	0.00015972	1385.7	5.6215e-06	7.189e-06	1387.1	379.03	3.8563e-06	3.7403e-06	427.49	141.1	123.96	41.783	6.8344e-06	51.614	0.00075834	0.00087309	0.00024702	1407.2	9.5255e-06	1.0896e-05	1409.3	387.1	9.5593e-06	1.0422e-05	435.33	144.47	126.33	42.848	1.0774e-05	53.013	129.388	149.830	162.058	77.999	230.488	196.728	77.640	82.600	220.024	208.009	81.522	86.086	86.784	91.357	219.995	90.330	-8191	255	
35761.500	1	1	0	0	0.12731	0.069354	0.3304	0.41421	0.20177	0.021128	0.08097	0.24133	0.259	0.08966	0.077238	0.12915	0.23653	0.21036	0.14604	0.083731	-1.3479	-2.3833	-2.4688	-1.95	-2.5208	-2.2562	-2.3396	-2.9021	-2.1042	-2.3688	-2.7542	-1.8687	-2.7375	-2.5312	-1.8104	-2.7938	69.283	422.026	304.458	367.458	423.922	270.189	167.053	382.931	174.971	357.502	412.655	332.468	384.121	188.744	363.017	421.415	0.00061525	0.00056807	0.00016736	1392.5	5.9979e-06	6.3342e-06	1390.3	380.76	5.5206e-06	4.0235e-06	428.9	141.77	123.55	41.74	5.9535e-06	51.904	0.00077523	0.00099852	0.00027942	1412.2	1.0286e-05	1.1012e-05	1412.4	388.93	1.0101e-05	1.0916e-05	436.25	144.68	126.89	42.973	1.0872e-05	53.169	130.435	151.769	161.417	77.778	202.596	211.691	77.228	81.983	206.927	204.741	81.455	85.642	86.532	91.047	198.749	90.347	-8191	255	
35761.598	1	1	0	0	0.26601	0.2387	0.16771	0.25702	0.1519	0.17249	0.18608	0.22933	0.16087	0.24337	0.4538	0.16191	0.11382	0.095315	0.30784	0.1875	-1.7458	-2.1979	-2.6688	-1.9917	-2.4917	-2.2083	-2.2062	-2.7438	-2.1562	-2.3042	-2.9375	-1.8958	-2.3229	-2.3688	-1.7521	-2.7667	241.520	210.329	388.136	313.070	191.941	154.920	336.069	386.816	179.228	250.372	335.867	300.791	102.492	406.785	344.530	296.130	0.00060763	0.00043454	0.00016623	1395.3	5.7355e-06	6.5363e-06	1388.9	381.81	4.6445e-06	6.0359e-06	425.27	141.53	123.99	41.708	4.7831e-06	51.32	0.00080133	0.0010033	0.00027845	1415.7	1.0873e-05	1.1386e-05	1413.9	388.53	1.0087e-05	1.1482e-05	434.46	144.18	126.51	42.819	1.0369e-05	52.87	136.573	152.683	165.119	77.644	204.263	211.830	77.572	82.278	225.499	197.872	81.597	86.008	86.875	91.488	230.576	90.016	-8191	255	
35761.691	1	1	0	0	0.166	0.24901	0.050689	0.076039	0.2275	0.24632	0.24972	0.15103	0.035589	0.11428	0.15865	0.22017	0.25641	0.14767	0.1238	0.072732	-1.6708	-2.0021	-2.6896	-2.0417	-2.3021	-2.5333	-1.9896	-2.8375	-2.2396	-1.9521	-2.8333	-2.0271	-2.3917	-2.7333	-1.8604	-2.8104	238.569	159.562	102.704	414.393	381.835	208.816	334.306	356.802	139.860	160.479	380.963	333.534	88.025	361.925	122.572	288.987	0.00058201	0.00067769	0.00015033	1380.4	4.3224e-06	5.2157e-06	1382.7	378.44	5.9223e-06	7.1201e-06	424.46	140.96	122.94	41.365	5.5943e-06	51.145	0.00076816	0.0010515	0.00027656	1404.3	1.0277e-05	1.0802e-05	1402.9	385.99	1.0052e-05	1.1131e-05	433.23	144.08	125.89	42.684	1.0319e-05	52.742	132.624	149.609	150.429	77.598	221.929	221.023	77.322	82.289	208.267	218.968	81.624	85.672	86.573	91.050	200.856	90.550	-8191	255	
35761.789	1	1	0	0	0.07215	0.12976	0.23302	0.12893	0.12437	0.22592	0.29852	0.32545	0.03481	0.22277	0.1097	0.41191	0.21608	0.17143	0.20225	0.018278	-1.7771	-2.1125	-2.7375	-2.1042	-2.0312	-2.6917	-2.0812	-2.5687	-2.2146	-1.9521	-2.8792	-2.2625	-2.1271	-2.7625	-2.0438	-2.5938	288.730	255.544	167.156	389.759	377.025	358.353	375.191	89.618	205.465	402.139	365.629	422.156	88.321	399.572	130.740	127.162	0.00064805	0.00052984	0.0001833	1381.6	5.7081e-06	4.9949e-06	1384.2	378.56	4.7465e-06	5.2932e-06	425.16	141.15	123.43	41.551	7.2706e-06	51.284	0.00078254	0.0010059	0.00026787	1406.6	1.0693e-05	1.1209e-05	1404.5	386.42	1.0283e-05	1.1831e-05	434.57	144.19	126.26	42.825	1.069e-05	52.909	132.364	173.635	152.483	77.847	215.097	210.231	77.275	82.280	216.086	218.106	81.575	85.799	86.609	90.968	206.285	90.051	-8191	255	
35761.910	1	1	0	0	0.1709	0.068012	0.45283	0.19317	0.089586	0.08764	0.16749	0.22821	0.18834	0.21608	0.15681	0.032779	0.17372	0.17399	0.24804	0.091467	-1.9854	-2.0271	-2.7458	-2.2625	-2.1042	-2.8438	-2.0583	-2.5438	-2.4896	-1.9312	-2.7667	-2.3583	-2.1813	-2.8146	-1.8	-2.5187	384.019	199.519	119.438	339.760	339.517	209.267	335.624	363.084	235.320	114.284	260.546	216.884	345.581	385.630	390.935	107.363	0.00062349	0.00064898	0.00015024	1378.7	3.7454e-06	4.0335e-06	1381.8	379.89	5.5277e-06	4.5631e-06	430.24	140.9	122.97	41.568	5.0161e-06	51.198	0.00078745	0.0010517	0.0002796	1405.3	1.0733e-05	1.1416e-05	1407.6	387.31	1.0399e-05	1.1781e-05	436.77	144.39	126.33	42.891	1.0818e-05	52.886	130.191	150.518	153.909	78.008	205.240	217.318	77.405	82.650	200.870	221.491	81.920	85.697	86.666	91.142	223.025	90.541	-8191	255	
35762.004	1	1	0	0	0.13655	0.14549	0.13532	0.10922	0.066656	0.18095	0.73666	0.14548	0.13686	0.18011	0.17748	0.32918	0.1779	0.25522	0.093635	0.17868	-2.1937	-1.8021	-2.5375	-2.2562	-1.9375	-2.8104	-2.0521	-2.4938	-2.575	-1.9104	-2.6208	-2.4167	-2.0229	-2.7521	-1.9583	-2.2396	202.540	71.530	251.280	385.604	129.878	97.267	408.254	363.128	115.176	257.910	113.982	402.212	281.970	407.832	182.206	387.330	0.00064863	0.00061948	0.00016303	1391.1	5.2809e-06	4.5701e-06	1384.2	382.18	6.1024e-06	3.9643e-06	427.89	141.31	122.96	41.597	5.3507e-06	51.603	0.00080527	0.0010699	0.00028531	1410.5	1.1053e-05	1.1199e-05	1410.6	388.36	1.0195e-05	1.1475e-05	436.24	144.53	126.25	42.952	1.0939e-05	53.039	131.818	152.846	160.127	77.463	212.560	219.015	77.267	82.344	216.157	219.230	81.540	85.761	86.605	91.293	218.143	90.368	-8191	255	
35762.102	1	1	0	0	0.37984	0.21633	0.24975	0.17152	0.055941	0.094846	0.16809	0.32213	0.020611	0.14538	0.24274	0.13482	0.23078	0.2145	0.10593	0.21134	-2.3021	-1.8083	-2.3979	-2.45	-2.0146	-2.8271	-2.3729	-2.3667	-2.7062	-1.9125	-2.7208	-2.6521	-1.9604	-2.8812	-2.1354	-2.2104	310.863	368.217	302.247	81.669	282.014	86.737	315.770	370.323	80.925	132.521	360.748	396.975	287.364	385.596	265.568	342.936	0.00064929	0.00045122	0.0001779	1399.1	4.1561e-06	5.5245e-06	1391	380.83	4.8974e-06	3.8838e-06	429.41	141.63	123.71	41.447	6.1038e-06	51.494	0.00080925	0.0010682	0.00028821	1414.6	1.1127e-05	1.1756e-05	1413	387.99	9.8263e-06	1.1762e-05	437.29	144.79	126.71	42.891	1.1312e-05	53.053	131.243	141.449	148.620	77.930	209.239	219.850	77.532	82.403	204.185	219.741	81.743	85.925	86.845	91.769	209.760	90.846	-8191	255	
35762.195	1	1	0	0	0.092165	0.030356	0.091189	0.58938	0.14762	0.14731	0.038147	0.29693	0.13417	0.18236	0.044309	0.076511	0.14945	0.15829	0.077117	0.17067	-2.4375	-1.9146	-2.6729	-2.6604	-1.8125	-2.6688	-2.4646	-2.2188	-2.7667	-2.0042	-2.5521	-2.9	-1.7979	-2.6792	-2.2958	-2.1104	283.774	241.717	293.659	406.461	79.366	156.939	148.113	367.124	122.275	338.400	145.864	365.292	267.421	406.417	338.131	131.743	0.00061913	0.0004735	0.00016907	1396	5.3155e-06	4.5909e-06	1390.3	380.23	5.5995e-06	4.9006e-06	426.26	141.91	123.86	41.773	4.9485e-06	51.47	0.00079221	0.0010961	0.00029777	1413.2	1.1192e-05	1.152e-05	1413.7	387.9	1.03e-05	1.1859e-05	435.81	144.9	126.76	42.995	1.073e-05	53.029	132.532	152.120	152.669	77.504	217.650	219.275	76.916	81.994	197.221	218.496	81.560	85.276	86.208	90.628	218.129	90.128	-8191	255	
35762.289	1	1	0	0	0.20457	0.19077	0.13714	0.11453	0.30555	0.091597	0.26191	0.085394	0.23569	0.39303	0.19645	0.28571	0.32001	0.34743	0.18079	0.27762	-2.1646	-2.1125	-2.4042	-2.6562	-2.0146	-2.6979	-2.6458	-2.0125	-2.6708	-2.2667	-2.4875	-2.7021	-2.1292	-2.7917	-2.3958	-1.9146	89.321	389.697	206.473	328.357	127.075	85.829	413.811	85.160	69.269	272.173	366.436	236.053	398.147	346.050	406.380	83.182	0.00061574	0.00059027	0.00017652	1399.5	3.6654e-06	6.3158e-06	1394.2	381.59	5.1846e-06	4.3211e-06	427.04	141.91	123.27	41.909	5.2887e-06	51.342	0.00079553	0.0010396	0.0003104	1417.2	1.1298e-05	1.213e-05	1415.2	389.05	1.0275e-05	1.1861e-05	437.04	144.94	126.6	43.068	1.0891e-05	53.055	133.260	153.924	152.017	77.286	214.804	220.323	77.089	81.949	213.396	212.258	81.211	85.464	86.478	90.988	218.933	89.927	-8191	255	
35762.387	1	1	0	0	0.23776	0.026588	0.16835	0.073981	0.13823	0.07007	0.33251	0.34891	0.1166	0.33005	0.11836	0.21506	0.13003	0.18096	0.18146	0.29449	-2.3229	-1.9958	-2.1813	-2.7396	-1.9	-2.6312	-2.8396	-1.9771	-2.7	-2.2625	-2.3063	-2.8875	-2.0687	-2.525	-2.6479	-2.0583	236.348	140.976	297.354	138.188	195.493	167.288	395.776	363.574	95.381	361.823	280.358	282.607	379.730	87.100	351.475	381.637	0.00063029	0.00058877	0.0001029	1399.2	5.6801e-06	5.23e-06	1392.2	381.17	5.2482e-06	4.9497e-06	428.52	142.14	123.54	41.808	4.6537e-06	51.35	0.00081401	0.0010924	0.00029529	1418.5	1.1915e-05	1.2442e-05	1415.5	389.28	1.0847e-05	1.2271e-05	437.14	145.12	127.1	43.021	1.1074e-05	53.042	129.882	168.532	146.102	77.388	220.750	216.878	77.042	82.423	211.159	245.011	81.481	85.532	86.353	91.114	211.636	90.297	-8191	255	
35762.508	1	1	0	0	0.33996	0.23558	0.21312	0.082782	0.19965	0.31789	0.17607	0.18813	0.15451	0.20953	0.45514	0.1821	0.0719	0.25763	0.24506	0.19705	-2.3479	-2.2687	-2.1813	-2.8625	-2.0229	-2.2833	-2.8583	-2.1104	-2.6771	-2.3125	-2.3063	-2.8937	-2.1229	-2.2896	-2.7625	-2.3208	130.541	192.495	348.362	396.107	189.222	388.380	408.955	385.943	180.784	376.704	376.702	389.657	120.299	392.601	317.960	348.873	0.00062258	0.00064255	0.00017999	1401	6.1111e-06	5.9957e-06	1396.9	381.67	5.1745e-06	4.1993e-06	427.09	141.84	124.16	41.835	4.2524e-06	51.62	0.00082054	0.0010729	0.00030783	1420.5	1.1729e-05	1.1802e-05	1416.3	389.2	1.044e-05	1.187e-05	437.35	145.28	127.12	43.057	1.0675e-05	53.135	133.132	150.061	157.300	77.982	222.690	226.656	77.410	82.288	202.038	219.815	81.380	85.477	86.367	90.840	228.348	89.935	-8191	255	
35762.605	1	1	0	0	0.15444	0.28364	0.12698	0.21736	0.1513	0.17181	0.11867	0.18029	0.1144	0.12219	0.21695	0.20001	0.1983	0.25442	0.16732	0.016576	-2.3354	-2.4062	-1.9542	-2.6479	-2.05	-2.1813	-2.8979	-1.9937	-2.6208	-2.3167	-2.1396	-2.8812	-2.2729	-2.0833	-2.7958	-2.0667	391.776	80.867	271.137	360.890	232.937	251.353	403.305	422.421	321.280	406.605	362.060	379.266	131.825	220.938	344.952	393.212	0.00064035	0.00041485	0.00014975	1402.1	4.9291e-06	3.7109e-06	1397.6	380.65	6.0381e-06	5.6781e-06	430.37	141.99	123.56	41.713	6.2091e-06	51.533	0.00081281	0.0010175	0.00029455	1421.5	1.1123e-05	1.1741e-05	1415.1	388.25	1.0496e-05	1.1758e-05	438.01	145.15	126.87	43.051	1.0882e-05	53.192	130.265	141.390	146.294	77.150	198.470	207.536	77.060	81.884	200.288	206.152	81.228	85.653	86.129	90.854	211.733	90.141	-8191	255	
35762.699	1	1	0	0	0.092235	0.12329	0.0072017	0.16971	0.16591	0.10552	0.19233	0.19761	0.4012	0.41215	0.1558	0.21881	0.16108	0.24095	0.11389	0.060707	-1.9833	-2.525	-1.8896	-2.8854	-2.0604	-2.1813	-2.9042	-2.0667	-2.2542	-2.5042	-2.2812	-2.9938	-2.35	-2.0917	-2.6083	-2.0583	199.386	278.464	177.902	153.910	276.714	363.722	337.486	368.871	340.701	215.814	407.739	387.727	106.605	408.997	308.110	320.354	0.00058633	0.00058333	0.00019178	1399.3	5.6412e-06	4.9425e-06	1399.4	381.62	5.1528e-06	4.8736e-06	429.24	142.24	123.8	41.95	5.3442e-06	51.425	0.00079739	0.0010852	0.0003067	1421.2	1.1241e-05	1.1928e-05	1420	389.52	1.0891e-05	1.174e-05	437.91	145.26	127.01	43.051	1.1467e-05	53.098	129.607	143.405	159.571	77.682	226.259	214.939	77.175	82.027	211.464	219.302	81.435	85.933	86.498	91.164	212.171	90.348	-8191	255	
35762.797	1	1	0	0	0.10884	0.21237	0.20798	0.3364	0.29359	0.1282	0.10977	0.24091	0.3559	0.2558	0.11766	0.1087	0.2438	0.078121	0.064661	0.20183	-1.75	-2.3667	-1.8375	-2.6771	-2.3312	-2.0979	-3.0083	-2.1312	-2.3	-2.8167	-2.1688	-2.7604	-2.2875	-2.0125	-2.6208	-2.3312	405.153	231.928	266.854	343.140	402.519	391.330	124.504	410.025	235.646	406.252	285.886	293.703	402.935	262.146	65.604	287.190	0.00063078	0.00050423	0.00019003	1399.4	5.7302e-06	4.5952e-06	1398	381.65	6.4471e-06	6.4918e-06	429.79	142.24	123.79	41.801	4.9138e-06	51.603	0.00082255	0.0010893	0.00031529	1424.5	1.1495e-05	1.2188e-05	1420.6	388.84	1.1062e-05	1.2211e-05	438.06	145.24	126.86	43.026	1.1293e-05	53.145	134.785	161.016	143.443	77.813	214.753	201.364	77.589	82.296	211.434	214.630	81.269	85.674	86.365	91.053	220.535	90.225	-8191	255	
35762.867	1	1	0	0	0.072601	0.020585	0.35999	0.31671	0.21284	0.21907	0.24717	0.31984	0.14477	0.25606	0.043703	0.20379	0.24586	0.26182	0.10654	0.23637	-1.8208	-2.6917	-1.7958	-2.5833	-2.4958	-2.0792	-2.9417	-2.3167	-1.9583	-2.7938	-2.1167	-2.4813	-2.6146	-1.9646	-2.8833	-2.4437	421.719	291.052	288.692	376.109	255.872	245.620	89.681	360.630	208.134	349.498	239.541	390.494	86.385	344.757	350.098	335.434	0.00062634	0.00044345	0.00018564	1402.3	5.3497e-06	4.365e-06	1395.9	382.82	5.7314e-06	4.6101e-06	427.4	142.2	124.36	41.902	5.9512e-06	51.522	0.00082047	0.0010706	0.00030225	1422.2	1.1045e-05	1.1527e-05	1418.3	388.69	1.042e-05	1.1863e-05	436.8	145.19	127.01	43.091	1.1244e-05	53.153	131.982	142.920	136.933	77.590	203.736	222.967	77.085	82.214	212.730	229.512	81.701	86.054	86.793	90.859	198.750	89.877	-8191	255	
35762.988	1	1	0	0	0.11669	0.24529	0.19669	0.14925	0.081148	0.1044	0.13544	0.12716	0.17449	0.019063	0.30204	0.16794	0.18101	0.12099	0.023807	0.1386	-1.7854	-2.8979	-1.825	-2.4292	-2.4979	-2.0458	-2.8646	-2.3875	-1.9583	-2.675	-2.1854	-2.35	-2.6521	-2.1188	-2.5792	-2.4146	146.245	256.993	106.854	120.007	69.054	126.726	175.189	376.836	224.646	223.301	392.225	363.421	413.859	329.462	296.858	298.190	0.00066526	0.00057076	0.00010123	1400.5	6.4626e-06	5.6978e-06	1396.6	381.33	5.2552e-06	5.399e-06	427.13	142.55	123.43	41.66	4.5251e-06	51.577	0.00085047	0.0011117	0.00031116	1422.9	1.1357e-05	1.292e-05	1418.8	388.68	1.1114e-05	1.1914e-05	436.82	145.4	126.73	42.992	1.1642e-05	53.083	132.448	145.931	168.404	77.428	205.460	201.439	77.033	81.980	206.102	223.276	81.230	85.675	86.283	90.875	224.343	90.366	-8191	255	
35763.086	1	1	0	0	0.27148	0.18781	0.29087	0.17418	0.19986	0.18967	0.22542	0.27074	0.2506	0.10998	0.22348	0.075961	0.1204	0.25057	0.38881	0.34504	-1.6229	-2.7875	-1.9521	-2.3833	-2.7271	-1.9062	-2.9146	-2.725	-2.0146	-2.7729	-2.2542	-2.4813	-2.8167	-2.1167	-2.5854	-2.6625	73.868	89.260	417.305	366.152	307.275	287.769	391.814	384.585	88.449	173.578	301.054	241.232	325.520	87.110	93.883	379.774	0.00062171	0.00044181	0.00015274	1405.1	5.2779e-06	6.4067e-06	1396	380.58	5.2733e-06	4.5133e-06	428.36	141.43	123.81	41.525	5.5441e-06	51.426	0.0008316	0.0010752	0.00030589	1424.8	1.1104e-05	1.2382e-05	1418.9	388.54	1.0991e-05	1.1895e-05	436.6	144.9	127.02	42.997	1.0606e-05	53.118	132.487	175.258	154.715	77.702	206.560	215.300	77.242	82.405	221.841	198.667	81.330	85.900	86.041	90.844	203.397	90.038	-8191	255	
35763.180	1	1	0	0	0.30098	0.23	0.080595	0.23827	0.27662	0.094518	0.14978	0.12208	0.216	0.3166	0.34159	0.25127	0.30491	0.38101	0.013706	0.31035	-1.6688	-2.675	-2.125	-2.4208	-2.7438	-1.8563	-2.5563	-2.6083	-2.0667	-2.6437	-2.2896	-2.1083	-2.8	-2.1229	-2.3208	-2.7479	177.629	252.159	106.996	361.571	283.996	194.684	290.770	297.931	294.423	223.836	405.578	307.858	114.671	420.883	159.793	396.493	0.00061846	0.000492	0.00016132	1397.8	4.1665e-06	4.1174e-06	1388.1	380.02	4.776e-06	3.9645e-06	427.21	140.86	122.97	41.762	6.3539e-06	51.577	0.00083666	0.0010181	0.00028615	1417.6	1.07e-05	1.1686e-05	1413.4	387.84	1.0975e-05	1.1289e-05	435.88	144.6	126.43	42.868	1.0862e-05	53.088	133.813	151.283	167.173	77.469	219.702	222.162	77.331	81.914	198.440	189.747	81.199	85.748	86.287	90.948	230.905	90.043	-8191	255	
35763.277	1	1	0	0	0.30956	0.39341	0.212	0.23894	0.21053	0.060622	0.38815	0.2199	0.054187	0.17609	0.11963	0.074571	0.2811	0.044527	0.098289	0.084934	-1.2792	-2.6479	-2.2917	-1.9646	-2.8417	-2.0396	-2.6104	-2.95	-1.8687	-2.725	-2.4417	-2.0312	-2.6625	-2.2812	-2.2	-2.6729	110.333	380.362	149.276	290.757	319.488	138.897	79.122	313.506	395.269	115.490	243.719	79.767	364.769	408.886	238.160	233.504	0.00066182	0.00030328	0.00012992	1394.2	5.0579e-06	5.2683e-06	1397.1	380.33	6.1755e-06	4.7307e-06	427.06	141.18	124.07	41.65	5.0666e-06	51.3	0.00080133	0.0010303	0.00028272	1416.7	1.1144e-05	1.1731e-05	1413.9	387.3	1.086e-05	1.155e-05	435.28	144.67	126.97	42.92	1.0317e-05	52.967	133.643	160.892	172.843	77.688	225.996	214.374	77.211	82.078	207.658	206.311	81.255	85.677	86.503	91.175	209.300	90.462	-8191	255	
35763.395	1	1	0	0	0.19716	0.079101	0.17489	0.12537	0.04074	0.10481	0.2231	0.22451	0.20546	0.094831	0.22643	0.24144	0.27513	0.057335	0.078318	0.22114	-1.4292	-2.5042	-2.3125	-2.075	-2.6854	-2.125	-2.1396	-2.8125	-1.9125	-2.6208	-2.7479	-1.8875	-2.7313	-2.1688	-2.0312	-2.7229	76.679	82.606	321.746	236.803	64.950	319.318	358.421	399.011	192.282	411.769	101.493	371.078	410.085	243.371	72.424	379.443	0.0006057	0.00036795	0.00014633	1386.7	5.2986e-06	4.8215e-06	1388.5	379.02	6.035e-06	4.1485e-06	424.22	141.11	123.47	41.5	7.0856e-06	51.481	0.00081227	0.00098311	0.00026878	1410.3	1.0105e-05	1.0936e-05	1408.8	386.52	1.0064e-05	1.079e-05	433.66	144.23	126.33	42.785	1.0199e-05	52.944	132.392	140.261	168.222	77.775	200.365	229.431	77.527	82.308	207.528	212.625	81.973	86.295	86.633	91.466	215.881	90.377	-8191	255	
35763.469	1	1	0	0	0.23658	0.0061472	0.17168	0.3092	0.090626	0.2934	0.24614	0.10091	0.40456	0.14135	0.25385	0.18497	0.024129	0.15106	0.22504	0.035574	-1.5625	-2.4188	-2.5625	-2.0563	-2.7313	-2.3833	-2.3146	-2.9375	-2.1021	-2.5208	-2.6833	-1.9438	-2.6437	-2.4917	-2.0229	-2.975	257.823	193.014	220.932	361.116	204.104	132.096	382.853	83.671	393.666	205.167	367.924	141.525	111.365	97.726	254.863	324.616	0.00061562	0.0005279	0.00016541	1387.6	4.1568e-06	5.4734e-06	1384.2	378.19	6.7053e-06	4.8116e-06	424.98	141.12	123.32	41.674	5.7982e-06	51.348	0.00078215	0.00095757	0.00025451	1409.3	1.031e-05	1.084e-05	1408.2	386.53	1.0077e-05	1.0961e-05	435.18	144.53	126.6	42.883	1.0551e-05	53.011	132.251	152.476	151.286	78.158	215.935	225.120	77.910	82.807	209.915	239.517	81.415	85.674	86.468	90.947	222.472	90.171	-8191	255	
35763.590	1	1	0	0	0.2257	0.098137	0.27896	0.15218	0.12672	0.085313	0.32883	0.12215	0.30652	0.055255	0.13935	0.17477	0.18077	0.21404	0.11079	0.39223	-1.5854	-2.4875	-2.5521	-2.0875	-2.65	-2.2208	-2.2021	-2.9125	-2.1333	-2.1646	-2.7	-2.1021	-2.7604	-2.5062	-1.9375	-2.8958	141.067	334.585	293.046	382.341	116.577	342.729	383.450	291.050	359.693	328.283	358.707	402.663	379.239	357.192	87.679	356.826	0.00058381	0.00030625	0.00015478	1396.3	5.9678e-06	4.6048e-06	1387.7	380.1	5.0741e-06	6.5563e-06	426.63	140.79	124.09	41.63	5.7717e-06	51.176	0.00076773	0.0010411	0.0002824	1413.7	1.1046e-05	1.1692e-05	1409.9	387.36	1.0235e-05	1.1122e-05	435.39	144.44	126.67	42.881	1.0639e-05	52.965	130.100	155.415	172.165	77.620	211.183	229.174	76.986	81.688	207.130	208.393	80.936	85.195	85.851	90.345	203.972	89.637	-8191	255	
35763.684	1	1	0	0	0.27413	0.13076	0.27816	0.089442	0.14545	0.32961	0.30366	0.26085	0.2334	0.063973	0.060381	0.15665	0.20436	0.26636	0.056343	0.32024	-1.7188	-2.2479	-2.7125	-2.2167	-2.3479	-2.4375	-2.0604	-2.875	-2.0687	-2.1312	-2.7083	-2.1562	-2.4583	-2.55	-1.9729	-2.8625	67.934	141.330	157.019	149.674	107.119	362.479	389.709	82.289	103.113	399.315	104.192	376.316	407.207	373.892	349.045	395.607	0.00060915	0.00046773	0.00019064	1387.3	5.1259e-06	6.1113e-06	1388.4	379.75	5.8648e-06	4.35e-06	425.99	141.28	122.51	41.532	5.9639e-06	51.256	0.0007641	0.0009572	0.00027193	1409.8	1.0178e-05	1.0948e-05	1410	386.87	1.0058e-05	1.1403e-05	435.39	144.36	126.26	42.857	1.0737e-05	53.017	134.924	151.077	149.868	77.056	216.432	226.058	76.873	81.520	213.187	200.888	80.978	85.336	86.084	90.260	204.825	89.660	-8191	255	
35763.781	1	1	0	0	0.12421	0.077581	0.13573	0.10418	0.30401	0.26732	0.34704	0.26182	0.11284	0.14456	0.11865	0.29518	0.073934	0.088989	0.14422	0.041578	-1.9771	-2.0292	-2.5563	-2.2875	-2.3333	-2.5708	-2.1729	-2.9958	-2.2687	-2.1813	-2.8125	-2.2979	-2.1604	-2.8	-1.8229	-2.6354	407.420	221.386	417.042	91.645	352.456	403.855	355.447	380.077	157.919	104.608	74.718	418.489	262.002	160.549	359.354	387.952	0.00066702	0.00064139	0.00015521	1390.2	4.4975e-06	5.9015e-06	1385.1	379.29	5.0205e-06	5.5912e-06	427.18	141.61	123.84	41.647	6.4134e-06	51.378	0.0008096	0.0010434	0.000284	1411.8	1.0691e-05	1.1258e-05	1412	387.45	9.9619e-06	1.166e-05	436.2	144.84	126.82	42.903	1.0911e-05	53.018	131.314	177.207	168.643	76.949	202.541	205.189	76.631	81.763	214.588	196.466	81.236	85.252	85.944	90.753	213.475	89.420	-8191	255	
35763.879	1	1	0	0	0.073672	0.32416	0.15691	0.089183	0.17438	0.26024	0.34803	0.26506	0.057362	0.11578	0.14499	0.24289	0.32559	0.12767	0.19243	0.10008	-1.9792	-1.8479	-2.6667	-2.1625	-2.2208	-2.6896	-2.25	-2.75	-2.5104	-1.9229	-2.9313	-2.3625	-2.2042	-2.7729	-2.0146	-2.4292	267.181	186.366	216.458	295.907	281.351	153.123	311.018	348.797	273.042	394.134	400.444	384.124	345.088	270.974	328.542	292.540	0.00059617	0.00041463	0.00011951	1392.5	4.756e-06	5.4177e-06	1387.6	379.07	4.2352e-06	4.2463e-06	427.76	141.65	123.85	41.587	6.3167e-06	51.338	0.00077531	0.0010029	0.0002796	1410.8	1.0448e-05	1.0933e-05	1411.3	387.65	9.6246e-06	1.0669e-05	436.05	144.45	126.51	42.863	1.0506e-05	52.994	130.368	141.020	167.132	77.110	211.545	212.111	76.841	81.825	192.993	216.798	81.190	85.213	86.140	90.403	218.122	89.649	-8191	255	
35763.996	1	1	0	0	0.083587	0.18027	0.20902	0.21147	0.16433	0.27099	0.22402	0.29176	0.19526	0.18125	0.22136	0.18313	0.27125	0.18096	0.1263	0.15843	-2.2292	-1.9188	-2.8104	-2.3438	-1.9792	-2.6396	-2.1646	-2.6729	-2.4896	-2.0854	-3.0625	-2.4	-2.1979	-2.8229	-2.0896	-2.4521	279.133	381.523	138.019	394.968	280.534	342.785	282.272	419.666	66.313	280.991	383.363	393.239	366.867	375.472	336.771	403.639	0.00063046	0.00048649	0.000128	1387.3	5.2443e-06	4.3307e-06	1386	378.67	6.0993e-06	5.7514e-06	425.97	141.14	124.65	41.726	5.2956e-06	51.445	0.00079762	0.0010254	0.00027193	1409.7	1.0585e-05	1.1053e-05	1410.9	387.27	1.0318e-05	1.1891e-05	435.94	144.51	126.94	42.881	1.0561e-05	53.023	133.743	155.462	161.630	77.107	214.781	193.951	76.645	81.894	214.937	215.278	81.057	85.003	86.096	90.591	210.098	89.651	-8191	255	
35764.094	1	1	0	0	0.13585	0.21013	0.1035	0.32533	0.13242	0.18568	0.30865	0.27292	0.069613	0.1649	0.17518	0.25744	0.29201	0.14719	0.14569	0.28062	-2.2562	-1.9396	-2.5521	-2.3104	-2.1792	-3.0521	-2.2583	-2.5646	-2.7667	-2.0354	-2.7438	-2.5625	-2.0604	-2.6625	-2.0979	-2.375	268.737	65.478	160.832	351.362	153.351	227.429	371.295	348.719	337.896	419.082	392.583	334.944	396.328	391.053	188.581	353.285	0.00060815	0.00054481	0.0001568	1385	4.8404e-06	4.5915e-06	1389.7	380.08	4.7078e-06	5.6731e-06	425.89	141.98	123.57	41.584	4.958e-06	51.392	0.00077976	0.0010395	0.00027305	1410.7	1.0639e-05	1.0945e-05	1410.2	387.25	1.0155e-05	1.1502e-05	435.27	144.72	126.63	42.947	1.0794e-05	53.025	133.336	142.336	149.828	76.951	199.767	204.588	76.770	81.757	204.707	228.440	81.173	85.227	86.140	90.462	214.888	89.730	-8191	255	
35764.164	1	1	0	0	0.11043	0.37785	0.093398	0.14356	0.12312	0.13926	0.3275	0.16223	0.15869	0.15407	0.29039	0.23154	0.19038	0.29564	0.20514	0.28977	-2.3875	-1.8104	-2.5083	-2.4375	-1.9042	-2.7479	-2.5042	-2.3396	-2.6833	-1.9646	-2.6188	-2.5042	-2.1146	-2.7417	-2.2792	-2.3563	239.603	331.805	146.196	358.246	115.395	241.558	345.384	405.905	67.061	384.287	358.679	364.035	392.229	322.067	270.612	392.359	0.00061586	0.00047121	0.00015539	1395.7	5.0903e-06	6.5293e-06	1385.7	381.21	5.2731e-06	4.8146e-06	427.49	141.72	123.72	41.695	3.7474e-06	51.411	0.00080465	0.001047	0.00028903	1413.1	1.1044e-05	1.1496e-05	1409.2	388.42	1.0374e-05	1.1574e-05	436.83	144.67	126.64	42.938	1.0927e-05	53.059	132.565	139.510	154.195	77.087	210.028	210.870	76.818	81.626	217.918	208.146	80.833	85.299	86.028	90.508	222.227	89.938	-8191	255	
35764.285	1	1	0	0	0.24669	0.042982	0.36484	0.22071	0.21077	0.15408	0.1678	0.082307	0.24099	0.052388	0.4159	0.36079	0.12112	0.052499	0.079524	0.17583	-2.2583	-1.9208	-2.3458	-2.6979	-1.9	-2.6708	-2.4271	-2.3292	-2.675	-2.1312	-2.5604	-2.7396	-1.9646	-2.7188	-2.3042	-2.0354	174.263	288.127	100.040	414.224	360.473	369.762	360.196	384.253	68.133	404.613	364.511	397.838	325.443	67.941	231.586	69.850	0.00058513	0.00050374	0.00014213	1385	5.6715e-06	4.562e-06	1385.5	379.85	4.4347e-06	4.4103e-06	425.89	141.62	123.76	41.687	5.7056e-06	51.518	0.00078815	0.0010737	0.00028274	1410.1	1.1174e-05	1.073e-05	1410.1	387.86	1.0274e-05	1.0945e-05	435.76	144.63	126.78	42.959	1.019e-05	53.005	129.910	138.596	163.749	77.019	220.561	222.580	76.784	81.828	220.899	213.366	81.100	85.311	86.326	90.796	210.459	89.851	-8191	255	
35764.379	1	1	0	0	0.18255	0.22034	0.3351	0.40417	0.15737	0.23505	0.12687	0.26999	0.20784	0.091628	0.20811	0.24264	0.092988	0.1221	0.047886	0.23078	-2.3021	-2.2125	-2.2583	-2.6125	-1.7833	-2.5229	-2.6208	-2.1312	-2.7542	-2.1063	-2.3229	-2.7167	-1.8062	-2.4062	-2.3958	-2.0917	343.195	174.638	170.798	101.438	411.505	98.792	382.367	402.130	72.594	366.661	373.544	364.764	170.927	64.581	215.158	374.836	0.0006113	0.00040481	0.00013267	1391.5	5.221e-06	4.1024e-06	1382.2	380.79	4.495e-06	4.4945e-06	426.71	141.29	123.89	41.825	6.7075e-06	51.475	0.0007665	0.0010145	0.00029096	1411.1	1.1098e-05	1.0921e-05	1408.9	388.32	1.0135e-05	1.1477e-05	435.83	144.73	126.81	43.051	1.026e-05	53.078	133.664	137.985	161.138	77.257	222.769	215.324	76.863	82.034	201.140	218.328	81.364	85.405	86.130	90.826	217.181	89.842	-8191	255	
35764.477	1	1	0	0	0.082848	0.20037	0.053391	0.17854	0.092209	0.12061	0.21726	0.062692	0.15754	0.15001	0.26013	0.33174	0.18457	0.070807	0.053845	0.15531	-2.2313	-2.3125	-2.1646	-2.8333	-1.8375	-2.4167	-2.6271	-2.0958	-2.6271	-2.1562	-2.1229	-2.8833	-1.7729	-2.5604	-2.5542	-2.0479	159.875	261.629	237.060	83.719	415.902	157.537	361.123	107.465	173.267	101.049	391.233	326.407	365.329	318.921	211.849	336.680	0.00063217	0.00063771	0.00018464	1388.1	6.2923e-06	6.6161e-06	1389.1	380.32	4.4523e-06	4.5605e-06	428.05	142.17	122.95	41.726	5.5414e-06	51.546	0.00081772	0.0010357	0.00029015	1411.4	1.1493e-05	1.154e-05	1411.3	387.45	1.0152e-05	1.1122e-05	436.34	145.18	126.58	42.975	1.0863e-05	53.045	129.041	165.619	157.094	77.260	215.115	219.499	76.806	81.716	208.958	208.923	81.121	85.366	86.038	90.521	202.072	90.060	-8191	255	
35764.574	1	1	0	0	0.1983	0.14589	0.12108	0.6227	0.16961	0.13486	0.38828	0.053966	0.24988	0.092643	0.10713	0.16177	0.091416	0.16506	0.35249	0.23563	-2.1979	-2.0958	-2.0146	-2.8625	-1.9292	-2.2562	-2.8375	-2.1896	-2.5979	-2.5604	-2.0271	-2.9042	-2.0125	-2.3563	-2.6104	-2.0229	100.509	68.727	390.207	372.190	341.657	345.497	365.858	350.805	361.859	202.758	369.789	411.925	380.759	337.834	288.656	407.147	0.00062386	0.00049137	0.00011839	1395.1	5.2757e-06	5.0663e-06	1390.5	380.53	5.552e-06	6.4467e-06	427.03	141.73	123.54	41.609	2.9314e-06	51.467	0.00080748	0.0010385	0.00029036	1413.7	1.1167e-05	1.1426e-05	1412.9	388.15	1.0188e-05	1.1426e-05	435.51	144.89	126.74	42.961	1.0571e-05	53.092	130.942	143.090	156.363	77.212	221.689	214.907	77.005	82.223	219.650	221.009	81.237	85.284	86.281	90.985	207.481	89.935	-8191	255	
35764.691	1	1	0	0	0.25882	0.19494	0.12716	0.23019	0.047363	0.20186	0.21069	0.4403	0.27794	0.13311	0.071158	0.23555	0.066882	0.033129	0.11029	0.29697	-2.2292	-2.3958	-2.0521	-2.9104	-2.2292	-2.325	-2.8729	-2.0667	-2.5	-2.4479	-1.9583	-2.9021	-2.2521	-2.2521	-2.6479	-2.1479	207.922	344.106	203.347	389.294	158.290	172.751	343.836	389.897	327.320	371.436	68.281	412.396	91.791	258.029	389.369	386.926	0.00063271	0.00050567	0.00016401	1398.5	4.8445e-06	4.4975e-06	1389.3	380.24	5.8121e-06	5.2719e-06	427.25	141.6	123.52	41.581	6.0018e-06	51.599	0.00081428	0.001053	0.00030856	1412.8	1.1075e-05	1.1818e-05	1411.3	387.92	1.0496e-05	1.1881e-05	436.11	144.64	126.81	42.856	1.1086e-05	53.057	133.314	154.682	166.628	77.390	195.129	211.789	77.100	81.949	212.480	202.160	81.168	85.608	86.153	90.865	228.725	89.972	-8191	255	
35764.766	1	1	0	0	0.18921	0.11618	0.1344	0.035678	0.22921	0.090566	0.0074793	0.32636	0.12542	0.15434	0.26553	0.27443	0.10635	0.19708	0.21581	0.11698	-1.9271	-2.5208	-1.8062	-2.7875	-2.175	-2.1479	-3.2021	-2.1104	-2.2542	-2.7729	-2.05	-2.5646	-2.2687	-1.9958	-2.7646	-2.0146	411.558	75.519	65.053	322.534	258.760	325.648	350.227	385.608	315.702	271.776	317.203	353.908	118.285	352.236	69.919	392.239	0.00064341	0.00060416	0.00020614	1393	5.7715e-06	5.698e-06	1389.5	380.34	4.6079e-06	5.5877e-06	427.86	141.51	123.54	41.746	4.0742e-06	51.559	0.00081068	0.0010626	0.00032213	1415	1.0917e-05	1.2174e-05	1410.6	388.11	1.1057e-05	1.271e-05	436.31	144.9	126.74	43.028	1.1102e-05	53.087	132.872	132.443	152.132	77.554	212.433	216.628	77.201	81.860	210.130	211.297	81.209	85.593	85.988	90.874	205.098	89.925	-8191	255	
35764.859	1	1	0	0	0.21105	0.069331	0.20879	0.062449	0.22705	0.14039	0.12413	0.11659	0.17801	0.10848	0.25798	0.27174	0.066725	0.12936	0.17829	0.15894	-1.8125	-2.5208	-1.7958	-2.875	-2.3042	-1.9396	-2.9542	-2.2687	-2.1792	-2.6875	-2.0771	-2.6146	-2.5625	-2.0333	-2.725	-2.3354	81.134	410.932	350.730	138.187	423.327	306.705	412.005	347.274	359.616	408.308	409.667	337.960	403.539	130.025	298.923	389.147	0.00060829	0.00038862	0.00012519	1390.9	4.5217e-06	4.1257e-06	1388.4	380.39	5.5632e-06	6.8668e-06	426.48	141.1	123.76	41.706	5.7204e-06	51.443	0.00084366	0.0011053	0.00031674	1412.7	1.0953e-05	1.2094e-05	1413.7	387.69	1.1599e-05	1.2481e-05	436.08	144.76	126.54	42.99	1.1534e-05	53.027	130.036	144.592	149.896	77.705	206.156	211.038	77.189	82.100	209.843	222.771	81.533	85.862	86.234	90.914	215.518	90.056	-8191	255	
35764.957	1	1	0	0	0.13795	0.15197	0.13224	0.10298	0.24712	0.10112	0.10488	0.059982	0.094988	0.016634	0.22575	0.15339	0.1802	0.30095	0.14023	0.11443	-1.7958	-2.4792	-2.0354	-2.6104	-2.5042	-1.8396	-3.0312	-2.4313	-2.1604	-2.9354	-2.2167	-2.5521	-2.575	-2.0438	-2.7104	-2.5104	141.852	264.301	171.925	422.876	194.429	128.930	353.526	404.783	150.002	161.607	328.015	423.235	71.442	340.244	395.317	276.478	0.00062645	0.00039345	0.00015287	1395.3	5.6682e-06	4.4474e-06	1388.3	380.29	5.3746e-06	4.3467e-06	426.68	141.36	123.57	41.684	4.2779e-06	51.296	0.00084594	0.0011416	0.00032171	1414.6	1.1789e-05	1.2457e-05	1413	388.16	1.1844e-05	1.2386e-05	436.65	144.75	126.75	43.011	1.1318e-05	52.975	131.170	166.302	168.232	77.696	209.741	215.512	77.216	82.077	220.759	218.385	81.133	85.885	86.073	90.970	226.949	89.939	-8191	255	
35765.078	1	1	0	0	0.30543	0.13596	0.014416	0.32014	0.20752	0.13416	0.14654	0.23128	0.058623	0.20325	0.18078	0.05557	0.12902	0.1115	0.25026	0.17706	-1.65	-2.6167	-2.0729	-2.3333	-2.65	-1.9521	-2.8729	-2.2854	-2.0458	-2.6437	-2	-2.4938	-2.6625	-2.0792	-2.7	-2.4771	400.748	367.285	173.655	384.494	292.560	233.405	370.430	389.235	139.579	202.696	333.891	271.652	388.090	251.850	220.306	70.942	0.00064131	0.000532	0.00011936	1387.2	7.3743e-06	3.6482e-06	1388.2	381.37	3.4146e-06	4.2183e-06	426.25	141.52	123.61	41.619	5.9392e-06	51.433	0.00085576	0.0011299	0.00033824	1412.8	1.2252e-05	1.3532e-05	1412	388.59	1.1678e-05	1.2583e-05	435.43	144.86	126.66	42.978	1.1798e-05	53.108	129.720	146.681	166.454	77.623	214.095	209.336	77.497	82.086	219.785	206.448	81.542	85.540	86.419	90.983	215.103	90.037	-8191	255	
35765.176	1	1	0	0	0.068472	0.063078	0.10684	0.29481	0.11231	0.19328	0.29747	0.14406	0.037107	0.078917	0.13208	0.18489	0.15825	0.30276	0.089666	0.41425	-1.6833	-2.8812	-2.1271	-2.4146	-2.7792	-2.0812	-2.8667	-2.4979	-2.1188	-2.6125	-2.3458	-2.2896	-2.6	-2.2354	-2.5438	-2.5208	293.612	335.509	155.555	393.631	241.602	220.028	361.749	402.631	418.437	352.539	64.984	372.889	104.614	377.989	116.034	420.672	0.00062806	0.00045677	0.00022202	1392.9	4.1236e-06	3.3031e-06	1385.9	380.01	6.0058e-06	6.3176e-06	425.9	142.24	124.22	41.846	7.0983e-06	51.485	0.00084853	0.0011344	0.00031582	1414.3	1.215e-05	1.2814e-05	1412.3	387.62	1.1823e-05	1.2139e-05	435.13	145.09	127.03	43.047	1.2136e-05	53.174	133.979	143.102	161.907	77.457	203.659	216.357	77.514	82.099	214.171	211.464	81.333	85.927	86.285	90.768	214.452	90.103	-8191	255	
35765.270	1	1	0	0	0.12055	0.065642	0.090327	0.25584	0.11754	0.032338	0.2324	0.14176	0.34733	0.18478	0.20972	0.2429	0.35745	0.28444	0.23963	0.28401	-1.3375	-2.5	-2.0729	-2.2583	-2.6229	-1.7563	-2.6042	-2.6688	-1.8708	-2.6375	-2.3708	-2.1146	-2.725	-2.0875	-2.3667	-2.65	157.717	104.236	410.407	401.614	67.582	165.536	392.934	386.195	418.553	66.814	357.626	398.760	420.980	413.982	335.243	362.088	0.00064283	0.00047515	0.00013406	1396	5.6317e-06	4.5192e-06	1394.6	380.38	5.493e-06	5.4028e-06	426.78	142.06	123.79	41.681	5.3345e-06	51.471	0.00086941	0.0011867	0.00033845	1413.6	1.2031e-05	1.3359e-05	1415.3	388.03	1.2049e-05	1.3709e-05	435.42	144.93	127.02	42.957	1.2621e-05	53.07	133.655	145.289	146.200	77.464	208.155	199.185	77.495	82.120	203.462	201.801	81.412	85.657	86.472	90.964	213.562	90.206	-8191	255	
35765.391	1	1	0	0	0.45443	0.15701	0.16778	0.27823	0.15336	0.067282	0.3175	0.073159	0.10891	0.016856	0.14602	0.14457	0.061081	0.11628	0.32419	0.21693	-1.3229	-2.6625	-2.4083	-2.15	-2.7542	-2.1104	-2.5333	-2.9188	-1.775	-2.7667	-2.5458	-2.1354	-2.8271	-2.0687	-2.3083	-2.9437	246.392	292.442	371.135	366.707	113.055	134.528	378.987	324.947	103.270	79.157	116.991	108.210	70.775	361.483	363.978	95.847	0.00061712	0.00055802	8.7708e-05	1401	5.1175e-06	6.3197e-06	1393.9	381.66	5.2791e-06	5.2472e-06	427.83	142.36	124.63	41.627	7.4711e-06	51.565	0.00090092	0.0012589	0.00036835	1418.3	1.3569e-05	1.4882e-05	1417.6	389.59	1.3012e-05	1.4327e-05	438	145.19	127.28	43.054	1.3496e-05	53.226	133.202	157.112	130.766	77.759	211.122	205.090	77.393	82.106	191.769	217.136	81.480	85.885	86.332	91.059	212.970	90.524	-8191	255	
35765.461	1	1	0	0	0.13247	0.10041	0.23554	0.29398	0.17934	0.15728	0.19952	0.19353	0.27878	0.23107	0.27645	0.17062	0.081149	0.07291	0.017848	0.16387	-1.4896	-2.4521	-2.5104	-2.0854	-2.6333	-2.1063	-2.2438	-2.7271	-1.9583	-2.4854	-2.6312	-1.9312	-2.6229	-2.2729	-1.8583	-2.9354	163.919	199.168	373.104	360.101	208.404	383.188	416.460	413.717	267.885	165.596	365.357	422.784	202.267	325.452	284.297	78.563	0.00063218	0.00044286	0.00018836	1402.6	5.8083e-06	3.7315e-06	1399.4	383.27	5.7076e-06	4.9262e-06	428.8	141.82	124.29	41.746	5.8748e-06	51.533	0.00091375	0.0012744	0.00037543	1419.8	1.305e-05	1.4607e-05	1421.4	390.14	1.3161e-05	1.4668e-05	437.87	145.47	127.56	43.12	1.4124e-05	53.243	127.936	165.383	165.898	77.908	213.938	226.086	77.254	82.321	214.406	210.234	81.461	85.756	86.388	90.868	224.239	90.322	-8191	255	
35765.559	1	1	0	0	0.24792	0.24006	0.086211	0.42645	0.10342	0.2257	0.3407	0.22426	0.15544	0.22597	0.024752	0.14929	0.22477	0.040135	0.25837	0.11263	-1.45	-2.1042	-2.4292	-1.8896	-2.6229	-2.1271	-2.0896	-2.6792	-1.9875	-2.3583	-2.6354	-2.0417	-2.5958	-2.2458	-2.0271	-2.7625	245.991	307.825	393.640	375.397	131.667	70.983	360.526	403.869	163.570	96.482	302.796	324.296	209.958	401.575	164.917	394.614	0.00062778	0.00039745	0.00013801	1407.5	5.3693e-06	4.4443e-06	1399.2	382.39	5.0753e-06	5.2283e-06	429.04	141.85	123.93	41.921	4.4089e-06	51.691	0.00095028	0.0013971	0.00036998	1426.5	1.4012e-05	1.5492e-05	1422.9	390.3	1.3629e-05	1.5693e-05	438.89	145.45	127.25	43.079	1.4444e-05	53.33	134.085	147.781	139.093	77.695	220.720	215.893	77.162	81.982	185.349	214.931	81.464	85.629	86.458	90.655	203.239	90.337	-8191	255	
35765.680	1	1	0	0	0.12239	0.14824	0.24209	0.23778	0.10474	0.20914	0.39671	0.24168	0.075054	0.18006	0.12352	0.15838	0.13694	0.32943	0.21316	0.25635	-1.4937	-2.0854	-2.5563	-1.9396	-2.5312	-2.3521	-2.0958	-2.8812	-2.1437	-2.1917	-2.6188	-1.9167	-2.5687	-2.4542	-2.0062	-2.8479	320.381	121.547	293.618	368.236	214.811	369.986	349.196	413.520	103.593	413.935	391.318	355.987	384.678	377.185	361.738	325.454	0.00062076	0.00047812	0.00011402	1407.4	6.6367e-06	5.9231e-06	1402	384.26	4.5548e-06	6.3911e-06	429.02	142.58	125.42	41.881	5.3531e-06	51.549	0.00098616	0.0014228	0.00040599	1426.4	1.4814e-05	1.5754e-05	1424.1	390.55	1.3805e-05	1.6423e-05	439.33	145.9	128.05	43.19	1.5074e-05	53.354	134.550	142.217	161.109	77.789	206.684	227.608	77.344	82.046	204.438	214.494	81.414	85.830	86.484	90.791	205.304	90.136	-8191	255	
35765.773	1	1	0	0	0.23687	0.067749	0.046206	0.3957	0.16122	0.031019	0.12317	0.31674	0.15364	0.38009	0.1547	0.23915	0.20403	0.3917	0.11528	0.24373	-1.6396	-2.0625	-2.6396	-1.8354	-2.2812	-2.4083	-2.0542	-2.9833	-2.1104	-1.9979	-2.7917	-2.0958	-2.5458	-2.5083	-1.8396	-2.65	417.529	297.637	150.678	399.505	169.849	352.682	418.526	355.563	145.482	250.715	355.366	396.198	399.790	382.738	386.058	414.088	0.00061673	0.00056986	0.00019485	1397	4.7178e-06	3.827e-06	1400.5	383.38	4.8891e-06	3.6448e-06	431.09	142.37	124.1	42.115	5.9037e-06	51.681	0.00095542	0.0014609	0.00039816	1425.6	1.5045e-05	1.5513e-05	1425.2	390.56	1.4459e-05	1.6067e-05	439.44	145.7	127.4	43.254	1.4531e-05	53.358	131.351	178.939	148.971	77.447	202.814	216.842	77.245	81.919	203.513	208.767	81.088	85.744	86.319	90.947	226.726	90.356	-8191	255	
35765.871	1	1	0	0	0.21734	0.036969	0.13523	0.34893	0.072631	0.094012	0.40907	0.30801	0.17689	0.31291	0.11006	0.11969	0.057789	0.27618	0.16088	0.25298	-1.7583	-1.9979	-2.7333	-1.9896	-2.2083	-2.6208	-2.025	-2.6562	-2.375	-2.0667	-2.8667	-2.2167	-2.1083	-2.8167	-1.8208	-2.7271	97.621	197.718	381.559	72.264	299.511	121.199	333.465	361.114	211.829	417.590	402.385	351.239	98.605	379.878	200.939	329.303	0.00064224	0.00047205	0.00014885	1409.7	4.9921e-06	5.1628e-06	1409.4	384.95	5.8864e-06	4.7876e-06	433.54	142.75	125.08	42.054	4.6153e-06	51.638	0.0009908	0.0014981	0.000414	1431.5	1.5827e-05	1.6997e-05	1431	392.37	1.5489e-05	1.8264e-05	441.56	146.05	128.55	43.392	1.7108e-05	53.573	135.396	144.227	136.625	77.485	196.228	228.264	77.161	82.084	215.422	228.171	81.215	85.902	86.385	91.111	221.032	90.035	-8191	255	
35765.992	1	1	0	0	0.074371	0.10077	0.31216	0.22943	0.29482	0.096478	0.41612	0.23857	0.17257	0.31574	0.24636	0.1699	0.16047	0.20037	0.18996	0.1522	-2.0333	-1.8438	-2.65	-1.9833	-1.9	-2.6854	-2.0958	-2.5354	-2.4729	-1.9583	-2.8812	-2.3187	-2.1	-2.8625	-2.0083	-2.7188	302.637	160.547	218.962	406.542	340.177	405.628	382.407	75.408	194.717	331.250	419.978	261.085	77.835	86.880	218.048	275.598	0.00065454	0.00039351	0.00016635	1417.9	5.101e-06	7.3404e-06	1418.4	387.95	6.9648e-06	5.1101e-06	433.51	142.65	125.41	42.056	6.0446e-06	51.853	0.0010527	0.0017182	0.00046292	1440.5	1.7263e-05	1.8785e-05	1440.5	395.04	1.5578e-05	1.9064e-05	442.79	146.41	128.46	43.52	1.5588e-05	53.577	132.607	142.499	155.307	77.441	223.747	221.442	77.251	82.310	208.243	215.356	81.485	85.614	86.661	90.961	208.181	90.640	-8191	255	
35766.062	1	1	0	0	0.22497	0.12565	0.14105	0.0863	0.12625	0.097736	0.38463	0.20098	0.25596	0.22337	0.24487	0.14972	0.21154	0.27766	0.26483	0.2825	-2.0958	-1.7333	-2.5583	-2.1708	-2.1875	-2.7812	-2.0792	-2.4458	-2.6521	-1.9979	-2.525	-2.325	-2.0062	-2.7271	-2.0542	-2.3438	357.544	160.606	303.045	100.012	344.429	254.957	333.137	419.612	208.004	88.336	350.078	99.631	421.832	419.831	147.319	407.137	0.00064991	0.00056432	0.00016437	1418.2	4.9243e-06	5.6022e-06	1414.5	384.48	4.7702e-06	4.7302e-06	431.79	142.69	124.26	42.164	7.3099e-06	51.871	0.0010356	0.0015489	0.00042335	1439.2	1.5682e-05	1.6763e-05	1435.9	393.2	1.4722e-05	1.7151e-05	442.22	146.02	128.13	43.439	1.5112e-05	53.514	129.089	142.278	135.860	77.594	186.910	219.763	77.393	82.322	224.022	213.499	81.678	85.983	86.486	91.105	209.254	90.446	-8191	255	
35766.156	1	1	0	0	0.21495	0.10982	0.098517	0.078406	0.10021	0.21536	0.30509	0.32383	0.21902	0.046945	0.27625	0.19944	0.30204	0.19917	0.07169	0.10979	-2.2104	-1.7583	-2.5125	-2.3792	-1.9417	-2.5625	-2.3458	-2.3917	-2.6208	-1.8292	-2.5917	-2.4708	-2.0146	-2.7146	-2.0104	-2.2	327.037	234.870	351.233	320.142	230.460	255.926	349.668	371.333	158.216	363.908	379.456	379.401	190.396	348.530	193.456	311.612	0.000623	0.00031323	0.00018529	1412.8	5.9668e-06	4.0005e-06	1414.5	384.64	4.6978e-06	3.244e-06	430.87	142.81	125.19	42.241	5.9152e-06	51.755	0.00095341	0.0014185	0.00040505	1437.1	1.4873e-05	1.5718e-05	1433.4	392.7	1.3467e-05	1.5552e-05	440.95	146.05	128.21	43.407	1.4558e-05	53.583	133.002	174.097	171.404	77.732	206.513	219.235	77.267	82.255	211.046	200.697	81.487	85.555	86.610	91.090	200.959	90.220	-8191	255	
35766.254	1	1	0	0	0.05036	0.14834	0.33133	0.099803	0.17068	0.11635	0.2025	0.24935	0.17463	0.21644	0.31053	0.40253	0.11073	0.059058	0.079385	0.26471	-2.05	-1.7479	-2.4646	-2.4958	-1.825	-2.6167	-2.4896	-2.3688	-2.6083	-1.7979	-2.8021	-2.6896	-2.05	-2.725	-2.0146	-2.15	290.376	203.905	171.429	406.428	273.454	403.477	335.597	343.643	152.562	229.175	347.796	87.065	215.056	99.618	337.456	303.830	0.00062128	0.00065516	0.00017339	1413.4	5.7235e-06	5.1727e-06	1411	385.87	8.4739e-06	4.2751e-06	430.67	142.45	125.2	42.308	5.8393e-06	51.771	0.00098001	0.001426	0.00040696	1436.6	1.6121e-05	1.6134e-05	1434	392.67	1.4372e-05	1.645e-05	441.7	146.08	128.25	43.428	1.4646e-05	53.468	132.629	158.704	160.006	77.621	233.540	234.287	77.387	82.428	206.333	207.573	81.693	85.995	86.679	91.021	217.051	90.348	-8191	255	
35766.371	1	1	0	0	0.18951	0.17436	0.10924	0.12725	0.095842	0.15002	0.2611	0.072108	0.21287	0.076183	0.21276	0.34667	0.2173	0.19115	0.23193	0.21403	-2.6188	-1.9854	-2.3625	-2.6625	-1.6938	-2.6708	-2.625	-2.1396	-2.6875	-2.05	-2.2562	-2.7875	-1.9604	-2.5521	-2.2062	-2.0312	69.431	108.610	307.716	327.614	252.245	280.464	368.462	75.089	350.781	325.608	284.184	121.911	375.168	384.594	302.831	414.334	0.0006146	0.000578	0.00014836	1417.6	5.8871e-06	5.434e-06	1417.7	385.41	5.9837e-06	7.5215e-06	431.86	142.88	125.23	42.365	5.3919e-06	51.81	0.00095427	0.0014455	0.00041327	1438.3	1.4791e-05	1.5613e-05	1437.5	392.81	1.3875e-05	1.5956e-05	441.2	146.25	128.22	43.488	1.4296e-05	53.516	129.354	147.831	153.249	77.590	222.896	214.758	77.415	82.449	206.060	233.689	81.393	85.896	86.605	91.082	200.055	90.147	-8191	255	
35766.469	1	1	0	0	0.18977	0.14335	0.27277	0.17992	0.052759	0.075682	0.25806	0.20035	0.11665	0.15081	0.16296	0.2721	0.15186	0.0609	0.098254	0.32343	-2.3958	-1.9188	-2.2417	-2.7354	-1.8708	-2.6542	-2.7375	-2.1604	-2.5771	-2.0312	-2.25	-2.775	-1.9667	-2.5563	-2.3042	-1.975	269.574	393.504	120.909	393.995	223.590	323.134	342.081	96.319	73.209	83.529	119.110	378.746	377.218	150.353	256.885	372.481	0.00061567	0.00054843	0.00014695	1414.5	5.793e-06	5.4904e-06	1411.3	385.82	6.3243e-06	4.7697e-06	431.53	142.81	124.64	42.266	2.7622e-06	51.64	0.00093149	0.0014219	0.00040806	1436.7	1.4579e-05	1.5957e-05	1434.5	392.76	1.3867e-05	1.5608e-05	441.05	146.37	128.24	43.413	1.4575e-05	53.546	130.617	177.095	147.748	77.664	222.614	215.442	77.663	82.366	198.506	222.633	81.885	85.901	86.762	91.227	218.662	90.244	-8191	255	
35766.566	1	1	0	0	0.083119	0.022502	0.32347	0.25985	0.26027	0.35377	0.46676	0.17157	0.24845	0.1195	0.46644	0.08894	0.166	0.04769	0.051091	0.25607	-2.0896	-2.1583	-1.9667	-2.8896	-1.8292	-2.3063	-2.5687	-2.0104	-2.7604	-2.1125	-2.0208	-2.7646	-2.0646	-2.3917	-2.4396	-1.9229	213.871	339.899	258.358	372.662	292.905	172.084	407.157	391.830	130.620	203.917	103.363	164.820	388.651	366.536	160.219	407.628	0.00063923	0.00033131	9.3188e-05	1411.1	6.1331e-06	4.9521e-06	1409.6	384.27	6.2406e-06	3.956e-06	431.14	142.89	125.05	42.21	5.1114e-06	51.97	0.00096076	0.0014582	0.00040633	1437.9	1.4903e-05	1.5897e-05	1434.6	391.95	1.346e-05	1.5475e-05	440.73	146.24	128.02	43.413	1.4685e-05	53.526	131.734	132.771	142.255	77.484	216.480	218.160	77.197	82.002	203.388	205.710	81.382	85.596	86.534	91.233	207.533	90.299	-8191	255	
35766.641	1	1	0	0	0.097599	0.097271	0.16134	0.19488	0.29381	0.10491	0.3044	0.27654	0.073694	0.18377	0.10199	0.0082819	0.22909	0.058642	0.13605	0.16683	-2.1375	-2.2354	-1.8646	-2.975	-1.9417	-2.4062	-2.75	-2.0292	-2.4958	-2.3292	-2.1437	-2.6542	-2.2062	-2.3333	-2.4062	-1.9521	223.646	280.435	147.266	337.148	213.936	190.344	328.458	396.086	264.852	163.844	272.337	194.406	420.590	320.106	344.229	363.116	0.00066875	0.00044815	0.0001213	1415.2	5.8802e-06	3.4386e-06	1408.7	385.04	6.4084e-06	3.2592e-06	433.22	142.91	124.94	42.059	5.3337e-06	51.917	0.00094789	0.0013693	0.00039124	1436.3	1.4974e-05	1.5905e-05	1433	392.1	1.3578e-05	1.555e-05	441.79	146.3	127.92	43.405	1.3987e-05	53.536	129.353	180.059	180.208	77.709	205.548	222.515	77.219	82.096	219.818	228.570	81.266	85.784	86.390	90.848	230.385	90.161	-8191	255	
35766.758	1	1	0	0	0.31271	0.11762	0.18074	0.19951	0.18742	0.38542	0.37203	0.3201	0.10076	0.22622	0.31126	0.34273	0.20357	0.15919	0.11853	0.24818	-2.1833	-2.3917	-1.7125	-2.7104	-2.1042	-2.0687	-2.6417	-2.0333	-2.4167	-2.5125	-1.8854	-2.7313	-2.2333	-2.1354	-2.6229	-1.7021	148.965	139.374	191.063	272.649	224.259	278.687	322.583	377.618	422.777	334.848	357.309	399.871	337.986	373.794	252.464	422.795	0.00063602	0.00071287	0.00012826	1415	5.5557e-06	3.1338e-06	1412.3	385.46	5.7226e-06	3.1074e-06	431.9	142.87	125.17	42.073	4.3189e-06	51.865	0.00095214	0.0013828	0.00040313	1437.9	1.492e-05	1.7025e-05	1436.1	392.46	1.3933e-05	1.5685e-05	440.7	146.28	128.26	43.4	1.4409e-05	53.568	134.689	154.116	151.373	77.640	221.427	215.855	77.526	82.177	220.600	229.055	81.600	85.663	86.730	91.190	215.317	90.299	-8191	255	
35766.855	1	1	0	0	0.043309	0.10504	0.044413	0.13317	0.25641	0.31538	0.41921	0.3448	0.36371	0.24592	0.39309	0.08564	0.21292	0.17997	0.31086	0.20099	-1.875	-2.4354	-1.7896	-2.5708	-2.2479	-2.0167	-2.9458	-2.0563	-2.2917	-2.5458	-2.2271	-2.6292	-2.2125	-1.95	-2.6188	-2.225	244.117	327.602	235.077	82.146	127.848	382.659	390.669	406.120	123.584	382.627	367.897	66.251	397.443	322.217	147.914	325.452	0.00061592	0.00054553	0.00021247	1419.4	4.8794e-06	4.7662e-06	1411.8	384.13	6.1542e-06	6.1005e-06	432.8	142.81	124.59	42.169	6.136e-06	51.739	0.00093153	0.0014063	0.00040392	1438.2	1.5061e-05	1.6328e-05	1434	392.37	1.3906e-05	1.6136e-05	441.66	146.26	127.94	43.389	1.4197e-05	53.486	134.744	155.596	146.151	77.686	220.286	218.055	77.298	82.142	221.950	215.425	81.422	85.954	86.464	91.305	212.523	90.360	-8191	255	
35766.949	1	1	0	0	0.13385	0.16244	0.10828	0.18718	0.12849	0.20344	0.28968	0.11903	0.064361	0.19261	0.12964	0.25122	0.06821	0.05924	0.17994	0.044316	-1.9292	-2.7167	-1.8292	-2.8354	-2.1542	-1.9521	-2.9479	-2.0875	-2.2938	-2.6083	-1.8875	-2.7458	-2.6	-2.0125	-2.5958	-2.0438	119.173	190.789	352.809	374.418	311.328	406.567	341.670	373.978	238.543	284.382	421.844	393.336	362.889	80.775	206.182	123.654	0.00061591	0.0005644	0.00012981	1412.9	6.0154e-06	4.9071e-06	1409.4	384.7	5.6073e-06	6.0453e-06	430.19	143.02	124.71	42.109	4.836e-06	51.948	0.00097097	0.0014176	0.00039839	1435.3	1.5137e-05	1.5997e-05	1435.9	392.41	1.4273e-05	1.5754e-05	440.36	146.46	128.22	43.368	1.3994e-05	53.503	135.082	155.891	144.257	77.455	209.113	200.447	77.370	82.059	204.641	218.129	81.565	86.050	86.398	91.071	210.815	90.056	-8191	255	
35767.070	1	1	0	0	0.077545	0.058277	0.16697	0.19933	0.13778	0.18	0.43562	0.21152	0.092217	0.1499	0.16849	0.22872	0.27454	0.19229	0.15337	0.33714	-1.5896	-2.6688	-1.8896	-2.5312	-2.425	-1.9104	-2.8604	-2.1604	-1.9833	-2.7354	-2.0833	-2.4458	-2.6396	-2.1146	-2.8354	-2.2104	414.860	298.981	136.250	369.297	418.727	115.337	374.967	312.848	68.213	127.104	114.208	353.446	70.582	360.411	102.287	379.487	0.00060544	0.00076079	0.00017824	1411.1	4.1807e-06	5.4792e-06	1405.7	385.28	6.0657e-06	2.842e-06	433.23	143.19	125.01	42.371	6.0966e-06	52.086	0.0009734	0.0013902	0.00041149	1438.9	1.5049e-05	1.6103e-05	1434.8	392.6	1.4451e-05	1.6441e-05	441.58	146.49	128.17	43.579	1.4633e-05	53.692	129.325	153.726	144.840	77.780	225.354	200.353	77.567	82.064	218.881	203.258	81.507	86.189	86.672	91.215	220.610	90.185	-8191	255	
35767.164	1	1	0	0	0.26954	0.18233	0.27059	0.48092	0.18486	0.17068	0.066403	0.20414	0.41023	0.23177	0.13732	0.26342	0.075467	0.023548	0.094282	0.14342	-1.5896	-2.7188	-1.9729	-2.4646	-2.4958	-1.875	-2.9188	-2.4938	-1.8875	-2.7	-2.2396	-2.4208	-2.6771	-2.0292	-2.575	-2.4542	360.130	201.766	106.009	389.024	136.217	73.268	407.121	364.407	103.101	271.529	419.338	417.225	226.750	87.464	82.988	280.979	0.00061561	0.00058719	0.00017121	1420.7	4.8498e-06	2.3125e-06	1413.2	385.25	3.8417e-06	3.8711e-06	431.47	143.11	125.77	42.16	4.8406e-06	52.258	0.00097816	0.0014579	0.00041738	1441.2	1.5102e-05	1.6465e-05	1436.9	392.92	1.4808e-05	1.6122e-05	441.68	146.46	128.56	43.508	1.5301e-05	53.767	134.454	133.781	151.674	77.995	228.818	231.684	77.182	82.141	214.946	221.412	81.536	85.902	86.608	91.068	239.929	90.208	-8191	255	
35767.262	1	1	0	0	0.38487	0.15579	0.020868	0.20395	0.18425	0.19969	0.38883	0.08511	0.28756	0.24096	0.14427	0.14302	0.12846	0.22182	0.036149	0.2179	-1.3646	-2.6167	-1.9583	-2.3021	-2.6917	-1.9542	-2.65	-2.7458	-2.1375	-2.7188	-2.2438	-2.2104	-2.7646	-2.0438	-2.3729	-2.7896	161.076	300.968	76.763	422.171	108.279	193.144	311.903	238.597	113.948	387.697	350.960	315.466	107.293	411.981	409.937	372.922	0.00062331	0.00043811	0.00012549	1416.9	6.4833e-06	5.2356e-06	1421	386.38	6.3534e-06	5.7838e-06	433.1	142.9	123.91	42.19	5.4088e-06	52.264	0.00099405	0.0014551	0.00043399	1442.1	1.5662e-05	1.7539e-05	1440.4	393.4	1.4919e-05	1.6712e-05	441.78	146.65	127.93	43.545	1.5756e-05	53.823	132.113	168.775	156.152	77.871	223.961	229.677	77.427	82.175	196.423	215.450	81.658	85.855	86.360	91.296	204.360	90.361	-8191	255	
35767.359	1	1	0	0	0.15259	0.11776	0.159	0.28226	0.073865	0.21661	0.1482	0.40133	0.33367	0.20762	0.034725	0.13909	0.31356	0.15304	0.29093	0.3218	-1.45	-2.5958	-2.15	-2.1208	-2.8354	-1.825	-2.5062	-2.6437	-1.9208	-2.6021	-2.3979	-2.1583	-2.725	-2.0812	-2.2458	-2.6917	420.966	150.159	68.040	342.549	246.236	148.460	366.576	363.489	236.867	126.005	400.884	380.082	383.118	399.647	72.873	384.255	0.00062602	0.00048306	0.00012288	1421.8	4.7361e-06	5.6533e-06	1427.1	385.1	5.2028e-06	5.4318e-06	434.21	142.98	124.53	42.485	4.2732e-06	51.982	0.00098438	0.001492	0.00043443	1444.2	1.5627e-05	1.6823e-05	1443.5	393.29	1.5342e-05	1.6952e-05	443.11	146.86	128.2	43.684	1.5612e-05	53.778	130.767	153.330	159.980	77.277	196.651	217.669	77.194	82.066	211.796	212.461	81.224	85.626	86.238	90.983	219.884	90.170	-8191	255	
35767.453	1	1	0	0	0.18166	0.078443	0.22168	0.22044	0.080923	0.12524	0.34467	0.10739	0.1296	0.097829	0.15791	0.18927	0.084563	0.087249	0.16076	0.19639	-1.4729	-2.5208	-2.3229	-1.9604	-2.6813	-1.9771	-2.3771	-2.9167	-2	-2.7687	-2.4292	-2	-2.6875	-2.1833	-2.2917	-2.6312	304.708	210.375	366.420	408.132	333.435	314.550	338.753	75.030	286.780	367.895	107.513	381.393	209.172	161.496	357.971	67.068	0.00061765	0.0006481	0.00013034	1415.6	5.5676e-06	4.9547e-06	1419.8	385.26	5.097e-06	4.8814e-06	432.52	143.67	125.44	42.354	4.2859e-06	52.104	0.0010229	0.0015753	0.00042922	1444.6	1.5651e-05	1.7181e-05	1443	393.46	1.4732e-05	1.6208e-05	442.5	146.81	128.79	43.615	1.5568e-05	53.897	129.791	151.589	146.004	77.775	227.163	195.674	77.281	82.022	204.878	215.838	81.519	85.759	86.249	90.774	207.373	90.308	-8191	255	
35767.551	1	1	0	0	0.10822	0.09314	0.073073	0.37174	0.080317	0.17907	0.21913	0.10536	0.30129	0.10705	0.11267	0.20709	0.14079	0.24196	0.090546	0.23005	-1.3708	-2.35	-2.3896	-1.75	-2.5125	-2.1729	-2.2292	-2.7771	-1.7208	-2.4229	-2.5854	-2.0604	-2.6542	-2.2917	-2.0187	-2.6875	332.390	134.027	134.864	417.522	134.824	82.777	89.293	100.932	249.026	294.515	343.566	295.339	374.931	73.267	354.115	310.506	0.00065826	0.00064431	0.00013415	1425.4	6.275e-06	3.8096e-06	1420.9	387.05	4.8934e-06	4.8665e-06	431.23	142.86	125.66	42.459	6.2449e-06	51.96	0.0010032	0.0015445	0.00043888	1446.7	1.5383e-05	1.7516e-05	1442.9	393.96	1.5083e-05	1.7113e-05	442.18	146.72	129.02	43.683	1.5955e-05	53.888	133.567	128.495	186.607	77.742	208.817	242.881	77.235	82.002	205.085	221.255	81.074	85.744	86.269	90.961	233.677	90.165	-8191	255	
35767.672	1	1	0	0	0.040865	0.23263	0.22401	0.24269	0.11	0.26711	0.15976	0.2783	0.15186	0.18485	0.28244	0.073676	0.35609	0.20479	0.085392	0.18298	-1.5688	-2.2167	-2.5229	-1.8229	-2.5729	-2.2958	-2.2604	-2.8208	-1.875	-2.3208	-2.6562	-1.9438	-2.6875	-2.4104	-1.8625	-2.6688	328.042	218.077	216.305	418.057	249.832	177.489	384.985	387.756	101.918	70.250	400.791	385.902	359.915	323.289	64.574	396.160	0.00060208	0.00067045	0.0001357	1418.5	6.357e-06	7.6003e-06	1418.8	386.65	4.1612e-06	6.2061e-06	435.93	143.64	125.63	42.29	6.0553e-06	52.253	0.0010095	0.0015707	0.00041887	1443.5	1.5518e-05	1.7406e-05	1443.4	394.14	1.4613e-05	1.718e-05	443.16	146.61	128.94	43.639	1.5947e-05	53.941	131.230	137.293	171.194	77.427	206.370	202.464	77.290	82.122	192.776	203.671	81.175	85.761	86.618	91.026	211.858	90.057	-8191	255	
35767.766	1	1	0	0	0.12032	0.22292	0.16178	0.24588	0.14431	0.15465	0.21861	0.38107	0.17076	0.071549	0.43642	0.20141	0.13739	0.27366	0.23709	0.10902	-1.6167	-2.3229	-2.5583	-1.9062	-2.5583	-2.1896	-2.1562	-2.7854	-2.1271	-2.2354	-2.7562	-1.9937	-2.4188	-2.5646	-1.9375	-2.8146	227.915	78.107	391.611	392.094	382.830	87.692	406.992	390.579	342.012	310.867	394.981	330.936	311.162	370.945	211.740	342.052	0.00064362	0.00065755	0.00011206	1426.4	3.9712e-06	4.5037e-06	1417.5	386.22	6.1134e-06	4.2443e-06	434.05	143.1	125.43	42.305	4.7439e-06	52.225	0.0010518	0.0015114	0.00043032	1446.8	1.6092e-05	1.7074e-05	1442.2	393.96	1.5671e-05	1.7943e-05	443.36	146.82	128.7	43.696	1.6252e-05	53.897	133.499	129.035	159.933	77.568	225.935	196.090	77.393	81.995	213.854	229.735	81.424	85.499	86.631	91.005	213.942	90.090	-8191	255	
35767.859	1	1	0	0	0.35261	0.19194	0.12652	0.21489	0.15155	0.21998	0.13764	0.21317	0.4401	0.10731	0.1845	0.026773	0.42586	0.10642	0.097851	0.052729	-1.725	-2.0208	-2.7	-2.0542	-2.425	-2.4792	-2.0938	-2.8187	-2.1312	-2.1396	-2.7875	-2.0271	-2.475	-2.7083	-1.6333	-2.8708	146.537	373.517	343.897	350.072	392.905	130.949	349.563	317.038	347.998	82.148	258.295	328.052	421.064	310.138	414.456	131.403	0.0006451	0.00055011	0.00021088	1424.8	4.861e-06	3.8026e-06	1422.6	386.78	4.8953e-06	5.5406e-06	436.22	143.9	125.38	42.256	6.4374e-06	52.144	0.0010319	0.0016176	0.00042801	1445.2	1.649e-05	1.7663e-05	1444.6	394.54	1.5401e-05	1.795e-05	444.24	146.98	128.89	43.587	1.6007e-05	54.005	135.268	153.217	153.798	77.555	196.339	232.116	77.286	82.107	191.750	206.640	81.530	85.524	86.468	90.961	217.831	90.511	-8191	255	
35767.934	1	1	0	0	0.20769	0.13351	0.099585	0.02703	0.11491	0.24534	0.13277	0.041986	0.06824	0.12241	0.23542	0.3433	0.22037	0.10739	0.12685	0.099321	-1.7625	-1.8354	-2.7229	-2.1771	-2.2687	-2.7458	-2.0625	-2.775	-2.3396	-2.0208	-2.8771	-2.2604	-2.1875	-2.7083	-1.9604	-2.6146	210.537	327.347	109.262	202.248	283.830	241.695	366.476	350.449	256.814	276.117	365.816	365.451	101.122	399.762	134.062	216.071	0.00063905	0.00050137	0.00017605	1424.6	5.5699e-06	5.7279e-06	1423.9	386.91	6.1209e-06	4.0499e-06	433.7	143.78	126.06	42.349	4.1304e-06	52.245	0.001053	0.0016637	0.00043985	1449.3	1.6595e-05	1.7133e-05	1446.4	394.18	1.5324e-05	1.7701e-05	443.58	146.85	129.07	43.676	1.6373e-05	53.972	136.021	166.530	143.491	77.473	210.702	229.746	77.185	82.038	211.590	198.992	81.408	85.683	86.435	90.869	221.579	90.387	-8191	255	
35768.055	1	1	0	0	0.13239	0.20044	0.25048	0.059493	0.23625	0.099406	0.40829	0.23571	0.057393	0.24257	0.36992	0.16919	0.11148	0.20862	0.16511	0.16582	-2.0438	-1.875	-2.6917	-2.2729	-2.1708	-2.6188	-2.2208	-2.6229	-2.4021	-1.8896	-2.8708	-2.2792	-1.9229	-3.0042	-1.8	-2.5646	128.143	83.316	400.291	417.033	316.404	149.327	336.750	421.211	380.103	169.323	366.135	382.966	390.461	407.999	215.267	353.075	0.00065026	0.00035606	0.00013409	1422.7	5.0588e-06	5.972e-06	1422.6	387.25	6.2049e-06	6.2729e-06	433.15	143.12	126.09	42.522	6.9241e-06	52.161	0.0010278	0.0015731	0.00044124	1446.9	1.6853e-05	1.728e-05	1445.2	395.06	1.5457e-05	1.7788e-05	443.21	146.85	128.85	43.72	1.6285e-05	53.957	133.561	159.021	160.164	77.795	216.244	202.166	77.356	82.002	208.227	209.477	81.443	85.676	86.734	90.807	197.464	90.381	-8191	255	
35768.148	1	1	0	0	0.13248	0.069892	0.11986	0.23741	0.30677	0.095035	0.35698	0.46313	0.16002	0.087158	0.27479	0.21495	0.073729	0.1394	0.17971	0.18388	-2.0979	-1.8813	-2.5146	-2.2854	-2.0104	-2.7042	-2.0792	-2.4688	-2.6375	-1.8333	-2.7438	-2.3937	-1.9958	-2.7458	-1.9729	-2.325	277.865	70.620	73.792	96.354	161.992	370.273	364.050	291.418	328.225	128.575	348.694	391.559	351.041	89.157	163.200	339.077	0.0006255	0.0005392	0.00011233	1423.1	5.4206e-06	4.3539e-06	1422.4	385.82	5.211e-06	4.3999e-06	431.8	143.52	125.36	42.257	6.5663e-06	52.299	0.0010224	0.0015617	0.00043003	1449.1	1.6244e-05	1.6489e-05	1443.4	394.63	1.4746e-05	1.7736e-05	442.82	146.85	128.64	43.59	1.632e-05	53.927	131.337	144.292	151.838	77.496	200.040	218.312	77.203	82.262	224.065	225.102	81.622	85.747	86.293	90.825	205.180	90.486	-8191	255	
35768.246	1	1	0	0	0.18701	0.17305	0.21975	0.18719	0.051361	0.12174	0.21217	0.055621	0.082771	0.28614	0.3589	0.14019	0.24148	0.097437	0.1376	0.32611	-2.1896	-1.9625	-2.6271	-2.4875	-1.7938	-2.7812	-2.3729	-2.4125	-2.7208	-1.8125	-2.5938	-2.4979	-2.075	-2.7062	-2.2104	-2.1437	217.736	193.505	233.796	336.694	76.003	308.011	382.328	108.295	279.710	178.728	415.983	387.293	360.442	162.943	348.288	351.918	0.00065563	0.0004665	0.00015216	1431.4	5.5502e-06	6.8012e-06	1418.9	387.88	5.5539e-06	5.7693e-06	434.39	143.54	125.95	42.365	5.7043e-06	51.939	0.0010256	0.0015454	0.00044087	1451.4	1.6431e-05	1.7122e-05	1443.5	394.83	1.5055e-05	1.7564e-05	443.36	147.03	128.83	43.666	1.6195e-05	53.81	132.489	138.659	160.502	77.424	209.963	196.866	77.447	82.500	210.704	221.302	81.507	85.761	86.544	91.056	221.546	90.541	-8191	255	
35768.344	1	1	0	0	0.27549	0.092259	0.12359	0.12613	0.10047	0.24427	0.26284	0.28445	0.096732	0.17865	0.16881	0.16239	0.14283	0.28654	0.18461	0.14785	-2.25	-1.8312	-2.5	-2.4875	-1.7958	-2.4958	-2.2083	-2.1479	-2.7062	-2.1104	-2.5854	-2.4813	-1.9833	-2.6104	-2.1417	-2.0042	270.397	236.860	352.140	423.835	169.740	385.064	371.870	353.859	114.124	171.464	370.149	101.783	332.707	417.208	246.099	185.692	0.00059898	0.00043541	0.00014656	1429	5.466e-06	5.302e-06	1422.5	386.24	4.8147e-06	4.3762e-06	431.75	143.28	125.29	42.228	3.4755e-06	52.286	0.00099621	0.0015833	0.00044192	1450.3	1.6651e-05	1.6747e-05	1443.9	393.97	1.545e-05	1.7353e-05	443.58	147.02	128.84	43.69	1.6345e-05	53.959	132.649	176.943	180.995	77.835	201.815	239.143	77.211	82.453	208.110	222.121	81.942	85.885	86.539	91.283	203.452	90.643	-8191	255	
35768.461	1	1	0	0	0.11849	0.076463	0.05592	0.089443	0.15448	0.30489	0.31947	0.40181	0.2139	0.067495	0.45352	0.10272	0.28833	0.30678	0.19943	0.23496	-2.2604	-1.9	-2.2229	-2.7583	-1.8375	-2.5271	-2.5771	-2.2667	-2.4958	-2.1396	-2.3208	-2.5583	-1.9354	-2.4917	-2.4437	-2.0146	289.277	381.244	138.914	163.281	95.587	192.509	379.941	353.017	255.566	292.028	391.734	362.525	69.824	396.294	102.059	311.839	0.00063481	0.00051915	0.00012015	1429.5	5.378e-06	5.49e-06	1419	386.79	4.6458e-06	3.1099e-06	435.36	142.91	126.38	42.478	5.6428e-06	52.032	0.0010233	0.0016129	0.00046222	1452.2	1.6429e-05	1.8501e-05	1445.5	394.9	1.5368e-05	1.8578e-05	444.14	146.69	129.09	43.797	1.644e-05	53.912	131.834	134.617	134.114	77.814	210.939	231.188	77.417	82.251	217.608	210.365	81.846	85.864	86.485	91.019	201.921	90.187	-8191	255	
35768.559	1	1	0	0	0.1344	0.23966	0.24205	0.32432	0.28074	0.19935	0.37097	0.034724	0.14403	0.050431	0.16422	0.14119	0.23578	0.14135	0.29833	0.19536	-2.2562	-1.9146	-2.2	-2.75	-1.9333	-2.6458	-2.7458	-2.0229	-2.5354	-2.3208	-2.2083	-2.9792	-2.0312	-2.7292	-2.4188	-1.9542	403.555	74.793	396.979	391.672	368.914	76.808	364.422	320.813	139.740	291.382	415.796	354.018	181.204	148.088	66.465	372.112	0.0006133	0.00031732	0.00013912	1427.4	7.524e-06	6.4048e-06	1420.7	387.14	6.4308e-06	5.3378e-06	433.48	143.56	124.93	42.558	5.6443e-06	52.459	0.0010179	0.0016586	0.00045504	1450.5	1.6719e-05	1.8503e-05	1447.3	394.62	1.5536e-05	1.8747e-05	444.43	147.23	128.86	43.8	1.6354e-05	54.125	129.612	145.550	155.739	77.649	194.054	194.201	77.094	82.213	215.172	223.631	81.850	85.592	86.588	91.267	227.103	90.379	-8191	255	
35768.629	1	1	0	0	0.05449	0.052016	0.098249	0.38536	0.12215	0.19939	0.19644	0.50902	0.26803	0.18876	0.13318	0.26649	0.2985	0.16491	0.025911	0.2601	-2.2625	-2.1021	-2.0292	-2.7458	-2	-2.55	-2.8688	-1.8229	-2.5625	-2.0625	-2.0792	-2.9375	-2.0375	-2.3042	-2.5646	-1.9979	353.586	188.041	378.149	330.014	213.106	208.097	307.393	364.471	113.689	267.793	289.517	359.572	75.153	384.792	365.701	393.118	0.00062567	0.00050514	0.00016756	1427.3	6.7718e-06	4.2905e-06	1426.1	387.19	6.8559e-06	3.4015e-06	434.45	143.28	125.71	42.425	5.9264e-06	52.316	0.0010513	0.001615	0.00045562	1451	1.6814e-05	1.8743e-05	1449.2	394.25	1.5528e-05	1.8082e-05	444.3	146.92	128.88	43.747	1.594e-05	54.029	132.488	145.411	160.055	77.686	202.935	227.568	77.411	82.338	217.659	231.734	81.542	85.878	86.302	90.977	220.013	90.389	-8191	255	
35768.750	1	1	0	0	0.1023	0.20942	0.35918	0.46888	0.062079	0.15948	0.2654	0.084313	0.20143	0.10959	0.16079	0.28518	0.24691	0.19496	0.32526	0.19846	-2.1542	-2.275	-1.9604	-2.7292	-2.0687	-2.4458	-2.8438	-2.2604	-2.4396	-2.2708	-2.1771	-2.8	-2.225	-2.2729	-2.5875	-2.1188	409.315	162.079	256.497	64.073	119.459	422.489	396.968	80.841	77.121	174.309	350.965	386.397	97.327	128.859	289.735	405.902	0.00068664	0.00057632	8.8855e-05	1427.1	6.7498e-06	4.5731e-06	1424.7	387.49	4.8036e-06	4.8503e-06	436.58	143.94	126.12	42.359	4.0167e-06	52.211	0.001068	0.001598	0.00045881	1451.6	1.7014e-05	1.7904e-05	1448.4	395.32	1.5716e-05	1.8335e-05	444.59	147.26	128.9	43.736	1.6307e-05	54.049	132.397	152.734	161.118	77.777	217.862	213.203	77.260	82.052	221.988	204.241	81.460	85.595	86.467	91.144	213.539	90.049	-8191	255	
35768.844	1	1	0	0	0.209	0.27558	0.27297	0.20299	0.2307	0.12301	0.31748	0.3349	0.055233	0.116	0.15231	0.26733	0.16857	0.16139	0.24285	0.056415	-2.0354	-2.4271	-1.7812	-2.8667	-2.3	-2.1021	-2.9562	-2.1875	-2.5125	-2.5896	-1.8312	-2.7562	-2.1417	-2.0625	-2.6771	-2.0021	235.610	158.491	392.211	76.551	271.673	352.399	72.699	347.129	350.717	240.288	406.923	81.117	373.904	122.281	97.361	211.639	0.00064553	0.00051677	0.00012066	1426.5	6.5782e-06	6.7152e-06	1424.2	386.79	5.5407e-06	5.5082e-06	435.62	143.93	125.37	42.456	4.0455e-06	52.199	0.0010689	0.0015772	0.0004645	1453	1.6923e-05	1.8636e-05	1448.7	394.29	1.5981e-05	1.7892e-05	443.89	147.05	128.95	43.84	1.666e-05	54.026	134.561	134.644	141.890	77.799	205.932	227.271	77.237	82.180	223.781	203.708	81.629	85.930	86.829	91.175	217.608	90.253	-8191	255	
35768.941	1	1	0	0	0.21132	0.24807	0.097534	0.16791	0.15619	0.14497	0.16615	0.2533	0.13264	0.081114	0.061594	0.060397	0.18601	0.15873	0.19156	0.13459	-1.8458	-2.6729	-1.8396	-2.7604	-2.1521	-2.0771	-3.025	-1.9667	-2.2938	-2.7146	-2.0438	-2.725	-2.2667	-1.9458	-2.7188	-2.1708	342.620	330.425	120.224	384.717	373.028	169.545	410.803	371.357	152.316	260.659	329.434	279.508	66.747	328.922	376.519	319.966	0.00064736	0.00059167	0.00014163	1430.7	6.5425e-06	5.1982e-06	1424.2	387.07	4.8332e-06	5.3075e-06	432.56	143.92	125.3	42.483	5.86e-06	52.095	0.0010549	0.0016408	0.00044729	1454.1	1.6846e-05	1.8916e-05	1449	394.88	1.629e-05	1.7875e-05	443.95	147.25	129.02	43.722	1.642e-05	54.021	130.035	168.377	140.639	77.502	195.133	209.131	77.403	82.215	189.312	239.074	81.510	85.933	86.374	91.050	205.614	90.364	-8191	255	
35769.039	1	1	0	0	0.10561	0.017054	0.15606	0.31716	0.21778	0.22466	0.39997	0.23474	0.15761	0.1944	0.29243	0.23528	0.22056	0.23353	0.19386	0.38341	-1.7729	-2.4833	-1.8042	-2.7479	-2.2583	-1.9667	-3.0604	-2.3375	-2.1875	-2.6229	-1.9479	-2.6333	-2.4646	-2.0208	-2.6604	-2.175	80.774	384.143	167.894	126.016	149.816	170.809	355.539	418.633	421.901	228.328	367.720	372.302	404.739	423.296	150.489	326.570	0.00060687	0.00047363	0.00015154	1427.5	5.5176e-06	4.3867e-06	1423.6	387.24	5.472e-06	6.8131e-06	436.38	144.48	125.85	42.64	6.7928e-06	52.145	0.0010446	0.0015597	0.00046549	1452.2	1.647e-05	1.8688e-05	1447.5	394.4	1.613e-05	1.8e-05	445.23	147.63	129.02	43.85	1.6689e-05	54.007	132.777	172.111	157.822	77.717	197.305	220.239	77.192	82.142	201.886	242.824	81.351	85.850	86.235	91.021	213.624	90.265	-8191	255	
35769.156	1	1	0	0	0.11757	0.20806	0.18831	0.13691	0.25134	0.15323	0.21415	0.57585	0.058574	0.13708	0.29438	0.19049	0.17533	0.24611	0.08344	0.19202	-1.5604	-2.5208	-2.0521	-2.4354	-2.4625	-1.8292	-2.9104	-2.2792	-2.0271	-2.5625	-2.0604	-2.4729	-2.5438	-1.9792	-2.7396	-2.2917	255.911	314.321	364.996	322.357	130.948	316.003	311.669	342.951	215.245	76.439	407.337	68.371	77.354	65.223	236.541	268.682	0.00059433	0.00068492	0.00010959	1434.7	5.6676e-06	4.747e-06	1425.4	386.17	5.6746e-06	4.1401e-06	435.54	143.65	125.03	42.397	8.3659e-06	52.032	0.0010585	0.0016443	0.00047285	1456.7	1.6745e-05	1.905e-05	1448.4	394.46	1.604e-05	1.8328e-05	444.7	147.16	128.9	43.775	1.675e-05	53.989	128.541	156.398	160.278	77.909	199.132	214.744	77.335	82.193	217.688	223.700	81.267	85.999	86.652	91.141	227.547	90.320	-8191	255	
35769.230	1	1	0	0	0.16547	0.1641	0.15249	0.041119	0.11602	0.22701	0.2092	0.27843	0.17304	0.081152	0.38545	0.044849	0.088093	0.14796	0.14777	0.1194	-1.4188	-2.6521	-1.8646	-2.3917	-2.7	-1.9667	-2.7667	-2.3604	-1.9229	-2.6063	-2.1312	-2.3312	-2.6063	-1.9521	-2.4083	-2.3812	135.879	217.763	296.428	300.005	113.477	123.594	343.000	387.753	316.757	269.297	376.483	332.604	417.989	104.471	254.013	370.388	0.00061836	0.00047139	0.00012407	1431.3	6.3406e-06	6.4867e-06	1425.2	385.25	6.2848e-06	2.5028e-06	433.14	143.83	125.95	42.485	7.4465e-06	52.233	0.0010489	0.0015673	0.00046093	1453.4	1.6354e-05	1.8069e-05	1449.1	394.1	1.574e-05	1.8061e-05	443.96	147.15	128.99	43.73	1.7095e-05	53.984	132.698	157.296	153.807	78.158	202.560	218.021	77.633	82.397	215.008	173.590	81.758	85.950	86.628	91.423	189.214	90.069	-8191	255	
35769.352	1	1	0	0	0.12913	0.060072	0.25882	0.35621	0.068814	0.014992	0.25611	0.36064	0.057317	0.12193	0.19906	0.19076	0.36767	0.21368	0.21518	0.16377	-1.5604	-2.6063	-2.1917	-2.2625	-2.6437	-1.8271	-2.6042	-2.4417	-1.8458	-2.6813	-2.2708	-2.2	-2.6813	-2.05	-2.2687	-2.6125	392.099	309.203	178.749	380.656	76.133	359.278	316.605	102.440	231.441	414.085	369.211	352.314	414.738	95.261	65.317	302.646	0.00063737	0.00032354	0.00012328	1430.5	5.9687e-06	6.232e-06	1423.6	386.73	5.2596e-06	4.2318e-06	433.11	144.02	125.7	42.138	5.9482e-06	52.21	0.0010429	0.0015918	0.00045847	1453	1.6493e-05	1.8678e-05	1449.6	394.89	1.5668e-05	1.8506e-05	443.58	147.2	129.03	43.585	1.6637e-05	53.889	130.683	149.082	154.438	77.742	209.899	225.827	77.533	82.333	215.057	209.677	81.883	86.011	86.327	91.114	209.139	90.211	-8191	255	
35769.445	1	1	0	0	0.18027	0.097767	0.14348	0.2514	0.043959	0.10928	0.26602	0.085671	0.19241	0.18598	0.27495	0.27249	0.3637	0.19459	0.14418	0.1503	-1.3125	-2.5854	-2.1104	-2.2125	-2.8937	-2.05	-2.8146	-2.7938	-1.8208	-2.8479	-2.4167	-2.3063	-2.5854	-2.2021	-2.25	-2.8875	297.337	247.545	126.524	78.232	68.983	133.068	318.599	303.305	238.498	149.292	90.557	404.601	271.629	139.667	199.987	383.078	0.00061627	0.00035414	0.00014452	1427.7	5.0162e-06	5.7205e-06	1425.9	387.83	5.4821e-06	4.2436e-06	433.91	144.04	125.19	42.377	6.1316e-06	52.363	0.0010537	0.0016225	0.00044627	1452.7	1.6505e-05	1.8553e-05	1449.4	394.37	1.6253e-05	1.8005e-05	443.52	147.1	128.91	43.746	1.6176e-05	53.967	131.478	135.938	166.908	78.150	214.308	203.864	77.412	82.360	206.600	204.336	81.521	86.082	86.522	90.827	224.842	90.137	-8191	255	
35769.543	1	1	0	0	0.33138	0.1543	0.089478	0.34813	0.19546	0.16288	0.086068	0.21892	0.10092	0.27255	0.29054	0.098468	0.13332	0.099212	0.29794	0.23363	-1.4896	-2.6083	-2.25	-2.0833	-2.6208	-2.0104	-2.5312	-2.8708	-1.8438	-2.5687	-2.5833	-1.9854	-2.9833	-2.2417	-2.2375	-2.8521	267.165	141.284	174.844	412.961	179.232	84.277	360.228	359.121	120.621	360.233	83.196	405.427	175.367	336.339	329.816	300.459	0.00065443	0.00039889	0.00018839	1429.7	6.2798e-06	5.4126e-06	1419.5	387.2	6.4157e-06	4.9296e-06	435.32	144.3	125.82	42.431	6.1287e-06	52.559	0.0010466	0.0015848	0.00044294	1452.3	1.6711e-05	1.7902e-05	1447.6	394.79	1.6159e-05	1.8259e-05	444.23	147.39	129.07	43.689	1.6078e-05	54.12	130.376	163.854	164.382	77.745	196.857	236.087	77.574	82.151	204.259	234.151	81.395	85.757	86.553	91.201	216.346	90.420	-8191	255	
35769.641	1	1	0	0	0.22941	0.05971	0.15426	0.19987	0.03156	0.28476	0.28658	0.26165	0.13801	0.16311	0.17063	0.18418	0.14202	0.29188	0.046891	0.21764	-1.6	-2.3833	-2.5521	-1.9896	-2.7833	-2.1208	-2.2729	-2.8271	-1.8438	-2.5708	-2.525	-2.1083	-2.7687	-2.2208	-2.1146	-2.8125	230.282	393.990	281.438	381.513	227.519	318.879	300.978	254.536	143.786	114.070	246.447	64.786	97.952	412.846	281.145	357.785	0.00059808	0.0007657	0.00019214	1433.1	5.9467e-06	4.6537e-06	1420.2	387.69	7.2904e-06	4.3415e-06	433.37	143.57	126.58	42.657	4.7858e-06	52.26	0.0010499	0.0015795	0.00044273	1452.9	1.6762e-05	1.7552e-05	1447	395.19	1.5725e-05	1.8173e-05	443.14	147.22	129.16	43.814	1.6303e-05	53.956	130.774	154.740	136.827	77.615	212.315	200.360	77.254	82.343	210.176	205.766	81.600	85.853	86.664	91.082	204.953	90.262	-8191	255	
35769.758	1	1	0	0	0.22698	0.081597	0.20274	0.21819	0.17255	0.11134	0.23416	0.37618	0.18772	0.10357	0.076793	0.071246	0.31835	0.25905	0.088064	0.054839	-1.5104	-2.425	-2.3625	-2.1063	-2.5167	-2.4458	-2.1792	-2.9104	-2.1063	-2.3688	-2.7833	-2.0792	-2.5229	-2.4833	-2.0396	-2.7042	127.802	375.761	404.594	385.119	397.267	108.883	303.246	78.932	390.638	130.010	349.560	101.789	280.576	289.434	135.284	289.490	0.00060675	0.00055334	0.00018388	1421.5	6.346e-06	6.8116e-06	1425.4	387.68	5.7549e-06	4.5288e-06	432.73	143.94	125.93	42.412	5.2898e-06	52.468	0.0010556	0.0015715	0.00045143	1449.2	1.6829e-05	1.7638e-05	1447.4	395.22	1.6123e-05	1.7925e-05	443.61	147.24	129.21	43.712	1.6616e-05	54.042	131.469	164.640	171.163	77.790	220.537	215.437	77.462	82.355	226.247	200.853	81.823	85.916	86.530	91.183	215.856	90.461	-8191	255	
35769.828	1	1	0	0	0.065443	0.050455	0.11111	0.30284	0.10762	0.15274	0.11649	0.13854	0.098427	0.15773	0.17777	0.14144	0.31759	0.14225	0.22029	0.14393	-1.5562	-2.1375	-2.7375	-2.0708	-2.6167	-2.6104	-1.9521	-2.9375	-1.9646	-1.9854	-2.6937	-2.2604	-2.325	-2.7104	-1.9208	-2.7687	423.095	382.333	115.862	345.814	189.544	345.346	400.572	240.619	222.142	365.904	403.687	308.302	407.506	128.989	88.164	406.251	0.00066142	0.00040936	0.00015227	1429.6	4.3046e-06	3.7912e-06	1429.1	387.06	5.0017e-06	4.9273e-06	432.11	143.33	126.16	42.274	6.8009e-06	52.021	0.0010615	0.0016567	0.00044674	1452.6	1.665e-05	1.782e-05	1450.2	395.02	1.5737e-05	1.8312e-05	443.59	147.16	128.93	43.714	1.6582e-05	53.95	131.990	157.199	152.354	77.689	214.211	207.063	77.515	82.288	209.880	208.592	81.624	85.933	86.568	91.310	228.415	90.520	-8191	255	
35769.926	1	1	0	0	0.16233	0.13791	0.14074	0.29244	0.18299	0.12338	0.060481	0.23015	0.035052	0.2069	0.082009	0.12619	0.19421	0.25778	0.2023	0.24502	-1.6896	-2.1208	-2.7271	-1.9208	-2.4271	-2.5542	-2.0687	-2.775	-2.0771	-1.9271	-2.8125	-1.7271	-2.4042	-2.6063	-1.9729	-2.7479	179.821	323.801	310.115	394.217	204.392	283.174	68.397	64.868	161.567	86.184	423.209	85.542	336.322	380.588	329.579	371.653	0.00065889	0.00054058	0.0001399	1424.8	6.0214e-06	3.6885e-06	1421	388.31	4.4416e-06	4.7896e-06	433.05	143.79	126.28	42.498	5.4691e-06	52.265	0.0010695	0.0015985	0.0004608	1449.5	1.6883e-05	1.8085e-05	1447	395.52	1.5477e-05	1.8797e-05	443.77	147.15	129.11	43.725	1.7138e-05	53.985	132.502	149.522	147.949	78.096	194.703	217.668	77.552	82.626	213.962	212.371	81.875	85.975	86.826	91.581	215.979	90.516	-8191	255	
35770.023	1	1	0	0	0.12861	0.078897	0.3543	0.10833	0.078923	0.30502	0.53295	0.022022	0.30516	0.13314	0.27401	0.53026	0.066914	0.20048	0.28594	0.13823	-2.0792	-1.9521	-2.5375	-2.1708	-2.2375	-2.7646	-2.0729	-2.7271	-2.3125	-1.8062	-2.9833	-2.2292	-2.1562	-2.625	-1.8333	-2.6271	244.612	103.283	108.729	128.498	153.204	87.076	376.943	353.556	390.700	289.156	408.212	396.795	400.393	356.768	123.595	399.708	0.00065267	0.0004902	0.00011316	1426.9	5.8038e-06	4.7074e-06	1424.7	386.46	6.0481e-06	5.2814e-06	435.05	144.05	125.73	42.52	5.2806e-06	52.355	0.0010556	0.0016306	0.00047183	1451.8	1.7516e-05	1.8524e-05	1448.6	395.08	1.6082e-05	1.8316e-05	443.91	147.2	129.21	43.815	1.7082e-05	54.077	133.988	152.118	137.426	77.767	204.598	201.162	77.319	82.108	207.877	220.717	81.304	85.851	86.589	91.100	224.785	90.560	-8191	255	
35770.117	1	1	0	0	0.22855	0.2727	0.182	0.066309	0.15977	0.12663	0.47055	0.25645	0.22012	0.121	0.052154	0.11599	0.15998	0.30548	0.12592	0.28054	-1.8667	-1.7042	-2.5625	-2.1229	-2.075	-2.7771	-2.1437	-2.6729	-2.4062	-1.7646	-2.9333	-2.3354	-1.9688	-3.0271	-1.9688	-2.4167	420.870	243.260	290.119	300.427	392.208	266.403	372.887	414.589	187.888	181.554	113.103	308.088	346.913	405.968	180.663	358.905	0.00069123	0.00053003	0.00014808	1432	5.3099e-06	3.6592e-06	1430.6	388.19	6.8362e-06	4.9617e-06	434.9	143.58	125.17	42.617	5.719e-06	52.147	0.0010801	0.0017325	0.0004492	1452.2	1.7174e-05	1.8693e-05	1447.9	395.69	1.5642e-05	1.8806e-05	444.45	147.16	128.93	43.8	1.6971e-05	53.961	133.787	140.650	181.472	77.820	209.349	185.268	77.365	82.393	209.318	213.294	81.409	85.792	86.712	91.283	232.733	90.560	-8191	255	
35770.238	1	1	0	0	0.15	0.10684	0.23814	0.36389	0.12459	0.067726	0.29334	0.071569	0.3084	0.18022	0.090504	0.30077	0.43605	0.30102	0.36779	0.25982	-1.9521	-1.8687	-2.7542	-2.2979	-1.9583	-2.7125	-2.2833	-2.4708	-2.5042	-1.8813	-2.7042	-2.3812	-1.9042	-2.9333	-1.9562	-2.2812	106.511	134.861	128.077	386.814	81.907	375.472	365.872	423.509	386.629	109.625	356.470	401.068	147.625	75.891	322.916	331.256	0.00062805	0.00037843	0.0001357	1428.5	6.3655e-06	5.3042e-06	1422.3	387.51	5.2408e-06	6.4033e-06	434.57	143.22	126.5	42.733	3.6317e-06	52.498	0.0010506	0.0016807	0.00046264	1451.4	1.7456e-05	1.8255e-05	1447.8	395.17	1.6104e-05	1.9386e-05	444.44	147.14	129.36	43.857	1.6916e-05	54.143	133.162	160.615	159.332	77.880	198.891	230.786	77.435	82.488	210.196	226.358	81.405	85.613	86.446	91.071	226.119	89.952	-8191	255	
35770.336	1	1	0	0	0.189	0.048288	0.3913	0.13954	0.16167	0.086607	0.28766	0.17732	0.16829	0.12928	0.18482	0.33832	0.18686	0.23569	0.097625	0.18858	-2.2604	-1.9312	-2.7104	-2.4875	-2.0208	-2.5521	-2.2083	-2.4271	-2.5125	-1.9167	-2.7562	-2.5896	-2.0646	-2.7271	-2.0146	-2.3208	314.277	387.452	406.261	376.751	388.938	251.357	346.780	317.791	403.165	367.491	266.585	415.797	371.743	399.963	203.914	74.107	0.0006356	0.0004522	0.00018744	1425.5	5.793e-06	6.877e-06	1428	387.56	4.5531e-06	3.4747e-06	435.65	143.9	126.31	42.395	5.7764e-06	51.974	0.0010637	0.0016449	0.00045719	1450.5	1.7287e-05	1.8471e-05	1448	395.69	1.5753e-05	1.8598e-05	445.01	147.12	129.13	43.771	1.5796e-05	53.951	133.994	157.216	152.037	77.509	205.010	214.296	77.192	82.147	220.237	226.347	81.795	85.809	86.694	91.024	214.458	90.266	-8191	255	
35770.430	1	1	0	0	0.050845	0.23007	0.16786	0.27458	0.33414	0.074948	0.086341	0.23447	0.14857	0.28251	0.15838	0.20343	0.014825	0.29812	0.068528	0.11476	-2.1646	-1.8042	-2.4125	-2.5896	-1.7146	-2.6333	-2.3104	-2.0687	-2.5479	-1.8917	-2.4354	-2.6021	-1.9208	-2.7083	-2.3104	-2.0083	268.757	291.777	187.492	381.100	171.978	370.737	410.785	391.911	313.040	91.289	126.564	69.672	348.921	86.932	137.076	412.601	0.00063269	0.00035604	0.00013577	1430.1	5.5783e-06	4.5379e-06	1421.6	387.12	5.0943e-06	6.2072e-06	434.83	143.42	126.06	42.676	4.7192e-06	52.119	0.0010694	0.001641	0.00046266	1453.1	1.7729e-05	1.8258e-05	1448.2	395.04	1.583e-05	1.9228e-05	444.75	147.05	129.07	43.878	1.7172e-05	53.919	132.789	179.512	197.736	77.837	234.092	216.053	77.613	82.068	220.170	228.639	81.185	85.323	86.112	90.818	206.574	90.213	-8191	255	
35770.527	1	1	0	0	0.19505	0.098381	0.088701	0.19619	0.27346	0.11559	0.10679	0.3732	0.13822	0.13245	0.14471	0.11896	0.19332	0.17258	0.10789	0.28227	-2.2375	-1.9979	-2.1604	-2.6375	-1.8354	-2.7042	-2.5208	-2.0833	-2.7167	-1.9771	-2.3167	-2.6729	-1.9396	-2.6375	-2.3708	-2.1937	130.087	86.536	321.892	368.297	266.707	315.205	359.344	256.389	144.140	420.405	223.567	374.033	313.558	345.098	372.118	351.017	0.0005836	0.00053854	0.00014311	1423	3.4576e-06	5.2679e-06	1425.3	388.9	5.5982e-06	3.2489e-06	435.66	143.91	125.53	42.571	5.7408e-06	52.347	0.0010665	0.0017134	0.00046934	1451.3	1.7431e-05	1.8329e-05	1448.8	395.49	1.6009e-05	1.9075e-05	444.98	147.08	129.21	43.824	1.6601e-05	54.056	130.836	136.641	154.000	77.523	242.697	246.393	76.929	81.986	197.950	221.829	81.352	85.389	86.327	90.596	222.696	90.321	-8191	255	
35770.621	1	1	0	0	0.11558	0.15904	0.077014	0.34721	0.1136	0.12717	0.29454	0.34785	0.10706	0.10567	0.16809	0.2159	0.22723	0.24164	0.10439	0.24125	-2.3979	-1.9979	-2.0229	-2.7583	-2.0187	-2.4292	-2.7479	-2.0833	-2.7542	-2.1813	-2.2396	-2.6437	-1.9708	-2.5729	-2.525	-2.0458	214.817	98.031	225.544	384.954	67.726	298.006	91.294	378.831	361.129	174.472	421.840	396.184	373.349	288.381	146.179	343.022	0.00067491	0.00048159	0.00013402	1425.8	6.0838e-06	6.3937e-06	1425.3	386.03	5.0549e-06	6.1644e-06	433.78	143.72	125.37	42.54	6.0766e-06	52.29	0.0010982	0.0016746	0.00044933	1452.7	1.7124e-05	1.8638e-05	1449.7	394.3	1.5871e-05	1.883e-05	444.31	147.42	128.96	43.871	1.6568e-05	53.991	132.226	175.944	145.060	77.321	206.451	210.999	76.805	82.187	212.022	206.325	81.129	85.664	86.023	91.275	215.813	89.972	-8191	255	
35770.719	1	1	0	0	0.10517	0.07763	0.41697	0.15679	0.10058	0.15749	0.27614	0.25859	0.13939	0.18626	0.15248	0.091256	0.32575	0.31791	0.15576	0.33781	-2.1417	-2.1792	-2.1854	-2.7542	-1.8396	-2.225	-2.7396	-2.2375	-2.5458	-2.2896	-2.0833	-2.8958	-2.0687	-2.4708	-2.5292	-2.0542	409.854	402.612	64.584	345.693	75.655	319.774	379.774	357.918	298.687	122.581	384.301	373.508	423.100	358.507	143.229	307.147	0.0006519	0.00072527	0.00018159	1426.6	5.1677e-06	5.1045e-06	1427.2	387.79	7.3091e-06	5.6841e-06	433.46	143.5	125.89	42.618	7.472e-06	52.32	0.0010696	0.0016577	0.00047141	1453	1.7424e-05	1.8416e-05	1450	395.05	1.5672e-05	1.8936e-05	444.37	147.28	129.12	43.775	1.639e-05	54.063	130.521	151.544	142.347	77.204	213.528	232.556	77.031	82.069	205.335	197.555	81.388	85.517	86.215	90.861	210.112	90.240	-8191	255	
35770.840	1	1	0	0	0.30415	0.19713	0.14957	0.15908	0.16883	0.086475	0.1638	0.26225	0.12217	0.19805	0.24107	0.16518	0.20732	0.24312	0.11523	0.27828	-2.2583	-2.2375	-1.7208	-2.7146	-1.9771	-2.2146	-2.7875	-2.2125	-2.4021	-2.2917	-2.1	-2.7562	-2.0146	-2.0938	-2.7521	-2.2	267.196	404.758	349.988	418.680	280.314	394.478	321.658	318.754	145.948	111.111	398.480	79.384	346.894	399.244	410.181	262.160	0.0006695	0.00063342	0.00017176	1432.4	4.9044e-06	6.3668e-06	1426.4	386.53	6.0363e-06	3.9434e-06	435.25	144.01	125.31	42.392	5.2751e-06	52.085	0.0010489	0.0016222	0.00047094	1453.3	1.7673e-05	1.8839e-05	1450.8	395.63	1.5766e-05	1.84e-05	443.65	147.39	128.99	43.76	1.6875e-05	53.994	131.276	152.855	179.133	77.563	210.897	216.533	77.191	82.134	202.452	227.573	81.156	85.663	86.259	90.922	202.586	89.972	-8191	255	
35770.934	1	1	0	0	0.041111	0.14272	0.059986	0.16725	0.26158	0.37325	0.22028	0.33034	0.24558	0.12509	0.14068	0.22047	0.24178	0.15964	0.28775	0.15634	-2.0833	-2.4417	-1.8813	-2.8521	-2.1271	-2.0542	-2.9396	-2.2271	-2.4583	-2.3625	-1.925	-2.8375	-2.3396	-2.2479	-2.7604	-2.1021	160.327	279.164	222.059	369.102	341.836	381.240	354.423	410.629	286.712	159.698	410.636	74.438	85.004	395.451	330.876	285.725	0.00065184	0.0004223	0.0001246	1433.2	4.6446e-06	4.1173e-06	1430.4	388.09	6.1704e-06	4.6838e-06	433.14	142.68	125.98	42.338	4.3106e-06	52.157	0.0010832	0.0016605	0.00047233	1452.6	1.6813e-05	1.8116e-05	1451.7	395.77	1.6041e-05	1.7827e-05	443.93	146.77	128.98	43.797	1.6419e-05	53.913	132.488	150.297	155.920	77.385	204.360	214.667	77.141	82.107	228.096	215.957	81.372	85.499	86.425	91.137	208.917	90.104	-8191	255	
#DATA ENDS
