BOXY.EXE: ISS Imagent and Oximeter Data Acquisition Program Version 0.80
Ascii Record File

#ACQ INFORMATION
2  Detector Channels 
16  External MUX Channels 
1  Auxiliary Channels 
5000  Waveform (CCF) Frequency (Hz)
1  Waveforms Skipped 
30  Waveforms Averaged 
1  Cycles Averaged 
16  Acquisitions per Waveform 
10.0806  Updata Rate (Hz) 

#FILE INFORMATION
TRUE -- External MUX Channel results are PARSED.
FALSE -- AC DC and Phase are NOT grouped.
TRUE -- Companion Program Settings File CREATED.
FALSE -- AC data not excluded
FALSE -- DC data not excluded
FALSE -- Phase data not excluded
FALSE -- Auxillary Chn. data not excluded
Tab delimiters

#CALIBRATION STATE
TRUE -- Waveform Calibration Values APPLIED.


#AUX CALIBRATION VALUES
Val Type	aux-1	

Term	1.0000e+00	
Factor	0.0000e+00	


#WF CALIBRATION VALUES
A = Detector Channel
Val Type	A-AC1	A-AC2	A-AC3	A-AC4	A-AC5	A-AC6	A-AC7	A-AC8	A-AC9	A-AC10	A-AC11	A-AC12	A-AC13	A-AC14	A-AC15	A-AC16	A-DC1	A-DC2	A-DC3	A-DC4	A-DC5	A-DC6	A-DC7	A-DC8	A-DC9	A-DC10	A-DC11	A-DC12	A-DC13	A-DC14	A-DC15	A-DC16	A-Ph1	A-Ph2	A-Ph3	A-Ph4	A-Ph5	A-Ph6	A-Ph7	A-Ph8	A-Ph9	A-Ph10	A-Ph11	A-Ph12	A-Ph13	A-Ph14	A-Ph15	A-Ph16	

Term	0.00000e+00	0.00000e+00	0.00000e+00	0.00000e+00	0.00000e+00	0.00000e+00	0.00000e+00	0.00000e+00	0.00000e+00	0.00000e+00	0.00000e+00	0.00000e+00	0.00000e+00	0.00000e+00	0.00000e+00	0.00000e+00	0.00000e+00	0.00000e+00	0.00000e+00	0.00000e+00	0.00000e+00	0.00000e+00	0.00000e+00	0.00000e+00	0.00000e+00	0.00000e+00	0.00000e+00	0.00000e+00	0.00000e+00	0.00000e+00	0.00000e+00	0.00000e+00	0.00000e+00	0.00000e+00	0.00000e+00	0.00000e+00	0.00000e+00	0.00000e+00	0.00000e+00	0.00000e+00	0.00000e+00	0.00000e+00	0.00000e+00	0.00000e+00	0.00000e+00	0.00000e+00	0.00000e+00	0.00000e+00	
Factor	1.00000e+00	1.00000e+00	1.00000e+00	1.00000e+00	1.00000e+00	1.00000e+00	1.00000e+00	1.00000e+00	1.00000e+00	1.00000e+00	1.00000e+00	1.00000e+00	1.00000e+00	1.00000e+00	1.00000e+00	1.00000e+00	1.00000e+00	1.00000e+00	1.00000e+00	1.00000e+00	1.00000e+00	1.00000e+00	1.00000e+00	1.00000e+00	1.00000e+00	1.00000e+00	1.00000e+00	1.00000e+00	1.00000e+00	1.00000e+00	1.00000e+00	1.00000e+00	X	X	X	X	X	X	X	X	X	X	X	X	X	X	X	X	

B = Detector Channel
Val Type	B-AC1	B-AC2	B-AC3	B-AC4	B-AC5	B-AC6	B-AC7	B-AC8	B-AC9	B-AC10	B-AC11	B-AC12	B-AC13	B-AC14	B-AC15	B-AC16	B-DC1	B-DC2	B-DC3	B-DC4	B-DC5	B-DC6	B-DC7	B-DC8	B-DC9	B-DC10	B-DC11	B-DC12	B-DC13	B-DC14	B-DC15	B-DC16	B-Ph1	B-Ph2	B-Ph3	B-Ph4	B-Ph5	B-Ph6	B-Ph7	B-Ph8	B-Ph9	B-Ph10	B-Ph11	B-Ph12	B-Ph13	B-Ph14	B-Ph15	B-Ph16	

Term	0.00000e+00	0.00000e+00	0.00000e+00	0.00000e+00	0.00000e+00	0.00000e+00	0.00000e+00	0.00000e+00	0.00000e+00	0.00000e+00	0.00000e+00	0.00000e+00	0.00000e+00	0.00000e+00	0.00000e+00	0.00000e+00	0.00000e+00	0.00000e+00	0.00000e+00	0.00000e+00	0.00000e+00	0.00000e+00	0.00000e+00	0.00000e+00	0.00000e+00	0.00000e+00	0.00000e+00	0.00000e+00	0.00000e+00	0.00000e+00	0.00000e+00	0.00000e+00	-1.60646e+02	-1.31022e+02	-1.25289e+02	-1.86209e+02	-7.18792e+01	-6.66958e+01	-1.58474e+02	-1.62015e+02	-7.97830e+01	-6.76213e+01	-1.72128e+02	-1.71386e+02	-1.83279e+02	-1.77394e+02	-7.09845e+01	-1.49699e+02	
Factor	2.28142e-05	1.35801e-04	4.02598e-05	2.77733e-01	1.31646e-06	1.49048e-06	1.53129e-01	4.67114e-02	1.21370e-06	1.46712e-06	7.52218e-02	2.47388e-02	3.57489e-02	7.91092e-03	1.34422e-06	1.11941e-02	1.85564e-05	4.45642e-05	1.25709e-05	1.49093e-01	4.45853e-07	5.11453e-07	7.76909e-02	2.52998e-02	4.01722e-07	5.10017e-07	3.95400e-02	1.30392e-02	1.96821e-02	4.33613e-03	4.36568e-07	5.95756e-03	X	X	X	X	X	X	X	X	X	X	X	X	X	X	X	X	



#DISTANCE SETTINGS
A = Detector Channel
A-1	A-2	A-3	A-4	A-5	A-6	A-7	A-8	A-9	A-10	A-11	A-12	A-13	A-14	A-15	A-16	

2.5000e+00	3.0000e+00	2.5000e+00	3.0000e+00	2.0000e+00	3.0000e+00	1.5000e+00	3.0000e+00	3.0000e+00	3.0000e+00	3.0000e+00	3.0000e+00	3.0000e+00	3.0000e+00	1.5000e+00	3.0000e+00	

B = Detector Channel
B-1	B-2	B-3	B-4	B-5	B-6	B-7	B-8	B-9	B-10	B-11	B-12	B-13	B-14	B-15	B-16	

1.0000e+01	1.0000e+01	1.0000e+01	1.4400e+00	1.0000e+01	1.0000e+01	1.5100e+00	1.9400e+00	1.0000e+01	1.0000e+01	1.9900e+00	2.4900e+00	2.4100e+00	2.9000e+00	1.0000e+01	2.9800e+00	




#DATA BEGINS
time	group	step	mark	flag	A-AC1	A-AC2	A-AC3	A-AC4	A-AC5	A-AC6	A-AC7	A-AC8	A-AC9	A-AC10	A-AC11	A-AC12	A-AC13	A-AC14	A-AC15	A-AC16	A-DC1	A-DC2	A-DC3	A-DC4	A-DC5	A-DC6	A-DC7	A-DC8	A-DC9	A-DC10	A-DC11	A-DC12	A-DC13	A-DC14	A-DC15	A-DC16	A-Ph1	A-Ph2	A-Ph3	A-Ph4	A-Ph5	A-Ph6	A-Ph7	A-Ph8	A-Ph9	A-Ph10	A-Ph11	A-Ph12	A-Ph13	A-Ph14	A-Ph15	A-Ph16	B-AC1	B-AC2	B-AC3	B-AC4	B-AC5	B-AC6	B-AC7	B-AC8	B-AC9	B-AC10	B-AC11	B-AC12	B-AC13	B-AC14	B-AC15	B-AC16	B-DC1	B-DC2	B-DC3	B-DC4	B-DC5	B-DC6	B-DC7	B-DC8	B-DC9	B-DC10	B-DC11	B-DC12	B-DC13	B-DC14	B-DC15	B-DC16	B-Ph1	B-Ph2	B-Ph3	B-Ph4	B-Ph5	B-Ph6	B-Ph7	B-Ph8	B-Ph9	B-Ph10	B-Ph11	B-Ph12	B-Ph13	B-Ph14	B-Ph15	B-Ph16	aux-1	digaux	

35787.691	1	1	0	256	0.19414	0.29988	0.076626	0.20501	0.21713	0.24459	0.15571	0.1252	0.040701	0.1381	0.15733	0.19808	0.29055	0.053993	0.1726	0.25238	-1.9208	-2.5375	-1.7854	-2.5979	-2.3354	-1.8875	-2.9771	-2.0292	-2.3354	-2.6312	-2.1188	-2.6042	-2.2625	-1.8292	-2.6146	-2.1521	293.461	426.627	252.072	412.744	121.832	252.336	369.467	324.659	324.023	106.047	155.680	403.405	306.581	412.895	393.204	405.409	0.00033196	0.00028785	9.5284e-05	1078.3	2.8674e-06	1.8455e-06	1176	223.84	4.1617e-06	3.5168e-06	285.85	79.353	62.219	18.217	4.7312e-06	25.488	0.00047879	0.00063105	0.0001854	1070.7	6.8002e-06	7.1039e-06	1166.5	222.89	6.7012e-06	7.0276e-06	284.96	80.077	62.829	18.565	6.4203e-06	26.164	130.294	173.074	188.021	79.611	201.415	216.178	79.421	86.831	230.334	219.485	86.119	93.396	93.861	100.802	209.951	100.370	-8191	255	
35787.789	1	1	0	0	0.21585	0.08532	0.19666	0.19195	0.20694	0.1594	0.1299	0.10986	0.13082	0.017149	0.13445	0.19141	0.077437	0.31394	0.080131	0.26454	-1.6063	-2.4104	-1.9792	-2.4313	-2.3812	-1.7687	-2.7792	-2.15	-2.1833	-2.6833	-2.0979	-2.5771	-2.5104	-1.8333	-2.7	-2.3646	313.085	252.780	204.369	183.298	81.957	300.080	328.349	421.336	219.059	278.829	361.026	394.355	94.825	363.713	283.426	385.010	0.00033912	0.00020697	0.00011448	1081.5	3.0991e-06	3.4024e-06	1181.1	223.26	4.3379e-06	2.4799e-06	283.81	80.11	62.749	18.242	4.5068e-06	25.411	0.0004665	0.00061991	0.00018922	1071.6	6.7649e-06	7.8913e-06	1167	222.64	7.3088e-06	7.051e-06	283.4	80.089	62.678	18.537	6.7468e-06	26.091	137.691	187.552	164.304	79.555	220.041	191.109	79.593	86.939	195.545	240.302	86.433	93.415	93.845	100.884	229.780	100.679	-8191	255	
35787.910	1	1	0	0	0.18509	0.10122	0.25231	0.071418	0.051087	0.09432	0.084777	0.21876	0.19479	0.46205	0.13325	0.049103	0.17602	0.126	0.051388	0.22406	-1.7563	-2.5271	-1.9667	-2.3917	-2.7042	-1.9333	-2.8417	-2.2729	-2.0208	-2.8083	-2.0583	-2.2771	-2.7333	-2.0229	-2.5521	-2.65	95.796	341.856	72.350	254.451	306.765	115.000	178.312	265.518	315.113	385.362	239.788	280.270	85.954	336.672	211.007	335.218	0.00032139	0.00018391	6.7676e-05	1077	3.0415e-06	3.5284e-06	1173.2	222.42	3.1603e-06	1.8032e-06	281.66	79.928	62.413	18.24	3.5044e-06	25.601	0.00045815	0.00062408	0.00017673	1071	7.0835e-06	7.5812e-06	1165.6	222.39	6.656e-06	7.103e-06	283.28	80.226	62.859	18.534	6.7004e-06	26.147	135.633	168.327	156.461	79.212	239.393	196.555	79.256	86.978	197.257	236.102	86.465	93.482	93.828	101.041	204.732	99.984	-8191	255	
35788.004	1	1	0	0	0.33031	0.077321	0.22614	0.12127	0.27011	0.22988	0.047018	0.27785	0.10517	0.17808	0.28246	0.18035	0.033833	0.15988	0.11319	0.1752	-1.425	-2.6479	-2.05	-2.3125	-2.6229	-2.0396	-2.7333	-2.4875	-1.9292	-2.6833	-2.1813	-2.0917	-2.7687	-1.9271	-2.2854	-2.5062	281.084	130.058	165.327	102.180	332.719	250.181	330.927	425.007	187.300	367.681	318.610	330.711	196.326	272.025	396.805	337.306	0.00032213	0.00022189	0.00011486	1085.4	3.6451e-06	3.1221e-06	1174.6	223.52	3.1631e-06	3.3897e-06	283.47	79.545	62.595	18.203	4.5609e-06	25.576	0.00048622	0.00067515	0.0001954	1072.5	7.0556e-06	7.5908e-06	1166.8	223.08	7.0511e-06	7.3942e-06	283.6	80.007	62.856	18.554	6.7959e-06	26.154	131.167	160.408	169.964	79.569	230.135	216.928	79.401	87.019	225.060	197.171	86.431	93.379	93.765	100.772	219.383	100.235	-8191	255	
35788.102	1	1	0	0	0.036189	0.21115	0.16861	0.28061	0.10387	0.046779	0.44775	0.20957	0.071618	0.11885	0.11407	0.16449	0.23922	0.25964	0.24003	0.1548	-1.4729	-2.5042	-2.0354	-2.2625	-2.7583	-2.0792	-2.5667	-2.4208	-1.8396	-2.7104	-2.2396	-2.0979	-2.7521	-1.8125	-2.4021	-2.5646	406.664	72.546	314.729	265.696	420.501	262.606	339.624	325.580	310.230	341.329	343.249	401.326	382.490	98.306	228.426	335.580	0.00032384	0.00040425	9.0527e-05	1086.9	2.8201e-06	1.9801e-06	1178.3	224.08	3.2344e-06	3.9732e-06	283.83	80.017	62.137	18.239	4.5061e-06	25.41	0.00046956	0.00066364	0.00018178	1072.8	6.9562e-06	7.6899e-06	1167	223.31	6.6569e-06	6.9001e-06	283.81	79.971	62.516	18.577	6.443e-06	26.043	133.356	152.065	157.528	79.481	214.254	189.451	79.441	86.879	214.871	205.075	86.252	93.417	94.212	100.761	214.822	100.470	-8191	255	
35788.199	1	1	0	0	0.15127	0.2334	0.1162	0.1977	0.08302	0.059816	0.2323	0.19334	0.26008	0.042075	0.24091	0.12971	0.070477	0.069641	0.031178	0.092533	-1.3563	-2.4417	-2.2146	-2.0875	-2.7396	-2.0271	-2.4875	-2.7354	-2.0354	-2.5938	-2.225	-1.8188	-2.7542	-1.8667	-1.9854	-2.7062	306.397	265.569	223.441	316.769	391.939	145.946	371.304	150.132	309.316	124.204	103.944	426.575	367.343	398.760	194.803	370.788	0.00034369	0.00027536	0.00011388	1073.3	2.6483e-06	2.362e-06	1180.3	222.09	2.902e-06	3.4618e-06	282.37	79.406	62.886	18.17	4.2837e-06	25.578	0.00045529	0.00062167	0.0001817	1068.3	6.7398e-06	7.1998e-06	1164.2	222.19	6.2978e-06	6.7673e-06	282.75	79.844	62.589	18.475	6.4412e-06	26.06	134.003	161.751	168.609	79.562	217.648	259.463	79.507	86.936	194.091	203.247	86.281	93.007	93.869	100.670	226.128	100.623	-8191	255	
35788.293	1	1	0	0	0.07861	0.11533	0.10685	0.18919	0.10177	0.066919	0.17754	0.2996	0.043194	0.16952	0.19205	0.21926	0.18664	0.27402	0.35141	0.14469	-1.5333	-2.5187	-2.4604	-1.9167	-2.7062	-2.1292	-2.3167	-2.9521	-1.8875	-2.4875	-2.6292	-2.15	-2.7958	-2.0646	-2.1271	-2.8479	320.059	236.579	180.742	393.699	407.913	316.924	400.981	213.282	409.946	296.630	349.593	93.359	72.397	397.441	396.025	93.376	0.00034448	0.00029099	6.7298e-05	1080	2.9372e-06	4.014e-06	1172.4	224.15	2.789e-06	1.2608e-06	283.17	79.346	61.897	18.268	2.9479e-06	25.549	0.00045448	0.0006473	0.00017733	1067.1	6.7565e-06	7.1881e-06	1164.4	222.82	6.3824e-06	6.9745e-06	283.17	79.944	62.408	18.52	6.9651e-06	26.129	134.656	183.463	179.072	79.261	221.739	215.441	79.574	87.017	217.123	246.707	86.307	93.588	93.704	100.869	222.106	100.597	-8191	255	
35788.387	1	1	0	0	0.35386	0.17671	0.16788	0.2008	0.20942	0.17638	0.23494	0.038842	0.13125	0.27491	0.14558	0.15412	0.11592	0.11014	0.22136	0.21587	-1.5042	-2.2479	-2.4667	-1.9583	-2.6042	-2.3229	-2.2104	-2.6583	-1.8958	-2.3417	-2.5563	-1.8333	-2.5896	-2.2854	-1.9208	-2.7854	266.583	248.051	259.329	102.630	378.472	361.766	89.918	207.010	88.541	334.035	423.294	407.955	264.728	376.598	99.622	365.234	0.00034325	0.00030381	0.00013338	1079.2	3.1883e-06	3.1363e-06	1177	223.33	2.628e-06	3.0381e-06	283.4	79.108	62.569	18.124	2.2916e-06	25.682	0.00046294	0.00067533	0.0001701	1066.6	6.7138e-06	7.318e-06	1164.7	222.35	6.2091e-06	7.0797e-06	283.12	79.758	62.648	18.491	6.7359e-06	26.097	135.381	139.299	171.363	79.324	221.292	215.636	79.753	86.823	234.265	239.899	86.722	93.326	94.028	101.257	182.724	100.453	-8191	255	
35788.484	1	1	0	0	0.19459	0.33043	0.17496	0.24317	0.12999	0.21141	0.3241	0.19765	0.1325	0.12455	0.087983	0.064615	0.13318	0.29205	0.15987	0.042397	-1.5708	-2.3333	-2.5729	-1.9875	-2.4938	-2.5271	-2.0458	-2.8	-1.9562	-2.2021	-2.7479	-1.975	-2.5521	-2.4271	-1.9875	-2.5875	162.234	421.804	193.110	358.466	114.336	398.734	408.991	126.681	180.399	375.113	78.688	124.115	428.073	340.723	341.392	347.970	0.00034654	0.00037025	0.00012394	1091.7	1.7818e-06	2.921e-06	1170.9	222.54	4.0268e-06	2.7587e-06	283.3	78.794	62.298	18.146	4.0204e-06	25.824	0.00046329	0.00063086	0.00017505	1071.5	6.7342e-06	7.0272e-06	1162.9	221.81	6.4602e-06	7.3187e-06	282.89	79.757	62.621	18.525	6.5913e-06	26.118	133.644	178.032	179.075	79.315	233.224	223.591	79.534	87.487	195.792	250.498	86.554	93.030	93.890	100.704	209.202	100.618	-8191	255	
35788.605	1	1	0	0	0.082293	0.13382	0.12793	0.43279	0.2207	0.12052	0.33872	0.26152	0.21147	0.10972	0.21541	0.13296	0.26212	0.41084	0.017823	0.3165	-1.6875	-2.0312	-2.5667	-1.8354	-2.4354	-2.5938	-2.0833	-2.8708	-2.0625	-2.0896	-2.9	-2.0667	-2.3646	-2.5479	-1.7417	-2.8396	167.647	141.436	193.169	385.926	96.211	170.757	366.647	329.856	82.618	215.237	254.417	404.646	371.003	422.441	73.029	353.615	0.00033883	0.00023481	0.00011697	1079.7	3.1739e-06	3.4364e-06	1172.3	223.86	2.6778e-06	4.6662e-06	283.39	79.914	62.405	18.275	2.8789e-06	25.377	0.00046016	0.00067116	0.00017183	1067.5	7.1773e-06	6.8066e-06	1163.3	222.43	6.4493e-06	7.1965e-06	283.22	79.956	62.754	18.498	6.6049e-06	25.974	132.116	161.200	159.106	79.421	219.644	207.405	79.672	87.453	228.669	233.284	86.807	93.432	93.782	100.896	229.146	100.774	-8191	255	
35788.699	1	1	0	0	0.20107	0.10762	0.069321	0.18644	0.076432	0.20558	0.34075	0.16887	0.078	0.10404	0.23123	0.14543	0.064301	0.18905	0.14542	0.28988	-1.7812	-1.9792	-2.7146	-2.0312	-2.4167	-2.6354	-2.0521	-2.6875	-2.1708	-2.0521	-2.6625	-2.0896	-2.3438	-2.7479	-2.0167	-2.6292	82.734	270.830	117.872	348.194	87.874	284.917	391.161	348.104	100.657	170.199	329.347	143.709	410.260	97.980	88.739	326.424	0.00034471	0.00027965	8.4926e-05	1081.9	3.4646e-06	2.0258e-06	1172.4	223.25	3.3546e-06	3.1973e-06	283.01	79.411	62.591	18.262	2.551e-06	25.339	0.00048568	0.00070179	0.00017212	1068.4	7.0946e-06	6.9856e-06	1164.3	222.59	6.6912e-06	7.4856e-06	283.31	79.861	62.603	18.541	6.5067e-06	26.044	134.561	149.460	172.679	79.426	227.811	215.386	79.354	87.002	210.942	229.604	86.803	93.058	93.777	100.783	242.892	100.086	-8191	255	
35788.797	1	1	0	0	0.039631	0.17353	0.10758	0.093343	0.068142	0.1315	0.25225	0.204	0.079821	0.081147	0.1617	0.22701	0.27525	0.24848	0.17777	0.18148	-2.0104	-1.9479	-2.7208	-2.2062	-2.2854	-2.5708	-2.0708	-2.5812	-2.4021	-1.9479	-2.9125	-2.3208	-2.2792	-2.7146	-1.9458	-2.5604	319.820	313.349	143.002	270.479	145.633	210.225	388.519	322.729	170.694	219.522	411.437	76.577	215.930	397.074	363.411	70.659	0.00035481	0.0002784	5.7633e-05	1081.7	2.8186e-06	4.2197e-06	1174.6	224.44	3.3958e-06	2.9748e-06	282.12	79.298	62.586	18.18	4.3374e-06	25.54	0.00045881	0.00069279	0.00017699	1069.3	6.9962e-06	7.3798e-06	1165.5	222.69	6.6259e-06	7.4176e-06	282.77	79.809	62.623	18.508	6.3675e-06	26.126	133.766	173.884	160.976	79.387	218.883	226.506	79.313	87.041	226.773	247.309	86.559	93.034	94.005	100.844	220.965	100.552	-8191	255	
35788.867	1	1	0	0	0.33577	0.073542	0.38805	0.26296	0.2468	0.184	0.20564	0.1655	0.21261	0.10309	0.21668	0.13154	0.18783	0.33252	0.12582	0.087621	-2.0417	-1.7208	-2.5479	-2.2146	-2.0604	-2.5938	-2.1042	-2.3063	-2.3479	-1.8104	-2.7021	-2.2708	-1.9917	-2.9625	-2.0271	-2.3917	379.229	305.572	268.343	415.210	208.506	422.119	372.801	306.401	97.624	396.658	414.486	75.313	240.571	71.229	417.659	285.956	0.00030508	0.00027146	8.0514e-05	1077.5	4.6918e-06	2.7152e-06	1173.5	223.96	1.7295e-06	7.3691e-07	282.15	79.071	62.388	18.247	3.2971e-06	25.355	0.00044307	0.0006913	0.00017568	1068.5	7.2563e-06	7.0154e-06	1164	222.68	6.4075e-06	7.2624e-06	283.13	79.864	62.672	18.582	6.936e-06	25.944	135.971	153.507	180.124	79.264	208.786	221.496	79.487	86.962	200.382	248.831	86.687	93.678	94.089	101.101	205.446	100.511	-8191	255	
35788.988	1	1	0	0	0.18758	0.12374	0.25351	0.28051	0.15741	0.19756	0.23147	0.10752	0.14945	0.11478	0.456	0.21759	0.30561	0.18774	0.14764	0.11206	-2.1854	-1.7625	-2.5271	-2.2354	-1.9688	-2.7833	-2.0979	-2.3375	-2.5021	-1.8521	-2.5667	-2.3542	-1.9979	-2.6917	-1.9312	-2.1813	186.909	357.466	317.458	349.509	218.014	363.463	416.309	152.773	197.948	320.071	300.171	410.095	339.080	419.610	204.112	425.508	0.00031902	0.00023897	8.303e-05	1076.6	3.5935e-06	2.9484e-06	1178.9	223.37	1.8826e-06	2.7535e-06	283.49	79.272	62.084	18.23	3.2794e-06	25.591	0.00045023	0.00067431	0.00018272	1067	7.2581e-06	6.7096e-06	1164.4	222	6.2066e-06	7.5238e-06	283.53	79.893	62.618	18.503	6.9251e-06	26.034	132.906	180.696	176.429	79.527	223.913	220.851	79.193	87.240	191.668	222.207	86.943	93.266	94.250	100.764	246.365	100.649	-8191	255	
35789.086	1	1	0	0	0.048992	0.050438	0.18364	0.19901	0.13701	0.10585	0.1524	0.34591	0.16963	0.029084	0.20727	0.11189	0.33992	0.30014	0.076009	0.23093	-2.3333	-1.775	-2.4813	-2.4167	-1.9062	-2.7833	-2.1458	-2.1542	-2.6708	-1.7854	-2.5354	-2.4688	-1.8021	-2.8375	-2.1583	-2.1125	406.257	218.551	110.278	398.551	152.843	329.211	259.572	121.577	235.707	390.469	389.282	340.754	305.880	364.699	248.011	128.223	0.00033351	0.00018909	8.4363e-05	1079.8	1.9074e-06	2.3566e-06	1173.7	223.57	3.4388e-06	3.0507e-06	283.08	78.855	62.354	18.091	1.9132e-06	25.549	0.00046001	0.00063439	0.00018553	1068.4	6.9386e-06	6.521e-06	1164.4	223.01	6.5723e-06	7.1625e-06	283.51	79.795	62.449	18.466	6.4094e-06	26.021	138.077	167.102	176.099	79.959	208.231	209.389	79.510	87.269	220.895	244.822	86.898	93.388	94.204	101.474	244.594	100.523	-8191	255	
35789.184	1	1	0	0	0.31054	0.20897	0.21101	0.087935	0.17633	0.13571	0.11748	0.22204	0.11786	0.25829	0.16165	0.13552	0.32939	0.11497	0.18232	0.21098	-2.3396	-1.8583	-2.4292	-2.7438	-1.8333	-2.6771	-2.6396	-2.1146	-2.7604	-2.0875	-2.2542	-2.65	-1.8188	-2.6604	-2.4188	-1.9813	357.179	319.073	306.387	422.895	91.028	139.702	167.303	367.204	355.821	420.235	419.916	85.306	332.439	105.174	230.579	145.008	0.00031412	0.00030205	7.8937e-05	1080.3	3.2249e-06	1.994e-06	1173.8	223.14	2.9156e-06	3.4105e-06	282.23	79.499	62.591	18.192	2.6913e-06	25.351	0.00044404	0.00065704	0.0001889	1069.5	7.1429e-06	6.8428e-06	1162.9	222.48	6.2526e-06	7.1296e-06	282.91	80.001	62.692	18.508	6.8341e-06	25.999	137.416	171.195	166.016	79.592	227.976	223.256	79.411	87.262	206.828	234.704	86.481	93.520	94.179	101.256	236.548	100.423	-8191	255	
35789.277	1	1	0	0	0.058679	0.12216	0.14751	0.28163	0.11339	0.2199	0.14724	0.091215	0.23428	0.21023	0.26706	0.1082	0.095399	0.10223	0.21498	0.020143	-2.2021	-2.0604	-2.3271	-2.6375	-1.8896	-2.5521	-2.5438	-1.8	-2.875	-2.1521	-2.1792	-2.8292	-2	-2.6604	-2.525	-2.0354	70.616	362.987	85.150	83.319	309.403	303.011	82.642	196.709	310.975	261.850	312.057	280.996	295.135	97.612	136.255	270.740	0.00033427	0.00027461	7.7871e-05	1081.1	2.6701e-06	2.9809e-06	1174.7	223.78	3.9849e-06	3.3374e-06	281.98	79.198	62.28	18.266	3.5552e-06	25.48	0.00046352	0.0007043	0.00018725	1068.1	6.9739e-06	7.6654e-06	1164.8	222.36	6.5581e-06	7.7512e-06	283.06	79.711	62.698	18.545	6.7086e-06	26.092	135.399	129.393	163.874	79.582	217.109	240.826	79.388	87.240	194.815	214.939	86.546	93.213	93.602	101.238	234.483	100.330	-8191	255	
35789.398	1	1	0	0	0.29665	0.12673	0.11709	0.33151	0.19096	0.17625	0.30334	0.34387	0.034132	0.026472	0.16969	0.13871	0.48642	0.29659	0.21953	0.26086	-2.0854	-2.1729	-2.1646	-2.7271	-1.9417	-2.5083	-2.6479	-1.9813	-2.5646	-2.3146	-2.1771	-2.6917	-2.0771	-2.4333	-2.3937	-1.8583	339.316	363.383	420.116	371.247	354.320	72.389	420.751	293.964	105.519	408.546	327.061	386.337	336.777	421.917	70.555	398.207	0.00032301	0.00035341	0.0001048	1085.7	3.4497e-06	1.3613e-06	1170.4	222.13	2.509e-06	2.6504e-06	283.4	78.726	62.094	18.128	4.287e-06	25.415	0.000459	0.00064442	0.00017914	1069.8	6.9683e-06	7.0197e-06	1163.6	222.2	6.287e-06	7.2369e-06	282.95	79.626	62.723	18.454	6.2075e-06	26.024	131.941	167.152	165.835	79.310	219.433	261.721	79.274	86.743	222.492	210.278	86.887	93.159	93.680	100.995	221.284	101.057	-8191	255	
35789.492	1	1	0	0	0.30155	0.11741	0.097807	0.060898	0.10688	0.18177	0.22503	0.14192	0.099531	0.20371	0.058942	0.083036	0.17776	0.35928	0.16502	0.35484	-2.2521	-2.2812	-1.8667	-2.6896	-1.9312	-2.2854	-2.7292	-2.0167	-2.6146	-2.2313	-2.1188	-2.6937	-2.0687	-2.275	-2.5271	-2.0312	199.225	411.462	165.213	302.026	328.815	157.510	403.037	376.644	194.734	238.493	82.943	260.895	322.879	387.252	320.477	274.891	0.00033322	0.00017618	8.3071e-05	1074.4	3.7744e-06	2.6932e-06	1166.4	221.84	2.528e-06	1.7857e-06	280.74	79.354	62.183	18.184	3.4056e-06	25.453	0.00045606	0.00063448	0.00017351	1064.2	6.8123e-06	6.6105e-06	1160.4	221.52	6.4133e-06	7.0956e-06	281.8	79.723	62.341	18.426	6.1156e-06	25.942	136.282	141.418	155.561	79.560	220.548	188.425	79.492	87.437	228.204	232.305	86.244	93.772	93.754	100.966	241.846	100.558	-8191	255	
35789.590	1	1	0	0	0.12345	0.34338	0.21442	0.1544	0.10696	0.19839	0.31043	0.23421	0.089481	0.17985	0.49004	0.092215	0.44165	0.14623	0.13358	0.040891	-2.2604	-2.3271	-1.825	-2.7292	-1.9354	-2.2667	-2.9042	-1.8917	-2.4021	-2.3812	-1.8479	-2.6271	-2.1229	-2.0708	-2.7375	-2.0687	131.419	354.231	133.280	164.305	358.561	334.193	357.803	295.777	84.940	275.184	415.296	350.664	331.915	277.408	143.204	222.016	0.00036062	0.00029351	7.9863e-05	1072.4	2.5716e-06	3.1063e-06	1165.3	221.26	2.862e-06	3.6058e-06	280.72	79.085	61.496	18.164	2.2261e-06	25.202	0.00043573	0.00062121	0.00017686	1063	6.5866e-06	7.1231e-06	1156.4	220.99	5.9488e-06	6.3805e-06	281.21	79.517	62.258	18.394	5.6936e-06	25.87	140.437	150.092	135.136	79.484	218.184	234.458	79.574	87.236	219.530	201.478	86.460	93.155	94.293	101.324	213.214	100.751	-8191	255	
35789.684	1	1	0	0	0.11325	0.31858	0.087241	0.063801	0.15361	0.20927	0.13978	0.14732	0.1144	0.13188	0.10852	0.14269	0.21211	0.20824	0.071759	0.32134	-1.9625	-2.1875	-1.8479	-2.7625	-2.0438	-2.0354	-2.8458	-1.9354	-2.2396	-2.3854	-1.8604	-2.4875	-2.0333	-2.0708	-2.6292	-1.9479	89.450	136.046	354.120	385.092	369.777	86.758	367.797	102.113	341.181	320.577	202.536	148.667	122.918	226.583	278.266	398.432	0.0003255	0.00016287	6.3469e-05	1073.1	2.9467e-06	3.0111e-06	1166.1	220.8	2.753e-06	2.5961e-06	281.02	78.652	62.115	18.256	3.7301e-06	25.134	0.00043507	0.00055557	0.00017552	1058.7	6.2354e-06	7.1028e-06	1152.7	220.41	5.9522e-06	6.0278e-06	281.04	79.229	62.345	18.437	5.8791e-06	25.822	138.919	170.907	206.232	79.761	235.899	195.902	79.551	87.245	226.754	213.917	86.656	93.433	94.048	101.571	215.972	100.976	-8191	255	
35789.781	1	1	0	0	0.05298	0.16658	0.27173	0.11858	0.15958	0.111	0.16199	0.043144	0.35663	0.17142	0.26727	0.42323	0.25132	0.08795	0.28418	0.14755	-2.0563	-2.6104	-1.7292	-2.8042	-2.5083	-1.8875	-2.8729	-1.9833	-2.2521	-2.5646	-1.9521	-2.5417	-2.2208	-1.9937	-2.7062	-1.9146	146.393	250.355	204.525	383.434	89.599	82.514	112.909	151.079	176.266	82.348	337.042	315.652	416.721	106.443	344.096	118.987	0.00028362	0.00025516	7.118e-05	1073.1	2.4672e-06	1.8635e-06	1161.8	221.66	4.2412e-06	3.8783e-06	279.58	78.549	61.444	18.028	3.0984e-06	25.423	0.00042316	0.00058695	0.0001596	1057.2	6.1816e-06	7.0016e-06	1153	220.24	6.4627e-06	6.44e-06	280.47	79.149	61.793	18.369	5.8964e-06	25.839	134.420	160.025	148.057	79.614	218.316	186.430	79.735	87.202	210.002	235.152	86.646	93.649	94.212	101.434	218.494	100.561	-8191	255	
35789.879	1	1	0	0	0.0084905	0.13745	0.13899	0.15785	0.091168	0.3342	0.21956	0.22264	0.10946	0.057587	0.080837	0.36614	0.135	0.2197	0.11906	0.17734	-1.8354	-2.6125	-1.8062	-2.5917	-2.4521	-1.875	-2.9396	-2.0812	-2.0667	-2.5458	-2.0292	-2.5854	-2.5417	-1.8667	-2.6188	-2.3937	244.367	419.969	89.130	233.436	360.887	276.104	378.671	149.002	193.059	164.295	363.031	421.552	309.375	367.646	313.727	413.154	0.00029287	0.00033101	0.00010013	1070.3	2.2217e-06	2.0275e-06	1162.3	219.76	2.9991e-06	1.633e-06	281.07	79.241	61.827	17.915	3.2507e-06	25.288	0.00042525	0.00057284	0.00017151	1058.1	6.4091e-06	6.7096e-06	1151.8	219.81	5.9965e-06	6.1404e-06	280.5	79.344	61.969	18.298	5.9e-06	25.816	136.172	169.326	175.693	79.413	199.962	214.705	79.534	87.217	198.462	211.396	86.836	93.809	93.874	101.561	232.386	100.602	-8191	255	
35789.996	1	1	0	0	0.11076	0.14416	0.18273	0.16671	0.14556	0.05183	0.19723	0.17923	0.19196	0.075989	0.25018	0.24938	0.091283	0.12501	0.11787	0.12016	-1.5771	-2.6146	-1.9229	-2.3917	-2.6437	-1.7667	-2.8229	-2.275	-1.95	-2.825	-2.1583	-2.1875	-2.7104	-1.8396	-2.5271	-2.2896	392.949	201.639	117.343	82.459	350.929	212.385	420.282	378.248	274.145	199.451	358.895	169.207	200.813	149.824	292.852	332.984	0.00033087	0.00024709	5.6962e-05	1072.6	2.7476e-06	2.1503e-06	1164.4	219.95	3.1696e-06	2.229e-06	279.43	78.939	62.544	17.962	2.0617e-06	25.294	0.00044918	0.00054108	0.00017327	1057.1	6.2967e-06	6.651e-06	1151.8	219.55	6.0694e-06	6.4092e-06	279.18	79.272	62.102	18.325	6.0437e-06	25.789	137.085	163.653	202.663	79.858	243.862	197.465	79.378	87.033	220.225	162.942	86.704	93.744	93.654	101.275	207.891	100.595	-8191	255	
35790.094	1	1	0	0	0.14909	0.067144	0.077198	0.17724	0.18415	0.0059975	0.21866	0.14399	0.36954	0.18712	0.17071	0.059294	0.10296	0.063655	0.43961	0.21979	-1.5063	-2.5833	-1.9146	-2.3146	-2.6729	-1.8188	-2.6	-2.4437	-1.9729	-2.7667	-2.0563	-2.2042	-2.675	-1.7771	-2.5479	-2.4021	386.038	214.326	395.659	73.386	148.926	207.128	363.004	95.812	229.079	351.779	80.808	259.252	78.451	280.606	427.653	371.904	0.00034505	0.00033278	9.6806e-05	1067.6	2.5389e-06	1.8961e-06	1162.5	220	3.278e-06	1.7702e-06	278.84	78.656	61.761	17.948	2.664e-06	25.03	0.0004626	0.00059159	0.00017421	1058.2	5.9912e-06	6.6638e-06	1149	219.59	6.0827e-06	6.338e-06	279.78	79.256	61.882	18.299	6.2184e-06	25.749	129.546	154.455	165.118	80.227	222.461	223.261	79.628	87.270	176.029	221.641	86.901	93.483	94.342	101.134	214.206	100.540	-8191	255	
35790.164	1	1	0	0	0.15961	0.16941	0.1806	0.098123	0.070461	0.34888	0.26244	0.25386	0.14852	0.25396	0.20143	0.12364	0.18358	0.10293	0.036645	0.050097	-1.5167	-2.725	-2.1458	-2.2042	-2.7708	-1.8583	-2.5083	-2.6125	-1.8708	-2.6646	-2.2833	-2.1437	-2.7771	-1.8042	-2.3042	-2.6896	308.496	324.856	370.276	345.325	204.853	264.254	369.929	360.248	231.268	136.316	426.877	345.764	132.278	73.302	133.698	308.303	0.00031669	0.00027783	7.8192e-05	1065.2	2.3188e-06	3.6796e-06	1154.5	220.13	3.739e-06	3.2117e-06	278.07	78.687	61.712	18.047	1.8839e-06	25.252	0.00044949	0.00056383	0.00017	1056.6	6.1825e-06	6.9078e-06	1148	219.36	6.2192e-06	6.4453e-06	279.27	79.045	62.041	18.329	6.0628e-06	25.747	137.194	175.357	131.573	79.861	231.222	217.970	79.835	87.272	217.798	216.185	86.526	93.808	94.297	101.367	216.137	100.437	-8191	255	
35790.285	1	1	0	0	0.17461	0.068818	0.028858	0.17653	0.10231	0.24136	0.28683	0.19236	0.042801	0.32254	0.19623	0.092857	0.16827	0.22425	0.073993	0.20412	-1.2458	-2.5292	-2.1708	-2.0646	-2.6854	-2.1063	-2.5146	-2.7042	-1.9937	-2.5521	-2.3521	-1.9625	-2.8417	-1.7812	-1.9937	-2.5646	170.517	423.090	336.320	326.822	322.686	388.644	351.614	288.527	228.739	142.888	78.097	427.999	412.677	103.265	170.524	391.357	0.00029917	0.000416	6.4124e-05	1066.1	2.4549e-06	2.0543e-06	1158.3	220.58	3.8636e-06	2.0736e-06	281.09	78.147	61.053	17.997	3.6324e-06	25.268	0.00043577	0.00053969	0.00015185	1053	6.2531e-06	6.6244e-06	1148.2	219.55	5.9262e-06	6.151e-06	280.04	78.852	61.867	18.314	6.2129e-06	25.726	139.084	175.924	133.406	79.549	194.429	168.119	79.819	87.064	215.668	222.209	86.810	93.531	94.103	101.230	232.418	101.291	-8191	255	
35790.383	1	1	0	0	0.29936	0.33592	0.089902	0.18657	0.065951	0.11998	0.041081	0.072531	0.30414	0.18428	0.32188	0.069695	0.20575	0.1037	0.084453	0.1883	-1.3438	-2.3708	-2.1063	-1.8854	-2.8563	-2.0354	-2.275	-2.8312	-1.7042	-2.5083	-2.5792	-1.9292	-2.4708	-2.1646	-2.1083	-2.6958	336.919	261.946	365.459	340.272	285.233	424.190	266.086	386.651	260.003	264.487	353.080	301.026	367.315	215.913	401.655	330.935	0.00030824	0.00029012	7.2049e-05	1066.6	3.8345e-06	3.2944e-06	1159.4	220.12	4.1494e-06	2.9126e-06	280.72	78.866	61.621	17.956	2.9101e-06	25.298	0.00044748	0.00058407	0.00016473	1052.7	6.1909e-06	6.7863e-06	1148.1	219.3	6.3096e-06	6.83e-06	280.1	79.02	61.777	18.255	6.2165e-06	25.729	135.175	181.641	155.824	79.622	233.735	211.500	79.758	87.380	224.356	223.319	87.016	93.949	94.393	101.285	213.877	100.725	-8191	255	
35790.477	1	1	0	0	0.19955	0.044988	0.13887	0.3863	0.11917	0.025565	0.33853	0.1101	0.16367	0.14278	0.1489	0.095419	0.26744	0.16539	0.20056	0.14901	-1.3854	-2.4042	-2.3583	-2.0333	-2.5792	-2.1833	-2.0667	-2.8688	-1.8375	-2.3792	-2.6729	-1.7792	-2.6354	-2.2396	-1.9271	-2.725	166.424	264.007	198.323	352.096	407.209	163.797	358.496	331.505	103.701	278.134	401.809	96.720	371.168	285.034	217.137	322.204	0.00031665	0.00031721	7.803e-05	1063.7	3.2238e-06	2.0789e-06	1154	219.83	2.9201e-06	2.6466e-06	279.66	79.125	61.729	18.024	2.9952e-06	25.34	0.00043998	0.00059697	0.00015402	1050.7	6.0487e-06	6.6286e-06	1146.2	219.06	6.1212e-06	6.5303e-06	279.56	79.107	61.735	18.26	6.1938e-06	25.774	133.552	140.440	136.699	79.933	202.900	250.268	80.032	87.437	218.762	222.206	86.925	93.521	94.581	101.458	217.101	100.802	-8191	255	
35790.574	1	1	0	0	0.20272	0.31429	0.19316	0.12564	0.21138	0.11955	0.23543	0.22326	0.079377	0.18993	0.13723	0.12478	0.10781	0.18421	0.070009	0.18868	-1.4417	-2.1292	-2.5021	-1.825	-2.6417	-2.5083	-2.0917	-2.6792	-1.9937	-2.15	-2.5542	-1.7896	-2.5417	-2.3604	-1.8229	-2.8688	346.946	259.777	134.685	77.745	90.959	130.080	352.378	96.928	104.912	159.815	346.732	140.127	79.729	360.457	98.755	365.888	0.00030602	0.00015599	9.2827e-05	1065.5	2.9407e-06	2.6365e-06	1164.8	220.58	3.7518e-06	2.9276e-06	278.54	78.719	61.432	18.048	2.4708e-06	25.21	0.00044331	0.00056021	0.00015774	1050.3	6.2884e-06	6.3495e-06	1148.8	219.47	6.3807e-06	7.1742e-06	279.17	79.109	61.714	18.307	6.252e-06	25.78	139.809	165.173	167.074	80.191	240.125	213.478	79.842	87.604	194.161	221.921	87.104	93.796	94.630	101.917	248.346	100.795	-8191	255	
35790.672	1	1	0	0	0.072618	0.072475	0.106	0.09693	0.15366	0.10842	0.32884	0.11471	0.1813	0.091868	0.072035	0.10685	0.11784	0.16012	0.26628	0.19754	-1.7625	-2.1958	-2.6813	-1.9813	-2.4437	-2.475	-2.0833	-2.7417	-2.1208	-2.1	-2.7167	-1.8583	-2.4458	-2.4813	-1.725	-2.7042	418.941	287.364	260.852	96.076	318.155	354.762	403.954	215.151	139.230	426.934	122.182	357.380	399.272	80.716	199.871	354.852	0.00032064	0.00044792	6.1324e-05	1062.5	2.8231e-06	2.1938e-06	1156.3	218.96	2.7623e-06	3.147e-06	278.67	78.488	61.903	17.95	2.5611e-06	25.317	0.00043921	0.00059503	0.00016175	1052.3	6.5986e-06	6.4209e-06	1147.4	219.21	6.1087e-06	6.6451e-06	279.45	78.96	61.899	18.276	6.3111e-06	25.779	132.525	158.140	133.327	79.708	218.241	217.384	79.671	87.613	201.777	222.796	86.798	93.546	94.927	101.457	156.561	100.999	-8191	255	
35790.789	1	1	0	0	0.10675	0.23759	0.044414	0.041727	0.12209	0.17383	0.27806	0.43445	0.21107	0.13583	0.1455	0.25129	0.2846	0.045811	0.21727	0.37873	-1.6688	-1.7313	-2.6917	-2.0896	-2.3187	-2.6146	-2.025	-2.7521	-2.15	-1.9958	-2.7562	-2.0125	-2.4167	-2.7146	-1.9312	-2.6583	317.659	341.098	93.425	406.927	296.648	203.188	354.134	343.103	349.105	339.507	319.592	316.633	402.892	74.782	311.273	377.946	0.0003495	0.00031103	9.0085e-05	1070.3	3.4411e-06	2.2216e-06	1158.1	219.69	4.1986e-06	2.0397e-06	279.74	78.913	60.922	17.866	2.4175e-06	25.244	0.00045034	0.00062362	0.00016803	1055.9	6.3042e-06	6.2653e-06	1147	218.9	6.0836e-06	6.6515e-06	279.68	79.091	61.66	18.247	6.5267e-06	25.776	131.717	181.010	191.518	79.946	202.690	226.633	79.700	87.205	231.014	225.787	86.790	93.453	94.503	101.056	227.723	101.169	-8191	255	
35790.863	1	1	0	0	0.11064	0.20957	0.10524	0.1025	0.1817	0.31046	0.27427	0.36941	0.34356	0.12585	0.21435	0.13592	0.027343	0.13277	0.17714	0.23983	-1.8958	-1.875	-2.5438	-1.8521	-2.2104	-2.6667	-2.0583	-2.5125	-2.1208	-1.8188	-2.7667	-2.1562	-2.1083	-2.4604	-1.8062	-2.4479	238.026	260.537	334.315	78.772	280.614	104.174	355.522	356.115	191.109	144.526	248.854	383.065	358.499	243.707	191.505	394.741	0.00031549	0.00017456	9.0357e-05	1066	2.6094e-06	3.6322e-06	1161.6	219.6	1.5934e-06	2.1797e-06	278.77	78.625	61.131	18.052	3.2162e-06	25.116	0.00043225	0.00060524	0.00015695	1050.1	6.3339e-06	6.6318e-06	1147.1	219.32	5.9413e-06	6.6504e-06	279.4	79.136	61.696	18.255	5.8882e-06	25.776	138.407	156.217	167.115	79.755	226.003	215.909	79.574	87.693	216.169	235.905	87.089	93.292	94.011	101.426	215.745	101.161	-8191	255	
35790.957	1	1	0	0	0.25006	0.12355	0.23587	0.27054	0.18198	0.0992	0.09606	0.17391	0.27676	0.11587	0.30113	0.0465	0.24506	0.13842	0.26668	0.37728	-2.0146	-1.7354	-2.45	-2.2313	-1.8937	-2.7146	-2.1375	-2.4688	-2.4146	-1.8104	-2.5687	-2.1167	-2.0938	-2.8854	-1.8604	-2.3417	252.383	210.707	295.371	375.763	198.225	275.052	381.401	347.517	228.143	162.239	424.815	356.693	365.422	187.046	138.140	364.376	0.00033567	0.00028394	7.6136e-05	1052.9	2.6628e-06	3.5984e-06	1155	220.44	2.6909e-06	3.4938e-06	279.21	78.36	61.644	17.98	1.7659e-06	25.109	0.0004239	0.00060672	0.00016154	1047.5	6.4221e-06	5.9925e-06	1145.8	219.31	5.7413e-06	6.6217e-06	280.35	78.868	62.02	18.285	6.1429e-06	25.675	137.320	134.649	170.707	79.537	203.746	217.252	79.899	87.433	201.270	215.865	87.124	93.610	93.933	101.498	224.215	100.937	-8191	255	
35791.078	1	1	0	0	0.39318	0.055871	0.14433	0.09245	0.079229	0.24483	0.33396	0.26295	0.21506	0.013651	0.070848	0.13768	0.19825	0.10111	0.16972	0.20949	-2.0521	-1.7479	-2.6937	-2.2896	-1.9292	-2.8271	-2.1583	-2.1917	-2.6667	-1.875	-2.6688	-2.3292	-2.0187	-2.4271	-1.8333	-2.2271	343.286	363.998	394.978	366.965	106.340	226.771	388.910	371.099	220.925	237.559	163.537	373.367	306.019	344.711	271.768	243.618	0.00034426	0.00022884	0.00011494	1061.7	2.1033e-06	2.6188e-06	1151.9	220.72	2.3968e-06	2.5314e-06	280.86	78.613	61.807	17.948	1.8589e-06	25.098	0.00042626	0.00060004	0.00016567	1049.6	6.6989e-06	6.4987e-06	1144.2	219.57	5.7923e-06	6.3922e-06	279.99	78.85	61.96	18.259	5.8718e-06	25.68	135.881	142.528	154.156	79.790	201.572	250.917	79.916	87.521	229.376	207.663	87.073	93.915	94.422	101.562	222.047	100.993	-8191	255	
35791.176	1	1	0	0	0.19051	0.1414	0.21067	0.22271	0.15904	0.12487	0.39939	0.2453	0.25014	0.04245	0.21322	0.11575	0.22873	0.15875	0.15037	0.33119	-2.1771	-1.7042	-2.6479	-2.4562	-1.8146	-2.8063	-2.1479	-2.0458	-2.5938	-1.8708	-2.3458	-2.4896	-2.1125	-2.4896	-2.1688	-2.0812	396.470	141.480	260.258	356.821	79.933	106.090	366.640	338.727	315.745	193.638	380.385	104.303	157.669	156.837	203.659	369.152	0.00031544	0.00037329	6.768e-05	1066	2.5484e-06	2.6519e-06	1155.6	220.09	3.1832e-06	2.9679e-06	279.26	78.21	61.001	18.021	3.9641e-06	25.356	0.00042935	0.00060152	0.00015659	1051.9	6.3757e-06	6.7e-06	1144.5	219.47	5.8869e-06	6.8937e-06	279.54	78.728	61.688	18.246	6.1256e-06	25.786	138.825	156.533	151.618	79.834	242.601	219.723	79.955	87.241	224.768	233.672	87.056	93.984	94.764	101.385	211.824	101.654	-8191	255	
35791.270	1	1	0	0	0.11358	0.028387	0.024279	0.098777	0.24207	0.073887	0.28795	0.11868	0.299	0.18486	0.19077	0.23046	0.23408	0.15985	0.24994	0.057894	-2.2271	-1.7917	-2.3229	-2.6417	-1.8208	-2.5604	-2.5646	-1.9792	-2.5	-2.0229	-2.4521	-2.525	-1.9521	-2.7	-2.2146	-1.9583	107.745	119.580	212.770	385.868	319.052	123.045	358.539	163.563	384.122	370.389	163.855	394.716	182.509	168.228	204.276	228.268	0.00030855	0.0002157	9.1541e-05	1062.4	3.0764e-06	1.8097e-06	1161	220.65	3.1563e-06	2.6838e-06	279.49	78.697	61.837	17.912	3.0634e-06	25.256	0.0004227	0.00062427	0.00016217	1049.1	6.7073e-06	6.2919e-06	1146.3	219.41	5.5613e-06	6.8013e-06	279.19	78.766	61.889	18.226	5.8928e-06	25.716	134.973	187.829	151.491	79.895	207.533	238.804	79.859	87.910	213.952	193.643	87.143	93.625	94.657	101.736	197.967	100.766	-8191	255	
35791.391	1	1	0	0	0.155	0.022198	0.10795	0.27256	0.10582	0.17678	0.25701	0.31908	0.16039	0.2372	0.037651	0.20405	0.026175	0.043386	0.13977	0.26611	-2.4292	-1.9375	-2.1604	-2.6146	-1.9292	-2.4625	-2.5292	-2.0438	-2.6937	-1.9854	-2.2188	-2.7521	-2.0229	-2.5646	-2.3083	-1.9333	90.101	263.307	75.127	410.029	246.478	166.778	419.186	398.952	284.484	236.878	413.374	395.952	427.660	429.228	347.426	379.866	0.00037188	0.00025393	9.1026e-05	1058.6	3.162e-06	3.458e-06	1151.7	220.33	2.0925e-06	2.9698e-06	279.89	78.093	60.944	18.02	3.9653e-06	25.094	0.00042981	0.00058453	0.00015347	1047.5	6.3673e-06	6.1992e-06	1142.5	219	5.9003e-06	6.3741e-06	279.34	78.586	61.483	18.231	5.7618e-06	25.626	138.995	166.885	167.190	80.162	208.241	244.132	79.871	87.582	209.310	245.512	87.305	93.569	94.196	101.298	229.388	100.987	-8191	255	
35791.461	1	1	0	0	0.32904	0.11609	0.20166	0.086725	0.11152	0.16089	0.33922	0.27971	0.30835	0.28381	0.22571	0.1636	0.11905	0.084921	0.17127	0.040576	-2.1854	-1.9979	-1.9813	-2.7125	-2.0625	-2.5542	-2.6167	-2.0292	-2.5104	-2.1229	-2.075	-2.8063	-1.7542	-2.4375	-2.4021	-1.9062	143.620	110.692	227.677	134.530	232.276	250.828	308.564	333.429	414.592	304.325	153.545	405.019	158.422	386.410	405.509	370.500	0.00031908	0.00023252	6.331e-05	1064.9	2.881e-06	3.6479e-06	1157.1	218.49	2.4247e-06	2.6885e-06	278.8	78.82	61.185	17.883	2.9803e-06	25.189	0.00041276	0.00059595	0.00016104	1048.8	6.2475e-06	6.2898e-06	1140.9	218.31	5.8836e-06	6.1468e-06	278.38	78.701	61.593	18.249	5.4471e-06	25.608	137.037	164.944	129.606	80.252	225.801	241.307	79.877	87.369	203.105	198.583	87.055	94.179	94.303	101.802	220.773	101.390	-8191	255	
35791.559	1	1	0	0	0.11488	0.19671	0.26376	0.39274	0.12768	0.21087	0.31667	0.23183	0.093521	0.14043	0.20014	0.17745	0.13582	0.20335	0.1323	0.23087	-2.1729	-2.2062	-2.0563	-2.8167	-1.9333	-2.3958	-2.7229	-1.7729	-2.5687	-2.4062	-2.0104	-2.7604	-1.8917	-2.3229	-2.5479	-1.7521	114.631	373.081	350.575	80.149	256.812	415.800	413.681	119.594	254.595	327.113	383.424	177.548	296.149	326.769	266.916	199.119	0.00031516	0.0003579	7.4853e-05	1057.4	3.1175e-06	2.7975e-06	1150.8	219.73	3.3248e-06	4.1982e-06	280.03	78.594	61.216	17.953	3.9913e-06	25.001	0.00043086	0.00055241	0.00016251	1044.1	6.0515e-06	6.5338e-06	1138.1	218.4	5.3186e-06	5.8333e-06	278.5	78.562	61.395	18.206	5.6272e-06	25.542	133.907	139.872	158.952	80.239	187.380	249.277	79.971	87.740	211.338	220.267	87.252	94.152	94.710	101.927	227.696	100.678	-8191	255	
35791.680	1	1	0	0	0.15567	0.086406	0.093626	0.17715	0.17061	0.099348	0.35113	0.074198	0.051742	0.01672	0.079894	0.084179	0.039486	0.27903	0.10953	0.25236	-2.1521	-2.2708	-1.9625	-2.6646	-2.1292	-2.1104	-2.8042	-2.0729	-2.3604	-2.2771	-2.0292	-2.65	-1.8604	-2.0646	-2.6396	-1.9167	383.400	417.047	137.503	409.322	425.329	310.851	387.397	112.482	250.442	256.459	424.639	391.163	184.730	389.795	344.794	122.114	0.00030755	0.00030489	0.00010055	1052.4	1.5758e-06	2.1624e-06	1152	219.57	2.4503e-06	3.1878e-06	276.97	78.929	61.242	17.926	4.4064e-06	25.133	0.00038609	0.00052818	0.00016918	1044.1	5.9763e-06	6.2376e-06	1137.7	218.24	5.2935e-06	6.5548e-06	278.18	78.72	61.356	18.201	5.5744e-06	25.611	138.850	169.817	209.359	79.905	202.088	193.644	79.916	87.466	217.819	213.816	86.707	93.893	94.390	101.100	219.213	100.787	-8191	255	
35791.773	1	1	0	0	0.12526	0.157	0.33114	0.21981	0.22328	0.27215	0.31585	0.27886	0.14204	0.13074	0.22308	0.14035	0.18415	0.08974	0.25668	0.12169	-1.9542	-2.2562	-1.9583	-2.725	-2.1458	-2.0958	-2.7562	-1.8937	-2.3417	-2.6521	-1.9958	-2.5958	-2.4375	-2.0958	-2.7854	-2.0729	377.398	160.696	329.319	373.539	156.192	364.513	111.002	82.318	334.062	301.593	407.792	337.452	413.166	400.306	151.096	75.718	0.00033706	0.00016753	8.7085e-05	1055.3	2.6308e-06	2.4116e-06	1148.2	218.51	3.3473e-06	2.443e-06	278.06	77.798	61.469	18.014	3.5161e-06	25.163	0.00044184	0.00052994	0.00015855	1043.1	6.0069e-06	6.3473e-06	1137.4	217.81	5.4902e-06	5.913e-06	277.55	78.349	61.532	18.132	5.6499e-06	25.599	129.510	187.540	161.277	80.223	210.085	254.023	79.587	87.405	214.570	210.613	87.049	93.421	93.526	101.226	235.164	101.127	-8191	255	
35791.871	1	1	0	0	0.33191	0.067574	0.17194	0.16939	0.42091	0.33014	0.3027	0.14862	0.052265	0.097699	0.11317	0.082449	0.26956	0.11827	0.13583	0.25204	-1.8146	-2.6396	-1.7958	-2.8458	-2.2792	-1.8729	-2.6833	-2.0979	-1.9979	-2.6083	-2.1333	-2.4062	-2.3021	-1.8979	-2.6625	-2.0958	339.698	236.423	232.530	357.425	197.884	367.193	354.799	345.698	298.876	76.467	344.939	405.912	297.963	257.872	377.149	428.063	0.00033507	0.00034269	0.0001055	1055.1	1.7718e-06	3.4542e-06	1142.3	218.33	2.4597e-06	2.7997e-06	276.67	77.592	60.695	17.936	3.4974e-06	25.043	0.00041853	0.0004942	0.00015347	1042	6.0069e-06	6.0405e-06	1135.1	217.58	5.5572e-06	6.2838e-06	276.99	78.378	61.314	18.186	5.3962e-06	25.598	140.283	161.710	156.939	80.158	198.101	225.182	79.756	87.210	210.422	270.272	86.335	93.041	93.550	101.283	213.896	101.062	-8191	255	
35791.992	1	1	0	0	0.12709	0.14469	0.075551	0.06943	0.32132	0.23566	0.12146	0.24845	0.2358	0.13581	0.36667	0.035671	0.18333	0.24658	0.27566	0.17751	-1.6354	-2.4708	-1.8917	-2.6562	-2.4646	-1.7792	-2.7979	-2.1875	-2.2812	-2.8146	-2.0458	-2.4583	-2.5	-1.9125	-2.6729	-2.2646	124.142	380.832	87.625	423.978	75.586	127.795	378.275	102.565	205.371	273.909	359.112	279.333	375.526	342.917	135.688	171.208	0.0003308	0.0003722	9.6932e-05	1055.3	3.8695e-06	3.3037e-06	1148	217.86	2.8335e-06	4.1498e-06	276.69	78.003	61.107	17.773	2.7875e-06	25.017	0.00040724	0.00053041	0.00015682	1041.9	5.4784e-06	5.9393e-06	1134.2	217.04	5.3848e-06	5.7834e-06	276.93	78.456	61.045	18.065	5.1788e-06	25.572	132.349	148.381	155.377	79.415	225.571	209.964	79.598	87.112	219.324	234.282	86.475	93.208	93.883	101.293	220.747	100.400	-8191	255	
35792.062	1	1	0	0	0.088509	0.16644	0.15983	0.14869	0.10303	0.17796	0.1091	0.043921	0.2321	0.096411	0.18533	0.023703	0.15658	0.22712	0.18804	0.23194	-1.5896	-2.7292	-1.875	-2.4646	-2.5125	-1.8042	-2.875	-2.2396	-2.1271	-2.8146	-2.1667	-2.2	-2.7146	-1.7479	-2.4854	-2.325	159.889	401.675	389.402	329.270	392.287	411.965	102.511	317.373	69.800	359.947	345.731	126.149	105.348	403.202	92.180	372.730	0.00029523	0.00029322	6.6704e-05	1057.3	2.4487e-06	3.0877e-06	1151.2	218.05	2.5399e-06	3.831e-06	276.98	78.254	61.082	17.881	2.1827e-06	24.932	0.00040894	0.0005123	0.0001509	1039.9	5.2713e-06	5.773e-06	1135.6	217.08	5.3697e-06	5.7037e-06	276.48	78.286	61.259	18.109	5.5781e-06	25.533	137.646	184.411	131.645	79.670	210.919	229.637	79.593	87.380	207.330	249.925	86.513	93.545	94.034	101.429	192.479	100.525	-8191	255	
35792.160	1	1	0	0	0.11071	0.19688	0.14982	0.17506	0.039922	0.23071	0.14856	0.43878	0.20748	0.2404	0.20063	0.22308	0.20729	0.20251	0.21991	0.26978	-1.5625	-2.5792	-2.0167	-2.2208	-2.5563	-2.0208	-2.8042	-2.4479	-1.8667	-2.6521	-2.0375	-2.0333	-2.625	-1.8667	-2.3958	-2.3396	139.956	414.219	372.529	299.967	339.167	91.937	402.539	371.211	130.776	289.951	89.293	389.706	111.500	370.344	284.261	119.721	0.0003456	0.00023627	0.00011145	1045.7	2.5127e-06	1.5434e-06	1144.8	217.44	3.0376e-06	1.345e-06	275.73	78.14	60.711	17.747	3.1314e-06	24.974	0.00042119	0.00050608	0.00014543	1036.3	5.4728e-06	5.7805e-06	1132.4	216.59	5.3529e-06	5.3605e-06	276.59	78.29	60.923	18.03	5.2761e-06	25.522	134.683	144.091	161.441	79.926	229.421	206.270	79.717	87.186	231.061	265.141	86.599	93.403	94.019	101.164	223.002	100.839	-8191	255	
35792.254	1	1	0	0	0.25778	0.12989	0.14732	0.052582	0.14471	0.18405	0.17587	0.20536	0.13025	0.1043	0.16356	0.11158	0.11097	0.19579	0.074944	0.39057	-1.3875	-2.4333	-2.0625	-2.2625	-2.7875	-1.9062	-2.575	-2.4979	-1.8125	-2.7333	-2.2125	-2.1479	-2.6813	-2.0062	-2.3521	-2.5375	124.719	329.042	158.820	100.618	375.434	70.666	364.475	326.677	424.342	384.864	351.742	374.292	346.707	255.299	418.955	78.719	0.00034377	0.00031293	7.5686e-05	1054.1	1.4943e-06	2.3071e-06	1147	217.02	2.8584e-06	2.7159e-06	277.16	77.934	60.852	17.88	2.9297e-06	24.862	0.00042119	0.00053709	0.00014116	1039.1	5.4115e-06	5.9659e-06	1132.7	216.56	5.5747e-06	5.5794e-06	277.37	78.245	61.185	18.156	5.2297e-06	25.443	131.820	166.113	171.914	79.748	224.230	215.412	79.912	86.912	213.536	212.885	87.144	93.647	93.781	101.221	227.045	100.814	-8191	255	
35792.352	1	1	0	0	0.12363	0.077659	0.10818	0.32162	0.1448	0.014674	0.071948	0.32518	0.29572	0.20141	0.15337	0.1734	0.028464	0.1533	0.21621	0.33053	-1.3813	-2.4813	-2.0312	-2.1396	-2.6208	-1.8167	-2.4458	-2.4688	-1.825	-2.6729	-2.3021	-2.1063	-2.55	-2.0125	-2.1625	-2.6229	218.542	284.864	332.142	369.511	222.391	328.049	344.578	273.393	289.440	387.322	189.061	82.907	312.180	411.632	393.777	407.243	0.00030773	0.00020777	9.9237e-05	1051.3	3.3882e-06	2.0072e-06	1141.6	217.59	3.8236e-06	2.1356e-06	276.14	77.749	60.511	17.736	4.004e-06	24.997	0.00039595	0.00050952	0.00015824	1038	5.9345e-06	6.1183e-06	1130.2	216.67	5.8451e-06	5.9364e-06	276.19	78.154	61.173	18.092	5.7054e-06	25.484	131.692	169.729	170.095	79.743	217.921	243.779	79.701	87.320	195.924	236.686	86.615	93.143	94.604	101.311	214.495	100.384	-8191	255	
35792.469	1	1	0	0	0.31957	0.090704	0.072062	0.071218	0.053049	0.090232	0.1178	0.23615	0.0362	0.25814	0.19246	0.065943	0.055401	0.19408	0.037161	0.18591	-1.5021	-2.4479	-2.2979	-1.7917	-2.6396	-2.1583	-2.2313	-2.75	-1.8125	-2.3729	-2.3479	-1.9417	-2.8812	-2.1146	-2.1188	-2.6833	134.641	415.625	273.898	284.709	399.494	379.592	95.871	417.973	286.587	209.237	402.507	358.667	161.674	95.117	202.385	288.272	0.00028925	0.00026312	6.6871e-05	1047	2.8766e-06	1.7439e-06	1140.5	218.24	2.7765e-06	2.7084e-06	276.19	78.271	61.304	17.858	2.6872e-06	24.883	0.00040376	0.00053941	0.0001454	1037.2	5.6308e-06	6.1694e-06	1132.3	217	5.7907e-06	6.219e-06	276.13	78.366	61.218	18.097	5.4198e-06	25.472	137.336	170.816	138.230	79.550	221.403	195.191	79.646	87.117	203.179	259.059	86.510	93.554	93.826	101.600	204.590	100.469	-8191	255	
35792.566	1	1	0	0	0.050531	0.15938	0.18654	0.08494	0.23305	0.16912	0.24428	0.29733	0.14929	0.1465	0.057382	0.17033	0.24908	0.12157	0.20063	0.25784	-1.6	-2.3167	-2.3729	-1.8438	-2.5875	-2.1146	-2.1125	-2.7	-1.9667	-2.4437	-2.6542	-1.9438	-2.5	-2.2708	-2.0354	-2.8	109.395	387.712	100.492	148.922	164.405	353.930	382.751	287.080	121.175	364.134	343.206	405.776	126.434	334.896	157.752	392.161	0.00030555	0.00022631	6.9757e-05	1051.9	3.4361e-06	3.052e-06	1148	217.93	3.2007e-06	2.9615e-06	277.69	77.69	61.184	17.85	3.0593e-06	25.086	0.0004159	0.00054006	0.000142	1040.2	5.6354e-06	6.081e-06	1132	216.76	5.8258e-06	5.8376e-06	277.11	78.138	61.308	18.094	5.157e-06	25.561	138.410	142.305	157.191	79.859	225.521	247.944	79.930	87.472	202.383	213.478	86.572	93.455	94.542	101.649	215.813	101.109	-8191	255	
35792.664	1	1	0	0	0.17585	0.25171	0.069804	0.29224	0.042695	0.25517	0.093579	0.13027	0.18589	0.44348	0.227	0.26701	0.17301	0.31402	0.15227	0.08994	-1.6979	-2.0958	-2.4146	-1.9458	-2.4729	-2.2938	-2.0042	-2.6042	-2.0062	-2.2313	-2.8771	-1.9542	-2.6125	-2.1979	-1.8708	-2.7875	358.434	91.450	181.149	177.137	232.999	201.988	385.451	275.715	326.380	105.296	411.487	326.981	338.972	301.099	274.860	140.460	0.00031925	0.0002625	6.5128e-05	1047.7	3.0798e-06	3.6055e-06	1140.8	217.9	2.7283e-06	4.1704e-06	274.68	77.352	60.985	17.783	3.5886e-06	24.879	0.00039633	0.00051444	0.00013223	1035.3	5.2787e-06	5.5791e-06	1132.8	216.95	5.2868e-06	5.6229e-06	276.29	78.033	61.179	18.048	5.1306e-06	25.445	133.020	181.745	187.627	79.759	243.407	250.657	79.689	87.378	208.707	220.975	86.557	93.367	94.139	101.782	215.082	100.422	-8191	255	
35792.758	1	1	0	0	0.19016	0.09988	0.038738	0.15375	0.078668	0.091668	0.11169	0.24057	0.23763	0.16642	0.037566	0.054082	0.026307	0.062777	0.14814	0.13905	-1.5812	-2.0875	-2.5875	-1.9396	-2.4729	-2.4521	-2.0667	-2.6896	-2.1229	-2.0625	-2.9333	-2.2104	-2.4792	-2.3708	-1.8083	-2.6375	423.039	397.162	419.915	359.199	323.271	428.566	427.124	378.314	185.117	348.829	153.030	407.322	107.736	237.037	323.031	395.999	0.00028231	0.00024626	9.8509e-05	1052.1	1.8098e-06	3.7809e-06	1139.6	217.34	2.1555e-06	3.8483e-06	276.85	76.87	60.513	17.908	2.6887e-06	24.975	0.00038458	0.00051193	0.0001365	1038.5	5.1059e-06	5.2371e-06	1131.6	216.59	4.9119e-06	5.4179e-06	276.07	77.795	60.84	18.116	5.0951e-06	25.479	137.141	164.753	195.030	79.730	198.408	235.194	79.650	87.406	213.804	190.623	86.739	94.015	94.408	101.510	224.787	100.656	-8191	255	
35792.855	1	1	0	0	0.065754	0.072407	0.24559	0.12516	0.15893	0.29858	0.23794	0.23331	0.12731	0.32068	0.14847	0.3573	0.191	0.22981	0.20067	0.27058	-1.8667	-1.9833	-2.5854	-1.8312	-2.2604	-2.5021	-2.1813	-2.7229	-2.1958	-2.0979	-2.9062	-1.9917	-2.3042	-2.7438	-1.9083	-2.6646	195.762	76.028	397.159	137.128	410.356	71.838	340.576	74.937	150.195	163.117	404.775	188.685	358.097	398.923	394.353	402.215	0.00030233	0.00026037	4.7705e-05	1046.3	3.1489e-06	2.2047e-06	1142.3	216.75	2.5471e-06	3.829e-06	274.48	77.225	61.349	17.692	3.1266e-06	24.784	0.00037956	0.00048473	0.00012529	1036.3	4.7428e-06	4.7672e-06	1131.6	216.18	4.8876e-06	5.3658e-06	275.74	77.963	61.322	17.983	4.8514e-06	25.398	140.306	164.671	179.685	79.610	223.375	235.002	79.855	87.599	193.538	211.557	87.217	93.466	94.113	101.601	209.393	100.164	-8191	255	
35792.949	1	1	0	0	0.21436	0.090787	0.3029	0.084755	0.23044	0.13255	0.54666	0.22027	0.055073	0.31934	0.12377	0.29073	0.11429	0.24642	0.27863	0.13511	-2.1063	-1.8583	-2.8479	-2.1125	-2.1292	-2.7104	-2.0187	-2.5521	-2.4646	-1.8917	-2.7542	-2.1354	-2.2708	-2.7375	-1.8917	-2.5646	273.735	120.264	258.137	273.664	83.502	123.621	363.604	370.863	345.371	78.716	339.927	388.679	310.906	356.768	159.419	247.589	0.00032589	0.00031876	9.4789e-05	1049.7	3.1454e-06	2.6461e-06	1140	216.7	2.6195e-06	3.7585e-06	276.48	77.53	60.777	17.662	4.1198e-06	25.145	0.00038408	0.00046161	0.00011851	1037.5	5.1858e-06	4.618e-06	1128.7	216.23	4.4248e-06	5.1416e-06	275.92	78.001	61.095	17.993	4.9132e-06	25.506	136.825	161.570	179.003	79.949	224.970	210.852	79.823	87.792	200.436	241.443	87.150	94.094	94.329	101.757	214.396	100.652	-8191	255	
35793.070	1	1	0	0	0.042979	0.076896	0.27045	0.1097	0.05317	0.21267	0.26338	0.34919	0.22934	0.25342	0.073569	0.10994	0.12745	0.23299	0.20461	0.20659	-2.1104	-1.8229	-2.7042	-2.2229	-2.1292	-2.6917	-2.0521	-2.3771	-2.325	-1.7792	-2.7625	-2.3646	-2.0104	-2.7417	-1.9229	-2.3604	428.257	257.461	329.069	207.338	87.345	221.542	342.891	378.886	278.692	427.969	291.521	106.746	282.179	378.803	145.433	334.755	0.00032541	0.00021711	6.5587e-05	1050.5	2.4796e-06	2.6363e-06	1144.4	216.3	2.2224e-06	1.6263e-06	274.5	77.929	60.329	17.849	2.962e-06	25.008	0.00036402	0.00044323	0.00011683	1035	4.7093e-06	4.7416e-06	1132.1	215.98	4.4499e-06	4.91e-06	275.04	77.97	60.662	18.053	4.2875e-06	25.355	136.692	152.867	155.207	79.678	221.167	189.891	79.876	87.683	226.449	204.243	86.880	93.977	94.397	101.776	239.864	100.951	-8191	255	
35793.168	1	1	0	0	0.086741	0.094177	0.15527	0.32258	0.07857	0.19849	0.085978	0.11195	0.08074	0.17038	0.19522	0.098495	0.33414	0.19324	0.09463	0.12459	-2.2313	-1.9083	-2.6104	-2.2458	-2.0708	-2.7438	-2.1521	-2.4313	-2.55	-1.9625	-2.4771	-2.2896	-1.9667	-2.6292	-2.1917	-2.2396	360.134	256.200	197.010	394.194	393.702	360.284	263.342	363.403	254.558	194.346	287.953	398.740	149.883	381.719	133.072	146.128	0.00032246	0.00021937	8.7314e-05	1042.5	3.0963e-06	3.5509e-06	1131.3	215.57	2.6562e-06	2.6893e-06	273.84	76.758	60.432	17.816	3.1227e-06	24.82	0.00035304	0.00043747	0.00011419	1027	4.8152e-06	4.309e-06	1121.4	215.01	4.2231e-06	4.587e-06	273.82	77.365	60.484	17.984	4.4866e-06	25.328	136.046	151.290	157.712	79.883	221.000	240.637	79.893	87.766	209.167	220.264	87.066	93.884	94.555	101.540	216.123	101.271	-8191	255	
35793.262	1	1	0	0	0.25029	0.12602	0.2277	0.096971	0.10766	0.22646	0.077933	0.27161	0.10191	0.12749	0.23521	0.17988	0.11933	0.11109	0.0085974	0.08831	-2.1813	-1.9417	-2.3771	-2.3375	-1.8375	-2.7979	-2.1583	-2.2479	-2.5896	-2.0042	-2.6979	-2.5125	-1.8188	-2.7729	-2.25	-2.1437	377.388	109.342	139.757	413.279	259.642	271.837	411.999	372.826	150.181	143.999	85.679	139.280	170.310	333.122	85.825	247.013	0.00031495	0.00025939	8.4126e-05	1037.2	3.5892e-06	3.8333e-06	1133.5	215.13	3.1497e-06	2.0781e-06	274.16	76.802	60.731	17.601	2.5828e-06	24.541	0.00033355	0.00039179	0.00010651	1025.8	4.5728e-06	4.0479e-06	1119.7	214.61	4.0423e-06	4.2406e-06	273.44	77.386	60.638	17.885	4.1201e-06	25.207	136.421	169.924	173.633	79.948	198.490	196.370	79.876	87.769	217.719	214.331	86.930	94.142	94.467	101.465	219.950	100.765	-8191	255	
35793.359	1	1	0	0	0.071948	0.18688	0.103	0.28954	0.42447	0.16152	0.17436	0.17772	0.11261	0.14279	0.066303	0.29231	0.25661	0.2841	0.2478	0.11166	-2.2438	-1.7271	-2.4313	-2.5229	-1.9729	-2.5917	-2.5083	-2.0687	-2.6813	-1.8854	-2.5062	-2.6229	-1.8854	-2.6	-2.1292	-2.1417	183.236	209.046	165.183	346.783	205.952	419.869	371.258	358.992	247.647	254.926	421.380	109.290	316.405	427.559	287.001	158.140	0.00032535	0.0002524	0.00011686	1040	2.6914e-06	2.7839e-06	1130.9	213.99	3.0149e-06	2.3764e-06	272.27	77.101	60.154	17.485	3.9022e-06	24.648	0.00033274	0.00042559	0.00011057	1024.2	4.4511e-06	4.2078e-06	1118	213.93	4.0181e-06	4.4297e-06	272.68	77.391	60.488	17.843	4.2138e-06	25.151	137.968	181.692	172.633	79.560	226.655	233.121	79.485	87.434	205.467	207.215	86.921	93.356	93.987	101.189	226.926	100.739	-8191	255	
35793.453	1	1	0	0	0.16878	0.18131	0.032217	0.062792	0.058883	0.080706	0.26625	0.1468	0.16147	0.060675	0.14683	0.045599	0.19863	0.071935	0.11089	0.0907	-2.3125	-2.0917	-2.3187	-2.7562	-1.9375	-2.675	-2.4792	-2.1167	-2.6146	-2.1146	-2.1896	-2.525	-1.775	-2.5854	-2.3458	-1.9979	323.002	330.615	88.482	306.629	332.038	267.918	389.660	339.123	416.454	202.926	264.507	311.158	405.915	69.630	122.543	386.053	0.00029154	0.00033493	7.4429e-05	1038.7	2.7811e-06	4.2925e-06	1123.4	215.84	3.1803e-06	2.1533e-06	274.09	77.102	59.526	17.576	3.2395e-06	24.863	0.00033336	0.00040043	0.00011327	1024.6	4.7874e-06	4.4177e-06	1115.1	214.13	3.9762e-06	4.5317e-06	273.58	77.105	60.352	17.896	4.2884e-06	25.196	137.613	173.534	161.646	79.477	224.406	220.001	79.787	87.329	214.797	213.547	86.925	93.072	93.690	101.724	229.417	100.950	-8191	255	
35793.551	1	1	0	0	0.30271	0.3281	0.21881	0.13063	0.21853	0.31487	0.16918	0.11377	0.21565	0.010672	0.40292	0.049057	0.11284	0.14236	0.2539	0.20781	-2.1979	-2.0812	-2.2167	-2.75	-1.7062	-2.5042	-2.4688	-1.9958	-2.6729	-2.0458	-2.2375	-2.625	-2.0625	-2.3521	-2.4958	-2.0146	305.802	294.825	419.514	405.652	143.462	95.644	272.830	428.914	423.333	132.477	332.799	92.083	354.679	101.224	94.351	386.376	0.00029044	0.00036152	0.00010178	1040.6	3.45e-06	2.0781e-06	1125.1	214.76	3.1232e-06	3.6116e-06	273.31	76.98	60.362	17.556	3.1748e-06	24.942	0.00033433	0.00043023	0.00011688	1024	4.5161e-06	4.2824e-06	1115.2	213.83	4.1269e-06	4.6422e-06	272.57	77.37	60.402	17.88	4.4776e-06	25.305	136.593	177.752	174.845	80.084	225.863	232.672	79.743	87.343	211.305	208.588	86.542	93.772	94.214	101.104	217.582	100.906	-8191	255	
35793.648	1	1	0	0	0.058511	0.39284	0.32977	0.32068	0.14909	0.1295	0.16709	0.18046	0.17778	0.077065	0.059256	0.29547	0.1133	0.1334	0.27175	0.14012	-2.1354	-2.0854	-1.8708	-2.7521	-1.9479	-2.3708	-2.6333	-1.8896	-2.6729	-2.3812	-2.1417	-2.6979	-1.9771	-2.275	-2.5187	-2.0021	91.741	176.778	353.472	429.122	380.065	309.588	310.150	277.034	269.298	169.714	378.591	425.021	342.940	341.662	79.816	318.000	0.0003207	0.0003094	7.0933e-05	1032.1	3.1657e-06	2.7136e-06	1128.6	213.34	3.6085e-06	3.9774e-06	272.32	77.33	59.978	17.564	3.2202e-06	24.889	0.00034155	0.00033052	0.00011186	1021.7	4.6833e-06	4.2728e-06	1118.2	213.7	4.398e-06	4.8855e-06	273.06	77.451	60.3	17.857	4.3757e-06	25.221	134.836	155.128	148.342	79.725	225.182	206.747	79.772	87.445	205.110	227.008	87.229	93.507	94.267	101.477	210.506	100.947	-8191	255	
35793.766	1	1	0	0	0.29459	0.24407	0.15887	0.21862	0.39329	0.12136	0.23862	0.18221	0.28091	0.19431	0.034038	0.11883	0.11026	0.28232	0.030988	0.21982	-2.1167	-2.2396	-2.0354	-2.6688	-2.0812	-2.1708	-2.5667	-2.0542	-2.5146	-2.3667	-2.0146	-2.7812	-2.0312	-2.1625	-2.7208	-1.9062	327.678	125.285	275.191	70.947	309.301	238.894	393.112	366.721	98.458	119.920	228.347	70.846	188.632	354.065	252.059	358.653	0.00031574	0.00030355	9.0969e-05	1034.4	3.0806e-06	1.8714e-06	1126.3	214.46	2.3301e-06	2.5492e-06	272.22	76.674	60.281	17.562	2.0769e-06	24.571	0.00034186	0.00040544	0.00011618	1022.8	4.5486e-06	4.4326e-06	1117.9	214.43	4.3051e-06	4.3702e-06	273.14	77.307	60.364	17.884	4.041e-06	25.193	137.311	166.456	164.636	80.009	207.912	251.026	79.615	87.339	207.816	222.352	86.961	93.926	93.649	101.799	266.072	100.707	-8191	255	
35793.863	1	1	0	0	0.0478	0.042141	0.40886	0.13451	0.19384	0.056426	0.11328	0.16199	0.17146	0.2211	0.15159	0.1618	0.23267	0.045788	0.10684	0.18128	-2.0812	-2.4604	-1.8104	-2.6667	-2.2375	-2.0854	-2.7313	-1.9833	-2.4958	-2.7604	-1.9854	-2.6562	-2.1792	-2.0125	-2.6271	-2.1229	132.302	394.000	332.642	419.330	384.475	75.454	294.388	360.664	291.575	93.492	239.101	311.142	79.857	364.274	203.318	405.028	0.00034429	0.0003263	8.9316e-05	1034.2	3.4858e-06	2.6449e-06	1128.3	214.89	3.4862e-06	2.1299e-06	273.23	76.962	60.077	17.568	3.5169e-06	25.007	0.00037577	0.00046235	0.00012786	1025.1	4.9453e-06	4.6596e-06	1118.7	214.2	4.5922e-06	4.299e-06	273.19	77.385	60.371	17.897	4.0792e-06	25.239	137.014	160.139	155.757	79.352	222.104	211.664	79.789	87.450	205.920	216.551	86.874	93.591	94.008	101.794	213.562	100.818	-8191	255	
35793.961	1	1	0	0	0.31838	0.02067	0.16005	0.18918	0.014879	0.17775	0.20983	0.16916	0.065716	0.10444	0.11969	0.2114	0.2016	0.12335	0.26319	0.28424	-1.8604	-2.5083	-1.9104	-2.7333	-2.125	-1.9625	-2.7375	-2.1125	-2.2521	-2.5687	-1.9604	-2.7417	-2.4042	-2.1521	-2.5917	-2.175	330.717	324.277	120.990	365.284	286.530	163.966	414.299	325.497	77.638	304.294	371.709	365.677	389.866	74.794	351.272	295.521	0.00030846	0.00020258	8.2951e-05	1043.7	2.9402e-06	3.0441e-06	1126.5	214.76	2.5981e-06	3.192e-06	274.04	77.14	60.165	17.527	2.6677e-06	24.896	0.00035972	0.0004358	0.00012969	1029.2	4.896e-06	5.0847e-06	1118.5	213.96	4.7002e-06	4.9578e-06	273.47	77.457	60.619	17.922	4.1147e-06	25.239	134.910	149.042	175.252	80.017	212.939	202.494	79.909	87.588	215.414	218.312	86.792	93.839	94.568	101.214	235.430	100.711	-8191	255	
35794.031	1	1	0	0	0.16859	0.15865	0.16579	0.2799	0.17189	0.070423	0.096717	0.17366	0.12463	0.084875	0.22692	0.24917	0.13351	0.09596	0.15303	0.20551	-1.6938	-2.5729	-1.9979	-2.3979	-2.3146	-1.85	-2.85	-2.1271	-2.1042	-2.8521	-2.1813	-2.5521	-2.3396	-1.9229	-2.6271	-2.1813	319.950	372.626	174.418	144.861	412.372	325.582	395.714	358.891	189.222	95.920	390.069	342.079	344.722	153.340	180.444	135.912	0.00034745	0.00029064	8.0219e-05	1038.4	2.6245e-06	2.1641e-06	1129.7	215.84	3.238e-06	3.4819e-06	272.16	77.424	60.509	17.473	4.1114e-06	24.687	0.00037755	0.00040609	0.00011743	1026.8	4.7093e-06	4.7352e-06	1121	214.46	4.7721e-06	4.4818e-06	272.88	77.447	60.541	17.886	4.1556e-06	25.263	138.859	193.646	157.786	79.851	232.546	222.329	79.682	87.373	213.353	216.979	86.613	93.956	94.251	101.615	240.656	101.144	-8191	255	
35794.152	1	1	0	0	0.21816	0.091515	0.059321	0.0066831	0.12573	0.20065	0.28164	0.19681	0.090196	0.11207	0.052417	0.21789	0.23636	0.015945	0.23593	0.18149	-1.6917	-2.6375	-1.8917	-2.3958	-2.3937	-1.8917	-2.7958	-2.1479	-2.0979	-2.6417	-2.175	-2.2708	-2.5771	-1.7583	-2.3958	-2.1688	330.477	132.583	308.335	338.607	381.448	212.346	401.538	380.431	421.917	72.227	115.391	225.554	407.666	279.340	297.369	327.688	0.00034264	0.00033163	0.00010499	1035.6	3.4761e-06	2.7696e-06	1131.5	215.61	2.8018e-06	3.4069e-06	273.85	77.868	59.968	17.649	3.8358e-06	24.828	0.00036831	0.00041798	0.00011688	1025.3	4.6917e-06	4.8556e-06	1120	214.7	4.4842e-06	4.8367e-06	273.47	77.643	60.613	17.907	4.3975e-06	25.281	134.996	157.368	179.252	80.093	227.974	226.337	79.919	87.369	198.663	207.538	86.755	93.631	94.586	101.847	222.539	100.728	-8191	255	
35794.246	1	1	0	0	0.054129	0.17152	0.16412	0.30119	0.16035	0.35832	0.28613	0.21753	0.059555	0.17899	0.44428	0.07387	0.20312	0.19319	0.093832	0.14104	-1.5521	-2.6937	-1.9854	-2.3604	-2.6813	-1.8146	-2.6792	-2.4208	-1.9813	-2.7208	-2.0854	-2.2417	-2.7708	-1.8083	-2.6688	-2.4667	279.249	427.699	196.900	75.667	325.931	236.428	346.979	390.957	291.751	240.202	389.433	273.759	289.018	351.586	256.896	106.468	0.00032503	0.00029073	0.00010851	1041.1	3.1427e-06	3.7423e-06	1131.2	214.81	2.7931e-06	2.4535e-06	273.53	77.246	60.107	17.599	2.144e-06	24.694	0.00037932	0.00041723	0.00011997	1028.6	4.6731e-06	5.1646e-06	1122.2	214.46	4.6466e-06	4.7421e-06	273.5	77.454	60.51	17.892	4.4157e-06	25.283	135.237	148.561	155.707	79.899	230.374	235.025	79.843	87.610	229.072	211.355	86.849	93.922	94.542	101.710	181.082	101.173	-8191	255	
35794.344	1	1	0	0	0.0224	0.18925	0.12875	0.13533	0.18802	0.17925	0.13665	0.049899	0.15933	0.23193	0.36672	0.30231	0.064349	0.17783	0.13317	0.14718	-1.5667	-2.7104	-2.0646	-2.2833	-2.5938	-1.7188	-2.6292	-2.4667	-1.8646	-2.825	-2.2458	-2.35	-2.7083	-1.8104	-2.4896	-2.6042	398.821	156.026	299.550	370.469	214.538	383.276	277.068	155.367	147.689	181.493	414.481	321.468	340.841	203.629	367.450	417.083	0.00031195	0.00036426	7.3911e-05	1040.3	3.4787e-06	2.2639e-06	1131.7	215.87	2.3e-06	2.2391e-06	273.48	77.06	60.283	17.513	2.9116e-06	24.85	0.00036452	0.00043506	0.00012013	1028.9	4.6703e-06	5.3031e-06	1123.1	214.64	4.9604e-06	4.6412e-06	274.18	77.715	60.571	17.903	4.8741e-06	25.28	134.882	180.164	164.743	79.982	204.307	246.597	79.942	87.367	219.468	253.964	87.057	93.667	94.467	101.667	228.180	101.150	-8191	255	
35794.441	1	1	0	0	0.010797	0.15899	0.1565	0.19897	0.18406	0.18616	0.32567	0.22678	0.10333	0.13881	0.22637	0.28996	0.18983	0.15818	0.032884	0.076063	-1.3417	-2.6562	-2.1583	-2.0604	-2.7042	-2.0708	-2.4875	-2.4813	-1.7875	-2.6688	-2.3104	-2.1063	-2.6937	-2.1583	-2.3812	-2.5958	212.629	136.986	316.184	383.597	78.060	220.412	355.275	79.528	301.369	370.645	121.837	341.844	84.576	330.033	314.107	354.007	0.00031648	0.00030964	7.481e-05	1039.4	2.9625e-06	3.0816e-06	1136.2	215.13	2.8193e-06	3.4789e-06	275.16	77.238	59.992	17.746	3.2346e-06	24.76	0.00036893	0.00042197	0.00011167	1026.6	4.3647e-06	5.0037e-06	1124.2	214.4	4.7077e-06	4.7814e-06	273.76	77.638	60.389	17.969	4.2138e-06	25.222	134.406	165.675	160.701	80.127	220.470	209.394	79.815	87.697	199.628	236.226	87.331	93.706	94.443	101.321	222.248	101.049	-8191	255	
35794.559	1	1	0	0	0.25717	0.065235	0.14776	0.037658	0.18055	0.21368	0.5418	0.24319	0.19853	0.16699	0.19495	0.20562	0.20119	0.36715	0.097876	0.19233	-1.3958	-2.45	-2.3771	-1.9854	-2.6792	-2.0792	-2.5333	-2.6146	-1.6646	-2.5062	-2.3375	-1.9062	-2.6333	-2.0708	-2.0563	-2.7229	151.196	119.419	418.182	186.207	132.583	187.802	364.627	239.502	327.414	86.055	132.547	419.234	204.282	128.924	229.898	352.071	0.00032334	0.00028838	0.00010394	1043.5	2.8927e-06	2.4131e-06	1139	214.86	3.6116e-06	2.9234e-06	272.1	77.463	59.922	17.697	2.5122e-06	24.85	0.00036997	0.00040071	0.00012398	1028.4	4.6341e-06	4.8375e-06	1123.8	214.8	4.7696e-06	4.7517e-06	273.83	77.621	60.407	17.913	4.7477e-06	25.339	136.849	161.943	170.707	80.145	234.114	224.963	79.875	87.946	216.454	200.231	87.288	93.806	94.893	101.190	215.294	101.440	-8191	255	
35794.633	1	1	0	0	0.28333	0.26335	0.079733	0.078458	0.26888	0.11646	0.15437	0.21223	0.14103	0.097727	0.33417	0.23075	0.045224	0.075959	0.036513	0.15334	-1.4292	-2.4417	-2.35	-1.8	-2.7771	-2.0146	-2.2042	-2.6792	-1.9354	-2.3812	-2.5521	-1.7667	-2.5917	-2.3854	-2.0833	-2.8958	115.530	245.252	405.234	423.395	314.371	427.468	391.919	354.857	326.003	362.416	76.376	171.997	305.507	267.947	349.575	409.468	0.00033286	0.00027178	6.2893e-05	1038.4	3.7889e-06	2.4863e-06	1130.4	216.16	2.5667e-06	2.7759e-06	275.26	77.064	60.126	17.65	2.8546e-06	24.744	0.00039471	0.00042967	0.0001228	1027	4.7678e-06	4.9068e-06	1121.1	214.92	4.4591e-06	5.1565e-06	274.8	77.618	60.658	17.915	4.8013e-06	25.291	132.438	166.690	157.417	79.873	215.591	228.273	80.047	87.786	223.695	222.907	87.094	94.033	94.009	101.569	210.212	100.890	-8191	255	
35794.754	1	1	0	0	0.15631	0.39923	0.053347	0.37814	0.12115	0.1926	0.34568	0.092466	0.20166	0.30055	0.02837	0.12561	0.24261	0.21602	0.23209	0.27582	-1.6063	-2.1854	-2.6104	-1.8729	-2.6437	-2.2062	-2.3	-2.7292	-2.1	-2.2771	-2.7708	-1.9937	-2.675	-2.2292	-1.9167	-2.7771	323.729	183.567	227.634	89.184	404.421	183.314	355.257	160.550	89.960	232.805	363.216	360.765	96.942	385.050	344.713	398.922	0.00029175	0.00032866	9.7922e-05	1040.3	3.1487e-06	2.8041e-06	1131.9	217.12	3.828e-06	1.7531e-06	273.97	77.356	60.263	17.639	3.2657e-06	24.946	0.00037662	0.0004618	0.00011877	1029.4	4.7288e-06	4.7299e-06	1122.7	214.99	4.7177e-06	5.3785e-06	274.14	77.737	60.543	17.932	4.6304e-06	25.362	134.609	165.965	140.307	80.064	208.013	216.748	80.369	87.644	215.481	228.900	87.352	94.300	94.567	101.826	205.463	101.253	-8191	255	
35794.848	1	1	0	0	0.097017	0.21873	0.12588	0.29253	0.14637	0.031924	0.28528	0.26783	0.11995	0.097187	0.19357	0.30152	0.19488	0.11438	0.14532	0.16857	-1.5896	-2.0667	-2.6708	-1.8167	-2.4646	-2.55	-2.0292	-2.6271	-2.0417	-2.1312	-2.8167	-2.1271	-2.2667	-2.55	-1.8729	-2.6917	350.912	259.896	114.134	391.864	76.200	165.698	361.265	161.285	239.976	308.553	346.288	415.213	311.434	379.710	106.974	328.150	0.00031434	0.00027617	9.5961e-05	1044.8	3.8994e-06	2.555e-06	1131.9	216.16	3.8257e-06	2.1601e-06	273.8	77.313	60.498	17.656	3.0652e-06	24.779	0.00036931	0.00047247	0.00012291	1029.8	4.8737e-06	4.7043e-06	1122.2	214.85	4.7813e-06	4.7814e-06	274.39	77.599	60.824	17.958	4.7695e-06	25.293	130.941	181.645	172.499	80.293	224.346	234.891	80.167	87.708	224.665	219.425	87.251	94.365	94.771	101.868	221.893	101.030	-8191	255	
35794.945	1	1	0	0	0.10036	0.14603	0.14294	0.15488	0.1556	0.080556	0.19855	0.22881	0.13253	0.12858	0.10336	0.31961	0.067124	0.10348	0.266	0.10331	-1.7417	-2.0354	-2.6917	-1.9583	-2.3187	-2.4271	-2.0354	-2.7917	-2.1688	-1.6958	-2.8333	-2.0604	-2.1958	-2.7125	-1.9396	-2.5333	164.433	126.595	241.782	316.013	371.869	87.568	389.472	392.982	327.459	251.368	372.152	428.347	201.375	373.866	131.350	207.442	0.00031472	0.0002939	5.0625e-05	1039.3	3.2448e-06	3.3917e-06	1134.6	216.43	3.265e-06	2.6241e-06	274.59	77.211	60.506	17.67	2.6538e-06	24.821	0.00038029	0.00044871	0.0001206	1028.7	5.0075e-06	4.7736e-06	1125.7	214.83	4.6324e-06	4.9514e-06	274.69	77.707	60.796	17.954	4.5185e-06	25.331	136.094	151.912	158.080	80.345	235.393	227.405	80.330	87.649	197.762	207.613	87.390	93.821	94.527	101.763	231.396	100.792	-8191	255	
35795.039	1	1	0	0	0.19471	0.19445	0.1469	0.25723	0.2849	0.20229	0.21037	0.046898	0.06703	0.17908	0.10349	0.14224	0.32633	0.13132	0.11255	0.12194	-1.85	-1.9958	-2.6896	-2.1271	-2.2333	-2.6437	-1.9792	-2.6458	-2.4021	-1.9521	-2.7167	-2.0125	-2.1333	-2.55	-1.7542	-2.525	327.000	367.186	289.989	111.668	234.732	284.500	422.778	152.840	275.204	210.889	410.728	125.055	410.257	194.665	395.897	322.984	0.00032482	0.00028022	8.5551e-05	1040.3	2.9809e-06	3.8846e-06	1136	215.95	3.2254e-06	2.8838e-06	276.08	77.285	60.703	17.782	1.666e-06	24.814	0.00037755	0.0004345	0.00011277	1029	4.8747e-06	4.7118e-06	1124.9	215.5	4.4482e-06	5.013e-06	275.33	77.685	60.775	18.002	4.6877e-06	25.261	131.786	160.999	172.413	79.928	223.527	229.169	80.096	87.863	216.872	214.427	87.043	94.037	94.414	101.988	218.628	101.648	-8191	255	
35795.160	1	1	0	0	0.20486	0.12201	0.14278	0.33921	0.057173	0.31048	0.39489	0.29353	0.30769	0.12576	0.11102	0.20752	0.15138	0.018127	0.077839	0.15361	-2.0104	-1.9542	-2.5583	-2.0812	-2.1542	-2.7938	-2.1604	-2.65	-2.4583	-1.9813	-2.6229	-2.1958	-2.0563	-2.8	-1.9438	-2.4958	298.030	281.984	208.083	390.216	391.363	393.560	326.456	353.910	221.228	133.576	208.447	90.898	394.204	296.319	265.582	144.319	0.00033646	0.00036323	7.3367e-05	1036.4	2.1773e-06	2.3619e-06	1129.5	215.75	3.655e-06	2.1438e-06	274.84	77.224	60.569	17.571	2.7943e-06	24.769	0.00036869	0.00047312	0.00011701	1028.9	5.1598e-06	4.9739e-06	1121.6	215.08	4.7914e-06	5.1745e-06	274.22	77.754	60.777	17.908	4.5103e-06	25.307	135.035	168.648	149.295	80.047	212.729	258.139	80.047	87.911	221.601	197.149	87.096	94.188	94.712	101.662	220.693	101.329	-8191	255	
35795.230	1	1	0	0	0.22115	0.21392	0.13352	0.15451	0.18361	0.25034	0.1284	0.11223	0.26251	0.075816	0.085512	0.19537	0.26829	0.26637	0.1757	0.19439	-1.9667	-1.8354	-2.7125	-2.2771	-1.8208	-2.7208	-2.05	-2.1625	-2.4646	-1.95	-2.6521	-2.3458	-2.0875	-2.7687	-1.9438	-2.1667	403.762	193.107	319.299	234.921	417.529	71.560	370.618	283.738	406.718	261.300	244.085	281.548	411.886	420.242	243.144	338.652	0.00031561	0.00025135	8.4543e-05	1047.3	1.8977e-06	2.6328e-06	1137.3	215.91	1.9534e-06	3.3724e-06	275.41	77.157	60.581	17.727	2.2924e-06	24.706	0.00037337	0.000467	0.00013349	1029.7	5.1998e-06	4.7949e-06	1123.8	215.19	4.3361e-06	5.5624e-06	274.7	77.502	60.778	17.959	4.8905e-06	25.256	134.799	151.208	155.973	80.275	214.640	228.684	80.138	87.902	211.299	198.436	87.106	93.700	94.423	101.595	192.032	101.530	-8191	255	
35795.328	1	1	0	0	0.12836	0.1173	0.11727	0.22515	0.059584	0.38254	0.2022	0.092788	0.11479	0.27957	0.16435	0.20483	0.163	0.044528	0.085318	0.1895	-2.1688	-1.9646	-2.5458	-2.3396	-1.8125	-2.7583	-2.1104	-2.2438	-2.6833	-1.9375	-2.7667	-2.4542	-1.9708	-2.65	-2.2375	-2.1562	254.872	85.587	92.597	400.225	106.238	429.697	283.896	332.113	300.476	299.629	408.341	382.396	390.996	379.697	184.081	100.475	0.00031017	0.00023461	6.6772e-05	1041.2	2.9945e-06	1.2336e-06	1133.5	215.47	2.5969e-06	1.9299e-06	275.19	77.273	60.965	17.549	3.7953e-06	24.852	0.00036943	0.0004656	0.00011641	1029.9	5.1171e-06	4.8109e-06	1123.5	215.24	4.6031e-06	5.2287e-06	275.36	77.632	60.897	17.931	5.0696e-06	25.363	136.477	166.635	185.141	80.321	205.693	198.577	80.361	87.993	226.824	210.949	87.346	93.994	94.739	101.837	213.951	101.672	-8191	255	
35795.445	1	1	0	0	0.14914	0.1763	0.18927	0.12225	0.30033	0.28437	0.33748	0.26485	0.25253	0.056157	0.16516	0.31077	0.023891	0.18019	0.055743	0.18047	-2.3312	-2.0583	-2.35	-2.4333	-1.7917	-2.6417	-2.4729	-2.2521	-2.6208	-1.9937	-2.2917	-2.5625	-1.8167	-2.6396	-2.3479	-2.0312	421.176	171.100	76.773	378.626	74.754	217.195	112.731	392.884	184.548	250.076	300.335	417.302	153.043	177.857	136.422	141.871	0.00029926	0.00017965	5.2147e-05	1048.2	2.4515e-06	1.6599e-06	1128.1	216.72	2.4489e-06	2.5762e-06	276.63	77.179	60.39	17.751	2.2805e-06	24.938	0.00036386	0.00046913	0.00012257	1029.9	5.1886e-06	5.0133e-06	1122.9	215.47	4.5169e-06	5.166e-06	275.17	77.597	60.764	18.012	4.9405e-06	25.352	135.347	171.168	197.389	80.217	224.397	220.181	80.389	88.005	219.076	217.288	87.569	94.596	94.353	102.070	225.459	101.069	-8191	255	
35795.543	1	1	0	0	0.24447	0.20815	0.14694	0.1804	0.10393	0.12393	0.24617	0.13706	0.13389	0.19982	0.28705	0.097471	0.18621	0.12812	0.17075	0.084268	-2.425	-2.0646	-2.2438	-2.7917	-1.8312	-2.4313	-2.5646	-1.925	-2.5604	-1.9479	-2.2354	-2.6875	-1.9708	-2.5458	-2.425	-1.9146	420.099	296.675	295.412	426.753	252.130	376.720	354.772	344.499	394.232	136.310	378.941	323.710	421.584	114.388	359.916	332.251	0.00031749	0.00027638	9.328e-05	1045.5	4.1341e-06	2.501e-06	1135.9	215.18	2.0988e-06	2.5496e-06	275.85	77.326	60.016	17.679	3.4551e-06	24.734	0.00036749	0.00047832	0.00012828	1031.1	5.3075e-06	5.1753e-06	1124.6	214.84	4.9755e-06	5.3828e-06	275.31	77.497	60.442	17.968	4.9678e-06	25.229	138.351	163.640	166.228	80.497	225.465	236.968	80.172	87.780	223.673	211.886	87.356	94.268	94.719	102.013	220.369	101.620	-8191	255	
35795.641	1	1	0	0	0.18497	0.28125	0.11062	0.065168	0.10341	0.17382	0.24261	0.28559	0.041677	0.18127	0.25008	0.22048	0.18905	0.14705	0.13765	0.31155	-2.2917	-1.9083	-2.2458	-2.8021	-2.0396	-2.45	-2.5687	-2.0812	-2.6542	-2.2521	-2.4333	-2.8146	-1.9479	-2.3646	-2.5271	-1.9458	365.657	369.044	288.543	251.925	415.594	133.745	360.930	339.302	409.247	131.617	327.158	370.488	274.400	325.666	320.211	403.793	0.0003432	0.00014564	8.4721e-05	1043.4	4.4345e-06	2.9583e-06	1135.5	216.33	4.2705e-06	2.6171e-06	276.8	77.291	60.297	17.799	3.8309e-06	24.688	0.00040391	0.00046607	0.00014313	1032.8	5.301e-06	5.4246e-06	1124.5	215.74	4.8567e-06	5.233e-06	275.31	77.785	60.731	18.009	4.8941e-06	25.294	135.031	158.237	173.422	80.396	217.935	213.121	80.368	88.158	218.905	219.075	87.098	93.701	94.718	101.982	199.953	100.951	-8191	255	
35795.734	1	1	0	0	0.13215	0.27054	0.2461	0.18184	0.19038	0.11038	0.1604	0.43513	0.014723	0.044072	0.11384	0.047481	0.1438	0.20818	0.12858	0.13413	-2.1583	-2.0958	-2.1063	-2.8917	-1.9604	-2.3438	-2.6375	-1.9521	-2.6583	-2.3208	-2.2125	-2.7708	-2.075	-2.3812	-2.6229	-1.9771	392.134	419.206	232.541	405.153	203.258	97.476	286.578	325.917	209.466	380.309	416.344	336.848	294.992	333.992	279.964	338.643	0.00033722	0.00044685	9.7526e-05	1045.9	3.606e-06	2.9197e-06	1137.9	216.52	2.8975e-06	4.0196e-06	274.68	77.816	59.963	17.735	3.315e-06	24.686	0.00040573	0.00047795	0.00014294	1032.7	5.3846e-06	5.4353e-06	1128.1	215.55	4.6257e-06	5.4551e-06	275.55	77.817	60.806	18.079	4.9541e-06	25.348	136.541	175.779	186.453	80.421	241.162	239.540	80.230	87.949	193.405	224.393	87.332	94.577	94.715	102.360	233.623	100.923	-8191	255	
35795.832	1	1	0	0	0.033141	0.0733	0.15859	0.19772	0.070348	0.14541	0.16054	0.15039	0.29819	0.30335	0.36379	0.12856	0.14518	0.21354	0.18702	0.16968	-2.1396	-2.1333	-1.9229	-2.7979	-1.8813	-2.2812	-2.7979	-2.0563	-2.5396	-2.5271	-2.1417	-2.6042	-2.1208	-2.2229	-2.5792	-1.9937	399.410	379.041	415.033	425.784	103.468	155.756	292.322	428.604	242.559	257.610	98.408	98.245	99.638	368.039	96.814	246.852	0.0003323	0.00035518	7.5748e-05	1042.8	2.2791e-06	3.25e-06	1140.1	216.1	3.1755e-06	3.2276e-06	275.71	77.817	60.937	17.727	3.237e-06	24.77	0.00037936	0.00047637	0.00012589	1033.8	5.4004e-06	5.4853e-06	1127.3	215.79	4.752e-06	5.1671e-06	276.04	78.053	61.041	18.014	4.6285e-06	25.379	132.275	164.246	149.740	80.955	208.366	218.335	80.330	88.019	200.163	221.059	87.202	94.157	94.024	101.471	208.073	101.341	-8191	255	
35795.930	1	1	0	0	0.3955	0.036363	0.21002	0.16003	0.18088	0.1538	0.17075	0.18743	0.19283	0.13104	0.30188	0.18895	0.28431	0.20051	0.040045	0.036705	-2.15	-2.5021	-1.7875	-2.7875	-1.9042	-2.0458	-2.85	-1.9729	-2.3354	-2.5312	-1.9917	-2.725	-2.2521	-1.9646	-2.5938	-1.9438	200.664	269.443	319.699	376.341	194.384	164.504	357.318	343.940	378.986	377.013	401.790	112.031	144.119	289.966	326.111	118.208	0.00033503	0.00030327	0.00013472	1043.2	4.1529e-06	3.9237e-06	1142.2	217.12	3.1937e-06	2.3731e-06	276.52	77.093	60.384	18.007	3.6821e-06	24.929	0.00039939	0.00047108	0.00014069	1035.2	5.3075e-06	5.6079e-06	1131.7	216.03	4.619e-06	5.3275e-06	275.69	77.842	61.021	18.103	5.1133e-06	25.43	135.338	175.269	160.347	80.022	218.564	221.544	79.957	87.677	211.992	244.349	87.293	94.443	94.587	101.503	233.375	101.404	-8191	255	
35796.023	1	1	0	0	0.31282	0.20721	0.21853	0.11782	0.27174	0.055218	0.30233	0.11611	0.19783	0.081852	0.080695	0.3677	0.079883	0.35167	0.36864	0.18972	-1.9	-2.6104	-1.8458	-2.6896	-2.0687	-2.0521	-2.9167	-2.2521	-2.4792	-2.5729	-1.8875	-2.5229	-2.4	-2.0792	-2.65	-1.8937	135.615	408.960	136.512	380.621	281.242	241.528	363.017	271.918	78.309	331.389	123.856	428.742	254.493	421.272	158.302	406.456	0.00033032	0.00030128	7.9398e-05	1045.8	3.0174e-06	2.5697e-06	1149.1	216.43	4.4988e-06	2.6742e-06	274.61	77.735	60.494	17.637	3.6191e-06	25.009	0.00038497	0.00044239	0.00014155	1035.3	5.3214e-06	5.2914e-06	1133	215.98	5.3538e-06	5.369e-06	275.13	77.855	60.952	18.002	4.7086e-06	25.436	134.749	159.662	164.121	80.261	234.994	226.073	80.325	87.524	202.224	206.256	87.155	93.713	94.503	101.932	221.656	100.789	-8191	255	
35796.121	1	1	0	0	0.17172	0.21272	0.22107	0.19155	0.19764	0.28154	0.21643	0.21897	0.2015	0.054757	0.22289	0.29613	0.15417	0.076701	0.16461	0.25999	-1.8937	-2.7021	-1.8854	-2.6	-2.3438	-1.6958	-2.7313	-1.9604	-1.9083	-2.6146	-1.9042	-2.4896	-2.3292	-1.9271	-2.6021	-2.2167	331.025	133.893	115.914	275.397	424.579	303.117	406.359	250.885	215.866	80.825	404.607	337.460	388.746	330.811	335.525	312.972	0.00032799	0.0002006	8.3049e-05	1045.2	2.8953e-06	2.0961e-06	1138.8	216.94	2.1541e-06	3.1489e-06	274.79	77.829	60.646	17.66	3.3106e-06	24.816	0.00039715	0.00043608	0.00013655	1033	5.3391e-06	5.5184e-06	1130	215.65	5.219e-06	5.3732e-06	274.77	77.987	60.936	17.941	4.8841e-06	25.407	135.631	145.935	172.240	80.220	214.225	237.811	79.895	87.572	222.984	225.685	86.955	93.511	94.490	101.583	224.417	100.848	-8191	255	
35796.242	1	1	0	0	0.27112	0.15885	0.080267	0.083595	0.036886	0.17189	0.12317	0.24275	0.17262	0.17241	0.11462	0.1731	0.14997	0.13958	0.19509	0.072026	-1.7	-2.6937	-1.9	-2.4083	-2.4208	-1.9167	-2.7542	-1.9979	-1.8625	-2.6292	-1.8979	-2.2542	-2.4833	-1.8396	-2.5667	-2.2833	102.586	139.632	276.424	307.929	213.671	372.491	73.164	340.787	244.408	332.657	84.413	359.630	401.061	393.514	227.458	176.547	0.00032284	0.0001476	0.00010569	1053.7	2.7679e-06	3.302e-06	1144.4	216.67	2.7782e-06	2.1002e-06	276.53	77.12	60.724	17.769	2.2966e-06	25.037	0.00040194	0.00049671	0.00013818	1037.6	4.7883e-06	5.5738e-06	1132.4	215.87	5.1864e-06	5.3329e-06	276.16	77.971	60.913	17.996	4.9359e-06	25.461	134.807	148.221	161.358	80.225	227.540	244.037	80.053	87.721	230.592	204.688	87.499	94.378	94.562	101.713	223.648	101.469	-8191	255	
35796.336	1	1	0	0	0.18562	0.29527	0.20153	0.14008	0.10337	0.11505	0.17127	0.12542	0.27739	0.030384	0.20993	0.12433	0.24982	0.16544	0.31496	0.25259	-1.6	-2.6042	-1.9667	-2.2854	-2.4667	-2.1708	-2.6562	-2.3042	-1.8479	-2.5333	-2.0854	-2.1146	-2.5312	-1.9292	-2.3812	-2.325	222.151	403.739	111.971	373.842	429.759	365.536	279.667	217.947	300.827	135.429	388.683	405.829	245.559	274.629	301.917	231.205	0.00032934	0.00029895	0.00010901	1048.8	4.1196e-06	3.1718e-06	1147.3	217.14	3.6733e-06	2.8499e-06	275.78	77.871	61.006	17.761	2.7728e-06	24.964	0.00039931	0.00047229	0.0001381	1036.6	5.0586e-06	5.6505e-06	1133.9	216.33	5.3814e-06	5.3499e-06	275.7	78.109	61.222	18.044	4.9378e-06	25.437	135.097	160.493	167.804	80.227	198.510	227.804	80.146	87.819	202.843	204.421	86.850	93.310	94.135	101.638	205.395	100.878	-8191	255	
35796.434	1	1	0	0	0.19781	0.25608	0.26884	0.21148	0.14766	0.12005	0.068473	0.20906	0.086836	0.16837	0.44284	0.22791	0.11554	0.41769	0.25592	0.12952	-1.3479	-2.5917	-1.8687	-2.1125	-2.6167	-1.8333	-2.625	-2.4333	-1.8937	-2.6896	-2.1292	-1.975	-2.7562	-1.9937	-2.4521	-2.3479	75.062	214.670	398.365	121.055	300.272	158.485	328.320	392.902	296.368	203.246	376.119	330.849	423.851	72.854	329.446	349.463	0.00030564	0.00027561	8.5831e-05	1051.9	3.8658e-06	3.0818e-06	1139.8	217.3	3.1297e-06	3.2105e-06	277.12	77.582	60.578	17.882	2.7031e-06	24.813	0.00039595	0.00045567	0.00013818	1039	5.236e-06	5.7325e-06	1130.8	216.06	5.1027e-06	5.5964e-06	276.5	77.977	60.869	18.081	4.9687e-06	25.365	135.160	185.006	186.292	80.358	199.482	214.051	80.021	87.317	213.374	243.188	87.228	93.744	94.142	101.482	226.721	100.776	-8191	255	
35796.531	1	1	0	0	0.1583	0.11889	0.25958	0.26658	0.23951	0.14472	0.27857	0.041138	0.20859	0.12289	0.032505	0.29839	0.24429	0.19373	0.23794	0.19124	-1.4625	-2.5167	-2.0375	-2	-2.7604	-1.8479	-2.3083	-2.6417	-1.8729	-2.7125	-2.4021	-2	-2.5875	-1.9271	-2.2625	-2.7125	323.312	239.138	104.565	72.213	251.496	164.258	307.925	184.163	78.693	125.805	332.953	429.440	401.601	147.458	184.487	370.815	0.00034408	0.00024357	7.3975e-05	1044.1	3.4341e-06	4.2639e-06	1142	216.52	3.6258e-06	2.7137e-06	275.38	77.79	60.223	17.714	1.9229e-06	24.964	0.00039993	0.00048631	0.00013794	1035.9	5.0224e-06	5.528e-06	1131.8	216.12	5.3898e-06	4.9875e-06	275.72	78.081	60.907	18.037	4.9714e-06	25.438	135.315	138.420	169.057	80.127	241.728	203.986	80.109	87.575	181.993	219.563	86.906	93.997	93.988	101.599	208.399	101.213	-8191	255	
35796.625	1	1	0	0	0.016305	0.17644	0.11738	0.12435	0.10086	0.16065	0.26818	0.27224	0.26064	0.14448	0.092838	0.1465	0.099034	0.11405	0.13011	0.010406	-1.4688	-2.5333	-2.2479	-2.1354	-2.6937	-2.0521	-2.3042	-2.4688	-1.9896	-2.5021	-2.3187	-2.0646	-2.6271	-2.075	-2.1917	-2.7125	428.990	199.348	413.822	372.510	356.168	406.142	165.147	392.542	279.854	278.193	331.296	353.478	368.615	251.762	129.821	256.731	0.00032705	0.00020799	9.9812e-05	1051	2.4638e-06	1.0503e-06	1146.2	218.02	3.1303e-06	2.5796e-06	276.06	77.247	61.205	17.695	2.3669e-06	24.889	0.00041439	0.00047693	0.00013804	1036.2	5.2016e-06	5.3649e-06	1133.9	216.62	5.1646e-06	5.3711e-06	275.65	77.988	61.158	18.042	5.2788e-06	25.385	135.415	168.271	151.934	80.393	203.716	221.749	80.132	87.729	209.977	193.586	87.135	94.123	94.672	101.670	206.950	101.407	-8191	255	
35796.719	1	1	0	0	0.1057	0.14853	0.20812	0.31217	0.29534	0.11537	0.18123	0.183	0.22508	0.062569	0.1438	0.15608	0.12653	0.016013	0.071786	0.14116	-1.5187	-2.3688	-2.4521	-1.8937	-2.675	-2.0687	-2.2125	-2.7938	-1.85	-2.4562	-2.4375	-2.0771	-2.6292	-2.3479	-1.8792	-2.6188	165.272	396.088	122.218	100.068	209.863	407.641	355.671	115.185	77.377	217.779	402.628	106.028	425.091	159.207	244.846	243.182	0.00032139	0.00019189	0.00010661	1056.2	3.5254e-06	2.9035e-06	1135.2	217.22	3.1726e-06	2.757e-06	276.22	76.985	61.203	17.783	1.9008e-06	24.924	0.00039916	0.00050952	0.0001321	1038.2	5.0381e-06	5.6995e-06	1129.2	216.38	5.4777e-06	5.4593e-06	275.92	77.941	61.139	18.055	5.0797e-06	25.424	138.573	155.537	158.354	80.335	230.975	197.317	80.148	87.907	222.069	223.510	87.403	93.807	94.387	101.942	223.324	100.898	-8191	255	
35796.840	1	1	0	0	0.20529	0.10781	0.12246	0.29731	0.29056	0.13764	0.024475	0.12285	0.15965	0.12906	0.34599	0.1829	0.33565	0.046877	0.27889	0.096137	-1.4937	-2.2062	-2.5833	-1.8604	-2.5417	-2.3083	-2.1771	-2.7167	-1.8333	-2.3146	-2.6937	-1.8479	-2.4854	-2.3583	-1.9688	-2.7375	107.164	146.490	410.531	403.961	353.392	391.537	265.773	72.621	96.804	376.415	385.162	88.545	284.242	94.064	399.752	105.910	0.00032306	0.00030379	6.6339e-05	1051	3.824e-06	2.4568e-06	1146.5	216.57	3.1756e-06	3.0057e-06	276.62	77.45	61.107	17.822	2.4894e-06	24.926	0.00040233	0.00048315	0.00012843	1037	5.2369e-06	5.4619e-06	1131.7	216.06	5.2609e-06	5.0885e-06	275.45	77.957	61.216	18.04	5.3825e-06	25.405	140.142	148.489	182.472	80.198	226.337	209.544	80.231	87.772	230.707	229.151	87.197	93.866	94.297	101.526	224.230	101.279	-8191	255	
35796.938	1	1	0	0	0.079277	0.31539	0.2404	0.27314	0.19663	0.15615	0.38863	0.13574	0.1434	0.11119	0.18738	0.16985	0.19014	0.029503	0.12178	0.095033	-1.5708	-2.2042	-2.5812	-1.8729	-2.5	-2.4771	-2.0958	-2.8625	-2.0375	-1.9833	-2.8792	-2.0042	-2.6562	-2.5146	-1.7938	-2.925	184.071	342.033	406.435	361.567	237.827	230.601	366.269	138.071	205.300	113.269	368.655	334.671	365.483	272.471	373.529	234.200	0.00030142	0.00030754	6.0188e-05	1048	2.3841e-06	4.1004e-06	1138.9	217	2.9965e-06	3.7829e-06	276.45	77.38	61.435	17.783	2.1099e-06	25.049	0.0003939	0.0004981	0.00012469	1035.9	5.0716e-06	5.4907e-06	1130	216.36	4.9588e-06	5.3212e-06	275.61	78.087	61.314	18.039	5.1933e-06	25.515	137.015	158.677	165.253	80.222	227.070	214.252	80.030	87.916	220.774	195.964	86.824	93.917	94.817	101.570	210.143	101.046	-8191	255	
35797.031	1	1	0	0	0.14934	0.064289	0.10387	0.14637	0.16483	0.22493	0.35312	0.23625	0.28657	0.16396	0.11899	0.13413	0.088763	0.10617	0.027606	0.1538	-1.825	-2.0708	-2.7667	-1.9646	-2.3021	-2.5417	-2.0771	-2.8104	-2.2542	-2.0396	-2.8479	-2.1417	-2.3125	-2.5396	-1.8792	-2.6688	132.077	343.227	393.329	390.032	154.334	107.943	390.686	70.274	82.698	269.432	287.517	140.674	322.962	331.330	106.008	94.695	0.00030107	0.00021021	8.286e-05	1050.1	2.8895e-06	3.2662e-06	1141.1	217.78	2.7981e-06	3.3208e-06	277.35	77.654	60.806	17.702	2.6845e-06	24.883	0.00038172	0.00050478	0.00013254	1037	5.3177e-06	5.2594e-06	1130.5	216.72	4.9027e-06	5.0598e-06	277.25	78.1	61.323	18.037	5.0496e-06	25.429	132.527	160.982	162.783	80.030	206.556	219.114	80.312	87.845	199.501	255.274	87.136	94.079	94.841	101.914	228.627	101.233	-8191	255	
35797.152	1	1	0	0	0.13398	0.33084	0.18186	0.17225	0.065102	0.17597	0.2325	0.085075	0.097434	0.18074	0.14304	0.14359	0.31952	0.32771	0.17494	0.16417	-1.8604	-1.9229	-2.6583	-2.05	-2.1271	-2.7521	-2.1708	-2.6188	-2.2979	-2.0917	-2.8417	-2.1333	-2.2417	-2.6562	-1.8479	-2.6813	98.522	174.464	429.151	129.775	386.024	391.227	70.108	422.871	314.444	382.160	329.883	144.550	83.521	80.744	405.915	389.427	0.00030099	0.00014003	7.3088e-05	1047.9	3.4475e-06	1.9586e-06	1138.3	218.51	3.342e-06	2.5405e-06	276.39	77.805	61.069	17.699	3.3978e-06	24.92	0.00037987	0.00048556	0.00012639	1036.5	5.5258e-06	4.8918e-06	1131.8	216.95	5.3178e-06	5.8068e-06	276.2	78.106	61.213	18.102	5.6163e-06	25.506	135.785	122.056	170.647	79.978	205.157	244.967	79.790	87.479	210.355	255.955	86.869	94.162	94.575	101.867	227.974	101.000	-8191	255	
35797.227	1	1	0	0	0.12743	0.25807	0.20414	0.18563	0.065679	0.21755	0.13222	0.31043	0.089454	0.12079	0.12693	0.22367	0.10625	0.18666	0.2717	0.12873	-2.2083	-1.8896	-2.5833	-2.0229	-2.15	-2.7167	-2.1521	-2.4917	-2.3187	-1.9979	-2.725	-2.1188	-1.9917	-2.7417	-1.9312	-2.3667	359.874	257.121	236.648	89.919	231.687	177.888	426.557	282.588	86.498	209.237	86.957	413.466	386.332	344.592	186.478	408.933	0.0003392	0.00028078	9.2896e-05	1050.3	3.4793e-06	2.158e-06	1143.5	217.84	3.814e-06	2.0728e-06	276.83	78.02	60.351	17.818	2.9123e-06	24.84	0.00038242	0.00051732	0.00014119	1036.8	5.6642e-06	5.1231e-06	1133.1	216.59	5.1923e-06	5.4211e-06	276.38	78.103	61.121	18.094	5.2252e-06	25.473	138.560	161.977	171.719	80.339	211.301	244.480	80.079	87.895	225.798	183.328	87.294	94.282	94.751	101.316	212.397	100.821	-8191	255	
35797.320	1	1	0	0	0.12745	0.14926	0.12183	0.019463	0.25527	0.12146	0.3226	0.32812	0.25987	0.15706	0.23711	0.027231	0.14224	0.07337	0.26762	0.094398	-2.1021	-1.7042	-2.5938	-2.4	-2.05	-2.6604	-2.0563	-2.25	-2.7417	-1.8188	-2.8333	-2.3375	-1.9562	-2.7229	-2.0875	-2.2062	335.834	206.872	168.179	374.999	371.172	263.758	353.557	72.312	110.069	345.127	126.945	231.081	324.465	324.027	220.288	417.697	0.00029963	0.00023114	0.0001162	1057.8	2.8014e-06	1.7656e-06	1145.1	217.74	3.4121e-06	3.9335e-06	277.77	77.456	61.016	17.9	3.4144e-06	25.043	0.00036827	0.00051007	0.00014569	1040.5	5.4608e-06	5.1209e-06	1132.7	216.92	5.2216e-06	5.7876e-06	277.05	78.09	61.282	18.162	5.267e-06	25.515	137.397	181.497	158.674	80.239	239.963	229.994	80.211	87.633	227.550	223.820	87.095	94.154	94.872	101.864	204.429	100.921	-8191	255	
35797.414	1	1	0	0	0.23796	0.10792	0.24151	0.23986	0.14963	0.17117	0.24989	0.088435	0.10579	0.10898	0.24523	0.22074	0.2137	0.15107	0.18871	0.13532	-2.1021	-1.8354	-2.7229	-2.2875	-2.0875	-2.7354	-2.2542	-2.2021	-2.5625	-2.0625	-2.4542	-2.3417	-1.9	-2.775	-1.9333	-1.9104	92.847	99.063	136.373	122.632	409.038	143.806	202.143	416.099	427.976	88.237	428.960	219.262	120.528	414.087	101.115	80.729	0.00030065	0.00020858	8.2458e-05	1049.6	3.5561e-06	2.2931e-06	1141.7	218.39	2.9349e-06	2.7027e-06	277.01	77.984	60.911	17.898	2.8669e-06	24.972	0.00038157	0.00050599	0.00013794	1038.2	5.7283e-06	5.3628e-06	1129.8	217.4	4.8232e-06	5.3286e-06	277.08	78.243	61.251	18.132	5.0842e-06	25.432	142.678	191.417	178.208	80.111	219.459	237.637	80.024	87.811	209.190	209.829	87.536	93.692	94.866	101.596	227.059	101.283	-8191	255	
35797.516	1	1	0	0	0.136	0.16445	0.25277	0.17064	0.067192	0.16549	0.15675	0.19032	0.085801	0.27058	0.19579	0.096531	0.29429	0.068751	0.2157	0.13319	-2.1063	-1.8083	-2.3438	-2.5396	-1.8146	-2.6792	-2.2542	-2.0708	-2.5312	-1.7917	-2.5125	-2.4229	-1.8625	-2.75	-2.1229	-2.0479	212.662	304.727	149.951	426.246	239.309	91.642	277.439	378.468	423.380	385.069	357.740	162.144	116.568	218.098	310.580	390.146	0.00033081	0.00037542	7.7948e-05	1042.2	3.5052e-06	1.8292e-06	1139.5	217.87	4.1313e-06	2.2892e-06	276.22	77.652	60.607	17.739	3.1516e-06	25.028	0.00039046	0.00050896	0.00013608	1033.9	5.6995e-06	5.2808e-06	1133	217.22	5.1194e-06	5.6984e-06	276.99	78.234	61.091	18.138	5.1952e-06	25.419	132.224	158.804	155.494	80.216	221.384	238.788	80.209	87.990	212.544	213.593	87.202	94.115	94.524	102.058	230.733	101.373	-8191	255	
#DATA ENDS
