BOXY.EXE: ISS Imagent and Oximeter Data Acquisition Program Version 0.80
Ascii Record File

#ACQ INFORMATION
2  Detector Channels 
16  External MUX Channels 
1  Auxiliary Channels 
5000  Waveform (CCF) Frequency (Hz)
1  Waveforms Skipped 
30  Waveforms Averaged 
1  Cycles Averaged 
16  Acquisitions per Waveform 
10.0806  Updata Rate (Hz) 

#FILE INFORMATION
TRUE -- External MUX Channel results are PARSED.
FALSE -- AC DC and Phase are NOT grouped.
TRUE -- Companion Program Settings File CREATED.
FALSE -- AC data not excluded
FALSE -- DC data not excluded
FALSE -- Phase data not excluded
FALSE -- Auxillary Chn. data not excluded
Tab delimiters

#CALIBRATION STATE
TRUE -- Waveform Calibration Values APPLIED.


#AUX CALIBRATION VALUES
Val Type	aux-1	

Term	1.0000e+00	
Factor	0.0000e+00	


#WF CALIBRATION VALUES
A = Detector Channel
Val Type	A-AC1	A-AC2	A-AC3	A-AC4	A-AC5	A-AC6	A-AC7	A-AC8	A-AC9	A-AC10	A-AC11	A-AC12	A-AC13	A-AC14	A-AC15	A-AC16	A-DC1	A-DC2	A-DC3	A-DC4	A-DC5	A-DC6	A-DC7	A-DC8	A-DC9	A-DC10	A-DC11	A-DC12	A-DC13	A-DC14	A-DC15	A-DC16	A-Ph1	A-Ph2	A-Ph3	A-Ph4	A-Ph5	A-Ph6	A-Ph7	A-Ph8	A-Ph9	A-Ph10	A-Ph11	A-Ph12	A-Ph13	A-Ph14	A-Ph15	A-Ph16	

Term	0.00000e+00	0.00000e+00	0.00000e+00	0.00000e+00	0.00000e+00	0.00000e+00	0.00000e+00	0.00000e+00	0.00000e+00	0.00000e+00	0.00000e+00	0.00000e+00	0.00000e+00	0.00000e+00	0.00000e+00	0.00000e+00	0.00000e+00	0.00000e+00	0.00000e+00	0.00000e+00	0.00000e+00	0.00000e+00	0.00000e+00	0.00000e+00	0.00000e+00	0.00000e+00	0.00000e+00	0.00000e+00	0.00000e+00	0.00000e+00	0.00000e+00	0.00000e+00	0.00000e+00	0.00000e+00	0.00000e+00	0.00000e+00	0.00000e+00	0.00000e+00	0.00000e+00	0.00000e+00	0.00000e+00	0.00000e+00	0.00000e+00	0.00000e+00	0.00000e+00	0.00000e+00	0.00000e+00	0.00000e+00	
Factor	1.00000e+00	1.00000e+00	1.00000e+00	1.00000e+00	1.00000e+00	1.00000e+00	1.00000e+00	1.00000e+00	1.00000e+00	1.00000e+00	1.00000e+00	1.00000e+00	1.00000e+00	1.00000e+00	1.00000e+00	1.00000e+00	1.00000e+00	1.00000e+00	1.00000e+00	1.00000e+00	1.00000e+00	1.00000e+00	1.00000e+00	1.00000e+00	1.00000e+00	1.00000e+00	1.00000e+00	1.00000e+00	1.00000e+00	1.00000e+00	1.00000e+00	1.00000e+00	X	X	X	X	X	X	X	X	X	X	X	X	X	X	X	X	

B = Detector Channel
Val Type	B-AC1	B-AC2	B-AC3	B-AC4	B-AC5	B-AC6	B-AC7	B-AC8	B-AC9	B-AC10	B-AC11	B-AC12	B-AC13	B-AC14	B-AC15	B-AC16	B-DC1	B-DC2	B-DC3	B-DC4	B-DC5	B-DC6	B-DC7	B-DC8	B-DC9	B-DC10	B-DC11	B-DC12	B-DC13	B-DC14	B-DC15	B-DC16	B-Ph1	B-Ph2	B-Ph3	B-Ph4	B-Ph5	B-Ph6	B-Ph7	B-Ph8	B-Ph9	B-Ph10	B-Ph11	B-Ph12	B-Ph13	B-Ph14	B-Ph15	B-Ph16	

Term	0.00000e+00	0.00000e+00	0.00000e+00	0.00000e+00	0.00000e+00	0.00000e+00	0.00000e+00	0.00000e+00	0.00000e+00	0.00000e+00	0.00000e+00	0.00000e+00	0.00000e+00	0.00000e+00	0.00000e+00	0.00000e+00	0.00000e+00	0.00000e+00	0.00000e+00	0.00000e+00	0.00000e+00	0.00000e+00	0.00000e+00	0.00000e+00	0.00000e+00	0.00000e+00	0.00000e+00	0.00000e+00	0.00000e+00	0.00000e+00	0.00000e+00	0.00000e+00	-1.60646e+02	-1.31022e+02	-1.25289e+02	-1.86209e+02	-7.18792e+01	-6.66958e+01	-1.58474e+02	-1.62015e+02	-7.97830e+01	-6.76213e+01	-1.72128e+02	-1.71386e+02	-1.83279e+02	-1.77394e+02	-7.09845e+01	-1.49699e+02	
Factor	2.28142e-05	1.35801e-04	4.02598e-05	2.77733e-01	1.31646e-06	1.49048e-06	1.53129e-01	4.67114e-02	1.21370e-06	1.46712e-06	7.52218e-02	2.47388e-02	3.57489e-02	7.91092e-03	1.34422e-06	1.11941e-02	1.85564e-05	4.45642e-05	1.25709e-05	1.49093e-01	4.45853e-07	5.11453e-07	7.76909e-02	2.52998e-02	4.01722e-07	5.10017e-07	3.95400e-02	1.30392e-02	1.96821e-02	4.33613e-03	4.36568e-07	5.95756e-03	X	X	X	X	X	X	X	X	X	X	X	X	X	X	X	X	



#DISTANCE SETTINGS
A = Detector Channel
A-1	A-2	A-3	A-4	A-5	A-6	A-7	A-8	A-9	A-10	A-11	A-12	A-13	A-14	A-15	A-16	

2.5000e+00	3.0000e+00	2.5000e+00	3.0000e+00	2.0000e+00	3.0000e+00	1.5000e+00	3.0000e+00	3.0000e+00	3.0000e+00	3.0000e+00	3.0000e+00	3.0000e+00	3.0000e+00	1.5000e+00	3.0000e+00	

B = Detector Channel
B-1	B-2	B-3	B-4	B-5	B-6	B-7	B-8	B-9	B-10	B-11	B-12	B-13	B-14	B-15	B-16	

1.0000e+01	1.0000e+01	1.0000e+01	1.4400e+00	1.0000e+01	1.0000e+01	1.5100e+00	1.9400e+00	1.0000e+01	1.0000e+01	1.9900e+00	2.4900e+00	2.4100e+00	2.9000e+00	1.0000e+01	2.9800e+00	




#DATA BEGINS
time	group	step	mark	flag	A-AC1	A-AC2	A-AC3	A-AC4	A-AC5	A-AC6	A-AC7	A-AC8	A-AC9	A-AC10	A-AC11	A-AC12	A-AC13	A-AC14	A-AC15	A-AC16	A-DC1	A-DC2	A-DC3	A-DC4	A-DC5	A-DC6	A-DC7	A-DC8	A-DC9	A-DC10	A-DC11	A-DC12	A-DC13	A-DC14	A-DC15	A-DC16	A-Ph1	A-Ph2	A-Ph3	A-Ph4	A-Ph5	A-Ph6	A-Ph7	A-Ph8	A-Ph9	A-Ph10	A-Ph11	A-Ph12	A-Ph13	A-Ph14	A-Ph15	A-Ph16	B-AC1	B-AC2	B-AC3	B-AC4	B-AC5	B-AC6	B-AC7	B-AC8	B-AC9	B-AC10	B-AC11	B-AC12	B-AC13	B-AC14	B-AC15	B-AC16	B-DC1	B-DC2	B-DC3	B-DC4	B-DC5	B-DC6	B-DC7	B-DC8	B-DC9	B-DC10	B-DC11	B-DC12	B-DC13	B-DC14	B-DC15	B-DC16	B-Ph1	B-Ph2	B-Ph3	B-Ph4	B-Ph5	B-Ph6	B-Ph7	B-Ph8	B-Ph9	B-Ph10	B-Ph11	B-Ph12	B-Ph13	B-Ph14	B-Ph15	B-Ph16	aux-1	digaux	

36071.797	1	1	0	256	0.33032	0.17386	0.12154	0.12082	0.19124	0.24331	0.20345	0.20867	0.12051	0.19366	0.16091	0.16625	0.016724	0.50936	0.26954	0.14227	-1.5354	-2.4896	-2.2542	-2.1437	-2.5792	-1.9458	-2.6771	-2.8083	-1.9354	-2.7354	-2.1958	-2.175	-2.8438	-1.7938	-2.4375	-2.5521	374.651	281.251	182.350	130.597	410.102	337.646	110.330	105.385	177.851	145.605	139.842	179.520	400.789	370.539	320.023	257.971	0.00013258	0.0010696	0.00044199	484.91	1.134e-05	1.8062e-05	457.6	145.23	1.0546e-05	4.1619e-06	148.83	41.875	41.262	13.956	7.3629e-07	17.126	0.058258	0.13963	0.03915	962.24	0.0013841	0.0015982	707.67	226.86	0.0012414	0.0015696	273.07	82.316	101.3	27.516	0.0012894	35.263	135.268	204.161	209.289	108.278	276.447	450.159	106.826	113.499	291.410	288.410	111.666	116.354	118.619	124.211	140.614	120.449	-8191	255	
36071.914	1	1	0	0	0.18578	0.13501	0.38851	0.23706	0.23238	0.1873	0.13943	0.20171	0.13701	0.055164	0.11157	0.35596	0.14506	0.2154	0.23593	0.0074262	-1.5792	-2.7229	-2.2333	-2.1333	-2.6958	-2.1063	-2.4146	-2.75	-2.0583	-2.7708	-2.2833	-2.0208	-2.7417	-2.0521	-2.1688	-2.7875	339.492	394.488	421.821	109.533	227.628	120.681	402.654	423.752	432.133	395.051	123.188	396.544	446.188	144.253	344.353	453.507	0.00025628	0.00058975	0.00058762	486.7	5.8551e-06	1.2547e-05	456.17	145.55	3.1543e-06	1.3932e-05	148.28	41.952	41.931	14.364	1.4538e-05	17.891	0.053103	0.12544	0.034752	900.23	0.0011859	0.0013247	661.07	209.96	0.00093586	0.00116	240.34	71.233	84.172	23.741	0.00087919	29.86	163.464	370.697	232.267	108.308	365.169	306.631	107.220	114.297	324.588	263.794	111.952	116.569	118.333	123.953	270.987	121.321	-8191	255	
36072.012	1	1	0	0	0.14826	0.10842	0.099453	0.16382	0.17365	0.09664	0.26309	0.15224	0.3311	0.094415	0.18082	0.24604	0.22817	0.1876	0.29452	0.10855	-1.4937	-2.5625	-2.3958	-1.8271	-2.825	-2.0563	-2.3417	-2.8875	-1.8687	-2.55	-2.5187	-2.075	-2.8937	-2.3667	-2.1771	-2.7708	274.931	351.523	323.038	349.393	403.704	219.500	450.157	133.355	392.710	373.004	374.935	318.237	403.599	374.282	173.658	304.867	0.00049233	0.00049207	0.00030724	489.41	2.947e-06	8.5473e-06	462.9	147.52	7.8301e-06	8.4352e-06	151.99	42.954	41.974	14.46	1.6787e-05	17.783	0.034912	0.08064	0.022179	752.49	0.0007564	0.00085694	599.49	192.05	0.00065432	0.00082827	219.59	65.245	75.201	22.007	0.00070426	27.999	121.175	433.379	220.750	108.578	275.135	351.577	107.170	113.998	426.389	387.567	111.675	115.933	118.298	123.927	210.403	120.987	-8191	255	
36072.105	1	1	0	0	0.057166	0.16296	0.37944	0.048379	0.18686	0.24071	0.26327	0.058691	0.041284	0.15166	0.19211	0.055617	0.25184	0.075171	0.1256	0.080582	-1.5083	-2.3688	-2.4437	-2.2229	-2.6042	-2.125	-2.2812	-2.8292	-2.1292	-2.3438	-2.7583	-2.0438	-2.7208	-2.4	-2.1271	-2.6854	272.203	195.102	426.036	440.817	175.232	278.316	388.197	450.623	351.344	131.813	359.466	104.011	373.578	202.130	202.306	123.369	0.00025507	0.00041852	0.0003313	491.15	4.4743e-06	6.3778e-06	463.93	148.27	1.2476e-05	1.2441e-05	154.4	43.807	42.918	14.585	9.418e-06	18.289	0.029936	0.070568	0.019498	722.75	0.00064233	0.00070963	578.36	184.58	0.00051335	0.00064095	206.33	60.203	67.283	20.274	0.00051206	25.68	144.678	248.705	263.350	108.740	202.997	111.543	107.532	113.833	303.718	223.311	111.350	116.317	118.091	123.935	254.428	120.656	-8191	255	
36072.227	1	1	0	0	0.19141	0.12055	0.12664	0.1339	0.24015	0.052177	0.0065907	0.21405	0.12837	0.051749	0.18837	0.24659	0.18828	0.31981	0.29316	0.27075	-1.6625	-2.2417	-2.6396	-1.8917	-2.6958	-2.3812	-2.1208	-2.7125	-2.2396	-2.2833	-2.7333	-1.9562	-2.6583	-2.4375	-1.9854	-2.825	445.179	207.403	299.205	441.597	382.720	367.139	378.862	371.003	126.285	187.090	423.930	315.985	349.889	447.466	102.873	418.416	0.00032226	0.00072978	0.00019335	487.31	7.5607e-06	1.2164e-05	465.66	148.42	4.2705e-06	3.0568e-06	155.73	43.585	42.798	14.579	1.0126e-05	18.049	0.021662	0.051705	0.014316	668.08	0.00049444	0.00055477	556.99	178.03	0.00039581	0.00048637	194.74	56.083	60.881	18.808	0.0003593	23.533	135.350	190.501	208.513	108.206	343.148	179.833	107.177	114.173	159.427	244.249	111.740	115.786	119.046	124.291	168.296	120.639	-8191	255	
36072.301	1	1	0	0	0.10473	0.090909	0.12499	0.093751	0.1221	0.073518	0.25848	0.13355	0.12966	0.17854	0.22001	0.18784	0.35794	0.17396	0.12045	0.23347	-1.5958	-2.2708	-2.7333	-1.8542	-2.5104	-2.4917	-2.1312	-2.7042	-2.1437	-2.1	-2.7583	-1.8312	-2.6208	-2.7396	-1.9771	-2.8542	153.660	429.824	98.153	364.530	244.376	316.949	366.012	233.724	274.638	146.715	359.187	359.093	300.213	387.211	311.085	316.670	0.00032421	0.00022472	8.3698e-05	494.73	1.0259e-05	1.5808e-05	471.54	151.24	7.2449e-06	7.9969e-06	156.34	43.433	42.869	14.968	4.6799e-06	18.385	0.01482	0.035193	0.0097165	614.74	0.00033918	0.00039071	538.46	173.42	0.00030874	0.00039157	189.79	54.698	59.491	18.67	0.00033547	23.579	126.747	193.944	334.502	108.510	252.474	195.133	106.799	114.100	197.995	111.428	111.841	116.391	118.939	123.666	389.779	120.861	-8191	255	
36072.395	1	1	0	0	0.097681	0.13444	0.17053	0.12087	0.17553	0.13151	0.25038	0.1458	0.1014	0.024936	0.26805	0.32107	0.11524	0.14619	0.11082	0.15519	-1.9146	-2.1875	-2.8542	-1.9813	-2.4354	-2.5271	-2.0667	-2.6375	-2.3979	-1.8937	-2.8354	-2.1104	-2.2458	-2.7396	-2.0125	-2.7292	447.339	137.196	392.204	373.390	429.079	285.465	371.509	420.629	425.842	121.891	434.237	180.085	436.223	249.606	126.944	315.262	0.00019196	0.00040358	0.00018423	495.03	1.0049e-05	6.8328e-06	474.85	150.87	4.7178e-06	2.8475e-06	155.35	43.559	42.18	14.652	1.2569e-05	17.952	0.014565	0.03505	0.0099586	621.98	0.00036095	0.00041608	546.42	176.01	0.00035722	0.00046745	196.29	57.012	63.449	19.582	0.0004657	25.086	169.808	366.460	360.627	108.647	305.790	408.979	107.500	114.154	167.600	158.640	111.385	116.127	118.479	124.331	164.001	120.608	-8191	255	
36072.516	1	1	0	0	0.43155	0.029639	0.18133	0.067345	0.19179	0.25173	0.1063	0.014079	0.15284	0.13015	0.074921	0.14436	0.19325	0.14571	0.23776	0.13024	-2.0062	-1.9667	-2.7354	-1.9833	-2.1604	-2.6542	-2.1167	-2.6146	-2.4479	-1.9646	-2.8979	-2.3167	-2.2875	-2.7313	-1.9458	-2.4167	212.397	129.391	391.838	380.087	386.127	443.211	137.877	160.109	356.850	248.635	389.380	425.890	175.794	169.839	372.652	325.990	0.00031629	0.00094838	0.00032594	502.13	6.5197e-06	1.8955e-06	472.6	149.36	7.8786e-06	2.063e-05	154.17	42.862	42.013	14.533	9.8226e-06	18.046	0.02081	0.050411	0.014367	679.72	0.00052768	0.00060228	571.77	183.6	0.00047477	0.00060076	204.47	58.922	66.411	20.138	0.00051313	25.616	160.955	418.667	168.816	108.432	456.160	330.730	106.786	114.242	383.081	240.737	111.472	116.165	118.327	123.887	217.703	120.991	-8191	255	
36072.613	1	1	0	0	0.17632	0.028983	0.13048	0.19737	0.18052	0.38963	0.27826	0.19072	0.17709	0.14208	0.20943	0.092423	0.25158	0.0794	0.24683	0.047816	-2.2125	-2.0104	-2.6271	-2.1875	-1.9833	-2.7438	-2.2313	-2.5917	-2.6063	-2.0271	-2.6458	-2.575	-1.85	-2.9021	-1.9708	-2.4146	224.138	175.730	181.454	446.691	228.840	352.385	385.386	389.766	367.901	135.051	256.776	210.598	288.526	140.256	111.840	148.168	0.00018356	0.0018155	0.00033793	495.09	1.4177e-05	7.3074e-07	471.26	149.56	1.2319e-05	2.2922e-06	153.69	42.257	42.144	14.533	7.0033e-06	17.893	0.02198	0.053252	0.015041	685.52	0.00054348	0.0006254	574.87	184	0.00049645	0.00063637	205.62	59.433	67.097	20.32	0.00052601	25.704	161.213	321.302	176.977	107.995	126.286	341.945	106.930	114.073	172.543	417.089	111.409	116.040	117.748	123.850	456.053	120.388	-8191	255	
36072.707	1	1	0	0	0.12628	0.083491	0.27836	0.11251	0.15624	0.10411	0.21441	0.063859	0.051709	0.20466	0.1449	0.17791	0.22248	0.21696	0.2567	0.11751	-2.2354	-1.9021	-2.5479	-2.4792	-1.8333	-2.8521	-2.1917	-2.2729	-2.6083	-2	-2.6521	-2.4167	-1.7479	-2.7438	-2.1833	-2.3542	269.370	342.678	352.916	384.097	231.518	309.342	397.896	353.230	163.250	116.885	143.573	409.573	267.615	116.055	281.167	346.074	0.00028831	0.00043409	0.00020491	493.87	1.4432e-05	5.1713e-06	469.85	148.41	6.9097e-06	1.1438e-05	152.49	42.581	41.997	14.767	1.5642e-05	18.164	0.022189	0.052132	0.014483	669.6	0.00050132	0.00057093	561.62	179.88	0.00043015	0.00054035	198.06	57.201	63.532	19.617	0.00044414	24.835	108.259	110.234	181.524	108.354	224.043	216.918	107.132	113.775	202.471	135.096	111.322	115.804	118.096	124.260	186.899	120.339	-8191	255	
36072.805	1	1	0	0	0.13526	0.13233	0.051389	0.12264	0.13266	0.1852	0.16378	0.17772	0.26435	0.11889	0.1404	0.19643	0.10254	0.070221	0.067935	0.12977	-2.3458	-2.0583	-2.5479	-2.4146	-1.9146	-2.8708	-2.2208	-2.1979	-2.8542	-1.8667	-2.525	-2.5229	-2.1188	-2.6646	-2.1604	-2.3708	348.688	311.281	98.376	258.581	221.145	244.519	140.440	100.515	289.217	181.560	237.511	229.285	401.440	309.249	385.853	150.898	0.00019527	0.00063137	0.00029818	491.63	1.2176e-06	5.9087e-06	469.15	149.8	7.7837e-06	3.0103e-06	153.64	43.275	42.279	14.985	4.2769e-06	18.587	0.018804	0.044532	0.012578	650.05	0.00044082	0.00050467	552.82	176.83	0.00038887	0.00048666	194.37	56.194	62.138	19.583	0.00041324	24.751	138.638	183.076	129.294	108.277	238.661	234.708	106.789	113.566	266.694	337.030	110.839	115.658	117.983	123.937	206.293	119.962	-8191	255	
36072.898	1	1	0	0	0.21407	0.23474	0.10405	0.058794	0.1863	0.24281	0.099213	0.20102	0.15148	0.11365	0.090178	0.22806	0.11031	0.016962	0.22025	0.29147	-2.1979	-1.9146	-2.2958	-2.6312	-2.0646	-2.7625	-2.2792	-1.9771	-2.7062	-2.0521	-2.0854	-2.5708	-1.9813	-2.7396	-2.2604	-2.0062	338.988	306.292	233.867	310.791	286.037	307.992	385.876	414.560	336.395	300.289	381.904	156.376	265.523	300.871	408.918	409.505	0.00044015	0.0003048	7.3002e-05	492.25	8.5289e-06	1.4913e-05	468.81	149.71	6.1267e-06	7.2157e-06	153.8	43.101	42.658	15.071	1.8144e-07	18.648	0.017967	0.042699	0.012156	647.18	0.00043869	0.00049989	553.41	177.68	0.00039881	0.00050955	196.37	56.879	63.144	19.903	0.00043202	25.119	146.812	360.942	258.141	108.115	384.288	430.170	106.665	113.500	260.447	443.824	110.772	116.065	118.164	123.727	224.920	120.585	-8191	255	
36072.996	1	1	0	0	0.11424	0.29482	0.13832	0.11592	0.27764	0.18422	0.10948	0.066012	0.21704	0.19577	0.18259	0.25549	0.19651	0.28817	0.26376	0.1784	-2.3229	-2.0604	-2.2167	-2.7687	-1.7667	-2.5938	-2.4042	-1.9937	-2.8063	-2.1188	-2.1125	-2.5375	-1.8292	-2.5292	-2.6312	-1.7542	147.869	153.988	328.909	275.756	276.630	204.222	117.619	184.715	381.180	126.407	434.684	402.086	366.546	212.747	167.593	132.008	0.00014303	0.0010106	0.00026473	495.3	7.6343e-06	1.2456e-05	471.34	150.51	4.5499e-06	1.2769e-05	155.58	43.527	42.881	15.159	7.8782e-06	18.629	0.018573	0.044358	0.012401	650.11	0.00044207	0.00050072	556.1	178.07	0.00039344	0.00049767	196.73	57.333	63.131	19.877	0.0004242	25.124	435.910	158.940	154.489	108.396	377.631	170.662	107.011	113.769	371.709	224.301	111.422	115.678	118.584	124.117	111.477	120.014	-8191	255	
36073.090	1	1	0	0	0.20383	0.088058	0.066682	0.21014	0.26719	0.20962	0.17926	0.21506	0.25465	0.31711	0.32947	0.1798	0.090618	0.15931	0.18326	0.21431	-2.3771	-2.0938	-1.925	-2.6083	-1.9021	-2.2771	-2.6021	-1.9604	-2.6688	-2.1625	-1.9875	-2.7104	-1.8958	-2.4167	-2.4521	-1.8917	419.513	251.813	114.750	107.090	443.613	213.733	191.704	97.435	420.673	248.005	297.005	451.513	438.297	185.548	417.679	173.030	0.00019647	0.00086114	0.00020491	492.96	1.1442e-05	8.5325e-06	471.79	149.86	6.6987e-06	8.9224e-06	154.16	43.962	43.248	15.197	5.2323e-06	18.843	0.01816	0.043151	0.012143	643.84	0.00042611	0.00048583	554.13	177.26	0.0003803	0.00048417	196.39	57.027	62.764	19.796	0.00041089	25.067	139.886	343.125	161.409	107.799	273.821	297.028	107.158	114.030	342.357	189.747	110.848	116.092	118.277	123.607	319.316	120.669	-8191	255	
36073.188	1	1	0	0	0.055341	0.13914	0.4235	0.06812	0.1702	0.012299	0.20471	0.24353	0.13157	0.20908	0.31628	0.191	0.23319	0.23037	0.19162	0.21713	-2.1896	-2.2396	-1.9083	-2.6417	-2.0792	-2.3563	-2.6083	-2.075	-2.5062	-2.4021	-1.8563	-2.7292	-2.1896	-2.0312	-2.8	-1.925	292.323	278.958	365.666	244.320	302.436	235.049	378.216	427.945	194.936	195.331	135.852	113.648	434.149	178.456	392.683	405.922	0.00027578	0.00051412	0.0001077	491.56	8.9227e-06	9.2258e-06	469.88	150.9	3.3262e-06	2.9558e-06	155.18	43.878	43.315	15.344	4.2949e-06	18.98	0.017678	0.041833	0.011914	642.07	0.00041867	0.0004782	551.86	177.39	0.00037079	0.00046766	195.33	56.83	62.156	19.766	0.00039714	25.01	117.878	120.709	99.523	108.614	224.736	346.926	106.766	113.717	185.802	383.656	111.269	116.114	118.604	123.754	352.152	120.435	-8191	255	
36073.309	1	1	0	0	0.04222	0.14199	0.089032	0.1356	0.098364	0.11999	0.30807	0.11065	0.15115	0.025439	0.090132	0.14651	0.19813	0.25417	0.27712	0.17466	-2.2562	-2.3979	-1.8	-2.625	-1.9854	-2.1042	-2.6271	-2.1688	-2.4625	-2.5625	-1.9646	-2.675	-2.1396	-2.0896	-2.8667	-2.0792	454.448	213.379	185.595	154.413	242.250	350.524	344.518	428.082	355.295	260.649	194.446	261.529	415.390	389.102	379.745	390.712	0.00034686	0.00052805	0.0001537	500.06	2.6518e-06	5.9163e-06	471.16	151.64	5.3086e-06	1.5156e-05	157.18	44.078	43.415	15.343	9.3513e-06	19.203	0.017025	0.040646	0.011476	639.87	0.00040478	0.00046146	550.49	176.99	0.00035801	0.00045942	195.51	56.885	62.097	19.824	0.00039413	25.175	142.275	260.646	429.753	107.933	160.047	196.788	106.770	113.276	169.289	190.333	111.194	116.087	118.555	124.148	406.167	120.646	-8191	255	
36073.402	1	1	0	0	0.19135	0.14047	0.19097	0.17689	0.32129	0.1739	0.31063	0.12159	0.23914	0.30649	0.10152	0.28212	0.18648	0.03995	0.22404	0.14683	-2.0646	-2.55	-1.8104	-2.7583	-2.2417	-1.9208	-2.6167	-2.0917	-2.3333	-2.5042	-2.0563	-2.7021	-2.4021	-1.9875	-2.6479	-2.1604	277.753	292.985	372.053	274.244	142.807	364.920	292.781	315.870	346.999	415.148	251.625	431.793	191.384	244.263	112.486	272.873	0.00032477	0.00046228	0.00021883	494.4	2.4083e-06	6.5088e-06	477.7	151.65	2.1998e-06	8.0219e-06	158.13	44.489	43.824	15.582	2.2743e-06	19.355	0.016875	0.040152	0.011361	636.61	0.00040306	0.00046236	554.53	177.62	0.00036039	0.00045856	196.98	57.376	62.589	20.005	0.00039508	25.327	153.969	127.542	232.551	108.439	389.103	325.775	106.695	113.918	411.102	335.263	111.204	116.276	117.699	124.017	302.426	120.313	-8191	255	
36073.500	1	1	0	0	0.14905	0.011085	0.20033	0.173	0.026934	0.25783	0.13703	0.29247	0.16744	0.2662	0.11277	0.21521	0.30902	0.22358	0.24854	0.17067	-1.9042	-2.6688	-1.8979	-2.6396	-2.325	-2.0479	-2.7792	-2.2458	-2.1	-2.5708	-2.0646	-2.5292	-2.4646	-1.8563	-2.5896	-2.2062	434.808	332.229	132.886	424.708	372.927	229.087	317.923	376.465	99.347	377.151	429.618	410.951	352.866	108.955	183.575	421.930	0.0002252	0.00092958	8.8435e-05	498.46	7.9545e-06	1.0883e-05	479.52	151.55	8.384e-06	1.0335e-05	159.17	45.706	43.82	15.564	2.7323e-06	19.197	0.017013	0.040673	0.011572	642.27	0.0004072	0.00047281	558.3	178.25	0.00036756	0.00046994	198.78	58.193	63.236	20.1	0.00040417	25.429	177.776	220.881	102.256	108.396	331.460	189.154	106.768	113.629	309.790	319.707	111.386	116.352	118.397	124.014	274.101	120.742	-8191	255	
36073.598	1	1	0	0	0.24285	0.21847	0.29617	0.16819	0.23704	0.026261	0.20234	0.20265	0.073573	0.19402	0.32508	0.087903	0.093205	0.36933	0.34812	0.10727	-1.5354	-2.6229	-1.9083	-2.4271	-2.6333	-1.6854	-2.6312	-2.0833	-1.8042	-2.8167	-2.1042	-2.5333	-2.775	-2.0729	-2.5542	-2.425	156.442	393.137	290.923	422.554	116.532	428.700	381.518	433.012	440.620	299.723	420.392	346.856	242.407	432.206	158.462	369.455	0.00019339	0.00054873	0.00026935	495.54	1.6743e-05	6.4769e-06	474.7	151.69	2.2657e-06	1.3088e-05	158.53	44.981	43.72	15.674	1.2291e-05	19.28	0.017188	0.040822	0.011591	641.64	0.00041079	0.00047081	557.17	178.65	0.00037045	0.00047354	197.89	58.176	63.465	20.224	0.0004121	25.577	141.027	223.045	285.295	108.390	203.765	108.167	106.914	113.350	454.075	114.648	111.168	115.745	118.241	123.955	350.416	120.898	-8191	255	
36073.691	1	1	0	0	0.13545	0.32766	0.077608	0.12121	0.06858	0.15822	0.22965	0.31746	0.072472	0.18477	0.17185	0.33289	0.14069	0.26135	0.28308	0.019664	-1.4667	-2.7729	-2.1292	-2.2521	-2.6208	-1.9021	-2.6437	-2.375	-2.1271	-2.7521	-2.0958	-2.15	-2.7313	-2.0208	-2.375	-2.4417	140.395	96.962	268.474	323.872	288.175	255.529	341.065	104.083	232.084	455.567	157.289	393.656	260.009	349.255	246.207	225.213	0.00037473	0.00051426	0.00010851	497.98	2.8987e-06	3.3711e-06	478.69	151.46	3.4545e-06	3.83e-07	158.95	44.915	44.043	15.491	9.5492e-06	19.465	0.017845	0.042627	0.012035	649.46	0.00043056	0.00049152	561.47	179.42	0.00039047	0.00049573	199.36	58.595	63.903	20.163	0.00042276	25.688	138.535	452.573	186.276	108.119	299.428	254.943	107.017	114.068	194.749	105.191	111.059	116.348	118.627	123.773	270.921	120.198	-8191	255	
36073.789	1	1	0	0	0.068181	0.10577	0.046366	0.19381	0.144	0.2594	0.28675	0.076994	0.14338	0.1016	0.23119	0.25913	0.15881	0.26857	0.2531	0.24494	-1.4875	-2.6312	-2.1542	-2.0917	-2.75	-1.7896	-2.4979	-2.5292	-1.9229	-2.5438	-2.2375	-2.1104	-2.6417	-1.9833	-2.3792	-2.5896	183.593	339.887	188.284	309.385	104.067	147.904	417.215	337.640	387.837	350.062	365.761	312.896	442.932	120.433	213.883	429.964	0.00031948	0.0011959	9.9878e-05	494.77	2.6692e-06	4.8531e-06	474.26	152.22	6.9481e-06	1.3859e-05	159.84	45.246	43.918	15.438	6.177e-06	19.202	0.018337	0.04388	0.012362	650.54	0.000441	0.00050574	562.32	180.47	0.00040162	0.00050882	200.91	59.149	65.005	20.389	0.00044483	25.978	190.463	240.315	283.849	108.131	342.050	314.773	107.250	114.052	272.263	353.490	111.151	116.396	118.672	123.892	346.409	120.974	-8191	255	
36073.906	1	1	0	0	0.21751	0.12796	0.19822	0.12325	0.3145	0.31124	0.37709	0.21511	0.17002	0.27852	0.10815	0.10175	0.2396	0.12743	0.098856	0.11457	-1.4625	-2.7521	-2.4708	-1.9167	-2.6625	-2.0687	-2.4604	-2.6792	-1.95	-2.7313	-2.4833	-2.2188	-2.9604	-2.1562	-2.2562	-2.7792	202.100	133.211	111.193	283.479	352.025	337.759	358.274	146.179	188.177	413.081	441.072	332.746	219.623	189.217	169.911	239.927	0.00033404	0.00085945	0.00023187	493.18	9.1017e-06	6.2259e-06	481.17	151.98	1.0346e-05	3.7462e-06	158.38	45.311	44.131	15.474	3.5644e-06	19.397	0.019214	0.045655	0.012785	658.95	0.00046449	0.00053184	567.17	181.45	0.00041823	0.00052892	202.74	60.07	65.876	20.582	0.00046324	26.362	158.389	381.322	162.305	108.669	201.247	270.510	107.054	113.569	263.600	387.124	110.822	116.275	118.268	124.002	431.165	120.811	-8191	255	
36074.004	1	1	0	0	0.093887	0.14018	0.19244	0.19979	0.15662	0.13448	0.13653	0.1677	0.16922	0.13984	0.30076	0.074824	0.14611	0.10946	0.094674	0.10479	-1.7188	-2.6417	-2.2979	-2.0187	-2.675	-2.15	-2.225	-2.7667	-1.9646	-2.5563	-2.4479	-1.9646	-2.6188	-2.1604	-2.1917	-2.9062	305.637	449.798	376.522	345.471	125.782	279.144	225.968	120.947	313.174	388.066	414.649	297.807	443.062	344.409	152.515	171.996	0.00029721	0.0010555	0.00024215	501.06	6.6222e-06	7.9826e-06	478.28	151.84	8.2508e-06	3.3311e-06	159.17	45.538	43.76	15.327	1.045e-05	19.29	0.020068	0.04769	0.013432	668.52	0.00047691	0.00054777	569.31	182.08	0.0004285	0.00054019	203.67	60.109	65.842	20.532	0.00046513	26.167	173.295	288.597	269.307	108.215	399.381	274.896	106.849	113.943	223.047	452.854	111.426	115.780	118.195	123.906	258.537	120.675	-8191	255	
36074.102	1	1	0	0	0.35007	0.12786	0.27868	0.22056	0.10231	0.2358	0.21964	0.22049	0.16833	0.22171	0.23146	0.11745	0.27039	0.11747	0.34167	0.10809	-1.5042	-2.4458	-2.3563	-1.9021	-2.7125	-2.2	-2.0208	-2.9188	-1.8937	-2.3812	-2.5708	-1.9479	-2.5604	-2.3896	-2.0062	-2.6333	397.275	107.320	433.162	361.726	404.643	307.537	106.858	102.159	437.227	156.034	287.657	132.676	412.986	117.304	405.336	250.265	0.00034589	0.00062379	7.1192e-05	493.84	1.06e-05	7.8553e-06	479.22	151.29	1.6472e-06	1.5923e-05	158.67	45.361	43.956	15.428	8.0797e-06	19.108	0.019862	0.047097	0.01337	662.67	0.00047273	0.00053494	565.95	180.9	0.00041602	0.00052412	202.1	59.854	65.123	20.345	0.0004483	25.873	184.444	272.231	393.751	108.475	187.412	205.408	106.967	114.023	369.241	302.223	111.051	115.683	118.310	124.142	217.279	120.802	-8191	255	
36074.195	1	1	0	0	0.25886	0.16412	0.068831	0.20615	0.2802	0.16637	0.049102	0.0075239	0.12157	0.15252	0.11453	0.36338	0.10257	0.068169	0.1456	0.2491	-1.5104	-2.2438	-2.5812	-1.9375	-2.6521	-2.2313	-1.9125	-2.7625	-1.9688	-2.3125	-2.7	-1.9646	-2.4979	-2.5687	-2.0104	-2.7313	212.014	130.168	123.725	108.321	253.902	155.820	247.533	258.591	391.471	213.350	356.441	390.703	367.984	364.829	338.736	349.727	0.00023039	0.0011267	0.00020045	497.07	1.0521e-05	1.1029e-05	477.01	151.97	6.5571e-06	1.2866e-05	158.45	45.549	43.635	15.306	6.825e-06	19.243	0.01917	0.045695	0.012928	657.08	0.00045516	0.00051971	563.85	180.93	0.00040454	0.00051942	201.64	59.505	64.935	20.229	0.00043534	25.749	171.313	234.951	255.676	108.146	351.507	257.533	107.055	113.661	162.632	262.828	111.879	116.224	118.206	123.482	182.887	121.127	-8191	255	
36074.293	1	1	0	0	0.11083	0.14535	0.2769	0.10395	0.27638	0.058743	0.22154	0.28645	0.19713	0.10261	0.27181	0.082118	0.17622	0.13685	0.092762	0.11595	-1.4479	-2.0479	-2.7354	-1.9354	-2.3042	-2.5333	-1.95	-2.5958	-2.2396	-1.9042	-2.8104	-1.9	-2.3375	-2.5687	-1.9042	-2.6708	342.133	255.867	409.604	108.180	148.728	156.558	100.644	376.033	436.261	145.807	407.667	102.937	393.980	96.012	166.415	387.599	0.00026776	0.0012839	0.00032326	497.34	5.9548e-06	8.6929e-06	474.45	151.35	7.2522e-07	1.0187e-05	157.67	45.525	44.533	15.348	6.4257e-06	19.415	0.018363	0.044154	0.012243	649.04	0.00042749	0.00049213	559.67	179.07	0.00038306	0.00048858	199.8	58.976	64.18	20.106	0.0004124	25.68	117.856	440.387	303.210	108.463	283.437	249.157	107.148	113.730	120.686	385.516	111.664	115.966	118.179	124.134	402.262	121.050	-8191	255	
36074.387	1	1	0	0	0.16963	0.066646	0.21992	0.11669	0.32573	0.026362	0.078294	0.32132	0.33041	0.059606	0.12041	0.1328	0.20135	0.059855	0.13781	0.3174	-1.9062	-1.9833	-2.5875	-1.9667	-2.4938	-2.55	-2.0646	-2.6375	-2.4188	-2.1854	-2.7313	-2.1104	-2.1604	-2.7208	-1.9479	-2.5062	359.817	370.576	400.285	356.964	436.432	228.913	97.562	195.302	121.966	145.324	301.062	136.341	239.262	121.002	390.453	364.085	0.00044843	0.00090994	0.00025666	494.39	2.9959e-06	6.9104e-06	476.43	151.77	7.0808e-06	8.9816e-06	158.72	46.081	44.753	15.46	7.2212e-06	19.303	0.017496	0.041583	0.011769	640.64	0.0004125	0.00047339	558.88	178.69	0.00037028	0.00047979	198.88	58.725	63.525	20.034	0.0004063	25.524	161.473	207.322	104.699	108.799	294.654	209.217	107.194	113.871	410.938	135.310	111.550	116.269	118.503	123.893	216.941	120.529	-8191	255	
36074.484	1	1	0	0	0.082467	0.081036	0.26684	0.074821	0.087035	0.21183	0.27979	0.19044	0.18145	0.21587	0.20923	0.18467	0.12006	0.13467	0.23186	0.25795	-1.9062	-1.8333	-2.7625	-2.0354	-1.9583	-2.7396	-2.0292	-2.5771	-2.5271	-1.8958	-2.6896	-2.2354	-2.2625	-2.8563	-2.1125	-2.5792	309.910	269.215	120.649	126.106	374.372	233.401	409.438	415.273	211.772	429.277	398.903	110.075	135.289	346.650	387.369	120.355	0.00031964	0.00036493	0.00029077	494.4	4.5958e-06	9.4497e-06	477.21	151.66	4.0458e-06	9.0441e-06	158.88	45.714	43.867	15.45	5.6836e-06	19.202	0.017271	0.041562	0.011736	641.93	0.00041518	0.00047734	555.79	178.33	0.00037182	0.00047295	198.44	58.429	63.27	19.979	0.00039896	25.306	145.846	369.429	218.277	108.091	222.068	158.897	107.133	114.006	229.546	222.090	111.532	116.131	118.187	124.207	248.142	120.935	-8191	255	
36074.605	1	1	0	0	0.092858	0.07103	0.32959	0.24891	0.35497	0.27179	0.30398	0.29812	0.12497	0.063843	0.25394	0.10406	0.29867	0.047414	0.16275	0.018557	-2.1792	-1.9229	-2.8042	-2.1208	-2.0396	-2.8042	-2.1146	-2.4354	-2.6146	-1.9188	-2.7833	-2.3292	-2.0667	-2.7625	-2.0729	-2.3479	95.839	203.587	111.306	326.692	278.674	371.193	354.940	97.117	157.392	171.827	379.198	298.019	400.926	112.725	134.257	128.055	0.0003005	0.00033448	0.00010155	495.37	1.0919e-05	1.3256e-05	475.28	151.11	3.926e-06	8.7175e-06	158.86	45.571	44.048	15.626	1.785e-06	19.353	0.016995	0.040599	0.011274	634.51	0.00039689	0.00045266	550.9	176.82	0.00035592	0.00044987	196.24	57.814	62.732	19.9	0.00038613	25.253	138.950	447.609	255.318	108.601	227.638	163.905	107.198	113.784	305.276	301.442	111.459	116.134	118.554	123.848	302.620	120.800	-8191	255	
36074.699	1	1	0	0	0.10165	0.41831	0.11148	0.10023	0.078333	0.27729	0.20792	0.0682	0.15593	0.085273	0.18822	0.16633	0.2842	0.17828	0.12356	0.11807	-2.1208	-1.9937	-2.6271	-2.4208	-1.9104	-2.6604	-2.1396	-2.2396	-2.8854	-1.8708	-2.6688	-2.5604	-1.8625	-2.6521	-2.1146	-2.1667	312.313	398.924	382.068	96.265	239.943	383.047	346.043	204.539	397.675	383.220	98.015	395.683	172.526	199.542	131.442	396.738	0.00029632	0.00044873	0.00016946	500.12	2.2368e-06	2.8346e-06	475.62	152.64	3.6215e-06	5.5592e-06	159.69	45.257	44.221	15.541	8.4604e-06	19.536	0.016646	0.039489	0.011029	634.08	0.00039386	0.00044854	551.72	177.56	0.00035142	0.00044487	196.45	57.58	62.222	19.836	0.00036827	25.195	136.566	182.278	255.654	108.200	372.766	133.685	106.956	113.865	371.209	433.257	111.592	116.238	118.841	124.298	451.677	121.286	-8191	255	
36074.773	1	1	0	0	0.20475	0.17497	0.056541	0.40734	0.15745	0.27776	0.13273	0.27228	0.08072	0.13413	0.10429	0.21814	0.24687	0.20639	0.15495	0.34103	-2.3333	-2.0083	-2.3708	-2.25	-1.95	-2.7833	-2.4188	-2.0458	-2.5708	-2.1167	-2.3833	-2.6417	-2.0729	-2.6625	-2.2313	-1.8667	333.571	387.230	288.361	133.433	338.270	159.402	183.908	297.977	368.586	174.751	303.015	437.237	311.328	367.248	204.831	453.798	0.00037154	0.0012842	0.00045145	493.03	2.2139e-06	2.8853e-06	478.97	151.66	6.835e-06	1.9918e-06	159.43	45.571	44.544	15.584	9.7075e-06	19.596	0.01579	0.037206	0.010467	625.6	0.00037207	0.00042297	549.38	176.47	0.00033565	0.00042235	195.45	57.404	61.941	19.756	0.0003638	25.18	179.006	368.407	202.465	108.635	304.697	281.375	107.013	113.744	246.045	280.780	111.666	116.289	118.018	124.340	325.505	121.152	-8191	255	
36074.867	1	1	0	0	0.10804	0.16416	0.19147	0.09395	0.1051	0.024236	0.11008	0.12709	0.1376	0.17874	0.067743	0.49803	0.12569	0.065978	0.15857	0.092559	-2.3729	-1.9521	-2.2104	-2.5396	-1.8813	-2.6458	-2.3521	-1.9958	-2.6688	-1.8958	-2.5458	-2.375	-1.8521	-2.6042	-2.45	-1.8896	398.093	434.922	124.468	134.738	327.552	346.231	264.142	110.398	447.821	447.667	283.692	252.659	297.854	193.108	178.320	104.692	0.00030399	0.0011745	0.00022826	496.71	1.2037e-05	9.0612e-06	478.29	152.05	9.1743e-06	1.0661e-05	159.1	45.874	44.474	15.445	6.3003e-06	19.451	0.015806	0.037632	0.01059	627.87	0.00037295	0.0004266	549.2	175.95	0.00033221	0.00041889	194.83	57.375	61.528	19.624	0.0003606	24.964	134.609	223.402	276.373	108.436	257.153	260.858	107.085	114.095	343.819	326.220	111.321	116.466	118.353	124.326	389.554	120.953	-8191	255	
36074.988	1	1	0	0	0.079082	0.1354	0.2653	0.19335	0.20075	0.20892	0.38293	0.40298	0.064565	0.20329	0.12618	0.10046	0.18253	0.043865	0.034838	0.1815	-2.425	-2.3354	-2.0917	-2.8083	-2.0458	-2.3625	-2.4729	-1.85	-2.6208	-2.4521	-2.1646	-2.7521	-2.0812	-2.4625	-2.4625	-2.0542	361.729	426.232	425.836	355.266	422.493	377.377	417.512	405.291	195.245	355.566	278.810	215.570	322.529	415.288	279.741	435.475	0.00025412	0.00098822	0.00016336	490.96	6.5462e-06	3.0591e-06	475.38	151.39	5.7524e-06	8.8137e-06	158.33	45.121	43.892	15.638	9.3663e-06	19.393	0.015424	0.036801	0.010389	623.63	0.00037006	0.00042237	547.03	175.42	0.00033225	0.00042166	194	56.996	61.419	19.689	0.00036016	25.046	175.372	341.674	275.536	108.778	197.928	288.072	106.848	113.961	431.661	295.802	111.908	116.289	118.499	123.842	96.407	121.193	-8191	255	
36075.086	1	1	0	0	0.20758	0.22544	0.173	0.11144	0.057525	0.29858	0.055522	0.0669	0.21006	0.15924	0.079403	0.10869	0.10068	0.11309	0.31394	0.19044	-2.2292	-2.2042	-2.075	-2.7833	-2.0604	-2.2292	-2.7896	-1.9896	-2.7521	-2.2833	-2.0771	-2.8708	-2.0938	-2.2854	-2.7271	-2.1333	287.815	230.774	321.337	166.439	277.706	404.036	111.970	223.851	137.143	379.779	207.115	246.930	99.552	331.064	203.849	281.500	0.00022894	0.00058905	0.00010723	495.03	8.0232e-06	1.693e-06	473.94	151.41	1.8967e-06	5.8929e-06	158.07	45.582	44.897	15.597	2.7039e-06	19.55	0.01545	0.036785	0.010439	623.92	0.00036805	0.00042523	547.54	175.61	0.00033271	0.00042515	195.3	57.532	62.176	19.845	0.00037757	25.366	108.896	148.691	453.452	108.250	349.643	222.899	107.287	113.845	206.046	381.546	111.679	116.289	118.422	123.769	371.191	120.687	-8191	255	
36075.180	1	1	0	0	0.078963	0.022414	0.15645	0.15406	0.22155	0.18114	0.1195	0.058154	0.18714	0.25989	0.37122	0.15374	0.1325	0.081988	0.19884	0.17234	-2.0104	-2.2604	-1.9479	-2.7687	-2.1875	-2.0646	-2.7354	-2.0312	-2.5	-2.3833	-1.8542	-2.725	-2.1021	-2.1417	-2.7542	-1.9937	227.039	254.298	429.238	290.288	355.332	225.249	397.981	335.155	372.783	427.098	421.070	383.628	271.213	424.724	383.708	159.707	0.00038204	0.00028914	0.00026047	493.18	5.7222e-06	5.1327e-06	478.55	151.54	2.8298e-06	9.764e-06	158.16	45.602	43.924	15.724	7.5957e-06	19.801	0.016201	0.039106	0.01103	632.47	0.00038359	0.00044151	551.2	176.66	0.00034262	0.00042955	196.27	57.729	62.184	19.98	0.00037499	25.515	120.011	322.355	125.435	108.581	136.165	350.492	106.770	114.240	139.385	210.897	111.983	116.794	118.164	124.290	105.080	120.919	-8191	255	
36075.277	1	1	0	0	0.23573	0.15092	0.4306	0.33076	0.23787	0.19642	0.25181	0.22026	0.23261	0.29192	0.19997	0.068176	0.11518	0.1529	0.11963	0.097908	-2.0292	-2.5542	-1.9542	-2.6146	-2.2146	-2.2667	-2.8479	-1.9562	-2.5917	-2.5146	-1.9	-2.5042	-2.2417	-2.1042	-2.7042	-1.8375	312.115	132.691	352.936	436.011	311.453	137.745	381.132	432.210	379.635	137.103	430.577	391.519	170.782	158.455	175.054	276.490	0.00026412	0.0011444	0.00018397	490.84	4.0199e-06	9.425e-06	477.5	151.79	2.1797e-06	1.8486e-05	160.7	45.99	44.7	15.831	6.0637e-06	19.767	0.016008	0.038623	0.010878	629.9	0.00038821	0.00045091	555.98	177.28	0.00035298	0.00044745	198.67	58.475	62.541	20.089	0.00037562	25.639	158.725	175.255	337.910	108.669	209.841	232.890	107.271	114.210	357.400	288.031	111.563	116.685	118.285	124.287	101.477	120.903	-8191	255	
36075.398	1	1	0	0	0.27027	0.13913	0.18502	0.24239	0.093526	0.11269	0.068066	0.1438	0.15875	0.10633	0.2166	0.10983	0.19591	0.27267	0.091024	0.18015	-2.0208	-2.4875	-1.9792	-2.5062	-2.3167	-1.9167	-2.8458	-2.1562	-2.3312	-2.7354	-2.0417	-2.6458	-2.25	-1.9562	-2.7146	-2.0938	342.995	186.866	135.295	346.155	155.610	198.590	434.903	438.677	172.231	430.318	187.565	240.572	426.568	435.998	430.294	370.687	0.00040959	0.0010607	0.00014578	488.21	8.1237e-06	1.184e-05	483.82	152.27	5.041e-06	4.002e-06	160.78	46.376	44.759	15.915	5.3891e-06	20.098	0.015912	0.037944	0.010671	626.22	0.00037595	0.00043506	554.1	176.67	0.00034204	0.0004332	197.37	58.26	62.429	20.134	0.00036768	25.612	155.507	326.886	445.099	108.231	121.600	371.585	107.081	114.171	260.611	117.660	111.873	116.237	118.037	123.908	417.132	121.142	-8191	255	
36075.469	1	1	0	0	0.078425	0.22808	0.15269	0.2133	0.1393	0.0048993	0.26447	0.1696	0.3488	0.028187	0.10419	0.18014	0.29264	0.20276	0.015774	0.065068	-1.6812	-2.6917	-1.8396	-2.6688	-2.4021	-2.0396	-2.7562	-2.2042	-2.2521	-2.6771	-2.1396	-2.5625	-2.7125	-1.8333	-2.6042	-2.25	398.024	370.367	223.946	132.317	437.198	290.363	418.056	279.391	266.253	318.298	303.957	336.145	302.444	433.962	292.892	212.506	0.00019839	0.00055817	0.00022151	500.76	4.4422e-06	4.7027e-06	480.87	152.59	3.9511e-06	8.8665e-06	160.39	46.628	44.88	16.022	6.7049e-06	20.259	0.015774	0.037608	0.010535	626.52	0.00036987	0.00042216	551.31	176.53	0.00033163	0.00042127	196.82	58.182	62.238	20.187	0.00035923	25.771	164.102	382.033	143.837	108.516	311.781	115.718	107.442	113.957	132.777	188.231	111.618	116.225	118.285	123.955	316.484	120.622	-8191	255	
36075.590	1	1	0	0	0.091091	0.19471	0.13942	0.11431	0.088007	0.098874	0.33547	0.092779	0.16405	0.27792	0.11651	0.18524	0.28255	0.17396	0.1333	0.15364	-1.6292	-2.7708	-1.9333	-2.4854	-2.4062	-1.8354	-2.5583	-2.3563	-1.9562	-2.7479	-2.175	-2.3708	-2.6292	-1.9188	-2.4271	-2.5062	272.443	195.239	429.224	312.425	354.334	317.393	385.342	396.988	403.715	451.810	335.065	420.953	125.203	402.649	325.723	154.150	0.00025318	0.00098108	0.00021825	489.73	1.5203e-05	8.5224e-06	483.01	152.64	8.2704e-06	1.1932e-05	162.43	46.725	44.853	16.128	5.3165e-06	20.328	0.015632	0.036866	0.010329	624.57	0.00036689	0.0004235	553.02	176.87	0.00032962	0.00041734	197.93	58.403	62.374	20.264	0.00036366	25.956	128.361	439.443	408.396	108.522	248.567	254.962	107.313	113.989	159.322	435.215	111.401	116.201	118.043	123.889	232.039	121.130	-8191	255	
36075.684	1	1	0	0	0.26535	0.17503	0.24547	0.10834	0.29786	0.38425	0.064064	0.25497	0.057818	0.079442	0.15172	0.18928	0.16965	0.41275	0.021573	0.17021	-1.9104	-2.7562	-1.8708	-2.1312	-2.7917	-2.0812	-2.5958	-2.3875	-1.8563	-2.7125	-2.0646	-2.2875	-2.575	-1.7583	-2.4333	-2.6958	283.666	109.027	216.381	380.897	210.331	216.458	111.858	435.170	110.756	403.977	367.429	333.498	243.549	203.279	315.316	389.837	0.00044212	0.00062491	0.00036859	491.72	2.5757e-06	6.9119e-06	482.42	153.1	7.5238e-06	7.9436e-06	162.87	47.51	45.233	16.121	5.3169e-06	20.589	0.015712	0.037487	0.010547	626.99	0.00037681	0.0004294	554.98	178	0.0003401	0.00042769	199.52	59.065	62.812	20.369	0.00036533	26.238	152.159	130.097	452.494	108.613	427.771	132.222	107.370	113.825	253.631	326.758	111.562	115.738	118.314	124.433	136.069	121.066	-8191	255	
36075.781	1	1	0	0	0.023182	0.23814	0.25431	0.19056	0.21943	0.19198	0.29779	0.26254	0.12261	0.085241	0.2281	0.19801	0.23462	0.065369	0.14357	0.085316	-1.2896	-2.6396	-2.1958	-2.0187	-2.7188	-2.1646	-2.3292	-2.4917	-1.9104	-2.7729	-2.3604	-1.9062	-2.7708	-2.1937	-2.3354	-2.7646	174.967	367.808	301.219	437.970	327.407	431.382	367.683	372.752	239.859	289.459	452.978	313.680	323.660	422.125	284.676	318.254	0.00032185	0.0011103	0.00029957	497.15	6.6659e-06	3.6651e-06	484.57	154.28	4.2385e-06	6.6531e-06	161.85	47.898	45.39	16.369	6.6624e-06	20.726	0.01581	0.037323	0.010509	628.35	0.00037751	0.00043002	557.37	178.81	0.00034075	0.00042958	199.64	59.546	63.309	20.55	0.00036934	26.458	146.651	193.644	407.133	108.516	339.474	328.078	107.678	113.869	234.021	415.439	111.656	116.262	118.301	123.601	357.789	121.033	-8191	255	
36075.879	1	1	0	0	0.1342	0.14953	0.12102	0.23018	0.15014	0.20365	0.060975	0.16005	0.20652	0.15579	0.14564	0.15904	0.16271	0.32715	0.13752	0.18263	-1.5354	-2.5563	-2.3521	-2.0271	-2.7938	-2.1125	-2.2042	-2.7625	-1.8896	-2.5042	-2.3125	-1.9042	-2.7854	-2.2354	-2.0292	-2.6646	252.514	220.529	424.206	305.498	375.124	222.592	364.733	450.776	307.541	351.997	336.411	217.151	233.451	116.898	315.592	432.387	0.00019612	0.001272	0.00030283	492.93	1.5338e-05	2.525e-06	484.19	153.44	9.1384e-06	4.2867e-06	162.16	48.011	45.642	16.273	6.224e-06	20.575	0.015901	0.037876	0.010642	630.15	0.00038103	0.00043747	557.42	178.53	0.00034633	0.00044156	200.43	60.212	63.928	20.61	0.0003828	26.488	105.283	220.139	257.341	109.068	231.543	159.084	107.299	113.869	293.118	419.779	111.690	116.791	118.050	124.023	366.886	120.699	-8191	255	
36075.996	1	1	0	0	0.29061	0.28598	0.37047	0.28391	0.15249	0.20911	0.15245	0.17109	0.19952	0.031575	0.2159	0.18171	0.10898	0.16675	0.2249	0.084917	-1.3854	-2.6188	-2.4062	-1.95	-2.6042	-2.3063	-2.0333	-2.6625	-1.925	-2.6667	-2.5729	-1.9688	-2.6542	-2.3625	-2.0333	-2.7146	186.910	336.167	365.902	411.859	144.217	416.660	171.906	110.952	351.463	397.776	303.747	139.281	393.120	168.110	424.308	366.292	0.00034389	0.00038449	8.059e-05	495.76	3.626e-06	1.0905e-05	480.47	153.52	1.1246e-05	6.144e-06	163.55	47.581	45.356	16.273	5.5467e-06	20.644	0.016265	0.038991	0.01098	633	0.00039069	0.00044573	557.22	178.91	0.00034922	0.00044262	200.71	60.184	63.553	20.685	0.0003775	26.515	167.859	281.042	128.995	108.586	430.378	268.396	107.562	113.956	356.922	297.359	111.805	116.215	118.527	124.276	159.699	120.746	-8191	255	
36076.066	1	1	0	0	0.058833	0.17059	0.10152	0.1958	0.054825	0.28406	0.16798	0.050896	0.13008	0.12101	0.31916	0.10233	0.12209	0.14964	0.25155	0.09094	-1.4813	-2.2646	-2.6625	-1.8438	-2.5875	-2.3417	-2.1229	-2.9396	-2.0104	-2.3896	-2.5583	-1.8458	-2.6417	-2.3667	-1.9688	-2.7542	170.379	170.501	354.861	428.704	390.363	366.315	232.755	159.630	391.309	181.547	445.123	222.816	136.861	357.638	121.802	141.318	0.00037508	0.00059593	0.00033003	493.34	7.515e-06	1.3089e-05	483.83	152.88	1.155e-05	1.4594e-05	162.61	48.028	45.664	16.438	5.8602e-06	21.052	0.016065	0.038136	0.010821	629.19	0.00037658	0.00043313	556.57	177.89	0.00033292	0.00042272	200.11	60.126	63.407	20.57	0.00036605	26.582	134.916	209.813	191.827	108.503	248.859	279.834	107.213	114.085	243.403	351.803	111.277	116.383	118.634	123.920	177.348	120.561	-8191	255	
36076.164	1	1	0	0	0.3666	0.020641	0.13058	0.036936	0.14048	0.27298	0.24611	0.17641	0.10878	0.32838	0.32809	0.32897	0.18596	0.21867	0.41045	0.19467	-1.7062	-2.1146	-2.5	-1.9042	-2.3208	-2.5125	-1.8979	-2.8063	-2.1312	-2.0208	-2.8708	-1.925	-2.4979	-2.5604	-1.9208	-2.825	345.087	257.808	193.818	259.409	233.321	273.623	341.122	236.139	451.706	418.143	419.275	345.761	112.930	302.228	200.354	252.704	0.00030979	0.00035106	0.00019687	498.25	1.9971e-06	1.1379e-05	483.83	154.02	2.5032e-06	7.891e-06	163.25	48.455	45.922	16.489	2.6227e-06	20.755	0.015476	0.036966	0.010515	626.44	0.0003682	0.00042896	557.46	178.73	0.00033362	0.00042791	201.09	60.174	63.573	20.652	0.00037007	26.438	119.506	207.979	192.200	109.171	218.708	162.222	107.335	114.087	278.482	361.205	111.469	116.024	118.560	124.081	272.198	120.830	-8191	255	
36076.285	1	1	0	0	0.31773	0.14628	0.12345	0.34847	0.12246	0.054395	0.21702	0.31345	0.34612	0.21261	0.14558	0.084292	0.22318	0.10336	0.38755	0.11948	-1.8771	-1.9062	-2.4896	-1.8625	-2.4625	-2.5354	-1.9958	-2.6083	-2.1833	-1.9208	-2.6396	-1.9771	-2.2958	-2.6021	-1.9854	-2.7333	250.672	369.547	251.007	166.395	277.006	291.884	220.470	331.152	320.799	122.424	445.257	98.738	355.362	390.784	339.926	445.481	0.00015153	0.00013331	0.00013299	490.19	2.7772e-06	3.9218e-06	484.74	153.89	4.6806e-06	2.7794e-06	162.38	47.734	45.548	16.245	1.1289e-05	20.76	0.015619	0.037415	0.010647	624.61	0.00037233	0.00043073	556.63	178.03	0.00033458	0.00043095	199.44	59.664	63.157	20.426	0.00036394	26.256	153.942	334.777	181.792	108.288	335.406	211.922	107.551	114.057	266.022	269.688	111.872	115.904	118.541	124.132	306.491	120.797	-8191	255	
36076.383	1	1	0	0	0.096729	0.022638	0.14733	0.18157	0.1469	0.015672	0.24665	0.15695	0.066519	0.16431	0.27254	0.28196	0.14218	0.38127	0.10525	0.17713	-2.0354	-1.9	-2.6521	-1.9521	-2.4229	-2.7313	-1.9896	-2.6146	-2.2958	-1.9125	-2.7854	-1.9771	-2.25	-2.7167	-1.8604	-2.5708	229.132	414.316	435.806	391.009	298.671	273.117	440.251	378.014	274.209	168.911	353.101	357.824	392.454	435.947	373.546	114.581	0.00036094	0.00031408	0.00015228	492.43	7.0311e-06	7.2478e-06	481.97	153.87	2.6258e-06	1.275e-05	163.44	47.691	45.905	16.098	1.0382e-05	20.635	0.015497	0.036815	0.010313	623.06	0.00036544	0.00042284	551.6	177.66	0.00032938	0.00041952	199.02	59.284	62.964	20.377	0.0003591	26.194	111.435	142.010	157.914	108.286	168.351	153.716	107.455	113.898	321.106	333.071	111.702	116.420	117.979	123.867	173.499	121.089	-8191	255	
36076.477	1	1	0	0	0.097941	0.1416	0.22713	0.26051	0.16845	0.024286	0.17117	0.13025	0.085766	0.2506	0.059707	0.13949	0.28151	0.046281	0.070455	0.17313	-2.0625	-1.75	-2.5979	-2.0417	-2.0438	-2.7958	-1.9396	-2.3479	-2.6208	-1.8667	-2.7667	-1.9813	-1.9292	-2.7458	-1.9729	-2.3125	159.901	306.088	320.749	380.395	245.740	190.797	240.379	439.875	181.830	413.609	271.875	455.248	324.343	320.806	351.805	202.277	0.00036506	0.00067858	9.0554e-05	492.87	4.5256e-06	6.7957e-06	483.74	153.69	7.3797e-06	6.8771e-06	162.88	47.969	45.285	16.227	5.4619e-06	20.638	0.015604	0.037036	0.010365	623.94	0.00037565	0.00042886	555.28	178.14	0.00033882	0.0004314	199.88	59.711	63.527	20.462	0.00037784	26.396	125.515	98.847	139.049	108.730	286.705	357.805	107.294	113.871	436.269	242.016	111.543	116.400	119.123	124.209	104.837	120.982	-8191	255	
36076.574	1	1	0	0	0.11309	0.27037	0.1618	0.058341	0.17312	0.11975	0.27452	0.19843	0.091412	0.077002	0.084404	0.08262	0.15216	0.20697	0.15399	0.10017	-2.2146	-1.8333	-2.6688	-2.1813	-2.1417	-2.5979	-2.0625	-2.3021	-2.6688	-2.0625	-2.65	-2.4167	-1.9604	-2.6229	-2.0604	-2.2375	317.848	351.637	430.538	339.181	268.676	119.883	355.865	108.839	447.105	204.879	334.145	106.122	386.193	373.091	225.382	113.286	0.00014548	0.00029516	6.1283e-05	493.12	1.2115e-06	7.6745e-06	482.52	153.25	1.7563e-05	7.6725e-06	162.96	47.519	44.895	16.166	4.7169e-06	20.443	0.016538	0.039732	0.011186	634.55	0.00040359	0.00046248	560.38	179.84	0.00036784	0.00046851	203.15	60.56	64.832	20.762	0.00040832	26.852	148.701	333.772	359.393	108.012	396.500	215.474	107.385	114.216	152.370	104.820	112.079	115.694	118.413	123.920	308.286	120.815	-8191	255	
36076.668	1	1	0	0	0.35846	0.11616	0.049645	0.11332	0.2492	0.080276	0.16513	0.29535	0.1131	0.13697	0.16373	0.21367	0.41995	0.27461	0.099156	0.31724	-2.2792	-1.8771	-2.4646	-2.1458	-1.8292	-2.5687	-2.1896	-2.2646	-2.7208	-1.9062	-2.5479	-2.3542	-1.8875	-2.7708	-2.0917	-2.2125	360.659	113.714	165.042	387.244	304.241	149.255	141.018	447.769	267.080	137.221	451.330	309.319	163.424	124.838	431.194	360.166	0.00027875	0.001146	0.00011649	489.77	3.7807e-06	4.7991e-06	483.47	153.71	8.882e-06	2.306e-06	161.92	47.67	45.141	16.19	8.7033e-06	20.395	0.017874	0.042477	0.011969	643.62	0.0004373	0.0004982	566.45	181.78	0.0004006	0.00050217	204.84	61.002	65.456	20.841	0.0004167	26.841	146.807	186.008	163.862	108.340	186.679	162.723	107.504	114.424	364.823	394.563	111.417	116.499	118.591	124.069	121.025	121.041	-8191	255	
36076.766	1	1	0	0	0.24999	0.1142	0.24195	0.19832	0.13665	0.13074	0.40664	0.073979	0.069194	0.23585	0.079727	0.016316	0.029425	0.26843	0.18155	0.20365	-2.15	-1.8563	-2.4688	-2.5146	-2.0146	-2.775	-2.3271	-1.9604	-2.9458	-2.1271	-2.4042	-2.5938	-1.9438	-2.7896	-2.3083	-2.1937	220.862	114.783	440.854	406.821	234.103	315.861	433.835	259.468	129.094	337.958	120.477	233.762	354.370	194.731	318.126	215.581	0.00030368	0.0010713	6.2652e-05	493.09	6.621e-06	3.1097e-06	478	152.37	6.3515e-06	4.6256e-06	160.92	46.685	44.839	15.952	4.5463e-06	20.151	0.017822	0.041966	0.01181	640.23	0.00041912	0.00047416	557.73	179.41	0.00037385	0.00047238	201.02	59.951	64.182	20.459	0.00040148	26.351	142.960	203.959	363.873	108.180	245.754	152.730	107.026	113.780	127.775	148.856	111.639	116.173	118.970	124.245	110.550	120.641	-8191	255	
36076.859	1	1	0	0	0.099137	0.12133	0.24005	0.18426	0.14853	0.099092	0.023465	0.11213	0.077956	0.34757	0.099285	0.091559	0.16414	0.14659	0.26724	0.13039	-2.3208	-2.0396	-2.4229	-2.5896	-1.9479	-2.5875	-2.2854	-2.05	-2.6667	-2.1729	-2.0958	-2.7771	-1.9583	-2.7333	-2.4271	-1.8875	230.543	242.396	330.608	210.295	106.261	109.507	377.928	141.586	398.406	148.488	452.951	421.044	360.511	247.012	405.645	267.574	0.00029005	0.00040378	0.00010126	493.29	1.2454e-05	2.9011e-06	479.15	152.43	6.7659e-06	1.0063e-05	159.57	46.678	45.184	15.771	6.3289e-06	19.972	0.01699	0.040463	0.01139	635.79	0.00040171	0.00045806	556.25	178.74	0.00036225	0.00045863	199.89	59.438	63.295	20.239	0.00038917	26.022	109.719	395.768	337.182	107.986	273.685	257.580	106.882	113.799	388.076	294.696	111.194	116.590	118.379	123.788	230.971	120.790	-8191	255	
36076.957	1	1	0	0	0.20955	0.21027	0.056754	0.12855	0.24727	0.0504	0.053325	0.20336	0.048882	0.045955	0.18185	0.26596	0.088023	0.16028	0.059595	0.15304	-2.2083	-2.2375	-2.3063	-2.8292	-1.8354	-2.2854	-2.4646	-1.9354	-2.8229	-2.3146	-2.1583	-2.8604	-1.8458	-2.3958	-2.5	-1.9375	161.266	221.216	406.403	180.704	363.296	114.412	132.178	343.086	121.529	142.198	366.103	316.812	392.667	448.813	237.604	98.147	0.00036189	0.00070184	9.0082e-05	492.11	7.0783e-06	8.1618e-06	479.28	152.79	4.6879e-06	2.5231e-06	160.69	46.943	44.424	15.808	8.4182e-06	20.042	0.016687	0.039731	0.011371	635.76	0.00040365	0.000463	557.39	178.53	0.00036639	0.00046957	201.27	59.785	63.675	20.356	0.00039608	26.134	130.989	336.346	106.910	108.312	187.816	232.305	107.229	113.908	430.159	244.367	111.763	116.154	118.520	124.496	316.458	120.759	-8191	255	
36077.078	1	1	0	0	0.20259	0.086426	0.085242	0.072248	0.27131	0.096587	0.26795	0.48859	0.094041	0.14104	0.23589	0.18657	0.12365	0.21878	0.25536	0.23163	-2.2687	-2.3333	-1.8625	-2.6542	-1.8062	-2.2854	-2.5729	-1.9729	-2.6667	-2.3625	-1.9833	-2.6792	-2.1875	-2.1958	-2.5354	-1.9729	129.795	444.289	114.151	173.247	369.323	223.193	351.975	119.257	231.392	445.900	405.996	439.181	428.261	389.097	296.033	390.011	0.00021796	0.0017566	1.5511e-05	489.78	1.0937e-05	7.8345e-06	482.24	152.33	5.9124e-06	1.3835e-05	161.42	47.186	45.109	15.85	1.6471e-06	20.036	0.016584	0.039275	0.011111	629.31	0.00038942	0.00044552	553.66	177.16	0.00033924	0.00042917	198.41	58.807	62.182	19.953	0.00035619	25.473	141.258	194.394	349.327	108.749	299.805	214.262	107.416	113.906	274.760	425.308	111.702	116.024	118.768	123.967	294.407	121.345	-8191	255	
36077.172	1	1	0	0	0.19804	0.16123	0.17196	0.13143	0.19573	0.047917	0.049817	0.3334	0.29873	0.27578	0.11284	0.095488	0.31317	0.090735	0.13013	0.1921	-2.1188	-2.4854	-1.8833	-2.6583	-2.0896	-2.2354	-2.6792	-1.9479	-2.4354	-2.3833	-1.7479	-2.7438	-2.0792	-2.2729	-2.6354	-1.8771	303.252	143.758	233.667	361.867	450.150	348.582	409.708	425.001	118.764	101.149	416.405	334.087	363.357	333.675	375.674	448.719	0.00028784	0.00089004	0.00018878	492.53	4.5947e-06	8.1448e-06	478.66	151.84	1.0287e-05	4.0764e-06	161.32	46.816	44.971	15.84	6.1211e-06	20.018	0.014871	0.035438	0.0099813	615.45	0.00034434	0.00039598	544.68	174.28	0.00029951	0.00038185	193.9	57.373	60.479	19.547	0.00031662	24.914	152.483	176.774	160.412	108.423	300.690	333.371	106.930	113.972	273.111	283.741	110.986	115.699	118.483	123.568	216.562	120.535	-8191	255	
36077.270	1	1	0	0	0.16607	0.25203	0.14691	0.21394	0.24293	0.1826	0.13373	0.25034	0.29593	0.32838	0.23108	0.34264	0.14095	0.097876	0.18959	0.31182	-2.0021	-2.5729	-1.8271	-2.65	-1.9521	-2.1042	-2.7521	-1.9229	-2.4	-2.6562	-1.9042	-2.5979	-2.3229	-2.0125	-2.7479	-2.15	336.262	408.495	357.153	393.922	378.354	108.878	280.268	255.486	186.761	301.913	402.327	430.734	222.325	357.557	177.011	406.991	0.0003051	0.00036937	0.00012784	491.09	6.518e-06	9.2815e-06	482.22	151.67	1.0418e-05	3.485e-06	160.42	46.748	44.695	15.819	7.9742e-06	20.059	0.013428	0.031947	0.0089124	603	0.0003133	0.00036225	541.23	173	0.00028255	0.00035766	192.32	56.879	59.599	19.402	0.00030077	24.81	153.822	111.768	417.816	108.792	174.943	156.775	107.385	114.113	203.273	127.017	111.613	116.724	118.674	124.172	275.832	120.919	-8191	255	
36077.363	1	1	0	0	0.0091023	0.21176	0.28001	0.15904	0.16732	0.31014	0.12852	0.27709	0.2916	0.25932	0.092701	0.084947	0.19252	0.032537	0.14111	0.067147	-1.7958	-2.625	-1.9396	-2.3937	-2.2729	-1.9833	-2.9542	-2.0875	-2.2229	-2.5438	-2.0021	-2.6125	-2.4792	-1.9937	-2.4292	-2.0292	279.876	126.639	321.014	148.096	169.734	160.057	400.873	437.862	451.222	206.018	306.938	444.258	226.415	169.283	155.946	162.800	0.0003122	0.0005276	0.00011249	493.43	4.9976e-06	1.1985e-05	481.44	153.69	4.3818e-06	1.8901e-06	162.75	47.817	45.215	15.974	8.9399e-06	20.234	0.012914	0.030883	0.0086144	602.13	0.00030675	0.00035228	540.71	173.32	0.00027694	0.00034943	192.74	56.965	59.685	19.447	0.00029722	24.784	140.209	347.306	129.343	108.769	214.672	217.360	107.235	113.826	302.590	253.449	111.434	115.953	118.650	124.274	238.271	120.803	-8191	255	
36077.461	1	1	0	0	0.20527	0.13425	0.024247	0.14281	0.18627	0.1296	0.20454	0.25873	0.15	0.16968	0.11278	0.042149	0.19509	0.26164	0.11334	0.26714	-1.8208	-2.8083	-1.9813	-2.5	-2.4313	-1.9854	-2.8021	-2.1646	-1.9708	-2.6542	-2.0375	-2.375	-2.6312	-1.9937	-2.5708	-2.3625	183.333	441.160	183.833	240.588	371.573	347.487	394.193	415.913	348.191	233.495	367.569	206.600	133.969	101.694	121.897	425.811	0.00031664	0.00060798	1.5509e-05	492.4	7.0283e-06	8.5428e-06	482.65	153.62	3.9211e-06	5.8797e-06	163.37	47.571	45.428	16.078	4.9256e-06	20.322	0.012813	0.030412	0.0084311	600.82	0.00030329	0.00034677	540.96	173.62	0.00027326	0.00034068	192.88	57.255	59.72	19.512	0.00029217	25.003	158.643	426.620	425.708	108.438	391.211	173.030	107.647	114.065	417.495	380.298	111.363	116.556	119.103	124.472	322.470	120.972	-8191	255	
36077.555	1	1	0	0	0.23455	0.020678	0.23246	0.24394	0.16488	0.2031	0.22912	0.080084	0.10089	0.19621	0.14758	0.077853	0.11676	0.092924	0.11419	0.14909	-1.6125	-2.675	-1.9104	-2.1333	-2.5542	-1.9625	-2.7792	-2.3125	-2.0333	-2.7104	-2.0604	-2.35	-2.725	-1.8646	-2.6708	-2.4521	135.871	308.399	104.289	125.307	374.299	398.655	368.014	420.285	177.381	427.245	112.987	276.142	164.530	426.749	198.741	446.463	0.00044453	0.00025639	0.00011364	495.12	7.7495e-06	7.9859e-06	482.73	153.44	1.1249e-05	8.5252e-06	163.7	47.196	45.578	16.117	4.7823e-06	20.418	0.012861	0.030115	0.0085106	603.01	0.00030816	0.000354	544.59	174.56	0.00028239	0.00035336	194.17	57.656	60.539	19.641	0.00030475	25.197	135.430	156.550	127.370	108.844	306.057	240.438	107.354	114.010	119.297	374.873	111.913	116.338	118.372	123.990	215.989	120.419	-8191	255	
36077.676	1	1	0	0	0.16945	0.031304	0.0094452	0.19459	0.12543	0.26162	0.35848	0.10769	0.10328	0.33553	0.30951	0.03462	0.14199	0.33388	0.084216	0.13374	-1.4875	-2.7125	-2.1458	-2.2958	-2.6167	-1.9292	-2.5396	-2.4042	-1.8208	-2.6875	-2.1312	-2.0646	-2.6479	-1.8271	-2.5062	-2.5167	337.753	152.274	322.374	326.542	376.862	174.325	389.086	389.910	96.496	273.599	373.918	314.678	225.237	338.558	337.893	182.345	0.00040695	0.00035822	0.00020221	496.51	3.8974e-07	2.2663e-06	482.29	153.52	1.5613e-06	9.2046e-06	163.98	47.524	45.321	16.024	3.5332e-06	20.181	0.013279	0.031077	0.0086877	607.36	0.00031173	0.00035641	543.77	174.32	0.000282	0.00035652	194.43	57.818	60.475	19.605	0.00030752	25.195	169.359	276.110	455.781	108.824	168.128	236.673	107.716	114.075	116.850	293.572	111.873	116.688	118.634	123.835	165.578	120.800	-8191	255	
36077.773	1	1	0	0	0.050655	0.16414	0.082648	0.062699	0.24421	0.10243	0.16067	0.19417	0.060889	0.13783	0.1088	0.17082	0.06268	0.13334	0.26446	0.16416	-1.4542	-2.4979	-2.3063	-2.1	-2.7292	-1.9854	-2.4292	-2.6333	-1.9229	-2.8625	-2.3125	-2.0833	-2.8083	-2.05	-2.2625	-2.7	362.993	169.621	151.104	412.934	351.214	100.787	367.112	391.345	263.156	285.778	170.868	107.489	265.313	397.641	359.392	333.568	0.00029401	0.00046175	0.00013362	492.49	3.4332e-06	6.5305e-06	483.16	153.47	6.5774e-06	8.718e-06	163.4	47.446	45.826	16.002	5.6117e-06	20.32	0.01324	0.030972	0.0086914	605.69	0.00030605	0.00034709	543.26	174	0.00027428	0.0003431	193.92	57.558	60.129	19.461	0.0002991	25.152	134.574	376.619	355.347	108.866	223.699	294.885	107.469	113.974	223.464	259.532	111.543	116.280	118.614	124.700	324.946	121.274	-8191	255	
36077.867	1	1	0	0	0.18031	0.36364	0.22257	0.1309	0.17189	0.20828	0.22533	0.19656	0.27355	0.13216	0.21394	0.14377	0.13172	0.17433	0.048459	0.14474	-1.3396	-2.5667	-2.3417	-1.9438	-2.7	-1.9917	-2.1104	-2.75	-2	-2.7521	-2.3688	-2.0729	-2.7667	-2.1896	-2.1979	-2.6917	352.249	328.112	367.650	271.080	111.991	403.832	196.115	391.316	370.341	98.759	303.122	105.646	124.939	219.663	245.708	202.871	0.00028851	0.00059223	0.00033205	493.01	7.9737e-06	7.1543e-06	485.69	154.79	2.9416e-06	5.7303e-06	165	48.172	45.442	16.103	5.5666e-06	20.631	0.013007	0.030613	0.0087107	606.86	0.00030748	0.0003519	547.61	175	0.00027843	0.00035103	195.72	58.179	60.249	19.678	0.00030665	25.396	156.150	160.762	170.619	108.684	248.760	211.695	107.411	114.362	145.257	201.462	111.948	116.924	118.141	124.253	427.192	120.427	-8191	255	
36077.941	1	1	0	0	0.21075	0.17311	0.21936	0.067196	0.16333	0.11968	0.087635	0.16424	0.20459	0.10632	0.32971	0.37078	0.3196	0.068172	0.085115	0.29384	-1.5146	-2.6833	-2.3292	-1.9188	-2.7313	-2.3208	-2.2917	-2.7562	-1.9896	-2.45	-2.6979	-1.9417	-2.6688	-2.2062	-1.8937	-2.7208	349.720	357.785	319.915	418.531	433.574	299.932	417.253	382.419	381.873	299.019	445.961	306.433	386.344	251.909	285.067	440.524	0.00027085	0.00010069	0.00014016	495.84	1.2835e-05	5.6704e-06	485.62	154.05	8.8883e-06	5.372e-06	164.38	48.101	45.76	16.122	5.7644e-06	20.368	0.013125	0.031222	0.0088915	608.63	0.0003119	0.00036185	551.07	175.39	0.00028606	0.00036147	196.54	58.49	60.893	19.781	0.00031539	25.428	151.384	338.667	247.134	109.049	176.368	233.754	107.357	114.099	261.913	336.711	111.834	116.753	118.362	124.016	254.159	120.545	-8191	255	
36078.062	1	1	0	0	0.28797	0.12386	0.11047	0.17848	0.19516	0.24479	0.11122	0.1699	0.0666	0.15812	0.064089	0.33619	0.22688	0.02685	0.43388	0.11118	-1.3771	-2.3646	-2.475	-1.9792	-2.6604	-2.3187	-2.1333	-2.8729	-1.9833	-2.1708	-2.6312	-1.8521	-2.7042	-2.3542	-2.0646	-2.8063	280.573	117.278	444.293	169.540	151.305	153.241	124.168	350.338	409.682	305.160	135.362	162.631	328.491	423.998	381.310	309.535	0.00029095	0.00070467	0.00016594	499.12	9.8942e-06	5.0205e-06	486.95	155	3.4045e-06	4.3697e-06	165.42	48.286	46.055	15.982	7.6785e-06	20.432	0.01325	0.031722	0.0090006	610.24	0.00031266	0.00036172	549.23	175.78	0.00028112	0.00036155	196.9	58.218	60.896	19.559	0.00031004	25.332	169.233	382.038	125.735	108.633	191.439	267.346	108.081	114.205	192.980	226.417	111.835	116.576	118.529	124.251	441.902	121.367	-8191	255	
36078.156	1	1	0	0	0.01768	0.14095	0.038928	0.18097	0.17027	0.066386	0.2354	0.35697	0.10335	0.27864	0.32808	0.37959	0.12055	0.17288	0.17945	0.18577	-1.7167	-2.0896	-2.5563	-1.8042	-2.5104	-2.5521	-1.9479	-2.7229	-2.125	-2.1792	-2.8	-1.9667	-2.5333	-2.6104	-2.0104	-2.5583	389.947	322.362	434.942	181.740	275.746	219.079	342.516	98.095	445.377	310.352	361.977	359.457	234.655	214.513	410.692	376.843	0.00024502	0.00048885	0.00047431	498.53	3.419e-06	2.0716e-06	485.16	154.66	5.289e-06	7.9988e-06	164.92	48.29	45.916	16.015	1.0354e-05	20.51	0.013268	0.031643	0.0090556	610.43	0.00031284	0.00036363	549.63	175.49	0.00028549	0.00036402	196.05	58.297	60.62	19.663	0.00031353	25.306	142.652	361.320	274.354	108.763	146.746	129.009	107.562	114.044	308.142	361.601	111.737	116.356	119.023	124.317	260.974	120.779	-8191	255	
36078.254	1	1	0	0	0.19886	0.12173	0.072186	0.23886	0.032545	0.093884	0.1004	0.26378	0.28454	0.29781	0.10873	0.24343	0.16354	0.33264	0.32027	0.18037	-1.8771	-1.9521	-2.6104	-2.0104	-2.3521	-2.5333	-2.1896	-2.6729	-2.075	-2.0375	-2.7	-1.9792	-2.3812	-2.4979	-1.8438	-2.7104	109.616	304.921	363.602	317.151	175.008	221.725	106.192	130.551	115.809	112.868	180.018	401.473	136.423	435.021	411.379	347.666	0.00028004	0.00081108	0.00010341	501.69	7.1943e-06	5.6309e-06	488.25	154.26	5.3503e-06	8.3926e-06	165.17	48.078	45.797	16.088	6.1711e-06	20.436	0.013417	0.032256	0.009015	612.08	0.00031931	0.0003658	549.5	175.62	0.00028647	0.00036989	196.67	58.342	60.933	19.71	0.00031501	25.358	159.885	167.762	120.285	108.571	271.137	330.050	107.665	114.503	108.850	375.125	111.715	115.991	118.211	124.345	234.814	120.939	-8191	255	
36078.348	1	1	0	0	0.21336	0.26924	0.0078186	0.056687	0.079607	0.14966	0.28184	0.16565	0.18392	0.1935	0.1369	0.152	0.17055	0.17335	0.087369	0.050869	-1.95	-1.9333	-2.8063	-2.1437	-2.4833	-2.6729	-1.9688	-2.8771	-2.5083	-2.0208	-2.8354	-2.0438	-2.1917	-2.9625	-1.8917	-2.3646	255.751	195.520	307.510	108.631	237.355	266.243	403.407	125.123	455.309	389.039	185.499	101.522	289.047	301.904	237.714	368.511	0.00028357	0.00045952	0.00010733	499.9	8.6993e-06	3.9254e-06	482.03	154.42	3.1996e-06	3.2144e-06	165.66	47.891	46.041	16.087	1.8379e-06	20.454	0.013491	0.03205	0.0089386	610.84	0.00032144	0.00036433	548.8	175.7	0.00028686	0.00036341	195.92	58.319	61.067	19.596	0.00030622	25.325	152.867	356.401	262.538	108.327	142.900	349.462	106.860	114.019	329.617	140.439	111.684	116.037	118.187	123.908	434.113	120.950	-8191	255	
36078.469	1	1	0	0	0.15694	0.1618	0.12129	0.1224	0.16839	0.10536	0.21561	0.1337	0.064261	0.17421	0.075089	0.022538	0.34561	0.18361	0.087767	0.24205	-2.1542	-1.8083	-2.525	-2.0896	-1.9937	-2.7167	-2.1458	-2.4688	-2.6104	-1.8438	-2.825	-2.2646	-2.1583	-2.6708	-2.0979	-2.5687	110.293	313.346	231.309	422.975	379.824	232.018	343.406	393.633	337.188	330.583	334.648	184.997	345.738	122.411	371.683	216.065	0.00015838	0.0008567	0.00015314	495.9	2.7806e-06	2.4464e-06	488.61	154.63	8.7154e-06	4.6385e-06	164.8	48.339	46.015	15.943	9.1727e-07	20.347	0.013312	0.031657	0.0088535	610.87	0.0003143	0.00035776	550.62	175.94	0.00028487	0.00035931	195.93	58.125	60.664	19.451	0.0002965	25.177	139.874	203.625	154.467	108.256	107.839	351.089	107.052	113.647	235.665	298.237	111.954	115.736	118.464	123.898	252.175	121.019	-8191	255	
36078.562	1	1	0	0	0.13384	0.28486	0.16402	0.23907	0.2209	0.091593	0.059884	0.2934	0.13413	0.048949	0.19365	0.082954	0.10292	0.1482	0.28435	0.031812	-2.2854	-1.775	-2.5062	-2.3438	-2.1396	-2.7313	-2.0375	-2.225	-2.6896	-1.85	-2.6271	-2.5187	-2.0729	-2.7354	-2.0875	-2.3479	450.686	204.512	274.376	409.894	250.501	249.246	373.634	119.464	177.502	446.906	154.050	418.140	220.378	350.002	388.781	178.803	0.00025063	0.0006507	0.00010794	496.98	6.4254e-06	5.7759e-06	485.97	154.02	6.4071e-06	6.9731e-06	164.17	47.73	45.559	15.849	1.289e-05	20.215	0.012929	0.030623	0.0085083	607.31	0.00030583	0.00034836	546.78	175.05	0.00027443	0.00034794	194.55	57.747	60.137	19.314	0.00029822	25.003	125.505	338.453	317.803	108.767	297.954	410.343	107.309	114.447	121.822	272.682	112.058	115.840	118.544	124.076	102.853	120.995	-8191	255	
36078.637	1	1	0	0	0.11028	0.022401	0.31658	0.22883	0.07334	0.24928	0.42848	0.13008	0.033385	0.094889	0.12798	0.098594	0.17205	0.12942	0.079409	0.19417	-2.3937	-1.8917	-2.5917	-2.6604	-1.9062	-2.7521	-2.1542	-2.2188	-2.6479	-1.8854	-2.5479	-2.3771	-1.9167	-2.8688	-2.0687	-2.2771	267.372	305.507	312.418	369.369	134.539	281.981	422.976	412.168	360.126	319.308	253.623	361.861	295.409	117.117	109.714	170.412	0.00021264	0.000944	0.00012749	496.05	6.7968e-06	3.6218e-06	483.15	153.53	7.4111e-06	6.0979e-06	164.63	47.863	45.556	16.027	3.73e-06	20.659	0.013116	0.030966	0.0087209	609.81	0.00031592	0.00035873	547.9	175.06	0.000284	0.00035759	195.4	58.244	60.579	19.516	0.00029992	25.26	145.102	354.404	180.256	108.734	205.852	424.920	107.264	114.155	197.529	178.917	112.063	116.232	118.248	124.064	292.766	121.132	-8191	255	
36078.758	1	1	0	0	0.15481	0.15815	0.096107	0.079307	0.15762	0.029844	0.058307	0.22066	0.1364	0.13508	0.12562	0.20731	0.094772	0.21335	0.063251	0.16671	-2.4646	-1.8813	-2.4229	-2.5896	-1.9062	-2.7479	-2.3625	-1.9167	-2.6854	-1.9229	-2.4729	-2.65	-1.7521	-2.6667	-2.2917	-2.1	312.051	165.643	331.022	411.323	159.024	159.932	203.395	323.289	175.268	277.301	124.743	433.999	314.718	100.527	263.132	114.881	0.00028849	0.00034279	0.00028132	497.46	7.0777e-06	5.9607e-06	485.16	154.67	8.6342e-06	1.6478e-05	165.28	48.322	45.696	15.935	4.3763e-06	20.566	0.012725	0.029715	0.0083781	602.61	0.00029542	0.0003323	543.58	174.04	0.00026388	0.0003349	194.42	58.102	60.015	19.428	0.0002919	25.276	151.114	220.472	145.042	108.485	219.907	211.568	107.305	114.249	135.255	227.177	111.912	116.307	118.369	124.523	163.804	121.588	-8191	255	
36078.852	1	1	0	0	0.11675	0.21502	0.040948	0.070962	0.18483	0.19659	0.29295	0.2659	0.10261	0.12366	0.12704	0.14357	0.11458	0.25648	0.16001	0.032638	-2.3312	-2.0792	-2.3292	-2.6667	-1.9562	-2.5417	-2.4042	-2.025	-2.5938	-2.1104	-2.2979	-2.7188	-1.9062	-2.6562	-2.4833	-1.925	371.106	408.021	127.936	166.323	435.120	402.984	362.544	403.922	280.942	389.535	357.717	100.268	402.175	414.000	121.504	105.462	0.0003937	0.00055171	0.00015109	495.71	3.7014e-06	1.1501e-05	488.37	154.87	5.3775e-06	1.057e-05	165.12	48.343	45.892	15.883	2.9921e-06	20.689	0.012658	0.0299	0.0085798	604.88	0.00030341	0.00034954	547.61	174.81	0.00027446	0.00035086	195.63	58.41	60.453	19.583	0.00030325	25.414	140.722	107.007	130.539	108.231	440.336	285.830	107.267	114.243	157.725	363.423	111.594	116.075	119.029	124.589	214.715	120.981	-8191	255	
36078.949	1	1	0	0	0.096446	0.16887	0.12815	0.17607	0.065751	0.1066	0.063448	0.091751	0.22336	0.15728	0.12733	0.076805	0.083492	0.11505	0.17033	0.029974	-2.3271	-2.1375	-2.2583	-2.7729	-1.9583	-2.525	-2.725	-1.9958	-2.8479	-2.2292	-2.1542	-2.6792	-1.8792	-2.3917	-2.5875	-1.9625	313.054	140.750	268.644	108.923	144.003	271.180	343.664	300.917	315.955	111.139	395.612	411.882	436.273	442.730	368.784	415.774	0.00041155	0.0014542	0.00016499	499.13	2.4486e-06	4.3758e-06	487.03	152.96	1.1232e-05	5.5454e-06	165.21	48.216	45.578	16.032	4.1256e-06	20.683	0.012936	0.03094	0.0087747	606.21	0.0003084	0.00035811	548.02	174.5	0.00027857	0.00035557	195.6	58.061	60.197	19.595	0.00030265	25.273	120.687	113.633	344.563	108.304	173.864	161.828	107.185	114.447	162.363	266.905	111.455	116.614	118.404	123.984	347.453	121.344	-8191	255	
36079.070	1	1	0	0	0.096738	0.23403	0.2622	0.10181	0.062901	0.071448	0.17581	0.065098	0.23882	0.15516	0.087087	0.028414	0.13767	0.27628	0.13167	0.072535	-2.3083	-2.2354	-2.0271	-2.8688	-1.9604	-2.4708	-2.7583	-1.9771	-2.6125	-2.4542	-2.1896	-2.8	-1.8979	-2.3104	-2.7938	-2.0146	422.731	357.098	123.477	234.126	433.412	125.299	327.964	354.098	205.068	370.912	294.414	282.507	439.783	310.120	343.603	304.377	0.00032527	0.0003423	0.00026224	487.82	1.1036e-05	7.9605e-06	481	152.84	9.3312e-06	8.2492e-06	162.67	47.897	45.338	15.892	6.496e-06	20.264	0.012709	0.030546	0.0086423	600.46	0.00030221	0.00034981	542.5	173.36	0.00027192	0.00034601	193.57	57.624	59.985	19.548	0.00030226	25.087	119.942	411.909	268.190	108.656	381.035	236.170	107.625	114.132	237.019	212.438	111.333	116.968	118.673	124.462	410.144	121.484	-8191	255	
36079.164	1	1	0	0	0.10283	0.24819	0.33585	0.084524	0.14552	0.19622	0.076397	0.050032	0.1627	0.049133	0.13157	0.073681	0.23105	0.080569	0.29934	0.23329	-2.2438	-2.5979	-2.0292	-2.8083	-2.1521	-2.2375	-2.6771	-1.9479	-2.4938	-2.5833	-2.0687	-2.6042	-2.1771	-2.1188	-2.7333	-1.8896	396.314	153.228	264.254	442.103	112.971	334.013	280.320	403.088	415.535	131.145	340.790	351.407	167.728	105.514	291.024	175.518	0.00033619	0.00068916	6.9841e-05	490.3	1.3923e-05	4.4957e-06	477.91	153.08	2.1297e-06	1.4631e-05	162.8	47.709	45.443	16.137	2.366e-06	20.353	0.012978	0.031255	0.0088005	601.82	0.00030872	0.00035824	541.54	173.57	0.00027966	0.00035825	193.75	57.484	60.044	19.622	0.00029917	25.13	139.581	265.710	294.224	109.096	211.031	340.986	107.798	114.117	247.747	332.611	112.106	116.251	118.888	124.431	372.255	120.812	-8191	255	
36079.238	1	1	0	0	0.1769	0.15031	0.19328	0.05428	0.063904	0.086532	0.123	0.27974	0.088756	0.18645	0.031853	0.28366	0.057232	0.11236	0.26399	0.13293	-2.1146	-2.3875	-1.875	-2.6312	-2.3875	-1.9792	-2.7292	-1.8875	-2.2667	-2.4604	-1.9958	-2.4813	-2.2896	-1.8708	-2.7542	-2.05	286.846	284.310	284.289	440.441	271.883	332.138	276.889	455.638	418.912	416.065	387.740	384.148	456.040	197.741	364.050	344.948	0.0001575	0.00014817	0.00020228	488.57	4.6685e-06	2.9581e-06	482.76	153.12	2.3425e-06	2.5259e-06	163.36	47.663	44.951	16.282	7.6347e-06	20.451	0.012967	0.030532	0.0085536	599.36	0.0003002	0.00034527	541.84	172.91	0.00026903	0.0003397	192.21	57.037	59.095	19.484	0.00028103	24.986	158.348	114.807	219.720	109.167	207.065	183.325	107.602	114.147	249.188	361.569	111.579	116.361	118.750	124.282	317.804	121.023	-8191	255	
36079.359	1	1	0	0	0.43089	0.089214	0.15337	0.14362	0.01362	0.14902	0.21537	0.13514	0.17676	0.16501	0.19316	0.20377	0.16537	0.10704	0.22262	0.050742	-1.9125	-2.5083	-1.8583	-2.5563	-2.4292	-2.0833	-2.8563	-2.1688	-2.2583	-2.6354	-1.8833	-2.5062	-2.4771	-1.8563	-2.6771	-2.1312	255.918	345.359	444.347	197.962	186.338	249.303	333.535	404.752	216.833	99.389	314.342	414.658	307.569	318.309	303.689	159.831	0.00025716	0.0007557	0.00011035	494.45	6.1416e-06	6.037e-06	482.91	153.68	3.8291e-06	3.2033e-06	164.09	47.336	44.763	16.024	4.9347e-06	20.471	0.012076	0.028625	0.0080191	594.59	0.00028383	0.00032315	542.19	172.53	0.00025722	0.00032233	192.19	56.451	58.779	19.335	0.00028129	24.977	138.133	284.149	295.607	108.719	448.984	316.364	107.177	114.076	351.490	379.133	111.990	116.597	118.736	124.346	171.390	121.456	-8191	255	
36079.453	1	1	0	0	0.080069	0.092048	0.19987	0.082775	0.13206	0.11957	0.28331	0.22484	0.40026	0.082597	0.29097	0.1425	0.30099	0.19557	0.13328	0.28109	-1.8708	-2.6646	-1.8021	-2.4104	-2.4729	-1.8813	-2.7104	-2.2917	-2.1083	-2.8229	-2.0396	-2.3896	-2.7354	-2.0938	-2.7062	-2.3104	97.458	419.261	196.155	188.014	288.938	395.740	241.520	238.173	373.162	233.024	196.933	393.838	421.070	203.382	344.721	200.189	0.00046665	0.00047765	0.00011079	488.4	6.9628e-06	7.4235e-06	484.51	153.4	8.4014e-06	5.3931e-06	162.41	47.108	44.955	15.899	5.9519e-06	20.342	0.012217	0.029114	0.0080681	596.4	0.00029069	0.00033561	540.62	172.41	0.00026638	0.00033649	191.19	56.319	58.868	19.34	0.00028686	24.851	148.319	430.724	304.858	109.308	214.605	236.213	107.637	114.092	214.402	286.941	111.888	117.219	118.727	124.248	252.281	120.975	-8191	255	
36079.551	1	1	0	0	0.15106	0.14884	0.026629	0.1479	0.14046	0.22167	0.12867	0.26356	0.079404	0.22788	0.033162	0.14903	0.20088	0.39906	0.17035	0.029478	-1.6333	-2.8167	-2.0229	-2.4042	-2.5917	-1.8917	-2.8104	-2.3438	-2.0792	-2.8979	-2.0917	-2.4792	-2.8063	-2	-2.4417	-2.5229	157.336	391.843	108.967	361.531	376.674	130.513	450.889	423.191	210.050	369.930	132.417	407.941	263.065	427.365	152.902	199.395	0.00029028	0.0007279	0.00012542	491.96	1.3106e-06	5.0151e-06	477.61	152.44	5.241e-06	1.2215e-05	161.95	46.722	44.438	15.86	2.4297e-06	20.256	0.012529	0.02948	0.0083119	598.12	0.00029755	0.00033733	539.1	172.34	0.00027026	0.0003364	190.92	56.212	58.933	19.265	0.00029188	24.744	133.451	248.722	103.618	109.284	98.808	203.472	107.900	114.065	247.425	259.464	111.649	116.870	118.668	124.080	174.911	121.134	-8191	255	
36079.645	1	1	0	0	0.16328	0.083566	0.27651	0.10798	0.19219	0.18984	0.16153	0.18898	0.13112	0.15068	0.15831	0.12247	0.16802	0.02863	0.19764	0.2458	-1.5396	-2.9292	-2.1333	-2.1458	-2.7604	-1.9333	-2.6583	-2.6167	-1.875	-2.6208	-2.3187	-2.1875	-2.7354	-2.0812	-2.5396	-2.6833	130.092	111.868	134.992	324.600	351.686	156.459	258.699	364.332	307.372	157.831	430.258	311.741	350.681	137.696	166.581	368.004	0.00029595	0.00060248	2.7435e-05	488.22	5.0502e-06	7.4175e-06	481.3	152.51	5.0136e-06	1.8431e-06	161.13	46.166	44.143	15.875	4.1799e-06	20.071	0.012621	0.029609	0.0084026	599.23	0.00029954	0.00033969	540.09	172.5	0.00027038	0.0003424	191.29	55.987	58.729	19.159	0.00029111	24.675	135.835	125.543	310.371	108.913	246.797	415.798	107.103	114.067	289.690	256.206	111.511	116.664	118.869	123.790	334.130	121.223	-8191	255	
36079.766	1	1	0	0	0.030015	0.16095	0.14777	0.14008	0.10796	0.18964	0.11696	0.26177	0.17483	0.14845	0.15124	0.16983	0.074134	0.15405	0.19224	0.199	-1.5958	-2.675	-2.2271	-2.2667	-2.7708	-1.9479	-2.4083	-2.5521	-2.0042	-2.6708	-2.4062	-2.1771	-2.9	-2.1292	-2.3979	-2.6875	151.242	163.835	247.629	312.590	218.271	420.080	285.087	99.656	151.865	381.721	444.729	123.452	410.185	129.443	377.303	122.286	0.00016927	0.0003349	7.1595e-05	487.77	4.5735e-06	6.3065e-06	481.25	151.87	4.543e-06	6.1944e-06	160.97	45.81	43.888	15.65	2.6547e-06	19.883	0.012672	0.029809	0.0084208	600.78	0.00030194	0.00034333	540.02	172.02	0.00026893	0.00033804	190.91	55.489	58.298	19.138	0.00029255	24.6	146.805	177.607	96.250	108.460	296.065	183.556	107.460	114.006	190.277	221.158	112.046	116.081	118.930	123.646	263.794	120.963	-8191	255	
36079.863	1	1	0	0	0.21295	0.15376	0.24033	0.22705	0.14254	0.1654	0.11706	0.2603	0.10985	0.17007	0.19959	0.23248	0.15364	0.093346	0.24858	0.087688	-1.5354	-2.4896	-2.5958	-2.0458	-2.7375	-2.1271	-2.2188	-2.6	-1.8563	-2.7521	-2.4938	-1.8396	-2.7083	-2.2854	-2.3229	-2.875	385.719	389.140	175.331	323.106	322.334	401.817	194.980	378.350	259.632	110.395	418.623	259.262	188.579	440.029	139.760	352.586	0.0002929	0.00088643	9.6031e-05	489.16	8.8778e-06	6.8625e-06	477.39	151.1	4.9683e-06	6.8082e-06	161.4	45.811	44.298	15.952	6.3886e-06	20.164	0.012645	0.029791	0.0084719	597.15	0.00029696	0.00034135	537.33	171.33	0.00027065	0.00034143	190.23	55.385	58.366	19.379	0.00029283	24.787	164.885	261.343	371.733	108.736	238.032	189.138	107.942	114.275	126.782	259.283	111.861	116.868	119.084	124.414	227.871	120.899	-8191	255	
36079.934	1	1	0	0	0.10993	0.17915	0.1016	0.080677	0.086756	0.20311	0.25092	0.094199	0.065597	0.2404	0.2472	0.241	0.23765	0.22089	0.2568	0.058265	-1.5625	-2.5062	-2.4646	-1.9521	-2.9437	-2.1917	-2.1167	-2.75	-2.0583	-2.5104	-2.7042	-1.9021	-2.5542	-2.0292	-2.1312	-2.8083	285.367	286.368	144.311	377.089	285.960	347.115	420.216	169.453	401.898	319.797	408.039	394.243	324.648	101.843	114.360	307.824	0.00030341	0.00032183	3.8112e-05	484.96	4.7954e-06	6.4686e-06	477.24	150.35	4.2836e-06	4.7032e-06	159.61	45.676	44.455	15.726	4.2771e-06	20.058	0.01249	0.029871	0.0085914	594.97	0.0002999	0.00034741	535.74	171.1	0.00027362	0.00035013	189.89	55.325	58.61	19.273	0.0003045	24.705	133.248	256.573	190.684	108.452	186.247	248.118	107.703	114.355	233.574	139.655	111.980	116.908	119.343	124.776	316.903	120.574	-8191	255	
36080.027	1	1	0	0	0.25379	0.14168	0.18047	0.19425	0.35834	0.31126	0.144	0.22897	0.20825	0.29312	0.18573	0.2175	0.24911	0.21288	0.19441	0.16164	-1.6521	-2.2896	-2.5812	-1.9562	-2.7188	-2.2812	-2.1042	-2.9417	-2.1	-2.2667	-2.5729	-2.0354	-2.5396	-2.2562	-2.0479	-2.9021	339.412	314.321	406.509	115.123	175.719	282.286	188.795	366.328	181.941	284.707	373.381	395.685	100.634	445.320	387.506	233.279	0.00014904	0.00047202	0.00023181	488.09	2.6084e-06	6.0654e-06	474.9	151.4	4.8553e-06	2.4214e-06	159.64	45.266	43.417	15.685	7.1373e-06	19.886	0.012928	0.030989	0.0086975	596.39	0.00030679	0.00035288	536.78	171.45	0.0002771	0.00035537	190.13	55.314	58.438	19.215	0.00030344	24.622	184.179	238.040	229.938	108.443	190.377	453.389	107.824	114.287	268.700	236.355	111.981	116.442	118.707	123.993	282.500	120.930	-8191	255	
36080.148	1	1	0	0	0.069498	0.25098	0.22234	0.1231	0.19986	0.0998	0.18014	0.37793	0.1329	0.29819	0.089753	0.042679	0.1403	0.15351	0.20098	0.066631	-1.6146	-2.2875	-2.7229	-2.1813	-2.4479	-2.3521	-1.9333	-2.6708	-2.2896	-2.2208	-2.8438	-1.9896	-2.5208	-2.4604	-2.1458	-2.8479	240.298	145.796	153.291	238.689	414.472	422.959	126.118	386.442	443.447	361.680	455.813	308.674	419.854	383.153	256.676	306.591	0.00042039	0.00022099	0.0001908	487.04	4.8273e-06	7.693e-06	475.73	151.31	6.4513e-06	4.6302e-06	161.8	45.446	44.116	15.811	4.1323e-06	20.215	0.012949	0.030923	0.0085976	596.08	0.00030463	0.00035022	536.39	171.37	0.00027224	0.0003456	190.4	55.261	58.395	19.295	0.00029345	24.796	126.187	317.458	275.720	108.995	321.706	214.237	107.553	113.927	231.225	389.838	111.658	116.236	118.693	123.786	196.128	120.613	-8191	255	
36080.246	1	1	0	0	0.10515	0.2112	0.29946	0.21308	0.031824	0.17531	0.16003	0.064462	0.10296	0.22368	0.13077	0.069898	0.21383	0.34475	0.16196	0.15309	-1.8042	-2.0625	-2.7958	-2.1042	-2.4104	-2.6354	-1.8854	-2.8	-2.3896	-2.0375	-2.7271	-2.0875	-2.4458	-2.7854	-1.7479	-2.7458	404.073	125.453	434.124	452.556	387.132	259.916	302.400	403.141	375.744	247.197	112.354	277.529	314.367	96.492	105.841	313.032	0.00022987	0.0006096	1.8956e-05	482.02	5.169e-06	4.5604e-06	472.1	150.69	2.978e-06	1.1338e-06	159.27	45.342	43.581	15.828	7.5235e-06	19.826	0.012625	0.029963	0.008356	591.35	0.00029469	0.00033956	532.97	170.61	0.00026158	0.00033329	188.34	54.645	57.748	19.127	0.00028232	24.447	142.399	451.953	307.968	108.454	179.322	231.715	107.665	114.072	184.649	372.293	111.347	116.237	118.608	124.156	442.655	120.589	-8191	255	
36080.340	1	1	0	0	0.054573	0.082798	0.14138	0.12294	0.28074	0.085213	0.11642	0.16642	0.10351	0.038849	0.26748	0.31704	0.13346	0.056925	0.14662	0.19732	-2.1063	-1.9562	-2.8	-2.1125	-2.0687	-2.7396	-1.9271	-2.5271	-2.5979	-1.9104	-2.6417	-2.1292	-2.3354	-2.7104	-1.9229	-2.5042	383.165	253.335	285.798	441.093	195.372	329.937	426.179	232.224	353.835	220.867	433.624	417.929	272.651	200.397	133.038	317.095	0.00026565	0.0010209	3.1624e-05	485.13	3.6306e-06	1.0463e-06	471.83	150.28	5.3015e-06	3.5012e-06	160.32	44.575	43.932	15.547	8.0751e-06	19.758	0.012356	0.029382	0.0083381	589.72	0.00030053	0.0003408	531.2	170.5	0.00026713	0.00033859	188.39	54.092	57.608	18.923	0.00028333	24.313	159.060	203.035	222.188	108.403	296.300	326.510	107.126	113.993	97.939	237.725	111.857	116.337	118.183	124.020	223.540	120.824	-8191	255	
36080.438	1	1	0	0	0.13266	0.17624	0.084881	0.24558	0.13317	0.11697	0.17855	0.1004	0.2489	0.016059	0.18912	0.20145	0.18432	0.051795	0.082073	0.089751	-2.1271	-1.9542	-2.7292	-2.1375	-2.0938	-2.9208	-2.1521	-2.4313	-2.5396	-1.9958	-2.7708	-2.1	-1.9583	-2.6604	-1.9583	-2.3396	335.429	205.982	231.000	285.261	107.140	366.727	443.277	298.353	115.024	216.497	362.678	385.034	322.445	301.955	191.200	371.061	0.0002264	0.0010121	0.00019039	483.9	5.1674e-06	7.4952e-06	474.07	150.02	9.894e-06	2.2115e-06	160.26	45.126	43.668	15.595	2.6618e-06	19.885	0.012263	0.02894	0.0081359	590.59	0.00029374	0.00033416	532.6	170.2	0.00026386	0.00033238	188.47	54.335	57.583	19.003	0.00028517	24.408	153.995	149.518	288.558	108.337	318.024	205.523	107.286	114.232	193.095	226.004	111.862	116.120	118.272	123.786	249.145	120.850	-8191	255	
36080.531	1	1	0	0	0.13357	0.17695	0.17882	0.15902	0.086234	0.23547	0.091412	0.06291	0.049796	0.23268	0.18714	0.055001	0.060499	0.0072252	0.16595	0.098838	-2.1813	-2.0146	-2.5771	-2.3125	-2.1375	-2.8812	-2.1292	-2.4083	-2.4104	-1.9813	-2.8292	-2.5771	-1.9271	-2.7083	-2.1646	-2.1417	138.749	384.278	97.553	321.196	171.029	328.411	176.167	357.055	137.752	384.608	356.663	362.360	337.379	123.739	221.226	369.870	0.00023667	0.00076283	0.00029882	485.33	5.224e-06	5.1185e-06	477.9	151.13	3.9571e-06	6.3557e-06	160.27	45.294	44.204	15.807	4.7038e-06	20.086	0.012378	0.029148	0.00828	591.95	0.00029271	0.00033339	533.84	170.96	0.00026456	0.00033284	189.79	55.112	58.236	19.222	0.00028977	24.765	160.333	115.533	290.773	108.762	443.728	150.067	107.201	114.177	297.678	342.625	111.440	116.499	118.375	123.695	217.943	121.019	-8191	255	
36080.629	1	1	0	0	0.11159	0.096356	0.13971	0.12446	0.40153	0.042728	0.24416	0.11753	0.022676	0.11824	0.16916	0.24289	0.11918	0.084945	0.16877	0.079446	-2.3125	-1.6938	-2.6063	-2.5667	-1.975	-2.7438	-2.0833	-2.1813	-2.6188	-1.9792	-2.6	-2.4771	-2.1021	-2.7229	-2.2313	-2.0792	168.992	115.267	346.186	448.374	322.690	216.137	390.063	376.867	290.293	276.635	133.517	277.256	305.579	193.141	300.633	383.042	0.00032289	0.00067065	0.00015188	486.13	6.4764e-06	6.3122e-06	479.5	150.81	6.5113e-06	1.087e-05	159.5	46.028	44.504	15.949	5.7804e-06	20.075	0.012463	0.029541	0.008408	592.79	0.00029851	0.0003417	536.85	171.59	0.00027379	0.00034639	191.62	56.122	59.014	19.44	0.00030464	24.894	143.919	244.785	187.003	108.367	392.471	360.799	107.369	114.136	203.752	251.493	111.747	115.892	118.952	123.850	176.726	120.844	-8191	255	
36080.750	1	1	0	0	0.11663	0.11063	0.18551	0.072635	0.19043	0.18151	0.10847	0.2395	0.1913	0.20658	0.2475	0.082014	0.27094	0.13961	0.29424	0.38109	-2.2583	-1.9167	-2.5104	-2.6188	-1.9729	-2.6688	-2.2583	-1.9937	-2.9083	-2.1562	-2.3708	-2.7854	-2.1083	-2.8187	-2.3438	-2.0438	264.598	310.051	393.545	236.374	431.923	329.165	345.067	450.701	248.090	258.473	411.985	420.796	103.947	290.021	344.476	153.077	0.00040912	0.00041748	0.00019071	486.49	6.3348e-06	1.0482e-05	474.28	150.94	5.9175e-06	7.2004e-06	160.62	45.994	44.301	15.867	1.3359e-05	20.091	0.013046	0.030986	0.0087894	597.92	0.00031097	0.00035953	536.36	171.63	0.00028089	0.000359	191.78	55.885	59.073	19.418	0.00030567	24.889	144.040	354.349	350.474	108.601	348.366	269.544	107.323	114.040	173.342	321.656	111.963	116.370	118.327	123.955	239.130	120.743	-8191	255	
36080.848	1	1	0	0	0.037416	0.10196	0.29302	0.085945	0.15482	0.12984	0.21011	0.24879	0.15173	0.13871	0.14477	0.13975	0.05804	0.11348	0.047688	0.24193	-2.3479	-2.0583	-2.2229	-2.8125	-1.8083	-2.5396	-2.4917	-2.0104	-2.7375	-2.0708	-2.2479	-2.6437	-1.9021	-2.6188	-2.6208	-1.8646	198.415	98.498	255.343	122.358	361.387	194.319	412.325	373.533	170.859	455.549	299.746	194.677	210.862	390.735	114.896	147.825	0.00029437	0.0007048	0.00018349	481.82	5.5729e-06	7.2676e-06	477.52	151.14	5.8579e-06	1.0928e-05	161.86	46.567	44.939	16.029	4.0814e-06	20.167	0.013074	0.031306	0.0088524	595.03	0.00031379	0.00036073	538.17	171.83	0.00028337	0.00035866	192.67	56.46	59.41	19.507	0.00030895	25.038	131.383	174.750	118.682	108.930	357.474	109.912	107.373	114.008	186.217	317.610	111.210	116.064	117.956	124.611	364.911	121.016	-8191	255	
36080.941	1	1	0	0	0.12188	0.030658	0.14259	0.15259	0.11122	0.14694	0.1575	0.03597	0.21527	0.071562	0.13696	0.21644	0.15404	0.10582	0.054874	0.25079	-2.425	-2.1083	-2.05	-2.7146	-1.8896	-2.5021	-2.5687	-1.9542	-2.7708	-2.2229	-2.0708	-2.8	-2.0312	-2.3708	-2.7375	-2.1458	432.846	364.933	399.587	321.626	360.917	175.068	206.626	376.031	342.544	318.804	384.145	422.311	365.938	322.102	328.628	439.121	0.00039826	0.00093883	0.00020695	483.35	6.1183e-06	3.3032e-06	477.87	150.96	1.0234e-05	6.6888e-06	162.48	46.724	44.714	16.041	3.5146e-06	20.452	0.013146	0.03149	0.0088338	597.38	0.00030952	0.00035754	539.62	172.33	0.00027891	0.00035325	193.02	56.754	59.236	19.586	0.00029965	25.126	145.786	137.960	142.138	108.801	454.509	451.353	107.505	113.791	254.921	395.770	111.610	116.794	118.468	124.013	453.574	120.564	-8191	255	
36081.039	1	1	0	0	0.24082	0.072098	0.31371	0.2154	0.074221	0.063095	0.072168	0.26077	0.1354	0.21344	0.18044	0.25025	0.23517	0.065663	0.23479	0.11957	-2.325	-2.0917	-1.8813	-2.7875	-2.1375	-2.3063	-2.6875	-1.9667	-2.4667	-2.5542	-2.0792	-2.8479	-2.0938	-2.1562	-2.5771	-2.0187	193.765	167.243	367.189	333.936	197.686	408.545	302.105	379.723	342.724	395.747	329.197	264.584	381.999	374.094	448.525	418.338	0.00033032	0.00028782	9.2083e-05	484	9.216e-06	6.1334e-06	476.9	152.83	4.8813e-06	2.1185e-06	163.29	47.786	45.434	16.123	4.4652e-06	20.591	0.012824	0.030238	0.0085848	594.77	0.00030257	0.00034772	538.72	172.48	0.00027105	0.00034413	193.42	57.272	59.532	19.574	0.00028934	25.235	169.492	190.179	183.456	108.996	225.970	185.367	107.383	114.657	193.941	422.560	111.456	116.697	118.635	124.231	157.939	121.481	-8191	255	
36081.133	1	1	0	0	0.20153	0.23821	0.36917	0.19954	0.14331	0.13009	0.11799	0.16413	0.18913	0.089497	0.086773	0.030908	0.064338	0.23919	0.084119	0.21244	-2.0875	-2.6021	-1.8937	-2.6604	-2.0896	-2.0417	-2.8125	-1.875	-2.5917	-2.4917	-1.9125	-2.7667	-2.2417	-2.0979	-2.8083	-2.1167	236.965	118.070	117.059	324.365	267.458	395.049	337.703	443.339	164.037	333.579	255.236	368.277	355.718	403.947	212.539	344.894	0.00030201	0.0005909	8.6417e-05	487.97	3.6633e-06	7.446e-06	482.22	153.66	9.0698e-06	6.8287e-06	164.33	47.92	45.164	16.039	4.9645e-06	20.667	0.012416	0.02969	0.0083899	595.31	0.00029637	0.00033989	541.57	172.78	0.00026539	0.00033487	193.22	57.319	59.19	19.457	0.00028754	25.154	151.113	391.600	301.991	109.278	335.286	373.418	107.737	113.996	287.091	341.415	112.143	116.644	118.744	124.231	245.612	121.194	-8191	255	
36081.230	1	1	0	0	0.236	0.20041	0.070373	0.099811	0.066312	0.16285	0.11187	0.15047	0.10639	0.22611	0.17565	0.051556	0.25857	0.058774	0.17724	0.29735	-2.15	-2.5	-1.8854	-2.7292	-2.0292	-1.9958	-2.7979	-1.9021	-2.2229	-2.5563	-1.9312	-2.525	-2.3583	-1.9937	-2.6042	-2.1	195.563	336.541	132.797	403.534	166.039	400.449	207.482	100.207	418.355	214.758	334.034	393.190	190.274	391.268	294.857	294.418	0.00019455	0.00059866	0.00020425	491.22	1.0555e-05	6.627e-06	479.9	152.65	4.2125e-06	1.114e-05	163.23	47.646	45.101	16.076	9.3556e-06	20.374	0.012603	0.029801	0.0084001	596.66	0.00029843	0.00034239	540.91	172.9	0.00026782	0.00034003	193.19	57.387	59.293	19.447	0.00028523	24.968	115.920	126.380	215.373	108.802	118.284	169.660	107.573	114.118	271.944	196.236	111.669	116.390	118.716	123.937	206.922	120.860	-8191	255	
36081.328	1	1	0	0	0.23512	0.26086	0.15791	0.10181	0.29788	0.11735	0.20774	0.24608	0.029972	0.15452	0.19586	0.14341	0.032913	0.34725	0.13494	0.14209	-1.7812	-2.5354	-1.7771	-2.45	-2.4833	-1.9604	-2.8021	-2.0062	-1.9521	-2.6479	-1.9	-2.6042	-2.6	-1.9271	-2.7208	-2.0687	405.593	111.200	325.193	145.727	277.257	415.791	121.450	413.995	317.612	400.331	323.205	215.953	177.540	421.764	233.871	347.862	0.00037121	0.00061224	0.00034264	487.81	1.3963e-06	7.9755e-06	479.11	152.7	1.0832e-06	4.936e-06	163.45	47.782	44.821	15.966	3.6264e-06	20.359	0.012535	0.02942	0.0082938	596	0.00029724	0.0003402	541.08	173.12	0.00027228	0.00033842	193.65	57.629	59.598	19.414	0.00028834	24.984	150.681	177.402	123.603	108.506	147.961	203.954	107.183	114.236	236.913	334.661	111.387	116.559	118.333	124.005	110.197	120.602	-8191	255	
36081.445	1	1	0	0	0.24951	0.11773	0.15289	0.31811	0.09001	0.12869	0.15783	0.26942	0.1477	0.18075	0.12783	0.11209	0.2285	0.095062	0.18518	0.1255	-1.5833	-2.8083	-1.8375	-2.4125	-2.3396	-2.0187	-2.6875	-1.9896	-2.0021	-2.5854	-2.0292	-2.5104	-2.5458	-1.7875	-2.5708	-2.4729	229.451	304.443	386.418	308.280	173.690	309.378	110.507	356.292	245.327	313.310	418.764	150.927	337.488	393.105	357.905	349.352	0.00027915	0.00024533	4.6565e-05	489.89	1.2247e-06	8.944e-06	480.59	153.99	6.6289e-06	6.7038e-06	164.34	48.287	45.394	16.048	3.2065e-06	20.519	0.012497	0.029574	0.00841	597.96	0.00030133	0.00033996	541.86	173.11	0.00027111	0.00033931	193.76	57.952	59.741	19.516	0.0002926	25.172	129.401	283.034	325.348	108.556	136.286	204.264	107.345	114.000	232.968	282.313	111.647	116.533	118.424	123.719	336.160	120.931	-8191	255	
36081.543	1	1	0	0	0.24312	0.19413	0.07942	0.14739	0.24314	0.22553	0.20959	0.076851	0.16827	0.1204	0.34047	0.19972	0.2109	0.090249	0.21095	0.16825	-1.5479	-2.8438	-2.1437	-2.3583	-2.6354	-1.8937	-2.5042	-2.3167	-1.8937	-2.675	-2.0458	-2.275	-2.7875	-2.0417	-2.4958	-2.4917	404.296	445.955	157.757	392.410	262.002	131.145	357.343	367.245	133.765	127.687	420.884	106.902	230.447	255.879	398.373	361.930	0.00024186	0.0001641	0.00027873	490	5.7754e-06	3.4217e-06	483.36	152.63	7.6824e-06	3.486e-06	164.48	48.535	45.618	16.207	6.596e-07	20.594	0.012574	0.029569	0.0084257	598.12	0.00029681	0.00033798	541.78	173.11	0.00026749	0.00033732	194.57	58.085	59.711	19.525	0.00028897	25.159	144.786	434.446	223.309	108.506	356.858	257.673	107.582	113.872	133.330	419.073	111.750	116.464	118.771	124.186	275.955	120.830	-8191	255	
36081.637	1	1	0	0	0.1232	0.17248	0.018118	0.14038	0.19177	0.17761	0.24505	0.14597	0.23051	0.13786	0.30192	0.13945	0.10588	0.29422	0.15829	0.21445	-1.5146	-2.5917	-2.125	-2.2	-2.7188	-1.7917	-2.4458	-2.5	-1.8146	-2.6562	-2.2979	-2.0646	-2.6188	-1.9354	-2.4125	-2.5583	365.400	359.752	328.259	236.425	394.354	388.473	434.863	450.550	206.796	456.199	305.398	113.049	198.208	422.683	295.888	376.262	0.00027857	7.9912e-05	0.00012293	488.17	9.1491e-06	7.0828e-06	480.36	153.73	9.7084e-06	6.2797e-06	163.71	47.844	45.304	15.969	8.1678e-06	20.205	0.012369	0.029122	0.0082196	595.8	0.00029092	0.00033616	541.31	172.66	0.00026375	0.00033366	193.36	57.445	59.412	19.404	0.00028825	24.85	133.076	124.654	257.245	108.281	214.022	202.181	107.324	114.414	332.044	196.324	111.529	116.386	118.014	124.351	228.018	120.861	-8191	255	
#DATA ENDS
