BOXY.EXE: ISS Imagent and Oximeter Data Acquisition Program Version 0.80
Ascii Record File

#ACQ INFORMATION
2  Detector Channels 
16  External MUX Channels 
1  Auxiliary Channels 
5000  Waveform (CCF) Frequency (Hz)
1  Waveforms Skipped 
30  Waveforms Averaged 
1  Cycles Averaged 
16  Acquisitions per Waveform 
10.0806  Updata Rate (Hz) 

#FILE INFORMATION
TRUE -- External MUX Channel results are PARSED.
FALSE -- AC DC and Phase are NOT grouped.
TRUE -- Companion Program Settings File CREATED.
FALSE -- AC data not excluded
FALSE -- DC data not excluded
FALSE -- Phase data not excluded
FALSE -- Auxillary Chn. data not excluded
Tab delimiters

#CALIBRATION STATE
TRUE -- Waveform Calibration Values APPLIED.


#AUX CALIBRATION VALUES
Val Type	aux-1	

Term	1.0000e+00	
Factor	0.0000e+00	


#WF CALIBRATION VALUES
A = Detector Channel
Val Type	A-AC1	A-AC2	A-AC3	A-AC4	A-AC5	A-AC6	A-AC7	A-AC8	A-AC9	A-AC10	A-AC11	A-AC12	A-AC13	A-AC14	A-AC15	A-AC16	A-DC1	A-DC2	A-DC3	A-DC4	A-DC5	A-DC6	A-DC7	A-DC8	A-DC9	A-DC10	A-DC11	A-DC12	A-DC13	A-DC14	A-DC15	A-DC16	A-Ph1	A-Ph2	A-Ph3	A-Ph4	A-Ph5	A-Ph6	A-Ph7	A-Ph8	A-Ph9	A-Ph10	A-Ph11	A-Ph12	A-Ph13	A-Ph14	A-Ph15	A-Ph16	

Term	0.00000e+00	0.00000e+00	0.00000e+00	0.00000e+00	0.00000e+00	0.00000e+00	0.00000e+00	0.00000e+00	0.00000e+00	0.00000e+00	0.00000e+00	0.00000e+00	0.00000e+00	0.00000e+00	0.00000e+00	0.00000e+00	0.00000e+00	0.00000e+00	0.00000e+00	0.00000e+00	0.00000e+00	0.00000e+00	0.00000e+00	0.00000e+00	0.00000e+00	0.00000e+00	0.00000e+00	0.00000e+00	0.00000e+00	0.00000e+00	0.00000e+00	0.00000e+00	0.00000e+00	0.00000e+00	0.00000e+00	0.00000e+00	0.00000e+00	0.00000e+00	0.00000e+00	0.00000e+00	0.00000e+00	0.00000e+00	0.00000e+00	0.00000e+00	0.00000e+00	0.00000e+00	0.00000e+00	0.00000e+00	
Factor	1.00000e+00	1.00000e+00	1.00000e+00	1.00000e+00	1.00000e+00	1.00000e+00	1.00000e+00	1.00000e+00	1.00000e+00	1.00000e+00	1.00000e+00	1.00000e+00	1.00000e+00	1.00000e+00	1.00000e+00	1.00000e+00	1.00000e+00	1.00000e+00	1.00000e+00	1.00000e+00	1.00000e+00	1.00000e+00	1.00000e+00	1.00000e+00	1.00000e+00	1.00000e+00	1.00000e+00	1.00000e+00	1.00000e+00	1.00000e+00	1.00000e+00	1.00000e+00	X	X	X	X	X	X	X	X	X	X	X	X	X	X	X	X	

B = Detector Channel
Val Type	B-AC1	B-AC2	B-AC3	B-AC4	B-AC5	B-AC6	B-AC7	B-AC8	B-AC9	B-AC10	B-AC11	B-AC12	B-AC13	B-AC14	B-AC15	B-AC16	B-DC1	B-DC2	B-DC3	B-DC4	B-DC5	B-DC6	B-DC7	B-DC8	B-DC9	B-DC10	B-DC11	B-DC12	B-DC13	B-DC14	B-DC15	B-DC16	B-Ph1	B-Ph2	B-Ph3	B-Ph4	B-Ph5	B-Ph6	B-Ph7	B-Ph8	B-Ph9	B-Ph10	B-Ph11	B-Ph12	B-Ph13	B-Ph14	B-Ph15	B-Ph16	

Term	0.00000e+00	0.00000e+00	0.00000e+00	0.00000e+00	0.00000e+00	0.00000e+00	0.00000e+00	0.00000e+00	0.00000e+00	0.00000e+00	0.00000e+00	0.00000e+00	0.00000e+00	0.00000e+00	0.00000e+00	0.00000e+00	0.00000e+00	0.00000e+00	0.00000e+00	0.00000e+00	0.00000e+00	0.00000e+00	0.00000e+00	0.00000e+00	0.00000e+00	0.00000e+00	0.00000e+00	0.00000e+00	0.00000e+00	0.00000e+00	0.00000e+00	0.00000e+00	-1.43369e+02	-1.40021e+02	-1.25011e+02	-1.81578e+02	-7.38023e+01	-7.32306e+01	-1.57041e+02	-1.62015e+02	-7.92528e+01	-5.91734e+01	-1.74057e+02	-1.71424e+02	-1.78987e+02	-1.76327e+02	-6.84522e+01	-1.49256e+02	
Factor	1.90294e-05	1.26789e-04	3.84744e-05	1.58984e-01	1.18360e-06	1.40697e-06	1.60266e-01	4.82704e-02	1.15976e-06	1.66629e-06	8.45732e-02	2.76673e-02	2.67142e-02	8.45805e-03	1.20631e-06	1.22680e-02	3.47264e-06	3.99536e-06	1.10900e-06	8.22969e-02	4.30501e-08	4.39776e-08	7.82042e-02	2.51153e-02	4.31453e-08	4.40081e-08	4.24676e-02	1.39384e-02	1.40508e-02	4.41929e-03	4.33643e-08	6.19574e-03	X	X	X	X	X	X	X	X	X	X	X	X	X	X	X	X	



#DISTANCE SETTINGS
A = Detector Channel
A-1	A-2	A-3	A-4	A-5	A-6	A-7	A-8	A-9	A-10	A-11	A-12	A-13	A-14	A-15	A-16	

2.5000e+00	3.0000e+00	2.5000e+00	3.0000e+00	2.0000e+00	3.0000e+00	1.5000e+00	3.0000e+00	3.0000e+00	3.0000e+00	3.0000e+00	3.0000e+00	3.0000e+00	3.0000e+00	1.5000e+00	3.0000e+00	

B = Detector Channel
B-1	B-2	B-3	B-4	B-5	B-6	B-7	B-8	B-9	B-10	B-11	B-12	B-13	B-14	B-15	B-16	

1.0000e+01	1.0000e+01	1.0000e+01	1.4400e+00	1.0000e+01	1.0000e+01	1.5100e+00	1.9400e+00	1.0000e+01	1.0000e+01	1.9900e+00	2.4900e+00	2.4100e+00	2.9000e+00	1.0000e+01	2.9800e+00	




#DATA BEGINS
time	group	step	mark	flag	A-AC1	A-AC2	A-AC3	A-AC4	A-AC5	A-AC6	A-AC7	A-AC8	A-AC9	A-AC10	A-AC11	A-AC12	A-AC13	A-AC14	A-AC15	A-AC16	A-DC1	A-DC2	A-DC3	A-DC4	A-DC5	A-DC6	A-DC7	A-DC8	A-DC9	A-DC10	A-DC11	A-DC12	A-DC13	A-DC14	A-DC15	A-DC16	A-Ph1	A-Ph2	A-Ph3	A-Ph4	A-Ph5	A-Ph6	A-Ph7	A-Ph8	A-Ph9	A-Ph10	A-Ph11	A-Ph12	A-Ph13	A-Ph14	A-Ph15	A-Ph16	B-AC1	B-AC2	B-AC3	B-AC4	B-AC5	B-AC6	B-AC7	B-AC8	B-AC9	B-AC10	B-AC11	B-AC12	B-AC13	B-AC14	B-AC15	B-AC16	B-DC1	B-DC2	B-DC3	B-DC4	B-DC5	B-DC6	B-DC7	B-DC8	B-DC9	B-DC10	B-DC11	B-DC12	B-DC13	B-DC14	B-DC15	B-DC16	B-Ph1	B-Ph2	B-Ph3	B-Ph4	B-Ph5	B-Ph6	B-Ph7	B-Ph8	B-Ph9	B-Ph10	B-Ph11	B-Ph12	B-Ph13	B-Ph14	B-Ph15	B-Ph16	aux-1	digaux	

1157.222	1	1	0	256	0.070784	0.1706	0.11685	0.075697	0.058619	0.30297	0.16277	0.24557	0.082743	0.070897	0.18288	0.27264	0.15013	0.23484	0.24183	0.058661	-1.95	-2.2917	-2.8979	-2.2479	-2.9146	-2.5792	-2.2333	-2.9729	-2.5542	-2.4021	-3.0396	-2.3187	-3.0187	-2.5271	-2.1521	-2.9708	391.141	65.746	161.395	221.389	165.411	407.541	397.428	342.005	383.404	388.245	307.643	57.824	405.189	95.079	118.718	209.595	0.00049495	0.00040346	0.00013844	1317.7	4.7285e-06	4.7661e-06	1328	368.52	6.6118e-06	3.6529e-06	421.99	141.65	122.82	42.441	4.2917e-06	53.021	0.0003228	0.0002922	7.9668e-05	1332.6	3.2062e-06	3.1429e-06	1342	372.66	3.2112e-06	3.1262e-06	427.07	144.14	124.95	43.275	3.1188e-06	53.988	139.120	119.633	147.677	64.624	198.764	195.808	64.285	69.094	198.667	214.589	68.439	72.688	73.530	77.996	218.395	77.396	-8191	255	
1157.318	1	1	0	0	0.17985	0.034401	0.16306	0.16833	0.076097	0.21437	0.046758	0.13436	0.1001	0.21198	0.23311	0.34444	0.20316	0.2303	0.071514	0.10686	-1.9562	-1.9937	-2.975	-2.2792	-2.6437	-2.7812	-2.175	-3.1229	-2.375	-2.2583	-2.9938	-2.2229	-2.675	-3.0917	-2.0187	-3.0375	61.702	279.079	335.526	53.075	167.835	111.247	98.654	362.402	272.034	263.503	388.657	365.789	106.839	369.432	172.187	308.516	0.00051798	0.00039277	6.3197e-05	1321	4.4776e-06	3.5396e-06	1330.2	367.14	3.7709e-06	6.0124e-06	422.81	142.28	123.68	42.636	5.6694e-06	53.07	0.00031005	0.0002754	7.5542e-05	1331.6	2.9371e-06	2.9099e-06	1342.6	371.85	2.9739e-06	2.8928e-06	427.09	144.74	125.16	43.44	2.887e-06	54.172	142.426	129.763	162.902	64.580	201.504	179.709	64.468	68.988	186.620	220.387	68.544	72.851	73.193	77.828	224.624	77.053	-8191	255	
1157.439	1	1	0	0	0.25708	0.008257	0.13415	0.097515	0.19467	0.11009	0.21801	0.21137	0.13428	0.044508	0.13391	0.20193	0.0535	0.23518	0.42429	0.11431	-2.0542	-2.2667	-2.8458	-2.3521	-2.6646	-2.7854	-2.2958	-3.0292	-2.4125	-2.0354	-3.0667	-2.5833	-2.6479	-2.8646	-1.9958	-3.0354	402.696	236.110	231.884	336.413	293.650	109.406	351.947	374.243	99.643	374.401	328.057	118.520	187.153	53.684	393.009	351.386	0.00046595	0.00045342	0.00010611	1318	3.6876e-06	3.0298e-06	1324.7	366.67	4.7976e-06	6.8481e-06	422.64	141.89	122.61	42.412	4.9145e-06	52.873	0.00029676	0.00025828	7.0942e-05	1328.9	2.8569e-06	2.8155e-06	1336.5	371.29	2.8828e-06	2.8222e-06	426.86	144.34	124.72	43.266	2.9979e-06	53.919	140.294	148.319	166.628	64.217	225.602	223.259	64.163	69.026	208.085	205.803	68.560	72.382	73.375	78.013	186.296	77.174	-8191	255	
1157.535	1	1	0	0	0.12093	0.24811	0.062271	0.23069	0.083336	0.035697	0.19798	0.11875	0.040333	0.18047	0.25524	0.13794	0.13559	0.13725	0.1543	0.092649	-2.1979	-1.9146	-2.9604	-2.4167	-2.3021	-3.1312	-2.4562	-2.9062	-2.5667	-2.1	-3.0646	-2.3812	-2.2708	-3.0729	-2.375	-2.75	181.874	226.729	339.826	360.819	225.674	321.049	284.247	383.753	279.067	158.752	374.601	295.009	338.800	144.112	410.704	364.062	0.00048454	0.00046052	9.6247e-05	1324.3	5.0853e-06	4.0486e-06	1330.6	367.9	5.1546e-06	2.3433e-06	423.12	141.14	122.58	42.156	4.2869e-06	52.432	0.00030836	0.00027423	7.5701e-05	1332.5	3.1428e-06	3.0564e-06	1343.9	372.8	3.1955e-06	3.226e-06	427.45	143.68	124.35	42.912	3.3754e-06	53.513	140.455	133.247	135.099	64.226	213.685	208.287	64.206	69.066	204.395	205.106	68.354	72.463	73.336	77.978	219.739	76.993	-8191	255	
1157.607	1	1	0	0	0.22391	0.088538	0.11114	0.31551	0.077603	0.23452	0.10967	0.23235	0.24303	0.16131	0.17047	0.035949	0.037311	0.36984	0.046622	0.28984	-2.2646	-1.9896	-3.0583	-2.4979	-2.2354	-3.0042	-2.3792	-2.8563	-2.7229	-1.9667	-2.9458	-2.7062	-2.3521	-3.1229	-2.1729	-2.6083	275.830	350.831	384.137	374.659	88.250	74.449	393.500	379.244	101.798	323.837	101.920	121.410	85.400	377.315	170.233	254.020	0.00053031	0.00050665	0.00010087	1318.9	5.7004e-06	1.4571e-06	1329.5	367.31	3.5917e-06	7.7044e-06	422.11	140.47	121.9	41.941	5.103e-06	52.462	0.00034734	0.00032481	9.0636e-05	1331.2	3.7368e-06	3.7184e-06	1341.9	372.35	3.8815e-06	3.966e-06	428.48	143.07	124.06	42.747	3.8673e-06	53.419	138.779	138.053	139.706	64.119	174.909	198.808	63.873	68.817	184.107	209.247	68.309	72.439	73.412	77.642	211.973	77.171	-8191	255	
1157.703	1	1	0	0	0.21139	0.26854	0.10938	0.35935	0.22444	0.1225	0.11817	0.36379	0.22171	0.082221	0.098889	0.40498	0.1127	0.11056	0.13161	0.29779	-2.4125	-2.0646	-2.7521	-2.6229	-2.2708	-3.1396	-2.3479	-2.675	-3.0958	-2.0167	-2.7375	-2.7875	-2.2396	-3.0687	-2.1292	-2.65	392.756	396.090	392.055	385.451	169.816	330.358	374.209	324.105	211.752	372.841	356.631	401.757	298.631	354.328	239.406	312.301	0.0005019	0.0005639	0.0001409	1329.3	5.0205e-06	5.3748e-06	1332.6	369.3	4.6533e-06	4.7446e-06	423.72	140.75	121.95	41.77	5.311e-06	52.394	0.00037269	0.00034636	9.5132e-05	1341.8	3.7833e-06	3.7426e-06	1350.8	373.68	3.8568e-06	3.753e-06	428.5	143.18	124.07	42.76	3.7029e-06	53.402	138.931	104.549	139.987	64.316	192.826	209.304	64.260	69.026	207.216	219.747	68.584	72.574	73.140	77.980	181.591	77.270	-8191	255	
1157.822	1	1	0	0	0.2086	0.061154	0.20319	0.17549	0.16131	0.18761	0.24233	0.2374	0.082552	0.16677	0.13794	0.064987	0.10444	0.1839	0.19003	0.09691	-2.45	-1.8979	-2.6917	-2.7708	-2.0354	-2.9521	-2.7375	-2.3854	-3.1	-2.1479	-2.725	-2.8104	-2.0771	-2.925	-2.3563	-2.625	298.031	341.551	364.384	363.900	90.313	317.289	345.451	343.296	172.313	384.318	395.065	320.601	51.381	405.825	333.558	395.951	0.00048605	0.00049036	7.1345e-05	1326.4	4.6097e-06	2.7618e-06	1336.1	368.26	6.8589e-06	3.0987e-06	422.88	140.89	122.46	42.241	4.97e-06	52.705	0.00035666	0.00033054	9.2119e-05	1337.5	3.6061e-06	3.5082e-06	1347.9	372.45	3.5062e-06	3.3766e-06	428.82	143.48	124.18	43.025	3.1779e-06	53.78	140.959	144.400	128.047	64.540	194.262	206.007	64.208	69.180	196.364	181.257	68.391	72.634	73.330	77.847	211.113	77.096	-8191	255	
1157.918	1	1	0	0	0.11753	0.083097	0.3756	0.42869	0.17926	0.10077	0.11762	0.17369	0.098533	0.25659	0.14263	0.20235	0.045487	0.1137	0.16179	0.38216	-2.6	-1.9833	-2.4792	-2.8667	-2.1854	-2.8292	-2.5563	-2.3625	-2.9708	-2.275	-2.6646	-2.9729	-2.0812	-2.9667	-2.4854	-2.2979	279.204	76.099	72.384	319.191	87.127	141.206	259.611	395.693	176.320	211.894	275.969	385.093	399.494	62.587	357.404	274.453	0.00050275	0.00048882	0.00013865	1327	6.0131e-06	3.4364e-06	1327	368.16	5.0514e-06	4.54e-06	423.33	141.42	123.15	42.184	5.312e-06	52.837	0.00032005	0.00028806	7.8192e-05	1338.4	3.1138e-06	3.0736e-06	1345.7	372.85	3.077e-06	3.0923e-06	428.59	143.85	124.69	43.063	3.1877e-06	53.72	137.453	115.086	106.207	64.258	189.843	205.069	64.336	69.117	188.298	202.719	68.535	72.874	73.437	77.993	189.679	77.058	-8191	255	
1158.014	1	1	0	0	0.19001	0.053697	0.11778	0.34356	0.22767	0.074239	0.21439	0.35208	0.29396	0.18779	0.34936	0.20322	0.15266	0.25492	0.17953	0.31512	-2.6979	-2.3771	-2.3333	-2.9875	-2.2521	-2.8042	-2.6958	-2.3542	-3.0208	-2.3521	-2.3292	-3.0604	-2.1646	-2.825	-2.4188	-2.2167	175.000	115.243	370.790	373.712	207.932	199.708	322.563	395.608	119.469	240.586	364.979	368.717	395.165	405.461	387.368	351.602	0.00049001	0.00051662	0.00014521	1323.5	5.2171e-06	5.2708e-06	1329.9	369.03	4.6703e-06	3.9293e-06	423.08	141.03	121.83	42.052	3.0853e-06	52.7	0.00031982	0.00028886	8.169e-05	1336.9	3.2439e-06	3.1579e-06	1344.1	372.58	3.2776e-06	3.1615e-06	428.07	143.26	123.98	42.911	3.179e-06	53.573	142.280	126.687	143.481	64.346	189.131	193.640	64.438	69.265	205.748	219.995	68.424	72.778	73.481	78.237	233.832	77.149	-8191	255	
1158.135	1	1	0	0	0.20617	0.11364	0.28226	0.2844	0.29457	0.12808	0.083011	0.39574	0.16357	0.30137	0.062186	0.23058	0.16735	0.19913	0.22342	0.39445	-2.7083	-2.4042	-2.3063	-2.9125	-2.25	-2.7292	-2.95	-2.1437	-2.7792	-2.375	-2.35	-2.8917	-2.0979	-2.6271	-2.8542	-2.0083	121.604	174.274	276.395	375.805	319.928	362.654	288.567	338.882	361.241	381.337	173.778	361.099	107.056	268.784	179.491	66.895	0.00050042	0.00052715	0.00010849	1327.3	3.6597e-06	3.8169e-06	1327.9	366.72	5.288e-06	5.3131e-06	421.15	140.38	121.68	41.822	3.9755e-06	52.23	0.00032466	0.00029474	8.1465e-05	1338.3	3.3034e-06	3.1705e-06	1343.4	371.83	3.3163e-06	3.229e-06	427.34	142.91	123.54	42.699	3.2571e-06	53.299	141.209	126.391	128.425	64.414	190.679	199.884	64.406	69.260	198.837	201.832	68.650	72.613	73.597	77.958	209.591	77.347	-8191	255	
1158.206	1	1	0	0	0.055926	0.31892	0.37998	0.62351	0.092462	0.093764	0.26604	0.16987	0.10959	0.14706	0.33388	0.060261	0.19201	0.19509	0.043152	0.097319	-2.5917	-2.3458	-2.3167	-3.2208	-2.1271	-2.4708	-3.0917	-2.3542	-2.8542	-2.4646	-2.1937	-3.1021	-2.2271	-2.4958	-2.975	-2.0542	360.413	83.184	380.010	60.156	120.091	396.375	362.196	323.144	82.016	145.671	347.118	57.543	56.058	53.687	190.445	286.504	0.00049907	0.0002128	0.00011233	1320.1	3.9716e-06	4.4982e-06	1327.3	366.84	5.45e-06	5.7215e-06	420.15	140.25	121.38	42.019	4.0982e-06	52.282	0.000326	0.00029928	8.11e-05	1331.8	3.2914e-06	3.2776e-06	1339.8	370.44	3.2257e-06	3.1629e-06	426.07	142.31	123.3	42.665	3.1726e-06	53.203	140.647	155.108	179.194	64.499	195.072	170.253	64.534	69.350	206.688	220.781	68.667	72.664	73.481	78.218	231.587	77.372	-8191	255	
1158.303	1	1	0	0	0.14668	0.098613	0.3748	0.059134	0.098545	0.14571	0.29387	0.062456	0.22122	0.23739	0.24162	0.42683	0.25164	0.13338	0.10685	0.19911	-2.2896	-2.6896	-2.0583	-3.2292	-2.1604	-2.4729	-3.1542	-2.3292	-2.825	-2.6896	-1.9708	-2.9708	-2.5812	-2.5125	-2.8917	-2.0208	203.898	287.711	63.784	95.105	238.737	127.173	369.347	195.784	314.022	112.745	52.261	370.213	76.348	360.654	126.529	345.212	0.00054108	0.00029769	0.0001433	1322	3.2415e-06	3.7406e-06	1326.4	367.05	4.3652e-06	4.9417e-06	421.54	140.95	121.94	42.034	4.3047e-06	52.218	0.00031901	0.00028996	7.9155e-05	1334.6	3.1934e-06	3.152e-06	1342	371.3	3.174e-06	3.072e-06	425.83	142.58	123.4	42.752	3.1363e-06	53.168	140.074	103.069	192.446	64.426	229.596	208.325	64.209	69.015	185.712	209.446	68.783	72.778	73.458	78.376	209.578	77.417	-8191	255	
1158.423	1	1	0	0	0.15719	0.1311	0.058394	0.12947	0.20082	0.33718	0.052786	0.28929	0.052872	0.1006	0.17745	0.17067	0.13291	0.26226	0.17617	0.19357	-2.3563	-2.8812	-2.1167	-2.9583	-2.4854	-2.25	-3.1542	-2.225	-2.6229	-2.9583	-2.0771	-3.1896	-2.625	-2.2354	-3.0396	-2.2396	84.261	323.599	152.705	237.835	386.935	357.156	358.618	366.343	212.872	62.585	343.704	71.402	86.852	64.615	145.443	360.626	0.00049578	0.00032112	0.00015681	1318	4.1188e-06	3.7647e-06	1329.1	365.47	4.7671e-06	5.0025e-06	419.33	140.04	121.83	41.776	3.9824e-06	52.051	0.00031675	0.00027872	7.9266e-05	1332.7	3.157e-06	3.0696e-06	1341.7	370.61	3.1118e-06	3.0571e-06	425.23	142.51	123.41	42.66	3.1136e-06	53.119	140.294	145.548	149.678	64.494	203.175	234.548	64.470	69.213	183.621	194.056	68.608	72.826	73.455	77.978	182.104	77.166	-8191	255	
1158.519	1	1	0	0	0.13983	0.08899	0.13434	0.27727	0.28014	0.11617	0.36972	0.33647	0.32037	0.3393	0.20035	0.087629	0.23504	0.2508	0.029597	0.26968	-2.025	-2.875	-2.0354	-2.8187	-2.3958	-2.2687	-3.2812	-2.4292	-2.5396	-3	-2.1937	-2.8604	-2.7188	-2.3021	-2.8896	-2.4208	401.630	358.426	140.388	373.279	189.751	106.253	341.783	290.322	326.983	330.032	410.248	240.514	374.491	383.652	115.643	369.772	0.00051118	0.00056676	0.00015242	1317.5	5.5267e-06	6.7354e-06	1327.2	366.14	4.1322e-06	3.7023e-06	421.22	139.44	121.48	41.663	4.0874e-06	52.256	0.00031068	0.00027803	7.6551e-05	1331.3	3.0916e-06	3.0426e-06	1339.6	370.31	3.1637e-06	3.0007e-06	425.44	141.97	123.26	42.553	3.089e-06	53.221	139.339	148.945	159.918	64.681	216.564	193.909	64.479	69.403	180.264	224.913	68.686	73.101	73.750	78.355	213.750	77.353	-8191	255	
1158.616	1	1	0	0	0.097029	0.15402	0.17245	0.097441	0.19724	0.16481	0.37779	0.18046	0.15499	0.020473	0.20936	0.21442	0.37514	0.097424	0.23766	0.045511	-1.9021	-2.8292	-2.1667	-3.0729	-2.2625	-2.1583	-3.2062	-2.6021	-2.3833	-3.1354	-2.1292	-2.6292	-2.6396	-2.2875	-2.9229	-2.4771	61.750	91.993	58.914	356.145	213.362	367.789	326.234	358.074	368.638	389.976	306.914	324.507	354.445	407.805	190.907	85.059	0.00047251	0.00047434	0.00014221	1322.7	4.9909e-06	4.129e-06	1323.4	364.09	6.452e-06	7.6835e-06	421.31	140.41	121.7	41.869	6.4173e-06	52.122	0.00031661	0.00028059	7.7626e-05	1331.8	3.1225e-06	3.0807e-06	1337.9	369.63	3.0914e-06	3.0168e-06	425.61	142.06	122.97	42.595	3.0636e-06	53.155	143.638	156.860	163.668	64.462	187.501	202.493	64.373	68.871	183.608	203.075	68.628	73.002	73.580	78.509	222.871	77.424	-8191	255	
1158.734	1	1	0	0	0.037015	0.10278	0.06234	0.43683	0.05261	0.069206	0.35169	0.3365	0.19059	0.14408	0.43002	0.073268	0.08347	0.14676	0.13436	0.2213	-1.8813	-3.1	-2.1146	-2.7938	-2.8125	-2.1875	-2.9938	-2.5583	-2.2333	-3.1292	-2.0479	-2.7083	-2.9896	-2.3458	-2.7708	-2.4896	103.771	302.350	378.125	386.912	333.792	368.944	376.108	356.800	334.631	310.157	377.659	109.723	320.895	74.253	277.137	334.665	0.00048158	0.00028001	0.0001496	1313.2	4.6357e-06	5.8158e-06	1320.6	363.56	8.0297e-06	5.4991e-06	416.23	139.33	120.85	41.544	3.5281e-06	52.027	0.00030569	0.00026375	7.4509e-05	1325.2	2.9942e-06	2.9751e-06	1332.1	368.51	3.039e-06	2.8684e-06	423.1	141.71	122.76	42.406	2.9069e-06	53.026	141.642	131.506	130.943	64.639	183.374	193.217	64.499	69.128	221.957	223.029	68.466	73.088	73.789	78.288	234.375	77.543	-8191	255	
1158.831	1	1	0	0	0.08181	0.34157	0.090576	0.41907	0.13433	0.13668	0.054678	0.12154	0.084986	0.11429	0.11627	0.18415	0.29238	0.036031	0.092453	0.1296	-1.9	-2.9646	-2.15	-2.5667	-3.0583	-2.1063	-2.9375	-2.9229	-2.425	-2.9125	-2.4688	-2.5729	-3.0312	-2.1229	-2.7938	-2.8604	248.944	406.475	126.559	346.091	120.491	193.815	393.046	386.198	61.101	264.972	164.441	328.300	329.797	301.673	408.970	271.885	0.00051034	0.00032147	0.00011393	1308.7	6.3022e-06	3.1402e-06	1316.6	363.06	4.0541e-06	5.1411e-06	419.63	138.91	120.77	41.749	4.1114e-06	52.125	0.00030905	0.00026479	7.2811e-05	1321.1	2.9043e-06	2.8318e-06	1330.3	367.93	2.9513e-06	2.8204e-06	423.66	141.46	122.63	42.505	2.8507e-06	53.088	144.296	126.862	150.837	64.882	198.848	200.242	64.627	69.332	220.790	226.857	68.555	72.998	73.560	78.162	206.447	77.354	-8191	255	
1158.902	1	1	0	0	0.24163	0.19917	0.11137	0.063059	0.14288	0.098485	0.18035	0.28884	0.094557	0.21457	0.20799	0.14762	0.17248	0.18712	0.26494	0.16444	-1.6375	-2.8896	-2.4458	-2.6896	-3.025	-2.1604	-2.8667	-3.1437	-2.2646	-2.9854	-2.625	-2.3542	-3.0167	-2.2604	-2.6396	-2.9583	55.082	92.865	93.033	378.060	116.779	330.687	341.389	334.375	142.768	389.866	336.598	399.544	323.226	385.896	51.670	328.294	0.00052595	0.00029784	0.00013971	1311	3.8904e-06	3.9993e-06	1314.1	362.78	3.9076e-06	8.6925e-06	419.31	139.46	120.7	41.712	2.5096e-06	52.215	0.00029878	0.00025965	7.1697e-05	1320.9	2.9323e-06	2.8364e-06	1327.4	367.82	2.9221e-06	2.7533e-06	423.01	141.76	122.73	42.543	2.7534e-06	53.219	140.476	121.203	138.389	64.886	214.966	191.482	64.623	69.450	203.850	189.166	68.512	72.869	73.563	78.020	221.039	77.377	-8191	255	
1158.998	1	1	0	0	0.025313	0.082025	0.19618	0.30189	0.22387	0.17377	0.21619	0.068976	0.15855	0.16636	0.14182	0.24	0.077805	0.35272	0.084077	0.073432	-1.7208	-2.8708	-2.4437	-2.3771	-3.1167	-2.2375	-2.5479	-2.9688	-2.175	-3.0125	-2.6854	-2.2771	-3.0208	-2.4708	-2.7479	-3.0708	99.128	65.765	131.813	61.412	151.823	350.308	330.993	230.451	221.098	364.756	288.400	378.654	230.032	364.131	380.664	348.984	0.00047475	0.00033303	0.00021234	1308.8	6.5463e-06	5.1905e-06	1313.3	363.28	5.4405e-06	5.9496e-06	418.93	139.83	121.28	41.837	7.1822e-06	52.409	0.00028322	0.00024508	6.8553e-05	1315.9	2.731e-06	2.6929e-06	1324.6	367.37	2.7528e-06	2.6841e-06	422.78	142.1	123.08	42.582	2.7127e-06	53.286	142.444	151.251	157.985	64.797	206.099	189.483	64.918	69.397	217.394	209.789	68.867	73.168	73.713	78.482	195.417	77.537	-8191	255	
1159.119	1	1	0	0	0.083293	0.15473	0.16551	0.3783	0.1429	0.19026	0.1861	0.23142	0.17388	0.35524	0.23649	0.18763	0.15488	0.089694	0.1962	0.19763	-1.6604	-2.5625	-2.7333	-2.3021	-2.9896	-2.1625	-2.6708	-3.2729	-2.1021	-2.5396	-2.6542	-2.1021	-2.9813	-2.425	-2.4354	-3.2625	119.530	234.471	66.653	369.374	342.623	147.825	356.924	400.961	199.827	345.577	354.172	81.859	162.048	58.804	372.251	353.473	0.0004598	0.00048677	0.00014417	1300.2	4.3978e-06	3.9661e-06	1305.9	362.41	4.1737e-06	4.3717e-06	417.96	139.23	120.99	41.809	3.6186e-06	52.328	0.00028044	0.00024431	6.8296e-05	1310.5	2.7926e-06	2.6513e-06	1318.9	366.14	2.8041e-06	2.6522e-06	421.73	141.59	122.81	42.488	2.8272e-06	53.171	142.296	120.767	149.593	64.682	224.816	190.586	64.609	69.459	207.409	202.798	68.903	73.366	73.873	78.304	193.908	77.665	-8191	255	
1159.215	1	1	0	0	0.13373	0.21337	0.13584	0.24005	0.19193	0.022508	0.22756	0.19226	0.081082	0.081616	0.27634	0.22547	0.20835	0.13176	0.20961	0.14806	-1.8708	-2.7646	-2.7583	-2.325	-2.8917	-2.4542	-2.2979	-3.1479	-2.225	-2.6083	-2.8042	-2.2354	-2.95	-2.6583	-2.3333	-3.0354	321.036	368.591	59.081	379.023	358.994	170.221	349.999	349.576	130.458	223.560	86.499	259.654	108.844	385.235	272.332	329.636	0.00045025	0.00066906	0.00016792	1304.5	4.1832e-06	2.2605e-06	1308.4	362.14	5.7518e-06	5.7562e-06	416.65	139.76	120.83	41.599	4.9161e-06	52.015	0.00029202	0.00025235	6.9745e-05	1314	2.8147e-06	2.8136e-06	1322.4	366.67	2.8531e-06	2.7442e-06	421.51	141.65	122.6	42.468	2.8479e-06	53.068	140.767	134.798	121.790	64.924	206.934	188.005	64.957	69.474	208.639	226.609	69.323	73.175	73.968	78.137	210.177	77.844	-8191	255	
1159.311	1	1	0	0	0.086766	0.096068	0.048768	0.032729	0.24309	0.25904	0.2158	0.21945	0.17203	0.12759	0.058174	0.10777	0.37209	0.37576	0.1907	0.089178	-1.8208	-2.4375	-2.7521	-2.4396	-2.8646	-2.7146	-2.2792	-3.0938	-2.3458	-2.5667	-2.8771	-2.1708	-2.8167	-2.8521	-2.2375	-2.9708	309.310	343.471	123.718	272.136	356.236	367.839	244.370	394.454	182.918	179.377	294.347	81.532	54.959	362.711	362.758	234.085	0.0005225	0.00034394	0.00016693	1302	4.9205e-06	5.4e-06	1310.5	362.72	5.9735e-06	4.6873e-06	417.59	139.28	120.76	41.696	6.0344e-06	52.075	0.00029522	0.0002533	6.9786e-05	1312	2.8412e-06	2.7832e-06	1323.1	366.7	2.8679e-06	2.7665e-06	422.75	141.69	122.59	42.482	2.879e-06	53.042	139.915	127.298	151.391	65.030	215.545	204.166	64.754	69.545	207.603	214.582	68.885	73.059	73.892	78.475	186.244	77.411	-8191	255	
1159.408	1	1	0	0	0.24392	0.23767	0.067364	0.18976	0.19605	0.03324	0.42802	0.07242	0.26077	0.16078	0.22564	0.29163	0.1093	0.28255	0.19428	0.2839	-1.7583	-2.4688	-3.0229	-2.2	-2.7271	-2.9437	-2.2958	-3.1125	-2.6354	-2.4083	-3.2313	-2.4021	-2.5292	-2.8229	-2.0708	-3.1271	165.891	375.931	353.184	107.273	122.445	329.597	359.894	368.177	199.285	110.576	284.146	407.372	149.470	353.030	280.350	408.705	0.00048057	0.00052345	9.175e-05	1303.6	6.2358e-06	5.8757e-06	1310.4	364.04	5.1459e-06	5.5404e-06	418.29	139.17	121.33	41.779	4.424e-06	52.367	0.00030203	0.00025724	6.9565e-05	1313.7	2.8571e-06	2.8277e-06	1323.6	367.35	2.8639e-06	2.8474e-06	422.56	141.89	122.88	42.557	2.9132e-06	53.197	139.168	144.386	166.116	64.979	199.618	216.371	64.838	69.680	183.185	224.584	69.427	73.396	74.098	78.422	208.602	77.580	-8191	255	
1159.504	1	1	0	0	0.14792	0.23371	0.12411	0.24355	0.32001	0.19903	0.36437	0.37256	0.14085	0.17384	0.1913	0.19877	0.095006	0.18548	0.15898	0.17453	-2.0792	-2.3	-2.8083	-2.2146	-2.7375	-2.7812	-2.2833	-2.8604	-2.3104	-1.9875	-2.9229	-2.1146	-2.2313	-3.0312	-2.075	-2.8208	174.134	390.195	316.819	302.836	380.878	398.869	335.747	382.892	154.287	287.814	341.650	291.201	363.239	52.129	58.573	326.274	0.00048094	0.00051908	0.00014868	1306.5	6.1163e-06	4.1384e-06	1310.5	363.59	5.2572e-06	5.4198e-06	417.69	139.45	120.7	41.748	5.4602e-06	51.983	0.00029405	0.00026747	7.2998e-05	1314.6	2.865e-06	2.8641e-06	1325.4	367.3	3.0096e-06	2.9203e-06	422.63	141.75	122.65	42.468	2.9958e-06	53.089	143.370	131.349	154.068	64.882	190.009	192.603	64.851	69.427	218.046	212.781	68.929	73.159	73.974	78.261	215.991	77.617	-8191	255	
1159.600	1	1	0	0	0.19207	0.040362	0.12369	0.13049	0.13824	0.064909	0.13513	0.13309	0.30144	0.13633	0.1069	0.16987	0.23709	0.28959	0.23626	0.15494	-2.0833	-1.9583	-2.8958	-2.3479	-2.1375	-2.8187	-2.2646	-2.9146	-2.4104	-2.1646	-3.0354	-2.6833	-2.4688	-2.8875	-1.7667	-2.9021	86.475	220.343	81.374	91.620	236.636	87.725	353.252	353.182	92.133	338.311	383.239	390.901	64.810	385.868	170.787	325.698	0.00048991	0.00044562	0.00013031	1305.5	4.6923e-06	4.984e-06	1315.8	361.39	4.6562e-06	4.1694e-06	419.35	140	120.88	41.594	3.8305e-06	52.24	0.000305	0.00027167	7.4005e-05	1317.1	2.9934e-06	2.9038e-06	1323.9	366.72	3.0052e-06	2.9683e-06	423.78	141.88	122.76	42.46	2.9824e-06	53.087	143.845	111.956	150.519	65.104	209.974	187.106	64.661	69.440	215.662	173.569	68.794	73.022	73.809	78.107	213.369	77.765	-8191	255	
1159.696	1	1	0	0	0.036993	0.11604	0.17215	0.37212	0.19141	0.13793	0.28642	0.30797	0.13893	0.10233	0.20944	0.17312	0.085843	0.12762	0.17322	0.17859	-2.6125	-2.1854	-2.6708	-2.6208	-2.3375	-2.9167	-2.2542	-2.9417	-2.7812	-2.2792	-3.0563	-2.6188	-2.2896	-2.9896	-2.2042	-2.7729	83.509	334.159	116.622	379.094	195.912	330.698	331.111	382.442	198.729	312.403	370.756	116.739	283.982	324.096	371.912	401.335	0.00052872	0.00032476	0.00010882	1303.3	5.9013e-06	3.7326e-06	1311.9	362.96	5.7246e-06	4.6403e-06	417.72	139.21	120.99	41.662	6.0975e-06	52.002	0.00030635	0.00026984	7.5828e-05	1316.1	2.9733e-06	2.9594e-06	1325.9	367.63	2.9838e-06	2.9723e-06	423.16	141.47	122.59	42.445	3.0246e-06	53.091	137.423	157.674	115.973	64.821	198.103	237.036	64.539	69.458	195.469	209.388	68.691	72.790	73.730	78.256	200.011	77.621	-8191	255	
1159.817	1	1	0	0	0.19899	0.062437	0.14722	0.29949	0.21011	0.22544	0.28456	0.3449	0.18175	0.024862	0.33683	0.16918	0.18472	0.15518	0.16647	0.18414	-2.3875	-2.0646	-2.8333	-2.775	-2.1792	-2.8583	-2.5021	-2.7271	-2.7271	-2.1792	-2.8646	-2.5938	-2.2938	-3.1021	-2.3875	-2.6542	343.730	354.046	57.788	386.842	85.842	302.633	383.210	317.426	53.655	158.695	59.651	327.595	322.922	71.479	98.835	57.794	0.00049798	0.00035182	0.00016441	1304	5.5454e-06	4.5099e-06	1312	362.21	5.1942e-06	3.1842e-06	420.78	139.59	120.72	41.758	3.8904e-06	52.223	0.0003065	0.00027448	7.6288e-05	1315.4	3.0053e-06	2.9464e-06	1326.1	366.88	3.0496e-06	2.9705e-06	423.57	141.76	122.55	42.43	2.9354e-06	53.036	141.520	124.271	148.075	64.708	223.368	198.973	64.519	69.285	203.239	213.087	68.811	73.042	73.669	78.463	199.285	77.367	-8191	255	
1159.911	1	1	0	0	0.17596	0.42347	0.25547	0.36455	0.44257	0.081147	0.26881	0.42504	0.31657	0.0302	0.23037	0.16066	0.13674	0.20447	0.21129	0.0092969	-2.4188	-2.0729	-2.8187	-2.7583	-2.1063	-2.9	-2.5646	-2.3875	-2.8417	-1.9104	-2.7771	-2.9562	-2.2208	-2.9854	-2.3042	-2.3542	285.943	323.175	164.698	378.928	57.576	230.307	349.358	387.297	101.046	85.709	360.594	332.654	69.525	346.292	128.518	178.207	0.0004881	0.0004597	0.00013696	1306.6	4.7519e-06	4.9295e-06	1312.2	361.04	4.7283e-06	4.243e-06	417.72	139.3	120.37	41.667	4.5777e-06	52.063	0.00030795	0.00026431	7.4266e-05	1315.7	3.0616e-06	2.9569e-06	1325.7	366.51	3.047e-06	2.9914e-06	422.31	141.59	122.38	42.377	2.9363e-06	52.936	135.805	123.710	161.730	64.500	199.112	190.620	64.554	69.404	196.250	207.819	68.484	72.520	73.390	77.994	204.326	77.089	-8191	255	
1160.007	1	1	0	0	0.039461	0.29786	0.029037	0.38989	0.21571	0.068104	0.24045	0.068954	0.28393	0.13637	0.21871	0.20734	0.16378	0.081306	0.16482	0.32037	-2.8646	-2.0563	-2.6312	-3.0021	-2.2542	-2.7875	-2.6583	-2.4292	-2.9188	-2.1521	-2.6	-2.9646	-2.2917	-2.9208	-2.5333	-2.375	331.515	295.156	387.084	332.794	233.239	311.022	377.880	237.125	150.425	360.538	329.134	364.554	59.293	197.419	83.926	361.394	0.00052683	0.00039823	0.00014924	1307.6	4.2901e-06	4.608e-06	1313.6	361.14	4.7748e-06	4.2252e-06	417.25	139.74	120.66	41.698	4.0342e-06	52.148	0.0003081	0.00027308	7.3453e-05	1317.1	2.9698e-06	2.9249e-06	1325.3	366.71	2.9758e-06	2.9544e-06	421.83	141.52	122.4	42.461	2.8887e-06	52.98	143.709	119.373	152.463	64.183	213.754	199.720	64.119	68.945	208.777	228.151	68.215	72.765	73.323	77.975	203.278	77.002	-8191	255	
1160.103	1	1	0	0	0.18129	0.26598	0.11006	0.18064	0.092636	0.16614	0.19154	0.058431	0.15332	0.31784	0.23491	0.13266	0.25287	0.32762	0.19077	0.081109	-2.6063	-2.0458	-2.5187	-3.0208	-2.0021	-2.7667	-2.7271	-2.4104	-2.8458	-2.2167	-2.4167	-2.9938	-2.2104	-2.9562	-2.4875	-2.3479	220.778	257.760	264.959	334.007	354.080	245.061	328.261	306.943	181.602	111.447	398.540	388.517	348.499	407.967	170.586	269.559	0.00051905	0.00040521	0.00010686	1305.5	5.834e-06	4.4862e-06	1310.2	361.11	5.7301e-06	7.371e-06	416.85	138.92	120.68	41.572	3.8738e-06	51.904	0.00030355	0.00026433	7.1789e-05	1315.2	2.9172e-06	2.8515e-06	1323.5	365.99	2.888e-06	2.8426e-06	421.45	141.49	122.19	42.342	2.8828e-06	52.898	141.274	128.015	132.368	64.209	194.161	192.538	64.006	68.825	201.733	210.706	68.392	72.642	73.369	77.857	207.687	77.187	-8191	255	
1160.199	1	1	0	0	0.17604	0.15012	0.13755	0.13695	0.1972	0.24102	0.23732	0.25599	0.20152	0.14778	0.19625	0.24503	0.21807	0.26694	0.12279	0.16037	-2.6479	-2.2896	-2.3042	-3.0875	-2.1896	-2.8375	-2.8146	-2.1958	-2.7979	-2.3854	-2.4771	-3.0687	-2.2396	-2.7458	-2.7667	-2.3417	122.416	99.820	354.354	88.317	316.721	96.106	359.551	278.546	275.151	321.842	81.446	262.246	328.301	61.645	255.298	226.248	0.00047003	0.00035346	0.00016382	1301.1	5.5885e-06	5.2977e-06	1309.2	361.27	4.9729e-06	6.9412e-06	416.4	138.42	119.86	41.49	5.9262e-06	51.973	0.00029928	0.0002596	7.3187e-05	1312.5	2.9087e-06	2.8312e-06	1321	366.43	2.911e-06	2.8538e-06	421.24	140.9	121.98	42.279	2.8615e-06	52.783	140.723	126.822	150.123	64.129	176.218	173.175	64.095	68.792	195.772	200.954	68.330	72.489	73.175	77.751	221.330	76.842	-8191	255	
1160.296	1	1	0	0	0.16105	0.19834	0.084892	0.33932	0.11504	0.11606	0.19589	0.4586	0.28641	0.094179	0.16123	0.22842	0.28162	0.40962	0.054574	0.21752	-2.6042	-2.3563	-2.2	-3.125	-2.3667	-2.5354	-3.025	-2.2042	-2.7354	-2.45	-2.3438	-2.8854	-2.3688	-2.6167	-2.7042	-2.4792	378.948	63.025	345.659	372.962	314.661	158.118	370.648	391.673	164.378	187.013	243.296	397.787	64.473	399.505	313.715	262.898	0.00050647	0.00044839	0.00015121	1298.2	3.8447e-06	5.7262e-06	1302	361.69	5.8818e-06	4.802e-06	414.64	138.7	120.8	41.428	5.0197e-06	51.776	0.00029561	0.0002634	7.352e-05	1310.6	2.9224e-06	2.8604e-06	1318.9	365.5	2.8708e-06	2.7916e-06	420.08	141.03	122.05	42.285	2.7764e-06	52.793	140.790	158.321	128.717	64.401	206.551	196.477	64.109	68.853	216.976	232.433	68.462	72.877	73.368	77.939	215.866	77.051	-8191	255	
1160.392	1	1	0	0	0.17163	0.32421	0.17159	0.22896	0.053578	0.0631	0.16357	0.33662	0.13274	0.19124	0.25428	0.080658	0.18766	0.027576	0.32386	0.37074	-2.375	-2.5438	-2.1937	-3.0604	-2.2542	-2.4688	-3.0042	-2.1271	-2.7792	-2.6125	-2.3563	-3.0292	-2.3833	-2.3729	-2.9292	-2.1813	57.181	90.721	129.115	375.421	61.527	235.519	367.521	308.521	206.801	74.753	376.934	249.424	72.301	406.535	150.718	53.352	0.00049791	0.00037815	0.00013877	1298.7	4.1345e-06	4.3189e-06	1304.4	360.69	4.774e-06	6.5739e-06	414.95	139.58	120.07	41.569	4.3294e-06	51.976	0.00029347	0.00025381	7.0401e-05	1310.5	2.9135e-06	2.7316e-06	1319.4	365.14	2.8693e-06	2.7403e-06	420.58	141.36	122.07	42.358	2.7694e-06	52.84	138.306	112.282	120.688	64.267	196.003	200.763	64.152	68.874	199.624	207.475	68.313	72.858	73.194	77.965	207.723	77.017	-8191	255	
1160.512	1	1	0	0	0.1502	0.29389	0.14183	0.48133	0.21588	0.20031	0.25887	0.23575	0.36811	0.089704	0.23404	0.24347	0.15781	0.26524	0.10831	0.24512	-2.3292	-2.6458	-2.1125	-3.075	-2.3646	-2.5583	-2.9458	-1.9521	-2.4771	-2.6792	-2.1833	-2.8917	-2.6229	-2.2521	-2.8583	-2.25	80.856	68.476	196.530	373.236	138.461	238.237	376.434	323.858	328.724	154.986	401.126	382.512	386.622	95.894	300.841	76.173	0.00045728	0.00047641	0.00012481	1302	6.6734e-06	4.4854e-06	1305.6	359.84	3.6046e-06	3.7099e-06	413.27	139.08	120.47	41.529	7.8082e-06	51.89	0.00028753	0.00024928	6.9269e-05	1311.3	2.8234e-06	2.7435e-06	1318.9	365.36	2.8493e-06	2.7235e-06	420.06	140.93	121.83	42.259	2.8397e-06	52.805	140.766	142.698	138.855	64.270	213.559	192.785	64.157	69.051	206.227	213.441	68.318	72.823	73.332	77.914	201.480	77.021	-8191	255	
1160.609	1	1	0	0	0.16112	0.07312	0.25514	0.3912	0.12298	0.063981	0.059597	0.19577	0.1056	0.32389	0.043781	0.30738	0.12655	0.22915	0.089948	0.21138	-2.1958	-2.8563	-2.0875	-2.8854	-2.3312	-2.2396	-3.2521	-2.5521	-2.5729	-2.8917	-2.1063	-2.8688	-2.7521	-2.1521	-2.8812	-2.3271	58.417	300.784	312.225	354.654	208.935	148.367	372.586	376.166	114.744	306.710	390.284	391.761	363.768	391.277	359.647	338.069	0.00050967	0.00054167	9.1715e-05	1295.7	8.2031e-06	4.3303e-06	1305.9	360.96	3.9489e-06	4.5531e-06	413.73	138.82	119.57	41.523	3.6174e-06	51.857	0.00029021	0.00025147	7.0669e-05	1308.2	2.8553e-06	2.7649e-06	1318.2	365.08	2.8454e-06	2.7372e-06	419.87	141.05	121.63	42.269	2.7127e-06	52.766	143.884	132.447	151.531	64.222	203.940	239.881	64.179	68.931	226.835	223.100	68.456	72.639	73.284	77.972	214.692	77.266	-8191	255	
1160.703	1	1	0	0	0.22086	0.11878	0.22734	0.193	0.11464	0.070489	0.34753	0.12127	0.10135	0.40736	0.26412	0.19064	0.21918	0.047814	0.15889	0.18528	-2.1958	-3.0563	-2.0812	-2.8333	-2.7062	-2.15	-3.0938	-2.4	-2.5396	-2.7354	-2.1937	-2.85	-2.8833	-2.3021	-2.9042	-2.35	279.968	254.097	134.987	372.979	327.641	402.102	388.697	369.740	192.360	100.909	93.512	95.252	361.776	332.501	177.217	315.336	0.00053922	0.00061668	0.00015264	1294.5	6.3373e-06	3.1313e-06	1310.2	360.23	5.9875e-06	4.7307e-06	415.33	138.67	119.43	41.537	3.9577e-06	51.875	0.00028744	0.00025121	7.0133e-05	1308.2	2.7501e-06	2.7861e-06	1319.9	365.08	2.7992e-06	2.7191e-06	419.97	140.85	121.62	42.275	2.8078e-06	52.701	143.339	126.653	163.857	64.319	198.351	227.484	64.136	68.939	209.483	219.726	68.335	72.878	73.313	77.935	204.209	77.072	-8191	255	
1160.776	1	1	0	0	0.36699	0.16596	0.13401	0.43016	0.0091937	0.26949	0.41252	0.38061	0.054542	0.1862	0.13471	0.041474	0.096316	0.10001	0.021479	0.19624	-2	-3.1167	-1.9292	-2.7271	-2.7042	-2.2854	-3.0979	-2.6688	-2.1625	-2.9958	-2.4062	-2.5958	-2.9375	-2.1771	-3.0125	-2.5604	390.061	280.085	268.081	326.999	136.683	262.832	327.091	395.507	195.750	269.085	290.845	251.253	134.646	310.203	289.260	335.138	0.00044795	0.00042314	0.00013734	1296.7	4.71e-06	2.9086e-06	1305.7	358.49	4.1125e-06	6.7159e-06	414.17	138.89	120.04	41.378	3.754e-06	51.774	0.00029133	0.00024914	7.0161e-05	1309.5	2.8454e-06	2.763e-06	1319.1	364.44	2.8691e-06	2.7906e-06	419.54	140.8	121.65	42.165	2.8014e-06	52.632	140.834	129.864	159.326	64.336	198.797	207.132	64.381	68.970	189.964	197.478	68.668	72.698	73.352	77.999	228.214	77.256	-8191	255	
1160.895	1	1	0	0	0.17947	0.23662	0.065145	0.1392	0.17585	0.19456	0.32109	0.15746	0.26747	0.21901	0.22979	0.20804	0.037419	0.15112	0.048804	0.58137	-1.8229	-3.0042	-2.0104	-2.5146	-2.7667	-2.0729	-2.8771	-2.7104	-2.1229	-3.0833	-2.6333	-2.7167	-2.9958	-2.0208	-2.5958	-2.4062	293.382	359.504	205.224	133.756	304.403	289.222	338.224	71.135	185.159	289.094	398.986	399.281	62.630	62.113	201.917	330.639	0.00051594	0.00044022	0.00011425	1295	3.6944e-06	5.0055e-06	1305.9	360.85	3.3375e-06	7.5321e-06	415.77	138.8	119.83	41.192	4.8896e-06	51.676	0.00029645	0.00025628	7.0505e-05	1309.3	2.8273e-06	2.7633e-06	1319.4	365.03	2.8163e-06	2.7006e-06	419.68	140.84	121.62	42.151	2.7977e-06	52.725	139.060	90.448	137.929	64.431	199.211	212.068	64.345	69.064	221.153	206.421	68.357	73.003	73.335	77.898	214.340	76.974	-8191	255	
1160.991	1	1	0	0	0.33286	0.074271	0.2558	0.42762	0.21139	0.12242	0.24138	0.3629	0.20701	0.23625	0.26481	0.17442	0.14208	0.3009	0.11382	0.22088	-1.4937	-2.7042	-2.15	-2.3021	-2.85	-1.9271	-2.8208	-2.8229	-2.1604	-2.8312	-2.5167	-2.2104	-3.1208	-2.325	-2.5583	-2.6813	262.978	159.195	66.417	377.580	99.893	355.870	358.764	373.226	390.376	193.475	324.092	408.561	139.990	362.399	384.868	137.029	0.0005063	0.00035534	0.00014006	1295.2	3.8468e-06	3.4695e-06	1302.8	361.13	5.0009e-06	6.4219e-06	415.64	138.64	120.31	41.419	3.555e-06	51.675	0.00029432	0.00025171	6.828e-05	1307	2.8357e-06	2.7911e-06	1319	365.08	2.8998e-06	2.7806e-06	419.92	140.81	121.96	42.246	2.7805e-06	52.681	141.419	148.485	195.982	64.494	190.911	235.012	64.444	69.027	216.822	201.960	68.262	72.561	73.350	77.765	236.593	77.317	-8191	255	
1161.088	1	1	0	0	0.04468	0.072344	0.092214	0.28177	0.054946	0.22995	0.21082	0.1634	0.11226	0.04156	0.27263	0.089594	0.17941	0.25103	0.16675	0.044352	-1.4813	-2.775	-2.3542	-2.425	-2.8917	-2	-2.5687	-2.9938	-1.7583	-2.8125	-2.6333	-2.3333	-3.0771	-2.1375	-2.1583	-3.0917	139.582	238.837	372.974	372.970	352.705	379.247	352.441	367.920	161.201	405.306	92.282	333.879	397.147	80.291	252.802	106.298	0.00047714	0.00046139	4.883e-05	1300.9	5.616e-06	4.5004e-06	1310	361.56	6.0851e-06	6.7326e-06	413.84	138.9	120.49	41.378	2.7042e-06	51.741	0.00029609	0.00025233	6.9766e-05	1310.4	2.8771e-06	2.8104e-06	1321.3	365.32	2.8279e-06	2.7026e-06	420.06	141.02	121.96	42.189	2.7609e-06	52.717	137.053	132.186	117.706	64.334	209.505	218.443	64.516	68.927	192.932	179.778	68.556	73.001	73.518	78.034	218.707	77.106	-8191	255	
1161.184	1	1	0	0	0.24211	0.14533	0.12668	0.37077	0.15312	0.34746	0.13267	0.089785	0.11674	0.16013	0.25446	0.51496	0.080198	0.16695	0.12277	0.18897	-1.8021	-2.7896	-2.3063	-2.3875	-2.8771	-2.2708	-2.5583	-2.9188	-1.9937	-2.6167	-2.8333	-2.2021	-3.0479	-2.1375	-1.9896	-3.0542	380.577	108.239	223.586	406.480	204.450	356.335	189.776	241.209	357.647	181.865	303.626	362.949	288.562	334.311	170.858	68.678	0.00047779	0.0005024	0.00015483	1296.5	6.5106e-06	5.5374e-06	1305.3	360.91	5.8364e-06	5.6471e-06	416.4	138.02	120.01	41.578	4.7901e-06	51.888	0.00028811	0.0002463	6.9278e-05	1308.7	2.784e-06	2.7342e-06	1319.2	365.04	2.8827e-06	2.7007e-06	419.55	140.57	121.76	42.191	2.7725e-06	52.733	141.800	135.709	147.354	64.221	202.746	171.259	64.336	68.935	191.772	228.028	68.374	72.839	73.460	78.075	209.118	77.199	-8191	255	
1161.304	1	1	0	0	0.071565	0.16212	0.14068	0.28642	0.17013	0.11607	0.20303	0.079924	0.12398	0.18934	0.26764	0.07402	0.27549	0.19832	0.14768	0.084232	-1.8708	-2.6208	-2.7854	-2.2104	-2.8979	-2.1021	-2.3375	-3.225	-2.0792	-2.6979	-3.025	-2.2687	-3.0229	-2.4458	-2.0687	-2.75	186.993	270.078	267.126	373.468	148.785	289.684	391.357	119.802	322.062	350.682	55.323	398.036	403.331	361.050	93.799	291.891	0.00044434	0.00040903	0.00010959	1295.2	2.1651e-06	5.2706e-06	1303.8	361.14	4.1616e-06	6.7207e-06	414.32	138.47	119.68	41.306	2.9699e-06	51.876	0.00028513	0.00024797	6.7021e-05	1307.4	2.7151e-06	2.7059e-06	1316.3	364.72	2.8178e-06	2.6987e-06	419.48	140.66	121.62	42.139	2.7605e-06	52.699	140.448	136.224	162.028	64.532	191.144	200.395	64.372	69.074	206.078	179.176	68.552	72.640	73.473	77.864	213.377	77.273	-8191	255	
1161.376	1	1	0	0	0.16055	0.077007	0.21923	0.25617	0.13717	0.23394	0.48884	0.080531	0.18158	0.24795	0.1029	0.16732	0.059924	0.25755	0.11932	0.085498	-1.6771	-2.4813	-2.9104	-2.3771	-2.6708	-2.4625	-2.4146	-3.2958	-2.0812	-2.5438	-2.8396	-2.0938	-2.8187	-2.8479	-1.8792	-2.95	256.713	247.570	218.327	375.801	62.151	214.635	323.089	327.162	394.831	385.640	396.343	393.850	362.035	69.334	164.788	94.145	0.00048193	0.00038515	0.00015913	1297.6	4.6845e-06	3.5843e-06	1304.3	361.47	3.9375e-06	5.6413e-06	415.85	138.44	119.63	41.562	3.3947e-06	52.13	0.00028574	0.00024851	6.8308e-05	1307.2	2.7487e-06	2.6686e-06	1318.2	364.92	2.7647e-06	2.7807e-06	420.13	140.59	121.7	42.222	2.7956e-06	52.798	141.168	103.841	143.412	64.500	189.440	184.817	64.379	69.079	193.909	210.293	68.358	72.700	73.616	77.819	207.680	77.676	-8191	255	
1161.497	1	1	0	0	0.18874	0.1337	0.11081	0.21405	0.13306	0.066317	0.27426	0.2733	0.137	0.29733	0.13705	0.30579	0.31481	0.050175	0.054219	0.08633	-1.7771	-2.225	-2.7	-2.1729	-2.6688	-2.5292	-2.2938	-3.0021	-2.3063	-2.3875	-3.0729	-2.0979	-2.5687	-2.8333	-2.0312	-3.3438	171.102	317.968	350.085	368.404	298.396	76.494	317.463	377.044	78.007	186.943	395.320	88.481	338.214	276.741	94.134	318.771	0.00048297	0.00060533	0.00010235	1302.6	3.3027e-06	2.7376e-06	1311.2	361.07	5.7721e-06	6.8641e-06	417.05	137.74	119.69	41.55	3.3399e-06	51.757	0.00029363	0.00024881	6.9569e-05	1310.1	2.7268e-06	2.6182e-06	1319.1	365.12	2.7754e-06	2.668e-06	420.79	140.57	121.75	42.289	2.7558e-06	52.768	136.992	112.027	167.979	64.521	190.095	211.152	64.515	69.115	204.916	197.061	68.444	72.711	73.554	77.970	218.136	77.268	-8191	255	
1161.593	1	1	0	0	0.20565	0.069786	0.11499	0.17995	0.028991	0.23863	0.46826	0.32063	0.11057	0.23111	0.11736	0.29555	0.065891	0.12918	0.15826	0.24333	-1.9375	-2.2604	-2.8167	-2.1	-2.6708	-2.7354	-2.3479	-2.9833	-2.4167	-2.0333	-3.15	-2.1417	-2.7458	-2.8458	-2.0312	-2.9792	172.221	292.354	155.129	81.820	78.463	77.971	304.431	354.828	143.383	59.637	191.459	68.934	61.401	77.856	157.357	357.416	0.00051359	0.00044816	8.0307e-05	1296.4	5.2016e-06	5.0361e-06	1306.9	360.47	6.1951e-06	7.4985e-06	415.63	138.49	119.69	41.46	6.3196e-06	51.681	0.00028669	0.00025054	6.9414e-05	1307.3	2.7696e-06	2.7095e-06	1317	364.7	2.7884e-06	2.7892e-06	420.19	140.55	121.65	42.261	2.7301e-06	52.727	137.630	128.413	138.064	64.530	205.151	217.025	64.412	69.457	195.951	199.920	68.456	73.151	73.510	78.082	196.645	77.332	-8191	255	
1161.689	1	1	0	0	0.2974	0.21227	0.23297	0.20907	0.15873	0.20521	0.34086	0.26276	0.069125	0.077638	0.26972	0.17013	0.23145	0.12187	0.19584	0.1253	-2.2125	-1.9479	-2.8208	-2.3646	-2.5646	-2.9875	-2.3729	-2.9979	-2.55	-2.125	-3.1125	-2.45	-2.3083	-2.875	-2.1562	-2.8021	138.985	197.539	189.864	53.504	114.581	232.321	353.211	90.535	403.124	94.879	57.623	358.596	52.606	378.044	360.134	346.754	0.00049126	0.00041328	0.00012192	1303.8	4.8957e-06	4.234e-06	1309	360.79	5.6026e-06	6.2418e-06	416.3	138.62	119.75	41.535	5.8902e-06	52.037	0.00028926	0.00025205	6.6949e-05	1308.7	2.7853e-06	2.6584e-06	1317.7	365.06	2.8126e-06	2.7007e-06	420.08	140.84	121.8	42.303	2.7463e-06	52.841	137.960	107.945	124.751	64.556	215.941	202.668	64.559	69.248	213.548	204.841	68.554	72.971	73.824	78.147	214.295	77.248	-8191	255	
1161.785	1	1	0	0	0.27434	0.14227	0.080507	0.24067	0.16768	0.18271	0.26089	0.35909	0.21182	0.21974	0.1641	0.16199	0.21536	0.0055962	0.21038	0.36861	-2.4979	-2.0646	-3.0354	-2.5458	-2.0208	-2.9042	-2.2438	-2.8625	-2.6479	-2.2479	-2.9771	-2.3646	-2.2896	-2.9708	-2.1604	-2.8771	235.796	158.614	62.002	362.610	279.661	282.251	387.013	379.088	392.858	299.905	270.946	103.924	376.588	55.152	268.782	396.695	0.00045896	0.00052078	0.00015409	1294.8	6.9929e-06	3.2567e-06	1303.5	360.49	4.5e-06	4.9262e-06	415.2	138.62	119.43	41.582	5.7935e-06	51.878	0.00028121	0.00024279	6.7189e-05	1306.3	2.731e-06	2.6531e-06	1312.8	364.58	2.751e-06	2.6808e-06	419.2	140.84	121.55	42.283	2.7513e-06	52.79	139.432	133.321	120.026	64.562	194.457	199.555	64.369	69.141	220.916	190.224	68.436	72.883	73.527	77.876	210.553	77.222	-8191	255	
1161.904	1	1	0	0	0.072076	0.2067	0.19497	0.31772	0.1707	0.12499	0.26943	0.05514	0.16559	0.061	0.32532	0.33406	0.19487	0.26883	0.37952	0.1481	-2.475	-2.2062	-2.95	-2.7208	-2.2396	-2.8875	-2.325	-2.7583	-2.9042	-2.075	-2.8375	-2.4646	-2.2958	-3.0104	-2.2646	-2.35	387.230	349.457	230.658	364.799	137.476	133.854	340.810	247.388	54.601	375.013	404.105	71.269	123.935	106.110	205.398	225.186	0.00050474	0.00055374	0.00012756	1294.2	3.7389e-06	4.7174e-06	1306.8	361.46	4.9668e-06	5.2421e-06	416.07	138.61	119.95	41.368	5.7593e-06	51.742	0.0002795	0.0002426	6.6873e-05	1306.3	2.7753e-06	2.6726e-06	1317.4	365.22	2.7352e-06	2.75e-06	419.61	140.77	121.77	42.232	2.7075e-06	52.78	140.804	139.687	107.664	64.479	209.288	180.118	64.244	69.392	221.874	206.119	68.890	72.738	73.359	77.933	226.880	77.266	-8191	255	
1162.000	1	1	0	0	0.38066	0.12381	0.21088	0.13277	0.11213	0.25206	0.062829	0.12884	0.14238	0.090972	0.10216	0.18897	0.18296	0.29445	0.13267	0.27668	-2.4437	-2.1542	-2.8792	-2.8937	-2.1333	-2.8229	-2.425	-2.4583	-2.95	-2.0208	-2.8604	-2.5958	-2.3854	-3.1708	-2.1729	-2.2729	99.895	127.407	95.244	322.045	215.574	134.945	338.222	395.580	375.248	125.125	330.160	54.818	387.134	401.232	120.826	294.546	0.00048523	0.00048968	0.00011521	1293.9	5.5671e-06	4.6055e-06	1301.8	359.18	4.8857e-06	5.5537e-06	414.16	138.36	119.44	41.5	5.1712e-06	51.971	0.00028858	0.00024668	6.8365e-05	1307.3	2.7793e-06	2.7145e-06	1314.5	364.46	2.7675e-06	2.7471e-06	419.26	140.53	121.68	42.245	2.7473e-06	52.825	139.797	139.764	151.872	64.302	198.630	203.986	64.284	69.262	231.941	176.200	68.492	72.701	73.511	78.325	202.777	77.386	-8191	255	
1162.096	1	1	0	0	0.074148	0.27056	0.13033	0.13191	0.22866	0.10273	0.20564	0.27611	0.10622	0.24342	0.23446	0.34828	0.4115	0.11261	0.22104	0.23787	-2.5729	-2.2292	-2.7229	-2.9521	-2.1729	-2.8812	-2.3937	-2.2271	-2.8708	-2.1667	-2.6667	-2.9	-2.1396	-2.7188	-2.4646	-2.3833	263.925	392.019	170.556	383.119	104.811	216.908	56.690	401.213	181.077	219.047	350.214	366.851	373.527	319.359	135.568	336.367	0.00049469	0.00042247	0.00013627	1296.9	6.0066e-06	5.8314e-06	1304	360.29	3.8114e-06	6.591e-06	414.36	138.3	120.15	41.623	6.2505e-06	51.988	0.00028484	0.00025063	6.7104e-05	1307.6	2.7958e-06	2.7371e-06	1316.2	364.74	2.7556e-06	2.6983e-06	419.04	140.74	121.79	42.342	2.7164e-06	52.881	144.861	133.549	120.079	64.300	198.622	189.120	64.194	68.874	200.803	216.297	68.509	72.800	73.673	78.012	215.120	77.435	-8191	255	
1162.192	1	1	0	0	0.28353	0.19248	0.11949	0.42716	0.12421	0.065546	0.36869	0.060529	0.43671	0.18349	0.30974	0.184	0.03773	0.16126	0.13195	0.24745	-2.4792	-2.0771	-2.3625	-2.8396	-2.0979	-2.6667	-2.6562	-2.2542	-2.9729	-2.1917	-2.3792	-2.7562	-2.1792	-3.0312	-2.6208	-2.0938	406.962	407.810	155.946	354.830	391.476	392.606	396.063	386.179	311.278	185.118	53.874	86.725	129.323	382.612	220.557	356.412	0.00050012	0.00041222	0.0001154	1297.5	6.4021e-06	4.5241e-06	1303	360.17	2.587e-06	3.3092e-06	416.57	138.37	120.26	41.371	4.6749e-06	51.934	0.00028826	0.00025304	6.8169e-05	1306.6	2.8091e-06	2.6652e-06	1314.6	364.39	2.8033e-06	2.7104e-06	419.88	140.56	121.55	42.181	2.7507e-06	52.766	142.151	125.395	165.861	64.421	205.232	230.275	64.376	69.078	187.275	222.486	68.798	72.948	73.842	78.469	212.315	77.647	-8191	255	
1162.289	1	1	0	0	0.22851	0.11107	0.35703	0.23502	0.26635	0.13598	0.40129	0.32862	0.25081	0.25021	0.18744	0.33204	0.23304	0.21398	0.24765	0.027837	-2.6146	-2.1229	-2.0458	-2.7771	-2.0375	-2.6417	-2.9125	-2.1479	-2.9729	-2.5229	-2.3083	-3.0812	-2.1562	-2.6667	-2.4313	-2.0833	379.496	290.622	161.059	273.112	228.479	392.438	347.032	321.747	384.077	151.219	66.832	61.882	322.261	350.729	74.353	330.188	0.00051736	0.00035784	9.0308e-05	1294.4	3.3754e-06	3.7769e-06	1302.8	359.65	6.3196e-06	6.6704e-06	414.03	138.75	120.09	41.516	3.65e-06	51.859	0.00028353	0.00024823	6.7765e-05	1306.8	2.7658e-06	2.6769e-06	1316.3	364.31	2.7353e-06	2.6878e-06	418.3	140.74	121.62	42.239	2.7184e-06	52.802	144.287	66.342	156.248	64.476	191.937	182.485	64.564	69.537	203.056	198.072	68.681	72.991	73.942	78.430	206.328	77.431	-8191	255	
1162.385	1	1	0	0	0.16917	0.11756	0.24681	0.39744	0.13271	0.10691	0.2069	0.13952	0.29137	0.11204	0.16726	0.1114	0.27078	0.33183	0.090368	0.15121	-2.2979	-2.2479	-2.0042	-3.0417	-1.9479	-2.5	-3.225	-2.4708	-2.8896	-2.6813	-2.3771	-3	-2.2729	-2.6833	-2.9562	-2.0917	236.201	120.835	168.845	338.519	196.420	282.080	340.716	71.588	361.879	118.698	338.342	262.574	61.908	362.986	286.580	344.911	0.00051353	0.00024201	0.00016556	1294.2	4.0161e-06	3.9774e-06	1303.6	360.57	4.9024e-06	3.8974e-06	418.07	138.19	120.05	41.404	6.5537e-06	51.813	0.00028081	0.00024518	6.8492e-05	1304.6	2.7425e-06	2.6409e-06	1316.2	364.06	2.6893e-06	2.6407e-06	419.73	140.5	121.41	42.152	2.7461e-06	52.747	143.233	130.137	146.775	64.663	207.409	195.905	64.609	69.562	194.285	229.641	68.671	73.012	73.840	78.431	212.831	77.428	-8191	255	
1162.481	1	1	0	0	0.10205	0.22206	0.31206	0.26128	0.13108	0.20411	0.3525	0.032634	0.088596	0.21693	0.14529	0.28513	0.17215	0.1751	0.36602	0.52617	-2.5146	-2.5479	-2.35	-3.1229	-2.2208	-2.5271	-3.1354	-2.1813	-2.7167	-2.7042	-2.1833	-3.1208	-2.3417	-2.6604	-2.9688	-2.3	283.073	77.244	101.661	327.364	304.265	296.589	378.231	357.407	128.169	359.687	51.443	385.165	51.817	79.068	66.447	60.105	0.00049904	0.00059883	0.00014353	1296.1	5.6563e-06	4.3865e-06	1301.4	359.85	5.1197e-06	2.9446e-06	413.93	138.62	119.68	41.417	3.3172e-06	51.785	0.0002874	0.00024825	6.9867e-05	1307.8	2.8358e-06	2.6945e-06	1315.4	364.09	2.8338e-06	2.7472e-06	418.86	140.56	121.49	42.182	2.7688e-06	52.658	142.635	129.833	151.253	64.629	202.729	197.131	64.192	69.235	213.619	234.374	68.766	72.765	73.648	78.349	212.087	77.592	-8191	255	
1162.601	1	1	0	0	0.17834	0.14922	0.14806	0.057511	0.28574	0.29028	0.1691	0.081792	0.14997	0.19025	0.2099	0.20691	0.32218	0.1319	0.12779	0.079164	-2.3083	-2.3542	-2.1896	-3.1708	-2.3896	-2.55	-3.025	-2.3563	-2.6854	-2.6833	-2.1375	-2.8854	-2.2667	-2.1208	-3.0458	-2.3396	288.892	180.151	344.204	55.832	395.504	188.928	383.607	378.581	278.199	64.304	107.303	381.559	387.058	262.963	350.308	270.323	0.00048691	0.00034355	0.00010232	1294.8	5.1751e-06	3.9292e-06	1305.1	359.54	3.7813e-06	5.7715e-06	416.49	138.38	119.81	41.391	2.8272e-06	51.66	0.00029306	0.00024785	7.0831e-05	1305.9	2.8085e-06	2.7268e-06	1317.4	364.02	2.8168e-06	2.7081e-06	419.67	140.61	121.72	42.223	2.7252e-06	52.727	144.621	130.750	125.428	64.784	189.284	179.628	64.582	69.492	176.879	187.801	68.830	72.825	73.739	78.302	216.743	77.449	-8191	255	
1162.673	1	1	0	0	0.06016	0.076373	0.12941	0.18814	0.12956	0.014115	0.072973	0.19564	0.10884	0.034554	0.24019	0.19072	0.29034	0.18231	0.2502	0.28689	-2.2771	-2.7104	-1.8438	-2.9813	-2.3542	-2.1583	-3.0229	-2.4479	-2.4708	-2.7292	-2.1479	-2.8521	-2.5958	-2.0792	-2.7583	-2.2021	154.610	163.643	139.458	361.450	186.417	381.841	360.322	376.179	321.730	292.673	307.484	389.108	58.454	54.490	77.037	66.463	0.00051205	0.00065716	7.5014e-05	1295.2	3.7578e-06	3.8846e-06	1301.5	360.76	4.7553e-06	6.1704e-06	413.58	138.62	120.21	41.398	6.1503e-06	51.876	0.00029162	0.0002464	6.999e-05	1306.3	2.7865e-06	2.7533e-06	1317.1	364.79	2.831e-06	2.7483e-06	418.81	140.92	121.85	42.207	2.8302e-06	52.753	137.886	139.654	146.618	64.798	215.376	177.298	64.815	69.602	203.711	202.729	68.911	73.009	73.566	78.349	197.372	77.581	-8191	255	
1162.769	1	1	0	0	0.19976	0.18916	0.12021	0.10999	0.14997	0.1566	0.15618	0.055297	0.16557	0.23411	0.39464	0.11128	0.1918	0.16696	0.14392	0.32548	-2.075	-3.0833	-1.8125	-2.7938	-2.5479	-2.1813	-3.3583	-2.4917	-2.4	-2.7875	-2.2125	-2.7958	-2.8729	-2.1771	-2.8979	-2.2521	356.631	185.118	259.691	285.606	119.948	271.532	273.662	375.022	148.696	260.866	398.934	263.003	351.943	363.337	147.622	383.968	0.00046193	0.00047708	0.00011522	1294.5	6.1355e-06	3.7227e-06	1305.3	359.85	4.541e-06	7.0667e-06	413.77	138.36	120	41.581	4.2791e-06	52.001	0.00029379	0.00024875	7.1789e-05	1307.4	2.8365e-06	2.7918e-06	1318.8	364.09	2.8416e-06	2.7285e-06	419.26	140.91	121.57	42.249	2.7316e-06	52.727	143.492	135.248	148.858	64.818	203.732	200.845	64.587	69.424	184.135	196.164	68.811	73.283	73.743	78.329	213.843	77.561	-8191	255	
1162.865	1	1	0	0	0.092594	0.10148	0.12246	0.42473	0.20337	0.1649	0.38905	0.38547	0.19637	0.1498	0.18523	0.35302	0.12701	0.092863	0.17693	0.079659	-1.7812	-2.5792	-1.9542	-2.8792	-2.7812	-2.1688	-3.0229	-2.3396	-2.1104	-2.6813	-2.0208	-2.7021	-2.7188	-2.05	-2.8563	-2.6312	408.653	96.691	81.201	52.727	60.587	97.874	350.857	405.965	348.023	52.300	127.060	86.150	116.829	212.107	208.029	230.043	0.00053281	0.00060198	0.00013758	1293.5	5.3602e-06	3.0017e-06	1299.7	360.06	4.9025e-06	3.1661e-06	414.07	138.74	119.93	41.345	4.955e-06	51.895	0.0002909	0.00024975	7.0803e-05	1304.8	2.7641e-06	2.7815e-06	1316.4	364.11	2.8124e-06	2.7235e-06	419.08	140.66	121.57	42.155	2.703e-06	52.622	140.393	127.151	124.913	64.660	198.061	206.866	64.894	69.484	207.804	211.486	69.043	73.314	73.881	78.712	215.332	77.699	-8191	255	
1162.984	1	1	0	0	0.025599	0.044998	0.22572	0.13766	0.037446	0.075044	0.11789	0.092579	0.11041	0.074558	0.14432	0.23378	0.28784	0.056075	0.038895	0.02412	-1.5917	-2.7938	-2.2	-2.6896	-2.5958	-1.9646	-2.8167	-2.4458	-1.9625	-2.85	-2.2	-2.3125	-2.9646	-2.2125	-2.5687	-2.6854	379.065	174.539	207.240	309.562	53.879	258.273	342.377	95.793	350.327	58.242	410.798	369.619	386.462	374.579	87.003	376.188	0.00049853	0.00038914	0.00020132	1292.3	5.2302e-06	4.1116e-06	1304.2	359.23	5.4658e-06	7.1104e-06	415.18	138.73	119.42	41.437	5.2807e-06	52.032	0.00028698	0.00024346	7.0639e-05	1303.7	2.7063e-06	2.7856e-06	1314	363.91	2.8257e-06	2.7543e-06	418.34	140.7	121.36	42.194	2.7193e-06	52.808	142.369	109.489	137.297	65.111	174.753	187.767	64.990	69.749	185.232	184.132	68.778	72.931	73.599	78.334	209.068	77.697	-8191	255	
1163.080	1	1	0	0	0.20693	0.12985	0.023994	0.17062	0.14678	0.17592	0.4149	0.34436	0.16652	0.21172	0.18195	0.17664	0.092979	0.2466	0.16156	0.1829	-1.7062	-3.0312	-2.1833	-2.4979	-2.9062	-2.2188	-2.9875	-2.8083	-2.1542	-2.8104	-2.55	-2.3688	-3.0229	-2.2313	-2.8646	-2.9896	317.672	331.552	350.406	261.768	271.229	300.929	386.102	363.377	105.907	115.653	323.460	405.679	379.855	307.893	355.460	371.487	0.00046811	0.00057061	8.8701e-05	1295.1	4.502e-06	4.7493e-06	1302.4	360.04	4.0572e-06	6.6458e-06	413.72	138.45	119.77	41.549	4.4423e-06	51.753	0.0002936	0.00024841	6.8906e-05	1305.6	2.7359e-06	2.7078e-06	1315.6	364.1	2.7662e-06	2.6607e-06	418.48	140.78	121.63	42.277	2.7318e-06	52.783	139.511	159.585	148.512	64.811	218.038	184.775	64.768	69.579	178.382	214.727	68.796	73.158	73.891	78.467	224.619	77.760	-8191	255	
1163.177	1	1	0	0	0.18737	0.14692	0.069031	0.25391	0.054912	0.11528	0.1351	0.13249	0.15262	0.18216	0.19902	0.13667	0.16646	0.13327	0.14922	0.064489	-1.775	-2.975	-2.4688	-2.4375	-2.9583	-2.0812	-2.5812	-2.8479	-2.1146	-2.5042	-2.5354	-1.9312	-3.1312	-2.3146	-2.5083	-2.9042	280.644	126.681	309.102	403.213	260.096	53.797	311.330	382.113	375.865	53.200	366.461	313.596	231.535	80.972	294.216	89.075	0.00051501	0.00049911	0.00014351	1295.8	4.5659e-06	5.7626e-06	1304.5	358.52	4.2816e-06	5.2128e-06	413.24	138.71	120.43	41.768	4.7605e-06	51.82	0.00028569	0.00024227	6.6404e-05	1303.3	2.734e-06	2.6779e-06	1313.8	363.37	2.7822e-06	2.6536e-06	418.04	140.91	121.89	42.312	2.7436e-06	52.769	142.623	116.618	135.943	64.875	225.305	204.384	64.788	69.640	217.143	220.819	68.858	73.204	73.801	78.174	195.741	77.689	-8191	255	
1163.297	1	1	0	0	0.052204	0.19061	0.11509	0.18942	0.033911	0.12784	0.18004	0.22384	0.2431	0.17267	0.13339	0.33579	0.031579	0.24719	0.049015	0.039617	-1.4937	-2.7313	-2.1729	-2.1188	-2.7854	-2.1667	-2.4521	-3.2583	-2.0417	-2.7417	-2.6917	-2.2875	-2.7958	-2.1625	-2.2188	-3.1063	225.227	237.432	124.362	67.861	240.579	175.913	342.100	354.660	233.712	376.604	77.607	349.848	349.731	290.329	237.939	226.187	0.00048191	0.00039287	0.00012402	1295.9	5.2684e-06	4.4644e-06	1297.4	359.64	3.7238e-06	5.4071e-06	414.21	138.25	120.48	41.363	4.2511e-06	51.847	0.00029062	0.00024934	6.913e-05	1306.2	2.8107e-06	2.7754e-06	1315.5	364.39	2.8423e-06	2.6929e-06	419.73	140.71	121.87	42.199	2.7677e-06	52.757	144.492	122.858	132.864	64.796	187.300	192.936	64.471	69.049	178.842	194.768	68.702	72.936	73.785	78.034	199.061	77.145	-8191	255	
1163.369	1	1	0	0	0.36941	0.17526	0.12558	0.21067	0.047393	0.1077	0.17927	0.11229	0.11861	0.19516	0.076635	0.22616	0.27997	0.27311	0.095805	0.2696	-1.6604	-2.7917	-2.5729	-2.2062	-2.8646	-2.15	-2.4313	-3.0229	-2.0979	-2.5438	-2.7604	-2.2333	-3.1521	-2.5812	-2.4	-2.8729	198.244	93.445	324.649	405.347	357.846	196.484	69.191	156.854	62.613	168.637	85.772	376.538	303.864	408.685	153.471	346.824	0.00050669	0.0004464	0.00014036	1297.9	5.3417e-06	4.0817e-06	1303.9	360.55	4.8104e-06	3.3101e-06	414.86	138.52	120.31	41.852	6.0485e-06	52.143	0.00028852	0.00025499	7.0327e-05	1307.5	2.8242e-06	2.7982e-06	1316.3	363.91	2.7879e-06	2.6681e-06	419.12	140.95	121.99	42.367	2.7157e-06	52.965	139.848	147.533	151.998	64.824	205.111	195.601	64.673	69.427	215.213	218.824	68.886	73.290	74.217	78.508	205.447	77.426	-8191	255	
1163.465	1	1	0	0	0.14454	0.1684	0.27157	0.22034	0.17126	0.10401	0.27812	0.31712	0.16019	0.17441	0.18738	0.12587	0.29005	0.3344	0.075713	0.36961	-1.85	-2.6146	-2.9292	-2.2396	-2.8438	-2.375	-2.4896	-3.2667	-2.1875	-2.5104	-3.2229	-2.2771	-2.9688	-2.7229	-2.3625	-3.0479	328.859	241.990	386.243	384.437	223.191	304.760	395.373	376.618	300.975	85.315	56.097	377.146	131.076	352.453	308.089	374.811	0.00051604	0.00038731	7.4302e-05	1291.8	5.723e-06	5.0368e-06	1302.6	360.44	3.6014e-06	2.4742e-06	412.49	138.56	120.62	41.617	6.5575e-06	52.113	0.00028613	0.00024051	6.6547e-05	1303.1	2.7087e-06	2.6208e-06	1314.4	364.23	2.698e-06	2.6124e-06	418.57	140.77	122.13	42.336	2.6852e-06	52.9	138.889	124.081	124.199	64.718	197.674	200.203	64.503	69.548	212.439	217.255	68.997	73.058	74.363	78.611	199.718	78.019	-8191	255	
1163.586	1	1	0	0	0.15893	0.18055	0.069543	0.21065	0.45099	0.37234	0.46651	0.19996	0.094445	0.20872	0.14072	0.30029	0.11988	0.19752	0.069865	0.057734	-1.8771	-2.3104	-2.7938	-2.2979	-2.9521	-2.5542	-2.1354	-3.1292	-2.1625	-2.5042	-2.8604	-2.2896	-2.8583	-2.8125	-2.05	-2.8729	269.579	340.313	328.301	383.076	135.527	334.389	383.994	399.402	294.543	203.776	261.325	360.735	73.452	400.888	102.429	111.716	0.00049401	0.00033768	0.000125	1296.6	5.0937e-06	3.2396e-06	1304.8	360.08	5.4349e-06	6.0893e-06	417.11	138.97	119.59	41.452	3.9358e-06	51.784	0.00028113	0.00024467	6.681e-05	1306.5	2.7244e-06	2.6325e-06	1316.8	364.41	2.6855e-06	2.6071e-06	418.93	140.98	121.65	42.253	2.686e-06	52.818	142.687	124.772	154.313	64.403	204.597	197.388	64.445	69.150	214.911	216.214	68.616	72.762	73.588	78.083	212.880	77.299	-8191	255	
1163.682	1	1	0	0	0.09935	0.1707	0.21032	0.04289	0.1854	0.30437	0.36134	0.23977	0.18094	0.091079	0.013914	0.24478	0.17995	0.22513	0.16743	0.073848	-1.9208	-2.3937	-3.0187	-2.3667	-2.6	-2.7771	-2.075	-2.9021	-2.3396	-2.05	-3.1521	-2.1896	-2.3729	-2.7625	-1.8937	-2.95	363.228	55.911	194.641	95.081	151.654	216.280	314.384	370.410	409.587	113.584	268.741	110.291	230.227	405.654	70.712	321.719	0.00049771	0.00033654	0.00019231	1290	3.8567e-06	2.6508e-06	1299.8	358.8	3.4236e-06	6.4916e-06	415.46	139.39	120.6	41.909	4.3225e-06	52.454	0.00028439	0.00024934	6.5646e-05	1300.5	2.6996e-06	2.6115e-06	1313.5	363.35	2.6291e-06	2.5473e-06	418.33	141.29	122.12	42.61	2.5071e-06	53.303	142.639	102.648	159.841	64.499	202.979	186.954	64.612	69.264	186.682	197.718	68.623	73.147	73.816	78.372	212.733	77.819	-8191	255	
1163.776	1	1	0	0	0.25839	0.075004	0.12051	0.23292	0.16405	0.22105	0.15021	0.48232	0.081255	0.1752	0.12987	0.078001	0.15962	0.052187	0.18777	0.32134	-2.2417	-1.8708	-2.9688	-2.2229	-2.6333	-2.7396	-2.0542	-2.775	-2.5438	-2.2917	-3.0333	-1.9854	-2.4167	-3.1063	-2.2271	-2.9	366.892	322.624	120.352	349.895	241.888	146.896	404.077	359.361	278.068	110.380	371.339	377.469	158.280	242.285	342.563	52.355	0.00054653	0.00051313	0.0001163	1293.8	5.7627e-06	4.8073e-06	1305.6	360.86	4.948e-06	8.0462e-06	413.87	139.66	120.69	41.944	4.6968e-06	52.183	0.00026347	0.00021701	5.917e-05	1303.7	2.3714e-06	2.2766e-06	1316.3	364.44	2.4601e-06	2.4244e-06	418.9	141.8	122.56	42.582	2.4723e-06	53.197	139.849	134.573	162.012	64.753	208.722	198.450	64.651	69.571	212.389	222.370	69.076	72.914	74.106	78.507	197.348	77.743	-8191	255	
1163.897	1	1	0	0	0.15504	0.12743	0.19596	0.25846	0.17338	0.069758	0.49415	0.20249	0.095651	0.10504	0.24368	0.41278	0.13906	0.072178	0.13214	0.33914	-2.2458	-1.9917	-2.6937	-2.3583	-2.3688	-2.7958	-2.1521	-2.8729	-2.6708	-2.1354	-2.8479	-2.3063	-2.25	-2.9604	-2.1521	-2.7083	272.159	298.993	61.525	402.076	293.912	74.532	341.545	346.298	387.655	401.336	348.331	348.112	291.274	300.010	160.351	405.307	0.0004934	0.00036802	0.00011668	1296.2	2.3616e-06	5.4648e-06	1302.9	359.67	5.5216e-06	4.28e-06	414.61	139.65	120.79	41.845	4.781e-06	51.917	0.00026519	0.00022982	6.1996e-05	1303.2	2.5628e-06	2.4646e-06	1314.4	363.87	2.6178e-06	2.5622e-06	418.39	141.56	122.21	42.461	2.5827e-06	53.014	140.967	147.426	121.819	64.973	209.992	188.970	64.812	69.481	200.818	213.960	68.664	73.003	73.474	78.315	221.658	77.398	-8191	255	
1163.969	1	1	0	0	0.25293	0.16942	0.25947	0.28696	0.29145	0.079109	0.24453	0.18323	0.23128	0.13121	0.2188	0.30938	0.26421	0.35664	0.15061	0.11948	-2.3792	-2.1396	-2.8187	-2.5229	-2.1437	-2.85	-2.1958	-2.6458	-2.7792	-2.0604	-2.8042	-2.4708	-2.2313	-3.1042	-1.9875	-2.4583	324.026	352.450	365.321	81.136	242.137	367.938	355.846	330.346	105.299	299.026	348.898	390.292	70.064	83.669	255.485	189.513	0.00051222	0.00032569	0.00010208	1289.5	6.2099e-06	5.0375e-06	1300.4	359.42	5.5859e-06	4.652e-06	415.24	138.03	119.66	41.26	6.4686e-06	51.774	0.00027338	0.00023381	6.4738e-05	1302.8	2.6769e-06	2.5752e-06	1313.5	363.17	2.6527e-06	2.6374e-06	418.57	140.6	121.37	42.173	2.6617e-06	52.756	143.100	134.720	172.580	65.065	206.049	237.258	64.870	69.601	202.672	198.749	68.874	73.247	74.332	78.576	205.693	78.004	-8191	255	
1164.065	1	1	0	0	0.11984	0.10559	0.11642	0.021347	0.045861	0.11236	0.36531	0.24505	0.2228	0.13102	0.22552	0.1448	0.099	0.14594	0.12761	0.040435	-2.2104	-1.8583	-2.5875	-2.6354	-2.2188	-2.7479	-2.8021	-2.4688	-2.7146	-2.0563	-2.8438	-2.6542	-2.3083	-2.9729	-2.1896	-2.3396	318.680	114.659	162.982	82.914	284.350	194.395	324.878	328.592	297.296	393.325	411.008	391.777	255.891	337.888	172.249	235.270	0.00047537	0.00062868	0.00016312	1293	3.7275e-06	3.5857e-06	1300.5	357.95	3.0878e-06	6.8845e-06	414.28	138.91	119.99	41.703	4.6516e-06	52.011	0.00028529	0.00023711	6.6748e-05	1301.4	2.7325e-06	2.6544e-06	1311.9	362.86	2.6613e-06	2.6868e-06	418.43	140.75	121.71	42.286	2.726e-06	52.733	139.241	114.556	172.862	64.839	181.195	178.062	64.888	69.629	203.758	192.682	69.207	73.191	73.906	78.509	207.277	77.846	-8191	255	
1164.161	1	1	0	0	0.038392	0.24038	0.13722	0.42447	0.088763	0.11943	0.2373	0.2514	0.16121	0.070112	0.23937	0.28061	0.58645	0.23959	0.3086	0.084046	-2.4479	-1.8521	-2.8083	-2.7708	-1.9062	-2.8479	-2.425	-2.3396	-2.8625	-1.9583	-2.6229	-2.875	-2.0938	-2.6958	-2.15	-2.2854	103.891	166.534	269.837	399.354	92.332	236.151	357.418	76.129	237.094	287.432	403.012	106.657	60.371	309.224	78.144	396.470	0.00049828	0.00039583	0.00021869	1295.6	2.9569e-06	5.8491e-06	1302.5	359.22	3.7053e-06	7.3954e-06	413.18	138.54	120.62	41.674	3.8474e-06	52.049	0.00028651	0.00024784	6.7575e-05	1303.9	2.7602e-06	2.7121e-06	1314.4	364.01	2.8169e-06	2.7158e-06	418.46	140.78	121.96	42.314	2.7834e-06	52.822	138.676	129.785	148.439	65.203	203.962	174.377	64.754	69.794	225.875	197.622	69.272	73.421	74.109	78.932	190.647	78.054	-8191	255	
1164.281	1	1	0	0	0.12401	0.24707	0.12032	0.089342	0.10242	0.11279	0.021761	0.072322	0.093722	0.20461	0.1487	0.027248	0.39696	0.037758	0.21524	0.45445	-2.5	-1.9375	-2.4167	-2.8812	-2.0792	-2.8312	-2.4625	-2.2062	-2.8896	-2.2438	-2.5625	-2.8542	-2.2708	-2.9604	-2.6146	-2.1771	264.900	101.111	66.019	339.208	297.190	257.326	407.580	279.614	275.969	229.550	403.300	330.988	366.641	371.606	212.729	376.800	0.00053579	0.0003417	0.00015207	1297.7	6.4355e-06	6.0161e-06	1307.5	359.67	3.8328e-06	6.0866e-06	413.49	138.37	120.04	41.473	6.5317e-06	51.786	0.00028613	0.0002536	6.9165e-05	1306.1	2.7919e-06	2.7282e-06	1315.8	363.72	2.7146e-06	2.6778e-06	418.44	140.85	121.52	42.27	2.7666e-06	52.74	142.228	136.839	144.847	65.115	199.351	204.006	64.848	69.714	209.124	196.456	69.029	73.150	74.080	78.589	207.730	77.822	-8191	255	
1164.378	1	1	0	0	0.16787	0.16222	0.2591	0.060871	0.22398	0.14837	0.044398	0.13166	0.1498	0.089022	0.19036	0.19246	0.17457	0.48299	0.23832	0.19313	-2.5896	-2.1375	-2.1542	-3.0479	-2.025	-2.75	-2.8771	-2.225	-2.9958	-2.6	-2.4271	-2.7667	-2.0521	-2.7042	-2.7167	-2.1958	193.689	252.423	394.462	271.905	335.428	292.684	405.595	323.035	407.286	368.272	105.835	335.655	337.758	62.066	192.287	293.071	0.00048833	0.0005343	8.6867e-05	1288.3	5.74e-06	4.7273e-06	1298.9	359.04	6.2213e-06	5.6103e-06	414.72	138.44	119.52	41.521	6.2219e-06	51.997	0.00029126	0.00024544	6.892e-05	1301.8	2.7705e-06	2.6755e-06	1312.2	363.34	2.7547e-06	2.6717e-06	418.28	140.63	121.46	42.202	2.7235e-06	52.735	139.362	142.332	149.647	65.208	219.892	198.874	64.961	69.824	204.736	207.412	69.598	73.616	74.508	78.907	201.373	78.218	-8191	255	
1164.474	1	1	0	0	0.12797	0.11431	0.069465	0.5576	0.23121	0.26347	0.088548	0.25493	0.16881	0.12593	0.06221	0.1746	0.24777	0.19874	0.17933	0.22194	-2.6542	-2.3688	-2.2458	-2.9854	-2.0312	-2.5563	-2.9583	-2.3208	-2.7083	-2.4313	-2.2458	-3.0938	-2.2771	-2.6354	-2.5833	-2.2313	236.485	162.233	362.886	400.972	329.076	261.186	288.363	399.216	301.758	139.284	371.795	64.454	115.547	393.779	200.113	316.661	0.00049131	0.00040449	0.00011147	1293.5	3.4168e-06	6.2647e-06	1298.4	358.37	6.759e-06	5.9016e-06	414.55	138.68	120.42	41.715	3.3337e-06	51.739	0.00028366	0.00024537	6.7975e-05	1303.1	2.7535e-06	2.6876e-06	1312.3	362.8	2.797e-06	2.6871e-06	418.34	140.79	121.69	42.273	2.7147e-06	52.734	139.046	137.976	171.875	65.448	188.395	196.774	64.938	70.013	197.443	249.148	69.160	73.398	74.051	78.658	200.619	78.189	-8191	255	
1164.545	1	1	0	0	0.23838	0.24589	0.13881	0.086011	0.21229	0.17339	0.40798	0.26033	0.14949	0.10215	0.31576	0.2182	0.16512	0.30502	0.19506	0.26671	-2.6063	-2.4375	-1.9771	-3.225	-2.3688	-2.5646	-2.8688	-2.0271	-2.6271	-2.5771	-2.0563	-2.7771	-2.2417	-2.2896	-2.7875	-1.9937	332.978	207.000	61.999	54.466	266.769	225.690	377.661	383.891	178.215	247.594	404.570	408.935	301.805	359.597	380.726	375.951	0.00049864	0.00050036	0.00015745	1290.5	3.6688e-06	5.0839e-06	1300.9	358.16	3.8322e-06	3.8831e-06	413.31	138.88	120.16	41.371	3.0534e-06	51.705	0.00028418	0.00024263	6.8615e-05	1302.5	2.7261e-06	2.6792e-06	1313.7	362.96	2.7747e-06	2.6885e-06	418.27	140.66	121.85	42.179	2.6913e-06	52.656	140.713	116.056	174.325	65.301	191.361	199.785	64.735	69.648	183.413	198.409	68.745	72.930	73.717	78.003	208.868	77.077	-8191	255	
1164.666	1	1	0	0	0.12236	0.33164	0.056846	0.16139	0.17802	0.16481	0.27954	0.096826	0.15309	0.1714	0.13244	0.15524	0.093139	0.14365	0.049519	0.16036	-2.275	-2.5542	-2.0979	-3.0292	-2.0229	-2.3042	-3.0417	-2.2562	-2.4021	-2.6521	-2.0938	-3.0938	-2.0771	-2.275	-2.7812	-2.1896	136.818	294.381	52.577	54.665	149.643	61.385	389.031	306.673	368.182	299.595	395.093	394.145	357.599	77.567	390.472	341.703	0.00050437	0.00042509	0.00014299	1289.7	5.3935e-06	2.2707e-06	1303	359.53	5.1502e-06	5.4436e-06	414.9	138.53	119.62	41.356	3.0028e-06	51.849	0.00028701	0.00024669	6.8324e-05	1303.2	2.7454e-06	2.6966e-06	1315.2	363.56	2.7254e-06	2.6614e-06	418.73	140.65	121.72	42.177	2.7237e-06	52.752	142.146	110.304	147.923	64.368	205.495	191.635	64.029	68.718	208.985	202.131	68.565	72.519	73.121	77.814	226.453	77.047	-8191	255	
1164.762	1	1	0	0	0.38914	0.29566	0.14591	0.13962	0.24634	0.11681	0.22147	0.13803	0.14153	0.035719	0.24038	0.1315	0.15683	0.48079	0.18627	0.1296	-2.3167	-2.5875	-1.8125	-2.9333	-2.4625	-2.0875	-3.0875	-2.3604	-2.4729	-2.8458	-2.0854	-2.6917	-2.2292	-2.2562	-2.8771	-2.3125	369.734	287.528	117.195	307.698	121.320	137.502	366.277	373.012	160.325	405.289	378.361	333.703	370.521	374.953	263.023	238.025	0.0005108	0.00064109	5.4403e-05	1287.1	4.3192e-06	3.7455e-06	1302.1	358.33	3.9931e-06	4.3221e-06	414.61	139	119.34	41.445	4.2082e-06	51.509	0.00028376	0.00024979	6.8908e-05	1303.2	2.7648e-06	2.7054e-06	1314	362.91	2.7783e-06	2.6291e-06	417.88	140.65	121.28	42.174	2.6863e-06	52.552	144.173	121.458	105.518	64.257	182.679	213.742	64.358	68.759	180.665	221.315	68.300	72.560	73.127	78.051	193.210	76.724	-8191	255	
1164.858	1	1	0	0	0.083639	0.29885	0.094815	0.32312	0.20572	0.044686	0.11676	0.091189	0.14225	0.23959	0.2099	0.28787	0.122	0.14392	0.19905	0.2124	-2.1979	-2.7	-1.9208	-3.0687	-2.5271	-2.35	-3.0958	-2.4125	-2.2167	-2.7687	-2.0292	-2.8833	-2.4104	-2.0833	-2.7646	-2.3083	363.710	359.571	278.430	384.386	211.032	258.558	277.735	103.705	278.284	61.510	372.422	353.292	103.618	57.509	104.286	117.211	0.00048239	0.00039053	0.00014721	1294.9	5.4056e-06	3.8765e-06	1307.6	358.25	6.2407e-06	6.9356e-06	414.12	138.39	120.12	41.319	6.2105e-06	51.876	0.00028624	0.00024962	6.996e-05	1304.2	2.7607e-06	2.7684e-06	1317.8	363.45	2.8736e-06	2.7392e-06	418.69	140.66	121.75	42.156	2.773e-06	52.749	141.819	133.802	140.868	64.315	195.832	202.166	64.187	68.713	203.345	199.374	68.305	72.425	72.878	77.731	218.671	76.903	-8191	255	
1164.977	1	1	0	0	0.18176	0.21228	0.25372	0.36836	0.26871	0.15954	0.36004	0.15928	0.12359	0.16507	0.14433	0.013893	0.26292	0.074272	0.18268	0.18548	-2	-2.8875	-1.9625	-2.5438	-2.7479	-1.9458	-3.0958	-2.5917	-2.2521	-2.9396	-2.2104	-2.6708	-2.8458	-2.1083	-2.7812	-2.5604	191.480	232.060	343.834	339.901	76.278	141.660	407.293	255.065	81.063	238.207	404.606	330.431	344.544	52.743	291.589	120.467	0.00047713	0.00055359	0.00010574	1291.8	3.3354e-06	4.6948e-06	1304.8	359.21	6.1045e-06	5.0666e-06	414.3	139.15	120.49	41.557	2.7499e-06	51.668	0.00028708	0.00025333	7.1293e-05	1306.2	2.8193e-06	2.7418e-06	1317.3	363.89	2.842e-06	2.7481e-06	418.56	140.94	121.84	42.234	2.7618e-06	52.705	142.898	143.497	163.081	64.111	168.446	230.471	64.195	68.631	227.558	199.384	68.082	72.470	72.957	77.753	196.798	76.810	-8191	255	
1165.073	1	1	0	0	0.22104	0.12021	0.21589	0.13582	0.23105	0.11757	0.2802	0.094191	0.29038	0.19747	0.37033	0.1492	0.26378	0.34954	0.44693	0.06628	-1.7729	-2.925	-2.0479	-2.7854	-2.7313	-2.0812	-3.0771	-2.5396	-2.0083	-2.8125	-2.1542	-2.5083	-3.0312	-2.2292	-2.7583	-2.8396	124.119	348.584	152.606	66.451	94.015	205.387	368.838	303.783	159.189	175.911	387.574	376.795	337.877	402.511	154.566	333.191	0.0005284	0.00036191	0.00015148	1298.9	5.4308e-06	6.4141e-06	1303	359.59	6.5075e-06	3.7078e-06	414.44	138.89	120.11	41.422	4.2134e-06	51.846	0.00028817	0.00024859	6.8109e-05	1308.1	2.8125e-06	2.7279e-06	1319	364.11	2.8071e-06	2.7008e-06	418.7	141.03	121.87	42.258	2.7932e-06	52.772	141.523	128.355	153.464	64.073	200.912	208.675	63.959	68.796	172.234	192.174	68.150	72.450	73.050	77.832	231.433	76.855	-8191	255	
1165.170	1	1	0	0	0.32816	0.2721	0.14645	0.24755	0.12331	0.19864	0.45692	0.19784	0.23469	0.032557	0.29844	0.11177	0.1727	0.45114	0.082403	0.19381	-1.6375	-2.7938	-2.1063	-2.4292	-2.7042	-1.9937	-2.6875	-2.8271	-2.1583	-2.7458	-2.3354	-2.4646	-3.0458	-2.0542	-2.6937	-2.8708	75.476	102.409	97.239	368.522	109.264	123.835	326.027	359.329	384.243	187.469	356.671	59.613	401.116	404.775	209.792	352.991	0.00051359	0.00052695	0.00017256	1295.7	5.7406e-06	3.8003e-06	1302.7	359.65	4.318e-06	4.4464e-06	413.78	139.24	120.35	41.357	5.1177e-06	51.72	0.0002936	0.00024968	6.947e-05	1307.9	2.8644e-06	2.7448e-06	1317.6	363.77	2.8215e-06	2.7469e-06	419.33	141.25	121.96	42.209	2.7791e-06	52.75	141.087	117.985	131.094	64.215	215.831	218.076	64.071	68.912	197.681	194.481	68.145	72.617	73.062	77.834	200.852	76.594	-8191	255	
1165.266	1	1	0	0	0.26431	0.08923	0.1182	0.23038	0.38166	0.17266	0.29272	0.13648	0.31717	0.1634	0.31156	0.21104	0.30164	0.29618	0.083297	0.075796	-1.5229	-2.8021	-2.1937	-2.4583	-3.0167	-2.075	-2.8729	-2.8333	-1.8458	-2.7604	-2.4833	-2.2083	-2.9167	-2.0521	-2.4583	-2.6479	369.536	94.091	113.729	368.655	174.413	261.380	383.682	400.252	295.811	365.395	103.636	371.570	274.315	359.732	136.764	220.420	0.00049303	0.00046882	0.00016774	1293.1	5.2987e-06	4.5035e-06	1305.1	359.63	4.5032e-06	5.2842e-06	413.01	138.62	119.8	41.386	4.891e-06	51.622	0.00029544	0.0002433	6.7984e-05	1307.8	2.7974e-06	2.6878e-06	1317.8	364.23	2.8077e-06	2.7134e-06	418.29	140.89	121.69	42.246	2.7283e-06	52.782	140.192	136.454	149.913	64.210	197.395	195.238	64.152	68.837	205.809	227.936	68.089	72.211	73.256	77.775	218.453	76.728	-8191	255	
1165.362	1	1	0	0	0.16879	0.12802	0.28773	0.35781	0.32148	0.17541	0.25374	0.076946	0.17923	0.16351	0.35239	0.17148	0.20505	0.29638	0.12708	0.19939	-1.5979	-2.8229	-2.3271	-2.1458	-2.8812	-2.1917	-2.7938	-2.8937	-1.9021	-2.4979	-2.525	-2.0604	-3.0062	-2.3438	-2.3979	-2.7792	289.918	135.626	160.884	312.110	108.467	126.017	351.124	274.948	210.392	299.970	407.787	394.133	98.588	52.214	234.586	335.398	0.00046795	0.00039553	0.00014546	1293.8	5.3404e-06	7.0688e-06	1309.2	359.02	5.5941e-06	5.8576e-06	411.87	138.81	120.02	41.537	6.595e-06	51.835	0.000287	0.00024344	6.8816e-05	1304.8	2.7226e-06	2.67e-06	1319.3	363.59	2.7573e-06	2.5992e-06	418.24	141.15	121.79	42.331	2.7009e-06	52.781	139.787	121.001	150.436	64.205	195.558	195.352	64.196	68.821	195.768	196.051	67.943	72.457	73.319	77.567	200.368	76.998	-8191	255	
1165.458	1	1	0	0	0.10629	0.081854	0.27345	0.12087	0.27522	0.12166	0.12391	0.16423	0.10821	0.084004	0.223	0.18994	0.1067	0.18084	0.4733	0.11929	-1.4688	-2.725	-2.5479	-2.3625	-2.9083	-2.0583	-2.4417	-2.8042	-1.8813	-2.6229	-2.7375	-2.2104	-2.9479	-2.1604	-2.1646	-3.0333	396.893	166.721	289.233	375.270	73.027	220.826	380.802	357.326	277.909	214.898	128.423	116.229	202.140	340.444	171.535	267.222	0.00048041	0.00046765	8.2441e-05	1296.5	6.1754e-06	4.1317e-06	1305.3	359.79	7.0901e-06	3.0194e-06	413.43	138.93	120.26	41.334	4.2529e-06	51.778	0.00028194	0.0002468	6.8897e-05	1308.1	2.7549e-06	2.7513e-06	1319.3	364.03	2.8535e-06	2.7387e-06	418.78	140.99	121.98	42.148	2.8921e-06	52.632	136.804	149.248	162.132	64.142	194.891	190.804	64.180	68.805	195.011	198.416	68.242	72.471	73.203	77.502	192.736	76.812	-8191	255	
1165.579	1	1	0	0	0.15192	0.081012	0.17195	0.27649	0.057666	0.1818	0.06885	0.36298	0.15506	0.097926	0.078253	0.27897	0.09907	0.061682	0.11739	0.067141	-1.4021	-2.4604	-2.5896	-2.2167	-2.75	-2.1625	-2.2854	-3.2021	-2.1042	-2.6	-2.8937	-2.275	-2.9	-2.2812	-1.9333	-2.9062	80.257	400.914	108.229	60.677	73.924	277.481	400.241	392.368	180.380	218.515	398.353	50.791	371.606	362.850	134.790	125.050	0.0004868	0.00045576	8.345e-05	1298.9	4.3876e-06	4.2555e-06	1306.2	361.15	4.9958e-06	4.5202e-06	413.82	138.2	119.24	41.295	3.8613e-06	51.703	0.0002978	0.00025365	7.099e-05	1310.7	2.9139e-06	2.8866e-06	1321	364.9	2.9034e-06	2.9061e-06	418.84	140.76	121.61	42.196	2.8586e-06	52.669	141.638	144.564	169.295	64.099	191.988	189.214	64.074	68.625	207.565	240.641	67.843	72.269	72.787	77.524	202.306	77.087	-8191	255	
1165.675	1	1	0	0	0.065075	0.20178	0.1997	0.27915	0.27542	0.16074	0.31461	0.19753	0.14121	0.068387	0.45365	0.2644	0.37447	0.09266	0.22981	0.21143	-1.5417	-2.4604	-2.8729	-2.1854	-2.6604	-2.6625	-2.3063	-3.1021	-2.2542	-2.225	-2.7938	-1.9917	-2.6229	-2.6396	-2.0687	-3.0042	222.109	240.708	292.605	371.764	191.421	120.204	337.600	362.786	83.870	181.574	353.774	336.013	293.537	154.912	227.917	66.210	0.00048275	0.00031786	0.0001309	1301.7	5.9342e-06	4.905e-06	1307.5	360.82	5.1316e-06	6.2502e-06	415.03	138.6	120.05	41.376	4.7367e-06	52.03	0.00029211	0.0002615	6.9791e-05	1310.9	2.8168e-06	2.7903e-06	1320.7	364.96	2.8525e-06	2.7494e-06	419.23	141.02	121.67	42.189	2.8087e-06	52.774	142.142	104.240	156.242	64.063	224.481	193.993	64.107	68.658	195.184	219.271	68.246	72.456	72.965	77.489	196.627	76.781	-8191	255	
1165.769	1	1	0	0	0.25838	0.1312	0.38928	0.18979	0.20966	0.22606	0.26164	0.14873	0.21886	0.096241	0.28149	0.071736	0.15201	0.017801	0.057646	0.04976	-2.0187	-2.2	-2.8958	-2.3208	-2.6396	-2.8	-2.1312	-2.8271	-2.25	-2.3729	-3.0042	-2.2667	-2.6042	-2.6021	-1.9396	-2.925	391.520	366.586	384.169	306.842	143.031	401.212	312.147	79.330	86.062	352.006	397.223	260.163	283.464	297.590	60.038	107.734	0.00049087	0.00059495	0.00012156	1293.4	7.2501e-06	4.0574e-06	1304.6	359.49	7.7003e-06	5.7064e-06	414.58	138.51	120.22	41.506	4.2014e-06	51.531	0.00028604	0.00025348	6.9035e-05	1307.7	2.792e-06	2.662e-06	1317.2	363.48	2.8e-06	2.7197e-06	418.53	140.75	121.8	42.191	2.7811e-06	52.594	140.714	137.594	132.812	64.064	195.951	189.773	63.755	68.732	191.096	225.326	68.316	72.363	73.399	77.721	181.347	76.681	-8191	255	
1165.843	1	1	0	0	0.33854	0.14445	0.11652	0.29059	0.15141	0.24692	0.064143	0.26318	0.14211	0.14241	0.16214	0.15009	0.10902	0.22983	0.07281	0.046453	-1.9792	-2.2313	-2.9375	-2.2354	-2.3688	-2.8396	-2.1688	-2.8937	-2.6042	-2.1854	-2.9229	-2.2729	-2.1271	-2.9896	-2.2438	-2.9542	118.789	263.176	333.264	65.714	288.307	61.624	237.627	392.893	396.567	281.788	354.280	110.957	347.625	101.675	149.877	162.577	0.00047365	0.00022784	0.00010327	1297.8	5.2421e-06	6.5957e-06	1301.4	360.02	6.0904e-06	5.8426e-06	415.33	138.13	119.92	41.251	5.6846e-06	51.561	0.00028701	0.00025304	6.9031e-05	1306.8	2.8242e-06	2.694e-06	1316.3	364.15	2.8802e-06	2.8471e-06	419.44	140.76	121.75	42.115	2.8528e-06	52.708	142.224	119.397	135.044	64.017	192.794	198.716	63.982	68.822	198.457	180.902	68.128	72.380	73.161	77.787	204.681	76.910	-8191	255	
1165.939	1	1	0	0	0.17661	0.068566	0.18	0.34637	0.27817	0.15477	0.16557	0.31432	0.20639	0.26029	0.23457	0.24843	0.092841	0.37684	0.25269	0.13797	-2.1021	-1.9521	-2.7438	-2.2479	-2.2896	-2.9396	-2.2521	-2.9729	-2.7938	-2.1875	-2.9667	-2.3292	-2.4375	-3.0062	-2.1021	-2.6604	244.150	295.400	377.844	405.122	103.641	71.771	370.709	352.056	336.795	134.488	68.916	68.961	406.281	389.846	260.638	93.275	0.00047544	0.00039691	0.00011375	1296.1	4.6381e-06	4.223e-06	1305.4	359.48	6.238e-06	5.2341e-06	416.94	138.49	120.66	41.331	4.335e-06	51.843	0.00029687	0.00026463	7.3746e-05	1310.1	2.9707e-06	2.8004e-06	1319.5	364.44	2.9474e-06	2.8757e-06	420.29	140.95	122.18	42.19	2.9231e-06	52.829	144.715	122.925	115.947	64.101	191.659	232.477	63.896	68.783	203.018	189.464	67.899	72.059	73.138	77.412	233.265	77.022	-8191	255	
1166.058	1	1	0	0	0.11007	0.19635	0.234	0.30612	0.24075	0.17375	0.039358	0.11408	0.20395	0.075325	0.29397	0.22552	0.11814	0.030188	0.19863	0.15525	-2.3	-1.9833	-3.0187	-2.6708	-2.4229	-2.9271	-2.3167	-2.775	-2.7708	-2.0104	-2.9729	-2.5104	-2.2583	-3.025	-2.0583	-2.6063	352.187	312.572	52.570	383.910	203.721	273.428	271.351	63.830	370.194	102.905	336.792	387.539	91.465	72.729	373.205	376.810	0.00047404	0.00061547	7.1424e-05	1301.2	5.8262e-06	3.7655e-06	1307.6	360.56	5.8143e-06	4.5427e-06	414.91	139.48	119.71	41.392	5.2962e-06	52.024	0.00029582	0.00026336	7.1392e-05	1311.6	2.8258e-06	2.7824e-06	1321.2	365.25	2.8895e-06	2.7772e-06	419.49	141.24	121.74	42.237	2.864e-06	52.838	142.509	134.394	136.659	64.072	213.659	190.107	64.020	68.949	194.939	186.576	68.062	71.993	73.198	77.573	196.240	76.964	-8191	255	
1166.154	1	1	0	0	0.075039	0.12361	0.062445	0.43031	0.07485	0.24625	0.3358	0.45026	0.39491	0.18979	0.39634	0.20693	0.17696	0.12041	0.16696	0.069214	-2.2396	-1.9646	-2.8167	-2.4708	-1.8813	-3.0083	-2.3	-2.5083	-2.7562	-2.2833	-2.9271	-2.8312	-2.2771	-3.0896	-2.2583	-2.5021	349.050	334.784	370.475	385.302	130.882	58.670	398.216	396.711	223.095	386.835	370.805	353.696	90.712	404.652	241.238	304.003	0.00053236	0.00032503	0.00012252	1296.7	5.8344e-06	6.4355e-06	1305.5	360.3	5.0565e-06	1.5664e-06	415.1	138.96	120.02	41.597	4.3018e-06	51.819	0.00029579	0.00025867	6.9893e-05	1309.4	2.8411e-06	2.8072e-06	1321.1	364.73	2.8444e-06	2.7914e-06	419.96	141.48	122	42.343	2.8385e-06	52.912	140.773	123.512	150.914	63.856	206.702	177.783	63.885	68.696	203.259	253.512	68.069	72.413	73.044	77.565	204.336	76.844	-8191	255	
1166.250	1	1	0	0	0.11084	0.2565	0.14897	0.072491	0.25879	0.14967	0.25325	0.081215	0.20608	0.061564	0.35688	0.14666	0.19821	0.1589	0.20724	0.3215	-2.4792	-1.9229	-2.8146	-2.7104	-1.975	-2.9083	-2.3896	-2.3063	-3.0479	-2.0521	-2.8083	-2.7354	-2.1979	-2.7146	-2.3042	-2.1354	330.007	374.304	269.187	127.073	327.848	342.806	387.544	256.511	311.486	95.681	367.029	392.173	105.594	96.382	89.267	389.404	0.00047459	0.00034499	9.8747e-05	1303.5	4.6495e-06	4.5457e-06	1305	359.52	3.8261e-06	3.7049e-06	416.13	138.1	120.3	41.632	4.484e-06	51.692	0.00028807	0.00026202	7.1334e-05	1311.5	2.8421e-06	2.7669e-06	1320.8	364.25	2.8786e-06	2.8101e-06	420.28	140.96	122.09	42.347	2.8115e-06	52.834	140.323	132.963	175.829	63.995	191.088	193.181	63.794	68.844	199.717	225.557	68.346	72.122	73.322	77.576	211.167	76.739	-8191	255	
1166.346	1	1	0	0	0.069234	0.21161	0.18846	0.52672	0.16713	0.10989	0.066203	0.038823	0.15173	0.25414	0.13287	0.20058	0.30332	0.18909	0.39104	0.2711	-2.6208	-1.9667	-2.7125	-3.0021	-2.1375	-2.9708	-2.6667	-2.0854	-2.9688	-2.0708	-2.7062	-2.8583	-2.4229	-3.0771	-2.3396	-2.0833	383.639	155.934	409.854	369.413	353.423	57.594	311.847	279.246	117.271	213.747	264.016	372.902	71.865	122.947	52.920	310.627	0.00048909	0.0004827	6.6673e-05	1297.1	2.4422e-06	4.6582e-06	1301.9	359.64	6.3149e-06	5.2917e-06	414.83	139	120.82	41.579	4.8687e-06	52.046	0.00029159	0.00025708	7.06e-05	1311	2.9e-06	2.6842e-06	1319.2	364.27	2.8372e-06	2.7444e-06	418.83	141.28	122.21	42.377	2.8333e-06	52.869	143.477	116.284	159.302	64.065	213.842	183.509	63.896	68.771	196.309	213.418	68.269	72.212	72.967	77.547	200.927	76.799	-8191	255	
1166.467	1	1	0	0	0.15646	0.22503	0.14163	0.19841	0.11783	0.19136	0.18028	0.46008	0.12762	0.19614	0.24789	0.11538	0.18889	0.29206	0.20429	0.22474	-2.4771	-1.9646	-2.4667	-2.9188	-2.0458	-2.9542	-2.6375	-2.2875	-3.0833	-2.3688	-2.5438	-3.0583	-2.4292	-2.6417	-2.6208	-2.0604	136.490	296.195	112.367	368.556	183.217	160.916	378.587	400.208	137.933	94.481	330.256	191.970	116.105	346.183	114.940	339.120	0.00049092	0.00061724	0.00017245	1301.7	4.184e-06	5.185e-06	1309.2	359.9	5.9686e-06	7.3562e-06	413.97	139	119.52	41.633	5.1233e-06	51.99	0.00029169	0.00025025	7.0722e-05	1310.6	2.8495e-06	2.7555e-06	1322.2	364.54	2.7894e-06	2.8227e-06	419.2	141.25	121.95	42.32	2.8685e-06	52.911	141.963	122.841	154.887	64.104	206.080	200.911	63.903	68.820	174.564	206.127	68.233	72.409	72.940	77.562	198.569	76.876	-8191	255	
1166.538	1	1	0	0	0.10782	0.24339	0.21502	0.20316	0.41128	0.12908	0.13385	0.18861	0.31269	0.1682	0.30907	0.22845	0.19169	0.30514	0.05162	0.21677	-2.6271	-2.2479	-2.2042	-2.9938	-2.125	-2.5396	-2.8354	-2.0979	-2.8229	-2.5958	-2.5125	-3.0354	-1.9396	-2.425	-2.6104	-1.9792	171.587	177.148	209.899	67.473	335.345	55.493	176.756	357.665	306.746	98.513	61.947	374.194	218.343	370.507	386.632	388.590	0.00048363	0.00040082	0.00021911	1302.5	6.6102e-06	6.2651e-06	1308.8	360.51	5.463e-06	7.8108e-06	416.5	139.36	120.13	41.385	5.525e-06	51.9	0.00030187	0.00026908	7.4911e-05	1313.5	3.0079e-06	2.9839e-06	1324.1	365.34	3.0828e-06	3.0362e-06	420.62	141.3	122.09	42.259	3.0649e-06	52.889	138.754	141.441	128.874	64.003	201.010	186.197	63.994	68.749	192.629	217.767	67.966	72.431	72.807	77.635	199.796	76.675	-8191	255	
1166.659	1	1	0	0	0.10443	0.087908	0.055165	0.19862	0.053868	0.1028	0.22962	0.25885	0.13434	0.23385	0.10161	0.24841	0.22235	0.23303	0.1843	0.23179	-2.1604	-2.3146	-1.9667	-3.0792	-2.2083	-2.5083	-3.1042	-2.1708	-2.9437	-2.6375	-1.9979	-3.0021	-2.2104	-2.3729	-2.7229	-2.2167	354.897	378.250	295.044	248.384	229.772	152.241	356.265	406.150	339.357	195.333	271.239	387.932	196.356	366.774	216.597	334.936	0.00050631	0.00056066	0.00010816	1303.1	4.1548e-06	6.9576e-06	1313.5	360.57	3.1806e-06	3.5293e-06	416.62	138.94	120.04	41.431	2.828e-06	51.642	0.000311	0.0002767	7.7145e-05	1315.6	3.0381e-06	3.0078e-06	1326.5	365.4	3.0315e-06	2.9678e-06	420.71	141.13	121.94	42.199	2.9674e-06	52.732	142.023	115.334	172.537	64.017	190.778	188.684	63.889	68.838	217.094	200.895	68.360	72.411	72.928	77.818	187.129	76.909	-8191	255	
1166.755	1	1	0	0	0.22741	0.26943	0.033674	0.13846	0.12185	0.057561	0.13917	0.29068	0.034023	0.33441	0.021519	0.049473	0.13907	0.21039	0.11111	0.28616	-2.2958	-2.4437	-2.0229	-3.0687	-2.2396	-2.3521	-2.9188	-2.2208	-2.7125	-2.7021	-2.0917	-2.85	-2.2667	-2.2854	-2.8208	-2.25	355.749	51.145	229.107	311.344	232.598	70.430	347.692	367.367	143.919	102.768	119.540	209.816	85.401	366.278	251.014	355.061	0.00051159	0.00043804	0.00010732	1298.4	6.6845e-06	5.8732e-06	1306	360.69	4.7286e-06	4.1845e-06	414.25	139.53	120.6	41.571	4.6069e-06	51.929	0.00030156	0.00026527	7.4749e-05	1312.6	2.9499e-06	2.8778e-06	1323.5	365.24	2.9866e-06	2.9097e-06	419.76	141.53	122.22	42.332	2.8905e-06	52.878	140.349	108.555	138.426	64.047	207.825	214.332	63.945	68.732	193.585	165.900	68.181	72.255	72.791	77.637	197.176	76.694	-8191	255	
1166.850	1	1	0	0	0.13236	0.25556	0.21394	0.26676	0.094022	0.34392	0.12739	0.29765	0.15453	0.095359	0.35342	0.15999	0.21186	0.44003	0.096801	0.080408	-2.2125	-2.5542	-1.8438	-2.7562	-2.3208	-2.3833	-3.2687	-2.3	-2.5458	-2.7062	-1.9917	-2.7667	-2.4083	-2.1271	-2.8583	-2.3271	175.034	396.698	393.590	403.152	156.064	246.443	369.497	353.488	359.680	202.254	108.310	396.963	401.896	364.448	386.293	394.157	0.00049781	0.00034308	6.211e-05	1307.4	5.3318e-06	3.1561e-06	1309.1	359.13	4.5813e-06	5.9997e-06	416.31	138.89	120.25	41.485	5.1947e-06	51.837	0.00029673	0.00026145	7.3185e-05	1317.6	2.9151e-06	2.9065e-06	1324.8	365.22	2.9357e-06	2.7522e-06	420	141.33	122.04	42.421	2.8211e-06	52.918	141.934	131.634	157.225	64.102	195.355	174.063	63.989	68.654	202.518	200.695	68.284	72.555	73.017	77.626	223.493	76.595	-8191	255	
1166.947	1	1	0	0	0.1307	0.11233	0.12661	0.067406	0.18357	0.202	0.069036	0.25671	0.055325	0.0064952	0.079985	0.37139	0.10227	0.30853	0.14429	0.27599	-2.1104	-2.5896	-1.8771	-2.9188	-2.5187	-2.1479	-3.0667	-2.3812	-2.2958	-2.8375	-2.1354	-2.8917	-2.5396	-2.025	-2.9792	-2.3812	75.650	280.015	337.218	108.433	263.654	409.158	261.722	363.368	191.019	246.604	383.357	387.363	381.983	355.567	168.886	374.702	0.00050199	0.00056614	0.00018541	1304.1	5.6022e-06	4.5882e-06	1312.8	360.23	5.2883e-06	4.9406e-06	417.24	139.17	120.04	41.529	4.6968e-06	51.981	0.00029517	0.00025329	7.2644e-05	1315.6	2.8449e-06	2.8512e-06	1324.9	365.07	2.8719e-06	2.7795e-06	420.73	141.42	122.06	42.345	2.8401e-06	52.946	138.371	124.206	129.254	64.138	205.683	189.887	63.941	68.449	193.833	181.253	68.158	72.564	72.970	77.859	216.347	77.022	-8191	255	
1167.066	1	1	0	0	0.26822	0.18651	0.23637	0.22585	0.11596	0.14513	0.5274	0.27733	0.23763	0.20012	0.054166	0.43984	0.23124	0.39254	0.26696	0.21132	-1.9417	-2.6583	-1.9083	-2.95	-2.725	-1.9667	-3.1396	-2.4021	-2.1458	-2.8521	-1.9792	-2.5146	-2.8333	-2.1375	-2.8896	-2.3458	311.341	186.778	236.976	280.278	371.316	76.288	358.217	393.181	379.389	279.115	170.060	376.313	397.970	377.336	277.462	176.513	0.00050744	0.00048647	0.00017047	1306.6	4.4967e-06	4.1563e-06	1312.1	360.35	5.3456e-06	6.7059e-06	416.7	139.19	120.17	41.454	5.4934e-06	52.038	0.00030117	0.00026402	7.2157e-05	1314.9	2.8944e-06	2.8522e-06	1323.7	365.36	2.9745e-06	2.9108e-06	420.48	141.31	122.16	42.282	2.8694e-06	52.88	137.847	124.385	128.241	64.124	210.343	183.662	63.945	68.585	208.211	210.636	68.066	72.459	73.014	77.565	197.952	76.728	-8191	255	
#DATA ENDS
