BOXY.EXE: ISS Imagent and Oximeter Data Acquisition Program Version 0.80
Ascii Record File

#ACQ INFORMATION
2  Detector Channels 
16  External MUX Channels 
1  Auxiliary Channels 
5000  Waveform (CCF) Frequency (Hz)
1  Waveforms Skipped 
30  Waveforms Averaged 
1  Cycles Averaged 
16  Acquisitions per Waveform 
10.0806  Updata Rate (Hz) 

#FILE INFORMATION
TRUE -- External MUX Channel results are PARSED.
FALSE -- AC DC and Phase are NOT grouped.
TRUE -- Companion Program Settings File CREATED.
FALSE -- AC data not excluded
FALSE -- DC data not excluded
FALSE -- Phase data not excluded
FALSE -- Auxillary Chn. data not excluded
Tab delimiters

#CALIBRATION STATE
TRUE -- Waveform Calibration Values APPLIED.


#AUX CALIBRATION VALUES
Val Type	aux-1	

Term	1.0000e+00	
Factor	0.0000e+00	


#WF CALIBRATION VALUES
A = Detector Channel
Val Type	A-AC1	A-AC2	A-AC3	A-AC4	A-AC5	A-AC6	A-AC7	A-AC8	A-AC9	A-AC10	A-AC11	A-AC12	A-AC13	A-AC14	A-AC15	A-AC16	A-DC1	A-DC2	A-DC3	A-DC4	A-DC5	A-DC6	A-DC7	A-DC8	A-DC9	A-DC10	A-DC11	A-DC12	A-DC13	A-DC14	A-DC15	A-DC16	A-Ph1	A-Ph2	A-Ph3	A-Ph4	A-Ph5	A-Ph6	A-Ph7	A-Ph8	A-Ph9	A-Ph10	A-Ph11	A-Ph12	A-Ph13	A-Ph14	A-Ph15	A-Ph16	

Term	0.00000e+00	0.00000e+00	0.00000e+00	0.00000e+00	0.00000e+00	0.00000e+00	0.00000e+00	0.00000e+00	0.00000e+00	0.00000e+00	0.00000e+00	0.00000e+00	0.00000e+00	0.00000e+00	0.00000e+00	0.00000e+00	0.00000e+00	0.00000e+00	0.00000e+00	0.00000e+00	0.00000e+00	0.00000e+00	0.00000e+00	0.00000e+00	0.00000e+00	0.00000e+00	0.00000e+00	0.00000e+00	0.00000e+00	0.00000e+00	0.00000e+00	0.00000e+00	0.00000e+00	0.00000e+00	0.00000e+00	0.00000e+00	0.00000e+00	0.00000e+00	0.00000e+00	0.00000e+00	0.00000e+00	0.00000e+00	0.00000e+00	0.00000e+00	0.00000e+00	0.00000e+00	0.00000e+00	0.00000e+00	
Factor	1.00000e+00	1.00000e+00	1.00000e+00	1.00000e+00	1.00000e+00	1.00000e+00	1.00000e+00	1.00000e+00	1.00000e+00	1.00000e+00	1.00000e+00	1.00000e+00	1.00000e+00	1.00000e+00	1.00000e+00	1.00000e+00	1.00000e+00	1.00000e+00	1.00000e+00	1.00000e+00	1.00000e+00	1.00000e+00	1.00000e+00	1.00000e+00	1.00000e+00	1.00000e+00	1.00000e+00	1.00000e+00	1.00000e+00	1.00000e+00	1.00000e+00	1.00000e+00	X	X	X	X	X	X	X	X	X	X	X	X	X	X	X	X	

B = Detector Channel
Val Type	B-AC1	B-AC2	B-AC3	B-AC4	B-AC5	B-AC6	B-AC7	B-AC8	B-AC9	B-AC10	B-AC11	B-AC12	B-AC13	B-AC14	B-AC15	B-AC16	B-DC1	B-DC2	B-DC3	B-DC4	B-DC5	B-DC6	B-DC7	B-DC8	B-DC9	B-DC10	B-DC11	B-DC12	B-DC13	B-DC14	B-DC15	B-DC16	B-Ph1	B-Ph2	B-Ph3	B-Ph4	B-Ph5	B-Ph6	B-Ph7	B-Ph8	B-Ph9	B-Ph10	B-Ph11	B-Ph12	B-Ph13	B-Ph14	B-Ph15	B-Ph16	

Term	0.00000e+00	0.00000e+00	0.00000e+00	0.00000e+00	0.00000e+00	0.00000e+00	0.00000e+00	0.00000e+00	0.00000e+00	0.00000e+00	0.00000e+00	0.00000e+00	0.00000e+00	0.00000e+00	0.00000e+00	0.00000e+00	0.00000e+00	0.00000e+00	0.00000e+00	0.00000e+00	0.00000e+00	0.00000e+00	0.00000e+00	0.00000e+00	0.00000e+00	0.00000e+00	0.00000e+00	0.00000e+00	0.00000e+00	0.00000e+00	0.00000e+00	0.00000e+00	-1.01651e+02	-1.31598e+02	-1.20738e+02	-1.91400e+02	-6.33302e+01	-6.26078e+01	-1.55998e+02	-1.62015e+02	-5.85124e+01	-6.34004e+01	-1.71242e+02	-1.69256e+02	-1.82252e+02	-1.76911e+02	-6.36124e+01	-1.48894e+02	
Factor	1.65450e-05	1.63506e-04	4.61476e-05	7.96256e-01	1.42743e-06	1.71502e-06	1.68508e-01	5.36599e-02	1.14399e-06	1.82088e-06	9.19581e-02	2.79579e-02	3.18351e-02	9.46751e-03	1.44351e-06	1.32714e-02	9.20689e-06	1.42985e-05	3.97790e-06	4.00663e-01	1.55516e-07	1.58660e-07	8.09809e-02	2.75310e-02	1.46786e-07	1.58617e-07	4.56486e-02	1.40073e-02	1.65838e-02	4.88813e-03	1.51075e-07	6.63547e-03	X	X	X	X	X	X	X	X	X	X	X	X	X	X	X	X	



#DISTANCE SETTINGS
A = Detector Channel
A-1	A-2	A-3	A-4	A-5	A-6	A-7	A-8	A-9	A-10	A-11	A-12	A-13	A-14	A-15	A-16	

2.5000e+00	3.0000e+00	2.5000e+00	3.0000e+00	2.0000e+00	3.0000e+00	1.5000e+00	3.0000e+00	3.0000e+00	3.0000e+00	3.0000e+00	3.0000e+00	3.0000e+00	3.0000e+00	1.5000e+00	3.0000e+00	

B = Detector Channel
B-1	B-2	B-3	B-4	B-5	B-6	B-7	B-8	B-9	B-10	B-11	B-12	B-13	B-14	B-15	B-16	

1.0000e+01	1.0000e+01	1.0000e+01	1.4400e+00	1.0000e+01	1.0000e+01	1.5100e+00	1.9400e+00	1.0000e+01	1.0000e+01	1.9900e+00	2.4900e+00	2.4100e+00	2.9000e+00	1.0000e+01	2.9800e+00	




#DATA BEGINS
time	group	step	mark	flag	A-AC1	A-AC2	A-AC3	A-AC4	A-AC5	A-AC6	A-AC7	A-AC8	A-AC9	A-AC10	A-AC11	A-AC12	A-AC13	A-AC14	A-AC15	A-AC16	A-DC1	A-DC2	A-DC3	A-DC4	A-DC5	A-DC6	A-DC7	A-DC8	A-DC9	A-DC10	A-DC11	A-DC12	A-DC13	A-DC14	A-DC15	A-DC16	A-Ph1	A-Ph2	A-Ph3	A-Ph4	A-Ph5	A-Ph6	A-Ph7	A-Ph8	A-Ph9	A-Ph10	A-Ph11	A-Ph12	A-Ph13	A-Ph14	A-Ph15	A-Ph16	B-AC1	B-AC2	B-AC3	B-AC4	B-AC5	B-AC6	B-AC7	B-AC8	B-AC9	B-AC10	B-AC11	B-AC12	B-AC13	B-AC14	B-AC15	B-AC16	B-DC1	B-DC2	B-DC3	B-DC4	B-DC5	B-DC6	B-DC7	B-DC8	B-DC9	B-DC10	B-DC11	B-DC12	B-DC13	B-DC14	B-DC15	B-DC16	B-Ph1	B-Ph2	B-Ph3	B-Ph4	B-Ph5	B-Ph6	B-Ph7	B-Ph8	B-Ph9	B-Ph10	B-Ph11	B-Ph12	B-Ph13	B-Ph14	B-Ph15	B-Ph16	aux-1	digaux	

632.072	1	1	0	768	0.32686	0.25631	0.11105	0.10362	0.097886	0.41127	0.26743	0.17997	0.20259	0.11726	0.162	0.15103	0.36097	0.050657	0.18569	0.18818	-1.3687	-0.94375	-1.0333	-1.7583	-0.82083	-1.1437	-1.6229	-0.85	-1.8125	-1.1792	-1.1354	-1.7542	-0.88542	-1.5375	-1.3896	-0.8875	258.015	384.473	468.502	323.212	300.259	408.452	417.142	109.941	115.316	234.665	329.567	189.018	127.156	427.092	257.732	368.708	0.00047898	0.00032861	0.00017369	1303.8	4.875e-06	4.3959e-06	1301.2	346.29	5.1779e-06	4.3815e-06	398.94	131.43	114.53	39.279	2.5226e-06	48.825	0.00062931	0.00070298	0.00019431	1331.2	7.6452e-06	7.6792e-06	1323.4	353.61	7.6986e-06	7.9493e-06	407.75	134.83	117.22	40.455	7.6532e-06	50.343	209.465	212.688	206.701	122.713	249.858	250.906	122.426	127.552	274.459	253.994	126.606	131.041	131.952	136.448	253.854	135.711	-8191	255	
632.169	1	1	0	0	0.074262	0.23159	0.11268	0.14769	0.21289	0.30726	0.16839	0.19273	0.16126	0.074113	0.25039	0.14234	0.3981	0.12598	0.016997	0.018026	-1.1812	-1.2667	-1.0771	-1.7604	-0.92083	-1.4	-1.725	-1.0187	-1.65	-1.2313	-0.99167	-1.6396	-1.0812	-1.3292	-1.6833	-1.0521	329.050	336.246	325.072	174.750	349.856	388.423	352.434	397.976	204.584	209.857	445.763	158.088	455.820	228.184	118.869	361.972	0.00045527	0.00030781	0.00014792	1318.3	4.5896e-06	5.6919e-06	1305.9	347.32	5.2385e-06	5.4944e-06	398.8	131.71	113.85	39.413	5.4646e-06	48.915	0.00065093	0.00072228	0.0002016	1335.5	8.1682e-06	8.329e-06	1325.3	354.38	7.99e-06	8.1892e-06	407.68	135.07	117	40.536	7.7436e-06	50.333	204.081	201.474	193.651	122.988	257.264	278.176	122.475	127.447	259.695	270.842	127.158	131.446	131.896	136.552	245.029	135.594	-8191	255	
632.265	1	1	0	0	0.041641	0.082427	0.034444	0.016294	0.1687	0.14909	0.2308	0.091749	0.030461	0.15365	0.27473	0.059156	0.171	0.21557	0.064266	0.27458	-1.3271	-1.0792	-0.73958	-1.8	-1.0083	-1.3563	-1.8333	-1.0042	-1.4917	-1.5104	-0.93333	-1.8542	-1.0083	-0.90417	-1.7292	-1.0146	438.694	305.334	420.232	385.565	169.667	360.381	417.785	133.864	442.811	461.207	149.135	401.570	216.181	467.116	389.199	401.436	0.00049444	0.00067539	0.00019892	1305	4.6902e-06	5.6318e-06	1305.1	346.56	3.9396e-06	3.7361e-06	399.82	132.06	114.3	39.184	2.514e-06	48.713	0.00067252	0.00074659	0.00019866	1334.6	8.1895e-06	8.1809e-06	1327.4	354.2	7.8228e-06	7.9189e-06	408.48	135.05	117.12	40.469	7.4571e-06	50.252	207.496	188.317	216.132	122.459	227.988	270.793	122.550	127.311	274.093	248.724	126.808	131.502	131.979	136.621	256.509	135.369	-8191	255	
632.361	1	1	0	0	0.073837	0.32376	0.32401	0.1574	0.25073	0.20515	0.18581	0.42426	0.071287	0.13674	0.06044	0.14274	0.36508	0.15402	0.23978	0.33692	-1.0938	-1.5146	-0.77917	-1.8625	-1.2021	-0.9125	-2.0146	-0.97708	-1.375	-1.5229	-0.92917	-1.8167	-1.1979	-0.925	-1.7958	-1.0688	253.902	192.876	314.299	465.097	367.563	411.720	326.818	456.162	459.057	469.140	392.960	441.771	136.569	193.635	383.321	199.740	0.0004691	0.00061679	0.00013329	1313.8	3.7346e-06	4.0329e-06	1309.2	348.59	4.5548e-06	4.3183e-06	397.17	131.61	114.05	39.473	4.9488e-06	49.104	0.00065367	0.00071656	0.00019735	1338.7	8.1866e-06	7.8471e-06	1327.7	354.7	7.8442e-06	7.76e-06	407.29	134.98	117.13	40.526	7.5321e-06	50.414	204.207	191.984	223.485	122.814	249.037	261.267	122.562	127.377	260.852	253.445	126.908	131.501	131.942	136.691	259.127	135.544	-8191	255	
632.457	1	1	0	0	0.12905	0.23911	0.18553	0.30887	0.18133	0.12722	0.19217	0.31131	0.1565	0.24447	0.16138	0.41722	0.33085	0.084345	0.049887	0.12654	-0.78542	-1.7792	-0.675	-1.5021	-1.2083	-0.73333	-2.0417	-1.0458	-1.1083	-1.7021	-0.75625	-1.45	-1.3937	-0.87708	-1.8708	-0.99167	351.555	138.436	180.739	391.386	151.449	145.036	388.569	468.361	188.188	445.888	381.137	452.201	362.488	209.801	236.609	357.682	0.00048308	0.0004832	0.00017857	1317.9	4.3957e-06	4.4247e-06	1313.1	347.81	3.9146e-06	2.5272e-06	400.38	132	114.48	39.367	5.1987e-06	49.076	0.00065526	0.00071132	0.00019617	1338.2	7.7904e-06	7.6811e-06	1328.7	354.46	7.8888e-06	7.5951e-06	407.66	135.11	117.21	40.514	7.5859e-06	50.441	208.727	167.004	189.549	122.479	236.530	250.450	122.438	127.502	264.667	257.148	126.982	131.532	131.877	136.761	253.120	135.575	-8191	255	
632.553	1	1	0	0	0.1668	0.26671	0.18184	0.080386	0.20652	0.09233	0.27431	0.30955	0.18332	0.068141	0.1016	0.048421	0.2212	0.16108	0.10034	0.20154	-0.55625	-1.5479	-0.76667	-1.4375	-1.3	-0.98542	-1.8354	-1.35	-1.1812	-1.8208	-0.93542	-1.4854	-1.4229	-0.87917	-1.7042	-1.2625	411.987	410.463	257.042	202.051	124.300	405.940	431.078	357.339	407.074	319.675	147.019	233.209	145.632	313.536	137.195	362.447	0.00045746	0.00048599	8.5526e-05	1314.8	4.4592e-06	7.8904e-06	1310.7	348.32	4.7375e-06	6.3011e-06	401.1	132.22	114.76	39.383	5.5971e-06	48.967	0.00064947	0.00068874	0.00020306	1338.9	7.8591e-06	7.7929e-06	1328.7	354.45	7.7842e-06	7.7306e-06	407.96	135.19	117.46	40.469	7.7297e-06	50.426	204.033	196.940	231.759	122.720	241.802	260.492	122.655	127.418	275.642	264.092	126.543	131.349	131.905	136.286	259.943	135.350	-8191	255	
632.674	1	1	0	0	0.077217	0.13844	0.10942	0.25278	0.2003	0.16571	0.47765	0.30984	0.1914	0.28473	0.16793	0.45679	0.11489	0.1967	0.093745	0.24543	-0.87292	-1.6104	-1.0229	-1.3521	-1.8021	-0.86667	-1.9375	-1.4854	-1.0708	-1.8979	-0.99583	-1.1792	-1.6792	-1.2083	-1.6354	-1.5875	405.150	320.760	367.738	173.627	459.490	411.872	432.187	392.806	351.698	259.446	387.863	370.678	175.386	127.979	219.638	178.362	0.00047104	0.00053576	0.00018138	1314.3	4.862e-06	4.9533e-06	1315	346.75	4.2938e-06	4.6886e-06	401.27	131.77	114.4	39.41	6.7719e-06	48.72	0.00064609	0.00069109	0.00020105	1341	7.6955e-06	7.7962e-06	1329.8	354.59	7.6063e-06	7.7236e-06	408.49	135.37	117.36	40.507	8.0347e-06	50.42	204.863	200.177	232.971	122.803	269.131	269.795	122.606	127.206	263.696	271.963	126.663	131.310	131.687	136.522	269.583	135.413	-8191	255	
632.768	1	1	0	0	0.08209	0.31567	0.12994	0.12201	0.25021	0.25657	0.27812	0.091563	0.22888	0.14204	0.07274	0.1284	0.26181	0.19176	0.20683	0.41548	-0.51458	-1.7	-1.0333	-1.0667	-1.6562	-0.81458	-1.6417	-1.4229	-0.66042	-1.7188	-1.1812	-1.0521	-1.7229	-0.8125	-1.3687	-1.5938	359.201	251.837	201.327	435.975	258.639	379.371	341.452	160.721	468.392	165.568	174.001	293.832	152.941	194.374	400.264	398.591	0.00048297	0.00045966	5.1012e-05	1314.3	4.7974e-06	4.3265e-06	1308.1	347.7	5.5138e-06	5.0446e-06	401.7	131.81	114.82	39.434	4.4524e-06	48.851	0.0006487	0.00072204	0.00021029	1343.1	7.8986e-06	7.9661e-06	1330.3	354.96	7.7867e-06	8.103e-06	408.76	135.04	117.36	40.575	8.3545e-06	50.432	207.211	186.721	218.560	122.839	290.006	250.659	122.472	127.132	264.272	244.828	126.740	131.199	131.787	136.364	280.399	135.472	-8191	255	
632.864	1	1	0	0	0.29206	0.081989	0.2152	0.21782	0.24443	0.060653	0.059315	0.29221	0.21431	0.14773	0.14389	0.18489	0.059646	0.15406	0.12692	0.039008	-0.33125	-1.7458	-1.0125	-1.0854	-1.6208	-0.9125	-1.5312	-1.6021	-0.77917	-1.7938	-0.99792	-0.94167	-1.7958	-0.90208	-1.1896	-1.6	306.037	233.718	300.842	394.082	328.478	242.733	238.428	441.346	422.644	215.683	144.635	133.873	308.373	332.326	255.797	396.671	0.00047948	0.00071214	7.9033e-05	1315.3	3.8496e-06	5.9377e-06	1315.6	347.8	5.2756e-06	6.5576e-06	400.53	132.4	114.42	39.36	5.064e-06	49.143	0.00064676	0.00072758	0.00020924	1341.5	8.0088e-06	8.2361e-06	1333.3	354.91	7.7671e-06	8.1998e-06	408.68	135.44	117.4	40.614	8.0721e-06	50.527	207.121	195.487	239.925	122.888	246.476	286.830	122.414	127.529	264.497	271.208	126.685	131.440	131.778	136.414	262.554	135.619	-8191	255	
632.960	1	1	0	0	0.24236	0.059766	0.19307	0.017036	0.13868	0.29955	0.1411	0.43001	0.11655	0.20137	0.2981	0.36062	0.13362	0.027348	0.17463	0.27877	-0.40833	-1.4917	-1.2917	-0.72917	-1.6979	-0.74583	-1.2687	-1.575	-0.75417	-1.5792	-1.3667	-0.95	-1.7125	-1.1125	-1.1187	-1.6063	242.512	228.076	310.828	422.901	215.898	205.224	359.786	386.270	316.425	129.370	390.939	116.332	337.857	270.415	125.329	383.001	0.00045833	0.00056848	0.00015161	1310.5	4.9542e-06	5.5406e-06	1313.9	347.97	4.5268e-06	5.2798e-06	401.31	132.13	114.61	39.343	2.9054e-06	49.103	0.00065212	0.00074623	0.00020755	1341.9	7.7998e-06	8.2285e-06	1333.9	355.2	7.7368e-06	8.145e-06	408.83	135.34	117.54	40.576	8.17e-06	50.495	206.945	187.036	220.108	122.523	271.275	264.891	122.569	127.303	265.320	261.056	126.674	131.286	131.864	136.343	255.819	135.443	-8191	255	
633.057	1	1	0	0	0.14058	0.091346	0.211	0.12583	0.1094	0.18904	0.20985	0.1008	0.10668	0.091036	0.23917	0.22525	0.12608	0.26316	0.079802	0.19804	-0.31458	-1.6521	-1.4042	-0.78125	-1.6958	-0.86875	-1.3167	-1.6729	-0.73542	-1.575	-1.5479	-0.89792	-1.6313	-1.1396	-0.95208	-1.8333	306.869	392.120	195.156	339.702	362.306	307.215	420.592	451.642	281.542	260.228	427.783	331.867	237.872	410.114	408.123	204.725	0.00049869	0.00043521	0.00014877	1315.8	5.8337e-06	3.9466e-06	1310.6	347.89	3.5782e-06	4.2737e-06	401.04	131.7	115.05	39.309	6.2764e-06	48.966	0.00065808	0.00073244	0.00020533	1338.6	7.9284e-06	8.0566e-06	1333.2	354.87	7.8338e-06	8.1113e-06	408.92	135.18	117.59	40.587	7.8635e-06	50.435	207.060	209.454	215.962	122.358	257.382	268.282	122.491	127.289	252.453	246.827	126.531	131.247	131.832	136.150	284.991	135.083	-8191	255	
633.153	1	1	0	0	0.0064275	0.17734	0.12921	0.20981	0.19687	0.13993	0.039994	0.36162	0.05995	0.15905	0.36843	0.099097	0.40994	0.19252	0.20261	0.20991	-0.28333	-1.3792	-1.3687	-0.6375	-1.6042	-1.1458	-1.2313	-1.9271	-0.95	-1.2667	-1.7292	-0.74375	-1.6562	-1.5271	-0.9625	-1.8062	226.957	231.466	134.009	159.268	341.551	223.256	443.274	416.176	155.691	114.992	431.769	139.483	380.782	118.573	361.484	431.081	0.00046012	0.00026713	9.9253e-05	1317.1	5.7516e-06	3.8021e-06	1312.5	348.46	4.1802e-06	3.7313e-06	399.57	132.05	114.95	39.247	4.5397e-06	49.116	0.00066288	0.00074132	0.00020382	1344.9	8.2206e-06	8.4424e-06	1332.8	355.65	8.0231e-06	8.3832e-06	409.2	135.29	117.62	40.529	8.1801e-06	50.555	209.320	205.081	198.482	122.926	273.422	293.075	122.611	127.301	276.143	225.129	126.667	131.257	131.748	136.244	273.276	135.376	-8191	255	
633.249	1	1	0	0	0.096236	0.18349	0.29021	0.12161	0.15876	0.12432	0.33097	0.083242	0.20941	0.18477	0.16404	0.18858	0.13112	0.10538	0.12468	0.063806	-0.65	-1.2917	-1.5438	-0.79375	-1.4417	-1.5354	-0.76667	-1.9229	-1.1875	-1.0646	-1.7313	-0.91875	-1.4854	-1.6229	-0.77292	-1.8125	186.817	248.439	179.709	380.705	173.949	275.497	438.785	407.761	260.417	198.523	205.304	160.685	112.117	384.236	132.306	330.961	0.00048416	0.000604	0.00011058	1314.5	5.3103e-06	5.7535e-06	1318.9	348.39	5.3783e-06	5.3824e-06	400.54	131.97	115.05	39.67	3.815e-06	49.049	0.00068864	0.00076854	0.0002001	1342.6	8.5696e-06	8.4873e-06	1335.4	355.66	8.3335e-06	8.603e-06	409.93	135.43	117.69	40.723	7.9016e-06	50.642	208.775	224.959	162.324	122.414	266.269	265.541	122.504	127.324	261.407	237.881	126.600	131.018	131.844	136.229	264.827	135.499	-8191	255	
633.370	1	1	0	0	0.26404	0.24251	0.26012	0.11244	0.094812	0.096461	0.037053	0.087823	0.097121	0.18622	0.20926	0.059729	0.40464	0.097279	0.1906	0.10688	-0.70833	-1.0417	-1.6187	-0.92292	-1.3625	-1.3646	-0.92083	-1.7458	-1.0667	-0.95625	-1.7021	-0.97708	-1.2104	-1.6417	-0.78542	-1.4896	178.569	203.652	215.594	140.245	365.820	118.478	417.757	463.825	295.681	406.763	112.316	465.633	427.957	348.826	241.791	266.230	0.00044882	0.00022782	0.00013626	1326	4.1684e-06	4.2714e-06	1315.9	349.23	5.4774e-06	5.6198e-06	401.14	132.13	114.25	39.337	5.0474e-06	49.05	0.00068041	0.00075341	0.00020071	1348	8.0949e-06	7.9912e-06	1335.2	355.67	7.9965e-06	7.9513e-06	409.03	135.23	117.49	40.538	7.8798e-06	50.627	208.325	175.583	194.351	122.420	266.907	261.548	122.600	127.403	258.849	256.897	127.012	131.066	131.825	136.350	260.417	135.322	-8191	255	
633.466	1	1	0	0	0.19129	0.15748	0.22615	0.11325	0.15336	0.072577	0.074286	0.22712	0.081294	0.10536	0.15497	0.15733	0.21152	0.13922	0.14771	0.080308	-0.78958	-0.91667	-1.6542	-0.81667	-1.1583	-1.7479	-1.075	-1.6583	-1.2583	-0.82292	-1.9333	-1.2208	-1.35	-1.7854	-0.87917	-1.5917	177.145	177.664	117.898	237.855	456.735	147.606	328.614	113.428	223.980	147.309	467.297	393.905	432.708	163.647	383.494	308.827	0.00047986	0.00052336	0.00017779	1316.4	2.7753e-06	4.7275e-06	1316.7	349.51	3.9755e-06	6.2634e-06	401.69	132.09	115.54	39.423	5.3974e-06	49.213	0.00065225	0.00072064	0.0001994	1342.4	7.9647e-06	7.7753e-06	1336	355.88	8.0197e-06	7.7058e-06	409.67	135.38	117.72	40.627	7.798e-06	50.632	207.985	201.775	211.711	122.428	257.203	247.953	122.308	127.380	254.616	271.549	126.994	131.103	131.747	136.344	275.355	135.479	-8191	255	
633.562	1	1	0	0	0.24407	0.077824	0.079156	0.23663	0.20733	0.28802	0.23652	0.066953	0.17767	0.23063	0.082617	0.17884	0.14026	0.28659	0.34625	0.18663	-0.96042	-0.72083	-1.7313	-1.1458	-1.0938	-1.7646	-0.89375	-1.4708	-1.55	-0.9125	-1.8854	-1.2042	-1.0625	-1.8396	-0.84583	-1.4854	407.873	455.640	131.947	446.981	315.863	359.935	377.985	377.964	163.340	434.786	295.188	444.528	200.012	135.198	393.085	333.850	0.00048316	0.00043101	7.7121e-05	1316.9	3.4016e-06	3.4354e-06	1316.5	349.81	3.313e-06	5.0112e-06	403.5	132.1	114.83	39.411	4.5176e-06	49.252	0.0006661	0.0007303	0.00020409	1341.1	8.4063e-06	8.0702e-06	1335.5	356	8.0891e-06	8.1179e-06	410.05	135.65	117.82	40.686	8.3214e-06	50.693	209.002	206.749	199.818	122.723	263.947	244.846	122.430	127.274	264.826	266.106	126.530	130.830	131.798	136.402	272.745	135.525	-8191	255	
633.658	1	1	0	0	0.061783	0.17297	0.29564	0.19193	0.29713	0.14431	0.047129	0.38895	0.23332	0.21762	0.32526	0.049712	0.27274	0.025511	0.092496	0.25979	-1.2208	-0.71042	-1.6	-1.1625	-0.93125	-1.725	-0.85	-1.5146	-1.675	-0.85	-1.5792	-1.4375	-0.97917	-1.9271	-1.0479	-1.3563	294.579	144.125	113.638	140.881	463.374	302.059	305.902	297.863	275.116	156.453	444.299	376.610	458.656	389.673	468.063	152.013	0.00047791	0.00064777	0.00012229	1320.8	5.7518e-06	2.7533e-06	1325.3	349.39	5.5219e-06	5.7743e-06	403.56	131.97	115.37	39.545	5.9238e-06	49.379	0.00067991	0.00075591	0.00022024	1350.9	8.3982e-06	8.3452e-06	1343.8	357.03	8.2643e-06	8.2695e-06	411.79	135.65	118.17	40.781	8.5433e-06	50.906	208.039	190.445	201.624	122.588	261.028	259.017	122.385	127.551	263.541	259.698	126.816	131.028	131.780	136.221	256.673	135.426	-8191	255	
633.754	1	1	0	0	0.015755	0.10673	0.075556	0.10868	0.34304	0.22373	0.29458	0.16166	0.11159	0.098152	0.20035	0.16467	0.17706	0.086998	0.102	0.21093	-1.425	-0.9	-1.5542	-1.3708	-0.90833	-1.5	-1.1313	-1.1354	-1.6812	-0.76875	-1.4937	-1.4083	-0.78958	-1.8813	-1.0063	-1.2188	272.884	261.990	426.251	365.951	207.663	239.910	458.414	444.084	468.902	416.436	366.024	415.154	110.600	156.486	301.537	145.234	0.00048221	0.00041881	0.00012561	1325.4	4.226e-06	4.0432e-06	1324.6	349.78	5.0129e-06	7.6239e-06	404.25	132.77	115.59	39.605	4.8484e-06	49.475	0.00067945	0.00074665	0.00021467	1352.5	8.2806e-06	8.2814e-06	1344.7	357.21	7.9729e-06	8.4982e-06	410.91	136.02	118.33	40.86	8.357e-06	50.832	207.959	163.798	213.416	122.582	253.227	257.858	122.547	127.380	266.272	243.530	126.810	131.205	131.700	136.278	258.115	135.724	-8191	255	
633.850	1	1	0	0	0.20743	0.20424	0.22077	0.24922	0.19055	0.11083	0.34453	0.033338	0.10489	0.08811	0.22992	0.24964	0.19066	0.26981	0.32072	0.31877	-1.4208	-0.81458	-1.2521	-1.5833	-0.50833	-1.6542	-1.4562	-0.96875	-1.6938	-0.96875	-1.3417	-1.8375	-0.98333	-1.6521	-1.325	-0.875	217.340	358.847	351.971	350.620	388.680	333.301	440.230	316.167	285.058	334.224	291.953	404.996	324.636	139.354	279.317	232.016	0.00047489	0.00044095	0.00013397	1330	4.9409e-06	5.8065e-06	1323.9	351.24	5.3124e-06	4.2722e-06	403.54	133.08	115.49	39.823	5.6241e-06	49.377	0.0006594	0.00075785	0.00021284	1356	8.0723e-06	8.0533e-06	1344.7	357.84	7.7316e-06	8.2484e-06	411.69	136.12	118.37	40.982	8.198e-06	50.855	204.666	171.747	194.297	122.848	253.706	301.516	122.446	127.285	261.030	253.505	126.659	131.242	131.659	136.158	239.734	135.330	-8191	255	
633.945	1	1	0	0	0.15142	0.19878	0.2166	0.10627	0.22558	0.23555	0.34467	0.074506	0.17728	0.17781	0.13091	0.2867	0.095807	0.20538	0.11617	0.068989	-1.5063	-0.85	-1.2333	-1.5958	-0.68958	-1.5333	-1.575	-0.9625	-1.6688	-1.125	-1.2938	-1.4958	-0.74583	-1.6021	-1.5083	-0.9125	377.391	123.772	386.646	319.715	318.180	300.075	391.315	423.207	210.395	198.400	393.116	369.506	314.692	444.348	268.349	208.026	0.00049601	0.00041105	0.0001241	1327.3	4.0377e-06	3.4875e-06	1327.5	350.86	4.8723e-06	5.799e-06	404.93	132.49	115.88	39.881	5.3135e-06	49.654	0.00065668	0.00075237	0.00020734	1353.9	7.9048e-06	8.3264e-06	1348	358.36	8.0228e-06	8.5617e-06	413.32	136.2	118.85	41.065	8.3444e-06	51.07	205.120	186.510	197.359	122.431	234.547	285.512	122.366	127.309	268.382	266.154	126.864	131.197	131.570	136.277	255.554	135.647	-8191	255	
634.043	1	1	0	0	0.079388	0.050088	0.26652	0.20471	0.26402	0.083815	0.20284	0.14521	0.20397	0.29351	0.079573	0.20772	0.32989	0.068453	0.196	0.16099	-1.3563	-0.94583	-1.1396	-1.7292	-0.87292	-1.2313	-1.6208	-1.1208	-1.6812	-1.2354	-1.05	-1.9167	-0.87083	-1.6271	-1.4854	-0.91667	176.472	385.850	115.950	296.005	182.737	442.743	413.801	207.305	257.216	149.104	189.822	461.911	429.528	431.511	454.231	343.429	0.00045089	0.00051115	0.00012925	1335.2	4.7992e-06	2.9153e-06	1333.4	354.02	4.8393e-06	4.6468e-06	405.3	134.25	115.76	40.033	4.7547e-06	49.489	0.00066852	0.00079899	0.0002129	1363.9	8.3606e-06	8.7428e-06	1352.9	360.11	8.2445e-06	8.7259e-06	414.25	136.88	118.9	41.181	8.3447e-06	51.154	205.120	188.169	201.816	122.468	258.740	250.504	122.395	127.341	265.334	263.377	126.892	131.497	131.906	136.366	263.891	135.448	-8191	255	
634.161	1	1	0	0	0.16696	0.15766	0.05601	0.14137	0.081027	0.27809	0.12645	0.33353	0.1389	0.10846	0.44368	0.12179	0.24651	0.21365	0.40911	0.22459	-1.3354	-1.0521	-0.9	-1.6917	-0.76875	-1.4021	-1.7125	-0.82083	-1.3958	-1.425	-0.91458	-1.7854	-0.99583	-1.2729	-1.8146	-0.91042	218.526	359.914	139.778	134.537	366.390	384.280	394.929	428.474	337.399	431.036	434.662	116.970	465.802	140.577	436.997	172.847	0.00045339	0.00039267	9.5074e-05	1345.6	4.5049e-06	5.7632e-06	1333.5	354.32	4.9799e-06	5.6338e-06	408.23	133.58	116.53	40.002	4.3196e-06	49.723	0.00067617	0.00077665	0.00021314	1367.9	8.5197e-06	8.4655e-06	1356	360.99	8.5108e-06	8.6816e-06	416.03	137.07	119.29	41.261	8.3929e-06	51.269	207.079	185.124	190.141	122.693	281.982	249.886	122.360	127.184	248.931	265.466	126.779	131.102	131.814	136.188	255.679	135.178	-8191	255	
634.233	1	1	0	0	0.063287	0.21421	0.35609	0.34315	0.15063	0.039588	0.4883	0.13077	0.16602	0.19338	0.41086	0.24576	0.11354	0.27213	0.13439	0.27857	-0.91875	-1.25	-0.83542	-1.7125	-1.0354	-1.1771	-1.8979	-0.88958	-1.3438	-1.4458	-0.92292	-1.8979	-1.0812	-0.97917	-1.6688	-0.96042	416.377	280.895	184.408	462.150	355.766	378.334	407.542	415.002	257.266	309.460	466.257	140.679	155.548	453.769	427.663	423.406	0.00049378	0.00050441	0.00014763	1346	4.3e-06	3.8643e-06	1340.6	354.49	4.7763e-06	7.0495e-06	409.31	134.43	116.71	40.057	4.8051e-06	49.94	0.00069368	0.0008025	0.00020881	1370.2	8.5981e-06	8.6824e-06	1360.2	362.26	8.3411e-06	8.526e-06	416.54	137.49	119.65	41.271	7.9318e-06	51.328	207.428	212.386	197.079	122.618	278.710	297.804	122.327	127.159	262.017	276.390	126.831	131.296	131.804	136.288	242.397	135.486	-8191	255	
634.354	1	1	0	0	0.21161	0.14263	0.44006	0.035076	0.38194	0.10622	0.085134	0.15762	0.16846	0.087407	0.15176	0.12995	0.098056	0.23267	0.23531	0.16473	-1.075	-1.5875	-0.88542	-1.7417	-0.88125	-1.0958	-1.8042	-0.9125	-1.2771	-1.3875	-0.95625	-1.7062	-1.3563	-1.0646	-1.5792	-0.86875	288.201	209.671	151.353	175.267	439.267	116.420	266.811	321.547	468.438	126.037	109.306	434.836	111.923	205.709	141.673	388.814	0.00049265	0.00071468	0.00015561	1349.9	4.2093e-06	4.5048e-06	1345.3	355.13	4.6914e-06	5.0405e-06	407.33	134.19	116.69	40.094	5.1251e-06	49.747	0.00069013	0.00078168	0.00020747	1371.3	8.45e-06	8.721e-06	1362.4	362.63	8.3622e-06	8.556e-06	416.13	137.48	119.72	41.317	8.2169e-06	51.311	205.030	176.810	221.659	122.761	291.463	271.239	122.288	127.289	274.302	246.535	126.536	131.135	131.672	136.347	276.381	135.297	-8191	255	
634.450	1	1	0	0	0.42455	0.0263	0.15109	0.24917	0.22264	0.069718	0.25032	0.27206	0.20058	0.1477	0.025536	0.18138	0.1654	0.084337	0.28019	0.097302	-0.89375	-1.6417	-0.66667	-1.7292	-1.3771	-0.9375	-1.8813	-0.98542	-1.1917	-1.5854	-0.62708	-1.5438	-1.4438	-0.99583	-1.6667	-1.2042	378.252	120.737	415.590	162.474	311.057	463.116	454.446	422.406	386.801	457.695	201.438	366.090	346.160	423.481	293.604	410.946	0.00048841	0.00066551	0.00014168	1355.9	5.6886e-06	3.7483e-06	1342.2	355.42	5.7612e-06	4.9834e-06	408.74	134.61	116.86	40.064	6.0272e-06	49.764	0.0006937	0.00076288	0.00020954	1375.4	8.8392e-06	8.404e-06	1362.3	362.87	8.4359e-06	8.3413e-06	417.24	137.81	119.72	41.359	8.1996e-06	51.332	209.084	178.587	226.840	122.335	243.452	258.257	122.180	127.086	263.624	264.193	126.617	131.264	131.607	136.360	271.393	135.419	-8191	255	
634.546	1	1	0	0	0.06945	0.14867	0.080078	0.25485	0.183	0.43357	0.43392	0.24989	0.13768	0.26159	0.24009	0.24144	0.1455	0.13402	0.27029	0.42025	-0.67917	-1.4042	-0.8	-1.5208	-1.5042	-0.92917	-1.9125	-1.0583	-0.98542	-1.9021	-1.0562	-1.5792	-1.5562	-0.90208	-1.8062	-1.4396	194.521	255.990	317.476	443.524	126.307	341.307	390.043	376.170	205.666	449.284	439.750	130.944	127.113	464.516	353.047	454.565	0.00050221	0.00057251	0.00017212	1343.5	3.6875e-06	4.5506e-06	1343.2	355.19	4.1502e-06	3.595e-06	407.89	134.92	117.29	40.319	5.3675e-06	50.129	0.00070155	0.00075002	0.00021152	1372.6	8.3454e-06	8.366e-06	1363	362.85	8.2252e-06	8.1982e-06	416.92	137.93	119.95	41.445	8.0243e-06	51.468	209.178	201.793	205.597	122.888	286.970	262.507	122.420	127.171	283.635	253.911	126.519	131.089	131.587	136.243	260.848	135.419	-8191	255	
634.642	1	1	0	0	0.26393	0.14945	0.16872	0.12132	0.097789	0.098227	0.085597	0.15015	0.57726	0.065607	0.19025	0.20097	0.28777	0.36671	0.14923	0.29942	-0.57917	-1.6063	-0.875	-1.1729	-1.5875	-0.85208	-1.7708	-1.2938	-0.97917	-1.7646	-0.94167	-1.3042	-1.6688	-0.88958	-1.425	-1.3062	302.972	209.917	394.080	192.469	294.374	144.729	117.422	124.287	136.227	243.317	177.730	373.777	453.207	423.152	268.342	387.778	0.00049483	0.00055702	8.5753e-05	1344.1	4.8901e-06	4.9371e-06	1349.5	356.71	6.8116e-06	6.3221e-06	409.86	134.55	117.36	40.368	2.0847e-06	49.988	0.00068854	0.00072693	0.00021237	1378.2	8.2825e-06	8.17e-06	1366.3	363.98	8.0836e-06	7.9665e-06	418.35	138.15	120.19	41.592	8.1669e-06	51.551	205.343	190.843	213.698	122.511	266.455	275.573	122.490	127.442	293.667	260.482	126.879	131.420	131.566	136.193	249.514	135.310	-8191	255	
634.763	1	1	0	0	0.17324	0.076792	0.070758	0.22252	0.22846	0.15574	0.18904	0.12727	0.11885	0.31271	0.1176	0.22624	0.07448	0.16598	0.2314	0.087364	-0.39792	-1.6437	-0.95417	-1.1812	-1.6104	-1.0562	-1.6229	-1.4833	-0.86042	-1.6479	-1.1146	-0.94583	-1.5875	-0.86875	-1.5375	-1.4396	117.972	386.500	458.025	360.064	132.184	196.934	461.466	143.745	138.949	408.130	417.532	194.119	423.230	157.151	224.763	389.413	0.00048971	0.00046824	0.00021199	1356.1	1.076e-06	4.9109e-06	1354.7	360.72	4.0128e-06	6.6497e-06	412.97	135.81	118.01	40.542	3.8435e-06	50.131	0.00066418	0.00071793	0.000208	1378.6	8.0376e-06	8.0355e-06	1371.1	366.66	7.8341e-06	7.9817e-06	420.3	138.92	120.66	41.705	7.7936e-06	51.631	203.206	187.417	206.710	122.837	280.357	290.864	122.754	127.393	279.858	274.451	127.144	131.703	131.857	136.543	244.897	135.761	-8191	255	
634.857	1	1	0	0	0.055808	0.21773	0.21768	0.2207	0.13704	0.10224	0.16903	0.22259	0.12409	0.10137	0.11731	0.1927	0.15828	0.38366	0.1438	0.23564	-0.41667	-1.6625	-1.0646	-0.98542	-1.7062	-0.78542	-1.6667	-1.6333	-0.86042	-1.7062	-1.2271	-1.0104	-1.7333	-0.74375	-1.1917	-1.45	455.069	428.865	262.362	243.335	162.024	127.496	463.119	378.510	113.037	256.762	137.372	417.879	305.205	432.073	252.053	391.816	0.00049208	0.00056569	0.00013121	1357	2.7546e-06	5.2687e-06	1352.1	359.87	5.1342e-06	4.318e-06	410.06	135.57	117.63	40.587	4.6594e-06	50.324	0.0006318	0.00071632	0.00020411	1378.5	7.665e-06	7.9353e-06	1370.5	366.63	7.6298e-06	7.9021e-06	419.26	138.76	120.55	41.747	8.2937e-06	51.769	207.002	182.767	209.207	122.775	224.973	264.212	122.703	127.553	248.038	254.437	126.821	131.441	131.962	136.364	254.251	135.690	-8191	255	
634.931	1	1	0	0	0.14037	0.022574	0.19511	0.16349	0.055365	0.076954	0.56513	0.25992	0.030695	0.22215	0.099953	0.0097333	0.19505	0.11128	0.14128	0.20916	-0.26042	-1.5771	-1.2667	-0.83125	-1.8479	-0.96875	-1.3854	-1.9833	-0.875	-1.8208	-1.3813	-1.0063	-1.7729	-1.0104	-1.1396	-1.7625	319.081	442.565	293.387	301.479	183.682	193.565	437.926	446.642	454.266	313.239	387.359	317.693	410.054	384.566	154.463	426.943	0.00050565	0.00046761	0.00016488	1350.6	4.8935e-06	4.8975e-06	1354.5	360.83	3.9798e-06	7.3292e-06	413.64	135.8	118.1	40.395	7.2041e-06	50.15	0.00065363	0.00076291	0.00021271	1383.1	7.944e-06	8.3174e-06	1373.2	366.88	8.1769e-06	8.3948e-06	421.41	139.26	121.04	41.816	8.5584e-06	51.82	205.581	213.513	207.545	122.808	256.140	283.271	122.659	127.476	286.992	257.160	126.839	131.574	131.993	136.513	273.961	135.622	-8191	255	
635.050	1	1	0	0	0.12399	0.18894	0.30501	0.24655	0.26816	0.042332	0.34417	0.10421	0.15507	0.11926	0.28632	0.032584	0.20129	0.32003	0.10656	0.16384	-0.56042	-1.3854	-1.5042	-1.0104	-1.7646	-0.94375	-1.1708	-1.975	-0.81875	-1.4417	-1.725	-0.89792	-1.6583	-1.1396	-0.86667	-1.5333	440.277	115.224	227.952	415.784	274.016	314.541	421.992	396.090	356.230	434.527	467.068	140.691	437.919	116.565	185.103	397.561	0.00048061	0.0005186	0.00015761	1359.7	4.5525e-06	4.4592e-06	1356.3	361.81	3.4033e-06	6.1416e-06	412.34	135.87	118.05	40.664	2.3138e-06	50.244	0.00070229	0.00080167	0.00022433	1386.3	8.4351e-06	8.7693e-06	1376.7	368.33	8.4292e-06	8.9143e-06	421.88	139.11	121.06	41.789	8.684e-06	51.785	205.764	195.473	218.730	122.660	258.055	247.358	122.705	127.753	259.401	269.196	126.666	131.206	132.030	136.149	257.855	135.240	-8191	255	
635.146	1	1	0	0	0.24674	0.14015	0.31164	0.11112	0.19356	0.12816	0.29349	0.42595	0.094227	0.18176	0.34673	0.29112	0.26759	0.26505	0.069793	0.13195	-0.42708	-1.1958	-1.3229	-0.7125	-1.5083	-1.3396	-1.1396	-1.9021	-0.88333	-1.0667	-1.5625	-1.0292	-1.7292	-1.4833	-0.83542	-1.8687	156.185	160.832	404.466	306.297	128.308	151.964	379.690	407.030	318.666	306.190	332.098	405.026	454.552	138.937	217.139	420.313	0.00046135	0.00032577	0.00014552	1359	4.9356e-06	6.6988e-06	1361.9	361.92	4.4511e-06	6.9063e-06	415.08	136.19	119.02	40.573	4.9556e-06	50.732	0.00070601	0.00081612	0.00022329	1387.8	8.6159e-06	8.8846e-06	1378.1	368.54	8.6328e-06	8.9486e-06	421.65	139.34	121.52	41.87	8.4911e-06	52.021	206.379	179.698	190.727	122.832	257.787	287.354	122.421	127.216	240.475	267.233	126.839	131.339	131.822	136.513	233.054	135.626	-8191	255	
635.242	1	1	0	0	0.087087	0.20416	0.31717	0.36608	0.11809	0.14729	0.059499	0.15022	0.12813	0.18176	0.10729	0.24922	0.20078	0.39038	0.13304	0.16968	-0.38958	-1.0396	-1.4458	-0.86458	-1.4583	-1.5187	-0.90208	-1.8229	-1.0042	-0.99375	-1.7292	-0.78542	-1.5583	-1.5625	-0.85417	-1.7792	333.933	439.370	330.865	112.424	111.334	380.508	408.297	384.711	155.964	171.989	197.217	429.358	368.032	121.370	354.385	373.623	0.00049213	0.00046937	0.0001297	1359.4	4.1856e-06	2.1077e-06	1357.1	362.82	3.8395e-06	5.2218e-06	415.73	136.4	118.67	40.573	5.085e-06	50.471	0.00069642	0.00080119	0.00021279	1389.5	8.5822e-06	8.7686e-06	1379.6	369.19	8.4946e-06	8.7755e-06	422.85	139.77	121.84	41.924	8.1099e-06	52.072	205.278	180.158	212.868	122.602	263.246	281.721	122.711	127.372	263.959	230.876	126.487	131.157	131.713	136.078	276.747	135.209	-8191	255	
635.338	1	1	0	0	0.1678	0.049529	0.11972	0.20845	0.25971	0.28877	0.2474	0.231	0.10827	0.10906	0.26515	0.25846	0.1712	0.25675	0.10462	0.17864	-0.79375	-0.775	-1.8875	-0.81875	-1.3583	-1.4	-1.0562	-1.7521	-1.1562	-1.0938	-1.7104	-0.75417	-1.2437	-1.6396	-0.76042	-1.7125	140.278	178.410	303.860	403.986	198.544	134.280	433.676	367.371	466.524	416.879	366.853	110.649	349.766	441.101	283.862	345.184	0.00047871	0.00030032	0.00015142	1368.6	4.9637e-06	4.6133e-06	1362	363.63	3.3772e-06	4.1349e-06	416.88	136.78	119.45	40.937	5.0904e-06	50.726	0.00070268	0.00078293	0.00020692	1393.7	8.4481e-06	8.2692e-06	1382.6	370.48	8.1515e-06	8.2709e-06	423.86	140.12	122.11	42.12	7.7143e-06	52.227	203.649	206.047	203.163	122.516	254.462	286.698	122.534	127.316	259.680	260.157	126.764	131.163	131.677	136.173	258.054	135.462	-8191	255	
635.459	1	1	0	0	0.33291	0.11574	0.10987	0.28165	0.084944	0.010582	0.30627	0.19664	0.289	0.18431	0.10159	0.30215	0.52597	0.32471	0.26957	0.19623	-0.83958	-0.83125	-1.675	-1.0771	-1.25	-1.7208	-1.1437	-1.4771	-1.2292	-0.99167	-1.8458	-1.1708	-1.3958	-1.8792	-0.72917	-1.5208	304.437	130.204	242.085	246.535	128.175	436.167	111.309	360.863	306.488	282.350	244.639	332.298	165.291	114.545	158.019	417.485	0.00047418	0.00071484	0.00012316	1374.5	4.2485e-06	4.1446e-06	1360.8	362.56	5.2769e-06	5.4186e-06	416.61	136.83	119.39	40.871	7.3695e-06	50.632	0.00068198	0.00074906	0.00020175	1397.5	8.2022e-06	8.0504e-06	1380.1	370.3	8.1283e-06	8.1317e-06	424.23	140.17	122.25	42.087	7.9352e-06	52.17	205.078	207.567	215.702	122.276	275.856	289.718	122.226	127.287	259.567	271.674	126.515	130.991	131.956	136.109	252.146	135.296	-8191	255	
635.530	1	1	0	0	0.15635	0.19371	0.13466	0.068518	0.0497	0.16746	0.1564	0.20631	0.091765	0.13951	0.3036	0.20047	0.17118	0.082796	0.26837	0.087689	-0.925	-0.45625	-1.725	-0.93958	-1.2854	-1.6625	-0.98958	-1.5479	-1.3229	-0.85	-1.6812	-1.2354	-1.2146	-1.775	-0.78958	-1.5125	261.135	297.355	323.849	246.883	215.887	215.303	192.891	375.209	421.987	288.471	417.663	335.486	414.374	132.528	219.076	229.709	0.00048088	0.0003955	0.00014229	1373.1	4.0157e-06	4.5287e-06	1362.6	363.34	4.2116e-06	4.5577e-06	416.05	136.98	118.49	40.888	5.8781e-06	50.827	0.00069025	0.00075296	0.00020906	1395	8.4312e-06	8.1198e-06	1382.1	370.53	8.4913e-06	8.3505e-06	424.67	140.41	122.06	42.17	8.363e-06	52.294	204.260	199.683	218.415	122.438	258.290	275.960	122.320	127.294	243.490	259.578	126.583	130.848	131.888	136.044	255.114	135.309	-8191	255	
635.626	1	1	0	0	0.25094	0.19936	0.24325	0.13761	0.1116	0.096667	0.033736	0.31336	0.064378	0.14929	0.12439	0.16666	0.077182	0.056562	0.096392	0.20455	-1.2958	-0.7	-1.625	-1.1896	-1.0208	-1.8146	-1.0812	-1.2104	-1.5292	-0.69167	-1.7729	-1.275	-1.0312	-1.7604	-0.725	-1.1562	306.867	392.905	163.496	129.837	175.971	323.044	346.721	398.657	331.284	237.110	467.602	440.198	399.581	312.559	277.846	439.474	0.00048188	0.00050877	0.00014582	1367.6	3.2274e-06	2.8946e-06	1363.7	363.41	4.1039e-06	1.6371e-06	415.04	136.97	119.11	41.026	5.2431e-06	50.838	0.00068543	0.00075431	0.00021428	1398.1	8.4066e-06	8.2821e-06	1382.9	370.44	8.301e-06	8.1678e-06	424.12	140.34	122.21	42.162	8.2119e-06	52.3	204.195	193.962	200.249	122.182	243.029	273.568	122.343	127.185	266.493	161.992	126.479	131.441	131.709	135.882	261.012	135.189	-8191	255	
635.723	1	1	0	0	0.21422	0.3918	0.36019	0.29482	0.046678	0.26649	0.16309	0.13817	0.084372	0.24015	0.10966	0.11087	0.32516	0.39229	0.26155	0.19945	-1.3563	-0.82292	-1.4896	-1.35	-0.87083	-1.8896	-1.3542	-1.2563	-1.6521	-0.75208	-1.5458	-1.4271	-0.87917	-1.5688	-1.0479	-1.2729	248.135	442.765	440.541	456.083	433.099	428.828	348.486	392.780	199.248	414.622	302.100	183.377	374.070	463.098	125.117	146.672	0.00047372	0.00069935	0.00021054	1369	5.3209e-06	5.0775e-06	1362.4	363.96	4.2153e-06	4.6295e-06	415.49	137.56	119.26	41.224	4.0747e-06	50.495	0.00066992	0.00072893	0.00020973	1396.2	8.3198e-06	7.8428e-06	1383.5	370.85	7.7356e-06	7.991e-06	423.53	140.62	122.18	42.268	8.1231e-06	52.184	205.620	197.493	203.332	122.085	255.055	242.941	122.177	127.100	273.298	250.791	126.500	131.116	131.628	136.325	280.527	135.548	-8191	255	
635.842	1	1	0	0	0.33224	0.20043	0.25159	0.21276	0.089875	0.10667	0.19059	0.16327	0.21285	0.092199	0.23222	0.15688	0.072648	0.13028	0.18745	0.17258	-1.5042	-0.94583	-1.3542	-1.4104	-0.7875	-1.7458	-1.2687	-1.1313	-1.6812	-0.90417	-1.4167	-1.7021	-0.84583	-1.8667	-1.1521	-0.92917	356.532	197.155	112.228	384.394	309.742	114.860	398.003	445.026	265.001	235.807	237.497	317.846	464.324	354.144	267.529	141.223	0.00049804	0.00050248	0.00018476	1376.7	3.0481e-06	7.5383e-06	1361.5	363.42	3.4767e-06	6.7228e-06	416.03	137.3	119.53	41.05	5.7048e-06	50.807	0.00066407	0.00074022	0.00020797	1396.2	7.8387e-06	7.8748e-06	1383.5	370.61	7.8001e-06	8.1288e-06	424.28	140.38	122.4	42.245	8.1036e-06	52.258	205.404	195.648	223.636	122.297	269.145	265.117	122.321	127.201	264.714	270.750	126.415	130.775	131.473	136.146	250.946	135.565	-8191	255	
635.938	1	1	0	0	0.16185	0.26519	0.29572	0.052316	0.16565	0.15112	0.35595	0.20745	0.096007	0.15525	0.28058	0.24846	0.22135	0.18159	0.11702	0.11799	-1.3854	-0.87083	-1.2687	-1.5063	-0.76875	-1.6	-1.5542	-0.95208	-1.6688	-0.89792	-1.2229	-1.8292	-0.82917	-1.7292	-1.4292	-0.76458	159.801	360.445	307.586	320.025	319.711	458.715	390.747	137.725	468.894	355.150	443.816	345.926	136.992	109.689	417.581	442.830	0.00048045	0.00045903	0.00015417	1368.9	6.3876e-06	4.3216e-06	1367.7	363.24	5.8663e-06	5.3449e-06	415.94	136.62	119.3	40.827	7.1386e-06	50.913	0.00064327	0.00073292	0.00020615	1397	7.8056e-06	7.9092e-06	1384.8	370.43	7.6173e-06	7.9854e-06	423.88	140.15	122.14	42.109	7.9437e-06	52.19	205.346	205.522	236.938	122.736	261.950	283.841	122.354	127.172	258.116	259.786	126.795	130.952	131.695	136.021	259.921	135.464	-8191	255	
636.034	1	1	0	0	0.086905	0.24969	0.079565	0.31741	0.17056	0.13808	0.1797	0.18799	0.032388	0.13328	0.1792	0.17623	0.24275	0.16194	0.29848	0.20946	-1.4708	-1.1729	-0.95	-1.9042	-0.91042	-1.2458	-1.75	-0.79167	-1.4438	-1.2167	-1.1833	-1.6938	-0.875	-1.325	-1.4562	-0.85833	258.543	432.769	365.522	468.191	393.489	375.606	462.981	455.635	266.890	447.125	356.623	191.103	352.602	421.974	313.477	448.834	0.00051427	0.00046197	0.00018342	1364.4	5.3309e-06	5.1603e-06	1359.4	363.86	5.17e-06	6.3526e-06	416.33	136.8	118.71	40.857	5.6452e-06	50.75	0.00064561	0.00074197	0.00020456	1391.3	7.8254e-06	8.1056e-06	1381.3	370.05	7.6855e-06	8.0971e-06	423.71	139.93	121.97	42.079	7.7571e-06	52.177	206.173	190.106	204.634	122.637	260.713	234.503	122.417	127.095	281.658	237.032	126.728	131.122	131.684	136.140	262.998	135.272	-8191	255	
636.130	1	1	0	0	0.11946	0.084629	0.23195	0.17123	0.17675	0.26931	0.20581	0.36643	0.074636	0.093664	0.19983	0.18668	0.28899	0.061428	0.096322	0.38329	-1.3375	-1.15	-0.93333	-1.5979	-0.77292	-1.2271	-1.6812	-0.825	-1.4896	-1.3146	-0.92083	-1.8458	-1.0208	-1.2375	-1.5812	-0.72708	217.433	152.467	347.847	274.785	246.361	367.378	419.016	445.317	349.459	425.175	153.573	446.881	450.661	249.033	174.490	116.046	0.000488	0.00035981	0.00014208	1369.7	6.7692e-06	4.8181e-06	1357.9	362.82	4.7986e-06	4.1982e-06	417.53	136.85	119.08	40.989	3.46e-06	50.565	0.00064513	0.0007199	0.00019967	1391.6	7.7564e-06	7.8639e-06	1380.3	369.83	7.5616e-06	7.9711e-06	423.67	139.99	121.92	42.163	7.7168e-06	52.141	206.360	195.892	198.615	122.502	269.504	264.945	122.271	127.145	264.903	254.732	126.753	130.991	131.428	136.150	247.466	135.497	-8191	255	
636.226	1	1	0	0	0.17419	0.27595	0.26022	0.22511	0.044666	0.14088	0.26704	0.21272	0.31112	0.17069	0.065398	0.3827	0.039393	0.27895	0.089033	0.14817	-1.2708	-1.3042	-0.70208	-1.7625	-0.95208	-1.1688	-1.8563	-0.95208	-1.3292	-1.4688	-0.78542	-1.7292	-1.0958	-0.92083	-1.8146	-0.80833	177.264	110.211	398.302	275.821	465.203	298.526	420.862	466.206	272.938	292.246	186.182	459.291	210.992	436.665	399.419	131.074	0.00047538	0.00054753	0.00012222	1368.5	4.8319e-06	5.1304e-06	1364.9	363.32	4.5825e-06	4.9433e-06	414.23	136.24	118.27	40.739	4.3658e-06	50.423	0.00064671	0.00072523	0.00019447	1388	7.7716e-06	7.811e-06	1383	369.46	7.3815e-06	7.8191e-06	422.32	139.76	121.49	41.979	7.4279e-06	51.918	206.171	201.519	205.112	122.683	279.357	269.155	122.330	127.280	252.299	266.822	126.402	131.033	131.420	136.326	255.295	135.002	-8191	255	
636.322	1	1	0	0	0.30006	0.18327	0.11401	0.42734	0.30017	0.072631	0.33726	0.28318	0.14921	0.1049	0.14985	0.072799	0.36347	0.18718	0.06471	0.045188	-0.97708	-1.3667	-0.59792	-1.6104	-1.0646	-0.84375	-1.9333	-0.92708	-1.1625	-1.3646	-0.85208	-1.7229	-1.1792	-0.82917	-1.4917	-0.76667	368.572	441.820	308.772	121.582	120.769	435.638	381.907	346.050	335.417	255.274	240.822	117.332	433.937	452.232	454.068	196.607	0.00048966	0.00048666	0.0001885	1361.8	2.0131e-06	6.4231e-06	1357.2	361.5	5.323e-06	3.2625e-06	413.94	136.37	118.85	40.766	4.1903e-06	50.42	0.00063865	0.00070962	0.00019188	1383.6	7.8238e-06	7.9066e-06	1375.6	368.21	7.5133e-06	7.6351e-06	421.38	139.37	121.45	41.892	7.2227e-06	51.868	207.507	198.762	197.766	122.909	218.691	255.748	122.182	127.199	264.694	257.640	126.678	131.041	131.597	136.265	245.613	135.337	-8191	255	
636.443	1	1	0	0	0.22436	0.24432	0.14991	0.1357	0.21002	0.15595	0.45418	0.32347	0.2064	0.088341	0.27836	0.24685	0.18761	0.22157	0.050337	0.081791	-0.79583	-1.2958	-0.73542	-1.4875	-1.2396	-0.67917	-1.9229	-1.1271	-1.2646	-1.7792	-0.95833	-1.525	-1.5333	-0.68958	-1.4771	-1.1125	313.638	215.009	194.996	137.070	115.965	263.044	399.731	437.713	341.141	449.181	419.632	302.960	362.605	195.416	394.779	405.478	0.00049303	0.00043848	0.00018631	1363.9	4.463e-06	4.9998e-06	1357.8	360.01	5.5792e-06	4.9908e-06	411.93	135.44	118.16	40.481	4.7866e-06	50.201	0.00064341	0.00068311	0.00018317	1383.3	7.5325e-06	7.5393e-06	1373.9	367.28	7.3289e-06	7.2121e-06	420.16	138.94	120.92	41.736	6.9863e-06	51.736	207.991	193.460	188.627	122.674	270.999	293.238	122.271	127.149	264.292	250.356	126.593	131.003	131.744	136.282	257.053	135.428	-8191	255	
636.539	1	1	0	0	0.26556	0.2804	0.27219	0.16296	0.24277	0.062392	0.094246	0.35329	0.21232	0.06495	0.26431	0.095954	0.23088	0.033114	0.12157	0.11914	-0.88542	-1.4438	-0.60833	-1.3396	-1.4521	-0.72083	-1.7708	-0.9625	-0.92708	-1.8042	-0.75208	-1.5479	-1.5917	-0.78542	-1.6542	-1.2083	124.473	297.047	403.536	341.384	203.694	228.106	427.377	392.834	409.508	461.359	123.480	391.322	391.300	309.686	221.903	384.893	0.00050288	0.00071781	9.7566e-05	1362.3	4.6898e-06	6.2806e-06	1353.3	359.82	2.86e-06	6.277e-06	411.3	135.02	117.53	40.207	4.5624e-06	50.028	0.00062265	0.00066229	0.00018083	1382.4	7.4502e-06	7.4521e-06	1370.5	366.52	7.4671e-06	7.0624e-06	419.05	138.32	120.29	41.55	7.0719e-06	51.454	207.778	188.977	220.833	122.473	281.266	271.964	122.438	127.163	270.837	267.794	126.713	131.105	131.578	136.197	253.963	135.479	-8191	255	
636.635	1	1	0	0	0.27261	0.23063	0.34394	0.33945	0.25941	0.19051	0.41936	0.035492	0.14719	0.074535	0.30033	0.15585	0.43272	0.38464	0.21869	0.17346	-0.39167	-1.7979	-0.71667	-1.275	-1.4	-0.71667	-1.775	-1.3208	-0.64583	-1.6875	-0.98125	-1.1375	-1.6292	-0.66875	-1.3792	-1.2771	364.075	271.585	250.986	178.325	196.150	296.009	422.106	355.414	173.039	398.828	441.728	263.147	467.875	443.232	166.578	384.423	0.00047791	0.00055037	0.00011678	1350.5	4.7787e-06	6.3609e-06	1347.6	358.09	4.5071e-06	6.2365e-06	411.68	134.54	116.89	40.127	6.8961e-06	50.051	0.00062037	0.00065603	0.00018532	1377.3	7.6504e-06	7.5552e-06	1368.1	364.85	7.4543e-06	7.3658e-06	418.03	137.82	120.03	41.359	7.437e-06	51.465	206.274	172.812	188.480	122.112	263.302	263.471	122.381	127.046	252.491	267.391	126.296	131.165	131.415	136.116	253.252	135.313	-8191	255	
636.754	1	1	0	0	0.24033	0.20584	0.18408	0.084482	0.062307	0.016731	0.2811	0.022338	0.078552	0.19484	0.11667	0.29812	0.20304	0.35647	0.27126	0.30315	-0.48542	-1.5312	-0.89167	-1.1771	-1.4896	-0.80625	-1.8333	-1.1958	-0.67708	-1.6167	-1.0229	-1.1333	-1.4312	-0.92292	-1.4958	-1.4375	191.185	397.020	366.728	327.950	437.804	350.737	446.515	401.461	232.773	221.880	352.049	468.413	386.396	454.313	377.088	396.548	0.000465	0.00064804	0.00019023	1350.2	6.2778e-06	6.6135e-06	1343	355.94	5.4492e-06	4.0911e-06	409.7	134	116.61	40.296	4.5928e-06	49.654	0.00063631	0.00068907	0.0001939	1373.6	7.6242e-06	7.3635e-06	1362.9	363.48	7.3451e-06	7.372e-06	417.56	137.66	119.94	41.366	7.5383e-06	51.285	208.006	185.390	202.906	122.567	264.939	240.982	122.432	127.288	260.620	251.245	126.506	131.244	131.663	136.143	247.086	135.295	-8191	255	
636.826	1	1	0	0	0.14475	0.18494	0.18331	0.12452	0.27791	0.032161	0.24726	0.031987	0.18912	0.18673	0.39476	0.18692	0.28578	0.49562	0.48425	0.27655	-0.41042	-1.4438	-1.0562	-0.83125	-1.6292	-0.88333	-1.3146	-1.6708	-0.70625	-1.4375	-1.0708	-0.90417	-1.675	-0.85417	-1.15	-1.5771	282.006	393.438	425.862	287.485	168.581	187.243	110.262	310.574	370.358	175.091	408.337	289.026	130.839	325.406	302.114	420.161	0.00046134	0.00031903	0.00012062	1347.8	4.9081e-06	5.3053e-06	1345.5	357.51	4.1605e-06	4.9522e-06	409.48	134.3	116.66	40.377	5.6119e-06	49.754	0.00063004	0.00067593	0.00019218	1371.9	7.2406e-06	7.46e-06	1364	363.92	7.3081e-06	7.2181e-06	416.91	137.56	119.89	41.299	7.4965e-06	51.212	204.575	201.877	191.191	122.707	258.201	259.806	122.495	127.161	254.812	261.909	126.463	131.330	131.518	136.332	258.279	135.133	-8191	255	
636.922	1	1	0	0	0.21586	0.05062	0.18609	0.14986	0.043942	0.052798	0.28404	0.32489	0.17073	0.31443	0.40539	0.059529	0.017615	0.3242	0.11645	0.14806	-0.32292	-1.2604	-1.2479	-0.90625	-1.5979	-1.0312	-1.3188	-1.7354	-0.7375	-1.4271	-1.3396	-0.97708	-1.5792	-1.0042	-0.99583	-1.7771	236.831	318.552	454.241	350.406	345.394	195.285	390.659	435.186	265.927	284.453	425.169	452.394	302.464	118.087	444.631	330.517	0.00048966	0.0006249	0.00014485	1346.1	4.937e-06	2.7678e-06	1343.3	358.23	5.2025e-06	5.9459e-06	408.68	134.03	117.2	40.034	2.8018e-06	49.86	0.00062985	0.00065874	0.00019149	1371.8	7.2529e-06	7.3965e-06	1361.7	364.51	7.2475e-06	7.4672e-06	417.28	137.61	119.84	41.318	7.437e-06	51.299	209.092	202.165	207.363	122.719	263.429	293.542	122.453	127.227	262.620	255.364	126.501	131.071	131.730	136.172	288.881	135.150	-8191	255	
637.018	1	1	0	0	0.14822	0.10323	0.25458	0.26732	0.18948	0.17124	0.080789	0.24032	0.062829	0.085104	0.06298	0.44154	0.16194	0.21652	0.22046	0.031675	-0.23958	-1.5458	-1.4146	-0.67292	-1.7604	-0.96042	-1.2625	-1.8667	-0.7625	-1.4896	-1.6958	-0.67917	-1.5833	-1.2875	-0.98125	-1.6875	310.757	388.606	202.640	357.116	412.632	247.882	460.927	413.608	200.383	123.351	369.263	124.630	125.269	213.400	205.864	408.321	0.00047369	0.00047327	0.00011134	1348.3	4.7502e-06	4.3003e-06	1340.8	356.72	3.68e-06	7.0349e-06	407.87	133.75	116.96	40.169	2.1406e-06	49.965	0.00061583	0.0006765	0.000189	1370.1	7.0235e-06	7.3754e-06	1361.9	364.03	7.1399e-06	7.3297e-06	416.89	137.53	119.83	41.312	7.2633e-06	51.298	204.798	197.031	206.054	121.814	247.360	271.102	122.399	127.402	277.216	257.826	126.843	131.246	131.712	136.126	277.239	135.470	-8191	255	
637.139	1	1	0	0	0.085912	0.25207	0.40705	0.10223	0.057369	0.14381	0.18288	0.26177	0.13604	0.14063	0.086321	0.20339	0.039765	0.089817	0.029989	0.35293	-0.52292	-1.2792	-1.4188	-0.68542	-1.5812	-1.1208	-0.94583	-2.025	-0.88333	-1.1354	-1.5708	-0.85833	-1.5562	-1.3542	-0.825	-1.8854	382.841	241.504	184.375	127.679	309.445	288.659	430.604	382.503	262.321	171.598	212.977	143.327	356.719	325.976	377.558	377.626	0.00047267	0.00065412	0.00016807	1344	4.0351e-06	5.371e-06	1339	357.25	4.9692e-06	6.2045e-06	408.67	133.75	116.91	40.09	4.6158e-06	49.923	0.00061799	0.00065526	0.00018354	1368.1	7.2289e-06	7.4256e-06	1359.7	364	7.1136e-06	7.2131e-06	416.65	137.37	119.97	41.318	7.3492e-06	51.31	205.886	201.068	184.229	122.575	278.944	290.676	122.442	127.384	254.510	238.867	126.708	131.221	131.933	136.254	256.398	135.430	-8191	255	
637.235	1	1	0	0	0.22601	0.24505	0.13515	0.16349	0.032882	0.19464	0.041812	0.25473	0.098027	0.14528	0.14312	0.24426	0.18894	0.17572	0.23869	0.13344	-0.68333	-0.9125	-1.5271	-0.94167	-1.4771	-1.2104	-0.9	-1.7	-1.0458	-0.95417	-1.7208	-0.90208	-1.4979	-1.3104	-0.64375	-1.5854	330.059	228.500	211.561	139.258	113.461	455.972	311.812	459.780	347.747	302.769	161.041	458.727	402.696	430.777	298.874	320.705	0.00047684	0.00036854	0.00016531	1348.3	5.2543e-06	3.7304e-06	1341.3	357.41	5.3241e-06	3.1576e-06	408.97	134.34	116.87	40.039	4.0699e-06	49.857	0.00061128	0.00067495	0.00018741	1372.9	7.2156e-06	7.4914e-06	1360.2	363.89	7.2057e-06	7.4391e-06	417.01	137.6	119.72	41.288	7.1437e-06	51.328	204.515	193.270	212.104	122.579	257.866	255.106	122.508	127.371	266.922	281.252	126.901	131.417	132.074	136.148	250.611	135.456	-8191	255	
637.331	1	1	0	0	0.006231	0.067693	0.30835	0.10633	0.29221	0.23302	0.26607	0.2702	0.38292	0.21305	0.13647	0.22728	0.10856	0.18378	0.10772	0.21437	-0.89792	-0.83125	-1.5646	-0.63125	-1.3229	-1.5042	-0.79167	-1.8271	-0.93542	-1.0479	-1.7958	-0.8125	-1.3417	-1.5688	-0.79375	-1.6542	192.487	231.902	460.568	425.292	400.498	355.129	419.973	395.249	122.291	230.884	115.556	384.028	196.719	333.509	445.682	306.737	0.00045335	0.00044945	0.00010038	1341.2	6.0468e-06	6.6985e-06	1338.1	355.52	4.8592e-06	6.1126e-06	409.69	134.55	117.17	39.906	5.2451e-06	49.769	0.00062964	0.00069509	0.00018656	1366.3	7.5069e-06	7.6025e-06	1359.6	363.06	7.3784e-06	7.649e-06	416.98	137.56	119.79	41.261	7.4405e-06	51.234	204.577	216.274	223.046	122.799	257.743	271.572	122.536	127.177	250.944	285.243	126.754	131.374	131.815	136.382	260.643	135.590	-8191	255	
637.403	1	1	0	0	0.13266	0.079533	0.099081	0.18353	0.22514	0.17406	0.11436	0.23865	0.14058	0.14454	0.19662	0.2667	0.14074	0.34846	0.032454	0.19045	-0.8875	-0.95833	-1.525	-0.97917	-1.0271	-1.5729	-0.87708	-1.6125	-1.1833	-0.63958	-1.8333	-1.0792	-1	-1.6917	-0.83333	-1.5604	425.166	408.531	185.979	433.197	184.098	255.346	427.653	389.594	275.442	195.851	367.667	437.635	446.788	456.888	135.911	464.386	0.00048103	0.00058353	0.00013774	1348.4	6.3156e-06	5.2118e-06	1343.2	356.63	6.6696e-06	4.8358e-06	409.56	134.35	117.25	40.194	4.0146e-06	49.855	0.00063783	0.0007073	0.00018537	1372	7.7797e-06	7.7201e-06	1361	363.7	7.6796e-06	7.5697e-06	416.89	137.61	119.97	41.32	7.4461e-06	51.261	208.032	193.255	204.436	122.200	264.988	265.737	122.461	127.458	266.490	262.823	126.706	131.175	132.092	136.192	268.808	135.433	-8191	255	
637.523	1	1	0	0	0.18618	0.10209	0.1051	0.10295	0.28646	0.21101	0.20022	0.075423	0.24223	0.028813	0.18768	0.24194	0.10612	0.21287	0.26687	0.1272	-1.0292	-0.87292	-1.7042	-1.2667	-1.0187	-1.6021	-1.2271	-1.5562	-1.2563	-0.9125	-1.7938	-1.0917	-1.0667	-1.85	-0.68958	-1.4125	250.863	211.426	316.433	183.939	127.226	389.065	182.247	424.677	314.879	465.127	412.853	393.678	143.434	466.082	146.930	417.446	0.00046654	0.00079541	0.00012103	1348.6	4.9869e-06	6.3437e-06	1340.9	356.13	5.0521e-06	4.5184e-06	410.57	133.87	116.71	40.101	4.0569e-06	49.819	0.00064256	0.00071495	0.0001853	1371	7.6222e-06	7.6835e-06	1360.9	363.6	7.55e-06	7.4794e-06	417.45	137.56	119.94	41.283	7.6085e-06	51.337	207.444	185.809	196.941	122.651	290.688	258.447	122.538	127.243	257.393	279.138	126.595	131.298	131.873	136.145	257.283	135.576	-8191	255	
637.619	1	1	0	0	0.19855	0.17883	0.20652	0.11962	0.29468	0.20218	0.29372	0.35052	0.12654	0.13661	0.26204	0.30234	0.1904	0.17595	0.094605	0.32791	-1.1271	-0.62292	-1.5875	-1.0312	-0.8	-1.8958	-1.0479	-1.4292	-1.3979	-0.5625	-1.7833	-1.4083	-0.81875	-1.9979	-0.97292	-0.9875	412.538	241.999	271.370	459.620	282.634	226.691	418.258	341.741	441.979	450.979	131.194	465.547	386.855	406.913	411.542	169.926	0.00048135	0.00041238	5.4175e-05	1338.5	3.9468e-06	3.1587e-06	1342.5	356.88	4.5386e-06	4.8794e-06	410.11	134.05	116.84	40.317	2.9868e-06	50.193	0.00065169	0.00069878	0.00018748	1370.2	7.6968e-06	7.6656e-06	1361.8	363.65	7.6946e-06	7.6106e-06	417.44	137.6	120	41.426	7.5569e-06	51.426	207.053	201.144	237.143	122.158	260.779	287.117	122.616	127.473	255.681	271.063	126.779	131.176	131.875	136.160	249.756	135.379	-8191	255	
637.716	1	1	0	0	0.076423	0.25734	0.071955	0.32882	0.45106	0.15016	0.44645	0.1034	0.12227	0.14936	0.31227	0.34219	0.14588	0.14878	0.1868	0.28866	-1.2083	-0.58958	-1.4917	-1.2958	-0.83958	-1.6104	-0.98333	-1.2792	-1.7021	-0.83542	-1.5979	-1.5083	-0.61875	-1.7771	-1.0979	-1.0812	374.850	175.860	234.284	133.724	337.171	220.926	412.375	453.976	285.487	304.369	362.184	447.135	255.921	372.210	465.670	452.793	0.00045544	0.00047077	0.00013407	1351	7.1052e-06	5.343e-06	1343	356.74	3.1377e-06	5.1049e-06	408.3	134.44	116.84	40.195	5.4243e-06	49.669	0.00064782	0.00069357	0.00019512	1375.7	7.6465e-06	7.4551e-06	1363.5	364.15	7.5998e-06	7.6186e-06	417.06	137.72	119.65	41.392	7.7231e-06	51.32	206.235	167.308	190.458	122.833	264.053	252.572	122.425	127.350	271.472	269.543	126.617	131.233	131.771	136.446	242.953	135.416	-8191	255	
637.836	1	1	0	0	0.17185	0.098752	0.28471	0.20056	0.15441	0.1346	0.1051	0.45785	0.087706	0.17181	0.16134	0.19204	0.26526	0.18987	0.27842	0.051959	-1.325	-0.87292	-1.3646	-1.2708	-0.74792	-1.5583	-1.2104	-0.825	-1.5625	-0.92917	-1.3708	-1.6146	-0.71875	-1.8062	-1.1104	-0.9	121.409	351.943	382.805	155.976	293.835	404.838	435.855	434.603	391.221	290.849	128.142	184.831	437.315	349.171	405.379	407.409	0.00048613	0.00058405	0.00017904	1344.6	3.9057e-06	3.8148e-06	1337.1	358.15	5.3935e-06	6.7828e-06	408.79	134.17	117.3	40.241	4.921e-06	49.916	0.00064604	0.00069056	0.00019589	1374.5	7.6828e-06	7.5476e-06	1361.3	364.14	7.5081e-06	7.8928e-06	417.52	137.51	119.88	41.367	7.9164e-06	51.353	207.416	204.357	208.191	122.620	248.397	264.109	122.277	127.286	265.954	252.165	126.896	131.430	131.822	136.462	252.243	135.597	-8191	255	
637.931	1	1	0	0	0.15242	0.22071	0.36822	0.19331	0.17956	0.29746	0.1628	0.21479	0.069519	0.036058	0.11292	0.18817	0.36638	0.24802	0.061538	0.091909	-1.3104	-0.8125	-1.1604	-1.6229	-0.78333	-1.6313	-1.5625	-0.87708	-1.6896	-0.96667	-1.3521	-1.8229	-0.70417	-1.4792	-1.5417	-0.82708	182.363	150.460	264.903	178.992	466.643	127.888	397.392	298.276	203.765	169.717	358.482	436.611	354.341	425.721	317.442	443.934	0.00046059	0.00068786	0.00016573	1354.2	4.9166e-06	6.0636e-06	1338.8	356.77	5.6692e-06	4.4812e-06	410.07	133.86	116.88	40.187	4.0954e-06	49.991	0.00063247	0.00070608	0.00019617	1376.4	7.5795e-06	7.5605e-06	1363.5	363.98	7.3818e-06	7.7821e-06	417.86	137.49	119.89	41.346	7.8301e-06	51.373	209.686	178.201	201.969	122.597	244.355	243.670	122.652	127.350	271.844	260.466	126.624	131.358	131.897	136.295	255.161	135.492	-8191	255	
638.027	1	1	0	0	0.13894	0.14694	0.06203	0.23323	0.034579	0.072787	0.2186	0.15352	0.15933	0.12888	0.16965	0.13419	0.30472	0.32136	0.2685	0.06418	-1.2354	-1.0312	-0.80208	-1.7	-0.87917	-1.5125	-1.6646	-0.76042	-1.7167	-1.1917	-1.2875	-1.8354	-1.0542	-1.1458	-1.4937	-0.9125	269.505	457.766	291.703	436.108	116.109	318.962	394.385	425.735	245.551	121.939	267.595	387.276	115.896	377.911	142.887	412.145	0.00049547	0.00043109	0.00017489	1351.9	4.0808e-06	4.9836e-06	1344.6	357.05	6.1118e-06	6.5075e-06	410.27	134.4	116.37	40.289	5.4105e-06	49.967	0.00063656	0.00070846	0.00019494	1372.2	7.7479e-06	7.5942e-06	1362.8	363.87	7.3371e-06	7.9084e-06	417.62	137.55	119.66	41.453	7.6812e-06	51.378	205.809	189.474	193.399	122.701	255.827	268.048	122.370	127.267	255.100	259.087	126.758	131.212	131.814	136.479	261.202	135.488	-8191	255	
638.123	1	1	0	0	0.054045	0.16269	0.012614	0.26729	0.10657	0.2839	0.082738	0.2127	0.39882	0.16644	0.17334	0.13382	0.30701	0.042471	0.21973	0.20018	-1.1437	-1.1521	-0.81042	-1.6375	-0.81042	-1.1417	-1.6021	-0.98333	-1.5417	-1.0125	-1.0333	-1.8583	-1.0229	-1.25	-1.5562	-0.92708	344.776	226.818	402.060	349.372	158.648	367.300	428.651	289.817	185.802	164.657	397.360	368.812	413.023	321.888	193.817	361.851	0.00048369	0.00043418	0.00014126	1358.9	3.9983e-06	6.744e-06	1346.5	357.59	4.7168e-06	5.1516e-06	411.42	134.44	117.47	40.213	4.2803e-06	49.882	0.00063902	0.00072955	0.00019713	1375.3	7.7418e-06	7.8259e-06	1365.3	364.38	7.4775e-06	7.7735e-06	418.41	137.77	120.21	41.371	7.7561e-06	51.414	207.221	204.935	197.921	122.473	253.150	253.986	122.191	127.266	251.780	266.226	126.729	131.140	131.927	136.310	266.908	135.331	-8191	255	
638.219	1	1	0	0	0.11222	0.16452	0.10186	0.27664	0.3806	0.20018	0.038196	0.14378	0.044552	0.30892	0.12074	0.19236	0.19282	0.2194	0.26607	0.13154	-1.2042	-1.2563	-0.78125	-1.7979	-0.75417	-1.0833	-1.9	-0.94375	-1.4729	-1.4229	-0.85625	-1.7229	-1.0125	-1.0938	-1.6938	-0.80625	148.932	441.272	363.632	109.940	250.246	230.488	437.271	307.815	265.082	281.618	166.060	281.646	151.130	468.576	187.823	455.671	0.00047003	0.00039816	0.00014698	1357.1	3.7208e-06	7.3129e-06	1344.7	358.96	6.2345e-06	4.4101e-06	410.45	134.62	116.84	40.343	4.5799e-06	50.025	0.00063838	0.00073077	0.00020728	1378.4	7.9592e-06	8.0474e-06	1365.7	364.83	7.6111e-06	7.9027e-06	419.48	137.94	120.15	41.526	7.7231e-06	51.529	204.291	231.894	206.197	122.879	272.634	252.269	122.329	127.076	272.061	275.691	126.551	131.050	131.817	136.260	258.302	135.297	-8191	255	
638.315	1	1	0	0	0.23023	0.19045	0.031509	0.11644	0.062711	0.06644	0.2642	0.063739	0.2094	0.22413	0.14102	0.072616	0.10204	0.047111	0.37249	0.26646	-0.99375	-1.2979	-0.70625	-1.5875	-0.94583	-0.9375	-1.8521	-0.92083	-1.3312	-1.5208	-0.65	-1.6833	-1.2687	-0.90833	-1.75	-0.93333	310.831	467.156	174.665	406.349	149.584	266.522	418.569	166.145	217.941	384.612	223.055	165.611	292.023	443.436	239.468	449.249	0.00048344	0.00058812	9.0458e-05	1349.2	4.2e-06	4.3298e-06	1350.2	357.96	5.1511e-06	5.2037e-06	412	134.87	117.38	40.328	3.6233e-06	49.946	0.0006459	0.00072529	0.00019897	1378.4	8.1338e-06	8.0606e-06	1369.4	364.9	7.817e-06	8.1522e-06	418.61	138.16	120.2	41.496	7.866e-06	51.453	207.302	190.217	191.394	122.445	290.179	261.548	122.338	127.156	254.484	249.795	126.521	131.297	131.699	136.221	246.991	135.379	-8191	255	
638.436	1	1	0	0	0.075857	0.2059	0.17571	0.20908	0.13172	0.034728	0.13106	0.38594	0.16577	0.25781	0.12052	0.33675	0.087783	0.1666	0.19888	0.15794	-0.97708	-1.5063	-0.76458	-1.5187	-1.2604	-0.8125	-1.8167	-1.0979	-1.0208	-1.625	-0.9	-1.3083	-1.4208	-0.9375	-1.6167	-1.0688	169.151	295.170	186.701	469.006	177.151	172.374	406.639	387.594	346.380	111.307	446.281	458.643	452.348	354.007	457.833	374.353	0.00048739	0.00037236	0.00011416	1352.2	4.5962e-06	5.8635e-06	1350.1	358.12	5.1734e-06	5.0706e-06	410.7	134.26	117.34	40.216	5.1832e-06	49.988	0.00067926	0.00074835	0.00020484	1380.4	8.162e-06	8.4632e-06	1370.9	365.69	8.1292e-06	8.1734e-06	419.4	138.01	120.49	41.575	8.007e-06	51.539	205.312	183.104	202.281	122.833	265.577	278.255	122.407	127.406	258.134	285.147	126.408	131.341	131.694	136.268	238.580	135.438	-8191	255	
638.532	1	1	0	0	0.082278	0.093235	0.084091	0.21996	0.12717	0.25002	0.097915	0.23817	0.041115	0.31632	0.076842	0.34935	0.36221	0.20988	0.11684	0.072107	-0.67917	-1.4396	-0.76875	-1.4208	-1.3708	-0.6125	-1.7521	-1.2104	-0.96042	-1.5792	-0.97708	-1.5125	-1.5667	-0.725	-1.4771	-1.325	167.152	127.179	178.883	188.414	450.503	185.646	113.373	133.258	242.867	149.696	404.681	424.490	444.977	358.396	362.840	365.523	0.0004655	0.0005144	0.00016922	1354.6	3.8385e-06	4.5419e-06	1350.5	360	5.7045e-06	3.1538e-06	411.41	134.92	118.26	40.688	2.8704e-06	50.434	0.00069092	0.00077557	0.00020694	1383.2	8.475e-06	8.3792e-06	1372.2	366.68	8.3017e-06	8.2887e-06	420.15	139.09	121.23	41.864	7.6677e-06	51.978	210.959	173.120	189.419	122.805	267.913	263.200	122.394	127.466	259.868	285.189	126.957	131.402	131.766	136.340	227.772	135.373	-8191	255	
638.628	1	1	0	0	0.30313	0.21419	0.24147	0.22053	0.36625	0.30272	0.40977	0.16811	0.32298	0.17354	0.26238	0.19142	0.14737	0.13433	0.31487	0.14916	-0.40625	-1.7104	-0.79375	-1.3021	-1.4937	-0.77292	-1.625	-1.3417	-0.72083	-1.4979	-0.99583	-1.2812	-1.6333	-0.71875	-1.4917	-1.4125	195.414	147.973	319.965	250.647	256.191	383.349	443.982	261.734	263.856	183.679	445.724	368.354	238.280	330.888	208.735	344.220	0.00049093	0.00031598	0.00011061	1362.5	3.051e-06	3.4986e-06	1358.2	361.32	4.6584e-06	5.0853e-06	413.16	136.38	118.69	40.894	5.5359e-06	50.72	0.00067425	0.00071758	0.00019959	1389.7	8.0606e-06	8.0034e-06	1380.6	368.56	7.8637e-06	7.8423e-06	421.74	139.97	121.8	42.071	7.6469e-06	52.105	207.804	177.434	192.866	122.649	247.281	268.187	122.545	127.357	254.649	270.934	126.839	131.290	131.625	136.389	267.134	135.507	-8191	255	
638.700	1	1	0	0	0.34823	0.07433	0.12776	0.16722	0.23937	0.1509	0.28125	0.11328	0.13644	0.19413	0.19998	0.30294	0.25536	0.12949	0.019002	0.36392	-0.52083	-1.7917	-0.87083	-1.1437	-1.575	-0.72708	-1.7625	-1.6604	-0.70833	-1.5	-1.15	-1.2125	-1.5729	-0.7	-1.5271	-1.4625	150.188	282.357	323.030	385.140	265.040	460.858	407.445	413.525	202.254	320.200	117.474	281.409	145.596	189.190	352.300	299.146	0.00048581	0.0003982	8.6459e-05	1369.7	3.8109e-06	4.8101e-06	1365.1	362.88	5.2834e-06	8.3622e-06	414.89	137.1	119.12	40.857	3.9618e-06	50.731	0.00067354	0.00070328	0.00019918	1391.6	7.9307e-06	8.087e-06	1382.3	369.48	8.0231e-06	7.7669e-06	422.73	140.3	121.93	42.043	8.0114e-06	52.164	207.332	211.556	237.142	122.906	273.330	273.640	122.745	127.413	278.050	268.508	126.845	131.430	132.030	136.708	265.880	135.550	-8191	255	
638.796	1	1	0	0	0.38715	0.27578	0.13092	0.13206	0.069459	0.18986	0.2218	0.39277	0.18051	0.21746	0.10489	0.27075	0.11583	0.12358	0.022672	0.10635	-0.32083	-1.6583	-0.99583	-0.99375	-1.6854	-0.85833	-1.4688	-1.5333	-0.82708	-1.4937	-1.3917	-1.0312	-1.7479	-0.94583	-1.2313	-1.6729	260.030	235.744	146.970	211.195	129.334	305.938	340.926	390.701	408.997	315.946	433.680	423.079	461.430	237.764	268.909	109.690	0.00048887	0.0005738	0.00015501	1363.7	5.7023e-06	3.4274e-06	1359.3	362.58	3.8469e-06	3.3521e-06	415.1	136.18	119.26	40.751	4.2876e-06	50.595	0.00069201	0.00073131	0.00021027	1392.7	8.4841e-06	8.3763e-06	1381.6	369.86	8.2931e-06	8.1833e-06	422.4	139.79	121.95	41.959	8.2308e-06	52.006	206.970	201.957	216.952	122.827	270.438	279.358	122.705	127.296	255.979	278.346	126.876	131.703	131.944	136.295	274.418	135.755	-8191	255	
638.915	1	1	0	0	0.20645	0.16334	0.13585	0.22844	0.19083	0.062102	0.019223	0.20752	0.10981	0.26227	0.13652	0.1534	0.17829	0.2901	0.32244	0.2399	-0.48125	-1.4417	-1.1479	-0.925	-1.5729	-0.85625	-1.3083	-1.7396	-0.7125	-1.5708	-1.4146	-0.74792	-1.5979	-0.80625	-1.0604	-1.6208	115.048	206.255	292.704	403.152	159.217	360.426	431.074	438.325	193.304	349.179	116.617	411.076	433.308	395.479	264.439	195.198	0.00050207	0.00069854	0.00020684	1365.6	3.4692e-06	3.0652e-06	1367.9	362.09	5.5906e-06	3.1365e-06	415.31	136.73	118.96	40.733	3.9633e-06	50.752	0.00067623	0.00074555	0.00022101	1393.7	8.0625e-06	8.25e-06	1383.9	369.36	8.2536e-06	8.1225e-06	422.91	139.74	121.82	41.965	8.34e-06	51.969	206.992	197.550	200.733	123.388	240.333	256.700	122.960	127.554	257.009	267.027	126.904	131.691	132.385	136.659	236.995	135.660	-8191	255	
639.011	1	1	0	0	0.36961	0.12265	0.296	0.057778	0.034758	0.054716	0.38168	0.41857	0.21939	0.12917	0.057434	0.26836	0.17367	0.16558	0.073419	0.11817	-0.43333	-1.3354	-1.3312	-0.90833	-1.6604	-0.99583	-1.2062	-1.7792	-0.59375	-1.2896	-1.6021	-0.78542	-1.7875	-1.3188	-0.95833	-1.8042	397.385	224.426	343.168	335.445	397.644	144.716	427.984	430.698	436.404	425.220	337.024	456.093	422.673	428.368	379.685	428.643	0.00047644	0.00028644	0.00016578	1373.1	4.802e-06	4.2362e-06	1364.2	361.63	5.7235e-06	4.9994e-06	414.56	136.81	119.27	40.797	5.6213e-06	50.411	0.00066942	0.00073879	0.0002111	1395	8.0525e-06	8.334e-06	1383.3	369.56	7.9839e-06	8.1255e-06	422.6	140.12	121.9	42.009	8.272e-06	51.982	206.672	198.385	202.219	123.089	265.878	258.397	122.862	127.799	252.821	242.290	127.152	131.944	132.445	136.768	253.147	135.902	-8191	255	
639.107	1	1	0	0	0.14586	0.18864	0.16642	0.13723	0.11483	0.15749	0.071238	0.31331	0.31081	0.25711	0.13933	0.24318	0.3487	0.024803	0.15003	0.22899	-0.35208	-1.0979	-1.4083	-0.8375	-1.6812	-1.4542	-0.91458	-1.9229	-0.8375	-1.1479	-1.7375	-0.85833	-1.5833	-1.2396	-0.84792	-1.7458	331.208	414.734	328.654	207.292	243.513	465.798	418.103	444.891	162.391	409.224	117.454	381.284	198.595	177.585	310.842	138.895	0.00045022	0.0005999	0.00019837	1376.9	5.2398e-06	3.2134e-06	1367.5	362.79	5.6793e-06	6.9157e-06	414.97	136.54	119.45	40.669	5.4956e-06	50.531	0.00066556	0.00075767	0.00021216	1398.3	7.9485e-06	8.37e-06	1384.5	369.99	8.079e-06	8.4843e-06	423.13	140.01	122.17	41.963	8.3041e-06	52.109	206.379	201.188	236.491	123.279	256.241	261.245	122.793	127.365	260.485	274.927	127.182	131.537	132.303	136.604	244.473	135.709	-8191	255	
639.203	1	1	0	0	0.20762	0.33722	0.082124	0.12011	0.34287	0.20136	0.36502	0.12694	0.29178	0.11623	0.041505	0.18741	0.10915	0.27426	0.13544	0.073531	-0.58333	-1.1146	-1.6271	-0.76667	-1.4125	-1.4	-1.1	-1.7563	-0.96667	-1.1229	-1.5917	-0.95208	-1.5021	-1.5125	-0.62917	-1.6333	112.356	127.607	463.044	115.564	375.568	350.855	112.116	369.158	242.550	428.413	319.362	450.758	462.014	420.848	421.898	257.368	0.00048178	0.00048582	0.00015871	1367.3	2.8627e-06	6.0441e-06	1368.5	362.64	5.6235e-06	4.4514e-06	413.81	136.54	118.61	40.728	5.7349e-06	50.733	0.00067843	0.00076896	0.00021321	1393.8	8.1358e-06	8.5743e-06	1385.2	369.68	8.094e-06	8.6459e-06	422.71	139.94	121.85	42.043	8.3614e-06	52.082	207.343	209.307	197.114	122.771	252.851	261.868	122.597	127.593	252.285	265.698	126.982	131.394	131.876	136.578	275.139	135.964	-8191	255	
639.299	1	1	0	0	0.23415	0.19759	0.2625	0.15484	0.21806	0.34541	0.24797	0.39537	0.19233	0.25911	0.29845	0.13274	0.077346	0.19962	0.24185	0.13791	-0.53125	-0.98125	-1.6583	-0.81458	-1.5312	-1.5354	-1.0875	-1.8021	-1.1917	-0.86667	-1.9625	-0.84375	-1.5271	-1.5417	-0.87292	-1.6917	238.242	273.380	134.581	297.198	452.515	353.012	118.330	453.233	373.426	246.650	439.632	425.106	207.838	459.641	448.187	371.288	0.00049844	0.00039499	0.00015339	1373.3	4.0979e-06	6.411e-06	1365.3	361.72	6.4482e-06	8.0977e-06	415.24	136.21	119.05	40.808	5.3819e-06	50.641	0.00067845	0.0007712	0.00020658	1395.5	8.1597e-06	8.2936e-06	1384.5	369.32	8.0598e-06	8.1096e-06	423.08	140.1	121.93	42.055	7.793e-06	52.133	207.145	218.325	217.728	122.820	262.021	278.644	122.477	127.519	258.259	258.306	126.768	131.393	131.765	136.272	276.769	135.568	-8191	255	
639.396	1	1	0	0	0.038138	0.10988	0.10321	0.18161	0.25837	0.080502	0.061142	0.26325	0.20098	0.19016	0.14167	0.043198	0.14672	0.19149	0.20542	0.24658	-0.91667	-0.96042	-1.75	-0.9	-1.2271	-1.5812	-0.97292	-1.6187	-1.3375	-0.79792	-1.7354	-1.0542	-1.2417	-1.8375	-0.74583	-1.6271	130.725	422.077	453.019	179.589	465.277	412.166	195.627	421.776	408.343	363.293	395.947	228.442	437.939	334.104	237.163	344.761	0.00045633	0.00038068	0.00014913	1364	4.835e-06	6.965e-06	1364.1	361.93	5.8728e-06	5.3351e-06	415.27	137.06	118.81	40.988	6.4997e-06	50.702	0.0006651	0.00075657	0.00019749	1389	8.1264e-06	8.1003e-06	1383.9	369.64	7.9647e-06	8.1843e-06	422.65	140.09	122.15	42.126	7.7823e-06	52.081	207.943	186.593	215.865	122.771	263.391	277.884	122.549	127.454	266.738	277.954	127.226	131.524	131.857	136.578	265.018	135.832	-8191	255	
639.516	1	1	0	0	0.10838	0.17822	0.25203	0.039465	0.46625	0.15641	0.32133	0.26793	0.06784	0.094747	0.13066	0.096559	0.098895	0.20708	0.17141	0.014219	-1.075	-0.80833	-1.8104	-1.2854	-1.0771	-1.7208	-0.90625	-1.6187	-1.4271	-0.77292	-1.6521	-1.2375	-1.0458	-1.7417	-0.82917	-1.3354	145.692	335.347	400.478	250.607	393.824	140.366	392.687	468.207	178.533	434.808	339.385	130.291	453.836	433.278	350.425	407.450	0.00052753	0.00062329	0.0001192	1371.3	5.3243e-06	3.8491e-06	1358.9	364.29	4.4629e-06	4.5904e-06	415.01	137.33	118.87	40.858	5.7984e-06	50.795	0.00067782	0.00074156	0.00019546	1395.3	8.2054e-06	7.9016e-06	1381.8	370.07	7.9512e-06	8.2705e-06	423.31	140.29	121.97	42.067	7.832e-06	52.239	207.009	206.865	196.274	123.042	264.673	268.835	122.369	127.681	286.089	254.608	127.063	131.461	132.067	136.348	264.347	135.717	-8191	255	
639.612	1	1	0	0	0.14522	0.087516	0.026238	0.041554	0.077889	0.2408	0.19149	0.20987	0.13775	0.080635	0.43004	0.3391	0.26612	0.16836	0.28191	0.26754	-1.125	-0.67708	-1.6417	-1.2375	-0.9625	-1.7604	-1.1042	-1.4792	-1.5604	-0.73333	-1.7958	-1.3062	-0.79792	-1.8333	-0.97917	-1.225	359.594	156.320	455.555	252.831	460.550	342.210	382.849	318.238	188.340	206.775	371.086	403.653	448.669	364.111	156.723	114.380	0.00048016	0.00050652	0.00010646	1360.4	4.682e-06	6.1683e-06	1363.1	362.7	4.7684e-06	6.2966e-06	414.91	136.76	119.01	40.808	6.1329e-06	50.633	0.0006671	0.00072067	0.00019459	1393.1	8.1157e-06	8.0791e-06	1383	369.62	8.0038e-06	8.1651e-06	422.71	139.97	121.92	42.087	7.9126e-06	52.103	209.468	179.821	214.190	122.697	257.431	242.062	122.484	127.356	273.585	294.203	127.069	131.488	132.078	136.584	279.297	135.915	-8191	255	
639.708	1	1	0	0	0.070485	0.29063	0.086812	0.038594	0.17706	0.21049	0.098997	0.28904	0.16694	0.17643	0.34922	0.051726	0.23537	0.37326	0.30273	0.44213	-1.4667	-0.88333	-1.6187	-1.3667	-0.78958	-1.6771	-1.1187	-1.0542	-1.65	-0.71875	-1.6688	-1.6125	-0.9875	-1.6208	-0.93125	-1.3	178.261	342.277	207.870	441.279	407.502	247.376	403.787	431.149	276.123	357.299	464.330	255.901	344.151	426.628	112.595	421.183	0.00046373	0.00063401	0.00018456	1368.7	5.1484e-06	5.9715e-06	1361.9	363.36	5.9058e-06	5.6822e-06	414.8	137.06	118.98	40.827	4.3802e-06	50.456	0.00067832	0.00074555	0.00020108	1394.8	8.4769e-06	8.095e-06	1381.4	369.83	8.0962e-06	8.1658e-06	422.91	140	122.01	42.076	8.1622e-06	52.009	205.960	211.070	200.091	122.923	257.323	275.253	122.735	127.667	272.355	274.316	126.919	131.166	131.835	136.549	246.845	135.841	-8191	255	
639.805	1	1	0	0	0.11607	0.1804	0.231	0.06124	0.065905	0.081017	0.24111	0.32077	0.16135	0.065143	0.11198	0.1899	0.25586	0.26131	0.16023	0.10371	-1.4438	-0.925	-1.4083	-1.3646	-0.67708	-1.6958	-1.3208	-1.0271	-1.6354	-0.82083	-1.4458	-1.6208	-0.75417	-1.8083	-1.2042	-0.8875	120.473	395.014	299.525	164.491	274.249	243.122	406.735	442.748	363.658	168.778	288.340	419.954	428.288	440.210	212.628	436.144	0.00049793	0.0006247	0.00022894	1374.9	6.3181e-06	4.4801e-06	1364.5	363.23	4.9598e-06	5.8283e-06	413	136.41	119.34	41.012	3.4281e-06	50.554	0.00069648	0.00076417	0.00021181	1399.1	8.6947e-06	8.1208e-06	1386.3	370.09	8.253e-06	8.4245e-06	423	139.98	122.12	42.13	8.5144e-06	52.162	206.314	202.001	210.891	122.961	259.369	281.812	122.584	127.630	286.662	292.042	127.078	131.102	131.778	136.398	245.441	135.610	-8191	255	
639.924	1	1	0	0	0.096099	0.094408	0.1376	0.15888	0.043004	0.086453	0.12916	0.41108	0.20648	0.24218	0.40193	0.41744	0.29923	0.029754	0.22795	0.017803	-1.4625	-0.775	-0.96458	-1.5146	-0.61667	-1.4667	-1.5292	-0.7625	-1.5667	-0.96875	-1.3792	-1.9	-0.7625	-1.6375	-1.3854	-0.81458	362.906	110.911	426.967	460.762	125.889	289.239	125.618	399.646	327.506	457.917	462.023	434.819	447.754	429.980	319.340	343.641	0.00048972	0.00056483	0.00017772	1377.9	3.7106e-06	5.4389e-06	1372.7	362.33	4.7369e-06	5.0337e-06	415.56	136.57	119.73	40.881	5.1237e-06	50.699	0.00068685	0.00076539	0.00021749	1399.3	8.438e-06	8.167e-06	1387.3	369.64	8.146e-06	8.451e-06	423.25	140.07	122.22	42.099	8.5924e-06	52.17	205.756	196.971	228.945	122.776	272.328	304.514	122.663	127.642	262.617	256.182	127.112	131.367	132.059	136.109	245.809	135.796	-8191	255	
639.995	1	1	0	0	0.47687	0.091949	0.32547	0.084122	0.2308	0.042215	0.074382	0.13864	0.055452	0.34032	0.05196	0.23903	0.48551	0.15449	0.0824	0.28276	-0.98125	-0.96667	-1.025	-1.5771	-0.82292	-1.3021	-1.5146	-0.89167	-1.6667	-0.98958	-1.0646	-1.8875	-0.95	-1.3125	-1.4292	-0.8375	110.768	140.151	245.702	222.898	175.839	186.426	432.653	438.284	323.331	375.972	424.898	402.798	398.707	389.155	300.274	447.884	0.00048375	0.00078704	0.00011323	1370.5	2.8704e-06	7.4104e-06	1367.4	362.82	5.131e-06	4.4483e-06	415.21	136.96	118.96	40.511	6.0424e-06	50.57	0.00067341	0.00076866	0.00021784	1397.1	8.3029e-06	8.3634e-06	1385.7	369.98	8.0876e-06	8.4797e-06	423.22	140.19	121.96	42.017	8.424e-06	52.068	207.493	189.830	189.785	122.801	229.098	241.224	122.648	127.454	270.228	269.557	126.947	131.425	131.620	136.313	280.591	135.348	-8191	255	
640.116	1	1	0	0	0.17594	0.099112	0.11422	0.22762	0.23619	0.11525	0.42219	0.24015	0.036623	0.11831	0.36719	0.22119	0.10219	0.25009	0.11878	0.36978	-1.4062	-1.175	-0.95417	-1.7229	-0.83542	-1.4125	-1.7417	-0.94583	-1.5208	-1.1646	-0.875	-1.7146	-0.91667	-1.1917	-1.3438	-0.86667	243.921	353.107	376.439	165.678	205.638	453.964	447.643	406.911	263.485	264.988	125.721	428.923	456.622	449.250	410.642	418.486	0.00048556	0.00058169	0.00010964	1368.2	6.75e-06	4.7604e-06	1364.6	363.83	4.3528e-06	4.3157e-06	414.86	136.65	119	40.947	4.8088e-06	50.743	0.00067972	0.00074808	0.00021753	1399.5	8.3707e-06	8.4761e-06	1387.7	370.38	8.039e-06	8.5214e-06	423.82	140.01	122.19	42.088	8.531e-06	52.128	207.104	188.553	195.418	122.749	256.467	278.730	122.349	127.279	270.863	254.354	126.737	131.465	131.772	136.414	239.062	135.581	-8191	255	
640.212	1	1	0	0	0.34509	0.24051	0.15884	0.30891	0.10515	0.24544	0.21678	0.21745	0.18045	0.13946	0.11885	0.35761	0.183	0.16758	0.2115	0.057452	-1.0083	-1.3625	-0.6375	-1.5583	-1.0167	-1.0167	-1.9438	-0.82292	-1.2896	-1.1396	-0.725	-1.7042	-1.1	-0.9625	-1.6833	-0.93958	420.166	136.826	167.758	340.494	251.408	292.700	406.671	385.863	396.590	331.486	390.379	409.898	295.526	348.984	225.649	130.679	0.00052003	0.00058559	0.00017005	1358.4	5.756e-06	2.8184e-06	1367.5	363.89	5.0043e-06	4.6154e-06	413.93	136.34	119.58	40.856	3.42e-06	50.767	0.00066721	0.00078698	0.00022341	1394.5	8.5009e-06	8.5739e-06	1387.2	370.91	8.305e-06	8.6677e-06	423.57	140.07	122.3	42.146	8.5156e-06	52.181	207.831	201.621	226.965	122.507	270.991	276.177	121.869	126.919	280.702	267.427	126.448	131.124	131.694	136.176	229.532	135.394	-8191	255	
640.308	1	1	0	0	0.23425	0.076608	0.13106	0.18256	0.25724	0.19132	0.040152	0.38631	0.2304	0.043918	0.077248	0.25635	0.23697	0.23471	0.09602	0.079536	-0.9	-1.3458	-0.49375	-1.6771	-1.05	-1.0667	-1.9396	-0.99375	-1.3563	-1.5854	-0.85625	-1.6479	-1.3042	-0.80208	-1.7104	-0.95625	438.311	322.878	264.778	414.102	228.913	364.069	288.091	423.508	137.165	376.159	134.643	174.361	112.539	434.865	173.126	375.025	0.00047219	0.00046742	8.7605e-05	1378.6	5.7636e-06	7.023e-06	1366.8	363.69	4.6466e-06	5.2236e-06	415.21	136.96	119.01	40.871	5.4651e-06	50.669	0.00068576	0.00079696	0.00021911	1400.7	8.485e-06	8.6242e-06	1388.1	370.5	8.2741e-06	8.8145e-06	423.86	140.19	122.12	42.22	8.3309e-06	52.15	204.565	197.412	216.438	122.571	269.578	269.398	122.495	127.521	257.165	270.826	126.770	131.175	131.809	136.378	288.046	135.388	-8191	255	
640.404	1	1	0	0	0.15269	0.24906	0.11585	0.20092	0.076117	0.20311	0.23295	0.10951	0.14374	0.15928	0.21567	0.24084	0.33331	0.19103	0.15039	0.27768	-0.90208	-1.4688	-0.64167	-1.525	-1.2437	-0.83958	-1.9688	-1.0708	-1.0208	-1.5729	-1.0438	-1.5	-1.375	-0.8625	-1.7938	-1.0542	219.027	272.268	181.383	422.052	455.959	173.792	410.147	148.446	279.629	455.685	156.412	417.653	466.373	430.049	247.312	222.493	0.00050127	0.00054607	0.00014815	1378.2	4.8873e-06	7.4027e-06	1369.9	362.66	5.7335e-06	8.5521e-06	416.44	137.1	118.71	40.953	4.0481e-06	50.316	0.00069602	0.00077915	0.00021432	1401.5	8.3969e-06	8.6705e-06	1388.4	370.25	8.4056e-06	8.753e-06	423.65	140.05	122.12	42.2	8.2113e-06	52.113	206.664	215.001	180.614	122.915	250.824	263.472	122.639	127.352	249.089	242.915	126.937	131.024	131.642	136.164	261.177	135.411	-8191	255	
640.525	1	1	0	0	0.090554	0.14593	0.10495	0.12019	0.096464	0.34756	0.2412	0.34713	0.11521	0.29561	0.27667	0.16868	0.17771	0.19516	0.20653	0.095981	-0.58333	-1.4521	-0.6125	-1.2812	-1.3229	-0.67708	-1.9708	-1.2042	-1.0646	-1.6708	-0.89167	-1.2646	-1.5812	-0.76667	-1.4312	-0.98958	443.307	109.743	161.251	373.987	152.022	394.823	397.909	404.971	301.206	340.276	381.836	374.399	170.451	397.410	110.649	442.755	0.00049062	0.00062462	0.00013423	1370.8	2.8738e-06	3.979e-06	1366.8	363.12	3.4339e-06	4.1882e-06	414.32	136.73	119.26	41.108	5.2206e-06	50.53	0.00069594	0.00076565	0.00021594	1398	8.4964e-06	8.6334e-06	1388.1	370.46	8.4466e-06	8.6238e-06	423.14	140.33	122.31	42.2	8.306e-06	52.12	201.874	197.264	185.705	122.363	261.351	278.370	122.307	127.160	265.741	238.688	126.831	131.295	131.796	136.231	259.956	135.287	-8191	255	
640.597	1	1	0	0	0.13875	0.20587	0.1103	0.1014	0.27832	0.093582	0.25572	0.062109	0.11119	0.16414	0.22183	0.18965	0.29785	0.32358	0.11647	0.14667	-0.42917	-1.45	-0.80625	-1.225	-1.4438	-0.77708	-1.7896	-1.3	-0.61875	-1.5042	-1.0333	-1.2812	-1.5729	-0.85	-1.5083	-1.3563	371.925	378.388	206.147	385.464	320.878	419.167	369.426	112.469	383.997	458.071	399.236	450.492	119.561	376.168	269.204	123.924	0.00047445	0.00044873	0.00019249	1369.4	4.31e-06	6.0922e-06	1367.2	364.63	4.7599e-06	7.8381e-06	417.27	136.44	118.93	40.816	5.9432e-06	50.744	0.00070613	0.00078716	0.00022012	1399.3	8.5641e-06	8.7405e-06	1387.3	370.1	8.2925e-06	8.3545e-06	423.53	140.04	122.16	42.028	8.0438e-06	52.112	207.771	194.648	209.927	122.367	268.872	267.707	122.367	127.185	269.817	244.042	126.495	131.277	131.923	136.437	248.766	135.381	-8191	255	
640.693	1	1	0	0	0.20622	0.10275	0.16587	0.28162	0.22695	0.26779	0.15096	0.3574	0.049139	0.16902	0.098076	0.1599	0.32622	0.16733	0.26737	0.29356	-0.48958	-1.6917	-0.77917	-1.0771	-1.475	-0.52708	-1.7667	-1.3708	-0.54375	-1.7417	-1.1542	-0.91042	-1.6542	-0.79375	-1.2042	-1.5396	335.891	162.989	345.694	387.204	154.206	362.996	316.397	445.207	232.119	400.247	422.016	381.945	206.175	460.145	228.498	418.296	0.00046869	0.00051154	0.00017736	1368.8	4.8902e-06	6.6166e-06	1368.2	364.98	6.0092e-06	4.2078e-06	413.92	137.2	118.95	40.764	5.3539e-06	50.781	0.00070605	0.00076801	0.00021719	1400.6	8.799e-06	8.5951e-06	1386.3	370.5	8.6463e-06	8.2999e-06	423.19	140.19	122.04	42.002	8.4479e-06	52.137	202.582	180.819	231.611	122.469	284.777	266.788	122.395	127.240	248.838	258.072	126.772	131.134	131.694	136.091	274.190	135.506	-8191	255	
640.789	1	1	0	0	0.098711	0.057825	0.15538	0.17086	0.25165	0.069905	0.23411	0.063804	0.2245	0.15879	0.21639	0.23653	0.29268	0.13204	0.21555	0.065427	-0.3625	-1.7146	-1.0667	-0.95208	-1.6292	-0.87917	-1.4708	-1.6396	-0.70625	-1.4583	-1.1083	-1.0646	-1.6354	-1.1167	-1.3354	-1.6396	289.481	361.989	410.756	141.335	244.972	149.246	450.379	460.443	453.186	118.387	126.545	367.493	432.008	218.083	264.693	140.413	0.00050522	0.00046034	0.00017911	1379.5	3.6298e-06	3.4998e-06	1366.9	362.05	5.3304e-06	4.9933e-06	416.4	136.28	118.69	40.747	5.3716e-06	50.493	0.00069945	0.00077105	0.00021518	1402.6	8.6444e-06	8.4678e-06	1387	369.94	8.5518e-06	8.2358e-06	423.77	140.11	121.99	42.086	8.4124e-06	52.193	208.924	185.865	213.564	122.697	286.655	281.262	122.289	127.150	263.557	294.479	126.655	131.358	131.621	135.982	268.935	135.379	-8191	255	
640.885	1	1	0	0	0.11389	0.35691	0.14462	0.19121	0.15662	0.16739	0.2314	0.13448	0.09524	0.15683	0.17031	0.2141	0.054427	0.30537	0.24985	0.14479	-0.3125	-1.4771	-1.3479	-0.75625	-1.6187	-0.92708	-1.3208	-1.6646	-0.8125	-1.4146	-1.5229	-0.92292	-1.7229	-1.1854	-1.1104	-1.6375	122.210	242.399	134.674	399.519	344.184	352.144	193.389	458.005	186.168	355.729	416.319	453.824	451.649	169.734	281.309	377.715	0.00047693	0.00033689	0.00020128	1373	4.9249e-06	4.5507e-06	1368	363.05	4.7888e-06	3.8575e-06	415.89	136.67	119.34	40.761	6.2051e-06	50.805	0.00069773	0.00075505	0.00021958	1399.8	8.7543e-06	8.6308e-06	1389.3	370.34	8.6738e-06	8.4817e-06	423.6	140.07	122.34	42.039	8.6538e-06	52.207	205.484	210.079	221.771	122.987	266.736	297.221	122.473	127.210	273.509	241.897	126.670	131.163	131.601	135.931	273.645	135.342	-8191	255	
641.004	1	1	0	0	0.26639	0.19337	0.018678	0.22235	0.087958	0.17792	0.15162	0.25385	0.30582	0.044215	0.11532	0.21868	0.21896	0.43701	0.19044	0.21263	-0.36875	-1.4083	-1.3583	-0.89583	-1.6917	-0.97708	-1.225	-1.8104	-0.88958	-1.4188	-1.6667	-0.85625	-1.6604	-1.2542	-0.81458	-1.7062	138.192	147.439	192.312	175.319	225.366	111.691	392.204	414.633	243.075	259.585	300.197	250.906	117.280	443.177	148.003	419.283	0.00048573	0.00064766	0.00015933	1367.4	6.2697e-06	7.2753e-06	1366.4	361.4	3.8046e-06	5.0413e-06	416.33	136.53	118.97	40.935	6.7158e-06	50.594	0.00070059	0.00076843	0.00022487	1399.6	8.3522e-06	8.5848e-06	1387.6	369.62	8.5176e-06	8.4589e-06	423.67	139.99	121.81	42.072	8.6e-06	52.059	204.431	186.912	206.530	122.505	276.551	249.040	122.613	127.200	283.517	261.242	126.685	131.296	131.759	136.252	269.387	135.230	-8191	255	
641.100	1	1	0	0	0.17551	0.16022	0.18892	0.18834	0.35734	0.29919	0.34689	0.25994	0.10594	0.12725	0.38584	0.30249	0.16997	0.29436	0.052519	0.22058	-0.61667	-1.4188	-1.6667	-0.71458	-1.6792	-1.3354	-0.96042	-1.8729	-0.84583	-1.3542	-1.6896	-0.77917	-1.7687	-1.5187	-0.82083	-1.8979	427.044	385.250	174.268	295.733	241.839	127.969	430.718	425.707	419.350	345.030	431.051	430.815	170.657	417.784	286.547	393.403	0.00046448	0.00042525	0.00021765	1368.8	5.5329e-06	6.3866e-06	1366.4	362.21	4.7545e-06	4.2382e-06	415.78	136.63	118.86	40.907	3.2562e-06	50.493	0.00069096	0.00075579	0.00022336	1400.4	8.1756e-06	8.5653e-06	1387.5	369.91	8.1267e-06	8.5881e-06	423.63	140.11	122.01	42.08	8.6755e-06	52.121	205.873	183.665	189.149	122.519	266.117	276.483	122.275	127.099	254.810	250.011	126.386	131.083	131.595	136.129	263.509	135.287	-8191	255	
641.196	1	1	0	0	0.035622	0.047047	0.29579	0.19304	0.059704	0.33694	0.32883	0.22431	0.34984	0.069605	0.32091	0.15918	0.24006	0.12233	0.14778	0.35505	-0.625	-1.1396	-1.6812	-0.79583	-1.3875	-1.3792	-1.0521	-1.8604	-1.0458	-1.1583	-1.9562	-0.96875	-1.6437	-1.4458	-0.89583	-1.8042	328.100	420.471	344.734	333.946	314.318	391.224	374.001	443.149	153.639	442.432	369.627	436.172	381.302	452.834	268.105	160.850	0.00045761	0.0007535	0.00014767	1371.5	4.1497e-06	4.6145e-06	1360.2	362.02	5.1034e-06	3.7141e-06	413.67	136.27	118.84	40.71	4.2258e-06	50.557	0.00068271	0.00079455	0.00021217	1399.9	8.2728e-06	8.6374e-06	1384.9	369.49	8.2952e-06	8.755e-06	422.9	139.92	121.75	41.97	8.6437e-06	52.036	205.663	206.967	181.589	122.257	251.635	280.508	122.398	127.244	270.691	259.612	126.648	131.116	131.790	136.337	260.635	135.431	-8191	255	
641.292	1	1	0	0	0.090803	0.18131	0.064572	0.27224	0.15997	0.31954	0.24726	0.23853	0.12953	0.32818	0.13468	0.14412	0.10766	0.093163	0.040849	0.22287	-0.75625	-1.1125	-1.4833	-0.82083	-1.3563	-1.525	-1.0583	-1.6479	-1.2083	-0.99583	-1.8333	-0.94583	-1.2104	-1.4167	-0.71667	-1.6458	154.377	120.078	150.807	419.960	195.140	293.820	379.636	116.335	290.925	209.865	408.049	338.541	435.174	169.226	322.129	436.201	0.00047213	0.00026973	0.00011135	1373.2	6.0992e-06	4.2459e-06	1366.8	362.72	3.3416e-06	6.1161e-06	415.16	136.8	118.83	40.884	4.5134e-06	50.563	0.00068944	0.00079535	0.00022535	1404	8.4128e-06	8.8347e-06	1385.4	370.09	8.457e-06	8.981e-06	423.29	139.72	121.92	42.007	8.7803e-06	52.063	208.667	186.495	233.594	121.961	281.249	227.093	122.345	127.033	268.110	248.553	126.432	131.135	131.661	136.094	274.447	135.251	-8191	255	
641.388	1	1	0	0	0.12873	0.17084	0.085807	0.19267	0.14215	0.25742	0.55563	0.24307	0.11765	0.012214	0.10652	0.14293	0.17742	0.036582	0.20203	0.20879	-0.91875	-0.99583	-1.6917	-0.85833	-1.3312	-1.7313	-0.91042	-1.5104	-1.3813	-0.76458	-1.9146	-1.1604	-1.075	-1.7437	-0.62917	-1.5063	367.582	185.240	332.009	179.765	260.531	111.288	411.980	444.597	166.396	350.316	422.674	173.803	386.014	450.959	392.151	439.653	0.00049087	0.00064472	0.00012875	1371.8	4.5312e-06	5.4465e-06	1368.8	363.96	2.9147e-06	6.5937e-06	415.59	136.38	118.48	40.7	5.4057e-06	50.578	0.00071123	0.00081534	0.00022051	1399.6	8.6091e-06	8.9184e-06	1389.4	370.65	8.6072e-06	9.0445e-06	423.03	139.68	121.82	41.955	8.7347e-06	51.957	209.969	162.166	194.386	122.496	277.136	261.640	122.276	127.165	255.511	235.941	126.543	130.925	131.414	135.976	258.934	135.214	-8191	255	
641.485	1	1	0	0	0.084814	0.24682	0.29408	0.16865	0.1835	0.32023	0.28411	0.18253	0.2385	0.20064	0.15956	0.4417	0.1706	0.13675	0.071631	0.010058	-1.0479	-0.66875	-1.8125	-0.98125	-0.95417	-1.9188	-1.1146	-1.4292	-1.3292	-0.59167	-1.8292	-1.2521	-0.84792	-1.725	-0.85	-1.4354	320.053	272.792	231.038	262.582	276.076	327.310	413.403	372.090	240.923	306.048	392.520	442.231	438.652	357.271	237.170	438.010	0.00047919	0.00060795	0.00015281	1374	6.0138e-06	3.5334e-06	1367.6	363.76	3.9731e-06	6.0452e-06	414.77	136.47	119.09	40.729	5.1443e-06	50.692	0.00070222	0.00081725	0.0002114	1401.3	8.8139e-06	8.8265e-06	1388.7	370.47	8.5818e-06	8.8055e-06	423.65	139.86	121.94	41.962	8.4228e-06	52.103	206.533	181.967	184.169	122.518	244.634	263.397	122.206	126.953	274.807	256.756	126.402	130.905	131.463	135.932	255.924	135.123	-8191	255	
641.605	1	1	0	0	0.29559	0.29568	0.005893	0.021725	0.18848	0.11748	0.1729	0.19463	0.058021	0.029541	0.18697	0.24781	0.43876	0.21959	0.13871	0.054909	-1.2042	-0.8375	-1.7375	-1.2563	-0.94583	-1.6104	-1.1187	-1.1375	-1.6646	-0.76458	-1.4375	-1.4	-1.0562	-1.6938	-0.89792	-1.1229	113.708	250.511	298.990	149.607	426.899	302.480	399.236	312.605	440.628	466.963	341.859	398.821	406.642	430.268	236.221	461.743	0.00049977	0.00052445	0.00014902	1377.1	6.0204e-06	4.784e-06	1371.5	362.05	5.2578e-06	4.1339e-06	415.11	136.58	118.72	40.997	5.1918e-06	50.514	0.00071871	0.00080221	0.00021312	1404.6	8.8855e-06	8.7861e-06	1389	370.13	8.7154e-06	8.949e-06	423.81	139.99	122.09	42.108	8.7001e-06	52.061	209.592	203.385	209.950	122.439	247.956	292.323	121.874	126.978	256.287	266.985	126.174	130.897	131.431	136.358	258.313	134.891	-8191	255	
641.701	1	1	0	0	0.14946	0.06232	0.25698	0.27747	0.091807	0.18813	0.26625	0.28187	0.15777	0.17327	0.27566	0.35828	0.30231	0.075621	0.20687	0.096562	-1.3208	-0.875	-1.5625	-1.4521	-0.7	-1.7021	-1.2687	-1.1	-1.9021	-0.85625	-1.6187	-1.4646	-0.87708	-1.7875	-1.0521	-0.925	138.500	181.028	279.186	458.094	422.589	342.739	420.101	361.615	331.401	438.001	389.196	353.273	238.515	325.763	454.694	127.869	0.00050761	0.00080471	0.0001104	1377.5	5.4433e-06	5.8691e-06	1370.7	363.72	4.5209e-06	5.8164e-06	415.56	136.54	119.26	40.622	5.9257e-06	50.609	0.00071083	0.00080167	0.00021643	1401.4	8.9185e-06	8.644e-06	1388.5	370.79	8.6044e-06	8.8416e-06	423.83	139.86	122.21	41.955	8.2626e-06	52.06	206.538	193.550	194.101	122.258	283.941	245.411	122.166	127.045	282.831	298.341	126.452	130.735	131.446	135.754	257.349	135.161	-8191	255	
641.796	1	1	0	0	0.22444	0.40385	0.18959	0.062698	0.14836	0.3111	0.057677	0.19826	0.24732	0.42022	0.18073	0.20532	0.12593	0.112	0.11703	0.10742	-1.3521	-0.84792	-1.4208	-1.5292	-0.72917	-1.7188	-1.2583	-1.0146	-1.5375	-0.87917	-1.1708	-1.5354	-0.99583	-1.7896	-1.3417	-1.0958	395.163	327.662	169.678	218.073	343.624	149.610	226.810	348.056	443.872	410.863	213.152	384.405	141.107	309.839	414.280	395.953	0.00047097	0.00053423	0.00013912	1372.8	4.6335e-06	5.52e-06	1368.8	363.11	4.6668e-06	5.2988e-06	414.78	136.2	118.76	40.947	5.2655e-06	50.683	0.00070091	0.00077316	0.00021215	1398.6	8.8068e-06	8.1145e-06	1385.6	369.58	8.3677e-06	8.6354e-06	422.94	139.72	121.75	42.027	8.5122e-06	52.085	207.405	213.608	198.436	122.584	267.747	301.410	122.049	127.111	280.279	292.913	126.548	130.821	131.257	135.867	256.569	135.386	-8191	255	
641.892	1	1	0	0	0.033984	0.16225	0.21538	0.19539	0.082518	0.11583	0.23988	0.3369	0.28832	0.047012	0.24581	0.49616	0.14401	0.45044	0.2561	0.27636	-1.4979	-0.83542	-1.1396	-1.8042	-0.92917	-1.6167	-1.5354	-1.0125	-1.7687	-0.8625	-1.3167	-1.8021	-0.80833	-1.55	-1.3813	-0.84375	403.653	465.988	212.311	451.231	128.898	234.742	441.309	419.397	211.882	294.193	454.984	369.170	363.742	426.340	128.648	372.123	0.00048493	0.00067731	0.00012189	1378.6	4.5203e-06	3.488e-06	1365.4	361.95	4.9318e-06	5.8586e-06	415.21	136.05	118.64	40.756	5.043e-06	50.377	0.00069146	0.00078135	0.0002154	1402.2	8.7212e-06	8.3237e-06	1385.3	369.59	8.4616e-06	8.4906e-06	423.57	139.63	121.82	42.017	8.7555e-06	52.018	207.779	190.615	205.464	121.680	278.275	255.642	121.964	127.082	272.957	257.539	126.412	130.681	131.449	136.212	283.454	135.024	-8191	255	
#DATA ENDS
