BOXY.EXE: ISS Imagent and Oximeter Data Acquisition Program Version 0.80
Ascii Record File

#ACQ INFORMATION
2  Detector Channels 
16  External MUX Channels 
1  Auxiliary Channels 
5000  Waveform (CCF) Frequency (Hz)
1  Waveforms Skipped 
30  Waveforms Averaged 
1  Cycles Averaged 
16  Acquisitions per Waveform 
10.0806  Updata Rate (Hz) 

#FILE INFORMATION
TRUE -- External MUX Channel results are PARSED.
FALSE -- AC DC and Phase are NOT grouped.
TRUE -- Companion Program Settings File CREATED.
FALSE -- AC data not excluded
FALSE -- DC data not excluded
FALSE -- Phase data not excluded
FALSE -- Auxillary Chn. data not excluded
Tab delimiters

#CALIBRATION STATE
TRUE -- Waveform Calibration Values APPLIED.


#AUX CALIBRATION VALUES
Val Type	aux-1	

Term	1.0000e+00	
Factor	0.0000e+00	


#WF CALIBRATION VALUES
A = Detector Channel
Val Type	A-AC1	A-AC2	A-AC3	A-AC4	A-AC5	A-AC6	A-AC7	A-AC8	A-AC9	A-AC10	A-AC11	A-AC12	A-AC13	A-AC14	A-AC15	A-AC16	A-DC1	A-DC2	A-DC3	A-DC4	A-DC5	A-DC6	A-DC7	A-DC8	A-DC9	A-DC10	A-DC11	A-DC12	A-DC13	A-DC14	A-DC15	A-DC16	A-Ph1	A-Ph2	A-Ph3	A-Ph4	A-Ph5	A-Ph6	A-Ph7	A-Ph8	A-Ph9	A-Ph10	A-Ph11	A-Ph12	A-Ph13	A-Ph14	A-Ph15	A-Ph16	

Term	0.00000e+00	0.00000e+00	0.00000e+00	0.00000e+00	0.00000e+00	0.00000e+00	0.00000e+00	0.00000e+00	0.00000e+00	0.00000e+00	0.00000e+00	0.00000e+00	0.00000e+00	0.00000e+00	0.00000e+00	0.00000e+00	0.00000e+00	0.00000e+00	0.00000e+00	0.00000e+00	0.00000e+00	0.00000e+00	0.00000e+00	0.00000e+00	0.00000e+00	0.00000e+00	0.00000e+00	0.00000e+00	0.00000e+00	0.00000e+00	0.00000e+00	0.00000e+00	0.00000e+00	0.00000e+00	0.00000e+00	0.00000e+00	0.00000e+00	0.00000e+00	0.00000e+00	0.00000e+00	0.00000e+00	0.00000e+00	0.00000e+00	0.00000e+00	0.00000e+00	0.00000e+00	0.00000e+00	0.00000e+00	
Factor	1.00000e+00	1.00000e+00	1.00000e+00	1.00000e+00	1.00000e+00	1.00000e+00	1.00000e+00	1.00000e+00	1.00000e+00	1.00000e+00	1.00000e+00	1.00000e+00	1.00000e+00	1.00000e+00	1.00000e+00	1.00000e+00	1.00000e+00	1.00000e+00	1.00000e+00	1.00000e+00	1.00000e+00	1.00000e+00	1.00000e+00	1.00000e+00	1.00000e+00	1.00000e+00	1.00000e+00	1.00000e+00	1.00000e+00	1.00000e+00	1.00000e+00	1.00000e+00	X	X	X	X	X	X	X	X	X	X	X	X	X	X	X	X	

B = Detector Channel
Val Type	B-AC1	B-AC2	B-AC3	B-AC4	B-AC5	B-AC6	B-AC7	B-AC8	B-AC9	B-AC10	B-AC11	B-AC12	B-AC13	B-AC14	B-AC15	B-AC16	B-DC1	B-DC2	B-DC3	B-DC4	B-DC5	B-DC6	B-DC7	B-DC8	B-DC9	B-DC10	B-DC11	B-DC12	B-DC13	B-DC14	B-DC15	B-DC16	B-Ph1	B-Ph2	B-Ph3	B-Ph4	B-Ph5	B-Ph6	B-Ph7	B-Ph8	B-Ph9	B-Ph10	B-Ph11	B-Ph12	B-Ph13	B-Ph14	B-Ph15	B-Ph16	

Term	0.00000e+00	0.00000e+00	0.00000e+00	0.00000e+00	0.00000e+00	0.00000e+00	0.00000e+00	0.00000e+00	0.00000e+00	0.00000e+00	0.00000e+00	0.00000e+00	0.00000e+00	0.00000e+00	0.00000e+00	0.00000e+00	0.00000e+00	0.00000e+00	0.00000e+00	0.00000e+00	0.00000e+00	0.00000e+00	0.00000e+00	0.00000e+00	0.00000e+00	0.00000e+00	0.00000e+00	0.00000e+00	0.00000e+00	0.00000e+00	0.00000e+00	0.00000e+00	-1.01651e+02	-1.31598e+02	-1.20738e+02	-1.91400e+02	-6.33302e+01	-6.26078e+01	-1.55998e+02	-1.62015e+02	-5.85124e+01	-6.34004e+01	-1.71242e+02	-1.69256e+02	-1.82252e+02	-1.76911e+02	-6.36124e+01	-1.48894e+02	
Factor	1.65450e-05	1.63506e-04	4.61476e-05	7.96256e-01	1.42743e-06	1.71502e-06	1.68508e-01	5.36599e-02	1.14399e-06	1.82088e-06	9.19581e-02	2.79579e-02	3.18351e-02	9.46751e-03	1.44351e-06	1.32714e-02	9.20689e-06	1.42985e-05	3.97790e-06	4.00663e-01	1.55516e-07	1.58660e-07	8.09809e-02	2.75310e-02	1.46786e-07	1.58617e-07	4.56486e-02	1.40073e-02	1.65838e-02	4.88813e-03	1.51075e-07	6.63547e-03	X	X	X	X	X	X	X	X	X	X	X	X	X	X	X	X	



#DISTANCE SETTINGS
A = Detector Channel
A-1	A-2	A-3	A-4	A-5	A-6	A-7	A-8	A-9	A-10	A-11	A-12	A-13	A-14	A-15	A-16	

2.5000e+00	3.0000e+00	2.5000e+00	3.0000e+00	2.0000e+00	3.0000e+00	1.5000e+00	3.0000e+00	3.0000e+00	3.0000e+00	3.0000e+00	3.0000e+00	3.0000e+00	3.0000e+00	1.5000e+00	3.0000e+00	

B = Detector Channel
B-1	B-2	B-3	B-4	B-5	B-6	B-7	B-8	B-9	B-10	B-11	B-12	B-13	B-14	B-15	B-16	

1.0000e+01	1.0000e+01	1.0000e+01	1.4400e+00	1.0000e+01	1.0000e+01	1.5100e+00	1.9400e+00	1.0000e+01	1.0000e+01	1.9900e+00	2.4900e+00	2.4100e+00	2.9000e+00	1.0000e+01	2.9800e+00	




#DATA BEGINS
time	group	step	mark	flag	A-AC1	A-AC2	A-AC3	A-AC4	A-AC5	A-AC6	A-AC7	A-AC8	A-AC9	A-AC10	A-AC11	A-AC12	A-AC13	A-AC14	A-AC15	A-AC16	A-DC1	A-DC2	A-DC3	A-DC4	A-DC5	A-DC6	A-DC7	A-DC8	A-DC9	A-DC10	A-DC11	A-DC12	A-DC13	A-DC14	A-DC15	A-DC16	A-Ph1	A-Ph2	A-Ph3	A-Ph4	A-Ph5	A-Ph6	A-Ph7	A-Ph8	A-Ph9	A-Ph10	A-Ph11	A-Ph12	A-Ph13	A-Ph14	A-Ph15	A-Ph16	B-AC1	B-AC2	B-AC3	B-AC4	B-AC5	B-AC6	B-AC7	B-AC8	B-AC9	B-AC10	B-AC11	B-AC12	B-AC13	B-AC14	B-AC15	B-AC16	B-DC1	B-DC2	B-DC3	B-DC4	B-DC5	B-DC6	B-DC7	B-DC8	B-DC9	B-DC10	B-DC11	B-DC12	B-DC13	B-DC14	B-DC15	B-DC16	B-Ph1	B-Ph2	B-Ph3	B-Ph4	B-Ph5	B-Ph6	B-Ph7	B-Ph8	B-Ph9	B-Ph10	B-Ph11	B-Ph12	B-Ph13	B-Ph14	B-Ph15	B-Ph16	aux-1	digaux	

764.732	1	1	0	256	0.15909	0.10487	0.26832	0.29296	0.18907	0.061198	0.29445	0.24913	0.18617	0.22408	0.044537	0.30806	0.35439	0.1563	0.14027	0.23503	-1.1896	-1.4292	-0.70417	-1.6458	-0.90417	-0.90833	-1.8208	-0.77083	-1.2437	-1.5042	-0.67083	-1.6375	-1.0667	-0.95	-1.6437	-0.90417	58.699	66.697	12.263	193.678	182.242	264.470	294.163	323.170	217.210	39.252	262.827	294.636	48.603	232.287	70.917	348.009	0.0002636	0.00061879	0.00013777	1438.3	3.2684e-06	4.3314e-06	1423.9	378.1	4.0409e-06	6.7162e-06	434.38	140.36	122.61	41.747	4.1167e-06	51.669	0.00042553	0.00044823	0.0001245	1449.8	4.8505e-06	4.9155e-06	1434.7	383.81	4.9094e-06	4.5156e-06	439.41	144.14	125.52	42.655	4.7085e-06	52.766	171.806	105.334	125.375	24.003	170.564	164.745	24.087	28.952	198.723	168.815	28.306	33.100	33.736	37.952	147.542	37.207	-8191	255	
764.828	1	1	0	0	0.24632	0.12928	0.075015	0.10544	0.044386	0.21205	0.10289	0.37804	0.044482	0.16482	0.29346	0.48316	0.16168	0.16385	0.0718	0.10399	-0.86458	-1.5125	-0.65208	-1.5042	-1.1313	-0.80417	-1.8542	-0.97083	-1.1979	-1.5125	-0.7875	-1.6	-1.1521	-0.74167	-1.7042	-1.0479	60.262	270.698	355.653	285.163	27.135	349.156	339.534	362.175	159.371	203.324	56.825	365.632	234.493	104.440	207.259	286.798	0.00029071	0.00048028	0.00016832	1434.6	4.4977e-06	5.1975e-06	1422.2	376.94	2.9516e-06	5.5971e-06	432.55	141.02	122.43	42.014	4.473e-06	51.65	0.00041483	0.00042222	0.00012434	1443	4.7867e-06	4.7172e-06	1433	382.64	4.7384e-06	4.4981e-06	439.29	144	125.44	42.776	4.6745e-06	52.753	172.705	100.350	92.601	24.507	170.425	167.374	24.250	29.130	179.148	168.071	28.497	33.221	33.640	37.882	184.814	37.104	-8191	255	
764.924	1	1	0	0	0.082038	0.15553	0.27497	0.23859	0.22972	0.12995	0.35254	0.10886	0.29864	0.055685	0.22587	0.32017	0.11458	0.11896	0.20591	0.19654	-0.63333	-1.4458	-0.50833	-1.3167	-1.2938	-0.69792	-1.7875	-1.1479	-1.0167	-1.6125	-0.85208	-1.5479	-1.5875	-0.99167	-1.5688	-1.0479	321.686	227.249	101.065	326.116	65.728	197.255	337.220	273.697	322.047	269.871	18.177	369.562	160.612	339.472	300.881	103.737	0.00029357	0.00068796	0.00015046	1439.8	3.9721e-06	5.8089e-06	1422.7	376.89	3.1086e-06	4.1493e-06	433.6	141.26	122.59	41.76	4.7122e-06	51.901	0.00042039	0.0004241	0.00012622	1449.3	4.7646e-06	4.6904e-06	1434.5	383.11	4.7849e-06	4.7251e-06	439.35	144.31	125.55	42.669	4.7104e-06	52.823	173.518	91.249	108.110	24.415	172.157	163.445	24.238	28.950	173.623	171.927	28.645	33.231	33.716	38.036	170.872	37.461	-8191	255	
765.020	1	1	0	0	0.21878	0.058336	0.20554	0.11353	0.23723	0.18085	0.36739	0.39692	0.15817	0.21267	0.4452	0.19047	0.23177	0.2025	0.17362	0.16327	-0.43125	-1.6146	-0.51458	-1.3937	-1.4146	-0.5375	-1.7625	-1.1979	-1.0438	-1.5521	-0.89375	-1.4333	-1.3042	-0.83333	-1.3021	-1.1562	326.881	366.632	212.643	356.006	208.563	170.317	332.211	23.105	198.795	366.790	357.465	369.847	21.311	25.161	172.881	242.408	0.00027533	0.00049172	0.00015011	1432.3	2.9705e-06	3.6479e-06	1427.9	377.75	3.1321e-06	4.5403e-06	434.02	140.87	122.39	41.866	4.5667e-06	51.696	0.00041836	0.00042076	0.0001242	1446	4.7121e-06	4.7512e-06	1436.2	383	4.8323e-06	4.546e-06	438.8	143.95	125.55	42.651	4.7375e-06	52.763	172.079	93.186	98.209	24.039	167.403	176.454	24.296	28.946	173.572	147.961	28.284	33.198	33.578	37.943	186.928	37.359	-8191	255	
765.116	1	1	0	0	0.24576	0.11371	0.12281	0.17166	0.24545	0.24366	0.29953	0.1716	0.24002	0.16689	0.13202	0.098948	0.1089	0.18019	0.17502	0.10258	-0.43125	-1.7313	-0.8125	-1.2625	-1.5729	-0.5	-1.5708	-1.3979	-0.73958	-1.6437	-1.0458	-1.075	-1.7042	-0.69375	-1.4438	-1.3625	46.201	145.996	73.354	76.125	281.656	259.176	345.190	46.151	330.033	353.911	191.121	56.850	321.910	103.958	365.103	309.733	0.00028144	0.00060402	0.00012873	1436.9	5.6731e-06	4.559e-06	1419.1	376.43	3.6401e-06	5.4083e-06	432.41	140.58	122.1	41.75	4.0556e-06	51.855	0.00041792	0.00041877	0.00012084	1444.3	4.5437e-06	4.5843e-06	1429.7	382.19	4.8632e-06	4.6022e-06	437.44	143.64	125.03	42.552	4.7513e-06	52.694	169.673	109.633	111.318	24.302	161.694	157.348	24.369	29.020	184.270	132.761	28.605	33.257	33.821	38.090	155.176	37.205	-8191	255	
765.235	1	1	0	0	0.095403	0.1925	0.085243	0.228	0.017072	0.27661	0.1646	0.14704	0.23741	0.030764	0.15844	0.23034	0.26503	0.12979	0.14623	0.057946	-0.31875	-1.6375	-1.0625	-0.9375	-1.625	-0.69375	-1.4854	-1.4479	-0.68125	-1.6146	-1.1625	-1.0292	-1.7854	-0.85625	-1.4	-1.35	345.222	347.300	98.730	156.905	59.040	334.150	310.680	367.292	236.121	74.796	72.196	16.093	15.827	22.585	237.424	232.275	0.00026634	0.00042066	0.00016531	1439.5	6.183e-06	3.5126e-06	1421.3	376.67	4.1507e-06	5.0459e-06	432.08	140.57	122.4	41.627	6.081e-06	51.542	0.00040978	0.00043572	0.00012434	1446.9	4.7413e-06	4.8064e-06	1430.3	381.79	4.8733e-06	4.7103e-06	437.62	143.56	124.99	42.55	4.802e-06	52.546	172.804	95.985	104.073	24.422	166.986	156.272	24.380	29.051	190.893	157.866	28.501	33.173	34.103	37.952	172.085	37.398	-8191	255	
765.331	1	1	0	0	0.06508	0.12771	0.16787	0.19048	0.16336	0.21851	0.19891	0.42925	0.47441	0.28153	0.31269	0.19308	0.098868	0.36587	0.22356	0.20198	-0.37708	-1.3937	-1.1604	-0.83125	-1.8333	-0.87708	-1.4958	-1.6125	-0.68542	-1.4271	-1.3438	-0.95	-1.5604	-0.80833	-1.2646	-1.5	229.350	349.080	224.558	319.149	41.905	228.046	366.329	355.152	147.849	184.096	311.440	24.904	67.702	71.254	36.933	186.385	0.00028897	0.00054053	0.00016269	1435.8	4.6014e-06	3.6842e-06	1417.4	377.24	4.1702e-06	4.8432e-06	432.36	140.42	122.43	41.714	5.2938e-06	51.664	0.00041909	0.00044975	0.00012021	1441.6	4.659e-06	4.8262e-06	1430.9	382.42	4.8687e-06	4.772e-06	437.27	143.52	125.2	42.515	4.7781e-06	52.581	173.451	95.231	113.039	24.185	161.635	156.415	24.599	29.127	187.549	163.069	28.556	33.365	34.170	38.204	174.464	37.485	-8191	255	
765.428	1	1	0	0	0.084805	0.14919	0.1326	0.11222	0.04474	0.12228	0.096187	0.10215	0.026827	0.19211	0.070951	0.15786	0.30407	0.16742	0.28316	0.23482	-0.32708	-1.4021	-1.0792	-0.65625	-1.5708	-0.8875	-1.1333	-1.7146	-0.71875	-1.5063	-1.3479	-0.93542	-1.6583	-0.85	-0.95208	-1.7333	295.247	271.379	210.965	309.443	308.947	290.093	53.718	280.575	40.527	177.035	52.720	49.411	309.636	28.106	215.409	292.474	0.0002643	0.00060743	0.00015375	1427	5.7752e-06	4.6601e-06	1416.7	377.18	4.0355e-06	4.4631e-06	431.47	140.32	122.93	41.557	5.9437e-06	51.572	0.00041786	0.00045305	0.00012157	1441	4.7416e-06	4.8415e-06	1430.7	382.21	4.9256e-06	4.6901e-06	437.65	143.61	125.38	42.539	4.8215e-06	52.627	167.117	96.571	86.054	24.284	163.923	135.545	24.696	29.277	183.068	185.106	28.811	33.360	34.099	38.014	170.501	37.380	-8191	255	
765.524	1	1	0	0	0.21207	0.12021	0.1053	0.10654	0.14146	0.16818	0.10725	0.36277	0.31448	0.14973	0.28683	0.26648	0.10297	0.14348	0.12481	0.4113	-0.26667	-1.3438	-1.2687	-0.68333	-1.4792	-0.97917	-1.0438	-1.775	-0.62917	-1.3292	-1.6	-0.77083	-1.5083	-1.15	-0.87083	-1.8729	146.405	186.036	147.860	318.290	288.351	173.117	329.076	317.853	166.822	300.255	212.151	51.059	23.726	175.272	124.064	342.365	0.0002633	0.0005603	0.00019302	1438.6	4.81e-06	5.4243e-06	1419	376.94	4.1085e-06	5.8147e-06	432.85	140.9	122.48	41.72	5.1223e-06	51.751	0.00042106	0.00043893	0.00012306	1445.6	4.9014e-06	4.9181e-06	1433.7	382.81	4.9549e-06	4.8623e-06	438.08	144.06	125.51	42.618	4.9465e-06	52.79	168.593	104.780	106.714	24.716	153.043	176.125	24.669	29.255	175.879	182.827	28.694	33.334	33.909	38.087	174.654	37.597	-8191	255	
765.620	1	1	0	0	0.34076	0.093744	0.20697	0.08184	0.14583	0.29157	0.19658	0.17195	0.15839	0.15167	0.24795	0.14011	0.28952	0.25692	0.20668	0.28627	-0.5375	-1.1271	-1.4604	-0.75833	-1.4333	-1.1125	-1.0104	-1.8271	-0.78125	-1.0583	-1.7604	-0.74375	-1.6458	-1.2104	-0.6625	-1.8417	158.944	336.376	292.071	20.866	154.497	171.549	250.890	300.124	185.410	283.844	35.598	264.763	286.123	316.692	30.104	368.013	0.00027798	0.00053618	0.00016318	1435.4	4.8495e-06	5.0709e-06	1428.2	377.58	3.3348e-06	4.618e-06	436.76	141.41	122.89	41.974	4.039e-06	51.846	0.00043042	0.00046017	0.00012161	1445.7	5.0144e-06	4.8745e-06	1436.7	383.32	5.0834e-06	4.7849e-06	439.9	144.33	125.73	42.845	4.8338e-06	52.973	172.263	89.296	97.439	24.484	169.870	165.253	24.318	29.143	191.264	193.744	28.901	33.449	33.850	38.175	162.465	37.345	-8191	255	
765.716	1	1	0	0	0.060203	0.1626	0.10296	0.19841	0.36451	0.12579	0.32673	0.28367	0.19927	0.053101	0.13347	0.08851	0.27855	0.071702	0.092311	0.24341	-0.57292	-0.99375	-1.4937	-0.68333	-1.2792	-1.2271	-0.89375	-1.5187	-0.95208	-1.1125	-1.4729	-0.74792	-1.4271	-1.3167	-0.76042	-1.625	286.018	215.591	336.718	36.045	213.877	90.382	349.897	300.024	67.545	138.294	128.857	292.338	336.568	263.116	119.965	61.272	0.00027767	0.00050149	0.00013399	1439.7	4.3339e-06	4.4952e-06	1428	377.58	5.939e-06	7.1301e-06	433.56	141.77	124.13	42.017	4.7886e-06	52.243	0.00042388	0.00044644	0.00011527	1446.5	4.8673e-06	4.818e-06	1437.5	383.72	5.0763e-06	4.9872e-06	440.29	144.79	126.67	43.049	5.1501e-06	53.288	169.790	89.846	114.230	24.419	162.773	175.342	24.391	29.178	187.990	161.316	28.845	33.179	33.815	38.208	168.129	37.481	-8191	255	
765.837	1	1	0	0	0.30668	0.078487	0.17483	0.12117	0.15596	0.24753	0.32109	0.079342	0.15159	0.15489	0.12657	0.21949	0.32	0.25407	0.22171	0.33039	-0.73958	-0.99792	-1.6187	-0.75625	-1.3708	-1.5354	-0.73125	-1.7708	-1.1458	-0.75625	-1.5875	-0.64583	-1.0958	-1.5312	-0.69583	-1.575	45.384	283.923	178.073	330.268	175.402	110.261	295.029	251.695	64.998	219.895	15.340	340.816	321.540	318.904	297.311	331.708	0.00028126	0.00042797	0.00018919	1445.9	4.3259e-06	3.9448e-06	1428.9	379.26	4.9219e-06	6.0052e-06	436.19	141.52	123.97	42.102	5.6537e-06	52.434	0.00044431	0.00048674	0.00013103	1451.2	5.3481e-06	5.2645e-06	1442.2	385.11	5.4644e-06	5.3252e-06	441.25	145.53	126.96	43.253	5.4752e-06	53.426	173.819	85.768	105.469	24.096	167.254	154.266	24.593	29.257	185.998	165.887	28.810	33.418	34.143	38.150	166.425	37.682	-8191	255	
765.931	1	1	0	0	0.1046	0.2189	0.045998	0.30429	0.033348	0.29168	0.11269	0.24653	0.12508	0.19438	0.20391	0.07848	0.031545	0.12438	0.081882	0.1397	-0.77917	-0.69583	-1.6896	-0.725	-0.93542	-1.5104	-0.81458	-1.625	-1.1208	-0.74375	-1.7125	-0.94167	-1.2625	-1.7375	-0.69167	-1.5167	167.670	147.410	275.867	366.024	207.485	55.786	236.401	286.644	124.993	279.773	362.866	95.745	147.635	198.049	276.236	294.467	0.00029667	0.00073977	0.00016467	1451.1	5.3021e-06	3.1871e-06	1434.1	380.72	3.4225e-06	5.3913e-06	437.3	142.94	124.81	42.435	4.5609e-06	52.474	0.0004506	0.0004863	0.00013382	1457.2	5.2409e-06	5.135e-06	1444.6	386.63	5.2023e-06	5.1448e-06	442.05	146	127.5	43.359	5.1926e-06	53.484	172.138	101.547	122.375	24.754	160.414	155.306	24.688	29.439	186.284	162.508	28.816	33.081	34.081	38.160	178.612	37.859	-8191	255	
766.027	1	1	0	0	0.21616	0.23543	0.23463	0.29828	0.27858	0.094554	0.20963	0.37437	0.21818	0.39005	0.047566	0.11536	0.50013	0.048556	0.3381	0.21504	-1.1313	-0.55417	-1.3813	-1.0938	-1.0125	-1.6354	-1.0229	-1.5125	-1.3937	-0.62917	-1.6646	-1.0292	-0.78958	-1.7958	-0.6	-1.2188	138.324	254.832	70.797	112.508	85.622	273.977	218.074	353.159	185.721	190.181	70.833	310.414	348.536	196.303	242.590	371.179	0.00026836	0.00051423	0.00016892	1441	3.6775e-06	4.8717e-06	1429.8	379.82	3.0197e-06	5.2855e-06	434.64	142.46	124.1	42.421	4.1066e-06	52.457	0.00043336	0.00045654	0.0001307	1453.2	5.0598e-06	4.9406e-06	1440.4	385.46	4.9641e-06	5.0909e-06	440.72	145.82	127.15	43.364	5.2659e-06	53.477	174.082	108.928	111.119	24.763	180.171	173.524	24.773	29.685	200.813	167.632	28.885	33.459	33.820	37.910	169.040	37.360	-8191	255	
766.125	1	1	0	0	0.28396	0.13505	0.19911	0.018148	0.0936	0.06714	0.33002	0.23346	0.065273	0.21383	0.16361	0.1712	0.18642	0.13159	0.17251	0.2542	-0.98542	-0.78333	-1.5604	-1.2917	-0.7125	-1.6521	-1.1125	-1.2854	-1.5104	-0.69792	-1.5771	-1.25	-0.91875	-1.8896	-0.70208	-1.0583	115.925	147.840	73.652	122.057	36.377	186.164	308.998	302.529	109.714	82.662	23.984	353.415	54.833	311.668	311.289	357.820	0.00027936	0.000656	0.00014083	1442.9	3.5037e-06	5.974e-06	1433.2	381.3	3.9839e-06	5.0792e-06	438.07	143.03	124.97	42.665	3.6722e-06	52.85	0.0004206	0.00046029	0.00012733	1452.2	4.9879e-06	4.8507e-06	1443.4	386.66	4.903e-06	4.9343e-06	442.5	146.48	127.86	43.618	5.0484e-06	53.825	171.160	120.822	111.762	24.497	173.822	162.810	24.471	29.013	167.174	154.621	28.663	33.240	33.914	37.899	170.180	37.760	-8191	255	
766.219	1	1	0	0	0.17985	0.21095	0.088771	0.064466	0.13404	0.28839	0.12858	0.34909	0.14308	0.11164	0.26276	0.17513	0.095247	0.18855	0.28738	0.038598	-1.125	-0.58542	-1.3292	-1.1229	-0.65625	-1.4604	-1.0333	-1.1437	-1.5958	-0.62292	-1.3958	-1.4917	-0.62083	-1.7396	-0.975	-1.1313	286.205	113.995	348.610	102.043	201.265	98.471	303.703	331.988	227.559	249.733	337.557	294.562	55.761	349.440	100.437	248.993	0.00029036	0.00071628	9.848e-05	1449.8	4.7132e-06	4.5982e-06	1433.6	381.22	4.7125e-06	5.5283e-06	437.75	143.68	125.02	42.602	5.0476e-06	52.674	0.00041736	0.00046786	0.00012714	1457.7	4.9665e-06	5.0424e-06	1447.6	386.72	4.9293e-06	5.0658e-06	443.58	146.67	127.99	43.6	5.1967e-06	53.744	167.668	99.684	95.049	24.385	186.369	165.415	24.380	29.344	190.030	175.017	28.960	32.983	33.907	38.205	161.809	37.539	-8191	255	
766.316	1	1	0	0	0.038431	0.096772	0.17697	0.30982	0.12501	0.18373	0.23214	0.24537	0.10101	0.19438	0.27248	0.076646	0.1841	0.172	0.11863	0.18109	-1.2792	-0.79167	-1.2	-1.425	-0.72292	-1.5438	-1.3083	-1.0167	-1.6333	-0.6625	-1.3937	-1.4875	-0.775	-1.7042	-1.1104	-0.7375	17.043	158.915	339.879	36.176	209.667	368.479	291.562	53.494	245.454	23.215	338.017	135.569	283.274	268.795	345.707	297.941	0.00028713	0.00050208	0.00014717	1438.5	2.7549e-06	6.0124e-06	1439	383.11	3.684e-06	6.1712e-06	440.21	144.13	126.36	43.006	5.1791e-06	53.031	0.00043811	0.00049416	0.00013846	1457	5.6044e-06	5.523e-06	1450.2	388.72	5.6084e-06	5.7152e-06	445.69	147.59	128.98	43.967	5.7387e-06	54.183	175.273	90.746	103.333	24.557	182.555	172.078	24.742	29.327	169.814	166.038	28.850	33.316	33.851	38.063	196.449	37.482	-8191	255	
766.412	1	1	0	0	0.15568	0.13278	0.14046	0.37189	0.066685	0.40433	0.05004	0.16812	0.16143	0.047227	0.20843	0.2447	0.18373	0.30204	0.10291	0.21697	-1.2687	-0.72917	-1.0542	-1.3792	-0.67083	-1.2521	-1.4312	-0.91458	-1.5875	-0.77292	-0.95	-1.6604	-0.5875	-1.5187	-1.25	-0.79167	201.386	290.398	351.245	358.225	280.471	74.963	304.393	331.544	12.453	284.387	344.119	37.057	13.904	29.564	165.195	333.097	0.00029323	0.00063503	0.00017468	1466.1	4.2632e-06	5.2788e-06	1442.7	384.97	2.9826e-06	6.1848e-06	440.6	145.3	126.51	43.108	4.4641e-06	53.383	0.0004699	0.00053119	0.00014497	1468.1	5.5435e-06	5.6919e-06	1456.8	390.51	5.4323e-06	5.4941e-06	446.52	148.23	129.49	44.138	5.2118e-06	54.348	166.422	95.603	98.517	24.377	155.179	171.265	24.283	28.920	168.725	185.705	28.457	33.075	33.565	37.713	174.064	37.034	-8191	255	
766.508	1	1	0	0	0.17023	0.128	0.066234	0.22205	0.23277	0.36133	0.12503	0.15198	0.042187	0.11363	0.21552	0.047302	0.32294	0.18876	0.077679	0.17178	-1.2812	-0.79792	-0.77292	-1.5583	-0.72083	-1.3167	-1.5438	-0.85208	-1.6646	-1.1562	-0.92083	-1.6854	-0.92917	-1.5562	-1.4062	-0.74167	148.196	136.517	239.896	90.438	140.135	121.513	304.400	333.844	220.314	96.785	266.770	281.759	319.769	86.270	324.844	357.636	0.00029645	0.0005847	0.00012927	1460.8	4.4418e-06	4.4023e-06	1438.8	385.02	4.1436e-06	5.3163e-06	440.01	144.97	126.65	43.24	6.116e-06	53.322	0.00044782	0.00048138	0.00013251	1470	5.2999e-06	5.1753e-06	1454.6	390.75	5.2286e-06	5.2e-06	446.67	148.22	129.7	44.293	5.1171e-06	54.418	170.234	97.097	79.609	24.370	137.201	167.735	24.181	28.857	186.348	178.328	28.801	33.099	33.390	37.647	180.088	37.352	-8191	255	
766.629	1	1	0	0	0.21684	0.081279	0.12449	0.2768	0.29374	0.3475	0.057228	0.32408	0.11901	0.17566	0.1845	0.1221	0.11378	0.20947	0.013546	0.10976	-1.0896	-1.1396	-0.64792	-1.6875	-0.68542	-1.0104	-1.7188	-0.79792	-1.4833	-1.2375	-0.84792	-1.7729	-0.8375	-1.3208	-1.525	-0.63958	335.376	55.047	142.087	241.820	165.841	306.084	23.963	351.072	328.377	203.614	215.638	361.111	55.575	327.962	199.525	19.932	0.00026885	0.00063227	0.00011968	1464.7	4.2956e-06	2.6134e-06	1439.1	383.72	3.2432e-06	6.8418e-06	441.12	144.35	126.9	43.308	5.026e-06	53.188	0.00044707	0.00048359	0.00013212	1471.2	5.3549e-06	5.4526e-06	1453.3	389.73	5.4461e-06	5.5195e-06	445.97	147.99	129.52	44.272	5.3452e-06	54.362	170.623	98.540	116.887	24.436	169.963	147.566	24.549	29.230	177.432	197.873	28.770	33.260	33.418	37.944	170.602	37.349	-8191	255	
766.700	1	1	0	0	0.13622	0.10134	0.16007	0.03577	0.13939	0.080916	0.31475	0.32177	0.095017	0.31384	0.13466	0.04851	0.18722	0.12765	0.052711	0.24945	-1.05	-1.0667	-0.70625	-1.7	-0.825	-1.1063	-1.8083	-0.77917	-1.3312	-1.2917	-0.93542	-1.7083	-1.0125	-1.1187	-1.5271	-0.6875	124.431	195.011	302.122	85.747	114.696	361.746	352.144	354.888	142.906	143.749	327.426	340.973	323.369	296.868	96.399	277.094	0.00029468	0.00054754	0.00016783	1453.2	4.2533e-06	5.6391e-06	1442.1	385.08	4.8352e-06	6.8165e-06	442.24	145.2	127.02	43.19	5.643e-06	53.314	0.00045958	0.00050489	0.00013849	1467.8	5.6057e-06	5.532e-06	1456	390.38	5.5464e-06	5.3926e-06	446.85	148.53	129.73	44.291	5.3157e-06	54.399	168.709	106.147	100.045	24.638	165.838	171.348	24.470	28.904	196.963	178.361	28.553	33.164	33.687	37.766	182.093	37.136	-8191	255	
766.796	1	1	0	0	0.26734	0.25898	0.078009	0.10038	0.29774	0.28761	0.33434	0.35288	0.15351	0.16812	0.23719	0.16382	0.11922	0.16394	0.1445	0.13534	-1.1375	-1.2687	-0.49375	-1.6896	-0.91875	-1.0021	-1.85	-0.82292	-1.3458	-1.2958	-0.70208	-1.6708	-1.1042	-0.65833	-1.5792	-1.0625	329.076	112.594	318.137	185.944	228.818	235.556	327.926	24.654	158.079	265.909	26.901	138.544	318.345	349.506	245.267	62.935	0.00028149	0.00037036	0.0001613	1455.5	3.5795e-06	5.9158e-06	1437.6	383.15	3.6283e-06	5.0865e-06	440.44	144.99	125.66	43.18	3.892e-06	53.366	0.0004558	0.00047114	0.00013487	1467.8	5.3465e-06	5.1816e-06	1452	388.88	5.2091e-06	5.004e-06	445.32	148.29	129.11	44.182	5.1492e-06	54.451	174.823	100.798	120.387	24.532	165.063	181.736	24.463	29.160	179.946	148.470	28.736	33.117	33.807	37.884	172.370	37.235	-8191	255	
766.917	1	1	0	0	0.12959	0.21442	0.1724	0.044411	0.071594	0.19433	0.20602	0.21559	0.22878	0.048749	0.17839	0.15726	0.19959	0.20896	0.076905	0.41391	-0.91875	-1.375	-0.63333	-1.4688	-0.93542	-0.85	-1.8021	-0.99167	-0.8875	-1.5833	-0.75208	-1.3958	-1.3854	-0.61875	-1.5375	-0.8625	229.432	163.066	169.008	111.127	202.627	146.726	314.232	348.077	312.068	176.333	280.692	90.166	292.988	13.209	366.586	365.043	0.00028211	0.00061234	0.00013013	1455.6	6.4954e-06	3.0622e-06	1438.6	382.61	4.4849e-06	6.8305e-06	437.57	144.7	126.61	43.413	4.6249e-06	53.369	0.00044843	0.00046765	0.00013101	1461.4	5.1142e-06	4.9998e-06	1450.1	388.66	5.0901e-06	4.8021e-06	443.83	148.15	129.3	44.34	4.7592e-06	54.476	170.562	102.969	100.947	24.049	146.580	165.557	24.374	29.134	181.240	154.900	28.778	33.292	33.979	38.015	160.799	37.533	-8191	255	
767.013	1	1	0	0	0.16479	0.087029	0.081427	0.28196	0.16158	0.098974	0.20371	0.20227	0.15809	0.23007	0.23428	0.14281	0.25786	0.19028	0.26378	0.30039	-0.68542	-1.6708	-0.66042	-1.3667	-1.4125	-0.61875	-2.0062	-1.1333	-0.94375	-1.6354	-0.85208	-1.3396	-1.3729	-0.80417	-1.5417	-1.1625	202.215	154.004	358.208	370.444	103.237	306.275	15.085	310.902	356.074	258.494	153.599	332.608	54.086	352.280	131.521	308.219	0.00031027	0.00069823	0.00014688	1451.6	3.4753e-06	5.4316e-06	1434.2	382.38	3.4755e-06	4.9396e-06	438.24	144.33	126.38	43.147	3.1387e-06	53.199	0.00043694	0.00043938	0.00012946	1459.2	4.9357e-06	4.7529e-06	1446.8	388.05	4.9393e-06	4.8454e-06	443.4	147.93	129.09	44.136	4.8571e-06	54.302	170.678	109.057	101.805	24.818	167.932	155.734	24.728	29.355	201.880	168.812	29.002	33.917	34.157	38.492	171.628	37.655	-8191	255	
767.109	1	1	0	0	0.042123	0.032634	0.060558	0.12419	0.11322	0.054156	0.31464	0.18317	0.057316	0.22258	0.19337	0.21066	0.16143	0.28168	0.043677	0.2475	-0.325	-1.5979	-0.78125	-1.1521	-1.2292	-0.6875	-2.0333	-1.1458	-0.58542	-1.5938	-0.85	-0.89583	-1.3167	-0.68333	-1.0854	-1.1625	133.944	179.375	273.991	266.991	143.434	266.654	300.046	14.855	193.510	166.775	44.246	301.234	316.957	102.050	313.044	287.867	0.00027274	0.0005174	0.00013997	1444.4	4.3862e-06	4.8826e-06	1435.5	382.36	3.3308e-06	4.639e-06	437.8	144.42	126.3	43.295	3.9826e-06	53.096	0.00043389	0.00044319	0.00012817	1457.2	4.6898e-06	4.9171e-06	1446.2	387.89	4.88e-06	4.5315e-06	443.5	147.87	129.07	44.161	4.7661e-06	54.298	171.912	102.613	104.993	24.257	175.473	165.546	24.573	29.214	191.862	177.525	28.575	33.332	33.767	38.026	160.885	37.393	-8191	255	
767.228	1	1	0	0	0.15081	0.075586	0.16803	0.22378	0.072953	0.10922	0.39005	0.14647	0.074484	0.20078	0.10303	0.19343	0.15337	0.1498	0.25053	0.03718	-0.15	-1.55	-0.69792	-0.90417	-1.3833	-0.6875	-1.4833	-1.3708	-0.50208	-1.6354	-1.0104	-1.0688	-1.3792	-0.73542	-1.2437	-1.4292	238.009	88.602	163.628	34.439	160.044	288.969	342.813	252.716	271.219	236.485	325.264	46.066	350.095	27.969	175.903	248.044	0.00029015	0.0005926	0.00013564	1452.4	3.9558e-06	4.7786e-06	1430.4	382.19	3.9319e-06	5.8565e-06	437.7	144.97	125.6	43.137	6.0514e-06	53.27	0.00042912	0.00043033	0.00012188	1457.8	4.6366e-06	4.5711e-06	1442.3	386.7	4.8017e-06	4.5351e-06	442.16	147.74	128.8	44.095	4.6478e-06	54.316	168.872	106.379	119.227	24.658	174.508	163.637	24.615	29.199	174.757	156.937	28.843	33.359	33.833	38.051	171.764	37.415	-8191	255	
767.324	1	1	0	0	0.23207	0.38281	0.28029	0.071166	0.24565	0.16514	0.29548	0.19747	0.18591	0.38737	0.20392	0.44524	0.29042	0.33215	0.25989	0.23957	-0.32917	-1.6	-0.775	-0.81042	-1.5042	-0.81875	-1.5583	-1.5	-0.66042	-1.5667	-1.0875	-0.825	-1.6292	-0.7125	-1.3062	-1.5438	297.198	249.263	125.862	65.046	304.496	43.596	24.946	138.205	38.538	165.480	21.532	331.704	16.927	353.786	298.081	338.757	0.00029234	0.00048796	0.00017537	1448.4	4.0431e-06	5.8972e-06	1428.3	380.84	4.5121e-06	7.0227e-06	437.71	144.74	126.08	43.151	6.2067e-06	53.218	0.00041822	0.00042044	0.00011432	1455	4.3849e-06	4.5526e-06	1440.9	386.66	4.676e-06	4.5982e-06	442.86	147.99	128.82	44.121	4.5984e-06	54.297	168.064	102.159	106.566	24.721	152.601	158.528	24.556	29.345	193.779	176.391	28.819	33.417	34.150	38.225	192.598	37.574	-8191	255	
767.396	1	1	0	0	0.095118	0.10791	0.16577	0.09435	0.080029	0.20608	0.18495	0.51566	0.14854	0.25668	0.28064	0.046806	0.14034	0.11269	0.091474	0.30403	-0.25208	-1.5042	-0.86458	-0.70208	-1.5917	-0.87292	-1.1333	-1.6208	-0.50208	-1.3146	-1.2208	-0.80625	-1.6354	-0.8	-0.91042	-1.7271	156.401	109.830	95.667	228.056	59.388	263.020	279.200	326.753	98.311	332.204	302.717	275.982	264.684	313.974	212.720	91.550	0.00029376	0.00065921	0.00018575	1439.5	5.391e-06	3.5457e-06	1428.8	381.41	3.7112e-06	4.0208e-06	436.18	144.7	125.92	43.209	4.3564e-06	53.287	0.00041498	0.00041597	0.00011733	1450.5	4.5223e-06	4.5179e-06	1441.6	387.01	4.7727e-06	4.6366e-06	442.25	147.94	128.58	44.156	4.6663e-06	54.409	171.807	96.537	94.836	24.748	168.359	128.573	25.003	29.517	173.172	159.425	29.046	33.589	34.096	38.011	177.326	37.403	-8191	255	
767.517	1	1	0	0	0.25493	0.23254	0.15636	0.19428	0.17128	0.065711	0.32689	0.12036	0.14675	0.027752	0.14922	0.17342	0.2871	0.13352	0.14934	0.081788	-0.28542	-1.2271	-0.93958	-0.59792	-1.6792	-0.85417	-1.2625	-1.5604	-0.64792	-1.45	-1.3271	-0.61667	-1.4604	-1.0396	-0.925	-1.7542	183.914	370.492	113.665	174.994	223.680	146.361	297.206	318.204	171.962	107.534	308.326	350.509	350.314	297.928	248.388	277.440	0.00029108	0.0005586	0.00015926	1449.4	4.4472e-06	5.9988e-06	1432.4	381.19	2.5963e-06	5.5568e-06	438.04	145.14	126.75	43.19	4.2437e-06	53.581	0.00041817	0.00042487	0.00011446	1453.4	4.6055e-06	4.5697e-06	1442.5	386.43	4.6378e-06	4.55e-06	442.74	147.99	129.27	44.135	4.649e-06	54.479	167.775	88.964	115.822	24.820	180.426	182.449	24.983	29.523	203.551	170.324	29.193	33.642	34.156	38.635	162.959	37.831	-8191	255	
767.613	1	1	0	0	0.079416	0.24333	0.11393	0.30551	0.22108	0.1616	0.32841	0.35453	0.29663	0.048718	0.21671	0.15279	0.19006	0.24044	0.18317	0.064097	-0.39375	-1.1104	-1.4188	-0.56875	-1.3729	-1.0604	-0.96667	-1.6167	-0.86875	-1.2104	-1.4438	-0.85625	-1.4646	-1.2563	-0.76875	-1.7458	350.937	251.381	199.331	83.062	272.931	234.283	345.713	313.604	298.305	147.209	172.201	17.800	344.854	351.669	353.060	91.401	0.00026993	0.00041898	0.0001652	1441.4	5.3985e-06	4.7327e-06	1434.5	381.32	3.5541e-06	6.4521e-06	439.35	144.64	126.1	43.129	4.7444e-06	53.317	0.00040963	0.00042812	0.00011398	1450.3	4.6768e-06	4.658e-06	1442.5	387.09	4.7167e-06	4.663e-06	443.65	147.91	129.04	44.146	4.6934e-06	54.331	174.494	88.337	83.450	24.921	180.528	162.584	25.370	29.802	205.898	147.874	28.929	33.841	34.336	38.565	169.564	37.816	-8191	255	
767.709	1	1	0	0	0.14504	0.2149	0.071352	0.095734	0.26828	0.12675	0.3995	0.28826	0.19541	0.30612	0.10946	0.22485	0.10236	0.22167	0.10106	0.10129	-0.36875	-0.86667	-1.2646	-0.48958	-1.125	-1.0125	-0.72708	-1.6313	-0.79583	-0.80208	-1.5083	-0.73333	-1.3354	-1.2771	-0.75625	-1.4917	308.022	123.324	127.226	275.120	103.920	285.835	320.781	307.707	343.468	330.559	323.816	51.765	348.749	272.900	127.094	362.476	0.00029575	0.00048685	0.00016054	1443.1	4.4851e-06	5.2047e-06	1432.8	381.41	3.906e-06	6.094e-06	436.45	144.23	125.84	43.066	6.2269e-06	53.152	0.00042632	0.00042315	0.00011401	1452.5	4.7338e-06	4.6851e-06	1443.7	387.3	4.9103e-06	4.776e-06	442.89	147.47	128.81	44.1	4.9528e-06	54.252	168.750	111.580	111.405	24.779	169.046	162.472	24.883	29.572	167.308	168.577	28.958	33.266	33.952	37.966	179.274	37.496	-8191	255	
767.830	1	1	0	0	0.15534	0.13091	0.034149	0.12921	0.21872	0.19843	0.17252	0.11131	0.23385	0.50457	0.185	0.31485	0.24578	0.26823	0.17801	0.24552	-0.4125	-0.75	-1.4583	-0.59375	-1.1958	-1.0896	-0.85625	-1.6604	-0.95625	-0.75	-1.7396	-0.86875	-1.1042	-1.5854	-0.80625	-1.2646	57.931	167.070	325.341	81.946	118.002	292.767	130.396	177.943	172.054	330.480	17.650	306.085	307.172	314.937	47.420	43.116	0.00030375	0.00052889	0.00017435	1449.4	3.8381e-06	4.5306e-06	1428.9	381.82	3.2089e-06	2.9653e-06	438.81	144.1	125.64	42.981	3.2469e-06	53.334	0.00043224	0.00044185	0.00011693	1456.6	4.7374e-06	4.534e-06	1442.7	387.58	4.7987e-06	4.7235e-06	443.72	147.59	128.82	44.037	4.752e-06	54.294	166.443	100.362	107.878	24.694	162.802	163.570	24.789	29.488	186.770	169.558	28.942	33.553	33.987	38.083	181.012	37.606	-8191	255	
767.926	1	1	0	0	0.016018	0.33843	0.2047	0.25655	0.051894	0.087469	0.21778	0.31565	0.10467	0.23941	0.17805	0.25046	0.20793	0.13449	0.057516	0.082472	-0.60417	-0.85208	-1.5354	-0.66458	-1	-1.3583	-0.73333	-1.7188	-0.95833	-0.64375	-1.7833	-0.76667	-1.1458	-1.5104	-0.5625	-1.4417	281.576	94.606	238.451	74.101	202.958	91.114	344.518	296.495	97.479	209.144	31.545	18.356	25.373	34.107	195.680	125.838	0.00030648	0.00033548	0.00020568	1447	4.4731e-06	3.7136e-06	1432.5	381.31	3.8267e-06	6.7187e-06	439.56	144.54	126.46	42.957	4.1078e-06	52.993	0.00041339	0.00043178	0.00011447	1454.2	4.74e-06	4.5767e-06	1443.5	387.71	4.8369e-06	4.589e-06	443.89	147.66	129.02	44.004	4.7403e-06	54.173	168.278	108.739	109.719	24.493	175.225	149.859	24.484	29.203	191.337	168.943	28.723	33.196	33.748	38.025	190.992	37.399	-8191	255	
767.997	1	1	0	0	0.32662	0.24059	0.22497	0.16428	0.35449	0.11827	0.29204	0.134	0.14029	0.12361	0.065969	0.075739	0.17435	0.2488	0.24589	0.19391	-0.55833	-0.58542	-1.5	-0.7625	-0.89167	-1.4312	-0.81875	-1.45	-1.0604	-0.34375	-1.5521	-0.93542	-0.95833	-1.6458	-0.68542	-1.2979	300.126	115.381	216.385	223.486	229.856	16.368	32.013	176.466	336.375	316.040	12.337	335.593	114.240	277.215	202.045	277.267	0.00027634	0.00047199	0.00018907	1440.2	4.4041e-06	5.8798e-06	1432.3	382.24	2.8095e-06	3.898e-06	437.65	143.99	126.14	43.236	5.3082e-06	53.363	0.00041698	0.00042124	0.00011338	1453	4.6451e-06	4.5407e-06	1442.6	387.82	4.6476e-06	4.5728e-06	443.63	147.68	129.06	44.104	4.7063e-06	54.347	170.017	96.503	107.873	24.836	153.422	164.687	24.703	29.384	193.448	155.157	28.742	33.282	33.918	38.105	167.403	37.300	-8191	255	
768.094	1	1	0	0	0.16435	0.11624	0.076152	0.20106	0.27705	0.10815	0.35678	0.22552	0.34271	0.19494	0.33423	0.077727	0.34561	0.23012	0.20877	0.21641	-0.80833	-0.37083	-1.4438	-0.86667	-0.66458	-1.6	-0.9625	-1.2208	-1.3667	-0.71458	-1.375	-1.0562	-0.78958	-1.5396	-0.58542	-1.0958	91.477	264.327	311.207	175.681	307.198	228.708	341.211	281.260	50.260	43.117	321.200	296.234	324.879	28.062	236.066	198.765	0.00027691	0.00045707	0.00011891	1433.2	3.4864e-06	5.2105e-06	1429.8	381.15	4.8664e-06	5.6168e-06	437.29	144.61	126.2	43.116	4.5233e-06	53.346	0.00040754	0.00040891	0.00012024	1451.8	4.647e-06	4.5192e-06	1442.1	387.01	4.6424e-06	4.6812e-06	443.52	147.7	129.17	44.036	4.7554e-06	54.377	171.186	94.182	90.356	24.583	142.294	172.883	24.753	29.400	202.176	160.582	28.838	33.550	34.122	38.364	188.932	37.527	-8191	255	
768.190	1	1	0	0	0.23175	0.14308	0.13667	0.13407	0.12158	0.19202	0.221	0.18107	0.28418	0.19147	0.26663	0.028338	0.08298	0.12805	0.0050393	0.1828	-0.92708	-0.48333	-1.3	-1.0479	-0.57708	-1.6292	-0.85208	-1.1	-1.45	-0.59583	-1.3146	-1.3	-0.68333	-1.6354	-0.75	-0.9875	104.603	112.714	191.556	220.767	324.461	74.347	311.754	287.484	111.530	348.676	14.212	38.468	282.573	355.970	300.797	73.898	0.00027486	0.00054275	0.00016735	1444	4.5049e-06	5.3562e-06	1435.8	383.27	3.3807e-06	5.4953e-06	438.88	144.73	126.28	42.962	4.6292e-06	53.32	0.00041283	0.00042306	0.00011774	1451.1	4.6412e-06	4.4408e-06	1442.6	387.96	4.5222e-06	4.6775e-06	443.13	147.97	128.9	44.041	4.6377e-06	54.305	166.309	104.262	100.843	24.974	180.010	159.815	24.685	29.778	191.042	158.975	29.166	33.587	34.297	38.220	168.533	37.650	-8191	255	
768.309	1	1	0	0	0.19447	0.034239	0.23569	0.078665	0.3218	0.19855	0.55546	0.20676	0.2316	0.1144	0.24413	0.078292	0.26344	0.1866	0.14223	0.25083	-1.0354	-0.47708	-1.2333	-1.2271	-0.61875	-1.425	-0.91875	-0.975	-1.4229	-0.52708	-1.2479	-1.4188	-0.7625	-1.4229	-1.0396	-0.84167	288.651	367.818	198.367	329.804	67.965	238.015	305.727	313.231	227.287	313.972	276.733	25.855	339.414	296.272	67.860	337.077	0.00029285	0.00066025	0.00021777	1444.7	3.991e-06	4.0789e-06	1425.6	379.49	3.2023e-06	5.1794e-06	434.97	144.18	125.69	43.054	4.8984e-06	53.289	0.00040169	0.00041481	0.00011918	1452.4	4.509e-06	4.5337e-06	1438.5	386.55	4.5262e-06	4.6468e-06	441.6	147.69	128.69	44.016	4.581e-06	54.358	168.762	118.904	109.328	24.211	169.411	170.806	24.227	28.993	174.405	170.774	28.565	33.051	33.660	37.786	167.472	37.408	-8191	255	
768.405	1	1	0	0	0.056882	0.13111	0.043736	0.19041	0.38026	0.50385	0.2983	0.39516	0.042781	0.11994	0.24846	0.20396	0.092512	0.18188	0.073009	0.035325	-1.0979	-0.5625	-1.1583	-1.2604	-0.33125	-1.1958	-1.1417	-0.79583	-1.4458	-0.80833	-1.1313	-1.3667	-0.63333	-1.3125	-1.2188	-0.68333	345.946	356.819	261.889	250.446	322.820	363.856	254.637	356.002	198.106	203.565	315.859	214.876	233.911	36.764	289.860	206.077	0.00027627	0.00035295	0.00017983	1440.5	4.6107e-06	4.3664e-06	1426.5	380.98	3.7878e-06	5.9921e-06	436.22	143.74	125.09	43.094	3.1349e-06	53.092	0.0003987	0.00040888	0.00011601	1447.6	4.5501e-06	4.5992e-06	1436	385.91	4.4886e-06	4.4244e-06	441.01	147.29	128.23	43.967	4.4605e-06	54.14	170.880	102.085	109.097	24.171	165.716	170.786	24.357	29.221	199.155	172.426	28.529	33.130	33.659	37.993	152.819	37.317	-8191	255	
768.501	1	1	0	0	0.062803	0.091052	0.072085	0.22129	0.036543	0.037173	0.36063	0.10338	0.14861	0.17514	0.10418	0.17381	0.24547	0.067463	0.078898	0.17409	-1.1396	-0.76042	-0.8625	-1.2896	-0.57083	-1.4146	-1.3563	-0.95208	-1.5229	-0.93125	-1.1437	-1.5458	-0.675	-1.3167	-1.2958	-0.5125	233.301	53.864	12.680	25.193	168.757	96.843	301.325	336.044	28.005	19.483	37.420	325.379	205.189	338.311	229.222	168.352	0.00028605	0.00051197	0.00016487	1435.4	3.6128e-06	6.4659e-06	1421.1	380.43	3.4025e-06	4.8289e-06	435.83	144.33	125.58	43.035	4.6674e-06	53.299	0.00039653	0.00041248	0.00011387	1446.4	4.4824e-06	4.54e-06	1435	385.86	4.6192e-06	4.7367e-06	441.12	147.52	128.56	43.951	4.5489e-06	54.24	172.978	124.053	96.179	24.415	182.077	165.909	24.585	29.106	180.056	153.134	28.862	33.275	34.091	38.266	191.144	37.861	-8191	255	
768.597	1	1	0	0	0.35967	0.30599	0.18914	0.15298	0.079369	0.20767	0.23709	0.28708	0.22265	0.27431	0.1306	0.22326	0.15535	0.14199	0.039546	0.26897	-1.1896	-0.75625	-0.56042	-1.5104	-0.61875	-1.3708	-1.5688	-0.68958	-1.2687	-0.8625	-0.92708	-1.75	-0.60625	-1.2167	-1.4188	-0.87083	156.986	79.029	112.107	180.779	184.036	272.563	348.481	270.505	115.138	11.527	159.608	311.275	333.797	55.981	244.250	309.019	0.00029754	0.0006197	0.00014121	1443	3.644e-06	6.755e-06	1424.6	380.58	3.9383e-06	3.4824e-06	437.9	143.59	125.7	43.069	3.8888e-06	52.967	0.00041868	0.00042544	0.00011768	1450.2	4.729e-06	4.6342e-06	1435.9	385.8	4.6467e-06	4.7387e-06	441.98	147.05	128.52	43.941	4.6689e-06	54.101	167.079	96.277	113.094	24.876	184.665	160.375	24.769	29.433	170.119	145.392	28.812	33.567	34.341	38.388	181.498	37.829	-8191	255	
768.693	1	1	0	0	0.19352	0.31723	0.20247	0.073189	0.14398	0.16138	0.17684	0.41933	0.030737	0.20886	0.15109	0.22214	0.12427	0.089522	0.17204	0.10736	-1.1396	-0.96458	-0.61042	-1.7042	-0.67708	-0.975	-1.7292	-0.63542	-1.3125	-1.1667	-0.81042	-1.7146	-0.85417	-1.0708	-1.3417	-0.55417	211.999	280.647	230.787	163.081	342.096	209.067	292.930	270.237	126.118	175.481	93.040	360.573	343.134	13.360	352.266	142.426	0.00028614	0.00054047	0.00012349	1442.7	4.8024e-06	5.1138e-06	1428.6	379.17	4.3116e-06	5.768e-06	436.72	143.67	125.78	42.88	4.4216e-06	53.013	0.00041945	0.0004459	0.00011941	1448.7	4.993e-06	4.7026e-06	1438	385.34	4.8525e-06	4.7793e-06	441.68	147.03	128.19	43.908	4.6808e-06	54.041	166.212	97.059	118.786	24.432	160.867	157.727	24.823	29.702	197.866	164.589	28.932	33.329	34.219	38.149	174.975	37.431	-8191	255	
768.789	1	1	0	0	0.16831	0.32402	0.25214	0.15668	0.14202	0.22093	0.072829	0.26254	0.12208	0.16192	0.14331	0.23152	0.19205	0.12255	0.11297	0.31266	-1.0042	-1.1146	-0.575	-1.8542	-0.78333	-0.86458	-1.6771	-0.6375	-1.1771	-1.2396	-0.72292	-1.5042	-0.96875	-0.74792	-1.5438	-0.63958	44.329	311.827	295.107	297.595	81.254	263.686	285.603	332.253	159.602	218.761	86.056	113.224	348.131	76.477	267.383	28.667	0.00028657	0.00063521	0.00015775	1446.5	3.9032e-06	6.0774e-06	1424.7	379.89	3.6122e-06	5.0219e-06	436.78	143.83	125.68	42.72	5.2007e-06	52.711	0.00041755	0.00043613	0.0001221	1451.5	4.9328e-06	4.6673e-06	1435.3	385.57	4.8999e-06	4.5315e-06	441.21	146.71	128.19	43.713	4.6695e-06	53.89	172.488	102.384	114.668	24.824	178.942	171.545	24.791	29.536	204.777	169.278	29.044	33.377	33.735	38.292	158.773	37.402	-8191	255	
768.910	1	1	0	0	0.19433	0.234	0.23832	0.23588	0.42006	0.25963	0.37257	0.014244	0.29911	0.13258	0.076189	0.18032	0.11618	0.1825	0.17199	0.17846	-0.75833	-1.1938	-0.56667	-1.2583	-1.0167	-0.8375	-1.6021	-0.77917	-1.0167	-1.2229	-0.7	-1.4354	-0.97292	-0.72917	-1.7125	-0.92292	170.680	181.766	166.079	274.303	30.712	134.919	319.761	322.089	358.866	337.404	201.549	346.845	64.865	24.302	81.606	301.334	0.0002913	0.00052973	0.00015997	1438.8	3.3509e-06	3.9869e-06	1428.5	380.63	4.8452e-06	5.7796e-06	438.9	144.47	126.03	43.215	3.5224e-06	53.221	0.00041456	0.0004247	0.00012065	1450.6	4.8706e-06	4.6798e-06	1439.5	386.78	5.0271e-06	4.697e-06	444.09	148.01	128.9	44.056	4.7655e-06	54.288	172.233	86.093	112.289	25.050	155.333	168.997	24.652	29.203	195.548	170.058	28.882	33.273	33.879	38.208	181.424	37.545	-8191	255	
769.006	1	1	0	0	0.11571	0.25858	0.12849	0.27551	0.17738	0.219	0.060019	0.37008	0.24679	0.26965	0.23436	0.030238	0.18342	0.14529	0.14044	0.31136	-0.70417	-1.4833	-0.5	-1.1437	-1.1375	-0.51875	-1.6521	-0.81042	-0.95833	-1.4729	-0.87292	-1.4896	-1.3271	-0.98125	-1.5875	-0.88542	241.765	272.771	195.560	12.716	244.226	340.832	271.750	24.646	180.436	204.816	38.710	198.107	248.803	100.955	223.533	294.180	0.00028861	0.00050164	0.00013156	1445.1	4.0085e-06	4.1088e-06	1425.3	380.31	3.5911e-06	4.8272e-06	437.01	143.15	124.5	42.8	5.1249e-06	52.878	0.00041797	0.00042094	0.0001177	1455.5	4.6266e-06	4.6801e-06	1438.6	386.35	4.8109e-06	4.4783e-06	441.89	146.64	127.71	43.713	4.7564e-06	53.788	169.331	105.464	115.092	24.398	153.540	178.102	24.635	29.369	192.883	158.825	28.982	33.408	34.130	38.624	172.081	37.660	-8191	255	
769.100	1	1	0	0	0.082558	0.15301	0.25148	0.024332	0.059954	0.1407	0.16309	0.17673	0.13871	0.045032	0.28005	0.087557	0.068442	0.18284	0.16379	0.18262	-0.33958	-1.3375	-0.56458	-1.2375	-1.2979	-0.59792	-1.6979	-1.0583	-0.76458	-1.5292	-0.825	-1.4229	-1.3687	-0.76458	-1.4667	-1.1042	344.689	206.339	253.790	350.712	322.644	329.287	329.322	314.957	357.968	220.972	325.002	119.705	132.017	333.691	39.190	354.960	0.00029213	0.00046436	0.00011524	1430.2	4.0787e-06	4.3584e-06	1422	378.89	3.5132e-06	6.0861e-06	435.26	143.26	125.38	42.944	4.5818e-06	52.611	0.00041492	0.00041698	0.00012191	1443.7	4.6674e-06	4.82e-06	1431.9	384.59	4.7378e-06	4.5996e-06	440.1	146.4	127.79	43.767	4.6374e-06	53.845	168.634	98.399	106.698	24.181	161.937	182.188	24.756	29.307	197.706	154.869	28.871	33.750	34.111	38.257	165.277	37.471	-8191	255	
769.198	1	1	0	0	0.062195	0.23544	0.023533	0.11579	0.14983	0.44082	0.34149	0.052189	0.16506	0.1803	0.33847	0.23802	0.027788	0.15124	0.28706	0.098287	-0.41875	-1.4042	-0.64167	-1.0042	-1.2833	-0.60417	-1.525	-1.3062	-0.81458	-1.3354	-0.80625	-0.85833	-1.5562	-0.6875	-1.3708	-1.2104	187.161	146.056	358.498	20.735	107.422	51.652	311.951	104.957	193.075	251.000	89.143	362.634	318.783	113.819	180.864	312.003	0.00028826	0.00048178	0.00014221	1440.2	5.318e-06	4.8092e-06	1429.6	380.2	3.2303e-06	6.6791e-06	435.39	143.62	125.38	42.9	3.9531e-06	52.798	0.00041086	0.00042967	0.00012437	1451.4	4.6564e-06	4.6917e-06	1439.2	385.49	4.5608e-06	4.5226e-06	441.22	146.83	127.95	43.71	4.6604e-06	53.986	170.367	81.050	123.599	24.750	179.920	170.157	24.983	29.315	170.637	160.072	28.515	33.133	33.401	37.787	200.868	36.994	-8191	255	
769.293	1	1	0	0	0.16308	0.2263	0.077209	0.095574	0.13383	0.13805	0.15726	0.19298	0.35155	0.10614	0.10385	0.34152	0.3166	0.09543	0.24483	0.39593	-0.31667	-1.4	-0.85208	-1.1146	-1.6479	-0.64583	-1.4083	-1.3625	-0.62917	-1.6083	-1.0646	-1.0104	-1.5708	-0.68125	-1.1812	-1.475	194.730	362.917	176.681	349.671	36.596	234.168	331.961	347.625	319.911	32.818	31.242	343.504	15.049	58.935	163.711	33.621	0.00029462	0.00073726	0.00013685	1429	5.0351e-06	4.5845e-06	1423.4	377.84	5.2385e-06	4.8364e-06	434.81	143.24	125.11	42.662	3.5321e-06	52.914	0.00041082	0.00041638	0.00012203	1444.4	4.5735e-06	4.656e-06	1435.6	384.8	4.8699e-06	4.6799e-06	440	146.37	127.8	43.618	4.5905e-06	53.82	174.728	97.896	101.716	24.508	177.099	152.458	24.903	29.471	182.914	151.968	29.099	33.585	34.127	38.225	175.644	37.548	-8191	255	
769.389	1	1	0	0	0.019438	0.070884	0.22936	0.41116	0.10101	0.37155	0.19785	0.14738	0.03781	0.27718	0.20209	0.12965	0.31783	0.1221	0.2898	0.092907	-0.32083	-1.4188	-0.76875	-1.0375	-1.4417	-0.53333	-1.6104	-1.1708	-0.49375	-1.3542	-1.1208	-0.74792	-1.6417	-0.87292	-0.94583	-1.4375	240.170	300.530	20.517	347.537	153.575	335.073	297.274	159.678	322.462	31.428	208.567	303.156	21.576	83.806	342.835	345.097	0.00029908	0.00043365	0.00013402	1426.8	4.8808e-06	6.0839e-06	1424.5	378.62	2.5738e-06	5.7945e-06	436.13	142.99	125.71	42.861	3.7079e-06	52.87	0.00040412	0.00042699	0.00011704	1441.5	4.4102e-06	4.7215e-06	1435.9	384.89	4.64e-06	4.5272e-06	441.01	146.68	128.28	43.823	4.7475e-06	53.937	166.543	109.309	94.656	24.219	176.708	177.277	24.479	29.083	189.711	177.136	28.953	33.361	33.737	37.742	144.493	37.242	-8191	255	
769.510	1	1	0	0	0.042165	0.20549	0.15595	0.079874	0.162	0.068392	0.41611	0.19546	0.31747	0.27603	0.16112	0.24331	0.22322	0.071127	0.31906	0.25715	-0.047917	-1.4708	-0.94792	-0.76458	-1.5792	-0.62083	-1.0375	-1.6354	-0.57292	-1.2125	-1.3167	-0.75208	-1.6271	-0.77917	-0.88333	-1.5979	252.434	329.530	351.349	50.364	269.766	200.154	281.933	331.101	357.650	74.542	310.930	259.918	356.029	65.022	270.891	338.982	0.00028516	0.00056846	0.00012481	1447.6	5.1478e-06	5.2468e-06	1427	380.93	4.3504e-06	5.5569e-06	437.06	142.73	124.31	42.652	3.0628e-06	52.781	0.00042442	0.0004331	0.00011966	1450.7	4.6859e-06	4.6471e-06	1437.4	385.97	4.8864e-06	4.6369e-06	441.07	146.47	127.6	43.65	4.7378e-06	53.887	170.335	87.235	108.877	24.839	166.411	157.228	24.869	29.462	174.546	153.123	28.909	33.475	34.350	38.160	195.006	37.532	-8191	255	
769.606	1	1	0	0	0.099328	0.058503	0.051894	0.47556	0.19319	0.20031	0.3362	0.080208	0.066397	0.16267	0.17105	0.3488	0.18848	0.1424	0.15349	0.2078	-0.1875	-1.2104	-1.2417	-0.54167	-1.4562	-0.81875	-1.1812	-1.6833	-0.57708	-1.2938	-1.3333	-0.7	-1.4146	-0.85833	-0.5	-1.5146	121.687	324.842	242.120	14.378	355.690	213.467	319.521	356.585	198.335	332.524	92.135	31.212	13.606	358.314	22.902	348.515	0.000286	0.00047798	0.00017545	1430.8	6.1045e-06	4.1863e-06	1421.2	376.98	3.367e-06	3.6874e-06	436.8	142.93	124.44	42.715	4.6405e-06	52.684	0.00041354	0.00043479	0.00011661	1442.3	4.6321e-06	4.6835e-06	1433.9	383.44	4.8874e-06	4.6194e-06	439.89	146.17	127.59	43.62	4.7079e-06	53.712	172.697	86.756	95.983	24.713	160.165	165.994	24.852	29.334	200.792	147.668	29.086	33.731	34.180	37.986	155.151	37.348	-8191	255	
769.702	1	1	0	0	0.28588	0.13856	0.014089	0.32094	0.21033	0.12809	0.54405	0.24336	0.27712	0.080365	0.17514	0.029695	0.1084	0.22738	0.096727	0.36389	-0.27292	-0.94167	-1.2938	-0.47917	-1.4396	-1.0271	-0.81667	-1.5833	-0.66667	-1.0854	-1.3146	-0.67708	-1.2396	-1.2125	-0.78333	-1.4875	51.502	330.662	335.661	353.042	133.070	61.020	340.101	338.228	272.777	147.624	348.197	289.973	33.962	90.455	117.063	16.730	0.00029179	0.00059582	0.00017262	1439.1	4.085e-06	6.2083e-06	1424.7	377.8	3.1937e-06	7.1165e-06	435.53	143.13	125.14	42.741	5.1482e-06	52.808	0.00041851	0.00042976	0.00011681	1445.7	4.6162e-06	4.6064e-06	1435.8	384.44	4.7895e-06	4.6901e-06	440.82	146.44	127.82	43.662	4.5864e-06	53.814	168.954	101.090	113.970	24.141	177.996	166.350	24.345	28.875	192.783	154.700	28.402	32.959	33.473	37.766	156.194	37.159	-8191	255	
769.798	1	1	0	0	0.36849	0.28689	0.18549	0.12095	0.18791	0.22559	0.32347	0.14599	0.20129	0.18268	0.224	0.059571	0.24137	0.18544	0.15605	0.15064	-0.42292	-0.78542	-1.4083	-0.54375	-1.1417	-1.0875	-0.76042	-1.5542	-0.7375	-0.93125	-1.6292	-0.49792	-1.3167	-1.4167	-0.47292	-1.5292	349.731	358.609	182.265	295.188	128.199	335.974	315.752	369.974	31.215	52.824	28.849	258.378	341.040	355.804	184.734	289.739	0.00026344	0.00033377	0.00011012	1429.5	3.3602e-06	4.3199e-06	1414.7	377.72	4.0857e-06	4.5736e-06	433.43	142.75	124.8	42.63	4.7313e-06	52.733	0.00041007	0.00042082	0.00010885	1442.5	4.5699e-06	4.4858e-06	1428.1	383.05	4.7234e-06	4.5216e-06	438.15	146.09	127.58	43.583	4.6103e-06	53.833	171.111	99.408	100.117	24.117	166.865	171.343	24.159	28.878	184.202	153.851	28.543	32.971	33.692	37.772	183.499	37.018	-8191	255	
769.870	1	1	0	0	0.17363	0.1486	0.080432	0.21615	0.15319	0.041556	0.23135	0.28096	0.28668	0.24448	0.1448	0.14619	0.19762	0.5117	0.095641	0.17819	-0.35833	-0.8125	-1.5417	-0.46875	-0.95625	-1.3083	-0.75417	-1.3521	-0.82708	-0.61458	-1.4292	-0.6375	-0.95417	-1.3854	-0.24583	-1.3542	59.710	294.643	82.693	75.541	203.545	11.936	295.208	351.221	196.119	230.094	287.919	366.347	40.613	30.255	151.068	350.136	0.00030382	0.00062406	0.0001509	1438.1	5.351e-06	4.8496e-06	1416.3	377.33	3.0934e-06	4.1706e-06	432.18	142.64	124.51	42.517	5.3176e-06	52.527	0.00041115	0.00042377	0.00011207	1441.7	4.6354e-06	4.4517e-06	1430.2	383.38	4.6699e-06	4.5335e-06	438.55	146.05	127.38	43.548	4.6254e-06	53.662	170.489	100.347	86.454	24.159	159.604	181.457	24.101	28.769	174.175	166.818	28.568	32.793	33.601	37.628	157.872	37.150	-8191	255	
769.989	1	1	0	0	0.21417	0.1162	0.35271	0.17189	0.12279	0.23366	0.29757	0.52549	0.23969	0.26714	0.053495	0.27197	0.22633	0.12737	0.1229	0.27626	-0.41875	-0.40417	-1.5042	-0.51667	-0.90208	-1.3542	-0.77917	-1.4667	-1.0625	-0.60417	-1.6208	-0.78542	-0.84583	-1.2792	-0.7125	-1.1292	76.824	38.831	112.496	217.521	364.658	223.855	342.104	322.749	72.220	268.133	154.080	321.783	266.543	73.243	60.965	229.120	0.00030635	0.00067915	0.00014123	1425.6	5.296e-06	6.6548e-06	1418.9	377.34	4.7717e-06	5.9302e-06	434.63	142.14	124.61	42.83	3.7815e-06	53.016	0.00040999	0.00042285	0.00011259	1438.5	4.6567e-06	4.4676e-06	1429.4	383.42	4.7586e-06	4.7364e-06	439.52	145.99	127.69	43.689	4.6462e-06	53.92	170.553	108.229	94.610	24.116	161.915	168.161	24.160	28.984	205.825	182.802	28.472	33.062	33.585	37.695	180.006	36.996	-8191	255	
770.086	1	1	0	0	0.33061	0.19776	0.13005	0.14271	0.17582	0.099109	0.18748	0.18183	0.25471	0.074027	0.16712	0.027148	0.24907	0.28803	0.077989	0.20565	-0.6875	-0.6125	-1.3438	-0.8375	-0.6	-1.3229	-0.78958	-1.1396	-1.0354	-0.36042	-1.3333	-0.77292	-0.91458	-1.4042	-0.42917	-1.2479	337.398	171.785	183.461	340.745	214.871	110.314	225.744	329.905	267.876	315.332	44.119	297.547	33.974	280.854	241.287	27.143	0.00028362	0.00059046	0.00016782	1434.4	5.3173e-06	4.7349e-06	1421.4	380.09	4.1402e-06	6.2701e-06	436.33	143.76	125.8	43.094	4.5694e-06	53.065	0.00041972	0.00042502	0.0001158	1444.4	4.6243e-06	4.4385e-06	1434.3	385.31	4.621e-06	4.4855e-06	441.27	147.12	128.23	43.952	4.6264e-06	54.194	169.810	86.559	96.877	24.145	179.218	184.393	24.191	28.974	187.412	163.127	28.593	32.935	33.559	37.916	169.939	36.942	-8191	255	
770.181	1	1	0	0	0.11186	0.1443	0.20533	0.29342	0.1147	0.27589	0.32796	0.33717	0.071843	0.17534	0.059666	0.31405	0.19329	0.26917	0.15147	0.04589	-0.90833	-0.4875	-1.2333	-0.83125	-0.66042	-1.4604	-0.72083	-1.1896	-1.4083	-0.54792	-1.5562	-1.0083	-0.70833	-1.5688	-0.54583	-0.96667	302.919	190.997	277.420	72.468	280.124	259.442	299.073	341.321	118.788	68.778	28.547	292.830	179.665	369.985	239.543	247.967	0.00029511	0.00049124	0.00013065	1439.1	5.0916e-06	5.0497e-06	1419.7	379.02	2.7213e-06	4.9827e-06	434.21	143.27	125.27	42.856	5.1294e-06	53.026	0.00039816	0.00040435	0.00011218	1445.1	4.5346e-06	4.3152e-06	1433.6	384.56	4.5057e-06	4.506e-06	440.33	146.81	128.05	43.809	4.6324e-06	54.046	172.874	106.784	114.074	24.365	169.699	157.588	24.383	28.885	200.717	174.720	28.530	33.038	33.573	37.786	167.331	37.008	-8191	255	
770.279	1	1	0	0	0.05865	0.082157	0.21849	0.10889	0.18198	0.14307	0.28903	0.4124	0.2564	0.33261	0.10574	0.26717	0.077942	0.20526	0.2059	0.23845	-1.0479	-0.44583	-1.1042	-0.97292	-0.31667	-1.1667	-0.91042	-0.98125	-1.4854	-0.65	-1.2687	-1.1479	-0.6	-1.4875	-0.6875	-0.66667	118.136	327.377	257.017	332.490	167.644	346.610	302.565	308.739	12.602	341.056	291.792	296.147	213.842	295.712	66.447	265.292	0.00028838	0.00074276	0.00016682	1434.8	4.3317e-06	4.7276e-06	1416.6	377.74	3.37e-06	6.3383e-06	433.35	143.69	125.12	42.775	6.0584e-06	52.717	0.00040044	0.00041621	0.00011449	1442.7	4.5858e-06	4.3737e-06	1430.8	383.8	4.476e-06	4.5827e-06	438.82	146.82	127.95	43.743	4.6852e-06	53.922	170.685	101.704	102.507	24.080	167.902	137.856	24.028	28.933	198.886	179.626	28.587	32.913	33.532	37.634	178.492	37.064	-8191	255	
770.398	1	1	0	0	0.070976	0.25727	0.18478	0.029566	0.097207	0.11909	0.27243	0.18814	0.31278	0.23083	0.069842	0.005761	0.042855	0.066051	0.076797	0.082559	-0.90625	-0.59167	-1.0542	-1.225	-0.58333	-1.5354	-1.1479	-0.87708	-1.5	-0.58333	-1.1521	-1.4104	-0.49167	-1.4583	-0.74375	-0.89792	31.772	19.132	127.688	286.481	110.359	70.955	295.666	265.108	161.831	287.029	268.984	275.160	237.821	26.612	236.156	90.348	0.00030364	0.0006532	0.00014377	1434.4	5.1391e-06	4.4543e-06	1422.1	377.99	3.5187e-06	5.5517e-06	434.17	143.38	124.84	42.947	5.0644e-06	53.02	0.00039672	0.00042401	0.0001148	1444	4.5958e-06	4.4346e-06	1431.9	383.63	4.4467e-06	4.4277e-06	439.91	146.65	127.9	43.846	4.6355e-06	54.038	172.018	97.214	86.860	23.918	164.444	139.308	24.194	28.929	183.957	160.271	28.356	33.071	33.641	37.650	167.098	37.333	-8191	255	
770.494	1	1	0	0	0.26949	0.055022	0.29906	0.16824	0.090267	0.12805	0.15709	0.11197	0.12133	0.034179	0.21061	0.10978	0.3147	0.056345	0.16653	0.12174	-1.15	-0.43125	-1.1021	-1.3375	-0.42083	-1.3396	-1.0896	-0.71875	-1.5438	-0.7125	-1.2188	-1.4792	-0.6875	-1.4375	-1.0729	-0.75208	153.365	249.842	328.758	75.053	290.548	56.997	337.113	230.184	280.930	364.976	332.536	264.322	361.489	330.852	336.891	282.977	0.00029204	0.00081655	0.00011762	1434.3	4.811e-06	4.8346e-06	1420.9	379.38	5.3411e-06	6.4164e-06	434.05	143.67	124.94	43.048	4.4136e-06	52.976	0.0004029	0.00042273	0.0001164	1445.1	4.5657e-06	4.5826e-06	1432.6	384.33	4.4993e-06	4.7595e-06	440.34	147.07	128.09	43.926	4.6481e-06	54.103	171.188	106.479	108.288	23.882	174.501	166.662	24.068	28.835	191.092	178.433	28.266	32.848	33.514	37.756	187.716	37.171	-8191	255	
770.590	1	1	0	0	0.14788	0.17709	0.27767	0.34455	0.14104	0.19316	0.34644	0.22375	0.038764	0.29071	0.23906	0.29686	0.27622	0.34907	0.050207	0.18095	-1.125	-0.68125	-0.94167	-1.35	-0.58958	-1.3458	-1.6021	-0.74583	-1.3104	-1.0625	-0.97708	-1.7313	-0.68125	-1.2583	-1.3354	-0.71875	250.604	189.386	333.613	361.043	149.865	248.563	295.154	31.449	21.292	274.092	277.612	311.997	302.730	259.016	72.825	30.410	0.00029333	0.00053056	0.0001508	1427.3	4.2708e-06	4.4461e-06	1419.7	379.87	3.0442e-06	5.3926e-06	436.9	143.32	124.55	42.921	4.8429e-06	52.945	0.00040794	0.00042839	0.0001169	1441.2	4.6875e-06	4.5294e-06	1433.9	384.27	4.5693e-06	4.6703e-06	440.91	146.73	127.91	43.874	4.5634e-06	54.03	174.302	114.213	129.869	23.836	164.289	152.799	23.890	28.749	185.300	173.025	28.461	32.714	33.394	37.805	171.749	36.875	-8191	255	
770.686	1	1	0	0	0.27629	0.13562	0.18222	0.21785	0.080302	0.040605	0.21262	0.1928	0.17396	0.088381	0.20331	0.16313	0.16185	0.0031074	0.11697	0.25721	-1.1396	-0.88125	-0.55417	-1.5812	-0.64167	-1.1187	-1.525	-0.70833	-1.4229	-1.0812	-0.84167	-1.8167	-0.61875	-1.0417	-1.3292	-0.68542	78.279	29.537	294.153	348.858	289.151	19.459	308.839	20.044	367.054	321.163	355.799	358.512	326.131	93.411	239.261	322.626	0.00029203	0.00052454	0.00019282	1429.9	5.0766e-06	3.8712e-06	1421.3	378.66	3.4108e-06	5.4835e-06	434.86	144.04	124.95	42.893	4.4674e-06	52.787	0.00040558	0.00041662	0.00011368	1442.1	4.7342e-06	4.5671e-06	1432.4	384.42	4.6112e-06	4.6832e-06	440.37	147.17	127.9	43.843	4.6421e-06	53.937	167.597	99.526	101.285	24.402	164.995	147.099	24.097	29.015	184.117	168.760	28.407	32.889	33.465	37.660	177.652	37.051	-8191	255	
770.782	1	1	0	0	0.073079	0.34255	0.086096	0.26749	0.088243	0.11963	0.39206	0.10287	0.42066	0.20537	0.5478	0.13646	0.20462	0.22163	0.2142	0.1486	-1.2125	-0.98333	-0.63125	-1.4896	-0.62917	-0.81667	-1.6146	-0.75208	-1.2563	-1.2396	-0.82917	-1.6729	-0.95	-0.84792	-1.4875	-0.64375	130.175	240.396	172.674	252.418	50.705	66.778	367.189	302.344	252.360	301.621	328.221	140.848	26.205	274.771	248.588	211.435	0.00029283	0.00034772	0.00011906	1442.4	4.7762e-06	6.629e-06	1426	379.53	4.1996e-06	7.5329e-06	436.01	143.8	125.15	43.025	5.1116e-06	53.054	0.00041337	0.00044343	0.00011707	1445.2	4.6687e-06	4.623e-06	1437.6	385.05	4.8384e-06	4.6729e-06	441.06	146.96	128.12	43.918	4.5272e-06	54.132	169.223	91.509	118.348	24.171	163.130	176.065	24.263	28.685	197.586	174.269	28.126	32.816	33.504	37.781	168.837	37.008	-8191	255	
770.878	1	1	0	0	0.24416	0.11789	0.074146	0.24536	0.25649	0.25594	0.085584	0.14474	0.35098	0.035602	0.12373	0.2538	0.20082	0.24911	0.14688	0.16728	-0.92708	-1.0333	-0.40208	-1.4979	-0.95208	-0.94375	-1.8667	-1.0292	-1.0958	-1.3229	-0.55208	-1.5375	-1.0583	-0.825	-1.4979	-0.80208	44.509	95.091	55.439	295.489	148.469	68.691	97.657	230.589	192.496	83.010	12.808	201.296	60.751	49.983	166.832	325.870	0.00027906	0.00045377	0.00014662	1434.5	4.1425e-06	4.1725e-06	1427.9	379.47	3.7004e-06	5.4368e-06	436.77	143.96	125.06	42.856	4.3788e-06	53.033	0.00041042	0.00042562	0.00011719	1447.1	4.683e-06	4.5681e-06	1438.7	384.97	4.7669e-06	4.5672e-06	441.04	147.1	128.01	43.899	4.5596e-06	54.095	169.602	89.418	121.181	24.141	189.941	165.221	24.289	29.065	193.469	154.840	28.449	33.100	33.559	37.858	180.359	37.154	-8191	255	
770.999	1	1	0	0	0.23253	0.14037	0.090257	0.19846	0.12446	0.24626	0.16809	0.29568	0.10319	0.068116	0.14222	0.32762	0.15527	0.12005	0.34896	0.099829	-0.825	-1.3813	-0.60208	-1.6458	-1.0333	-0.73958	-1.7771	-0.92292	-0.91667	-1.2458	-0.45833	-1.35	-1.1125	-0.5125	-1.4896	-0.725	231.265	308.105	265.925	262.432	204.934	57.204	335.382	341.978	322.320	33.729	75.935	305.016	116.135	322.366	69.148	31.527	0.0002829	0.00049032	0.00015136	1444	3.5334e-06	4.5175e-06	1424.3	378.68	3.8218e-06	3.8705e-06	434.47	144.42	125.91	42.903	4.4718e-06	52.821	0.00040902	0.00040158	0.00011607	1448.7	4.6279e-06	4.4785e-06	1436	384.35	4.6935e-06	4.4049e-06	441.01	147.22	128.3	43.857	4.4873e-06	54.036	169.373	116.358	113.431	23.978	169.624	162.275	24.188	28.843	180.939	166.398	28.288	32.987	33.470	37.329	176.367	37.021	-8191	255	
771.093	1	1	0	0	0.11887	0.041105	0.074881	0.19609	0.20068	0.1562	0.34609	0.25693	0.29051	0.26798	0.14437	0.55754	0.040545	0.29509	0.16318	0.16028	-0.38542	-1.5146	-0.60417	-1.2354	-1.075	-0.51875	-1.7875	-0.8875	-0.86667	-1.5479	-0.78333	-1.3167	-1.2167	-0.55208	-1.4771	-0.98125	156.428	202.800	118.027	357.234	83.301	99.260	293.256	302.556	21.080	144.491	35.886	343.788	163.461	295.244	328.227	90.617	0.00026216	0.00053313	0.00014197	1428.4	3.2412e-06	6.4829e-06	1421	378.55	3.947e-06	4.11e-06	434.11	144.37	125.43	42.895	4.3421e-06	53.185	0.00040833	0.00040051	0.00011641	1443.1	4.6198e-06	4.4455e-06	1433.1	383.88	4.6553e-06	4.1938e-06	440.03	147.43	128.13	43.913	4.5301e-06	54.103	172.123	91.891	112.481	24.074	176.997	168.898	24.199	28.861	184.669	171.373	28.389	32.903	33.535	37.473	188.658	36.857	-8191	255	
771.167	1	1	0	0	0.13297	0.2825	0.14089	0.13903	0.028959	0.11327	0.20147	0.41266	0.15329	0.031753	0.24374	0.11813	0.14529	0.17572	0.098543	0.38391	-0.53333	-1.4771	-0.56875	-0.975	-1.0333	-0.65625	-1.5833	-0.89792	-0.62917	-1.5458	-0.83542	-1.2875	-1.6083	-0.60208	-1.3396	-1.1375	52.080	35.723	61.633	301.491	221.919	93.909	337.739	284.105	332.670	111.613	329.170	281.154	60.386	368.265	63.054	314.833	0.00030491	0.00039842	0.00018263	1431	4.6315e-06	6.8613e-06	1420.3	377.65	4.64e-06	7.039e-06	433.38	143.5	125.26	43.029	5.2279e-06	53.001	0.00041091	0.00040545	0.00011735	1443.3	4.4646e-06	4.3632e-06	1432.4	383.71	4.7488e-06	4.354e-06	439.28	146.96	128.14	43.867	4.6069e-06	54.047	172.602	96.558	104.383	23.881	160.249	168.798	24.292	28.809	191.245	152.450	28.360	32.714	33.465	37.711	178.799	36.731	-8191	255	
771.286	1	1	0	0	0.39136	0.32372	0.30475	0.24154	0.16385	0.27824	0.10191	0.51894	0.084247	0.17448	0.21903	0.19456	0.29118	0.12715	0.28115	0.13131	-0.27292	-1.6437	-0.74375	-1.0083	-1.5521	-0.54375	-1.45	-1.1313	-0.68542	-1.4146	-0.85	-1.0646	-1.475	-0.67292	-1.1333	-1.5583	241.598	368.343	54.634	299.493	242.179	290.779	325.409	332.699	361.077	40.431	62.612	279.510	367.567	89.226	53.892	119.033	0.00028626	0.00059914	0.00016761	1434.5	5.2687e-06	6.5073e-06	1421.3	377.98	3.1411e-06	5.8167e-06	434.4	143.55	125.78	43.014	4.6518e-06	52.995	0.00040689	0.00040611	0.00011681	1445.3	4.4759e-06	4.5605e-06	1433.6	383.78	4.5834e-06	4.4436e-06	439.39	147.01	128.44	43.917	4.5615e-06	54.135	168.856	91.872	84.874	24.336	176.672	172.660	24.022	28.709	190.276	154.133	28.124	32.959	33.224	37.595	190.756	36.774	-8191	255	
771.382	1	1	0	0	0.31523	0.17487	0.14111	0.11634	0.10887	0.12012	0.39628	0.37904	0.036444	0.18368	0.12882	0.19015	0.31662	0.28959	0.089953	0.10782	-0.23125	-1.3312	-0.75417	-1.0208	-1.4229	-0.56042	-1.4813	-1.4854	-0.60417	-1.5375	-1.2417	-1.0229	-1.5042	-0.77917	-0.93542	-1.6063	354.855	32.162	91.690	330.603	183.211	192.741	347.176	353.920	229.975	227.799	312.621	327.894	364.569	286.353	214.631	48.751	0.00028957	0.00054962	0.00014174	1443.5	3.7005e-06	3.6202e-06	1420.7	377.79	3.1845e-06	4.4868e-06	434.67	143.28	125.19	42.964	6.1776e-06	53.119	0.00040748	0.00039446	0.00011778	1447.4	4.4157e-06	4.5549e-06	1434.4	383.65	4.7656e-06	4.506e-06	440.65	147.08	128.09	43.918	4.8675e-06	54.007	167.455	95.202	123.813	24.029	194.807	176.052	24.047	28.764	180.760	189.406	28.156	32.766	33.320	37.380	158.702	36.819	-8191	255	
771.478	1	1	0	0	0.50078	0.16515	0.11579	0.36356	0.12848	0.13294	0.051051	0.021146	0.33759	0.089836	0.22657	0.15421	0.121	0.24728	0.038582	0.30396	-0.066667	-1.525	-1.0083	-0.72292	-1.4604	-0.65208	-1.375	-1.5625	-0.71458	-1.3813	-1.1792	-0.74375	-1.5146	-0.94583	-1.1208	-1.6229	215.766	186.773	73.778	10.683	45.375	202.673	254.082	225.273	261.850	228.249	340.082	361.368	35.166	359.873	364.439	206.721	0.00029969	0.00057074	0.00015781	1433.8	5.0057e-06	5.2144e-06	1421.2	378.99	3.5794e-06	5.431e-06	434.83	143.66	125.43	43.009	4.8083e-06	52.928	0.00041989	0.00042764	0.00011579	1445.4	4.4643e-06	4.7238e-06	1435	384.25	4.6507e-06	4.8543e-06	441.5	147.05	128.36	43.952	4.8863e-06	54.038	170.188	105.276	96.730	23.673	176.152	179.403	24.136	28.389	207.394	157.528	28.091	32.671	33.119	37.418	179.771	36.953	-8191	255	
771.574	1	1	0	0	0.30372	0.12433	0.17087	0.17625	0.28236	0.15178	0.027127	0.36476	0.1994	0.29364	0.42313	0.23636	0.21542	0.10386	0.15487	0.16035	-0.26875	-1.2979	-1.1583	-0.60208	-1.4208	-0.74375	-0.91458	-1.7188	-0.73333	-1.1167	-1.2896	-0.59167	-1.5417	-0.9625	-0.78542	-1.6146	159.269	261.122	28.919	11.773	118.524	68.347	327.592	296.979	306.128	70.275	232.072	275.194	304.637	298.103	182.042	316.907	0.00030812	0.00051866	0.0001881	1435.6	4.3571e-06	4.1288e-06	1425.5	378.54	2.5466e-06	6.4612e-06	434.56	143.4	125.97	43.016	4.7379e-06	52.936	0.00041976	0.00043131	0.00011915	1447.5	4.6026e-06	4.6577e-06	1436	384.54	4.7782e-06	4.5553e-06	440.59	146.88	128.38	43.91	4.797e-06	54.03	166.602	92.150	91.672	24.182	174.798	167.685	24.133	28.743	199.386	163.197	28.260	32.819	33.348	37.218	183.160	36.816	-8191	255	
771.695	1	1	0	0	0.18127	0.11417	0.13942	0.23778	0.14974	0.16504	0.21298	0.053824	0.098633	0.10804	0.1588	0.21573	0.29367	0.31815	0.25183	0.34515	-0.16042	-0.99792	-1.3104	-0.59792	-1.4604	-1.0333	-1.2646	-1.5396	-0.66667	-1.2188	-1.4688	-0.66042	-1.5833	-1.0792	-0.70833	-1.5771	330.094	291.040	27.190	357.616	26.598	65.463	295.190	48.636	118.522	222.439	323.908	268.780	15.732	28.532	58.334	353.763	0.00028165	0.00044054	0.00023091	1443.9	3.9531e-06	5.0232e-06	1422.5	378.78	4.1305e-06	5.4234e-06	434.69	143.51	125.5	42.787	5.1449e-06	53.037	0.00041373	0.00043813	0.00012023	1446.3	4.5994e-06	4.8352e-06	1437.5	384.45	4.8586e-06	4.7126e-06	440.69	146.95	128.28	43.868	4.7299e-06	54.063	174.178	89.986	119.710	23.832	157.124	153.604	23.979	28.732	200.985	144.942	28.038	32.855	33.394	37.572	164.583	37.309	-8191	255	
771.791	1	1	0	0	0.11418	0.25644	0.10781	0.067601	0.17575	0.20356	0.066709	0.19264	0.15852	0.15563	0.026163	0.25002	0.020061	0.32212	0.13385	0.056438	-0.37083	-0.93125	-1.3167	-0.66458	-1.2542	-1.0562	-0.78333	-1.6812	-0.65	-0.9375	-1.5875	-0.59167	-1.4896	-1.1271	-0.55625	-1.5542	352.326	324.480	10.909	198.960	164.658	114.647	251.826	362.080	163.794	279.282	214.677	11.386	350.785	335.986	141.703	306.875	0.00027316	0.00047025	0.00013331	1437	5.6817e-06	5.3989e-06	1426.1	378.46	3.1124e-06	6.1363e-06	433.43	143.47	125.66	42.905	3.801e-06	53.013	0.00041421	0.00043348	0.00011672	1447	4.5233e-06	4.7578e-06	1436.4	384.37	4.673e-06	4.7549e-06	440.14	146.91	128.37	43.878	4.7205e-06	54.057	171.677	97.341	75.231	23.782	169.915	168.957	24.024	28.608	182.581	184.442	28.167	32.796	33.359	37.346	158.052	36.877	-8191	255	
771.863	1	1	0	0	0.12265	0.18563	0.2821	0.39545	0.12597	0.042904	0.22355	0.14667	0.24056	0.14593	0.1866	0.30074	0.13393	0.044764	0.15671	0.1285	-0.64375	-0.8	-1.275	-0.67292	-1.2437	-1.1104	-0.92292	-1.6021	-0.90625	-0.8125	-1.5771	-0.7875	-1.3292	-1.4833	-0.6875	-1.5063	70.055	215.245	148.681	260.812	44.449	68.734	307.900	270.453	86.454	317.717	108.714	343.210	303.202	36.548	119.019	65.317	0.00027693	0.00073412	0.00011287	1435.2	5.1967e-06	4.5614e-06	1418.5	377.24	4.2285e-06	5.2002e-06	435.34	143.56	125.19	43.034	5.6232e-06	53.072	0.00041847	0.00042589	0.0001175	1445.1	4.6817e-06	4.7013e-06	1435.2	383.96	4.9659e-06	4.7109e-06	440.42	146.97	128.34	43.957	4.6978e-06	54.094	171.014	84.704	112.662	23.690	173.766	165.739	24.187	28.616	188.962	159.357	28.251	32.719	33.566	37.414	170.245	36.769	-8191	255	
771.959	1	1	0	0	0.36539	0.23584	0.031686	0.17725	0.1838	0.15412	0.10974	0.21896	0.21946	0.077414	0.24667	0.0408	0.26083	0.25554	0.24054	0.14571	-0.48542	-0.8	-1.5271	-0.67292	-1.0875	-1.5021	-0.79375	-1.4604	-0.94792	-0.8375	-1.6583	-0.92708	-0.79792	-1.3917	-0.6	-1.525	258.569	368.062	87.091	190.778	44.934	226.193	328.151	10.798	16.894	256.665	261.261	241.455	321.932	355.253	336.919	236.714	0.00029251	0.00055228	0.00018455	1436.9	4.2261e-06	6.1876e-06	1424.1	378.7	4.4303e-06	6.2663e-06	436.41	143.66	125.81	42.985	5.0245e-06	53.152	0.00042062	0.00044257	0.00011958	1448.5	4.7199e-06	4.7175e-06	1437.2	384.72	5.0332e-06	4.8332e-06	441.43	147.26	128.71	43.939	4.887e-06	54.255	170.599	82.470	119.966	24.035	187.641	157.292	24.060	28.762	186.943	184.326	28.227	32.731	33.387	37.640	164.326	36.948	-8191	255	
772.078	1	1	0	0	0.20521	0.099892	0.42631	0.07184	0.064712	0.13431	0.23878	0.096017	0.21797	0.12319	0.29241	0.21844	0.24127	0.10769	0.097062	0.13963	-0.6125	-0.61042	-1.3729	-0.64583	-0.85833	-1.5063	-0.6875	-1.4271	-1.1708	-0.675	-1.6104	-1.0646	-0.97292	-1.6792	-0.4875	-1.2938	156.526	128.289	365.710	316.164	353.469	71.018	251.301	331.042	141.951	66.277	290.873	321.902	359.902	51.772	67.574	207.888	0.00029399	0.00061144	0.00015174	1445.2	4.2807e-06	3.7851e-06	1425.9	378.61	4.6219e-06	6.0517e-06	436.66	143.81	125.44	42.993	6.935e-06	53.225	0.000422	0.00043056	0.00011893	1447.2	4.7481e-06	4.5311e-06	1438.3	385.39	4.8895e-06	4.6795e-06	441.65	147.41	128.65	43.985	4.9314e-06	54.321	169.957	103.185	133.617	23.670	171.764	165.893	24.010	28.602	190.321	170.471	28.207	32.687	33.519	37.421	169.684	36.897	-8191	255	
772.174	1	1	0	0	0.082361	0.063326	0.083475	0.078877	0.27012	0.14922	0.19691	0.085254	0.28184	0.1388	0.16482	0.18906	0.2059	0.049724	0.26071	0.18569	-0.91042	-0.49375	-1.2646	-0.94583	-0.70833	-1.4417	-0.79167	-1.2479	-1.3917	-0.75	-1.6042	-0.94583	-0.75417	-1.7875	-0.625	-1.3521	48.644	284.172	363.445	98.496	60.158	217.135	292.855	250.652	157.715	282.200	313.355	281.591	262.211	66.574	12.805	294.499	0.00028031	0.00055138	0.00012035	1435.4	3.4405e-06	5.0423e-06	1430	380.13	3.5844e-06	5.6109e-06	437.37	143.63	125.53	43.051	5.0995e-06	53.347	0.00041907	0.00044135	0.00011929	1448.6	4.6966e-06	4.5162e-06	1441.8	385.73	4.743e-06	4.698e-06	442.44	147.49	128.81	44.088	4.7098e-06	54.401	164.009	119.532	103.864	24.338	171.288	172.956	23.897	28.737	200.007	154.360	28.200	32.635	33.345	37.432	167.496	36.789	-8191	255	
772.270	1	1	0	0	0.30576	0.1269	0.20259	0.36715	0.42328	0.23743	0.249	0.11265	0.2339	0.22162	0.035009	0.047524	0.32057	0.27992	0.3497	0.22365	-0.95625	-0.425	-1.5312	-1.2042	-0.725	-1.5562	-0.89375	-1.2917	-1.5438	-0.55	-1.4708	-1.2625	-0.79792	-1.4875	-0.54583	-1.1021	233.857	325.866	203.111	363.090	127.185	151.415	269.336	335.402	102.611	200.768	120.648	46.085	15.152	354.683	262.707	312.387	0.00028388	0.00041064	0.00015039	1446.7	4.5354e-06	4.3764e-06	1427.7	379.65	3.3642e-06	7.4889e-06	437.07	143.79	125.2	43.02	3.9543e-06	53.024	0.0004043	0.00042809	0.00011742	1450.1	4.7125e-06	4.5033e-06	1439.4	386.15	4.5647e-06	4.6181e-06	442	147.55	128.41	43.933	4.7186e-06	54.175	172.189	76.329	112.835	23.985	180.331	185.778	24.018	28.743	186.055	172.202	28.424	32.682	33.386	37.278	142.662	36.925	-8191	255	
772.391	1	1	0	0	0.23413	0.065498	0.05961	0.32973	0.29792	0.24307	0.23571	0.079279	0.26917	0.31065	0.14834	0.10415	0.29992	0.26882	0.11882	0.10066	-1.0125	-0.5	-1.1354	-1.1625	-0.80833	-1.5104	-0.76042	-0.80417	-1.525	-0.59583	-1.4542	-1.1938	-0.64375	-1.5333	-0.85	-0.93125	13.541	116.683	100.130	341.027	154.634	26.363	331.702	312.873	200.135	93.355	118.806	158.153	35.944	296.180	212.401	336.655	0.0002803	0.00058786	0.0001661	1430.5	3.2735e-06	4.3477e-06	1422.8	380.41	3.7033e-06	5.0979e-06	436.89	143.68	125.21	42.935	3.9236e-06	53.229	0.00040932	0.00043545	0.00011862	1448.6	4.6759e-06	4.6312e-06	1437.2	385.26	4.6241e-06	4.7155e-06	441.92	147.15	128.52	43.982	4.8385e-06	54.181	169.235	93.671	128.985	23.850	174.222	142.671	23.983	28.737	174.146	161.176	28.274	32.651	33.518	37.281	197.870	36.714	-8191	255	
772.462	1	1	0	0	0.10615	0.22578	0.03351	0.054349	0.0517	0.10853	0.19286	0.032373	0.13982	0.07324	0.081736	0.071697	0.28184	0.013013	0.25031	0.30757	-1.0521	-0.36042	-1.3375	-1.3375	-0.775	-1.4438	-1.1292	-0.94792	-1.5208	-0.62083	-1.2875	-1.5021	-0.84167	-1.5625	-1.1271	-0.72292	194.948	156.040	85.659	47.947	177.864	186.142	324.239	106.057	115.906	266.199	333.730	80.239	361.805	58.098	79.074	257.499	0.00026282	0.00061963	0.00014082	1436.4	5.5178e-06	6.9271e-06	1424.7	378.71	2.907e-06	5.2015e-06	436.1	144.13	125.1	42.889	4.9381e-06	52.727	0.00040226	0.00042413	0.00011909	1447.6	4.6784e-06	4.7777e-06	1438.4	385.34	4.7338e-06	4.9112e-06	441.66	147.21	128.17	43.974	4.92e-06	54.019	172.874	109.511	126.838	23.796	178.984	184.215	24.062	28.817	186.154	167.440	28.329	32.914	33.355	37.594	194.559	36.853	-8191	255	
772.558	1	1	0	0	0.14973	0.24992	0.23857	0.26046	0.1862	0.12661	0.19553	0.418	0.099501	0.10768	0.14595	0.19266	0.16044	0.16192	0.43669	0.25966	-1.1688	-0.88333	-0.75417	-1.4896	-0.66875	-1.3417	-1.2542	-0.92083	-1.6021	-0.57708	-1.0625	-1.5083	-0.6375	-1.4167	-1.1667	-0.59583	198.978	279.988	260.677	192.168	129.492	360.374	290.955	337.333	368.495	117.444	345.838	31.307	219.981	143.234	24.848	369.595	0.0003096	0.0004582	0.00010752	1441.2	2.9317e-06	4.6207e-06	1424.3	378.73	4.1149e-06	6.6051e-06	436.06	143.61	124.89	42.853	5.1808e-06	53.061	0.00042513	0.00045681	0.00012813	1448	4.8265e-06	4.8431e-06	1436.5	385.3	4.8779e-06	4.8752e-06	441.21	147.07	128.15	43.863	4.8344e-06	54.183	167.207	112.037	79.803	24.035	168.891	162.664	24.159	28.873	194.191	170.793	28.395	32.837	33.264	37.472	174.956	36.798	-8191	255	
772.679	1	1	0	0	0.093314	0.35684	0.047412	0.14492	0.10402	0.14488	0.29698	0.044041	0.37394	0.17899	0.12986	0.47543	0.070697	0.086478	0.17382	0.077827	-1.0292	-0.81667	-0.82292	-1.5229	-0.67708	-1.1437	-1.3729	-0.76667	-1.4271	-0.93542	-0.80208	-1.7833	-0.89167	-1.1396	-1.5333	-0.60833	362.068	35.312	306.411	85.761	282.426	108.822	299.158	251.156	192.600	346.803	72.065	343.326	326.957	275.670	337.653	334.038	0.00029036	0.00047668	0.00013354	1436.9	4.2225e-06	5.8846e-06	1424	380.05	5.3521e-06	4.1981e-06	438.28	143.65	125.67	43.056	4.7957e-06	52.976	0.0004229	0.00045037	0.0001234	1446.2	4.9205e-06	4.7178e-06	1437.8	385.76	4.7611e-06	4.7192e-06	442.89	147.19	128.63	44.062	4.808e-06	54.187	171.043	112.739	114.958	23.852	171.026	164.409	23.822	28.620	190.678	148.274	28.085	32.549	33.170	37.654	160.763	37.005	-8191	255	
772.775	1	1	0	0	0.25405	0.1139	0.29689	0.32482	0.049763	0.16385	0.2424	0.27932	0.1289	0.16089	0.2854	0.34088	0.2584	0.17795	0.26575	0.15259	-0.96667	-0.92083	-0.80208	-1.6271	-0.7375	-1.0979	-1.4125	-0.72708	-1.3375	-1.0896	-0.59375	-1.5042	-0.79792	-1.1667	-1.1562	-0.73542	249.113	71.460	254.552	212.445	187.691	137.161	274.133	368.412	277.546	20.376	367.843	310.698	320.859	337.234	277.069	77.381	0.00030092	0.00035293	0.00017625	1442.8	4.4302e-06	5.1725e-06	1426.6	379.98	3.0858e-06	6.4444e-06	436.73	143.49	125.65	43.03	5.6106e-06	53.09	0.0004262	0.00042934	0.00012196	1452.5	4.8158e-06	4.7353e-06	1439.8	385.64	4.8063e-06	4.7179e-06	442.53	147.38	128.6	43.97	4.7973e-06	54.062	168.212	99.695	106.893	23.508	178.598	168.396	23.846	28.502	201.042	168.912	28.319	32.758	33.230	37.480	175.208	36.754	-8191	255	
772.871	1	1	0	0	0.29023	0.096315	0.29197	0.21053	0.080005	0.39944	0.37642	0.10696	0.14063	0.23265	0.24402	0.039836	0.21015	0.22899	0.33354	0.085524	-1.2188	-1.1208	-0.7875	-1.65	-0.72292	-1.1521	-1.675	-0.76667	-1.3854	-1.0292	-0.65208	-1.7687	-0.96667	-0.91875	-1.5271	-0.77917	132.822	81.883	216.464	117.620	182.724	344.124	304.880	298.321	111.048	204.305	43.117	342.975	58.240	303.438	234.125	328.698	0.00028646	0.00057704	0.00017112	1440.3	3.8354e-06	4.4992e-06	1423.5	380.08	3.1238e-06	6.5114e-06	436.59	144.18	125.86	42.94	3.5059e-06	53.219	0.00042035	0.00043131	0.00011956	1454.2	4.8861e-06	4.8408e-06	1439.5	386.11	4.9815e-06	4.8778e-06	442.15	147.35	128.71	43.956	4.7069e-06	54.167	173.695	115.020	106.337	23.759	179.354	167.932	23.925	28.773	193.646	176.925	28.178	32.780	33.479	37.455	174.437	36.849	-8191	255	
772.992	1	1	0	0	0.24756	0.33182	0.11436	0.064671	0.20617	0.084705	0.37463	0.2207	0.26536	0.43891	0.20092	0.33481	0.16803	0.224	0.21829	0.15037	-0.80625	-1.4021	-0.38542	-1.4979	-0.8375	-0.74167	-1.6917	-0.86042	-0.98333	-1.4229	-0.55208	-1.4167	-0.97292	-0.87292	-1.6854	-0.94375	104.310	181.469	229.692	120.527	214.526	167.568	302.776	291.548	27.255	130.835	341.817	12.792	55.634	294.730	151.257	278.475	0.00027048	0.00059643	0.00012251	1444.3	3.6536e-06	4.7077e-06	1425.5	378.58	4.3034e-06	5.1968e-06	435.5	144.07	125.44	43.033	4.9045e-06	52.986	0.00042622	0.00044182	0.00012205	1454.1	4.9801e-06	4.7172e-06	1437.8	385.43	5.0351e-06	4.628e-06	441.52	147.07	128.31	43.966	4.8763e-06	53.987	169.048	87.440	103.597	24.218	184.191	146.889	24.017	28.816	191.201	176.921	28.283	32.596	33.035	37.488	167.036	36.656	-8191	255	
773.064	1	1	0	0	0.20861	0.20425	0.24849	0.050979	0.044382	0.039111	0.39426	0.046087	0.28209	0.19942	0.32867	0.12426	0.20662	0.54114	0.14231	0.068217	-0.63542	-1.3333	-0.63542	-1.3646	-1.1333	-0.67708	-1.9021	-0.87708	-0.79375	-1.4875	-0.68333	-1.475	-1.3438	-0.87917	-1.6187	-1.1771	109.275	341.370	302.199	326.620	328.693	202.597	321.611	349.296	265.851	22.148	326.270	257.036	84.363	65.221	190.124	306.918	0.00026624	0.00049973	0.00014557	1435.7	3.8266e-06	4.9981e-06	1424	379.31	5.0833e-06	4.556e-06	436.18	144.06	125.76	42.847	5.1096e-06	52.99	0.00042344	0.00043637	0.00012225	1451.6	4.7938e-06	4.6646e-06	1437.7	385.17	4.9968e-06	4.735e-06	442.05	147.17	128.36	43.864	4.8036e-06	54.052	173.946	97.022	110.359	24.101	166.498	188.947	23.865	28.514	187.910	170.051	28.086	32.653	33.328	37.371	180.058	36.985	-8191	255	
773.158	1	1	0	0	0.29036	0.12076	0.26847	0.23675	0.12094	0.050345	0.37618	0.3758	0.24609	0.18396	0.28664	0.31558	0.12496	0.11437	0.20168	0.21606	-0.43125	-1.5354	-0.78125	-1.2396	-1.1688	-0.70208	-1.5812	-1.0729	-0.88958	-1.5	-0.6125	-1.1437	-1.2458	-0.61458	-1.4417	-1.1104	274.115	110.203	39.742	156.264	274.026	168.768	320.717	307.875	41.297	285.879	23.110	273.917	288.537	366.311	235.162	159.136	0.00028984	0.00051012	0.00017077	1449	4.4639e-06	5.1795e-06	1425.2	380.48	4.005e-06	6.7885e-06	436.77	144.1	124.97	42.943	3.7721e-06	52.875	0.00042916	0.00042187	0.00011857	1452.7	4.7633e-06	4.8487e-06	1438.3	385.56	4.9981e-06	4.5728e-06	441.51	146.99	128.37	43.876	4.7756e-06	54.061	170.969	86.355	115.172	23.763	155.590	162.898	24.068	28.767	193.179	165.350	28.103	32.723	33.221	37.298	168.264	36.867	-8191	255	
773.254	1	1	0	0	0.26348	0.031653	0.13529	0.066173	0.21685	0.19269	0.09548	0.25204	0.3963	0.1844	0.2155	0.18236	0.29328	0.14371	0.30779	0.027785	-0.58958	-1.5333	-0.58125	-1.1208	-1.3708	-0.52083	-1.4875	-1.15	-0.54167	-1.5417	-0.91667	-0.96875	-1.6562	-0.5875	-1.175	-0.96875	200.454	211.973	283.894	271.834	261.253	127.006	41.194	362.613	244.249	320.329	181.291	348.078	337.849	17.035	341.647	58.555	0.00028909	0.00064489	0.00015358	1440	4.3048e-06	5.7297e-06	1425.6	378.63	3.6596e-06	6.5768e-06	434.2	143.91	125.17	42.918	5.5481e-06	52.957	0.00042056	0.00042544	0.0001202	1448.6	4.717e-06	4.8084e-06	1437.2	384.83	4.8708e-06	4.6138e-06	440.71	147.08	128.29	43.879	4.7944e-06	54.084	171.616	92.438	102.954	24.129	167.469	176.093	24.055	28.640	181.829	172.134	28.176	32.852	33.247	37.342	179.370	36.532	-8191	255	
773.375	1	1	0	0	0.3176	0.085972	0.13187	0.028713	0.21075	0.15823	0.14752	0.19692	0.091362	0.3145	0.15937	0.22017	0.050424	0.18415	0.2282	0.13309	-0.2625	-1.4896	-0.86042	-0.94792	-1.2979	-0.65417	-1.8125	-1.3813	-0.56042	-1.6604	-0.925	-1.0208	-1.5208	-0.68333	-1.025	-1.3583	50.189	342.898	353.177	266.265	319.906	166.511	353.773	268.105	42.252	175.651	51.282	265.773	275.491	334.941	309.736	364.670	0.00027411	0.00063502	0.00011744	1445.6	4.8034e-06	5.0387e-06	1427.9	379.31	3.9544e-06	3.6869e-06	434.86	143.96	125.13	42.79	3.6959e-06	52.964	0.00042158	0.00042916	0.00012485	1452.3	4.5615e-06	4.8001e-06	1440.8	385.66	4.9002e-06	4.703e-06	441.25	147.14	128.2	43.782	4.8259e-06	53.992	173.180	81.906	131.382	23.924	156.094	167.330	24.052	28.567	191.628	180.847	28.243	32.674	33.093	37.324	172.521	36.819	-8191	255	
773.471	1	1	0	0	0.10251	0.24618	0.15438	0.037441	0.14162	0.18848	0.3198	0.19178	0.12615	0.062486	0.15653	0.11066	0.14097	0.1819	0.20087	0.14307	-0.23333	-1.3917	-0.88125	-0.66458	-1.5	-0.5	-1.5542	-1.4604	-0.52917	-1.5688	-1.0312	-0.90208	-1.6292	-0.875	-1.2229	-1.5333	302.093	128.887	201.014	268.781	212.030	147.644	280.747	281.968	107.289	192.414	297.946	243.540	303.315	235.245	71.766	18.387	0.0002947	0.00052194	0.00012225	1451.1	3.4245e-06	4.2266e-06	1424.8	378.85	2.9059e-06	3.8785e-06	435.65	143.95	125.25	42.856	4.3935e-06	52.925	0.000421	0.00043414	0.0001244	1452.6	4.729e-06	4.9036e-06	1437.5	384.99	4.7656e-06	4.743e-06	441.61	147.01	128.26	43.774	4.7784e-06	54.066	170.724	75.427	100.577	23.709	166.218	133.774	24.007	28.612	205.177	152.442	28.129	32.927	33.248	37.621	153.335	36.653	-8191	255	
773.567	1	1	0	0	0.12099	0.012733	0.28587	0.047381	0.33346	0.27556	0.11719	0.36067	0.22689	0.046941	0.32922	0.39945	0.26591	0.066828	0.15634	0.13439	-0.20833	-1.1625	-0.89167	-0.61042	-1.6063	-0.61667	-1.3937	-1.5979	-0.54167	-1.4167	-1.2479	-0.86875	-1.7479	-0.75208	-0.925	-1.5771	127.133	227.832	34.867	71.194	17.091	325.395	168.578	47.746	293.422	166.551	40.141	317.085	218.075	83.843	252.184	258.887	0.00029227	0.00046815	0.00011477	1437.1	5.9249e-06	5.0877e-06	1427.9	379.22	3.6943e-06	6.0996e-06	436.16	143.97	124.84	42.963	4.2044e-06	52.849	0.00041903	0.00043581	0.00012341	1446.8	4.6869e-06	4.8388e-06	1437.9	385.41	4.7436e-06	4.7651e-06	441.03	147	128.12	43.856	4.9251e-06	54.017	172.758	98.970	116.829	24.207	176.526	161.839	23.977	28.609	183.124	157.480	28.004	32.665	33.416	37.366	174.801	36.948	-8191	255	
773.663	1	1	0	0	0.15057	0.12112	0.088345	0.22048	0.13398	0.049492	0.36804	0.27549	0.28123	0.28397	0.091528	0.19799	0.0477	0.080771	0.19337	0.28893	-0.26667	-1.3729	-1.0875	-0.66875	-1.5729	-0.91875	-0.99792	-1.7437	-0.52083	-1.1167	-1.4354	-0.82708	-1.6417	-1.0833	-0.69792	-1.6437	163.490	151.845	90.833	294.302	260.629	278.008	358.495	327.784	265.772	360.132	217.344	319.390	349.164	333.131	189.219	236.273	0.00027495	0.00066001	0.00016394	1443.9	4.6295e-06	4.3937e-06	1427.9	379.45	4.9728e-06	5.3819e-06	436.76	144.18	125.15	42.851	5.2092e-06	53.175	0.00042647	0.00043411	0.00012251	1451.3	4.6921e-06	4.7046e-06	1439.5	385.32	4.8033e-06	4.7126e-06	441.76	147.51	128.31	43.964	4.6176e-06	54.13	168.567	95.795	104.919	24.033	176.242	159.367	24.018	28.879	195.884	177.082	28.290	32.701	33.335	37.417	158.452	36.559	-8191	255	
773.759	1	1	0	0	0.33404	0.031353	0.18391	0.25173	0.2497	0.19667	0.35787	0.20577	0.20401	0.34438	0.27876	0.1031	0.25563	0.12642	0.15646	0.13398	-0.32083	-1.2958	-1.4333	-0.77292	-1.675	-1.1667	-0.825	-1.7521	-0.68542	-1.0708	-1.6313	-0.81875	-1.6542	-1.175	-0.81875	-1.4937	169.665	276.348	316.237	98.501	116.027	336.596	350.031	325.725	99.858	89.191	308.779	253.420	356.156	356.133	121.705	219.121	0.00027408	0.00040206	0.00017206	1441.8	5.7262e-06	5.6266e-06	1418.6	378.55	3.4825e-06	4.0902e-06	434.61	143.67	125.57	42.901	4.67e-06	52.936	0.00040838	0.00042785	0.00011338	1447.9	4.5187e-06	4.5747e-06	1433.3	384.32	4.6112e-06	4.4357e-06	440.26	146.8	128.2	43.881	4.6585e-06	53.949	171.247	117.409	111.263	23.804	164.059	179.895	23.931	28.714	199.460	149.552	28.282	32.670	33.260	37.616	146.720	36.879	-8191	255	
773.856	1	1	0	0	0.072436	0.23667	0.078208	0.14515	0.14447	0.23594	0.38872	0.11364	0.20252	0.33038	0.09957	0.26381	0.18737	0.13913	0.12953	0.16288	-0.46042	-0.95833	-1.5125	-0.46458	-1.3937	-1.3354	-0.84375	-1.5812	-0.86458	-0.77708	-1.5312	-0.81667	-1.2292	-1.3167	-0.54375	-1.4896	155.346	124.376	302.200	342.970	240.964	240.166	263.519	361.837	16.142	28.858	25.470	346.620	141.098	282.726	271.624	266.903	0.00028366	0.00063535	0.00014868	1427.5	4.6206e-06	4.3099e-06	1422.1	377.26	3.2508e-06	4.8357e-06	433.67	142.62	124.67	42.882	4.0624e-06	52.786	0.00041347	0.00042732	0.00011132	1441.3	4.6872e-06	4.6911e-06	1432	383.29	4.8724e-06	4.74e-06	439.5	146.39	127.84	43.759	4.5574e-06	53.957	174.118	104.988	111.789	23.895	179.567	145.563	24.055	28.739	197.446	153.529	28.180	32.724	33.387	37.599	177.213	37.078	-8191	255	
773.952	1	1	0	0	0.25945	0.23101	0.21933	0.53384	0.13781	0.17387	0.32173	0.083564	0.11861	0.18263	0.11214	0.054727	0.11572	0.082256	0.28071	0.11321	-0.62083	-0.88333	-1.5458	-0.68958	-1.1479	-1.275	-0.78958	-1.7354	-1.0396	-0.77917	-1.5875	-0.49792	-1.1896	-1.3687	-0.55833	-1.4813	353.608	300.343	250.397	59.982	85.391	158.930	299.225	275.874	110.217	80.871	345.380	156.121	41.408	206.046	215.321	272.154	0.00027996	0.00049556	0.0001562	1440.4	4.4165e-06	4.5525e-06	1420.3	377.31	4.501e-06	7.1148e-06	435.72	143.27	125	42.901	3.6829e-06	52.843	0.00041122	0.00041638	0.00010985	1446.1	4.568e-06	4.5767e-06	1432.8	383.34	4.6329e-06	4.6627e-06	440.17	146.61	127.99	43.853	4.6538e-06	53.953	169.543	108.972	99.818	24.118	158.303	166.515	23.848	28.820	181.429	156.689	28.307	32.810	33.480	37.224	167.249	36.799	-8191	255	
774.072	1	1	0	0	0.21139	0.1395	0.28885	0.13276	0.038673	0.081112	0.15841	0.26364	0.14318	0.32893	0.22723	0.17478	0.08197	0.1634	0.28297	0.23904	-0.6125	-0.57917	-1.6042	-0.61458	-1.0187	-1.5479	-0.85625	-1.4438	-1.0562	-0.77083	-1.7146	-1.1146	-1.0625	-1.4021	-0.68125	-1.6208	268.517	269.242	101.221	99.611	130.636	62.752	292.464	324.516	229.622	42.062	97.867	210.278	103.482	89.860	75.289	304.322	0.00026518	0.00044968	0.00018734	1429.1	4.127e-06	5.3519e-06	1421.3	378.05	3.934e-06	2.7273e-06	435.06	143.2	125.38	43.143	3.9228e-06	53.091	0.00040877	0.00041689	0.00011407	1446.2	4.5145e-06	4.3956e-06	1432.3	384.1	4.7702e-06	4.5477e-06	440.78	147.13	128.37	44.027	4.5052e-06	54.114	168.816	85.251	109.940	23.718	169.811	159.323	24.025	28.849	192.239	130.848	28.243	32.717	33.477	37.221	178.337	36.958	-8191	255	
774.167	1	1	0	0	0.19303	0.15135	0.26297	0.16426	0.035817	0.23515	0.5052	0.090485	0.24344	0.21719	0.14721	0.20267	0.13805	0.18524	0.22065	0.17589	-0.94375	-0.69792	-1.5521	-0.72083	-1	-1.6083	-0.90625	-1.4771	-1.2896	-0.45625	-1.6812	-0.92083	-0.79583	-1.4438	-0.625	-1.2792	94.411	261.343	346.974	42.090	313.911	84.614	315.296	332.359	17.999	305.603	70.992	37.831	287.422	365.857	12.100	105.645	0.00028654	0.00059038	0.00014077	1441.8	4.394e-06	4.7567e-06	1418.1	378.43	3.5968e-06	6.9365e-06	433.1	143.31	125.01	42.716	3.1321e-06	52.773	0.00040132	0.00041314	0.00010803	1447.4	4.5197e-06	4.341e-06	1432.8	384.16	4.5387e-06	4.4211e-06	439.22	146.72	127.77	43.782	4.5911e-06	53.986	171.010	91.201	101.176	23.739	163.810	162.539	24.006	28.705	195.819	162.495	28.247	32.670	33.308	37.256	161.586	36.918	-8191	255	
774.263	1	1	0	0	0.22467	0.026031	0.18182	0.27816	0.19879	0.27678	0.46624	0.31088	0.1469	0.19791	0.13309	0.15328	0.25485	0.18114	0.10774	0.094297	-0.9375	-0.58125	-1.6271	-1.1396	-0.61667	-1.5167	-0.95833	-1.1979	-1.2521	-0.59167	-1.5708	-1.1042	-0.7625	-1.5646	-0.83958	-1.0521	114.642	131.151	69.140	40.882	135.793	33.006	335.709	341.634	238.624	290.824	28.066	316.182	302.769	364.316	240.498	39.247	0.00029789	0.00054787	0.00012566	1434.7	4.6914e-06	5.4412e-06	1419	379.74	4.1938e-06	5.9037e-06	434.74	142.73	124.97	42.675	4.8251e-06	52.661	0.00041431	0.00042934	0.00011245	1441.4	4.6797e-06	4.4907e-06	1431.9	384.33	4.7849e-06	4.9214e-06	440.36	146.34	127.73	43.637	4.9578e-06	53.79	166.149	94.385	109.718	23.874	178.518	148.329	24.032	28.601	195.093	157.817	28.161	32.895	33.224	37.510	171.838	37.066	-8191	255	
774.359	1	1	0	0	0.052247	0.2239	0.021734	0.32124	0.28465	0.24897	0.11448	0.23104	0.12589	0.21561	0.13558	0.26573	0.22735	0.17882	0.10545	0.30401	-0.9625	-0.43333	-1.2229	-1.0812	-0.66875	-1.5208	-0.93333	-1.05	-1.4021	-0.44167	-1.3104	-1.3	-0.60208	-1.6854	-0.83542	-0.93333	322.953	108.925	318.965	49.817	121.301	134.524	332.033	234.533	260.907	278.855	315.851	98.580	326.359	23.482	39.036	364.002	0.00027466	0.0006393	0.00014946	1439.4	4.0942e-06	2.6555e-06	1423.2	379.56	3.7599e-06	4.5036e-06	437.12	143.52	125.32	42.871	4.4414e-06	52.82	0.00042707	0.00045085	0.00012433	1447.2	4.9603e-06	4.7449e-06	1435.3	385.41	5.0198e-06	5.0536e-06	441.94	146.7	128.2	43.82	5.027e-06	53.841	178.074	108.102	105.037	23.621	175.537	172.437	24.140	28.684	175.042	170.913	28.336	32.498	33.419	37.428	179.760	36.967	-8191	255	
774.455	1	1	0	0	0.21391	0.21213	0.075078	0.20902	0.11036	0.17476	0.19415	0.024209	0.12603	0.16523	0.3042	0.24785	0.22617	0.24312	0.15789	0.10218	-1.225	-0.43125	-1.1375	-1.3125	-0.66458	-1.5	-1.2375	-0.90208	-1.3958	-0.63958	-1.375	-1.4917	-0.52708	-1.5542	-0.76875	-0.79167	276.057	46.949	150.605	344.259	169.816	173.300	327.928	245.613	170.824	302.270	31.377	329.474	348.638	161.685	57.152	48.753	0.00027388	0.00061004	0.00010685	1435.9	4.2805e-06	5.7272e-06	1423.8	377.74	4.7506e-06	6.6312e-06	436.55	143.28	124.87	42.897	5.7976e-06	53.001	0.00041872	0.0004563	0.00012461	1446.3	4.8285e-06	4.7406e-06	1435	384.28	4.7843e-06	4.8768e-06	440.6	146.32	127.72	43.709	4.7768e-06	53.921	172.016	81.480	105.138	23.594	166.255	172.708	24.048	28.635	183.503	160.473	27.957	32.724	33.290	37.669	165.668	37.053	-8191	255	
774.551	1	1	0	0	0.040461	0.05349	0.15507	0.31174	0.33593	0.32566	0.11532	0.043695	0.19722	0.084709	0.18695	0.42486	0.20304	0.32017	0.21524	0.13629	-1.1146	-0.47083	-1.2208	-1.2188	-0.54375	-1.4354	-1.2729	-0.98125	-1.6833	-0.75417	-1.0958	-1.6292	-0.53333	-1.3646	-1.1354	-0.7	286.311	28.089	218.541	317.841	49.042	197.878	342.428	318.410	277.174	347.835	360.557	41.499	333.548	302.761	97.226	229.859	0.00030187	0.00053673	0.00014178	1434.8	3.7049e-06	4.4862e-06	1416.8	378.72	3.742e-06	8.4568e-06	436.62	142.89	124.94	42.714	3.4917e-06	52.922	0.00041285	0.00044266	0.00012423	1448.2	4.822e-06	4.5403e-06	1432.6	384.46	4.7323e-06	4.9098e-06	441.08	146.49	127.73	43.706	4.9716e-06	53.972	173.926	92.795	108.677	23.699	187.189	184.940	23.710	28.614	177.668	156.523	28.387	32.424	33.152	37.294	179.900	36.836	-8191	255	
#DATA ENDS
