BOXY.EXE: ISS Imagent and Oximeter Data Acquisition Program Version 0.80
Ascii Record File

#ACQ INFORMATION
2  Detector Channels 
16  External MUX Channels 
1  Auxiliary Channels 
5000  Waveform (CCF) Frequency (Hz)
1  Waveforms Skipped 
30  Waveforms Averaged 
1  Cycles Averaged 
16  Acquisitions per Waveform 
10.0806  Updata Rate (Hz) 

#FILE INFORMATION
TRUE -- External MUX Channel results are PARSED.
FALSE -- AC DC and Phase are NOT grouped.
TRUE -- Companion Program Settings File CREATED.
FALSE -- AC data not excluded
FALSE -- DC data not excluded
FALSE -- Phase data not excluded
FALSE -- Auxillary Chn. data not excluded
Tab delimiters

#CALIBRATION STATE
TRUE -- Waveform Calibration Values APPLIED.


#AUX CALIBRATION VALUES
Val Type	aux-1	

Term	1.0000e+00	
Factor	0.0000e+00	


#WF CALIBRATION VALUES
A = Detector Channel
Val Type	A-AC1	A-AC2	A-AC3	A-AC4	A-AC5	A-AC6	A-AC7	A-AC8	A-AC9	A-AC10	A-AC11	A-AC12	A-AC13	A-AC14	A-AC15	A-AC16	A-DC1	A-DC2	A-DC3	A-DC4	A-DC5	A-DC6	A-DC7	A-DC8	A-DC9	A-DC10	A-DC11	A-DC12	A-DC13	A-DC14	A-DC15	A-DC16	A-Ph1	A-Ph2	A-Ph3	A-Ph4	A-Ph5	A-Ph6	A-Ph7	A-Ph8	A-Ph9	A-Ph10	A-Ph11	A-Ph12	A-Ph13	A-Ph14	A-Ph15	A-Ph16	

Term	0.00000e+00	0.00000e+00	0.00000e+00	0.00000e+00	0.00000e+00	0.00000e+00	0.00000e+00	0.00000e+00	0.00000e+00	0.00000e+00	0.00000e+00	0.00000e+00	0.00000e+00	0.00000e+00	0.00000e+00	0.00000e+00	0.00000e+00	0.00000e+00	0.00000e+00	0.00000e+00	0.00000e+00	0.00000e+00	0.00000e+00	0.00000e+00	0.00000e+00	0.00000e+00	0.00000e+00	0.00000e+00	0.00000e+00	0.00000e+00	0.00000e+00	0.00000e+00	0.00000e+00	0.00000e+00	0.00000e+00	0.00000e+00	0.00000e+00	0.00000e+00	0.00000e+00	0.00000e+00	0.00000e+00	0.00000e+00	0.00000e+00	0.00000e+00	0.00000e+00	0.00000e+00	0.00000e+00	0.00000e+00	
Factor	1.00000e+00	1.00000e+00	1.00000e+00	1.00000e+00	1.00000e+00	1.00000e+00	1.00000e+00	1.00000e+00	1.00000e+00	1.00000e+00	1.00000e+00	1.00000e+00	1.00000e+00	1.00000e+00	1.00000e+00	1.00000e+00	1.00000e+00	1.00000e+00	1.00000e+00	1.00000e+00	1.00000e+00	1.00000e+00	1.00000e+00	1.00000e+00	1.00000e+00	1.00000e+00	1.00000e+00	1.00000e+00	1.00000e+00	1.00000e+00	1.00000e+00	1.00000e+00	X	X	X	X	X	X	X	X	X	X	X	X	X	X	X	X	

B = Detector Channel
Val Type	B-AC1	B-AC2	B-AC3	B-AC4	B-AC5	B-AC6	B-AC7	B-AC8	B-AC9	B-AC10	B-AC11	B-AC12	B-AC13	B-AC14	B-AC15	B-AC16	B-DC1	B-DC2	B-DC3	B-DC4	B-DC5	B-DC6	B-DC7	B-DC8	B-DC9	B-DC10	B-DC11	B-DC12	B-DC13	B-DC14	B-DC15	B-DC16	B-Ph1	B-Ph2	B-Ph3	B-Ph4	B-Ph5	B-Ph6	B-Ph7	B-Ph8	B-Ph9	B-Ph10	B-Ph11	B-Ph12	B-Ph13	B-Ph14	B-Ph15	B-Ph16	

Term	0.00000e+00	0.00000e+00	0.00000e+00	0.00000e+00	0.00000e+00	0.00000e+00	0.00000e+00	0.00000e+00	0.00000e+00	0.00000e+00	0.00000e+00	0.00000e+00	0.00000e+00	0.00000e+00	0.00000e+00	0.00000e+00	0.00000e+00	0.00000e+00	0.00000e+00	0.00000e+00	0.00000e+00	0.00000e+00	0.00000e+00	0.00000e+00	0.00000e+00	0.00000e+00	0.00000e+00	0.00000e+00	0.00000e+00	0.00000e+00	0.00000e+00	0.00000e+00	-1.01651e+02	-1.31598e+02	-1.20738e+02	-1.91400e+02	-6.33302e+01	-6.26078e+01	-1.55998e+02	-1.62015e+02	-5.85124e+01	-6.34004e+01	-1.71242e+02	-1.69256e+02	-1.82252e+02	-1.76911e+02	-6.36124e+01	-1.48894e+02	
Factor	1.65450e-05	1.63506e-04	4.61476e-05	7.96256e-01	1.42743e-06	1.71502e-06	1.68508e-01	5.36599e-02	1.14399e-06	1.82088e-06	9.19581e-02	2.79579e-02	3.18351e-02	9.46751e-03	1.44351e-06	1.32714e-02	9.20689e-06	1.42985e-05	3.97790e-06	4.00663e-01	1.55516e-07	1.58660e-07	8.09809e-02	2.75310e-02	1.46786e-07	1.58617e-07	4.56486e-02	1.40073e-02	1.65838e-02	4.88813e-03	1.51075e-07	6.63547e-03	X	X	X	X	X	X	X	X	X	X	X	X	X	X	X	X	



#DISTANCE SETTINGS
A = Detector Channel
A-1	A-2	A-3	A-4	A-5	A-6	A-7	A-8	A-9	A-10	A-11	A-12	A-13	A-14	A-15	A-16	

2.5000e+00	3.0000e+00	2.5000e+00	3.0000e+00	2.0000e+00	3.0000e+00	1.5000e+00	3.0000e+00	3.0000e+00	3.0000e+00	3.0000e+00	3.0000e+00	3.0000e+00	3.0000e+00	1.5000e+00	3.0000e+00	

B = Detector Channel
B-1	B-2	B-3	B-4	B-5	B-6	B-7	B-8	B-9	B-10	B-11	B-12	B-13	B-14	B-15	B-16	

1.0000e+01	1.0000e+01	1.0000e+01	1.4400e+00	1.0000e+01	1.0000e+01	1.5100e+00	1.9400e+00	1.0000e+01	1.0000e+01	1.9900e+00	2.4900e+00	2.4100e+00	2.9000e+00	1.0000e+01	2.9800e+00	




#DATA BEGINS
time	group	step	mark	flag	A-AC1	A-AC2	A-AC3	A-AC4	A-AC5	A-AC6	A-AC7	A-AC8	A-AC9	A-AC10	A-AC11	A-AC12	A-AC13	A-AC14	A-AC15	A-AC16	A-DC1	A-DC2	A-DC3	A-DC4	A-DC5	A-DC6	A-DC7	A-DC8	A-DC9	A-DC10	A-DC11	A-DC12	A-DC13	A-DC14	A-DC15	A-DC16	A-Ph1	A-Ph2	A-Ph3	A-Ph4	A-Ph5	A-Ph6	A-Ph7	A-Ph8	A-Ph9	A-Ph10	A-Ph11	A-Ph12	A-Ph13	A-Ph14	A-Ph15	A-Ph16	B-AC1	B-AC2	B-AC3	B-AC4	B-AC5	B-AC6	B-AC7	B-AC8	B-AC9	B-AC10	B-AC11	B-AC12	B-AC13	B-AC14	B-AC15	B-AC16	B-DC1	B-DC2	B-DC3	B-DC4	B-DC5	B-DC6	B-DC7	B-DC8	B-DC9	B-DC10	B-DC11	B-DC12	B-DC13	B-DC14	B-DC15	B-DC16	B-Ph1	B-Ph2	B-Ph3	B-Ph4	B-Ph5	B-Ph6	B-Ph7	B-Ph8	B-Ph9	B-Ph10	B-Ph11	B-Ph12	B-Ph13	B-Ph14	B-Ph15	B-Ph16	aux-1	digaux	

718.587	1	1	0	256	0.21103	0.071095	0.096087	0.13233	0.30981	0.26194	0.26024	0.15398	0.098186	0.16047	0.062449	0.29992	0.30913	0.13365	0.18353	0.18305	-0.85417	-1.5562	-0.7125	-1.5292	-0.90833	-0.8375	-1.8687	-0.81667	-1.0375	-1.3896	-0.69167	-1.4292	-1.0146	-0.65833	-1.3375	-0.82917	331.814	16.656	304.972	206.085	326.980	148.469	341.574	311.208	244.583	230.178	107.815	314.966	23.636	95.971	65.733	168.319	0.00015286	0.00033343	9.4959e-05	1132.2	2.3062e-06	2.8764e-06	1205.6	238.49	3.4994e-06	3.5895e-06	301.17	82.937	65.675	19.359	3.6741e-06	26.603	0.0002197	0.00023685	6.9622e-05	1109.9	2.463e-06	2.604e-06	1186.5	237	2.6174e-06	2.5835e-06	298.03	83.212	65.962	19.446	2.5311e-06	26.915	172.961	124.757	82.469	26.085	179.715	166.206	26.382	33.542	186.741	155.578	33.453	40.343	40.870	47.275	144.278	47.077	-8191	255	
718.683	1	1	0	0	0.075725	0.23108	0.19425	0.22034	0.046345	0.29846	0.32777	0.038065	0.11329	0.28673	0.35337	0.068841	0.1106	0.16768	0.066942	0.20458	-0.62917	-1.4104	-0.74167	-1.5542	-1.2333	-0.77708	-1.4542	-1.0292	-0.93125	-1.4604	-0.77292	-1.3062	-1.1688	-0.66667	-1.5479	-1.0479	344.464	91.741	51.093	103.986	290.797	60.544	291.195	316.604	70.065	306.290	287.673	139.512	305.406	363.116	319.674	278.517	0.00014103	0.00021009	0.00012307	1144.3	1.4167e-06	3.4159e-06	1206.2	239.84	1.4189e-06	3.3913e-07	299.89	82.027	65.81	19.296	2.8505e-06	26.727	0.00022306	0.00023744	6.8901e-05	1111.3	2.6869e-06	2.842e-06	1188.6	237.63	2.8241e-06	2.7077e-06	298.36	83.1	66.135	19.536	2.6363e-06	26.942	178.614	111.798	123.800	25.915	203.056	168.396	26.526	33.719	174.821	189.022	33.297	40.472	40.955	47.609	165.389	46.793	-8191	255	
718.779	1	1	0	0	0.2688	0.029209	0.084341	0.16089	0.14762	0.19482	0.14815	0.058865	0.10904	0.18858	0.11128	0.24785	0.15222	0.033728	0.13025	0.24994	-0.37708	-1.6292	-0.52917	-1.4312	-1.1646	-0.44792	-1.6917	-0.81875	-0.92708	-1.7125	-0.77083	-1.2854	-1.4521	-0.38125	-1.5667	-0.93333	327.302	88.629	374.523	285.076	293.482	106.165	330.687	233.999	204.316	80.511	130.248	62.487	210.831	338.266	171.406	306.879	0.00017698	0.00042708	7.7244e-05	1130.9	3.5568e-06	4.1181e-06	1212.5	238.25	2.3461e-06	2.8799e-06	300.89	83.351	65.773	19.394	2.8746e-06	26.751	0.0002413	0.00024611	6.8727e-05	1110.7	2.5955e-06	2.7366e-06	1192	236.81	2.8782e-06	2.5597e-06	297.75	83.508	66.019	19.529	2.4965e-06	26.922	169.117	127.160	128.636	26.050	207.066	154.048	26.325	33.719	194.283	166.681	33.092	40.136	40.620	47.504	185.906	46.721	-8191	255	
718.875	1	1	0	0	0.11639	0.16217	0.041001	0.20207	0.09258	0.26678	0.096239	0.040974	0.13562	0.23044	0.37343	0.15868	0.29664	0.16383	0.12649	0.25794	-0.59583	-1.5812	-0.64375	-1.1229	-1.4479	-0.72292	-1.4521	-1.1979	-0.7375	-1.5646	-0.96042	-0.9875	-1.4333	-0.7375	-1.2563	-1.2792	293.116	110.465	55.990	20.473	190.553	249.148	255.432	214.769	174.748	368.120	343.631	356.789	340.139	82.600	293.671	89.952	0.00015718	0.00031009	8.5145e-05	1134	3.2463e-06	2.0236e-06	1213.6	238.55	3.3172e-06	3.0477e-06	299.96	82.666	65.63	19.181	1.7257e-06	26.62	0.00023807	0.00022836	6.416e-05	1111.5	2.6072e-06	2.7081e-06	1190.4	237.04	2.7736e-06	2.5098e-06	298.22	83.222	66.06	19.4	2.5362e-06	26.938	175.604	103.514	114.369	26.204	179.836	144.670	26.565	33.683	205.940	154.353	33.559	40.526	40.933	47.323	173.850	46.995	-8191	255	
718.996	1	1	0	0	0.17969	0.17528	0.25583	0.086308	0.27935	0.05843	0.087561	0.12029	0.15017	0.039649	0.32971	0.056707	0.2095	0.37125	0.41762	0.014469	-0.36458	-1.5979	-0.58958	-1.0458	-1.4667	-0.63958	-1.5812	-1.25	-0.55208	-1.5625	-1.0479	-1.0167	-1.6292	-0.66458	-1.0479	-1.4562	234.075	208.326	317.938	272.410	131.599	365.489	266.170	359.250	344.974	210.726	347.072	118.339	306.825	307.071	142.592	242.686	0.00016262	0.00024369	0.00013286	1133.6	2.7903e-06	3.2336e-06	1207.9	238.1	1.88e-06	2.217e-06	300.87	82.64	65.805	19.187	2.7252e-06	26.754	0.00023683	0.00024695	6.8254e-05	1111.9	2.7549e-06	2.799e-06	1188.6	236.84	3.0547e-06	2.7474e-06	297.76	83.354	66.151	19.479	2.7285e-06	26.944	175.386	88.789	117.852	26.211	133.548	160.712	26.337	33.691	188.654	203.888	33.437	40.603	40.821	46.907	192.141	46.809	-8191	255	
719.067	1	1	0	0	0.053254	0.29873	0.034696	0.26717	0.20834	0.022257	0.25786	0.23038	0.21179	0.22453	0.36526	0.05297	0.1792	0.21477	0.1544	0.37839	-0.27083	-1.6979	-0.8375	-0.77292	-1.6313	-0.69167	-1.1625	-1.3417	-0.6125	-1.3771	-1.1417	-0.86875	-1.7229	-0.64375	-1.1979	-1.5542	271.446	212.597	264.377	328.392	46.432	88.252	287.673	339.691	204.103	337.264	40.742	246.159	73.561	199.147	123.018	54.802	0.00015207	0.00022208	6.0849e-05	1122.3	1.7508e-06	3.0713e-06	1213	238.35	2.1028e-06	3.3515e-06	300.06	82.837	65.765	19.344	3.3089e-06	26.753	0.00024878	0.00024799	6.9912e-05	1108.8	2.8994e-06	2.6936e-06	1190	237.24	2.9953e-06	2.5458e-06	297.8	83.347	66.122	19.543	2.8002e-06	26.999	171.155	82.123	116.513	26.349	163.077	207.524	26.412	33.866	179.808	166.291	33.131	40.140	40.761	47.542	192.620	46.749	-8191	255	
719.188	1	1	0	0	0.1745	0.12958	0.28184	0.05176	0.10907	0.33121	0.18257	0.24573	0.11301	0.052141	0.24737	0.046803	0.18541	0.25362	0.16138	0.15111	-0.25	-1.5708	-1.2083	-0.5	-1.5562	-0.97083	-1.2583	-1.5	-0.71667	-1.3292	-1.3708	-0.57917	-1.6042	-0.80208	-0.91875	-1.6146	322.674	370.283	170.384	82.757	288.830	271.628	312.346	216.258	276.817	22.700	22.521	325.705	63.801	53.997	98.279	363.905	0.00015465	0.00024091	8.4637e-05	1131.9	2.5052e-06	1.8774e-06	1210	238.35	2.6491e-06	5.18e-06	301.75	83.403	65.557	19.247	2.6987e-06	26.795	0.00024636	0.0002417	6.8544e-05	1112.9	2.7692e-06	2.6037e-06	1190.3	237.19	3.0158e-06	2.6099e-06	298.58	83.662	66.075	19.481	2.7014e-06	26.963	175.356	74.768	136.947	26.570	192.776	208.726	26.244	33.381	182.282	188.927	33.382	40.214	41.077	47.156	149.734	46.979	-8191	255	
719.284	1	1	0	0	0.12863	0.20022	0.16208	0.071948	0.25544	0.14697	0.26145	0.34039	0.10569	0.10032	0.093341	0.24408	0.15628	0.10907	0.29211	0.12671	-0.18125	-1.1583	-1.2271	-0.64583	-1.5646	-1.0063	-0.89583	-1.5667	-0.63125	-1.4292	-1.5896	-0.83125	-1.4042	-0.94167	-0.72917	-1.4917	338.592	334.040	38.728	76.134	21.119	210.628	357.747	318.602	170.355	140.736	44.287	68.527	224.278	240.095	40.700	265.234	0.00015988	0.00029675	8.5101e-05	1140.2	2.8516e-06	5.2708e-06	1211.8	239.81	2.5678e-06	7.7063e-07	302.43	82.905	66.098	19.296	3.3993e-06	26.864	0.00024001	0.00024722	6.8006e-05	1113.4	2.6525e-06	2.7352e-06	1191.2	237.74	2.8593e-06	2.7011e-06	298.51	83.341	66.28	19.471	2.9497e-06	27.078	169.672	99.605	135.219	26.589	188.622	153.748	26.619	33.783	184.283	206.129	33.523	40.341	40.942	47.532	181.371	46.829	-8191	255	
719.380	1	1	0	0	0.34161	0.20511	0.27797	0.12126	0.20872	0.47338	0.30281	0.12065	0.26013	0.056466	0.08902	0.071232	0.15746	0.29556	0.17393	0.051665	-0.42917	-0.97917	-1.5063	-0.52083	-1.1938	-1.0125	-0.84375	-1.6063	-0.67708	-1.0292	-1.5125	-0.72917	-1.3708	-1.1021	-0.6375	-1.5167	21.006	236.693	290.930	51.653	196.712	187.592	313.620	290.790	289.947	102.381	24.401	99.644	353.700	296.080	297.854	72.059	0.00015437	0.0004389	6.1155e-05	1138.6	1.0972e-06	2.2397e-06	1210.4	240.51	1.2728e-06	3.5699e-06	299.47	82.248	65.429	19.29	2.1388e-06	26.697	0.00024111	0.00026122	7.1006e-05	1113.6	2.8032e-06	2.8387e-06	1191.1	237.71	3.0116e-06	2.8918e-06	298.13	83.192	66.031	19.5	2.9198e-06	26.976	178.736	123.265	112.521	25.946	172.354	168.490	26.681	33.979	170.546	178.098	33.417	40.430	40.735	47.806	186.893	47.328	-8191	255	
719.476	1	1	0	0	0.13467	0.15484	0.14146	0.088226	0.38036	0.067653	0.19864	0.14551	0.075766	0.32441	0.19115	0.22224	0.20757	0.17105	0.19447	0.054809	-0.35833	-0.77292	-1.2979	-0.59167	-1.2604	-1.3625	-0.78542	-1.4271	-0.80208	-0.95208	-1.6021	-0.67083	-1.1646	-1.2042	-0.81667	-1.4354	245.308	200.769	118.046	78.751	198.595	116.261	278.340	42.813	352.655	290.295	370.049	85.810	281.045	173.496	80.456	28.450	0.00017664	0.00029242	8.2677e-05	1137.5	2.794e-06	2.0111e-06	1208.3	238.71	3.0843e-06	3.3942e-06	300.7	82.6	66.082	19.167	3.6654e-06	26.677	0.00023848	0.00026917	6.9381e-05	1111.3	2.7643e-06	2.7812e-06	1189.3	237.08	2.8421e-06	2.8366e-06	299.18	83.152	66.053	19.445	3.0102e-06	26.892	173.103	102.973	113.305	26.150	183.870	150.293	26.531	33.706	190.670	188.960	33.640	40.301	40.969	47.623	181.129	47.133	-8191	255	
719.595	1	1	0	0	0.30435	0.11176	0.15808	0.23832	0.1654	0.13496	0.18604	0.25437	0.25664	0.020499	0.2237	0.15483	0.13296	0.10574	0.23002	0.092917	-0.6	-0.61875	-1.4688	-0.70833	-1.1979	-1.225	-0.96875	-1.4729	-0.85208	-0.81875	-1.5771	-0.75625	-1.125	-1.5063	-0.62708	-1.6229	80.131	75.366	52.932	346.055	211.338	356.099	288.412	323.981	240.540	302.819	322.392	172.369	164.844	92.645	171.921	239.152	0.00017275	0.00020052	8.0196e-05	1140.8	2.8995e-06	3.6277e-06	1207.5	238.11	1.2769e-06	3.9482e-06	302.22	82.104	65.477	19.069	1.81e-06	26.61	0.00024437	0.0002846	7.3077e-05	1109.1	3.017e-06	2.926e-06	1189.6	236.99	2.9657e-06	3.1889e-06	298.46	82.841	65.921	19.308	3.0797e-06	26.778	173.228	83.246	111.110	26.028	149.636	158.552	26.515	33.786	170.803	198.795	33.271	40.607	40.831	47.699	205.823	47.336	-8191	255	
719.691	1	1	0	0	0.11002	0.10352	0.3537	0.28288	0.21406	0.041076	0.078885	0.22729	0.23699	0.16438	0.063029	0.38363	0.18499	0.29282	0.066138	0.21833	-0.58542	-0.81667	-1.575	-0.78125	-0.86875	-1.6729	-0.7125	-1.5229	-1.275	-0.6875	-1.8104	-0.90417	-0.90208	-1.6313	-0.725	-1.5896	65.298	143.012	217.783	27.651	123.813	159.867	319.532	53.111	143.672	94.172	296.831	365.784	234.924	72.505	111.678	41.195	0.00014295	0.00044985	8.9255e-05	1127.9	3.0674e-06	2.1491e-06	1204	237.65	2.6776e-06	3.4065e-06	299.91	81.319	64.84	19.013	2.242e-06	26.337	0.00024373	0.00027942	7.1793e-05	1106.9	2.8469e-06	2.8552e-06	1184.5	236.39	2.914e-06	2.9744e-06	297.41	82.354	65.395	19.17	2.7332e-06	26.619	173.272	85.513	97.838	26.386	157.571	196.205	26.599	33.971	183.024	178.358	33.628	40.621	41.022	47.788	146.593	47.193	-8191	255	
719.763	1	1	0	0	0.2601	0.085495	0.11473	0.22479	0.10278	0.11783	0.38122	0.1078	0.14514	0.29504	0.31747	0.043074	0.38528	0.028801	0.18461	0.049935	-1.1208	-0.60208	-1.3917	-1	-0.89167	-1.6521	-0.75	-1.3167	-1.1917	-0.59583	-1.7062	-0.90833	-0.92083	-1.4854	-0.80417	-1.3417	249.294	249.491	138.671	235.154	325.674	78.928	329.436	277.516	41.650	89.359	17.247	295.163	305.855	348.025	307.397	311.977	0.00017145	0.00042356	8.7439e-05	1114.9	3.7294e-06	1.5966e-06	1196.8	236.4	1.4022e-06	2.2225e-06	298.17	81.318	64.893	18.904	2.6815e-06	26.071	0.00021912	0.00025255	6.5486e-05	1094.2	2.5621e-06	2.5402e-06	1177.2	234.74	2.5816e-06	2.681e-06	296.02	82.039	65.162	19.068	2.714e-06	26.407	174.487	88.208	116.957	26.243	153.681	158.004	26.507	34.134	199.939	152.248	33.542	40.470	41.176	47.548	176.885	47.204	-8191	255	
719.884	1	1	0	0	0.44939	0.018434	0.24822	0.16854	0.33955	0.084723	0.21969	0.062571	0.1041	0.08119	0.11196	0.07905	0.16628	0.26244	0.17395	0.32653	-1.125	-0.51667	-1.4625	-1.1042	-0.66458	-1.5729	-0.9625	-1.0938	-1.4396	-0.65625	-1.4771	-1.1542	-0.63125	-1.6417	-0.74792	-1.05	234.456	278.637	200.269	214.617	280.255	67.642	92.854	353.537	340.383	368.666	373.774	213.109	185.162	261.595	246.496	373.350	0.000149	0.00029058	0.0001367	1111.9	2.7176e-06	2.6426e-06	1192.3	235.19	1.4232e-06	1.9735e-06	296.85	81.146	63.914	18.779	1.7603e-06	26.243	0.00022369	0.00024444	6.4318e-05	1092	2.7802e-06	2.5197e-06	1171.9	234.08	2.6256e-06	2.6466e-06	294.91	81.725	64.781	19.033	2.5494e-06	26.469	169.568	132.266	107.481	26.261	193.322	149.689	26.687	34.032	190.141	195.098	33.928	40.788	41.029	47.737	132.290	47.237	-8191	255	
719.980	1	1	0	0	0.076374	0.20362	0.15553	0.22184	0.35058	0.15845	0.11947	0.16988	0.11669	0.057616	0.27079	0.11125	0.064859	0.13492	0.15759	0.3463	-1.2125	-0.70625	-1.3083	-1.1896	-0.55417	-1.8312	-0.91875	-1.0708	-1.4958	-0.65208	-1.4417	-1.5021	-0.58958	-1.2979	-1.0812	-0.84167	337.889	103.005	26.283	93.997	237.565	335.848	325.884	231.569	101.291	312.325	351.150	347.224	321.877	255.733	226.220	191.682	0.0001493	0.00035869	8.6913e-05	1112.3	2.7921e-06	4.0546e-06	1193.6	235.12	2.7515e-06	3.0115e-06	297.86	81.368	64.66	18.761	2.2805e-07	26.31	0.00022942	0.00025666	6.4856e-05	1089.4	2.8378e-06	2.6123e-06	1172.8	233.22	2.7397e-06	2.6879e-06	294.59	81.687	64.972	18.984	2.578e-06	26.487	177.157	115.199	127.250	26.778	189.263	161.561	26.673	33.868	175.462	145.611	33.638	40.465	41.433	47.728	198.000	47.343	-8191	255	
720.076	1	1	0	0	0.11858	0.14035	0.065035	0.34759	0.15306	0.069062	0.48986	0.40777	0.048589	0.079355	0.2784	0.11387	0.20425	0.13476	0.28752	0.10689	-1.3062	-0.58333	-1.3	-1.4354	-0.58125	-1.3687	-1.1292	-0.99167	-1.4083	-0.61875	-1.3937	-1.5667	-0.75417	-1.55	-1.0042	-0.66667	127.612	135.079	264.155	350.069	36.645	130.580	303.697	311.213	43.042	55.253	238.594	316.530	307.947	277.813	357.884	89.412	0.0001534	0.0002145	8.2263e-05	1115.2	2.2066e-06	2.8476e-06	1195.1	236.08	3.4543e-06	4.312e-06	296.3	80.993	64.363	18.8	4.0508e-06	26.318	0.00023192	0.00025633	6.9273e-05	1091.9	2.9056e-06	2.6969e-06	1172.2	234.2	2.8327e-06	2.7725e-06	294.6	81.586	64.687	19.02	2.9057e-06	26.441	171.789	105.457	116.955	26.352	184.593	182.404	26.440	34.086	190.429	153.358	33.604	40.454	40.697	47.736	169.475	47.172	-8191	255	
720.172	1	1	0	0	0.30207	0.3297	0.20651	0.14343	0.097428	0.085242	0.34945	0.18407	0.1205	0.12462	0.22319	0.31723	0.1992	0.32399	0.20236	0.051726	-1.4417	-0.68542	-1.0312	-1.5146	-0.4875	-1.3667	-1.1208	-0.94792	-1.425	-0.88333	-0.95625	-1.6562	-0.49792	-1.3062	-1.175	-0.58333	182.757	297.187	150.803	109.412	158.994	235.313	320.921	264.531	374.537	116.880	308.703	122.508	363.491	369.658	275.387	27.795	0.00016895	0.0003819	4.9807e-05	1111.3	3.2338e-06	6.7045e-07	1194.4	236.29	2.6063e-06	2.6171e-06	297.24	81.066	64.452	18.81	3.7554e-06	26.105	0.00023418	0.00026902	7.0749e-05	1094.4	3.098e-06	2.6873e-06	1173.7	234.01	3.0088e-06	2.8802e-06	294.69	81.708	64.732	19.028	2.9356e-06	26.468	179.521	119.142	105.015	26.158	193.617	195.460	26.406	34.005	205.885	144.861	33.995	40.762	41.133	47.812	166.861	47.382	-8191	255	
720.268	1	1	0	0	0.038004	0.075747	0.19156	0.18101	0.077504	0.18486	0.37302	0.32222	0.16455	0.14673	0.19594	0.094784	0.1343	0.021332	0.07376	0.24748	-1.2771	-0.9375	-0.99167	-1.5167	-0.63958	-1.3312	-1.5646	-0.8	-1.3792	-0.88125	-0.91667	-1.6313	-0.71667	-1.1625	-1.2417	-0.76042	132.564	61.324	36.738	76.840	252.064	228.821	285.219	328.230	54.557	118.378	297.318	97.289	71.325	216.850	139.300	119.514	0.00014246	0.00030233	3.6203e-05	1114.1	2.5023e-06	3.9918e-06	1192.8	236.53	2.9286e-06	3.3057e-06	296.33	81.772	64.37	18.821	2.5142e-06	26.165	0.00024538	0.00027072	7.7122e-05	1092.1	3.133e-06	2.877e-06	1173.5	234.51	2.9568e-06	2.9483e-06	294.96	81.968	64.967	19.08	3.0451e-06	26.473	174.193	108.765	122.368	26.619	194.071	155.792	26.582	34.133	190.945	166.325	33.385	40.489	41.227	47.979	167.469	47.265	-8191	255	
720.365	1	1	0	0	0.10017	0.089579	0.34432	0.10773	0.1027	0.035952	0.39416	0.22367	0.056327	0.32352	0.12817	0.29212	0.32031	0.10098	0.095526	0.1541	-1.1125	-0.96458	-0.80208	-1.4792	-0.77292	-0.84167	-1.7437	-0.66875	-1.4542	-1.075	-0.81042	-1.6375	-0.85	-1.1292	-1.5938	-0.68125	75.480	355.440	249.126	33.384	188.075	214.701	294.755	279.910	214.726	303.778	16.460	358.895	173.559	166.018	80.058	316.935	0.00015817	0.00026812	0.0001329	1124.8	3.1907e-06	2.4781e-06	1200.3	235.25	2.3135e-06	4.5118e-06	299.95	81.137	64.579	18.827	3.4387e-06	26.161	0.00025685	0.00028788	8.2715e-05	1101.1	3.2461e-06	2.9983e-06	1176.6	234.44	3.0755e-06	3.1697e-06	295.52	81.779	64.921	19.03	3.1575e-06	26.491	171.649	81.738	129.859	26.598	154.135	210.432	26.484	33.914	199.092	158.441	33.729	40.520	40.985	48.050	170.102	47.813	-8191	255	
720.461	1	1	0	0	0.041751	0.10567	0.077947	0.099535	0.054801	0.11606	0.11481	0.15636	0.2001	0.33219	0.3939	0.098966	0.11932	0.19712	0.071493	0.083503	-0.88125	-1.2458	-0.59583	-1.5562	-0.88958	-1.0187	-1.6875	-0.6	-1.2458	-1.2875	-0.84583	-1.6333	-0.97708	-0.92292	-1.5604	-0.78333	205.757	43.171	25.323	278.328	334.703	245.283	299.263	178.398	223.612	87.103	262.230	74.907	238.053	255.854	168.354	352.298	0.00014935	0.00034943	7.1012e-05	1122.6	4.017e-06	2.4232e-06	1194	234.75	2.5539e-06	2.2973e-06	296.56	81.338	64.403	18.784	2.5042e-06	26.25	0.00024839	0.00027822	8.1025e-05	1098.7	3.0122e-06	3.042e-06	1174.3	234.12	3.059e-06	2.984e-06	295.23	81.997	64.728	18.992	3.0158e-06	26.416	174.047	122.714	117.546	26.557	180.897	133.323	26.436	33.873	186.868	145.404	33.782	40.916	41.437	47.737	171.418	46.978	-8191	255	
720.557	1	1	0	0	0.24732	0.13074	0.07159	0.043891	0.082055	0.21005	0.26855	0.33018	0.19795	0.14372	0.5209	0.11404	0.047474	0.075887	0.038924	0.15287	-0.86458	-1.2292	-0.62917	-1.4979	-0.98542	-0.74167	-1.5458	-0.69792	-0.97917	-1.4292	-0.73333	-1.4792	-0.94375	-0.60833	-1.4562	-0.78333	116.129	94.040	226.861	334.148	150.466	369.827	332.137	228.910	263.039	116.044	289.064	305.340	111.806	181.175	76.586	229.930	0.00015744	0.00030288	3.0846e-05	1112.7	1.9033e-06	1.9031e-06	1195.1	234.85	2.9931e-06	5.8006e-06	297.43	81.364	64.831	18.849	2.2137e-06	26.219	0.00024433	0.0002605	8.3909e-05	1096	2.9801e-06	3.0162e-06	1175.3	234.19	3.0666e-06	2.9711e-06	295.06	81.792	64.973	19.039	2.8377e-06	26.412	172.988	66.421	97.381	26.470	164.700	209.654	26.615	33.848	206.651	183.245	33.549	40.684	41.362	47.598	167.577	47.556	-8191	255	
720.676	1	1	0	0	0.22033	0.38988	0.13689	0.10103	0.13208	0.13622	0.29557	0.2193	0.26631	0.054053	0.18272	0.26951	0.10079	0.27081	0.053385	0.11187	-0.77917	-1.4896	-0.63333	-1.4083	-1.2437	-0.675	-1.9896	-1.0083	-0.83125	-1.6292	-0.75	-1.3563	-1.0917	-0.68125	-1.4312	-0.87292	347.535	116.019	131.947	366.296	144.895	269.993	304.792	315.680	180.427	40.087	21.328	39.812	339.270	278.572	262.806	78.949	0.00017397	0.00027004	9.5208e-05	1115.8	1.8221e-06	2.5237e-06	1189.8	235.14	2.4488e-06	3.8322e-06	296.44	80.922	64.596	18.795	2.7083e-06	26.196	0.00024809	0.00025839	8.1472e-05	1093.5	2.8835e-06	3.0522e-06	1172.7	233.77	3.1317e-06	3.0487e-06	294.45	81.753	64.691	19.008	2.8742e-06	26.373	168.931	112.368	112.597	25.869	177.525	186.381	26.667	34.092	166.734	177.704	33.509	41.052	40.875	47.928	171.186	47.178	-8191	255	
720.772	1	1	0	0	0.2072	0.074857	0.045121	0.20072	0.31366	0.22946	0.35009	0.14465	0.12236	0.05676	0.015971	0.06198	0.13989	0.07112	0.11168	0.10129	-0.60625	-1.35	-0.70625	-1.0604	-1.2188	-0.58125	-1.5354	-0.93542	-0.71875	-1.5333	-0.70417	-1.2938	-1.3521	-0.72917	-1.4729	-1.1625	83.916	229.613	252.950	137.137	22.074	98.639	354.405	272.350	161.722	177.716	262.176	26.346	49.527	272.564	86.010	181.890	0.00015417	0.0004427	9.9023e-05	1113.9	3.5818e-06	1.7477e-06	1193.2	234.75	2.6623e-06	3.6321e-06	297.8	81.468	64.068	18.842	3.055e-06	26.134	0.00025215	0.00028472	7.8e-05	1091.1	2.9801e-06	3.3289e-06	1172.6	233.57	3.0577e-06	3.0253e-06	294.97	81.949	64.57	19.022	2.9837e-06	26.407	173.947	98.129	123.116	26.519	150.464	187.644	26.555	33.877	206.505	162.559	33.431	40.333	40.635	47.723	193.465	47.051	-8191	255	
720.868	1	1	0	0	0.11103	0.11714	0.12845	0.09143	0.18175	0.055122	0.061688	0.15884	0.13729	0.14754	0.19518	0.052202	0.25895	0.46836	0.26248	0.15747	-0.51458	-1.5708	-0.675	-1.3958	-1.4917	-0.66042	-1.6313	-0.96458	-0.69167	-1.4937	-0.67917	-1.3167	-1.3458	-0.59375	-1.3271	-1.2313	266.871	276.606	27.973	216.175	202.667	308.913	270.436	25.176	282.412	187.327	252.406	36.903	285.817	53.385	70.474	198.455	0.00014351	0.00038622	7.9287e-05	1119	1.9564e-06	2.7447e-06	1192.1	235.81	2.0292e-06	4.4435e-06	297.47	81.265	64.186	18.722	2.2832e-06	25.964	0.00025879	0.00027376	7.3773e-05	1096.3	3.0261e-06	3.041e-06	1173.6	233.86	3.0999e-06	2.9341e-06	294.83	81.739	64.643	18.923	2.9412e-06	26.33	172.735	92.586	142.048	26.771	168.718	155.113	26.503	33.937	180.559	156.564	33.483	40.732	40.986	48.004	225.685	47.369	-8191	255	
720.989	1	1	0	0	0.15359	0.1989	0.13694	0.25644	0.0785	0.27493	0.13598	0.15017	0.12326	0.23663	0.16237	0.043987	0.137	0.13651	0.13059	0.13207	-0.089583	-1.5521	-0.975	-0.79583	-1.6688	-0.7	-1.4562	-1.2938	-0.61875	-1.5229	-0.95833	-1.0312	-1.5896	-0.76042	-1.2521	-1.1542	46.069	280.117	275.246	323.880	139.938	252.194	275.828	84.590	54.908	112.446	132.556	362.488	249.204	91.774	361.008	361.103	0.00016624	0.00025963	6.5384e-05	1120.7	2.5873e-06	3.5293e-06	1192	234.38	1.6155e-06	3.3742e-06	296.51	81.356	63.788	18.799	3.2549e-06	26.287	0.00025973	0.00026241	7.5555e-05	1095.7	2.9457e-06	3.2377e-06	1174.5	233.54	3.1366e-06	3.0689e-06	294.26	81.693	64.535	18.927	2.9907e-06	26.456	174.809	92.192	98.533	26.234	173.544	164.317	26.548	33.670	187.737	191.593	33.514	40.373	41.210	48.079	160.888	46.953	-8191	255	
721.060	1	1	0	0	0.32674	0.22354	0.09571	0.14549	0.2024	0.22192	0.23757	0.33745	0.099774	0.26848	0.080666	0.17708	0.16416	0.31327	0.050328	0.21671	-0.11042	-1.3625	-0.93125	-0.92917	-1.4708	-0.53333	-1.4458	-1.4417	-0.45208	-1.6479	-1.1562	-0.89583	-1.5917	-0.63958	-0.97708	-1.4292	246.746	26.580	372.686	224.324	45.885	69.031	344.155	360.139	302.386	179.967	302.828	341.691	55.597	70.583	195.486	157.979	0.000172	0.0001432	6.9161e-05	1118.3	2.8912e-06	3.0117e-06	1194.1	235.37	2.4064e-06	2.7802e-06	296.34	80.671	64.62	18.663	3.2456e-06	25.916	0.00025703	0.00026968	7.4677e-05	1098.3	2.834e-06	3.0155e-06	1174.6	233.76	3.0632e-06	2.9119e-06	294.01	81.468	64.541	18.899	2.8585e-06	26.276	172.938	80.766	111.606	26.230	166.574	182.602	26.432	33.894	185.049	174.143	33.341	40.588	40.754	47.631	169.636	47.308	-8191	255	
721.156	1	1	0	0	0.34897	0.10278	0.27114	0.27404	0.20219	0.21173	0.27	0.11815	0.14212	0.22148	0.12657	0.099331	0.11207	0.22221	0.37467	0.035411	-0.29792	-1.3125	-1.2021	-0.68333	-1.625	-0.775	-1.2896	-1.4771	-0.69583	-1.4958	-1.2604	-0.73958	-1.5688	-0.75625	-1.0562	-1.6271	373.439	187.861	306.911	302.958	114.669	362.735	326.082	46.959	318.886	164.464	17.000	289.665	342.731	358.735	145.811	78.711	0.00016064	0.0002917	8.5738e-05	1120.8	1.9525e-06	3.4976e-06	1191.8	234.19	2.1214e-06	3.3178e-06	296.43	81.569	64.204	18.769	2.7977e-06	26.197	0.00025754	0.00027361	7.6185e-05	1098.6	3.1013e-06	3.0807e-06	1172.5	233.39	3.2296e-06	2.9176e-06	293.58	81.559	64.591	18.943	3.1877e-06	26.335	173.938	106.485	140.545	25.964	200.178	162.227	26.498	33.841	209.039	185.824	33.310	40.672	41.184	48.076	194.067	47.502	-8191	255	
721.277	1	1	0	0	0.081676	0.1474	0.071066	0.13063	0.24994	0.11277	0.20918	0.10269	0.10548	0.067621	0.2342	0.017998	0.18347	0.29477	0.17395	0.18026	-0.19583	-1.4562	-1.3167	-0.58958	-1.6208	-0.74583	-1.2604	-1.6833	-0.75208	-1.3042	-1.3521	-0.59792	-1.3563	-0.95208	-0.7625	-1.6854	127.084	254.368	227.513	299.005	103.914	60.910	215.768	281.362	225.977	209.629	271.250	374.934	206.438	323.729	155.366	123.847	0.00015791	0.00041263	6.9944e-05	1128	2.8203e-06	4.2567e-06	1196.3	235.12	1.9277e-06	3.0811e-06	296.17	80.883	64.598	18.647	3.2695e-06	25.842	0.00025277	0.00027122	7.3533e-05	1097.2	2.9785e-06	2.9878e-06	1174.6	233.39	3.0813e-06	3.0167e-06	294.26	81.267	64.608	18.852	3.16e-06	26.273	173.163	71.885	104.817	26.387	167.647	181.279	26.515	33.850	188.820	162.461	33.419	40.309	41.235	47.906	192.289	47.237	-8191	255	
721.373	1	1	0	0	0.061327	0.27228	0.32398	0.23987	0.16402	0.23261	0.28287	0.29043	0.22686	0.07576	0.21385	0.34274	0.036556	0.25725	0.10702	0.30262	-0.29167	-1.1875	-1.3229	-0.5	-1.5354	-1.0875	-0.97292	-1.5167	-0.87917	-1.1917	-1.4646	-0.81042	-1.4292	-1.0667	-0.775	-1.6521	254.268	350.558	358.669	364.707	276.863	222.683	361.230	357.119	262.938	266.198	34.856	324.911	205.689	159.603	274.549	67.062	0.0001485	0.00035807	6.0586e-05	1121.5	1.5175e-06	1.9772e-06	1192.3	235.73	3.2135e-06	3.8544e-06	297.2	80.982	64.188	18.82	2.6144e-06	25.981	0.00025979	0.00028266	7.6168e-05	1096.8	3.0773e-06	2.8939e-06	1172	233.77	3.1327e-06	3.0421e-06	294.6	81.579	64.489	18.918	3.1399e-06	26.312	173.027	100.083	125.424	26.206	191.942	162.240	26.478	33.641	216.448	162.747	33.471	40.553	41.243	47.711	166.751	47.330	-8191	255	
721.468	1	1	0	0	0.30496	0.23099	0.14981	0.025692	0.31461	0.24079	0.08937	0.088995	0.14377	0.14259	0.13997	0.2516	0.087842	0.015114	0.10077	0.21842	-0.63542	-1.1021	-1.6167	-0.77292	-1.3542	-1.1271	-0.86875	-1.6479	-1.0979	-0.88125	-1.7979	-0.84792	-1.3813	-1.2667	-0.79583	-1.6417	366.850	75.734	306.910	373.796	245.491	126.252	329.279	333.351	314.544	294.270	57.113	330.801	240.221	344.215	291.578	331.656	0.00016798	0.00035414	0.00012646	1113.3	3.6515e-06	4.317e-06	1189.7	235.45	3.5046e-06	2.2421e-06	297.61	81.108	63.885	18.727	3.3141e-06	26.224	0.00025221	0.00027313	8.0975e-05	1094.9	3.0002e-06	2.9726e-06	1171.7	233.5	3.1635e-06	3.1277e-06	294.04	81.42	64.5	18.932	3.1443e-06	26.385	173.483	108.800	123.983	26.177	172.156	177.592	26.587	33.970	211.664	205.846	33.474	40.446	40.722	47.644	162.001	47.511	-8191	255	
721.588	1	1	0	0	0.1189	0.3228	0.25153	0.18263	0.071594	0.087247	0.058024	0.21547	0.31995	0.36009	0.18282	0.083524	0.034372	0.26206	0.029715	0.058504	-0.61875	-0.91458	-1.6688	-0.78125	-1.2458	-1.2646	-0.79583	-1.5854	-1.0917	-0.78958	-1.6688	-0.85833	-1.175	-1.5979	-0.69583	-1.5875	242.709	357.963	189.607	170.882	106.486	152.226	274.670	291.582	125.609	83.656	340.386	300.740	356.684	344.456	27.451	209.107	0.0001451	0.00035855	0.00010342	1109.1	3.4988e-06	2.5688e-06	1188.3	234.64	2.4386e-06	3.2463e-06	294.61	80.769	64.196	18.634	2.3266e-06	25.837	0.00024836	0.0002938	7.8572e-05	1090.7	3.0219e-06	2.9898e-06	1170.3	232.92	2.8764e-06	2.9995e-06	293.79	81.196	64.629	18.9	3.2066e-06	26.216	177.120	95.737	123.710	25.829	164.521	167.018	26.558	33.867	203.388	165.769	33.600	40.372	41.062	47.565	169.716	47.288	-8191	255	
721.660	1	1	0	0	0.079281	0.25872	0.23788	0.17457	0.095089	0.20013	0.3229	0.34825	0.26851	0.12124	0.075017	0.11828	0.29718	0.15846	0.14045	0.1652	-0.7875	-0.84792	-1.5875	-0.86042	-1.1187	-1.4167	-0.75833	-1.6792	-1.2729	-0.75833	-1.8	-0.83958	-1.0708	-1.3563	-0.7125	-1.5396	41.823	251.442	231.404	319.734	115.674	175.295	325.272	319.989	364.056	262.583	75.626	323.213	236.918	75.904	158.971	76.894	0.00012765	0.00024205	7.4718e-05	1107.1	2.6216e-06	4.2431e-06	1190.6	235.24	1.8457e-06	2.7046e-06	295.98	80.392	64.337	18.584	3.0329e-06	26.076	0.00024402	0.00027584	7.7544e-05	1088.8	2.9574e-06	2.9402e-06	1170.4	233.05	2.8895e-06	3.1386e-06	293.75	81.251	64.407	18.843	3.0174e-06	26.334	172.020	97.468	83.105	25.901	166.802	166.109	26.345	33.841	196.475	168.464	33.533	40.454	41.001	47.712	193.667	47.523	-8191	255	
721.756	1	1	0	0	0.068985	0.18162	0.13099	0.099141	0.090036	0.25564	0.17645	0.073059	0.36143	0.22548	0.24539	0.39403	0.24827	0.094802	0.12542	0.29959	-0.93333	-0.72292	-1.575	-1.0688	-0.73542	-1.5646	-0.89583	-1.5646	-1.4208	-0.82708	-1.8125	-1.0875	-0.975	-1.6771	-0.69583	-1.3458	71.728	58.355	130.899	131.056	254.696	103.317	67.368	186.996	190.812	182.740	39.420	32.017	60.924	99.506	363.535	55.979	0.00014783	0.00046975	9.9341e-05	1107.4	3.9973e-06	4.4358e-06	1185.1	235.29	2.9868e-06	2.104e-06	296.91	80.12	64.124	18.653	1.8523e-06	26.085	0.00023495	0.00027388	7.4188e-05	1089.6	2.8456e-06	2.8132e-06	1169.1	233.36	2.8317e-06	2.9096e-06	293.79	81.009	64.335	18.831	2.8585e-06	26.295	169.905	112.126	85.942	26.203	198.347	178.347	26.404	33.979	207.252	188.143	33.533	40.594	41.283	47.998	178.306	47.571	-8191	255	
721.852	1	1	0	0	0.07411	0.19553	0.099211	0.064909	0.18809	0.071748	0.099905	0.14166	0.11608	0.020318	0.2056	0.014525	0.024468	0.27322	0.13782	0.13627	-1.0125	-0.825	-1.4479	-1.0562	-0.96875	-1.7208	-1.0042	-1.3937	-1.4479	-0.7875	-1.5979	-1.3146	-1.0521	-1.7167	-0.91667	-1.3042	127.912	262.279	181.959	30.748	70.493	40.471	363.982	358.446	138.873	198.210	45.787	161.917	291.790	36.382	169.219	141.714	0.00015877	0.00018731	8.1568e-05	1112.1	1.1702e-06	3.9612e-06	1185.8	233.94	2.4086e-06	2.1362e-06	294.38	80.694	64.014	18.661	2.2719e-06	25.894	0.00024128	0.00026562	6.9862e-05	1089.7	2.935e-06	2.6721e-06	1166.7	232.6	2.7877e-06	2.9139e-06	292.8	80.928	64.302	18.811	2.7578e-06	26.232	174.001	125.246	99.482	26.350	184.778	161.108	26.487	34.053	202.674	194.050	33.574	40.504	41.202	47.549	170.125	47.152	-8191	255	
721.948	1	1	0	0	0.27535	0.21785	0.1939	0.40203	0.11755	0.24103	0.030048	0.018234	0.14919	0.35864	0.18861	0.10882	0.143	0.11721	0.20919	0.16386	-1.2125	-0.46875	-1.4688	-1.3125	-0.77292	-1.5875	-1.075	-1.0958	-1.6979	-0.72083	-1.475	-1.3312	-0.55417	-1.5875	-0.95417	-1.0333	131.251	109.291	273.618	80.280	327.530	24.611	222.538	255.569	180.081	179.953	199.140	95.409	215.750	25.155	249.365	53.154	0.00015643	0.00030912	8.5727e-05	1117.6	1.3488e-06	3.9462e-06	1187.5	233.73	1.2007e-06	2.9189e-06	294.33	80.784	63.669	18.742	2.4617e-06	26.002	0.00022545	0.0002524	6.7127e-05	1087.7	2.773e-06	2.6638e-06	1166	232.42	2.696e-06	2.7698e-06	292.72	81.029	64.119	18.897	2.6287e-06	26.22	169.482	110.360	117.608	26.479	206.814	176.028	26.516	34.092	180.382	182.033	33.439	40.297	41.282	47.667	169.847	47.482	-8191	255	
722.069	1	1	0	0	0.17176	0.058558	0.17639	0.15923	0.12716	0.020982	0.30367	0.10598	0.13728	0.12501	0.13644	0.22476	0.136	0.16422	0.050684	0.24663	-1.3292	-0.8625	-1.4958	-1.3458	-0.77292	-1.5042	-1.2208	-0.97083	-1.7917	-0.825	-1.3979	-1.4708	-0.80833	-1.4438	-1.0875	-0.89792	183.534	114.199	100.712	97.205	60.821	340.978	304.166	351.776	292.173	247.377	103.028	293.867	358.449	340.176	245.996	19.030	0.00016247	0.00023281	9.3607e-05	1116.6	1.9988e-06	2.8298e-06	1186.8	234.36	2.4952e-06	4.8267e-06	295.09	80.316	63.604	18.658	3.5279e-06	26.154	0.00022894	0.00025264	6.5826e-05	1086.7	2.9804e-06	2.7683e-06	1166.4	232.72	2.8333e-06	2.8812e-06	293.08	80.91	64.254	18.828	2.8084e-06	26.265	180.457	96.076	88.869	26.523	190.498	187.561	26.532	34.070	179.672	177.837	33.812	40.585	40.561	47.771	171.146	47.290	-8191	255	
722.165	1	1	0	0	0.28823	0.036664	0.073821	0.27251	0.18404	0.22998	0.18939	0.24126	0.18959	0.15599	0.079068	0.15309	0.28754	0.19433	0.073202	0.15299	-1.2896	-0.72292	-1.025	-1.4354	-0.69375	-1.5729	-1.2208	-0.94792	-1.7146	-0.7375	-1.1437	-1.8708	-0.76667	-1.4583	-1.1271	-0.62292	34.661	126.982	187.539	293.586	120.243	28.709	299.967	211.016	297.192	88.319	281.441	305.708	322.102	63.399	129.252	367.699	0.00014807	0.00025992	8.6431e-05	1108.3	2.4748e-06	3.1823e-06	1189.8	233.34	2.3068e-06	3.2613e-06	296.74	80.407	63.889	18.632	2.5158e-06	26.007	0.00024692	0.00025472	6.9381e-05	1086.1	2.6759e-06	2.724e-06	1169.7	232.89	2.8189e-06	2.8905e-06	292.78	80.971	64.319	18.78	2.624e-06	26.252	167.645	96.967	107.919	26.275	200.727	171.894	26.512	34.097	170.765	201.764	33.632	40.712	41.245	47.996	168.756	47.632	-8191	255	
722.237	1	1	0	0	0.25623	0.03988	0.24365	0.10437	0.34024	0.052846	0.23802	0.070849	0.1838	0.19183	0.20606	0.054595	0.10678	0.17791	0.12892	0.14386	-1.2604	-0.7125	-0.95	-1.6042	-0.85625	-1.3646	-1.4604	-0.86875	-1.3667	-1.0063	-1.0958	-1.5083	-0.69792	-1.3354	-1.3188	-0.84375	258.563	30.146	132.845	124.310	252.436	177.096	357.201	109.145	41.859	358.166	115.353	325.626	292.808	271.066	138.276	43.904	0.00015029	0.00032191	6.7397e-05	1115.9	3.3384e-06	2.1398e-06	1187.1	232.78	2.437e-06	2.71e-06	295.81	79.876	63.715	18.625	3.5424e-06	25.954	0.00023994	0.00026288	7.1395e-05	1089.6	2.9827e-06	2.8377e-06	1167.7	232	2.9067e-06	2.8333e-06	293.13	80.963	64.1	18.839	2.7231e-06	26.173	170.967	99.477	127.255	26.210	210.374	183.819	26.467	33.935	178.582	173.318	33.336	40.557	41.208	47.962	189.777	47.481	-8191	255	
722.357	1	1	0	0	0.21964	0.17012	0.14457	0.09793	0.11134	0.12591	0.12535	0.21931	0.24197	0.09864	0.23419	0.13459	0.20222	0.022982	0.15624	0.11153	-1.3646	-0.9625	-0.91458	-1.6646	-0.87917	-1.3813	-1.6333	-0.76458	-1.6187	-1.2229	-1.1063	-1.7583	-0.8125	-1.1104	-1.5479	-0.7875	362.163	202.715	179.150	109.376	219.284	293.028	265.261	374.428	234.552	280.317	95.458	46.562	114.501	319.544	296.838	204.982	0.00015523	0.00017738	9.047e-05	1116.4	1.3222e-06	4.6335e-06	1185.3	233.24	3.1192e-06	2.8526e-06	294.95	80.445	63.745	18.664	2.2573e-06	26.096	0.00023796	0.00024623	7.403e-05	1090.4	2.9451e-06	2.7435e-06	1166.8	232.37	2.7837e-06	2.8019e-06	292.73	80.909	64.141	18.817	2.6898e-06	26.269	174.720	138.033	99.509	26.176	201.376	175.469	26.513	33.710	198.759	165.738	33.697	40.422	40.840	47.894	150.959	47.243	-8191	255	
722.454	1	1	0	0	0.15876	0.28284	0.070399	0.027439	0.25925	0.25401	0.071139	0.069032	0.021055	0.02952	0.13658	0.24779	0.057835	0.063325	0.11132	0.21364	-1.1583	-1.1104	-0.78333	-1.625	-0.88333	-1.1208	-1.8563	-0.93125	-1.3312	-1.3896	-0.79583	-1.4896	-0.91667	-1.0312	-1.4521	-0.82917	253.975	349.167	243.611	161.301	59.581	146.585	346.073	281.686	347.599	138.292	33.928	362.508	351.551	57.716	332.974	287.158	0.00015704	0.00021724	0.00010733	1103.5	2.6592e-06	4.6093e-06	1187.5	232.87	2.0575e-06	2.2383e-06	297.45	80.959	63.592	18.569	3.0703e-06	25.854	0.0002379	0.00025031	7.5166e-05	1085	2.7497e-06	2.9187e-06	1168.1	231.9	2.866e-06	2.8075e-06	292.72	81.048	63.973	18.807	2.9324e-06	26.193	169.425	106.244	94.004	26.031	198.295	168.969	26.501	33.887	170.655	147.078	33.671	40.563	41.298	47.574	183.587	47.256	-8191	255	
722.550	1	1	0	0	0.33217	0.080915	0.15441	0.18996	0.29447	0.065732	0.10683	0.41122	0.13045	0.20692	0.21637	0.37543	0.29902	0.21457	0.32337	0.28343	-1.2062	-1.3833	-0.65208	-1.75	-0.86667	-1.1417	-1.7979	-0.95208	-1.4646	-1.4042	-0.76042	-1.7125	-1.0833	-1.0167	-1.7021	-0.73333	251.333	183.989	148.902	146.894	354.411	341.189	318.768	49.188	174.760	28.281	47.527	303.124	329.113	329.367	128.480	286.094	0.0001528	0.00026186	4.3375e-05	1113	3.7427e-06	3.8818e-06	1188.7	233	2.4544e-06	3.9883e-06	295.54	80.982	63.703	18.754	2.6279e-06	26.064	0.0002483	0.00026244	7.6268e-05	1085	3.018e-06	3.0066e-06	1168.3	231.87	2.9779e-06	2.8895e-06	293.06	81.168	64.26	18.837	2.9088e-06	26.202	169.994	88.621	107.795	25.984	159.937	172.920	26.604	34.109	174.310	155.354	33.505	40.635	41.095	47.978	212.234	47.291	-8191	255	
722.669	1	1	0	0	0.11705	0.45243	0.20167	0.29396	0.42384	0.178	0.24898	0.39654	0.10873	0.080042	0.20282	0.41667	0.10921	0.19847	0.19274	0.17635	-0.87917	-1.3875	-0.55	-1.5604	-1.0854	-0.98333	-1.8354	-1.1521	-1.1958	-1.7146	-0.86458	-1.5292	-1.2271	-0.7875	-1.7396	-0.89792	129.940	75.610	58.121	26.739	92.212	87.263	347.727	290.897	374.997	174.843	62.018	274.534	261.829	279.877	70.217	252.865	0.0001517	0.00044385	9.1842e-05	1111.9	2.143e-06	2.7073e-06	1185.4	233.28	2.2953e-06	2.4316e-06	295.36	80.707	63.758	18.55	3.4527e-06	25.875	0.00024318	0.00026074	7.6674e-05	1088.4	2.7977e-06	3.038e-06	1166.2	232.21	2.9883e-06	2.8766e-06	292.48	81.09	64.184	18.834	2.9982e-06	26.234	168.735	101.166	123.814	26.286	156.605	161.120	26.532	34.090	202.561	138.201	33.416	40.648	41.165	48.156	150.501	47.757	-8191	255	
722.765	1	1	0	0	0.35218	0.1189	0.02587	0.19738	0.18758	0.20916	0.024397	0.30311	0.14016	0.23203	0.063278	0.22197	0.13759	0.028407	0.33447	0.10454	-0.725	-1.5125	-0.64792	-1.4583	-1.2646	-0.73958	-1.9042	-0.91875	-0.85833	-1.6146	-0.76667	-1.5562	-1.3687	-0.78958	-1.6521	-1.1104	276.384	163.214	246.015	226.451	140.739	24.161	292.769	313.291	254.654	368.942	326.733	372.989	249.214	264.616	51.398	212.437	0.00016283	0.00034722	8.699e-05	1116	3.4008e-06	3.5733e-06	1184.3	234.12	2.7763e-06	3.1416e-06	295.64	80.633	63.551	18.459	2.4242e-06	25.922	0.00024536	0.00027537	7.4486e-05	1089.1	2.7481e-06	3.0731e-06	1165.9	232.21	2.851e-06	2.83e-06	292.89	80.991	63.976	18.759	2.7187e-06	26.16	176.484	107.267	99.507	26.921	180.420	156.592	26.778	34.135	189.045	181.762	33.796	40.665	41.217	48.047	167.119	47.287	-8191	255	
722.861	1	1	0	0	0.07297	0.17484	0.23346	0.20065	0.22403	0.19627	0.18445	0.1802	0.27253	0.28744	0.10918	0.14623	0.098909	0.023208	0.19372	0.16489	-0.58333	-1.5042	-0.75833	-1.2625	-1.5604	-0.73333	-1.675	-1.1167	-0.86667	-1.4438	-0.9625	-1.15	-1.6583	-0.65417	-1.6854	-1.2625	24.757	289.088	127.187	347.926	105.595	346.458	95.243	243.032	319.763	365.207	346.862	86.411	358.692	345.825	118.989	302.143	0.00016048	0.00038378	6.8295e-05	1110.3	1.8847e-06	3.3378e-06	1187.1	234.69	2.2157e-06	2.2575e-06	294.85	80.142	63.608	18.627	3.0108e-06	25.98	0.00024557	0.00025192	7.224e-05	1085.8	2.751e-06	3.0681e-06	1165.3	232.37	2.8504e-06	2.6311e-06	293.12	80.919	64.164	18.832	2.5862e-06	26.237	169.062	83.487	82.731	26.165	145.350	188.182	26.696	34.073	200.058	178.081	33.412	40.782	41.078	48.062	195.183	47.230	-8191	255	
722.957	1	1	0	0	0.1527	0.044399	0.060879	0.28876	0.3217	0.26757	0.22701	0.074322	0.46092	0.18432	0.15461	0.139	0.22077	0.070899	0.071279	0.061976	-0.42083	-1.6875	-0.83333	-1.1437	-1.4104	-0.68333	-1.4562	-1.4021	-0.80417	-1.6292	-0.86875	-0.89167	-1.5583	-0.9875	-1.3104	-1.2875	129.662	362.644	81.591	306.833	238.996	30.611	333.420	361.844	372.880	227.151	209.284	348.192	272.532	148.413	40.479	324.715	0.00014774	0.00041604	5.485e-05	1115.2	2.823e-06	3.8186e-06	1184	232.67	2.933e-06	3.9956e-06	294.58	80.192	63.389	18.731	2.8816e-06	25.982	0.00023389	0.00024546	6.7052e-05	1084.5	2.7257e-06	2.6919e-06	1165.2	231.76	2.8461e-06	2.6099e-06	292.15	80.839	64.081	18.799	2.6473e-06	26.181	167.001	99.232	141.477	26.398	209.005	172.964	26.699	34.005	198.859	188.838	33.759	40.867	40.936	48.200	162.791	47.565	-8191	255	
723.053	1	1	0	0	0.10157	0.26633	0.23187	0.25713	0.15723	0.13347	0.089652	0.18881	0.073729	0.22609	0.30607	0.26524	0.19322	0.2198	0.27747	0.039042	-0.35208	-1.6063	-0.82292	-0.84583	-1.6292	-0.8375	-1.5625	-1.5979	-0.6125	-1.6	-1.0125	-1.0583	-1.5958	-0.66875	-1.4333	-1.5604	362.710	131.732	116.430	206.625	332.756	319.383	295.017	374.746	23.652	49.604	65.695	341.044	323.339	286.948	120.357	306.221	0.00015385	0.00019657	5.9764e-05	1110.1	1.2583e-06	1.8243e-06	1188.9	232.74	2.7628e-06	3.587e-06	295.06	80.266	63.371	18.69	2.3945e-06	25.825	0.00024402	0.00024856	6.5536e-05	1085.5	2.7423e-06	2.7805e-06	1166.6	231.74	2.9449e-06	2.8468e-06	292.6	80.789	64.018	18.812	2.6636e-06	26.149	170.794	89.502	136.579	26.488	149.767	141.908	26.707	33.932	212.407	156.837	33.363	40.454	40.868	47.685	182.300	47.273	-8191	255	
723.149	1	1	0	0	0.054519	0.33186	0.29495	0.17522	0.16894	0.18985	0.13365	0.19912	0.27208	0.22073	0.25168	0.32586	0.16348	0.10392	0.17172	0.14944	-0.375	-1.6021	-1.0604	-0.94583	-1.8542	-0.825	-1.4542	-1.5625	-0.72292	-1.6208	-1.1958	-0.86458	-1.6938	-0.78542	-1.2188	-1.5208	74.753	358.275	358.148	42.058	152.699	197.545	108.731	62.107	18.778	305.054	305.587	298.545	338.705	351.394	107.692	49.363	0.00013697	0.00033804	0.00010131	1104.5	1.9435e-06	2.8586e-06	1179.8	234.45	3.0113e-06	3.2531e-06	294.64	79.921	63.707	18.638	2.6347e-06	25.989	0.00024389	0.00025493	6.4425e-05	1083.8	2.7659e-06	2.7197e-06	1163.9	232.33	2.9654e-06	2.6572e-06	292.67	80.754	64.197	18.837	2.7423e-06	26.281	175.899	86.008	121.906	26.581	185.156	178.582	26.603	33.853	172.387	175.785	33.705	40.413	41.219	48.276	185.800	47.861	-8191	255	
723.246	1	1	0	0	0.13133	0.19442	0.060611	0.16246	0.2065	0.088006	0.31027	0.075893	0.11947	0.22341	0.14401	0.076122	0.27074	0.16629	0.10179	0.23403	-0.38333	-1.5271	-1.4042	-0.93125	-1.5979	-0.85	-1.1292	-1.6187	-0.62292	-1.2437	-1.2687	-0.73333	-1.7542	-1.1542	-1.0458	-1.7083	54.600	336.216	220.043	203.233	32.301	44.123	292.154	350.187	373.344	297.858	62.768	112.813	310.612	97.355	205.974	94.960	0.00014095	0.00042112	8.272e-05	1111.4	1.2482e-06	3.0504e-06	1185.9	233.45	3.3186e-06	3.4406e-06	295.6	80.679	64.177	18.571	1.6862e-06	25.956	0.00024057	0.00025171	7.1925e-05	1090	2.7973e-06	2.7521e-06	1165.9	232.06	2.9568e-06	2.7966e-06	293.12	81.059	64.266	18.801	2.7156e-06	26.267	167.129	100.736	110.765	26.397	176.487	169.424	26.719	34.094	199.007	176.018	33.554	40.439	41.132	47.925	201.650	47.744	-8191	255	
723.366	1	1	0	0	0.10083	0.10183	0.12487	0.23157	0.065579	0.33863	0.41508	0.080352	0.32617	0.26468	0.19519	0.21894	0.019364	0.15211	0.25712	0.13801	-0.26667	-1.3833	-1.4521	-0.65208	-1.5458	-1.0125	-1.0542	-1.825	-0.9375	-1.2146	-1.6396	-0.79375	-1.4771	-1.2042	-0.89167	-1.6354	125.423	178.530	341.824	345.688	126.196	290.205	315.703	47.564	33.067	262.640	370.338	237.833	330.705	341.166	234.498	295.571	0.00014421	0.00023559	7.0351e-05	1112	2.6481e-06	4.005e-06	1182.9	232.72	2.4146e-06	3.1406e-06	293.79	80.263	63.561	18.632	2.9805e-06	26.19	0.00023754	0.00024644	6.7931e-05	1088.3	2.74e-06	2.6999e-06	1164	231.56	2.8531e-06	2.6591e-06	292.39	80.839	63.903	18.816	2.844e-06	26.276	175.588	113.805	124.630	27.149	187.827	187.032	26.981	34.118	177.192	150.249	33.654	40.582	41.480	47.732	198.725	47.329	-8191	255	
723.461	1	1	0	0	0.18243	0.23895	0.11907	0.17725	0.13966	0.20344	0.11528	0.26105	0.095746	0.1545	0.19636	0.058775	0.20148	0.17541	0.31429	0.17254	-0.44792	-1.0938	-1.4729	-0.6	-1.5771	-1.1979	-1.1292	-1.5875	-0.82708	-1.0312	-1.6167	-0.86875	-1.3563	-1.4167	-0.7375	-1.7563	287.693	107.404	181.053	325.246	308.459	362.647	257.971	304.721	351.394	126.564	64.264	281.481	277.305	148.813	125.482	85.795	0.00016173	0.00029593	5.6374e-05	1120	2.4994e-06	2.1131e-06	1184.7	234.43	1.296e-06	2.5617e-06	294	80.316	63.354	18.701	3.6271e-06	26.016	0.00024452	0.00024188	7.0732e-05	1094.3	2.9383e-06	2.7389e-06	1164.9	232.39	2.9993e-06	2.8918e-06	291.7	80.925	63.965	18.798	2.9834e-06	26.189	172.326	96.719	94.639	26.650	202.213	168.536	26.750	34.068	199.027	170.377	33.815	40.569	41.269	47.662	181.349	47.335	-8191	255	
723.534	1	1	0	0	0.43431	0.089895	0.33747	0.26072	0.20876	0.077525	0.18372	0.20763	0.22712	0.10526	0.092441	0.075342	0.12504	0.13124	0.10145	0.10095	-0.58542	-0.88958	-1.4542	-0.60625	-1.2375	-1.4083	-0.75208	-1.6208	-0.8375	-0.94375	-1.6812	-0.68333	-1.2521	-1.4562	-0.71458	-1.5646	223.253	340.135	190.250	217.110	38.263	107.238	322.828	324.920	279.788	375.579	346.939	39.242	301.587	360.265	178.773	245.493	0.00015233	0.0003521	7.744e-05	1102.4	3.5621e-06	1.694e-06	1181.8	233.4	2.2945e-06	5.454e-06	295	80.173	64.353	18.581	3.3954e-06	26.212	0.00024078	0.00026881	7.8273e-05	1086.1	2.9639e-06	2.7508e-06	1165.7	232.05	2.8015e-06	2.8805e-06	292.48	81.054	64.284	18.781	2.8245e-06	26.347	168.767	102.881	121.633	26.386	173.381	171.372	26.921	34.002	192.822	184.474	33.698	40.523	41.141	47.995	183.057	47.357	-8191	255	
723.630	1	1	0	0	0.12424	0.26219	0.075175	0.23074	0.09601	0.094963	0.29393	0.25524	0.16557	0.13121	0.19408	0.15847	0.28367	0.19139	0.20101	0.11393	-0.56458	-0.87292	-1.6208	-0.99167	-1.1938	-1.6542	-0.89583	-1.4521	-1.1104	-0.81875	-1.8438	-1.0167	-1.2062	-1.5667	-0.67292	-1.6229	49.781	199.257	294.620	269.024	239.741	101.304	358.927	374.821	101.041	290.018	246.899	61.267	276.790	344.873	350.132	346.918	0.00017885	0.0003918	6.4106e-05	1104.4	3.0487e-06	2.1791e-06	1182.3	233.19	1.8289e-06	3.0456e-06	295.51	80.115	63.759	18.547	2.7986e-06	25.788	0.00023752	0.0002608	7.1917e-05	1086.8	2.8524e-06	2.7898e-06	1166.5	231.91	2.6932e-06	2.7979e-06	292.62	80.827	64.118	18.82	2.9145e-06	26.177	168.735	107.630	137.212	25.885	186.163	173.331	26.605	34.484	183.172	188.269	33.553	40.717	41.571	48.094	165.993	47.539	-8191	255	
723.749	1	1	0	0	0.14459	0.20352	0.24099	0.25555	0.066386	0.082005	0.082916	0.23657	0.21655	0.15732	0.16489	0.24458	0.032757	0.21415	0.17947	0.16415	-0.75	-0.85833	-1.5667	-0.84375	-1.0187	-1.6688	-0.69583	-1.5479	-1.25	-0.90625	-1.7917	-0.89375	-0.97917	-1.5542	-0.61042	-1.2125	317.728	360.785	268.980	188.314	90.321	90.178	71.052	259.533	212.728	221.896	61.231	92.128	313.695	86.859	17.422	23.866	0.00015731	0.00035953	0.00011307	1096.1	1.9043e-06	3.5721e-06	1187.8	233.51	1.2557e-06	2.1632e-06	294.42	80.388	63.474	18.609	1.6142e-06	25.991	0.00023474	0.00026711	7.1006e-05	1086	2.6746e-06	2.7964e-06	1165.8	232.3	2.8388e-06	2.9433e-06	292.71	80.971	64.247	18.852	2.9022e-06	26.228	168.169	115.442	115.902	26.052	163.753	179.334	26.400	34.040	200.487	173.223	33.681	40.411	40.927	47.545	117.427	47.548	-8191	255	
723.845	1	1	0	0	0.17052	0.14743	0.2307	0.41215	0.25317	0.24835	0.36303	0.13522	0.16928	0.098217	0.14764	0.19359	0.23688	0.076722	0.14686	0.11808	-0.90417	-0.525	-1.5917	-0.88542	-0.94375	-1.6625	-0.87292	-1.3813	-1.3687	-0.57292	-1.3729	-1.1896	-0.83542	-1.6812	-0.91042	-1.2188	229.227	212.769	295.693	225.586	190.735	341.001	313.867	221.363	44.550	332.501	292.350	227.770	70.295	317.233	286.823	285.791	0.0001623	0.00019291	7.2605e-05	1111.6	2.1055e-06	2.2877e-06	1186.5	233.62	3.1667e-06	2.5703e-06	295.23	80.426	63.802	18.593	1.995e-06	25.764	0.00023692	0.00027197	7.2091e-05	1088.3	2.891e-06	2.7676e-06	1166.2	232.24	2.8611e-06	2.9374e-06	293.09	80.936	64.018	18.788	2.7688e-06	26.15	180.521	115.472	120.745	26.530	185.041	173.511	26.642	34.051	197.880	138.624	33.601	40.312	41.284	47.875	174.710	47.455	-8191	255	
723.941	1	1	0	0	0.30143	0.26706	0.20913	0.22412	0.24488	0.27186	0.41855	0.28262	0.16981	0.3385	0.3458	0.24251	0.23909	0.2008	0.16387	0.25118	-1.1229	-0.80625	-1.3896	-1.0875	-0.87917	-1.6542	-1.0438	-1.2875	-1.5021	-0.63542	-1.3833	-1.4583	-0.89583	-1.6417	-0.89792	-1.1313	40.764	352.976	145.668	42.643	375.988	95.967	331.533	290.341	131.803	92.787	237.366	321.667	222.448	244.202	36.492	268.343	0.00014542	0.00034369	0.00010496	1100.6	2.5586e-06	3.239e-06	1181.1	234.51	2.2194e-06	1.7701e-06	296.71	80.68	63.525	18.65	2.4384e-06	26.003	0.00022737	0.00025585	6.9506e-05	1086.5	3.0002e-06	2.8275e-06	1164.9	232.05	2.8749e-06	2.8336e-06	292.92	81.094	64.119	18.793	2.7253e-06	26.204	173.231	102.281	127.485	26.335	161.850	164.663	26.448	34.059	194.155	149.790	33.503	40.783	40.818	47.649	199.455	47.108	-8191	255	
724.037	1	1	0	0	0.055001	0.36339	0.151	0.13873	0.24054	0.038718	0.28992	0.3125	0.38656	0.074041	0.23422	0.19665	0.22056	0.03975	0.18265	0.20129	-1.2625	-0.50417	-1.2771	-1.5146	-0.82083	-1.6479	-1.0562	-1.0979	-1.4813	-0.72292	-1.2667	-1.45	-0.83542	-1.5292	-1.1354	-0.93958	195.972	239.744	337.988	286.709	90.173	283.548	17.905	293.388	255.649	168.008	344.748	317.019	256.527	18.588	121.620	244.412	0.00016016	0.00041102	8.1607e-05	1105.2	4.2659e-06	3.6032e-06	1185.9	233.53	2.5029e-06	2.9676e-06	296.6	80.405	63.623	18.606	3.7256e-06	25.966	0.00024417	0.00026685	7.1992e-05	1081.5	2.9668e-06	2.8285e-06	1166.4	231.99	2.9024e-06	2.8548e-06	292.92	80.824	64.181	18.824	2.7467e-06	26.233	164.519	98.346	104.724	26.151	169.750	165.261	26.414	33.948	192.279	180.586	33.874	40.711	41.316	48.101	163.104	47.191	-8191	255	
724.158	1	1	0	0	0.097685	0.086342	0.19608	0.063671	0.079818	0.17244	0.43727	0.13809	0.086355	0.17059	0.23154	0.212	0.30875	0.11802	0.12051	0.039576	-1.3833	-0.61458	-1.1896	-1.5292	-0.7125	-1.3813	-1.2021	-0.95625	-1.6583	-0.69583	-1.1625	-1.5792	-0.59167	-1.7	-1.1708	-0.70833	286.116	109.228	198.993	357.192	137.973	126.263	319.069	235.467	201.826	136.054	326.263	343.955	41.793	340.440	84.241	154.494	0.00014764	0.00023915	9.6166e-05	1115.7	2.2394e-06	1.9118e-06	1178.1	232.55	2.3077e-06	4.7576e-06	293.61	80.061	63.709	18.444	3.2553e-06	25.919	0.00024018	0.00025955	7.1337e-05	1088.5	2.9645e-06	2.7081e-06	1163.7	231.96	2.7064e-06	2.8098e-06	292.11	80.798	64.086	18.736	2.6337e-06	26.142	167.656	108.662	101.637	26.371	170.141	174.203	26.161	34.011	187.762	173.270	33.669	40.624	41.373	47.897	167.227	47.169	-8191	255	
724.230	1	1	0	0	0.074196	0.22152	0.18297	0.054793	0.13896	0.21879	0.088673	0.2129	0.43909	0.089564	0.077305	0.19225	0.1739	0.11912	0.101	0.25118	-1.1021	-0.76458	-1.1083	-1.4521	-0.625	-1.3521	-1.3813	-0.79583	-1.4875	-0.92708	-1.0979	-1.4729	-0.77083	-1.3708	-1.3312	-0.77083	110.903	213.505	297.795	56.387	28.578	185.230	221.086	344.002	275.965	203.587	324.182	113.593	36.891	237.227	151.944	325.246	0.00014878	0.00026987	9.217e-05	1117.8	4.2323e-06	2.9158e-06	1186.3	233.21	1.8391e-06	4.5438e-06	294.21	80.524	63.821	18.591	3.4952e-06	25.972	0.00023395	0.0002521	6.726e-05	1087.7	2.8216e-06	2.7101e-06	1164.4	231.97	2.6376e-06	2.6092e-06	291.93	80.919	64.186	18.769	2.6618e-06	26.211	177.177	108.708	110.494	26.328	184.649	195.749	26.453	34.169	189.754	150.205	33.495	40.557	41.012	47.954	166.387	47.514	-8191	255	
724.350	1	1	0	0	0.14322	0.13758	0.2972	0.20499	0.033067	0.21303	0.082051	0.070152	0.1684	0.11695	0.25393	0.030157	0.1479	0.18803	0.24341	0.2408	-1.225	-1.1167	-0.85417	-1.6688	-0.84375	-1.2875	-1.5792	-0.65	-1.375	-0.96875	-1.0292	-1.7896	-0.60833	-1.2437	-1.4604	-0.76667	363.903	164.056	362.283	370.555	266.777	243.267	174.931	363.255	96.236	251.879	52.474	373.854	273.388	308.266	98.427	330.722	0.0001684	0.00025366	8.0905e-05	1105.5	3.6445e-06	2.0418e-06	1183.9	233.34	2.9826e-06	2.31e-06	295.31	80.433	63.801	18.649	1.7223e-06	25.89	0.00024015	0.00024635	7.1983e-05	1086.7	2.936e-06	2.765e-06	1165	231.99	2.9507e-06	2.7662e-06	292.72	80.864	63.983	18.788	2.7958e-06	26.285	170.117	102.187	109.190	26.138	198.697	152.337	26.419	33.931	173.275	208.462	33.947	40.458	41.205	48.079	205.618	47.171	-8191	255	
724.447	1	1	0	0	0.029691	0.16801	0.18686	0.19344	0.1096	0.2549	0.15931	0.098761	0.036061	0.16953	0.34471	0.31147	0.21235	0.093377	0.15486	0.14727	-1.0896	-1.2896	-0.73958	-1.6896	-0.85208	-0.99375	-1.7812	-0.79792	-1.3917	-1.15	-0.89375	-1.5458	-0.79167	-1.15	-1.4667	-0.76667	169.585	360.447	141.734	54.755	160.577	335.734	247.212	233.787	249.682	282.948	287.888	254.449	26.503	156.965	315.701	308.222	0.00015247	0.00019158	0.00012924	1103	3.7397e-06	3.1817e-06	1184.7	234.58	2.2682e-06	2.8139e-06	295.51	80.746	63.936	18.674	2.0182e-06	25.97	0.00023863	0.00024564	7.7693e-05	1088.5	2.88e-06	2.7838e-06	1164.5	232.1	2.8437e-06	2.7755e-06	292.76	81.267	64.142	18.831	2.872e-06	26.261	176.778	119.254	87.818	26.262	185.055	214.574	26.365	33.803	202.988	164.714	33.740	40.533	41.101	48.017	139.558	46.764	-8191	255	
724.541	1	1	0	0	0.057428	0.031599	0.15184	0.17719	0.050755	0.18446	0.1641	0.30408	0.028066	0.39168	0.29396	0.18175	0.066306	0.07704	0.12564	0.15213	-1.0542	-1.275	-0.65417	-1.8042	-0.92083	-0.94583	-1.6333	-0.9125	-1.4	-1.5271	-0.8125	-1.6479	-1.0396	-0.96875	-1.5208	-0.91042	184.161	189.533	71.030	69.529	56.073	63.952	304.073	350.539	37.721	19.410	280.907	354.233	94.990	318.602	190.018	58.022	0.00015189	0.00016848	8.0938e-05	1117.2	3.2754e-06	2.9952e-06	1182.5	233.25	1.7479e-06	2.7999e-06	296.25	80.459	64.031	18.598	3.5503e-06	26.001	0.00023641	0.00024698	7.6077e-05	1088.7	2.8191e-06	2.8926e-06	1165.1	231.95	2.822e-06	2.637e-06	293.21	81.03	64.3	18.805	2.8692e-06	26.232	171.734	97.396	110.540	26.368	178.211	195.056	26.664	33.920	199.112	159.419	33.706	40.821	41.424	47.758	190.654	47.499	-8191	255	
724.639	1	1	0	0	0.31177	0.041341	0.035421	0.068565	0.1034	0.041333	0.24547	0.27339	0.1103	0.19394	0.206	0.2273	0.23843	0.088937	0.074179	0.14896	-0.86458	-1.3104	-0.68125	-1.6458	-1.0729	-0.8375	-1.8312	-0.94792	-1.3542	-1.6042	-0.67292	-1.6979	-0.93125	-0.66458	-1.7083	-0.84792	287.840	264.694	343.016	58.242	101.729	373.190	351.141	332.297	30.566	242.133	333.131	215.550	143.191	35.379	34.747	368.173	0.00014129	0.00030155	7.0726e-05	1109.5	3.6749e-06	1.4022e-06	1189.5	233.01	2.0349e-06	4.8518e-06	294.73	80.66	63.327	18.547	3.0874e-06	25.905	0.00023898	0.00025204	7.4959e-05	1089.4	2.6661e-06	2.8602e-06	1168.3	231.8	2.8079e-06	2.8733e-06	292.07	80.994	63.964	18.818	2.8075e-06	26.199	169.203	112.363	94.927	26.322	164.919	126.866	26.316	33.713	194.554	167.279	33.617	40.556	41.527	48.092	173.521	47.414	-8191	255	
724.758	1	1	0	0	0.070249	0.24119	0.16981	0.21378	0.0088799	0.17051	0.24012	0.37195	0.13475	0.13781	0.3307	0.45047	0.13268	0.21696	0.40375	0.12433	-0.87708	-1.6042	-0.73125	-1.4729	-1.3833	-0.82708	-1.7563	-1.0312	-1.0792	-1.6333	-0.78542	-1.5292	-1.2208	-0.76458	-1.5875	-1.0646	168.655	258.608	17.949	94.569	51.347	344.856	282.895	259.519	109.884	306.626	87.781	356.496	103.985	324.865	118.323	316.584	0.00016933	0.00034242	5.6789e-05	1110.2	1.9493e-06	2.1925e-06	1190.3	234.26	2.1252e-06	3.592e-06	295.21	80.582	63.784	18.704	3.8508e-06	25.977	0.00024268	0.0002569	7.5588e-05	1090.3	2.6823e-06	2.9088e-06	1168.2	232.14	2.8308e-06	2.7104e-06	292.92	81.05	63.986	18.827	2.7647e-06	26.237	166.947	89.826	106.715	26.330	150.111	170.131	26.360	34.113	199.847	162.267	33.347	40.996	41.283	47.904	173.365	47.486	-8191	255	
724.829	1	1	0	0	0.06489	0.1489	0.19702	0.082042	0.28592	0.061645	0.1943	0.13367	0.014269	0.25632	0.14802	0.16717	0.20718	0.37083	0.21278	0.040253	-0.61458	-1.6125	-0.74167	-1.325	-1.3958	-0.96042	-1.7563	-0.975	-1.0229	-1.7646	-0.87708	-1.2833	-1.5167	-0.82083	-1.6354	-0.97292	340.280	146.194	72.359	247.465	308.089	284.813	283.320	253.215	147.625	279.940	26.778	302.717	295.025	17.309	235.179	312.694	0.00016747	0.00042654	8.7832e-05	1121.5	3.1661e-06	2.6336e-06	1183.3	233.4	2.8639e-06	2.224e-06	295.82	81.144	63.559	18.536	3.6102e-06	25.842	0.0002357	0.00025055	7.1735e-05	1090.7	2.6279e-06	2.8744e-06	1166	231.93	2.7975e-06	2.7163e-06	292.95	81.127	64.14	18.84	2.6917e-06	26.174	169.575	127.897	105.944	26.814	186.461	171.768	26.602	33.785	198.814	197.002	33.727	40.615	41.209	47.672	170.155	47.467	-8191	255	
724.926	1	1	0	0	0.13836	0.15596	0.17642	0.25163	0.2081	0.27738	0.26713	0.090515	0.080445	0.2474	0.25956	0.27033	0.30284	0.21774	0.42837	0.22563	-0.35625	-1.5208	-0.73333	-1.1167	-1.5354	-0.64375	-1.7208	-1.4167	-0.75	-1.5646	-0.95208	-1.1812	-1.5479	-0.79583	-1.3792	-1.1667	59.376	352.940	232.195	303.106	159.891	182.119	324.012	256.325	359.608	131.481	187.745	74.330	307.405	373.085	158.765	28.119	0.0001485	0.00014367	9.4648e-05	1107.9	2.8856e-06	3.2139e-06	1190.8	233.83	3.0108e-06	4.4384e-06	294.65	80.304	63.799	18.509	3.2064e-06	26.202	0.00023978	0.0002398	7.137e-05	1086.5	2.7977e-06	2.963e-06	1170.4	232.09	2.9342e-06	2.7583e-06	292.57	81.002	64.129	18.816	2.8109e-06	26.287	174.674	89.606	147.457	26.473	150.338	129.610	26.857	34.167	207.865	168.089	33.511	41.005	41.425	47.800	164.199	47.108	-8191	255	
725.046	1	1	0	0	0.23414	0.12912	0.28087	0.045949	0.28278	0.0682	0.16269	0.26646	0.19937	0.19708	0.3118	0.23861	0.18811	0.16888	0.041796	0.049592	-0.40625	-1.525	-0.95208	-0.9875	-1.5708	-0.65625	-1.5792	-1.4917	-0.70208	-1.7521	-1.0312	-0.99375	-1.5708	-0.85417	-1.2833	-1.3729	350.154	225.569	202.042	71.406	127.157	22.348	261.223	283.240	177.408	70.634	235.234	364.430	83.225	82.616	54.856	98.837	0.00015802	0.00036449	0.00011815	1109.4	2.6811e-06	3.0473e-06	1188.8	234.41	2.606e-06	2.9553e-06	295.74	80.485	63.878	18.609	3.1793e-06	25.932	0.00024985	0.00025618	7.2166e-05	1085.8	2.7617e-06	2.9329e-06	1167.3	232.73	2.9186e-06	2.8273e-06	293.33	81.086	64.239	18.882	2.8427e-06	26.215	167.446	93.142	112.917	26.451	177.905	180.772	26.649	33.982	201.538	212.516	33.640	40.757	41.172	47.564	148.529	47.467	-8191	255	
725.142	1	1	0	0	0.16185	0.07423	0.12629	0.23635	0.30604	0.11324	0.19411	0.11613	0.095772	0.053295	0.15003	0.41986	0.054082	0.084881	0.1545	0.38842	-0.4125	-1.6	-0.99792	-1	-1.6313	-0.725	-1.4604	-1.7625	-0.65	-1.4271	-1.2062	-0.8375	-1.5438	-0.87917	-1.1375	-1.5979	246.347	256.854	240.675	316.986	285.336	185.537	252.667	328.978	167.574	52.389	21.963	319.872	347.370	105.003	330.395	359.349	0.00014871	0.00039397	8.8109e-05	1122.6	1.9538e-06	1.5397e-06	1188.3	233.36	3.4399e-06	1.519e-06	295.02	80.464	63.629	18.701	1.7522e-06	26.057	0.0002511	0.0002639	7.2464e-05	1092.8	2.7909e-06	2.8942e-06	1168.3	232.21	3.0535e-06	2.9261e-06	292.85	81.165	64.199	18.791	2.6734e-06	26.193	177.143	109.453	111.509	26.343	171.194	200.489	26.947	34.029	204.279	148.779	33.613	40.897	41.361	48.179	153.182	46.905	-8191	255	
725.238	1	1	0	0	0.28237	0.31578	0.17546	0.31131	0.2841	0.25163	0.23606	0.10931	0.03721	0.1402	0.19495	0.28097	0.17076	0.23804	0.27414	0.38859	-0.29792	-1.475	-1.1417	-0.92708	-1.4354	-0.85208	-1.0521	-1.6646	-0.5625	-1.4229	-1.2021	-0.75833	-1.6958	-0.90625	-1.125	-1.7729	127.319	217.905	328.692	292.025	158.503	257.496	352.321	346.027	56.802	306.050	298.600	88.919	297.697	335.537	201.361	72.983	0.00014528	0.00026133	8.3294e-05	1116.1	2.8236e-06	2.2597e-06	1186.3	234.29	2.6967e-06	3.472e-06	294.93	80.49	63.336	18.637	3.8511e-06	26.077	0.00025129	0.00024251	7.0285e-05	1089.6	2.9341e-06	2.8473e-06	1168.7	232.59	3.1391e-06	2.8217e-06	292.72	81.012	64.021	18.805	2.9331e-06	26.172	175.720	85.000	124.785	26.806	174.673	226.669	26.723	33.976	197.245	152.314	33.670	40.873	40.910	48.445	167.322	47.155	-8191	255	
725.335	1	1	0	0	0.22059	0.30736	0.26625	0.23283	0.34737	0.22392	0.199	0.089876	0.064333	0.1311	0.11458	0.21189	0.076458	0.41271	0.13319	0.24946	-0.41667	-1.2188	-1.2708	-0.73542	-1.6771	-0.91042	-1.1688	-1.6729	-0.71875	-1.3479	-1.4875	-0.63333	-1.4083	-1.0375	-1.0583	-1.4917	250.921	151.133	138.711	39.329	84.192	332.431	276.125	322.987	185.226	48.598	305.503	365.520	333.687	44.981	204.805	193.301	0.00014226	0.00020924	8.4742e-05	1121.1	2.3167e-06	4.1071e-06	1185.8	233.41	2.0448e-06	2.211e-06	296.74	80.06	63.836	18.585	2.3254e-06	25.744	0.00025697	0.00025213	7.1693e-05	1094.2	2.8975e-06	2.9501e-06	1168.4	232.43	3.007e-06	2.8838e-06	293.57	80.914	64.216	18.802	2.8918e-06	26.147	173.940	97.670	122.387	26.091	181.388	177.662	26.762	34.296	180.415	168.278	33.697	40.975	41.023	47.968	179.403	47.372	-8191	255	
725.431	1	1	0	0	0.26382	0.14708	0.051794	0.099863	0.21513	0.19048	0.09284	0.19287	0.1708	0.26379	0.13358	0.1146	0.070269	0.30183	0.21368	0.1567	-0.40417	-1.0646	-1.3687	-0.60417	-1.6562	-1.0917	-0.96667	-1.6417	-0.76667	-1.2604	-1.6104	-0.58125	-1.4604	-1.1833	-0.84583	-1.8125	153.799	200.117	183.907	125.607	77.365	221.440	322.085	322.423	125.372	23.886	147.493	276.433	359.197	373.499	202.667	138.908	0.00016154	0.00030919	0.00010806	1110	4.3532e-06	4.3363e-06	1186.6	234.1	2.9195e-06	3.5237e-06	294.96	80.133	63.549	18.573	2.7381e-06	25.936	0.00024997	0.00025979	7.1354e-05	1089.6	2.9224e-06	2.7594e-06	1168.3	232.23	3.0657e-06	2.7715e-06	292.7	80.738	64.145	18.797	3.0099e-06	26.209	169.297	98.183	87.868	26.124	193.163	192.135	26.747	33.952	206.690	142.942	33.871	40.758	41.308	47.500	183.477	48.136	-8191	255	
725.527	1	1	0	0	0.19751	0.25987	0.061508	0.17843	0.055548	0.17627	0.17532	0.21224	0.1682	0.052039	0.10729	0.15215	0.14467	0.11809	0.10701	0.060139	-0.64583	-0.8875	-1.4312	-0.77083	-1.3271	-1.4229	-0.74375	-1.675	-0.93125	-0.88333	-1.7042	-0.82292	-1.2313	-1.4542	-0.64792	-1.5	176.195	369.930	252.788	69.676	263.658	102.836	331.645	260.386	332.132	300.806	109.558	92.749	303.520	138.311	203.387	274.023	0.00012988	0.0002388	0.0001099	1116.1	2.2145e-06	4.7381e-06	1188.4	233.3	2.0957e-06	1.9153e-06	294.82	80.676	64.276	18.644	2.2398e-06	26.212	0.00024114	0.00025922	7.2099e-05	1090.7	2.9273e-06	2.8889e-06	1168.3	231.75	2.9431e-06	2.8931e-06	292.63	80.949	64.271	18.787	3.0338e-06	26.292	171.540	63.698	103.040	26.201	166.729	182.357	26.639	34.412	185.829	185.340	33.580	40.928	41.356	47.967	179.994	47.609	-8191	255	
725.623	1	1	0	0	0.16718	0.24658	0.40116	0.16865	0.20419	0.22916	0.24958	0.31784	0.14458	0.2161	0.15601	0.22999	0.3805	0.11914	0.049253	0.10032	-0.62292	-0.95417	-1.6396	-0.78125	-1.3542	-1.6333	-0.71458	-1.5646	-1.0229	-0.81875	-1.7208	-0.80625	-1.2479	-1.5396	-0.58125	-1.6083	172.613	258.692	294.460	331.377	22.512	267.414	318.692	279.979	190.458	57.909	61.934	313.550	253.202	225.698	187.937	242.401	0.00014865	0.00031374	0.0001044	1106.3	1.4498e-06	2.5125e-06	1186.1	233.67	1.9559e-06	3.6482e-06	294.21	80.507	63.667	18.554	3.4201e-06	25.834	0.00024611	0.00027265	7.2762e-05	1085.8	2.9133e-06	2.7217e-06	1165.4	232.4	2.9727e-06	2.8977e-06	292.15	80.851	64.086	18.778	2.9881e-06	26.137	176.529	120.958	131.378	26.430	137.539	177.508	26.658	33.972	174.439	159.830	33.691	40.738	41.414	47.957	189.032	47.482	-8191	255	
725.719	1	1	0	0	0.074017	0.18008	0.013183	0.069503	0.15894	0.026264	0.30028	0.16137	0.23736	0.053124	0.27482	0.29265	0.28801	0.23209	0.13647	0.30183	-0.79375	-0.95417	-1.3625	-0.93125	-1.1625	-1.3563	-0.94375	-1.4833	-1.2625	-0.72292	-1.7104	-1.0208	-1.1375	-1.55	-0.73125	-1.4771	291.619	86.736	85.614	219.296	116.246	195.321	230.744	309.918	372.654	155.135	137.820	50.875	307.000	59.122	186.700	275.152	0.00017988	0.00033648	0.00011036	1102	2.7361e-06	4.187e-06	1180.2	234.19	1.5322e-06	2.3328e-06	293.87	80.036	64.144	18.576	2.4409e-06	25.95	0.00024166	0.0002737	7.4685e-05	1085.6	2.844e-06	2.8975e-06	1164.7	232.24	2.8596e-06	2.867e-06	292.36	80.707	63.985	18.783	2.9538e-06	26.224	168.738	129.361	124.741	26.231	177.691	168.580	26.622	34.247	196.020	206.933	33.625	40.521	40.913	48.211	162.163	47.384	-8191	255	
725.838	1	1	0	0	0.14421	0.017809	0.13855	0.028432	0.18078	0.27776	0.4212	0.032948	0.28297	0.1137	0.025336	0.20016	0.28941	0.10077	0.14239	0.22259	-0.92083	-0.78333	-1.7437	-0.85625	-0.94167	-1.6313	-0.65625	-1.4521	-1.2875	-0.59375	-1.5521	-1.1313	-1.0146	-1.6646	-0.65417	-1.275	57.371	326.838	146.841	338.620	313.508	25.517	318.195	36.953	103.997	106.795	291.379	372.175	62.879	54.917	53.122	322.474	0.00014595	0.00037782	8.2158e-05	1111.8	2.1708e-06	2.1333e-06	1184	233.08	2.8063e-06	4.6118e-06	295.12	79.879	63.867	18.676	1.5318e-06	25.856	0.00023562	0.00026854	7.1453e-05	1087.3	2.8709e-06	2.8473e-06	1165.9	231.94	2.825e-06	2.9275e-06	292.62	80.645	64.015	18.778	2.8308e-06	26.17	169.414	139.313	122.729	26.140	160.752	185.682	26.484	34.197	198.787	174.345	33.500	40.691	41.420	48.364	175.924	48.093	-8191	255	
725.933	1	1	0	0	0.20215	0.12565	0.059494	0.19806	0.25985	0.14386	0.038895	0.19033	0.13199	0.075634	0.10833	0.12497	0.14102	0.30201	0.035173	0.15948	-0.975	-0.68125	-1.5812	-1.1729	-0.88542	-1.6583	-0.93125	-1.3354	-1.4375	-0.70417	-1.6187	-1.3792	-0.83125	-1.6083	-0.65625	-1.05	191.206	95.347	356.623	254.594	76.083	54.760	218.466	376.081	159.959	321.927	208.395	301.737	23.497	234.997	132.922	177.972	0.00015691	0.0004655	0.0001129	1107.6	4.1011e-06	3.4985e-06	1186.3	234.89	1.2209e-06	2.2291e-06	294.16	80.322	63.944	18.667	3.3028e-06	25.941	0.00024249	0.00027259	7.1901e-05	1082.8	2.8553e-06	2.8384e-06	1166.1	232.25	2.848e-06	2.871e-06	292.06	80.729	64.177	18.773	2.9598e-06	26.169	175.050	95.986	109.230	26.544	178.536	200.402	26.435	34.113	205.051	203.197	33.858	40.862	41.185	48.255	170.266	47.117	-8191	255	
726.030	1	1	0	0	0.20647	0.095958	0.39096	0.1183	0.14844	0.051493	0.24621	0.24687	0.098383	0.19013	0.22577	0.15435	0.14366	0.22943	0.27789	0.077243	-1.125	-0.60208	-1.3583	-1.4333	-0.86042	-1.6354	-0.87083	-1.0729	-1.6708	-0.6875	-1.3083	-1.6063	-0.63125	-1.625	-0.91458	-0.88542	232.536	368.736	284.962	264.283	279.038	73.812	225.213	319.402	161.026	193.031	19.056	350.614	313.287	341.889	360.920	177.388	0.00014955	0.00035732	8.0284e-05	1107.6	3.5626e-06	4.3932e-06	1181.8	233.8	2.4642e-06	4.2777e-06	295.33	79.933	63.762	18.549	1.7782e-06	26.079	0.00023767	0.0002689	7.4039e-05	1085.9	2.8029e-06	2.7068e-06	1164.6	231.75	2.9128e-06	2.8551e-06	292.69	80.763	64.202	18.759	2.9006e-06	26.221	174.677	99.281	83.380	26.340	181.088	156.242	26.470	34.109	198.563	173.865	33.986	40.706	40.949	48.063	200.380	47.458	-8191	255	
726.125	1	1	0	0	0.22451	0.21516	0.12973	0.062808	0.11359	0.094883	0.24719	0.2324	0.127	0.10796	0.056057	0.2016	0.10636	0.29052	0.24894	0.24761	-1.3979	-0.825	-1.2292	-1.3771	-0.70208	-1.6688	-1.6229	-0.8375	-1.7604	-0.73542	-1.2458	-1.5042	-0.73542	-1.5104	-1.2	-0.80208	208.351	139.381	367.154	125.858	307.488	275.991	352.365	29.709	372.497	149.787	264.173	228.525	55.329	328.010	216.559	322.373	0.00014069	0.00032388	7.7822e-05	1111.5	3.841e-06	4.0962e-06	1179.2	232.84	3.6834e-06	4.906e-06	293.8	80.107	63.756	18.684	2.8155e-06	25.855	0.00024251	0.00027131	7.2091e-05	1088.5	3.1865e-06	2.9511e-06	1163.6	231.8	3.0146e-06	3.0411e-06	292.03	80.86	64.092	18.786	2.8069e-06	26.166	168.465	76.398	140.191	26.462	176.103	205.999	26.779	34.269	197.691	174.472	33.897	40.897	41.030	48.026	162.000	47.157	-8191	255	
726.221	1	1	0	0	0.2082	0.31689	0.05979	0.2274	0.17922	0.06223	0.25091	0.12256	0.11123	0.0065526	0.25454	0.27658	0.3369	0.039547	0.072146	0.072955	-1.3312	-0.80833	-1.1333	-1.525	-0.73542	-1.6917	-1.3354	-0.69792	-1.5229	-0.85625	-1.1375	-1.8438	-0.64583	-1.4167	-1.2687	-0.84167	214.379	157.384	363.684	328.141	374.163	321.522	362.587	22.200	298.783	59.616	336.067	190.426	44.970	179.936	32.072	338.103	0.00015255	0.00019734	9.2574e-05	1111.7	2.7366e-06	2.7453e-06	1184.3	234.15	2.0517e-06	1.992e-06	294.73	80.765	63.668	18.623	2.3299e-06	25.941	0.00024366	0.00027653	7.4006e-05	1084.1	3.0867e-06	2.9891e-06	1166.2	232.17	3.0727e-06	2.9483e-06	292.35	81.062	64.041	18.805	2.7439e-06	26.204	174.810	81.398	147.976	26.355	192.167	167.736	26.675	34.154	203.454	182.954	33.899	40.749	41.287	47.704	180.231	47.852	-8191	255	
726.342	1	1	0	0	0.15356	0.20704	0.064045	0.15571	0.41725	0.075742	0.028567	0.15861	0.14828	0.13015	0.096109	0.22126	0.29977	0.15247	0.21802	0.25478	-1.2375	-1.0542	-0.875	-1.6229	-0.60417	-1.2104	-1.6292	-0.90417	-1.6375	-1.0792	-0.9875	-1.8188	-0.9625	-1.1479	-1.4833	-0.89792	18.427	101.552	350.784	366.940	168.878	231.075	148.935	323.277	176.921	42.601	109.426	352.348	59.072	267.617	337.749	276.173	0.00016556	0.00030946	7.7064e-05	1113.9	1.6836e-06	2.5071e-06	1188.7	234.1	2.9144e-06	2.5673e-06	295.41	79.639	63.314	18.661	3.2468e-06	26.112	0.00025048	0.00026312	7.0798e-05	1088.5	3.1058e-06	2.7749e-06	1167.5	232.17	2.9106e-06	2.8508e-06	292.76	80.645	64.049	18.775	2.7946e-06	26.232	173.940	106.757	110.571	26.456	177.945	191.367	26.799	34.217	192.552	149.797	33.884	40.461	41.287	48.326	178.614	47.463	-8191	255	
726.438	1	1	0	0	0.26886	0.1806	0.058436	0.20092	0.2228	0.058765	0.26325	0.14289	0.19811	0.23658	0.11649	0.074761	0.24826	0.050458	0.15651	0.39479	-1.2833	-1.2458	-1.0938	-1.7792	-0.85625	-1.2333	-1.675	-0.79167	-1.725	-1.1958	-1.0562	-1.6333	-0.89583	-1.2458	-1.6792	-0.76458	355.259	199.374	175.174	323.856	66.792	241.802	253.468	61.571	57.235	230.266	210.150	261.811	352.798	239.887	310.881	259.835	0.00016833	0.00044979	7.8871e-05	1103.2	2.4832e-06	3.7137e-06	1185.1	233.3	3.9352e-06	2.763e-06	295.01	80.475	63.22	18.678	3.0337e-06	25.873	0.00024987	0.00026005	7.2141e-05	1088.8	3.0063e-06	2.8883e-06	1166.4	232.21	3.1213e-06	2.8905e-06	292.44	80.919	64.03	18.794	2.8585e-06	26.179	171.439	87.495	110.372	26.429	198.517	183.303	26.785	33.995	184.156	190.293	33.748	40.524	41.473	48.372	188.919	47.276	-8191	255	
726.534	1	1	0	0	0.047582	0.16798	0.021029	0.28342	0.033782	0.073072	0.49772	0.26484	0.17689	0.14796	0.36498	0.28512	0.25261	0.20017	0.13994	0.11416	-1.0646	-1.2125	-0.81042	-1.8479	-1.0375	-0.9375	-1.7458	-0.63333	-1.5292	-1.3958	-0.625	-1.8042	-1.0625	-0.90625	-1.6271	-0.86667	315.819	83.946	305.660	265.057	181.705	41.430	294.071	338.801	24.362	177.799	309.883	360.973	27.786	234.430	250.787	291.447	0.00015908	0.00019765	8.9056e-05	1110.8	1.6706e-06	2.16e-06	1185.6	233.04	2.2469e-06	4.019e-06	296.84	80.075	63.458	18.768	2.6604e-06	25.966	0.00024947	0.00026405	7.5688e-05	1088.2	3.1333e-06	2.8397e-06	1166.4	232.1	2.9204e-06	2.8908e-06	293.08	80.772	63.982	18.868	2.9746e-06	26.176	172.398	123.267	124.668	26.586	222.121	194.196	26.495	34.394	229.177	172.846	33.477	40.809	41.383	48.301	202.886	47.512	-8191	255	
726.630	1	1	0	0	0.2994	0.090806	0.28606	0.067301	0.015338	0.18927	0.0072063	0.29987	0.22927	0.13387	0.14584	0.032752	0.039225	0.22081	0.40111	0.15163	-1.0812	-1.3687	-0.77292	-1.5438	-1.0312	-0.95625	-2.0396	-0.94375	-1.1208	-1.6729	-0.82917	-1.675	-1.0063	-0.87917	-1.4896	-0.70833	296.075	39.137	40.097	278.199	312.117	209.224	207.968	367.066	238.719	374.632	200.802	227.881	58.757	40.647	80.289	270.205	0.00014176	0.00038311	7.6164e-05	1126.2	3.0984e-06	3.342e-06	1184.3	234.23	2.7841e-06	4.4707e-06	293.78	80.115	63.394	18.565	3.2685e-06	25.845	0.00025196	0.00027102	7.8671e-05	1093.8	2.9898e-06	2.923e-06	1166.7	232.13	3.0599e-06	2.8544e-06	292.01	80.811	64.028	18.794	3.007e-06	26.208	164.250	132.465	106.729	26.707	168.735	184.502	26.886	34.053	165.958	175.617	33.745	40.899	41.344	48.331	162.380	47.512	-8191	255	
726.726	1	1	0	0	0.093196	0.16567	0.19892	0.17364	0.16693	0.069541	0.25942	0.24616	0.2038	0.16557	0.1414	0.22357	0.20657	0.11134	0.21291	0.17107	-0.7875	-1.4958	-0.8125	-1.6542	-1.3021	-0.9	-2.0792	-1.0646	-1.0729	-1.7229	-0.92292	-1.4417	-1.3417	-0.86458	-1.5771	-1.0958	292.864	203.505	237.648	77.406	204.236	199.113	216.198	270.071	317.109	209.473	112.105	295.885	336.897	346.575	360.000	79.462	0.00017447	0.0003566	9.7719e-05	1106.9	3.2846e-06	3.082e-06	1183.9	233.39	1.6354e-06	2.5334e-06	296.51	80.318	63.748	18.608	3.3878e-06	25.795	0.00024197	0.00026533	7.7528e-05	1088.1	2.9357e-06	2.9408e-06	1165.1	231.91	2.8742e-06	2.945e-06	292.93	80.933	63.963	18.861	2.9444e-06	26.161	170.788	115.071	92.896	26.630	161.838	161.042	26.835	34.282	189.302	206.866	33.931	40.756	41.399	48.126	172.345	47.485	-8191	255	
726.822	1	1	0	0	0.078356	0.18592	0.18192	0.031477	0.10333	0.074721	0.13122	0.091798	0.27121	0.015753	0.065937	0.088218	0.066719	0.17608	0.38251	0.17616	-0.72917	-1.5854	-0.75	-1.4021	-1.35	-0.71042	-1.7667	-1.1104	-0.91042	-1.7271	-0.93958	-1.2896	-1.4771	-0.65833	-1.7375	-1.075	306.576	255.674	334.073	160.150	227.297	211.311	293.889	256.632	152.532	344.507	117.874	240.552	212.734	250.963	69.214	92.262	0.00017276	0.00023438	9.2089e-05	1113	2.5842e-06	3.8798e-06	1182.1	233.58	3.1239e-06	5.0059e-06	296.64	80.01	63.397	18.748	3.2862e-06	25.855	0.00024722	0.00027388	7.974e-05	1089.7	2.8605e-06	2.9901e-06	1167.1	232.17	2.981e-06	2.8957e-06	292.8	80.851	63.915	18.807	2.8185e-06	26.183	173.441	85.535	112.726	26.841	166.948	163.440	26.981	34.178	202.157	208.630	33.790	40.942	41.149	47.990	167.371	47.410	-8191	255	
726.919	1	1	0	0	0.21814	0.095235	0.0744	0.33725	0.11953	0.096102	0.03657	0.20496	0.27934	0.22728	0.14867	0.10262	0.14931	0.065104	0.45515	0.24807	-0.66042	-1.6333	-0.65833	-1.4104	-1.4458	-0.64583	-1.7313	-1.4229	-0.93542	-1.75	-0.98125	-1.2375	-1.4229	-0.67292	-1.3604	-1.3625	159.450	88.290	62.643	289.461	134.090	256.519	85.208	50.970	30.943	45.963	336.840	191.010	264.234	221.634	371.525	320.848	0.0001496	0.00035432	0.00013202	1116.7	2.0502e-06	4.3461e-06	1192.1	232.76	1.8739e-06	5.3533e-06	294.63	80.048	63.838	18.642	2.7077e-06	26.026	0.00023658	0.00027355	7.3865e-05	1088.8	2.8252e-06	3.0651e-06	1169.2	231.74	2.8791e-06	2.8092e-06	292.41	80.774	63.99	18.774	2.6942e-06	26.168	167.355	128.877	118.542	26.391	165.052	169.682	26.814	34.088	185.312	176.428	33.794	40.694	41.548	48.075	184.300	47.722	-8191	255	
727.015	1	1	0	0	0.36455	0.10275	0.1199	0.24513	0.03711	0.12622	0.24235	0.11873	0.45957	0.17542	0.17765	0.25342	0.3412	0.077063	0.17379	0.28593	-0.48542	-1.5875	-0.81667	-0.9875	-1.6688	-0.64792	-1.4875	-1.2708	-0.90208	-1.5667	-1.0583	-1.2167	-1.6396	-0.77083	-1.4146	-1.5229	350.693	185.865	19.826	51.121	217.577	63.543	261.077	109.335	291.674	300.141	115.469	101.340	343.254	320.257	368.495	50.077	0.0001611	0.0002242	4.9779e-05	1119.4	2.0149e-06	2.3616e-06	1187.4	233.77	2.4447e-06	4.6893e-06	294.87	80.509	63.673	18.629	3.5366e-06	25.721	0.00024924	0.00025839	7.437e-05	1088.4	2.9882e-06	2.8463e-06	1167.9	232.13	3.033e-06	2.9602e-06	292.47	80.945	64.036	18.807	2.7502e-06	26.158	169.889	100.205	106.729	26.410	148.079	155.145	26.852	34.157	205.661	149.433	33.706	40.695	41.740	48.038	169.549	47.911	-8191	255	
727.134	1	1	0	0	0.11143	0.11655	0.2076	0.15201	0.1193	0.0722	0.24598	0.067374	0.092833	0.25611	0.35653	0.15991	0.17431	0.1878	0.15685	0.22104	-0.35417	-1.6667	-1.2729	-1.0771	-1.625	-0.9	-1.5604	-1.5292	-0.78958	-1.6896	-1.2146	-0.79583	-1.6625	-0.89792	-1.4792	-1.5625	208.860	351.467	91.976	77.431	301.214	77.698	284.618	111.543	182.165	351.494	48.780	301.125	284.758	348.441	288.053	365.381	0.00016388	0.00029385	7.671e-05	1124.7	3.0552e-06	2.5492e-06	1187.7	233.58	1.2073e-06	2.8916e-06	294.54	80.272	63.554	18.499	1.3715e-06	25.752	0.00023976	0.00025999	7.1412e-05	1090	2.8216e-06	2.9557e-06	1167.1	231.74	3.0333e-06	2.8614e-06	291.8	80.859	63.808	18.749	2.7124e-06	26.099	172.012	126.598	111.970	26.440	164.752	148.790	26.709	34.097	196.000	170.041	33.915	40.968	41.357	48.238	214.545	47.251	-8191	255	
727.230	1	1	0	0	0.19383	0.15594	0.11855	0.23279	0.29307	0.094957	0.18687	0.17087	0.20041	0.087267	0.22392	0.16976	0.057761	0.19203	0.14888	0.096364	-0.325	-1.4333	-1.2563	-0.83958	-1.6125	-0.89375	-1.0312	-1.5521	-0.81875	-1.6708	-1.3271	-0.875	-1.5771	-0.97292	-1.2021	-1.4729	172.705	343.199	33.705	245.946	121.789	141.673	375.667	352.040	107.366	98.908	370.325	74.553	157.553	64.757	371.444	127.907	0.00015662	0.0004674	9.5891e-05	1111.8	3.0762e-06	2.8993e-06	1180.6	233.19	2.8025e-06	2.2112e-06	294.74	80.399	63.539	18.356	2.6194e-06	25.908	0.00024634	0.0002574	6.7525e-05	1088.7	2.9396e-06	2.847e-06	1164.1	231.33	3.0168e-06	2.8683e-06	292.65	80.754	63.835	18.65	2.6183e-06	26.175	174.402	96.587	120.900	27.159	192.859	176.254	26.836	34.373	183.691	217.732	33.679	40.730	41.563	48.323	187.612	47.591	-8191	255	
727.326	1	1	0	0	0.26885	0.058386	0.40902	0.12286	0.11334	0.20574	0.092821	0.24124	0.085939	0.13158	0.19905	0.17694	0.16865	0.14131	0.76709	0.034538	-0.47917	-1.3646	-1.2125	-0.925	-1.5146	-0.95	-1.2458	-1.7479	-0.7625	-1.3125	-1.3146	-0.83958	-1.9021	-1.0396	-1.0042	-1.5562	143.052	277.689	161.191	269.635	243.457	126.796	199.807	30.571	223.718	196.126	31.936	302.129	337.523	283.310	227.339	286.522	0.00014605	0.00028531	8.6665e-05	1111.9	2.0227e-06	3.1395e-06	1184.7	232.66	1.696e-06	2.5573e-06	293.06	79.636	63.844	18.531	2.8091e-06	25.896	0.0002469	0.00025079	6.7227e-05	1087.1	2.7157e-06	2.7676e-06	1165	231.56	3.0164e-06	2.7715e-06	291.23	80.647	64.008	18.726	2.8402e-06	26.115	173.889	100.943	135.551	25.831	205.502	127.612	26.992	34.195	180.355	167.695	33.918	40.711	41.391	47.882	133.760	47.409	-8191	255	
727.422	1	1	0	0	0.17067	0.23207	0.32065	0.19905	0.25023	0.033404	0.10783	0.26675	0.23927	0.081833	0.17813	0.12818	0.27805	0.23261	0.13387	0.25932	-0.34792	-1.3604	-1.4396	-0.75	-1.6	-1.2313	-0.81042	-1.7854	-0.74375	-1.2979	-1.5625	-0.65	-1.2229	-1.2667	-0.65625	-1.7042	241.885	252.106	331.240	312.078	264.854	85.363	48.027	298.741	100.451	295.057	340.370	267.543	84.553	17.782	234.642	330.942	0.00015592	0.00017619	0.00011388	1110.8	2.6758e-06	1.1105e-06	1181.6	232.55	2.81e-06	3.7904e-06	295.07	80.371	63.555	18.555	2.4876e-06	26.041	0.00024396	0.00024927	6.6174e-05	1086.1	2.8427e-06	2.6658e-06	1164.5	231.47	2.9779e-06	2.8667e-06	291.74	80.828	63.892	18.735	2.7801e-06	26.208	175.021	81.877	95.343	26.633	153.695	152.373	26.757	34.209	210.888	176.963	33.830	40.843	41.263	47.739	180.138	47.403	-8191	255	
727.518	1	1	0	0	0.21119	0.16028	0.12822	0.15772	0.20394	0.11299	0.21824	0.22269	0.19017	0.075716	0.2773	0.15839	0.35476	0.18005	0.16834	0.090071	-0.64583	-1.0271	-1.4542	-0.6875	-1.4667	-1.3583	-1.0021	-1.8	-1.0063	-1.2687	-1.8188	-0.87083	-1.5792	-1.3396	-0.625	-1.675	267.181	353.004	266.182	43.417	81.143	136.273	326.710	330.553	100.529	258.004	329.715	222.349	188.073	239.226	41.635	56.844	0.00014846	0.00031328	0.00010888	1115.5	3.5844e-06	3.0876e-06	1184.2	232.93	2.1533e-06	3.9051e-06	293.72	80.456	63.542	18.673	3.6023e-06	25.885	0.00024795	0.00024021	7.1354e-05	1086.3	2.7562e-06	2.7243e-06	1165.5	231.95	2.9776e-06	2.7163e-06	292.33	80.649	63.959	18.788	2.782e-06	26.141	175.550	90.712	131.279	27.053	172.709	168.324	26.684	34.373	168.288	151.448	33.888	40.653	41.506	48.260	175.590	47.560	-8191	255	
727.614	1	1	0	0	0.19123	0.29421	0.18366	0.24871	0.19335	0.048138	0.3217	0.12889	0.12365	0.11583	0.13753	0.032757	0.079852	0.21778	0.17631	0.19026	-0.53542	-1.0333	-1.7396	-0.72708	-1.4438	-1.3354	-0.84792	-1.625	-1.2021	-1.0812	-1.6208	-0.825	-1.2771	-1.5875	-0.70625	-1.6562	276.752	287.709	294.986	123.770	46.585	192.961	17.137	18.955	345.446	73.483	223.123	147.689	260.407	200.012	135.283	175.762	0.0001485	0.00032189	6.669e-05	1108.9	1.3844e-06	2.5951e-06	1191.4	232.52	3.1501e-06	2.3748e-06	295.93	80.482	64.031	18.593	1.7816e-06	25.912	0.00024064	0.00026005	7.1602e-05	1088.5	2.8058e-06	2.6969e-06	1167.2	231.65	2.9706e-06	2.9506e-06	292.81	80.934	64.177	18.788	2.9447e-06	26.21	171.790	108.205	142.770	26.585	202.109	168.709	26.949	34.254	208.168	220.655	33.646	40.901	41.568	47.900	147.645	47.883	-8191	255	
727.710	1	1	0	0	0.14265	0.29687	0.35041	0.2429	0.2387	0.18769	0.20834	0.18266	0.1388	0.19013	0.037913	0.26946	0.052301	0.17984	0.26888	0.26529	-0.85417	-0.95625	-1.6479	-0.75625	-1.2146	-1.4688	-0.98333	-1.6604	-1.1333	-0.95208	-1.5729	-0.88542	-1.0438	-1.6313	-0.64583	-1.4958	85.492	286.610	277.780	142.157	360.618	368.590	349.029	362.684	345.347	63.823	340.593	56.048	244.424	304.464	134.990	98.203	0.00015016	0.00035961	0.00010753	1112.6	2.6177e-06	2.7153e-06	1184.6	233.8	2.5725e-06	1.7616e-06	295.2	80.057	63.597	18.522	2.46e-06	25.875	0.00024059	0.00026005	7.2729e-05	1088.3	2.8148e-06	2.7782e-06	1166.2	231.86	2.814e-06	2.8951e-06	293.03	80.677	64.008	18.759	2.9123e-06	26.197	172.964	81.060	101.753	26.714	178.116	207.931	26.771	34.448	163.305	179.194	33.953	40.828	41.249	48.022	181.571	47.542	-8191	255	
727.831	1	1	0	0	0.10008	0.15175	0.20988	0.1068	0.064136	0.16838	0.27848	0.44155	0.10114	0.16164	0.38638	0.078238	0.22872	0.16849	0.078589	0.22357	-0.90208	-0.65625	-1.6583	-0.73542	-1.025	-1.7479	-0.925	-1.4937	-1.225	-0.62708	-1.5063	-1.0521	-0.89583	-1.4875	-0.73542	-1.3937	267.960	361.422	172.340	40.331	212.526	169.633	336.482	347.046	186.596	47.965	354.948	160.108	220.826	113.108	204.205	361.115	0.00015817	0.00033655	9.164e-05	1117.9	1.7153e-06	3.8999e-06	1187.3	234.46	2.3086e-06	2.8677e-06	296.06	80.317	63.465	18.591	3.2407e-06	25.764	0.0002408	0.00026533	7.2182e-05	1088.4	2.868e-06	2.8489e-06	1167.2	232.01	2.847e-06	2.8888e-06	292.82	80.828	63.956	18.748	3.0536e-06	26.202	171.278	114.513	119.685	26.270	148.098	183.485	26.937	34.155	164.792	178.723	33.915	40.782	41.303	48.163	180.394	47.477	-8191	255	
727.925	1	1	0	0	0.26865	0.12266	0.20457	0.26874	0.26432	0.40678	0.40193	0.33646	0.24182	0.18158	0.18155	0.3526	0.13661	0.062329	0.16292	0.34479	-1.1583	-0.675	-1.6917	-1.1313	-0.77917	-1.5979	-1.0458	-1.5604	-1.4562	-0.73542	-1.6625	-1.075	-0.80208	-1.8292	-0.80208	-1.1083	123.967	235.249	161.160	31.312	48.185	295.987	308.683	121.952	311.868	111.837	313.207	283.371	264.165	64.146	76.663	236.187	0.00014078	0.00041521	5.5981e-05	1108.6	3.5496e-06	3.5118e-06	1185.5	233.89	3.3097e-06	2.7316e-06	294.99	80.304	63.857	18.584	2.7404e-06	25.842	0.00024162	0.00027265	7.3409e-05	1085.8	2.8816e-06	2.7666e-06	1166.1	232.07	2.7443e-06	2.9562e-06	292.33	80.777	64.005	18.733	2.9463e-06	26.163	171.225	106.085	153.573	26.381	155.701	188.018	26.590	34.474	201.503	162.107	33.951	40.903	41.652	48.321	182.194	47.689	-8191	255	
727.999	1	1	0	0	0.044017	0.26628	0.10835	0.1946	0.12337	0.26985	0.38866	0.32424	0.062807	0.078472	0.10896	0.26558	0.32526	0.099915	0.10534	0.24899	-1.4042	-0.43542	-1.3583	-1.2375	-0.9625	-1.6854	-1.1125	-1.2792	-1.6187	-0.6875	-1.5562	-1.3875	-0.72917	-1.6708	-0.83542	-1.0396	237.700	225.857	288.003	102.766	233.237	222.343	274.219	300.557	292.908	154.414	308.685	85.057	65.339	334.132	22.238	311.265	0.00016444	0.00031327	6.9358e-05	1104.7	3.0691e-06	3.1853e-06	1180.7	233.13	2.1426e-06	3.7215e-06	295.38	79.806	63.848	18.634	4.1716e-06	26.004	0.00023537	0.00026661	7.0285e-05	1087.8	2.8051e-06	2.7227e-06	1165.9	231.95	2.8039e-06	2.9245e-06	292.63	80.627	64.131	18.798	2.872e-06	26.196	169.460	99.026	108.041	26.526	187.455	156.773	26.745	34.211	192.457	181.639	33.953	40.853	41.378	47.739	163.223	47.578	-8191	255	
728.118	1	1	0	0	0.23773	0.26201	0.11674	0.35341	0.090307	0.23157	0.13633	0.22655	0.11557	0.2185	0.17218	0.13806	0.26001	0.057907	0.10832	0.18613	-1.2333	-0.68333	-1.4583	-1.1979	-0.7375	-1.7896	-1.3271	-1.15	-1.6562	-0.93125	-1.3271	-1.5354	-0.85208	-1.6083	-1.0542	-0.99167	264.316	32.633	140.989	146.549	133.041	362.615	268.200	268.858	93.961	114.918	336.863	298.056	59.093	352.021	365.917	308.742	0.00014461	0.00031042	0.00010729	1115.1	2.1558e-06	3.1268e-06	1185.2	232.13	3.144e-06	3.7262e-06	295.22	80.543	63.504	18.583	2.3138e-06	25.815	0.00023591	0.00027069	6.7434e-05	1085.7	2.9506e-06	2.7567e-06	1164.9	231.8	2.8825e-06	2.8551e-06	292.39	80.79	63.923	18.743	2.6202e-06	26.108	168.523	72.301	77.157	26.779	179.515	186.413	26.670	34.147	165.649	192.205	34.116	40.942	41.575	48.072	180.811	47.859	-8191	255	
728.214	1	1	0	0	0.17041	0.22674	0.071939	0.15116	0.15313	0.086851	0.037044	0.10379	0.14163	0.094687	0.30456	0.1564	0.044935	0.27452	0.16133	0.1527	-1.2542	-0.91875	-1.3333	-1.5479	-0.95208	-1.6979	-1.3083	-0.87083	-1.7104	-1	-1.2604	-1.6646	-0.80833	-1.6271	-1.5083	-1.0333	258.960	115.987	170.889	104.359	49.242	315.764	256.763	343.628	355.853	238.585	42.644	372.081	228.958	92.045	177.930	256.019	0.00015661	0.00038567	6.2475e-05	1120.9	3.7526e-06	1.7897e-06	1186.4	233.73	2.2544e-06	3.6985e-06	294.34	80.541	63.628	18.58	3.1662e-06	26.004	0.00022873	0.00026497	6.7956e-05	1092.4	2.9328e-06	2.8202e-06	1164	231.45	2.8758e-06	2.7365e-06	292.62	80.847	63.817	18.795	2.7011e-06	26.209	167.713	101.172	140.942	25.843	182.937	110.955	26.862	34.034	162.471	161.600	33.796	40.829	41.146	48.090	180.590	47.524	-8191	255	
728.310	1	1	0	0	0.093522	0.16845	0.21791	0.14456	0.075099	0.087519	0.20787	0.13279	0.14432	0.24449	0.10332	0.14318	0.15314	0.21936	0.073319	0.15868	-1.4104	-0.73958	-1.2771	-1.5333	-0.8625	-1.4417	-1.4062	-0.95	-1.7729	-0.98125	-1.2396	-1.5854	-0.90833	-1.5271	-1.4062	-0.67917	138.589	314.556	148.400	294.465	326.209	176.737	293.143	82.275	160.246	368.150	302.094	215.052	288.938	347.761	114.831	332.771	0.00014432	0.0003142	6.4484e-05	1116.4	2.9169e-06	2.538e-06	1185.7	233.8	2.8589e-06	1.7668e-06	294.82	80.369	63.375	18.637	3.3474e-06	26.096	0.0002329	0.00026473	6.7972e-05	1086.1	2.8469e-06	2.6281e-06	1163.4	231.73	2.8183e-06	2.6962e-06	292.15	80.57	63.856	18.798	2.6048e-06	26.228	171.386	97.584	122.197	26.483	167.672	163.649	26.768	34.402	200.679	186.893	33.983	40.684	41.443	48.267	175.299	47.858	-8191	255	
728.431	1	1	0	0	0.20782	0.29473	0.063998	0.1261	0.26032	0.21176	0.052949	0.25747	0.28596	0.29706	0.08657	0.26411	0.4764	0.17425	0.11991	0.10344	-1.1854	-1.0042	-1.0875	-1.6938	-0.54792	-1.3354	-1.5771	-0.79167	-1.7292	-1.1167	-0.92708	-1.8958	-0.76458	-1.2458	-1.5854	-0.72083	302.192	131.766	293.596	154.943	329.701	69.140	131.907	324.530	202.341	232.706	328.817	258.073	83.030	359.047	111.605	311.984	0.00016882	0.00036519	8.175e-05	1099.9	1.9966e-06	4.378e-06	1184.4	233.85	3.2731e-06	4.1025e-06	294.4	80.228	63.383	18.541	2.4056e-06	25.881	0.00023733	0.00024716	6.9215e-05	1083.3	2.8489e-06	2.7134e-06	1164.4	231.7	2.7782e-06	2.6846e-06	292.01	80.711	63.967	18.751	2.6032e-06	26.131	171.967	115.812	114.491	26.739	178.863	167.838	26.691	34.286	200.314	184.209	34.080	40.945	41.618	48.132	145.756	47.487	-8191	255	
#DATA ENDS
