BOXY.EXE: ISS Imagent and Oximeter Data Acquisition Program Version 0.80
Ascii Record File

#ACQ INFORMATION
2  Detector Channels 
16  External MUX Channels 
1  Auxiliary Channels 
5000  Waveform (CCF) Frequency (Hz)
1  Waveforms Skipped 
30  Waveforms Averaged 
1  Cycles Averaged 
16  Acquisitions per Waveform 
10.0806  Updata Rate (Hz) 

#FILE INFORMATION
TRUE -- External MUX Channel results are PARSED.
FALSE -- AC DC and Phase are NOT grouped.
TRUE -- Companion Program Settings File CREATED.
FALSE -- AC data not excluded
FALSE -- DC data not excluded
FALSE -- Phase data not excluded
FALSE -- Auxillary Chn. data not excluded
Tab delimiters

#CALIBRATION STATE
TRUE -- Waveform Calibration Values APPLIED.


#AUX CALIBRATION VALUES
Val Type	aux-1	

Term	1.0000e+00	
Factor	0.0000e+00	


#WF CALIBRATION VALUES
A = Detector Channel
Val Type	A-AC1	A-AC2	A-AC3	A-AC4	A-AC5	A-AC6	A-AC7	A-AC8	A-AC9	A-AC10	A-AC11	A-AC12	A-AC13	A-AC14	A-AC15	A-AC16	A-DC1	A-DC2	A-DC3	A-DC4	A-DC5	A-DC6	A-DC7	A-DC8	A-DC9	A-DC10	A-DC11	A-DC12	A-DC13	A-DC14	A-DC15	A-DC16	A-Ph1	A-Ph2	A-Ph3	A-Ph4	A-Ph5	A-Ph6	A-Ph7	A-Ph8	A-Ph9	A-Ph10	A-Ph11	A-Ph12	A-Ph13	A-Ph14	A-Ph15	A-Ph16	

Term	0.00000e+00	0.00000e+00	0.00000e+00	0.00000e+00	0.00000e+00	0.00000e+00	0.00000e+00	0.00000e+00	0.00000e+00	0.00000e+00	0.00000e+00	0.00000e+00	0.00000e+00	0.00000e+00	0.00000e+00	0.00000e+00	0.00000e+00	0.00000e+00	0.00000e+00	0.00000e+00	0.00000e+00	0.00000e+00	0.00000e+00	0.00000e+00	0.00000e+00	0.00000e+00	0.00000e+00	0.00000e+00	0.00000e+00	0.00000e+00	0.00000e+00	0.00000e+00	0.00000e+00	0.00000e+00	0.00000e+00	0.00000e+00	0.00000e+00	0.00000e+00	0.00000e+00	0.00000e+00	0.00000e+00	0.00000e+00	0.00000e+00	0.00000e+00	0.00000e+00	0.00000e+00	0.00000e+00	0.00000e+00	
Factor	1.00000e+00	1.00000e+00	1.00000e+00	1.00000e+00	1.00000e+00	1.00000e+00	1.00000e+00	1.00000e+00	1.00000e+00	1.00000e+00	1.00000e+00	1.00000e+00	1.00000e+00	1.00000e+00	1.00000e+00	1.00000e+00	1.00000e+00	1.00000e+00	1.00000e+00	1.00000e+00	1.00000e+00	1.00000e+00	1.00000e+00	1.00000e+00	1.00000e+00	1.00000e+00	1.00000e+00	1.00000e+00	1.00000e+00	1.00000e+00	1.00000e+00	1.00000e+00	X	X	X	X	X	X	X	X	X	X	X	X	X	X	X	X	

B = Detector Channel
Val Type	B-AC1	B-AC2	B-AC3	B-AC4	B-AC5	B-AC6	B-AC7	B-AC8	B-AC9	B-AC10	B-AC11	B-AC12	B-AC13	B-AC14	B-AC15	B-AC16	B-DC1	B-DC2	B-DC3	B-DC4	B-DC5	B-DC6	B-DC7	B-DC8	B-DC9	B-DC10	B-DC11	B-DC12	B-DC13	B-DC14	B-DC15	B-DC16	B-Ph1	B-Ph2	B-Ph3	B-Ph4	B-Ph5	B-Ph6	B-Ph7	B-Ph8	B-Ph9	B-Ph10	B-Ph11	B-Ph12	B-Ph13	B-Ph14	B-Ph15	B-Ph16	

Term	0.00000e+00	0.00000e+00	0.00000e+00	0.00000e+00	0.00000e+00	0.00000e+00	0.00000e+00	0.00000e+00	0.00000e+00	0.00000e+00	0.00000e+00	0.00000e+00	0.00000e+00	0.00000e+00	0.00000e+00	0.00000e+00	0.00000e+00	0.00000e+00	0.00000e+00	0.00000e+00	0.00000e+00	0.00000e+00	0.00000e+00	0.00000e+00	0.00000e+00	0.00000e+00	0.00000e+00	0.00000e+00	0.00000e+00	0.00000e+00	0.00000e+00	0.00000e+00	-1.01651e+02	-1.31598e+02	-1.20738e+02	-1.91400e+02	-6.33302e+01	-6.26078e+01	-1.55998e+02	-1.62015e+02	-5.85124e+01	-6.34004e+01	-1.71242e+02	-1.69256e+02	-1.82252e+02	-1.76911e+02	-6.36124e+01	-1.48894e+02	
Factor	1.65450e-05	1.63506e-04	4.61476e-05	7.96256e-01	1.42743e-06	1.71502e-06	1.68508e-01	5.36599e-02	1.14399e-06	1.82088e-06	9.19581e-02	2.79579e-02	3.18351e-02	9.46751e-03	1.44351e-06	1.32714e-02	9.20689e-06	1.42985e-05	3.97790e-06	4.00663e-01	1.55516e-07	1.58660e-07	8.09809e-02	2.75310e-02	1.46786e-07	1.58617e-07	4.56486e-02	1.40073e-02	1.65838e-02	4.88813e-03	1.51075e-07	6.63547e-03	X	X	X	X	X	X	X	X	X	X	X	X	X	X	X	X	



#DISTANCE SETTINGS
A = Detector Channel
A-1	A-2	A-3	A-4	A-5	A-6	A-7	A-8	A-9	A-10	A-11	A-12	A-13	A-14	A-15	A-16	

2.5000e+00	3.0000e+00	2.5000e+00	3.0000e+00	2.0000e+00	3.0000e+00	1.5000e+00	3.0000e+00	3.0000e+00	3.0000e+00	3.0000e+00	3.0000e+00	3.0000e+00	3.0000e+00	1.5000e+00	3.0000e+00	

B = Detector Channel
B-1	B-2	B-3	B-4	B-5	B-6	B-7	B-8	B-9	B-10	B-11	B-12	B-13	B-14	B-15	B-16	

1.0000e+01	1.0000e+01	1.0000e+01	1.4400e+00	1.0000e+01	1.0000e+01	1.5100e+00	1.9400e+00	1.0000e+01	1.0000e+01	1.9900e+00	2.4900e+00	2.4100e+00	2.9000e+00	1.0000e+01	2.9800e+00	




#DATA BEGINS
time	group	step	mark	flag	A-AC1	A-AC2	A-AC3	A-AC4	A-AC5	A-AC6	A-AC7	A-AC8	A-AC9	A-AC10	A-AC11	A-AC12	A-AC13	A-AC14	A-AC15	A-AC16	A-DC1	A-DC2	A-DC3	A-DC4	A-DC5	A-DC6	A-DC7	A-DC8	A-DC9	A-DC10	A-DC11	A-DC12	A-DC13	A-DC14	A-DC15	A-DC16	A-Ph1	A-Ph2	A-Ph3	A-Ph4	A-Ph5	A-Ph6	A-Ph7	A-Ph8	A-Ph9	A-Ph10	A-Ph11	A-Ph12	A-Ph13	A-Ph14	A-Ph15	A-Ph16	B-AC1	B-AC2	B-AC3	B-AC4	B-AC5	B-AC6	B-AC7	B-AC8	B-AC9	B-AC10	B-AC11	B-AC12	B-AC13	B-AC14	B-AC15	B-AC16	B-DC1	B-DC2	B-DC3	B-DC4	B-DC5	B-DC6	B-DC7	B-DC8	B-DC9	B-DC10	B-DC11	B-DC12	B-DC13	B-DC14	B-DC15	B-DC16	B-Ph1	B-Ph2	B-Ph3	B-Ph4	B-Ph5	B-Ph6	B-Ph7	B-Ph8	B-Ph9	B-Ph10	B-Ph11	B-Ph12	B-Ph13	B-Ph14	B-Ph15	B-Ph16	aux-1	digaux	

673.739	1	1	0	768	0.11704	0.18031	0.23531	0.16803	0.028213	0.11581	0.24023	0.10712	0.071293	0.11418	0.065932	0.17437	0.098586	0.036448	0.12061	0.17712	-1.3646	-0.69792	-1.2875	-1.2396	-0.84583	-1.7125	-1.2313	-0.83125	-1.4833	-0.71458	-1.5021	-1.4271	-0.78958	-1.7146	-0.99792	-0.9	34.140	331.854	159.288	60.116	361.184	72.627	370.370	293.064	171.233	82.851	233.363	20.494	329.460	204.622	287.615	367.480	0.00014452	0.00056019	5.4591e-05	1136.5	3.5046e-06	5.0476e-06	1226.6	235.42	3.0109e-06	3.6064e-06	299.95	81.982	64.284	18.405	1.3741e-06	25.37	0.00060194	0.00085702	0.00024346	1132.1	9.5309e-06	9.4191e-06	1210.3	236.29	9.005e-06	9.7163e-06	299.52	82.712	64.978	18.775	9.564e-06	25.964	178.832	123.652	231.476	26.281	169.528	180.571	26.248	33.966	200.929	189.011	33.262	40.154	41.117	47.426	228.498	47.361	-8191	255	
673.835	1	1	0	0	0.22667	0.082458	0.097302	0.22293	0.11554	0.059448	0.27325	0.34161	0.14232	0.042273	0.07639	0.064606	0.040716	0.1403	0.16946	0.069769	-1.3292	-0.86458	-1.25	-1.6208	-0.69375	-1.5229	-1.4	-0.86875	-1.7292	-0.97708	-1.4396	-1.5646	-0.70417	-1.5979	-1.2375	-0.88958	199.819	295.309	176.543	248.147	322.842	141.029	300.937	338.258	138.564	90.735	241.721	291.340	342.290	295.616	222.204	348.594	0.00013995	0.0004319	3.5889e-05	1137.1	4.3397e-06	2.8801e-06	1223.9	236.2	2.6906e-06	1.8574e-06	301.05	81.03	63.774	18.387	3.0514e-06	25.418	0.00062152	0.00085946	0.00025238	1131.9	9.4353e-06	9.5285e-06	1209.6	236.43	8.9695e-06	9.7377e-06	299.43	82.498	65.015	18.694	9.3582e-06	25.898	174.539	110.993	177.684	26.119	167.158	217.634	25.991	33.715	203.330	171.063	33.640	40.432	40.593	47.635	195.889	47.078	-8191	255	
673.931	1	1	0	0	0.1245	0.20453	0.092189	0.21789	0.20717	0.15855	0.2191	0.17252	0.22672	0.1608	0.26926	0.028345	0.14978	0.13057	0.29615	0.097922	-1.1792	-0.83958	-1.3333	-1.6146	-0.80417	-1.3979	-1.35	-1.0083	-1.7229	-1.1083	-0.97083	-1.8021	-0.8125	-1.3937	-1.2958	-0.87917	204.319	48.037	79.727	173.073	283.971	357.847	302.466	105.066	171.423	190.783	362.221	59.661	77.237	57.697	104.249	192.700	0.00015251	0.00018072	0.0001341	1136.6	4.2139e-06	1.5333e-06	1225	236.33	2.6346e-06	4.3662e-06	303.04	81.476	63.938	18.273	4.581e-06	25.259	0.00060472	0.00086399	0.00024186	1132.5	9.3021e-06	9.5937e-06	1209.2	236.21	9.0013e-06	9.703e-06	300.78	82.52	64.871	18.715	9.1652e-06	25.877	168.395	135.090	67.055	26.350	223.561	163.209	26.475	33.471	250.565	190.282	33.455	40.433	40.773	47.531	160.863	47.679	-8191	255	
674.027	1	1	0	0	0.017747	0.35655	0.20431	0.087131	0.15549	0.11439	0.37649	0.15086	0.12043	0.10293	0.23321	0.042262	0.13904	0.018055	0.040641	0.059589	-1.4479	-0.96667	-1.1437	-1.7583	-0.79375	-1.1958	-1.6875	-0.73958	-1.6167	-1.2667	-0.83542	-1.6437	-0.82917	-1.2188	-1.4375	-0.75417	120.576	293.458	234.530	280.621	353.505	366.723	249.051	227.034	93.427	79.567	32.534	125.664	91.957	170.073	167.719	150.971	0.00016125	0.0002607	8.5744e-05	1139	2.4076e-06	3.7138e-06	1228.3	236.51	3.0641e-06	2.8468e-06	300.86	81.038	63.759	18.259	2.7012e-06	25.343	0.00061795	0.00085782	0.00024231	1131.5	9.3627e-06	9.6456e-06	1210.3	236.2	9.1396e-06	9.6122e-06	299.27	82.241	64.841	18.633	8.9594e-06	25.949	185.739	110.294	173.129	25.881	231.657	148.815	26.215	33.819	173.418	170.600	33.392	40.203	40.794	47.709	176.641	47.201	-8191	255	
674.123	1	1	0	0	0.23995	0.12509	0.12513	0.24012	0.2415	0.16699	0.15459	0.31081	0.11686	0.11762	0.21991	0.18116	0.029815	0.25548	0.23803	0.15414	-1.2583	-1.2583	-0.77083	-1.7646	-0.95833	-1.3146	-1.5896	-0.70833	-1.5333	-1.4875	-0.82292	-1.6938	-1.0625	-1.0396	-1.6875	-0.95208	197.038	140.351	247.817	275.864	224.989	239.916	245.179	203.080	231.604	344.860	306.941	341.105	140.373	342.708	19.500	85.196	0.00015067	0.00047904	0.00011396	1138.4	5.6062e-06	3.6724e-06	1225.6	236.92	3.4924e-06	1.9868e-06	299.2	81.292	63.672	18.313	3.1913e-06	25.292	0.00061627	0.00085702	0.00023605	1127.9	9.4048e-06	9.549e-06	1208.9	236.03	9.0334e-06	9.5408e-06	299.08	82.377	64.755	18.688	8.8927e-06	25.856	165.727	94.497	85.140	25.883	185.354	167.660	26.367	33.642	201.091	187.520	33.524	40.333	40.649	47.862	148.715	47.232	-8191	255	
674.219	1	1	0	0	0.27523	0.036784	0.18267	0.22124	0.069373	0.11415	0.26014	0.26392	0.11817	0.11887	0.09241	0.28063	0.0083232	0.033529	0.27096	0.15313	-1.0896	-1.2396	-0.67917	-1.7167	-0.99792	-1.0771	-1.7375	-0.70208	-1.4833	-1.4312	-0.88125	-1.7583	-1.2208	-0.99583	-1.8667	-0.8625	233.508	226.755	348.736	346.138	172.296	368.934	354.024	361.923	72.790	234.929	87.966	339.651	138.669	143.168	118.899	52.087	0.00017019	0.00013034	9.8393e-05	1135.1	4.315e-06	1.5885e-06	1228	236.55	1.8734e-06	5.1658e-06	300.23	81.272	63.881	18.229	3.3814e-06	25.322	0.00063366	0.00085982	0.00024398	1131.8	9.6579e-06	9.749e-06	1210.1	236.03	9.209e-06	9.5821e-06	298.95	82.397	64.804	18.658	8.763e-06	25.817	175.001	42.326	93.797	25.784	115.292	176.425	26.399	33.744	189.088	105.637	33.555	40.288	40.745	47.704	207.197	46.885	-8191	255	
674.340	1	1	0	0	0.11571	0.14211	0.069494	0.13063	0.16408	0.18884	0.22938	0.21512	0.14864	0.23059	0.048962	0.15427	0.23814	0.13103	0.032397	0.070264	-0.91875	-1.2938	-0.71458	-1.5333	-1.1	-0.85208	-1.8021	-0.99375	-1.4062	-1.4542	-0.81667	-1.4896	-1.2104	-0.96875	-1.6688	-0.84792	362.738	348.192	38.509	372.857	157.137	304.390	263.356	332.020	368.576	64.438	361.620	354.519	71.629	190.659	278.091	200.910	0.00016311	0.00065737	8.0801e-05	1140.7	1.5944e-06	2.0808e-06	1228.8	236.49	1.7176e-06	8.7107e-07	299.23	80.998	63.863	18.234	5.3632e-06	25.115	0.00061558	0.00085225	0.00023056	1128.4	9.157e-06	9.6115e-06	1209.1	235.89	9.1619e-06	9.5933e-06	299.17	82.3	64.932	18.662	8.9311e-06	25.859	164.971	79.693	155.792	26.235	94.550	180.471	26.330	33.478	215.392	222.339	33.424	40.516	40.703	47.281	217.571	47.133	-8191	255	
674.434	1	1	0	0	0.11302	0.18238	0.18609	0.090718	0.20145	0.20474	0.29951	0.24588	0.19641	0.16045	0.10338	0.23924	0.16499	0.1387	0.043111	0.25548	-0.79167	-1.5979	-0.5125	-1.3583	-1.2125	-0.81875	-1.7729	-0.90625	-1.2229	-1.6063	-0.775	-1.3833	-1.3333	-0.72292	-1.6187	-1.0583	371.982	321.983	287.601	121.611	321.599	182.489	284.541	330.221	201.362	134.900	185.467	371.022	71.204	20.525	362.983	33.624	0.0001567	0.00048431	6.509e-05	1137.3	2.9112e-06	4.0637e-06	1231.2	236.81	3.5509e-06	3.4993e-06	300.67	80.562	63.748	18.274	4.5603e-06	25.325	0.00064932	0.00088424	0.00024718	1132.7	9.8529e-06	9.635e-06	1211.2	236.51	9.6527e-06	9.6621e-06	299.64	82.189	64.833	18.709	9.5193e-06	25.949	160.512	105.349	99.756	26.147	179.206	205.240	26.397	33.590	212.672	207.273	33.534	40.326	40.749	47.494	199.695	46.816	-8191	255	
674.531	1	1	0	0	0.28261	0.12731	0.016507	0.096226	0.10186	0.47854	0.072866	0.24167	0.1164	0.27078	0.3542	0.19	0.16988	0.050409	0.10213	0.12257	-0.44583	-1.6708	-0.675	-1.2021	-1.525	-0.87083	-1.6854	-1.2542	-0.775	-1.5667	-1.0312	-1.3125	-1.45	-0.91458	-1.4458	-1.375	187.022	155.239	258.868	341.323	329.593	168.445	346.710	374.691	368.400	96.846	328.947	194.067	312.191	257.658	158.565	78.137	0.00017086	0.00049106	8.0684e-05	1138.2	2.5939e-06	4.3364e-06	1230.5	236.82	1.6898e-06	4.2821e-06	299.4	81.232	63.846	18.379	4.0847e-06	25.29	0.00064958	0.000863	0.00024703	1131.7	9.6242e-06	9.6257e-06	1212.1	236.2	9.2035e-06	9.3435e-06	299.23	82.399	65.038	18.718	8.9969e-06	25.924	172.361	88.743	158.309	25.825	141.035	238.446	26.446	33.303	210.784	162.102	33.281	40.345	40.468	47.462	151.751	47.078	-8191	255	
674.627	1	1	0	0	0.068948	0.14437	0.22005	0.15663	0.10804	0.28267	0.44532	0.097124	0.30459	0.15005	0.072939	0.16049	0.10567	0.13854	0.10177	0.12635	-0.36458	-1.5896	-0.82917	-1.1646	-1.4854	-0.71042	-1.5646	-1.0771	-0.91875	-1.6688	-1.0146	-1.2146	-1.6187	-0.64167	-1.6208	-1.0708	22.045	320.309	368.241	279.607	271.303	27.130	350.415	186.814	233.740	198.397	80.462	369.460	345.741	202.495	159.388	310.519	0.00014759	0.00044833	0.00012317	1133	3.8255e-06	4.8367e-07	1229	235.59	1.0911e-06	5.2243e-06	300.06	80.528	63.339	18.332	2.1535e-06	25.437	0.00065033	0.00086965	0.00024631	1130.7	9.3919e-06	9.4862e-06	1212.2	236.41	9.3001e-06	9.5636e-06	299.82	82.25	64.794	18.668	9.3708e-06	25.944	165.438	92.154	124.470	26.034	194.633	323.349	26.310	33.686	116.575	156.677	33.305	40.215	40.917	47.316	173.629	46.750	-8191	255	
674.723	1	1	0	0	0.021917	0.23902	0.24516	0.21432	0.33616	0.11218	0.18668	0.11587	0.14613	0.0867	0.078051	0.15086	0.21566	0.050726	0.1704	0.084709	-0.3625	-1.5167	-0.73333	-0.91667	-1.3833	-0.57917	-1.4458	-1.3542	-0.55625	-1.6667	-1.3271	-0.99375	-1.7188	-0.60833	-1.2667	-1.3958	180.197	334.279	24.669	78.633	32.594	263.468	160.321	358.920	78.163	126.978	365.396	310.423	21.682	348.140	85.272	110.957	0.00014035	0.00018005	0.0001033	1139.7	3.1198e-06	2.8807e-06	1228.7	236.28	2.2664e-06	4.4986e-06	301.34	81.855	64.256	18.231	1.995e-06	25.327	0.00063405	0.00083992	0.00024846	1133.2	9.4363e-06	9.9701e-06	1212.6	236.38	9.29e-06	9.8081e-06	300.45	82.891	65.032	18.771	9.932e-06	25.974	171.468	78.481	114.066	26.216	214.197	171.228	26.577	33.317	206.372	205.128	33.552	39.999	40.707	47.400	193.768	47.288	-8191	255	
674.819	1	1	0	0	0.37126	0.11342	0.095753	0.065941	0.12391	0.030815	0.22919	0.19285	0.12363	0.17534	0.25875	0.23427	0.18037	0.32567	0.14077	0.18327	-0.35625	-1.6292	-0.98333	-0.89583	-1.6146	-0.88125	-1.4042	-1.5396	-0.80417	-1.5896	-1.0312	-0.64792	-1.6875	-0.84792	-1.0854	-1.6562	341.774	112.572	234.234	155.180	22.682	33.781	353.141	255.114	31.078	187.019	321.671	368.858	355.190	344.765	353.206	176.813	0.00015106	0.00035702	7.8419e-05	1139.8	1.9495e-06	1.2232e-06	1233.2	238.83	3.5734e-06	3.7257e-06	299.46	81.213	64.059	18.308	1.0135e-06	25.448	0.00064916	0.00089672	0.00025467	1133.3	9.805e-06	1.0213e-05	1216.5	237.72	9.5873e-06	1.0211e-05	299.93	82.672	65.148	18.782	9.9958e-06	26.045	174.596	90.951	189.848	26.074	156.232	204.691	26.379	33.403	209.454	143.527	33.295	40.143	40.491	47.509	188.171	47.280	-8191	255	
674.940	1	1	0	0	0.24708	0.15214	0.075468	0.055012	0.27523	0.21673	0.2551	0.089112	0.18591	0.10318	0.52524	0.24952	0.13854	0.20011	0.066165	0.23693	-0.30208	-1.4042	-1.125	-0.55417	-1.6021	-0.98333	-1.2417	-1.6021	-0.75625	-1.425	-1.2042	-0.875	-1.5583	-0.92708	-0.85417	-1.6125	209.663	280.307	348.557	154.834	23.167	17.503	316.960	304.922	331.296	132.512	362.646	347.246	73.862	16.225	140.587	96.959	0.00017325	0.00043162	0.0001151	1147	1.4872e-06	5.8186e-06	1228.3	237.66	3.4127e-06	2.1355e-06	302.31	81.561	63.942	18.35	2.2703e-06	25.72	0.00066581	0.00092988	0.00026158	1139.9	9.7687e-06	1.027e-05	1215	237.24	9.8487e-06	1.0271e-05	300.66	82.711	65.211	18.82	1.042e-05	26.133	173.585	106.502	44.514	26.172	177.623	208.640	26.252	33.608	190.361	137.670	33.229	40.452	40.412	47.626	107.090	46.741	-8191	255	
675.036	1	1	0	0	0.18002	0.25929	0.12009	0.1151	0.050755	0.20194	0.37448	0.17109	0.15333	0.14146	0.074982	0.11771	0.34729	0.17023	0.10546	0.065633	-0.28958	-1.1854	-1.3958	-0.75	-1.4479	-1.0625	-1.0312	-1.7979	-0.65	-1.3021	-1.6167	-0.76042	-1.6833	-1.0042	-0.89583	-1.5958	212.659	33.787	41.354	333.982	141.603	130.964	316.877	322.013	35.241	320.064	268.325	262.641	375.331	233.792	44.848	243.173	0.00012904	0.00048526	4.6666e-05	1151.9	3.6203e-06	6.2731e-06	1233.8	238.2	6.4086e-07	9.9879e-07	300.8	81.793	64.613	18.522	3.3229e-06	25.79	0.00068697	0.00098686	0.00026406	1141.7	1.0567e-05	1.0729e-05	1217.2	237.77	1.0178e-05	1.116e-05	301.18	83.114	65.636	18.914	1.0593e-05	26.195	168.782	147.883	171.352	25.866	152.466	180.443	26.374	33.689	109.715	92.301	33.016	40.463	40.612	47.110	182.969	46.825	-8191	255	
675.132	1	1	0	0	0.12344	0.25989	0.12899	0.2697	0.30848	0.055912	0.0568	0.18341	0.20519	0.0098807	0.27029	0.27696	0.088346	0.16459	0.15817	0.019507	-0.4375	-1.1354	-1.5667	-0.45833	-1.5917	-1.3167	-1.0292	-1.6313	-0.81458	-1.2437	-1.5896	-0.58958	-1.3312	-1.5	-0.575	-1.5167	179.280	161.200	375.023	63.911	92.020	213.413	106.686	344.217	232.898	176.021	362.308	235.712	287.742	51.848	81.474	100.439	0.00014662	0.00044872	9.4193e-05	1137.1	4.7057e-06	7.7302e-06	1237.1	237.96	1.5843e-06	3.7632e-06	302.39	81.721	64.569	18.506	4.3316e-06	25.582	0.00071188	0.00099249	0.00027005	1139.9	1.0475e-05	1.0987e-05	1219.2	238.19	1.0534e-05	1.139e-05	302.29	83.207	65.748	18.953	1.0847e-05	26.238	179.238	119.612	89.092	26.078	187.976	162.949	26.445	33.642	213.625	172.161	33.161	40.033	40.961	47.226	136.782	47.026	-8191	255	
675.228	1	1	0	0	0.17065	0.19357	0.20598	0.13648	0.017534	0.19342	0.15232	0.042394	0.26718	0.16492	0.12352	0.23989	0.40925	0.15991	0.24843	0.08804	-0.48958	-1.0208	-1.8896	-0.74792	-1.3312	-1.2417	-1.1021	-1.7542	-0.95833	-1.0438	-1.7354	-0.77708	-1.3229	-1.5729	-0.67917	-1.525	259.676	30.737	205.351	247.083	49.401	180.773	351.227	109.874	230.712	105.259	312.722	124.999	329.920	362.122	104.793	369.495	0.00012045	5.2404e-05	8.2141e-05	1144.2	3.5055e-06	3.4634e-06	1232.8	238.8	5.3022e-06	5.245e-06	300.34	82.276	64.302	18.586	1.9442e-06	25.664	0.00072662	0.0010605	0.00028225	1141.3	1.139e-05	1.1462e-05	1218.8	238.56	1.0665e-05	1.1268e-05	301.5	83.291	65.712	18.948	1.0493e-05	26.268	167.692	369.716	136.670	25.802	158.932	136.691	26.453	33.538	165.338	172.091	33.319	40.294	40.891	47.081	200.304	47.330	-8191	255	
675.300	1	1	0	0	0.055466	0.084445	0.040058	0.13647	0.1624	0.0068681	0.18552	0.088797	0.14689	0.058149	0.45756	0.21604	0.12141	0.21035	0.20582	0.14282	-0.6125	-0.68958	-1.6146	-0.85208	-1.3792	-1.5333	-0.69375	-1.5271	-1.0917	-0.75625	-1.7563	-0.85208	-1.2792	-1.6	-0.70625	-1.5958	103.851	158.243	357.701	126.725	46.966	147.159	260.654	328.770	59.468	130.075	319.350	265.880	160.442	305.675	282.357	45.103	0.00015767	0.00026122	0.00014374	1136	1.6361e-06	3.1372e-06	1239	239.49	4.6637e-06	3.0528e-06	302.5	81.754	64.36	18.451	2.1138e-06	25.589	0.0007036	0.0010087	0.00026664	1137.2	1.0975e-05	1.0793e-05	1220.7	238.89	1.0306e-05	1.1331e-05	301.78	83.305	65.641	18.894	1.0935e-05	26.196	177.439	112.741	112.018	26.098	170.439	189.442	26.542	33.537	175.155	130.639	33.190	40.408	41.023	46.972	157.451	46.689	-8191	255	
675.419	1	1	0	0	0.093479	0.19973	0.23041	0.13663	0.066584	0.2727	0.27882	0.30946	0.099362	0.23154	0.16642	0.18114	0.16843	0.028198	0.30856	0.46661	-0.86042	-0.91667	-1.3563	-0.89792	-0.92708	-1.6625	-0.74375	-1.5083	-1.3146	-0.64375	-1.4438	-1.2167	-0.97292	-1.4479	-0.88333	-1.6646	147.854	183.079	148.492	35.329	78.595	162.374	314.919	212.027	334.484	108.759	335.231	359.011	270.634	33.469	294.713	226.586	0.00017002	0.0002709	0.00012499	1149.2	4.339e-06	2.281e-06	1235.4	239.23	5.5913e-06	4.0167e-06	301.55	82.328	64.342	18.477	8.0716e-07	25.615	0.00075521	0.0010714	0.00029053	1147.7	1.1868e-05	1.1827e-05	1220.2	238.97	1.1158e-05	1.191e-05	302.26	83.489	65.819	18.981	1.1079e-05	26.173	169.479	90.922	113.158	25.999	192.558	110.184	26.539	33.534	196.309	203.091	32.954	40.273	40.988	46.614	180.686	47.075	-8191	255	
675.515	1	1	0	0	0.11411	0.17605	0.1974	0.24128	0.38439	0.15888	0.27425	0.30481	0.28102	0.26091	0.064573	0.094507	0.15412	0.064155	0.23752	0.20003	-1.0833	-0.64167	-1.4729	-1.0688	-1.0625	-1.7104	-0.96667	-1.2313	-1.3333	-0.74583	-1.5979	-1.3146	-0.87083	-1.6833	-0.69583	-1.2458	291.241	337.018	47.750	80.447	149.236	46.450	300.859	126.743	86.289	298.643	353.351	179.633	309.176	228.908	342.014	192.641	0.00016493	0.00027509	0.00015253	1137.8	3.2207e-06	4.9331e-06	1234.6	239.61	2.0524e-06	6.0114e-06	300.99	82.342	64.138	18.61	1.5229e-06	25.545	0.00074286	0.0010315	0.00028517	1140.2	1.1795e-05	1.1671e-05	1220.3	239.04	1.1249e-05	1.1695e-05	301.36	83.561	65.58	18.94	1.0758e-05	26.216	163.534	129.105	92.218	25.830	159.620	131.037	26.321	33.711	138.513	169.294	33.605	40.430	40.986	47.076	111.541	47.168	-8191	255	
675.611	1	1	0	0	0.34521	0.14841	0.14885	0.16686	0.10042	0.15759	0.40083	0.12186	0.076843	0.23678	0.083267	0.070487	0.045516	0.15793	0.079431	0.30875	-1.1854	-0.67708	-1.5417	-0.98958	-0.92708	-1.7375	-1.0187	-1.1875	-1.5646	-0.64375	-1.3875	-1.1958	-0.875	-1.6458	-0.875	-0.96458	83.562	325.207	297.474	123.549	278.752	270.948	309.256	21.089	191.233	192.402	363.843	301.633	107.989	155.124	151.464	350.624	0.00014417	0.00045149	0.00013423	1136.3	1.3913e-06	6.425e-06	1231	237.67	1.879e-06	2.4979e-06	302.37	82.001	63.887	18.423	3.5261e-06	25.421	0.00070628	0.00095714	0.00026741	1137.6	1.0321e-05	9.9259e-06	1214.2	237.17	9.8187e-06	9.8732e-06	301.49	82.7	65.358	18.784	1.0157e-05	26.12	173.850	110.923	143.576	26.422	193.021	176.947	26.374	33.633	118.781	291.639	33.667	40.113	40.440	47.499	214.832	47.039	-8191	255	
675.709	1	1	0	0	0.27587	0.12582	0.22689	0.15152	0.16758	0.06663	0.28247	0.045654	0.40053	0.15328	0.1863	0.11324	0.15964	0.028006	0.26853	0.2546	-1.2	-0.64583	-1.3312	-1.3208	-0.44792	-1.6083	-1.0833	-0.94792	-1.5875	-0.8125	-1.3917	-1.4708	-0.64583	-1.5396	-1.1167	-0.87292	159.804	123.639	363.573	156.204	76.881	374.900	285.828	343.938	134.105	248.480	94.692	114.349	308.681	275.280	155.574	41.961	0.00015158	0.00057936	5.8384e-05	1148.6	2.7438e-06	3.5447e-06	1237.7	238.25	2.5451e-06	2.963e-06	302.81	81.899	64.659	18.394	3.26e-06	25.608	0.00069913	0.00096857	0.00027401	1140.7	1.0772e-05	1.1162e-05	1218.1	238.13	1.0584e-05	1.1261e-05	301.84	83.266	65.914	18.904	1.0773e-05	26.191	172.672	104.068	169.517	26.689	195.475	140.115	26.360	33.779	272.658	123.543	33.337	40.456	40.931	47.655	151.283	47.244	-8191	255	
675.828	1	1	0	0	0.13468	0.27167	0.10906	0.11464	0.23457	0.22055	0.076115	0.19238	0.16347	0.18905	0.13083	0.34798	0.23081	0.016311	0.35853	0.1642	-1.3604	-0.63333	-1.1854	-1.4333	-0.61042	-1.6792	-1.2271	-0.96667	-1.5938	-0.74375	-1.1167	-1.5604	-0.73958	-1.5104	-1.2625	-0.92083	42.592	31.588	310.296	48.607	60.387	49.310	168.141	364.537	336.530	98.410	176.073	223.007	95.998	287.353	83.449	281.049	0.00016195	0.00054859	0.00010249	1139.8	2.5878e-06	4.9536e-06	1233.3	238.34	3.2737e-06	3.9261e-06	301.84	81.322	63.288	18.227	3.5539e-06	25.219	0.00069633	0.0009493	0.00026805	1140.9	1.0007e-05	9.9546e-06	1219.9	237.71	8.8093e-06	9.4208e-06	300.43	82.377	64.589	18.635	8.8068e-06	25.818	172.120	58.832	95.310	25.637	191.626	160.233	26.235	33.873	171.181	167.019	33.722	40.188	41.156	48.020	215.575	47.085	-8191	255	
675.899	1	1	0	0	0.19948	0.25972	0.095896	0.19931	0.075196	0.26358	0.25778	0.18317	0.12215	0.43551	0.04114	0.060178	0.11382	0.07628	0.51596	0.11476	-1.2875	-0.80208	-0.88542	-1.7167	-0.8	-1.7	-1.3708	-0.95625	-1.6458	-0.975	-1.0187	-1.7896	-0.77917	-1.4479	-1.3062	-0.72083	234.491	38.730	171.074	359.930	212.307	263.989	372.603	355.620	340.424	334.097	253.165	159.474	209.159	278.224	180.765	138.387	0.0001433	0.00014189	3.5986e-05	1131.5	3.6423e-06	3.1791e-06	1225.8	238.29	4.1747e-06	3.7691e-06	302	81.794	63.567	18.29	4.1286e-06	25.404	0.00058725	0.00086539	0.00023484	1130.1	9.5072e-06	9.9784e-06	1211.8	237.26	9.5533e-06	1.0346e-05	301.05	82.591	64.911	18.701	9.6122e-06	25.987	179.279	125.219	166.963	26.347	189.871	199.072	26.431	34.050	196.784	106.033	33.600	40.528	40.869	48.068	200.121	47.174	-8191	255	
676.020	1	1	0	0	0.1258	0.24091	0.26937	0.19049	0.32478	0.35167	0.30588	0.226	0.28522	0.17955	0.22339	0.038339	0.21804	0.29725	0.20509	0.12011	-1.3292	-0.89167	-0.875	-1.6646	-0.56042	-1.2583	-1.55	-0.875	-1.4312	-1.275	-0.91667	-1.6229	-0.64792	-0.94583	-1.6187	-0.58958	322.040	144.290	373.139	182.889	149.271	138.203	249.650	274.051	242.283	235.554	69.402	79.378	375.045	357.278	104.573	53.883	0.00014432	0.00055554	0.00013969	1141.4	4.27e-06	2.4198e-06	1221.9	235.54	1.7921e-06	3.9357e-06	298.14	80.75	63.047	18.049	1.8464e-06	25.134	0.00062204	0.00088353	0.00023621	1129.2	8.6992e-06	8.6572e-06	1207.1	234.76	7.7298e-06	8.1294e-06	297.45	81.674	64.019	18.467	7.7543e-06	25.644	169.743	87.107	72.350	26.124	185.249	195.009	26.715	33.954	220.441	203.329	33.927	40.588	41.208	47.901	173.892	47.737	-8191	255	
676.116	1	1	0	0	0.24272	0.2106	0.25847	0.093361	0.084295	0.23687	0.25633	0.2873	0.24902	0.026643	0.22503	0.27254	0.11834	0.16119	0.2094	0.045743	-1.025	-1.1542	-0.79375	-1.6542	-0.875	-1.1083	-1.6833	-0.71458	-1.4417	-1.3167	-0.77917	-1.7604	-0.96875	-0.99583	-1.4042	-0.9	144.061	341.518	161.690	328.816	286.021	276.893	304.919	282.695	241.385	362.364	205.204	132.028	231.003	295.227	317.195	360.894	0.00016616	0.00025821	0.00010447	1136.1	2.4784e-06	6.2754e-06	1220.1	235.36	2.8937e-06	2.6849e-06	297.52	80.75	63.629	18.196	2.1211e-06	25.014	0.00051277	0.00073033	0.00020592	1118.9	7.9602e-06	8.1905e-06	1201.4	234.14	7.6659e-06	8.5058e-06	296.77	81.596	64.248	18.515	7.956e-06	25.669	164.632	110.588	79.518	26.245	219.396	167.390	26.615	34.072	207.874	214.069	33.787	40.624	41.160	48.135	191.469	47.424	-8191	255	
676.212	1	1	0	0	0.050074	0.053787	0.088026	0.064546	0.13833	0.22994	0.26921	0.20276	0.18064	0.10806	0.1445	0.20357	0.12499	0.056909	0.34907	0.091597	-0.95625	-1.0688	-0.82292	-1.7208	-1.0479	-0.91458	-1.775	-0.66042	-1.3417	-1.2229	-0.75208	-1.5417	-0.98333	-0.7125	-1.6708	-0.81667	260.325	131.373	114.851	46.561	279.210	310.323	342.793	332.907	271.835	363.423	124.293	34.712	330.370	360.114	121.718	179.307	0.00016033	0.00051951	4.2496e-05	1132.2	4.51e-06	7.6436e-07	1219.3	235.31	2.8404e-06	5.7347e-07	298.34	80.567	63.648	18.12	2.2294e-06	25.06	0.00054361	0.00077271	0.00021201	1121.1	8.3302e-06	8.4966e-06	1204.7	234.52	8.1625e-06	8.4371e-06	296.95	81.703	64.405	18.509	8.459e-06	25.724	175.376	110.623	73.641	26.428	183.042	167.750	26.540	33.933	173.147	338.560	33.543	40.433	40.967	47.802	129.688	47.265	-8191	255	
676.309	1	1	0	0	0.2065	0.032777	0.021223	0.27815	0.18447	0.10943	0.30188	0.13132	0.068241	0.13656	0.25511	0.34454	0.23176	0.1224	0.046573	0.41223	-0.78958	-1.3958	-0.57083	-1.6437	-0.9375	-0.7875	-1.8146	-0.82708	-1.1104	-1.3896	-0.68542	-1.6708	-1.3125	-0.6625	-1.6458	-0.87292	291.084	40.187	265.082	341.758	82.903	197.683	355.584	289.022	96.315	281.596	16.980	311.261	58.430	61.730	373.853	42.901	0.00014601	0.00042077	0.00015065	1133.8	2.0543e-06	3.6154e-06	1227.8	235.92	1.2857e-06	2.749e-06	299.26	80.872	64.061	18.21	3.0832e-06	25.345	0.00060249	0.00079705	0.00022394	1125.5	8.9814e-06	9.0552e-06	1209.9	235.74	9.0267e-06	9.1495e-06	299.01	82.29	64.844	18.666	9.1297e-06	25.942	172.443	102.605	116.079	26.107	211.871	190.642	26.447	34.231	232.363	222.557	33.774	40.813	40.963	47.494	150.654	47.202	-8191	255	
676.429	1	1	0	0	0.18409	0.27884	0.18969	0.12189	0.18568	0.18797	0.26152	0.14462	0.059484	0.038799	0.044536	0.13774	0.23171	0.10196	0.072213	0.1216	-0.59167	-1.4104	-0.76667	-1.4875	-1.2188	-0.85208	-1.8937	-1.0667	-0.95833	-1.7062	-0.76458	-1.3729	-1.3042	-0.60833	-1.7229	-1.1979	323.434	218.535	366.327	327.593	349.509	17.163	349.048	19.027	249.637	231.878	325.899	338.979	166.417	121.035	178.620	112.675	0.00015359	0.00031322	7.2837e-05	1138.2	4.6276e-06	3.1779e-06	1228.8	237.02	3.1729e-06	1.6343e-06	300.28	81.205	63.903	18.252	4.3478e-06	25.463	0.00066499	0.00090509	0.00025078	1132.3	1.0159e-05	1.0151e-05	1212.9	237	9.6114e-06	9.5329e-06	299.61	82.426	65.079	18.7	8.5232e-06	25.979	167.650	181.719	125.972	25.983	190.660	174.146	26.666	33.901	205.507	224.543	33.860	40.750	41.022	47.786	209.109	47.508	-8191	255	
676.524	1	1	0	0	0.19662	0.20801	0.25236	0.26826	0.06654	0.41081	0.14235	0.16171	0.13342	0.36181	0.1801	0.27132	0.4335	0.058138	0.10316	0.18402	-0.42292	-1.7563	-0.575	-1.2875	-1.4833	-0.6375	-1.7375	-0.93125	-0.60833	-1.75	-0.97083	-1.2	-1.4021	-0.68542	-1.5583	-1.2333	26.078	230.487	108.253	22.685	311.228	304.076	228.794	318.657	246.001	25.943	246.763	347.101	334.661	222.311	336.500	230.396	0.00014227	0.00040736	4.0121e-05	1136.1	2.4076e-06	1.2244e-06	1228.6	236.61	2.5655e-06	2.2694e-06	301.16	80.979	64.069	18.188	3.6677e-06	25.225	0.00060936	0.00080641	0.00022502	1129.6	9.2273e-06	9.1815e-06	1212.7	236.35	8.7637e-06	8.9308e-06	299.97	82.25	65.009	18.651	8.8332e-06	25.824	173.602	115.037	96.743	26.565	127.312	169.985	26.380	34.192	202.758	201.455	33.848	40.764	41.240	47.876	201.754	47.803	-8191	255	
676.595	1	1	0	0	0.1415	0.17439	0.085882	0.10706	0.21027	0.19181	0.22451	0.21941	0.12499	0.19751	0.22337	0.19848	0.18294	0.22918	0.10303	0.24977	-0.62083	-1.75	-0.82917	-1.1271	-1.5417	-0.78333	-1.7396	-1.2979	-0.89583	-1.5375	-0.86875	-1.1229	-1.525	-0.85833	-1.45	-1.5375	209.841	63.873	195.362	362.231	150.813	189.044	304.026	284.827	318.591	297.357	334.075	337.407	351.427	308.565	31.335	230.279	0.00012923	0.00046701	0.00014557	1143.5	3.2598e-06	3.5691e-06	1229	236.39	1.6205e-06	3.6641e-06	300.12	81.211	63.53	18.256	4.7699e-06	25.341	0.00062325	0.00084969	0.00022818	1130.3	9.2289e-06	9.1243e-06	1211.8	235.79	8.9454e-06	9.174e-06	299.5	82.263	64.781	18.674	8.8779e-06	25.92	173.331	64.111	110.922	27.192	157.574	209.558	26.660	33.979	170.460	141.023	33.776	41.051	41.142	48.016	156.790	47.663	-8191	255	
676.716	1	1	0	0	0.28975	0.23183	0.28889	0.041263	0.13982	0.11038	0.22603	0.072133	0.21394	0.053932	0.15052	0.19131	0.15152	0.14253	0.087441	0.094974	-0.41458	-1.5417	-1.0021	-0.93333	-1.6375	-0.6125	-1.4708	-1.45	-0.54583	-1.6083	-1.0396	-0.93542	-1.7208	-0.70833	-1.2854	-1.4646	263.670	112.977	360.316	140.194	214.190	271.879	300.879	265.147	137.520	336.031	205.618	276.654	315.317	71.311	113.359	312.252	0.00015305	0.0005955	9.4934e-05	1140.4	2.2375e-06	3.5783e-06	1227.1	236.98	1.6823e-06	3.398e-06	298.41	81.602	63.219	18.263	1.0402e-06	25.303	0.00059643	0.00081305	0.00022839	1128.9	8.6149e-06	8.839e-06	1209.7	235.9	8.3585e-06	8.3941e-06	298.44	82.221	64.445	18.609	8.4775e-06	25.792	175.697	151.894	120.189	26.663	152.089	169.364	26.724	34.104	188.682	244.143	33.770	40.840	41.017	47.884	213.859	47.429	-8191	255	
676.812	1	1	0	0	0.3055	0.27489	0.29539	0.17425	0.17524	0.11616	0.2648	0.30677	0.090336	0.19083	0.40893	0.14667	0.05256	0.027521	0.21071	0.18022	-0.31875	-1.5854	-1.0646	-0.75208	-1.6479	-0.69375	-1.3188	-1.3542	-0.625	-1.4688	-1.2	-0.90833	-1.8729	-0.7125	-1.1583	-1.6292	188.699	362.118	359.320	252.754	222.595	76.957	336.988	255.350	249.798	51.120	84.946	374.672	109.258	373.627	44.220	354.708	0.00017395	0.00039631	6.8215e-05	1125.6	1.581e-06	5.3383e-06	1228.6	234.76	3.9429e-07	2.2523e-06	299.21	80.839	62.83	18.081	3.9118e-06	25.18	0.00057457	0.00075329	0.00022483	1123.1	8.393e-06	8.169e-06	1207.9	234.61	7.9916e-06	8.26e-06	297.93	81.765	64.133	18.488	7.917e-06	25.734	170.638	96.893	126.899	26.360	227.054	177.742	26.753	33.938	221.641	191.802	33.835	40.816	41.150	47.612	187.757	47.458	-8191	255	
676.908	1	1	0	0	0.1219	0.16697	0.24348	0.16977	0.091822	0.079079	0.37807	0.20268	0.14918	0.18849	0.13126	0.17488	0.063347	0.11911	0.12279	0.23261	-0.62083	-1.3792	-1.3	-0.83125	-1.7146	-0.9	-1.0438	-1.6833	-0.70208	-1.4625	-1.4167	-0.88958	-1.7208	-1.15	-0.925	-1.7792	224.880	361.002	171.964	190.315	160.442	367.093	332.534	187.915	149.493	65.457	194.842	243.446	299.421	309.188	340.441	334.590	0.00013125	0.00024426	0.00012787	1129.9	3.796e-06	3.6846e-06	1219.9	234.82	2.9685e-06	3.0628e-06	298.44	80.853	63.634	18.059	5.9603e-06	25.281	0.00053164	0.00074504	0.00020746	1122.6	8.0865e-06	8.1403e-06	1203.7	234.39	7.9381e-06	8.3799e-06	297.77	81.768	64.404	18.512	8.6752e-06	25.789	178.212	178.661	107.198	26.735	132.518	205.951	26.910	34.104	209.555	180.293	33.638	40.800	41.205	47.740	193.902	47.257	-8191	255	
677.004	1	1	0	0	0.12098	0.15205	0.13627	0.15563	0.11121	0.45502	0.052272	0.074709	0.085473	0.21893	0.10044	0.42962	0.10581	0.072398	0.11941	0.22224	-0.17917	-1.3354	-1.4188	-0.71042	-1.6708	-1.0792	-1.1146	-1.775	-0.71042	-1.2333	-1.6812	-0.675	-1.6437	-1.0833	-0.87708	-1.5521	69.826	171.291	330.110	273.422	103.407	123.746	88.704	182.614	259.000	146.630	301.538	178.134	104.633	166.615	157.854	214.196	0.00015025	0.00053276	0.0001884	1135	2.5494e-06	2.4298e-06	1218.2	235.47	2.498e-06	4.1186e-06	297.8	80.62	63.525	18.128	1.218e-06	25.421	0.00055776	0.00079226	0.0002174	1124.9	8.2845e-06	8.7706e-06	1201.9	234.63	8.2677e-06	8.8498e-06	297.3	81.942	64.309	18.516	8.938e-06	25.85	170.808	104.550	121.740	26.671	198.913	164.527	26.647	33.988	211.642	127.481	33.627	40.616	41.436	47.887	172.437	47.287	-8191	255	
677.125	1	1	0	0	0.07271	0.12985	0.072209	0.10301	0.077146	0.15777	0.26996	0.33512	0.13599	0.21091	0.20555	0.085892	0.13968	0.20333	0.082652	0.37095	-0.4875	-1.1583	-1.6292	-0.65	-1.5479	-1.1875	-1.0604	-1.6625	-0.90833	-1.0146	-1.6208	-0.84375	-1.4583	-1.2021	-0.5875	-1.5979	282.131	291.487	283.879	329.134	206.147	296.010	253.858	334.530	73.610	34.333	348.336	40.297	135.449	27.792	145.380	22.979	0.00014388	0.00021545	0.0001455	1132.5	2.1085e-06	2.9519e-06	1223.1	236.14	2.4344e-06	3.3259e-06	300.36	80.934	63.779	18.19	7.9277e-07	25.487	0.00061398	0.00085231	0.00023296	1124.6	9.2966e-06	9.3791e-06	1205.1	235.24	8.9527e-06	9.7034e-06	298.69	82.126	64.633	18.637	9.5791e-06	25.907	167.852	103.480	140.947	26.202	191.179	169.763	26.622	34.077	199.589	188.474	33.539	40.830	41.058	48.107	186.462	47.627	-8191	255	
677.197	1	1	0	0	0.11727	0.093871	0.12675	0.17588	0.20429	0.2125	0.19436	0.19699	0.33913	0.3432	0.13588	0.17016	0.16106	0.37895	0.044254	0.098933	-0.58542	-0.86875	-1.4937	-0.75	-1.2917	-1.5125	-0.82917	-1.7854	-0.88333	-1.0083	-1.7417	-0.90417	-1.3104	-1.4104	-0.66875	-1.6104	354.127	79.422	115.165	47.166	199.255	160.666	327.103	305.548	256.546	55.044	43.800	238.560	375.415	82.089	228.043	327.665	0.00011954	0.00042875	0.00010388	1132.5	3.0034e-06	5.2449e-06	1225	237.3	4.3962e-06	3.1546e-06	298.67	81.154	63.956	18.232	2.2853e-06	25.264	0.00063372	0.00090667	0.00024377	1126.7	9.8636e-06	9.982e-06	1207.3	235.9	9.468e-06	1.0085e-05	298.95	82.336	64.895	18.723	9.4375e-06	25.897	174.219	99.187	90.974	26.374	196.602	214.630	26.638	33.401	163.952	141.373	33.066	40.600	41.482	48.035	157.942	47.369	-8191	255	
677.293	1	1	0	0	0.26454	0.29327	0.1552	0.1363	0.16091	0.13093	0.40543	0.12684	0.17027	0.13386	0.17704	0.44586	0.17866	0.21524	0.088932	0.21304	-0.61042	-0.92292	-1.6042	-0.51875	-1.1604	-1.4542	-0.81875	-1.4854	-0.90208	-0.72083	-1.6625	-0.83333	-1.125	-1.5063	-0.5875	-1.4354	246.599	118.800	90.636	347.887	211.399	357.470	347.804	343.701	351.962	190.112	176.687	278.777	31.609	40.240	274.968	343.949	0.00018019	0.00049239	5.8678e-05	1129.5	2.3883e-06	2.7238e-06	1225.9	235.99	1.4046e-06	3.4292e-06	300.02	81.204	63.846	18.262	3.9575e-06	25.321	0.00063744	0.00088815	0.00024111	1127.3	9.9579e-06	1.0029e-05	1209.7	236.38	9.4499e-06	1.0038e-05	299.42	82.548	65.039	18.681	9.6531e-06	25.951	175.216	133.080	148.979	26.523	155.649	157.099	26.779	34.416	174.803	157.571	33.607	40.876	40.865	47.952	163.768	47.844	-8191	255	
677.389	1	1	0	0	0.15335	0.12474	0.2778	0.14464	0.063252	0.22708	0.3195	0.4037	0.19252	0.1595	0.13447	0.17625	0.23503	0.14462	0.30872	0.24566	-1.0167	-0.69167	-1.8021	-0.85833	-0.75833	-1.5479	-1.0812	-1.5917	-1.125	-0.72292	-1.725	-0.95625	-0.97917	-1.6583	-0.66667	-1.2604	76.220	359.367	75.059	354.204	85.992	220.421	319.379	289.949	354.727	144.026	72.286	93.628	72.621	243.616	19.857	238.503	0.00018528	0.0003624	0.00010159	1137.1	4.5665e-06	3.2796e-06	1228.4	237.62	3.7712e-06	2.9138e-06	300.5	81.499	64.094	18.351	3.1841e-06	25.472	0.00065917	0.00093143	0.00024619	1132.3	1.0173e-05	1.0199e-05	1213.4	236.94	9.7025e-06	9.9843e-06	299.88	82.515	65.13	18.763	9.3072e-06	25.974	174.390	64.793	168.098	26.200	157.762	138.262	26.572	33.824	198.243	163.979	33.965	40.602	41.059	47.448	185.754	47.497	-8191	255	
677.508	1	1	0	0	0.25627	0.056263	0.2675	0.21822	0.12778	0.3868	0.15522	0.15347	0.10156	0.08432	0.16219	0.17798	0.12573	0.17719	0.2395	0.13445	-0.9	-0.59792	-1.5187	-1.025	-0.88125	-1.6562	-0.97083	-1.5667	-1.5208	-0.72917	-1.5875	-1.1875	-0.91458	-1.4646	-0.67708	-1.2417	311.282	214.550	24.865	68.937	20.202	38.009	356.106	261.996	153.876	57.339	270.661	316.170	207.080	86.400	323.365	351.751	0.00016434	0.00041642	7.1657e-05	1131	3.7714e-06	4.8903e-06	1230.3	237.1	1.661e-06	4.3558e-06	299.39	81.48	64.106	18.462	2.2674e-06	25.522	0.00064795	0.00092455	0.00024577	1129.4	1.033e-05	9.91e-06	1212.6	236.7	9.6399e-06	1.0274e-05	300.47	82.684	65.143	18.811	9.846e-06	26.059	180.258	93.576	96.785	26.321	157.671	198.467	26.731	34.211	197.772	179.414	33.784	40.597	40.948	47.835	232.185	47.281	-8191	255	
677.604	1	1	0	0	0.218	0.23516	0.1461	0.31984	0.13316	0.23534	0.2744	0.38415	0.17073	0.28298	0.10415	0.097795	0.19717	0.16351	0.01653	0.087199	-1.35	-0.57292	-1.7125	-1.2771	-0.68542	-1.6979	-1.0187	-1.1437	-1.425	-0.57917	-1.5417	-1.3396	-0.62708	-1.5979	-0.69167	-0.91875	33.815	247.557	268.998	269.453	175.418	45.705	332.683	306.748	15.961	74.053	149.763	83.230	338.388	292.919	74.418	152.583	0.00015713	0.00029433	0.00010531	1141.2	3.7218e-06	3.4114e-06	1230.2	236.76	2.759e-06	5.7043e-07	300.62	81.13	64.199	18.52	4.5471e-06	25.364	0.00067947	0.00094215	0.00025841	1134.4	1.0084e-05	9.8816e-06	1211.8	236.69	9.5827e-06	1.0056e-05	300.41	82.723	65.39	18.799	9.6326e-06	26.005	177.712	128.444	93.496	26.391	141.473	196.610	26.738	33.823	201.618	177.471	33.934	40.579	41.235	47.766	176.964	47.706	-8191	255	
677.700	1	1	0	0	0.18871	0.094058	0.16329	0.1946	0.056576	0.14353	0.35805	0.24989	0.22503	0.26243	0.33092	0.38984	0.052485	0.20584	0.18845	0.34021	-1.0208	-0.69167	-1.2646	-1.5729	-0.83125	-1.6042	-1.2667	-0.99792	-1.6812	-0.90208	-1.4042	-1.4375	-0.74375	-1.5688	-0.8875	-0.82292	29.677	169.486	229.194	130.486	146.508	130.370	338.544	337.970	231.967	160.214	338.604	299.843	78.830	51.095	313.142	55.046	0.00015332	0.00057032	0.0001068	1146.4	4.5565e-06	3.1495e-06	1230.8	236.45	2.6783e-06	3.23e-06	298.52	81.046	63.918	18.249	3.6152e-06	25.708	0.00065139	0.00088642	0.00024737	1133	9.7567e-06	9.4757e-06	1212	236.95	9.372e-06	9.7239e-06	299.53	82.435	65.115	18.752	9.5517e-06	26.056	178.260	164.012	100.176	26.332	187.033	156.616	26.521	34.141	175.863	194.036	33.801	40.655	41.225	47.976	171.595	48.025	-8191	255	
677.796	1	1	0	0	0.10841	0.22951	0.079943	0.25803	0.14943	0.071602	0.2806	0.03372	0.25	0.27201	0.062809	0.14596	0.31775	0.15687	0.11336	0.022346	-1.2333	-0.64167	-1.2583	-1.3438	-0.74167	-1.5187	-1.3396	-0.95	-1.4729	-0.87708	-1.1375	-1.5354	-0.67708	-1.5167	-1.1437	-0.89375	347.604	32.168	239.692	307.602	146.873	118.002	312.558	324.617	97.858	218.707	302.086	359.511	370.050	33.714	80.884	41.514	0.00013968	0.00017322	8.429e-05	1143.4	4.0361e-06	2.8661e-06	1230.5	237.42	1.4292e-06	2.1528e-06	301.51	81.677	63.894	18.371	3.8294e-06	25.543	0.00064078	0.00092216	0.00025895	1134.4	1.0028e-05	9.8277e-06	1214.1	236.79	9.1393e-06	9.596e-06	300.3	82.671	65.109	18.785	9.316e-06	26.066	167.749	135.728	167.431	26.297	156.767	163.241	26.944	34.036	279.469	172.046	33.714	40.570	41.415	47.692	146.585	47.445	-8191	255	
677.892	1	1	0	0	0.17727	0.15225	0.13154	0.11727	0.04747	0.19693	0.21121	0.20321	0.24382	0.26727	0.13419	0.16239	0.1963	0.21574	0.065314	0.17225	-1.3563	-0.65625	-0.99792	-1.9104	-0.53333	-1.5583	-1.3604	-0.775	-1.7229	-1.15	-0.88958	-1.5958	-0.79375	-1.5229	-1.4312	-0.625	265.437	336.386	124.605	298.973	176.314	167.666	83.367	324.954	318.892	102.180	334.475	202.734	356.706	17.389	29.453	230.945	0.00014534	0.00041721	9.9726e-05	1140.6	3.214e-06	3.3457e-06	1226.9	236.94	3.3539e-06	5.4844e-06	301.11	81.232	63.646	18.38	2.3671e-06	25.233	0.00062639	0.00086327	0.00024752	1133.3	9.2814e-06	9.5778e-06	1210.9	236.38	8.8842e-06	9.3951e-06	300.05	82.446	64.87	18.758	9.1114e-06	25.969	168.703	118.762	146.818	26.532	150.134	169.195	26.739	33.989	216.327	143.184	33.921	40.434	41.209	47.736	151.677	47.477	-8191	255	
677.989	1	1	0	0	0.00085558	0.013405	0.073746	0.11073	0.27225	0.22356	0.24755	0.17222	0.22459	0.22589	0.093523	0.15959	0.15787	0.22355	0.1121	0.031309	-1.3417	-0.80833	-0.84583	-1.6667	-0.63958	-1.1604	-1.8229	-0.83125	-1.55	-1.0771	-0.93958	-1.7271	-0.96667	-1.3292	-1.5667	-0.71042	180.000	244.020	77.584	109.474	28.605	21.582	190.996	169.233	372.932	227.308	311.165	293.198	365.210	347.715	343.471	103.529	0.00015316	5.0077e-05	0.00014906	1137.8	7.3759e-07	6.4315e-06	1230.8	236.2	1.0479e-06	3.6937e-06	300.13	81.173	63.854	18.333	3.7602e-06	25.362	0.00061268	0.00082666	0.00024317	1131.1	8.7964e-06	9.3388e-06	1213.3	236.03	8.4573e-06	9.2341e-06	299.4	82.285	64.826	18.7	8.7205e-06	25.858	158.861	167.991	84.263	26.543	182.670	149.796	26.726	34.005	217.088	175.149	33.784	40.788	41.226	48.074	168.218	47.514	-8191	255	
678.109	1	1	0	0	0.030978	0.17701	0.087973	0.16286	0.079661	0.029287	0.15919	0.34894	0.1455	0.069358	0.12577	0.11024	0.28027	0.061718	0.1324	0.2951	-1.1896	-1	-0.75417	-1.5667	-0.65833	-1.1104	-1.5354	-0.85625	-1.3917	-1.2313	-0.73542	-1.5	-1.0458	-1.0229	-1.5396	-0.8375	171.060	327.019	93.531	232.122	221.065	135.908	24.543	324.649	136.793	289.130	353.604	176.622	284.028	364.641	295.902	90.738	0.00017791	0.00018473	1.5306e-05	1131.8	2.13e-06	2.4311e-06	1232.9	237.27	2.079e-06	3.5262e-06	300.49	81.106	63.932	18.323	3.9592e-06	25.291	0.00061013	0.0008417	0.00023951	1130.8	9.1949e-06	9.6181e-06	1213.1	236.17	9.1172e-06	9.86e-06	299.22	82.461	64.929	18.766	9.2612e-06	25.953	168.948	86.103	259.223	26.534	188.863	159.219	26.773	34.015	201.120	136.772	33.815	41.067	40.890	48.033	146.189	47.148	-8191	255	
678.205	1	1	0	0	0.29158	0.10318	0.27865	0.12996	0.21584	0.16701	0.29671	0.14968	0.17672	0.1618	0.07467	0.22973	0.10039	0.17039	0.11345	0.031916	-1.05	-1.3354	-0.63333	-1.6458	-1.1083	-0.99375	-1.7667	-0.95208	-1.3375	-1.7437	-0.73333	-1.6667	-1.0708	-0.93125	-1.6458	-0.75	222.400	149.292	326.290	328.553	243.405	233.505	170.829	34.999	119.929	122.886	149.504	252.545	243.822	62.429	252.566	209.202	0.00013953	7.8506e-05	0.00013761	1139.7	2.9402e-06	2.2722e-06	1227.6	236.87	1.3086e-06	2.4572e-06	299.82	81.147	63.845	18.398	4.8967e-06	25.329	0.00062194	0.00088195	0.00024554	1130.7	9.5574e-06	9.5715e-06	1211.2	235.9	8.9102e-06	9.4314e-06	298.92	82.179	64.741	18.677	8.5304e-06	25.827	166.186	61.188	112.411	26.615	191.213	146.238	26.858	34.177	253.903	170.755	33.862	40.831	41.263	47.940	189.075	47.697	-8191	255	
678.301	1	1	0	0	0.21575	0.19656	0.13948	0.28741	0.066524	0.039795	0.28985	0.22223	0.245	0.14947	0.34399	0.2692	0.16121	0.049375	0.080152	0.14334	-0.93542	-1.4875	-0.8125	-1.6229	-1.2375	-0.70208	-1.8687	-0.725	-1.1729	-1.6479	-0.65625	-1.5292	-1.0812	-0.725	-1.675	-0.83958	162.270	135.951	129.582	28.987	156.972	89.657	264.921	332.195	159.880	129.351	187.912	357.338	309.152	333.829	234.409	329.975	0.00014081	0.00043086	7.9654e-05	1130.1	2.9544e-06	5.152e-06	1220.7	234.8	2.067e-06	3.1795e-06	298.76	79.953	62.398	18.089	3.0402e-06	24.969	0.00059062	0.00077939	0.00021406	1118.7	8.1542e-06	8.3079e-06	1203.9	233.9	7.3203e-06	7.3922e-06	296.72	81.22	63.655	18.323	6.9954e-06	25.476	167.540	103.982	108.460	26.285	149.413	103.933	26.602	34.238	244.019	181.567	33.771	40.610	40.937	47.895	174.128	47.637	-8191	255	
678.420	1	1	0	0	0.12986	0.092541	0.12352	0.11041	0.21109	0.042611	0.12801	0.14582	0.22017	0.21572	0.31465	0.13286	0.10266	0.1055	0.22189	0.14547	-0.69792	-1.5208	-0.475	-1.5187	-1.1083	-0.73125	-1.9958	-0.86667	-1.0417	-1.3542	-0.96667	-1.5	-1.3563	-0.8375	-1.6042	-1.0417	236.658	110.431	29.050	326.464	120.851	113.469	365.424	352.849	358.745	241.847	289.872	74.039	365.319	329.048	335.620	314.377	0.0001465	0.0006517	0.0001092	1140.1	3.227e-06	3.5906e-06	1216.4	234.32	4.5946e-06	9.4114e-07	297.31	81.335	63.283	18.064	2.7765e-06	25.118	0.00050916	0.00069121	0.0001918	1118.6	7.9456e-06	8.2351e-06	1199.6	233.67	8.4582e-06	8.5065e-06	296.81	81.838	64.296	18.492	8.572e-06	25.699	170.383	130.295	112.387	26.406	211.554	167.050	26.734	33.910	192.206	208.407	33.842	41.068	41.495	47.994	97.807	47.750	-8191	255	
678.492	1	1	0	0	0.024097	0.19796	0.21295	0.081771	0.32802	0.2088	0.47462	0.22015	0.15298	0.27836	0.20177	0.1365	0.1692	0.15268	0.12961	0.19546	-0.42708	-1.65	-0.80417	-1.3292	-1.4604	-0.70625	-1.9083	-0.89583	-0.89167	-1.6958	-1.0125	-1.3917	-1.6333	-0.5375	-1.4271	-1.05	114.747	160.736	89.962	294.980	37.282	254.333	331.461	360.799	163.509	191.073	119.566	229.226	352.858	192.088	316.518	129.064	0.00014828	0.00045195	0.00010906	1133.9	2.5021e-06	2.9109e-06	1221.3	236.09	2.1018e-06	3.5594e-06	299.22	80.454	63.432	18.135	1.5272e-06	25.08	0.00061069	0.00083453	0.00022454	1122.9	8.9516e-06	9.0225e-06	1205.9	234.99	8.7016e-06	8.8528e-06	297.59	81.808	64.29	18.451	8.1436e-06	25.647	178.630	90.010	109.177	26.385	139.070	169.902	26.671	34.090	162.863	171.928	33.592	41.152	41.711	47.804	217.041	47.657	-8191	255	
678.588	1	1	0	0	0.24969	0.20689	0.051832	0.077738	0.12033	0.059161	0.17349	0.099035	0.24308	0.094556	0.3012	0.44138	0.25952	0.085483	0.4466	0.25399	-0.47292	-1.6854	-0.88333	-1.1083	-1.6542	-0.81458	-1.6875	-1.2771	-0.67708	-1.6	-1.1292	-1.2271	-1.725	-0.67292	-1.3896	-1.4271	292.217	348.725	225.668	58.589	103.941	313.230	319.868	333.714	358.769	52.461	16.498	321.555	44.206	47.843	160.654	369.194	0.00014596	0.0005415	5.992e-05	1128	3.1508e-06	4.9976e-06	1222.8	234.52	1.2431e-06	2.9253e-06	298.74	80.243	62.99	18.064	3.5597e-06	25.117	0.00058057	0.00075222	0.00021021	1121.3	8.4157e-06	8.5478e-06	1200.8	233.65	8.4029e-06	8.6043e-06	296.65	81.491	63.949	18.393	8.3881e-06	25.678	175.184	125.810	95.367	26.480	182.370	189.825	26.881	33.977	235.412	192.556	33.805	40.882	41.466	48.019	186.316	47.403	-8191	255	
678.684	1	1	0	0	0.067521	0.16336	0.19493	0.21204	0.30263	0.11624	0.22593	0.2361	0.30228	0.19682	0.14477	0.076269	0.24618	0.21118	0.097206	0.052454	-0.23333	-1.4146	-0.84375	-0.87917	-1.5979	-0.75625	-1.4583	-1.4917	-0.55417	-1.8958	-1.1271	-0.90208	-1.7729	-0.75625	-1.3604	-1.3333	31.461	69.186	35.642	49.501	31.544	179.907	330.176	349.423	105.221	118.161	347.286	229.657	281.733	57.928	24.787	247.689	0.00014595	0.00017817	0.00012568	1117	1.4349e-06	4.3037e-06	1223.5	235.27	1.5517e-06	3.2671e-06	296.7	80.817	63.16	18.101	1.7e-06	25.347	0.00061508	0.00080361	0.00021784	1119.8	8.7769e-06	8.8413e-06	1206.1	234.49	8.9588e-06	9.0283e-06	296.92	81.827	64.435	18.521	9.1656e-06	25.805	169.367	103.046	126.034	26.635	176.261	169.197	26.874	34.254	181.613	142.319	33.671	40.851	41.473	47.916	164.661	47.482	-8191	255	
678.805	1	1	0	0	0.079229	0.16599	0.11103	0.1023	0.13641	0.27655	0.078209	0.25262	0.052094	0.33534	0.064417	0.24167	0.37345	0.14547	0.010334	0.096642	-0.30208	-1.5083	-0.97292	-0.87083	-1.725	-0.75833	-1.2708	-1.4667	-0.5625	-1.4146	-1.4667	-0.78542	-1.6396	-0.98542	-1.0604	-1.4062	47.735	303.225	299.379	41.248	260.905	106.067	175.593	337.666	28.208	300.799	150.314	318.896	286.335	373.058	212.987	249.600	0.0001774	0.00020697	6.042e-05	1129.3	1.4452e-06	1.9412e-06	1225.5	235.75	2.4851e-06	1.8884e-06	298.43	80.857	63.441	18.058	3.6213e-06	25.226	0.00062304	0.0008728	0.00024356	1127.6	9.4959e-06	9.512e-06	1208.9	235.39	9.3787e-06	9.2702e-06	298.61	82.071	64.492	18.526	9.0995e-06	25.777	161.021	183.202	120.874	26.226	144.189	120.753	26.667	33.714	163.012	81.646	33.739	41.326	41.300	47.669	177.392	47.482	-8191	255	
678.901	1	1	0	0	0.18753	0.1476	0.085332	0.26566	0.081838	0.23275	0.052659	0.28149	0.17885	0.1429	0.10281	0.23176	0.26929	0.33541	0.20907	0.17648	-0.3	-1.2	-1.0208	-0.61458	-1.5646	-0.86875	-1.2	-1.6792	-0.62917	-1.3479	-1.375	-0.92292	-1.5896	-0.90833	-0.84792	-1.4771	372.883	99.197	250.607	211.102	233.152	153.158	289.734	273.600	35.502	32.991	54.746	313.241	301.479	49.440	240.367	371.266	0.00013463	0.00034795	3.7767e-05	1132.9	4.1201e-06	1.3945e-06	1226.4	234.62	2.1099e-06	1.0447e-06	298.96	81.098	63.417	18.085	2.4503e-06	25.204	0.00059122	0.00080504	0.00023245	1124.3	8.5511e-06	8.7498e-06	1206.9	234.49	8.2922e-06	8.4966e-06	297.69	81.898	64.348	18.49	8.4942e-06	25.712	173.971	106.029	75.450	26.465	179.599	178.310	26.688	33.806	233.275	58.335	33.469	40.859	41.361	48.057	184.805	47.384	-8191	255	
678.997	1	1	0	0	0.088535	0.1076	0.23633	0.36059	0.17817	0.080823	0.27287	0.20635	0.094805	0.31637	0.12904	0.2589	0.23524	0.16691	0.02412	0.16015	-0.225	-1.3021	-1.3979	-0.775	-1.5063	-1.1146	-1.0104	-1.7563	-0.62292	-1.4813	-1.3646	-0.87292	-1.5979	-1.1708	-0.57708	-1.3438	131.412	293.426	353.104	221.270	291.132	298.982	304.044	227.017	365.397	171.241	265.603	357.422	30.587	116.786	288.625	330.706	0.00014801	0.00019589	0.00011603	1138.1	6.6536e-07	2.0547e-06	1222.2	235.74	1.3113e-06	5.3331e-06	298.86	80.456	63.263	18.201	2.7783e-06	25.333	0.00057602	0.00078776	0.00021955	1127.3	8.3075e-06	8.5045e-06	1207.1	234.76	8.2426e-06	8.716e-06	297.8	81.589	64.221	18.533	8.8836e-06	25.712	170.090	141.838	123.867	26.437	136.682	237.489	26.927	34.499	159.698	181.108	33.445	40.549	41.496	48.264	171.945	47.377	-8191	255	
679.069	1	1	0	0	0.17307	0.043646	0.21557	0.15828	0.14079	0.2509	0.24321	0.077247	0.061677	0.28162	0.078629	0.2379	0.10054	0.21281	0.28233	0.26333	-0.47708	-1.1	-1.4458	-0.625	-1.5646	-1.1667	-0.8875	-1.8083	-0.73333	-1.0375	-1.6896	-0.50208	-1.3417	-1.275	-0.65	-1.7208	242.644	173.403	194.493	269.884	193.547	317.459	285.625	27.838	208.797	317.458	114.205	97.254	25.360	94.306	200.891	110.448	0.00017866	0.00040167	0.00010938	1132.6	3.0636e-06	2.8256e-06	1226.3	236.23	3.6277e-06	5.1729e-06	298.69	81.093	63.141	18.117	2.275e-06	25.227	0.00059676	0.00085785	0.00023282	1126.2	9.1884e-06	9.4181e-06	1210.4	235.34	9.0286e-06	9.7305e-06	298.23	82.121	64.492	18.573	9.3761e-06	25.783	175.908	132.215	112.791	26.311	195.118	185.976	26.654	33.899	248.320	174.836	33.481	40.406	41.395	47.661	65.665	47.388	-8191	255	
679.190	1	1	0	0	0.3367	0.26278	0.1701	0.20534	0.10064	0.072386	0.20472	0.20346	0.24591	0.16486	0.24719	0.12767	0.12604	0.26604	0.44488	0.047343	-0.44375	-1.0458	-1.6021	-0.80417	-1.35	-1.4271	-0.7625	-1.7854	-0.98958	-0.94375	-1.8	-0.60833	-1.1938	-1.5917	-0.50833	-1.6	35.200	125.714	246.203	63.862	148.156	87.486	152.456	342.947	345.972	358.213	337.347	238.825	136.093	350.381	344.054	155.399	0.00014771	0.0001265	0.00011389	1129.3	2.9946e-06	1.7895e-06	1233.8	235.42	5.5417e-07	3.3944e-06	297.65	80.56	63.683	18.078	4.1542e-06	25.182	0.000616	0.00084879	0.00023394	1128	9.2299e-06	9.3983e-06	1211.1	235.18	8.7919e-06	9.251e-06	298.52	81.996	64.347	18.541	8.9248e-06	25.72	179.442	137.526	98.021	25.909	177.599	187.408	26.742	33.749	224.621	171.924	33.657	40.741	40.751	48.017	215.745	47.374	-8191	255	
679.286	1	1	0	0	0.18239	0.21638	0.23153	0.12252	0.26815	0.14506	0.28033	0.1261	0.34774	0.25531	0.06504	0.21264	0.19081	0.04712	0.056164	0.27267	-0.67292	-0.84792	-1.575	-0.93542	-1.5333	-1.2979	-0.72708	-1.5646	-0.95208	-0.72083	-1.7854	-0.77708	-1.2188	-1.7333	-0.59792	-1.675	272.572	369.120	87.689	138.399	244.604	72.913	289.046	284.501	99.462	47.073	262.554	234.125	221.138	325.545	109.086	317.095	0.00014208	5.3804e-05	0.00016611	1134.5	1.6618e-06	3.8479e-06	1224.4	236.1	1.5883e-06	4.6474e-07	299.89	80.923	63.416	18.045	5.4487e-06	24.976	0.00056935	0.00081576	0.00022282	1124.7	8.5586e-06	8.6824e-06	1208.5	234.71	8.2121e-06	8.5997e-06	298.31	81.841	64.418	18.453	8.2918e-06	25.693	174.450	239.044	108.361	26.143	140.755	198.889	26.545	34.228	168.529	182.740	33.574	40.584	40.975	47.970	188.497	47.210	-8191	255	
679.382	1	1	0	0	0.29435	0.078299	0.087578	0.21786	0.22215	0.1378	0.070846	0.20706	0.26292	0.014916	0.07695	0.15895	0.12114	0.081282	0.24263	0.3434	-0.97917	-0.82083	-1.65	-0.97917	-1.0125	-1.6208	-0.83333	-1.3375	-1.4208	-0.60833	-1.5729	-0.93542	-0.95	-1.6458	-0.75	-1.3375	178.304	39.546	323.874	67.417	169.573	197.497	326.519	341.790	169.402	275.542	350.451	111.362	181.838	129.154	365.549	184.475	0.00014673	0.00028551	0.00018295	1141.7	2.1581e-06	5.093e-06	1223.3	234.63	1.6516e-06	1.6259e-06	300.45	80.785	63.06	18.1	3.4275e-06	25.293	0.00056851	0.00080736	0.00021384	1127	8.6704e-06	8.803e-06	1207.7	234.96	8.3221e-06	8.9186e-06	298.82	81.886	64.265	18.528	8.5726e-06	25.762	183.794	95.387	108.265	25.769	182.332	190.628	26.659	34.011	217.829	151.625	33.803	40.711	41.252	47.709	142.947	46.977	-8191	255	
679.501	1	1	0	0	0.16707	0.37377	0.056231	0.19339	0.12298	0.24882	0.27828	0.2548	0.17978	0.17824	0.18528	0.11768	0.0024374	0.048695	0.29274	0.12286	-1.1042	-0.65417	-1.4062	-1.0646	-0.90833	-1.5833	-1	-1.3583	-1.5146	-0.6875	-1.6313	-0.91667	-0.80208	-1.6146	-0.73333	-1.3021	221.004	306.099	144.399	317.742	268.176	30.998	317.275	309.368	95.278	270.555	179.957	327.162	196.277	263.017	122.449	346.242	0.00013099	0.00034454	7.1163e-05	1138.3	2.1997e-06	5.1876e-06	1230.9	235.63	1.8295e-06	5.0345e-06	298.96	80.549	63.506	18.012	3.9179e-06	24.928	0.00059091	0.00080203	0.00021704	1126.4	8.6263e-06	8.6632e-06	1211.2	235.06	8.0592e-06	8.5868e-06	298.34	81.522	64.361	18.426	7.7329e-06	25.528	179.664	82.681	136.396	26.359	206.797	146.340	26.518	33.887	164.136	168.923	33.577	40.861	41.446	47.512	238.621	47.318	-8191	255	
679.597	1	1	0	0	0.15085	0.10585	0.14695	0.089746	0.1776	0.14868	0.08388	0.20285	0.032608	0.28925	0.17641	0.22039	0.095313	0.073248	0.14963	0.10854	-1.2958	-0.83125	-1.3354	-1.3271	-0.70833	-1.6688	-0.96458	-1.1792	-1.6521	-0.69375	-1.5167	-1.4062	-0.78958	-1.5875	-0.94792	-0.95	80.071	229.004	202.769	74.350	236.374	40.453	342.270	177.886	203.848	229.954	199.780	333.856	161.788	338.231	354.395	146.200	0.00014364	0.00025702	9.3997e-05	1140.9	3.3458e-06	2.2509e-06	1224.5	234.72	2.1631e-06	2.9411e-06	298.2	80.42	63.445	18.069	2.6e-06	25.043	0.00054984	0.00073926	0.00019688	1124.9	8.1348e-06	7.8795e-06	1207.1	234.3	8.1885e-06	8.601e-06	297.68	81.632	64.324	18.51	8.187e-06	25.695	169.374	105.168	122.515	26.004	160.465	231.120	26.651	34.048	203.617	148.916	33.541	40.351	41.118	47.704	151.537	47.901	-8191	255	
679.693	1	1	0	0	0.2246	0.08033	0.19997	0.061324	0.085254	0.22795	0.14965	0.41168	0.29209	0.23908	0.092533	0.10998	0.076095	0.071036	0.19169	0.073045	-1.2083	-0.60833	-1.4167	-1.3937	-0.57083	-1.5292	-1.2062	-1.0229	-1.5792	-0.92292	-1.3125	-1.5021	-0.71042	-1.6667	-1.2479	-0.8625	184.832	349.596	218.878	147.141	154.091	242.539	274.769	70.574	59.833	43.822	232.187	144.201	277.186	333.443	341.042	192.053	0.00017443	0.00040731	9.5579e-05	1137	3.0089e-06	1.4896e-06	1225.4	234.95	1.818e-06	3.5252e-06	298.91	80.88	63.122	18.166	4.3735e-06	25.336	0.00058132	0.00078445	0.00021872	1128.1	8.8732e-06	8.3938e-06	1209.6	234.77	8.1445e-06	8.4642e-06	298.26	81.684	64.204	18.517	8.4514e-06	25.718	178.918	121.740	117.351	26.542	98.857	181.363	26.505	33.900	218.365	169.206	33.016	40.556	41.099	47.367	230.822	47.040	-8191	255	
679.789	1	1	0	0	0.23409	0.36787	0.10869	0.1465	0.15153	0.19517	0.040052	0.086065	0.078977	0.16255	0.38102	0.16263	0.096238	0.14357	0.24491	0.1145	-1.2146	-0.73542	-1.2542	-1.3875	-0.70417	-1.6063	-0.97708	-0.69375	-1.6792	-0.70625	-1.275	-1.6229	-0.77083	-1.4688	-1.2667	-0.68125	265.411	214.999	58.719	273.337	364.902	222.869	88.763	113.035	245.392	336.628	323.391	47.719	182.351	212.284	339.077	220.062	0.00012764	0.00039158	0.00010393	1140.7	8.6136e-07	5.2601e-06	1230.7	236.55	1.3673e-06	2.6404e-06	299.7	80.791	63.418	18.23	3.1629e-06	25.208	0.00058592	0.00078159	0.00022388	1127.1	9.2318e-06	8.9217e-06	1209.3	235.53	9.1796e-06	9.5613e-06	299.05	82.083	64.559	18.585	9.3377e-06	25.84	177.268	127.131	129.494	26.006	137.436	197.461	26.281	33.737	195.800	136.969	33.783	40.092	40.701	47.749	146.621	46.999	-8191	255	
679.885	1	1	0	0	0.11669	0.1245	0.15817	0.090325	0.20561	0.12429	0.643	0.34328	0.10603	0.11712	0.1532	0.11584	0.17023	0.19532	0.18943	0.027685	-1.4708	-0.67292	-1.1333	-1.6208	-0.74167	-1.5083	-1.5167	-0.64583	-1.6458	-0.81042	-1.0792	-1.5625	-0.66042	-1.4792	-1.4562	-0.97083	278.765	124.911	176.249	36.456	338.405	254.914	316.114	349.285	146.766	295.866	272.485	347.073	336.205	250.744	99.642	253.893	0.00015826	0.0001965	0.00010958	1134.7	4.5638e-06	1.9626e-06	1230.5	236.38	3.4985e-06	4.0871e-06	299.47	81.141	63.562	18.17	1.9114e-06	25.223	0.00063715	0.00085571	0.00024674	1132.7	9.5902e-06	9.5927e-06	1211.8	235.55	8.9142e-06	9.4823e-06	299.54	82.255	64.562	18.579	9.2726e-06	25.831	170.477	174.704	137.170	26.174	162.333	188.134	26.358	33.477	167.386	129.022	33.237	40.145	40.891	47.805	189.913	46.835	-8191	255	
679.981	1	1	0	0	0.044135	0.03341	0.29664	0.35913	0.13169	0.1921	0.10147	0.067907	0.14185	0.072973	0.35989	0.26908	0.067291	0.28747	0.17006	0.1295	-1.1417	-0.92708	-0.99375	-1.5812	-0.94583	-1.2375	-1.7938	-0.83333	-1.45	-1.0562	-1.0229	-1.8229	-0.85625	-1.1792	-1.5646	-0.71042	129.965	184.361	371.848	267.659	268.851	61.402	277.824	83.807	286.042	336.080	333.333	375.458	173.236	321.145	287.258	331.169	0.00013995	0.00044551	9.4857e-05	1142.5	1.1806e-06	2.6181e-06	1232.8	235.95	3.8137e-06	1.7876e-06	301.84	80.976	63.861	18.221	4.4578e-06	25.406	0.00058721	0.00083363	0.00023892	1134.5	9.0585e-06	9.4486e-06	1214.6	236.05	9.25e-06	9.9449e-06	300.54	82.327	64.98	18.662	9.864e-06	25.947	165.438	125.772	159.756	26.053	143.391	208.174	26.391	33.562	167.709	130.745	33.172	40.134	40.711	47.429	172.913	46.752	-8191	255	
680.102	1	1	0	0	0.28455	0.1462	0.13583	0.31241	0.16936	0.15282	0.17757	0.17566	0.1595	0.092611	0.29156	0.17178	0.066806	0.16905	0.12393	0.1658	-1.1375	-1.1063	-0.7875	-1.5625	-0.87708	-1.35	-1.7729	-0.67292	-1.4896	-1.1958	-1.1146	-1.6688	-0.93542	-0.95417	-1.5542	-0.70833	113.262	42.068	250.359	373.645	189.450	313.184	331.744	85.297	30.979	237.805	67.988	262.374	296.561	34.002	46.967	67.953	0.00015817	0.0003841	7.0944e-05	1134	1.5196e-06	3.2612e-06	1239.7	237.37	2.0155e-06	5.3429e-06	299.58	81.483	63.875	18.33	1.1189e-06	25.324	0.00065254	0.00089193	0.0002603	1135.1	9.7541e-06	1.0001e-05	1219.6	237.05	8.9802e-06	9.3138e-06	299.33	82.319	64.678	18.641	8.5754e-06	25.797	163.766	103.247	162.468	26.042	155.854	217.070	26.247	33.707	157.475	163.645	33.233	40.247	40.870	47.672	143.505	47.469	-8191	255	
680.198	1	1	0	0	0.12887	0.15631	0.26958	0.12872	0.25674	0.273	0.12807	0.32732	0.015813	0.22103	0.28018	0.13539	0.013247	0.28391	0.099929	0.26963	-1.0333	-1.2875	-0.70625	-1.6146	-0.92083	-0.8375	-1.775	-0.68125	-1.3479	-1.4521	-0.61875	-1.6146	-1.2333	-0.9375	-1.6667	-0.72292	64.583	137.682	372.731	80.191	66.949	183.474	314.476	164.090	71.805	204.222	247.130	347.752	152.801	261.318	23.235	140.829	0.00013024	0.00045063	0.00010515	1141.9	3.3643e-06	2.1976e-06	1225.1	236.61	8.9187e-07	4.9615e-06	298.11	80.909	63.625	18.119	2.9373e-06	25.26	0.00056916	0.00078436	0.00022347	1129.6	8.242e-06	8.6086e-06	1208.9	235.09	8.0384e-06	8.789e-06	298.08	81.703	64.315	18.459	8.0278e-06	25.726	174.336	130.911	139.209	26.241	137.853	160.571	26.436	33.761	211.645	183.466	33.188	40.582	41.351	47.440	189.916	47.154	-8191	255	
680.293	1	1	0	0	0.25234	0.38766	0.19829	0.081147	0.22316	0.27389	0.1675	0.3744	0.085954	0.19392	0.15048	0.25239	0.051536	0.10135	0.057238	0.068473	-0.86458	-1.3312	-0.5625	-1.4396	-0.97083	-0.77917	-1.7208	-0.83125	-1.075	-1.6021	-0.68125	-1.6063	-1.1396	-0.88125	-1.5208	-0.87083	40.495	311.382	276.378	362.622	254.548	79.504	365.041	325.607	275.358	87.805	34.733	283.933	340.717	356.033	183.000	255.314	0.00016825	0.00056966	0.00013234	1133.1	1.3167e-06	2.7097e-06	1223.3	236.5	3.0637e-06	2.3638e-06	299.59	80.663	63.195	18.125	2.7295e-06	25.056	0.00054969	0.0007675	0.00020379	1122.4	7.5419e-06	7.9185e-06	1207.5	234.68	7.4726e-06	7.8277e-06	297.1	81.493	64.129	18.432	7.7543e-06	25.619	168.672	72.250	132.033	26.249	256.468	203.312	26.262	33.561	180.369	180.474	33.506	40.583	40.910	47.593	166.846	47.073	-8191	255	
680.366	1	1	0	0	0.076628	0.27175	0.21391	0.11218	0.07655	0.10015	0.069167	0.23388	0.12102	0.16384	0.15224	0.12939	0.28495	0.28088	0.25708	0.18101	-0.69792	-1.4208	-0.68125	-1.4458	-1.4125	-0.7625	-1.8687	-0.91875	-0.84583	-1.6688	-0.89375	-1.4312	-1.4479	-0.76458	-1.3229	-1.1333	301.378	77.054	130.629	163.313	205.978	65.974	372.888	231.399	177.619	359.368	300.911	340.477	109.830	322.001	204.938	150.722	0.00016475	0.00030019	0.00011003	1148.5	2.3301e-06	2.6267e-06	1231.9	237.79	2.2061e-06	3.2759e-06	300.76	81.438	64.345	18.374	4.0097e-06	25.283	0.00056308	0.00076601	0.0002147	1136	8.6801e-06	9.2968e-06	1216.1	236.37	8.7925e-06	9.2708e-06	300.26	82.593	65	18.714	9.1794e-06	25.853	171.055	77.928	121.098	26.116	147.936	253.779	26.225	33.505	220.189	32.261	33.328	40.655	40.701	47.677	164.530	47.232	-8191	255	
680.485	1	1	0	0	0.13165	0.12143	0.11038	0.15256	0.28453	0.12777	0.38004	0.032408	0.14863	0.12125	0.14729	0.20961	0.11059	0.21842	0.21406	0.17749	-0.45208	-1.5417	-0.69167	-1.3854	-1.3583	-0.75	-1.875	-1.0375	-0.73333	-1.6875	-0.88958	-1.2354	-1.4438	-0.59583	-1.4396	-1.175	170.138	116.282	170.775	302.414	249.121	271.428	309.333	143.512	252.684	182.926	79.405	258.153	108.413	327.196	277.430	173.819	0.00016733	0.00020768	5.5943e-05	1157.2	4.0369e-06	1.0341e-06	1242.1	238.28	2.0228e-06	2.1404e-06	301.57	81.685	64.006	18.341	4.9536e-06	25.376	0.00064968	0.00089005	0.00024497	1143.2	9.9459e-06	9.7963e-06	1223.8	237.7	9.3992e-06	9.82e-06	301.36	82.804	65.15	18.697	8.7775e-06	25.854	173.751	70.031	105.782	25.883	149.374	214.904	26.154	33.809	199.510	209.697	33.104	40.281	40.761	47.672	183.542	47.011	-8191	255	
680.581	1	1	0	0	0.259	0.12452	0.17637	0.26683	0.022033	0.13281	0.21999	0.11431	0.26213	0.26764	0.38414	0.44246	0.023995	0.15988	0.26927	0.069318	-0.36042	-1.475	-0.725	-1.1313	-1.5083	-0.625	-1.4708	-1.2687	-0.76042	-1.4104	-1.0042	-1.0958	-1.4125	-0.70833	-1.3125	-1.3042	175.727	239.278	276.366	356.835	227.771	153.477	228.064	281.332	331.835	241.091	332.969	348.434	294.789	84.451	338.883	347.320	0.00015399	0.00025612	0.00016489	1148.7	2.7819e-06	1.9967e-06	1240.5	238.49	2.3056e-06	4.5919e-06	301.97	81.433	64.1	18.312	1.6004e-06	25.44	0.00061751	0.00083977	0.00023249	1143.9	9.4311e-06	9.2958e-06	1223.1	237.58	9.4264e-06	9.5154e-06	301.01	82.507	65.014	18.678	9.0674e-06	25.936	177.426	65.913	72.272	26.249	153.113	165.102	26.547	33.888	156.132	189.849	33.241	40.002	40.578	47.832	187.929	46.794	-8191	255	
680.677	1	1	0	0	0.21607	0.24633	0.077292	0.23327	0.20424	0.16837	0.24193	0.25204	0.29442	0.19856	0.074367	0.13396	0.19513	0.16327	0.061789	0.15303	-0.4125	-1.5833	-0.86875	-0.85833	-1.5229	-0.80833	-1.5854	-1.1812	-0.55833	-1.4271	-1.1479	-0.83542	-1.4979	-0.78958	-1.2354	-1.5312	280.097	52.831	265.268	71.211	72.269	179.062	319.395	356.822	75.512	300.098	82.682	293.599	251.496	226.867	314.844	161.007	0.0001816	0.00049056	7.722e-05	1152.8	2.3015e-06	3.378e-06	1245.9	238.29	2.6461e-06	4.5695e-06	300.18	81.631	64.063	18.107	4.0104e-06	25.358	0.000658	0.00087105	0.00023778	1144	9.7535e-06	9.5441e-06	1223.6	237.43	9.2833e-06	9.4935e-06	300.22	82.693	64.983	18.582	9.2518e-06	25.912	176.954	98.535	117.016	26.641	157.890	180.628	26.516	33.405	192.299	178.325	33.182	40.518	40.573	47.656	240.047	46.932	-8191	255	
680.773	1	1	0	0	0.093238	0.28294	0.096692	0.065167	0.331	0.12621	0.11183	0.13089	0.17903	0.25489	0.38409	0.15246	0.31808	0.13833	0.14814	0.14953	-0.1875	-1.475	-0.84167	-0.74792	-1.5792	-0.80208	-1.2021	-1.4625	-0.53958	-1.3271	-1.0854	-0.9	-1.6146	-0.75	-1.0438	-1.4854	278.394	45.867	326.977	122.831	107.107	337.383	333.256	369.923	98.794	343.611	32.479	38.321	77.346	172.443	69.036	352.377	0.00017297	0.0003866	0.00010122	1144.6	5.5775e-07	1.246e-06	1241	237.63	1.971e-06	1.4589e-06	302.23	81.386	63.673	18.326	1.9747e-06	25.407	0.00064983	0.00086563	0.00024275	1142.2	9.8043e-06	9.711e-06	1221.8	237.55	9.187e-06	9.3587e-06	301.21	82.579	64.857	18.624	8.6676e-06	25.89	175.032	106.725	69.229	26.354	180.883	203.839	26.515	33.799	276.825	118.333	33.447	40.581	40.706	47.624	117.470	47.546	-8191	255	
680.894	1	1	0	0	0.1514	0.13515	0.11518	0.25123	0.35155	0.19361	0.16624	0.10931	0.053431	0.3288	0.05549	0.15787	0.076824	0.1586	0.17683	0.24554	-0.3625	-1.2146	-1.2313	-0.84167	-1.6958	-0.9125	-1.2979	-1.6063	-0.58542	-1.2	-1.3813	-0.85833	-1.7146	-0.8875	-0.92917	-1.5625	286.209	55.359	195.485	296.081	271.561	186.715	341.663	216.035	343.286	220.079	72.029	316.293	342.486	141.020	332.500	138.117	0.00013281	0.00018061	2.2875e-05	1147.7	2.2032e-06	2.8229e-06	1232.2	235.7	2.2859e-06	4.9662e-06	300.22	80.347	62.955	18.067	2.2917e-06	25.15	0.00058517	0.00075428	0.00021091	1134.9	8.358e-06	8.2609e-06	1214.4	235.43	7.8741e-06	8.1747e-06	298.87	81.705	64.148	18.416	8.3526e-06	25.716	166.179	83.745	91.043	25.960	174.308	181.474	26.451	33.851	183.515	139.388	33.326	40.788	40.869	47.655	178.794	46.890	-8191	255	
680.966	1	1	0	0	0.12424	0.25635	0.20298	0.17685	0.062475	0.23923	0.30288	0.11551	0.10648	0.14648	0.24498	0.2294	0.22734	0.15235	0.019681	0.2224	-0.3125	-1.4188	-1.5667	-0.71875	-1.5583	-1.0083	-1.1021	-1.6562	-0.7375	-1.1562	-1.425	-0.7	-1.6917	-1.2208	-0.8375	-1.625	126.433	94.837	254.379	296.483	244.305	56.649	332.230	357.205	167.124	188.347	364.093	41.826	57.256	103.971	19.519	52.667	0.00013159	0.00040845	0.00016351	1139.3	3.3259e-06	3.1658e-06	1226.3	236.73	2.3646e-06	4.6928e-06	297.8	80.622	63.341	18.029	3.1831e-06	25.228	0.00056022	0.00077128	0.00021801	1129.2	8.6243e-06	8.7495e-06	1209.5	235.34	8.2598e-06	8.5891e-06	297.93	81.794	64.492	18.468	8.9386e-06	25.746	181.206	125.240	108.251	26.292	167.046	142.165	26.560	33.822	209.826	195.469	33.191	40.461	40.974	47.984	150.201	46.794	-8191	255	
681.062	1	1	0	0	0.1908	0.19152	0.1702	0.24919	0.27049	0.22898	0.19746	0.050278	0.21621	0.22474	0.059104	0.30942	0.13005	0.19918	0.23959	0.19095	-0.525	-1.1313	-1.6	-0.75208	-1.2458	-1.3792	-0.97083	-1.675	-0.825	-1.0729	-1.6812	-0.7	-1.325	-1.2042	-0.6	-1.6542	88.233	61.336	61.315	183.007	205.834	185.357	322.758	217.361	334.154	194.283	27.628	47.972	354.317	72.745	204.641	210.529	0.00012146	0.00040703	0.00012921	1138.6	2.4669e-06	2.2219e-06	1233.2	237.68	2.2359e-06	4.6475e-06	298.99	80.616	63.73	18.227	2.8147e-06	25.301	0.00059091	0.00079309	0.0002296	1130.6	8.7572e-06	8.9101e-06	1216.1	236.32	8.3543e-06	9.025e-06	298.85	81.906	64.559	18.579	8.988e-06	25.784	171.224	96.418	96.868	26.607	214.296	207.738	26.743	34.036	186.856	176.220	33.299	40.613	41.040	47.302	168.463	47.277	-8191	255	
681.182	1	1	0	0	0.14254	0.28917	0.3159	0.046878	0.38766	0.076579	0.2512	0.2643	0.16404	0.08561	0.1317	0.18681	0.33309	0.30853	0.17649	0.3427	-0.54583	-1.0292	-1.4083	-0.78125	-1.5542	-1.6042	-0.73125	-1.6833	-1.0104	-1.1125	-1.6187	-0.675	-1.4688	-1.4312	-0.96042	-1.6271	114.156	212.156	77.367	264.695	130.793	323.390	345.075	336.585	106.882	291.600	373.952	368.584	117.131	353.755	355.192	296.314	0.0001603	0.00036898	0.00010137	1137.6	2.4966e-06	3.0538e-06	1237.3	237.99	2.3596e-06	2.9681e-06	300.04	81.154	63.488	18.256	2.48e-06	25.408	0.00058753	0.00081305	0.00023123	1133.9	8.7099e-06	9.2244e-06	1218.4	236.95	8.8549e-06	9.6208e-06	299.97	82.101	64.677	18.603	9.5014e-06	25.834	177.510	110.476	173.115	26.092	175.816	221.947	26.498	33.867	175.018	187.800	33.267	40.644	40.782	47.327	160.875	47.126	-8191	255	
681.279	1	1	0	0	0.22342	0.16371	0.15617	0.082565	0.22053	0.2341	0.18872	0.18686	0.21369	0.22758	0.28831	0.30887	0.23615	0.13263	0.14241	0.041674	-0.67292	-0.71458	-1.5812	-0.99792	-1.2917	-1.5	-0.57917	-1.65	-1.1271	-0.74375	-1.8563	-0.97083	-1.1792	-1.5854	-0.69167	-1.3188	212.515	341.905	323.799	125.353	159.177	275.951	24.244	46.498	171.904	216.119	342.852	98.935	33.265	78.036	20.281	292.056	0.00018206	0.0002892	8.4584e-05	1144.3	4.9154e-06	7.691e-06	1239	237.53	1.6034e-06	2.9853e-06	301.52	81.602	63.981	18.161	2.1406e-06	25.229	0.00062229	0.00088395	0.00024675	1136.7	9.516e-06	9.6713e-06	1219.8	237.17	9.0301e-06	9.9033e-06	300.38	82.366	64.876	18.593	9.3141e-06	25.849	164.651	124.740	67.606	25.765	194.443	116.505	26.667	33.681	195.261	149.679	33.481	40.532	41.309	47.510	281.009	47.496	-8191	255	
681.375	1	1	0	0	0.075008	0.21541	0.027393	0.17989	0.12764	0.12807	0.35484	0.14468	0.2445	0.12516	0.42956	0.27196	0.45108	0.27548	0.061732	0.17523	-0.77708	-0.65625	-1.5771	-1	-0.95	-1.4896	-0.7125	-1.3125	-1.1083	-0.74792	-1.7062	-0.8	-0.925	-1.7	-0.46042	-1.3354	113.808	185.158	54.730	200.167	342.750	21.183	271.771	313.659	337.072	345.695	316.432	272.924	33.544	49.622	91.583	264.898	0.00013576	0.00019601	6.2802e-05	1150	3.6357e-06	2.4399e-06	1239.3	237.89	2.1981e-06	4.0909e-06	301.63	81.288	63.921	18.222	4.6714e-06	25.402	0.00061815	0.00087897	0.00024608	1136	9.6974e-06	9.9682e-06	1220.2	237.41	9.3325e-06	1.0018e-05	301.41	82.348	65.01	18.667	9.2977e-06	25.899	172.865	34.422	90.536	26.211	204.409	160.219	26.467	33.793	163.445	138.537	33.462	40.661	41.133	47.734	153.255	46.805	-8191	255	
681.471	1	1	0	0	0.041978	0.28245	0.2751	0.067772	0.21724	0.42045	0.22184	0.224	0.022535	0.18655	0.343	0.29131	0.14996	0.090591	0.25937	0.096486	-0.96875	-0.70833	-1.5958	-1.0271	-0.89792	-1.6896	-0.81042	-1.15	-1.2938	-0.79167	-1.5792	-1.0875	-1.0021	-1.7833	-0.66458	-1.2771	54.261	35.339	41.654	366.460	303.912	249.965	167.118	323.635	33.457	34.383	342.181	262.967	221.153	28.107	327.809	20.486	0.00013668	0.00034472	0.00011524	1142.2	6.9065e-07	2.6793e-06	1233.9	237.26	2.6118e-06	5.5137e-06	299.91	80.848	64.292	18.099	3.7004e-06	25.199	0.00063386	0.0008902	0.00023932	1137.8	9.571e-06	9.4086e-06	1217.1	236.99	9.0197e-06	9.3055e-06	300.07	82.045	64.895	18.558	8.3734e-06	25.764	179.502	153.075	102.458	26.241	154.478	225.199	26.415	33.892	154.641	154.094	33.574	40.464	41.038	47.397	184.317	47.504	-8191	255	
681.590	1	1	0	0	0.0057615	0.050332	0.096453	0.067332	0.040185	0.13153	0.37811	0.24708	0.18748	0.20017	0.17612	0.24638	0.2358	0.080707	0.17497	0.14664	-1.1812	-0.7125	-1.325	-1.2313	-0.69375	-1.5688	-0.82083	-1.0375	-1.5229	-0.60833	-1.4646	-1.3375	-0.63333	-1.7417	-0.93958	-0.9875	81.394	369.414	320.621	209.745	251.502	94.593	340.083	253.184	252.431	210.006	324.995	284.248	71.491	93.073	81.973	80.560	0.00015512	0.0005641	3.5869e-05	1142.2	3.0743e-06	4.6278e-06	1233.3	238.26	1.4004e-06	5.0836e-06	301.48	81.074	63.531	18.228	2.8465e-06	25.242	0.00059221	0.00081856	0.00021239	1133.1	8.8498e-06	8.6943e-06	1215.9	236.89	8.5879e-06	9.0031e-06	299.88	82.04	64.638	18.573	8.2868e-06	25.769	172.816	103.958	110.344	26.482	165.348	166.717	26.352	34.097	211.909	173.555	33.735	40.649	40.919	47.525	207.931	47.628	-8191	255	
681.661	1	1	0	0	0.10702	0.18429	0.1125	0.12823	0.033733	0.040645	0.19259	0.13107	0.24607	0.051153	0.19355	0.063261	0.16757	0.11262	0.13567	0.070303	-1.0667	-0.70208	-1.4292	-1.25	-0.83333	-1.4188	-1.0667	-0.97917	-1.825	-0.81667	-1.3167	-1.4813	-0.68542	-1.6896	-0.92917	-0.8375	366.891	73.843	114.884	330.473	325.542	196.159	57.506	68.858	90.976	233.697	65.398	321.218	137.362	19.248	333.120	51.366	0.0001487	0.00013202	4.6051e-05	1134.3	2.504e-06	2.586e-06	1232.7	237.58	2.448e-06	1.2198e-06	300.38	81.082	63.514	18.059	1.9053e-06	25.132	0.00060533	0.00080355	0.00021081	1131.7	8.8751e-06	8.5154e-06	1213.3	236.46	8.1888e-06	8.5828e-06	299.35	81.979	64.326	18.482	8.012e-06	25.669	159.772	93.530	175.132	26.083	157.636	159.199	26.604	33.762	195.163	208.262	33.448	40.800	40.819	47.600	142.343	47.059	-8191	255	
681.782	1	1	0	0	0.082179	0.094171	0.25571	0.21304	0.12408	0.17036	0.24972	0.19032	0.10336	0.32726	0.070862	0.071618	0.17247	0.22722	0.10443	0.1599	-1.175	-0.7125	-1.3458	-1.5375	-0.72708	-1.5083	-1.1667	-0.89583	-1.8125	-0.63542	-1.3667	-1.4292	-0.61667	-1.3563	-1.1333	-0.71042	231.799	38.813	297.824	182.105	296.193	230.524	339.305	367.623	254.518	43.232	316.777	206.142	359.092	321.856	327.822	311.259	0.00015236	0.00037365	0.00015349	1140.8	1.7676e-06	1.1596e-06	1230.3	236.15	1.7363e-06	3.9697e-06	299.45	80.739	63.534	18.206	4.7696e-06	24.98	0.00058199	0.00076652	0.00021314	1131.5	8.5194e-06	8.2589e-06	1211	235.66	8.1084e-06	8.337e-06	298.86	81.856	64.388	18.513	8.233e-06	25.762	169.951	131.505	146.923	26.399	228.628	133.030	26.471	33.901	196.736	213.745	33.303	40.622	41.182	47.667	142.152	47.248	-8191	255	
681.878	1	1	0	0	0.095088	0.17961	0.038166	0.043694	0.075885	0.35917	0.16145	0.082644	0.1496	0.23287	0.18913	0.34429	0.13936	0.342	0.15658	0.19219	-1.2958	-0.75208	-0.9875	-1.675	-0.64375	-1.4208	-1.4896	-0.82083	-1.6521	-0.92292	-1.2812	-1.6667	-0.61458	-1.4708	-1.3521	-0.56667	278.248	219.668	255.442	101.835	370.613	54.423	263.163	374.379	209.413	98.470	353.241	364.751	362.437	118.827	281.121	130.317	0.00013183	0.0001947	3.8435e-05	1132.6	4.7179e-06	3.0085e-06	1228.9	237.32	2.8513e-06	6.2485e-06	300.91	81.04	62.989	18.252	3.8327e-07	25.175	0.00055805	0.00073223	0.00021428	1128.1	8.5171e-06	8.1541e-06	1210.7	235.8	8.1145e-06	8.4949e-06	299.66	81.899	64.305	18.499	8.43e-06	25.722	173.769	130.339	88.319	26.064	160.587	183.966	26.341	34.018	222.990	163.693	33.673	40.179	41.018	47.707	144.552	47.622	-8191	255	
681.974	1	1	0	0	0.31989	0.11224	0.18188	0.14336	0.36912	0.21461	0.41157	0.12328	0.14217	0.12277	0.15329	0.31015	0.25987	0.32115	0.18592	0.34664	-1.1167	-0.92917	-0.99792	-1.8146	-0.68958	-1.3896	-1.5187	-0.68125	-1.5583	-0.9875	-0.87917	-1.5	-0.81667	-1.3687	-1.2958	-0.63958	335.294	201.004	53.660	132.709	188.719	206.487	16.834	156.425	319.591	82.248	327.804	346.647	334.888	365.973	351.729	273.250	0.00015248	0.00035912	6.672e-05	1143.9	2.0242e-06	2.5287e-06	1226.9	237.79	2.0769e-06	3.5268e-06	301.03	80.8	63.117	18.007	4.2163e-06	25.113	0.00057743	0.0007703	0.00021337	1131.3	8.5035e-06	8.1257e-06	1210.8	235.89	8.0732e-06	8.331e-06	299.39	81.909	64.354	18.444	8.3979e-06	25.68	175.610	82.821	120.818	25.918	171.376	142.047	26.477	33.893	200.589	231.975	33.578	40.553	40.622	47.948	198.311	47.235	-8191	255	
682.071	1	1	0	0	0.12843	0.20686	0.13473	0.093867	0.26774	0.3255	0.10684	0.073859	0.3194	0.35412	0.44697	0.099459	0.13511	0.19804	0.33043	0.17921	-1.0979	-1.1896	-0.65	-1.5187	-0.6625	-0.94583	-1.6187	-0.67292	-1.3292	-1.1167	-0.93125	-1.5833	-0.73958	-0.91875	-1.725	-0.63125	282.967	156.567	297.118	88.985	279.072	80.893	366.256	301.918	127.535	87.759	16.697	300.485	255.257	227.236	353.093	28.474	0.00011352	0.00029069	7.4671e-05	1139.1	3.239e-06	2.1539e-06	1231.3	235.63	2.3801e-06	2.6719e-06	299.74	80.411	63.576	18.108	2.7703e-06	25.254	0.00055527	0.00074257	0.00022224	1132.5	8.1591e-06	8.6288e-06	1213.6	235.7	7.9977e-06	8.4771e-06	298.7	81.849	64.446	18.511	8.6377e-06	25.805	179.063	60.383	99.719	25.906	222.317	216.382	26.519	33.658	206.007	240.927	33.762	40.574	40.988	47.797	190.333	47.465	-8191	255	
682.167	1	1	0	0	0.17304	0.063017	0.11911	0.085166	0.24908	0.1945	0.26658	0.1009	0.20715	0.05645	0.16665	0.41425	0.24485	0.20917	0.43371	0.1509	-0.99792	-1.3792	-0.47917	-1.5688	-1.025	-0.9	-1.8729	-0.90208	-1.2417	-1.3146	-0.75208	-1.4979	-1.1688	-0.76875	-1.5771	-0.77083	208.588	374.445	86.419	268.194	54.503	140.419	320.777	38.137	243.870	70.260	282.898	339.650	65.727	333.515	154.403	228.808	0.00015971	0.00040343	7.9769e-05	1145.1	1.5621e-06	1.6773e-06	1227.4	236.5	2.1097e-06	3.3557e-06	302.01	81.46	63.469	18.143	3.3882e-06	25.217	0.00056016	0.00077778	0.00021803	1131	8.4005e-06	8.5485e-06	1212.7	235.96	7.8793e-06	8.3079e-06	299.4	82.062	64.261	18.51	7.894e-06	25.643	173.625	92.679	98.823	26.351	175.575	241.925	26.628	33.791	186.908	174.533	33.279	40.615	40.902	47.509	112.001	47.268	-8191	255	
682.263	1	1	0	0	0.17278	0.17658	0.16419	0.16946	0.32223	0.27631	0.30039	0.29043	0.27301	0.069632	0.17067	0.34115	0.24618	0.21776	0.091004	0.081899	-0.83125	-1.2812	-0.57292	-1.5875	-0.95417	-0.90417	-1.7021	-0.725	-1.0104	-1.3979	-0.74167	-1.4813	-1.1437	-0.81875	-1.7583	-0.91458	26.142	178.747	131.028	328.076	315.876	26.421	323.423	334.320	333.798	347.384	366.818	275.808	178.181	352.511	344.001	78.866	0.00014289	0.00032134	0.00013496	1142.4	1.7248e-06	4.6165e-06	1227.5	236.19	2.6661e-06	2.2331e-06	299.92	80.622	63.71	18.194	1.1553e-06	25.291	0.00054102	0.0007445	0.00021141	1130.1	8.3097e-06	8.2659e-06	1211.8	235.63	7.9087e-06	8.5954e-06	299.21	81.836	64.324	18.528	7.9296e-06	25.696	170.663	107.647	115.582	26.007	133.807	159.119	26.611	33.742	214.825	166.205	33.894	40.404	41.446	47.744	179.977	46.758	-8191	255	
682.359	1	1	0	0	0.20117	0.073809	0.22493	0.12866	0.22466	0.14755	0.086659	0.27412	0.090091	0.13657	0.11129	0.25088	0.29994	0.27553	0.14671	0.31071	-0.69167	-1.525	-0.57917	-1.4417	-1.2771	-0.84792	-1.8375	-1.0271	-0.85417	-1.5396	-0.64167	-1.3667	-1.4167	-0.62083	-1.9083	-1.0646	95.204	34.305	330.894	229.169	177.570	362.734	86.419	303.189	28.232	97.322	103.864	351.823	29.728	150.757	291.856	77.283	0.00013937	0.00054988	0.00014096	1138.7	4.1669e-06	1.1242e-06	1229.4	234.53	2.1929e-06	3.4736e-06	300.29	80.866	63.148	18.195	1.889e-06	25.29	0.00054896	0.00077373	0.00021181	1131.2	8.266e-06	8.3545e-06	1212.4	235.66	7.9821e-06	8.4781e-06	298.91	81.805	64.171	18.519	8.0574e-06	25.736	159.443	80.180	117.157	26.577	155.609	170.455	26.560	34.233	191.395	146.924	33.633	40.961	40.928	47.923	178.444	47.502	-8191	255	
682.455	1	1	0	0	0.076503	0.16143	0.32677	0.13461	0.045474	0.23328	0.41001	0.19271	0.10968	0.27321	0.060202	0.28033	0.18747	0.21952	0.18516	0.14336	-0.36458	-1.6896	-0.625	-1.4208	-1.4396	-0.79792	-1.5667	-0.99167	-0.89167	-1.4792	-0.69583	-1.3208	-1.5208	-0.55417	-1.575	-1.1354	66.350	78.191	240.022	58.453	97.941	292.589	268.107	296.872	162.058	233.392	50.952	307.614	181.320	84.245	371.414	23.891	0.00017589	0.00024751	0.00012454	1135.4	1.2571e-06	6.8525e-08	1225.3	236.76	3.1604e-06	3.4856e-06	299.12	80.902	63.096	18.166	1.8009e-06	25.239	0.00056321	0.00075886	0.00020987	1129.1	8.0914e-06	8.7951e-06	1209.9	235.68	8.039e-06	8.5045e-06	297.99	81.751	64.371	18.461	7.7486e-06	25.706	167.419	106.990	102.839	26.188	211.521	51.433	26.555	33.896	218.471	163.988	33.258	40.611	40.784	47.503	99.120	47.225	-8191	255	
682.551	1	1	0	0	0.090655	0.1902	0.17316	0.1248	0.39692	0.17073	0.23912	0.17206	0.21279	0.33864	0.28976	0.26686	0.069003	0.30796	0.10729	0.075028	-0.41667	-1.7167	-0.71667	-1.0875	-1.4021	-0.75417	-1.6437	-1.1792	-0.75833	-1.6396	-0.96875	-1.2938	-1.5729	-0.58333	-1.4562	-1.2437	182.718	320.241	106.295	89.351	89.709	204.121	272.279	267.229	249.247	322.733	356.391	294.115	328.316	237.046	287.675	139.994	0.0001657	0.00029727	0.00011131	1142.1	3.3069e-06	6.1309e-06	1233.8	235.46	9.6051e-07	2.5276e-06	299.52	81.134	63.381	17.946	4.6004e-06	25.359	0.00057441	0.00075404	0.0002039	1129.6	8.1371e-06	8.1978e-06	1212	234.54	7.9998e-06	8.2405e-06	297.81	81.668	64.258	18.442	7.6384e-06	25.7	174.708	164.778	118.056	26.472	209.633	202.680	26.762	33.881	172.324	109.603	33.751	40.590	41.228	47.995	168.030	47.331	-8191	255	
682.670	1	1	0	0	0.086381	0.14977	0.17416	0.12735	0.13814	0.061855	0.13211	0.25342	0.37213	0.087047	0.046272	0.16276	0.17111	0.18694	0.25357	0.10493	-0.36042	-1.5229	-0.94583	-1.0458	-1.6833	-0.59583	-1.6292	-1.3771	-0.75833	-1.5646	-1.0792	-0.97083	-1.6604	-0.7625	-1.3583	-1.5854	267.317	301.716	74.989	370.111	335.594	183.657	281.158	361.422	336.567	48.673	19.253	242.640	44.611	92.279	88.547	242.009	0.00015843	0.00045427	0.00012561	1140.4	4.1936e-06	1.7122e-06	1229.5	235.81	2.8126e-06	4.0991e-06	298.5	81.165	63.708	18.217	1.7612e-06	25.111	0.00056492	0.00074108	0.00020777	1128.7	8.1581e-06	8.2553e-06	1211.1	235.05	8.2656e-06	8.2216e-06	298.28	81.938	64.396	18.482	8.102e-06	25.619	168.534	118.817	93.947	26.000	186.790	160.142	26.473	34.008	169.218	199.210	33.764	40.745	41.604	47.749	256.841	47.468	-8191	255	
682.766	1	1	0	0	0.041793	0.20524	0.35957	0.17828	0.27412	0.21404	0.54439	0.26757	0.20384	0.16156	0.058397	0.049426	0.35428	0.11293	0.14742	0.16029	-0.24792	-1.4146	-0.9875	-0.72292	-1.5958	-0.85417	-1.4771	-1.6167	-0.79583	-1.4521	-1.1896	-1.0042	-1.6333	-0.76875	-1.3167	-1.6021	252.092	201.221	294.460	278.357	266.501	21.495	276.759	321.617	235.009	199.186	286.949	312.687	337.620	166.530	99.963	82.368	0.00018491	0.00030297	8.7579e-05	1137.1	2.871e-06	4.5805e-06	1227	235.11	3.2158e-06	7.0661e-06	300.37	80.826	63.658	18.046	3.453e-06	25.13	0.00057175	0.00074534	0.00020632	1129.6	8.1649e-06	8.3369e-06	1211.1	235.14	8.2463e-06	8.1284e-06	298.86	81.638	64.358	18.45	7.7338e-06	25.655	175.535	134.559	96.329	26.520	140.814	171.019	26.658	34.030	199.634	141.006	33.476	40.971	40.928	48.274	194.527	47.365	-8191	255	
682.862	1	1	0	0	0.19195	0.2622	0.21165	0.094673	0.13603	0.16623	0.19016	0.071316	0.093204	0.005662	0.21424	0.32871	0.17717	0.13379	0.21468	0.16664	-0.36458	-1.4729	-1.1083	-0.7375	-1.7875	-0.81667	-1.0688	-1.625	-0.7625	-1.3917	-1.2812	-0.81042	-1.4542	-1.0396	-0.93958	-1.5333	66.739	150.951	148.623	294.710	78.516	28.586	331.193	315.517	119.927	130.619	54.178	206.529	22.485	203.717	307.932	284.152	0.00013886	0.00023877	9.5696e-05	1135.4	1.5301e-06	6.522e-07	1232.8	235.36	2.453e-06	3.4064e-06	298.69	80.596	63.288	18.152	2.1571e-06	25.121	0.00056064	0.00072419	0.0002096	1126.5	8.2184e-06	8.0071e-06	1209.4	234.65	7.779e-06	7.7038e-06	298.06	81.618	64.209	18.437	7.9519e-06	25.62	168.903	120.838	119.003	26.452	174.665	122.295	26.728	33.791	193.226	211.302	33.644	40.866	41.254	47.934	261.475	47.180	-8191	255	
682.959	1	1	0	0	0.12257	0.3111	0.10527	0.11332	0.13015	0.15814	0.124	0.10083	0.12042	0.10056	0.25285	0.19286	0.1541	0.092115	0.14578	0.36038	-0.38333	-1.2812	-1.2854	-0.82708	-1.4146	-0.9	-0.99792	-1.5583	-0.6625	-1.4229	-1.4042	-0.8	-1.5125	-1.0042	-0.62708	-1.7771	54.353	139.355	70.543	268.349	250.253	44.125	284.969	310.353	344.481	32.862	24.827	83.101	364.455	305.248	241.309	66.437	0.00013879	0.0003134	0.00012413	1131.1	3.1937e-06	2.8371e-06	1223.2	234.64	2.5753e-06	3.1581e-06	298.85	80.243	63.424	18.057	3.0756e-06	25.264	0.00054016	0.00070569	0.00020207	1125.8	7.9744e-06	8.053e-06	1207.5	234.72	7.6946e-06	7.8866e-06	297.63	81.614	64.16	18.442	8.0413e-06	25.693	172.435	128.517	86.419	26.666	161.000	248.711	26.486	34.119	203.071	167.802	33.236	40.973	41.237	47.990	179.488	47.364	-8191	255	
683.055	1	1	0	0	0.19069	0.15975	0.12406	0.20059	0.15358	0.19921	0.21863	0.16132	0.18979	0.21241	0.21472	0.037283	0.09499	0.193	0.27065	0.23794	-0.28542	-1.1021	-1.475	-0.64375	-1.6	-1.1146	-1.1125	-1.7625	-0.77083	-0.91458	-1.5625	-0.54583	-1.3396	-1.35	-0.67083	-1.5896	364.740	241.973	313.634	322.502	60.959	271.630	338.859	321.242	271.745	107.275	311.415	45.002	225.080	224.358	369.375	356.222	0.00015689	0.00023188	9.8582e-05	1135.5	2.6744e-06	3.1729e-06	1230	234.26	2.2666e-06	3.34e-06	297.78	80.542	62.855	18.031	1.7257e-06	25.147	0.00054459	0.00071519	0.00020349	1125.9	7.6248e-06	7.5453e-06	1207.2	233.8	7.3264e-06	7.5819e-06	296.86	81.371	63.84	18.386	7.545e-06	25.58	167.282	193.995	117.047	26.479	149.354	145.893	26.872	34.027	248.887	192.174	33.363	40.828	41.806	47.900	213.630	47.246	-8191	255	
683.151	1	1	0	0	0.13383	0.26121	0.18882	0.22853	0.048528	0.15088	0.087882	0.059771	0.19211	0.16249	0.12846	0.087447	0.19693	0.25944	0.21365	0.13315	-0.46458	-0.85	-1.5417	-0.7375	-1.4333	-1.3687	-0.91667	-1.7146	-1.025	-0.97083	-1.55	-0.88333	-1.3229	-1.3229	-0.68125	-1.6187	187.837	296.235	363.885	61.024	23.794	345.493	49.200	251.330	51.771	139.431	356.608	27.976	129.457	359.352	217.625	55.190	0.00014618	0.00033502	3.3715e-05	1136.2	3.9321e-06	2.4572e-06	1225.4	233.51	2.062e-06	2.4878e-06	297.52	80.448	63.676	17.922	3.0969e-06	25.016	0.00051357	0.00068981	0.00019701	1118.5	7.409e-06	7.6494e-06	1203.3	233.35	7.2974e-06	7.645e-06	296.84	81.168	63.978	18.269	7.2677e-06	25.507	176.637	72.699	127.238	26.170	181.959	251.017	26.855	34.225	165.258	229.447	33.723	40.932	41.184	48.112	185.375	47.642	-8191	255	
683.272	1	1	0	0	0.040603	0.31843	0.13622	0.24781	0.24065	0.046338	0.39964	0.15248	0.10927	0.10975	0.09136	0.19364	0.095488	0.23794	0.11701	0.19789	-0.65833	-0.80625	-1.6063	-0.69375	-1.2104	-1.4375	-0.82708	-1.4125	-1.0125	-0.65625	-1.6063	-0.84167	-1.2104	-1.6875	-0.475	-1.55	203.122	353.630	93.582	37.084	337.120	186.264	367.498	354.160	137.861	105.325	20.066	324.790	301.267	22.154	306.572	75.623	0.00014632	0.00031223	0.00010174	1120.1	2.6963e-06	3.4644e-06	1223	234.53	2.5338e-06	4.7689e-06	299.12	80.405	63.015	17.971	1.169e-06	25.06	0.00049546	0.00068094	0.00019275	1114.1	7.2257e-06	7.4359e-06	1202.7	233.22	7.0298e-06	7.6605e-06	296.15	81.295	63.813	18.291	7.3948e-06	25.468	167.084	142.573	105.569	25.713	164.614	150.747	26.778	34.315	188.283	198.612	33.634	40.829	40.920	47.719	158.076	48.013	-8191	255	
683.368	1	1	0	0	0.037051	0.066055	0.14156	0.17755	0.36328	0.19486	0.13668	0.093879	0.26573	0.10319	0.097739	0.028318	0.34226	0.072974	0.1728	0.299	-0.7375	-0.79167	-1.5646	-0.84167	-1.1146	-1.5458	-0.95417	-1.3896	-1.2167	-0.77917	-1.5917	-0.94375	-0.92708	-1.7167	-0.70833	-1.4396	166.009	72.207	169.948	22.554	329.330	309.256	320.119	214.227	262.259	87.726	167.948	40.440	247.752	88.158	258.451	314.343	0.00015622	0.00045331	8.7727e-05	1128.6	2.2099e-06	2.5749e-06	1221.6	233.3	3.8505e-06	3.18e-06	297.6	80.102	62.91	17.995	3.2235e-06	25.096	0.00049825	0.00070521	0.00018846	1116.5	7.2218e-06	7.4663e-06	1201.3	233.08	7.0769e-06	7.7372e-06	296.25	80.985	63.594	18.298	7.3983e-06	25.467	175.936	20.626	119.770	26.515	182.960	154.436	26.670	33.917	188.053	169.248	33.943	40.681	41.046	47.547	134.842	47.596	-8191	255	
683.464	1	1	0	0	0.080752	0.04461	0.30018	0.05279	0.20581	0.2259	0.23668	0.26026	0.15038	0.18274	0.1877	0.067402	0.30447	0.19806	0.091207	0.11555	-0.96875	-0.47083	-1.7146	-0.94583	-0.79167	-1.7125	-0.9625	-1.3979	-1.325	-0.58333	-1.5896	-1.2062	-0.97292	-1.525	-0.75	-1.2229	103.873	155.591	160.525	202.441	89.020	146.642	283.629	79.714	321.104	25.894	184.032	239.252	82.445	16.501	93.805	30.306	0.00015435	0.00031678	0.00010456	1125	1.5126e-06	2.0981e-06	1216.6	234.77	1.5055e-06	3.2081e-06	297.2	79.727	62.955	17.978	2.615e-06	25.114	0.00051313	0.00068913	0.00018632	1116.5	7.3274e-06	7.2921e-06	1199.4	232.98	6.9225e-06	7.417e-06	296.2	80.8	63.56	18.277	7.0036e-06	25.478	167.448	69.076	85.460	26.679	164.495	154.252	26.517	34.175	159.461	183.170	34.035	40.737	41.319	48.430	118.981	47.476	-8191	255	
683.558	1	1	0	0	0.26305	0.12641	0.20483	0.34075	0.068507	0.092487	0.31845	0.33525	0.05098	0.26303	0.22048	0.33681	0.23186	0.17776	0.42862	0.064274	-1.2479	-0.76042	-1.4	-1.2313	-0.84375	-1.6146	-0.91458	-1.1083	-1.3833	-0.71875	-1.5604	-1.0688	-0.73542	-1.5458	-0.7625	-1.1104	326.658	247.295	20.341	341.613	362.214	132.039	313.920	39.623	171.981	36.109	283.061	357.712	151.147	301.671	245.853	110.967	0.0001566	0.00060082	0.00012486	1136	3.7495e-06	3.028e-06	1218.9	233.49	4.2376e-06	3.8599e-06	296.9	79.69	62.594	17.988	3.2512e-06	24.861	0.00049529	0.00065654	0.00018031	1118.2	7.4175e-06	7.3837e-06	1197	232.34	6.9898e-06	7.0921e-06	295.32	80.606	63.552	18.261	6.7915e-06	25.366	172.356	87.237	75.130	26.634	194.262	142.304	26.827	34.295	168.410	186.460	33.984	40.858	41.295	47.891	169.413	48.045	-8191	255	
#DATA ENDS
