BOXY.EXE: ISS Imagent and Oximeter Data Acquisition Program Version 0.80
Ascii Record File

#ACQ INFORMATION
2  Detector Channels 
16  External MUX Channels 
1  Auxiliary Channels 
5000  Waveform (CCF) Frequency (Hz)
1  Waveforms Skipped 
30  Waveforms Averaged 
1  Cycles Averaged 
16  Acquisitions per Waveform 
10.0806  Updata Rate (Hz) 

#FILE INFORMATION
TRUE -- External MUX Channel results are PARSED.
FALSE -- AC DC and Phase are NOT grouped.
TRUE -- Companion Program Settings File CREATED.
FALSE -- AC data not excluded
FALSE -- DC data not excluded
FALSE -- Phase data not excluded
FALSE -- Auxillary Chn. data not excluded
Tab delimiters

#CALIBRATION STATE
TRUE -- Waveform Calibration Values APPLIED.


#AUX CALIBRATION VALUES
Val Type	aux-1	

Term	1.0000e+00	
Factor	0.0000e+00	


#WF CALIBRATION VALUES
A = Detector Channel
Val Type	A-AC1	A-AC2	A-AC3	A-AC4	A-AC5	A-AC6	A-AC7	A-AC8	A-AC9	A-AC10	A-AC11	A-AC12	A-AC13	A-AC14	A-AC15	A-AC16	A-DC1	A-DC2	A-DC3	A-DC4	A-DC5	A-DC6	A-DC7	A-DC8	A-DC9	A-DC10	A-DC11	A-DC12	A-DC13	A-DC14	A-DC15	A-DC16	A-Ph1	A-Ph2	A-Ph3	A-Ph4	A-Ph5	A-Ph6	A-Ph7	A-Ph8	A-Ph9	A-Ph10	A-Ph11	A-Ph12	A-Ph13	A-Ph14	A-Ph15	A-Ph16	

Term	0.00000e+00	0.00000e+00	0.00000e+00	0.00000e+00	0.00000e+00	0.00000e+00	0.00000e+00	0.00000e+00	0.00000e+00	0.00000e+00	0.00000e+00	0.00000e+00	0.00000e+00	0.00000e+00	0.00000e+00	0.00000e+00	0.00000e+00	0.00000e+00	0.00000e+00	0.00000e+00	0.00000e+00	0.00000e+00	0.00000e+00	0.00000e+00	0.00000e+00	0.00000e+00	0.00000e+00	0.00000e+00	0.00000e+00	0.00000e+00	0.00000e+00	0.00000e+00	0.00000e+00	0.00000e+00	0.00000e+00	0.00000e+00	0.00000e+00	0.00000e+00	0.00000e+00	0.00000e+00	0.00000e+00	0.00000e+00	0.00000e+00	0.00000e+00	0.00000e+00	0.00000e+00	0.00000e+00	0.00000e+00	
Factor	1.00000e+00	1.00000e+00	1.00000e+00	1.00000e+00	1.00000e+00	1.00000e+00	1.00000e+00	1.00000e+00	1.00000e+00	1.00000e+00	1.00000e+00	1.00000e+00	1.00000e+00	1.00000e+00	1.00000e+00	1.00000e+00	1.00000e+00	1.00000e+00	1.00000e+00	1.00000e+00	1.00000e+00	1.00000e+00	1.00000e+00	1.00000e+00	1.00000e+00	1.00000e+00	1.00000e+00	1.00000e+00	1.00000e+00	1.00000e+00	1.00000e+00	1.00000e+00	X	X	X	X	X	X	X	X	X	X	X	X	X	X	X	X	

B = Detector Channel
Val Type	B-AC1	B-AC2	B-AC3	B-AC4	B-AC5	B-AC6	B-AC7	B-AC8	B-AC9	B-AC10	B-AC11	B-AC12	B-AC13	B-AC14	B-AC15	B-AC16	B-DC1	B-DC2	B-DC3	B-DC4	B-DC5	B-DC6	B-DC7	B-DC8	B-DC9	B-DC10	B-DC11	B-DC12	B-DC13	B-DC14	B-DC15	B-DC16	B-Ph1	B-Ph2	B-Ph3	B-Ph4	B-Ph5	B-Ph6	B-Ph7	B-Ph8	B-Ph9	B-Ph10	B-Ph11	B-Ph12	B-Ph13	B-Ph14	B-Ph15	B-Ph16	

Term	0.00000e+00	0.00000e+00	0.00000e+00	0.00000e+00	0.00000e+00	0.00000e+00	0.00000e+00	0.00000e+00	0.00000e+00	0.00000e+00	0.00000e+00	0.00000e+00	0.00000e+00	0.00000e+00	0.00000e+00	0.00000e+00	0.00000e+00	0.00000e+00	0.00000e+00	0.00000e+00	0.00000e+00	0.00000e+00	0.00000e+00	0.00000e+00	0.00000e+00	0.00000e+00	0.00000e+00	0.00000e+00	0.00000e+00	0.00000e+00	0.00000e+00	0.00000e+00	-1.85345e+02	-1.23737e+02	-1.11857e+02	-1.80493e+02	-1.02631e+02	-7.18909e+01	-1.55190e+02	-1.62015e+02	-8.30239e+01	-6.30682e+01	-1.71086e+02	-1.70392e+02	-1.81065e+02	-1.76742e+02	-5.60175e+01	-1.49283e+02	
Factor	3.45794e-05	1.28973e-04	3.64895e-05	1.78598e-01	1.50782e-06	1.48164e-06	1.55936e-01	4.98493e-02	1.25560e-06	1.27048e-06	8.53734e-02	2.92799e-02	2.65120e-02	9.74353e-03	1.48999e-06	1.28900e-02	2.28479e-06	2.43523e-06	6.78434e-07	9.15091e-02	2.64387e-08	2.67660e-08	7.53430e-02	2.56481e-02	2.64425e-08	2.67481e-08	4.24034e-02	1.45225e-02	1.36176e-02	5.01221e-03	2.65546e-08	6.42646e-03	X	X	X	X	X	X	X	X	X	X	X	X	X	X	X	X	



#DISTANCE SETTINGS
A = Detector Channel
A-1	A-2	A-3	A-4	A-5	A-6	A-7	A-8	A-9	A-10	A-11	A-12	A-13	A-14	A-15	A-16	

2.5000e+00	3.0000e+00	2.5000e+00	3.0000e+00	2.0000e+00	3.0000e+00	1.5000e+00	3.0000e+00	3.0000e+00	3.0000e+00	3.0000e+00	3.0000e+00	3.0000e+00	3.0000e+00	1.5000e+00	3.0000e+00	

B = Detector Channel
B-1	B-2	B-3	B-4	B-5	B-6	B-7	B-8	B-9	B-10	B-11	B-12	B-13	B-14	B-15	B-16	

1.0000e+01	1.0000e+01	1.0000e+01	1.4400e+00	1.0000e+01	1.0000e+01	1.5100e+00	1.9400e+00	1.0000e+01	1.0000e+01	1.9900e+00	2.4900e+00	2.4100e+00	2.9000e+00	1.0000e+01	2.9800e+00	




#DATA BEGINS
time	group	step	mark	flag	A-AC1	A-AC2	A-AC3	A-AC4	A-AC5	A-AC6	A-AC7	A-AC8	A-AC9	A-AC10	A-AC11	A-AC12	A-AC13	A-AC14	A-AC15	A-AC16	A-DC1	A-DC2	A-DC3	A-DC4	A-DC5	A-DC6	A-DC7	A-DC8	A-DC9	A-DC10	A-DC11	A-DC12	A-DC13	A-DC14	A-DC15	A-DC16	A-Ph1	A-Ph2	A-Ph3	A-Ph4	A-Ph5	A-Ph6	A-Ph7	A-Ph8	A-Ph9	A-Ph10	A-Ph11	A-Ph12	A-Ph13	A-Ph14	A-Ph15	A-Ph16	B-AC1	B-AC2	B-AC3	B-AC4	B-AC5	B-AC6	B-AC7	B-AC8	B-AC9	B-AC10	B-AC11	B-AC12	B-AC13	B-AC14	B-AC15	B-AC16	B-DC1	B-DC2	B-DC3	B-DC4	B-DC5	B-DC6	B-DC7	B-DC8	B-DC9	B-DC10	B-DC11	B-DC12	B-DC13	B-DC14	B-DC15	B-DC16	B-Ph1	B-Ph2	B-Ph3	B-Ph4	B-Ph5	B-Ph6	B-Ph7	B-Ph8	B-Ph9	B-Ph10	B-Ph11	B-Ph12	B-Ph13	B-Ph14	B-Ph15	B-Ph16	aux-1	digaux	

872.583	1	1	0	768	0.22569	0.18063	0.13119	0.20562	0.22291	0.17165	0.25871	0.2595	0.14609	0.31505	0.012001	0.078621	0.17795	0.083905	0.12208	0.034073	-2.6667	-3.4146	-3.5792	-3.0646	-3.4979	-3.2708	-3.4021	-4.0167	-3.1708	-3.4875	-3.8229	-3.1875	-3.8833	-3.45	-3.1896	-3.7854	201.192	338.249	281.748	377.197	357.421	219.595	337.245	55.620	52.691	147.493	209.091	210.451	401.796	93.151	52.121	172.051	0.00084858	0.00077474	0.00019711	1276.4	5.3754e-06	7.6685e-06	1281.1	345.7	3.998e-06	4.8139e-06	398.09	134.22	115.27	40.207	4.5394e-06	49.857	0.00054985	0.00054091	0.00015012	1298.7	5.9034e-06	5.8731e-06	1305.7	354.42	5.8577e-06	5.9011e-06	409.1	138.07	118.7	41.583	5.9449e-06	51.962	97.413	138.148	160.391	61.717	120.881	222.974	61.769	66.950	243.918	209.224	66.053	70.356	70.859	75.601	169.906	74.352	-8191	255	
872.679	1	1	0	0	0.17888	0.14789	0.16253	0.33595	0.10045	0.11416	0.35841	0.23127	0.15649	0.093522	0.10561	0.4608	0.16387	0.16384	0.24801	0.17122	-3.0125	-3.4146	-3.5833	-3.2729	-3.4188	-3.4646	-3.1292	-3.9104	-3.3458	-3.2938	-3.8937	-3.0104	-3.6667	-3.5771	-3.1521	-3.8646	197.033	385.640	52.030	386.740	282.787	124.232	406.723	365.283	188.220	197.278	184.320	325.263	406.469	57.479	94.049	183.187	0.00077071	0.00064229	9.216e-05	1273.9	7.7563e-06	4.4379e-06	1273	346.08	4.9301e-06	5.7157e-06	398.25	134.09	116.1	40.071	1.3624e-06	49.905	0.00054877	0.00053776	0.00015067	1298.7	5.8684e-06	5.9052e-06	1304.3	354.69	5.9329e-06	6.0051e-06	408.86	138.07	118.89	41.552	6.0109e-06	51.934	95.876	186.469	189.764	62.017	198.331	198.700	61.693	67.020	151.599	199.942	66.257	70.504	71.144	75.780	334.638	74.793	-8191	255	
872.775	1	1	0	0	0.26881	0.19337	0.075651	0.35431	0.20402	0.0073783	0.18343	0.28987	0.2751	0.2565	0.14796	0.14881	0.24092	0.10551	0.12709	0.064124	-2.8583	-3.2292	-3.6979	-3.1833	-3.6	-3.6188	-3.3312	-3.7125	-3.3146	-3.2979	-3.7521	-3.2604	-3.6437	-3.5104	-3.1625	-3.7583	51.559	313.706	393.363	365.838	299.095	217.949	81.505	343.100	360.658	311.129	214.127	365.848	383.079	323.293	351.488	190.260	0.00083903	0.00011267	0.00017216	1267.9	5.3719e-06	2.7357e-06	1277.2	344.69	1.2167e-05	5.5579e-06	396.42	134.87	115.95	40.277	5.8739e-06	50.142	0.00055363	0.0005525	0.00015249	1298.6	6.0101e-06	5.9831e-06	1305	354.43	5.9323e-06	6.0471e-06	410.41	138.07	118.86	41.616	6.0739e-06	51.991	94.409	237.787	168.835	62.298	150.136	65.195	61.865	67.054	200.951	222.738	66.475	70.655	71.004	75.512	196.493	74.722	-8191	255	
872.871	1	1	0	0	0.1121	0.13913	0.12657	0.22239	0.10226	0.15233	0.14947	0.25854	0.11484	0.17035	0.29051	0.12866	0.12432	0.078	0.17899	0.11516	-2.8771	-3.2271	-3.8667	-3.2583	-3.425	-3.8167	-3.1771	-3.6792	-3.2438	-3.2313	-3.8979	-3.3937	-3.4854	-3.6542	-2.8625	-3.6729	85.593	164.806	124.902	339.299	182.991	169.634	329.430	385.899	356.931	357.348	92.322	244.771	402.456	83.423	366.271	276.054	0.00083127	0.00083689	4.8994e-05	1279.4	8.4233e-06	7.6853e-06	1284	348.67	6.2429e-06	7.505e-07	398.86	134.71	115.78	40.344	4.7518e-06	50.501	0.0005571	0.00055507	0.00015328	1299.9	6.016e-06	6.0421e-06	1306.9	355.35	5.9887e-06	6.1166e-06	409.84	137.98	118.85	41.6	6.0906e-06	52.07	95.099	97.454	205.401	61.769	183.799	174.298	61.384	66.523	221.009	253.951	65.804	70.049	70.807	75.601	171.489	74.561	-8191	255	
872.967	1	1	0	0	0.15147	0.064457	0.19272	0.1528	0.1697	0.15716	0.25899	0.19991	0.26199	0.1422	0.1125	0.062375	0.16931	0.31115	0.22559	0.31753	-3.0417	-3.15	-3.75	-3.4125	-3.1521	-3.7729	-3.3833	-3.8354	-3.6146	-3.0938	-3.6562	-3.325	-3.3083	-3.8229	-3.1625	-3.6063	160.549	330.381	59.726	236.223	261.615	244.575	332.008	310.060	343.480	156.484	368.513	328.254	358.087	349.589	283.667	380.178	0.00090114	0.00014808	0.00013212	1273	4.5091e-06	6.8707e-06	1285.6	346.76	6.9791e-06	2.4832e-06	399.41	134.53	115.94	40.275	6.8964e-06	50.412	0.00055687	0.0005585	0.00015368	1300.4	6.0352e-06	6.0731e-06	1307.7	354.85	6.048e-06	6.0705e-06	410.26	137.99	119.1	41.642	6.0225e-06	52.168	97.379	121.426	175.047	62.034	151.804	148.123	61.798	66.519	206.926	175.312	66.015	70.469	71.216	75.675	218.722	74.636	-8191	255	
873.063	1	1	0	0	0.36048	0.034045	0.015406	0.16604	0.15768	0.082214	0.14799	0.24099	0.27709	0.039858	0.24558	0.24442	0.19454	0.19665	0.21077	0.31304	-3.2604	-3.0083	-3.5563	-3.4208	-3.0542	-3.7896	-3.2313	-3.4583	-3.4833	-3.0604	-3.7458	-3.3708	-3.0479	-3.8875	-3.0167	-3.4146	197.114	121.913	288.565	394.928	307.811	377.051	335.873	179.666	107.141	52.915	77.413	67.823	350.703	90.909	175.042	384.026	0.00070261	0.00042242	9.5503e-05	1264.5	6.0992e-06	6.7446e-06	1274.1	343.85	5.7288e-06	7.993e-06	397.95	134.52	116.01	40.042	1.1529e-06	50.089	0.00056075	0.00054959	0.00015368	1299.1	6.0838e-06	6.0421e-06	1305	353.93	6.0199e-06	6.1481e-06	409.1	138.2	118.84	41.569	6.0655e-06	51.962	91.639	55.798	148.095	62.173	178.126	195.072	62.007	67.148	229.046	214.451	66.097	70.622	71.049	75.583	274.068	74.844	-8191	255	
873.184	1	1	0	0	0.11591	0.088585	0.12458	0.14156	0.28105	0.098708	0.34235	0.15141	0.29104	0.2433	0.1694	0.21839	0.085359	0.17457	0.062298	0.077885	-3.3354	-3.0583	-3.65	-3.6083	-3.1958	-3.7792	-3.3771	-3.4667	-3.5896	-3.1083	-3.725	-3.4729	-3.4167	-3.8146	-3.1688	-3.2792	374.101	362.292	134.547	373.292	363.653	203.359	59.963	384.451	355.789	87.989	68.943	403.864	108.588	66.857	361.361	82.602	0.00072006	0.00049898	0.00020328	1266.8	5.5982e-06	5.6804e-06	1278.4	344.71	4.6357e-06	4.1901e-06	396.76	134.44	115.61	40.15	5.6303e-06	50.176	0.000568	0.00056222	0.00015338	1299.7	6.1466e-06	6.1096e-06	1306.4	354.65	6.1308e-06	6.0728e-06	409.73	138.2	118.69	41.615	6.0694e-06	51.955	95.695	118.292	171.506	62.403	195.436	242.692	61.983	66.977	204.839	173.554	66.590	70.596	71.043	75.450	208.766	74.640	-8191	255	
873.280	1	1	0	0	0.25686	0.12791	0.12133	0.13731	0.19678	0.14513	0.36453	0.23885	0.29364	0.23766	0.078457	0.22988	0.34198	0.12665	0.11448	0.32524	-3.3688	-3.0521	-3.6688	-3.6958	-3.2417	-3.6771	-3.5896	-3.3104	-3.7604	-3.1021	-3.5833	-3.725	-3.1917	-3.7854	-3.4542	-3.2292	306.257	194.180	309.287	386.931	370.026	218.060	365.060	300.821	261.362	168.431	277.324	364.974	366.407	365.903	160.227	287.559	0.00076567	0.00062448	0.00018107	1273.4	8.7228e-06	6.1703e-06	1274.6	346.41	5.5666e-06	2.0773e-06	396.82	134.02	115.01	40.068	8.7415e-06	50.001	0.00056603	0.00055809	0.00015459	1302.6	6.1424e-06	6.0774e-06	1307.1	354.93	6.1144e-06	6.024e-06	408.99	138.13	118.63	41.569	6.0501e-06	51.965	102.106	104.481	163.004	61.983	172.974	190.281	61.916	66.889	246.776	262.316	66.487	70.783	71.496	76.086	250.231	75.314	-8191	255	
873.376	1	1	0	0	0.13257	0.14377	0.18649	0.08271	0.30845	0.15185	0.2248	0.36443	0.16788	0.11007	0.054768	0.13145	0.21851	0.26753	0.21026	0.13096	-3.4062	-2.9292	-3.3063	-3.6833	-3.0854	-3.5625	-3.4875	-3.4083	-3.7333	-3.3812	-3.3458	-3.6229	-3.2479	-3.7188	-3.5292	-3.3167	358.723	262.699	343.651	379.620	290.184	281.247	318.597	395.962	90.313	62.305	56.350	400.047	384.723	341.591	88.072	383.402	0.00088099	0.00037648	8.7554e-05	1271.5	5.0592e-06	1.0004e-05	1280.1	345.22	2.5067e-06	6.1339e-06	398.44	134.07	115.3	40.265	2.961e-06	50.127	0.0005618	0.00055419	0.00015527	1299.7	6.0567e-06	6.0057e-06	1306.4	354.29	6.0747e-06	6.0878e-06	409.75	138.04	118.66	41.544	6.0572e-06	51.981	106.252	175.555	138.195	61.968	163.185	182.976	61.679	66.588	307.227	239.801	66.094	70.451	71.383	75.639	245.319	74.912	-8191	255	
873.472	1	1	0	0	0.064382	0.18458	0.20727	0.32948	0.12386	0.2899	0.2305	0.042972	0.19459	0.15829	0.1936	0.043093	0.29118	0.13726	0.16583	0.15294	-3.5229	-3.2604	-3.3312	-3.8896	-3.1208	-3.7208	-3.7646	-3.2083	-3.5167	-3.2125	-3.4813	-3.9604	-3.3042	-3.5	-3.4729	-3.0958	406.648	111.893	85.401	345.818	72.297	245.022	66.937	96.612	330.481	179.787	87.814	294.327	341.772	305.432	325.927	260.377	0.00075594	0.00091744	0.00015626	1271.8	8.0242e-06	5.3971e-06	1276.5	346.42	6.1324e-06	4.1513e-06	397.18	133.51	114.77	39.803	9.6641e-06	49.728	0.00057016	0.00056299	0.00015524	1302.3	6.1274e-06	6.2065e-06	1307	355.57	6.245e-06	6.1683e-06	409.28	138.08	118.76	41.446	6.2898e-06	51.894	93.148	133.812	162.138	62.292	163.344	198.704	62.023	67.176	220.157	150.115	66.250	70.511	71.662	75.647	195.966	74.927	-8191	255	
873.567	1	1	0	0	0.18105	0.047501	0.14058	0.069242	0.16351	0.055508	0.036055	0.026665	0.0998	0.18753	0.078756	0.077981	0.22048	0.43097	0.084736	0.034447	-3.4646	-3.3	-3.1229	-3.8354	-3.1417	-3.4604	-3.7333	-3.3146	-3.675	-3.3583	-3.3083	-3.9938	-3.2333	-3.3646	-3.6917	-3.2375	214.641	204.748	283.699	315.048	379.608	144.512	52.741	393.333	266.417	281.561	128.199	390.433	393.706	388.955	318.332	117.297	0.00092984	8.2535e-05	0.00015693	1267.3	4.6727e-06	4.5209e-06	1277.7	344.61	5.2358e-06	3.0525e-06	397.15	134.21	114.77	39.975	6.2515e-06	50.013	0.00059051	0.00058638	0.00016331	1302.9	6.4465e-06	6.5208e-06	1309.1	355.19	6.4817e-06	6.5211e-06	410.2	138.44	118.81	41.596	6.5835e-06	51.98	98.259	165.960	120.448	62.296	201.511	102.641	62.110	67.024	183.808	226.174	66.498	70.957	71.476	75.930	216.967	74.920	-8191	255	
873.663	1	1	0	0	0.1849	0.14164	0.098542	0.085796	0.26161	0.2754	0.254	0.051198	0.18331	0.064974	0.15431	0.23772	0.34516	0.38	0.012874	0.27398	-3.3083	-3.3792	-3.0687	-4	-3.0875	-3.4583	-3.8792	-3.0667	-3.4938	-3.4229	-3.1875	-3.7083	-3.3729	-3.3854	-3.6042	-3.0417	364.369	191.691	307.688	347.035	402.136	150.207	260.044	353.880	320.844	127.981	50.733	296.743	76.559	346.023	376.133	259.540	0.00088386	0.00036093	0.0001163	1273	9.2598e-06	6.2001e-06	1277.7	345.88	9.5023e-06	7.0567e-06	397.27	133.69	115.58	39.976	1.62e-06	49.923	0.00060859	0.0006136	0.00016859	1307.9	6.6813e-06	6.7833e-06	1314.7	356.83	6.7386e-06	6.8584e-06	411.63	138.47	119.32	41.614	6.8832e-06	52.018	103.663	105.335	184.952	62.240	170.161	221.637	62.204	67.093	189.902	206.364	66.191	70.827	71.558	75.891	247.203	75.390	-8191	255	
873.784	1	1	0	0	0.21042	0.16278	0.15752	0.052732	0.092486	0.20281	0.1829	0.16877	0.19546	0.19113	0.15704	0.10292	0.025765	0.10218	0.073336	0.048817	-3.1625	-3.3979	-2.975	-3.925	-3.2354	-3.2938	-4.1104	-3.225	-3.3167	-3.5812	-3.2188	-3.6583	-3.3771	-3.3438	-3.7562	-3.0896	106.794	186.942	326.361	58.964	337.616	116.733	340.898	390.079	308.555	57.707	332.423	383.427	346.723	182.778	228.761	185.865	0.00081205	0.00058354	0.00014668	1279.1	6.5017e-06	4.4714e-06	1282.4	346.04	2.4991e-06	4.3987e-06	397.61	134.05	114.94	39.739	4.9034e-06	49.871	0.00063321	0.00063464	0.00017955	1314.3	6.8982e-06	7.0519e-06	1318.5	357.57	6.9271e-06	6.9824e-06	411.82	138.92	119.32	41.64	7.0106e-06	52.084	103.218	125.227	104.993	62.248	156.074	232.981	62.222	67.151	158.568	120.407	66.328	70.930	71.430	75.858	220.597	74.969	-8191	255	
873.880	1	1	0	0	0.20596	0.024458	0.18226	0.033147	0.12297	0.12075	0.23929	0.22744	0.069143	0.15029	0.11851	0.23135	0.20529	0.059892	0.20506	0.04688	-3.1229	-3.6479	-3.0875	-3.6813	-3.3187	-3.2687	-3.9354	-3.2458	-3.2938	-3.7167	-3.3688	-3.6833	-3.4604	-3.1604	-3.5875	-3.2417	162.028	108.147	264.920	216.325	186.733	356.141	282.942	325.759	318.971	268.086	378.050	105.196	98.594	211.006	377.497	56.015	0.0008611	0.00056924	0.00022188	1279.4	9.8711e-06	3.5264e-06	1286	348.21	4.7699e-06	2.8929e-06	397.18	134.82	115.77	39.843	2.6666e-07	50.042	0.00064131	0.00063288	0.00017792	1315.6	6.9242e-06	6.9927e-06	1320.1	358.32	6.9848e-06	7.0436e-06	411.52	138.7	119.47	41.597	7.0319e-06	52.043	99.139	141.379	153.936	62.321	195.123	232.608	61.860	66.906	179.992	177.097	66.023	70.595	71.089	75.446	91.840	74.563	-8191	255	
873.976	1	1	0	0	0.11371	0.1776	0.26534	0.39841	0.13654	0.16995	0.084987	0.193	0.15979	0.066222	0.34378	0.10013	0.11888	0.033324	0.19078	0.12598	-2.9583	-3.5604	-3.0979	-3.6708	-3.4	-2.9896	-3.8458	-3.1667	-3.1562	-3.6208	-3.225	-3.7167	-3.5021	-3.2792	-3.5979	-3.3708	99.438	219.525	232.720	393.949	147.977	248.896	372.445	368.960	289.681	94.854	89.888	253.721	63.739	317.314	372.218	395.222	0.00071747	0.00039099	0.00021344	1285.3	5.9712e-06	2.8773e-06	1291.1	349.58	5.2245e-06	4.0388e-06	400.73	134.42	115.9	39.84	8.9229e-06	49.839	0.00064339	0.0006476	0.00017967	1315.8	7.0649e-06	7.0738e-06	1321.9	358.97	7.0091e-06	7.0738e-06	412.94	138.72	119.77	41.579	6.9893e-06	52.003	100.035	128.191	186.935	61.852	177.258	216.135	61.756	66.699	179.172	182.984	66.094	70.436	71.375	75.429	227.942	74.871	-8191	255	
874.072	1	1	0	0	0.19509	0.22111	0.15934	0.16309	0.078443	0.20078	0.013727	0.26606	0.10981	0.023215	0.21618	0.10106	0.33734	0.17982	0.083011	0.20228	-2.8875	-3.9292	-2.9958	-3.5646	-3.5458	-3.0438	-4.0729	-3.4958	-2.9646	-3.6875	-3.2125	-3.5333	-3.7521	-3.0667	-3.5979	-3.4688	176.544	217.978	168.705	363.825	355.823	127.132	59.701	390.118	229.582	367.187	61.832	176.459	379.810	106.107	178.913	371.425	0.00085196	0.00042889	9.1548e-05	1288.5	7.8405e-06	7.8688e-06	1289.1	348.73	7.7275e-06	5.9244e-06	399.42	134.64	116.14	39.952	7.9452e-06	49.855	0.00064647	0.00064546	0.00017979	1318.2	7.1022e-06	7.0987e-06	1321.9	359.08	7.0914e-06	7.2113e-06	412.58	138.82	119.65	41.746	7.0695e-06	52.1	95.073	106.138	180.543	61.808	97.917	159.327	61.773	66.883	235.883	210.229	65.885	70.426	71.126	75.641	205.177	74.828	-8191	255	
874.144	1	1	0	0	0.075257	0.065726	0.11807	0.34612	0.13004	0.081605	0.20682	0.043538	0.1396	0.19862	0.17603	0.35251	0.063534	0.10531	0.15191	0.17413	-2.6646	-3.7125	-3.1729	-3.5021	-3.6729	-2.9396	-3.7729	-3.5854	-3.1312	-3.7208	-3.2812	-3.3333	-3.6833	-3.0708	-3.4292	-3.6562	66.905	393.795	347.256	86.409	356.291	230.148	342.179	386.120	311.361	382.566	97.359	327.703	369.345	67.569	232.206	322.234	0.00080179	0.00063823	0.00018777	1280.1	1.2599e-05	3.4539e-06	1288.4	348.64	4.4984e-06	7.5312e-06	400.85	134.1	115.74	39.97	3.8829e-06	50.044	0.00066021	0.00064872	0.00018001	1320.9	7.1886e-06	7.1301e-06	1323.7	359.53	7.2469e-06	7.1656e-06	413.34	138.77	119.8	41.635	7.0966e-06	52.095	102.538	149.196	112.084	62.039	162.622	169.643	62.118	67.128	200.308	149.743	66.434	70.467	71.214	75.846	208.075	74.805	-8191	255	
874.264	1	1	0	0	0.32727	0.11059	0.15967	0.21655	0.15585	0.20524	0.20075	0.17635	0.22611	0.20938	0.051431	0.10331	0.13012	0.22929	0.19287	0.16115	-2.6813	-3.6417	-3.2708	-3.3083	-3.6354	-3.025	-3.6792	-3.6937	-3.0042	-3.7	-3.325	-3.2583	-3.9	-3.1688	-3.4042	-3.7417	403.623	114.140	238.062	50.731	208.240	245.812	405.348	369.451	249.694	95.581	390.333	243.964	238.495	311.165	183.133	235.198	0.00086731	0.00044312	0.00013805	1284.1	8.035e-06	8.6821e-06	1288.8	348.22	3.9716e-06	7.9975e-06	398.87	134.2	115.27	39.806	8.7827e-06	49.595	0.00065602	0.00064592	0.00017927	1319.7	7.0948e-06	7.0596e-06	1324.3	359.41	7.0338e-06	6.9834e-06	412.85	138.9	119.54	41.645	7.0608e-06	51.965	104.194	147.162	121.325	62.132	114.972	198.038	61.727	66.768	232.575	228.112	66.248	70.754	71.194	75.831	247.382	74.598	-8191	255	
874.361	1	1	0	0	0.1375	0.063691	0.18645	0.13699	0.16032	0.056163	0.28363	0.14446	0.12773	0.11446	0.12424	0.068983	0.10145	0.11925	0.16262	0.09853	-2.8104	-3.6021	-3.2167	-3.0646	-3.8542	-3.2833	-3.625	-3.7125	-3.0396	-3.6479	-3.5292	-3.1792	-3.8479	-3.3083	-3.3958	-3.7792	65.573	231.708	385.660	365.322	377.964	109.040	344.251	340.740	183.448	147.005	349.870	182.497	390.184	237.250	265.411	380.147	0.0007869	0.00028525	0.00020133	1281.9	9.0911e-06	6.3183e-06	1289.4	348.22	5.247e-06	7.5541e-06	397.74	133.83	116.12	39.785	7.3725e-06	49.662	0.00065216	0.0006416	0.00017968	1317.5	7.055e-06	7.0867e-06	1324.3	359.46	6.9822e-06	7.037e-06	413.16	138.64	119.9	41.675	7.0142e-06	51.972	97.965	104.084	144.407	62.091	171.541	209.038	62.113	67.201	203.354	172.931	66.343	70.786	71.232	76.129	227.503	75.056	-8191	255	
874.457	1	1	0	0	0.28022	0.10983	0.38541	0.30376	0.1863	0.16478	0.11834	0.097596	0.29015	0.11268	0.088352	0.12314	0.25071	0.28115	0.14355	0.21572	-2.7812	-3.5938	-3.4042	-3.1813	-3.6917	-3.2625	-3.3667	-3.775	-2.8438	-3.4938	-3.6292	-3.1646	-3.7042	-3.2771	-3.1583	-3.725	181.156	336.950	50.987	385.218	237.312	223.176	125.870	330.186	380.148	380.187	376.226	325.553	392.649	387.595	261.128	397.062	0.00077593	0.00036884	0.00024193	1278.1	8.7746e-06	3.8374e-06	1284.1	347.2	3.424e-06	7.1601e-06	399.26	133.53	115	39.788	5.8576e-06	49.719	0.0006464	0.0006426	0.00017789	1318.6	6.9525e-06	6.9926e-06	1321.6	359.11	7.042e-06	6.9855e-06	412.88	138.61	119.66	41.64	7.034e-06	51.986	96.407	184.354	231.659	62.472	176.851	237.362	62.150	67.062	218.343	107.606	66.568	70.838	71.323	76.036	190.951	74.796	-8191	255	
874.576	1	1	0	0	0.13007	0.13576	0.25728	0.11238	0.1975	0.17122	0.23975	0.37283	0.13012	0.22071	0.11234	0.15491	0.18647	0.12842	0.10654	0.23225	-2.6333	-3.5042	-3.5146	-3.1208	-3.6562	-3.2792	-3.3229	-3.9229	-3.2333	-3.4646	-3.7604	-3.1146	-3.7208	-3.5146	-3.125	-3.9437	289.831	373.290	245.097	91.623	339.195	110.214	65.076	346.432	187.412	218.922	399.049	191.147	371.200	129.588	121.015	51.726	0.00068351	0.0004728	0.00023202	1288.2	3.8729e-06	5.8909e-06	1284.9	348.65	5.1261e-06	4.5832e-06	398.91	133.49	115.42	39.758	4.0236e-06	49.84	0.0006402	0.00063903	0.00017738	1320.8	6.9368e-06	6.8892e-06	1322.1	359.34	6.8744e-06	6.9947e-06	413.12	138.52	119.67	41.574	6.9598e-06	52.096	91.741	121.910	190.597	62.181	169.500	134.606	62.158	67.086	180.874	264.666	66.335	70.706	71.518	75.901	223.328	75.118	-8191	255	
874.672	1	1	0	0	0.12089	0.10462	0.13932	0.19201	0.10802	0.17136	0.15101	0.11841	0.14278	0.19544	0.17052	0.090131	0.032225	0.14124	0.051908	0.10082	-2.7708	-3.3187	-3.6042	-3.0625	-3.6813	-3.4458	-3.2896	-3.9562	-3.1833	-3.3583	-3.6208	-3.125	-3.7792	-3.4396	-3.0458	-3.9188	204.121	189.777	371.007	332.645	284.940	112.825	333.744	353.098	409.088	141.625	386.976	392.554	84.223	357.466	317.483	301.679	0.00097353	0.00034325	0.00019156	1283.7	4.9606e-06	1.031e-05	1285.3	349.49	9.6225e-06	3.2447e-06	398.57	133.99	115.25	39.956	6.1109e-06	49.658	0.00063232	0.00063017	0.00017608	1319.8	6.8992e-06	6.907e-06	1322.9	358.72	6.8894e-06	6.9507e-06	413.1	138.66	119.61	41.652	6.9326e-06	51.99	102.510	89.819	145.995	62.252	155.575	183.359	62.039	67.127	201.429	176.424	66.338	70.908	71.194	76.118	197.690	75.082	-8191	255	
874.743	1	1	0	0	0.20463	0.12527	0.0081487	0.10298	0.092365	0.038989	0.19921	0.080616	0.14913	0.23743	0.40403	0.15814	0.061568	0.10978	0.13421	0.078301	-2.8792	-3.1458	-3.6104	-3.2188	-3.3458	-3.5271	-3.0563	-3.7354	-3.2542	-3.1542	-3.7104	-3.1729	-3.5375	-3.6479	-2.8937	-3.7083	323.598	144.956	340.181	355.179	160.967	199.069	384.109	352.475	286.036	295.477	363.249	351.190	63.098	214.862	57.750	71.487	0.00087708	0.00052123	0.00012361	1276.4	6.557e-06	5.0596e-06	1284.6	348	7.3875e-06	6.793e-06	397.75	134.51	116.04	40.076	4.5401e-06	49.857	0.00062697	0.0006307	0.00017627	1318.5	6.8267e-06	6.7833e-06	1322.2	359.01	6.8477e-06	6.8908e-06	412.17	138.78	119.43	41.686	6.7937e-06	51.975	108.229	123.020	164.005	62.475	200.279	190.672	62.058	66.977	225.356	216.187	66.333	70.478	70.938	75.692	199.186	74.841	-8191	255	
874.864	1	1	0	0	0.034079	0.12531	0.041421	0.14194	0.28714	0.11173	0.114	0.21272	0.13643	0.092988	0.10938	0.17255	0.25208	0.32021	0.1309	0.13575	-2.8917	-3.0021	-3.55	-3.225	-3.3875	-3.5	-3.2188	-3.7521	-3.3792	-2.9625	-3.8375	-3.1562	-3.4542	-3.6188	-3.0104	-3.6771	283.311	180.683	150.908	80.380	239.940	394.322	80.080	372.796	82.771	287.441	89.850	310.089	408.215	369.909	404.944	335.131	0.00079393	0.00037272	7.7545e-05	1286.8	6.5742e-06	2.1191e-06	1290.4	349.15	6.3523e-06	3.0811e-06	400.9	135.36	116.2	39.815	4.2519e-06	49.793	0.00062996	0.00062666	0.00017332	1317.6	6.7845e-06	6.8067e-06	1320.4	358.96	6.735e-06	6.8437e-06	412.76	138.84	119.39	41.596	6.7773e-06	51.915	98.157	90.354	181.767	61.689	169.647	300.168	61.688	66.555	225.879	179.025	65.870	70.487	70.773	75.546	157.918	74.510	-8191	255	
874.960	1	1	0	0	0.0033158	0.14667	0.097659	0.10452	0.094848	0.076417	0.083595	0.25376	0.030533	0.10615	0.33636	0.084889	0.2967	0.18557	0.2834	0.086924	-3.0125	-3.0187	-3.7	-3.4292	-3.2417	-3.8729	-3.1833	-3.6042	-3.3417	-2.9875	-3.9896	-3.425	-3.2042	-3.7667	-3.1792	-3.5	406.268	404.154	248.392	64.212	375.249	329.249	302.332	321.670	190.963	252.046	331.396	78.757	348.247	403.214	184.998	294.450	0.00079904	0.00064593	0.00011845	1292.7	7.0241e-06	4.795e-06	1292.2	350.23	4.2631e-06	1.7895e-06	400.91	134.93	116.13	40.108	8.3398e-06	49.85	0.00061579	0.00062684	0.00017035	1319.2	6.7124e-06	6.8133e-06	1320.6	358.55	6.7357e-06	6.8255e-06	412.29	138.72	119.74	41.659	6.6972e-06	51.9	98.873	161.087	106.940	61.836	104.682	226.238	61.627	66.494	192.273	95.557	66.094	70.479	71.026	75.519	221.338	74.656	-8191	255	
875.056	1	1	0	0	0.21264	0.1584	0.16575	0.29757	0.070612	0.1779	0.25819	0.14286	0.061456	0.17218	0.1525	0.28362	0.22073	0.18122	0.17699	0.50306	-3.1792	-3.0146	-3.7083	-3.5687	-3.1625	-3.7229	-3.125	-3.6583	-3.6458	-3.1312	-3.5854	-3.3771	-3.2167	-3.8917	-3.1146	-3.4083	184.724	383.499	329.208	367.223	196.035	62.628	349.190	351.051	370.196	65.648	315.523	361.200	313.657	390.554	201.771	381.139	0.00078295	0.00036079	9.3173e-05	1288.5	4.1968e-06	7.8949e-06	1289	348.19	7.3539e-06	5.1752e-06	399.66	134.3	115.91	39.948	6.966e-06	49.666	0.0006206	0.00061751	0.00016884	1316.8	6.7329e-06	6.7182e-06	1319.1	358.49	6.6713e-06	6.7112e-06	412.04	138.39	119.44	41.57	6.4802e-06	51.907	104.262	172.286	118.953	62.086	189.702	212.173	61.542	66.631	202.184	148.591	66.223	70.620	71.248	75.822	225.124	74.526	-8191	255	
875.177	1	1	0	0	0.24781	0.18307	0.29263	0.0087786	0.21291	0.092377	0.29066	0.33621	0.13821	0.17697	0.022111	0.16849	0.22176	0.15205	0.13807	0.26281	-3.1896	-3.0625	-3.5896	-3.5938	-3.0687	-3.7188	-3.2083	-3.4604	-3.7062	-3.0479	-3.4479	-3.4729	-3.0625	-3.7875	-3.2854	-3.3292	95.585	323.979	349.762	353.900	251.508	65.600	326.582	316.405	62.202	106.254	387.116	376.349	370.865	337.759	241.688	310.348	0.00078002	0.00051652	0.00017347	1290.4	4.8898e-06	1.2885e-06	1292.3	348.68	3.3679e-06	3.47e-06	397.7	134.16	115.59	39.869	1.464e-06	49.874	0.00061301	0.00060428	0.00016578	1317.9	6.6082e-06	6.5758e-06	1320.6	357.97	6.6262e-06	6.578e-06	412.02	138.35	119.19	41.523	6.5724e-06	51.92	105.600	148.759	160.576	62.026	165.899	272.116	61.665	66.634	187.268	169.015	66.127	70.463	71.035	75.808	187.240	74.885	-8191	255	
875.273	1	1	0	0	0.15799	0.17244	0.1283	0.19983	0.12043	0.1158	0.059434	0.11384	0.047548	0.12678	0.23906	0.14832	0.053893	0.12337	0.10738	0.11756	-3.3812	-2.7958	-3.3583	-3.7292	-3.0563	-3.7875	-3.4375	-3.1937	-3.7021	-2.9688	-3.5542	-3.6458	-3.15	-3.6833	-3.3125	-3.3229	180.588	392.286	330.550	353.025	335.443	210.445	354.697	277.127	49.377	389.152	57.900	328.838	246.118	99.519	350.038	151.035	0.00080425	0.00057136	0.00014794	1281.8	5.7513e-06	6.5462e-06	1286.1	346.61	7.1652e-06	3.565e-06	399.45	133.87	115.69	39.896	6.7204e-06	49.782	0.00061022	0.00059926	0.00016652	1314.5	6.5625e-06	6.5969e-06	1317.6	357.71	6.5874e-06	6.5662e-06	412.11	138.07	119.37	41.527	6.562e-06	51.801	100.260	181.751	210.766	62.096	184.706	215.496	61.928	66.815	198.350	114.220	66.292	70.534	71.019	75.664	205.469	75.094	-8191	255	
875.367	1	1	0	0	0.22143	0.32012	0.16239	0.25643	0.11988	0.14916	0.16622	0.18228	0.16733	0.063262	0.042533	0.17388	0.0527	0.26841	0.17159	0.15135	-3.3	-3.1188	-3.4875	-3.8375	-3.0896	-3.5375	-3.5187	-3.3187	-3.7854	-3.0104	-3.4854	-3.7125	-3.0521	-3.6625	-3.4333	-2.9688	271.923	222.151	64.543	384.607	140.440	246.181	360.507	346.227	296.232	388.022	338.511	348.531	115.390	361.235	180.069	251.524	0.00083453	0.00056099	0.00012747	1279.3	6.8125e-06	5.2717e-06	1286.5	347.48	6.2033e-06	4.6444e-06	397.89	133.86	115.01	39.778	4.4184e-06	49.726	0.00060509	0.00059274	0.00016597	1312.9	6.5101e-06	6.5355e-06	1316.9	357.08	6.4461e-06	6.5104e-06	410.82	137.92	118.99	41.42	6.4555e-06	51.75	99.531	85.143	155.120	62.205	172.225	146.428	61.804	66.876	180.975	227.744	66.211	70.800	71.639	76.245	220.060	75.136	-8191	255	
875.439	1	1	0	0	0.10148	0.13748	0.25747	0.21147	0.12049	0.29465	0.13119	0.22003	0.41929	0.095778	0.31714	0.073861	0.14488	0.205	0.078419	0.18483	-3.3604	-3.0208	-3.2333	-3.7458	-3.05	-3.4104	-3.6312	-3.4708	-3.7917	-3.2875	-3.3125	-3.8312	-3.3187	-3.4125	-3.5083	-3.15	165.608	291.271	263.744	343.147	158.077	305.199	330.058	362.318	325.193	87.880	321.659	101.181	280.906	375.105	216.897	355.020	0.00085394	0.00013317	0.00031907	1274.5	8.0255e-06	7.8935e-06	1285.5	348.95	4.7696e-06	4.8019e-06	396.8	133.75	115.51	39.921	8.7331e-06	49.711	0.00059392	0.00059037	0.00016544	1310.6	6.4256e-06	6.5668e-06	1315.4	357.54	6.4809e-06	6.4934e-06	410.54	138.2	119.08	41.44	6.4374e-06	51.741	104.844	276.785	159.079	62.398	176.238	171.470	61.822	66.979	174.083	262.335	66.058	71.030	71.306	75.566	212.292	74.957	-8191	255	
875.560	1	1	0	0	0.17633	0.096224	0.071324	0.13446	0.065595	0.064248	0.32098	0.29418	0.12591	0.081062	0.055865	0.26626	0.17578	0.10127	0.17667	0.092158	-3.3042	-3.15	-3.1813	-3.8396	-3.0521	-3.5417	-3.7	-3.1104	-3.6979	-3.3229	-3.2146	-3.7188	-3.1813	-3.3937	-3.6167	-3.0687	386.469	131.996	314.410	327.971	336.689	190.372	328.456	351.766	303.655	185.740	204.108	395.012	329.518	336.065	78.634	356.519	0.00080235	0.00034782	7.3612e-05	1279	8.7062e-06	1.0158e-05	1280.7	347.57	3.0763e-06	6.8052e-06	396.75	133.72	115.63	39.823	5.495e-06	49.679	0.00060309	0.00059856	0.00016797	1312.8	6.541e-06	6.5916e-06	1314.1	357.71	6.4993e-06	6.5718e-06	410.44	138.01	118.95	41.409	6.5415e-06	51.778	91.993	224.306	219.908	62.153	187.063	199.871	62.077	66.815	188.508	244.764	66.489	70.556	71.408	75.872	208.617	74.866	-8191	255	
875.656	1	1	0	0	0.16024	0.093911	0.22989	0.22412	0.10009	0.093615	0.45006	0.2945	0.058918	0.078016	0.15224	0.23612	0.051289	0.19762	0.21102	0.2335	-3.1854	-3.2875	-3.0146	-3.7396	-2.9917	-3.1437	-3.8542	-3.2313	-3.5062	-3.3875	-3.2542	-3.8167	-3.2458	-3.4708	-3.4875	-3.1375	195.686	380.180	210.535	65.265	200.036	106.834	348.934	354.941	152.987	208.104	391.576	255.311	306.581	402.500	339.797	270.083	0.00078106	0.00057519	3.7057e-05	1280.1	4.8361e-06	6.1137e-06	1283.3	346.87	3.945e-06	7.3595e-06	397.38	134.14	114.74	39.791	2.5572e-06	49.242	0.00059775	0.00059868	0.00016889	1312.2	6.5283e-06	6.5906e-06	1315.3	357.25	6.506e-06	6.5367e-06	410.62	138.24	118.87	41.451	6.544e-06	51.663	92.753	168.770	139.756	62.478	176.956	206.604	62.092	67.061	161.269	163.299	66.282	70.664	71.268	76.111	218.677	75.316	-8191	255	
875.752	1	1	0	0	0.13438	0.39058	0.24327	0.21316	0.10624	0.14762	0.24466	0.10821	0.053925	0.19454	0.27717	0.20428	0.086867	0.16594	0.15177	0.015199	-3.2125	-3.4729	-3	-3.7917	-3.1792	-3.2917	-3.8167	-3.1021	-3.3875	-3.5479	-3.2062	-3.6917	-3.3896	-3.0271	-3.8042	-3.1104	198.154	333.858	165.533	349.728	353.765	277.389	334.406	394.309	304.741	255.471	387.025	347.089	215.645	56.716	204.700	179.127	0.00094866	0.00076588	3.4928e-05	1277.6	9.4157e-06	7.1232e-06	1277.1	345.84	2.6108e-06	4.6945e-06	395.84	133.67	114.62	39.717	6.0465e-06	49.446	0.00059666	0.00059507	0.00016804	1311.5	6.4861e-06	6.6021e-06	1315.5	356.9	6.5065e-06	6.4998e-06	410.45	138.14	118.81	41.432	6.4958e-06	51.709	99.564	141.028	117.443	62.398	204.237	211.015	62.079	67.141	108.195	221.400	66.550	70.873	71.625	75.924	174.449	75.396	-8191	255	
875.848	1	1	0	0	0.18627	0.032577	0.14999	0.20515	0.24471	0.18354	0.27305	0.036225	0.17068	0.23383	0.22879	0.23306	0.096954	0.072423	0.088471	0.028978	-3.1188	-3.5792	-2.9583	-3.6896	-3.3042	-3.2	-3.925	-3.2438	-3.3542	-3.6542	-3.1042	-3.6625	-3.5042	-3.0083	-3.5062	-3.2104	280.996	338.015	186.370	308.847	124.974	139.730	339.177	270.621	226.695	168.937	50.635	117.804	374.508	396.481	89.201	399.500	0.00088944	0.00064088	0.00018363	1269.2	4.6321e-06	4.5007e-06	1277.4	345.02	6.1766e-06	2.3926e-06	395.01	133.36	114.99	39.47	6.5659e-06	49.314	0.00060636	0.00059523	0.00016592	1310.3	6.5166e-06	6.5609e-06	1315	356.62	6.5549e-06	6.5548e-06	410.35	138	118.98	41.375	6.5283e-06	51.731	94.138	122.895	131.344	62.562	178.747	188.736	62.405	67.315	171.010	116.204	66.605	71.021	71.872	76.042	200.861	75.315	-8191	255	
875.969	1	1	0	0	0.12061	0.087127	0.13496	0.096825	0.084979	0.088626	0.38038	0.22578	0.066885	0.14046	0.14162	0.081537	0.22295	0.09626	0.068705	0.057623	-3.1542	-3.6688	-2.9688	-3.6625	-3.4354	-3.2083	-3.7917	-3.3271	-3.1646	-3.5896	-3.125	-3.525	-3.4646	-3.0771	-3.7604	-3.2479	78.919	313.142	233.519	406.931	211.185	335.738	305.319	134.883	328.951	390.669	351.223	196.255	392.225	363.966	222.226	253.189	0.00081139	0.00045768	0.00013276	1272.7	7.5635e-06	4.9063e-06	1283.1	347.34	7.8042e-06	2.4006e-06	396.3	134.42	115.93	39.778	6.5652e-06	49.839	0.00060509	0.00060082	0.00016629	1308.3	6.5235e-06	6.6507e-06	1314.4	357.2	6.5213e-06	6.5372e-06	410.04	138.05	119.05	41.426	6.5157e-06	51.703	101.401	242.940	171.261	62.167	174.955	255.365	62.225	66.698	211.253	248.776	66.239	70.694	71.051	75.318	173.930	74.901	-8191	255	
876.041	1	1	0	0	0.39292	0.16405	0.16608	0.26953	0.23704	0.055118	0.13498	0.17903	0.098593	0.17351	0.26977	0.078286	0.080287	0.26305	0.26697	0.17816	-2.9021	-3.6375	-2.8417	-3.5292	-3.4813	-2.975	-3.7479	-3.4125	-3.1396	-3.6167	-3.1729	-3.4938	-3.6917	-3.1437	-3.4479	-3.3458	148.211	49.359	90.668	404.299	180.654	287.567	348.068	377.287	129.555	124.503	77.569	325.616	293.373	67.854	167.769	402.252	0.00084535	0.00051429	0.00026008	1280.2	4.3359e-06	2.4527e-06	1283.4	346.77	3.9977e-06	4.6726e-06	399.33	134.51	115.75	39.782	8.2012e-06	49.604	0.00060209	0.00059343	0.00016614	1310.6	6.46e-06	6.5635e-06	1313.2	356.77	6.5399e-06	6.5714e-06	410.43	138.09	119.23	41.393	6.4814e-06	51.64	105.787	157.996	156.628	62.153	172.029	203.739	61.632	66.953	183.532	203.654	66.136	70.482	71.321	75.378	191.417	74.909	-8191	255	
876.137	1	1	0	0	0.043291	0.083605	0.10501	0.25044	0.015425	0.19464	0.16323	0.27966	0.016263	0.15771	0.065417	0.40986	0.15069	0.15645	0.13191	0.31945	-2.725	-3.5229	-3.0646	-3.2583	-3.6167	-2.9396	-3.85	-3.4792	-3.0938	-3.7167	-3.2333	-3.0792	-3.7167	-3.0854	-3.4958	-3.5062	154.701	122.201	78.636	359.362	288.999	332.586	312.193	379.474	132.960	193.059	337.887	387.844	56.105	336.450	386.411	163.490	0.00081535	2.7639e-05	9.6735e-05	1280.9	6.7975e-06	5.7467e-06	1278.9	347.02	8.3852e-06	1.9739e-06	397.16	133.84	115.11	39.722	5.1764e-06	49.657	0.00060428	0.00059113	0.00016487	1309.9	6.5234e-06	6.5411e-06	1314.3	357.1	6.5644e-06	6.5647e-06	409.99	138.05	119.03	41.322	6.5346e-06	51.665	98.406	258.470	178.369	62.100	144.596	208.424	62.189	66.990	183.091	244.185	66.337	70.684	71.414	75.860	255.327	74.764	-8191	255	
876.257	1	1	0	0	0.12101	0.2175	0.067274	0.37287	0.27211	0.082721	0.61186	0.06745	0.30359	0.090339	0.13755	0.016464	0.19955	0.096563	0.21223	0.061771	-2.6875	-3.7396	-3.1542	-3.3521	-3.6458	-2.9229	-3.6417	-3.7812	-2.9208	-3.7438	-3.3792	-3.3	-3.6375	-3.0896	-3.4479	-3.75	352.487	345.875	151.168	363.069	153.475	64.296	334.631	329.736	52.197	386.725	372.965	368.740	346.945	396.947	357.786	245.740	0.00065101	0.00037203	8.7825e-05	1273.9	1.5397e-05	6.3478e-06	1283.7	347.2	7.0312e-06	9.5792e-06	397.02	134.63	115.68	39.826	4.6777e-06	49.765	0.00060277	0.00060179	0.0001671	1310.9	6.5749e-06	6.5491e-06	1314.6	356.95	6.544e-06	6.5373e-06	409.95	138.09	119.12	41.377	6.5322e-06	51.707	91.168	190.028	89.605	61.995	187.376	249.283	61.962	66.870	217.346	162.314	66.018	70.551	71.090	75.709	188.858	74.816	-8191	255	
876.352	1	1	0	0	0.032326	0.083963	0.19475	0.37623	0.023266	0.17781	0.21666	0.26573	0.19678	0.21386	0.1451	0.22082	0.2035	0.12594	0.084751	0.0209	-2.6958	-3.5625	-3.2542	-3.1375	-3.7208	-3.2583	-3.5292	-3.7812	-3.0771	-3.6292	-3.6167	-3.2896	-3.6437	-3.275	-3.3167	-3.8375	384.340	125.135	240.082	396.027	275.577	91.986	389.681	382.931	115.389	343.658	180.789	296.962	256.352	65.060	301.293	253.630	0.00082298	0.00058455	0.00010765	1282.5	8.869e-06	6.3349e-06	1284.6	348.18	4.4616e-06	2.2996e-06	396.97	134.66	115.48	39.626	6.2713e-06	49.674	0.00060687	0.00059561	0.00016786	1313.3	6.5631e-06	6.5989e-06	1314.7	357.2	6.5766e-06	6.5897e-06	410.82	138.19	119.04	41.38	6.6654e-06	51.81	94.321	94.171	155.032	61.937	176.819	204.478	61.683	66.742	157.861	236.734	65.907	70.399	71.127	75.558	188.681	75.011	-8191	255	
876.448	1	1	0	0	0.26318	0.17427	0.16803	0.1235	0.13369	0.12399	0.12479	0.27549	0.23404	0.10453	0.20556	0.1409	0.092775	0.39734	0.21773	0.15201	-2.6063	-3.6125	-3.4625	-3.1979	-3.7125	-3.0917	-3.4208	-3.6833	-3.0042	-3.4437	-3.6333	-3.0208	-3.5875	-3.2771	-3.2812	-3.6312	98.000	181.892	237.508	220.164	129.902	383.282	357.792	353.145	338.531	129.638	351.337	267.084	187.676	65.673	129.163	317.274	0.0007277	0.00031422	0.00010744	1285.7	4.64e-06	5.4872e-06	1283.2	349.22	3.2832e-06	2.7748e-06	397.57	134.2	115.52	40.122	6.7118e-06	49.689	0.0006157	0.00060559	0.00016671	1313.6	6.5522e-06	6.6462e-06	1314.6	358.23	6.6263e-06	6.6974e-06	410.45	138.1	119.15	41.493	6.5964e-06	51.754	98.520	137.622	233.507	61.799	187.106	208.933	61.780	66.820	192.887	131.669	66.109	70.358	70.755	75.606	265.531	74.548	-8191	255	
876.544	1	1	0	0	0.37696	0.22539	0.091414	0.31956	0.17943	0.17229	0.20879	0.087228	0.24636	0.1609	0.14986	0.2755	0.37643	0.19461	0.099981	0.12647	-2.6125	-3.4188	-3.5729	-3.0687	-3.6833	-3.4646	-3.3187	-3.8979	-3.1063	-3.3375	-3.6167	-2.9771	-3.5104	-3.2458	-3.1875	-3.8104	158.726	276.713	226.266	361.619	95.516	246.796	380.316	164.985	143.378	54.762	164.761	88.065	356.144	70.666	332.064	367.023	0.0008326	0.00051788	9.2441e-05	1279.7	4.5984e-06	5.7744e-06	1285.1	346.13	3.7533e-06	4.2263e-06	399.87	134.3	115.61	39.933	7.3336e-06	49.745	0.00060995	0.00060187	0.00016621	1312.2	6.5337e-06	6.6245e-06	1315.6	356.97	6.6112e-06	6.6161e-06	411	138.09	118.92	41.466	6.55e-06	51.728	100.733	179.565	215.023	61.934	174.926	175.725	61.802	66.865	204.399	108.478	66.391	70.393	70.847	75.515	219.178	74.888	-8191	255	
876.640	1	1	0	0	0.11056	0.15975	0.29144	0.1185	0.1544	0.11026	0.31316	0.25676	0.1499	0.16205	0.24907	0.27683	0.23159	0.18821	0.24684	0.23952	-2.7875	-3.4208	-3.5958	-3.1	-3.6271	-3.4313	-3.3937	-3.7188	-3.2562	-3.4437	-3.6375	-3.0667	-3.5438	-3.5146	-3.0125	-3.8875	311.050	51.730	99.207	391.406	128.424	150.145	341.271	323.429	294.756	124.424	49.286	67.569	169.271	338.152	222.804	292.129	0.00079534	0.00025802	4.456e-05	1277	8.9601e-06	3.1246e-06	1281.1	348.58	7.5565e-06	4.1796e-06	398.2	133.92	115.52	39.88	5.2326e-06	49.805	0.00060585	0.00060181	0.00016696	1310.3	6.5318e-06	6.5455e-06	1313.5	357.32	6.5038e-06	6.5675e-06	410.5	138	118.98	41.41	6.6078e-06	51.702	95.269	127.553	239.221	61.928	97.277	110.468	62.087	67.015	177.474	199.248	66.035	70.394	70.722	75.606	192.857	74.630	-8191	255	
876.736	1	1	0	0	0.16857	0.075736	0.13746	0.061657	0.16709	0.039835	0.1478	0.137	0.18611	0.13601	0.27249	0.26705	0.24025	0.22831	0.085963	0.05336	-2.7583	-3.0917	-3.4125	-3.1229	-3.6063	-3.5708	-3.1958	-3.6708	-3.1104	-3.2979	-3.8354	-3.2	-3.3667	-3.7729	-2.9125	-3.75	89.861	207.361	202.838	406.274	179.196	390.818	346.029	404.072	245.120	205.480	357.990	343.981	68.402	66.100	290.332	324.535	0.00088303	0.00017117	8.6709e-05	1281.2	5.6467e-06	3.5815e-06	1287.1	347.85	1.3445e-06	1.2097e-06	398.95	133.72	115.89	39.877	1.7182e-06	49.998	0.00060151	0.00060503	0.00016497	1309.8	6.5258e-06	6.5438e-06	1314.2	357.05	6.5304e-06	6.5635e-06	411.28	137.88	119.19	41.415	6.488e-06	51.837	92.918	116.257	99.166	62.031	137.915	208.495	61.616	66.785	258.628	251.610	65.899	70.429	70.794	75.751	225.512	74.636	-8191	255	
876.857	1	1	0	0	0.17244	0.099477	0.085019	0.2176	0.089415	0.10595	0.25966	0.11941	0.058677	0.19111	0.14002	0.23316	0.22885	0.17412	0.12003	0.42733	-2.8208	-3.1	-3.7062	-3.0917	-3.2479	-3.6083	-3.0875	-3.8125	-3.4333	-3.1833	-3.8104	-3.3875	-3.3438	-3.7938	-3.0417	-3.5	89.371	241.760	141.343	305.690	257.841	400.605	346.845	52.512	96.352	128.946	65.883	64.623	124.035	78.329	307.000	341.601	0.00076482	0.00045817	4.7666e-05	1284.7	4.1575e-06	2.8369e-06	1289	348.25	6.7882e-06	5.1593e-06	399.72	134.17	116.13	40.032	4.5578e-06	49.652	0.00060201	0.00060288	0.0001648	1312.5	6.4335e-06	6.5024e-06	1316.5	357.17	6.5845e-06	6.5455e-06	411.35	138.09	119.26	41.515	6.4992e-06	51.679	96.219	130.958	96.073	61.688	167.277	389.806	61.405	66.553	170.907	212.143	65.942	70.201	71.037	75.564	184.631	74.375	-8191	255	
876.953	1	1	0	0	0.11917	0.23492	0.085519	0.38572	0.11429	0.16815	0.30171	0.24299	0.066369	0.045218	0.08583	0.15711	0.077131	0.037651	0.14166	0.17095	-3.0312	-3.1583	-3.5958	-3.3417	-3.3187	-3.8521	-3.0604	-3.6646	-3.4979	-3.2042	-3.6937	-3.3021	-3.3833	-3.8167	-2.8771	-3.4542	250.639	134.388	250.156	394.663	288.368	233.885	407.648	360.436	262.752	111.651	110.981	370.540	98.296	230.951	316.240	305.063	0.00083235	0.00048839	0.00012725	1279.2	4.009e-06	6.8561e-06	1282.1	346.46	5.6535e-06	5.769e-06	395.98	132.95	114.83	39.7	5.7891e-06	49.511	0.00059437	0.00060061	0.00016525	1310.6	6.4572e-06	6.4246e-06	1312.8	356.38	6.4595e-06	6.4663e-06	410.16	137.84	118.81	41.368	6.5006e-06	51.629	105.660	160.888	152.209	61.990	173.429	208.232	61.765	66.974	188.768	222.072	66.858	70.624	71.255	75.732	222.129	74.969	-8191	255	
877.049	1	1	0	0	0.09203	0.093613	0.14382	0.17536	0.10692	0.099873	0.28446	0.26231	0.12175	0.17646	0.34153	0.1377	0.051208	0.24445	0.0060662	0.26035	-3.2958	-3.1292	-3.575	-3.4396	-3.1125	-3.7167	-3.5104	-3.5854	-3.4354	-2.8917	-3.7625	-3.4604	-3.2271	-3.7167	-3.0875	-3.4646	339.061	167.727	258.599	391.189	401.745	198.190	307.177	373.941	251.814	208.428	403.257	392.687	94.476	329.547	341.199	354.435	0.00081227	0.00056024	0.00010804	1274.7	4.2954e-06	3.8319e-06	1277.5	347.68	6.0106e-06	7.1975e-06	396.54	134.02	115.68	39.931	1.3855e-06	49.993	0.00060187	0.00059002	0.00016497	1309.9	6.5274e-06	6.4459e-06	1312.7	357.1	6.5016e-06	6.496e-06	409.68	137.95	118.97	41.4	6.4526e-06	51.809	90.257	134.223	158.682	62.317	172.063	231.656	62.317	66.954	242.805	210.127	66.232	70.410	71.022	75.520	282.683	74.550	-8191	255	
877.145	1	1	0	0	0.031301	0.11037	0.047154	0.33775	0.32501	0.028721	0.113	0.12912	0.1399	0.19616	0.266	0.17801	0.19754	0.22267	0.15874	0.24176	-3.0375	-3.0875	-3.675	-3.5729	-3.1375	-3.5896	-3.3104	-3.3063	-3.4646	-2.9854	-3.6021	-3.5333	-3.2521	-3.7	-3.2646	-3.3937	237.417	262.292	257.151	403.886	213.647	255.175	76.952	360.136	166.499	208.075	311.963	367.457	371.738	60.215	150.653	265.778	0.00083437	0.00026573	0.00016975	1281.1	5.376e-06	4.2942e-06	1284.7	348.03	7.4942e-06	8.8222e-06	398.3	133.97	115.31	39.853	1.4237e-06	49.626	0.00059876	0.00058735	0.00016593	1311.7	6.5117e-06	6.5232e-06	1313.7	356.97	6.5011e-06	6.488e-06	410.41	137.87	118.78	41.361	6.5308e-06	51.6	97.009	171.664	165.387	61.881	217.302	170.923	61.572	66.732	172.249	223.222	66.114	70.495	71.015	75.802	336.890	74.453	-8191	255	
877.266	1	1	0	0	0.13303	0.23765	0.19694	0.069462	0.23805	0.055993	0.23209	0.18988	0.25561	0.1641	0.29354	0.2721	0.1029	0.20999	0.11219	0.17248	-3.2708	-2.9396	-3.5604	-3.8083	-3.1854	-3.7833	-3.5083	-3.3937	-3.5458	-2.9938	-3.5292	-3.4896	-3.2292	-3.8417	-3.2271	-3.0375	101.322	259.400	251.306	334.912	186.027	395.317	345.831	347.460	147.325	186.515	395.640	406.827	49.429	395.506	108.009	364.514	0.00082027	0.00062463	0.00020248	1279.7	1.3441e-06	4.8446e-06	1279.2	344.86	1.0572e-05	5.2156e-06	395.85	133.42	115	39.76	6.499e-06	49.29	0.00059984	0.00059624	0.00016701	1309.8	6.5167e-06	6.5061e-06	1311.8	356.08	6.5813e-06	6.5083e-06	410.55	137.72	118.9	41.369	6.5463e-06	51.524	102.063	211.357	177.371	62.019	398.397	201.777	61.897	66.864	218.177	188.874	66.433	70.876	71.337	75.961	230.987	75.191	-8191	255	
877.338	1	1	0	0	0.11016	0.063082	0.16926	0.17122	0.19465	0.14816	0.17002	0.13152	0.081061	0.13334	0.094272	0.21812	0.087097	0.12409	0.041532	0.098398	-3.3292	-3.0396	-3.2812	-3.5812	-3.0979	-3.5646	-3.4542	-3.1458	-3.6292	-3.1854	-3.3604	-3.7917	-3.0333	-3.5917	-3.475	-3.1333	287.516	367.453	67.456	60.440	95.951	236.511	297.390	335.602	260.464	305.173	188.489	130.968	334.252	63.867	283.686	112.404	0.00092255	0.00027289	6.4916e-05	1274.6	4.6322e-06	6.512e-07	1279.2	346.93	9.6288e-06	3.6399e-06	396.05	133.58	115.22	39.667	8.4711e-07	49.492	0.00060629	0.00060344	0.00016629	1309.6	6.5079e-06	6.5373e-06	1313.5	356.84	6.5275e-06	6.5215e-06	409.83	137.87	118.6	41.37	6.4976e-06	51.578	101.417	154.192	192.626	62.425	143.752	123.052	62.048	66.901	176.008	194.330	66.580	71.098	71.111	75.682	183.557	74.809	-8191	255	
877.434	1	1	0	0	0.10585	0.19664	0.1293	0.20382	0.21048	0.077629	0.18579	0.18058	0.065779	0.11585	0.25576	0.14763	0.18714	0.13295	0.21621	0.13782	-3.3125	-2.9292	-3.2521	-3.7833	-3.0979	-3.5208	-3.65	-3.2208	-3.6729	-3.2396	-3.4083	-3.725	-3.0687	-3.7062	-3.3583	-3.0271	404.597	103.013	376.555	309.912	385.940	70.592	370.746	382.272	368.508	354.758	399.807	326.303	407.770	391.095	313.875	144.833	0.0009175	0.00067084	0.00022376	1277	6.1427e-06	7.3494e-06	1278.6	347	1.3505e-06	2.5097e-06	395.23	134.05	115.36	39.7	4.7089e-06	49.669	0.0006018	0.00059733	0.00016727	1310.4	6.5516e-06	6.502e-06	1311.4	356.92	6.4969e-06	6.546e-06	409.72	137.95	118.74	41.348	6.6076e-06	51.633	96.909	167.887	142.401	62.294	224.806	204.948	62.146	66.756	137.389	160.963	66.477	70.867	71.273	75.584	230.270	74.748	-8191	255	
877.528	1	1	0	0	0.18179	0.2336	0.35815	0.27625	0.03782	0.22514	0.21376	0.11863	0.22748	0.17194	0.13432	0.075926	0.20581	0.1551	0.13134	0.2385	-3.1125	-3.2667	-3.0896	-3.8042	-3.0875	-3.3167	-3.6813	-3.1	-3.8458	-3.1604	-3.0917	-3.8021	-3.1688	-3.4813	-3.6229	-3.0687	406.128	169.659	265.401	73.283	229.475	218.106	311.311	306.840	199.370	300.740	350.096	391.803	94.417	250.339	97.559	372.568	0.00073538	0.00081762	0.00021104	1282.1	4.4217e-06	2.835e-06	1289.3	348.74	3.9183e-06	3.8104e-06	398.54	134.28	115.35	39.644	3.0168e-06	49.342	0.00060319	0.00060361	0.00016771	1309	6.5919e-06	6.5699e-06	1314.6	357.17	6.5723e-06	6.5562e-06	410.69	138.1	118.92	41.348	6.5811e-06	51.6	103.033	129.317	115.302	62.103	131.572	150.356	61.540	66.482	228.744	177.418	65.826	70.171	71.079	75.623	143.682	74.824	-8191	255	
877.649	1	1	0	0	0.12708	0.23332	0.080702	0.17615	0.19706	0.32053	0.12363	0.32719	0.18839	0.095302	0.21857	0.046093	0.12229	0.20713	0.18795	0.15465	-3.2729	-3.225	-2.8688	-3.7771	-3.1583	-3.4146	-3.875	-3.1083	-3.5271	-3.4417	-3.0938	-3.6813	-3.1292	-3.2083	-3.5792	-3.075	281.766	282.616	119.720	115.455	386.353	131.519	382.022	368.879	382.420	69.757	53.286	366.099	339.907	342.964	72.838	293.194	0.00078053	0.00052635	0.00015108	1283.2	5.2738e-06	3.3138e-06	1285.7	347.4	6.3745e-06	5.5303e-06	397.46	133.91	115.25	39.78	7.3339e-06	49.67	0.00060646	0.00059618	0.00016733	1312.3	6.5532e-06	6.5591e-06	1313.5	356.76	6.4528e-06	6.5821e-06	409.97	137.95	118.96	41.409	6.5529e-06	51.566	97.671	126.774	125.218	62.039	200.378	234.505	61.905	66.651	191.709	231.935	66.158	70.356	71.379	75.870	211.852	75.000	-8191	255	
877.745	1	1	0	0	0.14529	0.042142	0.10705	0.025001	0.28983	0.084969	0.2568	0.11489	0.22691	0.17756	0.31175	0.16877	0.19928	0.070385	0.24462	0.21123	-3.0271	-3.3396	-3.0708	-3.8771	-3.1417	-3.1937	-3.7438	-3.0792	-3.3812	-3.5417	-3.0771	-3.7438	-3.2896	-3.2708	-3.6958	-3.2208	220.557	331.865	88.508	148.737	358.455	178.890	390.169	280.498	301.401	62.572	130.001	385.301	358.989	372.136	186.128	313.272	0.00083261	0.00060042	0.00012207	1272.5	7.0282e-06	4.3905e-06	1281.7	348.38	6.4398e-06	2.112e-06	396.81	134.02	115.24	39.564	1.0398e-05	49.38	0.00060137	0.00059912	0.00016564	1308.2	6.5002e-06	6.5524e-06	1312.8	357.14	6.5342e-06	6.5687e-06	409.55	137.84	118.6	41.279	6.5076e-06	51.514	94.308	131.121	176.399	62.321	164.172	183.915	61.988	66.747	199.642	227.467	66.139	70.708	71.241	75.642	217.177	75.144	-8191	255	
877.841	1	1	0	0	0.13055	0.12223	0.075345	0.38646	0.16292	0.12595	0.11172	0.13187	0.32464	0.26859	0.13608	0.083593	0.065518	0.10459	0.040986	0.080701	-3.1104	-3.5021	-2.9458	-3.7687	-3.1063	-3.0667	-3.8104	-3.2104	-3.3125	-3.6063	-3.0292	-3.7854	-3.4521	-3.1917	-3.7875	-3.3083	381.802	52.495	183.679	365.169	387.274	78.584	391.228	64.918	353.557	226.074	379.993	329.395	237.997	71.704	196.198	280.132	0.00079672	0.00056891	9.7563e-05	1275	1.0204e-05	3.1508e-06	1281.6	346.52	2.5974e-06	3.9757e-06	398.97	134.26	115.25	39.748	3.9267e-06	49.763	0.00059741	0.00059788	0.00016558	1309.1	6.4584e-06	6.5384e-06	1312.8	356.28	6.5101e-06	6.4577e-06	409.88	137.59	118.79	41.287	6.4654e-06	51.635	102.394	148.074	133.614	62.191	158.221	193.359	61.986	66.979	200.811	211.591	65.783	70.269	70.951	75.509	245.295	74.449	-8191	255	
877.937	1	1	0	0	0.067715	0.22704	0.14847	0.14725	0.049093	0.18148	0.14714	0.19958	0.13301	0.19042	0.3118	0.12816	0.11853	0.14408	0.21404	0.061875	-2.7583	-3.5958	-2.9417	-3.8271	-3.4542	-3.1125	-3.7292	-3.275	-3.1479	-3.8167	-3.1125	-3.6875	-3.5271	-3.2	-3.7333	-3.2271	198.164	290.249	327.977	308.932	163.629	158.123	275.194	296.551	207.247	347.190	125.160	199.848	371.045	131.391	224.280	96.042	0.00079395	0.00062371	0.00011882	1277.4	4.2808e-06	4.0963e-06	1278.9	346.98	4.7944e-06	3.3093e-06	396.15	133.32	114.9	39.516	2.4653e-06	49.414	0.00060497	0.00059087	0.00016661	1310.1	6.4943e-06	6.5292e-06	1311.3	356.82	6.5293e-06	6.4997e-06	409.61	137.93	118.7	41.31	6.472e-06	51.556	99.328	172.244	174.076	62.144	127.994	206.341	61.948	66.916	145.982	247.340	66.162	70.738	71.406	75.829	194.867	75.062	-8191	255	
878.033	1	1	0	0	0.24312	0.12216	0.1273	0.273	0.14314	0.13761	0.21264	0.24126	0.10329	0.07596	0.079376	0.21171	0.1306	0.28855	0.15371	0.20566	-2.9333	-3.65	-3.0563	-3.5771	-3.5687	-3.0854	-3.8375	-3.4625	-3.1167	-3.5271	-3.1875	-3.5208	-3.6125	-3.0792	-3.7771	-3.5208	119.167	272.365	353.318	338.942	142.516	157.722	53.420	371.803	52.489	204.213	395.086	238.855	63.258	75.281	356.169	351.094	0.00085	0.0006464	0.00020544	1276.6	8.733e-06	5.281e-06	1271.8	345.35	7.9481e-06	4.9881e-06	396.47	133.91	114.66	39.513	1.7957e-06	49.303	0.00060123	0.0005918	0.00016683	1309.9	6.463e-06	6.5387e-06	1310.4	355.9	6.5272e-06	6.5441e-06	409.74	137.77	118.57	41.314	6.6146e-06	51.545	103.205	140.699	185.167	62.034	141.358	187.992	62.280	66.855	184.083	206.806	66.392	70.684	71.333	75.913	209.136	74.888	-8191	255	
878.130	1	1	0	0	0.052181	0.082323	0.14538	0.090313	0.25838	0.13564	0.16244	0.25806	0.12522	0.13788	0.13951	0.081904	0.17427	0.24421	0.13694	0.050631	-2.8292	-3.6667	-2.9833	-3.4604	-3.5917	-3.0021	-3.6896	-3.3604	-3.2104	-3.7583	-3.1604	-3.3729	-3.8917	-3.1562	-3.5375	-3.6104	143.559	102.436	206.253	190.020	294.716	65.123	346.628	375.536	229.824	98.296	265.720	385.091	381.448	102.795	396.194	267.120	0.00072639	0.00058657	9.1906e-05	1272.2	8.8912e-06	5.6058e-06	1273.8	345.37	7.8317e-06	5.5962e-06	395.41	132.85	114.94	39.765	8.982e-06	49.462	0.00060306	0.0005955	0.00016585	1307.2	6.549e-06	6.5659e-06	1311	356.58	6.5345e-06	6.5452e-06	409.61	137.41	118.71	41.323	6.4669e-06	51.553	100.158	143.232	168.320	62.277	141.265	163.721	62.195	67.302	198.831	130.231	66.774	70.916	71.634	76.266	206.589	74.955	-8191	255	
878.226	1	1	0	0	0.085575	0.083167	0.22036	0.21716	0.17614	0.14769	0.25253	0.26151	0.11619	0.050452	0.19218	0.15009	0.030062	0.078514	0.10735	0.23312	-2.5458	-3.7917	-3.2646	-3.5062	-3.5354	-3.1479	-3.4771	-3.6542	-3.1375	-3.5	-3.4292	-3.3771	-3.6833	-3.1083	-3.3375	-3.5687	282.884	368.079	175.036	343.441	244.497	246.619	329.206	337.981	239.455	114.412	346.023	105.671	342.372	194.225	403.422	356.933	0.00086099	0.0006609	0.00013295	1273.8	8.4695e-06	5.0805e-06	1278.1	346.63	7.8395e-06	1.3084e-06	396.24	132.87	114.75	39.478	3.1135e-06	49.586	0.00060954	0.00059421	0.00016866	1307.3	6.4598e-06	6.52e-06	1313	356.61	6.5565e-06	6.5333e-06	409.3	137.59	118.81	41.257	6.5516e-06	51.606	100.122	141.910	208.279	62.334	177.136	215.052	61.811	67.027	203.313	287.086	66.478	70.851	71.365	75.953	131.767	75.112	-8191	255	
878.346	1	1	0	0	0.2625	0.081712	0.14843	0.093307	0.10656	0.15771	0.026056	0.20221	0.1522	0.029548	0.14644	0.07192	0.16293	0.20604	0.02298	0.068299	-2.6292	-3.5583	-3.3292	-3.2458	-3.6979	-3.1188	-3.6021	-3.7938	-2.7542	-3.5458	-3.3708	-3.2	-3.7958	-3.1979	-3.2667	-3.6104	280.345	235.370	146.449	370.078	75.597	295.877	335.092	381.627	379.070	95.946	345.595	100.395	356.896	273.427	231.702	300.118	0.00081606	0.00024708	0.00014753	1276.2	5.627e-06	6.8204e-06	1276.1	346.72	2.7394e-06	3.8466e-06	396.26	132.68	114.64	39.511	5.2731e-06	49.5	0.00060424	0.0005938	0.00016599	1309.2	6.5112e-06	6.5322e-06	1311.7	356.53	6.4724e-06	6.5368e-06	409.19	137.65	118.71	41.226	6.533e-06	51.528	100.009	191.206	168.932	62.373	195.949	251.041	62.050	67.240	195.713	173.663	66.408	70.670	71.499	75.780	193.378	75.123	-8191	255	
878.441	1	1	0	0	0.15918	0.11386	0.084527	0.21141	0.2097	0.2343	0.30893	0.16138	0.13119	0.11489	0.25855	0.043236	0.14017	0.039367	0.13975	0.22806	-2.5792	-3.575	-3.4604	-3.2125	-3.7083	-3.2417	-3.5042	-3.7208	-3.0938	-3.5479	-3.6667	-3.0312	-3.8333	-3.2938	-3.15	-3.6646	246.288	360.039	294.966	400.191	192.561	196.654	347.732	318.218	199.906	380.554	52.194	180.606	372.322	366.322	65.997	359.029	0.00085585	0.00060469	0.00020579	1270.6	6.321e-06	2.7605e-06	1280.8	345.83	7.8826e-06	4.4729e-06	397.64	133.93	114.87	39.512	7.8448e-06	49.17	0.00060966	0.00059403	0.00016761	1306.6	6.5301e-06	6.5263e-06	1310.6	356.43	6.5032e-06	6.4881e-06	410.12	137.61	118.76	41.257	6.5471e-06	51.528	93.453	117.588	154.914	62.333	138.670	220.360	62.128	67.373	208.000	226.712	66.535	70.704	71.344	75.942	257.415	74.930	-8191	255	
878.537	1	1	0	0	0.1169	0.14677	0.080287	0.09392	0.16814	0.12791	0.080115	0.31421	0.19008	0.32612	0.065889	0.030798	0.12517	0.3644	0.25977	0.14015	-2.6	-3.3792	-3.4688	-3.025	-3.7521	-3.2542	-3.2729	-3.8833	-3.0083	-3.325	-3.7375	-3.2333	-3.6063	-3.3583	-3.1917	-3.6458	79.598	78.930	63.488	328.332	399.279	189.176	378.414	371.437	251.843	109.024	306.147	336.056	356.304	380.098	301.796	377.412	0.00086179	0.00052062	0.00012622	1276	4.275e-06	5.3059e-06	1271.7	346.25	5.4594e-06	7.3904e-06	398.03	132.72	115.07	39.675	3.6386e-06	49.498	0.00059939	0.00059358	0.00016514	1307.4	6.4617e-06	6.4776e-06	1309.1	356.59	6.4921e-06	6.4985e-06	409.5	137.29	118.66	41.298	6.3964e-06	51.543	104.055	166.411	185.897	62.187	219.696	233.747	62.079	67.201	207.952	205.687	66.363	70.880	71.461	75.841	240.180	74.725	-8191	255	
878.633	1	1	0	0	0.3102	0.19419	0.074232	0.16309	0.12381	0.33205	0.25915	0.10449	0.17548	0.051841	0.29106	0.2621	0.1877	0.070288	0.03195	0.16727	-2.6708	-3.2479	-3.5729	-3.0708	-3.6104	-3.4271	-3.2104	-3.8625	-3.0917	-3.2917	-3.7812	-3.1667	-3.5292	-3.325	-3.0563	-3.8125	303.134	211.355	267.160	108.343	151.997	357.460	305.794	393.051	291.896	56.836	335.958	301.900	194.831	408.863	390.509	247.443	0.00087146	0.00045709	0.0002221	1279.7	7.4096e-06	8.0862e-06	1280	345.83	4.8875e-06	1.4058e-06	396.03	133.61	114.59	39.462	7.794e-06	49.53	0.00060261	0.00059049	0.00016438	1307.9	6.4568e-06	6.5214e-06	1310.8	356.4	6.4231e-06	6.4668e-06	409.16	137.35	118.71	41.274	6.4615e-06	51.609	101.349	156.159	132.850	62.341	169.522	204.166	61.831	66.960	165.109	141.733	66.406	70.705	71.014	75.858	207.287	75.035	-8191	255	
878.729	1	1	0	0	0.036483	0.14099	0.05205	0.33796	0.1955	0.1779	0.2296	0.11306	0.17605	0.13224	0.126	0.25368	0.35767	0.083501	0.040041	0.046159	-2.8542	-3.325	-3.5458	-3.2229	-3.4437	-3.3583	-3.2562	-3.7938	-3.3146	-3.2125	-3.825	-3.0417	-3.5417	-3.6146	-3.0208	-3.8021	83.265	261.380	316.669	65.558	139.569	362.215	342.260	387.360	222.355	387.931	304.578	71.701	362.789	113.758	384.532	243.856	0.00078532	0.00045705	5.3394e-05	1268.2	7.4993e-06	2.9256e-06	1276.6	345.46	6.2465e-06	6.1748e-06	396.68	133	114.57	39.466	8.3642e-06	49.288	0.00059833	0.00058824	0.00016632	1306.8	6.4386e-06	6.4707e-06	1311	355.7	6.466e-06	6.4704e-06	410.05	137.47	118.41	41.237	6.4823e-06	51.492	95.496	182.586	243.309	62.380	181.129	201.176	62.152	67.078	203.008	229.828	66.469	70.931	71.326	75.848	219.553	74.831	-8191	255	
878.825	1	1	0	0	0.019792	0.030664	0.14508	0.15747	0.21902	0.091619	0.22993	0.31957	0.15665	0.1481	0.31139	0.10223	0.1879	0.17719	0.046392	0.16026	-2.8208	-3.2333	-3.5479	-3.2188	-3.4146	-3.4688	-3.35	-3.7396	-3.2917	-3.1979	-3.8604	-3.3271	-3.1896	-3.6688	-2.9062	-3.6583	189.925	279.147	285.231	347.610	318.032	105.200	316.357	399.765	245.869	380.571	377.883	335.676	87.352	261.433	358.758	182.169	0.00076687	0.0001884	7.806e-05	1274.9	5.5857e-06	8.9116e-06	1281.7	346.68	7.3508e-06	6.7512e-06	396.61	133.39	114.81	39.527	1.2644e-05	49.428	0.00059788	0.00058852	0.00016482	1307.1	6.5611e-06	6.4857e-06	1310.4	356.17	6.5508e-06	6.556e-06	409.69	137.53	118.57	41.325	6.5334e-06	51.593	87.151	157.129	163.689	62.279	179.684	176.207	61.685	66.872	175.009	195.377	66.641	70.611	71.090	75.870	215.134	74.929	-8191	255	
878.946	1	1	0	0	0.087467	0.12947	0.192	0.16156	0.25151	0.20576	0.084482	0.23461	0.04502	0.218	0.076845	0.12844	0.30272	0.2599	0.085553	0.12494	-2.8979	-2.9313	-3.7083	-3.0729	-3.0875	-3.6875	-3.1542	-3.7021	-3.3583	-2.9083	-3.7938	-3.175	-3.2792	-3.6854	-3.0146	-3.3271	302.331	290.621	58.390	69.453	180.220	329.777	58.023	116.796	225.972	254.204	243.384	204.874	61.944	63.159	199.288	56.147	0.00090915	0.00038596	0.00012287	1270.7	7.4361e-06	3.688e-06	1269.9	344.47	5.3813e-06	4.593e-06	395.66	133.14	115.44	39.538	9.3294e-06	49.381	0.00060069	0.00059587	0.00016592	1303.8	6.6059e-06	6.5112e-06	1308.2	356.04	6.5261e-06	6.636e-06	409.49	137.56	118.85	41.307	6.5905e-06	51.578	102.741	113.947	161.823	62.367	174.356	258.864	61.863	67.138	233.042	154.909	66.487	70.853	71.432	76.142	194.273	75.222	-8191	255	
879.042	1	1	0	0	0.18039	0.067272	0.13525	0.1928	0.048939	0.19506	0.20614	0.28264	0.17	0.32096	0.23419	0.17241	0.055644	0.20193	0.18078	0.24293	-3.1208	-2.8292	-3.5812	-3.3042	-2.9688	-3.7479	-3.2062	-3.5021	-3.3896	-3.0104	-3.6625	-3.325	-3.2167	-3.6292	-3.2167	-3.3896	406.632	251.152	399.667	366.147	246.194	268.705	331.412	78.214	90.554	48.972	390.253	125.453	54.558	298.309	101.235	385.219	0.00083422	0.00048276	9.3106e-05	1278	9.6348e-06	2.8481e-06	1280.5	347.65	6.3355e-06	3.1171e-06	399.17	134.1	115.38	39.722	1.2021e-05	49.494	0.00060776	0.00060443	0.00016727	1308.7	6.5692e-06	6.6071e-06	1309.8	356.79	6.5806e-06	6.6416e-06	409.47	137.57	118.62	41.323	6.622e-06	51.543	99.098	168.164	186.502	62.234	186.189	229.347	61.774	66.780	209.507	213.759	66.235	70.525	70.997	75.249	247.693	74.393	-8191	255	
879.138	1	1	0	0	0.061043	0.11678	0.19658	0.18719	0.14413	0.18962	0.18287	0.2576	0.1291	0.094143	0.25206	0.13421	0.381	0.23555	0.094172	0.15647	-3.1333	-3.0021	-3.4938	-3.5875	-3.2	-3.6646	-3.1667	-3.2687	-3.45	-3.0958	-3.6063	-3.3833	-3.2083	-3.5896	-3.15	-3.4375	221.445	107.129	341.682	63.866	310.168	265.431	67.698	217.632	285.882	295.375	333.507	99.781	54.314	64.647	346.044	387.463	0.00086411	0.00053664	0.00018184	1280.5	3.0116e-06	5.8899e-06	1280.4	347.2	5.6605e-06	3.7557e-06	398.49	134.37	114.7	39.798	4.9529e-06	49.632	0.00059888	0.00060356	0.00016658	1309.3	6.5525e-06	6.5868e-06	1309.1	355.92	6.5478e-06	6.6663e-06	409.68	137.93	118.74	41.254	6.5297e-06	51.599	93.478	108.597	134.034	61.776	221.753	155.939	61.809	66.697	181.774	161.548	66.206	70.550	70.879	75.681	185.735	74.898	-8191	255	
879.210	1	1	0	0	0.054955	0.16839	0.14688	0.15195	0.085159	0.13626	0.25557	0.10864	0.2837	0.21967	0.34611	0.031786	0.24443	0.10886	0.18457	0.13662	-3.2313	-3.0979	-3.4854	-3.575	-3.0917	-3.6562	-3.3063	-3.3187	-3.6271	-3.1292	-3.6208	-3.6208	-3.0312	-3.5917	-3.2583	-3.0667	361.842	198.503	355.509	116.560	238.670	394.519	352.993	402.177	304.978	239.052	316.556	258.857	407.025	382.506	187.208	384.852	0.00085079	0.00048725	6.5342e-05	1274.4	2.2026e-06	5.0562e-06	1282.3	347.54	6.563e-06	2.5108e-06	397.12	133.34	115.54	39.72	8.9492e-06	49.643	0.00060029	0.0006002	0.00016621	1307.5	6.5154e-06	6.5535e-06	1311.7	356.43	6.5571e-06	6.5188e-06	409.76	137.57	118.84	41.289	6.4919e-06	51.594	93.429	126.454	191.992	62.101	208.009	201.101	61.683	66.664	214.983	379.133	65.965	70.416	71.059	75.433	207.811	74.902	-8191	255	
879.331	1	1	0	0	0.21172	0.16362	0.062925	0.35688	0.19978	0.15752	0.35124	0.11776	0.085079	0.20977	0.28739	0.22857	0.10415	0.33372	0.094173	0.1756	-3.3021	-2.9271	-3.3771	-3.6312	-2.9042	-3.6333	-3.4708	-3.2333	-3.7313	-2.9833	-3.2625	-3.6458	-3.1625	-3.4958	-3.3875	-3.1396	395.383	136.597	403.591	376.286	308.266	207.196	323.152	339.349	346.803	231.801	350.005	171.743	56.102	362.352	318.695	58.553	0.00080787	0.00056858	5.5587e-05	1278.3	5.4253e-06	2.2542e-06	1280.7	347.36	5.2621e-06	7.4566e-06	396.64	133.53	115.37	39.586	3.0796e-06	49.457	0.00060666	0.00060439	0.00016606	1307.9	6.53e-06	6.5095e-06	1310.2	356.73	6.555e-06	6.5828e-06	409.06	137.65	118.62	41.299	6.5034e-06	51.592	94.457	146.211	50.971	62.084	212.354	159.958	61.761	66.660	214.100	230.787	65.940	70.991	71.109	75.723	256.614	74.654	-8191	255	
879.425	1	1	0	0	0.16759	0.14916	0.08184	0.19032	0.1943	0.29941	0.16547	0.3054	0.21236	0.15928	0.31409	0.30654	0.15033	0.050168	0.22527	0.14496	-3.3333	-3.0396	-3.3563	-3.7979	-2.7687	-3.6771	-3.5771	-2.9854	-3.6104	-3.2417	-3.2479	-3.6875	-3.1625	-3.6458	-3.575	-3.0708	393.101	400.818	232.590	396.976	85.341	385.488	292.641	387.594	391.482	211.649	61.845	49.420	65.342	405.831	244.998	393.318	0.00075997	0.00015795	0.00011812	1274.8	7.6975e-06	7.6076e-06	1277.7	347.47	1.1095e-05	5.1861e-06	395.61	133.11	114.58	39.525	4.8205e-06	49.262	0.00060273	0.0006015	0.00016566	1307.2	6.5721e-06	6.5469e-06	1310.7	356.7	6.6018e-06	6.5545e-06	409.11	137.42	118.48	41.229	6.4434e-06	51.473	99.229	150.900	176.905	62.156	164.467	199.449	61.977	66.721	197.941	182.672	66.370	70.584	70.985	75.953	178.390	74.853	-8191	255	
879.521	1	1	0	0	0.10529	0.20447	0.16921	0.24886	0.21274	0.17744	0.20393	0.23597	0.15359	0.3636	0.21277	0.12475	0.36332	0.078503	0.224	0.50694	-3.0938	-3.2625	-3	-3.8187	-3.1583	-3.325	-3.5604	-3.0646	-3.6896	-3.4437	-3.2354	-3.6708	-3.2979	-3.525	-3.7146	-2.9292	260.634	379.323	276.575	374.458	332.254	287.195	314.124	300.580	390.838	232.943	340.592	295.095	366.789	397.554	203.280	253.121	0.00080608	0.00068291	0.00011321	1275.7	8.1937e-06	4.9663e-06	1279.1	346.49	4.7176e-06	3.7539e-06	395.28	133.06	114.64	39.828	5.8299e-06	49.502	0.0006088	0.00060018	0.00016757	1307.1	6.5348e-06	6.4746e-06	1310.6	356.01	6.5586e-06	6.4833e-06	408.92	137.42	118.35	41.294	6.5547e-06	51.439	98.035	173.438	173.071	62.062	168.833	207.382	61.743	66.544	208.946	191.906	66.223	70.681	71.410	75.660	242.498	74.720	-8191	255	
879.619	1	1	0	0	0.14826	0.29678	0.095638	0.11917	0.27269	0.1508	0.17308	0.25929	0.2627	0.03913	0.25014	0.15383	0.47611	0.12396	0.21512	0.24884	-3.1646	-3.1813	-3.0479	-3.9542	-2.9104	-3.3896	-3.8104	-2.9938	-3.5375	-3.2271	-3.0917	-3.7562	-3.0979	-3.2562	-3.7958	-3.1375	237.479	125.773	315.347	56.557	179.765	191.823	306.707	342.201	134.297	55.742	95.660	305.046	85.301	357.553	118.918	69.464	0.00085438	0.00054819	0.00013398	1273.7	5.9494e-06	7.1303e-06	1278.9	346.61	2.7468e-06	6.9674e-06	397.76	133.48	114.68	39.56	6.5124e-06	49.629	0.00060043	0.00059359	0.00016693	1305.2	6.442e-06	6.5249e-06	1309.2	355.81	6.4624e-06	6.4638e-06	409.13	137.68	118.39	41.292	6.5037e-06	51.631	105.115	199.011	168.712	61.860	204.568	189.207	61.926	66.847	209.170	173.907	66.071	70.483	71.169	75.684	225.334	74.834	-8191	255	
879.738	1	1	0	0	0.056546	0.041697	0.18846	0.23117	0.17305	0.15451	0.11525	0.1199	0.086499	0.16851	0.13196	0.17484	0.29558	0.16242	0.22082	0.31017	-3.2292	-3.525	-3.0021	-3.9292	-3.1208	-3.2438	-3.925	-3.0521	-3.4	-3.5229	-3.1396	-3.7354	-3.3167	-3.1562	-3.6625	-2.9583	320.034	113.428	287.359	341.427	200.132	227.065	314.508	54.184	280.948	344.795	354.007	395.595	69.306	234.432	62.554	356.827	0.00087425	0.00055563	7.0773e-05	1275.7	8.1752e-06	6.1123e-06	1278.1	347.12	6.9122e-06	5.5916e-06	399.02	133.71	115.11	39.878	5.3602e-06	49.616	0.00060005	0.00059728	0.00016442	1308.6	6.4911e-06	6.5005e-06	1310.4	356.48	6.5447e-06	6.4888e-06	410.29	137.46	118.58	41.329	6.5518e-06	51.594	95.152	170.027	142.913	61.931	147.395	159.255	61.857	66.842	191.279	243.834	66.035	70.344	71.046	75.479	229.035	74.786	-8191	255	
879.810	1	1	0	0	0.11519	0.10523	0.10912	0.32739	0.18702	0.11532	0.11079	0.074324	0.022097	0.11225	0.1799	0.11082	0.084088	0.10628	0.18523	0.10222	-3.0396	-3.6583	-2.9292	-3.7167	-3.225	-3.2083	-3.7479	-3.175	-3.3083	-3.6042	-3.1437	-3.4229	-3.2333	-3.2125	-3.6792	-3.1333	298.667	384.856	208.393	359.234	77.370	52.226	244.646	81.130	288.720	140.682	283.113	92.261	78.091	106.258	192.256	279.369	0.00084668	0.00033446	0.00018482	1276.6	3.9838e-06	6.3988e-06	1281.5	345.78	5.5156e-06	2.8694e-06	396.31	133.57	115.33	40.053	6.793e-06	49.635	0.00059478	0.00059154	0.0001659	1306	6.5191e-06	6.5346e-06	1310.8	355.7	6.4397e-06	6.5333e-06	409.59	137.39	118.73	41.403	6.5896e-06	51.482	94.829	120.329	190.010	62.245	205.984	192.447	61.858	66.808	207.532	167.191	65.869	70.179	70.945	75.569	199.864	74.922	-8191	255	
879.906	1	1	0	0	0.24599	0.20954	0.24996	0.24151	0.17515	0.33469	0.21579	0.39392	0.099713	0.17438	0.058838	0.05675	0.1259	0.052799	0.24703	0.17262	-2.8125	-3.5271	-2.8812	-3.6625	-3.4938	-3.1354	-4.0458	-3.1604	-3.2229	-3.6437	-3.0292	-3.4354	-3.6437	-2.9813	-3.6208	-3.375	361.599	291.609	280.237	396.457	223.192	328.299	299.472	307.802	280.621	403.422	124.137	371.726	302.401	321.344	247.041	373.733	0.00079662	0.00023332	8.8971e-05	1274.9	1.1243e-05	5.7028e-06	1281.2	347.32	3.4922e-06	3.8992e-06	397.58	133.79	115.1	39.929	3.6111e-06	49.716	0.0005995	0.0005978	0.00016527	1306.8	6.4863e-06	6.5697e-06	1309.4	356.48	6.4975e-06	6.5801e-06	409.42	137.48	118.67	41.338	6.5382e-06	51.432	93.002	118.091	108.659	61.896	170.658	182.211	61.717	66.691	170.733	180.013	65.762	70.283	70.993	75.300	267.672	74.523	-8191	255	
880.026	1	1	0	0	0.093943	0.13968	0.065548	0.1486	0.097021	0.25019	0.18645	0.28046	0.1508	0.21026	0.28092	0.097261	0.054183	0.33092	0.069575	0.20747	-2.9625	-3.6521	-2.9729	-3.6104	-3.5042	-2.925	-3.9104	-3.3042	-3.2542	-3.6437	-3.1167	-3.475	-3.5958	-3.0187	-3.6021	-3.4625	222.866	380.027	93.104	396.811	157.479	77.268	297.803	402.230	404.710	396.218	365.117	358.535	94.679	336.053	152.469	328.567	0.00075386	0.0003613	0.00017657	1281.3	6.5322e-06	7.627e-06	1279.2	347.75	6.7908e-06	7.7286e-06	397.07	134.04	114.99	39.71	5.1217e-06	49.516	0.00060249	0.00059883	0.00016786	1308.5	6.5158e-06	6.6452e-06	1309.3	356.29	6.5724e-06	6.6018e-06	409.72	137.68	118.58	41.299	6.5418e-06	51.594	103.240	126.482	140.126	61.773	184.875	200.216	61.413	66.597	129.947	237.097	65.919	70.186	70.966	75.468	185.888	74.961	-8191	255	
880.123	1	1	0	0	0.19434	0.12484	0.19426	0.12316	0.13858	0.30462	0.1855	0.30422	0.03593	0.20479	0.24095	0.22172	0.099489	0.074376	0.079555	0.24547	-2.7438	-3.5917	-3.2167	-3.6271	-3.4833	-3.0438	-3.6542	-3.4396	-2.9458	-3.7438	-3.1312	-3.2458	-3.7	-3.0438	-3.5229	-3.5458	379.206	306.239	390.092	208.217	156.817	348.159	348.751	369.423	321.468	124.766	360.797	335.154	77.658	403.092	401.784	87.150	0.00087217	0.00044795	0.0002836	1279.2	5.0145e-06	5.4855e-06	1280.7	346.13	3.4729e-06	4.889e-06	398.25	133.77	115.04	39.755	1.0577e-05	49.534	0.00060529	0.00059885	0.00016716	1306.4	6.5357e-06	6.6283e-06	1310	356.23	6.5762e-06	6.5546e-06	409.82	137.48	118.83	41.25	6.581e-06	51.55	93.906	140.546	144.525	61.860	252.725	199.195	61.795	66.747	178.052	216.741	66.109	70.495	71.120	75.570	252.978	74.599	-8191	255	
880.219	1	1	0	0	0.36694	0.12236	0.20308	0.16962	0.077442	0.054581	0.19794	0.087052	0.069468	0.13587	0.065423	0.094309	0.09493	0.20582	0.094431	0.18746	-2.6792	-3.6625	-3.125	-3.4104	-3.5958	-3.1208	-3.6458	-3.6063	-2.8833	-3.8396	-3.3	-2.9938	-3.7583	-3.1708	-3.4375	-3.5604	239.518	355.090	321.270	107.625	81.427	115.118	61.540	313.447	207.646	91.082	61.545	397.038	398.018	252.213	206.871	355.906	0.00084163	0.00060091	0.00019388	1275.6	3.2594e-06	7.642e-06	1279.2	346.04	7.0771e-06	2.4573e-06	397.27	133.28	114.93	39.779	7.0136e-06	49.477	0.00061151	0.00060095	0.00016643	1308.2	6.523e-06	6.5576e-06	1310.4	356.5	6.5992e-06	6.5309e-06	409.82	137.65	118.69	41.278	6.5419e-06	51.57	104.186	160.421	132.912	61.896	190.546	202.831	61.696	66.831	192.954	171.404	66.463	70.534	71.145	75.700	234.906	75.035	-8191	255	
880.339	1	1	0	0	0.092286	0.19827	0.32609	0.067257	0.1199	0.17573	0.36046	0.15262	0.20882	0.22938	0.13013	0.081359	0.13682	0.12928	0.13013	0.13582	-2.5979	-3.5938	-3.2833	-3.1771	-3.6604	-2.9521	-3.4229	-3.6375	-3.025	-3.6375	-3.2188	-3.225	-3.8146	-3.1646	-3.2229	-3.6021	377.787	304.942	225.359	364.504	322.493	245.872	293.115	333.270	353.050	368.266	367.074	386.306	92.866	368.692	275.354	353.723	0.00085315	0.00051368	0.00014707	1275	6.0483e-06	6.8357e-06	1276.7	347.51	2.1817e-06	5.3419e-06	396.38	132.89	115.34	39.796	8.3663e-06	49.59	0.00060127	0.00059395	0.00016489	1307.1	6.5246e-06	6.5128e-06	1309.3	356.51	6.5292e-06	6.599e-06	409.05	137.36	118.66	41.269	6.4638e-06	51.57	93.773	131.259	164.785	61.884	177.637	242.392	61.525	66.863	252.403	222.365	66.008	70.218	71.044	75.725	221.508	74.562	-8191	255	
880.434	1	1	0	0	0.2253	0.21509	0.1529	0.24017	0.15109	0.10337	0.0086053	0.024191	0.18107	0.3379	0.15434	0.32898	0.17769	0.12826	0.23759	0.17921	-2.7354	-3.5812	-3.0854	-3.1937	-3.5604	-3.2938	-3.3958	-3.9188	-3.1292	-3.3646	-3.4958	-3.1833	-3.7729	-3.2625	-3.225	-3.7708	313.106	197.869	267.122	327.848	119.597	364.775	137.457	320.839	264.828	177.119	295.514	127.572	366.268	268.757	208.083	233.933	0.00085988	0.00039122	6.7526e-05	1278	7.7779e-06	6.7909e-07	1281.6	346.49	9.5787e-06	4.2944e-06	397.46	133.46	115.51	39.796	6.6732e-06	49.58	0.00060265	0.00059869	0.00016487	1308.8	6.4478e-06	6.5229e-06	1311.6	356.32	6.6301e-06	6.4525e-06	409.18	137.6	118.69	41.287	6.555e-06	51.523	102.399	116.270	169.895	61.831	179.075	121.211	61.830	66.990	134.586	169.985	66.243	70.421	70.945	75.337	192.025	74.762	-8191	255	
880.505	1	1	0	0	0.12843	0.15027	0.067548	0.1578	0.054675	0.051721	0.25483	0.1749	0.099285	0.17616	0.097204	0.11755	0.068665	0.27755	0.11728	0.23839	-2.7104	-3.5229	-3.5563	-3.2542	-3.5021	-3.4813	-3.3792	-3.7313	-3.0479	-3.4854	-3.5646	-3.1813	-3.8042	-3.3333	-3.15	-3.8958	315.202	209.945	347.866	305.890	140.817	238.881	358.393	343.784	375.337	189.489	70.719	72.268	120.322	92.253	204.498	55.913	0.0007221	0.00077572	0.00010787	1280.5	7.5906e-06	1.882e-06	1285.8	347.71	3.0032e-06	7.0448e-06	398.11	133.61	115.51	39.874	6.6968e-06	49.869	0.00059474	0.00059137	0.00016431	1307.5	6.5003e-06	6.5094e-06	1311.2	356.22	6.521e-06	6.5298e-06	409.73	137.41	118.67	41.329	6.5205e-06	51.567	103.945	152.932	176.155	61.810	120.342	195.939	61.440	66.666	129.608	163.469	66.079	70.288	70.776	75.371	247.835	74.608	-8191	255	
880.626	1	1	0	0	0.063175	0.10435	0.181	0.54192	0.035567	0.10798	0.33314	0.22786	0.17879	0.076626	0.11153	0.37552	0.14287	0.072498	0.26151	0.16024	-2.7	-3.3333	-3.6354	-3.0438	-3.7354	-3.4688	-3.2792	-3.6312	-3.1208	-3.4104	-3.7687	-3.2417	-3.5875	-3.4417	-2.9833	-3.9479	109.056	325.283	107.050	382.506	321.121	155.884	356.654	387.884	231.875	110.540	79.591	201.294	169.297	233.597	224.144	301.282	0.00088187	0.00034388	8.738e-05	1278	4.8445e-06	8.0004e-06	1284.9	348.18	4.6191e-06	6.4721e-06	397.92	133.59	115.44	39.826	4.5219e-06	49.604	0.00059864	0.00058976	0.00016599	1307.3	6.512e-06	6.4498e-06	1311.4	356.56	6.5276e-06	6.5242e-06	409.79	137.43	118.95	41.362	6.5417e-06	51.515	97.208	130.554	153.012	61.782	192.968	192.237	61.715	66.638	201.401	195.030	66.020	70.386	70.856	75.435	191.465	74.614	-8191	255	
880.722	1	1	0	0	0.090589	0.16281	0.12243	0.17507	0.15487	0.07368	0.10096	0.2815	0.056895	0.19593	0.11495	0.14449	0.13969	0.10373	0.15248	0.042787	-2.7125	-3.1375	-3.6646	-3.0708	-3.3729	-3.3896	-3.0812	-3.8229	-3.125	-3.2896	-3.8396	-3.15	-3.5021	-3.6188	-3.1146	-3.7687	397.291	103.776	223.546	405.334	144.589	379.610	91.230	349.447	123.945	326.873	62.415	379.820	52.774	333.080	185.777	314.394	0.00077485	0.0008482	9.2839e-05	1278.2	1.6998e-06	5.9821e-06	1284.1	347.99	5.384e-06	7.2034e-06	397.04	134.32	115.36	39.682	5.7966e-06	49.683	0.00060346	0.00059103	0.00016578	1307.5	6.437e-06	6.5102e-06	1312	356.31	6.5349e-06	6.5373e-06	409.67	137.9	118.66	41.315	6.5635e-06	51.617	95.603	173.743	194.149	61.819	214.909	214.714	61.649	66.650	180.495	214.982	66.232	70.593	71.067	75.400	254.660	74.706	-8191	255	
880.818	1	1	0	0	0.23739	0.17362	0.19335	0.27435	0.21648	0.15122	0.091857	0.19613	0.1317	0.15907	0.14954	0.12297	0.093357	0.30006	0.24158	0.15983	-2.8896	-3.2146	-3.5521	-3.0208	-3.4146	-3.6063	-3.2938	-3.7729	-3.3104	-3.1146	-3.7958	-3.325	-3.4083	-3.5729	-3.1875	-3.7	226.067	332.335	249.010	315.212	230.359	52.174	104.329	354.894	122.680	399.578	371.335	86.653	129.916	57.507	277.218	374.174	0.00080279	0.00039907	0.00015445	1280.1	7.5138e-06	8.3993e-06	1283.1	347.27	6.9322e-06	3.201e-06	397.82	134.01	114.93	39.661	6.9091e-06	49.665	0.00059905	0.00060207	0.00016683	1308	6.4803e-06	6.605e-06	1311.2	356.49	6.5474e-06	6.5239e-06	409.73	137.52	118.42	41.338	6.4604e-06	51.559	102.240	181.296	184.624	61.936	145.283	176.480	61.792	66.999	224.108	244.740	66.211	70.616	70.874	75.638	260.637	74.883	-8191	255	
880.914	1	1	0	0	0.065484	0.0093148	0.058183	0.19364	0.12204	0.16801	0.044861	0.28285	0.15067	0.10146	0.23312	0.00193	0.26699	0.10364	0.13829	0.11752	-3.1354	-3.0687	-3.4854	-3.3333	-3.4396	-3.6979	-3.0146	-3.5792	-3.4333	-2.9417	-3.6667	-3.15	-3.2188	-3.725	-3	-3.6229	321.124	343.971	365.505	109.959	232.567	337.478	326.895	339.838	204.733	133.107	50.609	180.000	52.874	316.675	324.217	133.295	0.00081827	0.00029168	1.0327e-05	1272.8	9.0336e-06	5.7322e-06	1283.3	348.05	4.0825e-06	2.481e-06	398.09	133.31	114.91	39.478	3.8117e-06	49.422	0.00059153	0.0005949	0.00016348	1307	6.4738e-06	6.522e-06	1310	356.72	6.494e-06	6.5441e-06	409.97	137.62	118.58	41.292	6.5318e-06	51.586	91.226	99.598	132.855	62.191	161.655	183.028	61.651	66.750	155.378	191.067	66.593	70.929	71.101	75.789	141.426	74.830	-8191	255	
881.035	1	1	0	0	0.072853	0.048484	0.12752	0.21185	0.13588	0.25927	0.28457	0.08256	0.12312	0.14622	0.12732	0.14155	0.16789	0.10032	0.057264	0.18977	-3.1813	-2.8521	-3.6188	-3.3792	-3.1813	-3.6583	-3.2167	-3.475	-3.4208	-2.9771	-3.8229	-3.3625	-3.1021	-3.5563	-2.9729	-3.5312	152.705	225.865	368.271	58.406	327.350	386.313	345.264	79.126	230.654	374.098	192.767	405.792	357.616	380.201	319.036	349.160	0.00083966	0.00087394	0.00019806	1271.3	4.8876e-06	6.0822e-06	1284.6	346.77	8.7266e-07	6.33e-06	397.12	133.58	115.18	39.837	9.2591e-06	49.503	0.00060251	0.00059247	0.00016601	1306.2	6.5298e-06	6.549e-06	1313.1	356.58	6.4918e-06	6.6055e-06	409.68	137.63	118.77	41.365	6.5366e-06	51.553	106.044	134.178	187.778	62.226	165.568	241.673	61.890	66.866	142.134	188.610	66.204	70.697	71.054	75.870	248.277	74.850	-8191	255	
881.107	1	1	0	0	0.10856	0.14202	0.095087	0.22587	0.10912	0.17268	0.17167	0.18616	0.067106	0.18622	0.17428	0.18896	0.10378	0.1877	0.14441	0.23175	-3.3479	-3.0187	-3.5625	-3.4917	-3.2208	-3.6521	-3.3646	-3.4792	-3.6437	-2.8542	-3.6292	-3.4167	-3.1	-3.6562	-3.2542	-3.3563	383.328	263.010	350.382	399.625	98.961	329.331	219.549	342.427	242.595	350.945	331.975	300.446	288.671	219.074	231.188	308.933	0.00090821	0.00094393	2.2486e-05	1269.4	1.2534e-05	7.3508e-06	1277.7	346.19	5.1857e-06	4.575e-06	398.53	133.88	115.55	39.653	4.23e-06	49.627	0.00059995	0.00060065	0.0001668	1306	6.5032e-06	6.6434e-06	1310	356.7	6.5528e-06	6.6315e-06	410.32	137.81	118.87	41.342	6.4881e-06	51.612	98.817	144.085	352.393	62.382	175.945	201.407	62.140	66.858	152.370	179.978	65.969	70.556	70.868	75.671	161.895	74.494	-8191	255	
881.203	1	1	0	0	0.2547	0.10942	0.14827	0.27059	0.18893	0.12947	0.32358	0.14401	0.13392	0.12249	0.033348	0.16112	0.10392	0.20102	0.077962	0.11475	-3.2125	-2.9188	-3.5146	-3.5479	-2.9292	-3.6688	-3.4458	-3.3875	-3.5625	-3	-3.4562	-3.5333	-3.1792	-3.6937	-3.1562	-3.3208	185.226	317.265	101.047	66.780	401.608	387.175	380.778	266.545	368.309	349.981	208.221	366.864	311.601	254.106	215.108	128.356	0.00076648	0.00040259	0.00012951	1275.1	5.8081e-06	3.6513e-06	1277.9	347.85	6.326e-06	5.7389e-06	397.51	133.53	114.93	39.645	7.4485e-06	49.568	0.00059696	0.00059293	0.00016467	1305.7	6.596e-06	6.454e-06	1309.8	356.31	6.575e-06	6.5462e-06	409.87	137.59	118.57	41.283	6.4464e-06	51.593	98.234	205.346	148.885	62.187	152.880	249.299	62.048	66.739	189.659	240.760	65.985	70.583	71.078	75.788	199.783	74.508	-8191	255	
881.299	1	1	0	0	0.093169	0.28052	0.11348	0.24294	0.23523	0.25299	0.21655	0.14721	0.21094	0.14538	0.21131	0.19652	0.1395	0.12432	0.12402	0.36625	-3.4021	-2.9104	-3.3708	-3.7208	-2.8604	-3.6	-3.4604	-3.2271	-3.5146	-3.0979	-3.5687	-3.7	-2.9708	-3.5375	-3.2333	-3.1125	377.528	51.029	189.687	351.325	59.759	153.881	326.196	287.573	403.427	53.559	390.593	348.584	167.467	69.546	175.036	380.252	0.00076314	0.00043905	0.0001414	1277.4	7.9111e-06	3.3108e-06	1280.5	348.09	5.0127e-06	6.1483e-06	396.95	133.54	114.79	39.644	7.9915e-06	49.588	0.00059933	0.00059413	0.00016444	1307.3	6.523e-06	6.4942e-06	1311.7	356.51	6.4849e-06	6.4781e-06	409.51	137.46	118.43	41.205	6.4384e-06	51.517	98.703	177.304	201.400	61.869	192.508	213.380	61.763	66.713	183.240	240.939	66.220	70.584	71.326	75.711	228.059	74.707	-8191	255	
881.420	1	1	0	0	0.084998	0.12947	0.065492	0.21576	0.14164	0.038475	0.12361	0.071373	0.21118	0.10234	0.20699	0.044336	0.17739	0.042142	0.08915	0.11421	-3.475	-3.2146	-3.2687	-3.6896	-2.9042	-3.7083	-3.4667	-3.15	-3.7146	-3.2062	-3.2938	-3.7458	-3.1354	-3.5917	-3.6312	-3.1792	282.809	176.994	265.665	109.425	194.288	204.860	362.090	405.040	198.846	158.905	173.653	130.507	117.468	289.732	365.157	158.634	0.0007977	0.00068734	9.1777e-05	1276.1	4.7675e-06	3.875e-06	1280.5	346.56	4.3562e-06	5.8244e-06	395.41	133.5	114.57	39.601	5.4188e-06	49.696	0.00059418	0.00058666	0.00016213	1307.1	6.4955e-06	6.4354e-06	1308.7	355.93	6.4417e-06	6.393e-06	408.74	137.52	118.3	41.208	6.4193e-06	51.573	95.691	167.718	203.186	62.327	195.553	229.433	61.967	66.732	169.590	167.261	66.001	70.491	71.140	75.178	221.514	74.868	-8191	255	
881.514	1	1	0	0	0.16806	0.29925	0.095189	0.12955	0.09322	0.20733	0.16192	0.39672	0.083412	0.1795	0.18991	0.12737	0.3738	0.072464	0.10534	0.31264	-3.3708	-3.0812	-3.175	-3.8167	-3.0375	-3.375	-3.6479	-3.1542	-3.6146	-3.4979	-3.1188	-3.9208	-3.1917	-3.4104	-3.525	-3.25	391.886	295.250	85.848	284.687	135.546	193.427	349.328	331.076	66.778	83.663	169.507	66.364	107.939	230.696	240.865	378.829	0.00073557	0.00065634	0.00011132	1273	3.3161e-06	5.3904e-06	1280	346.5	1.0339e-06	7.1808e-06	398.02	134.05	114.96	39.654	3.668e-06	49.429	0.00058984	0.00057782	0.00016444	1304.8	6.3798e-06	6.3936e-06	1309.6	356.2	6.3996e-06	6.3908e-06	409.8	137.75	118.57	41.216	6.4387e-06	51.507	97.981	125.676	150.706	61.942	123.274	267.959	61.655	66.597	191.845	205.344	65.899	70.674	71.245	75.681	227.025	74.645	-8191	255	
881.610	1	1	0	0	0.33811	0.027693	0.2747	0.30384	0.21101	0.16156	0.19996	0.080681	0.22572	0.055656	0.094503	0.20213	0.13447	0.21797	0.051474	0.189	-3.2062	-3.2812	-3.1458	-3.9521	-3.0458	-3.1854	-3.7313	-3.1146	-3.7083	-3.3854	-3.125	-3.8521	-3.2146	-3.3396	-3.5042	-3.1625	61.238	57.509	62.786	401.669	345.724	139.311	333.548	316.179	218.676	157.233	392.185	338.030	327.595	305.812	276.839	389.766	0.00085509	0.00075842	0.0001229	1273.5	9.2179e-06	8.9646e-06	1279.5	346.7	5.1405e-06	2.3215e-06	395.9	133.07	115.06	39.577	5.1669e-06	49.539	0.00059205	0.00057644	0.00016308	1303.2	6.4262e-06	6.3718e-06	1308.6	355.97	6.4016e-06	6.4228e-06	408.47	137.19	118.43	41.179	6.4733e-06	51.423	95.912	176.508	173.983	62.319	122.494	212.186	61.786	66.633	191.202	174.442	66.334	70.694	71.207	75.827	249.624	74.910	-8191	255	
881.706	1	1	0	0	0.15543	0.12427	0.31869	0.16233	0.17977	0.37725	0.24313	0.091657	0.25304	0.4165	0.066697	0.11144	0.086299	0.33436	0.11196	0.090403	-3.2458	-3.3146	-2.9896	-3.8521	-3.0354	-3.2792	-3.7396	-3.0438	-3.3812	-3.4917	-3.1896	-3.6771	-3.1229	-3.2146	-3.7271	-3.0938	307.682	244.389	368.463	56.894	131.055	365.543	340.364	149.112	88.521	355.547	138.948	112.165	320.243	362.736	275.971	70.082	0.00080692	0.00034451	9.6058e-05	1277.1	6.433e-06	5.6564e-06	1279.6	346.24	5.6998e-06	3.504e-06	395.95	132.86	114.92	39.751	3.1333e-06	49.479	0.0005875	0.0005846	0.00016398	1306	6.3985e-06	6.4642e-06	1309.5	355.84	6.3514e-06	6.4259e-06	408.72	137.18	118.52	41.259	6.4067e-06	51.443	100.608	120.983	160.861	62.124	158.695	202.762	61.963	66.821	186.704	246.263	66.258	70.517	71.388	75.628	161.824	75.243	-8191	255	
881.803	1	1	0	0	0.031617	0.19463	0.09138	0.26991	0.23227	0.20905	0.45232	0.20418	0.19197	0.18686	0.1408	0.21998	0.15931	0.16536	0.077859	0.037217	-3.0438	-3.4771	-2.8104	-3.8542	-2.9771	-3.125	-3.9646	-3.1667	-3.1792	-3.5417	-3.1479	-3.7812	-3.4	-3.0021	-3.5563	-3.2521	250.871	141.953	166.112	351.365	212.921	222.079	360.969	403.333	277.235	93.518	113.586	376.697	77.553	251.906	215.504	78.374	0.00072159	0.00059721	0.00014614	1274.4	4.7194e-06	4.9901e-06	1276.8	347.27	5.5928e-06	4.6549e-06	397.11	133.57	115.09	39.561	4.6382e-06	49.419	0.00058694	0.00059587	0.00016506	1304.9	6.4181e-06	6.5297e-06	1308.6	355.82	6.4886e-06	6.4752e-06	409.39	137.59	118.49	41.229	6.5427e-06	51.415	92.759	170.646	137.796	62.019	166.516	152.001	62.038	66.808	195.719	182.945	66.147	70.577	71.320	75.724	202.607	74.798	-8191	255	
881.899	1	1	0	0	0.14967	0.18123	0.074704	0.34615	0.23855	0.16212	0.18863	0.2992	0.23284	0.10619	0.22714	0.022183	0.40839	0.23236	0.34256	0.2967	-2.9688	-3.4958	-3.0979	-3.6833	-3.4875	-3.1875	-3.8063	-3.225	-3.3708	-3.6437	-3.1813	-3.5104	-3.6146	-3.0583	-3.7188	-3.2396	190.873	96.189	221.202	345.246	325.954	167.651	337.653	383.727	195.711	406.143	347.315	121.694	346.454	333.881	65.251	344.848	0.00081978	0.00046788	0.00015164	1276.1	7.4811e-06	5.24e-06	1273.9	344.09	5.8664e-06	1.0822e-06	395.41	133.5	115.2	39.609	5.9947e-07	49.663	0.00059597	0.00059906	0.00016631	1305.3	6.5393e-06	6.5098e-06	1307.6	355.21	6.5262e-06	6.5178e-06	409	137.54	118.57	41.192	6.5247e-06	51.542	94.204	137.136	144.429	62.070	157.050	186.923	61.858	67.224	167.641	131.591	66.410	70.556	71.238	75.716	216.252	74.610	-8191	255	
882.019	1	1	0	0	0.24089	0.122	0.056896	0.017067	0.20011	0.16909	0.14923	0.11611	0.24038	0.14721	0.29337	0.11333	0.20549	0.3062	0.12172	0.15525	-2.7854	-3.5375	-2.9437	-3.6042	-3.4354	-2.9604	-3.9396	-3.3979	-3.0771	-3.85	-3.2292	-3.5167	-3.6917	-3.1479	-3.6417	-3.4396	229.283	206.952	90.335	282.077	247.917	385.720	349.008	236.640	148.478	260.141	354.142	77.208	308.693	241.552	178.303	342.555	0.00087041	0.00069407	0.00011972	1272	6.0992e-06	7.6247e-06	1270.5	345.12	7.4999e-06	4.4499e-06	395.84	133.32	115.62	39.428	2.9205e-06	49.659	0.00060673	0.00059494	0.00016564	1304.8	6.5121e-06	6.5673e-06	1307.2	355.71	6.5197e-06	6.4814e-06	408.71	137.63	118.63	41.218	6.5492e-06	51.486	102.139	149.664	217.878	62.052	137.819	202.043	61.997	67.147	193.258	238.731	66.228	70.683	71.255	75.927	167.351	74.845	-8191	255	
882.115	1	1	0	0	0.1869	0.22662	0.25336	0.0899	0.061375	0.15651	0.17126	0.11187	0.2851	0.18752	0.22903	0.24418	0.21631	0.22798	0.20643	0.19925	-2.8583	-3.4646	-2.9542	-3.5917	-3.5354	-2.9292	-3.7687	-3.3979	-3.2104	-3.725	-3.3312	-3.5917	-3.8292	-3.1312	-3.5771	-3.2958	315.952	298.258	65.810	65.420	291.666	107.742	315.165	188.985	264.416	169.295	52.687	108.210	402.652	394.727	144.957	344.411	0.00072742	0.00040768	0.00023244	1274.4	9.2675e-06	5.4956e-06	1273.2	345.44	7.1624e-06	4.9705e-06	397.54	132.66	114.5	39.576	6.4389e-06	49.298	0.00059899	0.00059491	0.00016501	1305.5	6.5107e-06	6.5418e-06	1309.9	355.94	6.5482e-06	6.5521e-06	409.4	137.44	118.58	41.259	6.5068e-06	51.402	107.512	148.573	159.038	62.087	188.396	230.575	62.217	66.924	231.416	193.834	66.362	70.456	71.182	75.746	210.841	75.221	-8191	255	
882.212	1	1	0	0	0.24031	0.27227	0.19498	0.27789	0.13577	0.20335	0.29669	0.12198	0.17563	0.18032	0.045894	0.28716	0.10124	0.28161	0.063915	0.097846	-2.5646	-3.6646	-3.1542	-3.5896	-3.6188	-3.1021	-3.6333	-3.5833	-3.0833	-3.6729	-3.3375	-3.2188	-3.7708	-3.2604	-3.4021	-3.5396	170.702	193.845	250.907	348.194	389.749	402.692	342.679	97.437	58.315	356.168	329.373	86.331	334.605	375.842	153.364	262.961	0.00081881	0.00038516	0.00016341	1274.3	2.9061e-06	5.1051e-06	1275.3	345.74	7.8557e-06	6.0177e-06	397.71	133.97	115.15	39.705	7.078e-06	49.685	0.00061206	0.00060322	0.00016314	1306.4	6.6358e-06	6.5298e-06	1307.9	355.71	6.6132e-06	6.5576e-06	409.53	137.64	118.57	41.232	6.4709e-06	51.526	101.674	177.476	142.108	62.198	66.928	192.518	62.076	67.065	207.358	190.000	66.310	70.436	71.082	75.608	141.964	74.862	-8191	255	
882.308	1	1	0	0	0.11005	0.22215	0.13663	0.2345	0.28383	0.18329	0.11026	0.36126	0.19277	0.17468	0.11877	0.025076	0.12528	0.12265	0.080723	0.15939	-2.6125	-3.6521	-3.1125	-3.1604	-3.7833	-3.0271	-3.6063	-3.6958	-2.9833	-3.8063	-3.4958	-3.1625	-3.6354	-3.2083	-3.2	-3.675	380.344	344.510	102.518	309.469	373.585	241.136	349.797	323.983	232.614	103.756	213.983	169.304	71.244	142.047	379.310	268.592	0.00079098	0.00052059	8.4249e-05	1270.8	6.5718e-06	7.1989e-06	1281.2	346.77	2.3051e-06	7.2973e-06	398.86	133.64	115.17	39.597	6.4821e-06	49.533	0.00060549	0.00059092	0.00016311	1304.9	6.4707e-06	6.5191e-06	1308.9	355.81	6.586e-06	6.4507e-06	409.53	137.59	118.57	41.197	6.4111e-06	51.524	98.580	86.303	150.046	62.160	154.175	158.062	61.624	66.684	131.162	205.747	66.107	70.584	71.165	75.538	195.644	74.806	-8191	255	
882.402	1	1	0	0	0.2301	0.11715	0.20045	0.15641	0.15821	0.080949	0.44809	0.19439	0.18176	0.26317	0.16118	0.12157	0.075064	0.16561	0.037222	0.064891	-2.6354	-3.5646	-3.3646	-3.1229	-3.6354	-3.2354	-3.5062	-3.8771	-3.0417	-3.5167	-3.5646	-3.3375	-3.7562	-3.0729	-3.3729	-3.7729	108.362	383.652	405.408	61.769	114.769	152.286	373.933	321.205	85.543	370.474	374.633	383.175	74.038	169.388	350.780	194.997	0.00084381	0.00031736	1.4316e-05	1269.4	3.4879e-06	3.8925e-06	1274.3	347.3	3.8953e-06	4.6466e-06	395.96	133.05	115.43	39.596	1.7707e-06	49.878	0.00059345	0.00058346	0.00016343	1303.5	6.4468e-06	6.3936e-06	1306.9	356.3	6.4456e-06	6.4211e-06	408.85	137.27	118.59	41.16	6.4497e-06	51.58	100.868	62.290	129.682	62.063	178.608	218.317	61.989	66.845	215.811	155.933	66.196	70.437	71.109	75.447	150.408	74.587	-8191	255	
#DATA ENDS
