BOXY.EXE: ISS Imagent and Oximeter Data Acquisition Program Version 0.80
Ascii Record File

#ACQ INFORMATION
2  Detector Channels 
16  External MUX Channels 
1  Auxiliary Channels 
5000  Waveform (CCF) Frequency (Hz)
1  Waveforms Skipped 
30  Waveforms Averaged 
1  Cycles Averaged 
16  Acquisitions per Waveform 
10.0806  Updata Rate (Hz) 

#FILE INFORMATION
TRUE -- External MUX Channel results are PARSED.
FALSE -- AC DC and Phase are NOT grouped.
TRUE -- Companion Program Settings File CREATED.
FALSE -- AC data not excluded
FALSE -- DC data not excluded
FALSE -- Phase data not excluded
FALSE -- Auxillary Chn. data not excluded
Tab delimiters

#CALIBRATION STATE
TRUE -- Waveform Calibration Values APPLIED.


#AUX CALIBRATION VALUES
Val Type	aux-1	

Term	1.0000e+00	
Factor	0.0000e+00	


#WF CALIBRATION VALUES
A = Detector Channel
Val Type	A-AC1	A-AC2	A-AC3	A-AC4	A-AC5	A-AC6	A-AC7	A-AC8	A-AC9	A-AC10	A-AC11	A-AC12	A-AC13	A-AC14	A-AC15	A-AC16	A-DC1	A-DC2	A-DC3	A-DC4	A-DC5	A-DC6	A-DC7	A-DC8	A-DC9	A-DC10	A-DC11	A-DC12	A-DC13	A-DC14	A-DC15	A-DC16	A-Ph1	A-Ph2	A-Ph3	A-Ph4	A-Ph5	A-Ph6	A-Ph7	A-Ph8	A-Ph9	A-Ph10	A-Ph11	A-Ph12	A-Ph13	A-Ph14	A-Ph15	A-Ph16	

Term	0.00000e+00	0.00000e+00	0.00000e+00	0.00000e+00	0.00000e+00	0.00000e+00	0.00000e+00	0.00000e+00	0.00000e+00	0.00000e+00	0.00000e+00	0.00000e+00	0.00000e+00	0.00000e+00	0.00000e+00	0.00000e+00	0.00000e+00	0.00000e+00	0.00000e+00	0.00000e+00	0.00000e+00	0.00000e+00	0.00000e+00	0.00000e+00	0.00000e+00	0.00000e+00	0.00000e+00	0.00000e+00	0.00000e+00	0.00000e+00	0.00000e+00	0.00000e+00	0.00000e+00	0.00000e+00	0.00000e+00	0.00000e+00	0.00000e+00	0.00000e+00	0.00000e+00	0.00000e+00	0.00000e+00	0.00000e+00	0.00000e+00	0.00000e+00	0.00000e+00	0.00000e+00	0.00000e+00	0.00000e+00	
Factor	1.00000e+00	1.00000e+00	1.00000e+00	1.00000e+00	1.00000e+00	1.00000e+00	1.00000e+00	1.00000e+00	1.00000e+00	1.00000e+00	1.00000e+00	1.00000e+00	1.00000e+00	1.00000e+00	1.00000e+00	1.00000e+00	1.00000e+00	1.00000e+00	1.00000e+00	1.00000e+00	1.00000e+00	1.00000e+00	1.00000e+00	1.00000e+00	1.00000e+00	1.00000e+00	1.00000e+00	1.00000e+00	1.00000e+00	1.00000e+00	1.00000e+00	1.00000e+00	X	X	X	X	X	X	X	X	X	X	X	X	X	X	X	X	

B = Detector Channel
Val Type	B-AC1	B-AC2	B-AC3	B-AC4	B-AC5	B-AC6	B-AC7	B-AC8	B-AC9	B-AC10	B-AC11	B-AC12	B-AC13	B-AC14	B-AC15	B-AC16	B-DC1	B-DC2	B-DC3	B-DC4	B-DC5	B-DC6	B-DC7	B-DC8	B-DC9	B-DC10	B-DC11	B-DC12	B-DC13	B-DC14	B-DC15	B-DC16	B-Ph1	B-Ph2	B-Ph3	B-Ph4	B-Ph5	B-Ph6	B-Ph7	B-Ph8	B-Ph9	B-Ph10	B-Ph11	B-Ph12	B-Ph13	B-Ph14	B-Ph15	B-Ph16	

Term	0.00000e+00	0.00000e+00	0.00000e+00	0.00000e+00	0.00000e+00	0.00000e+00	0.00000e+00	0.00000e+00	0.00000e+00	0.00000e+00	0.00000e+00	0.00000e+00	0.00000e+00	0.00000e+00	0.00000e+00	0.00000e+00	0.00000e+00	0.00000e+00	0.00000e+00	0.00000e+00	0.00000e+00	0.00000e+00	0.00000e+00	0.00000e+00	0.00000e+00	0.00000e+00	0.00000e+00	0.00000e+00	0.00000e+00	0.00000e+00	0.00000e+00	0.00000e+00	6.09306e+01	-1.28867e+02	-1.24252e+02	-1.83791e+02	-7.10263e+01	-6.44181e+01	-1.55111e+02	-1.62015e+02	-5.97362e+01	-7.09102e+01	-1.70545e+02	-1.70268e+02	-1.83573e+02	-1.76953e+02	-6.30865e+01	-1.49760e+02	
Factor	6.88653e-05	1.99114e-04	5.52351e-05	1.82487e-01	2.78844e-06	2.19230e-06	1.74721e-01	5.94271e-02	3.46584e-06	1.87842e-06	9.44179e-02	3.29784e-02	3.44525e-02	1.09698e-02	2.67653e-06	1.53179e-02	1.06372e-05	1.32956e-05	3.69939e-06	9.20757e-02	1.38416e-07	1.48277e-07	8.30070e-02	2.99589e-02	1.38529e-07	1.47423e-07	4.64028e-02	1.61447e-02	1.73924e-02	5.58577e-03	1.42191e-07	7.57640e-03	X	X	X	X	X	X	X	X	X	X	X	X	X	X	X	X	



#DISTANCE SETTINGS
A = Detector Channel
A-1	A-2	A-3	A-4	A-5	A-6	A-7	A-8	A-9	A-10	A-11	A-12	A-13	A-14	A-15	A-16	

2.5000e+00	3.0000e+00	2.5000e+00	3.0000e+00	2.0000e+00	3.0000e+00	1.5000e+00	3.0000e+00	3.0000e+00	3.0000e+00	3.0000e+00	3.0000e+00	3.0000e+00	3.0000e+00	1.5000e+00	3.0000e+00	

B = Detector Channel
B-1	B-2	B-3	B-4	B-5	B-6	B-7	B-8	B-9	B-10	B-11	B-12	B-13	B-14	B-15	B-16	

1.0000e+01	1.0000e+01	1.0000e+01	1.4400e+00	1.0000e+01	1.0000e+01	1.5100e+00	1.9400e+00	1.0000e+01	1.0000e+01	1.9900e+00	2.4900e+00	2.4100e+00	2.9000e+00	1.0000e+01	2.9800e+00	




#DATA BEGINS
time	group	step	mark	flag	A-AC1	A-AC2	A-AC3	A-AC4	A-AC5	A-AC6	A-AC7	A-AC8	A-AC9	A-AC10	A-AC11	A-AC12	A-AC13	A-AC14	A-AC15	A-AC16	A-DC1	A-DC2	A-DC3	A-DC4	A-DC5	A-DC6	A-DC7	A-DC8	A-DC9	A-DC10	A-DC11	A-DC12	A-DC13	A-DC14	A-DC15	A-DC16	A-Ph1	A-Ph2	A-Ph3	A-Ph4	A-Ph5	A-Ph6	A-Ph7	A-Ph8	A-Ph9	A-Ph10	A-Ph11	A-Ph12	A-Ph13	A-Ph14	A-Ph15	A-Ph16	B-AC1	B-AC2	B-AC3	B-AC4	B-AC5	B-AC6	B-AC7	B-AC8	B-AC9	B-AC10	B-AC11	B-AC12	B-AC13	B-AC14	B-AC15	B-AC16	B-DC1	B-DC2	B-DC3	B-DC4	B-DC5	B-DC6	B-DC7	B-DC8	B-DC9	B-DC10	B-DC11	B-DC12	B-DC13	B-DC14	B-DC15	B-DC16	B-Ph1	B-Ph2	B-Ph3	B-Ph4	B-Ph5	B-Ph6	B-Ph7	B-Ph8	B-Ph9	B-Ph10	B-Ph11	B-Ph12	B-Ph13	B-Ph14	B-Ph15	B-Ph16	aux-1	digaux	

858.232	1	1	0	256	0.24242	0.078008	0.044573	0.31495	0.030097	0.2068	0.2307	0.21284	0.15102	0.114	0.13152	0.18267	0.13865	0.087146	0.14761	0.28032	-2.6958	-2.7104	-2.9125	-3.0938	-2.7562	-3.1396	-3.1333	-2.8104	-3.0625	-2.7854	-2.9917	-3.175	-2.775	-3.2521	-3.1083	-3.1479	75.167	249.543	285.099	348.797	301.997	122.737	319.202	326.394	344.504	17.079	345.902	271.418	109.728	307.447	73.831	343.001	0.0020792	0.001083	0.00020172	1173.7	1.543e-05	1.2079e-05	1209.2	413.38	2.2347e-05	1.1748e-05	520.91	221.88	166.02	75.706	1.5392e-05	124.37	0.0024568	0.0026552	0.00074953	1168.6	2.8602e-05	2.9821e-05	1198.8	413.16	2.8116e-05	2.9264e-05	522.29	222.12	166.45	76.532	2.8964e-05	124.66	338.674	97.231	127.592	18.844	178.327	183.016	18.509	23.738	145.812	170.594	22.929	27.173	27.901	31.856	188.672	30.568	-8191	255	
858.326	1	1	0	0	0.22201	0.36883	0.16095	0.18283	0.092752	0.21909	0.30236	0.20809	0.10997	0.079407	0.28565	0.27631	0.13809	0.034148	0.078807	0.098347	-2.6021	-2.8958	-2.7646	-3.1667	-2.9125	-2.8771	-2.9792	-3.0375	-2.9083	-2.9562	-2.9938	-3.2188	-3.1083	-3.1083	-3.1063	-3.025	234.537	246.854	71.226	230.078	164.779	205.509	276.543	65.216	308.876	302.911	349.646	325.039	312.703	349.931	101.430	306.602	0.0022253	0.00083379	0.00048934	1169.4	1.3528e-05	6.7882e-06	1208.5	414.42	1.4541e-05	9.2227e-06	519.8	220.73	164.92	75.891	1.2942e-05	123.78	0.0024598	0.0026709	0.0007607	1170.5	2.8369e-05	2.95e-05	1199.7	413	2.8217e-05	2.8966e-05	520.89	221.4	165.65	76.347	2.9311e-05	124.5	331.487	88.195	112.440	18.781	143.689	158.186	18.611	23.619	173.119	126.422	22.949	27.404	28.088	31.896	147.260	30.755	-8191	255	
858.424	1	1	0	0	0.084492	0.2503	0.23009	0.1465	0.1617	0.12574	0.27135	0.35997	0.065371	0.3595	0.15541	0.19203	0.13475	0.075344	0.21354	0.17104	-2.65	-2.9875	-2.7854	-3.0875	-2.9062	-2.8563	-3.2271	-2.9604	-3.0438	-3.0083	-2.9313	-3.2521	-3.0687	-3.1562	-2.9521	-2.9604	74.491	145.192	116.468	324.517	323.580	38.668	333.663	311.822	104.626	44.986	313.311	324.133	343.132	81.120	73.031	329.153	0.0020463	0.00098074	0.00021482	1177.6	9.0966e-06	4.0549e-06	1206.2	413.37	6.4066e-06	1.0327e-05	515.88	219.93	164.88	75.163	1.745e-05	122.36	0.0024768	0.0026956	0.00077891	1173.5	2.7986e-05	2.9845e-05	1197.5	412.75	2.7853e-05	2.9291e-05	518.62	219.99	165.13	75.771	2.9206e-05	123.07	336.565	64.317	119.887	18.689	189.666	297.830	18.597	23.796	149.292	122.698	23.054	27.411	28.014	31.993	177.592	30.816	-8191	255	
858.518	1	1	0	0	0.07787	0.14598	0.024856	0.26712	0.088641	0.3562	0.14309	0.10104	0.075318	0.16593	0.26161	0.13381	0.19303	0.076244	0.24702	0.27901	-2.6917	-2.9125	-2.5646	-3.1042	-3.0979	-2.7417	-3.2625	-2.8688	-3.1854	-3.0667	-2.9562	-3.2542	-2.925	-3.0458	-3.2313	-3.0208	269.479	147.698	220.418	323.805	127.992	195.762	224.986	62.999	178.796	335.885	21.560	61.934	329.029	215.801	304.801	342.654	0.002158	0.00059716	0.00033649	1170.3	1.7394e-05	7.5404e-06	1192	408.58	2.7274e-05	6.5741e-06	505.95	214.94	160.6	73.678	1.2117e-05	119.9	0.0024529	0.0026874	0.00077196	1167.6	2.7725e-05	3.0356e-05	1185.3	407.47	2.8034e-05	2.938e-05	507.74	214.93	161.82	74.261	2.8694e-05	120.38	336.832	93.252	99.017	18.682	165.502	192.561	18.519	23.609	146.273	200.572	23.076	27.391	28.040	32.058	150.591	30.633	-8191	255	
858.615	1	1	0	0	0.17361	0.12622	0.18184	0.13325	0.042798	0.21588	0.22911	0.17227	0.29717	0.20561	0.24604	0.26761	0.24982	0.12309	0.15066	0.35116	-2.5417	-2.9542	-2.8042	-3.2271	-2.7271	-2.8792	-3.1896	-2.9229	-3.0229	-2.9833	-3.0729	-3.0917	-2.9229	-3.0667	-3.0687	-3.2125	283.565	46.336	30.767	28.648	155.650	22.470	297.420	309.238	137.853	84.453	327.877	364.238	235.894	346.071	214.761	289.097	0.0019681	0.00070988	0.00025555	1163.7	1.64e-05	1.1956e-05	1183.2	405.75	9.9045e-06	6.5164e-06	502.41	213.44	160.48	73.605	1.9494e-05	119.47	0.0023863	0.0026352	0.0007542	1161.8	2.733e-05	3.0014e-05	1176.6	403.55	2.8163e-05	2.9848e-05	503.41	213.24	161.13	74.07	2.8718e-05	120.19	335.202	77.049	75.993	18.656	216.598	150.639	18.657	23.511	166.730	152.383	22.798	27.468	27.826	31.915	176.540	30.968	-8191	255	
858.711	1	1	0	0	0.11952	0.13927	0.12326	0.16449	0.24979	0.31366	0.13479	0.098951	0.18246	0.096118	0.15232	0.1199	0.096081	0.274	0.095691	0.34964	-2.4792	-3.0646	-2.8333	-3.1354	-2.8104	-2.725	-3.1896	-2.9708	-2.9271	-3.1083	-2.9688	-3.0938	-3.1729	-3.1188	-3.1667	-3.0979	275.620	300.997	118.688	267.839	339.953	8.983	55.496	255.595	280.876	81.467	27.909	325.444	242.700	314.428	244.327	309.615	0.0020611	0.00062106	0.00013035	1161.3	1.5099e-05	1.3292e-05	1181.4	401.48	1.8933e-05	7.8166e-06	501.61	212.87	159.32	73.804	6.3655e-06	120.9	0.0024382	0.0026606	0.00074354	1158	2.7358e-05	3.0082e-05	1173.2	400.1	2.7615e-05	2.876e-05	502.41	213.24	160.3	74.25	2.8018e-05	121.28	335.432	107.236	85.261	18.522	130.947	166.491	18.467	23.628	156.676	124.977	23.065	27.469	28.008	31.942	167.578	30.604	-8191	255	
858.831	1	1	0	0	0.18637	0.21408	0.25568	0.14987	0.19847	0.20578	0.26335	0.13911	0.066237	0.1822	0.10496	0.16581	0.35004	0.036996	0.061104	0.52658	-2.5	-2.875	-2.825	-3.0833	-2.9604	-2.8417	-3.2521	-2.9917	-2.7958	-3.1292	-2.8063	-3.1312	-3.0896	-2.8	-3.0146	-2.9708	57.896	323.192	216.251	298.003	117.804	92.454	320.487	7.914	290.648	201.760	224.026	359.549	313.134	198.685	100.166	340.499	0.0022234	0.0012374	0.00034368	1162.5	1.4471e-05	1.2735e-05	1184	404.2	2.2849e-05	5.7258e-06	508.62	216.83	162.01	74.799	1.3729e-05	122.43	0.0023948	0.0026093	0.00072606	1156.2	2.7221e-05	2.9424e-05	1177.4	402.7	2.7756e-05	2.8677e-05	509.4	216.84	162.23	75.155	2.7802e-05	122.95	336.393	89.114	128.809	18.703	176.315	152.364	18.566	23.839	191.999	196.647	22.916	27.386	28.064	31.881	157.100	30.506	-8191	255	
858.928	1	1	0	0	0.21783	0.13621	0.083382	0.2161	0.051876	0.043583	0.20273	0.14879	0.034446	0.072052	0.096699	0.24699	0.16034	0.23295	0.095227	0.19853	-2.4583	-3.075	-2.7	-2.9521	-3.0917	-2.6917	-3.0438	-3.1021	-2.7062	-3.0771	-2.9854	-3.0104	-3.1562	-3.1542	-3.1125	-3.0646	304.407	44.702	159.081	295.811	285.440	255.739	340.040	39.491	289.161	121.720	126.502	289.128	12.652	346.193	223.627	292.606	0.0022241	0.00080113	0.00023498	1160.9	1.5422e-05	7.5421e-06	1191	404.35	2.1471e-05	4.9365e-06	511.62	219.66	163.41	75.047	1.1765e-05	123.51	0.0023874	0.0025818	0.00071343	1155.9	2.7039e-05	2.8996e-05	1179.7	403.94	2.7705e-05	2.8535e-05	512.32	219.16	163.46	75.672	2.7421e-05	124.28	332.473	80.628	91.749	18.767	186.281	176.993	18.452	23.445	163.158	200.593	22.818	27.322	28.164	31.938	178.359	30.610	-8191	255	
859.024	1	1	0	0	0.23579	0.16308	0.10522	0.37507	0.21356	0.17266	0.11069	0.13328	0.076322	0.085927	0.28848	0.072386	0.084589	0.20212	0.21125	0.23115	-2.3042	-2.9875	-2.9062	-2.9	-3.1417	-2.85	-3.1188	-3.0312	-2.9083	-3.0438	-3.0021	-2.9542	-3.0292	-2.8625	-3.1208	-2.9792	44.518	36.979	102.418	39.228	294.123	144.190	46.421	26.995	350.254	118.726	358.528	300.118	8.650	336.198	351.453	275.911	0.0019965	0.00071517	0.00026438	1153.1	9.4774e-06	1.252e-05	1195	408.39	1.6986e-05	7.3328e-06	520.36	223.29	164.74	76.272	1.0501e-05	125.62	0.0023916	0.0025807	0.0007105	1148.7	2.7363e-05	2.9104e-05	1187.7	407.78	2.8108e-05	2.8682e-05	521.45	223.55	165.76	76.822	2.8184e-05	126.12	335.547	93.765	90.656	18.665	192.374	126.435	18.780	23.717	178.174	138.458	22.898	27.166	28.015	31.893	199.267	30.386	-8191	255	
859.095	1	1	0	0	0.028741	0.22987	0.087714	0.23472	0.13125	0.10184	0.30744	0.12201	0.076145	0.059978	0.045363	0.30583	0.35383	0.13252	0.26225	0.20807	-2.2375	-3.0375	-2.8688	-2.9813	-3.0917	-2.8438	-3.1562	-3.0896	-2.7854	-2.9813	-2.8063	-2.8792	-3.0208	-2.925	-3.0333	-3.0521	40.996	37.718	17.865	293.289	315.969	356.609	22.940	137.345	265.021	212.530	246.955	288.898	309.899	334.989	299.918	315.239	0.0021748	0.0010606	0.00037435	1158.8	9.785e-06	9.4754e-06	1200.2	410.67	2.2066e-05	6.8437e-06	523.26	224.68	166.04	76.546	1.3651e-05	126	0.002452	0.0025971	0.00072188	1153.6	2.7457e-05	2.8769e-05	1192.5	409.49	2.7531e-05	2.8663e-05	523.75	224.59	166.48	76.999	2.8384e-05	126.55	332.961	129.771	98.735	18.755	115.517	167.143	18.715	23.716	181.735	128.685	22.857	27.337	27.965	31.642	150.930	30.579	-8191	255	
859.216	1	1	0	0	0.2516	0.11495	0.36668	0.18278	0.12861	0.27155	0.23687	0.15752	0.11353	0.25546	0.45316	0.25844	0.20792	0.32404	0.23171	0.14832	-2.2292	-3.0646	-2.975	-2.9646	-3.1917	-2.8417	-3.1208	-3.2188	-2.6896	-2.9771	-3.1646	-2.8083	-3.0583	-3.1021	-2.9167	-3.1771	65.259	72.670	177.781	248.627	344.726	72.611	329.424	268.158	35.689	45.539	349.875	327.987	360.863	7.163	267.331	297.700	0.002267	0.00098258	0.00037249	1156.1	1.9721e-05	1.2176e-05	1203.1	412.31	1.3135e-05	2.9142e-06	526.12	225.01	166.69	76.876	1.5107e-05	126.94	0.0024239	0.0025967	0.00072716	1152.6	2.7817e-05	2.8831e-05	1194.1	411.43	2.7942e-05	2.8364e-05	527.04	225.56	167.1	77.303	2.8803e-05	127.31	340.390	118.386	96.440	18.814	165.445	154.862	18.579	23.744	173.408	161.392	22.834	27.470	28.051	31.904	197.760	30.657	-8191	255	
859.310	1	1	0	0	0.18435	0.30942	0.22452	0.26638	0.087379	0.2201	0.39185	0.23346	0.17653	0.04215	0.15135	0.16407	0.10257	0.26451	0.04032	0.31484	-2.4333	-2.8583	-2.7896	-2.9625	-3.1708	-2.8312	-2.9813	-3.1542	-2.8333	-2.9	-2.9771	-2.8563	-3.0729	-2.95	-2.7729	-3.0542	193.426	36.662	52.729	357.779	347.841	207.131	316.270	337.812	319.539	77.187	325.546	57.529	350.932	342.458	22.050	221.370	0.0021942	0.00062877	0.00027298	1158.7	9.6499e-06	5.8442e-06	1205.8	413.84	7.9905e-06	1.0024e-05	528.69	226.89	166.85	76.893	1.3706e-05	126.91	0.0024178	0.0026293	0.00073717	1157	2.762e-05	2.9235e-05	1199	412.64	2.826e-05	2.9406e-05	529.4	227.22	167.39	77.349	2.9127e-05	127.56	337.920	138.091	108.835	18.751	160.961	204.091	18.788	23.688	181.156	167.431	22.911	27.301	28.142	31.815	180.634	30.625	-8191	255	
859.407	1	1	0	0	0.18159	0.11175	0.27407	0.2424	0.2083	0.1148	0.23882	0.021769	0.077854	0.13728	0.12505	0.23802	0.18937	0.20811	0.29857	0.50802	-2.3167	-2.7958	-2.8125	-2.7667	-2.8979	-3.0438	-2.9042	-3.1813	-2.8729	-2.8292	-3.0771	-2.8229	-2.8979	-3.1042	-2.8604	-3.3521	354.237	188.009	116.809	56.545	39.555	39.240	281.594	286.080	100.231	103.417	323.290	361.368	357.984	332.076	15.676	6.593	0.0021022	0.0010263	0.00029436	1164.9	8.268e-06	2.8283e-06	1207.6	413.05	2.2047e-05	8.9997e-06	526.94	227.16	166.57	76.659	1.091e-05	127.17	0.0024026	0.0026554	0.00075016	1162.4	2.772e-05	2.9355e-05	1202.8	412.36	2.791e-05	2.9838e-05	528.39	226.69	167.48	77.214	2.9844e-05	127.9	335.771	91.252	118.781	18.899	161.445	150.161	18.875	23.597	185.640	163.343	22.948	27.353	28.003	31.888	162.965	30.637	-8191	255	
859.504	1	1	0	0	0.27967	0.10793	0.17318	0.20877	0.098732	0.21366	0.32104	0.081392	0.082984	0.070766	0.24144	0.12757	0.18787	0.21962	0.14148	0.04039	-2.3271	-2.8563	-2.9604	-2.9167	-3.0771	-3.0187	-2.7667	-3.1146	-2.9833	-2.7521	-3.1	-2.8125	-3.0292	-2.9625	-2.9229	-3.1146	364.653	18.843	291.434	307.186	148.129	72.621	297.000	121.098	308.112	130.803	305.529	229.544	335.535	275.596	321.056	117.088	0.0021774	0.0010694	0.00031569	1164.9	1.1929e-05	2.4414e-06	1215.3	415.17	1.8844e-05	5.9423e-06	529.57	228.51	167.26	76.743	1.8923e-05	127.9	0.002462	0.0027327	0.00075803	1163	2.8095e-05	3.014e-05	1206.9	413.6	2.8163e-05	3.085e-05	530.69	227.78	167.55	77.405	3.0135e-05	128.59	332.618	104.960	103.216	18.741	171.862	7.488	18.607	23.573	204.966	156.683	22.879	27.366	27.999	31.892	188.742	30.821	-8191	255	
859.623	1	1	0	0	0.080222	0.13544	0.31018	0.44862	0.070155	0.14515	0.25207	0.062283	0.3559	0.11568	0.088176	0.27482	0.22673	0.13864	0.012804	0.30276	-2.3604	-2.9292	-3.2354	-2.8896	-2.9125	-3.0521	-2.7833	-3.2021	-2.8792	-2.8312	-2.9938	-2.9542	-2.8854	-3.2062	-2.5563	-3.1562	228.278	327.925	91.771	333.184	294.472	29.879	299.810	354.129	198.083	208.004	65.444	261.472	264.266	28.224	29.074	317.825	0.0020019	0.00068672	0.00039329	1173.3	1.6816e-05	9.1343e-06	1218.8	414.16	1.3743e-05	7.7392e-06	526.47	226.21	165.9	76.466	9.7253e-06	126.51	0.0024651	0.0027869	0.00075957	1167.7	2.8762e-05	3.0391e-05	1209	412.97	2.8351e-05	3.07e-05	528.28	226.06	166.57	76.932	2.9644e-05	127.08	339.404	97.330	102.746	18.705	148.845	171.150	18.685	23.780	167.298	132.528	22.721	27.366	28.055	31.840	156.673	30.784	-8191	255	
859.695	1	1	0	0	0.20981	0.078783	0.11738	0.088582	0.080653	0.22769	0.26285	0.18956	0.25591	0.2387	0.18381	0.017875	0.18635	0.2261	0.11092	0.23689	-2.3292	-2.7125	-3.0021	-3.0938	-2.9271	-3.075	-2.95	-3.0896	-2.8292	-2.8833	-3.0833	-3.1708	-2.9437	-3.1917	-2.6625	-3.2313	331.877	139.370	284.647	23.670	125.234	39.510	345.874	321.932	358.983	41.321	350.136	303.959	288.296	10.589	317.115	345.766	0.0018995	0.00067679	0.0002427	1159.9	3.2626e-06	1.1204e-05	1202	409.48	1.1184e-05	5.6463e-06	521.74	224.04	164.88	75.825	9.9629e-06	125	0.0025012	0.0028041	0.00075763	1155	2.863e-05	3.0371e-05	1193.7	409.47	2.8023e-05	3.0883e-05	523.28	223.7	165.39	76.403	2.9235e-05	125.57	333.805	79.275	113.409	18.600	128.109	154.109	18.915	23.691	148.807	119.770	22.967	27.244	27.864	31.924	183.532	30.474	-8191	255	
859.791	1	1	0	0	0.10958	0.10605	0.049871	0.33295	0.15743	0.091442	0.12181	0.13108	0.16132	0.10728	0.22653	0.22491	0.14474	0.33915	0.074089	0.39708	-2.3563	-2.7583	-3.0062	-2.8958	-2.65	-3.1083	-2.7229	-2.95	-2.8354	-2.8167	-3.1354	-2.8438	-2.8271	-2.9979	-2.8167	-2.9917	66.555	218.604	331.240	323.584	302.648	294.719	32.272	331.845	86.739	45.238	211.858	319.984	299.018	354.186	216.181	314.020	0.0024482	0.00056539	0.00026394	1155.4	1.2329e-05	5.7047e-06	1189.9	409.13	1.6062e-05	7.9858e-06	519.57	221.92	163.5	75.633	2.8347e-05	124.65	0.0024734	0.0027586	0.00074732	1149.9	2.8974e-05	3.0515e-05	1183.8	407.64	2.8635e-05	3.0641e-05	520.36	222.13	164.39	76.129	2.8823e-05	125.41	333.521	121.139	95.426	18.771	150.202	177.046	18.662	23.853	166.358	155.170	23.180	27.374	28.084	31.945	166.424	30.577	-8191	255	
859.912	1	1	0	0	0.11981	0.13731	0.24975	0.16927	0.12617	0.24173	0.32984	0.30947	0.045591	0.12109	0.31416	0.073358	0.1619	0.38496	0.10304	0.1992	-2.5438	-2.6	-3.1667	-2.6875	-2.9958	-2.975	-2.9458	-3.0375	-3.0146	-2.7646	-3.0292	-2.8729	-2.9854	-3.1271	-2.7833	-2.9417	52.740	346.158	343.868	31.381	17.663	160.109	96.985	281.425	293.139	344.981	324.125	237.880	324.690	11.400	179.498	263.333	0.0020955	0.00073282	0.00018341	1151.3	1.6303e-05	1.2355e-05	1192.6	407.54	1.4273e-05	1.3368e-05	519.13	223.16	164.48	75.74	1.4928e-05	125.42	0.0024515	0.0027221	0.00074059	1146.7	2.8429e-05	2.9685e-05	1185.2	406.62	2.8461e-05	3.0425e-05	520.69	223.18	165.35	76.236	2.8966e-05	126.16	332.517	45.022	95.671	18.763	172.650	206.513	18.617	23.748	140.421	150.818	23.014	27.446	28.384	31.768	190.428	30.691	-8191	255	
860.008	1	1	0	0	0.13346	0.12994	0.16321	0.22221	0.1107	0.19665	0.096955	0.30884	0.21176	0.23319	0.13806	0.18894	0.2517	0.19677	0.13696	0.17265	-2.5958	-2.6229	-2.6708	-2.8937	-2.7313	-2.8896	-2.9292	-2.7479	-2.9667	-2.6521	-3.0667	-3.075	-2.8333	-3.0938	-2.7604	-2.9417	245.848	247.114	134.867	300.523	310.106	342.059	78.755	307.006	162.735	353.435	41.551	354.964	17.172	12.383	56.835	363.947	0.0020001	0.0013119	0.00012407	1149.7	1.657e-05	8.158e-06	1195	408.34	1.8421e-05	1.1134e-05	519.17	222.66	164.71	75.8	1.6183e-05	126.18	0.0024994	0.0027632	0.00074948	1147.5	2.8824e-05	2.9875e-05	1187.7	406.55	2.8672e-05	2.9794e-05	520.85	223.04	165.13	76.303	2.9236e-05	126.62	330.542	78.385	88.531	18.774	149.373	229.503	18.701	23.881	166.901	171.251	22.816	27.244	28.065	32.062	175.984	30.752	-8191	255	
860.104	1	1	0	0	0.23212	0.07658	0.16285	0.14485	0.13306	0.15919	0.04434	0.39987	0.20109	0.15804	0.14525	0.33967	0.12205	0.3074	0.18513	0.33077	-2.4917	-2.6833	-2.8479	-2.8271	-2.7125	-3.0083	-2.9813	-3.0125	-2.9313	-2.5729	-3.0333	-2.9354	-2.8583	-3.075	-2.825	-3.1271	102.230	302.484	276.172	259.693	135.986	217.528	299.276	302.931	169.089	118.992	236.431	307.377	241.711	364.505	106.299	314.743	0.0024334	0.0013848	0.00021764	1158	1.5685e-05	1.0316e-05	1201.1	409.56	1.7607e-05	6.849e-06	522.33	223.8	165.08	75.558	1.0137e-05	125.98	0.0025341	0.0027068	0.00076044	1150.8	2.9204e-05	3.0016e-05	1191.1	409.36	2.8563e-05	2.9452e-05	524.09	224.04	165.42	76.203	2.8777e-05	126.5	334.000	95.883	94.145	18.979	176.340	170.018	18.599	23.812	181.940	171.193	23.098	27.404	28.023	31.793	184.840	30.437	-8191	255	
860.225	1	1	0	0	0.018999	0.10439	0.10433	0.23975	0.17882	0.20876	0.11211	0.34775	0.18076	0.30027	0.23575	0.15563	0.32712	0.27242	0.18971	0.18617	-2.5458	-2.6396	-2.9729	-3.0917	-2.7083	-2.9917	-3.1354	-2.9313	-2.9146	-2.8563	-3.1104	-3.2354	-2.7292	-3.1083	-2.9042	-2.9729	156.823	208.494	287.019	316.986	146.453	293.698	100.612	320.444	140.776	323.016	302.534	27.863	360.406	323.420	231.270	258.031	0.0022189	0.0012607	0.00034075	1158.9	6.3662e-06	1.1547e-05	1206.7	410.53	1.3871e-05	1.3928e-05	523.37	223.3	163.96	75.233	9.1646e-06	124.44	0.0024608	0.0026428	0.00075663	1154.5	2.8953e-05	3.0201e-05	1197	409.32	2.8598e-05	2.953e-05	523.76	223.09	164.52	75.763	2.9026e-05	124.98	336.760	83.951	113.341	19.088	189.312	182.191	18.644	23.786	199.350	157.256	23.117	27.491	27.940	31.996	173.073	30.817	-8191	255	
860.296	1	1	0	0	0.21563	0.15988	0.24351	0.065751	0.17918	0.089341	0.34151	0.25296	0.24774	0.16736	0.073384	0.31662	0.35822	0.20843	0.13942	0.3678	-2.5312	-2.5917	-3.0042	-3.0875	-2.9917	-3.0229	-2.8979	-2.8417	-3.0958	-2.8688	-2.9833	-3.1146	-2.7354	-3.0771	-2.7313	-2.8833	281.282	132.635	84.416	330.457	266.528	24.977	265.641	322.082	109.529	299.152	33.358	59.003	361.094	360.156	66.653	252.663	0.0022953	0.00079167	0.00018669	1159.6	1.2873e-05	5.5128e-06	1195.3	405.45	2.101e-05	4.7091e-06	514.35	218.86	162.14	74.569	9.1802e-06	123.2	0.0024148	0.0026419	0.0007572	1152.6	2.7952e-05	2.9442e-05	1187.2	404.42	2.7974e-05	2.9044e-05	515.53	219.09	162.62	74.964	2.9025e-05	123.81	335.287	88.400	72.469	18.898	171.642	164.537	18.703	23.796	177.853	114.779	22.916	27.463	28.141	32.066	189.385	30.685	-8191	255	
860.393	1	1	0	0	0.17548	0.26614	0.12352	0.33118	0.037131	0.051427	0.16679	0.19226	0.12762	0.071592	0.11047	0.23172	0.17987	0.10126	0.13021	0.16001	-2.4583	-2.8167	-2.8458	-3.0854	-2.8771	-2.8375	-2.9313	-2.9542	-2.8812	-2.8229	-2.8521	-3.0667	-2.9208	-3.0604	-3.075	-2.9417	223.033	338.639	18.044	18.062	38.628	148.193	238.701	300.894	72.057	143.797	46.896	349.999	279.174	22.045	260.785	323.616	0.0020585	0.00031392	0.00010542	1150.1	1.2958e-05	9.2526e-06	1189.3	403.86	2.0657e-05	9.2785e-06	514.79	219.7	161.91	74.68	1.536e-05	123.66	0.0024232	0.0026805	0.00076448	1145.3	2.7933e-05	3.008e-05	1181.9	403.56	2.7784e-05	2.9406e-05	516.05	219.6	162.62	75.241	2.8825e-05	124.28	340.593	69.099	68.192	18.697	187.691	196.701	18.702	23.552	163.524	207.178	22.850	27.383	27.804	31.828	154.461	30.466	-8191	255	
860.511	1	1	0	0	0.034418	0.22195	0.36593	0.1303	0.14455	0.15272	0.037902	0.35581	0.11686	0.047317	0.023164	0.0629	0.31287	0.12376	0.27381	0.13104	-2.4646	-3.0458	-2.7313	-3.1604	-2.8708	-2.9979	-3.2792	-2.8792	-3.0104	-3.1271	-3.0521	-3.1417	-2.7708	-3.0958	-2.9167	-2.9521	297.185	56.382	152.214	238.030	346.632	290.411	204.143	51.206	193.431	244.585	244.051	108.235	9.013	326.348	269.500	18.469	0.0022205	0.00092755	0.00020056	1152.2	6.2983e-06	1.4038e-05	1191.5	405.38	1.8998e-05	5.8007e-06	516.34	220.38	161.89	74.517	9.4184e-06	123.68	0.0024257	0.002696	0.00076942	1144.8	2.827e-05	3.0187e-05	1182.3	404.34	2.7891e-05	2.9825e-05	517.45	220.52	162.75	75.152	2.8443e-05	124.33	335.146	60.223	58.834	18.920	184.732	197.534	18.820	23.793	188.420	142.419	23.017	27.456	27.985	32.021	210.104	30.530	-8191	255	
860.608	1	1	0	0	0.12297	0.21182	0.02057	0.1756	0.11558	0.36729	0.26994	0.17832	0.06281	0.076202	0.25378	0.35364	0.12993	0.59176	0.21582	0.18812	-2.6292	-2.8917	-2.7125	-3.1396	-2.8812	-2.8667	-3.2771	-2.8896	-2.9562	-3.0812	-2.8583	-3.1229	-2.8271	-2.7771	-3.1167	-3.1292	27.050	200.545	303.655	46.031	301.624	90.238	268.603	308.176	225.080	300.149	331.292	344.240	182.617	11.200	69.022	330.421	0.0022574	0.00060049	0.00026255	1151.1	1.1388e-05	3.5462e-06	1191.1	405.09	7.7026e-06	6.8104e-06	518.75	221.47	162.9	74.831	9.5664e-06	125.03	0.002449	0.0026915	0.00075849	1144.8	2.7963e-05	3.0083e-05	1184.1	404.28	2.8241e-05	2.9505e-05	519.11	221.74	163.73	75.555	2.8926e-05	125.5	335.563	79.165	79.083	18.734	178.515	88.049	18.800	23.622	182.400	151.274	22.820	27.294	27.973	31.936	190.238	30.459	-8191	255	
860.704	1	1	0	0	0.41596	0.33576	0.17931	0.064905	0.36819	0.12424	0.27485	0.21459	0.192	0.20078	0.34754	0.13386	0.053078	0.31084	0.10166	0.20442	-2.475	-2.8917	-2.7583	-3.1146	-2.8521	-2.9396	-3.1021	-3.0417	-2.975	-3.1146	-2.6979	-3.225	-2.9771	-2.9	-3.1458	-3.0438	247.099	122.991	186.643	340.211	179.654	288.743	334.936	313.564	170.277	96.597	330.113	114.088	254.949	10.484	362.805	337.203	0.0021876	0.0002843	0.00030584	1151.5	8.7911e-06	1.1113e-05	1195	403.86	1.2626e-05	9.8003e-06	520.22	223.4	162.95	75.615	6.7872e-06	125.35	0.0024827	0.0026886	0.00074409	1144.8	2.7829e-05	3.0098e-05	1188	404.41	2.8431e-05	2.942e-05	521.76	223.18	163.74	76.028	2.8928e-05	126.12	340.165	41.667	92.818	18.786	196.066	133.242	18.625	23.643	200.006	154.768	22.987	27.377	27.979	31.980	115.708	30.706	-8191	255	
860.800	1	1	0	0	0.14913	0.13691	0.16846	0.21417	0.05971	0.23337	0.27901	0.048039	0.22645	0.34856	0.11086	0.11568	0.027006	0.13897	0.09463	0.30307	-2.4104	-2.9979	-2.7229	-3.125	-2.9229	-2.9042	-3.275	-3.075	-3.0229	-3.1208	-2.9	-3.2271	-3.0833	-3.0167	-2.9958	-2.975	316.662	48.098	33.963	346.096	71.600	194.429	336.857	307.254	247.136	361.288	251.852	318.183	56.164	349.172	259.845	324.098	0.0021953	0.00072684	0.00017535	1151.7	1.4966e-05	9.0925e-06	1205.1	406.09	1.1909e-05	5.1865e-06	522.43	222.99	162.7	75.102	1.544e-05	124.94	0.0024587	0.0026987	0.00074089	1145.8	2.8378e-05	3.092e-05	1192	406.55	2.8658e-05	2.9728e-05	523.45	223.25	163.59	75.618	2.8114e-05	125.3	335.632	80.798	111.196	18.706	181.282	161.058	18.792	23.675	180.530	156.085	22.939	27.206	27.994	32.114	194.770	30.437	-8191	255	
860.920	1	1	0	0	0.25725	0.21562	0.1573	0.39688	0.21769	0.15203	0.30162	0.29219	0.18718	0.27	0.21331	0.040506	0.16615	0.098638	0.13257	0.17478	-2.3021	-2.9	-2.8229	-3.1104	-3.0687	-2.875	-3.1312	-3.2083	-2.8521	-3.0125	-2.8979	-3.2938	-3.1354	-2.8438	-3.0146	-3.0333	61.016	255.351	122.043	337.332	196.931	109.058	299.246	328.143	256.035	54.849	277.474	213.183	319.223	330.928	305.626	270.243	0.0019532	0.0012099	0.00026338	1148.8	7.7415e-06	1.3312e-05	1190.7	404.61	1.5473e-05	6.4737e-06	515	220.69	161.75	74.147	1.0292e-05	123.08	0.0024622	0.0026673	0.00073114	1143.5	2.8115e-05	2.9631e-05	1182	403.2	2.8512e-05	2.9143e-05	516.38	220.28	161.92	74.712	2.766e-05	123.8	336.528	64.378	114.574	18.648	183.011	144.553	18.439	23.833	179.892	132.334	22.925	27.231	27.889	31.887	213.655	30.688	-8191	255	
860.992	1	1	0	0	0.094505	0.16491	0.13128	0.28104	0.076572	0.078467	0.21611	0.23405	0.27454	0.22981	0.11442	0.12358	0.14024	0.1169	0.017851	0.18378	-2.575	-3.1208	-2.7146	-3.0125	-3.1167	-2.9958	-3.1437	-3.1375	-2.8375	-3.1958	-3.0583	-3.1208	-3.2875	-2.9646	-3.1729	-3.2542	128.445	6.502	215.952	329.579	75.169	318.447	339.848	350.976	328.743	9.880	360.546	338.064	7.749	261.087	236.420	126.884	0.0022326	0.0008529	0.00020909	1142.5	2.1899e-05	8.0452e-06	1184.9	400.63	2.2334e-05	9.9384e-06	511.89	218.05	159.78	73.805	1.0879e-05	122.64	0.0024303	0.0025734	0.00071765	1137.3	2.698e-05	2.877e-05	1176.3	400.27	2.7673e-05	2.8476e-05	512.36	217.89	160.79	74.171	2.7897e-05	122.94	335.747	114.314	78.967	18.762	146.421	107.552	18.745	23.722	146.102	102.252	22.883	27.399	28.078	31.897	167.377	30.535	-8191	255	
861.088	1	1	0	0	0.1277	0.083589	0.25186	0.14398	0.017506	0.12319	0.23363	0.24734	0.15738	0.08834	0.25734	0.13708	0.10499	0.31359	0.22248	0.14508	-2.4	-3.0958	-2.9938	-3.0312	-3.0792	-2.9688	-3.2083	-3.3458	-2.7375	-3.1167	-3.075	-2.9854	-3.3521	-3.0812	-3.1125	-3.0812	22.158	48.867	94.868	41.355	332.020	67.902	255.893	16.181	79.052	62.229	294.150	69.228	248.538	341.406	283.709	40.231	0.0019752	0.0012098	0.00030953	1151	1.3027e-05	1.3572e-05	1189.9	403.66	2.3339e-05	4.7272e-06	513.3	218.5	160.73	73.731	9.0058e-06	122.22	0.0024288	0.0026134	0.00072824	1142.4	2.7089e-05	2.8761e-05	1180.3	402.12	2.7559e-05	2.8199e-05	513.96	218.03	161.05	74.191	2.8432e-05	122.94	333.766	102.159	107.666	18.762	122.890	138.302	18.568	23.629	186.308	192.221	22.942	27.507	27.996	31.921	185.854	30.561	-8191	255	
861.184	1	1	0	0	0.094336	0.35841	0.016373	0.3702	0.393	0.088172	0.31728	0.12142	0.17331	0.31076	0.095733	0.16929	0.19478	0.21678	0.034353	0.070563	-2.4729	-3.1042	-3.0979	-3	-3.0938	-2.925	-3.3042	-3.3458	-2.8646	-3.0625	-3.1583	-3.0687	-3.2438	-2.9292	-2.8812	-3.2604	324.895	57.525	57.999	312.767	183.850	147.432	267.006	251.092	130.419	58.416	344.423	362.508	55.528	146.710	348.655	295.840	0.0018644	0.00057549	0.00024789	1149.9	1.1539e-05	1.5873e-05	1188.4	402.99	1.5832e-05	8.842e-06	512.41	218.83	159.94	73.669	1.9894e-05	122.44	0.0024123	0.0026022	0.00072529	1143.6	2.6915e-05	2.8907e-05	1181.1	401.52	2.7403e-05	2.8733e-05	513.93	218.8	160.82	74.119	2.812e-05	123.4	336.357	76.410	103.006	18.801	181.559	152.629	18.547	23.572	213.280	132.563	22.730	27.354	28.369	31.881	163.855	30.478	-8191	255	
861.303	1	1	0	0	0.065337	0.19691	0.1637	0.14577	0.25288	0.079884	0.13666	0.17607	0.16359	0.074126	0.032567	0.074409	0.13076	0.05748	0.06324	0.43999	-2.3833	-3.0479	-2.9875	-3.0146	-3.0062	-2.7917	-3.0083	-3.1646	-2.8896	-3.1125	-3.1167	-2.8958	-3.2729	-2.9292	-2.7938	-3.2542	198.821	235.379	102.063	332.819	32.146	63.778	280.894	10.330	321.048	59.395	270.358	153.978	312.477	336.585	47.557	280.836	0.0022163	0.00072074	0.00031209	1150.5	2.0334e-05	1.3669e-05	1189.2	402.73	2.0129e-05	6.7985e-06	514.24	220.27	161.18	73.877	1.7975e-05	123.66	0.0023562	0.0025623	0.00071388	1142.8	2.6571e-05	2.8803e-05	1182	402.03	2.7684e-05	2.8689e-05	515.54	220.04	161.55	74.437	2.8731e-05	124.09	335.986	96.758	95.114	18.718	153.265	171.477	18.769	23.604	174.687	175.206	22.977	27.443	27.919	32.066	159.819	30.561	-8191	255	
861.399	1	1	0	0	0.10068	0.11093	0.09372	0.29708	0.070059	0.24264	0.073749	0.33754	0.19319	0.062464	0.027634	0.26946	0.24178	0.086824	0.14013	0.11401	-2.5438	-3.0979	-3.075	-2.9625	-3.0479	-3	-2.9917	-3.2396	-2.8542	-3.0729	-3.1354	-2.7646	-3.0729	-2.975	-2.8042	-3.2583	309.255	254.527	339.959	288.841	267.798	347.535	148.959	330.598	104.644	16.950	319.598	300.293	6.095	42.309	30.862	124.902	0.0021444	0.00045301	0.00026522	1148	6.6989e-06	7.3195e-06	1194	404.63	1.3894e-05	8.8185e-06	515.48	219.67	160.17	73.838	8.9152e-06	123.06	0.0023694	0.0025944	0.00072293	1142.8	2.6698e-05	2.8766e-05	1185.9	402.05	2.7189e-05	2.9064e-05	515.41	219.37	160.99	74.299	2.8355e-05	123.63	336.775	92.373	84.805	18.636	154.568	162.920	18.655	23.559	189.543	152.336	22.661	27.383	28.011	31.784	184.381	30.583	-8191	255	
861.496	1	1	0	0	0.11374	0.18123	0.025096	0.16229	0.42018	0.089894	0.33039	0.06091	0.038541	0.08785	0.25974	0.063052	0.19183	0.3596	0.16439	0.29836	-2.4104	-2.8604	-3.0104	-3.0354	-3.0104	-2.9146	-3.075	-3.1667	-2.9062	-2.9021	-3.1104	-2.9188	-3.0062	-2.8958	-2.8479	-3.3854	265.007	266.377	318.759	14.859	16.223	78.575	244.925	52.299	292.279	303.869	345.573	10.069	328.047	347.116	326.798	284.909	0.0021775	0.0011052	0.00022635	1141.2	2.2381e-05	1.5783e-06	1184.4	400.73	2.1059e-05	8.3724e-06	510.6	217.92	159.16	73.016	1.1762e-05	122.13	0.0023735	0.0025891	0.00073247	1138.5	2.7113e-05	2.8861e-05	1178	399.61	2.694e-05	2.8563e-05	511.74	217.61	159.59	73.74	2.8007e-05	122.92	330.986	107.091	82.274	18.725	186.718	159.950	18.523	23.658	181.748	178.989	22.927	27.410	28.188	31.891	172.047	30.646	-8191	255	
861.592	1	1	0	0	0.2817	0.16228	0.15203	0.1386	0.20307	0.15066	0.152	0.13923	0.079348	0.24219	0.16644	0.13415	0.27876	0.25103	0.035504	0.16934	-2.4625	-2.8167	-3.1312	-2.9271	-3.2354	-3.0333	-2.9896	-3.2833	-2.9271	-2.9396	-3.3438	-3.0312	-3.2	-2.9646	-2.7938	-3.2417	163.670	240.536	111.696	249.782	244.347	45.161	290.130	38.080	199.098	254.289	339.697	204.546	80.355	364.844	350.151	358.990	0.002181	0.00087775	0.00027139	1137.3	1.2025e-05	3.7026e-06	1182.4	399.59	1.8422e-05	1.036e-05	512.93	218.83	159.29	73.492	9.4448e-06	123.34	0.002341	0.0025865	0.00071335	1132.4	2.683e-05	2.8308e-05	1172.8	398.42	2.7301e-05	2.9367e-05	513.03	218.66	159.93	74.104	2.8138e-05	123.81	334.879	98.360	74.576	18.767	147.394	153.321	18.544	23.801	171.673	145.127	22.807	27.188	27.948	31.846	196.359	30.396	-8191	255	
861.688	1	1	0	0	0.29522	0.10715	0.017994	0.23327	0.048636	0.11131	0.25749	0.087954	0.20246	0.23438	0.087746	0.36711	0.19072	0.28752	0.048422	0.13136	-2.5583	-2.7542	-3.0229	-3.0375	-2.9875	-3.1729	-2.9813	-3.3208	-3.025	-2.8854	-3.2125	-2.975	-3.0333	-3.1396	-3.0229	-3.3271	230.499	92.750	326.275	355.013	290.977	263.255	48.091	127.051	158.758	212.863	285.709	322.564	343.432	343.739	31.310	311.885	0.0021456	0.00090808	0.00037541	1132.6	1.2102e-05	9.4817e-06	1180.4	401.29	1.8398e-05	8.0615e-06	517.6	221.26	161.04	74.468	9.5058e-06	124.62	0.0023359	0.0026298	0.00070715	1128.1	2.7255e-05	2.8697e-05	1175.4	399.86	2.7361e-05	2.9578e-05	517.83	221.12	161.88	75.077	2.8295e-05	125.21	332.219	82.469	71.304	18.548	153.260	149.983	18.620	23.670	184.001	176.545	22.879	27.413	27.842	31.846	206.544	30.500	-8191	255	
861.784	1	1	0	0	0.062232	0.084492	0.14011	0.25797	0.22486	0.1026	0.18033	0.37061	0.080091	0.047275	0.15564	0.34694	0.24052	0.065829	0.28224	0.20894	-2.6	-2.7562	-3.0375	-2.8479	-2.7583	-3.1229	-2.9604	-3.2708	-3.0375	-2.9083	-3.1562	-3.0375	-2.9521	-3.1875	-2.9458	-3.2	77.328	348.834	309.604	331.889	337.198	9.488	241.637	304.005	146.416	364.422	156.703	297.097	24.148	344.547	115.869	318.471	0.0022946	0.0010332	0.00026204	1142.1	9.7333e-06	1.0621e-05	1190.4	401.36	9.5578e-06	4.2199e-06	511.19	216.82	159.03	72.705	9.868e-06	121.47	0.0023991	0.0026822	0.00070774	1135.2	2.7516e-05	2.851e-05	1178.9	400.37	2.7088e-05	2.8521e-05	511.46	216.76	159.22	73.13	2.7517e-05	122.05	336.644	95.364	95.328	18.833	136.126	202.286	18.645	23.689	157.619	179.984	22.869	27.535	28.141	31.870	180.538	30.779	-8191	255	
861.905	1	1	0	0	0.14521	0.17958	0.16107	0.20936	0.13543	0.14122	0.16685	0.43835	0.2206	0.24336	0.17514	0.088243	0.14628	0.070112	0.042948	0.35849	-2.5563	-2.6542	-3.0042	-2.9458	-2.8583	-2.9729	-2.8625	-3.2812	-3.0354	-2.9125	-3.3563	-3.0646	-2.9625	-3.3917	-2.8333	-3.0812	319.622	94.555	80.461	299.412	258.290	290.997	11.094	359.408	284.744	258.707	311.620	134.537	18.061	360.633	178.335	319.126	0.0022199	0.0014012	0.00035598	1142.9	1.8727e-05	1.044e-05	1187.2	401.66	1.3607e-05	9.9503e-06	512.55	219.23	159.69	73.643	1.0586e-05	123.33	0.0023203	0.0025519	0.00070563	1140.2	2.7105e-05	2.8033e-05	1179.7	401.31	2.6957e-05	2.8403e-05	514.41	219.27	160.22	73.984	2.7773e-05	123.66	336.366	83.992	84.068	18.857	157.505	163.112	18.624	23.550	163.418	143.302	22.900	27.662	28.016	31.777	154.456	30.639	-8191	255	
862.001	1	1	0	0	0.16682	0.019881	0.26519	0.076863	0.22043	0.14913	0.057674	0.24323	0.098911	0.1147	0.42934	0.14915	0.27663	0.37543	0.13439	0.1045	-2.7062	-2.9229	-2.9083	-3.2333	-2.825	-3.2167	-3.1771	-2.9458	-3.175	-2.8958	-3.3146	-3.0646	-2.8729	-3.0125	-2.9688	-3.1896	315.728	349.241	348.827	271.637	92.960	53.270	50.662	352.681	291.543	218.076	316.017	309.906	350.227	15.090	215.207	73.535	0.0020854	0.00079408	0.00020343	1145.9	6.1485e-06	5.3951e-06	1185.9	402.48	2.1508e-05	1.0941e-05	513.82	220.16	160.33	73.804	1.8766e-05	123.74	0.0023363	0.0025756	0.00070797	1139	2.7432e-05	2.8018e-05	1179.1	400.52	2.7139e-05	2.8817e-05	514.77	219.63	160.88	74.306	2.8454e-05	124.39	337.549	109.527	55.032	18.831	154.055	245.322	18.698	23.715	171.519	162.146	23.053	27.437	27.877	31.858	157.145	30.715	-8191	255	
862.097	1	1	0	0	0.094911	0.066992	0.14167	0.26492	0.21805	0.17183	0.099127	0.0091532	0.080319	0.11371	0.20939	0.031973	0.096505	0.49327	0.36249	0.16028	-2.6979	-2.7188	-3	-3.1021	-2.7729	-3.0271	-3.1021	-2.9167	-3.0667	-2.7646	-3.2667	-3.1604	-2.9646	-3.2542	-3.0646	-2.9208	50.507	22.843	359.998	337.532	73.219	309.951	174.051	278.664	191.095	76.773	330.755	104.637	321.212	345.614	44.750	322.094	0.0020692	0.00083528	0.0002156	1131.8	1.1064e-05	5.8425e-06	1179.4	400.77	6.2404e-06	6.5909e-06	512.97	219.11	160.14	73.799	1.0347e-05	123.25	0.002391	0.0026458	0.00073207	1128.6	2.7671e-05	2.8802e-05	1171.7	400	2.7267e-05	2.8861e-05	513.55	218.95	160.43	74.237	2.7816e-05	123.9	334.446	119.921	76.723	18.740	139.703	174.092	18.604	23.726	188.070	146.917	22.725	27.111	28.033	31.827	197.405	30.683	-8191	255	
862.193	1	1	0	0	0.17065	0.34627	0.096113	0.067839	0.13871	0.16974	0.13283	0.23867	0.2205	0.063463	0.10097	0.22336	0.060246	0.16236	0.13802	0.1026	-2.7229	-2.7792	-3.1021	-3.125	-2.6854	-3.1167	-2.9062	-3.1437	-3.0917	-2.9562	-3.0896	-3.3583	-2.8771	-3.3083	-2.9833	-3.0833	326.434	84.493	229.364	281.248	171.296	84.869	316.410	345.659	121.119	14.044	342.391	362.179	305.739	345.531	31.826	269.746	0.0019513	0.00093064	0.00030974	1130.8	1.4729e-05	8.9931e-06	1181.2	397.43	1.7224e-05	5.7185e-06	508.34	217.46	158.25	72.859	2.8468e-06	121.8	0.002337	0.0025993	0.00072233	1123.5	2.6774e-05	2.8281e-05	1169.8	396.8	2.6624e-05	2.8058e-05	509.96	217.04	159.07	73.374	2.6731e-05	122.42	338.957	104.527	116.684	19.034	160.682	120.450	18.834	23.674	180.947	361.923	23.081	27.404	28.022	32.114	132.387	30.701	-8191	255	
862.289	1	1	0	0	0.16814	0.30987	0.044922	0.34519	0.1586	0.075146	0.077791	0.28637	0.017259	0.21662	0.1584	0.18227	0.24378	0.10419	0.14319	0.25147	-2.8125	-2.8312	-2.7792	-3.2125	-2.8375	-3.1896	-3.1396	-2.9104	-3.0021	-2.8812	-2.9896	-3.1813	-2.8875	-3.2854	-2.9854	-2.9313	145.654	307.308	148.281	357.072	26.198	87.910	277.193	314.290	166.828	280.909	115.704	324.910	155.185	307.453	118.301	286.295	0.0021987	0.0012785	0.0003553	1139.7	1.2139e-05	1.0865e-05	1176.2	395.35	1.2532e-05	7.0819e-06	506.62	216.23	157.14	72.413	1.6498e-05	121.46	0.0022844	0.0025306	0.00070964	1131.5	2.6424e-05	2.7552e-05	1168.5	395.15	2.5851e-05	2.7499e-05	506.52	215.51	157.89	72.9	2.6644e-05	122.04	332.788	89.091	109.386	18.787	142.343	187.532	18.522	23.693	166.679	157.606	22.884	27.357	28.155	31.908	176.761	30.891	-8191	255	
862.384	1	1	0	0	0.17975	0.10733	0.13425	0.10049	0.31424	0.065641	0.19859	0.27247	0.052233	0.055488	0.17327	0.29402	0.18031	0.13473	0.15908	0.27747	-2.6354	-2.9583	-2.9292	-3.1667	-2.7687	-3.0312	-3.2062	-2.7792	-3.0292	-2.85	-2.9854	-3.0396	-3.0271	-2.9583	-2.9833	-2.9562	354.794	305.126	34.446	118.398	87.150	305.813	223.174	259.896	28.269	171.063	13.784	319.277	357.944	215.392	205.241	334.380	0.0022087	0.0007067	0.0002173	1133.9	8.3119e-06	8.3866e-06	1182.2	396.82	1.1303e-05	4.0594e-06	510.98	218.07	159.44	73.593	1.7301e-05	123.5	0.0022949	0.0024784	0.00070012	1130.9	2.6591e-05	2.8115e-05	1172.8	396.72	2.6563e-05	2.7999e-05	512.22	218.5	159.94	73.864	2.7602e-05	123.9	331.672	69.820	116.296	18.726	159.722	157.901	18.327	23.748	144.938	155.192	23.046	27.380	27.890	32.027	191.230	30.642	-8191	255	
862.480	1	1	0	0	0.25884	0.15696	0.24506	0.31725	0.037837	0.085314	0.18574	0.42808	0.067146	0.25551	0.26071	0.19307	0.27321	0.21385	0.11955	0.18134	-2.7375	-2.8771	-2.7354	-3.1771	-2.7146	-2.8375	-3.1375	-2.8604	-3.1437	-2.8729	-3.0479	-3.1917	-2.9167	-3.1854	-2.9188	-3.0438	47.540	256.849	254.254	306.641	281.197	139.643	233.578	315.072	184.281	64.474	21.608	339.016	12.503	274.994	337.044	307.141	0.0019949	0.00093075	0.00027161	1137.5	1.7431e-05	1.1497e-05	1184.5	399.24	1.8646e-05	1.815e-05	514.56	220.33	160.04	73.681	1.1419e-05	123.53	0.0023429	0.0025555	0.00072333	1131	2.7112e-05	2.8617e-05	1178.4	398.7	2.7225e-05	2.8492e-05	517.16	220.35	160.88	74.211	2.7588e-05	123.99	334.436	106.444	128.034	18.619	156.037	148.177	18.806	23.735	181.264	157.809	22.960	27.444	28.162	31.907	172.170	30.498	-8191	255	
862.600	1	1	0	0	0.13418	0.16011	0.05561	0.21022	0.20267	0.18185	0.23205	0.2633	0.086596	0.20064	0.31065	0.1288	0.35118	0.30485	0.32907	0.26256	-2.6292	-2.9188	-2.6896	-3.2271	-2.7917	-2.9646	-3.3292	-3.1063	-2.95	-2.9437	-3.0062	-3.0917	-2.9083	-3.0187	-3.2042	-2.8312	105.814	198.099	79.786	161.982	183.721	347.246	261.718	346.351	274.036	166.805	40.350	262.931	37.952	328.891	315.115	303.281	0.0022179	0.00089854	0.00022134	1138.2	1.3853e-05	4.5283e-06	1178.1	396.55	1.635e-05	1.2105e-05	505.83	215.04	156.94	72.112	9.7063e-06	120.87	0.0023683	0.002578	0.00071185	1130.6	2.6783e-05	2.8266e-05	1170.8	395	2.6339e-05	2.7382e-05	506.55	214.96	157.45	72.696	2.6197e-05	121.49	337.711	92.790	85.564	18.715	150.180	187.252	18.578	23.574	143.025	113.991	22.783	27.369	28.005	31.955	192.095	30.521	-8191	255	
862.697	1	1	0	0	0.033694	0.081883	0.084974	0.1898	0.12354	0.10877	0.30737	0.16123	0.02649	0.33942	0.19105	0.19431	0.36264	0.20943	0.092595	0.28507	-2.7542	-2.9542	-2.8271	-2.9479	-2.8896	-3.0542	-3.3333	-2.9437	-3.0771	-3.0667	-2.9771	-3.0542	-3.0417	-3.0354	-2.9813	-3.0854	164.778	44.370	306.152	331.119	172.078	189.983	322.640	345.349	287.617	113.749	43.835	321.459	319.947	350.607	320.215	315.696	0.0021812	0.00083637	0.00025057	1127.7	7.7148e-06	8.5054e-06	1169.6	394.53	9.6681e-06	9.5679e-06	506.21	214.87	156.71	72.006	1.6032e-05	120.24	0.0023093	0.0024827	0.00069954	1124.7	2.5863e-05	2.7787e-05	1164.2	393.47	2.5947e-05	2.7235e-05	505.56	214.81	157.46	72.502	2.6567e-05	120.97	333.125	95.970	88.545	18.986	230.961	158.376	18.937	23.494	175.077	100.137	23.007	27.311	27.909	32.028	159.609	30.473	-8191	255	
862.793	1	1	0	0	0.1658	0.088362	0.12995	0.12608	0.048059	0.23546	0.049981	0.22112	0.1038	0.062829	0.18758	0.31481	0.06139	0.084265	0.22243	0.39875	-2.5167	-2.8208	-2.6021	-3.1708	-2.9125	-2.7042	-3.4146	-2.9813	-2.8854	-2.9958	-3.0083	-3.1708	-3.0438	-3.1875	-3.1792	-2.8958	63.145	276.327	13.532	22.188	349.680	75.529	90.345	20.618	337.246	53.599	303.819	358.439	321.586	15.423	199.374	287.621	0.001846	0.00070428	0.00028268	1136.3	8.8842e-06	8.6128e-06	1176.4	394.48	1.6441e-05	9.2863e-06	506.66	215.94	157.78	72.472	7.981e-06	121.37	0.0022761	0.0024745	0.00069693	1128.5	2.6019e-05	2.7839e-05	1166.7	394.34	2.6865e-05	2.7584e-05	508.69	216.11	158.2	72.892	2.7096e-05	121.95	336.128	82.761	90.729	18.708	179.326	177.999	18.688	23.653	168.010	86.876	22.742	27.523	28.083	31.909	140.757	30.734	-8191	255	
862.864	1	1	0	0	0.12283	0.16363	0.36186	0.16574	0.23946	0.13342	0.17572	0.32996	0.16434	0.090199	0.14563	0.20277	0.15904	0.32752	0.16722	0.21324	-2.4583	-3.0896	-2.65	-3.0167	-2.9354	-2.7417	-3.25	-3.1354	-2.7375	-3.025	-2.8104	-3.1813	-3.0625	-2.7604	-3.0125	-3.2062	115.984	319.515	186.554	313.170	258.847	261.935	207.576	24.966	108.250	291.320	18.345	35.169	299.459	297.085	259.642	355.042	0.0020084	0.0012117	0.00033656	1134.1	1.5087e-05	4.8521e-06	1177.7	394.93	1.2689e-05	6.2152e-06	506.45	216.13	156.47	72.398	1.5121e-05	121.08	0.0023234	0.0024585	0.00071431	1127.6	2.6365e-05	2.8032e-05	1170.7	394.22	2.6544e-05	2.718e-05	508.28	215.84	157.56	72.754	2.7207e-05	121.52	335.345	76.847	94.678	18.843	170.495	108.630	18.584	23.523	201.219	156.587	23.006	27.298	27.872	31.919	188.869	30.364	-8191	255	
862.985	1	1	0	0	0.023732	0.11499	0.20355	0.15907	0.28537	0.12102	0.24105	0.40066	0.29946	0.28724	0.013961	0.26883	0.22169	0.18118	0.13872	0.30604	-2.4562	-3.0417	-2.7104	-2.9437	-3.0083	-2.7667	-3.2167	-2.9646	-2.8479	-3.1937	-3.1063	-3	-3.1292	-2.8604	-2.9417	-3.1271	338.818	139.972	337.961	353.995	169.050	349.424	313.959	284.521	293.901	76.289	23.219	51.646	320.168	275.830	169.673	324.575	0.0021877	0.0011093	0.00017596	1136.1	9.4374e-06	1.3247e-05	1179	395.43	1.5463e-05	8.4044e-06	508.17	215.74	155.9	71.797	6.3035e-06	120.98	0.0023016	0.0024631	0.00069384	1131.4	2.5881e-05	2.793e-05	1171.4	394.32	2.6297e-05	2.7213e-05	507.97	215.37	157.05	72.294	2.6967e-05	121.36	332.427	75.842	108.629	18.690	182.811	131.068	18.638	23.721	179.904	171.575	23.140	27.427	27.974	32.061	160.178	30.676	-8191	255	
863.081	1	1	0	0	0.070885	0.16927	0.14604	0.13376	0.21181	0.21159	0.2235	0.27078	0.16908	0.029551	0.23477	0.34978	0.16907	0.27495	0.19959	0.27122	-2.4229	-3.0542	-2.725	-3.15	-3.0896	-2.9604	-3.25	-2.9333	-2.7208	-3.1021	-3.0271	-2.9938	-3.1792	-3.0812	-3.0417	-3.1396	64.299	52.319	199.625	280.014	301.089	36.422	330.287	327.098	190.751	299.119	292.581	350.235	59.739	249.413	240.034	5.922	0.0020731	0.00061916	0.00031801	1134.9	4.4828e-06	2.9712e-06	1179.8	395.24	1.3878e-05	6.9573e-06	504.33	214.46	156.32	71.54	8.3602e-06	119.95	0.0023249	0.0024954	0.00070124	1132.2	2.5958e-05	2.8449e-05	1171.2	394.54	2.6826e-05	2.7987e-05	506.09	214.23	156.68	72.036	2.7036e-05	120.57	331.577	129.162	94.944	18.679	85.323	178.833	18.700	23.770	176.224	168.212	23.003	27.398	28.095	31.806	172.280	30.665	-8191	255	
863.177	1	1	0	0	0.13879	0.19932	0.044849	0.1169	0.089653	0.056383	0.13137	0.23865	0.1106	0.18489	0.17083	0.15958	0.15719	0.20222	0.22078	0.46234	-2.2042	-2.9396	-2.9083	-3.1833	-3.0833	-2.7208	-3.2938	-3.1437	-2.675	-3.2958	-3.2521	-2.9375	-3.2854	-2.8646	-3.0187	-3.1958	40.146	263.759	215.815	284.241	38.049	197.070	296.518	265.531	288.263	37.734	263.105	283.472	36.653	299.500	65.722	310.523	0.002202	0.00081852	0.00022154	1134.2	1.2594e-05	1.3734e-05	1171.1	393.54	8.5072e-06	4.71e-06	500.38	212.64	155.24	71.157	9.4054e-06	119.13	0.0023246	0.0024847	0.00069556	1127.3	2.597e-05	2.8019e-05	1165.1	393.05	2.6496e-05	2.7685e-05	502.53	212.25	155.69	71.646	2.7118e-05	119.46	340.664	88.427	87.482	18.896	187.465	184.071	18.559	23.655	179.700	103.129	23.029	27.437	28.021	31.937	175.912	30.755	-8191	255	
863.274	1	1	0	0	0.18668	0.072834	0.1622	0.25799	0.17867	0.16454	0.12473	0.27629	0.032454	0.15427	0.055321	0.25944	0.33044	0.066122	0.10662	0.25913	-2.3042	-2.9354	-2.7375	-2.9042	-3.1646	-2.7792	-3.2	-3.2146	-2.8333	-3.1708	-3.2562	-2.9583	-3.0833	-2.9354	-3.0083	-3.1271	103.906	312.113	251.593	347.881	186.732	15.704	58.347	333.219	39.590	7.088	37.503	28.778	314.424	311.806	138.538	355.185	0.0020362	0.00055266	0.00027951	1129.5	1.2454e-05	1.1222e-05	1169	392.89	1.5034e-05	6.2123e-06	501.71	212.18	155.19	71.201	5.6839e-06	119.16	0.0023048	0.0024731	0.00068749	1124.7	2.5772e-05	2.7673e-05	1161.1	390.98	2.6503e-05	2.7495e-05	502.98	212.02	155.93	71.688	2.7353e-05	119.75	338.772	129.935	109.786	18.846	164.280	163.337	18.510	23.577	165.347	143.108	22.848	27.555	28.095	31.908	157.197	30.780	-8191	255	
863.392	1	1	0	0	0.11175	0.24817	0.20228	0.12443	0.18291	0.16314	0.09847	0.078423	0.16132	0.16787	0.18817	0.25251	0.054999	0.30156	0.12895	0.2523	-2.3375	-2.8063	-2.9333	-2.975	-3.05	-2.9792	-2.9875	-3.1729	-2.8292	-3.0458	-3.0979	-2.9562	-3.2021	-2.9604	-3.0354	-3.3875	365.011	134.003	71.814	35.217	232.709	60.486	7.193	256.033	56.063	111.353	271.667	289.952	323.049	330.182	259.460	321.050	0.0019813	0.0012378	0.00034213	1135	1.0173e-05	1.1991e-05	1173.9	393.53	1.3295e-05	1.0279e-05	501.22	211.56	154.63	70.672	1.1304e-05	118.43	0.0023434	0.002526	0.00069431	1126.7	2.6007e-05	2.7625e-05	1165.5	391.68	2.6282e-05	2.7225e-05	502.42	212.02	155.33	71.252	2.7291e-05	119.06	327.959	85.028	82.910	18.778	120.309	168.696	18.635	23.692	184.560	165.870	22.706	27.493	28.137	32.010	191.293	30.523	-8191	255	
863.466	1	1	0	0	0.29326	0.16621	0.19302	0.095312	0.16975	0.091164	0.076751	0.18706	0.1233	0.19431	0.20074	0.095995	0.20222	0.16398	0.25073	0.15424	-2.3042	-2.9667	-2.8604	-2.8021	-2.9896	-2.8646	-2.9854	-3.3542	-2.8375	-3.0062	-3.175	-3.0062	-3.0417	-3.2042	-2.8458	-3.2625	336.520	273.912	155.522	292.669	297.251	316.882	18.946	322.689	137.890	348.676	354.128	53.759	292.986	232.696	98.095	237.376	0.0019373	0.0012643	4.5317e-05	1137.1	6.5792e-06	1.1857e-05	1171.1	395.47	6.0262e-06	7.1266e-06	502.14	212.14	155.04	70.41	8.3682e-06	117.66	0.0022895	0.0024882	0.00069476	1132.4	2.643e-05	2.806e-05	1167.7	394.06	2.6708e-05	2.7778e-05	502.72	211.69	155.39	70.714	2.668e-05	118.12	334.574	94.434	128.546	18.891	157.982	143.677	18.556	23.551	196.379	174.703	22.996	27.362	28.070	32.219	192.074	30.736	-8191	255	
863.585	1	1	0	0	0.086296	0.27359	0.083847	0.2181	0.25729	0.15224	0.20445	0.18584	0.12644	0.12742	0.14312	0.21333	0.26089	0.072115	0.36957	0.10858	-2.5187	-2.8542	-3.0125	-2.8979	-2.9562	-2.9104	-3.1188	-3.2562	-2.9583	-3.0312	-3.075	-2.8604	-3.0271	-3.0312	-2.8042	-3.1167	192.292	204.831	80.875	16.330	307.173	262.451	304.308	232.913	329.083	307.601	354.109	299.291	270.954	330.390	223.117	257.777	0.0020851	0.00041016	0.00016361	1137.4	1.5036e-05	1.3231e-05	1178.7	392.99	1.4103e-05	9.7855e-06	500.38	211.35	154.48	70.353	1.8391e-05	117.97	0.0022605	0.0024572	0.00066581	1134.5	2.5385e-05	2.7014e-05	1169.8	391.83	2.5612e-05	2.7345e-05	501.74	211.44	155.13	70.782	2.6931e-05	118.56	333.530	66.936	68.806	18.762	145.894	172.756	18.613	23.542	174.073	160.686	22.899	27.599	27.945	31.779	174.355	30.817	-8191	255	
863.681	1	1	0	0	0.28381	0.11238	0.13307	0.3842	0.14916	0.21387	0.0765	0.44829	0.12931	0.12906	0.090709	0.22621	0.084252	0.29616	0.055093	0.25322	-2.4437	-2.8792	-3.1229	-3.1479	-2.9396	-3.1042	-2.9938	-3.125	-2.8271	-2.9083	-3.2792	-2.9042	-3.0521	-3.1083	-2.8625	-3.2604	200.026	324.033	152.354	331.168	151.273	8.200	80.733	311.139	67.844	243.221	334.907	332.682	15.985	344.895	286.710	312.959	0.0020546	0.00070763	0.00038468	1134.5	1.3007e-05	7.7839e-06	1175.7	392.53	4.5167e-06	9.7274e-06	499.35	210.25	154.06	70.406	8.1364e-06	117.82	0.0022527	0.0024697	0.00068314	1131.6	2.5939e-05	2.7084e-05	1166.2	391.51	2.6026e-05	2.7538e-05	500.48	210.86	155.05	70.861	2.7424e-05	118.74	335.005	43.980	99.645	18.771	177.933	139.707	18.635	23.504	160.919	160.487	22.884	27.297	27.983	31.933	185.435	30.558	-8191	255	
863.777	1	1	0	0	0.24168	0.018403	0.18677	0.0138	0.097604	0.30334	0.13706	0.085579	0.15489	0.18247	0.12348	0.16878	0.076562	0.23457	0.14288	0.45083	-2.4396	-2.9042	-3.1104	-2.9688	-2.9479	-2.9437	-3.0958	-3.2146	-2.9375	-2.6375	-3.2333	-2.9542	-3.1167	-3.2354	-2.7	-3.1583	84.500	292.516	113.548	294.581	112.580	296.794	362.203	296.963	167.627	237.762	357.615	34.311	256.804	362.001	19.162	289.831	0.0020153	0.00038308	0.00023372	1130.1	1.3336e-05	1.0996e-05	1171.2	390.9	1.4375e-05	7.6227e-06	498.48	210.54	153.61	70.313	1.3831e-05	117.6	0.0022837	0.002527	0.00069849	1123.7	2.6388e-05	2.7096e-05	1159.8	390.08	2.6252e-05	2.7565e-05	498.11	209.88	153.92	70.653	2.7186e-05	118	336.420	77.536	83.776	18.619	185.871	163.006	18.617	23.594	182.626	150.085	22.987	27.499	28.060	32.058	163.206	30.736	-8191	255	
863.873	1	1	0	0	0.19356	0.13944	0.031739	0.10828	0.18288	0.19329	0.1658	0.28484	0.18279	0.086171	0.1443	0.1475	0.24163	0.1122	0.20292	0.25582	-2.6729	-2.8438	-2.9042	-2.7625	-2.7354	-3.1104	-2.825	-3.1604	-2.9437	-2.9792	-3.125	-2.8771	-2.9229	-3.0854	-2.9354	-3.0354	73.131	360.889	354.660	218.427	255.807	38.280	84.278	363.886	227.593	339.645	35.556	259.968	26.009	21.949	260.057	295.516	0.0018875	0.00086638	0.00026594	1132	1.6469e-05	4.3499e-06	1165.8	390.07	1.6422e-05	7.2987e-06	496.98	209.52	153.43	69.931	1.0114e-05	117.57	0.0022414	0.0024618	0.0006898	1123.9	2.5813e-05	2.7111e-05	1158.7	389.16	2.555e-05	2.7262e-05	497.46	209.47	153.74	70.533	2.6505e-05	117.87	335.930	86.919	106.144	18.740	188.980	109.936	18.511	23.692	145.595	156.797	23.104	27.425	27.945	32.149	173.924	30.691	-8191	255	
863.994	1	1	0	0	0.22294	0.24234	0.17066	0.17511	0.15338	0.065773	0.33462	0.074073	0.12778	0.2016	0.33415	0.35774	0.25637	0.11301	0.020123	0.35282	-2.6958	-2.8458	-3.0812	-2.9313	-2.9	-3.0833	-2.8312	-3.1604	-3.0042	-2.75	-3.0667	-2.975	-2.7917	-3.2229	-2.8542	-2.9188	80.358	312.249	71.920	330.451	159.247	288.420	268.080	152.586	7.753	359.551	301.220	293.952	347.750	88.670	147.091	364.728	0.0019653	0.00092905	0.00022774	1131.4	1.7483e-05	8.3551e-06	1170.4	390.05	8.4479e-06	6.3743e-06	499.39	210.91	153.33	70.249	1.6902e-05	118.21	0.0022325	0.0024517	0.00067389	1125.4	2.5306e-05	2.6993e-05	1160.5	389.33	2.5499e-05	2.7565e-05	499.35	210.55	154.18	70.723	2.6758e-05	118.84	330.827	97.047	61.998	18.645	139.551	134.812	18.803	23.559	168.758	159.761	22.752	27.385	27.798	31.804	192.030	30.799	-8191	255	
864.090	1	1	0	0	0.14418	0.14424	0.25293	0.096879	0.20503	0.26251	0.20957	0.33457	0.07336	0.065281	0.20188	0.34027	0.036744	0.20001	0.2254	0.39684	-2.5042	-2.6875	-3.0646	-3.0833	-2.8438	-3.1	-3.0583	-3	-2.9583	-2.9083	-3.1562	-2.95	-2.9062	-3.1271	-2.7354	-3.2229	66.334	256.721	347.980	187.316	116.555	77.888	269.283	323.509	297.853	66.335	294.798	337.570	349.641	344.381	185.124	304.057	0.0020548	0.0012442	0.00027365	1127.3	9.2475e-06	4.5235e-06	1174.2	391.68	1.6777e-05	7.708e-06	504.84	213.86	155.13	71.152	1.584e-05	119.57	0.00223	0.0025273	0.00068677	1122.9	2.6279e-05	2.7656e-05	1165.2	391.17	2.5755e-05	2.7998e-05	505.21	213.48	155.87	71.644	2.6795e-05	120.38	330.492	95.553	97.318	18.840	146.642	145.192	18.755	23.725	161.031	175.477	23.151	27.327	28.084	31.901	144.151	30.650	-8191	255	
864.162	1	1	0	0	0.18777	0.18477	0.17169	0.18961	0.098108	0.08509	0.25328	0.26795	0.14829	0.13993	0.069552	0.23956	0.18578	0.074702	0.066994	0.33943	-2.6312	-2.7604	-2.9688	-2.9062	-2.7417	-3.0625	-2.9333	-2.9708	-2.9979	-2.7979	-3.1937	-3.0229	-2.9229	-3.2188	-2.8021	-3.0292	54.749	16.307	307.364	29.121	13.955	359.492	349.549	332.200	306.170	135.213	277.877	17.048	68.028	280.820	73.496	303.201	0.0021438	0.00064209	0.00039077	1132.8	5.9433e-06	6.5243e-06	1178.7	392.55	1.4439e-05	3.7835e-06	503.39	212.25	153.59	70.837	5.8268e-06	118.36	0.002279	0.0025198	0.00069633	1125.2	2.6518e-05	2.753e-05	1169.1	391.34	2.611e-05	2.7861e-05	504.15	212.05	154.72	71.15	2.6379e-05	119.08	334.964	90.370	125.155	18.904	139.328	169.184	18.753	23.614	173.413	165.592	23.139	27.530	28.033	32.166	198.155	30.386	-8191	255	
864.282	1	1	0	0	0.056387	0.2524	0.43291	0.13915	0.054151	0.24325	0.12606	0.092053	0.20184	0.033309	0.45525	0.19978	0.40766	0.13464	0.18802	0.24517	-2.8083	-2.7083	-2.9604	-3.1437	-2.8312	-3.1167	-3.0917	-3.1375	-2.9437	-2.8229	-3.1188	-3.0979	-2.7958	-3.2083	-3.0104	-2.9458	151.617	295.526	64.539	8.238	150.859	57.100	202.342	265.283	287.380	112.459	316.548	47.885	5.973	179.279	18.121	292.765	0.0020918	0.00098056	0.00024144	1131.2	1.134e-05	3.4127e-06	1166.3	389.87	7.8759e-06	8.0697e-06	495.97	209.69	153.55	69.899	9.1526e-06	117.33	0.0022789	0.0024553	0.00068784	1123.3	2.6241e-05	2.7317e-05	1155.6	388.21	2.5683e-05	2.7307e-05	496.76	209.16	153.4	70.356	2.6004e-05	117.56	335.427	95.612	75.306	18.798	144.444	37.498	18.541	23.604	210.313	156.258	23.037	27.482	28.047	32.042	170.964	30.642	-8191	255	
864.377	1	1	0	0	0.16803	0.063185	0.079697	0.14472	0.23243	0.2549	0.25784	0.062805	0.18351	0.16172	0.13477	0.12991	0.23659	0.29758	0.023947	0.37308	-2.7562	-2.8771	-2.9604	-3.0875	-2.6708	-3.0042	-3.2604	-3.05	-3.0729	-2.9646	-2.8312	-3.0625	-2.9083	-3.1521	-3.1625	-3.0062	95.711	251.351	183.670	277.615	268.756	146.689	296.951	240.363	357.470	94.880	150.024	155.669	336.995	327.543	118.271	292.918	0.0018328	0.0010694	0.00019867	1124.6	1.1845e-05	1.0027e-05	1161.3	388.66	1.0985e-05	6.6296e-06	493.24	208.03	152.47	68.963	1.1719e-05	115.35	0.0022498	0.0024606	0.0006898	1118.1	2.5851e-05	2.7301e-05	1151.8	387.07	2.5762e-05	2.6884e-05	494.07	207.45	152.56	69.565	2.5893e-05	115.96	335.848	83.348	92.793	18.799	152.392	106.697	18.678	23.789	227.825	171.032	22.834	27.481	28.058	32.118	171.342	30.543	-8191	255	
864.473	1	1	0	0	0.064413	0.076874	0.18959	0.21476	0.22259	0.039797	0.19527	0.2412	0.092234	0.12234	0.14727	0.22048	0.07747	0.01875	0.098998	0.12535	-2.7521	-2.7687	-2.8042	-3.0854	-2.7417	-3.0438	-3.0729	-2.9604	-3.0708	-2.8875	-2.9417	-3.15	-2.8958	-3.1625	-3.0187	-2.8417	85.595	197.834	208.897	365.235	8.554	258.160	257.417	277.788	11.834	29.783	288.946	267.392	40.355	31.814	252.758	350.004	0.0022099	0.00081926	0.00021985	1128.1	8.4922e-06	3.3552e-06	1157.7	387.21	1.1078e-05	1.3171e-05	491.51	207.6	151.86	69.409	1.3659e-05	115.95	0.0022051	0.0024155	0.00067522	1121.2	2.5512e-05	2.6858e-05	1149.1	386.13	2.5573e-05	2.6685e-05	493.24	207.33	152.6	69.835	2.6062e-05	116.66	336.285	65.517	93.701	18.748	147.885	177.136	18.562	23.570	147.391	184.759	22.837	27.644	28.103	31.949	209.190	30.794	-8191	255	
864.569	1	1	0	0	0.21958	0.085272	0.17849	0.27593	0.19019	0.046259	0.29156	0.21065	0.035127	0.14537	0.16367	0.26004	0.22999	0.25812	0.028422	0.17134	-2.5958	-2.9146	-2.7792	-3.2583	-2.875	-3.0396	-3.1042	-3.0354	-3.1417	-2.8667	-2.9604	-3.2333	-2.8271	-3.0542	-3.1	-3.0208	327.817	160.019	361.043	264.536	350.081	165.122	284.952	298.085	58.695	147.549	291.415	349.339	342.792	15.608	28.294	304.671	0.0019356	0.0011538	0.0001592	1129.9	1.0071e-05	1.1375e-05	1162.3	388.24	1.1064e-05	9.92e-06	496.46	210.22	152.82	69.721	1.2166e-05	117.08	0.0022236	0.0024192	0.00068228	1123.2	2.5942e-05	2.726e-05	1154.9	387.03	2.5922e-05	2.6698e-05	497	209.5	153.62	70.211	2.6042e-05	117.81	331.464	81.945	51.983	18.684	124.424	137.327	18.637	23.627	197.905	172.126	22.931	27.491	28.078	31.871	206.033	30.733	-8191	255	
864.690	1	1	0	0	0.13572	0.14043	0.038711	0.25168	0.1383	0.092694	0.30603	0.11577	0.085031	0.1379	0.23604	0.37212	0.21148	0.28845	0.21477	0.32761	-2.7083	-2.8229	-2.7938	-3.1875	-2.8063	-2.875	-3.2	-2.8604	-3.0708	-2.9354	-3.1583	-3.2771	-3.0833	-2.9021	-3.2396	-3.0521	253.161	257.742	271.771	263.196	198.170	189.201	353.785	309.780	339.430	258.577	44.717	311.710	47.910	283.812	222.539	300.146	0.0020835	0.00074127	0.00012012	1127.4	1.6552e-05	1.114e-05	1168.2	390.26	1.7257e-05	1.137e-05	498.13	210.74	152.96	69.771	1.5537e-05	117.47	0.0022616	0.0024302	0.00069277	1123	2.5753e-05	2.6973e-05	1160.6	389.11	2.5483e-05	2.6233e-05	498.59	210.19	153.4	70.352	2.636e-05	117.91	335.384	94.395	97.224	18.775	158.890	170.732	18.610	23.529	205.068	156.079	22.993	27.404	27.847	31.927	149.847	30.714	-8191	255	
864.761	1	1	0	0	0.02962	0.022684	0.090667	0.19789	0.031506	0.31473	0.40041	0.44887	0.092406	0.18299	0.15809	0.49907	0.29846	0.15628	0.17473	0.50869	-2.6229	-2.8937	-2.7396	-3.0687	-3.0875	-2.9667	-3.1021	-2.7958	-2.9938	-3.1083	-2.8708	-3.0396	-3.0708	-2.8438	-3.1167	-3.1125	305.759	295.508	117.907	43.514	158.554	70.797	296.445	319.965	186.162	109.726	48.194	313.969	66.169	279.096	114.209	291.682	0.0021528	0.00098287	0.00022349	1133.1	1.3558e-05	1.2724e-05	1166.2	389.05	1.6216e-05	4.8315e-06	496.59	209.65	152.38	69.576	1.8875e-05	116.61	0.0022077	0.0024202	0.00069586	1124.5	2.5169e-05	2.7511e-05	1159.2	388.54	2.538e-05	2.6758e-05	497.41	209.16	152.61	69.967	2.5844e-05	116.97	338.862	76.351	111.392	18.756	166.135	129.102	18.620	23.899	171.632	155.981	22.787	27.300	28.229	31.853	173.958	30.545	-8191	255	
864.857	1	1	0	0	0.18986	0.11414	0.067519	0.19183	0.016795	0.18542	0.10617	0.19387	0.24487	0.076231	0.18131	0.16198	0.16447	0.19359	0.087336	0.12863	-2.5896	-3.2	-2.8833	-3.0729	-2.9375	-2.8396	-3.1875	-3.1229	-2.8	-3.3042	-2.8187	-3.3063	-3.0458	-2.9333	-3.1042	-2.9	342.221	307.485	29.992	53.913	246.258	145.561	73.231	7.893	13.719	322.927	345.933	325.757	8.770	6.031	163.965	322.357	0.0019932	0.00095468	3.1686e-05	1124.6	1.0922e-05	8.4648e-06	1155.9	386.23	1.5775e-05	1.0136e-05	488.91	206.29	150.53	68.448	1.2009e-05	115.18	0.0021603	0.0023684	0.00066369	1116.8	2.4605e-05	2.661e-05	1147.7	384.24	2.4877e-05	2.6374e-05	489.24	206.05	151.23	69.059	2.5992e-05	115.35	339.767	93.380	246.847	18.716	159.226	193.616	18.651	23.588	182.829	149.669	22.808	27.408	28.134	32.209	176.651	30.731	-8191	255	
864.954	1	1	0	0	0.060512	0.28549	0.14744	0.13608	0.20569	0.31253	0.086484	0.35979	0.16611	0.22003	0.083516	0.22482	0.21639	0.16038	0.21435	0.23639	-2.6229	-3.0292	-2.6875	-3.1479	-2.7875	-2.6125	-3.1813	-3.0333	-2.9917	-3.0271	-2.9688	-3.1771	-3.0062	-3.0021	-3.2333	-3.1083	337.013	255.559	116.137	304.213	180.448	20.044	282.014	265.236	324.054	361.374	347.639	353.268	45.609	248.423	43.271	288.827	0.0019795	0.0005447	0.00030808	1117.6	1.378e-05	5.8715e-06	1151	384.2	1.9469e-05	4.1177e-06	489.39	206.84	151.95	68.98	7.4977e-06	116.1	0.0022205	0.0023953	0.00067558	1112.8	2.4759e-05	2.7084e-05	1143.5	382.88	2.5253e-05	2.6508e-05	490.85	206.64	151.77	69.68	2.6066e-05	116.44	337.977	119.641	122.274	18.591	187.656	180.915	18.721	23.840	181.284	102.621	23.058	27.365	28.130	32.187	142.203	30.788	-8191	255	
865.074	1	1	0	0	0.10424	0.12469	0.11579	0.19558	0.065437	0.13746	0.32307	0.22672	0.23516	0.14504	0.26272	0.042684	0.17431	0.33952	0.082674	0.042052	-2.4104	-3.0583	-2.8375	-3.2167	-3.0854	-2.9729	-3.2771	-3.0875	-2.9917	-3.1792	-3.0062	-3.0458	-3.275	-2.9708	-2.9813	-3.0938	177.141	360.356	332.459	356.210	53.883	137.807	319.931	53.046	346.471	43.759	28.196	8.134	282.184	322.237	277.787	119.774	0.0020727	0.00089015	0.00015788	1125.2	1.6055e-05	7.3647e-06	1156.2	386.45	1.1466e-05	9.2078e-06	491.55	207.34	151.3	68.944	7.8071e-06	116.12	0.0022444	0.0024277	0.00069109	1117.5	2.5443e-05	2.7419e-05	1149.4	385.29	2.5821e-05	2.659e-05	493.32	207.35	151.93	69.632	2.5913e-05	116.72	332.477	106.545	114.556	18.779	182.047	190.968	18.553	23.671	141.909	136.940	22.893	27.580	28.015	31.857	143.131	30.752	-8191	255	
865.170	1	1	0	0	0.20353	0.12139	0.21671	0.066405	0.07721	0.10753	0.30494	0.15281	0.072275	0.045498	0.17157	0.062329	0.10431	0.20472	0.084559	0.15269	-2.5333	-3.0042	-2.9229	-3.1833	-3.1562	-2.8208	-3.2021	-3.1458	-2.7521	-3.0687	-2.925	-3.1604	-3.1688	-2.9917	-3.1646	-3.1875	293.882	73.405	297.846	330.063	53.669	198.956	271.052	324.978	46.327	290.359	238.347	255.205	166.306	362.915	294.295	312.067	0.0020029	0.0010167	0.00029373	1121.3	1.5825e-05	1.7736e-06	1162.7	387.38	7.7312e-06	7.9368e-06	500.43	211.08	153.67	70.499	1.5037e-05	118.34	0.0022239	0.002416	0.00066262	1116.9	2.5391e-05	2.754e-05	1153.8	386.97	2.6517e-05	2.7177e-05	499.7	211.18	154.16	70.784	2.6302e-05	118.91	337.816	112.587	109.415	18.769	125.681	191.383	18.657	23.610	159.833	159.833	22.861	27.226	27.758	32.099	175.249	30.603	-8191	255	
865.266	1	1	0	0	0.18608	0.040751	0.23573	0.086058	0.050362	0.27316	0.13513	0.17947	0.12633	0.15705	0.29243	0.26489	0.16232	0.2569	0.063532	0.11961	-2.2104	-3.0042	-2.8667	-3.0875	-3.2062	-2.9667	-3.1146	-3.05	-2.7979	-3.0687	-2.9813	-2.7438	-3.0292	-2.9417	-2.8604	-3.1437	347.599	49.323	63.289	70.871	302.295	46.042	271.719	335.961	76.721	108.055	353.042	319.071	287.918	21.609	35.751	281.436	0.0021548	0.00070293	0.00028573	1120.3	1.7716e-05	9.8955e-06	1166.3	389.71	1.6619e-05	5.4719e-06	502.3	211.9	153.91	70.231	1.77e-05	118.39	0.0023001	0.0024446	0.000673	1116.1	2.5963e-05	2.7929e-05	1158.3	388.46	2.6335e-05	2.7233e-05	501.42	211.81	154.48	70.712	2.6215e-05	118.66	332.467	115.978	94.439	18.814	143.417	126.715	18.750	23.799	160.672	204.250	22.923	27.289	28.184	31.997	152.963	30.552	-8191	255	
865.385	1	1	0	0	0.43547	0.18229	0.26703	0.058989	0.30559	0.14879	0.21162	0.2897	0.19022	0.10056	0.15805	0.10082	0.14984	0.21998	0.28297	0.24733	-2.2104	-2.9333	-2.8312	-2.9229	-3.0771	-2.7208	-3.1417	-2.9688	-2.7417	-3.2604	-2.9688	-2.9833	-3.2	-3.1021	-3.0042	-3.1021	96.698	44.180	97.909	131.490	288.181	13.166	311.734	298.136	29.302	220.273	306.036	333.858	292.620	234.847	285.492	290.241	0.0021337	0.0010448	0.00018931	1122.6	9.5948e-06	5.2285e-06	1157.2	387.48	9.4281e-06	3.6385e-06	493.17	207.97	151.62	69.027	9.217e-06	115.54	0.0022691	0.002473	0.0006616	1116.4	2.5578e-05	2.689e-05	1150.4	386.04	2.5735e-05	2.6637e-05	493.82	207.83	152.33	69.511	2.5791e-05	115.86	338.788	66.126	106.394	18.649	172.742	189.046	18.630	23.563	190.715	148.726	22.742	27.433	27.878	32.061	143.180	30.664	-8191	255	
865.457	1	1	0	0	0.051779	0.030721	0.14053	0.086849	0.18937	0.29079	0.097065	0.12369	0.22758	0.14833	0.08286	0.14148	0.18659	0.18723	0.22759	0.22163	-2.2229	-2.8479	-2.8625	-3.0458	-3.0854	-2.8292	-3.0083	-3.075	-2.6583	-3.1354	-3.2458	-2.8167	-3.0667	-2.9562	-2.8	-3.2146	327.622	264.807	305.296	312.828	234.008	82.312	285.969	27.050	133.977	342.614	76.993	327.514	22.047	41.873	38.778	331.756	0.002168	0.001121	0.00036033	1116.7	1.6701e-05	8.2315e-06	1152.5	385.7	1.2782e-05	1.1324e-05	489.78	205.69	150.44	68.69	6.7287e-06	115.41	0.0022593	0.0024006	0.00066378	1112.3	2.5282e-05	2.6335e-05	1142.2	384.24	2.5486e-05	2.6388e-05	489.12	205.71	151.17	69.199	2.6141e-05	115.81	338.648	137.075	123.642	18.648	123.240	160.557	18.690	23.581	198.586	142.554	22.683	27.579	27.919	31.916	185.019	30.801	-8191	255	
865.555	1	1	0	0	0.027371	0.11119	0.12441	0.29114	0.23008	0.092702	0.044187	0.02869	0.18638	0.084639	0.059232	0.087073	0.3604	0.38503	0.17204	0.21102	-2.3479	-2.9167	-2.8646	-2.6813	-2.9708	-3.0229	-3.1021	-3.0062	-2.825	-2.8458	-2.9854	-2.8812	-2.9021	-2.9125	-2.7812	-3.2542	24.348	116.823	224.377	16.830	36.713	305.439	307.353	119.132	326.215	346.642	65.432	324.488	281.984	356.377	277.214	32.912	0.0019565	0.001461	0.00018928	1114.5	1.6405e-05	1.0671e-05	1153.8	386.23	2.1056e-05	7.3755e-06	493.24	208.96	153.12	69.891	1.325e-05	117.29	0.0022166	0.0023828	0.00066843	1109.8	2.5533e-05	2.6787e-05	1146.1	385.26	2.5906e-05	2.6799e-05	494.94	209.21	153.29	70.292	2.6668e-05	117.44	339.063	86.549	102.234	18.694	138.347	209.060	18.680	23.644	188.115	165.976	23.010	27.450	28.156	32.146	177.825	30.773	-8191	255	
865.674	1	1	0	0	0.092504	0.16427	0.077823	0.16227	0.26342	0.046351	0.08711	0.27537	0.12026	0.14385	0.3244	0.087629	0.2084	0.40063	0.22499	0.38562	-2.3021	-2.7667	-3.1146	-2.8958	-3.0458	-2.8396	-2.8083	-3.0312	-2.8312	-3.0271	-3.1958	-2.7542	-3.0396	-3.0563	-2.8625	-3.2646	288.147	365.444	348.527	26.076	303.924	115.735	347.544	9.160	364.988	103.305	326.357	50.744	61.781	8.327	186.426	297.422	0.0020305	0.00091383	0.00039676	1119.2	1.3721e-05	6.7376e-06	1161.2	386.93	9.7545e-06	1.3419e-05	497.06	209.21	153.31	69.901	1.1755e-05	117.53	0.0022456	0.0023994	0.0006892	1114.5	2.5059e-05	2.654e-05	1151.2	386.07	2.5414e-05	2.7229e-05	496.52	209.39	153.42	70.361	2.7092e-05	118	331.504	84.981	104.765	18.741	145.469	148.576	18.663	23.690	157.326	146.235	22.894	27.368	28.006	31.823	175.620	30.572	-8191	255	
865.770	1	1	0	0	0.20429	0.17781	0.14415	0.092059	0.15751	0.084839	0.35835	0.16515	0.12734	0.26495	0.1222	0.27102	0.13616	0.21304	0.16362	0.34995	-2.55	-2.8208	-2.9583	-2.8833	-2.9896	-3.0021	-2.9667	-3.3625	-2.8458	-2.7833	-3.1583	-2.8229	-3.0354	-3.0167	-2.7604	-3.1583	109.631	247.510	286.651	203.429	277.066	202.867	300.738	317.361	97.940	182.193	352.584	7.414	71.367	322.109	235.325	270.819	0.0021323	0.00083712	0.00032533	1117.7	1.3854e-05	7.558e-06	1160.5	387.55	1.4886e-05	1.2207e-05	496.35	210.97	152.98	70.139	2.0785e-05	117.97	0.0022169	0.0024435	0.00068206	1112.4	2.5141e-05	2.6868e-05	1151.9	386.03	2.501e-05	2.711e-05	497.87	210.6	153.44	70.629	2.6792e-05	118.54	335.376	58.619	103.313	18.784	172.453	176.871	18.667	23.838	192.685	177.110	22.945	27.611	28.000	32.049	179.219	30.701	-8191	255	
865.866	1	1	0	0	0.17296	0.23742	0.27208	0.18955	0.039861	0.13203	0.17443	0.23116	0.089726	0.025471	0.058182	0.27773	0.23943	0.13476	0.14057	0.30855	-2.2771	-2.7146	-2.9417	-2.8063	-2.9813	-2.9021	-2.9021	-3.0979	-2.8979	-2.7958	-3.1354	-2.9083	-3.2146	-3.0604	-2.7771	-3.1688	65.330	125.426	296.066	309.426	289.301	225.024	265.627	12.109	83.755	316.490	234.493	358.663	365.231	292.437	104.983	283.033	0.0019042	0.0010174	0.00020618	1120.8	8.5203e-06	9.1415e-06	1162.9	388.77	8.4551e-06	9.3023e-06	496.32	209.48	152.7	69.88	1.334e-05	117.16	0.0021955	0.0024965	0.00067826	1115.9	2.5527e-05	2.7221e-05	1154.7	387.26	2.5139e-05	2.7272e-05	497.64	209.57	153.16	70.336	2.6824e-05	117.76	343.023	83.347	70.539	18.680	186.440	153.851	18.630	23.557	218.827	171.501	22.942	27.284	28.071	32.112	189.963	30.645	-8191	255	
865.987	1	1	0	0	0.13828	0.27382	0.37543	0.11788	0.07108	0.337	0.16244	0.12417	0.12242	0.12649	0.32394	0.2077	0.14704	0.14615	0.24161	0.17163	-2.3812	-2.6458	-2.9521	-2.8708	-3.0563	-3.2604	-2.9979	-3.2271	-2.9146	-2.925	-3.15	-3.1875	-2.9333	-3.3167	-2.6708	-3.2083	177.187	57.234	206.029	66.469	186.647	94.395	355.005	300.097	125.870	340.663	7.919	322.938	333.599	214.500	134.129	353.736	0.001981	0.00064883	0.00013926	1118.9	1.7426e-05	7.8628e-06	1156.3	385.98	7.3408e-06	6.1281e-06	492.45	207.84	151.66	69.729	1.2995e-05	116.72	0.0022304	0.002513	0.00068428	1111.7	2.5649e-05	2.7141e-05	1146.9	384.08	2.5501e-05	2.7487e-05	493.65	207.76	152.52	70.108	2.6604e-05	117.17	334.014	133.638	130.161	18.618	149.535	135.418	18.629	23.576	212.458	139.789	22.986	27.441	28.059	31.754	181.820	30.664	-8191	255	
866.058	1	1	0	0	0.3044	0.19071	0.2173	0.20905	0.06015	0.16021	0.16249	0.22803	0.10063	0.10464	0.044351	0.034996	0.11592	0.27626	0.0919	0.17856	-2.6	-2.7333	-2.8229	-3.0271	-3.0729	-3.1875	-3.0125	-3.1625	-3.0104	-2.7917	-3.0604	-2.9646	-2.875	-3.1208	-2.8479	-3.2	310.218	162.096	18.812	314.194	313.825	181.520	239.516	270.202	263.696	20.046	245.108	337.732	172.643	364.253	322.862	274.494	0.0022133	0.00099427	0.00027036	1108.7	9.5707e-06	4.893e-06	1153	385.71	8.9712e-06	8.8817e-06	493.05	208.43	151.63	69.708	1.2705e-05	116.81	0.002259	0.002497	0.00067596	1105.1	2.6069e-05	2.715e-05	1142.3	384.57	2.5529e-05	2.7619e-05	494.34	208.21	152.31	70.201	2.5944e-05	117.28	336.240	99.926	111.312	18.660	156.790	165.747	18.439	23.812	230.924	160.544	23.040	27.480	28.129	32.058	179.279	30.589	-8191	255	
866.155	1	1	0	0	0.035364	0.050599	0.088796	0.2911	0.056278	0.037936	0.27456	0.18734	0.1906	0.14198	0.19934	0.2494	0.30544	0.091976	0.0083442	0.14779	-2.5542	-2.7	-3.0542	-3.0375	-2.7729	-3.1604	-2.9771	-3.0208	-2.9708	-2.8521	-3.1688	-2.95	-2.85	-3.1771	-2.7583	-2.9	133.596	130.086	92.725	326.322	120.897	310.011	277.506	240.562	7.451	100.573	304.071	45.033	360.981	336.335	76.266	337.707	0.0020462	0.0010181	0.00029991	1114	1.2639e-05	1.0603e-05	1158.5	386.63	1.9916e-05	5.5882e-06	495.15	209.65	152.7	70.178	6.7987e-06	117.29	0.0022413	0.0024563	0.00066816	1108.7	2.5955e-05	2.7107e-05	1147.7	385.17	2.5772e-05	2.7505e-05	496.16	209.49	153.49	70.49	2.6179e-05	117.89	336.363	66.693	128.677	18.888	194.778	142.315	18.613	23.581	189.280	121.308	22.921	27.391	28.191	32.083	203.277	30.662	-8191	255	
866.251	1	1	0	0	0.36374	0.22803	0.21701	0.23447	0.092852	0.13143	0.087267	0.32999	0.17514	0.084115	0.1545	0.3936	0.31151	0.074299	0.3771	0.30841	-2.525	-2.6979	-2.9583	-3.0396	-2.7313	-3.0979	-2.9271	-3.0687	-2.8458	-2.8333	-3.0354	-3.1708	-3.0021	-3.0417	-3.0125	-3.1	189.869	102.447	332.235	152.580	235.917	310.091	280.056	305.226	31.304	169.942	307.597	314.729	21.706	12.269	93.776	355.378	0.0020993	0.00077811	0.00024723	1115.9	2.0175e-05	1.0059e-05	1157.4	386.15	1.8131e-05	8.7786e-06	497.07	210.05	152.91	69.972	9.1032e-06	117.63	0.0022625	0.0024761	0.00067111	1110.6	2.6505e-05	2.7295e-05	1150.5	385.73	2.5559e-05	2.7119e-05	497.71	209.94	153.56	70.466	2.6236e-05	118.49	333.467	90.747	105.191	18.767	166.714	184.241	18.646	23.945	154.647	146.947	22.892	27.654	28.137	31.949	194.756	30.894	-8191	255	
866.347	1	1	0	0	0.017004	0.11091	0.097516	0.2312	0.098593	0.15967	0.24752	0.0087643	0.11534	0.11533	0.17289	0.14292	0.086152	0.11462	0.12707	0.3258	-2.7146	-2.7479	-3.0062	-3.0979	-2.5938	-3.1979	-2.9854	-2.9479	-2.9667	-2.7896	-3.1	-3.3271	-2.8646	-3.0812	-2.9583	-3.075	362.933	264.966	338.753	348.794	287.430	155.890	39.735	108.475	110.639	125.979	294.780	353.877	342.581	315.532	214.264	292.610	0.0020206	0.00053764	0.00019642	1119.4	1.4092e-05	7.8636e-06	1162.3	389.87	1.5968e-05	6.3853e-06	498.29	212.25	153.31	70.556	8.247e-06	118.77	0.002273	0.0024813	0.00068042	1112.4	2.6468e-05	2.7059e-05	1155.9	387.72	2.5907e-05	2.726e-05	500.6	211.92	154.11	71.008	2.6094e-05	119.28	329.075	99.025	81.717	18.825	147.278	138.070	18.545	23.727	177.048	121.600	22.804	27.636	27.923	32.110	170.210	30.725	-8191	255	
866.466	1	1	0	0	0.069716	0.13735	0.14909	0.16795	0.027207	0.2041	0.31729	0.27223	0.23387	0.031507	0.25254	0.088325	0.029775	0.13095	0.013796	0.15889	-2.6729	-2.8021	-2.8875	-3.0438	-2.7021	-2.9562	-2.925	-2.9146	-3.1458	-2.7292	-3.175	-3.0292	-2.7479	-3.0792	-2.9958	-2.9562	351.371	117.497	246.216	348.474	317.043	342.577	280.568	358.869	24.344	75.298	322.715	352.446	301.925	227.101	251.796	354.457	0.0019886	0.00082809	0.00036793	1119.5	1.418e-05	9.2604e-06	1160.2	388.23	8.8094e-06	4.4057e-06	495.04	209.72	152.24	69.592	1.0944e-05	116.94	0.0022538	0.0024196	0.00069297	1113.6	2.6205e-05	2.7155e-05	1150.9	386.39	2.5845e-05	2.6854e-05	497.3	209.85	153.01	70.21	2.5825e-05	117.35	336.640	89.703	111.691	18.848	123.214	160.190	18.594	23.684	243.158	150.192	22.778	27.234	28.153	31.977	184.481	30.441	-8191	255	
866.562	1	1	0	0	0.16564	0.21501	0.24955	0.22844	0.25363	0.040597	0.30907	0.13881	0.12009	0.04446	0.29197	0.028229	0.14981	0.15097	0.22128	0.2958	-2.5229	-2.8917	-2.7271	-3.2375	-2.7229	-3.0021	-3.2042	-2.8292	-2.9625	-2.875	-3.0104	-3.2167	-2.8646	-2.925	-2.9958	-2.7792	89.158	156.772	76.212	10.199	232.051	300.573	237.537	292.314	170.089	39.196	33.703	117.484	286.352	7.497	280.122	11.233	0.0019004	0.00018779	6.1281e-05	1113.8	1.3174e-05	5.8916e-06	1153.7	384.48	1.5239e-05	5.3319e-06	491.23	206.29	151.54	68.976	1.6678e-05	115.68	0.0022267	0.0023765	0.00067631	1109.6	2.5028e-05	2.6572e-05	1142.1	383.59	2.5347e-05	2.644e-05	492.03	206.82	152.05	69.576	2.6033e-05	116.46	337.600	72.315	70.891	18.675	110.200	154.378	18.634	23.742	207.812	137.473	22.736	27.327	28.043	31.926	158.158	30.735	-8191	255	
866.635	1	1	0	0	0.12988	0.10339	0.13251	0.43168	0.14023	0.23251	0.28161	0.40112	0.15872	0.13073	0.31539	0.23209	0.26982	0.09782	0.087972	0.10814	-2.5667	-2.9562	-2.8604	-3.3729	-2.7083	-2.8521	-3.0604	-2.8104	-2.9771	-2.9042	-2.9833	-3.0479	-2.85	-2.9771	-2.95	-2.9917	262.974	188.058	65.992	357.818	150.441	355.426	260.541	319.833	47.412	335.512	348.228	350.454	336.141	347.529	249.796	262.972	0.0019818	0.00061569	0.00034763	1110.3	1.1922e-05	1.1326e-05	1152.7	385.6	9.605e-06	1.0321e-05	491.2	208.86	151.87	69.444	7.4099e-06	116.86	0.0022203	0.0024029	0.00069216	1106.1	2.5109e-05	2.706e-05	1143.1	384.07	2.5134e-05	2.6707e-05	493.18	208.34	152.35	70.106	2.6194e-05	117.34	339.046	106.641	127.358	18.758	126.148	162.727	18.459	23.915	230.980	154.431	23.132	27.548	28.045	31.975	179.259	30.486	-8191	255	
866.754	1	1	0	0	0.16356	0.22616	0.23328	0.22109	0.10271	0.11063	0.24135	0.42008	0.11823	0.30555	0.14616	0.23081	0.15309	0.27264	0.2707	0.21271	-2.6	-2.9833	-2.7188	-3.2583	-2.7854	-2.9437	-3.3229	-2.8583	-2.8167	-2.9125	-2.7938	-3.1875	-2.8833	-3.0812	-3.1417	-2.8937	338.066	163.347	45.574	322.309	262.538	205.700	333.990	300.141	341.730	181.452	300.973	346.426	163.098	323.917	32.602	350.092	0.0019072	0.00116	0.0001971	1111.1	1.7139e-05	1.1624e-05	1150	385.2	1.4518e-05	5.4154e-06	490.85	209.56	152.67	69.826	1.3417e-05	117.59	0.0022061	0.0024422	0.00069261	1107	2.5069e-05	2.7576e-05	1144.8	384.79	2.5234e-05	2.6688e-05	494.29	209.22	152.89	70.265	2.6632e-05	118.09	342.485	93.780	87.515	18.803	166.002	134.756	18.498	23.776	158.675	153.861	23.006	27.488	27.973	31.668	173.156	30.817	-8191	255	
866.850	1	1	0	0	0.24214	0.19711	0.021649	0.11814	0.15156	0.15	0.242	0.20505	0.068783	0.21309	0.31342	0.35552	0.15293	0.14792	0.18948	0.16673	-2.5479	-2.9521	-2.8917	-3.0542	-2.925	-3.1437	-3.1646	-2.7792	-2.9917	-2.8667	-2.7917	-3.0479	-2.8458	-3.0792	-3.125	-3.0604	357.982	231.223	151.383	35.485	331.798	262.150	332.749	92.959	283.619	64.933	275.378	347.193	334.632	327.148	10.507	269.222	0.0019411	0.00093951	0.00028449	1117.9	1.6952e-05	1.1271e-05	1158.5	388.69	2.113e-05	5.6303e-06	499.04	211.06	153.35	70.104	8.4707e-06	118.25	0.00222	0.0024332	0.00069254	1111.9	2.5558e-05	2.8222e-05	1151.8	387.34	2.5834e-05	2.7382e-05	499.94	211.16	153.9	70.598	2.6562e-05	118.51	333.604	92.801	71.885	18.784	159.930	172.293	18.705	23.872	179.652	114.554	22.790	27.395	28.174	32.111	186.743	30.634	-8191	255	
866.946	1	1	0	0	0.35711	0.23364	0.13187	0.22656	0.18602	0.16109	0.16331	0.39803	0.2916	0.17481	0.13513	0.21133	0.13217	0.13411	0.17805	0.40286	-2.4562	-3.0104	-2.6958	-3.1417	-2.9979	-2.8438	-2.9729	-2.8458	-2.75	-3.1562	-2.9708	-3.1437	-3.0146	-2.8667	-2.9562	-3.1667	295.600	352.872	90.585	327.758	54.169	246.226	272.301	5.911	351.207	47.673	73.648	323.048	126.705	291.663	28.132	302.924	0.0018763	0.00091945	0.0001302	1115	5.6029e-06	1.0577e-05	1161.2	388.03	1.1711e-05	5.7209e-06	499.31	210.82	154	70.049	1.4078e-05	118.35	0.0022644	0.0024668	0.00068459	1111.1	2.5568e-05	2.791e-05	1154.1	386.73	2.6151e-05	2.7463e-05	500.02	211.39	154.2	70.64	2.6423e-05	118.7	336.059	95.942	90.825	18.857	201.709	164.637	18.681	23.641	202.084	150.710	22.935	27.601	28.217	32.003	177.282	30.667	-8191	255	
867.067	1	1	0	0	0.17581	0.44687	0.10195	0.28627	0.18831	0.16527	0.23268	0.19128	0.19542	0.20074	0.17985	0.22263	0.23888	0.13951	0.04318	0.20404	-2.3375	-3.1125	-2.6229	-3.1667	-2.8792	-2.7	-3.2021	-3.0979	-2.9354	-3.1167	-2.9854	-3.1708	-3.2833	-3	-3.1083	-3.2417	48.576	286.378	291.463	11.443	243.176	52.747	254.835	355.916	205.771	130.939	361.288	52.405	7.301	308.316	275.025	341.062	0.0021589	0.0013824	0.00034099	1119.6	1.0739e-05	6.6223e-06	1155.4	386.03	1.7671e-05	9.656e-06	493.88	208.27	152.49	69.462	4.507e-06	116.49	0.0022856	0.0024741	0.00067196	1112.2	2.5441e-05	2.7337e-05	1150.4	384.85	2.6361e-05	2.6804e-05	494.78	208.65	152.72	70.153	2.6247e-05	116.98	330.272	135.932	107.240	18.892	137.414	153.588	18.632	23.740	167.875	160.574	22.809	27.616	28.109	31.925	172.975	30.486	-8191	255	
867.163	1	1	0	0	0.13415	0.26303	0.074033	0.25795	0.034885	0.13506	0.44382	0.34801	0.27543	0.20403	0.17774	0.21345	0.077172	0.082794	0.14678	0.026927	-2.3729	-2.9792	-2.8854	-3.05	-3.0604	-2.9437	-3.3396	-3.1833	-2.9688	-3.1542	-2.8958	-3.1188	-3.1167	-2.9917	-3.1042	-3.1312	32.610	105.023	267.994	297.091	234.903	133.363	305.300	284.590	39.204	182.474	21.565	275.090	27.447	128.531	139.363	37.757	0.0023009	0.0009215	0.00015703	1115.8	1.0581e-05	1.0439e-05	1150.7	384.68	1.2228e-05	9.0449e-06	490.25	206	150.89	69.207	1.4173e-05	116.13	0.0022573	0.0024353	0.00066276	1107.3	2.5149e-05	2.7382e-05	1140.5	382.97	2.5873e-05	2.6347e-05	490.1	205.91	151.16	69.621	2.5695e-05	116.48	334.755	94.878	99.590	18.941	133.598	174.105	18.437	23.472	138.785	129.710	22.990	27.317	27.863	31.887	139.779	30.741	-8191	255	
867.259	1	1	0	0	0.34257	0.18743	0.17046	0.062357	0.087781	0.15005	0.18717	0.14971	0.23555	0.070905	0.2297	0.16201	0.20842	0.39887	0.14781	0.34391	-2.275	-3.0333	-2.9062	-2.9437	-3.0021	-2.8208	-2.9708	-2.9833	-2.6521	-3.075	-2.8667	-2.9458	-3.0167	-2.8708	-2.9562	-3.1229	291.016	276.345	218.594	105.405	255.043	159.593	348.981	362.863	199.119	273.593	29.566	271.971	59.077	24.967	18.131	340.430	0.002019	0.0010939	0.0001224	1107.1	1.8877e-05	3.133e-06	1150.5	384.43	2.1375e-05	8.328e-06	491.23	207.91	151.42	69.703	1.2997e-05	116.52	0.0022517	0.0023781	0.00065955	1103.5	2.5599e-05	2.6491e-05	1141.5	382.62	2.6025e-05	2.6532e-05	492.05	208	152.07	70.147	2.5519e-05	117.5	332.134	98.352	87.719	18.653	126.552	161.165	18.590	23.603	185.927	169.708	23.013	27.446	28.012	31.964	184.109	30.518	-8191	255	
867.356	1	1	0	0	0.031586	0.12691	0.32048	0.23815	0.09231	0.20547	0.1836	0.21869	0.27751	0.076965	0.21108	0.24407	0.15747	0.26569	0.31595	0.2058	-2.2583	-2.8396	-2.7854	-2.8937	-2.9042	-2.9396	-2.9958	-3.1375	-2.7396	-2.9979	-2.9875	-3.0146	-3.2458	-2.9083	-3.0583	-3.0625	261.109	321.424	266.644	291.156	58.753	58.488	338.233	306.209	313.634	110.975	279.099	293.524	342.560	104.649	31.428	47.045	0.0020355	0.0014987	0.00027488	1113.1	1.5968e-05	1.0358e-05	1153.4	386.14	2.0564e-05	7.8797e-06	494.87	210.44	152.73	70.205	6.5566e-06	117.62	0.0022484	0.0023403	0.00067125	1105.1	2.5238e-05	2.6415e-05	1145.7	384.85	2.5822e-05	2.6398e-05	496.91	210.35	153.07	70.658	2.5985e-05	118.3	338.641	98.506	111.180	18.604	137.153	110.462	18.522	23.728	179.399	139.464	23.003	27.537	28.014	31.712	172.908	30.589	-8191	255	
867.450	1	1	0	0	0.20755	0.14389	0.18585	0.084962	0.18091	0.24935	0.059271	0.23133	0.18894	0.059183	0.13012	0.20893	0.301	0.061677	0.12788	0.15162	-2.4042	-3.1312	-2.7917	-2.9167	-2.9437	-2.825	-2.9646	-3.0708	-2.8063	-3.25	-2.9333	-2.9833	-3.0625	-3.0292	-3.0583	-3.2292	104.820	78.670	156.508	249.759	334.729	175.847	131.090	256.860	139.726	27.307	249.822	316.986	300.317	103.920	295.849	234.508	0.0019976	0.001051	0.00025678	1117.5	2.0327e-05	6.3005e-06	1158.4	385.08	1.7275e-05	7.7863e-06	496.32	209.44	151.32	69.652	9.0649e-06	117.53	0.0022374	0.00237	0.00066133	1109.7	2.5002e-05	2.6219e-05	1149.5	384.03	2.5055e-05	2.6065e-05	496.03	209.07	152.19	70.139	2.563e-05	117.89	337.018	81.681	89.533	18.759	155.666	173.429	18.559	23.745	182.716	162.767	22.664	27.450	28.289	31.980	153.164	30.510	-8191	255	
867.546	1	1	0	0	0.047023	0.10244	0.096628	0.21275	0.16609	0.010507	0.21473	0.080166	0.26986	0.046079	0.07927	0.06861	0.20091	0.1945	0.11856	0.07468	-2.4979	-2.8312	-2.975	-2.9292	-3.2167	-2.8896	-3.0021	-3.1937	-2.9625	-2.9562	-3.0729	-2.8187	-3.1042	-3.0812	-2.95	-3.375	331.542	88.190	116.932	268.752	282.150	77.735	323.859	344.698	268.621	170.750	54.305	263.133	159.812	199.956	157.353	143.888	0.0019971	0.00054314	0.0003739	1119.7	8.6777e-06	7.115e-06	1162.4	384.32	1.352e-05	4.2128e-06	494.44	209.81	151.17	69.239	1.0255e-05	116.64	0.0021917	0.0023406	0.00064558	1113.4	2.4391e-05	2.5638e-05	1151.9	383.35	2.455e-05	2.5503e-05	494.45	208.86	151.57	69.682	2.5624e-05	117.05	339.181	96.539	111.923	18.771	138.875	122.054	18.588	23.662	169.206	213.758	22.799	27.565	28.191	31.758	146.997	30.705	-8191	255	
867.642	1	1	0	0	0.33886	0.15585	0.34582	0.2617	0.089095	0.23382	0.096762	0.14619	0.25508	0.1145	0.2257	0.10033	0.25936	0.065144	0.19816	0.13497	-2.425	-3.0083	-2.9771	-2.875	-3.1396	-2.8729	-3.0208	-3.2062	-2.7417	-2.9771	-3.0875	-2.9354	-2.9646	-3.0625	-2.6292	-3.3542	218.579	275.926	116.596	334.327	344.920	156.223	335.073	243.338	106.619	161.008	38.271	152.319	85.378	261.438	247.921	17.577	0.0020336	3.413e-05	0.00023362	1121.4	1.1694e-05	9.8309e-06	1158.3	382.01	2.3791e-05	8.0213e-06	488.12	205.38	149.76	68.225	1.1881e-05	114.56	0.0021285	0.0023069	0.00064487	1115.2	2.4293e-05	2.5928e-05	1147.5	381.94	2.4311e-05	2.6242e-05	489.32	205.48	150.01	68.722	2.5599e-05	115.06	335.963	106.204	112.381	18.751	163.789	171.031	18.644	23.747	190.115	106.247	22.895	27.463	28.231	32.092	165.688	30.733	-8191	255	
867.763	1	1	0	0	0.17949	0.17757	0.15962	0.27433	0.067293	0.28503	0.10861	0.087897	0.23955	0.12176	0.074497	0.36905	0.11776	0.068908	0.079177	0.10022	-2.5854	-2.8688	-2.8417	-2.6833	-2.9208	-2.9792	-2.9104	-3.3021	-3.0438	-2.9479	-3.1562	-2.9688	-3.0521	-3.0583	-2.8167	-3.1958	274.221	202.708	331.115	329.460	66.045	159.824	306.390	305.923	338.120	241.316	229.907	295.254	18.031	89.145	327.172	57.382	0.001849	0.00081916	6.8148e-05	1109.6	1.1145e-05	1.2183e-05	1144.1	381.77	9.4542e-06	5.8317e-06	485.21	203.9	148.6	67.755	1.2767e-05	113.73	0.0021465	0.0023537	0.00065015	1105.4	2.457e-05	2.604e-05	1136	379.09	2.4595e-05	2.625e-05	484.35	203.42	148.95	68.179	2.562e-05	114.04	333.318	78.056	17.810	18.783	159.913	170.446	18.512	23.636	195.558	151.211	22.923	27.259	28.021	32.116	171.988	30.458	-8191	255	
867.859	1	1	0	0	0.29117	0.17324	0.18401	0.36149	0.083732	0.096269	0.28086	0.26897	0.14744	0.1729	0.31989	0.11454	0.039677	0.16855	0.047343	0.38334	-2.5271	-2.7604	-3.1312	-3.0125	-3.075	-2.8854	-2.8021	-3.2208	-3.0271	-2.7	-3.0896	-3.1	-3.1917	-3.2458	-2.8688	-3.2562	205.443	51.873	44.278	310.288	235.562	290.682	260.031	332.512	238.364	360.754	347.282	204.516	234.118	295.522	151.568	288.174	0.0020392	0.00059516	0.00016623	1108.4	1.0605e-05	7.0457e-06	1141	379.54	1.8505e-05	4.3886e-06	482.12	203.4	148.71	67.909	6.836e-06	113.68	0.0021401	0.0023704	0.0006542	1103.5	2.4277e-05	2.5973e-05	1132.8	378.16	2.45e-05	2.6272e-05	483.48	202.98	148.95	68.17	2.558e-05	114.35	335.666	104.644	115.984	18.857	107.421	142.466	18.404	23.726	178.718	197.507	22.900	27.426	28.117	32.181	106.499	30.431	-8191	255	
867.931	1	1	0	0	0.24635	0.11532	0.30302	0.28848	0.13633	0.15228	0.19524	0.14664	0.051154	0.045233	0.11228	0.20806	0.12649	0.28005	0.24027	0.31108	-2.3854	-2.7917	-3.1188	-2.8958	-2.7958	-3.0917	-2.8417	-3.2062	-3.0625	-2.7417	-2.9833	-2.9542	-2.75	-3.1604	-2.8083	-3.1542	50.311	290.742	65.211	28.240	38.412	166.634	306.805	253.685	66.058	315.091	109.724	290.828	275.214	363.980	309.600	287.667	0.0020866	0.00054861	0.0001999	1107.7	1.342e-05	1.0136e-05	1143.8	378.59	1.0699e-05	6.1728e-06	486.07	204.6	148.45	67.769	9.2763e-06	114.52	0.0021443	0.0023658	0.00064961	1102.3	2.4602e-05	2.6263e-05	1135.9	377.17	2.4163e-05	2.6023e-05	484.91	204.22	148.83	68.28	2.5159e-05	115.02	338.407	72.414	107.682	18.612	196.226	179.451	18.529	23.459	175.572	149.230	23.056	27.443	28.244	32.036	158.671	30.837	-8191	255	
868.027	1	1	0	0	0.20712	0.067475	0.15513	0.060357	0.1407	0.10867	0.25612	0.057946	0.038078	0.15822	0.12166	0.25849	0.10988	0.14051	0.1102	0.092825	-2.4979	-2.575	-2.8646	-3.1	-2.7771	-3.2354	-2.8729	-3.0583	-2.9833	-2.7729	-2.9104	-2.8125	-2.9375	-3.1292	-2.7687	-3.2479	121.820	121.759	47.987	147.808	109.444	34.684	320.071	7.658	42.139	350.475	287.457	45.595	349.134	12.474	99.428	282.181	0.0019113	0.00075666	0.00024426	1106	1.5909e-05	8.0975e-06	1146.9	378.85	1.0783e-05	1.0074e-05	485.47	205.03	149.34	68.151	1.0358e-05	115.15	0.0021122	0.0023751	0.00064634	1100.7	2.4935e-05	2.6461e-05	1136	377.3	2.4968e-05	2.6506e-05	486.28	205.19	149.36	68.573	2.5595e-05	115.7	333.425	61.800	102.502	18.603	167.736	156.603	18.562	23.680	212.349	151.717	22.828	27.412	28.151	32.065	157.991	30.607	-8191	255	
#DATA ENDS
