BOXY.EXE: ISS Imagent and Oximeter Data Acquisition Program Version 0.80
Ascii Record File

#ACQ INFORMATION
2  Detector Channels 
16  External MUX Channels 
1  Auxiliary Channels 
5000  Waveform (CCF) Frequency (Hz)
1  Waveforms Skipped 
30  Waveforms Averaged 
1  Cycles Averaged 
16  Acquisitions per Waveform 
10.0806  Updata Rate (Hz) 

#FILE INFORMATION
TRUE -- External MUX Channel results are PARSED.
FALSE -- AC DC and Phase are NOT grouped.
TRUE -- Companion Program Settings File CREATED.
FALSE -- AC data not excluded
FALSE -- DC data not excluded
FALSE -- Phase data not excluded
FALSE -- Auxillary Chn. data not excluded
Tab delimiters

#CALIBRATION STATE
TRUE -- Waveform Calibration Values APPLIED.


#AUX CALIBRATION VALUES
Val Type	aux-1	

Term	1.0000e+00	
Factor	0.0000e+00	


#WF CALIBRATION VALUES
A = Detector Channel
Val Type	A-AC1	A-AC2	A-AC3	A-AC4	A-AC5	A-AC6	A-AC7	A-AC8	A-AC9	A-AC10	A-AC11	A-AC12	A-AC13	A-AC14	A-AC15	A-AC16	A-DC1	A-DC2	A-DC3	A-DC4	A-DC5	A-DC6	A-DC7	A-DC8	A-DC9	A-DC10	A-DC11	A-DC12	A-DC13	A-DC14	A-DC15	A-DC16	A-Ph1	A-Ph2	A-Ph3	A-Ph4	A-Ph5	A-Ph6	A-Ph7	A-Ph8	A-Ph9	A-Ph10	A-Ph11	A-Ph12	A-Ph13	A-Ph14	A-Ph15	A-Ph16	

Term	0.00000e+00	0.00000e+00	0.00000e+00	0.00000e+00	0.00000e+00	0.00000e+00	0.00000e+00	0.00000e+00	0.00000e+00	0.00000e+00	0.00000e+00	0.00000e+00	0.00000e+00	0.00000e+00	0.00000e+00	0.00000e+00	0.00000e+00	0.00000e+00	0.00000e+00	0.00000e+00	0.00000e+00	0.00000e+00	0.00000e+00	0.00000e+00	0.00000e+00	0.00000e+00	0.00000e+00	0.00000e+00	0.00000e+00	0.00000e+00	0.00000e+00	0.00000e+00	0.00000e+00	0.00000e+00	0.00000e+00	0.00000e+00	0.00000e+00	0.00000e+00	0.00000e+00	0.00000e+00	0.00000e+00	0.00000e+00	0.00000e+00	0.00000e+00	0.00000e+00	0.00000e+00	0.00000e+00	0.00000e+00	
Factor	1.00000e+00	1.00000e+00	1.00000e+00	1.00000e+00	1.00000e+00	1.00000e+00	1.00000e+00	1.00000e+00	1.00000e+00	1.00000e+00	1.00000e+00	1.00000e+00	1.00000e+00	1.00000e+00	1.00000e+00	1.00000e+00	1.00000e+00	1.00000e+00	1.00000e+00	1.00000e+00	1.00000e+00	1.00000e+00	1.00000e+00	1.00000e+00	1.00000e+00	1.00000e+00	1.00000e+00	1.00000e+00	1.00000e+00	1.00000e+00	1.00000e+00	1.00000e+00	X	X	X	X	X	X	X	X	X	X	X	X	X	X	X	X	

B = Detector Channel
Val Type	B-AC1	B-AC2	B-AC3	B-AC4	B-AC5	B-AC6	B-AC7	B-AC8	B-AC9	B-AC10	B-AC11	B-AC12	B-AC13	B-AC14	B-AC15	B-AC16	B-DC1	B-DC2	B-DC3	B-DC4	B-DC5	B-DC6	B-DC7	B-DC8	B-DC9	B-DC10	B-DC11	B-DC12	B-DC13	B-DC14	B-DC15	B-DC16	B-Ph1	B-Ph2	B-Ph3	B-Ph4	B-Ph5	B-Ph6	B-Ph7	B-Ph8	B-Ph9	B-Ph10	B-Ph11	B-Ph12	B-Ph13	B-Ph14	B-Ph15	B-Ph16	

Term	0.00000e+00	0.00000e+00	0.00000e+00	0.00000e+00	0.00000e+00	0.00000e+00	0.00000e+00	0.00000e+00	0.00000e+00	0.00000e+00	0.00000e+00	0.00000e+00	0.00000e+00	0.00000e+00	0.00000e+00	0.00000e+00	0.00000e+00	0.00000e+00	0.00000e+00	0.00000e+00	0.00000e+00	0.00000e+00	0.00000e+00	0.00000e+00	0.00000e+00	0.00000e+00	0.00000e+00	0.00000e+00	0.00000e+00	0.00000e+00	0.00000e+00	0.00000e+00	-2.12444e+02	-1.41062e+02	-1.70892e+02	-1.83732e+02	-1.12109e+02	-1.05118e+02	-1.55012e+02	-1.62015e+02	-9.09407e+01	-9.85453e+01	-1.70533e+02	-1.70350e+02	-1.84933e+02	-1.77024e+02	-9.26801e+01	-1.49740e+02	
Factor	3.86930e-05	3.87587e-05	1.11420e-05	1.84525e-01	4.76322e-07	4.00243e-07	1.77227e-01	5.92448e-02	4.03067e-07	4.33660e-07	9.47737e-02	3.35258e-02	3.39684e-02	1.07113e-02	3.85728e-07	1.51601e-02	1.41076e-07	1.41361e-07	3.93248e-08	7.31989e-02	1.55024e-09	1.55026e-09	6.73368e-02	2.26348e-02	1.55356e-09	1.55040e-09	3.24457e-02	1.12648e-02	1.11019e-02	3.63347e-03	1.55221e-09	4.80811e-03	X	X	X	X	X	X	X	X	X	X	X	X	X	X	X	X	



#DISTANCE SETTINGS
A = Detector Channel
A-1	A-2	A-3	A-4	A-5	A-6	A-7	A-8	A-9	A-10	A-11	A-12	A-13	A-14	A-15	A-16	

2.5000e+00	3.0000e+00	2.5000e+00	3.0000e+00	2.0000e+00	3.0000e+00	1.5000e+00	3.0000e+00	3.0000e+00	3.0000e+00	3.0000e+00	3.0000e+00	3.0000e+00	3.0000e+00	1.5000e+00	3.0000e+00	

B = Detector Channel
B-1	B-2	B-3	B-4	B-5	B-6	B-7	B-8	B-9	B-10	B-11	B-12	B-13	B-14	B-15	B-16	

1.0000e+01	1.0000e+01	1.0000e+01	1.4400e+00	1.0000e+01	1.0000e+01	1.5100e+00	1.9400e+00	1.0000e+01	1.0000e+01	1.9900e+00	2.4900e+00	2.4100e+00	2.9000e+00	1.0000e+01	2.9800e+00	




#DATA BEGINS
time	group	step	mark	flag	A-AC1	A-AC2	A-AC3	A-AC4	A-AC5	A-AC6	A-AC7	A-AC8	A-AC9	A-AC10	A-AC11	A-AC12	A-AC13	A-AC14	A-AC15	A-AC16	A-DC1	A-DC2	A-DC3	A-DC4	A-DC5	A-DC6	A-DC7	A-DC8	A-DC9	A-DC10	A-DC11	A-DC12	A-DC13	A-DC14	A-DC15	A-DC16	A-Ph1	A-Ph2	A-Ph3	A-Ph4	A-Ph5	A-Ph6	A-Ph7	A-Ph8	A-Ph9	A-Ph10	A-Ph11	A-Ph12	A-Ph13	A-Ph14	A-Ph15	A-Ph16	B-AC1	B-AC2	B-AC3	B-AC4	B-AC5	B-AC6	B-AC7	B-AC8	B-AC9	B-AC10	B-AC11	B-AC12	B-AC13	B-AC14	B-AC15	B-AC16	B-DC1	B-DC2	B-DC3	B-DC4	B-DC5	B-DC6	B-DC7	B-DC8	B-DC9	B-DC10	B-DC11	B-DC12	B-DC13	B-DC14	B-DC15	B-DC16	B-Ph1	B-Ph2	B-Ph3	B-Ph4	B-Ph5	B-Ph6	B-Ph7	B-Ph8	B-Ph9	B-Ph10	B-Ph11	B-Ph12	B-Ph13	B-Ph14	B-Ph15	B-Ph16	aux-1	digaux	

3158.462	1	1	0	256	0.079643	0.30276	0.13012	0.24956	0.20793	0.17168	0.15214	0.27229	0.14733	0.13174	0.27651	0.22655	0.05406	0.2701	0.11961	0.10733	-3.8771	-3.7104	-3.6688	-4.2042	-3.6021	-3.9104	-3.9875	-3.4708	-4.1333	-3.6979	-3.8667	-4.3125	-3.6937	-3.9479	-4.0437	-3.7292	121.405	274.560	431.305	298.721	280.268	116.838	98.567	354.017	234.456	331.659	376.647	360.622	85.555	420.662	216.003	379.008	0.0015845	0.00039679	8.8941e-05	598.12	4.385e-06	3.2469e-06	668.89	227.45	4.9532e-06	4.2724e-06	289.13	133.63	99.002	50.976	4.8518e-07	71.96	0.00030811	0.00035235	9.0215e-05	614.01	3.0613e-06	3.5494e-06	668.65	212.59	2.934e-06	3.4114e-06	263.64	111.47	84.69	42.317	3.2811e-06	55.866	80.519	147.220	303.773	91.758	194.086	179.146	90.244	96.702	197.769	143.377	95.009	98.743	100.687	104.654	377.724	101.773	-8191	255	
3158.558	1	1	0	0	0.10729	0.19977	0.17604	0.078545	0.15954	0.22483	0.22823	0.057722	0.28455	0.12344	0.39566	0.23651	0.13134	0.092456	0.14985	0.053324	-3.7583	-3.7938	-3.6042	-4.1479	-3.7583	-3.8208	-4.2271	-3.7	-4.0646	-4.0375	-3.6646	-4.0729	-3.6667	-3.9292	-4.1417	-3.6188	401.597	381.020	352.671	167.151	122.023	213.021	377.854	359.250	220.476	89.738	386.087	261.609	396.314	132.736	410.373	409.552	0.0014465	6.014e-05	5.3985e-05	598.79	1.2186e-05	2.4181e-06	675.53	228.4	9.9105e-06	5.6241e-06	292.84	136.58	101	52.12	1.6143e-06	74.214	0.0003242	0.00037839	9.6767e-05	631.83	3.7488e-06	3.9655e-06	682.92	216.95	3.4029e-06	3.4946e-06	266.09	112.98	87.089	42.425	2.9453e-06	55.874	85.965	375.033	178.812	92.100	165.098	93.463	90.276	96.752	207.852	284.027	94.644	98.789	100.732	104.703	420.497	101.723	-8191	255	
3158.654	1	1	0	0	0.13331	0.1633	0.12139	0.15594	0.19783	0.16238	0.071759	0.12787	0.062966	0.11684	0.36935	0.21057	0.064578	0.1677	0.14686	0.16542	-3.6521	-3.9667	-3.4333	-4.2604	-3.7313	-3.6167	-4.2083	-3.6167	-3.9667	-3.9062	-3.6437	-4.175	-3.8958	-3.9062	-4.0521	-3.6833	288.675	198.604	323.117	148.982	150.543	386.815	378.017	286.973	384.977	202.490	396.333	92.952	115.253	306.931	350.621	404.798	0.0015351	0.00064472	3.1706e-05	603.84	5.4923e-06	3.4979e-06	677.65	232.7	3.5607e-06	6.0842e-06	293	137.9	100.83	52.597	2.6702e-06	74.969	0.00029987	0.00029971	7.622e-05	602.61	3.4825e-06	3.4496e-06	673.01	218.62	3.7234e-06	3.5407e-06	269.96	116	90.518	42.748	2.9784e-06	57.081	85.200	268.714	337.603	92.028	172.916	385.623	90.443	96.959	141.179	373.160	94.656	98.944	100.788	104.901	128.066	101.690	-8191	255	
3158.750	1	1	0	0	0.24018	0.11517	0.093304	0.31609	0.16961	0.25447	0.27226	0.23897	0.086436	0.22273	0.11064	0.10484	0.23913	0.23363	0.060108	0.13739	-3.7292	-3.8167	-3.4208	-4.2646	-3.7667	-3.7708	-4.2438	-3.7833	-3.8396	-4.0479	-3.6875	-4.0271	-3.9688	-3.7188	-4.0687	-3.8812	304.844	177.790	276.802	384.447	175.028	152.348	364.708	433.334	354.558	136.554	412.938	416.450	81.424	337.175	345.675	248.957	0.0014893	9.7388e-05	6.1276e-05	605.66	3.9746e-06	3.523e-06	683.58	235.66	1.2294e-06	2.311e-06	296.54	140.52	102.27	53.185	1.3553e-06	75.368	0.0003112	0.00027523	6.9257e-05	598.92	3.16e-06	2.8333e-06	651.92	216.38	3.151e-06	2.8751e-06	261.32	116.71	89.529	42.574	2.8872e-06	58.441	92.368	286.607	298.028	92.036	244.493	261.380	90.754	96.940	196.219	367.689	94.669	98.854	100.877	104.723	413.866	101.718	-8191	255	
3158.846	1	1	0	0	0.19174	0.10329	0.14624	0.10173	0.088464	0.062963	0.16229	0.20369	0.26332	0.096047	0.24426	0.24644	0.2567	0.12481	0.17967	0.36759	-3.6417	-4.1062	-3.6854	-4.0667	-3.85	-3.6417	-4.2667	-3.825	-3.7896	-4.1292	-3.7417	-4.1729	-3.9083	-3.8083	-4.0917	-3.7458	395.600	209.166	103.343	298.731	142.452	320.898	325.495	341.841	134.253	80.363	400.724	346.862	357.000	349.255	210.300	388.293	0.0010282	0.0005336	8.7288e-05	610.9	2.1431e-06	3.0455e-06	693.81	237.46	2.2015e-06	2.2026e-06	302.58	141.31	103.04	53.47	5.1094e-06	75.854	0.00032388	0.00028939	7.4269e-05	629.02	3.3582e-06	2.9741e-06	664.67	224.04	3.1435e-06	2.8209e-06	262.46	118.5	87.739	42.102	2.6436e-06	58.301	112.670	322.350	164.041	91.735	382.345	351.340	90.290	96.826	146.602	249.656	94.978	98.616	100.812	104.630	246.105	101.797	-8191	255	
3158.943	1	1	0	0	0.28792	0.30883	0.17657	0.26254	0.22285	0.20751	0.15312	0.082148	0.25867	0.14973	0.059808	0.12828	0.24554	0.11563	0.14458	0.066268	-3.3875	-4.0583	-3.5542	-3.8604	-3.9708	-3.6896	-4.1896	-3.9125	-3.7958	-4.2146	-3.8354	-3.9083	-4.2021	-3.725	-4.0375	-3.9833	289.905	396.625	341.398	432.889	398.758	404.606	357.008	359.888	312.920	290.960	139.659	381.419	215.459	375.124	138.472	179.453	0.00092622	0.00047311	0.00011446	622.38	1.8057e-06	3.2015e-06	696.49	236.41	5.629e-06	1.8623e-06	299.05	140.85	103.03	53.39	3.856e-06	75.608	0.00027757	0.00025203	6.9401e-05	633.61	3.109e-06	2.9166e-06	676.26	228.68	3.1726e-06	2.8739e-06	267.11	119.26	86.856	41.774	2.7691e-06	58.206	101.585	302.997	143.517	91.782	296.244	400.770	90.348	96.881	382.665	224.937	94.997	98.820	100.998	104.575	141.898	101.818	-8191	255	
3159.039	1	1	0	0	0.10388	0.06071	0.19925	0.12311	0.011333	0.058084	0.15275	0.080219	0.32072	0.12325	0.24907	0.090193	0.25999	0.073635	0.25719	0.14615	-3.3354	-4.0062	-3.6708	-3.8771	-4.1479	-3.575	-4.1813	-3.8083	-3.625	-4.2833	-3.6958	-3.9208	-4.1729	-3.6833	-4.1646	-4.0437	191.208	132.155	153.219	364.181	85.615	202.822	337.440	400.082	356.137	129.369	136.085	141.618	225.310	426.441	334.919	398.764	0.0011107	0.00034046	0.00022932	615.57	2.5649e-06	2.4687e-06	698.3	238.01	2.9442e-06	3.9814e-06	301.93	140.05	103.39	53.186	4.2256e-06	75.335	0.00025999	0.0002371	7.2559e-05	627.93	2.8794e-06	2.6833e-06	680.92	226.74	3.0236e-06	2.8534e-06	277.19	120.88	89.035	42.347	3.3762e-06	58.676	85.972	216.142	139.654	91.955	155.916	318.632	90.836	96.724	161.304	364.509	94.793	98.788	100.816	104.827	203.547	101.791	-8191	255	
3159.158	1	1	0	0	0.042765	0.066976	0.075063	0.21415	0.18176	0.078927	0.028258	0.16114	0.097472	0.16145	0.11402	0.16034	0.15013	0.010852	0.19669	0.050363	-3.2542	-4.0917	-3.6771	-3.9062	-3.9375	-3.6104	-4.0604	-4.025	-3.75	-4.1708	-3.7083	-3.8125	-4.1104	-3.8812	-3.8792	-4.1042	153.681	408.359	424.627	366.235	201.269	418.465	140.449	306.814	176.112	237.270	140.375	367.258	195.837	407.703	317.236	113.160	0.0011977	0.00024595	0.0001088	615.52	3.2987e-06	5.7826e-06	696.89	238.45	1.7159e-06	4.9769e-06	301.49	142.05	103.71	53.786	2.5316e-06	75.677	0.00027664	0.00025493	8.2704e-05	627.89	2.8282e-06	2.6792e-06	686.26	223.3	2.7722e-06	2.7328e-06	277.46	118.96	87.047	42.499	3.5124e-06	58.622	90.093	140.345	96.258	91.764	272.888	208.233	90.709	96.771	278.634	201.350	94.849	98.700	100.650	104.833	234.705	101.681	-8191	255	
3159.254	1	1	0	0	0.27286	0.097388	0.21565	0.078402	0.10625	0.049467	0.067208	0.24412	0.21798	0.060265	0.18885	0.13112	0.059829	0.095536	0.21777	0.26019	-3.35	-3.9188	-3.7354	-3.8729	-4.1312	-3.6625	-3.9646	-4.1625	-3.5062	-4.2438	-3.8271	-3.6	-4.1896	-3.7833	-3.8812	-4.2458	117.628	269.585	127.824	257.711	399.312	322.056	305.941	192.256	171.631	362.042	438.589	355.464	363.749	157.930	257.585	386.370	0.00081755	0.0006225	8.1094e-05	616.62	3.8194e-06	7.2612e-06	699.93	240.24	1.5484e-06	5.472e-06	307.5	144.67	106.69	55.153	4.4147e-06	77.716	0.00028318	0.00028669	9.1029e-05	629.02	2.8132e-06	2.8522e-06	691.01	220.78	2.4682e-06	2.6067e-06	271.12	116.19	84.01	42.398	2.6802e-06	57.143	90.555	143.780	151.079	91.656	289.850	153.073	90.455	96.578	370.569	183.564	94.903	99.094	100.830	104.601	341.858	101.480	-8191	255	
3159.325	1	1	0	0	0.048257	0.14105	0.25437	0.20637	0.041188	0.10546	0.19416	0.15482	0.2084	0.084376	0.13984	0.21222	0.11531	0.03705	0.10786	0.16441	-3.2958	-3.9667	-3.7354	-3.9062	-4.05	-3.6542	-3.9688	-4.0479	-3.6292	-3.9896	-3.9333	-3.8729	-4.1792	-3.8625	-3.6917	-4.15	422.834	310.940	254.605	359.975	237.337	102.741	368.628	350.975	89.091	410.163	198.530	390.004	285.769	366.661	221.236	356.894	0.001224	0.00045571	3.7672e-05	621.1	2.3747e-06	3.2406e-06	699.09	239.29	1.7093e-06	5.5399e-06	300.59	140.9	103.54	53.41	3.1e-06	75.404	0.00021121	0.00024365	7.3102e-05	607.5	2.5579e-06	3.0528e-06	692.9	223.83	2.9164e-06	3.546e-06	282.77	118.93	87.601	43.747	3.2543e-06	57.35	91.149	131.768	146.594	91.761	214.051	195.170	90.429	96.761	179.846	197.146	94.929	98.892	100.776	105.007	402.428	101.678	-8191	255	
3159.446	1	1	0	0	0.070226	0.20768	0.17987	0.14131	0.061654	0.027	0.16313	0.25736	0.12606	0.073398	0.078415	0.063841	0.19146	0.38367	0.053464	0.40603	-3.1271	-3.9688	-3.9604	-3.5708	-4.0833	-3.5854	-3.8458	-4.0437	-3.6	-3.9396	-4.1062	-3.7625	-4.1687	-3.825	-3.6375	-4.1854	202.107	84.607	146.902	94.451	181.709	265.308	128.780	388.317	217.281	225.193	358.024	270.000	433.251	393.305	438.944	406.938	0.0013807	0.00044175	0.00013241	622.97	2.3192e-06	4.8222e-06	700.34	240.31	7.2007e-06	4.3129e-06	298.99	140.6	104.05	52.805	2.0075e-06	74.161	0.00025107	0.00029049	7.4628e-05	607.56	2.6366e-06	3.1306e-06	678.58	219.34	2.7952e-06	3.3623e-06	273.4	116.93	88.882	44.052	3.4329e-06	57.594	438.515	196.294	306.316	91.995	207.332	136.124	90.576	96.989	202.028	190.466	94.968	98.880	100.633	104.770	394.401	102.000	-8191	255	
3159.542	1	1	0	0	0.12101	0.12263	0.16069	0.132	0.14538	0.39799	0.22784	0.30703	0.13471	0.09382	0.28482	0.20097	0.15912	0.21611	0.25591	0.0704	-3.3646	-3.7812	-4.0333	-3.5604	-4.0062	-3.85	-3.6583	-4.1083	-3.6562	-3.8708	-4.2625	-3.6479	-4.0417	-3.9813	-3.7188	-4.2542	282.144	245.717	404.666	371.518	318.995	131.798	83.463	429.948	250.193	229.011	428.427	98.404	384.810	85.095	309.684	370.703	0.0013902	0.00040956	0.00010843	618.72	1.0314e-05	2.7817e-06	696.38	238.33	9.5357e-06	5.2842e-07	302.74	142.56	105.56	53.671	1.5472e-06	76.379	0.00032167	0.00036174	8.9539e-05	632.81	3.4779e-06	3.7228e-06	690.73	221.26	3.2085e-06	3.3152e-06	270.93	116.07	89.227	43.418	2.8732e-06	57.14	436.389	201.198	303.019	91.672	188.750	327.754	90.524	96.628	199.809	333.610	94.921	98.700	100.886	104.787	232.500	101.718	-8191	255	
3159.638	1	1	0	0	0.20833	0.2678	0.16676	0.077578	0.16342	0.11714	0.22434	0.30874	0.090456	0.10198	0.28914	0.090759	0.11072	0.19095	0.25836	0.17998	-3.4875	-3.7125	-4.0229	-3.4896	-3.9354	-3.9958	-3.6521	-4.2354	-3.8604	-3.6333	-4.1583	-3.7125	-4.0375	-4.0333	-3.4813	-4.1167	183.313	223.319	334.440	128.220	354.605	294.228	430.726	336.471	319.149	352.217	93.074	121.237	81.461	394.681	114.152	390.903	0.0018128	0.00014513	8.9352e-05	619.24	9.6025e-06	1.7608e-06	699.68	240.06	3.308e-06	3.1841e-06	304.17	143.68	105.72	54.486	5.0363e-07	77.734	0.00029263	0.00029317	7.441e-05	612.29	3.3736e-06	3.3084e-06	683.66	222.37	3.4599e-06	3.2253e-06	271.1	117.6	90.64	43.223	2.6797e-06	57.849	86.593	250.566	360.209	91.995	179.918	120.782	90.404	96.920	273.115	344.079	94.980	98.828	100.880	104.708	393.798	102.011	-8191	255	
3159.759	1	1	0	0	0.13235	0.14935	0.17952	0.47864	0.16138	0.16757	0.23915	0.12904	0.026398	0.11283	0.037911	0.32206	0.1383	0.39777	0.087732	0.28162	-3.5438	-3.6625	-3.8854	-3.6417	-3.8479	-3.8667	-3.6521	-4.1542	-3.7021	-3.6458	-4.0625	-3.8625	-3.9146	-4.0521	-3.5417	-3.9938	93.860	333.898	93.531	382.234	247.625	233.739	412.052	389.286	199.003	431.750	336.741	388.929	153.300	82.608	143.085	414.016	0.0012027	0.0002278	1.6367e-05	617.83	2.8109e-06	2.3774e-06	702.27	242.56	2.0003e-06	4.0604e-06	304.06	144.14	105.3	53.501	2.1455e-06	76.102	0.00028613	0.00025626	6.5732e-05	606.17	3.1294e-06	2.8591e-06	668.56	223.45	3.3391e-06	3.0448e-06	270.32	120.49	92.913	43.515	3.0541e-06	59.292	82.310	382.379	206.964	91.875	437.799	370.780	90.175	97.146	352.615	409.930	94.620	98.783	100.641	104.785	198.278	101.779	-8191	255	
3159.855	1	1	0	0	0.091293	0.21909	0.13428	0.13877	0.085419	0.20329	0.16352	0.23079	0.13547	0.12274	0.042758	0.15955	0.20361	0.26679	0.31684	0.18785	-3.6	-3.7542	-4.1792	-3.7333	-3.8708	-4.1875	-3.7354	-3.9771	-3.9396	-3.4938	-4.1625	-3.9583	-3.8833	-4.0188	-3.4875	-4.1	170.787	164.581	300.592	358.700	90.328	426.640	83.017	426.538	206.045	209.694	132.407	414.821	422.029	402.246	396.422	335.070	0.0011493	0.00013244	4.5982e-05	620.79	6.5251e-06	1.7698e-06	701.62	240.95	2.4457e-06	2.7905e-06	301.54	141.82	103.56	53.077	3.8643e-06	74.628	0.00033066	0.0002893	7.4311e-05	638.96	3.4203e-06	3.0669e-06	675.52	228.98	3.3868e-06	3.0709e-06	270.66	121.77	91.447	43.204	3.2304e-06	60.282	430.221	400.698	182.631	91.763	381.382	332.349	90.346	96.585	380.556	106.963	94.987	99.176	100.955	104.834	197.926	101.680	-8191	255	
3159.927	1	1	0	0	0.065606	0.17724	0.10337	0.15577	0.15254	0.2511	0.093878	0.095642	0.32719	0.32067	0.10581	0.26733	0.18375	0.19081	0.11744	0.23336	-3.5771	-3.6188	-4.1333	-3.8229	-3.5667	-4.1958	-3.7854	-4.0708	-3.9271	-3.6958	-4.1562	-3.8771	-3.8292	-4.1375	-3.5646	-3.9688	317.804	324.207	282.146	385.329	135.251	104.732	163.236	350.099	400.146	373.899	292.165	120.474	383.996	80.650	157.528	402.678	0.00037487	0.00034581	0.0001008	619.45	5.0556e-06	8.5315e-07	688.7	236.18	3.743e-06	3.4717e-08	297.43	138.91	102.49	52.532	1.0007e-05	73.807	0.00036315	0.00034091	9.6262e-05	697.88	4.4938e-06	4.2155e-06	729.36	249.9	4.5529e-06	4.0947e-06	292.02	128.57	95.232	43.892	3.9469e-06	61.349	134.076	404.588	136.410	91.865	322.140	335.120	90.347	96.840	301.140	202.021	95.032	98.665	100.980	104.773	185.015	101.690	-8191	255	
3160.047	1	1	0	0	0.066856	0.1291	0.10533	0.051282	0.111	0.15207	0.12243	0.15702	0.094071	0.16284	0.11636	0.013041	0.092886	0.13382	0.21284	0.23004	-3.5479	-3.5625	-3.8354	-4.0125	-3.7667	-4.1479	-3.8896	-3.8708	-3.9833	-3.4625	-4.1479	-4.0354	-3.6458	-4.1021	-3.575	-4.0563	374.806	341.441	152.612	395.354	216.239	347.534	126.445	405.523	222.293	159.438	334.828	339.528	123.262	383.302	181.458	326.388	0.001033	0.00051909	0.00029123	616.78	4.3054e-06	9.585e-07	693.81	233.97	2.1225e-06	3.722e-06	294.78	136.56	100.68	51.448	3.4573e-06	72.957	0.00036848	0.00034109	0.00010499	701.32	4.2946e-06	4.1034e-06	751.34	252.43	4.8559e-06	4.5792e-06	316.58	134.49	100.93	45.529	5.4594e-06	63.973	107.527	301.485	116.629	91.456	350.185	200.030	90.647	96.497	418.560	384.304	94.807	98.687	100.693	104.697	205.712	101.664	-8191	255	
3160.142	1	1	0	0	0.15568	0.044882	0.17061	0.19577	0.1359	0.15897	0.11808	0.066602	0.19909	0.21665	0.20752	0.080443	0.23055	0.2237	0.13941	0.25005	-3.6125	-3.5667	-3.9854	-3.9104	-3.7521	-4.0083	-3.8438	-3.9188	-4.0833	-3.7521	-3.9771	-4.0312	-3.6937	-4.1438	-3.8417	-3.8646	166.288	141.005	285.323	102.899	257.739	232.154	352.580	415.294	389.265	81.788	428.430	126.789	415.093	400.776	432.238	431.458	0.0012053	0.00074151	0.00020328	612.84	1.1145e-06	3.6907e-06	689.49	232.1	4.2289e-06	5.0941e-06	296.26	136.79	100.97	52.219	4.9493e-06	73.397	0.00045152	0.000416	0.00013476	723.33	4.6643e-06	4.4507e-06	773.13	249.28	4.6133e-06	4.4612e-06	316.53	130.04	97.806	45.635	5.6057e-06	63.562	81.286	103.722	117.910	91.772	257.961	189.917	90.563	96.809	188.925	148.264	94.881	98.917	101.108	104.668	174.800	101.535	-8191	255	
3160.238	1	1	0	0	0.031576	0.18496	0.24689	0.12636	0.23991	0.14009	0.16578	0.18906	0.049211	0.19775	0.19338	0.15415	0.033071	0.074917	0.11514	0.1245	-3.7625	-3.4396	-4.0896	-3.9979	-3.5958	-3.9875	-3.7646	-3.5458	-4.0208	-3.6917	-3.8604	-4.05	-3.6229	-4.2083	-3.8375	-3.8292	432.788	235.878	357.153	363.236	278.103	144.708	83.786	304.641	93.497	427.587	388.245	425.259	355.303	221.560	106.662	235.749	0.00076594	0.00088382	0.00013719	610.41	2.8297e-06	1.2943e-05	691.26	235.07	1.0854e-06	1.275e-05	295.4	137.81	100.62	52.391	3.003e-06	73.116	0.00045161	0.0004602	0.00014995	725.89	4.7853e-06	4.8957e-06	782.84	245.76	4.372e-06	4.6242e-06	312.75	127.63	95.35	46.067	5.3589e-06	62.197	427.591	146.824	187.287	91.694	314.462	193.126	90.304	96.699	197.977	183.861	94.718	98.957	100.716	104.775	345.836	101.948	-8191	255	
3160.334	1	1	0	0	0.10991	0.21912	0.13562	0.11903	0.24317	0.11185	0.15746	0.18549	0.1226	0.16762	0.04597	0.080207	0.047487	0.19514	0.23855	0.045028	-3.6708	-3.6771	-3.675	-4.0188	-3.6271	-3.9646	-4.0521	-3.7125	-4.1167	-3.7875	-3.9938	-4.1917	-3.6208	-4.0208	-3.6875	-3.6833	410.561	251.455	313.573	92.634	95.142	126.455	380.873	374.306	376.168	243.575	81.731	81.989	389.023	423.315	320.657	436.289	0.0012476	0.00057588	0.00015377	608.58	4.8421e-06	1.2513e-05	686.08	228.77	3.745e-06	8.3218e-06	288.01	134.57	99.647	50.956	4.1232e-06	72.038	0.00043253	0.00050194	0.00015317	740.61	5.386e-06	6.4555e-06	840.65	263.8	5.8225e-06	6.6641e-06	336.2	132.78	101.04	48.407	5.85e-06	62.525	432.308	421.647	294.994	91.729	137.928	176.012	90.513	96.549	252.374	194.540	94.749	98.968	100.812	105.028	434.970	101.573	-8191	255	
3160.455	1	1	0	0	0.21429	0.17868	0.13065	0.19485	0.31947	0.071276	0.090549	0.3255	0.09725	0.16614	0.11949	0.11885	0.068664	0.15718	0.081875	0.079509	-3.5979	-3.6813	-3.6437	-4.1167	-3.5625	-3.8	-4.1792	-3.5146	-4.2667	-3.8438	-3.7938	-4.0833	-3.6292	-3.9813	-4.0208	-3.7625	296.460	188.774	368.821	291.437	188.978	270.417	327.356	390.022	354.234	184.848	369.922	350.863	396.387	139.127	159.093	427.146	0.0014778	0.00063554	0.00017422	605.55	1.0908e-05	3.9735e-06	679.74	229.54	9.6071e-06	3.7813e-06	287.51	134.26	99.112	50.682	7.3257e-06	71.56	0.00046129	0.00054227	0.00014262	717.1	5.1532e-06	6.2148e-06	795.34	253.15	5.7291e-06	6.8501e-06	334.71	135.42	108.62	51.255	6.6644e-06	65.194	81.381	113.823	257.491	91.722	174.980	193.155	90.338	96.673	176.799	178.265	94.626	98.714	100.961	104.944	364.404	101.577	-8191	255	
3160.551	1	1	0	0	0.1594	0.084243	0.12316	0.12554	0.15079	0.021967	0.27547	0.07864	0.17065	0.18261	0.175	0.11664	0.061558	0.11338	0.095655	0.17392	-3.7042	-4.025	-3.7458	-4.1896	-3.6937	-4.0604	-4.1917	-3.6229	-4.2479	-3.9979	-3.7708	-4.2479	-3.6771	-4.0542	-4.0646	-3.8667	120.616	408.829	152.201	380.584	418.331	144.123	335.935	278.397	285.867	103.801	414.597	170.239	182.495	125.528	156.509	302.466	0.0019965	0.00048553	0.00013849	605.5	1.0236e-05	6.9143e-06	684.64	228.6	1.0256e-05	4.3055e-06	288.19	133.71	99.47	50.452	1.9921e-06	70.921	0.00060403	0.0006769	0.00016692	754.97	6.4905e-06	7.0188e-06	811.57	254.87	6.3728e-06	6.7743e-06	328.78	133.35	112.17	50.829	6.7573e-06	65.579	438.458	254.738	327.210	91.087	167.045	310.720	90.322	96.793	199.336	396.390	94.669	98.644	100.509	104.856	145.416	101.823	-8191	255	
3160.623	1	1	0	0	0.28822	0.022313	0.090426	0.35979	0.01751	0.13092	0.067933	0.025735	0.1691	0.064806	0.19169	0.054177	0.21535	0.25152	0.11718	0.36237	-3.7188	-3.9354	-3.6125	-4.2	-3.6792	-3.7083	-4.0604	-3.5708	-3.9042	-3.8688	-3.7271	-4.1521	-3.8937	-3.7062	-4.0021	-3.7562	386.608	163.031	138.220	113.767	374.879	324.655	243.406	428.366	174.916	106.666	367.707	413.885	423.519	97.567	277.930	407.157	0.0017114	0.00088554	0.0001138	612.82	1.0881e-05	1.0799e-05	681.26	228.43	6.9906e-06	5.7191e-06	288.87	134.09	99.06	50.413	3.3712e-06	72.123	0.00070615	0.00072499	0.00018393	796.87	7.9525e-06	7.6008e-06	834.51	263.32	7.2768e-06	6.7754e-06	325.75	133.53	112.76	48.862	5.9081e-06	64.482	437.642	336.409	259.977	91.375	186.179	337.111	90.230	96.925	193.979	352.470	94.688	99.150	101.142	104.932	334.088	101.825	-8191	255	
3160.719	1	1	0	0	0.12626	0.19764	0.086968	0.11124	0.17055	0.13521	0.19676	0.060102	0.30522	0.056194	0.15832	0.17035	0.14824	0.09974	0.25489	0.13133	-3.5771	-4.0375	-3.6188	-4.1458	-3.7792	-3.6458	-4.2625	-3.7521	-3.9167	-4.0813	-3.6021	-4.0542	-3.8875	-3.7292	-4.1917	-3.8063	281.966	394.826	369.466	302.536	253.103	381.277	383.190	97.566	345.321	193.426	377.725	84.021	296.684	367.518	409.974	141.089	0.0017443	0.00069863	8.1507e-05	608.61	4.2326e-06	5.183e-06	676.03	226.38	1.6411e-06	3.3087e-06	283.28	132.94	97.186	49.811	3.4768e-06	71.353	0.00064243	0.00059383	0.00015357	770.18	7.4128e-06	6.7822e-06	813.08	269.26	7.8155e-06	7.0839e-06	332.63	140.51	116.03	48.592	5.9031e-06	65.588	108.479	293.860	285.839	91.917	177.979	389.361	90.206	97.263	146.209	414.652	94.672	98.987	100.683	104.679	231.294	101.804	-8191	255	
3160.839	1	1	0	0	0.14245	0.038332	0.086948	0.059846	0.067696	0.13544	0.24285	0.082501	0.017271	0.094333	0.072201	0.22075	0.055631	0.27368	0.094778	0.14359	-3.4896	-4.05	-3.6667	-4.1813	-4.05	-3.8854	-4.2896	-3.725	-3.8812	-4.0375	-3.6458	-4.1	-4.0188	-3.7854	-3.8625	-3.8167	332.944	163.789	307.040	213.476	432.849	244.418	366.272	87.877	265.631	250.217	362.819	299.550	147.433	435.547	277.791	270.089	0.00088078	0.00054395	4.5048e-05	605.58	5.4594e-06	1.6769e-06	673.58	227.7	6.0129e-06	3.5225e-06	284.23	132.01	96.356	49.641	4.4417e-06	70.787	0.00062574	0.00056047	0.00014415	778.34	6.8549e-06	6.2074e-06	787.5	269.93	6.9662e-06	6.3456e-06	320.74	140.49	111.5	47.638	5.9219e-06	66.934	121.859	288.873	237.033	91.627	380.695	362.939	90.271	97.080	357.353	348.757	94.966	98.950	100.981	104.766	191.022	101.811	-8191	255	
3160.934	1	1	0	0	0.27996	0.1461	0.19955	0.33826	0.16161	0.11171	0.13097	0.18367	0.15894	0.17775	0.047622	0.12998	0.059681	0.1367	0.20216	0.065759	-3.2521	-3.9604	-3.5292	-4.0229	-4.0604	-3.5542	-4.2125	-3.7562	-3.6813	-3.9646	-3.6312	-3.9625	-3.9938	-3.7812	-3.9708	-3.9729	228.687	151.343	285.326	410.968	142.315	336.213	410.868	113.288	294.140	305.775	100.686	311.258	180.405	115.419	97.999	303.625	0.00025934	0.00026435	0.00018982	604.81	3.6026e-06	5.7445e-06	675.74	228.6	9.5742e-06	5.3981e-06	287.51	134.08	98.052	50.624	9.8635e-06	71.537	0.00060274	0.00054713	0.00014701	794.31	6.4218e-06	5.8427e-06	787.96	270.91	6.161e-06	5.5945e-06	316.09	137.76	104.49	46.04	5.508e-06	65.4	92.632	277.099	127.183	91.904	405.761	369.205	90.474	96.973	389.559	406.116	94.875	98.765	100.616	104.538	189.532	101.637	-8191	255	
3161.030	1	1	0	0	0.16363	0.13579	0.078481	0.19044	0.17176	0.14448	0.20839	0.066304	0.13845	0.026159	0.1906	0.32547	0.036493	0.2631	0.059293	0.10429	-3.3312	-3.9521	-3.5208	-3.8875	-3.9313	-3.6729	-4.0042	-4	-3.4875	-4.0542	-3.8625	-3.9271	-4.0729	-3.6708	-3.9396	-4.0521	132.366	240.568	138.433	398.691	157.885	412.479	347.227	239.219	127.351	326.048	202.523	400.438	379.034	98.733	401.899	262.774	0.00085354	0.00013204	0.00025687	603.4	3.0677e-06	1.6611e-06	679.26	229.75	3.3518e-06	3.8333e-06	293.03	135.72	99.909	51.806	1.0326e-05	73.186	0.00050677	0.00046655	0.00013803	749.82	5.1568e-06	4.6685e-06	759.7	251.98	4.7747e-06	4.3566e-06	302.63	127.85	95.098	43.886	4.6549e-06	61.909	108.286	306.361	96.495	91.689	255.042	313.506	90.666	96.899	367.807	294.180	95.014	98.992	100.819	104.699	216.686	101.634	-8191	255	
3161.128	1	1	0	0	0.051708	0.086918	0.34774	0.17008	0.080992	0.12057	0.081365	0.21471	0.18365	0.063072	0.057453	0.27174	0.02461	0.085783	0.35229	0.13281	-3.2542	-3.9646	-3.6521	-3.8542	-3.9313	-3.5396	-4.0792	-3.9375	-3.5771	-3.9062	-3.8354	-3.7604	-4.2708	-3.6208	-3.8083	-4.0458	206.351	259.237	211.473	184.149	257.562	103.966	89.247	150.090	390.256	216.977	395.172	298.697	93.095	335.419	165.891	407.171	0.0011374	0.00055706	0.00019409	600.98	7.0936e-06	8.7452e-06	681.75	225.22	2.0469e-06	6.3072e-06	283.89	129.62	96.11	49.525	1.4773e-06	70.073	0.00039802	0.00038268	0.00012962	718.48	5.0142e-06	4.9652e-06	805.31	260.07	5.8447e-06	5.8615e-06	346.08	138.57	106.62	47.331	7.0198e-06	64.982	85.751	150.505	112.054	91.545	311.426	193.493	90.497	96.411	304.197	189.742	94.651	98.985	100.344	104.930	132.998	101.479	-8191	255	
3161.222	1	1	0	0	0.13776	0.049838	0.23738	0.066223	0.056101	0.13104	0.21824	0.34915	0.15768	0.22155	0.15801	0.14227	0.076156	0.13613	0.11513	0.12184	-3.1792	-4.1542	-3.7375	-3.8937	-4.2458	-3.7438	-3.9938	-4.1583	-3.5812	-4.1188	-3.8146	-3.7792	-4.3104	-3.7958	-3.9958	-4.1521	286.833	221.024	185.311	249.977	362.309	193.878	308.622	401.987	217.081	132.788	393.619	276.222	212.184	339.667	120.402	337.374	0.00023897	0.0010104	0.00014243	605.82	4.0988e-06	1.2771e-05	674.56	223.55	5.3769e-06	1.8446e-05	277.32	127.33	93.502	48.509	6.8091e-06	67.533	0.0005257	0.00053569	0.00017468	771.36	5.8944e-06	6.1796e-06	847.79	262.22	6.0046e-06	6.55e-06	348.4	135.44	105.71	48.86	7.8757e-06	66.103	429.958	137.180	128.658	91.595	290.506	193.393	90.376	96.614	332.058	180.352	94.542	98.785	100.778	104.971	422.312	101.654	-8191	255	
3161.318	1	1	0	0	0.28144	0.084986	0.050112	0.30601	0.24025	0.11559	0.11924	0.15601	0.23572	0.22992	0.1826	0.13699	0.16122	0.047623	0.16448	0.12092	-3.2292	-4.0104	-3.8396	-3.7875	-4.1	-3.8458	-3.9813	-4.0208	-3.4604	-4.0479	-3.9813	-3.7812	-4.1875	-3.9792	-3.9229	-4.2583	321.559	240.971	120.332	390.222	222.032	229.817	211.770	159.762	425.925	296.912	256.924	345.738	399.583	257.054	368.909	270.926	0.00072505	0.00084912	0.00011747	604.33	5.7378e-06	1.5605e-05	673.44	220.81	6.8539e-06	9.1084e-06	275.67	127.64	95	48.846	1.2902e-05	68.538	0.00061563	0.0007094	0.00020853	816.49	6.644e-06	7.5259e-06	865.66	264.62	6.1797e-06	7.1768e-06	341.35	132.63	103.65	49.196	6.8702e-06	63.734	401.341	119.929	267.051	91.561	185.850	176.518	89.860	96.706	161.300	140.291	94.658	98.600	100.742	104.385	321.435	101.708	-8191	255	
3161.439	1	1	0	0	0.10222	0.11472	0.08248	0.21557	0.26417	0.15724	0.074305	0.052113	0.065952	0.17768	0.017034	0.17832	0.20626	0.26387	0.1303	0.19928	-3.3292	-3.6958	-3.9708	-3.5875	-4.1333	-3.8312	-3.8854	-4.0625	-3.5375	-4.025	-4.0396	-3.6146	-4.2292	-3.9958	-3.65	-4.2208	429.846	251.810	376.797	412.659	94.569	160.688	379.630	346.764	250.001	295.078	266.546	130.171	389.761	136.980	198.284	399.562	0.0012958	0.0012813	0.00023584	604.76	8.8057e-06	2.7803e-06	675.74	219.53	9.4912e-06	1.242e-05	278.18	126.74	95.905	48.553	5.2419e-06	68.23	0.00055107	0.00065927	0.00017416	768.61	6.2542e-06	7.4416e-06	836.51	260.63	6.5166e-06	7.673e-06	339.9	132.98	108.42	50.45	6.9402e-06	64.261	83.372	156.281	331.780	91.374	150.239	176.991	89.759	96.731	171.537	140.898	94.617	98.904	100.708	104.714	341.994	101.403	-8191	255	
3161.535	1	1	0	0	0.07487	0.20423	0.42674	0.34804	0.16567	0.074433	0.13524	0.11073	0.19546	0.066668	0.10987	0.19752	0.21976	0.25599	0.080065	0.14497	-3.1458	-3.8812	-4.0292	-3.6146	-3.9229	-3.7458	-3.8229	-4.2063	-3.6354	-4.075	-4.25	-3.6542	-4.1396	-3.9208	-3.8042	-4.2375	87.145	250.962	197.691	410.451	369.548	271.252	328.396	130.137	296.966	150.803	147.067	376.104	165.656	392.466	366.937	355.460	0.0026414	0.00027933	0.00014747	600.39	1.9933e-05	5.3395e-06	673.1	216.72	1.7619e-05	9.3691e-06	273.33	124.43	93.307	46.991	5.4453e-06	67.293	0.00063967	0.0007263	0.00018447	789.45	7.5508e-06	8.3516e-06	863.7	267.78	8.0436e-06	8.7003e-06	356.72	139.03	122.07	53.092	8.1078e-06	66.493	433.995	204.805	290.022	91.395	153.362	392.986	90.079	96.616	200.353	363.656	94.484	98.640	100.712	104.642	427.888	101.649	-8191	255	
3161.631	1	1	0	0	0.14653	0.085834	0.021316	0.1213	0.18866	0.045973	0.15917	0.13657	0.26958	0.17782	0.063864	0.13888	0.13365	0.064268	0.25109	0.16567	-3.3812	-3.8208	-3.9521	-3.6562	-4.1042	-4.0729	-3.6562	-4.2792	-3.8104	-3.8083	-4.2292	-3.675	-3.9188	-4.0312	-3.7104	-4.2417	351.711	326.681	171.651	292.424	416.721	227.112	118.866	357.506	228.506	172.644	114.950	186.599	360.125	406.994	434.979	379.275	0.0026857	0.0006728	0.00018088	607.46	9.9374e-06	1.9357e-05	673.7	216.3	6.6748e-06	7.2475e-06	270.45	124.09	92.677	46.965	8.1479e-06	66.718	0.00078075	0.00076711	0.00019085	801.78	8.2112e-06	7.9354e-06	843.39	261.81	7.8916e-06	7.3591e-06	328.15	131.12	113.78	48.163	6.4984e-06	63.43	79.531	314.201	331.792	91.072	180.888	360.907	89.910	96.670	175.974	333.007	94.648	98.325	100.524	104.688	344.161	101.651	-8191	255	
3161.727	1	1	0	0	0.20139	0.094541	0.23153	0.20744	0.15555	0.14612	0.14007	0.26204	0.13617	0.048524	0.16732	0.15952	0.19652	0.30567	0.13706	0.29037	-3.4479	-3.8125	-4.2104	-3.75	-3.9625	-4.0917	-3.7458	-4.1083	-3.7438	-3.85	-4.2063	-3.9	-4.0146	-4.0479	-3.7271	-4.1958	246.810	414.877	382.815	435.629	319.859	84.225	361.437	378.915	279.838	347.939	104.140	436.512	113.854	383.335	105.035	320.530	0.0012678	0.00049317	0.00023292	610.03	3.6615e-06	1.0912e-05	669.02	216.11	5.285e-07	4.4351e-06	271.37	124.88	92.378	47.389	9.7339e-07	68.204	0.00072137	0.00066785	0.00017423	803.89	8.1172e-06	7.1705e-06	812.06	260.12	7.4026e-06	6.4371e-06	309.7	128.72	106.47	45.495	5.3628e-06	62.364	83.760	363.960	298.276	91.046	264.217	370.264	90.013	96.794	104.431	390.375	94.396	98.911	100.662	105.145	278.112	101.680	-8191	255	
3161.848	1	1	0	0	0.21646	0.27435	0.072282	0.083917	0.23903	0.20837	0.18378	0.17983	0.058625	0.12886	0.18572	0.084559	0.11215	0.25444	0.14132	0.096562	-3.6271	-3.6271	-4.1125	-3.775	-3.825	-4.0583	-3.6979	-3.9833	-4.0479	-3.6979	-4.275	-3.8083	-3.8312	-4.1438	-3.6125	-4.0917	371.588	335.147	285.645	351.613	327.428	190.520	321.165	366.453	374.134	105.472	383.906	108.442	258.131	418.957	420.460	328.241	0.0013732	0.00040903	9.8895e-05	609.17	9.3303e-06	2.4533e-07	674.3	217.49	9.6379e-06	5.7029e-06	272.32	124.76	91.28	46.947	9.1967e-06	67.069	0.0006018	0.00055018	0.00014648	795.94	7.3712e-06	6.832e-06	815.71	273.5	7.7247e-06	6.9142e-06	324.8	140.23	113.38	47.797	6.6703e-06	68.346	83.616	289.917	273.034	91.543	333.105	249.235	90.109	96.519	435.527	311.050	94.592	98.627	100.657	104.357	188.459	101.832	-8191	255	
3161.920	1	1	0	0	0.15892	0.15714	0.12658	0.31124	0.1969	0.094613	0.13846	0.25187	0.15288	0.072509	0.09187	0.13928	0.06618	0.16492	0.044305	0.17462	-3.7917	-3.5687	-4.1875	-3.8708	-3.8729	-4.1667	-3.8854	-4.0979	-4.1583	-3.5771	-4.1875	-3.8708	-3.8646	-4.225	-3.7083	-4.0854	249.246	262.748	265.694	398.374	345.384	277.066	202.446	370.108	152.239	180.728	400.388	332.189	430.823	384.284	308.788	379.148	0.00075493	0.00047862	0.00015873	615.54	7.776e-06	4.0008e-06	689.46	215.98	1.1789e-05	1.004e-05	271.7	122.29	90.983	46.557	1.72e-05	66.053	0.00072204	0.0006694	0.00018431	890.85	8.154e-06	7.504e-06	870.74	295.46	8.5312e-06	7.9984e-06	364.57	156.37	125.31	52.055	9.4663e-06	77.397	421.974	318.249	110.368	91.609	355.466	403.426	90.238	96.559	347.048	348.575	94.965	98.890	100.601	104.502	195.908	101.591	-8191	255	
3162.014	1	1	0	0	0.13228	0.13699	0.17288	0.069315	0.11866	0.12605	0.062386	0.17484	0.26194	0.10646	0.082004	0.33036	0.21888	0.18236	0.039913	0.020475	-3.7479	-3.525	-4.1542	-3.8125	-3.8396	-4.1042	-3.7313	-4.1	-4.0563	-3.5687	-4.0604	-3.8854	-3.6854	-4.25	-3.8417	-3.8771	288.259	432.195	324.232	220.570	425.793	310.848	382.020	335.602	173.505	324.853	383.523	333.461	219.109	378.734	173.645	264.658	0.00066232	0.00043992	0.00052197	622.87	5.2963e-06	1.9142e-06	705.68	213.48	7.6176e-06	9.4801e-06	278.01	121.49	91.859	46.986	1.647e-05	66.59	0.00093753	0.00087883	0.00026757	1040.2	1.0239e-05	9.3841e-06	1005.4	328.73	1.0324e-05	9.6851e-06	426.14	171.93	139.23	56.7	1.2694e-05	84.664	111.600	301.521	108.423	91.364	410.320	227.501	90.237	96.083	333.602	282.857	94.615	98.250	100.592	104.704	186.628	101.390	-8191	255	
3162.110	1	1	0	0	0.1673	0.055977	0.073697	0.11581	0.068131	0.063666	0.29928	0.11736	0.09071	0.22777	0.084646	0.025533	0.10275	0.11107	0.014942	0.1988	-3.8187	-3.6625	-4.1	-3.9333	-3.6708	-4.2979	-4.0021	-3.7875	-4.3083	-3.6604	-4.1917	-4.125	-3.6146	-4.4104	-3.9271	-3.9979	317.238	411.638	106.926	127.434	146.176	397.905	375.121	344.518	433.555	136.485	237.608	257.598	344.533	407.886	212.688	323.858	0.00076466	0.00085173	0.00041024	639.06	9.7662e-06	1.2035e-05	726.82	219.97	1.2941e-05	1.1514e-05	286.55	123.71	94.667	48.729	1.2147e-05	67.455	0.0011276	0.0010784	0.00036148	1191.7	1.3373e-05	1.3016e-05	1261.4	393.04	1.4138e-05	1.3666e-05	541.79	199.51	164.54	66.052	1.6908e-05	93.412	140.172	195.231	113.192	91.491	344.250	200.486	90.171	96.428	376.246	209.088	94.662	98.579	100.017	104.476	166.325	100.973	-8191	255	
3162.231	1	1	0	0	0.27917	0.194	0.1082	0.21676	0.081465	0.16151	0.14324	0.13635	0.25959	0.048553	0.19615	0.29758	0.078242	0.22966	0.21839	0.084435	-3.7208	-3.7667	-3.9813	-4.1333	-3.7021	-4.1604	-4.2542	-3.775	-4.2604	-3.9104	-4.0729	-4.1854	-3.9167	-4.0396	-3.9229	-3.8979	196.067	185.047	250.960	342.133	319.006	103.349	386.368	121.113	275.910	247.436	404.930	402.920	214.434	373.339	154.188	382.375	0.00026494	0.0021618	0.00029438	656.22	8.9993e-06	2.9336e-05	740.71	224.1	1.1923e-05	3.823e-05	287.48	126.41	96.267	49.756	1.8886e-05	67.454	0.001344	0.0013789	0.00045954	1327.1	1.6077e-05	1.7212e-05	1481.4	447.71	1.7618e-05	1.8853e-05	643.78	222.25	184.04	76.312	1.9929e-05	100.19	119.176	127.895	402.825	91.091	296.164	180.839	89.633	95.939	338.724	184.910	93.768	98.303	99.973	104.091	342.143	101.465	-8191	255	
3162.327	1	1	0	0	0.27495	0.25804	0.12599	0.13239	0.12953	0.11353	0.22272	0.20441	0.11387	0.29066	0.038327	0.16833	0.14753	0.13748	0.18657	0.19511	-3.9625	-3.7375	-3.9542	-4.2646	-3.7375	-4.1896	-4.0229	-3.8604	-4.2021	-3.9521	-4.0958	-4.45	-3.7542	-4.2375	-4.0604	-4.1333	82.241	191.329	348.784	352.494	223.721	122.428	429.555	77.799	353.146	125.901	132.679	300.719	434.212	376.384	314.594	345.924	0.0002472	0.0032996	0.00027277	666.9	8.187e-06	2.7359e-05	734.99	225.12	6.0137e-06	3.051e-05	282.52	123.24	96.77	48.973	2.8145e-05	66.177	0.0015099	0.0016972	0.00049659	1361.4	1.6348e-05	1.9037e-05	1457.9	436.81	1.7159e-05	2.0383e-05	637.42	225.31	193.16	84.113	2.1415e-05	104.32	149.707	148.728	277.365	90.590	139.675	182.217	89.489	95.600	179.727	217.770	94.147	98.084	99.828	104.257	353.273	100.665	-8191	255	
3162.423	1	1	0	0	0.16208	0.069208	0.29954	0.30781	0.34977	0.077028	0.32347	0.17936	0.056017	0.066916	0.24792	0.18602	0.12016	0.14826	0.11862	0.16684	-3.8604	-3.8979	-3.9625	-4.1896	-3.7979	-4.2812	-4.2333	-3.7313	-4.3229	-3.8625	-4.0729	-4.3896	-3.8271	-4.1021	-4.1896	-3.6354	411.356	202.090	314.091	368.769	107.343	180.137	387.495	340.369	382.035	196.932	423.348	424.341	336.191	292.175	410.977	410.310	0.0022018	0.0018358	0.0006405	672.94	2.3894e-05	1.4887e-05	737.34	224.06	1.8296e-05	1.3507e-05	282.14	122.82	97.889	47.663	6.0222e-06	66.543	0.0017045	0.0020007	0.00051816	1404.6	1.7696e-05	2.056e-05	1407.5	415.54	1.6468e-05	1.8803e-05	551.98	196.59	173.62	74.391	1.6116e-05	89.808	425.497	143.837	294.432	90.702	182.615	191.965	89.359	95.826	213.189	170.598	93.892	98.146	100.261	104.120	368.899	100.780	-8191	255	
3162.519	1	1	0	0	0.055137	0.055532	0.1037	0.28034	0.066671	0.091744	0.053956	0.12055	0.24939	0.18795	0.20622	0.015357	0.12653	0.10207	0.10374	0.18667	-3.8271	-3.9833	-3.7458	-4.3812	-3.7167	-3.9333	-4.3083	-3.7313	-4.1562	-3.875	-3.8542	-4.1958	-3.9292	-4.1062	-4.275	-3.7188	236.774	242.723	271.636	408.910	376.419	194.600	108.505	89.207	81.398	299.972	269.207	244.249	409.208	239.652	283.164	295.989	0.0040035	0.00078494	0.00025621	662.84	3.6064e-05	3.796e-06	735.42	223.71	4.0286e-05	1.285e-05	284.03	125.59	98.457	47.533	9.0698e-06	67.964	0.001453	0.0016445	0.00041223	1245.6	1.6711e-05	1.8553e-05	1320	397.99	1.7371e-05	1.8249e-05	536.89	192.57	180.6	71.789	1.4852e-05	86.168	429.510	281.299	310.239	90.973	160.149	379.805	89.575	95.680	188.147	346.167	94.537	98.132	100.435	104.321	333.247	101.354	-8191	255	
3162.615	1	1	0	0	0.2305	0.071789	0.093083	0.13917	0.22658	0.15254	0.2838	0.059044	0.073167	0.088087	0.15987	0.28383	0.070376	0.25643	0.26292	0.29022	-3.7562	-4.0875	-3.6771	-4.425	-3.8542	-3.8875	-4.3646	-3.8208	-3.9771	-4.1083	-3.7708	-4.3458	-4.125	-3.8396	-4.1833	-3.8354	433.671	143.515	252.731	238.247	422.566	85.967	380.745	382.968	330.820	170.225	354.221	403.673	343.338	392.019	214.807	436.709	0.0030274	0.0012749	0.00012766	664.49	1.464e-05	4.5583e-06	721.21	224.02	2.1971e-05	1.3788e-05	277.69	124.22	95.34	47.367	6.3002e-06	67.725	0.0014249	0.0014079	0.00034724	1124.4	1.4773e-05	1.4223e-05	1132.8	346.26	1.4221e-05	1.3388e-05	448.29	169.97	159.34	61.546	1.137e-05	77.945	429.167	332.915	256.643	90.919	173.633	347.839	89.730	96.169	197.170	341.984	94.129	98.683	100.424	104.286	403.054	101.514	-8191	255	
3162.712	1	1	0	0	0.084118	0.056458	0.022353	0.097244	0.1098	0.069489	0.037289	0.32367	0.026177	0.045321	0.15713	0.21107	0.048731	0.16012	0.029566	0.24735	-3.7229	-3.9292	-3.5167	-4.2562	-3.8833	-3.7917	-4.3313	-3.8604	-3.8729	-4.1875	-3.6458	-4.2167	-3.9521	-3.9833	-4.2021	-3.7521	256.399	402.489	286.097	345.252	115.155	377.110	105.929	91.956	413.457	288.768	409.653	345.900	221.356	411.285	361.474	361.807	0.0013991	0.00095808	0.00018854	652.33	3.6623e-06	4.0978e-06	703.81	223.84	5.1893e-06	1.4993e-07	279.05	127.02	95.809	48.915	2.517e-06	69.702	0.0011634	0.001032	0.00025415	975.45	1.106e-05	9.5939e-06	931.87	294.98	9.5148e-06	8.2363e-06	346.15	141.31	118.2	48.427	5.9362e-06	64.299	81.212	335.835	296.474	91.695	113.444	376.825	89.686	96.717	417.396	238.900	94.525	98.601	100.325	104.584	326.604	102.017	-8191	255	
3162.808	1	1	0	0	0.18766	0.045121	0.14471	0.037293	0.097694	0.18038	0.28071	0.11593	0.35193	0.045802	0.13405	0.1582	0.1421	0.18812	0.14592	0.11025	-3.5625	-3.9667	-3.4875	-4.1875	-3.8646	-3.6771	-4.2083	-3.95	-3.6937	-3.975	-3.575	-3.975	-4.1292	-3.7062	-4.0146	-3.9271	108.024	377.141	169.790	280.732	92.720	392.047	385.643	364.175	217.283	250.511	181.510	420.704	110.396	103.363	302.166	427.071	0.00096542	0.00024447	6.8546e-05	635.42	4.1981e-06	1.2114e-06	693.48	227.56	3.5988e-06	2.3302e-06	289.23	134.64	99.351	51.576	4.0949e-06	74.012	0.0005775	0.00048728	0.00011819	730.16	4.986e-06	4.2605e-06	713.76	233.49	4.1595e-06	3.6282e-06	267.79	117.92	88.433	41.436	2.7732e-06	57.098	136.719	255.375	109.609	91.657	404.230	251.541	90.303	96.458	103.860	400.081	94.867	98.964	100.663	104.796	203.802	101.527	-8191	255	
3162.928	1	1	0	0	0.29155	0.11038	0.24267	0.13089	0.19157	0.020925	0.14297	0.18238	0.10287	0.20005	0.26076	0.1974	0.13891	0.1569	0.029108	0.19906	-3.5083	-4.1167	-3.6521	-3.9083	-3.9917	-3.5354	-4.1479	-3.7958	-3.5375	-4.0771	-3.6042	-3.9667	-4.1521	-3.6292	-4.0312	-3.9521	91.317	277.437	143.318	376.811	220.117	85.652	145.003	111.444	348.694	140.578	82.131	382.244	332.284	226.146	377.772	365.796	0.00076958	0.0001296	0.00014297	616.08	2.5285e-06	1.757e-06	693.52	234.32	1.3727e-06	2.8994e-06	301.5	141.47	103.72	54.19	5.7625e-06	77.809	0.00026266	0.00023133	6.1046e-05	608.83	2.4793e-06	2.1942e-06	637.63	210.61	2.1501e-06	1.9068e-06	246.51	111.29	79.76	40.021	1.7377e-06	55.509	88.285	285.341	140.138	91.627	213.609	404.346	90.521	96.608	143.278	180.866	94.824	98.664	100.781	104.959	179.784	101.628	-8191	255	
3163.023	1	1	0	0	0.077832	0.14814	0.16707	0.15402	0.13066	0.1336	0.13963	0.18022	0.25226	0.18955	0.036285	0.4157	0.17792	0.18933	0.10853	0.19892	-3.3146	-4.1438	-3.6854	-4.0229	-4.0646	-3.6354	-4.2229	-4.0542	-3.5917	-4.0625	-3.8146	-3.8063	-4.0333	-3.6104	-4.0854	-4.0833	349.050	371.653	107.013	380.823	391.706	298.315	286.397	152.463	280.773	338.245	406.857	425.101	395.913	324.382	261.490	366.155	0.0011887	9.4896e-05	0.00010617	614.81	5.0178e-07	1.9175e-06	704.26	239.3	2.6296e-06	7.5449e-07	308.06	146.14	106.8	55.556	4.112e-06	78.752	0.00015195	0.0001338	3.9752e-05	557.52	1.4774e-06	1.3123e-06	617.55	201.71	1.3552e-06	1.2463e-06	241.52	109.46	77.36	39.669	1.4047e-06	54.705	91.472	377.500	118.118	91.540	259.107	241.583	90.390	96.729	129.000	152.472	94.679	98.608	100.670	104.844	197.158	101.481	-8191	255	
3163.121	1	1	0	0	0.15799	0.30952	0.33382	0.12774	0.22279	0.2085	0.19646	0.16862	0.11173	0.18546	0.23864	0.082401	0.10391	0.16032	0.022924	0.18457	-3.2146	-4.2063	-3.7438	-3.6083	-4.0938	-3.5833	-3.9188	-4.1438	-3.6354	-4.1104	-3.85	-3.7062	-4.1875	-3.6875	-3.9771	-3.925	256.626	384.155	296.345	90.327	287.706	157.121	244.710	387.353	90.294	141.477	400.004	371.594	348.521	415.319	361.184	333.366	0.0012082	0.00041791	3.7205e-05	619.41	1.017e-06	8.9821e-07	710.78	240.45	3.0752e-06	3.9535e-06	309.35	145.91	107.21	55.63	4.0332e-06	78.816	0.00011914	0.00011049	3.6927e-05	547.95	1.3252e-06	1.2737e-06	625.36	202.88	1.3889e-06	1.3772e-06	247.57	110.41	78.496	40.276	1.6822e-06	55.181	81.619	175.922	87.245	91.704	122.790	89.564	90.543	96.745	167.230	196.028	94.842	98.580	100.882	105.049	254.168	101.707	-8191	255	
3163.215	1	1	0	0	0.15653	0.044422	0.35859	0.1324	0.075438	0.12264	0.093553	0.12332	0.13017	0.18516	0.13495	0.10859	0.10636	0.070064	0.15097	0.041238	-3.1104	-4.05	-3.4938	-3.7979	-4.1188	-3.4792	-3.8917	-3.9667	-3.5896	-4.0104	-3.7979	-3.85	-4.2333	-3.7771	-3.9229	-4.125	326.437	260.670	149.597	422.993	338.800	111.636	309.597	423.580	313.159	324.771	179.402	380.372	328.807	394.844	342.709	325.990	0.0012328	0.00027268	5.9196e-05	616.98	4.189e-07	2.4615e-06	708.47	241.58	2.6101e-06	4.8557e-06	307.33	145.98	106.5	55.476	1.8244e-07	78.497	0.00013028	0.00013232	4.254e-05	549	1.3871e-06	1.442e-06	628.95	202.29	1.384e-06	1.5447e-06	248.59	110.32	78.471	40.75	1.882e-06	55.484	99.306	139.562	98.407	91.785	147.548	174.368	90.632	96.595	304.711	194.877	95.072	98.795	100.675	104.501	341.887	101.631	-8191	255	
3163.311	1	1	0	0	0.21834	0.17523	0.01882	0.10074	0.044679	0.19467	0.1628	0.3047	0.37215	0.23672	0.22012	0.23074	0.21766	0.034977	0.20807	0.19784	-3.2021	-4.0479	-3.9313	-3.8729	-4.0375	-3.7562	-3.7354	-4.0979	-3.4583	-4.0833	-4.0042	-3.7062	-4.1979	-3.9146	-3.875	-4.2937	331.010	384.651	263.579	347.281	157.268	342.850	111.119	369.503	166.351	229.751	102.391	411.825	84.207	301.413	88.351	375.776	0.0013586	0.00066066	6.487e-05	620.51	3.3465e-06	4.5023e-06	707.02	240.45	4.9421e-06	4.7218e-06	303.66	144.1	105.22	54.479	3.2269e-06	77.075	0.00014852	0.00016987	4.986e-05	563.09	1.6404e-06	1.925e-06	641.92	205.82	1.6621e-06	1.9689e-06	250.98	110.44	79.199	41.014	1.9458e-06	54.939	438.477	150.492	308.100	91.756	231.217	174.111	90.348	96.511	157.165	203.560	94.586	98.644	100.707	104.706	333.609	101.895	-8191	255	
3163.407	1	1	0	0	0.054599	0.096331	0.18727	0.13201	0.24641	0.27624	0.10036	0.036828	0.16826	0.099667	0.21902	0.37747	0.18026	0.13653	0.084636	0.22195	-3.2042	-3.9208	-4.1083	-3.6229	-4.1604	-3.6688	-3.8229	-4.2042	-3.55	-4.0458	-4.0479	-3.6521	-4.0437	-3.85	-3.7521	-4.1917	288.459	120.078	328.644	425.713	289.971	358.727	382.561	377.887	169.885	243.551	216.002	89.359	392.556	394.345	299.665	372.927	0.0012924	0.00033517	1.8074e-05	620.95	2.9581e-06	1.0331e-06	704.56	238.58	4.3325e-06	2.6435e-06	301.47	141.58	104.25	53.645	7.6103e-07	76.037	0.00016225	0.00019384	5.1336e-05	568.76	1.885e-06	2.2601e-06	646.57	206.55	2.0051e-06	2.3717e-06	253.17	110.61	81.421	41.39	2.1484e-06	54.77	429.477	172.761	416.465	92.056	138.812	208.033	90.330	96.634	189.775	184.356	94.639	98.676	100.670	104.810	146.927	101.502	-8191	255	
3163.528	1	1	0	0	0.26207	0.10961	0.13327	0.19775	0.11826	0.28444	0.22872	0.20858	0.13162	0.13741	0.12867	0.31565	0.20335	0.18786	0.14644	0.087239	-3.4104	-4.0583	-3.8854	-3.625	-3.9875	-3.8208	-3.5958	-4.1625	-3.6542	-3.9375	-4.0167	-3.5208	-3.9625	-3.8229	-3.5396	-4.2208	376.131	232.053	352.154	418.562	96.762	156.797	345.422	375.963	252.608	374.545	131.537	418.406	320.895	344.538	97.543	386.229	0.0016211	0.00027274	7.6703e-05	620.82	6.4321e-06	1.9066e-06	702.53	236.89	6.0748e-06	2.4332e-06	298.78	140.07	102.79	53.184	2.3311e-06	75.304	0.00019464	0.00021329	5.3101e-05	569.73	2.1542e-06	2.3491e-06	642.31	205.3	2.2187e-06	2.3515e-06	250.13	108.88	81.854	40.742	2.0664e-06	53.993	84.792	165.183	391.176	91.389	171.971	80.159	90.377	96.824	201.217	399.051	94.989	98.743	100.529	104.618	263.258	101.576	-8191	255	
3163.624	1	1	0	0	0.058806	0.22218	0.089526	0.029913	0.11461	0.13852	0.13012	0.18513	0.05987	0.093412	0.29999	0.19176	0.10638	0.33566	0.17772	0.13504	-3.1562	-3.7208	-4.0021	-3.7667	-3.9562	-3.9708	-3.6	-4.1146	-3.7792	-3.7375	-4.0583	-3.5146	-4.0687	-4.125	-3.5417	-4.2146	170.584	251.330	187.258	342.603	330.738	358.738	432.962	352.496	184.479	141.700	169.915	85.119	160.325	436.388	224.903	353.101	0.0014191	0.00028391	8.2179e-06	616.8	1.7617e-06	1.5723e-06	700.27	237.77	4.423e-06	1.4759e-06	300.05	142.09	104.29	53.79	8.0492e-07	76.819	0.00020726	0.00020059	4.9707e-05	565.14	2.1398e-06	2.0231e-06	630.63	203.04	2.072e-06	1.9261e-06	243.32	108.07	80.583	40.104	1.6452e-06	54.2	89.886	116.927	253.498	91.500	179.614	332.906	90.417	96.672	215.238	280.295	94.747	98.850	100.908	104.620	151.500	101.442	-8191	255	
3163.720	1	1	0	0	0.18767	0.13086	0.21777	0.10339	0.11619	0.10054	0.020707	0.06257	0.17015	0.26955	0.22133	0.16174	0.1788	0.048886	0.2601	0.24193	-3.2854	-3.65	-3.95	-3.625	-3.7771	-3.8812	-3.6583	-4.0875	-3.7979	-3.6	-4.175	-3.6396	-4.0021	-4.1771	-3.4729	-4.1646	389.377	424.849	296.495	201.326	273.272	120.107	276.995	283.583	409.708	226.938	352.087	394.246	103.644	397.573	335.362	307.682	0.0012496	0.00032299	9.7627e-05	622.3	7.1703e-07	3.6796e-06	699.73	237.96	1.0918e-06	4.0409e-06	300.57	142.83	104.89	54.348	1.8096e-06	77.438	0.00018279	0.0001654	4.241e-05	562.05	2.0681e-06	1.8701e-06	627.1	205.16	2.0888e-06	1.8508e-06	242.27	109.73	80.521	40.039	1.5351e-06	54.868	79.769	283.875	209.308	91.818	280.777	261.939	90.193	96.630	158.776	254.794	94.660	98.873	100.463	104.724	215.970	101.427	-8191	255	
3163.792	1	1	0	0	0.098395	0.17127	0.27309	0.078189	0.14538	0.18348	0.24204	0.16884	0.1402	0.16186	0.22151	0.33316	0.26693	0.22648	0.1485	0.13766	-3.7229	-3.4875	-3.9479	-3.55	-3.6958	-4.1625	-3.5333	-4.0583	-3.9062	-3.6875	-4.0708	-3.6937	-4.0146	-4.0854	-3.5854	-4.1479	324.812	405.909	251.059	373.191	128.305	305.111	350.422	380.778	324.814	313.785	409.697	404.399	122.115	95.839	250.549	367.182	0.0012126	0.00017741	6.0564e-05	622.24	2.0031e-06	2.8251e-06	704.38	240.54	7.6296e-07	7.5469e-07	303.96	142.98	104.83	54.069	1.4141e-06	77.116	0.00016964	0.00014957	3.8685e-05	563.8	1.8468e-06	1.6835e-06	623.13	207.07	1.9318e-06	1.7524e-06	243.84	111.42	80.957	40.226	1.7311e-06	55.665	80.660	360.443	207.157	91.779	400.073	290.927	90.531	96.724	353.224	94.610	94.805	98.688	100.775	104.899	196.187	101.553	-8191	255	
3163.911	1	1	0	0	0.12827	0.051299	0.11994	0.35425	0.15449	0.21109	0.16588	0.030687	0.099028	0.11946	0.30764	0.25895	0.17824	0.20456	0.16475	0.065873	-3.7438	-3.6542	-3.9875	-3.875	-3.7271	-4.0542	-3.6396	-4.0917	-3.8521	-3.5917	-4.1458	-3.8146	-3.8167	-4.2021	-3.7062	-3.9958	431.327	220.856	378.062	343.779	243.773	401.779	392.877	182.072	159.221	163.414	271.855	376.561	83.557	429.064	256.929	332.268	0.0011754	0.00031534	8.3367e-05	620.61	9.2497e-07	1.8671e-06	709.72	240.15	2.6513e-06	2.6915e-06	305.26	143.31	104.95	54.013	5.8764e-06	76.363	0.00018021	0.00015928	4.2814e-05	574.19	1.8184e-06	1.6537e-06	628.73	208.43	1.8064e-06	1.6629e-06	246.77	111.99	80.208	40.012	1.8481e-06	55.498	438.473	113.143	157.944	91.856	401.444	193.420	90.493	96.905	213.702	225.076	94.736	98.740	100.479	104.688	185.399	101.406	-8191	255	
3164.007	1	1	0	0	0.16913	0.14423	0.075953	0.050784	0.13004	0.35974	0.32289	0.29258	0.17245	0.084577	0.072815	0.20558	0.082648	0.15869	0.057131	0.12321	-3.6208	-3.5083	-3.9979	-3.7104	-3.6083	-4.2562	-3.8729	-4.0292	-4.0062	-3.6146	-4.1292	-3.9688	-3.6229	-4.3125	-3.6188	-3.8854	110.594	425.370	408.369	363.516	309.235	231.614	353.721	425.744	91.646	404.071	186.155	304.355	212.557	375.653	118.127	390.949	0.0011005	0.00010798	0.00012987	615.42	2.0626e-06	1.3902e-06	700.86	237.28	1.7088e-06	2.6019e-06	303.11	141.86	105.04	54.109	4.6694e-06	76.788	0.00017649	0.00016002	4.9097e-05	579.38	1.9086e-06	1.7669e-06	637.46	208.6	1.8826e-06	1.72e-06	249.93	111.21	79.853	39.868	1.9771e-06	55.289	84.013	382.390	116.433	91.597	135.582	227.930	90.370	96.592	177.654	95.147	94.903	98.932	100.552	104.474	184.977	101.674	-8191	255	
3164.103	1	1	0	0	0.11557	0.10976	0.23479	0.12961	0.15292	0.12149	0.14488	0.11513	0.1792	0.028486	0.424	0.17088	0.056582	0.047347	0.10475	0.088801	-3.9396	-3.5521	-4.0354	-4.0875	-3.7354	-4.0583	-3.7083	-3.8896	-4.1083	-3.8229	-4.0333	-4.0917	-3.6917	-4.2708	-3.8542	-3.7396	162.888	348.986	307.708	313.929	204.557	118.931	163.025	390.362	206.469	300.286	420.079	360.838	273.168	281.680	324.236	384.923	0.0010441	3.5083e-05	6.8831e-05	618.27	1.7849e-06	3.6026e-06	707.19	238.87	2.7438e-06	1.448e-06	303.63	141.19	103.15	53.208	3.7177e-06	75.272	0.0001668	0.00015366	5.0913e-05	574.19	1.7971e-06	1.7251e-06	646.21	208.15	1.8584e-06	1.8224e-06	254.29	110.99	79.874	39.937	2.3248e-06	54.834	88.960	187.039	119.290	91.501	210.468	152.922	90.660	96.785	346.162	143.462	94.954	98.720	100.616	104.670	231.640	101.543	-8191	255	
3164.201	1	1	0	0	0.16883	0.17058	0.042598	0.11092	0.11843	0.25675	0.1048	0.1293	0.021562	0.354	0.25546	0.093876	0.18232	0.080779	0.17544	0.15585	-3.9354	-3.3667	-3.8229	-3.9896	-3.6833	-4.0188	-3.8333	-3.6479	-4.1687	-3.6042	-4.0813	-4.1583	-3.6	-4.1104	-3.7979	-3.6604	91.891	251.336	213.680	127.843	274.621	401.990	159.191	214.907	384.116	138.985	106.287	429.056	92.987	98.495	413.824	426.708	0.0010383	0.00020765	4.1187e-05	618.73	3.4691e-06	6.0531e-06	703.6	236.04	7.461e-07	3.8592e-06	296.13	138.99	101.01	52.236	1.8019e-06	74.645	0.00018392	0.00018593	6.0896e-05	583.64	2.0021e-06	2.1467e-06	659.76	209.86	2.0825e-06	2.2868e-06	259.24	111.23	80.531	40.65	2.769e-06	55.296	91.282	186.967	389.856	91.638	323.291	157.561	90.532	96.638	396.808	186.308	94.563	98.856	101.067	104.609	219.414	101.650	-8191	255	
3164.320	1	1	0	0	0.16968	0.086239	0.15184	0.043136	0.41344	0.10382	0.048621	0.096309	0.18425	0.22911	0.058534	0.09897	0.11021	0.045852	0.39397	0.027238	-3.9333	-3.55	-3.8229	-4.0333	-3.5896	-3.8833	-3.9771	-3.7021	-4.0292	-3.8	-3.9708	-4.1167	-3.5646	-4.0792	-3.9896	-3.7521	103.722	321.728	274.715	87.026	170.578	376.206	82.581	419.572	416.211	294.381	364.627	403.922	259.320	386.272	153.383	212.763	0.00091131	0.0005313	4.9428e-05	614.83	3.5376e-06	4.9422e-06	701.98	235.64	2.6144e-06	5.9327e-06	299.28	140.54	102.93	52.999	2.8599e-06	75.016	0.00021577	0.00024261	7.0428e-05	595	2.2395e-06	2.5792e-06	664.64	209.49	2.1161e-06	2.4701e-06	257.02	110.79	80.264	40.933	2.3909e-06	54.741	94.969	128.805	409.369	91.620	215.282	188.488	90.388	96.843	189.867	192.388	94.783	99.020	100.454	104.484	324.092	101.509	-8191	255	
3164.392	1	1	0	0	0.15569	0.097589	0.081438	0.13197	0.11791	0.077772	0.060762	0.17801	0.1683	0.1841	0.26733	0.1472	0.10019	0.13722	0.12978	0.43092	-3.9396	-3.8521	-3.6083	-4.2271	-3.5292	-3.875	-3.9813	-3.6562	-4.025	-3.7	-3.7542	-3.9958	-3.6937	-4.0354	-3.9271	-3.6042	96.920	244.844	350.878	80.049	237.939	412.136	333.609	84.703	249.923	223.124	323.333	143.205	168.258	369.271	155.138	370.553	0.0015097	0.00045518	5.9888e-05	618.11	6.2028e-06	8.538e-07	702.98	237.22	3.3046e-06	1.4611e-06	300.76	140.99	104.23	53.513	1.9052e-06	75.496	0.00019514	0.00022952	5.888e-05	578.79	2.0331e-06	2.368e-06	646.37	206.04	1.937e-06	2.2414e-06	249.36	108.61	79.736	40.616	1.9193e-06	53.925	86.877	197.732	273.831	92.002	171.415	274.046	90.602	96.750	196.628	195.915	94.627	98.802	100.516	104.811	374.782	101.391	-8191	255	
3164.488	1	1	0	0	0.24063	0.14398	0.025292	0.24281	0.31473	0.10008	0.23453	0.12317	0.213	0.21299	0.043445	0.090893	0.05386	0.16993	0.22199	0.18601	-3.6708	-3.8688	-3.6188	-4.0813	-3.6396	-3.9104	-4.1042	-3.6792	-3.9313	-3.7354	-3.6188	-4.0437	-3.85	-3.8146	-3.8917	-3.6479	204.576	251.936	158.021	358.385	155.975	326.819	97.034	327.863	402.575	213.033	96.483	134.502	211.256	356.785	126.038	252.223	0.0014791	9.5693e-05	8.612e-05	621.87	4.6802e-06	4.182e-06	697.85	236.45	3.2869e-06	1.6011e-06	300.16	139.45	102.21	52.72	2.546e-06	75.13	0.00017921	0.0001997	5.0096e-05	568.77	2.0916e-06	2.2964e-06	641.25	205.18	2.224e-06	2.3557e-06	250.16	108.84	81.648	40.702	2.1379e-06	54.102	436.872	314.216	130.521	91.761	207.491	86.738	90.382	96.702	191.392	423.293	94.929	98.668	100.674	104.423	384.095	101.555	-8191	255	
3164.608	1	1	0	0	0.049912	0.070818	0.24969	0.2678	0.25222	0.2302	0.25278	0.076892	0.2005	0.14941	0.028818	0.13315	0.15458	0.029336	0.20594	0.11037	-3.6104	-3.9229	-3.6521	-4.1792	-3.5687	-3.8563	-4.1729	-3.7833	-3.8438	-3.9	-3.6542	-4.125	-3.8125	-3.8104	-4.1729	-3.7146	253.142	150.131	297.259	363.154	319.418	349.258	339.859	139.221	128.574	197.826	300.632	169.755	340.938	159.990	336.432	337.881	0.0018839	0.00022233	5.8182e-05	614.32	2.2381e-06	5.0248e-07	697.18	234.6	3.5896e-06	2.4465e-06	298.5	138.03	101.81	52.245	1.3929e-06	74.436	0.00021796	0.00021622	5.3721e-05	575.23	2.4364e-06	2.3894e-06	645.48	207.2	2.5882e-06	2.4616e-06	251.7	109.85	83.845	40.548	2.2878e-06	54.714	85.510	338.791	326.315	91.783	264.646	154.018	90.521	96.735	177.884	276.097	94.511	98.795	100.637	104.713	123.481	101.980	-8191	255	
3164.705	1	1	0	0	0.11612	0.0915	0.061338	0.084117	0.099559	0.16588	0.10768	0.38539	0.048754	0.21209	0.20501	0.080907	0.2999	0.16796	0.051841	0.14617	-3.3187	-3.9042	-3.5375	-3.9896	-3.8396	-3.8208	-4.2833	-3.6458	-3.7917	-4.0771	-3.6229	-4.1083	-3.9062	-3.55	-4.0521	-3.5708	404.472	251.112	340.140	394.141	181.229	101.570	413.743	92.671	79.772	328.245	298.915	389.389	405.087	289.859	81.034	309.515	0.0011453	2.7599e-05	7.3797e-05	619.65	2.4096e-06	1.4899e-06	698.94	235.22	2.5913e-06	3.6921e-07	296.95	139.34	101.86	52.614	1.6581e-06	74.997	0.00024823	0.00022308	5.6431e-05	588.24	2.6443e-06	2.3683e-06	643.38	209.4	2.5626e-06	2.2718e-06	248.63	110.93	83.207	40.332	2.1355e-06	55.448	84.475	179.470	338.863	91.839	251.101	375.994	90.425	96.733	243.465	369.924	94.742	98.833	100.758	104.679	297.886	101.767	-8191	255	
3164.801	1	1	0	0	0.099685	0.1727	0.24743	0.059835	0.11218	0.1493	0.16577	0.13136	0.20269	0.15661	0.1652	0.12895	0.24283	0.17107	0.11128	0.048009	-3.3604	-3.8604	-3.6542	-4.0083	-3.8792	-3.5646	-4.0458	-3.7333	-3.8312	-4.1521	-3.6312	-3.9354	-3.8333	-3.6958	-4.1	-3.7771	328.033	194.721	318.741	91.539	155.896	214.582	140.526	230.670	226.370	223.556	368.169	304.868	431.196	127.183	249.216	316.612	0.00092467	0.00022668	9.2858e-05	622.35	3.5383e-06	2.5333e-06	703.06	235.46	4.7239e-07	1.0833e-06	301.51	140.46	102.16	52.904	2.5236e-06	75.392	0.00024378	0.00022005	5.6901e-05	603.88	2.6966e-06	2.3951e-06	647.92	213.54	2.5029e-06	2.2245e-06	249.18	112.59	82.263	40.104	2.0342e-06	55.613	85.220	330.386	252.884	91.540	430.311	392.174	90.232	96.414	434.188	249.439	94.759	98.855	100.413	104.627	196.242	101.777	-8191	255	
3164.921	1	1	0	0	0.11076	0.13834	0.12464	0.16925	0.10494	0.13023	0.15486	0.16729	0.186	0.13862	0.088569	0.10568	0.13377	0.12155	0.048688	0.064229	-3.3958	-4.0208	-3.5271	-3.7979	-3.8812	-3.5812	-4.0896	-3.8771	-3.7292	-4.2271	-3.6583	-4.0958	-4.0208	-3.7208	-4.0625	-3.9521	150.852	277.702	166.044	91.294	270.867	110.852	126.928	193.799	354.333	386.537	209.786	365.144	411.318	94.197	353.352	286.068	0.00076407	0.00045097	0.00014753	617.85	3.6842e-06	1.3486e-06	700.2	233.55	7.52e-07	3.7116e-06	294.72	137.63	100.46	51.786	6.981e-06	74.005	0.0002155	0.00019704	5.4445e-05	601.74	2.4474e-06	2.261e-06	650.65	215.43	2.5674e-06	2.3732e-06	254.53	113.81	82.561	39.973	2.4831e-06	56.161	98.593	298.620	134.172	91.791	364.029	421.488	90.440	96.716	130.287	387.335	94.528	98.584	100.969	104.654	212.870	101.711	-8191	255	
3165.016	1	1	0	0	0.10288	0.20099	0.21991	0.12548	0.02394	0.1351	0.096341	0.20923	0.16096	0.12545	0.057703	0.19496	0.15563	0.17034	0.13295	0.12608	-3.475	-3.9854	-3.5542	-3.9542	-3.8604	-3.4854	-4.0667	-3.8375	-3.6	-4.1333	-3.8083	-3.8792	-4.0521	-3.4917	-3.9396	-3.8563	316.034	328.196	273.153	352.063	98.736	424.228	426.387	411.064	417.662	246.383	112.721	139.457	138.504	425.358	267.965	99.361	0.0011622	5.5444e-05	0.0001349	619.53	7.4831e-07	1.58e-06	697.06	233.21	2.3263e-06	1.2224e-06	293.6	136.54	100.26	51.718	6.8078e-06	73.626	0.00023061	0.00021099	6.4006e-05	611.87	2.5103e-06	2.3153e-06	663.63	215.9	2.5583e-06	2.3972e-06	260.47	113.99	82.936	40.146	2.8909e-06	56.355	84.300	264.688	104.689	91.563	291.113	257.879	90.491	96.665	322.362	372.299	94.888	98.775	100.863	104.983	217.030	101.835	-8191	255	
3165.087	1	1	0	0	0.081468	0.097131	0.31757	0.097167	0.11756	0.23171	0.17209	0.069139	0.078905	0.44114	0.053628	0.31079	0.25797	0.062418	0.10473	0.18696	-3.3917	-3.7438	-3.6958	-3.9688	-3.9813	-3.4188	-4.0542	-3.8563	-3.4271	-4.1	-3.8688	-3.9021	-4.1042	-3.7271	-4.0208	-4.0542	177.644	383.074	240.053	364.582	178.380	126.779	255.026	418.515	130.520	278.800	405.399	334.342	410.907	160.531	306.967	429.262	0.0010457	0.00026733	0.00011109	619.63	2.3352e-06	2.9665e-06	706.6	233.25	3.3429e-06	1.9476e-06	295.58	137.71	100.14	51.998	1.9571e-06	73.772	0.00024062	0.00022555	7.4167e-05	616.08	2.5834e-06	2.4507e-06	679.74	215.98	2.5621e-06	2.5129e-06	267.27	114.2	83.463	40.989	3.3708e-06	57.192	85.040	122.817	100.577	91.882	188.447	212.567	90.444	96.405	295.115	259.095	94.545	98.421	100.711	104.685	437.493	101.537	-8191	255	
3165.208	1	1	0	0	0.15642	0.18514	0.3498	0.095075	0.019905	0.33963	0.04847	0.32376	0.20777	0.15067	0.075987	0.24802	0.16149	0.011764	0.18371	0.22597	-3.2438	-4.0563	-3.7146	-3.8583	-3.8812	-3.5917	-3.9854	-4.2208	-3.475	-4.0354	-3.8875	-3.7562	-3.9375	-3.7875	-3.7979	-4.0417	401.517	315.620	393.727	204.904	78.985	187.407	261.969	379.485	311.573	418.053	280.374	315.284	427.799	331.518	317.211	78.980	0.00071968	0.00064782	4.5411e-05	620.17	1.6807e-06	6.8473e-06	702.07	230.21	2.5679e-06	9.1962e-06	293.01	135.59	99.223	51.218	1.7554e-06	73.539	0.00027725	0.0002921	9.7738e-05	651.44	3.3744e-06	3.5376e-06	730.17	224.91	3.2477e-06	3.4665e-06	280.88	115.85	84.709	41.624	3.3738e-06	56.322	81.927	156.293	167.976	91.780	363.884	197.387	90.329	96.889	225.932	152.614	94.341	98.839	100.464	104.823	339.646	101.748	-8191	255	
3165.304	1	1	0	0	0.19644	0.10184	0.11117	0.20359	0.078906	0.065764	0.18176	0.22224	0.099176	0.044366	0.30882	0.1407	0.28	0.21206	0.129	0.21223	-3.0938	-3.9979	-3.9188	-3.7188	-4.0146	-3.5896	-3.8479	-3.9771	-3.6458	-4.1958	-3.9667	-3.6042	-4.1604	-3.7229	-3.8083	-4.3313	407.244	362.147	243.957	83.685	403.405	172.663	376.946	83.127	289.570	435.058	90.615	395.435	404.875	426.127	179.702	88.846	0.0010791	0.00084484	9.0372e-05	620.59	4.2069e-06	9.4782e-06	699.59	229.71	2.9742e-06	7.3573e-06	288.88	133.83	98.144	50.85	9.1463e-07	72.444	0.00024904	0.00028147	8.2002e-05	619.11	2.7418e-06	3.2006e-06	697.89	217.16	2.9092e-06	3.5001e-06	274.46	114.19	84.848	42.291	3.4878e-06	56.191	86.188	157.847	210.618	91.415	199.664	161.923	90.311	96.657	117.895	193.505	94.957	98.707	100.641	105.128	369.378	101.718	-8191	255	
3165.400	1	1	0	0	0.12806	0.27352	0.12363	0.036974	0.26033	0.049222	0.28092	0.19175	0.1534	0.11742	0.22248	0.078221	0.079287	0.2233	0.073551	0.12701	-3.2479	-3.9625	-3.9646	-3.6063	-4.2229	-3.7354	-3.7292	-4.0292	-3.5229	-4.0854	-3.9813	-3.6188	-4.1062	-3.9667	-3.8229	-4.1542	393.334	215.115	163.318	247.217	107.007	422.001	369.831	79.936	315.933	197.187	411.782	362.589	166.195	84.609	327.075	243.673	0.0011827	0.00031031	8.8338e-05	619.75	4.874e-06	4.5073e-06	701.11	229.41	6.4984e-06	2.9314e-06	292.32	136.57	100.4	51.66	3.4093e-06	73.482	0.00027247	0.00031724	8.2026e-05	619.07	2.8624e-06	3.341e-06	686.07	213.71	2.7833e-06	3.2468e-06	262.97	111.82	83.659	41.783	2.7663e-06	55.072	86.245	133.251	359.890	91.626	166.454	167.867	90.365	96.724	179.157	319.886	94.892	99.017	100.764	104.665	285.585	101.579	-8191	255	
3165.496	1	1	0	0	0.12589	0.14598	0.19371	0.28365	0.043827	0.079362	0.24808	0.040831	0.085997	0.23196	0.18824	0.17539	0.13282	0.38561	0.12539	0.12771	-3.5229	-3.9917	-3.8688	-3.5479	-4.0312	-3.8021	-3.7479	-4.2979	-3.5583	-3.8292	-3.9167	-3.7854	-4.1062	-3.8812	-3.5771	-4.2646	251.426	369.608	201.687	400.186	87.210	197.837	395.517	419.434	228.763	101.944	101.717	111.927	370.162	83.814	124.451	432.146	0.0015203	0.00060008	2.4149e-05	618.37	7.2844e-06	1.2888e-06	702.68	234.97	3.5879e-06	2.5777e-06	296.28	138.72	102.2	52.391	4.362e-06	74.558	0.00024317	0.0002674	6.5595e-05	592.38	2.5658e-06	2.7692e-06	661.49	209.45	2.6103e-06	2.7884e-06	258.28	111.24	84.819	41.734	2.6831e-06	55.686	437.744	200.939	373.920	91.374	192.095	437.248	90.364	96.468	173.183	401.807	94.853	98.817	100.978	104.947	295.848	101.789	-8191	255	
3165.617	1	1	0	0	0.21866	0.19951	0.11663	0.062996	0.12226	0.03497	0.13009	0.0838	0.13967	0.22864	0.24309	0.26353	0.20304	0.047967	0.22001	0.038397	-3.4625	-3.7979	-4.0875	-3.5896	-4.0583	-3.9854	-3.6437	-4.2688	-3.6875	-3.8208	-4.2021	-3.7458	-4.0583	-4.05	-3.5229	-4.0896	173.245	252.846	320.531	358.690	235.644	358.713	405.719	377.257	438.666	128.569	331.715	414.712	404.907	363.600	381.839	292.848	0.0015785	0.00018872	9.3653e-05	623.86	2.4966e-06	2.4845e-06	698.29	233.08	5.1925e-06	3.081e-06	294.2	138.28	101.03	52.024	1.6352e-06	75.39	0.00027882	0.00028208	7.2291e-05	609.22	3.2456e-06	3.1638e-06	677.42	214.51	3.2691e-06	3.0705e-06	261.02	112.88	86.938	41.508	2.6117e-06	56.129	79.157	250.317	313.105	91.871	235.116	298.603	90.230	96.803	264.906	316.873	94.685	98.743	100.815	104.652	156.477	101.836	-8191	255	
3165.689	1	1	0	0	0.19299	0.10879	0.17455	0.3956	0.19642	0.05074	0.13088	0.18665	0.19472	0.17307	0.047088	0.095797	0.22835	0.085112	0.065429	0.16658	-3.3958	-3.5646	-3.9104	-3.5229	-3.9188	-4.0625	-3.5396	-4.1083	-3.6813	-3.6833	-4.2021	-3.7167	-3.8833	-4.1417	-3.3979	-4.1188	429.051	263.783	124.318	109.686	351.033	115.563	81.082	391.070	157.957	196.181	396.474	387.110	389.493	419.477	313.734	368.414	0.0010425	0.00029367	7.8357e-05	626.63	7.6218e-07	2.0442e-06	705.51	232.94	9.7195e-07	5.0075e-06	295.73	137.82	100.85	51.771	2.4996e-06	74.145	0.00028229	0.00025575	6.6051e-05	611.2	3.1501e-06	2.8559e-06	669.8	215.34	3.2119e-06	2.893e-06	259.79	114.48	87.55	41.338	2.7228e-06	57.134	78.703	241.195	113.266	91.720	311.380	163.696	90.344	96.419	108.529	380.663	94.569	98.791	100.844	104.463	365.120	101.774	-8191	255	
3165.785	1	1	0	0	0.097523	0.0081882	0.13211	0.14023	0.30336	0.16425	0.29166	0.076695	0.20835	0.028384	0.1225	0.28813	0.29955	0.048872	0.19756	0.2132	-3.525	-3.5833	-3.9896	-3.7833	-3.6937	-4.0354	-3.5729	-4.0563	-3.7896	-3.5292	-4.1917	-3.6708	-3.75	-4.05	-3.6271	-4.0167	428.832	270.846	363.661	432.486	105.285	410.057	401.824	384.993	155.861	232.392	91.736	107.791	227.386	213.622	210.802	218.464	0.0011526	0.0001047	9.3843e-05	625.62	2.547e-06	4.8816e-06	702.88	231.77	5.351e-07	8.2214e-07	293.35	136.65	99.717	51.541	2.5138e-06	73.949	0.00030478	0.00027261	7.0201e-05	632.23	3.2672e-06	2.9129e-06	669.46	218.85	3.0994e-06	2.7877e-06	256.76	115.02	85.281	40.736	2.6216e-06	56.98	94.807	196.003	134.071	91.747	283.016	275.583	90.109	97.064	129.084	397.629	94.854	98.928	100.968	104.738	190.854	101.640	-8191	255	
3165.881	1	1	0	0	0.043602	0.2616	0.028822	0.23597	0.23947	0.12744	0.14036	0.12449	0.1685	0.055383	0.087796	0.095195	0.07155	0.27855	0.016918	0.084553	-3.7479	-3.5875	-3.8667	-3.9354	-3.8083	-4.0687	-3.6833	-3.9542	-3.9354	-3.4208	-4.0146	-3.7896	-3.6396	-4.1	-3.5667	-3.9229	270.766	256.230	162.960	426.094	421.809	86.574	280.361	414.482	287.922	85.650	334.914	227.590	218.795	429.686	265.931	140.911	0.00086713	0.00037015	0.00012248	621.86	4.48e-06	2.2335e-06	702.67	232.36	2.2487e-06	5.011e-06	294.89	137.05	100.39	51.871	2.2334e-06	74.594	0.000276	0.00024697	6.716e-05	630.13	2.9106e-06	2.6423e-06	665.41	218.77	2.7848e-06	2.5475e-06	256.93	114.69	83.405	40.4	2.6247e-06	56.929	83.511	197.783	110.699	91.637	357.500	396.951	90.511	96.775	368.779	379.984	95.071	98.891	100.950	104.772	203.354	101.784	-8191	255	
3166.002	1	1	0	0	0.31816	0.15447	0.10881	0.26696	0.18876	0.24967	0.15536	0.20852	0.13193	0.35299	0.03312	0.14009	0.13103	0.17149	0.060401	0.25018	-3.4375	-3.5312	-3.9167	-3.7562	-3.6646	-4.0104	-3.5187	-3.95	-4.0271	-3.5208	-4.05	-3.9042	-3.65	-4.0479	-3.8042	-3.7396	394.173	407.506	142.625	423.231	348.181	80.241	427.919	321.174	365.044	359.177	320.756	182.760	418.832	100.133	314.636	364.845	0.0010019	8.9547e-05	0.00016237	617.73	2.1036e-06	3.3088e-06	702.3	233.27	7.9379e-07	1.4297e-06	295.28	137.41	100.5	52.233	6.8471e-06	74.924	0.00024613	0.00022323	6.8169e-05	623.65	2.6725e-06	2.4603e-06	671.28	216.82	2.6086e-06	2.3921e-06	260.17	113.78	82.149	40.169	2.6735e-06	56.39	87.250	205.381	105.419	92.079	255.725	194.642	90.614	96.442	421.103	254.426	95.041	98.750	100.730	104.537	160.788	101.764	-8191	255	
3166.096	1	1	0	0	0.32953	0.15565	0.18879	0.34015	0.075146	0.036094	0.048615	0.23865	0.073831	0.15811	0.13353	0.15263	0.16243	0.37513	0.12059	0.11999	-3.6937	-3.5667	-3.9333	-3.9458	-3.4625	-4.1021	-3.8417	-3.85	-4.0437	-3.5167	-3.9813	-3.8563	-3.5312	-4.1167	-3.6312	-3.8312	422.224	249.218	191.717	147.015	327.133	286.297	131.206	419.821	417.196	386.267	341.152	148.464	433.076	82.241	398.815	413.994	0.0012536	0.00010593	0.00010057	623.24	8.9433e-07	6.3938e-06	704.78	232.5	3.5093e-06	1.9764e-06	296.24	137.62	100.37	51.96	2.6617e-06	74.385	0.00022365	0.00020658	6.7841e-05	608.21	2.3926e-06	2.2817e-06	673.97	213.94	2.4639e-06	2.4078e-06	265.44	114.03	82.485	40.661	3.131e-06	56.801	78.978	146.364	117.487	91.845	89.528	168.765	90.575	96.199	307.313	229.493	94.999	98.782	100.799	104.685	189.943	101.732	-8191	255	
3166.192	1	1	0	0	0.12474	0.13297	0.14524	0.34012	0.22621	0.20404	0.064496	0.22642	0.13672	0.080374	0.2147	0.020284	0.10176	0.14185	0.086206	0.055694	-3.8875	-3.5062	-3.7479	-3.9583	-3.4396	-4.0625	-3.9688	-3.7521	-4.0167	-3.5917	-3.9521	-4.0188	-3.7021	-4.0875	-3.7646	-3.5979	154.634	128.819	336.107	437.846	87.511	106.081	422.268	367.263	195.238	310.126	422.772	225.134	419.770	276.392	206.169	353.953	0.00079823	0.00055941	5.632e-05	617.82	2.7023e-06	5.6256e-06	700.72	229.15	2.5847e-06	8.077e-06	289.68	134.6	98.47	50.993	8.8868e-07	73.413	0.00025369	0.00026154	8.7061e-05	630.93	2.961e-06	3.1389e-06	709.94	220.49	3.0603e-06	3.312e-06	278.64	115.86	84.758	41.825	3.6049e-06	56.864	87.713	142.116	421.711	91.825	312.891	149.920	90.241	96.390	188.860	190.604	94.554	98.855	100.586	105.003	394.691	101.955	-8191	255	
3166.288	1	1	0	0	0.24685	0.18433	0.1549	0.10075	0.15998	0.19888	0.12027	0.31891	0.094283	0.31281	0.080536	0.16463	0.1098	0.15246	0.065193	0.10429	-3.7438	-3.5333	-3.8208	-4.0854	-3.5729	-3.9896	-3.9271	-3.7104	-4.0979	-3.6333	-3.9229	-4.0854	-3.65	-4.1	-3.8979	-3.8917	377.284	79.735	374.748	430.754	119.835	262.283	256.629	390.452	133.251	374.721	271.615	105.143	134.179	368.153	239.584	409.813	0.0010263	2.9424e-05	4.8028e-05	617.82	9.0231e-07	5.4067e-06	698.19	229.63	5.3018e-06	5.0768e-06	289.4	135.43	99.12	51.243	3.6729e-06	73.636	0.00027033	0.00030026	8.7543e-05	624.6	2.8427e-06	3.2783e-06	695.76	215.86	2.7916e-06	3.2328e-06	267.4	112.53	82.36	41.613	3.1133e-06	55.787	92.806	291.900	275.532	91.684	257.872	215.525	90.312	97.047	181.004	174.180	94.662	98.874	100.696	104.816	333.815	101.767	-8191	255	
3166.385	1	1	0	0	0.17423	0.19755	0.11199	0.13187	0.17065	0.20358	0.06202	0.16885	0.18665	0.11057	0.12788	0.076712	0.068469	0.049804	0.15304	0.34418	-3.8521	-3.6729	-3.6542	-4.0375	-3.6333	-3.8729	-4.0229	-3.7792	-3.9875	-3.7292	-3.875	-4.0813	-3.7833	-3.95	-3.9667	-3.3604	234.242	418.594	329.393	432.928	214.448	422.159	342.876	398.016	378.648	229.855	351.394	231.128	399.035	418.630	271.929	404.771	0.001583	0.00075413	1.9239e-05	614.94	7.025e-06	4.6983e-06	697.83	228.22	4.4576e-06	1.4256e-06	290.75	135.82	99.841	51.586	4.3773e-07	74.086	0.0002535	0.00030043	7.9832e-05	616.36	2.88e-06	3.4121e-06	686.92	212.66	2.8218e-06	3.236e-06	261.1	110.96	82.194	41.313	2.6411e-06	54.848	87.666	134.106	183.739	91.692	173.666	212.821	90.462	96.660	224.514	229.943	94.786	98.650	100.701	104.666	313.465	101.688	-8191	255	
3166.481	1	1	0	0	0.054866	0.088231	0.18262	0.13446	0.082503	0.25506	0.18371	0.25388	0.064837	0.16281	0.081654	0.23226	0.21717	0.13276	0.10127	0.070074	-3.675	-3.7542	-3.5792	-4.0375	-3.5646	-3.8021	-4.05	-3.6271	-4.0062	-3.9688	-3.6229	-4.0667	-3.6021	-3.9583	-4.0042	-3.4542	373.861	394.728	375.818	360.876	91.132	112.875	88.783	399.826	376.949	234.774	387.545	381.516	311.380	129.774	182.351	325.321	0.0014135	0.00021589	8.7832e-05	617.8	5.0192e-06	1.0239e-06	694.6	229.27	5.8178e-06	4.1749e-06	290.6	135.29	99.287	51.056	2.3999e-06	74.005	0.00023337	0.00025526	6.3034e-05	587.7	2.5298e-06	2.7979e-06	658.88	206.42	2.7041e-06	2.9148e-06	255.87	109.75	83.364	40.96	2.6263e-06	54.998	87.456	107.736	251.980	91.766	181.942	239.257	90.428	96.563	169.628	333.591	95.007	99.019	100.597	104.895	396.648	101.689	-8191	255	
3166.601	1	1	0	0	0.056276	0.13463	0.21341	0.067655	0.08322	0.24904	0.12164	0.071053	0.020748	0.064887	0.0765	0.15401	0.051597	0.14081	0.087072	0.094337	-3.4625	-3.8208	-3.5396	-4.1062	-3.7062	-3.6688	-4.0437	-3.5479	-3.9458	-3.8396	-3.6708	-4.1396	-3.75	-3.8354	-4.0479	-3.6667	183.650	427.021	233.366	379.251	105.619	325.342	430.437	232.985	376.159	158.792	140.750	398.772	402.554	367.253	227.986	390.334	0.0015551	0.00037568	4.9251e-05	619.67	6.3948e-06	1.5114e-06	693.12	228.97	5.198e-06	3.0012e-06	287.82	134.68	97.948	50.509	1.8161e-06	72.841	0.00026414	0.00026259	6.5284e-05	592.58	2.8568e-06	2.7741e-06	656.45	206.58	2.8853e-06	2.7706e-06	253.03	109.51	84.541	40.522	2.7126e-06	55.115	437.528	310.560	368.904	91.715	170.709	412.978	90.347	96.863	172.406	351.258	94.779	98.835	100.477	104.907	369.674	101.645	-8191	255	
3166.697	1	1	0	0	0.07985	0.32478	0.20705	0.013446	0.092033	0.055746	0.26912	0.24225	0.12844	0.035119	0.19587	0.28515	0.39411	0.17787	0.092536	0.37753	-3.3292	-3.7875	-3.4188	-3.9125	-3.7125	-3.5938	-4.1271	-3.5708	-3.8958	-4.0167	-3.6562	-4.1083	-3.8187	-3.7438	-3.8417	-3.5917	352.073	119.301	213.862	140.087	136.346	388.197	336.944	320.107	243.227	188.608	367.938	424.743	418.726	422.889	415.467	318.174	0.0010644	0.00045806	0.00013034	618.34	1.1377e-06	4.238e-06	693.57	228.4	3.4631e-07	1.2673e-06	290.61	135.94	98.221	51.19	4.1653e-06	73.959	0.00030157	0.00027316	6.9516e-05	607.98	3.1899e-06	2.8238e-06	657.2	208.91	2.9174e-06	2.5644e-06	248.62	109.73	82.434	39.766	2.2578e-06	55.134	88.048	332.991	315.974	91.684	121.680	323.630	90.201	96.668	196.221	394.517	94.084	98.870	100.390	104.752	231.004	101.542	-8191	255	
3166.794	1	1	0	0	0.10632	0.15507	0.037776	0.34569	0.11145	0.14982	0.15545	0.28302	0.12712	0.41957	0.045393	0.1873	0.096162	0.18644	0.020234	0.15219	-3.4146	-3.8271	-3.4958	-3.8854	-3.7833	-3.6417	-4.1438	-3.6833	-3.6229	-3.8812	-3.4479	-3.9875	-3.8104	-3.6583	-4.2	-3.8688	272.515	150.001	330.549	417.885	281.580	168.341	344.744	400.856	324.809	84.564	128.146	373.505	237.546	380.708	233.149	315.465	0.0014223	0.00031633	4.2296e-05	619.96	3.2181e-06	1.454e-06	694.2	228.76	2.5852e-06	2.3055e-06	289.37	135.57	98.087	51.13	3.3306e-06	74.011	0.00025284	0.00022712	5.8416e-05	605.74	2.8538e-06	2.5995e-06	653.61	213.46	2.9434e-06	2.6718e-06	252.18	113.11	83.329	40.113	2.4775e-06	56.274	84.559	274.621	154.258	91.724	388.826	400.318	90.580	96.816	347.729	194.485	94.594	99.059	100.842	104.592	223.969	101.665	-8191	255	
3166.890	1	1	0	0	0.15391	0.095944	0.30834	0.23747	0.21739	0.073569	0.075803	0.046307	0.15177	0.20799	0.11307	0.12248	0.27633	0.2739	0.10542	0.32308	-3.4833	-3.8292	-3.5021	-3.9521	-3.9333	-3.5396	-4.175	-3.8604	-3.575	-4.2188	-3.7458	-4.0396	-4.0437	-3.5021	-3.9083	-3.9979	248.056	116.894	436.091	127.063	341.946	208.240	86.703	90.282	215.515	359.340	406.323	97.269	383.249	371.013	198.296	385.261	0.00076964	0.00021099	0.00016756	619.77	6.0473e-06	1.9238e-06	699.01	228.86	3.2639e-06	1.1375e-06	290.11	134.09	97.588	50.522	6.2773e-06	72.985	0.00025724	0.00023273	6.2934e-05	620.37	2.8133e-06	2.5968e-06	663.65	217.38	2.9842e-06	2.7891e-06	259.6	115.75	84.243	40.286	2.9603e-06	57.439	104.496	206.780	121.504	91.872	431.542	151.767	90.402	96.614	341.406	424.387	94.669	98.739	100.616	104.598	201.001	101.716	-8191	255	
3166.984	1	1	0	0	0.061987	0.1232	0.191	0.32376	0.15559	0.038857	0.20732	0.19548	0.088407	0.14317	0.093866	0.11762	0.13502	0.15024	0.056567	0.32927	-3.3208	-4.1562	-3.6875	-3.9125	-3.9083	-3.6437	-4.2083	-3.9667	-3.6292	-3.8646	-3.6125	-3.8042	-4.0708	-3.7792	-3.8563	-3.9792	224.176	194.595	169.913	319.969	326.730	354.327	374.635	110.839	234.474	266.052	418.980	367.908	196.851	304.034	198.461	393.662	0.00092417	0.00016828	8.6604e-05	618.98	1.7314e-06	2.7595e-06	702.34	228.05	2.998e-06	1.2772e-06	292.6	135.1	98.276	51.111	4.6932e-06	74.022	0.00027765	0.00025272	7.5811e-05	637.95	2.9799e-06	2.7076e-06	680.71	218.29	2.8754e-06	2.6493e-06	264.08	114.97	83.183	40.253	3.152e-06	57.395	82.174	404.703	94.330	91.659	430.311	279.483	90.380	96.751	233.633	300.879	94.759	98.740	100.215	104.804	206.947	101.426	-8191	255	
3167.080	1	1	0	0	0.20706	0.25172	0.28503	0.175	0.18201	0.11894	0.13969	0.27046	0.066238	0.093902	0.082787	0.042731	0.22921	0.13239	0.13623	0.24241	-3.0687	-4.0938	-3.5521	-3.8125	-4.0708	-3.7313	-4.1646	-4.0042	-3.6417	-4.0813	-3.9333	-3.8354	-4.0833	-3.5854	-3.8958	-4.025	298.230	108.613	313.310	135.364	283.598	245.852	417.639	414.727	325.295	325.197	435.651	311.569	411.572	423.048	280.292	347.598	0.001171	0.00035477	0.00015415	618.88	4.2291e-06	1.101e-06	698.74	229.39	2.2447e-06	4.8519e-06	292.66	136.34	98.948	51.363	3.6313e-06	73.613	0.00027381	0.00025821	8.5782e-05	640.76	3.0485e-06	2.8789e-06	700.86	220.18	2.9927e-06	2.8976e-06	275.17	116.42	84.914	41.255	3.6474e-06	57.893	85.007	166.909	436.144	91.477	332.562	228.163	90.560	96.390	182.769	211.300	94.876	98.956	100.603	104.608	195.969	101.523	-8191	255	
3167.176	1	1	0	0	0.19341	0.11765	0.10424	0.14835	0.026907	0.21841	0.1924	0.30812	0.0086457	0.1515	0.37219	0.27442	0.1961	0.23027	0.048286	0.2017	-3.0833	-3.8917	-3.7479	-3.5542	-3.9833	-3.6146	-3.9021	-4.0167	-3.5083	-4.0708	-3.8417	-3.8708	-4.175	-3.8458	-3.7708	-4.0521	275.165	393.672	265.721	86.676	191.160	243.908	288.100	324.327	402.849	329.083	118.128	434.493	356.407	404.215	166.779	341.082	0.001044	0.0007723	0.00013373	623.2	4.0732e-06	7.6738e-06	699.68	229.3	4.5189e-07	3.4863e-06	291.73	136.83	99.054	51.738	2.3928e-06	74.499	0.00029638	0.00030475	0.00010047	653.74	3.4025e-06	3.575e-06	732.31	225.97	3.3474e-06	3.5105e-06	283.46	117.22	85.188	42.107	3.5836e-06	57.432	94.825	152.128	158.517	91.731	408.810	149.787	90.352	96.402	260.371	192.059	94.553	98.764	100.996	104.495	240.132	101.662	-8191	255	
3167.297	1	1	0	0	0.34001	0.12184	0.096744	0.14042	0.20942	0.0642	0.16457	0.063031	0.032253	0.061044	0.20022	0.15347	0.21355	0.27476	0.069057	0.31763	-3.2625	-4.025	-3.6771	-3.6229	-4.1958	-3.6625	-3.9083	-4.0542	-3.6188	-4.0333	-3.8312	-3.7562	-4.1333	-3.8354	-3.6604	-4.1583	427.053	414.013	121.943	212.088	174.117	404.937	266.199	221.517	206.470	154.436	271.805	376.369	150.914	369.087	230.341	376.121	0.0011925	0.00072407	7.229e-05	622.54	2.5222e-06	6.9321e-06	699.82	231.07	1.3726e-07	6.2937e-06	293.55	136.7	100.27	51.669	5.7013e-07	74.554	0.00026758	0.0003008	8.8122e-05	628.45	2.9038e-06	3.3601e-06	703.51	218.95	2.9642e-06	3.5018e-06	275.61	115.58	84.479	42.422	3.3263e-06	56.936	91.901	151.805	301.772	91.711	130.267	164.824	90.374	96.314	324.796	223.257	94.564	98.494	100.300	104.698	167.247	101.630	-8191	255	
3167.393	1	1	0	0	0.20675	0.10156	0.21633	0.26649	0.11033	0.10766	0.17071	0.046619	0.32082	0.21865	0.13757	0.1328	0.21336	0.3873	0.13768	0.35156	-3.2604	-3.8146	-3.8438	-3.5896	-4.0875	-3.5896	-3.6771	-4.0979	-3.5729	-3.8854	-4.0188	-3.6604	-3.9313	-3.8937	-3.6604	-4.1021	225.861	198.782	335.037	286.196	248.624	213.348	335.205	365.360	164.011	338.601	277.300	410.658	382.032	373.432	326.047	393.718	0.0017558	0.00034882	0.00011255	618.17	5.5109e-06	2.2367e-06	701.19	231.14	3.5318e-06	2.3051e-06	293.36	137.26	99.974	51.376	2.085e-06	74.332	0.00026272	0.00030884	8.0337e-05	616.63	2.8191e-06	3.3488e-06	690	215.37	2.9224e-06	3.4588e-06	269.74	114.36	85.735	42.731	3.2901e-06	57.154	87.854	151.955	239.966	91.689	172.219	306.441	90.249	96.679	223.536	114.130	94.920	98.734	100.545	104.774	378.461	101.907	-8191	255	
3167.489	1	1	0	0	0.21039	0.10108	0.32571	0.067732	0.12235	0.069931	0.10067	0.097471	0.13908	0.16149	0.14816	0.028108	0.070979	0.22156	0.21532	0.23645	-3.3979	-3.7583	-3.7979	-3.4104	-3.9083	-3.9271	-3.8479	-4.2125	-3.5604	-3.7521	-4.1125	-3.6417	-3.9354	-3.8833	-3.5812	-4.2417	395.255	434.109	256.056	93.393	393.488	299.797	283.706	363.305	255.077	308.204	375.654	134.302	321.317	426.895	376.290	358.712	0.0015872	0.00033694	9.0594e-05	616.55	8.4026e-06	6.8231e-07	698.73	231.18	6.2789e-06	1.6313e-06	293.68	137.43	99.407	51.167	2.3055e-06	73.899	0.00030146	0.00033887	8.4212e-05	621.96	3.2869e-06	3.5396e-06	687.22	214.18	3.1334e-06	3.3194e-06	264.31	112.72	86.033	41.832	3.0219e-06	56.137	437.441	348.990	348.027	91.909	169.783	322.112	90.275	96.571	189.531	380.624	94.523	98.632	100.424	104.813	302.207	101.759	-8191	255	
3167.561	1	1	0	0	0.17605	0.24709	0.15308	0.070656	0.15724	0.08399	0.22244	0.086114	0.25956	0.22857	0.18771	0.44269	0.076787	0.13476	0.18465	0.26222	-3.4125	-3.8083	-3.8625	-3.675	-3.8438	-3.8167	-3.6937	-4.1271	-3.7271	-3.6479	-4.0958	-3.5479	-3.8729	-4.0521	-3.525	-4.2896	187.997	318.636	114.420	380.210	234.859	197.878	87.508	363.157	350.540	198.131	426.861	395.653	146.913	404.271	190.399	331.484	0.0012086	0.00039796	8.653e-05	622.01	5.9534e-06	2.1445e-06	700.18	228.46	4.8813e-06	4.6249e-06	289.92	136.24	98.943	50.895	2.0863e-06	73.897	0.00031524	0.00032157	8.2091e-05	626.31	3.7464e-06	3.687e-06	695.82	217.27	3.7263e-06	3.4091e-06	263.38	112.36	86.416	40.78	2.6158e-06	55.283	438.258	347.173	125.678	91.539	143.629	366.802	90.172	96.549	163.932	378.827	94.420	98.623	100.831	104.690	137.494	101.907	-8191	255	
3167.682	1	1	0	0	0.069382	0.17991	0.097294	0.29602	0.16679	0.12744	0.14598	0.18679	0.22187	0.17381	0.17276	0.1336	0.11	0.084573	0.2111	0.032918	-3.2958	-3.6521	-4.0563	-3.5187	-3.9125	-3.7875	-3.6021	-4.0625	-3.6833	-3.5	-4.0896	-3.6167	-3.8021	-3.8792	-3.5312	-4.0104	385.691	335.086	401.591	102.410	196.787	245.430	337.185	426.105	268.141	268.277	409.733	400.886	99.901	414.370	279.327	430.926	0.0014777	0.00020403	3.8188e-06	620.31	7.8888e-07	1.1817e-06	703.34	231.1	8.7544e-07	1.0434e-06	294.24	138.19	99.558	51.165	4.3521e-06	74.47	0.00027699	0.00024939	6.3644e-05	602.57	3.0337e-06	2.7445e-06	663.26	213.48	3.1513e-06	2.8795e-06	259	114.74	87.387	41.075	2.7409e-06	57.07	429.927	362.579	197.087	91.795	433.319	374.440	90.204	96.842	184.903	357.054	94.799	98.731	100.248	104.886	268.135	101.925	-8191	255	
3167.778	1	1	0	0	0.22579	0.11124	0.13635	0.1184	0.10401	0.17614	0.27178	0.21754	0.13658	0.20497	0.065366	0.16451	0.28957	0.12897	0.095774	0.012752	-3.3417	-3.5083	-4.0104	-3.6729	-3.7958	-3.85	-3.4646	-4	-3.8833	-3.5292	-3.9458	-3.6562	-3.5958	-4.1833	-3.4917	-3.9542	353.175	96.467	135.302	132.774	359.671	137.057	421.400	118.068	427.146	181.103	308.986	386.342	361.231	167.269	104.991	139.472	0.0011202	0.00016555	4.4574e-05	624.25	4.2786e-06	2.864e-06	701.72	233.87	8.3656e-07	6.9825e-07	297.96	138.75	99.782	51.855	3.5563e-06	75.215	0.00029465	0.00025842	6.5676e-05	620.27	3.0538e-06	2.698e-06	660.54	217.26	2.9608e-06	2.6697e-06	257.29	115.73	85.465	40.883	2.6262e-06	57.768	96.376	195.779	177.274	91.312	233.273	297.524	90.738	97.051	250.958	187.177	94.723	99.032	100.543	104.684	196.521	101.872	-8191	255	
3167.874	1	1	0	0	0.12999	0.37047	0.13798	0.25981	0.11292	0.10423	0.17453	0.13114	0.28195	0.17809	0.18382	0.18028	0.17918	0.11929	0.076083	0.046359	-3.5354	-3.3354	-4.0104	-3.8417	-3.7979	-3.8729	-3.5333	-3.8104	-3.8271	-3.5396	-4.0292	-3.8958	-3.8167	-4.1896	-3.5375	-3.9208	351.709	215.216	179.171	413.282	305.794	227.038	101.565	384.212	386.675	87.609	228.593	375.926	314.004	105.856	96.485	316.533	0.00073567	0.00040205	0.00013394	626.36	7.7589e-06	3.3205e-06	704.57	233.24	9.8296e-07	3.1788e-06	298.44	139.63	101.28	52.203	6.3042e-06	75.897	0.00027604	0.00024953	6.7463e-05	632.19	2.9311e-06	2.6407e-06	668.25	220.08	2.7945e-06	2.5607e-06	260.54	116.99	84.013	40.504	2.6235e-06	57.724	101.191	237.064	141.265	91.626	361.010	369.966	90.576	96.680	374.620	313.642	95.037	98.844	100.480	104.721	192.706	101.817	-8191	255	
3167.970	1	1	0	0	0.10941	0.29121	0.15193	0.15886	0.070412	0.070461	0.25892	0.17567	0.33434	0.19555	0.13054	0.19479	0.010756	0.22456	0.039183	0.24013	-3.4771	-3.5479	-3.9437	-3.8354	-3.6521	-4.1271	-3.7667	-3.925	-3.8	-3.4958	-4.0208	-3.8583	-3.7062	-4.2271	-3.7562	-3.8271	344.981	240.392	91.099	416.270	196.688	260.934	113.197	388.365	403.981	277.814	340.880	146.137	160.509	357.222	364.979	361.405	0.00068257	0.00025927	0.00018127	622.19	2.4328e-06	3.2539e-06	705.93	233.11	3.8009e-06	1.962e-06	296.96	138.34	99.847	51.675	5.8152e-06	74.963	0.00024465	0.00022157	6.6918e-05	622.97	2.6718e-06	2.4634e-06	674.91	218.9	2.7491e-06	2.556e-06	266.14	116.23	83.61	40.349	2.9531e-06	57.098	93.416	198.049	126.750	91.199	308.005	414.939	90.555	96.579	371.288	136.382	94.816	98.771	100.640	104.916	188.213	101.629	-8191	255	
3168.089	1	1	0	0	0.14288	0.14036	0.31038	0.25078	0.096165	0.064153	0.17409	0.26227	0.15106	0.25392	0.31797	0.24672	0.22825	0.25766	0.14109	0.17956	-3.5417	-3.3312	-4.0062	-3.7771	-3.5542	-3.9938	-3.8292	-3.8479	-3.925	-3.5938	-4.0938	-4.1125	-3.4083	-4.0625	-3.5792	-3.8917	364.287	180.010	431.162	370.528	260.484	185.599	181.545	173.343	401.320	97.347	421.818	364.335	121.130	387.881	177.905	394.354	0.0015656	8.9103e-05	0.00019089	619.53	2.559e-06	2.6646e-06	706.28	232.8	3.8284e-06	1.6902e-06	295.98	136.62	98.983	51.429	2.7898e-06	73.845	0.00023912	0.00021803	7.0342e-05	608.81	2.4459e-06	2.3065e-06	673.33	213.61	2.4787e-06	2.4398e-06	266.58	113.97	82.529	40.421	3.2712e-06	56.823	79.588	276.798	131.800	91.630	285.085	212.902	90.375	96.481	355.063	260.687	94.485	98.784	100.834	104.861	202.207	101.725	-8191	255	
3168.185	1	1	0	0	0.07046	0.09176	0.23975	0.25659	0.1963	0.11055	0.14678	0.29121	0.1268	0.087991	0.22927	0.092079	0.174	0.12523	0.22855	0.044674	-3.7146	-3.6208	-3.8167	-4.0312	-3.5854	-4.0229	-3.85	-3.5812	-4.0479	-3.6104	-4.1146	-3.9896	-3.5938	-4.1354	-3.9833	-3.7417	383.056	353.277	174.421	408.651	95.969	81.461	354.711	423.679	185.076	343.843	400.587	407.243	90.903	177.099	263.992	83.048	0.0008151	0.00055527	0.00014333	617.41	1.396e-06	3.2842e-06	700.8	231.1	1.7157e-06	7.5379e-06	293.15	137.17	99.67	51.53	3.6177e-06	74.638	0.00025839	0.00025845	8.336e-05	619.04	2.6792e-06	2.7669e-06	688.61	213.64	2.5248e-06	2.6693e-06	265.32	112.24	80.649	40.385	2.8966e-06	55.789	81.904	129.233	156.418	91.512	401.707	212.051	90.565	96.791	282.243	187.848	94.449	98.886	100.664	104.683	375.558	101.635	-8191	255	
3168.281	1	1	0	0	0.040437	0.074264	0.13751	0.25585	0.1238	0.17239	0.11903	0.26149	0.21849	0.10242	0.15094	0.25211	0.18668	0.11096	0.24459	0.37108	-3.7562	-3.6042	-3.8792	-3.9083	-3.4667	-3.9708	-4.0396	-3.8083	-3.8917	-3.725	-3.7333	-4.0375	-3.8208	-4.0167	-3.85	-3.6792	133.267	318.548	434.066	354.052	136.823	291.372	200.889	374.938	91.001	156.440	322.675	312.613	129.985	393.839	234.949	405.615	0.00089441	0.00050191	6.142e-05	620.22	2.7587e-06	7.8305e-06	698.46	231.86	2.8371e-06	8.8903e-06	296.36	137.91	99.679	51.489	8.6995e-07	74.385	0.00022133	0.00024786	7.371e-05	602.4	2.4232e-06	2.8058e-06	680.08	212.31	2.4876e-06	2.8959e-06	265.09	112.57	81.38	41.06	2.8653e-06	55.885	86.926	113.903	410.298	91.815	251.771	155.264	90.341	96.511	234.558	166.622	94.553	98.647	100.677	104.768	321.922	101.565	-8191	255	
#DATA ENDS
