BOXY.EXE: ISS Imagent and Oximeter Data Acquisition Program Version 0.80
Ascii Record File

#ACQ INFORMATION
2  Detector Channels 
16  External MUX Channels 
1  Auxiliary Channels 
5000  Waveform (CCF) Frequency (Hz)
1  Waveforms Skipped 
30  Waveforms Averaged 
1  Cycles Averaged 
16  Acquisitions per Waveform 
10.0806  Updata Rate (Hz) 

#FILE INFORMATION
TRUE -- External MUX Channel results are PARSED.
FALSE -- AC DC and Phase are NOT grouped.
TRUE -- Companion Program Settings File CREATED.
FALSE -- AC data not excluded
FALSE -- DC data not excluded
FALSE -- Phase data not excluded
FALSE -- Auxillary Chn. data not excluded
Tab delimiters

#CALIBRATION STATE
TRUE -- Waveform Calibration Values APPLIED.


#AUX CALIBRATION VALUES
Val Type	aux-1	

Term	1.0000e+00	
Factor	0.0000e+00	


#WF CALIBRATION VALUES
A = Detector Channel
Val Type	A-AC1	A-AC2	A-AC3	A-AC4	A-AC5	A-AC6	A-AC7	A-AC8	A-AC9	A-AC10	A-AC11	A-AC12	A-AC13	A-AC14	A-AC15	A-AC16	A-DC1	A-DC2	A-DC3	A-DC4	A-DC5	A-DC6	A-DC7	A-DC8	A-DC9	A-DC10	A-DC11	A-DC12	A-DC13	A-DC14	A-DC15	A-DC16	A-Ph1	A-Ph2	A-Ph3	A-Ph4	A-Ph5	A-Ph6	A-Ph7	A-Ph8	A-Ph9	A-Ph10	A-Ph11	A-Ph12	A-Ph13	A-Ph14	A-Ph15	A-Ph16	

Term	0.00000e+00	0.00000e+00	0.00000e+00	0.00000e+00	0.00000e+00	0.00000e+00	0.00000e+00	0.00000e+00	0.00000e+00	0.00000e+00	0.00000e+00	0.00000e+00	0.00000e+00	0.00000e+00	0.00000e+00	0.00000e+00	0.00000e+00	0.00000e+00	0.00000e+00	0.00000e+00	0.00000e+00	0.00000e+00	0.00000e+00	0.00000e+00	0.00000e+00	0.00000e+00	0.00000e+00	0.00000e+00	0.00000e+00	0.00000e+00	0.00000e+00	0.00000e+00	0.00000e+00	0.00000e+00	0.00000e+00	0.00000e+00	0.00000e+00	0.00000e+00	0.00000e+00	0.00000e+00	0.00000e+00	0.00000e+00	0.00000e+00	0.00000e+00	0.00000e+00	0.00000e+00	0.00000e+00	0.00000e+00	
Factor	1.00000e+00	1.00000e+00	1.00000e+00	1.00000e+00	1.00000e+00	1.00000e+00	1.00000e+00	1.00000e+00	1.00000e+00	1.00000e+00	1.00000e+00	1.00000e+00	1.00000e+00	1.00000e+00	1.00000e+00	1.00000e+00	1.00000e+00	1.00000e+00	1.00000e+00	1.00000e+00	1.00000e+00	1.00000e+00	1.00000e+00	1.00000e+00	1.00000e+00	1.00000e+00	1.00000e+00	1.00000e+00	1.00000e+00	1.00000e+00	1.00000e+00	1.00000e+00	X	X	X	X	X	X	X	X	X	X	X	X	X	X	X	X	

B = Detector Channel
Val Type	B-AC1	B-AC2	B-AC3	B-AC4	B-AC5	B-AC6	B-AC7	B-AC8	B-AC9	B-AC10	B-AC11	B-AC12	B-AC13	B-AC14	B-AC15	B-AC16	B-DC1	B-DC2	B-DC3	B-DC4	B-DC5	B-DC6	B-DC7	B-DC8	B-DC9	B-DC10	B-DC11	B-DC12	B-DC13	B-DC14	B-DC15	B-DC16	B-Ph1	B-Ph2	B-Ph3	B-Ph4	B-Ph5	B-Ph6	B-Ph7	B-Ph8	B-Ph9	B-Ph10	B-Ph11	B-Ph12	B-Ph13	B-Ph14	B-Ph15	B-Ph16	

Term	0.00000e+00	0.00000e+00	0.00000e+00	0.00000e+00	0.00000e+00	0.00000e+00	0.00000e+00	0.00000e+00	0.00000e+00	0.00000e+00	0.00000e+00	0.00000e+00	0.00000e+00	0.00000e+00	0.00000e+00	0.00000e+00	0.00000e+00	0.00000e+00	0.00000e+00	0.00000e+00	0.00000e+00	0.00000e+00	0.00000e+00	0.00000e+00	0.00000e+00	0.00000e+00	0.00000e+00	0.00000e+00	0.00000e+00	0.00000e+00	0.00000e+00	0.00000e+00	6.09306e+01	-1.28867e+02	-1.24252e+02	-1.83791e+02	-7.10263e+01	-6.44181e+01	-1.55111e+02	-1.62015e+02	-5.97362e+01	-7.09102e+01	-1.70545e+02	-1.70268e+02	-1.83573e+02	-1.76953e+02	-6.30865e+01	-1.49760e+02	
Factor	6.88653e-05	1.99114e-04	5.52351e-05	1.82487e-01	2.78844e-06	2.19230e-06	1.74721e-01	5.94271e-02	3.46584e-06	1.87842e-06	9.44179e-02	3.29784e-02	3.44525e-02	1.09698e-02	2.67653e-06	1.53179e-02	1.06372e-05	1.32956e-05	3.69939e-06	9.20757e-02	1.38416e-07	1.48277e-07	8.30070e-02	2.99589e-02	1.38529e-07	1.47423e-07	4.64028e-02	1.61447e-02	1.73924e-02	5.58577e-03	1.42191e-07	7.57640e-03	X	X	X	X	X	X	X	X	X	X	X	X	X	X	X	X	



#DISTANCE SETTINGS
A = Detector Channel
A-1	A-2	A-3	A-4	A-5	A-6	A-7	A-8	A-9	A-10	A-11	A-12	A-13	A-14	A-15	A-16	

2.5000e+00	3.0000e+00	2.5000e+00	3.0000e+00	2.0000e+00	3.0000e+00	1.5000e+00	3.0000e+00	3.0000e+00	3.0000e+00	3.0000e+00	3.0000e+00	3.0000e+00	3.0000e+00	1.5000e+00	3.0000e+00	

B = Detector Channel
B-1	B-2	B-3	B-4	B-5	B-6	B-7	B-8	B-9	B-10	B-11	B-12	B-13	B-14	B-15	B-16	

1.0000e+01	1.0000e+01	1.0000e+01	1.4400e+00	1.0000e+01	1.0000e+01	1.5100e+00	1.9400e+00	1.0000e+01	1.0000e+01	1.9900e+00	2.4900e+00	2.4100e+00	2.9000e+00	1.0000e+01	2.9800e+00	




#DATA BEGINS
time	group	step	mark	flag	A-AC1	A-AC2	A-AC3	A-AC4	A-AC5	A-AC6	A-AC7	A-AC8	A-AC9	A-AC10	A-AC11	A-AC12	A-AC13	A-AC14	A-AC15	A-AC16	A-DC1	A-DC2	A-DC3	A-DC4	A-DC5	A-DC6	A-DC7	A-DC8	A-DC9	A-DC10	A-DC11	A-DC12	A-DC13	A-DC14	A-DC15	A-DC16	A-Ph1	A-Ph2	A-Ph3	A-Ph4	A-Ph5	A-Ph6	A-Ph7	A-Ph8	A-Ph9	A-Ph10	A-Ph11	A-Ph12	A-Ph13	A-Ph14	A-Ph15	A-Ph16	B-AC1	B-AC2	B-AC3	B-AC4	B-AC5	B-AC6	B-AC7	B-AC8	B-AC9	B-AC10	B-AC11	B-AC12	B-AC13	B-AC14	B-AC15	B-AC16	B-DC1	B-DC2	B-DC3	B-DC4	B-DC5	B-DC6	B-DC7	B-DC8	B-DC9	B-DC10	B-DC11	B-DC12	B-DC13	B-DC14	B-DC15	B-DC16	B-Ph1	B-Ph2	B-Ph3	B-Ph4	B-Ph5	B-Ph6	B-Ph7	B-Ph8	B-Ph9	B-Ph10	B-Ph11	B-Ph12	B-Ph13	B-Ph14	B-Ph15	B-Ph16	aux-1	digaux	

839.577	1	1	0	512	0.12933	0.089968	0.11061	0.19471	0.23849	0.10986	0.16319	0.21398	0.1885	0.14171	0.15674	0.29144	0.27183	0.1232	0.32571	0.045995	-2.5354	-2.8896	-2.9938	-3.2208	-2.9167	-3.0854	-2.8896	-2.8542	-3.1229	-2.8063	-2.9271	-3.0625	-2.8708	-3.0917	-2.975	-2.9021	264.590	347.506	208.885	285.965	66.879	348.322	8.653	19.511	241.954	309.668	271.199	16.552	21.569	325.689	40.543	315.043	0.0021568	0.0012554	0.00017442	949.94	8.6096e-06	1.0199e-05	1014.9	322.8	1.9532e-05	9.8813e-06	429.66	193.11	132.88	65.846	1.546e-05	112.66	0.0024941	0.0028077	0.00077578	949.16	2.91e-05	3.0601e-05	1010.1	324.43	2.8737e-05	3.0572e-05	433.13	194.31	134.18	66.605	2.9437e-05	113.52	333.286	102.532	50.037	19.198	172.687	137.878	19.386	24.798	187.913	186.345	23.773	27.945	28.990	32.380	198.085	31.171	-8191	255	
839.673	1	1	0	0	0.28032	0.25451	0.072694	0.10001	0.2487	0.018456	0.056734	0.28669	0.10848	0.21717	0.21195	0.24308	0.27089	0.18333	0.14965	0.25266	-2.5875	-2.8146	-2.925	-3.1104	-2.6167	-2.8208	-2.9875	-2.8292	-2.9938	-2.8396	-3.05	-3.1188	-2.9521	-3.0896	-2.9437	-2.9	7.911	103.491	101.914	193.810	233.447	59.008	345.970	299.786	171.910	344.339	257.355	353.539	355.418	349.432	253.849	321.680	0.0019671	0.001253	0.00015813	943.17	8.7934e-06	8.8185e-07	1002.3	321.23	2.0121e-06	6.4967e-06	427.25	192.68	132.22	65.782	1.8741e-05	112.05	0.002522	0.0027566	0.00077292	944.06	2.882e-05	3.0311e-05	1001.1	321.8	2.8434e-05	2.9861e-05	431.08	193.23	133.25	66.458	2.9259e-05	112.88	338.729	121.857	133.039	19.243	152.575	146.049	19.286	24.431	219.030	136.327	23.840	27.915	29.006	32.555	163.764	31.153	-8191	255	
839.767	1	1	0	0	0.12661	0.14292	0.11956	0.22574	0.10593	0.1819	0.21694	0.39113	0.21162	0.10404	0.22112	0.18669	0.14369	0.36096	0.12285	0.17757	-2.6083	-2.575	-2.6917	-3.1625	-2.9188	-3.0542	-3.0625	-2.7417	-2.9479	-2.875	-3.0042	-3.2125	-3.0104	-3.1188	-2.9	-2.9521	182.895	95.524	269.854	307.675	229.728	347.779	198.023	297.873	51.184	211.471	321.246	8.610	242.185	348.757	62.738	360.633	0.002104	0.0010101	0.0003349	935.49	6.6585e-06	9.0411e-06	1003.6	319.7	1.6369e-05	5.5539e-06	425.34	192.07	132.46	65.514	1.694e-05	111.84	0.0024822	0.0027728	0.00077276	939.82	2.9224e-05	3.0874e-05	999.67	321.69	2.9396e-05	3.0752e-05	429.88	192.96	133.64	66.364	3.009e-05	112.59	334.716	120.287	82.458	19.396	111.427	160.852	19.341	24.569	195.753	92.517	23.790	28.117	28.661	32.509	113.761	30.929	-8191	255	
839.864	1	1	0	0	0.26398	0.22016	0.076504	0.25862	0.11049	0.079473	0.22701	0.15236	0.33066	0.16435	0.28921	0.18185	0.21293	0.16345	0.073014	0.2893	-2.5833	-2.925	-2.6458	-3.3125	-3.0479	-2.9333	-3.2771	-2.8479	-3.1854	-2.9479	-2.9562	-3.3229	-2.8667	-2.9646	-3.0187	-3.1604	61.613	336.884	343.849	26.820	76.082	96.506	195.641	21.846	239.797	15.367	213.915	359.939	44.148	364.657	216.260	280.217	0.001973	0.0008337	0.00010539	941.51	1.6295e-05	8.0942e-06	1001.5	320.26	1.4793e-05	7.9915e-06	425.94	191.98	132.48	65.274	1.7078e-05	111.54	0.0024611	0.0027229	0.00077648	940.3	2.8703e-05	3.1183e-05	998.44	321.73	2.9879e-05	3.1207e-05	429.41	192.67	133.98	66.254	3.032e-05	112.42	336.261	120.335	78.469	19.301	135.469	199.638	19.263	24.583	153.880	131.110	23.755	28.019	28.830	32.482	147.200	31.017	-8191	255	
839.984	1	1	0	0	0.23555	0.23116	0.32589	0.092423	0.11033	0.078204	0.058376	0.09138	0.11438	0.11566	0.24887	0.10045	0.31642	0.17758	0.22496	0.21692	-2.6229	-3.0104	-2.6875	-3.2646	-3.0083	-2.8646	-3.1437	-2.7667	-3.1771	-2.9333	-2.7833	-3.0167	-2.9271	-2.9979	-2.9333	-3.0229	298.303	86.231	77.038	306.661	319.057	82.966	93.757	289.385	235.272	311.140	306.590	314.991	48.737	346.899	333.058	294.090	0.0018781	0.00094412	0.0001306	943.42	1.0309e-05	9.9557e-06	1002.5	322	1.0195e-05	9.4491e-06	426.31	192.97	131.28	65.486	1.1642e-05	111.91	0.0025818	0.0028694	0.00080238	944.43	2.9726e-05	3.171e-05	999.94	322.19	2.9629e-05	3.0646e-05	429.66	193.06	133.01	66.237	2.9857e-05	112.79	334.982	121.923	104.743	19.301	181.974	157.263	19.250	24.464	134.247	160.738	23.842	28.140	28.483	32.471	134.229	31.014	-8191	255	
840.056	1	1	0	0	0.1814	0.10396	0.13681	0.13392	0.28039	0.034275	0.046912	0.24152	0.12779	0.059653	0.19403	0.10709	0.22121	0.20242	0.13953	0.38978	-2.3417	-2.8979	-2.6542	-3.0917	-2.7417	-2.7854	-3.1792	-3.0062	-2.9917	-2.9271	-2.9521	-3.0417	-2.8	-2.775	-2.9313	-2.9646	334.193	109.430	103.488	255.622	236.543	230.543	252.922	223.564	203.633	51.577	54.728	11.330	63.320	91.471	139.358	311.032	0.0016973	0.00065705	7.9736e-05	944.03	1.1676e-05	8.726e-06	1004	322.76	1.3985e-05	7.1291e-06	428.38	193.39	132.92	65.694	1.3218e-05	112.62	0.0025157	0.0027684	0.00078538	944.47	2.9503e-05	3.1503e-05	1003.7	323.05	2.9251e-05	3.0815e-05	431.91	194.2	133.64	66.386	2.9354e-05	113.58	339.216	100.728	82.664	19.466	158.180	149.735	18.985	24.697	164.410	166.606	23.904	27.988	28.990	32.648	160.469	31.130	-8191	255	
840.152	1	1	0	0	0.17463	0.23029	0.13859	0.2803	0.32914	0.22665	0.16862	0.1122	0.10034	0.088927	0.25703	0.33502	0.15943	0.31338	0.18726	0.076497	-2.3542	-3.1104	-2.7146	-3.0979	-2.9042	-2.9417	-3.2271	-2.8958	-2.9271	-3.1229	-2.875	-3.0604	-2.9708	-2.9417	-3.0708	-2.9313	102.025	140.872	269.009	351.733	151.120	207.726	191.092	230.610	127.902	123.047	343.892	14.235	339.885	20.471	256.781	270.588	0.0019234	0.00070933	0.00022631	945.69	1.7282e-05	6.0129e-06	1008.8	322.52	1.7451e-05	5.9693e-06	430.1	193.11	131.99	65.219	1.3725e-05	111.17	0.0024784	0.0026908	0.00075874	946.17	2.8207e-05	3.0416e-05	1007.9	322.9	2.8966e-05	2.9855e-05	432.68	193.73	133.39	65.986	2.9565e-05	112.27	336.213	92.600	116.726	19.149	176.072	204.102	19.361	24.458	211.478	164.304	23.640	28.085	28.670	32.734	161.369	31.260	-8191	255	
840.273	1	1	0	0	0.13406	0.22442	0.18901	0.060945	0.13191	0.16127	0.1708	0.26573	0.11945	0.047966	0.2263	0.34058	0.26844	0.11126	0.10615	0.2884	-2.4771	-2.8667	-2.8479	-3.0708	-2.8167	-2.7729	-3.2479	-3.1875	-2.8979	-2.9875	-2.6646	-2.9375	-3.0125	-2.7479	-2.8375	-3.0896	226.383	303.120	198.883	16.432	161.974	219.455	310.841	344.504	303.417	333.132	94.695	304.471	361.119	344.500	96.733	297.707	0.0020255	0.00051014	0.00026492	950.85	6.6887e-06	9.0752e-06	1001.1	320.86	1.937e-05	1.0284e-05	422.35	188.41	129.58	64.123	9.4752e-06	109.19	0.0024898	0.0026603	0.00074272	950.14	2.798e-05	2.9789e-05	1000.4	320.78	2.7705e-05	2.8859e-05	425.4	189.49	131.04	64.861	2.8545e-05	110.18	335.768	69.583	80.176	19.213	14.793	150.591	19.235	24.585	155.307	131.819	23.824	27.994	28.873	32.577	190.576	31.270	-8191	255	
840.369	1	1	0	0	0.31635	0.093432	0.13009	0.16793	0.19663	0.14173	0.29086	0.11626	0.077498	0.029341	0.40008	0.43823	0.043641	0.42408	0.17856	0.31778	-2.1292	-3.0312	-2.9229	-2.8667	-3.0917	-2.9354	-3.1312	-3.0354	-2.95	-3.2042	-3.0083	-3.1688	-2.9979	-2.8312	-3.0583	-2.8708	178.365	247.456	166.601	366.486	119.357	34.989	201.395	345.177	267.137	358.518	32.996	327.522	209.982	291.862	189.216	326.043	0.0019528	0.00088786	5.4422e-05	946.1	1.2263e-05	1.0994e-05	995.45	320.08	1.6253e-05	9.1135e-06	420.06	188.83	129.47	64.159	1.1678e-05	109.19	0.0024394	0.0026924	0.00075168	946	2.7961e-05	3.0044e-05	994.15	320.07	2.8533e-05	2.9725e-05	423.77	189.46	131.03	64.69	2.786e-05	110.01	333.712	96.631	65.840	19.248	200.962	157.530	19.434	24.663	167.816	126.238	23.380	27.957	28.779	32.461	145.707	30.917	-8191	255	
840.465	1	1	0	0	0.19627	0.091381	0.097211	0.18788	0.19273	0.16326	0.15171	0.29721	0.084997	0.28821	0.39829	0.13215	0.32442	0.23806	0.19418	0.12003	-2.4396	-2.9479	-3.075	-2.9479	-2.975	-2.875	-3.1979	-2.8104	-2.7938	-3.0187	-2.8229	-3.0771	-3.225	-2.8438	-2.7917	-3.0583	10.960	87.991	111.379	357.860	146.733	214.348	316.375	308.650	200.295	360.427	334.857	319.155	14.001	9.124	108.957	276.684	0.0018392	0.0007985	0.00017213	940.89	1.5588e-05	9.5306e-06	998.08	316.95	1.4193e-05	8.2655e-06	421.14	188.16	129.63	64.172	9.9796e-06	109.06	0.0023807	0.0026173	0.00072553	941.09	2.739e-05	2.9428e-05	992.51	318.4	2.8022e-05	2.9024e-05	423.32	189.58	131.19	64.841	2.8582e-05	110.12	338.818	85.896	83.501	19.615	168.215	156.286	19.304	24.465	241.663	96.182	23.582	27.962	28.756	32.528	209.778	30.993	-8191	255	
840.561	1	1	0	0	0.16986	0.071568	0.10388	0.14568	0.19988	0.21092	0.45059	0.34399	0.17348	0.045822	0.24573	0.20748	0.028927	0.20985	0.19257	0.29023	-2.3479	-2.9083	-2.9208	-2.8896	-3.0333	-3.0187	-3.1083	-3.1229	-2.8396	-2.9125	-3.0292	-2.9479	-3.3271	-2.9229	-2.8917	-3.2792	364.741	221.094	319.782	318.704	299.924	50.703	322.237	278.560	156.844	55.264	21.855	334.367	138.166	229.291	284.710	329.084	0.0018232	0.00025688	0.00018532	938.07	1.6904e-05	9.2923e-06	999.51	317.34	1.0805e-05	1.0812e-05	422.22	189.14	129.37	63.874	8.2388e-06	109.31	0.0023703	0.00257	0.00071384	939.89	2.6988e-05	2.8977e-05	993.02	318.51	2.721e-05	2.8446e-05	424.79	189.6	130.93	64.534	2.7702e-05	109.97	332.689	113.873	144.281	19.131	175.268	165.156	19.044	24.505	164.321	142.478	23.768	27.983	28.924	32.342	198.903	31.183	-8191	255	
840.657	1	1	0	0	0.12771	0.18432	0.14928	0.16231	0.14309	0.12553	0.12438	0.18994	0.19763	0.10535	0.093558	0.13362	0.15017	0.36785	0.089253	0.10795	-2.4167	-2.9917	-3.0729	-3.0042	-3.0229	-2.7687	-2.85	-3.1958	-2.825	-2.875	-2.9604	-2.9021	-3.1417	-3.0625	-2.9354	-3.2479	342.471	53.653	189.813	78.425	7.024	334.416	317.944	320.081	199.865	338.919	15.993	339.116	235.901	360.045	297.821	251.908	0.0018786	0.00074607	0.00039361	943.62	1.6374e-05	5.0261e-06	1002.4	319.3	1.8728e-05	9.8473e-06	421.43	189.32	129.43	63.936	1.5646e-05	109.74	0.0023229	0.002513	0.00070331	943.28	2.6449e-05	2.8241e-05	996.39	319.34	2.6311e-05	2.7491e-05	424.06	189.85	130.81	64.6	2.7235e-05	110.51	337.738	138.562	77.149	19.247	143.533	153.246	19.157	24.685	188.227	156.645	23.588	28.032	28.740	32.382	166.606	30.998	-8191	255	
840.753	1	1	0	0	0.076477	0.2263	0.058804	0.28232	0.1087	0.25339	0.069566	0.16226	0.16577	0.14555	0.19622	0.22466	0.20923	0.36111	0.075296	0.19551	-2.4062	-2.9958	-2.7625	-2.9771	-2.8896	-2.8917	-3.025	-3.0854	-2.8833	-2.8937	-3.0458	-2.6854	-3.0229	-3.1458	-2.9083	-3.2583	62.446	114.797	168.715	320.424	337.177	284.757	303.145	353.140	302.694	95.521	361.129	96.484	301.591	347.309	11.084	341.481	0.0017901	0.00062355	0.00022075	946.95	1.4863e-05	1.0484e-05	1004.4	319.95	1.4775e-05	1.1551e-05	425.51	190.69	130.49	64.348	9.127e-06	110.81	0.0022806	0.0025133	0.00069081	946.26	2.6736e-05	2.7647e-05	1000.6	320.7	2.6507e-05	2.7679e-05	428.06	191.48	131.6	64.903	2.6839e-05	111.43	337.791	73.968	52.897	19.248	166.169	108.609	19.135	24.566	182.648	110.525	23.578	28.074	28.874	32.458	176.428	31.226	-8191	255	
840.850	1	1	0	0	0.17806	0.11849	0.075299	0.14046	0.22626	0.23263	0.1152	0.19	0.021502	0.1096	0.15992	0.13042	0.096939	0.059219	0.14958	0.26197	-2.55	-2.7625	-3.0771	-2.9458	-2.8792	-2.95	-2.8646	-3.2333	-2.8646	-3.0333	-3.2062	-3.0479	-3.1625	-3.0354	-2.6896	-3.2188	165.767	120.020	120.896	334.432	65.889	80.460	287.946	13.091	124.323	79.697	294.044	28.669	130.208	275.536	280.148	315.707	0.0019113	0.00096588	0.00031138	948.26	1.391e-05	8.3502e-06	1008.4	319.9	7.2396e-06	5.8489e-06	425.03	190.73	130.32	64.216	4.2907e-06	110.05	0.0022474	0.0024796	0.00067014	948.71	2.5658e-05	2.7218e-05	1004.3	320.67	2.5948e-05	2.7438e-05	427.18	191.05	131.21	64.741	2.6739e-05	110.76	330.696	93.151	117.043	19.106	168.493	176.751	19.279	24.570	190.099	164.968	23.902	28.080	29.043	32.410	131.786	31.235	-8191	255	
840.946	1	1	0	0	0.16167	0.17343	0.13312	0.18759	0.21639	0.28999	0.17254	0.11148	0.11367	0.14778	0.067303	0.14679	0.040132	0.37834	0.13228	0.20076	-2.2083	-2.9167	-3.0292	-2.7812	-2.9646	-2.9333	-2.8563	-3.0938	-3.0458	-2.8979	-3.1521	-2.7562	-3.0854	-3.1833	-2.8333	-3.2812	201.006	70.571	221.528	346.555	136.518	293.937	327.263	258.146	60.871	335.818	68.266	297.853	300.800	267.771	281.606	341.493	0.001905	0.0010795	0.0002635	945.6	8.4068e-06	9.813e-06	1002.4	317.23	1.7829e-05	8.9435e-06	421.31	188.89	128.85	63.511	6.2012e-06	108.67	0.0022174	0.0024732	0.00068657	942.82	2.557e-05	2.7206e-05	996.41	318.42	2.5753e-05	2.6952e-05	423.58	189.04	129.96	64.09	2.6305e-05	109.14	335.604	90.091	111.989	19.373	153.838	118.461	18.783	24.443	166.686	136.762	23.667	27.927	28.871	32.691	183.586	31.109	-8191	255	
841.065	1	1	0	0	0.10913	0.21079	0.1138	0.23713	0.16661	0.08775	0.23555	0.19894	0.18531	0.16658	0.11087	0.30355	0.066754	0.21836	0.10079	0.098886	-2.5812	-2.7146	-3.0604	-2.8063	-3.0729	-3.0396	-2.8979	-3.1375	-2.8854	-2.8875	-3.0979	-2.9042	-3.0812	-3.1104	-2.6354	-3.2229	189.941	250.833	277.846	297.191	225.446	78.235	303.278	296.753	36.198	294.442	333.263	273.832	69.962	319.456	199.406	30.165	0.0018833	0.00037579	0.00028531	938.28	1.2262e-05	1.0451e-05	994.06	315.82	1.4645e-05	6.0791e-06	419.19	188.19	129.17	63.433	9.7479e-06	108.25	0.0022097	0.0024154	0.00066994	937.78	2.5496e-05	2.7114e-05	989.84	316.91	2.5431e-05	2.69e-05	421.25	188.51	130.15	64.004	2.6812e-05	108.97	338.256	73.759	92.568	19.170	164.104	165.216	19.312	24.476	164.160	175.150	23.380	27.940	28.632	32.580	166.787	30.954	-8191	255	
841.161	1	1	0	0	0.12686	0.21562	0.15429	0.089584	0.15899	0.1819	0.24902	0.41697	0.2482	0.2273	0.28942	0.15736	0.04963	0.22293	0.097499	0.11615	-2.4729	-2.7125	-3.0729	-2.9437	-2.9417	-3.1271	-2.8396	-2.9479	-2.95	-2.6354	-3.2292	-2.8667	-3.0125	-3.0604	-2.8125	-3.0375	202.161	238.745	46.863	231.049	128.739	105.995	219.125	324.019	142.956	341.856	318.870	294.746	305.815	36.813	207.618	233.021	0.0018998	0.000814	0.00034101	940.43	1.429e-05	1.1268e-05	994.98	316.59	1.6894e-05	9.5838e-06	421.31	187.5	128.65	63.538	5.2136e-06	108.67	0.0021929	0.0024443	0.00067779	937.79	2.5582e-05	2.6948e-05	988.96	316.9	2.5177e-05	2.6945e-05	422.05	188.4	129.91	64.085	2.629e-05	109.42	334.407	83.086	84.611	19.251	207.518	134.613	19.288	24.845	175.710	153.914	23.876	27.999	28.784	32.537	151.768	31.044	-8191	255	
841.257	1	1	0	0	0.11665	0.15915	0.046414	0.049367	0.06815	0.18265	0.21454	0.13343	0.2052	0.34474	0.29619	0.31096	0.2232	0.40437	0.19136	0.30724	-2.4792	-2.7104	-2.9458	-3.0583	-2.7938	-3.125	-2.9854	-2.9708	-2.8854	-2.7771	-3.0625	-3.1542	-2.9062	-3.2021	-2.8708	-3.0375	173.047	183.757	274.461	156.052	130.375	336.332	293.998	321.613	101.306	193.319	298.629	356.490	334.551	323.000	35.478	288.038	0.0020021	0.0009099	0.00014627	939.96	1.095e-05	4.9956e-06	998.8	318.82	1.1113e-05	4.6877e-06	421.68	190.12	129.09	64.043	9.8556e-06	109.73	0.0021959	0.0024348	0.00068103	939.26	2.5785e-05	2.6747e-05	993.18	318.51	2.504e-05	2.7331e-05	424.61	190.47	130.6	64.723	2.6164e-05	110.53	339.886	90.277	124.282	19.353	177.122	215.751	19.200	24.378	169.468	166.614	23.526	27.919	28.804	32.612	149.145	31.040	-8191	255	
841.353	1	1	0	0	0.21019	0.051203	0.065217	0.2176	0.16033	0.2768	0.10707	0.29368	0.15998	0.19902	0.17156	0.20498	0.11407	0.069147	0.11632	0.22061	-2.6417	-2.8729	-3.225	-3.0104	-2.8563	-3.0792	-2.9646	-2.9604	-2.8542	-2.7125	-3.1	-3.0083	-2.8688	-3.1625	-2.8271	-3.0729	364.659	57.246	19.569	291.597	134.685	12.954	259.933	16.095	10.901	184.424	219.132	43.359	310.951	145.770	323.606	334.247	0.0018768	0.00076842	0.00029471	938.64	6.83e-06	7.2961e-06	1001.2	319.21	9.3493e-06	5.3889e-06	423.91	189.44	130.52	63.743	1.1801e-05	110.48	0.0021511	0.0024264	0.00066549	939.7	2.5379e-05	2.6592e-05	996.18	318.84	2.5144e-05	2.6796e-05	425.86	190.61	130.99	64.542	2.5899e-05	111.04	332.551	81.316	70.152	19.199	168.972	121.904	19.256	24.649	197.546	127.868	23.629	28.010	28.694	32.423	156.782	31.015	-8191	255	
841.449	1	1	0	0	0.10757	0.16164	0.26068	0.17541	0.19626	0.17314	0.23959	0.24139	0.23853	0.047515	0.23742	0.15174	0.34384	0.19493	0.098185	0.22119	-2.6437	-2.7562	-2.925	-3.1479	-2.5833	-3.0146	-2.9167	-3.0042	-3.1208	-2.7521	-3.0563	-3.1021	-2.7667	-3.1479	-2.7687	-3.0625	87.306	175.358	65.487	8.714	40.701	322.695	302.786	254.846	336.766	151.511	254.605	323.615	298.854	361.330	263.130	342.335	0.001879	0.00036198	7.2409e-05	945.51	1.535e-05	5.4869e-06	1005	319.18	1.8016e-05	2.6721e-06	425.16	190.9	129.5	64.008	1.1577e-05	110.21	0.0022035	0.0024341	0.00066704	944.51	2.5417e-05	2.6529e-05	1000.6	319.93	2.5082e-05	2.7196e-05	427	191.02	130.88	64.621	2.6116e-05	110.86	331.501	100.994	148.144	19.534	167.699	104.574	19.521	24.675	192.101	256.658	23.691	27.915	28.695	32.445	183.699	31.270	-8191	255	
841.545	1	1	0	0	0.16285	0.060012	0.29537	0.25642	0.075687	0.21375	0.25743	0.20678	0.17736	0.11538	0.19517	0.42623	0.095524	0.46202	0.17854	0.30868	-2.5667	-2.7771	-2.9854	-2.9292	-2.7	-2.9729	-2.9875	-2.9375	-2.9708	-2.8083	-3.0396	-2.9229	-2.9562	-3.2687	-2.9458	-2.9667	121.232	150.432	279.228	10.036	46.801	46.072	298.322	226.095	274.426	39.380	7.812	309.561	6.720	9.276	16.550	316.534	0.0021169	0.0003213	0.00023592	950.76	6.8437e-06	8.4131e-06	1000.4	318.59	1.306e-05	6.6772e-06	420.19	187.72	128.6	63.044	1.4903e-05	108.37	0.0022189	0.0024303	0.00067367	947.65	2.5488e-05	2.6626e-05	996.27	318.46	2.5144e-05	2.6281e-05	422.45	188.08	129.34	63.692	2.5166e-05	108.73	337.333	95.929	114.258	19.256	221.051	201.381	19.263	24.542	190.991	144.584	23.631	27.961	28.873	32.519	153.580	31.097	-8191	255	
841.666	1	1	0	0	0.080446	0.16786	0.17646	0.34126	0.16333	0.06052	0.18677	0.18378	0.20705	0.037748	0.33291	0.13903	0.2473	0.33643	0.14606	0.21092	-2.7292	-2.8875	-3.1	-3.0687	-2.6854	-3.0667	-3.0292	-2.9771	-3.0438	-2.9479	-2.9708	-3.1354	-2.7104	-3.3729	-3.1542	-3.1437	144.392	22.013	228.830	320.191	70.949	54.650	334.975	231.659	171.166	312.432	326.722	334.400	302.033	12.933	200.921	306.862	0.0017811	0.00075796	0.00021879	945.44	1.6125e-05	1.1299e-05	997.18	317.78	1.5555e-05	5.4563e-06	416.93	187.04	128.39	63.164	8.3729e-06	107.51	0.0021291	0.00234	0.00065557	941.24	2.5032e-05	2.5984e-05	989.31	317.49	2.5061e-05	2.6056e-05	419.74	187.55	129.24	63.615	2.5129e-05	108.14	331.966	116.708	112.905	19.093	180.028	152.778	19.031	24.401	180.464	176.412	23.779	28.080	28.682	32.544	129.551	31.165	-8191	255	
841.760	1	1	0	0	0.25504	0.090119	0.33444	0.12261	0.11201	0.047514	0.11547	0.18318	0.14521	0.22546	0.32297	0.27513	0.23013	0.10611	0.028043	0.20616	-2.5812	-2.8354	-2.8604	-3.1813	-2.7333	-2.9896	-3.0458	-2.7146	-2.9333	-2.8792	-3.0292	-3.275	-3.0833	-3.0604	-3.0917	-2.9896	229.278	227.416	59.290	328.870	43.641	320.960	356.605	292.498	99.620	154.028	314.481	326.309	280.179	351.717	212.680	65.383	0.0020089	0.00066375	0.00013243	939.72	5.7949e-06	8.7794e-06	994.15	315.73	1.2302e-05	1.1171e-05	419.14	187.26	128.37	63.014	4.1887e-06	107.31	0.0021501	0.0023269	0.0006472	939.33	2.4502e-05	2.6282e-05	986.58	316.03	2.4466e-05	2.5627e-05	419.48	187	129.41	63.611	2.4912e-05	108.3	330.219	121.655	102.981	19.212	124.796	136.918	19.124	24.422	174.665	161.667	23.837	27.995	28.955	32.545	200.197	30.973	-8191	255	
841.856	1	1	0	0	0.35592	0.1333	0.25958	0.097607	0.14278	0.23765	0.1764	0.10128	0.12705	0.093998	0.037363	0.098507	0.09752	0.21728	0.10542	0.24955	-2.6604	-2.8333	-2.7313	-3.1688	-2.7667	-2.9333	-3.0292	-3.0104	-3.1417	-2.7917	-2.9833	-3.1125	-2.7667	-2.9479	-3.0167	-2.9896	138.217	328.781	223.711	232.904	352.582	307.423	344.127	341.296	92.097	214.251	21.874	362.394	250.100	326.312	48.468	294.977	0.0019454	0.00093002	0.00023428	943.92	4.7135e-06	3.1263e-06	995.94	317.43	1.3602e-05	5.6877e-06	418.92	187.2	128.27	62.752	1.1512e-05	107.49	0.0021168	0.0023255	0.00064921	940.16	2.4387e-05	2.5886e-05	990.05	317.2	2.4296e-05	2.5714e-05	419.58	187.14	129.21	63.292	2.5183e-05	108.09	332.486	97.576	124.741	19.313	208.299	64.531	19.011	24.581	138.860	129.071	23.540	28.121	28.941	32.503	166.216	31.240	-8191	255	
841.928	1	1	0	0	0.1668	0.29885	0.107	0.068217	0.12646	0.079724	0.23945	0.2673	0.13135	0.15067	0.25686	0.11114	0.088462	0.21529	0.057474	0.24928	-2.6417	-2.8937	-2.5854	-3.3438	-2.7896	-2.7708	-3.0563	-2.8479	-3.1875	-3.0062	-2.9083	-3.1125	-2.8167	-2.8979	-3.1104	-2.8458	297.529	32.642	342.202	297.838	51.296	293.139	351.413	179.753	153.609	24.988	344.097	92.251	75.068	285.987	220.862	338.474	0.0020578	0.00097419	0.00023391	946.36	5.6003e-06	8.9785e-06	996.47	316.73	1.3149e-05	5.9956e-06	417.27	187.02	127.94	62.815	6.2177e-06	108.05	0.0021483	0.0023155	0.00066434	944.94	2.4208e-05	2.5876e-05	990.55	317.19	2.4198e-05	2.5229e-05	419.9	186.94	129.02	63.324	2.4999e-05	108.58	332.235	98.728	94.635	19.223	128.993	159.837	19.407	24.522	144.105	156.420	23.707	27.991	28.773	32.589	182.216	31.136	-8191	255	
842.049	1	1	0	0	0.18932	0.1106	0.29804	0.22533	0.11501	0.060419	0.12968	0.16073	0.038343	0.19356	0.11741	0.14437	0.34455	0.2516	0.24276	0.14246	-2.5375	-2.9083	-2.5604	-3.125	-2.9188	-3.0021	-3.2021	-2.7979	-2.9917	-3.05	-2.8063	-3.2521	-2.7354	-2.7708	-3.1646	-3.0083	201.790	267.314	96.782	349.815	79.839	139.186	282.196	306.926	254.165	126.916	305.761	103.614	41.584	239.221	146.187	211.978	0.0019837	0.0005842	0.00028322	948.66	1.7107e-05	4.849e-06	1001.8	319.28	2.1258e-05	5.1647e-06	421.99	188.99	128.92	63.25	1.4081e-05	108.45	0.0021406	0.0022856	0.00065465	948.06	2.4156e-05	2.5891e-05	998.13	319.09	2.4716e-05	2.5502e-05	423.71	188.97	129.87	63.874	2.5107e-05	109.5	336.956	55.542	99.840	19.433	165.927	112.923	19.181	24.618	140.613	99.368	23.519	28.228	28.807	32.668	175.746	31.180	-8191	255	
842.145	1	1	0	0	0.1375	0.38873	0.10653	0.1064	0.23047	0.30172	0.099533	0.15047	0.13054	0.18104	0.13457	0.31106	0.13048	0.066328	0.19636	0.042	-2.4896	-2.95	-2.6417	-3.1354	-3	-2.8688	-3.3438	-3.0458	-2.9292	-3.1479	-2.7521	-3.0208	-2.9271	-2.7958	-3.0875	-3.1021	350.168	105.801	195.648	38.865	131.629	221.558	36.738	323.341	305.638	259.457	114.376	332.421	156.588	32.711	223.490	264.124	0.0018272	0.00055561	0.00010133	953.34	1.3868e-05	1.0739e-05	1004.5	319.75	1.0946e-05	6.5157e-06	422.93	187.35	128.49	62.779	2.993e-06	107.93	0.0021507	0.0023381	0.0006601	950.14	2.4116e-05	2.6758e-05	1002.4	319.75	2.4524e-05	2.5974e-05	423.29	187.78	129.44	63.346	2.5309e-05	108.33	338.811	136.636	101.677	19.252	171.679	167.871	19.293	24.708	178.786	163.841	23.837	28.057	28.778	32.547	204.762	31.028	-8191	255	
842.241	1	1	0	0	0.23422	0.13656	0.17382	0.20023	0.068776	0.1872	0.14984	0.134	0.21088	0.13716	0.15327	0.20237	0.072766	0.093207	0.10004	0.10999	-2.4167	-3.2104	-2.5958	-3.2188	-2.9292	-2.8229	-3.0812	-3.0542	-2.9396	-3.0417	-2.8021	-2.9396	-2.9708	-2.8271	-3.2292	-2.8792	134.100	198.215	296.148	353.912	100.415	346.135	281.005	179.644	171.817	192.170	333.458	322.246	316.185	290.583	182.742	352.701	0.0018693	0.00095291	0.00033258	948.12	1.3606e-05	1.3348e-05	998.1	316.94	1.5622e-05	5.4122e-06	413.66	185.08	127	61.846	1.6591e-05	105.43	0.0020867	0.0023326	0.00063695	944.74	2.3256e-05	2.5651e-05	991.16	316.78	2.3831e-05	2.5102e-05	416.49	184.83	127.71	62.415	2.4465e-05	106.13	333.845	83.348	78.760	19.285	114.820	167.014	19.285	24.531	173.878	173.905	23.651	28.195	28.754	32.503	166.746	31.048	-8191	255	
842.337	1	1	0	0	0.16749	0.15175	0.18262	0.31324	0.13462	0.1326	0.1656	0.24768	0.043643	0.18889	0.34106	0.25778	0.33271	0.17553	0.30291	0.08748	-2.5521	-2.8875	-2.7729	-2.9292	-2.9208	-2.9313	-3.1583	-2.9458	-2.7708	-3.0521	-2.8812	-2.9437	-3.0979	-2.8917	-3.2375	-3.0167	224.114	168.042	195.179	288.613	21.669	65.214	362.994	45.055	206.381	241.718	339.914	293.621	319.933	313.820	212.651	252.917	0.0019471	0.00091673	0.00021782	945.02	1.0901e-05	4.0729e-06	989.37	314.75	1.7694e-05	4.8047e-06	414.78	183.8	127.02	61.8	9.7058e-06	105.45	0.0020936	0.0022596	0.00063062	942.9	2.346e-05	2.5934e-05	984.16	314.96	2.4017e-05	2.5135e-05	415.6	183.97	127.75	62.287	2.4927e-05	105.88	335.590	73.774	106.556	19.179	145.527	114.518	19.038	24.340	174.183	126.355	23.741	28.036	28.823	32.608	194.660	31.049	-8191	255	
842.458	1	1	0	0	0.31133	0.26178	0.26427	0.16357	0.15693	0.049421	0.23297	0.25913	0.084895	0.0071459	0.13616	0.094947	0.30822	0.21388	0.11625	0.17357	-2.5167	-2.8708	-2.8542	-2.875	-2.9854	-2.8792	-3.0687	-2.9583	-2.8896	-3.0333	-2.9417	-2.9375	-3.0104	-2.8	-2.9062	-2.975	129.070	311.097	112.300	22.000	58.347	33.300	246.270	340.171	55.764	260.770	47.121	259.799	361.110	17.442	353.008	294.244	0.0016688	0.00049124	0.0002273	944.35	1.5292e-05	9.8885e-06	989.11	315.36	1.2921e-05	6.366e-06	411.71	182.12	126.17	61.441	9.4913e-06	104.66	0.0020913	0.0022635	0.00062967	943.22	2.3864e-05	2.5616e-05	984.34	314.61	2.4219e-05	2.4837e-05	413.65	182.76	127.17	61.902	2.4103e-05	105.29	331.725	104.124	97.142	19.311	147.356	175.110	19.015	24.495	200.115	126.681	23.615	28.117	28.741	32.599	157.628	31.104	-8191	255	
842.530	1	1	0	0	0.29785	0.073577	0.09808	0.34744	0.095588	0.20129	0.074307	0.49064	0.20213	0.28764	0.090529	0.12925	0.20778	0.15154	0.18068	0.21742	-2.4292	-3.0708	-2.7417	-3	-3.0604	-2.7917	-3.0917	-3.0417	-2.7667	-3.1333	-3.0271	-2.9854	-3.1896	-2.8625	-2.9729	-3.2042	11.763	350.421	191.766	307.983	147.231	15.064	118.426	313.336	121.699	318.155	50.199	102.210	336.433	301.177	329.843	340.190	0.0017102	0.0011401	9.5473e-05	948.7	8.1182e-06	4.5145e-06	996.75	315.44	1.866e-05	5.7907e-06	415.35	183.23	126.76	61.354	7.9664e-06	104.78	0.0021055	0.002256	0.00061784	946.52	2.383e-05	2.5147e-05	988.41	315.62	2.394e-05	2.4708e-05	414.65	183.34	127.41	61.837	2.3888e-05	105.37	343.045	102.237	136.622	19.311	156.680	153.226	19.152	24.659	153.523	182.427	23.597	28.178	28.782	32.452	150.765	31.029	-8191	255	
842.626	1	1	0	0	0.12012	0.17764	0.18156	0.093038	0.24684	0.16083	0.22229	0.11773	0.18583	0.22597	0.34801	0.16016	0.21628	0.24778	0.075538	0.20269	-2.2333	-3.0375	-2.725	-3.025	-2.9729	-2.7958	-3.0479	-2.8812	-2.825	-3.0271	-3.1375	-2.9042	-3.0104	-2.9125	-2.9396	-3.1188	311.771	15.375	31.083	107.016	182.229	104.502	193.981	280.077	311.428	289.733	57.893	360.058	322.610	297.299	325.523	12.786	0.0018608	0.00088986	0.00018437	950.4	8.6235e-06	6.332e-06	996.17	316.06	4.034e-06	9.567e-06	413.91	184.81	127.57	61.504	1.0342e-05	105.02	0.0020582	0.0022243	0.00060615	947.68	2.3187e-05	2.4463e-05	990.26	316.5	2.3491e-05	2.4593e-05	415.82	184.62	127.81	61.972	2.3596e-05	105.89	338.969	102.893	75.089	19.360	186.111	140.246	19.108	24.631	166.362	137.208	23.707	28.128	28.812	32.559	149.156	30.936	-8191	255	
842.746	1	1	0	0	0.071277	0.16907	0.054475	0.18747	0.12374	0.16099	0.24376	0.14435	0.14599	0.18081	0.1178	0.25734	0.30228	0.11429	0.292	0.12301	-2.425	-2.8583	-2.8542	-2.8396	-2.9104	-2.9292	-3.025	-3.1208	-2.6021	-2.9458	-2.9313	-3.025	-3.075	-2.9625	-2.8417	-3.25	47.610	230.080	158.618	327.007	241.465	75.400	31.952	358.525	366.645	74.469	34.194	34.199	308.966	305.766	47.284	263.126	0.001596	0.00066108	0.00024552	951.15	7.1292e-06	1.0768e-05	1003.3	317.46	1.4163e-05	4.2541e-06	416.4	185.86	127.94	61.976	7.2854e-06	106.24	0.002047	0.0022189	0.00059902	949.62	2.3256e-05	2.4359e-05	996	316.95	2.3715e-05	2.4237e-05	418.82	185.75	128.64	62.412	2.457e-05	106.89	336.720	103.738	118.955	19.401	207.278	136.085	19.250	24.684	140.055	165.806	23.824	28.157	28.946	32.601	193.811	31.101	-8191	255	
842.841	1	1	0	0	0.1292	0.18775	0.36173	0.2382	0.07968	0.13074	0.2399	0.39524	0.059943	0.2267	0.13419	0.17929	0.13469	0.049538	0.11245	0.11383	-2.4646	-2.9917	-2.8396	-2.8	-3.0417	-2.9833	-2.9667	-3.0167	-2.8187	-2.9708	-3.0687	-2.8896	-3.2542	-2.8896	-2.7521	-3.2375	217.003	182.170	296.321	358.770	295.541	70.526	310.508	362.336	159.853	95.850	83.009	359.970	345.114	212.593	104.089	296.677	0.001892	0.0011286	6.8618e-05	955.77	9.5034e-06	4.185e-06	1004.3	315.87	1.3948e-05	8.7363e-06	412.8	182.89	126.13	60.878	6.2409e-06	103.98	0.0020616	0.0022268	0.00061328	953.56	2.3198e-05	2.4304e-05	994.38	315.98	2.3273e-05	2.4191e-05	414.66	183.11	126.99	61.452	2.4392e-05	104.79	336.082	102.105	75.575	19.269	168.656	171.625	19.248	24.401	185.090	174.836	23.548	28.333	28.541	32.733	145.127	31.282	-8191	255	
842.939	1	1	0	0	0.11	0.14495	0.15558	0.24626	0.10481	0.056097	0.46676	0.060741	0.15199	0.26194	0.29217	0.024056	0.16753	0.13911	0.102	0.18681	-2.5229	-2.8792	-2.9708	-2.9854	-3.0708	-2.9271	-2.8708	-3.0167	-2.7396	-2.7958	-2.9333	-2.8146	-3.025	-3.0021	-2.5667	-3.2042	269.911	18.399	255.518	315.371	316.427	107.554	357.211	107.555	345.029	13.401	124.074	237.069	62.963	338.454	326.707	346.245	0.001766	0.00099778	0.00025421	947.44	8.1518e-06	9.8012e-06	991.69	314	1.4882e-05	9.2658e-06	410.23	181.08	125.7	60.708	1.06e-05	103.94	0.0020247	0.0022219	0.00062443	945.1	2.3215e-05	2.4227e-05	984.71	313.75	2.3017e-05	2.4489e-05	411.28	181.37	126.38	61.184	2.4444e-05	104.2	336.732	86.465	114.714	19.163	217.656	152.203	19.046	24.469	196.281	162.690	23.660	28.073	28.974	32.621	161.014	31.205	-8191	255	
843.057	1	1	0	0	0.31472	0.2023	0.038641	0.32298	0.090103	0.19071	0.18242	0.4397	0.37479	0.24102	0.27063	0.31061	0.28187	0.19268	0.12947	0.16008	-2.3312	-2.9167	-3.0292	-2.8354	-3.0792	-2.9958	-2.9646	-3.0979	-2.7125	-2.8792	-2.9771	-2.8271	-2.9083	-3.0708	-2.8	-3.225	210.012	190.426	34.432	19.651	316.924	330.959	261.230	18.413	337.576	119.081	15.974	310.940	34.012	288.854	130.857	98.365	0.0019726	0.00085693	0.00013724	946.87	1.5224e-05	4.1081e-06	986.96	313.88	2.3884e-05	5.3211e-06	409.89	182.7	126.2	61.162	8.5102e-06	104.4	0.0020144	0.0022371	0.00061693	940.45	2.3132e-05	2.4615e-05	981.64	313.83	2.322e-05	2.5131e-05	412.38	182.66	127.05	61.625	2.4694e-05	104.64	339.064	102.768	85.049	19.197	171.506	191.005	19.349	24.379	144.591	170.644	23.791	28.000	28.832	32.512	186.901	31.239	-8191	255	
843.154	1	1	0	0	0.018343	0.035107	0.13407	0.22427	0.1494	0.011303	0.16337	0.2136	0.09154	0.18443	0.058655	0.24481	0.16168	0.21134	0.12918	0.056934	-2.6833	-2.8229	-3.175	-2.8625	-2.8875	-3.1146	-2.9729	-3.2062	-3.0083	-2.9417	-3.3187	-2.8708	-3.0958	-3.0396	-2.8063	-3.0417	294.702	100.337	26.397	356.958	35.243	289.720	268.303	330.664	93.235	364.233	243.685	264.803	37.415	307.559	317.182	182.506	0.0019323	0.00050831	0.00025083	942.81	1.7945e-05	1.1904e-05	989.82	313.3	1.6229e-05	6.7585e-06	408.84	181.46	125.83	60.869	1.176e-05	104.07	0.002014	0.0022422	0.00061858	939.88	2.2713e-05	2.4127e-05	980.77	313.24	2.2931e-05	2.4719e-05	411.33	182.26	126.74	61.415	2.4237e-05	104.56	337.557	77.138	94.619	19.416	139.169	169.810	19.198	24.608	168.527	150.909	23.737	27.953	29.000	32.656	158.448	31.063	-8191	255	
843.225	1	1	0	0	0.098913	0.24981	0.059346	0.29862	0.17857	0.085238	0.042808	0.029783	0.070716	0.22524	0.11728	0.051832	0.28414	0.066312	0.085911	0.29675	-2.5479	-2.7854	-3.0875	-3.0167	-2.8688	-3.1521	-2.8438	-3	-2.9417	-2.9521	-3.0687	-3.0146	-2.8271	-3.1437	-2.7896	-3.1625	284.211	40.495	87.654	320.827	11.858	108.586	232.580	85.479	345.738	41.496	351.595	178.758	101.301	343.475	11.636	259.415	0.0019724	0.00080535	0.00022927	946.39	1.0364e-05	1.2013e-05	988.23	313.85	1.1887e-05	6.5976e-06	413.15	182.74	126.81	61.023	1.0059e-05	104.59	0.002013	0.0022713	0.00061906	943.49	2.3288e-05	2.5365e-05	982.9	313.69	2.3031e-05	2.5128e-05	413.74	182.8	127.16	61.568	2.4139e-05	105.05	332.971	107.562	93.502	19.182	175.684	134.036	19.145	24.470	186.852	106.274	23.753	28.131	28.807	32.596	178.417	31.134	-8191	255	
843.346	1	1	0	0	0.15549	0.1527	0.087417	0.29591	0.23836	0.24406	0.20972	0.25118	0.15031	0.28534	0.29099	0.19764	0.10582	0.25825	0.038638	0.2716	-2.5583	-2.6813	-3.1708	-2.9813	-2.7896	-3.0479	-2.9979	-3.0875	-2.9833	-2.8563	-3.2021	-2.9875	-2.9146	-3.2625	-2.7104	-3.0083	138.158	316.493	328.003	321.633	216.656	62.010	215.851	324.682	54.235	321.157	8.912	346.975	226.440	54.326	213.139	259.668	0.0019118	0.00063465	0.00023072	947.87	1.5853e-05	1.0679e-05	992.09	314.89	1.8796e-05	6.3309e-06	411.82	182.55	125.66	61.143	2.5009e-06	105.08	0.0020095	0.002257	0.00061156	943.69	2.3585e-05	2.4744e-05	986.59	314.81	2.3309e-05	2.4987e-05	413.82	182.86	126.97	61.632	2.3733e-05	105.57	335.955	151.905	95.235	19.395	135.845	119.004	19.235	24.448	173.384	130.867	23.705	28.237	29.071	32.491	140.622	31.252	-8191	255	
843.442	1	1	0	0	0.26893	0.10142	0.24995	0.21266	0.16141	0.10476	0.33932	0.18889	0.30145	0.44144	0.086901	0.29719	0.14634	0.2597	0.14133	0.15024	-2.5958	-2.6583	-3.075	-2.9104	-2.7958	-3.2083	-2.9271	-3.0021	-3.1396	-2.8312	-3.2479	-2.8937	-2.8	-3.1542	-2.95	-3.1521	194.628	79.679	220.246	170.554	309.779	226.343	317.879	317.346	50.316	181.933	116.537	275.024	331.207	325.330	339.773	356.362	0.0017771	0.0004788	0.0001806	948.31	7.4876e-06	1.2065e-05	998.24	317.05	1.5553e-05	7.7616e-06	414.21	183.93	126.08	61.108	1.0183e-05	104.56	0.002036	0.0022414	0.00061367	944.55	2.384e-05	2.4657e-05	990.1	315.98	2.3489e-05	2.5054e-05	416.1	184.14	127.17	61.597	2.3626e-05	105.28	340.549	84.534	90.722	19.210	168.751	168.005	18.926	24.609	202.711	174.992	23.585	28.136	29.017	32.442	145.156	31.043	-8191	255	
843.538	1	1	0	0	0.028374	0.070633	0.10911	0.048295	0.24067	0.072787	0.32768	0.34403	0.19274	0.07589	0.018418	0.16417	0.084509	0.090993	0.1923	0.31069	-2.6396	-2.7021	-3.0583	-3.0687	-2.9021	-2.9542	-2.9458	-2.9229	-3.0354	-2.6979	-3.1854	-3.0875	-2.8021	-3.0604	-2.9354	-2.9104	241.253	148.740	33.287	42.809	41.830	293.541	286.053	293.760	263.367	28.203	272.412	353.701	344.777	316.170	193.176	342.603	0.0018343	0.00077361	8.5139e-05	947.16	7.5646e-06	3.7874e-06	990.08	315.65	6.5733e-06	8.0145e-06	412.11	181.09	124.83	60.234	7.6486e-06	102.34	0.0020326	0.0022643	0.0006099	946.06	2.357e-05	2.4673e-05	985.56	314.88	2.3018e-05	2.4252e-05	412.14	181.11	125.69	60.733	2.2543e-05	103.11	332.829	105.144	140.222	18.946	146.919	184.806	19.267	24.645	168.032	210.257	23.604	27.997	29.020	32.583	173.705	31.223	-8191	255	
843.634	1	1	0	0	0.1772	0.18322	0.23687	0.16106	0.25625	0.19266	0.13115	0.18918	0.090647	0.19673	0.075539	0.21399	0.1308	0.27422	0.2861	0.18747	-2.4146	-2.8708	-2.9437	-3.1896	-2.5917	-2.9875	-3.05	-2.8563	-3.0604	-2.7646	-2.9417	-3.0271	-2.7313	-3.0396	-2.875	-3.0312	162.354	20.562	249.979	56.431	198.732	340.769	261.671	270.445	349.003	286.377	34.058	301.612	194.151	332.334	267.595	266.326	0.0017586	0.00069291	0.00022217	945.11	9.1897e-06	6.9708e-06	981.53	311.76	1.2356e-05	6.9323e-06	406.36	178.56	124.3	59.641	1.2926e-05	101.39	0.0019626	0.0021381	0.00058729	940.96	2.2775e-05	2.3127e-05	974.35	311.2	2.2322e-05	2.3488e-05	406.23	178.72	124.67	60.092	2.2822e-05	102.12	340.034	104.241	112.795	19.215	171.286	104.206	19.152	24.463	206.423	125.219	23.639	28.091	28.697	32.424	152.549	31.217	-8191	255	
843.755	1	1	0	0	0.034501	0.26666	0.055649	0.11267	0.17673	0.042518	0.077959	0.41505	0.18412	0.10131	0.03763	0.15936	0.32548	0.27457	0.16525	0.11809	-2.5187	-2.8937	-2.8937	-3.0396	-2.6771	-3.0375	-2.9188	-2.7625	-2.9833	-2.8854	-2.7333	-3.0583	-2.7979	-3.275	-3.0396	-2.8708	110.815	281.392	161.795	22.168	78.335	48.567	314.839	295.027	100.623	270.055	205.731	352.308	316.949	273.019	340.559	9.134	0.0018411	0.00066957	0.0003404	939.52	7.3988e-06	7.859e-06	980.21	311.23	1.0141e-05	9.8069e-06	405.42	179.16	123.86	59.847	1.0143e-05	102.24	0.0019894	0.0021502	0.00060465	937.35	2.2931e-05	2.3392e-05	972.46	311.18	2.3066e-05	2.3671e-05	406.65	179.17	124.82	60.373	2.3126e-05	102.66	336.514	93.681	138.374	19.233	99.819	176.266	19.100	24.629	179.030	106.530	23.663	27.870	28.826	32.451	146.079	31.200	-8191	255	
843.827	1	1	0	0	0.15699	0.27359	0.063207	0.12114	0.045518	0.206	0.29042	0.23175	0.042519	0.092583	0.16072	0.21424	0.073108	0.17989	0.18658	0.28	-2.575	-2.8167	-2.8833	-3.175	-2.8833	-3.1375	-3.1125	-2.7917	-3.1458	-2.8	-3.0396	-3.2458	-2.7146	-3.0167	-2.9208	-2.8604	278.831	127.578	137.640	199.169	10.980	180.831	341.577	12.542	255.207	176.473	334.637	332.677	40.880	9.551	338.792	361.649	0.0017863	0.00046702	0.00026471	938.55	1.0429e-05	9.2113e-06	976.36	312.3	1.7678e-05	9.4201e-06	407.68	180.36	123.95	60.251	9.1957e-06	102.79	0.0019817	0.0021399	0.00060942	936.81	2.2605e-05	2.381e-05	971.58	311.98	2.2764e-05	2.3589e-05	408.19	179.94	125.02	60.667	2.3939e-05	103.28	337.969	122.656	97.409	19.245	190.143	159.687	19.112	24.485	148.407	113.341	23.594	27.857	28.721	32.662	140.121	31.160	-8191	255	
843.921	1	1	0	0	0.14478	0.056181	0.15242	0.10591	0.18249	0.17284	0.14089	0.028118	0.11653	0.13546	0.090187	0.32996	0.14654	0.12157	0.1071	0.27513	-2.6813	-2.9688	-2.9354	-3.1437	-2.7687	-3.0062	-3.1604	-2.8792	-3.1063	-2.9125	-2.8792	-3.0958	-2.9646	-3.0417	-3.1063	-2.9292	216.585	62.226	311.246	67.764	124.555	53.063	306.719	247.889	325.295	138.747	16.251	296.171	211.299	52.987	246.061	282.136	0.0019114	0.00082549	0.00026733	938.85	5.9705e-06	1.1303e-05	980.24	312.95	5.1488e-06	8.0001e-06	409.05	181.03	124.46	60.401	7.8512e-06	102.96	0.0020249	0.002164	0.00062061	937.31	2.2855e-05	2.4172e-05	976.04	312.42	2.3104e-05	2.4355e-05	409.92	180.8	125.37	60.844	2.3773e-05	103.6	335.907	127.642	105.592	19.351	173.686	118.589	19.001	24.727	114.095	182.257	23.469	28.105	28.588	32.582	144.724	31.214	-8191	255	
844.019	1	1	0	0	0.064032	0.11638	0.23742	0.1491	0.10465	0.2051	0.13831	0.27538	0.070847	0.19267	0.17047	0.44402	0.20885	0.13571	0.149	0.11765	-2.5896	-2.7625	-2.5292	-3.1562	-2.8896	-3.0458	-3.2042	-3.0292	-3.0521	-3.1375	-2.8	-3.1583	-3.0646	-3.0479	-3.1562	-2.9167	213.534	203.761	159.019	277.545	14.762	52.307	335.086	261.805	189.851	74.072	296.854	352.294	338.973	48.101	89.136	21.787	0.0017709	0.00066197	0.00016032	946.67	1.8526e-05	7.3865e-06	986.29	314.2	1.275e-05	9.8402e-07	409.64	181.85	124.55	60.539	8.9878e-06	104.3	0.0020208	0.0022101	0.00062917	941.37	2.282e-05	2.4984e-05	979.45	313.33	2.3129e-05	2.4405e-05	411.42	181.67	125.62	61.035	2.3921e-05	104.5	332.241	151.077	124.177	19.203	131.284	189.569	19.358	24.672	170.923	242.951	23.466	28.224	28.763	32.752	175.859	31.086	-8191	255	
844.138	1	1	0	0	0.17797	0.13381	0.14663	0.30016	0.41265	0.041646	0.3174	0.24627	0.2528	0.23474	0.054078	0.10281	0.087028	0.125	0.23455	0.40777	-2.5125	-2.9833	-2.6188	-3.1021	-2.8792	-2.8771	-3.3167	-2.9313	-3.0062	-3.1104	-2.8896	-3.075	-2.95	-2.8417	-3.1708	-3.0458	58.615	291.258	19.615	291.298	237.644	49.122	362.561	63.770	76.702	338.812	281.490	248.005	326.061	324.623	320.180	342.851	0.0019427	0.00086467	0.0002834	947.69	9.278e-06	8.7921e-06	990.04	314.35	1.2533e-05	8.4392e-06	410.42	181.39	124.4	60.367	1.2485e-05	103.02	0.0020268	0.0022151	0.00063509	943.02	2.3234e-05	2.5351e-05	982.82	314.04	2.3681e-05	2.4905e-05	411.86	181.05	125.66	60.888	2.402e-05	103.64	336.004	80.197	111.217	19.340	109.046	158.362	19.205	24.585	164.412	104.833	23.598	28.354	28.853	32.545	199.555	31.053	-8191	255	
844.234	1	1	0	0	0.185	0.13441	0.091459	0.15564	0.16254	0.085225	0.1421	0.25682	0.091999	0.094816	0.30541	0.13029	0.28414	0.21212	0.11649	0.26585	-2.5479	-2.8312	-2.9417	-3.1521	-2.9604	-2.8042	-3.0604	-3.0438	-2.9708	-2.9875	-2.925	-2.9833	-3.1521	-2.9125	-3.0104	-3.0312	352.594	318.366	348.693	189.948	253.197	270.121	75.448	273.543	216.912	26.336	308.345	271.535	341.276	313.274	138.895	263.793	0.0019293	0.00075679	0.00022814	941.79	1.7153e-05	8.8213e-06	981.69	310.35	8.7473e-06	3.7431e-06	404.2	178.69	123.32	59.525	9.0018e-06	101.39	0.0020235	0.0022152	0.00062427	939.89	2.2954e-05	2.4966e-05	973.55	310.46	2.295e-05	2.4368e-05	406.08	178.4	124.25	60.088	2.3496e-05	102	334.431	81.146	104.133	19.155	182.882	162.456	19.319	24.663	160.243	159.816	23.478	27.944	28.593	32.611	165.976	31.157	-8191	255	
844.330	1	1	0	0	0.14483	0.20469	0.22348	0.23808	0.17667	0.070355	0.093642	0.30354	0.15593	0.14611	0.17342	0.22998	0.1425	0.15099	0.22861	0.22337	-2.5583	-3.0729	-2.4854	-3.1417	-3.1271	-2.8	-3.1417	-2.8563	-3.0563	-3.0938	-3.0104	-3.1437	-3.0771	-2.8354	-2.9625	-2.9833	174.076	281.210	98.222	282.737	206.556	205.715	118.897	285.957	203.035	14.142	328.918	336.740	319.000	107.812	308.704	342.739	0.0016578	0.0010901	0.00014577	939.09	5.1605e-06	6.5992e-06	975.88	310.74	1.6537e-05	7.6534e-06	403.55	178.15	123.54	59.67	6.8711e-06	101.65	0.0020271	0.0022184	0.00060618	935.34	2.2503e-05	2.4322e-05	967.91	309.92	2.3035e-05	2.3674e-05	404.76	178.21	124.14	60.178	2.2786e-05	102.13	333.230	51.434	109.610	19.185	179.974	120.020	19.202	24.420	173.146	158.577	23.611	28.096	28.709	32.474	163.588	31.094	-8191	255	
844.426	1	1	0	0	0.15032	0.19728	0.22371	0.092306	0.086122	0.041526	0.12784	0.13396	0.1025	0.15863	0.31008	0.2633	0.13107	0.099581	0.043799	0.23136	-2.3312	-2.9854	-2.6937	-3.1063	-3.05	-2.7125	-3.0958	-3.0708	-2.9396	-3.1188	-2.9854	-2.8396	-2.9979	-2.9583	-3.0438	-3.2333	354.103	304.080	236.146	112.446	126.357	322.351	7.196	324.893	158.760	297.073	24.101	353.422	343.607	333.594	96.226	310.308	0.0016774	0.0010138	0.00023284	940.22	9.4779e-06	3.5513e-06	975.43	311.29	8.0645e-06	7.9704e-06	404.79	179.11	123.79	59.847	5.5325e-06	102.02	0.0020111	0.0021233	0.0005882	936.59	2.2351e-05	2.4194e-05	969.8	310.56	2.2802e-05	2.3599e-05	405.68	178.64	124.32	60.192	2.2722e-05	102.53	335.560	78.318	92.909	19.269	204.211	335.581	19.136	24.497	170.193	165.520	23.575	28.000	28.662	32.646	185.912	31.298	-8191	255	
844.522	1	1	0	0	0.26931	0.092685	0.12357	0.12853	0.15161	0.097712	0.029036	0.21107	0.060282	0.1807	0.11481	0.15388	0.20802	0.17796	0.038932	0.10231	-2.2854	-2.9479	-2.7792	-3.0979	-2.9333	-2.6625	-3.1771	-2.8958	-2.7833	-2.9958	-2.9458	-2.9708	-2.9792	-2.9333	-2.8917	-3.0438	232.482	282.281	227.896	296.821	50.688	294.419	120.629	333.978	352.901	274.499	355.597	208.942	358.734	351.300	303.424	360.137	0.0019756	0.00097036	0.00017056	943.88	8.6599e-06	7.1354e-06	977.91	312.15	1.5141e-05	7.477e-06	406.01	178.97	123.41	59.878	9.7792e-06	102.58	0.0020125	0.0021558	0.00058835	938.3	2.2409e-05	2.4078e-05	972.37	310.43	2.298e-05	2.3558e-05	407.08	179.58	124.47	60.349	2.283e-05	103.03	337.254	70.992	92.773	19.215	182.271	123.211	19.382	24.671	209.262	154.846	23.539	27.978	28.994	32.627	178.831	31.230	-8191	255	
844.619	1	1	0	0	0.18903	0.22479	0.14	0.24748	0.14225	0.13293	0.17612	0.18677	0.10648	0.2316	0.12219	0.19483	0.088596	0.18363	0.21469	0.23047	-2.3792	-3.0146	-2.7854	-2.8896	-3.1917	-2.8688	-3.0667	-3.0479	-2.7458	-3.1292	-3.0104	-2.875	-3.0458	-2.8208	-3.1083	-3.3937	315.788	207.923	263.420	308.087	314.866	226.272	298.597	283.241	222.045	266.109	32.426	37.646	188.879	92.251	167.861	282.340	0.0018199	0.00089611	0.00014605	944.04	8.3687e-06	8.5692e-06	982.52	313.23	1.6582e-05	6.3699e-06	407.45	180.93	124.45	60.334	1.3618e-05	103.65	0.0020087	0.0021183	0.00058348	939.37	2.2423e-05	2.3648e-05	976.39	312.03	2.3029e-05	2.3568e-05	409.58	180.87	125.19	60.804	2.3206e-05	104.22	342.777	84.611	81.860	19.152	158.558	170.425	19.032	24.527	148.066	146.804	23.518	28.104	28.818	32.696	178.834	31.057	-8191	255	
844.739	1	1	0	0	0.19685	0.064285	0.36752	0.23861	0.24629	0.049887	0.45397	0.25376	0.10285	0.26978	0.15496	0.14448	0.11747	0.090976	0.22915	0.23609	-2.2396	-3.2229	-2.9417	-3.0938	-2.9375	-2.8312	-3.0604	-3.2104	-2.8229	-3.1167	-3.0917	-2.8917	-2.9938	-2.875	-3.0417	-3.0521	21.449	181.747	236.416	272.850	95.596	207.053	296.192	313.743	230.889	225.468	329.326	19.236	262.178	310.055	220.550	287.376	0.001857	0.00097631	0.00018611	945.37	1.128e-05	9.1669e-06	986.62	313.07	1.3988e-05	6.7649e-06	411.88	181.84	124.88	60.588	1.6744e-05	103.93	0.0019775	0.0021033	0.00058638	940.56	2.2195e-05	2.3157e-05	981.73	312.74	2.2666e-05	2.3331e-05	411.94	181.92	125.63	61.083	2.345e-05	104.41	335.844	44.407	124.258	19.360	171.942	162.129	19.115	24.408	183.246	141.643	23.525	28.086	28.833	32.589	195.665	31.270	-8191	255	
844.835	1	1	0	0	0.289	0.080423	0.12768	0.14299	0.28105	0.10351	0.19661	0.14039	0.20694	0.35019	0.081812	0.26661	0.28099	0.27138	0.13154	0.11561	-2.2854	-3.0354	-3	-2.7375	-3.1521	-2.9396	-3.1396	-3.1354	-2.5062	-2.9854	-3.1146	-3.0125	-2.9958	-2.9271	-2.8229	-3.2687	328.940	161.822	240.275	267.493	28.022	123.673	357.559	327.873	10.157	28.383	299.500	326.913	348.014	320.095	127.117	248.971	0.0017791	0.00065029	6.6838e-05	942.83	1.5752e-05	8.3185e-06	982.52	312.66	1.5591e-05	7.3455e-06	406.34	179.3	123.58	60.012	1.0457e-05	101.97	0.0019657	0.0021197	0.00058749	937.78	2.1715e-05	2.3111e-05	977.38	311.71	2.2134e-05	2.2811e-05	407.54	179.53	124.41	60.292	2.3058e-05	102.34	335.589	53.296	117.964	19.487	173.026	165.483	19.171	24.538	203.708	150.048	23.555	28.023	28.621	32.446	186.762	30.986	-8191	255	
844.930	1	1	0	0	0.18772	0.12873	0.092429	0.18895	0.10737	0.2127	0.20844	0.14309	0.18949	0.19034	0.084439	0.039843	0.080518	0.038398	0.27054	0.2872	-2.25	-2.9729	-3.1208	-2.8563	-3.1562	-2.8063	-2.8937	-3.3812	-2.7562	-2.9333	-2.975	-2.9208	-3.2062	-2.9437	-2.9292	-3.1667	249.958	350.046	41.601	8.211	188.670	307.077	197.796	249.590	232.527	326.628	354.003	136.668	248.708	167.232	28.942	346.074	0.0018809	0.0010262	0.00011695	939.08	1.0805e-05	5.6614e-06	978.46	311.95	2.2669e-06	6.3038e-06	402.98	178.94	122.57	59.958	6.527e-06	102.16	0.0019093	0.002114	0.000588	936.15	2.1723e-05	2.2833e-05	969.88	310.17	2.1589e-05	2.3088e-05	404.92	178.73	123.68	60.23	2.2719e-05	102.57	337.844	69.204	44.082	19.163	168.642	154.598	19.068	24.407	82.472	191.134	23.547	28.174	28.720	32.636	157.351	30.961	-8191	255	
845.026	1	1	0	0	0.14695	0.074212	0.060715	0.22824	0.18417	0.059364	0.25091	0.23208	0.081675	0.14222	0.13464	0.078117	0.21762	0.16295	0.11781	0.21009	-2.525	-2.8688	-2.8583	-2.9604	-2.9771	-3.0062	-3.0625	-3.15	-2.8146	-2.9708	-3.1583	-2.85	-3.0771	-3.0875	-2.7687	-3.2438	28.268	267.574	257.876	45.875	309.254	217.145	304.628	280.843	244.307	23.199	263.082	301.522	324.395	13.945	185.749	245.605	0.0017563	0.00080242	0.00032072	939.97	1.6411e-05	7.5304e-06	976.76	310.65	8.2481e-06	1.0023e-05	406.55	179.99	124.28	60.231	1.5796e-05	103.01	0.0018911	0.0021274	0.00058623	935.25	2.1622e-05	2.3047e-05	972.72	310.5	2.186e-05	2.3333e-05	407.49	180.1	124.88	60.647	2.29e-05	103.44	336.053	63.021	72.230	19.129	166.164	177.876	19.115	24.517	150.105	150.001	23.476	28.173	28.827	32.620	194.631	31.181	-8191	255	
845.122	1	1	0	0	0.10975	0.30566	0.1577	0.28325	0.26075	0.12246	0.15362	0.11754	0.16903	0.20017	0.24861	0.31361	0.18813	0.10145	0.12993	0.30337	-2.3083	-2.8708	-2.9	-2.8083	-2.9833	-2.9	-2.8708	-2.9708	-2.9	-2.9896	-3.1167	-3.1771	-2.9396	-3.0792	-3.0771	-3.0938	170.771	132.011	250.468	298.577	194.852	340.968	320.048	131.372	258.332	238.212	323.309	324.218	354.219	76.003	232.609	321.610	0.0017774	0.0005009	0.00024136	942.67	4.819e-06	6.7021e-06	977.86	312.54	1.6394e-05	2.6227e-06	405.76	179.67	124.6	60.27	1.2651e-05	103.16	0.0018998	0.0020998	0.00058282	935.74	2.1686e-05	2.3143e-05	972.5	311.31	2.1899e-05	2.3519e-05	408.27	180.14	124.91	60.687	2.301e-05	103.64	337.968	108.271	108.963	19.393	73.947	146.161	19.321	24.367	190.494	220.473	23.614	28.122	28.756	32.449	161.422	31.133	-8191	255	
845.218	1	1	0	0	0.44864	0.045987	0.32382	0.27862	0.14364	0.075757	0.15358	0.15971	0.073464	0.17207	0.1093	0.40448	0.094264	0.072388	0.1024	0.39416	-2.5563	-2.7125	-2.9958	-2.9729	-2.8896	-3.1896	-3.0583	-3.1917	-2.9104	-2.9	-3.0979	-2.9125	-3.0729	-3.2104	-2.7708	-3.3063	279.475	13.647	328.895	330.027	298.756	119.976	222.190	39.654	356.729	179.967	364.533	30.501	261.991	292.031	100.937	291.042	0.0017375	0.00043573	0.00022617	941.03	1.0648e-05	6.7361e-06	987.07	312.73	1.8445e-05	8.9457e-06	410.41	180.95	124.83	60.333	5.5789e-06	103.53	0.0019021	0.0021401	0.00058219	937.64	2.2401e-05	2.3084e-05	978.82	311.83	2.1897e-05	2.3549e-05	410.89	181.04	125.35	60.858	2.2811e-05	104.04	336.598	89.009	68.396	19.244	166.465	183.896	18.994	24.365	197.048	167.561	23.792	28.066	28.790	32.521	157.016	31.132	-8191	255	
845.314	1	1	0	0	0.18053	0.097959	0.18005	0.2602	0.33037	0.27472	0.2747	0.054965	0.018642	0.18127	0.016371	0.23445	0.091823	0.38482	0.15504	0.10826	-2.5687	-2.8333	-2.9479	-2.9188	-2.8688	-3.0021	-2.7188	-3.0583	-2.9	-2.7729	-3.25	-2.9375	-2.9083	-3.2021	-2.7875	-3.1229	360.916	222.917	34.043	327.799	283.355	16.661	259.741	296.352	147.043	57.436	294.275	30.678	222.572	351.669	22.540	49.679	0.0018909	0.00075974	0.00026486	943.76	2.4913e-06	8.3716e-06	991.77	314.04	2.1126e-05	7.5727e-06	409.88	181.7	124.97	60.58	7.2597e-06	102.74	0.0019351	0.0021423	0.00057968	940.72	2.2264e-05	2.3218e-05	983.46	313.29	2.2492e-05	2.3965e-05	411.2	181.82	125.5	60.92	2.2233e-05	103.76	339.840	115.173	59.632	19.309	178.297	178.065	19.122	24.485	166.898	137.519	23.501	28.226	28.763	32.576	166.386	31.195	-8191	255	
845.435	1	1	0	0	0.2138	0.23705	0.056128	0.20701	0.1793	0.065114	0.21965	0.040389	0.062114	0.19416	0.27425	0.29413	0.21375	0.16335	0.1907	0.29627	-2.4479	-2.8708	-2.9875	-3.0875	-3.0438	-3.1063	-3.0021	-3.1458	-3.0833	-2.8729	-3.1625	-3.0062	-2.7625	-3.3729	-2.875	-3.0875	61.823	70.732	198.629	310.103	72.957	86.209	162.634	278.767	325.666	117.648	81.321	359.372	33.351	312.264	67.202	329.152	0.0017428	0.0012836	0.00011428	939.3	1.4298e-05	6.9999e-06	983.33	311.27	8.0808e-06	1.0529e-05	406.43	179.29	124.36	59.74	1.8039e-05	101.73	0.0019182	0.0021153	0.0005686	939.08	2.225e-05	2.2775e-05	976.11	311.26	2.1953e-05	2.3483e-05	406.5	179.16	124.52	60.171	2.2144e-05	102.17	336.989	96.352	91.354	19.228	177.138	151.607	19.215	24.634	152.486	126.997	23.643	28.060	29.003	32.317	159.119	31.190	-8191	255	
845.531	1	1	0	0	0.18361	0.071079	0.12195	0.048379	0.25602	0.074259	0.10962	0.13296	0.17335	0.1139	0.17248	0.22946	0.12649	0.3143	0.1814	0.35533	-2.6979	-2.7729	-2.9208	-2.9875	-2.8458	-3.1437	-3.0146	-3.0375	-3.1167	-2.8083	-3.0604	-2.8417	-2.9208	-3.0792	-3.0875	-2.9771	172.370	289.793	106.013	50.813	20.779	337.932	258.627	316.741	43.425	340.542	243.262	334.144	287.505	11.795	53.229	305.106	0.0017397	0.00026023	0.00014407	938.65	4.0861e-06	1.1733e-05	974.36	310.11	1.0599e-05	3.53e-06	401.11	176.97	122.93	59.32	1.0217e-05	100.73	0.0019152	0.0020852	0.00055942	934.93	2.1852e-05	2.2338e-05	966.37	309.59	2.1445e-05	2.2599e-05	403.09	177.05	123.41	59.604	2.1977e-05	101.17	335.967	93.335	120.715	19.095	237.965	183.719	18.967	24.552	140.850	196.947	23.403	28.229	28.575	32.625	188.579	31.204	-8191	255	
845.627	1	1	0	0	0.084938	0.14725	0.10088	0.18538	0.15057	0.092056	0.25684	0.0022176	0.26645	0.13184	0.3096	0.16374	0.10875	0.34523	0.23515	0.25509	-2.7021	-2.8	-3.0938	-3.0687	-2.6021	-3.1708	-2.8708	-3.0708	-3.1354	-2.9125	-3.1167	-3.0146	-2.8187	-3.2062	-2.8396	-2.9562	153.680	350.747	348.514	35.581	167.639	62.502	316.868	180.000	187.462	349.969	265.517	329.722	12.663	27.336	247.217	326.533	0.0019075	0.00072643	0.00025069	940.12	4.3452e-06	5.9725e-06	978.83	310.7	1.1365e-05	6.3175e-06	402.56	177.48	123.43	59.482	1.5779e-06	101.01	0.0018838	0.0020176	0.00057529	936.09	2.1894e-05	2.2371e-05	968.19	309.7	2.1531e-05	2.2174e-05	403.5	177.61	123.54	59.772	2.213e-05	101.57	331.076	95.830	112.703	19.217	219.739	93.904	19.101	24.356	170.812	161.993	23.448	28.055	28.845	32.803	212.761	31.196	-8191	255	
845.699	1	1	0	0	0.075672	0.1014	0.080652	0.062665	0.19885	0.14486	0.1034	0.1707	0.12745	0.28733	0.37865	0.16534	0.25964	0.11878	0.42566	0.32519	-2.5167	-2.6771	-2.8417	-3.1729	-2.8646	-3.1312	-3.0667	-2.8583	-3.0146	-2.9854	-3.1	-3.1375	-2.8854	-3.2604	-2.85	-2.9813	91.303	247.334	157.979	85.863	215.981	41.710	319.228	66.422	159.760	163.188	326.607	53.427	341.873	354.141	232.602	309.506	0.0017205	0.00059833	0.0002872	941.21	1.1643e-05	6.8588e-06	977.34	310.05	9.814e-06	6.6148e-06	404.76	178.77	123.18	59.241	1.3177e-05	101.41	0.0018931	0.0020272	0.00057119	937.36	2.1876e-05	2.2374e-05	970.35	309.98	2.1633e-05	2.2653e-05	405.05	178.33	123.64	59.815	2.2045e-05	101.73	331.357	109.812	90.259	19.232	152.566	143.813	19.000	24.544	135.080	105.534	23.374	28.224	28.855	32.743	212.575	31.183	-8191	255	
845.820	1	1	0	0	0.19189	0.2877	0.28461	0.09253	0.16237	0.035023	0.070163	0.27966	0.26196	0.14148	0.091017	0.12349	0.24436	0.21877	0.1901	0.21018	-2.6958	-2.7729	-2.9958	-3.3063	-2.7833	-3.1167	-2.9813	-2.8375	-2.9042	-2.8896	-2.9708	-3.1667	-2.8896	-3.2313	-3.0146	-2.7708	124.644	362.561	143.792	336.372	215.861	304.474	172.350	336.532	186.768	302.870	19.410	52.260	20.819	332.214	25.833	295.367	0.0017035	0.00038343	0.00016135	939.8	1.1313e-05	3.8382e-06	978.55	311.29	1.7788e-05	3.8761e-06	404.9	178.1	123.04	59.286	1.083e-05	101.34	0.001848	0.0020377	0.00058453	938.32	2.1322e-05	2.2444e-05	972.45	310.35	2.1351e-05	2.2438e-05	405.86	178.25	123.63	59.696	2.2164e-05	101.73	336.993	140.677	51.748	19.296	166.892	147.370	19.161	24.452	170.832	160.788	23.425	27.911	28.844	32.545	176.858	31.244	-8191	255	
845.914	1	1	0	0	0.067768	0.12647	0.080418	0.12663	0.22319	0.077676	0.14815	0.26623	0.035351	0.34609	0.045304	0.14332	0.12064	0.24469	0.052048	0.30414	-2.6458	-2.7958	-2.8563	-3.0521	-2.8792	-2.9542	-3.0542	-2.9562	-3.1354	-2.8792	-3.0458	-3.1917	-2.8312	-3.025	-2.9958	-2.8646	287.676	350.997	157.400	318.509	241.903	219.645	123.860	341.754	80.009	83.553	338.512	44.532	124.812	236.852	122.858	365.090	0.0018231	0.0010714	0.00025587	941.46	1.9582e-05	4.2981e-06	987.3	311.39	1.2036e-05	9.114e-06	405.69	179	123.03	59.472	6.5429e-06	101.75	0.0018507	0.0020347	0.00058521	940.29	2.1514e-05	2.2981e-05	978.27	310.87	2.1374e-05	2.2698e-05	407.42	178.69	123.85	59.883	2.2389e-05	102.11	336.874	80.562	155.089	19.449	160.140	134.849	19.286	24.582	189.062	148.850	23.938	28.162	29.023	32.573	217.233	31.273	-8191	255	
846.010	1	1	0	0	0.35371	0.10265	0.13203	0.12735	0.087367	0.16754	0.1576	0.26408	0.084847	0.1939	0.19285	0.10309	0.1812	0.19723	0.026506	0.26095	-2.5687	-2.7729	-2.8375	-3.0417	-2.85	-2.9604	-3.0521	-2.825	-3.0542	-2.9667	-2.7604	-3.1104	-2.9854	-3.0896	-3.0479	-2.8708	235.981	190.798	100.679	277.373	69.007	281.682	25.092	69.839	328.120	173.919	301.695	334.040	30.548	230.060	158.255	295.131	0.0016722	0.0011548	0.00018973	941.6	1.1349e-05	7.2645e-06	982.28	310.79	1.3515e-05	7.0717e-06	402.64	176.22	122.1	58.889	6.5808e-06	99.955	0.0018777	0.0020394	0.00059009	939.43	2.1278e-05	2.2964e-05	973.51	309.31	2.125e-05	2.2435e-05	403.36	176.52	122.69	59.215	2.183e-05	100.36	338.329	114.631	84.598	19.257	202.724	214.266	19.000	24.458	151.023	163.924	23.706	28.193	28.954	32.580	213.878	31.144	-8191	255	
846.108	1	1	0	0	0.20267	0.13889	0.086847	0.12825	0.24061	0.10983	0.15101	0.26475	0.31728	0.11118	0.1363	0.21555	0.10975	0.12039	0.091475	0.11862	-2.65	-2.8292	-2.8104	-3.2708	-2.8708	-3.0187	-3.2604	-2.9375	-3.05	-2.925	-3.0896	-3.1771	-2.975	-2.9792	-3.1688	-2.9	115.404	340.780	284.772	249.666	116.257	178.914	204.339	313.434	80.685	165.232	43.625	351.844	129.068	11.094	17.131	283.394	0.0018808	0.00010634	5.6864e-05	940.03	1.0268e-05	6.71e-06	972.92	307.42	1.1938e-05	4.7688e-06	399.72	175.64	122.2	58.656	8.2285e-06	99.703	0.0018456	0.0019822	0.00056542	934.52	2.0886e-05	2.2414e-05	965.56	307.52	2.1209e-05	2.2047e-05	400.3	175.55	122.47	58.922	2.1679e-05	99.873	337.033	21.241	74.516	19.205	166.164	167.901	19.225	24.478	157.760	157.244	23.315	27.917	28.617	32.647	161.977	30.952	-8191	255	
846.227	1	1	0	0	0.19606	0.24008	0.14927	0.16906	0.17842	0.15109	0.18881	0.15735	0.12018	0.096518	0.28307	0.26336	0.17278	0.097467	0.14454	0.053664	-2.7042	-3.0292	-2.7604	-3.1479	-2.7875	-2.925	-3.1896	-3.0271	-3.0583	-3.0271	-2.9771	-3.1646	-3.0375	-2.8333	-3.2125	-2.9875	118.191	285.804	280.571	55.537	271.595	88.385	345.925	257.158	269.560	242.463	292.597	351.879	312.165	88.658	108.610	12.795	0.0016996	0.00082224	0.00024751	939.62	1.1008e-05	9.0921e-06	972.34	308.69	7.8903e-06	5.9984e-06	401.49	176.39	121.8	58.553	8.6051e-06	99.687	0.0018601	0.0019993	0.00057078	933.55	2.1147e-05	2.3074e-05	964.85	307.78	2.1749e-05	2.2287e-05	400.76	175.95	122.35	59.001	2.174e-05	100.02	335.606	131.619	128.734	19.308	171.191	158.154	18.842	24.461	171.174	211.033	23.256	28.021	28.879	32.677	192.330	31.086	-8191	255	
846.323	1	1	0	0	0.095869	0.22359	0.060137	0.15792	0.21719	0.094644	0.10269	0.0098904	0.24568	0.19174	0.13018	0.25076	0.082376	0.12567	0.18036	0.019677	-2.5875	-3	-2.6917	-3.1042	-2.9062	-2.8542	-3.1417	-3.1167	-2.9729	-3.05	-2.8542	-3.0104	-2.9521	-2.9667	-3.0917	-3	15.515	179.097	80.838	264.980	352.075	250.562	72.955	30.394	240.251	132.592	131.450	288.700	263.316	221.453	285.147	276.748	0.0017079	0.00096262	0.00030039	939.9	1.1082e-05	5.9231e-06	973.71	309.44	1.0644e-05	2.632e-06	402.35	176.45	121.85	58.703	1.2134e-05	100.13	0.0018737	0.0020322	0.00056003	933.88	2.1104e-05	2.2924e-05	964.4	308.51	2.1403e-05	2.2379e-05	402.62	176.63	122.67	59.327	2.1745e-05	100.88	335.897	89.599	113.732	19.289	153.022	150.013	19.146	24.518	173.131	145.984	23.576	27.780	29.176	32.545	122.585	31.121	-8191	255	
846.419	1	1	0	0	0.13784	0.25893	0.19652	0.24674	0.091952	0.096593	0.13905	0.20581	0.069707	0.2222	0.24513	0.16539	0.23317	0.17457	0.29978	0.40576	-2.6375	-3.1271	-2.7479	-3.1063	-3.0438	-2.9542	-3.2292	-2.9771	-2.8583	-3.1708	-2.8042	-3.1729	-3.0687	-2.7896	-2.975	-2.9188	252.166	122.695	155.443	339.609	208.421	43.525	353.381	364.435	240.256	84.448	272.338	10.477	208.359	334.305	58.021	357.219	0.0018212	0.0009524	0.00017246	941.93	1.1999e-05	8.0841e-06	973.91	309.16	1.1485e-05	6.1147e-06	403.81	176.95	122.45	59.003	1.4652e-05	100.75	0.0019065	0.002058	0.00057304	936.48	2.1802e-05	2.2966e-05	968.75	308.73	2.1528e-05	2.235e-05	403.47	177.45	123.07	59.487	2.1631e-05	101.09	335.892	104.878	81.723	19.109	154.891	157.236	19.086	24.444	184.701	103.196	23.816	28.082	28.984	32.607	172.778	31.171	-8191	255	
846.515	1	1	0	0	0.076871	0.19548	0.065316	0.31128	0.22925	0.11945	0.028474	0.026681	0.040583	0.098564	0.15426	0.25171	0.29728	0.14972	0.29917	0.13153	-2.2979	-2.9854	-2.6833	-3.0125	-2.9854	-2.7667	-3.2333	-2.95	-2.6188	-3.0479	-2.9813	-3.1354	-3.0667	-3.1417	-3.0438	-3.0604	276.817	9.398	150.909	338.232	163.433	169.358	252.952	227.014	323.406	315.796	258.493	40.740	101.890	282.767	133.770	140.895	0.0017271	0.00061053	0.0001648	943.01	1.0712e-05	1.0265e-05	978.6	310.64	9.3496e-06	3.7263e-06	403.12	177.22	122.47	58.597	1.2437e-05	100.41	0.0019043	0.0019849	0.00056729	936.39	2.1223e-05	2.2461e-05	972.66	309.4	2.1882e-05	2.1843e-05	403.98	177.63	122.92	59.175	2.1882e-05	100.95	331.853	135.215	104.670	19.286	133.306	153.700	19.023	24.537	196.886	122.068	23.594	28.215	28.746	32.483	182.960	31.194	-8191	255	
846.612	1	1	0	0	0.22878	0.28972	0.18334	0.31621	0.20405	0.11483	0.15474	0.12204	0.25575	0.24634	0.26557	0.38055	0.27651	0.21477	0.15494	0.18173	-2.4813	-3.0875	-2.7021	-3.0062	-3.0667	-2.9292	-3.1021	-3	-2.7604	-3.0833	-3.0312	-2.8854	-2.975	-2.9896	-3.1083	-3.0521	317.015	353.783	286.563	18.542	93.778	53.392	293.684	322.943	266.287	248.482	7.066	340.102	298.558	319.229	282.062	308.255	0.001706	0.0011542	0.00030658	948.31	7.5827e-06	3.2253e-06	978.05	309.29	1.8275e-05	6.5728e-06	401.81	175.79	121.31	58.145	1.3808e-05	98.669	0.0018813	0.0020173	0.00056406	941.88	2.1123e-05	2.226e-05	970.98	309.08	2.142e-05	2.1716e-05	401.48	175.5	121.8	58.551	2.1537e-05	99.151	332.945	95.008	112.940	19.270	161.665	199.037	19.084	24.655	174.773	136.474	23.704	28.054	28.813	32.393	188.810	31.222	-8191	255	
846.708	1	1	0	0	0.12012	0.22692	0.068701	0.13227	0.066445	0.026559	0.13143	0.20582	0.23248	0.089022	0.18341	0.36096	0.074856	0.1896	0.051763	0.35357	-2.1542	-2.9875	-2.7375	-2.8042	-2.9813	-2.7896	-3.1063	-3.1104	-2.8	-3.0021	-2.8729	-2.9104	-3.1937	-2.8458	-2.8958	-3.1479	187.593	103.320	340.499	351.834	105.073	22.675	354.536	322.494	66.990	301.603	344.470	310.478	312.277	347.427	329.054	268.414	0.0016585	0.00086684	0.00014174	939.59	9.6426e-06	8.8433e-06	967.27	307.29	1.9763e-05	5.6116e-06	396.49	173.85	120.86	58.043	8.9648e-06	98.437	0.001833	0.0019412	0.00054192	933.48	2.0409e-05	2.2008e-05	960.78	306.11	2.0664e-05	2.1409e-05	397.84	174.1	121.39	58.393	2.1527e-05	98.871	335.896	91.903	89.690	19.028	181.419	189.505	18.940	24.429	163.525	138.751	23.608	27.785	28.919	32.440	124.638	30.770	-8191	255	
846.827	1	1	0	0	0.20437	0.030159	0.17363	0.12658	0.20312	0.1957	0.22143	0.03212	0.20751	0.14883	0.036287	0.13991	0.021037	0.2167	0.039802	0.026731	-2.2479	-2.7729	-2.8167	-2.95	-3.1333	-2.7646	-2.9729	-3.1625	-2.7625	-3.2396	-3.0375	-3.0292	-3.0125	-2.8875	-2.9562	-3.1875	133.477	78.436	228.632	34.471	69.330	29.794	288.171	165.562	124.681	34.571	167.085	252.877	277.410	317.108	144.966	245.952	0.001839	0.0006217	0.00013029	933.85	1.0236e-05	5.0027e-06	969.5	307.72	1.6515e-05	9.4504e-06	396.84	174.95	121.4	58.427	7.8925e-06	98.574	0.0018228	0.0019689	0.00055499	930.2	2.0657e-05	2.205e-05	958.97	306.79	2.106e-05	2.1849e-05	397.68	174.73	121.8	58.646	2.1933e-05	99.16	332.398	78.404	101.666	18.995	157.682	183.883	19.139	24.710	174.256	164.284	23.333	27.981	28.686	32.530	168.063	31.045	-8191	255	
846.923	1	1	0	0	0.18203	0.26885	0.26669	0.066142	0.23866	0.27708	0.16232	0.093017	0.11649	0.13373	0.22053	0.46336	0.10666	0.172	0.18028	0.24661	-2.3312	-3.0792	-2.9396	-2.9437	-2.8521	-2.8667	-2.9375	-3.1854	-2.8125	-2.9979	-3.1167	-2.9417	-3.0833	-2.9917	-2.9062	-3.3417	284.259	178.009	322.166	27.360	334.191	321.909	269.068	266.397	322.097	241.831	264.453	323.329	187.831	364.741	123.954	230.435	0.0018476	0.00069682	0.00031059	936.59	1.6373e-05	5.7989e-06	967.16	307.09	8.398e-06	1.3702e-06	398.9	176	121.39	58.783	7.6883e-06	100.23	0.001861	0.00199	0.00056175	930.61	2.0822e-05	2.1955e-05	961.29	306.12	2.112e-05	2.2307e-05	399.5	175.83	122.09	59.12	2.2097e-05	100.66	334.585	110.275	110.416	19.158	175.247	210.780	19.030	24.685	202.979	113.176	23.689	27.903	28.901	32.496	119.106	30.961	-8191	255	
846.994	1	1	0	0	0.099455	0.14117	0.16142	0.048356	0.38078	0.2647	0.19488	0.031615	0.23925	0.156	0.24252	0.12571	0.25435	0.27513	0.062546	0.063575	-2.4604	-2.9917	-3	-2.8854	-3.0062	-2.9375	-2.7667	-3.1917	-2.8792	-2.9167	-2.8958	-3.0271	-2.9813	-2.9875	-2.875	-3.2188	30.530	263.139	58.620	54.831	204.603	193.804	260.460	232.667	68.459	244.791	360.365	17.005	225.189	341.959	22.902	289.330	0.0016502	0.00086316	0.00015521	937.11	1.2445e-05	5.9239e-06	975.01	307.87	1.5484e-05	6.5737e-06	405.13	178.81	122.59	59.595	7.2391e-06	101.94	0.0018675	0.0020122	0.00056365	932.8	2.1002e-05	2.2552e-05	967.98	307.76	2.1275e-05	2.2601e-05	404.7	178.86	123.59	60.058	2.2022e-05	102.43	333.289	88.984	117.903	19.316	188.912	165.721	19.150	24.580	177.239	165.451	23.321	28.343	29.057	32.236	167.092	31.216	-8191	255	
847.091	1	1	0	0	0.14813	0.12943	0.023846	0.39044	0.03061	0.23034	0.21808	0.22179	0.14358	0.038785	0.25094	0.16777	0.14713	0.10379	0.12681	0.099508	-2.2542	-2.8771	-2.9813	-2.8812	-2.9646	-3.0458	-2.9604	-3.1333	-2.9042	-3.0146	-3.0958	-2.7104	-3.0812	-3.0292	-2.6833	-3.2438	277.265	183.837	35.934	298.472	269.685	143.461	10.525	342.897	161.104	59.828	271.559	323.335	325.298	288.525	132.320	11.820	0.0016069	0.00064636	0.00020961	941.29	9.3066e-06	6.5238e-06	979.65	309.62	3.4786e-07	6.8931e-06	405.53	178.44	122.44	59.113	1.6973e-05	101.38	0.0018546	0.0020326	0.00055412	935.08	2.1066e-05	2.2152e-05	971.18	308.53	2.108e-05	2.2184e-05	405.67	178.86	123.13	59.655	2.1717e-05	101.95	330.156	85.006	129.508	19.190	139.870	178.558	19.147	24.644	102.856	200.405	23.580	27.951	28.645	32.555	163.050	31.064	-8191	255	
847.211	1	1	0	0	0.13074	0.12364	0.11385	0.1426	0.35628	0.13902	0.10709	0.111	0.22708	0.13328	0.18474	0.018997	0.2396	0.26493	0.24072	0.28539	-2.5417	-2.8458	-3.1937	-2.6167	-2.9958	-3.0229	-2.8146	-3.0417	-2.9625	-2.7333	-3.025	-2.9583	-3.1396	-3.0687	-2.7771	-3.2167	362.295	12.644	280.098	99.418	14.973	77.335	311.266	42.375	28.996	312.792	34.860	360.716	255.061	99.778	104.134	326.415	0.0018327	0.00098934	0.0002698	939.98	6.2571e-06	9.6698e-06	985.53	310.76	1.6062e-06	5.8694e-06	406.64	179.45	122.92	59.238	9.6082e-06	101.05	0.0018208	0.0020132	0.00054374	936.77	2.1007e-05	2.2077e-05	976.71	309.61	2.0889e-05	2.259e-05	406.82	179.18	123.53	59.723	2.1391e-05	101.5	337.154	105.463	89.398	19.474	183.284	189.306	19.225	24.457	37.223	154.076	23.518	28.103	28.762	32.310	179.752	31.140	-8191	255	
847.307	1	1	0	0	0.19507	0.090598	0.12707	0.13705	0.33224	0.32839	0.16593	0.417	0.13372	0.23151	0.13376	0.14257	0.039434	0.17995	0.09892	0.16268	-2.4396	-2.8688	-2.9854	-2.925	-2.9021	-3.1854	-3.0521	-3.0708	-2.7417	-2.7188	-3.1333	-3.0354	-3.0521	-3.2167	-2.7979	-3.1708	91.968	195.187	48.396	138.944	150.770	164.651	290.573	309.585	236.198	120.930	19.267	250.088	319.450	278.173	201.251	312.226	0.001849	0.0010006	0.00021068	934.55	8.3453e-06	7.6642e-06	973.62	308.53	1.4819e-05	3.2709e-06	399.6	175.45	121.57	58.36	8.9945e-06	99.422	0.0018245	0.0020113	0.00054255	932.88	2.1025e-05	2.1845e-05	966.33	307.74	2.0709e-05	2.1771e-05	400.5	175.75	121.83	58.941	2.0989e-05	99.843	337.586	91.084	82.144	19.266	184.643	176.025	19.149	24.474	156.630	108.700	23.690	28.015	28.646	32.279	141.730	30.829	-8191	255	
847.403	1	1	0	0	0.14904	0.079754	0.15201	0.39775	0.081317	0.05847	0.10822	0.47254	0.25348	0.034756	0.25756	0.012874	0.12838	0.051009	0.12813	0.098953	-2.4458	-2.7021	-2.7667	-2.7708	-2.8083	-3.0396	-2.8896	-3.0333	-3.15	-2.7771	-3.1917	-2.9854	-2.9562	-3.0687	-2.8187	-3.0396	30.461	138.700	12.855	333.873	305.645	75.084	152.571	293.145	343.162	343.840	116.975	178.303	262.049	79.202	128.617	246.115	0.0017309	0.00074244	0.00022416	934.78	4.5556e-06	4.6903e-06	972.71	307.57	1.667e-05	6.0211e-06	400.56	176.84	122.12	59.069	8.5842e-06	100.1	0.0017983	0.0019682	0.00054279	930.32	2.0965e-05	2.1869e-05	965.03	307.05	2.0674e-05	2.1982e-05	400.94	176.56	122.47	59.428	2.1355e-05	100.66	336.286	57.750	116.595	19.498	129.998	165.018	19.119	24.704	185.776	150.206	23.528	27.875	28.540	32.539	203.088	31.017	-8191	255	
847.500	1	1	0	0	0.25227	0.16778	0.34062	0.3362	0.10554	0.1193	0.038923	0.2979	0.10002	0.087031	0.082239	0.1582	0.0672	0.18069	0.085174	0.18572	-2.4688	-2.7479	-3.0583	-2.9313	-2.7375	-3.1562	-2.9958	-3.0854	-3.0021	-2.9917	-3.0333	-3.0229	-2.7188	-3.2396	-2.7646	-3.0771	156.350	36.945	65.394	47.636	82.224	58.458	113.917	297.934	168.557	330.166	233.546	226.848	62.472	48.088	13.232	333.170	0.0019585	0.00070585	0.00023576	934.87	9.148e-06	5.8792e-06	974.61	307.33	1.3107e-05	7.3881e-06	401.06	176.29	121.98	59.187	9.1592e-06	100.21	0.0018621	0.0020101	0.00055758	930.99	2.1362e-05	2.1619e-05	964.83	307.17	2.0642e-05	2.1972e-05	401.21	176.62	122.69	59.467	2.1535e-05	100.69	335.227	103.355	76.024	19.063	145.285	142.397	18.743	24.526	185.138	171.049	23.398	28.110	28.802	32.385	169.871	30.769	-8191	255	
847.596	1	1	0	0	0.30786	0.17477	0.086346	0.13221	0.23032	0.18042	0.11707	0.17953	0.12438	0.069916	0.017925	0.27064	0.29201	0.16052	0.22622	0.17932	-2.5208	-2.5375	-2.8833	-3.0625	-2.7104	-3.1437	-2.9667	-2.9646	-3.1396	-2.8375	-3.1688	-3.2521	-2.8812	-3.2062	-2.8729	-3.1271	289.987	282.442	144.184	329.327	357.220	207.000	209.430	320.370	192.598	334.958	216.991	293.700	16.885	279.335	9.837	255.004	0.0018507	0.00085014	0.00023908	932.57	3.0271e-06	6.5889e-06	972.13	308.13	1.484e-05	6.0123e-06	402.82	177.57	122.77	59.47	1.3873e-05	101.15	0.001833	0.0019875	0.00054855	930.61	2.0814e-05	2.1571e-05	964.83	307.49	2.025e-05	2.1899e-05	403.07	177.62	123.09	59.74	2.1029e-05	101.65	333.007	114.867	125.482	19.234	120.644	159.811	19.065	24.356	150.754	178.454	23.670	28.049	28.797	32.397	209.635	30.984	-8191	255	
847.692	1	1	0	0	0.24772	0.19391	0.095965	0.34159	0.067725	0.16272	0.10991	0.17654	0.23716	0.1241	0.026123	0.23802	0.194	0.096416	0.1871	0.33103	-2.7167	-2.9354	-3.0833	-2.9021	-2.8167	-3.1021	-2.9833	-2.8937	-3.025	-2.8333	-3.1417	-3.1896	-2.7396	-3.1229	-2.9625	-3.0375	245.877	18.499	255.431	346.317	8.836	7.054	255.581	207.727	195.271	64.886	131.139	334.201	38.831	188.291	342.718	11.831	0.0018995	0.0011038	0.00013202	936.65	1.1947e-05	1.0003e-05	979.66	309.96	7.4813e-06	7.3672e-06	405.18	178.98	123.04	59.633	7.6173e-06	101.78	0.0018274	0.0019866	0.00054496	933.94	2.0952e-05	2.1883e-05	971.3	308.99	2.054e-05	2.1831e-05	405.03	178.86	123.56	60.087	2.162e-05	102.42	328.997	82.802	71.773	19.092	192.090	121.550	19.048	24.396	168.170	188.336	23.323	28.115	28.971	32.520	153.717	31.216	-8191	255	
847.788	1	1	0	0	0.25271	0.32948	0.35488	0.36615	0.090213	0.10093	0.28741	0.25833	0.11908	0.11556	0.12385	0.089802	0.21257	0.22187	0.13353	0.13131	-2.7104	-2.7958	-2.8167	-2.9167	-2.5083	-3.0292	-2.9833	-2.8438	-3.0396	-2.8229	-2.9458	-3.0729	-2.7875	-3.0708	-2.9958	-3.1375	349.020	64.311	152.405	304.038	265.613	154.780	320.937	317.122	185.498	141.608	66.091	336.084	167.122	353.065	199.375	333.076	0.0017278	0.0009097	0.00021953	941.4	3.5335e-06	7.3549e-06	980.83	311.57	1.1817e-05	6.6303e-06	408.26	179.94	123.68	59.979	1.5099e-05	101.91	0.0018536	0.0020289	0.00056497	937.68	2.1545e-05	2.2556e-05	975.62	311.12	2.1398e-05	2.2157e-05	408.4	179.66	123.91	60.309	2.1266e-05	102.13	336.560	98.292	104.651	19.145	166.239	194.224	19.042	24.570	229.925	141.869	23.702	28.111	28.656	32.496	164.502	31.005	-8191	255	
847.909	1	1	0	0	0.32729	0.26566	0.21291	0.080704	0.062034	0.16438	0.20845	0.22508	0.11745	0.14009	0.27028	0.087314	0.28154	0.15647	0.24024	0.31552	-2.7958	-2.8208	-2.9042	-3.1125	-2.8292	-2.8708	-2.9521	-2.9083	-3.0708	-2.9229	-2.9833	-3.0708	-2.8042	-3.0958	-2.8583	-2.9104	170.279	136.164	346.108	241.009	328.205	183.122	288.184	365.360	249.500	46.337	317.404	313.873	339.780	319.191	188.677	327.264	0.0019027	0.00037876	0.00018541	944.06	8.9421e-06	7.3693e-06	976.27	310.53	1.5621e-05	5.324e-06	403.72	177.94	122.63	59.487	9.299e-06	100.74	0.0018359	0.0019759	0.00055909	936.33	2.1388e-05	2.1931e-05	969.78	309.16	2.1022e-05	2.1815e-05	404.01	177.74	123.1	59.866	2.1303e-05	100.9	334.730	109.558	114.233	19.155	142.896	184.270	19.126	24.640	157.032	99.513	23.556	28.207	28.939	32.459	180.126	31.051	-8191	255	
848.003	1	1	0	0	0.064981	0.17369	0.29613	0.10675	0.2283	0.11208	0.33948	0.2134	0.28392	0.3392	0.13099	0.28327	0.21834	0.36734	0.10059	0.36236	-2.5979	-2.9417	-2.9479	-3.1542	-2.7146	-2.9667	-3.1479	-2.9229	-3.1562	-2.8792	-3.0604	-3.3187	-2.7354	-3.0062	-2.8708	-2.95	209.630	220.357	128.582	136.915	224.044	91.131	332.669	15.721	43.429	20.134	251.863	141.458	55.945	42.531	60.079	224.199	0.001712	0.0010374	0.0002074	933.31	1.5338e-05	7.3438e-06	969.59	308.17	1.7362e-05	3.798e-06	401.8	177.33	122.57	59.347	1.0463e-05	100.61	0.0018375	0.0019775	0.00054968	929.94	2.072e-05	2.1558e-05	963	306.92	2.059e-05	2.1542e-05	402.34	176.93	122.92	59.748	2.1089e-05	101.06	336.728	118.365	84.459	19.295	140.438	152.635	18.993	24.488	173.878	77.901	23.550	27.775	28.707	32.696	178.466	30.953	-8191	255	
848.099	1	1	0	0	0.075959	0.33287	0.11115	0.27577	0.31679	0.3252	0.35817	0.28454	0.10124	0.03775	0.29102	0.2286	0.09597	0.25281	0.25754	0.14666	-2.475	-2.6979	-2.7042	-3.0542	-2.7104	-2.7958	-3.1896	-2.7	-3.0167	-3.0125	-2.825	-3.1104	-2.8708	-3.1625	-3	-2.9896	338.009	112.568	10.093	30.135	40.263	313.343	325.669	305.460	37.347	349.253	314.668	62.031	244.017	357.973	339.788	321.605	0.0016842	0.00018794	0.00031379	936.71	1.2788e-05	2.9369e-06	974.62	307.96	1.2699e-05	9.4365e-06	402.21	178.33	122.72	59.595	1.3761e-05	101.01	0.0018394	0.0019922	0.00055727	930.3	2.1022e-05	2.2156e-05	965.75	307.8	2.094e-05	2.1428e-05	402.79	178.06	123.25	60.012	2.0894e-05	101.39	331.360	123.095	94.019	19.250	157.973	168.787	19.065	24.711	204.495	147.141	23.505	28.026	28.721	32.443	172.581	30.890	-8191	255	
848.220	1	1	0	0	0.26407	0.2814	0.12064	0.18378	0.46455	0.13321	0.13267	0.18116	0.21282	0.165	0.088998	0.2361	0.21477	0.17354	0.066924	0.1161	-2.5563	-2.8354	-2.7292	-3.1125	-2.7271	-2.9104	-3.2188	-2.9313	-2.8979	-2.9854	-2.8	-3.0333	-2.8146	-2.8063	-3.075	-3.1125	302.955	272.121	82.246	182.874	166.002	170.699	45.772	304.989	292.566	338.095	187.940	299.556	353.033	311.438	241.483	262.653	0.001721	0.00045321	0.00022427	932.89	4.9235e-06	3.7413e-06	974.61	307.55	7.0265e-06	7.9913e-06	404.1	177.84	123.13	59.696	3.9607e-06	101.69	0.0018249	0.0019555	0.00055485	931.43	2.0433e-05	2.2055e-05	967.27	307.95	2.0964e-05	2.1613e-05	403.89	177.96	123.08	60.072	2.1155e-05	101.88	334.053	115.839	132.202	19.498	126.522	172.027	19.057	24.364	144.692	161.837	23.519	27.908	28.497	32.611	136.475	30.875	-8191	255	
848.292	1	1	0	0	0.13471	0.12361	0.20554	0.11774	0.075273	0.04568	0.079341	0.15339	0.31697	0.209	0.11837	0.031633	0.036326	0.13793	0.059957	0.22426	-2.4875	-2.8354	-2.7021	-3.0646	-2.8875	-2.9062	-3.3312	-2.9208	-2.9917	-3.1188	-2.8771	-3.2271	-2.9646	-3.0146	-3.1667	-2.9208	350.307	257.284	359.646	342.246	164.891	142.864	126.168	230.755	287.080	157.514	253.799	180.099	320.366	312.271	31.413	336.688	0.0018982	0.0010242	0.00018175	938.27	1.1592e-05	8.1229e-06	977.51	309.13	1.353e-05	6.553e-06	406.16	179.78	123.08	60.235	8.6791e-06	102.43	0.0018174	0.0019385	0.00055726	933.24	2.0711e-05	2.222e-05	969.82	309.09	2.0907e-05	2.1456e-05	407.02	179.57	123.94	60.557	2.1509e-05	102.82	340.407	96.264	111.751	19.203	175.501	149.817	19.056	24.576	211.149	148.224	23.509	28.041	28.743	32.484	155.370	30.998	-8191	255	
848.388	1	1	0	0	0.21054	0.13023	0.16773	0.25909	0.29205	0.21504	0.22013	0.37783	0.06596	0.28222	0.35498	0.02341	0.095689	0.20311	0.11522	0.18833	-2.4875	-2.9792	-2.7646	-3.0958	-2.9521	-2.8979	-3.2375	-3.0479	-2.9292	-3.1021	-2.9813	-3.2375	-3.0146	-2.8542	-3.1937	-3.0604	334.986	116.720	143.931	281.914	258.620	92.352	318.514	326.285	249.132	327.653	317.521	363.761	61.289	329.397	167.391	302.062	0.0018363	0.00042663	0.00016411	939.73	1.8865e-05	6.9646e-06	984.86	310.51	1.3132e-05	8.9571e-06	407.2	180.78	123.84	60.574	8.2235e-06	102.78	0.0018757	0.0019663	0.00055873	934.78	2.0739e-05	2.2496e-05	976.48	310.5	2.0859e-05	2.1429e-05	408.18	180.79	124.62	60.851	2.1233e-05	103.4	340.533	58.089	52.044	19.067	140.527	181.898	19.110	24.430	200.718	124.457	23.533	27.916	28.801	32.500	155.875	31.044	-8191	255	
848.508	1	1	0	0	0.10556	0.13695	0.20862	0.37505	0.28768	0.15027	0.31645	0.2926	0.26382	0.21697	0.2212	0.27485	0.19637	0.07081	0.11923	0.1794	-2.5938	-3.1125	-2.7188	-3.1063	-2.9875	-2.8208	-2.9854	-2.9375	-2.9562	-3.1208	-3.0604	-3.0458	-3.0042	-2.7583	-2.9271	-2.9896	33.486	46.033	148.531	316.147	250.581	154.661	278.589	350.634	195.029	64.082	307.192	48.619	238.457	28.132	320.027	247.591	0.001777	0.00064414	0.00020305	944.41	9.6678e-06	1.4244e-05	983.05	310.96	5.2583e-06	5.8742e-06	404.95	178.15	122.97	59.488	9.6379e-06	100.89	0.0018328	0.0019788	0.00055759	938.31	2.0471e-05	2.2539e-05	974.68	309.91	2.1117e-05	2.1642e-05	405.33	177.97	123.34	59.933	2.0944e-05	101.3	339.844	135.464	105.651	19.085	168.713	144.609	19.032	24.487	185.690	166.762	23.569	27.998	28.751	32.263	221.225	30.916	-8191	255	
848.604	1	1	0	0	0.31606	0.11893	0.095679	0.27826	0.20029	0.088419	0.3954	0.35702	0.05893	0.065705	0.13786	0.37871	0.11529	0.21377	0.080137	0.15186	-2.4417	-3.0458	-2.875	-3.0812	-3.0083	-2.8167	-3.1667	-2.9271	-2.7958	-3.0417	-2.7625	-3.0687	-3.1479	-2.7438	-3.0104	-3.0854	321.739	240.133	297.082	346.796	253.213	202.800	320.420	20.551	173.831	249.258	284.685	327.518	32.623	365.135	325.186	353.581	0.0017163	0.00067148	0.00014443	939.48	1.242e-05	3.6601e-06	975.31	307.91	1.3292e-05	4.2351e-06	403.03	177.99	122.81	59.83	1.1678e-05	100.96	0.0018433	0.0019634	0.00054464	933.25	2.0094e-05	2.19e-05	966.25	308.04	2.0927e-05	2.1756e-05	403.98	177.9	123.54	60.256	2.1292e-05	101.55	335.803	110.107	112.818	19.194	149.309	93.385	19.006	24.700	195.777	189.655	23.541	28.103	28.706	32.393	177.613	30.989	-8191	255	
848.701	1	1	0	0	0.2099	0.15148	0.1648	0.084365	0.21113	0.068173	0.29136	0.19644	0.17843	0.29298	0.13338	0.23949	0.16875	0.21239	0.16435	0.37755	-2.3229	-3.0792	-2.9917	-2.9354	-3.0792	-2.6375	-3.1521	-3.1417	-2.8125	-2.9875	-3.1354	-3.0479	-3.1437	-2.9396	-2.9354	-3.1875	213.989	116.247	19.394	323.018	247.945	364.401	321.478	200.008	200.809	155.047	305.784	302.764	161.547	30.122	264.588	366.060	0.0017887	0.00060856	0.00027075	935.52	8.0985e-06	8.7905e-06	972.82	309.54	4.011e-06	8.7788e-06	405.52	179.38	123.52	60.354	1.0894e-05	102.23	0.0018403	0.0019815	0.00054236	930.36	2.0484e-05	2.2058e-05	966.17	308.45	2.136e-05	2.1896e-05	405	179.1	124.33	60.689	2.1591e-05	102.52	329.702	115.514	105.391	19.208	145.041	154.040	18.993	24.442	219.211	117.825	23.445	28.041	28.599	32.399	180.406	30.840	-8191	255	
848.797	1	1	0	0	0.27078	0.14578	0.13464	0.19721	0.18758	0.15287	0.19787	0.10119	0.16157	0.14513	0.17031	0.18936	0.09304	0.20943	0.19765	0.24821	-2.2917	-3.0417	-2.8104	-3.0292	-3.0292	-2.8521	-2.9396	-3.1354	-2.7667	-3.2542	-2.9979	-3.1375	-3.05	-2.9771	-3.0354	-3.3146	226.741	110.551	340.052	340.716	203.950	340.573	280.210	201.921	122.379	92.541	273.315	321.130	148.401	39.318	175.402	330.769	0.0016637	0.0002761	0.00010658	937.82	9.1806e-06	9.8227e-06	976.67	310.25	1.4489e-05	9.21e-06	404.31	179.1	123.83	60.305	8.2653e-06	102.55	0.0018588	0.0019841	0.00055489	932.65	2.0662e-05	2.2391e-05	968.88	309.23	2.1211e-05	2.1955e-05	406.05	179.41	124.14	60.782	2.168e-05	102.81	336.832	117.691	130.708	19.122	196.848	151.834	18.923	24.406	164.583	183.786	23.293	28.005	28.626	32.511	162.502	30.848	-8191	255	
848.891	1	1	0	0	0.18226	0.12995	0.35522	0.29257	0.24159	0.092988	0.33487	0.23562	0.082539	0.090585	0.26299	0.51074	0.10818	0.32797	0.15502	0.33918	-2.3479	-3.0458	-2.8792	-2.9354	-3.1208	-2.9562	-3.05	-3.2271	-2.8604	-3.1792	-3.075	-2.9562	-3.3812	-2.8875	-2.9813	-2.9771	256.009	93.244	294.055	149.505	325.770	72.485	312.429	208.925	326.176	102.219	316.734	345.884	268.645	305.929	262.804	265.212	0.0017971	0.00069003	0.00019826	937.96	9.5479e-06	7.6184e-06	986.59	311.56	1.4213e-05	4.7497e-06	409.45	182.46	125.07	60.902	9.4395e-06	104.08	0.001905	0.0020065	0.00055022	933.07	2.1003e-05	2.2217e-05	975.49	309.99	2.1216e-05	2.2099e-05	409.58	181.92	125.39	61.4	2.1549e-05	104.41	340.689	77.364	31.600	19.370	180.500	177.222	19.160	24.559	144.989	148.385	23.374	28.082	28.765	32.412	154.354	30.925	-8191	255	
848.987	1	1	0	0	0.1044	0.11554	0.32989	0.29882	0.084612	0.17162	0.18382	0.24227	0.25175	0.30726	0.19571	0.36095	0.051016	0.381	0.080779	0.035521	-2.4833	-2.9958	-2.9875	-2.7896	-3.0458	-2.9917	-2.9583	-3.1417	-2.7417	-2.9042	-3.1896	-2.9167	-3.1312	-3.0979	-2.95	-3.2417	297.549	154.964	278.948	315.724	333.782	15.185	336.722	13.429	98.123	96.111	341.700	312.696	156.487	303.546	26.989	192.539	0.0019423	0.00078358	0.0002129	939.83	1.4946e-05	7.638e-06	985.87	314.19	1.4371e-05	8.5233e-06	411.8	183.54	125.06	61.364	1.1343e-05	104.17	0.0018546	0.0019715	0.00055021	934.83	2.0881e-05	2.1844e-05	980.45	312.59	2.1367e-05	2.2676e-05	412.76	182.94	126.08	61.847	2.1694e-05	104.64	329.800	90.088	94.387	19.286	149.459	155.230	18.900	24.507	170.308	163.315	23.254	27.943	28.840	32.410	174.749	30.749	-8191	255	
849.083	1	1	0	0	0.41518	0.11121	0.125	0.31775	0.047669	0.2218	0.099499	0.18493	0.18222	0.14485	0.22389	0.20659	0.084641	0.016967	0.22868	0.27902	-2.3333	-2.9417	-3.0854	-2.8375	-3.1167	-2.8354	-2.8917	-3.1312	-2.7438	-3.075	-3.2292	-2.9979	-3.0396	-3.0646	-2.675	-3.2417	212.232	15.192	14.112	343.709	320.008	106.053	219.450	276.515	261.915	244.454	310.579	338.862	295.584	156.201	265.834	314.310	0.0018212	0.00043063	0.00025006	945.42	7.0775e-06	8.6828e-06	993.25	311.91	1.3776e-05	5.7365e-06	407.37	180.69	124.18	60.605	1.0494e-05	102.18	0.0018805	0.002022	0.00054504	940.84	2.1076e-05	2.2018e-05	982.93	311.32	2.1112e-05	2.193e-05	408.25	180.27	124.65	60.882	2.1653e-05	102.66	330.579	114.457	81.008	19.315	157.700	142.358	18.970	24.405	197.303	172.345	23.531	27.806	28.593	32.526	154.912	30.935	-8191	255	
849.180	1	1	0	0	0.20349	0.13027	0.30091	0.078043	0.24266	0.07824	0.2273	0.07169	0.10668	0.16871	0.3129	0.25009	0.088554	0.2217	0.015002	0.27667	-2.4604	-2.9021	-3.0708	-2.8875	-3.0375	-3.0312	-2.9208	-3.1833	-2.9146	-2.7958	-3.1583	-2.9229	-3.0521	-3.1917	-2.7625	-3.1021	36.975	62.201	86.576	228.446	310.030	140.872	348.233	272.091	210.264	337.982	88.323	220.934	174.320	288.790	6.980	275.131	0.0016866	0.00082109	0.00025142	940.75	1.202e-05	7.848e-06	981.93	310.77	8.8698e-06	7.1966e-06	404.53	178.41	122.78	60.207	1.4648e-05	101.46	0.0018288	0.0019928	0.00054717	935.8	2.0686e-05	2.1651e-05	972.45	309.2	2.069e-05	2.1719e-05	405.14	178.44	123.54	60.604	2.1695e-05	101.9	331.782	119.471	82.437	18.959	136.244	137.382	19.102	24.623	169.790	159.645	23.625	27.967	28.694	32.323	167.244	30.985	-8191	255	
849.300	1	1	0	0	0.20341	0.2385	0.061731	0.058596	0.040127	0.22986	0.12087	0.28482	0.11784	0.11569	0.24984	0.34107	0.070297	0.22272	0.19511	0.21054	-2.3458	-2.8729	-3.2167	-2.85	-2.9729	-2.9917	-2.9688	-3.1667	-3.0187	-2.9729	-3.2333	-2.8958	-2.9667	-3.0292	-2.8708	-3.1813	173.022	53.466	29.478	157.881	293.780	133.824	323.888	21.256	94.811	193.927	322.451	10.921	21.001	252.920	207.260	311.285	0.0016026	0.00072779	0.00019941	933.79	8.1393e-06	7.9242e-06	979.05	311.51	1.3867e-05	5.8652e-06	405.57	178.81	124.66	60.179	1.8317e-05	101.58	0.0018281	0.001982	0.00055297	930.35	2.0877e-05	2.1843e-05	969.11	309.65	2.0831e-05	2.1795e-05	405.73	179.24	124.43	60.777	2.1633e-05	102.22	338.453	108.211	115.488	19.093	159.874	177.511	19.013	24.625	149.602	140.509	23.411	27.904	28.705	32.386	154.616	30.960	-8191	255	
849.396	1	1	0	0	0.049787	0.1419	0.24144	0.19696	0.079859	0.25016	0.11656	0.14669	0.12215	0.24009	0.12725	0.09186	0.28021	0.25366	0.285	0.23001	-2.4188	-2.8833	-3.0062	-2.975	-2.8	-3.05	-3.0083	-3.0521	-2.8937	-2.8604	-3.1021	-2.8667	-3.0271	-3.1208	-2.8438	-3.3167	181.805	82.362	31.758	328.821	295.548	123.989	20.573	26.268	21.025	187.718	64.701	316.326	321.109	351.331	289.798	337.134	0.0019116	0.00082622	0.00022014	934.3	1.361e-05	8.6229e-06	980.47	310.69	1.5212e-05	9.5281e-06	408.26	181.74	124.6	61.17	2.3687e-06	102.98	0.001817	0.0020243	0.00055197	930.67	2.1051e-05	2.2192e-05	971.9	309.87	2.0748e-05	2.2727e-05	408.01	181.21	125.3	61.47	2.1693e-05	103.22	330.241	112.209	105.755	19.524	157.607	176.331	19.053	24.800	172.256	147.957	23.380	27.772	28.627	32.372	133.132	30.873	-8191	255	
#DATA ENDS
