BOXY.EXE: ISS Imagent and Oximeter Data Acquisition Program Version 0.80
Ascii Record File

#ACQ INFORMATION
2  Detector Channels 
16  External MUX Channels 
1  Auxiliary Channels 
5000  Waveform (CCF) Frequency (Hz)
1  Waveforms Skipped 
30  Waveforms Averaged 
1  Cycles Averaged 
16  Acquisitions per Waveform 
10.0806  Updata Rate (Hz) 

#FILE INFORMATION
TRUE -- External MUX Channel results are PARSED.
FALSE -- AC DC and Phase are NOT grouped.
TRUE -- Companion Program Settings File CREATED.
FALSE -- AC data not excluded
FALSE -- DC data not excluded
FALSE -- Phase data not excluded
FALSE -- Auxillary Chn. data not excluded
Tab delimiters

#CALIBRATION STATE
TRUE -- Waveform Calibration Values APPLIED.


#AUX CALIBRATION VALUES
Val Type	aux-1	

Term	1.0000e+00	
Factor	0.0000e+00	


#WF CALIBRATION VALUES
A = Detector Channel
Val Type	A-AC1	A-AC2	A-AC3	A-AC4	A-AC5	A-AC6	A-AC7	A-AC8	A-AC9	A-AC10	A-AC11	A-AC12	A-AC13	A-AC14	A-AC15	A-AC16	A-DC1	A-DC2	A-DC3	A-DC4	A-DC5	A-DC6	A-DC7	A-DC8	A-DC9	A-DC10	A-DC11	A-DC12	A-DC13	A-DC14	A-DC15	A-DC16	A-Ph1	A-Ph2	A-Ph3	A-Ph4	A-Ph5	A-Ph6	A-Ph7	A-Ph8	A-Ph9	A-Ph10	A-Ph11	A-Ph12	A-Ph13	A-Ph14	A-Ph15	A-Ph16	

Term	0.00000e+00	0.00000e+00	0.00000e+00	0.00000e+00	0.00000e+00	0.00000e+00	0.00000e+00	0.00000e+00	0.00000e+00	0.00000e+00	0.00000e+00	0.00000e+00	0.00000e+00	0.00000e+00	0.00000e+00	0.00000e+00	0.00000e+00	0.00000e+00	0.00000e+00	0.00000e+00	0.00000e+00	0.00000e+00	0.00000e+00	0.00000e+00	0.00000e+00	0.00000e+00	0.00000e+00	0.00000e+00	0.00000e+00	0.00000e+00	0.00000e+00	0.00000e+00	0.00000e+00	0.00000e+00	0.00000e+00	0.00000e+00	0.00000e+00	0.00000e+00	0.00000e+00	0.00000e+00	0.00000e+00	0.00000e+00	0.00000e+00	0.00000e+00	0.00000e+00	0.00000e+00	0.00000e+00	0.00000e+00	
Factor	1.00000e+00	1.00000e+00	1.00000e+00	1.00000e+00	1.00000e+00	1.00000e+00	1.00000e+00	1.00000e+00	1.00000e+00	1.00000e+00	1.00000e+00	1.00000e+00	1.00000e+00	1.00000e+00	1.00000e+00	1.00000e+00	1.00000e+00	1.00000e+00	1.00000e+00	1.00000e+00	1.00000e+00	1.00000e+00	1.00000e+00	1.00000e+00	1.00000e+00	1.00000e+00	1.00000e+00	1.00000e+00	1.00000e+00	1.00000e+00	1.00000e+00	1.00000e+00	X	X	X	X	X	X	X	X	X	X	X	X	X	X	X	X	

B = Detector Channel
Val Type	B-AC1	B-AC2	B-AC3	B-AC4	B-AC5	B-AC6	B-AC7	B-AC8	B-AC9	B-AC10	B-AC11	B-AC12	B-AC13	B-AC14	B-AC15	B-AC16	B-DC1	B-DC2	B-DC3	B-DC4	B-DC5	B-DC6	B-DC7	B-DC8	B-DC9	B-DC10	B-DC11	B-DC12	B-DC13	B-DC14	B-DC15	B-DC16	B-Ph1	B-Ph2	B-Ph3	B-Ph4	B-Ph5	B-Ph6	B-Ph7	B-Ph8	B-Ph9	B-Ph10	B-Ph11	B-Ph12	B-Ph13	B-Ph14	B-Ph15	B-Ph16	

Term	0.00000e+00	0.00000e+00	0.00000e+00	0.00000e+00	0.00000e+00	0.00000e+00	0.00000e+00	0.00000e+00	0.00000e+00	0.00000e+00	0.00000e+00	0.00000e+00	0.00000e+00	0.00000e+00	0.00000e+00	0.00000e+00	0.00000e+00	0.00000e+00	0.00000e+00	0.00000e+00	0.00000e+00	0.00000e+00	0.00000e+00	0.00000e+00	0.00000e+00	0.00000e+00	0.00000e+00	0.00000e+00	0.00000e+00	0.00000e+00	0.00000e+00	0.00000e+00	6.09306e+01	-1.28867e+02	-1.24252e+02	-1.83791e+02	-7.10263e+01	-6.44181e+01	-1.55111e+02	-1.62015e+02	-5.97362e+01	-7.09102e+01	-1.70545e+02	-1.70268e+02	-1.83573e+02	-1.76953e+02	-6.30865e+01	-1.49760e+02	
Factor	6.88653e-05	1.99114e-04	5.52351e-05	1.82487e-01	2.78844e-06	2.19230e-06	1.74721e-01	5.94271e-02	3.46584e-06	1.87842e-06	9.44179e-02	3.29784e-02	3.44525e-02	1.09698e-02	2.67653e-06	1.53179e-02	1.06372e-05	1.32956e-05	3.69939e-06	9.20757e-02	1.38416e-07	1.48277e-07	8.30070e-02	2.99589e-02	1.38529e-07	1.47423e-07	4.64028e-02	1.61447e-02	1.73924e-02	5.58577e-03	1.42191e-07	7.57640e-03	X	X	X	X	X	X	X	X	X	X	X	X	X	X	X	X	



#DISTANCE SETTINGS
A = Detector Channel
A-1	A-2	A-3	A-4	A-5	A-6	A-7	A-8	A-9	A-10	A-11	A-12	A-13	A-14	A-15	A-16	

2.5000e+00	3.0000e+00	2.5000e+00	3.0000e+00	2.0000e+00	3.0000e+00	1.5000e+00	3.0000e+00	3.0000e+00	3.0000e+00	3.0000e+00	3.0000e+00	3.0000e+00	3.0000e+00	1.5000e+00	3.0000e+00	

B = Detector Channel
B-1	B-2	B-3	B-4	B-5	B-6	B-7	B-8	B-9	B-10	B-11	B-12	B-13	B-14	B-15	B-16	

1.0000e+01	1.0000e+01	1.0000e+01	1.4400e+00	1.0000e+01	1.0000e+01	1.5100e+00	1.9400e+00	1.0000e+01	1.0000e+01	1.9900e+00	2.4900e+00	2.4100e+00	2.9000e+00	1.0000e+01	2.9800e+00	




#DATA BEGINS
time	group	step	mark	flag	A-AC1	A-AC2	A-AC3	A-AC4	A-AC5	A-AC6	A-AC7	A-AC8	A-AC9	A-AC10	A-AC11	A-AC12	A-AC13	A-AC14	A-AC15	A-AC16	A-DC1	A-DC2	A-DC3	A-DC4	A-DC5	A-DC6	A-DC7	A-DC8	A-DC9	A-DC10	A-DC11	A-DC12	A-DC13	A-DC14	A-DC15	A-DC16	A-Ph1	A-Ph2	A-Ph3	A-Ph4	A-Ph5	A-Ph6	A-Ph7	A-Ph8	A-Ph9	A-Ph10	A-Ph11	A-Ph12	A-Ph13	A-Ph14	A-Ph15	A-Ph16	B-AC1	B-AC2	B-AC3	B-AC4	B-AC5	B-AC6	B-AC7	B-AC8	B-AC9	B-AC10	B-AC11	B-AC12	B-AC13	B-AC14	B-AC15	B-AC16	B-DC1	B-DC2	B-DC3	B-DC4	B-DC5	B-DC6	B-DC7	B-DC8	B-DC9	B-DC10	B-DC11	B-DC12	B-DC13	B-DC14	B-DC15	B-DC16	B-Ph1	B-Ph2	B-Ph3	B-Ph4	B-Ph5	B-Ph6	B-Ph7	B-Ph8	B-Ph9	B-Ph10	B-Ph11	B-Ph12	B-Ph13	B-Ph14	B-Ph15	B-Ph16	aux-1	digaux	

879.672	1	1	0	256	0.1714	0.23476	0.20343	0.32319	0.057344	0.27174	0.11538	0.061462	0.053778	0.074613	0.21508	0.17662	0.15147	0.088777	0.094594	0.26614	-2.6083	-3.0458	-2.8646	-3.1292	-3.1042	-2.7833	-3.1625	-3.0042	-2.6042	-3.0292	-2.8625	-3.05	-3.1437	-3.0458	-2.9375	-3.2458	116.757	136.836	147.809	27.296	113.735	149.801	174.064	17.833	125.674	226.674	11.134	288.218	41.328	326.178	163.883	270.729	0.0023018	0.0015991	0.00017484	840.55	1.8055e-05	1.4813e-05	1012.8	309.7	1.8621e-05	3.765e-06	462.47	222.91	137.56	74.603	8.9227e-06	130.58	0.0031135	0.0034694	0.00096271	849.78	3.6182e-05	3.9047e-05	1013.6	311.94	3.7087e-05	3.8643e-05	467.26	223.74	139.84	75.597	3.6581e-05	131.3	330.581	94.150	77.146	19.272	194.409	144.709	19.156	24.366	203.268	56.024	23.384	27.440	28.489	31.738	194.311	30.078	-8191	255	
879.766	1	1	0	0	0.0839	0.050523	0.29777	0.030336	0.13433	0.14245	0.1786	0.1049	0.12381	0.23152	0.33668	0.27997	0.09605	0.29932	0.11795	0.13634	-2.3458	-2.9896	-2.8438	-2.8542	-3.1312	-2.8458	-3.2062	-3.0604	-2.8771	-2.975	-3.1208	-2.8521	-3.2188	-2.8417	-3.0021	-3.2667	212.062	157.531	180.363	219.284	233.019	290.821	283.318	181.500	325.007	91.528	66.513	19.079	212.819	310.692	294.535	74.526	0.0024945	0.00073887	0.00023119	836.81	8.2572e-06	6.0967e-06	1007.3	307.73	9.9149e-06	5.2321e-06	457.8	221.2	136.65	74.39	7.6423e-06	130.02	0.0030738	0.0033857	0.00092964	845.66	3.5627e-05	3.7686e-05	1003.9	309.64	3.5837e-05	3.7464e-05	463.18	222.27	138.91	75.455	3.6586e-05	131.15	328.695	102.463	105.160	19.354	163.009	157.143	19.121	24.515	176.854	122.415	23.457	27.733	28.940	31.438	189.954	30.162	-8191	255	
879.862	1	1	0	0	0.1571	0.23047	0.10009	0.23676	0.24609	0.21874	0.1406	0.019227	0.15148	0.1534	0.36441	0.378	0.11039	0.025336	0.15304	0.22753	-2.4979	-3.0229	-2.875	-2.9396	-2.8896	-2.7979	-3.1	-3.1542	-2.7542	-2.8646	-3.0125	-3.0083	-3.1979	-2.9729	-2.8667	-3.2417	307.257	104.535	263.728	92.128	308.652	235.031	249.725	37.233	340.476	67.659	316.966	352.101	85.963	110.732	103.283	327.487	0.0021393	0.0010252	0.00024073	838.1	9.7468e-06	1.2521e-05	1003.3	307.57	2.2476e-05	6.7277e-06	457.82	220.48	136.45	74.159	1.0678e-05	129.91	0.0031622	0.0034467	0.00094851	847.13	3.628e-05	3.8411e-05	1006.5	310.27	3.6008e-05	3.7475e-05	462.19	221.78	138.54	75.197	3.5825e-05	130.76	333.176	77.965	89.619	19.250	132.691	168.297	19.374	24.177	183.852	146.839	23.301	27.420	28.742	31.548	177.612	30.032	-8191	255	
879.958	1	1	0	0	0.22424	0.15329	0.12723	0.28079	0.17998	0.11321	0.14901	0.31936	0.13053	0.20153	0.101	0.064648	0.18674	0.35608	0.11776	0.15843	-2.3667	-2.9375	-2.9208	-2.7729	-3.0979	-2.875	-3.0021	-3.1917	-2.8063	-3.1437	-3.0896	-2.8958	-3.0229	-2.8104	-2.9042	-3.1833	168.191	188.586	361.322	320.000	360.822	240.069	244.272	335.059	174.998	118.834	178.067	27.162	330.836	310.783	143.523	25.483	0.002209	0.00091187	0.00022891	841.28	9.6819e-06	1.0617e-05	1005.5	308.35	1.4553e-05	2.5689e-06	460.15	221.65	136.58	74.789	7.7305e-06	129.82	0.0030355	0.0033303	0.00092664	848.96	3.5708e-05	3.7686e-05	1006	311.01	3.599e-05	3.7063e-05	463.69	222.21	138.73	75.318	3.6309e-05	130.89	338.095	92.631	77.782	19.527	130.691	146.526	19.143	24.230	185.778	170.015	23.589	27.507	28.551	31.496	189.906	30.168	-8191	255	
880.032	1	1	0	0	0.22294	0.22117	0.064126	0.27402	0.092455	0.094147	0.25099	0.21188	0.05323	0.11132	0.16169	0.060924	0.10706	0.035428	0.30012	0.17135	-2.3646	-2.9354	-2.7896	-2.7188	-2.8208	-2.7938	-2.7167	-3.1146	-2.8125	-3.0083	-2.9646	-2.925	-3.0896	-3.0646	-2.8125	-3.2229	125.133	33.230	339.054	297.486	69.226	181.202	328.332	353.234	360.163	130.680	253.282	327.328	299.577	365.242	85.455	345.849	0.0022241	0.0011527	0.0001487	842.36	6.2033e-06	1.7077e-05	1009.8	308.11	1.6144e-05	1.686e-06	461.26	221.1	137.08	74.53	1.5488e-05	130.36	0.0030023	0.0033077	0.00092109	850.49	3.4498e-05	3.6361e-05	1007.8	310.88	3.5226e-05	3.6736e-05	464.21	222.74	139.1	75.422	3.6559e-05	131.39	333.235	72.974	98.099	19.522	152.363	185.471	19.163	24.366	186.731	74.331	23.401	27.673	28.546	31.689	141.687	30.296	-8191	255	
880.151	1	1	0	0	0.23748	0.18986	0.063168	0.25589	0.16504	0.37058	0.21597	0.25266	0.054353	0.15451	0.14111	0.1939	0.29686	0.084136	0.20096	0.09908	-2.2271	-2.9271	-2.9208	-2.9396	-3.0271	-2.7979	-2.8187	-3.2333	-2.8	-3.0271	-3.125	-2.9625	-3.0979	-3.1521	-2.9083	-3.3104	192.640	314.262	7.554	223.714	134.747	206.437	54.744	279.596	296.652	236.316	313.548	317.663	299.754	352.500	344.005	342.911	0.0022839	0.0012251	0.00047607	844.63	1.4359e-05	3.8957e-06	1011.3	307.78	2.3055e-05	9.6562e-06	460.7	222.14	136.56	74.846	1.3284e-05	131.2	0.0030061	0.003331	0.00092254	852.41	3.4499e-05	3.6251e-05	1011	310.77	3.4521e-05	3.6695e-05	465.52	223.54	139.1	75.543	3.6698e-05	131.99	337.441	85.495	100.871	19.479	184.433	153.003	19.231	24.428	152.172	184.809	23.305	27.527	28.411	31.781	189.360	30.248	-8191	255	
880.247	1	1	0	0	0.1311	0.2121	0.17323	0.16945	0.10212	0.065751	0.087988	0.10526	0.20179	0.04855	0.03776	0.16343	0.27537	0.16711	0.031604	0.2409	-2.525	-3.0229	-2.9958	-2.7854	-3.0542	-2.8646	-3.0479	-3.2458	-2.7687	-2.8708	-3.1104	-3.0042	-3.1125	-3.0458	-2.775	-3.1958	328.770	63.126	163.718	274.449	166.612	220.881	7.712	75.892	134.939	216.351	203.475	260.311	330.176	50.044	112.373	326.241	0.0020654	0.00094142	0.00046829	847.65	1.1002e-05	5.9937e-06	1012.2	309.03	1.2769e-05	8.7253e-06	457.13	219.85	136.52	74.052	1.3713e-05	129.46	0.0029741	0.0033696	0.00093661	853.81	3.4517e-05	3.6632e-05	1009.2	310.88	3.4311e-05	3.7256e-05	462.33	221.46	138.23	75.019	3.6077e-05	130.5	341.852	110.784	106.050	19.241	133.563	208.769	19.041	24.514	184.021	170.735	23.271	27.527	28.681	31.431	171.972	30.304	-8191	255	
880.343	1	1	0	0	0.17095	0.22129	0.18067	0.32176	0.28052	0.23149	0.097658	0.2297	0.10375	0.1596	0.23297	0.10643	0.15763	0.19539	0.15713	0.21728	-2.4146	-2.6417	-3.1562	-2.8187	-3.0125	-3.0146	-2.7188	-3.1417	-2.8917	-3.0167	-3.1604	-3.0354	-2.8896	-3.1417	-2.7833	-3.3896	167.431	87.832	248.919	355.752	285.162	123.404	28.036	237.997	311.899	211.195	323.959	248.026	359.916	65.340	90.500	14.337	0.0023136	0.00089415	0.00015428	845.21	1.9414e-05	7.7638e-06	1000.8	307.66	1.2444e-05	8.3544e-06	454.92	219.16	135.99	74.22	1.2838e-05	129.16	0.0029347	0.003336	0.00091612	848.87	3.3946e-05	3.6313e-05	1001.5	309.44	3.379e-05	3.709e-05	459.88	220.27	137.8	74.969	3.5992e-05	130.13	336.605	120.536	83.972	19.347	167.490	194.378	19.287	24.519	207.634	166.237	23.282	27.701	28.696	31.497	158.458	30.027	-8191	255	
880.463	1	1	0	0	0.32705	0.10045	0.12063	0.085609	0.13342	0.2178	0.097874	0.24568	0.10333	0.20437	0.17705	0.27312	0.13263	0.10141	0.18887	0.18203	-2.5042	-2.6646	-2.9146	-3.0125	-3.1521	-2.9083	-2.8	-3.1417	-2.9313	-2.9125	-3.025	-2.9125	-2.8729	-3.1937	-2.9271	-3.3396	280.360	362.193	217.271	359.980	79.876	347.723	259.060	285.219	316.871	275.079	350.852	87.240	357.711	19.047	297.478	317.535	0.0023033	0.0016333	0.00021675	838.19	1.5296e-05	8.2536e-06	1000.6	305.99	2.8414e-05	8.2955e-06	455.08	219.87	136.31	74.276	1.4694e-05	129.62	0.0029444	0.0033874	0.00092298	845.88	3.453e-05	3.6817e-05	999.61	308.62	3.4412e-05	3.7067e-05	460.95	220.89	138.11	75.022	3.5558e-05	130.51	336.640	99.618	90.494	19.289	170.016	192.590	19.391	24.489	145.215	179.951	23.150	27.472	28.646	31.566	193.886	30.266	-8191	255	
880.560	1	1	0	0	0.061249	0.19015	0.34428	0.2178	0.075138	0.12373	0.044906	0.20218	0.14286	0.11209	0.20471	0.17054	0.24592	0.16963	0.14838	0.29608	-2.4688	-3.0104	-3.0417	-3.1458	-2.8063	-3.1	-2.7708	-3.0875	-2.9396	-2.7188	-3.1729	-2.9833	-2.9813	-3.2833	-2.85	-3.1958	339.736	109.693	30.690	280.894	211.985	43.267	332.456	310.329	193.471	107.456	325.989	217.039	43.844	11.247	268.476	339.853	0.0022821	0.0011142	0.00038317	843.87	1.3083e-05	1.3099e-05	1001.8	306.71	1.4223e-05	3.1076e-06	457.42	221.14	136	74.329	5.8721e-06	129.89	0.0029289	0.0033735	0.0009029	848.03	3.4451e-05	3.6143e-05	1000.2	308.83	3.3922e-05	3.6898e-05	461.49	221.27	138.19	75.123	3.4602e-05	130.74	335.135	102.188	86.098	19.296	203.589	170.719	19.359	24.377	227.055	160.887	23.491	27.594	28.450	31.760	141.564	30.188	-8191	255	
880.631	1	1	0	0	0.1811	0.036308	0.1532	0.065965	0.16906	0.096288	0.23705	0.30834	0.26736	0.10345	0.18774	0.01067	0.11375	0.29249	0.18152	0.1235	-2.4917	-2.6917	-2.9708	-2.8646	-2.9729	-3.2208	-2.9958	-3.0104	-3.0438	-2.7562	-3.1167	-3.0604	-2.775	-3.2167	-2.9083	-3.1083	15.380	364.191	237.933	21.948	348.727	177.416	331.349	349.457	64.019	105.626	235.994	314.570	219.604	356.075	363.923	333.729	0.0020913	0.00069297	0.00027732	843.41	1.6233e-05	6.9295e-06	1002.3	309.37	1.2996e-05	6.707e-06	458.78	220.43	136.44	74.558	1.162e-05	130.66	0.0029456	0.0033178	0.00089246	849.47	3.4425e-05	3.6109e-05	1001.9	310.61	3.4661e-05	3.7339e-05	462.68	221.76	138.86	75.363	3.486e-05	131.63	339.003	98.925	120.569	19.266	140.872	114.510	19.307	24.555	201.834	112.883	23.573	27.463	28.380	31.585	141.814	30.201	-8191	255	
880.752	1	1	0	0	0.14707	0.053163	0.26686	0.12415	0.12124	0.095811	0.16788	0.087134	0.18784	0.24009	0.072654	0.14445	0.16717	0.34223	0.14369	0.078989	-2.5521	-2.7417	-3.0563	-3.1146	-2.9146	-3.0333	-3.1	-2.9437	-3.0687	-2.8021	-3.0375	-3.1708	-2.7958	-3.2375	-2.9333	-3.0542	103.832	13.153	179.072	301.058	35.564	290.403	296.794	212.442	323.457	215.100	306.303	323.945	323.437	344.216	74.012	320.292	0.0021995	0.0012395	0.0002837	844.23	9.3022e-06	7.4949e-06	1008.6	308.4	1.4793e-05	4.5399e-06	458.98	223.28	137.47	74.691	1.3771e-05	130.88	0.0029373	0.003319	0.00089079	848.86	3.4568e-05	3.5834e-05	1006.5	310.76	3.4004e-05	3.6441e-05	464.1	223.3	139.2	75.688	3.4363e-05	132.03	335.941	68.681	108.491	19.329	105.609	183.513	19.186	24.320	169.359	171.320	23.274	27.561	28.399	31.479	170.472	30.140	-8191	255	
880.846	1	1	0	0	0.061677	0.19372	0.1133	0.18377	0.17152	0.35034	0.19989	0.14761	0.011646	0.12844	0.30519	0.2158	0.1357	0.3058	0.24027	0.17035	-2.7125	-2.8229	-3.1292	-3.3208	-2.8312	-3.0646	-3.0333	-2.9313	-2.9958	-2.6896	-2.9854	-3.0875	-2.65	-3.2188	-3.1167	-3.1021	37.825	279.111	355.268	365.126	345.827	9.345	256.881	65.833	70.448	17.669	331.590	284.495	331.213	341.743	358.262	8.731	0.0023089	0.0012326	0.0003969	845.01	1.03e-05	1.0868e-05	1006	308.92	1.7092e-05	6.6486e-06	458.52	220.56	135.74	74.386	1.9187e-05	129.88	0.00295	0.0032502	0.0008991	851.77	3.4222e-05	3.561e-05	1007.1	310.86	3.4358e-05	3.5922e-05	463.05	221.87	138.5	75.273	3.4323e-05	130.88	332.743	92.795	102.777	19.301	183.147	148.110	19.137	24.320	149.989	135.554	23.512	27.688	28.610	31.562	196.105	30.249	-8191	255	
880.944	1	1	0	0	0.20501	0.13054	0.23376	0.23793	0.1225	0.18506	0.16839	0.28428	0.29161	0.062911	0.11246	0.10967	0.13671	0.31449	0.14142	0.20185	-2.4354	-2.7938	-3.0042	-3.0438	-2.7521	-3.1667	-3.15	-2.9167	-2.9646	-2.8833	-3.1625	-3.0771	-2.7167	-3.1188	-2.9333	-3.0021	324.087	151.250	211.590	338.414	161.164	118.663	316.678	260.951	114.546	165.981	324.424	294.054	270.385	336.629	160.915	295.710	0.0022921	0.0012688	0.00026894	843.28	1.2527e-05	7.6511e-06	1000.9	306.46	2.2291e-05	1.0596e-05	455.38	218.84	136.15	74.115	9.5495e-06	128.77	0.002925	0.0032255	0.00090647	848.85	3.4119e-05	3.5631e-05	1000.7	309.7	3.3978e-05	3.5518e-05	459.12	219.95	137.92	74.737	3.4567e-05	129.72	335.352	43.022	99.635	19.315	133.172	172.209	19.043	24.401	167.524	154.797	23.614	27.569	28.517	31.708	206.741	30.104	-8191	255	
881.063	1	1	0	0	0.26519	0.21167	0.13246	0.26612	0.24331	0.10285	0.35818	0.038694	0.04527	0.067037	0.0709	0.19636	0.26531	0.18395	0.066849	0.19949	-2.6312	-3.0062	-2.9146	-3.125	-2.7625	-3.0729	-3.0583	-2.8688	-3.1479	-2.9375	-3.1063	-3.1792	-2.8312	-3.0104	-2.9271	-2.9708	180.718	121.933	340.479	337.866	260.028	27.108	21.158	296.220	191.866	51.469	45.448	341.953	93.386	300.014	70.318	39.007	0.0020967	0.00091991	0.00036489	843.12	4.7824e-06	1.3162e-05	997.42	307.33	2.458e-05	7.2962e-06	455.81	219.35	136.59	74.124	1.1766e-05	128.85	0.0028852	0.0031577	0.00090338	846.72	3.3949e-05	3.5805e-05	997.15	309.62	3.3765e-05	3.5601e-05	460.19	220.17	138.18	74.881	3.473e-05	130	334.076	133.257	97.768	19.262	178.136	152.122	19.052	24.358	188.305	126.291	23.080	27.614	28.676	31.467	168.126	30.190	-8191	255	
881.159	1	1	0	0	0.09182	0.16241	0.10845	0.17798	0.35816	0.1014	0.10049	0.22767	0.16963	0.18102	0.13208	0.22017	0.10555	0.12665	0.29262	0.084107	-2.5104	-2.9875	-2.8604	-3.1646	-2.8729	-2.9229	-3.1562	-2.8333	-3	-2.9688	-2.9	-3.3625	-2.8688	-3.1854	-3.0771	-2.8917	23.717	28.676	155.182	358.910	303.260	78.140	306.241	314.921	340.783	139.828	312.522	275.418	331.604	318.073	353.573	21.032	0.0021739	0.0017684	0.0003165	842.99	1.7327e-05	1.0068e-05	997.57	306.82	2.0988e-05	5.7785e-06	455.7	220.61	136.35	74.17	8.6605e-06	129.12	0.0028812	0.00319	0.00091499	848.69	3.3693e-05	3.6178e-05	999.71	310.08	3.3508e-05	3.5974e-05	461.27	221.04	138.39	75.07	3.5524e-05	130.3	334.966	103.014	94.338	19.197	150.457	158.682	19.162	24.257	175.281	180.738	23.514	27.512	28.608	31.602	175.784	30.186	-8191	255	
881.255	1	1	0	0	0.060441	0.14311	0.071525	0.25584	0.13129	0.015995	0.058756	0.12181	0.12727	0.22105	0.012195	0.27522	0.23783	0.058698	0.038407	0.16483	-2.4437	-2.9104	-2.7458	-3.0479	-2.7125	-2.9375	-3.1271	-2.6854	-2.9	-3.0208	-2.6437	-3.175	-3.0333	-2.9646	-2.9854	-3.0771	121.453	343.658	174.499	340.561	77.812	38.778	311.788	259.539	20.849	44.931	256.013	355.383	20.479	76.757	156.610	14.519	0.002324	0.0011072	0.00029047	845.89	1.7064e-05	8.8554e-06	1002.4	309.56	2.0078e-05	2.6061e-06	457.63	221.95	136.99	74.844	1.0106e-05	130.64	0.0028853	0.0032566	0.00093029	849.57	3.4165e-05	3.6967e-05	1003.5	310.9	3.3709e-05	3.6296e-05	463.49	222.26	138.79	75.65	3.5916e-05	131.39	338.668	86.127	83.864	19.486	151.457	134.282	19.194	24.436	206.117	99.589	23.413	27.471	28.733	31.608	161.354	30.239	-8191	255	
881.327	1	1	0	0	0.1674	0.040866	0.12514	0.22793	0.21582	0.10662	0.13559	0.1867	0.13198	0.16413	0.36531	0.24413	0.21336	0.15397	0.21937	0.14214	-2.4958	-2.8667	-2.7	-3.1229	-2.8458	-2.825	-3.1104	-2.6875	-2.8063	-2.8583	-2.9208	-3.0396	-2.9583	-2.9479	-3.0563	-3.05	107.798	234.147	130.216	33.540	152.649	138.587	82.501	284.138	280.982	113.964	332.764	308.338	338.572	35.573	169.200	67.385	0.0023965	0.00088161	0.00034412	848.27	1.0721e-05	7.9858e-06	1009.8	308.45	7.3531e-06	8.5449e-06	458.83	222.3	136.66	74.838	1.3314e-05	131.02	0.0029633	0.00336	0.00095534	851.39	3.4713e-05	3.7676e-05	1008.9	311.62	3.4803e-05	3.6954e-05	465.07	223.03	139.12	75.803	3.5438e-05	131.95	341.294	107.874	114.789	19.172	136.047	144.757	19.237	24.369	202.883	156.142	23.312	27.204	28.671	31.737	160.930	30.232	-8191	255	
881.448	1	1	0	0	0.12459	0.15616	0.1544	0.20259	0.10371	0.26528	0.28376	0.14011	0.08284	0.38247	0.10188	0.2453	0.25854	0.21293	0.063669	0.082049	-2.325	-2.8688	-2.7104	-3.0604	-2.7333	-2.9104	-3.1417	-2.8917	-3.0354	-3.0333	-2.8854	-3.1604	-2.8563	-3.0021	-3.0458	-2.8958	252.253	276.053	207.818	21.811	202.102	84.426	348.909	343.226	302.694	144.370	319.128	75.671	98.156	352.822	319.566	266.784	0.0021628	0.00097643	0.00031787	846.76	1.4626e-05	4.8612e-06	1011	310.43	1.8972e-05	4.7542e-06	459.18	221.01	136.81	74.788	5.1014e-06	130.69	0.0029595	0.003338	0.0009363	853.09	3.4352e-05	3.7372e-05	1011.5	312.39	3.4902e-05	3.663e-05	464.7	222.66	139.16	75.534	3.5336e-05	131.32	341.092	82.332	106.896	19.180	140.871	180.220	19.060	24.465	228.965	153.326	23.460	27.702	28.362	31.606	151.549	30.237	-8191	255	
881.544	1	1	0	0	0.077943	0.08241	0.18859	0.23011	0.17658	0.27535	0.20804	0.18151	0.30854	0.058956	0.46266	0.33131	0.086986	0.26732	0.13403	0.25559	-2.3833	-3.0229	-2.7167	-3.0062	-3.0917	-2.6792	-3.2062	-2.9375	-2.7604	-3.0646	-2.9271	-3.1063	-2.9354	-2.9771	-3.1729	-2.9333	239.670	169.390	237.126	321.956	142.094	41.572	31.988	321.334	171.708	289.587	319.717	323.811	102.159	26.296	220.713	257.062	0.0023045	0.0014099	0.00023215	846.62	1.5202e-05	6.0297e-06	1000.5	307.75	1.2421e-05	1.0443e-05	459.66	219.66	136.14	74.009	6.3114e-06	128.53	0.0029627	0.0033123	0.00091983	851.32	3.4157e-05	3.732e-05	1003.8	310.35	3.4668e-05	3.6679e-05	460.98	220.7	138.27	74.853	3.4652e-05	129.55	333.301	86.223	95.597	19.461	189.788	178.102	18.942	24.413	177.453	172.693	23.435	27.389	28.612	31.549	137.852	30.032	-8191	255	
881.640	1	1	0	0	0.41097	0.14784	0.019197	0.16812	0.25069	0.31015	0.24588	0.22396	0.055819	0.12445	0.3272	0.32631	0.25312	0.11366	0.25466	0.2443	-2.4625	-2.8646	-2.6312	-2.9896	-2.8354	-2.8146	-3.1958	-3.0896	-2.9083	-2.975	-2.9729	-3.0125	-3.0104	-2.7771	-2.8479	-3.1875	140.300	126.712	65.532	348.568	149.203	146.878	225.591	264.460	15.021	251.085	278.363	357.264	243.199	360.790	184.293	318.699	0.0022164	0.00071218	0.00037978	841.57	1.8696e-05	7.9318e-06	999.04	305.68	1.5756e-05	9.0128e-06	453.07	217.58	135.48	73.62	1.9466e-05	127.52	0.0029672	0.0032572	0.00090548	849.39	3.3699e-05	3.656e-05	997.49	309.22	3.4335e-05	3.5996e-05	456.84	218.58	137.33	74.437	3.4168e-05	128.57	339.361	72.258	98.705	19.070	133.073	210.468	19.137	24.592	232.668	121.822	23.343	27.637	28.595	31.622	173.683	30.217	-8191	255	
881.736	1	1	0	0	0.07924	0.13282	0.2659	0.22419	0.12151	0.32531	0.22752	0.13554	0.18045	0.14876	0.18683	0.33192	0.27166	0.12961	0.097789	0.25881	-2.1937	-2.95	-2.4375	-2.8854	-2.9813	-2.7792	-3.0604	-2.9125	-2.7313	-3.1792	-2.7667	-3.1063	-3.2729	-2.9	-2.7562	-3.1083	328.475	126.758	105.590	309.288	165.032	143.225	360.845	278.603	180.257	319.587	107.222	279.281	232.140	165.068	15.260	337.011	0.0021789	0.0012713	0.00021144	847.94	1.0441e-05	8.2158e-06	996.51	307.23	1.96e-05	4.6593e-06	453.41	217.57	135.01	73.276	1.0759e-05	127.2	0.0029565	0.003237	0.00089407	852.23	3.3956e-05	3.6436e-05	997.88	309.69	3.4001e-05	3.5171e-05	457.06	218.36	136.86	74.133	3.4309e-05	128.42	337.488	102.543	108.529	19.466	157.855	154.567	19.479	24.292	189.606	67.062	23.616	27.533	28.667	31.634	177.544	30.141	-8191	255	
881.855	1	1	0	0	0.2071	0.28406	0.18979	0.20722	0.24751	0.17978	0.1399	0.13841	0.055976	0.14157	0.17885	0.14632	0.17505	0.16876	0.26341	0.044648	-2.4562	-2.9333	-2.9021	-2.9792	-3.0563	-2.8417	-2.8667	-2.9833	-2.6583	-2.8646	-2.9437	-2.8896	-3.0667	-2.7458	-2.9521	-3.3208	60.375	208.341	267.797	334.919	132.724	78.846	50.185	329.020	185.398	143.138	318.033	286.577	274.780	119.680	243.715	176.550	0.0018893	0.00073314	0.00023695	849.54	1.1465e-05	8.552e-06	1000	308.06	5.0072e-06	9.0566e-06	454.61	217.75	135.75	73.667	1.3667e-05	128.07	0.0029513	0.0031802	0.00088882	854.14	3.3423e-05	3.5514e-05	1000.3	310.31	3.4156e-05	3.5101e-05	458.53	218.51	137.65	74.304	3.4414e-05	129.03	337.058	111.566	70.046	19.207	143.354	130.196	19.108	24.415	285.170	110.508	23.270	27.635	28.670	31.504	169.054	30.099	-8191	255	
881.928	1	1	0	0	0.4106	0.25536	0.11684	0.18556	0.27912	0.044665	0.14606	0.19552	0.16922	0.044385	0.073737	0.2224	0.06247	0.20408	0.40371	0.36033	-2.2021	-2.8729	-2.8812	-2.8021	-3.0833	-2.9	-2.9292	-3.175	-2.6562	-2.9146	-3.0458	-2.9292	-3.05	-3.1333	-3.0604	-3.0729	140.578	197.417	204.473	356.595	329.812	290.751	365.600	350.375	337.452	192.923	336.576	256.995	15.458	298.473	119.776	309.542	0.0023752	0.0003275	0.00030612	853.63	1.0937e-05	1.29e-05	1000.9	308.33	1.5845e-05	6.587e-06	453.79	218.7	135.65	73.617	9.372e-06	128.34	0.0028883	0.0031564	0.00089007	856.93	3.3431e-05	3.5404e-05	1001.1	310.63	3.3948e-05	3.5023e-05	459.04	219.58	137.74	74.442	3.4838e-05	129.59	341.689	123.255	111.174	19.264	130.104	157.027	19.487	24.464	137.947	136.659	23.244	27.691	28.620	31.451	120.496	30.170	-8191	255	
882.025	1	1	0	0	0.17802	0.030853	0.071788	0.14643	0.22667	0.086008	0.059523	0.21707	0.022552	0.17221	0.18401	0.19886	0.22091	0.29617	0.24951	0.0041683	-2.4667	-3.0521	-2.8104	-3.0125	-3.1708	-3.0104	-2.9979	-2.9354	-2.675	-3.0417	-3.0167	-2.8292	-3.0604	-3.0812	-2.7687	-3.175	76.030	36.179	32.878	297.258	134.414	167.175	258.750	345.349	225.567	16.915	347.823	345.185	219.255	362.498	41.950	337.051	0.0021067	0.00062466	0.00024684	852.69	1.998e-05	7.678e-06	1005.9	310.14	1.4061e-05	1.32e-05	456.98	218.69	135.47	73.346	7.2875e-06	128.44	0.0029175	0.0031904	0.0008862	858.65	3.3067e-05	3.497e-05	1006.7	311.61	3.3405e-05	3.4861e-05	459.58	219.37	137.57	74.261	3.4784e-05	129.43	333.304	155.149	86.188	19.273	168.020	171.698	19.267	24.498	172.655	157.940	23.475	27.684	28.517	31.611	215.221	30.296	-8191	255	
882.143	1	1	0	0	0.11923	0.20684	0.17504	0.13542	0.21591	0.12926	0.09366	0.069887	0.21263	0.22353	0.20415	0.1044	0.14337	0.13582	0.26063	0.29224	-2.4521	-2.9938	-2.8875	-2.9062	-3.0208	-2.7708	-2.9729	-3.1875	-2.7354	-2.8771	-3.1021	-2.8479	-3.1188	-3.0042	-2.8604	-3.2833	287.119	74.657	297.600	261.280	365.467	115.434	345.316	321.902	262.421	154.401	364.367	11.311	184.174	9.801	287.008	330.379	0.0022457	0.0011188	0.0002931	855.06	7.4292e-06	6.1415e-06	1008.1	309.17	1.1319e-05	1.2198e-05	454.52	217.52	135.99	73.279	1.0458e-05	127.24	0.0028483	0.0032013	0.00090614	862.52	3.3205e-05	3.5638e-05	1006.7	311.31	3.344e-05	3.5757e-05	457.84	218.17	137.42	73.945	3.51e-05	128.37	339.035	79.681	73.759	19.190	152.385	173.831	19.149	24.280	188.021	154.882	23.396	27.565	28.527	31.707	73.363	30.210	-8191	255	
882.240	1	1	0	0	0.2383	0.09825	0.15843	0.14837	0.082523	0.15088	0.12136	0.14767	0.15251	0.13505	0.12727	0.27899	0.10424	0.47279	0.10214	0.15807	-2.2438	-2.8667	-2.7417	-2.8167	-2.925	-2.8854	-2.8896	-3.1396	-2.6583	-3.0563	-3.1063	-2.8354	-3.0542	-3.1937	-2.7208	-3.1833	88.305	53.301	129.245	25.154	10.533	231.347	168.221	319.771	79.391	33.805	263.154	291.863	229.398	324.736	77.384	347.341	0.002198	0.00088358	0.00014522	848.5	3.6498e-06	8.3295e-06	1000.2	308.66	6.3009e-06	7.4931e-06	451.11	215.2	135.03	72.782	1.6853e-05	125.84	0.0028442	0.0032367	0.00088494	853.96	3.3089e-05	3.5196e-05	999.63	309.87	3.3454e-05	3.5978e-05	455.84	216.78	136.73	73.592	3.494e-05	126.96	330.352	100.144	90.749	19.348	68.711	174.296	19.206	24.313	172.906	119.095	23.364	27.543	28.497	31.595	135.825	30.068	-8191	255	
882.336	1	1	0	0	0.11883	0.2646	0.16385	0.28474	0.14759	0.24749	0.10349	0.17045	0.079007	0.050436	0.067795	0.038856	0.35835	0.29771	0.093616	0.1365	-2.4813	-2.9396	-2.8542	-2.7042	-2.8625	-2.8125	-2.8521	-3.3583	-2.6562	-2.925	-3.2271	-2.9542	-3.1188	-3.0667	-2.8146	-3.3375	231.069	272.495	314.214	324.878	31.035	224.634	288.892	31.155	72.726	293.991	56.321	40.582	335.424	238.694	102.978	295.097	0.0021381	0.00077248	0.00035831	850.97	7.2821e-06	7.2362e-06	993.07	308.01	2.4815e-05	1.4349e-06	449.4	214.71	135.22	72.447	7.9252e-06	125.65	0.0028252	0.0032024	0.00088374	855.55	3.2999e-05	3.5306e-05	994.78	309.73	3.3453e-05	3.5838e-05	452.96	215.67	136.69	73.36	3.5037e-05	126.47	337.769	147.049	126.491	19.315	166.358	107.153	19.253	24.379	153.760	147.149	23.361	27.616	28.499	31.534	213.365	30.166	-8191	255	
882.432	1	1	0	0	0.13111	0.24152	0.17251	0.17922	0.10271	0.052502	0.26552	0.21228	0.083884	0.061173	0.13305	0.18981	0.34972	0.14835	0.30524	0.2482	-2.4125	-2.7208	-2.8771	-2.875	-2.8312	-2.9562	-2.7729	-3.1312	-2.8646	-2.9646	-3.0187	-2.7729	-3.0583	-3.2	-2.6813	-3.2104	331.805	58.762	96.174	83.073	364.577	255.225	282.073	360.292	207.795	57.951	31.706	302.415	30.228	315.261	176.380	349.677	0.0020838	0.0009169	0.00038757	850.17	1.3175e-05	8.7724e-06	992.56	306.82	8.5939e-06	1.0313e-05	446.85	214.34	134.22	72.542	8.5067e-06	125.92	0.0028896	0.0032682	0.000883	857.06	3.3651e-05	3.5503e-05	994.88	309.3	3.3216e-05	3.5663e-05	452.01	215.33	136.35	73.306	3.4449e-05	127.02	338.523	83.727	94.679	19.624	152.832	153.941	19.319	24.496	137.667	163.240	23.299	27.535	28.706	31.497	192.842	30.334	-8191	255	
882.528	1	1	0	0	0.10393	0.082764	0.074205	0.1229	0.37759	0.18518	0.21888	0.061165	0.10063	0.083582	0.29566	0.12774	0.12512	0.064261	0.066323	0.21382	-2.3479	-2.7146	-2.9437	-2.8063	-2.9062	-3.0896	-2.8708	-2.9417	-2.8896	-2.7083	-3.0938	-3.0146	-2.9292	-3.0979	-2.7333	-3.1063	348.144	219.494	199.211	245.634	245.524	352.078	260.169	60.523	124.277	156.628	316.503	95.562	235.642	309.693	238.863	317.050	0.0021129	0.0012037	0.0002438	853.78	1.8159e-05	1.1539e-05	998.88	307.99	1.0313e-05	6.5858e-06	451.37	215.98	134.75	72.623	1.0283e-05	126.62	0.0028527	0.0032326	0.00089672	858.51	3.3516e-05	3.5676e-05	998.12	310.26	3.317e-05	3.5795e-05	454.41	216.77	136.49	73.589	3.3875e-05	127.83	336.627	127.778	119.695	19.300	142.982	175.987	19.292	24.354	146.802	141.842	23.054	27.648	28.540	31.582	186.141	30.292	-8191	255	
882.624	1	1	0	0	0.22753	0.018274	0.24915	0.2917	0.25072	0.3105	0.13476	0.13627	0.024373	0.065984	0.11389	0.16365	0.098969	0.39082	0.19833	0.24651	-2.4562	-2.625	-3.0354	-2.9125	-2.8646	-3.1167	-3.0062	-3.025	-2.9354	-2.7729	-3.1312	-3.0958	-2.8896	-3.0917	-2.7771	-3.0896	6.770	182.775	88.210	336.561	97.242	260.964	292.672	302.990	355.299	279.638	288.238	273.114	334.610	322.561	22.539	16.653	0.0022801	0.0012182	0.00037425	855.86	1.4218e-05	6.237e-06	1004.7	309.84	9.5552e-06	6.9504e-06	454.75	217.86	135.9	73.417	3.0185e-06	127.66	0.0028495	0.0032578	0.00087001	859.69	3.4294e-05	3.5882e-05	1003.8	312.12	3.4121e-05	3.6471e-05	459.7	218.79	137.93	74.197	3.5205e-05	128.63	331.044	99.558	82.307	19.280	182.150	190.401	19.081	24.372	229.976	154.022	23.227	27.482	28.932	31.596	167.641	30.160	-8191	255	
882.745	1	1	0	0	0.18828	0.12186	0.22281	0.052162	0.10709	0.13642	0.35934	0.21292	0.11713	0.061896	0.22681	0.18913	0.20391	0.2642	0.018634	0.20127	-2.3979	-2.6312	-2.9521	-2.9917	-2.7646	-2.9479	-2.9271	-3.0563	-2.9813	-2.7854	-2.9562	-3.1417	-2.9479	-3.3042	-2.875	-3.0896	78.984	85.241	350.357	306.723	313.768	231.990	302.455	45.007	52.798	328.341	47.058	17.626	349.484	271.080	171.978	327.138	0.0021557	0.00061783	0.00038244	859.15	1.2314e-05	5.427e-06	1001.3	310.19	1.9297e-05	8.5978e-06	452.76	217.72	136.09	73.261	1.8393e-05	127.51	0.002901	0.0032743	0.00088785	862.97	3.4036e-05	3.5687e-05	1004	312.55	3.3671e-05	3.5952e-05	458.54	218.57	138.1	74.156	3.4536e-05	128.62	334.645	88.578	102.743	19.265	196.468	184.976	19.184	24.330	192.792	170.280	23.133	27.702	28.878	31.607	159.532	30.200	-8191	255	
882.841	1	1	0	0	0.26029	0.15214	0.17672	0.090711	0.20852	0.10895	0.21536	0.16223	0.10669	0.14474	0.078382	0.092657	0.17699	0.15301	0.20952	0.29186	-2.5229	-2.8229	-3.1375	-3.0375	-2.9896	-3.0938	-2.9188	-3.0417	-2.8625	-2.7229	-2.9688	-3.1417	-2.8208	-3.1354	-2.9396	-2.9625	267.752	126.801	126.339	268.076	135.915	184.757	256.399	329.983	280.287	292.861	356.869	289.042	333.379	6.913	219.607	344.161	0.0021153	0.00065448	0.00023655	856.83	1.2819e-05	5.4217e-06	1002.9	309.91	1.832e-05	2.8914e-06	448.24	214.6	134.86	72.525	1.1373e-05	125.94	0.0028729	0.0032504	0.00088972	862	3.4525e-05	3.5407e-05	1000.5	311.58	3.3782e-05	3.5592e-05	453.92	215.94	136.74	73.398	3.4871e-05	126.91	335.247	88.501	132.407	19.344	187.436	250.375	19.210	24.483	209.455	148.861	23.151	27.620	28.631	31.595	195.803	30.280	-8191	255	
882.935	1	1	0	0	0.2068	0.14301	0.14641	0.091476	0.097072	0.081883	0.14401	0.15131	0.11167	0.14744	0.29228	0.1488	0.11086	0.14033	0.054654	0.25384	-2.5833	-2.7208	-2.8688	-2.9271	-2.5292	-3.0375	-3.0146	-2.9104	-2.9396	-2.6979	-3.0729	-3.1396	-2.8521	-2.9958	-2.975	-3.0271	274.242	14.547	165.942	112.573	296.109	27.977	55.655	355.710	236.727	177.729	331.980	102.129	153.964	361.437	357.612	278.107	0.002245	0.00051523	0.00022761	856.08	1.4428e-05	8.0622e-06	994.25	307.54	7.4824e-06	5.6753e-06	446.25	212.48	133.75	71.693	1.2465e-05	124.09	0.0029423	0.0033126	0.00094056	861.67	3.5757e-05	3.7493e-05	995.92	309.95	3.4676e-05	3.6855e-05	450.34	213.45	135.5	72.601	3.53e-05	125.04	335.011	70.574	78.585	19.443	121.554	170.808	18.984	24.513	166.593	102.824	23.249	27.590	28.532	31.461	165.849	30.219	-8191	255	
883.032	1	1	0	0	0.21055	0.04323	0.087299	0.20037	0.078296	0.4049	0.18464	0.13894	0.1456	0.10453	0.27366	0.15065	0.080823	0.10071	0.14776	0.11113	-2.5479	-2.8417	-2.9625	-3.0208	-2.6437	-3.025	-2.9833	-2.8979	-2.9313	-2.7292	-2.9188	-3.0854	-2.7917	-2.95	-2.8688	-2.9021	280.323	312.558	311.562	33.244	203.571	37.672	288.929	251.217	120.893	27.792	274.673	64.092	99.267	14.881	271.510	298.851	0.0019469	0.00049315	0.00023958	850.05	1.5034e-05	6.4894e-06	989.55	305.66	1.6714e-05	4.814e-06	445.75	213.63	133.5	72.302	1.7222e-05	125.12	0.0029113	0.0032764	0.00091978	856	3.4248e-05	3.6613e-05	988.5	308.65	3.4638e-05	3.679e-05	450.63	214.42	135.97	73.216	3.5627e-05	126.28	332.907	70.702	96.025	19.497	113.988	131.660	19.195	24.512	170.380	130.282	23.340	27.644	28.531	31.620	160.169	30.187	-8191	255	
883.152	1	1	0	0	0.29328	0.065606	0.20972	0.043465	0.11398	0.15744	0.097531	0.42447	0.092704	0.14835	0.12163	0.17174	0.062558	0.097659	0.30184	0.25683	-2.5875	-2.9167	-2.6708	-3.2271	-2.6375	-2.9146	-3.1312	-2.8125	-2.9583	-2.8187	-2.8937	-3.1417	-2.8042	-3.0438	-2.8833	-2.8229	228.695	343.881	260.068	196.541	256.046	42.220	310.729	330.909	13.334	237.439	143.002	260.811	67.312	308.861	42.917	284.402	0.0022218	0.0010362	7.3605e-05	847.25	1.1005e-05	8.9123e-06	992.22	305.29	9.0544e-06	9.6025e-06	446.08	215.09	133.89	73.194	7.8969e-06	126.87	0.0029471	0.0032946	0.00092221	852.85	3.4201e-05	3.6665e-05	990.78	307.95	3.3571e-05	3.5883e-05	452.1	216.04	136.06	73.891	3.5602e-05	127.93	342.394	95.242	169.219	19.242	130.305	174.440	19.198	24.470	204.307	130.584	23.253	27.648	28.621	31.527	190.889	30.203	-8191	255	
883.224	1	1	0	0	0.26886	0.065865	0.050144	0.1699	0.32524	0.2437	0.061854	0.10083	0.22081	0.27459	0.14103	0.095324	0.057164	0.081234	0.17989	0.30673	-2.6708	-2.6417	-2.7687	-2.9458	-2.8646	-3.0062	-3.1312	-2.7479	-2.9792	-2.9188	-2.9458	-3.2375	-2.9458	-2.9708	-2.8333	-2.9688	223.912	154.976	318.022	194.123	28.632	167.754	185.708	14.682	256.455	159.379	262.927	307.297	246.751	309.087	230.813	288.791	0.0020796	0.00069518	0.00030548	846.32	1.0626e-05	1.0099e-05	993.11	307.53	1.1531e-05	4.4152e-06	451.56	216.42	135.78	73.344	1.6519e-05	127.32	0.0029775	0.0033132	0.00093165	853.23	3.53e-05	3.7334e-05	996.13	309.98	3.4332e-05	3.5772e-05	456.38	217.8	137.48	74.142	3.5095e-05	128.2	336.640	70.909	89.775	19.314	145.926	108.456	19.422	24.307	171.326	150.071	23.270	27.522	28.662	31.617	157.907	30.253	-8191	255	
883.320	1	1	0	0	0.26161	0.12665	0.11808	0.42596	0.40442	0.14729	0.3239	0.065019	0.21589	0.17108	0.0437	0.097231	0.17583	0.35059	0.12043	0.042539	-2.4146	-3.0104	-2.6917	-3.1813	-2.8	-2.75	-3.0771	-2.8479	-2.9896	-2.8729	-2.7917	-3.2229	-2.9208	-2.8646	-2.9875	-2.9542	190.478	98.132	174.358	294.248	324.086	231.439	289.941	236.056	252.377	281.214	323.696	263.128	338.355	27.978	23.078	144.187	0.0020185	0.00070318	0.00012358	852.37	1.2678e-05	1.2186e-05	996.09	308.72	8.9627e-06	7.1394e-06	451.27	217.45	135.24	73.43	1.6877e-05	127.98	0.0028968	0.0032246	0.00092494	857.62	3.4238e-05	3.7033e-05	997.99	311.24	3.4339e-05	3.6147e-05	456.81	218.62	137.9	74.391	3.5235e-05	129	331.688	106.918	99.487	19.333	184.070	170.519	19.053	24.443	190.103	173.002	23.353	27.568	28.486	31.441	187.683	30.093	-8191	255	
883.416	1	1	0	0	0.047091	0.12276	0.21425	0.15956	0.13345	0.11262	0.17713	0.085345	0.051749	0.13891	0.14599	0.3151	0.23053	0.32193	0.19912	0.16613	-2.4958	-2.8146	-2.7042	-3.1021	-2.8875	-2.7958	-3.2854	-2.8458	-2.9062	-2.9271	-2.8729	-3.2604	-2.8833	-3.0917	-3.0604	-2.9042	260.506	75.933	206.078	298.963	59.741	342.342	181.560	59.861	299.497	165.022	208.477	334.309	349.054	33.035	77.004	300.457	0.0022645	0.00092352	0.00019992	853.6	9.9415e-06	9.5906e-06	1002.9	310.64	2.1073e-05	4.3664e-06	455.02	218.28	135.41	73.9	2.7042e-06	128.37	0.0029378	0.0032096	0.00091825	857.99	3.3921e-05	3.641e-05	1001.9	312.02	3.3887e-05	3.5886e-05	459.07	219.03	137.66	74.562	3.4994e-05	129.25	335.759	94.391	107.895	19.313	159.031	159.474	18.993	24.417	163.321	139.738	23.303	27.860	28.518	31.598	218.606	30.192	-8191	255	
883.537	1	1	0	0	0.30877	0.086921	0.26199	0.1604	0.10128	0.15779	0.13773	0.23299	0.26241	0.05345	0.28963	0.23308	0.21257	0.083248	0.048922	0.19852	-2.4562	-2.9479	-2.9062	-3.0687	-2.9146	-2.8667	-3.1021	-2.9708	-2.9	-2.9896	-2.8979	-3.0396	-2.8521	-2.8812	-3.0062	-2.9938	33.567	225.715	204.001	35.708	34.730	229.932	300.559	302.255	247.959	38.724	337.759	307.832	31.194	21.072	245.376	332.574	0.0021727	0.00060453	0.00022635	849	1.9683e-05	1.1427e-05	999.11	308.86	4.702e-06	6.154e-06	448.94	215.37	134.61	72.777	1.0533e-05	125.76	0.0029323	0.0032722	0.00092113	855.9	3.3865e-05	3.6806e-05	996.44	310.26	3.3742e-05	3.5266e-05	454.22	216.07	136.47	73.417	3.3655e-05	126.83	338.190	101.532	44.310	19.236	142.547	191.615	19.111	24.370	156.138	161.414	23.411	27.671	28.545	31.374	175.767	30.190	-8191	255	
883.633	1	1	0	0	0.083616	0.16227	0.070623	0.11992	0.016003	0.20601	0.20958	0.22368	0.31094	0.34596	0.28893	0.31097	0.17015	0.26832	0.045904	0.011059	-2.4458	-3.2708	-2.5979	-3.1312	-2.8937	-2.8063	-3.1854	-2.9167	-2.8396	-2.975	-2.8729	-3.0312	-3.0229	-3.0146	-2.9917	-3.0896	80.192	183.956	342.182	252.892	94.455	178.112	315.421	321.493	123.808	338.542	331.618	310.217	39.561	336.384	169.522	168.743	0.0022385	0.00078403	0.00016983	854.27	1.7483e-05	3.9286e-06	988.8	307.22	1.5672e-05	4.132e-06	447.75	213.77	134.55	72.67	1.4689e-05	125.06	0.0028816	0.0031558	0.00089042	856.62	3.3465e-05	3.6593e-05	990.38	309.87	3.4165e-05	3.5796e-05	451.96	214.83	136.48	73.214	3.3992e-05	125.71	337.533	46.286	33.675	19.233	156.090	50.315	19.083	24.399	156.847	128.177	23.362	27.662	28.666	31.869	157.016	30.152	-8191	255	
883.729	1	1	0	0	0.17465	0.11802	0.073137	0.36764	0.20628	0.060809	0.11338	0.14254	0.098682	0.22699	0.19896	0.17501	0.11449	0.03029	0.27387	0.24205	-2.5333	-3.05	-2.7521	-2.9646	-2.9313	-2.7125	-3.2687	-2.9458	-2.8271	-3.0021	-2.8833	-3.2	-3.05	-2.8521	-2.9146	-3.1042	146.758	89.602	62.447	349.015	224.819	356.830	356.028	21.935	69.863	271.883	354.593	79.933	144.675	271.809	332.599	322.218	0.002326	0.0010784	0.0003913	851.49	1.1994e-05	2.9672e-06	991.01	307.14	1.1572e-05	6.009e-06	446.73	214.62	134.37	72.396	1.0365e-05	125.83	0.0028755	0.0030995	0.00088869	855.74	3.285e-05	3.5562e-05	989.35	309.51	3.391e-05	3.5145e-05	450.62	215.05	136.27	73.349	3.5105e-05	126.69	340.613	77.078	98.248	19.402	168.031	176.972	19.085	24.362	181.531	72.967	23.296	27.501	28.745	31.790	162.510	30.331	-8191	255	
883.825	1	1	0	0	0.30265	0.20293	0.28552	0.071872	0.06525	0.20951	0.20503	0.18236	0.016644	0.15352	0.1461	0.20605	0.17988	0.25506	0.17485	0.19185	-2.2792	-3.025	-2.8042	-2.9917	-3.1854	-2.85	-3.1083	-3.0812	-2.8917	-3.1208	-2.8271	-3.0812	-3	-3.1146	-3.0417	-3.1146	219.621	26.321	16.473	341.336	264.254	128.641	357.829	14.538	363.647	311.630	20.176	19.985	308.272	333.122	188.459	318.878	0.0021194	0.00095638	0.00015215	847.62	1.5458e-05	9.8986e-06	994.07	308.38	1.4949e-05	7.7051e-06	449.81	215.37	134.48	72.98	1.4615e-05	126.43	0.0029453	0.0032148	0.00091394	857.25	3.374e-05	3.6629e-05	994.83	309.94	3.4026e-05	3.542e-05	453.77	215.76	136.4	73.671	3.3946e-05	127.3	333.096	81.422	70.706	19.401	169.739	176.876	19.182	24.277	178.683	151.281	23.181	27.666	28.699	31.854	189.274	30.118	-8191	255	
883.920	1	1	0	0	0.10491	0.16402	0.1403	0.038302	0.085143	0.028647	0.28085	0.10715	0.067063	0.18916	0.020576	0.092132	0.11637	0.1148	0.094009	0.27468	-2.3208	-2.9229	-2.7792	-2.9271	-2.9333	-2.8083	-3.1312	-2.8917	-2.7229	-3.0833	-3.0687	-3.0542	-3.125	-2.8563	-2.8604	-3.0104	258.187	51.617	325.979	52.631	218.080	231.180	305.779	154.009	45.585	240.170	321.808	23.437	364.411	265.737	132.827	299.110	0.0021856	0.0007973	0.00026914	851.1	8.6691e-06	6.5287e-06	996.77	309.97	2.4014e-05	1.3115e-05	451.83	216.15	135.3	72.645	3.2808e-06	126.36	0.0028967	0.0031923	0.00090211	860.13	3.3675e-05	3.6336e-05	999.15	311.82	3.4353e-05	3.6018e-05	456.16	217.1	137.36	73.77	3.4797e-05	127.57	339.747	71.132	78.240	19.659	195.832	189.467	19.261	24.278	184.719	163.344	23.456	27.612	28.385	31.646	159.031	30.359	-8191	255	
884.016	1	1	0	0	0.064028	0.19855	0.094131	0.30842	0.25459	0.15793	0.13896	0.22601	0.16304	0.13554	0.1491	0.43702	0.16391	0.34937	0.12893	0.22568	-2.1375	-2.8729	-2.9375	-2.7812	-2.9437	-2.6292	-2.975	-3.1542	-2.7479	-2.9833	-2.9125	-2.9292	-3.0354	-2.8896	-2.8146	-3.1	118.461	233.898	321.988	364.926	308.365	361.215	293.360	247.845	266.567	150.353	95.175	16.496	264.802	326.261	329.708	303.048	0.0021595	0.00078855	0.0002728	859.32	1.3476e-05	6.8133e-06	1001.8	311.41	1.4058e-05	4.9204e-06	451.66	216.57	135.65	73.37	1.0724e-05	127.4	0.0028946	0.0032182	0.00089182	863.6	3.3072e-05	3.6082e-05	1002	312.69	3.3961e-05	3.5619e-05	456.59	217.45	137.71	74.041	3.5228e-05	128.36	331.952	91.779	99.867	19.448	159.315	115.518	19.262	24.380	201.640	167.238	23.464	27.532	28.638	31.649	151.407	30.152	-8191	255	
884.114	1	1	0	0	0.26613	0.2281	0.19428	0.17157	0.058448	0.17909	0.27644	0.28476	0.21131	0.1295	0.15143	0.31648	0.33085	0.040814	0.040034	0.23386	-2.1625	-2.9396	-2.9062	-2.7979	-3.0083	-2.8354	-3.1063	-3.0292	-2.7	-3.0542	-2.9354	-2.8292	-3.1479	-3.0042	-2.9625	-3.0292	277.927	59.459	232.800	365.169	102.131	53.623	363.716	345.593	258.358	277.362	338.124	350.863	56.060	320.169	320.344	284.436	0.0021956	0.00096896	0.00011838	855.14	1.1476e-05	1.4257e-05	1003.7	310.25	1.5824e-05	3.621e-06	447.91	215.66	135.04	72.906	1.6457e-05	126.03	0.0029656	0.0032708	0.00090514	863.98	3.4085e-05	3.6305e-05	1001.8	312.14	3.4154e-05	3.571e-05	454.07	216.47	137	73.593	3.5316e-05	126.94	333.580	106.420	112.363	19.273	147.443	150.692	19.168	24.553	162.902	163.429	23.321	27.478	28.513	31.587	166.910	29.905	-8191	255	
884.233	1	1	0	0	0.14976	0.093661	0.050295	0.064502	0.1565	0.25089	0.13637	0.31966	0.2361	0.083683	0.14566	0.26105	0.13982	0.049961	0.2177	0.30976	-2.4458	-2.9208	-2.8937	-2.8292	-2.9292	-2.8854	-2.9708	-3.0146	-2.9083	-2.9104	-3.0021	-2.9542	-3.1146	-2.9854	-2.8833	-3.2667	340.884	310.252	25.628	111.987	8.614	218.050	316.135	287.147	192.938	23.202	303.020	307.468	163.020	63.286	186.567	317.688	0.0020562	0.00061522	0.00014566	854.76	2.544e-05	1.0944e-05	994.94	308.56	1.1965e-05	7.9279e-06	449.29	213.93	134.57	72.215	9.6038e-06	124.65	0.0029201	0.0032704	0.00089473	861.55	3.3841e-05	3.6106e-05	994.96	310.54	3.3955e-05	3.5522e-05	451.87	214.61	136.45	73.114	3.4581e-05	125.71	333.837	72.661	104.403	19.332	151.028	150.476	19.250	24.525	160.731	182.182	23.367	27.649	28.570	31.563	220.090	30.166	-8191	255	
884.329	1	1	0	0	0.13382	0.19167	0.13307	0.11894	0.045751	0.20535	0.08472	0.095887	0.075478	0.066729	0.091017	0.26349	0.21131	0.19274	0.22845	0.26492	-2.3375	-2.7521	-3.0938	-2.8021	-2.9958	-2.9104	-2.9083	-3.0417	-2.7313	-2.8771	-3.0167	-2.75	-3.0083	-3.0104	-2.8729	-3.2104	265.850	43.963	172.608	19.729	29.689	48.062	357.982	347.760	323.569	264.821	18.213	315.193	48.070	209.971	15.224	309.756	0.0021722	0.00057824	0.00015692	854.7	1.3293e-05	1.1736e-05	990.38	308.66	6.2433e-06	1.0429e-05	448.89	213.8	135.16	72.489	1.6949e-05	125.51	0.0028641	0.0032156	0.00088857	858.97	3.3753e-05	3.5918e-05	991.24	310.73	3.3638e-05	3.6382e-05	452.1	215.06	136.97	73.381	3.5373e-05	126.48	336.286	139.100	76.421	19.081	131.972	150.510	19.101	24.558	205.398	166.602	23.331	27.591	28.528	31.450	171.022	30.245	-8191	255	
884.425	1	1	0	0	0.01678	0.083307	0.088985	0.15843	0.30551	0.12113	0.22963	0.17875	0.13118	0.15139	0.27368	0.11384	0.27152	0.05819	0.28717	0.1267	-2.2479	-2.8396	-2.8312	-2.7833	-2.8167	-2.9958	-2.9167	-3.0312	-2.8042	-2.8271	-3.1521	-2.8354	-3.0417	-3.0792	-2.7875	-3.2333	131.752	339.408	138.659	355.976	348.551	98.187	244.602	326.217	169.765	70.678	359.699	304.199	88.431	331.219	282.819	326.853	0.0021124	0.0011903	0.00023261	854.78	8.3209e-06	1.3252e-05	996.09	308.21	1.0377e-05	9.036e-06	449.26	215.02	134.75	72.613	1.1409e-05	125.52	0.002856	0.0032414	0.00088424	857.47	3.3807e-05	3.5275e-05	992.72	310.31	3.2972e-05	3.5074e-05	452.57	215.55	136.42	73.285	3.4549e-05	126.62	336.807	63.342	110.496	19.410	189.271	163.855	19.163	24.313	210.303	158.594	23.107	27.507	28.433	31.671	187.845	30.254	-8191	255	
884.521	1	1	0	0	0.065913	0.23582	0.22267	0.33429	0.26113	0.11379	0.22807	0.13003	0.25766	0.06094	0.15382	0.10023	0.13374	0.28017	0.063009	0.23658	-2.3771	-2.8354	-3.1063	-2.9125	-3.0375	-2.9917	-3.0771	-3.0167	-2.7938	-2.8458	-3.2167	-3.0417	-3.0771	-3.1979	-2.775	-3.0875	125.035	174.523	117.934	324.677	224.999	204.195	330.659	140.305	22.697	130.051	333.177	349.559	142.733	365.515	307.467	321.297	0.0022785	0.0010678	0.00026409	856.55	1.3416e-05	8.7855e-06	996.37	308.89	1.1654e-05	7.3333e-06	451.66	214.35	135.2	72.442	1.8233e-05	125.59	0.0028389	0.0032122	0.00089195	862.71	3.395e-05	3.5265e-05	997.77	311.7	3.3194e-05	3.532e-05	454.39	215.47	137	73.317	3.4201e-05	126.66	336.032	87.827	122.925	19.502	137.094	141.909	19.261	24.543	224.986	142.016	23.327	27.424	28.557	31.565	174.202	30.412	-8191	255	
884.617	1	1	0	0	0.26474	0.1056	0.022107	0.23038	0.015765	0.12662	0.20653	0.42534	0.101	0.23086	0.19324	0.21087	0.16128	0.23202	0.060931	0.014908	-2.4813	-2.75	-3.0104	-2.8	-3.0292	-2.925	-2.8937	-3.2271	-2.8667	-2.6854	-3.1208	-3.025	-2.9833	-3.2354	-2.7708	-3.1063	217.370	41.597	57.981	249.038	340.639	43.304	290.118	330.192	144.800	7.403	47.249	331.483	163.203	354.168	248.154	86.321	0.0020599	0.00044005	0.00030602	862.41	1.4711e-05	8.8481e-06	1000.7	311.11	1.6937e-05	8.1467e-06	450.5	215.39	135.08	72.589	1.4314e-05	126.51	0.002858	0.003206	0.00088695	866.28	3.3747e-05	3.5097e-05	1001.5	313.17	3.3283e-05	3.561e-05	455.65	216.36	137.28	73.518	3.4452e-05	127.41	338.711	99.273	74.453	19.530	189.812	169.560	19.184	24.468	165.125	162.364	23.164	27.805	28.648	31.556	209.779	30.211	-8191	255	
884.713	1	1	0	0	0.094938	0.09235	0.1341	0.33402	0.23595	0.20598	0.22138	0.18541	0.049291	0.25314	0.10105	0.29281	0.080814	0.051366	0.11974	0.50168	-2.3104	-2.8688	-3.0896	-3.0104	-2.9875	-3.0563	-2.7917	-3.0625	-2.9229	-2.6979	-3.2729	-3.0687	-2.6854	-3.3521	-2.7875	-3.1271	77.045	27.333	176.675	44.437	195.642	331.511	308.165	311.442	252.284	17.240	92.072	292.868	171.263	284.818	251.691	318.704	0.0020559	0.0014198	0.00017016	862.85	1.7808e-05	4.6539e-06	1005.4	312.95	1.0913e-05	1.3341e-05	452.79	215.97	135.33	73.27	1.5801e-06	125.58	0.002807	0.0032504	0.00088505	866.99	3.3852e-05	3.5265e-05	1005.4	314.15	3.3377e-05	3.5745e-05	457.49	217.19	137.78	73.988	3.4829e-05	127.09	338.199	140.536	123.332	19.274	164.891	189.930	19.170	24.453	153.466	155.892	23.090	27.704	28.524	31.675	196.852	30.298	-8191	255	
884.834	1	1	0	0	0.2961	0.10791	0.25941	0.043505	0.13189	0.19672	0.11582	0.16133	0.2289	0.13264	0.082633	0.19674	0.10062	0.26293	0.33218	0.29569	-2.4771	-2.7438	-2.7208	-2.6688	-2.7458	-3.1	-2.9354	-3.075	-3.2125	-2.7875	-3.1292	-2.9896	-2.9167	-3.1937	-2.9771	-3.0771	156.837	225.531	309.692	286.285	109.390	303.536	253.551	316.608	128.886	235.219	129.887	366.110	343.536	362.481	17.034	279.699	0.0018973	0.00091106	0.00019063	860.42	5.0311e-06	1.1735e-05	997.72	308.91	8.2522e-06	7.7281e-06	448.46	213.62	134.6	72.152	7.8187e-06	124.48	0.0028367	0.0032442	0.00088419	865.21	3.3157e-05	3.5574e-05	998.04	311.39	3.2962e-05	3.5188e-05	452.06	214.46	136.51	73.021	3.4724e-05	125.56	337.984	66.579	125.947	19.285	129.614	171.679	19.403	24.578	146.711	116.585	23.282	27.518	28.838	31.583	110.786	30.204	-8191	255	
884.928	1	1	0	0	0.19881	0.20466	0.23696	0.20268	0.21602	0.37108	0.26174	0.29317	0.036922	0.070193	0.10332	0.22725	0.047704	0.26403	0.030321	0.2932	-2.5979	-2.8063	-3.0646	-2.9125	-2.8292	-3.0792	-2.9146	-3.0938	-3.0958	-2.9458	-3.1063	-2.9604	-2.6896	-3.1458	-2.7083	-2.9604	320.224	91.093	147.507	194.519	365.512	80.745	41.001	315.951	101.107	239.505	252.380	365.197	154.299	361.944	82.720	317.797	0.0021989	0.00048444	0.00033475	854.65	1.6861e-05	4.5307e-06	994.48	308.19	9.799e-06	8.3461e-06	447.11	211.48	134.22	71.564	1.0505e-05	123.22	0.0028435	0.0032557	0.00090322	861.87	3.3959e-05	3.573e-05	991.99	310.96	3.299e-05	3.6124e-05	449.75	212.23	135.77	72.307	3.4254e-05	124.19	340.271	122.689	87.522	19.204	182.967	141.138	19.297	24.394	190.169	140.033	23.252	27.509	28.798	31.690	177.124	30.455	-8191	255	
885.024	1	1	0	0	0.093452	0.2356	0.17821	0.17325	0.17438	0.22554	0.16698	0.18466	0.08562	0.21379	0.22007	0.50872	0.15531	0.14948	0.14924	0.15651	-2.7229	-2.6813	-2.9708	-3.0917	-2.9083	-3.0021	-2.8583	-2.7729	-3.0792	-2.7958	-2.9896	-3.1083	-2.8104	-3.1875	-2.7979	-3.025	314.778	340.862	133.557	303.648	62.285	26.085	315.051	22.135	222.558	143.930	314.973	268.358	358.464	300.953	111.812	227.075	0.0020218	0.00049066	0.00022775	863.84	1.0749e-05	4.3079e-06	995.34	308.83	1.0805e-05	8.2251e-06	444.2	211.3	133.18	71.727	1.3288e-05	123.73	0.002851	0.0032718	0.00089868	866.68	3.4376e-05	3.617e-05	993.85	311.25	3.3815e-05	3.5732e-05	448.15	212.13	135.66	72.447	3.4411e-05	124.55	337.194	77.045	79.188	19.593	190.811	203.389	19.216	24.457	164.064	167.171	23.234	27.374	28.753	31.611	187.510	30.501	-8191	255	
885.096	1	1	0	0	0.30254	0.27488	0.11319	0.029813	0.10862	0.2745	0.35507	0.1994	0.18032	0.14324	0.12051	0.1543	0.28372	0.22131	0.2115	0.14345	-2.3917	-2.6625	-2.8312	-3.0187	-2.8646	-3.0146	-3.0375	-3.025	-3.0563	-2.9188	-2.9604	-3.2042	-2.8688	-2.9604	-2.9354	-2.9875	294.354	108.188	122.635	111.277	125.000	248.054	335.270	336.463	116.872	144.284	93.806	329.053	294.558	342.008	121.653	322.516	0.0022011	0.00083859	0.00019921	863.57	1.0538e-05	5.2888e-06	996.71	310.86	1.4288e-05	7.2951e-06	446.3	212.84	134.27	71.892	1.4865e-05	124.54	0.0028937	0.0032505	0.0009013	865.13	3.4302e-05	3.5673e-05	994.47	312.04	3.3702e-05	3.5271e-05	450.55	213.78	136.27	72.781	3.3953e-05	125.66	338.051	108.957	66.935	19.205	205.346	190.050	19.165	24.310	203.653	130.224	23.237	27.324	28.601	31.670	170.882	30.220	-8191	255	
885.217	1	1	0	0	0.2012	0.31988	0.034302	0.13659	0.074235	0.14299	0.2784	0.046603	0.062216	0.27345	0.039677	0.20091	0.20121	0.15603	0.077168	0.45781	-2.6854	-2.8438	-2.8521	-3.2521	-3.0271	-2.9271	-3.1437	-3.0354	-3.0208	-2.65	-3.0583	-3.2	-2.8542	-3.0917	-3.0563	-2.9562	310.409	132.315	364.073	21.225	337.715	216.564	290.203	332.287	122.693	116.017	233.599	296.305	71.059	156.174	8.809	285.216	0.0019418	0.0011927	0.00023877	859.23	1.7206e-05	1.0367e-05	995.08	310.34	1.0823e-05	6.6164e-06	448.57	213.59	134.66	72.682	1.2079e-05	125.52	0.002881	0.0032137	0.00089554	866.47	3.3998e-05	3.5987e-05	997.34	312.85	3.3644e-05	3.5013e-05	453.82	215.02	136.72	73.268	3.443e-05	126.55	332.394	80.675	100.619	19.448	121.830	146.152	19.263	24.612	169.581	127.245	23.356	27.635	28.597	31.407	163.069	30.091	-8191	255	
885.313	1	1	0	0	0.032371	0.093599	0.13411	0.033984	0.15883	0.040167	0.27661	0.07298	0.23343	0.10211	0.25453	0.13727	0.13004	0.32061	0.22802	0.154	-2.6875	-2.7333	-2.7917	-3.3521	-2.7542	-2.8854	-3.1562	-2.7542	-3.0812	-2.8417	-2.8563	-3.2375	-2.7625	-2.9062	-2.8979	-2.8646	195.799	259.006	196.110	44.215	292.048	164.001	312.741	297.838	88.200	205.479	327.376	306.685	256.638	323.783	311.971	270.583	0.0020927	0.001069	0.00028356	862.56	6.1794e-06	6.6759e-06	1003.9	312.34	6.5568e-06	1.0965e-05	452.56	215.23	135.3	72.791	1.3693e-05	125.86	0.002837	0.0031944	0.00089279	867.31	3.3462e-05	3.5621e-05	1001.5	314.09	3.3277e-05	3.4761e-05	456.65	216.45	137.38	73.432	3.3923e-05	127.04	335.442	47.287	118.489	19.400	213.336	203.456	19.129	24.329	239.286	153.193	23.160	27.447	28.541	31.698	142.657	30.316	-8191	255	
885.409	1	1	0	0	0.25325	0.19048	0.12603	0.31624	0.14348	0.16012	0.084227	0.16881	0.34757	0.17815	0.16019	0.17218	0.21902	0.091431	0.30086	0.24077	-2.5062	-2.975	-2.7167	-3.0312	-2.925	-2.9437	-3.1958	-2.725	-2.9042	-2.8021	-2.8958	-3.1063	-2.9188	-2.8542	-2.9208	-2.8812	187.765	316.146	68.432	361.252	172.089	130.990	48.750	342.103	248.442	221.274	126.762	311.028	310.230	312.599	188.029	275.074	0.0022515	0.00048883	0.00019286	865.07	8.1947e-06	8.295e-06	997.04	310.58	1.238e-05	7.9593e-06	448.1	212.79	133.76	71.804	1.7494e-05	123.64	0.0028432	0.0031476	0.00090063	869.59	3.3317e-05	3.5455e-05	1000.5	313.36	3.3513e-05	3.4782e-05	453.1	214.03	136.44	72.549	3.4685e-05	124.78	334.885	81.201	122.982	19.482	190.175	178.146	19.134	24.362	198.351	192.773	23.151	27.647	28.596	31.709	192.052	30.305	-8191	255	
885.505	1	1	0	0	0.091545	0.093577	0.13573	0.35867	0.12997	0.27345	0.12245	0.068316	0.30248	0.080874	0.20155	0.23727	0.3387	0.20504	0.21541	0.023742	-2.55	-2.9958	-2.75	-3.0167	-2.6458	-2.7938	-3.1979	-2.8375	-2.9271	-3.0833	-2.8312	-3.1479	-2.825	-2.8438	-2.9896	-3.0604	333.942	184.597	252.733	265.135	42.423	17.627	89.263	313.013	128.970	46.957	335.692	338.426	308.535	226.271	238.040	291.600	0.0022359	0.00036028	0.0003061	859.47	1.0317e-05	4.6964e-06	989.75	309.88	1.8393e-05	6.6784e-06	443.64	210.46	133.62	71.181	1.4615e-05	122.5	0.0028255	0.0031058	0.00088545	865.28	3.3145e-05	3.4869e-05	990.58	311.5	3.2549e-05	3.4031e-05	448.35	211.35	135.32	71.949	3.3919e-05	123.66	337.330	127.447	117.785	19.256	151.636	112.490	19.205	24.451	188.848	131.453	23.232	27.458	28.587	31.797	208.096	30.323	-8191	255	
885.626	1	1	0	0	0.37837	0.075743	0.17858	0.13833	0.14175	0.13664	0.12933	0.22776	0.027277	0.19196	0.28499	0.20422	0.22594	0.12684	0.13112	0.26969	-2.4167	-3.0167	-2.6375	-3.2375	-2.9896	-2.825	-2.9604	-3.0125	-2.8063	-2.9354	-2.9292	-3.1271	-2.8688	-3.0042	-3.1292	-2.9375	225.849	18.488	257.908	186.756	59.434	167.052	329.941	281.237	8.116	199.810	269.732	6.665	21.847	311.013	179.723	250.851	0.0021118	0.00097871	0.00034103	860.05	1.1493e-05	5.7795e-06	985.06	309.97	1.5223e-05	5.4556e-06	445.54	210.95	133.69	71.364	1.4878e-05	123.31	0.0028234	0.0031159	0.0009023	864.85	3.2784e-05	3.544e-05	988.67	311.15	3.3216e-05	3.4756e-05	448.68	211.79	135.46	72.191	3.4548e-05	124.24	337.882	118.477	113.132	19.471	163.998	195.772	19.141	24.281	127.816	106.991	23.382	27.554	28.728	31.655	162.401	30.183	-8191	255	
885.698	1	1	0	0	0.2844	0.2679	0.11722	0.044956	0.30032	0.12956	0.052173	0.19833	0.13503	0.12499	0.035612	0.14568	0.11969	0.095996	0.081	0.35283	-2.4875	-2.9125	-2.7875	-3.0042	-2.8	-2.8333	-3.1896	-2.9042	-2.8208	-3.0146	-2.8729	-3.2375	-2.9396	-2.8917	-3.1208	-2.95	185.091	225.349	202.398	307.199	357.031	294.726	7.706	304.960	239.394	364.717	138.167	290.669	295.570	365.905	156.236	335.620	0.0021142	0.00059977	7.5474e-05	859.19	1.1803e-05	8.3661e-06	994.74	310.07	9.8913e-06	1.7263e-06	443.91	211.38	133.29	71.828	1.343e-05	124.34	0.0028406	0.0031999	0.00090166	865.19	3.2579e-05	3.6004e-05	992.33	311.78	3.3069e-05	3.4854e-05	448.86	212.35	135.45	72.435	3.3617e-05	124.87	337.287	49.729	83.058	19.277	159.669	119.739	19.269	24.386	239.000	177.799	23.483	27.609	28.585	31.568	203.720	30.007	-8191	255	
885.794	1	1	0	0	0.30901	0.13262	0.26708	0.12257	0.18897	0.27639	0.16267	0.066435	0.078009	0.15424	0.13669	0.097897	0.22294	0.35323	0.12376	0.24147	-2.3458	-2.9104	-2.7042	-3.1208	-3.0563	-2.7854	-3.1021	-2.9167	-2.9771	-3.0833	-3	-3.1604	-3.0896	-2.7521	-2.975	-2.9604	26.345	201.513	362.816	362.902	168.333	361.613	13.322	359.341	214.894	346.810	335.322	268.072	233.215	319.284	221.140	359.350	0.0021585	0.00082784	0.00019609	861.48	8.9315e-06	1.0294e-05	994.28	309.12	1.2625e-05	1.2163e-05	446.8	213	134.55	71.966	1.0315e-05	124.83	0.0028444	0.0031329	0.0008877	865.56	3.2597e-05	3.5848e-05	992.97	311.59	3.3118e-05	3.4976e-05	451.18	213.27	136.07	72.643	3.3997e-05	125.33	335.508	100.662	107.940	19.325	136.271	119.124	19.150	24.357	129.947	172.716	23.323	27.758	28.520	31.706	170.270	30.179	-8191	255	
885.914	1	1	0	0	0.24287	0.34224	0.065865	0.091344	0.26101	0.2595	0.099138	0.26139	0.025733	0.069926	0.31226	0.20512	0.26535	0.12355	0.054894	0.39419	-2.4771	-3.1271	-2.9042	-2.9938	-3.0187	-2.8167	-3.1188	-3.0792	-2.8312	-3.1771	-2.925	-3.0875	-2.9333	-2.8583	-3.0542	-3.0458	232.051	300.710	117.230	67.466	33.066	161.181	253.869	362.694	141.851	185.483	236.479	68.084	31.603	23.238	122.314	291.078	0.0024813	0.00064267	0.0001286	862.93	1.2013e-05	1.41e-05	995.4	311.4	1.5691e-05	5.3438e-06	449.17	213.76	134.37	72.218	1.7985e-05	125.37	0.002895	0.0031859	0.00088139	867.15	3.2684e-05	3.5496e-05	996.64	312.94	3.3643e-05	3.4925e-05	452.77	214.66	136.33	72.942	3.4196e-05	126.29	332.228	62.857	162.548	19.341	157.725	157.806	19.162	24.176	182.986	111.690	23.497	27.614	28.760	31.647	207.411	30.305	-8191	255	
886.009	1	1	0	0	0.094763	0.093573	0.083727	0.1441	0.11629	0.16137	0.19886	0.22765	0.048135	0.14537	0.10607	0.28456	0.093924	0.14566	0.18874	0.27085	-2.5104	-2.9896	-2.8542	-2.775	-3.1042	-2.7625	-3.1479	-2.8521	-2.7354	-2.9854	-2.8521	-2.9521	-3.0896	-3.0625	-2.8563	-3.2396	221.486	95.614	152.712	6.622	92.191	140.061	298.003	328.327	219.205	211.872	223.981	331.481	64.900	347.297	187.150	245.889	0.0022421	0.0009394	0.00025378	867.91	8.396e-06	8.0528e-06	996.61	311.39	2.5861e-05	9.7456e-06	448.57	213.32	134.47	71.952	9.479e-06	124.36	0.0028886	0.0031542	0.00087142	869.91	3.2906e-05	3.5366e-05	997.92	312.73	3.3374e-05	3.4512e-05	451.83	214.15	136.24	72.741	3.351e-05	125.6	335.123	115.338	102.965	19.522	198.722	114.394	19.228	24.544	158.761	153.929	23.368	27.734	28.819	31.873	185.934	30.254	-8191	255	
886.105	1	1	0	0	0.18953	0.17689	0.22839	0.24269	0.25096	0.086227	0.16479	0.21174	0.13998	0.080443	0.20897	0.093053	0.12461	0.41103	0.1214	0.24233	-2.3583	-2.9188	-2.7625	-2.8042	-2.8583	-2.8667	-3.0938	-3.0229	-2.7896	-3.0667	-3.1146	-2.8667	-3.0604	-2.9896	-2.8146	-3.2542	300.987	118.278	303.579	335.616	362.879	40.827	290.414	335.735	116.072	193.964	319.456	8.508	286.756	317.920	357.543	307.075	0.0022241	0.00031118	0.00024315	857.5	6.9486e-06	2.9605e-06	990.73	309.79	1.197e-05	8.6541e-06	442.88	210.84	133.44	71.225	1.525e-05	122.89	0.0028816	0.0031312	0.00086709	867.14	3.3118e-05	3.5104e-05	992.2	311.43	3.3327e-05	3.4291e-05	447.2	211.22	134.97	71.934	3.3357e-05	123.81	339.558	162.542	115.975	19.424	167.207	134.634	19.171	24.442	206.736	128.425	23.321	27.677	28.359	31.664	135.639	30.365	-8191	255	
886.225	1	1	0	0	0.10142	0.058711	0.37953	0.22498	0.18808	0.21282	0.13166	0.17827	0.18389	0.13001	0.096614	0.17592	0.20861	0.30279	0.11507	0.13045	-2.2542	-2.9792	-2.75	-2.8646	-3.0479	-2.7417	-3	-2.9854	-2.6625	-2.8125	-2.8688	-2.6833	-3.0938	-3.1583	-2.9104	-3.1604	101.076	205.725	317.354	334.427	89.010	22.844	290.050	236.262	272.048	9.080	327.685	330.320	28.679	17.943	12.602	350.651	0.0022583	0.00085382	0.00024771	856.67	8.4188e-06	9.9389e-06	989.74	308.03	1.156e-05	7.8134e-07	444.48	211.79	134.25	71.701	1.8149e-05	123.49	0.0028098	0.0030829	0.00084857	861.53	3.2625e-05	3.435e-05	988.1	310.46	3.3225e-05	3.4897e-05	448.91	212.69	135.93	72.394	3.3698e-05	124.5	335.146	90.185	96.226	19.214	177.382	161.563	19.483	24.448	128.489	265.193	23.223	27.442	28.615	31.752	179.666	30.268	-8191	255	
886.322	1	1	0	0	0.092644	0.0094583	0.15509	0.13326	0.40341	0.1144	0.34928	0.19153	0.23841	0.061497	0.19474	0.1679	0.26292	0.28784	0.21888	0.27356	-2.4896	-2.7979	-2.8396	-2.8333	-2.975	-2.6604	-2.8875	-3.1583	-2.6292	-3.0021	-2.8563	-2.8458	-3.1417	-2.8771	-2.7792	-3.0667	252.285	114.704	9.881	309.601	215.259	125.813	311.157	35.482	315.139	279.198	327.401	207.231	11.661	346.533	224.514	260.481	0.0020756	0.00087218	0.0003209	858.52	1.0283e-05	1.3737e-05	988.14	307.53	1.1587e-05	1.032e-05	444.65	212	134.11	71.985	8.6457e-06	124.26	0.002836	0.0030841	0.00085838	863.23	3.2266e-05	3.3854e-05	988.13	309.94	3.2266e-05	3.4071e-05	448.75	212.78	135.78	72.505	3.3273e-05	125.12	334.219	82.018	104.022	19.380	156.922	161.767	19.274	24.416	206.772	121.705	23.282	27.525	28.446	31.711	165.960	30.383	-8191	255	
886.393	1	1	0	0	0.21263	0.094236	0.1602	0.1715	0.23487	0.13312	0.25752	0.35372	0.053944	0.055331	0.18752	0.12591	0.083457	0.1241	0.096049	0.16544	-2.325	-2.7667	-3.0146	-2.8271	-2.9979	-2.8771	-3.0333	-3.1646	-2.7458	-2.9354	-3.0687	-2.9188	-2.9917	-2.9896	-2.5583	-3.1146	178.453	294.143	180.695	15.329	114.716	28.956	351.116	318.990	53.966	359.428	333.240	352.339	258.188	268.476	254.484	49.462	0.0020992	0.00118	0.00029562	859.02	8.026e-06	7.9632e-06	995	308.74	1.7837e-05	4.7407e-06	445.06	212.65	134.14	71.853	1.3809e-05	125.1	0.0028201	0.0030932	0.00086353	866.27	3.2599e-05	3.3725e-05	993.78	311.31	3.2591e-05	3.3756e-05	450.18	213.7	135.82	72.655	3.3541e-05	125.82	331.621	93.787	89.489	19.492	182.212	186.042	19.285	24.615	185.331	153.603	23.148	27.705	28.820	31.723	181.070	30.310	-8191	255	
886.489	1	1	0	0	0.072507	0.055709	0.02317	0.25426	0.40677	0.25949	0.15191	0.36389	0.21388	0.21207	0.1311	0.14842	0.34497	0.23217	0.22666	0.46944	-2.3229	-2.6688	-3.0083	-2.8958	-2.9958	-2.8083	-2.8021	-3.0896	-2.9146	-2.8146	-2.9417	-2.6562	-3.1625	-2.9771	-2.7625	-3.1625	343.610	122.515	153.328	64.664	61.493	191.267	219.822	330.163	307.842	160.642	296.214	304.243	307.060	291.016	104.849	327.709	0.0021096	0.00067927	0.00018894	859.68	1.1939e-05	9.8068e-06	997.02	312.48	1.6205e-05	9.7437e-07	448.84	213.56	135.12	72.567	1.0562e-05	126.19	0.0027494	0.0030112	0.00084883	865.02	3.2284e-05	3.4402e-05	996.79	313.29	3.2583e-05	3.5016e-05	453.93	214.81	137.03	73.203	3.4128e-05	126.71	341.144	137.869	66.856	19.309	163.947	173.516	19.305	24.547	126.209	206.122	23.340	27.661	28.909	31.718	212.619	30.224	-8191	255	
886.610	1	1	0	0	0.075492	0.052991	0.24425	0.23734	0.35533	0.15658	0.17075	0.21501	0.32649	0.15712	0.065518	0.22191	0.1893	0.42823	0.16717	0.20065	-2.5896	-2.7438	-3.0187	-2.8771	-2.8854	-3.1458	-2.8792	-2.9792	-2.7354	-2.7083	-3.2333	-2.9167	-3.0958	-3.0354	-2.8354	-3.1542	135.132	304.456	303.864	346.985	12.372	357.517	295.406	311.327	27.141	214.692	317.253	317.529	332.060	327.098	214.281	296.919	0.0020618	0.0013589	0.00020432	866.53	6.5633e-06	7.8395e-06	998.95	311.76	1.0835e-05	8.6185e-06	451.71	214.37	134.98	72.354	1.6117e-05	125.01	0.002737	0.0030845	0.00086389	869.17	3.1728e-05	3.4122e-05	1000.3	313.26	3.1104e-05	3.46e-05	455.33	215.66	136.86	72.976	3.3983e-05	126.22	331.375	65.326	124.629	19.452	83.379	174.583	19.384	24.591	247.280	162.409	23.372	27.655	28.570	31.476	153.729	30.364	-8191	255	
886.706	1	1	0	0	0.20167	0.011324	0.10478	0.40814	0.36488	0.049982	0.20939	0.34584	0.068334	0.23706	0.12025	0.24362	0.079182	0.21005	0.096883	0.13076	-2.3958	-2.8187	-2.8104	-2.925	-2.7417	-2.9	-2.8604	-3.0396	-2.8187	-2.6792	-3.0542	-2.8625	-2.9437	-3.1458	-2.85	-3.1375	85.384	164.183	302.563	364.926	190.126	226.088	301.496	320.029	181.300	288.830	81.191	328.321	213.827	350.482	166.083	291.763	0.0021362	0.00086972	0.00033706	867.45	1.3168e-05	1.2374e-05	998.53	309.77	2.3405e-05	8.1673e-06	448.22	212.64	134.16	71.467	1.518e-05	124.32	0.0027644	0.0031804	0.00086329	870.32	3.1878e-05	3.4207e-05	995.66	311.99	3.1392e-05	3.3991e-05	450.51	212.82	135.77	72.379	3.2814e-05	125.17	333.676	117.316	89.206	19.258	149.925	181.477	19.208	24.506	170.674	134.514	23.341	27.650	28.501	31.560	180.487	30.080	-8191	255	
886.802	1	1	0	0	0.11027	0.21514	0.24189	0.11229	0.13483	0.1252	0.1729	0.28461	0.22442	0.2447	0.15341	0.058651	0.24287	0.11933	0.010769	0.2861	-2.6688	-2.7333	-2.8458	-2.7521	-2.9417	-2.8833	-2.8688	-3.2208	-2.9208	-2.6958	-3.0354	-3.0417	-2.8875	-3.0708	-2.7958	-3.0771	190.753	354.487	98.114	41.524	269.116	7.021	49.083	329.950	337.816	117.744	250.724	29.632	88.869	344.024	188.337	294.188	0.0023408	0.00043073	0.00013378	861.09	8.4173e-06	3.6e-06	992.18	309.45	1.9542e-05	1.076e-05	446.78	212.25	133.75	71.64	1.5401e-05	123.98	0.0027524	0.0031024	0.00085605	864.85	3.2533e-05	3.4413e-05	991.46	311.06	3.2256e-05	3.5195e-05	449.72	212.85	135.73	72.432	3.2966e-05	124.92	337.192	52.471	137.804	19.603	175.240	141.277	19.218	24.418	165.443	164.427	23.113	27.660	28.557	31.689	137.935	30.275	-8191	255	
886.921	1	1	0	0	0.19903	0.18145	0.18863	0.19021	0.19993	0.17085	0.097669	0.27296	0.23756	0.078074	0.2568	0.022846	0.13159	0.19855	0.12188	0.071422	-2.5896	-2.6688	-2.8292	-2.8417	-2.7667	-2.9708	-2.8187	-2.9958	-3.0354	-2.775	-3.0917	-2.7729	-2.8542	-3.1292	-2.7229	-3.0687	261.753	310.283	315.694	57.466	41.667	169.881	328.228	219.508	150.265	114.850	338.016	15.426	155.142	299.248	279.324	24.228	0.0020164	0.00098331	0.00015586	861.28	9.9035e-06	8.062e-06	990.28	309.28	1.137e-05	7.255e-06	446.82	213.78	134.44	71.774	1.9767e-05	124.95	0.0027143	0.003062	0.00083405	862.77	3.2159e-05	3.3802e-05	989.25	311.13	3.2187e-05	3.4649e-05	450.15	213.93	136.15	72.708	3.3328e-05	125.58	332.368	132.438	77.273	19.409	142.090	129.150	19.177	24.220	160.248	148.920	23.492	27.626	28.937	31.513	174.403	30.166	-8191	255	
886.993	1	1	0	0	0.15991	0.22042	0.15739	0.24199	0.02099	0.40146	0.38607	0.31506	0.16521	0.20076	0.21476	0.078277	0.23454	0.22683	0.21651	0.28601	-2.6312	-2.6646	-3.025	-2.8208	-2.8771	-3.0625	-2.9375	-3.1312	-3.1042	-2.8417	-3.1125	-3.2812	-2.7687	-3.2062	-2.9479	-3.1167	266.285	189.668	366.198	224.117	110.924	142.880	293.203	296.048	185.757	165.979	269.258	306.433	309.507	299.525	192.691	10.779	0.0021535	0.0010786	0.00031473	863.76	1.7039e-05	7.6131e-06	995.79	311.3	1.5936e-05	7.0333e-06	448.54	214.77	134.48	72.095	6.5603e-06	125.22	0.0028014	0.0031602	0.00086142	865.62	3.2935e-05	3.4411e-05	994.39	312.54	3.2491e-05	3.4367e-05	452.3	214.65	136.54	72.854	3.2889e-05	126.28	331.393	124.629	82.410	19.370	151.737	142.293	19.118	24.346	212.062	171.061	23.246	27.637	28.536	31.799	217.841	30.403	-8191	255	
887.089	1	1	0	0	0.2228	0.23785	0.24755	0.14498	0.25715	0.20738	0.31276	0.22339	0.036128	0.20476	0.14693	0.10069	0.17907	0.27659	0.16244	0.336	-2.7	-2.8521	-2.8479	-3.1833	-2.7167	-3.2083	-2.8708	-2.9792	-3.0604	-2.6688	-2.9958	-3.0312	-2.7167	-3.1958	-2.8083	-3.0187	318.309	107.895	192.383	7.594	27.322	33.597	12.339	295.830	267.936	120.116	328.879	341.415	8.410	331.549	275.968	334.117	0.0021544	0.00074695	0.0002873	863.63	1.4549e-05	7.1238e-06	1000.1	312.47	1.274e-05	3.6301e-06	451.09	215.56	134.98	72.744	1.565e-05	126.48	0.002755	0.0031341	0.00085463	867.19	3.3307e-05	3.5316e-05	999.39	314.2	3.3259e-05	3.528e-05	455.12	216.31	137.38	73.454	3.2938e-05	127.33	340.756	70.354	103.410	19.373	181.284	164.212	19.189	24.314	212.476	206.279	23.350	27.535	28.616	31.690	167.585	30.251	-8191	255	
887.185	1	1	0	0	0.082369	0.31771	0.20824	0.32013	0.047541	0.11159	0.23696	0.39075	0.33338	0.261	0.11055	0.12281	0.10191	0.3847	0.036301	0.27565	-2.6125	-2.7083	-2.7333	-3.2854	-2.6854	-3.0438	-2.9479	-2.9708	-2.8667	-2.9125	-2.7771	-3.1125	-3.0083	-3.0875	-2.9938	-2.9979	261.038	7.672	347.846	19.203	313.707	214.012	306.755	317.678	24.462	242.535	71.649	72.081	53.478	333.903	157.973	364.973	0.0021009	0.00049236	0.00011859	861.33	7.7012e-06	7.9826e-06	1001.9	312.06	2.8188e-06	7.8656e-06	452.55	216.43	135.63	72.652	1.6456e-05	126.07	0.0027986	0.0031314	0.00085091	867.93	3.2993e-05	3.4149e-05	1002.9	314.12	3.2825e-05	3.4165e-05	456.47	216.91	137.71	73.522	3.304e-05	127.5	336.335	50.313	132.666	19.417	159.006	161.754	19.115	24.227	134.542	160.691	23.398	27.635	28.589	31.733	203.619	30.273	-8191	255	
887.306	1	1	0	0	0.29343	0.13714	0.14663	0.062201	0.36451	0.11802	0.065568	0.14824	0.23568	0.17048	0.11795	0.12142	0.081723	0.38144	0.22165	0.13834	-2.65	-2.7417	-2.9646	-3.1479	-2.7875	-3.0042	-3.1229	-2.875	-2.9938	-2.8292	-2.9354	-3.0521	-2.8937	-3.0833	-2.875	-2.9292	341.619	34.442	203.813	91.687	103.680	305.400	245.855	277.088	103.718	121.418	354.056	364.299	260.789	351.056	209.042	281.410	0.0022605	0.0014978	0.00037304	865.62	1.9171e-05	8.4902e-06	999.39	311.85	1.7702e-05	4.4857e-06	448.73	213.88	134.52	72.284	7.5446e-06	125.11	0.0028275	0.0030787	0.00086598	870.6	3.2581e-05	3.3721e-05	1000.4	313.64	3.1995e-05	3.3397e-05	453.15	215.06	136.38	73.022	3.2797e-05	126.26	332.851	116.293	77.149	19.251	144.032	192.829	19.006	24.501	156.775	106.458	23.265	27.905	28.610	31.805	169.891	30.241	-8191	255	
887.402	1	1	0	0	0.11796	0.13872	0.16438	0.22213	0.15537	0.11564	0.069704	0.1555	0.098452	0.27717	0.16392	0.24868	0.26061	0.29807	0.022376	0.11032	-2.7146	-2.8187	-2.6979	-2.9583	-2.6521	-3.0729	-2.9688	-2.9688	-2.925	-2.7833	-3.0208	-2.9375	-2.925	-3.1542	-3.1458	-3.0062	83.064	243.207	273.713	298.827	60.981	138.786	348.616	364.368	193.474	202.117	294.031	361.053	348.655	21.823	70.870	302.694	0.0022612	0.0010696	0.00037931	861.78	1.1153e-05	1.5909e-05	996.79	310.03	1.9317e-05	2.7235e-06	446.71	212.99	133.35	71.965	1.3537e-05	124.47	0.0027747	0.0030496	0.0008778	867.14	3.2222e-05	3.4458e-05	993.63	312.61	3.2083e-05	3.3861e-05	450.93	213.66	135.85	72.676	3.2876e-05	125.47	336.207	66.387	131.430	19.502	144.463	176.207	19.140	24.512	175.336	165.605	23.158	27.486	28.550	31.628	169.798	30.088	-8191	255	
887.498	1	1	0	0	0.18323	0.10529	0.074516	0.047314	0.087913	0.083981	0.29979	0.091181	0.13503	0.18711	0.22779	0.32678	0.19571	0.24302	0.099062	0.19935	-2.5812	-2.9542	-2.8063	-3.325	-2.9542	-3.0708	-3.2542	-2.7875	-3.0146	-3.1437	-2.8396	-3.1792	-2.8417	-2.95	-2.9708	-2.7625	126.657	101.745	123.851	348.772	140.413	359.353	13.414	248.802	135.586	212.806	335.744	255.724	335.312	313.409	120.649	254.640	0.0020725	0.00075791	0.0001745	864.91	1.3422e-05	7.1053e-06	995.25	310.63	1.5367e-05	1.3422e-05	447.54	212.86	134.48	72.068	1.1907e-05	123.99	0.0027311	0.003037	0.00086957	866.02	3.1654e-05	3.4197e-05	992.11	312.57	3.1872e-05	3.3968e-05	450.61	213.32	136.12	72.543	3.3099e-05	124.95	334.317	82.025	131.751	19.565	123.968	134.670	19.118	24.495	151.768	162.775	23.350	27.558	28.523	31.536	165.457	30.104	-8191	255	
887.594	1	1	0	0	0.1797	0.129	0.030951	0.31473	0.085787	0.3013	0.11279	0.13049	0.070723	0.1673	0.38368	0.21467	0.11403	0.16233	0.13456	0.39014	-2.5667	-2.9688	-2.6396	-2.9521	-2.9958	-2.7479	-3.1688	-2.8708	-2.925	-3.1104	-2.9104	-3.1125	-2.7167	-2.9104	-3.1125	-3.0271	53.825	222.897	301.724	339.982	344.262	162.614	99.873	310.626	126.681	238.774	329.068	354.831	344.107	276.729	153.692	323.454	0.0019605	0.00092936	0.00019054	863.36	9.735e-06	1.2467e-05	992.17	309.88	1.23e-05	8.4783e-06	446.08	212.5	133.96	71.976	1.4006e-05	124.76	0.0027367	0.0030751	0.0008711	868.09	3.1559e-05	3.4695e-05	992.89	312.06	3.1878e-05	3.4151e-05	450.91	213.34	135.87	72.592	3.3354e-05	125.56	332.359	123.499	66.169	19.481	175.914	191.554	19.331	24.492	180.300	225.693	23.401	27.622	28.681	31.734	186.363	30.151	-8191	255	
887.689	1	1	0	0	0.30722	0.19016	0.061599	0.20332	0.054614	0.08759	0.19793	0.10955	0.25799	0.11801	0.30496	0.10798	0.15095	0.41896	0.37449	0.187	-2.5458	-3.1104	-2.75	-3.1333	-2.7438	-2.7333	-3.2083	-3.0479	-2.8729	-3.0083	-3.0271	-3.1833	-3.0187	-2.9708	-2.9875	-2.9896	101.252	220.117	117.216	326.186	98.857	226.811	325.298	278.146	83.970	146.734	246.632	27.839	10.365	27.060	23.723	325.636	0.0022375	0.00059586	8.2716e-05	860.34	1.2464e-05	4.81e-06	998.22	311.5	1.068e-05	1.3827e-05	449.5	214.28	134.85	72.482	1.1671e-05	125.86	0.0027894	0.0031368	0.00087999	868.06	3.1552e-05	3.5105e-05	996.58	313.23	3.2154e-05	3.4292e-05	453.22	215.52	136.79	73.25	3.3238e-05	126.89	334.485	108.031	62.446	19.467	167.523	208.549	19.464	24.240	141.308	147.682	23.464	27.650	28.535	31.670	150.205	30.144	-8191	255	
887.785	1	1	0	0	0.20216	0.27994	0.281	0.1648	0.16213	0.11175	0.35269	0.13629	0.10898	0.10154	0.021377	0.29542	0.10078	0.18439	0.16699	0.16742	-2.5958	-3.05	-2.7146	-3.1021	-2.9437	-2.7687	-3.1854	-3.0187	-2.9021	-2.975	-2.9292	-3.3292	-3.0083	-3.0104	-3.075	-3.2646	329.634	215.396	289.910	272.756	324.433	331.831	308.899	321.386	33.317	146.133	236.472	319.836	352.623	339.254	187.342	246.958	0.0022007	0.00064373	0.00022554	865.69	1.5866e-05	8.9468e-06	1002.9	311.82	5.12e-06	2.3627e-06	451.34	216.52	135.57	72.987	7.2609e-06	127.28	0.0028145	0.0031404	0.00087784	868.88	3.3122e-05	3.5869e-05	1001.2	314.16	3.3689e-05	3.5393e-05	456.28	217.25	137.53	73.79	3.4068e-05	128.12	341.011	38.134	107.290	19.522	167.615	164.422	19.255	24.513	168.265	166.594	23.266	27.570	28.676	31.637	193.917	30.214	-8191	255	
887.905	1	1	0	0	0.17626	0.17397	0.032472	0.18397	0.18839	0.29035	0.14469	0.048921	0.24872	0.16475	0.254	0.22434	0.15119	0.27866	0.091841	0.28093	-2.4667	-3.0104	-2.6354	-3.1521	-2.8187	-2.7917	-3.1729	-3.0104	-2.7917	-3.0708	-3.0146	-3.1188	-3.0979	-3.025	-3.0667	-3.2542	17.653	253.260	163.973	107.239	343.375	118.222	249.286	115.273	202.085	69.449	313.726	272.316	305.393	283.647	55.257	311.602	0.0023639	0.00083898	0.0001428	867.96	1.6216e-05	6.1814e-06	1004.6	313.27	7.3079e-06	7.5969e-06	452.69	215.96	135.82	72.711	1.1641e-05	126.41	0.0029199	0.0032022	0.00090277	871.68	3.3282e-05	3.6115e-05	1003.3	314.98	3.4451e-05	3.5889e-05	456.66	216.82	137.51	73.49	3.4273e-05	127.21	331.248	68.251	142.328	19.257	152.548	183.109	19.135	24.373	241.157	155.689	23.306	27.831	28.506	31.612	97.367	30.131	-8191	255	
888.002	1	1	0	0	0.0081083	0.094352	0.22383	0.17537	0.15057	0.12501	0.14707	0.16365	0.20945	0.054048	0.28426	0.54679	0.18464	0.11951	0.24697	0.37297	-2.4042	-2.7958	-2.6646	-2.9542	-3.0417	-2.9729	-3.1083	-3.1188	-2.6333	-3.0604	-2.8396	-2.9583	-3.0854	-3.0542	-3.0104	-3.0687	134.735	53.329	190.110	277.265	102.586	310.239	341.365	363.685	61.052	286.798	9.619	318.270	30.308	305.226	121.426	323.551	0.0020784	0.00045769	0.00026092	863.06	1.1455e-05	8.865e-06	993.56	310.64	1.0007e-05	7.0017e-06	448.87	214.65	135.3	72.479	1.2127e-05	125.34	0.0029339	0.003223	0.00088308	867.94	3.3763e-05	3.6138e-05	995.4	312.88	3.4258e-05	3.516e-05	453.25	215.64	137.02	73.363	3.371e-05	126.67	332.006	109.918	125.806	19.332	154.134	159.693	19.189	24.435	219.070	129.912	23.427	27.768	28.587	31.718	159.539	30.203	-8191	255	
888.098	1	1	0	0	0.089669	0.056609	0.093313	0.28857	0.074401	0.18871	0.1897	0.14058	0.2419	0.075779	0.17673	0.15474	0.20419	0.17702	0.21349	0.2538	-2.5146	-3.1312	-2.9521	-3.0229	-3.1188	-2.8833	-3.2208	-3.0979	-2.7104	-3.0354	-3.0083	-3.0896	-3.1021	-2.8667	-2.925	-3.2417	55.564	88.979	99.951	50.521	360.239	179.710	311.022	44.687	152.056	32.932	242.238	338.114	120.321	310.808	108.476	272.771	0.0021216	0.00051503	0.00026462	853.3	9.0871e-06	1.0687e-05	990.77	311.37	1.2e-05	5.7069e-06	447.71	213.8	134.48	72.281	1.2192e-05	125.57	0.0028917	0.0031584	0.00086767	861.19	3.287e-05	3.5382e-05	992.4	312.57	3.382e-05	3.4825e-05	452.32	214.97	136.78	73.117	3.4392e-05	126.45	334.658	57.215	94.874	19.380	92.115	163.315	19.064	24.260	148.414	172.430	23.428	27.886	28.688	31.596	170.292	30.335	-8191	255	
888.194	1	1	0	0	0.15909	0.093273	0.058844	0.30328	0.12997	0.13049	0.34964	0.19396	0.040735	0.21175	0.21621	0.20976	0.078869	0.10821	0.19091	0.1944	-2.3312	-2.9833	-2.9042	-2.8708	-3.0917	-2.6813	-3.1396	-3.1146	-2.8146	-3.0896	-3.1042	-3.0979	-3.2062	-3.1375	-2.9771	-3.2687	353.731	225.821	47.325	318.228	73.687	114.620	228.026	366.083	42.899	332.095	281.911	308.175	291.405	278.943	129.637	8.751	0.0021043	0.00037319	0.00011734	859.86	2.7646e-06	9.7867e-06	988.75	311.08	1.6061e-05	5.3517e-06	448.82	214.15	134.54	72.104	2.0138e-05	125.15	0.0029271	0.0031644	0.00089888	866.14	3.3829e-05	3.5577e-05	990.31	312.79	3.4211e-05	3.4868e-05	451.95	215.24	136.65	72.948	3.4542e-05	126.33	335.775	103.457	72.951	19.355	281.527	173.067	19.321	24.407	203.332	138.801	23.302	27.537	28.811	31.677	195.772	30.149	-8191	255	
888.288	1	1	0	0	0.067553	0.22746	0.1038	0.11915	0.15823	0.30487	0.099291	0.14394	0.18649	0.24443	0.26189	0.37881	0.18826	0.25265	0.060263	0.23877	-2.4833	-3.0229	-2.8875	-2.9354	-3.0208	-2.8917	-3.1583	-3.1354	-2.7313	-3.0125	-2.9813	-2.9354	-3.2292	-2.9208	-3.0187	-3.3875	43.242	341.404	293.390	336.217	360.942	106.082	327.464	327.920	224.473	279.340	331.277	295.156	80.374	298.611	129.013	340.126	0.0023127	0.00080123	0.00026791	862.9	1.4752e-05	7.324e-06	996.64	312.22	3.8037e-06	7.3114e-06	449.84	214.92	135.57	72.435	1.4614e-05	126.17	0.0028888	0.0031376	0.00088631	867.48	3.3013e-05	3.5303e-05	997.52	313.68	3.3647e-05	3.4669e-05	455.01	215.78	137.02	73.198	3.4216e-05	127.02	337.937	81.452	96.321	19.178	165.050	113.896	19.268	24.507	120.326	171.251	23.375	27.598	28.331	31.625	134.102	30.147	-8191	255	
888.384	1	1	0	0	0.45011	0.11068	0.15471	0.16637	0.17946	0.10794	0.15188	0.087506	0.13052	0.091781	0.2367	0.066687	0.10312	0.11648	0.2319	0.55979	-2.25	-2.85	-2.9979	-2.8979	-2.9958	-3.0333	-3.0938	-3.325	-2.8208	-3.025	-3.1208	-2.9958	-3.1646	-2.8958	-2.9146	-3.2625	10.543	243.593	113.571	135.475	320.878	58.336	269.395	64.675	213.112	79.155	267.976	38.620	283.978	307.594	7.062	318.263	0.0021768	0.0010499	0.00025504	863.02	1.4079e-05	1.0135e-05	998.28	312.27	1.8738e-05	5.7209e-06	452.06	216.66	135.92	72.668	1.41e-05	126.93	0.002803	0.0031086	0.00086432	868.39	3.2415e-05	3.4729e-05	998.56	314.65	3.3137e-05	3.4595e-05	456.88	217.11	137.62	73.451	3.4671e-05	127.79	340.232	84.498	93.863	19.514	179.386	161.305	19.029	24.441	165.679	185.847	23.343	27.584	28.518	31.666	139.036	30.401	-8191	255	
888.481	1	1	0	0	0.031739	0.19216	0.20035	0.11542	0.15185	0.1528	0.1965	0.081618	0.06817	0.13152	0.33715	0.12992	0.12496	0.24411	0.27065	0.23909	-2.3417	-2.8958	-3.0375	-2.825	-3.0938	-3.0167	-2.9938	-3.2167	-2.6667	-2.9958	-3.0417	-2.8604	-2.9729	-3.1063	-2.8021	-3.1521	134.278	194.616	219.747	11.161	268.280	281.194	176.659	284.932	146.417	115.614	326.368	301.368	6.953	13.771	186.421	234.437	0.0021766	0.0011149	0.00020023	867.35	1.3428e-05	1.4439e-05	1001.6	314.41	2.4167e-05	7.0061e-06	451.52	216.18	135.48	72.191	1.1128e-05	126.31	0.0028053	0.0031915	0.00088476	871.29	3.2257e-05	3.4664e-05	1001.4	315.33	3.2252e-05	3.483e-05	456.25	217.2	137.09	73.114	3.4653e-05	127.21	335.362	109.268	56.108	19.375	175.161	152.727	19.336	24.369	170.847	193.455	23.314	27.681	28.729	31.585	186.464	30.087	-8191	255	
888.577	1	1	0	0	0.23314	0.23967	0.038471	0.13239	0.13682	0.054063	0.2623	0.14965	0.058982	0.092277	0.31235	0.35209	0.29573	0.17173	0.12286	0.39625	-2.4042	-2.9479	-3.0938	-2.9417	-3.1833	-2.9979	-2.9292	-3.0292	-2.7958	-3.0458	-3.2854	-2.9313	-2.9229	-3.2125	-2.9688	-3.1792	62.628	88.607	51.758	341.986	74.035	332.238	257.360	304.656	263.530	111.216	261.557	362.529	291.263	120.217	315.163	331.841	0.0020567	0.00053575	0.00012115	867.57	6.9139e-06	1.6055e-05	1002	311.6	1.0455e-05	7.7263e-06	447.08	214.13	134.35	71.914	1.0025e-05	125.13	0.0028061	0.0031737	0.00087519	873.4	3.252e-05	3.5143e-05	1000.5	313.69	3.2833e-05	3.5349e-05	452.73	214.77	136.08	72.559	3.4009e-05	125.9	340.088	128.726	90.058	19.446	170.572	144.004	19.218	24.425	199.400	130.496	23.392	27.666	28.546	31.525	192.668	30.299	-8191	255	
888.697	1	1	0	0	0.23655	0.14012	0.10808	0.20012	0.11461	0.249	0.11451	0.29653	0.30916	0.020463	0.22245	0.28885	0.15065	0.052374	0.099258	0.28264	-2.5583	-2.6875	-2.9604	-2.9542	-3.0062	-2.9896	-2.9542	-3.1271	-2.8667	-2.8688	-3.0667	-2.9	-2.975	-3.025	-2.7729	-3.1646	62.492	305.032	359.194	7.829	227.227	114.293	300.440	253.227	211.354	300.156	215.002	292.810	9.981	251.563	45.068	272.711	0.0020435	0.0010382	9.185e-05	861.99	1.5555e-05	5.0329e-06	989.38	310.91	1.8109e-05	6.3382e-06	446.57	212.83	134.28	71.475	7.332e-06	123.89	0.0027538	0.003142	0.00086348	866.4	3.2847e-05	3.5133e-05	992.73	312.55	3.3172e-05	3.5734e-05	451.57	213.72	136.23	72.42	3.4637e-05	125.14	338.547	92.114	126.998	19.422	187.695	166.286	19.163	24.296	167.810	174.517	23.433	27.604	28.244	31.758	175.124	30.566	-8191	255	
888.794	1	1	0	0	0.091329	0.1954	0.38299	0.13537	0.1373	0.075168	0.30041	0.19575	0.33142	0.11657	0.12949	0.059456	0.23372	0.14064	0.092938	0.15906	-2.5729	-2.6917	-2.9313	-2.8937	-2.8396	-3.0083	-2.7625	-3.0854	-2.9125	-2.7542	-3.1437	-3.0062	-2.9542	-2.9333	-2.6521	-3.2125	349.424	35.112	77.310	356.185	142.454	150.851	321.201	355.149	267.568	269.081	251.211	257.468	10.709	339.146	219.234	337.290	0.002248	0.00059355	0.00015029	860.12	9.7798e-06	1.343e-05	990.27	309.98	2.316e-05	6.4283e-06	448.26	212.4	134.29	71.659	1.3892e-05	124.31	0.0028245	0.003201	0.00087725	865.06	3.2777e-05	3.4553e-05	990.53	311.91	3.2604e-05	3.5099e-05	450.15	213.26	135.82	72.282	3.3485e-05	125.17	338.916	149.752	88.711	19.574	210.239	181.674	19.232	24.414	195.829	145.454	23.508	27.524	28.518	31.591	202.668	30.423	-8191	255	
888.865	1	1	0	0	0.13948	0.079672	0.10275	0.10207	0.19414	0.099705	0.30571	0.45562	0.22147	0.18822	0.039052	0.057831	0.22427	0.17259	0.11463	0.10954	-2.4958	-2.7812	-2.9792	-2.9792	-2.8104	-3.0125	-2.9479	-3.2396	-2.9958	-2.7625	-3.1729	-2.8104	-2.9021	-3.1188	-2.7625	-3.2271	224.917	193.778	205.554	315.834	87.309	11.517	226.397	284.425	190.518	83.635	339.874	38.473	110.328	314.428	225.643	308.776	0.0021584	0.0010248	0.00030868	862.42	6.31e-06	1.095e-05	991.5	310.02	9.7883e-06	2.9777e-06	446.44	213.67	133.75	71.525	1.3505e-05	124.53	0.0027828	0.0032233	0.00085864	868.15	3.3482e-05	3.5051e-05	992.31	312.69	3.2929e-05	3.5514e-05	450.24	213.84	135.92	72.286	3.3449e-05	125.37	336.338	130.348	83.230	19.443	172.201	167.454	19.277	24.493	180.091	145.276	23.411	27.607	28.363	31.610	194.108	30.055	-8191	255	
888.986	1	1	0	0	0.1309	0.103	0.17024	0.10003	0.10025	0.20683	0.12899	0.12159	0.18722	0.057581	0.080438	0.35192	0.29716	0.16118	0.1983	0.28409	-2.4521	-2.8104	-2.9333	-2.7708	-2.6229	-2.9583	-2.8521	-2.9875	-2.7458	-2.8375	-3.1292	-2.8812	-2.5646	-3.0354	-2.7438	-2.7375	7.507	103.186	23.408	348.032	131.349	229.595	344.862	255.889	44.067	303.711	328.477	291.568	340.361	285.549	280.427	271.840	0.0022659	0.00057718	0.00030263	860.2	1.0395e-05	8.3644e-06	996.77	311.42	1.0426e-05	7.7568e-06	448.42	214.54	134.26	71.61	1.2325e-05	125.2	0.0028116	0.0031692	0.00086652	867.22	3.3607e-05	3.4948e-05	995.32	313.21	3.315e-05	3.5353e-05	452.4	215.18	136.07	72.478	3.3616e-05	126.15	335.846	45.565	85.214	19.589	120.374	148.584	19.175	24.466	133.221	149.272	23.371	27.600	28.421	31.709	169.235	30.376	-8191	255	
889.082	1	1	0	0	0.24153	0.14243	0.2702	0.15032	0.09558	0.049396	0.24638	0.19043	0.25561	0.2329	0.097747	0.18321	0.040966	0.21021	0.22855	0.28941	-2.55	-2.5917	-3.0583	-2.8187	-2.7083	-2.8063	-3.0563	-2.925	-3.0125	-2.8521	-3.2167	-3.0646	-2.8104	-3.0042	-2.6396	-2.8854	226.610	121.864	146.667	70.622	205.278	141.414	260.414	226.084	13.756	312.929	307.084	16.729	286.622	23.753	140.393	347.469	0.0021912	0.00059428	0.00022245	865.88	1.0716e-05	5.4074e-06	1000.2	310.47	1.486e-05	6.164e-06	449.97	215.27	134.28	72.188	3.5021e-06	126.02	0.0028234	0.0031305	0.00085723	868.62	3.2943e-05	3.3785e-05	998.31	312.86	3.2634e-05	3.3729e-05	454.72	216.08	136.43	72.862	3.3376e-05	126.82	330.349	90.578	44.163	19.340	139.945	153.325	19.082	24.696	171.235	139.610	23.306	27.566	28.774	31.565	176.340	30.261	-8191	255	
889.178	1	1	0	0	0.2294	0.11075	0.068762	0.067514	0.21437	0.1692	0.26397	0.21939	0.21454	0.28666	0.33709	0.16945	0.19024	0.41669	0.25583	0.13397	-2.75	-2.5854	-2.9208	-3.0958	-2.7771	-3.1958	-2.8104	-2.9813	-2.8979	-2.6229	-2.9521	-2.9417	-2.775	-3.3583	-2.8979	-2.8771	25.290	352.351	319.315	52.126	80.735	101.179	276.674	270.108	140.473	357.527	15.663	351.574	9.302	284.118	180.799	356.084	0.0020079	0.00083574	0.00032096	867.51	1.1195e-05	1.2127e-05	1008.9	313.11	2.0515e-05	9.1086e-06	451.07	215.08	134.6	71.899	9.4915e-06	125.61	0.0027963	0.0031043	0.00085676	872.18	3.2596e-05	3.3866e-05	1004.9	314.69	3.2385e-05	3.3697e-05	455.25	216	136.5	72.652	3.3042e-05	126.59	335.745	75.088	78.500	19.285	177.176	178.835	19.255	24.360	160.919	183.767	23.325	27.664	28.677	31.711	156.800	30.181	-8191	255	
889.274	1	1	0	0	0.21237	0.011639	0.43927	0.18567	0.11346	0.15479	0.098457	0.35765	0.31259	0.12331	0.045388	0.3085	0.16128	0.17674	0.04661	0.31852	-2.4542	-2.6292	-2.85	-3.0396	-2.6917	-2.9625	-2.9583	-2.5854	-2.9396	-2.7521	-3.1125	-2.9896	-2.9521	-2.9854	-2.9562	-2.7583	129.913	291.189	213.261	299.321	184.916	365.278	285.570	363.328	345.737	103.015	256.115	300.659	107.638	9.800	130.746	327.794	0.0023158	0.0012169	9.038e-05	863.74	6.3349e-06	7.533e-06	996.9	310.96	1.7976e-05	5.3185e-06	447.87	212.41	133.81	71.495	9.3895e-06	124.61	0.0027461	0.0030449	0.00085102	866.33	3.2407e-05	3.3812e-05	994.34	312.6	3.1998e-05	3.3565e-05	451.35	213.54	135.56	72.266	3.3129e-05	125.36	334.704	84.597	363.499	19.487	187.147	139.546	18.914	24.238	154.160	157.006	23.155	27.781	28.544	31.565	149.919	30.233	-8191	255	
889.393	1	1	0	0	0.061887	0.11635	0.29654	0.17603	0.27634	0.37341	0.15396	0.11388	0.065277	0.17732	0.21526	0.10571	0.21214	0.26582	0.22334	0.31937	-2.5833	-2.675	-2.8875	-2.9042	-2.5625	-2.9875	-3.0187	-2.7687	-2.9521	-2.7667	-2.9333	-3.2896	-2.8438	-3.1292	-2.9729	-3.0979	334.573	132.815	298.202	206.949	322.185	17.435	60.107	274.924	123.965	60.294	280.566	289.965	290.864	19.470	325.929	294.234	0.0022285	0.00034218	0.00023431	855.94	1.221e-05	8.8655e-06	990.51	310.58	1.0998e-05	5.3193e-06	443.91	212.24	133.95	71.572	1.7234e-05	124.28	0.0027345	0.0030175	0.00087373	863.13	3.1889e-05	3.3781e-05	991.19	311.42	3.1737e-05	3.3888e-05	449.79	213.63	135.76	72.223	3.307e-05	125.35	333.335	136.326	78.815	19.383	201.746	160.543	19.351	24.338	146.279	168.272	23.453	27.716	28.461	31.604	182.194	30.475	-8191	255	
889.489	1	1	0	0	0.30997	0.041897	0.22481	0.099613	0.1594	0.12711	0.12351	0.24352	0.13253	0.20058	0.28357	0.11697	0.13265	0.10875	0.17962	0.32525	-2.5958	-2.8688	-2.6979	-3.2083	-2.7458	-3.0167	-3.2917	-2.775	-2.9813	-2.95	-3.0167	-3.375	-2.9562	-3.0396	-2.9375	-2.9313	116.764	243.851	306.173	118.295	19.778	39.412	300.138	356.987	92.293	113.085	319.753	9.099	33.514	283.246	159.132	311.558	0.00212	0.00090786	9.8056e-05	862.55	3.9947e-06	1.2029e-05	992.58	308.78	1.9711e-05	6.964e-06	445.99	212.52	133.74	71.336	1.0775e-05	124.65	0.0027132	0.0030494	0.00086679	864.98	3.1555e-05	3.4265e-05	991.29	311.18	3.1652e-05	3.3624e-05	449.76	213.47	135.46	72.054	3.2953e-05	125.31	329.667	70.867	150.794	19.371	180.561	173.697	19.140	24.670	176.300	139.993	23.450	27.415	28.492	31.457	141.190	30.226	-8191	255	
#DATA ENDS
