BOXY.EXE: ISS Imagent and Oximeter Data Acquisition Program Version 0.80
Ascii Record File

#ACQ INFORMATION
2  Detector Channels 
16  External MUX Channels 
1  Auxiliary Channels 
5000  Waveform (CCF) Frequency (Hz)
1  Waveforms Skipped 
30  Waveforms Averaged 
1  Cycles Averaged 
16  Acquisitions per Waveform 
10.0806  Updata Rate (Hz) 

#FILE INFORMATION
TRUE -- External MUX Channel results are PARSED.
FALSE -- AC DC and Phase are NOT grouped.
TRUE -- Companion Program Settings File CREATED.
FALSE -- AC data not excluded
FALSE -- DC data not excluded
FALSE -- Phase data not excluded
FALSE -- Auxillary Chn. data not excluded
Tab delimiters

#CALIBRATION STATE
TRUE -- Waveform Calibration Values APPLIED.


#AUX CALIBRATION VALUES
Val Type	aux-1	

Term	1.0000e+00	
Factor	0.0000e+00	


#WF CALIBRATION VALUES
A = Detector Channel
Val Type	A-AC1	A-AC2	A-AC3	A-AC4	A-AC5	A-AC6	A-AC7	A-AC8	A-AC9	A-AC10	A-AC11	A-AC12	A-AC13	A-AC14	A-AC15	A-AC16	A-DC1	A-DC2	A-DC3	A-DC4	A-DC5	A-DC6	A-DC7	A-DC8	A-DC9	A-DC10	A-DC11	A-DC12	A-DC13	A-DC14	A-DC15	A-DC16	A-Ph1	A-Ph2	A-Ph3	A-Ph4	A-Ph5	A-Ph6	A-Ph7	A-Ph8	A-Ph9	A-Ph10	A-Ph11	A-Ph12	A-Ph13	A-Ph14	A-Ph15	A-Ph16	

Term	0.00000e+00	0.00000e+00	0.00000e+00	0.00000e+00	0.00000e+00	0.00000e+00	0.00000e+00	0.00000e+00	0.00000e+00	0.00000e+00	0.00000e+00	0.00000e+00	0.00000e+00	0.00000e+00	0.00000e+00	0.00000e+00	0.00000e+00	0.00000e+00	0.00000e+00	0.00000e+00	0.00000e+00	0.00000e+00	0.00000e+00	0.00000e+00	0.00000e+00	0.00000e+00	0.00000e+00	0.00000e+00	0.00000e+00	0.00000e+00	0.00000e+00	0.00000e+00	0.00000e+00	0.00000e+00	0.00000e+00	0.00000e+00	0.00000e+00	0.00000e+00	0.00000e+00	0.00000e+00	0.00000e+00	0.00000e+00	0.00000e+00	0.00000e+00	0.00000e+00	0.00000e+00	0.00000e+00	0.00000e+00	
Factor	1.00000e+00	1.00000e+00	1.00000e+00	1.00000e+00	1.00000e+00	1.00000e+00	1.00000e+00	1.00000e+00	1.00000e+00	1.00000e+00	1.00000e+00	1.00000e+00	1.00000e+00	1.00000e+00	1.00000e+00	1.00000e+00	1.00000e+00	1.00000e+00	1.00000e+00	1.00000e+00	1.00000e+00	1.00000e+00	1.00000e+00	1.00000e+00	1.00000e+00	1.00000e+00	1.00000e+00	1.00000e+00	1.00000e+00	1.00000e+00	1.00000e+00	1.00000e+00	X	X	X	X	X	X	X	X	X	X	X	X	X	X	X	X	

B = Detector Channel
Val Type	B-AC1	B-AC2	B-AC3	B-AC4	B-AC5	B-AC6	B-AC7	B-AC8	B-AC9	B-AC10	B-AC11	B-AC12	B-AC13	B-AC14	B-AC15	B-AC16	B-DC1	B-DC2	B-DC3	B-DC4	B-DC5	B-DC6	B-DC7	B-DC8	B-DC9	B-DC10	B-DC11	B-DC12	B-DC13	B-DC14	B-DC15	B-DC16	B-Ph1	B-Ph2	B-Ph3	B-Ph4	B-Ph5	B-Ph6	B-Ph7	B-Ph8	B-Ph9	B-Ph10	B-Ph11	B-Ph12	B-Ph13	B-Ph14	B-Ph15	B-Ph16	

Term	0.00000e+00	0.00000e+00	0.00000e+00	0.00000e+00	0.00000e+00	0.00000e+00	0.00000e+00	0.00000e+00	0.00000e+00	0.00000e+00	0.00000e+00	0.00000e+00	0.00000e+00	0.00000e+00	0.00000e+00	0.00000e+00	0.00000e+00	0.00000e+00	0.00000e+00	0.00000e+00	0.00000e+00	0.00000e+00	0.00000e+00	0.00000e+00	0.00000e+00	0.00000e+00	0.00000e+00	0.00000e+00	0.00000e+00	0.00000e+00	0.00000e+00	0.00000e+00	-1.07286e+02	-1.33750e+02	-1.30724e+02	-1.82363e+02	-6.19824e+01	-6.62161e+01	-1.57848e+02	-1.62015e+02	-5.98885e+01	-6.91183e+01	-1.70843e+02	-1.70945e+02	-1.83296e+02	-1.76809e+02	-6.51458e+01	-1.49940e+02	
Factor	1.60289e-05	1.47158e-04	4.35422e-05	1.53391e-01	1.14493e-06	1.53336e-06	1.58280e-01	4.76737e-02	1.01461e-06	1.45935e-06	8.23878e-02	2.72771e-02	2.23222e-02	8.72536e-03	1.20848e-06	1.24093e-02	9.10509e-06	1.43128e-05	4.00729e-06	8.10904e-02	1.47627e-07	1.59585e-07	7.86080e-02	2.53910e-02	1.46793e-07	1.59995e-07	4.23457e-02	1.41041e-02	1.20320e-02	4.67646e-03	1.51879e-07	6.42207e-03	X	X	X	X	X	X	X	X	X	X	X	X	X	X	X	X	



#DISTANCE SETTINGS
A = Detector Channel
A-1	A-2	A-3	A-4	A-5	A-6	A-7	A-8	A-9	A-10	A-11	A-12	A-13	A-14	A-15	A-16	

2.5000e+00	3.0000e+00	2.5000e+00	3.0000e+00	2.0000e+00	3.0000e+00	1.5000e+00	3.0000e+00	3.0000e+00	3.0000e+00	3.0000e+00	3.0000e+00	3.0000e+00	3.0000e+00	1.5000e+00	3.0000e+00	

B = Detector Channel
B-1	B-2	B-3	B-4	B-5	B-6	B-7	B-8	B-9	B-10	B-11	B-12	B-13	B-14	B-15	B-16	

1.0000e+01	1.0000e+01	1.0000e+01	1.4400e+00	1.0000e+01	1.0000e+01	1.5100e+00	1.9400e+00	1.0000e+01	1.0000e+01	1.9900e+00	2.4900e+00	2.4100e+00	2.9000e+00	1.0000e+01	2.9800e+00	




#DATA BEGINS
time	group	step	mark	flag	A-AC1	A-AC2	A-AC3	A-AC4	A-AC5	A-AC6	A-AC7	A-AC8	A-AC9	A-AC10	A-AC11	A-AC12	A-AC13	A-AC14	A-AC15	A-AC16	A-DC1	A-DC2	A-DC3	A-DC4	A-DC5	A-DC6	A-DC7	A-DC8	A-DC9	A-DC10	A-DC11	A-DC12	A-DC13	A-DC14	A-DC15	A-DC16	A-Ph1	A-Ph2	A-Ph3	A-Ph4	A-Ph5	A-Ph6	A-Ph7	A-Ph8	A-Ph9	A-Ph10	A-Ph11	A-Ph12	A-Ph13	A-Ph14	A-Ph15	A-Ph16	B-AC1	B-AC2	B-AC3	B-AC4	B-AC5	B-AC6	B-AC7	B-AC8	B-AC9	B-AC10	B-AC11	B-AC12	B-AC13	B-AC14	B-AC15	B-AC16	B-DC1	B-DC2	B-DC3	B-DC4	B-DC5	B-DC6	B-DC7	B-DC8	B-DC9	B-DC10	B-DC11	B-DC12	B-DC13	B-DC14	B-DC15	B-DC16	B-Ph1	B-Ph2	B-Ph3	B-Ph4	B-Ph5	B-Ph6	B-Ph7	B-Ph8	B-Ph9	B-Ph10	B-Ph11	B-Ph12	B-Ph13	B-Ph14	B-Ph15	B-Ph16	aux-1	digaux	

1375.569	1	1	0	256	0.083777	0.22053	0.21955	0.24612	0.18346	0.15382	0.18955	0.079497	0.063965	0.10687	0.18092	0.25268	0.10378	0.19576	0.10027	0.2274	-1.1313	-2.4062	-1.6125	-2.0396	-2.5104	-1.5458	-2.4604	-2.1271	-1.6729	-2.6896	-1.7271	-2.0146	-2.4375	-1.4958	-2.3208	-2.4042	91.545	354.028	110.010	365.823	303.881	429.945	345.713	140.371	193.667	359.680	107.467	106.089	147.037	422.040	143.898	342.860	0.00037956	0.00076289	0.00047294	260.14	4.8814e-06	5.3219e-06	521.08	111.97	7.4119e-06	1.0441e-05	239.29	106.61	50.477	25.361	1.1458e-06	57.566	0.0041059	0.0061953	0.0017364	283.42	6.5902e-05	7.0765e-05	530.11	117.46	6.6818e-05	7.2704e-05	247.11	108.19	53.799	26.57	7.1007e-05	58.054	195.907	112.119	199.715	91.720	227.421	350.074	90.839	96.860	224.167	166.216	94.619	98.832	100.427	104.334	407.145	102.055	-8191	255	
1375.665	1	1	0	0	0.17116	0.20701	0.34292	0.093685	0.027741	0.18571	0.060698	0.19778	0.11929	0.14412	0.35127	0.23649	0.23011	0.30625	0.1936	0.097555	-1.1125	-2.5729	-1.8771	-1.6187	-2.3563	-1.5562	-2.2771	-2.2375	-1.4833	-2.2875	-2.0375	-1.7833	-2.4396	-1.5812	-1.975	-2.4542	405.714	397.172	249.525	332.613	133.682	275.403	282.303	342.195	400.896	209.855	396.923	387.624	278.362	94.471	160.592	280.476	0.0004514	0.00090112	0.00011666	261.84	7.9375e-06	4.0873e-06	520.1	109.53	4.6363e-06	8.3354e-06	237.44	105.76	50.733	25.727	1.6999e-06	57.396	0.004362	0.0065877	0.0018232	284.53	6.7769e-05	7.3013e-05	529.94	116.29	6.7095e-05	7.3098e-05	244.41	107.86	53.839	26.848	6.9201e-05	58.147	179.913	403.772	163.718	91.935	86.416	219.688	90.511	96.531	282.870	320.651	94.953	99.083	100.679	104.238	425.415	102.022	-8191	255	
1375.761	1	1	0	0	0.16676	0.23926	0.19042	0.18838	0.11925	0.19738	0.19028	0.28258	0.039621	0.19607	0.045359	0.15017	0.14965	0.15081	0.15818	0.1011	-1.1104	-2.35	-1.8521	-1.7854	-2.3688	-1.7625	-2.1333	-2.25	-1.5688	-2.3083	-2.0917	-1.6063	-2.3875	-1.5833	-1.8979	-2.4625	240.413	337.355	225.657	310.662	343.738	193.125	331.962	164.902	363.920	152.481	116.341	420.628	152.824	419.155	85.455	101.926	0.00041853	0.00058459	0.00023061	260.65	5.4624e-06	1.0438e-05	516.39	110.29	6.9209e-07	9.9453e-06	235.57	106.61	50.699	26.144	4.8207e-06	58.084	0.0043552	0.0065977	0.00184	283.83	6.8599e-05	7.2909e-05	526.96	115.88	6.7448e-05	7.3492e-05	242.76	108.33	53.976	27.128	6.9872e-05	58.493	188.682	361.849	92.434	92.109	158.993	244.188	91.174	96.552	253.777	228.471	95.193	98.690	100.638	104.668	188.786	102.184	-8191	255	
1375.857	1	1	0	0	0.093079	0.084644	0.34117	0.11981	0.15218	0.027629	0.27214	0.080155	0.065361	0.15719	0.13894	0.20931	0.34506	0.19989	0.23677	0.28566	-1.2437	-2.2229	-2.0896	-1.5521	-2.5333	-1.7458	-1.8188	-2.3187	-1.6979	-2.2313	-2.1729	-1.4688	-2.3417	-1.8667	-1.6021	-2.6458	79.935	201.197	312.196	154.051	121.267	406.521	366.768	87.693	404.242	256.180	158.717	103.488	365.291	86.074	333.427	357.596	0.00040905	0.00071945	0.00039995	257.32	3.4766e-06	5.1288e-06	518.26	108.9	6.3921e-06	1.0694e-05	235.11	105.94	51.125	26.202	7.2243e-06	58.379	0.0043533	0.006606	0.0018437	282.27	6.7773e-05	7.2456e-05	526.75	115.5	6.6806e-05	7.3625e-05	243.12	108.5	54.271	27.259	6.8983e-05	59.071	201.748	352.952	175.522	92.035	279.560	224.030	90.936	96.678	276.906	214.629	94.778	98.678	100.714	104.330	303.119	102.322	-8191	255	
1375.978	1	1	0	0	0.16551	0.18222	0.20034	0.17622	0.30853	0.16243	0.26537	0.20302	0.17571	0.19456	0.30315	0.36362	0.1239	0.10478	0.084854	0.27976	-1.2563	-2.1854	-1.9375	-1.4333	-2.3375	-1.8458	-1.6625	-2.3479	-1.5042	-2.2271	-2.2479	-1.6958	-2.275	-1.9729	-1.6292	-2.4437	411.004	240.505	145.005	226.928	111.070	108.964	266.567	357.884	187.190	343.959	110.008	303.230	282.267	427.507	140.520	356.344	0.00048891	0.00048684	0.00032842	264.31	9.3085e-06	7.8706e-06	520.47	109.32	2.9747e-06	5.5693e-06	238.1	107.73	51.339	26.007	6.2443e-06	58.033	0.004319	0.0065092	0.0017806	284.46	6.606e-05	7.1058e-05	527.41	115.42	6.4386e-05	6.9437e-05	243.38	108.73	54.044	27.011	6.5029e-05	58.645	180.625	142.776	423.898	91.968	214.443	249.197	90.831	96.829	265.531	239.473	95.234	98.928	100.414	104.604	162.110	102.378	-8191	255	
1376.072	1	1	0	0	0.14444	0.086045	0.2849	0.155	0.22084	0.18388	0.047073	0.35774	0.19001	0.049923	0.42875	0.032199	0.050462	0.21665	0.14377	0.28043	-1.1562	-1.7792	-2.1979	-1.5958	-2.2188	-2.1854	-1.6896	-2.425	-1.8458	-1.9562	-2.4083	-1.6292	-2.2792	-2.0396	-1.7375	-2.4979	113.373	294.361	350.240	138.844	431.208	162.332	350.482	398.952	246.047	83.836	386.561	138.807	355.499	306.465	90.305	358.672	0.00041771	0.00050529	0.00010885	263	8.2689e-06	1.5178e-05	520.07	109.43	4.7568e-06	8.2783e-06	234.88	106.72	51.512	26.277	1.8379e-06	58.208	0.0040492	0.0061363	0.0016739	282.41	6.1332e-05	6.7243e-05	525.22	114.38	5.9339e-05	6.4399e-05	240.44	108.02	53.716	26.809	6.0548e-05	58.14	185.074	417.199	281.263	91.562	153.132	212.918	91.226	97.058	173.781	248.366	95.043	99.224	100.790	104.924	422.537	102.558	-8191	255	
1376.146	1	1	0	0	0.30964	0.037341	0.227	0.13023	0.017555	0.058157	0.074423	0.18691	0.14027	0.045335	0.17636	0.32301	0.14878	0.16006	0.15929	0.26215	-1.2687	-1.7812	-2.1875	-1.7667	-2.1583	-2.1	-1.6042	-2.3937	-1.7021	-1.6521	-2.3833	-1.7292	-2.1042	-2.1354	-1.4396	-2.5083	86.272	283.037	258.358	284.848	100.879	163.001	373.348	400.708	190.922	189.627	413.993	381.543	101.469	114.309	151.662	362.207	0.00040018	0.00026448	0.00034857	264.95	2.0107e-06	6.5715e-06	518.92	109.69	3.7344e-06	1.9873e-06	237.47	107.29	51.599	26.038	2.1702e-06	58.156	0.0038267	0.005703	0.0015797	281.48	5.8147e-05	6.3528e-05	525.09	114.81	5.8621e-05	6.3317e-05	241.77	108.34	53.723	26.792	6.0427e-05	58.188	181.857	190.609	158.227	91.664	315.517	313.242	90.591	96.816	237.474	392.652	95.159	99.040	100.840	104.594	84.500	102.237	-8191	255	
1376.265	1	1	0	0	0.30282	0.30248	0.17502	0.073079	0.11887	0.08666	0.058375	0.10461	0.095661	0.10197	0.41176	0.29759	0.048133	0.23175	0.21526	0.10136	-1.4625	-1.5667	-2.3563	-1.8104	-2.1271	-2.1771	-1.4667	-2.2562	-1.8396	-1.7417	-2.5042	-1.9396	-2.1146	-2.3063	-1.425	-2.3396	282.559	230.907	168.521	129.908	114.009	369.895	275.755	285.213	83.287	141.503	427.470	395.327	397.509	308.676	247.474	301.991	0.00051601	0.00076227	0.00010752	265.77	5.3052e-06	6.4579e-06	525.59	110.46	9.3208e-06	9.6028e-06	238.11	107.74	51.144	25.988	2.7481e-06	58.315	0.0038076	0.0057167	0.0015942	283.63	5.8801e-05	6.3426e-05	528.81	115.46	5.8626e-05	6.3074e-05	243.2	108.49	53.705	26.787	6.0076e-05	58.307	186.927	115.403	376.356	92.026	250.286	253.054	91.227	97.005	214.187	207.694	95.427	99.054	100.970	104.640	198.263	102.589	-8191	255	
1376.361	1	1	0	0	0.036663	0.043278	0.1213	0.13406	0.30125	0.2692	0.13231	0.18047	0.10293	0.19003	0.27626	0.11164	0.21871	0.25965	0.059237	0.34003	-1.5083	-1.5979	-2.45	-1.725	-1.75	-2.3292	-1.5187	-2.2708	-2.0563	-1.6333	-2.4708	-1.9625	-1.6708	-2.2792	-1.4729	-2.2812	179.257	388.440	90.697	312.193	377.953	415.196	176.666	123.245	103.624	432.857	354.741	117.704	103.856	106.818	300.335	386.785	0.00043503	0.00076696	0.00039773	268.81	7.7844e-06	1.6867e-06	524.73	110.98	2.5353e-06	6.9277e-06	238.2	106.35	51.209	25.802	1.8615e-06	57.725	0.0038248	0.0057666	0.0016261	285.09	5.9509e-05	6.4964e-05	529.76	115.77	5.8894e-05	6.4204e-05	243.65	107.85	53.432	26.65	6.0293e-05	57.855	198.441	110.497	151.341	91.879	295.898	268.077	91.118	97.085	289.987	422.887	95.087	98.818	100.847	104.737	271.172	102.514	-8191	255	
1376.457	1	1	0	0	0.12079	0.11153	0.13018	0.018298	0.2324	0.13749	0.29484	0.17292	0.15634	0.16383	0.18976	0.15539	0.18392	0.074292	0.28193	0.44668	-1.7354	-1.3833	-2.4688	-1.8563	-1.6167	-2.4437	-1.6063	-1.9833	-2.2146	-1.4917	-2.4292	-1.95	-1.7437	-2.3854	-1.5792	-2.25	411.508	124.530	246.377	111.371	341.111	116.258	104.644	363.621	94.376	298.885	370.962	313.894	404.896	93.788	316.836	406.289	0.00049431	0.00075735	0.0002138	266.62	4.6493e-06	4.24e-06	521.48	112.01	7.8112e-06	2.6558e-06	238.44	105.94	51.031	25.708	4.4847e-06	57.128	0.0038255	0.0056264	0.0015881	283.5	5.8121e-05	6.2868e-05	526.6	115.98	5.8272e-05	6.2299e-05	242.48	107.09	53.304	26.484	5.9873e-05	57.195	196.272	160.258	184.349	91.654	253.809	84.178	90.401	97.191	244.040	188.754	95.271	98.863	101.027	104.915	194.281	102.461	-8191	255	
1376.553	1	1	0	0	0.078247	0.15865	0.042188	0.24506	0.15948	0.086383	0.38742	0.24151	0.34349	0.19814	0.1291	0.11991	0.1324	0.36759	0.21573	0.12461	-2.0792	-1.3583	-2.225	-1.9708	-1.5938	-2.3833	-1.6979	-1.8792	-2.35	-1.5917	-2.2854	-2.025	-1.6979	-2.4792	-1.6375	-1.8875	122.068	403.815	356.152	396.262	230.334	382.032	357.854	157.022	263.508	372.144	318.719	434.070	294.453	341.327	231.792	102.938	0.00042164	0.00065772	0.00023021	266.34	9.5802e-06	5.8553e-06	526.06	111.55	8.9848e-06	1.2212e-05	237.08	105.97	50.321	25.524	1.1802e-05	57.37	0.0037871	0.0056768	0.0015612	283.51	5.8304e-05	6.3368e-05	527.41	115.71	5.7841e-05	6.2437e-05	242.5	106.81	53.22	26.408	5.9333e-05	57.45	198.143	89.378	245.387	91.929	95.475	252.184	90.930	97.041	224.327	250.361	95.175	98.876	101.099	104.714	259.910	102.255	-8191	255	
1376.674	1	1	0	0	0.16729	0.15177	0.33169	0.2111	0.11664	0.1444	0.26576	0.10799	0.14981	0.22499	0.093533	0.076758	0.14286	0.27854	0.050178	0.29768	-2.0771	-1.4458	-2.2146	-1.9771	-1.6521	-2.2854	-1.7771	-1.8958	-2.3583	-1.5938	-2.3187	-2.3125	-1.5521	-2.3896	-1.8792	-1.8375	270.771	193.019	356.025	82.130	134.042	414.106	299.909	237.606	165.121	136.608	219.292	111.225	329.330	183.800	396.843	354.178	0.00046027	0.00037711	6.1122e-05	267.32	7.8755e-06	2.1049e-06	525.96	112.13	3.8725e-06	3.0909e-06	238.92	106.83	51.04	25.695	5.3701e-06	57.615	0.0037881	0.005638	0.0015886	284.31	5.7488e-05	6.3046e-05	529.03	116.25	5.8054e-05	6.2613e-05	243.85	107.86	53.411	26.404	5.9338e-05	57.747	194.253	147.196	433.579	91.949	228.888	160.374	90.404	97.038	347.468	398.631	95.525	99.012	101.346	105.184	173.588	102.417	-8191	255	
1376.770	1	1	0	0	0.028765	0.23925	0.12143	0.15253	0.30136	0.053227	0.13185	0.19558	0.12596	0.33185	0.18203	0.35821	0.22909	0.071875	0.030336	0.092785	-1.9771	-1.7375	-2.2125	-2.2771	-1.5271	-2.4042	-2.1771	-1.7188	-2.4167	-1.6417	-2.0896	-2.3146	-1.5542	-2.5354	-2.0125	-1.7479	116.400	291.354	96.494	301.512	224.161	275.161	337.054	275.588	250.355	122.983	370.389	378.087	427.520	315.842	153.777	311.116	0.00046824	0.00064013	0.00033385	268.21	3.3327e-06	4.1786e-06	526.88	112.1	2.2962e-06	1.0123e-05	240.27	106.98	51.221	25.937	8.1543e-06	57.985	0.0038342	0.0055881	0.0015721	284.78	5.8032e-05	6.3033e-05	529.26	116.59	5.7587e-05	6.33e-05	245	108.28	53.748	26.766	6.0604e-05	58.035	180.026	92.012	138.513	91.553	208.342	324.033	90.817	96.479	231.047	303.495	94.846	98.695	101.001	104.695	307.030	102.459	-8191	255	
1376.842	1	1	0	0	0.30914	0.27158	0.1031	0.15942	0.17086	0.27465	0.25195	0.14206	0.094237	0.17287	0.077293	0.064402	0.19795	0.073159	0.34675	0.30803	-2.175	-1.6167	-1.9875	-2.2	-1.5	-2.1917	-2.0812	-1.6292	-2.55	-1.6792	-1.9062	-2.5104	-1.4354	-2.3125	-2.1167	-1.7458	419.885	163.072	340.570	347.294	133.082	399.950	103.418	368.371	97.556	276.272	425.579	124.067	166.843	152.111	276.485	390.024	0.00049514	0.00062386	7.2951e-05	267.96	8.1332e-06	2.9308e-06	525.95	112.87	1.9397e-06	5.4315e-06	239.79	106.35	51.062	25.735	4.49e-06	57.938	0.0038548	0.0057202	0.0016127	285.41	6.011e-05	6.3816e-05	528.71	116.94	5.863e-05	6.3954e-05	244.3	107.75	53.681	26.604	5.9305e-05	57.788	193.087	248.943	296.022	91.915	196.216	135.636	91.045	97.065	376.264	239.350	95.069	98.997	100.803	105.030	417.190	102.145	-8191	255	
1376.938	1	1	0	0	0.12456	0.38027	0.007372	0.10011	0.2451	0.081283	0.23191	0.12638	0.1836	0.14274	0.22957	0.025244	0.28835	0.20697	0.19719	0.14888	-1.9562	-1.7125	-1.7333	-2.5229	-1.7292	-1.9937	-2.2438	-1.6313	-2.4083	-1.8438	-1.6313	-2.4688	-1.8062	-2.0896	-2.2542	-1.6396	350.234	363.568	391.683	380.520	81.142	249.380	376.448	360.910	91.869	421.887	419.155	137.383	146.480	81.623	374.392	91.390	0.0004937	0.00033094	0.00015234	267.91	6.3147e-06	4.0031e-06	526.43	112.99	3.9215e-06	4.1099e-06	240.92	106.87	51.851	25.535	4.2356e-06	57.256	0.0037521	0.0055087	0.0015182	282.42	5.5666e-05	5.9774e-05	526.84	116.39	5.4483e-05	5.8075e-05	243.99	107.31	53.492	26.165	5.3872e-05	56.962	197.972	269.731	243.186	92.301	282.822	323.857	91.045	97.116	162.361	192.967	95.286	99.064	100.817	104.923	173.744	102.469	-8191	255	
1377.058	1	1	0	0	0.20144	0.12923	0.27265	0.10743	0.19544	0.11875	0.19923	0.38875	0.084806	0.11186	0.13864	0.028517	0.21139	0.10367	0.25113	0.13515	-2.025	-1.9292	-1.6521	-2.2417	-1.6083	-2.0208	-2.2875	-1.5104	-2.1792	-1.8208	-1.6042	-2.4271	-1.6625	-1.8563	-2.2417	-1.6208	246.107	314.328	91.958	216.015	325.925	232.769	242.485	335.234	246.891	173.732	142.721	378.754	162.725	380.064	120.303	409.445	0.00038257	0.001223	0.00022003	268.72	2.12e-06	1.2323e-05	527.47	114.06	5.5568e-06	2.0979e-06	243.1	107.16	51.718	25.602	1.6489e-06	57.006	0.0034088	0.0050525	0.0014058	282.03	5.1834e-05	5.6264e-05	525.41	117.03	5.1177e-05	5.6113e-05	245.21	107.27	53.368	26.166	5.388e-05	56.744	196.052	154.364	151.971	92.331	384.821	205.765	91.224	97.491	273.408	139.531	95.691	98.975	100.998	104.905	177.135	102.339	-8191	255	
1377.155	1	1	0	0	0.20373	0.25498	0.31574	0.30472	0.19872	0.17616	0.057736	0.33076	0.20329	0.41305	0.07899	0.20036	0.21529	0.25258	0.0434	0.23401	-1.7979	-2.0208	-1.675	-2.4417	-1.4708	-1.7417	-2.325	-1.6292	-2.1875	-2.0458	-1.6417	-2.4125	-1.8062	-1.6583	-2.4375	-1.8583	434.042	81.104	116.699	281.050	237.493	351.665	411.732	365.033	420.818	153.649	248.203	413.536	324.861	273.426	236.175	105.808	0.0003908	4.3516e-05	0.0001288	270.18	3.4282e-06	5.8517e-06	526.4	113.07	3.1791e-06	4.411e-06	245.79	106.14	51.473	25.179	4.4669e-06	56.801	0.0033646	0.0049457	0.0013793	281.15	5.0794e-05	5.4506e-05	525.09	116.53	5.1147e-05	5.5229e-05	246.84	106.85	53.341	25.86	5.2974e-05	56.303	194.955	229.792	258.903	92.383	140.897	189.830	91.205	97.719	205.977	116.554	95.144	98.869	100.769	104.944	213.844	102.336	-8191	255	
1377.251	1	1	0	0	0.17288	0.055494	0.18675	0.20479	0.1859	0.33258	0.1042	0.20978	0.23588	0.060189	0.050045	0.050903	0.15104	0.27457	0.10148	0.055278	-1.6792	-2.3688	-1.3292	-2.4583	-1.8167	-1.7938	-2.5542	-1.7625	-2.2313	-2.2833	-1.725	-2.3583	-1.7812	-1.675	-2.4667	-1.7687	392.203	300.174	338.896	369.424	413.632	374.203	411.194	357.971	168.395	155.588	123.149	428.385	129.722	177.141	86.675	335.976	0.00049729	0.0008546	0.0001699	268.67	9.8112e-06	3.9319e-06	526.28	113.16	3.7935e-06	1.0326e-05	244.54	106.37	51.733	25.212	4.8647e-06	56.016	0.003342	0.0049627	0.0013815	281.36	5.065e-05	5.4313e-05	524.67	116.76	5.0246e-05	5.4413e-05	245.41	106.7	53.374	25.629	5.212e-05	55.924	191.925	81.229	385.044	92.079	207.210	253.401	90.932	97.084	290.492	298.998	95.242	98.541	100.694	105.241	349.327	102.577	-8191	255	
1377.370	1	1	0	0	0.10036	0.1073	0.099981	0.1691	0.064927	0.21861	0.34211	0.12745	0.014365	0.1303	0.3375	0.041858	0.2997	0.17679	0.10264	0.15216	-1.5812	-2.3063	-1.5646	-2.4	-1.9292	-1.5479	-2.5417	-1.9229	-1.8333	-2.4979	-1.7021	-2.3792	-2.1271	-1.7667	-2.5792	-1.8083	347.768	405.766	126.461	178.863	384.715	405.848	389.594	413.192	262.034	91.544	212.265	200.262	399.212	308.444	178.830	254.987	0.0004244	0.0003814	0.00015572	269.13	4.8294e-06	8.0825e-06	525.17	114.37	1.8439e-06	1.041e-05	243.28	106.75	51.377	25.412	3.6862e-06	56.684	0.0032904	0.0049175	0.001364	280.81	5.0642e-05	5.4745e-05	523.33	117.18	5.091e-05	5.6213e-05	245.08	107.14	53.444	25.902	5.2945e-05	56.31	192.384	146.145	134.533	92.657	139.753	243.747	90.985	96.980	386.696	243.049	95.345	99.000	100.837	104.415	349.849	102.532	-8191	255	
1377.441	1	1	0	0	0.35944	0.17464	0.15167	0.1286	0.16512	0.068978	0.23707	0.12321	0.10431	0.12482	0.14107	0.28681	0.18495	0.036128	0.091844	0.21135	-1.3979	-2.5542	-1.5896	-2.3646	-2.1479	-1.6625	-2.5375	-1.9312	-1.8271	-2.5563	-1.825	-2.2396	-2.1833	-1.675	-2.5396	-2.0667	272.890	372.340	255.961	93.900	266.102	290.073	378.718	93.005	392.936	313.201	309.947	361.654	92.268	309.230	134.992	386.638	0.0004663	0.00016618	0.00014721	270.88	6.6252e-06	2.4399e-06	527.72	114.7	3.2822e-06	6.5021e-06	244.58	107.54	51.336	24.678	7.4804e-06	54.921	0.0033473	0.004912	0.0013943	280.62	5.0597e-05	5.4514e-05	525.62	116.9	4.9821e-05	5.3555e-05	245.9	107.09	53.229	25.168	5.1139e-05	54.721	195.916	356.046	426.326	92.528	303.258	354.454	91.380	96.979	270.306	222.217	95.344	99.075	100.887	105.314	200.887	102.697	-8191	255	
1377.537	1	1	0	0	0.12389	0.21248	0.2434	0.14332	0.28466	0.25662	0.19602	0.030585	0.13939	0.26035	0.21219	0.10184	0.2307	0.30662	0.1398	0.10451	-1.3979	-2.4188	-1.7146	-2.1312	-2.3833	-1.6	-2.4125	-2.0771	-1.6479	-2.4396	-1.7333	-1.9958	-2.4062	-1.6208	-2.4125	-2.1854	140.242	419.510	154.262	305.752	261.939	266.212	168.869	121.465	286.442	274.705	298.808	312.815	390.772	170.523	224.162	437.747	0.00044529	0.00026741	0.00010912	269.13	6.811e-06	4.8787e-06	528.07	112.54	4.6939e-06	9.7584e-06	243.07	104.61	50.675	22.903	2.7569e-06	50.77	0.0032406	0.0048112	0.0013301	280.16	4.9408e-05	5.2321e-05	524.48	115.39	4.7745e-05	5.2791e-05	244.23	104.55	52.281	23.369	4.8315e-05	50.578	186.484	80.939	202.578	92.818	234.033	167.981	90.899	97.346	156.888	243.783	95.255	99.226	100.900	105.400	248.997	102.255	-8191	255	
1377.658	1	1	0	0	0.064338	0.17395	0.44521	0.11662	0.3599	0.1308	0.10769	0.20579	0.17679	0.022464	0.20778	0.061548	0.13448	0.16061	0.088866	0.17572	-1.3271	-2.5062	-1.6187	-1.9708	-2.4875	-1.7437	-2.2125	-2.1625	-1.7604	-2.5	-1.6688	-2.1146	-2.3896	-1.6417	-2.225	-2.2167	293.653	88.683	351.074	339.306	121.487	370.505	300.262	100.506	399.785	412.980	371.732	389.345	378.031	423.604	133.019	228.750	0.00045492	0.00058355	6.4732e-05	266.47	2.4521e-06	4.8283e-06	521.5	109.09	1.1878e-06	9.9186e-06	240.71	102.99	49.668	21.514	9.1038e-06	48.503	0.0030599	0.004504	0.0012501	277.17	4.6489e-05	4.9994e-05	520.29	112.15	4.5956e-05	4.976e-05	241.16	103	51.325	22.006	4.8039e-05	48.475	191.292	288.673	159.329	92.418	227.164	235.462	91.240	96.894	281.001	236.334	95.137	99.355	100.797	105.278	321.204	102.671	-8191	255	
1377.754	1	1	0	0	0.083269	0.23519	0.30813	0.035986	0.35485	0.033184	0.044223	0.16682	0.098457	0.19161	0.072861	0.26356	0.042438	0.47606	0.047915	0.25815	-1.3833	-2.3312	-1.7354	-1.9396	-2.4646	-1.4312	-2.2313	-2.1167	-1.6688	-2.5396	-2.1667	-1.8271	-2.5083	-1.7	-1.9937	-2.3688	290.664	180.198	97.165	159.892	323.837	302.102	415.630	406.709	306.592	185.025	229.926	426.219	142.948	372.436	253.454	314.187	0.00033435	0.00028994	0.00043956	263.31	4.2468e-06	9.0122e-06	521.98	108.5	6.3594e-06	4.9026e-06	238.32	103.36	49.935	21.635	3.2883e-06	48.461	0.003044	0.0045197	0.0012711	273.89	4.6914e-05	5.0832e-05	518.27	111.19	4.7123e-05	5.1699e-05	240.18	102.94	51.363	22.147	5.0863e-05	48.809	181.738	245.991	161.672	93.263	257.532	98.167	91.498	97.696	247.515	208.612	95.287	99.368	100.284	104.854	170.536	102.444	-8191	255	
1377.850	1	1	0	0	0.023508	0.10873	0.068136	0.27307	0.081336	0.16546	0.14233	0.16845	0.23019	0.13802	0.16823	0.0093	0.17631	0.0092964	0.23054	0.23963	-1.275	-2.2833	-1.8583	-1.7	-2.5604	-1.5979	-2.2604	-2.2583	-1.4958	-2.3167	-2.1083	-1.5375	-2.5	-1.7437	-1.8604	-2.4354	354.386	336.303	381.411	398.221	289.876	341.518	384.233	328.405	163.233	252.188	205.633	144.730	78.263	409.149	173.586	417.673	0.00035624	0.00058674	0.00027707	261.5	5.4e-06	4.5178e-06	518.77	107.24	3.6789e-06	1.1761e-05	237.24	102.77	49.858	21.869	1.4334e-05	49.938	0.0032294	0.004853	0.0013689	273.97	5.1062e-05	5.6067e-05	517.86	111.2	5.2393e-05	5.7852e-05	239.95	103.59	51.713	22.663	5.6899e-05	50.053	178.564	352.966	163.419	92.598	276.049	299.063	90.454	96.226	229.440	307.466	94.876	98.504	100.461	104.355	251.235	102.202	-8191	255	
1377.971	1	1	0	0	0.14097	0.15197	0.19118	0.058912	0.095197	0.12102	0.067381	0.078328	0.06436	0.1243	0.15273	0.06116	0.34345	0.039478	0.17064	0.14054	-1.2208	-2.2958	-2.0604	-1.5625	-2.35	-1.85	-1.9542	-2.5062	-1.7458	-2.2687	-2.1917	-1.7417	-2.3208	-1.8771	-1.6375	-2.4938	376.934	357.721	103.725	162.614	372.616	150.063	253.151	292.790	159.378	280.099	92.420	103.959	89.694	369.374	211.650	90.495	0.00040218	0.00036777	0.00010364	256.47	3.8028e-06	6.5834e-06	509.41	106.74	3.8257e-06	1.226e-05	236.1	102.57	50.015	22.537	3.0912e-06	50.604	0.0036013	0.0054725	0.0015408	274.64	5.6496e-05	6.182e-05	514.39	111.63	5.7675e-05	6.2176e-05	238.72	103.51	52.2	23.452	5.9674e-05	51.055	191.587	244.869	198.661	91.553	146.460	234.765	90.920	96.974	410.260	262.851	94.818	98.532	100.840	105.145	370.967	102.256	-8191	255	
1378.043	1	1	0	0	0.26541	0.10529	0.043603	0.10575	0.014293	0.089556	0.26706	0.10527	0.14012	0.04484	0.086828	0.24671	0.25292	0.053185	0.24055	0.11535	-1.1208	-2.125	-2.2208	-1.6354	-2.5833	-2.0271	-1.8646	-2.6104	-1.6521	-2.1625	-2.3271	-1.6938	-2.4479	-2.1208	-1.5771	-2.8396	123.533	398.060	102.745	94.545	160.053	431.371	360.015	421.016	367.475	153.171	361.957	371.887	380.954	337.234	283.459	251.559	0.00039774	0.00075354	7.6748e-05	254.14	6.3894e-06	1.0084e-05	503.75	104.81	6.8842e-06	8.8961e-06	228.08	102.12	49.804	22.9	7.0922e-06	51.387	0.0038151	0.0055985	0.0015918	272.23	5.8547e-05	6.347e-05	506.84	110.56	5.8145e-05	6.2587e-05	235.7	103.3	51.962	23.754	5.8939e-05	51.648	182.441	152.267	87.621	91.937	275.227	320.307	90.709	96.973	193.440	148.121	95.020	99.055	100.313	104.303	280.199	102.064	-8191	255	
1378.139	1	1	0	0	0.21841	0.1076	0.046925	0.18665	0.061269	0.10633	0.049918	0.24817	0.20831	0.17323	0.24459	0.062109	0.24874	0.13995	0.090952	0.31984	-1.4312	-2.0021	-2.3854	-1.5979	-2.3333	-1.9583	-1.8979	-2.5708	-1.9396	-1.9333	-2.4646	-1.6479	-2.5021	-2.1542	-1.5208	-2.6542	204.639	114.612	92.987	416.292	307.758	425.406	381.753	292.014	287.569	200.260	80.542	294.728	425.138	364.447	144.200	123.298	0.0003774	0.00060469	0.00010213	254.17	9.2318e-06	3.1808e-06	496.42	104.76	4.064e-06	8.4064e-06	229.6	102.43	49.069	23.042	4.3022e-06	51.67	0.0036936	0.0054325	0.0015347	269.34	5.5685e-05	6.0194e-05	500.59	109.42	5.5358e-05	5.8813e-05	233.33	102.55	51.466	23.706	5.5079e-05	51.761	194.102	201.217	338.699	91.418	266.475	311.758	90.799	96.990	332.189	141.321	95.165	98.568	100.351	104.776	206.363	102.134	-8191	255	
1378.235	1	1	0	0	0.12385	0.10501	0.11867	0.4126	0.15098	0.11698	0.20893	0.28694	0.295	0.18964	0.12195	0.24531	0.29616	0.19465	0.21572	0.015671	-1.3292	-1.8687	-2.4062	-1.6917	-2.2104	-1.9292	-1.5542	-2.3958	-1.8813	-1.7062	-2.2771	-1.8625	-2.0792	-2.3187	-1.55	-2.4917	244.945	301.722	366.808	389.175	117.010	104.356	153.615	358.862	368.171	277.955	97.350	86.789	166.107	335.397	274.979	348.827	0.00052903	0.00083778	0.00020018	250.1	3.1115e-06	9.1837e-06	500.3	105.87	2.6194e-06	9.7804e-06	229.02	101.32	49.433	23.291	7.1174e-06	52.367	0.0034659	0.00505	0.0014147	265.72	5.1988e-05	5.5464e-05	497.52	108.82	5.105e-05	5.4506e-05	232.62	101.81	50.979	23.955	5.0217e-05	52.344	196.581	171.788	210.824	92.092	257.886	250.970	90.842	96.932	379.302	295.999	94.620	98.708	100.700	104.714	211.908	102.301	-8191	255	
1378.354	1	1	0	0	0.2146	0.12653	0.23977	0.25095	0.10096	0.13428	0.32877	0.24242	0.11498	0.16518	0.15436	0.1601	0.079256	0.26669	0.24532	0.13623	-1.4583	-1.6583	-2.4083	-1.6458	-2.2271	-2.2333	-1.7354	-2.4708	-1.95	-1.7271	-2.6562	-1.8625	-2.075	-2.4062	-1.5979	-2.4583	361.362	426.716	144.317	416.812	131.566	373.215	419.833	360.268	400.848	435.404	384.400	211.012	259.181	400.025	372.386	85.452	0.00039008	0.0009222	0.00017501	247.89	7.0619e-06	7.2862e-06	490.79	105.5	6.9935e-07	6.8181e-06	227.92	100.5	49.238	23.506	2.6176e-06	52.881	0.0031209	0.0045552	0.0012943	260.89	4.633e-05	5.0595e-05	490.62	107.87	4.5632e-05	5.0497e-05	229.74	100.51	50.507	24.112	4.8491e-05	52.653	190.119	145.383	218.067	91.823	194.959	90.826	90.768	96.739	387.445	148.227	94.936	98.529	100.838	104.836	222.758	102.241	-8191	255	
1378.450	1	1	0	0	0.19679	0.12025	0.15217	0.016348	0.089733	0.35819	0.10286	0.18497	0.093349	0.28554	0.32783	0.19828	0.2587	0.14681	0.21943	0.28013	-1.8	-1.4854	-2.5667	-1.825	-1.9021	-2.2833	-1.6083	-2.3979	-2.1292	-1.6896	-2.4771	-1.9833	-1.8937	-2.5375	-1.575	-2.3563	325.631	391.098	189.687	430.342	168.164	285.904	195.949	142.538	211.474	405.324	137.297	105.376	339.444	175.432	365.510	436.206	0.00045747	0.0012275	0.00021136	248.62	4.6746e-06	5.2177e-06	489.79	106.27	6.3725e-06	6.9771e-06	226.79	101.06	48.524	23.944	5.073e-06	54.452	0.0030758	0.0045119	0.0012692	259.72	4.6691e-05	5.1169e-05	486.26	108.48	4.6469e-05	5.0049e-05	229.07	100.47	50.514	24.675	4.8208e-05	53.84	203.974	129.883	151.798	92.083	176.368	427.641	91.296	97.087	191.704	218.175	94.550	98.431	100.227	104.530	265.683	102.017	-8191	255	
1378.546	1	1	0	0	0.42965	0.15342	0.011003	0.31941	0.056556	0.049335	0.19941	0.15605	0.18821	0.12533	0.078868	0.2033	0.10092	0.17522	0.19382	0.17693	-1.6437	-1.5292	-2.325	-1.7833	-1.7313	-2.3688	-1.7667	-2.025	-2.0083	-1.5729	-2.4146	-2.0729	-1.6792	-2.3667	-1.6208	-2.0833	324.836	304.854	213.814	407.264	198.783	186.810	377.414	236.581	389.398	126.824	283.401	192.964	345.020	434.597	104.825	110.742	0.00047001	0.00054932	0.00037512	247.52	7.0613e-06	5.4772e-06	488.19	106.42	3.1125e-06	2.7545e-06	228.28	101.19	49.323	24.581	1.113e-05	55.183	0.0030977	0.0045888	0.0012532	259.36	4.6677e-05	5.0559e-05	486.42	109.23	4.6136e-05	5.0446e-05	230.11	101.48	50.934	25.085	4.8436e-05	54.83	195.153	112.293	192.466	91.398	279.577	185.524	90.707	96.711	301.728	274.849	94.912	98.313	100.761	104.588	265.880	102.139	-8191	255	
1378.642	1	1	0	0	0.045442	0.14503	0.13341	0.07213	0.149	0.086099	0.051292	0.085888	0.13843	0.19814	0.069598	0.0015835	0.059394	0.29995	0.13565	0.46725	-1.9208	-1.5063	-2.4437	-1.8417	-1.6104	-2.3312	-1.7979	-1.8979	-2.4229	-1.4542	-2.2854	-1.9896	-1.6667	-2.4958	-1.7667	-2.0542	242.523	158.367	342.900	189.885	114.150	378.307	317.877	394.108	301.017	320.534	335.363	180.000	374.364	384.118	389.274	358.862	0.00044338	0.00083497	0.0001043	249.31	5.7507e-06	1.0461e-05	488.41	106.76	4.0212e-06	6.1252e-06	228.58	102.49	49.576	24.975	2.9645e-06	55.506	0.0031257	0.0045281	0.00127	261.59	4.6815e-05	5.1087e-05	491.05	109.93	4.7387e-05	5.0805e-05	232.18	102.44	51.262	25.447	4.9952e-05	55.346	183.838	327.524	266.043	92.274	233.834	179.426	91.033	96.808	221.296	167.774	95.114	98.941	101.302	104.665	211.049	101.815	-8191	255	
1378.738	1	1	0	0	0.11236	0.23918	0.14691	0.1733	0.06333	0.48726	0.15729	0.11296	0.2871	0.12561	0.26457	0.21693	0.20872	0.27776	0.14553	0.29067	-1.925	-1.4458	-2.0187	-2.0146	-1.5604	-2.3937	-1.9396	-1.7729	-2.4208	-1.5583	-2.2271	-2.4188	-1.5708	-2.4229	-1.8625	-1.7625	322.919	213.457	411.985	297.914	81.697	116.448	327.169	320.021	355.032	160.937	206.442	403.538	346.013	426.113	423.586	431.642	0.00050796	0.00034331	0.00020037	250.72	2.3544e-06	8.8993e-06	494.56	107.88	3.5105e-06	5.8335e-06	229.15	101.43	49.64	24.896	4.2381e-06	55.38	0.0032081	0.0047906	0.0013372	263.28	4.9673e-05	5.3523e-05	492.07	110.5	4.9399e-05	5.4117e-05	231.63	102.08	51.5	25.478	5.0949e-05	55.15	186.759	373.802	121.233	92.266	159.249	100.518	90.878	97.163	266.090	151.667	95.626	98.898	100.040	104.798	363.547	102.231	-8191	255	
1378.835	1	1	0	0	0.17032	0.12976	0.15624	0.075271	0.13092	0.26618	0.11959	0.15794	0.045212	0.16678	0.068141	0.1425	0.24712	0.072731	0.17465	0.10231	-1.9021	-1.6333	-2.0354	-2.2104	-1.4958	-2.3708	-1.9625	-1.7917	-2.4167	-1.6104	-2.0708	-2.4313	-1.7042	-2.3896	-2.0167	-1.8813	176.633	175.552	121.619	183.411	261.234	192.851	364.690	379.320	380.168	175.519	107.269	394.443	378.976	167.008	190.206	398.048	0.00052253	0.00046984	0.00017947	251.84	8.6382e-06	1.9435e-06	486.66	106.93	2.544e-06	3.0096e-06	226.49	101.15	49.307	24.716	2.1079e-06	55.707	0.0033045	0.0049107	0.0013754	264.2	5.1057e-05	5.5124e-05	490.65	110.19	5.2058e-05	5.6136e-05	231.29	102.2	51.532	25.532	5.4427e-05	55.257	188.111	142.559	109.386	92.660	193.731	119.087	90.498	96.833	317.140	168.106	94.911	98.853	100.747	104.836	245.097	102.393	-8191	255	
1378.931	1	1	0	0	0.041655	0.13696	0.15209	0.1596	0.13364	0.37122	0.079254	0.11892	0.17884	0.15858	0.18002	0.068593	0.10472	0.26359	0.31131	0.17492	-1.9542	-1.8146	-1.8292	-2.3917	-1.5438	-2.2833	-2.1208	-1.7833	-2.5792	-1.7792	-1.7729	-2.5167	-1.3542	-2.4375	-1.9479	-1.8354	88.980	184.928	345.208	308.492	87.826	258.179	83.024	396.061	437.926	419.707	281.192	317.440	361.135	363.141	249.067	413.818	0.00044495	0.00054577	0.00029299	247.79	8.4494e-06	1.0269e-05	490.1	106.19	6.1339e-06	8.0652e-06	226.54	101.77	49.505	25.078	2.225e-06	55.531	0.0034496	0.0051432	0.0014312	264.7	5.3294e-05	5.7941e-05	491.84	110.52	5.313e-05	5.7805e-05	230.92	102.76	51.834	25.764	5.5624e-05	55.578	179.241	196.416	172.176	92.311	219.877	182.508	90.825	96.589	184.858	204.893	94.643	98.565	100.505	104.644	122.905	101.846	-8191	255	
1379.051	1	1	0	0	0.194	0.062941	0.15237	0.1555	0.26608	0.26289	0.084774	0.050697	0.26842	0.26996	0.2041	0.23373	0.31323	0.13566	0.15357	0.053045	-2.1375	-1.7896	-2.025	-2.3563	-1.6479	-2.1292	-2.2854	-1.4625	-2.2646	-1.8208	-1.8375	-2.5375	-1.6	-2.1271	-2.1646	-1.6604	137.229	339.094	350.703	311.678	109.010	407.186	388.881	340.990	184.535	428.360	156.207	96.253	333.899	123.829	228.918	190.756	0.00043692	9.4954e-05	8.3115e-05	251.13	7.2605e-06	1.1817e-05	492.05	106.4	4.3049e-06	7.0733e-06	227.28	102.81	49.66	25.244	9.2039e-06	55.888	0.0034779	0.0051909	0.0014699	266.48	5.4782e-05	5.797e-05	493.85	110.37	5.4292e-05	5.9074e-05	231.33	103.33	51.912	25.774	5.5869e-05	55.793	199.275	350.999	340.853	91.541	310.451	214.587	90.562	96.536	100.696	315.994	94.904	98.361	100.860	104.798	287.257	102.155	-8191	255	
1379.146	1	1	0	0	0.15751	0.13517	0.29603	0.088491	0.24126	0.18159	0.071967	0.089998	0.017227	0.10229	0.14472	0.029453	0.33972	0.066278	0.17133	0.19324	-1.9583	-1.8042	-1.6625	-2.525	-1.7104	-2.0687	-2.4229	-1.9042	-2.3438	-2.1958	-1.7938	-2.6167	-1.6958	-1.8146	-2.1854	-1.7146	302.910	98.946	162.559	431.154	273.689	431.578	198.922	333.962	143.298	185.753	334.393	375.822	80.472	278.830	290.603	138.682	0.00043345	0.00025964	0.0003428	250.92	4.6676e-06	3.1609e-06	490.73	106.96	3.3656e-06	4.9752e-06	225.45	102.19	49.79	24.855	6.874e-06	55.13	0.0035718	0.0053381	0.0014687	266.82	5.4076e-05	5.8228e-05	492.22	110.06	5.3151e-05	5.7875e-05	230.03	102.99	51.97	25.658	5.5248e-05	55.334	191.720	347.140	93.252	92.464	342.928	157.073	90.880	96.703	158.014	180.535	94.570	98.736	100.213	104.477	306.614	101.868	-8191	255	
1379.242	1	1	0	0	0.15747	0.043451	0.2437	0.14835	0.088763	0.0577	0.17793	0.1447	0.17508	0.2826	0.22995	0.082796	0.1924	0.17287	0.11676	0.41075	-2.0875	-2.2354	-1.4208	-2.5292	-1.8229	-1.9042	-2.4146	-1.6	-2.3167	-2.25	-1.7458	-2.5604	-1.8354	-1.9708	-2.725	-1.6875	358.651	386.943	173.932	247.199	178.445	79.338	166.773	103.223	170.071	316.904	413.853	263.030	326.528	414.352	195.327	381.533	0.00051699	0.0012106	7.6385e-05	250.99	3.1313e-06	3.9746e-06	484.03	105.06	1.8271e-06	4.5409e-07	223.65	101.84	49.834	24.954	4.8248e-06	55.411	0.0034847	0.00518	0.001452	265.47	5.3702e-05	5.6645e-05	489.66	109.15	5.2041e-05	5.741e-05	228.83	102.84	51.882	25.801	5.3967e-05	55.5	182.278	200.759	234.006	92.212	137.714	296.210	90.691	96.493	150.847	403.614	94.490	98.674	100.698	104.745	325.698	102.044	-8191	255	
1379.340	1	1	0	0	0.43018	0.049883	0.12876	0.21193	0.10364	0.092112	0.34933	0.10795	0.24183	0.16182	0.15581	0.092229	0.27526	0.31561	0.070631	0.2592	-1.8979	-2.2333	-1.5917	-2.4604	-1.9208	-1.7437	-2.5187	-1.75	-2.0125	-2.3396	-1.7208	-2.5521	-1.9958	-1.7542	-2.375	-1.8458	258.925	261.794	278.140	80.555	124.332	360.044	391.086	379.880	94.638	349.360	89.396	389.734	356.437	107.216	385.457	376.622	0.00051421	0.00034875	0.00022673	250.53	7.1536e-06	1.0268e-05	488.95	104.79	2.6798e-06	1.0051e-05	224.81	102.87	49.872	25.127	3.3809e-06	55.519	0.0034178	0.0050352	0.0014211	264.97	5.2625e-05	5.6525e-05	490.79	109.03	5.1707e-05	5.6479e-05	229.48	103.53	51.908	25.715	5.3697e-05	55.629	198.194	420.133	201.714	91.688	241.118	214.695	90.739	96.603	242.902	230.317	95.008	98.646	100.247	104.569	402.746	102.132	-8191	255	
1379.434	1	1	0	0	0.15729	0.32947	0.19055	0.087659	0.19833	0.17042	0.37421	0.073534	0.11833	0.056984	0.11025	0.17555	0.13436	0.17424	0.19015	0.11533	-1.7167	-2.45	-1.6833	-2.3896	-2.2188	-1.7062	-2.5479	-1.5688	-1.8937	-2.3708	-1.5979	-2.4958	-2.1854	-1.8312	-2.5062	-2.0625	164.841	177.675	95.374	371.590	194.235	326.801	128.040	306.739	258.298	301.305	163.051	383.858	220.917	431.009	432.140	408.106	0.00044176	0.00073422	0.00012849	253.65	6.0792e-07	5.9923e-06	491.66	105.96	6.0073e-06	7.8287e-06	227.57	102.87	49.616	25.254	2.8913e-06	55.332	0.0034137	0.0051405	0.0014333	266.18	5.3174e-05	5.7391e-05	492.23	109.47	5.2171e-05	5.8075e-05	230.1	103.41	51.77	25.793	5.5021e-05	55.424	187.221	229.592	93.413	91.565	334.611	144.977	90.696	96.872	211.086	264.970	94.610	98.391	100.339	104.543	197.484	102.000	-8191	255	
1379.530	1	1	0	0	0.20689	0.15849	0.17484	0.139	0.048868	0.22162	0.20126	0.13022	0.11832	0.13307	0.079805	0.13197	0.1364	0.13998	0.1505	0.26805	-1.4792	-2.3708	-1.5354	-2.2354	-2.3229	-1.6229	-2.5083	-1.8833	-1.7958	-2.5062	-1.7333	-2.1833	-2.3063	-1.7687	-2.5333	-1.8729	297.936	228.850	203.332	98.442	99.912	271.857	293.380	146.242	293.658	416.415	126.802	387.174	142.904	212.724	297.024	380.783	0.00049857	0.00064435	7.9017e-06	247.67	4.1534e-06	4.4376e-06	487.63	106.11	1.0475e-06	5.1523e-06	223.48	101.87	50.03	24.717	4.2502e-06	55.289	0.0034634	0.0051522	0.0014509	266.94	5.427e-05	5.7667e-05	490.74	109.48	5.3578e-05	5.8539e-05	228.08	102.59	51.798	25.687	5.6399e-05	55.237	200.716	168.355	118.693	92.157	316.637	263.523	90.507	96.611	284.682	167.608	94.884	98.455	100.031	104.582	294.515	101.838	-8191	255	
1379.627	1	1	0	0	0.17097	0.17509	0.12594	0.031751	0.25638	0.19899	0.057929	0.3968	0.10729	0.23395	0.12912	0.24847	0.32557	0.041734	0.056307	0.11098	-1.4708	-2.4667	-1.6833	-2.2896	-2.5812	-1.5146	-2.6375	-2.0167	-1.6354	-2.4313	-1.8396	-2.1521	-2.5125	-1.7021	-2.2208	-2.2542	205.699	169.698	332.177	267.404	219.947	84.182	319.435	185.145	393.311	259.723	318.576	415.417	189.772	379.772	199.198	106.904	0.00047698	0.00041155	0.00011147	251.39	6.1139e-06	1.6925e-06	486.84	104.15	5.8623e-06	7.3177e-06	222.64	102.34	49.537	25.324	2.6207e-06	55.455	0.0035298	0.0053477	0.0014972	266.74	5.5296e-05	5.9159e-05	492.25	109.07	5.4982e-05	6.0198e-05	228.8	103.1	51.906	25.989	5.7223e-05	55.626	185.665	101.778	432.076	91.530	187.496	198.198	90.640	96.591	193.350	187.176	94.877	98.104	100.827	104.112	191.245	101.810	-8191	255	
1379.747	1	1	0	0	0.33162	0.25554	0.13533	0.18782	0.15874	0.15535	0.27894	0.23959	0.025364	0.13967	0.20857	0.21382	0.16456	0.033399	0.080833	0.41975	-1.3875	-2.4479	-1.9542	-1.8375	-2.2708	-1.6146	-2.3146	-2.2208	-1.725	-2.4396	-1.9438	-2.0521	-2.3208	-1.6479	-2.1354	-2.35	311.317	434.061	102.309	431.897	367.708	170.206	290.328	401.441	309.034	325.878	407.956	398.159	145.840	132.184	316.480	382.584	0.00043573	0.00091663	0.00026409	253.4	5.5363e-06	1.0248e-05	491.76	105.4	5.614e-06	6.3343e-06	224.65	103.66	50.306	25.217	2.5813e-06	56.126	0.0035972	0.0054165	0.0015169	270.4	5.6211e-05	6.0509e-05	496.05	109.98	5.5802e-05	6.0669e-05	230.65	104.36	52.402	26.037	5.8704e-05	56.233	178.951	170.081	186.735	91.190	245.325	166.122	90.594	96.582	201.769	301.847	94.570	98.435	100.442	104.575	116.353	101.885	-8191	255	
1379.843	1	1	0	0	0.073736	0.10258	0.12939	0.22672	0.08493	0.24099	0.17274	0.34025	0.1445	0.15449	0.073549	0.2164	0.27293	0.18345	0.25752	0.30258	-1.3229	-2.3729	-2.0687	-1.8208	-2.5312	-1.6625	-2.2333	-2.3646	-1.5562	-2.3854	-1.9771	-1.7667	-2.7458	-1.7625	-1.9188	-2.5979	291.495	348.041	185.827	81.774	381.096	110.106	302.495	411.360	245.404	168.309	105.285	86.719	343.271	294.957	365.034	149.734	0.00045351	0.00071151	4.0656e-05	257.68	1.0625e-05	6.5905e-06	499.22	105.71	4.2367e-06	7.8095e-06	227.94	103.75	50.098	25.121	3.5165e-06	55.778	0.0037146	0.0055621	0.0015615	272.65	5.6368e-05	6.1205e-05	501.82	110.89	5.7027e-05	6.1533e-05	233.05	104.46	52.586	26.028	5.774e-05	56.057	191.436	99.443	103.484	91.804	191.882	209.200	90.923	96.749	231.834	219.866	94.994	98.582	100.361	104.281	147.286	101.742	-8191	255	
1379.939	1	1	0	0	0.065618	0.2135	0.014917	0.32853	0.038551	0.12235	0.13719	0.12541	0.17363	0.032411	0.26618	0.15349	0.086688	0.26952	0.1145	0.37604	-1.2271	-2.5229	-1.7687	-1.6542	-2.5604	-1.8271	-2.1229	-2.3292	-1.5042	-2.4458	-2.2687	-1.9125	-2.3688	-1.8083	-1.9854	-2.4062	244.970	137.433	367.436	181.462	106.591	324.846	332.460	253.704	266.560	228.982	137.160	305.305	212.337	355.172	298.151	424.491	0.00054632	0.00053997	0.00031393	257.95	1.0168e-05	9.3829e-06	496.74	107.42	3.5729e-06	1.1857e-05	228.01	103.17	50.575	24.99	1.8777e-06	55.263	0.003697	0.005426	0.0015497	274.07	5.7256e-05	6.148e-05	503.02	111.6	5.6685e-05	6.1089e-05	232.15	104.25	52.578	25.894	5.7644e-05	55.558	189.096	290.006	189.971	91.546	236.717	173.124	90.478	96.568	314.500	143.938	94.763	98.563	100.415	104.246	181.115	101.433	-8191	255	
1380.011	1	1	0	0	0.16664	0.20135	0.2075	0.13655	0.067168	0.24452	0.12978	0.12423	0.18962	0.24536	0.10384	0.024942	0.036533	0.27163	0.040405	0.095846	-1.1771	-2.1979	-2.1188	-1.6146	-2.4125	-1.7583	-2.1333	-2.5333	-1.5125	-2.0438	-2.3771	-1.6896	-2.4458	-1.8937	-1.8875	-2.5146	263.442	387.920	215.263	327.254	242.495	428.922	287.188	177.953	92.287	216.951	261.108	198.275	389.869	403.945	404.795	315.767	0.00045751	0.00041574	0.00029302	256.15	6.7904e-06	2.6591e-06	496.75	108.72	4.0764e-06	8.2348e-06	226.44	103.11	50.113	24.847	3.2228e-06	55.112	0.0036806	0.0055129	0.0015181	273.61	5.6183e-05	6.1438e-05	502.53	112.39	5.546e-05	5.9808e-05	232.67	103.64	52.427	25.505	5.6598e-05	55.16	195.530	395.421	178.200	91.788	191.007	301.127	90.511	96.110	294.532	149.830	94.322	98.396	100.303	104.396	363.475	101.534	-8191	255	
1380.132	1	1	0	0	0.079952	0.18331	0.12318	0.16787	0.1717	0.4486	0.20052	0.14566	0.11278	0.1882	0.048076	0.25109	0.36979	0.086382	0.051668	0.45587	-1.2375	-2.0771	-2.4604	-1.6292	-2.425	-2.0875	-1.6167	-2.5667	-1.5021	-2.05	-2.2271	-1.6458	-2.3708	-2.0521	-1.7188	-2.5104	273.232	104.759	329.094	221.362	81.021	246.715	394.282	313.267	346.923	334.483	122.788	272.136	370.840	324.973	368.878	351.871	0.00043734	0.00040607	0.00015691	257.81	1.936e-06	1.2432e-05	499.83	108.9	3.3228e-06	5.4272e-06	229.81	102.69	50.483	24.727	1.9126e-06	54.878	0.0036646	0.0053179	0.0014889	274.17	5.5121e-05	5.9681e-05	504.27	112.89	5.5464e-05	5.8917e-05	234.72	103.83	52.468	25.432	5.597e-05	54.88	179.447	167.291	91.870	91.653	330.898	158.511	90.093	96.584	283.550	136.656	94.433	98.159	100.514	104.150	238.280	101.842	-8191	255	
1380.228	1	1	0	0	0.24821	0.10231	0.1924	0.19835	0.12922	0.19889	0.36841	0.145	0.19851	0.32984	0.30913	0.19022	0.16549	0.13976	0.084299	0.14945	-1.3083	-1.7271	-2.3021	-1.5958	-2.3937	-2.1562	-1.6271	-2.3	-1.6833	-1.9229	-2.3958	-1.7	-2.2417	-2.1708	-1.8167	-2.6792	391.762	165.764	81.657	276.450	226.299	100.729	305.003	90.429	90.631	259.793	338.854	334.205	226.735	220.889	437.668	362.672	0.00040726	0.00038935	0.00015898	259.64	4.3857e-06	4.2782e-06	503.25	109.54	3.5099e-06	5.1824e-06	230.71	102.65	50.054	24.629	2.0025e-06	54.502	0.0035806	0.0053469	0.001503	274.68	5.437e-05	5.9391e-05	505.6	113.51	5.5399e-05	5.9829e-05	235.17	104.05	52.443	25.45	5.7649e-05	54.618	191.703	166.501	153.080	92.258	356.659	220.233	90.148	96.517	257.915	264.751	94.553	98.458	100.107	104.568	264.765	101.698	-8191	255	
1380.322	1	1	0	0	0.33512	0.093645	0.35117	0.05964	0.12301	0.080885	0.21902	0.18636	0.1516	0.22311	0.19703	0.12267	0.11309	0.096234	0.20671	0.12077	-1.4958	-1.8083	-2.4625	-1.5958	-2.1958	-2.1958	-1.5938	-2.6375	-1.8188	-1.9667	-2.6813	-1.6	-2.1604	-2.225	-1.425	-2.3854	291.446	160.621	139.235	115.130	143.419	109.947	93.548	285.744	255.490	134.425	409.468	125.404	181.307	208.330	272.905	279.750	0.00044676	0.00073401	0.00016326	261.09	4.6043e-06	3.9136e-06	503.46	109.76	5.97e-06	2.6439e-07	232.28	102.26	50.352	24.618	4.8376e-06	54.675	0.0036437	0.0053975	0.0015135	276.01	5.6318e-05	6.1223e-05	506.92	113.52	5.6349e-05	6.1548e-05	234.98	103.67	52.724	25.505	5.8653e-05	54.804	184.533	348.685	125.879	91.230	225.976	368.189	90.366	96.874	278.240	413.799	94.630	98.590	100.791	104.363	229.544	101.657	-8191	255	
1380.420	1	1	0	0	0.27877	0.1023	0.20935	0.022341	0.12689	0.14666	0.34303	0.060646	0.10675	0.10575	0.057751	0.024707	0.014796	0.13331	0.24016	0.14407	-1.4708	-1.6417	-2.4	-1.6625	-1.9438	-2.1896	-1.5063	-2.2375	-2.125	-1.6562	-2.4188	-1.7729	-2.1562	-2.4146	-1.6896	-2.4521	364.706	258.663	182.451	336.551	213.498	381.046	91.916	306.032	350.003	130.610	135.626	365.115	105.737	429.219	223.956	212.615	0.00049914	0.00027449	0.00021428	257.22	7.363e-06	1.1032e-05	505.56	109.04	6.5673e-06	4.4394e-06	230.14	102.78	50.4	24.784	1.0789e-05	55.028	0.0037262	0.0055289	0.0015332	277.13	5.7267e-05	6.2712e-05	508.84	113.82	5.7605e-05	6.2438e-05	235.27	104.17	52.978	25.697	6.0424e-05	55.161	182.354	210.922	174.321	91.120	129.976	236.285	90.560	96.276	249.820	199.764	94.651	98.183	100.386	104.155	223.803	101.649	-8191	255	
1380.539	1	1	0	0	0.10279	0.39504	0.14956	0.29621	0.15299	0.093339	0.33692	0.2245	0.16904	0.26324	0.19178	0.17209	0.070674	0.059834	0.076868	0.15941	-1.8125	-1.4542	-2.2854	-1.6271	-1.9271	-2.4333	-1.6313	-2.1417	-2.1792	-1.5	-2.4708	-1.8958	-1.8208	-2.3937	-1.5604	-2.2104	196.832	324.271	137.868	434.172	186.257	139.411	340.525	382.578	212.159	85.376	275.973	312.030	157.737	100.560	337.469	334.185	0.00045207	0.00034099	9.703e-05	262.07	3.3078e-06	1.1495e-05	505.75	109.91	8.989e-07	2.1217e-06	232.17	104.47	50.806	25.139	6.4216e-06	55.557	0.0038181	0.0056622	0.0015871	278.35	5.8851e-05	6.3183e-05	510.02	114.54	5.916e-05	6.3987e-05	237.46	105.51	53.288	25.966	6.2361e-05	55.879	191.171	188.691	391.557	91.796	183.410	179.072	90.433	96.354	370.306	118.643	94.784	98.320	100.906	104.126	216.940	101.984	-8191	255	
1380.611	1	1	0	0	0.16699	0.40775	0.40796	0.36661	0.18924	0.14066	0.10659	0.092355	0.15587	0.22663	0.23144	0.17191	0.15534	0.082413	0.20799	0.10194	-1.7812	-1.3917	-2.3521	-1.8646	-1.7687	-2.4437	-1.8563	-2.3542	-2.2146	-1.5792	-2.3854	-2.0854	-1.6833	-2.6521	-1.6104	-2.0604	257.140	227.308	290.519	241.949	395.447	125.666	438.180	356.486	393.333	426.098	350.337	343.552	374.867	428.672	189.005	421.413	0.00046027	0.00056486	7.2631e-05	259.94	7.9681e-06	6.6046e-06	504.78	109.47	9.1871e-06	1.0181e-05	230.49	104.06	51.19	25.116	1.0099e-05	55.41	0.00392	0.0058051	0.0016136	281.34	6.0512e-05	6.5615e-05	512.79	114.84	6.0892e-05	6.6379e-05	236.93	105.52	53.67	25.957	6.3616e-05	55.749	184.892	150.398	367.678	91.452	231.001	383.795	90.539	96.485	212.693	237.754	94.977	98.261	101.157	104.356	160.158	101.771	-8191	255	
1380.731	1	1	0	0	0.11474	0.12553	0.44382	0.075938	0.083018	0.26223	0.19407	0.18007	0.12485	0.16427	0.067875	0.15607	0.3884	0.36189	0.16164	0.24702	-1.8646	-1.5625	-2.4062	-1.9833	-1.4271	-2.3896	-1.7687	-1.9458	-2.3854	-1.5312	-2.3625	-2.2438	-1.5562	-2.3792	-1.8813	-1.9271	119.144	138.020	409.901	426.541	328.893	133.263	435.445	341.118	105.224	81.557	326.577	84.413	397.967	84.026	417.612	363.740	0.00049691	0.0004729	0.00019699	262.86	4.3591e-06	4.1392e-06	507.08	108.31	6.4024e-06	6.7272e-06	231.18	103.98	50.969	25.133	9.2387e-07	55.296	0.003979	0.0060116	0.001646	281.36	6.1776e-05	6.6221e-05	511.79	114.42	6.1131e-05	6.7253e-05	236.64	105.61	53.571	26.171	6.3412e-05	55.885	184.953	203.961	248.956	91.661	276.013	199.509	90.611	96.310	216.940	265.076	94.600	98.265	100.358	104.744	162.602	101.885	-8191	255	
1380.828	1	1	0	0	0.017402	0.21324	0.13179	0.18455	0.23896	0.23765	0.11528	0.165	0.12466	0.23528	0.28201	0.28621	0.33514	0.12746	0.19441	0.26654	-1.9	-1.6229	-2.2396	-2.2042	-1.4458	-2.5167	-2.1813	-1.7563	-2.5083	-1.8875	-2.2562	-2.4208	-1.6042	-2.3812	-1.9271	-1.875	79.269	121.768	372.239	362.152	299.149	81.288	425.609	293.225	255.171	301.053	335.118	87.386	334.440	421.008	287.853	185.070	0.0004765	0.00071693	0.00031123	262.37	6.5436e-06	6.8034e-06	506.91	110.03	6.5862e-06	5.24e-06	230.79	103.78	51.072	25.315	2.8854e-06	55.922	0.0039784	0.0059965	0.0016529	282.08	6.1739e-05	6.6487e-05	513.05	115.16	6.1792e-05	6.7748e-05	237.83	105.88	53.888	26.23	6.3645e-05	56.259	193.009	129.737	115.431	91.549	148.964	169.529	90.517	96.927	225.610	299.062	95.071	98.716	100.005	104.171	390.985	101.920	-8191	255	
1380.924	1	1	0	0	0.1459	0.1229	0.09855	0.066459	0.18459	0.28377	0.07315	0.03881	0.22208	0.19775	0.40519	0.25591	0.14227	0.17572	0.052921	0.19209	-2.2	-1.625	-1.8833	-2.3417	-1.6625	-2.5542	-2.0271	-1.7458	-2.4417	-1.7208	-2.0812	-2.3625	-1.3479	-2.3021	-2.0604	-1.8062	309.132	288.473	247.032	111.533	104.184	277.381	380.459	217.477	429.064	187.471	374.690	415.848	354.645	410.644	391.793	85.777	0.00045808	0.00088139	0.00014573	265.57	4.2363e-06	1.6924e-05	508.48	110.62	2.8757e-06	3.8139e-06	232.21	105.9	51.798	25.539	6.2072e-06	56.093	0.0039747	0.0060062	0.0016784	284.06	6.2524e-05	6.6727e-05	516.63	115.63	6.1917e-05	6.8274e-05	239.86	107.43	54.351	26.502	6.5286e-05	56.801	204.526	218.646	388.553	91.435	230.000	219.438	90.377	96.990	116.341	262.754	94.945	98.671	100.963	104.624	269.826	101.870	-8191	255	
1381.020	1	1	0	0	0.098053	0.16442	0.15118	0.11504	0.39263	0.065231	0.26784	0.38345	0.28416	0.20447	0.34867	0.1489	0.087801	0.085201	0.24018	0.19078	-2.0375	-1.9917	-2.0917	-2.2125	-1.4958	-2.0792	-2.0333	-1.7646	-2.3833	-1.8104	-2.2646	-2.5417	-1.5354	-2.2771	-2.2333	-1.6875	284.674	278.889	395.654	384.489	270.105	428.301	91.774	114.089	338.007	282.815	338.982	192.537	88.170	350.143	99.430	353.965	0.00049894	0.00017266	1.4797e-05	263.73	5.7532e-06	7.591e-06	509.88	110.44	2.2136e-06	7.6959e-06	230.81	104.9	52.085	25.801	1.8735e-06	56.512	0.0041118	0.0062097	0.0017008	284	6.4027e-05	6.815e-05	517.87	116.2	6.2817e-05	6.9378e-05	239.3	106.97	54.497	26.698	6.6235e-05	57.006	188.758	421.304	358.120	91.400	251.698	232.464	90.611	96.668	114.663	326.248	94.413	98.352	100.646	104.168	217.329	101.912	-8191	255	
1381.140	1	1	0	0	0.15627	0.22031	0.026999	0.25394	0.19515	0.12332	0.17998	0.038474	0.10524	0.17576	0.19491	0.15353	0.11302	0.075096	0.34303	0.087806	-1.9271	-2.0083	-1.7083	-2.5521	-1.6812	-2.2	-2.1583	-1.7	-2.3917	-2.05	-1.75	-2.4792	-1.7271	-2.2375	-2.225	-1.5688	431.001	378.631	162.164	81.280	374.407	412.358	143.837	376.068	156.782	424.252	126.535	381.680	127.679	347.068	371.699	250.389	0.00047465	0.0015614	0.00035153	265.1	8.218e-06	5.9697e-06	507.74	109.91	4.1366e-06	8.1776e-06	232.78	105.45	51.519	25.784	1.0491e-05	56.759	0.0041823	0.0061879	0.0017454	285.78	6.4377e-05	6.9402e-05	516.53	116.06	6.3966e-05	6.9814e-05	239.44	107.27	54.509	26.891	6.5552e-05	57.235	186.357	176.839	80.192	91.150	148.476	370.590	90.465	96.309	323.856	212.433	94.819	98.450	100.188	104.343	158.793	101.895	-8191	255	
1381.212	1	1	0	0	0.057254	0.15413	0.18644	0.35045	0.25616	0.14338	0.24935	0.06828	0.23986	0.2804	0.28412	0.15846	0.078037	0.15815	0.092476	0.13025	-1.9229	-1.9333	-1.6792	-2.5396	-1.8188	-1.9917	-2.375	-1.5667	-2.2875	-2.2333	-1.8312	-2.5292	-1.7292	-1.8188	-2.5333	-1.7625	415.150	121.103	300.071	318.515	391.273	274.656	248.953	85.995	400.160	163.692	364.203	87.005	251.594	122.783	309.213	105.259	0.00046694	0.00031987	0.00026995	265.54	6.9094e-06	7.9177e-06	513.18	110.56	6.1715e-06	7.2385e-06	233.72	107	51.912	26.327	7.3903e-06	57.658	0.0040788	0.0061161	0.001712	285.03	6.2706e-05	6.8035e-05	517.07	116.03	6.1172e-05	6.7257e-05	239.22	107.93	54.64	27.156	5.9798e-05	57.722	180.433	202.478	105.591	91.399	212.806	291.476	90.301	96.591	277.124	257.510	94.656	98.301	100.450	104.212	219.331	101.821	-8191	255	
1381.308	1	1	0	0	0.06049	0.19126	0.26148	0.22417	0.31433	0.16726	0.22003	0.17462	0.16659	0.21592	0.2286	0.23906	0.12894	0.26102	0.14469	0.048269	-1.8875	-2.1375	-1.6667	-2.5479	-1.9458	-1.9438	-2.4604	-1.6083	-2.0667	-2.25	-1.5958	-2.5854	-2.0417	-1.7062	-2.4625	-1.8646	115.921	375.189	428.000	402.240	111.030	290.521	109.413	368.167	211.363	121.983	125.736	375.144	80.450	137.914	258.725	265.550	0.00043855	0.00055419	9.1409e-05	263.42	3.8059e-06	3.4426e-06	515.3	110	3.7194e-06	1.246e-06	232.48	107.83	52.553	26.765	2.0617e-06	58.192	0.0035948	0.0052582	0.0014654	278.74	5.1149e-05	5.386e-05	511.42	113.84	4.8407e-05	5.2846e-05	236.6	107.79	54.04	27.079	4.9446e-05	58.088	186.741	179.301	170.041	91.790	195.392	345.664	90.692	96.432	246.526	336.408	94.859	98.590	100.194	104.416	190.896	102.064	-8191	255	
1381.427	1	1	0	0	0.058839	0.21426	0.16886	0.32141	0.23924	0.13872	0.15246	0.22927	0.11272	0.22776	0.24833	0.15661	0.19195	0.2359	0.066884	0.15176	-1.7396	-2.2229	-1.3479	-2.3208	-1.9438	-1.6812	-2.5146	-1.7604	-2.0333	-2.25	-1.7333	-2.4104	-2.1896	-1.6375	-2.3083	-1.8062	149.313	144.936	428.985	209.424	79.363	308.853	94.251	367.284	254.288	161.614	362.447	423.874	398.912	388.178	148.968	418.856	0.00044723	0.0011327	0.00025576	263.51	6.2924e-06	5.9038e-06	511.84	110.58	5.0723e-06	5.9894e-06	233.64	107.77	53.092	26.879	7.7322e-06	58.543	0.0031367	0.0046628	0.0013061	276	4.7608e-05	5.134e-05	510.36	113.81	4.6729e-05	5.1364e-05	236.38	107.96	54.218	27.255	4.8599e-05	58.355	193.235	190.583	161.219	91.416	241.142	231.973	90.006	96.522	266.743	314.149	94.581	98.790	100.693	104.348	212.401	101.792	-8191	255	
1381.523	1	1	0	0	0.22192	0.20247	0.10803	0.29402	0.055951	0.16801	0.023565	0.1043	0.05919	0.14108	0.24834	0.20229	0.20348	0.10406	0.2117	0.24496	-1.6833	-2.4875	-1.5271	-2.3208	-1.9729	-1.8021	-2.525	-1.7625	-2.0729	-2.4521	-1.5396	-2.2438	-2.2146	-1.5771	-2.6979	-2.1458	311.437	214.106	245.322	420.712	88.765	96.928	117.723	147.997	433.270	299.276	417.632	374.631	179.708	171.392	394.621	374.556	0.00051763	0.00099298	0.0003169	269.27	5.0311e-06	1.0336e-05	514.19	111.13	5.5157e-06	1.1507e-05	235.55	108.96	53.012	27.231	8.8998e-06	59.119	0.0031447	0.0046436	0.0013165	280.46	4.8973e-05	5.2618e-05	512.99	114.23	4.8584e-05	5.2948e-05	238.09	108.97	54.773	27.583	4.9514e-05	58.79	197.114	124.484	157.909	91.209	300.792	141.988	90.286	96.483	300.040	181.406	95.025	98.689	100.638	104.433	216.614	101.693	-8191	255	
1381.619	1	1	0	0	0.18586	0.056537	0.23398	0.27571	0.13652	0.123	0.019516	0.10848	0.17283	0.061178	0.10832	0.13534	0.32102	0.35024	0.086887	0.20057	-1.4292	-2.4125	-1.5375	-2.2042	-2.1604	-1.6229	-2.4354	-1.875	-1.7625	-2.25	-1.5063	-2.0604	-2.1063	-1.5354	-2.3229	-2.1729	411.558	168.619	259.422	425.139	314.720	144.641	419.723	383.831	220.294	287.228	155.139	408.089	115.588	403.130	114.990	418.864	0.00043733	0.00083838	8.4079e-05	269.87	8.5942e-06	9.4999e-06	513.83	111.58	4.6853e-06	7.1683e-06	235.85	109.48	53.581	27.361	2.7821e-06	60.007	0.0031577	0.004554	0.0012703	280.06	4.5988e-05	5.0244e-05	512.16	113.97	4.488e-05	4.7772e-05	237.2	109.03	54.695	27.735	4.3995e-05	59.38	192.298	178.526	156.825	91.500	232.020	234.715	90.163	95.963	294.275	186.757	94.604	98.560	100.597	104.296	246.574	102.134	-8191	255	
1381.716	1	1	0	0	0.23127	0.20684	0.045799	0.14467	0.13198	0.22715	0.079553	0.14399	0.061832	0.24857	0.32447	0.09096	0.086994	0.24605	0.032864	0.1683	-1.3625	-2.5771	-1.5542	-2.1979	-2.3625	-1.5792	-2.4104	-1.9979	-1.8687	-2.6354	-1.7188	-1.9771	-2.5417	-1.6562	-2.3937	-2.2188	368.017	82.336	262.815	406.773	373.098	331.990	126.005	431.061	160.131	278.331	367.164	297.984	151.513	409.431	357.053	366.720	0.0005331	0.00034937	8.3957e-05	267.14	2.5269e-06	1.1452e-05	514.54	110.96	1.6611e-06	9.8921e-06	235.41	110.29	53.523	27.983	4.3607e-06	61.352	0.0028739	0.0041154	0.0011572	276.89	4.1572e-05	4.449e-05	509.09	112.47	4.0365e-05	4.3128e-05	235.3	109.27	54.341	28.077	3.9871e-05	60.432	182.792	228.824	245.861	91.538	203.368	257.348	90.704	96.578	371.977	238.286	94.752	98.969	100.654	104.489	117.961	101.708	-8191	255	
1381.836	1	1	0	0	0.27833	0.051025	0.16985	0.028526	0.23636	0.18014	0.19517	0.19379	0.34767	0.24606	0.2499	0.067887	0.24232	0.13087	0.14548	0.062097	-1.1729	-2.3396	-1.8208	-1.8646	-2.375	-1.4062	-2.0979	-2.2167	-1.3875	-2.3646	-1.9208	-2.0042	-2.6479	-1.7792	-2.2375	-2.3167	99.916	329.649	382.554	372.379	418.339	335.340	358.234	393.737	172.023	356.728	94.479	84.822	119.417	403.653	206.854	96.041	0.00049651	0.00062566	7.3944e-05	266.71	8.8167e-06	1.3095e-06	511.26	111.48	2.1007e-06	5.7132e-07	234	109.81	52.996	28.197	2.8883e-06	61.744	0.0025698	0.0037243	0.001043	273.52	3.7205e-05	4.0796e-05	504.55	112.22	3.727e-05	3.9662e-05	232.95	108.33	53.829	28.266	3.7444e-05	60.598	191.473	173.060	164.240	92.117	290.150	214.267	90.543	96.565	155.852	119.477	94.534	98.694	100.963	104.323	297.639	102.020	-8191	255	
1381.908	1	1	0	0	0.19632	0.18437	0.22561	0.15425	0.33751	0.17353	0.18159	0.27568	0.15718	0.073695	0.19532	0.068958	0.28288	0.12461	0.21029	0.2342	-1.1583	-2.4708	-1.8792	-1.8	-2.5146	-1.5729	-2.1833	-2.3917	-1.6292	-2.5521	-1.9208	-1.9583	-2.525	-1.6333	-1.9604	-2.4562	341.625	259.901	120.880	175.183	94.743	233.841	357.154	415.943	132.698	302.899	166.893	263.239	379.921	105.523	107.278	290.129	0.00049844	0.00067811	0.00016175	269.75	1.0774e-05	7.7205e-06	509.2	110.75	8.2228e-06	2.2012e-06	233.67	107.88	52.373	28.223	8.7609e-06	61.899	0.0024448	0.0034591	0.00096136	271.87	3.5321e-05	3.8355e-05	501.48	111.86	3.5264e-05	3.7428e-05	231.85	106.6	52.979	28.119	3.4705e-05	60.645	198.703	101.301	94.826	91.681	261.581	218.298	90.611	96.558	282.746	397.689	94.683	98.708	100.859	104.319	261.490	101.993	-8191	255	
1382.004	1	1	0	0	0.18813	0.014663	0.2247	0.090322	0.084825	0.33153	0.043716	0.13717	0.23041	0.14682	0.30758	0.058581	0.17045	0.26213	0.2299	0.22723	-1.1938	-2.2229	-1.8729	-1.6292	-2.6083	-1.6708	-2.1104	-2.5917	-1.9625	-2.2479	-2.3667	-1.8	-2.5896	-1.8813	-1.9354	-2.7458	184.930	262.520	207.333	130.158	103.039	323.819	241.849	170.647	251.616	208.412	377.692	392.749	354.525	418.780	367.452	202.121	0.0005151	0.00095218	0.00011886	267.51	4.8291e-06	6.8105e-06	510.77	111.09	5.5707e-06	5.8098e-06	234.46	107.45	52.029	27.854	2.4159e-06	62.294	0.0022987	0.0032143	0.00089575	270.49	3.3063e-05	3.4873e-05	501.17	111.48	3.1973e-05	3.3918e-05	232.04	105.65	52.255	27.928	3.3069e-05	60.905	187.097	178.340	297.892	92.382	287.161	240.830	91.319	96.926	153.854	212.541	94.907	98.717	100.922	104.797	189.025	101.975	-8191	255	
1382.100	1	1	0	0	0.051503	0.12831	0.23431	0.32398	0.31896	0.11817	0.15785	0.14511	0.16642	0.23334	0.31702	0.1831	0.48435	0.24892	0.1698	0.14606	-1.1792	-2.2354	-2.0312	-1.5063	-2.4667	-1.8833	-1.8	-2.4417	-1.7167	-2.0417	-2.2917	-1.5562	-2.5042	-1.9771	-1.9354	-2.6896	353.677	271.873	274.942	395.532	131.786	366.295	371.968	351.913	228.508	203.917	389.170	329.468	406.168	385.534	349.519	325.950	0.0004704	0.00046631	0.00015473	269.81	6.8617e-07	2.1104e-06	514.64	112.67	1.604e-06	9.0169e-06	236.49	108.16	52.096	28.219	4.9998e-06	62.397	0.0021692	0.0030663	0.00085986	271.91	3.2095e-05	3.4511e-05	504.68	112.26	3.1974e-05	3.4502e-05	233.84	106.18	52.21	28.054	3.3038e-05	61.299	190.446	180.605	163.564	91.914	240.001	186.345	90.973	96.842	347.405	221.087	94.995	99.075	100.908	104.776	308.053	102.382	-8191	255	
1382.219	1	1	0	0	0.1421	0.19926	0.17379	0.18678	0.20827	0.17197	0.41706	0.19335	0.20885	0.36964	0.29704	0.14476	0.10491	0.15539	0.25188	0.23195	-1.2812	-2.0354	-2.0646	-1.45	-2.1604	-1.7896	-1.8833	-2.5896	-1.7479	-1.9937	-2.575	-1.8292	-2.3417	-1.9354	-1.8042	-2.7146	376.049	318.124	107.243	299.804	191.538	208.970	417.107	308.327	283.388	172.737	399.418	146.510	407.073	317.082	320.058	369.614	0.00041941	0.00033064	5.3361e-05	268.37	4.3116e-06	1.0593e-05	515.28	112.45	5.3265e-06	5.152e-06	235.79	107.19	52.05	28.247	5.9872e-06	62.311	0.0022184	0.0032167	0.00089505	272.67	3.3035e-05	3.5172e-05	506.76	112.45	3.3165e-05	3.5412e-05	233.26	105.88	52.434	28.223	3.3825e-05	61.128	184.844	294.135	149.350	92.027	247.431	320.165	90.724	97.216	216.466	244.883	94.961	99.185	100.638	104.791	237.251	102.149	-8191	255	
1382.315	1	1	0	0	0.14154	0.25332	0.17404	0.068718	0.29558	0.28328	0.19322	0.29026	0.069952	0.076695	0.12552	0.46495	0.18249	0.18074	0.011335	0.23294	-1.4646	-1.8729	-2.3479	-1.6896	-2.3833	-2.3438	-1.7875	-2.5021	-1.775	-1.8146	-2.3771	-1.4479	-2.3375	-2.3521	-1.6125	-2.7146	197.213	202.880	420.837	434.371	304.110	124.613	86.327	342.136	185.480	417.859	273.190	430.309	417.904	88.050	282.430	218.132	0.00047727	0.00063111	4.9785e-05	270.35	7.5399e-06	3.7074e-06	519.45	111.97	3.1738e-06	2.4878e-06	235.94	107.42	52.49	28.447	5.8522e-06	62.871	0.0022534	0.0032419	0.00088616	273.92	3.3336e-05	3.6245e-05	505.69	112.58	3.2656e-05	3.579e-05	233.59	106.37	53.065	28.398	3.4352e-05	61.488	187.846	406.585	379.249	92.198	278.025	262.025	91.072	96.906	249.621	223.103	95.263	99.047	100.864	104.782	158.724	102.502	-8191	255	
1382.413	1	1	0	0	0.11423	0.12776	0.12875	0.061319	0.24625	0.10164	0.10658	0.28771	0.08456	0.14356	0.25704	0.058451	0.091845	0.053253	0.22648	0.027624	-1.4708	-1.9083	-2.3521	-1.525	-2.0646	-2.3396	-1.7208	-2.4437	-1.8979	-1.8771	-2.4708	-1.7125	-2.2417	-2.4375	-1.5542	-2.4375	117.171	337.793	175.609	405.355	349.546	364.650	324.023	422.786	312.708	280.384	248.405	222.923	350.672	188.545	435.428	266.562	0.00048462	0.00051216	0.0001645	271.01	1.1547e-06	4.8319e-06	514.53	113	2.3907e-06	3.9354e-06	234.56	108.86	52.765	28.565	8.0859e-06	63.425	0.0022479	0.0032079	0.00087884	272.74	3.2864e-05	3.436e-05	505.91	112.87	3.2213e-05	3.5125e-05	233.65	107.28	53.238	28.613	3.4345e-05	62.152	189.179	295.243	188.004	92.204	399.011	255.862	90.821	96.942	286.178	179.117	95.501	98.984	101.229	104.639	226.285	102.366	-8191	255	
1382.508	1	1	0	0	0.44213	0.20589	0.099158	0.27235	0.11454	0.22874	0.074523	0.14842	0.31361	0.15588	0.13405	0.065477	0.11547	0.11916	0.28196	0.30894	-1.6104	-1.6688	-2.4479	-1.8354	-2.1125	-2.35	-1.4854	-2.4625	-2.1688	-1.5667	-2.4521	-1.8208	-1.7812	-2.5604	-1.55	-2.3854	112.913	222.852	269.308	284.971	179.205	118.128	366.583	112.266	376.693	350.501	438.349	90.420	316.920	228.308	214.611	341.353	0.00048901	0.00035197	0.00011297	270.31	1.6309e-06	4.4236e-06	516.37	112.14	6.3659e-06	3.0114e-06	238.27	109.62	53.004	28.867	3.7087e-06	63.505	0.0022162	0.0031559	0.00087401	274.14	3.2835e-05	3.5016e-05	507.44	112.65	3.2502e-05	3.4977e-05	235.23	108.15	53.415	28.774	3.4107e-05	62.134	188.920	185.174	189.087	91.903	304.921	191.107	90.982	96.752	236.656	246.981	95.235	98.926	100.609	104.190	126.225	101.991	-8191	255	
1382.604	1	1	0	0	0.13723	0.27971	0.22383	0.14299	0.07921	0.22034	0.033848	0.18269	0.13958	0.25478	0.087193	0.34543	0.18093	0.21466	0.2156	0.25329	-1.7042	-1.4479	-2.4042	-1.8563	-1.7458	-2.575	-1.8354	-2.4917	-2.3042	-1.5708	-2.5375	-1.8042	-2.1042	-2.7833	-1.5938	-2.3021	213.988	343.427	436.670	324.304	350.986	198.761	304.657	312.453	156.754	339.456	95.194	434.963	125.285	370.634	412.219	308.875	0.00052321	0.00066349	0.00019801	273.58	3.7904e-06	5.6837e-06	515.14	112.68	1.6061e-06	6.2107e-06	237.46	109.98	52.866	28.907	3.2164e-06	63.005	0.0021996	0.0031496	0.00087548	275.06	3.2556e-05	3.4887e-05	506.3	112.97	3.3182e-05	3.5626e-05	235.07	108.11	53.395	28.726	3.3684e-05	61.837	189.810	223.390	93.162	92.073	289.232	121.163	90.622	97.249	250.445	268.333	95.245	99.123	100.926	104.241	173.129	102.049	-8191	255	
1382.700	1	1	0	0	0.087456	0.13784	0.0903	0.055933	0.43221	0.15289	0.28957	0.14644	0.11346	0.15696	0.28369	0.22094	0.12992	0.19335	0.22819	0.078993	-1.9937	-1.3958	-2.3083	-1.9229	-1.7708	-2.5667	-1.5917	-2.0563	-2.3208	-1.6625	-2.5271	-2.1063	-1.7958	-2.5958	-1.4979	-2.0687	164.661	89.854	97.283	121.399	307.539	302.500	393.985	321.697	86.543	287.183	397.470	387.051	374.977	175.737	226.521	342.686	0.00051999	0.00081586	0.00015485	269.49	4.1022e-06	5.1897e-06	515.13	112.73	2.1e-06	2.8712e-06	237.78	109.14	53.377	28.941	6.0088e-06	63.248	0.0022259	0.0032144	0.00088622	273.58	3.2948e-05	3.4939e-05	506.12	112.63	3.2618e-05	3.5242e-05	234.77	107.78	53.527	28.867	3.4361e-05	61.957	184.281	197.484	208.817	91.879	205.553	248.792	90.652	96.938	285.062	273.800	95.189	98.961	101.472	104.584	218.959	102.170	-8191	255	
1382.820	1	1	0	0	0.048276	0.14196	0.079193	0.043224	0.15897	0.087473	0.20354	0.14816	0.13443	0.35498	0.24285	0.14669	0.26592	0.23693	0.18962	0.067839	-1.8937	-1.5521	-2.225	-2.1521	-1.7563	-2.6583	-1.8167	-1.8792	-2.4771	-1.5688	-2.2479	-2.2062	-1.6417	-2.6	-1.9542	-2.0417	160.688	430.740	381.042	369.861	147.965	155.259	409.885	432.418	273.697	345.288	243.525	386.341	369.383	427.793	308.459	205.023	0.00053078	0.00065524	0.00029218	273.23	5.6118e-06	4.0718e-06	517.44	112.73	2.0059e-06	5.0845e-06	238.32	109.83	53.657	28.963	4.6832e-06	63.039	0.0022287	0.0031381	0.00089765	274.94	3.2978e-05	3.5539e-05	507.25	112.81	3.3235e-05	3.5938e-05	235.64	108.42	53.845	28.889	3.4806e-05	62.166	195.405	171.626	150.636	91.944	200.915	302.836	90.724	97.103	254.563	192.602	94.889	99.270	101.294	104.714	210.559	102.280	-8191	255	
1382.917	1	1	0	0	0.25304	0.17852	0.19206	0.058332	0.097829	0.090476	0.1311	0.21279	0.3833	0.16201	0.076924	0.28585	0.11098	0.042352	0.3122	0.15596	-2.1458	-1.5958	-2.2667	-2.3479	-1.7042	-2.4021	-1.8854	-1.8875	-2.5292	-1.5583	-2.2146	-2.275	-1.7333	-2.3792	-1.8042	-1.8708	201.382	145.557	327.633	186.886	178.744	215.616	130.231	348.638	323.628	275.530	96.690	384.338	323.981	105.803	133.953	389.883	0.00049919	0.00052691	0.00016996	270.24	4.3439e-06	8.9026e-06	518.06	112.53	3.1683e-06	5.2577e-06	239.31	110.59	53.863	28.824	2.9392e-06	63.311	0.0022618	0.003193	0.00090229	275.01	3.3579e-05	3.6128e-05	508.64	113.17	3.3466e-05	3.5904e-05	236.5	109.37	54.166	28.798	3.435e-05	62.282	196.050	133.935	97.403	91.964	279.088	244.927	90.673	97.142	393.150	279.590	95.766	99.025	101.253	104.605	178.816	102.274	-8191	255	
1383.013	1	1	0	0	0.29079	0.17252	0.21807	0.073673	0.25171	0.1097	0.17887	0.12029	0.033379	0.17216	0.064908	0.26891	0.29344	0.096358	0.23407	0.13953	-2.0167	-1.7875	-2.0271	-2.325	-1.6479	-2.3833	-2.1312	-1.8271	-2.4542	-1.8458	-2.0521	-2.3708	-1.5417	-2.5646	-2.2125	-1.9167	282.163	147.687	293.190	385.213	342.924	190.042	382.476	334.438	356.704	395.311	418.118	379.638	79.253	417.866	207.548	331.227	0.00058303	0.00010347	8.9815e-05	271.52	2.1607e-06	2.8796e-06	520.17	113.25	3.3584e-06	6.6927e-06	236.22	110.7	53.743	28.916	2.1903e-06	63.27	0.0022646	0.0032969	0.00091372	274.36	3.3856e-05	3.6386e-05	508.56	113.24	3.3505e-05	3.6453e-05	235	109.2	54.093	28.748	3.5296e-05	61.985	185.255	116.641	82.365	91.947	279.215	225.426	91.211	97.025	193.829	180.030	95.575	99.183	100.833	105.000	322.504	102.387	-8191	255	
1383.133	1	1	0	0	0.17487	0.059882	0.07227	0.066332	0.31356	0.24339	0.15463	0.24297	0.055138	0.25234	0.40943	0.13629	0.14412	0.09978	0.22188	0.098479	-2.0563	-1.8104	-1.8479	-2.475	-1.5562	-2.3896	-2.0583	-1.7042	-2.5271	-1.6938	-1.95	-2.7104	-1.7	-2.3333	-2.3812	-1.7292	343.708	164.945	184.983	395.024	208.261	160.082	408.776	348.632	198.923	119.544	361.929	354.261	177.896	133.873	325.555	434.830	0.00056216	0.00040057	0.00026074	272.77	3.3968e-06	7.4395e-06	518.25	112.44	4.7628e-06	6.3248e-06	237.42	110.36	54.17	29.011	3.3194e-06	63.006	0.0023285	0.0033381	0.00092889	275.68	3.3749e-05	3.7373e-05	509.56	113.39	3.4198e-05	3.734e-05	237.17	109.24	54.408	28.905	3.5786e-05	62.208	182.714	417.180	110.523	92.156	203.077	214.812	90.982	96.910	268.309	198.337	95.548	99.276	101.270	104.535	290.062	102.583	-8191	255	
1383.205	1	1	0	0	0.12744	0.22586	0.087672	0.067278	0.1737	0.097671	0.21655	0.24115	0.054158	0.1553	0.19987	0.011275	0.23404	0.1975	0.17373	0.15185	-2.0187	-1.9458	-1.7313	-2.525	-1.5604	-2.1208	-2.2083	-1.6021	-2.4104	-1.9354	-1.8208	-2.6417	-1.8021	-2.1271	-2.2792	-1.7896	204.700	323.973	326.869	196.981	396.218	303.408	102.509	341.078	156.508	198.537	137.922	144.725	405.200	349.780	260.401	85.559	0.00048136	0.00036915	0.00017655	274.43	8.937e-07	9.786e-06	520.22	113.03	2.8064e-06	4.4263e-06	241.92	111.31	54.309	29.021	6.8163e-06	63.745	0.0023839	0.0033466	0.00094309	276.66	3.4762e-05	3.7419e-05	510.66	113.62	3.4411e-05	3.7562e-05	238.65	110.36	54.851	29.037	3.6235e-05	62.674	189.412	120.080	151.536	91.875	202.627	228.332	91.066	97.021	424.993	211.033	94.978	99.257	100.961	105.022	353.615	102.193	-8191	255	
1383.299	1	1	0	0	0.13733	0.080835	0.098386	0.038385	0.11645	0.27212	0.10087	0.087745	0.090562	0.28842	0.046442	0.17023	0.085995	0.19336	0.093842	0.23431	-1.9125	-1.9854	-1.7583	-2.5687	-1.7104	-1.8104	-2.5792	-1.5271	-2.3271	-2.1917	-1.8813	-2.5646	-1.7854	-2.0521	-2.2917	-1.6271	238.343	328.339	332.743	327.964	151.189	383.083	140.586	307.094	391.730	215.508	91.817	341.602	86.423	360.247	325.090	400.107	0.00049615	0.00051595	0.00013903	274.62	6.3529e-06	1.0005e-05	523.67	113.17	3.4781e-07	6.9663e-06	241.92	112.9	54.333	29.083	4.7074e-06	64.081	0.0023965	0.0033981	0.00095717	277.58	3.5516e-05	3.8843e-05	514.13	114.39	3.568e-05	3.9042e-05	240.08	111.25	55.034	29.134	3.7639e-05	62.978	191.432	279.503	230.656	91.872	208.855	309.754	90.807	96.776	410.573	194.713	95.255	98.725	100.609	104.432	305.906	102.212	-8191	255	
1383.396	1	1	0	0	0.26445	0.1306	0.18051	0.24185	0.12779	0.18045	0.20339	0.23854	0.051087	0.14575	0.19435	0.06139	0.085659	0.30718	0.24929	0.23865	-1.7292	-2.2146	-1.7	-2.5167	-1.7292	-1.75	-2.425	-1.6854	-2.3979	-2.2354	-1.5667	-2.6125	-2.0479	-1.6771	-2.5979	-1.6646	294.302	283.449	135.569	411.612	240.949	229.156	360.533	88.912	228.639	278.654	115.791	143.977	427.406	387.977	101.719	365.077	0.0004737	0.00040698	0.00024417	273.24	3.9082e-06	3.9398e-06	523.3	113.3	4.5699e-06	1.0274e-06	240.12	112.13	54.599	29.289	5.3719e-06	63.786	0.0024497	0.0035846	0.00099828	278.68	3.7237e-05	3.9525e-05	515.5	114.65	3.7483e-05	4.0776e-05	238.95	111.07	55.28	29.285	3.8936e-05	62.833	186.529	125.274	209.646	91.492	285.465	163.800	90.451	96.960	215.591	88.083	95.144	99.110	100.923	104.793	225.501	101.849	-8191	255	
1383.516	1	1	0	0	0.45906	0.075625	0.25902	0.11759	0.18492	0.16269	0.010009	0.106	0.13523	0.12444	0.27264	0.20979	0.23899	0.15249	0.076071	0.05942	-1.7646	-2.3563	-1.5292	-2.4521	-2.0625	-1.9062	-2.7625	-1.7333	-2	-2.5833	-1.8604	-2.3625	-2.1562	-1.75	-2.5333	-2.0625	270.480	324.724	254.991	137.109	274.409	425.045	233.567	258.414	364.526	335.009	394.790	390.830	333.182	324.282	290.777	276.725	0.00048607	0.00053288	0.000266	274.71	9.6205e-06	8.0068e-06	527.23	113.25	9.5485e-06	9.3497e-06	242.2	111.8	54.524	29.169	6.6943e-06	64.182	0.002563	0.0036555	0.0010235	279.34	3.8237e-05	4.1271e-05	516.11	114.54	3.7825e-05	4.1034e-05	239.71	111.22	55.377	29.291	3.9142e-05	63.002	199.389	119.188	151.284	91.772	217.677	430.861	90.759	96.546	216.635	213.279	95.404	99.388	100.971	104.573	331.758	102.018	-8191	255	
1383.611	1	1	0	0	0.056721	0.093111	0.067865	0.29142	0.08163	0.17666	0.15457	0.040787	0.1857	0.036313	0.15971	0.10996	0.32377	0.12288	0.19741	0.22413	-1.6125	-2.3625	-1.4792	-2.3625	-2.1333	-1.6479	-2.6583	-2	-1.9896	-2.4833	-1.8229	-2.3	-2.2458	-1.7083	-2.3583	-2.0917	378.566	104.571	423.347	365.548	397.029	116.063	113.843	401.487	279.340	400.381	165.201	193.331	100.918	103.268	335.417	428.245	0.00056351	0.00023644	0.0001153	272.52	2.4511e-06	9.0363e-06	518.74	112.79	3.3062e-06	3.6792e-06	239.52	112.75	54.833	29.259	4.2677e-06	64.163	0.0025908	0.0037716	0.0010433	278.68	3.8491e-05	4.152e-05	514.57	114.25	3.9147e-05	4.0803e-05	239.92	111.73	55.536	29.35	3.906e-05	63.299	188.544	162.644	438.358	92.133	341.977	274.088	91.050	97.417	316.315	285.850	95.611	98.919	100.951	104.850	160.620	102.185	-8191	255	
1383.707	1	1	0	0	0.11669	0.09835	0.19307	0.069649	0.18229	0.20775	0.19076	0.24997	0.21574	0.14125	0.22169	0.19455	0.28164	0.11669	0.053932	0.24387	-1.4937	-2.2938	-1.4792	-2.1208	-2.2979	-1.6562	-2.6063	-2.0646	-1.8083	-2.6958	-1.6688	-2.1146	-2.5417	-1.7167	-2.3167	-2.1458	265.339	163.153	119.553	193.619	238.929	435.219	359.402	353.100	157.086	104.053	347.083	317.798	341.919	256.686	161.527	129.013	0.00053564	0.00074704	0.00030413	275.81	9.9003e-06	3.0929e-06	526.04	114.01	2.2917e-06	2.0598e-06	241.07	113.07	54.925	29.202	4.5787e-06	63.909	0.0025698	0.0037313	0.0010369	280.62	3.8062e-05	4.1028e-05	516.95	114.68	3.825e-05	4.1599e-05	240.85	112.2	55.586	29.309	3.9944e-05	63.021	183.843	163.823	243.749	92.541	229.011	249.767	91.249	97.345	254.042	124.922	95.122	99.387	100.951	104.270	278.353	101.952	-8191	255	
1383.805	1	1	0	0	0.12345	0.18478	0.26716	0.29144	0.12921	0.23498	0.1967	0.30926	0.13576	0.27596	0.17746	0.26926	0.27173	0.29109	0.14852	0.2542	-1.3604	-2.3542	-1.7687	-2.1063	-2.2562	-1.6292	-2.6521	-2.1	-1.6313	-2.3688	-1.8542	-1.9646	-2.7083	-1.6625	-2.1354	-2.4062	244.508	213.503	388.672	359.835	109.848	154.940	358.206	419.996	97.097	411.109	238.534	370.569	432.093	361.820	136.415	286.549	0.00053515	0.00036244	8.86e-05	274.38	8.6512e-06	4.29e-06	524.05	114.06	4.5476e-06	5.8477e-06	240.65	112.92	54.745	28.874	1.7866e-06	63.169	0.0025883	0.0037045	0.0010481	280.37	3.8233e-05	4.1663e-05	517.43	114.7	3.801e-05	4.1769e-05	239.77	111.54	55.412	28.962	3.9626e-05	62.338	194.872	183.396	148.582	92.014	215.198	227.900	91.009	96.620	267.502	154.908	95.057	99.399	100.904	104.456	153.263	102.086	-8191	255	
1383.899	1	1	0	0	0.17597	0.055984	0.31198	0.18369	0.29452	0.20002	0.085517	0.20863	0.052943	0.080215	0.25069	0.46173	0.13125	0.22539	0.20867	0.2139	-1.3042	-2.4562	-1.6875	-1.8396	-2.4042	-1.7188	-2.4396	-2.2479	-1.7188	-2.525	-2.1417	-1.9	-2.7083	-1.6917	-2.1667	-2.4833	286.349	408.799	172.374	273.132	245.449	334.214	413.403	256.499	242.371	249.571	394.401	438.972	298.832	368.761	377.338	333.749	0.00052566	0.00063128	0.00015125	273.97	3.1748e-06	1.4386e-06	521.63	113.4	3.8182e-06	4.8762e-06	241.7	113.01	55.109	28.762	3.2804e-06	63.36	0.0026156	0.0037044	0.0010603	280.27	3.8495e-05	4.1599e-05	516.91	114.37	3.8912e-05	4.2023e-05	240.35	111.89	55.488	28.958	4.0725e-05	62.456	198.244	137.648	192.297	92.048	265.309	111.407	91.104	97.148	255.741	142.558	95.220	98.991	100.675	104.617	307.432	102.319	-8191	255	
1383.995	1	1	0	0	0.11756	0.21821	0.38033	0.16741	0.19781	0.11076	0.36248	0.20403	0.13694	0.14537	0.25062	0.091927	0.06725	0.060748	0.095098	0.24189	-1.2188	-2.4896	-1.8396	-1.8625	-2.4833	-1.6229	-2.1333	-2.5062	-1.65	-2.5104	-2.0979	-1.9833	-2.4875	-1.8104	-1.9625	-2.6083	110.029	283.774	262.708	147.057	180.808	362.053	239.559	431.669	305.445	300.402	415.169	320.879	309.299	274.570	124.786	416.761	0.0005373	0.0004799	0.00018989	276.76	6.8464e-06	5.9624e-06	526.9	113.42	4.384e-06	6.2812e-06	242.53	113.52	54.726	28.76	9.5012e-06	63.813	0.0026561	0.0038518	0.0010556	280.88	3.9032e-05	4.3039e-05	519.47	114.89	3.9146e-05	4.3147e-05	241.52	112.54	55.593	29.018	4.1476e-05	62.881	203.920	104.505	190.452	92.460	215.758	237.382	91.382	97.030	277.080	219.839	95.251	99.118	100.739	104.868	186.400	102.141	-8191	255	
1384.091	1	1	0	0	0.1512	0.082817	0.22092	0.11992	0.31059	0.087428	0.21589	0.24731	0.2763	0.16859	0.27506	0.10723	0.19475	0.090733	0.27794	0.13646	-1.2542	-2.1958	-2.1021	-1.6021	-2.4375	-1.8042	-1.9646	-2.4042	-1.6313	-2.325	-2.0771	-1.6333	-2.4896	-1.9479	-1.7646	-2.5625	304.180	399.989	160.682	176.784	151.677	338.597	237.045	128.504	247.739	319.164	399.693	250.806	83.489	199.131	279.059	322.919	0.0004875	0.00035894	6.6649e-05	277.54	6.6614e-06	7.0456e-06	528.18	113.66	2.4023e-06	4.0499e-06	241.9	113.88	54.892	28.823	5.5525e-06	63.358	0.0026953	0.0039125	0.0010886	283.23	4.0223e-05	4.3406e-05	521.66	114.63	3.9529e-05	4.3189e-05	242.45	112.44	55.747	29.026	4.1397e-05	62.457	184.309	85.787	220.579	92.358	263.172	176.120	91.332	97.216	295.529	218.988	95.666	99.498	101.143	104.713	204.043	102.443	-8191	255	
1384.212	1	1	0	0	0.29035	0.26475	0.077257	0.061889	0.1987	0.20155	0.31084	0.23458	0.21029	0.16787	0.193	0.22039	0.33694	0.36836	0.19673	0.13484	-1.3292	-2.1063	-2.2146	-1.5104	-2.4	-1.9333	-1.7625	-2.5146	-1.6229	-2.1542	-2.2313	-1.6917	-2.3521	-2.0271	-1.7292	-2.5604	229.978	320.083	234.453	122.041	264.921	415.988	385.120	376.047	167.490	252.649	260.256	82.682	439.054	140.051	212.263	299.814	0.00046349	0.00059731	6.9978e-05	276	4.9384e-07	4.6788e-06	525.29	112.91	5.9616e-06	5.4485e-06	242.61	112.41	55.152	28.9	5.589e-06	62.658	0.002694	0.0038849	0.0010786	281.11	3.9491e-05	4.3202e-05	518.7	114.33	4.0327e-05	4.31e-05	241.62	111.53	55.659	28.883	4.2044e-05	61.96	197.051	238.833	188.970	92.309	173.437	240.916	91.091	97.385	246.085	209.223	95.191	99.475	101.132	104.524	192.162	102.485	-8191	255	
1384.308	1	1	0	0	0.27545	0.076701	0.16572	0.10559	0.22405	0.1282	0.16336	0.18887	0.29914	0.20286	0.094139	0.12357	0.24044	0.20269	0.088345	0.25869	-1.375	-2.1417	-2.4104	-1.5896	-2.3792	-2.0375	-1.875	-2.4958	-1.8312	-2.1021	-2.4083	-1.5146	-2.3375	-2.3083	-1.7563	-2.4979	264.048	344.803	268.235	170.471	212.628	350.255	372.742	418.628	295.351	272.509	128.664	332.579	364.497	85.035	124.565	380.955	0.00050534	0.00051057	0.00020984	274.69	2.8316e-06	9.3372e-06	525.07	112.89	4.4659e-06	2.0657e-06	242.71	111.98	54.512	28.712	4.4088e-06	62.58	0.0027386	0.0039807	0.0010986	281.92	4.0783e-05	4.4065e-05	517.05	114.11	4.0539e-05	4.4371e-05	241.2	111.45	55.437	28.855	4.2152e-05	61.925	191.009	85.696	174.581	92.064	245.406	220.175	90.964	97.563	225.974	152.901	95.481	99.362	101.237	105.003	209.923	102.550	-8191	255	
1384.404	1	1	0	0	0.055418	0.1452	0.095639	0.1207	0.13667	0.078915	0.3504	0.22895	0.065594	0.11473	0.12963	0.27526	0.068125	0.35226	0.34251	0.042745	-1.5583	-1.8958	-2.5792	-1.5625	-2.35	-2.2917	-1.4646	-2.5625	-1.9583	-1.7146	-2.4167	-1.6896	-2.2896	-2.2208	-1.55	-2.5729	396.721	291.001	373.282	365.642	273.131	189.529	406.712	106.434	293.689	181.670	395.601	105.363	225.336	86.108	279.206	132.659	0.00045137	0.00021315	0.00011723	273.57	3.1084e-06	5.5726e-06	524.53	112.96	1.7651e-06	5.7226e-06	242.17	112.09	54.381	28.503	6.5215e-06	62.307	0.0027297	0.0039429	0.0011049	281.82	4.0979e-05	4.4057e-05	518.93	114.21	4.0428e-05	4.4721e-05	242.04	111.71	55.232	28.546	4.2111e-05	61.502	185.085	148.189	193.787	92.184	238.516	245.874	91.450	97.234	248.795	250.581	95.647	99.290	101.782	104.959	214.522	102.745	-8191	255	
1384.500	1	1	0	0	0.1514	0.08469	0.24267	0.32124	0.16869	0.11053	0.265	0.17683	0.19764	0.098695	0.16629	0.25538	0.073322	0.16299	0.16205	0.15091	-1.5646	-1.7313	-2.5583	-1.6979	-2.0271	-2.2667	-1.7083	-2.4667	-1.9854	-1.6458	-2.575	-1.6938	-1.9146	-2.4208	-1.4354	-2.4458	305.564	338.382	253.220	274.012	88.309	130.781	358.148	95.573	365.415	357.029	226.276	143.880	377.732	412.954	152.402	373.500	0.00057513	0.00052051	0.00020813	273.31	4.0608e-06	1.0337e-05	526.33	112.17	7.916e-06	1.2464e-06	242.44	112.83	54.545	27.976	2.9049e-06	62.268	0.0027493	0.0039828	0.0011116	282.42	4.1731e-05	4.4625e-05	519.93	114.35	4.1196e-05	4.5234e-05	242.91	111.85	55.46	28.304	4.262e-05	61.205	179.966	155.079	129.037	92.946	143.075	150.525	91.408	98.259	246.493	282.217	95.239	99.257	101.452	105.269	201.976	102.838	-8191	255	
1384.597	1	1	0	0	0.42088	0.18797	0.20463	0.12778	0.2123	0.23221	0.43424	0.11844	0.13156	0.16812	0.14641	0.31626	0.41015	0.3556	0.16595	0.27033	-1.8312	-1.5479	-2.4667	-1.6604	-1.9729	-2.2917	-1.8417	-2.2479	-2.2792	-1.625	-2.5083	-1.8813	-1.8896	-2.4688	-1.5063	-2.2854	394.488	433.320	370.239	342.696	300.100	423.788	430.242	182.809	82.856	335.620	390.145	104.831	430.787	122.918	391.079	394.290	0.00050924	0.00018652	0.00013665	278.58	2.4891e-06	3.572e-06	526.77	113.07	4.1241e-06	1.1024e-05	243.07	112.47	54.418	27.773	2.3415e-06	61.498	0.0027648	0.0040694	0.0011482	283.99	4.2091e-05	4.4961e-05	520.93	114.44	4.221e-05	4.5757e-05	242.75	111.91	55.483	28.169	4.4227e-05	60.762	188.426	432.529	156.838	92.464	361.665	243.540	91.522	97.430	213.549	244.701	95.434	99.195	101.333	105.557	118.336	102.098	-8191	255	
1384.691	1	1	0	0	0.16631	0.055357	0.22803	0.11132	0.2142	0.062254	0.18452	0.34982	0.18644	0.06885	0.18533	0.19223	0.12887	0.10693	0.1855	0.19938	-1.9292	-1.6021	-2.2917	-1.825	-1.7729	-2.5687	-1.7854	-2.2042	-2.2	-1.7313	-2.3729	-2.0729	-1.9271	-2.3375	-1.7188	-2.2313	417.361	230.376	211.397	159.996	137.283	434.085	366.956	78.981	335.260	214.463	427.945	90.515	220.196	271.755	129.325	353.047	0.00047501	0.00044962	0.00026419	273.61	6.9488e-06	6.8101e-06	526.14	112.3	2.1516e-06	7.1472e-06	242.09	112.5	54.549	28.004	5.7108e-06	61.541	0.002868	0.0041862	0.0011781	283.74	4.3681e-05	4.6735e-05	521.87	114.22	4.2937e-05	4.7042e-05	242.8	111.73	55.709	28.294	4.5107e-05	60.822	197.396	107.556	128.307	91.682	247.775	256.609	90.781	96.777	249.335	261.977	95.197	99.130	101.003	104.508	231.790	102.321	-8191	255	
1384.812	1	1	0	0	0.1804	0.18722	0.36808	0.24357	0.20162	0.057882	0.10308	0.15362	0.059717	0.14648	0.17584	0.34013	0.058005	0.24016	0.15289	0.13043	-2.2396	-1.5333	-2.3125	-2.0667	-1.7708	-2.4437	-2	-2.1146	-2.4271	-1.6479	-2.4813	-2.1604	-1.6521	-2.6104	-1.6542	-2.1125	156.267	110.073	222.036	262.301	150.242	132.809	326.980	255.489	251.128	283.824	95.017	435.967	254.775	220.049	323.592	322.566	0.00052922	0.00044375	0.00021687	276.98	4.2913e-06	7.8557e-06	526.18	112.25	5.0014e-06	6.3312e-06	242.41	113.34	55.069	27.799	3.9186e-06	62.025	0.0028872	0.0042714	0.0011793	284.13	4.3487e-05	4.6225e-05	520.96	114.79	4.3611e-05	4.6862e-05	244.15	112.61	55.973	28.237	4.5822e-05	61.173	182.404	437.002	196.306	92.171	248.463	315.297	90.669	96.908	198.832	200.698	95.270	98.676	100.889	104.573	284.979	102.339	-8191	255	
1384.908	1	1	0	0	0.14124	0.13716	0.27959	0.22478	0.071317	0.16798	0.035539	0.090882	0.053849	0.26108	0.12074	0.14003	0.082659	0.13126	0.086871	0.13441	-1.9396	-1.5542	-2.1479	-2.1	-1.5354	-2.5	-1.8771	-1.95	-2.2562	-1.4937	-2.4667	-2.3229	-1.6042	-2.4833	-1.7125	-2.0979	420.849	361.797	362.294	365.676	327.903	437.933	245.863	408.456	437.176	331.711	382.196	397.522	208.436	425.360	430.135	229.240	0.00044987	0.00054949	0.00039945	275.42	1.8622e-06	7.8549e-06	525.08	112.03	3.2157e-06	9.6956e-06	244.52	113.03	55.075	27.937	1.7269e-06	61.432	0.002933	0.0042695	0.0012031	284.71	4.4205e-05	4.7864e-05	522.51	114.79	4.3957e-05	4.7018e-05	244.28	112.26	55.819	28.135	4.5022e-05	60.735	189.321	99.642	215.417	92.006	329.810	217.421	90.744	96.953	178.574	236.243	95.100	98.925	101.395	104.731	409.691	102.337	-8191	255	
1385.004	1	1	0	0	0.11989	0.01574	0.19158	0.13047	0.17743	0.083452	0.11075	0.089743	0.14029	0.059226	0.42469	0.28995	0.11326	0.23144	0.15071	0.13137	-2.0646	-1.625	-2.2729	-2.2	-1.5396	-2.4	-1.9813	-1.6125	-2.4146	-1.6958	-2.1771	-2.4958	-1.6771	-2.4313	-2.1083	-1.6625	238.148	417.423	119.601	141.575	183.083	265.789	307.702	412.724	389.504	294.986	370.375	387.236	344.944	423.447	102.628	429.277	0.0004924	0.00059292	0.00028893	273.04	6.8052e-06	1.1005e-05	523.22	111.99	7.0617e-06	1.1642e-05	242.81	111.98	54.304	27.588	5.2167e-06	61.026	0.0029309	0.0042986	0.0012058	282.76	4.4941e-05	4.8493e-05	519.03	113.91	4.4343e-05	4.8834e-05	243.13	111.7	55.323	27.938	4.6088e-05	60.34	188.839	425.020	136.463	92.142	231.461	307.424	90.908	97.252	141.789	244.457	95.462	98.799	100.776	104.694	140.238	102.315	-8191	255	
1385.076	1	1	0	0	0.18804	0.16497	0.081839	0.29941	0.09633	0.27185	0.17777	0.048744	0.1259	0.28388	0.15272	0.10569	0.26422	0.1694	0.17742	0.35945	-1.9	-1.8875	-2.0062	-2.3667	-1.6417	-2.2396	-2.1229	-1.8542	-2.2771	-1.8375	-1.9542	-2.3937	-1.7417	-2.2521	-2.1917	-1.6646	364.974	250.981	131.784	438.341	347.535	122.725	382.319	384.915	318.368	79.568	291.524	407.378	95.731	324.118	399.014	323.459	0.00048503	0.00043796	9.9625e-05	272.09	8.1068e-06	1.559e-05	525.17	111.66	4.9947e-06	1.7038e-06	244.01	112.14	54.485	27.718	1.3977e-06	61.12	0.002952	0.0043363	0.0012174	282.38	4.4451e-05	4.8591e-05	520.15	114.15	4.4848e-05	4.7569e-05	243.52	111.8	55.668	27.961	4.5896e-05	60.435	188.232	387.346	168.420	92.434	246.489	172.315	90.553	97.029	280.338	296.757	95.605	99.163	101.099	104.932	239.307	102.282	-8191	255	
1385.172	1	1	0	0	0.13121	0.26879	0.21603	0.2205	0.2716	0.38335	0.22012	0.22063	0.086235	0.073168	0.14463	0.13693	0.11854	0.10283	0.21383	0.21801	-2.1854	-1.9438	-1.7083	-2.5896	-1.6458	-2.2167	-2.3125	-1.5333	-2.4625	-1.8979	-1.8271	-2.825	-1.7271	-2.3333	-2.4375	-1.6208	291.277	256.021	172.172	227.641	284.991	258.830	391.754	183.871	269.142	303.737	98.356	296.516	265.155	270.088	378.655	398.213	0.0004751	0.0012489	0.00024394	272.56	4.896e-06	1.0606e-05	526.38	112.22	5.6169e-06	5.9946e-06	244.79	113.13	54.265	27.48	9.7032e-06	61.172	0.002909	0.0042919	0.0012059	283.97	4.459e-05	4.7651e-05	521.92	114.06	4.4536e-05	4.8473e-05	245.25	112.32	55.52	27.761	4.5792e-05	60.375	183.067	186.225	261.052	92.130	271.734	228.617	90.856	97.220	246.200	225.178	95.700	99.167	101.096	104.813	236.194	102.504	-8191	255	
1385.292	1	1	0	0	0.12551	0.070188	0.099384	0.19309	0.28541	0.070571	0.14623	0.22212	0.12836	0.26121	0.14393	0.37355	0.039844	0.27464	0.055537	0.31514	-2.1417	-2.0354	-1.9021	-2.6104	-1.7938	-2.0667	-2.3438	-1.7646	-2.3563	-2.1375	-1.8354	-2.525	-1.7479	-2.0667	-2.4	-1.7437	216.901	103.710	163.711	398.911	159.141	391.464	334.588	377.487	294.180	214.762	236.825	386.554	151.461	407.962	151.686	91.890	0.00040952	0.00062923	4.2973e-05	273.6	1.3361e-06	4.7598e-06	527.87	112.15	5.2724e-06	7.3987e-06	243.45	112.93	54.511	27.432	1.1676e-05	60.515	0.0029898	0.0043227	0.0012088	284.32	4.4666e-05	4.9185e-05	524.05	114.71	4.4694e-05	4.8954e-05	245.01	112.36	55.769	27.786	4.6795e-05	60.105	181.412	302.614	150.134	91.540	289.119	250.484	90.902	97.531	290.237	212.899	95.194	98.759	100.469	104.466	266.506	102.070	-8191	255	
1385.389	1	1	0	0	0.035227	0.067724	0.38236	0.27854	0.065993	0.10108	0.38626	0.23993	0.052545	0.2634	0.14671	0.14338	0.25452	0.12052	0.25299	0.1579	-2.0583	-2.0646	-1.5375	-2.3542	-1.6354	-1.975	-2.6583	-1.725	-2.2271	-2.2167	-1.8312	-2.7146	-2.0646	-1.8896	-2.6875	-1.8417	393.065	207.741	384.822	351.962	137.336	182.131	389.769	96.014	243.699	265.012	90.742	438.521	329.358	132.803	336.591	419.775	0.0005757	0.00015681	4.3454e-05	278.54	5.7232e-06	1.7299e-06	522.88	111.32	1.9992e-06	1.4012e-05	242.45	111.64	54.353	27.373	7.8801e-06	60.443	0.0029912	0.0043375	0.001251	286.13	4.5612e-05	4.9944e-05	521.78	114.6	4.5797e-05	5.0015e-05	244.1	111.64	55.508	27.744	4.7821e-05	60.098	197.804	283.178	124.898	91.734	284.407	351.259	91.239	97.189	322.617	246.936	95.248	99.009	100.364	104.919	273.741	102.068	-8191	255	
#DATA ENDS
