BOXY.EXE: ISS Imagent and Oximeter Data Acquisition Program Version 0.80
Ascii Record File

#ACQ INFORMATION
2  Detector Channels 
16  External MUX Channels 
1  Auxiliary Channels 
5000  Waveform (CCF) Frequency (Hz)
1  Waveforms Skipped 
30  Waveforms Averaged 
1  Cycles Averaged 
16  Acquisitions per Waveform 
10.0806  Updata Rate (Hz) 

#FILE INFORMATION
TRUE -- External MUX Channel results are PARSED.
FALSE -- AC DC and Phase are NOT grouped.
TRUE -- Companion Program Settings File CREATED.
FALSE -- AC data not excluded
FALSE -- DC data not excluded
FALSE -- Phase data not excluded
FALSE -- Auxillary Chn. data not excluded
Tab delimiters

#CALIBRATION STATE
TRUE -- Waveform Calibration Values APPLIED.


#AUX CALIBRATION VALUES
Val Type	aux-1	

Term	1.0000e+00	
Factor	0.0000e+00	


#WF CALIBRATION VALUES
A = Detector Channel
Val Type	A-AC1	A-AC2	A-AC3	A-AC4	A-AC5	A-AC6	A-AC7	A-AC8	A-AC9	A-AC10	A-AC11	A-AC12	A-AC13	A-AC14	A-AC15	A-AC16	A-DC1	A-DC2	A-DC3	A-DC4	A-DC5	A-DC6	A-DC7	A-DC8	A-DC9	A-DC10	A-DC11	A-DC12	A-DC13	A-DC14	A-DC15	A-DC16	A-Ph1	A-Ph2	A-Ph3	A-Ph4	A-Ph5	A-Ph6	A-Ph7	A-Ph8	A-Ph9	A-Ph10	A-Ph11	A-Ph12	A-Ph13	A-Ph14	A-Ph15	A-Ph16	

Term	0.00000e+00	0.00000e+00	0.00000e+00	0.00000e+00	0.00000e+00	0.00000e+00	0.00000e+00	0.00000e+00	0.00000e+00	0.00000e+00	0.00000e+00	0.00000e+00	0.00000e+00	0.00000e+00	0.00000e+00	0.00000e+00	0.00000e+00	0.00000e+00	0.00000e+00	0.00000e+00	0.00000e+00	0.00000e+00	0.00000e+00	0.00000e+00	0.00000e+00	0.00000e+00	0.00000e+00	0.00000e+00	0.00000e+00	0.00000e+00	0.00000e+00	0.00000e+00	0.00000e+00	0.00000e+00	0.00000e+00	0.00000e+00	0.00000e+00	0.00000e+00	0.00000e+00	0.00000e+00	0.00000e+00	0.00000e+00	0.00000e+00	0.00000e+00	0.00000e+00	0.00000e+00	0.00000e+00	0.00000e+00	
Factor	1.00000e+00	1.00000e+00	1.00000e+00	1.00000e+00	1.00000e+00	1.00000e+00	1.00000e+00	1.00000e+00	1.00000e+00	1.00000e+00	1.00000e+00	1.00000e+00	1.00000e+00	1.00000e+00	1.00000e+00	1.00000e+00	1.00000e+00	1.00000e+00	1.00000e+00	1.00000e+00	1.00000e+00	1.00000e+00	1.00000e+00	1.00000e+00	1.00000e+00	1.00000e+00	1.00000e+00	1.00000e+00	1.00000e+00	1.00000e+00	1.00000e+00	1.00000e+00	X	X	X	X	X	X	X	X	X	X	X	X	X	X	X	X	

B = Detector Channel
Val Type	B-AC1	B-AC2	B-AC3	B-AC4	B-AC5	B-AC6	B-AC7	B-AC8	B-AC9	B-AC10	B-AC11	B-AC12	B-AC13	B-AC14	B-AC15	B-AC16	B-DC1	B-DC2	B-DC3	B-DC4	B-DC5	B-DC6	B-DC7	B-DC8	B-DC9	B-DC10	B-DC11	B-DC12	B-DC13	B-DC14	B-DC15	B-DC16	B-Ph1	B-Ph2	B-Ph3	B-Ph4	B-Ph5	B-Ph6	B-Ph7	B-Ph8	B-Ph9	B-Ph10	B-Ph11	B-Ph12	B-Ph13	B-Ph14	B-Ph15	B-Ph16	

Term	0.00000e+00	0.00000e+00	0.00000e+00	0.00000e+00	0.00000e+00	0.00000e+00	0.00000e+00	0.00000e+00	0.00000e+00	0.00000e+00	0.00000e+00	0.00000e+00	0.00000e+00	0.00000e+00	0.00000e+00	0.00000e+00	0.00000e+00	0.00000e+00	0.00000e+00	0.00000e+00	0.00000e+00	0.00000e+00	0.00000e+00	0.00000e+00	0.00000e+00	0.00000e+00	0.00000e+00	0.00000e+00	0.00000e+00	0.00000e+00	0.00000e+00	0.00000e+00	-1.33287e+02	-1.33058e+02	-1.22415e+02	-1.83602e+02	-6.63235e+01	-6.86494e+01	-1.58175e+02	-1.62015e+02	-6.98326e+01	-6.27199e+01	-1.70709e+02	-1.71243e+02	-1.78816e+02	-1.76819e+02	-7.21941e+01	-1.49827e+02	
Factor	1.98011e-05	1.68726e-04	4.68094e-05	1.72646e-01	1.25001e-06	1.72005e-06	1.91519e-01	5.90140e-02	1.19171e-06	1.73739e-06	9.70808e-02	3.25887e-02	3.02680e-02	1.03601e-02	1.44427e-06	1.45597e-02	1.17642e-05	1.95404e-05	5.41394e-06	8.28772e-02	1.95271e-07	2.18153e-07	8.65750e-02	2.84976e-02	1.98045e-07	2.18247e-07	4.54550e-02	1.53416e-02	1.48428e-02	5.03973e-03	2.04727e-07	6.86683e-03	X	X	X	X	X	X	X	X	X	X	X	X	X	X	X	X	



#DISTANCE SETTINGS
A = Detector Channel
A-1	A-2	A-3	A-4	A-5	A-6	A-7	A-8	A-9	A-10	A-11	A-12	A-13	A-14	A-15	A-16	

2.5000e+00	3.0000e+00	2.5000e+00	3.0000e+00	2.0000e+00	3.0000e+00	1.5000e+00	3.0000e+00	3.0000e+00	3.0000e+00	3.0000e+00	3.0000e+00	3.0000e+00	3.0000e+00	1.5000e+00	3.0000e+00	

B = Detector Channel
B-1	B-2	B-3	B-4	B-5	B-6	B-7	B-8	B-9	B-10	B-11	B-12	B-13	B-14	B-15	B-16	

1.0000e+01	1.0000e+01	1.0000e+01	1.4400e+00	1.0000e+01	1.0000e+01	1.5100e+00	1.9400e+00	1.0000e+01	1.0000e+01	1.9900e+00	2.4900e+00	2.4100e+00	2.9000e+00	1.0000e+01	2.9800e+00	




#DATA BEGINS
time	group	step	mark	flag	A-AC1	A-AC2	A-AC3	A-AC4	A-AC5	A-AC6	A-AC7	A-AC8	A-AC9	A-AC10	A-AC11	A-AC12	A-AC13	A-AC14	A-AC15	A-AC16	A-DC1	A-DC2	A-DC3	A-DC4	A-DC5	A-DC6	A-DC7	A-DC8	A-DC9	A-DC10	A-DC11	A-DC12	A-DC13	A-DC14	A-DC15	A-DC16	A-Ph1	A-Ph2	A-Ph3	A-Ph4	A-Ph5	A-Ph6	A-Ph7	A-Ph8	A-Ph9	A-Ph10	A-Ph11	A-Ph12	A-Ph13	A-Ph14	A-Ph15	A-Ph16	B-AC1	B-AC2	B-AC3	B-AC4	B-AC5	B-AC6	B-AC7	B-AC8	B-AC9	B-AC10	B-AC11	B-AC12	B-AC13	B-AC14	B-AC15	B-AC16	B-DC1	B-DC2	B-DC3	B-DC4	B-DC5	B-DC6	B-DC7	B-DC8	B-DC9	B-DC10	B-DC11	B-DC12	B-DC13	B-DC14	B-DC15	B-DC16	B-Ph1	B-Ph2	B-Ph3	B-Ph4	B-Ph5	B-Ph6	B-Ph7	B-Ph8	B-Ph9	B-Ph10	B-Ph11	B-Ph12	B-Ph13	B-Ph14	B-Ph15	B-Ph16	aux-1	digaux	

57960.574	1	1	0	768	0.17566	0.16341	0.11273	0.15128	0.057228	0.2075	0.18234	0.056547	0.43815	0.13951	0.16154	0.22125	0.22267	0.21186	0.1203	0.22779	-4.3375	-4.0875	-3.9333	-4.6979	-3.9083	-4.2917	-4.7562	-3.7875	-4.6021	-4.2146	-3.8875	-4.7708	-3.8792	-4.3458	-4.7021	-3.7521	216.125	95.049	347.624	367.247	434.625	438.314	427.060	145.513	159.628	197.666	431.020	383.752	218.705	311.197	405.631	337.467	0.00049439	0.0017664	0.0004372	1156.3	1.2825e-05	5.798e-06	1438.5	308.77	5.4879e-06	1.7341e-05	464.69	137.87	81.484	21.007	3.0782e-06	47.129	0.0060155	0.0096353	0.0026712	1142.8	9.728e-05	0.00010829	1415.4	308.04	9.8207e-05	0.00010717	466.88	139.59	85.263	22.588	0.00010093	48.675	181.556	236.714	151.739	95.140	244.163	334.395	95.170	98.792	258.439	268.185	98.153	102.493	103.049	107.192	181.294	106.596	-8191	255	
57960.668	1	1	0	0	0.091647	0.13269	0.18586	0.27683	0.18078	0.1243	0.31029	0.29519	0.092766	0.090038	0.039746	0.29621	0.12714	0.22848	0.20508	0.17679	-4.1188	-4.0729	-3.8417	-4.9292	-3.9646	-4.1729	-4.8771	-3.9729	-4.5083	-4.2937	-4.0729	-4.7833	-4.1979	-3.9521	-4.7375	-3.9604	328.219	192.134	301.864	84.646	157.011	326.936	372.280	329.587	345.318	153.705	84.903	429.554	175.749	91.381	103.681	412.727	0.00053275	0.00065228	0.00012953	1162.8	3.0396e-06	1.0706e-05	1434.4	306.62	3.8555e-06	7.6755e-06	461.51	136.11	81.081	20.53	5.5074e-06	46.291	0.0059163	0.0095006	0.0026353	1140.9	9.5029e-05	0.00010446	1409.1	306.48	9.5234e-05	0.00010374	461.74	137.75	84.18	22.095	9.4723e-05	47.699	156.204	99.043	359.865	95.499	189.811	295.193	95.295	98.850	225.179	266.724	98.020	102.406	102.980	107.237	282.644	106.428	-8191	255	
57960.766	1	1	0	0	0.12741	0.15275	0.23538	0.086997	0.096498	0.20079	0.27675	0.28569	0.0249	0.069384	0.21849	0.17829	0.095288	0.059191	0.11651	0.062868	-4.0042	-4.3292	-3.7354	-4.8229	-4.0333	-3.8896	-4.8104	-3.9479	-4.1979	-4.5125	-3.9354	-4.5042	-4.3417	-3.9062	-4.6625	-3.9604	332.296	408.982	330.276	164.587	148.075	105.055	372.996	360.802	144.093	431.273	431.324	366.382	375.750	361.181	215.678	100.581	0.00041654	0.0010099	0.00022082	1145.7	5.3762e-06	4.4109e-06	1426.5	306.95	1.0045e-05	5.4859e-06	463.54	137.42	81.349	20.865	2.5723e-06	46.387	0.0056425	0.0090609	0.0024703	1131.1	8.9936e-05	9.9468e-05	1398.6	305.67	9.0513e-05	9.8621e-05	462.76	138.4	84.522	22.171	9.3142e-05	47.965	156.150	160.192	271.850	95.213	332.594	161.342	95.293	99.012	223.820	155.642	98.032	102.702	103.182	107.790	268.249	106.419	-8191	255	
57960.859	1	1	0	0	0.084707	0.045206	0.064718	0.1225	0.24824	0.29177	0.049681	0.30178	0.14114	0.01083	0.29234	0.11124	0.20336	0.15236	0.098744	0.20353	-3.9813	-4.6292	-3.825	-4.8042	-4.2729	-4.0479	-4.8812	-4.0188	-4.2646	-4.5104	-3.9729	-4.6542	-4.2042	-3.8937	-4.6542	-4.1083	82.914	382.911	221.447	410.144	381.230	253.053	389.548	346.542	141.299	415.570	392.874	345.348	391.945	122.261	340.469	391.855	0.00043145	0.0013483	0.00014204	1152.1	4.6963e-06	5.8832e-06	1429	308.2	7.0283e-08	9.6116e-06	464.03	138.84	82.199	20.887	7.5457e-06	47.167	0.0056073	0.0089664	0.0024744	1133.9	9.098e-05	0.00010026	1402.2	307.89	9.1638e-05	0.00010045	465.71	139.91	85.348	22.412	9.4933e-05	48.844	169.630	200.613	169.698	95.423	403.884	89.585	94.908	99.578	360.173	168.055	98.172	102.345	103.074	107.751	300.434	106.946	-8191	255	
57960.957	1	1	0	0	0.12286	0.16108	0.23631	0.23449	0.076669	0.069179	0.31852	0.1348	0.030909	0.10997	0.066299	0.14925	0.17434	0.20833	0.23225	0.12034	-3.9125	-4.5854	-3.8021	-4.6354	-4.25	-3.8271	-4.9208	-4.1292	-4.1021	-4.6562	-3.9396	-4.5146	-4.4104	-3.7667	-4.7146	-4.2	162.090	186.313	248.505	397.500	323.612	203.341	334.508	145.158	172.503	123.187	97.176	377.406	143.851	337.976	100.515	145.932	0.00043711	0.00024579	0.00025404	1153.7	9.6864e-06	5.9845e-06	1435.1	311.72	6.8101e-06	2.0697e-06	470.09	138.7	82.626	20.77	5.4049e-06	47.108	0.0057832	0.0092679	0.0025925	1139.3	9.6492e-05	0.0001061	1409.6	310.34	9.58e-05	0.00010369	468.27	140.06	85.264	22.341	9.465e-05	48.349	157.528	114.870	219.852	95.183	211.246	227.616	94.804	98.935	294.932	392.954	98.256	102.429	102.917	107.527	312.899	106.307	-8191	255	
57961.051	1	1	0	0	0.28576	0.25299	0.028546	0.13434	0.22752	0.27147	0.19761	0.19322	0.038103	0.022234	0.013525	0.14544	0.2886	0.08941	0.15922	0.1074	-3.6542	-4.65	-3.7083	-4.4583	-4.5375	-3.6854	-4.9604	-4.1646	-3.8979	-4.6833	-4.0917	-4.3542	-4.5292	-3.8396	-4.5917	-4.2229	94.254	366.919	251.113	203.143	328.781	350.192	390.778	299.147	282.202	288.707	349.031	286.688	341.845	298.487	265.166	377.445	0.00050684	0.0010986	8.4015e-05	1151.1	3.36e-06	9.9224e-06	1413.1	306.89	2.3974e-06	1.3332e-05	461.36	135.34	81.257	20.562	9.9435e-06	46.214	0.0055511	0.0088726	0.0024915	1129.3	9.0306e-05	0.00010064	1393.2	306.01	9.2547e-05	9.9752e-05	461.62	137.43	84.246	22.034	9.5284e-05	47.652	173.210	152.251	358.650	95.052	102.403	253.540	94.981	99.083	372.725	209.874	98.187	102.631	103.351	107.753	228.140	106.519	-8191	255	
57961.172	1	1	0	0	0.009184	0.020789	0.060426	0.18149	0.1649	0.022695	0.17747	0.034444	0.20475	0.15862	0.24045	0.098793	0.096966	0.031809	0.1385	0.26964	-3.5125	-4.7312	-3.8937	-4.3313	-4.5542	-3.7729	-4.8688	-4.4583	-3.8979	-4.7083	-4.0458	-4.2312	-4.7417	-3.7979	-4.5333	-4.4479	114.386	372.196	406.877	407.792	395.344	128.701	361.463	90.691	184.078	395.734	385.361	179.932	395.511	180.241	332.465	124.200	0.00033341	0.0006513	0.0001993	1144	4.8556e-06	9.9347e-06	1419.4	308.4	3.1066e-06	7.4832e-06	460.97	136.81	82.245	20.608	9.7649e-06	46.97	0.0055685	0.0089707	0.0025072	1126.4	8.8354e-05	9.8402e-05	1390.5	306.21	8.8884e-05	9.8921e-05	463.7	138.51	84.724	22.222	9.4522e-05	48.11	183.757	260.772	186.031	95.211	189.340	242.288	95.151	99.004	186.761	233.180	98.846	102.169	103.084	107.655	201.401	106.553	-8191	255	
57961.270	1	1	0	0	0.1893	0.10793	0.18972	0.34665	0.24747	0.12081	0.0905	0.30133	0.081212	0.17757	0.092914	0.026557	0.063797	0.18924	0.11363	0.21636	-3.4458	-4.6021	-4.0896	-4.1	-4.5125	-3.9	-4.625	-4.4354	-3.85	-4.5396	-4.2083	-3.9437	-4.7188	-3.7375	-4.3229	-4.7125	264.066	409.560	208.268	395.355	391.869	309.300	367.365	106.445	248.725	92.081	430.951	139.862	204.148	308.950	228.623	431.835	0.00048084	0.0013219	0.00033389	1145.1	5.1306e-06	1.5612e-06	1425.7	309.88	1.0251e-05	2.2771e-06	468.46	138.02	82.132	20.997	1.2304e-05	47.287	0.0055931	0.0090864	0.0025469	1133	9.0093e-05	0.00010341	1400.8	308.9	9.2805e-05	0.0001027	466.63	139.47	85.361	22.477	9.6749e-05	48.693	173.490	253.668	424.194	95.326	238.663	276.184	95.226	98.959	248.116	303.910	98.403	102.815	103.189	107.815	267.751	106.637	-8191	255	
57961.363	1	1	0	0	0.21149	0.15361	0.033616	0.17956	0.029393	0.027357	0.37502	0.26585	0.17081	0.12594	0.11018	0.35947	0.28878	0.16445	0.17366	0.12714	-3.4521	-4.7167	-4.175	-4.1062	-4.6583	-3.8917	-4.3187	-4.7417	-3.7479	-4.5229	-4.4146	-3.8375	-4.7	-3.8875	-4.0333	-4.5146	354.128	401.600	406.677	398.589	439.744	232.180	375.242	382.236	145.914	219.958	395.297	439.603	136.880	200.595	105.457	301.276	0.0004653	0.00033525	0.00021425	1156.1	2.1116e-06	2.8749e-06	1422.6	308.71	3.6701e-06	4.158e-06	464.03	137.49	81.626	20.553	4.3089e-06	46.288	0.0057364	0.0092631	0.002624	1138	9.2551e-05	0.00010627	1400.5	308.98	9.502e-05	0.00010568	466.15	138.69	85.005	22.225	9.9934e-05	47.707	159.186	88.293	231.133	95.426	188.998	262.317	94.948	98.960	230.307	220.062	98.666	102.586	102.960	107.963	346.420	106.372	-8191	255	
57961.461	1	1	0	0	0.074513	0.26589	0.1034	0.38598	0.25721	0.10611	0.20088	0.072056	0.18709	0.074713	0.1882	0.10012	0.20606	0.1211	0.21959	0.13891	-3.2521	-4.4313	-4.2958	-4.0188	-4.6333	-3.9125	-4.2792	-4.7417	-3.8271	-4.5729	-4.5271	-3.9167	-4.5521	-4.0062	-3.8812	-4.8667	441.125	191.089	206.691	93.241	261.006	267.401	401.281	422.063	145.682	352.496	155.318	343.537	414.074	361.464	169.107	357.412	0.00047945	0.00039352	0.00028618	1149.3	1.4789e-06	4.2595e-06	1423.1	310.35	1.4268e-05	2.9107e-06	461.06	137.01	81.98	20.68	3.7368e-06	46.411	0.0058404	0.0095977	0.002613	1133.3	9.4822e-05	0.00010823	1399	309.2	9.9878e-05	0.00011065	465.93	139.4	85.79	22.519	0.00010683	48.333	169.166	369.504	150.178	95.429	358.038	159.486	95.012	99.143	250.816	162.539	98.262	102.642	103.226	107.842	371.456	106.686	-8191	255	
57961.559	1	1	0	0	0.10312	0.10762	0.091215	0.13931	0.11635	0.091776	0.23119	0.24337	0.23108	0.062918	0.13002	0.13162	0.17506	0.23684	0.18787	0.19721	-3.3854	-4.3521	-4.4333	-3.8688	-4.6208	-3.975	-4.1562	-4.8021	-3.6979	-4.325	-4.5542	-3.7562	-4.7646	-4.1188	-3.8208	-4.8104	262.055	95.897	317.395	101.272	157.778	198.183	321.896	394.021	248.397	364.470	336.732	393.490	245.078	101.018	218.083	108.499	0.0004792	0.00014384	6.3737e-05	1151.5	9.893e-06	7.1873e-06	1423.5	309.66	7.1743e-06	1.0753e-05	465.86	138.11	82.339	20.889	6.1203e-06	47.407	0.0064362	0.010268	0.002817	1138.6	0.00010029	0.00011456	1403.3	309.59	0.00010103	0.00011004	468.43	139.94	86.182	22.607	0.00010238	48.84	169.374	147.854	320.589	95.152	214.317	190.186	94.790	99.042	235.809	210.932	98.622	101.996	102.770	108.079	141.159	106.919	-8191	255	
57961.652	1	1	0	0	0.062336	0.14201	0.097888	0.32155	0.12285	0.25018	0.18541	0.097515	0.38087	0.13621	0.22358	0.19336	0.15973	0.20668	0.10008	0.18386	-3.5896	-4.2792	-4.5208	-3.8063	-4.4646	-4.1583	-4.1312	-4.6479	-3.8563	-4.2875	-4.6312	-3.8458	-4.6	-4.2	-3.7979	-4.6792	91.103	328.583	370.640	95.183	143.948	303.415	387.933	136.782	140.431	212.522	195.123	118.063	421.250	106.752	328.971	363.455	0.00055153	0.00062001	0.00032192	1155.4	5.4612e-06	1.2068e-05	1426.4	312.52	1.353e-05	5.2682e-06	468.51	138.81	82.456	20.795	7.1606e-06	47.028	0.0062156	0.010025	0.0027502	1141.8	9.9698e-05	0.00011212	1406	311.53	0.00010061	0.00010946	468.99	140.35	86.013	22.514	9.8419e-05	48.452	157.371	86.388	198.319	95.409	177.191	186.690	95.041	99.096	177.493	284.239	98.563	102.775	103.329	107.774	206.666	106.849	-8191	255	
57961.773	1	1	0	0	0.072392	0.1815	0.28642	0.12683	0.13238	0.07886	0.21139	0.10181	0.15482	0.086746	0.22367	0.11904	0.31815	0.1876	0.09557	0.15383	-3.6583	-4.1479	-4.7333	-3.9354	-4.3625	-4.3	-3.9188	-4.7312	-3.9667	-4.0167	-4.6458	-3.8833	-4.3458	-4.4167	-3.8187	-4.675	284.331	325.791	108.181	427.787	376.492	334.192	384.791	422.316	171.833	250.005	410.787	379.312	403.054	110.417	177.715	297.578	0.00048232	0.0011178	0.0003168	1148.4	6.2754e-06	8.583e-06	1410.5	308.39	6.6481e-06	5.9039e-06	461.73	136.27	81.723	20.562	5.0325e-06	46.323	0.0058068	0.0093759	0.0025307	1131.3	9.2401e-05	0.00010245	1386.4	306.69	9.501e-05	0.0001024	460.61	137.8	84.706	22.062	9.423e-05	47.585	152.946	328.628	207.616	95.083	398.664	236.318	94.844	99.009	177.338	399.800	98.463	102.427	103.125	108.020	103.231	106.480	-8191	255	
57961.867	1	1	0	0	0.22973	0.19865	0.17502	0.33268	0.15831	0.1624	0.25544	0.071465	0.10859	0.26873	0.18639	0.066304	0.075638	0.03393	0.10798	0.32783	-3.6854	-3.9437	-4.4125	-3.9188	-4.2229	-4.6604	-3.9854	-4.8375	-4.0896	-4.0292	-4.6958	-3.7438	-4.1167	-4.4896	-3.7125	-4.6125	234.069	313.057	389.111	106.644	146.492	375.412	369.773	98.778	86.084	83.203	398.907	424.685	406.217	104.497	405.290	411.653	0.00045995	0.00034765	0.00011737	1140.1	1.9892e-06	1.0406e-05	1424.6	307.4	4.4579e-06	2.6978e-05	462.58	135.94	81.383	20.709	7.184e-06	46.439	0.0055307	0.0087767	0.0024023	1124.1	8.665e-05	9.5569e-05	1388.2	306.09	8.678e-05	9.2824e-05	460.9	137.56	84.288	22.047	8.9011e-05	47.761	178.157	423.171	148.244	95.365	296.148	230.169	94.795	99.213	194.115	223.146	98.219	102.856	102.646	107.970	255.036	106.466	-8191	255	
57961.965	1	1	0	0	0.26119	0.26756	0.13105	0.29537	0.26035	0.1768	0.18521	0.13778	0.22948	0.13026	0.021495	0.14569	0.13634	0.079191	0.15696	0.19722	-3.9062	-3.7562	-4.6687	-3.9979	-4.1042	-4.6833	-3.8688	-4.6854	-4.1854	-3.7083	-4.7937	-3.9062	-4.0542	-4.6104	-3.5917	-4.4896	300.904	320.154	278.975	395.078	363.488	289.527	391.156	184.887	198.264	178.462	408.719	209.155	416.616	300.727	99.733	289.072	0.00053875	0.00077974	0.00027593	1155	6.3171e-07	1.2835e-05	1421.6	308.1	8.0113e-06	4.947e-06	464.68	138.6	82.521	20.993	4.4597e-06	46.994	0.0052623	0.0082297	0.0023332	1133.3	8.3884e-05	9.2955e-05	1395.5	306.74	8.5091e-05	9.2321e-05	463.89	139.07	84.914	22.236	8.9404e-05	48.274	159.843	127.306	211.754	95.693	131.637	179.385	94.813	98.928	192.057	368.851	98.653	102.242	102.935	107.997	404.974	106.470	-8191	255	
57962.062	1	1	0	0	0.17869	0.050284	0.029129	0.081818	0.061392	0.17173	0.12707	0.26256	0.12416	0.077746	0.25346	0.38997	0.16536	0.069391	0.082497	0.20806	-3.9417	-3.6875	-4.7083	-4.125	-4.0375	-4.5938	-4.0104	-4.4729	-4.2417	-3.7938	-4.6229	-4.1375	-4.1896	-4.7208	-3.9417	-4.6167	85.421	158.937	383.021	421.235	116.522	125.458	404.548	369.304	158.578	312.065	90.104	432.644	400.799	404.031	261.653	222.611	0.00054585	0.0002678	0.00025779	1154.6	1.1149e-05	3.6148e-06	1414.7	307.34	9.0656e-06	9.3556e-06	461.25	136.52	81.724	20.569	4.2094e-06	46.326	0.0052902	0.0083814	0.002353	1135.3	8.4374e-05	9.2499e-05	1389.9	306.06	8.4408e-05	9.2805e-05	460.59	137.62	84.106	21.846	8.6165e-05	47.165	168.356	183.029	141.920	95.229	234.191	422.632	94.852	98.880	254.651	267.413	98.526	102.512	102.690	107.687	250.575	106.473	-8191	255	
57962.133	1	1	0	0	0.057663	0.16271	0.020458	0.18943	0.096235	0.087502	0.23292	0.23216	0.28428	0.17001	0.060131	0.2999	0.21498	0.086931	0.061324	0.036696	-4.1521	-3.8667	-4.5729	-4.3562	-3.8854	-4.6021	-4.05	-4.2646	-4.5146	-3.8146	-4.7083	-4.1208	-3.8563	-4.7583	-3.8083	-4.1708	238.181	365.935	260.115	298.696	150.681	199.514	325.109	365.126	123.181	266.734	345.541	437.524	438.597	319.879	371.381	163.401	0.0004081	0.00097428	0.00034644	1146.2	5.0795e-06	4.1114e-06	1405.7	306.71	6.6065e-06	1.1544e-05	459.4	135.99	80.943	20.68	4.2691e-06	46.387	0.0049535	0.0079801	0.0022175	1124.7	7.7427e-05	8.6358e-05	1382.2	303.66	7.7904e-05	8.5885e-05	458.08	136.61	83.311	21.819	8.0752e-05	47.263	153.046	162.220	200.435	95.570	247.261	429.098	95.173	99.071	226.681	239.453	98.850	102.559	103.087	107.601	271.707	106.844	-8191	255	
57962.254	1	1	0	0	0.087932	0.19201	0.22083	0.25369	0.26691	0.1326	0.16084	0.098662	0.18604	0.18079	0.14905	0.14126	0.17142	0.1654	0.30307	0.09045	-4.3417	-3.6583	-4.3854	-4.4	-4.0354	-4.7604	-4.3333	-4.2396	-4.6896	-3.6583	-4.4333	-4.5271	-3.6917	-4.6562	-4.1	-3.9375	406.178	101.142	85.934	374.100	160.551	364.048	357.006	86.244	289.451	358.495	346.864	359.165	247.140	90.703	276.812	285.616	0.00047837	0.0012543	0.00016575	1155	9.5488e-06	4.6603e-06	1419.3	308.7	4.2214e-06	3.7767e-06	464.07	137.17	81.73	20.679	2.5494e-06	46.967	0.0047297	0.0075844	0.0021156	1128.9	7.5408e-05	8.3981e-05	1387.4	305.06	7.57e-05	8.5474e-05	460.33	137.87	83.817	21.888	7.9964e-05	47.847	161.486	110.043	203.525	95.465	171.283	178.157	95.094	98.848	270.290	124.241	98.191	102.692	103.229	107.919	92.840	106.541	-8191	255	
57962.348	1	1	0	0	0.2418	0.26017	0.11862	0.20778	0.38779	0.25523	0.30851	0.1914	0.060913	0.18034	0.11562	0.10975	0.13129	0.163	0.064913	0.25359	-4.4458	-3.8979	-4.3708	-4.4521	-3.6312	-4.6375	-4.2771	-4.0604	-4.5646	-3.925	-4.4646	-4.6104	-3.7646	-4.8646	-4.1042	-4.1083	184.077	155.642	323.710	377.445	150.240	395.007	347.612	88.609	96.368	343.987	295.787	387.941	220.549	305.383	301.194	285.924	0.00048406	0.00071034	0.00031378	1158.5	6.952e-07	9.1693e-06	1427.8	310.62	1.1053e-05	6.9757e-06	466.7	138.27	82.884	21.035	1.3592e-05	46.943	0.0047427	0.0076602	0.0021361	1136.5	7.7287e-05	8.5641e-05	1398.6	307.82	7.8228e-05	8.7956e-05	464.66	139.14	84.855	22.21	8.3495e-05	48.012	157.317	192.451	411.684	95.413	435.543	247.687	95.028	99.113	194.094	188.928	98.503	102.619	102.780	108.145	181.860	106.738	-8191	255	
57962.445	1	1	0	0	0.024925	0.36486	0.077033	0.34194	0.14271	0.089011	0.18324	0.039224	0.064252	0.22703	0.2589	0.18242	0.21533	0.21255	0.25095	0.18533	-4.35	-3.8146	-3.9917	-4.7812	-3.6917	-4.5354	-4.4104	-3.8854	-4.7604	-4.125	-4.2771	-4.7042	-3.7	-4.6354	-4.2937	-3.8625	107.869	251.264	264.888	85.937	119.195	228.258	396.078	237.539	273.807	334.599	85.131	152.690	338.255	128.432	253.713	275.939	0.00048922	0.00077961	0.00019776	1163.1	5.6754e-06	4.1617e-06	1420.6	310.03	1.7292e-05	1.1927e-05	464.59	136.57	81.464	20.73	3.3936e-06	46.253	0.0049804	0.0080412	0.0022083	1137.7	7.964e-05	8.9005e-05	1391.6	307.12	8.1128e-05	9.0225e-05	461.33	137.67	84.109	22.021	8.4139e-05	47.365	167.153	88.969	251.484	95.402	166.913	207.486	95.000	98.877	222.041	173.310	98.193	102.818	103.097	107.935	274.611	106.591	-8191	255	
57962.539	1	1	0	0	0.076977	0.19726	0.17918	0.26027	0.10774	0.022551	0.097728	0.2236	0.183	0.0093365	0.38838	0.13113	0.23889	0.18921	0.19464	0.14628	-4.4083	-3.8896	-4.0625	-4.7208	-3.7	-4.4187	-4.6958	-3.9542	-4.6229	-4.1542	-4.1813	-4.7312	-3.9208	-4.3521	-4.4958	-3.9583	267.265	169.341	440.001	89.828	151.802	237.310	106.296	275.910	273.867	229.022	432.365	104.788	89.214	397.775	176.440	363.527	0.00050652	0.00067303	0.00013484	1155.9	1.1868e-06	1.1922e-05	1421.3	311.36	2.5665e-06	5.0966e-06	465.09	137.5	82.285	20.765	1.3431e-05	47.08	0.0050742	0.0081828	0.0022401	1134.7	8.313e-05	9.199e-05	1393.2	307.45	8.6145e-05	9.5591e-05	463.75	138.79	84.966	22.193	8.5959e-05	47.983	146.958	392.839	181.531	95.204	175.733	230.730	95.112	98.873	84.456	218.716	98.414	102.612	102.653	108.262	218.538	106.498	-8191	255	
57962.660	1	1	0	0	0.14805	0.11047	0.14477	0.13602	0.14299	0.10129	0.10802	0.18475	0.1454	0.059143	0.14459	0.19979	0.080536	0.090269	0.31316	0.28287	-4.3042	-3.9604	-4.0813	-4.8354	-3.7687	-4.2708	-4.5375	-3.9104	-4.6813	-4.2271	-3.9021	-4.6438	-3.8271	-4.1937	-4.5375	-3.7125	437.026	325.677	323.388	386.721	96.417	126.349	326.784	272.649	96.977	133.406	88.693	111.716	128.205	153.061	427.237	416.139	0.00047175	0.0015954	0.00023157	1156.2	7.0443e-06	8.5873e-06	1424.9	310.7	8.3556e-06	5.5199e-06	463.83	138.28	82.8	21.053	7.16e-06	47.177	0.0050455	0.0081124	0.0022127	1136.7	8.0028e-05	8.7635e-05	1396.4	307.39	7.9992e-05	8.8491e-05	462.38	139.14	85.036	22.196	8.1083e-05	48.421	171.734	163.924	244.778	95.186	257.620	213.986	95.062	98.944	262.327	149.716	98.725	102.892	102.762	107.864	209.562	106.770	-8191	255	
57962.734	1	1	0	0	0.22009	0.1115	0.19481	0.13458	0.10743	0.17058	0.21525	0.14069	0.13593	0.13918	0.19184	0.24214	0.07708	0.19129	0.087873	0.17025	-4.3292	-4.2021	-3.8063	-4.8771	-3.8833	-4.0417	-4.6312	-3.8187	-4.2958	-4.2875	-3.95	-4.7375	-4.0667	-4.0854	-4.6875	-3.775	269.901	364.993	341.298	430.439	271.233	320.152	370.415	419.916	293.996	183.459	395.969	370.184	290.294	97.192	352.342	291.886	0.00049141	0.00023991	0.00011778	1158.3	7.3127e-07	4.2137e-06	1420	311.08	9.1344e-06	1.0284e-05	462.34	137.73	82.082	20.609	8.6914e-06	46.753	0.0049381	0.0077097	0.0021275	1135.5	7.7095e-05	8.4564e-05	1390.3	306.99	7.5225e-05	8.2571e-05	459.18	137.56	83.741	21.703	7.4182e-05	47.334	171.493	266.622	232.788	95.496	332.709	347.155	95.133	98.911	193.666	157.201	98.275	102.681	103.080	108.095	262.680	106.729	-8191	255	
57962.852	1	1	0	0	0.094215	0.11315	0.11586	0.30307	0.144	0.19111	0.19593	0.074995	0.19708	0.051672	0.13854	0.14681	0.12456	0.068217	0.12822	0.17819	-4.0833	-4.3396	-3.8417	-4.8833	-4.1687	-3.9042	-4.8125	-3.8646	-4.3208	-4.6167	-4.0354	-4.6813	-4.1542	-3.9208	-4.6396	-3.8875	394.736	301.671	373.770	388.744	141.494	253.119	86.433	310.341	126.629	209.857	391.715	330.963	428.293	366.891	256.822	385.549	0.00043312	0.00045197	0.00017188	1147.7	2.8434e-06	1.0749e-05	1409.1	305.87	5.0465e-06	8.0425e-06	458.41	136.53	81.743	20.541	2.3914e-06	46.577	0.0044736	0.0071343	0.0019394	1121.3	7.1291e-05	7.6617e-05	1371.1	302.63	6.992e-05	7.6214e-05	454.75	136.21	83.05	21.535	7.0908e-05	47.068	159.853	367.922	194.762	95.341	222.683	246.563	95.055	98.919	195.310	327.831	98.081	102.666	102.846	107.327	146.852	106.584	-8191	255	
57962.949	1	1	0	0	0.18508	0.037133	0.10588	0.1968	0.068428	0.19432	0.181	0.030456	0.31572	0.060467	0.22156	0.014361	0.12628	0.20226	0.066914	0.14076	-4.0667	-4.3708	-3.7917	-4.8958	-4.2063	-3.8667	-4.9062	-4.0125	-4.3396	-4.4938	-3.9771	-4.6937	-4.5583	-3.9375	-4.6896	-3.9896	415.960	258.190	212.949	151.770	368.077	292.739	432.056	320.927	400.251	197.756	344.956	104.468	414.414	376.174	175.494	158.243	0.00049499	8.6654e-05	0.00025766	1151.3	8.8396e-06	9.4045e-06	1416.9	310.71	4.5885e-06	1.2134e-05	462.24	137.96	82.018	20.687	7.786e-06	46.633	0.0042937	0.006708	0.0018781	1122.9	6.7845e-05	7.4535e-05	1380.2	304.77	6.811e-05	7.3649e-05	457.8	136.86	83.459	21.586	6.9449e-05	47.305	155.450	121.642	236.834	95.373	247.815	254.362	95.016	98.911	201.858	290.924	98.223	102.569	103.213	108.021	202.517	106.207	-8191	255	
57963.047	1	1	0	0	0.21035	0.035464	0.080473	0.30606	0.21315	0.17494	0.14839	0.22984	0.13969	0.079451	0.078277	0.049897	0.18507	0.089628	0.20078	0.41485	-4.0188	-4.5646	-3.7771	-4.7583	-4.3063	-3.9146	-4.8333	-4.0563	-4.0833	-4.5729	-3.8771	-4.5875	-4.5479	-3.8083	-4.6979	-4.0813	102.237	364.535	319.618	92.686	287.236	395.588	322.545	420.575	345.207	262.228	411.446	430.285	408.167	187.236	414.366	89.566	0.00052664	0.0013759	8.6007e-05	1148.6	6.2035e-06	1.1283e-05	1424.5	311.49	6.7713e-06	5.4964e-06	464.53	138.12	82.872	20.904	7.3981e-06	46.956	0.0041631	0.0065894	0.0018212	1126	6.6383e-05	7.107e-05	1383	305.5	6.3799e-05	7.0081e-05	459.34	137.55	83.861	21.686	6.5799e-05	47.315	172.474	184.409	242.968	95.479	227.504	179.805	95.224	98.989	211.189	199.333	98.350	102.771	103.153	107.786	197.070	107.033	-8191	255	
57963.141	1	1	0	0	0.10286	0.17534	0.11634	0.074307	0.12279	0.21902	0.25652	0.19401	0.27303	0.22653	0.16415	0.19078	0.17688	0.058572	0.019031	0.13201	-3.7208	-4.8292	-3.8396	-4.4271	-4.4521	-3.625	-4.7708	-4.1604	-3.9188	-4.6896	-3.9021	-4.35	-4.4604	-3.7938	-4.6354	-4.2208	422.102	270.009	125.597	335.554	254.935	112.186	422.121	398.443	269.422	145.961	430.152	327.528	171.378	408.057	296.225	315.425	0.00039641	0.0012955	0.00031164	1153.4	3.1814e-06	3.8501e-06	1410.7	310.3	7.5148e-07	2.6194e-06	461.39	136.56	81.783	20.664	4.96e-06	46.041	0.0038338	0.0061263	0.0017014	1121.3	6.1826e-05	6.9425e-05	1373.9	303.94	6.2579e-05	6.9056e-05	455.48	135.72	82.596	21.339	6.3056e-05	46.552	155.658	214.604	191.106	95.363	191.282	434.763	94.832	98.816	185.454	257.713	98.279	102.272	102.884	108.162	246.217	106.996	-8191	255	
57963.262	1	1	0	0	0.10642	0.066497	0.23874	0.11326	0.028431	0.13369	0.089224	0.043195	0.13455	0.16872	0.1218	0.16251	0.059818	0.098914	0.16886	0.14415	-3.4667	-4.5813	-3.85	-4.5229	-4.4521	-3.6833	-4.6854	-4.4167	-3.725	-4.775	-4.0458	-4.2562	-4.5292	-3.8792	-4.3604	-4.3167	352.238	399.205	88.155	394.589	414.009	291.468	335.650	415.952	111.843	135.590	182.542	359.728	322.132	327.533	236.862	229.652	0.00043433	0.0010338	0.00013447	1148.6	6.7154e-06	4.7677e-06	1413.4	309.98	3.0244e-06	6.1557e-06	461.85	136.82	82.194	20.708	4.7387e-06	46.423	0.0038183	0.0059769	0.0016602	1116	5.9809e-05	6.7273e-05	1370.6	303.42	6.0215e-05	6.5401e-05	454.78	135.73	82.68	21.335	5.9315e-05	46.808	164.566	155.166	219.637	95.089	212.767	188.747	94.961	98.950	266.626	260.079	98.566	102.448	103.309	107.758	171.705	106.626	-8191	255	
57963.359	1	1	0	0	0.11875	0.10637	0.10318	0.173	0.04968	0.13714	0.4004	0.1355	0.34807	0.10694	0.31692	0.11567	0.24339	0.23593	0.11612	0.060662	-3.3979	-4.5917	-3.7917	-4.1771	-4.6229	-3.7687	-4.5667	-4.25	-3.8563	-4.5333	-4.0354	-4.0625	-4.6958	-3.8812	-4.4667	-4.4896	330.331	125.339	247.995	400.779	247.561	257.412	367.940	335.302	283.738	330.065	387.599	328.654	117.694	420.698	358.510	138.754	0.00041803	5.5489e-05	0.00013086	1143.2	3.283e-06	2.3172e-06	1417.6	311.13	3.7807e-06	1.0243e-05	463.83	138.89	83.092	21.032	7.2767e-06	47.668	0.0034893	0.0055305	0.0015187	1115.6	5.4999e-05	6.1553e-05	1373.2	303.96	5.5541e-05	6.0692e-05	457.43	137.3	83.45	21.582	5.7332e-05	47.518	166.306	166.725	144.503	95.123	167.754	408.381	95.129	99.147	208.421	207.733	98.605	102.515	103.164	107.314	229.394	106.877	-8191	255	
57963.430	1	1	0	0	0.18214	0.086134	0.041198	0.1077	0.025193	0.16967	0.15361	0.10862	0.18106	0.20264	0.072844	0.3171	0.10473	0.13543	0.18647	0.25798	-3.4875	-4.7625	-3.9271	-4.0292	-4.5146	-3.8083	-4.4688	-4.7333	-3.8063	-4.6104	-4.3063	-3.9292	-4.6062	-3.8896	-4.2229	-4.6729	272.963	418.891	182.937	214.662	384.245	353.411	354.508	81.195	253.973	201.624	266.467	293.811	271.022	222.189	274.944	90.688	0.00044122	0.000272	0.00019977	1156.7	7.8721e-06	4.138e-06	1422.6	312.29	2.4714e-06	6.6715e-06	466.58	137.95	82.719	20.776	4.9372e-06	46.835	0.0034856	0.0054833	0.0015249	1121.8	5.4485e-05	6.2224e-05	1379.9	305.55	5.6184e-05	6.1762e-05	457.39	136.75	83.264	21.422	5.7311e-05	46.792	165.308	157.179	177.290	95.490	195.379	291.336	95.238	98.885	174.707	239.774	98.452	102.848	102.764	107.737	230.820	106.701	-8191	255	
57963.551	1	1	0	0	0.16588	0.18281	0.057632	0.080841	0.1331	0.32787	0.26362	0.077593	0.11553	0.10615	0.11337	0.19359	0.17833	0.10744	0.13403	0.18791	-3.4729	-4.4792	-4.2896	-3.9583	-4.7542	-3.9542	-4.4062	-4.5687	-3.6375	-4.4833	-4.4917	-3.7396	-4.7021	-3.9958	-4.125	-4.6417	300.384	294.584	321.973	384.306	121.854	427.536	304.877	374.537	374.778	414.796	352.092	354.415	332.162	346.819	216.448	295.406	0.00040936	0.00076297	0.00033405	1145.2	9.6206e-06	4.7327e-06	1409	309.82	4.1696e-06	1.0227e-05	462.84	136.12	82.12	20.538	5.6446e-06	46.155	0.0034835	0.0055108	0.001489	1112.9	5.4092e-05	6.079e-05	1369.1	302.38	5.5768e-05	5.9672e-05	453.49	134.79	82.485	21.086	5.6929e-05	46.251	152.996	175.506	174.658	95.082	240.087	231.799	95.140	99.057	232.177	227.425	98.268	102.406	103.031	107.618	212.959	106.836	-8191	255	
57963.645	1	1	0	0	0.14854	0.14638	0.14981	0.19932	0.095947	0.32339	0.27573	0.09699	0.20201	0.14217	0.30811	0.21937	0.15375	0.018504	0.25521	0.18683	-3.4771	-4.3812	-4.2854	-3.8458	-4.7333	-4.0771	-4.2333	-4.8333	-3.6667	-4.3125	-4.4542	-3.9125	-4.725	-3.8875	-3.7625	-4.6562	200.697	310.612	404.883	428.627	278.540	196.271	356.032	323.494	225.340	348.048	342.552	365.750	385.917	178.127	368.045	113.823	0.00037055	0.0003209	0.00011541	1147.3	1.2511e-06	7.4274e-06	1407.3	309.65	5.5043e-06	1.1602e-05	462.19	137.13	82.274	20.619	6.9902e-06	46.614	0.0034999	0.0053945	0.0014833	1116.8	5.3806e-05	5.8953e-05	1367.4	303.12	5.3545e-05	5.7796e-05	454.82	135.99	82.608	21.241	5.4447e-05	46.785	173.741	129.867	304.621	95.219	139.182	374.616	95.042	99.443	289.908	133.657	98.520	102.858	103.184	107.539	155.218	106.867	-8191	255	
57963.742	1	1	0	0	0.14829	0.069197	0.10715	0.13466	0.20092	0.11176	0.10641	0.16431	0.075711	0.12898	0.015373	0.080012	0.098673	0.16406	0.20628	0.080633	-3.2438	-4.2271	-4.3146	-3.8333	-4.5583	-4.05	-4.1438	-4.7229	-3.7917	-4.1646	-4.4667	-3.7646	-4.4292	-4.1062	-3.8917	-4.7	98.090	227.000	315.471	400.803	181.052	387.981	347.721	407.961	402.497	350.582	364.888	86.140	313.765	363.745	119.903	410.237	0.00048027	0.00096927	0.00020241	1158.2	9.8402e-06	6.2091e-06	1416.5	310.45	3.9437e-06	7.3521e-06	466.41	138.91	82.786	20.924	7.4761e-06	47.233	0.0034001	0.0052024	0.0014368	1120.9	5.2156e-05	5.7015e-05	1370.7	304.19	5.4144e-05	5.7599e-05	457.15	137.21	83.246	21.53	5.5778e-05	47.234	164.646	163.085	193.980	95.261	211.101	238.934	94.839	99.087	190.414	160.376	98.461	102.076	103.299	107.821	226.193	106.572	-8191	255	
57963.836	1	1	0	0	0.19131	0.068201	0.123	0.098785	0.07359	0.2782	0.057211	0.14695	0.16841	0.064242	0.19397	0.013065	0.29186	0.18153	0.18367	0.29772	-3.5458	-4.2438	-4.5292	-3.9583	-4.45	-4.3354	-3.9958	-4.8354	-4.0375	-3.9688	-4.7292	-3.8063	-4.4437	-4.3562	-3.7729	-4.6958	402.197	92.708	319.831	340.618	324.824	84.683	426.788	410.266	136.663	309.104	412.996	136.449	336.805	409.447	361.076	279.707	0.00050377	0.0003709	0.00016068	1147.1	3.0216e-06	5.5726e-06	1401.6	309.73	1.0369e-05	1.0028e-06	467.8	137.67	82.323	20.693	5.8175e-06	46.54	0.0033504	0.0052101	0.0014287	1115.4	5.0774e-05	5.6153e-05	1366.1	302.84	5.0292e-05	5.491e-05	455.24	135.76	82.166	21.181	5.2841e-05	46.42	155.873	174.855	147.071	95.410	222.854	278.130	95.106	99.024	255.184	209.416	98.810	102.891	102.898	107.677	186.211	106.760	-8191	255	
57963.957	1	1	0	0	0.10073	0.15658	0.21245	0.24492	0.10526	0.14642	0.1179	0.19959	0.0323	0.078648	0.13875	0.10702	0.092571	0.21889	0.16714	0.12813	-3.7458	-3.9062	-4.5979	-3.8958	-4.4	-4.4833	-4.0521	-4.7896	-4.1542	-4.0104	-4.8333	-4.0813	-4.3896	-4.4521	-3.8063	-4.6208	398.855	236.830	153.373	420.772	192.005	206.618	365.902	419.521	144.886	246.862	373.892	323.681	415.125	263.082	275.952	331.880	0.00047504	0.00035957	0.00024819	1147	7.9511e-06	2.3184e-06	1408	310.96	2.1592e-06	8.9351e-06	463.66	137.38	82.818	20.782	9.0594e-06	46.802	0.003191	0.0049624	0.0013868	1112.3	4.9982e-05	5.531e-05	1366.1	303.74	5.0703e-05	5.5588e-05	454.99	136.17	82.798	21.301	5.2649e-05	46.73	163.458	273.978	144.059	95.281	212.057	347.595	94.819	99.228	96.345	256.854	98.795	102.282	102.794	108.100	206.137	107.143	-8191	255	
57964.027	1	1	0	0	0.20135	0.15948	0.097932	0.09749	0.15038	0.14638	0.20549	0.045806	0.16687	0.032239	0.11171	0.16239	0.21393	0.18925	0.17636	0.17112	-3.9042	-3.8896	-4.6813	-4.0563	-4.3125	-4.4979	-4.0542	-4.7188	-4.225	-4.025	-4.8	-3.9917	-4.0896	-4.6083	-3.7021	-4.5729	312.898	288.682	113.635	391.227	324.176	162.159	385.923	346.075	151.323	338.173	296.874	416.462	187.839	126.005	274.552	241.002	0.00035198	0.00030483	4.6644e-05	1149.2	6.7193e-06	8.1411e-06	1411.7	310.87	7.4692e-06	6.8373e-06	466.05	139.19	83.482	21.367	1.0094e-05	47.26	0.0031921	0.0049731	0.001394	1117.6	4.9726e-05	5.5007e-05	1368.2	303.53	5.016e-05	5.4964e-05	456.53	137.16	83.389	21.578	5.2469e-05	47.358	157.355	281.424	175.902	95.122	237.577	193.640	94.817	99.236	227.734	224.859	98.451	102.673	102.930	107.774	249.240	107.163	-8191	255	
57964.125	1	1	0	0	0.11963	0.10253	0.14009	0.044202	0.046925	0.25519	0.25908	0.095962	0.042078	0.13922	0.10832	0.032089	0.071708	0.038995	0.25429	0.19106	-4.0771	-3.9313	-4.6729	-4	-4.0813	-4.5833	-3.7521	-4.4771	-4.4	-3.9271	-4.7063	-4.1979	-3.9604	-4.5312	-3.8146	-4.275	316.422	193.646	191.808	368.646	201.381	194.542	418.102	394.039	218.356	409.272	419.095	320.572	269.051	218.817	367.628	349.666	0.00045534	0.0012067	0.00016665	1151.6	5.9556e-06	6.1717e-06	1422.3	310.73	7.722e-06	6.3676e-06	468.83	138.69	83.115	21.06	7.3938e-06	46.786	0.0031412	0.0050082	0.0013767	1121.3	4.9696e-05	5.4471e-05	1377.1	304.86	5.013e-05	5.5592e-05	458.94	137.14	83.065	21.481	5.112e-05	46.781	151.884	209.372	126.654	95.537	229.486	184.444	94.833	99.412	197.707	293.253	98.423	102.933	102.867	107.969	194.092	106.821	-8191	255	
57964.223	1	1	0	0	0.36953	0.11225	0.19278	0.28428	0.11363	0.11236	0.33263	0.12207	0.32361	0.033196	0.054885	0.2227	0.17331	0.18067	0.16023	0.16926	-4.1937	-3.6167	-4.6854	-4.3229	-3.8667	-4.5687	-3.9417	-4.3333	-4.4437	-3.7354	-4.6521	-4.15	-3.8479	-4.6229	-3.8625	-4.4854	305.122	118.476	372.885	86.707	390.934	345.616	382.464	418.944	154.112	130.016	343.117	147.019	296.215	141.216	167.958	413.047	0.000385	0.00062551	0.00011776	1148.9	1.8775e-06	1.1907e-05	1406.6	310.49	9.5899e-06	2.3155e-06	462.59	137.84	82.655	20.646	3.7175e-06	46.628	0.0031422	0.0049399	0.0013547	1116.4	4.9349e-05	5.4609e-05	1366.3	302.83	5.0212e-05	5.5935e-05	454.02	136.06	82.634	21.175	5.4258e-05	46.652	159.770	265.280	180.949	95.554	216.040	194.528	95.288	98.738	239.304	256.468	98.483	102.934	103.114	107.686	165.979	106.554	-8191	255	
57964.344	1	1	0	0	0.079459	0.17917	0.15872	0.15257	0.12632	0.27399	0.22474	0.16244	0.0487	0.15684	0.078251	0.2385	0.055496	0.05937	0.0334	0.097813	-4.1667	-3.7125	-4.3875	-4.3396	-3.8646	-4.575	-4.0583	-4.2229	-4.5062	-3.6875	-4.5521	-4.3604	-3.9167	-4.6771	-3.8792	-4.0792	123.688	345.703	264.150	439.361	261.577	118.073	418.173	414.394	393.311	268.041	345.675	136.879	341.419	358.104	439.353	430.987	0.0003634	0.00060288	8.0369e-05	1157.8	6.508e-06	4.2412e-06	1412.4	310.51	2.4864e-06	9.324e-06	464.77	139.03	83.33	21.122	4.5568e-06	47.28	0.0033538	0.0053091	0.0014727	1124	5.4262e-05	5.9608e-05	1374.3	304.74	5.4775e-05	5.9333e-05	457.35	137.25	83.443	21.567	5.5838e-05	47.182	174.744	213.263	376.440	95.350	263.577	170.702	95.065	98.906	273.991	246.019	98.316	102.635	103.170	107.647	233.076	106.643	-8191	255	
57964.438	1	1	0	0	0.060576	0.24036	0.16113	0.20064	0.058147	0.038045	0.02537	0.15285	0.12193	0.099984	0.18494	0.086187	0.2308	0.21913	0.19383	0.15262	-4.4333	-3.8125	-4.4625	-4.4521	-3.7562	-4.5625	-4.3146	-4.1833	-4.5563	-3.7771	-4.4917	-4.4583	-3.9333	-4.8792	-4.0896	-4.0292	189.114	369.439	370.475	436.511	117.122	365.626	185.857	88.968	251.176	349.584	367.063	91.824	114.899	218.096	369.975	140.114	0.0004776	0.00045261	9.1017e-05	1164	6.1967e-06	4.269e-06	1425.3	312.61	1.0116e-05	3.7411e-06	463.38	139.23	83.219	21.375	8.7747e-06	47.481	0.0033606	0.0053347	0.0014655	1130	5.2929e-05	5.7268e-05	1381	305.51	5.1958e-05	5.6588e-05	458.17	137.9	83.713	21.631	5.1933e-05	47.453	171.649	226.937	211.838	95.532	299.794	284.320	94.928	98.705	188.180	246.413	98.353	102.792	103.417	107.270	251.450	106.501	-8191	255	
57964.535	1	1	0	0	0.06322	0.16394	0.16789	0.14912	0.12753	0.08475	0.22569	0.19267	0.026197	0.21661	0.14352	0.15084	0.13686	0.098302	0.3173	0.28125	-4.3646	-3.9479	-4.1125	-4.6021	-3.8521	-4.6333	-4.2646	-4.0604	-4.775	-3.7875	-4.3542	-4.6396	-3.6937	-4.5188	-4.3146	-4.0625	401.417	403.637	271.985	411.932	297.404	302.862	381.689	307.856	307.242	242.507	350.575	416.677	406.953	345.656	300.866	387.740	0.00043986	0.00049785	0.00012413	1168	4.654e-06	8.4144e-06	1422.6	311.38	4.5145e-06	7.6194e-06	464.84	138	82.759	20.63	7.7042e-06	46.426	0.0031608	0.0049603	0.00137	1127.8	4.9692e-05	5.5023e-05	1379	304.08	4.9593e-05	5.5258e-05	454.98	136.09	82.548	21.105	5.0677e-05	46.496	161.006	113.448	217.804	95.581	178.921	294.272	95.282	98.906	211.975	255.369	98.148	102.811	102.767	107.968	212.950	106.881	-8191	255	
57964.633	1	1	0	0	0.1651	0.12382	0.22499	0.23199	0.17485	0.1061	0.28895	0.20633	0.17624	0.15369	0.13755	0.31672	0.10028	0.1015	0.20873	0.28236	-4.4062	-3.9437	-3.9188	-4.7542	-3.6979	-4.475	-4.4688	-3.8187	-4.6292	-4.0542	-4.2917	-4.8167	-3.7667	-4.4313	-4.4	-3.9646	252.534	396.229	179.035	362.855	234.191	365.545	392.839	424.728	271.425	234.784	101.005	432.247	105.573	205.045	198.920	409.231	0.0004155	0.0011742	3.7013e-05	1162.4	7.9089e-06	7.6683e-06	1418.6	310.29	6.837e-06	2.9527e-06	464.14	137.76	82.456	20.717	6.257e-06	46.675	0.003101	0.0048319	0.0013227	1123.8	4.8528e-05	5.3839e-05	1374.6	303.31	4.9102e-05	5.4187e-05	454.84	136.18	82.611	21.197	5.0937e-05	46.523	172.868	132.089	178.973	95.421	222.295	306.921	95.173	99.112	177.357	235.241	98.041	102.495	102.889	107.695	219.707	106.630	-8191	255	
57964.727	1	1	0	0	0.2451	0.16362	0.10981	0.17705	0.11271	0.21203	0.34276	0.4601	0.11508	0.12805	0.25402	0.26072	0.091835	0.093235	0.098634	0.12425	-4.4667	-4.1042	-3.875	-4.6917	-3.7458	-4.3958	-4.5083	-3.7104	-4.6438	-4.1354	-4.1667	-4.6813	-3.9688	-4.1625	-4.6208	-3.8271	145.254	271.344	86.475	390.066	217.228	378.038	416.260	303.260	106.859	130.890	409.229	431.980	386.420	254.941	322.360	368.833	0.00048442	0.00096792	0.00031331	1162.1	3.9409e-06	9.2411e-06	1421.7	311.28	3.4611e-06	6.0146e-06	465.44	138.91	83.957	21.051	1.0947e-05	47.143	0.0030856	0.0048414	0.0013465	1130.7	4.984e-05	5.3593e-05	1381.2	304.13	4.9457e-05	5.4863e-05	456.57	136.77	83.313	21.417	5.2149e-05	47.049	165.476	152.104	165.074	95.270	263.247	257.907	95.140	99.109	257.863	260.235	98.230	102.310	102.904	108.236	211.547	106.785	-8191	255	
57964.824	1	1	0	0	0.023818	0.031811	0.048329	0.1011	0.078616	0.17878	0.16668	0.20238	0.045492	0.15705	0.13935	0.27786	0.034726	0.11966	0.031704	0.025358	-4.3479	-4.0188	-3.8604	-4.8562	-3.7979	-4.0625	-4.6729	-3.9271	-4.4708	-4.2167	-3.8792	-4.8042	-3.9771	-4.0646	-4.6458	-3.775	390.585	176.403	280.313	391.876	415.132	97.811	298.978	85.200	405.156	208.680	402.535	398.156	380.192	336.443	192.536	275.392	0.00050445	0.0012043	0.0002288	1162.7	9.3114e-06	3.6182e-06	1427.9	313.58	1.9763e-06	1.9028e-06	467.31	138.84	83.205	20.909	2.9642e-06	46.856	0.0031597	0.0050439	0.0014072	1132.7	5.0701e-05	5.6611e-05	1388.3	306.15	5.243e-05	5.7559e-05	458.13	137.17	83.658	21.453	5.3076e-05	46.96	169.123	162.741	134.162	95.697	256.699	124.850	95.421	98.934	246.382	331.780	98.435	102.518	102.952	107.745	183.941	106.838	-8191	255	
57964.941	1	1	0	0	0.033427	0.12741	0.14622	0.26389	0.051257	0.1706	0.39527	0.20367	0.10273	0.067562	0.025546	0.12757	0.23711	0.24164	0.13727	0.12113	-4.15	-4.4271	-3.6833	-4.7146	-3.9667	-4.2042	-4.7812	-3.8083	-4.4708	-4.5188	-3.9562	-4.7937	-4.0479	-3.9396	-4.6687	-3.9313	217.089	85.799	190.944	378.837	163.716	251.387	341.400	246.536	336.808	192.418	237.822	383.855	86.368	411.266	432.324	124.853	0.00047336	0.00070678	0.00017099	1161.7	3.4765e-06	1.0884e-05	1420.4	310.92	5.8767e-06	1.1405e-05	464.46	137.74	83.19	20.638	3.8027e-06	46.409	0.0031881	0.0049862	0.0013824	1129.8	4.9188e-05	5.423e-05	1376	303.48	4.9008e-05	5.3544e-05	454.28	135.89	82.792	21.128	5.1041e-05	46.33	164.699	131.505	212.410	95.295	383.398	291.156	95.253	99.280	219.282	224.711	98.117	102.409	103.111	107.541	192.738	106.742	-8191	255	
57965.039	1	1	0	0	0.24055	0.11727	0.12453	0.16407	0.10867	0.11364	0.29967	0.26716	0.24062	0.12614	0.046615	0.24667	0.17585	0.23931	0.12364	0.060106	-4.0687	-4.4729	-3.7979	-4.7812	-3.9667	-4.0563	-4.7812	-3.7687	-4.2375	-4.6208	-3.8333	-4.7312	-4.3396	-3.8937	-4.6146	-3.8896	216.252	217.601	367.022	86.485	155.221	82.267	353.879	436.697	134.326	255.374	339.642	409.365	410.975	408.853	315.756	388.833	0.00047888	0.0004315	5.7042e-05	1169.1	3.6954e-06	9.8929e-06	1433	311.85	1.2332e-05	6.9526e-06	464.68	139.26	83.27	21.012	5.3179e-06	47.154	0.0031106	0.0048899	0.0013503	1133.6	4.9126e-05	5.4115e-05	1384.4	305.2	4.9693e-05	5.5796e-05	455.8	136.82	83.427	21.381	5.1747e-05	46.959	154.613	174.617	103.012	95.179	255.977	222.842	95.194	98.882	219.466	244.440	98.327	102.395	103.539	107.462	242.465	106.661	-8191	255	
57965.133	1	1	0	0	0.26912	0.11541	0.16194	0.23837	0.14603	0.087808	0.40802	0.19175	0.23531	0.1926	0.038812	0.019827	0.17232	0.3871	0.059049	0.084279	-3.8688	-4.4563	-3.6125	-4.7125	-4.1458	-3.8542	-4.8333	-3.9917	-4.1542	-4.5375	-3.7625	-4.5437	-4.2646	-3.7208	-4.6813	-4.0563	187.883	174.650	236.493	355.140	134.863	396.304	400.571	413.673	385.544	247.487	352.161	410.312	378.262	419.449	239.946	318.063	0.00042228	0.00027298	0.00021846	1176.2	5.4605e-06	4.7037e-06	1439.1	314.38	1.0233e-05	5.0895e-06	469.94	139.81	83.652	21.374	1.059e-06	47.495	0.0032035	0.0050288	0.0013768	1139.3	5.0376e-05	5.5176e-05	1390.2	306.97	5.0467e-05	5.497e-05	458.92	137.76	83.773	21.743	5.1943e-05	47.571	162.426	373.452	211.430	95.322	182.743	254.984	94.988	98.767	218.810	281.128	98.420	102.413	103.144	107.927	135.188	106.816	-8191	255	
57965.254	1	1	0	0	0.016125	0.20506	0.059932	0.12565	0.095845	0.061348	0.18895	0.2028	0.19357	0.052858	0.020147	0.12858	0.078763	0.15229	0.062618	0.075436	-3.8187	-4.5417	-3.6229	-4.6167	-4.3146	-3.6333	-4.8458	-4.0437	-3.9271	-4.6458	-3.8479	-4.4	-4.5958	-3.7229	-4.6146	-4.1	153.773	107.105	164.086	346.775	298.038	228.208	388.272	379.211	202.045	334.936	332.364	438.324	373.741	430.923	222.219	221.053	0.00043514	0.0015711	0.0002467	1176.3	2.8724e-06	6.0769e-06	1433.8	315.08	7.1005e-06	6.7376e-06	469.03	137.93	83.449	20.689	3.2261e-06	46.867	0.0031608	0.0049234	0.0013512	1141.3	4.9089e-05	5.4082e-05	1388	307.24	4.9858e-05	5.3717e-05	458.45	136.66	82.975	21.306	5.0555e-05	46.69	164.581	147.594	127.534	95.310	166.619	250.977	95.063	98.924	277.709	274.826	98.584	102.130	102.494	108.042	271.493	106.876	-8191	255	
57965.324	1	1	0	0	0.072478	0.03522	0.10254	0.25009	0.12153	0.12991	0.15256	0.13503	0.076831	0.21356	0.28825	0.26375	0.17866	0.090241	0.12659	0.09799	-3.6417	-4.6396	-3.7	-4.3063	-4.4979	-3.8063	-4.6875	-4.2521	-3.8333	-4.6417	-3.85	-4.0792	-4.6125	-3.7354	-4.6854	-4.1854	343.942	275.010	209.591	329.158	373.256	212.744	367.967	154.571	285.623	211.848	395.610	338.796	421.592	119.739	197.657	377.157	0.00036999	0.00040961	0.00012507	1165	4.9058e-06	2.6735e-06	1421.2	313.26	1.8999e-06	7.3865e-06	463.91	138.1	83.443	20.725	5.4347e-06	46.516	0.0031338	0.0049357	0.0013665	1130.3	4.9799e-05	5.5124e-05	1376.7	305.14	5.0426e-05	5.4564e-05	455.32	136.21	83.088	21.264	5.0373e-05	46.587	168.764	127.427	270.764	95.470	185.185	331.195	95.211	99.160	427.338	306.550	98.156	102.743	102.874	107.470	188.659	106.437	-8191	255	
57965.422	1	1	0	0	0.104	0.297	0.061217	0.38909	0.1099	0.11616	0.24223	0.19183	0.076134	0.14454	0.12129	0.037905	0.11815	0.039727	0.24135	0.089265	-3.4771	-4.5396	-3.8521	-4.1896	-4.4479	-3.7979	-4.7708	-4.3083	-3.7229	-4.6167	-4.3542	-4.05	-4.5604	-3.7667	-4.5375	-4.425	341.133	293.167	315.081	396.116	285.376	144.892	378.399	111.506	390.884	199.361	414.012	225.529	91.696	228.742	422.144	351.084	0.00044902	0.00028242	0.00014366	1165	1.4273e-06	3.4172e-06	1433.9	313.72	2.4441e-06	8.5816e-07	468.38	138.67	83.927	21.002	8.3488e-06	47.342	0.0030803	0.0048424	0.0013456	1135.2	4.8361e-05	5.4535e-05	1382.7	306.48	5.0186e-05	5.3588e-05	457.48	136.89	83.559	21.465	5.0782e-05	47.083	161.993	165.636	92.046	95.347	163.837	304.792	94.964	99.196	277.619	218.785	97.964	102.579	103.025	107.589	255.115	106.591	-8191	255	
57965.520	1	1	0	0	0.29774	0.11138	0.11909	0.10656	0.050826	0.19885	0.18675	0.16372	0.11326	0.18989	0.13671	0.16594	0.041914	0.083566	0.074438	0.1571	-3.4792	-4.7292	-4.0167	-4.0146	-4.6208	-3.7917	-4.4854	-4.4729	-3.6813	-4.5437	-4.2042	-4.0479	-4.6292	-4.0333	-4.2354	-4.5437	185.247	257.520	323.400	337.948	113.315	331.868	386.658	351.520	253.917	401.344	100.314	375.817	266.948	92.339	363.532	353.235	0.00054245	0.00058945	0.00022246	1179.1	6.3442e-06	1.2207e-05	1437.6	316.03	7.7755e-06	3.0301e-06	467.56	139.17	84.951	21.004	1.9192e-06	46.773	0.0031455	0.0048745	0.0013619	1144	4.8751e-05	5.3941e-05	1394.5	308.48	5.0188e-05	5.4518e-05	459.11	137.35	84.102	21.425	5.1481e-05	46.834	168.877	198.471	225.441	95.240	265.225	185.016	95.176	99.060	218.680	218.651	98.500	102.257	102.811	107.466	176.297	106.488	-8191	255	
57965.637	1	1	0	0	0.24106	0.1914	0.22119	0.2773	0.1017	0.17981	0.24233	0.15059	0.20752	0.12861	0.1568	0.21878	0.058329	0.099013	0.19994	0.14263	-3.2458	-4.4271	-4.0938	-3.9708	-4.5792	-3.8125	-4.4417	-4.5958	-3.775	-4.5813	-4.3396	-3.7896	-4.8167	-3.9188	-4.0687	-4.7562	436.518	416.574	402.410	368.775	414.130	107.411	410.040	144.009	282.980	382.743	423.632	344.282	81.280	140.113	398.933	114.620	0.00042977	0.00068377	5.5856e-05	1172.7	5.7465e-06	1.0612e-05	1431.8	314.24	2.5859e-06	8.5643e-06	466.96	138.81	82.965	20.973	7.4239e-06	46.596	0.0030833	0.0047323	0.0013219	1137.6	4.7587e-05	5.2075e-05	1384.4	305.76	4.8932e-05	5.2522e-05	455.97	135.82	83.056	21.235	5.0435e-05	46.449	163.527	284.730	378.822	95.019	309.585	201.320	94.447	98.766	250.348	186.636	97.864	101.624	102.428	107.404	203.557	105.998	-8191	255	
57965.734	1	1	0	0	0.25574	0.081087	0.21514	0.16106	0.080502	0.022424	0.40176	0.23971	0.05156	0.064582	0.029426	0.31649	0.064508	0.3091	0.15199	0.10995	-3.3479	-4.5646	-4.1917	-3.8167	-4.65	-3.9375	-4.1667	-4.7333	-3.7292	-4.4521	-4.3438	-3.8	-4.575	-3.875	-4.0042	-4.6687	201.902	323.303	324.118	81.606	83.612	222.549	392.596	348.033	257.439	200.277	372.340	103.721	383.071	437.237	397.062	375.758	0.00049371	0.00062052	6.6535e-05	1181.6	2.8701e-06	6.9824e-06	1438.7	315.91	4.9205e-06	7.1454e-06	469.37	139.17	83.835	21.128	1.5589e-06	46.796	0.0031326	0.0047806	0.0013473	1138.9	4.8338e-05	5.4367e-05	1387.1	307.57	4.9512e-05	5.4124e-05	457.93	137.01	83.526	21.444	5.1752e-05	46.887	163.023	98.383	159.337	94.810	256.508	267.100	94.299	98.577	185.934	310.377	98.273	101.855	102.868	107.281	253.162	106.160	-8191	255	
57965.828	1	1	0	0	0.10937	0.09273	0.16658	0.14826	0.13596	0.086616	0.23198	0.1229	0.18042	0.039923	0.35942	0.049616	0.017513	0.087967	0.014497	0.084741	-3.4708	-4.2937	-4.3688	-3.9125	-4.5333	-4.1625	-4.0479	-4.725	-3.7875	-4.1937	-4.425	-3.5979	-4.5333	-4.0917	-3.8271	-4.5896	306.671	260.379	86.287	131.786	408.105	176.613	395.137	345.032	93.415	211.121	365.107	223.011	305.855	362.902	198.730	101.057	0.00049842	0.00037001	4.7143e-05	1183.3	5.8248e-06	1.3955e-05	1443.8	315.75	6.1504e-06	9.1103e-06	469.82	140.58	84.495	21.349	4.7035e-06	47.551	0.0032308	0.0051103	0.0014386	1146.4	5.2757e-05	5.9136e-05	1394.7	309.02	5.5175e-05	6.009e-05	461.63	138.19	84.592	21.866	5.5071e-05	47.578	173.848	131.485	206.721	94.681	274.551	214.289	94.580	98.839	256.701	248.804	97.943	102.031	102.743	107.118	245.040	106.364	-8191	255	
57965.902	1	1	0	0	0.1565	0.15996	0.073875	0.36684	0.069444	0.080303	0.37016	0.14651	0.16799	0.097948	0.085649	0.12556	0.064093	0.080023	0.18935	0.23236	-3.3667	-4.1667	-4.4583	-3.7042	-4.5437	-4.25	-3.7729	-4.7812	-3.9271	-4.0563	-4.625	-3.7792	-4.5146	-4.3562	-3.8354	-4.8271	215.242	235.435	85.112	408.483	347.957	369.885	418.883	305.922	230.492	341.863	408.756	286.813	377.205	92.905	393.979	333.334	0.000499	0.0006834	0.00011776	1187.4	6.9283e-06	2.7181e-06	1449.7	315.14	6.4577e-06	7.63e-06	463.7	137.59	83.613	21.057	3.4889e-06	46.363	0.0033122	0.0051807	0.0014259	1148.9	5.1072e-05	5.7121e-05	1393.9	307.61	5.252e-05	5.7894e-05	456.71	136.42	83.621	21.418	5.3624e-05	46.45	163.468	139.959	181.351	94.707	162.889	257.135	94.537	98.883	304.016	341.628	98.638	102.599	102.698	108.201	177.417	106.838	-8191	255	
57966.023	1	1	0	0	0.0097127	0.16163	0.035906	0.13322	0.25064	0.1824	0.092588	0.288	0.090444	0.077198	0.16456	0.11252	0.21372	0.26753	0.25863	0.1522	-3.6	-4.025	-4.5042	-3.9375	-4.4	-4.4167	-3.9375	-4.8812	-4.0062	-4.0167	-4.7271	-3.7958	-4.5	-4.4833	-3.7167	-4.5875	433.181	127.897	311.086	377.547	362.546	85.283	384.910	360.139	402.328	279.604	236.196	346.004	91.414	429.537	126.605	426.202	0.0004725	0.0010195	0.00015276	1172.3	4.9066e-06	3.0856e-06	1422.1	314.22	7.6185e-06	2.8047e-06	464.49	137.6	83.359	20.762	3.2719e-06	46.518	0.0032573	0.0051654	0.0014028	1137.8	5.1028e-05	5.6614e-05	1380.2	306.15	5.1637e-05	5.6451e-05	456.92	136.14	83.499	21.303	5.387e-05	46.416	162.603	104.009	329.790	95.259	245.479	266.890	95.063	99.030	240.519	155.026	98.551	102.204	102.464	107.151	188.615	106.570	-8191	255	
57966.117	1	1	0	0	0.13768	0.11604	0.035656	0.27046	0.12534	0.11651	0.22599	0.12565	0.036978	0.12928	0.29589	0.20611	0.065749	0.089073	0.25449	0.19677	-3.7521	-3.9104	-4.7042	-3.8958	-4.1771	-4.5687	-3.8125	-4.6271	-4.2333	-4.0479	-4.6021	-4.025	-4.2479	-4.5146	-3.8917	-4.6104	174.220	119.365	367.431	440.766	355.103	125.849	367.987	386.001	111.923	139.755	413.222	283.398	435.039	415.747	401.428	352.630	0.00053749	0.00073851	0.00020336	1183.5	3.5686e-06	1.3736e-06	1431.5	316.58	3.2961e-06	9.2974e-06	464.56	138.14	83.876	20.979	4.2933e-06	46.919	0.0033564	0.0051911	0.0014182	1143.9	5.1967e-05	5.6995e-05	1389.4	308.66	5.2477e-05	5.7889e-05	458.08	136.72	83.993	21.57	5.4773e-05	46.817	160.261	176.698	231.569	95.168	292.639	141.464	94.898	99.075	164.402	255.624	98.708	102.224	103.213	108.356	275.093	106.143	-8191	255	
57966.215	1	1	0	0	0.18631	0.055909	0.089686	0.15502	0.1809	0.18509	0.21099	0.20511	0.20245	0.15168	0.056033	0.082292	0.39437	0.053698	0.20522	0.091602	-4.0417	-3.9146	-4.5542	-3.9104	-3.9458	-4.4896	-3.8375	-4.6458	-4.0646	-3.5521	-4.6896	-4.0188	-3.9875	-4.5542	-3.6167	-4.5479	92.372	197.764	210.189	421.800	179.985	169.306	414.788	330.551	250.887	383.140	360.770	419.238	115.326	294.270	104.786	294.372	0.00049185	0.00046073	8.0442e-05	1182.3	7.1271e-06	6.9478e-06	1441	316.75	2.7753e-07	1.0101e-05	469.85	139.75	84.758	21.34	6.7937e-06	47.035	0.0033718	0.0053327	0.0014643	1149.1	5.3658e-05	5.9583e-05	1397	310.03	5.4788e-05	5.9721e-05	460.79	137.93	84.503	21.671	5.5604e-05	46.797	174.095	433.004	110.746	95.347	269.384	171.132	94.987	98.905	320.183	245.717	98.177	102.423	102.926	107.786	185.929	106.693	-8191	255	
57966.336	1	1	0	0	0.10327	0.40353	0.057914	0.23982	0.16117	0.06347	0.18414	0.081675	0.30343	0.090798	0.1507	0.063536	0.12875	0.13847	0.083737	0.19978	-3.925	-3.8396	-4.5833	-4.0271	-3.9813	-4.5771	-3.9188	-4.3458	-4.4042	-3.8771	-4.7125	-4.2042	-4.0563	-4.725	-3.775	-4.1625	224.986	313.104	156.720	385.843	322.866	374.115	369.031	295.875	158.425	106.037	378.451	394.927	382.158	324.432	305.407	317.012	0.000384	0.0010845	0.0001558	1176.7	4.2805e-06	9.5736e-06	1431.2	315	3.0559e-06	7.1571e-06	465.74	138.46	83.303	20.594	5.8175e-06	46.107	0.0033485	0.0051379	0.0014325	1143.8	5.1611e-05	5.6967e-05	1385.8	307.55	5.2848e-05	5.7206e-05	457.36	135.99	83.58	21.196	5.4093e-05	46.311	167.282	214.603	286.621	95.422	228.528	243.454	95.158	99.012	164.932	219.132	98.268	102.595	102.982	107.939	259.360	106.515	-8191	255	
57966.430	1	1	0	0	0.026674	0.14314	0.19284	0.25698	0.13388	0.024087	0.26582	0.08532	0.12602	0.29946	0.35342	0.054366	0.1971	0.1573	0.13548	0.032694	-4.2	-3.6312	-4.5229	-4.2854	-3.9042	-4.5604	-3.9333	-4.2021	-4.4167	-3.6021	-4.5104	-4.3521	-3.975	-4.7312	-3.9958	-4.1583	250.575	228.393	401.145	370.341	270.598	316.710	411.066	306.633	182.310	112.560	355.765	129.353	80.890	410.713	118.421	365.468	0.00046292	0.00041917	0.00024319	1182.7	9.1057e-06	3.9077e-06	1425.8	316.19	3.5927e-06	3.1346e-06	468.94	138.64	83.679	21.06	4.0701e-06	46.684	0.0032945	0.0051331	0.0014404	1140.8	5.2736e-05	5.6398e-05	1384.2	307.83	5.2323e-05	5.7062e-05	459.24	136.95	84.014	21.518	5.5873e-05	46.644	162.696	222.378	158.101	95.614	226.987	175.528	95.065	98.757	235.136	162.937	98.399	101.941	102.687	107.677	285.219	106.428	-8191	255	
57966.527	1	1	0	0	0.042836	0.14052	0.1445	0.29957	0.079261	0.14934	0.2833	0.2653	0.11932	0.072764	0.20789	0.13877	0.046064	0.27871	0.2495	0.26096	-4.3875	-3.6667	-4.3729	-4.2896	-3.7333	-4.6458	-4.2188	-4.0583	-4.6458	-3.6813	-4.5208	-4.4854	-3.7083	-4.6625	-3.9771	-4.0542	109.839	85.160	309.511	351.477	168.309	164.661	388.379	335.222	253.592	379.627	85.874	381.286	346.396	362.920	107.694	227.562	0.00053463	0.00091281	0.00015708	1177.6	8.5247e-06	6.5728e-06	1430.6	318.59	6.1155e-06	1.3605e-05	468.59	139.59	84.306	21.402	5.2958e-06	47.113	0.0033419	0.0052	0.0014741	1144.7	5.213e-05	5.8072e-05	1389.6	310.1	5.2679e-05	5.757e-05	460.65	137.73	84.303	21.814	5.6521e-05	47.342	155.192	231.330	168.902	95.365	206.519	201.423	94.730	98.907	220.868	229.027	98.338	102.700	103.252	108.141	181.365	106.844	-8191	255	
57966.621	1	1	0	0	0.19682	0.25373	0.13704	0.11609	0.15059	0.057073	0.21833	0.17414	0.0049363	0.13987	0.091913	0.060725	0.044707	0.067467	0.045424	0.10706	-4.4042	-3.7146	-4.1646	-4.5062	-3.7125	-4.5417	-4.2667	-4.0104	-4.6104	-3.6667	-4.3104	-4.4667	-3.775	-4.4042	-4.0938	-4.1396	426.378	263.972	329.662	81.068	354.720	424.954	389.358	398.325	123.814	348.071	112.668	134.187	163.896	329.566	256.504	316.444	0.0005275	0.00032143	0.00039031	1193.5	7.8271e-06	1.2594e-05	1436.1	317.11	5.3115e-06	7.8673e-06	469.26	138.99	83.025	20.935	4.2555e-06	46.304	0.0033814	0.0053442	0.0015015	1154.2	5.3691e-05	5.9908e-05	1393	310.35	5.4134e-05	5.9957e-05	460.15	137.32	83.915	21.519	5.6173e-05	46.562	165.605	435.340	215.135	95.295	271.367	201.002	95.348	98.876	268.282	343.976	98.803	103.192	102.679	107.689	237.179	106.372	-8191	255	
57966.719	1	1	0	0	0.074998	0.056671	0.0357	0.25195	0.098105	0.2107	0.19704	0.10619	0.059185	0.17673	0.24101	0.21495	0.10007	0.23931	0.097691	0.17854	-4.2833	-3.8854	-4.1125	-4.6396	-3.6729	-4.5417	-4.3562	-3.9688	-4.5958	-4.0083	-4.2208	-4.6	-3.8167	-4.5917	-4.225	-3.9125	149.126	402.494	290.659	435.775	255.890	437.341	405.862	439.195	83.011	301.613	371.831	189.355	361.469	122.745	359.839	336.357	0.00045043	0.00095784	0.00019821	1180.4	9.5551e-06	4.9102e-07	1428.2	315.8	6.791e-06	9.9939e-06	465.5	137.62	83.592	21.087	8.0116e-06	46.235	0.0033812	0.0054519	0.0014879	1144	5.3671e-05	6.1379e-05	1383.8	307.68	5.5262e-05	6.0605e-05	457.72	136.02	83.78	21.461	5.7565e-05	46.369	170.472	215.470	229.582	95.510	223.335	267.027	94.989	98.770	171.305	253.252	98.473	102.389	102.987	107.440	279.798	106.474	-8191	255	
57966.812	1	1	0	0	0.15093	0.043917	0.36155	0.3543	0.16174	0.1576	0.10037	0.0715	0.14714	0.23838	0.048851	0.23523	0.33263	0.20961	0.025642	0.10239	-4.3792	-3.8792	-4.0917	-4.6417	-3.8375	-4.375	-4.6021	-3.8063	-4.6604	-4.0354	-4.2542	-4.7458	-3.7479	-4.35	-4.5458	-3.8417	438.372	178.355	288.308	440.513	126.586	160.641	420.544	349.483	259.374	177.156	125.810	401.237	391.880	395.858	246.100	431.871	0.00048099	0.00055659	0.00031284	1177	9.3194e-06	8.7426e-06	1433.4	319.52	1.0844e-05	2.6213e-06	465.49	138.83	83.191	20.859	1.1823e-05	46.88	0.003497	0.005477	0.0015365	1144.5	5.436e-05	6.1137e-05	1391.6	310.19	5.5687e-05	6.2062e-05	459.65	137.16	84.221	21.616	5.9078e-05	46.868	165.545	147.215	173.334	95.260	217.366	288.579	95.200	99.115	260.539	92.571	98.239	102.735	103.142	107.847	217.284	106.567	-8191	255	
57966.934	1	1	0	0	0.097647	0.11471	0.14116	0.12173	0.049071	0.18078	0.23035	0.040423	0.15069	0.28343	0.4349	0.074641	0.29252	0.137	0.10984	0.15763	-4.2521	-4.2188	-3.8583	-4.8438	-3.6229	-4.2812	-4.6146	-3.8646	-4.6188	-4.0979	-4.0125	-4.6854	-3.825	-4.1188	-4.5625	-3.6646	328.700	112.671	277.193	95.111	387.954	211.663	405.332	338.626	376.927	93.603	358.923	211.513	427.615	114.179	271.735	359.393	0.00049176	0.0007754	0.00014306	1184.6	3.4851e-07	9.3672e-06	1430.7	319.75	7.8007e-06	1.4451e-06	470.8	138.36	83.857	21.118	6.9311e-06	46.576	0.0036031	0.0057278	0.0015957	1154.4	5.8277e-05	6.4047e-05	1395.6	312.09	5.8795e-05	6.4761e-05	463.55	137.9	84.976	21.807	5.9443e-05	46.982	172.862	189.824	132.048	95.344	335.921	207.842	95.398	98.783	222.251	277.016	98.287	102.423	103.038	108.136	287.917	106.363	-8191	255	
57967.031	1	1	0	0	0.14599	0.12522	0.17183	0.22544	0.12288	0.24153	0.27647	0.23478	0.055263	0.18822	0.094266	0.1149	0.16058	0.13511	0.015005	0.080263	-4.0687	-4.3979	-3.9021	-4.9396	-3.9542	-4.1667	-4.775	-3.8438	-4.5167	-4.2854	-3.9604	-4.85	-4.025	-4.1167	-4.5833	-3.8292	210.761	405.439	372.397	432.815	348.132	184.083	177.422	358.996	361.031	325.884	202.909	360.172	434.284	404.668	240.703	266.802	0.0004126	0.00081995	7.4302e-05	1188.4	6.9858e-06	3.2144e-06	1428.3	315.86	4.6598e-06	9.4959e-06	466.33	137.23	83.077	20.731	1.5907e-05	46.042	0.0036201	0.0057269	0.0015755	1151.2	5.7896e-05	6.3162e-05	1389.2	309.46	5.8083e-05	6.3092e-05	458.26	136.27	83.893	21.43	5.8308e-05	46.237	164.204	222.732	116.963	95.468	337.353	272.223	95.131	98.983	253.578	284.830	98.416	102.375	102.845	107.938	272.222	106.538	-8191	255	
57967.129	1	1	0	0	0.19541	0.2369	0.062785	0.08802	0.052667	0.16506	0.20767	0.19885	0.088077	0.1753	0.072295	0.12193	0.23934	0.079726	0.22809	0.24639	-4.0125	-4.2417	-3.7812	-4.8125	-4.0917	-4.1104	-4.6937	-3.8333	-4.1958	-4.4021	-4.0312	-4.7042	-4.0854	-4.0354	-4.7104	-3.8354	330.003	362.873	254.697	345.268	151.021	226.874	358.475	410.348	381.432	435.792	121.723	423.488	362.594	212.357	169.232	124.824	0.00044929	0.00076037	0.00012812	1175.5	5.5971e-06	8.9764e-07	1432	314.76	7.1893e-06	4.5357e-06	466.08	138.21	84.483	20.984	7.2877e-06	46.551	0.0035597	0.0055797	0.0015284	1146.4	5.6179e-05	6.2388e-05	1388.9	309.09	5.6807e-05	6.133e-05	458.95	136.73	84.457	21.619	5.778e-05	46.736	171.194	163.950	159.038	95.663	169.304	394.537	94.983	98.890	126.493	242.947	98.167	102.397	103.250	107.770	233.549	106.648	-8191	255	
57967.199	1	1	0	0	0.10037	0.06406	0.15381	0.27814	0.21808	0.16029	0.18072	0.122	0.098556	0.1038	0.26987	0.44628	0.19727	0.19751	0.11443	0.21801	-3.9083	-4.5625	-3.7708	-4.6	-4.1625	-3.8937	-4.725	-3.9104	-4.0437	-4.4792	-3.8479	-4.5813	-4.1271	-3.7938	-4.6312	-4.0021	305.938	120.218	150.603	361.761	160.633	97.865	338.336	440.117	235.055	314.499	413.822	426.255	108.414	310.239	225.208	388.432	0.00045034	0.00069028	0.00023281	1180	7.6489e-06	6.4804e-06	1431.5	317.15	2.9242e-06	4.286e-06	472	138.49	84.862	21.346	2.6296e-06	47.512	0.0035942	0.0056085	0.0015264	1148.7	5.6878e-05	6.248e-05	1392.8	311.09	5.8328e-05	6.3007e-05	463.04	138.08	85.094	21.893	6.0008e-05	47.519	170.356	183.931	201.014	95.172	215.337	256.556	95.136	99.428	249.300	204.543	98.504	102.447	102.814	107.158	275.158	106.792	-8191	255	
57967.297	1	1	0	0	0.17085	0.017844	0.034241	0.11696	0.15264	0.080751	0.19414	0.29192	0.14092	0.12947	0.31	0.12543	0.24237	0.10841	0.1642	0.14792	-3.6937	-4.6479	-3.525	-4.6062	-4.2812	-3.8396	-4.7917	-4.1896	-4.0583	-4.5396	-4.1271	-4.5667	-4.5292	-3.9958	-4.575	-4.1562	364.014	151.257	381.209	92.699	217.489	327.019	426.571	354.633	109.221	344.754	379.403	358.970	431.984	400.022	356.392	286.900	0.00054281	0.0010859	9.9044e-05	1186.7	9.6952e-06	8.5888e-06	1439.1	315.73	2.0828e-06	1.4991e-06	469.68	139.05	83.871	20.935	6.9184e-06	46.635	0.0036348	0.0057179	0.0016136	1155.5	5.8029e-05	6.353e-05	1396.9	311.11	5.9333e-05	6.4257e-05	461.7	137.61	84.679	21.616	6.0305e-05	46.744	162.580	151.772	230.529	95.396	245.487	275.487	95.362	98.957	97.387	258.049	98.205	102.399	103.364	107.420	187.257	106.523	-8191	255	
57967.414	1	1	0	0	0.22877	0.078699	0.11313	0.11854	0.11173	0.055729	0.1724	0.0049933	0.20434	0.16517	0.21301	0.34853	0.281	0.19273	0.080496	0.18028	-3.6792	-4.5542	-3.7771	-4.6208	-4.425	-3.8187	-4.7312	-4.25	-4.0229	-4.7375	-3.9292	-4.3521	-4.625	-3.8146	-4.5229	-4.3688	418.886	138.069	154.086	238.825	165.755	204.172	395.045	366.190	163.094	281.760	372.511	376.778	372.648	256.812	198.186	210.607	0.00052351	0.00033197	0.00023866	1177.2	3.3744e-06	4.1993e-06	1421.2	314.11	5.705e-06	4.7787e-06	466.28	137.22	84.186	20.89	4.1479e-06	46.068	0.0036191	0.0056145	0.0015733	1143.5	5.617e-05	6.1467e-05	1383.5	309.03	5.6627e-05	6.1012e-05	458.02	136.06	83.914	21.442	5.8812e-05	46.398	153.222	140.747	169.562	95.359	306.148	404.458	95.022	98.973	136.506	315.912	98.394	102.398	103.248	108.752	183.434	106.455	-8191	255	
57967.512	1	1	0	0	0.11186	0.24029	0.18078	0.189	0.15688	0.25526	0.16882	0.02108	0.1956	0.14628	0.17094	0.048023	0.084793	0.18486	0.18507	0.20001	-3.6167	-4.6896	-3.8271	-4.2521	-4.4187	-3.7812	-4.7667	-4.3729	-3.8896	-4.6083	-4.075	-4.2958	-4.4812	-3.7042	-4.3	-4.3729	409.571	310.292	110.921	405.304	270.273	113.509	326.534	296.705	203.948	417.909	192.006	291.258	284.677	93.275	417.051	297.867	0.00049479	0.00060281	9.3745e-05	1185.1	4.3707e-06	5.9638e-06	1428.3	316.71	2.2256e-06	9.0148e-06	470.66	138.51	84.861	20.818	3.2699e-06	46.666	0.0035789	0.0055356	0.0015759	1148.2	5.5814e-05	6.3328e-05	1388.6	310.17	5.7023e-05	6.1555e-05	461.67	136.87	84.724	21.603	5.9829e-05	46.916	161.158	296.710	151.143	95.476	328.323	249.948	95.057	98.889	159.961	331.408	98.295	102.438	102.874	108.164	414.288	107.007	-8191	255	
57967.609	1	1	0	0	0.13809	0.1677	0.21522	0.3158	0.13153	0.15698	0.12986	0.054776	0.10507	0.13356	0.28183	0.048409	0.018872	0.1675	0.11511	0.31549	-3.3833	-4.5646	-3.9042	-4.1937	-4.575	-3.8667	-4.6083	-4.5958	-3.6917	-4.6438	-4.2271	-4.05	-4.6146	-3.8854	-4.4333	-4.5083	339.284	363.338	440.148	401.508	335.716	287.596	368.766	123.284	133.955	427.693	400.635	388.179	120.485	401.904	212.891	388.932	0.0004372	0.00061441	0.00021278	1182	1.7593e-06	1.0217e-05	1438.5	318.63	1.0061e-05	9.3931e-07	469.42	140.38	84.593	21.107	7.8345e-06	46.808	0.0036221	0.0056705	0.0015979	1153.2	5.7956e-05	6.5351e-05	1397.7	313.21	6.0743e-05	6.8161e-05	464.07	138.87	85.524	21.989	6.5311e-05	47.429	154.063	168.009	289.682	95.380	320.565	202.847	95.024	99.154	251.066	202.073	98.191	102.628	103.357	107.806	236.497	106.480	-8191	255	
57967.727	1	1	0	0	0.25601	0.025571	0.28592	0.18407	0.25589	0.080202	0.27168	0.4409	0.1411	0.062821	0.19021	0.32748	0.088561	0.077335	0.12179	0.15415	-3.4646	-4.6687	-3.9479	-4.1792	-4.75	-3.9167	-4.3313	-4.5667	-3.6896	-4.4604	-4.4708	-4.0292	-4.6875	-3.9271	-4.2833	-4.6312	202.155	248.727	231.780	374.230	137.059	389.027	379.908	372.556	298.335	205.144	363.730	92.320	222.262	419.034	389.175	405.172	0.00042284	0.00048356	0.00032062	1188	9.0111e-06	4.0187e-06	1441.3	318.65	6.9731e-06	5.2487e-06	468.64	137.57	84.766	21.182	4.2296e-06	46.063	0.0039251	0.0062138	0.0017516	1156.7	6.2213e-05	7.1065e-05	1400.2	312.91	6.5495e-05	7.3127e-05	462.62	137.43	85.478	21.808	7.1122e-05	46.599	153.060	440.920	202.143	95.256	215.864	195.277	94.966	98.986	138.732	326.319	98.427	102.464	103.043	108.203	142.059	106.501	-8191	255	
57967.801	1	1	0	0	0.10016	0.2464	0.29451	0.10935	0.16213	0.10748	0.15684	0.1152	0.079803	0.061594	0.19909	0.14472	0.097707	0.093381	0.0046694	0.14857	-3.3792	-4.5604	-4.2708	-3.9625	-4.5833	-3.9875	-4.2667	-4.7312	-3.775	-4.5792	-4.4917	-3.9292	-4.6854	-3.975	-3.8771	-4.7146	143.861	283.929	133.823	412.246	98.498	127.856	371.936	405.354	218.815	267.786	422.432	333.757	417.318	95.699	176.547	357.115	0.00053026	0.00092405	3.2548e-05	1188.2	4.1737e-06	1.1884e-06	1435.6	317.98	2.8804e-06	5.322e-06	469.09	138.34	84.492	21.238	7.1429e-06	46.42	0.0043438	0.00697	0.0019121	1162.4	6.9005e-05	7.8507e-05	1402.4	313.64	7.1464e-05	7.7867e-05	463.84	137.79	85.726	22	7.2054e-05	47.11	169.334	149.065	270.294	95.510	284.587	235.543	95.434	98.954	256.129	171.895	98.517	102.516	103.195	107.746	264.864	106.779	-8191	255	
57967.895	1	1	0	0	0.032747	0.017811	0.12081	0.11352	0.19003	0.091405	0.17075	0.14266	0.2664	0.079036	0.076648	0.076876	0.063301	0.11025	0.23834	0.22411	-3.4625	-4.4021	-4.4938	-3.9167	-4.7063	-4.1062	-4.1542	-4.7729	-3.7812	-4.2771	-4.5312	-3.9396	-4.5292	-4.1083	-3.9167	-4.725	343.085	246.037	161.769	417.593	259.302	138.535	345.833	386.576	390.534	275.414	403.508	104.585	350.362	84.528	211.567	96.586	0.00053363	0.00079605	0.00018401	1187.8	4.9348e-06	1.3076e-05	1437.7	319.04	7.1287e-06	8.7458e-06	468.73	139.13	84.638	21.179	7.1187e-06	47.292	0.0043699	0.0069108	0.001877	1162.3	6.9704e-05	7.7558e-05	1403.9	314.61	7.2464e-05	7.8279e-05	465.1	138.79	86.308	22.263	7.2949e-05	47.824	164.207	266.444	170.761	95.229	267.446	213.306	94.971	98.993	317.011	241.508	98.224	102.122	102.540	107.861	312.030	106.755	-8191	255	
57968.016	1	1	0	0	0.036715	0.040704	0.1569	0.28961	0.34276	0.17106	0.29143	0.065927	0.056116	0.12033	0.20048	0.26185	0.25554	0.022781	0.1561	0.071367	-3.5729	-4.1937	-4.3771	-3.9562	-4.4125	-4.1208	-3.9146	-4.5958	-3.7625	-4.1292	-4.4875	-3.7583	-4.5792	-4.2271	-3.8146	-4.6813	244.629	228.228	305.362	84.171	263.095	359.775	287.033	145.287	236.934	436.810	336.998	204.425	406.293	311.595	321.417	421.202	0.00054883	0.00060951	0.0001712	1198.9	9.1261e-06	1.0895e-05	1449.3	319.84	3.606e-06	5.3644e-06	469.91	138.77	83.915	20.889	7.9159e-07	46.541	0.0044862	0.0070172	0.0019329	1168	7.0695e-05	7.797e-05	1407.8	315.14	7.1867e-05	7.6867e-05	464.98	138.24	85.537	21.928	6.8716e-05	47.174	159.323	172.994	112.991	95.329	164.385	241.196	94.910	98.870	268.108	261.222	98.359	102.421	102.790	107.572	305.563	106.819	-8191	255	
57968.109	1	1	0	0	0.14863	0.15196	0.18865	0.16787	0.060649	0.048077	0.041059	0.20496	0.24752	0.13502	0.18452	0.087687	0.21517	0.2421	0.16546	0.070466	-3.5396	-3.9792	-4.5583	-3.9188	-4.5771	-4.3083	-3.6937	-4.8208	-3.9062	-3.9562	-4.8208	-3.7729	-4.2708	-4.3917	-3.7375	-4.5479	251.352	189.388	343.232	176.267	191.369	187.557	263.772	283.769	96.379	195.654	87.207	359.058	138.251	411.966	425.834	327.750	0.00055326	0.00053958	0.00026301	1184.8	6.2891e-06	2.6548e-06	1428.6	315.99	4.0166e-06	7.5581e-06	464.58	137.55	83.718	20.816	8.1885e-06	46.478	0.0041303	0.0064555	0.001787	1151.2	6.4932e-05	7.1009e-05	1389.4	310.96	6.4915e-05	7.0363e-05	459.78	136.77	84.668	21.698	6.4775e-05	46.691	162.549	164.697	187.480	95.121	201.091	264.776	94.983	99.334	218.627	268.411	98.309	102.331	102.871	107.893	215.789	106.514	-8191	255	
57968.207	1	1	0	0	0.1171	0.20678	0.040994	0.13057	0.079494	0.14851	0.15926	0.032458	0.19133	0.049699	0.13092	0.20479	0.085006	0.12463	0.21518	0.070057	-3.7833	-3.8375	-4.6562	-3.975	-4.2937	-4.3333	-3.9292	-4.8625	-4.0146	-3.9062	-4.7021	-3.675	-4.3	-4.4313	-3.7188	-4.6188	304.755	118.768	219.777	110.333	115.089	94.292	438.693	102.227	136.154	242.962	100.480	373.759	371.256	424.793	222.552	312.615	0.00052772	0.00029729	0.00020516	1188.3	5.5932e-06	3.9767e-06	1435.1	318.59	3.5811e-06	1.3506e-05	468.49	138.95	84.183	21.401	3.0367e-06	46.768	0.0039406	0.0061993	0.0016899	1152.3	6.2104e-05	6.9088e-05	1395.2	312.31	6.3624e-05	6.9599e-05	462.13	137.83	85.141	21.96	6.5992e-05	47.192	165.858	426.919	188.836	95.548	159.787	265.232	95.154	99.242	251.538	238.715	98.242	102.366	102.566	107.971	242.984	106.702	-8191	255	
57968.305	1	1	0	0	0.14512	0.23937	0.014344	0.23924	0.092578	0.044657	0.21105	0.061808	0.1697	0.09723	0.13926	0.28484	0.15062	0.12609	0.16606	0.074163	-3.9458	-3.9271	-4.5917	-3.95	-4.1771	-4.4313	-3.9562	-4.5542	-4.0604	-3.7583	-4.6583	-4.0708	-4.1292	-4.5958	-3.5708	-4.3896	215.807	403.896	250.438	334.928	207.594	83.061	85.242	423.701	117.760	95.014	105.408	419.260	89.485	376.217	83.683	355.572	0.00039583	0.00058356	0.00015041	1185.9	6.7497e-06	7.6565e-06	1438.6	320.04	1.9294e-06	4.4587e-06	470.69	139.85	84.823	21.595	8.6507e-06	47.319	0.003997	0.0062213	0.0017247	1155.4	6.2804e-05	6.9059e-05	1398.1	312.93	6.4909e-05	7.03e-05	464.98	139.16	86.122	22.248	6.9252e-05	47.82	173.941	102.748	129.684	95.310	235.635	149.740	94.812	98.923	134.418	306.329	98.289	102.533	102.904	107.839	170.531	106.403	-8191	255	
57968.426	1	1	0	0	0.0942	0.12511	0.047014	0.29366	0.25797	0.046344	0.15338	0.23236	0.14875	0.11835	0.17143	0.14529	0.10152	0.33315	0.20829	0.33044	-4.0396	-3.6312	-4.4396	-4.1479	-4.0625	-4.4563	-3.95	-4.3562	-4.2896	-3.8708	-4.7083	-4.0771	-3.9208	-4.5312	-3.6646	-4.425	407.218	440.558	176.872	430.877	382.008	303.694	309.148	418.962	92.319	157.860	221.180	317.417	238.265	91.078	132.077	366.902	0.00049727	0.00093407	0.00019491	1188.9	8.1784e-06	5.4924e-06	1443.6	318.1	6.2319e-06	9.3749e-06	465.24	138.04	83.37	20.96	7.0429e-06	46.096	0.004107	0.0065694	0.0018427	1160.2	6.6342e-05	7.2163e-05	1400.8	313.05	6.6568e-05	7.3544e-05	460.81	137.53	85.163	21.846	7.0185e-05	46.685	159.568	82.178	86.335	95.575	153.669	260.968	95.009	99.114	270.787	221.541	98.278	102.334	102.912	107.087	299.188	107.151	-8191	255	
57968.496	1	1	0	0	0.1808	0.16768	0.25803	0.21325	0.027505	0.10914	0.095112	0.24442	0.27194	0.12462	0.040726	0.049469	0.17312	0.045577	0.22161	0.22762	-3.9625	-3.6396	-4.5771	-4.2792	-3.9313	-4.6937	-4.175	-4.25	-4.4146	-3.7833	-4.5667	-4.2625	-3.8083	-4.5896	-3.8729	-4.2208	97.752	368.033	424.872	373.612	217.832	206.573	273.010	348.548	282.462	178.192	362.249	423.652	95.175	282.221	144.382	259.153	0.00047852	0.00047422	0.00017573	1185.8	7.3352e-06	1.9323e-05	1433.9	318.25	3.0251e-06	2.7017e-06	467.53	137.95	84.182	20.97	7.0533e-06	46.223	0.0040875	0.0065008	0.0018292	1153.8	6.4816e-05	7.1503e-05	1396.1	312.08	6.4514e-05	7.2924e-05	462.03	137.14	84.962	21.775	6.753e-05	46.796	172.745	217.318	142.425	95.397	222.504	227.886	94.735	99.425	292.668	224.650	98.237	102.666	103.072	107.859	188.710	106.128	-8191	255	
57968.594	1	1	0	0	0.20912	0.16766	0.17746	0.35113	0.21681	0.21088	0.14627	0.17856	0.17527	0.25039	0.063448	0.29116	0.038893	0.047418	0.15963	0.115	-4.3125	-3.7021	-4.3729	-4.3583	-3.8937	-4.5729	-4.0958	-4.0708	-4.4604	-3.6312	-4.6167	-4.2333	-3.85	-4.5854	-3.8083	-4.1188	93.246	275.852	152.990	83.977	142.166	164.461	166.549	399.307	346.675	427.052	429.892	381.532	185.282	354.885	252.899	427.353	0.00048296	0.00056186	0.00016704	1193.8	9.5481e-06	8.9619e-06	1441.5	316.09	5.8093e-06	2.7679e-06	469.12	138.89	84.531	21.35	7.0079e-06	46.848	0.0039175	0.0063762	0.0017366	1160.6	6.283e-05	7.0341e-05	1402.4	311.82	6.307e-05	7.0133e-05	462.97	137.71	85.229	22.021	6.6753e-05	47.223	159.933	190.506	130.095	95.538	222.841	233.039	94.943	98.882	208.746	435.080	98.317	102.994	103.301	107.837	176.646	106.475	-8191	255	
57968.711	1	1	0	0	0.28962	0.17352	0.021497	0.17429	0.092876	0.14044	0.22657	0.23944	0.082497	0.14802	0.1355	0.20172	0.1681	0.1449	0.078829	0.067116	-4.1729	-3.7625	-4.4417	-4.5208	-3.65	-4.5708	-4.1396	-4.0104	-4.6521	-3.8104	-4.4229	-4.6396	-3.7229	-4.7375	-4.0625	-3.8937	311.662	390.420	273.261	349.581	295.388	247.951	400.787	409.516	420.180	427.327	122.596	369.210	375.173	438.466	366.610	236.504	0.00052705	0.00058515	0.00034699	1195.8	1.1173e-05	2.2024e-06	1452.6	319.71	1.3704e-05	6.7871e-06	472.08	139.58	84.776	21.063	8.8673e-06	46.217	0.0039659	0.0064191	0.0017655	1167	6.3723e-05	7.1716e-05	1411	314.34	6.3627e-05	7.0926e-05	464.72	138.2	85.219	21.887	6.4968e-05	46.712	154.498	253.334	108.551	95.473	251.238	280.009	95.099	98.971	204.386	226.348	98.364	102.759	102.971	107.797	229.072	106.495	-8191	255	
57968.809	1	1	0	0	0.16634	0.096931	0.090543	0.21238	0.10641	0.23264	0.064523	0.10814	0.23947	0.095606	0.42879	0.22957	0.12926	0.32449	0.26348	0.13389	-4.2854	-3.8833	-4.2438	-4.6792	-3.7083	-4.6042	-4.2542	-3.9125	-4.5875	-3.8833	-4.2479	-4.6792	-3.6354	-4.3708	-4.325	-3.8854	117.313	375.740	193.082	86.100	376.593	386.936	331.764	438.217	332.780	359.019	411.663	337.179	269.575	387.460	209.037	440.334	0.00048992	0.0014202	0.00022832	1196.2	3.9585e-06	8.5521e-06	1433.3	318.44	4.2501e-06	1.2829e-05	466.64	136.91	83.463	20.86	2.7819e-06	45.691	0.0038986	0.0062808	0.00172	1160.2	6.1745e-05	6.8559e-05	1398.9	311.81	6.3277e-05	6.7884e-05	460.26	136.32	84.386	21.6	6.2431e-05	46.186	169.461	130.276	195.869	95.454	282.214	240.552	95.054	98.790	248.102	112.741	98.057	102.566	102.817	107.256	280.208	106.254	-8191	255	
57968.902	1	1	0	0	0.071051	0.080324	0.13764	0.16754	0.21394	0.088828	0.16921	0.27337	0.2611	0.096127	0.2413	0.017241	0.236	0.12672	0.16472	0.20286	-4.3313	-3.8208	-3.9667	-4.5708	-3.4562	-4.4187	-4.4667	-3.8333	-4.5875	-3.7562	-4.075	-4.5667	-3.7896	-4.4625	-4.4021	-3.8646	409.713	304.073	195.086	429.524	294.879	410.614	252.516	398.623	396.862	424.738	379.023	419.313	350.267	221.655	172.096	381.055	0.00048272	0.00045482	0.00016439	1192.8	4.0547e-06	8.5872e-06	1436.4	316.98	2.6462e-06	8.5219e-06	469.94	138.3	84.215	21.124	5.162e-06	46.609	0.0038035	0.0061051	0.0016482	1159.7	6.0197e-05	6.6795e-05	1400.1	312.44	6.0777e-05	6.6969e-05	462.28	137.38	84.903	21.716	6.0684e-05	46.702	163.727	129.838	106.187	95.387	213.361	177.392	95.070	98.788	119.155	209.204	98.366	102.331	102.960	107.790	181.891	107.098	-8191	255	
57969.023	1	1	0	0	0.21837	0.21447	0.15547	0.047563	0.060248	0.063326	0.158	0.13044	0.054269	0.23482	0.13833	0.27255	0.1273	0.26244	0.14726	0.18034	-4.2917	-3.9479	-3.9979	-4.7125	-3.6542	-4.2146	-4.5792	-3.6729	-4.5729	-4.0521	-3.9979	-4.7854	-3.7583	-4.2417	-4.5333	-3.7917	400.765	216.216	350.506	420.042	299.190	345.072	374.582	132.848	283.757	284.576	350.929	85.867	322.347	98.944	415.040	348.158	0.00044241	0.00096325	0.00019843	1197.6	4.8764e-06	5.641e-06	1445.6	319.7	8.8559e-06	4.7806e-06	470.36	139.27	84.443	21.36	6.8712e-06	47.016	0.0037255	0.0058843	0.001619	1162.9	5.8812e-05	6.4733e-05	1406.3	313.33	5.8995e-05	6.4128e-05	463.7	138.46	85.344	21.92	5.8176e-05	47.292	164.849	170.319	193.514	95.421	258.033	212.605	95.277	99.046	244.090	223.238	98.027	102.312	102.777	107.532	180.547	106.562	-8191	255	
57969.094	1	1	0	0	0.16383	0.018815	0.17843	0.14735	0.29501	0.17262	0.34861	0.0228	0.087296	0.038365	0.25047	0.26318	0.25584	0.10295	0.069531	0.24495	-4.175	-4.0813	-3.8458	-4.8063	-3.8208	-3.9625	-4.6979	-3.7687	-4.4979	-4.3313	-3.8354	-4.6667	-4.0271	-4.1854	-4.6687	-3.8292	227.103	407.954	84.718	405.313	427.092	401.331	406.359	90.233	116.623	412.702	395.284	402.819	104.287	180.346	238.857	403.498	0.00044584	0.00057422	0.00010423	1195.2	6.4267e-06	5.0797e-06	1447.1	317.99	9.3916e-06	1.1327e-05	471.96	139.83	84.289	21.06	4.914e-06	46.257	0.003634	0.0056869	0.0015665	1164	5.7387e-05	6.2999e-05	1403.8	312.85	5.7634e-05	6.2954e-05	462.82	137.75	84.727	21.738	5.8964e-05	46.689	159.765	168.675	241.425	95.375	272.255	209.972	95.242	98.972	200.133	236.735	98.468	102.495	103.093	107.863	137.223	106.046	-8191	255	
57969.191	1	1	0	0	0.094608	0.10218	0.13833	0.23782	0.21603	0.11126	0.23788	0.37474	0.068699	0.26676	0.021956	0.12705	0.085203	0.21028	0.076535	0.079539	-4.0396	-4.0938	-3.8187	-4.7875	-3.9667	-4.0958	-4.7375	-3.8104	-4.4729	-4.2312	-3.8646	-4.6417	-4.025	-4.1312	-4.5833	-3.7875	347.189	176.465	215.388	391.496	193.569	430.020	387.163	411.512	347.658	330.443	338.080	300.509	405.048	161.511	123.502	292.068	0.00046099	0.00057183	8.3601e-05	1188.2	8.1617e-06	8.3883e-06	1444.9	318.39	8.4709e-06	9.0801e-06	471.79	139.44	84.882	21.154	2.9601e-06	46.676	0.0035771	0.0055096	0.0015634	1156.6	5.722e-05	6.208e-05	1403.4	313.06	5.7826e-05	6.2067e-05	464.33	138.05	85.328	21.78	5.877e-05	46.955	151.822	114.212	385.785	95.408	260.160	208.455	95.160	99.105	247.201	270.134	98.476	102.370	103.260	107.759	274.136	106.419	-8191	255	
57969.289	1	1	0	0	0.10168	0.40019	0.070615	0.072624	0.29103	0.45153	0.26845	0.32406	0.071312	0.20954	0.16523	0.12234	0.055706	0.060461	0.1255	0.071676	-4.0062	-4.2792	-3.8542	-4.6979	-4.1	-3.9542	-4.7792	-3.9458	-4.0813	-4.3187	-3.6979	-4.4979	-4.2083	-3.7792	-4.6	-3.7896	185.723	260.823	334.902	333.825	109.537	236.376	332.606	359.469	271.306	173.193	432.029	414.689	87.675	96.586	185.463	350.307	0.00053576	0.0008082	0.00013238	1201.1	4.0357e-06	9.1448e-06	1453	320.88	4.4645e-07	1.4495e-05	473.94	139.44	85.514	21.313	1.3159e-05	47.306	0.0035876	0.0055932	0.0015908	1163	5.6989e-05	6.3348e-05	1408.8	314.94	5.7293e-05	6.1476e-05	466.03	138.32	85.443	21.873	5.8626e-05	47.33	166.587	274.988	286.605	95.552	266.308	261.277	95.111	98.746	221.289	212.155	98.509	102.444	102.788	107.765	251.827	106.572	-8191	255	
57969.383	1	1	0	0	0.11622	0.19285	0.14203	0.22163	0.29042	0.1533	0.17826	0.26045	0.10447	0.31091	0.11803	0.044532	0.1418	0.057514	0.20185	0.13851	-3.8417	-4.5125	-3.5812	-4.7083	-4.2063	-3.7583	-4.775	-4.0604	-3.9875	-4.6813	-3.7521	-4.5542	-4.3021	-3.7562	-4.6167	-4.0188	176.035	408.223	256.777	419.179	394.119	304.634	345.180	380.080	177.121	265.785	259.159	226.450	328.633	410.150	104.447	121.508	0.00045327	0.0002571	0.00016483	1198.8	2.5511e-06	1.2181e-05	1465.4	324.89	1.8077e-06	3.7267e-06	478.63	140.25	84.906	21.115	5.3238e-06	47.117	0.0035169	0.005525	0.0015552	1168.2	5.5291e-05	6.091e-05	1415.9	316.88	5.6176e-05	6.0399e-05	467.61	138.66	85.479	21.863	5.8821e-05	47.04	163.493	261.727	226.752	95.108	301.365	223.785	95.174	99.106	266.014	159.031	98.260	102.359	102.802	107.950	163.812	106.835	-8191	255	
57969.504	1	1	0	0	0.17732	0.14553	0.11908	0.39161	0.16206	0.1613	0.38416	0.17235	0.070133	0.15657	0.17856	0.14442	0.21362	0.16993	0.096012	0.15748	-3.5979	-4.5667	-3.8292	-4.5042	-4.4333	-3.7708	-4.6896	-3.9771	-4.0104	-4.5	-3.9917	-4.3646	-4.3479	-3.6458	-4.5896	-4.0479	305.311	136.603	349.722	373.948	331.504	163.008	92.107	370.453	317.823	412.545	121.176	339.150	218.721	344.303	171.120	403.943	0.00038633	0.00020622	0.00014806	1202.3	2.8404e-06	1.1369e-05	1450.1	321.95	2.5729e-06	1.5699e-05	472.3	138.72	84.54	20.866	6.1436e-06	45.752	0.0035594	0.0055743	0.0015547	1167.5	5.5588e-05	6.2856e-05	1407.3	314.39	5.7343e-05	6.3886e-05	464.15	137.12	84.967	21.493	6.0774e-05	46.193	174.070	437.616	141.799	95.301	152.512	232.949	95.179	99.290	140.573	249.966	98.168	102.689	103.067	107.400	276.871	106.175	-8191	255	
57969.602	1	1	0	0	0.07662	0.27604	0.17055	0.079258	0.13267	0.077427	0.22936	0.19586	0.073152	0.15509	0.28453	0.04248	0.27973	0.16041	0.086404	0.20495	-3.6354	-4.6771	-3.6396	-4.2396	-4.4229	-3.6292	-4.7604	-4.1896	-3.7583	-4.6917	-3.9188	-4.2229	-4.6021	-3.8104	-4.4104	-4.3521	198.996	186.281	229.930	416.178	213.422	236.270	412.609	386.881	280.803	317.851	311.183	209.648	391.264	389.844	223.474	393.210	0.00041882	0.00055332	0.0004023	1201.1	3.1296e-06	1.0288e-05	1448.9	326.15	7.188e-06	7.1664e-06	475.08	138.56	84.481	20.986	5.2361e-06	46.31	0.003666	0.0057067	0.0015939	1167.5	5.6797e-05	6.4744e-05	1410.6	316.58	5.8392e-05	6.3039e-05	466.23	137.6	85.268	21.723	5.966e-05	46.644	167.612	138.536	154.237	95.303	213.497	293.937	95.092	99.109	247.367	266.989	98.257	102.492	102.894	107.893	200.317	106.702	-8191	255	
57969.695	1	1	0	0	0.16793	0.10125	0.12361	0.11806	0.16378	0.21056	0.31579	0.12406	0.13945	0.054068	0.1495	0.25354	0.088995	0.13479	0.15126	0.18498	-3.6479	-4.5458	-3.9042	-4.1771	-4.4563	-3.7729	-4.6813	-4.3625	-3.8104	-4.6604	-4.0917	-4.0854	-4.7146	-3.7375	-4.2604	-4.4792	174.089	374.254	361.896	93.758	289.423	83.293	408.250	353.807	244.960	89.392	91.934	368.774	412.813	400.708	98.130	270.408	0.00043547	0.00045433	0.00016357	1211	7.0676e-06	1.8026e-05	1465.3	321.95	4.6068e-06	4.4838e-06	477.05	139.86	85.472	21.502	8.9771e-06	47.251	0.0036643	0.005716	0.0016258	1173.7	5.8334e-05	6.5089e-05	1419.4	316.15	5.9028e-05	6.4755e-05	468.66	138.74	85.813	22.011	6.0174e-05	47.357	168.810	148.521	387.845	95.264	221.208	229.697	94.984	99.142	350.461	297.642	98.690	102.561	103.020	107.835	251.038	106.812	-8191	255	
57969.789	1	1	0	0	0.18889	0.038725	0.053968	0.048332	0.11597	0.07366	0.23136	0.13035	0.14146	0.18152	0.059112	0.2734	0.37251	0.24383	0.24046	0.24181	-3.3875	-4.6292	-3.9917	-4.2396	-4.6562	-3.7479	-4.2625	-4.3542	-3.6354	-4.5875	-4.2438	-4.0396	-4.6583	-3.6896	-4.1667	-4.5375	312.998	165.848	347.916	154.718	306.846	264.610	354.969	333.418	308.196	414.555	280.137	425.774	366.196	423.112	399.787	395.307	0.00043867	0.00080475	0.00013214	1210.7	7.3849e-06	2.7217e-06	1460.8	322.74	3.6553e-06	5.6286e-06	473.47	138.82	84.815	21.196	8.0495e-06	46.381	0.0036602	0.0058239	0.0015804	1174.7	5.6956e-05	6.3187e-05	1417.1	316.41	5.7247e-05	6.1352e-05	466.1	137.98	85.175	21.692	5.7121e-05	46.529	171.769	199.313	424.318	95.143	216.195	259.067	95.038	99.194	116.733	217.729	98.422	102.313	102.910	107.428	258.921	107.091	-8191	255	
57969.887	1	1	0	0	0.21277	0.25053	0.15645	0.33792	0.012703	0.18897	0.45973	0.10782	0.1977	0.073286	0.13393	0.16677	0.16612	0.068754	0.15288	0.091103	-3.4562	-4.3792	-4.1438	-4.0104	-4.5292	-3.8208	-4.4542	-4.5458	-3.6771	-4.5625	-4.3187	-3.9354	-4.8083	-3.9354	-4.1271	-4.4979	344.884	264.184	240.335	370.026	433.301	428.310	382.546	395.992	174.967	394.213	369.252	245.878	133.551	150.043	363.934	196.387	0.00047241	0.0005434	2.915e-05	1202.5	2.6005e-06	1.1349e-05	1452	321.41	2.5467e-06	4.1654e-06	475.4	138.97	85.392	21.001	2.25e-06	46.766	0.0034705	0.0054099	0.0014896	1164.6	5.3887e-05	6.0635e-05	1406.2	314.62	5.5458e-05	5.9899e-05	465.02	137.28	85.224	21.676	5.6126e-05	46.727	159.658	120.191	103.854	95.215	323.978	236.922	94.937	99.248	256.622	290.570	98.373	102.430	103.253	108.050	131.666	106.831	-8191	255	
57969.984	1	1	0	0	0.1774	0.17918	0.14638	0.047225	0.16956	0.096416	0.28922	0.15104	0.03633	0.14074	0.040277	0.09488	0.18227	0.20889	0.11598	0.11485	-3.3958	-4.3104	-4.1104	-3.8063	-4.5021	-3.9354	-4.1188	-4.7021	-3.8229	-4.5021	-4.4187	-3.8542	-4.7646	-4.0583	-4.0896	-4.7708	281.197	292.329	188.114	305.166	316.121	297.448	350.477	409.534	147.485	393.943	290.073	311.974	147.900	122.359	433.529	194.633	0.00046922	0.00076777	0.00030696	1198.6	3.7188e-06	1.5573e-05	1459.8	323.16	8.0351e-06	5.1712e-06	478.85	140.14	85.295	21.197	9.7135e-06	47.014	0.0034473	0.0053535	0.0015008	1165.5	5.3792e-05	6.0152e-05	1413.4	316.38	5.4678e-05	5.9584e-05	467.63	138.4	85.446	21.756	5.5636e-05	47.12	161.117	100.251	197.676	95.527	173.034	233.727	95.134	99.048	203.016	255.251	98.541	102.600	103.072	107.436	293.245	106.389	-8191	255	
57970.105	1	1	0	0	0.18231	0.16794	0.15647	0.11882	0.18215	0.1725	0.20799	0.11083	0.11676	0.19378	0.039494	0.080258	0.22405	0.16972	0.15958	0.18851	-3.5958	-4.3562	-4.5229	-3.8604	-4.6708	-4.0646	-4.0813	-4.6479	-3.7438	-4.1312	-4.5646	-3.8604	-4.6021	-4.1292	-3.8521	-4.7042	146.282	271.624	388.603	438.437	274.087	398.658	367.944	254.089	326.352	398.477	223.008	106.028	355.067	205.857	277.849	328.092	0.00041206	0.00062921	0.00023459	1207.4	4.911e-06	4.2058e-06	1459.3	324.62	1.0533e-05	4.0452e-06	475.77	140.85	86.352	21.459	1.0352e-06	47.387	0.0033613	0.0052004	0.0014493	1169.2	5.2116e-05	5.746e-05	1414.8	317.26	5.2756e-05	5.597e-05	468.21	139.22	85.822	21.826	5.1523e-05	47.324	170.324	205.072	193.144	95.156	183.556	310.767	95.143	99.255	271.193	361.434	98.712	102.544	102.952	107.441	385.700	106.725	-8191	255	
57970.199	1	1	0	0	0.20805	0.16706	0.075242	0.11503	0.097848	0.17817	0.25029	0.16436	0.30551	0.056663	0.35535	0.14105	0.17756	0.025586	0.14682	0.17699	-3.6771	-4.1438	-4.5146	-3.8167	-4.4417	-4.3167	-4.1479	-4.6062	-4.0625	-4.0729	-4.8146	-3.8042	-4.5104	-4.4271	-3.7979	-4.775	314.784	399.683	252.518	415.592	400.675	434.766	375.186	409.113	157.080	344.335	429.596	440.310	378.070	426.861	371.532	420.001	0.00050024	0.0010788	0.00014842	1201.5	1.6701e-06	1.0796e-05	1452.3	323.53	5.1582e-06	4.793e-06	473.72	140	85.237	21.297	4.021e-06	46.62	0.003227	0.0049619	0.0013784	1162.9	4.9947e-05	5.5124e-05	1406.4	315.44	5.0639e-05	5.5036e-05	465	137.72	85.007	21.604	5.2561e-05	46.637	166.964	118.354	168.609	95.284	238.997	252.810	94.714	99.078	419.633	230.291	98.437	102.431	103.345	107.791	310.365	106.343	-8191	255	
57970.297	1	1	0	0	0.085641	0.10306	0.121	0.085711	0.19529	0.17595	0.36077	0.018643	0.10421	0.17688	0.10032	0.14499	0.18141	0.015628	0.12541	0.11238	-3.7208	-4.025	-4.5771	-3.925	-4.3708	-4.3917	-3.9167	-4.6667	-3.9188	-4.0813	-4.6792	-3.9604	-4.2979	-4.4542	-3.6979	-4.7792	130.693	95.009	440.722	418.341	275.839	215.365	368.744	81.749	181.742	231.308	118.804	81.876	124.745	304.929	418.881	398.756	0.00047863	0.00040929	0.00010642	1203	9.2492e-06	6.6884e-06	1469.8	326.45	6.2855e-06	5.0369e-06	478.87	141.3	85.526	21.333	4.009e-06	47.205	0.0031915	0.0049542	0.0013758	1164.1	5.0493e-05	5.5962e-05	1414.3	317.12	5.1692e-05	5.6235e-05	469.72	139	85.441	21.895	5.4469e-05	47.146	157.395	192.306	203.426	95.544	273.522	270.193	94.983	98.996	235.082	141.925	98.809	102.393	103.298	108.112	268.018	106.842	-8191	255	
57970.395	1	1	0	0	0.27182	0.23749	0.12771	0.14949	0.1688	0.18448	0.3588	0.048804	0.081159	0.42586	0.32358	0.21187	0.23919	0.3081	0.25977	0.43416	-3.6458	-3.8292	-4.7375	-4.0104	-4.1896	-4.4417	-3.9125	-4.6875	-4.1813	-3.8375	-4.7021	-4.0875	-4.0625	-4.5354	-3.6625	-4.4875	248.289	414.239	113.679	383.616	132.037	190.266	415.477	240.105	421.269	136.568	397.556	427.616	112.429	92.429	262.645	361.441	0.00051781	0.0008782	4.1655e-05	1204.3	6.5398e-06	3.9716e-06	1465.2	326.15	6.8717e-06	7.4217e-06	481.22	141.44	86.087	21.701	7.3351e-06	47.978	0.0032889	0.0052378	0.0014281	1169	5.2226e-05	5.7276e-05	1418.4	318.23	5.28e-05	5.8016e-05	470.66	139.98	86.301	22.161	5.4921e-05	47.884	172.322	149.057	173.314	95.365	269.662	291.282	95.047	99.030	263.788	196.299	98.393	102.559	103.131	107.596	157.238	106.708	-8191	255	
#DATA ENDS
