BOXY.EXE: ISS Imagent and Oximeter Data Acquisition Program Version 0.80
Ascii Record File

#ACQ INFORMATION
2  Detector Channels 
16  External MUX Channels 
1  Auxiliary Channels 
5000  Waveform (CCF) Frequency (Hz)
1  Waveforms Skipped 
30  Waveforms Averaged 
1  Cycles Averaged 
16  Acquisitions per Waveform 
10.0806  Updata Rate (Hz) 

#FILE INFORMATION
TRUE -- External MUX Channel results are PARSED.
FALSE -- AC DC and Phase are NOT grouped.
TRUE -- Companion Program Settings File CREATED.
FALSE -- AC data not excluded
FALSE -- DC data not excluded
FALSE -- Phase data not excluded
FALSE -- Auxillary Chn. data not excluded
Tab delimiters

#CALIBRATION STATE
TRUE -- Waveform Calibration Values APPLIED.


#AUX CALIBRATION VALUES
Val Type	aux-1	

Term	1.0000e+00	
Factor	0.0000e+00	


#WF CALIBRATION VALUES
A = Detector Channel
Val Type	A-AC1	A-AC2	A-AC3	A-AC4	A-AC5	A-AC6	A-AC7	A-AC8	A-AC9	A-AC10	A-AC11	A-AC12	A-AC13	A-AC14	A-AC15	A-AC16	A-DC1	A-DC2	A-DC3	A-DC4	A-DC5	A-DC6	A-DC7	A-DC8	A-DC9	A-DC10	A-DC11	A-DC12	A-DC13	A-DC14	A-DC15	A-DC16	A-Ph1	A-Ph2	A-Ph3	A-Ph4	A-Ph5	A-Ph6	A-Ph7	A-Ph8	A-Ph9	A-Ph10	A-Ph11	A-Ph12	A-Ph13	A-Ph14	A-Ph15	A-Ph16	

Term	0.00000e+00	0.00000e+00	0.00000e+00	0.00000e+00	0.00000e+00	0.00000e+00	0.00000e+00	0.00000e+00	0.00000e+00	0.00000e+00	0.00000e+00	0.00000e+00	0.00000e+00	0.00000e+00	0.00000e+00	0.00000e+00	0.00000e+00	0.00000e+00	0.00000e+00	0.00000e+00	0.00000e+00	0.00000e+00	0.00000e+00	0.00000e+00	0.00000e+00	0.00000e+00	0.00000e+00	0.00000e+00	0.00000e+00	0.00000e+00	0.00000e+00	0.00000e+00	0.00000e+00	0.00000e+00	0.00000e+00	0.00000e+00	0.00000e+00	0.00000e+00	0.00000e+00	0.00000e+00	0.00000e+00	0.00000e+00	0.00000e+00	0.00000e+00	0.00000e+00	0.00000e+00	0.00000e+00	0.00000e+00	
Factor	1.00000e+00	1.00000e+00	1.00000e+00	1.00000e+00	1.00000e+00	1.00000e+00	1.00000e+00	1.00000e+00	1.00000e+00	1.00000e+00	1.00000e+00	1.00000e+00	1.00000e+00	1.00000e+00	1.00000e+00	1.00000e+00	1.00000e+00	1.00000e+00	1.00000e+00	1.00000e+00	1.00000e+00	1.00000e+00	1.00000e+00	1.00000e+00	1.00000e+00	1.00000e+00	1.00000e+00	1.00000e+00	1.00000e+00	1.00000e+00	1.00000e+00	1.00000e+00	X	X	X	X	X	X	X	X	X	X	X	X	X	X	X	X	

B = Detector Channel
Val Type	B-AC1	B-AC2	B-AC3	B-AC4	B-AC5	B-AC6	B-AC7	B-AC8	B-AC9	B-AC10	B-AC11	B-AC12	B-AC13	B-AC14	B-AC15	B-AC16	B-DC1	B-DC2	B-DC3	B-DC4	B-DC5	B-DC6	B-DC7	B-DC8	B-DC9	B-DC10	B-DC11	B-DC12	B-DC13	B-DC14	B-DC15	B-DC16	B-Ph1	B-Ph2	B-Ph3	B-Ph4	B-Ph5	B-Ph6	B-Ph7	B-Ph8	B-Ph9	B-Ph10	B-Ph11	B-Ph12	B-Ph13	B-Ph14	B-Ph15	B-Ph16	

Term	0.00000e+00	0.00000e+00	0.00000e+00	0.00000e+00	0.00000e+00	0.00000e+00	0.00000e+00	0.00000e+00	0.00000e+00	0.00000e+00	0.00000e+00	0.00000e+00	0.00000e+00	0.00000e+00	0.00000e+00	0.00000e+00	0.00000e+00	0.00000e+00	0.00000e+00	0.00000e+00	0.00000e+00	0.00000e+00	0.00000e+00	0.00000e+00	0.00000e+00	0.00000e+00	0.00000e+00	0.00000e+00	0.00000e+00	0.00000e+00	0.00000e+00	0.00000e+00	-1.17792e+02	-1.43843e+02	-1.22546e+02	-1.82203e+02	-6.11667e+01	-7.34980e+01	-1.58195e+02	-1.62015e+02	-5.91422e+01	-6.39027e+01	-1.73093e+02	-1.71855e+02	-1.81390e+02	-1.76301e+02	-7.35693e+01	-1.49454e+02	
Factor	1.69170e-05	1.23924e-04	3.36262e-05	1.80272e-01	1.08088e-06	1.50264e-06	1.68832e-01	4.61094e-02	9.30486e-07	1.40809e-06	1.02341e-01	2.97290e-02	2.73267e-02	8.85118e-03	1.28260e-06	1.26478e-02	2.60707e-06	2.90429e-06	8.06884e-07	9.53293e-02	3.13924e-08	3.17865e-08	8.41259e-02	2.45373e-02	3.13704e-08	3.17759e-08	5.20466e-02	1.52571e-02	1.46120e-02	4.71344e-03	3.16051e-08	6.50126e-03	X	X	X	X	X	X	X	X	X	X	X	X	X	X	X	X	



#DISTANCE SETTINGS
A = Detector Channel
A-1	A-2	A-3	A-4	A-5	A-6	A-7	A-8	A-9	A-10	A-11	A-12	A-13	A-14	A-15	A-16	

2.5000e+00	3.0000e+00	2.5000e+00	3.0000e+00	2.0000e+00	3.0000e+00	1.5000e+00	3.0000e+00	3.0000e+00	3.0000e+00	3.0000e+00	3.0000e+00	3.0000e+00	3.0000e+00	1.5000e+00	3.0000e+00	

B = Detector Channel
B-1	B-2	B-3	B-4	B-5	B-6	B-7	B-8	B-9	B-10	B-11	B-12	B-13	B-14	B-15	B-16	

1.0000e+01	1.0000e+01	1.0000e+01	1.4400e+00	1.0000e+01	1.0000e+01	1.5100e+00	1.9400e+00	1.0000e+01	1.0000e+01	1.9900e+00	2.4900e+00	2.4100e+00	2.9000e+00	1.0000e+01	2.9800e+00	




#DATA BEGINS
time	group	step	mark	flag	A-AC1	A-AC2	A-AC3	A-AC4	A-AC5	A-AC6	A-AC7	A-AC8	A-AC9	A-AC10	A-AC11	A-AC12	A-AC13	A-AC14	A-AC15	A-AC16	A-DC1	A-DC2	A-DC3	A-DC4	A-DC5	A-DC6	A-DC7	A-DC8	A-DC9	A-DC10	A-DC11	A-DC12	A-DC13	A-DC14	A-DC15	A-DC16	A-Ph1	A-Ph2	A-Ph3	A-Ph4	A-Ph5	A-Ph6	A-Ph7	A-Ph8	A-Ph9	A-Ph10	A-Ph11	A-Ph12	A-Ph13	A-Ph14	A-Ph15	A-Ph16	B-AC1	B-AC2	B-AC3	B-AC4	B-AC5	B-AC6	B-AC7	B-AC8	B-AC9	B-AC10	B-AC11	B-AC12	B-AC13	B-AC14	B-AC15	B-AC16	B-DC1	B-DC2	B-DC3	B-DC4	B-DC5	B-DC6	B-DC7	B-DC8	B-DC9	B-DC10	B-DC11	B-DC12	B-DC13	B-DC14	B-DC15	B-DC16	B-Ph1	B-Ph2	B-Ph3	B-Ph4	B-Ph5	B-Ph6	B-Ph7	B-Ph8	B-Ph9	B-Ph10	B-Ph11	B-Ph12	B-Ph13	B-Ph14	B-Ph15	B-Ph16	aux-1	digaux	

28696.248	1	1	0	768	0.21119	0.21123	0.13824	0.047159	0.15061	0.20236	0.17656	0.34404	0.20793	0.066117	0.1189	0.28478	0.29007	0.034592	0.22847	0.29016	-1.7812	-1.3021	-1.9479	-2.1042	-1.4771	-2.0917	-1.8062	-1.6896	-2.1604	-1.3333	-2.2167	-2.0312	-1.4896	-2.3729	-1.5812	-1.7021	158.235	315.257	326.153	372.375	246.009	66.982	374.566	410.124	217.871	94.174	404.853	337.706	149.018	343.374	67.777	320.171	0.0003916	0.0020125	0.00023107	994.68	1.0858e-05	1.0713e-05	1314.4	305.68	1.0343e-05	2.8205e-06	498.54	176.02	96.611	30.721	7.9368e-06	61.46	0.0023337	0.0025019	0.00069031	947.03	2.7519e-05	2.7467e-05	1223	289.11	2.7968e-05	2.8655e-05	479.4	167.34	97.405	31.274	3.0196e-05	59.856	184.579	425.112	118.092	78.734	320.848	399.756	78.562	84.206	195.760	244.418	82.919	87.668	89.108	93.977	311.219	91.260	-8191	255	
28696.346	1	1	0	0	0.035718	0.10898	0.20118	0.012753	0.060055	0.17619	0.12967	0.10982	0.09468	0.29771	0.19261	0.39221	0.20619	0.16489	0.11085	0.066535	-1.7958	-1.4708	-1.8208	-2.0604	-1.3438	-2.0604	-1.8375	-1.7521	-2.15	-1.4562	-2.0062	-2.0958	-1.2646	-2.2104	-1.9208	-1.9021	297.783	170.967	248.019	425.863	108.117	191.446	298.061	274.471	382.015	68.964	239.414	392.348	318.398	118.196	198.544	276.735	0.00030316	0.0021375	0.00014863	994.72	5.4719e-06	3.5518e-06	1312.1	306.33	1.374e-05	1.8087e-05	503.17	175.89	96.657	31.065	8.902e-06	61.613	0.0026142	0.0028481	0.00078854	959.24	3.1463e-05	3.1214e-05	1231.9	292.15	3.1654e-05	3.1929e-05	485.78	168.63	98.914	31.806	3.24e-05	60.701	153.993	173.529	230.927	79.274	242.857	193.612	78.588	84.348	255.326	263.018	83.498	87.393	88.393	93.310	232.242	92.029	-8191	255	
28696.441	1	1	0	0	0.046683	0.37351	0.11175	0.11881	0.054388	0.16495	0.046331	0.081593	0.059341	0.16357	0.32434	0.10886	0.15636	0.38975	0.23714	0.21634	-1.6833	-1.4625	-1.9167	-2.1063	-1.3563	-2.2042	-1.9479	-1.6875	-2.3583	-1.4271	-1.7104	-2.4479	-1.5229	-2.1125	-1.7958	-1.6167	253.042	305.001	300.547	331.873	77.105	132.715	67.945	75.355	146.574	315.013	386.601	378.011	380.812	425.645	236.471	416.398	0.00031039	0.0029272	0.00021391	990.86	5.8149e-06	7.6347e-06	1320.8	305.96	1.2341e-05	1.5854e-05	503.66	175.5	96.292	31.16	1.264e-05	61.871	0.0027118	0.0029938	0.00082428	960.99	3.2524e-05	3.214e-05	1235	292.38	3.1764e-05	3.2185e-05	488.01	168.57	98.42	31.863	3.0729e-05	60.451	173.666	142.086	117.600	79.159	232.041	155.576	78.521	84.354	225.069	154.208	83.458	87.602	88.609	93.495	363.903	91.848	-8191	255	
28696.537	1	1	0	0	0.34532	0.11416	0.22644	0.36504	0.11338	0.032668	0.061036	0.19805	0.16138	0.078061	0.28387	0.082884	0.27253	0.36603	0.30116	0.31877	-1.7354	-1.5979	-1.7729	-2.1083	-1.6271	-2.3375	-2.1479	-1.3396	-2.2792	-1.6729	-1.6917	-2.2833	-1.4146	-1.9146	-2.0312	-1.6187	71.149	79.990	223.728	425.809	409.240	311.745	155.896	329.556	307.761	315.775	344.942	100.934	331.638	414.208	386.366	340.748	0.00046874	0.0004637	0.00040331	990.63	5.1406e-06	1.0281e-05	1308.4	306.85	3.9197e-06	2.0019e-05	504.03	175.64	97.324	31.423	1.055e-05	62.034	0.0025359	0.0027781	0.000769	949.69	2.965e-05	2.9618e-05	1222.7	290.14	2.9434e-05	3.0152e-05	483.52	168.18	98.331	31.77	3.0372e-05	60.166	166.082	129.469	113.982	78.962	93.605	178.614	78.846	84.594	238.736	237.015	83.166	87.136	88.263	93.219	152.134	91.761	-8191	255	
28696.633	1	1	0	0	0.11469	0.081034	0.18653	0.081844	0.29904	0.16726	0.31364	0.37445	0.15616	0.20535	0.23303	0.19957	0.10998	0.10518	0.040199	0.074087	-1.8208	-1.6812	-1.4521	-2.3542	-1.2896	-1.8167	-2.2354	-1.2875	-2.2313	-1.8583	-1.4542	-2.3021	-1.5438	-1.8271	-2.0854	-1.5417	375.162	80.576	358.628	171.075	333.443	203.191	351.899	326.030	400.016	147.284	363.083	80.409	82.675	372.813	182.554	246.319	0.00047201	0.00099012	0.00037048	989.34	1.0622e-06	1.6027e-05	1309.9	305.6	4.578e-06	1.3899e-05	499.66	174.95	96.866	30.933	1.014e-05	61.49	0.00245	0.0027373	0.00075297	946.21	2.9391e-05	2.9504e-05	1220.7	290.05	2.8873e-05	2.9647e-05	483.01	167.09	97.363	31.497	2.985e-05	59.835	161.949	301.011	157.478	79.251	186.096	127.203	78.713	84.812	167.316	241.931	83.083	87.582	88.420	93.417	108.294	91.718	-8191	255	
28696.730	1	1	0	0	0.044692	0.099628	0.03393	0.29847	0.18719	0.14913	0.25727	0.11568	0.11756	0.050437	0.23109	0.32149	0.18349	0.13796	0.37512	0.30673	-1.7729	-1.8	-1.4104	-2.0854	-1.6063	-1.6833	-2.1813	-1.6604	-2.0542	-2.0375	-1.6646	-2.4104	-1.7917	-1.6917	-2.0563	-1.4292	101.955	399.160	366.610	418.610	123.856	371.382	329.079	336.523	101.323	301.529	77.393	337.110	214.160	363.768	86.046	254.073	0.00056816	0.0014354	0.00012314	987.28	1.3966e-05	2.2662e-05	1311.3	308.83	9.6871e-06	1.1293e-05	504.88	177.45	97.695	31.222	7.0765e-06	62.92	0.0024358	0.0027224	0.00075898	945.47	2.892e-05	2.8609e-05	1221.7	290.78	2.7944e-05	2.8998e-05	485.01	168.16	97.793	31.607	2.8794e-05	60.545	172.170	423.763	204.700	78.865	187.400	231.681	78.662	84.237	272.975	224.076	83.005	87.241	88.947	93.727	228.646	91.463	-8191	255	
28696.850	1	1	0	0	0.30081	0.12914	0.11289	0.10621	0.18028	0.2715	0.12341	0.38065	0.37675	0.18494	0.25594	0.46218	0.29549	0.21075	0.16792	0.088709	-1.6812	-2.0354	-1.3771	-2.3583	-1.5417	-1.6125	-2.4417	-1.5167	-1.7917	-2.2042	-1.4583	-2.3958	-1.9396	-1.6083	-2.2292	-1.7083	413.231	412.683	297.116	409.875	275.397	166.808	347.617	302.349	76.954	132.909	424.826	371.439	76.805	354.164	101.831	348.840	0.00041791	0.0018061	0.00037448	998.66	2.1428e-06	4.7712e-06	1325.6	309.2	5.9418e-06	8.4592e-06	509.71	178.88	98.403	31.849	1.9373e-05	63.552	0.002424	0.0027467	0.00076257	952.07	2.9656e-05	2.9925e-05	1228.7	292.46	2.8711e-05	2.9793e-05	488.78	169.94	98.507	32.228	2.8285e-05	61.184	143.881	241.085	153.987	78.528	168.872	205.039	78.644	84.354	130.781	111.273	83.234	87.580	88.463	93.608	244.520	91.016	-8191	255	
28696.945	1	1	0	0	0.071009	0.090432	0.18089	0.2632	0.14784	0.21143	0.11946	0.14494	0.11639	0.20525	0.088426	0.049304	0.10805	0.087097	0.13825	0.014755	-1.5812	-2.2167	-1.2875	-2.3896	-1.9292	-1.4667	-2.4479	-1.7833	-1.7958	-2.4271	-1.4979	-2.0542	-1.9292	-1.35	-2.2812	-1.6458	113.844	177.634	330.528	72.738	378.996	342.920	378.022	360.031	338.067	401.736	356.794	267.578	420.121	379.061	145.579	68.679	0.00051974	0.0005639	0.00042675	997.19	1.4012e-05	1.1403e-05	1317.4	306.67	1.1107e-05	2.9273e-05	508.69	178.01	98.619	32.01	5.7721e-06	63.575	0.0023217	0.0025653	0.00069973	943.62	2.7508e-05	2.7455e-05	1217.4	290.78	2.6844e-05	2.7333e-05	485.21	168.82	97.921	32.05	2.7035e-05	60.959	158.915	106.824	330.363	79.022	303.348	228.629	79.167	84.487	232.955	233.673	83.244	87.197	88.959	93.577	114.386	91.516	-8191	255	
28697.041	1	1	0	0	0.061424	0.11298	0.10984	0.30265	0.095826	0.11591	0.30349	0.16796	0.20327	0.27015	0.18518	0.13773	0.31362	0.26942	0.16462	0.20754	-1.2479	-2.2167	-1.5146	-2.0854	-1.9188	-1.3542	-2.275	-1.9604	-1.6688	-2.2271	-1.55	-1.9958	-2.2729	-1.3854	-2.1292	-1.9	119.806	283.792	119.595	344.055	185.442	163.007	357.439	410.295	425.472	303.313	98.033	369.478	227.568	416.097	323.230	368.267	0.00057439	0.00033365	0.00018565	985.14	1.0461e-05	1.2089e-05	1316.6	309.81	1.1229e-05	4.5557e-06	507.65	178.74	97.868	31.806	7.7826e-06	63.769	0.0022816	0.0024908	0.00068443	940.53	2.7007e-05	2.7013e-05	1217.2	291.7	2.6658e-05	2.7027e-05	484.13	168.89	97.648	31.806	2.6282e-05	60.788	163.238	291.668	388.219	79.195	198.720	288.381	78.706	84.140	206.867	256.241	82.855	87.260	88.466	93.376	401.522	91.459	-8191	255	
28697.137	1	1	0	0	0.12187	0.12376	0.040012	0.15813	0.11069	0.13239	0.22129	0.12417	0.36887	0.21767	0.063581	0.094877	0.16613	0.2158	0.11344	0.18146	-1.1979	-2.2521	-1.4813	-1.8771	-2.2542	-1.2	-2.2938	-1.9646	-1.3188	-2.1979	-1.5958	-1.9562	-2.1271	-1.4604	-1.9646	-1.9708	310.541	153.765	396.105	320.219	300.247	334.897	401.402	102.202	349.095	81.391	189.417	362.032	95.830	262.054	337.240	401.867	0.00037578	0.00083522	0.00075073	1004.1	9.8624e-06	7.0504e-06	1312.8	310.94	5.993e-06	1.2003e-05	515.82	181.38	99.586	32.652	5.7959e-06	65.041	0.0022373	0.0024294	0.00066861	942.89	2.6068e-05	2.5894e-05	1218.1	290.97	2.482e-05	2.4638e-05	485.93	170.67	97.937	32.066	2.3694e-05	61.843	173.869	182.287	190.263	79.341	190.341	408.522	78.444	84.116	290.873	80.614	83.155	87.312	88.379	93.568	227.836	91.081	-8191	255	
28697.232	1	1	0	0	0.25503	0.18279	0.16127	0.15681	0.18344	0.31496	0.0156	0.16574	0.21971	0.19779	0.13203	0.075648	0.24716	0.059269	0.050984	0.20977	-1.1396	-2.3438	-1.6167	-1.9583	-2.1937	-1.3896	-2.2125	-2.2396	-1.5729	-2.2896	-1.8979	-1.9146	-2.3083	-1.5187	-1.9292	-2.2	245.303	425.186	160.963	78.224	271.116	404.542	255.987	268.487	317.226	317.948	331.773	347.655	373.192	425.135	148.259	283.371	0.00049839	0.0014183	0.0001522	997.67	3.2085e-06	8.0948e-06	1323.8	313.26	1.2584e-05	1.1849e-05	518.24	183.91	101.54	33.142	1.0616e-05	65.636	0.0020459	0.002181	0.00061259	938	2.379e-05	2.424e-05	1222.8	293.91	2.3881e-05	2.4065e-05	487.98	172.08	98.891	32.53	2.3369e-05	62.262	180.051	219.070	200.338	79.289	389.566	230.944	78.641	84.266	283.569	306.287	82.852	87.321	88.069	93.576	348.073	90.993	-8191	255	
28697.328	1	1	0	0	0.17106	0.076532	0.29846	0.1722	0.14818	0.11199	0.27148	0.30294	0.26608	0.10358	0.24361	0.081142	0.03693	0.28085	0.18198	0.093343	-1.0375	-2.1875	-1.7375	-1.7479	-2.3312	-1.4708	-2.0958	-2.1771	-1.4167	-2.2958	-2.0208	-1.7792	-2.3396	-1.7729	-1.8417	-2.2396	409.967	364.148	158.864	316.896	163.697	89.253	321.190	361.707	138.043	190.774	353.882	376.535	412.108	353.204	353.986	322.091	0.0006705	0.0010146	0.0001435	997.2	7.3361e-06	1.4745e-05	1326.5	315.3	3.4177e-06	1.6748e-05	521.19	185.73	101.66	33.229	1.1092e-05	65.42	0.0019983	0.0020978	0.00059545	933.79	2.2552e-05	2.2756e-05	1215.3	292.66	2.2014e-05	2.1832e-05	485.66	172.08	98.03	32.231	2.1429e-05	61.648	169.725	95.846	339.994	79.130	288.609	256.166	79.192	84.326	248.260	186.060	83.239	87.335	88.464	92.904	233.810	91.623	-8191	255	
28697.449	1	1	0	0	0.066491	0.21309	0.17738	0.15595	0.26351	0.15248	0.23917	0.17492	0.077301	0.096237	0.22943	0.035376	0.14981	0.16245	0.10553	0.27884	-1.1042	-2.1417	-1.7104	-1.55	-2.2396	-1.6146	-2.0667	-2.1146	-1.2354	-1.9917	-2.2042	-1.7083	-2.3417	-1.7583	-1.8333	-2.3917	398.841	104.105	127.326	126.288	408.633	421.484	325.172	280.454	142.513	225.414	244.765	170.044	421.849	305.132	212.474	245.902	0.00047727	0.00056408	0.00026802	1009	6.1518e-06	1.2487e-05	1344.6	316.46	1.0468e-05	6.7462e-06	526.69	185.51	101.08	32.669	7.6459e-06	64.984	0.0018173	0.0019047	0.0005474	936.68	2.0922e-05	2.1e-05	1222.2	293.65	2.019e-05	1.9962e-05	485.24	171.08	97.289	31.571	2.1106e-05	60.804	164.135	133.288	244.326	79.117	140.674	133.447	78.815	84.263	226.399	382.160	83.187	87.341	88.436	92.727	136.484	91.657	-8191	255	
28697.545	1	1	0	0	0.16145	0.10491	0.090597	0.22661	0.016755	0.25785	0.25307	0.32575	0.18011	0.40333	0.20143	0.28903	0.077877	0.25816	0.22041	0.35895	-0.94167	-1.9333	-2.0312	-1.4271	-2.2854	-1.7208	-1.925	-2.3292	-1.4042	-1.9354	-2.2583	-1.6208	-2.2104	-1.7729	-1.5333	-2.4229	352.687	149.731	257.010	363.626	419.992	396.420	356.499	373.526	226.146	198.776	380.260	389.280	370.802	324.736	396.879	402.444	0.00045628	0.0011077	0.00029448	1006.3	1.6198e-06	1.6398e-05	1339.1	315.16	6.6677e-06	7.7801e-06	522.93	184.88	101.22	33.204	1.3326e-05	65.705	0.0018007	0.0019796	0.0005614	940.04	2.1349e-05	2.1991e-05	1227.9	293.42	2.1649e-05	2.1494e-05	486.98	172.04	97.954	32.159	2.1323e-05	61.712	172.270	126.861	317.234	79.009	408.693	180.470	79.021	84.235	221.199	173.769	83.201	87.115	88.303	93.085	265.701	91.242	-8191	255	
28697.641	1	1	0	0	0.22316	0.21618	0.39791	0.41951	0.10661	0.30207	0.20424	0.40238	0.11234	0.11113	0.27844	0.34124	0.087823	0.19749	0.21343	0.094214	-0.9625	-1.7479	-2.15	-1.3729	-2.1229	-1.925	-1.6896	-2.2854	-1.4208	-1.7042	-2.2938	-1.3979	-2.2667	-1.7687	-1.3917	-2.4271	134.825	117.128	348.581	384.697	189.089	95.216	374.018	366.546	222.455	100.761	391.529	419.906	226.022	376.305	325.138	113.531	0.00061063	0.00076144	0.00036141	1011	4.0206e-06	1.5862e-05	1348.5	320.45	3.7236e-06	1.7105e-05	524.31	184.88	101.71	32.92	4.1059e-06	64.792	0.0018198	0.0019653	0.00055173	942.22	2.1001e-05	2.1908e-05	1233.4	296.23	2.1468e-05	2.1671e-05	491.24	172.27	98.06	32.047	2.2715e-05	61.158	173.881	114.190	168.311	78.922	321.846	165.458	79.054	84.426	313.932	314.050	83.038	87.127	88.242	93.071	223.317	91.720	-8191	255	
28697.736	1	1	0	0	0.12074	0.22293	0.20113	0.034523	0.21938	0.076652	0.15902	0.34168	0.071793	0.13702	0.14064	0.25125	0.14965	0.10159	0.16434	0.14384	-1.1375	-1.6229	-2.1354	-1.6562	-1.9792	-1.9875	-1.5667	-2.4208	-1.6792	-1.5729	-2.2521	-1.6	-2.0708	-1.9417	-1.3	-2.2583	133.693	211.473	313.429	197.126	251.298	189.934	420.894	77.195	146.174	140.356	113.656	132.796	359.706	410.112	79.379	325.288	0.00049828	0.00034166	0.00025087	1005.3	1.4696e-05	1.9125e-05	1332.7	316.9	9.1638e-07	1.1292e-05	509.33	182.31	100.1	32.169	2.1447e-05	63.704	0.0019597	0.0020778	0.00059275	941.08	2.2525e-05	2.36e-05	1222.7	293.85	2.3204e-05	2.3167e-05	484.16	170.22	97.405	31.855	2.3887e-05	60.767	170.954	187.085	168.684	78.419	264.468	189.674	78.773	84.132	147.889	161.568	83.103	87.281	89.034	92.969	245.409	91.590	-8191	255	
28697.811	1	1	0	0	0.173	0.051876	0.23546	0.010482	0.1893	0.1989	0.28456	0.2595	0.18477	0.19832	0.1346	0.16806	0.11684	0.22767	0.20521	0.26399	-1.2333	-1.4542	-2.1417	-1.3375	-1.9562	-1.9	-1.5312	-2.2625	-1.6729	-1.4438	-2.3896	-1.4604	-1.9688	-2.1333	-1.4062	-2.1896	85.879	278.085	358.041	355.009	367.640	355.017	355.166	396.418	282.960	331.989	87.638	395.418	102.166	89.951	393.575	364.798	0.00052772	0.00033199	0.00030258	1005.8	6.8272e-06	2.6955e-07	1324.9	313.04	1.178e-05	1.1916e-05	511.3	179.1	98.958	31.661	2.6823e-05	62.225	0.0020922	0.0022706	0.00063896	943.14	2.4662e-05	2.601e-05	1222	293.46	2.6567e-05	2.7097e-05	486.35	170.02	98.782	31.932	2.8269e-05	60.247	173.601	99.243	278.858	79.334	137.018	334.387	78.752	83.714	355.868	190.954	83.157	87.106	88.569	93.578	208.665	91.355	-8191	255	
28697.930	1	1	0	0	0.1073	0.2153	0.24696	0.21407	0.25449	0.16388	0.29663	0.30645	0.06779	0.15727	0.027503	0.04124	0.13271	0.10663	0.29599	0.40073	-1.3687	-1.4646	-2.4104	-1.5208	-1.5312	-2.2562	-1.5667	-2.1667	-1.6938	-1.4542	-2.2792	-1.5333	-1.4958	-2.2729	-1.3854	-2.0958	69.374	98.933	418.421	393.945	183.679	395.007	306.554	357.397	218.089	356.288	83.132	275.943	365.806	344.089	143.852	359.488	0.00040171	0.00099225	0.00020382	997.34	9.0257e-06	2.0292e-05	1315.8	311.18	8.352e-06	1.3341e-05	500.93	176.81	97.753	31.173	6.7002e-06	62.233	0.0024529	0.0026489	0.00074051	950.77	2.8963e-05	2.9973e-05	1223.9	293.93	3.0368e-05	3.0854e-05	487.09	169.28	99.236	32.057	3.2702e-05	60.845	177.573	181.065	374.425	79.005	269.719	296.379	79.086	84.281	88.422	282.313	83.198	87.308	89.162	93.705	80.822	91.531	-8191	255	
28698.025	1	1	0	0	0.17986	0.13727	0.069515	0.16	0.23845	0.11362	0.17109	0.24198	0.27546	0.050284	0.16104	0.076607	0.19917	0.10884	0.27993	0.06687	-1.4937	-1.4208	-2.1333	-1.8167	-1.6458	-2.0687	-1.4562	-1.9625	-1.9021	-1.5042	-1.9937	-1.7375	-1.7208	-2.1771	-1.4083	-1.9312	190.782	121.580	384.148	394.179	179.344	289.867	251.437	346.054	261.270	339.162	345.548	164.347	112.521	89.525	250.146	336.016	0.00068049	0.0012789	0.00049368	992.31	1.6646e-05	1.1461e-05	1312.1	307.32	1.3069e-05	1.0936e-05	498.67	175.78	96.401	30.782	3.4251e-06	61.599	0.0028339	0.0030394	0.00084553	961.25	3.2819e-05	3.3249e-05	1230.3	293.65	3.3314e-05	3.3743e-05	489.06	169.72	99.454	31.93	3.418e-05	60.743	176.242	197.554	209.038	79.014	238.796	333.326	78.733	84.430	332.961	98.416	82.890	87.550	88.719	93.860	188.099	91.591	-8191	255	
28698.121	1	1	0	0	0.31449	0.12082	0.33126	0.052567	0.1954	0.28305	0.24872	0.19208	0.030851	0.20712	0.086682	0.11669	0.22002	0.17659	0.18011	0.13548	-1.825	-1.325	-2.15	-2.0708	-1.5021	-2.3063	-1.5417	-1.9625	-2.1104	-1.4208	-2.2229	-1.8979	-1.6646	-2.2896	-1.6458	-1.8667	119.815	305.096	163.139	222.755	121.666	138.358	320.409	264.198	203.696	116.034	404.894	247.007	93.011	98.692	103.695	337.984	0.00046703	0.0011351	0.00027153	977	2.3114e-05	5.3012e-06	1296.5	304.43	6.0333e-06	1.1551e-05	493.54	172.69	94.746	30.385	2.2447e-05	60.485	0.0029376	0.0032018	0.00087596	960.06	3.4878e-05	3.5278e-05	1220.7	292.61	3.5085e-05	3.5184e-05	484.85	167.66	98.52	31.691	3.4936e-05	59.953	176.524	266.135	352.450	79.160	223.641	351.304	78.642	84.901	213.495	189.709	83.276	87.204	88.771	93.601	178.248	91.544	-8191	255	
28698.219	1	1	0	0	0.24759	0.25436	0.21267	0.28514	0.18609	0.10437	0.21684	0.25481	0.15276	0.30338	0.076119	0.34775	0.19801	0.1134	0.10018	0.17757	-1.75	-1.3771	-2.025	-1.9729	-1.3687	-2.2875	-1.7479	-1.8312	-2.3208	-1.4375	-2.1729	-2.0625	-1.3792	-2.2562	-1.6729	-1.7125	392.234	265.311	395.176	347.951	212.938	378.600	404.331	365.670	381.141	365.944	128.483	381.985	330.029	269.131	75.204	288.778	0.00049905	0.00064626	0.00016608	970.91	1.3753e-05	1.3081e-05	1282.9	299.35	1.6522e-05	8.3082e-06	489.48	171.09	93.982	30.055	1.6754e-05	59.86	0.0029535	0.0031924	0.00088682	951.87	3.5061e-05	3.5101e-05	1209.1	289.51	3.5069e-05	3.5597e-05	482.33	167.01	97.969	31.489	3.5584e-05	59.56	157.789	125.906	166.075	78.823	237.646	221.684	78.820	84.411	240.735	173.243	83.435	87.352	88.754	93.854	265.191	91.839	-8191	255	
28698.338	1	1	0	0	0.16705	0.31364	0.05462	0.086929	0.36033	0.065746	0.10674	0.31836	0.10851	0.34865	0.20185	0.25554	0.21013	0.032497	0.20362	0.1838	-1.7771	-1.3604	-1.8104	-2.0729	-1.3062	-2.2542	-1.8417	-1.6229	-2.3646	-1.525	-2.1188	-2.2062	-1.5292	-2.1437	-1.7542	-1.8771	108.932	110.605	251.287	415.381	240.877	211.707	420.933	417.720	387.821	134.471	327.783	357.628	294.927	162.700	186.102	175.235	0.0003688	0.001073	0.0004702	974.68	1.7521e-06	1.1342e-05	1281.9	298.96	4.7883e-06	9.2071e-06	492.14	170.09	93.692	30.067	1.1108e-05	59.604	0.0029455	0.003254	0.00089122	951.98	3.4941e-05	3.4957e-05	1210.7	289.48	3.5412e-05	3.5984e-05	484.46	166.4	98.355	31.44	3.693e-05	59.542	171.940	165.268	78.475	78.991	390.500	264.380	78.772	84.678	271.663	257.570	83.235	87.329	88.864	93.466	156.218	92.111	-8191	255	
28698.410	1	1	0	0	0.14592	0.16549	0.11062	0.27884	0.022913	0.11846	0.47119	0.25456	0.027152	0.20988	0.33956	0.19208	0.19599	0.20005	0.085265	0.13848	-1.9062	-1.4646	-1.8563	-2.0917	-1.4354	-2.2104	-1.9458	-1.6875	-2.1396	-1.5417	-1.8271	-2.3583	-1.4542	-2.1917	-1.9542	-1.6146	200.713	205.442	249.296	415.755	72.843	97.305	377.914	75.692	357.967	225.144	413.057	86.455	337.404	336.295	300.137	372.847	0.00050831	0.002561	0.00049914	965.56	1.9003e-06	1.7303e-05	1278.7	301.57	5.0813e-06	1.6465e-05	490.43	173.08	94.448	30.079	1.9299e-05	60.066	0.0030474	0.0033623	0.00093833	953.05	3.6109e-05	3.653e-05	1217.6	292.04	3.5735e-05	3.6999e-05	486.69	168.3	98.423	31.627	3.6203e-05	59.666	196.079	146.791	372.014	79.201	78.794	244.374	78.745	84.455	79.489	164.836	83.353	87.332	89.350	93.448	280.795	91.657	-8191	255	
28698.529	1	1	0	0	0.13565	0.1781	0.22829	0.2791	0.45409	0.13525	0.13928	0.16316	0.11142	0.095244	0.11754	0.31175	0.13943	0.23287	0.29216	0.11839	-1.8542	-1.6146	-1.75	-2.2812	-1.4042	-2.1729	-2.0792	-1.4333	-2.1417	-1.6229	-1.6063	-2.4917	-1.4479	-1.9458	-2.1458	-1.3583	306.328	404.415	416.920	107.525	162.672	93.360	339.040	417.518	100.828	82.716	342.701	395.415	384.035	96.950	253.076	242.326	0.00047638	0.0023004	0.00028396	971.04	2.8251e-06	2.1895e-05	1284.6	301.44	3.2755e-06	8.7811e-06	491.23	170.44	94.37	30.506	1.5947e-05	59.642	0.0029725	0.003286	0.00091789	949.7	3.4685e-05	3.536e-05	1213.7	289.95	3.4275e-05	3.5549e-05	483.57	166.1	98.119	31.687	3.5235e-05	59.294	183.500	132.523	99.299	79.037	317.290	312.337	78.659	84.298	405.835	214.861	83.803	87.746	88.683	93.828	232.940	91.964	-8191	255	
28698.625	1	1	0	0	0.17658	0.24695	0.23491	0.35884	0.056591	0.070446	0.18411	0.07624	0.20518	0.094454	0.22945	0.16298	0.049225	0.10068	0.25956	0.16242	-1.7542	-1.5896	-1.0729	-2.4771	-1.4542	-1.7	-2.3187	-1.6271	-2.125	-1.7687	-1.6896	-2.3792	-1.5125	-1.8104	-2.2021	-1.5167	265.007	163.175	345.851	415.607	169.204	169.429	357.600	180.479	252.107	121.923	316.839	285.372	69.462	141.050	243.097	404.024	0.00032683	0.0024183	0.00044885	979.14	7.6158e-06	8.9307e-06	1284.3	300.56	1.2523e-05	1.4395e-05	494.38	170.89	93.795	29.762	1.5783e-05	59.925	0.0029296	0.0033063	0.00091022	952.83	3.5469e-05	3.5841e-05	1209.9	290.34	3.4734e-05	3.6199e-05	483.84	166.1	98.153	31.448	3.6363e-05	59.373	146.306	152.663	99.299	79.268	291.153	142.932	78.691	84.565	260.421	266.639	83.637	87.621	88.728	93.229	213.759	91.588	-8191	255	
28698.721	1	1	0	0	0.28474	0.22153	0.30415	0.062368	0.02853	0.054564	0.058762	0.29528	0.20125	0.10781	0.46663	0.19643	0.32209	0.27752	0.081723	0.094816	-1.5583	-1.9312	-1.3708	-2.3875	-1.3937	-1.7083	-2.4313	-1.6708	-1.9979	-1.9479	-1.4375	-2.2687	-1.7792	-1.6792	-2.2583	-1.5292	155.382	247.904	219.275	236.060	393.445	399.481	319.805	367.748	315.248	265.239	397.617	324.975	364.471	115.687	228.194	325.751	0.0005403	0.00066491	0.00024163	972.88	2.8494e-06	1.1503e-05	1273.8	299	4.1952e-06	3.7986e-06	487	170.92	93.336	30.186	4.3145e-06	59.522	0.0029847	0.0033605	0.00092074	948.38	3.646e-05	3.701e-05	1206.3	289.27	3.6323e-05	3.7278e-05	482.87	166.68	97.94	31.751	3.6949e-05	59.642	172.158	347.698	280.347	78.988	197.467	195.669	79.063	84.650	279.310	299.869	83.378	88.001	88.803	93.434	118.780	91.634	-8191	255	
28698.816	1	1	0	0	0.022112	0.12366	0.15718	0.21198	0.11207	0.044586	0.20756	0.23504	0.15329	0.15567	0.2401	0.15339	0.056268	0.25583	0.066339	0.34344	-1.6313	-1.9708	-1.4646	-2.2729	-1.6104	-1.6125	-2.5	-1.4396	-1.8479	-2.1667	-1.3729	-2.3146	-1.7708	-1.4625	-2.1458	-1.8188	264.870	88.328	73.127	369.969	254.858	82.407	367.102	396.769	170.687	201.026	350.760	311.154	105.871	413.396	184.975	358.321	0.0005046	0.00040648	0.00024388	960.17	1.206e-05	2.9486e-05	1270.6	299.12	5.6315e-06	1.2344e-05	491.82	172.05	95.321	30.544	4.6643e-06	60.817	0.0030813	0.003461	0.00096044	947.75	3.7535e-05	3.8043e-05	1211	290.97	3.7632e-05	3.9345e-05	487.86	169.03	100.28	32.603	3.9869e-05	61.224	167.249	145.097	217.708	79.309	310.688	187.254	79.227	84.868	222.400	185.544	83.679	88.025	88.638	93.613	184.861	91.525	-8191	255	
28698.938	1	1	0	0	0.19771	0.19218	0.051624	0.2546	0.20665	0.2315	0.20158	0.22296	0.019836	0.17452	0.30579	0.3638	0.2671	0.21378	0.037788	0.092778	-1.4646	-2.0667	-1.5417	-2.0375	-1.8729	-1.4729	-2.4688	-1.8312	-1.6333	-2.2708	-1.4104	-2.2646	-2.1042	-1.5229	-2.3	-1.85	154.011	72.220	311.551	364.070	372.223	254.712	99.361	83.321	344.726	262.202	393.619	310.132	386.729	313.220	182.119	313.871	0.00054125	0.0016128	6.7375e-05	962.06	1.9021e-05	1.0434e-05	1273.2	297.57	8.8738e-06	1.061e-05	492.25	171.75	93.061	30.245	1.0657e-05	59.718	0.0033703	0.0037449	0.0010392	958.33	4.1239e-05	4.1827e-05	1217.8	292.81	4.0993e-05	4.1287e-05	491.92	168.95	100.24	32.751	4.1851e-05	60.97	168.233	419.618	282.971	79.176	163.982	188.902	79.193	84.655	175.009	193.795	83.292	87.982	88.660	93.672	179.413	91.610	-8191	255	
28699.033	1	1	0	0	0.16884	0.18811	0.17485	0.053188	0.19941	0.22401	0.27537	0.16345	0.269	0.09837	0.11067	0.16716	0.16216	0.27628	0.40409	0.13186	-1.2875	-2.1417	-1.5354	-2.0938	-2.1208	-1.2875	-2.4583	-1.7188	-1.6833	-2.3792	-1.7563	-2.0458	-2.2521	-1.7042	-2.2417	-1.9438	376.412	266.245	345.233	336.862	416.024	150.232	349.745	86.848	154.817	69.328	353.547	76.685	404.768	84.702	384.963	83.898	0.00046026	0.00097304	0.00030443	952.72	9.6225e-06	1.2523e-05	1258.8	296.57	8.7317e-06	2.0953e-05	486.12	170.1	93.21	29.989	9.3488e-06	59.957	0.0035645	0.0039261	0.0010875	954.53	4.2781e-05	4.3153e-05	1213.8	292.47	4.2217e-05	4.3034e-05	489.1	168.41	100.62	32.489	4.1931e-05	60.765	196.025	87.380	253.740	79.886	382.186	272.952	78.835	84.500	274.372	147.565	83.434	87.566	88.550	93.792	239.271	91.334	-8191	255	
28699.105	1	1	0	0	0.057803	0.12152	0.15811	0.43525	0.12364	0.13839	0.063449	0.086166	0.11062	0.11157	0.23523	0.026351	0.32177	0.16572	0.1637	0.30485	-1.2687	-2.2042	-1.4125	-1.8854	-2.1312	-1.5604	-2.5854	-1.9625	-1.4708	-2.3458	-1.6812	-1.9104	-2.3563	-1.4271	-2.0417	-2.0417	348.465	338.632	384.488	387.861	253.061	130.148	379.872	268.687	355.621	260.508	133.647	369.824	424.851	357.781	297.670	391.964	0.00038226	0.00091444	0.00033487	955.73	9.8664e-06	2.1753e-05	1256.8	294.61	1.2085e-05	2.4553e-05	484.71	169.68	92.4	29.943	2.0698e-05	59.299	0.0034759	0.0038059	0.0010609	951.63	4.1424e-05	4.1331e-05	1206.4	290.78	4.0829e-05	4.1128e-05	487.15	168.1	99.856	32.319	4.1592e-05	60.504	193.736	420.065	150.975	79.455	346.449	89.012	79.107	84.097	167.339	197.767	83.812	87.407	88.445	93.499	182.407	92.140	-8191	255	
28699.227	1	1	0	0	0.17056	0.22094	0.11147	0.29905	0.044629	0.2116	0.036735	0.15409	0.18142	0.16993	0.15547	0.22302	0.38822	0.073106	0.24144	0.2681	-0.93542	-2.3563	-1.6917	-1.6063	-2.5458	-1.5375	-2.3083	-2.1208	-1.6229	-2.4292	-1.8875	-1.8833	-2.4542	-1.7292	-2.2042	-2.0729	349.416	335.146	387.607	374.590	254.545	241.553	143.328	384.623	164.725	407.259	97.254	425.673	420.982	314.263	243.256	409.082	0.00049923	0.0020679	0.00017033	957.24	1.3617e-05	1.204e-05	1261.8	297.3	2.2678e-06	4.7154e-06	487.81	169.93	93.242	30.043	1.6489e-05	59.723	0.0035836	0.0039201	0.0011179	962.39	4.4062e-05	4.497e-05	1220.9	295.21	4.5683e-05	4.6518e-05	497.17	170.92	102.73	33.288	4.7617e-05	62.008	174.429	137.297	358.268	79.258	237.045	393.671	79.191	84.535	158.345	342.523	82.968	87.992	89.001	94.279	109.521	91.790	-8191	255	
28699.322	1	1	0	0	0.24231	0.16679	0.13615	0.36085	0.15515	0.19342	0.15284	0.20056	0.29662	0.18309	0.10384	0.10619	0.078957	0.2726	0.13848	0.35264	-0.89167	-2.1417	-1.8542	-1.7417	-2.2271	-1.65	-2.1042	-2.2604	-1.5479	-2.2062	-2.0625	-1.7708	-2.3	-1.5583	-1.8854	-2.3563	166.052	371.690	145.049	376.583	224.178	324.388	374.038	185.551	139.008	414.450	394.538	375.935	324.139	181.338	141.834	388.225	0.00012952	0.0016002	0.00033402	955.51	1.6807e-05	2.1698e-05	1264	295.71	1.4827e-06	1.8275e-05	483.38	168.17	92.29	29.438	1.5405e-05	58.356	0.0040135	0.0044038	0.001253	976.94	4.8361e-05	4.9804e-05	1232	297.02	4.8635e-05	4.8855e-05	499.04	170.64	103.18	33.261	4.9867e-05	61.335	243.919	198.765	165.569	79.274	267.443	189.634	79.246	84.599	196.814	422.780	83.331	87.747	89.181	93.328	241.474	91.655	-8191	255	
28699.420	1	1	0	0	0.02129	0.046148	0.22959	0.17495	0.16749	0.21564	0.27858	0.23639	0.16118	0.14506	0.079064	0.42401	0.22484	0.40124	0.26025	0.28777	-0.83333	-2.4188	-1.9833	-1.7354	-2.3458	-1.6208	-1.9708	-2.35	-1.3667	-2.1229	-2.0896	-1.7958	-2.1937	-1.7812	-1.6521	-2.3979	349.339	319.337	223.705	372.433	155.676	99.647	348.643	370.444	385.464	116.049	248.574	416.201	88.301	293.866	415.062	393.956	0.00050733	0.0011579	0.00040389	957.47	8.2921e-06	8.9713e-06	1255.4	296.73	9.6763e-06	6.2058e-06	481.44	166.84	91.456	29.305	1.7546e-05	58.326	0.004153	0.0045623	0.0012873	978.41	4.9254e-05	5.0428e-05	1227	296.53	4.9424e-05	4.9747e-05	496.35	169.46	102.32	32.997	4.9573e-05	60.652	151.712	316.823	374.089	79.387	180.548	168.568	79.059	84.453	255.139	199.766	83.608	87.877	88.784	93.804	326.719	91.570	-8191	255	
28699.516	1	1	0	0	0.26523	0.268	0.15762	0.36972	0.099637	0.12573	0.14687	0.14147	0.25023	0.18594	0.24106	0.30835	0.075637	0.084803	0.26683	0.041459	-1.0167	-2.0458	-2.1167	-1.65	-2.2125	-1.6667	-1.9042	-2.4479	-1.4333	-2.0458	-2.2708	-1.45	-2.275	-2.0271	-1.5229	-2.3042	159.326	181.365	317.969	83.169	254.982	85.000	379.297	83.178	195.191	125.489	316.629	421.933	210.727	408.283	101.247	387.642	0.00054192	0.002559	0.00051669	950.48	1.4453e-05	8.7976e-06	1252.4	293.13	2.1494e-05	2.1355e-05	477.76	165.66	92.261	29.254	1.4034e-05	58.523	0.0040984	0.0044961	0.0012673	972.34	4.8807e-05	5.0158e-05	1222.4	294.56	4.8617e-05	4.9521e-05	494.79	168.62	101.59	32.679	4.8143e-05	60.484	157.876	210.545	201.490	79.248	318.303	338.685	78.789	84.396	201.472	187.071	83.225	87.819	89.244	93.526	69.749	91.412	-8191	255	
28699.635	1	1	0	0	0.21514	0.23644	0.11128	0.29277	0.077244	0.20078	0.38062	0.35907	0.15871	0.13038	0.10788	0.10235	0.32179	0.04753	0.17175	0.17214	-1.2229	-1.8583	-2.2333	-1.6271	-2.1792	-2.0167	-1.6375	-2.3896	-1.6042	-1.5854	-2.3438	-1.5375	-2.2083	-2.1437	-1.6083	-2.4896	396.113	134.141	80.299	71.991	347.544	126.294	356.251	359.031	238.207	310.602	372.409	77.691	318.070	176.658	192.586	296.913	0.00059979	0.00089056	0.0001522	959.82	1.046e-05	2.407e-05	1254.7	297.45	5.0357e-06	3.5294e-05	485.87	168.91	93.72	30.139	2.6747e-05	59.823	0.0039137	0.0042882	0.0011959	966.37	4.4818e-05	4.6205e-05	1215.5	293.54	4.48e-05	4.4544e-05	492.98	168.91	101.05	32.664	4.253e-05	60.842	167.800	180.703	287.347	79.322	186.468	248.075	78.728	84.724	276.902	155.312	83.336	87.424	88.400	93.364	129.993	91.624	-8191	255	
28699.705	1	1	0	0	0.29872	0.1891	0.056302	0.45064	0.25353	0.1935	0.27471	0.23081	0.2965	0.2203	0.28349	0.027161	0.20625	0.29549	0.099897	0.24522	-1.4542	-1.7021	-2.3646	-1.3854	-2.0708	-1.9167	-1.6458	-2.3917	-1.5438	-1.7479	-2.4083	-1.5958	-2.1521	-2.2667	-1.5312	-2.4562	115.054	168.962	164.661	403.219	282.828	368.028	352.052	423.441	417.855	212.770	110.173	417.977	295.811	380.805	342.031	368.916	0.00044709	0.00097091	0.00018454	961.55	1.1597e-05	1.9923e-05	1267.4	298.21	2.412e-06	1.277e-05	489.36	171.9	95.301	30.483	1.6554e-05	60.055	0.0035329	0.003866	0.0010713	955.35	4.1192e-05	4.2283e-05	1212.6	292.39	4.133e-05	4.1814e-05	490.63	170.32	101.6	32.903	4.1851e-05	60.956	189.820	306.355	201.397	79.124	237.841	223.815	79.091	84.722	343.498	252.861	83.469	87.720	88.444	94.026	153.835	92.012	-8191	255	
28699.801	1	1	0	0	0.034486	0.18115	0.09666	0.15887	0.15432	0.32683	0.23729	0.25068	0.12061	0.25056	0.20654	0.17905	0.018998	0.33322	0.19541	0.30256	-1.4813	-1.7083	-2.3021	-1.7167	-2.1771	-2.1688	-1.6854	-2.3563	-1.9125	-1.6896	-2.5062	-1.5812	-1.7833	-2.2771	-1.4375	-2.4208	199.201	208.997	155.615	349.050	296.675	69.068	344.424	103.260	228.256	298.795	387.225	389.609	144.285	339.415	285.947	371.863	0.00028588	0.00048389	3.8746e-05	954.35	1.6631e-05	1.202e-05	1252.6	296.52	7.6134e-06	2.2084e-05	482.41	173.95	94.91	30.353	2.0455e-05	60.573	0.00354	0.0038864	0.0010754	952.9	4.2301e-05	4.325e-05	1201.5	291.61	4.2449e-05	4.2536e-05	486.76	171.37	101.45	32.846	4.1659e-05	61.037	156.226	120.447	115.077	79.188	283.779	219.364	78.687	84.732	165.153	206.240	83.559	87.727	89.057	93.452	193.172	91.212	-8191	255	
28699.898	1	1	0	0	0.35121	0.1463	0.37131	0.18595	0.19359	0.10533	0.38747	0.34112	0.053511	0.24872	0.23875	0.28574	0.18058	0.20773	0.14512	0.23879	-1.5583	-1.4542	-2.3167	-1.8354	-1.8417	-2.4313	-1.6479	-2.3125	-2.0667	-1.4438	-2.5625	-1.8896	-1.7021	-2.1813	-1.5688	-2.0083	296.230	419.516	177.910	386.852	227.278	380.932	421.811	386.943	388.203	89.469	155.995	401.545	379.981	423.222	186.873	321.553	0.00052863	0.0010476	0.00015272	948.14	4.6383e-06	2.5086e-06	1251.8	296.09	3.9204e-06	4.6702e-06	482.95	173.92	96.057	30.74	1.2878e-05	60.865	0.0034922	0.0037901	0.0010441	945.06	4.0783e-05	4.1782e-05	1199.3	289.06	4.0288e-05	4.0781e-05	482.11	170.74	100.47	32.531	3.8454e-05	60.738	189.769	199.510	309.259	79.263	272.990	418.142	78.618	84.744	233.389	140.782	83.353	87.370	88.950	93.409	206.754	91.651	-8191	255	
28700.018	1	1	0	0	0.16306	0.039543	0.17051	0.1371	0.17829	0.091672	0.4268	0.23705	0.15824	0.17968	0.075399	0.18258	0.19792	0.26569	0.31502	0.33379	-1.8792	-1.5479	-2.3521	-2	-1.5875	-2.4354	-1.7604	-2.1833	-2.3771	-1.3813	-2.4313	-1.9854	-1.7437	-2.3812	-1.6187	-1.9375	197.420	271.581	212.979	377.005	412.158	174.447	70.595	87.756	300.505	186.818	338.733	380.347	303.305	81.637	280.857	109.988	0.00070792	0.00045944	6.2724e-05	959.4	1.0232e-05	1.7561e-05	1259.3	297.53	1.1332e-05	1.7748e-05	491.83	176.79	97.289	31.08	1.0335e-05	61.596	0.0031983	0.003433	0.00094262	941.99	3.685e-05	3.6797e-05	1195	288.17	3.618e-05	3.651e-05	483.87	172.38	100.61	32.392	3.5966e-05	60.929	172.788	336.942	397.177	79.052	211.087	351.805	79.314	84.520	181.943	252.059	83.519	87.544	88.745	93.371	154.005	91.464	-8191	255	
28700.113	1	1	0	0	0.25119	0.076369	0.074871	0.11625	0.16384	0.15899	0.33575	0.11696	0.25803	0.20663	0.24429	0.27865	0.0039425	0.27072	0.21501	0.27198	-1.8813	-1.3896	-2.1437	-1.9667	-1.4625	-2.3	-1.7146	-1.8729	-2.2958	-1.4167	-2.1667	-2.0292	-1.4833	-2.4917	-1.7396	-1.9542	360.667	331.568	206.816	248.484	339.572	121.725	363.045	359.433	403.045	70.776	336.501	374.340	302.470	100.623	94.512	388.413	0.00064037	0.00081421	0.00015324	965.31	1.5396e-05	2.4566e-06	1275.9	303.03	7.2227e-06	1.4286e-05	492.1	178.02	98.238	31.074	1.6649e-05	61.293	0.0030078	0.0032181	0.00088132	945.2	3.4831e-05	3.4539e-05	1206.4	291.32	3.4294e-05	3.5172e-05	482.45	172.59	100.72	32.257	3.5056e-05	60.689	173.497	116.167	250.528	79.379	257.264	77.372	78.770	84.781	222.573	291.565	83.329	87.670	88.332	93.580	174.191	91.776	-8191	255	
28700.211	1	1	0	0	0.10201	0.29773	0.18236	0.090941	0.21118	0.045657	0.17064	0.048025	0.15512	0.14428	0.27082	0.34253	0.18084	0.056964	0.2602	0.19705	-2.0271	-1.5104	-2.1042	-2.2271	-1.6063	-2.2479	-2.0292	-2.0146	-2.3125	-1.5667	-2.0646	-2.2958	-1.5146	-2.3812	-1.9083	-1.6875	198.156	352.592	324.652	178.972	163.165	410.333	329.031	136.514	341.717	394.037	364.445	376.753	412.048	347.671	128.589	406.387	0.00025285	0.00089485	0.00020421	955.87	1.1314e-05	1.4725e-05	1255.8	299.08	1.211e-05	3.9749e-06	488.63	175.09	96.531	30.932	2.1938e-06	60.905	0.0029788	0.0032553	0.0009119	939.99	3.5506e-05	3.561e-05	1195.1	290.18	3.6233e-05	3.6565e-05	480.99	170.84	100.35	32.291	3.6648e-05	60.766	194.109	351.433	203.631	79.235	276.318	251.289	78.904	84.543	222.701	307.852	83.425	87.539	88.612	93.572	377.293	91.695	-8191	255	
28700.307	1	1	0	0	0.024407	0.096165	0.074924	0.17438	0.18918	0.18649	0.27194	0.20503	0.066969	0.08613	0.16313	0.091202	0.22861	0.15896	0.16572	0.26183	-1.8229	-1.5125	-1.9146	-2.2062	-1.4229	-2.2542	-1.8854	-1.7146	-2.3312	-1.6042	-1.825	-2.4	-1.5812	-2.1229	-1.9188	-1.6583	405.045	151.371	416.248	400.640	92.017	285.938	133.885	81.508	240.798	237.462	368.543	98.060	353.834	410.732	81.722	376.879	0.00058773	0.0014626	0.00045948	954.19	1.322e-05	9.5837e-06	1254.6	295.48	1.0596e-05	1.9107e-06	481.26	173.75	96.152	30.395	1.1844e-05	59.948	0.0031055	0.0033737	0.00094128	938.92	3.7068e-05	3.6832e-05	1193.1	287.44	3.7144e-05	3.7779e-05	478.77	170.85	100.55	32.207	3.9182e-05	60.152	160.309	71.502	397.168	79.272	246.551	194.607	78.643	84.975	144.230	405.454	83.814	87.413	88.917	93.534	73.202	92.214	-8191	255	
28700.402	1	1	0	0	0.25174	0.37721	0.25836	0.22895	0.17733	0.20885	0.18567	0.38986	0.18138	0.078635	0.281	0.18901	0.017973	0.17915	0.18353	0.31156	-1.8917	-1.6604	-1.9229	-2.4688	-1.4333	-2.15	-2.1708	-1.6729	-2.1354	-1.9042	-1.9188	-2.3563	-1.5708	-2.2833	-2.0583	-1.65	417.092	302.938	109.300	74.004	342.740	398.059	325.584	350.076	351.497	73.718	340.948	253.424	219.397	80.963	104.151	416.060	0.00057304	0.0007046	0.00086497	957.55	1.1807e-05	1.2185e-05	1250.9	297.66	1.2809e-05	1.9863e-05	483.32	174.13	95.159	30.224	2.2159e-05	60.227	0.0032329	0.0035933	0.00098604	945.6	3.8411e-05	3.8347e-05	1197.3	288.25	3.8205e-05	3.8936e-05	481.9	170.56	100.47	32.194	3.896e-05	60.425	172.864	215.251	161.020	79.405	264.779	234.252	78.934	84.955	153.616	83.949	83.930	87.627	88.395	93.602	252.341	91.969	-8191	255	
28700.498	1	1	0	0	0.061403	0.11693	0.18029	0.14345	0.043499	0.2666	0.29022	0.25463	0.082205	0.19773	0.2882	0.14936	0.23136	0.23278	0.11587	0.24998	-2.0458	-1.6854	-1.7021	-2.4083	-1.55	-2.0083	-2.3021	-1.5271	-2.2104	-1.9292	-1.6708	-2.4604	-1.6729	-1.9042	-2.2208	-1.5063	293.112	360.645	287.521	401.246	94.459	400.300	315.766	303.201	259.590	189.489	250.128	415.353	422.251	163.368	279.701	414.811	0.00050859	0.00084371	0.00035442	956.48	1.9114e-05	1.5752e-05	1270.5	296.97	2.7349e-06	2.1477e-05	485.77	174.47	95.386	30.273	2.2577e-05	60.304	0.0032425	0.0035987	0.00099657	946.16	3.8487e-05	3.9036e-05	1206.2	289.23	3.8114e-05	3.9075e-05	484.5	171.06	100.73	32.375	3.9271e-05	60.597	162.600	261.076	138.077	79.269	180.997	269.948	79.181	84.459	189.879	216.775	83.670	87.534	88.679	93.735	257.545	91.938	-8191	255	
28700.619	1	1	0	0	0.33008	0.27302	0.066274	0.20561	0.25896	0.13497	0.11594	0.16905	0.25231	0.19109	0.2222	0.15317	0.065981	0.13763	0.23568	0.22649	-1.5688	-1.8229	-1.5729	-2.4	-1.6167	-1.7521	-2.3521	-1.4208	-2.1625	-2.0104	-1.6875	-2.4271	-1.5646	-1.7521	-2.3042	-1.5708	299.441	85.690	353.481	273.623	306.865	136.897	274.503	93.952	304.757	90.984	102.530	425.796	393.083	99.899	120.752	304.302	0.00052209	0.00057475	0.00020276	957.41	1.6476e-05	9.4685e-06	1255.6	295.46	1.1621e-05	8.9019e-06	478.22	172.74	94.442	30.438	8.9711e-06	59.722	0.003244	0.0036684	0.0010116	947.24	3.9182e-05	3.9761e-05	1198.1	288.28	3.8705e-05	3.9769e-05	479.94	169.85	100.24	32.125	3.9307e-05	60.025	155.226	303.493	416.616	79.717	207.712	306.283	79.022	84.606	246.143	143.608	83.690	87.689	89.034	93.785	340.311	91.677	-8191	255	
28700.715	1	1	0	0	0.1239	0.11065	0.044304	0.26913	0.02839	0.20882	0.23269	0.3323	0.12399	0.11922	0.26091	0.27007	0.11271	0.082585	0.21398	0.17835	-1.65	-1.8687	-1.3583	-2.3125	-1.7479	-1.7167	-2.4	-1.5938	-1.8333	-1.9292	-1.4167	-2.3167	-1.5708	-1.6521	-2.4146	-1.4604	67.310	411.414	311.909	207.867	96.894	414.423	352.200	101.046	240.174	292.210	86.910	389.682	75.761	156.183	386.833	345.645	0.00053731	0.00033293	0.00047183	942.16	1.06e-05	1.7498e-05	1251.3	292.57	1.4427e-05	9.8838e-06	475.38	172.78	94.298	30.04	1.6633e-05	59.231	0.0032453	0.0036671	0.0010047	933.78	3.9137e-05	3.9267e-05	1188.8	285.03	3.8411e-05	3.9706e-05	477.55	169.65	99.559	32.019	3.9035e-05	59.714	147.128	320.818	147.044	79.171	330.654	235.924	79.059	84.571	201.333	183.619	83.530	87.328	88.831	93.697	241.152	91.825	-8191	255	
28700.811	1	1	0	0	0.016849	0.2334	0.06339	0.11844	0.24872	0.034697	0.48388	0.33444	0.18599	0.3803	0.068046	0.33862	0.18626	0.42707	0.1772	0.34423	-1.5688	-2.1875	-1.4708	-2.2708	-1.9042	-1.625	-2.4	-1.7563	-2.0167	-2.225	-1.5063	-2.3	-1.8375	-1.5417	-2.1771	-1.7146	399.489	83.801	268.063	273.110	350.311	213.512	336.525	317.822	245.265	142.141	421.423	360.938	119.629	387.489	225.288	365.714	0.00020454	0.00073271	0.00031313	940.69	1.3969e-05	8.9516e-06	1246.5	291.6	1.7511e-05	2.0732e-05	473.93	171.73	93.6	29.83	2.8547e-06	60.311	0.0032347	0.0035966	0.00098378	932.17	3.8297e-05	3.851e-05	1182.9	283.64	3.7406e-05	3.8148e-05	474.21	168.48	98.701	31.595	3.5883e-05	59.766	188.932	188.785	182.334	79.817	193.917	195.121	79.035	84.841	291.298	306.920	83.283	87.932	88.492	93.731	347.678	92.103	-8191	255	
28700.932	1	1	0	0	0.14558	0.082686	0.20343	0.088297	0.20434	0.19279	0.19711	0.21983	0.14715	0.12338	0.16853	0.22502	0.13248	0.3431	0.038245	0.33629	-1.3229	-2.2792	-1.5688	-2.2146	-1.9312	-1.5104	-2.4396	-1.6042	-1.8104	-2.1917	-1.5396	-2.2229	-2.1896	-1.4875	-2.2625	-1.8958	95.232	83.186	143.122	234.475	149.483	367.633	384.404	386.891	222.602	397.743	325.576	390.307	273.250	380.735	78.248	110.598	0.00031432	0.00087738	0.00052001	939.84	7.7179e-06	2.1144e-05	1250.1	294.67	1.2141e-05	1.222e-05	482.95	174.11	94.815	30.053	5.5303e-06	59.912	0.0030348	0.0033311	0.00092659	927.07	3.6117e-05	3.6274e-05	1185.7	285.31	3.6053e-05	3.6357e-05	475.9	169.13	99.273	31.674	3.6292e-05	59.606	167.805	181.709	112.750	79.838	118.377	165.592	78.824	84.874	163.794	76.367	83.947	87.960	88.705	93.928	368.796	91.714	-8191	255	
28701.002	1	1	0	0	0.1099	0.043457	0.14331	0.2231	0.065302	0.10762	0.38685	0.13445	0.14825	0.34608	0.078727	0.20556	0.16831	0.35532	0.22388	0.46435	-1.2313	-2.1083	-1.4792	-1.975	-1.9521	-1.4521	-2.4979	-1.9646	-1.5375	-2.2667	-1.5333	-2.1271	-2.35	-1.325	-2.1667	-2.0104	233.144	164.245	314.811	334.085	363.604	155.925	420.365	378.415	384.283	421.871	356.266	375.866	300.978	374.934	356.496	361.043	0.00048178	0.001349	0.00026419	936.24	9.8457e-06	2.2734e-05	1238.2	289.79	1.2014e-05	2.0591e-05	474.85	170.12	93.228	29.859	8.6817e-06	59.666	0.0030788	0.0033502	0.00094058	923.65	3.7309e-05	3.7335e-05	1173.7	281.3	3.691e-05	3.761e-05	471.19	167.24	98.072	31.656	3.7256e-05	59.726	148.994	97.167	275.650	79.432	327.641	226.365	78.994	84.889	215.930	164.999	83.780	87.545	89.120	93.484	189.812	91.667	-8191	255	
28701.100	1	1	0	0	0.095461	0.22419	0.16945	0.30735	0.084547	0.080391	0.11405	0.065271	0.16558	0.22332	0.12574	0.26493	0.13387	0.14228	0.11125	0.31861	-1.2208	-2.4396	-1.5771	-1.9688	-2.0729	-1.3083	-2.2958	-2	-1.3083	-2.275	-1.7313	-1.8312	-2.35	-1.3417	-2.0646	-2.1896	409.319	422.266	177.405	373.003	397.313	298.390	105.085	202.412	414.475	387.669	423.291	355.120	249.722	83.537	244.959	394.164	0.00049363	0.00040427	0.00035448	933.99	7.1017e-06	1.3738e-05	1220.8	285.18	1.164e-05	1.2474e-05	469.46	169.41	92.07	29.559	1.0886e-05	59.12	0.0031748	0.0034846	0.0009875	922.05	3.8656e-05	3.881e-05	1166.8	278.95	3.8166e-05	3.8337e-05	469.53	166.6	98.13	31.719	3.846e-05	59.738	147.239	215.153	154.954	79.280	160.301	277.617	78.812	84.132	166.205	109.464	83.398	87.448	88.890	93.566	237.433	91.784	-8191	255	
28701.195	1	1	0	0	0.11762	0.023464	0.13695	0.045629	0.07231	0.11817	0.23852	0.12942	0.20237	0.10921	0.06834	0.094227	0.06407	0.25041	0.25852	0.23375	-1.0833	-2.1979	-1.5229	-1.6979	-2.1437	-1.5854	-2.1958	-2.2021	-1.4792	-2.2958	-1.9833	-1.7917	-2.2708	-1.5187	-1.7812	-2.1583	95.697	318.623	92.090	347.448	312.120	181.738	336.275	208.527	117.803	160.824	137.255	133.852	88.759	390.259	156.005	152.824	0.00042222	0.00075522	0.00017684	918.81	1.4405e-05	9.2874e-06	1218.3	282.76	9.3212e-06	1.1065e-05	463.56	169.28	91.709	29.711	1.8905e-05	59.179	0.0032353	0.003596	0.001009	919.16	3.9244e-05	4.0133e-05	1165.8	278.71	3.9627e-05	4.0441e-05	470.78	167.28	98.229	31.948	4.0905e-05	60.215	174.615	140.087	317.695	79.927	358.910	304.347	79.090	84.786	230.917	136.960	83.344	87.751	89.082	93.917	269.366	91.779	-8191	255	
28701.314	1	1	0	0	0.24754	0.13625	0.066296	0.12362	0.17749	0.2404	0.18077	0.2234	0.2445	0.41332	0.042172	0.29023	0.21198	0.24563	0.13643	0.1018	-0.88125	-2.2125	-1.8958	-1.5875	-2.2062	-1.6396	-1.9062	-2.1188	-1.3312	-1.9125	-1.825	-1.6063	-2.2833	-1.5479	-1.5187	-2.3292	79.271	144.449	341.288	118.827	105.864	174.314	390.410	421.850	193.335	224.628	160.189	397.652	324.309	425.373	221.363	381.114	0.00048081	0.00092102	0.00049131	916	1.1982e-05	2.2113e-05	1221.9	281.85	2.9394e-06	1.2745e-05	466.66	169.53	90.74	29.269	3.1998e-06	58.877	0.0034574	0.0037615	0.0010539	917.5	4.0066e-05	4.0571e-05	1165.9	277.95	3.9321e-05	3.9483e-05	469.11	166.84	97.508	31.515	3.9581e-05	59.521	163.158	210.209	158.688	79.627	95.269	229.229	79.124	84.599	308.610	380.555	83.344	88.260	88.843	93.742	373.157	91.377	-8191	255	
28701.410	1	1	0	0	0.18161	0.2429	0.14422	0.095257	0.30899	0.1181	0.27867	0.26039	0.056328	0.21806	0.11968	0.26556	0.074984	0.040987	0.14222	0.12736	-0.94792	-2.1104	-1.8854	-1.5562	-2.1125	-1.6021	-1.6792	-2.2625	-1.375	-1.9438	-2.1125	-1.6271	-2.2521	-1.7167	-1.7542	-2.3833	152.684	228.759	411.276	413.087	80.458	382.032	410.883	383.603	83.709	396.772	127.255	348.639	369.184	231.378	281.158	112.229	0.00053133	0.00015984	0.00033118	917.73	2.4075e-05	2.8252e-05	1213.5	283.04	1.3145e-05	2.8877e-05	464.11	166.98	90.214	28.914	1.1101e-05	58.39	0.0032946	0.0035714	0.0010107	912.78	3.858e-05	3.985e-05	1161.7	277.15	3.9484e-05	3.9377e-05	467.51	165.35	96.654	31.216	3.9835e-05	58.889	160.583	222.116	246.086	79.758	269.257	322.259	79.323	84.740	221.411	190.889	83.762	87.708	88.909	93.590	250.087	91.971	-8191	255	
28701.508	1	1	0	0	0.14988	0.15846	0.28687	0.021996	0.25405	0.18775	0.063231	0.12917	0.052772	0.084172	0.10154	0.33572	0.23219	0.10739	0.068913	0.10638	-1.0396	-1.875	-2.0812	-1.4813	-2.0271	-1.6604	-1.6625	-2.375	-1.4021	-1.75	-2.2438	-1.5771	-2.2083	-1.9562	-1.3854	-2.3167	398.360	302.616	352.606	165.611	238.887	350.555	143.943	415.710	416.482	81.134	351.653	413.140	291.512	324.693	300.806	306.378	0.00048086	0.0018881	0.0005953	913.68	1.6367e-05	2.5242e-05	1208.6	282.84	1.7756e-05	1.74e-05	460.09	167.66	90.946	28.897	7.8013e-06	57.565	0.0033019	0.0036117	0.0010314	913.95	3.9579e-05	4.0911e-05	1160.2	278.65	4.0483e-05	4.0922e-05	467.84	165.21	96.989	31.413	4.1345e-05	58.7	146.912	127.768	123.381	79.319	238.136	170.276	79.158	84.888	186.082	341.469	83.175	87.723	89.168	93.376	85.391	91.244	-8191	255	
28701.578	1	1	0	0	0.23866	0.1029	0.27788	0.20528	0.15736	0.15827	0.12122	0.088939	0.29059	0.16457	0.25324	0.060838	0.11685	0.091415	0.26665	0.12594	-1.0396	-1.8792	-1.9167	-1.3854	-2.1583	-1.825	-1.4646	-2.2812	-1.6625	-1.5125	-2.3917	-1.55	-1.9542	-1.925	-1.2875	-2.3833	346.566	335.735	126.007	417.520	424.778	83.954	106.178	358.649	423.613	375.844	355.272	252.714	97.984	360.976	74.085	363.142	0.00045637	0.00077199	0.00030331	921.17	1.7784e-05	6.605e-06	1216.6	283.56	6.1694e-06	1.4015e-05	463.41	166.19	90.886	28.258	2.9424e-06	57.323	0.0034379	0.0038054	0.0010627	924.54	4.1535e-05	4.3448e-05	1173.3	279.96	4.3508e-05	4.4777e-05	474.72	166.6	99.198	31.627	4.585e-05	59.068	176.458	211.909	253.913	79.510	262.987	305.460	79.062	84.616	319.846	132.742	83.318	87.903	88.800	93.552	328.281	91.761	-8191	255	
28701.697	1	1	0	0	0.14358	0.12799	0.25875	0.28565	0.29165	0.2514	0.11331	0.34918	0.094988	0.15368	0.15477	0.28442	0.11841	0.30061	0.12185	0.072713	-1.4833	-1.4937	-2.1312	-1.4292	-1.9479	-2.2792	-1.5396	-2.3625	-1.6854	-1.6021	-2.3958	-1.6063	-1.9646	-1.9813	-1.3875	-2.2708	219.238	202.188	320.879	82.650	130.308	102.910	178.548	346.414	173.139	361.364	258.610	126.369	145.102	98.303	242.291	283.820	0.00049826	0.0013751	3.0924e-05	930.83	8.586e-06	1.2182e-05	1219.7	283.85	4.8326e-06	1.1589e-05	462.83	165.62	90.056	28.761	1.8695e-05	56.528	0.0038735	0.0042243	0.0011619	943.62	4.4954e-05	4.6805e-05	1189.3	283.37	4.5994e-05	4.6283e-05	476.49	166.4	99.523	31.844	4.5817e-05	59.047	196.465	136.144	122.526	79.488	379.480	409.037	79.468	84.814	95.840	359.780	83.750	87.762	89.018	93.994	144.629	91.889	-8191	255	
28701.795	1	1	0	0	0.071013	0.18038	0.23211	0.20525	0.083158	0.27346	0.43312	0.26876	0.13869	0.048434	0.20488	0.076027	0.042594	0.51476	0.021342	0.33802	-1.5042	-1.5125	-2.2229	-1.6958	-1.7125	-2.0958	-1.4521	-2.1896	-1.8667	-1.5083	-2.3292	-1.7146	-1.8021	-2.1188	-1.4688	-2.1562	162.707	251.465	167.025	416.966	172.353	218.996	308.084	342.246	389.623	83.730	403.895	204.540	266.991	106.098	80.330	328.920	0.00057376	0.001262	0.00046946	924.93	1.1064e-05	2.2153e-05	1219.3	283.71	1.0206e-05	1.2508e-05	461.39	164.35	89.534	28.301	9.2259e-06	55.949	0.0039192	0.0043175	0.0011949	947.39	4.7366e-05	4.8747e-05	1190.2	284.58	4.8596e-05	4.8941e-05	479.09	166.71	99.662	31.808	4.7725e-05	58.736	164.709	198.730	422.804	79.291	189.977	244.165	79.154	84.796	273.639	203.617	83.431	87.886	89.597	93.808	128.235	92.045	-8191	255	
28701.891	1	1	0	0	0.15981	0.17249	0.10017	0.1061	0.067149	0.14652	0.1617	0.281	0.12091	0.36706	0.1214	0.096763	0.060164	0.18953	0.076166	0.11636	-1.775	-1.575	-2.3146	-1.7708	-1.7958	-2.2687	-1.5146	-2.2542	-1.9167	-1.3604	-2.5812	-1.7958	-1.5792	-2.4333	-1.3896	-2.0583	184.717	307.533	207.350	75.835	415.193	322.565	372.730	351.402	305.838	335.559	322.910	322.333	199.150	153.772	182.450	395.472	0.0005409	0.00092657	0.00013099	928	1.4632e-05	1.9063e-05	1209.6	282.62	1.1839e-05	1.7403e-05	463.56	161.76	88.131	27.452	7.7329e-06	55.438	0.003975	0.0043458	0.0012058	942.96	4.7153e-05	4.7878e-05	1183.5	282.94	4.7229e-05	4.8047e-05	476.82	165.27	98.802	31.489	4.9157e-05	58.359	192.854	232.105	380.951	79.643	228.131	354.976	79.365	85.204	215.287	288.101	83.715	87.799	89.579	94.058	271.828	91.708	-8191	255	
28702.012	1	1	0	0	0.018417	0.068302	0.21556	0.1642	0.20659	0.13463	0.37526	0.22561	0.079524	0.1664	0.27853	0.070642	0.068762	0.23032	0.13081	0.13011	-1.6958	-1.3271	-2.0417	-1.7896	-1.4438	-2.1458	-1.6521	-1.9438	-2.1354	-1.4708	-2.2042	-2.0333	-1.5146	-2.2417	-1.6625	-2.0667	184.121	70.386	192.285	123.768	200.264	86.097	331.810	401.672	170.765	274.574	361.438	128.275	314.172	74.421	385.579	218.959	0.00057057	0.0022211	0.00028373	930.27	2.2353e-05	1.8199e-05	1214.2	281.56	8.0895e-06	1.2429e-05	458.91	160.55	87.524	27.366	2.2821e-05	54.434	0.0041247	0.0045511	0.0012628	955.44	4.9655e-05	5.0829e-05	1189.2	283.96	5.0133e-05	5.0338e-05	477.51	164.61	98.941	31.213	5.0189e-05	57.864	178.034	77.191	406.827	79.512	204.459	159.117	78.900	84.933	67.464	324.701	83.648	88.024	89.565	93.921	220.106	92.365	-8191	255	
28702.107	1	1	0	0	0.0066226	0.14434	0.22158	0.18171	0.15706	0.12399	0.30785	0.44646	0.173	0.44678	0.22622	0.16983	0.076991	0.15099	0.38121	0.3667	-1.6896	-1.4354	-2.0896	-2.0771	-1.4667	-2.2812	-1.6479	-1.8583	-2.2438	-1.3792	-2.2958	-2.1583	-1.5063	-2.2354	-1.5604	-1.675	396.982	279.239	380.090	131.337	121.849	84.194	105.216	394.449	156.749	337.889	80.314	324.153	158.451	341.730	297.078	397.814	0.00045651	0.0026561	0.00027001	936.69	1.314e-05	1.6651e-05	1221.2	281.11	7.1545e-06	1.4952e-05	457.36	159.81	88.145	27.753	2.3523e-05	55.091	0.0042086	0.0046763	0.0012978	964.21	5.1981e-05	5.2479e-05	1201.1	286.77	5.3408e-05	5.3966e-05	483.85	166.24	100.93	32.091	5.3747e-05	59.357	152.903	125.295	202.934	79.480	145.634	219.671	79.105	85.050	380.133	200.235	83.793	87.628	88.790	94.377	333.811	92.224	-8191	255	
28702.203	1	1	0	0	0.074075	0.18387	0.44927	0.099711	0.15377	0.10899	0.25621	0.39743	0.10723	0.10498	0.13377	0.15651	0.027608	0.10313	0.06588	0.098324	-1.9688	-1.3979	-2.0271	-2.1104	-1.3062	-2.275	-2.0167	-1.65	-2.3979	-1.6417	-2.0375	-2.2062	-1.4937	-2.2521	-1.8896	-1.6375	400.002	67.809	126.506	386.699	118.510	180.985	103.617	373.739	345.759	175.524	315.878	419.182	315.173	74.583	214.273	80.969	0.00051874	0.002471	0.00027769	922.69	2.6439e-05	1.1591e-05	1212.7	280.85	9.8192e-06	9.7264e-06	456.02	159.95	87.174	27.528	6.5319e-06	55.002	0.0045408	0.004978	0.0013684	967.26	5.4281e-05	5.4631e-05	1199.3	287.38	5.2636e-05	5.3364e-05	481.99	165.26	99.65	31.816	5.2445e-05	58.548	180.473	247.577	389.419	79.283	209.010	382.204	79.262	84.935	282.690	362.276	83.830	88.002	88.991	94.242	202.675	92.476	-8191	255	
28702.301	1	1	0	0	0.25009	0.14797	0.14221	0.21175	0.32305	0.27218	0.21517	0.069753	0.18901	0.3274	0.19853	0.15366	0.11096	0.20021	0.099095	0.36773	-2.0417	-1.5042	-1.8542	-2.375	-1.4979	-2.1104	-1.9896	-1.7042	-2.35	-1.5875	-2.0271	-2.1917	-1.5208	-2.0479	-1.9188	-1.6333	171.702	400.133	87.516	417.208	315.937	405.360	356.370	85.121	216.701	144.602	413.918	327.084	226.660	401.064	246.035	347.846	0.0002659	0.00043624	0.00026292	915.8	1.0659e-05	6.9601e-06	1196.5	279.86	9.5839e-06	2.5465e-05	456.09	159.73	85.998	27.554	1.2117e-05	55.177	0.0042694	0.0047652	0.0013003	948.87	5.0296e-05	5.0151e-05	1178.2	282.4	4.8471e-05	4.8805e-05	473.54	161.98	96.526	30.871	4.6107e-05	57.27	158.719	167.434	196.904	79.459	411.167	217.282	79.092	84.842	350.772	237.633	83.819	87.950	88.788	93.875	147.210	92.283	-8191	255	
28702.396	1	1	0	0	0.12382	0.25861	0.41773	0.18964	0.061234	0.029416	0.32992	0.5268	0.17197	0.31894	0.16986	0.12865	0.25676	0.17032	0.047914	0.29107	-1.8229	-1.5958	-1.7313	-2.3917	-1.4021	-1.9542	-2.2	-1.5542	-2.1875	-1.5792	-1.8479	-2.2792	-1.6354	-2.1688	-1.9708	-1.6125	168.936	142.622	82.786	416.161	198.793	178.643	407.785	425.001	353.811	69.583	264.028	392.006	80.484	405.118	389.275	271.555	0.0003445	0.00049587	0.00042401	910.31	1.6474e-06	1.3923e-05	1200.6	278.37	9.9008e-06	1.079e-05	457.76	159.55	87.521	27.561	1.4041e-05	55.192	0.0037381	0.0040975	0.0011349	927.49	4.4311e-05	4.431e-05	1165.5	278.25	4.3776e-05	4.498e-05	467.85	160.65	95.761	30.499	4.3949e-05	57.051	155.370	97.581	114.484	79.793	425.766	385.687	79.230	84.987	228.618	365.888	83.663	88.008	89.368	93.575	204.896	92.394	-8191	255	
28702.492	1	1	0	0	0.1627	0.087465	0.15862	0.13948	0.11558	0.1823	0.22341	0.2163	0.29258	0.21795	0.29326	0.25554	0.36145	0.17071	0.18546	0.20407	-2.0042	-1.6729	-1.4271	-2.3	-1.4333	-2.05	-2.3146	-1.4125	-2.1604	-1.6646	-1.4583	-2.4625	-1.7271	-1.8146	-2.125	-1.4583	89.239	421.647	203.552	250.349	159.729	348.159	405.730	392.773	106.738	128.026	335.166	400.090	313.854	228.008	67.640	314.305	0.00045434	0.00075948	0.00040594	922.35	5.7124e-06	7.422e-06	1209	281.57	3.7879e-06	1.3308e-05	458.27	162.27	87.33	27.783	1.0925e-05	55.925	0.0035615	0.0039556	0.0010897	925.61	4.2229e-05	4.2422e-05	1168.1	278.36	4.1575e-05	4.2157e-05	465.6	161.04	95.104	30.449	4.076e-05	57.277	190.066	300.843	302.133	79.981	177.050	67.211	79.084	85.066	172.855	166.719	83.889	88.089	89.201	94.509	256.010	92.205	-8191	255	
28702.611	1	1	0	0	0.20898	0.11897	0.2668	0.28613	0.14279	0.059843	0.15801	0.10094	0.20203	0.082475	0.088123	0.33261	0.040992	0.10348	0.064938	0.23913	-1.7021	-1.7771	-1.5104	-2.2354	-1.3583	-1.6958	-2.225	-1.3625	-2.1042	-1.9646	-1.6917	-2.5375	-1.5187	-1.7354	-2.2604	-1.4813	270.204	274.460	425.802	407.362	215.141	118.381	343.791	238.753	168.451	237.282	353.297	375.455	272.704	87.954	199.043	418.535	0.00052941	0.00018598	0.00030414	923.92	3.1983e-06	1.2037e-05	1217.2	283.25	6.0627e-06	1.3349e-05	468.7	163.07	88.292	28.163	1.4389e-05	56.436	0.0033235	0.0037008	0.0010176	919.34	3.9529e-05	3.9598e-05	1166.8	277.79	3.9158e-05	4.0889e-05	469.67	161.35	95.143	30.712	4.0448e-05	57.6	190.494	166.448	245.225	79.695	200.474	236.224	79.636	84.595	67.576	418.820	83.742	88.256	89.212	94.128	135.093	91.937	-8191	255	
28702.707	1	1	0	0	0.2621	0.087291	0.10496	0.17231	0.14794	0.25236	0.21355	0.12122	0.21484	0.10639	0.23804	0.16184	0.13992	0.14972	0.24987	0.083899	-1.6187	-1.9937	-1.3792	-2.3542	-1.8521	-1.5562	-2.4354	-1.7271	-1.8312	-2.3354	-1.6208	-2.3125	-1.8083	-1.7646	-2.2729	-1.6604	207.048	282.515	411.682	422.830	288.578	382.683	373.706	368.641	160.907	186.789	411.537	281.416	73.616	381.066	262.599	318.414	0.0004411	0.001089	0.00046251	920.11	1.1064e-05	2.1882e-05	1203.3	282.62	1.3359e-05	1.6296e-05	462.81	159.82	87.29	27.935	5.0553e-06	55.469	0.0034227	0.003781	0.001057	921.7	4.1873e-05	4.2496e-05	1164.6	278.8	4.2664e-05	4.4627e-05	470.66	161.73	96.573	31.152	4.5111e-05	57.953	189.274	269.299	108.215	79.725	189.093	274.500	79.191	84.942	395.906	315.024	83.970	88.238	89.354	94.014	389.353	92.080	-8191	255	
28702.803	1	1	0	0	0.0554	0.26679	0.1419	0.16622	0.19957	0.15333	0.26658	0.17471	0.12377	0.19058	0.2804	0.16804	0.27186	0.25343	0.38302	0.17228	-1.4	-2.0521	-1.3396	-2.2229	-1.7042	-1.1479	-2.4	-1.6187	-1.7979	-2.1771	-1.4104	-2.0354	-1.9583	-1.5979	-2.1521	-1.7208	145.988	408.205	181.124	375.897	289.560	418.636	363.879	370.930	196.309	332.880	369.126	369.355	292.194	315.951	359.688	329.806	0.00042958	0.0011506	0.00026114	913.63	1.8973e-05	1.3882e-05	1207.7	279.13	6.3682e-06	1.9139e-05	460.77	159.74	85.984	27.733	3.8812e-06	55.534	0.0037645	0.0041807	0.0011567	929.79	4.4788e-05	4.4917e-05	1170.7	278.8	4.385e-05	4.4605e-05	469.77	160.47	95.522	30.687	4.4338e-05	57.378	185.368	78.099	93.823	80.075	249.126	155.243	79.503	84.623	367.514	162.846	83.647	88.322	89.379	94.251	389.332	92.638	-8191	255	
28702.875	1	1	0	0	0.24065	0.025595	0.11317	0.083107	0.16978	0.18186	0.25237	0.16225	0.16049	0.1288	0.28751	0.20455	0.21259	0.12072	0.18577	0.29295	-1.3208	-2.3375	-1.325	-2.1083	-2.0438	-1.2979	-2.3187	-1.5146	-1.5875	-2.4208	-1.65	-2.2042	-1.9875	-1.4896	-2.1958	-1.7938	165.199	163.540	177.346	86.661	105.299	361.968	376.987	322.634	321.965	404.441	421.355	340.919	365.114	398.076	320.469	370.950	0.00028497	0.0011099	0.00033953	912.76	1.585e-05	2.349e-05	1203.5	280.81	6.015e-06	1.635e-05	461.28	159.67	85.96	27.569	5.0163e-06	55.214	0.0037146	0.0041033	0.0011498	928.89	4.4813e-05	4.4786e-05	1170.7	279.12	4.3758e-05	4.464e-05	472.61	161.1	95.735	30.735	4.5105e-05	57.635	169.882	167.561	111.524	80.218	197.504	425.810	79.494	84.491	350.375	273.897	83.943	88.377	89.191	94.301	227.129	91.953	-8191	255	
28702.994	1	1	0	0	0.13162	0.29992	0.048456	0.33037	0.16281	0.15676	0.19252	0.4363	0.24189	0.20532	0.21353	0.26915	0.17782	0.17798	0.12872	0.19619	-1.1583	-2.2458	-1.375	-1.9979	-2.0854	-1.275	-2.45	-1.9167	-1.4125	-2.1708	-1.6917	-1.8479	-2.1771	-1.4521	-2.0333	-1.8854	172.675	110.221	175.946	115.275	267.545	131.929	406.296	399.512	294.117	402.697	373.769	378.850	164.808	386.599	283.063	381.677	0.00036389	0.0015941	0.00061962	918.79	4.793e-06	1.1119e-05	1208	281.76	8.903e-06	1.1126e-05	462.59	159.65	86.626	27.557	1.5802e-06	55.304	0.0037943	0.0042102	0.0011847	936.94	4.6214e-05	4.7004e-05	1181.1	282.56	4.6265e-05	4.6811e-05	475.28	162.42	96.662	30.948	4.6093e-05	57.869	199.549	383.935	145.219	79.809	413.228	82.567	79.314	85.096	206.665	340.952	83.687	88.006	88.717	94.682	420.134	92.106	-8191	255	
28703.092	1	1	0	0	0.15949	0.38117	0.072094	0.11423	0.28059	0.14316	0.3647	0.26823	0.27994	0.19604	0.02172	0.31266	0.18933	0.14086	0.20246	0.065614	-0.90417	-2.1458	-1.4792	-1.8083	-2.1396	-1.4021	-2.075	-2.1021	-1.4125	-2.1562	-1.6313	-1.7083	-2.1437	-1.3687	-1.9479	-2.1708	98.147	395.896	323.624	82.724	195.995	166.139	355.788	291.793	175.072	149.912	92.125	421.861	407.931	368.971	163.999	339.330	0.0002297	0.0014052	0.00039494	913.52	4.2531e-06	7.7921e-06	1202.5	279.83	1.7469e-05	1.0763e-05	458.17	157.75	85.235	27.607	4.0082e-06	54.795	0.0038884	0.0042619	0.001191	933.61	4.661e-05	4.7525e-05	1175.7	281.33	4.7929e-05	4.8414e-05	474.7	161.21	96.866	31.204	4.7841e-05	57.758	164.939	304.990	159.748	79.760	302.086	377.765	79.646	84.859	261.690	156.123	83.481	88.133	89.621	94.124	210.098	92.522	-8191	255	
28703.188	1	1	0	0	0.078884	0.10396	0.14515	0.13021	0.12312	0.22392	0.1286	0.18914	0.04461	0.085877	0.10856	0.23472	0.21569	0.029404	0.18026	0.42386	-1	-2.2375	-1.6729	-1.7354	-2.3125	-1.4521	-2.1229	-2.0375	-1.4479	-2.1354	-1.6938	-1.5896	-2.2	-1.3583	-1.6375	-2.025	76.920	257.165	353.148	331.508	121.084	336.362	378.339	326.801	355.042	280.875	374.179	313.067	414.592	380.262	265.336	338.686	0.0005028	0.0024204	0.00035808	910.04	1.1595e-05	2.0339e-05	1197	276.33	6.7019e-06	6.7042e-06	451.27	157.48	84.914	27.327	7.6887e-06	55.09	0.0040186	0.0044075	0.0012291	933.62	4.8308e-05	4.9561e-05	1174.2	280.85	4.9556e-05	4.9637e-05	474.79	161.16	96.104	30.984	4.8204e-05	57.918	140.903	259.724	274.410	80.013	124.092	196.773	79.216	84.947	425.716	222.532	83.535	88.102	89.310	93.732	202.469	92.257	-8191	255	
28703.283	1	1	0	0	0.15704	0.14167	0.21518	0.0509	0.13754	0.19462	0.17221	0.095337	0.10247	0.20477	0.091775	0.10743	0.13259	0.36495	0.074715	0.11266	-0.88333	-1.9604	-1.6417	-1.5146	-2.1104	-1.3937	-1.8583	-2.3167	-1.3167	-2.1583	-2.1063	-1.5542	-2.2979	-1.7583	-1.7458	-2.3812	89.000	417.806	168.413	182.603	134.447	90.790	318.768	323.423	150.269	149.152	250.558	275.233	349.364	87.005	240.363	390.822	0.00031917	0.0018965	0.00033458	900.19	1.0439e-05	1.6594e-05	1200.3	276.85	1.0925e-05	1.4945e-05	456.16	158.24	85.61	27.139	3.4206e-06	55.061	0.0040737	0.0044358	0.0012612	935.6	4.9276e-05	5.1269e-05	1180.5	282.26	5.1512e-05	5.1784e-05	480.05	162.85	97.83	31.375	5.1024e-05	58.541	165.239	424.422	96.305	79.514	298.014	291.261	78.914	84.689	307.014	90.756	83.238	88.006	89.335	93.949	374.954	91.412	-8191	255	
28703.381	1	1	0	0	0.074747	0.12514	0.10382	0.16319	0.2279	0.2285	0.26767	0.21488	0.079031	0.16641	0.13048	0.1384	0.28121	0.085682	0.32092	0.11135	-1.1771	-2.1	-1.8042	-1.5104	-2.2167	-1.6688	-1.8375	-2.4583	-1.5812	-1.9229	-2.1854	-1.7229	-2.4917	-1.8312	-1.45	-2.4688	422.238	370.600	263.469	423.141	139.958	88.553	76.983	363.117	316.058	230.782	364.929	356.228	360.048	330.482	148.533	353.965	0.00010841	0.0014325	0.00027545	922.22	1.2091e-05	1.3656e-05	1206.7	280.19	2.7888e-06	1.151e-05	458.64	158.28	85.055	27.361	9.9843e-06	55.013	0.0042609	0.0046345	0.0012955	948.86	4.9802e-05	5.0669e-05	1189.1	283.82	5.0772e-05	5.1748e-05	483.08	163.54	98.203	31.718	5.3151e-05	59.038	191.524	297.128	224.279	79.704	152.481	133.762	79.136	84.620	108.566	184.083	83.246	87.651	88.690	93.314	200.929	91.632	-8191	255	
28703.477	1	1	0	0	0.10862	0.17252	0.16589	0.28768	0.14889	0.063398	0.26283	0.25391	0.075461	0.3016	0.057261	0.24186	0.15154	0.2963	0.22096	0.25313	-1.1896	-1.8292	-2.2	-1.5771	-2.1375	-1.7812	-1.7354	-2.3833	-1.6562	-1.9896	-2.2604	-1.275	-2.2062	-1.9833	-1.4625	-2.3167	189.283	84.926	186.573	378.555	305.118	154.802	381.783	80.115	210.684	93.237	108.019	297.776	412.031	378.657	277.430	423.454	0.00064584	0.0019336	0.00031024	909.52	5.9703e-06	1.0786e-05	1197.1	276.79	2.06e-05	2.7093e-05	455.73	156.81	84.187	27.237	9.6719e-06	54.514	0.004416	0.0048552	0.0013683	947.01	5.1382e-05	5.2756e-05	1182.4	282.36	5.2072e-05	5.1861e-05	478.79	162.47	97.604	31.706	5.2638e-05	58.429	147.435	264.286	338.462	79.231	284.433	119.656	78.776	84.967	266.718	219.599	83.648	87.733	88.902	93.826	184.180	92.186	-8191	255	
28703.572	1	1	0	0	0.14148	0.070812	0.11579	0.1215	0.1406	0.31673	0.1611	0.22429	0.22569	0.14116	0.23257	0.34848	0.22898	0.21018	0.28038	0.2674	-1.2875	-1.7479	-2.3208	-1.5167	-2.1083	-1.9396	-1.6854	-2.4333	-1.7188	-1.7271	-2.4188	-1.5021	-2.125	-2.0792	-1.5167	-2.2375	217.318	240.126	231.292	136.313	135.302	104.394	290.714	246.128	311.593	271.301	120.127	412.366	397.316	300.377	336.941	392.821	0.00042863	0.00097179	0.00053892	904.09	7.2219e-06	8.0254e-06	1190.4	276.13	8.3768e-06	5.563e-06	449.6	155.66	84.056	27.038	1.424e-05	54.36	0.0044245	0.0048694	0.001364	943.15	5.2476e-05	5.3673e-05	1176.4	280.66	5.2256e-05	5.2586e-05	475.96	161.84	96.997	31.457	5.314e-05	58.175	164.317	86.236	107.491	79.167	128.350	206.679	78.672	84.748	294.218	307.804	83.575	87.787	89.197	93.937	126.510	91.796	-8191	255	
28703.693	1	1	0	0	0.07548	0.12259	0.27429	0.17177	0.28777	0.20017	0.19123	0.058122	0.29517	0.049842	0.16631	0.48545	0.2781	0.074193	0.10164	0.16462	-1.3479	-1.4646	-2.3146	-1.2917	-1.9562	-2.1396	-1.4604	-2.4208	-1.7313	-1.6437	-2.2583	-1.5521	-2.0521	-2.3292	-1.3417	-2.3688	325.988	224.476	323.949	347.596	75.713	101.814	318.992	378.816	392.576	121.202	98.876	417.294	77.763	186.268	99.884	268.542	0.00031013	0.00094609	0.00039044	902.82	8.6261e-06	7.1393e-06	1188.2	273.55	6.1137e-06	3.1225e-05	455.58	157.09	84.1	26.825	1.0636e-05	54.656	0.0044585	0.0049171	0.0013625	941.24	5.2542e-05	5.4004e-05	1178.7	280.67	5.2862e-05	5.364e-05	480.99	162.61	97.856	31.55	5.3661e-05	58.465	165.491	350.402	402.501	79.237	93.823	401.713	79.062	84.691	146.924	147.422	83.802	87.908	88.826	93.778	264.328	91.853	-8191	255	
28703.787	1	1	0	0	0.090864	0.1441	0.088521	0.31891	0.052395	0.16148	0.040961	0.35562	0.13788	0.010652	0.094642	0.26038	0.074895	0.25207	0.27468	0.20626	-1.5063	-1.6979	-2.2833	-1.6125	-1.9875	-2.25	-1.6792	-2.325	-1.875	-1.5083	-2.3417	-1.7687	-1.7146	-2.1917	-1.3104	-1.9854	174.807	186.366	355.643	425.719	416.053	331.394	306.555	383.815	309.978	308.151	328.972	96.161	291.701	77.407	88.155	71.693	0.000539	0.0021688	0.00024122	901.49	9.0273e-06	1.4353e-05	1195.3	277.62	2.398e-05	6.0682e-06	456.48	157	84.601	27.12	1.0224e-05	55.35	0.0044993	0.0049381	0.0013587	944.93	5.2002e-05	5.2768e-05	1183.5	282.53	5.1761e-05	5.241e-05	480.92	162.76	97.302	31.454	5.1733e-05	58.523	188.534	256.376	215.405	78.917	269.675	124.153	79.069	85.096	190.580	144.210	83.323	87.328	89.309	94.173	236.080	92.041	-8191	255	
28703.883	1	1	0	0	0.15014	0.15753	0.04008	0.2254	0.20363	0.082276	0.17074	0.36987	0.14101	0.16294	0.13075	0.424	0.11655	0.25123	0.073207	0.054424	-1.6542	-1.2875	-2.1875	-1.7646	-1.6979	-2.1042	-1.6521	-2.0583	-2.0417	-1.4	-2.3729	-1.6458	-1.6375	-2.3312	-1.3667	-2.0771	101.736	140.888	339.561	73.861	350.006	168.743	417.192	391.330	144.633	125.661	322.029	403.406	240.064	144.437	390.170	316.391	0.00040105	0.0010674	0.00037137	905.49	8.1204e-06	1.4225e-05	1183.4	274.72	1.1587e-05	1.9308e-05	450.92	155.29	84.076	27.007	7.0377e-06	54.293	0.0043803	0.0048018	0.0013218	943.94	5.1779e-05	5.2285e-05	1175.5	280.34	5.1862e-05	5.2117e-05	476.04	161.57	97.091	31.203	5.272e-05	58.114	177.259	312.303	349.255	79.460	283.375	421.189	79.266	84.666	405.033	131.498	83.895	87.840	88.931	93.626	103.005	91.751	-8191	255	
28703.980	1	1	0	0	0.090215	0.14511	0.083479	0.30193	0.30202	0.1731	0.06184	0.12789	0.057835	0.29989	0.19801	0.12859	0.27388	0.15559	0.23117	0.21881	-1.7	-1.3396	-2.1104	-1.9958	-1.4604	-2.2458	-1.5917	-1.9229	-2.2729	-1.2667	-2.4083	-1.875	-1.5187	-2.3875	-1.5562	-1.7854	67.308	318.374	243.634	336.058	372.283	187.728	308.135	420.305	95.980	288.699	352.846	98.349	423.956	425.129	313.036	368.428	0.00062163	0.00029386	0.00027002	898.78	2.8114e-05	1.325e-05	1189.4	273.46	6.9807e-06	1.3235e-05	449.67	154.84	83.328	26.508	1.6188e-05	54.18	0.0044222	0.0048696	0.0013485	938.87	5.2456e-05	5.2823e-05	1173.4	279.42	5.2454e-05	5.243e-05	472.7	160.43	96.359	30.77	5.1265e-05	57.435	165.346	154.567	185.706	79.198	188.235	139.067	78.864	84.804	86.771	119.230	83.913	87.844	89.296	93.140	312.649	91.494	-8191	255	
28704.100	1	1	0	0	0.13918	0.11463	0.11978	0.14059	0.08578	0.099074	0.19185	0.19388	0.37333	0.36327	0.16562	0.20743	0.12379	0.26313	0.29688	0.14324	-1.8438	-1.1458	-2.0417	-1.9479	-1.3167	-2.2667	-1.8813	-1.5104	-2.2354	-1.4562	-1.9479	-2.0938	-1.3167	-2.3479	-1.7667	-1.5562	121.532	372.245	424.850	95.452	280.931	272.541	131.233	376.831	311.738	143.332	91.867	390.775	192.411	324.679	347.345	393.787	0.00035438	0.0011946	0.0004439	897.27	3.5129e-06	6.5663e-06	1189.4	273.11	1.2446e-05	7.9537e-06	446.49	153.4	82.932	26.135	1.054e-05	53.26	0.0042665	0.0047012	0.0012922	933.16	5.1137e-05	5.2116e-05	1174.2	279.43	5.2297e-05	5.3442e-05	474.27	160.32	96.843	30.954	5.5043e-05	57.733	182.479	221.493	303.779	78.721	93.491	216.618	79.070	84.899	206.318	371.468	83.480	87.615	88.469	93.538	396.048	92.052	-8191	255	
28704.172	1	1	0	0	0.34438	0.16587	0.10403	0.40592	0.24982	0.31402	0.16619	0.25403	0.16864	0.22098	0.079962	0.18414	0.16656	0.18977	0.17231	0.22019	-1.9271	-1.5354	-1.7167	-2.1417	-1.2812	-2.1958	-1.8229	-1.6917	-2.3583	-1.4604	-1.9875	-2.0417	-1.3917	-2.1562	-1.8646	-1.5583	100.402	76.011	76.159	383.783	89.663	302.175	292.640	345.904	203.840	186.900	153.760	300.428	198.495	423.824	190.626	398.500	0.00065503	0.00078518	0.00022882	897.03	9.3319e-06	2.7346e-05	1183	273.23	4.2375e-06	2.8819e-05	446.77	153.24	83.235	26.372	1.3919e-05	52.91	0.0045959	0.0050815	0.001392	943.34	5.4017e-05	5.4027e-05	1174.6	279.77	5.3315e-05	5.4496e-05	475.46	160.14	96.694	30.89	5.3732e-05	57.345	185.994	412.742	216.775	79.043	329.074	255.336	79.171	84.762	260.913	308.947	83.739	87.710	89.020	93.687	117.108	92.021	-8191	255	
28704.293	1	1	0	0	0.11622	0.081124	0.09642	0.30579	0.34061	0.1355	0.33615	0.18716	0.26979	0.1528	0.30144	0.13736	0.14627	0.085466	0.29535	0.26906	-1.9188	-1.3917	-1.8438	-2.2458	-1.5854	-2.1312	-2.0792	-1.6542	-2.35	-1.6896	-1.8937	-2.4625	-1.5479	-2.2062	-2.1458	-1.4854	96.831	211.700	129.623	281.244	108.846	276.659	388.876	416.815	180.119	188.591	282.753	321.171	92.584	413.873	305.395	378.762	0.00063655	0.00093566	0.00036079	897.62	8.4317e-06	1.4929e-05	1172.8	269.94	1.6504e-05	2.6744e-06	443.37	152.79	81.981	26.173	1.9662e-05	52.992	0.0043952	0.0049028	0.0013424	932.13	5.172e-05	5.167e-05	1160.9	274.72	5.0024e-05	5.073e-05	466.25	157.92	94.603	30.237	4.9768e-05	56.506	150.625	399.772	123.848	79.188	190.287	290.579	78.794	84.481	125.466	111.141	83.615	87.197	89.195	93.368	127.406	91.703	-8191	255	
28704.389	1	1	0	0	0.24497	0.21564	0.11531	0.14274	0.11325	0.36452	0.23406	0.18478	0.13527	0.10616	0.2507	0.18571	0.19729	0.14465	0.20566	0.046666	-1.9958	-1.7188	-1.5729	-2.2542	-1.3104	-1.9875	-2.2313	-1.7333	-2.1479	-1.7375	-1.9562	-2.4062	-1.4083	-1.8729	-2.1021	-1.5354	128.998	315.872	107.726	148.860	310.958	236.781	418.074	395.829	256.548	260.725	247.293	324.874	311.132	105.813	102.776	365.453	0.00049861	0.00028145	0.00044792	886.82	7.4691e-06	1.2049e-05	1173.2	269.75	1.1471e-05	1.3742e-05	441.92	153.38	81.745	25.852	4.3789e-06	52.644	0.0040751	0.0045744	0.0012679	923.08	5.013e-05	5.0196e-05	1157.7	274.1	4.9517e-05	5.1136e-05	467.11	157.86	94.518	30.198	5.085e-05	56.451	189.472	106.915	249.969	78.938	245.666	214.280	78.820	84.556	170.283	222.703	83.305	87.701	89.048	93.657	201.975	91.672	-8191	255	
28704.484	1	1	0	0	0.18954	0.25284	0.17336	0.10525	0.13746	0.077014	0.10391	0.1052	0.10548	0.052385	0.10186	0.3849	0.04557	0.29588	0.15231	0.22822	-1.8042	-1.6771	-1.6375	-2.4604	-1.6417	-1.8708	-2.2271	-1.3979	-2.0375	-1.8854	-1.7229	-2.2792	-1.5646	-1.6167	-2.0354	-1.4333	256.475	329.664	262.957	398.187	416.327	232.755	303.411	380.998	295.144	76.311	306.139	380.145	204.691	362.616	393.639	417.354	0.00037795	0.0011835	0.00042213	887.67	8.4004e-06	1.2906e-05	1181.7	268.68	4.6121e-06	7.5761e-06	445.36	154.41	81.603	25.993	1.2422e-05	53.408	0.0041901	0.004732	0.0013131	924.18	5.1547e-05	5.0787e-05	1160.6	275.02	5.0297e-05	5.1852e-05	470.03	158.82	94.797	30.29	5.0794e-05	56.867	153.561	371.706	257.032	79.186	258.448	197.605	78.961	84.383	194.779	83.100	83.617	88.227	89.174	93.422	109.106	91.821	-8191	255	
28704.580	1	1	0	0	0.24166	0.33794	0.083372	0.081632	0.044823	0.084637	0.2701	0.26482	0.10135	0.043334	0.1473	0.1781	0.21116	0.21124	0.14198	0.14509	-1.6646	-1.8958	-1.3563	-2.2854	-1.4979	-1.6542	-2.3563	-1.4854	-2.0542	-2.1354	-1.3646	-2.3542	-1.8146	-1.4958	-2.1458	-1.3958	197.978	426.304	360.607	364.240	140.048	103.623	410.000	373.928	189.301	127.088	286.797	334.761	93.653	407.146	154.552	357.316	0.00045087	0.0015841	0.00043627	895.22	1.2219e-05	1.7991e-05	1190.1	273.29	1.701e-05	3.0786e-05	450.89	155.1	83.297	26.139	1.1102e-05	53.75	0.0042326	0.0047292	0.0013093	928.99	5.1087e-05	5.1596e-05	1173.6	278.35	4.9942e-05	5.1242e-05	473.49	159.42	95.253	30.386	4.9828e-05	56.944	176.697	166.282	332.051	78.762	216.365	186.616	79.207	84.552	183.935	151.154	83.717	87.424	89.193	93.907	184.467	91.663	-8191	255	
28704.676	1	1	0	0	0.14851	0.28709	0.29402	0.40882	0.19479	0.25239	0.22601	0.17431	0.22915	0.22169	0.25462	0.48743	0.19149	0.37097	0.075317	0.14353	-1.5625	-2.0042	-1.4417	-2.2667	-1.8083	-1.3875	-2.2812	-1.5063	-1.9021	-2.0917	-1.4333	-2.2271	-1.9417	-1.6938	-2.4125	-1.7708	251.761	159.343	131.690	386.499	268.894	168.282	425.988	355.830	113.638	174.621	380.338	414.379	117.267	403.243	204.708	155.725	0.00058461	0.0023469	5.6933e-05	896.63	8.8453e-06	1.3254e-05	1184.4	275.29	3.9648e-06	1.4864e-05	452.05	155.27	82.87	26.437	1.4402e-05	53.216	0.0040619	0.0045302	0.0012505	925.34	4.8772e-05	4.8635e-05	1164.5	277.8	4.7919e-05	4.9428e-05	471.11	158.54	94.827	30.228	4.9032e-05	56.566	174.991	213.867	328.531	79.011	200.169	266.551	79.361	84.812	168.192	201.293	83.618	87.614	88.692	93.515	76.280	91.518	-8191	255	
28704.771	1	1	0	0	0.11372	0.34533	0.1522	0.18617	0.22596	0.17844	0.11688	0.15758	0.11986	0.17771	0.24969	0.14551	0.11143	0.14999	0.20655	0.23208	-1.2667	-2.2042	-1.1792	-1.975	-2.0646	-1.3458	-2.4021	-1.5958	-1.475	-2.325	-1.5354	-2.1604	-1.8979	-1.4854	-2.2229	-1.5708	193.143	287.332	119.383	401.781	84.681	416.516	342.439	289.517	75.610	422.965	422.135	347.559	72.109	303.393	323.169	305.989	0.00037278	0.0015781	0.0002475	898.95	5.2943e-06	1.0908e-05	1191.2	273.4	1.0682e-05	1.2378e-05	449.41	153.17	82.492	26.116	1.6454e-05	53.242	0.0040735	0.0045762	0.0012704	928.7	4.9762e-05	5.0345e-05	1168.2	277.23	4.9653e-05	5.0614e-05	470.35	158.15	94.922	30.371	4.9578e-05	56.62	138.171	229.741	332.651	79.747	91.295	319.831	79.418	84.083	175.011	120.995	83.611	87.996	88.819	93.905	277.121	91.820	-8191	255	
28704.867	1	1	0	0	0.16278	0.066944	0.23105	0.13446	0.043488	0.10417	0.10235	0.30286	0.10075	0.2767	0.16813	0.34652	0.48486	0.097382	0.06566	0.29931	-1.4417	-2.2417	-1.3104	-2.0875	-2.1333	-1.2792	-2.2396	-1.7188	-1.5312	-2.4021	-1.6021	-2.0208	-2.0333	-1.3854	-2.0729	-1.9917	295.324	161.066	147.594	68.757	129.783	285.990	383.853	387.893	112.606	384.184	210.977	346.474	95.131	317.375	235.297	71.427	0.00038237	0.0022604	0.00036965	891.01	5.1157e-06	6.2334e-06	1176.7	273.06	2.0281e-05	2.1245e-05	452.36	153.01	82.926	26.139	1.4498e-05	53.566	0.0041834	0.0046389	0.0012763	928.58	5.0291e-05	5.0657e-05	1162.5	277.83	5.0039e-05	5.1247e-05	473.15	158.87	95.131	30.554	5.0884e-05	57.201	164.224	169.646	281.434	79.478	80.720	382.768	79.123	84.737	117.363	107.547	83.649	87.906	89.442	93.770	204.472	91.993	-8191	255	
28704.965	1	1	0	0	0.1441	0.18243	0.099884	0.095011	0.12351	0.097743	0.19564	0.15017	0.18127	0.23608	0.2785	0.10234	0.099097	0.3467	0.14663	0.12423	-1.0417	-2.2188	-1.475	-1.8958	-2.2875	-1.3875	-2.2667	-1.9521	-1.5312	-2.2333	-1.6375	-1.8292	-2.2625	-1.5271	-2.1646	-2.0417	232.955	151.976	110.608	342.308	337.126	358.522	90.476	377.379	176.249	185.362	405.080	385.104	264.329	324.130	375.537	395.833	0.00042799	0.00086695	0.00036064	892.93	1.7066e-05	1.3362e-05	1186.4	273.28	3.3318e-06	2.365e-05	453.73	156.89	83.381	26.688	4.4113e-06	54.292	0.0042898	0.0047446	0.0013288	932.48	5.213e-05	5.2572e-05	1171.9	280.23	5.1269e-05	5.1066e-05	476.58	160.13	95.498	30.737	4.9399e-05	57.391	198.343	69.117	187.087	79.873	148.892	364.827	79.380	84.581	353.366	267.882	83.383	88.189	89.343	94.058	81.985	92.005	-8191	255	
28705.061	1	1	0	0	0.1575	0.043644	0.15109	0.24795	0.33308	0.19457	0.16151	0.15153	0.10661	0.1045	0.37391	0.10073	0.25408	0.14848	0.22441	0.21215	-1.0146	-2.2333	-1.6333	-1.7979	-2.3667	-1.2229	-2.2167	-2.2167	-1.4854	-2.1771	-1.8625	-1.7042	-2.1729	-1.5562	-1.7854	-2.1063	206.054	236.386	369.474	90.088	83.035	424.896	68.850	354.521	149.635	163.986	355.732	394.317	386.344	128.917	183.773	79.652	0.00041035	0.00068797	4.6391e-05	909.03	1.2438e-05	1.7151e-05	1199.2	276.64	2.3685e-06	2.3058e-05	458.32	156.08	84.504	26.454	2.0938e-05	53.649	0.0040588	0.0044528	0.0012406	929.1	4.7233e-05	4.7205e-05	1168.6	278.08	4.6269e-05	4.7026e-05	471.79	158.82	94.148	29.96	4.558e-05	56.25	160.286	407.901	387.799	79.677	165.548	306.189	79.493	84.662	341.639	230.451	83.793	88.370	89.319	93.781	185.524	92.051	-8191	255	
28705.182	1	1	0	0	0.12628	0.18258	0.061841	0.58403	0.19624	0.13506	0.12494	0.026594	0.29997	0.092795	0.11324	0.080614	0.02483	0.27854	0.20714	0.16203	-1.0271	-2.0958	-1.8	-1.7333	-2.2917	-1.4833	-1.95	-2.3375	-1.3625	-2.1771	-2.0667	-1.7313	-2.3375	-1.6187	-1.7292	-2.2396	346.491	89.607	202.712	404.547	155.863	150.013	392.766	345.489	95.672	187.120	142.595	381.844	198.119	88.393	219.286	350.021	0.00035793	0.00081088	0.00032911	904.89	1.57e-05	1.9814e-05	1199.5	277.37	7.0526e-06	1.164e-05	459.34	156.1	84.729	26.574	8.7154e-06	53.987	0.0037438	0.0040755	0.0011475	917.1	4.4118e-05	4.4555e-05	1162.2	276.24	4.4268e-05	4.4432e-05	468.15	157.55	93.615	29.884	4.5282e-05	56.16	173.092	258.490	401.874	79.501	395.665	152.322	79.351	85.138	319.004	369.911	83.778	87.825	88.879	94.104	375.520	92.003	-8191	255	
28705.277	1	1	0	0	0.2246	0.12884	0.089181	0.1896	0.24084	0.071694	0.086278	0.17177	0.1082	0.24691	0.18362	0.19416	0.17684	0.087288	0.1743	0.17797	-1.0229	-1.8354	-1.9708	-1.4542	-2.2229	-1.7292	-1.7625	-2.3583	-1.2125	-2.1542	-2.1792	-1.4917	-2.3354	-1.7792	-1.5458	-2.3542	371.200	248.800	103.384	418.256	394.680	260.629	367.963	320.255	163.607	289.664	396.203	176.604	390.760	296.705	128.412	387.956	0.00032474	0.0010699	0.00026087	899.88	4.259e-06	1.3886e-05	1195.1	274.96	9.7042e-06	1.4898e-05	453.83	155.24	83.171	26.639	8.6426e-06	53.951	0.0038164	0.0041873	0.0011757	921.33	4.5474e-05	4.6637e-05	1157.7	276.43	4.5906e-05	4.66e-05	470.11	158.28	93.867	30.202	4.7488e-05	56.785	159.200	105.547	380.127	79.832	100.153	419.666	79.270	85.341	178.155	187.911	83.881	88.278	89.034	93.919	102.172	92.421	-8191	255	
28705.373	1	1	0	0	0.10998	0.15927	0.14315	0.30064	0.17699	0.077865	0.13963	0.22429	0.13405	0.32303	0.10384	0.12178	0.08221	0.11634	0.15343	0.084024	-1.1208	-1.9833	-1.975	-1.4292	-2.3208	-1.7333	-1.6958	-2.4417	-1.4312	-1.9333	-2.0875	-1.5021	-2.1896	-1.725	-1.5146	-2.3792	409.707	290.782	306.704	398.832	139.954	119.509	414.326	361.545	352.933	104.623	387.599	111.343	70.616	195.994	122.718	334.830	0.00063089	0.00058255	0.00068621	895.99	1.469e-05	2.2755e-05	1197.8	275.33	1.1994e-05	1.2212e-05	458.1	155.59	84.433	27.009	2.1718e-05	54.81	0.0040022	0.0043958	0.0012411	927.65	4.8087e-05	4.9698e-05	1173.4	279.38	4.8662e-05	4.9143e-05	476.3	160.37	95.33	30.798	4.9403e-05	57.879	189.790	159.265	147.695	79.656	151.635	94.624	79.427	85.089	320.062	327.450	84.224	88.572	89.836	93.981	253.314	92.162	-8191	255	
28705.469	1	1	0	0	0.058032	0.17666	0.14978	0.27003	0.085735	0.13938	0.50533	0.27616	0.036861	0.22728	0.08319	0.31181	0.09848	0.22736	0.051317	0.25312	-0.99583	-1.8042	-2.1229	-1.3062	-2.0187	-2.0229	-1.6375	-2.2875	-1.5146	-1.7604	-2.3854	-1.4979	-2.1813	-2.0917	-1.4438	-2.3521	105.240	103.922	415.606	414.225	241.691	379.456	323.146	374.397	401.132	185.662	315.216	77.138	134.961	382.832	107.285	383.864	0.00025589	0.0014556	0.00036719	901.08	1.9331e-05	2.3564e-05	1192.9	275.77	1.3508e-05	8.7019e-06	455.08	155.74	83.631	26.528	1.7445e-05	54.433	0.004207	0.0045943	0.0012835	934.84	4.9697e-05	5.1243e-05	1179.6	281.36	5.0798e-05	5.1783e-05	479.42	161.51	96.148	31.129	5.2624e-05	57.894	181.918	156.098	116.324	79.964	278.113	158.280	79.493	85.417	235.027	193.722	84.380	87.994	89.873	94.288	277.268	92.191	-8191	255	
28705.564	1	1	0	0	0.22275	0.20882	0.05412	0.27134	0.087465	0.19832	0.34156	0.19889	0.31609	0.20413	0.16172	0.18474	0.23746	0.070478	0.10071	0.035918	-1.3687	-1.5458	-2.1667	-1.4375	-1.7563	-2.2062	-1.5938	-2.1833	-1.8062	-1.6229	-2.3812	-1.5583	-1.8375	-1.9271	-1.3083	-2.3375	173.760	118.878	308.858	379.742	195.794	394.161	354.230	360.391	147.046	76.395	408.164	361.266	277.930	135.710	351.470	209.656	0.00047743	0.0018261	0.00014325	898.85	5.5454e-06	2.7165e-05	1187.2	276.42	1.6328e-06	1.584e-05	455.22	155.74	83.618	26.116	9.2833e-06	54.333	0.0044046	0.0048357	0.0013522	940.05	5.1883e-05	5.3097e-05	1175.7	280.26	5.1255e-05	5.175e-05	477.29	160.08	95.493	30.637	5.0728e-05	57.319	193.745	82.924	95.297	79.878	151.350	353.342	79.773	85.252	135.522	233.666	84.302	88.417	89.791	94.708	108.573	92.911	-8191	255	
28705.660	1	1	0	0	0.19624	0.083123	0.15194	0.11969	0.085342	0.24955	0.077081	0.42187	0.15637	0.15031	0.13089	0.10527	0.31022	0.13525	0.11927	0.060053	-1.3042	-1.5375	-2.3104	-1.6458	-1.85	-2.1333	-1.5146	-2.05	-1.6583	-1.4188	-2.3292	-1.6521	-1.8479	-2.3667	-1.3646	-2.3458	264.174	213.123	184.389	383.916	187.874	198.554	218.958	398.657	220.405	102.268	339.832	338.208	332.099	89.648	351.504	294.768	0.00017686	0.00067364	0.00029246	896.34	2.1464e-05	6.0472e-06	1184.7	274.84	1.268e-05	5.2192e-06	457.38	155.42	83.431	26.485	2.6101e-05	53.59	0.0042622	0.0046827	0.0013016	933.8	5.0415e-05	5.2289e-05	1170.8	279.68	5.2239e-05	5.3475e-05	479.72	161.08	96.514	30.995	5.3272e-05	57.807	213.960	280.301	259.565	80.217	221.506	184.009	79.435	85.331	183.604	324.535	84.270	87.966	89.855	94.299	256.976	92.590	-8191	255	
28705.779	1	1	0	0	0.021322	0.20322	0.12386	0.22915	0.18817	0.048757	0.4149	0.14006	0.1865	0.17449	0.20179	0.35048	0.12625	0.13997	0.25467	0.29321	-1.5396	-1.4	-2.2938	-1.6479	-1.5312	-2.2521	-1.4729	-2.1042	-1.8396	-1.2062	-2.1958	-1.7292	-1.6625	-2.1937	-1.325	-1.9229	275.537	389.545	297.346	396.909	389.060	367.664	375.772	350.225	127.406	397.783	394.238	366.329	413.519	414.155	417.472	325.919	0.0004846	1.4935e-05	0.00073407	896.57	1.2246e-05	3.5016e-05	1196.8	273.88	1.9002e-05	9.5656e-06	455.3	156.15	83.583	26.63	2.3135e-05	54.509	0.0044686	0.0049151	0.0013543	936.99	5.2576e-05	5.3721e-05	1179	281	5.3458e-05	5.4509e-05	482.31	162.5	97.633	31.5	5.5513e-05	58.923	192.665	321.265	156.975	79.769	275.226	202.054	79.636	85.024	225.948	136.743	84.060	88.257	89.835	94.071	202.053	92.501	-8191	255	
28705.877	1	1	0	0	0.15179	0.23146	0.18775	0.39956	0.2517	0.14513	0.19382	0.23526	0.14422	0.39616	0.33036	0.1239	0.17195	0.097643	0.24327	0.074125	-1.6938	-1.4458	-2.3646	-1.6521	-1.4208	-2.3146	-1.6313	-1.9167	-2.05	-1.3417	-2.2333	-2.0062	-1.6542	-2.4229	-1.4854	-2.0417	339.253	69.259	90.995	107.443	407.879	198.797	393.651	85.099	329.567	364.865	397.896	372.564	348.915	293.105	222.772	157.706	0.00047545	0.0014979	0.00018353	891.07	1.2023e-05	1.368e-05	1193.5	274.26	9.0528e-06	1.2823e-05	458.28	156.59	84.109	26.568	1.4185e-05	53.518	0.0047166	0.0052506	0.0014575	954.42	5.7771e-05	5.903e-05	1199.3	287.32	6.0328e-05	6.1249e-05	495.38	166.22	101.76	32.522	6.2791e-05	59.915	190.182	104.148	167.646	80.012	248.180	286.071	79.182	85.076	225.382	188.084	83.873	87.959	89.689	94.919	215.725	92.851	-8191	255	
28705.973	1	1	0	0	0.04099	0.38648	0.25296	0.12872	0.16849	0.11335	0.30787	0.030151	0.18863	0.39455	0.1388	0.23228	0.1448	0.18603	0.2505	0.028863	-1.7125	-1.3333	-1.9312	-1.8521	-1.4167	-2.3271	-1.7375	-1.8104	-2.2646	-1.3729	-2.1437	-1.9854	-1.5312	-2.3521	-1.45	-1.6604	148.787	356.938	134.142	109.947	387.080	85.233	335.165	79.190	79.229	242.999	217.812	304.425	69.195	353.246	144.398	329.939	0.00070148	0.0013768	0.00042148	897.01	4.4976e-06	1.4103e-05	1182.1	272.64	2.1127e-05	2.4007e-05	451.8	153.3	83.496	26.073	2.0918e-05	53.352	0.0052729	0.0058674	0.0016164	971.38	6.3683e-05	6.4107e-05	1205	288.27	6.3462e-05	6.383e-05	494.71	165.19	101.16	32.309	6.2912e-05	59.305	182.535	250.987	119.585	79.947	403.599	229.459	79.447	85.170	197.984	247.547	83.980	88.118	89.724	94.733	229.706	92.527	-8191	255	
28706.068	1	1	0	0	0.067351	0.14388	0.10958	0.21246	0.17742	0.17925	0.30158	0.18695	0.14015	0.20895	0.039975	0.2751	0.050748	0.10234	0.09126	0.14027	-1.8188	-1.5396	-1.9479	-2.075	-1.4646	-2.2938	-1.7646	-1.7021	-2.2479	-1.3729	-2.0771	-2.1625	-1.5292	-2.3771	-1.6833	-1.75	118.620	278.897	244.313	144.513	233.490	337.637	391.127	394.877	201.058	213.528	281.357	396.215	171.612	67.776	115.403	374.186	0.00046744	0.0016451	0.00011505	897.84	4.6891e-06	1.4151e-05	1182.8	274.84	1.0663e-05	9.9394e-06	450.56	155.47	83.352	26.289	1.7325e-05	53.293	0.0051282	0.0055568	0.0015221	953.79	5.8303e-05	5.7409e-05	1181.1	282.62	5.5374e-05	5.5577e-05	482.25	161.44	96.989	30.971	5.4707e-05	57.797	150.676	382.587	340.026	79.710	392.732	119.310	79.151	85.403	176.554	295.368	83.860	88.062	89.458	94.182	186.844	92.508	-8191	255	
#DATA ENDS
