BOXY.EXE: ISS Imagent and Oximeter Data Acquisition Program Version 0.80
Ascii Record File

#ACQ INFORMATION
2  Detector Channels 
16  External MUX Channels 
1  Auxiliary Channels 
5000  Waveform (CCF) Frequency (Hz)
1  Waveforms Skipped 
30  Waveforms Averaged 
1  Cycles Averaged 
16  Acquisitions per Waveform 
10.0806  Updata Rate (Hz) 

#FILE INFORMATION
TRUE -- External MUX Channel results are PARSED.
FALSE -- AC DC and Phase are NOT grouped.
TRUE -- Companion Program Settings File CREATED.
FALSE -- AC data not excluded
FALSE -- DC data not excluded
FALSE -- Phase data not excluded
FALSE -- Auxillary Chn. data not excluded
Tab delimiters

#CALIBRATION STATE
TRUE -- Waveform Calibration Values APPLIED.


#AUX CALIBRATION VALUES
Val Type	aux-1	

Term	1.0000e+00	
Factor	0.0000e+00	


#WF CALIBRATION VALUES
A = Detector Channel
Val Type	A-AC1	A-AC2	A-AC3	A-AC4	A-AC5	A-AC6	A-AC7	A-AC8	A-AC9	A-AC10	A-AC11	A-AC12	A-AC13	A-AC14	A-AC15	A-AC16	A-DC1	A-DC2	A-DC3	A-DC4	A-DC5	A-DC6	A-DC7	A-DC8	A-DC9	A-DC10	A-DC11	A-DC12	A-DC13	A-DC14	A-DC15	A-DC16	A-Ph1	A-Ph2	A-Ph3	A-Ph4	A-Ph5	A-Ph6	A-Ph7	A-Ph8	A-Ph9	A-Ph10	A-Ph11	A-Ph12	A-Ph13	A-Ph14	A-Ph15	A-Ph16	

Term	0.00000e+00	0.00000e+00	0.00000e+00	0.00000e+00	0.00000e+00	0.00000e+00	0.00000e+00	0.00000e+00	0.00000e+00	0.00000e+00	0.00000e+00	0.00000e+00	0.00000e+00	0.00000e+00	0.00000e+00	0.00000e+00	0.00000e+00	0.00000e+00	0.00000e+00	0.00000e+00	0.00000e+00	0.00000e+00	0.00000e+00	0.00000e+00	0.00000e+00	0.00000e+00	0.00000e+00	0.00000e+00	0.00000e+00	0.00000e+00	0.00000e+00	0.00000e+00	0.00000e+00	0.00000e+00	0.00000e+00	0.00000e+00	0.00000e+00	0.00000e+00	0.00000e+00	0.00000e+00	0.00000e+00	0.00000e+00	0.00000e+00	0.00000e+00	0.00000e+00	0.00000e+00	0.00000e+00	0.00000e+00	
Factor	1.00000e+00	1.00000e+00	1.00000e+00	1.00000e+00	1.00000e+00	1.00000e+00	1.00000e+00	1.00000e+00	1.00000e+00	1.00000e+00	1.00000e+00	1.00000e+00	1.00000e+00	1.00000e+00	1.00000e+00	1.00000e+00	1.00000e+00	1.00000e+00	1.00000e+00	1.00000e+00	1.00000e+00	1.00000e+00	1.00000e+00	1.00000e+00	1.00000e+00	1.00000e+00	1.00000e+00	1.00000e+00	1.00000e+00	1.00000e+00	1.00000e+00	1.00000e+00	X	X	X	X	X	X	X	X	X	X	X	X	X	X	X	X	

B = Detector Channel
Val Type	B-AC1	B-AC2	B-AC3	B-AC4	B-AC5	B-AC6	B-AC7	B-AC8	B-AC9	B-AC10	B-AC11	B-AC12	B-AC13	B-AC14	B-AC15	B-AC16	B-DC1	B-DC2	B-DC3	B-DC4	B-DC5	B-DC6	B-DC7	B-DC8	B-DC9	B-DC10	B-DC11	B-DC12	B-DC13	B-DC14	B-DC15	B-DC16	B-Ph1	B-Ph2	B-Ph3	B-Ph4	B-Ph5	B-Ph6	B-Ph7	B-Ph8	B-Ph9	B-Ph10	B-Ph11	B-Ph12	B-Ph13	B-Ph14	B-Ph15	B-Ph16	

Term	0.00000e+00	0.00000e+00	0.00000e+00	0.00000e+00	0.00000e+00	0.00000e+00	0.00000e+00	0.00000e+00	0.00000e+00	0.00000e+00	0.00000e+00	0.00000e+00	0.00000e+00	0.00000e+00	0.00000e+00	0.00000e+00	0.00000e+00	0.00000e+00	0.00000e+00	0.00000e+00	0.00000e+00	0.00000e+00	0.00000e+00	0.00000e+00	0.00000e+00	0.00000e+00	0.00000e+00	0.00000e+00	0.00000e+00	0.00000e+00	0.00000e+00	0.00000e+00	-2.62276e+01	-1.15878e+02	-1.08409e+02	-1.83494e+02	-6.33589e+01	-7.54221e+01	-1.57928e+02	-1.62015e+02	-5.48854e+01	-9.11149e+01	-1.72828e+02	-1.71611e+02	-1.77707e+02	-1.75907e+02	-7.81365e+01	-1.49620e+02	
Factor	2.61661e-05	9.26201e-05	2.46974e-05	1.98797e-01	9.62366e-07	8.91135e-07	1.79104e-01	5.14304e-02	1.05170e-06	1.02584e-06	1.02012e-01	2.95886e-02	2.20963e-02	8.96045e-03	1.07712e-06	1.32210e-02	5.86835e-07	5.95880e-07	1.65773e-07	9.66592e-02	6.53574e-09	6.52599e-09	8.24644e-02	2.52020e-02	6.53566e-09	6.54143e-09	4.62961e-02	1.36781e-02	1.07972e-02	4.30996e-03	6.51163e-09	6.04044e-03	X	X	X	X	X	X	X	X	X	X	X	X	X	X	X	X	



#DISTANCE SETTINGS
A = Detector Channel
A-1	A-2	A-3	A-4	A-5	A-6	A-7	A-8	A-9	A-10	A-11	A-12	A-13	A-14	A-15	A-16	

2.5000e+00	3.0000e+00	2.5000e+00	3.0000e+00	2.0000e+00	3.0000e+00	1.5000e+00	3.0000e+00	3.0000e+00	3.0000e+00	3.0000e+00	3.0000e+00	3.0000e+00	3.0000e+00	1.5000e+00	3.0000e+00	

B = Detector Channel
B-1	B-2	B-3	B-4	B-5	B-6	B-7	B-8	B-9	B-10	B-11	B-12	B-13	B-14	B-15	B-16	

1.0000e+01	1.0000e+01	1.0000e+01	1.4400e+00	1.0000e+01	1.0000e+01	1.5100e+00	1.9400e+00	1.0000e+01	1.0000e+01	1.9900e+00	2.4900e+00	2.4100e+00	2.9000e+00	1.0000e+01	2.9800e+00	




#DATA BEGINS
time	group	step	mark	flag	A-AC1	A-AC2	A-AC3	A-AC4	A-AC5	A-AC6	A-AC7	A-AC8	A-AC9	A-AC10	A-AC11	A-AC12	A-AC13	A-AC14	A-AC15	A-AC16	A-DC1	A-DC2	A-DC3	A-DC4	A-DC5	A-DC6	A-DC7	A-DC8	A-DC9	A-DC10	A-DC11	A-DC12	A-DC13	A-DC14	A-DC15	A-DC16	A-Ph1	A-Ph2	A-Ph3	A-Ph4	A-Ph5	A-Ph6	A-Ph7	A-Ph8	A-Ph9	A-Ph10	A-Ph11	A-Ph12	A-Ph13	A-Ph14	A-Ph15	A-Ph16	B-AC1	B-AC2	B-AC3	B-AC4	B-AC5	B-AC6	B-AC7	B-AC8	B-AC9	B-AC10	B-AC11	B-AC12	B-AC13	B-AC14	B-AC15	B-AC16	B-DC1	B-DC2	B-DC3	B-DC4	B-DC5	B-DC6	B-DC7	B-DC8	B-DC9	B-DC10	B-DC11	B-DC12	B-DC13	B-DC14	B-DC15	B-DC16	B-Ph1	B-Ph2	B-Ph3	B-Ph4	B-Ph5	B-Ph6	B-Ph7	B-Ph8	B-Ph9	B-Ph10	B-Ph11	B-Ph12	B-Ph13	B-Ph14	B-Ph15	B-Ph16	aux-1	digaux	

8251.166	1	1	0	256	0.20194	0.25064	0.21496	0.10572	0.18243	0.037371	0.34071	0.23489	0.22516	0.017678	0.17673	0.33089	0.16526	0.21807	0.32611	0.21366	-1.8	-0.96667	-1.7333	-1.6396	-1.2479	-1.8542	-1.4146	-1.4083	-1.9625	-1.1229	-1.8937	-1.7625	-1.2188	-2.0125	-1.5167	-1.6938	226.722	370.703	346.478	306.700	241.976	431.835	288.722	373.254	105.459	123.153	386.886	130.002	439.490	443.955	412.087	368.543	0.00079974	0.00040572	0.0001239	385.49	2.1227e-06	8.406e-06	570.08	138.16	3.1166e-06	5.8001e-06	273.98	123.79	63.871	23.969	4.388e-06	59.877	0.00045117	0.00044118	0.00013195	435.89	4.8309e-06	4.9173e-06	604.95	150.84	4.7992e-06	4.8615e-06	285.88	124.73	67.222	25.475	5.1706e-06	59.282	280.217	181.190	190.536	107.470	382.841	245.674	107.168	112.083	270.340	224.804	110.828	114.792	115.939	119.858	134.377	117.942	-8191	255	
8251.286	1	1	0	0	0.045629	0.31435	0.25842	0.10595	0.13379	0.089667	0.031196	0.10227	0.14302	0.30535	0.022768	0.2107	0.10348	0.26859	0.29471	0.28904	-1.6229	-0.98125	-1.8	-1.8271	-1.35	-2.2313	-1.3813	-1.1708	-2.0792	-1.2771	-1.6604	-2.05	-1.2313	-2.0396	-1.4917	-1.4229	444.941	122.984	416.873	268.348	203.860	172.476	268.363	203.886	101.712	183.932	212.255	431.931	286.751	348.769	112.882	322.181	0.00091383	0.00067656	0.00010863	386.87	5.2907e-06	5.4769e-06	571.39	140.51	3.4522e-06	4.2031e-06	275.25	124.8	64.873	24.213	9.3798e-06	60.258	0.00044255	0.00045515	0.00013222	437.07	4.7749e-06	5.0725e-06	607.04	152.04	4.8209e-06	5.11e-06	287.12	125.31	67.775	25.805	5.1032e-06	59.511	276.077	189.490	208.226	107.106	273.836	231.876	107.110	112.525	333.753	207.196	110.665	114.693	115.376	119.670	260.258	118.134	-8191	255	
8251.382	1	1	0	0	0.28044	0.17043	0.17259	0.15907	0.1644	0.07378	0.2699	0.026816	0.149	0.25844	0.11417	0.1542	0.12996	0.26031	0.2892	0.036766	-1.7375	-0.90833	-1.8458	-1.85	-1.1167	-1.9062	-1.7542	-1.0958	-1.8438	-1.075	-1.5375	-1.8125	-1.1833	-1.9604	-1.6833	-1.3396	438.016	138.964	409.982	381.990	205.863	129.988	131.152	349.390	402.353	253.986	136.575	402.887	440.224	280.804	167.732	389.750	0.00091329	0.0007199	6.2308e-05	389.77	5.8427e-06	3.1131e-06	571.66	140.55	7.4367e-06	2.9624e-06	278.15	124.42	65.007	24.347	4.0247e-06	60.219	0.00044749	0.0004704	0.00012919	437.54	4.8294e-06	5.2075e-06	605.1	151.48	4.8284e-06	5.1929e-06	286.75	124.96	68.026	25.984	4.9799e-06	59.409	264.691	178.809	240.727	107.642	192.494	265.888	107.009	112.473	273.098	397.812	110.722	114.755	115.795	119.539	215.795	117.769	-8191	255	
8251.479	1	1	0	0	0.13715	0.28359	0.031863	0.069448	0.17628	0.15157	0.041341	0.084511	0.16429	0.33987	0.080687	0.25767	0.084722	0.037478	0.24513	0.076829	-1.5458	-1.3563	-1.5458	-2.1146	-1.175	-1.6333	-1.9083	-1.1667	-1.9479	-1.6562	-1.3646	-1.9396	-1.3667	-1.6125	-1.6583	-1.2437	142.656	98.641	213.710	161.078	340.029	420.372	133.094	311.634	285.707	134.840	339.807	419.526	101.555	275.760	124.195	428.875	0.00090345	0.00057556	9.9439e-05	385.29	7.9746e-06	5.1054e-06	572.42	140.59	4.0423e-06	5.0479e-06	274.08	124.97	64.771	24.273	5.3987e-06	60.22	0.00045218	0.00047193	0.00012588	433.79	4.8819e-06	5.1505e-06	602.9	150.94	4.9233e-06	5.1503e-06	284.35	124.94	68.153	25.913	4.8962e-06	59.365	263.614	248.522	279.995	107.605	283.395	273.927	107.212	112.077	216.829	235.575	110.967	114.949	115.814	119.740	273.318	117.841	-8191	255	
8251.573	1	1	0	0	0.14572	0.23887	0.40783	0.026994	0.1443	0.080395	0.098184	0.2161	0.059862	0.29321	0.23447	0.079776	0.24841	0.23904	0.057393	0.26895	-1.3833	-1.4979	-1.3583	-1.9521	-1.0438	-1.7104	-1.7458	-1.1646	-1.9	-1.5354	-1.3354	-2.0938	-1.1792	-1.725	-2.0125	-1.2958	122.040	230.670	256.647	243.931	439.617	221.569	397.119	372.426	384.745	148.197	163.905	170.948	397.354	223.646	432.539	390.868	0.0010343	0.00047458	0.00016473	387.5	7.0747e-06	5.9935e-06	575.19	141.72	9.4417e-06	3.0019e-06	277.16	125.31	65.205	24.701	2.95e-06	61.152	0.00046331	0.00046301	0.00012358	433.25	5.0267e-06	5.0034e-06	602.64	151.8	5.0561e-06	5.0548e-06	285.03	125.51	68.798	26.081	4.762e-06	59.828	266.863	127.281	313.770	107.123	203.735	140.808	107.488	112.586	249.719	169.672	111.016	114.903	115.235	119.783	361.273	118.086	-8191	255	
8251.646	1	1	0	0	0.12559	0.15034	0.13222	0.09405	0.12226	0.31673	0.20535	0.076378	0.34456	0.038528	0.27239	0.12429	0.15163	0.26016	0.2105	0.25319	-1.4688	-1.5854	-1.2229	-2.0646	-1.0396	-1.4521	-2.0542	-1.0854	-1.7833	-1.7083	-1.1854	-2.0687	-1.1729	-1.4937	-2.1333	-1.2771	260.473	404.400	399.267	240.884	147.936	193.427	329.152	281.623	198.602	448.328	430.865	231.708	407.941	381.438	293.777	124.036	0.00091535	0.00089101	0.00017113	389.57	6.5547e-06	2.0583e-06	573.15	142.46	1.4293e-06	3.7976e-06	276.97	125.97	65.412	24.706	7.0961e-06	60.894	0.00047172	0.00045516	0.00012091	435.71	5.1351e-06	4.929e-06	603.03	152.79	5.1759e-06	4.9623e-06	284.24	126.08	69.221	26.111	4.7847e-06	60.132	275.329	243.124	223.686	107.789	257.227	227.344	107.378	112.369	150.443	402.129	110.605	115.373	115.832	119.963	164.899	118.100	-8191	255	
8251.765	1	1	0	0	0.13868	0.075603	0.16542	0.17576	0.11282	0.20697	0.10407	0.088911	0.054988	0.12107	0.2197	0.3265	0.1939	0.16262	0.31566	0.10634	-1.2708	-1.7563	-1.2292	-2.0938	-1.3271	-1.3104	-2.2521	-1.2917	-1.6604	-1.9438	-1.2938	-2.1	-1.4333	-1.1875	-1.8854	-1.4562	108.736	378.058	422.563	172.531	265.738	255.644	440.510	359.503	403.770	158.543	373.529	451.499	119.493	153.677	375.041	265.387	0.00084389	0.00025834	7.1837e-05	390.84	3.1383e-06	3.4758e-06	572.66	141.57	6.75e-07	2.964e-06	275.96	125.21	65.151	24.598	2.3294e-06	60.819	0.0004769	0.00045162	0.00012011	439.35	5.1661e-06	4.9202e-06	601.46	153.02	5.1338e-06	4.9393e-06	282.69	126.08	68.841	26.059	4.7501e-06	60.022	278.656	320.705	238.935	107.486	152.709	364.339	106.870	112.249	94.555	292.830	110.921	114.879	115.466	119.836	168.140	117.925	-8191	255	
8251.861	1	1	0	0	0.25942	0.010722	0.25847	0.086773	0.033672	0.17856	0.23378	0.16255	0.15658	0.36649	0.2636	0.1295	0.11607	0.16363	0.12075	0.28431	-1.2812	-1.8583	-0.91458	-2.1667	-1.6604	-1.2417	-2.2646	-1.1354	-1.5792	-2	-1.15	-1.7563	-1.6167	-1.5625	-2.1083	-1.2938	286.962	269.084	414.037	116.627	452.170	137.797	95.135	434.511	291.638	350.957	174.388	227.844	393.763	252.731	275.588	94.543	0.00080057	0.00040756	0.00014868	388.02	5.7272e-06	1.5719e-06	575.04	141.89	2.2632e-06	4.0074e-06	272.68	125.24	65.442	24.474	6.2857e-06	60.549	0.00046975	0.00044363	0.00011994	439.57	5.032e-06	4.8047e-06	598.46	152.89	5.0065e-06	4.8304e-06	281.95	125.75	68.554	25.86	4.7543e-06	59.941	270.620	153.680	276.120	107.562	278.558	152.201	107.140	112.369	261.546	240.219	110.751	114.677	115.534	119.901	169.041	117.823	-8191	255	
8251.958	1	1	0	0	0.13285	0.029591	0.11069	0.094018	0.16292	0.282	0.16569	0.12745	0.16345	0.20263	0.22024	0.31264	0.15997	0.17001	0.23973	0.21836	-1.075	-1.8333	-0.98333	-1.975	-1.8625	-1.1	-2.1979	-1.5667	-1.4167	-1.9667	-1.2833	-1.9417	-1.7458	-1.2521	-2.075	-1.3458	198.219	171.262	341.371	414.620	368.416	143.017	409.649	372.957	106.171	238.059	157.203	402.801	186.839	311.027	309.126	377.083	0.00091235	0.00023423	8.3536e-05	384.78	5.9773e-06	5.9332e-06	568.32	140.16	7.22e-06	2.6498e-06	273.11	124.76	65.406	24.593	4.1897e-06	60.41	0.00045313	0.00043149	0.00012123	435.55	4.8834e-06	4.6953e-06	596.5	151.58	4.8513e-06	4.7127e-06	281.75	125.46	68.42	25.869	4.9286e-06	59.91	277.742	182.532	447.751	107.521	251.885	193.841	107.291	112.510	250.436	278.014	110.771	115.022	115.475	119.902	274.193	118.148	-8191	255	
8252.078	1	1	0	0	0.12284	0.38719	0.24871	0.0612	0.040574	0.20869	0.19792	0.14228	0.40435	0.095768	0.38774	0.16123	0.09009	0.30058	0.10526	0.18233	-1.0292	-2.0146	-1.1646	-1.9854	-1.8417	-1.2104	-2.2021	-1.5688	-1.4125	-1.9771	-1.3167	-1.6604	-2.0271	-1.2687	-2.0271	-1.525	415.317	177.804	325.193	186.133	219.277	118.349	375.340	248.238	308.411	407.395	377.199	427.541	405.172	384.107	321.360	126.274	0.00085132	0.00066235	0.00024558	386.41	6.9994e-06	3.1716e-06	566.77	140.42	3.8751e-06	9.5111e-06	274.36	125.24	65.422	24.696	7.0028e-06	60.782	0.00045342	0.00042822	0.00012706	437.71	4.9211e-06	4.6524e-06	600.34	152.41	4.8689e-06	4.7228e-06	284.61	126.06	68.572	26.021	5.0843e-06	59.959	280.187	288.662	171.772	107.709	312.991	192.875	107.579	112.220	194.755	245.732	110.732	114.888	115.498	119.643	212.047	118.094	-8191	255	
8252.174	1	1	0	0	0.039256	0.10476	0.22931	0.02966	0.2086	0.42918	0.27596	0.19287	0.068962	0.21718	0.29575	0.05295	0.056617	0.17883	0.034956	0.32799	-0.83958	-2.0833	-1.2687	-1.4083	-1.9312	-1.1688	-1.9042	-1.7979	-1.2083	-1.9833	-1.3042	-1.4979	-2.1542	-1.2042	-1.8271	-1.9	444.235	409.580	227.476	218.976	100.054	157.171	370.800	197.663	422.294	432.211	415.860	371.713	148.512	113.271	171.657	402.467	0.00092729	0.00035627	0.00011058	390.47	1.8785e-06	3.1195e-06	570.26	140.3	5.4476e-06	6.3328e-06	271.14	124.94	64.954	24.471	2.7788e-06	60.312	0.00044615	0.00043588	0.00013052	438.75	4.8069e-06	4.768e-06	602.66	151.9	4.7521e-06	4.796e-06	283.5	125.16	68.13	25.885	5.1278e-06	59.521	280.368	247.628	220.489	107.373	382.446	199.154	107.079	111.654	323.648	246.952	111.350	114.718	115.726	119.870	401.858	118.043	-8191	255	
8252.270	1	1	0	0	0.16961	0.29169	0.085185	0.17376	0.064598	0.14098	0.2113	0.15868	0.17423	0.22286	0.24197	0.20001	0.10959	0.14467	0.18161	0.26075	-0.71458	-1.7958	-1.4417	-1.3792	-1.9667	-1.2729	-1.9146	-1.7333	-1.0167	-1.9021	-1.6521	-1.4583	-1.7396	-1.225	-1.6521	-1.7875	240.297	98.198	105.815	112.681	415.915	426.221	120.929	395.122	233.496	293.160	377.658	445.715	363.999	385.214	254.920	364.602	0.0009939	0.0010263	6.5277e-05	383.83	3.0719e-06	3.8043e-06	563.89	138.57	1.797e-06	5.3283e-06	269.52	123.35	64.692	24.354	8.4738e-06	59.637	0.00043848	0.00044659	0.00013082	435.14	4.7599e-06	4.9367e-06	597.76	150.6	4.692e-06	4.9808e-06	281.07	123.81	67.54	25.885	5.0619e-06	58.912	266.964	213.650	207.723	107.526	237.680	241.836	107.059	112.556	208.543	223.604	110.555	114.938	115.472	119.676	233.449	117.893	-8191	255	
8252.367	1	1	0	0	0.1172	0.13958	0.27517	0.27342	0.058798	0.18379	0.16959	0.37386	0.12453	0.081266	0.10284	0.33494	0.045655	0.19603	0.29473	0.23117	-0.56667	-1.7729	-1.375	-1.1792	-1.9979	-1.3208	-1.55	-1.9062	-1.1938	-1.6604	-1.5542	-1.3292	-2.1021	-1.5125	-1.4667	-1.9	180.990	350.398	356.351	385.542	178.657	355.245	439.619	423.035	194.880	258.145	361.980	377.883	157.238	109.871	401.765	420.261	0.00093329	0.00052408	4.2015e-05	387.86	4.7495e-06	4.2316e-06	565.35	139.24	7.2843e-06	8.3846e-06	267.37	122.38	64.882	24.191	6.7033e-06	59.515	0.00043738	0.0004625	0.00012849	435.04	4.7457e-06	5.0861e-06	595.61	150.27	4.7482e-06	5.0926e-06	279.29	123.16	67.786	25.847	4.9349e-06	58.8	270.058	108.977	265.264	107.621	214.377	152.555	107.229	112.440	251.598	152.696	111.018	114.847	115.568	119.500	399.298	117.964	-8191	255	
8252.463	1	1	0	0	0.23307	0.13718	0.29105	0.1658	0.17902	0.08604	0.06437	0.13247	0.070491	0.05663	0.29534	0.30165	0.18989	0.28055	0.23738	0.16948	-0.6625	-1.8854	-1.6187	-1.3292	-2.0021	-1.3646	-1.5021	-2.1042	-1.2958	-1.6625	-1.8104	-1.2188	-2.1625	-1.6021	-1.3875	-2.1708	437.700	350.982	372.945	174.976	259.591	102.432	267.886	331.083	97.538	315.173	389.346	415.317	159.941	410.973	194.405	344.072	0.00091523	0.00044207	0.00011872	389.62	7.4657e-06	7.788e-06	561.42	140.13	6.1808e-06	4.2557e-06	267.27	122.87	64.202	24.349	3.7987e-06	59.476	0.00044198	0.00046575	0.00012522	433.93	4.8173e-06	5.1283e-06	594.3	150.35	4.896e-06	5.1764e-06	278.48	122.74	67.575	25.873	4.9257e-06	58.716	267.304	165.769	217.559	107.371	222.433	289.978	107.278	112.879	258.457	219.269	110.440	114.700	115.465	119.598	387.551	117.944	-8191	255	
8252.557	1	1	0	0	0.072016	0.089627	0.059897	0.058494	0.16599	0.038807	0.19931	0.11113	0.2148	0.062971	0.1267	0.21966	0.30262	0.18078	0.2677	0.1789	-0.62917	-1.9583	-1.7833	-1.0771	-2.0208	-1.3229	-1.275	-2.1646	-1.1354	-1.4792	-1.7083	-1.3375	-1.8417	-1.5271	-1.3396	-2.2083	112.805	382.862	235.750	135.492	440.042	119.045	440.215	403.734	115.659	141.476	104.124	430.671	216.036	420.982	412.370	293.085	0.00097627	0.00068259	1.9552e-05	391.3	3.2659e-06	5.6662e-06	560.9	139.51	1.1272e-05	4.1579e-06	266.81	121.96	63.893	24.255	5.9873e-06	59.598	0.00046441	0.00047253	0.00012607	434.97	5.0775e-06	5.146e-06	592.73	149.66	5.1004e-06	5.0756e-06	276.54	122.42	67.717	25.804	4.7955e-06	58.619	265.754	300.925	303.756	107.651	285.608	280.608	106.787	112.017	291.203	266.613	110.980	114.974	115.443	119.189	277.837	117.559	-8191	255	
8252.655	1	1	0	0	0.16299	0.18286	0.27083	0.051993	0.30007	0.057699	0.16052	0.20575	0.10779	0.18279	0.087103	0.044092	0.3605	0.18327	0.19679	0.10517	-0.96667	-1.6479	-1.8813	-0.99375	-1.9479	-1.5312	-1.2146	-2.0667	-1.4125	-1.4958	-2.0938	-1.2417	-1.8937	-1.5562	-1.2875	-2.1	430.114	353.671	190.087	231.920	157.884	272.929	387.234	379.513	157.784	317.399	408.830	170.611	122.150	107.256	316.926	103.407	0.00081362	0.00045987	0.00014703	386.18	8.3436e-06	3.4008e-06	561.69	139.61	7.5077e-06	3.1975e-06	267.7	121.2	63.724	24.16	4.5942e-06	59.211	0.00047032	0.00045178	0.00012259	431.85	5.1193e-06	4.941e-06	589.87	149.4	5.0938e-06	4.9315e-06	275.62	121.94	67.52	25.538	4.6853e-06	58.368	271.442	195.495	192.834	107.538	222.382	444.831	107.057	112.072	106.240	415.445	110.119	114.530	115.520	119.299	192.383	117.576	-8191	255	
8252.774	1	1	0	0	0.095992	0.08737	0.15535	0.17634	0.16518	0.1773	0.12562	0.11842	0.16167	0.14757	0.18535	0.055991	0.12351	0.20703	0.033226	0.1362	-0.95833	-1.7	-2.0958	-1.1396	-1.7396	-2.0458	-1.1938	-1.9937	-1.5854	-1.4021	-2.1917	-1.1667	-1.85	-1.9229	-1.0521	-1.8521	314.550	411.449	337.676	105.379	236.880	97.550	399.439	348.634	101.288	393.506	406.249	417.812	198.874	285.618	245.947	95.410	0.00085234	0.00049413	0.00014864	384.09	8.5017e-07	1.9934e-06	559.8	138.29	5.1796e-06	2.2735e-06	264.7	121.52	63.936	24.047	6.6165e-06	58.854	0.00046925	0.0004438	0.00011894	431.49	5.1303e-06	4.8963e-06	587.69	149.05	5.1085e-06	4.8847e-06	274.26	122.12	67.424	25.385	4.7091e-06	58.368	270.936	188.176	159.991	107.450	243.981	397.356	107.071	112.012	206.087	227.785	110.529	114.476	115.210	119.143	159.703	117.590	-8191	255	
8252.870	1	1	0	0	0.14938	0.16708	0.13419	0.077168	0.25651	0.25451	0.34244	0.15703	0.024105	0.15596	0.16078	0.29076	0.14768	0.045368	0.24441	0.16081	-0.94375	-1.275	-2.075	-1.0458	-1.7	-2.1562	-1.1708	-1.9333	-1.6229	-1.5812	-2.0208	-1.2792	-1.6229	-2.0229	-1.2	-2.0833	153.934	426.216	399.102	245.252	350.221	421.797	373.491	352.206	142.428	124.649	184.326	443.473	131.922	435.468	399.720	351.241	0.0010007	0.00056548	6.6438e-05	386.88	2.0514e-06	2.0725e-06	557.83	138.12	5.1149e-06	7.1226e-06	264.21	120.71	63.198	24.028	5.0783e-06	59.075	0.00047363	0.0004462	0.00012137	436.01	5.1329e-06	4.9561e-06	586.62	149.87	5.1612e-06	4.9636e-06	275.04	122.36	67.273	25.476	4.8907e-06	58.653	276.421	314.365	287.794	107.220	219.142	354.814	106.814	112.205	231.014	274.265	110.696	114.231	115.665	119.216	215.326	117.732	-8191	255	
8252.966	1	1	0	0	0.18709	0.25133	0.38142	0.12703	0.12355	0.057467	0.34595	0.13722	0.18615	0.033259	0.22877	0.27004	0.2893	0.36998	0.2333	0.33254	-1.3021	-1.4458	-2	-1.2375	-1.5875	-2.1521	-1.2792	-1.7812	-1.65	-1.1792	-2.1562	-1.4667	-1.5292	-2.2	-1.4021	-1.8542	223.754	194.778	356.414	130.466	102.922	296.114	437.044	113.999	425.656	344.211	336.682	414.134	103.438	382.798	287.903	346.339	0.00099835	0.00035162	0.00013125	388.16	8.3346e-06	3.1708e-06	556.82	138.67	5.1231e-06	8.4718e-06	265.03	122.09	63.447	24.075	3.5868e-06	59.222	0.00047882	0.00044951	0.00012649	440.07	5.14e-06	4.9783e-06	589.45	151.38	5.162e-06	4.9567e-06	277.04	123.45	67.584	25.611	5.1486e-06	58.945	291.690	450.109	171.246	107.333	327.291	292.805	107.098	112.017	399.245	292.585	110.675	114.325	115.235	119.655	219.267	117.816	-8191	255	
8253.062	1	1	0	0	0.062494	0.083706	0.077772	0.1598	0.017143	0.048975	0.20191	0.25347	0.14684	0.2787	0.26228	0.24165	0.19203	0.10488	0.030229	0.16911	-1.4042	-1.1229	-1.9458	-1.6104	-1.3542	-2.1396	-1.0542	-1.7687	-1.7792	-1.3167	-1.9896	-1.5229	-1.2646	-1.9625	-1.3062	-1.6833	303.225	356.647	350.799	416.635	356.237	182.551	383.686	333.355	223.275	412.383	425.528	296.384	415.556	353.873	437.316	325.004	0.00095661	0.00043455	9.6211e-05	385.23	5.6497e-06	5.0793e-06	557.29	137.28	6.4675e-06	6.6663e-06	262.17	120.75	63.314	23.932	5.4973e-06	58.743	0.00047545	0.00045344	0.00013305	440.52	5.1448e-06	5.0135e-06	592.59	150.6	5.1617e-06	5.016e-06	276.76	122.5	67.158	25.475	5.3832e-06	58.386	265.139	253.449	202.812	107.061	232.992	365.669	106.994	112.470	225.300	261.429	110.572	114.536	115.768	119.451	186.365	117.625	-8191	255	
8253.159	1	1	0	0	0.24982	0.28139	0.14028	0.12525	0.10556	0.15352	0.39239	0.14538	0.21883	0.052031	0.28513	0.071361	0.26392	0.19371	0.13641	0.092055	-1.3458	-1.0146	-1.8625	-1.8083	-1.3083	-1.9771	-1.3229	-1.6208	-2.0187	-1.2812	-1.8083	-1.5771	-1.2583	-1.9708	-1.5583	-1.5271	265.355	266.395	252.195	129.251	197.848	444.699	387.470	352.979	438.522	377.228	387.409	441.186	413.221	125.870	385.226	428.398	0.00072222	0.0007214	6.8779e-05	382.48	4.6257e-06	1.8711e-06	551.98	136.35	2.7499e-06	3.5819e-06	260.24	119.12	63.043	23.971	6.0929e-06	58.479	0.00047999	0.00046135	0.00013879	438.52	5.1231e-06	5.097e-06	589.55	148.73	5.1245e-06	5.1174e-06	274.7	121.16	66.728	25.505	5.4187e-06	58.236	284.679	100.229	347.259	106.847	436.198	137.087	106.995	112.168	381.352	256.033	110.802	114.289	115.082	119.410	281.526	117.705	-8191	255	
8253.255	1	1	0	0	0.13781	0.15669	0.13029	0.13474	0.10089	0.30525	0.21704	0.25962	0.17378	0.25276	0.14882	0.31167	0.1514	0.1191	0.18699	0.26685	-1.2792	-1.2354	-1.925	-1.8292	-1.1042	-2.0729	-1.4333	-1.5271	-1.8729	-1.075	-1.7458	-1.9271	-1.0479	-2.0917	-1.4542	-1.4688	381.827	262.815	342.872	115.672	426.988	387.961	95.502	348.478	173.210	420.853	424.893	341.300	387.092	284.700	187.564	453.663	0.00088629	6.2131e-05	9.5415e-05	382.98	5.6821e-06	5.3831e-06	551.75	136.63	5.8558e-06	4.5223e-06	264.44	120.93	63.805	24.229	3.6999e-06	59.625	0.00046533	0.00046509	0.00013773	435.52	4.9614e-06	5.111e-06	590.2	149.13	4.9698e-06	5.1808e-06	277.21	122.44	67.347	25.897	5.2942e-06	58.904	274.215	416.375	450.684	107.893	225.073	255.238	106.773	112.127	218.749	200.831	110.539	114.563	115.443	119.400	420.841	117.456	-8191	255	
8253.375	1	1	0	0	0.18897	0.11065	0.082755	0.031805	0.11621	0.16009	0.18735	0.2244	0.066221	0.2576	0.26387	0.15461	0.084271	0.1101	0.32715	0.11726	-1.7458	-0.96875	-1.5396	-2.025	-1.225	-1.9458	-1.375	-1.3083	-2.2167	-1.3438	-1.6437	-1.8062	-1.1854	-2.0938	-1.7146	-1.0667	339.104	206.376	129.661	410.464	406.565	103.960	396.936	336.436	241.738	244.930	276.607	450.681	453.485	151.403	125.865	340.706	0.0009367	0.00081485	0.00013188	385.48	5.7818e-06	6.1591e-06	555.76	137.15	1.0064e-05	6.49e-06	263.92	122.21	64.141	24.402	3.1061e-06	59.644	0.00045677	0.00048125	0.00013414	435.24	4.9153e-06	5.3043e-06	591.17	149.35	4.9953e-06	5.3224e-06	277.4	123.06	67.591	26.151	5.2183e-06	59.177	276.468	165.870	261.699	107.295	271.513	260.535	106.484	112.223	218.484	170.408	110.507	114.378	115.316	119.088	222.508	117.542	-8191	255	
8253.470	1	1	0	0	0.19802	0.20566	0.15867	0.07877	0.27273	0.085829	0.0043141	0.22469	0.040339	0.29415	0.16672	0.30261	0.25846	0.033969	0.25091	0.20634	-1.5312	-1.3875	-1.5479	-1.9562	-0.81042	-2.0083	-1.9312	-1.225	-1.9458	-1.3417	-1.6292	-2.0208	-1.0479	-1.7354	-1.7979	-1.2604	307.029	345.735	263.900	449.724	416.965	148.345	246.857	367.524	216.009	177.844	415.086	406.471	389.092	346.309	167.049	375.135	0.00092337	0.00053194	0.00011535	387.25	4.8592e-06	7.1011e-06	555.08	137.62	3.8452e-06	7.7912e-06	263.35	122.11	64.28	24.501	9.2947e-06	59.365	0.00046377	0.0004901	0.00013132	436.74	5.0741e-06	5.3879e-06	590.57	149.33	5.0816e-06	5.3692e-06	275.38	122.83	67.92	26.201	5.1072e-06	58.928	263.725	156.622	423.112	107.472	311.159	217.763	106.632	111.974	212.978	420.187	110.765	114.423	115.562	119.555	240.071	117.710	-8191	255	
8253.543	1	1	0	0	0.25519	0.097495	0.14101	0.19673	0.17058	0.23809	0.061281	0.22167	0.10271	0.11304	0.19731	0.25533	0.17897	0.21881	0.17704	0.43325	-1.6875	-1.3687	-1.3375	-2.0833	-1.1708	-1.8146	-1.7042	-1.2188	-1.9	-1.5229	-1.6063	-2.2167	-1.0292	-1.4792	-1.725	-1.0917	427.542	312.791	206.431	118.225	153.608	417.487	453.593	415.916	395.038	365.912	434.205	193.361	255.393	214.796	362.842	406.514	0.0010067	0.00021194	8.2447e-05	384.76	2.99e-06	6.1474e-06	553.77	137.53	5.2721e-06	5.4145e-06	260.05	119.67	63.652	24.094	2.7321e-06	58.84	0.00047318	0.00048698	0.00012912	432.66	5.1762e-06	5.2616e-06	585.81	148.07	5.1797e-06	5.2729e-06	272.66	120.93	67.494	25.931	5.0297e-06	58.366	268.099	109.760	154.479	107.022	242.020	352.290	106.494	112.084	158.499	393.448	110.457	114.399	115.623	119.364	393.258	117.659	-8191	255	
8253.639	1	1	0	0	0.1157	0.018543	0.32111	0.24485	0.14227	0.33478	0.074023	0.18409	0.034045	0.087491	0.086689	0.30348	0.51217	0.066672	0.13449	0.29517	-1.4062	-1.45	-1.2417	-2.1542	-1.3708	-1.9083	-1.9917	-1.0125	-1.8438	-1.4521	-1.3521	-2.1854	-1.4292	-1.7458	-1.8188	-1.2146	249.118	284.964	332.042	448.849	302.702	279.463	425.504	391.576	345.450	343.842	451.918	270.444	364.478	314.510	118.161	431.503	0.00092751	0.00027521	9.0966e-05	385.62	4.3837e-06	6.3632e-06	552.77	136.47	3.3992e-06	2.8083e-06	260.77	121.34	64.179	24.443	2.3662e-06	59.813	0.00048637	0.00047546	0.00012736	434.53	5.3191e-06	5.1713e-06	584.84	148.08	5.312e-06	5.2279e-06	272.2	121.97	68.298	26.043	4.9222e-06	58.946	274.311	372.087	213.192	107.200	314.743	244.243	106.701	112.396	282.643	417.426	110.815	114.469	115.629	119.136	383.936	117.633	-8191	255	
8253.735	1	1	0	0	0.14073	0.14047	0.3686	0.21666	0.043111	0.24984	0.20016	0.18945	0.24024	0.13366	0.21855	0.23663	0.097464	0.16106	0.21074	0.20363	-1.5333	-1.7979	-1.0688	-1.925	-1.3146	-1.3521	-2.1896	-1.1271	-1.6229	-1.6167	-1.2521	-2.1042	-1.3792	-1.3521	-2.0125	-1.5167	407.525	312.301	427.455	152.018	117.844	312.905	390.220	424.664	402.041	259.382	104.899	414.389	319.238	438.077	203.407	267.711	0.0007989	3.4519e-05	8.9905e-05	384.92	8.7731e-06	1.338e-06	554.39	138.85	2.3663e-06	3.78e-06	261.75	122.64	64.647	24.696	4.6358e-06	60.155	0.00049106	0.00046774	0.00012522	435.76	5.3139e-06	5.1093e-06	586.79	149.75	5.3055e-06	5.0981e-06	273.46	123.67	68.725	26.205	4.8767e-06	59.668	281.425	229.830	110.018	107.446	172.403	308.168	106.595	112.049	210.925	263.343	110.653	114.147	115.450	119.918	227.507	117.432	-8191	255	
8253.854	1	1	0	0	0.17813	0.12619	0.16417	0.12192	0.38281	0.17539	0.35701	0.34508	0.34363	0.13366	0.17815	0.26065	0.36299	0.16612	0.25803	0.21598	-1.3375	-1.7646	-1.1292	-1.9333	-1.3417	-1.3583	-2.2083	-1.2729	-1.575	-1.7979	-1.3833	-2.0187	-1.7938	-1.2667	-1.6313	-1.3229	208.539	453.294	275.195	295.761	329.237	305.475	420.428	277.418	434.259	143.733	452.642	315.074	326.404	102.005	139.565	389.102	0.0010546	0.00016777	2.9393e-05	393.11	3.1014e-06	5.464e-06	555.87	138.52	4.1e-06	2.5386e-06	264.78	122.69	64.576	24.736	5.1943e-06	60.224	0.00048811	0.00045932	0.00012404	442.09	5.2513e-06	5.0264e-06	588.03	151.13	5.2283e-06	5.0352e-06	273.84	123.96	68.556	26.261	4.9366e-06	59.679	273.834	170.365	222.052	107.026	170.208	244.938	106.821	111.834	158.793	381.844	110.353	114.839	115.321	119.525	219.251	117.435	-8191	255	
8253.950	1	1	0	0	0.2581	0.14288	0.24755	0.15664	0.14008	0.33148	0.19089	0.24435	0.35672	0.16785	0.22012	0.30154	0.10086	0.13043	0.23159	0.10952	-1.2687	-1.9521	-0.97083	-1.7812	-1.5083	-1.4813	-1.8771	-1.1292	-1.4271	-1.9	-1.1667	-1.8062	-1.7188	-1.3875	-2.0812	-1.5562	382.052	144.529	369.106	127.574	301.503	390.990	342.923	397.586	361.351	387.372	340.523	434.029	132.311	111.395	146.002	392.309	0.0008007	0.00030635	0.0001647	385.11	6.4762e-06	4.6572e-06	553.74	138.24	6.7953e-06	2.7401e-06	260.39	122	64.297	24.717	7.3593e-06	59.737	0.00047704	0.00045519	0.00012539	440.76	5.1388e-06	4.919e-06	586.15	150.64	5.1065e-06	4.9428e-06	272.68	123.46	68.023	26.098	5.0385e-06	59.257	266.770	230.685	204.362	107.681	209.159	268.299	106.699	111.908	210.927	331.287	110.566	114.511	115.483	119.521	167.696	117.443	-8191	255	
8254.047	1	1	0	0	0.2049	0.10397	0.086983	0.16769	0.16802	0.10365	0.0069765	0.30939	0.090048	0.18153	0.024122	0.20292	0.31439	0.094182	0.14141	0.14103	-1.0792	-1.9667	-0.825	-1.725	-1.6667	-1.3146	-2.1417	-1.4188	-1.3208	-1.8542	-1.4438	-1.5958	-1.8083	-1.225	-1.775	-1.4604	158.764	203.054	183.814	364.559	251.410	100.601	95.227	361.008	100.115	157.206	204.391	214.761	422.221	378.794	353.509	356.295	0.00090879	0.00064269	0.00018058	385.78	7.4334e-06	9.3229e-06	551.75	136.79	5.8622e-06	6.6812e-06	260.97	121.68	64.418	24.664	8.6314e-06	59.789	0.00047234	0.00045156	0.00013075	441.26	5.0855e-06	4.8677e-06	586.76	149.76	5.0799e-06	4.9194e-06	273.91	123.04	67.927	26.091	5.2001e-06	59.396	277.806	207.026	221.948	107.734	195.879	285.343	107.104	111.982	282.299	237.159	110.245	114.383	114.809	119.681	223.892	117.490	-8191	255	
8254.167	1	1	0	0	0.073774	0.2833	0.18794	0.0974	0.12543	0.09649	0.2601	0.13346	0.22986	0.12578	0.19799	0.049298	0.19285	0.14312	0.17496	0.10791	-0.84583	-1.9688	-1.1792	-1.4958	-2.0167	-1.3188	-2.0104	-1.7896	-1.1583	-1.8458	-1.2	-1.4479	-1.9396	-1.4146	-1.9479	-1.7917	108.429	351.220	267.898	98.766	97.450	423.218	385.168	361.424	390.454	424.303	401.315	182.803	263.487	405.071	123.689	311.198	0.00086328	0.00070509	8.6447e-05	389.22	2.7088e-06	4.0161e-06	551.76	138.14	1.2871e-06	7.8228e-06	264.67	122.49	64.609	24.945	8.3677e-06	60.29	0.00046545	0.00044732	0.00013373	440.03	4.9831e-06	4.9347e-06	589.13	150.06	4.9919e-06	4.9504e-06	276.21	123.37	68.151	26.333	5.3254e-06	59.642	288.843	193.693	232.210	107.352	241.667	185.557	106.808	111.760	231.361	147.781	110.331	114.683	115.359	119.616	181.622	117.472	-8191	255	
8254.239	1	1	0	0	0.11136	0.10337	0.081337	0.11966	0.32081	0.15644	0.25143	0.24023	0.13087	0.29605	0.090074	0.057766	0.41492	0.19784	0.052599	0.17337	-0.67917	-1.9458	-1.2521	-1.3833	-1.7229	-1.0417	-1.975	-1.8125	-1.0833	-1.8354	-1.275	-1.4771	-2.1125	-1.2021	-1.6979	-1.8354	174.657	314.675	117.725	369.604	285.993	345.424	387.808	313.909	289.649	271.643	322.750	281.161	383.957	380.140	225.341	429.233	0.00066435	0.001045	6.1814e-05	386.43	1.0961e-05	7.748e-06	553.24	138.17	1.9489e-06	7.5908e-06	262.13	123.34	65.193	24.952	7.1938e-06	60.727	0.00045597	0.00045705	0.00013505	438.48	4.899e-06	5.0118e-06	589.72	149.71	4.9032e-06	5.0888e-06	276.21	124.04	68.298	26.599	5.261e-06	59.91	272.096	218.395	113.743	107.161	224.426	311.195	106.973	112.245	355.843	178.927	110.175	114.346	115.506	119.117	161.834	117.449	-8191	255	
8254.335	1	1	0	0	0.18206	0.046095	0.24579	0.15575	0.25701	0.24352	0.074729	0.14728	0.28223	0.22501	0.15068	0.22615	0.19699	0.1346	0.040322	0.16207	-0.53958	-1.8625	-1.4688	-1.3604	-1.9375	-1.2042	-1.7687	-1.8729	-0.97083	-1.9167	-1.6396	-1.1854	-1.9625	-1.3104	-1.6542	-2.1854	326.363	338.479	107.085	299.775	323.162	421.121	402.892	452.007	349.389	315.373	213.520	404.446	94.307	237.551	189.792	337.248	0.00095862	0.00052688	0.00014551	383.92	3.3013e-06	4.3202e-06	555.79	138.08	4.2675e-06	2.8557e-06	261.87	122.77	64.672	24.918	9.5277e-06	59.935	0.00045078	0.00046964	0.00013156	435.6	4.8123e-06	5.1438e-06	588.18	148.67	4.8222e-06	5.2035e-06	273.87	123.02	67.844	26.465	5.0977e-06	59.406	259.926	258.693	165.765	106.991	220.069	228.279	107.079	112.178	233.154	309.510	110.484	114.348	115.378	119.226	225.659	116.993	-8191	255	
8254.456	1	1	0	0	0.25024	0.26559	0.10276	0.3155	0.062784	0.18722	0.39362	0.36519	0.11274	0.20049	0.11936	0.099032	0.18659	0.10098	0.19128	0.033744	-0.62292	-1.5583	-1.6146	-1.2812	-2.1979	-1.0021	-1.6646	-2.0458	-1.0625	-1.8792	-1.8771	-1.1521	-2.0062	-1.4375	-1.7354	-2.0812	337.623	273.438	93.974	317.304	115.160	257.520	439.149	355.777	400.314	121.796	442.904	426.483	238.289	395.332	424.909	373.863	0.0010421	0.00022359	0.00010143	386.21	2.9841e-06	6.6253e-06	548.79	135.21	6.4091e-06	3.7048e-06	260.11	121.19	64.645	24.95	6.4585e-06	60.132	0.00044963	0.00047318	0.00012899	433.12	4.8878e-06	5.1748e-06	583.94	147.29	4.9099e-06	5.2135e-06	271.87	122.14	67.84	26.487	5.0192e-06	59.428	269.107	154.675	391.058	107.374	310.717	171.662	107.071	111.946	272.046	156.710	110.639	114.554	115.691	119.441	364.120	117.466	-8191	255	
8254.550	1	1	0	0	0.11544	0.15934	0.17497	0.46276	0.047554	0.20214	0.28845	0.43818	0.10458	0.20889	0.1263	0.17678	0.34053	0.065462	0.18852	0.17252	-0.56875	-1.6667	-1.6562	-1.1562	-1.9354	-1.3937	-1.5875	-2.0812	-1.0312	-1.7313	-2.1063	-1.3271	-2.1688	-1.5187	-1.1646	-2.2583	318.609	189.816	361.668	405.738	164.231	451.086	446.827	452.628	236.214	153.844	424.076	356.201	391.980	135.625	155.496	427.997	0.00084307	0.00057808	0.00020559	382.89	4.85e-06	1.6405e-06	552.41	135.91	4.8636e-06	2.8014e-06	259.15	122.2	64.951	24.981	4.9197e-06	60.625	0.0004666	0.00047348	0.00012697	432.05	5.0801e-06	5.2353e-06	584.45	147.08	5.0969e-06	5.2132e-06	271.47	122.8	68.646	26.684	4.9717e-06	59.819	269.160	226.407	201.278	107.245	186.545	267.737	106.742	111.874	210.655	427.416	110.265	114.386	115.285	119.108	225.511	117.339	-8191	255	
8254.646	1	1	0	0	0.14517	0.11517	0.1606	0.20583	0.13917	0.18365	0.2285	0.10253	0.035025	0.14568	0.25165	0.12542	0.28476	0.099114	0.1144	0.11662	-0.51667	-1.55	-1.7729	-1.1875	-1.9479	-1.45	-1.3521	-2.2062	-1.4708	-1.5167	-1.8146	-1.1917	-1.85	-1.8354	-1.2167	-2.0292	162.617	347.884	268.056	439.042	202.084	135.141	437.503	444.987	103.254	364.539	408.327	347.082	355.000	275.575	164.420	431.767	0.00098582	0.00025568	0.00011625	390.75	9.8349e-06	3.9707e-06	554.65	136.87	9.0932e-06	6.0482e-06	260.24	123.5	65.602	25.284	5.4924e-06	61.286	0.00048027	0.00047052	0.0001257	435.72	5.2036e-06	5.0837e-06	586.29	148.23	5.2047e-06	5.1041e-06	272.27	123.69	69.464	26.794	4.8969e-06	60.193	277.168	249.833	389.746	107.361	262.685	103.383	106.903	112.098	250.518	400.908	110.511	114.434	115.213	119.517	384.409	117.619	-8191	255	
8254.767	1	1	0	0	0.22624	0.096036	0.11285	0.13885	0.23699	0.042584	0.2636	0.15733	0.17425	0.13203	0.14951	0.040441	0.21884	0.06531	0.12311	0.0149	-0.68333	-1.3813	-2.0417	-0.9	-1.7417	-1.3813	-1.2021	-2.2104	-1.4771	-1.1313	-1.9417	-1.1625	-1.9042	-1.7563	-0.89375	-1.9958	123.203	141.149	326.897	215.458	370.615	126.920	304.088	404.873	357.460	239.356	296.917	238.804	349.560	342.888	135.470	278.908	0.0009643	0.00015356	0.00018337	391.01	5.4705e-06	9.1322e-07	553.3	137.65	2.2257e-06	3.4022e-06	261.09	122.94	64.938	25.037	5.8125e-06	60.635	0.00048579	0.00045996	0.00012395	440.17	5.2639e-06	5.0465e-06	585.1	149.06	5.2463e-06	5.0229e-06	271.06	123.58	68.826	26.644	4.8242e-06	59.844	278.894	306.146	153.705	107.335	214.512	238.014	106.866	112.242	419.535	151.344	110.420	114.465	115.262	119.179	254.730	117.503	-8191	255	
8254.839	1	1	0	0	0.17218	0.091138	0.077374	0.15536	0.11445	0.2284	0.2249	0.20653	0.081518	0.14318	0.11759	0.059074	0.25696	0.1163	0.18449	0.22495	-1.0688	-1.25	-1.8146	-1.2396	-1.8979	-1.9458	-0.96667	-2.0104	-1.5417	-1.3521	-2.1854	-1.1854	-1.7458	-2.0417	-1.1646	-1.8917	441.059	261.130	400.273	278.424	362.260	350.088	323.408	341.212	323.631	100.376	125.561	220.003	439.047	452.697	417.775	361.310	0.0008452	0.00019215	0.00015833	388.22	2.8271e-06	1.2205e-05	549.41	137.83	3.2488e-06	5.8457e-06	257.35	121.08	64.187	25.086	7.0535e-06	60.022	0.00048444	0.00045824	0.00012275	439.39	5.2015e-06	4.9998e-06	580.58	148.7	5.1779e-06	4.9811e-06	267.76	122.5	68.352	26.448	4.8102e-06	59.551	272.434	109.682	195.591	107.134	130.442	273.457	106.960	111.674	145.853	215.720	110.635	114.421	115.533	119.090	221.399	117.250	-8191	255	
8254.935	1	1	0	0	0.081863	0.34616	0.24425	0.25369	0.006218	0.067494	0.22232	0.19905	0.089426	0.17392	0.10221	0.053588	0.21836	0.076112	0.23871	0.36722	-1.0604	-1.1479	-2.0354	-1.25	-1.5	-1.8979	-1.3479	-1.8188	-1.4354	-1.1729	-2.0396	-1.2333	-1.4146	-1.7667	-1.0667	-1.8167	388.012	107.923	266.603	124.537	234.529	230.401	343.316	144.719	329.213	342.792	290.409	380.119	134.494	349.557	241.495	407.538	0.00077709	0.00052522	0.00013809	388.83	1.7811e-06	7.0144e-06	547.32	136.81	5.8347e-06	5.5168e-06	256.63	120.78	64.44	25.032	6.2902e-06	60.116	0.00047682	0.00045127	0.00012356	441.24	5.0967e-06	4.9058e-06	581.5	148.5	5.089e-06	4.8863e-06	269.06	122.72	68.193	26.405	4.9798e-06	59.672	271.948	285.420	214.344	106.858	375.750	269.379	106.241	112.175	275.201	244.118	110.267	114.563	115.070	119.315	222.109	117.342	-8191	255	
8255.031	1	1	0	0	0.29319	0.18169	0.17511	0.0073271	0.1287	0.17527	0.05324	0.3015	0.385	0.16907	0.15598	0.25386	0.11574	0.2739	0.15816	0.11302	-1.3708	-1.125	-1.7604	-1.1354	-1.4021	-1.9708	-1.1875	-1.7667	-1.6083	-0.97292	-1.8042	-1.4333	-1.3583	-1.925	-0.95208	-1.5271	182.608	272.407	437.975	236.890	448.570	251.673	438.089	362.798	376.387	384.497	113.047	430.053	361.841	424.538	363.923	397.169	0.0008158	0.00033719	6.8408e-05	388.48	6.6599e-06	2.2967e-06	549.21	135.29	1.8149e-06	4.9167e-06	258.26	121.03	64.272	24.994	9.2774e-06	59.972	0.00046591	0.00044119	0.00012774	441.6	5.0361e-06	4.8691e-06	583.2	148.42	5.034e-06	4.8376e-06	270.32	122.43	67.807	26.354	5.1132e-06	59.541	274.922	234.407	384.189	107.047	148.421	117.814	106.762	112.110	171.629	221.529	110.390	114.706	115.199	119.218	203.359	117.701	-8191	255	
8255.151	1	1	0	0	0.10272	0.14768	0.33961	0.12386	0.10061	0.05271	0.11487	0.2525	0.089939	0.08478	0.38383	0.32914	0.073352	0.048848	0.082768	0.19063	-1.5562	-1.1521	-1.5958	-1.4583	-1.3062	-1.7958	-1.1708	-1.4875	-1.9771	-1.0979	-1.8062	-1.6708	-1.0938	-2	-1.0312	-1.6021	99.804	133.976	300.884	440.760	353.454	327.793	313.636	440.102	367.102	311.129	379.976	400.233	154.980	333.645	156.473	141.844	0.00088154	0.0005362	5.4029e-05	383.96	1.9047e-06	6.641e-06	543.71	134.61	2.0589e-06	7.0637e-06	256.18	120.54	63.979	24.792	8.9864e-07	59.716	0.00046121	0.00044326	0.00013214	437.7	4.9289e-06	4.8342e-06	581.56	147.14	4.9286e-06	4.8785e-06	269.37	121.73	67.312	26.164	5.1937e-06	59.055	278.044	207.989	250.873	106.885	400.309	215.753	106.921	112.236	310.433	334.134	110.718	114.346	115.424	119.169	278.018	117.494	-8191	255	
8255.248	1	1	0	0	0.19881	0.14297	0.18346	0.13956	0.14783	0.13255	0.054345	0.23997	0.099132	0.19058	0.19513	0.20986	0.12032	0.036559	0.17001	0.070338	-1.5708	-1.1688	-1.8292	-1.5479	-1.0438	-1.9813	-1.4354	-1.6479	-1.7313	-1.1313	-1.7229	-1.875	-1.2396	-2.0938	-1.3583	-1.3292	283.756	176.193	157.521	218.227	302.253	322.985	269.680	112.840	412.737	103.456	392.051	428.362	317.744	232.743	219.329	253.556	0.0007942	0.00086797	6.1653e-05	385.35	6.3782e-06	4.9666e-06	546.54	134.43	3.6003e-06	5.2575e-06	255.54	119.45	63.595	24.427	8.1897e-06	58.869	0.00044758	0.00044443	0.00013224	434.38	4.8242e-06	4.8889e-06	580.82	146.32	4.8026e-06	4.9376e-06	267.54	120.31	66.654	25.946	5.1638e-06	58.341	270.971	196.882	249.275	107.138	421.217	168.658	106.676	112.365	210.665	324.108	110.434	114.329	115.158	118.899	430.059	117.638	-8191	255	
8255.344	1	1	0	0	0.2593	0.049344	0.04037	0.29516	0.041595	0.18468	0.10011	0.05855	0.069887	0.12535	0.1766	0.18208	0.21012	0.32883	0.19561	0.17808	-1.4729	-1.2625	-1.6562	-1.5896	-0.85208	-1.6354	-1.5792	-1.3729	-2.0271	-1.0375	-1.6187	-1.9292	-1.2313	-2.0312	-1.5292	-1.1854	301.025	227.508	453.639	374.734	381.435	246.436	256.023	448.654	216.120	287.911	428.930	112.489	418.334	160.820	323.217	398.141	0.00091719	0.00039105	1.5789e-05	380.74	1.4065e-06	3.4037e-06	544.13	134.37	1.4616e-06	7.7848e-06	252.12	118.96	63.082	24.538	3.1931e-06	58.989	0.00044294	0.00045549	0.00012989	430.5	4.7643e-06	5.0217e-06	576.17	144.92	4.7385e-06	5.0853e-06	265.52	119.89	66.225	26.041	5.0427e-06	58.156	267.154	197.706	212.902	107.347	392.702	187.607	106.671	112.130	313.580	211.329	110.548	114.427	115.280	119.176	147.232	117.228	-8191	255	
8255.440	1	1	0	0	0.11835	0.15873	0.04893	0.071843	0.048482	0.083524	0.1366	0.098954	0.21594	0.12664	0.075999	0.19629	0.25625	0.22536	0.19063	0.19179	-1.6229	-1.2687	-1.5021	-1.8354	-1.0583	-1.8	-1.7271	-1.0042	-2.1354	-1.2896	-1.4083	-1.8896	-1.0167	-1.8125	-1.7979	-1.3083	156.023	148.596	436.258	375.841	321.515	265.865	163.318	396.742	120.938	258.321	319.886	341.110	401.570	226.173	439.341	420.882	0.00086755	0.00045907	9.739e-05	379.62	8.297e-06	5.8648e-06	540.24	132.55	3.4774e-06	4.8622e-06	252.68	118.6	62.861	24.402	4.7145e-06	58.373	0.00044391	0.0004709	0.00012842	428.29	4.8381e-06	5.1634e-06	572.9	144.38	4.8716e-06	5.2133e-06	264.57	119.32	66.331	26.003	4.944e-06	57.97	278.973	215.354	445.597	107.092	225.697	211.761	106.751	111.856	290.119	441.464	110.639	114.161	115.065	119.279	195.057	117.555	-8191	255	
8255.536	1	1	0	0	0.01904	0.41202	0.11404	0.1394	0.2362	0.11942	0.12223	0.20369	0.19133	0.085531	0.14743	0.16298	0.12807	0.19816	0.059912	0.15614	-1.5	-1.1667	-1.1688	-2.1479	-1.1583	-1.6875	-1.6313	-1.0542	-2.2167	-1.575	-1.3896	-1.8792	-1.1146	-1.5562	-1.7396	-1.4	320.928	135.455	281.772	372.550	138.134	383.520	131.982	413.807	204.986	429.957	420.138	413.362	165.677	442.656	381.339	167.014	0.00099131	0.00084011	0.00020343	383.45	3.4279e-06	6.5978e-06	539.05	133.14	4.0118e-06	7.5925e-06	252.89	118.88	62.86	24.376	3.6545e-06	58.815	0.00045405	0.00047462	0.00012609	427.81	4.9421e-06	5.1522e-06	571.01	143.88	4.9898e-06	5.1141e-06	263.76	119.13	66.437	25.938	4.8451e-06	57.885	275.676	184.465	147.256	107.027	304.334	389.303	106.821	111.655	259.706	230.520	110.365	114.487	114.782	119.341	248.002	117.713	-8191	255	
8255.630	1	1	0	0	0.18855	0.20366	0.029873	0.23391	0.14433	0.090679	0.13025	0.083889	0.19635	0.16559	0.14665	0.1422	0.13612	0.11368	0.15536	0.11882	-1.5479	-1.5771	-1.2062	-1.9062	-0.99167	-1.4792	-1.9083	-1.1958	-2.0042	-1.4917	-1.2854	-2.0812	-1.2042	-1.5542	-1.9625	-1.2979	355.451	233.146	443.517	397.611	310.460	263.121	186.145	364.525	361.697	110.141	354.970	149.959	374.741	339.564	96.756	132.111	0.00098442	0.00017058	0.00015986	379.36	3.2044e-06	3.963e-07	537.72	132.2	2.5964e-06	9.9095e-06	251.66	117.62	61.796	24.114	3.4812e-06	58.088	0.00046427	0.00046096	0.00012294	425.1	5.0469e-06	5.0029e-06	567.74	142.71	5.1026e-06	5.0332e-06	261.51	118.02	65.98	25.628	4.7708e-06	57.26	270.855	323.830	202.216	107.177	288.134	221.566	106.516	112.206	145.620	304.222	110.527	114.335	115.377	119.288	133.092	117.619	-8191	255	
8255.728	1	1	0	0	0.095754	0.18842	0.22559	0.079121	0.24356	0.1259	0.19306	0.27095	0.082633	0.17148	0.19544	0.065142	0.14229	0.072688	0.22783	0.46361	-1.3292	-1.6042	-1.1229	-1.9646	-1.0979	-1.3375	-1.9646	-1.1854	-1.7292	-1.4583	-0.90417	-1.9833	-1.4792	-1.3083	-1.8604	-1.2479	394.301	150.037	101.145	169.431	372.259	413.370	189.898	246.246	207.797	154.670	293.197	379.501	424.180	143.634	232.707	376.900	0.00099182	0.00056057	2.4004e-05	377.3	4.6345e-06	6.528e-06	532.49	129.76	4.97e-06	1.1724e-05	247.73	116.07	61.421	23.885	3.0503e-06	57.506	0.00047672	0.00045504	0.00012277	424.95	5.1509e-06	4.9657e-06	563.11	141.71	5.198e-06	4.9907e-06	258.52	117.35	65.473	25.36	4.7913e-06	56.976	269.710	441.675	264.362	106.996	270.865	127.207	106.760	112.023	338.455	143.722	110.851	114.412	115.539	118.899	253.893	117.351	-8191	255	
8255.847	1	1	0	0	0.16426	0.091559	0.19412	0.050297	0.25415	0.13312	0.23237	0.08166	0.22049	0.016806	0.31579	0.084947	0.17582	0.2	0.03403	0.16629	-1.2479	-1.65	-1.0375	-2.0375	-1.4854	-1.3937	-1.9083	-1.0708	-1.7167	-1.825	-1.1187	-1.9521	-1.3646	-1.225	-1.9333	-1.175	391.916	423.716	175.108	299.347	428.688	182.030	376.674	95.372	411.602	419.230	99.906	177.880	325.957	119.849	411.025	285.213	0.00090931	0.000157	0.00014004	374.78	2.323e-06	4.6445e-06	533.67	129.84	4.3032e-06	3.8473e-06	246.53	116.44	61.409	23.836	7.9192e-06	57.32	0.0004835	0.00045694	0.00012238	427.42	5.2149e-06	4.9602e-06	562.54	142.46	5.249e-06	4.9908e-06	257.74	117.85	65.598	25.353	4.9276e-06	57.23	258.083	360.919	120.824	107.069	140.615	168.259	106.762	112.053	275.247	200.200	110.877	114.781	115.226	119.429	218.994	117.148	-8191	255	
8255.943	1	1	0	0	0.091473	0.22101	0.19053	0.17873	0.11715	0.32411	0.17693	0.050513	0.075869	0.20297	0.2857	0.30295	0.059734	0.14053	0.052237	0.22693	-1.0958	-1.6833	-1.0125	-1.9188	-1.3917	-1.1	-1.9688	-1.1792	-1.5354	-1.8104	-1.1979	-1.8833	-1.6708	-0.93958	-1.8708	-1.4375	94.990	399.489	272.758	364.924	276.064	198.522	422.701	378.524	320.279	245.220	98.664	352.434	190.108	276.707	223.560	424.944	0.00084091	0.00032006	9.4871e-05	375.15	4.8137e-06	2.0792e-06	529.31	130.14	2.8763e-06	1.031e-06	245.96	116.17	61.494	23.899	1.124e-05	57.434	0.00048263	0.00045622	0.00012522	431.27	5.2204e-06	4.9845e-06	563.94	143.17	5.2627e-06	5.0762e-06	259.06	118.14	65.391	25.466	5.1093e-06	57.502	280.618	343.936	212.308	106.930	404.624	446.849	106.681	111.855	173.119	361.710	110.518	114.369	114.874	118.838	241.181	117.513	-8191	255	
8256.040	1	1	0	0	0.084404	0.10106	0.15397	0.12778	0.23861	0.26791	0.040608	0.11224	0.10541	0.11384	0.0898	0.25953	0.092987	0.0099146	0.057398	0.12116	-0.89167	-1.9333	-1.0187	-1.5812	-1.5792	-1.2708	-2.0438	-1.2396	-1.1604	-2.0167	-1.4146	-1.6708	-1.7062	-1.1333	-1.8167	-1.4583	101.441	245.629	156.892	218.770	254.814	411.871	283.296	427.371	275.718	182.918	363.888	371.439	143.151	362.108	408.766	190.125	0.00080132	0.00045839	0.00010475	373.31	4.3382e-06	4.7521e-06	528.83	129.63	7.0544e-06	3.0213e-06	243.44	115.36	60.794	23.496	1.5335e-06	57.192	0.00048772	0.00046618	0.00013252	432.46	5.2802e-06	5.095e-06	564.65	143	5.3029e-06	5.1248e-06	260.26	117.79	65.189	25.282	5.3507e-06	57.299	267.992	115.152	197.376	106.846	397.097	254.106	106.412	111.904	317.306	219.300	110.424	114.776	115.196	119.423	281.470	117.676	-8191	255	
8256.136	1	1	0	0	0.34549	0.21106	0.46038	0.19467	0.18562	0.038861	0.12292	0.088363	0.17336	0.12369	0.30266	0.11799	0.040641	0.069537	0.22844	0.28039	-0.95625	-2.0792	-1.1792	-1.5167	-1.7771	-0.84792	-1.7396	-1.6375	-1.4	-2.1583	-1.4292	-1.6292	-1.7938	-0.98542	-1.5979	-1.75	359.369	354.675	116.460	300.675	195.143	330.456	376.557	381.385	352.423	198.558	118.949	162.652	163.266	291.858	313.910	374.303	0.00088142	0.00054854	0.00022632	375.52	2.5835e-06	5.3327e-06	527.99	129.41	2.0727e-06	8.5733e-06	243.63	114.31	60.875	23.765	5.0659e-06	57.127	0.00048458	0.00046214	0.00013619	430.72	5.1905e-06	5.0452e-06	565.25	142.26	5.1378e-06	5.0093e-06	259.77	116.97	64.741	25.261	5.3385e-06	57.048	278.741	148.452	224.966	107.138	200.469	250.726	106.986	112.052	176.359	222.953	110.008	114.512	115.033	119.346	138.824	117.380	-8191	255	
8256.232	1	1	0	0	0.14651	0.028097	0.23015	0.37626	0.059297	0.25873	0.076999	0.29872	0.11623	0.073499	0.25112	0.18939	0.035844	0.25995	0.14029	0.14435	-0.61667	-1.8813	-1.0312	-1.3083	-1.8479	-1.025	-1.9896	-1.5187	-1.0917	-1.7771	-1.3229	-1.3458	-1.8792	-1.2062	-1.8458	-1.8354	115.027	329.403	224.731	396.076	364.164	296.885	137.246	324.411	399.525	291.920	355.035	319.465	284.386	166.365	119.202	267.984	0.00089001	0.00036317	0.00011083	375.14	2.9103e-06	7.2599e-06	528.68	131.36	4.788e-06	6.8212e-06	246.8	116.09	61.637	23.828	5.8223e-06	57.882	0.00046611	0.00045661	0.00013647	427.53	4.9908e-06	5.0616e-06	566.69	142.5	4.9229e-06	5.0408e-06	261.61	117.71	65.379	25.477	5.2581e-06	57.405	277.868	314.002	175.406	106.639	230.630	275.266	106.738	112.153	230.115	228.931	110.400	114.735	114.900	119.145	231.274	117.299	-8191	255	
8256.328	1	1	0	0	0.16592	0.46547	0.26079	0.039491	0.17692	0.11304	0.30176	0.1551	0.17447	0.062495	0.086021	0.30896	0.21238	0.15935	0.01577	0.087064	-0.85625	-1.8875	-1.3104	-1.1875	-1.9083	-1.1604	-1.5688	-1.7208	-0.91042	-1.9813	-1.6146	-1.2958	-1.8542	-1.2333	-1.7396	-2.0062	422.715	432.144	310.460	417.177	360.788	118.883	437.703	191.905	192.713	355.185	132.630	113.537	158.837	184.564	289.421	406.039	0.00086536	0.00062135	0.00021861	379.28	4.0528e-06	4.2134e-06	530.08	130.92	4.0691e-06	5.0733e-06	247.25	117.6	62.039	24.025	3.5317e-06	58.301	0.00045348	0.00046013	0.00013345	428	4.8749e-06	5.137e-06	567.58	143.31	4.8993e-06	5.1985e-06	262.47	118.61	65.685	25.819	5.2246e-06	57.713	280.630	211.201	127.940	107.057	227.301	200.667	106.939	111.807	256.711	237.435	110.563	114.511	115.260	119.350	417.504	117.344	-8191	255	
8256.449	1	1	0	0	0.2543	0.089734	0.20715	0.13057	0.071292	0.037001	0.12474	0.32974	0.15112	0.15369	0.4263	0.20801	0.21506	0.13668	0.10274	0.22595	-0.6875	-1.8604	-1.4083	-1.3583	-1.9167	-1.0167	-1.5625	-2.1146	-1.2333	-1.8083	-1.6708	-1.3813	-1.9104	-1.2146	-1.5729	-2.0729	339.595	260.117	112.257	170.330	371.935	191.628	367.578	422.880	201.566	336.209	217.911	399.828	386.593	425.132	398.445	332.588	0.00098525	0.00062302	3.7763e-05	376.96	4.2194e-06	4.2275e-06	526.76	131.34	7.4572e-06	1.2922e-06	246.15	116.43	61.664	24.023	5.2883e-06	57.574	0.00045484	0.00048131	0.00013223	427.43	4.9354e-06	5.3022e-06	565.51	143.14	4.9326e-06	5.3312e-06	260.58	117.5	65.346	25.773	5.1159e-06	57.032	273.390	317.968	211.112	107.149	207.433	208.970	106.919	112.298	236.604	115.594	110.457	114.810	115.701	119.523	335.496	117.318	-8191	255	
8256.545	1	1	0	0	0.16246	0.16982	0.13582	0.19751	0.23935	0.1852	0.18856	0.11672	0.079332	0.026803	0.24936	0.45132	0.23955	0.28726	0.18772	0.24644	-0.78333	-1.8083	-1.5021	-1.1417	-1.9062	-0.95417	-1.4583	-2.0938	-1.1042	-1.8042	-1.6354	-0.92292	-1.9083	-1.2625	-1.3208	-2.175	401.267	109.296	316.798	312.703	297.740	330.092	353.341	425.479	352.248	400.464	438.952	368.840	284.566	410.075	108.176	441.671	0.0010275	0.00021889	2.8091e-05	373.9	7.9997e-06	3.7149e-06	524.83	129.15	4.7679e-06	1.1772e-06	245.05	115.81	61.624	24.007	6.0167e-06	57.612	0.000464	0.00048405	0.00012938	422.77	5.0869e-06	5.2896e-06	558.86	141.1	5.1145e-06	5.3004e-06	257.76	116.68	65.598	25.671	5.0186e-06	56.887	271.870	140.781	184.310	106.789	248.755	205.341	106.973	111.861	212.236	246.090	110.747	114.554	115.123	119.088	135.643	117.471	-8191	255	
8256.639	1	1	0	0	0.054402	0.079779	0.13387	0.34933	0.20578	0.15973	0.36735	0.10795	0.17475	0.23195	0.13128	0.15296	0.13424	0.32395	0.15546	0.14984	-0.66042	-1.4896	-1.7083	-0.91458	-1.8208	-1.6958	-1.4146	-1.8854	-1.1896	-1.4833	-1.8854	-1.0458	-1.7938	-1.5438	-1.0562	-2.0938	374.921	327.220	94.035	298.084	408.735	118.784	324.566	307.324	380.618	207.871	411.303	361.113	350.433	436.612	336.469	355.767	0.00095454	0.00039473	0.00013293	376.38	6.2088e-06	2.393e-06	524.76	131.66	8.1396e-06	2.2861e-06	248.11	117.29	62.398	24.349	6.2969e-06	58.364	0.00047383	0.00047971	0.00012693	424.28	5.1776e-06	5.1954e-06	561.77	142.94	5.2229e-06	5.1785e-06	260.57	118.06	66.763	25.884	4.9512e-06	57.747	277.306	146.930	100.002	107.194	155.720	227.481	106.819	111.865	251.043	157.662	110.450	114.423	115.262	119.156	213.405	117.612	-8191	255	
8256.711	1	1	0	0	0.17649	0.14704	0.19989	0.081007	0.031647	0.045214	0.11471	0.24191	0.18913	0.050032	0.026241	0.11037	0.12819	0.16158	0.084244	0.27559	-0.86875	-1.3854	-1.9375	-0.97917	-1.6792	-1.6646	-1.1021	-2.0062	-1.1583	-1.5	-2.2021	-1.0938	-1.7292	-1.5646	-0.85208	-1.9542	252.194	197.762	267.292	95.134	189.979	236.851	346.612	400.943	402.469	406.655	247.932	390.663	161.059	373.748	430.234	393.705	0.00091191	0.00030165	8.9928e-05	377.41	3.8345e-06	3.7499e-06	532.29	133.18	1.1486e-05	5.7226e-06	247.4	118.35	63.208	24.351	4.4145e-06	58.645	0.00048708	0.00046863	0.00012459	426.48	5.2888e-06	5.122e-06	562.33	144.64	5.3207e-06	5.1036e-06	261.15	119.36	67.369	25.97	4.9245e-06	58.098	268.830	127.774	201.121	107.066	280.023	323.164	106.753	112.292	262.075	219.885	110.139	114.492	115.645	119.130	124.475	117.850	-8191	255	
8256.831	1	1	0	0	0.14754	0.26815	0.10034	0.21455	0.16201	0.24342	0.073108	0.11415	0.13926	0.15224	0.2723	0.20835	0.08729	0.10632	0.053376	0.14513	-0.87083	-1.4	-1.9188	-1.1104	-1.65	-1.7833	-0.94583	-1.8583	-1.5604	-1.4271	-1.8396	-1.0083	-1.6167	-1.8708	-1.0854	-2.0833	368.237	159.172	170.853	108.473	337.429	311.536	268.220	385.525	399.091	219.553	414.074	405.705	313.119	271.032	215.949	159.898	0.00083184	0.00031955	9.7826e-05	379.93	3.6667e-06	6.0909e-07	529.81	133.06	5.151e-06	4.9795e-06	249.02	117.4	63.297	24.31	4.5795e-06	58.543	0.00049054	0.00046482	0.00012519	431.81	5.3214e-06	5.0845e-06	561.97	145.33	5.2853e-06	5.0817e-06	260.52	119.2	67.078	25.877	4.8721e-06	58.055	268.417	267.511	177.510	107.528	423.194	199.809	106.799	112.033	336.019	231.076	110.471	114.470	115.620	119.073	196.431	117.568	-8191	255	
8256.928	1	1	0	0	0.20429	0.14847	0.18603	0.1772	0.10622	0.13303	0.19371	0.10603	0.12847	0.16221	0.058036	0.13533	0.071757	0.18464	0.090874	0.1889	-1.0521	-1.0771	-2.1104	-1.2125	-1.4271	-1.725	-1.1021	-1.7708	-1.4917	-1.2917	-2.0271	-1.3375	-1.6458	-1.6271	-1.0229	-1.85	111.682	243.050	138.272	211.637	147.437	195.894	419.836	118.072	181.941	260.426	118.642	121.374	323.915	305.596	202.712	96.100	0.00094493	0.00016626	0.0001758	378.18	5.3341e-06	3.7089e-06	527.2	133.39	4.335e-06	2.7747e-06	248.19	117.38	62.456	24.174	4.6181e-06	57.651	0.00048064	0.00045695	0.0001248	433.23	5.194e-06	5.0085e-06	561.1	145.89	5.2189e-06	5.0145e-06	260.35	118.89	66.666	25.769	5.0662e-06	57.66	280.347	245.281	239.158	106.933	236.661	138.064	107.259	112.009	259.279	302.455	110.464	114.318	115.563	119.211	166.874	117.529	-8191	255	
8257.024	1	1	0	0	0.32694	0.2008	0.095224	0.19081	0.079116	0.037973	0.067561	0.17277	0.22273	0.14026	0.093366	0.068388	0.06894	0.25066	0.2352	0.090026	-1.1708	-1.0021	-1.9979	-1.325	-1.5542	-1.8708	-0.975	-1.7437	-1.5875	-1.15	-1.9667	-1.5187	-1.45	-1.8396	-1.1854	-1.8125	160.180	277.224	395.216	126.727	403.206	304.923	336.355	189.411	190.873	412.783	284.119	306.678	339.033	412.827	413.468	396.713	0.00064445	0.00025638	0.00016321	378.59	1.1257e-06	6.1226e-06	525.51	133.46	1.2847e-06	4.7504e-06	248.61	116.71	62.78	24.283	9.4042e-06	57.572	0.00047828	0.00045301	0.00012957	434.41	5.192e-06	4.9685e-06	562.83	146.65	5.1587e-06	5.0105e-06	261.67	118.9	66.707	25.825	5.2412e-06	57.643	281.490	169.548	178.586	107.330	202.545	267.773	106.679	112.157	102.970	276.851	110.821	114.637	115.605	119.314	151.662	117.638	-8191	255	
8257.120	1	1	0	0	0.08766	0.25159	0.35299	0.17898	0.10267	0.043723	0.24265	0.13043	0.23219	0.14688	0.24026	0.27543	0.21388	0.199	0.072543	0.21919	-1.4729	-1.2167	-1.9854	-1.5604	-1.2708	-1.9542	-1.3875	-1.7604	-1.8417	-0.97708	-1.9917	-1.6854	-1.2208	-1.9	-1.1	-1.5688	141.097	425.692	436.232	258.161	179.671	305.351	308.403	140.101	292.191	276.634	392.046	357.436	192.799	402.534	219.933	314.203	0.00069195	0.00045328	7.7327e-05	379.32	7.5027e-06	2.4845e-06	530.5	133.84	2.4709e-06	2.9893e-06	247.62	117.27	63.397	24.719	2.4416e-06	58.374	0.00047769	0.00045563	0.00013476	435.67	5.1634e-06	5.0265e-06	568.32	146.88	5.1159e-06	4.9911e-06	263.62	119.56	67.288	26.096	5.4084e-06	57.981	289.473	244.287	261.982	107.075	246.364	351.324	106.994	111.983	152.659	100.675	110.477	114.805	115.384	119.350	220.662	117.762	-8191	255	
8257.241	1	1	0	0	0.17419	0.22124	0.072812	0.43918	0.1162	0.21599	0.15927	0.18415	0.20975	0.073153	0.12365	0.15538	0.23964	0.13261	0.22174	0.28013	-1.5521	-0.92083	-2.1833	-1.5917	-1.0625	-1.9271	-1.1583	-1.3396	-1.8937	-1.1187	-1.85	-1.9604	-1.225	-1.9188	-1.2458	-1.5042	323.927	377.593	274.845	114.501	287.086	285.839	268.701	274.169	150.504	248.249	429.909	367.837	104.863	96.808	448.684	339.868	0.00078062	0.00058999	0.00024632	380.72	3.8756e-06	2.5567e-06	532.47	134.53	2.3785e-06	4.0777e-06	248.83	118.24	63.225	24.505	1.997e-06	57.975	0.00046915	0.00046027	0.00013809	435.66	5.1038e-06	5.0839e-06	572.05	147.08	5.0674e-06	5.1348e-06	264.82	119.56	67.08	26.164	5.451e-06	57.752	279.248	227.031	202.402	107.097	292.600	278.471	106.984	112.202	386.258	126.366	110.705	114.542	115.613	118.936	288.941	117.654	-8191	255	
8257.337	1	1	0	0	0.27167	0.088066	0.15031	0.065539	0.081399	0.22225	0.049913	0.18197	0.1198	0.24026	0.34292	0.14846	0.243	0.13691	0.12421	0.073103	-1.4813	-1.1729	-1.8229	-1.8083	-1.0917	-1.7958	-1.1875	-1.5021	-2.0104	-1.3146	-1.7104	-1.9562	-1.25	-1.7583	-1.4	-1.2958	421.286	166.347	284.864	372.823	262.595	388.711	376.801	197.670	182.985	433.243	348.160	399.066	112.338	314.548	128.938	368.337	0.00096244	0.00062536	4.5111e-05	382.08	2.7339e-06	4.8113e-06	530.78	133.03	6.3528e-06	4.7897e-06	247.59	117.3	63.218	24.357	9.5468e-06	58.021	0.00046642	0.00047569	0.00013817	434.21	5.0082e-06	5.2376e-06	569.04	145.65	5.0176e-06	5.3e-06	263.14	118.96	66.851	26.231	5.2851e-06	57.743	275.971	191.893	281.414	107.128	276.913	305.902	106.723	112.091	320.025	103.730	111.093	114.622	115.381	119.233	219.826	117.542	-8191	255	
8257.408	1	1	0	0	0.2479	0.087257	0.17049	0.07343	0.083431	0.31548	0.2223	0.34087	0.2865	0.11167	0.12111	0.12426	0.17985	0.064792	0.049681	0.23784	-1.5187	-0.92292	-1.4021	-1.9104	-1.1396	-2.0062	-1.5625	-1.1167	-1.8458	-1.1958	-1.4958	-2.1729	-1.3208	-1.95	-1.6271	-1.1542	297.418	168.274	244.110	318.001	318.998	411.980	419.115	385.006	435.712	423.114	224.696	147.633	404.398	330.750	443.408	397.606	0.00077656	0.00077686	0.00016506	377.86	5.5272e-06	3.9136e-06	528.84	133.13	2.8328e-06	3.111e-06	248.65	117.97	63.96	24.513	2.896e-06	58.681	0.00045741	0.00048515	0.00013363	430.49	4.9453e-06	5.3133e-06	565.15	145	4.9704e-06	5.2902e-06	262.9	119.06	67.091	26.24	5.1556e-06	58.025	270.825	199.551	252.319	107.563	243.472	296.203	107.033	112.039	193.023	230.292	110.612	114.684	115.588	119.546	441.554	117.567	-8191	255	
8257.529	1	1	0	0	0.14204	0.12678	0.19911	0.29927	0.1438	0.19377	0.07991	0.26598	0.39886	0.24138	0.41051	0.24323	0.12001	0.033515	0.026524	0.17142	-1.6562	-1.1208	-1.2979	-1.8167	-0.88333	-1.7667	-1.8208	-1.2271	-1.9146	-1.4625	-1.4604	-1.8771	-1.2604	-1.9125	-1.7271	-1.1708	111.820	126.617	303.261	97.094	188.222	143.796	219.674	261.866	145.511	261.294	299.207	230.536	120.946	148.987	389.969	242.900	0.00079013	0.00025797	0.00016257	381.84	3.9141e-06	1.1288e-06	529.64	132.94	3.3349e-06	2.6373e-06	250.68	118.97	63.558	24.722	8.1401e-06	58.607	0.00046458	0.00048323	0.00013035	428.75	5.0549e-06	5.3247e-06	566.7	145.11	5.0985e-06	5.3154e-06	263.67	119.73	67.573	26.468	5.1035e-06	58.322	274.485	246.629	135.088	107.057	265.117	296.903	106.938	111.969	150.608	136.222	110.570	114.731	115.319	119.231	187.455	117.609	-8191	255	
8257.623	1	1	0	0	0.10206	0.020407	0.067229	0.21662	0.20677	0.19072	0.3095	0.28114	0.20796	0.21219	0.22873	0.13639	0.12309	0.16258	0.21717	0.098999	-1.6354	-1.225	-1.1604	-2.1375	-1.1167	-1.775	-1.8417	-1.275	-2.1	-1.5146	-1.1604	-1.825	-1.1708	-1.5187	-1.6562	-1.1771	336.200	291.491	445.882	374.942	364.383	257.234	409.791	430.787	124.814	441.709	124.341	444.022	279.711	449.491	157.575	312.334	0.00095192	0.00011898	0.00020296	378.88	6.5187e-06	1.4229e-06	529.85	134.04	4.6486e-06	2.6002e-06	251.21	120.06	63.961	24.871	3.8996e-07	59.851	0.0004762	0.00047891	0.00012844	426.68	5.1851e-06	5.2195e-06	564.98	145.29	5.2238e-06	5.1931e-06	264.08	120.72	67.909	26.459	4.9365e-06	58.996	277.295	113.602	227.062	107.739	205.632	288.614	107.222	112.426	296.692	334.014	110.872	114.759	115.063	119.338	428.065	117.277	-8191	255	
8257.720	1	1	0	0	0.13092	0.071439	0.33466	0.21997	0.15195	0.43287	0.12816	0.15138	0.20614	0.29013	0.17366	0.2204	0.19248	0.23968	0.091378	0.099629	-1.4604	-1.5771	-1.2625	-2.0979	-0.97292	-1.6229	-2.0396	-1.125	-1.6042	-1.4146	-1.1521	-2.0438	-1.1417	-1.3188	-1.8083	-1.0375	318.809	240.499	432.876	141.723	238.522	415.487	327.414	422.883	213.010	172.159	346.172	366.628	359.894	430.573	164.136	339.390	0.00090052	0.00034339	0.00012435	376.96	3.8406e-06	3.6319e-07	530.96	132.93	5.2285e-06	4.3928e-06	250.69	119.46	63.587	24.832	5.9029e-06	59.625	0.00048229	0.00046305	0.00012441	424.76	5.2128e-06	5.0216e-06	562.84	144.25	5.2325e-06	5.0409e-06	262.59	120.18	67.677	26.271	4.8226e-06	58.754	281.401	117.579	438.695	107.168	420.371	429.965	106.906	112.255	245.653	326.990	110.787	114.562	115.502	119.452	315.343	117.671	-8191	255	
8257.816	1	1	0	0	0.22557	0.24366	0.32774	0.13099	0.18959	0.28891	0.15076	0.19702	0.10974	0.25713	0.44185	0.22428	0.1764	0.27448	0.22683	0.16197	-1.4896	-1.6104	-1.0208	-1.9958	-1.2188	-1.375	-1.9375	-1.0938	-1.5979	-1.7708	-1.2646	-1.9542	-1.1896	-1.4104	-1.9396	-1.2083	186.685	329.568	247.280	355.689	374.297	351.005	149.401	336.073	326.427	350.142	447.466	411.321	168.318	411.883	441.300	383.149	0.00079611	0.00025149	2.688e-05	375.75	7.5286e-06	5.1679e-06	528.21	132.53	1.6444e-06	5.2409e-06	248.27	117.89	63.009	24.804	8.3959e-06	59.386	0.00048066	0.00045286	0.00012167	425.62	5.1851e-06	4.9742e-06	559.44	144.42	5.1553e-06	4.9724e-06	260	119.72	67.057	26.159	4.7652e-06	58.68	271.244	271.924	212.280	106.901	113.529	129.725	107.081	112.381	383.211	149.605	110.643	114.801	115.342	119.417	245.605	117.390	-8191	255	
8257.936	1	1	0	0	0.38371	0.25602	0.15297	0.16708	0.15866	0.21584	0.16213	0.18821	0.22298	0.086958	0.40223	0.052755	0.13897	0.1736	0.096322	0.19517	-1.0875	-1.4729	-1.2458	-2.0146	-1.5688	-1.2625	-1.8542	-1.275	-1.6938	-1.8292	-1.2083	-1.9417	-1.6479	-1.1562	-2.0521	-1.3563	186.146	199.209	426.088	331.013	186.411	187.081	308.380	102.089	422.154	228.344	336.574	118.175	409.260	361.155	379.933	436.292	0.00083779	0.00032833	6.8312e-05	379.45	2.4774e-06	2.1566e-06	531.82	132.88	9.0252e-06	2.8432e-07	250.97	118.64	63.32	24.851	1.4264e-05	59.477	0.00047409	0.00044955	0.00012163	429.3	5.0935e-06	4.9159e-06	561.32	144.91	5.0706e-06	4.8852e-06	261.13	120.3	67.098	26.194	4.8128e-06	59.059	276.442	209.902	257.500	107.301	222.331	437.425	106.872	112.378	326.946	292.382	110.771	114.946	115.539	119.510	189.363	117.637	-8191	255	
8258.008	1	1	0	0	0.23716	0.061492	0.030875	0.057213	0.0075975	0.10832	0.14632	0.057985	0.11383	0.14669	0.13698	0.18528	0.12859	0.25611	0.33581	0.18413	-0.86458	-1.5771	-0.9625	-1.7021	-1.5396	-0.87292	-1.8083	-1.3854	-1.3875	-1.8208	-0.93542	-1.6167	-1.4438	-1.2	-1.6812	-1.1792	305.827	168.549	335.213	352.305	236.272	449.080	355.889	386.274	139.904	350.605	357.084	305.889	363.519	212.423	312.945	450.919	0.00089436	0.00044999	0.00016131	378.55	8.3672e-06	4.0577e-06	527.3	132.34	1.4167e-06	1.9951e-06	250.83	118.68	63.028	24.73	7.5108e-06	59.429	0.00046426	0.00043836	0.00012351	429.89	5.0076e-06	4.8268e-06	563.07	144.88	4.9738e-06	4.7818e-06	262.19	120.08	66.919	26.117	4.9663e-06	58.979	273.517	175.293	157.701	107.176	234.517	305.386	107.302	112.298	294.714	190.688	110.828	114.712	115.260	119.712	223.971	117.740	-8191	255	
8258.129	1	1	0	0	0.31064	0.086037	0.13605	0.11877	0.14861	0.05215	0.074579	0.099381	0.20846	0.077463	0.54914	0.12941	0.039191	0.11517	0.18779	0.11486	-0.85625	-1.8146	-1.0896	-1.775	-1.6167	-1.0229	-1.9438	-1.6042	-1.3104	-1.7229	-1.1125	-1.5521	-1.875	-1.175	-2.1354	-1.5979	265.455	299.982	435.107	113.314	140.421	122.158	365.190	181.652	305.544	400.090	144.449	301.875	325.159	121.360	410.617	265.445	0.00080569	0.00053061	0.00013187	375.12	4.9241e-06	3.196e-06	528.64	132.05	9.4965e-06	1.8066e-07	247.43	117.02	62.636	24.459	1.0171e-05	58.471	0.00045921	0.0004366	0.00012749	427.54	4.9274e-06	4.7345e-06	562.31	143.97	4.9084e-06	4.7703e-06	260.44	118.8	66.161	25.825	5.0768e-06	58.046	283.076	135.247	200.879	107.444	162.864	262.805	107.122	111.987	302.073	351.709	111.147	114.545	115.323	119.311	209.813	117.398	-8191	255	
8258.225	1	1	0	0	0.19597	0.25519	0.027767	0.04173	0.10054	0.17306	0.09603	0.11458	0.12214	0.18866	0.28002	0.10819	0.30351	0.32783	0.13815	0.12748	-0.625	-1.875	-1.1583	-1.5812	-1.7	-1.0938	-1.5729	-1.6333	-1.1458	-1.8979	-1.2021	-1.25	-2.1146	-1.1146	-1.4917	-1.8229	449.042	327.671	318.560	310.732	350.567	360.319	321.597	332.144	184.166	291.997	278.180	100.195	421.452	134.621	371.043	105.554	0.00073781	0.00018526	7.2511e-05	376.67	4.6719e-06	7.3146e-06	525.41	130.22	4.3427e-06	4.5079e-06	247.54	118.26	62.499	24.311	7.886e-06	58.589	0.00044708	0.00043791	0.00012948	424.94	4.7909e-06	4.7563e-06	561.49	142.42	4.7311e-06	4.7796e-06	260.2	118.68	65.829	25.736	5.0763e-06	57.842	275.091	146.545	251.251	107.336	185.386	244.123	106.912	112.172	235.049	234.204	110.236	114.673	115.180	119.453	178.851	117.558	-8191	255	
8258.321	1	1	0	0	0.056131	0.19673	0.15434	0.31846	0.093811	0.15263	0.14721	0.19536	0.29793	0.081486	0.14565	0.13029	0.25649	0.28855	0.091611	0.23659	-0.60208	-1.8167	-1.0042	-1.4083	-1.9729	-1.1562	-1.6979	-1.6875	-1.1292	-1.9896	-1.2062	-1.2375	-1.9542	-1.3229	-1.5562	-1.6375	385.733	432.768	304.641	140.106	240.891	114.888	380.182	202.360	275.201	427.119	269.650	211.947	143.356	416.651	291.035	436.289	0.00098198	0.00029444	0.00014234	375.53	8.7417e-06	9.8592e-06	525.95	131.12	5.8135e-06	8.3036e-06	243.98	116.43	62.858	24.364	6.067e-06	58.275	0.00043573	0.00044272	0.00012926	422.9	4.7025e-06	4.9001e-06	560.64	142.49	4.6934e-06	4.9629e-06	258.97	117.87	65.794	25.831	5.02e-06	57.67	282.380	104.364	158.820	107.298	308.721	207.531	107.214	112.382	331.681	178.513	110.584	114.998	115.229	119.332	276.128	117.476	-8191	255	
8258.417	1	1	0	0	0.058133	0.45189	0.27323	0.18268	0.15283	0.37017	0.15839	0.13187	0.069724	0.17379	0.25273	0.17206	0.12289	0.24987	0.082472	0.068168	-0.57708	-1.9917	-1.3188	-1.0187	-2.0333	-1.2771	-1.5271	-1.85	-1.1437	-1.8542	-1.3458	-1.3125	-1.9708	-1.2625	-1.5333	-2.0646	441.169	337.992	133.291	218.185	203.838	172.630	337.445	449.623	321.730	297.286	374.060	376.093	126.536	436.764	407.262	260.704	0.0010051	0.00073164	0.0001145	372.31	3.0468e-06	4.9126e-06	528.67	130.84	4.815e-06	6.1375e-06	247.27	116.94	62.271	24.408	6.5437e-06	58.27	0.00043286	0.0004585	0.00012781	422.12	4.7302e-06	5.0324e-06	559.9	141.98	4.7448e-06	5.0827e-06	258.94	117.66	65.635	25.885	4.9706e-06	57.575	270.851	167.896	352.411	107.334	266.506	257.286	106.751	112.216	232.130	173.653	110.966	115.008	115.420	119.535	296.331	117.625	-8191	255	
8258.538	1	1	0	0	0.10349	0.068512	0.11305	0.28	0.35393	0.22042	0.23467	0.15477	0.16372	0.31864	0.089598	0.07657	0.058881	0.18124	0.159	0.059534	-0.53125	-1.7625	-1.5667	-1.1292	-1.9708	-1.0938	-1.5833	-1.9438	-1.0417	-1.6021	-1.4813	-1.3458	-1.8563	-1.0396	-1.3625	-2.0708	363.475	138.395	408.087	307.772	242.054	147.827	316.051	323.665	198.487	156.987	419.112	102.877	266.817	362.128	141.954	441.405	0.00080879	0.00038161	5.7526e-05	373.95	7.9895e-06	1.8832e-06	525.22	130.7	3.6392e-06	6.0803e-06	244.94	115.18	62.104	24.099	2.2123e-06	57.622	0.00044193	0.00046461	0.00012579	420.02	4.8029e-06	5.0821e-06	555.32	141	4.8296e-06	5.0853e-06	256.89	116.34	65.214	25.59	4.7392e-06	56.735	275.155	251.558	195.160	107.120	223.662	450.819	106.888	112.285	268.145	251.397	110.807	114.730	115.543	119.573	159.576	117.635	-8191	255	
8258.632	1	1	0	0	0.15128	0.083902	0.13028	0.11046	0.19551	0.14656	0.26518	0.16689	0.1832	0.16009	0.14496	0.093266	0.4317	0.16649	0.097518	0.088772	-0.52708	-1.5521	-1.8042	-1.1333	-1.8833	-1.325	-1.4708	-2.2292	-0.93333	-1.4417	-1.9333	-1.2458	-1.9042	-1.3146	-1.1875	-2.0396	172.553	259.600	274.352	398.029	293.648	415.378	143.932	280.771	133.203	341.181	261.861	341.855	109.010	401.252	249.889	262.349	0.0009047	0.00010981	7.2065e-05	370.86	3.1481e-06	3.5817e-06	521.17	129.83	4.5853e-06	3.8705e-06	244.12	114.58	61.704	23.765	3.4295e-06	57.508	0.00044563	0.00045071	0.00012106	416.32	4.8399e-06	4.8662e-06	550.57	139.45	4.831e-06	4.8196e-06	253.93	115.38	64.901	25.292	4.6027e-06	56.499	275.940	218.896	264.006	107.080	195.012	216.446	106.982	112.309	252.011	222.121	110.560	114.968	115.574	119.460	190.256	117.664	-8191	255	
8258.704	1	1	0	0	0.14802	0.10508	0.031464	0.16253	0.11161	0.13326	0.17708	0.11652	0.1597	0.25842	0.18498	0.037278	0.51443	0.031285	0.22682	0.1121	-0.89375	-1.4729	-1.6479	-0.90208	-1.6542	-1.5771	-1.3	-1.9729	-1.0562	-1.5312	-1.9562	-1.0438	-1.8583	-1.9062	-0.93542	-2.0542	106.407	264.873	293.183	152.286	241.959	185.827	181.417	419.898	346.157	259.449	375.455	413.172	147.390	146.084	311.430	300.320	0.00088515	0.00010574	0.00010177	370.05	2.9289e-06	3.782e-06	520.9	130.16	6.7153e-06	1.7273e-06	242.43	114.75	61.036	23.788	5.7981e-06	56.988	0.00045021	0.00043752	0.00011625	414.44	4.8412e-06	4.7518e-06	548.99	139.4	4.8418e-06	4.7052e-06	252.14	115.22	64.605	25.109	4.4909e-06	56.327	282.518	257.000	150.286	107.099	167.777	347.335	107.063	112.460	329.541	236.711	110.836	114.892	115.686	119.306	239.793	117.377	-8191	255	
8258.800	1	1	0	0	0.17662	0.27369	0.22006	0.31057	0.20049	0.2688	0.1056	0.18769	0.10108	0.072797	0.45311	0.079758	0.31393	0.11891	0.23574	0.31941	-0.925	-1.4896	-1.8083	-1.0708	-1.7417	-1.5438	-1.1167	-2.0354	-1.3771	-1.4667	-1.9479	-1.1417	-1.6396	-1.7812	-0.76458	-1.9667	204.010	159.629	153.816	119.588	371.459	321.440	201.859	263.454	120.573	267.716	410.527	399.034	436.565	380.023	357.635	437.017	0.00098753	0.00071144	0.00015395	370.98	4.1447e-06	4.8139e-06	517.14	128.49	7.5868e-06	5.9975e-06	243.79	114.63	61.106	23.72	3.8079e-06	57.071	0.00045234	0.00042519	0.00011458	415.49	4.8341e-06	4.6289e-06	545.31	139.18	4.8373e-06	4.6001e-06	251.67	115.27	64.531	25.027	4.4606e-06	56.456	262.749	231.428	249.292	107.955	256.880	352.028	106.461	112.150	254.743	231.210	110.615	114.751	115.678	119.165	275.779	117.545	-8191	255	
8258.921	1	1	0	0	0.054106	0.23028	0.20409	0.24006	0.12916	0.21877	0.22406	0.038597	0.034252	0.23907	0.11262	0.38899	0.25757	0.065503	0.11282	0.27121	-0.79375	-1.2542	-2.0604	-1.0292	-1.6042	-1.6042	-1.375	-1.8604	-1.3542	-1.1396	-2.2083	-1.3125	-1.4979	-1.9229	-1.0667	-1.6187	391.148	261.998	330.496	408.625	188.746	388.374	347.960	193.483	121.689	373.665	169.337	406.459	298.720	416.737	333.173	376.539	0.00087473	0.00027906	0.00018462	372.4	3.3982e-06	3.2092e-06	519.04	128.8	5.9364e-06	1.9619e-06	243.55	113.3	60.992	23.663	3.3463e-06	57.036	0.00044147	0.0004175	0.000113	417.8	4.7981e-06	4.5855e-06	545.41	139.93	4.7545e-06	4.5254e-06	252.01	115.22	64.279	24.892	4.4906e-06	56.29	277.947	335.512	186.721	107.131	291.571	447.525	107.028	112.202	216.841	347.492	110.858	114.845	115.204	119.333	362.504	117.515	-8191	255	
8259.017	1	1	0	0	0.21981	0.10893	0.12383	0.23446	0.33117	0.2073	0.29854	0.1414	0.27446	0.15687	0.30294	0.14117	0.063496	0.065406	0.18548	0.082488	-1.2437	-1.25	-1.9667	-1.1917	-1.55	-1.8625	-1.2563	-1.9208	-1.6083	-1.3396	-1.9104	-1.5292	-1.3521	-2.0417	-1.2792	-1.9042	398.142	309.898	224.709	222.291	165.304	330.934	107.496	160.764	384.266	389.155	192.099	396.223	392.598	246.309	408.471	405.283	0.0009133	0.00041912	0.00012814	370.01	3.0357e-06	3.9046e-06	514.37	127.87	1.8827e-06	6.5694e-06	240.75	112.88	60.146	23.377	8.8149e-06	56.295	0.00043698	0.00041178	0.00011518	418.76	4.6932e-06	4.5432e-06	544.02	139.26	4.6942e-06	4.4918e-06	250.81	114.32	63.451	24.598	4.6491e-06	55.884	277.155	235.665	140.435	107.578	375.823	227.816	107.194	112.136	360.625	220.712	110.903	114.832	115.301	119.499	236.268	117.578	-8191	255	
8259.113	1	1	0	0	0.19279	0.057031	0.16747	0.23278	0.11934	0.24535	0.13512	0.14809	0.03434	0.2301	0.22325	0.34857	0.15788	0.067656	0.16485	0.205	-1.3563	-1.0958	-1.9792	-1.4438	-1.3312	-1.9708	-1.4042	-1.6917	-1.6354	-1.1979	-2.0771	-1.3521	-1.2812	-1.8188	-1.1896	-1.9042	233.822	151.419	213.613	433.242	343.733	255.149	303.218	397.865	153.878	393.174	329.823	393.199	148.062	139.737	136.582	426.886	0.00090759	0.00021146	0.00032454	365.76	6.4367e-06	3.8298e-06	516.1	127.94	7.7504e-06	1.1005e-05	240.52	113.49	60.674	23.594	6.1739e-06	56.835	0.0004311	0.00040794	0.00011951	416.21	4.6119e-06	4.4543e-06	545.22	139.35	4.5652e-06	4.4157e-06	251.84	114.62	63.866	24.798	4.749e-06	55.978	274.306	302.819	155.027	106.731	366.178	101.670	107.253	112.263	186.774	183.393	110.807	114.965	115.579	119.250	201.672	117.865	-8191	255	
8259.209	1	1	0	0	0.089659	0.13247	0.11965	0.18815	0.12335	0.25921	0.25149	0.052286	0.20994	0.29479	0.1723	0.25129	0.33367	0.35369	0.16865	0.26733	-1.3667	-1.275	-2.0208	-1.4042	-1.05	-2.1854	-1.2208	-1.6292	-1.9354	-1.1625	-1.7479	-1.775	-1.15	-1.9562	-1.2583	-1.4813	247.975	392.565	313.771	264.990	380.293	387.078	256.060	343.358	291.475	221.790	417.061	308.139	366.443	293.095	100.192	425.231	0.00093694	0.00010536	0.00016866	371.83	7.5319e-06	3.6833e-06	512.69	127.73	5.6654e-06	6.6299e-06	241.97	113.98	60.761	23.721	6.7211e-06	56.968	0.00042127	0.00040082	0.0001221	416.68	4.5081e-06	4.4404e-06	547.08	139.01	4.5375e-06	4.4851e-06	253.68	114.82	63.842	24.961	4.8409e-06	56.281	269.765	452.062	202.554	107.584	158.075	198.904	107.024	112.142	243.732	198.145	110.568	114.652	115.219	119.205	249.431	117.766	-8191	255	
8259.305	1	1	0	0	0.31807	0.18468	0.1775	0.20272	0.34047	0.17797	0.11849	0.085423	0.087934	0.12338	0.07895	0.16219	0.07198	0.26133	0.23357	0.24825	-1.3312	-0.91875	-1.7958	-1.6229	-0.96875	-1.8104	-1.5833	-1.2	-1.95	-1.0396	-1.6896	-1.8042	-1.2917	-1.8208	-1.4583	-1.3104	238.278	424.677	110.335	389.221	184.767	398.479	183.877	261.500	304.494	146.725	283.396	358.470	404.386	341.580	109.264	342.997	0.00079733	0.00099403	9.5663e-05	368.11	4.0551e-06	5.3561e-06	518.94	129.41	3.7776e-06	4.6965e-06	245.16	114.29	61.369	23.72	1.0118e-05	57.642	0.00041518	0.00041714	0.00012295	415.39	4.4313e-06	4.6011e-06	549.66	139.5	4.4699e-06	4.6494e-06	254.68	115.22	64.033	25.198	4.802e-06	56.587	274.219	205.290	421.936	106.790	282.720	229.890	107.163	112.475	265.503	236.676	111.087	114.703	115.586	119.527	229.833	117.591	-8191	255	
8259.401	1	1	0	0	0.24316	0.069879	0.095527	0.18009	0.14014	0.19532	0.16145	0.30384	0.053918	0.11716	0.22195	0.31602	0.10656	0.19624	0.064207	0.15188	-1.6313	-1.0854	-1.4562	-1.9646	-0.8	-1.6875	-1.4146	-1.2208	-1.9729	-1.1479	-1.4937	-2.0479	-1.2667	-1.8646	-1.5354	-1.4312	120.583	152.005	323.991	345.949	114.520	249.868	433.212	358.406	261.090	404.295	223.401	397.136	324.025	275.888	235.216	385.909	0.00084759	0.00038489	0.00011827	371.53	1.5753e-06	4.2857e-06	519.61	128.18	2.9252e-06	2.7477e-06	241.25	113.2	60.785	23.708	5.1944e-06	56.914	0.00041112	0.00042877	0.00012104	415.35	4.4005e-06	4.714e-06	548.77	138.22	4.4217e-06	4.7539e-06	252.19	114.12	63.454	25.132	4.7011e-06	55.939	274.277	135.856	162.282	107.318	120.473	211.977	107.012	112.834	348.993	104.370	110.950	114.866	115.664	119.424	392.709	117.689	-8191	255	
8259.497	1	1	0	0	0.18021	0.2051	0.22654	0.086487	0.26132	0.10752	0.093606	0.16704	0.1345	0.13944	0.24809	0.39624	0.15245	0.0078571	0.059132	0.14455	-1.6313	-1.1604	-1.3729	-2.25	-0.9625	-1.7375	-1.95	-1.2792	-2.1042	-1.4146	-1.6333	-2.0021	-1.0854	-1.8312	-1.5042	-0.96042	119.837	294.190	223.625	346.934	216.443	302.849	342.318	400.442	184.281	198.587	450.492	363.456	359.365	267.685	177.752	346.954	0.00076626	7.5867e-05	4.1348e-05	371.81	5.212e-06	2.8492e-06	512.31	128.21	5.8123e-07	4.5454e-06	241.52	114.02	61.247	23.879	3.3805e-06	57.103	0.00041236	0.00043859	0.00011818	412.22	4.4446e-06	4.8121e-06	544.14	137.73	4.4944e-06	4.8032e-06	252.03	114.35	63.98	25.252	4.5694e-06	56.225	268.100	240.879	349.400	107.280	209.526	366.086	106.953	112.521	258.607	203.633	110.833	114.866	115.692	119.725	261.873	117.962	-8191	255	
8259.618	1	1	0	0	0.088605	0.060399	0.14008	0.20556	0.11985	0.34212	0.16046	0.29198	0.18418	0.14414	0.23159	0.014298	0.18274	0.068767	0.069362	0.4201	-1.5833	-1.3104	-1.4	-1.7875	-1.0792	-1.7917	-2.0542	-0.93958	-1.8271	-1.4604	-1.0333	-1.9562	-1.3583	-1.5063	-1.7396	-1.2083	170.447	420.628	124.816	419.586	433.118	272.832	410.396	281.820	219.085	104.464	379.703	333.703	141.973	188.831	394.397	399.740	0.00099586	0.00055156	0.00017392	368.64	4.6286e-06	4.5668e-07	518.58	129.6	7.9351e-06	4.1945e-06	241.91	114.63	61.571	24.092	9.8495e-06	57.452	0.00042417	0.00043419	0.00011498	411.99	4.6183e-06	4.751e-06	547.11	138.14	4.6811e-06	4.7811e-06	252.2	114.87	64.724	25.411	4.5437e-06	56.476	276.443	142.628	439.820	107.099	243.865	138.546	107.086	112.066	269.278	235.956	110.983	114.872	115.517	119.433	260.218	117.597	-8191	255	
8259.712	1	1	0	0	0.16584	0.058811	0.1282	0.17142	0.17795	0.12733	0.21179	0.36145	0.082701	0.11311	0.099499	0.13665	0.050302	0.10088	0.28013	0.29733	-1.5896	-1.45	-1.15	-2.0042	-1.1708	-1.4646	-1.7812	-1.3833	-1.9917	-1.3604	-1.5125	-2.1437	-1.1958	-1.6083	-1.65	-1.2271	142.990	255.831	256.921	102.109	122.174	389.336	148.833	378.747	357.099	126.806	340.704	94.799	270.864	357.187	201.046	402.231	0.00097421	0.00083883	8.3302e-05	373.43	4.2301e-06	6.1189e-06	517.31	129.78	3.5091e-06	3.6399e-06	242.89	115.83	61.956	24.156	5.0043e-06	57.773	0.00044295	0.00043272	0.00011502	415	4.8231e-06	4.7441e-06	548.27	139.43	4.8726e-06	4.7299e-06	253.08	116.04	65.321	25.445	4.4965e-06	56.744	260.762	279.824	236.486	107.589	176.694	267.367	107.327	112.438	212.458	319.184	111.278	114.960	115.577	119.425	267.259	118.006	-8191	255	
8259.809	1	1	0	0	0.12066	0.33533	0.28249	0.31498	0.11455	0.084573	0.10242	0.26396	0.023817	0.035827	0.15183	0.28483	0.29798	0.061039	0.11735	0.38049	-1.2917	-1.5958	-1.1167	-2.0333	-1.3188	-1.3521	-1.9792	-1.1812	-1.7271	-1.5125	-1.2896	-1.9937	-1.225	-1.3479	-1.8396	-1.1271	432.257	438.859	435.138	369.441	334.156	292.920	255.934	440.308	150.485	257.883	397.741	371.426	399.180	178.988	275.178	451.481	0.00104	0.00054868	0.00010092	370.98	3.6531e-06	2.7004e-06	519.51	129.95	4.7799e-06	7.362e-06	243.03	115.59	61.818	23.997	7.4491e-06	57.276	0.00045297	0.00042914	0.00011356	417.73	4.8775e-06	4.6629e-06	545.81	140.38	4.8635e-06	4.6554e-06	251.95	115.86	65.15	25.268	4.4085e-06	56.484	278.326	190.953	414.621	107.345	267.998	181.814	107.406	112.677	217.385	199.507	111.103	115.358	115.467	119.354	200.844	117.808	-8191	255	
8259.905	1	1	0	0	0.28468	0.19349	0.060088	0.040062	0.077146	0.24811	0.28254	0.067338	0.13538	0.16608	0.10761	0.23269	0.22994	0.24529	0.078285	0.38622	-1.4042	-1.6875	-1.0229	-1.9979	-1.5229	-1.0958	-2.1104	-1.0646	-1.6354	-1.8604	-1.175	-1.9271	-1.7771	-1.2208	-1.9125	-1.2292	422.182	101.127	266.857	422.202	368.792	415.562	413.503	429.227	235.067	239.658	139.060	270.838	431.506	262.765	166.307	379.197	0.00093959	0.00077234	0.00011769	370.37	4.451e-06	3.3722e-06	516.94	128.85	7.7514e-06	2.0069e-06	241.38	114.15	61.168	23.758	6.2771e-07	57.07	0.00044667	0.00042251	0.00011284	418.38	4.7918e-06	4.5721e-06	542.87	140.03	4.8031e-06	4.6173e-06	250.14	115.28	64.552	25.113	4.4401e-06	56.489	272.228	139.258	161.458	107.625	367.170	297.496	107.282	112.121	123.794	104.172	110.537	114.883	115.498	119.726	248.240	117.528	-8191	255	
8260.001	1	1	0	0	0.1742	0.094439	0.13311	0.1772	0.040802	0.11113	0.087504	0.21492	0.1965	0.085863	0.26925	0.10258	0.14614	0.2213	0.11622	0.18761	-1.1646	-2	-0.90417	-1.6833	-1.5667	-1.3521	-2.1083	-1.0917	-1.2062	-2.0083	-1.1146	-1.7896	-1.6771	-1.1812	-1.8958	-1.5396	355.455	293.954	382.798	173.510	400.596	333.846	365.847	392.431	376.385	395.519	402.401	332.629	397.566	450.824	131.031	387.675	0.00083444	0.00066059	0.00016803	373.16	6.3748e-07	3.6551e-06	517.26	129.82	3.6321e-06	4.1353e-06	243.14	115.46	62.164	24.204	2.3361e-06	57.604	0.00043656	0.00041391	0.00011473	422.02	4.7015e-06	4.4827e-06	545.69	140.94	4.6586e-06	4.4783e-06	252.63	116.37	65.053	25.258	4.6096e-06	56.973	273.312	107.512	253.908	107.514	387.910	394.981	107.110	112.381	267.012	432.972	111.267	114.918	115.595	119.484	193.929	117.736	-8191	255	
8260.097	1	1	0	0	0.17041	0.10663	0.52796	0.088087	0.10991	0.12823	0.088364	0.04519	0.092236	0.19807	0.12952	0.38334	0.11131	0.16171	0.082971	0.28079	-1.2188	-1.8958	-1.1063	-1.7938	-1.6	-1.1417	-2.0104	-1.2125	-1.1479	-1.9104	-1.4417	-1.6625	-1.7917	-1.2146	-1.9104	-1.6917	187.991	345.295	139.166	103.263	258.659	439.323	96.906	117.940	183.839	442.968	341.689	433.038	390.525	163.889	178.723	310.400	0.00097087	0.00021032	0.00014944	376.52	2.8892e-06	3.7963e-06	518.11	129.91	2.9092e-06	5.9848e-06	242.51	114.7	61.855	24.084	1.0059e-05	57.416	0.00042929	0.00041111	0.00011777	424.07	4.6531e-06	4.4487e-06	550.18	141.26	4.6781e-06	4.5181e-06	253.59	115.74	64.822	25.24	4.8556e-06	56.821	278.965	199.633	188.394	107.482	414.823	199.939	107.207	112.691	269.047	156.550	110.914	115.083	115.375	119.547	197.753	117.833	-8191	255	
8260.218	1	1	0	0	0.11144	0.16375	0.19539	0.10111	0.085858	0.099628	0.17491	0.34443	0.07316	0.15961	0.12644	0.159	0.16612	0.11325	0.29474	0.35936	-0.76875	-1.8583	-1.1417	-1.7042	-1.5958	-0.94167	-1.9854	-1.9021	-1.0083	-1.9833	-1.4708	-1.6396	-1.7563	-1.1979	-2.0812	-1.3896	295.669	329.044	120.556	184.612	319.147	399.319	132.236	408.634	290.999	126.651	296.938	219.168	433.129	103.572	225.796	442.550	0.00077665	0.00045792	0.00025655	372.38	6.7962e-06	2.9953e-06	516.95	129.58	5.1809e-06	6.3401e-06	242	115.06	61.292	23.835	1.8793e-06	57.194	0.00043362	0.00041435	0.00012405	422.59	4.6493e-06	4.5218e-06	552.05	140.66	4.6174e-06	4.5573e-06	254.8	115.52	64.678	25.172	4.9519e-06	56.501	266.747	404.985	191.434	107.689	335.236	189.719	107.004	111.958	249.722	209.422	111.004	114.985	115.686	119.566	225.816	118.057	-8191	255	
8260.314	1	1	0	0	0.23457	0.10668	0.21309	0.21516	0.087113	0.17387	0.21495	0.10995	0.14073	0.12172	0.47181	0.092529	0.1764	0.22469	0.14416	0.12985	-0.8625	-1.7417	-1.2938	-1.625	-1.9896	-1.3854	-1.8813	-1.8333	-1.35	-2.05	-1.2812	-1.5688	-1.875	-1.0896	-1.8042	-2	191.656	410.091	367.969	231.132	123.283	100.895	358.263	98.786	210.745	124.545	353.640	451.188	447.082	380.911	151.595	414.932	0.00071329	0.00065864	6.1721e-05	375.55	5.7136e-06	5.981e-06	519.51	128.15	1.3639e-06	8.6889e-06	240.86	113.99	61.142	23.906	2.1469e-06	56.772	0.00042029	0.00042196	0.00012538	419.65	4.5259e-06	4.5988e-06	550.57	139.42	4.4938e-06	4.6876e-06	253.33	114.91	63.976	25.172	4.8706e-06	56.09	273.311	160.503	117.112	107.898	213.839	265.131	106.974	111.829	241.932	255.594	110.195	114.986	115.281	119.300	187.358	117.119	-8191	255	
8260.410	1	1	0	0	0.21682	0.081691	0.15307	0.1731	0.22368	0.14318	0.28011	0.21368	0.19352	0.069479	0.16235	0.27432	0.061019	0.13756	0.11219	0.2259	-0.57917	-1.8312	-1.6042	-1.2333	-1.8917	-1.1521	-1.5771	-1.9896	-0.90208	-1.9188	-1.6146	-1.2604	-2.0375	-1.3354	-1.5708	-1.9479	318.656	441.376	277.343	318.259	412.040	391.798	360.645	204.846	122.573	197.273	302.320	368.833	417.956	110.378	191.141	451.867	0.00079926	0.0004146	0.00021442	371.08	7.0341e-06	4.6048e-06	514.39	128.79	9.1122e-06	2.779e-06	241.86	114.32	61.568	23.997	4.2152e-06	57.301	0.00041401	0.00043205	0.00012357	416.76	4.4614e-06	4.7926e-06	548.69	139.3	4.4867e-06	4.8402e-06	253.29	114.92	64.405	25.478	4.7887e-06	56.519	278.648	178.777	230.054	107.464	254.507	227.203	107.050	111.745	270.406	215.446	110.839	115.020	115.318	119.488	187.074	117.623	-8191	255	
8260.506	1	1	0	0	0.15696	0.1739	0.3121	0.37157	0.2765	0.28579	0.19377	0.028086	0.065903	0.25288	0.11125	0.11899	0.27785	0.047428	0.091399	0.21266	-0.7625	-2.0125	-1.6875	-1.1854	-2.1	-1.2125	-1.7167	-2.2208	-1.1688	-1.7437	-1.7667	-1.2583	-2.3063	-1.5604	-1.5063	-2.0333	140.614	439.251	153.383	353.180	94.484	322.461	399.356	259.283	339.736	169.233	134.360	139.344	432.206	327.075	424.421	386.401	0.00075528	0.00066723	7.8875e-05	376.52	6.1728e-06	4.9682e-06	520.93	130.23	1.2388e-05	5.0446e-06	240.89	114.35	61.952	24.187	3.2106e-06	57.538	0.00041902	0.00045084	0.00012185	419.57	4.6066e-06	4.9234e-06	550.22	140.18	4.5998e-06	5.0098e-06	253.65	115.49	65.112	25.695	4.7324e-06	56.63	271.808	234.276	448.334	107.297	221.898	271.693	107.367	112.358	251.624	180.686	110.670	114.851	115.519	119.234	174.144	117.780	-8191	255	
8260.578	1	1	0	0	0.3078	0.12463	0.22643	0.19666	0.037584	0.15573	0.1535	0.005359	0.13373	0.20936	0.194	0.12268	0.11342	0.26621	0.080553	0.090585	-0.51667	-1.8438	-1.7021	-1.1792	-2.0479	-1.4458	-1.4229	-1.8229	-1.0604	-1.6458	-1.8771	-1.2396	-2.0875	-1.5396	-1.1229	-2.2917	282.448	202.158	206.057	397.982	312.393	128.992	416.763	191.347	301.090	248.576	444.242	383.571	429.565	359.571	252.873	115.246	0.00098015	0.00050782	0.00021407	374.52	3.986e-06	5.8155e-06	519.14	130.17	6.7945e-06	3.6626e-06	242.85	115.28	62.264	24.22	4.431e-06	57.669	0.00043648	0.00045276	0.00012042	418.7	4.7533e-06	4.9693e-06	550.4	140.08	4.7983e-06	4.9138e-06	253.57	115.34	65.408	25.62	4.6067e-06	56.5	272.011	238.728	205.837	107.477	311.962	413.050	107.184	112.423	284.237	339.123	111.303	114.779	115.374	119.362	189.069	117.895	-8191	255	
8260.697	1	1	0	0	0.14461	0.33693	0.016042	0.25422	0.14144	0.27562	0.20715	0.27246	0.037522	0.22067	0.093075	0.1359	0.31062	0.19702	0.098505	0.19305	-0.62292	-1.5542	-1.8708	-1.3104	-1.85	-1.6313	-1.3937	-2.0458	-1.2646	-1.4708	-2.0521	-1.4833	-1.7896	-1.6479	-1.2917	-2.0896	234.151	397.078	221.645	328.271	234.645	122.493	443.312	106.019	299.711	108.822	334.402	143.737	406.036	389.557	276.182	115.789	0.00093507	0.00014092	7.9017e-05	373.93	5.0438e-06	7.8887e-07	518.66	130.51	2.9818e-06	4.2857e-06	241.71	114.38	61.697	23.846	7.1248e-06	56.852	0.00044861	0.0004437	0.00011778	416.11	4.8653e-06	4.7977e-06	545.98	139.53	4.8568e-06	4.78e-06	251.83	114.82	65.26	25.319	4.5096e-06	56.225	271.266	166.079	216.715	107.119	238.571	403.860	107.197	112.078	299.662	332.950	110.943	114.729	115.422	119.496	266.390	117.711	-8191	255	
8260.793	1	1	0	0	0.086585	0.23147	0.21645	0.23594	0.12143	0.34093	0.083259	0.095426	0.13105	0.1486	0.16035	0.12386	0.21375	0.12287	0.10142	0.30052	-0.6375	-1.2833	-1.6917	-1.175	-1.9104	-1.7042	-0.96458	-2.0833	-1.2625	-1.4854	-2.0687	-1.0688	-1.5063	-1.6688	-1.2896	-1.8958	403.704	316.306	265.497	401.345	398.163	377.603	440.618	291.940	169.490	163.591	194.308	430.331	416.441	428.296	303.963	338.802	0.0008385	0.00019529	9.6694e-05	377.27	6.4099e-06	5.3805e-06	516.37	128.94	5.7872e-06	4.0495e-06	241.47	113.77	61.774	24.09	2.024e-06	57.351	0.00045328	0.00042785	0.00011491	418.91	4.9142e-06	4.7196e-06	544.75	140.03	4.947e-06	4.7103e-06	250.99	114.87	65.337	25.374	4.4629e-06	56.505	265.818	113.113	346.811	107.819	291.559	416.924	107.181	112.323	200.059	123.932	111.266	114.962	116.048	119.506	277.682	117.754	-8191	255	
8260.889	1	1	0	0	0.15117	0.082088	0.19681	0.22092	0.18627	0.025536	0.15891	0.075229	0.29621	0.10608	0.2782	0.25655	0.12572	0.29167	0.23547	0.32784	-0.92917	-1.1792	-2.0125	-1.1229	-1.3646	-1.5604	-1.0958	-1.9521	-1.2812	-1.2875	-1.9854	-1.2396	-1.5938	-1.9604	-1.0229	-1.9438	366.662	159.614	281.355	394.902	124.645	113.283	297.222	429.597	450.490	102.123	383.444	335.625	132.471	411.502	335.790	386.780	0.000963	0.00021593	0.00016432	375.49	6.5763e-06	3.2648e-06	515.32	130.41	7.8832e-06	6.1381e-06	242.61	114.81	61.675	24.21	1.0793e-05	57.271	0.000457	0.00043024	0.00011486	422.27	4.9099e-06	4.7128e-06	544.17	141.45	4.946e-06	4.6899e-06	251.93	115.88	65.251	25.457	4.5593e-06	56.689	287.762	165.850	183.358	107.045	163.191	128.331	107.351	112.575	165.580	194.196	110.620	115.068	115.671	119.224	202.876	117.784	-8191	255	
8261.010	1	1	0	0	0.16924	0.027674	0.2489	0.11869	0.29884	0.050878	0.35271	0.086791	0.3483	0.23924	0.21592	0.23001	0.12176	0.15808	0.10458	0.037914	-1.0354	-1.0583	-1.7896	-1.1063	-1.575	-1.9542	-1.1562	-1.95	-1.4729	-1.2104	-1.8	-1.4979	-1.6229	-1.7792	-0.99375	-1.9729	236.130	234.957	299.936	130.104	434.962	109.264	411.923	119.263	413.730	285.539	265.561	420.147	366.457	125.751	129.556	162.941	0.00083044	0.0010303	0.00021746	376.27	3.4291e-06	3.3732e-06	518.03	130.13	4.5841e-06	3.4715e-06	240.79	113.67	61.374	23.934	1.9722e-06	57.072	0.00045423	0.00042628	0.00011748	428.01	4.8729e-06	4.6607e-06	547.15	142.26	4.8575e-06	4.6428e-06	252.16	115.54	64.936	25.214	4.6548e-06	56.567	279.011	251.586	221.272	107.687	292.429	418.860	107.100	112.707	277.292	354.128	110.867	115.058	115.562	119.479	222.130	117.553	-8191	255	
#DATA ENDS
