BOXY.EXE: ISS Imagent and Oximeter Data Acquisition Program Version 0.80
Ascii Record File

#ACQ INFORMATION
2  Detector Channels 
16  External MUX Channels 
1  Auxiliary Channels 
5000  Waveform (CCF) Frequency (Hz)
1  Waveforms Skipped 
30  Waveforms Averaged 
1  Cycles Averaged 
16  Acquisitions per Waveform 
10.0806  Updata Rate (Hz) 

#FILE INFORMATION
TRUE -- External MUX Channel results are PARSED.
FALSE -- AC DC and Phase are NOT grouped.
TRUE -- Companion Program Settings File CREATED.
FALSE -- AC data not excluded
FALSE -- DC data not excluded
FALSE -- Phase data not excluded
FALSE -- Auxillary Chn. data not excluded
Tab delimiters

#CALIBRATION STATE
TRUE -- Waveform Calibration Values APPLIED.


#AUX CALIBRATION VALUES
Val Type	aux-1	

Term	1.0000e+00	
Factor	0.0000e+00	


#WF CALIBRATION VALUES
A = Detector Channel
Val Type	A-AC1	A-AC2	A-AC3	A-AC4	A-AC5	A-AC6	A-AC7	A-AC8	A-AC9	A-AC10	A-AC11	A-AC12	A-AC13	A-AC14	A-AC15	A-AC16	A-DC1	A-DC2	A-DC3	A-DC4	A-DC5	A-DC6	A-DC7	A-DC8	A-DC9	A-DC10	A-DC11	A-DC12	A-DC13	A-DC14	A-DC15	A-DC16	A-Ph1	A-Ph2	A-Ph3	A-Ph4	A-Ph5	A-Ph6	A-Ph7	A-Ph8	A-Ph9	A-Ph10	A-Ph11	A-Ph12	A-Ph13	A-Ph14	A-Ph15	A-Ph16	

Term	0.00000e+00	0.00000e+00	0.00000e+00	0.00000e+00	0.00000e+00	0.00000e+00	0.00000e+00	0.00000e+00	0.00000e+00	0.00000e+00	0.00000e+00	0.00000e+00	0.00000e+00	0.00000e+00	0.00000e+00	0.00000e+00	0.00000e+00	0.00000e+00	0.00000e+00	0.00000e+00	0.00000e+00	0.00000e+00	0.00000e+00	0.00000e+00	0.00000e+00	0.00000e+00	0.00000e+00	0.00000e+00	0.00000e+00	0.00000e+00	0.00000e+00	0.00000e+00	0.00000e+00	0.00000e+00	0.00000e+00	0.00000e+00	0.00000e+00	0.00000e+00	0.00000e+00	0.00000e+00	0.00000e+00	0.00000e+00	0.00000e+00	0.00000e+00	0.00000e+00	0.00000e+00	0.00000e+00	0.00000e+00	
Factor	1.00000e+00	1.00000e+00	1.00000e+00	1.00000e+00	1.00000e+00	1.00000e+00	1.00000e+00	1.00000e+00	1.00000e+00	1.00000e+00	1.00000e+00	1.00000e+00	1.00000e+00	1.00000e+00	1.00000e+00	1.00000e+00	1.00000e+00	1.00000e+00	1.00000e+00	1.00000e+00	1.00000e+00	1.00000e+00	1.00000e+00	1.00000e+00	1.00000e+00	1.00000e+00	1.00000e+00	1.00000e+00	1.00000e+00	1.00000e+00	1.00000e+00	1.00000e+00	X	X	X	X	X	X	X	X	X	X	X	X	X	X	X	X	

B = Detector Channel
Val Type	B-AC1	B-AC2	B-AC3	B-AC4	B-AC5	B-AC6	B-AC7	B-AC8	B-AC9	B-AC10	B-AC11	B-AC12	B-AC13	B-AC14	B-AC15	B-AC16	B-DC1	B-DC2	B-DC3	B-DC4	B-DC5	B-DC6	B-DC7	B-DC8	B-DC9	B-DC10	B-DC11	B-DC12	B-DC13	B-DC14	B-DC15	B-DC16	B-Ph1	B-Ph2	B-Ph3	B-Ph4	B-Ph5	B-Ph6	B-Ph7	B-Ph8	B-Ph9	B-Ph10	B-Ph11	B-Ph12	B-Ph13	B-Ph14	B-Ph15	B-Ph16	

Term	0.00000e+00	0.00000e+00	0.00000e+00	0.00000e+00	0.00000e+00	0.00000e+00	0.00000e+00	0.00000e+00	0.00000e+00	0.00000e+00	0.00000e+00	0.00000e+00	0.00000e+00	0.00000e+00	0.00000e+00	0.00000e+00	0.00000e+00	0.00000e+00	0.00000e+00	0.00000e+00	0.00000e+00	0.00000e+00	0.00000e+00	0.00000e+00	0.00000e+00	0.00000e+00	0.00000e+00	0.00000e+00	0.00000e+00	0.00000e+00	0.00000e+00	0.00000e+00	3.94855e+01	-1.32128e+02	-1.27181e+02	-1.84490e+02	-6.72028e+01	-7.11501e+01	-1.59062e+02	-1.62015e+02	-4.80925e+01	-6.50300e+01	-1.70682e+02	-1.71722e+02	-1.81139e+02	-1.78172e+02	-6.66378e+01	-1.50327e+02	
Factor	6.14565e-05	1.43988e-04	4.12154e-05	2.02262e-01	1.95690e-06	1.65095e-06	1.56930e-01	5.15347e-02	2.54719e-06	1.60944e-06	8.43913e-02	3.21709e-02	2.84674e-02	9.18122e-03	1.99602e-06	1.31396e-02	2.11529e-05	3.98913e-05	1.12962e-05	1.08715e-01	3.85736e-07	4.59041e-07	7.93570e-02	2.79075e-02	3.67363e-07	4.60695e-07	4.42269e-02	1.68013e-02	1.55642e-02	5.02853e-03	4.02019e-07	6.94216e-03	X	X	X	X	X	X	X	X	X	X	X	X	X	X	X	X	



#DISTANCE SETTINGS
A = Detector Channel
A-1	A-2	A-3	A-4	A-5	A-6	A-7	A-8	A-9	A-10	A-11	A-12	A-13	A-14	A-15	A-16	

2.5000e+00	3.0000e+00	2.5000e+00	3.0000e+00	2.0000e+00	3.0000e+00	1.5000e+00	3.0000e+00	3.0000e+00	3.0000e+00	3.0000e+00	3.0000e+00	3.0000e+00	3.0000e+00	1.5000e+00	3.0000e+00	

B = Detector Channel
B-1	B-2	B-3	B-4	B-5	B-6	B-7	B-8	B-9	B-10	B-11	B-12	B-13	B-14	B-15	B-16	

1.0000e+01	1.0000e+01	1.0000e+01	1.4400e+00	1.0000e+01	1.0000e+01	1.5100e+00	1.9400e+00	1.0000e+01	1.0000e+01	1.9900e+00	2.4900e+00	2.4100e+00	2.9000e+00	1.0000e+01	2.9800e+00	




#DATA BEGINS
time	group	step	mark	flag	A-AC1	A-AC2	A-AC3	A-AC4	A-AC5	A-AC6	A-AC7	A-AC8	A-AC9	A-AC10	A-AC11	A-AC12	A-AC13	A-AC14	A-AC15	A-AC16	A-DC1	A-DC2	A-DC3	A-DC4	A-DC5	A-DC6	A-DC7	A-DC8	A-DC9	A-DC10	A-DC11	A-DC12	A-DC13	A-DC14	A-DC15	A-DC16	A-Ph1	A-Ph2	A-Ph3	A-Ph4	A-Ph5	A-Ph6	A-Ph7	A-Ph8	A-Ph9	A-Ph10	A-Ph11	A-Ph12	A-Ph13	A-Ph14	A-Ph15	A-Ph16	B-AC1	B-AC2	B-AC3	B-AC4	B-AC5	B-AC6	B-AC7	B-AC8	B-AC9	B-AC10	B-AC11	B-AC12	B-AC13	B-AC14	B-AC15	B-AC16	B-DC1	B-DC2	B-DC3	B-DC4	B-DC5	B-DC6	B-DC7	B-DC8	B-DC9	B-DC10	B-DC11	B-DC12	B-DC13	B-DC14	B-DC15	B-DC16	B-Ph1	B-Ph2	B-Ph3	B-Ph4	B-Ph5	B-Ph6	B-Ph7	B-Ph8	B-Ph9	B-Ph10	B-Ph11	B-Ph12	B-Ph13	B-Ph14	B-Ph15	B-Ph16	aux-1	digaux	

1935.891	1	1	0	512	0.29945	0.056581	0.12048	0.30977	0.14986	0.20615	0.1232	0.092597	0.24801	0.10658	0.16986	0.2633	0.3858	0.34486	0.16655	0.10487	-1.15	-1.5792	-1.0063	-2.0833	-1.35	-1.1167	-2.1396	-1.3917	-1.3229	-1.7042	-1.2292	-1.8104	-1.6042	-1.2458	-1.8229	-1.2875	15.519	-107.994	119.455	183.530	-111.108	30.693	145.925	7.728	-153.285	-146.810	170.818	193.939	-36.215	-117.808	22.073	44.065	0.0021803	0.0023061	0.00078894	576.71	1.5292e-05	1.5171e-05	972.56	190.7	1.8259e-05	1.0467e-05	411.19	159.38	70.331	28.007	1.0979e-05	71.466	0.059311	0.11056	0.031709	838.49	0.0010787	0.0012885	1128.3	255.44	0.0010256	0.0012806	507.79	195.61	109.5	40.027	0.001112	86.664	10.000	-3.365	-80.594	-147.779	180.000	-74.462	-148.531	-143.779	132.663	178.286	-143.952	-139.595	-139.455	-134.143	-42.547	-135.895	-8191	255	
1936.009	1	1	0	0	0.18704	0.063558	0.31427	0.14842	0.25931	0.17458	0.28245	0.17033	0.033375	0.25682	0.10674	0.33963	0.33579	0.12048	0.042817	0.26155	-1.0604	-1.8667	-1.0521	-1.8312	-1.4625	-1.1458	-2.0479	-1.0896	-1.4229	-1.8854	-0.96667	-1.8813	-1.3875	-1.225	-1.9188	-1.4417	-91.669	-14.450	-11.006	165.095	-99.570	128.550	150.200	197.777	30.952	94.924	92.653	163.179	160.419	116.705	-28.477	174.485	0.0026137	0.0034862	0.00029748	570.48	1.2612e-05	3.4062e-06	970.21	189.29	1.1264e-05	1.259e-05	409.37	157.47	70.702	27.819	3.0309e-05	71.719	0.058508	0.10962	0.031292	831.26	0.0010624	0.0012609	1116.2	252.76	0.001009	0.0012687	503.02	193.84	108.31	39.804	0.0010995	86.477	27.550	-41.364	-35.120	-147.965	66.863	-67.768	-148.620	-143.532	20.863	12.731	-144.085	-139.324	-139.637	-134.275	-40.174	-135.900	-8191	255	
1936.106	1	1	0	0	0.082059	0.060765	0.13439	0.19897	0.084494	0.1859	0.25454	0.29529	0.15594	0.045204	0.21299	0.039382	0.13512	0.13559	0.1579	0.11823	-0.91458	-1.8833	-1.0042	-1.6729	-1.7458	-1.0917	-1.9458	-1.5604	-1.0021	-2.0604	-1.2521	-1.6479	-1.7313	-1.0771	-1.7687	-1.6771	49.313	189.452	-19.431	146.357	169.178	-105.379	183.034	185.923	-81.194	54.295	46.383	72.434	-124.662	164.457	180.617	46.157	0.0016635	0.0029849	0.00038749	579.42	4.4656e-05	1.3386e-05	963.86	189.52	2.9252e-05	1.8215e-05	417	159.17	70.639	27.799	8.1823e-06	72.491	0.058391	0.10952	0.031108	830.07	0.0010621	0.0012596	1114.3	252.55	0.0010085	0.0012651	504.9	194.3	108.14	39.745	0.0010855	86.963	6.358	122.395	-98.994	-148.317	-14.189	-19.722	-148.463	-143.166	-101.454	-136.733	-143.397	-139.131	-139.201	-133.887	57.981	-135.714	-8191	255	
1936.202	1	1	0	0	0.1256	0.17497	0.077603	0.20274	0.21074	0.15803	0.21277	0.01534	0.20706	0.17697	0.16128	0.05079	0.064764	0.12342	0.25812	0.24221	-0.7	-1.7458	-1.1646	-1.4958	-1.7	-1.0938	-1.9583	-1.4875	-1.0146	-1.8396	-1.4271	-1.4896	-1.9354	-0.76667	-1.6688	-1.5083	95.585	-8.124	63.815	-156.191	-98.966	131.125	138.091	172.042	16.254	-2.112	66.878	-10.925	-25.046	153.132	-103.600	31.672	0.0010516	0.0006181	0.00067223	573.64	8.899e-06	1.8519e-05	966.13	191.41	3.4057e-05	1.752e-05	415.36	161.07	71.59	28.496	3.1299e-05	73.517	0.057325	0.10633	0.030109	819.84	0.0010212	0.001206	1109.3	250.33	0.00095647	0.0011988	502.27	193.48	106.76	39.491	0.0010309	87.022	27.853	3.091	-38.987	-148.403	28.454	196.777	-148.468	-143.688	40.955	-31.664	-143.734	-139.374	-140.051	-135.162	-86.188	-136.659	-8191	255	
1936.275	1	1	0	0	0.14318	0.30124	0.070119	0.092133	0.15142	0.2467	0.18353	0.18308	0.12568	0.055436	0.070463	0.070206	0.1889	0.2486	0.20176	0.18951	-0.56667	-1.8188	-1.1792	-1.2896	-1.8583	-0.91042	-1.7521	-1.5688	-0.91042	-1.9542	-1.4562	-1.5021	-1.9167	-1.2708	-1.4354	-1.8667	-6.396	118.275	102.404	-30.320	142.479	123.679	-135.833	-79.501	-134.533	-115.326	92.870	8.727	-146.992	104.815	127.371	101.707	0.0032465	0.0011275	0.00061179	571.64	4.1636e-05	2.1073e-05	974.56	191.29	2.2894e-05	2.4241e-05	415.98	159.43	71.115	28.026	1.7751e-05	72.948	0.054248	0.10141	0.028595	805.49	0.00097686	0.0011602	1101.2	248.41	0.00091683	0.0011544	499.17	191.71	105.08	39.016	0.0010037	86.112	-0.217	186.548	-61.286	-148.320	18.614	-88.315	-149.132	-144.281	46.503	-1.235	-144.209	-139.766	-139.156	-135.103	-13.709	-136.040	-8191	255	
1936.394	1	1	0	0	0.11676	0.20632	0.23785	0.063673	0.088264	0.21172	0.49974	0.12293	0.053644	0.088769	0.2203	0.26252	0.13834	0.19727	0.095785	0.31504	-0.66458	-1.7062	-1.2125	-1.1479	-1.8146	-0.99792	-1.5021	-1.9333	-0.87708	-1.9604	-1.5625	-1.2854	-2.0229	-1.1208	-1.6042	-1.9438	1.202	154.577	108.692	129.086	-123.673	129.470	99.102	167.617	-104.692	141.707	77.482	188.760	36.511	146.211	-79.183	94.091	0.0026196	0.00071462	0.0006421	569.21	9.4109e-06	2.3133e-05	966.19	190.65	1.9271e-05	1.3213e-05	415.96	159.55	70.637	28.251	3.0848e-05	72.517	0.052715	0.099226	0.028028	792.75	0.00094603	0.0011243	1089	244	0.00089004	0.0011191	492.85	189.83	103.61	38.51	0.00095761	84.968	-5.117	18.315	164.193	-148.628	160.681	-81.649	-149.467	-144.253	184.351	121.117	-144.455	-140.715	-139.871	-135.165	30.044	-136.676	-8191	255	
1936.490	1	1	0	0	0.2196	0.027108	0.23186	0.27788	0.091353	0.19577	0.1269	0.16514	0.23225	0.26795	0.095912	0.027546	0.25395	0.11048	0.15506	0.13438	-0.65	-1.7354	-1.3958	-0.97292	-1.9333	-1.375	-1.6729	-1.8687	-0.93542	-1.6229	-1.5604	-1.1521	-1.9979	-1.2042	-1.075	-1.9646	-94.803	38.548	-115.462	-39.839	-124.914	-117.656	73.324	-9.305	-41.636	187.170	18.790	-115.758	189.985	35.463	180.675	104.419	0.0015718	0.0013834	0.00065356	569.67	3.2357e-05	1.2877e-05	969.91	191.31	4.6279e-05	2.639e-05	414.8	161.63	72.779	28.494	3.7307e-05	73.494	0.050252	0.093704	0.026588	784.95	0.00090063	0.0010734	1087.1	243.77	0.00084917	0.0010667	490.4	188.9	102.66	38.327	0.00091835	85.296	-4.927	16.769	49.212	-148.744	32.473	194.635	-149.542	-144.144	-3.281	-69.564	-144.594	-140.501	-140.486	-134.849	193.284	-136.705	-8191	255	
1936.586	1	1	0	0	0.38003	0.1726	0.059112	0.11352	0.069198	0.077913	0.23608	0.19813	0.12487	0.1461	0.066828	0.151	0.17412	0.25982	0.084218	0.12396	-0.73125	-1.6562	-1.5042	-0.98542	-1.9813	-1.0833	-1.3583	-1.9979	-0.84583	-1.6979	-1.8208	-1.1146	-1.7479	-1.2812	-1.0833	-1.9604	-120.224	-139.174	55.352	56.882	-114.701	-21.669	160.011	70.809	31.181	195.881	139.669	96.051	-117.131	197.318	-89.674	100.641	0.0028717	0.0035063	0.00091212	572.13	1.7547e-05	1.3489e-05	979.11	190.99	4.2437e-05	2.679e-05	422.01	163.01	72.347	28.794	2.8497e-05	74.307	0.049264	0.092344	0.026175	780.11	0.00089081	0.0010619	1091	243.39	0.00085313	0.0010687	494.2	191.07	103.82	38.635	0.00093009	86.203	9.648	-101.512	126.168	-148.600	54.476	17.270	-148.974	-143.910	-28.088	-155.497	-144.548	-139.856	-139.455	-134.548	32.016	-136.128	-8191	255	
1936.707	1	1	0	0	0.12329	0.20812	0.1863	0.098569	0.19547	0.15568	0.2369	0.18401	0.21501	0.16698	0.056963	0.10583	0.20683	0.29014	0.11636	0.3841	-0.73958	-1.4688	-1.55	-1.1125	-1.75	-1.1667	-1.2917	-1.925	-1.1979	-1.4	-1.9646	-1.2354	-2.0375	-1.7062	-1.125	-1.9167	-3.999	147.642	64.561	146.403	-25.841	197.760	113.234	149.028	-124.768	-135.244	104.568	11.588	133.087	-82.249	119.306	143.081	0.0018141	0.00074835	0.00047293	572.43	1.842e-05	8.1112e-06	973.88	193.76	3.8346e-06	2.1225e-05	417.3	161.82	72.099	28.664	2.4837e-06	73.749	0.049179	0.092218	0.026004	779.4	0.00087899	0.0010451	1084.9	242.92	0.00082659	0.0010392	489.75	189.08	102.22	38.13	0.00090246	85.01	-1.276	151.924	24.275	-148.490	-47.146	-69.331	-148.582	-144.041	3.933	29.294	-143.910	-139.524	-139.305	-134.902	121.853	-135.764	-8191	255	
1936.801	1	1	0	0	0.065618	0.26456	0.23199	0.29684	0.23582	0.11731	0.1267	0.20225	0.084507	0.15529	0.15644	0.27298	0.22284	0.20581	0.23644	0.20548	-0.89375	-1.3333	-1.9417	-0.97917	-1.625	-1.525	-1.2437	-1.8396	-1.4521	-1.4562	-1.8875	-1.0312	-1.7188	-1.8271	-0.92917	-1.7188	197.907	-73.762	26.622	136.575	-11.042	-140.071	175.214	153.756	107.664	78.689	-83.208	175.595	157.025	89.807	-95.822	177.822	0.0018497	0.00022934	0.00040327	575.21	2.3379e-05	9.5173e-06	971.1	195.81	1.9615e-05	2.2815e-05	418.45	161.45	72.342	28.542	2.2708e-05	73.857	0.047624	0.089072	0.025126	773	0.00086538	0.0010252	1077.9	242.2	0.00081366	0.0010173	488.49	187.6	101.37	37.788	0.00088156	85.005	31.977	96.331	-106.897	-148.375	91.648	29.671	-148.927	-143.997	-129.892	169.804	-144.414	-140.125	-139.105	-135.066	-36.064	-136.086	-8191	255	
1936.898	1	1	0	0	0.25674	0.11141	0.14467	0.28822	0.083153	0.20335	0.078245	0.18643	0.20327	0.14666	0.09597	0.11193	0.23402	0.1839	0.13367	0.21735	-0.74583	-1.1521	-1.8167	-1.1146	-1.5625	-1.75	-1.2188	-1.8854	-1.3625	-0.99792	-1.9208	-1.0896	-1.7062	-1.6021	-1.1271	-1.8792	120.526	175.363	-109.844	194.537	-33.279	92.398	170.736	59.320	109.783	18.763	-151.607	130.954	152.278	71.226	159.337	183.082	0.001565	0.0012364	0.0008088	574.03	3.2196e-05	2.5413e-05	982.4	195.58	2.9409e-05	1.0801e-05	423.88	163.15	73.72	28.699	2.7495e-05	75.09	0.046795	0.087963	0.024826	774.48	0.00085088	0.0010139	1084.1	242.68	0.00081069	0.0010274	493.17	190.07	103.07	38.24	0.00089948	86.117	-5.811	54.211	-32.785	-148.850	-12.483	98.496	-148.545	-143.541	-21.107	-75.657	-144.138	-140.078	-139.892	-134.459	-90.600	-136.041	-8191	255	
1936.995	1	1	0	0	0.15104	0.12908	0.11825	0.052146	0.18461	0.097684	0.34796	0.11403	0.21412	0.29125	0.18617	0.16476	0.29428	0.20934	0.33107	0.0078202	-0.90833	-1.1646	-1.9083	-1.0187	-1.3958	-1.9312	-1.1833	-1.6917	-1.5625	-1.0938	-2.0479	-1.3813	-1.325	-1.9396	-0.75625	-2.1437	20.909	-57.740	-62.604	94.724	-154.677	23.866	-154.941	126.697	22.928	142.018	-111.480	135.565	-90.178	187.244	114.837	-159.098	0.0011896	0.0034004	0.00066808	580.17	4.5529e-05	3.6426e-05	992.19	195.95	4.9428e-05	2.7078e-05	426.14	165.32	73.774	29.497	1.7094e-05	75.366	0.047687	0.089291	0.025337	783.9	0.00086666	0.0010387	1101	246.05	0.00083401	0.0010463	499.39	193.09	104.71	38.904	0.0009237	86.704	21.369	-50.638	-28.881	-148.416	5.948	138.644	-149.059	-143.677	196.740	26.837	-143.980	-139.731	-139.611	-134.795	44.125	-135.918	-8191	255	
1937.090	1	1	0	0	0.27412	0.23446	0.19147	0.16242	0.1614	0.26818	0.35429	0.07166	0.29451	0.11828	0.26161	0.14334	0.091618	0.19229	0.21859	0.15017	-1.1938	-0.91458	-1.8604	-1.4021	-1.15	-1.8958	-1.2271	-1.6417	-1.7771	-0.87708	-1.9813	-1.2583	-1.2208	-1.9438	-0.9125	-1.8354	121.410	92.901	-154.174	44.847	6.516	-87.696	176.212	38.710	33.863	-71.199	191.251	123.678	61.140	121.588	-32.797	25.168	0.0017053	0.0015976	0.00043598	592.83	8.0872e-06	2.0047e-05	987.84	196.87	2.4171e-05	1.1418e-05	423.33	164.45	73.039	28.854	2.7606e-05	74.781	0.049389	0.092026	0.026083	795.88	0.00089283	0.001065	1099.2	246.73	0.00084814	0.0010646	497.37	191.66	104.1	38.588	0.00092757	86.148	31.754	-152.861	54.261	-148.710	-20.202	-14.418	-148.547	-144.018	-90.818	69.918	-144.301	-140.414	-139.910	-134.700	-84.907	-136.209	-8191	255	
1937.186	1	1	0	0	0.20021	0.24888	0.12091	0.043545	0.19832	0.13368	0.14118	0.10662	0.13399	0.23259	0.19663	0.14013	0.17589	0.1771	0.28736	0.27493	-1.3438	-1.0167	-1.9521	-1.4042	-1.1083	-1.8813	-1.2	-1.5854	-1.6042	-0.875	-1.9312	-1.5792	-1.2354	-2.0542	-1.0271	-1.5479	134.596	-14.881	-22.743	160.807	-154.972	167.164	159.262	111.140	-71.449	91.470	-151.047	162.190	79.569	-110.551	5.722	84.522	0.0023733	0.0014749	0.00034727	577.57	1.0144e-05	1.1308e-05	975.82	193.97	6.0974e-06	1.4827e-05	422.24	164.12	73.176	29.137	1.9106e-05	74.734	0.049435	0.091795	0.025914	784.21	0.00088646	0.0010524	1091.6	244.43	0.0008373	0.0010539	495	191.32	103.75	38.675	0.00092597	86.568	33.753	-151.034	194.825	-148.756	-62.183	141.993	-148.626	-143.482	-60.357	193.347	-143.879	-139.805	-139.559	-134.841	45.446	-135.652	-8191	255	
1937.307	1	1	0	0	0.29812	0.066016	0.30218	0.16516	0.2267	0.10253	0.24442	0.093814	0.21993	0.10918	0.15614	0.41346	0.23149	0.094462	0.38352	0.050851	-1.4479	-1.1396	-1.6792	-1.6625	-1.0917	-1.8375	-1.2958	-1.425	-1.8979	-0.94375	-1.9438	-1.5	-1.0375	-1.7083	-1.1583	-1.3104	62.528	31.788	-59.287	136.844	-141.675	52.739	192.879	155.855	-19.305	-42.086	183.429	85.428	-140.693	-6.614	52.071	46.577	0.0016347	0.0008983	0.00070218	574.71	2.8683e-05	7.781e-06	980.14	196.25	2.3202e-05	6.0023e-06	425.98	164.49	73.465	29.146	3.9482e-05	75.632	0.049354	0.092105	0.026226	786.62	0.00089804	0.0010691	1095	247.16	0.00085793	0.0010741	500.51	192.81	104.42	39.136	0.00092922	87.452	2.331	13.090	189.884	-148.230	-84.956	-69.619	-148.644	-143.603	-66.524	139.898	-144.509	-140.192	-140.082	-135.296	-40.466	-136.267	-8191	255	
1937.403	1	1	0	0	0.03905	0.16921	0.19056	0.35505	0.069333	0.11612	0.34965	0.25751	0.18208	0.35298	0.16546	0.10514	0.051936	0.12275	0.32483	0.1454	-1.2896	-1.0271	-1.6604	-1.8979	-0.96458	-2.0083	-1.4458	-1.2896	-1.7167	-1.0854	-1.4833	-2.0021	-0.89167	-1.7896	-1.3271	-1.3667	-88.531	147.175	-3.836	117.704	2.344	-105.209	174.206	142.536	76.098	141.355	113.486	-42.125	17.310	63.380	33.674	159.428	0.0019328	0.0020275	0.00059517	573.08	4.5053e-05	1.1101e-05	986.45	197.05	3.9616e-05	2.3584e-05	427.07	165.54	73.706	29.271	2.7788e-05	75.786	0.049371	0.092754	0.026101	788.85	0.00089195	0.0010576	1098.6	247.36	0.00085325	0.0010666	499.56	192.32	104.14	38.98	0.00091834	86.99	16.946	-150.726	-108.574	-148.636	-81.771	152.312	-149.092	-143.655	48.963	79.349	-143.888	-140.053	-139.551	-135.010	-2.168	-136.013	-8191	255	
1937.499	1	1	0	0	0.13013	0.22889	0.10117	0.13263	0.31957	0.25101	0.22783	0.21062	0.17427	0.049065	0.18309	0.23346	0.19737	0.20286	0.28706	0.2368	-1.5333	-1.0854	-1.4979	-1.8104	-1.0042	-1.8188	-1.6229	-1.2042	-1.8583	-0.97917	-1.6083	-2.0083	-0.98542	-1.9229	-1.6437	-1.1812	81.593	69.901	-80.037	-13.521	74.952	-79.991	150.858	108.235	150.793	-23.258	-40.116	169.494	100.652	-83.555	-27.001	190.217	0.0027712	0.0033592	0.00037714	575.85	3.1559e-07	2.5352e-05	975.95	194.89	1.9619e-05	1.4652e-05	421.94	163.96	72.96	29.145	6.4541e-06	74.962	0.048761	0.090925	0.025877	781.3	0.00088139	0.001046	1085.5	243.69	0.00083496	0.0010451	493.88	190.53	102.64	38.613	0.00091333	86.391	16.428	-141.140	190.301	-148.432	132.703	8.727	-148.836	-143.429	24.026	95.446	-143.811	-139.499	-139.306	-134.780	5.067	-135.919	-8191	255	
1937.571	1	1	0	0	0.087473	0.18801	0.17616	0.12967	0.20853	0.163	0.22433	0.28534	0.14799	0.026097	0.26252	0.13337	0.19868	0.21663	0.22066	0.31817	-1.4479	-1.2583	-1.2833	-1.8917	-0.98958	-1.5292	-1.6917	-1.0458	-1.7563	-1.3604	-1.2708	-1.9792	-1.0021	-1.7938	-1.6938	-1.225	-13.522	118.614	-95.140	-64.051	-0.294	-33.890	165.583	-117.571	-153.115	81.753	133.203	170.491	-101.221	-57.069	44.998	135.433	0.0020211	0.00062396	0.0003338	577.9	1.1695e-05	2.4866e-05	976.41	195.17	2.6429e-05	4.0759e-06	421.97	163.72	72.476	29.13	3.955e-06	75.683	0.048382	0.090734	0.025718	776.89	0.00087035	0.0010308	1082.3	242.91	0.00082366	0.0010291	491.5	190.1	102.18	38.535	0.00089485	86.604	41.926	-47.465	-16.952	-148.860	191.652	1.936	-149.024	-143.927	176.247	-20.431	-144.427	-139.928	-140.538	-134.566	-41.582	-136.030	-8191	255	
1937.667	1	1	0	0	0.14134	0.083294	0.39047	0.091726	0.25451	0.12918	0.24107	0.13641	0.35974	0.21085	0.077213	0.18371	0.15586	0.073662	0.21738	0.20836	-1.4667	-1.0333	-1.2437	-1.9104	-1.2125	-1.65	-1.7771	-1.1979	-1.7646	-1.4083	-1.2458	-1.9146	-1.1437	-1.4771	-1.5875	-0.99167	-51.613	109.100	107.712	123.879	94.978	69.215	56.359	-138.165	-7.645	159.980	59.266	-134.840	128.452	-94.665	120.291	128.426	0.0025102	0.0024487	0.00015753	570.54	3.7594e-05	1.5079e-05	967.18	195.84	5.8294e-06	5.2575e-06	422.75	165.59	72.65	29.644	1.5438e-05	76.427	0.047445	0.088873	0.025081	769.35	0.00084988	0.0010167	1078.4	243.07	0.00080725	0.0010082	493.33	191.15	102.64	38.794	0.0008834	87.519	7.175	-40.627	-50.559	-149.577	-6.986	76.489	-148.885	-143.859	-3.587	52.814	-144.018	-140.196	-139.494	-135.093	19.344	-135.949	-8191	255	
1937.787	1	1	0	0	0.15539	0.22546	0.21837	0.33547	0.24597	0.16323	0.46799	0.47515	0.053509	0.31359	0.33272	0.24056	0.12474	0.23251	0.038157	0.26536	-1.3062	-1.5854	-1.1437	-2.0312	-1.2083	-1.3604	-1.8083	-1.0771	-1.8	-1.5729	-1.0833	-1.925	-1.2771	-1.2687	-1.8958	-1.1833	-16.352	-5.066	114.627	117.114	-35.529	-94.348	73.355	148.424	27.984	-3.626	129.232	105.041	-17.070	-125.496	134.421	-150.605	0.0025015	0.0019556	0.00049981	573.73	1.5164e-05	1.6154e-05	980.33	196.34	3.3431e-05	5.3117e-06	425.23	166.27	73.889	29.552	1.8687e-05	76.232	0.046811	0.087143	0.024691	771.05	0.00084533	0.0010099	1086.4	243.72	0.00079987	0.0010009	493.29	190.73	102.15	38.541	0.00086723	86.493	18.180	-118.461	-37.463	-149.019	99.184	-98.571	-149.028	-143.472	103.351	88.978	-144.063	-140.027	-139.513	-134.695	-83.452	-135.931	-8191	255	
1937.882	1	1	0	0	0.1489	0.13231	0.23064	0.3015	0.08424	0.20742	0.18932	0.13526	0.24281	0.36311	0.16933	0.1905	0.15292	0.22866	0.10544	0.111	-1.2542	-1.5812	-1.0312	-2.0458	-1.2146	-1.0812	-2.0646	-1.1063	-1.5812	-1.4729	-1.1771	-1.9771	-1.3958	-1.2854	-2.0271	-1.3208	38.398	-32.652	-68.670	127.956	84.194	-79.082	172.948	183.019	-122.223	111.729	135.687	-55.808	-56.103	103.996	51.276	32.439	0.0016753	0.00034088	0.00059372	568.58	1.797e-05	2.0516e-06	973.56	195.44	2.0289e-05	1.7414e-05	423.28	164.43	74.528	29.414	2.1531e-05	75.808	0.045955	0.085824	0.024269	760.4	0.00082145	0.00098316	1073.2	240.67	0.00078467	0.00099019	488.79	189.4	101.36	38.356	0.00085709	86.542	5.077	-161.560	187.583	-148.186	98.171	58.918	-148.979	-144.110	5.447	192.810	-143.989	-139.938	-139.984	-134.540	-4.059	-136.135	-8191	255	
1937.978	1	1	0	0	0.22846	0.35563	0.14072	0.20426	0.17706	0.049612	0.17186	0.10535	0.11351	0.26529	0.23741	0.33877	0.24983	0.080311	0.12031	0.12592	-1.1458	-1.675	-0.87083	-1.8271	-1.325	-1.2687	-2.0354	-1.3542	-1.4417	-1.7354	-1.1208	-1.7687	-1.3375	-1.2229	-1.6542	-1.225	118.849	-155.480	-132.070	-150.537	55.052	77.119	107.173	172.477	53.050	120.313	129.114	-84.004	140.582	-118.337	176.913	-139.986	0.002108	0.0015449	0.00028845	569.28	7.3935e-06	2.8605e-05	974.87	197	9.6455e-06	9.661e-06	426.47	166.3	73.489	29.681	1.6489e-05	76.571	0.04557	0.084725	0.023922	760	0.00081443	0.00097689	1076.8	240.53	0.00077426	0.00097048	490.34	190.48	101.46	38.542	0.00085488	86.945	8.165	-94.077	138.797	-147.953	-18.088	-108.114	-148.770	-143.905	197.387	181.542	-144.080	-139.509	-139.658	-134.889	1.866	-135.984	-8191	255	
1938.076	1	1	0	0	0.1609	0.12721	0.089652	0.17704	0.058831	0.14372	0.25597	0.22644	0.16595	0.16888	0.10104	0.22712	0.11282	0.39956	0.12479	0.40805	-0.94583	-1.6125	-0.925	-1.8604	-1.4792	-0.94167	-2.1	-1.2292	-1.3271	-2.0479	-0.95417	-1.6667	-1.4979	-1.0208	-1.775	-1.2938	-106.380	-27.603	105.307	130.439	72.813	-29.736	177.909	110.133	-126.864	120.741	197.132	-95.412	42.805	162.171	-90.200	165.233	0.0017631	0.00082175	0.00020297	579.9	4.3327e-05	1.3363e-05	990.12	197.29	1.8879e-05	1.5313e-05	428.71	167.61	74.524	29.84	3.2173e-05	76.831	0.045726	0.085464	0.024235	769.71	0.00083344	0.00099465	1089.5	244.01	0.00080595	0.0010131	497.9	193.9	103.91	39.321	0.00091937	88.591	-2.540	-29.657	173.064	-148.477	-32.778	-115.244	-148.945	-143.301	15.265	-133.613	-143.988	-139.759	-139.926	-134.667	-66.083	-135.659	-8191	255	
1938.170	1	1	0	0	0.16098	0.19058	0.26775	0.22062	0.20384	0.25184	0.39596	0.14011	0.22442	0.023912	0.1855	0.23494	0.047888	0.059285	0.15949	0.14909	-0.83958	-1.9625	-1.1104	-1.6187	-1.4646	-1.1938	-2.0104	-1.6146	-1.2271	-2.0708	-1.1958	-1.5771	-1.6292	-1.0063	-1.8958	-1.5083	-125.133	40.908	110.543	6.951	178.949	60.274	115.629	-8.297	84.398	-114.439	95.190	140.671	-66.164	64.024	24.082	129.909	0.0025048	0.0027193	0.00083954	584.58	1.1658e-05	1.8258e-05	989.21	196.93	4.2273e-05	2.4128e-05	425.75	166.82	73.843	29.425	2.0079e-05	75.718	0.049613	0.093135	0.026777	802.39	0.00093576	0.0011273	1116.6	252.31	0.00091435	0.0011592	509.88	198.22	108.05	40.488	0.0010266	88.958	17.099	-128.128	-53.285	-148.650	183.657	-144.342	-148.681	-143.672	31.436	45.791	-144.037	-139.728	-139.599	-134.712	-90.047	-136.081	-8191	255	
1938.266	1	1	0	0	0.19039	0.055281	0.15478	0.12334	0.21029	0.028101	0.15504	0.29199	0.23643	0.25041	0.28617	0.020403	0.25699	0.4087	0.1555	0.15968	-0.52917	-1.9125	-0.97292	-1.5208	-1.7292	-0.78333	-1.9208	-1.5333	-1.125	-1.8667	-1.2271	-1.5167	-1.7313	-0.8625	-1.8375	-1.6833	-123.747	96.970	194.764	129.565	40.191	24.934	76.642	194.610	-33.179	-103.045	128.018	78.615	-140.093	173.848	-131.665	-28.874	0.0021744	0.0011982	0.001169	577.03	3.1622e-06	2.1499e-05	976.45	194.8	1.028e-05	1.7003e-05	423.25	165.02	72.861	29.257	1.8081e-05	75.688	0.054411	0.10231	0.028986	811.46	0.00098506	0.0011714	1108.4	250.95	0.00093119	0.0011599	505.43	195.91	106.72	40.11	0.0010094	88.53	12.933	121.744	-77.591	-148.461	-105.663	195.557	-148.958	-144.339	-135.291	-155.837	-144.757	-140.264	-140.272	-135.438	5.706	-136.829	-8191	255	
1938.387	1	1	0	0	0.060208	0.13605	0.24422	0.24924	0.059825	0.29189	0.096405	0.087083	0.22194	0.23351	0.15036	0.20204	0.13559	0.18742	0.27191	0.056238	-0.7125	-1.85	-1.2188	-1.3167	-1.7625	-1.0063	-1.825	-1.7313	-1.0229	-2.0646	-1.5417	-1.4167	-1.9146	-1.1542	-1.5583	-1.6521	50.067	109.506	-122.264	-116.614	197.822	125.942	-142.854	170.304	48.600	-39.793	108.819	155.289	126.059	9.795	-96.128	-22.081	0.0023547	0.0014336	0.00053807	571.79	2.6203e-05	1.1785e-05	973.66	193.79	3.3095e-05	2.9427e-05	422.84	165.93	72.935	29.228	3.9989e-05	76.299	0.054208	0.10098	0.028676	807.52	0.00098535	0.0011822	1110.3	252.48	0.00095133	0.0012156	509.85	197.93	109.3	40.889	0.0010846	90.565	-2.763	-83.630	120.096	-148.799	-116.199	12.227	-149.268	-143.992	78.859	69.739	-144.332	-139.746	-139.952	-135.215	37.491	-136.644	-8191	255	
1938.483	1	1	0	0	0.11976	0.29953	0.043516	0.2806	0.097881	0.21222	0.20298	0.097748	0.095486	0.092686	0.2258	0.35971	0.09198	0.14736	0.16409	0.26348	-0.69583	-1.7125	-1.3583	-1.1458	-1.9625	-1.0625	-1.6333	-1.7604	-1.1208	-1.7062	-1.4771	-1.2854	-1.825	-1.1333	-1.4667	-1.8479	-75.924	-153.879	36.640	-88.839	-47.724	-101.375	180.946	-2.815	79.644	94.956	179.754	181.721	-37.437	175.732	-94.145	118.034	0.0017441	0.0027351	0.0005162	575.36	2.1861e-05	9.1625e-06	980.53	191.73	3.7166e-05	1.6681e-05	422.62	164.74	73.1	29.248	2.5237e-05	76.423	0.058725	0.11025	0.031567	837.94	0.0010883	0.0013001	1136.7	260.22	0.001065	0.0013367	522.07	203.07	113.53	42.184	0.0011864	92.309	21.609	-109.345	98.593	-149.026	-2.020	35.113	-148.834	-143.435	-6.283	-48.115	-144.197	-139.677	-139.882	-135.083	-30.312	-136.373	-8191	255	
1938.579	1	1	0	0	0.12121	0.15798	0.18391	0.067176	0.29126	0.15909	0.15586	0.23839	0.1642	0.17913	0.25912	0.15602	0.22678	0.34387	0.083404	0.32907	-0.58333	-1.6917	-1.4021	-1.2896	-2.0104	-1.3167	-1.5375	-1.9396	-0.90833	-1.7229	-1.8	-1.2188	-2.075	-1.2521	-1.4688	-2.0271	117.315	7.026	0.594	-138.842	84.970	88.798	-78.070	186.434	136.768	95.360	128.925	172.652	60.305	111.400	-6.055	110.182	0.0013823	0.0022602	0.00035991	567	8.0923e-06	8.7157e-06	966.75	192.94	1.866e-05	2.5253e-05	418.79	163.53	72.648	28.84	8.9811e-06	74.707	0.062871	0.11818	0.033498	850.59	0.0011429	0.0013521	1138.2	261.91	0.0010924	0.0013727	522.55	202.56	114.28	42.311	0.001225	91.804	11.479	-1.242	-23.025	-148.388	-38.163	-66.501	-148.991	-143.777	-153.933	55.468	-144.152	-140.159	-139.647	-135.192	-100.341	-136.228	-8191	255	
1938.675	1	1	0	0	0.23943	0.16376	0.12238	0.12271	0.3356	0.061819	0.3301	0.29312	0.13896	0.13767	0.13946	0.091518	0.2477	0.059969	0.24693	0.14825	-0.59792	-1.7083	-1.5063	-1.2938	-1.9688	-1.2875	-1.4333	-1.7604	-0.93542	-1.9	-1.5604	-0.98125	-1.9125	-1.3771	-1.1979	-2.1562	20.822	110.025	55.183	-86.960	-133.191	-148.809	-84.835	125.125	-70.930	79.370	118.218	156.130	114.495	-29.144	42.962	-97.534	0.002022	0.001937	0.00020283	564.38	2.7809e-05	4.36e-05	963.53	191.43	1.6707e-05	2.3231e-05	417.29	162.9	71.044	28.906	4.4445e-05	74.563	0.06566	0.12445	0.035331	862.75	0.0012181	0.0014573	1147.8	266.61	0.0011746	0.0014806	530.49	205.98	117.49	43.586	0.0013416	93.656	-14.346	26.594	-149.214	-148.311	-10.867	-5.281	-149.057	-143.676	-24.312	-78.951	-144.109	-139.987	-139.621	-135.153	115.752	-135.865	-8191	255	
1938.796	1	1	0	0	0.2301	0.18769	0.29328	0.36655	0.05471	0.091985	0.077011	0.1141	0.037576	0.14	0.27141	0.17069	0.40903	0.15593	0.185	0.18755	-0.80625	-1.6104	-1.5479	-1.1354	-1.8333	-1.3146	-1.1042	-1.8729	-1.0312	-1.4771	-1.9792	-1.1271	-1.6896	-1.4771	-1.0583	-2.1125	-147.090	186.574	98.866	126.358	-15.592	97.053	160.323	74.781	-117.776	-89.447	130.028	191.588	-121.092	-159.411	99.573	102.549	0.0021382	0.0017865	0.00022446	562.25	5.1237e-05	2.6193e-05	954.72	189.85	6.2118e-05	2.0011e-05	413.2	160.84	71.24	29.033	5.5084e-05	74.233	0.072115	0.13685	0.039159	902.15	0.0013641	0.0016364	1176.4	278.8	0.0013595	0.001728	553.83	214.74	126.1	46.206	0.001552	96.901	12.902	97.805	124.150	-148.392	-22.112	-123.376	-148.594	-143.325	-0.547	-123.860	-144.789	-140.120	-139.902	-135.283	149.244	-136.534	-8191	255	
1938.868	1	1	0	0	0.11652	0.12309	0.24955	0.097193	0.2939	0.2138	0.024554	0.19731	0.091401	0.097318	0.39513	0.11417	0.12508	0.24838	0.075556	0.18139	-0.9125	-1.4729	-1.925	-0.95417	-1.7396	-1.5833	-1.2542	-1.9917	-1.3833	-1.3521	-2.0146	-1.1646	-1.8958	-1.6354	-1.0667	-1.8438	-159.960	46.696	31.092	197.164	-112.770	71.568	-30.053	-54.132	38.007	-126.663	143.735	151.902	-119.108	104.797	-39.675	163.757	0.0011839	0.0022958	0.0007592	558.05	3.7185e-05	2.4353e-05	956.67	191.17	3.5857e-05	4.4704e-05	417.74	162.72	71.378	28.557	1.7569e-05	74.01	0.082473	0.15558	0.044016	946.47	0.0015197	0.0018077	1208.2	286.51	0.001444	0.0018213	563.93	218.31	128.59	47.101	0.0016217	97.832	-4.817	-35.031	0.526	-149.410	-44.587	-2.953	-148.570	-143.912	67.629	-10.965	-144.608	-140.527	-140.319	-135.590	52.634	-136.947	-8191	255	
1938.987	1	1	0	0	0.17836	0.52428	0.17764	0.20069	0.14419	0.13126	0.3102	0.16557	0.10039	0.22439	0.15294	0.067049	0.18551	0.12492	0.15057	0.29762	-0.89583	-1.3958	-1.8625	-1.0479	-1.6354	-1.6042	-1.1229	-2.1292	-1.2062	-1.2667	-2.0938	-1.175	-1.6583	-1.8625	-1.0646	-1.9	-144.767	-93.672	160.862	100.721	96.209	34.297	115.255	154.200	-31.863	-143.245	146.744	-154.533	-149.153	107.557	-138.717	153.167	0.0027053	0.0014542	0.00026532	565.61	1.0457e-05	3.3912e-05	957.38	188.29	3.419e-05	4.5629e-05	410.26	161.09	70.765	28.148	2.8669e-05	73.538	0.085587	0.16029	0.045201	957.13	0.0015393	0.0018301	1206.6	286.62	0.0014651	0.0018383	559.99	216	127.65	46.415	0.0015985	96.659	-23.172	-29.295	-92.726	-149.253	128.944	39.346	-149.272	-144.016	69.058	135.127	-144.624	-140.115	-140.641	-135.457	-155.503	-136.606	-8191	255	
1939.083	1	1	0	0	0.079176	0.073933	0.14452	0.2572	0.04849	0.14089	0.067416	0.11637	0.2377	0.1003	0.02085	0.24666	0.019365	0.040261	0.25987	0.25648	-1.0938	-1.0438	-1.9104	-1.2292	-1.4542	-1.8896	-1.1958	-1.9312	-1.3813	-1.3146	-1.9417	-1.1187	-1.3146	-1.85	-1.0875	-2.025	-102.020	-127.622	92.922	122.945	-86.641	17.095	-21.319	50.818	-107.937	133.964	141.456	-153.873	-139.518	143.448	-15.757	-131.982	0.0018958	0.0024985	0.00066105	557.23	4.6027e-05	8.4564e-06	951.32	189.34	2.866e-05	1.804e-06	410.49	160.9	71.094	28.37	1.859e-05	73.2	0.084124	0.1584	0.044864	951.61	0.0015265	0.0018116	1196.9	284.48	0.001442	0.0018154	558.83	215.22	127.18	46.474	0.0015913	96.734	-11.034	-9.148	-100.540	-148.906	53.594	-148.437	-149.051	-144.521	9.639	-84.870	-144.291	-140.245	-140.081	-135.124	-27.979	-136.279	-8191	255	
1939.179	1	1	0	0	0.068726	0.050099	0.029099	0.16447	0.19655	0.086681	0.21632	0.3235	0.25945	0.027803	0.25867	0.15398	0.06148	0.23553	0.39635	0.23844	-1.1292	-1.0417	-1.8937	-1.2521	-1.2271	-1.9188	-1.1417	-1.7354	-1.7708	-0.89792	-2.0667	-1.4042	-1.2854	-2.0208	-1.0958	-1.8229	-8.435	-97.488	-45.743	72.201	80.226	-112.107	147.473	169.900	119.657	-125.988	112.899	88.470	126.537	144.402	193.246	150.459	0.0022898	0.0010995	0.00063195	569.81	2.9758e-05	1.9749e-05	952.26	187.42	3.5189e-05	7.0558e-06	414.68	158.84	71.906	28.248	4.1989e-05	73.268	0.084633	0.15917	0.045277	956.52	0.0015446	0.0018421	1205.9	286.91	0.0014767	0.0018485	563.95	217.08	128.82	46.923	0.0016088	97.242	18.237	-110.062	94.482	-148.752	24.217	-156.706	-149.216	-144.076	25.144	-1.777	-143.962	-139.816	-140.080	-134.878	-53.836	-136.128	-8191	255	
1939.275	1	1	0	0	0.16087	0.26799	0.096425	0.066625	0.1977	0.17159	0.10913	0.37815	0.19753	0.13968	0.039158	0.26364	0.32982	0.085136	0.12185	0.1258	-1.5104	-1.0479	-1.9937	-1.3729	-1.1771	-1.9729	-1.3062	-1.5958	-1.7917	-0.96667	-1.8146	-1.5063	-1.1812	-2.0125	-1.2708	-1.6417	7.530	-35.223	-28.184	-122.794	-8.630	174.981	-158.365	88.292	-73.549	24.771	193.952	118.853	-124.999	10.428	-125.027	164.638	0.0022513	0.002715	0.00096766	558.87	2.21e-05	6.0101e-06	957.4	189.08	6.0688e-05	2.8961e-05	411.48	160.9	70.954	28.334	4.8787e-05	73.088	0.085227	0.15965	0.045504	957.52	0.0015458	0.0018428	1206.2	287.98	0.0014767	0.0018479	563.13	217.38	128.27	46.687	0.0016086	96.847	8.443	-89.079	-39.857	-148.902	13.412	-147.032	-148.854	-144.129	84.066	122.891	-143.953	-140.021	-140.022	-134.722	-1.424	-136.807	-8191	255	
1939.396	1	1	0	0	0.15045	0.16183	0.10254	0.19652	0.052194	0.070562	0.27277	0.25413	0.0503	0.10002	0.37686	0.14181	0.10722	0.24091	0.29414	0.10672	-1.3417	-0.96042	-1.8875	-1.5938	-1.0146	-2.0979	-1.3271	-1.5229	-1.7542	-0.96042	-1.8708	-1.8354	-1.0688	-1.9604	-1.1146	-1.5125	157.352	118.206	-83.045	89.985	-53.397	-102.683	-152.107	120.515	-146.634	98.241	170.391	39.386	-29.132	-145.655	-143.067	55.978	0.0020753	0.0028594	0.00065275	561.34	7.2343e-06	2.7701e-05	945.06	188.09	1.9191e-05	5.9456e-05	406.52	157.72	68.999	27.883	1.156e-05	72.55	0.084416	0.15873	0.044956	950.07	0.0015285	0.0018135	1193.2	284.2	0.0014394	0.0018019	553.43	213.21	125.22	45.576	0.0015525	95.222	19.442	-109.310	-134.888	-149.148	-49.476	166.187	-148.682	-143.757	53.717	-28.740	-144.191	-140.281	-139.334	-134.926	-0.524	-136.363	-8191	255	
1939.467	1	1	0	0	0.18753	0.066335	0.14184	0.17253	0.15587	0.60708	0.28146	0.097782	0.24809	0.18446	0.36841	0.13444	0.17954	0.20966	0.17479	0.13925	-1.6583	-1.0792	-1.5625	-1.6396	-1.0479	-1.7938	-1.35	-1.4	-1.9937	-0.98958	-1.575	-1.8771	-1.1958	-1.9021	-1.5104	-1.4417	42.662	-31.052	-94.116	148.772	127.058	-9.195	77.002	101.072	127.251	-94.570	194.906	-4.540	-67.683	176.304	-51.228	-124.439	0.0011167	0.0019458	0.00092107	550.3	2.9226e-05	1.1345e-05	945.34	188.28	8.1295e-05	3.1443e-05	409.44	157.67	70.052	27.678	1.2166e-05	72.566	0.082272	0.15374	0.043984	932.64	0.0014972	0.00179	1184.4	282.69	0.0014329	0.0018069	553.39	213.23	125.91	45.932	0.0015748	95.607	55.565	-148.029	-156.413	-148.767	63.025	-102.709	-148.966	-143.452	6.012	0.660	-143.762	-140.010	-139.470	-134.586	-2.642	-136.036	-8191	255	
1939.564	1	1	0	0	0.01572	0.04946	0.1624	0.18756	0.026391	0.13137	0.20623	0.091025	0.15385	0.13994	0.10582	0.29578	0.25533	0.29711	0.060728	0.14766	-1.4625	-1.1708	-1.6521	-2.05	-0.86667	-1.8167	-1.6292	-1.3854	-1.8542	-1.2479	-1.5167	-1.9375	-1.0354	-1.9042	-1.2167	-1.3458	148.990	-102.374	-88.191	164.327	-108.979	-149.306	138.025	104.573	82.773	22.997	-142.828	174.515	180.448	-111.509	154.547	-73.683	0.0018596	0.0039329	0.00085405	554.62	1.773e-05	2.728e-05	943.65	185.4	1.5315e-05	2.0594e-05	409.21	157.87	69.365	27.967	7.304e-05	72.959	0.083896	0.15732	0.044901	942.47	0.0015356	0.001831	1187.4	284.53	0.0014696	0.0018447	557.67	215.51	127.33	46.55	0.00162	96.979	23.510	-86.497	-110.718	-148.482	-146.903	-111.907	-148.994	-143.599	-103.397	1.185	-144.353	-139.890	-140.284	-134.998	15.454	-136.139	-8191	255	
1939.660	1	1	0	0	0.24898	0.27363	0.21593	0.036023	0.20285	0.18987	0.18007	0.194	0.089336	0.373	0.27778	0.30697	0.19876	0.18256	0.20462	0.35973	-1.5042	-0.94375	-1.575	-1.9521	-0.79167	-1.6938	-1.6771	-1.0854	-1.95	-1.1354	-1.3917	-1.9104	-0.90208	-1.6896	-1.6688	-1.1646	-42.451	-91.616	-128.861	80.001	-147.740	-0.036	114.178	139.364	191.664	-32.632	127.540	-92.964	181.570	31.556	-8.038	161.008	0.0015793	0.0023036	0.00079791	556.24	5.0041e-05	1.3767e-05	946.8	186.06	2.523e-05	2.6717e-06	404.51	158	69.755	27.824	2.3739e-05	72.449	0.085618	0.16062	0.045499	951.34	0.0015487	0.0018541	1199.8	285.81	0.0014731	0.001858	559.51	215.08	127.84	46.428	0.0016181	96.197	-14.803	12.165	10.750	-148.281	-51.494	-85.542	-148.614	-144.200	135.238	60.900	-143.908	-139.714	-139.334	-134.297	16.837	-136.096	-8191	255	
1939.756	1	1	0	0	0.14261	0.20508	0.15752	0.1556	0.010343	0.36678	0.091778	0.2563	0.035221	0.21364	0.085396	0.43305	0.1601	0.15536	0.11981	0.3995	-1.6021	-1.1313	-1.1771	-1.7354	-0.93125	-1.6104	-1.5833	-1.0479	-1.7229	-1.3229	-1.35	-1.8604	-1.2917	-1.525	-1.8917	-0.95208	110.040	5.553	5.225	4.471	34.730	-152.016	121.791	188.177	100.714	113.721	-68.662	140.231	-133.947	-122.302	-8.021	-91.009	0.0018503	0.0011331	0.00030174	546.18	4.5325e-05	2.0124e-05	937.96	184.78	3.6425e-05	2.1954e-05	400.82	157.62	69.129	27.391	2.9156e-05	70.926	0.085851	0.16193	0.045768	946.37	0.0015563	0.0018566	1188.8	283.47	0.0014705	0.0018489	553.63	213.5	126.57	45.917	0.0015945	95.079	31.450	-88.612	124.137	-148.598	-46.377	-34.057	-148.871	-143.999	-51.167	74.363	-144.183	-140.245	-139.787	-135.582	-68.109	-136.259	-8191	255	
1939.875	1	1	0	0	0.26014	0.090751	0.23815	0.19791	0.35463	0.27532	0.25217	0.21132	0.21625	0.1605	0.14842	0.17885	0.11254	0.35047	0.19972	0.060934	-1.4125	-1.5521	-1.1104	-1.9417	-1.1271	-1.4646	-1.8729	-1.0208	-1.6667	-1.475	-1.1063	-1.8958	-1.0583	-1.4917	-1.9417	-0.95625	34.157	36.870	-118.858	50.908	-66.518	136.482	-97.557	-148.686	150.177	-83.540	171.109	188.935	145.518	-130.455	173.831	-99.620	0.0027231	0.00028276	0.00013794	551.37	9.2163e-06	2.8455e-05	938.32	186.22	5.9888e-05	1.9246e-05	404.51	158.21	68.507	27.609	2.0361e-05	72.104	0.084803	0.15905	0.045191	943.35	0.0015353	0.0018288	1185	283.34	0.0014664	0.0018331	554.99	214.13	126.6	46.143	0.0016212	95.993	22.862	-85.460	-105.655	-148.770	-16.704	53.282	-149.410	-144.233	167.357	101.765	-144.525	-139.804	-140.711	-135.200	-46.234	-136.180	-8191	255	
1939.971	1	1	0	0	0.20608	0.16349	0.28701	0.1467	0.17678	0.13343	0.18322	0.14845	0.052036	0.19891	0.19381	0.048073	0.42808	0.25669	0.28244	0.045102	-1.3375	-1.4521	-0.99792	-2.0458	-1.2146	-1.2104	-2.1875	-0.98542	-1.7375	-1.6729	-1.0812	-1.9562	-1.4562	-1.4604	-1.7979	-1.1896	57.839	114.726	-54.960	-16.998	178.633	-14.713	156.655	165.500	93.460	65.613	145.013	87.019	190.215	-126.365	51.555	164.359	0.0010174	0.0014361	0.0002159	542.59	1.9592e-05	1.8074e-05	941.21	186.11	6.2069e-05	2.2512e-05	407.6	158.65	70.489	27.717	1.253e-05	72.509	0.086116	0.16112	0.046084	952.57	0.0015696	0.0018732	1200.3	285.47	0.0014948	0.0018752	560.12	216.92	128.46	46.624	0.0016463	96.849	35.256	11.879	-19.596	-149.127	-6.287	73.717	-148.821	-143.510	-9.829	-130.323	-143.941	-140.056	-139.602	-134.839	138.818	-136.236	-8191	255	
1940.069	1	1	0	0	0.30475	0.16587	0.34027	0.1253	0.13709	0.064773	0.063246	0.38566	0.33921	0.15644	0.1432	0.089522	0.28361	0.20609	0.20225	0.23808	-1.1896	-1.5938	-0.86875	-2.0146	-1.3417	-1.1625	-1.9688	-1.2375	-1.4771	-1.7583	-1.0021	-1.8479	-1.5625	-1.2833	-2.075	-1.4125	158.240	-150.219	-19.994	-43.255	-112.300	30.305	23.129	157.886	-49.912	-19.770	-96.059	103.039	146.605	80.208	-130.314	100.079	0.0017842	0.0028825	0.00019914	550.04	1.8317e-05	2.9686e-05	946.99	183.9	4.7983e-05	1.9371e-05	403.83	158.25	69.078	27.284	4.0388e-05	71.453	0.087006	0.16325	0.046293	960.17	0.0015802	0.0018793	1202.2	284.96	0.0014956	0.0018743	557.03	215.78	127.17	46.164	0.0016199	95.604	-6.822	131.374	-123.375	-148.095	-88.556	-43.576	-149.084	-143.658	77.769	178.096	-144.579	-140.319	-139.733	-135.346	106.020	-136.534	-8191	255	
1940.163	1	1	0	0	0.11952	0.12426	0.040044	0.15366	0.1101	0.1822	0.28059	0.31608	0.296	0.1704	0.052433	0.32712	0.23596	0.23543	0.22443	0.18134	-0.98333	-1.7521	-0.9875	-1.8854	-1.4625	-1.0562	-2.0563	-1.2917	-1.4688	-1.6521	-1.1604	-1.8229	-1.5187	-0.99583	-1.7062	-1.4937	59.323	136.264	90.798	-14.873	-67.715	147.306	93.656	-118.415	55.962	80.500	119.788	104.309	24.599	-91.561	71.134	159.842	0.0029666	0.001525	0.00077283	552.55	2.5081e-05	1.8543e-05	926.51	182.61	4.0324e-05	3.133e-05	400.19	155.91	68.209	27.353	3.8023e-05	70.695	0.085581	0.16105	0.045187	942.64	0.0015478	0.0018318	1181.3	280.41	0.0014577	0.001824	548.41	211.87	124.72	45.434	0.0015718	93.979	10.287	189.392	145.536	-148.089	-87.659	190.095	-148.963	-143.564	-93.947	85.224	-143.897	-139.715	-139.600	-134.652	149.006	-136.250	-8191	255	
1940.259	1	1	0	0	0.10774	0.33588	0.21503	0.24984	0.30348	0.17584	0.13205	0.22281	0.21965	0.095511	0.2992	0.14034	0.14898	0.05095	0.14541	0.28786	-1.0771	-1.8458	-1.0458	-1.7708	-1.7104	-0.8375	-2.0354	-1.3896	-1.2021	-1.9042	-1.0042	-1.7188	-1.8479	-1.0417	-1.9146	-1.4292	88.257	67.090	-74.858	191.842	104.003	-117.409	139.112	-135.304	-66.941	-64.307	196.696	-137.459	145.988	169.807	111.971	120.260	0.0014643	0.0020689	0.001107	545.34	6.0239e-05	4.1061e-05	927.79	184.4	6.0697e-05	9.3733e-06	404.15	156.39	68.385	27.189	3.9712e-05	71.427	0.082803	0.15571	0.04403	927.68	0.0015051	0.0017853	1174.6	278.67	0.001434	0.001797	547.76	211.16	124.2	45.444	0.0015664	94.364	2.542	153.247	-32.473	-148.188	-149.123	-76.363	-148.776	-143.889	-95.444	30.600	-143.846	-139.853	-139.726	-134.874	-129.879	-136.340	-8191	255	
1940.355	1	1	0	0	0.26779	0.18703	0.28768	0.23985	0.1704	0.15672	0.1079	0.32782	0.26321	0.07781	0.36427	0.15271	0.3094	0.40131	0.19547	0.27084	-0.86042	-1.7833	-1.2	-1.6146	-1.7646	-0.99792	-1.8292	-1.4354	-1.1313	-2.0125	-1.1187	-1.6229	-2.0354	-1.1417	-1.725	-1.75	185.820	-59.736	46.467	88.792	-5.351	-83.853	143.757	112.038	33.830	126.045	131.799	188.443	101.118	160.099	-124.743	191.831	0.0018637	0.0029363	0.00062304	544.04	5.0378e-05	9.8505e-06	929.81	183.02	3.1757e-05	3.5951e-05	401.78	156.21	68.764	27.501	4.2006e-05	71.189	0.083081	0.15533	0.043778	927.98	0.0015003	0.0017917	1177.7	278.8	0.0014233	0.0017832	547.07	211.07	124.05	45.001	0.0015373	94.271	3.046	-45.222	-83.698	-148.272	154.449	-14.941	-148.695	-143.664	-141.904	6.599	-144.536	-140.452	-140.276	-135.827	58.776	-136.576	-8191	255	
1940.476	1	1	0	0	0.14045	0.12942	0.14401	0.073924	0.33006	0.17698	0.32689	0.16521	0.16587	0.20923	0.28569	0.4032	0.14454	0.16684	0.36998	0.24593	-0.67917	-1.7417	-1.1625	-1.2125	-1.8854	-0.79375	-1.7062	-1.6292	-1.0438	-1.9625	-1.3375	-1.2646	-2.0521	-1.0354	-1.4813	-1.6354	-67.128	88.887	158.749	99.473	166.986	111.482	-128.235	-8.799	32.715	-87.206	126.788	93.548	151.443	64.180	132.541	194.229	0.0018373	0.00089155	0.0009118	541.76	2.6887e-05	1.7729e-05	929.59	182.07	2.1672e-05	1.1743e-05	398.97	154.86	68.584	27.031	3.9977e-05	70.621	0.08141	0.15261	0.043004	920.11	0.0014653	0.0017441	1167.4	275.69	0.0013866	0.0017339	539.54	208.69	122.24	44.296	0.0015104	92.571	-5.661	-41.232	-114.517	-149.601	88.303	-160.171	-149.501	-144.383	102.960	185.963	-144.816	-140.627	-140.431	-135.310	-2.690	-136.704	-8191	255	
1940.572	1	1	0	0	0.11496	0.14815	0.12411	0.13646	0.19687	0.073371	0.18455	0.22343	0.12151	0.13011	0.19219	0.070276	0.057268	0.20853	0.1291	0.43541	-0.55417	-1.7875	-1.4125	-1.3083	-1.9729	-1.2333	-1.6229	-1.6583	-1.0438	-1.8167	-1.5896	-1.3479	-1.9583	-1.2313	-1.3854	-1.9125	-89.789	-15.439	108.401	-26.779	49.494	178.891	-144.704	191.983	132.257	83.039	-94.398	131.902	165.254	129.671	-20.738	107.810	0.0020719	0.002506	0.00053484	540.14	1.2896e-05	2.0019e-05	925.05	181.42	3.3836e-05	1.5418e-05	398.52	154.56	68.574	27.056	2.0346e-05	69.683	0.079477	0.14888	0.042141	906.38	0.0014281	0.0016993	1153.7	271.77	0.0013443	0.0016987	533.28	206.16	120.2	43.91	0.0014807	91.778	43.698	-114.830	-58.719	-148.952	-15.867	-132.078	-148.768	-143.803	60.819	188.047	-144.263	-139.972	-139.925	-135.460	-6.524	-136.162	-8191	255	
1940.668	1	1	0	0	0.20558	0.10728	0.31287	0.20938	0.076278	0.24837	0.16611	0.24122	0.21652	0.16979	0.22638	0.23274	0.081531	0.1901	0.036974	0.18746	-0.64375	-1.7792	-1.4188	-1.1146	-1.9521	-1.1458	-1.4833	-2.0333	-1.0729	-1.7229	-1.5167	-1.1604	-2.05	-1.4271	-1.1333	-1.8917	-41.903	194.860	-147.692	50.746	198.266	164.172	109.913	113.422	140.939	-138.785	138.246	-110.547	-128.043	126.940	-78.033	109.930	0.0019819	0.0014361	0.00079352	543.91	2.637e-05	5.3056e-05	924.36	181.51	2.8961e-05	7.8845e-06	397.86	154.34	68.002	26.661	3.3991e-05	71.255	0.0782	0.1471	0.041589	902.61	0.0014257	0.0017018	1155.8	272.07	0.001356	0.0016982	536.41	206.69	120.62	43.851	0.0014779	92.735	9.504	20.307	-128.654	-149.142	-133.157	-65.235	-149.049	-143.570	-87.021	48.010	-143.809	-139.865	-140.283	-135.566	-25.006	-136.449	-8191	255	
1940.765	1	1	0	0	0.12531	0.18557	0.13431	0.17687	0.054077	0.18271	0.22532	0.24518	0.18682	0.085977	0.08937	0.13801	0.3029	0.17553	0.18303	0.36064	-0.78542	-1.7833	-1.725	-1.2062	-1.8333	-1.275	-1.5229	-1.9521	-1.1271	-1.6583	-1.725	-0.93333	-1.8542	-1.2667	-1.3396	-1.925	16.476	-17.004	-157.084	141.327	-120.385	34.521	99.161	-121.943	102.742	-124.930	120.980	-157.686	87.296	-142.369	-128.623	150.354	0.0021225	0.00037476	0.00086454	550.54	4.196e-05	2.239e-05	942.77	183.61	5.1575e-06	1.82e-05	402.97	157.74	68.699	27.059	3.0165e-05	71.104	0.078109	0.14621	0.04156	909.49	0.0014232	0.0016962	1166.3	274.08	0.0013542	0.0017101	540.85	209.38	121.81	44.124	0.001509	93.131	15.867	79.485	-36.929	-149.440	-83.153	-58.333	-148.919	-144.017	66.264	-63.346	-144.656	-140.039	-139.906	-135.662	-149.580	-136.850	-8191	255	
1940.861	1	1	0	0	0.17286	0.17008	0.29081	0.22548	0.098161	0.18965	0.125	0.29396	0.18061	0.21651	0.31618	0.18457	0.036286	0.022094	0.16438	0.10464	-0.71875	-1.5854	-1.6083	-1.0396	-1.8563	-1.6625	-1.2437	-1.8354	-1.0646	-1.5104	-1.8396	-1.1792	-1.9062	-1.5229	-1.0646	-2.0771	-32.157	-55.970	55.981	178.871	78.286	49.060	57.625	103.508	136.641	-82.097	132.238	118.629	-88.557	39.485	148.353	169.325	0.0022292	0.0011363	0.00042684	546.38	2.9246e-05	1.8379e-05	934.69	180.22	4.2791e-05	1.6372e-05	400.49	154.96	67.952	27.189	2.4371e-05	70.348	0.07928	0.15038	0.042419	912.44	0.0014535	0.0017222	1167.9	275.23	0.0013856	0.001743	541.98	208.18	122.2	44.459	0.001527	92.698	4.932	133.507	29.206	-148.874	-73.382	73.814	-149.301	-144.000	-117.272	132.712	-145.046	-140.433	-140.217	-135.044	61.562	-136.289	-8191	255	
1940.957	1	1	0	0	0.2568	0.23402	0.29068	0.11603	0.073868	0.22267	0.16019	0.26108	0.21943	0.096458	0.16129	0.10664	0.17624	0.094337	0.19728	0.21233	-0.70833	-1.4479	-1.6354	-1.075	-1.6708	-1.4937	-1.2792	-1.9229	-1.1958	-1.2792	-1.8083	-1.1708	-1.7708	-1.4375	-1.2104	-1.9104	177.168	-8.796	-72.367	-112.649	9.925	-2.298	156.478	89.743	76.547	23.283	190.480	130.207	-146.780	77.560	104.014	177.524	0.0016843	0.0016583	0.00099187	543.25	3.097e-05	3.2533e-05	929.6	183.74	3.4566e-05	2.6568e-05	397.95	155.04	68.661	26.807	1.3121e-05	70.606	0.080981	0.15273	0.043278	919.94	0.0014841	0.0017668	1169.3	276.38	0.0014169	0.0017731	543.92	209.7	123.31	44.512	0.0015488	93.259	27.966	98.258	-118.153	-149.031	11.109	-43.519	-149.778	-144.098	165.199	118.234	-145.197	-141.069	-140.529	-135.566	122.284	-136.756	-8191	255	
1941.051	1	1	0	0	0.18133	0.11564	0.084637	0.1579	0.13667	0.15367	0.21068	0.31736	0.20196	0.23627	0.36851	0.046485	0.12366	0.25296	0.21078	0.25857	-0.88125	-1.2	-1.7958	-1.0521	-1.6729	-1.8521	-0.89375	-1.7479	-1.2833	-1.2604	-1.8896	-1.2062	-1.4729	-1.8708	-0.94583	-1.8958	-96.334	-130.350	102.197	85.916	189.232	-141.441	136.048	124.567	8.398	-137.114	147.835	138.908	-15.560	178.253	-20.119	152.649	0.0024978	0.00087398	0.00031924	546.61	3.529e-06	2.8964e-05	924.05	184.39	2.5552e-05	1.6759e-05	402	156.23	68.725	26.843	5.1401e-05	70.865	0.081468	0.15407	0.043478	921.62	0.0014833	0.0017635	1171.2	278.02	0.0014164	0.0017837	547.58	210.66	123.8	44.941	0.0015632	94.005	-25.620	-161.343	61.499	-149.527	84.712	124.561	-149.524	-144.530	-120.697	195.023	-144.945	-140.846	-140.990	-135.743	-73.564	-136.925	-8191	255	
1941.172	1	1	0	0	0.25551	0.072826	0.21585	0.19729	0.23143	0.22023	0.25109	0.30969	0.10491	0.1298	0.12326	0.081561	0.089427	0.13075	0.20938	0.41007	-0.92917	-0.99792	-1.8354	-1.3104	-1.3875	-1.7687	-0.99583	-1.8458	-1.3813	-1.0312	-2.2354	-1.4062	-1.6729	-2.025	-0.98125	-1.7479	-24.936	169.141	-2.843	148.510	-157.654	-100.896	77.016	148.667	86.891	-106.579	-23.201	157.923	-152.903	-159.370	-82.677	169.561	0.0021165	0.002719	0.000965	544.53	2.9922e-05	2.4378e-05	932.64	184.28	3.1901e-05	2.0334e-05	401.96	156.43	68.652	26.875	2.9777e-05	70.682	0.082802	0.15553	0.043981	928.73	0.0015041	0.001798	1180.9	279.97	0.0014372	0.0017996	549	211.91	124.77	45.056	0.0015769	94.173	-22.370	189.458	-85.132	-149.336	-25.877	-2.982	-149.361	-144.401	-44.649	43.309	-144.835	-141.102	-140.397	-136.261	-33.703	-137.379	-8191	255	
1941.268	1	1	0	0	0.077524	0.26407	0.14517	0.14332	0.1132	0.099935	0.12018	0.16065	0.31202	0.23191	0.27903	0.39375	0.12629	0.19297	0.12379	0.28274	-1.1875	-1.0396	-1.8833	-1.2292	-1.2708	-1.9333	-1.2062	-1.625	-1.5479	-0.91875	-1.7583	-1.275	-1.4708	-1.9312	-0.94167	-1.6	144.623	191.257	-74.977	140.874	-99.255	160.804	92.595	-128.991	-71.803	76.941	112.052	163.168	-116.152	-0.695	145.742	89.594	0.0020218	0.00073323	0.00044008	538.29	2.4729e-05	1.4345e-05	923.02	182.02	2.907e-05	5.6188e-06	401.67	153.9	67.843	26.702	4.0257e-05	69.825	0.083112	0.15593	0.044177	928.42	0.0015062	0.0017868	1167.6	276.78	0.0014202	0.0017749	542.34	208.01	122.75	44.312	0.0015365	92.655	2.616	-136.840	136.850	-149.873	-60.482	90.242	-149.673	-144.773	152.121	4.480	-145.895	-141.046	-140.547	-136.390	-64.480	-137.083	-8191	255	
1941.340	1	1	0	0	0.10163	0.12224	0.11104	0.17381	0.11701	0.1469	0.27361	0.076306	0.20641	0.16433	0.21834	0.22461	0.27817	0.038978	0.18568	0.4388	-1.2146	-0.8875	-1.9396	-1.2563	-1.1812	-1.9458	-1.1938	-1.4271	-1.6771	-0.91667	-1.9042	-1.3979	-1.2979	-2.0187	-1.1604	-1.6542	-123.741	-127.534	49.223	60.814	-67.264	-129.225	171.362	1.602	-149.783	173.959	-3.896	154.047	-119.180	194.153	175.923	109.062	0.0028946	0.0016377	0.0010249	534.2	3.8687e-05	3.3573e-05	921.3	182.24	7.8516e-05	2.2173e-05	395.76	153.54	66.785	26.288	3.8787e-05	70.44	0.080754	0.15215	0.042906	908.1	0.0014599	0.0017237	1156.6	272.47	0.0013718	0.0017195	534.21	205.81	120.59	43.722	0.0014862	92.034	31.312	175.899	60.108	-149.655	23.028	-0.491	-150.099	-144.501	112.652	22.288	-144.954	-141.162	-141.140	-135.716	-62.178	-137.429	-8191	255	
1941.436	1	1	0	0	0.15035	0.45204	0.0099644	0.17298	0.3727	0.11748	0.16588	0.11062	0.086483	0.11357	0.10796	0.30375	0.20094	0.010639	0.14324	0.23544	-1.2687	-0.97083	-1.7188	-1.3583	-0.90833	-1.9917	-1.1688	-1.45	-1.8708	-1.1708	-1.9833	-1.6104	-1.1896	-1.9521	-1.1979	-1.4625	144.609	172.091	195.377	101.552	176.666	168.367	122.895	31.917	29.536	37.705	122.498	129.681	-5.692	-124.222	6.354	192.454	0.0017995	0.0016176	0.00088227	539.99	3.9887e-05	3.5576e-06	921.32	180.56	3.4836e-05	3.0334e-05	400.75	153.79	67.266	26.808	2.2074e-05	70.817	0.078659	0.14798	0.041538	902.56	0.0014218	0.0016896	1152.6	271.65	0.001351	0.0017091	537.26	206.62	120.93	43.818	0.001497	92.789	-1.007	-120.290	-82.192	-150.417	21.762	83.278	-150.100	-144.888	-101.531	83.120	-144.952	-141.473	-141.093	-135.736	158.219	-137.454	-8191	255	
1941.556	1	1	0	0	0.12674	0.13604	0.11957	0.21925	0.077103	0.11787	0.22402	0.044788	0.15004	0.16309	0.14563	0.27541	0.19839	0.17016	0.13424	0.10738	-1.4896	-1.0083	-1.5167	-1.6083	-1.0729	-1.8604	-1.3979	-1.2667	-1.9521	-0.98542	-1.7896	-1.7896	-1.1833	-1.8438	-1.2354	-1.4104	73.188	139.646	-151.730	-43.926	139.158	22.626	134.671	-53.572	160.535	-148.501	-91.449	-121.787	136.709	110.474	-29.942	101.915	0.0013439	0.0021932	0.00055351	539	1.2411e-05	2.8947e-05	925.52	181.8	4.1028e-05	1.6462e-05	399.82	154.54	68.196	27.009	8.1429e-06	70.457	0.078877	0.14839	0.042189	903.06	0.0014255	0.0017062	1156.2	272.95	0.0013729	0.0017233	539.88	207.46	121.42	44.129	0.0015025	92.437	55.070	-99.376	-83.994	-149.343	151.179	51.568	-149.957	-144.773	98.853	18.965	-144.925	-141.240	-140.979	-135.560	-6.921	-137.442	-8191	255	
1941.653	1	1	0	0	0.18129	0.20236	0.18924	0.10907	0.18955	0.06286	0.27112	0.04129	0.27063	0.10138	0.091185	0.36109	0.24157	0.31063	0.22593	0.30155	-1.5125	-1.1167	-1.4792	-1.675	-1.0021	-1.9562	-1.5812	-1.0688	-1.7146	-1.0938	-1.5542	-1.8875	-1.0479	-1.8375	-1.3813	-1.1479	-104.061	-73.552	-65.651	-41.978	49.133	-11.648	181.194	-130.168	51.319	-110.982	-90.749	154.856	-9.448	-43.704	93.033	132.973	0.0028652	0.0012347	0.00043232	532.1	3.1232e-05	4.1783e-06	919.55	180.01	1.2963e-05	3.2954e-05	395.37	153	67.631	26.299	1.0999e-05	69.619	0.080259	0.15129	0.042755	907.74	0.0014516	0.0017269	1153.1	271.92	0.0013783	0.001728	535.12	206.23	120.69	43.593	0.0015006	91.695	7.522	-147.961	186.237	-149.800	-124.565	66.296	-150.068	-144.747	136.797	24.638	-144.947	-141.019	-141.619	-135.572	-37.213	-137.338	-8191	255	
1941.749	1	1	0	0	0.17023	0.17172	0.14903	0.17174	0.29587	0.21898	0.16661	0.26697	0.2027	0.15691	0.30395	0.23891	0.1911	0.17682	0.22073	0.15228	-1.3833	-1.1313	-1.2792	-1.8396	-0.88958	-1.6917	-1.6542	-1.2104	-2.0083	-1.2417	-1.4771	-1.9625	-1.0104	-1.7354	-1.5229	-1.1958	69.409	177.841	-63.758	49.350	-121.837	46.999	143.685	180.634	151.176	133.201	-5.082	108.427	68.406	33.020	-36.410	146.085	0.0018238	0.0019355	0.00070774	536.66	3.8184e-05	4.0425e-05	919.6	179.48	1.1698e-05	2.9017e-05	392.67	153.05	66.432	26.559	2.5808e-05	70.112	0.079721	0.1495	0.042457	906.85	0.0014557	0.0017388	1156.9	273.6	0.0013931	0.0017479	539.13	207.66	121.76	44.362	0.0015431	92.722	37.570	-124.946	-155.768	-149.641	36.520	48.240	-150.065	-144.466	-48.389	172.651	-145.135	-140.928	-140.211	-134.873	176.769	-136.756	-8191	255	
1941.869	1	1	0	0	0.18672	0.021557	0.20144	0.34834	0.29451	0.13157	0.16056	0.018031	0.13989	0.021041	0.061656	0.25131	0.080196	0.31453	0.027574	0.070616	-1.5792	-1.1667	-1.275	-1.8687	-0.93333	-1.7667	-1.8042	-1.2042	-1.8062	-1.4167	-1.2708	-2.0375	-1.2563	-1.6354	-1.7708	-1.2896	99.467	7.850	-152.614	95.812	-35.994	161.958	-155.840	-111.173	170.929	-135.105	147.472	162.955	137.319	84.460	35.999	65.946	0.0017556	0.0037606	0.00012118	548.42	2.2841e-05	1.8592e-05	925.95	181.34	4.6592e-05	1.7677e-05	400.74	155.59	68.628	26.701	3.6615e-05	70.561	0.081799	0.15399	0.043598	921.23	0.0014809	0.001773	1168.1	276.32	0.0014165	0.0017707	544.85	209.7	122.85	44.539	0.0015438	93.473	34.395	-31.186	-131.600	-150.092	92.621	68.056	-149.709	-144.684	-59.908	27.815	-144.584	-140.852	-140.614	-136.167	-70.905	-137.207	-8191	255	
1941.964	1	1	0	0	0.069998	0.18698	0.22317	0.33807	0.18695	0.25842	0.24367	0.086517	0.22349	0.16556	0.26306	0.19401	0.12263	0.026461	0.21892	0.22151	-1.4438	-1.3854	-1.0375	-1.95	-1.1083	-1.5271	-2.025	-0.98125	-1.7938	-1.5771	-1.0625	-2.1396	-1.1604	-1.4292	-1.9646	-1.1375	-90.149	48.402	36.934	135.383	79.434	-110.801	169.142	176.204	68.693	-18.443	-148.086	-33.389	-131.055	63.573	144.413	179.788	0.0014121	0.00038656	0.00049824	547.67	4.7927e-05	1.7798e-05	928.24	182.38	6.4134e-05	4.0801e-05	398.98	155.49	66.936	26.571	1.2901e-05	70.367	0.081313	0.15337	0.043311	922.04	0.0014821	0.0017675	1172.7	276.24	0.001403	0.0017625	543.34	209.34	122.67	44.392	0.0015499	93.186	30.513	47.496	121.660	-149.378	43.391	13.127	-149.756	-144.817	69.526	38.469	-144.707	-141.143	-140.802	-134.960	-5.182	-137.262	-8191	255	
1942.037	1	1	0	0	0.063755	0.089775	0.12009	0.29518	0.11302	0.098641	0.17951	0.16412	0.20197	0.18157	0.051491	0.47321	0.13666	0.030794	0.19487	0.3986	-1.5792	-1.5396	-0.9625	-2.1229	-1.2104	-1.2708	-2.0042	-1.0542	-1.5479	-1.7229	-1.2146	-1.8896	-1.3625	-1.2792	-1.9458	-1.1521	123.527	-104.174	47.405	-136.075	-108.282	-0.064	146.694	-43.146	-160.628	28.434	134.786	105.039	59.399	-47.493	-25.897	153.137	0.0027702	0.0030574	0.0004585	523.69	1.383e-05	3.5066e-05	924.81	179.94	1.4045e-05	7.1506e-06	398.54	153.67	66.967	26.643	3.2541e-05	69.627	0.081748	0.15362	0.043584	913.72	0.0014799	0.0017663	1163.1	273.15	0.0013967	0.0017499	538.24	207.53	120.95	43.907	0.0015124	92.106	3.213	-76.594	-96.988	-149.636	-162.408	-50.632	-149.773	-144.847	-69.360	-101.007	-144.973	-140.974	-141.095	-135.607	-96.500	-137.020	-8191	255	
1942.156	1	1	0	0	0.20061	0.25401	0.3499	0.25198	0.11645	0.021329	0.023495	0.15905	0.20814	0.036246	0.18822	0.38872	0.17084	0.055664	0.23376	0.17774	-1.1042	-1.725	-0.89583	-1.9688	-1.3625	-1.3	-2	-1.1313	-1.3979	-1.5896	-1.1083	-1.8813	-1.3979	-1.2917	-1.8042	-1.2667	50.777	-34.800	-67.507	-115.183	108.413	33.152	-138.637	109.966	-107.177	135.605	-88.418	184.637	82.783	-129.853	8.606	138.880	0.0029374	0.001137	0.0002746	537.1	3.3644e-05	6.7873e-05	916.82	181.09	3.4949e-05	2.1648e-05	399.84	153.35	67.225	26.473	1.4501e-05	69.948	0.079716	0.14964	0.04247	906	0.0014499	0.0017336	1153	272.41	0.0013794	0.0017453	539.68	207.73	121.38	44.156	0.0015191	92.615	23.946	151.481	-50.682	-149.382	194.346	42.363	-149.499	-144.884	14.412	-81.390	-144.840	-140.879	-140.754	-135.162	79.206	-137.177	-8191	255	
1942.252	1	1	0	0	0.1739	0.11164	0.062366	0.31386	0.28173	0.16622	0.059616	0.08913	0.22116	0.091834	0.1886	0.14777	0.20119	0.21597	0.059576	0.21849	-0.925	-1.8125	-0.95833	-1.7083	-1.3292	-1.0771	-2.0979	-1.3375	-1.3604	-1.8104	-1.0771	-1.7646	-1.625	-1.1396	-1.9271	-1.4229	12.072	64.388	182.525	182.994	9.881	-97.806	-153.602	171.731	-137.640	74.709	65.592	144.576	-129.830	-64.432	22.271	142.460	0.0022746	0.0030068	0.00074424	535.96	2.9259e-05	2.4145e-05	920.96	181.51	3.3868e-05	2.1609e-05	401.23	155.46	66.845	26.835	4.2338e-05	70.465	0.08042	0.15114	0.042627	910.11	0.0014567	0.0017507	1164	274.59	0.0014037	0.0017611	541.73	209.15	122.02	44.279	0.0015366	92.899	-2.971	123.462	31.391	-149.152	-42.327	-73.571	-149.577	-144.194	-122.949	11.160	-144.892	-140.936	-141.584	-135.202	-67.851	-136.919	-8191	255	
1942.348	1	1	0	0	0.169	0.13643	0.10205	0.28033	0.11239	0.10516	0.28016	0.15485	0.1962	0.22373	0.38777	0.11835	0.34234	0.20447	0.091478	0.13628	-0.9	-1.6729	-1.0042	-1.7271	-1.5438	-1.1187	-1.9875	-1.3396	-1.0542	-1.9854	-1.1521	-1.6396	-1.6063	-0.92292	-1.7938	-1.2854	96.876	-162.076	161.115	177.245	115.958	-109.729	78.849	134.789	-73.255	-52.247	172.273	63.687	176.695	26.135	-107.110	23.217	0.0021861	0.00028001	0.00038201	540.8	1.9082e-05	2.747e-05	919.81	179.91	6.465e-05	1.0628e-05	398.06	153.68	66.859	26.345	5.1248e-05	69.924	0.08107	0.15304	0.043189	916.91	0.0014815	0.0017604	1162.4	273.85	0.0014092	0.0017596	540.41	207.72	121.9	44.012	0.0015332	92.24	-15.628	19.038	1.306	-149.898	123.680	35.911	-149.397	-144.391	142.920	-12.435	-144.640	-140.951	-140.273	-135.444	84.016	-136.791	-8191	255	
1942.469	1	1	0	0	0.21754	0.23053	0.47222	0.22131	0.26539	0.35768	0.12848	0.14464	0.17205	0.43637	0.034838	0.29755	0.24477	0.28488	0.19688	0.26445	-0.57708	-1.7333	-1.0604	-1.6458	-1.7833	-0.76042	-1.65	-1.5063	-1.2646	-1.7958	-1.2417	-1.3208	-1.6917	-1.0708	-1.8125	-1.6063	-140.637	-73.318	-67.576	13.648	-77.134	-80.841	160.436	114.658	-16.041	-44.184	151.383	172.682	-91.301	31.926	-135.886	-113.474	0.0019251	0.0021174	0.00056425	536.66	1.6196e-05	5.1709e-05	913.55	178.98	3.3446e-05	2.5819e-05	396.34	152.77	67.39	26.225	3.8605e-05	69.372	0.080415	0.15092	0.042638	909.59	0.0014627	0.0017347	1152.3	271.89	0.001394	0.0017473	536.84	207.1	121.09	43.839	0.001521	92.031	-5.730	114.703	63.205	-148.747	5.553	-109.104	-149.286	-144.224	158.950	-59.210	-144.184	-140.318	-139.859	-135.212	-2.412	-136.504	-8191	255	
1942.565	1	1	0	0	0.14146	0.22256	0.20725	0.14718	0.22353	0.23568	0.14026	0.083043	0.07377	0.092794	0.023114	0.33372	0.036984	0.12025	0.17539	0.27776	-0.60208	-1.7979	-1.2729	-1.3854	-1.7625	-1.0229	-1.8375	-1.6771	-0.88333	-1.9333	-1.3625	-1.4521	-1.9229	-1.2396	-1.6437	-1.825	68.564	-81.455	-71.273	128.199	41.412	-140.967	113.238	6.328	185.271	-59.340	176.513	143.269	-67.953	38.721	-109.778	39.662	0.0029697	0.0014093	0.00021022	529.85	3.1746e-05	1.4618e-06	917.49	180.68	2.791e-05	2.3104e-05	399.09	154.74	67.298	26.498	4.6474e-06	70.273	0.080632	0.15115	0.042702	906.67	0.0014596	0.0017339	1156.4	272.57	0.0013917	0.001747	538.68	208.12	121.96	44.126	0.0015451	92.935	-20.668	-131.334	-133.679	-148.743	-20.662	154.156	-149.212	-143.917	-154.428	170.768	-144.381	-140.041	-140.538	-134.538	79.045	-136.103	-8191	255	
1942.637	1	1	0	0	0.096093	0.22165	0.12673	0.047473	0.38554	0.025583	0.17614	0.29569	0.22076	0.067054	0.036099	0.22227	0.1392	0.31997	0.25087	0.10046	-0.46458	-1.7833	-1.3708	-1.2062	-1.7938	-1.2104	-1.8375	-1.8062	-1.0354	-1.9042	-1.4937	-1.3042	-1.9604	-1.1625	-1.3417	-1.7583	-159.030	102.372	58.989	-129.068	-66.664	-89.228	85.083	95.323	149.960	98.368	56.975	145.835	130.502	50.582	-0.170	124.833	0.001742	0.0011787	0.00044536	537.93	5.8553e-05	3.9405e-06	928.86	179.9	4.5152e-05	1.226e-05	400.36	156.04	67.243	26.605	1.0996e-05	70.252	0.082147	0.15418	0.043772	923.26	0.0014993	0.0017961	1173.5	276.32	0.0014335	0.0017911	545.43	210.71	123.21	44.731	0.0015676	93.622	-14.239	39.453	2.227	-148.782	74.156	-0.486	-148.909	-143.757	13.980	-24.474	-144.770	-140.218	-140.812	-135.558	-76.288	-136.841	-8191	255	
1942.733	1	1	0	0	0.13086	0.24285	0.093329	0.12132	0.15068	0.11908	0.29852	0.3472	0.11453	0.068469	0.324	0.22069	0.23689	0.19577	0.19722	0.037587	-0.3625	-1.75	-1.3458	-1.0854	-1.9229	-1.1083	-1.7687	-1.6771	-1.1354	-1.7083	-1.4646	-1.0938	-1.7771	-1.1958	-1.1938	-1.9979	168.313	-22.636	-17.822	-97.181	36.582	-104.921	162.841	160.715	26.411	-61.006	88.797	-128.037	-58.529	189.970	-139.479	-99.288	0.0019475	0.0030905	0.00081639	535.19	1.5155e-05	1.5473e-05	920.66	179.53	6.0331e-05	4.3834e-05	397.22	154.14	67.424	26.417	3.0021e-05	69.818	0.082188	0.15428	0.043955	922.77	0.001495	0.0017889	1171.2	276.43	0.0014335	0.0018054	545.21	210.25	123.84	44.65	0.0015834	93.408	19.674	-31.427	-95.633	-149.315	-28.274	-147.992	-149.409	-144.120	94.547	-117.656	-144.938	-140.376	-140.721	-135.339	13.677	-136.876	-8191	255	
1942.854	1	1	0	0	0.07517	0.13456	0.11893	0.16858	0.14966	0.26686	0.20821	0.11329	0.19208	0.16499	0.23511	0.12612	0.22349	0.13113	0.15564	0.095595	-0.57292	-1.6417	-1.4917	-1.0375	-1.7854	-1.1042	-1.2083	-1.7354	-1.0833	-1.75	-1.65	-1.1562	-1.8833	-1.3042	-1.2375	-1.9729	127.504	41.176	49.757	106.525	59.379	52.510	79.702	-76.621	-145.532	84.083	165.862	164.706	-145.110	-149.393	-97.511	174.288	0.0026073	0.00223	0.00062743	535.8	1.803e-05	1.9911e-05	920.91	179.41	4.3357e-05	2.8939e-05	396.57	153.98	66.452	26.22	1.7195e-05	70.157	0.084406	0.15852	0.04478	927.04	0.0015213	0.0018259	1174.7	278.3	0.0014668	0.0018368	545.55	210.96	124.48	44.688	0.0015986	93.855	27.263	-154.160	65.415	-149.787	122.587	-86.045	-149.850	-144.456	114.552	4.697	-144.982	-140.860	-140.884	-136.276	-119.453	-137.182	-8191	255	
1942.948	1	1	0	0	0.070893	0.34123	0.11123	0.21721	0.021172	0.36848	0.14902	0.063336	0.13488	0.10048	0.20696	0.12527	0.16042	0.21255	0.23587	0.16461	-0.62917	-1.4375	-1.6958	-1.1458	-1.775	-1.4188	-1.5083	-2.0208	-0.9875	-1.5458	-1.7062	-0.98958	-1.7917	-1.3729	-0.96667	-2.1167	134.604	148.531	-68.036	49.932	68.527	-111.832	42.548	67.159	4.331	116.488	93.418	169.809	73.324	160.672	-3.454	-132.240	0.0013211	0.00094586	0.00074423	538.26	3.1359e-05	9.7449e-06	919.67	178.79	5.8752e-05	2.7349e-05	395.97	153.33	66.444	26.529	2.4922e-05	70.752	0.084623	0.15854	0.045027	930.16	0.0015385	0.0018256	1175.4	278.08	0.0014633	0.0018439	547.75	211.9	124.9	45.045	0.0015885	94.341	-35.776	-83.689	-47.939	-150.092	-48.207	-100.596	-149.558	-145.348	-108.707	-84.055	-145.232	-140.943	-140.630	-135.732	48.647	-137.231	-8191	255	
1943.044	1	1	0	0	0.071106	0.091273	0.34758	0.12747	0.19054	0.10158	0.093198	0.22267	0.3394	0.056366	0.15878	0.15198	0.088278	0.35922	0.1045	0.24775	-0.45208	-1.4312	-1.6167	-0.74583	-1.5875	-1.5542	-1.0792	-2.0042	-1.1354	-1.4292	-2.1729	-1.0438	-1.6313	-1.625	-1.1187	-1.9021	-11.596	47.305	-114.022	121.768	157.277	0.314	123.607	185.825	164.142	71.271	-144.507	107.112	-6.926	184.202	130.115	70.154	0.002235	0.0030353	0.00079667	535.16	1.158e-05	2.3108e-05	933.54	181.9	2.0694e-05	2.729e-05	400.02	154.85	68.23	26.794	5.8006e-05	71.09	0.084081	0.15772	0.044431	927.8	0.001507	0.0017853	1176.3	278.05	0.001433	0.0018004	545.84	210.74	123.9	44.792	0.0015575	93.912	7.617	161.925	-5.286	-149.191	59.368	-24.934	-149.733	-144.884	-19.070	-66.660	-145.074	-141.133	-141.134	-136.250	-1.066	-137.517	-8191	255	
1943.140	1	1	0	0	0.10185	0.038053	0.11357	0.076458	0.13056	0.2548	0.17435	0.12193	0.23278	0.32944	0.12205	0.28587	0.24282	0.15313	0.004924	0.41172	-0.94792	-1.2896	-1.7062	-0.90208	-1.4771	-1.4292	-1.1812	-1.9125	-1.2146	-1.2563	-1.9625	-1.2958	-1.7167	-1.5833	-1.175	-1.7875	-69.316	-120.792	-14.761	114.589	155.069	-35.730	69.825	-145.246	-22.566	180.671	119.933	126.172	50.255	101.922	19.019	145.808	0.0022481	0.0011295	0.00082011	535.22	3.6907e-05	2.1893e-05	919.6	178.69	3.9285e-05	2.9387e-05	393.18	154.4	66.996	26.48	5.4664e-06	69.669	0.081816	0.15372	0.043723	916.5	0.0014937	0.0017742	1164.2	274.37	0.0014166	0.001776	539.56	208.55	122.15	44.263	0.001546	92.695	18.979	40.305	127.714	-149.637	-31.933	-158.397	-149.811	-144.830	-136.756	-85.668	-145.014	-140.659	-140.506	-135.471	139.451	-137.167	-8191	255	
1943.236	1	1	0	0	0.20786	0.36289	0.22279	0.069585	0.15172	0.13667	0.30198	0.17198	0.14132	0.097804	0.13529	0.23776	0.017903	0.26716	0.044519	0.35347	-1.1208	-1.4062	-1.9312	-1.1021	-1.525	-1.8729	-1.0375	-1.9646	-1.3542	-1.075	-1.9604	-1.1292	-1.4979	-1.9062	-0.93125	-1.9708	-133.664	22.422	61.415	37.298	21.758	-72.668	134.243	78.327	27.870	7.261	74.357	154.328	188.026	104.797	-5.984	142.836	0.0024153	0.0020291	0.0010378	531.34	4.2499e-05	2.9008e-05	916.85	180.08	5.9784e-05	2.0163e-05	396.67	153.74	66.029	26.393	1.4827e-05	70.233	0.081582	0.15293	0.043399	909.79	0.0014814	0.0017609	1158.2	273.42	0.0014031	0.001762	539.82	207.73	121.41	44.137	0.0015367	92.682	12.645	101.119	-97.601	-149.693	-148.431	26.989	-149.587	-145.273	-35.182	-49.604	-145.053	-141.293	-140.501	-135.874	-105.843	-137.099	-8191	255	
1943.333	1	1	0	0	0.17774	0.094361	0.067148	0.11193	0.070564	0.19986	0.094715	0.11133	0.18221	0.22383	0.024483	0.12493	0.1096	0.17382	0.088467	0.10465	-1.2292	-0.96667	-1.7917	-1.2563	-1.225	-1.7313	-1.1417	-1.6208	-1.5792	-1.0146	-2.1729	-1.3917	-1.3062	-1.7625	-0.9	-1.8458	74.174	-26.630	-8.915	183.545	-97.074	142.112	-86.359	-112.514	135.933	16.031	165.917	170.582	-83.910	-152.487	121.557	90.064	0.0026611	0.00056167	0.00031794	525.41	1.8188e-05	2.5186e-05	916.76	178.92	3.9143e-05	3.1701e-05	397.51	154.07	67.386	26.539	3.4723e-05	70.827	0.081063	0.15212	0.043156	904.67	0.0014673	0.0017453	1157.4	272.77	0.0013903	0.0017476	539.3	207.84	121.46	44.08	0.0015259	92.997	-11.899	46.910	-87.522	-149.848	88.958	-125.972	-149.418	-144.799	-65.507	-35.682	-145.021	-140.814	-140.597	-135.800	20.746	-136.925	-8191	255	
1943.429	1	1	0	0	0.21981	0.095375	0.15643	0.069496	0.027009	0.28526	0.25993	0.24462	0.1068	0.17524	0.40721	0.1429	0.24305	0.15055	0.37252	0.12476	-1.2271	-0.92292	-2.0354	-1.2125	-1.5125	-1.925	-1.1792	-1.8	-1.8979	-1.0458	-2.1396	-1.4375	-1.2583	-1.9562	-1.1938	-1.8354	-155.030	-131.703	57.815	122.543	-41.769	-156.709	146.569	142.386	-116.496	-136.033	159.235	5.392	-65.567	-66.817	-138.819	-156.896	0.0020345	0.0013426	0.00082198	536.18	1.9052e-05	2.5466e-05	923.65	182.03	7.5906e-06	4.114e-05	399.8	154.22	67.233	26.668	3.4418e-05	70.91	0.080544	0.15107	0.042752	906.56	0.0014599	0.0017419	1161.9	274.32	0.0013956	0.0017515	541	208.07	121.59	44.045	0.0015172	92.891	24.061	-80.830	-105.520	-149.324	-67.850	-1.117	-149.785	-144.151	8.196	38.576	-145.039	-140.832	-140.243	-135.332	82.727	-136.763	-8191	255	
1943.549	1	1	0	0	0.2702	0.1684	0.11964	0.35339	0.11712	0.29121	0.25514	0.084826	0.13659	0.20005	0.39433	0.10112	0.09794	0.10132	0.15381	0.18319	-1.3896	-0.87083	-1.6979	-1.5125	-1.25	-2.05	-1.3	-1.5021	-2.0104	-1.0438	-1.7938	-1.4875	-1.3479	-2.0896	-1.0938	-1.7167	144.677	-87.191	135.711	190.284	-158.958	-3.555	-113.084	-14.526	-92.419	40.586	161.912	132.860	-143.175	-92.181	-112.009	82.612	0.0016809	0.00044492	0.00050512	541.27	6.6191e-05	1.3074e-05	917.13	180.12	1.6469e-05	2.2113e-05	396.97	154.33	67.409	26.575	6.015e-05	70.245	0.080254	0.14987	0.042722	904.47	0.0014503	0.0017319	1155.7	272.33	0.0013823	0.0017459	538.81	207.25	121.18	43.909	0.0015209	92.512	30.914	-148.601	-36.252	-149.819	-34.178	113.517	-149.763	-144.944	-136.423	39.329	-145.125	-141.255	-141.111	-134.793	-123.488	-137.213	-8191	255	
1943.646	1	1	0	0	0.20256	0.085663	0.13069	0.18441	0.070458	0.31563	0.29412	0.05643	0.28122	0.20144	0.27646	0.063305	0.18822	0.19468	0.078461	0.43303	-1.2687	-1.2854	-1.6604	-1.6396	-1.2042	-1.7479	-1.3229	-1.3417	-1.8229	-1.1562	-1.7042	-1.7313	-1.0146	-1.7875	-1.175	-1.3354	-102.764	16.178	177.672	176.706	-131.589	118.867	169.364	-91.145	184.829	170.925	117.223	-123.670	-74.356	185.667	143.807	161.397	0.0026592	0.00060432	0.00067616	537.3	1.1927e-05	2.1398e-05	924.57	180.47	3.2273e-05	1.259e-05	400.46	155.23	67.066	26.864	1.8673e-05	70.766	0.080091	0.15116	0.042934	905.84	0.00146	0.0017328	1155.9	272.44	0.0013791	0.0017355	539.83	207.92	121.28	44.203	0.0015263	93.231	10.328	-9.456	-157.261	-149.876	156.597	66.589	-149.911	-144.119	-152.462	-29.575	-144.918	-140.957	-140.929	-135.252	33.179	-136.913	-8191	255	
1943.742	1	1	0	0	0.29756	0.49182	0.1901	0.071936	0.11907	0.18967	0.077752	0.1702	0.051874	0.49479	0.16434	0.12857	0.037015	0.10104	0.3091	0.38343	-1.5	-0.96458	-1.55	-1.8042	-0.86875	-1.8896	-1.4521	-1.2875	-1.8271	-1.1625	-1.6313	-1.6979	-1.1187	-1.7854	-1.2437	-1.2333	75.784	-113.367	23.032	166.538	61.396	9.938	169.650	187.360	-31.528	-68.556	96.289	97.250	-15.947	-154.529	27.255	143.820	0.0014951	0.0036791	0.00071598	536.21	2.4826e-05	8.4602e-06	929.93	181.06	3.3125e-05	3.5647e-05	401.03	156.78	67.45	26.875	2.0855e-05	71.77	0.080883	0.15168	0.043243	912.48	0.0014739	0.0017629	1169.2	276.21	0.0014132	0.0017657	546.21	210.58	123.52	44.598	0.0015432	94.423	-13.009	62.823	-27.648	-150.517	-26.894	-110.702	-150.050	-144.637	-4.994	-59.175	-145.434	-141.145	-141.328	-135.277	-111.225	-137.296	-8191	255	
1943.838	1	1	0	0	0.17029	0.077186	0.081474	0.08169	0.26953	0.12121	0.08045	0.20882	0.15766	0.14661	0.07253	0.11598	0.10499	0.37693	0.13656	0.18902	-1.6292	-1.0938	-1.4292	-1.7708	-0.91042	-1.8083	-1.6667	-1.1708	-1.9021	-1.0396	-1.5479	-1.7729	-1.0187	-1.7896	-1.6417	-1.2771	-27.992	6.616	69.055	-92.375	-17.232	-146.739	-41.461	183.324	-146.434	7.295	142.448	129.320	-84.162	-119.644	148.332	122.489	0.00099078	0.0012764	7.1116e-05	535.86	4.5714e-05	3.1045e-05	932.03	181.83	7.3983e-06	1.9156e-05	405.15	156.52	68.302	27.038	2.6346e-05	71.748	0.08115	0.15212	0.043144	915.56	0.0014695	0.0017555	1173.3	276.24	0.0014054	0.0017711	547.35	210.86	123.19	44.775	0.0015575	94.265	40.955	-8.616	-113.396	-149.512	121.669	48.408	-149.947	-145.105	-145.830	119.493	-144.766	-140.775	-140.465	-135.642	48.460	-137.009	-8191	255	
1943.934	1	1	0	0	0.11298	0.14702	0.27603	0.10562	0.1858	0.18433	0.24244	0.11763	0.27164	0.067412	0.38528	0.22301	0.14311	0.31855	0.23122	0.26745	-1.4979	-1.1521	-1.2812	-2.0208	-0.98958	-1.7083	-1.8375	-1.0979	-1.825	-1.4188	-1.2188	-1.9167	-1.2604	-1.5396	-1.7313	-1.0021	188.237	15.563	-103.582	142.700	51.370	161.613	127.183	144.485	-44.262	117.584	166.993	-80.856	-124.361	145.735	-60.867	137.836	0.0018546	0.00092358	0.00091385	537.99	4.2083e-05	4.2925e-05	923	180.77	2.1969e-05	1.4278e-05	400.68	156.04	67.381	26.697	2.1916e-05	70.439	0.082905	0.15611	0.04427	923.75	0.00151	0.0017991	1172.3	277.55	0.0014426	0.0018058	545.35	211.33	123.52	44.762	0.0015673	93.921	30.329	-159.747	65.095	-149.424	-38.133	143.526	-150.057	-144.628	-35.557	168.221	-145.083	-141.162	-140.274	-135.724	-82.737	-136.665	-8191	255	
1944.028	1	1	0	0	0.099233	0.079818	0.22726	0.14201	0.14771	0.17606	0.22665	0.2367	0.090548	0.23503	0.14342	0.077479	0.09026	0.17062	0.23534	0.2218	-1.5187	-1.5229	-1.0333	-1.8896	-1.0167	-1.6083	-2.0375	-1.1167	-1.6667	-1.3458	-1.0792	-1.8458	-1.2208	-1.4042	-1.5708	-1.1229	100.240	194.560	180.961	176.842	9.635	82.323	137.443	123.155	-29.043	64.072	190.790	187.133	-58.145	81.839	35.554	-70.888	0.0010865	0.0016247	0.00050058	533.74	6.3701e-05	3.6614e-05	915.53	180.86	1.6126e-05	2.431e-05	398.92	156.61	66.809	27.031	1.7783e-05	70.983	0.082612	0.15589	0.043932	915.24	0.0014981	0.0017881	1164.4	275.43	0.0014197	0.0017737	543.84	209.62	122.27	44.589	0.0015344	93.71	7.910	131.403	-55.976	-149.596	-58.351	59.951	-149.669	-144.211	101.378	34.173	-144.718	-140.514	-140.513	-135.863	-136.690	-136.792	-8191	255	
1944.149	1	1	0	0	0.035221	0.2133	0.18372	0.2041	0.086897	0.077497	0.030262	0.078245	0.19765	0.12171	0.29686	0.009825	0.084444	0.13717	0.076665	0.29726	-1.3833	-1.4	-1.1729	-1.9792	-1.1375	-1.3292	-1.9333	-1.3104	-1.6542	-1.7042	-1.2812	-2.1	-1.3917	-1.1833	-1.8104	-1.1167	80.579	193.807	102.610	27.271	173.222	-54.338	21.325	113.239	5.417	-43.425	-96.604	190.840	183.753	108.664	70.216	191.358	0.002463	0.00043407	0.00028057	536.75	1.5877e-05	7.0427e-06	926.7	182.13	7.9149e-05	2.6326e-05	402.76	158.13	68.834	27.134	3.0244e-05	72.188	0.080847	0.15212	0.04269	908.05	0.0014606	0.0017373	1166.6	274.63	0.0013833	0.0017422	543.56	210.43	121.8	44.51	0.0015051	93.978	12.135	-78.021	-141.835	-148.965	-98.764	99.988	-149.311	-144.698	46.747	197.119	-144.743	-140.618	-140.633	-134.651	-135.797	-136.805	-8191	255	
1944.245	1	1	0	0	0.25772	0.11242	0.15019	0.18163	0.20011	0.066728	0.40855	0.25304	0.12759	0.35696	0.18716	0.012845	0.35122	0.35306	0.024002	0.12109	-1.2188	-1.6083	-0.89792	-1.8125	-1.1375	-1.3	-2.0604	-1.0479	-1.5646	-1.6146	-1.0667	-1.7354	-1.2958	-1.1729	-1.9188	-1.2708	144.978	68.551	-98.380	-5.746	32.426	-83.062	152.043	177.329	-146.884	82.783	-120.454	97.973	140.310	134.743	159.255	-139.970	0.0027623	0.0048311	0.00098373	534.2	6.2694e-06	1.5517e-05	929.4	182.4	9.2908e-05	1.2059e-05	401.26	156.44	67.577	27.263	3.9791e-05	71.762	0.079312	0.14912	0.042336	902.13	0.0014379	0.0017129	1161.5	272.24	0.0013533	0.001704	539.51	207.54	120.08	43.645	0.0014569	92.411	5.258	24.044	-14.876	-149.037	-7.591	-147.389	-149.132	-144.537	46.009	-35.544	-144.563	-140.504	-140.717	-135.482	-91.425	-136.725	-8191	255	
1944.341	1	1	0	0	0.10431	0.18884	0.12084	0.061807	0.098272	0.089114	0.34084	0.16729	0.33515	0.2544	0.26251	0.20125	0.056505	0.067751	0.13224	0.12748	-1.0438	-1.5375	-0.96875	-1.825	-1.5146	-0.925	-2.0271	-1.0708	-1.275	-1.9312	-1.1271	-2.0083	-1.6208	-1.1562	-1.8083	-1.1833	-20.014	123.019	-104.102	-42.437	-125.480	-84.828	131.115	-4.512	-86.746	-83.472	-137.605	106.386	-129.893	-9.988	195.314	181.269	0.0019069	0.0023489	0.00076188	534.25	9.074e-06	3.0885e-06	926.48	180.4	3.1655e-05	3.4225e-05	400.92	156.86	67.246	26.952	3.016e-05	71.337	0.0771	0.14319	0.040405	880.59	0.0013707	0.0016331	1138.7	266.49	0.001292	0.0016234	530.67	204.86	117.37	43.118	0.0014105	91.869	27.614	53.509	-1.027	-149.765	-22.881	188.116	-149.381	-144.731	-160.178	42.614	-144.484	-140.122	-140.412	-135.106	7.804	-137.012	-8191	255	
1944.437	1	1	0	0	0.11305	0.098786	0.28389	0.15296	0.19173	0.36888	0.10539	0.18909	0.16311	0.18625	0.14512	0.27668	0.30845	0.21748	0.026061	0.3271	-0.73958	-1.725	-0.89792	-1.6562	-1.4021	-1.0854	-2.0833	-1.2917	-1.1792	-1.8667	-1.1229	-1.7333	-1.6771	-1.1021	-1.8875	-1.4646	-68.124	-76.620	73.787	111.837	-116.245	-83.568	-121.704	-78.013	-115.096	158.421	154.756	149.670	-36.560	28.000	-137.014	130.051	0.0025667	0.0013639	0.00044396	523.97	3.4699e-05	1.8825e-05	926.87	183.43	4.3215e-05	2.6997e-05	404.8	158.09	68.545	27.348	1.0619e-05	73.214	0.07473	0.14041	0.039666	871.05	0.0013542	0.0016126	1140.1	266.49	0.0012798	0.0016114	531.2	205.89	117.46	43.29	0.0014	92.724	-4.812	138.402	100.281	-149.944	38.248	-143.724	-149.388	-144.090	41.377	-46.560	-144.429	-139.918	-140.197	-135.610	-37.062	-136.379	-8191	255	
1944.509	1	1	0	0	0.25123	0.33004	0.095466	0.025755	0.2082	0.043532	0.28278	0.17988	0.15959	0.23119	0.19248	0.14668	0.19684	0.24884	0.1016	0.11348	-0.7375	-1.8542	-1.0729	-1.5375	-1.6792	-1.0521	-1.9604	-1.5271	-1.2	-1.8583	-1.1562	-1.625	-1.65	-1.0812	-1.9458	-1.6938	-124.034	63.927	-28.499	22.523	-156.745	-24.198	168.125	-144.718	22.631	41.710	-97.180	158.033	60.674	-3.163	96.659	117.306	0.0012541	0.0014048	0.001026	535.95	3.5829e-06	2.1431e-05	934.92	183.06	3.8865e-05	3.7998e-05	405.85	159.89	69.313	27.264	3.0064e-05	72.415	0.074354	0.13928	0.039777	880.62	0.0013597	0.0016293	1152.1	269.57	0.0013215	0.0016543	539.77	209.43	120.68	44.112	0.0014765	94.117	-6.349	-2.190	-100.517	-149.247	-86.602	88.844	-148.769	-144.117	150.954	108.267	-143.727	-139.774	-139.222	-134.887	8.199	-136.665	-8191	255	
1944.630	1	1	0	0	0.14797	0.24671	0.27332	0.1744	0.22018	0.20183	0.074528	0.25282	0.057671	0.10495	0.26143	0.44859	0.059179	0.049617	0.13902	0.19338	-0.7	-1.65	-1.2292	-1.3896	-1.8333	-1.0396	-1.8333	-1.8375	-0.94583	-1.7188	-1.3625	-1.3062	-1.8312	-0.99375	-1.6	-1.6792	-138.760	-52.436	-111.456	177.949	111.312	-141.711	-65.324	-150.913	-29.127	191.034	-152.842	-160.242	3.712	18.849	87.938	97.427	0.0034364	0.0039294	0.00082422	539	3.6398e-05	5.3897e-05	924.7	182.01	1.9314e-05	2.1945e-06	401.7	156.35	67.649	26.905	3.4861e-05	72.434	0.078312	0.14678	0.041494	895.23	0.0014116	0.0016823	1153.5	270.57	0.0013241	0.0016581	534.51	206.64	118.37	43.453	0.001434	92.708	-5.973	-126.131	-141.914	-148.931	58.536	-132.928	-149.136	-144.187	-65.844	-62.285	-144.542	-140.030	-139.686	-135.349	-4.065	-136.543	-8191	255	
1944.726	1	1	0	0	0.069043	0.16207	0.23577	0.05661	0.22408	0.18308	0.26395	0.12856	0.21751	0.16155	0.30316	0.189	0.33514	0.074354	0.24184	0.123	-0.65625	-1.7521	-1.2583	-1.1521	-1.8167	-1.0125	-1.8	-1.6562	-0.96875	-1.8229	-1.6583	-1.3583	-1.975	-1.0479	-1.5208	-1.85	37.236	-88.700	184.452	177.215	112.733	151.339	120.171	-39.279	-54.867	163.343	-145.025	154.040	173.280	187.761	116.980	166.303	0.0023877	0.0010844	0.00017198	536.26	1.0732e-05	3.5506e-06	925.12	182.77	2.3798e-05	2.1844e-05	403.76	157.63	68.366	27.193	4.9415e-05	72.737	0.075232	0.14155	0.039866	877.59	0.0013576	0.0016147	1141.6	266.71	0.0012851	0.0016199	532.56	205.92	117.84	43.213	0.0014139	93.038	15.915	-140.790	176.832	-149.390	172.207	108.343	-149.146	-143.852	11.812	84.036	-144.713	-140.473	-140.299	-135.346	-22.424	-136.561	-8191	255	
1944.822	1	1	0	0	0.13331	0.076833	0.3547	0.10201	0.02371	0.24569	0.28662	0.080938	0.31873	0.18969	0.19361	0.081348	0.0937	0.25339	0.23845	0.26326	-0.60417	-1.7229	-1.2208	-1.1646	-1.7271	-1.1208	-1.6625	-1.6854	-0.95208	-1.7437	-1.4208	-1.2875	-1.9375	-1.1396	-1.5312	-2.0646	-30.633	-21.898	127.508	-119.376	96.727	165.760	176.063	160.192	-34.543	-84.586	104.973	153.164	35.718	-105.899	143.270	141.371	0.0012798	0.0028207	0.00051547	533.24	1.3493e-05	2.078e-05	931.96	183.1	3.596e-05	1.4076e-05	408.23	159.4	68.746	27.402	1.972e-05	73.072	0.074839	0.14148	0.040171	879.96	0.0013701	0.0016451	1152.5	270.75	0.0013256	0.0016635	540.47	209.41	120.75	44.213	0.0014719	94.621	-16.317	-119.413	178.282	-148.797	-120.141	26.496	-149.574	-144.710	49.060	-35.843	-144.691	-140.993	-141.004	-136.134	-60.473	-137.244	-8191	255	
1944.943	1	1	0	0	0.13109	0.13813	0.11931	0.17886	0.11738	0.20953	0.18137	0.076835	0.17417	0.16517	0.19727	0.062775	0.10976	0.10317	0.27063	0.11526	-0.64792	-1.7563	-1.5667	-1.0104	-1.9604	-1.025	-1.325	-2.0979	-0.92292	-1.6583	-1.6375	-1.1417	-1.8979	-1.325	-1.3333	-2.2875	-139.329	149.482	4.792	184.908	-29.684	-122.868	119.226	-38.453	168.285	154.092	176.140	119.380	193.716	101.277	175.012	130.740	0.0022116	0.0018226	0.00024961	534	6.7737e-05	1.4001e-05	938.6	184.69	1.7559e-05	3.1083e-05	408.34	160.74	69.071	27.458	1.1163e-05	73.49	0.078286	0.14735	0.04183	902.56	0.0014374	0.001693	1169.7	275.87	0.0013637	0.0017271	546.43	212.73	122.84	44.802	0.0015063	95.326	31.839	177.996	-56.983	-148.969	-90.625	-70.166	-149.898	-144.616	195.115	-46.629	-144.580	-140.404	-140.525	-135.838	-6.080	-136.738	-8191	255	
1945.037	1	1	0	0	0.25596	0.054121	0.25894	0.043607	0.15514	0.22209	0.17689	0.022879	0.075041	0.14895	0.32386	0.19603	0.03153	0.35354	0.092158	0.0482	-0.4375	-1.5792	-1.6667	-0.95208	-1.8875	-1.375	-1.4229	-1.775	-0.97917	-1.5271	-1.9375	-1.1646	-1.8292	-1.4604	-1.1333	-2.0479	138.049	-38.002	82.608	167.815	135.443	159.418	100.646	157.777	-161.821	145.662	163.037	92.723	-160.100	183.135	-139.153	-117.859	0.0018107	0.0023233	0.0001542	537.82	1.2609e-05	3.1771e-05	936.27	182.35	2.7854e-05	2.529e-05	406.22	157.96	68.222	26.906	3.6324e-05	72.693	0.079799	0.15019	0.042256	907.16	0.0014464	0.0017244	1170	275.38	0.0013863	0.0017405	546.79	211.95	122.69	44.451	0.0015131	94.752	71.013	116.887	-93.138	-148.949	-130.180	-102.221	-149.147	-144.139	122.441	-98.677	-144.640	-140.442	-140.607	-135.716	-0.667	-136.640	-8191	255	
1945.133	1	1	0	0	0.044757	0.098107	0.097657	0.18751	0.094019	0.35288	0.14685	0.15282	0.33863	0.25942	0.20832	0.29619	0.20889	0.13447	0.16403	0.15871	-0.62917	-1.4188	-1.8563	-1.1542	-1.6667	-1.5375	-1.3167	-1.8542	-1.2042	-1.4583	-2.0146	-1.1167	-1.775	-1.7396	-0.90417	-1.9646	-120.060	88.998	115.489	131.367	-26.641	156.428	81.772	145.585	-156.174	-73.816	-155.216	113.835	-101.021	158.346	-159.546	95.989	0.0023338	0.0044399	0.00027388	537.71	2.3581e-05	4.7229e-06	930.1	182	2.1054e-05	4.7269e-05	405.77	158.91	67.527	27.539	2.4309e-05	73.051	0.07975	0.14961	0.042208	896.96	0.0014392	0.0017091	1161.4	273.47	0.0013636	0.0017106	543.82	210	120.89	44.292	0.0014807	94.463	11.498	185.545	-16.504	-148.799	-21.145	72.025	-148.972	-144.133	97.011	49.711	-144.471	-140.965	-140.335	-135.732	84.620	-136.687	-8191	255	
1945.229	1	1	0	0	0.19806	0.046355	0.092127	0.18712	0.11122	0.1769	0.14874	0.31716	0.04691	0.15783	0.10847	0.11497	0.066767	0.083173	0.37762	0.14563	-0.84375	-1.1833	-1.85	-1.1521	-1.5125	-1.8583	-1.2771	-1.9521	-1.3062	-1.1979	-1.8125	-1.1187	-1.6958	-1.75	-0.87708	-2.0167	25.361	55.574	110.567	-79.249	36.676	106.987	-156.868	71.653	-127.360	-95.364	191.563	-133.674	-73.276	-100.451	147.038	176.360	0.0025297	0.001057	0.00054301	535.39	2.6327e-05	4.4658e-05	934.9	184.55	4.2653e-05	2.2122e-05	408.63	159.26	68.361	27.659	3.789e-05	73.968	0.077872	0.14637	0.041282	891.25	0.0014031	0.0016636	1158.4	271.13	0.0013208	0.0016598	540.75	209.3	119.98	44.052	0.0014452	94.607	-26.991	183.113	-37.609	-149.522	-102.990	-55.348	-149.378	-144.122	-81.950	37.094	-145.112	-140.631	-140.197	-135.417	193.738	-136.610	-8191	255	
1945.326	1	1	0	0	0.19364	0.14716	0.089605	0.078178	0.23998	0.11972	0.041935	0.11494	0.31437	0.33725	0.35639	0.09037	0.34674	0.17965	0.12496	0.076095	-0.86667	-1.2313	-2	-1.1875	-1.4312	-1.6958	-1.2271	-1.9417	-1.4083	-1.0875	-2.1167	-1.3458	-1.3917	-1.9813	-1.1167	-1.9604	106.690	66.907	-42.918	-69.834	37.227	97.845	144.598	-131.789	70.023	-86.001	145.185	102.656	165.419	147.527	-124.096	-21.549	0.0028831	0.0024347	0.00083274	538.88	2.0818e-05	3.6293e-05	941.69	184.94	5.3825e-05	2.9673e-05	409.5	158.39	69.016	27.45	2.0786e-05	73.122	0.076119	0.14376	0.040408	885.9	0.0013781	0.0016471	1160.3	271.36	0.0013137	0.0016506	541.62	209.09	120.1	43.881	0.0014416	94.121	12.455	152.159	165.631	-148.298	-120.853	-17.644	-149.090	-144.217	-93.046	17.607	-144.962	-140.761	-140.449	-135.705	-26.880	-136.672	-8191	255	
1945.422	1	1	0	0	0.14736	0.13461	0.20649	0.26257	0.12239	0.24828	0.14214	0.076899	0.10284	0.15193	0.20421	0.20365	0.10576	0.21021	0.20008	0.17762	-1.0729	-1.1688	-1.7729	-1.2521	-1.475	-1.8333	-1.1187	-1.7354	-1.475	-0.83333	-1.9979	-1.2292	-1.2437	-1.8479	-0.96667	-1.8979	-64.008	13.441	-17.307	170.403	5.491	12.768	-138.252	124.576	-123.959	-132.998	-145.574	111.354	165.213	55.705	-2.523	190.454	0.0021179	0.0014876	0.00084619	531.3	7.4966e-06	2.956e-05	929.19	183.04	6.8357e-05	2.9057e-05	405.89	158.56	68.231	27.514	3.5549e-05	72.49	0.075836	0.14252	0.040166	881.64	0.001368	0.0016283	1145.7	268.54	0.0012982	0.0016281	536.27	207.41	118.63	43.436	0.0014088	93.279	32.569	-41.027	-119.990	-149.482	-5.490	156.605	-149.832	-144.646	-43.329	-103.030	-144.937	-140.655	-140.436	-135.864	-136.992	-137.082	-8191	255	
1945.518	1	1	0	0	0.12384	0.17452	0.24904	0.080272	0.097221	0.35462	0.2818	0.26098	0.090062	0.22264	0.16112	0.021254	0.16067	0.095289	0.1314	0.30305	-1.1229	-0.77708	-2.0396	-1.2771	-1.325	-1.7854	-1.2521	-1.6562	-1.6229	-0.90417	-1.8979	-1.5021	-1.175	-1.9	-0.99167	-1.575	67.167	20.378	183.554	128.024	-155.185	-46.269	100.620	103.667	-111.229	2.877	5.452	-52.206	40.876	-153.829	2.909	126.644	0.0028583	0.0007486	0.00072012	529.01	1.6176e-05	3.9067e-05	927.06	183.96	2.4945e-05	1.6456e-05	407.44	157.47	67.618	27.382	3.2818e-05	72.964	0.074764	0.14122	0.040053	876.71	0.0013686	0.0016282	1145.7	267.42	0.0012932	0.001629	535.71	207.16	118.45	43.444	0.0014131	93.519	6.331	67.448	134.570	-150.246	-33.230	-0.202	-149.997	-144.824	-38.818	-93.862	-145.179	-141.335	-140.888	-136.404	-30.296	-137.088	-8191	255	
1945.638	1	1	0	0	0.19842	0.25128	0.20747	0.19194	0.25094	0.23689	0.10591	0.19075	0.14019	0.15263	0.16801	0.19297	0.10481	0.29481	0.090547	0.22252	-1.2375	-1.0187	-1.9521	-1.4688	-1.2	-1.975	-1.2458	-1.4146	-1.7	-1.1104	-1.8438	-1.6146	-1.2188	-2.0375	-1.1479	-1.5021	92.274	-132.459	88.217	185.306	152.400	132.710	63.091	-95.684	56.530	-34.244	158.885	-34.504	-40.154	192.358	-49.092	157.976	0.0021109	0.0010449	0.00020482	534.35	3.742e-05	2.5945e-05	938.18	183.81	5.8613e-05	3.6167e-05	408.53	159.77	69.318	27.788	4.936e-05	74.033	0.074425	0.14006	0.039614	872.78	0.0013567	0.0016049	1147.7	268.96	0.0012922	0.0016156	538.79	208.15	118.88	43.768	0.0014259	94.609	-22.234	-97.250	169.985	-150.260	165.338	-85.406	-150.118	-144.401	-2.690	16.505	-144.907	-141.034	-140.925	-135.537	-136.578	-136.778	-8191	255	
1945.735	1	1	0	0	0.17609	0.1132	0.098446	0.14066	0.17585	0.11947	0.26808	0.23206	0.064774	0.13965	0.19804	0.33229	0.074361	0.15788	0.27371	0.012373	-1.4083	-1.0583	-1.5479	-1.7146	-0.99792	-2.0375	-1.2667	-1.2229	-1.7979	-1.0146	-1.6562	-1.8167	-0.98542	-1.7479	-1.3937	-1.2396	-146.441	128.420	171.780	89.674	49.803	-37.046	103.755	194.453	142.342	-69.643	-6.487	127.192	-65.896	190.217	-115.071	116.191	0.0016531	0.0026745	0.00087803	531.33	3.9691e-05	4.7187e-06	933.81	185.52	5.13e-05	3.3061e-05	408.45	160.06	69.2	27.563	3.6624e-05	73.357	0.075088	0.14169	0.040254	882.03	0.0013715	0.0016274	1155.2	270.95	0.0012925	0.0016282	539.12	209.2	118.94	43.675	0.0014224	93.995	10.492	-127.636	108.180	-149.520	141.816	-26.443	-149.993	-144.598	164.080	-94.828	-144.925	-140.910	-140.578	-136.183	-28.622	-136.910	-8191	255	
#DATA ENDS
