BOXY.EXE: ISS Imagent and Oximeter Data Acquisition Program Version 0.80
Ascii Record File

#ACQ INFORMATION
2  Detector Channels 
16  External MUX Channels 
1  Auxiliary Channels 
5000  Waveform (CCF) Frequency (Hz)
1  Waveforms Skipped 
30  Waveforms Averaged 
1  Cycles Averaged 
16  Acquisitions per Waveform 
10.0806  Updata Rate (Hz) 

#FILE INFORMATION
TRUE -- External MUX Channel results are PARSED.
FALSE -- AC DC and Phase are NOT grouped.
TRUE -- Companion Program Settings File CREATED.
FALSE -- AC data not excluded
FALSE -- DC data not excluded
FALSE -- Phase data not excluded
FALSE -- Auxillary Chn. data not excluded
Tab delimiters

#CALIBRATION STATE
TRUE -- Waveform Calibration Values APPLIED.


#AUX CALIBRATION VALUES
Val Type	aux-1	

Term	1.0000e+00	
Factor	0.0000e+00	


#WF CALIBRATION VALUES
A = Detector Channel
Val Type	A-AC1	A-AC2	A-AC3	A-AC4	A-AC5	A-AC6	A-AC7	A-AC8	A-AC9	A-AC10	A-AC11	A-AC12	A-AC13	A-AC14	A-AC15	A-AC16	A-DC1	A-DC2	A-DC3	A-DC4	A-DC5	A-DC6	A-DC7	A-DC8	A-DC9	A-DC10	A-DC11	A-DC12	A-DC13	A-DC14	A-DC15	A-DC16	A-Ph1	A-Ph2	A-Ph3	A-Ph4	A-Ph5	A-Ph6	A-Ph7	A-Ph8	A-Ph9	A-Ph10	A-Ph11	A-Ph12	A-Ph13	A-Ph14	A-Ph15	A-Ph16	

Term	0.00000e+00	0.00000e+00	0.00000e+00	0.00000e+00	0.00000e+00	0.00000e+00	0.00000e+00	0.00000e+00	0.00000e+00	0.00000e+00	0.00000e+00	0.00000e+00	0.00000e+00	0.00000e+00	0.00000e+00	0.00000e+00	0.00000e+00	0.00000e+00	0.00000e+00	0.00000e+00	0.00000e+00	0.00000e+00	0.00000e+00	0.00000e+00	0.00000e+00	0.00000e+00	0.00000e+00	0.00000e+00	0.00000e+00	0.00000e+00	0.00000e+00	0.00000e+00	0.00000e+00	0.00000e+00	0.00000e+00	0.00000e+00	0.00000e+00	0.00000e+00	0.00000e+00	0.00000e+00	0.00000e+00	0.00000e+00	0.00000e+00	0.00000e+00	0.00000e+00	0.00000e+00	0.00000e+00	0.00000e+00	
Factor	1.00000e+00	1.00000e+00	1.00000e+00	1.00000e+00	1.00000e+00	1.00000e+00	1.00000e+00	1.00000e+00	1.00000e+00	1.00000e+00	1.00000e+00	1.00000e+00	1.00000e+00	1.00000e+00	1.00000e+00	1.00000e+00	1.00000e+00	1.00000e+00	1.00000e+00	1.00000e+00	1.00000e+00	1.00000e+00	1.00000e+00	1.00000e+00	1.00000e+00	1.00000e+00	1.00000e+00	1.00000e+00	1.00000e+00	1.00000e+00	1.00000e+00	1.00000e+00	X	X	X	X	X	X	X	X	X	X	X	X	X	X	X	X	

B = Detector Channel
Val Type	B-AC1	B-AC2	B-AC3	B-AC4	B-AC5	B-AC6	B-AC7	B-AC8	B-AC9	B-AC10	B-AC11	B-AC12	B-AC13	B-AC14	B-AC15	B-AC16	B-DC1	B-DC2	B-DC3	B-DC4	B-DC5	B-DC6	B-DC7	B-DC8	B-DC9	B-DC10	B-DC11	B-DC12	B-DC13	B-DC14	B-DC15	B-DC16	B-Ph1	B-Ph2	B-Ph3	B-Ph4	B-Ph5	B-Ph6	B-Ph7	B-Ph8	B-Ph9	B-Ph10	B-Ph11	B-Ph12	B-Ph13	B-Ph14	B-Ph15	B-Ph16	

Term	0.00000e+00	0.00000e+00	0.00000e+00	0.00000e+00	0.00000e+00	0.00000e+00	0.00000e+00	0.00000e+00	0.00000e+00	0.00000e+00	0.00000e+00	0.00000e+00	0.00000e+00	0.00000e+00	0.00000e+00	0.00000e+00	0.00000e+00	0.00000e+00	0.00000e+00	0.00000e+00	0.00000e+00	0.00000e+00	0.00000e+00	0.00000e+00	0.00000e+00	0.00000e+00	0.00000e+00	0.00000e+00	0.00000e+00	0.00000e+00	0.00000e+00	0.00000e+00	-8.19620e+01	-1.31387e+02	-1.23947e+02	-1.82180e+02	-6.73124e+01	-7.06461e+01	-1.57453e+02	-1.62015e+02	-5.26248e+01	-5.03545e+01	-1.74207e+02	-1.70246e+02	-1.81558e+02	-1.76604e+02	-6.38946e+01	-1.49731e+02	
Factor	1.74277e-05	1.42447e-04	4.46277e-05	1.46431e-01	1.15311e-06	1.52853e-06	1.67333e-01	5.49476e-02	1.18619e-06	1.77604e-06	9.88515e-02	2.93754e-02	2.77491e-02	9.55186e-03	1.29905e-06	1.36949e-02	3.85813e-06	4.49126e-06	1.24776e-06	7.72237e-02	4.81768e-08	4.92794e-08	8.25847e-02	2.90232e-02	4.80511e-08	4.91379e-08	5.01668e-02	1.50227e-02	1.47801e-02	5.06767e-03	4.82509e-08	7.00746e-03	X	X	X	X	X	X	X	X	X	X	X	X	X	X	X	X	



#DISTANCE SETTINGS
A = Detector Channel
A-1	A-2	A-3	A-4	A-5	A-6	A-7	A-8	A-9	A-10	A-11	A-12	A-13	A-14	A-15	A-16	

2.5000e+00	3.0000e+00	2.5000e+00	3.0000e+00	2.0000e+00	3.0000e+00	1.5000e+00	3.0000e+00	3.0000e+00	3.0000e+00	3.0000e+00	3.0000e+00	3.0000e+00	3.0000e+00	1.5000e+00	3.0000e+00	

B = Detector Channel
B-1	B-2	B-3	B-4	B-5	B-6	B-7	B-8	B-9	B-10	B-11	B-12	B-13	B-14	B-15	B-16	

1.0000e+01	1.0000e+01	1.0000e+01	1.4400e+00	1.0000e+01	1.0000e+01	1.5100e+00	1.9400e+00	1.0000e+01	1.0000e+01	1.9900e+00	2.4900e+00	2.4100e+00	2.9000e+00	1.0000e+01	2.9800e+00	




#DATA BEGINS
time	group	step	mark	flag	A-AC1	A-AC2	A-AC3	A-AC4	A-AC5	A-AC6	A-AC7	A-AC8	A-AC9	A-AC10	A-AC11	A-AC12	A-AC13	A-AC14	A-AC15	A-AC16	A-DC1	A-DC2	A-DC3	A-DC4	A-DC5	A-DC6	A-DC7	A-DC8	A-DC9	A-DC10	A-DC11	A-DC12	A-DC13	A-DC14	A-DC15	A-DC16	A-Ph1	A-Ph2	A-Ph3	A-Ph4	A-Ph5	A-Ph6	A-Ph7	A-Ph8	A-Ph9	A-Ph10	A-Ph11	A-Ph12	A-Ph13	A-Ph14	A-Ph15	A-Ph16	B-AC1	B-AC2	B-AC3	B-AC4	B-AC5	B-AC6	B-AC7	B-AC8	B-AC9	B-AC10	B-AC11	B-AC12	B-AC13	B-AC14	B-AC15	B-AC16	B-DC1	B-DC2	B-DC3	B-DC4	B-DC5	B-DC6	B-DC7	B-DC8	B-DC9	B-DC10	B-DC11	B-DC12	B-DC13	B-DC14	B-DC15	B-DC16	B-Ph1	B-Ph2	B-Ph3	B-Ph4	B-Ph5	B-Ph6	B-Ph7	B-Ph8	B-Ph9	B-Ph10	B-Ph11	B-Ph12	B-Ph13	B-Ph14	B-Ph15	B-Ph16	aux-1	digaux	

2182.577	1	1	0	768	0.12254	0.099122	0.23879	0.18673	0.29158	0.21469	0.32334	0.43519	0.094124	0.12305	0.11294	0.21872	0.31814	0.14733	0.19337	0.18638	-1.2333	-2.175	-1.3521	-2.0687	-2.0125	-1.4604	-2.4604	-1.7542	-1.65	-2.1958	-1.5167	-1.8521	-2.4938	-1.5479	-2.4542	-1.9167	224.274	152.056	274.110	76.238	91.698	210.479	257.666	345.141	103.732	374.412	191.444	89.553	81.684	298.508	384.917	91.890	0.00041825	0.00072851	0.00083054	983.49	2.0817e-05	4.3672e-05	1191.2	266.31	1.8766e-05	3.57e-05	344.6	97.535	70.753	21.684	1.8189e-05	32.637	0.026281	0.030516	0.0084728	1457.3	0.00032588	0.00033311	1687.5	452.74	0.00032538	0.0003335	673.16	195.99	168.9	55.419	0.00032968	79.161	167.324	139.815	111.003	53.323	191.756	390.520	53.270	58.144	220.058	240.826	56.825	61.506	63.031	66.189	120.482	65.362	-8191	255	
2182.673	1	1	0	0	0.21848	0.13566	0.20872	0.19167	0.26461	0.11326	0.35741	0.057512	0.20256	0.35919	0.2625	0.22479	0.16195	0.21396	0.20414	0.12026	-1.0271	-2.4646	-1.4417	-2.0229	-2.2062	-1.4979	-2.3917	-1.9896	-1.4917	-2.2333	-1.6458	-1.7875	-2.275	-1.4208	-2.0979	-1.9958	143.947	286.246	374.370	357.548	101.001	317.370	41.399	346.201	366.647	66.443	338.953	259.253	352.344	200.455	218.258	398.473	0.00015611	0.0014756	0.0010505	982.06	1.079e-05	2.4251e-05	1185.6	266.65	2.849e-05	3.6432e-05	348.89	96.35	69.8	21.358	1.2553e-05	31.724	0.026519	0.030986	0.0086512	1473.9	0.00033534	0.00034296	1700.9	457.65	0.00033572	0.00034205	679.05	196.95	170.25	55.885	0.00033715	79.625	267.593	235.130	236.274	53.642	221.927	205.287	53.068	57.864	217.031	276.121	56.467	61.688	62.096	67.576	103.305	64.819	-8191	255	
2182.769	1	1	0	0	0.30857	0.16146	0.14914	0.15059	0.11577	0.34344	0.19955	0.1921	0.13007	0.26667	0.23369	0.23657	0.16274	0.16997	0.020412	0.16857	-0.85208	-2.2625	-1.6917	-1.8375	-2.3688	-1.4792	-2.2792	-2.1167	-1.3854	-2.1521	-1.7917	-1.8229	-2.1229	-1.5438	-2.0292	-2.2208	383.142	109.788	73.750	325.055	279.841	188.042	160.619	292.695	84.280	64.998	68.926	42.128	312.333	130.566	345.424	158.435	0.00031166	0.0022921	0.0012614	974.12	7.3598e-06	8.1564e-06	1167.8	265.28	5.1409e-06	2.0526e-05	343.86	95.724	69.277	21.356	2.2045e-06	31.675	0.02725	0.031511	0.0088291	1473.4	0.00033753	0.00034729	1700.9	456.86	0.0003368	0.0003432	678.26	196.29	168.61	55.36	0.00033425	79.126	168.584	303.638	171.238	53.396	53.308	174.178	53.197	58.435	162.870	286.866	57.188	61.564	61.639	66.742	215.712	65.069	-8191	255	
2182.866	1	1	0	0	0.11853	0.11444	0.055937	0.20996	0.16829	0.16751	0.35415	0.093022	0.13831	0.23257	0.070411	0.11245	0.051477	0.26097	0.21717	0.30071	-0.77917	-2.1688	-1.8542	-1.8208	-2.5292	-1.5583	-1.8937	-2.3646	-1.3396	-2.2938	-2.1646	-1.4021	-2.5771	-1.5208	-1.7563	-2.1813	81.725	81.322	73.987	357.375	266.743	107.682	361.411	82.470	47.776	51.035	304.793	101.248	155.792	316.126	289.516	347.418	0.00046716	0.0013176	0.00074626	968.34	1.9658e-05	8.7847e-06	1171.3	263.01	2.2467e-05	2.2109e-06	341.17	96.087	69.128	21.436	3.2519e-05	31.967	0.026915	0.031192	0.008735	1465.5	0.00033669	0.00034537	1690.3	455.85	0.0003368	0.00034297	679.24	197.2	169.52	55.839	0.0003364	79.684	123.721	46.618	205.175	53.327	375.739	274.178	53.203	57.713	270.237	232.923	56.637	61.783	62.477	66.700	174.013	65.212	-8191	255	
2182.962	1	1	0	0	0.14965	0.25789	0.23334	0.2336	0.21219	0.025014	0.15138	0.27162	0.20677	0.26047	0.30611	0.15658	0.080122	0.24558	0.18866	0.16701	-1.0479	-2.1667	-1.9562	-1.3979	-2.2146	-1.7229	-1.9396	-2.4667	-1.5229	-1.9583	-1.9708	-1.6417	-2.3417	-1.7271	-1.5354	-2.2708	230.341	266.244	244.571	48.507	284.974	297.598	45.411	198.145	100.618	120.677	92.752	59.750	369.401	148.869	328.178	354.929	0.00036258	0.0018495	0.00078689	971.08	2.1934e-05	1.8424e-05	1174.8	263.78	1.7251e-05	4.7155e-05	342.62	96.815	69.786	21.385	1.4314e-05	31.648	0.027168	0.031497	0.0088301	1475.2	0.00033827	0.00034943	1702.7	457.69	0.00033774	0.0003448	680.53	197.16	169.04	55.477	0.00033306	78.696	161.403	231.215	358.228	53.282	313.438	254.882	52.813	58.571	141.757	309.364	56.476	61.445	62.787	66.736	200.784	64.885	-8191	255	
2183.058	1	1	0	0	0.047208	0.1522	0.057725	0.30405	0.18522	0.15029	0.17872	0.29213	0.06129	0.23392	0.12269	0.1498	0.22798	0.088909	0.14384	0.13796	-1.0021	-1.7979	-2.1437	-1.5771	-2.3167	-1.7854	-1.6771	-2.35	-1.4917	-2.0417	-2.2313	-1.5	-2.2458	-1.9396	-1.5896	-2.3396	362.805	258.734	155.027	341.633	363.159	40.733	363.286	339.235	295.073	270.628	63.139	361.751	376.319	274.390	43.293	334.406	0.00044368	0.00014006	0.0011551	968.09	2.3481e-05	4.3814e-05	1176.2	261.28	3.146e-05	1.3324e-05	345.3	95.852	69.106	21.168	4.1591e-06	31.188	0.026496	0.030716	0.008588	1454.4	0.00032893	0.00033851	1686.6	451.61	0.00033025	0.00033705	672.75	195.07	167.1	55.113	0.00033222	78.218	188.596	394.759	128.470	53.334	133.879	236.609	53.002	58.063	378.541	267.741	56.419	62.156	61.787	66.679	352.023	65.020	-8191	255	
2183.177	1	1	0	0	0.097872	0.076743	0.15669	0.23736	0.18937	0.091756	0.14481	0.13412	0.11208	0.11765	0.076881	0.221	0.18603	0.18067	0.22493	0.17211	-1.0333	-1.7583	-2.2542	-1.5771	-2.0146	-2.0521	-1.6812	-2.4979	-1.5688	-1.6479	-2.3271	-1.2646	-2.2167	-1.8917	-1.4604	-2.4562	171.110	377.180	256.543	390.256	84.141	332.387	390.424	299.482	291.261	82.525	378.516	235.263	353.617	395.033	378.852	255.418	0.00045957	0.0013586	0.0002222	958.38	1.3799e-05	2.9447e-05	1165.5	258.77	1.7816e-05	4.5976e-05	339.22	94.758	68.75	20.742	4.7224e-05	30.756	0.026518	0.030646	0.0086194	1447.8	0.00032728	0.00033861	1670.9	446.42	0.00032847	0.00033622	665.88	193.42	166.61	54.889	0.00033212	77.863	221.253	226.196	263.720	53.283	156.913	345.395	53.041	57.794	161.832	157.555	56.360	60.978	62.472	66.662	285.424	65.389	-8191	255	
2183.273	1	1	0	0	0.26816	0.23091	0.074813	0.11499	0.2283	0.087112	0.30644	0.20551	0.28153	0.25928	0.12283	0.3058	0.092424	0.029179	0.17373	0.25012	-1.2604	-1.7062	-2.1521	-1.7021	-2.0646	-2.1917	-1.5417	-2.3458	-1.7333	-1.4771	-2.3146	-1.5583	-2.2396	-2.0563	-1.2604	-2.3583	297.325	54.556	191.367	349.540	226.554	351.665	347.829	250.213	221.610	56.898	392.672	386.202	234.907	92.866	182.013	91.009	0.00044199	0.0021718	0.00048744	959.12	1.2338e-05	2.2478e-05	1152.9	259	2.3151e-05	3.0877e-05	336.55	94.775	68.311	20.744	1.6843e-05	31.033	0.026614	0.031048	0.0086747	1449.8	0.00033405	0.00034415	1678.1	450.21	0.00033785	0.00034433	670.72	195.22	168.07	55.32	0.00033586	78.32	196.005	116.496	69.990	53.624	375.874	141.497	52.783	58.279	359.220	76.718	56.243	61.663	62.960	66.331	187.770	65.193	-8191	255	
2183.369	1	1	0	0	0.16597	0.13248	0.12278	0.23355	0.17502	0.15197	0.10693	0.20451	0.13273	0.11615	0.22865	0.25313	0.11193	0.30636	0.25798	0.21646	-1.4188	-1.4229	-2.2583	-1.7708	-1.7521	-2.2792	-1.4458	-2.2083	-1.9917	-1.4771	-2.2896	-1.4625	-1.7167	-2.1458	-1.3354	-2.225	365.938	328.474	163.106	366.676	252.685	96.348	335.794	51.769	138.050	371.816	339.089	57.494	109.736	225.560	123.632	338.508	0.00053121	0.0021281	0.00076989	951.9	2.4127e-05	1.2647e-06	1154	257.91	2.567e-05	1.5868e-05	338.2	94.446	67.893	20.769	3.4059e-06	31.2	0.026993	0.031461	0.0087548	1456.1	0.00033823	0.00035103	1688.8	452.83	0.00034411	0.00035149	677.57	197.72	169.95	56.024	0.00034269	79.48	210.080	159.651	128.256	52.932	65.998	270.822	53.120	58.404	94.523	328.900	57.055	61.193	62.694	67.034	277.801	65.072	-8191	255	
2183.465	1	1	0	0	0.19068	0.19813	0.13408	0.22496	0.10205	0.10132	0.23937	0.19644	0.18026	0.27714	0.21728	0.11563	0.11909	0.2002	0.13974	0.3576	-1.4688	-1.3937	-2.4458	-1.6437	-1.5667	-2.1604	-1.6521	-2.0271	-2	-1.5438	-2.3167	-1.8229	-1.6938	-2.2708	-1.5167	-2.1146	255.793	248.181	58.369	357.197	324.914	298.034	347.070	315.666	45.779	179.943	89.945	398.432	234.540	107.589	312.833	369.506	0.00040356	0.0035514	0.0010447	960.9	3.9608e-05	1.726e-05	1156.2	259.51	1.2836e-05	3.4362e-05	340.04	94.594	68.427	20.965	4.847e-05	31.277	0.027492	0.031943	0.008832	1465.3	0.00034248	0.00035218	1690.2	452.91	0.00034253	0.00035043	676.96	197.33	169.81	55.876	0.00033837	78.903	157.938	357.407	299.009	53.066	100.732	325.322	52.853	57.987	275.252	303.299	56.839	61.550	61.831	67.663	109.006	65.784	-8191	255	
2183.561	1	1	0	0	0.1776	0.21238	0.1392	0.080579	0.079167	0.18983	0.28153	0.26512	0.26607	0.12812	0.28654	0.049934	0.34966	0.26799	0.25443	0.14611	-1.6125	-1.1771	-2.1979	-1.8167	-1.4604	-2.2396	-1.6354	-2.0312	-2.1583	-1.3583	-2.0542	-1.7646	-1.5187	-2.2458	-1.3958	-1.7208	383.698	103.258	125.310	191.074	248.974	283.877	388.064	292.742	389.830	41.984	312.368	181.432	393.941	350.097	115.551	90.340	0.00038746	0.0024769	0.0015583	955.58	1.7538e-05	5.6037e-05	1151.2	256.82	2.0509e-05	5.6808e-06	332.04	93.741	67.714	20.45	4.0362e-05	30.894	0.027163	0.031373	0.0086665	1452.5	0.00033552	0.00034331	1669.6	445.61	0.00033109	0.00033624	657.72	191.02	164	53.619	0.00032158	75.865	347.616	380.457	207.917	52.883	147.035	140.357	52.480	57.614	339.231	301.891	56.603	61.170	62.253	66.206	284.598	65.215	-8191	255	
2183.657	1	1	0	0	0.28884	0.1518	0.14841	0.35747	0.17651	0.17172	0.2312	0.2801	0.12201	0.16391	0.18394	0.20771	0.32655	0.16473	0.25262	0.34699	-1.7417	-1.5438	-2.1521	-2.0875	-1.4937	-2.2771	-1.6521	-1.6021	-2.2208	-1.2271	-2.0875	-1.9042	-1.3458	-2.3354	-1.7271	-1.7771	182.718	170.338	388.116	384.609	335.605	73.553	351.045	355.873	92.560	219.116	334.540	303.414	96.391	236.259	86.935	392.061	0.00027576	0.0019837	0.00033535	942.71	2.7403e-05	2.613e-05	1142.2	258.03	3.2265e-05	7.3181e-06	335.54	93.016	67.572	20.529	1.7594e-05	31.105	0.02563	0.029667	0.0082135	1417	0.00031927	0.00032509	1640.3	436.94	0.00031963	0.00032705	649.12	189.66	162.88	53.163	0.00031938	76.036	273.385	139.273	214.390	53.108	279.198	68.011	52.853	58.178	229.244	363.790	56.796	61.920	63.175	67.046	376.521	65.479	-8191	255	
2183.778	1	1	0	0	0.10962	0.040983	0.19595	0.22715	0.15929	0.15565	0.15379	0.1562	0.19704	0.046772	0.088871	0.40486	0.11108	0.21013	0.076033	0.10027	-1.7646	-1.1083	-1.9604	-2.2625	-1.2583	-2.1208	-1.9646	-1.5063	-2.375	-1.5354	-1.8583	-2.1354	-1.2083	-2.0167	-1.7604	-1.5187	93.634	258.388	240.948	304.180	306.536	66.111	322.892	194.772	71.827	351.404	347.348	365.476	47.608	369.371	160.795	214.705	0.00029247	0.0049879	0.00062886	953.67	2.1476e-05	2.6147e-05	1149.9	255.72	3.0233e-05	2.8898e-05	333.73	94.161	67.69	20.81	3.3789e-05	31.431	0.025537	0.029561	0.0081453	1418.8	0.00031407	0.00032159	1637.2	434.09	0.00031298	0.00032037	646.63	188.46	161.7	53.029	0.00031709	76.042	206.082	184.487	54.474	53.197	111.725	392.399	52.784	57.951	164.403	340.459	56.069	61.706	62.600	66.401	373.413	65.577	-8191	255	
2183.873	1	1	0	0	0.11731	0.079998	0.14286	0.13622	0.19144	0.15595	0.34467	0.18972	0.080722	0.045	0.13414	0.28722	0.065247	0.1354	0.26227	0.089197	-1.7062	-1.3521	-1.8125	-2.2646	-1.3521	-2.1021	-2.0563	-1.4125	-2.2979	-1.4438	-1.675	-2.4188	-1.3813	-2.2938	-1.9625	-1.4562	236.739	87.192	216.298	129.436	254.987	384.757	103.700	343.101	358.248	167.465	270.654	51.062	329.261	333.878	53.533	264.830	0.00037949	0.0023966	0.00088308	961.52	1.8371e-05	2.2324e-05	1161.1	259.65	2.5901e-05	4.0476e-05	338.54	95.468	68.935	20.908	2.5709e-05	31.494	0.025222	0.029333	0.0081016	1418.1	0.00031211	0.00031647	1643.6	436.06	0.00030933	0.00031804	646.35	188.39	160.85	52.63	0.00031185	75.224	152.136	172.300	210.595	53.228	202.734	61.781	53.198	57.998	126.517	364.843	56.368	61.867	62.486	67.057	140.191	65.561	-8191	255	
2183.969	1	1	0	0	0.19828	0.071705	0.095778	0.18798	0.015413	0.19745	0.2198	0.088149	0.12841	0.07889	0.24058	0.109	0.044744	0.20214	0.2228	0.31771	-1.9354	-1.6354	-1.7021	-2.3667	-1.3583	-2.0271	-2.0958	-1.35	-2.1354	-1.6542	-1.8146	-2.3542	-1.5229	-1.9458	-2.0667	-1.2313	94.507	135.645	323.114	372.128	164.941	362.393	392.914	323.416	199.874	344.248	321.251	342.106	189.946	132.234	46.241	258.201	7.938e-05	0.002803	0.00065796	969.18	2.9123e-05	1.09e-05	1173.6	260.94	8.1909e-06	2.8045e-05	341.19	95.844	68.61	21.094	4.7946e-06	31.161	0.024725	0.028877	0.0080074	1419.9	0.00030849	0.00031395	1644.9	434.9	0.00030591	0.00031464	644.72	187.48	159.47	52.309	0.00030945	74.627	313.014	193.659	70.382	53.383	201.446	310.800	52.791	57.922	289.602	211.722	56.587	61.804	62.638	66.804	213.058	65.140	-8191	255	
2184.065	1	1	0	0	0.5547	0.086154	0.12832	0.20263	0.22612	0.29296	0.33693	0.1311	0.33748	0.39424	0.18169	0.10473	0.21838	0.27465	0.21587	0.23458	-1.6542	-1.7563	-1.6187	-2.2938	-1.3958	-1.7563	-2.2438	-1.5396	-2.1417	-1.8687	-1.6208	-2.3563	-1.4	-1.7208	-2.0896	-1.2875	127.238	306.509	149.050	396.261	171.857	245.682	365.037	337.413	387.510	59.854	285.990	72.454	276.291	358.065	133.777	44.310	0.00064716	0.0010132	0.00048071	963.02	7.3735e-06	1.865e-05	1157.1	257.07	1.0117e-05	3.0959e-05	336.46	93.732	68.246	20.67	2.1997e-05	31.05	0.024507	0.02871	0.007926	1407.2	0.00030437	0.00030958	1622.7	427.12	0.00029667	0.00030489	630.7	182.43	156.47	51.271	0.00030109	73.549	228.776	328.243	319.729	53.387	319.185	363.092	52.485	58.286	167.858	195.133	56.447	61.615	62.471	67.107	158.826	65.087	-8191	255	
2184.138	1	1	0	0	0.034879	0.32726	0.28784	0.10008	0.035564	0.11388	0.15413	0.26236	0.006602	0.13887	0.20661	0.060097	0.15157	0.14462	0.20956	0.11723	-1.6896	-1.8896	-1.3104	-2.35	-1.5312	-1.6271	-2.2625	-1.3917	-2.1042	-2.0646	-1.2458	-2.1854	-1.625	-1.6854	-2.1917	-1.325	233.519	227.548	276.024	311.833	150.112	176.195	72.899	317.441	46.739	186.243	400.017	163.636	256.208	84.411	215.209	399.333	0.00025625	0.0025062	0.00048633	958.35	1.1763e-05	3.6285e-05	1161.8	260.58	2.8928e-05	3.3139e-05	340.69	94.158	67.528	20.789	6.1941e-06	31.802	0.024005	0.028239	0.0078693	1397.3	0.00030291	0.0003103	1626.9	431.79	0.00030124	0.0003102	636.39	183.96	157.12	51.457	0.00030065	73.278	246.668	41.251	84.214	53.532	171.382	212.236	53.206	58.188	354.467	108.443	56.896	62.013	62.660	66.958	357.412	64.737	-8191	255	
2184.257	1	1	0	0	0.356	0.39807	0.098652	0.19006	0.031354	0.088284	0.14684	0.17604	0.26283	0.14379	0.19628	0.23165	0.15252	0.14154	0.16371	0.18972	-1.4	-1.9125	-1.4104	-2.3583	-1.6479	-1.5958	-2.3396	-1.4083	-1.8146	-2.1292	-1.4521	-2.0979	-1.8	-1.3458	-2.2917	-1.6646	187.211	152.752	145.963	345.441	128.988	66.529	389.701	73.994	247.061	237.777	47.591	341.399	326.710	271.554	340.471	194.928	0.00045132	0.001091	0.0001531	965.76	2.4421e-05	4.9068e-05	1172.3	261.18	2.129e-05	2.3258e-05	344.75	94.854	68.709	20.943	1.6961e-05	31.739	0.023922	0.02803	0.0077677	1400.2	0.00030004	0.00030824	1633.1	431.8	0.00029779	0.00030773	637.51	184.52	157.99	51.766	0.00030003	73.806	65.818	82.316	180.323	53.486	66.825	165.637	53.271	57.750	323.511	163.897	57.227	61.713	62.110	67.330	79.160	65.636	-8191	255	
2184.353	1	1	0	0	0.15478	0.032187	0.16583	0.22084	0.24167	0.25967	0.2018	0.11785	0.31467	0.17738	0.14182	0.080044	0.30526	0.09786	0.22165	0.14878	-1.4917	-2.0667	-1.5146	-2.2021	-1.7479	-1.4625	-2.3625	-1.7333	-1.6	-2.2	-1.4188	-1.9625	-2.0354	-1.4625	-2.2646	-1.5	382.140	276.531	239.666	321.376	181.460	148.811	142.032	397.019	44.126	180.994	389.743	144.979	156.179	341.127	212.943	217.846	0.00011794	0.00064208	0.00024824	971.88	2.2008e-05	2.4843e-05	1176.5	264	1.3344e-05	5.1017e-05	351.18	95.857	69.461	21.2	1.8687e-05	31.855	0.023793	0.027791	0.0076852	1401.4	0.00029491	0.00030117	1625.7	429.29	0.00029207	0.00030188	635.82	183.78	157.36	51.447	0.00029594	73.492	74.881	205.725	232.588	53.705	216.309	109.312	53.224	58.421	130.499	158.928	56.587	61.948	62.294	67.156	284.834	65.445	-8191	255	
2184.449	1	1	0	0	0.057368	0.065342	0.16322	0.055208	0.2987	0.13344	0.16457	0.19942	0.14269	0.072102	0.11042	0.076763	0.34304	0.24422	0.15479	0.13457	-1.1396	-2.2458	-1.325	-2.25	-1.8937	-1.5729	-2.4667	-1.7938	-1.6521	-2.1833	-1.4792	-1.9188	-1.9958	-1.5063	-2.0708	-1.8042	94.105	386.721	358.899	295.712	147.149	208.485	330.690	321.558	367.393	94.305	112.722	211.605	349.332	183.314	129.805	115.486	0.00071651	0.002016	0.00016758	973.06	9.6865e-06	2.0649e-05	1181.3	266.26	6.7434e-06	4.9128e-05	345.99	95.784	68.917	21.382	1.3508e-05	31.328	0.023794	0.027781	0.0077238	1408.6	0.00030114	0.00030865	1638.9	435.4	0.00030158	0.00031115	644.58	186.52	159.93	52.321	0.00030508	74.614	193.247	142.343	88.689	53.629	89.250	81.959	52.926	58.195	320.785	170.444	56.396	61.819	62.815	67.098	126.776	65.315	-8191	255	
2184.546	1	1	0	0	0.06636	0.23188	0.10516	0.15176	0.14273	0.09707	0.30017	0.040745	0.11281	0.071625	0.099916	0.16185	0.033922	0.11508	0.23146	0.17447	-1.0812	-2.3292	-1.3771	-1.9813	-2.1688	-1.2687	-2.4771	-1.9042	-1.4188	-2.1521	-1.5625	-2.0833	-2.2042	-1.175	-2.0792	-1.8625	364.564	344.405	170.924	384.326	381.230	374.459	351.572	385.862	229.290	232.783	214.153	374.649	109.009	249.818	288.677	325.896	0.00048209	0.0010544	0.0011895	968.15	2.6712e-05	2.2213e-05	1179.5	264.81	2.8544e-05	1.6291e-05	343.04	94.976	69.438	20.872	1.8404e-05	31.225	0.024583	0.028689	0.0079993	1418.3	0.00031155	0.00031981	1653.5	441.47	0.00031551	0.00032413	657.68	190.69	164.56	53.866	0.00032075	76.932	89.285	57.443	164.424	53.720	289.373	158.900	53.028	58.305	233.990	277.026	56.527	61.505	61.842	66.604	291.528	65.608	-8191	255	
2184.666	1	1	0	0	0.053111	0.20988	0.044759	0.062235	0.067362	0.065656	0.21262	0.03814	0.27913	0.16707	0.23034	0.37771	0.3794	0.15249	0.16649	0.12544	-0.96667	-2.2625	-1.4417	-1.8333	-2.3208	-1.3917	-2.3458	-2.1479	-1.4146	-2.4125	-1.75	-1.65	-2.2188	-1.4625	-1.9667	-1.9125	193.984	356.711	180.907	153.674	152.681	208.992	365.911	337.708	174.645	248.732	375.169	374.451	393.822	64.791	236.407	354.307	0.00026387	0.00081645	0.0011071	964.98	1.6107e-05	1.8561e-05	1172	262.81	7.5038e-06	5.1531e-05	340.58	95.613	69.009	20.894	3.3324e-05	31.721	0.025889	0.029956	0.0083309	1436.4	0.00032223	0.00032762	1663.8	444.06	0.00032022	0.00032597	659.1	191.18	164.32	53.883	0.0003183	77.071	208.245	185.221	81.493	53.194	126.211	185.111	53.056	57.569	369.467	173.382	56.458	61.583	62.857	66.358	337.063	66.184	-8191	255	
2184.738	1	1	0	0	0.22631	0.20115	0.15015	0.20022	0.22699	0.067634	0.16897	0.26726	0.26688	0.16015	0.28845	0.18264	0.12853	0.1148	0.13029	0.077389	-0.76458	-2.2833	-1.6333	-1.6583	-2.2042	-1.375	-2.1437	-2.0667	-1.3104	-2.1396	-1.9229	-1.5917	-2.375	-1.3771	-1.8	-2.2396	174.012	84.989	380.430	245.726	346.128	308.600	352.244	260.741	149.020	260.419	335.134	198.488	146.172	378.996	275.831	345.630	0.00055946	0.0020041	0.00025438	972.53	2.1626e-05	4.8647e-05	1176.1	263.9	2.7044e-05	1.6982e-05	342.17	97.644	70.298	21.193	2.7642e-05	31.974	0.025696	0.029894	0.0083484	1443.3	0.00032297	0.00032968	1677.1	448.43	0.0003227	0.00032824	663.56	193.33	165.81	54.295	0.00032303	77.937	178.284	172.349	159.483	53.407	203.414	183.703	52.800	58.390	68.409	227.743	56.804	61.611	62.235	66.616	98.704	65.156	-8191	255	
2184.858	1	1	0	0	0.23399	0.23093	0.25883	0.42205	0.20918	0.14718	0.091665	0.11488	0.13871	0.071452	0.040131	0.26223	0.20409	0.29689	0.081591	0.29473	-0.99375	-2.1833	-1.8937	-1.5479	-2.3396	-1.4	-1.8771	-2.2542	-1.1917	-2.1542	-1.9708	-1.5688	-2.3	-1.5979	-1.8229	-2.35	129.832	286.117	387.751	343.570	305.340	355.170	303.766	254.847	126.704	43.008	391.074	400.147	88.555	52.990	68.540	130.613	0.00013631	0.00098867	0.0012343	973.41	1.6156e-05	1.0246e-05	1176.4	263.88	2.1845e-05	1.3614e-05	346.37	95.168	69.063	21.389	1.7329e-05	31.592	0.025913	0.030033	0.0084035	1447.4	0.00032121	0.00032765	1676.7	446.2	0.00031961	0.00032484	662.29	191.36	164.04	53.824	0.00031879	76.723	280.072	106.246	83.792	53.619	228.888	195.372	53.370	58.189	178.790	139.176	56.566	61.950	62.625	66.870	84.759	65.493	-8191	255	
2184.953	1	1	0	0	0.15243	0.2646	0.24518	0.28037	0.22295	0.050683	0.3963	0.16655	0.23147	0.20803	0.092582	0.10717	0.25887	0.11386	0.14301	0.13438	-0.875	-1.7729	-2.0979	-1.5979	-2.1708	-1.55	-1.6333	-2.3625	-1.3229	-2.0167	-2.2104	-1.3583	-2.2562	-1.9417	-1.4312	-2.3979	117.385	114.881	48.626	353.890	313.459	72.182	375.382	339.392	118.879	120.240	381.878	209.616	211.055	40.403	206.186	209.069	0.00032359	0.00099917	0.0001571	963.07	1.5528e-05	2.3903e-05	1165.5	259.51	1.3114e-05	2.3585e-05	341.32	93.812	67.911	20.953	1.6546e-05	30.988	0.025512	0.029454	0.0082373	1429.1	0.00031603	0.00032629	1660.2	442.41	0.00031956	0.00032656	660.96	191.24	164.04	54.072	0.00032408	76.802	182.001	368.990	69.289	53.815	257.668	185.656	52.626	57.937	174.632	229.166	56.545	61.533	62.898	66.582	181.686	65.756	-8191	255	
2185.049	1	1	0	0	0.08251	0.16047	0.10092	0.24997	0.10043	0.043363	0.28973	0.10913	0.10561	0.24138	0.089236	0.036606	0.23387	0.086148	0.11693	0.030187	-1.1208	-1.6354	-1.9854	-1.5521	-1.9875	-1.7146	-1.5271	-2.3	-1.4646	-1.6875	-2.1813	-1.3146	-2.1792	-1.9854	-1.3333	-2.3896	207.237	168.106	285.685	385.063	204.655	284.745	380.414	394.245	311.348	254.797	164.745	133.755	187.302	66.482	172.309	243.228	0.00047287	0.0015579	0.00043832	955.35	1.7864e-05	1.1569e-05	1159.8	260.79	1.3548e-05	1.5093e-05	338.88	95.168	68.043	21.112	2.1806e-05	31.086	0.025734	0.029763	0.0083278	1424.2	0.00031659	0.0003268	1650.3	438.75	0.00031626	0.00032257	653.89	189.42	161.11	53.185	0.00031404	75.456	125.224	387.664	394.358	53.439	227.722	390.375	52.554	57.756	296.649	80.633	56.577	61.484	62.335	66.923	299.821	65.237	-8191	255	
2185.147	1	1	0	0	0.19794	0.094382	0.38524	0.19208	0.21266	0.10428	0.13066	0.12301	0.27234	0.04077	0.16035	0.1766	0.24544	0.098493	0.24546	0.07496	-0.99167	-1.7313	-2.2625	-1.3687	-2.0417	-1.8396	-1.4813	-2.3625	-1.4562	-1.5479	-2.3646	-1.5229	-2.0854	-2.1188	-1.4708	-2.3438	386.283	68.369	227.897	57.253	154.816	225.052	285.379	59.646	182.575	250.647	82.456	369.058	323.104	383.578	130.430	364.162	0.00022172	0.0028234	0.00060823	964.14	1.6569e-05	2.5472e-05	1167	262.02	1.5654e-05	2.6995e-05	341.7	95.864	68.103	21.163	1.0162e-05	31.39	0.025067	0.029169	0.0081895	1424.4	0.00031421	0.0003276	1661.1	442.25	0.00031944	0.00032914	664.25	192.37	164.7	54.318	0.00032439	77.143	222.015	173.409	312.557	53.289	348.848	99.516	52.520	58.228	119.007	342.316	56.765	61.221	61.812	66.212	208.430	65.013	-8191	255	
2185.266	1	1	0	0	0.10239	0.27653	0.053667	0.1159	0.1769	0.079426	0.41377	0.2007	0.23306	0.103	0.26444	0.18441	0.21817	0.16945	0.10608	0.23594	-1.2708	-1.4875	-2.1312	-1.4604	-1.825	-2.0667	-1.4083	-2.3063	-1.6458	-1.5208	-2.3396	-1.6167	-1.8146	-2.0875	-1.3625	-2.1437	193.682	300.954	179.928	105.268	199.560	382.272	314.811	356.142	144.308	189.482	379.444	62.189	234.749	336.098	111.734	337.787	0.00072675	0.0020588	0.00043811	966.57	2.0578e-05	4.0728e-05	1178.9	264.13	2.7862e-05	1.9943e-05	345.57	97.225	69.757	21.253	4.4717e-06	31.261	0.02598	0.030158	0.0084002	1444	0.00032222	0.00033322	1679.2	447.84	0.00032525	0.00033347	666.04	193.9	165.69	54.624	0.00032533	77.246	127.402	362.040	62.216	53.430	176.603	284.236	52.805	57.747	246.178	240.723	56.912	61.680	61.902	66.497	123.983	65.319	-8191	255	
2185.362	1	1	0	0	0.11662	0.20316	0.17362	0.2115	0.090047	0.24887	0.27696	0.28864	0.17418	0.29498	0.14209	0.34452	0.24112	0.08152	0.092503	0.061185	-1.4396	-1.3333	-2.2646	-1.6875	-1.6854	-2.2896	-1.6688	-2.3812	-1.8875	-1.3813	-2.2042	-1.7062	-1.7437	-2.2021	-1.3354	-2.1437	73.767	83.949	400.017	384.990	232.261	163.594	332.085	393.309	164.997	321.488	303.076	347.408	111.747	259.935	264.691	96.667	0.00087492	0.0011144	0.0004671	965.07	9.9157e-06	2.8826e-05	1168.9	262.53	3.9914e-06	9.9113e-06	340.22	94.845	68.763	20.9	1.4131e-05	31.208	0.026068	0.030357	0.00842	1443.8	0.00032414	0.00033457	1676.6	445.95	0.00032487	0.00033256	662.57	192.07	164.79	54.173	0.00032251	76.435	165.806	187.614	283.894	53.095	331.780	74.057	52.807	58.475	282.791	291.599	56.753	61.450	62.545	66.605	52.542	65.144	-8191	255	
2185.434	1	1	0	0	0.10832	0.043032	0.27843	0.050409	0.13706	0.082621	0.37403	0.13896	0.46898	0.12749	0.11127	0.13003	0.21019	0.15837	0.10531	0.077909	-1.5458	-1.4354	-2.125	-1.6396	-1.4271	-2.1417	-1.6292	-2.0563	-1.9021	-1.3229	-2.2792	-1.5646	-1.6187	-2.1312	-1.3	-1.8458	385.571	373.219	83.182	277.545	124.383	259.832	343.779	336.341	110.662	375.954	73.341	322.841	323.258	328.178	126.167	356.014	0.00036654	0.0016705	0.00045264	956.22	6.9652e-06	2.5433e-05	1163.1	259.19	3.1565e-05	4.3847e-05	339.58	94.459	68.212	20.728	3.3629e-05	31.488	0.025851	0.029922	0.0083056	1429	0.00032201	0.00032956	1659.8	441.23	0.00032161	0.00032767	655.54	190.11	163.46	53.57	0.00031961	76.314	183.014	112.563	212.299	53.249	331.688	45.438	52.637	58.164	225.356	284.481	56.676	61.454	62.595	66.510	258.781	64.519	-8191	255	
2185.554	1	1	0	0	0.19266	0.074049	0.24811	0.25406	0.23635	0.26987	0.24304	0.21409	0.011506	0.12662	0.084433	0.23614	0.20374	0.15634	0.048839	0.21989	-1.5688	-1.1646	-2.0771	-1.8354	-1.4021	-2.0479	-1.6271	-1.6562	-2.1271	-1.2896	-2.1271	-1.875	-1.2958	-2.2479	-1.4354	-1.7292	280.600	106.939	307.511	302.522	73.564	169.738	340.651	328.581	377.128	236.767	356.298	375.615	391.075	54.894	53.117	61.774	0.00043954	0.00045336	0.00038905	956.61	3.1584e-06	9.4283e-06	1164.4	261.96	2.105e-05	3.5599e-05	339.44	94.054	68.449	20.495	1.6105e-05	31.767	0.025757	0.029864	0.0082018	1419.8	0.00031561	0.00032246	1647.1	436.99	0.00031371	0.00032118	649.52	189.18	162.28	53.146	0.00031566	75.993	194.643	387.828	160.634	53.397	383.070	222.351	52.815	57.421	203.587	294.628	56.819	61.754	62.303	66.103	46.358	64.365	-8191	255	
2185.650	1	1	0	0	0.24463	0.14206	0.14721	0.25561	0.06949	0.20901	0.24752	0.35377	0.11908	0.087053	0.20012	0.15421	0.12951	0.073637	0.1621	0.14434	-1.8062	-1.2271	-2.0458	-2.1417	-1.2271	-2.3	-1.5646	-1.5396	-2.3063	-1.4312	-2.0062	-2.0667	-1.325	-2.2625	-1.5063	-1.4771	67.263	52.662	258.585	52.580	341.033	112.407	302.300	294.139	337.643	173.234	374.723	293.849	124.805	298.567	79.251	154.696	0.00043814	0.0009624	0.0012757	960.96	3.4453e-05	1.6883e-05	1172.5	261.57	3.5701e-06	4.0332e-05	344.73	95.956	69.492	20.897	2.7595e-05	31.995	0.025423	0.029415	0.0081463	1426.3	0.00031575	0.00032162	1655.2	439.56	0.00031335	0.00031949	651.98	189.73	162.06	52.951	0.00031316	76.088	202.604	64.532	161.207	52.979	247.012	307.931	52.680	57.723	260.660	113.089	56.173	61.661	61.677	66.512	143.315	65.507	-8191	255	
2185.747	1	1	0	0	0.095949	0.27941	0.16599	0.14753	0.067703	0.50051	0.21446	0.023168	0.072911	0.12924	0.13429	0.20055	0.091496	0.11229	0.055767	0.18231	-1.7188	-1.4729	-1.7604	-2.0333	-1.3208	-2.2438	-1.8146	-1.3667	-2.1458	-1.3854	-1.7958	-2.1208	-1.1292	-2.1917	-1.6688	-1.425	91.703	268.766	191.718	390.038	73.739	240.518	320.955	330.131	150.381	254.883	295.154	309.356	197.076	99.526	162.639	225.046	0.00058547	0.0023106	0.00033552	968.59	1.8702e-05	2.3408e-05	1173.8	264.01	2.8823e-05	2.7455e-05	347.99	95.69	69.026	21.099	4.2138e-05	30.944	0.02517	0.029223	0.0081114	1431	0.00031378	0.00031931	1661.5	441.27	0.00031139	0.0003183	652.58	189.43	161.05	52.505	0.00030974	75.038	263.856	194.620	80.155	53.073	257.454	180.835	52.748	58.240	203.223	245.532	56.656	61.531	62.570	66.905	329.513	65.936	-8191	255	
2185.843	1	1	0	0	0.039859	0.31857	0.14431	0.44875	0.16884	0.15183	0.36988	0.28563	0.18111	0.12255	0.28988	0.34776	0.3181	0.088419	0.075598	0.049238	-1.7792	-1.2104	-1.7062	-2.0667	-1.1125	-2.125	-2.0479	-1.3979	-2.0833	-1.6208	-1.7375	-2.3063	-1.45	-1.9208	-1.7604	-1.4438	242.162	396.844	275.425	359.789	384.775	342.467	362.141	341.478	223.421	360.430	305.693	373.439	199.017	198.965	322.597	361.297	0.00017745	0.0011179	0.00082558	954.95	7.3749e-06	1.9841e-05	1166.2	260.42	1.8487e-05	3.9218e-05	339.86	93.973	68.857	20.843	3.5443e-05	30.642	0.024574	0.028575	0.0079176	1405.5	0.00030273	0.00030826	1633.1	431.26	0.00030084	0.00030867	639.2	185.02	158.07	51.703	0.00030525	73.935	264.128	71.614	195.952	53.099	79.034	82.477	52.636	58.107	153.566	57.307	56.405	61.971	62.368	66.828	112.812	65.171	-8191	255	
2185.962	1	1	0	0	0.078526	0.090972	0.13875	0.10304	0.14495	0.19852	0.25525	0.1505	0.054337	0.19726	0.28342	0.12798	0.3126	0.26686	0.26526	0.28309	-1.8625	-1.6313	-1.5417	-2.2271	-1.2771	-1.95	-2.1604	-1.5938	-2.1917	-1.7458	-1.5104	-2.2271	-1.3875	-1.8396	-2.1917	-1.2625	181.510	314.145	155.026	248.773	204.229	294.127	317.438	356.525	360.164	66.847	41.738	275.181	107.085	397.315	350.224	73.210	0.00020144	0.0015165	0.00093658	955.9	2.951e-05	2.5599e-05	1160	259.26	2.1638e-05	4.7701e-06	346.01	95.065	68.631	20.736	1.3661e-05	31.177	0.024156	0.028202	0.0078506	1397.8	0.000303	0.00031147	1637.6	434.87	0.00030629	0.00031651	648.51	187.63	160.11	52.263	0.00030998	74.593	163.779	159.302	152.245	53.219	165.346	165.562	52.745	57.918	289.025	191.493	56.654	61.366	61.815	66.700	56.677	66.304	-8191	255	
2186.035	1	1	0	0	0.21138	0.30805	0.23011	0.18759	0.30934	0.16443	0.37678	0.22506	0.10109	0.38974	0.2257	0.18874	0.19184	0.16255	0.13254	0.11097	-1.7083	-1.7	-1.3708	-2.2917	-1.4292	-1.7833	-2.4292	-1.2271	-2.0979	-1.9021	-1.4813	-2.1729	-1.5583	-1.7604	-2.3125	-1.3167	361.438	307.795	284.039	357.894	212.823	123.207	368.116	311.495	179.981	110.355	94.028	48.846	144.928	300.456	309.574	373.815	0.0002708	0.0019562	0.00063597	960.88	3.0228e-06	2.5804e-05	1176.4	262.5	2.8594e-05	4.3261e-05	345.3	95.823	68.741	21.175	2.6125e-05	31.833	0.024306	0.028465	0.0078929	1404	0.00030217	0.00030865	1638.1	433.52	0.00029957	0.00030976	643.08	185.69	157.96	51.692	0.00030124	73.614	282.952	238.867	108.461	53.094	309.804	232.233	53.165	58.230	73.179	288.309	56.870	61.652	62.199	66.052	379.052	66.138	-8191	255	
2186.129	1	1	0	0	0.071748	0.030495	0.19886	0.2756	0.12026	0.20459	0.099747	0.049335	0.16448	0.26782	0.18132	0.21079	0.1784	0.19167	0.21208	0.29383	-1.6854	-1.7708	-1.1833	-2.3021	-1.5083	-1.5792	-2.3	-1.2708	-1.7792	-1.9438	-1.4375	-2.2646	-1.7167	-1.4208	-2.175	-1.3333	182.320	120.143	317.465	80.294	100.888	236.032	341.957	351.817	220.873	343.803	390.681	303.937	257.722	294.092	140.913	343.068	0.00029493	0.0014009	0.00041823	968.29	3.9318e-06	1.9647e-05	1176.5	263.23	1.4327e-05	2.4611e-05	346.13	97.47	68.984	21.032	2.2312e-05	31.391	0.023732	0.027831	0.0076865	1395.9	0.00029343	0.00030042	1628.7	428.77	0.00029168	0.00030211	638.5	184.33	156.67	51.353	0.00029636	73.232	180.237	89.820	156.179	53.305	241.477	249.645	52.911	58.104	58.654	190.972	56.647	61.813	62.323	66.075	107.375	64.720	-8191	255	
2186.227	1	1	0	0	0.14371	0.26992	0.015503	0.23422	0.04487	0.082533	0.2912	0.16497	0.21084	0.072429	0.23068	0.15793	0.12313	0.15849	0.12365	0.17501	-1.3021	-1.7479	-1.2521	-2.3333	-1.6604	-1.5521	-2.2854	-1.3104	-1.8104	-2.0479	-1.4542	-2.1417	-1.8813	-1.425	-2.1708	-1.4854	345.191	257.177	388.541	63.555	323.697	90.704	364.995	53.827	157.584	240.609	59.331	291.916	299.302	55.457	255.847	323.913	0.00030772	0.0019307	0.0011835	959.21	2.6885e-05	3.3826e-05	1177.3	260.62	2.2505e-05	2.0391e-05	340.43	94.803	68.053	20.589	1.8074e-05	30.983	0.023539	0.027715	0.00762	1387.5	0.00029294	0.00029973	1614.1	424.43	0.00028684	0.00029506	624.45	179.62	153.31	50.049	0.0002856	71.458	95.631	127.482	217.382	53.341	366.760	191.718	52.965	58.019	202.773	301.721	56.782	61.611	62.194	67.253	209.786	64.388	-8191	255	
2186.346	1	1	0	0	0.20229	0.10573	0.32654	0.12537	0.19053	0.090367	0.215	0.20928	0.22783	0.20424	0.12086	0.11756	0.31945	0.27277	0.11221	0.18261	-1.2938	-2.0542	-1.1125	-2.3708	-1.7375	-1.4854	-2.3604	-1.6167	-1.5125	-2.2083	-1.4688	-1.9542	-1.8937	-1.3604	-2.0563	-1.6688	117.912	264.284	311.141	248.137	296.296	365.746	166.106	344.802	240.503	178.909	223.435	164.970	143.694	383.130	52.077	72.963	0.00012315	0.0032274	0.00057625	949.72	1.099e-05	2.8636e-05	1161.5	259.96	1.756e-05	4.1972e-05	338.82	94.822	67.735	20.576	2.2724e-05	30.973	0.022909	0.026893	0.007423	1361.6	0.00028667	0.00029359	1590.5	419.28	0.00028175	0.00028931	616.03	176.8	151.08	49.294	0.00028061	70.386	149.439	121.265	60.238	53.055	199.120	134.688	52.975	57.959	257.724	261.930	56.682	61.520	62.100	67.684	394.757	65.724	-8191	255	
2186.442	1	1	0	0	0.071433	0.20082	0.061955	0.275	0.28087	0.28056	0.15573	0.14731	0.11384	0.097754	0.21392	0.34939	0.15283	0.2071	0.14559	0.12393	-1.0708	-2.2062	-1.3604	-1.9625	-2.1063	-1.3292	-2.2938	-1.5708	-1.2917	-2.2104	-1.5208	-1.8167	-2.1479	-1.2458	-2.1771	-1.8438	318.310	209.627	144.993	375.336	90.391	155.628	226.285	302.785	184.526	146.566	390.656	364.584	392.552	343.342	55.591	334.263	0.00020126	0.0021458	0.0004416	946.36	1.1846e-05	3.0835e-05	1150.8	258.1	3.3848e-05	3.3172e-05	339.68	93.716	68.234	20.624	4.026e-05	30.925	0.022447	0.026242	0.0072417	1352.3	0.00027964	0.00028422	1571	413.56	0.00027576	0.00028246	609.4	175.69	149.75	48.801	0.00027622	70.029	172.391	201.010	72.568	53.558	351.283	170.820	53.133	57.715	188.146	50.074	56.566	61.868	62.406	66.479	313.937	65.325	-8191	255	
2186.539	1	1	0	0	0.10823	0.10943	0.086129	0.20663	0.13791	0.12069	0.14905	0.22354	0.059619	0.28368	0.2144	0.23317	0.17035	0.13488	0.28124	0.15505	-1.0438	-2.2958	-1.3625	-1.825	-2.2375	-1.4083	-2.2729	-1.9688	-1.2542	-2.0771	-1.6812	-1.5917	-2.3083	-1.3208	-1.9062	-1.9417	287.275	373.612	245.153	321.718	53.055	336.579	263.846	373.213	146.126	211.859	215.638	361.329	159.734	255.463	58.804	160.021	0.00020369	0.0010169	0.0011366	955.84	3.3538e-05	2.0034e-05	1157.4	260.45	2.3737e-05	4.8797e-05	342.56	93.265	67.833	20.676	1.9698e-05	30.974	0.022349	0.025978	0.0072371	1357.2	0.00027976	0.00028483	1579.7	415.25	0.00027521	0.00027997	609.28	175.27	148.88	48.696	0.0002735	69.713	157.214	163.509	221.362	53.239	273.635	215.118	53.099	58.032	220.395	151.087	56.879	61.772	62.901	66.334	52.083	65.697	-8191	255	
2186.635	1	1	0	0	0.036745	0.1106	0.34439	0.31512	0.17101	0.047765	0.42892	0.21671	0.20301	0.20772	0.088411	0.15107	0.25069	0.024601	0.17581	0.1403	-0.93542	-2.1688	-1.4917	-1.65	-2.0187	-1.3854	-1.9896	-2.1729	-1.2146	-2.3312	-1.5979	-1.4583	-2.2875	-1.4792	-1.9333	-1.9188	157.607	105.273	366.723	391.073	173.762	308.394	305.075	54.909	135.180	131.115	87.487	385.525	335.811	331.864	109.870	236.096	0.0002147	0.0026456	0.00049226	954.73	1.5733e-05	1.4396e-05	1159.2	260.21	1.777e-05	3.2465e-05	340.68	93.998	66.94	20.743	1.0622e-05	30.393	0.022117	0.025599	0.0071501	1350.3	0.00027619	0.00028338	1575.1	416.47	0.00027825	0.00028512	614.85	177.63	150.43	49.091	0.00028046	70.436	191.293	108.955	60.484	53.462	357.198	340.166	53.166	57.738	310.465	368.061	56.416	62.483	62.824	66.221	293.568	65.552	-8191	255	
2186.731	1	1	0	0	0.22501	0.30819	0.20689	0.22714	0.040719	0.22888	0.24828	0.11696	0.15965	0.14132	0.022471	0.043893	0.10824	0.18891	0.034875	0.25289	-0.96875	-2.225	-1.6792	-1.4708	-2.1042	-1.3917	-1.8646	-2.1667	-1.3188	-2.1958	-1.725	-1.3729	-2.2604	-1.4896	-1.6021	-2.1479	171.460	107.978	152.755	393.915	390.441	52.396	300.960	337.894	112.502	304.206	103.771	113.655	86.789	393.696	368.778	64.471	0.00021617	0.0022878	0.0003713	937.49	1.0931e-05	2.0032e-05	1144.1	255.03	1.192e-05	2.3238e-05	335.97	91.913	66.924	20.135	2.5665e-05	30.226	0.022508	0.025981	0.0072884	1344.6	0.00027986	0.00028651	1570.5	414.51	0.00027965	0.00028551	613.73	176.55	150.19	49.014	0.0002822	70.218	215.763	230.994	141.221	53.354	122.017	322.565	52.748	57.915	137.862	92.540	56.757	62.060	62.561	67.112	179.456	64.809	-8191	255	
2186.827	1	1	0	0	0.22695	0.29002	0.017172	0.23529	0.39169	0.15782	0.18842	0.08986	0.11046	0.32559	0.12894	0.22228	0.13735	0.087104	0.18151	0.34099	-0.9875	-1.8396	-1.8813	-1.6063	-2.0812	-1.5042	-1.5812	-2.1646	-1.3604	-1.8354	-1.9583	-1.35	-2.0729	-1.5646	-1.6021	-2.2417	215.477	172.358	69.508	369.575	114.315	170.403	316.825	311.377	198.939	256.611	382.508	149.045	362.336	319.786	392.919	331.682	0.00035349	0.0012176	0.00063344	943.55	1.5147e-05	3.1436e-05	1146.6	255.09	8.9056e-06	3.7198e-05	333.03	91.726	66.431	20.037	2.7749e-05	30.877	0.022497	0.026005	0.0073197	1344.7	0.00027935	0.00028659	1570.4	413.22	0.00027751	0.00028443	609.97	175.98	148.75	48.648	0.00027971	69.937	213.602	110.793	304.204	53.381	50.689	153.696	53.248	57.860	227.443	324.688	56.825	61.718	62.480	67.554	199.768	65.126	-8191	255	
2186.948	1	1	0	0	0.033201	0.16065	0.18315	0.22252	0.12653	0.16945	0.043282	0.18664	0.25622	0.19421	0.29456	0.10684	0.23007	0.37418	0.075612	0.20033	-0.93958	-1.9917	-1.9896	-1.3271	-2.0083	-1.8625	-1.7021	-2.3	-1.3021	-1.9062	-2.1479	-1.3333	-2.2188	-1.7667	-1.4833	-2.2917	228.399	185.771	125.262	51.764	75.439	70.689	98.213	367.011	230.624	265.568	53.413	156.228	382.664	81.033	316.558	339.196	0.00025416	0.0015569	0.00055397	946.15	6.7954e-06	2.1691e-05	1150.9	257.78	3.9317e-05	1.2285e-05	336.1	94.295	68.19	20.64	9.7191e-06	31.171	0.022336	0.025899	0.0072997	1351	0.00027832	0.00028928	1587.5	417.52	0.00028296	0.00028939	620.39	179.08	151.78	49.912	0.00028612	71.27	142.050	117.245	231.359	53.519	86.574	183.591	52.665	58.004	205.400	167.022	56.993	61.876	62.570	66.878	237.122	65.094	-8191	255	
2187.042	1	1	0	0	0.19201	0.21447	0.043913	0.36402	0.20606	0.37511	0.259	0.24611	0.22011	0.26053	0.18382	0.17168	0.18417	0.19235	0.2112	0.23866	-0.99792	-1.5604	-2.1562	-1.5521	-1.9417	-1.8875	-1.5229	-2.3875	-1.6	-1.7396	-2.2458	-1.325	-2.1688	-1.8979	-1.3333	-2.3521	246.015	186.456	400.133	381.147	207.248	74.557	236.778	98.543	186.298	290.913	280.207	386.317	394.894	71.468	125.667	59.879	7.7368e-05	0.0019691	0.0006412	953.1	1.5044e-05	9.212e-07	1170	260.05	1.1363e-05	3.7852e-06	342	94.979	69.052	20.566	1.5584e-05	31.338	0.022847	0.026534	0.0074405	1368.7	0.0002836	0.00029237	1601.9	421.43	0.00028401	0.00029087	625.75	180.15	152.18	50.087	0.0002854	71.031	126.286	176.287	371.968	53.065	337.701	307.120	52.785	58.426	392.480	65.030	56.436	61.542	62.255	67.660	386.008	65.334	-8191	255	
2187.138	1	1	0	0	0.029756	0.062246	0.2542	0.15331	0.2186	0.020762	0.30976	0.52624	0.1757	0.11395	0.14261	0.11964	0.22234	0.065968	0.13339	0.097129	-1.2604	-1.5458	-2.3271	-1.425	-1.8875	-1.85	-1.5708	-2.2667	-1.4375	-1.5396	-2.4229	-1.4625	-1.7708	-2.225	-1.2854	-2.3438	212.319	143.741	269.885	88.793	264.360	170.189	335.691	353.681	376.813	246.554	377.498	109.264	290.268	380.673	234.716	197.093	0.0001966	0.0016874	0.0011756	953.17	4.1648e-06	2.4022e-05	1154.1	259.42	1.6717e-05	3.2053e-05	340.47	93.775	67.091	20.769	9.4021e-06	31.047	0.022711	0.026424	0.0073836	1364.9	0.00028116	0.00029202	1591.2	418.22	0.00028192	0.00028984	617.87	177.76	151.06	49.754	0.00028431	70.516	279.969	89.341	245.009	53.397	276.578	250.987	53.054	58.300	218.956	130.339	56.871	61.781	62.774	66.834	241.035	65.584	-8191	255	
2187.259	1	1	0	0	0.13035	0.017181	0.15968	0.45674	0.090521	0.19915	0.47106	0.22883	0.14256	0.16572	0.17606	0.39925	0.22262	0.26214	0.30176	0.18058	-1.3542	-1.3521	-2.1646	-1.5812	-1.9333	-2.0812	-1.5438	-2.2354	-1.7833	-1.4625	-2.3479	-1.2771	-1.6375	-2.1583	-1.2396	-2.2021	153.005	394.668	217.377	394.245	271.518	64.027	336.781	313.728	293.692	101.444	371.306	93.596	47.769	137.329	59.154	48.758	6.8089e-05	0.0036475	0.0011526	947.48	2.9517e-05	2.0292e-05	1155.9	260.22	1.4276e-05	1.6746e-05	338.71	94.171	66.894	20.328	2.1141e-05	31.067	0.022955	0.02662	0.007416	1362.2	0.00028666	0.00029711	1597.8	420.73	0.00028947	0.00029596	622.74	180.3	153.26	50.309	0.00029284	71.77	212.334	371.485	325.281	53.375	197.051	131.736	52.825	58.093	178.466	286.352	57.338	61.691	62.659	66.845	66.560	65.379	-8191	255	
2187.330	1	1	0	0	0.10759	0.17209	0.093532	0.29476	0.13643	0.20014	0.26194	0.15713	0.22247	0.12555	0.11794	0.16092	0.29563	0.12257	0.14481	0.16756	-1.3563	-1.325	-2.15	-1.5292	-1.45	-2.1354	-1.4354	-2.0521	-1.9875	-1.3042	-2.2792	-1.6604	-1.6917	-2.2062	-1.4396	-1.9917	266.112	203.080	391.078	343.688	44.616	267.743	364.995	341.411	65.638	120.494	360.305	97.107	348.559	115.941	358.982	45.082	0.00024094	0.00081469	0.00084868	948.21	1.5811e-05	3.4835e-05	1154.2	259.57	2.1691e-05	3.0285e-05	343.1	94.442	68.732	20.503	2.4123e-05	30.865	0.023502	0.027153	0.0074808	1369.3	0.00028944	0.00029801	1601	421.49	0.00029111	0.00029757	626.76	181.44	154.9	50.843	0.00029314	72.256	316.531	365.676	180.329	53.223	155.234	186.231	52.829	58.530	361.897	290.333	57.175	61.772	62.648	66.759	301.404	65.898	-8191	255	
2187.427	1	1	0	0	0.094358	0.1325	0.17499	0.027766	0.11467	0.26495	0.34335	0.24295	0.050088	0.29872	0.24617	0.078991	0.10877	0.046169	0.16357	0.20041	-1.5729	-1.2812	-2.3021	-1.775	-1.6271	-2.1813	-1.4333	-1.8687	-2.275	-1.3062	-2.0312	-1.9771	-1.6375	-2.2771	-1.3583	-1.8333	108.689	342.056	116.119	345.356	252.011	235.136	379.749	400.119	343.215	365.386	149.299	319.485	156.397	320.153	150.744	305.260	0.00041782	0.002291	0.00023534	952.72	8.6351e-06	2.7752e-05	1161	262.02	2.1684e-05	1.7875e-05	341.69	94.982	68.429	20.998	1.6451e-05	31.569	0.023589	0.027398	0.0075306	1377.5	0.00029054	0.00029719	1606.1	421.18	0.0002871	0.00029297	622.88	180.5	153.13	50.054	0.00028547	71.505	81.582	294.079	89.335	53.387	240.691	114.217	52.890	58.127	271.605	216.008	57.005	61.738	62.820	66.538	221.914	65.051	-8191	255	
2187.523	1	1	0	0	0.29104	0.25553	0.12534	0.20413	0.142	0.058667	0.21262	0.11315	0.075697	0.22099	0.19136	0.16643	0.25211	0.21112	0.050806	0.22704	-1.9562	-1.2396	-1.8958	-1.8917	-1.4854	-2.2104	-1.4667	-1.5729	-2.175	-1.2521	-2.125	-2.0771	-1.4562	-2.2604	-1.5	-1.5979	49.255	205.879	307.055	379.328	241.401	102.585	302.402	237.760	361.174	186.026	295.898	254.221	95.072	376.326	226.262	390.094	0.00044988	0.0018389	0.0009075	960.05	1.0202e-05	2.2277e-05	1170.6	259.8	4.3431e-06	2.655e-05	342.98	95.032	68.071	20.852	1.481e-05	31.207	0.022864	0.026453	0.0072963	1370.4	0.00028146	0.00028643	1594.5	418.35	0.00027956	0.00028443	613.98	177.72	150.52	48.851	0.00027634	69.819	220.779	44.384	379.039	53.002	267.769	200.541	53.102	58.211	384.318	373.549	57.248	62.246	62.012	67.181	58.591	65.945	-8191	255	
2187.643	1	1	0	0	0.15562	0.11583	0.41859	0.08039	0.17791	0.1883	0.3548	0.21954	0.09508	0.090015	0.071766	0.11016	0.16974	0.072722	0.054791	0.16309	-1.7979	-1.3438	-2.0438	-2.0708	-1.3521	-2.1896	-1.7042	-1.6208	-2.2208	-1.3771	-1.9625	-2.1562	-1.3917	-2.2521	-1.6042	-1.4771	268.050	213.071	125.335	127.646	213.608	313.098	308.437	377.097	94.878	68.032	353.989	268.125	352.079	81.941	143.604	59.340	0.00014711	0.0026256	0.0003375	950.32	1.7472e-05	1.1213e-05	1160.5	258.93	1.4707e-05	7.2886e-06	340.87	93.893	67.579	20.51	9.574e-06	31.333	0.022069	0.025455	0.0070164	1344.2	0.00027123	0.00027498	1568.6	410.25	0.00026945	0.00027552	603.38	174.79	148.08	48.048	0.00027263	69.239	374.660	121.710	98.174	53.434	219.128	172.087	52.992	58.585	328.943	361.995	56.615	62.097	63.098	67.152	183.588	66.361	-8191	255	
2187.740	1	1	0	0	0.24179	0.16882	0.20424	0.19155	0.10972	0.080727	0.064786	0.28991	0.071565	0.092199	0.27446	0.12392	0.15197	0.11115	0.20225	0.17632	-1.9229	-1.4146	-1.9271	-2.2271	-1.3979	-2.3187	-2.1083	-1.3229	-2.2583	-1.5063	-1.7042	-2.2188	-1.2563	-2.1937	-2	-1.4333	223.412	78.035	68.898	52.631	342.452	186.784	366.769	340.751	161.192	180.389	357.088	353.911	150.226	155.695	233.292	357.452	9.0479e-05	0.0022027	0.00047812	947.23	7.3955e-06	1.8384e-05	1156.5	260.18	3.2558e-05	5.0224e-05	338.01	94.13	67.685	20.296	8.096e-06	30.762	0.02177	0.025269	0.0069949	1340.6	0.00026959	0.00027367	1566.6	410.13	0.00026664	0.00027322	602.76	173.76	146.48	47.59	0.0002684	68.438	334.015	320.121	365.157	53.663	134.157	255.986	53.181	58.453	67.821	130.699	57.154	62.073	61.959	66.673	47.113	65.583	-8191	255	
2187.836	1	1	0	0	0.13025	0.24343	0.20746	0.18008	0.042078	0.10473	0.14099	0.18056	0.22383	0.18151	0.11169	0.11793	0.1386	0.038067	0.20671	0.03634	-1.825	-1.4896	-1.5375	-2.2521	-1.2521	-1.9729	-2.1125	-1.4292	-2.1875	-1.5229	-1.7625	-2.2021	-1.4292	-1.9792	-2.0104	-1.4167	116.030	289.564	238.411	314.586	108.141	91.018	65.891	365.906	98.652	41.858	259.377	338.748	323.097	382.196	228.141	190.606	0.00041705	0.0029849	0.00032247	954.52	1.695e-05	3.25e-05	1165.2	260.78	1.0708e-05	1.8768e-05	342.99	94.658	68.56	20.798	1.6744e-05	31.704	0.021337	0.024954	0.0069338	1340.5	0.00026701	0.00027314	1572.5	410.31	0.00026366	0.00027109	603.31	173.42	145.83	47.535	0.00026519	68.578	191.045	361.224	347.840	53.747	298.854	196.447	53.225	58.567	154.586	158.286	57.409	61.595	62.808	67.914	322.224	65.720	-8191	255	
2187.907	1	1	0	0	0.16833	0.096121	0.21068	0.16271	0.32349	0.27403	0.38408	0.1396	0.18834	0.091771	0.37463	0.086773	0.12811	0.27528	0.15467	0.17465	-1.6729	-1.6958	-1.4833	-2.3083	-1.3333	-1.875	-2.2167	-1.3729	-1.9854	-1.6375	-1.475	-2.3438	-1.5604	-1.9375	-2.0917	-1.25	204.628	158.929	334.026	384.960	397.782	284.898	376.033	391.020	349.213	142.505	393.521	152.693	128.838	328.567	199.236	135.765	0.0002588	0.0033105	0.00064162	962.3	6.0665e-06	3.0344e-05	1179.9	265.55	4.0208e-06	2.5533e-05	346.68	94.653	67.836	21.002	2.1406e-05	31.499	0.021056	0.024766	0.0068618	1338.8	0.0002645	0.00027011	1577.6	412.13	0.00026329	0.00027233	606.13	174.27	146.77	47.864	0.00026666	68.707	231.919	201.374	235.254	53.823	228.738	289.081	53.425	58.515	231.478	328.313	57.385	62.070	63.242	67.531	326.727	65.514	-8191	255	
2188.026	1	1	0	0	0.20571	0.094987	0.10918	0.24195	0.21341	0.13175	0.3598	0.26937	0.11738	0.12051	0.18014	0.16206	0.14103	0.1529	0.38156	0.34378	-1.5208	-1.7563	-1.1625	-2.3833	-1.4646	-1.5854	-2.3479	-1.5688	-1.8583	-1.9292	-1.4813	-2.2583	-1.5479	-1.6979	-2.2917	-1.2479	204.832	315.844	159.264	315.154	214.472	142.858	308.688	294.990	73.701	262.942	84.334	76.358	395.936	229.346	52.767	69.761	0.00057355	0.0014399	0.00070984	959.72	1.9748e-05	1.8007e-05	1160.9	262.99	1.9073e-05	5.0311e-06	345.61	94.327	67.833	20.537	1.8419e-05	31.22	0.021223	0.025012	0.006929	1340.2	0.00026584	0.00027317	1568.3	410.74	0.00026311	0.0002716	600.89	172.4	145.29	47.369	0.00026266	67.768	206.420	342.997	379.194	54.128	62.554	178.708	53.047	58.395	207.084	149.802	56.678	62.062	63.003	66.883	323.679	66.012	-8191	255	
2188.122	1	1	0	0	0.19486	0.15222	0.036335	0.29998	0.41749	0.30108	0.24017	0.15874	0.19565	0.20918	0.10226	0.24245	0.051727	0.076748	0.053592	0.41738	-1.4667	-1.9604	-1.1083	-2.2854	-1.5854	-1.5562	-2.5333	-1.4062	-1.7729	-2.0771	-1.3583	-2.3063	-1.8375	-1.4542	-2.1667	-1.4604	119.657	218.954	258.164	160.181	337.165	56.870	367.435	350.398	385.203	366.969	308.323	138.235	89.847	143.183	79.539	354.948	0.00036757	0.0015252	0.00092254	949.44	3.1595e-05	1.7252e-05	1161.7	259.45	2.7002e-05	4.5654e-05	342.08	93.359	67.436	20.435	1.2112e-05	31.349	0.020885	0.024572	0.0068229	1325.5	0.00026333	0.00027041	1552.7	405.91	0.00026116	0.00027023	598.06	171.62	145.37	47.424	0.00026432	68.127	202.440	142.400	361.942	53.620	222.888	70.273	53.046	58.736	267.922	64.476	57.078	61.676	63.128	67.718	248.980	65.625	-8191	255	
2188.219	1	1	0	0	0.069863	0.33445	0.0743	0.14824	0.086377	0.078828	0.18927	0.13832	0.14027	0.098531	0.121	0.11042	0.045933	0.034325	0.1415	0.13642	-1.2458	-2.0833	-1.0583	-2.1708	-1.7792	-1.4417	-2.4917	-1.5604	-1.8167	-2.1437	-1.125	-2.0479	-1.9292	-1.3958	-2.1562	-1.4875	111.713	76.127	346.049	125.818	204.862	298.156	360.558	251.558	184.751	230.923	95.650	246.312	271.906	70.517	169.194	391.653	0.00035044	0.0012794	0.0010659	955.98	2.6688e-05	1.8149e-05	1158.3	259.27	2.4801e-05	5.5718e-05	343.46	95.329	68.405	20.822	9.0531e-06	31.327	0.021132	0.024753	0.0068364	1325	0.00026344	0.00027039	1556.6	406.79	0.00026272	0.00027206	602.04	173.22	146.99	47.996	0.00026731	68.892	207.555	175.238	151.242	53.502	289.391	333.521	53.070	58.257	83.577	204.010	57.032	62.079	62.885	66.770	193.609	65.524	-8191	255	
2188.339	1	1	0	0	0.13254	0.18665	0.26451	0.14189	0.17444	0.087842	0.22534	0.29161	0.016378	0.22481	0.14419	0.24736	0.054634	0.17368	0.054825	0.11689	-1.1396	-2.0646	-1.2729	-2.1167	-1.7979	-1.2396	-2.1333	-1.5729	-1.5292	-2.2646	-1.4208	-1.9146	-1.9062	-1.2333	-2	-1.625	185.281	202.590	59.276	367.053	265.224	192.947	395.712	333.647	328.058	355.021	369.764	295.462	313.413	391.146	166.832	242.207	0.00035636	0.0010464	0.00068799	957.22	1.1266e-05	2.1604e-05	1169.6	264.36	2.0417e-05	1.8959e-05	348.34	95.821	68.226	21.007	2.4698e-05	31.397	0.02156	0.0252	0.0069451	1341.8	0.00027007	0.00027584	1574.2	413.57	0.00026685	0.00027438	610.13	175.4	148.59	48.41	0.00026827	69.44	149.211	189.324	299.519	53.651	242.946	103.485	52.960	58.308	60.859	346.341	56.946	61.736	62.399	66.790	156.513	64.933	-8191	255	
2188.435	1	1	0	0	0.083385	0.12694	0.12768	0.20462	0.19667	0.17291	0.31292	0.1532	0.25547	0.16082	0.097852	0.2062	0.27755	0.06099	0.23977	0.028346	-1.0458	-2.1021	-1.3479	-2.0312	-2.0792	-1.3708	-2.1833	-1.8625	-1.2167	-2.3583	-1.6958	-1.6729	-2.2104	-1.3229	-1.8937	-1.9813	129.289	344.559	258.150	357.767	48.502	220.771	369.388	268.178	314.720	289.937	384.469	324.822	68.211	361.079	225.766	379.080	0.00048839	0.0033593	0.0015356	966.04	2.2772e-05	9.3266e-06	1163	262.94	1.2499e-05	2.5509e-05	346.53	95.137	68.666	20.861	1.8294e-05	31.661	0.021588	0.025055	0.0069651	1345.5	0.00026907	0.00027375	1569.9	413.4	0.00026691	0.00027184	606.17	174.44	147.71	48.074	0.0002658	69.074	238.478	233.156	62.723	53.537	284.419	372.763	53.088	58.776	98.843	264.191	56.974	61.667	61.594	67.094	165.633	65.551	-8191	255	
2188.531	1	1	0	0	0.31211	0.16908	0.21218	0.018716	0.095642	0.20151	0.20188	0.1818	0.11173	0.088819	0.043615	0.17046	0.19758	0.19308	0.19021	0.090238	-0.93333	-2.2	-1.5042	-1.7563	-2.2375	-1.4125	-2.3375	-1.8854	-1.3583	-2.3187	-1.6979	-1.6042	-2.1729	-1.3104	-1.9188	-2.0375	307.741	89.506	110.930	64.930	281.220	344.515	335.263	353.967	122.321	50.932	299.469	315.224	361.599	397.195	356.642	393.613	0.00028815	0.0039105	0.00083124	941.96	1.8004e-05	2.771e-05	1161.2	260.16	1.2482e-05	3.2899e-05	341.65	94.456	67.547	20.581	1.9126e-05	31.017	0.021431	0.024747	0.0068988	1332.1	0.00026584	0.0002706	1556.8	407.96	0.00026396	0.0002687	600.55	173.1	146.27	47.716	0.00026423	68.638	219.262	44.337	113.794	53.579	156.993	293.248	53.140	58.252	75.453	343.371	56.677	61.862	62.874	67.078	259.497	65.438	-8191	255	
2188.628	1	1	0	0	0.067579	0.15597	0.32571	0.22333	0.11445	0.13388	0.28635	0.17035	0.17028	0.032269	0.15692	0.24465	0.14835	0.03021	0.030551	0.13837	-1.0479	-2.1292	-1.4958	-1.6938	-2.15	-1.5312	-1.9542	-2.1083	-1.2458	-2.0875	-1.6437	-1.5479	-2.1042	-1.3875	-1.8083	-1.9062	325.464	370.746	155.762	361.924	122.025	331.457	388.497	47.588	214.389	307.121	297.021	103.933	372.935	298.770	162.729	185.052	8.4519e-05	0.0018963	0.00096736	948.96	3.046e-06	1.0875e-05	1155.9	260.73	9.3407e-06	1.6921e-05	344.81	93.906	68.22	20.678	3.3944e-06	31.061	0.021406	0.024774	0.0069284	1334.2	0.00026801	0.00027574	1563.6	411.57	0.0002685	0.00027142	604.37	173.17	145.49	47.153	0.00025951	67.746	147.709	366.814	154.029	53.320	99.612	206.043	52.945	58.000	392.601	342.404	56.838	62.060	62.290	66.794	261.113	65.515	-8191	255	
2188.724	1	1	0	0	0.25061	0.24398	0.07015	0.32648	0.17271	0.041955	0.23438	0.26024	0.16157	0.08577	0.14606	0.019723	0.18203	0.25995	0.19647	0.053778	-0.95	-2.0187	-1.7125	-1.5479	-2.25	-1.3188	-1.9104	-2.2021	-1.1833	-2.0458	-2.15	-1.2229	-2.3521	-1.2938	-1.7437	-2.1854	242.267	323.139	257.851	393.514	107.936	268.408	317.884	283.643	92.941	319.973	364.991	246.817	334.964	352.169	169.481	271.738	9.0866e-05	0.0014203	0.00049241	947.68	5.4868e-06	8.5378e-06	1166.2	263.59	1.9667e-06	2.1747e-05	348.81	94.836	68.23	20.781	1.389e-06	31.494	0.020771	0.023908	0.0067143	1323.1	0.000259	0.00026564	1558.4	409.43	0.00026205	0.00026906	606.48	174.02	146.33	47.755	0.00026448	68.505	75.275	237.688	216.594	53.578	300.056	325.690	53.142	58.655	299.778	281.251	56.181	61.772	62.487	67.314	279.759	65.644	-8191	255	
2188.820	1	1	0	0	0.43004	0.25842	0.12277	0.073351	0.29188	0.37712	0.14063	0.31137	0.10538	0.30346	0.055321	0.11612	0.30051	0.17629	0.26918	0.10498	-0.75833	-1.875	-1.9646	-1.275	-2.1813	-1.4417	-1.6458	-2.3896	-1.3458	-1.8521	-2.1354	-1.3	-2.2833	-1.6104	-1.2854	-2.2687	305.913	55.071	382.159	321.033	181.856	162.428	350.566	353.246	162.312	251.904	321.095	143.674	350.980	58.511	306.944	217.625	0.0002483	0.0013698	0.00038582	960.47	2.6186e-05	5.8677e-06	1177	264.96	2.0522e-05	3.0488e-05	348.55	96.951	69.007	20.939	8.4877e-06	31.576	0.020989	0.024175	0.0067216	1326.4	0.00025521	0.00026207	1560.5	408.12	0.00025563	0.00025941	598.37	171.26	143.1	46.688	0.00025413	66.873	203.296	381.128	115.432	53.288	321.565	149.806	53.358	58.372	150.803	231.603	57.226	61.843	62.654	67.908	253.790	65.405	-8191	255	
2188.941	1	1	0	0	0.13633	0.33878	0.10886	0.23951	0.048645	0.10778	0.38425	0.18889	0.077475	0.1519	0.27932	0.21313	0.072306	0.091732	0.16982	0.27694	-0.7	-1.8417	-1.85	-1.5187	-2.0354	-1.8062	-1.6313	-2.3292	-1.4188	-1.9458	-2.3229	-1.3521	-2.1688	-1.775	-1.3354	-2.3417	370.309	290.650	198.065	343.892	346.189	41.385	318.859	43.441	43.150	370.325	77.603	281.580	348.372	167.425	132.814	371.016	0.00034062	0.001228	0.0015077	961.54	1.4191e-05	9.9609e-07	1175	263.65	1.4153e-05	9.8787e-06	344.7	94.254	67.468	20.837	1.1794e-05	31.188	0.020123	0.023324	0.0065285	1315.1	0.00024734	0.00025457	1541.6	400.02	0.00024601	0.00025253	588.43	168.22	141.08	46.263	0.00025232	66.328	148.536	205.416	178.890	53.636	279.021	380.411	53.523	58.361	135.868	145.982	56.981	61.389	63.540	67.346	380.293	65.880	-8191	255	
2189.035	1	1	0	0	0.22253	0.046756	0.1367	0.24118	0.31253	0.091402	0.37014	0.064445	0.3438	0.15305	0.19674	0.28677	0.23792	0.29224	0.19454	0.12937	-1.0438	-1.8417	-2.0333	-1.3979	-2.175	-1.9375	-1.6396	-2.2062	-1.5521	-1.6938	-2.2604	-1.2667	-1.9667	-2.1333	-1.2667	-2.3417	293.254	71.202	202.257	333.983	309.899	245.888	344.207	221.724	367.617	149.695	382.104	49.762	153.697	89.552	210.526	77.594	0.00017412	0.0054363	0.0003929	949.02	1.5004e-05	4.7308e-05	1158.5	260.09	1.6077e-05	2.7716e-05	345.01	94.623	68.135	20.371	4.2259e-05	31.261	0.020209	0.023596	0.0066102	1314.4	0.00025401	0.00026466	1547.8	403.96	0.00025672	0.00026432	597.44	171.76	144.68	47.527	0.00026316	67.983	229.788	146.269	223.930	53.474	260.877	154.328	53.062	58.232	292.913	164.406	57.134	61.873	62.557	67.297	283.300	65.825	-8191	255	
2189.131	1	1	0	0	0.21012	0.1277	0.063824	0.37507	0.13357	0.24475	0.18306	0.19315	0.1396	0.3459	0.36066	0.37617	0.17203	0.27407	0.24359	0.10022	-1.4417	-1.3875	-2.1833	-1.3271	-1.8625	-2.0854	-1.5229	-2.1229	-1.7917	-1.4604	-2.5375	-1.3563	-1.9	-2.0042	-1.1646	-2.1625	299.290	53.620	92.894	399.200	93.887	217.211	292.393	357.628	119.751	377.940	226.464	376.475	347.144	117.512	238.285	105.500	0.00039066	0.0025957	0.0015849	945.4	8.9757e-06	2.5817e-05	1157.4	259.98	4.7153e-06	2.6883e-05	344.89	94.491	67.883	20.722	4.4514e-06	31.336	0.021192	0.024655	0.0068901	1326.8	0.00026414	0.00027321	1561.2	408.21	0.00026512	0.00027332	606.91	174.42	147.49	48.539	0.00027123	69.246	143.203	212.116	50.492	53.520	152.278	208.060	53.586	58.158	354.863	199.126	56.587	61.758	61.933	66.749	97.744	65.546	-8191	255	
2189.203	1	1	0	0	0.2409	0.20962	0.049143	0.15904	0.32892	0.15767	0.33133	0.3157	0.10881	0.39282	0.38206	0.21374	0.27534	0.19707	0.042197	0.02216	-1.1646	-1.325	-2.1125	-1.5312	-1.8062	-2.1396	-1.3833	-2.1854	-1.9292	-1.1479	-2.1083	-1.5688	-1.6292	-2.3187	-1.2375	-2.0417	120.871	381.778	125.441	307.776	281.942	145.508	90.535	382.285	177.466	362.322	79.555	248.435	69.657	383.531	254.321	220.351	0.00015549	0.0011971	0.00043655	954.37	1.0872e-05	3.0357e-05	1172	264.18	1.9969e-05	7.7485e-06	347.87	95.863	68.756	21.185	2.8345e-05	31.904	0.021801	0.025394	0.007001	1341.6	0.000268	0.0002752	1569.3	409.53	0.00026307	0.00026635	598.93	171.97	144.58	47.054	0.00025636	67.063	264.702	132.865	212.035	53.440	50.191	392.980	53.004	58.122	299.931	146.687	57.246	62.194	62.302	66.913	229.303	65.393	-8191	255	
2189.301	1	1	0	0	0.034693	0.098424	0.21249	0.095664	0.21593	0.26752	0.26433	0.17049	0.14977	0.10564	0.14369	0.17412	0.13169	0.18371	0.075518	0.31862	-1.5562	-1.4375	-1.9562	-1.6479	-1.7021	-2.1417	-1.5646	-1.975	-1.9271	-1.2354	-2.2167	-1.6875	-1.5229	-2.2625	-1.4562	-1.9688	306.153	124.533	355.638	59.063	61.033	287.825	358.206	304.743	238.430	134.725	353.784	84.258	346.707	161.739	369.690	272.482	5.1821e-05	0.00096984	0.00028106	959.1	8.4412e-06	2.6653e-05	1169.1	264.45	4.7684e-05	2.9117e-05	345.99	94.813	68.615	20.754	1.0525e-05	31.612	0.0206	0.023762	0.0065505	1321.7	0.00025255	0.00025754	1545.7	402.34	0.00025179	0.00025675	588.91	169.83	142.98	46.547	0.00025477	67.16	293.827	43.612	166.873	53.637	222.136	298.217	53.135	58.727	200.878	263.904	57.311	61.529	63.053	67.358	140.172	65.832	-8191	255	
2189.420	1	1	0	0	0.18809	0.19988	0.1484	0.17442	0.093445	0.16333	0.19969	0.2037	0.22495	0.1246	0.12093	0.35828	0.30423	0.13199	0.12863	0.2275	-1.7042	-1.4125	-2.1271	-1.8542	-1.5333	-2.1417	-1.65	-1.925	-2.3271	-1.0875	-2.2354	-1.8354	-1.2583	-2.1937	-1.2375	-1.7833	193.375	77.156	300.075	116.995	97.749	367.831	73.718	59.382	218.712	358.724	53.437	301.767	307.307	98.714	144.558	52.751	0.00050945	0.0039566	0.00013822	950.84	4.572e-06	9.1612e-06	1156	261.59	4.1351e-06	3.2388e-05	345	94.218	68.244	20.626	2.0051e-05	31.299	0.020759	0.024077	0.0066514	1324.6	0.00025985	0.000265	1554	406.78	0.00026092	0.00026685	597.99	172.79	145.25	47.157	0.00026128	67.653	138.133	168.300	288.756	53.606	187.219	378.644	53.064	58.762	74.201	303.578	57.094	61.655	62.734	66.905	186.635	65.443	-8191	255	
2189.516	1	1	0	0	0.18911	0.19494	0.15734	0.082324	0.12855	0.12924	0.070242	0.070902	0.11147	0.15061	0.23754	0.18402	0.05814	0.076389	0.14382	0.066416	-1.6917	-1.0167	-2.0271	-2.0687	-1.2792	-2.0458	-1.6313	-1.5875	-2.0583	-1.3896	-2.1937	-2.0354	-1.2208	-2.1583	-1.8458	-1.5208	384.241	201.898	343.339	352.451	103.684	110.096	135.909	347.857	361.869	351.161	366.625	124.811	279.477	65.360	308.715	136.697	0.00044459	0.0020268	0.00029439	949.55	3.1925e-05	2.6551e-05	1168.5	262.5	1.0911e-05	2.208e-05	347.43	94.968	69.083	20.556	3.7761e-05	31.357	0.02085	0.024028	0.0066087	1318.3	0.00025578	0.00025993	1546.5	403.81	0.00025532	0.00025921	592.63	170.63	143.53	46.444	0.00025472	66.91	163.910	112.738	136.122	53.418	187.306	296.324	53.504	58.153	294.396	141.097	57.330	62.256	63.096	67.270	130.172	65.982	-8191	255	
2189.612	1	1	0	0	0.50596	0.15578	0.34459	0.2261	0.09409	0.14491	0.26654	0.28731	0.082796	0.27954	0.11317	0.21256	0.21004	0.14687	0.17524	0.19586	-1.8479	-1.3271	-1.7083	-2.2271	-1.3583	-2.2854	-2.0438	-1.4125	-2.0625	-1.4354	-1.8833	-2.1396	-1.3271	-2.1625	-1.8813	-1.4958	212.756	170.418	295.467	106.536	71.290	291.927	366.476	389.614	318.143	376.827	53.603	57.932	331.660	43.625	373.531	240.835	0.00049745	0.0019848	0.00040152	958.69	1.2901e-05	9.9722e-06	1173.9	265.82	1.123e-05	1.2233e-05	349.51	95.744	69.025	21.115	6.5154e-06	31.41	0.020429	0.023717	0.0066104	1326.4	0.00025744	0.0002629	1563.2	409.95	0.00025909	0.00026453	601.01	172.94	145.12	46.973	0.00025769	67.362	199.997	101.113	282.334	53.783	217.262	308.411	52.940	57.887	186.432	382.218	57.020	62.423	62.774	67.078	374.739	65.371	-8191	255	
2189.732	1	1	0	0	0.051462	0.087059	0.16641	0.2412	0.11965	0.27074	0.3212	0.10343	0.25316	0.2461	0.20536	0.093497	0.12865	0.07271	0.17682	0.032272	-1.7437	-1.5604	-1.7021	-2.0917	-1.2042	-2.0542	-2.1229	-1.5833	-2.2792	-1.4354	-1.9167	-1.9708	-1.4042	-2.05	-1.8042	-1.35	115.057	186.618	383.352	81.048	375.853	122.932	375.723	332.894	336.272	395.840	399.044	366.310	260.972	339.066	46.222	116.071	0.00040543	0.0032753	0.00028546	962.7	3.7502e-05	2.8049e-05	1180.7	265.99	1.3667e-05	2.2748e-05	351.26	95.279	69.227	20.515	2.2936e-05	31.414	0.020361	0.02359	0.0065304	1323.5	0.00025088	0.00025572	1553.5	405.65	0.00024881	0.00025642	594.03	170.4	142.75	46.291	0.00025376	66.779	270.631	43.314	149.832	53.260	274.019	188.828	52.944	58.189	215.012	178.203	57.102	61.500	62.738	67.477	84.814	65.550	-8191	255	
2189.804	1	1	0	0	0.25922	0.21568	0.17512	0.10263	0.20731	0.096019	0.19584	0.33289	0.16681	0.10043	0.042366	0.02687	0.0068278	0.12007	0.16651	0.022023	-1.8042	-1.5354	-1.5417	-2.3812	-1.3604	-1.8021	-1.9625	-1.5104	-2.0896	-1.5542	-1.5167	-2.3083	-1.3937	-1.7563	-1.875	-1.3375	180.531	63.669	324.037	262.621	360.197	309.729	394.210	384.634	163.028	43.014	77.052	185.843	326.728	355.882	187.551	158.679	0.00024587	0.0020988	0.00075323	960.58	2.1672e-05	1.9171e-05	1168.7	260.63	1.8638e-05	2.1796e-05	341.92	93.8	68.083	20.791	1.4204e-05	30.971	0.02025	0.023794	0.0066455	1323.6	0.00025669	0.00026303	1553.6	404.82	0.00025371	0.00026094	592.74	169.14	142.07	46.157	0.00025453	66.066	168.835	99.611	217.088	53.374	196.769	191.524	53.095	58.419	175.380	381.453	57.240	61.581	62.756	67.485	190.428	65.324	-8191	255	
2189.900	1	1	0	0	0.13941	0.42689	0.34928	0.35594	0.10046	0.19704	0.31672	0.15692	0.14417	0.18629	0.10001	0.22918	0.1146	0.25469	0.23538	0.17894	-1.6292	-1.7875	-1.3604	-2.4604	-1.3708	-1.75	-2.3146	-1.3417	-2.1604	-1.8583	-1.5854	-2.2583	-1.4604	-1.7	-2.1479	-1.3646	364.712	54.959	55.707	389.048	261.535	348.572	345.568	336.272	108.043	228.629	334.282	302.636	382.483	142.630	139.682	379.855	0.000184	0.0033616	0.0010809	938.32	1.5789e-05	3.1557e-05	1157.5	257.75	1.2532e-05	2.5021e-05	343.02	92.408	67.077	20.03	3.9851e-05	30.566	0.020056	0.023447	0.0065374	1299.9	0.00024922	0.00025517	1523.9	394.98	0.00024467	0.00025352	581.77	166.57	140.77	46.121	0.00025655	66.614	187.781	364.205	369.909	53.876	177.395	293.406	52.972	58.350	80.920	344.098	56.554	61.786	62.767	67.578	210.399	66.277	-8191	255	
2190.021	1	1	0	0	0.21078	0.32356	0.20195	0.22838	0.032091	0.052347	0.29255	0.080736	0.024521	0.090035	0.11414	0.063442	0.038675	0.095806	0.23605	0.17075	-1.4042	-1.7771	-1.2708	-2.4062	-1.5875	-1.6063	-2.4125	-1.4229	-1.8396	-2.1042	-1.45	-2.45	-1.6854	-1.5979	-2.1021	-1.3937	110.034	317.340	343.677	53.510	149.637	135.705	327.729	269.890	214.932	143.395	121.703	312.659	340.162	228.594	202.567	376.474	0.00044656	0.0012441	0.00040342	944.46	3.3226e-05	1.7336e-05	1153.6	261.31	2.0788e-05	2.0381e-05	344.09	93.91	67.603	20.492	1.8722e-05	30.729	0.020733	0.024552	0.0068426	1322.7	0.00026673	0.00027532	1565.7	410.38	0.00026792	0.000278	607.81	173.87	146.9	47.933	0.00026913	68.718	191.592	276.471	224.657	53.605	178.017	266.843	52.911	58.646	349.740	266.221	56.771	61.670	63.035	66.963	149.794	65.232	-8191	255	
2190.115	1	1	0	0	0.19817	0.11958	0.13025	0.13773	0.19237	0.069616	0.15586	0.23542	0.049348	0.02281	0.1517	0.16445	0.12887	0.2691	0.11762	0.1259	-1.5104	-2.0312	-1.3729	-2.2104	-1.6208	-1.3563	-2.3937	-1.4083	-1.8563	-2.2417	-1.3708	-2.125	-1.7042	-1.3854	-2.0396	-1.4438	365.420	254.362	153.019	376.282	56.152	224.505	98.354	377.102	384.255	266.258	258.018	361.063	215.047	396.587	336.638	336.964	5.4802e-05	0.00098083	0.000276	940.81	3.215e-05	1.5202e-05	1152.3	258.32	1.8072e-05	1.558e-05	340.81	93.447	67.302	20.569	4.6344e-06	30.981	0.021629	0.02543	0.0070556	1333.3	0.00027492	0.00028288	1573.5	413.11	0.00027615	0.00028819	617.1	176.78	150.28	49.156	0.00028142	70.855	227.898	85.312	339.421	53.359	182.127	377.062	52.960	58.180	142.103	373.384	57.125	62.459	62.688	66.885	302.294	65.493	-8191	255	
2190.211	1	1	0	0	0.16818	0.079916	0.28993	0.30321	0.18035	0.31025	0.18609	0.28926	0.18833	0.15535	0.12431	0.0577	0.12847	0.36141	0.16297	0.14399	-1.2896	-2.0771	-1.1583	-2.1417	-1.7604	-1.1938	-2.1979	-1.3771	-1.7021	-2.2854	-1.4396	-1.8729	-2.1292	-1.3146	-2.1792	-1.7083	174.787	213.386	339.273	355.556	192.249	147.226	73.024	378.392	115.668	268.441	326.579	82.447	284.181	323.185	318.141	262.840	0.00064101	0.002419	0.0012584	942.82	7.9974e-06	3.3719e-05	1161.6	258.16	3.0601e-05	1.1755e-05	342.93	94.069	67.562	20.394	2.8357e-05	31.119	0.022725	0.026544	0.0073251	1351.5	0.00028603	0.00029326	1594.1	419.98	0.00028711	0.00029585	626.96	180.02	153.48	50.209	0.00029012	71.968	159.089	226.605	214.679	53.897	181.783	107.510	53.043	57.824	180.755	91.872	56.918	62.154	62.480	67.178	80.349	65.535	-8191	255	
2190.308	1	1	0	0	0.16398	0.31359	0.14642	0.085098	0.19447	0.22682	0.15176	0.11408	0.09208	0.22032	0.12297	0.10152	0.18546	0.34595	0.117	0.080518	-1.3083	-2.25	-1.275	-2.1875	-1.9542	-1.4479	-2.1771	-1.6938	-1.425	-2.3187	-1.4312	-1.8375	-1.9271	-1.3729	-2.1542	-1.6125	95.464	56.267	319.010	258.299	98.872	206.021	277.258	320.951	390.399	244.256	333.590	167.599	238.444	167.409	182.006	324.378	0.00024709	0.0017106	9.7957e-05	942.82	1.7125e-05	2.2282e-05	1148.8	255.41	1.0903e-05	2.7275e-05	335.86	93.228	67.075	20.123	3.6109e-05	30.815	0.023288	0.027094	0.0074796	1356.1	0.00028933	0.00029529	1585.1	418.12	0.00028662	0.000294	620.1	179.4	153.13	49.941	0.00028819	71.579	179.794	235.584	84.823	53.700	86.133	287.969	53.309	58.418	198.103	140.255	57.019	61.900	63.268	66.740	161.808	65.825	-8191	255	
2190.428	1	1	0	0	0.010334	0.2463	0.22139	0.3176	0.099643	0.12071	0.5449	0.10793	0.25813	0.11864	0.21237	0.064004	0.29386	0.19757	0.35407	0.2149	-1.0063	-2.0417	-1.2812	-1.7979	-2.175	-1.3125	-2.1083	-1.8875	-1.475	-2.3104	-1.8375	-1.7604	-2.2083	-1.2375	-1.8604	-2.0708	271.795	45.964	398.453	285.038	387.451	91.291	298.185	288.570	283.033	133.793	108.161	368.495	377.807	321.786	183.447	319.332	0.00026509	0.00081753	0.00057977	933.64	3.3363e-05	4.0786e-05	1148	255.19	2.0389e-05	1.389e-05	337.06	93.016	66.805	20.283	8.09e-06	30.717	0.023283	0.026913	0.0074876	1355.7	0.00029012	0.00029477	1584.3	417.63	0.00028433	0.00028838	615.59	176.67	150.24	48.939	0.00027963	70.379	179.573	284.408	183.530	53.996	164.561	148.794	52.952	58.168	195.268	257.335	56.830	62.351	62.299	67.298	170.145	66.188	-8191	255	
2190.500	1	1	0	0	0.07361	0.050162	0.12056	0.3084	0.13596	0.12319	0.30743	0.12989	0.15261	0.21803	0.15342	0.3589	0.10933	0.075048	0.10523	0.27348	-0.80833	-2.2729	-1.4708	-1.7	-2.2521	-1.4396	-2.2667	-1.9979	-1.0833	-2.3063	-1.8188	-1.6	-2.2229	-1.1938	-1.7958	-2.0646	279.181	195.773	314.270	368.534	374.457	95.022	307.708	97.365	89.052	74.519	300.405	381.022	390.082	298.815	243.290	357.230	0.00032911	0.002803	0.00021269	945.53	1.8149e-05	1.3986e-05	1157.6	257.28	2.4706e-05	2.4965e-05	340.58	94.248	66.796	20.537	9.3842e-06	31.34	0.02262	0.026226	0.0073181	1353	0.00028415	0.00028885	1588.3	417.67	0.00028004	0.00028445	615.69	177.42	149.54	48.732	0.00027499	70.167	124.243	52.328	321.347	53.444	267.952	181.144	53.297	58.152	274.524	54.733	56.789	62.770	62.608	66.832	134.054	65.476	-8191	255	
2190.596	1	1	0	0	0.1434	0.13549	0.15296	0.11643	0.21591	0.19529	0.20003	0.12424	0.13926	0.20378	0.23828	0.18595	0.13597	0.30133	0.30761	0.29344	-0.87083	-2.2021	-1.6229	-1.55	-2.175	-1.35	-1.8146	-2.1667	-1.3375	-2.0292	-1.7458	-1.2896	-2.3708	-1.2958	-1.7521	-2.3604	275.952	64.556	76.628	353.019	199.729	211.579	337.725	205.767	211.095	283.167	374.715	55.519	365.971	100.685	181.281	272.580	0.00029949	0.0019512	0.00028006	947.64	7.4236e-06	9.8694e-06	1173.3	258.43	1.1975e-05	4.6744e-05	343.83	95.251	67.312	20.68	1.5115e-05	31.65	0.022045	0.025562	0.0071796	1349.1	0.00027761	0.00028606	1595.6	419.7	0.00028407	0.00029135	629.63	181.51	153.75	50.386	0.00029128	72.63	136.069	352.726	234.834	53.632	316.137	358.986	53.418	58.269	389.118	146.131	56.818	62.020	62.664	67.134	222.513	65.392	-8191	255	
2190.717	1	1	0	0	0.032111	0.072496	0.054629	0.167	0.10933	0.35829	0.32663	0.088316	0.084588	0.39838	0.1691	0.17206	0.20516	0.32375	0.33774	0.1695	-0.93333	-2.1312	-1.8125	-1.5458	-2.2229	-1.5375	-1.7896	-2.2125	-1.3958	-1.8958	-1.9062	-1.3146	-2.3375	-1.6812	-1.4813	-2.4188	301.158	327.585	64.248	148.607	44.896	379.613	44.547	374.753	331.924	341.024	353.399	149.167	302.651	377.830	372.558	378.374	0.00024688	0.0045618	0.00076265	948	5.8378e-06	2.392e-05	1167.8	256.47	2.942e-05	3.0578e-05	341.03	93.688	67.025	20.724	4.0863e-05	31.03	0.023357	0.026954	0.0075867	1372.8	0.00028939	0.00029627	1609.5	422.36	0.00028743	0.00029245	626.61	179.45	151.64	49.567	0.00028413	70.695	240.642	130.204	132.529	53.850	210.834	224.003	53.374	58.356	160.456	369.520	57.570	62.206	64.209	67.652	183.255	65.980	-8191	255	
2190.813	1	1	0	0	0.52963	0.15087	0.12012	0.35545	0.088845	0.15327	0.22115	0.27136	0.10849	0.11024	0.20941	0.13579	0.15262	0.19153	0.16856	0.10229	-0.93958	-1.8375	-2.0333	-1.3833	-2.1958	-1.7854	-1.6021	-2.2562	-1.4688	-1.8667	-2.1979	-1.3271	-1.9896	-1.9188	-1.3021	-2.2354	87.218	172.896	95.956	43.708	198.518	372.583	303.343	340.037	194.982	344.421	289.793	52.672	322.676	101.516	200.957	269.100	7.5676e-05	0.0018299	0.0007293	944.43	1.4966e-05	5.3028e-05	1150.5	258.12	4.0206e-06	2.5592e-05	339.19	93.776	66.763	20.535	1.3547e-05	31.184	0.022541	0.026131	0.007365	1351.6	0.00027882	0.00028817	1585	415.56	0.00027996	0.00028603	617.26	177.25	149.98	49.422	0.00028252	70.587	223.582	233.285	165.605	53.626	313.640	139.795	53.294	58.301	330.641	184.119	57.142	62.598	62.932	67.675	292.118	66.269	-8191	255	
2190.907	1	1	0	0	0.26381	0.074184	0.067095	0.12452	0.18291	0.27747	0.23377	0.088568	0.12289	0.33865	0.094665	0.23993	0.15656	0.35681	0.10391	0.023969	-0.95625	-1.875	-2.1292	-1.4729	-2.0938	-1.8875	-1.5312	-2.2417	-1.35	-1.8708	-2.0125	-1.3125	-2.0146	-1.9792	-1.3417	-2.1771	286.310	50.276	265.965	306.234	266.010	105.844	205.670	175.686	155.374	51.172	294.773	355.082	341.772	145.898	144.690	52.995	0.00017236	0.002558	0.00043351	940.61	5.1718e-06	9.8196e-06	1161.1	261.21	1.4152e-05	2.1944e-05	342.32	94.34	68.437	20.629	3.0986e-05	31.321	0.022469	0.026001	0.0072552	1344.9	0.00027553	0.00028317	1580.1	413.71	0.00027448	0.00028193	614.54	176.78	149.68	49.206	0.00027844	70.188	269.693	53.392	183.868	53.813	76.091	170.290	53.221	58.496	186.846	297.629	57.442	61.908	63.802	66.652	162.439	66.160	-8191	255	
2191.005	1	1	0	0	0.12464	0.097081	0.26264	0.21682	0.10142	0.1475	0.23204	0.16646	0.19498	0.078387	0.13628	0.13858	0.3418	0.15972	0.095544	0.1549	-1.1958	-1.6792	-1.9875	-1.4333	-1.8104	-1.9604	-1.4479	-2.3187	-1.4438	-1.5583	-2.4021	-1.4854	-2.05	-1.9792	-1.1917	-2.2958	383.110	268.859	154.594	305.994	93.050	123.160	332.123	164.005	321.599	61.215	373.535	255.674	382.993	129.158	61.202	233.331	0.00034247	0.0011635	0.00067204	955.13	2.1076e-05	1.8596e-05	1176.8	260.1	8.6845e-06	1.5436e-05	345.98	95.427	68.855	20.905	2.4853e-05	31.573	0.022286	0.025867	0.0071814	1351.1	0.00027371	0.00028176	1589.9	413.47	0.00027182	0.00027882	612.3	175.89	148.09	48.438	0.00026964	69.085	201.863	225.421	209.285	53.849	304.062	173.737	53.510	58.454	137.665	275.199	56.758	62.246	63.450	67.674	378.743	66.172	-8191	255	
2191.100	1	1	0	0	0.12157	0.099518	0.094947	0.27393	0.21774	0.079037	0.28086	0.095405	0.12326	0.19182	0.27084	0.067213	0.23497	0.20645	0.13921	0.20645	-1.2979	-1.225	-1.9562	-1.6583	-1.6396	-2.2104	-1.4083	-2.2083	-1.7208	-1.4667	-2.3063	-1.2271	-1.7917	-2.1583	-1.2771	-1.9292	359.469	319.539	222.759	321.664	55.557	216.895	41.507	331.357	102.190	90.696	260.282	359.272	57.810	380.063	118.711	49.035	0.00020814	0.001024	0.00097678	957.93	1.1456e-05	1.5029e-05	1174.6	262.18	8.223e-06	3.8733e-05	344.63	93.842	68.334	20.952	2.3701e-05	31.272	0.02147	0.024915	0.0068701	1336.5	0.00026474	0.00027323	1574.2	409.43	0.00026659	0.00027315	606.44	173.33	145.94	47.627	0.00026074	67.393	171.153	155.144	320.523	53.481	139.152	211.457	53.444	58.401	45.911	273.459	57.384	61.873	63.445	67.145	172.776	65.629	-8191	255	
2191.196	1	1	0	0	0.05318	0.090849	0.21037	0.31603	0.2386	0.26814	0.1916	0.076149	0.1311	0.11218	0.1801	0.37615	0.17788	0.034704	0.034354	0.014465	-1.4542	-1.4104	-2.1375	-1.7646	-1.5812	-2.1292	-1.4979	-2.0479	-1.9562	-1.2958	-2.3896	-1.4729	-1.6063	-2.2625	-1.2396	-2.0458	318.620	144.537	220.116	347.868	303.621	205.023	332.056	91.471	396.134	168.723	309.454	359.426	340.843	54.926	310.349	282.786	0.00037177	0.0017124	0.00060687	948.84	2.4367e-05	1.671e-05	1159.9	259.17	1.8985e-05	4.4611e-05	344.88	93.347	67.054	20.733	2.1345e-05	31.049	0.02074	0.024	0.0066182	1312.6	0.00025565	0.00026134	1541.4	400.24	0.00025522	0.00025993	589.26	169.37	142.21	46.451	0.00025227	66.02	188.770	66.185	187.751	53.409	199.840	116.980	53.307	58.686	141.851	398.514	57.929	62.167	63.637	67.087	245.174	65.857	-8191	255	
2191.292	1	1	0	0	0.034381	0.25353	0.15673	0.17283	0.27392	0.19286	0.22208	0.10953	0.031088	0.15369	0.1675	0.10076	0.046034	0.38213	0.30532	0.22377	-1.6354	-1.3875	-2.1271	-1.6625	-1.5271	-2.1042	-1.6125	-1.8354	-2.1521	-1.3021	-2.1708	-1.9062	-1.3167	-2.375	-1.2771	-1.9104	366.525	91.231	367.718	366.250	169.274	301.299	372.534	321.133	317.096	63.241	124.035	329.879	224.240	391.952	240.187	177.275	0.00026506	0.00166	0.00059979	943.99	2.0026e-05	2.1888e-05	1158.9	260.23	1.8015e-05	1.0106e-05	343.5	94.76	68.243	20.822	2.5078e-05	31.204	0.02027	0.023419	0.0064783	1304.6	0.00025121	0.0002584	1536.8	399.56	0.00025106	0.00025662	586.53	169.03	141.82	46.271	0.00025297	66.979	254.418	79.142	146.722	53.882	136.331	43.171	53.643	59.199	288.049	280.508	57.763	61.831	62.935	67.506	207.767	66.513	-8191	255	
2191.388	1	1	0	0	0.20373	0.12543	0.21146	0.20111	0.16123	0.073818	0.35827	0.21858	0.073328	0.29403	0.34701	0.17414	0.05377	0.18502	0.14356	0.26999	-1.7771	-1.3062	-1.9833	-1.9438	-1.3875	-2.2396	-1.7708	-1.8417	-2.1562	-1.4521	-2.1688	-2.0521	-1.3625	-2.3063	-1.5167	-1.5812	309.756	159.515	338.696	148.535	123.209	277.979	346.891	365.427	396.972	231.444	52.496	381.440	108.254	112.241	193.060	328.099	0.00032838	0.001981	7.2427e-05	951.84	1.275e-05	4.0081e-05	1181.6	264.48	2.2281e-05	3.0946e-06	348.31	95.705	68.609	20.85	2.4841e-05	31.596	0.02056	0.023896	0.006604	1323.1	0.00025785	0.00026321	1562.8	407.03	0.00025754	0.00026281	598.44	171.73	144.35	46.928	0.00025595	67.48	220.661	112.320	345.878	53.783	342.059	383.277	53.168	58.813	89.568	321.349	57.369	62.167	63.702	67.165	153.903	66.426	-8191	255	
2191.509	1	1	0	0	0.22232	0.043454	0.074341	0.30448	0.22285	0.16184	0.12118	0.035387	0.15717	0.24833	0.2028	0.10556	0.31712	0.28429	0.19987	0.20678	-1.7437	-1.3792	-1.9542	-2.0479	-1.225	-2.2604	-1.7875	-1.5708	-2.3771	-1.1729	-2.0771	-2.0312	-1.475	-2.1375	-1.6063	-1.3375	41.602	143.652	80.919	226.139	183.110	70.242	43.058	108.941	123.310	219.624	327.054	196.926	338.449	294.798	87.624	325.836	0.00020026	0.002082	0.0002803	957.32	1.5762e-05	1.4723e-05	1178.1	265.75	6.315e-06	1.2629e-05	350.65	95.769	68.388	20.814	2.3041e-05	31.24	0.02054	0.023643	0.0065394	1323.2	0.00025302	0.00025699	1555.2	405.6	0.00024929	0.00025337	590.2	169.13	140.99	45.603	0.00024553	65.923	227.061	77.011	351.309	53.819	173.930	335.253	53.282	58.679	121.896	341.584	56.895	61.467	63.312	67.460	340.949	66.201	-8191	255	
2191.605	1	1	0	0	0.052959	0.052366	0.34288	0.23987	0.22187	0.18017	0.25562	0.099593	0.22579	0.25895	0.089652	0.18319	0.44876	0.30324	0.23509	0.11068	-1.7125	-1.4646	-1.8333	-2.1208	-1.175	-2.0417	-2.0125	-1.6146	-2.2729	-1.3458	-1.9729	-2.3917	-1.3125	-2.0667	-1.8	-1.425	97.967	229.598	331.105	375.337	113.448	302.208	316.659	70.568	175.818	115.885	347.963	357.775	168.932	68.542	244.944	394.177	0.00011976	0.0021584	0.00072493	957.42	1.7618e-05	1.224e-05	1167.4	261.25	1.168e-05	2.6717e-05	346.66	94.998	67.668	20.392	2.2074e-05	31.212	0.019549	0.022818	0.0063136	1303.4	0.00024302	0.00024795	1535	396.26	0.00024021	0.00024581	577.49	165.51	137.63	44.616	0.0002401	64.436	256.938	126.672	200.758	53.814	248.026	236.019	53.410	58.860	62.000	46.531	57.902	62.432	63.127	67.799	53.013	65.999	-8191	255	
2191.701	1	1	0	0	0.052986	0.25552	0.086801	0.25982	0.13747	0.26749	0.34609	0.11065	0.09733	0.10457	0.19561	0.30708	0.023341	0.36334	0.1633	0.44001	-1.9083	-1.3417	-1.6083	-2.2708	-1.2083	-2.0187	-2.0042	-1.3563	-2.175	-1.6542	-1.6396	-2.275	-1.2979	-1.9771	-1.8333	-1.2333	81.518	328.757	207.258	384.611	269.431	282.535	327.127	371.263	347.128	236.209	318.526	85.737	293.523	302.902	253.172	314.193	0.0004744	0.003166	0.00035855	947.95	2.1554e-05	3.6571e-05	1163.2	260.12	8.8008e-06	2.5218e-05	345.19	94.451	67.717	20.517	2.9835e-05	31.207	0.018951	0.022134	0.0061313	1284.8	0.00023561	0.0002408	1515.4	391.59	0.0002351	0.00024348	574.39	164.5	137.11	44.537	0.00023745	64	251.050	145.768	265.676	53.469	245.506	384.292	53.524	58.458	291.297	168.458	57.382	62.341	63.166	67.746	154.533	65.563	-8191	255	
2191.797	1	1	0	0	0.14193	0.036896	0.32155	0.19777	0.20169	0.47292	0.4029	0.22936	0.20877	0.25037	0.12774	0.28238	0.18545	0.068057	0.16391	0.077147	-1.7667	-1.7812	-1.3479	-2.2375	-1.2583	-1.6437	-2.1667	-1.2833	-2.0687	-1.7125	-1.5771	-2.1896	-1.45	-1.7604	-2.1688	-1.3354	224.674	166.570	340.868	399.818	257.106	93.146	349.879	306.428	125.939	82.120	255.611	353.840	71.989	49.138	92.202	276.038	0.00058571	0.0023149	0.00082454	949.65	1.0288e-05	9.7175e-06	1167	261.93	3.007e-06	7.2522e-06	347.03	95.715	68.787	20.925	9.2922e-06	31.878	0.018717	0.021892	0.0060794	1277.9	0.00023263	0.00023848	1517.3	390.6	0.00023321	0.0002406	577.32	164.79	137.68	44.687	0.00023696	64.421	228.499	163.586	143.099	53.931	140.450	100.723	53.566	58.711	282.068	181.013	57.551	62.436	62.965	66.666	158.070	66.120	-8191	255	
2191.893	1	1	0	0	0.28439	0.20012	0.084004	0.24618	0.30781	0.086226	0.27417	0.36267	0.10191	0.12349	0.12221	0.18082	0.2204	0.13375	0.16399	0.30383	-1.8542	-1.8042	-1.2604	-2.3396	-1.4021	-1.6979	-2.2729	-1.2104	-1.825	-1.7188	-1.3937	-2.2938	-1.575	-1.5292	-2.2562	-1.3354	142.558	189.267	228.223	241.747	316.580	166.187	379.219	400.383	204.282	388.294	365.618	229.031	43.899	342.115	373.685	197.590	0.00034921	0.0035454	0.00091055	955.49	1.257e-05	1.4335e-05	1172.6	263.75	2.3092e-05	2.841e-05	349.95	95.81	68.603	20.838	8.0996e-06	31.773	0.018802	0.021875	0.006042	1280.9	0.00023127	0.00023563	1515.9	390.07	0.00022654	0.00023472	570.38	163.36	136.18	44.066	0.00022905	63.389	184.282	148.472	99.315	54.147	380.173	92.775	53.505	58.955	204.943	329.414	57.460	62.110	62.958	67.189	350.039	66.517	-8191	255	
2191.989	1	1	0	0	0.22223	0.10978	0.13978	0.055734	0.20832	0.29939	0.19093	0.14434	0.052025	0.026013	0.20814	0.27996	0.15844	0.098158	0.090855	0.14423	-1.5521	-1.6938	-1.1375	-2.3667	-1.5312	-1.4917	-2.175	-1.5333	-1.9	-1.9792	-1.3438	-2.0563	-1.5896	-1.5167	-2.0833	-1.4917	344.701	41.132	212.621	303.558	288.751	255.355	377.681	398.500	184.409	297.765	365.275	96.603	386.958	95.721	183.852	244.941	0.00032969	0.0031536	0.00077235	962.57	9.787e-06	5.0654e-05	1176.1	263.01	2.3405e-05	1.6411e-05	348.27	95.728	68.895	20.674	8.2318e-06	31.444	0.018182	0.021294	0.0058492	1276	0.00022499	0.00023115	1509.9	387.5	0.0002257	0.00023245	567.03	162.02	135.27	43.844	0.00022708	62.999	207.622	137.086	169.350	54.471	249.297	163.158	53.543	59.060	360.070	377.227	57.441	63.003	62.979	67.700	119.951	66.169	-8191	255	
2192.108	1	1	0	0	0.14242	0.12764	0.2082	0.088096	0.17005	0.12748	0.22448	0.14064	0.17278	0.14126	0.092156	0.087944	0.32516	0.042463	0.16415	0.063529	-1.2979	-1.9667	-1.1521	-2.0812	-1.5833	-1.3375	-2.3396	-1.4667	-1.4771	-2.1792	-1.2083	-2.0604	-1.9229	-1.3792	-2.3104	-1.5104	247.379	69.073	230.849	293.909	391.715	305.625	341.198	71.436	175.571	197.067	61.463	301.927	45.213	131.799	236.369	384.913	0.00011356	0.0014375	0.0004693	952.76	3.5692e-05	4.9492e-06	1165.3	262.64	3.7752e-05	2.5842e-05	348.74	94.761	68.601	20.745	1.2511e-05	31.139	0.018256	0.021313	0.0059092	1271.4	0.00022764	0.00023297	1500.3	386.84	0.00022725	0.0002352	568.99	161.65	135.94	43.982	0.00022879	63.283	111.495	347.660	328.089	54.128	282.727	351.444	53.680	59.026	216.838	187.920	57.837	62.623	63.195	68.002	89.516	65.588	-8191	255	
2192.204	1	1	0	0	0.12236	0.1242	0.14861	0.21982	0.25082	0.29646	0.1763	0.27713	0.086015	0.22326	0.3468	0.25286	0.17314	0.47575	0.11719	0.092504	-1.4104	-2.0521	-1.4167	-2.075	-1.8396	-1.3646	-2.1188	-1.6625	-1.2604	-2.2021	-1.5417	-1.8917	-1.9271	-1.4083	-2.0938	-1.8312	322.715	392.812	397.801	314.499	97.073	89.196	251.566	363.527	250.598	370.469	182.993	269.957	202.557	387.873	209.546	321.138	0.00012453	0.0025903	0.00035403	952.19	1.2244e-05	2.4685e-05	1165.1	261.54	8.6145e-06	3.4912e-05	344.1	94.824	67.482	20.492	2.0936e-05	31.363	0.018329	0.021315	0.0059059	1271.3	0.00022762	0.00023199	1497.1	384.96	0.00022449	0.00023059	561.95	160.64	133.93	43.515	0.00022417	62.898	177.375	315.100	86.104	54.012	244.276	231.945	53.599	58.384	234.292	173.453	57.898	62.986	63.355	67.326	102.250	65.753	-8191	255	
2192.301	1	1	0	0	0.2447	0.098488	0.23763	0.21458	0.15492	0.18384	0.37632	0.077094	0.23394	0.28697	0.13795	0.088409	0.22795	0.13817	0.19849	0.16753	-1.0646	-2.1271	-1.4083	-1.9417	-2.0125	-1.2625	-2.2458	-1.7583	-1.4125	-2.2208	-1.2646	-1.4646	-2.1333	-1.15	-2.0708	-1.7917	175.417	145.837	337.124	53.820	313.772	68.072	358.834	206.407	242.541	125.248	203.160	167.489	117.582	342.747	245.498	78.178	0.00029047	0.0024412	0.00041091	953.64	2.03e-05	2.5322e-05	1170.4	262.08	1.0611e-05	2.3228e-05	347.27	95.561	67.475	20.771	1.1207e-05	31.178	0.018046	0.020986	0.0058184	1270.4	0.00022625	0.00022939	1501.6	386.53	0.00022329	0.00022814	563.14	161.34	133.98	43.493	0.00022263	63.038	222.001	218.151	125.119	53.822	393.810	156.044	53.396	58.845	116.729	105.120	57.511	62.410	62.981	67.445	252.768	65.862	-8191	255	
2192.397	1	1	0	0	0.35258	0.12724	0.09012	0.31027	0.055908	0.23753	0.24856	0.27812	0.13019	0.059924	0.052948	0.22469	0.19346	0.082851	0.15651	0.069246	-0.92917	-2.325	-1.5771	-1.5979	-2.1167	-1.175	-2.0667	-1.7938	-1.1562	-2.1333	-1.3583	-1.4646	-2.1396	-1.1313	-1.925	-2.2167	338.882	371.524	62.725	336.017	70.297	282.211	329.010	339.177	276.316	295.871	129.427	400.651	116.705	302.312	46.305	290.906	0.0004574	0.0021537	0.00023632	958.76	1.1883e-05	1.5816e-05	1187.6	264.53	9.6971e-06	2.5186e-05	349.78	95.586	68.364	20.987	3.4538e-05	31.692	0.018004	0.020796	0.0058132	1276.4	0.00022425	0.00022868	1512.1	388.42	0.00022319	0.00022787	566.75	162.3	135	43.73	0.00022622	63.457	209.736	110.387	88.579	53.997	130.160	94.273	53.636	58.820	73.796	175.629	57.329	62.302	63.447	67.070	249.302	65.708	-8191	255	
#DATA ENDS
