BOXY.EXE: ISS Imagent and Oximeter Data Acquisition Program Version 0.80
Ascii Record File

#ACQ INFORMATION
2  Detector Channels 
16  External MUX Channels 
1  Auxiliary Channels 
5000  Waveform (CCF) Frequency (Hz)
1  Waveforms Skipped 
30  Waveforms Averaged 
1  Cycles Averaged 
16  Acquisitions per Waveform 
10.0806  Updata Rate (Hz) 

#FILE INFORMATION
TRUE -- External MUX Channel results are PARSED.
FALSE -- AC DC and Phase are NOT grouped.
TRUE -- Companion Program Settings File CREATED.
FALSE -- AC data not excluded
FALSE -- DC data not excluded
FALSE -- Phase data not excluded
FALSE -- Auxillary Chn. data not excluded
Tab delimiters

#CALIBRATION STATE
TRUE -- Waveform Calibration Values APPLIED.


#AUX CALIBRATION VALUES
Val Type	aux-1	

Term	1.0000e+00	
Factor	0.0000e+00	


#WF CALIBRATION VALUES
A = Detector Channel
Val Type	A-AC1	A-AC2	A-AC3	A-AC4	A-AC5	A-AC6	A-AC7	A-AC8	A-AC9	A-AC10	A-AC11	A-AC12	A-AC13	A-AC14	A-AC15	A-AC16	A-DC1	A-DC2	A-DC3	A-DC4	A-DC5	A-DC6	A-DC7	A-DC8	A-DC9	A-DC10	A-DC11	A-DC12	A-DC13	A-DC14	A-DC15	A-DC16	A-Ph1	A-Ph2	A-Ph3	A-Ph4	A-Ph5	A-Ph6	A-Ph7	A-Ph8	A-Ph9	A-Ph10	A-Ph11	A-Ph12	A-Ph13	A-Ph14	A-Ph15	A-Ph16	

Term	0.00000e+00	0.00000e+00	0.00000e+00	0.00000e+00	0.00000e+00	0.00000e+00	0.00000e+00	0.00000e+00	0.00000e+00	0.00000e+00	0.00000e+00	0.00000e+00	0.00000e+00	0.00000e+00	0.00000e+00	0.00000e+00	0.00000e+00	0.00000e+00	0.00000e+00	0.00000e+00	0.00000e+00	0.00000e+00	0.00000e+00	0.00000e+00	0.00000e+00	0.00000e+00	0.00000e+00	0.00000e+00	0.00000e+00	0.00000e+00	0.00000e+00	0.00000e+00	0.00000e+00	0.00000e+00	0.00000e+00	0.00000e+00	0.00000e+00	0.00000e+00	0.00000e+00	0.00000e+00	0.00000e+00	0.00000e+00	0.00000e+00	0.00000e+00	0.00000e+00	0.00000e+00	0.00000e+00	0.00000e+00	
Factor	1.00000e+00	1.00000e+00	1.00000e+00	1.00000e+00	1.00000e+00	1.00000e+00	1.00000e+00	1.00000e+00	1.00000e+00	1.00000e+00	1.00000e+00	1.00000e+00	1.00000e+00	1.00000e+00	1.00000e+00	1.00000e+00	1.00000e+00	1.00000e+00	1.00000e+00	1.00000e+00	1.00000e+00	1.00000e+00	1.00000e+00	1.00000e+00	1.00000e+00	1.00000e+00	1.00000e+00	1.00000e+00	1.00000e+00	1.00000e+00	1.00000e+00	1.00000e+00	X	X	X	X	X	X	X	X	X	X	X	X	X	X	X	X	

B = Detector Channel
Val Type	B-AC1	B-AC2	B-AC3	B-AC4	B-AC5	B-AC6	B-AC7	B-AC8	B-AC9	B-AC10	B-AC11	B-AC12	B-AC13	B-AC14	B-AC15	B-AC16	B-DC1	B-DC2	B-DC3	B-DC4	B-DC5	B-DC6	B-DC7	B-DC8	B-DC9	B-DC10	B-DC11	B-DC12	B-DC13	B-DC14	B-DC15	B-DC16	B-Ph1	B-Ph2	B-Ph3	B-Ph4	B-Ph5	B-Ph6	B-Ph7	B-Ph8	B-Ph9	B-Ph10	B-Ph11	B-Ph12	B-Ph13	B-Ph14	B-Ph15	B-Ph16	

Term	0.00000e+00	0.00000e+00	0.00000e+00	0.00000e+00	0.00000e+00	0.00000e+00	0.00000e+00	0.00000e+00	0.00000e+00	0.00000e+00	0.00000e+00	0.00000e+00	0.00000e+00	0.00000e+00	0.00000e+00	0.00000e+00	0.00000e+00	0.00000e+00	0.00000e+00	0.00000e+00	0.00000e+00	0.00000e+00	0.00000e+00	0.00000e+00	0.00000e+00	0.00000e+00	0.00000e+00	0.00000e+00	0.00000e+00	0.00000e+00	0.00000e+00	0.00000e+00	3.99349e+01	-1.27183e+02	-1.30760e+02	-1.82253e+02	-7.82160e+01	-6.87738e+01	-1.58383e+02	-1.62015e+02	-6.51568e+00	-5.86521e+01	-1.73081e+02	-1.71715e+02	-1.81287e+02	-1.76244e+02	-6.42257e+01	-1.49702e+02	
Factor	5.52147e-05	1.09142e-04	2.94109e-05	1.60573e-01	1.55073e-06	1.56155e-06	1.48892e-01	4.20036e-02	1.58478e-06	1.42911e-06	9.25352e-02	2.65785e-02	2.40623e-02	7.73815e-03	1.51428e-06	1.10330e-02	2.94537e-06	3.18182e-06	8.85579e-07	8.69856e-02	3.45660e-08	3.49780e-08	7.56882e-02	2.28152e-02	3.43414e-08	3.49862e-08	4.82752e-02	1.38585e-02	1.31179e-02	4.22409e-03	3.45187e-08	5.81125e-03	X	X	X	X	X	X	X	X	X	X	X	X	X	X	X	X	



#DISTANCE SETTINGS
A = Detector Channel
A-1	A-2	A-3	A-4	A-5	A-6	A-7	A-8	A-9	A-10	A-11	A-12	A-13	A-14	A-15	A-16	

2.5000e+00	3.0000e+00	2.5000e+00	3.0000e+00	2.0000e+00	3.0000e+00	1.5000e+00	3.0000e+00	3.0000e+00	3.0000e+00	3.0000e+00	3.0000e+00	3.0000e+00	3.0000e+00	1.5000e+00	3.0000e+00	

B = Detector Channel
B-1	B-2	B-3	B-4	B-5	B-6	B-7	B-8	B-9	B-10	B-11	B-12	B-13	B-14	B-15	B-16	

1.0000e+01	1.0000e+01	1.0000e+01	1.4400e+00	1.0000e+01	1.0000e+01	1.5100e+00	1.9400e+00	1.0000e+01	1.0000e+01	1.9900e+00	2.4900e+00	2.4100e+00	2.9000e+00	1.0000e+01	2.9800e+00	




#DATA BEGINS
time	group	step	mark	flag	A-AC1	A-AC2	A-AC3	A-AC4	A-AC5	A-AC6	A-AC7	A-AC8	A-AC9	A-AC10	A-AC11	A-AC12	A-AC13	A-AC14	A-AC15	A-AC16	A-DC1	A-DC2	A-DC3	A-DC4	A-DC5	A-DC6	A-DC7	A-DC8	A-DC9	A-DC10	A-DC11	A-DC12	A-DC13	A-DC14	A-DC15	A-DC16	A-Ph1	A-Ph2	A-Ph3	A-Ph4	A-Ph5	A-Ph6	A-Ph7	A-Ph8	A-Ph9	A-Ph10	A-Ph11	A-Ph12	A-Ph13	A-Ph14	A-Ph15	A-Ph16	B-AC1	B-AC2	B-AC3	B-AC4	B-AC5	B-AC6	B-AC7	B-AC8	B-AC9	B-AC10	B-AC11	B-AC12	B-AC13	B-AC14	B-AC15	B-AC16	B-DC1	B-DC2	B-DC3	B-DC4	B-DC5	B-DC6	B-DC7	B-DC8	B-DC9	B-DC10	B-DC11	B-DC12	B-DC13	B-DC14	B-DC15	B-DC16	B-Ph1	B-Ph2	B-Ph3	B-Ph4	B-Ph5	B-Ph6	B-Ph7	B-Ph8	B-Ph9	B-Ph10	B-Ph11	B-Ph12	B-Ph13	B-Ph14	B-Ph15	B-Ph16	aux-1	digaux	

16123.235	1	1	0	256	0.11246	0.27191	0.14412	0.318	0.34603	0.053686	0.24053	0.1379	0.14786	0.16846	0.11687	0.18458	0.26869	0.10336	0.10806	0.31573	-1.7271	-1.3917	-1.3458	-2.2062	-1.2062	-1.6708	-1.9896	-1.1229	-2.1688	-1.7375	-1.4833	-2.1167	-1.1417	-1.8188	-1.875	-1.2646	147.314	184.110	423.812	141.526	339.028	256.178	324.481	262.819	215.829	246.478	150.040	470.330	343.496	192.182	232.334	456.826	0.00099599	0.00026867	3.8041e-05	1014.1	3.7619e-06	6.9252e-06	1105.4	213.49	6.5746e-06	4.2886e-06	269	76.598	59.807	17.58	5.0092e-06	24.835	0.00072212	0.00073961	0.00020821	1022.4	8.1053e-06	8.129e-06	1106.9	216.62	7.9653e-06	7.9936e-06	276.55	78.859	62.165	18.613	8.0229e-06	26.175	350.138	321.112	164.184	134.369	218.398	249.370	134.003	142.088	360.310	178.401	141.457	148.391	148.952	155.723	257.631	154.876	-8191	255	
16123.331	1	1	0	0	0.17979	0.073774	0.14936	0.19287	0.18515	0.12289	0.22971	0.075995	0.16728	0.12413	0.19426	0.14055	0.029059	0.27314	0.21866	0.37483	-1.7104	-1.525	-1.35	-2.3271	-1.2896	-1.5271	-2.1729	-1.25	-1.7021	-1.4979	-1.25	-1.9438	-1.2104	-1.4896	-1.8417	-1.1167	387.038	125.511	422.691	427.942	317.492	164.310	371.813	282.648	142.054	391.515	464.723	148.847	319.362	234.666	256.208	277.129	0.00098701	0.0005206	5.5335e-05	1012.4	3.2715e-06	4.8214e-06	1107.2	213.79	1.1444e-05	4.4267e-06	269.3	76.79	60.019	17.633	1.3058e-06	24.568	0.00072095	0.00074658	0.00020797	1021.8	8.1527e-06	8.1564e-06	1105.6	216.88	7.9016e-06	8.1638e-06	276.95	78.819	62.145	18.639	8.0873e-06	26.032	348.170	158.777	243.072	134.077	249.738	216.027	134.132	141.832	335.548	264.128	141.565	148.150	148.799	156.287	240.475	155.482	-8191	255	
16123.428	1	1	0	0	0.31108	0.092561	0.1576	0.19183	0.29152	0.2063	0.3682	0.25043	0.023774	0.12401	0.30332	0.16078	0.36042	0.066395	0.17105	0.072528	-1.475	-1.625	-1.1292	-2.0771	-1.4521	-1.55	-2.0375	-1.3729	-1.7917	-1.6812	-1.15	-1.8917	-1.2146	-1.3208	-1.9396	-1.3	320.177	173.473	146.858	418.938	407.552	273.380	343.965	252.812	209.667	474.834	362.388	452.028	476.465	428.487	222.797	438.325	0.0010573	0.00055715	0.0001129	1015	6.1544e-06	2.5168e-06	1100.2	213.33	1.0734e-06	1.0573e-06	268.08	76.933	59.803	17.648	1.5314e-06	24.511	0.00071654	0.00073602	0.00020357	1020.5	8.1172e-06	8.1942e-06	1104.6	216.92	7.947e-06	8.1202e-06	276.2	78.885	61.893	18.619	7.9815e-06	26.017	350.123	250.159	248.174	134.451	290.054	147.875	134.212	142.206	264.339	184.895	142.139	148.721	147.901	155.812	351.326	154.744	-8191	255	
16123.524	1	1	0	0	0.1783	0.3905	0.22215	0.27654	0.13077	0.11144	0.2525	0.37047	0.052231	0.086724	0.10082	0.12342	0.05428	0.13909	0.11678	0.087563	-1.2146	-1.7021	-1.0562	-1.9833	-1.5979	-1.0521	-2.0417	-1.2896	-1.5	-1.8146	-1.1875	-1.8979	-1.6604	-1.3021	-2.0021	-1.2271	263.647	216.193	362.341	409.817	412.598	476.187	456.427	356.339	306.421	324.521	367.859	335.548	339.805	478.671	481.976	139.073	0.00089713	0.00023472	0.00010219	1011.8	8.587e-06	1.6906e-06	1100.3	213.38	4.5982e-06	6.6559e-06	267.89	76.358	59.874	17.44	3.8729e-06	24.55	0.00070675	0.0007288	0.00020272	1018	8.0146e-06	7.9039e-06	1103.4	216.6	7.9746e-06	7.9303e-06	276.62	78.579	62.011	18.549	7.8056e-06	25.998	366.572	244.159	186.937	134.673	305.238	259.980	133.995	141.947	145.625	358.945	141.934	148.466	148.769	156.087	295.300	155.106	-8191	255	
16123.618	1	1	0	0	0.20569	0.11688	0.1629	0.34916	0.19671	0.18721	0.31187	0.074181	0.031304	0.012704	0.25642	0.226	0.20443	0.3613	0.16214	0.23213	-1.0417	-1.9146	-1.0187	-1.8792	-1.6229	-1.0938	-2.0521	-1.3396	-1.5292	-1.9771	-1.1938	-1.9521	-1.5583	-1.2208	-2.0729	-1.4396	470.448	215.084	471.604	392.896	402.586	167.311	335.588	426.789	157.132	263.135	140.098	482.167	431.556	296.330	205.986	139.770	0.0012104	0.00045615	6.412e-05	1009.6	6.0375e-06	7.9497e-06	1100.3	213.39	5.8113e-06	6.6192e-06	266.56	76.169	59.801	17.583	9.119e-06	24.467	0.00069444	0.00072504	0.00020229	1018.1	7.8792e-06	7.8369e-06	1101.7	216.7	7.6913e-06	7.7796e-06	274.88	78.541	61.671	18.523	7.6433e-06	25.882	342.870	124.247	140.984	134.611	272.602	308.535	134.163	142.128	337.108	189.242	141.587	148.870	148.614	155.975	196.630	155.528	-8191	255	
16123.714	1	1	0	0	0.10959	0.17624	0.06871	0.13646	0.39643	0.44873	0.35769	0.13962	0.12009	0.10106	0.11666	0.27951	0.18436	0.14872	0.28555	0.245	-0.84792	-2.025	-1.1479	-1.8604	-1.6583	-1.0771	-2.0292	-1.4875	-1.2104	-1.9896	-1.2292	-1.7125	-1.8083	-1.2938	-2.0146	-1.4312	356.851	459.082	149.529	134.602	185.591	403.677	368.315	461.590	415.348	374.699	280.477	193.438	373.968	369.474	441.910	178.633	0.0010086	9.762e-05	0.00016367	1008.2	1.78e-06	3.1888e-06	1093.6	212.74	2.7209e-06	5.1782e-06	267.92	76.283	59.589	17.596	5.6035e-06	24.61	0.00067633	0.00069244	0.00019442	1015.3	7.6392e-06	7.6503e-06	1098.8	215.93	7.5165e-06	7.5061e-06	275.32	78.571	61.879	18.54	7.4779e-06	25.916	354.070	275.866	291.348	134.597	220.410	247.683	134.282	142.099	297.321	151.050	141.360	148.450	148.914	156.072	228.012	155.133	-8191	255	
16123.810	1	1	0	0	0.33986	0.12648	0.14031	0.30076	0.36378	0.027664	0.24673	0.057327	0.24213	0.12523	0.09731	0.11446	0.18698	0.20999	0.08264	0.31979	-0.91667	-2.0812	-1.1104	-1.7437	-1.7333	-1.1792	-2.1354	-1.4917	-1.2563	-2.1167	-1.0896	-1.6521	-1.8333	-1.1979	-1.9604	-1.7229	160.203	195.772	381.985	173.975	400.817	147.449	404.417	459.269	312.157	468.270	445.008	454.581	190.343	172.081	322.781	433.492	0.00099857	0.00064145	0.00010155	1007	8.1108e-07	5.9215e-06	1103	213	9.048e-06	3.723e-07	268.26	76.274	59.577	17.594	2.4307e-06	24.598	0.00067532	0.00069549	0.00019212	1015	7.5613e-06	7.6974e-06	1098.6	215.65	7.571e-06	7.5929e-06	275.27	78.555	61.72	18.524	7.4365e-06	25.906	358.509	179.911	160.545	134.550	456.608	338.691	134.374	141.877	339.816	440.266	141.572	148.320	148.358	156.405	266.585	155.043	-8191	255	
16123.931	1	1	0	0	0.11669	0.24859	0.25638	0.06286	0.14189	0.092664	0.1467	0.28008	0.12963	0.069774	0.11213	0.20534	0.25462	0.065598	0.14286	0.13341	-0.79375	-1.8479	-1.3167	-1.7083	-1.9062	-1.2375	-1.9688	-1.75	-1.1542	-2.0687	-1.3625	-1.5667	-2.0354	-1.375	-1.7083	-1.8	348.368	440.828	170.621	418.656	137.630	300.322	403.477	411.099	450.020	317.790	467.351	202.578	199.257	403.244	402.841	368.134	0.00087344	0.00011236	3.1609e-05	1011.3	6.7155e-06	1.6167e-06	1096.3	213.42	4.7033e-06	2.5177e-06	268.01	75.943	59.738	17.58	3.8728e-06	24.294	0.00067935	0.00069016	0.00019197	1016.7	7.6842e-06	7.7058e-06	1097.7	215.92	7.4781e-06	7.6179e-06	274.87	78.5	61.743	18.532	7.3776e-06	25.851	362.041	331.712	156.815	134.629	231.410	349.830	133.948	141.980	255.417	315.730	141.117	148.414	148.462	156.728	225.111	154.872	-8191	255	
16124.027	1	1	0	0	0.075691	0.061408	0.083767	0.10038	0.036784	0.07295	0.044208	0.39027	0.15716	0.26179	0.16403	0.33632	0.1352	0.17258	0.23101	0.10453	-0.68125	-2.0125	-1.3813	-1.4875	-2.0833	-1.1958	-2.0625	-2.0208	-1.325	-2.0687	-1.5375	-1.3042	-2.1417	-1.1938	-1.7563	-1.6417	261.896	264.082	282.525	356.422	287.640	436.756	302.778	468.925	472.568	178.176	404.805	435.208	351.641	448.486	220.589	354.099	0.00093494	0.0002386	0.00013761	1010.5	7.5014e-06	5.3187e-06	1095	213.92	6.7549e-06	2.0789e-06	266.42	76.295	60.022	17.486	4.8378e-06	24.513	0.0006742	0.00068536	0.0001901	1013.5	7.3703e-06	7.3524e-06	1098.9	216.01	7.3956e-06	7.4669e-06	274.83	78.234	61.728	18.564	7.3165e-06	25.916	361.102	227.179	246.507	134.395	250.410	216.034	134.401	142.102	301.195	171.730	142.028	148.279	148.834	156.030	177.867	154.984	-8191	255	
16124.099	1	1	0	0	0.16033	0.33872	0.079144	0.24884	0.38023	0.1284	0.40143	0.22433	0.11822	0.26554	0.29745	0.057516	0.010378	0.19562	0.19682	0.10283	-0.78542	-1.8833	-1.5792	-1.2646	-1.9354	-1.3375	-1.8771	-1.9542	-1.0167	-1.8854	-1.5958	-1.4021	-2.1646	-1.4479	-1.4958	-1.9354	233.726	277.122	231.960	452.366	169.466	219.251	423.233	411.545	304.071	449.466	424.585	364.814	433.578	224.079	269.854	164.264	0.00095524	0.00033539	0.00017577	1009	7.3668e-06	1.0584e-05	1098.5	213.42	4.3914e-06	5.1704e-06	266.24	76.485	59.899	17.543	7.9471e-06	24.526	0.00066989	0.00068234	0.00018782	1013.3	7.3304e-06	7.3884e-06	1097.7	215.59	7.333e-06	7.345e-06	274.28	78.578	61.597	18.472	7.3401e-06	25.846	364.488	186.629	262.802	134.335	248.540	267.183	134.414	141.995	386.225	316.260	141.508	148.802	148.776	155.863	265.882	155.066	-8191	255	
16124.195	1	1	0	0	0.12523	0.19796	0.10038	0.51137	0.18271	0.32183	0.14243	0.15648	0.05574	0.069257	0.17004	0.24959	0.074333	0.16934	0.36943	0.18752	-0.88542	-1.7729	-1.6146	-1.3542	-2.1063	-1.3271	-1.5479	-1.9146	-1.1562	-1.9417	-1.8813	-1.2396	-1.9417	-1.4937	-1.5375	-2.0333	365.843	154.182	276.423	428.164	445.286	464.479	410.420	395.190	243.881	139.469	161.246	441.555	368.047	364.229	163.732	407.108	0.00097267	6.2505e-05	7.1724e-05	1007.5	8.9771e-06	3.3771e-06	1091.3	212.76	8.1694e-07	3.719e-06	266.32	76.644	59.545	17.602	3.7755e-06	24.53	0.00065162	0.00065619	0.00018579	1010.5	7.1548e-06	7.2684e-06	1094.1	215.26	7.1803e-06	7.0963e-06	273.32	78.241	61.285	18.467	7.1047e-06	25.776	363.382	295.140	260.340	134.544	230.688	263.102	133.959	141.963	143.066	345.431	141.616	148.376	149.054	155.788	271.625	154.860	-8191	255	
16124.316	1	1	0	0	0.17106	0.075806	0.28343	0.17976	0.13655	0.12847	0.13161	0.21421	0.20333	0.17575	0.39142	0.19171	0.0872	0.12202	0.16572	0.2357	-0.84583	-1.8458	-1.8271	-1.3	-2.0458	-1.4708	-1.5021	-2.15	-1.1396	-1.6167	-1.7854	-1.1417	-2.1375	-1.6187	-1.4125	-2.0229	236.881	329.582	483.087	301.069	307.307	138.425	403.945	463.231	271.446	364.755	261.988	217.201	155.167	379.296	136.986	343.191	0.0010564	0.00050258	2.2738e-05	1003.1	5.0935e-06	3.2545e-06	1089.2	212.09	4.5639e-06	2.5384e-06	264.19	75.821	59.165	17.381	4.3288e-06	24.471	0.00062014	0.00063598	0.00017645	1005.6	6.8845e-06	6.955e-06	1088.1	214.28	6.7489e-06	6.7971e-06	270.79	77.547	61.002	18.289	6.7582e-06	25.641	354.347	187.099	370.657	134.447	232.415	273.984	134.373	142.116	291.837	178.389	141.812	148.658	149.128	156.333	292.834	154.858	-8191	255	
16124.412	1	1	0	0	0.070415	0.14474	0.066659	0.36846	0.18572	0.24332	0.060137	0.19901	0.26304	0.10162	0.3653	0.02207	0.17212	0.1599	0.18728	0.066897	-0.82708	-1.7563	-2.0042	-1.4292	-2.1792	-1.8125	-1.3333	-2.1312	-1.5167	-1.675	-1.8042	-1.1313	-1.925	-1.5521	-1.3188	-1.8792	417.591	384.018	444.936	475.038	321.734	235.553	158.986	403.046	411.243	201.134	453.711	144.529	182.216	463.951	125.275	301.484	0.00075889	0.00026912	3.5204e-05	999.04	4.8824e-06	9.8937e-06	1079.7	210.55	4.1671e-06	5.2621e-06	266.25	75.139	59.059	17.43	3.2273e-06	24.4	0.00060667	0.00062417	0.00017274	1001.1	6.779e-06	6.7037e-06	1082.2	213.38	6.8036e-06	6.8349e-06	271.8	77.297	60.865	18.312	6.7443e-06	25.579	351.343	265.576	135.632	134.345	390.684	270.034	134.506	142.024	254.610	310.667	141.907	148.159	148.484	155.759	319.959	155.165	-8191	255	
16124.508	1	1	0	0	0.29927	0.046207	0.1791	0.18714	0.28643	0.19203	0.33709	0.31226	0.23476	0.15184	0.070921	0.23507	0.030999	0.21318	0.10318	0.093158	-0.96667	-1.5292	-1.8542	-1.3417	-1.8583	-1.6833	-1.3	-2.0812	-1.0688	-1.3708	-2.1354	-1.325	-1.95	-1.8479	-1.0958	-1.9625	456.077	245.453	436.572	199.373	307.626	149.521	428.415	454.871	147.287	316.223	173.850	164.904	458.915	397.466	385.064	461.413	0.00091434	0.00053477	1.9178e-05	999.31	5.3141e-06	3.4478e-06	1076.4	210.28	4.186e-06	2.6427e-06	265.13	75.382	59.267	17.416	2.3804e-06	24.418	0.00059688	0.00061303	0.00016975	999.67	6.6519e-06	6.8057e-06	1079.6	212.81	6.6524e-06	6.7831e-06	271.06	77.291	60.935	18.315	6.7306e-06	25.663	354.860	178.120	172.478	134.611	261.585	245.807	134.208	141.855	372.270	241.414	141.532	148.717	148.975	156.239	362.313	155.411	-8191	255	
16124.604	1	1	0	0	0.17259	0.10588	0.1103	0.32577	0.12378	0.11673	0.30404	0.23882	0.11562	0.03291	0.24072	0.22499	0.28147	0.10994	0.18184	0.21262	-1.1063	-1.2938	-1.8354	-1.3438	-1.7	-1.9333	-1.2604	-1.9896	-1.4875	-1.2708	-2.1271	-1.3021	-1.825	-1.6771	-1.1812	-2.0687	264.807	371.129	251.677	444.052	420.956	130.436	406.879	394.733	333.637	310.326	247.299	150.604	433.674	401.875	432.428	345.046	0.00096744	0.00034859	0.00011568	990.84	7.8263e-06	2.4558e-06	1083.5	210.14	6.149e-06	3.8973e-06	264.57	75.718	59.123	17.387	3.2984e-06	24.221	0.00061793	0.00062974	0.00017457	996.22	6.7442e-06	6.7747e-06	1082.4	212.41	6.6652e-06	6.8956e-06	270.7	77.533	61.008	18.27	6.9188e-06	25.601	364.345	257.823	211.417	134.541	257.605	411.095	133.988	142.207	344.901	319.099	141.572	148.526	148.622	156.164	232.152	155.501	-8191	255	
16124.723	1	1	0	0	0.23419	0.27044	0.084938	0.26483	0.14529	0.16276	0.2024	0.02975	0.24022	0.13781	0.05629	0.22649	0.29646	0.22234	0.10633	0.14229	-1.2292	-1.2833	-2.25	-1.5292	-1.475	-1.8854	-1.3563	-1.9542	-1.8021	-1.1437	-2.2125	-1.2771	-1.5667	-2	-1.2792	-1.8708	267.434	151.006	321.054	222.627	411.889	415.105	265.119	450.130	160.194	230.547	382.655	471.410	151.715	463.238	449.260	378.567	0.001111	0.00031079	0.00010193	992.4	5.0016e-06	4.3019e-06	1086.9	209.46	6.4229e-06	4.7596e-06	264.59	75.504	59.384	17.396	3.7537e-06	24.358	0.00061708	0.00063448	0.00017266	998.64	6.848e-06	6.8923e-06	1082.1	212.74	6.9127e-06	7.0127e-06	270.46	77.377	61.059	18.293	6.8395e-06	25.611	361.101	161.082	252.785	134.305	277.957	297.717	134.478	142.186	388.527	292.375	141.817	148.334	148.710	155.833	313.354	155.494	-8191	255	
16124.795	1	1	0	0	0.23631	0.075936	0.10143	0.34242	0.33066	0.22243	0.33605	0.30084	0.039311	0.18382	0.12967	0.088759	0.10049	0.18186	0.034692	0.17847	-1.4396	-1.2479	-2.0875	-1.5542	-1.4354	-2.1854	-1.3312	-1.9125	-1.7333	-1.1812	-1.8354	-1.525	-1.4396	-2.075	-1.3646	-1.9208	225.025	377.813	421.122	456.260	181.928	415.958	447.379	456.494	436.094	198.575	261.896	400.325	423.724	462.032	299.899	332.178	0.00099842	0.0002939	1.1533e-05	991.11	6.7237e-06	6.4922e-06	1077.4	209.54	4.2305e-06	5.0743e-06	263.01	74.868	58.977	17.384	1.0385e-05	24.367	0.00060892	0.0006291	0.00017327	997.86	6.8598e-06	6.9114e-06	1081.1	212.47	6.8249e-06	6.9377e-06	270.24	77.088	60.79	18.319	6.8245e-06	25.627	365.343	303.396	272.365	134.487	212.449	252.150	134.331	142.278	303.826	302.043	141.374	148.605	149.001	156.327	317.073	155.232	-8191	255	
16124.915	1	1	0	0	0.22769	0.15095	0.24266	0.14642	0.1353	0.20439	0.45501	0.14138	0.1581	0.10591	0.058388	0.17689	0.093725	0.22573	0.061527	0.29923	-1.4396	-1.1604	-1.9958	-1.6771	-1.3708	-2.0958	-1.4771	-1.8813	-1.9479	-1.2083	-1.8354	-1.7083	-1.2792	-2.0042	-1.3292	-1.6125	153.167	312.981	424.487	247.467	395.781	276.254	401.003	404.434	155.062	277.726	267.981	159.879	199.838	301.415	288.934	347.574	0.0010767	0.00030963	0.00012411	997.59	7.5329e-06	1.4117e-06	1081.6	210.02	7.6714e-06	5.4197e-06	265.5	75.096	58.908	17.397	5.8707e-06	24.376	0.00061751	0.00063654	0.00017346	1000.1	7.0399e-06	7.0696e-06	1081.6	212.79	6.9782e-06	7.0887e-06	271.06	77.246	61.035	18.276	6.9948e-06	25.687	368.900	201.984	210.182	134.261	267.672	335.353	134.270	142.079	281.879	331.719	141.780	148.541	148.753	156.257	220.558	155.568	-8191	255	
16125.011	1	1	0	0	0.093669	0.089011	0.2534	0.26341	0.077114	0.21027	0.083483	0.32943	0.1819	0.15014	0.1706	0.26427	0.41704	0.15043	0.30277	0.17332	-1.6083	-1.1083	-1.9646	-1.7646	-1.1458	-2.1063	-1.3958	-1.675	-1.95	-0.98542	-1.8937	-1.6958	-1.1875	-2.2	-1.4188	-1.7417	198.712	172.634	384.264	407.595	405.126	246.247	252.702	371.814	246.636	150.644	135.473	424.947	430.722	372.054	317.507	380.662	0.00097015	0.0001081	4.1215e-05	993.17	4.7249e-06	4.9264e-06	1079.6	209.72	5.9204e-06	7.2197e-06	265.74	75.7	59.107	17.497	2.2109e-06	24.508	0.00062827	0.00064617	0.00017525	998.79	6.9318e-06	6.9005e-06	1080	212.86	6.6833e-06	6.7861e-06	271.07	77.07	60.775	18.337	6.5277e-06	25.638	357.454	200.350	230.666	134.395	174.418	308.563	134.069	141.770	391.141	270.602	141.767	148.440	148.494	156.473	298.282	154.952	-8191	255	
16125.108	1	1	0	0	0.15213	0.1473	0.1855	0.39296	0.091091	0.039771	0.47399	0.1963	0.29091	0.34873	0.16875	0.26823	0.37127	0.12831	0.10536	0.45786	-1.675	-1.0187	-1.8875	-1.7667	-1.2542	-1.9729	-1.5458	-1.5187	-1.975	-1.2729	-1.8271	-1.7729	-1.2667	-2.1021	-1.3854	-1.3125	210.859	304.185	139.470	375.618	203.984	332.518	396.166	406.651	419.798	473.751	396.497	471.642	454.579	246.721	472.845	442.418	0.0009065	0.00012419	0.00011024	995.73	1.2581e-05	5.4133e-06	1080	211.13	2.8041e-06	3.4547e-06	264.03	75.435	59.555	17.369	5.0166e-06	24.23	0.00058414	0.00059431	0.00016533	996.38	6.3973e-06	6.508e-06	1079.8	212.94	6.3383e-06	6.5536e-06	269.73	77.2	60.901	18.294	6.4674e-06	25.667	352.064	231.018	254.671	134.783	270.562	266.497	134.414	141.819	413.820	322.128	141.797	148.133	149.169	156.058	302.532	155.001	-8191	255	
16125.204	1	1	0	0	0.11986	0.11811	0.12519	0.18689	0.11067	0.096754	0.26586	0.24242	0.053214	0.36948	0.18638	0.14652	0.14676	0.15702	0.17234	0.2379	-1.6542	-1.3292	-1.5667	-1.9604	-1.0958	-1.9729	-1.7646	-1.325	-2.2062	-1.275	-1.6063	-1.9854	-1.125	-1.9354	-1.6521	-1.3042	418.388	469.901	215.950	419.960	198.295	376.475	437.041	262.078	445.228	203.333	236.202	365.624	128.574	371.957	464.315	362.437	0.0011594	0.00031442	7.187e-05	996.06	4.1143e-06	7.2422e-06	1081.5	211.25	1.2089e-05	5.0364e-06	264.64	75.442	59.212	17.515	4.8071e-06	24.278	0.00059173	0.00061022	0.00016899	997.36	6.6753e-06	6.6715e-06	1081.8	212.86	6.6794e-06	6.7576e-06	270.53	77.112	60.924	18.4	6.6252e-06	25.704	357.674	258.167	135.918	134.575	226.577	191.355	134.439	141.821	328.448	314.454	141.780	148.164	148.872	155.873	312.701	155.300	-8191	255	
16125.324	1	1	0	0	0.28931	0.1563	0.093491	0.11902	0.033141	0.1315	0.26863	0.26342	0.14384	0.17228	0.14304	0.32316	0.27462	0.25272	0.19224	0.24547	-1.5396	-1.2479	-1.3083	-1.9333	-1.1854	-1.8208	-1.6042	-1.1646	-2.1458	-1.3875	-1.4979	-1.875	-1.3896	-1.8937	-1.6187	-1.1688	389.682	412.940	347.748	402.428	128.181	331.075	405.738	296.522	322.134	332.582	186.115	124.526	425.450	198.602	322.518	336.465	0.0010983	0.00026279	4.6087e-05	991.36	1.0158e-05	5.4815e-06	1081.7	210.7	1.1625e-05	5.0367e-06	264.43	75.177	59.138	17.542	2.8136e-06	24.47	0.00060886	0.00060422	0.0001692	993.81	6.6233e-06	6.7153e-06	1078.7	212.85	6.5721e-06	6.448e-06	270.24	77.193	60.828	18.284	6.3173e-06	25.592	353.740	318.272	150.401	134.349	233.666	265.795	134.339	141.723	301.284	274.831	141.972	148.554	148.804	156.199	456.176	155.366	-8191	255	
16125.396	1	1	0	0	0.2053	0.11536	0.060513	0.29985	0.043885	0.31142	0.18306	0.16293	0.11463	0.12964	0.095598	0.21414	0.16879	0.0073699	0.20034	0.25118	-1.6229	-1.3687	-1.4771	-1.9833	-1.0708	-1.8333	-1.8979	-1.125	-2.0042	-1.5042	-1.3125	-2.1458	-1.1521	-1.6625	-1.8917	-1.1833	364.069	186.534	154.424	432.542	463.243	364.316	337.512	424.109	363.458	385.311	447.027	230.883	470.139	165.771	212.734	275.719	0.0010204	0.0002078	8.0008e-05	995.01	6.5922e-06	3.1317e-06	1080.9	210.07	4.0972e-06	2.5018e-06	263.41	75.762	59.156	17.474	5.1762e-06	24.393	0.00057756	0.00057095	0.0001578	995.09	6.3974e-06	6.2869e-06	1078	212.11	6.1794e-06	6.2203e-06	268.57	77.007	60.532	18.25	6.0829e-06	25.567	360.614	167.478	282.763	134.356	266.795	235.335	134.168	141.922	239.622	392.622	141.273	148.516	148.746	156.407	215.296	155.062	-8191	255	
16125.492	1	1	0	0	0.28713	0.2232	0.27203	0.37848	0.14314	0.11361	0.21602	0.28952	0.17761	0.23424	0.3047	0.13468	0.11264	0.13228	0.10498	0.058958	-1.4479	-1.4271	-1.1896	-2.1021	-1.2021	-1.6562	-2.1583	-1.0729	-1.8104	-1.6562	-1.4021	-1.9521	-1.3208	-1.4479	-1.9062	-1.2583	434.296	207.871	195.864	436.868	385.286	200.625	393.487	448.164	427.151	169.651	169.907	408.167	398.108	245.179	129.146	321.571	0.00097242	0.00058572	4.8502e-05	988.63	3.6516e-06	4.5304e-06	1079	209.03	5.7173e-06	2.8693e-06	263.22	74.82	59.408	17.464	4.7382e-06	24.365	0.00055817	0.00056708	0.00015607	992.17	6.2592e-06	6.2479e-06	1076.1	211.75	6.1224e-06	6.1327e-06	268.65	76.815	60.543	18.272	5.9981e-06	25.535	356.523	216.074	306.237	134.341	163.493	335.243	134.010	141.903	340.173	225.951	141.339	148.516	148.833	156.112	465.743	155.491	-8191	255	
16125.613	1	1	0	0	0.2859	0.19966	0.16494	0.18868	0.19892	0.082133	0.29626	0.13232	0.033164	0.28129	0.15128	0.21023	0.21178	0.17835	0.25347	0.20136	-1.6458	-1.6313	-1.2021	-2.0375	-1.3813	-1.2708	-2.0104	-1.3104	-1.5979	-1.8687	-1.0771	-2.025	-1.5458	-1.4688	-2.0208	-1.3792	287.424	352.230	366.697	465.596	131.726	451.375	406.330	144.361	226.471	140.631	146.722	276.654	369.202	382.258	470.551	332.916	0.00086361	0.00038742	0.00014288	989.6	5.2433e-06	2.3283e-06	1070.9	208.81	4.2867e-06	3.9115e-06	263.1	74.365	58.835	17.375	4.1191e-06	24.238	0.00054229	0.00054789	0.00015161	990.77	5.9567e-06	5.897e-06	1071	210.76	5.8208e-06	5.8669e-06	267.77	76.387	60.197	18.175	5.8051e-06	25.462	352.063	296.770	250.670	134.529	277.177	177.055	134.555	141.868	336.644	316.554	141.459	148.587	148.870	156.195	232.877	155.316	-8191	255	
16125.707	1	1	0	0	0.16772	0.062577	0.086035	0.19151	0.050085	0.28396	0.30426	0.25609	0.15076	0.13411	0.13754	0.17067	0.07978	0.039913	0.20438	0.29554	-1.4521	-1.7542	-1.2687	-2.1833	-1.6208	-1.4375	-2.1354	-1.3417	-1.725	-1.9979	-1.1458	-2.075	-1.5292	-1.3771	-2.0542	-1.3583	420.824	199.508	250.048	187.101	352.948	175.803	396.947	145.843	287.332	248.217	436.222	389.082	402.182	164.724	443.963	388.353	0.00082115	0.00052334	6.7625e-05	982.79	4.1607e-06	6.8681e-06	1074.1	208.43	2.8073e-06	4.1289e-06	261.22	74.959	58.98	17.34	4.1732e-06	24.203	0.00052036	0.00053373	0.00014724	984.76	5.8664e-06	5.8615e-06	1068.4	210.23	5.8375e-06	5.8133e-06	267.02	76.486	60.022	18.104	5.6406e-06	25.425	358.240	207.923	250.098	134.715	266.837	263.429	134.218	141.877	292.363	209.121	141.541	147.881	148.621	155.913	349.062	155.697	-8191	255	
16125.803	1	1	0	0	0.25067	0.20382	0.090185	0.2448	0.19501	0.13495	0.1202	0.14526	0.2957	0.14623	0.1913	0.074506	0.074902	0.20559	0.25293	0.16113	-1.3438	-1.9542	-1.0729	-2.075	-1.6042	-1.3312	-2.0812	-1.4354	-1.5417	-1.9708	-1.275	-1.9375	-1.6646	-1.2229	-2.0917	-1.2854	250.820	191.204	198.951	165.727	350.366	137.582	372.284	346.980	351.235	188.625	382.626	474.482	283.733	387.122	239.517	275.322	0.00092756	0.00016847	0.00015497	979.67	4.4173e-06	4.7626e-06	1064.6	208.38	7.6665e-06	3.9282e-06	262.52	74.169	59.11	17.357	6.0685e-06	24.548	0.00050887	0.0005219	0.0001462	982.74	5.7264e-06	5.6516e-06	1064.9	209.79	5.6709e-06	5.631e-06	266.84	76.003	59.93	18.113	5.635e-06	25.473	350.436	225.945	242.855	134.609	252.567	259.010	134.236	142.110	278.565	275.151	141.589	148.482	148.954	155.721	247.116	155.173	-8191	255	
16125.900	1	1	0	0	0.2718	0.29619	0.19769	0.16331	0.23068	0.15503	0.4656	0.16609	0.14538	0.1135	0.038106	0.077621	0.31032	0.11538	0.13491	0.26642	-1.1583	-1.9604	-0.99167	-1.9979	-1.7958	-1.1146	-1.9875	-1.3917	-1.3979	-1.9979	-1.3958	-1.9312	-1.8062	-1.2625	-1.8771	-1.4271	239.028	146.906	311.457	378.299	154.055	445.063	381.029	467.730	307.227	264.758	434.309	320.407	407.572	203.167	448.550	454.045	0.00092307	0.00022677	9.4321e-05	980.43	2.4785e-06	2.2122e-06	1067	207.88	5.393e-06	3.3964e-06	260.52	74.229	58.469	17.26	1.4917e-06	24.354	0.00051389	0.00051479	0.00014344	982.47	5.5979e-06	5.6398e-06	1064.9	209.22	5.5454e-06	5.5462e-06	265.6	76.085	59.69	18.127	5.5644e-06	25.401	345.573	245.493	189.642	134.448	154.955	296.794	134.571	141.888	350.263	291.288	141.845	148.520	148.916	156.293	444.690	155.017	-8191	255	
16125.996	1	1	0	0	0.17192	0.078223	0.32155	0.13661	0.27424	0.17472	0.20635	0.20942	0.072317	0.21428	0.23391	0.14005	0.20759	0.20377	0.079187	0.13359	-1.1417	-1.9417	-1.1958	-1.9042	-1.9792	-1.2896	-2.2	-1.6083	-1.3917	-2.0438	-1.3917	-1.7854	-1.9083	-1	-2.0521	-1.7521	345.689	407.704	204.068	290.654	453.750	254.817	363.326	453.362	133.199	345.100	414.117	130.458	304.388	143.133	319.384	433.736	0.00081295	0.00043897	5.6216e-05	980.88	3.6914e-06	6.4754e-06	1064	206.41	2.6326e-06	3.8528e-06	257.98	74.887	58.595	17.282	3.6358e-06	24.281	0.00050609	0.00050555	0.00014414	980.67	5.6329e-06	5.6829e-06	1063.6	208.9	5.606e-06	5.6882e-06	264.67	76.166	59.743	18.077	5.4727e-06	25.297	355.086	227.538	484.111	134.541	170.874	261.576	134.235	142.174	338.375	370.931	142.015	148.448	148.928	156.333	347.393	155.092	-8191	255	
16126.092	1	1	0	0	0.20836	0.19111	0.16816	0.11331	0.099456	0.074425	0.1436	0.26872	0.11113	0.10688	0.24003	0.12018	0.10325	0.33175	0.098091	0.13831	-0.71458	-2.0729	-1.3792	-1.8438	-1.8604	-0.90833	-2.0167	-1.7646	-1.0146	-2.2	-1.3708	-1.5604	-1.9312	-1.1833	-1.9917	-1.8125	131.551	394.958	293.220	274.716	286.990	306.362	391.046	435.497	152.645	181.070	454.266	250.802	215.873	403.955	239.034	379.825	0.000967	0.00028071	0.00012261	976.43	1.2742e-06	5.1328e-06	1062.1	207.79	8.821e-06	5.3959e-06	261.64	74.02	58.447	17.368	1.2693e-06	24.312	0.00050798	0.00051211	0.00014338	976.96	5.7041e-06	5.6921e-06	1061.3	208.96	5.7225e-06	5.6509e-06	264.99	75.798	59.674	18.092	5.5815e-06	25.333	359.350	225.187	260.188	134.499	404.120	260.346	134.397	141.821	297.545	279.209	141.836	148.523	148.902	155.940	147.605	155.044	-8191	255	
16126.188	1	1	0	0	0.19973	0.05261	0.19617	0.12152	0.1343	0.22129	0.40025	0.18738	0.14946	0.16437	0.12073	0.44882	0.088692	0.18575	0.2334	0.068204	-0.7	-1.9271	-1.4479	-1.45	-2.025	-1.1208	-2.0083	-1.7833	-1.1667	-2.1729	-1.3479	-1.4958	-2.0479	-1.2687	-1.5646	-2.0146	174.753	455.999	470.583	466.962	138.325	165.967	439.929	312.248	357.804	238.772	153.581	407.032	223.505	172.274	385.953	198.340	0.00086745	0.00021824	1.1761e-05	977.96	3.046e-06	6.6994e-06	1065.7	207.81	7.0539e-06	8.5495e-06	261.1	74.456	58.347	17.451	2.5163e-06	24.375	0.00051233	0.00051114	0.00014347	977.79	5.6255e-06	5.6277e-06	1060.9	208.95	5.6238e-06	5.5565e-06	265	75.895	59.613	18.086	5.479e-06	25.376	352.007	453.745	481.564	134.701	192.227	263.748	134.432	141.950	325.711	277.165	141.542	148.870	149.422	156.490	288.347	155.238	-8191	255	
16126.307	1	1	0	0	0.15708	0.17157	0.062532	0.091048	0.14752	0.12157	0.086682	0.22769	0.14169	0.042545	0.093133	0.22168	0.28159	0.085128	0.15829	0.067892	-0.72292	-1.9271	-1.4667	-1.3667	-1.8667	-1.2958	-1.8667	-1.875	-1.3021	-2.0729	-1.7583	-1.4604	-2.2	-1.2792	-1.5688	-1.9958	216.094	384.537	432.959	133.788	481.704	144.042	410.391	405.482	245.377	344.792	468.161	336.519	170.358	335.497	201.561	276.795	0.00071236	0.00022259	0.00010755	976.45	3.9826e-06	2.0063e-06	1063.7	206.79	1.9338e-06	2.29e-06	261.12	74.651	58.029	17.293	4.2987e-06	24.151	0.00049915	0.00050795	0.00013963	976.91	5.5253e-06	5.5414e-06	1059.8	208.6	5.5499e-06	5.5005e-06	264.91	75.973	59.457	18.048	5.3915e-06	25.28	364.421	225.024	269.651	134.958	155.663	312.043	134.494	142.150	352.987	346.949	141.968	148.506	149.040	156.269	312.767	155.344	-8191	255	
16126.403	1	1	0	0	0.14904	0.13786	0.21417	0.18946	0.10759	0.14975	0.17756	0.13505	0.30073	0.37707	0.25863	0.086256	0.073228	0.20216	0.054047	0.28886	-0.66458	-1.8958	-1.5917	-1.3833	-1.9937	-1.3354	-1.6938	-1.8354	-1.2667	-2.0958	-1.7542	-1.2792	-2.2	-1.4771	-1.6708	-2.1688	422.112	309.236	158.842	411.749	159.660	316.076	403.323	430.295	328.027	175.855	407.051	140.826	299.473	191.380	287.459	353.665	0.0010595	0.00024928	6.9626e-05	978.22	3.7156e-06	5.4415e-06	1056.6	207.03	1.3965e-06	3.662e-06	260.51	74.724	58.378	17.308	6.2518e-06	24.235	0.00049828	0.00049434	0.00013936	975.4	5.4278e-06	5.537e-06	1057	208.74	5.5071e-06	5.467e-06	264.94	75.922	59.675	18.006	5.4791e-06	25.295	360.631	153.025	437.829	134.593	208.493	241.325	134.817	142.233	371.621	276.421	141.190	148.548	149.157	155.896	266.408	154.978	-8191	255	
16126.499	1	1	0	0	0.20453	0.061585	0.074246	0.073506	0.24989	0.067235	0.4293	0.17577	0.30068	0.089431	0.30411	0.15437	0.086714	0.094741	0.031244	0.12521	-0.78125	-1.925	-1.6521	-1.3708	-1.9896	-1.2125	-1.4312	-2.1667	-1.0458	-1.7958	-1.8375	-1.2542	-1.9854	-1.5063	-1.3708	-2.0479	477.558	271.978	180.614	133.153	193.670	225.023	399.658	161.322	259.979	454.639	427.708	431.793	255.727	427.342	268.653	440.768	0.00079019	0.00026677	9.4333e-05	977.89	2.2153e-06	4.3369e-06	1058.6	207.64	3.7152e-06	1.8283e-06	260.64	74.717	58.306	17.379	2.1639e-06	24.13	0.00050307	0.00050093	0.00013826	975.68	5.5327e-06	5.4491e-06	1058	208.99	5.496e-06	5.4237e-06	265.38	76.133	59.482	18.04	5.5061e-06	25.193	354.876	176.150	134.730	134.679	247.254	234.504	134.568	142.141	361.394	294.366	141.107	148.546	148.756	156.331	342.228	155.078	-8191	255	
16126.595	1	1	0	0	0.13538	0.2173	0.27252	0.12417	0.23223	0.037246	0.052568	0.52269	0.084889	0.28502	0.27902	0.52067	0.17872	0.29917	0.12915	0.24672	-0.775	-1.7917	-1.9729	-1.1979	-1.8021	-1.4583	-1.5792	-1.9937	-1.1896	-1.7396	-1.9771	-1.2563	-1.9688	-1.6	-1.1958	-2.1667	446.505	394.165	463.601	239.615	163.808	375.665	235.825	479.505	191.567	236.129	369.332	483.640	248.870	481.116	205.586	370.451	0.00089911	0.00029614	2.1491e-05	973.89	6.666e-06	2.9208e-06	1062.6	206.16	7.0827e-06	4.954e-06	259.8	74.544	58.441	17.339	2.4079e-06	24.336	0.00049043	0.00050207	0.00014045	973.44	5.3988e-06	5.4682e-06	1057.2	208.19	5.4645e-06	5.4844e-06	264.56	75.773	59.66	17.991	5.3387e-06	25.304	359.231	196.275	385.511	134.488	258.457	177.154	134.229	142.159	332.570	307.336	141.550	148.421	148.574	156.188	373.199	155.479	-8191	255	
16126.691	1	1	0	0	0.11682	0.14872	0.14514	0.22936	0.22525	0.067725	0.12446	0.18162	0.04633	0.20594	0.21858	0.20638	0.15055	0.13987	0.19107	0.072764	-0.99375	-1.5458	-1.9625	-1.3479	-1.7583	-1.7479	-1.4396	-2.0333	-1.5354	-1.6083	-2.1583	-1.1479	-1.8292	-1.9292	-1.2458	-2.0479	435.946	292.497	187.152	425.585	272.914	297.966	363.133	154.105	278.448	205.073	235.083	133.899	393.828	151.559	364.126	201.400	0.00083467	0.00032776	6.5086e-05	974.11	1.6917e-06	2.475e-06	1061.3	206.74	7.3114e-06	2.2903e-06	258.74	74.525	58.665	17.155	7.7132e-06	24.193	0.00048815	0.00049041	0.00013939	971.69	5.3312e-06	5.4959e-06	1056.8	208.63	5.4268e-06	5.4479e-06	264.04	75.688	59.655	17.925	5.4396e-06	25.267	353.705	278.792	284.771	134.734	271.625	380.357	134.418	142.217	336.865	369.527	141.681	148.576	149.044	156.389	268.521	155.235	-8191	255	
16126.788	1	1	0	0	0.13759	0.048746	0.25525	0.15389	0.081079	0.13656	0.31254	0.076758	0.083617	0.11596	0.17632	0.09202	0.29556	0.017939	0.25481	0.24163	-0.83125	-1.3396	-2.0146	-1.4896	-1.8	-1.6708	-1.3146	-1.9917	-1.5333	-1.4937	-2.2042	-1.3083	-1.8667	-1.7563	-1.1604	-2.0563	323.320	481.634	430.530	471.502	220.538	240.458	473.660	429.756	358.202	479.844	328.215	286.053	124.899	181.183	326.310	133.101	0.00091038	6.4764e-05	0.00010411	970.27	3.1662e-06	5.0596e-06	1059.1	206.38	2.1508e-06	2.1539e-06	260.95	74.205	58.196	17.281	9.6121e-06	24.289	0.00048769	0.0004961	0.00013867	972.27	5.4294e-06	5.4306e-06	1057	208.01	5.4153e-06	5.4194e-06	264.63	75.733	59.602	17.986	5.4352e-06	25.251	349.726	234.995	214.106	134.649	239.060	278.549	133.899	141.505	340.471	346.000	140.901	147.832	148.408	155.873	257.393	154.870	-8191	255	
16126.908	1	1	0	0	0.3375	0.078647	0.13331	0.17532	0.086751	0.17588	0.24692	0.28456	0.10486	0.1307	0.097588	0.24457	0.18532	0.20182	0.13332	0.12674	-1.2479	-1.4312	-2.0062	-1.2958	-1.7375	-1.9708	-1.3375	-1.9667	-1.4792	-1.1688	-2.0375	-1.3104	-1.6229	-1.9833	-1.2104	-1.7271	306.066	378.200	228.400	136.046	327.582	275.484	429.561	375.742	246.476	293.960	400.803	127.371	348.961	279.207	169.545	399.660	0.00098808	0.00031042	0.00013419	973.91	1.3669e-06	1.8098e-06	1055.7	206.51	9.3146e-06	7.0967e-06	260.45	74.726	58.514	17.113	1.9877e-06	24.215	0.00049688	0.00049319	0.00013929	974.17	5.536e-06	5.4764e-06	1054	207.87	5.4193e-06	5.4947e-06	264.9	75.913	59.514	17.967	5.4798e-06	25.259	355.943	232.493	188.254	133.903	294.576	236.177	133.805	141.689	314.548	221.274	141.446	147.825	148.517	155.727	322.160	154.874	-8191	255	
16127.004	1	1	0	0	0.24334	0.12366	0.23893	0.092461	0.14516	0.22693	0.20346	0.15564	0.34513	0.25186	0.14628	0.15671	0.26401	0.12444	0.07506	0.086496	-1.1167	-1.2521	-2.0187	-1.5146	-1.3354	-1.9354	-1.4604	-2.0563	-1.5792	-1.1146	-2.0708	-1.3042	-1.3104	-1.95	-1.1917	-1.7938	178.392	373.730	300.857	356.887	376.078	218.847	138.774	448.125	179.095	401.028	426.738	363.267	457.643	414.817	446.277	474.237	0.00088635	0.00029896	8.8344e-05	974.29	9.3511e-06	3.7251e-06	1053.2	206.42	4.404e-06	1.4202e-06	258.86	74.941	58.138	17.266	7.4525e-06	24.203	0.00048818	0.0005016	0.00013707	972.36	5.3764e-06	5.4671e-06	1051.6	207.89	5.4801e-06	5.4542e-06	264.67	75.894	59.409	17.946	5.4702e-06	25.209	354.718	426.586	256.647	134.039	254.009	189.148	133.528	141.648	326.788	184.910	141.330	147.968	148.387	155.743	277.466	155.031	-8191	255	
16127.099	1	1	0	0	0.20646	0.16894	0.13208	0.17528	0.21943	0.30009	0.257	0.091363	0.27714	0.056058	0.12143	0.16365	0.16786	0.12008	0.16444	0.099599	-1.35	-0.95	-1.85	-1.4771	-1.2938	-2.1458	-1.4875	-1.8438	-1.7021	-1.1063	-1.8854	-1.6125	-1.3104	-2.1021	-1.3396	-1.7292	206.776	452.133	180.305	441.812	455.755	170.584	456.485	456.395	178.645	138.822	369.734	405.613	156.815	463.877	374.493	375.383	0.0010244	0.00071755	9.5948e-05	970.07	3.5923e-06	2.8222e-06	1056.9	207.45	1.034e-05	7.1737e-06	259.15	74.694	58.014	17.173	5.5069e-06	24.084	0.00049599	0.0005015	0.00013922	971.1	5.5541e-06	5.4876e-06	1054.3	208.58	5.4416e-06	5.5181e-06	264.07	75.717	59.521	17.932	5.4442e-06	25.182	363.095	199.649	249.127	133.927	345.429	317.510	133.533	141.853	324.780	282.912	140.804	148.001	148.808	155.571	265.216	154.804	-8191	255	
16127.195	1	1	0	0	0.084084	0.081912	0.10125	0.30022	0.084776	0.093003	0.14194	0.10277	0.13116	0.13015	0.31245	0.05887	0.065654	0.49776	0.29013	0.28891	-1.4792	-1.1313	-2.225	-1.6104	-1.1583	-2.1979	-1.4146	-1.6812	-2.0667	-1.3604	-1.9792	-1.5583	-1.4271	-1.9833	-1.3708	-1.6625	460.504	148.186	158.912	436.008	341.778	167.550	329.089	140.169	405.452	288.810	416.797	390.177	216.816	134.496	320.124	378.055	0.0010363	0.00022762	0.00011559	969.5	2.5916e-06	3.0078e-06	1056.9	206.48	1.2109e-05	2.4551e-06	260.65	74.295	57.859	17.117	2.9422e-06	23.962	0.00049934	0.00050366	0.00013948	970.4	5.6014e-06	5.5589e-06	1053.4	208.21	5.5481e-06	5.5157e-06	264.35	75.668	59.371	17.953	5.6156e-06	25.179	351.902	231.820	202.535	133.953	197.267	254.100	133.788	141.550	289.804	234.274	141.342	147.814	148.607	155.470	339.602	155.141	-8191	255	
16127.268	1	1	0	0	0.18512	0.080296	0.1055	0.15745	0.20165	0.36883	0.1712	0.45223	0.28546	0.17304	0.042428	0.14342	0.14065	0.092315	0.088945	0.21236	-1.4833	-1.075	-1.6979	-1.8354	-1.0958	-1.8667	-1.5333	-1.5292	-1.8625	-1.2938	-1.8958	-1.9375	-1.1313	-1.9667	-1.4042	-1.4438	303.558	315.820	450.861	400.556	441.266	363.149	473.647	439.600	156.514	188.119	125.582	303.013	399.034	205.210	221.906	358.397	0.00084797	0.00058955	8.4015e-05	975.56	7.7473e-06	3e-06	1054.5	206.61	4.3657e-06	5.4889e-06	257.84	74.562	58.235	17.227	4.4326e-06	24.242	0.00050326	0.00051272	0.00014074	972.77	5.5428e-06	5.5998e-06	1053.5	208.3	5.5207e-06	5.5542e-06	264.17	75.686	59.492	17.947	5.456e-06	25.272	357.435	168.649	286.301	133.914	247.420	388.283	133.903	141.541	244.814	307.027	141.635	148.169	148.042	155.769	269.928	154.683	-8191	255	
16127.387	1	1	0	0	0.099897	0.056714	0.042678	0.25372	0.24384	0.22175	0.49169	0.11268	0.035058	0.16042	0.15354	0.30449	0.35421	0.12442	0.10906	0.15816	-1.6354	-1.3563	-1.9625	-2.0292	-1.3	-1.9688	-1.5042	-1.3438	-2.0833	-1.1917	-1.6854	-1.7396	-1.0167	-1.9396	-1.6583	-1.3396	171.869	466.856	176.788	337.520	348.701	131.318	458.464	479.867	339.263	205.261	423.429	469.934	219.533	433.149	423.578	214.020	0.0012435	0.00022325	7.8796e-05	971.71	2.5541e-06	3.9215e-06	1052.3	206.89	7.3635e-06	5.3101e-06	259.11	74.175	58.403	17.244	1.2265e-06	24.196	0.00049939	0.00050464	0.00014302	969.22	5.5259e-06	5.455e-06	1050.8	207.94	5.4761e-06	5.5357e-06	264.04	75.631	59.546	17.976	5.3966e-06	25.259	361.675	234.358	223.330	133.874	224.794	323.647	133.739	141.626	323.072	372.125	141.046	147.956	148.132	155.497	162.282	154.848	-8191	255	
16127.483	1	1	0	0	0.066675	0.19061	0.3794	0.28049	0.08191	0.21098	0.44794	0.23206	0.11048	0.17836	0.18843	0.30726	0.14437	0.34567	0.12282	0.24743	-1.6458	-1.2313	-1.5646	-1.975	-1.1271	-1.9813	-1.7875	-1.3167	-1.9646	-1.2792	-1.5208	-1.8354	-1.1625	-2	-1.5542	-1.3771	268.169	205.351	285.188	126.193	395.832	234.238	374.611	467.396	382.732	442.003	258.519	224.338	441.169	380.275	458.111	390.487	0.0010055	0.00018485	0.00016234	965.73	6.1755e-06	2.8685e-06	1052.6	206.4	5.0166e-06	7.1159e-06	260.58	74.525	57.987	17.217	6.9396e-06	23.908	0.000504	0.00050431	0.00013978	968.3	5.5543e-06	5.5396e-06	1050.5	208.49	5.3924e-06	5.5306e-06	263.81	75.535	59.254	17.927	5.4267e-06	25.135	368.220	212.281	214.679	134.226	318.238	391.034	133.907	141.691	355.370	314.073	141.050	147.940	148.158	155.995	307.464	154.833	-8191	255	
16127.580	1	1	0	0	0.25696	0.18081	0.14964	0.2814	0.12292	0.043743	0.20324	0.28591	0.041525	0.11415	0.31677	0.21242	0.238	0.092727	0.098305	0.10762	-1.5083	-1.375	-1.4792	-2.15	-1.2896	-1.7667	-2.1083	-1.2479	-1.9833	-1.425	-1.4229	-2.1958	-1.2229	-1.625	-1.7563	-1.1187	423.074	150.322	318.565	155.568	156.297	131.614	441.637	447.324	358.678	346.532	300.325	459.907	414.835	363.293	415.188	178.823	0.00084085	0.0003103	2.4015e-05	968.98	9.6913e-06	5.3476e-06	1052.9	205.76	7.3709e-06	5.0706e-06	258.35	74.25	58.141	17.257	4.3054e-06	24.04	0.00050119	0.00049926	0.00013738	967.61	5.5111e-06	5.4456e-06	1050.4	207.63	5.3911e-06	5.4108e-06	263.62	75.402	59.31	17.926	5.4281e-06	25.186	361.764	258.531	310.689	133.974	253.268	249.076	133.804	141.687	338.334	280.783	141.426	147.973	148.653	156.158	238.607	154.880	-8191	255	
16127.676	1	1	0	0	0.17559	0.1987	0.14868	0.18173	0.2131	0.25948	0.18584	0.17969	0.29458	0.22041	0.30263	0.2352	0.16254	0.090464	0.14891	0.25237	-1.4021	-1.425	-1.4062	-2.1875	-1.075	-1.5479	-2.1083	-1.25	-1.9396	-1.4917	-1.4396	-2.1104	-1.2687	-1.7479	-1.9021	-1.0375	454.939	170.412	473.600	427.507	160.676	337.941	471.006	168.778	380.494	180.487	475.367	157.118	283.266	315.825	363.016	382.620	0.0010131	0.00059667	6.6755e-05	970.34	5.7526e-06	3.7343e-06	1053.5	205.5	3.9741e-06	8.3951e-06	259.89	73.985	58.278	17.17	5.0587e-06	24.101	0.00049701	0.00050199	0.0001411	967.56	5.4973e-06	5.4281e-06	1049.4	207.82	5.4458e-06	5.3842e-06	263.27	75.425	59.494	17.911	5.2655e-06	25.133	348.147	209.957	186.240	134.301	258.545	219.854	133.726	141.895	296.851	291.407	141.413	148.051	148.407	155.858	276.131	154.586	-8191	255	
16127.796	1	1	0	0	0.057033	0.15807	0.022622	0.28728	0.28843	0.13597	0.29771	0.15469	0.14203	0.031584	0.2316	0.25705	0.18149	0.23592	0.1284	0.27682	-1.4417	-1.6646	-1.3396	-2.2104	-1.4396	-1.4104	-2.0958	-1.2292	-1.8687	-1.5542	-1.175	-2.1208	-1.4292	-1.4958	-2.0396	-1.1562	208.710	333.198	223.487	417.197	455.740	244.257	441.796	407.949	421.681	145.651	412.031	435.767	398.129	196.360	383.704	330.003	0.00097491	0.00045796	0.00010938	966.35	3.7812e-06	8.0761e-06	1049.7	205.06	2.2927e-06	3.1384e-06	258.38	73.741	58.044	17.216	9.0253e-07	23.917	0.00048616	0.00048435	0.00013657	966.89	5.4382e-06	5.3153e-06	1047.9	207.11	5.4061e-06	5.332e-06	263.69	75.296	59.176	17.882	5.2828e-06	25.068	355.231	276.273	199.244	134.003	277.486	283.877	133.813	141.684	304.732	152.915	141.092	147.944	148.464	155.426	305.279	155.152	-8191	255	
16127.892	1	1	0	0	0.29131	0.11247	0.25646	0.05805	0.18758	0.079253	0.082123	0.22297	0.17009	0.13533	0.094162	0.25243	0.27912	0.025827	0.16196	0.047024	-1.3458	-1.6313	-1.2958	-2.1458	-1.3563	-1.3417	-2.0354	-1.0917	-1.5375	-1.8312	-1.0688	-1.7146	-1.4021	-1.4125	-2.2062	-1.1458	191.110	142.210	197.147	335.863	309.621	293.076	365.657	207.617	245.832	155.083	435.477	144.388	146.270	144.935	367.926	292.682	0.00081319	0.00021801	0.0001205	963.73	4.2985e-06	6.2592e-06	1050.3	205.34	5.133e-06	4.6947e-06	258.94	74.382	57.64	17.115	2.4724e-06	23.953	0.00048163	0.00048063	0.00013425	964.52	5.272e-06	5.2069e-06	1047.3	207.11	5.3026e-06	5.3447e-06	263.56	75.532	59.044	17.906	5.18e-06	25.125	357.437	393.977	188.946	134.234	283.157	277.379	134.036	141.448	263.567	261.504	141.591	148.419	148.558	155.779	169.888	154.802	-8191	255	
16127.989	1	1	0	0	0.1842	0.089214	0.13362	0.17065	0.26151	0.32794	0.30803	0.38091	0.31557	0.034376	0.14726	0.29123	0.052608	0.21324	0.28401	0.012874	-1.3229	-1.9104	-1.3104	-2.2625	-1.525	-1.2292	-2.1833	-1.1625	-1.7271	-1.8792	-1.0438	-1.95	-1.6063	-1.2417	-2.1021	-1.3458	215.440	456.796	159.186	419.849	198.299	334.822	431.785	368.357	306.908	346.474	232.734	461.375	386.389	384.531	202.816	171.581	0.00082628	0.00039098	0.00013058	959.42	1.6402e-06	5.2284e-06	1046.5	205.61	4.7179e-06	1.0835e-06	259.25	73.842	57.814	17.183	3.0055e-06	24.041	0.00047326	0.00048036	0.00013299	962.66	5.2788e-06	5.1674e-06	1046.7	207.12	5.1593e-06	5.1855e-06	263.18	75.289	59.061	17.828	5.0965e-06	25.012	353.090	203.571	167.524	134.303	461.522	292.830	133.942	141.684	376.730	236.282	141.206	147.911	148.293	156.115	274.943	154.876	-8191	255	
16128.085	1	1	0	0	0.10647	0.071124	0.18522	0.24758	0.342	0.19157	0.31244	0.27904	0.24945	0.19207	0.015815	0.28454	0.11909	0.20802	0.32154	0.10666	-1.1583	-1.8792	-1.0812	-2.0938	-1.7396	-1.2375	-2.2375	-1.3854	-1.4771	-1.9125	-1.2	-1.9104	-1.6562	-1.2333	-1.9792	-1.35	385.949	123.751	430.912	129.422	284.175	271.084	383.559	418.031	166.540	340.629	228.426	191.815	214.630	316.828	465.425	243.988	0.00091638	0.00071171	4.009e-05	961.23	6.0411e-06	6.01e-06	1052.7	205.22	5.689e-06	3.4458e-06	258.36	73.971	57.978	17.195	5.9893e-06	24.146	0.00046959	0.00046235	0.0001304	961.77	5.1987e-06	5.1153e-06	1046.1	206.95	5.089e-06	5.0412e-06	262.48	75.261	58.953	17.847	5.0066e-06	25.074	366.126	217.887	131.476	134.196	335.174	233.341	133.792	141.607	319.153	309.904	141.470	148.159	148.565	155.880	297.676	155.234	-8191	255	
16128.179	1	1	0	0	0.446	0.17214	0.2521	0.34902	0.12808	0.089868	0.16009	0.1215	0.10771	0.056126	0.19126	0.18903	0.22475	0.16099	0.35448	0.099031	-1.1771	-2.0208	-1.0354	-1.9021	-1.8188	-1.0562	-1.9583	-1.4438	-1.2958	-2.0229	-1.0396	-1.6562	-1.9396	-1.2458	-1.9438	-1.3917	387.135	232.051	146.462	366.417	124.061	271.171	421.123	435.962	311.350	195.534	251.966	408.704	473.805	162.170	367.442	449.860	0.00070788	0.00059152	7.6787e-05	962.76	6.6067e-06	4.6374e-06	1047.3	204.77	1.7181e-06	2.2753e-06	256.39	73.954	57.707	17.237	8.1507e-06	24.064	0.00046242	0.0004655	0.00013119	962.38	5.1165e-06	5.0908e-06	1043.4	206.59	5.0167e-06	5.1154e-06	261.81	75.029	58.807	17.856	5.0873e-06	25.016	350.302	418.391	151.728	133.968	279.156	435.848	134.094	141.553	298.836	341.709	141.128	148.296	148.552	155.967	271.664	154.881	-8191	255	
16128.275	1	1	0	0	0.28009	0.17629	0.22357	0.16459	0.22273	0.36726	0.097708	0.14761	0.17613	0.18959	0.12751	0.32123	0.083636	0.35294	0.22926	0.043993	-0.79167	-1.85	-1.1646	-1.6708	-1.6854	-1.2104	-2.1437	-1.7563	-1.1125	-1.9458	-1.2188	-1.6646	-2.0667	-1.0896	-2.0917	-1.6437	339.564	203.007	207.259	483.103	369.696	302.339	464.985	424.744	265.926	267.131	362.810	168.143	468.483	356.476	133.233	386.697	0.00078487	0.00021611	9.072e-06	963.8	4.0265e-06	3.919e-06	1045	203.57	3.8463e-06	4.8746e-06	258.43	73.797	58.084	17.185	3.0238e-06	24.082	0.00046489	0.00046025	0.00012987	962.32	5.0782e-06	5.138e-06	1043	206.8	5.0226e-06	5.0158e-06	262.16	75.148	59.11	17.82	5.0623e-06	24.971	347.992	299.559	234.853	134.341	230.707	241.248	133.924	141.384	349.419	302.085	141.418	148.286	148.315	156.178	333.381	154.574	-8191	255	
16128.396	1	1	0	0	0.19042	0.13934	0.26832	0.26728	0.11327	0.10458	0.30608	0.10266	0.26087	0.32437	0.0076022	0.13897	0.26624	0.17699	0.16864	0.097632	-0.75625	-2.0438	-1.4521	-1.5083	-1.9354	-1.1708	-1.9354	-1.8521	-1.1688	-2.0687	-1.5063	-1.6083	-2.0646	-1.0833	-1.7375	-1.8438	188.691	442.510	363.173	185.788	246.842	431.006	439.534	280.987	239.051	374.806	474.888	438.191	406.240	319.241	224.589	403.727	0.0010585	0.00025416	0.0001227	960.75	3.5507e-06	1.9719e-06	1048.7	204.28	6.6071e-06	2.016e-06	258.01	73.758	58.036	17.118	4.6807e-06	23.723	0.00046662	0.00045315	0.00012908	959.63	5.0687e-06	5.0959e-06	1043.1	206.48	5.1011e-06	5.0895e-06	262.26	75.106	58.963	17.751	4.9857e-06	24.874	360.119	445.109	223.836	134.319	261.598	254.666	134.012	141.672	300.461	266.352	141.039	147.917	148.369	155.823	296.609	154.739	-8191	255	
16128.492	1	1	0	0	0.16873	0.076064	0.24778	0.17011	0.099619	0.31376	0.11219	0.19678	0.15186	0.21398	0.20721	0.13399	0.096995	0.026449	0.24309	0.2503	-0.77292	-1.8708	-1.2104	-1.4292	-2.0062	-1.1271	-1.9083	-1.8083	-0.85	-2.0542	-1.6208	-1.275	-1.9854	-1.2458	-1.4917	-1.8813	204.916	208.235	460.670	390.521	378.976	214.655	433.514	401.573	466.149	148.720	435.743	390.602	326.853	380.606	267.445	425.454	0.00088655	0.00042913	0.00010293	962.95	4.8359e-06	2.4935e-06	1045.8	204.65	2.8419e-06	2.5222e-06	256.66	73.716	57.821	17.208	2.5014e-06	23.971	0.00046648	0.00046267	0.00012562	960.14	4.9643e-06	5.1332e-06	1041.9	205.75	5.0057e-06	4.9924e-06	260.95	75.059	58.891	17.788	5.0513e-06	24.954	346.097	219.972	211.421	134.362	199.373	328.324	133.895	141.701	295.830	476.392	141.403	148.268	148.297	155.645	298.667	154.867	-8191	255	
16128.564	1	1	0	0	0.24642	0.15618	0.22556	0.43352	0.1259	0.30851	0.33123	0.16243	0.25805	0.12213	0.10913	0.12339	0.3947	0.086639	0.011424	0.12169	-0.77083	-1.9083	-1.4771	-1.4917	-1.7396	-1.2229	-1.6708	-1.9542	-0.85833	-1.8958	-1.6667	-1.3354	-2.0167	-1.2896	-1.5438	-1.85	134.258	181.583	356.491	468.532	368.642	392.017	420.348	413.886	440.689	429.909	373.573	305.933	478.895	160.576	218.619	404.881	0.00096868	9.1039e-05	8.5434e-05	954.5	1.054e-05	2.0201e-06	1041.8	203.8	5.7749e-06	5.8474e-06	257.37	74.335	58.474	17.085	7.0662e-06	23.992	0.00045518	0.0004556	0.00012632	956.48	4.9706e-06	5.035e-06	1039.5	205.96	5.0548e-06	5.0691e-06	261.13	75.175	59.067	17.782	4.8563e-06	24.945	352.909	170.778	255.508	134.299	241.146	401.019	134.162	141.846	355.555	308.442	140.967	147.885	148.317	156.204	279.955	154.767	-8191	255	
16128.684	1	1	0	0	0.11071	0.25971	0.1908	0.1978	0.10608	0.12366	0.1542	0.073348	0.16005	0.17542	0.20974	0.045967	0.19942	0.28043	0.084076	0.17563	-0.81458	-1.6354	-1.4854	-1.1896	-1.85	-1.3771	-1.8438	-2.0687	-1.1417	-1.7104	-1.7104	-1.2667	-2.0458	-1.2875	-1.2417	-2.0542	178.978	352.332	268.192	426.421	140.406	231.453	399.818	159.813	165.445	154.588	202.924	304.946	131.797	174.226	310.548	395.696	0.00097281	0.00024281	7.2071e-05	961.55	4.2753e-06	3.8201e-06	1043.8	203.74	7.024e-06	2.436e-06	257.49	73.15	57.409	17.017	2.861e-06	24.033	0.00045748	0.00045162	0.00012789	957.67	5.0638e-06	5.0458e-06	1041.6	205.72	5.0427e-06	4.985e-06	261.32	74.877	58.697	17.728	5.0146e-06	24.945	353.534	230.034	202.351	134.258	228.818	314.095	134.154	141.722	333.478	234.884	141.339	147.920	148.610	156.024	379.250	155.062	-8191	255	
16128.781	1	1	0	0	0.3052	0.066539	0.126	0.089194	0.086855	0.18557	0.17253	0.15167	0.08555	0.093173	0.19822	0.11203	0.17092	0.12607	0.24263	0.10554	-0.81458	-1.6396	-1.8375	-1.1354	-1.9438	-1.5708	-1.5333	-1.9458	-1.1458	-1.5083	-1.9688	-1.3042	-1.8979	-1.3917	-1.0896	-2.0979	208.130	345.812	338.981	425.090	280.844	217.699	140.169	352.639	417.177	353.352	146.643	426.277	233.370	195.226	165.656	306.148	0.00097031	0.00041544	0.00011526	959.25	3.0561e-06	5.7371e-06	1046	204.15	2.2747e-06	2.1064e-06	258.24	73.759	57.278	17.116	3.1333e-06	23.829	0.00046421	0.00046003	0.00012868	956.31	5.0154e-06	5.0443e-06	1041	205.72	5.0473e-06	4.985e-06	261.72	75.032	58.739	17.753	5.0386e-06	24.907	356.984	235.073	217.692	134.361	265.596	225.022	134.057	141.980	351.330	224.891	141.485	148.427	148.515	155.412	316.702	155.239	-8191	255	
16128.877	1	1	0	0	0.2242	0.080853	0.13966	0.21013	0.075486	0.27133	0.34081	0.17431	0.063218	0.15573	0.17858	0.049346	0.25024	0.081774	0.056858	0.18377	-0.91875	-1.3062	-1.7938	-1.2042	-1.8125	-1.6458	-1.3354	-2.1688	-1.3896	-1.4729	-1.9625	-1.0646	-1.9896	-1.775	-1.2979	-2.1354	429.437	252.234	193.189	444.205	186.793	335.995	130.780	479.172	180.577	393.186	444.466	214.561	423.306	272.042	238.990	137.588	0.00087407	0.00044933	0.00012695	961.59	3.4691e-06	5.693e-06	1040.5	204.08	9.1262e-06	3.0785e-06	257.85	73.997	57.508	16.91	5.6675e-06	24.008	0.00045341	0.0004628	0.0001272	958.67	5.1007e-06	5.067e-06	1038	205.86	4.9841e-06	5.0093e-06	261.54	74.96	58.709	17.669	4.9898e-06	24.865	370.771	200.189	275.767	134.514	372.743	310.126	134.299	141.810	321.003	362.356	141.148	147.842	148.890	155.943	299.565	154.813	-8191	255	
16128.973	1	1	0	0	0.15743	0.098119	0.20989	0.16618	0.34523	0.12345	0.21596	0.157	0.040374	0.087668	0.51016	0.14948	0.11785	0.18559	0.24692	0.1937	-0.86875	-1.4417	-1.8438	-1.1854	-1.7437	-1.7833	-1.1229	-2.0917	-1.3792	-1.3354	-2.0062	-1.175	-1.6542	-1.7771	-1.1583	-1.9208	302.965	149.272	151.771	429.936	173.733	146.001	375.226	200.429	309.679	404.134	447.222	460.640	433.806	323.767	409.972	145.255	0.0010005	0.00030279	0.00011255	955.39	7.7075e-06	3.7577e-06	1039	203.91	7.5005e-06	8.6892e-06	258.16	73.664	57.132	16.925	3.0072e-06	23.894	0.00046157	0.00045439	0.00012871	955.9	5.0044e-06	4.9758e-06	1036.3	205.17	5.0821e-06	4.9905e-06	261.09	74.743	58.535	17.695	5.0529e-06	24.78	352.197	239.693	184.057	134.423	245.451	242.000	134.121	141.991	316.068	288.358	141.110	148.321	149.051	155.852	174.141	154.764	-8191	255	
16129.092	1	1	0	0	0.18519	0.27965	0.18985	0.10124	0.27301	0.057119	0.13458	0.1416	0.10866	0.25713	0.14299	0.047812	0.15326	0.06427	0.15936	0.068905	-1.0208	-1.325	-1.9354	-1.2521	-1.6812	-1.8583	-1.2708	-1.8771	-1.575	-1.2458	-1.9875	-1.4083	-1.6938	-1.9542	-1.0708	-1.9708	269.180	445.513	317.304	157.008	272.590	445.142	387.966	416.475	331.805	416.921	463.660	313.786	303.436	202.647	259.326	211.379	0.0009858	0.00025859	0.00015175	957.38	3.9391e-06	5.4078e-06	1038.7	203.81	5.9541e-06	6.538e-06	255.81	73.553	57.318	17.287	4.9174e-06	23.994	0.00045978	0.00046039	0.00012811	955.61	5.1724e-06	5.0657e-06	1036.2	205.61	5.0374e-06	5.0696e-06	260.64	74.764	58.798	17.804	4.9902e-06	24.849	344.796	222.402	209.846	134.046	322.211	317.493	134.012	141.849	339.229	287.012	141.504	148.460	149.090	155.638	202.076	155.102	-8191	255	
16129.188	1	1	0	0	0.08934	0.096779	0.10728	0.080304	0.12956	0.16669	0.43444	0.2186	0.19261	0.11525	0.11041	0.19628	0.30392	0.077843	0.1445	0.11977	-1.1979	-1.1292	-2.0125	-1.4083	-1.525	-1.8958	-1.3813	-1.9937	-1.7792	-1.3042	-2.2625	-1.3188	-1.4979	-2.1542	-1.0333	-1.8146	375.994	280.074	207.652	461.843	397.611	308.608	450.634	124.374	452.801	214.434	172.296	448.806	454.367	362.483	299.508	416.810	0.00092069	0.00013169	0.00012344	954.81	1.7383e-06	3.5317e-06	1036.1	204.58	7.7069e-06	7.5762e-06	257.42	73.422	57.602	16.97	6.1279e-06	23.923	0.00045646	0.00046047	0.00012786	953.91	4.9858e-06	5.0062e-06	1035.9	205.91	5.0209e-06	5.1178e-06	261.05	74.745	58.766	17.732	4.9813e-06	24.917	353.731	475.952	192.008	134.573	271.024	282.909	134.194	142.076	365.990	288.543	141.482	148.982	148.395	156.079	329.242	155.196	-8191	255	
16129.260	1	1	0	0	0.2844	0.098872	0.15919	0.29626	0.054542	0.41614	0.18789	0.16277	0.051951	0.046951	0.073627	0.18301	0.17232	0.18341	0.14978	0.15749	-1.0938	-1.1729	-1.9583	-1.5438	-1.3937	-2.0208	-1.4042	-1.9875	-1.8687	-1.0875	-2.1333	-1.4937	-1.4583	-2.0167	-1.0854	-1.9583	334.599	344.708	237.772	439.686	299.475	126.552	434.867	278.940	166.463	466.006	230.155	333.283	149.149	311.763	467.883	211.425	0.0010441	0.00031266	3.9457e-05	952.01	3.1466e-06	3.0354e-06	1038.9	203.98	3.7243e-06	5.2982e-06	256.4	73.707	57.592	16.916	3.7068e-06	24.175	0.00045514	0.00045716	0.0001259	952.48	4.9936e-06	4.9545e-06	1034.3	205.42	4.9257e-06	4.9209e-06	260.49	74.883	58.721	17.606	4.958e-06	24.915	349.850	245.164	193.814	134.313	265.609	293.286	134.074	141.766	291.451	300.157	141.349	148.325	148.911	155.985	258.198	154.966	-8191	255	
16129.357	1	1	0	0	0.048806	0.13172	0.14458	0.24318	0.16022	0.24561	0.3254	0.14949	0.12254	0.24836	0.20706	0.19028	0.24594	0.25999	0.34988	0.47775	-1.3729	-1.1521	-1.8792	-1.4188	-1.3396	-2.05	-1.2729	-1.7208	-1.9125	-1.1375	-1.8875	-1.5583	-1.4062	-2.1104	-1.2958	-1.7083	292.552	296.554	337.359	438.969	292.423	464.642	391.102	384.419	225.835	180.042	414.717	399.862	131.790	139.683	374.462	439.162	0.00082873	0.00041402	3.1299e-05	955.92	4.7018e-06	4.3323e-06	1040.9	203.66	6.0881e-06	4.15e-06	259.67	73.218	57.765	17.114	2.5047e-06	23.985	0.00046149	0.00046382	0.00012639	953	5.123e-06	4.9701e-06	1034	205.26	5.1687e-06	5.1881e-06	261.47	74.703	58.629	17.72	4.9767e-06	24.845	360.200	232.360	144.555	134.252	199.309	323.635	134.218	142.111	326.581	210.554	141.750	147.941	148.735	155.717	202.188	154.852	-8191	255	
16129.476	1	1	0	0	0.12826	0.37178	0.050698	0.34509	0.096809	0.18728	0.21267	0.20582	0.076172	0.46304	0.089977	0.32912	0.37206	0.22093	0.1706	0.10977	-1.6708	-1.1271	-1.7771	-1.7458	-1.2479	-2.0521	-1.5812	-1.4979	-2.1312	-1.1604	-1.7625	-1.8354	-1.0458	-2.0563	-1.4896	-1.6417	193.209	149.197	228.310	420.354	349.656	190.000	461.614	441.547	336.525	215.082	370.463	444.379	375.793	327.846	159.037	465.543	0.00087551	0.00022354	3.1673e-06	950.1	5.1099e-06	3.0412e-06	1034	204.49	8.9983e-06	6.5318e-06	257.13	73.363	57.34	17.068	6.8649e-06	23.778	0.00045974	0.00046246	0.00012768	952.55	5.1555e-06	5.2161e-06	1033.6	205.56	5.1337e-06	5.1861e-06	260.58	74.874	58.772	17.699	5.1385e-06	24.868	356.838	267.514	248.246	134.414	223.442	250.679	134.162	141.973	343.471	288.049	141.637	148.256	148.828	156.341	329.870	155.397	-8191	255	
16129.572	1	1	0	0	0.23827	0.026235	0.22505	0.18393	0.253	0.17359	0.13346	0.29452	0.063834	0.046476	0.16687	0.17906	0.35271	0.08768	0.061857	0.23656	-1.7146	-1.2	-1.6979	-1.7104	-1.0938	-2.0687	-1.7292	-1.5104	-1.9771	-1.2021	-1.8958	-1.8417	-1.2458	-2.0833	-1.3354	-1.4792	200.161	221.981	166.592	457.494	268.651	273.588	401.035	471.504	436.222	142.336	380.329	361.846	396.204	326.611	266.584	396.494	0.00093151	0.00037311	4.4705e-05	950.19	4.4207e-06	3.3582e-06	1031.4	203.42	8.2612e-07	5.633e-06	255.18	73.316	57.515	17.019	4.338e-06	23.947	0.0004753	0.00047332	0.00012936	952.55	5.2448e-06	5.141e-06	1032.3	205.38	5.1501e-06	5.1885e-06	259.99	74.809	58.645	17.715	5.1018e-06	24.909	352.984	258.341	204.449	134.284	252.265	316.965	134.198	142.111	456.369	367.364	141.538	148.622	149.102	156.198	160.600	155.164	-8191	255	
16129.669	1	1	0	0	0.071232	0.1136	0.11416	0.1181	0.2515	0.2573	0.31264	0.21131	0.16047	0.25994	0.34894	0.21116	0.10494	0.20506	0.33041	0.18765	-1.7812	-1.3208	-1.6146	-1.9354	-1.0938	-1.9667	-1.6354	-1.2146	-1.9854	-1.1625	-1.6125	-2.0708	-1.1354	-1.8563	-1.7521	-1.4021	132.650	154.960	174.285	454.581	125.776	468.719	441.375	169.632	171.853	479.801	480.022	137.801	367.995	438.993	176.475	435.627	0.0010077	0.00033081	0.00013359	952.37	1.1458e-06	3.2715e-06	1036.4	203.81	7.9467e-06	4.4025e-06	257.93	73.378	57.715	17.108	5.7743e-06	23.918	0.00047322	0.00047228	0.00012982	950.51	5.1418e-06	5.1968e-06	1032.6	205.37	5.1823e-06	5.0321e-06	260.6	74.677	58.727	17.706	5.0589e-06	24.879	355.033	180.227	208.845	134.179	279.781	228.767	133.928	141.807	362.545	319.500	141.734	148.343	148.935	156.241	291.996	155.224	-8191	255	
16129.789	1	1	0	0	0.2055	0.23261	0.20543	0.12871	0.19335	0.13477	0.14401	0.28046	0.13675	0.11129	0.24817	0.24362	0.091485	0.25428	0.24963	0.12597	-1.6083	-1.4021	-1.35	-2.0271	-1.2	-2.0875	-1.6167	-1.3792	-1.8729	-1.5292	-1.4312	-2.1312	-1.3312	-1.9208	-1.7333	-1.2542	270.212	249.698	280.635	363.776	329.176	378.133	386.448	464.403	330.260	257.318	422.432	202.771	173.108	154.277	427.507	307.278	0.00071615	0.00019211	0.00011067	951.25	7.574e-06	3.3957e-06	1041.4	203.77	5.6596e-06	1.4446e-06	255.23	73.256	57.387	16.837	3.8608e-06	23.677	0.00045784	0.00046048	0.00012746	949.94	5.0454e-06	4.9021e-06	1033.3	204.9	4.9992e-06	4.9786e-06	259.62	74.509	58.425	17.652	4.9987e-06	24.779	360.857	308.921	227.494	134.326	289.081	264.526	133.908	142.187	345.015	268.568	141.894	148.139	148.921	156.086	341.902	155.302	-8191	255	
16129.861	1	1	0	0	0.17247	0.088382	0.10006	0.13969	0.066948	0.081597	0.31089	0.22076	0.17568	0.20019	0.16656	0.079862	0.16623	0.11904	0.20556	0.21619	-1.7021	-1.3667	-1.4479	-2.175	-1.2042	-1.8667	-2.0104	-1.2583	-1.7229	-1.4083	-1.4292	-2.0146	-1.2938	-1.5542	-1.8708	-1.2979	183.394	334.390	265.499	375.437	474.704	243.329	423.161	447.677	454.797	156.921	418.482	469.662	208.945	212.103	222.140	403.904	0.00097057	0.00028702	0.00013546	947.16	2.8169e-06	3.328e-06	1029.4	203.53	8.9813e-06	2.2012e-06	255.2	73.457	57.669	16.969	6.2929e-06	23.783	0.00045727	0.00045806	0.00012603	947.96	5.0602e-06	4.9692e-06	1027.8	204.79	4.9304e-06	5.04e-06	260.19	74.59	58.558	17.653	5.0272e-06	24.803	352.975	295.275	203.844	134.636	165.400	278.717	134.020	141.925	331.223	418.036	141.647	148.465	148.624	156.219	265.898	155.497	-8191	255	
16129.957	1	1	0	0	0.21926	0.34313	0.29718	0.27263	0.058361	0.19137	0.27203	0.33638	0.07712	0.1048	0.097527	0.22721	0.20649	0.091061	0.22194	0.22306	-1.6646	-1.5979	-1.3479	-2.075	-1.2458	-1.5063	-2.2167	-1.0375	-1.8667	-1.6104	-1.3833	-1.9688	-1.4604	-1.5229	-1.9396	-1.5208	466.939	418.607	264.620	132.993	268.436	218.895	363.438	431.957	320.391	316.353	321.385	376.683	168.570	148.206	398.170	157.313	0.0010936	0.00010538	3.5206e-05	949.73	4.9431e-06	5.5199e-06	1034.1	203.29	8.0884e-06	5.0577e-06	256.89	73.617	57.172	17.111	4.5439e-06	23.739	0.00045902	0.00046443	0.00012973	949.15	5.0572e-06	5.1622e-06	1029.6	204.9	5.0769e-06	5.1464e-06	260.24	74.503	58.413	17.725	5.1124e-06	24.844	343.803	340.462	255.975	134.352	343.706	308.294	134.307	141.729	288.729	388.993	141.224	148.614	148.661	156.037	264.127	154.974	-8191	255	
16130.078	1	1	0	0	0.10703	0.10532	0.010809	0.20966	0.28205	0.36546	0.1392	0.2206	0.085369	0.21578	0.13207	0.16231	0.30871	0.069192	0.03822	0.20722	-1.5167	-1.5271	-1.3167	-2.1729	-1.5312	-1.4125	-2.2313	-1.1063	-1.7771	-1.7125	-1.1729	-2.1479	-1.5042	-1.4688	-1.8354	-1.0479	244.821	139.453	137.888	431.154	460.994	427.907	437.436	404.545	288.059	242.336	471.995	420.706	454.271	420.567	126.371	419.619	0.00098554	0.0002392	3.2866e-05	948.62	3.5849e-06	7.9403e-06	1033.5	204.33	8.2157e-06	1.523e-06	256.3	73.243	57.264	16.932	7.0033e-06	23.777	0.00046518	0.00046782	0.00012946	948.65	5.0702e-06	5.1726e-06	1030.1	205.08	5.045e-06	5.1261e-06	260.14	74.408	58.42	17.666	4.9401e-06	24.773	352.865	200.287	258.270	134.362	310.428	353.161	134.150	141.831	335.598	452.934	141.952	148.550	148.892	156.084	278.270	155.407	-8191	255	
16130.172	1	1	0	0	0.16258	0.20266	0.37422	0.1754	0.18462	0.045004	0.11152	0.28397	0.0219	0.07374	0.13786	0.12649	0.1642	0.06711	0.1481	0.11459	-1.3792	-1.7687	-1.1729	-2.0604	-1.4521	-1.1229	-2.3521	-1.2083	-1.6042	-1.7875	-1.3583	-1.8333	-1.4479	-1.2938	-1.9937	-1.3458	371.794	473.292	164.807	367.944	405.170	229.142	367.731	324.467	410.740	389.725	273.085	450.893	129.793	342.838	251.180	457.922	0.00095565	0.00021564	2.4416e-05	951.62	4.0567e-06	5.7876e-06	1030.8	203.73	4.7998e-06	4.0664e-06	256.95	73.165	56.724	17.132	2.0029e-06	23.648	0.00045963	0.00045491	0.00012969	950.12	5.0921e-06	5.0785e-06	1030	204.84	5.0426e-06	5.0691e-06	260.64	74.586	58.273	17.745	5.0019e-06	24.737	345.539	164.702	392.112	134.685	229.301	262.421	134.110	141.980	415.214	339.127	141.812	148.108	148.917	156.547	358.206	155.308	-8191	255	
16130.268	1	1	0	0	0.054243	0.2097	0.15827	0.19886	0.14494	0.29361	0.33203	0.12872	0.18025	0.11026	0.20276	0.13795	0.10826	0.12534	0.37152	0.19322	-1.0333	-1.8521	-1.125	-2.0417	-1.2708	-1.2729	-2.0917	-1.5104	-1.5167	-1.9604	-1.3146	-2.0208	-1.6104	-1.375	-2.0646	-1.4896	187.892	461.744	416.739	418.954	476.496	293.537	401.602	458.671	333.433	421.673	462.679	473.512	466.068	213.399	467.043	174.580	0.00099791	0.00039427	9.804e-05	953.69	6.2822e-06	4.8874e-06	1033.8	204.06	5.3172e-06	6.4967e-07	255.24	73.392	56.785	17.01	2.9566e-06	23.854	0.00045866	0.00046512	0.0001319	950	5.0991e-06	5.1301e-06	1029.1	204.91	5.0347e-06	5.0369e-06	259.24	74.589	58.229	17.627	5.0292e-06	24.794	362.481	212.257	241.118	134.542	266.649	295.777	134.222	141.921	318.714	388.802	141.796	148.594	148.533	156.587	361.934	155.249	-8191	255	
16130.389	1	1	0	0	0.3326	0.16213	0.094584	0.13428	0.088901	0.07505	0.19608	0.097251	0.21696	0.14713	0.093673	0.31138	0.1343	0.15451	0.10432	0.20772	-1.3958	-2.0312	-1.025	-1.7771	-1.8021	-1.0875	-2.2979	-1.4	-1.375	-2.2021	-1.3375	-1.9208	-1.7229	-1.2729	-1.8792	-1.5875	168.423	184.958	138.590	343.701	405.335	208.553	407.961	388.605	167.263	380.101	338.864	274.936	482.236	129.744	299.250	245.631	0.00086154	0.00026006	0.00011661	948.45	6.5227e-06	7.1687e-07	1036.2	203.64	3.1774e-06	2.8164e-06	256.56	73.626	57.096	17.003	6.742e-06	23.659	0.00046087	0.00046695	0.00012875	948.64	5.0889e-06	5.0855e-06	1031.3	205.09	5.0676e-06	5.0461e-06	260.18	74.685	58.212	17.653	5.0906e-06	24.758	353.710	198.092	239.623	134.439	241.878	361.844	134.247	142.073	368.739	311.877	141.577	148.276	149.066	156.191	246.246	155.128	-8191	255	
16130.461	1	1	0	0	0.15279	0.21513	0.12263	0.080561	0.22105	0.23884	0.2959	0.34629	0.09827	0.24321	0.23065	0.12707	0.15567	0.16532	0.058319	0.19885	-0.93333	-2.0917	-1.0208	-1.9333	-1.7042	-1.0604	-1.9625	-1.6313	-1.3438	-2.2229	-1.3708	-1.725	-1.9833	-1.1729	-1.7188	-1.6187	349.580	361.217	469.403	177.992	311.906	457.828	381.697	148.104	479.012	282.883	416.229	426.412	207.821	438.636	422.000	214.517	0.00083397	0.00028845	0.0001457	941.59	7.4396e-06	4.9564e-06	1040	203.89	6.1984e-06	7.6261e-06	257.06	73.036	57.696	17.149	4.9104e-06	23.847	0.00046604	0.00046533	0.00012878	947.31	5.0492e-06	5.0795e-06	1031.7	205.12	5.0671e-06	5.1557e-06	259.99	74.444	58.841	17.736	5.0921e-06	24.779	351.762	240.185	215.454	134.519	299.778	226.841	134.267	141.992	319.652	311.409	141.875	148.564	148.868	157.120	362.430	155.365	-8191	255	
16130.557	1	1	0	0	0.3487	0.36418	0.36904	0.1374	0.070649	0.19338	0.2628	0.07721	0.52158	0.18352	0.086448	0.25483	0.31808	0.12352	0.016283	0.078383	-0.78958	-1.8708	-1.325	-1.5271	-1.9458	-1.2417	-2.0979	-1.5271	-1.0625	-2.1729	-1.2979	-1.5354	-1.8833	-1.1875	-1.8958	-1.7979	304.961	479.968	400.766	458.159	440.767	389.641	436.936	378.435	229.219	358.199	196.775	366.454	347.536	132.660	253.559	310.562	0.00096976	0.00045864	0.00012217	949.03	8.0976e-06	2.6192e-06	1033.2	204.79	4.3077e-06	8.9164e-06	256.59	72.867	57.093	16.935	6.9219e-06	23.601	0.0004676	0.00047463	0.00012975	949.57	5.2302e-06	5.2119e-06	1031.6	205.66	5.2386e-06	5.0772e-06	260.02	74.488	58.364	17.687	5.1619e-06	24.764	357.251	220.788	225.885	134.567	249.614	205.458	134.245	141.655	360.461	267.428	141.732	148.850	148.981	156.784	295.495	155.529	-8191	255	
16130.653	1	1	0	0	0.11982	0.17266	0.1178	0.2341	0.13335	0.11727	0.33317	0.012564	0.24177	0.071083	0.12973	0.10609	0.13073	0.16109	0.17513	0.09983	-0.84583	-2.0479	-1.2812	-1.4979	-2.0104	-1.4542	-1.8583	-1.875	-1.0271	-1.9562	-1.5562	-1.3792	-1.8813	-1.2729	-1.7104	-1.8208	273.478	215.610	247.068	438.974	462.490	375.967	404.133	185.651	442.584	408.557	452.452	376.526	355.743	447.701	134.339	373.671	0.00096926	0.00018666	7.516e-05	948.38	3.1078e-06	1.7789e-06	1032.7	204.41	4.3757e-06	5.3882e-06	255.61	73.185	57.066	17.159	3.3714e-06	23.821	0.00047651	0.00046947	0.00012817	947.6	5.1853e-06	5.273e-06	1029.7	204.89	5.2041e-06	5.1643e-06	260.28	74.52	58.29	17.719	5.2893e-06	24.794	355.571	410.137	461.020	134.598	436.023	345.353	134.077	142.188	352.633	171.303	141.222	148.733	148.828	156.088	261.687	155.067	-8191	255	
16130.749	1	1	0	0	0.17447	0.31471	0.1963	0.32051	0.10649	0.23897	0.070916	0.22364	0.11028	0.32438	0.27286	0.27787	0.086764	0.28609	0.21061	0.19218	-0.71875	-1.9625	-1.3958	-1.3	-2.1417	-1.2875	-1.875	-2.0292	-1.1729	-2.1354	-1.5792	-1.2687	-2.2125	-1.225	-1.5833	-1.9917	176.772	257.292	453.217	144.674	293.952	207.684	163.448	449.403	414.401	224.760	376.782	387.648	382.198	400.988	141.566	145.102	0.00090906	0.00036278	7.3379e-05	947.87	2.7595e-06	4.7774e-06	1035.6	202.99	6.2298e-06	7.5969e-06	255.93	73.194	56.791	17.053	4.3773e-06	23.857	0.00048047	0.00048276	0.00013271	947.42	5.2262e-06	5.2218e-06	1031.3	204.95	5.2509e-06	5.2738e-06	259.93	74.665	58.31	17.652	5.1484e-06	24.826	356.233	160.652	220.404	134.295	259.007	249.587	134.214	142.127	328.021	275.867	141.479	148.375	148.646	156.269	281.475	155.596	-8191	255	
16130.870	1	1	0	0	0.061093	0.19053	0.073835	0.13986	0.17814	0.12238	0.37063	0.25138	0.28894	0.36462	0.22346	0.20092	0.25169	0.24487	0.042568	0.18166	-0.65833	-1.8854	-1.4813	-1.3937	-1.8771	-1.4042	-1.6	-2.0438	-1.1917	-1.725	-1.7083	-1.2292	-1.9292	-1.4521	-1.3771	-2.1583	332.323	277.195	339.993	363.503	443.619	166.728	345.970	434.509	471.741	338.530	377.897	402.136	408.910	448.607	269.317	326.313	0.00095992	0.00048611	9.2508e-05	955.93	5.4888e-06	3.5015e-06	1034.1	203.56	4.7108e-06	3.3574e-06	255.5	73.216	57.491	16.991	4.4462e-06	23.772	0.00047832	0.00047102	0.00013087	950.27	5.1261e-06	5.1845e-06	1030.5	204.62	5.0935e-06	5.0705e-06	260.19	74.541	58.496	17.697	5.1271e-06	24.821	358.830	209.721	178.225	134.022	251.573	242.715	134.116	141.406	336.496	453.483	140.914	147.987	148.279	155.650	241.481	154.664	-8191	255	
16130.966	1	1	0	0	0.11262	0.14285	0.072123	0.17646	0.060956	0.14772	0.085114	0.40331	0.12811	0.058375	0.12854	0.38967	0.34223	0.14723	0.29118	0.31482	-0.71042	-1.7708	-1.725	-1.0333	-1.9354	-1.5625	-1.5562	-2.0646	-1.1812	-1.8917	-1.875	-1.0146	-1.9167	-1.4458	-1.2542	-1.9833	293.964	440.378	150.965	457.513	282.018	374.907	417.610	436.769	418.301	342.840	478.431	148.187	137.067	190.337	307.243	187.491	0.00093856	0.00043999	0.00013044	952.27	5.1067e-06	6.3129e-06	1032.3	203.79	4.7654e-06	4.7682e-06	255.78	73.466	57.009	17.03	7.2321e-06	23.796	0.00046548	0.00047542	0.00013133	949.27	5.1306e-06	5.1222e-06	1030.6	204.87	5.1456e-06	5.132e-06	259.56	74.5	58.373	17.699	5.1503e-06	24.876	358.015	193.374	184.520	134.037	221.274	328.224	133.959	141.316	303.782	296.443	141.189	148.329	148.849	156.138	277.265	155.046	-8191	255	
16131.060	1	1	0	0	0.20174	0.31422	0.15401	0.16335	0.11092	0.17098	0.14672	0.16097	0.30769	0.063049	0.24879	0.10612	0.11027	0.17439	0.17848	0.26193	-1.1646	-1.5542	-1.8146	-1.2	-1.8438	-1.5771	-1.3333	-2.0792	-1.3458	-1.5417	-2.1271	-1.1833	-1.8708	-1.6542	-0.98958	-1.9312	407.277	306.421	452.574	445.919	201.792	225.043	405.327	439.917	333.180	226.974	451.905	265.775	131.302	188.435	162.724	415.307	0.0010417	0.00044254	0.00012912	947.66	4.3645e-06	5.0492e-06	1032.9	203.09	3.2707e-06	4.0271e-06	254.58	73.519	57.592	16.922	3.9743e-06	23.786	0.00047353	0.00047466	0.00013425	948.29	5.2535e-06	5.3378e-06	1028.5	204.95	5.3709e-06	5.4092e-06	259.71	74.883	58.516	17.68	5.4737e-06	24.879	363.662	184.491	250.308	134.515	245.058	265.794	133.890	141.358	351.403	256.595	141.158	148.274	148.245	156.137	318.818	154.553	-8191	255	
16131.158	1	1	0	0	0.26298	0.035114	0.14756	0.17601	0.20112	0.063533	0.26812	0.11579	0.10829	0.21883	0.27221	0.23591	0.1562	0.15315	0.063407	0.19113	-0.94167	-1.5312	-1.9167	-1.2042	-2.0271	-1.6521	-1.4625	-2.0583	-1.3667	-1.6604	-2.0687	-1.1792	-1.9396	-1.7292	-1.1646	-2.3375	293.409	349.409	365.766	414.065	324.501	393.161	413.406	367.941	203.844	416.230	421.643	465.249	478.467	461.307	281.174	159.982	0.0010403	0.00024809	8.9112e-05	946.36	7.6162e-06	7.7642e-06	1031.8	203.13	6.3248e-06	1.9313e-06	254.44	72.923	56.805	16.904	5.7382e-06	23.851	0.00049255	0.00050132	0.00014176	948.64	5.4756e-06	5.4442e-06	1029.3	205.15	5.4316e-06	5.4817e-06	259.67	74.508	58.347	17.708	5.3986e-06	24.934	354.431	309.241	241.524	133.964	285.855	346.370	134.326	141.805	317.290	226.950	141.806	148.043	148.574	155.354	297.533	155.034	-8191	255	
16131.252	1	1	0	0	0.11224	0.26199	0.22521	0.18079	0.13005	0.2707	0.18094	0.14341	0.18049	0.21921	0.081923	0.23038	0.1275	0.22644	0.34466	0.11601	-0.78333	-1.4	-2.0167	-1.1812	-1.7542	-1.7271	-1.0562	-2.0625	-1.4771	-1.2271	-2.2438	-1.1292	-1.6313	-1.725	-1.0438	-1.9583	349.112	374.061	284.462	459.578	334.429	229.401	389.814	356.885	130.431	420.975	170.652	451.118	165.506	272.080	432.216	356.150	0.00090274	0.00036844	5.4921e-05	950.99	1.4778e-06	4.3763e-06	1030.2	203.15	4.3475e-06	2.2408e-06	255.13	73.552	57.32	16.918	6.9887e-07	23.726	0.00049633	0.00048499	0.00013281	949.01	5.2885e-06	5.2172e-06	1028.1	204.98	5.1673e-06	5.2358e-06	259.64	74.707	58.518	17.673	5.1679e-06	24.783	344.510	209.552	283.499	133.886	308.379	294.401	133.681	141.699	370.922	401.187	141.465	148.078	148.207	155.705	161.302	154.852	-8191	255	
16131.349	1	1	0	0	0.12703	0.092279	0.099619	0.16486	0.13557	0.068784	0.16874	0.11318	0.36188	0.22775	0.074542	0.31523	0.0903	0.30902	0.1654	0.043583	-1.0521	-1.3917	-1.9417	-1.2875	-1.7854	-1.7917	-1.4542	-2.1312	-1.4583	-1.2479	-2.1917	-1.6562	-1.65	-1.8875	-1.0958	-1.7917	346.100	207.131	299.295	157.308	463.219	256.031	453.801	408.140	229.092	357.749	226.152	421.210	246.027	472.023	162.248	405.946	0.00095643	0.00037583	4.4608e-05	947.24	8.967e-06	5.0221e-06	1031.4	202.64	4.6539e-06	4.3391e-06	255.85	73.464	57.063	16.975	2.3773e-06	23.65	0.00046653	0.00047257	0.00013026	946.79	5.149e-06	5.1318e-06	1028.5	204.81	5.0387e-06	5.1677e-06	259.23	74.542	58.465	17.658	5.1759e-06	24.819	351.430	225.590	258.376	134.032	232.330	255.658	134.045	141.570	333.125	307.335	141.182	148.065	148.480	155.587	223.019	155.135	-8191	255	
16131.469	1	1	0	0	0.22609	0.11952	0.11145	0.34217	0.21743	0.15027	0.062812	0.16839	0.088635	0.08461	0.089267	0.1536	0.11648	0.21986	0.13799	0.27312	-1.3792	-1.1562	-1.8979	-1.3813	-1.6083	-2.0979	-1.2646	-1.8729	-1.6021	-1.0896	-2.1937	-1.4062	-1.3687	-2.0687	-1.0854	-1.9604	376.990	338.706	291.698	457.065	336.835	384.901	462.995	404.305	331.857	481.697	444.093	143.151	175.442	376.474	467.110	342.459	0.0009216	0.00010662	9.0858e-05	947.13	6.821e-06	9.2499e-06	1027.6	204.33	5.5172e-06	7.876e-07	255.92	72.936	57.162	16.963	3.591e-06	23.754	0.00047396	0.00047905	0.00012905	945.8	5.193e-06	5.0689e-06	1027.1	205.06	5.1428e-06	5.1649e-06	259.5	74.318	58.476	17.656	5.2235e-06	24.742	351.142	442.699	184.038	134.174	234.830	313.335	134.119	141.243	343.206	266.789	141.332	148.022	148.571	156.061	273.283	155.273	-8191	255	
16131.565	1	1	0	0	0.22496	0.32722	0.095025	0.2344	0.10996	0.23921	0.13584	0.13268	0.21836	0.31745	0.11467	0.24823	0.12931	0.13836	0.069828	0.18011	-1.4458	-1.1979	-1.8563	-1.4375	-1.3708	-2.0312	-1.3708	-1.7437	-1.625	-1.2146	-2.0792	-1.6437	-1.3479	-1.9333	-1.1021	-1.6771	208.983	423.045	162.464	440.282	367.230	173.041	444.972	367.044	140.369	256.671	147.255	443.418	405.406	446.950	157.094	360.511	0.00095958	0.00010663	0.00014751	944.07	2.1288e-06	5.5106e-06	1031	203.25	8.0507e-06	1.8436e-06	254.11	73.064	57.544	17.098	4.8296e-06	23.787	0.00047154	0.00046461	0.00013125	947.4	5.1413e-06	5.1529e-06	1027.4	204.8	5.015e-06	4.9764e-06	259.26	74.381	58.496	17.631	4.9773e-06	24.804	359.128	366.344	200.184	134.120	237.877	332.604	134.027	141.739	280.837	355.917	141.427	148.135	148.422	155.810	246.833	155.197	-8191	255	
16131.662	1	1	0	0	0.046778	0.088789	0.11598	0.14542	0.25304	0.12276	0.40972	0.23725	0.38565	0.16226	0.17094	0.20996	0.088229	0.20773	0.17174	0.21957	-1.55	-1.0125	-1.9521	-1.625	-1.1417	-2.0438	-1.4896	-1.5875	-1.7021	-0.90208	-1.9729	-1.45	-1.1479	-2.1396	-1.3833	-1.6396	216.417	370.592	409.820	130.499	153.018	454.043	460.584	384.856	190.132	251.889	167.547	126.282	404.167	180.211	213.230	280.572	0.0010375	9.3374e-05	8.0853e-05	946.95	4.3704e-06	5.971e-06	1028.9	202.67	9.1325e-06	2.7213e-06	255.53	72.461	57.388	16.942	5.4682e-06	23.882	0.00045256	0.00046746	0.00012515	945.9	5.066e-06	5.0142e-06	1024.5	204.43	5.0354e-06	5.0682e-06	258.87	74.103	58.192	17.614	5.0326e-06	24.794	356.416	187.083	234.663	133.880	236.873	233.771	133.940	141.741	340.306	424.604	141.522	147.781	148.443	155.877	264.072	154.688	-8191	255	
16131.758	1	1	0	0	0.17599	0.11559	0.31387	0.19191	0.098937	0.21295	0.30171	0.15559	0.12487	0.1836	0.063484	0.058812	0.030352	0.053946	0.064309	0.19109	-1.5312	-1.1562	-1.825	-1.9708	-0.96458	-2	-1.5562	-1.4792	-1.8771	-1.1625	-1.675	-1.7938	-1.2229	-1.8104	-1.4146	-1.4292	252.435	209.960	427.189	433.758	261.746	319.575	173.516	296.097	360.432	263.088	449.996	261.686	238.804	456.482	300.076	451.286	0.00080897	0.0002165	6.8747e-05	940.97	6.1794e-06	1.9352e-06	1029.9	202.47	4.0888e-06	3.4034e-06	254.61	73.086	57.15	16.974	3.6682e-06	23.875	0.00046477	0.00046566	0.00012938	943.38	5.2861e-06	5.1691e-06	1023.8	204.43	5.1478e-06	5.1471e-06	258.31	74.518	58.233	17.627	5.1795e-06	24.847	351.839	436.901	363.068	134.071	218.470	315.482	133.747	141.578	301.348	252.583	141.201	148.105	148.580	155.268	183.827	155.036	-8191	255	
16131.854	1	1	0	0	0.12653	0.20444	0.24022	0.2252	0.075989	0.23516	0.23639	0.16778	0.24318	0.19742	0.057265	0.098191	0.32063	0.13391	0.26653	0.23931	-1.6021	-1.2354	-1.6542	-1.8583	-1.0875	-1.8458	-1.4854	-1.3792	-1.9354	-1.2708	-1.6604	-1.7646	-1.1771	-1.8729	-1.6417	-1.4167	353.932	140.290	430.425	463.563	179.825	470.585	423.637	125.687	252.979	360.948	389.423	199.832	247.496	370.720	185.290	409.663	0.0010148	0.00045413	9.0135e-05	943.41	4.2517e-06	3.6872e-06	1025.3	203.04	2.7257e-06	2.8683e-06	256.78	73.086	57.134	17.041	2.6765e-06	23.737	0.00046727	0.00046982	0.00013025	946.07	5.1086e-06	5.07e-06	1023.7	204.09	5.0785e-06	5.0498e-06	259.4	74.38	58.334	17.659	4.98e-06	24.678	357.607	237.493	153.089	134.064	232.632	320.865	134.006	141.815	329.569	350.740	141.545	147.977	148.713	156.251	257.057	154.918	-8191	255	
16131.950	1	1	0	0	0.036544	0.045065	0.019894	0.33037	0.20025	0.18097	0.049513	0.15234	0.16902	0.20661	0.20945	0.11364	0.26482	0.10803	0.15773	0.33447	-1.7292	-1.2	-1.3375	-2.0083	-1.0562	-1.875	-1.6271	-1.2854	-1.9021	-1.4042	-1.5146	-2.0542	-1.2333	-1.9	-1.7208	-1.2208	323.313	237.795	401.477	428.231	237.577	198.069	298.306	427.185	264.981	221.769	444.894	403.375	481.115	351.820	165.806	125.244	0.0009805	0.00074938	7.0804e-05	945.48	2.5452e-06	2.1412e-06	1023.6	203.35	6.9096e-06	1.5554e-06	253.97	72.896	57.35	16.964	7.1283e-06	23.588	0.00045086	0.00045678	0.00012948	944.4	5.0969e-06	5.0351e-06	1022.8	204.54	5.0627e-06	5.1591e-06	258.77	74.169	58.368	17.593	5.1262e-06	24.671	360.953	246.925	146.066	134.021	328.912	340.719	133.844	141.824	334.222	199.134	141.406	148.182	148.775	155.646	284.583	155.322	-8191	255	
16132.069	1	1	0	0	0.29298	0.22481	0.15533	0.25437	0.22357	0.041475	0.10818	0.10362	0.055989	0.041006	0.19478	0.052601	0.069237	0.18836	0.097988	0.17252	-1.6625	-1.3208	-1.5729	-1.925	-1.0021	-1.7104	-1.775	-1.3104	-2.1771	-1.575	-1.4792	-1.9792	-1.1896	-1.7292	-1.6667	-1.1562	375.846	432.749	314.426	403.879	244.097	218.493	394.919	370.659	161.385	288.559	429.880	293.302	158.219	450.167	175.186	360.544	0.0010683	0.00028635	8.6903e-05	944.86	3.0237e-06	3.3226e-06	1029.7	203.71	7.4355e-06	4.1274e-06	254.34	73.05	57.039	16.904	1.9767e-07	23.766	0.00047421	0.00047916	0.00013103	943.72	5.2782e-06	5.2387e-06	1025.4	205.18	5.2402e-06	5.255e-06	258.72	74.322	58.255	17.614	5.0897e-06	24.772	360.591	220.742	163.220	134.169	334.106	291.739	133.874	141.842	318.164	319.139	141.421	148.152	148.621	155.596	137.956	155.268	-8191	255	
16132.165	1	1	0	0	0.17496	0.21968	0.11561	0.27884	0.03517	0.20638	0.095926	0.21539	0.19472	0.021494	0.13761	0.28018	0.17438	0.11633	0.31137	0.4003	-1.525	-1.3208	-1.2479	-2.0938	-1.3438	-1.375	-1.8896	-1.1146	-1.9458	-1.4021	-1.3146	-2.0417	-1.3479	-1.6917	-1.8042	-1.1583	316.264	287.357	411.732	424.178	284.019	403.557	363.023	401.398	257.102	171.985	193.046	244.486	166.178	458.646	482.970	453.114	0.0010052	5.1603e-05	0.00010142	942.81	3.5385e-06	7.9705e-06	1026.5	203.92	1.1981e-06	2.398e-06	253.29	73.201	56.756	16.939	6.7956e-06	23.599	0.00047096	0.00047274	0.00013176	944.16	5.0584e-06	5.1319e-06	1023.6	204.68	5.1468e-06	5.171e-06	258.48	74.296	58.101	17.627	5.129e-06	24.707	352.607	367.091	174.426	134.218	416.936	293.012	133.948	141.898	415.134	328.539	141.439	148.240	149.010	156.097	293.102	154.949	-8191	255	
16132.261	1	1	0	0	0.055557	0.16692	0.091397	0.27191	0.17873	0.095942	0.40389	0.10826	0.20563	0.052662	0.17799	0.13638	0.30077	0.1762	0.16596	0.087138	-1.525	-1.5938	-1.0917	-2.1625	-1.2604	-1.5083	-2.1146	-1.2021	-1.8229	-1.5125	-1.2729	-2.0583	-1.3312	-1.7667	-1.9979	-1.2062	441.806	286.368	383.173	374.973	162.662	329.298	400.272	454.604	439.235	232.784	182.941	170.230	405.925	238.042	387.249	474.109	0.0010019	0.00030057	4.425e-05	943.25	5.1113e-06	9.3841e-06	1027.3	203.03	6.6085e-07	3.0034e-06	255.54	73.088	56.632	16.936	6.6346e-06	23.64	0.00047299	0.00046952	0.00013156	943.39	5.1117e-06	5.1743e-06	1025.9	204.63	4.9934e-06	5.0156e-06	259.28	74.271	58.123	17.614	4.8604e-06	24.623	354.075	296.789	193.458	134.142	252.091	242.526	133.943	141.667	130.315	250.381	141.698	148.177	148.276	155.905	278.009	154.879	-8191	255	
16132.357	1	1	0	0	0.078663	0.43139	0.25333	0.14311	0.32103	0.30104	0.23604	0.24732	0.065058	0.12032	0.19778	0.17824	0.01031	0.15676	0.28178	0.21854	-1.4438	-1.6396	-1.1125	-2.3292	-1.25	-1.6375	-2.1167	-1.2604	-1.8687	-1.9062	-1.1437	-2.0687	-1.5792	-1.4271	-1.9771	-1.1521	172.477	137.766	164.530	373.295	390.836	151.844	440.683	438.784	396.321	340.768	446.856	400.083	338.092	176.194	384.101	337.110	0.0010176	0.00019132	0.00012755	941.09	3.4979e-06	4.0444e-06	1031.4	202.36	8.2153e-06	3.5607e-06	254.23	72.836	57.29	16.971	6.6129e-06	23.767	0.00045231	0.00045208	0.0001247	941.47	4.9297e-06	4.9658e-06	1023.8	204.32	4.8573e-06	4.8366e-06	258.4	74.113	58.167	17.576	4.7311e-06	24.699	352.371	196.321	263.114	134.329	247.530	369.596	133.994	141.814	342.982	274.465	141.773	148.339	148.899	156.001	244.529	155.144	-8191	255	
16132.431	1	1	0	0	0.1692	0.12659	0.54289	0.06276	0.20934	0.067929	0.35512	0.26281	0.3046	0.31616	0.14813	0.17492	0.084652	0.23301	0.18555	0.1261	-1.6042	-1.7313	-1.1708	-2.025	-1.5542	-1.2229	-2.2625	-1.2563	-1.6562	-1.7479	-1.3167	-1.825	-1.7417	-1.4167	-2.0667	-1.2188	163.803	263.266	277.463	467.390	218.227	292.759	441.213	434.097	302.487	325.051	391.907	136.567	405.217	287.838	278.892	172.560	0.00105	0.00020049	9.9926e-05	941.87	4.0608e-06	3.6951e-06	1026.3	203.56	4.8642e-06	8.6003e-07	255.62	72.885	57.512	16.858	5.7005e-06	23.72	0.00043497	0.00042675	0.00012192	941.81	4.7399e-06	4.7589e-06	1022.8	204.12	4.7327e-06	4.8167e-06	258.7	74.038	58.168	17.582	4.6885e-06	24.628	360.569	182.789	219.224	134.215	240.699	317.387	133.924	141.754	376.190	173.807	141.629	148.509	148.793	155.955	257.612	155.087	-8191	255	
16132.550	1	1	0	0	0.20386	0.081844	0.094368	0.091604	0.36711	0.25475	0.17456	0.29809	0.10314	0.078425	0.27437	0.099408	0.4541	0.093213	0.24087	0.16075	-1.1729	-1.8771	-1.1125	-2.0479	-1.5583	-1.2417	-2.0833	-1.4562	-1.3687	-1.8979	-1.3563	-1.9229	-1.6521	-1.1396	-2.0146	-1.4021	403.356	176.946	350.089	346.990	399.186	378.799	472.056	466.328	339.653	174.544	274.183	140.195	148.536	210.037	190.427	150.544	0.00094719	0.00016838	6.7831e-05	939.81	5.9291e-06	2.2459e-06	1027.1	202.41	2.7775e-06	2.2867e-06	254.38	72.364	56.807	16.822	4.5155e-06	23.753	0.0004266	0.00043605	0.00012324	941.18	4.7489e-06	4.757e-06	1023.3	204.13	4.8306e-06	4.881e-06	258	74.032	58.135	17.608	4.7666e-06	24.702	356.811	226.116	193.949	134.158	207.345	214.275	134.079	141.590	304.806	339.887	141.147	148.281	148.726	155.672	316.852	154.820	-8191	255	
16132.646	1	1	0	0	0.18013	0.13317	0.15366	0.16585	0.17688	0.18662	0.37377	0.078079	0.20541	0.1992	0.15406	0.15326	0.20554	0.23083	0.075428	0.26409	-0.8875	-1.9667	-1.2062	-1.9771	-1.6187	-1.3167	-2.0708	-1.4	-1.3771	-2.0438	-1.3563	-1.75	-1.9667	-1.2021	-1.8542	-1.6583	156.004	125.146	234.327	479.915	215.212	208.581	412.904	378.966	357.123	423.082	241.766	335.172	345.966	365.892	285.748	405.513	0.00090738	0.00015542	2.644e-05	941.61	6.9628e-06	7.9383e-06	1027.6	201.89	4.8864e-06	6.1171e-06	255.65	73.337	57.58	16.924	4.3179e-06	23.827	0.00043638	0.00043268	0.00012329	942.42	4.7466e-06	4.7647e-06	1023.6	203.84	4.7193e-06	4.6645e-06	258.22	74.099	58.243	17.539	4.6845e-06	24.648	347.948	221.642	231.937	134.073	275.819	238.122	134.028	141.912	301.609	287.274	141.453	147.915	148.549	156.233	266.829	155.109	-8191	255	
16132.742	1	1	0	0	0.20169	0.1861	0.1985	0.15917	0.07799	0.056873	0.055729	0.056274	0.24076	0.11612	0.22308	0.072914	0.11217	0.019074	0.067184	0.26405	-0.70625	-1.8813	-1.025	-1.8646	-1.8729	-1.2563	-1.8083	-1.6104	-1.2208	-1.7313	-1.4813	-1.8188	-2.1208	-0.9625	-1.9333	-1.7375	147.843	442.951	297.755	422.200	185.923	442.591	349.894	319.939	186.971	261.303	310.433	207.577	302.199	185.008	389.544	457.774	0.00085496	0.00062542	0.00012571	939.11	3.6956e-06	1.6304e-06	1029	202.7	5.1824e-06	3.0742e-06	253.12	72.522	57.457	17.005	2.7864e-06	23.616	0.0004378	0.00043848	0.00011972	939.82	4.7669e-06	4.8546e-06	1023.7	203.79	4.8217e-06	4.8124e-06	258.11	73.974	58.088	17.592	4.8885e-06	24.664	354.048	218.643	282.865	134.242	207.387	291.748	134.127	141.673	308.398	366.764	141.216	148.212	148.561	156.241	202.812	154.885	-8191	255	
16132.838	1	1	0	0	0.08305	0.28948	0.073708	0.11255	0.29236	0.061945	0.39109	0.21066	0.2367	0.15037	0.10406	0.14507	0.22817	0.060447	0.2052	0.17681	-0.82917	-1.8667	-1.4354	-1.6479	-1.7729	-1.1104	-1.8917	-1.8021	-1.1313	-1.8917	-1.3896	-1.3813	-1.9104	-1.2208	-1.6271	-1.9438	281.015	178.489	358.927	458.039	290.157	133.973	437.078	477.261	472.316	198.626	365.903	371.907	290.456	385.351	212.948	432.095	0.0010041	0.00043704	0.00010618	942.82	5.7629e-06	6.8139e-06	1029.7	202.66	4.594e-06	7.4691e-06	254.65	73.582	57.288	16.79	2.1868e-06	23.55	0.00044877	0.00045053	0.00012581	943.44	4.9755e-06	5.029e-06	1025.1	204.19	5.032e-06	4.9627e-06	258.72	74.381	58.265	17.538	4.9179e-06	24.665	343.661	159.889	172.169	134.348	198.304	293.548	133.625	141.514	378.976	281.788	140.919	148.265	148.478	155.604	308.938	154.925	-8191	255	
16132.959	1	1	0	0	0.1698	0.054867	0.030412	0.05852	0.13533	0.18481	0.24385	0.12317	0.11806	0.070738	0.14121	0.30357	0.12471	0.18884	0.15156	0.10371	-0.74167	-1.9062	-1.3708	-1.5104	-1.8375	-0.99167	-2.0417	-1.9	-1.0042	-1.9167	-1.4583	-1.3083	-2.1229	-1.2	-1.5604	-2.0396	364.801	370.756	317.850	350.834	149.279	334.370	432.152	418.162	177.460	128.605	158.443	168.203	277.482	156.605	456.195	385.971	0.00087663	0.00046596	2.8334e-06	943.53	4.4557e-06	1.9856e-06	1025.3	203.27	5.3496e-06	3.3539e-06	253.58	73.368	57.078	16.89	2.0124e-06	23.729	0.0004528	0.00044974	0.00012735	943.61	4.9943e-06	5.0524e-06	1023.9	204.1	4.911e-06	4.9436e-06	258.23	74.235	58.207	17.59	4.9208e-06	24.746	336.559	242.302	297.050	134.188	295.899	275.652	133.820	141.480	341.228	320.870	141.110	148.099	148.723	155.954	165.743	155.019	-8191	255	
16133.030	1	1	0	0	0.25457	0.17695	0.16104	0.18711	0.13007	0.092857	0.046731	0.29476	0.18314	0.073222	0.10803	0.19804	0.043713	0.20425	0.26064	0.10864	-0.79167	-1.8292	-1.3479	-1.1292	-1.9562	-1.3646	-1.7271	-1.8229	-1.1458	-1.8875	-1.5938	-1.3	-1.9708	-1.3333	-1.4688	-1.9979	463.279	216.055	421.085	145.467	159.670	364.769	467.926	392.827	220.179	383.820	199.907	445.692	443.861	157.695	138.411	297.557	0.00080943	0.00053113	0.00010134	946.66	3.2705e-06	4.7569e-06	1025.9	202.59	4.018e-06	3.2299e-06	253.23	73	57.002	16.894	3.0745e-06	23.865	0.00044899	0.00045167	0.00012508	945.6	4.9413e-06	4.9989e-06	1025.1	204.02	4.962e-06	4.8052e-06	258.23	74.105	58.193	17.516	4.8241e-06	24.74	354.066	223.344	177.970	134.180	155.992	181.749	133.819	141.510	395.446	204.782	141.140	148.162	148.469	155.862	307.612	154.745	-8191	255	
#DATA ENDS
