BOXY.EXE: ISS Imagent and Oximeter Data Acquisition Program Version 0.80
Ascii Record File

#ACQ INFORMATION
2  Detector Channels 
16  External MUX Channels 
1  Auxiliary Channels 
5000  Waveform (CCF) Frequency (Hz)
1  Waveforms Skipped 
30  Waveforms Averaged 
1  Cycles Averaged 
16  Acquisitions per Waveform 
10.0806  Updata Rate (Hz) 

#FILE INFORMATION
TRUE -- External MUX Channel results are PARSED.
FALSE -- AC DC and Phase are NOT grouped.
TRUE -- Companion Program Settings File CREATED.
FALSE -- AC data not excluded
FALSE -- DC data not excluded
FALSE -- Phase data not excluded
FALSE -- Auxillary Chn. data not excluded
Tab delimiters

#CALIBRATION STATE
TRUE -- Waveform Calibration Values APPLIED.


#AUX CALIBRATION VALUES
Val Type	aux-1	

Term	1.0000e+00	
Factor	0.0000e+00	


#WF CALIBRATION VALUES
A = Detector Channel
Val Type	A-AC1	A-AC2	A-AC3	A-AC4	A-AC5	A-AC6	A-AC7	A-AC8	A-AC9	A-AC10	A-AC11	A-AC12	A-AC13	A-AC14	A-AC15	A-AC16	A-DC1	A-DC2	A-DC3	A-DC4	A-DC5	A-DC6	A-DC7	A-DC8	A-DC9	A-DC10	A-DC11	A-DC12	A-DC13	A-DC14	A-DC15	A-DC16	A-Ph1	A-Ph2	A-Ph3	A-Ph4	A-Ph5	A-Ph6	A-Ph7	A-Ph8	A-Ph9	A-Ph10	A-Ph11	A-Ph12	A-Ph13	A-Ph14	A-Ph15	A-Ph16	

Term	0.00000e+00	0.00000e+00	0.00000e+00	0.00000e+00	0.00000e+00	0.00000e+00	0.00000e+00	0.00000e+00	0.00000e+00	0.00000e+00	0.00000e+00	0.00000e+00	0.00000e+00	0.00000e+00	0.00000e+00	0.00000e+00	0.00000e+00	0.00000e+00	0.00000e+00	0.00000e+00	0.00000e+00	0.00000e+00	0.00000e+00	0.00000e+00	0.00000e+00	0.00000e+00	0.00000e+00	0.00000e+00	0.00000e+00	0.00000e+00	0.00000e+00	0.00000e+00	0.00000e+00	0.00000e+00	0.00000e+00	0.00000e+00	0.00000e+00	0.00000e+00	0.00000e+00	0.00000e+00	0.00000e+00	0.00000e+00	0.00000e+00	0.00000e+00	0.00000e+00	0.00000e+00	0.00000e+00	0.00000e+00	
Factor	1.00000e+00	1.00000e+00	1.00000e+00	1.00000e+00	1.00000e+00	1.00000e+00	1.00000e+00	1.00000e+00	1.00000e+00	1.00000e+00	1.00000e+00	1.00000e+00	1.00000e+00	1.00000e+00	1.00000e+00	1.00000e+00	1.00000e+00	1.00000e+00	1.00000e+00	1.00000e+00	1.00000e+00	1.00000e+00	1.00000e+00	1.00000e+00	1.00000e+00	1.00000e+00	1.00000e+00	1.00000e+00	1.00000e+00	1.00000e+00	1.00000e+00	1.00000e+00	X	X	X	X	X	X	X	X	X	X	X	X	X	X	X	X	

B = Detector Channel
Val Type	B-AC1	B-AC2	B-AC3	B-AC4	B-AC5	B-AC6	B-AC7	B-AC8	B-AC9	B-AC10	B-AC11	B-AC12	B-AC13	B-AC14	B-AC15	B-AC16	B-DC1	B-DC2	B-DC3	B-DC4	B-DC5	B-DC6	B-DC7	B-DC8	B-DC9	B-DC10	B-DC11	B-DC12	B-DC13	B-DC14	B-DC15	B-DC16	B-Ph1	B-Ph2	B-Ph3	B-Ph4	B-Ph5	B-Ph6	B-Ph7	B-Ph8	B-Ph9	B-Ph10	B-Ph11	B-Ph12	B-Ph13	B-Ph14	B-Ph15	B-Ph16	

Term	0.00000e+00	0.00000e+00	0.00000e+00	0.00000e+00	0.00000e+00	0.00000e+00	0.00000e+00	0.00000e+00	0.00000e+00	0.00000e+00	0.00000e+00	0.00000e+00	0.00000e+00	0.00000e+00	0.00000e+00	0.00000e+00	0.00000e+00	0.00000e+00	0.00000e+00	0.00000e+00	0.00000e+00	0.00000e+00	0.00000e+00	0.00000e+00	0.00000e+00	0.00000e+00	0.00000e+00	0.00000e+00	0.00000e+00	0.00000e+00	0.00000e+00	0.00000e+00	3.94855e+01	-1.32128e+02	-1.27181e+02	-1.84490e+02	-6.72028e+01	-7.11501e+01	-1.59062e+02	-1.62015e+02	-4.80925e+01	-6.50300e+01	-1.70682e+02	-1.71722e+02	-1.81139e+02	-1.78172e+02	-6.66378e+01	-1.50327e+02	
Factor	6.14565e-05	1.43988e-04	4.12154e-05	2.02262e-01	1.95690e-06	1.65095e-06	1.56930e-01	5.15347e-02	2.54719e-06	1.60944e-06	8.43913e-02	3.21709e-02	2.84674e-02	9.18122e-03	1.99602e-06	1.31396e-02	2.11529e-05	3.98913e-05	1.12962e-05	1.08715e-01	3.85736e-07	4.59041e-07	7.93570e-02	2.79075e-02	3.67363e-07	4.60695e-07	4.42269e-02	1.68013e-02	1.55642e-02	5.02853e-03	4.02019e-07	6.94216e-03	X	X	X	X	X	X	X	X	X	X	X	X	X	X	X	X	



#DISTANCE SETTINGS
A = Detector Channel
A-1	A-2	A-3	A-4	A-5	A-6	A-7	A-8	A-9	A-10	A-11	A-12	A-13	A-14	A-15	A-16	

2.5000e+00	3.0000e+00	2.5000e+00	3.0000e+00	2.0000e+00	3.0000e+00	1.5000e+00	3.0000e+00	3.0000e+00	3.0000e+00	3.0000e+00	3.0000e+00	3.0000e+00	3.0000e+00	1.5000e+00	3.0000e+00	

B = Detector Channel
B-1	B-2	B-3	B-4	B-5	B-6	B-7	B-8	B-9	B-10	B-11	B-12	B-13	B-14	B-15	B-16	

1.0000e+01	1.0000e+01	1.0000e+01	1.4400e+00	1.0000e+01	1.0000e+01	1.5100e+00	1.9400e+00	1.0000e+01	1.0000e+01	1.9900e+00	2.4900e+00	2.4100e+00	2.9000e+00	1.0000e+01	2.9800e+00	




#DATA BEGINS
time	group	step	mark	flag	A-AC1	A-AC2	A-AC3	A-AC4	A-AC5	A-AC6	A-AC7	A-AC8	A-AC9	A-AC10	A-AC11	A-AC12	A-AC13	A-AC14	A-AC15	A-AC16	A-DC1	A-DC2	A-DC3	A-DC4	A-DC5	A-DC6	A-DC7	A-DC8	A-DC9	A-DC10	A-DC11	A-DC12	A-DC13	A-DC14	A-DC15	A-DC16	A-Ph1	A-Ph2	A-Ph3	A-Ph4	A-Ph5	A-Ph6	A-Ph7	A-Ph8	A-Ph9	A-Ph10	A-Ph11	A-Ph12	A-Ph13	A-Ph14	A-Ph15	A-Ph16	B-AC1	B-AC2	B-AC3	B-AC4	B-AC5	B-AC6	B-AC7	B-AC8	B-AC9	B-AC10	B-AC11	B-AC12	B-AC13	B-AC14	B-AC15	B-AC16	B-DC1	B-DC2	B-DC3	B-DC4	B-DC5	B-DC6	B-DC7	B-DC8	B-DC9	B-DC10	B-DC11	B-DC12	B-DC13	B-DC14	B-DC15	B-DC16	B-Ph1	B-Ph2	B-Ph3	B-Ph4	B-Ph5	B-Ph6	B-Ph7	B-Ph8	B-Ph9	B-Ph10	B-Ph11	B-Ph12	B-Ph13	B-Ph14	B-Ph15	B-Ph16	aux-1	digaux	

1835.840	1	1	0	512	0.1181	0.10835	0.20929	0.1096	0.19939	0.12024	0.31258	0.31162	0.23347	0.18969	0.03814	0.24515	0.21162	0.26864	0.083961	0.18095	-1.0688	-1.5812	-0.92708	-1.8583	-1.1833	-1.0458	-1.7687	-1.0271	-1.325	-1.6458	-1.0083	-1.8937	-1.4188	-1.0187	-1.7854	-1.2687	-23.265	139.098	78.971	248.937	77.841	236.476	153.193	174.328	19.936	256.745	292.904	268.521	-3.137	192.540	15.710	-18.901	0.0011553	0.0012541	0.0008708	476.93	3.3241e-05	1.8568e-05	740.68	136.17	4.1849e-05	3.429e-06	281.83	100.14	45.167	15.967	1.4097e-05	40.837	0.081216	0.1526	0.043287	857.64	0.0014782	0.0017589	992.32	232.78	0.0014016	0.0017471	432.04	156.99	100.78	34.054	0.0015112	64.283	321.231	-14.342	107.374	-22.588	267.523	273.247	-22.950	-17.287	17.689	63.936	-18.710	-13.462	-12.279	-8.475	275.650	-10.503	-8191	255	
1835.936	1	1	0	0	0.1463	0.13449	0.35928	0.33813	0.12402	0.29013	0.35403	0.07897	0.14762	0.2311	0.14663	0.40633	0.2171	0.081832	0.33266	0.44953	-0.80625	-1.8042	-0.83125	-1.7833	-1.5146	-0.98542	-1.7646	-1.1812	-1.0604	-1.7292	-1.0729	-1.575	-1.6875	-0.85417	-1.7479	-1.2875	210.710	219.553	-19.956	313.963	217.738	271.586	237.250	214.191	263.188	73.086	293.089	206.555	289.929	106.526	57.915	298.830	0.00037401	0.0015431	0.00021938	479.43	1.492e-05	1.7448e-05	737.3	135.57	2.8264e-05	1.3583e-05	285.51	99.753	45.06	16.346	1.5672e-05	40.356	0.079637	0.15005	0.042457	849.7	0.0014477	0.0017313	983.52	230.69	0.0013702	0.0017228	427.77	155.5	99.818	33.847	0.0014949	63.873	161.474	276.543	27.423	-22.877	38.647	124.743	-23.012	-17.539	315.295	51.399	-18.005	-14.139	-12.438	-8.472	54.275	-10.062	-8191	255	
1836.032	1	1	0	0	0.13938	0.1027	0.036419	0.083466	0.18179	0.12738	0.038068	0.13998	0.056216	0.17029	0.11496	0.30536	0.13352	0.21021	0.14623	0.061017	-1.0021	-1.6104	-1.0292	-1.5771	-1.625	-1.1146	-1.975	-1.3312	-1.0604	-1.7917	-0.98958	-1.4229	-1.7104	-0.89167	-1.7396	-1.3	176.885	-12.068	207.930	235.712	273.514	-8.998	55.615	93.338	51.796	35.498	25.349	250.279	44.797	270.776	277.597	25.979	0.001693	0.0030092	0.0012238	477.98	3.9469e-05	2.3945e-05	735.28	134.74	3.2819e-05	2.0686e-05	284.72	99.928	45.456	16.482	6.0788e-05	41.066	0.079222	0.14961	0.042091	843.9	0.0014289	0.0016982	974.45	228.37	0.0013459	0.0016839	424.68	154.48	98.58	33.624	0.0014554	63.455	320.475	-32.996	46.480	-22.928	236.620	-3.964	-22.926	-17.228	310.063	60.438	-19.243	-13.143	-12.125	-7.093	62.381	-9.647	-8191	255	
1836.127	1	1	0	0	0.30514	0.3292	0.1661	0.15683	0.12014	0.29538	0.35945	0.033943	0.09054	0.113	0.21316	0.1164	0.17837	0.20636	0.036885	0.18402	-0.75417	-1.6417	-1.0708	-1.2646	-1.7458	-0.95625	-1.8687	-1.4458	-0.74375	-1.7771	-1.1542	-1.1979	-1.6958	-0.94375	-1.5604	-1.5562	215.512	233.112	294.360	236.624	73.870	-3.108	287.463	75.334	220.907	85.734	309.427	6.627	289.106	307.379	126.620	113.774	0.0010476	0.0038002	0.0010292	471.89	1.7948e-05	1.5941e-05	742.87	136.39	3.2761e-05	3.025e-05	286.56	99.977	45.372	16.274	5.4516e-05	40.894	0.077159	0.14594	0.041212	838.78	0.0014115	0.0016761	981.82	230.07	0.0013467	0.0017071	428.79	155.89	100.06	33.9	0.0014808	63.976	242.567	107.371	55.724	-22.257	59.963	217.097	-22.657	-17.245	182.309	225.984	-17.925	-13.823	-12.968	-7.700	5.807	-10.192	-8191	255	
1836.247	1	1	0	0	0.307	0.20331	0.092066	0.063809	0.084346	0.10203	0.084817	0.0845	0.034286	0.09722	0.12413	0.079739	0.062352	0.14323	0.29367	0.21585	-0.38333	-1.7708	-1.2	-1.1333	-1.8271	-0.86875	-1.6354	-1.4125	-0.85625	-1.9062	-1.2188	-1.1167	-1.6771	-0.89583	-1.4417	-1.7146	119.608	163.310	-16.285	178.436	42.123	36.821	-0.176	105.717	95.058	243.304	148.660	81.425	43.651	241.794	141.002	308.706	0.0013206	0.00095147	0.00015647	478.74	2.5283e-05	2.9596e-05	760.09	139.74	4.5451e-05	2.0226e-05	288.11	100.9	44.923	16.519	5.5772e-05	41.159	0.078379	0.14828	0.041726	847.22	0.0014304	0.0017058	990.16	232.62	0.0013732	0.0017221	433.03	157.18	101.23	34.252	0.0015206	64.75	24.215	108.291	176.846	-22.533	270.231	-22.681	-22.654	-16.703	82.719	68.661	-18.142	-13.632	-12.419	-7.595	61.685	-10.506	-8191	255	
1836.344	1	1	0	0	0.35453	0.19644	0.087409	0.020729	0.030939	0.096351	0.45833	0.14698	0.053336	0.080357	0.067259	0.13206	0.10414	0.034671	0.20775	0.044728	-0.47708	-1.8375	-1.4021	-1.1104	-1.8958	-0.83333	-1.2812	-1.6646	-0.8	-1.6917	-1.5292	-1.1375	-1.8875	-1.2229	-1.1771	-1.7604	10.382	109.150	-16.116	82.516	73.575	137.219	269.158	94.606	159.862	-33.931	3.632	18.287	142.078	300.970	38.544	303.357	0.00091723	0.00064518	0.00092773	483.28	1.3375e-05	2.0578e-05	734.75	135.1	1.9585e-05	9.8402e-06	284.6	100.31	45.367	16.17	4.5986e-05	40.892	0.080269	0.15073	0.042905	855.71	0.0014665	0.0017563	989.83	233.26	0.0014101	0.0017557	432.55	156.86	101.23	33.996	0.0015091	63.845	171.919	67.904	166.086	-21.922	214.495	112.614	-22.448	-17.402	200.300	7.621	-18.131	-14.014	-12.450	-8.297	39.534	-10.233	-8191	255	
1836.440	1	1	0	0	0.13613	0.37001	0.091929	0.16665	0.13017	0.17721	0.13181	0.10813	0.058689	0.14957	0.24576	0.14756	0.30006	0.15307	0.13637	0.059196	-0.47292	-1.6479	-1.4562	-1	-1.8417	-1.2083	-1.3479	-2.0354	-0.88542	-1.6833	-1.6917	-1.2	-1.7521	-1.2417	-1.3729	-1.8333	243.689	211.005	197.313	193.964	174.495	-8.195	244.158	120.517	165.095	47.150	-34.447	64.978	249.831	39.257	253.576	-30.007	0.00075514	0.0032509	0.00074495	479.5	6.4676e-05	4.0733e-05	740.95	136.47	3.3036e-05	3.8011e-05	284.18	100.48	45.188	16.257	9.5371e-06	40.337	0.079185	0.14795	0.041931	843.29	0.0014207	0.00168	978.39	229.48	0.0013431	0.0016887	425.66	154.51	98.506	33.314	0.0014484	62.876	51.013	12.271	66.124	-22.814	131.284	150.051	-22.529	-17.640	183.294	77.393	-18.425	-13.888	-11.989	-8.212	228.936	-9.938	-8191	255	
1836.511	1	1	0	0	0.042006	0.094369	0.38045	0.17897	0.174	0.03435	0.21894	0.17812	0.11686	0.056619	0.27787	0.2567	0.13963	0.27658	0.18823	0.23402	-0.60833	-1.4333	-1.6313	-1.05	-1.7292	-1.2396	-1.2708	-1.975	-0.96042	-1.5229	-1.6104	-1.0125	-1.7229	-1.4	-0.96667	-2.0021	103.280	-8.086	62.327	193.209	265.446	108.318	236.347	224.424	69.945	72.832	273.354	-27.868	179.780	189.286	273.958	204.812	0.0014514	0.0023807	0.0003453	480.88	1.2938e-05	2.1769e-06	742.12	136.62	3.7899e-05	7.9143e-06	285.3	100.75	46.316	16.43	1.0269e-05	41.458	0.07556	0.14237	0.040071	828.76	0.0013729	0.0016255	970.3	226.25	0.0012919	0.0016336	421.66	152.84	97.234	33.034	0.0014077	62.933	-4.695	321.552	181.797	-22.279	-32.504	167.848	-22.779	-17.209	234.400	265.766	-18.178	-13.803	-12.467	-8.885	112.832	-9.595	-8191	255	
1836.632	1	1	0	0	0.10568	0.29579	0.23474	0.048934	0.28896	0.21885	0.11215	0.1219	0.20312	0.20867	0.32049	0.12281	0.34584	0.11977	0.10367	0.091856	-0.7875	-1.3729	-1.6583	-1.0417	-1.5458	-1.2938	-1.1792	-1.8312	-1.1	-1.3125	-1.7083	-1.0229	-1.6604	-1.4688	-0.85625	-1.8792	204.477	113.556	224.439	279.481	207.615	52.140	254.798	316.893	315.767	53.176	289.211	277.275	295.186	318.071	284.015	142.918	0.00076968	0.0026313	0.00074803	478.44	2.5652e-05	2.9718e-05	744.38	139.79	2.114e-05	1.9007e-05	284.37	100.86	45.596	16.366	2.8361e-05	40.445	0.07442	0.14109	0.039988	831.11	0.0013845	0.0016633	976.39	229.89	0.0013424	0.0017015	428.37	155.84	99.811	33.898	0.0014943	63.539	183.534	6.163	72.787	-21.607	77.420	43.741	-22.560	-16.978	-19.189	148.626	-17.991	-13.489	-11.393	-8.736	234.098	-9.730	-8191	255	
1836.728	1	1	0	0	0.29539	0.082976	0.17181	0.29811	0.078992	0.28612	0.23306	0.16548	0.18172	0.20283	0.14705	0.30766	0.14648	0.076715	0.15502	0.079725	-0.7875	-1.2542	-1.7958	-0.93125	-1.5438	-1.6896	-1.1208	-1.9562	-1.1812	-1.3604	-1.8438	-1.0771	-1.55	-1.5167	-1.1375	-1.9146	257.454	128.278	159.146	-30.901	195.024	206.856	-30.183	259.991	67.117	73.633	39.308	1.676	116.359	242.516	199.262	-32.063	0.00015838	0.0019179	0.00095387	474.85	1.5994e-05	1.0263e-05	733.93	137.15	2.8355e-05	2.6582e-05	284.08	98.946	44.949	16.27	2.0412e-05	40.456	0.077687	0.14646	0.04093	835.92	0.001388	0.0016611	968.51	226.47	0.0013104	0.0016415	420.81	152.12	96.504	32.771	0.0014083	62.427	325.364	201.475	27.712	-21.799	4.773	253.092	-22.013	-16.461	276.095	154.762	-17.821	-13.560	-11.880	-8.838	171.504	-10.244	-8191	255	
1836.824	1	1	0	0	0.08852	0.14946	0.16465	0.11066	0.059883	0.19422	0.13775	0.18551	0.35612	0.081952	0.16524	0.046747	0.093449	0.19673	0.26114	0.27005	-0.63958	-1.2104	-1.8417	-0.94792	-1.4562	-1.6333	-0.98958	-1.7938	-1.3417	-1.0979	-1.7625	-1.1083	-1.4521	-1.8125	-0.80417	-1.7062	165.211	192.282	213.211	-33.494	240.544	158.661	242.806	293.953	50.667	232.052	247.384	278.691	135.346	309.716	108.801	265.320	0.00048574	0.0017936	0.00069494	467.69	2.8976e-06	1.534e-05	738.42	135	3.8055e-05	7.508e-06	284.41	99.77	44.931	16.174	3.9062e-05	40.605	0.07431	0.13951	0.039625	821.75	0.0013581	0.0016114	962.73	224.45	0.0012899	0.0016198	419.51	151.95	96.529	32.749	0.0013977	62.356	324.107	178.944	152.723	-22.320	182.151	-34.149	-22.609	-16.771	170.199	234.883	-18.155	-13.091	-13.091	-7.821	96.212	-9.814	-8191	255	
1836.921	1	1	0	0	0.096124	0.1204	0.22527	0.11252	0.032469	0.17366	0.15228	0.35447	0.14579	0.24588	0.18298	0.096201	0.12354	0.14906	0.022129	0.10681	-0.86458	-0.91042	-1.8417	-1.2021	-1.3229	-1.8146	-1.1917	-1.6854	-1.5688	-1.1104	-1.9354	-1.4396	-1.2729	-1.8958	-1.0104	-1.5583	84.524	249.208	125.731	218.863	199.473	-15.938	181.572	-31.736	31.477	298.956	-3.605	233.866	199.658	-5.577	254.356	271.983	0.00077212	0.0030714	0.00090491	474.26	4.9763e-05	2.2935e-05	739.58	137.34	2.4155e-05	2.4336e-05	287.17	99.729	45.764	16.087	3.0528e-05	41.043	0.073752	0.13942	0.039587	822.51	0.0013685	0.0016335	970.38	227.45	0.0013411	0.001679	429.42	155.71	100.25	33.876	0.001489	64.061	178.769	241.203	-26.809	-22.393	71.353	60.785	-22.250	-16.677	21.651	228.099	-17.843	-13.305	-12.039	-7.235	56.318	-8.535	-8191	255	
1837.041	1	1	0	0	0.34245	0.16643	0.075681	0.25625	0.021108	0.50191	0.17243	0.19286	0.25389	0.1976	0.26905	0.33981	0.19391	0.12679	0.063333	0.16386	-1.2167	-0.825	-1.8458	-1.2062	-1.2833	-1.6729	-1.175	-1.7167	-1.5646	-0.875	-1.7646	-1.1958	-1.1479	-1.875	-0.99792	-1.5812	243.144	237.579	-33.716	221.932	48.679	72.653	269.321	260.280	101.988	80.697	322.459	323.608	249.274	137.719	105.664	94.489	0.00057896	0.0012431	0.00095764	481.5	2.4069e-05	3.7767e-06	746.53	139.19	3.9965e-05	2.3855e-05	286.77	100.03	45.499	16.231	7.9311e-05	40.846	0.07856	0.14736	0.042027	844.84	0.0014203	0.0016776	980.45	230.18	0.0013317	0.0016651	426.74	154.15	99.185	33.584	0.0014795	63.664	252.315	-21.896	43.220	-20.832	79.407	260.152	-21.663	-16.169	213.516	121.025	-16.159	-12.945	-11.215	-7.558	250.662	-9.159	-8191	255	
1837.136	1	1	0	0	0.12452	0.1521	0.19708	0.19289	0.044731	0.12333	0.038891	0.059329	0.3113	0.17785	0.078832	0.18535	0.096051	0.052377	0.1633	0.16012	-1.2188	-0.95417	-1.6938	-1.3167	-1.1271	-1.9604	-1.1708	-1.225	-1.8354	-1.0042	-1.8604	-1.5979	-1.0583	-1.8604	-1.0771	-1.5292	-1.431	68.720	138.628	203.975	98.265	151.153	28.820	-14.827	138.517	148.341	5.897	215.797	175.252	221.208	-11.261	311.783	0.0014755	0.0013345	0.00060022	477.68	2.8553e-05	3.0868e-05	739.93	136.94	3.3303e-05	1.4884e-05	283.18	99.049	45.425	16.28	6.5746e-05	40.493	0.078418	0.14893	0.042312	848.01	0.0014482	0.001722	982.38	231.57	0.0013717	0.0017129	429.06	154.79	99.472	33.626	0.0014752	63.231	-10.082	207.986	117.601	-21.758	276.641	125.536	-22.246	-16.074	281.491	134.583	-17.485	-13.003	-12.025	-6.699	267.382	-9.043	-8191	255	
1837.232	1	1	0	0	0.29387	0.066871	0.17507	0.1132	0.065474	0.21767	0.087097	0.13524	0.053978	0.24963	0.12416	0.14789	0.12635	0.24107	0.18011	0.083199	-1.525	-0.92917	-1.5417	-1.575	-0.7625	-1.8563	-1.3521	-1.3521	-1.6938	-1.0271	-1.6229	-1.7021	-1.0104	-1.8854	-1.2083	-1.1229	120.316	31.642	-21.865	116.089	244.113	37.960	107.174	118.753	184.267	184.226	161.514	-7.256	2.445	-24.264	169.903	178.374	0.00071669	0.00262	0.0009538	477.43	3.574e-05	4.0619e-05	747.27	139.71	6.8692e-05	3.6243e-05	285.33	101.57	46.033	16.437	2.103e-05	41.281	0.076822	0.14389	0.040521	830.87	0.0013772	0.0016299	969.81	226.8	0.0012909	0.0016166	420.96	152.62	96.686	32.835	0.0013907	62.595	160.757	303.075	250.757	-21.736	168.529	12.170	-22.043	-15.857	132.478	43.173	-18.455	-14.013	-12.787	-9.224	16.685	-10.175	-8191	255	
1837.328	1	1	0	0	0.14962	0.28271	0.17579	0.083034	0.10589	0.10681	0.051231	0.0997	0.29646	0.094285	0.09794	0.16155	0.17713	0.04061	0.1316	0.046855	-1.4896	-0.83125	-1.5562	-1.6688	-1.0063	-1.7167	-1.3333	-1.1646	-1.9646	-1.1729	-1.6063	-1.9083	-1.0625	-1.7917	-1.2396	-0.92083	156.401	280.260	112.915	115.207	261.836	223.140	280.277	-27.916	175.101	116.873	175.399	294.478	26.328	49.015	225.437	149.910	0.00055179	0.00072745	0.00081139	477.13	2.2821e-05	1.2537e-05	752.64	137.49	4.77e-05	1.9939e-05	288.05	102.69	45.933	16.35	1.1955e-05	41.135	0.073375	0.13841	0.038981	818.67	0.0013164	0.0015683	961.63	223.43	0.0012314	0.0015566	417.09	151.44	95.106	32.307	0.0013401	62.249	285.123	143.883	102.475	-22.970	127.944	131.162	-23.399	-17.164	109.246	47.973	-17.585	-13.266	-11.994	-7.104	113.349	-9.431	-8191	255	
1837.424	1	1	0	0	0.088866	0.14468	0.13507	0.22276	0.21615	0.11277	0.28662	0.14348	0.16855	0.12379	0.10198	0.14278	0.18686	0.08191	0.11084	0.097003	-1.5458	-1.0021	-1.3104	-1.7292	-1.0854	-1.8813	-1.4229	-1.2792	-1.8875	-0.95625	-1.4396	-2.0312	-1.0771	-1.7646	-1.4271	-1.1333	50.937	-20.434	155.825	114.502	178.266	321.277	269.642	234.422	314.785	-7.632	257.737	-4.605	54.007	290.166	324.140	275.658	0.00035426	0.0044192	0.00062813	481.85	3.1789e-05	1.5485e-05	748.65	139.22	1.9183e-05	3.8441e-05	288.31	99.985	45.615	16.576	3.2949e-05	40.638	0.071237	0.13402	0.03797	816.99	0.0012969	0.0015537	959.58	222.76	0.0012224	0.0015301	412.83	149.16	93.632	31.764	0.0013068	60.78	289.275	51.663	40.879	-21.558	125.468	179.799	-21.727	-16.007	23.497	215.264	-17.070	-12.511	-11.212	-7.854	312.175	-9.785	-8191	255	
1837.520	1	1	0	0	0.12411	0.21781	0.21348	0.27126	0.21652	0.038167	0.30795	0.16293	0.14536	0.4072	0.37206	0.12761	0.20342	0.16546	0.10969	0.20647	-1.3167	-1.375	-1.2792	-1.9292	-1.0417	-1.3521	-1.7208	-0.99792	-1.6833	-1.2062	-1.1604	-1.8542	-0.93958	-1.4667	-1.6938	-1.0562	112.317	241.394	62.493	233.528	142.744	103.761	184.188	-28.509	306.013	156.313	289.639	0.941	20.427	39.625	83.167	310.177	0.0012727	0.0021893	0.00073944	480.9	2.0713e-05	1.0427e-05	739.47	138.33	5.2958e-05	3.5803e-05	285.1	101.05	45.454	16.214	2.1681e-05	40.606	0.068962	0.12968	0.036742	796.88	0.0012485	0.0014784	940.2	217.6	0.0011774	0.0014736	406.93	147.32	92.36	31.349	0.0012899	60.383	290.235	193.478	298.516	-21.746	213.701	205.023	-22.623	-16.732	72.850	72.743	-17.587	-12.378	-13.460	-7.801	317.232	-9.701	-8191	255	
1837.641	1	1	0	0	0.20048	0.12048	0.15107	0.24824	0.12559	0.14601	0.23747	0.22946	0.093545	0.24564	0.098343	0.3299	0.28178	0.12549	0.08778	0.1253	-1.3687	-1.1396	-1.0333	-1.9083	-0.89375	-1.3833	-1.7271	-0.99375	-1.5958	-1.3312	-0.97917	-2.0229	-0.87292	-1.3125	-1.5875	-0.91042	230.564	138.506	251.257	295.979	-17.795	56.316	-20.703	17.826	28.021	38.862	27.942	140.339	-5.500	70.050	245.220	28.586	0.00084605	0.0045229	0.0011786	480.62	3.2326e-05	2.9114e-05	743.71	137.45	5.1328e-05	8.0103e-06	285.06	101.93	45.029	16.279	5.6019e-06	41.161	0.068254	0.12833	0.036519	794.08	0.0012477	0.0014777	943.92	217.63	0.0011824	0.0014696	408.25	148.19	92.673	31.394	0.0013094	60.558	175.364	68.080	41.505	-21.121	130.483	291.625	-22.575	-17.382	110.901	-18.245	-17.948	-13.494	-11.513	-7.853	291.500	-9.227	-8191	255	
1837.737	1	1	0	0	0.035061	0.31478	0.20243	0.075039	0.085647	0.21491	0.13715	0.23868	0.17123	0.2183	0.19037	0.30518	0.12991	0.26813	0.17224	0.1133	-1.2313	-1.3229	-0.875	-2.0375	-1.1083	-1.2708	-1.7542	-0.86875	-1.5021	-1.4042	-1.05	-1.7375	-1.2104	-1.2958	-1.8771	-0.91667	100.946	252.562	90.655	302.140	201.274	-27.734	206.012	277.393	216.325	276.913	295.962	248.226	168.304	304.733	163.019	36.235	0.0012577	0.0018086	0.00023159	487.25	2.3316e-05	5.0732e-06	753.28	140.64	5.8624e-05	3.4079e-05	290.89	100.92	45.392	16.359	3.6976e-05	40.697	0.069689	0.13127	0.037395	805.54	0.0012807	0.0015211	959.2	221.51	0.0012157	0.0015111	415.1	149.33	93.907	31.698	0.0013145	60.666	301.117	27.114	137.082	-22.542	96.475	282.274	-23.204	-16.993	306.568	144.360	-18.386	-13.775	-12.618	-7.976	229.620	-9.807	-8191	255	
1837.809	1	1	0	0	0.18713	0.38628	0.28518	0.12424	0.029325	0.037539	0.045825	0.19912	0.14285	0.071045	0.14078	0.079359	0.11907	0.071111	0.1548	0.15653	-1.0646	-1.6896	-0.8	-1.8062	-1.1646	-1.4271	-1.9083	-0.90625	-1.4042	-1.5979	-1.1417	-1.9521	-1.2938	-1.0375	-1.8312	-0.82292	253.190	135.144	34.561	-13.016	275.409	259.295	-13.277	-16.067	141.738	102.067	238.401	82.145	-15.677	22.248	53.013	64.153	0.0018099	0.0022282	0.00079331	481.64	2.048e-05	6.5285e-06	751.79	138.39	3.1551e-05	1.5006e-05	289.46	100.4	45.139	16.368	2.2007e-05	40.202	0.068789	0.1285	0.036192	793.75	0.0012255	0.0014623	947.14	216.85	0.001152	0.0014463	406.52	146.7	91.193	30.96	0.0012658	59.643	319.634	302.756	178.901	-21.918	223.706	29.479	-22.813	-17.466	82.828	71.453	-18.347	-14.202	-12.446	-9.004	122.899	-10.019	-8191	255	
1837.905	1	1	0	0	0.19326	0.065357	0.12139	0.11585	0.052064	0.22646	0.1554	0.25753	0.12097	0.14102	0.13369	0.05823	0.12765	0.19088	0.137	0.067266	-1.1208	-1.6104	-0.99792	-1.5583	-1.4271	-1.1167	-2	-1.3021	-1.225	-1.8292	-0.99167	-1.8375	-1.3229	-0.9625	-1.9375	-1.1979	319.024	167.400	171.489	297.108	60.295	66.974	30.266	305.391	163.702	175.489	283.739	287.981	63.660	-14.082	40.529	183.191	0.00093237	0.0023758	0.00074665	485.25	6.9518e-05	3.8443e-05	748.78	138.76	1.6503e-05	1.6518e-05	288.27	100.81	46.08	16.367	2.6026e-05	40.833	0.066659	0.1257	0.035399	790.47	0.0012079	0.0014475	942.92	216.5	0.0011404	0.0014357	406.34	146.53	90.889	30.988	0.0012505	60.06	249.387	-26.108	83.596	-22.448	179.071	66.372	-23.195	-17.707	323.803	197.074	-18.441	-13.474	-12.287	-7.217	226.418	-10.814	-8191	255	
1838.024	1	1	0	0	0.19715	0.28093	0.15912	0.33602	0.16748	0.22293	0.15964	0.33593	0.20898	0.28664	0.25716	0.072052	0.24298	0.071383	0.024564	0.1254	-0.89375	-1.7938	-0.83125	-1.5396	-1.3333	-1.0167	-1.8625	-1.2292	-1.1187	-1.7	-0.93958	-1.5958	-1.4854	-0.87292	-1.7938	-1.2083	3.181	101.572	205.646	71.584	102.169	276.326	247.780	308.785	202.621	251.346	294.655	127.119	223.192	22.628	264.120	284.336	0.0011939	0.0036439	0.00063576	488	5.7584e-05	1.9124e-05	750.97	138.24	2.4537e-05	1.8265e-05	288.7	101.81	46.357	16.464	3.1804e-05	40.978	0.066478	0.12645	0.035981	801.4	0.0012421	0.0014972	956.36	220.7	0.001199	0.0015167	414.53	149.91	94.076	31.924	0.0013176	61.286	-9.713	121.976	249.481	-22.205	165.988	210.569	-23.049	-17.419	0.546	160.906	-18.738	-13.605	-12.452	-7.823	227.874	-9.980	-8191	255	
1838.120	1	1	0	0	0.042591	0.22013	0.19033	0.059553	0.14249	0.31124	0.39999	0.24048	0.24455	0.29407	0.32305	0.13577	0.086353	0.21981	0.035022	0.10603	-0.6625	-1.5979	-0.97292	-1.7125	-1.7583	-0.95208	-1.9375	-1.3896	-1.1	-2.0083	-1.1167	-1.5854	-1.7	-0.87083	-1.975	-1.2771	193.563	305.498	1.813	242.250	306.015	-23.674	217.159	69.829	284.769	79.003	279.103	248.715	47.993	310.692	117.689	305.466	0.0020186	0.0038487	0.00030777	488.45	4.3868e-05	2.866e-05	755.22	138.78	2.7431e-05	1.8465e-05	289.75	102.67	46.237	16.44	5.8509e-05	41.05	0.0695	0.13118	0.036984	805.65	0.001261	0.001505	961.25	221.06	0.0012062	0.0015216	416.18	150.57	94.106	31.876	0.0013119	61.002	313.176	144.149	117.157	-22.510	281.519	312.879	-22.978	-17.626	-22.724	65.618	-18.623	-13.948	-13.415	-9.238	291.281	-10.798	-8191	255	
1838.216	1	1	0	0	0.19556	0.062467	0.15005	0.17816	0.17583	0.084731	0.20592	0.22115	0.056067	0.3213	0.19512	0.40439	0.10683	0.10095	0.082367	0.11744	-0.60417	-1.9042	-1.0792	-1.5688	-1.6042	-0.77708	-1.9292	-1.4479	-0.8625	-1.8062	-1.3083	-1.225	-1.7021	-1.0229	-1.4667	-1.6187	147.614	317.824	-6.933	61.057	136.169	194.792	-32.955	17.668	118.823	13.222	261.161	283.401	40.191	292.813	271.837	192.717	0.00091115	0.0026914	0.00065546	482.05	1.5191e-05	5.532e-06	749.48	137.44	2.9961e-05	1.6495e-05	288.05	99.856	45.746	16.242	5.2589e-05	40.356	0.069097	0.1291	0.03624	793.37	0.0012156	0.0014385	941.3	214.27	0.0011302	0.0014056	401.93	143.96	89.271	30.099	0.001193	58.439	26.566	61.175	21.183	-22.476	75.904	115.886	-23.020	-17.007	84.597	126.273	-18.958	-13.187	-12.680	-8.420	80.786	-9.871	-8191	255	
1838.314	1	1	0	0	0.105	0.092024	0.16955	0.23887	0.33638	0.16109	0.26879	0.0088094	0.31681	0.24319	0.1579	0.32457	0.29019	0.017933	0.041238	0.23164	-0.59583	-1.9312	-1.2687	-1.3	-1.7104	-1.0187	-1.6562	-1.6625	-1.1146	-1.8292	-1.35	-1.1146	-1.6812	-1.0438	-1.4813	-1.7646	12.128	102.264	84.636	127.947	256.436	229.785	221.784	131.112	203.858	199.153	62.292	306.446	119.257	172.712	267.604	-18.306	0.001537	0.0015122	0.0010739	480.38	1.603e-05	8.1125e-06	743.65	138.22	2.3921e-05	1.5502e-05	287.64	100.98	45.608	16.335	3.1762e-05	40.73	0.063075	0.11838	0.033591	766.78	0.001146	0.0013641	927.79	211.26	0.0011035	0.0013752	400.12	144.63	89.756	30.521	0.0012319	59.355	257.667	63.577	54.150	-22.819	173.601	198.490	-23.158	-17.497	67.100	67.757	-18.250	-13.976	-12.745	-7.750	103.301	-10.161	-8191	255	
1838.408	1	1	0	0	0.036137	0.056764	0.32098	0.051837	0.10166	0.22382	0.14424	0.12259	0.1974	0.10247	0.23686	0.36326	0.17935	0.14673	0.26377	0.17695	-0.46458	-1.6896	-1.3167	-0.86042	-1.6208	-1.0646	-1.3875	-1.5833	-0.89375	-1.5792	-1.4042	-0.91042	-1.8833	-1.0417	-1.3	-1.8958	150.058	-20.982	239.870	288.468	-29.520	72.519	267.435	-14.659	165.247	22.056	203.782	301.628	253.388	59.324	247.322	138.381	0.0022146	0.0017682	0.00074811	477.8	2.824e-05	3.5537e-05	744.22	138.4	4.4257e-05	1.879e-05	289.96	101.66	46.477	16.43	2.7699e-05	41.387	0.065168	0.12188	0.034646	772.76	0.0011756	0.0014002	931.99	213.65	0.0011312	0.00143	405.98	147.32	91.822	31.263	0.0012666	60.49	-23.371	134.013	98.322	-22.115	225.413	151.239	-23.260	-17.593	249.118	208.111	-18.565	-13.980	-13.254	-9.322	117.377	-10.103	-8191	255	
1838.504	1	1	0	0	0.22981	0.050832	0.21395	0.06909	0.21797	0.29024	0.16155	0.15211	0.14942	0.20954	0.12852	0.24853	0.1496	0.30616	0.28583	0.19896	-0.49167	-1.6833	-1.4	-1.0354	-1.8833	-1.1104	-1.4208	-1.6708	-1.0208	-1.5833	-1.55	-0.8875	-1.7583	-1.3896	-1.2333	-2.025	86.253	122.639	107.129	151.025	61.490	240.973	319.760	238.684	-34.824	134.739	249.360	-12.007	-25.613	140.875	-14.475	107.566	0.0012717	0.0032435	0.00097309	487.68	3.9292e-05	1.9876e-05	753.21	139.54	1.4307e-05	1.182e-05	290.96	102.23	46.69	16.533	1.2948e-05	40.941	0.066383	0.12566	0.035391	789.19	0.0012091	0.0014428	945.19	217.46	0.0011597	0.0014569	409.1	148.43	92.504	31.337	0.0012658	60.529	292.885	305.242	305.569	-22.828	12.460	89.533	-22.580	-18.117	184.911	259.966	-18.293	-13.772	-12.685	-8.871	124.498	-9.089	-8191	255	
1838.601	1	1	0	0	0.23351	0.26955	0.31599	0.23767	0.12962	0.19301	0.16096	0.16338	0.26022	0.17294	0.10017	0.13594	0.086311	0.20642	0.20914	0.051587	-0.59792	-1.3604	-1.7167	-0.80208	-1.8021	-1.3563	-1.3208	-1.9167	-0.975	-1.4396	-1.7729	-1.0979	-1.8021	-1.5625	-1.1833	-1.8146	138.677	97.431	62.863	262.031	110.878	274.143	315.606	-18.884	323.687	76.980	174.525	314.530	119.061	65.555	235.273	293.406	0.0014752	0.0025082	0.00040131	482.08	1.2422e-05	6.7556e-06	745.96	138.38	5.8877e-05	2.0386e-05	287.62	100.93	45.772	16.328	2.6063e-05	41.059	0.066811	0.12567	0.035401	783.88	0.0011956	0.0014386	937.67	215.45	0.0011415	0.0014427	405.06	146.51	90.67	30.925	0.0012411	59.941	301.759	15.181	49.850	-22.289	104.478	208.045	-23.205	-17.322	52.372	89.250	-18.688	-14.041	-13.207	-8.195	208.406	-9.734	-8191	255	
1838.721	1	1	0	0	0.15434	0.2486	0.16001	0.091443	0.15761	0.1159	0.13205	0.055734	0.10057	0.17681	0.092444	0.14231	0.18118	0.084113	0.04582	0.21219	-0.6625	-1.5229	-1.6854	-1.0771	-1.6625	-1.4083	-1.2313	-1.9021	-1.0146	-1.3521	-1.7896	-0.82708	-1.6125	-1.275	-1.0021	-1.75	242.194	280.107	-32.072	24.316	98.269	165.548	203.811	60.642	42.510	267.947	76.862	152.458	201.338	75.144	278.248	57.396	0.00068794	0.0014464	0.0010254	478.95	3.2211e-05	3.597e-05	749.35	139.11	3.6234e-05	2.3411e-05	288.87	100.83	46.425	16.558	7.4212e-06	41.372	0.064989	0.12342	0.034681	779.66	0.0011835	0.0014167	934.39	214.9	0.001121	0.0014068	403.53	145.38	89.954	30.555	0.0012008	59.354	124.094	88.879	72.165	-21.732	125.338	184.668	-22.687	-16.800	178.719	142.473	-18.882	-13.369	-14.084	-7.989	266.074	-10.322	-8191	255	
1838.817	1	1	0	0	0.14963	0.095229	0.21875	0.10365	0.15245	0.044967	0.23667	0.1488	0.27466	0.29039	0.011565	0.19555	0.25763	0.14988	0.19758	0.21213	-0.64583	-1.25	-1.7604	-1.0583	-1.7125	-1.4875	-1.0396	-1.8604	-1.0583	-1.0458	-1.9583	-1.1125	-1.7188	-1.5938	-0.875	-2	179.511	119.339	297.757	213.979	77.506	119.959	207.235	-25.096	229.719	32.553	229.668	296.855	297.111	215.106	2.635	245.910	0.00014444	0.00063876	6.3117e-05	477.18	3.7971e-05	3.4415e-05	757.61	140.83	1.7646e-05	3.715e-05	290.87	102.96	47.011	16.43	1.93e-05	41.564	0.063056	0.1187	0.033368	766.7	0.0011366	0.0013528	930.44	212.18	0.001082	0.001354	401.06	144.96	89.069	30.268	0.0011745	59.277	51.075	59.245	125.722	-22.363	4.941	62.803	-22.540	-17.292	31.530	239.616	-18.608	-13.550	-12.741	-8.365	-3.530	-9.868	-8191	255	
1838.913	1	1	0	0	0.1266	0.054712	0.24293	0.10259	0.28056	0.22918	0.28691	0.021871	0.20149	0.1463	0.32191	0.043958	0.066927	0.12296	0.26273	0.25057	-0.75417	-1.075	-1.6375	-1.0771	-1.6167	-1.5146	-0.94792	-1.9708	-1.3479	-1.1854	-1.9438	-0.8375	-1.5167	-1.7854	-0.94167	-1.9062	131.284	60.682	62.266	-19.844	117.026	258.564	231.938	180.427	168.166	224.322	216.353	61.782	287.726	156.858	60.224	192.806	0.001247	0.0018145	8.9265e-05	487.59	4.1027e-05	1.732e-05	751.54	139.21	4.4735e-05	2.1554e-06	291.08	102.66	46.385	16.547	3.3765e-05	41.394	0.061947	0.11639	0.033179	765.82	0.0011309	0.001351	930.77	212.85	0.0010913	0.0013611	402.98	145.21	89.654	30.473	0.0012033	59.332	228.123	162.129	78.584	-22.542	55.717	257.076	-22.882	-17.057	126.756	-31.659	-18.242	-14.245	-12.665	-8.050	106.007	-10.083	-8191	255	
1839.032	1	1	0	0	0.212	0.032735	0.3021	0.30846	0.088996	0.39643	0.19375	0.10773	0.21691	0.20038	0.34278	0.17685	0.35467	0.19964	0.085144	0.072051	-1.025	-0.94792	-1.8188	-1.0938	-1.2625	-1.8687	-0.96667	-1.7062	-1.3646	-1.0667	-1.9458	-1.2542	-1.125	-1.6792	-0.91667	-1.7313	283.192	185.138	175.487	301.419	-16.177	256.684	-12.846	318.732	85.260	291.219	233.696	263.337	89.912	249.242	320.787	24.336	0.00055966	0.0019224	0.00021064	480.72	3.9542e-05	2.0764e-05	740.34	139.81	5.8852e-05	1.747e-05	287.85	100.7	46.322	16.371	2.2122e-05	40.852	0.063391	0.11895	0.03377	765.56	0.0011426	0.0013429	919.63	209.94	0.0010702	0.0013281	394.84	142.09	87.292	29.572	0.0011439	58.152	-15.377	106.793	126.257	-22.631	139.450	139.191	-22.737	-16.604	205.807	-2.802	-18.158	-14.184	-12.066	-8.625	206.527	-10.506	-8191	255	
1839.104	1	1	0	0	0.1482	0.2066	0.10008	0.14172	0.28807	0.17224	0.16326	0.3592	0.17579	0.18466	0.25421	0.23235	0.032077	0.19293	0.20811	0.18453	-0.85417	-0.9125	-1.6875	-1.2708	-1	-1.7583	-1.1729	-1.5417	-1.6146	-0.91875	-1.6979	-1.1896	-1.2354	-1.9333	-1.0625	-1.3417	306.112	107.795	213.447	218.328	123.156	42.159	-25.790	290.724	48.096	81.868	137.778	-10.960	86.200	35.281	78.331	238.341	0.00061264	0.0024238	0.00069755	476.67	1.4131e-05	9.7662e-06	749.95	139.64	1.6037e-05	3.9088e-05	290.29	101.32	46.104	16.554	6.3787e-06	41.713	0.060454	0.11375	0.032275	756.09	0.001107	0.0013199	920.32	209.6	0.0010573	0.001328	396.16	142.73	87.702	29.924	0.001164	58.745	0.045	260.614	287.886	-22.534	167.805	273.678	-22.998	-17.329	2.619	-24.219	-18.640	-13.678	-13.399	-8.193	19.526	-10.479	-8191	255	
1839.200	1	1	0	0	0.15862	0.24511	0.20865	0.29258	0.084654	0.051896	0.21321	0.1628	0.23097	0.24219	0.35184	0.24231	0.3143	0.17385	0.070513	0.40539	-1.2021	-0.94375	-1.7646	-1.3208	-1.0083	-1.7042	-1.1812	-1.4375	-1.6063	-0.83958	-1.8646	-1.5	-0.94583	-1.8979	-1.0271	-1.1688	185.153	-28.649	154.223	302.686	221.427	40.920	60.290	248.498	293.426	143.854	301.872	95.762	6.102	188.416	163.594	252.086	0.0012751	0.00465	0.00048443	486.05	5.1047e-06	2.9403e-05	751.97	139.58	4.4088e-05	1.9391e-05	289.58	102.51	46.757	16.751	3.0058e-05	41.619	0.061713	0.11643	0.033159	767.98	0.0011378	0.0013701	927.48	213.31	0.0010847	0.0013734	401.42	144.79	89.153	30.29	0.0011773	59.267	258.946	47.466	44.267	-22.371	237.158	147.955	-23.276	-16.736	197.375	31.134	-18.888	-13.747	-12.713	-8.177	-4.943	-10.144	-8191	255	
1839.321	1	1	0	0	0.20902	0.13855	0.097567	0.21715	0.30949	0.17206	0.2438	0.27772	0.059502	0.32034	0.019501	0.14332	0.068763	0.12093	0.1064	0.24957	-1.3229	-0.85833	-1.7021	-1.4062	-0.87917	-1.8062	-1.2188	-1.2917	-1.5979	-0.95417	-1.4188	-1.7583	-0.95625	-1.8937	-1.2292	-1.2292	33.953	83.979	107.818	284.073	171.675	-18.476	313.331	39.956	246.651	199.167	31.588	180.076	203.832	58.983	134.143	-17.031	0.00087801	0.0042467	0.00050798	486.91	2.948e-05	6.3653e-06	751.41	139.36	2.1202e-05	1.0479e-05	289	101.76	45.672	16.294	3.0308e-05	40.515	0.062238	0.11758	0.033366	770.98	0.0011407	0.00137	931.55	214.16	0.0011071	0.001392	403.7	145.98	90.169	30.674	0.0012188	59.354	-7.967	23.712	136.788	-22.447	-27.617	11.069	-22.768	-16.400	282.974	90.550	-17.911	-14.273	-12.382	-8.235	92.403	-9.698	-8191	255	
1839.417	1	1	0	0	0.22096	0.25553	0.17809	0.10868	0.15476	0.24513	0.15377	0.31094	0.076909	0.38501	0.06281	0.16175	0.22264	0.070996	0.26412	0.10588	-1.5625	-0.81667	-1.5667	-1.525	-0.65833	-1.7729	-1.4396	-1.0604	-1.7396	-1.0333	-1.5458	-1.5396	-0.85625	-1.7062	-1.3479	-1.1729	59.162	81.751	101.074	15.433	42.681	46.482	270.338	280.123	166.541	278.635	-23.434	291.312	201.564	185.928	190.259	135.573	0.001122	0.0019728	0.00064262	473.81	1.4546e-05	7.6897e-06	739.34	138.9	1.473e-05	3.0072e-05	286.84	101.45	46.254	16.419	3.3831e-05	40.979	0.064675	0.12178	0.034418	777.74	0.0011633	0.0013929	927.95	213.46	0.0010971	0.0013779	401.15	144.37	89.701	30.419	0.001207	59.351	-14.697	286.559	98.169	-22.336	299.758	284.629	-23.078	-16.872	307.132	76.683	-17.706	-14.193	-12.252	-8.257	53.800	-10.448	-8191	255	
1839.513	1	1	0	0	0.13561	0.16177	0.28111	0.069727	0.060345	0.11965	0.048506	0.33449	0.089408	0.20128	0.17393	0.14609	0.13309	0.24853	0.27413	0.19178	-1.4167	-1.0125	-1.3875	-1.8875	-0.93542	-1.775	-1.4229	-1.1042	-1.8833	-1.0979	-1.3062	-1.7208	-0.84583	-1.8208	-1.5146	-1.0125	256.343	10.337	239.553	214.009	203.442	231.186	233.627	4.876	239.703	49.356	237.387	235.709	242.098	309.905	3.615	-18.573	0.00023687	0.002282	0.0006288	485.32	3.067e-05	2.2838e-05	742.05	139.18	2.574e-05	2.0644e-05	291.25	101.17	45.752	16.38	2.7321e-05	40.83	0.06414	0.12096	0.034657	778.6	0.0012067	0.0014377	936.72	216.61	0.0011661	0.0014523	408.51	147.02	92.179	31.166	0.001277	60.408	152.619	36.693	174.404	-22.751	32.131	115.299	-23.211	-16.381	200.259	250.651	-18.312	-14.448	-12.795	-8.898	133.103	-10.193	-8191	255	
1839.609	1	1	0	0	0.31538	0.098486	0.20764	0.14416	0.12707	0.10479	0.060356	0.2706	0.14979	0.22982	0.35361	0.024367	0.17352	0.20993	0.2374	0.32864	-1.4667	-1.0729	-1.2125	-1.7812	-0.87917	-1.4771	-1.6729	-0.78333	-1.875	-1.1271	-1.2083	-1.8771	-1.125	-1.4083	-1.6063	-1.1542	280.981	209.334	100.998	231.876	98.666	163.179	29.792	245.035	150.648	8.332	262.215	110.560	80.389	323.370	159.356	24.542	0.00012363	0.0031089	0.00053006	479.83	6.4242e-05	1.7526e-05	748.16	139.72	9.3059e-06	2.4326e-05	289.6	101.8	46.187	16.363	1.4554e-05	41.22	0.067229	0.1267	0.035822	787.89	0.0012214	0.0014506	941.64	217.75	0.0011536	0.0014413	409.69	147.52	91.789	31.272	0.001264	60.454	50.216	103.852	85.354	-22.912	244.781	29.269	-23.048	-16.931	40.886	146.719	-18.264	-13.962	-11.885	-8.549	145.004	-10.353	-8191	255	
1839.705	1	1	0	0	0.061396	0.23489	0.031215	0.35211	0.20813	0.4214	0.20753	0.061937	0.2505	0.0088307	0.1466	0.074153	0.055302	0.21417	0.16343	0.29091	-1.4896	-1.3396	-1.1187	-1.8833	-0.96458	-1.3646	-1.8354	-1.0708	-1.7146	-1.4438	-1.1458	-1.6667	-1.0562	-1.4729	-1.6854	-0.91458	217.320	110.073	100.425	324.009	137.280	270.409	277.523	247.745	243.662	300.413	107.988	219.855	198.851	239.793	7.978	65.290	0.0011514	0.0015535	3.3362e-05	479.34	1.9521e-05	3.3572e-05	741.54	138.26	3.2151e-05	1.4899e-05	286.37	99.96	45.671	15.764	3.5404e-05	40.541	0.066841	0.12502	0.035635	785.59	0.0012177	0.001453	940.51	216.15	0.0011575	0.0014483	404.4	146.3	91.067	30.977	0.0012561	59.595	26.982	125.534	56.701	-21.874	239.560	277.284	-22.863	-17.050	168.774	90.622	-18.690	-13.590	-13.172	-7.146	15.935	-10.170	-8191	255	
1839.802	1	1	0	0	0.30315	0.068281	0.24678	0.20756	0.17409	0.020823	0.16649	0.2179	0.13962	0.21811	0.28082	0.21195	0.10354	0.29264	0.12294	0.093597	-1.2625	-1.4229	-1.0167	-1.7917	-1.1229	-1.3708	-1.9625	-0.92708	-1.5625	-1.4958	-0.89375	-1.7833	-1.3354	-1.2917	-1.825	-1.1292	96.852	297.877	254.215	243.790	101.782	283.347	226.715	264.583	182.917	286.472	288.797	195.161	108.259	173.158	17.146	27.939	0.0013766	0.0043033	0.00026752	481.42	1.7965e-05	2.9821e-05	741.05	136.83	4.1864e-05	1.086e-05	285.18	99.72	45.123	16.309	6.6519e-05	40.287	0.067153	0.12551	0.035482	783.14	0.0012092	0.0014432	931.32	213.42	0.0011396	0.0014254	401.77	144.75	89.906	30.556	0.0012347	59.149	6.576	301.965	238.963	-22.735	-9.167	14.984	-23.004	-17.563	111.041	136.340	-18.547	-14.247	-12.491	-8.072	246.676	-10.011	-8191	255	
1839.898	1	1	0	0	0.2492	0.16045	0.17362	0.25915	0.071262	0.064062	0.10301	0.21151	0.28839	0.29494	0.46319	0.3659	0.26261	0.32531	0.11378	0.23998	-1.2229	-1.4188	-1.0646	-1.7125	-1.2792	-1.1083	-2.0021	-0.88333	-1.4104	-1.6604	-0.92083	-1.9708	-1.1854	-1.0542	-1.9104	-0.99167	24.891	-10.584	298.267	205.944	168.983	94.304	-13.218	281.645	69.035	160.951	-2.660	229.244	287.010	186.281	206.647	-17.076	0.0013113	0.0032481	0.00058975	477.46	5.9839e-06	5.2033e-06	741.37	138.3	3.5919e-05	2.2967e-05	287.79	100.92	45.948	16.217	1.5473e-05	40.991	0.064433	0.12225	0.034382	771.36	0.0011683	0.0013985	925.81	213.03	0.0011034	0.0013866	399.42	144.11	88.431	30.299	0.0011922	59.096	275.104	40.031	261.038	-22.832	197.304	138.839	-22.906	-16.432	263.210	100.859	-18.229	-13.356	-13.287	-8.348	194.484	-10.043	-8191	255	
1839.994	1	1	0	0	0.27984	0.12	0.073266	0.19112	0.20795	0.16415	0.32182	0.15642	0.25296	0.24191	0.24301	0.084633	0.26788	0.11043	0.24734	0.14532	-1.0958	-1.8292	-0.89792	-1.7167	-1.1625	-1.0354	-2.0146	-0.97083	-1.4562	-1.6833	-0.99792	-1.5896	-1.3917	-1.0562	-1.75	-1.1604	77.857	31.620	169.445	220.438	-2.909	102.136	289.526	300.640	-23.543	47.221	240.978	309.364	-29.735	261.631	5.989	247.951	0.00093824	0.0046497	0.00019552	480	3.6218e-05	2.1984e-05	745.9	139.97	6.8596e-06	1.0304e-05	291.45	101.9	45.985	16.089	1.0779e-05	40.727	0.06337	0.11967	0.03404	774.78	0.0011667	0.0013912	930.26	213.5	0.0011043	0.0013862	403.94	145.26	89.387	30.491	0.0012115	59.256	293.747	106.729	99.078	-21.675	72.094	129.221	-22.577	-17.292	273.076	222.338	-18.377	-13.578	-12.797	-7.106	162.700	-10.134	-8191	255	
1840.113	1	1	0	0	0.064774	0.10463	0.10912	0.10197	0.1578	0.13973	0.10241	0.068039	0.2005	0.28929	0.3239	0.43849	0.17227	0.14465	0.23146	0.11253	-0.81042	-1.6104	-0.97708	-1.7208	-1.3188	-0.94583	-1.8312	-1.125	-1.2563	-1.6604	-1.0375	-1.5417	-1.7292	-0.88333	-1.8229	-1.4333	248.562	-20.488	98.107	258.172	205.865	299.597	74.643	297.215	49.166	198.960	29.377	309.655	217.417	229.646	258.819	229.484	0.00091063	0.00085991	0.00048419	480.8	3.6123e-05	2.1161e-05	747.07	139.44	3.5212e-05	1.719e-05	286.92	100.7	45.288	16.087	3.4524e-05	40.529	0.06362	0.12045	0.034197	774.41	0.0011702	0.001397	930.51	214.09	0.0011243	0.0013957	402.45	144.93	90.126	30.501	0.0012189	58.943	51.443	45.233	2.988	-22.470	11.290	-2.442	-23.041	-17.278	65.143	33.798	-18.215	-13.826	-13.610	-7.320	32.110	-10.242	-8191	255	
1840.209	1	1	0	0	0.34717	0.43602	0.37515	0.053284	0.24131	0.074151	0.32958	0.18541	0.088496	0.21627	0.11674	0.24791	0.11284	0.17834	0.1947	0.24744	-0.72917	-1.8	-1.0375	-1.6	-1.6896	-1.0083	-1.925	-1.3271	-0.83958	-1.8771	-1.0708	-1.3854	-1.6604	-0.84375	-1.5688	-1.2667	-17.264	208.186	250.967	305.923	112.943	-28.440	268.872	201.985	248.902	112.126	291.034	265.040	116.575	284.329	48.958	235.727	0.0013638	0.0010591	0.00047784	483.03	3.5265e-05	2.3305e-05	745.73	139.64	4.8692e-05	2.0493e-05	288.16	101.59	45.575	16.175	3.0576e-05	41.231	0.063955	0.11939	0.034074	770.32	0.001158	0.0013712	927.65	212.39	0.001106	0.0013852	401.63	144.63	89.578	30.265	0.0012055	58.996	57.516	-20.402	29.884	-22.121	100.929	240.649	-22.395	-17.179	133.270	121.513	-18.416	-13.902	-12.299	-8.288	197.293	-9.682	-8191	255	
1840.305	1	1	0	0	0.25834	0.21843	0.049873	0.078774	0.16894	0.162	0.25992	0.052344	0.20416	0.31784	0.21479	0.15905	0.20218	0.043746	0.18667	0.13191	-0.70833	-1.7958	-1.0917	-1.2042	-1.6375	-0.91042	-1.7375	-1.5417	-1.0063	-1.6333	-1.2375	-1.3021	-1.7833	-1.0833	-1.55	-1.4292	321.777	16.367	107.679	52.575	148.625	233.703	275.488	271.117	-28.177	248.070	304.166	95.513	322.010	88.656	272.124	110.637	0.0010074	0.00087721	0.00042893	480.49	4.6987e-05	2.351e-05	747.2	140.74	2.2616e-05	1.6629e-05	289.29	101.67	45.827	16.227	4.5376e-05	40.625	0.063651	0.11944	0.034156	771.74	0.0011646	0.0013896	932.25	214.01	0.0011133	0.0014027	404.26	145.88	90.391	30.572	0.0012282	59.628	253.224	1.569	82.284	-22.035	168.186	9.779	-22.634	-16.745	251.694	125.289	-18.289	-13.123	-12.949	-7.711	216.286	-10.512	-8191	255	
1840.401	1	1	0	0	0.10388	0.14368	0.11145	0.28424	0.11131	0.14521	0.30473	0.22063	0.16739	0.1096	0.19187	0.16923	0.19991	0.32921	0.087813	0.3379	-0.51458	-1.7833	-1.1667	-1.2604	-1.8229	-1.0708	-1.7687	-1.5479	-0.875	-1.8937	-1.4542	-1.1208	-1.7854	-1.1208	-1.5125	-1.6938	303.490	38.321	-29.228	234.197	250.686	144.556	298.629	306.567	288.161	212.853	77.448	283.857	235.869	276.851	158.275	142.053	0.00063471	0.0012088	0.00026006	479.54	2.0128e-05	1.2426e-05	756.17	139.47	5.1732e-05	3.7585e-05	288.77	102.13	45.611	16.233	3.8828e-05	40.857	0.064669	0.12104	0.034228	775.76	0.0011591	0.0013844	935.27	213.04	0.0010911	0.0013607	401.25	144.29	88.685	30.085	0.0011762	58.658	305.407	123.348	25.375	-22.174	-20.713	-34.465	-22.573	-17.631	261.650	35.556	-18.627	-14.056	-12.936	-8.151	190.746	-9.979	-8191	255	
1840.497	1	1	0	0	0.28311	0.021702	0.32826	0.033284	0.21146	0.27654	0.09569	0.10998	0.13431	0.20211	0.072785	0.17042	0.31351	0.080183	0.037003	0.1176	-0.43542	-1.9375	-1.3167	-1.2104	-1.75	-1.0542	-1.3917	-1.7458	-1.1083	-1.8292	-1.5583	-0.9875	-1.9104	-1.0083	-1.2625	-1.8896	85.308	302.267	262.028	85.612	148.889	65.377	116.573	272.326	298.504	5.295	-19.089	-32.244	282.452	224.271	163.093	258.416	0.00028482	0.00058783	0.00011808	483.66	3.2334e-05	9.5229e-06	744.75	139.3	1.5239e-05	2.6211e-05	285.43	101.1	45.526	16.284	2.8099e-06	40.324	0.06227	0.11716	0.032934	764.28	0.0011185	0.0013379	919.9	209.66	0.001053	0.0013323	393.85	142.02	87.1	29.688	0.0011576	57.882	303.406	101.352	243.642	-22.288	226.900	86.753	-22.365	-16.699	10.719	115.405	-18.232	-13.523	-12.283	-7.908	126.078	-10.056	-8191	255	
1840.593	1	1	0	0	0.036187	0.11361	0.14595	0.24691	0.15992	0.078612	0.20108	0.12082	0.10872	0.16729	0.20456	0.14693	0.17919	0.1252	0.10498	0.14675	-0.65	-1.575	-1.4333	-0.96458	-1.625	-1.2125	-1.4688	-1.7979	-0.94792	-1.5812	-1.6604	-0.92083	-1.8438	-1.2	-1.0604	-1.9792	302.474	10.535	164.054	200.529	10.355	283.565	-19.652	60.679	57.091	192.426	-2.798	258.744	279.844	191.277	240.128	290.722	0.00010143	0.00057886	0.00024777	475.97	2.6162e-05	2.815e-05	743.79	139.58	2.7829e-05	4.1978e-05	286.66	99.356	45.386	15.945	2.7657e-05	40.593	0.061015	0.11585	0.032746	756.66	0.0011191	0.0013407	916.83	209.86	0.0010653	0.0013356	395.02	142.47	87.641	29.728	0.0011694	58.295	40.484	54.565	-22.147	-21.643	184.900	203.963	-22.659	-16.463	20.351	256.807	-17.766	-13.268	-12.844	-7.925	102.445	-9.892	-8191	255	
1840.714	1	1	0	0	0.065803	0.18646	0.2759	0.19766	0.083087	0.16159	0.12051	0.17494	0.11598	0.16147	0.17869	0.21799	0.17461	0.29422	0.060494	0.20724	-0.40625	-1.3208	-1.5708	-0.92083	-1.7	-1.1875	-1.2313	-1.8979	-0.7	-1.5063	-1.825	-1.0125	-1.6042	-1.3646	-1.1792	-1.9417	238.618	232.177	202.611	167.867	138.939	221.256	-19.612	241.615	318.261	289.487	303.994	209.268	190.918	52.262	210.883	-27.398	0.00065803	0.00052306	0.00062485	472.55	1.9294e-05	4.554e-05	742.2	138.86	7.5236e-05	6.0777e-06	288.43	100.9	46.403	16.155	4.2184e-05	41.2	0.061795	0.1167	0.033056	757.73	0.0011147	0.0013291	919.22	208.79	0.0010579	0.0013171	394.06	142.16	87.291	29.427	0.0011383	57.863	292.108	45.997	136.186	-21.765	96.404	285.481	-22.728	-17.322	274.848	204.049	-18.328	-13.822	-12.279	-8.043	67.889	-9.716	-8191	255	
1840.810	1	1	0	0	0.079138	0.27494	0.11212	0.15377	0.12249	0.18204	0.079354	0.023253	0.12771	0.16498	0.30775	0.082194	0.051843	0.15112	0.19985	0.15554	-0.43958	-1.4208	-1.8479	-0.85833	-1.7167	-1.6063	-1.0938	-1.9229	-0.99583	-1.3375	-1.7292	-1.0292	-1.7125	-1.5708	-1.0125	-1.9562	93.787	249.489	247.931	293.919	273.302	298.460	301.379	168.106	196.123	291.545	252.146	290.819	228.180	128.881	164.717	272.056	0.0003096	0.0025415	0.00046431	483.63	2.1641e-05	4.8751e-06	756.3	138.52	1.2734e-05	2.2622e-05	292.05	101.24	45.408	16.29	3.3422e-05	40.763	0.059438	0.11226	0.031876	751.54	0.0010876	0.0012864	916.39	207.43	0.00103	0.0012882	393.82	141.34	86.116	29.377	0.0011275	57.496	27.160	-22.917	148.479	-22.321	-23.118	83.485	-22.663	-16.483	111.144	275.647	-17.991	-13.461	-13.396	-7.837	53.656	-10.057	-8191	255	
1840.906	1	1	0	0	0.16442	0.13776	0.18109	0.15913	0.076163	0.23418	0.15789	0.30251	0.055284	0.17004	0.31144	0.22379	0.29774	0.049825	0.15617	0.12562	-0.71458	-1.1792	-1.7083	-0.95	-1.5646	-1.3208	-0.99583	-1.8896	-1.2229	-1.0583	-1.8875	-1.0604	-1.5896	-1.6771	-0.93958	-1.7917	246.650	156.948	-23.581	202.285	318.647	220.573	236.860	206.981	33.212	251.741	295.185	253.458	277.396	192.710	301.096	204.839	0.0002871	0.001974	0.00071461	475.6	6.9406e-06	1.7318e-05	741.3	139.16	4.3351e-05	3.4493e-05	290.88	101.37	45.357	16.286	2.2014e-05	40.907	0.059007	0.11091	0.031339	740.15	0.001061	0.0012526	905.33	204.25	0.00099071	0.0012302	386.99	138.88	83.839	28.543	0.0010705	56.714	162.609	35.807	60.082	-22.806	108.680	53.468	-22.833	-16.732	178.301	-33.023	-17.983	-13.120	-12.190	-8.405	217.603	-9.808	-8191	255	
1841.003	1	1	0	0	0.10219	0.27141	0.070236	0.13583	0.11242	0.13323	0.20851	0.18061	0.23129	0.14137	0.13767	0.049225	0.12075	0.32927	0.18583	0.22324	-0.83958	-1.0958	-1.8646	-1	-1.2396	-1.6938	-1.1042	-1.7542	-1.375	-1.1146	-2.1271	-0.94792	-1.3646	-1.6333	-0.82708	-1.5917	159.733	302.253	76.708	245.672	-20.636	107.697	319.843	240.304	169.186	247.696	207.189	64.967	243.871	-5.217	248.958	-23.412	0.0011469	0.001713	0.00075829	479.04	2.7145e-05	1.2424e-05	744.88	139.78	1.4684e-05	6.4573e-06	290.16	101.75	46.327	16.637	4.7037e-06	41.577	0.056331	0.10646	0.030052	732.85	0.0010363	0.0012427	904.59	205.69	0.0010026	0.0012614	392.86	141.1	86.206	29.337	0.0011078	57.969	21.871	10.233	86.776	-22.521	231.774	27.463	-22.443	-16.829	107.474	264.765	-18.244	-13.374	-13.057	-8.152	85.224	-9.685	-8191	255	
1841.097	1	1	0	0	0.17621	0.17441	0.22315	0.25361	0.2538	0.053983	0.30558	0.23201	0.19576	0.054985	0.086687	0.054398	0.096544	0.14886	0.33567	0.17354	-0.98125	-1.3312	-1.7687	-1.1292	-1.3854	-1.7812	-0.98958	-1.5917	-1.4458	-1.0458	-1.9813	-1.1146	-1.4396	-1.9021	-1.0167	-1.5979	217.433	59.254	81.532	143.325	198.309	323.297	183.440	0.207	213.405	256.995	-9.028	227.617	174.511	318.553	198.977	221.139	0.0007242	0.0004891	0.00057927	477.04	1.2154e-05	4.3373e-05	754.74	142.13	7.198e-06	9.49e-06	291.79	103.2	46.625	16.775	1.1389e-05	41.355	0.058625	0.11062	0.031298	743.88	0.0010594	0.0012585	915.19	207.84	0.00099954	0.0012623	393.44	142.06	85.782	29.314	0.001081	57.91	317.790	139.025	73.927	-22.602	167.386	48.880	-22.696	-16.941	304.556	9.901	-17.910	-13.911	-12.232	-8.277	90.723	-9.666	-8191	255	
1841.193	1	1	0	0	0.13972	0.18527	0.16292	0.19576	0.3852	0.18664	0.099941	0.15585	0.066004	0.0087748	0.08564	0.045717	0.29711	0.18296	0.37997	0.26757	-0.91667	-0.66042	-1.9229	-1.2687	-1.0479	-1.7062	-0.95833	-1.4562	-1.6083	-0.93542	-1.8208	-1.3542	-1.0375	-1.95	-1.0646	-1.4604	77.918	82.357	28.392	202.927	107.991	173.869	223.854	231.451	-7.036	54.470	104.084	324.283	-26.691	222.253	260.660	284.898	0.0013667	0.001769	0.00081654	488.72	3.3603e-05	2.3853e-05	746.05	140.87	3.9955e-05	1.0249e-05	293.57	102.91	46.416	16.595	4.3202e-05	41.467	0.057166	0.1084	0.030231	739.94	0.0010346	0.0012371	908.22	205.67	0.00097051	0.001218	388.1	139.68	83.619	28.57	0.0010414	56.895	-25.626	259.100	208.450	-22.634	183.166	165.595	-22.710	-17.094	85.507	251.117	-18.427	-13.859	-12.379	-7.977	84.971	-9.839	-8191	255	
1841.289	1	1	0	0	0.22561	0.14932	0.23001	0.23519	0.22059	0.1755	0.11937	0.088485	0.35157	0.011069	0.38031	0.16858	0.098516	0.36014	0.17549	0.14229	-1.1208	-1.1104	-1.7521	-1.5375	-0.9375	-1.7729	-1.1146	-1.6208	-1.7104	-0.97292	-1.8646	-1.4271	-1.1271	-1.8312	-1.1667	-1.4958	226.376	230.333	248.430	122.114	236.955	183.084	314.871	52.617	-8.294	132.907	222.634	178.704	18.539	249.773	105.378	229.479	0.00097714	0.0028212	0.00066838	480.36	3.2303e-05	2.3236e-05	742.54	139.37	4.8451e-05	1.7475e-05	289.03	101.64	46.651	16.606	3.2683e-05	41.967	0.054375	0.10266	0.028969	723.91	0.00099812	0.0011836	890.49	201.52	0.00093224	0.0011754	383.69	137.73	83.412	28.526	0.0010363	56.839	254.276	151.597	97.341	-22.551	68.602	249.336	-22.750	-16.667	220.927	93.695	-17.845	-14.108	-13.151	-7.152	282.261	-10.335	-8191	255	
1841.410	1	1	0	0	0.27065	0.26576	0.11541	0.1157	0.018835	0.27808	0.14844	0.14241	0.34301	0.08834	0.16485	0.18734	0.10421	0.22079	0.17036	0.11047	-1.3104	-0.9625	-1.5438	-1.5167	-0.88958	-1.7542	-1.0562	-1.2792	-1.6	-0.96667	-1.6063	-1.7	-1.075	-2.0229	-1.1521	-1.3438	297.738	303.372	238.567	193.503	81.933	232.882	-11.057	273.388	142.208	287.404	78.837	258.215	134.229	167.521	152.714	194.252	0.001019	0.0013352	0.00096589	481.7	2.3565e-05	9.1659e-06	749.01	140.05	4.4714e-05	1.8534e-05	291.31	102.31	47.223	16.664	2.7412e-05	41.684	0.055133	0.10367	0.029291	724.23	0.0010018	0.0011899	895.05	201.36	0.00094104	0.0011757	383.6	137.86	83.123	28.386	0.0010188	56.699	-5.769	179.981	212.525	-22.327	-21.818	295.613	-22.381	-17.077	145.883	52.037	-18.487	-13.295	-12.623	-7.897	30.618	-9.670	-8191	255	
1841.506	1	1	0	0	0.10692	0.16721	0.15571	0.072717	0.10439	0.074127	0.21558	0.38711	0.013789	0.21877	0.060781	0.20392	0.50312	0.18959	0.11625	0.1779	-1.4979	-0.87708	-1.3958	-1.6917	-0.94375	-1.7479	-1.3729	-1.0562	-1.9167	-1.025	-1.5875	-1.6729	-1.0583	-1.8458	-1.5	-1.0312	293.312	59.974	151.667	284.849	251.773	-30.526	296.015	45.581	105.022	232.194	320.602	38.172	85.954	-1.112	305.411	214.387	0.00071732	0.0028349	0.00094892	478.44	1.7809e-05	1.0148e-05	749.15	139.19	4.1657e-05	1.1711e-05	293.33	102.68	46.831	16.537	3.2939e-05	42.51	0.054153	0.10121	0.028901	720.2	0.00098536	0.0011683	896.34	201.05	0.00093445	0.001162	385.36	138.55	82.909	28.28	0.0010115	56.995	292.327	32.996	-31.531	-22.422	201.373	193.795	-22.946	-16.765	91.462	130.355	-18.416	-13.759	-12.349	-8.060	190.893	-9.651	-8191	255	
1841.578	1	1	0	0	0.24234	0.19764	0.042209	0.36001	0.10271	0.22675	0.17181	0.25681	0.094192	0.32212	0.057593	0.22624	0.18089	0.070205	0.10224	0.12285	-1.4354	-0.975	-1.2917	-1.7208	-1.0667	-1.9042	-1.6229	-1.1271	-1.9958	-1.0625	-1.3292	-1.925	-0.87083	-1.6917	-1.5312	-1.1354	306.365	319.617	292.939	264.125	174.455	297.796	140.996	317.234	184.369	279.979	21.250	194.472	58.427	127.143	220.603	243.294	0.0012503	0.0023462	0.00030629	483.19	2.3094e-05	3.8593e-05	751.64	141.41	7.446e-06	2.0436e-05	292.15	102.9	46.372	16.751	1.0267e-05	41.635	0.053921	0.1014	0.028743	722.64	0.00099114	0.0011776	897.22	202.31	0.00094271	0.0011776	384.71	138.68	83.214	28.513	0.001017	56.81	-18.339	66.868	235.635	-21.964	250.293	110.748	-22.539	-16.701	190.732	114.211	-17.915	-13.970	-12.305	-7.827	233.825	-9.891	-8191	255	
1841.674	1	1	0	0	0.077537	0.19184	0.23448	0.12945	0.18445	0.044189	0.21663	0.2135	0.14997	0.089426	0.051284	0.092653	0.12365	0.15359	0.1421	0.24615	-1.4562	-1.1604	-1.1	-1.7792	-0.95625	-1.7437	-1.8833	-0.87917	-1.9271	-1.15	-1.2021	-1.9208	-1.0063	-1.6646	-1.5417	-1	13.975	10.455	306.427	223.587	14.423	56.316	238.370	-4.261	227.180	34.670	319.049	281.355	281.336	287.201	13.284	5.565	0.00079765	0.0017135	0.00044422	476.07	2.0876e-05	2.7571e-05	745.34	140.06	4.4753e-05	1.979e-05	295.67	103.12	46.782	16.9	3.8271e-06	42.455	0.054237	0.10138	0.028864	719.13	0.00098068	0.0011651	889.36	200.7	0.00092541	0.0011661	384.58	138.78	82.9	28.565	0.0010139	57.267	-5.677	127.314	190.658	-21.956	279.309	-22.717	-22.097	-16.731	127.668	72.013	-17.952	-13.705	-12.505	-8.219	207.760	-9.634	-8191	255	
1841.794	1	1	0	0	0.20346	0.10901	0.18644	0.18249	0.2971	0.2473	0.18573	0.32905	0.1053	0.030792	0.11688	0.15404	0.21833	0.24361	0.13423	0.11441	-1.3833	-1.2354	-1.1354	-1.9833	-1.1313	-1.5146	-1.8312	-0.95833	-1.8354	-1.4562	-0.82708	-1.9083	-1.0646	-1.4875	-1.6708	-0.92083	220.772	158.065	153.691	220.526	203.752	63.340	122.316	295.193	87.536	279.180	300.053	-29.467	215.553	294.061	-30.830	-22.872	0.00065841	0.0012665	0.00061928	479.79	2.7394e-05	1.6175e-05	747.49	142.68	3.6798e-05	2.5622e-05	296.5	103.92	46.812	17.315	1.3549e-05	42.665	0.053336	0.10039	0.028279	716.43	0.00095973	0.0011462	889.34	201.21	0.00091274	0.0011511	385.22	139.14	83.141	28.759	0.0010136	57.618	314.900	26.029	38.081	-22.155	164.425	10.127	-22.441	-16.990	-24.069	61.598	-18.093	-13.910	-11.925	-7.583	79.067	-9.862	-8191	255	
1841.891	1	1	0	0	0.12147	0.18228	0.17137	0.099056	0.20844	0.25263	0.03975	0.14636	0.36894	0.13091	0.31034	0.044876	0.13662	0.23416	0.14573	0.18169	-1.3146	-1.3583	-1.1167	-1.6187	-1.0646	-1.3667	-1.8937	-0.96458	-1.7667	-1.6333	-1.1771	-1.7979	-1.1938	-1.1479	-1.7021	-1.0708	282.468	293.324	212.015	-9.025	293.990	49.425	223.816	258.981	247.158	78.358	225.462	271.845	83.154	296.826	129.976	19.229	0.0019096	0.0016474	0.00024807	489.72	1.8454e-05	1.1122e-05	752.97	142.31	3.94e-05	2.5874e-05	299.8	105.24	47.459	17.089	1.9536e-05	42.728	0.053887	0.10237	0.028881	728.81	0.00099139	0.0011876	901.63	204.14	0.00094882	0.0011928	392.55	141.53	84.676	29.217	0.0010523	58.269	298.101	84.660	101.607	-21.919	145.513	220.306	-23.158	-16.821	279.972	265.920	-17.966	-13.111	-12.558	-8.242	278.693	-9.852	-8191	255	
1841.987	1	1	0	0	0.2957	0.19914	0.085484	0.20852	0.17441	0.16223	0.16314	0.29667	0.19138	0.14109	0.074299	0.18774	0.025449	0.22682	0.25827	0.25068	-1.1417	-1.4542	-0.84583	-1.7208	-1.2958	-1.0083	-1.8438	-1.0583	-1.4542	-1.725	-0.97917	-1.7938	-1.2771	-1.2042	-1.85	-1.1979	90.911	71.875	61.275	146.432	297.090	229.207	290.382	252.757	214.444	289.432	80.118	211.629	-0.532	315.462	253.487	-25.814	0.00072216	0.0013062	0.00029376	478.96	5.3498e-06	2.6933e-05	744.7	141.65	1.8603e-05	1.5625e-05	294.4	103.01	46.79	17.041	2.5685e-05	42.172	0.055548	0.10457	0.029424	729.47	0.0010122	0.0011966	899.07	203.75	0.00095255	0.0011953	386.75	139.78	83.897	28.837	0.0010319	57.377	295.733	285.241	149.848	-21.977	118.252	23.105	-22.803	-17.277	215.090	271.615	-18.132	-13.348	-12.114	-7.351	49.828	-9.719	-8191	255	
1842.083	1	1	0	0	0.09662	0.22682	0.060138	0.14343	0.30042	0.044721	0.37155	0.027525	0.18308	0.13058	0.3949	0.13766	0.3231	0.19985	0.24966	0.023422	-1.1146	-1.8021	-0.99167	-1.7792	-1.3792	-1.0667	-1.8813	-1.1354	-1.1979	-1.7854	-0.93333	-1.6417	-1.3146	-1.0729	-1.725	-1.1688	-0.330	183.372	6.229	309.552	125.706	60.260	216.505	-29.613	193.380	152.931	323.220	315.646	224.818	303.579	233.833	198.709	7.5127e-05	0.0010306	0.00079296	478.47	1.7984e-05	6.9631e-06	739.51	141.98	1.7552e-05	2.2962e-05	293.1	103.02	47.19	16.863	2.3995e-05	42.786	0.053987	0.10124	0.028592	714.97	0.00096958	0.0011512	883.96	200.34	0.00091845	0.0011477	382.09	137.97	82.007	28.196	0.00098702	56.808	47.867	38.598	-30.514	-21.798	143.784	321.545	-22.153	-17.008	44.392	295.829	-18.199	-13.395	-11.898	-8.087	79.439	-10.209	-8191	255	
1842.202	1	1	0	0	0.098129	0.035692	0.47719	0.38719	0.1221	0.023366	0.10845	0.27271	0.44125	0.076162	0.21789	0.042788	0.14362	0.11528	0.17173	0.12809	-0.91042	-1.8937	-1.0083	-1.6083	-1.3042	-0.86042	-1.95	-1.0917	-1	-1.7437	-0.97292	-1.5792	-1.4375	-0.75833	-1.7729	-1.3	23.012	311.145	165.981	239.142	281.361	1.759	227.198	205.377	263.995	249.247	286.586	286.561	245.037	118.271	76.078	77.769	0.00071922	0.0014155	0.00017483	478.91	4.4936e-05	2.5972e-05	746.95	141.11	2.0873e-05	3.0797e-05	295.96	104.63	46.749	17.132	2.7466e-06	43.064	0.052428	0.097743	0.027911	708.29	0.00095504	0.0011336	886.23	199.92	0.00091436	0.0011434	384.96	138.99	82.465	28.577	0.0010044	57.627	233.322	12.793	144.351	-22.194	116.980	-27.285	-22.400	-17.458	158.793	201.624	-17.725	-13.378	-11.622	-8.369	254.527	-9.901	-8191	255	
1842.275	1	1	0	0	0.25587	0.10412	0.10455	0.10915	0.21384	0.28409	0.27817	0.19492	0.061507	0.10151	0.14369	0.25063	0.09127	0.11048	0.13759	0.17172	-0.55	-1.8479	-1.0542	-1.525	-1.6104	-1.0083	-1.8687	-1.4146	-1.1583	-1.9667	-1.2437	-1.2729	-1.7854	-0.9875	-1.6458	-1.5896	190.786	192.051	65.617	-28.242	239.172	88.517	282.660	146.109	292.205	81.502	164.383	321.008	290.900	-14.589	129.974	277.558	0.0015753	0.0029349	0.00088143	480.37	2.9459e-05	2.8941e-05	743.85	142.14	4.2958e-05	3.4835e-05	297.59	104.18	47.183	17.094	2.9998e-05	42.581	0.053599	0.10068	0.028568	720.34	0.0009824	0.0011751	895.35	202.55	0.00093881	0.0011848	390.03	141.09	84.167	29.061	0.001047	58.036	251.532	116.682	237.974	-22.329	159.234	159.033	-22.081	-16.149	186.502	-18.412	-18.347	-13.184	-12.345	-8.717	322.087	-10.018	-8191	255	
1842.394	1	1	0	0	0.1131	0.26493	0.060577	0.13421	0.1474	0.25468	0.15251	0.10784	0.54474	0.17171	0.045859	0.11317	0.04931	0.23268	0.28201	0.37372	-0.59375	-1.7271	-1.2604	-1.0729	-1.7167	-0.81458	-1.8312	-1.4125	-0.81458	-1.6313	-1.2396	-1.1958	-1.5208	-0.88125	-1.5083	-1.5688	8.136	128.239	176.399	98.259	197.123	187.670	261.409	129.851	46.655	97.216	-32.629	272.318	217.784	262.290	-24.925	208.356	0.0013363	0.0018128	0.00054252	481.54	2.677e-05	2.4422e-05	742.91	143.03	2.7457e-05	3.8396e-06	293.99	103.64	46.671	17.222	2.4666e-05	43.061	0.055338	0.1043	0.029526	727.2	0.0010071	0.0012	895.9	204.47	0.00095127	0.0012105	388.07	140.23	84.03	29.079	0.001044	58.158	10.606	143.883	110.840	-21.751	105.906	41.564	-21.974	-16.417	178.824	228.079	-17.918	-13.357	-12.617	-7.564	94.006	-9.505	-8191	255	
1842.490	1	1	0	0	0.14126	0.024721	0.12811	0.3932	0.10504	0.064562	0.21741	0.11724	0.24247	0.19109	0.23677	0.3202	0.099313	0.14544	0.42643	0.34219	-0.5125	-1.725	-1.0479	-1.1542	-1.7375	-0.90208	-1.7667	-1.4813	-0.91667	-1.6271	-1.2208	-1.1375	-1.8667	-0.99167	-1.35	-1.6479	-11.817	280.566	306.253	199.246	-7.706	324.488	206.911	269.842	37.572	105.259	239.186	180.160	284.855	-31.944	-16.646	314.140	0.0015547	0.0014544	0.00037777	482.17	4.7512e-05	3.7326e-06	755.7	140.79	3.5584e-05	3.6981e-05	295.02	105.44	46.929	17.14	4.3876e-05	42.669	0.05495	0.10482	0.029308	725.47	0.00099655	0.0011941	896.31	204.11	0.00095495	0.0012072	390.24	141.04	84.153	29.129	0.0010408	58.22	9.212	-32.263	187.380	-21.640	259.249	260.858	-21.984	-16.364	125.053	113.234	-17.956	-13.166	-12.021	-7.850	60.471	-9.905	-8191	255	
1842.586	1	1	0	0	0.1884	0.25257	0.11622	0.19755	0.10059	0.2513	0.058833	0.20636	0.27552	0.11853	0.10064	0.21125	0.22902	0.21989	0.26647	0.19574	-0.575	-1.5708	-1.2646	-1.0708	-1.9854	-0.9375	-1.5479	-1.3896	-0.89583	-1.7771	-1.2729	-1.1479	-1.7208	-0.96458	-1.1833	-1.8167	227.016	153.521	267.488	-33.870	102.233	291.636	252.625	252.400	75.105	149.336	264.392	322.261	157.829	226.148	107.873	275.394	0.00078375	0.002427	5.53e-05	481.51	1.7272e-05	1.5072e-05	745.47	140.95	4.0586e-05	1.1869e-05	299.13	104.67	47.462	17.222	1.1258e-05	43.163	0.054771	0.10341	0.029206	725.82	0.00099145	0.0011915	897.14	203.78	0.00094356	0.0011862	390.89	140.93	84.212	29.037	0.0010205	58.323	265.370	101.310	26.125	-20.874	245.640	283.379	-22.160	-16.395	247.229	211.039	-17.502	-12.836	-13.066	-8.422	96.705	-10.062	-8191	255	
1842.683	1	1	0	0	0.068588	0.098334	0.12795	0.13628	0.063776	0.094934	0.053696	0.20214	0.13017	0.04327	0.35386	0.26548	0.16878	0.095024	0.31057	0.20708	-0.40833	-1.6104	-1.3771	-1.1458	-1.9542	-1.0292	-1.3083	-1.8	-0.90833	-1.4937	-1.5333	-0.86875	-1.7979	-1.1083	-0.99375	-1.9021	129.328	-13.873	163.565	154.930	59.277	163.262	290.090	289.887	-6.985	79.021	187.818	-0.432	209.625	257.311	176.211	259.885	0.00088031	0.0010856	0.00097912	481.47	4.8016e-05	8.9393e-06	753	142.81	2.9774e-05	7.8362e-06	297.6	106.37	47.863	17.278	6.0396e-05	43.202	0.053471	0.1002	0.028253	716.59	0.00095859	0.0011281	895.53	201.19	0.00089903	0.0011138	384.12	138.82	81.963	28.256	0.00096312	57.208	-2.336	181.435	320.086	-21.922	53.937	47.448	-22.221	-16.643	125.658	79.814	-17.694	-13.074	-12.097	-7.763	22.704	-9.500	-8191	255	
1842.803	1	1	0	0	0.20215	0.083154	0.26153	0.025058	0.14958	0.24794	0.17105	0.30375	0.20945	0.21782	0.35261	0.10293	0.15099	0.25044	0.21008	0.16522	-0.66875	-1.4042	-1.6229	-0.95	-1.5646	-1.0021	-1.0104	-1.9021	-0.91458	-1.4813	-1.5375	-0.96875	-1.7437	-1.3125	-0.97917	-1.9292	87.439	103.294	302.377	217.372	17.441	16.401	-32.557	307.178	263.625	38.562	265.829	132.799	39.185	257.685	195.589	280.776	0.00023392	0.0019476	0.00056419	479.96	2.5377e-05	2.5434e-05	746.11	142.74	1.8388e-05	7.8423e-06	293.95	105.22	47.143	17.295	1.116e-05	43.117	0.050935	0.095065	0.027122	701.93	0.00092063	0.0010854	876.78	197.35	0.00087052	0.0010833	378.43	136.75	80.748	27.755	0.0009372	56.178	165.897	145.524	41.425	-22.053	136.021	219.835	-22.601	-17.139	11.192	-25.743	-18.387	-13.536	-11.912	-7.828	60.232	-10.110	-8191	255	
1842.875	1	1	0	0	0.16657	0.20354	0.11626	0.22474	0.25152	0.22944	0.12728	0.11931	0.28327	0.035328	0.25377	0.29046	0.13767	0.12783	0.18055	0.20365	-0.4875	-1.1917	-1.4854	-0.96875	-1.7479	-1.3687	-1.2042	-1.8646	-0.77708	-1.2146	-1.9333	-0.9	-1.7667	-1.6396	-0.96042	-1.9396	186.394	192.587	81.155	267.301	230.591	215.598	165.238	111.895	199.749	-27.807	152.445	243.931	120.389	-23.419	-25.370	117.431	0.00098656	0.0030258	0.00036281	481.6	3.95e-05	2.2011e-05	736.39	141.77	3.4827e-05	1.5402e-05	295.46	103.59	47.277	17.283	6.4013e-06	43.217	0.048654	0.09062	0.02575	687.19	0.00087635	0.001039	864.75	194.73	0.00083605	0.0010438	375.45	135.73	79.543	27.555	0.00090583	56.142	298.851	77.639	101.541	-22.392	236.143	14.775	-23.170	-17.619	203.104	203.163	-18.313	-13.434	-12.584	-8.626	68.155	-9.824	-8191	255	
1842.971	1	1	0	0	0.1462	0.10318	0.43948	0.12891	0.15909	0.1634	0.35833	0.36597	0.21946	0.074036	0.23342	0.12109	0.17329	0.17849	0.51731	0.17319	-0.75208	-1.2583	-1.8625	-1.0333	-1.6104	-1.3833	-1.0792	-1.7417	-1.2021	-1.2125	-1.8312	-0.96458	-1.4729	-1.7083	-0.8875	-1.8563	-26.641	63.189	200.168	251.761	180.489	9.063	211.072	215.037	76.294	229.338	-12.020	295.939	-6.699	281.073	40.867	-5.218	0.00040357	0.0018565	0.00026227	475.85	3.5437e-05	8.2624e-06	748.42	142.98	2.1335e-05	5.3924e-06	299.58	105.69	48.456	17.666	2.7017e-05	43.821	0.047847	0.090429	0.025391	684.77	0.00087118	0.0010407	871.15	194.9	0.00082359	0.0010379	377.02	136.11	79.303	27.553	0.00089359	56.551	317.063	235.804	140.595	-22.792	167.084	188.644	-22.786	-17.165	118.147	60.994	-18.648	-14.624	-13.360	-8.695	220.412	-10.333	-8191	255	
1843.067	1	1	0	0	0.065501	0.10825	0.32608	0.047553	0.21003	0.022566	0.16015	0.18014	0.15163	0.082916	0.091575	0.30435	0.18181	0.13752	0.20455	0.20683	-0.79792	-1.1729	-1.8	-1.0375	-1.5292	-1.7104	-0.96458	-1.8062	-1.2271	-1.0187	-1.8208	-1.1833	-1.2458	-1.7417	-0.83333	-1.7542	-33.023	210.706	154.776	273.658	55.652	295.928	239.660	228.502	300.854	316.006	254.695	14.654	286.789	189.519	227.836	237.550	0.0017931	0.0018707	0.00019451	484.23	2.2201e-05	6.8725e-06	748.76	143.97	5.8531e-06	2.7471e-05	298.63	105.33	47.598	17.275	1.3012e-05	43.41	0.047055	0.088938	0.025071	688.71	0.00086162	0.001032	872.69	195.97	0.00082183	0.0010462	377.39	136.69	79.61	27.68	0.00091511	56.454	298.739	46.056	66.561	-22.115	297.622	254.695	-22.724	-17.063	72.347	130.110	-19.044	-14.345	-12.499	-8.108	169.263	-10.106	-8191	255	
1843.186	1	1	0	0	0.12409	0.27113	0.031958	0.14978	0.10708	0.16998	0.1659	0.16035	0.25046	0.26579	0.21109	0.34691	0.19633	0.21056	0.2298	0.25353	-1.0812	-0.99375	-1.7375	-1.0187	-1.0875	-1.6604	-1.0417	-1.5021	-1.4875	-1.0271	-1.7583	-1.15	-1.1375	-1.7125	-0.99792	-1.6625	110.501	245.795	-30.511	15.171	80.576	252.731	299.628	210.682	53.605	127.461	308.038	155.707	321.081	288.082	211.232	228.391	0.00031525	0.0024092	0.00062475	479.04	8.3862e-06	1.4581e-05	742.1	142.33	4.76e-05	9.6012e-06	297.81	104.8	47.186	17.043	1.6434e-05	43.239	0.048481	0.09141	0.025666	691.41	0.00088231	0.0010463	870.88	195.07	0.00082936	0.0010433	374.89	135.61	79.287	27.466	0.00090488	56.09	102.046	148.326	178.301	-22.822	-32.049	125.120	-22.662	-17.016	174.047	218.344	-18.435	-14.269	-12.931	-7.823	95.771	-10.136	-8191	255	
1843.282	1	1	0	0	0.27393	0.18054	0.19999	0.27943	0.15621	0.091968	0.1393	0.093222	0.17916	0.17436	0.2358	0.060226	0.016858	0.16025	0.24814	0.24406	-1.0833	-0.8125	-1.6729	-1.1542	-1.1521	-1.6187	-0.93333	-1.4813	-1.6604	-0.79792	-1.7271	-1.275	-1.0521	-1.8167	-0.9125	-1.4438	89.646	250.048	262.974	142.049	297.600	138.326	292.921	-29.306	145.052	118.221	14.805	205.856	175.397	216.769	221.326	257.007	0.0010378	0.0018156	0.00043442	475.21	3.3633e-05	1.6029e-05	749.74	143.27	2.2325e-05	2.1608e-05	297.99	106.2	48.133	17.18	1.6561e-05	43.653	0.047941	0.089614	0.025379	687.41	0.0008729	0.0010368	871.26	195.16	0.0008173	0.0010273	375.37	135.94	79.165	27.253	0.00087389	55.811	303.432	165.043	117.649	-22.266	235.693	301.319	-23.178	-17.393	131.272	153.109	-18.769	-14.291	-12.533	-8.081	191.790	-10.148	-8191	255	
1843.378	1	1	0	0	0.080872	0.19363	0.23987	0.22893	0.19274	0.2625	0.1794	0.10982	0.08404	0.13899	0.086804	0.17138	0.23452	0.13587	0.13022	0.25425	-1.2333	-0.78333	-1.6542	-1.4375	-1.0229	-1.7292	-0.94167	-1.4583	-1.5021	-0.68125	-1.7417	-1.3687	-0.88958	-1.7146	-0.86042	-1.3833	65.529	66.786	251.386	-18.467	203.930	149.489	279.458	142.946	280.130	241.004	32.953	170.052	316.371	21.579	20.359	255.088	0.0013472	0.00082988	0.00047234	483.85	8.367e-06	2.4494e-05	759.68	144.9	2.7943e-05	6.0576e-06	306.16	107.3	47.907	17.688	1.2842e-05	44.11	0.04592	0.085587	0.024322	679.67	0.00082474	0.00098033	870.57	193.16	0.00078667	0.0009863	377.09	135.53	78.472	27.119	0.00086116	56.046	195.910	150.005	3.149	-22.228	11.548	74.782	-22.920	-17.074	145.991	62.585	-18.610	-13.845	-13.348	-8.177	145.785	-9.948	-8191	255	
1843.474	1	1	0	0	0.16842	0.055251	0.24048	0.060162	0.21191	0.051883	0.1344	0.18175	0.052625	0.099567	0.03272	0.3923	0.2342	0.1301	0.26173	0.18516	-1.3417	-0.84167	-1.6417	-1.5854	-0.77708	-1.5625	-1.1354	-1.1	-1.6083	-0.94583	-1.7167	-1.6604	-0.90625	-1.6646	-1.3	-1.0208	152.913	-29.687	223.924	270.264	4.514	110.130	150.583	249.827	143.820	163.186	292.328	275.316	184.887	-27.119	162.231	287.437	0.0010844	0.0012574	0.00040981	484.68	8.0629e-06	1.9942e-05	755.02	143.92	6.9303e-05	1.1794e-05	300.35	107.18	48.487	17.618	4.4543e-05	43.674	0.045714	0.085229	0.024241	679.69	0.00082719	0.00098097	870.77	194	0.00079136	0.00099504	374.56	135.06	78.215	27.022	0.00086244	55.767	306.589	284.810	78.875	-22.718	65.605	-18.459	-22.454	-16.603	173.764	205.548	-18.188	-13.946	-13.389	-8.918	247.012	-10.358	-8191	255	
1843.571	1	1	0	0	0.32659	0.25779	0.22918	0.080008	0.078827	0.031189	0.29679	0.045707	0.073718	0.1174	0.17294	0.39406	0.16758	0.15561	0.11688	0.15506	-1.3083	-1.0167	-1.5125	-1.6917	-0.87083	-1.7646	-1.3521	-1.0375	-1.8833	-0.88542	-1.6292	-1.6271	-1.0542	-1.6625	-1.2271	-0.96875	215.498	236.613	134.414	117.600	305.953	30.270	271.250	52.712	149.543	206.126	232.089	251.476	-34.012	254.924	-12.334	232.798	0.00061253	0.0026388	0.00022795	476.38	1.3572e-05	2.3697e-05	738.81	142.67	2.4866e-05	1.2401e-05	297.7	106.22	47.264	17.163	1.5329e-05	43.325	0.045069	0.084163	0.023896	672.08	0.00080948	0.00096306	853.38	190.51	0.0007561	0.00094411	368.08	133.03	75.939	26.465	0.00081542	54.621	189.714	55.924	126.587	-22.119	283.875	206.379	-23.120	-17.317	182.553	25.578	-18.398	-13.951	-13.027	-8.379	134.138	-10.491	-8191	255	
1843.667	1	1	0	0	0.17046	0.099163	0.19936	0.16878	0.24147	0.32571	0.053233	0.14637	0.1727	0.15475	0.090789	0.11557	0.11184	0.14449	0.082004	0.31417	-1.4354	-0.91042	-1.3979	-1.65	-0.58333	-1.7521	-1.5271	-1.0667	-1.8729	-1.1104	-1.2188	-1.7958	-0.91458	-1.4792	-1.5333	-0.97708	12.424	189.791	307.585	190.416	213.017	-30.572	192.699	24.145	84.038	182.939	309.991	24.478	290.818	-26.858	142.255	291.847	0.0017801	0.0013304	0.00053994	480.94	2.4132e-05	1.065e-05	748.54	143.14	1.1542e-05	3.0157e-05	300.23	106.6	47.52	17.693	2.6355e-05	44.039	0.043184	0.080826	0.022749	660.44	0.00077319	0.00091163	849.37	187.76	0.00072285	0.00091205	365.93	131.77	75.222	26.349	0.00077867	54.712	309.363	-27.055	73.147	-22.813	166.908	279.089	-23.176	-17.248	298.018	104.493	-18.132	-13.964	-13.026	-8.026	151.284	-10.104	-8191	255	
1843.786	1	1	0	0	0.064627	0.041322	0.10376	0.12485	0.29923	0.10914	0.25878	0.21281	0.090495	0.21848	0.16422	0.39088	0.22776	0.27546	0.096239	0.074432	-1.2521	-0.98958	-1.1625	-1.7292	-0.85833	-1.2958	-1.4271	-1.0229	-1.6271	-1.0792	-0.9375	-1.7625	-0.71667	-1.5875	-1.5604	-0.91875	96.595	-24.637	43.121	315.180	224.586	289.226	321.891	316.037	268.078	202.008	12.045	258.525	279.562	278.203	32.539	-31.854	0.00073434	0.002181	0.00010077	485.56	7.8444e-07	1.6977e-05	754.51	144.31	3.1157e-05	1.1872e-05	301.34	108.66	47.933	17.552	2.2598e-05	43.751	0.041491	0.078161	0.022019	658.68	0.00075192	0.00089684	852.18	188.22	0.00071251	0.00089195	367.04	132.73	74.745	26.181	0.00076881	54.785	71.175	-3.415	135.677	-21.918	288.727	78.688	-22.605	-16.517	114.401	184.841	-17.925	-13.438	-13.079	-8.476	48.648	-9.901	-8191	255	
1843.882	1	1	0	0	0.14232	0.17894	0.2001	0.2648	0.2593	0.14714	0.16929	0.02648	0.19167	0.095229	0.045794	0.13597	0.14345	0.061831	0.23409	0.29916	-1.1667	-1.2292	-0.88333	-1.8146	-1.0583	-1.6146	-1.6021	-0.76458	-1.8042	-1.3542	-0.88958	-1.7271	-1.1167	-1.1542	-1.7396	-0.93958	157.276	-2.252	75.576	292.493	-7.108	306.339	226.898	323.335	166.771	134.158	302.724	263.779	119.552	316.347	239.569	112.746	0.00020429	0.00098212	0.00038996	483.41	2.4549e-05	1.9069e-05	756.02	143.02	9.5656e-06	2.5945e-05	300.4	105.93	48.001	17.478	5.4604e-06	43.589	0.041071	0.077818	0.022144	660.89	0.00075701	0.00090629	852.54	188.68	0.00072461	0.00090764	365.29	132.21	75.553	26.437	0.00081214	54.927	21.513	50.882	79.508	-22.163	259.531	321.386	-22.574	-16.750	291.594	127.881	-18.091	-13.630	-12.930	-8.321	226.849	-10.414	-8191	255	
1843.978	1	1	0	0	0.15808	0.16086	0.19291	0.38726	0.2706	0.2926	0.072315	0.21549	0.21555	0.24885	0.16086	0.13281	0.34138	0.083199	0.30236	0.041881	-1.2854	-1.4188	-0.81042	-1.6938	-1.0729	-1.2125	-1.65	-0.87083	-1.4417	-1.4542	-0.95208	-1.8125	-1.2375	-1.1479	-1.7271	-1.0083	225.473	210.125	24.669	83.054	80.317	9.014	119.715	259.293	249.709	21.360	59.136	125.112	318.279	220.138	299.107	92.480	0.0012601	0.0016453	0.00035706	483.06	1.0979e-05	6.2326e-06	749.69	141.78	3.8525e-05	1.7955e-05	299.74	106.87	48.154	17.473	2.6505e-06	43.415	0.043693	0.081936	0.023323	668.76	0.00080163	0.00095749	860.76	190.37	0.00076835	0.0009629	371.74	134.35	77.429	27.108	0.00085966	55.426	18.026	45.468	282.344	-22.327	98.428	208.268	-22.748	-17.081	131.780	174.229	-18.281	-13.971	-12.788	-7.850	183.393	-10.599	-8191	255	
1844.074	1	1	0	0	0.2368	0.065211	0.033099	0.020643	0.14504	0.061061	0.14157	0.14129	0.12438	0.25857	0.34774	0.0083321	0.28723	0.14598	0.09154	0.10421	-0.92708	-1.3708	-0.79375	-1.5604	-1.1583	-1.0708	-2.2042	-0.88333	-1.6125	-1.6771	-1.0854	-1.9208	-1.3833	-1.0896	-1.7667	-0.9625	219.520	176.118	87.849	137.752	51.563	212.289	281.103	123.199	240.882	136.237	312.705	89.830	245.328	257.363	233.953	184.872	0.00028131	0.0016671	0.00096232	480.87	2.3068e-05	1.6963e-05	754.06	142.95	4.3406e-05	2.6936e-05	301.9	107.37	48.379	17.46	1.517e-05	43.951	0.045321	0.084013	0.024041	672.92	0.00081641	0.00096815	863.98	191.6	0.00076992	0.00095865	371.62	134.1	77.111	26.6	0.0008232	55.411	-10.020	67.187	28.084	-22.474	247.625	212.153	-23.128	-16.864	136.141	288.072	-18.203	-13.679	-12.792	-8.038	118.219	-10.029	-8191	255	
1844.170	1	1	0	0	0.14313	0.22664	0.31579	0.22737	0.084073	0.13802	0.23151	0.24328	0.20456	0.10233	0.1014	0.3099	0.23556	0.030754	0.25531	0.13169	-0.78125	-1.4125	-0.7625	-1.5896	-1.175	-0.81667	-1.9604	-1.2	-1.1854	-1.6437	-0.91875	-1.7125	-1.5854	-0.92292	-1.6396	-1.1854	176.051	169.431	187.872	-5.052	276.873	-5.002	283.687	43.304	285.279	181.853	11.911	8.894	211.418	165.003	179.964	297.412	0.0010156	0.0023329	5.2867e-05	481.49	2.6883e-05	3.259e-05	763.71	146.58	1.9392e-05	8.0945e-06	304.57	108.89	48.571	17.861	1.0458e-05	44.141	0.043681	0.081409	0.023003	667.8	0.00078829	0.00094042	870.81	192.71	0.00075614	0.00094823	376.5	136.07	77.993	27.201	0.00084717	56.3	284.530	28.047	59.279	-22.038	164.534	249.025	-23.000	-17.263	249.687	243.945	-18.275	-13.869	-12.980	-7.685	286.417	-10.013	-8191	255	
1844.266	1	1	0	0	0.18933	0.066262	0.20359	0.10761	0.15845	0.20482	0.13788	0.25886	0.17688	0.098919	0.10831	0.24698	0.17279	0.18791	0.21874	0.30496	-0.68125	-1.8125	-0.83958	-1.5688	-1.5125	-0.94375	-1.8771	-1.3396	-1.1979	-1.8687	-0.86458	-1.625	-1.6187	-1.0271	-1.7062	-1.3729	155.017	75.931	311.520	145.277	43.697	79.892	294.297	308.823	154.770	-15.372	303.450	-11.499	249.955	81.995	249.384	152.592	0.00035408	0.00065359	0.00013348	485.81	2.0607e-05	1.6814e-05	750.24	143.99	3.1058e-05	1.0365e-05	300.56	106.67	48.746	17.676	1.9685e-05	43.92	0.044738	0.084056	0.023759	676.95	0.00081877	0.00097841	867.36	193.68	0.00078118	0.00099244	375.35	135.75	78.314	27.369	0.00087393	56.336	213.653	173.803	228.118	-22.646	78.470	63.719	-22.770	-17.442	194.048	71.966	-18.662	-13.589	-12.563	-8.482	301.989	-10.473	-8191	255	
1844.363	1	1	0	0	0.15358	0.10879	0.11079	0.18049	0.050662	0.24169	0.19343	0.11233	0.262	0.32751	0.15301	0.30142	0.10466	0.079809	0.17823	0.092605	-0.64583	-1.6375	-0.92708	-1.3771	-1.3354	-0.90625	-1.9021	-1.1396	-0.98958	-1.8854	-0.975	-1.2271	-1.6708	-0.825	-1.5771	-1.2396	250.786	262.001	227.010	295.715	177.725	78.452	274.157	269.193	24.059	198.561	279.346	222.711	67.971	272.867	122.267	245.832	0.0013091	0.0029708	0.00037562	479.82	2.9908e-05	3.4048e-05	748.77	144	4.5643e-05	1.7305e-05	298.13	105.94	48.545	17.433	2.1672e-05	44.088	0.04563	0.086016	0.024236	676.75	0.0008239	0.0009808	860.87	192.12	0.00076816	0.00096513	371.73	134.2	77.073	26.966	0.00083419	55.802	258.667	30.902	23.993	-22.758	51.231	83.226	-22.752	-17.388	211.733	230.310	-18.311	-13.597	-13.141	-7.870	111.904	-10.111	-8191	255	
1844.483	1	1	0	0	0.15413	0.036964	0.14799	0.10664	0.21435	0.17052	0.1111	0.21846	0.12798	0.2811	0.2045	0.37224	0.38056	0.17959	0.13587	0.31189	-0.525	-1.6167	-0.98542	-1.2625	-1.6917	-0.85625	-1.7104	-1.4312	-1.0125	-1.7771	-1.1292	-1.2208	-1.8792	-0.85	-1.4875	-1.6146	134.065	139.232	246.822	287.425	39.118	16.897	308.096	288.052	245.241	18.743	61.561	270.601	-27.508	42.045	-26.185	294.022	0.0011624	0.001248	0.00035617	480.73	2.0417e-05	1.4378e-05	751.08	143.73	2.5264e-05	3.0016e-05	301.51	107.81	48.468	17.5	2.1493e-05	44.471	0.043859	0.083321	0.023501	669.41	0.00079991	0.0009528	858.96	191.34	0.00076122	0.00095823	371.76	135.5	77.366	26.923	0.00083954	56.009	279.007	150.374	119.792	-22.136	71.086	91.948	-22.427	-17.128	169.744	236.173	-18.023	-13.630	-13.068	-7.720	204.989	-10.424	-8191	255	
1844.578	1	1	0	0	0.34658	0.21453	0.11196	0.14006	0.20899	0.17485	0.22497	0.16948	0.11835	0.10357	0.28423	0.17956	0.16932	0.13188	0.11804	0.11722	-0.5875	-1.775	-1.1146	-1.0812	-1.9062	-0.94583	-1.7417	-1.5875	-0.83542	-1.5708	-1.4208	-1.0583	-1.8833	-0.95208	-1.325	-1.8792	148.615	23.564	70.107	206.326	66.250	202.990	302.483	131.525	324.917	247.165	-22.398	277.593	237.650	169.772	4.405	245.965	0.0013794	0.00047413	0.00061437	481.26	2.0495e-05	1.9629e-05	756.77	145.19	4.0786e-05	2.4737e-05	301.53	107.47	48.671	17.678	3.1942e-05	44.353	0.044254	0.08326	0.023656	670.37	0.00079749	0.00094886	864.51	191.66	0.00076081	0.00095385	372.89	135.06	77.336	27.012	0.00083849	56.173	290.232	190.694	120.700	-21.960	307.035	244.796	-22.722	-17.077	53.339	221.549	-18.273	-13.714	-13.715	-8.504	-14.605	-9.809	-8191	255	
1844.674	1	1	0	0	0.20033	0.10828	0.15108	0.24016	0.14348	0.095607	0.22919	0.14548	0.16847	0.3549	0.21267	0.09685	0.30787	0.19135	0.24884	0.14752	-0.41458	-1.4875	-1.3229	-0.95	-1.8875	-0.93333	-1.3958	-1.5583	-0.79583	-1.6021	-1.2188	-1.1625	-1.8292	-1.0479	-1.4771	-1.9333	304.334	242.001	152.556	237.596	61.564	311.069	2.072	266.208	40.855	-19.367	288.873	244.929	190.617	39.052	195.205	284.326	0.00070111	0.00067717	0.00029467	474.82	5.0261e-05	1.3142e-05	746.44	143.02	2.4629e-05	1.8002e-05	299.54	107.44	47.961	17.556	1.8208e-05	44.155	0.044393	0.083039	0.02347	667.24	0.00079707	0.00095188	855.28	189.63	0.00075765	0.00094452	369.27	133.98	76.686	26.676	0.00082046	55.558	288.749	73.393	134.843	-22.216	54.630	9.337	-22.385	-17.209	135.449	-30.294	-18.142	-13.264	-12.682	-8.012	37.646	-10.270	-8191	255	
1844.747	1	1	0	0	0.1865	0.49744	0.12823	0.39125	0.18669	0.16261	0.12988	0.071906	0.27438	0.26152	0.20962	0.18897	0.061741	0.11187	0.2744	0.16585	-0.6375	-1.6396	-1.4188	-0.97708	-1.8333	-1.2812	-1.1854	-1.8479	-0.925	-1.3563	-1.7	-0.88958	-1.8833	-1.2271	-1.1417	-1.9458	-16.933	231.653	283.936	262.143	13.968	22.083	210.035	149.928	217.290	310.925	226.660	265.923	290.484	243.616	259.110	20.177	0.00096439	0.00081479	0.00041225	479.75	3.316e-05	1.4228e-05	749.89	142.8	5.2968e-05	1.175e-05	302.23	107.6	47.861	17.555	1.6706e-05	44.552	0.043379	0.081068	0.022989	661.76	0.00078633	0.00093487	852.92	188.87	0.00073991	0.00092071	367.33	133.2	75.577	26.31	0.00078896	55.261	221.971	268.176	-17.333	-21.859	113.677	310.792	-21.494	-16.912	148.410	172.871	-18.312	-13.323	-12.013	-7.632	184.114	-9.980	-8191	255	
1844.866	1	1	0	0	0.1817	0.33392	0.10373	0.31281	0.11775	0.38299	0.2024	0.45286	0.12926	0.17574	0.27612	0.058144	0.12671	0.18989	0.12346	0.26009	-0.7375	-1.5229	-1.625	-1.0667	-1.6854	-1.1583	-1.2104	-2.1146	-1.0375	-1.3729	-1.6708	-0.83542	-1.6271	-1.3604	-0.94583	-2.0729	249.671	-17.590	141.388	315.405	242.960	60.771	301.825	210.428	285.052	2.896	320.347	126.380	-9.126	82.307	45.702	272.513	0.0017851	0.0023849	0.00062796	481.83	2.2815e-05	1.345e-05	755.1	144.94	1.8984e-05	8.9255e-06	307.18	109.14	48.914	17.667	1.9966e-05	45.808	0.041697	0.078168	0.022251	658.88	0.00076212	0.00091053	855.75	189.41	0.00072927	0.00091572	372.14	134.38	76.41	26.649	0.00079789	56.267	-26.670	-26.128	78.604	-21.756	252.748	167.122	-22.605	-16.621	-10.539	49.348	-17.939	-13.233	-11.800	-7.280	108.542	-9.214	-8191	255	
1844.962	1	1	0	0	0.28881	0.13162	0.21688	0.072811	0.18122	0.177	0.056201	0.13973	0.24351	0.10349	0.28055	0.013887	0.29656	0.51938	0.23267	0.25019	-0.76667	-1.3104	-1.6104	-1.0354	-1.4479	-1.4875	-1.2271	-1.8062	-0.9	-1.3396	-1.7396	-1.0375	-1.5958	-1.4979	-0.75417	-1.7354	299.342	309.738	128.297	113.604	24.588	272.043	108.352	224.296	315.689	215.656	11.240	231.656	-17.755	31.847	175.449	289.612	7.3624e-05	0.00025149	0.00062357	486.8	2.9345e-05	2.5436e-05	760.2	146.75	6.4772e-06	9.3332e-06	305.49	108.48	49.047	17.833	6.1506e-06	45.117	0.041956	0.079167	0.022338	665.42	0.00076406	0.0009135	860.45	191.82	0.00074169	0.00094448	374.63	135.75	77.563	27.181	0.0008363	56.675	263.444	226.782	-5.649	-22.207	53.985	90.908	-21.981	-16.263	190.118	38.944	-17.236	-12.822	-11.755	-7.856	219.172	-9.359	-8191	255	
1845.058	1	1	0	0	0.19883	0.021547	0.18971	0.236	0.10027	0.29374	0.19222	0.22143	0.035472	0.20936	0.084557	0.16581	0.098497	0.18726	0.22564	0.19211	-0.63542	-1.0187	-1.7313	-0.8375	-1.4333	-1.325	-1.1104	-1.8312	-1.5375	-1.1021	-1.8563	-0.96042	-1.4896	-1.5458	-0.87292	-1.8417	250.112	23.682	41.929	65.229	-20.617	182.847	-29.886	281.385	-32.253	115.685	267.729	312.838	245.501	225.149	300.294	314.571	0.0005024	0.0027283	0.00011	479.36	1.5693e-05	1.3098e-05	749.83	144.59	1.1666e-05	1.6681e-05	304.84	107.62	48.3	17.619	2.4829e-05	44.527	0.044383	0.084686	0.024019	678.28	0.00082699	0.0009886	866.21	193.56	0.00079119	0.00099873	376.02	135.8	78.394	27.312	0.00086	56.766	160.495	122.538	239.819	-21.496	209.637	250.465	-22.493	-16.823	141.233	90.383	-17.743	-13.092	-12.528	-8.035	139.390	-9.334	-8191	255	
1845.154	1	1	0	0	0.11761	0.15066	0.2714	0.15551	0.22119	0.27076	0.034384	0.2949	0.16527	0.24364	0.14361	0.16807	0.18459	0.1888	0.17012	0.068712	-0.825	-1.2583	-1.8875	-1.0167	-1.3604	-1.5688	-1.1104	-1.7854	-1.2396	-0.90417	-2.0042	-1.0562	-1.5917	-1.6437	-0.82917	-1.7917	80.121	-0.465	123.585	-18.627	106.098	163.997	26.006	284.431	299.984	104.421	262.378	259.597	181.787	223.700	101.409	19.128	0.00028776	0.0019719	0.00015764	475.17	1.4156e-05	4.1751e-05	751.17	143.93	1.7656e-05	1.9271e-05	303.52	107.2	48.066	17.705	2.3564e-05	44.867	0.045208	0.085418	0.024126	673.89	0.00083327	0.00098941	863.3	194.22	0.00079015	0.00098835	376.85	136.28	78.522	27.438	0.00086124	56.849	220.536	197.789	-7.579	-21.186	54.924	232.432	-22.259	-16.012	154.508	87.035	-17.879	-13.153	-12.608	-7.438	11.838	-9.681	-8191	255	
1845.275	1	1	0	0	0.13175	0.2987	0.20718	0.030042	0.07288	0.19909	0.09728	0.11822	0.1966	0.2343	0.20299	0.42833	0.17029	0.090223	0.085703	0.16749	-1.0729	-0.7	-1.75	-1.1729	-1.2	-1.6187	-1.0312	-1.5167	-1.3438	-0.86042	-1.8188	-1.1583	-1.2	-1.8083	-1.1125	-1.7062	29.257	-20.332	174.875	110.166	223.979	279.420	294.627	-4.493	38.482	184.851	19.488	-28.685	133.845	-19.020	261.144	137.532	0.00089499	0.0014443	0.00088408	481.8	2.5829e-05	1.7373e-05	750.17	144.28	1.4036e-05	2.8899e-05	307.51	109.47	49.005	18.11	3.5385e-05	45.679	0.045281	0.084847	0.024257	672.72	0.00082405	0.00098181	864.6	193.18	0.00078458	0.00098509	378.21	137.26	78.654	27.547	0.00086295	57.682	9.663	261.495	178.398	-21.760	95.535	11.933	-22.096	-16.492	137.101	101.913	-17.640	-12.748	-12.167	-7.286	42.367	-8.710	-8191	255	
1845.371	1	1	0	0	0.08669	0.12811	0.070618	0.20755	0.27368	0.16104	0.34551	0.21022	0.19936	0.044643	0.12184	0.19109	0.030492	0.29116	0.11272	0.12387	-1.1021	-0.91458	-1.7604	-1.2146	-1.1854	-1.8583	-1.1583	-1.4438	-1.4083	-0.6375	-1.9104	-1.4667	-1.05	-1.7938	-0.8875	-1.6167	103.291	183.722	188.621	22.175	232.555	129.131	238.984	238.942	45.613	125.700	237.959	-25.583	-21.066	-16.287	51.698	217.020	0.0007089	0.0019869	0.00069211	479.32	1.3358e-05	1.7355e-05	743.73	142.95	2.9855e-05	4.2711e-06	301.57	107.82	47.787	17.657	2.6554e-05	45.057	0.046146	0.087439	0.02493	681.44	0.00085762	0.001014	865.81	194.54	0.00080536	0.0010064	377.36	136.08	78.369	27.397	0.00085312	56.689	205.504	90.764	-7.939	-22.150	-29.309	306.738	-22.866	-16.604	182.808	304.155	-18.250	-13.865	-11.937	-7.451	128.440	-9.449	-8191	255	
1845.467	1	1	0	0	0.36272	0.28809	0.086848	0.2463	0.15864	0.029441	0.060704	0.21747	0.080348	0.25251	0.1205	0.2141	0.23371	0.10336	0.11226	0.050867	-1.2458	-0.91667	-1.6833	-1.3146	-1.0667	-1.7604	-1.1083	-1.3125	-1.6896	-0.9125	-1.6458	-1.4646	-0.96667	-1.8417	-0.93958	-1.2	194.614	264.528	211.238	265.176	120.713	7.400	75.338	269.559	230.045	2.544	3.498	229.594	169.656	215.277	321.357	225.416	0.00086014	0.0012647	0.00058668	471.54	2.6653e-05	1.227e-05	734.94	141.73	3.3128e-05	9.973e-06	296.97	107.8	47.338	17.46	1.327e-05	44.803	0.044557	0.082847	0.023448	660.17	0.0007971	0.00094635	843.36	188.57	0.00074695	0.00093157	366.77	133.76	75.65	26.653	0.00079828	55.845	319.920	50.379	146.633	-22.141	225.324	9.789	-22.714	-16.401	285.487	106.591	-17.746	-14.044	-12.100	-7.937	105.491	-9.963	-8191	255	
1845.564	1	1	0	0	0.17754	0.29234	0.11436	0.12795	0.18851	0.32033	0.052891	0.14219	0.26695	0.24704	0.34378	0.14311	0.26815	0.066423	0.14282	0.25428	-1.3771	-0.8125	-1.475	-1.6354	-0.83958	-1.6375	-1.1479	-1.2	-1.7667	-0.875	-1.6292	-1.6979	-0.81667	-1.6729	-1.1646	-1.2375	220.985	318.056	49.244	14.279	44.666	120.539	140.968	242.248	231.060	109.722	268.494	-26.790	190.878	300.777	2.728	11.843	0.000587	0.00078662	0.00043356	470.71	3.7727e-05	9.9416e-06	745.43	142.95	1.4947e-05	1.4409e-05	300.34	107.96	48.324	17.843	2.1127e-05	45.761	0.04197	0.078833	0.022296	648.58	0.00075884	0.00090119	841.92	186.88	0.0007145	0.00090342	366.57	133.05	75.117	26.431	0.00077876	55.897	-11.430	-30.713	1.009	-22.119	-0.494	20.382	-22.344	-17.301	65.966	10.285	-17.838	-14.152	-13.475	-8.965	82.535	-9.401	-8191	255	
1845.658	1	1	0	0	0.21219	0.23535	0.22086	0.074903	0.24279	0.12254	0.16432	0.1079	0.13576	0.22995	0.2824	0.23194	0.08764	0.13368	0.36752	0.43341	-1.3333	-0.84792	-1.3917	-1.5812	-0.64792	-1.7604	-1.3021	-1.0187	-1.7375	-0.75417	-1.3042	-1.7167	-0.96667	-1.6354	-1.1375	-0.87708	21.874	96.438	9.481	-15.629	182.106	284.644	298.303	-13.632	80.460	81.317	234.320	269.125	212.681	23.655	48.564	-23.368	0.00082572	0.0023664	0.00042567	476.06	2.8462e-05	1.9505e-05	745.07	144.28	1.5092e-05	2.1871e-05	305.94	109.14	48.559	18.266	4.3777e-06	46.1	0.040912	0.076448	0.021351	643.36	0.000722	0.00085258	837.95	184.49	0.00067468	0.000849	364.27	132.87	74.341	26.303	0.00073972	55.945	210.450	18.847	67.847	-21.685	130.783	172.906	-22.647	-16.512	128.758	57.088	-18.029	-13.011	-13.123	-8.087	219.694	-9.666	-8191	255	
#DATA ENDS
