BOXY.EXE: ISS Imagent and Oximeter Data Acquisition Program Version 0.80
Ascii Record File

#ACQ INFORMATION
2  Detector Channels 
16  External MUX Channels 
1  Auxiliary Channels 
5000  Waveform (CCF) Frequency (Hz)
1  Waveforms Skipped 
30  Waveforms Averaged 
1  Cycles Averaged 
16  Acquisitions per Waveform 
10.0806  Updata Rate (Hz) 

#FILE INFORMATION
TRUE -- External MUX Channel results are PARSED.
FALSE -- AC DC and Phase are NOT grouped.
TRUE -- Companion Program Settings File CREATED.
FALSE -- AC data not excluded
FALSE -- DC data not excluded
FALSE -- Phase data not excluded
FALSE -- Auxillary Chn. data not excluded
Tab delimiters

#CALIBRATION STATE
TRUE -- Waveform Calibration Values APPLIED.


#AUX CALIBRATION VALUES
Val Type	aux-1	

Term	1.0000e+00	
Factor	0.0000e+00	


#WF CALIBRATION VALUES
A = Detector Channel
Val Type	A-AC1	A-AC2	A-AC3	A-AC4	A-AC5	A-AC6	A-AC7	A-AC8	A-AC9	A-AC10	A-AC11	A-AC12	A-AC13	A-AC14	A-AC15	A-AC16	A-DC1	A-DC2	A-DC3	A-DC4	A-DC5	A-DC6	A-DC7	A-DC8	A-DC9	A-DC10	A-DC11	A-DC12	A-DC13	A-DC14	A-DC15	A-DC16	A-Ph1	A-Ph2	A-Ph3	A-Ph4	A-Ph5	A-Ph6	A-Ph7	A-Ph8	A-Ph9	A-Ph10	A-Ph11	A-Ph12	A-Ph13	A-Ph14	A-Ph15	A-Ph16	

Term	0.00000e+00	0.00000e+00	0.00000e+00	0.00000e+00	0.00000e+00	0.00000e+00	0.00000e+00	0.00000e+00	0.00000e+00	0.00000e+00	0.00000e+00	0.00000e+00	0.00000e+00	0.00000e+00	0.00000e+00	0.00000e+00	0.00000e+00	0.00000e+00	0.00000e+00	0.00000e+00	0.00000e+00	0.00000e+00	0.00000e+00	0.00000e+00	0.00000e+00	0.00000e+00	0.00000e+00	0.00000e+00	0.00000e+00	0.00000e+00	0.00000e+00	0.00000e+00	0.00000e+00	0.00000e+00	0.00000e+00	0.00000e+00	0.00000e+00	0.00000e+00	0.00000e+00	0.00000e+00	0.00000e+00	0.00000e+00	0.00000e+00	0.00000e+00	0.00000e+00	0.00000e+00	0.00000e+00	0.00000e+00	
Factor	1.00000e+00	1.00000e+00	1.00000e+00	1.00000e+00	1.00000e+00	1.00000e+00	1.00000e+00	1.00000e+00	1.00000e+00	1.00000e+00	1.00000e+00	1.00000e+00	1.00000e+00	1.00000e+00	1.00000e+00	1.00000e+00	1.00000e+00	1.00000e+00	1.00000e+00	1.00000e+00	1.00000e+00	1.00000e+00	1.00000e+00	1.00000e+00	1.00000e+00	1.00000e+00	1.00000e+00	1.00000e+00	1.00000e+00	1.00000e+00	1.00000e+00	1.00000e+00	X	X	X	X	X	X	X	X	X	X	X	X	X	X	X	X	

B = Detector Channel
Val Type	B-AC1	B-AC2	B-AC3	B-AC4	B-AC5	B-AC6	B-AC7	B-AC8	B-AC9	B-AC10	B-AC11	B-AC12	B-AC13	B-AC14	B-AC15	B-AC16	B-DC1	B-DC2	B-DC3	B-DC4	B-DC5	B-DC6	B-DC7	B-DC8	B-DC9	B-DC10	B-DC11	B-DC12	B-DC13	B-DC14	B-DC15	B-DC16	B-Ph1	B-Ph2	B-Ph3	B-Ph4	B-Ph5	B-Ph6	B-Ph7	B-Ph8	B-Ph9	B-Ph10	B-Ph11	B-Ph12	B-Ph13	B-Ph14	B-Ph15	B-Ph16	

Term	0.00000e+00	0.00000e+00	0.00000e+00	0.00000e+00	0.00000e+00	0.00000e+00	0.00000e+00	0.00000e+00	0.00000e+00	0.00000e+00	0.00000e+00	0.00000e+00	0.00000e+00	0.00000e+00	0.00000e+00	0.00000e+00	0.00000e+00	0.00000e+00	0.00000e+00	0.00000e+00	0.00000e+00	0.00000e+00	0.00000e+00	0.00000e+00	0.00000e+00	0.00000e+00	0.00000e+00	0.00000e+00	0.00000e+00	0.00000e+00	0.00000e+00	0.00000e+00	3.99349e+01	-1.27183e+02	-1.30760e+02	-1.82253e+02	-7.82160e+01	-6.87738e+01	-1.58383e+02	-1.62015e+02	-6.51568e+00	-5.86521e+01	-1.73081e+02	-1.71715e+02	-1.81287e+02	-1.76244e+02	-6.42257e+01	-1.49702e+02	
Factor	5.52147e-05	1.09142e-04	2.94109e-05	1.60573e-01	1.55073e-06	1.56155e-06	1.48892e-01	4.20036e-02	1.58478e-06	1.42911e-06	9.25352e-02	2.65785e-02	2.40623e-02	7.73815e-03	1.51428e-06	1.10330e-02	2.94537e-06	3.18182e-06	8.85579e-07	8.69856e-02	3.45660e-08	3.49780e-08	7.56882e-02	2.28152e-02	3.43414e-08	3.49862e-08	4.82752e-02	1.38585e-02	1.31179e-02	4.22409e-03	3.45187e-08	5.81125e-03	X	X	X	X	X	X	X	X	X	X	X	X	X	X	X	X	



#DISTANCE SETTINGS
A = Detector Channel
A-1	A-2	A-3	A-4	A-5	A-6	A-7	A-8	A-9	A-10	A-11	A-12	A-13	A-14	A-15	A-16	

2.5000e+00	3.0000e+00	2.5000e+00	3.0000e+00	2.0000e+00	3.0000e+00	1.5000e+00	3.0000e+00	3.0000e+00	3.0000e+00	3.0000e+00	3.0000e+00	3.0000e+00	3.0000e+00	1.5000e+00	3.0000e+00	

B = Detector Channel
B-1	B-2	B-3	B-4	B-5	B-6	B-7	B-8	B-9	B-10	B-11	B-12	B-13	B-14	B-15	B-16	

1.0000e+01	1.0000e+01	1.0000e+01	1.4400e+00	1.0000e+01	1.0000e+01	1.5100e+00	1.9400e+00	1.0000e+01	1.0000e+01	1.9900e+00	2.4900e+00	2.4100e+00	2.9000e+00	1.0000e+01	2.9800e+00	




#DATA BEGINS
time	group	step	mark	flag	A-AC1	A-AC2	A-AC3	A-AC4	A-AC5	A-AC6	A-AC7	A-AC8	A-AC9	A-AC10	A-AC11	A-AC12	A-AC13	A-AC14	A-AC15	A-AC16	A-DC1	A-DC2	A-DC3	A-DC4	A-DC5	A-DC6	A-DC7	A-DC8	A-DC9	A-DC10	A-DC11	A-DC12	A-DC13	A-DC14	A-DC15	A-DC16	A-Ph1	A-Ph2	A-Ph3	A-Ph4	A-Ph5	A-Ph6	A-Ph7	A-Ph8	A-Ph9	A-Ph10	A-Ph11	A-Ph12	A-Ph13	A-Ph14	A-Ph15	A-Ph16	B-AC1	B-AC2	B-AC3	B-AC4	B-AC5	B-AC6	B-AC7	B-AC8	B-AC9	B-AC10	B-AC11	B-AC12	B-AC13	B-AC14	B-AC15	B-AC16	B-DC1	B-DC2	B-DC3	B-DC4	B-DC5	B-DC6	B-DC7	B-DC8	B-DC9	B-DC10	B-DC11	B-DC12	B-DC13	B-DC14	B-DC15	B-DC16	B-Ph1	B-Ph2	B-Ph3	B-Ph4	B-Ph5	B-Ph6	B-Ph7	B-Ph8	B-Ph9	B-Ph10	B-Ph11	B-Ph12	B-Ph13	B-Ph14	B-Ph15	B-Ph16	aux-1	digaux	

16207.846	1	1	0	256	0.13539	0.114	0.43963	0.093794	0.065623	0.029137	0.29563	0.056079	0.3846	0.10982	0.24333	0.035646	0.072574	0.23785	0.18951	0.17191	-1.2604	-1.0667	-1.9417	-1.6042	-1.225	-1.8729	-1.2771	-1.8667	-1.9188	-1.0479	-1.9958	-1.4104	-1.2417	-2.0479	-1.0604	-1.8563	179.540	303.802	-22.119	244.992	135.013	34.468	292.494	36.713	172.697	95.872	313.062	96.009	248.442	-19.731	298.959	294.754	0.00048616	0.00073395	0.00010889	1305	5.815e-06	4.3001e-06	1310.2	364.42	4.7187e-06	6.6978e-06	414.39	137.42	118.74	40.81	3.7276e-06	50.943	0.00041532	0.00040683	0.00011449	1316.7	4.5067e-06	4.3634e-06	1327.5	370.34	4.3523e-06	4.5316e-06	421.58	140.02	121.1	41.844	4.4773e-06	52.119	306.146	58.355	48.843	-25.465	106.454	77.005	-25.839	-20.753	190.265	139.014	-21.456	-16.763	-16.200	-12.130	140.848	-12.464	-8191	255	
16207.965	1	1	0	0	0.1943	0.19434	0.075654	0.1322	0.12051	0.15009	0.25307	0.33995	0.16929	0.10078	0.38475	0.15024	0.27198	0.24735	0.09854	0.47175	-1.3646	-0.7375	-1.9125	-1.725	-1.1375	-1.9979	-1.5458	-1.5187	-1.8792	-1.2417	-1.8708	-1.5667	-1.0375	-2.1937	-1.3458	-1.5271	148.806	212.597	110.529	-11.350	25.469	296.976	257.454	93.589	95.212	158.688	295.325	319.415	306.602	295.378	253.211	276.961	0.00067182	0.00032149	0.00018556	1300.3	1.1178e-05	6.4713e-06	1312.3	363.45	7.8226e-06	3.0648e-06	416.73	136.97	118.65	40.973	5.6107e-06	50.843	0.00042117	0.00041716	0.00011248	1316.8	4.5181e-06	4.4622e-06	1326.6	369.69	4.5102e-06	4.5365e-06	422.14	139.64	120.84	41.86	4.5174e-06	52.072	306.926	81.050	60.742	-25.623	159.671	84.361	-25.641	-20.726	176.476	97.606	-21.437	-16.775	-16.270	-11.984	102.116	-12.895	-8191	255	
16208.061	1	1	0	0	0.023192	0.040559	0.30882	0.18198	0.18287	0.18172	0.40638	0.19767	0.26828	0.11762	0.39079	0.088033	0.27885	0.069345	0.35262	0.32985	-1.45	-1.0938	-1.7479	-1.7854	-1.0938	-1.8021	-1.4833	-1.5729	-1.9104	-1.1104	-1.7646	-1.7604	-0.97083	-2.0729	-1.3333	-1.3958	317.972	124.495	319.420	-34.062	228.197	127.719	246.803	288.081	70.552	278.510	314.597	-2.893	315.563	228.615	14.221	235.379	0.00059742	0.00043447	6.9783e-05	1298.1	6.5202e-06	3.0033e-06	1311.8	363.14	6.3199e-06	5.7583e-06	416.64	136.76	119.12	40.789	4.3497e-06	51.229	0.00041235	0.00041024	0.000112	1315.4	4.5872e-06	4.3832e-06	1326.2	369.75	4.4127e-06	4.4977e-06	421.59	139.65	120.95	41.831	4.4378e-06	52.186	297.913	56.832	84.810	-25.497	83.541	72.679	-25.548	-20.864	222.629	173.022	-21.180	-16.758	-16.221	-11.688	138.413	-12.629	-8191	255	
16208.157	1	1	0	0	0.38018	0.21424	0.31637	0.0058048	0.27178	0.092425	0.22814	0.16392	0.31616	0.23492	0.37586	0.21028	0.21265	0.36575	0.31377	0.37319	-1.4188	-1.1771	-1.7021	-1.9167	-1.1313	-1.9333	-1.6333	-1.4604	-1.9708	-1.2833	-1.6021	-1.8521	-1.2167	-1.9083	-1.3354	-1.4167	17.569	-9.855	216.643	214.499	22.117	59.532	199.544	-9.449	158.066	186.248	268.548	-10.290	204.085	34.345	-12.624	-25.070	0.00063038	0.0005076	6.7233e-05	1298.3	2.4096e-06	8.7499e-06	1310.7	362.77	2.111e-06	2.9271e-06	414.57	136.88	118.85	40.785	4.2405e-06	50.937	0.00041062	0.00040196	0.00011184	1316.1	4.448e-06	4.3898e-06	1325.2	368.87	4.3845e-06	4.404e-06	421.18	139.58	120.97	41.761	4.296e-06	52.059	295.973	24.723	45.116	-25.518	132.216	130.287	-25.647	-20.786	133.394	129.243	-21.431	-16.756	-16.055	-11.795	165.074	-12.798	-8191	255	
16208.278	1	1	0	0	0.043757	0.23319	0.1922	0.19497	0.19586	0.24682	0.16336	0.26733	0.041075	0.1974	0.30369	0.34215	0.21366	0.25678	0.23787	0.2202	-1.575	-1.1708	-1.4083	-2.1	-0.95208	-1.9708	-1.7313	-1.1167	-2.05	-1.225	-1.6417	-2.1937	-1.2104	-1.9542	-1.5104	-1.3833	29.788	106.798	90.198	273.003	136.312	239.059	237.798	285.963	83.184	103.233	296.288	210.721	271.693	195.049	113.095	-3.977	0.00066981	0.00054252	0.00010794	1297.1	5.9377e-06	8.4708e-06	1307.2	364.65	7.109e-06	4.2829e-06	415.33	136.37	118.14	40.952	8.4606e-06	50.954	0.00040848	0.00040102	0.00011134	1313.6	4.3774e-06	4.3945e-06	1323	369.48	4.3767e-06	4.3887e-06	421.53	139.45	120.74	41.826	4.3794e-06	51.946	308.430	60.223	37.001	-25.698	122.076	101.869	-25.503	-20.812	176.182	63.764	-21.673	-16.893	-16.382	-11.856	81.257	-12.675	-8191	255	
16208.374	1	1	0	0	0.27603	0.10069	0.15739	0.27972	0.16608	0.18916	0.21792	0.17062	0.057187	0.36611	0.10903	0.33283	0.19613	0.35963	0.20417	0.22085	-1.7479	-1.125	-1.4271	-2.1167	-1.05	-1.6938	-2.0042	-1.075	-1.9583	-1.3229	-1.4792	-2.2313	-1.2875	-1.7958	-1.7417	-1.1875	298.971	301.254	23.459	238.080	259.642	-29.859	300.858	173.402	-23.339	31.815	224.225	-33.157	296.167	-20.553	308.660	56.948	0.00059998	0.00039685	0.00012829	1298.8	2.4102e-06	4.3964e-06	1309.1	363.01	6.9009e-06	3.7254e-06	414.92	136.35	118.23	40.747	3.6732e-06	50.913	0.0004063	0.00040029	0.00010951	1314.3	4.3333e-06	4.3534e-06	1325.1	369.37	4.3181e-06	4.3962e-06	421.65	139.33	120.52	41.735	4.2667e-06	51.997	300.886	55.628	25.441	-25.550	98.056	102.645	-25.643	-20.820	173.247	139.424	-21.419	-16.795	-16.100	-11.697	95.981	-12.533	-8191	255	
16208.468	1	1	0	0	0.18354	0.27454	0.027978	0.11214	0.30373	0.12655	0.19623	0.1234	0.088285	0.045008	0.24387	0.12168	0.23082	0.30945	0.29956	0.14352	-1.4958	-1.3167	-1.2104	-2.2958	-1.1187	-1.6375	-1.7667	-1.3958	-1.8438	-1.4125	-1.4396	-1.8438	-1.3292	-1.5854	-1.7417	-1.4625	150.454	68.019	316.817	230.119	-22.963	-6.306	159.165	252.529	310.804	208.729	-28.808	160.832	172.271	264.375	272.467	-31.622	0.00056847	0.00040618	0.00011272	1297.9	7.9615e-06	6.1363e-06	1309.6	362.42	3.3194e-06	6.4433e-06	414.96	136.48	118.58	40.828	7.7942e-06	50.652	0.00040119	0.00038241	0.00010799	1313.8	4.2551e-06	4.2589e-06	1322.5	368.8	4.3381e-06	4.2688e-06	420.78	139.18	120.64	41.752	4.2911e-06	51.915	308.688	96.148	55.753	-25.699	117.803	88.404	-25.576	-20.665	157.180	100.813	-21.325	-16.590	-16.084	-11.727	109.952	-12.645	-8191	255	
16208.542	1	1	0	0	0.23042	0.18264	0.34445	0.46281	0.075757	0.095163	0.29507	0.16879	0.1054	0.25132	0.28781	0.24366	0.20484	0.25084	0.27451	0.43548	-1.2875	-1.4146	-1.1104	-2.0708	-1.1667	-1.4062	-2.2021	-1.1083	-1.9208	-1.6979	-1.2958	-2.0104	-1.3813	-1.5292	-1.9125	-1.1771	96.840	289.165	183.804	270.454	70.948	171.899	253.005	-26.799	197.553	300.668	309.098	135.761	301.628	253.905	89.050	280.433	0.00060987	0.00046451	6.3893e-05	1297.5	6.6784e-06	9.3265e-06	1306.9	362.22	5.6379e-06	3.1617e-06	414.62	137.23	118.98	40.596	5.2469e-06	51.094	0.00040487	0.00039101	0.00010742	1315	4.3204e-06	4.1944e-06	1322.2	368.69	4.2997e-06	4.2407e-06	421.27	139.39	120.68	41.724	4.2289e-06	51.982	292.528	75.651	37.704	-25.448	111.939	113.627	-25.752	-20.821	175.852	128.367	-21.360	-16.968	-16.387	-11.812	129.426	-12.398	-8191	255	
16208.660	1	1	0	0	0.25198	0.031383	0.14518	0.22586	0.37784	0.25701	0.30137	0.47678	0.3673	0.25064	0.24314	0.12479	0.12873	0.14601	0.13683	0.032066	-1.4583	-1.4958	-1.0812	-2.1854	-1.2333	-1.4792	-2.1979	-1.2208	-1.6292	-1.7625	-1.0688	-2.1354	-1.4042	-1.4792	-1.9438	-1.1917	181.978	58.345	52.656	255.887	196.542	259.499	249.720	257.544	299.527	211.846	263.408	93.387	51.165	187.327	160.180	192.933	0.00062876	0.00053359	0.00011205	1295.7	3.4591e-06	6.1442e-06	1312.1	363.25	4.4482e-06	5.1335e-06	414.2	137.04	119.09	41.02	8.3134e-06	50.724	0.00040224	0.00039292	0.00010902	1313.3	4.3147e-06	4.2117e-06	1324.7	368.99	4.3068e-06	4.1692e-06	421.05	139.28	120.79	41.819	4.2734e-06	51.849	313.182	26.231	63.483	-25.234	103.758	88.739	-25.548	-20.868	151.691	180.007	-21.424	-16.669	-16.247	-11.830	111.951	-12.801	-8191	255	
16208.757	1	1	0	0	0.20501	0.38007	0.14918	0.30272	0.16531	0.021908	0.17336	0.39485	0.12285	0.15605	0.19924	0.33923	0.071641	0.17909	0.10535	0.20787	-1.2729	-1.7104	-1.1396	-2.1708	-1.325	-1.1854	-2.2938	-1.4542	-1.4521	-1.9083	-1.3146	-2.2042	-1.5688	-1.2208	-2.0979	-1.3188	315.978	184.516	274.306	-36.516	171.281	200.144	313.204	269.552	41.478	147.417	206.726	222.294	61.372	283.747	19.637	-2.699	0.00070031	0.00058524	0.00017699	1297.1	6.3615e-06	2.3891e-06	1309	363.65	7.445e-06	6.3647e-06	414.57	137.05	118.2	40.804	7.9352e-06	50.741	0.00039871	0.00038183	0.00010617	1314.7	4.1854e-06	4.2655e-06	1323.7	368.94	4.1934e-06	4.1319e-06	420.8	139.24	120.21	41.735	4.015e-06	51.878	307.998	77.303	40.606	-25.452	115.286	122.946	-25.645	-20.660	139.292	118.709	-21.232	-16.605	-15.983	-11.704	136.117	-12.839	-8191	255	
16208.853	1	1	0	0	0.047498	0.081639	0.12413	0.083601	0.21879	0.25971	0.40504	0.092394	0.087158	0.24548	0.036606	0.20991	0.13196	0.13257	0.047309	0.094744	-0.97917	-1.9104	-1.0604	-1.9438	-1.4937	-1.1771	-2.1125	-1.525	-1.4229	-2.0417	-1.2979	-1.8146	-1.8271	-1.2875	-1.9375	-1.5021	31.819	-14.477	38.963	244.282	-9.159	64.879	249.348	16.611	-8.412	123.196	196.146	6.521	257.983	183.807	138.185	293.381	0.00061999	0.00055961	0.00012688	1296.1	3.1877e-06	3.0549e-06	1304.7	362.04	7.2868e-06	4.9896e-06	414.76	136.97	118.37	40.755	3.1325e-06	50.73	0.00038902	0.00037891	0.00010661	1312.1	4.1796e-06	4.0915e-06	1319.7	368.38	4.1493e-06	4.1626e-06	420.75	139.18	120.58	41.692	4.1586e-06	51.879	317.696	42.245	16.847	-25.263	121.043	313.466	-25.724	-20.773	207.416	150.113	-21.380	-16.795	-16.429	-11.811	135.592	-12.432	-8191	255	
16208.949	1	1	0	0	0.17533	0.15022	0.19091	0.3498	0.1792	0.061825	0.077407	0.16416	0.08781	0.33737	0.18945	0.11645	0.29296	0.11607	0.29671	0.15223	-1.0979	-1.9729	-1.1729	-1.9021	-1.7542	-1.0562	-2	-1.3875	-1.3021	-2.075	-1.1896	-1.7687	-1.7396	-1.05	-1.95	-1.4271	209.793	-23.427	195.819	233.465	125.469	181.216	76.928	268.180	82.725	8.131	294.614	211.753	-12.318	217.664	57.341	215.858	0.00069885	0.00049316	0.00011662	1295.8	4.7909e-06	3.0833e-06	1309	363.36	2.039e-06	1.1367e-06	415.42	136.41	119.02	40.525	4.5233e-06	50.838	0.00038489	0.00037398	0.00010529	1310.9	4.1344e-06	4.0871e-06	1322.7	368.23	4.1268e-06	4.0768e-06	421.32	139.13	120.85	41.683	4.0511e-06	51.896	317.330	19.613	60.096	-25.317	157.814	140.752	-25.482	-21.044	232.809	137.623	-21.317	-16.668	-16.119	-11.687	193.940	-12.609	-8191	255	
16209.045	1	1	0	0	0.076033	0.077455	0.33015	0.20748	0.11999	0.24741	0.28988	0.19456	0.23813	0.2026	0.13492	0.23604	0.28634	0.18753	0.11684	0.30182	-0.78333	-1.9438	-1.1896	-1.8396	-1.8208	-0.9	-2.0917	-1.6833	-0.99792	-1.9333	-1.2792	-1.5854	-1.8833	-1.1479	-1.7646	-1.8875	127.986	181.825	182.445	-19.471	-13.182	99.061	254.729	285.633	275.459	203.106	32.664	-9.964	196.064	104.047	66.269	290.580	0.00053961	0.00058837	0.0001729	1301.9	5.5058e-06	3.2746e-06	1309.7	362.86	6.6892e-06	3.9331e-06	415.76	137.03	118.97	40.895	5.8201e-06	50.858	0.00038888	0.00038006	0.00010403	1315.1	4.1174e-06	4.1189e-06	1324	369.01	4.128e-06	4.0024e-06	421.37	139.16	120.69	41.839	3.9052e-06	52.008	303.549	44.569	61.876	-25.190	137.685	105.373	-26.044	-21.377	196.799	84.052	-21.561	-16.916	-16.778	-12.211	119.312	-12.934	-8191	255	
16209.141	1	1	0	0	0.18833	0.14982	0.13079	0.28066	0.1958	0.33231	0.16021	0.2393	0.19706	0.11371	0.2024	0.39864	0.26783	0.28048	0.13586	0.29142	-0.76667	-1.8146	-1.4021	-1.5187	-1.8375	-1.0625	-1.8687	-1.8042	-1.1708	-2.0146	-1.4625	-1.5833	-2.0146	-1.3521	-1.6729	-1.7021	236.456	302.336	-15.606	291.661	19.641	315.762	258.314	225.813	100.811	41.570	252.654	241.163	299.366	35.336	92.250	244.158	0.00055362	0.00070163	8.7597e-05	1302.4	6.4446e-06	1.5246e-06	1309.1	363.17	4.4757e-06	2.644e-06	413.82	136.41	118.58	40.62	3.5637e-06	50.807	0.00038066	0.00036574	0.00010196	1312.2	3.9253e-06	3.9462e-06	1322.2	368.65	3.9824e-06	3.8227e-06	419.5	138.72	120.55	41.621	3.8628e-06	51.835	295.600	29.245	78.076	-25.657	99.785	172.985	-25.781	-21.039	119.315	113.695	-21.618	-16.945	-16.593	-12.084	107.124	-12.846	-8191	255	
16209.237	1	1	0	0	0.060737	0.19325	0.20163	0.26679	0.17916	0.081455	0.3852	0.42693	0.18255	0.17292	0.19273	0.15989	0.031549	0.32755	0.11383	0.30434	-0.54583	-1.8479	-1.4062	-1.4833	-1.6938	-1.0125	-1.8479	-1.8062	-0.99167	-1.9521	-1.5312	-1.2854	-2.075	-1.0479	-1.5125	-1.8458	75.106	290.638	59.506	276.051	-4.810	9.135	268.957	261.255	182.515	121.185	307.102	76.565	251.703	304.346	236.583	43.406	0.00072886	0.00025196	0.00014885	1291.6	1.2032e-06	5.7312e-06	1309.7	361.99	3.3007e-06	4.9082e-06	416.59	136.28	117.99	40.696	5.7609e-06	50.852	0.00036766	0.00035595	9.9207e-05	1309.4	3.9224e-06	3.9288e-06	1321.4	367.86	3.9317e-06	3.862e-06	420.82	139.02	120.51	41.707	3.9783e-06	51.974	294.723	71.408	42.700	-25.593	81.035	108.285	-25.838	-21.147	202.088	120.817	-21.532	-16.769	-16.372	-12.236	111.467	-12.928	-8191	255	
16209.358	1	1	0	0	0.12142	0.196	0.09769	0.12096	0.155	0.19669	0.35401	0.1693	0.12517	0.072002	0.29459	0.27199	0.29041	0.31755	0.040373	0.14282	-0.76875	-1.7604	-1.6042	-1.4417	-2.0479	-1.1125	-1.7396	-1.8729	-0.89375	-1.6938	-1.6104	-1.0625	-2.1167	-1.3521	-1.3729	-2.0292	133.897	261.230	144.332	50.241	279.961	87.958	240.704	259.206	135.778	51.161	-9.267	264.294	278.226	-33.705	4.104	253.693	0.00071325	0.00061758	0.00013105	1303	6.0824e-06	7.02e-06	1308.1	361.75	4.1465e-06	7.9019e-06	414.12	136.07	118.88	40.843	6.0145e-06	51.037	0.0003747	0.00036057	0.00010192	1314.4	4.0165e-06	3.9431e-06	1321.6	368.17	4.0272e-06	3.8779e-06	420.03	139.06	120.7	41.712	3.9871e-06	51.99	311.511	54.978	32.849	-25.563	131.302	97.452	-25.755	-21.105	204.745	130.670	-21.692	-16.720	-16.530	-12.007	137.764	-12.809	-8191	255	
16209.454	1	1	0	0	0.22584	0.27775	0.11082	0.41254	0.25331	0.14841	0.27559	0.30551	0.3061	0.26969	0.24002	0.46711	0.34745	0.19483	0.20837	0.33781	-0.65417	-1.8583	-1.7563	-1.4083	-1.8917	-1.1354	-1.5938	-2.0854	-1.0646	-1.6833	-1.8146	-1.2729	-2.075	-1.5562	-1.3875	-2.0625	279.638	-7.761	19.704	280.252	285.469	74.142	-36.347	267.237	314.868	29.585	227.319	48.664	282.029	-20.645	53.933	234.435	0.00062558	0.0004752	0.00012039	1299.4	8.9543e-06	5.8144e-06	1306.8	362.52	8.9368e-06	3.9222e-06	415.03	136.77	118.22	40.83	3.2868e-06	50.838	0.00037545	0.0003576	9.9323e-05	1311.4	3.8659e-06	3.9329e-06	1320.7	368.08	3.9635e-06	3.8558e-06	419.38	139.26	120.55	41.702	3.9246e-06	51.936	-37.277	85.021	-3.553	-25.698	95.034	125.578	-25.491	-21.097	197.773	138.210	-21.712	-17.056	-16.331	-12.068	127.554	-12.714	-8191	255	
16209.550	1	1	0	0	0.13596	0.168	0.21567	0.20777	0.053446	0.14144	0.19696	0.33496	0.27704	0.11959	0.21897	0.25273	0.2312	0.21946	0.28613	0.072483	-0.75833	-1.7542	-1.9167	-1.3375	-1.9896	-1.35	-1.3521	-2.0958	-1.1292	-1.5833	-1.8271	-1.1167	-1.9021	-1.6167	-1.2542	-1.9146	185.107	178.689	307.961	258.871	200.998	77.794	190.890	33.333	90.494	169.607	261.145	302.168	221.734	-12.227	113.266	64.519	0.00071699	0.00026507	0.00011858	1294	2.5011e-06	6.5683e-06	1303.8	363.11	3.4441e-06	7.0856e-06	413.06	136.57	118.61	40.617	5.4175e-06	50.641	0.00036721	0.00034433	9.7856e-05	1311.2	3.8956e-06	3.8415e-06	1320.4	368.92	3.9083e-06	3.7744e-06	420.1	139.12	120.53	41.665	3.8949e-06	51.852	-37.930	56.982	40.399	-25.489	76.829	125.630	-25.678	-21.121	175.719	158.391	-21.429	-17.023	-16.517	-11.819	116.548	-13.028	-8191	255	
16209.646	1	1	0	0	0.1333	0.22594	0.26461	0.18882	0.27044	0.064835	0.3721	0.4651	0.036273	0.21992	0.22854	0.16583	0.28986	0.171	0.36221	0.20838	-0.75625	-1.5542	-1.6646	-1.1521	-1.7021	-1.5208	-1.4333	-2.1271	-1.3021	-1.4208	-1.9917	-1.0333	-1.9458	-1.8021	-1.1938	-2.0771	220.865	1.938	151.057	-37.979	274.096	-11.096	182.206	310.241	207.444	41.180	313.835	157.119	214.854	25.944	-12.249	251.801	0.00067641	0.00061431	0.00010747	1294.9	3.8792e-06	7.6265e-06	1308.7	362.72	5.8731e-06	5.5164e-06	416.82	137.07	118.16	40.823	7.3233e-06	50.838	0.00036378	0.00034793	9.5279e-05	1310.5	3.8251e-06	3.7487e-06	1320.4	368.14	3.8652e-06	3.7503e-06	420.49	139.01	120.59	41.72	3.9014e-06	51.869	299.367	63.285	32.599	-25.554	133.685	100.521	-25.578	-20.926	138.283	84.505	-21.772	-17.029	-16.185	-12.029	122.531	-12.852	-8191	255	
16209.765	1	1	0	0	0.11817	0.047592	0.22317	0.07331	0.041806	0.035151	0.36242	0.43989	0.1444	0.13661	0.10744	0.059201	0.39067	0.098811	0.14532	0.35469	-1.0208	-1.2979	-2.0229	-1.3104	-1.95	-1.8333	-1.3833	-2.1521	-1.3458	-1.5167	-2.0042	-1.1812	-1.8	-1.7854	-1.0312	-2.125	205.296	-3.789	161.098	100.240	-16.546	229.136	261.997	255.318	210.375	-17.344	302.615	-6.238	299.295	118.243	-0.848	314.925	0.00058715	0.00059405	0.00010929	1298.4	6.4633e-06	4.7226e-06	1307.7	363.54	4.2804e-06	3.2052e-06	415.58	136.69	118.29	40.861	4.7547e-06	51.06	0.00035792	0.00034667	9.6748e-05	1311.1	3.7953e-06	3.7399e-06	1320.3	368.2	3.7336e-06	3.7515e-06	420	139.1	120.76	41.766	3.8361e-06	51.947	303.364	55.905	36.601	-25.608	81.504	119.733	-25.588	-21.030	209.847	91.739	-21.345	-16.819	-16.332	-12.080	90.069	-12.902	-8191	255	
16209.837	1	1	0	0	0.22168	0.24163	0.22093	0.16624	0.21323	0.075127	0.21091	0.3729	0.12252	0.11053	0.038017	0.33748	0.13331	0.06261	0.18671	0.29729	-1.0708	-1.4229	-1.9062	-1.2417	-1.5667	-1.8	-1.4542	-2.1521	-1.2604	-1.3083	-2.0521	-1.3438	-1.5125	-2.0667	-1.0271	-1.8625	-22.977	2.475	256.376	273.945	225.293	140.531	243.366	308.501	32.902	-21.004	305.067	268.313	201.662	211.035	119.025	21.270	0.00048632	0.00039456	0.00013009	1292.1	8.7958e-06	5.9288e-06	1305.5	363.35	3.8538e-06	5.7201e-06	413.3	137	118.66	40.666	6.2724e-06	50.631	0.00035128	0.00033945	9.5536e-05	1308.2	3.7175e-06	3.6932e-06	1320.4	368.52	3.7182e-06	3.7174e-06	419.3	138.98	120.65	41.708	3.7146e-06	51.828	309.233	37.345	58.510	-25.578	110.081	136.845	-25.802	-21.106	194.239	112.018	-21.560	-16.919	-16.727	-11.998	148.873	-12.753	-8191	255	
16209.933	1	1	0	0	0.16701	0.092702	0.1155	0.26201	0.24677	0.07075	0.46277	0.27645	0.14955	0.11849	0.35357	0.12155	0.29002	0.089367	0.31205	0.061825	-1.1688	-0.99792	-1.8125	-1.425	-1.3937	-1.9667	-1.2896	-2.0958	-1.6063	-1.125	-2.1854	-1.5604	-1.4562	-2.2333	-1.0104	-1.8521	149.575	-25.353	46.368	167.824	103.034	11.267	262.580	218.788	124.774	161.438	254.317	55.215	299.322	24.015	-35.259	80.612	0.00065166	0.00054774	0.0001002	1291.9	3.1113e-06	5.6667e-06	1303	363.5	8.2016e-06	9.0346e-06	415.17	137.24	118.6	41.078	5.4625e-06	50.673	0.00035111	0.00033449	9.0595e-05	1309	3.688e-06	3.6537e-06	1319.6	368.39	3.6801e-06	3.6386e-06	420.01	139.02	120.47	41.788	3.6438e-06	51.837	303.308	67.701	16.231	-25.609	70.322	125.674	-25.593	-20.970	202.580	109.815	-21.399	-17.258	-16.308	-11.906	81.606	-12.799	-8191	255	
16210.054	1	1	0	0	0.089798	0.17584	0.14577	0.31412	0.081514	0.12793	0.32508	0.30946	0.08444	0.068786	0.084668	0.11167	0.062443	0.10851	0.095497	0.30946	-1.1938	-1.0292	-2.025	-1.5542	-1.3875	-2.0417	-1.2729	-1.8417	-1.7062	-1.1625	-2.1104	-1.6146	-1.4688	-2.1479	-1.1354	-1.7729	34.655	51.077	194.127	267.484	207.947	158.954	190.262	293.399	209.437	308.197	232.013	207.392	318.287	257.653	-36.233	256.721	0.00056438	0.00050448	0.0001943	1295.2	7.3396e-06	4.2321e-06	1303	362.39	1.9609e-06	5.8002e-06	416.22	136.73	118.79	40.881	5.5097e-06	50.812	0.00034028	0.00032954	8.9456e-05	1306.2	3.5563e-06	3.5328e-06	1318.7	367.89	3.5409e-06	3.5507e-06	420.27	138.99	120.71	41.733	3.521e-06	51.826	300.211	15.196	27.500	-25.591	64.742	91.724	-25.781	-20.827	173.769	120.440	-21.527	-16.626	-16.346	-11.853	109.916	-12.796	-8191	255	
16210.150	1	1	0	0	0.13936	0.078187	0.087931	0.21178	0.15225	0.059443	0.13121	0.31202	0.3723	0.053345	0.22946	0.33757	0.08765	0.36194	0.22744	0.056487	-1.5042	-1.0208	-1.9	-1.6104	-1.1604	-1.9771	-1.4062	-1.7271	-1.8583	-1.05	-2.0104	-1.775	-1.3	-2.0583	-1.0875	-1.5854	-29.611	-36.544	223.346	285.335	216.435	301.028	20.020	219.557	126.809	152.052	262.922	178.271	-18.755	-34.275	4.205	155.345	0.0006189	0.00039258	0.00015649	1292.6	4.8154e-06	5.8819e-06	1300.7	363.8	2.9092e-06	5.983e-06	413.07	136.44	118.66	40.762	4.4091e-06	51.087	0.00034196	0.00032118	8.9276e-05	1305.3	3.5877e-06	3.5057e-06	1315.1	367.99	3.5497e-06	3.4137e-06	418.86	138.98	120.38	41.603	3.4731e-06	51.85	297.874	47.921	35.846	-25.638	115.738	112.063	-25.664	-20.941	211.158	111.790	-21.472	-16.657	-16.130	-12.025	99.695	-12.814	-8191	255	
16210.246	1	1	0	0	0.15687	0.096021	0.25526	0.15738	0.32676	0.11376	0.32038	0.035934	0.068185	0.20525	0.1217	0.29086	0.15766	0.1038	0.046373	0.043626	-1.4583	-1.1042	-1.8188	-1.7146	-1.1854	-1.9542	-1.4792	-1.5417	-2.0729	-0.91875	-1.9937	-1.8917	-1.2646	-1.9125	-1.3937	-1.4583	93.107	119.484	232.757	109.311	255.430	19.734	275.910	168.601	314.515	44.159	184.644	-35.570	71.018	308.521	129.697	296.122	0.00066464	0.00018387	0.00010297	1292.9	4.3572e-06	2.1732e-06	1302.2	362.1	6.3823e-06	5.9295e-06	413.21	136.18	118.39	40.735	7.3819e-06	50.735	0.00033872	0.00032804	8.71e-05	1305.6	3.6163e-06	3.4506e-06	1314.2	366.91	3.4939e-06	3.483e-06	419.11	138.51	120.26	41.63	3.583e-06	51.811	308.855	25.596	28.371	-25.462	89.236	132.497	-25.559	-20.894	169.759	108.016	-21.523	-16.944	-16.417	-11.678	89.948	-12.783	-8191	255	
16210.342	1	1	0	0	0.36292	0.10464	0.22698	0.22133	0.14402	0.070026	0.18384	0.24211	0.22149	0.049876	0.28877	0.080865	0.020435	0.27118	0.25411	0.32665	-1.5625	-1.175	-1.6333	-1.7896	-1.1854	-1.9625	-1.4875	-1.3875	-2.0563	-1.1646	-1.6646	-1.8438	-1.0042	-1.9583	-1.3937	-1.2458	-10.731	281.467	244.176	281.751	277.672	258.621	242.955	222.900	298.862	205.001	142.498	-34.571	83.000	18.259	185.748	-28.725	0.00047121	0.00050293	0.00016957	1289.6	2.3838e-06	4.1732e-06	1302.1	362.52	7.7193e-06	3.4848e-06	413.21	136.8	118.62	40.729	5.7297e-06	50.488	0.00033524	0.00032552	8.7944e-05	1303.4	3.5514e-06	3.5538e-06	1314.6	367.46	3.5458e-06	3.4728e-06	418.79	138.8	120.26	41.625	3.4976e-06	51.703	302.697	7.436	75.486	-25.598	98.427	111.009	-25.767	-20.836	141.652	128.416	-21.037	-17.033	-16.036	-11.880	105.948	-12.852	-8191	255	
16210.438	1	1	0	0	0.095157	0.17888	0.017965	0.25843	0.12353	0.1549	0.10103	0.13219	0.14802	0.34787	0.41203	0.11275	0.29215	0.32271	0.029778	0.12387	-1.4813	-1.0688	-1.5458	-2.0979	-1.0604	-1.925	-1.7625	-1.4417	-1.8958	-1.2729	-1.7917	-2.0021	-1.1521	-1.8458	-1.6063	-1.2417	274.841	274.683	-7.993	300.285	120.478	190.604	240.338	279.929	3.521	244.556	293.496	282.395	-15.523	-22.608	164.620	-18.086	0.00058326	0.00047336	0.00012001	1285.6	6.7096e-06	3.9339e-06	1301.8	361.14	5.1837e-06	3.7425e-06	412.55	136.8	118.13	40.6	4.1395e-06	50.972	0.00033641	0.00032302	8.9591e-05	1302.7	3.5823e-06	3.4693e-06	1314.5	366.97	3.6232e-06	3.5148e-06	418.19	138.68	120.06	41.597	3.5758e-06	51.9	313.818	53.260	50.998	-25.461	111.772	93.944	-25.787	-20.888	197.726	110.423	-21.401	-17.153	-16.215	-12.008	94.105	-12.619	-8191	255	
16210.534	1	1	0	0	0.26065	0.05685	0.22828	0.38312	0.10351	0.15273	0.46496	0.30771	0.19038	0.19163	0.28679	0.31451	0.14233	0.20519	0.20992	0.02081	-1.5	-1.3271	-1.3792	-1.8813	-0.92917	-1.6792	-1.85	-1.4083	-1.8979	-1.3083	-1.4333	-2.0563	-1.4188	-1.7938	-1.7604	-1.3354	145.062	-12.230	206.066	273.317	172.905	68.535	260.353	289.665	-15.333	25.658	206.093	-37.944	282.130	16.595	200.027	204.199	0.00047321	0.00061406	0.00014953	1295.6	4.2075e-06	7.5946e-06	1300.2	360.63	5.1219e-06	6.994e-06	412.61	137.07	118.56	40.835	5.4698e-06	50.781	0.00033559	0.00032459	8.9632e-05	1306.6	3.6143e-06	3.4444e-06	1314.7	366.52	3.5712e-06	3.5074e-06	419.01	139.04	120.52	41.63	3.5897e-06	51.813	307.871	45.266	75.875	-25.610	122.704	76.781	-25.665	-20.876	200.873	104.883	-21.041	-16.695	-16.099	-11.847	150.033	-12.889	-8191	255	
16210.631	1	1	0	0	0.21479	0.18868	0.29281	0.20422	0.039288	0.29443	0.33696	0.28797	0.13776	0.20433	0.13015	0.26964	0.38658	0.11547	0.13777	0.36689	-1.3979	-1.2833	-1.2687	-2.025	-1.1792	-1.6708	-1.8896	-1.3271	-1.8104	-1.1958	-1.3583	-1.8625	-1.1667	-1.6354	-1.6167	-0.96875	250.273	317.942	58.213	288.965	316.863	151.278	272.515	303.605	186.513	312.060	116.571	-25.486	268.097	250.226	88.305	280.542	0.00064429	0.00062591	9.3885e-05	1290.9	8.804e-06	2.8302e-06	1299.1	362.21	3.1106e-06	7.8398e-06	415.26	136.56	118.37	40.724	7.8069e-06	50.522	0.00033653	0.00032095	8.8993e-05	1305.8	3.6451e-06	3.5143e-06	1314.6	367.73	3.4946e-06	3.483e-06	418.99	138.9	120.43	41.699	3.5193e-06	51.726	303.265	52.683	33.901	-25.545	110.533	143.180	-25.949	-20.701	158.513	117.144	-21.188	-16.772	-16.500	-11.849	125.434	-13.007	-8191	255	
16210.727	1	1	0	0	0.44797	0.32978	0.12762	0.17548	0.074463	0.05837	0.33607	0.31607	0.13543	0.24766	0.26314	0.18637	0.1297	0.24994	0.26605	0.39545	-1.4937	-1.6896	-1.2375	-2.0687	-1.4229	-1.4729	-2.0062	-1.2542	-1.7354	-1.5875	-1.3458	-1.9688	-1.5125	-1.5229	-1.7458	-1.2854	135.240	167.331	314.843	-38.244	233.366	318.009	217.298	-26.527	285.631	165.189	273.280	-2.722	216.722	312.001	20.221	213.021	0.00058011	0.00043376	0.00017012	1296.4	5.2022e-06	5.6265e-06	1300.5	361.12	6.6668e-06	3.9255e-06	412.76	136.93	118.08	40.82	7.9505e-06	50.712	0.00033623	0.00032337	8.848e-05	1307.6	3.5884e-06	3.5565e-06	1315.9	366.53	3.5161e-06	3.472e-06	418.08	138.97	120.27	41.613	3.4982e-06	51.843	296.397	52.458	54.530	-25.447	125.434	144.909	-25.598	-20.857	171.915	107.696	-21.345	-16.817	-16.436	-11.958	113.366	-12.477	-8191	255	
16210.846	1	1	0	0	0.26993	0.42162	0.055528	0.19877	0.13211	0.16904	0.1553	0.30516	0.17383	0.17869	0.16625	0.072053	0.066116	0.17089	0.30241	0.084717	-1.5562	-1.7479	-1.1583	-2.1125	-1.3333	-1.3521	-2.1625	-1.3396	-1.7479	-1.7354	-1.2583	-2.2708	-1.3875	-1.3937	-1.9667	-1.3312	205.371	108.283	261.780	283.089	264.042	203.256	230.128	-25.786	-22.540	116.271	33.234	112.806	125.617	179.519	289.641	57.263	0.00064386	0.00026643	0.00014531	1294.7	3.2655e-06	3.8014e-06	1304.1	360.9	5.9634e-06	7.6337e-06	413.78	136.57	118.79	40.797	4.2351e-06	50.703	0.00034185	0.00032143	8.963e-05	1307.8	3.6034e-06	3.5044e-06	1316.8	367.03	3.5353e-06	3.4899e-06	418.56	138.79	120.56	41.67	3.5665e-06	51.743	298.272	66.114	42.562	-25.585	103.670	132.755	-25.621	-20.787	233.204	109.989	-21.507	-16.894	-16.427	-11.810	149.868	-12.710	-8191	255	
16210.942	1	1	0	0	0.045755	0.30528	0.063701	0.15272	0.35714	0.13087	0.52396	0.25622	0.15232	0.13786	0.14691	0.20772	0.19578	0.2125	0.079783	0.24337	-1.4104	-1.6604	-1.1646	-2.4146	-1.5021	-1.4625	-2.3479	-1.2958	-1.625	-1.9875	-1.2292	-1.9125	-1.7958	-1.55	-2.225	-1.4354	100.623	191.754	183.301	303.166	200.375	21.261	277.624	248.277	154.434	256.114	198.187	283.431	173.580	276.075	40.075	238.185	0.00060617	0.00039029	8.1153e-05	1294.3	3.9549e-06	5.1654e-06	1303	360.72	4.2684e-06	9.213e-06	412.68	137.15	118.34	40.928	3.0875e-06	50.721	0.00033872	0.00032435	8.994e-05	1306.7	3.5372e-06	3.5117e-06	1316.8	366.71	3.6082e-06	3.5437e-06	418.81	139.03	120.44	41.694	3.536e-06	51.721	309.889	44.780	102.417	-25.303	77.529	115.129	-25.764	-20.934	186.895	116.282	-21.463	-16.723	-16.259	-11.751	89.890	-12.863	-8191	255	
16211.038	1	1	0	0	0.15874	0.0065981	0.1507	0.15304	0.21261	0.022745	0.16382	0.088659	0.097888	0.26812	0.14227	0.22116	0.20754	0.54686	0.073921	0.17848	-1.3333	-1.9937	-1.0812	-2.0479	-1.6646	-1.2833	-2.0708	-1.6458	-1.5083	-1.9792	-1.4021	-2.1083	-1.8625	-1.2958	-2.0312	-1.4333	244.743	231.589	156.025	269.955	211.744	170.876	201.376	-22.569	16.523	274.469	37.485	27.427	155.189	261.618	-6.065	103.168	0.00066889	0.00032937	0.00011845	1294.2	5.0625e-06	8.3887e-06	1305.5	361.93	5.4292e-06	5.9801e-06	413.54	137.18	118.86	40.834	3.4483e-06	50.673	0.00034029	0.00032522	8.9194e-05	1307.4	3.6107e-06	3.5288e-06	1316.9	366.94	3.5573e-06	3.5281e-06	418.48	138.99	120.42	41.666	3.4801e-06	51.8	301.321	51.365	93.380	-25.249	94.433	88.444	-25.598	-20.941	224.589	144.342	-21.373	-16.699	-16.553	-11.770	123.010	-12.893	-8191	255	
16211.134	1	1	0	0	0.15042	0.10167	0.054205	0.3548	0.23883	0.15704	0.15876	0.10009	0.26645	0.23981	0.093939	0.21763	0.25283	0.082486	0.185	0.16302	-1.0396	-1.8125	-1.0688	-2	-1.7271	-0.97917	-2.2188	-1.4896	-1.275	-2.0729	-1.5125	-1.8771	-1.75	-1.4583	-1.8479	-1.8875	197.326	189.857	273.652	295.332	3.896	39.916	268.711	-34.717	110.718	259.138	74.626	241.782	31.887	246.470	264.104	-16.905	0.00056138	0.00036352	3.1427e-05	1293.8	6.9907e-06	3.4899e-06	1306.2	361.33	4.9362e-06	4.9489e-06	414.98	137.3	118.84	40.814	2.2038e-06	50.707	0.00033751	0.00032057	8.7423e-05	1306.1	3.5769e-06	3.5429e-06	1316.9	367.01	3.5556e-06	3.475e-06	419.45	139.61	120.57	41.671	3.3989e-06	51.832	312.714	75.288	11.845	-25.265	93.292	64.708	-25.561	-20.782	177.201	116.260	-20.862	-16.706	-16.260	-12.015	135.675	-12.781	-8191	255	
16211.230	1	1	0	0	0.036165	0.11859	0.32893	0.16177	0.36107	0.16989	0.22652	0.22635	0.14839	0.19295	0.19365	0.18521	0.28927	0.13183	0.19051	0.22161	-1.1729	-1.8979	-1.2875	-1.9354	-1.7583	-1.0167	-2.1771	-1.8667	-1.1167	-2.0125	-1.3062	-1.6271	-1.9625	-1.2521	-1.8854	-1.7833	228.469	213.226	27.430	303.051	192.134	12.855	307.516	269.033	-9.730	190.642	262.996	234.895	218.637	295.507	-31.885	239.652	0.0007112	0.00036136	0.00020462	1291	8.6343e-06	2.2935e-06	1300.2	362.47	3.9755e-06	4.3941e-06	412.39	137.36	118.46	40.807	3.6329e-06	50.865	0.00033644	0.00031682	8.7449e-05	1306.6	3.5192e-06	3.5468e-06	1315.9	367.2	3.5162e-06	3.5435e-06	417.99	139.22	120.54	41.641	3.5495e-06	51.836	312.148	62.214	62.677	-25.359	111.633	101.929	-25.685	-20.753	191.909	173.739	-21.188	-16.574	-16.316	-11.725	157.547	-12.802	-8191	255	
16211.326	1	1	0	0	0.31368	0.10712	0.083145	0.2887	0.18344	0.23322	0.2259	0.54628	0.21695	0.05924	0.12657	0.11335	0.015003	0.041139	0.11691	0.33064	-0.88125	-1.9458	-1.1375	-1.4708	-1.8833	-1.1021	-1.9792	-1.7396	-1.0729	-2.0125	-1.6187	-1.5208	-2	-1.1042	-1.7625	-1.7542	308.148	246.615	249.675	302.939	163.754	70.338	186.380	269.030	286.507	306.938	291.285	53.527	1.544	174.390	285.538	261.851	0.00054471	0.00051116	0.00014082	1295.9	7.6801e-06	4.8288e-06	1303.7	360.86	6.6201e-06	6.9471e-06	414.96	136.71	118.26	40.732	5.4494e-06	50.799	0.00034009	0.00032006	9.0218e-05	1306.9	3.5329e-06	3.5483e-06	1316.9	366.7	3.6959e-06	3.5328e-06	419.05	138.77	120.29	41.611	3.6251e-06	51.861	317.011	30.655	55.674	-25.435	118.188	86.724	-25.527	-20.954	169.350	111.461	-21.383	-16.828	-16.333	-12.066	112.890	-12.822	-8191	255	
16211.447	1	1	0	0	0.29349	0.18704	0.12925	0.26216	0.28398	0.20598	0.36185	0.19805	0.39836	0.18219	0.23863	0.44595	0.24038	0.22718	0.20526	0.26711	-0.79792	-1.9	-1.3563	-1.6271	-2.0687	-1.0729	-1.8583	-1.8937	-1.0104	-1.9771	-1.5792	-1.5292	-2.1979	-1.325	-1.5729	-1.8271	99.584	-15.523	277.261	-28.045	316.181	120.584	222.337	267.214	304.592	263.387	260.229	304.805	320.810	9.309	43.027	-27.700	0.00049491	0.00043395	0.00013295	1288.3	4.2063e-06	5.2432e-06	1305.4	361.29	3.3197e-06	5.6042e-06	414.62	136.87	118.77	40.686	1.0884e-05	50.483	0.00034468	0.00033492	9.2905e-05	1304.3	3.6474e-06	3.6507e-06	1317.8	367.36	3.7605e-06	3.6853e-06	418.88	138.97	120.45	41.64	3.7893e-06	51.679	302.820	40.257	57.536	-25.464	121.423	128.655	-25.648	-20.943	184.327	110.836	-21.307	-16.659	-16.358	-11.722	143.620	-12.639	-8191	255	
16211.541	1	1	0	0	0.1396	0.1249	0.29736	0.25075	0.045859	0.034706	0.19674	0.12635	0.07237	0.33937	0.24445	0.11004	0.11082	0.23312	0.20843	0.24493	-0.75833	-1.9854	-1.4917	-1.3854	-2.1083	-1.2563	-1.9333	-2.0604	-1.0604	-1.9312	-1.8188	-1.5083	-2.2062	-1.3937	-1.2771	-1.9292	11.341	279.706	144.705	274.301	214.668	250.694	264.273	266.611	288.811	29.939	-4.656	-25.404	264.472	2.682	213.411	249.931	0.00073893	0.00070062	6.7161e-05	1294.9	3.8364e-06	8.4497e-06	1308.9	361.64	1.1561e-06	9.3081e-06	412.94	136.62	118.96	40.817	4.068e-06	50.838	0.00035964	0.00034046	9.5464e-05	1306.2	3.7808e-06	3.7283e-06	1320	367.09	3.7773e-06	3.7488e-06	418.93	139.03	120.44	41.626	3.7699e-06	51.736	300.171	42.425	59.644	-25.321	62.992	101.935	-25.614	-20.996	228.359	130.521	-21.117	-16.822	-16.151	-11.900	174.037	-12.617	-8191	255	
16211.638	1	1	0	0	0.19793	0.21823	0.13485	0.3052	0.016703	0.01155	0.31038	0.25336	0.015333	0.16481	0.3176	0.27627	0.19266	0.14341	0.29262	0.20733	-0.73958	-2.0083	-1.4562	-1.2104	-2.0146	-1.3833	-1.5417	-2.0979	-1.1229	-1.8188	-1.6375	-1.1646	-2.2271	-1.3375	-1.4188	-2.025	242.806	31.294	148.008	301.876	132.819	212.449	275.721	289.699	172.794	-14.541	261.179	-0.690	-25.889	248.365	242.641	183.975	0.00054611	0.00065152	7.3949e-05	1292	7.2105e-06	3.258e-06	1301.3	361.7	5.0011e-06	4.0884e-06	413.72	136.13	118.47	40.587	6.7112e-06	50.544	0.0003537	0.00033471	9.3862e-05	1304.9	3.5954e-06	3.6094e-06	1316.3	366.66	3.7859e-06	3.6346e-06	418.65	138.59	120.27	41.57	3.6803e-06	51.703	297.247	52.450	52.204	-25.503	129.083	104.591	-25.468	-20.767	174.073	131.136	-21.330	-16.643	-16.271	-11.897	139.940	-12.848	-8191	255	
16211.735	1	1	0	0	0.31317	0.25533	0.16913	0.37724	0.13945	0.26422	0.11311	0.13866	0.047215	0.13626	0.2607	0.15201	0.080812	0.22672	0.088542	0.25547	-0.75833	-1.5729	-1.6021	-1.2875	-1.875	-1.2792	-1.4104	-2.2125	-1.1708	-1.4542	-1.9417	-1.1396	-2.0729	-1.4854	-1.3458	-2.2125	87.717	152.872	80.525	308.813	12.453	186.899	267.794	312.408	23.086	222.898	259.133	-9.290	312.680	-12.701	145.113	244.082	0.00061287	0.00040398	0.00011944	1290.7	7.1533e-06	3.933e-06	1302.6	361.4	6.8723e-06	6.1494e-06	413.98	136.83	118.6	40.837	1.2745e-06	50.629	0.00034791	0.00033506	9.232e-05	1305	3.6716e-06	3.6577e-06	1316.5	366.81	3.7817e-06	3.6139e-06	418.92	139.16	120.31	41.614	3.8275e-06	51.72	307.492	15.849	51.776	-25.288	87.083	133.259	-25.641	-20.591	212.709	112.049	-21.315	-16.866	-16.103	-11.879	192.048	-12.700	-8191	255	
16211.830	1	1	0	0	0.15676	0.015123	0.069696	0.085151	0.024266	0.13733	0.25	0.60192	0.16424	0.12814	0.20656	0.3002	0.098157	0.14015	0.092339	0.01825	-0.94792	-1.6417	-1.8729	-1.3958	-1.8937	-1.4229	-1.3458	-2.1688	-1.1583	-1.4188	-2.0229	-1.3312	-1.8229	-1.8563	-1.0083	-2.2479	21.596	16.190	178.880	165.847	153.932	245.091	297.098	289.092	285.168	132.295	31.295	244.937	14.300	303.210	118.167	247.076	0.0006469	0.00055087	0.00013121	1294.6	6.5645e-06	6.3407e-06	1305.8	361.61	5.6858e-06	5.5873e-06	414.24	136.59	118.13	40.724	7.6351e-06	50.715	0.00035828	0.0003341	9.0984e-05	1307.6	3.7279e-06	3.6891e-06	1316.7	367.32	3.8351e-06	3.68e-06	418.62	139.15	120.22	41.582	3.7266e-06	51.787	313.866	26.958	96.265	-25.427	122.889	110.550	-25.366	-20.697	161.720	128.457	-21.324	-16.699	-16.501	-11.896	113.722	-12.822	-8191	255	
16211.926	1	1	0	0	0.055291	0.091486	0.29885	0.11137	0.17457	0.24463	0.33841	0.34014	0.189	0.026425	0.23587	0.20733	0.018138	0.15031	0.12206	0.14265	-0.78125	-1.2313	-1.9333	-1.1146	-1.7062	-1.8417	-1.2875	-2.1312	-1.2875	-1.4312	-2.0979	-1.3271	-1.9375	-1.8354	-1.0021	-1.8729	213.805	255.178	125.240	-11.063	236.777	63.920	240.700	262.037	44.609	178.899	44.358	-28.027	106.912	-21.867	-22.799	65.422	0.00057578	0.00047737	0.00016341	1291.8	7.356e-06	7.3543e-06	1302.2	360.99	5.5252e-06	6.773e-06	414.11	136.21	118.56	40.782	7.3733e-06	50.803	0.00035341	0.0003377	9.4109e-05	1306.6	3.7176e-06	3.7062e-06	1315.9	367.21	3.703e-06	3.716e-06	419.38	138.74	120.46	41.564	3.6757e-06	51.794	305.679	40.399	54.719	-25.410	106.868	106.473	-25.552	-20.682	167.504	115.513	-21.375	-16.521	-16.243	-11.892	94.584	-12.687	-8191	255	
16212.022	1	1	0	0	0.087202	0.39481	0.11742	0.14906	0.039906	0.075917	0.29057	0.065471	0.28965	0.27922	0.053471	0.43752	0.25791	0.11335	0.28932	0.26385	-0.96042	-1.35	-1.8646	-1.3125	-1.7313	-1.9896	-1.2604	-1.9542	-1.3958	-1.0938	-2.0125	-1.4396	-1.7354	-1.8604	-1.0333	-1.9521	173.948	284.453	160.696	-27.682	294.823	175.669	194.500	183.137	229.872	200.505	-19.235	-28.677	51.006	237.379	217.848	213.759	0.00065897	0.00027223	2.6571e-05	1292	4.4057e-06	3.9823e-06	1307.7	361.84	5.9079e-06	5.6905e-06	415.12	136.36	118.48	40.723	1.8204e-06	50.8	0.00035666	0.00033346	9.3259e-05	1306.5	3.6467e-06	3.5508e-06	1317.8	367.2	3.7038e-06	3.6059e-06	419.35	138.61	120.46	41.596	3.6769e-06	51.823	309.717	51.292	69.452	-25.476	86.884	128.519	-25.639	-20.899	193.199	64.735	-21.242	-16.875	-16.146	-11.980	90.044	-12.576	-8191	255	
16212.143	1	1	0	0	0.1323	0.014945	0.17804	0.21154	0.0068964	0.10409	0.26606	0.2513	0.17955	0.11437	0.1662	0.23574	0.15572	0.12469	0.20081	0.10428	-1.175	-1.1271	-1.9688	-1.4875	-1.4	-1.9958	-1.3167	-1.9604	-1.7021	-1.3917	-2.0208	-1.4854	-1.5875	-1.825	-1.1292	-1.8625	-7.419	-31.344	-26.476	-23.822	136.800	101.881	238.942	256.172	265.084	184.992	-23.200	288.021	289.486	234.299	252.226	253.884	0.00067427	0.00040386	8.0258e-05	1293.6	4.2318e-06	4.0162e-06	1303.8	363.26	4.2199e-06	4.5916e-06	413.38	136.3	118.61	40.886	6.1745e-06	50.821	0.00034661	0.00033033	9.287e-05	1305.7	3.7045e-06	3.477e-06	1317.5	367.64	3.6536e-06	3.6795e-06	418.66	138.86	120.51	41.637	3.6816e-06	51.808	298.704	45.209	78.821	-25.617	138.096	86.795	-25.473	-20.856	152.282	132.183	-21.097	-16.759	-15.883	-11.874	137.723	-12.302	-8191	255	
16212.239	1	1	0	0	0.085264	0.24974	0.41154	0.39782	0.36732	0.087551	0.38791	0.18511	0.12966	0.13961	0.24442	0.18962	0.12389	0.11523	0.066534	0.12456	-1.3417	-0.93542	-1.9688	-1.2687	-1.2896	-1.9375	-1.2104	-1.9229	-1.6437	-1.1292	-2.0062	-1.2812	-1.2625	-2.1625	-0.85208	-1.7146	-31.970	-24.684	-30.709	-38.239	72.040	268.978	270.773	277.013	142.470	21.892	-12.636	215.214	312.407	219.736	259.863	67.357	0.00057065	0.00052857	0.00011024	1289.2	6.5858e-06	4.3164e-06	1299.1	362.33	2.9473e-06	8.2895e-06	415.76	136.67	118.67	40.859	3.6508e-06	50.731	0.00034743	0.00032695	9.1362e-05	1305.5	3.6564e-06	3.5974e-06	1315.6	367.19	3.5617e-06	3.6221e-06	419.46	138.97	120.32	41.715	3.577e-06	51.744	303.351	77.272	56.970	-25.530	73.723	78.955	-25.556	-20.764	230.555	117.619	-21.253	-16.669	-16.335	-11.781	102.258	-12.575	-8191	255	
16212.311	1	1	0	0	0.21069	0.068634	0.14472	0.45132	0.38081	0.089695	0.29605	0.26464	0.29845	0.10435	0.19956	0.40659	0.19366	0.18135	0.16906	0.42634	-1.2875	-1.1	-1.7062	-1.65	-1.2854	-2.0563	-1.3521	-1.9312	-1.9208	-1.0729	-2.0354	-1.7313	-1.2417	-2.0583	-1.2812	-1.8208	-14.095	276.465	166.296	274.671	167.611	50.268	258.284	271.173	246.618	157.603	316.481	298.409	265.157	-29.404	288.850	225.493	0.00068803	0.00054685	0.0001427	1290.4	4.7884e-06	4.7526e-06	1302.4	362.38	5.7833e-06	6.576e-06	414.59	136.48	117.86	40.966	5.3035e-06	50.908	0.00034671	0.00032392	8.9722e-05	1306	3.5649e-06	3.5246e-06	1316.9	366.85	3.5689e-06	3.4937e-06	419.37	138.88	120.32	41.685	3.5659e-06	51.856	306.828	67.867	73.544	-25.175	149.123	109.378	-25.582	-20.562	180.574	144.535	-21.466	-16.555	-16.217	-11.792	136.439	-12.567	-8191	255	
16212.407	1	1	0	0	0.21213	0.018094	0.18501	0.52837	0.19991	0.19269	0.30617	0.26114	0.18048	0.098209	0.14581	0.055762	0.17542	0.33638	0.21757	0.16022	-1.4083	-1.1104	-1.8271	-1.7354	-1.2792	-2	-1.4958	-1.6688	-2	-1.0854	-1.9688	-1.8542	-1.1417	-1.9625	-1.5208	-1.5292	34.131	298.836	-36.147	313.616	290.866	309.803	277.207	290.224	210.467	6.474	285.096	270.811	-8.065	292.321	199.608	277.314	0.00061051	0.00046866	8.0148e-05	1289.9	3.2178e-06	8.9384e-06	1305	363.19	4.1968e-06	8.2155e-06	414.21	137.61	118.65	40.893	5.7514e-06	50.902	0.00033763	0.00032496	8.767e-05	1305.9	3.6273e-06	3.539e-06	1318.3	368.08	3.5624e-06	3.5988e-06	419.21	139.37	120.55	41.718	3.5545e-06	51.883	317.508	53.654	83.854	-25.480	141.766	118.193	-25.718	-20.662	144.628	123.179	-21.201	-16.906	-16.209	-11.913	149.902	-12.510	-8191	255	
16212.527	1	1	0	0	0.20428	0.34123	0.17436	0.30923	0.1047	0.26343	0.32877	0.1811	0.095192	0.23159	0.19521	0.078448	0.22151	0.20972	0.26378	0.17642	-1.4688	-1.1458	-1.7583	-1.8062	-0.90833	-2.0729	-1.4354	-1.4979	-1.8208	-1.0979	-1.6187	-1.9708	-1.1979	-2.0375	-1.6437	-1.1688	138.592	217.810	-17.544	280.005	39.317	-30.627	222.533	185.947	262.019	305.454	-37.906	262.820	231.683	298.892	188.659	244.397	0.00072307	0.00052187	9.8151e-05	1294.3	4.8127e-06	8.4775e-06	1302.9	363.6	5.7317e-06	4.9439e-06	413.72	137.09	118.07	40.958	6.7333e-06	51.14	0.0003468	0.00032382	9.1408e-05	1307.5	3.6389e-06	3.619e-06	1319.2	367.92	3.6205e-06	3.6241e-06	419.19	139.05	120.24	41.788	3.5812e-06	51.857	309.924	36.244	51.175	-25.603	113.370	92.770	-25.706	-20.909	216.167	131.193	-21.329	-16.956	-16.278	-11.875	122.152	-12.794	-8191	255	
16212.622	1	1	0	0	0.19199	0.12216	0.14795	0.15113	0.19189	0.24531	0.038665	0.19557	0.16768	0.065812	0.070159	0.21898	0.24406	0.30425	0.10295	0.12758	-1.6979	-1.2042	-1.2042	-2.0375	-0.97292	-2.0438	-1.8333	-1.2667	-1.9208	-1.2104	-1.6854	-1.7104	-1.2729	-1.8438	-1.7146	-1.3354	284.778	179.684	142.105	39.270	290.306	103.886	275.521	278.659	232.564	136.516	245.092	304.417	221.199	277.578	120.310	-37.232	0.00066035	0.00035137	6.5764e-05	1288.2	5.3044e-06	6.422e-06	1301.1	362.98	4.3706e-06	5.0584e-06	414.42	136.52	118.5	40.777	6.818e-06	50.78	0.00034628	0.00033141	9.1794e-05	1305.6	3.7153e-06	3.6123e-06	1317.8	368.05	3.6791e-06	3.6256e-06	419.31	139.05	120.63	41.699	3.561e-06	51.902	310.197	30.657	56.204	-25.639	98.279	91.708	-25.676	-20.876	149.076	117.361	-21.345	-16.716	-16.193	-11.698	123.993	-12.537	-8191	255	
16212.720	1	1	0	0	0.11314	0.30082	0.11773	0.046983	0.17617	0.099996	0.095603	0.33921	0.05703	0.051244	0.19472	0.15625	0.25778	0.38641	0.20225	0.11495	-1.5063	-1.2833	-1.4979	-2.0687	-1.0979	-1.8687	-1.9312	-1.4042	-1.975	-1.35	-1.7021	-2.1292	-1.0771	-1.8208	-1.9208	-1.2479	283.081	1.701	140.204	39.270	89.913	9.193	36.397	260.199	270.814	77.519	76.933	170.095	317.283	-27.365	170.099	60.537	0.00058717	0.00074832	0.00010384	1291	5.9325e-06	6.1719e-06	1305.2	360.99	8.4641e-06	7.2934e-06	416.01	136.17	118.14	40.85	7.7386e-06	50.961	0.00034629	0.00033422	9.0479e-05	1306.9	3.6509e-06	3.5745e-06	1316.6	366.99	3.6501e-06	3.5358e-06	420.57	139.06	120.31	41.733	3.5321e-06	51.893	299.276	49.418	76.798	-25.622	140.690	128.667	-25.674	-20.803	219.240	76.672	-21.295	-16.954	-16.178	-11.751	126.658	-12.179	-8191	255	
16212.839	1	1	0	0	0.22364	0.1899	0.10051	0.35142	0.10123	0.10087	0.46897	0.44957	0.17519	0.24063	0.18737	0.07859	0.38953	0.27212	0.1335	0.063382	-1.4917	-1.4167	-1.5063	-2.2417	-1.1979	-1.6771	-1.8958	-1.3729	-1.9979	-1.4438	-1.4958	-1.8646	-1.1479	-1.8604	-1.8083	-1.1812	129.965	189.545	11.594	288.493	207.967	127.083	299.891	-31.651	32.401	87.314	165.622	4.764	273.509	296.578	229.130	42.023	0.00061826	0.00035529	0.00019048	1298.1	7.3839e-06	4.6688e-06	1308.5	361.41	4.7497e-06	3.2833e-06	414.13	136.88	118.44	40.812	3.9848e-06	50.908	0.00034143	0.00032474	9.0318e-05	1308.1	3.6542e-06	3.4805e-06	1319.9	367.5	3.5764e-06	3.5501e-06	419.94	139.28	120.56	41.72	3.5085e-06	51.94	310.865	33.226	21.741	-25.344	118.142	112.797	-25.674	-20.676	224.651	150.792	-21.225	-16.879	-16.307	-11.928	152.655	-12.850	-8191	255	
16212.935	1	1	0	0	0.13718	0.20928	0.030297	0.18366	0.156	0.30774	0.11133	0.30721	0.18367	0.14955	0.083079	0.44163	0.11533	0.16682	0.32423	0.32219	-1.6042	-1.4792	-1.025	-2.1875	-1.2062	-1.6271	-2.1292	-1.2771	-1.9438	-1.5708	-1.4521	-2.0125	-1.4417	-1.5229	-1.8854	-1.2313	-11.909	23.400	111.227	-7.488	68.620	82.936	253.257	252.031	93.807	129.381	79.726	301.682	217.476	219.567	289.837	298.469	0.00063735	0.00033892	0.00013859	1294.6	4.0428e-06	6.7768e-06	1307.6	362.04	9.3431e-07	4.0564e-06	414.48	137.24	118.9	40.762	3.9598e-06	50.539	0.0003459	0.00031952	8.9757e-05	1309.5	3.6202e-06	3.4942e-06	1319	367.3	3.4932e-06	3.5737e-06	419.27	139.34	120.55	41.699	3.5402e-06	51.834	299.305	49.236	28.876	-25.375	135.674	145.512	-25.471	-20.650	153.065	114.558	-21.088	-16.645	-16.331	-11.550	123.996	-12.846	-8191	255	
16213.006	1	1	0	0	0.13634	0.20327	0.4415	0.23177	0.10499	0.082224	0.50245	0.24029	0.060775	0.10533	0.20331	0.39159	0.12703	0.30126	0.046111	0.38721	-1.4646	-1.6167	-1.2542	-2.3187	-1.4625	-1.575	-2.0771	-1.3521	-1.7	-1.7521	-1.2833	-1.9458	-1.4979	-1.3292	-1.825	-1.2	18.401	-11.210	97.231	280.117	128.450	197.144	270.335	320.997	-35.725	264.580	43.608	268.039	299.425	309.201	189.573	225.805	0.00059664	0.00051178	0.00014096	1287.2	4.6033e-06	5.796e-06	1306.6	361.78	7.1531e-06	4.6923e-06	414.68	136.97	118.46	40.787	4.5317e-06	50.692	0.00033666	0.00031989	9.0355e-05	1306.1	3.5868e-06	3.4671e-06	1318.5	367.45	3.5762e-06	3.4558e-06	419.45	139.32	120.45	41.685	3.5456e-06	51.914	291.530	48.415	64.904	-25.363	181.069	125.807	-25.610	-20.760	182.353	96.056	-21.197	-16.784	-16.082	-11.458	125.095	-12.803	-8191	255	
16213.127	1	1	0	0	0.22705	0.10685	0.301	0.34001	0.10935	0.18493	0.24616	0.17747	0.16923	0.067645	0.13343	0.30283	0.40494	0.24581	0.20484	0.31522	-1.4083	-1.8146	-1.2625	-2.1333	-1.3771	-1.2125	-2.0792	-1.1896	-1.7354	-1.7979	-1.2604	-2.0021	-1.4937	-1.2917	-2.0021	-1.2833	204.647	290.618	50.024	246.221	-26.174	261.905	288.879	11.725	271.833	31.433	229.447	296.345	288.142	270.540	236.734	309.980	0.0005659	0.00032816	0.00019332	1297.1	4.9265e-06	4.9848e-06	1310.1	363.97	5.3436e-06	3.484e-06	417.08	137.61	119.28	40.801	5.2388e-06	50.66	0.00034025	0.00032663	9.2842e-05	1310.4	3.6034e-06	3.58e-06	1321.5	368.02	3.5719e-06	3.5723e-06	420.18	139.49	120.8	41.692	3.5625e-06	51.894	303.372	27.172	66.793	-25.482	114.689	108.509	-25.555	-20.719	160.882	135.636	-21.336	-16.818	-16.252	-11.948	83.521	-12.957	-8191	255	
16213.223	1	1	0	0	0.32198	0.23668	0.31734	0.37017	0.089598	0.35905	0.19184	0.48916	0.17696	0.259	0.21404	0.066972	0.21944	0.26376	0.18967	0.21265	-0.99583	-1.7521	-1.1083	-2.0917	-1.5458	-1.0229	-2.1188	-1.3958	-1.5688	-1.9917	-1.1	-1.7458	-1.7229	-1.225	-1.7646	-1.4312	138.430	78.973	295.664	296.947	124.012	174.290	221.119	230.524	222.064	16.621	203.367	234.605	275.884	289.095	292.356	25.589	0.00059648	0.00047974	0.00010485	1298.8	7.1055e-06	3.4096e-06	1307.1	360.55	5.0713e-06	6.7729e-06	414.23	137.45	118.36	40.987	9.4289e-06	50.68	0.00034144	0.00032144	9.0106e-05	1311	3.6299e-06	3.5191e-06	1321	367.03	3.545e-06	3.4858e-06	419.61	139.43	120.42	41.772	3.5447e-06	51.821	288.765	31.962	80.153	-25.336	98.246	125.199	-25.700	-20.935	250.119	152.367	-21.329	-16.733	-16.061	-11.701	130.607	-12.629	-8191	255	
16213.319	1	1	0	0	0.2503	0.21434	0.092842	0.31644	0.26934	0.36161	0.14172	0.41636	0.15895	0.26515	0.17409	0.1236	0.12863	0.30388	0.37806	0.28278	-0.94375	-2.0396	-1.2542	-1.8771	-1.6479	-1.1354	-2.1562	-1.5521	-1.2188	-1.8417	-1.2188	-1.7521	-1.7729	-1.3646	-1.7083	-1.5167	312.646	119.957	-29.625	255.300	11.347	23.199	242.030	259.436	212.466	1.591	275.820	37.665	217.854	267.471	100.661	285.196	0.0006512	0.00055858	0.0001008	1296.2	3.0971e-06	8.1316e-06	1307.5	362.75	4.4957e-06	7.7112e-06	415.46	137.49	118.7	40.842	7.6038e-06	50.845	0.00033407	0.00032126	9.153e-05	1309.8	3.5818e-06	3.4995e-06	1320.4	367.78	3.5666e-06	3.5142e-06	419.88	139.41	120.82	41.718	3.4872e-06	51.843	297.707	37.215	48.772	-25.386	98.194	104.650	-25.411	-20.770	187.424	141.381	-21.056	-16.714	-16.426	-11.636	109.353	-12.539	-8191	255	
16213.440	1	1	0	0	0.15773	0.20959	0.24477	0.20065	0.31923	0.18178	0.30271	0.12562	0.13795	0.14961	0.13854	0.24872	0.14604	0.31215	0.072889	0.21867	-0.88125	-2.075	-1.0604	-1.8937	-1.7896	-1.1812	-2.0438	-1.7125	-1.3042	-2.1417	-1.3125	-1.6583	-2	-1.3333	-1.9937	-1.5271	221.434	56.116	73.872	294.117	161.824	313.436	279.954	276.113	265.184	273.634	-18.632	257.226	295.705	206.326	214.672	63.669	0.00067813	0.00044034	0.00015542	1296.2	4.6929e-06	5.9262e-06	1302.4	360.97	4.3258e-06	7.1661e-06	416	137.14	119.18	41.072	5.3327e-06	50.988	0.00033939	0.00032694	9.1418e-05	1309.4	3.5707e-06	3.5616e-06	1319.7	367.41	3.5845e-06	3.6266e-06	420.14	139.59	120.68	41.767	3.6201e-06	51.994	295.266	46.039	38.757	-25.308	70.045	148.268	-25.563	-20.799	261.341	135.618	-21.119	-16.708	-16.358	-11.816	157.932	-12.632	-8191	255	
16213.536	1	1	0	0	0.18713	0.14685	0.15569	0.18126	0.2429	0.22742	0.22896	0.24231	0.097146	0.057982	0.22137	0.31346	0.24633	0.20956	0.24922	0.37124	-0.74792	-2.0167	-1.0292	-1.4958	-1.9229	-1.0667	-2.1917	-1.7771	-1.1375	-1.9917	-1.5167	-1.4875	-2.1042	-1.3375	-1.7625	-1.9312	125.970	278.806	115.179	210.560	148.032	315.318	309.694	249.164	34.739	92.774	-26.153	141.633	1.538	192.588	197.857	281.163	0.0004894	0.00030139	9.4866e-05	1298	6.3648e-06	3.195e-06	1307.3	361.8	3.5865e-06	4.6155e-06	416.18	136.73	119.03	40.78	4.1784e-06	50.976	0.00034567	0.00033071	9.1892e-05	1311.3	3.5915e-06	3.6346e-06	1321.8	367.39	3.6514e-06	3.5359e-06	420.53	139.28	120.7	41.66	3.6145e-06	51.887	310.006	65.580	52.266	-25.109	94.089	131.303	-25.427	-20.687	129.396	82.079	-21.382	-16.518	-15.826	-11.949	132.447	-12.640	-8191	255	
16213.608	1	1	0	0	0.24375	0.23729	0.068164	0.15435	0.28609	0.12643	0.080881	0.26806	0.27577	0.16721	0.281	0.39504	0.091129	0.2974	0.097355	0.14757	-0.79375	-2.1063	-1.5146	-1.6042	-1.9396	-1.2208	-1.8292	-1.75	-1.1958	-1.8396	-1.7125	-1.4083	-2.1104	-1.2563	-1.4833	-1.9667	161.595	272.380	-23.584	298.807	64.362	220.563	274.189	268.413	27.068	296.949	178.990	277.406	226.196	242.006	148.221	241.389	0.00060825	0.00046999	5.1161e-05	1295	4.7401e-06	3.147e-06	1304.1	363.05	1.694e-06	5.2885e-06	415.68	137.01	118.77	40.661	6.4625e-06	50.938	0.00034501	0.00032616	9.0871e-05	1309	3.6052e-06	3.5949e-06	1319.1	367.92	3.6464e-06	3.5098e-06	419.58	139.27	120.66	41.618	3.5051e-06	51.872	298.435	76.865	30.963	-25.298	80.193	96.432	-25.305	-20.730	175.009	102.595	-21.354	-16.480	-15.930	-11.626	122.674	-12.626	-8191	255	
16213.704	1	1	0	0	0.18085	0.19156	0.043896	0.077669	0.11411	0.2289	0.39299	0.10617	0.22083	0.19073	0.040682	0.24407	0.20294	0.20467	0.069762	0.18979	-0.4625	-1.7437	-1.575	-1.1917	-1.7229	-1.2417	-1.8625	-1.9979	-1.0271	-1.8312	-1.4417	-1.225	-1.9583	-1.2146	-1.4667	-1.9	169.327	255.587	157.174	40.619	-33.816	-1.231	262.891	-21.960	64.734	266.947	131.610	-21.099	11.779	-7.565	184.150	235.806	0.00054015	0.00017692	0.00010026	1291.4	3.526e-06	5.0428e-06	1306	361.84	4.8438e-06	5.2965e-06	414.17	136.76	118.32	40.846	6.8533e-06	50.503	0.00034111	0.00032197	8.9903e-05	1309.3	3.5582e-06	3.5605e-06	1319.6	367.49	3.6134e-06	3.5e-06	419.99	139.08	120.51	41.675	3.5367e-06	51.804	301.806	91.836	64.644	-25.494	113.059	129.544	-25.522	-20.941	187.287	111.408	-21.372	-16.748	-16.217	-11.957	100.871	-12.579	-8191	255	
16213.823	1	1	0	0	0.1012	0.19294	0.19614	0.32018	0.16239	0.14445	0.43529	0.11913	0.19915	0.12857	0.12324	0.36374	0.2325	0.17375	0.20324	0.11543	-0.61458	-1.7437	-1.5042	-1.3396	-1.9167	-1.1958	-1.6292	-2.0604	-1.0792	-1.6646	-1.7104	-1.2646	-1.9	-1.5312	-1.4333	-2.0521	61.829	77.424	105.413	259.045	311.051	24.603	268.044	315.484	226.338	217.279	130.393	-37.549	244.342	130.680	18.016	23.381	0.00064036	0.00049898	0.00018945	1292.3	5.5302e-06	6.4423e-06	1304.8	361.41	5.049e-06	1.0575e-05	413.38	136.79	118.5	40.877	3.3198e-06	50.731	0.0003431	0.00032699	8.9595e-05	1309.1	3.6468e-06	3.6207e-06	1317.8	366.91	3.6798e-06	3.6123e-06	418.43	139	120.55	41.732	3.5088e-06	51.812	302.259	92.350	43.159	-25.226	106.731	133.789	-25.416	-20.822	205.886	107.663	-21.455	-16.382	-16.234	-11.801	112.358	-12.709	-8191	255	
16213.919	1	1	0	0	0.12985	0.069256	0.18206	0.16747	0.23152	0.09445	0.086556	0.23759	0.12709	0.30172	0.12953	0.23421	0.12888	0.13076	0.013208	0.17859	-0.67917	-1.6604	-1.7896	-1.3333	-1.7875	-1.7271	-1.5417	-2.15	-1.2083	-1.5312	-1.9146	-1.1833	-2.0771	-1.6063	-1.3479	-2.1354	193.772	234.795	-33.760	274.241	177.730	287.570	301.835	239.403	234.567	134.006	225.979	-12.475	240.418	253.811	292.740	282.278	0.00049709	0.00022729	0.00015427	1295	7.7512e-06	7.1167e-06	1308.7	362.58	3.1566e-06	5.0564e-06	414.92	137.11	118.56	40.72	5.1202e-06	50.85	0.00034478	0.00032253	8.8552e-05	1309.3	3.545e-06	3.505e-06	1319.8	367.38	3.5849e-06	3.4615e-06	419.53	139.29	120.6	41.611	3.451e-06	51.794	309.710	89.938	20.822	-25.198	102.353	80.561	-25.337	-20.777	164.826	128.979	-21.258	-16.538	-16.350	-11.893	148.082	-12.637	-8191	255	
16214.015	1	1	0	0	0.14996	0.10434	0.23952	0.33254	0.14918	0.057857	0.27836	0.15963	0.27607	0.15783	0.068309	0.25516	0.03128	0.10248	0.1919	0.16816	-0.825	-1.5708	-1.8479	-1.1354	-1.6437	-1.6812	-1.4625	-2.3979	-1.3208	-1.6812	-1.8312	-1.2792	-1.8792	-1.5646	-0.94583	-2.0792	147.115	307.739	302.061	305.699	35.242	9.436	307.784	249.385	47.533	-12.302	298.468	-31.590	147.757	174.531	76.742	256.288	0.00053194	0.00054275	4.5797e-05	1292.5	4.14e-06	4.5262e-06	1301.1	362.51	3.8958e-06	4.5836e-06	415.83	137.12	118.71	40.692	6.3006e-06	50.693	0.00033794	0.00031567	8.7792e-05	1306.4	3.564e-06	3.478e-06	1318.7	367.66	3.6067e-06	3.4877e-06	419.56	139.42	120.7	41.628	3.4971e-06	51.893	295.479	71.936	34.836	-25.387	124.549	118.497	-25.431	-20.778	190.554	81.852	-21.346	-16.655	-15.846	-11.832	151.121	-12.554	-8191	255	
16214.111	1	1	0	0	0.045724	0.32163	0.10005	0.38196	0.079094	0.20888	0.20806	0.23912	0.1524	0.23716	0.08706	0.040207	0.13956	0.16202	0.17207	0.17017	-0.93125	-1.4479	-1.9813	-1.3875	-1.7563	-1.4479	-1.2292	-2.0375	-1.2583	-1.1479	-2.0708	-1.2479	-1.8479	-1.825	-1.1271	-2.0333	101.550	273.381	81.344	259.903	254.435	-36.666	256.423	259.467	229.527	196.257	77.231	81.338	25.473	16.998	67.496	299.224	0.00053008	0.00035779	0.00012582	1293.2	9.4168e-06	5.9861e-06	1305.5	361.2	5.5658e-06	4.9939e-06	414.7	137.16	119.54	40.852	7.1598e-06	51.004	0.00033604	0.00032341	8.8137e-05	1307.7	3.5038e-06	3.4623e-06	1320.3	367.29	3.498e-06	3.4945e-06	419.69	139.37	120.87	41.762	3.4962e-06	51.871	298.438	40.451	41.700	-25.082	100.425	65.161	-25.338	-20.530	181.378	125.998	-21.247	-16.766	-16.064	-11.612	145.953	-12.741	-8191	255	
16214.207	1	1	0	0	0.14811	0.33362	0.13061	0.28192	0.067677	0.22593	0.16551	0.11916	0.19406	0.30098	0.10386	0.13813	0.26825	0.085615	0.051684	0.086427	-0.82917	-1.1625	-1.8229	-1.3771	-1.5917	-1.6875	-1.3146	-2.1083	-1.3542	-1.1604	-2.0354	-1.3083	-1.7188	-1.9875	-1.1417	-1.8646	-36.418	-30.055	316.795	199.967	99.755	109.912	272.402	202.744	128.653	301.293	254.620	-17.529	-15.461	216.560	15.330	270.261	0.00065915	9.7898e-05	0.00014013	1298.2	6.6875e-06	7.0742e-06	1309.1	362.83	4.1611e-06	7.1386e-06	414.35	137.62	118.76	40.898	7.6297e-06	51.132	0.00033296	0.0003156	8.8062e-05	1309.2	3.4299e-06	3.487e-06	1321.3	367.99	3.4983e-06	3.4171e-06	419.63	139.48	120.66	41.729	3.4628e-06	52.004	320.498	52.763	41.371	-25.223	121.888	110.514	-25.394	-20.628	173.575	121.585	-21.311	-16.663	-16.044	-11.803	150.409	-12.734	-8191	255	
16214.304	1	1	0	0	0.1733	0.10113	0.33493	0.23169	0.24149	0.18064	0.20704	0.28021	0.15694	0.16583	0.13642	0.13143	0.19616	0.17391	0.19776	0.14393	-1.1396	-1.0833	-1.9083	-1.2437	-1.5688	-1.8104	-1.225	-2.0896	-1.7104	-1.2667	-2.0458	-1.4062	-1.4708	-2.0979	-1.0646	-1.8083	266.132	147.332	66.600	-19.600	190.059	-31.137	249.103	253.096	289.020	302.447	-28.571	283.315	260.794	305.142	257.155	279.762	0.00036504	0.00055794	7.3803e-05	1299.6	6.0722e-06	6.2682e-06	1309.4	363.25	4.1321e-06	5.4884e-06	415.73	136.98	118.8	40.865	3.4227e-06	51.115	0.00032976	0.00031733	8.7265e-05	1309.7	3.5185e-06	3.4791e-06	1319	368.29	3.5019e-06	3.4272e-06	419.39	139.17	120.89	41.72	3.4606e-06	52.003	292.284	63.310	78.155	-25.366	128.639	82.665	-25.563	-20.468	174.203	134.283	-21.496	-16.910	-15.906	-11.989	150.046	-12.568	-8191	255	
16214.400	1	1	0	0	0.066142	0.18723	0.12941	0.18829	0.25334	0.065352	0.35211	0.095143	0.38293	0.21716	0.35635	0.1365	0.42789	0.25316	0.24794	0.2838	-1.3271	-1.0604	-1.8083	-1.575	-1.4083	-2.1312	-1.3292	-2.0104	-1.5771	-1.0083	-1.9604	-1.5042	-1.2771	-1.9542	-1.0208	-1.8604	119.720	189.956	17.997	240.779	230.237	137.075	267.160	-14.859	9.019	221.070	69.884	186.193	284.768	158.380	-31.228	27.523	0.0007801	0.00034463	0.00012118	1294.9	5.402e-06	5.5966e-06	1308.7	363.48	4.0455e-06	2.48e-06	414.2	137.22	118.78	40.889	3.8082e-06	50.694	0.00032999	0.00031574	8.7425e-05	1308.9	3.4431e-06	3.4376e-06	1318.2	368.11	3.5248e-06	3.4143e-06	420.36	139.16	120.79	41.729	3.4627e-06	51.876	307.727	111.897	86.838	-25.291	135.765	113.067	-25.492	-20.682	222.582	84.055	-21.273	-16.614	-16.393	-11.502	121.922	-12.568	-8191	255	
16214.520	1	1	0	0	0.16441	0.13905	0.097931	0.29486	0.16701	0.14484	0.42365	0.28649	0.13866	0.16226	0.1515	0.38696	0.27473	0.27402	0.1162	0.13434	-1.3	-1.1125	-1.8042	-1.575	-1.2687	-2.0542	-1.3583	-1.8563	-1.7687	-1.1104	-1.9312	-1.6479	-1.1667	-2.1021	-1.0708	-1.5708	222.677	10.389	236.294	-37.645	-6.046	89.357	257.898	-36.878	247.648	287.321	246.683	319.709	-23.598	-13.781	195.808	250.166	0.00066097	0.00052162	0.00011838	1297.1	6.169e-06	6.7123e-06	1311.6	361.25	8.8233e-06	5.16e-06	415.77	137.63	118.81	40.963	4.0817e-06	50.743	0.00033177	0.00031425	8.8134e-05	1309.3	3.4572e-06	3.3919e-06	1321.3	367.38	3.455e-06	3.3875e-06	420.38	139.43	120.67	41.717	3.4629e-06	51.999	312.160	46.549	37.919	-25.403	144.332	90.439	-25.572	-20.701	200.344	106.233	-21.618	-16.594	-15.982	-11.914	153.415	-12.699	-8191	255	
16214.615	1	1	0	0	0.34647	0.20131	0.092175	0.23297	0.23764	0.15841	0.32434	0.24528	0.31318	0.33092	0.23639	0.21721	0.369	0.15314	0.209	0.31142	-1.4875	-1.0708	-1.975	-1.85	-1.2563	-2.0354	-1.4854	-1.65	-1.9479	-1.1583	-1.7313	-1.7	-1.3208	-1.9417	-1.2521	-1.4208	53.153	19.831	311.295	317.510	-12.615	247.747	283.387	287.533	-1.921	315.791	207.358	278.735	266.492	270.795	146.164	202.573	0.0005968	0.00067056	9.8381e-05	1294.4	3.2664e-06	6.643e-06	1305.3	362.18	7.5589e-06	5.7459e-06	416.31	137.12	118.93	40.919	4.1207e-06	51.05	0.00032859	0.00031137	8.6462e-05	1308.6	3.433e-06	3.3193e-06	1318.9	367.67	3.4474e-06	3.3779e-06	420.32	139.51	120.98	41.771	3.3682e-06	51.995	307.071	73.189	61.504	-25.502	111.710	140.377	-25.675	-20.648	200.334	110.473	-21.270	-17.026	-16.144	-11.787	99.662	-12.304	-8191	255	
16214.711	1	1	0	0	0.088237	0.25427	0.20517	0.26857	0.1753	0.072822	0.3848	0.19269	0.14446	0.18507	0.29547	0.25956	0.12311	0.32648	0.13956	0.13831	-1.6396	-0.94167	-1.6271	-1.8958	-1.0375	-1.9125	-1.6167	-1.4375	-2.2562	-0.97083	-1.5146	-1.8229	-1.4	-1.9604	-1.5167	-1.4	251.606	35.904	233.677	291.583	-3.097	111.443	219.367	227.503	132.215	-11.179	306.488	-36.623	-14.444	266.283	272.992	24.317	0.00061277	0.00047736	8.1078e-05	1289.9	6.0632e-06	9.7063e-06	1310.7	362.71	6.3109e-06	3.4964e-06	414.04	136.62	119.1	40.969	4.9326e-06	51.017	0.0003214	0.00031188	8.6335e-05	1309.9	3.4851e-06	3.3631e-06	1320.3	368.44	3.409e-06	3.4063e-06	419.92	139.5	121.03	41.831	3.4375e-06	52.019	310.026	26.594	65.434	-25.560	123.936	123.663	-25.641	-20.521	171.625	119.324	-21.117	-16.586	-15.968	-11.617	136.023	-12.916	-8191	255	
16214.807	1	1	0	0	0.0053939	0.37534	0.12424	0.059371	0.13381	0.11693	0.37771	0.3933	0.26109	0.1574	0.19612	0.17924	0.056818	0.29634	0.1043	0.20902	-1.6917	-1.1313	-1.4833	-2.1271	-1.0271	-1.8875	-1.7542	-1.3792	-1.8687	-1.0958	-1.5812	-2.0729	-1.3021	-2.025	-1.6333	-1.3521	296.897	250.248	32.080	299.465	-24.561	41.483	255.251	260.227	196.650	-26.754	26.061	303.546	89.144	314.103	45.672	293.808	0.00064257	0.00034467	0.00010773	1298.9	4.8238e-06	6.6315e-06	1308.3	362.48	3.4101e-06	5.0879e-06	415.62	137.88	119.51	40.932	5.9e-06	51.18	0.00033188	0.00031694	8.7434e-05	1311.3	3.5267e-06	3.417e-06	1320.6	367.98	3.3727e-06	3.4026e-06	420.47	139.86	121.15	41.826	3.4276e-06	52.07	303.614	30.837	23.576	-25.379	99.609	113.299	-25.534	-20.606	225.045	126.142	-21.100	-16.672	-16.250	-11.720	141.017	-12.761	-8191	255	
16214.903	1	1	0	0	0.19174	0.13765	0.12513	0.33747	0.11674	0.22205	0.2879	0.58397	0.11522	0.3438	0.33085	0.33883	0.092004	0.18141	0.25614	0.36042	-1.5271	-1.2542	-1.3271	-2.0021	-1.0604	-1.8458	-1.8708	-1.3646	-2.2708	-1.3604	-1.4583	-2.0312	-1.2021	-1.8	-1.7979	-1.2792	146.731	274.253	9.116	263.985	101.387	68.736	270.419	272.391	282.168	79.549	274.236	230.519	281.497	-33.895	110.161	272.928	0.00057028	0.00054863	5.0118e-05	1296.2	7.7436e-06	5.9787e-06	1306.1	362.66	8.2947e-06	5.2623e-06	416.16	137.56	119.22	40.917	4.1189e-06	50.981	0.00033	0.00032121	8.6499e-05	1309.3	3.534e-06	3.4192e-06	1320.7	367.99	3.4995e-06	3.4046e-06	420.67	139.69	121.1	41.866	3.4417e-06	52.055	-35.527	43.869	31.900	-25.464	110.299	112.120	-25.383	-20.688	162.051	139.390	-21.014	-16.621	-16.356	-11.851	156.125	-12.517	-8191	255	
16214.999	1	1	0	0	0.11912	0.055973	0.14609	0.070955	0.24965	0.33874	0.178	0.16953	0.41832	0.21639	0.066391	0.17667	0.15699	0.14819	0.11162	0.13417	-1.4375	-1.5125	-1.3813	-2.0917	-1.1292	-1.8354	-1.8396	-1.0896	-1.8937	-1.4083	-1.3479	-2.0229	-1.3708	-1.6396	-1.8667	-1.2771	115.126	137.943	36.402	-19.150	-29.390	269.060	303.327	292.472	211.352	211.055	295.325	287.378	258.398	262.764	216.660	142.093	0.00048537	0.0006883	0.00011982	1299.1	3.4476e-06	4.5842e-06	1309.8	363.4	2.9027e-06	3.3773e-06	417.23	137.79	119.28	41.059	5.7907e-06	50.892	0.00032989	0.00031163	8.6968e-05	1313.6	3.4155e-06	3.3353e-06	1322.2	368.25	3.5065e-06	3.3314e-06	421.54	139.96	121.06	41.861	3.3847e-06	52.016	304.474	50.160	81.399	-25.341	93.014	79.507	-25.703	-20.741	220.842	70.759	-20.855	-16.671	-16.215	-11.626	119.485	-12.626	-8191	255	
16215.118	1	1	0	0	0.10638	0.15243	0.20153	0.30783	0.22373	0.12303	0.20174	0.33075	0.1266	0.089028	0.18977	0.1984	0.13247	0.2229	0.17195	0.1556	-1.3937	-1.4771	-1.1542	-2.0938	-1.3875	-1.5896	-2.0583	-1.2771	-1.925	-1.5083	-1.4271	-2.1521	-1.475	-1.4646	-1.95	-1.2271	-0.257	290.163	11.607	307.690	307.536	1.741	224.416	232.886	206.740	-21.612	-15.561	314.767	-26.331	300.247	273.917	70.910	0.00056605	0.00049185	0.00015516	1303.1	7.8247e-06	6.1677e-06	1310.8	364.55	5.8637e-06	5.6111e-06	417.36	137.86	118.94	41.169	5.1405e-06	51.179	0.00032945	0.00030966	8.625e-05	1311.7	3.5263e-06	3.3403e-06	1321.4	368.74	3.4259e-06	3.3448e-06	421.32	139.78	120.97	41.944	3.3728e-06	52.128	307.058	40.968	44.535	-25.348	112.503	84.776	-25.645	-20.729	150.083	93.093	-21.359	-16.768	-16.329	-11.884	105.112	-12.532	-8191	255	
16215.214	1	1	0	0	0.08544	0.20676	0.11644	0.34054	0.2464	0.16698	0.23575	0.23652	0.079457	0.17531	0.18267	0.24712	0.23978	0.178	0.2223	0.33046	-1.3312	-1.5167	-0.99792	-2.0563	-1.3771	-1.3833	-2.0083	-1.3917	-1.8021	-1.7667	-1.2708	-2.0146	-1.5458	-1.3312	-1.8604	-1.4354	-15.242	199.816	31.144	305.527	124.202	268.989	276.629	243.778	261.971	222.156	-7.613	275.911	245.777	295.050	6.302	282.204	0.0004051	0.0004542	0.0001416	1302.1	5.1159e-06	7.382e-06	1310.2	363.87	4.684e-06	4.2403e-06	416.21	136.87	119.12	40.981	1.7966e-06	51.177	0.00032449	0.00030478	8.6565e-05	1313	3.4024e-06	3.3488e-06	1322.8	368.63	3.3742e-06	3.4265e-06	420.58	139.55	120.63	41.877	3.3863e-06	52.108	302.670	47.647	75.348	-25.038	131.041	96.176	-25.442	-20.716	156.389	108.088	-21.393	-16.634	-16.225	-11.733	182.422	-12.370	-8191	255	
16215.311	1	1	0	0	0.23746	0.10757	0.30087	0.20493	0.28346	0.10882	0.23437	0.19244	0.084805	0.15816	0.29753	0.043051	0.30293	0.12581	0.056499	0.18159	-1.2229	-1.6167	-1.2542	-2.125	-1.1979	-1.1021	-2.175	-1.3771	-1.6125	-1.9417	-1.2521	-1.9688	-1.5729	-1.1271	-2.05	-1.4833	236.206	64.757	157.323	294.167	76.106	214.417	197.191	232.314	-22.109	136.985	215.774	24.643	141.895	243.536	100.700	292.302	0.00059756	0.00055905	0.00012584	1297	6.5336e-06	7.5068e-06	1310.2	361.75	5.2614e-06	3.8593e-06	418.06	137.66	118.68	41.234	4.6971e-06	51.216	0.00032263	0.00030782	8.5124e-05	1308.8	3.3993e-06	3.3901e-06	1321.7	367.75	3.445e-06	3.3446e-06	421.26	139.64	120.7	41.966	3.3316e-06	52.061	302.939	34.228	68.682	-25.266	92.398	128.076	-25.486	-20.641	179.480	65.348	-21.096	-16.599	-16.085	-11.679	148.407	-12.633	-8191	255	
16215.407	1	1	0	0	0.29882	0.085441	0.20861	0.33187	0.35356	0.093678	0.41506	0.45479	0.10476	0.13854	0.23297	0.19374	0.098672	0.30697	0.11877	0.13907	-1.1958	-1.75	-0.96875	-2.1354	-1.6	-0.97083	-2.0021	-1.4104	-1.4167	-1.8042	-1.3542	-1.9229	-1.7875	-1.1917	-1.8292	-1.5063	75.272	272.617	152.809	-12.643	-5.993	83.283	259.327	282.118	70.552	111.472	234.126	259.102	-23.326	21.740	-25.786	92.761	0.0006451	0.00037039	9.3625e-05	1298	5.2094e-06	5.7555e-06	1312.3	363.65	3.7073e-06	4.7722e-06	414.27	137.95	118.99	41.071	9.8857e-06	51.151	0.00032876	0.00030987	8.5043e-05	1311.3	3.4045e-06	3.3364e-06	1322.8	368.73	3.433e-06	3.3668e-06	420.12	139.82	120.81	41.825	3.3815e-06	52.158	298.704	57.371	55.698	-25.298	102.397	75.417	-25.526	-20.882	163.233	105.884	-21.134	-16.505	-16.217	-11.604	117.638	-12.639	-8191	255	
16215.503	1	1	0	0	0.1016	0.088436	0.034681	0.10136	0.055242	0.23532	0.49669	0.2342	0.24476	0.12673	0.19138	0.22992	0.20807	0.12577	0.3957	0.076755	-1.0958	-1.8438	-1.2875	-1.9875	-1.6625	-1.1938	-1.9875	-1.5354	-1.2667	-1.9417	-1.45	-1.7271	-1.8479	-1.2479	-1.9062	-1.5729	43.865	74.039	4.199	276.153	289.092	297.997	261.270	290.331	51.826	76.899	-26.834	279.828	0.056	212.075	281.313	305.443	0.00075146	0.00054919	4.8536e-05	1302.9	3.0104e-06	5.6946e-06	1310.4	363.22	6.5338e-06	6.2071e-06	415.22	137.68	118.96	41.015	3.8046e-06	51.038	0.00032127	0.0003028	8.6466e-05	1312.9	3.3861e-06	3.355e-06	1323.5	368.33	3.3959e-06	3.4087e-06	421.03	139.58	120.87	41.845	3.3272e-06	51.956	308.684	42.349	44.216	-25.244	103.946	81.719	-25.297	-20.742	182.101	148.739	-21.380	-16.774	-16.199	-11.641	184.996	-12.753	-8191	255	
16215.599	1	1	0	0	0.16807	0.32606	0.077296	0.21596	0.053766	0.046111	0.31382	0.38107	0.025234	0.13474	0.20071	0.18529	0.20141	0.31905	0.10872	0.23516	-1.0354	-1.7625	-0.8375	-1.7458	-1.6875	-0.925	-1.9937	-1.5729	-1.3687	-1.8604	-1.4271	-1.8146	-1.9042	-1.0625	-1.7563	-1.7396	223.224	260.478	153.054	300.760	98.330	269.211	285.359	272.743	243.559	101.903	-2.750	312.331	218.140	217.970	111.702	131.710	0.00064941	0.00049872	0.00013177	1301.7	5.2384e-06	6.6588e-06	1309.7	362.83	4.9179e-06	8.1453e-06	418.29	137.73	118.94	41.162	6.1965e-06	51.218	0.00032211	0.00030385	8.5696e-05	1313.2	3.3725e-06	3.3077e-06	1321.6	368.38	3.367e-06	3.3205e-06	421.28	139.62	120.72	41.934	3.3164e-06	52.1	307.918	76.479	78.156	-25.052	99.087	117.793	-25.340	-20.661	129.209	146.330	-21.256	-16.524	-16.114	-11.751	174.953	-12.471	-8191	255	
16215.695	1	1	0	0	0.37312	0.023105	0.24339	0.21472	0.090622	0.1671	0.26393	0.14802	0.33725	0.094514	0.13308	0.27181	0.088715	0.41652	0.12129	0.15056	-0.78542	-2.0563	-1.2042	-1.5833	-1.8917	-1.1771	-2.0438	-1.8854	-1.0292	-1.7979	-1.3687	-1.6979	-2.0917	-1.3729	-1.7062	-1.6812	7.113	52.504	233.590	-23.057	270.855	185.209	284.537	-6.618	51.695	172.455	272.716	320.006	233.173	232.809	68.835	35.428	0.0006194	0.00055657	4.9387e-05	1302.4	4.4934e-06	5.9557e-06	1307.4	362.84	4.247e-06	4.274e-06	417.13	137.07	118.83	40.986	6.7408e-06	50.936	0.00031958	0.00030378	8.4034e-05	1311.4	3.3031e-06	3.3196e-06	1321.8	368.49	3.3687e-06	3.2231e-06	421.39	139.28	120.89	41.882	3.3589e-06	51.957	312.655	57.693	61.865	-25.289	89.334	104.804	-25.499	-20.587	180.070	111.017	-21.327	-16.555	-16.139	-12.004	104.436	-12.439	-8191	255	
16215.791	1	1	0	0	0.35724	0.15557	0.14719	0.32207	0.068503	0.087403	0.10501	0.31833	0.098923	0.14556	0.30312	0.31819	0.29734	0.49652	0.03927	0.14651	-0.63542	-1.8438	-1.4708	-1.5979	-2.0229	-0.94792	-1.8146	-1.6208	-1.1167	-1.8375	-1.5875	-1.4208	-2.0208	-1.2042	-1.5167	-1.8375	156.541	143.350	302.617	-24.406	76.452	98.276	160.745	261.446	62.994	16.967	251.480	209.631	241.875	224.880	136.749	268.902	0.0007255	0.00048532	9.3615e-05	1295	5.7338e-06	2.2684e-06	1306.4	363.44	6.6683e-06	4.4143e-06	416.22	137.88	119.06	41.075	4.6785e-06	50.859	0.00032404	0.00030217	8.3577e-05	1309.9	3.3409e-06	3.3731e-06	1320.8	368.59	3.36e-06	3.2344e-06	421.03	139.58	120.76	41.869	3.3074e-06	51.938	310.418	70.367	26.819	-25.232	118.522	117.019	-25.242	-20.891	213.813	142.348	-21.026	-16.681	-15.951	-11.938	142.941	-12.662	-8191	255	
16215.912	1	1	0	0	0.062449	0.096381	0.22329	0.37862	0.085567	0.19291	0.27144	0.14906	0.11706	0.022886	0.080196	0.097947	0.34246	0.29086	0.077249	0.28007	-0.65	-1.8563	-1.5292	-1.5396	-1.9	-1.2042	-1.8042	-2.0271	-1.1104	-2.0729	-1.8125	-1.3	-2.0729	-1.5604	-1.5083	-1.925	-19.057	-29.819	25.229	283.563	165.254	243.409	205.317	252.897	204.136	157.009	-38.190	88.611	28.781	304.544	-7.656	304.751	0.00058537	0.00027187	0.00015122	1302	5.5006e-06	6.6033e-06	1302.8	362.76	9.2198e-06	6.6895e-06	416.79	137.89	118.85	40.983	2.8742e-06	51.048	0.0003181	0.00029547	8.18e-05	1309.9	3.3577e-06	3.2288e-06	1318	368.3	3.4087e-06	3.2254e-06	421.08	139.57	120.55	41.893	3.2522e-06	52.062	303.775	51.745	27.064	-25.209	125.414	120.769	-25.507	-20.889	157.795	120.495	-21.278	-16.905	-15.911	-11.716	131.142	-12.957	-8191	255	
16216.006	1	1	0	0	0.14965	0.036696	0.11469	0.41157	0.083784	0.13149	0.19521	0.13665	0.11513	0.13232	0.22901	0.20002	0.077991	0.19879	0.22837	0.040801	-0.63542	-1.8375	-1.5354	-1.4062	-1.9146	-1.325	-1.6583	-2.0792	-0.94375	-1.725	-1.7292	-1.0562	-2.0167	-1.2354	-1.3062	-2.1312	309.448	28.492	167.643	287.025	193.683	28.582	319.450	282.687	95.240	40.954	-17.884	-30.200	182.685	305.917	129.596	-35.201	0.00057657	0.00023651	0.00015912	1294.8	7.5313e-06	5.3083e-06	1306.1	363.26	7.4214e-06	7.2339e-06	416	137.44	118.83	41.014	4.6105e-06	50.71	0.00032332	0.00029935	8.3958e-05	1308.6	3.2958e-06	3.3059e-06	1319.5	368.46	3.362e-06	3.3223e-06	420.48	139.49	120.64	41.73	3.3824e-06	51.884	296.057	60.067	51.202	-25.479	115.153	116.392	-25.579	-20.950	168.874	124.236	-21.730	-16.553	-16.251	-11.969	114.612	-12.740	-8191	255	
16216.102	1	1	0	0	0.13714	0.11142	0.096107	0.15566	0.11814	0.11927	0.12571	0.061848	0.33742	0.042476	0.049889	0.064398	0.26404	0.09726	0.19452	0.11105	-0.77917	-1.6167	-1.7771	-1.275	-1.7062	-1.2417	-1.3542	-2.0521	-0.89583	-1.5708	-1.9604	-1.2062	-1.9708	-1.4021	-1.3396	-2.1854	196.644	256.111	54.609	282.816	-21.891	119.876	101.809	-32.854	308.887	226.159	258.693	233.483	18.076	76.792	319.403	140.964	0.00059419	0.00055126	0.00013712	1296	3.5344e-06	9.4249e-06	1305.4	362.35	7.1236e-06	5.1388e-06	415.53	137.29	118.69	40.975	4.0047e-06	50.796	0.00032458	0.00030721	8.461e-05	1308.7	3.3408e-06	3.3248e-06	1319.4	367.93	3.3273e-06	3.3135e-06	421.29	139.28	120.61	41.8	3.3347e-06	51.918	309.143	61.288	81.434	-25.519	97.029	97.952	-25.455	-20.755	177.585	187.520	-21.471	-16.844	-16.185	-11.774	118.336	-12.787	-8191	255	
16216.200	1	1	0	0	0.16124	0.046713	0.15477	0.3354	0.18064	0.25225	0.39565	0.11169	0.09761	0.41464	0.21133	0.27756	0.061608	0.07412	0.088031	0.11598	-0.82292	-1.3667	-1.7313	-1.2708	-1.7687	-1.3729	-1.5063	-2.0729	-1.1688	-1.4104	-2.0167	-1.1125	-1.8083	-1.5583	-1.1646	-2.0646	118.975	231.474	184.400	-12.959	30.157	117.401	-29.328	230.427	301.804	317.549	-8.123	-15.068	274.303	203.589	232.905	-38.339	0.00058537	0.00036747	0.00011692	1295.1	4.5664e-06	3.6467e-06	1309.5	363.42	6.5468e-07	6.327e-06	416.55	138.35	118.7	40.828	3.9328e-06	51.124	0.00031789	0.00030013	8.4047e-05	1308.9	3.357e-06	3.282e-06	1321.5	368.21	3.3422e-06	3.2433e-06	420.98	139.42	120.8	41.805	3.3167e-06	52.043	314.435	58.397	76.812	-25.438	169.955	94.610	-25.572	-20.821	280.118	134.123	-21.221	-16.953	-16.066	-12.177	169.772	-12.759	-8191	255	
16216.295	1	1	0	0	0.29187	0.2985	0.091178	0.13877	0.19085	0.27319	0.61747	0.088671	0.17736	0.20779	0.13556	0.18415	0.42074	0.25533	0.16875	0.06252	-0.74375	-1.3875	-1.9583	-1.0917	-1.7333	-1.7208	-1.4271	-2.1437	-1.3438	-1.5063	-2.1167	-1.3563	-1.7833	-1.8896	-1.2	-2.1583	53.423	294.665	289.753	263.272	136.182	-36.376	294.450	-3.473	276.181	72.476	31.729	184.763	-19.393	296.563	225.880	209.913	0.00057021	0.00023101	4.4943e-05	1292.6	2.312e-06	5.6735e-06	1310.8	362.68	4.7543e-06	5.0453e-06	413.6	137.26	119.09	40.987	4.6373e-06	50.954	0.00032127	0.00029136	8.1578e-05	1307.8	3.2918e-06	3.2255e-06	1320.1	368.65	3.3233e-06	3.302e-06	420.2	139.5	121.06	41.827	3.3303e-06	51.967	302.906	49.914	48.060	-25.518	135.270	77.590	-25.695	-20.837	132.670	129.054	-21.257	-16.583	-16.051	-11.855	110.147	-12.612	-8191	255	
16216.391	1	1	0	0	0.068637	0.3598	0.1769	0.16503	0.26784	0.38156	0.30122	0.34296	0.28851	0.18751	0.1157	0.31938	0.2601	0.0219	0.12882	0.10275	-0.84375	-1.2437	-1.8583	-1.3813	-1.6688	-1.8271	-1.3979	-2.0687	-1.35	-1.4	-2.1792	-1.2646	-1.7333	-1.8438	-1.0729	-2.1833	92.339	158.297	-28.296	258.227	33.095	307.148	207.436	222.269	-15.111	191.694	6.381	255.761	-32.598	87.132	273.623	-30.685	0.00060243	0.00033191	0.00013792	1296.7	7.6119e-06	3.4409e-06	1309.6	364.58	3.671e-06	5.3421e-06	417.38	137.12	118.63	40.958	8.2302e-06	50.935	0.00031638	0.00029929	8.2944e-05	1308.8	3.2977e-06	3.3019e-06	1320.8	368.52	3.3695e-06	3.3462e-06	421.81	139.2	120.63	41.796	3.3985e-06	51.963	309.827	66.459	57.228	-25.327	117.517	75.128	-25.865	-20.828	175.812	111.624	-21.484	-16.499	-16.232	-11.779	136.166	-12.200	-8191	255	
16216.487	1	1	0	0	0.08855	0.24409	0.1833	0.11012	0.18578	0.27846	0.19233	0.075926	0.30007	0.042282	0.15815	0.20465	0.20409	0.29183	0.071125	0.2162	-1.2687	-1.2875	-1.9979	-1.3333	-1.5229	-1.9083	-1.2917	-2.0167	-1.5	-1.0833	-1.9021	-1.2604	-1.5854	-2.1146	-0.9375	-1.9188	266.129	273.388	313.713	52.064	12.152	88.635	185.870	307.622	74.729	83.517	260.317	285.849	143.757	270.287	152.231	236.249	0.00063311	0.00034322	5.8802e-05	1296.8	4.4101e-06	2.9735e-06	1302	363.31	2.6317e-06	5.32e-06	417.03	136.92	118.89	41.043	8.2731e-06	51.25	0.00032198	0.00029862	8.366e-05	1309.8	3.3288e-06	3.2978e-06	1320.5	369.02	3.3722e-06	3.2677e-06	421.04	139.37	120.78	41.849	3.3121e-06	52.071	304.052	52.210	36.088	-25.326	142.843	117.940	-25.594	-20.643	165.074	111.520	-21.203	-16.780	-15.776	-11.899	128.797	-12.400	-8191	255	
16216.608	1	1	0	0	0.1709	0.24133	0.21865	0.097486	0.056292	0.20206	0.38351	0.22459	0.2966	0.23677	0.082784	0.14891	0.32754	0.10406	0.15189	0.21435	-1.3563	-1.1958	-1.8062	-1.5292	-1.2833	-1.9479	-1.2667	-1.8021	-1.7542	-1.1021	-1.9688	-1.4167	-1.2437	-1.9542	-1.0542	-1.9125	129.071	62.376	125.920	-35.355	72.895	199.580	-29.878	293.614	2.465	128.684	287.294	-17.352	246.136	14.523	185.447	288.171	0.00058556	0.0003674	0.00013443	1295.3	8.4943e-06	5.2768e-06	1307.8	363.91	4.6128e-06	6.9858e-06	418.38	137.45	118.82	40.914	5.3972e-06	51.228	0.00031588	0.00030099	8.1224e-05	1308.9	3.244e-06	3.2396e-06	1320.2	369.11	3.2713e-06	3.2181e-06	422.33	139.68	120.88	41.899	3.2702e-06	52.123	283.904	63.592	30.767	-25.392	81.847	156.545	-25.654	-20.608	180.000	107.683	-21.497	-16.823	-16.023	-11.816	120.043	-12.547	-8191	255	
16216.704	1	1	0	0	0.29674	0.22396	0.074634	0.18269	0.20179	0.32393	0.2936	0.35613	0.20728	0.23091	0.20499	0.21662	0.087485	0.32539	0.26973	0.21226	-1.3396	-0.87083	-1.7938	-1.5792	-1.0479	-1.8854	-1.3896	-1.9771	-1.8438	-1.2292	-1.9917	-1.6042	-1.3062	-2.0812	-1.1688	-1.8083	11.163	43.456	148.687	270.589	314.021	-33.344	306.228	293.716	30.899	135.825	309.568	212.609	69.707	59.626	225.725	286.288	0.00057247	0.00035085	0.00011289	1297.1	3.6323e-06	5.7578e-06	1306.7	365.42	7.5732e-06	7.4368e-06	418.4	138.47	119.38	41.152	3.4348e-06	50.979	0.00031404	0.00029309	8.2934e-05	1311	3.3435e-06	3.2092e-06	1320.9	369.87	3.2511e-06	3.3218e-06	423.17	140.26	121.18	42.003	3.3028e-06	52.063	296.126	28.843	17.951	-25.465	147.824	75.317	-25.586	-20.577	205.868	122.475	-21.290	-16.490	-16.072	-11.984	162.453	-12.458	-8191	255	
16216.800	1	1	0	0	0.19543	0.1073	0.14799	0.23448	0.28603	0.31129	0.14708	0.27803	0.14075	0.30099	0.0048196	0.021786	0.073677	0.1109	0.10408	0.24557	-1.4271	-0.76875	-1.7104	-1.6854	-1.05	-1.8479	-1.3167	-1.5458	-1.9021	-1.15	-1.8312	-1.6229	-1.2313	-2.1542	-1.2542	-1.3	82.520	205.540	89.486	177.611	40.676	72.810	-34.093	259.240	269.084	33.127	88.032	293.155	285.447	216.380	156.910	255.294	0.00074794	0.00049402	0.00010515	1300.9	6.4349e-06	5.1805e-06	1310.4	364.41	5.0581e-06	8.9012e-06	418.24	138.28	119.51	41.324	5.7415e-06	51.02	0.00031182	0.00029307	8.113e-05	1312.7	3.2607e-06	3.1345e-06	1323.3	370.21	3.1905e-06	3.1938e-06	423.04	140.37	121.44	42.066	3.1805e-06	52.18	292.891	28.388	43.699	-25.065	125.251	143.032	-25.494	-20.968	148.091	140.468	-21.833	-17.252	-16.524	-12.286	131.292	-13.222	-8191	255	
16216.896	1	1	0	0	0.28006	0.13481	0.071531	0.2697	0.081121	0.067664	0.24594	0.10503	0.16165	0.19164	0.15232	0.29494	0.34251	0.21981	0.098451	0.13297	-1.55	-1.0063	-1.6292	-1.9146	-0.95417	-2.1312	-1.6208	-1.4896	-1.8083	-1.1729	-1.8042	-1.7167	-1.1042	-1.8125	-1.2938	-1.1979	51.864	199.562	129.079	244.019	-19.361	193.599	290.937	265.783	108.257	245.392	227.479	303.063	280.412	-25.519	15.756	295.485	0.00065528	0.00052843	0.00012681	1297.7	4.9685e-06	4.9395e-06	1304.5	365.17	5.3917e-06	7.9178e-06	419.29	138.14	119.41	41.093	2.7106e-06	51.165	0.00030386	0.00028949	7.9169e-05	1311.1	3.1709e-06	3.0688e-06	1320.3	370.95	3.1713e-06	3.1595e-06	423.78	140.21	121.15	41.934	3.2601e-06	52.148	302.333	45.518	39.198	-26.013	121.238	104.323	-25.936	-21.072	194.737	122.474	-21.371	-17.038	-16.443	-12.155	114.936	-12.858	-8191	255	
16216.992	1	1	0	0	0.22092	0.2461	0.10092	0.2056	0.21418	0.19521	0.25346	0.30159	0.026398	0.079092	0.14033	0.35639	0.10984	0.092136	0.092627	0.11332	-1.3604	-1.0833	-1.3042	-1.95	-1.1562	-1.8667	-1.7062	-1.45	-2.1521	-1.2729	-1.7521	-1.9479	-1.2104	-1.9917	-1.4604	-1.3479	-35.459	49.857	188.920	-29.814	-36.126	-1.791	270.296	248.482	244.938	140.350	304.243	285.493	164.602	287.469	178.830	82.369	0.00050119	0.00035557	6.591e-05	1295.5	6.4529e-06	7.0996e-06	1311.9	365.29	7.0869e-06	5.3724e-06	419.2	138.04	119.27	41.051	6.9065e-06	51.295	0.00031115	0.0002914	8.0911e-05	1312.1	3.263e-06	3.1318e-06	1322.5	370.61	3.2249e-06	3.2562e-06	423.34	140	121.2	41.973	3.1644e-06	52.178	295.117	29.184	68.202	-25.649	101.815	108.520	-26.034	-21.196	215.481	107.001	-21.650	-17.033	-16.483	-12.095	105.176	-12.828	-8191	255	
16217.087	1	1	0	0	0.31653	0.21955	0.12449	0.26204	0.081	0.15286	0.029358	0.31276	0.13558	0.063927	0.45405	0.099518	0.2346	0.36663	0.16093	0.15179	-1.6167	-1.0417	-1.45	-2.0208	-1.2687	-1.6562	-2.0625	-1.4042	-1.9083	-1.3792	-1.4104	-1.9375	-1.2792	-1.7729	-1.6479	-1.1646	171.852	63.323	95.080	305.034	-37.531	257.008	198.108	247.186	208.663	191.358	314.278	197.793	-29.526	291.700	75.241	220.070	0.00063218	0.00020629	6.5018e-05	1297.3	7.8317e-06	8.1194e-06	1306	364.01	5.5356e-06	6.4047e-06	417.45	137.24	119.62	41.007	9.0999e-06	51.225	0.00030807	0.00028922	8.0495e-05	1310.5	3.2324e-06	3.0736e-06	1319.4	370.75	3.209e-06	3.1889e-06	422.42	139.94	121.13	41.911	3.1663e-06	52.163	309.568	27.109	-4.211	-25.979	138.719	105.447	-25.859	-21.167	196.482	93.853	-21.441	-16.817	-16.676	-11.994	144.376	-12.823	-8191	255	
16217.183	1	1	0	0	0.066428	0.16902	0.093441	0.22936	0.1097	0.26335	0.33517	0.13137	0.25357	0.046167	0.39736	0.084231	0.1789	0.14232	0.087169	0.18479	-1.5125	-1.3438	-1.4229	-2.0833	-1.0542	-1.8583	-1.8583	-1.2667	-1.8729	-1.2104	-1.4667	-1.9167	-1.3438	-1.7083	-1.65	-1.0438	71.758	20.332	13.677	33.685	88.376	72.658	310.835	125.370	-11.912	49.633	295.383	282.522	300.391	318.435	78.905	216.625	0.00064503	0.00046668	9.1991e-05	1297	6.1261e-06	6.4773e-06	1303.3	364.74	2.8651e-06	8.5399e-06	418.76	137.6	119.1	40.994	6.0601e-06	51.278	0.00030633	0.00029184	8.1401e-05	1309.9	3.2432e-06	3.1612e-06	1320.3	370.25	3.2528e-06	3.1642e-06	423.53	139.79	120.86	41.899	3.1772e-06	52.125	308.052	49.708	67.042	-25.829	131.065	105.606	-25.816	-21.202	185.224	109.658	-21.321	-16.986	-16.684	-12.194	136.072	-13.068	-8191	255	
16217.303	1	1	0	0	0.25997	0.076585	0.16894	0.23728	0.21356	0.078359	0.19563	0.34569	0.10755	0.2938	0.11852	0.3068	0.26597	0.15907	0.21275	0.32559	-1.3583	-1.5771	-1.3083	-2.1479	-1.2437	-1.5417	-2.0792	-1.2479	-1.7271	-1.425	-1.3062	-1.7833	-1.2229	-1.6854	-1.8563	-1.1271	27.525	72.106	233.562	254.847	31.219	63.924	302.721	183.616	143.596	237.132	167.227	64.435	-29.832	-18.189	81.613	145.080	0.00056597	0.00040599	0.00011503	1296.3	7.7439e-06	6.9307e-06	1305.5	365.14	8.0991e-06	4.9649e-06	419.66	137.87	118.74	41.228	4.6743e-06	51.218	0.00031504	0.00029695	8.1525e-05	1310.4	3.2694e-06	3.1536e-06	1321	370.71	3.1847e-06	3.2236e-06	423.79	140.08	120.81	41.983	3.2339e-06	52.183	296.619	60.821	55.319	-25.605	111.595	90.917	-25.908	-21.250	187.749	72.489	-21.263	-16.968	-16.601	-12.136	139.653	-12.821	-8191	255	
16217.375	1	1	0	0	0.21766	0.17341	0.18663	0.22071	0.090021	0.17065	0.16944	0.13285	0.16506	0.068707	0.15035	0.11528	0.086975	0.20148	0.043382	0.24459	-1.375	-1.6125	-1.0417	-2.1	-1.4375	-1.4625	-2.0958	-1.2979	-1.7104	-1.6479	-1.3208	-2.1625	-1.3188	-1.1583	-1.85	-1.4438	206.084	128.407	265.483	3.950	98.450	255.079	281.931	279.513	-37.073	227.704	304.523	203.434	188.579	266.171	200.664	287.440	0.00052828	0.0006345	0.00020649	1297.6	6.2022e-06	3.8319e-06	1312.4	364.68	4.1748e-06	4.1581e-06	419.24	138.05	119.33	40.97	5.9941e-06	51.025	0.00030875	0.00029224	8.4399e-05	1310	3.2764e-06	3.2263e-06	1323.7	370.5	3.2616e-06	3.2321e-06	423.55	140.29	121.15	41.898	3.2059e-06	52.076	300.334	47.728	54.667	-25.601	110.966	57.818	-25.793	-21.088	203.923	127.132	-21.632	-17.012	-16.335	-12.058	108.849	-13.184	-8191	255	
16217.471	1	1	0	0	0.19074	0.081557	0.32405	0.068931	0.1188	0.26643	0.258	0.26731	0.19212	0.24271	0.049414	0.01907	0.12923	0.10543	0.011459	0.31948	-1.2833	-1.8396	-0.9875	-2.1417	-1.3521	-1.1875	-2.0958	-1.4562	-1.4771	-1.7188	-1.2292	-2.0563	-1.5708	-1.3333	-1.8375	-1.5208	-24.903	44.664	-16.247	282.088	-11.257	58.170	288.517	226.973	218.896	131.056	75.159	-3.802	263.845	236.083	249.660	233.260	0.00061434	0.00054478	0.00011164	1297.4	1.6791e-06	4.096e-06	1303.6	364.8	3.9032e-06	7.0835e-06	419.98	138.59	119.33	41.125	3.5961e-06	51.085	0.00030878	0.00029265	8.0578e-05	1312.5	3.1855e-06	3.1957e-06	1321.3	370.29	3.1852e-06	3.1211e-06	423.29	140.05	121.2	41.99	3.1659e-06	52.079	309.926	58.702	30.598	-25.634	10.607	116.656	-25.931	-20.926	176.672	108.634	-21.161	-16.820	-16.622	-12.036	120.784	-12.764	-8191	255	
16217.567	1	1	0	0	0.35851	0.085919	0.39358	0.32783	0.16153	0.13819	0.26197	0.42065	0.065492	0.12806	0.12007	0.35754	0.28908	0.12294	0.45972	0.29705	-1.1688	-1.9125	-0.97708	-2.0167	-1.3521	-1.1292	-2.1479	-1.4833	-1.4979	-1.9896	-1.075	-1.7812	-1.6187	-1.0312	-1.9271	-1.4896	108.348	268.577	10.137	285.435	178.702	297.625	270.132	311.640	103.478	36.382	229.474	175.926	248.636	226.617	-34.577	248.698	0.00057983	0.00053453	0.0001473	1295.6	5.3235e-07	6.0639e-06	1308.9	365.94	5.5828e-06	4.4845e-06	419.5	138.15	119.38	41.065	8.4332e-06	51.123	0.00030867	0.00028856	7.9335e-05	1309.2	3.0724e-06	3.089e-06	1322.1	371.26	3.1728e-06	3.0679e-06	423.95	140.06	121.3	41.988	3.1505e-06	52.173	312.778	53.343	72.517	-25.594	92.401	127.489	-25.806	-21.206	203.380	119.851	-21.937	-17.007	-16.598	-11.992	123.605	-13.096	-8191	255	
16217.688	1	1	0	0	0.2604	0.13234	0.10634	0.38706	0.13691	0.17603	0.2322	0.089802	0.085208	0.11517	0.24762	0.17081	0.22866	0.31083	0.17361	0.10427	-0.97917	-1.9667	-0.92708	-1.9021	-1.6583	-1.2354	-2.0938	-1.6229	-1.3229	-2.1063	-1.2125	-1.8625	-1.975	-1.1771	-2.0896	-1.5	229.148	183.455	287.154	5.183	50.502	137.794	229.281	7.211	-26.399	261.349	-11.586	28.647	301.239	-22.828	81.430	295.530	0.00058044	0.00070074	0.00013394	1298.1	4.9433e-06	6.3631e-06	1311.6	366.02	3.1484e-06	6.9546e-06	421	138.6	119.32	40.909	3.6231e-06	51.209	0.00030924	0.00029054	7.9305e-05	1310.6	3.2256e-06	3.124e-06	1320.8	370.89	3.1957e-06	3.1003e-06	423.56	140.26	121.03	41.863	3.1161e-06	52.138	310.710	50.401	42.878	-25.629	64.844	126.988	-25.826	-21.350	204.911	105.885	-21.873	-16.963	-16.595	-12.041	103.323	-12.932	-8191	255	
#DATA ENDS
