BOXY.EXE: ISS Imagent and Oximeter Data Acquisition Program Version 0.80
Ascii Record File

#ACQ INFORMATION
2  Detector Channels 
16  External MUX Channels 
1  Auxiliary Channels 
5000  Waveform (CCF) Frequency (Hz)
1  Waveforms Skipped 
30  Waveforms Averaged 
1  Cycles Averaged 
16  Acquisitions per Waveform 
10.0806  Updata Rate (Hz) 

#FILE INFORMATION
TRUE -- External MUX Channel results are PARSED.
FALSE -- AC DC and Phase are NOT grouped.
TRUE -- Companion Program Settings File CREATED.
FALSE -- AC data not excluded
FALSE -- DC data not excluded
FALSE -- Phase data not excluded
FALSE -- Auxillary Chn. data not excluded
Tab delimiters

#CALIBRATION STATE
TRUE -- Waveform Calibration Values APPLIED.


#AUX CALIBRATION VALUES
Val Type	aux-1	

Term	1.0000e+00	
Factor	0.0000e+00	


#WF CALIBRATION VALUES
A = Detector Channel
Val Type	A-AC1	A-AC2	A-AC3	A-AC4	A-AC5	A-AC6	A-AC7	A-AC8	A-AC9	A-AC10	A-AC11	A-AC12	A-AC13	A-AC14	A-AC15	A-AC16	A-DC1	A-DC2	A-DC3	A-DC4	A-DC5	A-DC6	A-DC7	A-DC8	A-DC9	A-DC10	A-DC11	A-DC12	A-DC13	A-DC14	A-DC15	A-DC16	A-Ph1	A-Ph2	A-Ph3	A-Ph4	A-Ph5	A-Ph6	A-Ph7	A-Ph8	A-Ph9	A-Ph10	A-Ph11	A-Ph12	A-Ph13	A-Ph14	A-Ph15	A-Ph16	

Term	0.00000e+00	0.00000e+00	0.00000e+00	0.00000e+00	0.00000e+00	0.00000e+00	0.00000e+00	0.00000e+00	0.00000e+00	0.00000e+00	0.00000e+00	0.00000e+00	0.00000e+00	0.00000e+00	0.00000e+00	0.00000e+00	0.00000e+00	0.00000e+00	0.00000e+00	0.00000e+00	0.00000e+00	0.00000e+00	0.00000e+00	0.00000e+00	0.00000e+00	0.00000e+00	0.00000e+00	0.00000e+00	0.00000e+00	0.00000e+00	0.00000e+00	0.00000e+00	0.00000e+00	0.00000e+00	0.00000e+00	0.00000e+00	0.00000e+00	0.00000e+00	0.00000e+00	0.00000e+00	0.00000e+00	0.00000e+00	0.00000e+00	0.00000e+00	0.00000e+00	0.00000e+00	0.00000e+00	0.00000e+00	
Factor	1.00000e+00	1.00000e+00	1.00000e+00	1.00000e+00	1.00000e+00	1.00000e+00	1.00000e+00	1.00000e+00	1.00000e+00	1.00000e+00	1.00000e+00	1.00000e+00	1.00000e+00	1.00000e+00	1.00000e+00	1.00000e+00	1.00000e+00	1.00000e+00	1.00000e+00	1.00000e+00	1.00000e+00	1.00000e+00	1.00000e+00	1.00000e+00	1.00000e+00	1.00000e+00	1.00000e+00	1.00000e+00	1.00000e+00	1.00000e+00	1.00000e+00	1.00000e+00	X	X	X	X	X	X	X	X	X	X	X	X	X	X	X	X	

B = Detector Channel
Val Type	B-AC1	B-AC2	B-AC3	B-AC4	B-AC5	B-AC6	B-AC7	B-AC8	B-AC9	B-AC10	B-AC11	B-AC12	B-AC13	B-AC14	B-AC15	B-AC16	B-DC1	B-DC2	B-DC3	B-DC4	B-DC5	B-DC6	B-DC7	B-DC8	B-DC9	B-DC10	B-DC11	B-DC12	B-DC13	B-DC14	B-DC15	B-DC16	B-Ph1	B-Ph2	B-Ph3	B-Ph4	B-Ph5	B-Ph6	B-Ph7	B-Ph8	B-Ph9	B-Ph10	B-Ph11	B-Ph12	B-Ph13	B-Ph14	B-Ph15	B-Ph16	

Term	0.00000e+00	0.00000e+00	0.00000e+00	0.00000e+00	0.00000e+00	0.00000e+00	0.00000e+00	0.00000e+00	0.00000e+00	0.00000e+00	0.00000e+00	0.00000e+00	0.00000e+00	0.00000e+00	0.00000e+00	0.00000e+00	0.00000e+00	0.00000e+00	0.00000e+00	0.00000e+00	0.00000e+00	0.00000e+00	0.00000e+00	0.00000e+00	0.00000e+00	0.00000e+00	0.00000e+00	0.00000e+00	0.00000e+00	0.00000e+00	0.00000e+00	0.00000e+00	-2.03808e+02	-1.26914e+02	-1.21665e+02	-1.82284e+02	-9.97973e+01	-6.70612e+01	-1.58386e+02	-1.62015e+02	-9.23245e+01	-5.47240e+01	-1.79153e+02	-1.73355e+02	-1.82277e+02	-1.78265e+02	-9.35483e+01	-1.51023e+02	
Factor	4.16203e-05	1.29908e-04	3.88856e-05	1.52783e-01	1.56517e-06	1.40541e-06	1.69293e-01	4.87466e-02	1.56402e-06	1.54847e-06	1.08150e+00	2.87519e-02	2.79038e-02	8.23139e-03	1.38566e-06	1.17084e-02	2.55365e-06	2.72466e-06	7.60423e-07	8.14313e-02	2.95165e-08	3.00081e-08	8.46997e-02	2.60561e-02	2.96002e-08	2.99262e-08	4.46141e-01	1.47748e-02	1.49295e-02	4.41557e-03	2.97076e-08	6.06583e-03	X	X	X	X	X	X	X	X	X	X	X	X	X	X	X	X	



#DISTANCE SETTINGS
A = Detector Channel
A-1	A-2	A-3	A-4	A-5	A-6	A-7	A-8	A-9	A-10	A-11	A-12	A-13	A-14	A-15	A-16	

2.5000e+00	3.0000e+00	2.5000e+00	3.0000e+00	2.0000e+00	3.0000e+00	1.5000e+00	3.0000e+00	3.0000e+00	3.0000e+00	3.0000e+00	3.0000e+00	3.0000e+00	3.0000e+00	1.5000e+00	3.0000e+00	

B = Detector Channel
B-1	B-2	B-3	B-4	B-5	B-6	B-7	B-8	B-9	B-10	B-11	B-12	B-13	B-14	B-15	B-16	

1.0000e+01	1.0000e+01	1.0000e+01	1.4400e+00	1.0000e+01	1.0000e+01	1.5100e+00	1.9400e+00	1.0000e+01	1.0000e+01	1.9900e+00	2.4900e+00	2.4100e+00	2.9000e+00	1.0000e+01	2.9800e+00	




#DATA BEGINS
time	group	step	mark	flag	A-AC1	A-AC2	A-AC3	A-AC4	A-AC5	A-AC6	A-AC7	A-AC8	A-AC9	A-AC10	A-AC11	A-AC12	A-AC13	A-AC14	A-AC15	A-AC16	A-DC1	A-DC2	A-DC3	A-DC4	A-DC5	A-DC6	A-DC7	A-DC8	A-DC9	A-DC10	A-DC11	A-DC12	A-DC13	A-DC14	A-DC15	A-DC16	A-Ph1	A-Ph2	A-Ph3	A-Ph4	A-Ph5	A-Ph6	A-Ph7	A-Ph8	A-Ph9	A-Ph10	A-Ph11	A-Ph12	A-Ph13	A-Ph14	A-Ph15	A-Ph16	B-AC1	B-AC2	B-AC3	B-AC4	B-AC5	B-AC6	B-AC7	B-AC8	B-AC9	B-AC10	B-AC11	B-AC12	B-AC13	B-AC14	B-AC15	B-AC16	B-DC1	B-DC2	B-DC3	B-DC4	B-DC5	B-DC6	B-DC7	B-DC8	B-DC9	B-DC10	B-DC11	B-DC12	B-DC13	B-DC14	B-DC15	B-DC16	B-Ph1	B-Ph2	B-Ph3	B-Ph4	B-Ph5	B-Ph6	B-Ph7	B-Ph8	B-Ph9	B-Ph10	B-Ph11	B-Ph12	B-Ph13	B-Ph14	B-Ph15	B-Ph16	aux-1	digaux	

1449.190	1	1	0	512	0.11819	0.12348	0.21648	0.11373	0.1896	0.11723	0.31843	0.15644	0.10209	0.21343	0.30677	0.31777	0.068569	0.27316	0.30357	0.41465	-0.50417	-1.2583	-1.525	-1.0104	-1.6125	-1.1437	-1.0042	-1.5917	-0.97292	-1.25	-1.5187	-0.88125	-1.6021	-1.2812	-0.875	-1.9271	153.969	356.874	42.317	312.973	230.108	149.614	243.207	277.063	348.341	320.600	340.744	308.347	332.843	241.721	272.730	345.071	0.0015164	0.00091415	0.00018333	664.05	8.2815e-06	6.1866e-06	1280.1	240.19	6.1119e-06	5.5591e-06	558.64	235.04	86.904	32.622	6.2429e-06	107.29	0.00017535	9.3121e-05	2.6686e-05	607.33	1.0804e-06	1.0377e-06	1172.8	220.63	1.0512e-06	1.0565e-06	431.73	215.61	78.439	30.077	1.11e-06	98.787	69.010	87.785	123.575	35.613	159.629	168.916	35.372	38.949	151.490	227.704	38.463	43.020	42.923	46.667	133.414	46.668	-8191	255	
1449.286	1	1	0	0	0.26893	0.21353	0.046734	0.080395	0.26581	0.35818	0.29497	0.072273	0.12804	0.20663	0.13591	0.22477	0.16113	0.21654	0.21788	0.34954	-0.7	-1.1667	-1.5167	-0.83958	-1.4229	-1.3708	-1.05	-1.8271	-1.1812	-1.2771	-1.6396	-0.95625	-1.5187	-1.5375	-0.70833	-1.7062	63.637	221.184	141.564	299.052	246.083	308.373	343.662	275.956	164.071	149.472	209.159	302.870	320.699	29.136	281.637	293.735	0.0014401	0.00036394	9.8383e-05	656.47	5.2602e-06	5.431e-06	1273.1	236.81	4.6285e-06	3.8623e-06	566.15	233.91	85.162	32.756	4.1705e-06	107.81	0.00017762	9.8042e-05	2.635e-05	602.73	1.0076e-06	1.0637e-06	1170.5	217.92	1.048e-06	1.0955e-06	430.68	214.83	77.64	30.05	1.132e-06	99.285	69.497	113.855	126.937	35.254	145.803	205.827	35.522	38.837	197.996	151.748	38.455	43.362	43.004	46.745	177.184	46.842	-8191	255	
1449.383	1	1	0	0	0.039123	0.31753	0.058509	0.18792	0.19269	0.039291	0.14331	0.13027	0.028288	0.34244	0.19362	0.22117	0.1034	0.15536	0.10964	0.26105	-0.73333	-1.0292	-1.7875	-0.9	-1.2292	-1.3687	-1.0167	-1.6583	-1.2812	-0.96875	-1.7313	-1.1646	-1.5021	-1.625	-0.71667	-1.8792	63.676	242.852	207.575	299.363	373.249	257.784	363.368	364.527	125.850	42.486	299.350	317.216	300.171	303.656	209.408	365.062	0.001522	0.0004893	0.00013547	658.96	7.3753e-06	5.2759e-06	1273.9	237.03	9.1393e-06	5.2732e-06	571.68	236.54	85.819	33.273	4.1856e-06	108.74	0.00017483	9.9728e-05	2.6949e-05	601.4	1.0732e-06	1.0982e-06	1167	218.35	1.0904e-06	1.0507e-06	438.46	216.61	78.55	30.573	1.1108e-06	100.46	68.084	115.189	106.692	35.168	153.757	175.085	35.346	38.404	166.653	168.783	39.089	42.956	43.222	47.168	174.752	46.750	-8191	255	
1449.501	1	1	0	0	0.30017	0.25657	0.22203	0.19316	0.069045	0.10772	0.26698	0.40706	0.13821	0.070677	0.14785	0.3521	0.33621	0.088674	0.073665	0.12833	-0.67083	-0.67917	-1.6229	-0.98333	-1.1938	-1.6417	-0.96667	-1.675	-1.3292	-0.92917	-1.6146	-1.075	-1.1396	-1.8292	-0.7625	-1.5771	317.141	334.493	199.939	231.608	144.523	361.189	324.068	325.327	195.959	35.065	354.355	34.707	294.494	305.797	46.323	40.745	0.0015474	0.00033164	0.00020557	660.09	3.1437e-06	8.0764e-06	1265.3	235.94	5.6795e-06	6.9814e-06	568.82	234.36	84.847	32.433	6.3577e-06	107.35	0.00018334	0.00010543	2.7098e-05	600.25	1.091e-06	1.0785e-06	1164.8	217.43	1.1117e-06	1.0743e-06	430.94	213.93	77.399	29.877	1.149e-06	98.606	67.471	100.758	123.215	35.331	137.942	178.438	35.484	38.902	163.092	169.846	38.702	43.233	43.078	47.041	122.862	46.730	-8191	255	
1449.573	1	1	0	0	0.21231	0.14875	0.14557	0.11531	0.091478	0.1104	0.32504	0.27118	0.062817	0.20459	0.29406	0.2402	0.23357	0.16236	0.19394	0.29128	-0.81875	-0.80208	-1.6833	-1.1042	-1.0292	-1.5729	-0.9125	-1.4333	-1.4813	-0.90208	-1.7146	-1.1854	-1.0167	-1.8208	-0.89792	-1.5646	141.021	212.367	229.117	325.181	171.758	203.828	353.280	360.950	30.817	212.906	351.502	328.937	137.770	299.154	32.233	299.540	0.0016597	0.00049935	0.00022016	649.08	9.1873e-06	7.1589e-06	1253.8	234.69	6.6473e-06	8.9101e-06	572.75	233.29	84.907	32.467	4.6742e-06	107.51	0.00017979	0.00010429	2.6338e-05	594.13	1.1346e-06	1.045e-06	1154.1	215.1	1.1354e-06	1.0766e-06	431.33	213.63	76.998	29.729	1.05e-06	98.498	66.612	82.454	116.213	34.871	119.553	183.364	35.375	39.015	152.213	164.726	39.899	43.160	43.055	46.801	142.184	46.614	-8191	255	
1449.671	1	1	0	0	0.21611	0.094576	0.060835	0.28522	0.15021	0.11517	0.30386	0.33949	0.13135	0.061133	0.34574	0.047593	0.056552	0.24137	0.14461	0.1168	-0.97708	-0.65	-1.6187	-1.1583	-0.80625	-1.7458	-1.025	-1.3375	-1.6	-0.89792	-1.4896	-1.5063	-0.94167	-1.7875	-1.125	-1.4458	154.628	122.972	168.749	23.938	100.019	320.501	344.135	350.580	101.052	269.980	156.006	50.427	339.278	40.442	296.613	326.132	0.0016645	0.00024314	0.00020035	649.63	6.5505e-06	7.625e-06	1258	234.19	4.4663e-06	6.0635e-06	565.81	233.26	85.487	32.873	5.8488e-06	107.56	0.00018221	0.0001015	2.7481e-05	592.36	1.1446e-06	1.0463e-06	1150.1	214.5	1.154e-06	1.0511e-06	430.67	214.52	77.544	30.124	1.1195e-06	99.439	67.463	93.257	122.564	34.922	153.375	168.424	35.338	39.026	156.781	161.787	38.028	43.092	42.639	46.653	120.172	46.648	-8191	255	
1449.790	1	1	0	0	0.11313	0.16029	0.2299	0.22649	0.052115	0.44422	0.20049	0.1531	0.2204	0.31707	0.36488	0.36278	0.32956	0.038704	0.18407	0.35494	-1.2604	-0.92708	-1.5646	-1.4292	-0.875	-1.6521	-1.2104	-1.1063	-1.6771	-0.8625	-1.4708	-1.6437	-0.82917	-1.6646	-1.0396	-1.1208	196.399	132.220	312.119	372.478	359.044	307.201	352.086	143.069	366.465	256.254	205.931	28.254	27.603	270.208	93.656	348.277	0.0014783	0.00044365	0.00021088	648.56	7.476e-06	5.5256e-06	1257	234.51	4.5164e-06	7.5054e-06	562.68	233.47	84.433	32.716	5.993e-06	106.55	0.0001775	0.00010233	2.6119e-05	592.83	1.0988e-06	1.0141e-06	1155.6	215.26	1.1575e-06	1.0783e-06	426.61	214.41	77.168	29.931	1.1037e-06	98.437	69.598	120.706	102.091	35.389	164.716	183.463	35.520	38.683	160.854	192.846	38.444	43.116	43.383	47.100	138.006	46.532	-8191	255	
1449.886	1	1	0	0	0.22273	0.089385	0.033792	0.098042	0.21372	0.15957	0.17434	0.25365	0.19554	0.16939	0.23839	0.30527	0.15513	0.026559	0.19762	0.31634	-1.2042	-0.81042	-1.4229	-1.4125	-0.81042	-1.475	-1.3896	-1.0458	-1.7646	-0.9	-1.3604	-1.8833	-0.76042	-1.7417	-1.1562	-1.1646	224.046	300.559	274.219	372.253	375.466	57.083	315.779	339.420	95.973	234.729	44.153	313.807	313.452	279.311	287.924	307.040	0.0016275	0.00069807	0.00015908	646.64	6.4866e-06	5.7257e-06	1251.5	233.63	8.7851e-07	5.827e-06	563.79	231.23	84.017	32.358	6.2157e-06	106.44	0.00018289	9.6311e-05	2.7142e-05	590.52	1.1356e-06	1.0251e-06	1148.9	214.61	1.0475e-06	1.0498e-06	428.77	212.54	76.573	29.801	1.1161e-06	98.029	66.005	116.445	121.303	35.055	174.640	147.646	35.371	39.131	376.923	184.787	38.348	43.181	43.468	47.134	162.839	46.689	-8191	255	
1449.982	1	1	0	0	0.13122	0.10559	0.12338	0.23037	0.12328	0.23053	0.31216	0.24194	0.23358	0.051607	0.090995	0.48295	0.098324	0.18242	0.12886	0.3727	-1.2812	-0.77083	-1.325	-1.7083	-0.74792	-1.4854	-1.325	-0.93125	-1.7375	-0.99583	-1.0646	-1.6	-1.0229	-1.6313	-1.3563	-1.0646	154.785	131.912	53.270	298.107	242.566	286.220	364.387	356.853	336.371	296.754	377.382	44.691	272.453	374.930	365.031	336.573	0.0016617	0.00067408	0.00020259	648.94	4.1673e-06	5.0147e-06	1258.1	233.36	7.2327e-06	4.8628e-06	563.73	233.23	84.623	32.505	7.0527e-06	107.42	0.00017832	9.6555e-05	2.7984e-05	591.86	1.1285e-06	1.0345e-06	1151.7	214.51	1.0902e-06	1.042e-06	427.06	213.58	77.063	29.961	1.1517e-06	99.025	70.269	113.589	124.567	35.063	107.861	184.656	35.580	38.948	167.551	170.436	39.239	43.164	42.899	47.168	152.197	46.879	-8191	255	
1450.078	1	1	0	0	0.16726	0.19	0.1085	0.075261	0.08707	0.18217	0.32947	0.060512	0.054941	0.20515	0.21379	0.3749	0.034704	0.063954	0.2535	0.39715	-1.4479	-1.0875	-1.325	-1.7667	-0.86042	-1.6875	-1.7167	-0.94583	-1.6979	-1.0042	-1.0708	-2.0167	-0.7625	-1.3958	-1.5646	-1.1167	292.289	164.163	131.964	332.970	277.245	302.236	319.877	99.690	235.728	49.851	335.667	338.644	65.400	288.118	24.497	354.613	0.0015797	0.00056693	0.00014927	644.93	6.6448e-06	5.2009e-06	1258.6	234.55	6.1026e-06	4.6824e-06	561.15	234.46	84.825	32.882	5.505e-06	107.52	0.00017854	9.6765e-05	2.8166e-05	592.1	1.1005e-06	1.0606e-06	1154.3	215.18	1.0831e-06	1.1182e-06	429.41	214.7	77.311	30.198	1.0768e-06	98.838	70.987	103.155	104.957	35.155	140.290	136.547	35.118	38.841	128.590	192.702	39.226	43.178	43.321	46.947	156.653	46.697	-8191	255	
1450.175	1	1	0	0	0.075749	0.05117	0.20491	0.12115	0.33435	0.13509	0.24646	0.10996	0.054677	0.18347	0.063336	0.31077	0.27505	0.22855	0.1262	0.17982	-1.1313	-1.1333	-0.9375	-1.7958	-0.56667	-1.1333	-1.6938	-0.8375	-1.5771	-1.2521	-0.78333	-1.9188	-1.0292	-1.1167	-1.6292	-1.0333	89.735	310.356	169.479	333.306	211.860	283.297	367.272	276.002	322.652	231.075	92.801	329.951	366.821	41.379	50.155	313.150	0.0015976	0.00047944	0.00023413	645.29	7.4625e-06	6.7856e-06	1253.4	232.45	4.3565e-06	8.1375e-06	555.33	232.24	83.557	32.425	3.7761e-06	106.44	0.0001796	0.00010002	2.6833e-05	591.88	1.138e-06	1.1076e-06	1149.1	213.43	1.0926e-06	1.0067e-06	422.91	212.17	76.535	29.754	1.0655e-06	98.041	69.763	135.075	126.850	35.247	117.458	161.322	35.511	39.013	144.645	218.519	38.501	43.119	42.893	47.013	132.635	46.453	-8191	255	
1450.271	1	1	0	0	0.16565	0.1649	0.21517	0.18359	0.14206	0.38748	0.42177	0.097072	0.25928	0.21968	0.030036	0.17233	0.21596	0.12289	0.22394	0.39677	-1.1896	-1.3521	-1.0396	-1.8479	-0.88542	-1.0958	-1.6979	-1.0021	-1.4479	-1.1958	-0.96458	-1.775	-0.97083	-1.2667	-1.7125	-1.2229	210.134	74.511	270.438	275.040	92.178	102.266	365.236	287.447	140.696	246.621	57.659	351.785	318.660	75.890	362.967	323.239	0.0015273	0.00047167	0.00015489	646.77	6.4125e-06	4.0854e-06	1249.6	232.6	5.6975e-06	6.5398e-06	564.47	233.21	84.98	32.669	5.2054e-06	107.71	0.00017382	9.6845e-05	2.7719e-05	590.57	1.0829e-06	1.0826e-06	1147.6	213.98	1.046e-06	1.0552e-06	426.9	213.52	77.136	29.971	1.1069e-06	98.81	69.028	111.989	109.900	35.335	138.963	180.109	35.362	38.712	148.070	166.629	39.876	43.404	42.949	47.300	168.122	46.292	-8191	255	
1450.391	1	1	0	0	0.15831	0.13708	0.12199	0.16213	0.073884	0.27469	0.24276	0.29484	0.11692	0.072692	0.19644	0.25546	0.19268	0.36568	0.14159	0.14832	-1.1917	-1.3021	-0.83125	-1.9312	-1.0479	-0.92292	-1.9375	-0.9875	-1.4813	-1.5875	-0.69792	-1.7479	-1.1771	-1.1417	-1.7042	-0.99375	50.269	232.131	204.303	271.263	194.833	338.161	94.691	55.770	310.653	223.110	320.693	309.698	306.895	374.652	174.180	293.810	0.001517	0.00055841	0.00016849	645.63	9.1236e-06	5.611e-06	1259.5	235.74	5.029e-06	7.337e-06	570.16	235.68	86.057	33.108	8.1641e-06	108.83	0.00017859	9.8224e-05	2.8519e-05	594.8	1.1337e-06	1.0811e-06	1156.5	216.69	1.1447e-06	1.0726e-06	430.67	215.86	78.186	30.396	1.136e-06	99.963	66.322	93.010	128.472	35.267	150.579	165.124	35.486	39.191	127.034	190.763	38.746	43.194	43.025	46.790	141.561	46.611	-8191	255	
1450.486	1	1	0	0	0.16141	0.093681	0.10072	0.14987	0.14622	0.28337	0.27995	0.25918	0.10968	0.083595	0.16586	0.19009	0.19393	0.11528	0.14479	0.17987	-0.87917	-1.4729	-0.71875	-1.7146	-1.1521	-1.1167	-1.9062	-0.94167	-1.2437	-1.6896	-0.88125	-1.6792	-1.3875	-0.81667	-1.6896	-1.2833	260.065	371.236	82.604	294.209	207.840	148.188	289.661	370.390	135.131	77.094	57.012	332.943	367.457	358.454	237.272	329.068	0.0016107	0.00070533	0.0001939	653.16	5.2686e-06	3.6084e-06	1257.3	236.27	9.5586e-06	5.1859e-06	562.09	232.97	84.339	32.738	6.4517e-06	107.36	0.00017555	0.00010166	2.834e-05	596.44	1.1079e-06	1.0695e-06	1151.4	216.18	1.1509e-06	1.0651e-06	427.24	213.78	77.073	29.959	1.0435e-06	98.415	67.750	95.376	112.744	35.099	108.523	174.666	35.448	38.669	172.825	195.353	38.868	43.431	43.138	46.969	136.286	46.463	-8191	255	
1450.582	1	1	0	0	0.065824	0.27625	0.13544	0.12111	0.16655	0.070286	0.15848	0.23944	0.23253	0.094194	0.12129	0.24654	0.11303	0.10736	0.16379	0.14818	-0.675	-1.7812	-0.8125	-1.525	-1.2354	-0.84375	-1.9479	-1.0958	-1.2708	-1.8312	-0.76458	-1.4312	-1.5417	-0.81458	-1.5208	-1.4354	369.509	235.761	147.712	136.409	125.018	154.739	110.735	211.974	290.784	161.265	227.224	331.262	291.730	27.414	182.800	321.157	0.0016247	0.00067475	0.00017862	648.35	6.0797e-06	7.3294e-06	1260	234.08	5.6562e-06	6.8968e-06	552.32	232.77	84.977	32.838	4.382e-06	106.69	0.00018022	0.00010076	2.7188e-05	593.26	1.0967e-06	1.0919e-06	1148.6	214.48	1.1379e-06	1.0401e-06	424.84	212.88	77.03	30.035	1.0994e-06	98.425	69.905	110.028	120.458	35.194	131.624	171.003	35.321	38.868	165.653	168.313	38.578	43.319	42.582	46.883	144.604	46.597	-8191	255	
1450.678	1	1	0	0	0.18354	0.13156	0.15412	0.098867	0.17262	0.25009	0.14626	0.19799	0.35996	0.10134	0.18247	0.14728	0.12463	0.080352	0.2144	0.31966	-0.46875	-1.6625	-0.89792	-1.475	-1.5312	-0.63958	-1.7979	-1.4083	-1.0104	-1.7333	-0.98333	-1.5083	-1.45	-0.775	-1.5333	-1.4292	258.796	61.362	174.098	150.658	341.563	42.096	271.110	238.447	43.774	40.946	91.980	349.599	262.380	355.658	369.880	37.312	0.0016133	0.00075113	0.00013336	645.63	5.3377e-06	9.5104e-06	1255.6	233.74	7.8606e-06	8.0711e-06	550.42	233	85.257	32.794	6.6439e-06	108.03	0.00018301	9.8394e-05	2.7564e-05	591.45	1.1376e-06	1.1098e-06	1149.2	214.75	1.1722e-06	1.0055e-06	424.85	213.95	77.547	30.196	1.1285e-06	99.29	66.860	110.303	123.418	35.520	172.117	168.290	35.597	38.938	138.088	184.298	39.095	43.192	43.085	47.060	178.952	46.696	-8191	255	
1450.774	1	1	0	0	0.089327	0.075452	0.15311	0.15102	0.1716	0.28637	0.1866	0.2747	0.24588	0.25735	0.078269	0.43038	0.20401	0.13433	0.1206	0.47285	-0.5125	-1.6521	-0.95208	-1.3604	-1.6771	-0.9375	-1.7896	-1.4083	-1.15	-1.8542	-1.0583	-1.4	-1.7938	-0.94792	-1.6542	-1.4646	147.555	182.544	113.295	66.798	295.362	367.158	100.019	325.124	122.564	56.145	130.464	341.692	67.807	334.014	24.278	298.296	0.0016112	0.00076176	0.00010325	648.77	4.2139e-06	6.7208e-06	1244.7	233.55	9.4066e-06	5.1601e-06	560.3	231.67	84.55	32.407	3.891e-06	105.79	0.00018249	9.2042e-05	2.9064e-05	593.06	1.1058e-06	1.0535e-06	1145.9	213.89	1.1095e-06	1.0152e-06	425.72	212.51	76.75	29.735	1.1015e-06	97.555	66.933	130.982	64.274	35.298	167.214	199.385	35.751	39.183	157.822	166.652	39.129	43.596	42.868	46.850	154.022	46.356	-8191	255	
1450.870	1	1	0	0	0.11534	0.16756	0.31838	0.30616	0.11499	0.026482	0.21499	0.068087	0.085203	0.32424	0.30202	0.26381	0.21337	0.30421	0.31483	0.22359	-0.55	-1.7354	-1.1396	-1.2646	-1.7042	-0.81042	-1.5042	-1.6063	-1.0187	-1.9604	-1.2146	-1.2062	-1.6354	-0.97292	-1.2125	-1.6604	90.154	151.783	226.209	274.103	55.238	256.331	343.327	296.757	380.406	101.287	330.666	367.820	87.854	57.801	344.234	336.195	0.0015441	0.0003317	0.00015635	638.03	5.9013e-06	7.4026e-06	1245.8	228.93	7.6148e-06	4.9519e-06	554.46	229.97	83.896	32.188	7.5671e-06	104.95	0.00017495	9.7304e-05	2.792e-05	585.53	1.1053e-06	1.0081e-06	1139	211.45	1.1019e-06	1.0329e-06	420.86	210.96	76.325	29.532	1.1449e-06	97.076	69.234	112.972	132.747	35.239	132.726	148.257	35.433	38.760	157.688	200.924	38.905	43.512	43.139	46.594	160.845	46.609	-8191	255	
1450.966	1	1	0	0	0.23038	0.030255	0.085882	0.19818	0.14027	0.25627	0.1413	0.19761	0.27907	0.10784	0.18408	0.41805	0.54395	0.022139	0.12585	0.34315	-0.42917	-1.7479	-1.2	-0.93542	-1.6812	-1.0104	-1.4292	-1.7146	-0.67292	-1.7917	-1.2917	-1.0583	-1.6812	-0.94583	-1.1354	-1.8917	125.507	261.151	86.766	88.184	29.831	109.065	365.454	197.841	47.608	237.027	189.667	22.950	369.015	108.836	107.909	300.240	0.001429	0.00055252	0.00019841	642.68	7.4724e-06	7.6402e-06	1241.2	230.89	7.1271e-06	6.9598e-06	546.1	230.28	83.639	32.484	6.9024e-06	106.21	0.00017367	9.244e-05	2.6756e-05	587.44	1.0971e-06	1.0492e-06	1140.7	212.51	1.1074e-06	1.0669e-06	423.21	211.69	76.492	29.754	1.1286e-06	97.748	68.404	103.323	118.083	35.226	160.717	161.490	35.655	39.020	152.282	208.011	39.763	43.280	42.891	46.850	172.801	46.567	-8191	255	
1451.063	1	1	0	0	0.15735	0.13868	0.30809	0.074951	0.16606	0.15196	0.15263	0.23309	0.1756	0.076846	0.086374	0.27006	0.21116	0.18933	0.1904	0.18443	-0.36667	-1.5521	-1.1521	-1.0792	-1.7521	-0.95625	-1.4458	-1.5229	-0.71458	-1.4042	-1.4354	-1.0042	-1.725	-1.0833	-0.91667	-1.8375	41.231	346.274	346.926	115.800	96.184	296.277	23.637	371.575	139.860	279.538	255.055	310.430	314.516	81.525	271.882	38.097	0.0014739	0.00045757	0.00016911	639.84	1.0171e-05	4.2811e-06	1244.6	233.81	7.2967e-06	3.4426e-06	562.2	229.98	84.587	32.264	2.9388e-06	105.89	0.00017245	9.6629e-05	2.8082e-05	586.97	1.0662e-06	1.0664e-06	1142.6	213.89	1.1366e-06	1.0702e-06	427.02	211.57	76.949	29.703	1.1072e-06	97.536	74.284	116.931	123.540	35.216	129.012	182.198	35.623	39.122	155.978	246.379	38.412	43.132	43.136	46.675	164.118	46.464	-8191	255	
1451.159	1	1	0	0	0.032507	0.090229	0.13426	0.33467	0.21086	0.25346	0.28003	0.16271	0.20154	0.17032	0.19956	0.2434	0.2367	0.2994	0.25738	0.164	-0.4625	-1.5	-1.4708	-0.95625	-1.6771	-1.0083	-1.1125	-1.8354	-0.87917	-1.3813	-1.6354	-0.96042	-1.5604	-1.3854	-0.90417	-2.0542	80.704	58.281	95.487	289.150	215.062	307.456	32.672	380.315	369.962	206.360	349.187	313.738	97.382	172.751	283.248	45.909	0.0015155	0.00053191	0.0001817	637.61	6.6538e-06	6.5049e-06	1238.4	230.68	5.666e-06	2.1513e-06	552.61	228.83	84.524	31.879	6.5739e-06	104.87	0.00017453	9.9972e-05	2.7654e-05	583.66	1.0516e-06	1.0889e-06	1136.7	211.51	1.1169e-06	1.0652e-06	422.77	210.16	76.431	29.28	1.1098e-06	96.88	73.300	107.449	84.150	35.351	160.104	186.621	35.828	39.030	120.049	237.928	38.732	43.081	43.266	47.190	131.521	46.546	-8191	255	
1451.279	1	1	0	0	0.27369	0.15142	0.17087	0.23675	0.47852	0.15662	0.26382	0.089446	0.087458	0.42125	0.087858	0.22495	0.060082	0.077757	0.10937	0.42507	-0.37917	-1.2854	-1.5792	-0.91042	-1.5021	-1.1708	-0.95833	-1.5729	-0.74375	-1.1688	-1.7521	-0.825	-1.675	-1.5104	-0.9	-2.0875	90.133	346.698	355.207	275.516	88.742	103.144	319.382	323.134	337.634	215.997	53.310	340.385	148.423	151.780	363.155	320.529	0.0015652	0.00064608	0.00017592	635.64	5.0453e-06	2.8542e-06	1227.9	229.53	6.0282e-06	9.2244e-06	563.18	230.43	83.951	32.142	4.5124e-06	106.51	0.00018337	0.00010306	2.694e-05	582.85	1.0822e-06	1.0735e-06	1131	210.88	1.123e-06	1.0937e-06	422.9	211.03	76.218	29.546	1.1302e-06	97.72	68.658	127.620	99.379	34.989	139.298	160.313	35.844	39.106	161.484	199.261	39.090	42.999	43.062	47.289	162.724	46.569	-8191	255	
1451.376	1	1	0	0	0.182	0.25684	0.20315	0.29647	0.30529	0.12274	0.16391	0.31062	0.13838	0.11893	0.039828	0.042107	0.20974	0.33354	0.096894	0.39348	-0.58958	-1.0521	-1.6187	-1.0125	-1.4562	-1.3	-1.0292	-1.8625	-1.0708	-1.125	-1.6833	-0.93542	-1.5646	-1.7083	-0.80417	-1.9146	321.996	158.370	294.458	81.008	35.576	30.324	24.899	296.472	150.838	211.249	207.526	247.791	276.635	334.996	141.319	315.491	0.0015211	0.00046553	0.00023342	639.1	1.0811e-05	8.6125e-06	1237	231.31	5.188e-06	7.5056e-06	553.46	232.04	84.753	32.454	3.3779e-06	106.81	0.00017911	0.00010504	2.7814e-05	582.51	1.1313e-06	1.0968e-06	1136.2	212.63	1.1478e-06	1.1256e-06	423.09	212.67	77.135	29.842	1.0688e-06	98.112	70.538	107.976	122.973	35.242	148.780	178.783	35.813	39.230	162.058	203.866	38.603	43.301	43.497	46.712	133.605	46.837	-8191	255	
1451.472	1	1	0	0	0.083788	0.30882	0.44628	0.11858	0.063041	0.14604	0.26308	0.082626	0.17154	0.17843	0.13468	0.17348	0.066952	0.15958	0.25589	0.26215	-0.79792	-0.94167	-1.7021	-0.97917	-1.3208	-1.5583	-0.975	-1.7896	-1.1896	-1.0771	-1.6125	-1.0771	-1.2542	-1.7313	-0.7	-1.9937	346.345	92.463	91.758	340.981	112.463	99.419	301.269	363.755	49.259	298.805	141.303	380.957	275.000	341.369	167.510	326.528	0.0015218	0.00060854	0.0002104	642.09	4.4098e-06	5.1803e-06	1235.1	230.56	7.2747e-06	2.0111e-06	552.14	229.99	83.674	32.254	9.3398e-06	105.75	0.00018516	0.00010108	2.5225e-05	584.57	1.1727e-06	1.081e-06	1135.8	211.5	1.1328e-06	1.0708e-06	423.49	211.13	76.271	29.546	1.111e-06	97.292	70.252	110.479	127.179	35.156	184.699	188.835	35.494	39.241	179.927	185.140	38.420	42.942	43.057	46.735	148.560	46.671	-8191	255	
1451.566	1	1	0	0	0.11989	0.18719	0.022366	0.35422	0.065996	0.2702	0.023503	0.13217	0.16241	0.14108	0.23777	0.12535	0.30968	0.17244	0.23878	0.2292	-0.825	-1.0292	-1.7271	-0.98333	-1.1812	-1.4188	-1.0146	-1.6875	-1.4333	-0.9875	-1.6958	-1.275	-1.15	-1.7313	-0.88125	-1.7271	85.296	308.685	332.115	267.611	233.510	258.374	377.444	273.025	351.812	305.553	132.683	323.438	351.061	244.235	53.352	327.270	0.0015083	0.00070101	0.00015557	634.96	6.7797e-06	5.7855e-06	1230	228.9	6.1376e-06	5.7414e-06	563.58	229.38	83.702	31.966	5.5152e-06	106.46	0.00018122	0.00010162	2.7779e-05	582.16	1.1186e-06	1.0559e-06	1132	210.4	1.1463e-06	1.0742e-06	423.84	210.75	76.217	29.461	1.1272e-06	97.687	66.990	116.410	139.783	34.942	148.290	162.834	35.514	38.759	158.271	184.346	39.669	43.204	43.453	46.834	169.509	46.557	-8191	255	
1451.662	1	1	0	0	0.26834	0.14252	0.043555	0.50099	0.31692	0.15134	0.30295	0.25148	0.11952	0.19308	0.3205	0.44483	0.18233	0.28555	0.20888	0.42981	-0.975	-0.74792	-1.5667	-1.2292	-1.0667	-1.7729	-1.0646	-1.4917	-1.3771	-0.63333	-1.8333	-1.4854	-0.91875	-1.8125	-0.94375	-1.7125	72.737	169.754	237.320	370.481	349.692	363.556	278.155	287.690	149.169	202.423	21.425	333.716	98.459	364.717	96.531	307.989	0.0015133	0.00032349	8.3962e-05	641.47	7.7927e-06	5.1103e-06	1235.2	231.12	5.7467e-06	8.3343e-06	573.85	230.76	83.965	32.746	6.2219e-06	106.84	0.00017545	9.4818e-05	2.7268e-05	585.04	1.1078e-06	1.0318e-06	1137.7	212.4	1.1497e-06	1.0636e-06	429.1	212.49	76.898	29.963	1.124e-06	98.667	65.407	116.328	100.755	35.344	150.587	182.326	35.687	38.820	162.477	194.261	39.655	43.273	43.110	46.818	141.018	46.905	-8191	255	
1451.758	1	1	0	0	0.027807	0.20284	0.172	0.24177	0.10379	0.080299	0.25618	0.026708	0.069954	0.085324	0.17789	0.091163	0.15806	0.19737	0.068062	0.42185	-0.96875	-0.71875	-1.5271	-1.3375	-0.8375	-1.5896	-0.96667	-1.3104	-1.5562	-0.89792	-1.65	-1.4271	-1.0021	-1.7958	-0.9875	-1.4688	49.769	333.395	320.597	232.900	333.803	92.269	27.000	341.533	25.287	56.634	380.622	345.782	336.391	233.886	273.169	337.180	0.0015848	0.000526	0.00017723	636.97	5.2164e-06	3.2002e-06	1247.7	232.46	4.4057e-06	6.5106e-06	557.46	229.89	83.583	32.063	6.0931e-06	106.19	0.00018458	9.8076e-05	2.7206e-05	585.52	1.1235e-06	1.0428e-06	1142.4	212.51	1.0851e-06	1.0776e-06	425.1	211.51	76.391	29.567	1.135e-06	97.422	65.656	126.731	119.228	35.029	164.042	190.289	35.718	39.075	175.409	174.851	38.757	42.972	43.491	46.802	160.738	46.849	-8191	255	
1451.879	1	1	0	0	0.081017	0.32996	0.16829	0.013206	0.1134	0.38329	0.16037	0.058199	0.32812	0.2235	0.18924	0.10165	0.28115	0.064347	0.12098	0.3406	-1.2646	-0.67708	-1.5938	-1.4958	-0.87917	-1.7104	-1.0646	-1.25	-1.6063	-0.75833	-1.4417	-1.8125	-0.88333	-1.9354	-1.0312	-1.2	168.078	107.060	128.395	181.718	50.371	36.138	362.104	239.901	362.314	245.872	234.989	340.919	290.801	110.674	144.391	351.371	0.0015621	0.00039307	0.00011137	636.5	5.0797e-06	5.1058e-06	1233.9	229.67	4.5288e-06	9.744e-06	557.49	230.59	84.522	32.084	4.5077e-06	106.42	0.0001784	9.9138e-05	2.7293e-05	583.4	1.1118e-06	1.03e-06	1133.4	210.92	1.0588e-06	1.0772e-06	423.11	211.32	76.64	29.552	1.1195e-06	97.876	69.666	114.281	134.213	34.967	146.204	175.514	35.524	39.083	179.406	183.691	37.933	42.891	43.397	46.967	165.615	46.637	-8191	255	
1451.975	1	1	0	0	0.22529	0.057605	0.073142	0.055037	0.039897	0.19152	0.28854	0.28373	0.1222	0.10765	0.10736	0.19139	0.10341	0.17791	0.39366	0.50529	-1.3917	-0.8	-1.3375	-1.4854	-0.8125	-1.5833	-1.4021	-1.0104	-1.65	-0.84792	-1.3375	-1.7938	-0.79583	-1.7521	-1.2625	-1.2125	212.716	324.795	304.698	36.784	168.817	85.929	368.526	22.124	313.462	136.661	336.426	24.594	190.477	182.268	137.073	336.268	0.0015477	0.00048405	6.9909e-05	638.37	6.8052e-06	3.5454e-06	1246	231.23	6.3902e-06	7.915e-06	564.91	231.96	84.88	32.564	4.8024e-06	107.46	0.00017515	9.7934e-05	2.8677e-05	586.12	1.1017e-06	1.0754e-06	1143.1	212.36	1.0767e-06	1.0658e-06	428.47	212.6	77.044	29.96	1.1432e-06	99.022	69.323	124.092	86.741	34.780	157.877	194.873	35.634	39.082	163.601	185.043	38.768	43.313	43.200	47.200	157.154	46.700	-8191	255	
1452.071	1	1	0	0	0.1088	0.17168	0.12578	0.2331	0.24865	0.28028	0.29703	0.088649	0.18754	0.19754	0.23656	0.15505	0.07669	0.26868	0.10942	0.088958	-1.2625	-0.72292	-1.0812	-1.5333	-0.70833	-1.5604	-1.4771	-0.93125	-1.5896	-0.98542	-1.2417	-1.6896	-0.70833	-1.6042	-1.3854	-1.2333	266.592	57.382	363.457	117.047	25.357	301.285	354.890	23.021	174.269	196.198	333.976	21.779	125.863	370.863	281.462	192.923	0.0015909	0.00068967	0.00019137	641.01	4.4982e-06	6.4962e-06	1254.8	234.13	6.4678e-06	4.2482e-06	565.91	232.3	84.685	32.363	6.7521e-06	106.62	0.00017325	0.00010349	2.7838e-05	588.91	1.0766e-06	1.0868e-06	1148.7	214.16	1.0511e-06	1.0836e-06	430.55	213.05	77.021	29.803	1.0622e-06	98.193	67.355	129.383	86.077	35.089	142.057	137.893	35.384	38.823	170.575	161.934	38.770	43.234	42.903	46.832	166.560	46.752	-8191	255	
1452.167	1	1	0	0	0.042294	0.14365	0.088882	0.27672	0.10543	0.18483	0.53598	0.36892	0.038151	0.27448	0.22241	0.29171	0.13152	0.3608	0.12175	0.32608	-1.2667	-0.975	-1.1333	-1.7	-0.9	-1.5312	-1.5187	-0.9125	-1.6625	-1.1521	-1.1625	-1.7979	-0.86667	-1.5875	-1.6271	-1.1938	105.876	210.554	277.921	378.481	174.697	117.098	363.017	248.609	329.242	78.224	143.819	328.066	220.538	357.338	114.680	347.644	0.0015686	0.00036474	0.00023996	644.83	4.2068e-06	4.011e-06	1249.3	231.78	4.6893e-06	7.0642e-06	551.49	229.64	84.02	32.041	6.9323e-06	106.04	0.00017439	9.966e-05	2.7938e-05	590.25	1.1013e-06	1.0535e-06	1143	213	1.128e-06	1.0912e-06	421.95	211.31	76.445	29.536	1.1086e-06	97.668	70.338	153.448	123.357	34.938	113.708	196.046	35.558	39.348	136.957	173.819	39.745	43.314	43.200	47.019	160.428	46.455	-8191	255	
1452.264	1	1	0	0	0.11934	0.2022	0.028148	0.03339	0.10323	0.018706	0.44897	0.14399	0.15172	0.29587	0.064611	0.56005	0.1842	0.135	0.34461	0.3818	-1.2333	-1.0812	-0.97083	-1.8104	-0.90417	-1.475	-1.6812	-0.78542	-1.6125	-1.2083	-1.0688	-1.8125	-1.0958	-1.4062	-1.4292	-0.92083	297.346	313.050	123.776	123.336	373.818	100.605	309.492	198.683	333.691	81.163	239.933	321.113	148.345	351.432	129.937	329.288	0.0015079	0.00049617	0.00013652	638.05	7.2033e-06	6.15e-06	1242.4	229.36	3.9215e-06	6.2361e-06	558.64	229.79	83.051	32.282	3.814e-06	106.57	0.0001762	0.00010481	2.7248e-05	583.87	1.1534e-06	1.1186e-06	1138.1	210.63	1.1239e-06	1.0927e-06	424.62	211.39	76.073	29.668	1.0537e-06	98.108	67.330	95.280	121.411	35.220	139.764	159.502	35.360	38.928	140.777	186.704	39.626	43.016	42.697	46.885	165.898	46.671	-8191	255	
1452.360	1	1	0	0	0.29825	0.09548	0.2042	0.2955	0.099953	0.34396	0.25566	0.047639	0.098258	0.23388	0.11072	0.31749	0.11642	0.16469	0.082995	0.32069	-1.2146	-1.1229	-0.75417	-1.6625	-0.81042	-1.1375	-1.7271	-1.0479	-1.4312	-1.3042	-0.82917	-1.9104	-1.2625	-1.1938	-1.7729	-1.1375	300.770	138.727	293.180	320.499	130.188	264.002	373.988	211.225	109.607	87.385	320.832	321.049	43.466	360.885	183.747	340.759	0.0015655	0.00048621	0.00019563	637.34	7.5386e-06	5.5445e-06	1236.6	231.89	5.7302e-06	6.9997e-06	545.96	230.07	83.715	32.259	3.766e-06	106.36	0.00018275	0.00010192	2.7665e-05	585.19	1.1204e-06	1.14e-06	1137.8	212.05	1.1905e-06	1.0872e-06	421.07	211.56	76.263	29.63	1.0827e-06	97.692	65.968	164.933	121.616	35.400	170.999	216.876	35.359	38.744	185.244	183.199	39.453	43.484	43.317	47.069	154.935	46.501	-8191	255	
1452.454	1	1	0	0	0.15643	0.20611	0.14697	0.1468	0.060773	0.028184	0.23122	0.23285	0.28751	0.23145	0.040874	0.2251	0.11855	0.21996	0.25159	0.11547	-0.9875	-1.4646	-0.76042	-1.7563	-1.0875	-1.0562	-1.85	-0.96458	-1.1479	-1.5229	-0.875	-1.8625	-1.225	-1.0229	-1.7625	-1.0229	272.018	365.652	282.037	321.620	72.912	350.408	360.989	345.439	295.077	57.782	345.838	376.530	335.753	70.133	226.425	350.682	0.001513	0.00043368	0.00015977	633.15	6.5727e-06	7.4582e-06	1233.1	228.02	7.4439e-06	8.6773e-06	535.98	226.8	82.163	31.573	5.0469e-06	104.91	0.00018214	0.00010317	2.7607e-05	580.82	1.1271e-06	1.0697e-06	1129.6	209.38	1.1318e-06	1.0309e-06	412.77	208.33	75.07	29.112	1.131e-06	96.305	67.178	106.205	127.845	35.331	139.299	148.067	35.581	39.117	165.640	196.885	38.364	43.250	42.934	47.056	159.139	46.532	-8191	255	
1452.575	1	1	0	0	0.1434	0.41899	0.22069	0.051701	0.055065	0.11159	0.29315	0.29501	0.0078615	0.23866	0.096476	0.087345	0.12074	0.27913	0.186	0.30726	-1.0312	-1.6104	-0.79792	-1.7979	-1.3208	-0.85833	-1.9729	-1.0771	-1.1167	-1.7479	-0.87917	-1.8438	-1.4375	-1.1042	-1.6854	-1.2833	356.543	193.052	52.088	263.453	58.577	290.177	226.263	322.117	280.576	212.941	59.626	353.579	68.564	365.844	370.314	363.311	0.0015977	0.0005562	0.00017816	632.51	8.2988e-06	2.3365e-06	1222.5	227.18	6.0259e-06	5.8681e-06	555.03	228.31	82.686	31.985	9.5683e-06	106.17	0.00017668	9.8088e-05	2.8446e-05	577.71	1.1372e-06	1.1171e-06	1123.8	208.05	1.1989e-06	1.0727e-06	421.62	209.85	75.599	29.294	1.151e-06	97.297	65.135	122.136	134.415	35.188	158.047	188.517	35.602	38.720	172.887	212.704	38.034	43.272	42.897	47.050	128.166	46.714	-8191	255	
1452.671	1	1	0	0	0.22102	0.10821	0.033122	0.28066	0.14051	0.16208	0.30518	0.39389	0.17901	0.093135	0.11061	0.27227	0.086975	0.1226	0.19587	0.44907	-0.69375	-1.6729	-0.77292	-1.7521	-1.3833	-0.94167	-1.9562	-1.25	-1.1063	-1.85	-0.97083	-1.6896	-1.2854	-0.97708	-1.85	-1.3708	244.036	153.421	168.609	351.878	348.613	361.379	335.426	278.089	309.557	207.961	168.069	321.650	316.007	338.841	177.897	356.710	0.0015787	0.00059971	0.00018031	647.18	5.8215e-06	6.4622e-06	1257.6	238.09	5.1255e-06	8.7276e-06	586.18	235.22	86.108	32.799	4.1599e-06	107.19	0.00018196	9.6033e-05	2.8112e-05	592.22	1.0769e-06	9.9958e-07	1154.4	219.01	1.1488e-06	1.029e-06	434.53	215.37	78.358	30.154	1.0702e-06	98.513	67.417	120.536	103.994	35.067	134.627	176.259	35.903	38.815	157.022	169.431	38.893	43.515	42.841	46.978	159.076	46.467	-8191	255	
1452.743	1	1	0	0	0.19678	0.26604	0.058143	0.1747	0.22738	0.20262	0.2257	0.17546	0.074349	0.11185	0.26256	0.27297	0.24832	0.37154	0.15621	0.22114	-0.50417	-1.7542	-0.92917	-1.6271	-1.4396	-0.725	-1.9583	-1.4125	-0.96042	-1.6792	-1.0729	-1.4604	-1.7583	-0.9	-1.5771	-1.4396	363.103	230.080	356.000	254.856	334.935	235.319	23.283	322.712	100.575	77.448	139.957	326.138	48.908	366.421	176.273	35.540	0.0014621	0.00067345	0.0001579	665.15	5.4841e-06	5.8404e-06	1266.3	236.47	3.8386e-06	6.9738e-06	567.67	228.83	83.114	32.053	5.1158e-06	104.91	0.00017603	9.7571e-05	2.7995e-05	606.55	1.0733e-06	1.067e-06	1158	216.71	1.0813e-06	1.0674e-06	428.53	210.02	75.907	29.443	1.0711e-06	96.723	67.055	115.415	102.175	35.127	153.952	178.867	35.994	39.161	127.993	192.218	39.912	43.258	43.113	47.211	134.585	46.472	-8191	255	
1452.839	1	1	0	0	0.25115	0.17928	0.098326	0.25588	0.091221	0.086824	0.22874	0.25563	0.17793	0.15931	0.29877	0.39402	0.13326	0.34824	0.22241	0.19517	-0.37708	-1.6063	-0.90625	-1.2875	-1.7854	-0.83125	-1.7083	-1.5812	-0.91875	-1.6979	-1.0333	-1.2563	-1.7646	-0.75	-1.5875	-1.6125	361.814	236.064	211.150	75.802	263.668	92.100	234.736	310.726	152.723	253.161	278.172	312.741	306.900	22.750	344.792	367.238	0.0015596	0.00058167	0.00021409	643.32	4.9893e-06	6.9799e-06	1236.6	231.33	8.3021e-06	6.2785e-06	541.98	228.62	83.826	31.827	6.5499e-06	105.89	0.0001757	9.781e-05	3.0171e-05	587.99	1.0745e-06	1.0878e-06	1137.7	211.51	1.1392e-06	1.0919e-06	415.99	209.8	75.875	29.428	1.1491e-06	97.422	66.869	107.504	119.296	35.590	144.567	180.686	35.616	38.854	147.977	168.585	39.382	43.337	42.967	47.044	149.184	46.646	-8191	255	
1452.959	1	1	0	0	0.33496	0.17911	0.078585	0.24599	0.066942	0.036219	0.54014	0.10451	0.2009	0.32316	0.084536	0.4442	0.1946	0.30081	0.052748	0.23104	-0.525	-1.7188	-0.94375	-1.1958	-1.6292	-0.7625	-1.7521	-1.575	-0.90417	-1.4813	-1.3417	-1.275	-1.7	-0.95208	-1.4167	-1.9375	262.350	51.829	138.770	310.313	222.869	356.850	329.352	224.889	369.844	267.681	191.100	360.586	277.963	23.915	276.144	363.634	0.0017183	0.00061053	0.00015864	654.51	7.5061e-06	6.6542e-06	1266.6	237.46	8.0061e-06	8.7843e-06	561.9	232.29	85.182	32.663	6.516e-06	107.06	0.00018135	9.8553e-05	2.8689e-05	600.45	1.0647e-06	1.1292e-06	1157.7	217.28	1.1227e-06	1.0916e-06	427.92	213.24	77.768	30.053	1.0678e-06	98.497	66.143	128.835	123.248	35.137	145.391	178.484	35.725	38.971	153.919	188.957	38.544	43.248	42.787	47.115	137.186	46.632	-8191	255	
1453.056	1	1	0	0	0.10418	0.34787	0.1506	0.20459	0.17128	0.08741	0.28085	0.20116	0.050404	0.22533	0.14544	0.43149	0.049088	0.28594	0.02195	0.14881	-0.38125	-1.6313	-1.1187	-1.0187	-1.7708	-0.85208	-1.4688	-1.7	-0.81042	-1.6396	-1.4062	-1.1292	-1.7667	-1.0688	-1.1708	-1.7062	311.369	138.590	24.194	315.182	143.627	198.129	352.809	357.837	63.576	68.060	103.904	298.667	217.883	327.592	369.361	33.701	0.0015485	0.00034781	0.00014889	654.21	5.7657e-06	6.138e-06	1264.1	236.71	4.4802e-06	3.8122e-06	564.67	231.63	85.854	32.542	6.7484e-06	106.19	0.00017699	0.00010362	2.831e-05	602.29	1.061e-06	1.0318e-06	1156.9	217.84	1.1329e-06	1.0376e-06	427.35	212.62	77.863	29.909	1.0542e-06	97.549	68.531	102.225	111.576	35.434	149.013	184.455	35.612	38.966	168.299	185.574	38.821	43.508	42.840	47.122	135.602	46.538	-8191	255	
1453.152	1	1	0	0	0.32655	0.1666	0.099648	0.24144	0.065263	0.045927	0.15159	0.14224	0.10088	0.21108	0.051805	0.22803	0.19516	0.35532	0.19428	0.35108	-0.45	-1.4875	-1.3375	-0.83542	-1.8146	-1.1021	-1.2646	-1.7604	-0.87292	-1.5562	-1.3	-0.85625	-1.7687	-1.1354	-1.0583	-1.8125	200.325	271.848	257.355	332.844	326.759	84.399	312.500	375.807	334.628	276.756	322.566	328.138	100.417	32.425	350.360	289.559	0.0016139	0.00051753	0.00021322	653.72	5.4587e-06	4.2524e-06	1255.9	238.29	5.8955e-06	8.6826e-06	565.57	231.27	85.398	32.413	5.7081e-06	106.01	0.00018409	9.4835e-05	2.6881e-05	597.15	1.0534e-06	1.0614e-06	1153.2	218.14	1.0844e-06	1.0401e-06	427.64	212.22	77.597	29.77	1.103e-06	97.701	65.039	106.652	123.381	35.280	155.405	181.758	35.817	38.676	183.946	189.791	39.509	43.515	42.912	46.724	156.515	46.797	-8191	255	
1453.272	1	1	0	0	0.17188	0.26754	0.20483	0.27534	0.10016	0.22837	0.15898	0.17566	0.27376	0.10672	0.24603	0.25216	0.21564	0.33565	0.12932	0.20643	-0.52292	-1.4937	-1.5938	-0.75625	-1.6208	-1.2854	-0.89792	-1.8062	-0.76042	-1.4167	-1.425	-0.9875	-1.525	-1.3042	-1.0042	-1.9438	154.670	194.699	194.707	299.053	53.216	63.163	267.149	230.916	329.217	221.562	174.753	314.125	289.207	310.921	74.571	363.689	0.0015768	0.0005405	0.000135	660.41	5.9076e-06	7.0876e-06	1267.4	239.33	4.6276e-06	7.5207e-06	574.64	232.62	85.785	32.497	7.6004e-06	107.32	0.00017338	9.1753e-05	2.6132e-05	601.51	1.0541e-06	1.0214e-06	1157.8	219.16	1.1043e-06	1.0594e-06	430.08	213.25	78.067	30.002	1.0781e-06	98.629	67.866	118.795	127.390	35.166	115.371	158.785	35.741	39.021	173.658	160.843	39.585	43.219	43.068	47.241	138.526	46.641	-8191	255	
1453.344	1	1	0	0	0.11908	0.23081	0.11235	0.13674	0.26968	0.34302	0.32693	0.23953	0.34677	0.20275	0.11125	0.39879	0.17935	0.10002	0.23197	0.23153	-0.53333	-1.2687	-1.6083	-0.98333	-1.6021	-1.3583	-1.25	-1.7604	-0.91875	-1.4271	-1.6875	-0.93542	-1.8667	-1.6208	-0.68958	-1.8792	75.434	307.895	145.484	92.211	56.558	198.814	94.462	290.218	223.038	52.343	101.333	21.474	47.577	341.920	61.863	352.641	0.0015944	0.0007854	9.8386e-05	653.54	7.1051e-06	5.293e-06	1264.6	238.59	5.7035e-06	5.7875e-06	565.87	231.81	85.631	32.534	6.4654e-06	106.06	0.00017977	9.9081e-05	2.4902e-05	600.32	1.1159e-06	1.0599e-06	1157.4	218.53	1.1603e-06	1.0407e-06	427.45	212.83	77.764	29.835	1.0721e-06	97.81	72.089	105.741	119.842	35.116	159.555	179.628	35.823	39.046	154.344	193.496	39.530	43.420	43.212	47.025	171.067	46.766	-8191	255	
1453.440	1	1	0	0	0.077684	0.14058	0.03612	0.020114	0.23882	0.25108	0.27817	0.22555	0.22063	0.27148	0.12224	0.31982	0.10103	0.15786	0.069456	0.15722	-0.56458	-1.0646	-1.5812	-0.95417	-1.4979	-1.4833	-1.0104	-1.7917	-0.96042	-1.1417	-1.6979	-0.90833	-1.5812	-1.5354	-0.98333	-1.9896	104.853	136.550	99.422	47.797	111.897	269.507	342.022	368.826	74.312	187.152	238.219	23.242	38.896	64.944	115.963	265.062	0.0015529	0.00044214	6.5822e-05	650.49	3.843e-06	2.168e-06	1256.3	233.33	5.1324e-06	6.5741e-06	560.72	229.29	84.717	31.999	3.0702e-06	104.88	0.00017835	9.5437e-05	2.7252e-05	595.67	1.0485e-06	9.6114e-07	1144.6	214.65	1.0799e-06	1.0144e-06	427.08	210.19	76.577	29.487	1.1056e-06	96.909	65.887	90.252	137.910	35.190	153.351	225.477	35.805	38.892	161.728	202.515	39.265	43.164	43.382	46.419	179.896	46.449	-8191	255	
1453.559	1	1	0	0	0.19497	0.053131	0.22405	0.033263	0.17248	0.1924	0.3598	0.12723	0.073099	0.046069	0.20899	0.096306	0.021713	0.26401	0.3026	0.27831	-0.6875	-0.75833	-1.7771	-1.075	-1.2917	-1.5458	-0.96875	-1.7625	-1.0604	-0.9125	-1.75	-1.0625	-1.3979	-1.5375	-0.69375	-1.8292	130.535	299.565	119.676	145.719	369.862	135.946	39.821	181.013	122.828	346.837	82.306	32.448	175.635	84.336	70.432	340.893	0.0014858	0.00051222	0.00010819	650.15	7.7177e-06	4.5673e-06	1251.3	235.68	5.8954e-06	6.221e-06	567.21	230.43	85.051	32.629	3.2874e-06	106.37	0.00017306	9.6737e-05	2.7182e-05	595.49	1.0782e-06	1.0098e-06	1146.3	216.15	1.0897e-06	1.0184e-06	424.78	211.22	77.314	29.833	1.1468e-06	97.803	73.253	104.642	115.238	35.126	174.073	178.835	35.655	38.436	133.942	189.535	39.301	43.348	43.237	47.164	134.677	46.516	-8191	255	
1453.655	1	1	0	0	0.17704	0.075321	0.19665	0.072226	0.13871	0.15882	0.25855	0.024287	0.27588	0.14288	0.16178	0.33191	0.018468	0.08557	0.1994	0.39429	-0.98333	-1.0167	-1.7417	-1.0792	-1.2729	-1.5812	-0.87708	-1.6708	-1.1875	-0.99792	-1.675	-1.0792	-1.0187	-1.7167	-0.94792	-1.7979	254.012	135.525	285.001	259.207	91.913	211.787	336.420	45.588	180.171	45.472	177.536	25.236	283.315	356.880	373.886	289.139	0.0016378	0.00063235	0.00017346	658.91	6.7966e-06	4.3302e-06	1258	240.06	4.9276e-06	7.3777e-06	563.2	233.02	85.16	32.62	6.3264e-06	106.85	0.00017497	9.4404e-05	2.7575e-05	603.49	1.0885e-06	1.0315e-06	1158.5	220.13	1.0821e-06	1.0449e-06	430.47	213.16	77.605	30.009	1.0953e-06	97.991	71.285	110.482	126.614	35.528	162.185	179.579	35.401	39.049	164.997	190.222	39.657	43.044	43.014	47.061	157.383	46.685	-8191	255	
1453.751	1	1	0	0	0.42527	0.17972	0.080647	0.18607	0.36237	0.087773	0.24229	0.17546	0.022652	0.16828	0.10039	0.45917	0.060178	0.30658	0.25254	0.39123	-0.80417	-0.84583	-1.7417	-1.1771	-0.97917	-1.5833	-0.89375	-1.5167	-1.4667	-0.83958	-1.5938	-1.3958	-0.90833	-1.8333	-0.75625	-1.6104	104.654	62.500	47.564	48.687	224.471	114.091	307.065	377.228	272.081	151.206	351.218	38.043	89.849	238.505	89.178	294.199	0.0015893	0.00062286	8.261e-05	652.45	8.4124e-06	6.88e-06	1263.5	236.23	6.8087e-06	7.3597e-06	565.95	229.44	84.216	32.194	7.3905e-06	105.41	0.0001741	9.7781e-05	2.5846e-05	595.55	1.0464e-06	1.0389e-06	1151.2	215.74	1.0147e-06	1.0633e-06	425.75	210.37	76.405	29.522	1.1273e-06	96.895	66.362	123.082	119.005	35.269	151.040	188.743	35.666	38.925	160.715	200.310	38.456	43.024	42.885	47.103	144.310	46.518	-8191	255	
1453.872	1	1	0	0	0.18129	0.18045	0.15776	0.36376	0.21577	0.14099	0.56397	0.33301	0.10312	0.15498	0.17527	0.13343	0.096338	0.32297	0.26903	0.26898	-0.92708	-0.60417	-1.5917	-1.1729	-0.90208	-1.7333	-1.0146	-1.4354	-1.7167	-0.9125	-1.5271	-1.5625	-0.94167	-1.6958	-0.8875	-1.2729	256.790	350.413	340.199	37.014	103.058	108.960	323.815	321.163	261.194	371.071	264.258	121.039	299.655	36.569	131.895	356.717	0.0015345	0.00048879	0.0001501	656.37	9.1202e-06	5.7867e-06	1248.5	235.92	5.4523e-06	6.6636e-06	567.55	230.04	84.42	32.174	4.0532e-06	105.95	0.00017273	9.9422e-05	2.7645e-05	597.46	1.0526e-06	1.087e-06	1148.3	216.24	1.0784e-06	1.0682e-06	427.46	210.8	76.877	29.629	1.082e-06	97.224	69.261	86.064	124.676	34.998	141.589	168.256	35.318	39.259	140.828	160.248	39.335	43.227	43.016	47.013	169.273	46.742	-8191	255	
1453.944	1	1	0	0	0.11393	0.18859	0.27706	0.28236	0.21747	0.31288	0.10632	0.26406	0.050892	0.057141	0.090381	0.12772	0.1203	0.20458	0.11972	0.13964	-1.3479	-0.725	-1.4375	-1.3833	-0.475	-1.6292	-1.325	-1.325	-1.5958	-0.88333	-1.2625	-1.6729	-0.73333	-1.8917	-1.0646	-1.2521	164.196	176.576	358.871	299.580	207.517	234.795	263.427	319.487	158.761	213.812	328.994	380.571	139.685	357.489	312.579	322.693	0.0014027	0.00051314	0.00011535	652.94	9.1082e-06	6.7002e-06	1258.1	237.29	6.1355e-06	4.9914e-06	561.81	231.36	84.795	32.732	4.6185e-06	106.39	0.00016955	9.9359e-05	2.7353e-05	597.9	1.1072e-06	1.0286e-06	1153.4	217.29	1.0436e-06	1.0722e-06	427.54	212.04	77.211	29.927	1.0934e-06	97.836	68.709	117.999	128.382	35.257	140.580	193.712	35.447	39.209	172.086	178.996	39.103	43.053	43.031	46.929	162.730	46.724	-8191	255	
1454.040	1	1	0	0	0.22962	0.26031	0.07928	0.065528	0.17923	0.13617	0.27853	0.077417	0.13582	0.10376	0.29986	0.28484	0.23412	0.31729	0.19048	0.36276	-1.3271	-0.77917	-1.3729	-1.5938	-0.77917	-1.6208	-1.2667	-0.90625	-1.6625	-0.79167	-1.3062	-1.6146	-0.80625	-1.5271	-1.1521	-1.1542	237.903	123.355	63.615	107.097	260.201	80.266	334.853	122.073	223.282	97.564	112.053	344.914	360.845	310.705	145.563	283.098	0.0014976	0.00070191	0.00021753	649.77	5.6419e-06	6.1868e-06	1245.7	234.41	8.4077e-06	6.6369e-06	563.03	230.13	83.891	31.972	5.181e-06	104.92	0.00017165	9.727e-05	2.6344e-05	595.17	1.0794e-06	1.0567e-06	1141.9	214.67	1.0486e-06	1.0549e-06	423.27	210.18	76.258	29.48	1.0471e-06	96.716	68.952	115.460	131.450	35.192	148.757	171.673	35.567	38.731	150.602	207.030	39.772	43.156	42.925	46.979	159.058	46.448	-8191	255	
1454.136	1	1	0	0	0.1307	0.10285	0.28658	0.28616	0.10516	0.15419	0.35876	0.42221	0.29834	0.35958	0.1897	0.22231	0.27584	0.15515	0.20127	0.38623	-1.2563	-0.825	-1.2604	-1.5875	-0.7375	-1.4562	-1.5792	-0.99167	-1.7188	-0.95	-1.0438	-1.8521	-0.79375	-1.4375	-1.3271	-1.0208	33.598	219.662	156.239	23.250	89.396	291.126	337.499	308.557	331.571	297.402	219.702	301.589	69.131	299.909	380.432	309.535	0.0014814	0.00046481	0.00015511	643.95	4.4687e-06	6.9784e-06	1241.4	232.85	6.0442e-06	6.7651e-06	549.31	228.91	83.908	32.066	6.1854e-06	105.91	0.00017186	0.00010065	2.6635e-05	589.94	1.1146e-06	1.1012e-06	1137.9	213.99	1.0824e-06	1.0598e-06	420.74	209.55	76.225	29.449	1.0074e-06	96.986	73.927	127.401	130.290	35.149	131.939	182.905	35.279	38.972	163.559	174.265	39.550	42.965	42.708	46.525	163.376	46.146	-8191	255	
1454.255	1	1	0	0	0.18406	0.19948	0.15352	0.20896	0.051099	0.18095	0.32719	0.38403	0.28172	0.12895	0.27473	0.15646	0.10799	0.10857	0.31733	0.27301	-1.2979	-0.90625	-0.99375	-1.6187	-0.87917	-1.4333	-1.525	-0.91042	-1.9104	-1.0396	-1.1625	-1.9271	-1.0625	-1.5688	-1.3563	-0.97083	113.326	286.750	120.603	97.379	316.892	197.871	297.652	303.093	333.050	293.990	253.626	278.652	114.858	74.435	230.614	358.424	0.0015513	0.00054181	0.00021695	648.98	9.9487e-06	4.3589e-06	1249	234.64	7.9387e-06	7.5364e-06	561.32	231.26	85.024	32.72	6.756e-06	106.88	0.000171	9.5511e-05	2.5653e-05	590.84	1.097e-06	1.0302e-06	1143.4	214.55	1.093e-06	1.0459e-06	423.94	211.67	77.085	29.851	1.0809e-06	98.022	65.192	84.018	111.346	34.725	162.940	160.527	35.369	38.716	140.085	205.406	38.460	42.999	42.661	46.294	165.698	46.449	-8191	255	
1454.351	1	1	0	0	0.07247	0.21057	0.18674	0.33211	0.148	0.081556	0.36354	0.13088	0.065154	0.018938	0.1081	0.15251	0.42738	0.32336	0.15505	0.24095	-1.3458	-1.0208	-0.73542	-1.7521	-0.76875	-1.2625	-1.7417	-0.86875	-1.6521	-1.2604	-0.81667	-1.7083	-1.1479	-1.2375	-1.7979	-0.82708	33.371	256.361	201.031	307.096	27.397	333.945	274.115	248.601	95.567	151.311	293.300	193.035	378.851	311.684	374.179	326.150	0.001513	0.00067671	0.00014792	650.72	2.4341e-06	1.4506e-06	1254.5	235.08	6.6111e-06	6.8632e-06	567.96	231.62	84.476	32.346	5.8699e-06	105.56	0.0001736	9.8672e-05	2.6743e-05	594.59	1.0619e-06	1.001e-06	1147.6	215.22	1.0915e-06	1.0472e-06	428.06	211.71	76.991	29.695	1.0472e-06	97.257	66.821	111.541	117.080	34.828	149.609	363.901	35.396	38.916	166.392	220.325	38.978	42.854	42.505	46.796	161.511	46.454	-8191	255	
1454.447	1	1	0	0	0.038146	0.032905	0.14721	0.1592	0.16059	0.18887	0.31294	0.27827	0.18606	0.22007	0.14452	0.17908	0.20409	0.19558	0.30748	0.17015	-1.0521	-1.2271	-0.84167	-1.9479	-0.99792	-1.1063	-1.7313	-0.72917	-1.6437	-1.5375	-0.84375	-1.7896	-0.90625	-1.0125	-1.7208	-1.175	105.035	155.792	279.644	70.970	160.714	107.008	271.718	313.352	186.544	151.565	127.265	341.133	298.550	258.197	197.920	357.519	0.0016114	0.00040385	0.00012424	645.09	5.7216e-06	5.8444e-06	1250.7	233.19	7.751e-06	4.374e-06	556.26	229.5	83.554	32.139	4.6431e-06	105.03	0.0001758	9.6141e-05	2.7073e-05	590.7	1.0908e-06	1.0398e-06	1143.5	213.71	1.1114e-06	1.0416e-06	425.1	210.51	76.134	29.55	1.0473e-06	96.925	71.038	120.917	97.974	34.922	141.673	193.514	35.655	38.726	180.398	177.246	38.432	42.938	42.727	46.616	141.857	46.315	-8191	255	
1454.543	1	1	0	0	0.21457	0.14062	0.083332	0.087522	0.19	0.15394	0.35466	0.19332	0.22307	0.17407	0.22645	0.083293	0.16901	0.052562	0.04452	0.18543	-0.925	-1.2146	-0.81667	-1.5812	-1.0083	-0.96042	-2.0417	-0.93125	-1.2167	-1.4917	-0.7375	-1.9438	-1.0292	-1.0333	-1.725	-1.1625	68.412	204.943	27.974	242.404	279.645	300.250	367.272	324.869	137.279	287.256	79.086	305.871	118.883	373.583	133.681	361.947	0.0014758	0.00051742	0.0001041	651.5	6.9747e-06	5.9533e-06	1253.4	235.5	7.8187e-06	3.8425e-06	563.42	230.15	83.673	32.562	6.2758e-06	106.51	0.00017279	9.1844e-05	2.9161e-05	594.69	1.0317e-06	1.0453e-06	1147.4	215.71	1.0964e-06	1.0234e-06	423.63	211.45	76.589	29.935	1.0755e-06	98.103	68.708	135.077	78.631	35.026	122.763	188.686	35.631	38.662	136.299	217.747	38.140	42.903	43.201	47.125	121.507	46.138	-8191	255	
1454.639	1	1	0	0	0.096586	0.11765	0.13427	0.17867	0.144	0.23372	0.23008	0.30398	0.19353	0.32124	0.15257	0.34714	0.20841	0.29836	0.069189	0.17081	-0.95	-1.5333	-0.9875	-1.5958	-1.0917	-0.97708	-1.8438	-1.0229	-1.2521	-1.5625	-0.74375	-1.7396	-1.2958	-0.83958	-1.625	-1.125	361.388	348.597	235.393	226.984	316.745	108.781	266.065	326.491	349.953	95.926	268.056	321.498	162.890	77.729	244.236	334.439	0.0014736	0.00076998	6.8968e-05	654.6	6.2657e-06	5.2684e-06	1255.5	236.79	7.2504e-06	5.503e-06	563.89	231.45	84.314	32.587	5.2082e-06	106.68	0.00017231	9.5153e-05	2.7358e-05	597.48	1.0531e-06	1.0253e-06	1152.9	215.97	1.1191e-06	1.0391e-06	426.51	212.55	76.948	29.967	1.1097e-06	97.875	69.502	101.929	81.517	35.071	169.950	168.568	35.264	38.427	142.655	206.882	38.026	43.141	42.814	47.151	129.195	46.297	-8191	255	
1454.736	1	1	0	0	0.030918	0.25426	0.13224	0.27623	0.053317	0.28377	0.17902	0.31269	0.15823	0.091354	0.024469	0.12735	0.1443	0.090364	0.11135	0.208	-0.67292	-1.5958	-0.72292	-1.4417	-1.3	-0.87083	-1.8104	-1.2188	-1.0521	-1.5271	-0.60417	-1.7042	-1.4542	-0.68542	-1.7333	-1.3292	59.795	221.632	228.465	265.576	321.289	115.789	27.273	347.709	325.798	49.517	73.675	338.126	311.766	296.516	169.065	335.105	0.0015801	0.00054836	0.00011436	650.37	5.1866e-06	5.4282e-06	1247.7	233.99	4.4902e-06	5.7368e-06	556.12	227.89	84.189	32.399	8.1121e-06	105.63	0.00017737	9.6674e-05	2.7225e-05	594.87	1.0463e-06	1.1262e-06	1145.6	214.24	1.0866e-06	1.0415e-06	421.97	210.33	76.549	29.656	1.0604e-06	97.327	68.787	127.929	87.809	35.130	137.209	135.359	35.489	38.969	184.446	164.143	38.730	43.052	42.664	46.632	165.700	46.169	-8191	255	
1454.832	1	1	0	0	0.13707	0.11178	0.19255	0.29356	0.47512	0.11133	0.40631	0.31516	0.074843	0.24568	0.11379	0.18082	0.2366	0.26837	0.011644	0.48972	-0.59375	-1.6812	-0.9625	-1.3479	-1.5438	-0.86042	-1.8083	-1.2458	-1.0917	-1.9104	-0.79375	-1.5021	-1.6063	-0.86042	-1.6479	-1.3792	316.299	343.158	46.568	336.740	199.416	315.801	343.069	327.779	161.589	273.392	167.635	329.663	32.036	362.209	249.753	285.085	0.0015416	0.00048734	0.00011864	649.48	4.6627e-06	5.8136e-06	1249.3	234.69	6.8881e-06	8.079e-06	555.88	231.43	84.022	32.546	1.8132e-06	106.51	0.00017165	9.4143e-05	2.6452e-05	593.12	1.051e-06	1.1126e-06	1145.6	214.7	1.112e-06	1.0859e-06	426.03	212.23	76.678	29.857	1.0798e-06	97.979	67.336	106.848	116.752	35.418	163.055	186.142	35.555	38.676	157.569	187.260	39.042	43.066	42.815	46.838	138.836	46.762	-8191	255	
1454.951	1	1	0	0	0.24024	0.35893	0.26918	0.18447	0.055697	0.20873	0.25537	0.30186	0.14703	0.33808	0.24114	0.13456	0.071451	0.44374	0.088485	0.30326	-0.46042	-1.475	-0.88125	-1.2167	-1.5292	-0.63333	-1.7083	-1.2354	-0.79167	-1.5854	-0.8375	-1.5125	-1.7583	-0.88542	-1.4167	-1.6354	65.821	177.769	238.935	227.480	33.505	108.574	275.783	300.566	290.353	306.065	129.163	254.322	321.748	57.876	37.215	303.400	0.0015789	0.00034964	9.325e-05	652.83	6.527e-06	2.2893e-06	1256.9	238.47	7.7887e-06	5.787e-06	558.07	232.08	85.23	32.61	7.5759e-06	107.41	0.00018034	9.3297e-05	2.6444e-05	598.05	1.0966e-06	1.0894e-06	1154.5	216.78	1.1304e-06	1.0504e-06	426.6	213.03	77.452	30.066	1.0594e-06	98.614	72.459	113.658	120.735	35.284	154.738	194.309	35.357	38.505	156.754	212.163	37.806	43.101	42.757	46.899	150.350	46.301	-8191	255	
1455.047	1	1	0	0	0.26714	0.25612	0.09768	0.31419	0.20568	0.1324	0.11853	0.19027	0.31258	0.12827	0.23955	0.35066	0.25714	0.31406	0.17405	0.18225	-0.31042	-1.5312	-1.0417	-1.1	-1.7188	-0.83542	-1.3521	-1.4354	-0.64167	-1.6104	-1.1771	-1.1333	-1.6521	-0.82292	-1.4104	-1.9438	106.116	250.453	48.420	29.195	346.154	21.836	331.324	373.997	88.197	36.432	338.003	373.887	357.170	310.118	218.731	345.914	0.0015949	0.00058718	0.00015904	649.43	6.7186e-06	5.2844e-06	1254.2	234.34	9.9355e-06	4.1983e-06	549.48	230.6	84.19	32.197	6.0648e-06	105.16	0.00017972	9.4148e-05	2.7359e-05	596.01	1.0881e-06	1.0835e-06	1150.8	214.96	1.1203e-06	1.0604e-06	421.95	210.83	76.278	29.487	1.0249e-06	97.045	69.967	105.625	97.485	35.526	141.152	181.660	35.408	38.610	144.040	183.119	39.599	43.091	42.857	46.967	154.059	46.261	-8191	255	
1455.143	1	1	0	0	0.12782	0.13723	0.13232	0.40656	0.099058	0.22905	0.29272	0.2196	0.31613	0.2104	0.23577	0.25574	0.079914	0.08443	0.23601	0.32092	-0.34167	-1.6854	-1.0667	-1.075	-1.6021	-1.1625	-1.3979	-1.775	-0.78333	-1.6292	-1.0604	-1.0875	-1.8875	-0.9125	-1.1854	-1.8521	128.465	58.874	347.788	291.092	374.424	47.558	299.007	22.448	111.835	83.701	344.684	320.210	281.150	322.984	40.808	285.799	0.0014569	0.00057792	0.00019711	644.74	4.3204e-06	3.4098e-06	1249.6	232.46	8.0932e-06	5.555e-06	557.32	229.91	84.68	32.153	6.5934e-06	105.67	0.00017591	9.5726e-05	2.619e-05	592.01	1.0569e-06	1.0392e-06	1146.5	213.61	1.1415e-06	1.0267e-06	423.34	210.75	76.655	29.661	1.0573e-06	97.449	67.478	88.613	88.059	35.444	151.561	183.136	35.432	38.184	151.984	198.787	38.651	43.442	42.722	47.040	135.364	46.289	-8191	255	
1455.239	1	1	0	0	0.17332	0.21281	0.23057	0.059257	0.14167	0.10332	0.24132	0.31224	0.29719	0.04289	0.052864	0.21703	0.15617	0.14904	0.17126	0.141	-0.2625	-1.5375	-1.275	-0.95208	-1.5708	-0.99792	-1.3396	-1.7313	-0.82083	-1.5375	-1.6083	-1.1104	-1.7542	-1.1167	-1.1229	-1.9312	373.689	284.885	213.063	311.608	194.487	301.808	352.424	374.169	208.183	85.296	198.877	259.750	374.661	53.889	237.728	287.372	0.001519	0.00037827	0.00013806	651.9	8.6777e-06	7.3322e-06	1253.5	234.24	5.8704e-06	5.781e-06	565.7	230.73	84.786	32.526	4.9422e-06	106.96	0.00017677	9.0277e-05	2.6353e-05	594.8	1.065e-06	1.0413e-06	1148.2	215.15	1.0836e-06	1.0126e-06	427.68	211.88	76.953	29.956	1.0745e-06	98.555	71.011	128.205	111.183	35.255	137.063	183.463	35.539	38.774	154.987	204.086	39.082	43.110	43.078	46.702	169.590	46.462	-8191	255	
1455.335	1	1	0	0	0.2198	0.10547	0.01517	0.29896	0.13215	0.056886	0.22904	0.31444	0.32745	0.0706	0.10606	0.22398	0.29344	0.26284	0.37363	0.37102	-0.32708	-1.3771	-1.2042	-0.88125	-1.7521	-1.1333	-1.2729	-1.875	-0.66042	-1.4167	-1.5646	-1.0312	-1.6854	-1.2687	-0.85417	-1.9375	287.390	49.132	373.889	364.618	271.131	216.438	329.524	260.060	232.126	251.753	136.341	25.910	348.399	38.155	345.088	318.993	0.001535	0.00062025	0.00016127	650.86	7.3413e-06	5.1906e-06	1258.5	235.16	5.7324e-06	7.1055e-06	560.62	230.86	84.617	32.374	4.09e-06	106.04	0.00017869	9.7214e-05	2.754e-05	596.45	1.0626e-06	1.055e-06	1151.7	215.63	1.0589e-06	9.8445e-07	427.63	211.56	77.103	29.732	1.0493e-06	97.575	72.562	121.730	137.735	35.306	129.092	157.924	35.626	38.801	128.843	179.195	38.344	43.282	42.879	46.349	161.278	46.412	-8191	255	
1455.431	1	1	0	0	0.27296	0.30859	0.12928	0.38122	0.14015	0.13314	0.21192	0.17562	0.22013	0.20918	0.093968	0.11523	0.15898	0.32811	0.13882	0.1295	-0.55417	-1.4188	-1.5417	-1.0875	-1.4354	-1.2021	-1.0208	-1.7521	-1.0104	-1.2229	-1.7479	-0.7	-1.3833	-1.4667	-0.91667	-1.8708	340.792	257.796	101.640	23.081	184.793	129.620	366.664	194.004	280.925	228.082	166.380	150.077	94.811	318.020	254.869	373.066	0.0015816	0.00044477	0.00011571	662.82	7.9606e-06	5.6039e-06	1251	236.81	4.5117e-06	7.1267e-06	563.98	230.39	84.156	32.069	5.5511e-06	105.88	0.00017184	8.9641e-05	2.6379e-05	602.85	1.0516e-06	1.0323e-06	1152.9	216.9	1.0937e-06	1.0628e-06	425.09	210.87	77.085	29.625	1.1227e-06	97.35	70.857	121.150	125.034	34.599	161.576	186.450	35.407	38.511	114.599	202.132	38.269	43.131	43.028	46.844	132.244	46.166	-8191	255	
1455.552	1	1	0	0	0.027708	0.24353	0.032298	0.067405	0.12493	0.1926	0.23143	0.11691	0.11853	0.088013	0.031504	0.28623	0.11967	0.37007	0.20822	0.39431	-0.62708	-0.92292	-1.5312	-0.95625	-1.4792	-1.2708	-0.8625	-1.7104	-1.0208	-1.1167	-1.6396	-0.93333	-1.4167	-1.4167	-0.77708	-1.85	114.726	226.353	171.580	297.905	261.467	132.983	77.181	181.331	281.533	246.173	345.374	308.851	216.949	47.417	224.272	351.170	0.0016256	0.00059325	0.00016199	651.89	3.3081e-06	5.9447e-06	1247.8	234.89	7.8822e-06	5.3865e-06	554.6	230.45	85.67	32.348	6.3527e-06	105.39	0.00017431	9.3183e-05	2.7049e-05	598.66	1.0607e-06	1.0558e-06	1149.4	216.08	1.0429e-06	1.0325e-06	424.82	211.48	77.421	29.713	1.1151e-06	97.549	63.587	126.870	115.852	34.749	161.220	170.262	35.523	38.605	149.000	193.404	39.559	42.770	42.928	46.924	156.317	46.345	-8191	255	
1455.648	1	1	0	0	0.19215	0.10592	0.14347	0.26672	0.16362	0.046304	0.13046	0.24185	0.30801	0.16307	0.36626	0.19969	0.10346	0.27011	0.21326	0.090758	-0.78125	-0.9125	-1.6646	-0.7375	-1.3937	-1.4917	-1.0354	-1.5208	-1.1333	-0.98125	-1.5875	-1.0187	-1.3583	-1.5187	-0.62292	-1.5333	93.038	39.903	154.569	30.027	147.168	338.216	358.242	169.199	210.644	335.526	150.781	288.395	100.178	42.541	122.778	344.929	0.0016063	0.0008054	0.0001605	657.56	7.9666e-06	6.2237e-06	1252.9	235.73	6.1411e-06	3.3614e-06	573.52	232.6	86.123	32.615	5.7131e-06	106.61	0.00017216	9.7543e-05	2.8403e-05	597.98	1.062e-06	1.0508e-06	1150.6	217.45	1.1111e-06	1.0909e-06	432.26	213.58	78.136	30.05	1.1452e-06	98.136	67.762	101.603	113.678	35.070	154.056	143.990	35.787	38.830	142.289	149.375	38.753	42.775	42.884	46.719	162.485	46.291	-8191	255	
1455.744	1	1	0	0	0.1962	0.04013	0.17375	0.13535	0.043278	0.13071	0.28712	0.33713	0.14195	0.1872	0.43061	0.16072	0.12271	0.32395	0.12885	0.078268	-0.75833	-0.7	-1.6146	-1.025	-1.1042	-1.9062	-0.9625	-1.6437	-1.375	-0.78125	-1.6896	-1.1688	-1.075	-1.9479	-0.65208	-1.6396	124.291	258.533	336.956	25.272	336.557	172.318	355.112	22.480	116.715	45.800	142.108	297.272	299.399	63.383	233.209	167.436	0.0015323	0.00047262	0.00017721	663.73	4.135e-06	4.7594e-06	1262.7	240.62	8.5592e-06	5.6815e-06	562.35	230.75	84.764	32.375	6.5244e-06	106.23	0.00017747	0.00010484	2.674e-05	604.55	1.0791e-06	1.0168e-06	1155.4	220.03	1.1128e-06	1.1085e-06	427.24	211.68	77.711	29.747	1.1794e-06	97.496	63.589	102.506	136.503	34.631	155.011	186.460	35.449	38.916	155.404	195.152	38.612	42.941	42.943	46.625	151.615	46.494	-8191	255	
1455.839	1	1	0	0	0.39256	0.15263	0.13381	0.32703	0.22155	0.34156	0.46138	0.19313	0.16175	0.14449	0.14222	0.27919	0.20658	0.25901	0.23488	0.31579	-1.0104	-0.97292	-1.5646	-0.97083	-0.94375	-1.8021	-1.0104	-1.6583	-1.5271	-0.80417	-1.6208	-1.3312	-1.1771	-1.6771	-0.90625	-1.5854	350.838	40.758	285.313	348.927	42.210	53.459	345.382	247.593	352.674	351.452	146.910	26.749	357.866	333.956	331.334	328.072	0.0015332	0.00023077	0.00011503	652.13	5.9194e-06	4.9253e-06	1239.4	233.44	6.396e-06	5.087e-06	558.39	227.45	83.848	32.011	5.8812e-06	105.35	0.00017409	0.00010158	2.6981e-05	597.51	1.1026e-06	1.0559e-06	1138.7	214.42	1.1565e-06	1.1045e-06	423.11	209.19	76.285	29.528	1.1852e-06	96.676	64.891	88.709	98.561	35.059	124.523	150.648	35.374	38.878	170.509	162.953	39.255	43.084	42.940	46.759	176.310	46.522	-8191	255	
1455.912	1	1	0	0	0.2982	0.16501	0.11166	0.31387	0.088511	0.18128	0.20321	0.52306	0.16991	0.25766	0.19947	0.17187	0.23354	0.20979	0.11068	0.18361	-1.2104	-0.83958	-1.5792	-1.2104	-1.05	-1.725	-1.0625	-1.3875	-1.5646	-0.9375	-1.6	-1.4479	-0.75833	-1.825	-1.0104	-1.4312	292.957	101.854	286.749	28.035	275.328	239.610	297.224	333.559	285.840	64.680	124.018	27.461	361.493	301.751	267.452	339.597	0.0015056	0.00062685	0.00013629	643.77	8.1273e-06	3.1963e-06	1221.7	232.37	6.6836e-06	5.2522e-06	570.76	231.49	85.597	32.479	9.3497e-06	106.22	0.00018367	0.00010912	2.6482e-05	586.28	1.1554e-06	1.1292e-06	1127.5	213.26	1.1404e-06	1.1257e-06	428.26	211.64	77.967	29.976	1.1405e-06	97.728	65.655	95.680	138.664	34.913	153.913	189.154	35.652	38.991	161.271	163.183	39.160	42.972	42.806	46.680	137.206	46.664	-8191	255	
1456.031	1	1	0	0	0.03422	0.26642	0.16122	0.032949	0.26218	0.25767	0.05193	0.21514	0.12646	0.188	0.25122	0.49326	0.27138	0.058977	0.084118	0.18468	-1.1521	-0.80833	-1.3479	-1.375	-0.83125	-1.7375	-1.1375	-1.1	-1.6333	-0.62917	-1.4583	-1.5792	-0.75833	-1.7375	-1.0979	-1.3896	290.388	144.836	143.755	110.080	77.339	337.776	60.791	293.368	68.361	89.168	332.169	374.112	360.584	247.992	273.526	304.649	0.0016626	0.00042264	0.00018748	653.99	6.4505e-06	4.7517e-06	1254.6	239.31	8.5562e-06	4.9352e-06	549.4	230.42	85.385	32.41	4.9247e-06	105.49	0.00018503	0.00010535	2.7112e-05	598.92	1.0978e-06	1.0663e-06	1149.8	219.06	1.1155e-06	1.0381e-06	425.26	211.2	77.657	29.815	1.09e-06	97.085	66.516	126.144	121.936	34.734	134.717	159.436	35.746	38.680	149.382	192.624	38.777	43.142	42.997	46.375	154.370	46.534	-8191	255	
1456.127	1	1	0	0	0.14544	0.23649	0.18083	0.28135	0.30078	0.031301	0.28808	0.39471	0.12922	0.041349	0.24241	0.15763	0.076275	0.23365	0.18306	0.18028	-1.1187	-0.65417	-1.3188	-1.4896	-0.79792	-1.6271	-1.3438	-1.1542	-1.6479	-0.9375	-1.2375	-1.6083	-0.68125	-1.4937	-1.1583	-1.0312	92.452	24.788	354.485	112.800	29.830	134.649	354.529	348.548	357.339	271.126	342.308	339.573	296.113	347.055	139.311	337.777	0.0015968	0.00040063	0.00015796	652.56	6.8812e-06	7.1538e-06	1230.3	236.93	9.3497e-06	7.6589e-06	560.25	228.87	85.196	32.171	3.8238e-06	104.92	0.00017422	9.2599e-05	2.6756e-05	594.98	1.1148e-06	1.0601e-06	1135	216.75	1.1444e-06	1.0737e-06	423.42	209.98	77.404	29.579	1.1385e-06	96.288	67.511	109.867	143.734	34.897	161.023	154.299	35.503	38.832	167.778	165.517	38.428	42.888	43.073	46.511	172.532	46.437	-8191	255	
1456.223	1	1	0	0	0.33006	0.098936	0.24079	0.14662	0.14343	0.14283	0.24499	0.16157	0.17961	0.31922	0.25289	0.18614	0.19213	0.094131	0.31493	0.16054	-1.3917	-0.85625	-1.1375	-1.5542	-0.78125	-1.4625	-1.3438	-0.67292	-1.5208	-1.0875	-1.1	-1.7146	-0.625	-1.5146	-1.2792	-0.77083	150.289	128.592	145.017	354.996	288.961	206.976	356.243	358.407	321.147	72.941	368.656	44.644	298.346	224.218	32.185	322.108	0.0014842	0.00065021	0.00014015	642.84	6.9634e-06	5.4555e-06	1240.9	235.59	6.8375e-06	5.2989e-06	551.31	232.62	87.515	32.692	4.1688e-06	106.34	0.0001849	0.00010494	2.9303e-05	591.01	1.2087e-06	1.0842e-06	1136.5	216.51	1.1416e-06	1.1024e-06	427.95	213.28	79.248	30.11	1.1595e-06	97.872	63.578	100.097	111.732	35.373	161.885	166.978	35.219	38.697	140.207	174.201	38.632	42.961	42.869	46.818	116.231	46.237	-8191	255	
1456.344	1	1	0	0	0.1259	0.21814	0.51424	0.076886	0.44652	0.19793	0.18725	0.073333	0.23377	0.20815	0.042666	0.17589	0.060769	0.11741	0.15889	0.23614	-1.2333	-0.83125	-0.94583	-1.8396	-0.625	-1.2375	-1.5271	-0.73958	-1.625	-1.05	-1.05	-1.7	-0.9625	-1.4062	-1.3042	-0.86875	268.493	270.456	27.135	355.419	327.249	222.157	264.392	279.926	94.616	339.382	275.172	345.407	51.714	380.459	242.714	272.361	0.0016599	0.00036184	0.00020101	668.78	6.9461e-06	3.3356e-06	1262.4	241.63	7.0145e-06	6.3961e-06	566.24	230.95	85.283	32.554	6.7529e-06	105.21	0.00018197	9.6408e-05	2.875e-05	609.23	1.1036e-06	1.0735e-06	1156.6	221.33	1.1003e-06	1.066e-06	429.77	211.98	77.889	29.843	1.1647e-06	96.602	68.338	126.949	120.360	35.040	191.996	199.446	35.194	38.600	173.532	214.810	38.815	42.906	42.656	46.631	145.511	46.489	-8191	255	
1456.440	1	1	0	0	0.12598	0.22876	0.18224	0.084681	0.15774	0.091561	0.11783	0.18292	0.13652	0.24527	0.21644	0.40317	0.28943	0.16915	0.14654	0.12258	-1.2896	-1.0312	-0.79375	-1.7146	-0.8125	-1.5292	-1.5875	-0.65833	-1.5438	-1.0917	-0.825	-1.8563	-0.98958	-1.0542	-1.3708	-0.89583	78.561	117.681	273.666	346.680	335.516	138.554	326.140	311.497	119.324	278.538	194.260	363.811	70.103	253.345	271.090	328.745	0.0015005	0.00040915	6.6607e-05	645.65	5.0039e-06	5.4331e-06	1232.8	231.68	5.0197e-06	2.4864e-06	537.61	225.53	83.152	31.894	4.5979e-06	103.97	0.00017616	0.00010429	2.9695e-05	589.8	1.1819e-06	1.1096e-06	1128.7	212.1	1.1085e-06	1.0793e-06	416.1	207.62	75.674	29.286	1.1686e-06	95.599	69.426	139.359	66.086	34.738	152.256	127.967	35.475	38.666	161.939	219.897	39.587	43.040	42.865	47.123	157.676	46.401	-8191	255	
1456.512	1	1	0	0	0.13941	0.075316	0.05037	0.11827	0.24105	0.11631	0.068538	0.14282	0.052908	0.073499	0.49145	0.13688	0.19179	0.26471	0.064237	0.32734	-1.1354	-1.2146	-0.48333	-1.7771	-0.82708	-1.0958	-1.5604	-0.80417	-1.5021	-1.3188	-0.63958	-1.6646	-1.1313	-0.93542	-1.4667	-0.8625	210.162	232.029	184.576	206.360	337.760	240.189	134.221	48.625	163.700	323.457	266.512	24.804	241.345	331.238	276.754	284.374	0.0014845	0.00038898	0.00022646	639.83	6.5624e-06	5.5476e-06	1229.1	228.99	1.1442e-05	3.7449e-06	553.22	228.35	83.416	32.041	6.6408e-06	104.32	0.00017387	0.00010461	3.0151e-05	582.7	1.1329e-06	1.1416e-06	1122.9	210.37	1.1363e-06	1.0978e-06	419.71	209.06	76.189	29.377	1.1626e-06	96.02	70.516	120.795	108.277	35.083	143.712	156.737	35.496	39.129	167.093	169.570	39.164	43.219	42.656	46.933	185.233	46.700	-8191	255	
1456.632	1	1	0	0	0.16883	0.31625	0.14927	0.13877	0.20772	0.28929	0.29072	0.26414	0.093924	0.1146	0.15807	0.0739	0.21838	0.3325	0.10475	0.23128	-0.90417	-1.3583	-0.68125	-1.5792	-1.0562	-0.92292	-1.6271	-0.86458	-1.2563	-1.5979	-0.69167	-1.6875	-1.1979	-0.79375	-1.7208	-0.84583	362.667	299.183	272.911	348.503	189.095	66.068	273.860	319.432	46.228	258.075	192.323	341.142	289.462	375.143	374.263	271.806	0.00161	0.00039994	0.00021443	634.48	5.741e-06	2.4613e-06	1227.1	228.76	4.5573e-06	5.3672e-06	545.83	227.12	82.971	31.759	5.3144e-06	103.74	0.00018487	0.00010756	3.0176e-05	581.36	1.1477e-06	1.1886e-06	1120.9	209.92	1.1516e-06	1.1179e-06	418.03	207.97	75.518	29.261	1.1462e-06	95.497	67.062	146.724	135.708	35.369	133.999	196.300	35.832	38.802	129.909	192.583	39.835	43.255	42.976	47.248	190.095	46.540	-8191	255	
1456.729	1	1	0	0	0.24089	0.27917	0.47326	0.32673	0.22372	0.17117	0.25418	0.12748	0.035498	0.16709	0.27106	0.22645	0.029775	0.14103	0.1552	0.18626	-0.7625	-1.4312	-0.70625	-1.6354	-1.1833	-0.82917	-1.8	-0.97083	-0.93125	-1.5	-0.80625	-1.6646	-1.2021	-1.1208	-1.5542	-1.0208	88.753	126.947	271.387	30.494	101.513	182.421	264.729	259.587	279.908	193.156	261.881	270.897	111.783	324.324	323.077	54.088	0.001543	0.00059174	0.00018843	629.09	5.6402e-06	4.9352e-06	1220.7	225.1	4.8899e-06	5.6514e-06	541.85	224.65	82.805	31.513	4.7428e-06	103.06	0.00018258	0.00010261	3.0287e-05	575.19	1.1262e-06	1.1596e-06	1114	206.86	1.1968e-06	1.0929e-06	413.88	205.93	74.887	28.913	1.094e-06	94.8	66.727	119.006	120.267	35.168	141.636	166.523	35.382	38.659	146.529	192.110	39.947	43.158	43.209	47.367	117.115	46.662	-8191	255	
1456.825	1	1	0	0	0.37513	0.13738	0.22544	0.27796	0.15941	0.25974	0.41751	0.16528	0.1676	0.19226	0.091609	0.24667	0.095703	0.10627	0.044645	0.41412	-0.83958	-1.4729	-0.70417	-1.4688	-1.2083	-0.88125	-1.7875	-1.2375	-0.81042	-1.7	-0.80208	-1.3937	-1.5063	-0.70208	-1.7354	-1.1229	356.118	377.194	287.225	356.304	76.324	279.998	302.800	342.358	302.594	125.006	268.443	342.504	75.803	267.146	148.203	335.447	0.0015413	0.00042316	0.00018755	623.17	4.26e-06	6.0041e-06	1210.6	225.4	8.5198e-06	7.2689e-06	543.19	226.85	83.269	31.847	5.5138e-06	103.95	0.00018401	9.8513e-05	2.812e-05	573.32	1.1993e-06	1.1371e-06	1110.4	207.08	1.1963e-06	1.1065e-06	415.4	207.42	75.523	29.177	1.1327e-06	95.675	65.576	107.040	142.316	35.598	140.877	156.684	35.439	38.497	134.934	189.486	38.488	43.148	43.217	46.984	139.047	46.579	-8191	255	
1456.944	1	1	0	0	0.078968	0.090793	0.16511	0.22807	0.18238	0.17988	0.32688	0.12831	0.060051	0.15303	0.15702	0.32291	0.14463	0.02109	0.12731	0.34145	-0.58125	-1.5708	-0.80625	-1.3021	-1.4167	-0.65625	-1.7792	-1.1812	-1.0042	-1.6792	-0.91458	-1.5917	-1.5375	-0.8	-1.5208	-1.4	98.818	95.934	268.697	343.440	230.704	49.270	314.984	307.462	190.599	246.591	332.807	374.182	156.133	163.378	233.187	296.852	0.0015774	0.00072062	0.00013241	629.22	5.1885e-06	4.523e-06	1227.2	230.38	7.6446e-06	6.6637e-06	544.81	226.94	83.477	31.651	6.5392e-06	103.93	0.000183	0.00010166	2.8674e-05	577.64	1.1268e-06	1.1446e-06	1122.8	210.8	1.1257e-06	1.1092e-06	417	208.34	75.823	29.174	1.1529e-06	95.469	65.774	94.809	110.171	35.857	143.579	164.402	35.544	38.960	140.360	155.543	39.128	43.033	42.865	47.316	128.179	46.557	-8191	255	
1457.040	1	1	0	0	0.048585	0.088174	0.45727	0.1975	0.15869	0.013222	0.40886	0.27238	0.36512	0.20705	0.12017	0.47636	0.078542	0.32283	0.168	0.18541	-0.325	-1.675	-0.97708	-1.2479	-1.3729	-0.79792	-1.4604	-1.3396	-0.86875	-1.7542	-0.85	-1.2979	-1.8542	-0.86875	-1.4167	-1.4958	220.324	336.582	91.875	299.218	298.486	213.462	322.749	277.356	177.666	141.042	255.416	309.685	327.365	66.068	68.850	35.400	0.0016051	0.00044539	8.1317e-05	628.69	6.6743e-06	4.5556e-06	1206.9	224.64	8.5729e-06	5.0604e-06	535.53	222.83	80.562	30.874	4.1092e-06	101.66	0.00018013	0.00010123	2.7868e-05	572.89	1.0989e-06	1.0994e-06	1104.9	205.06	1.2372e-06	1.1028e-06	411.2	204.51	73.339	28.471	1.1832e-06	93.748	66.273	94.383	80.552	35.229	140.968	172.902	35.309	38.547	154.907	160.877	38.109	43.197	42.835	46.413	169.609	46.349	-8191	255	
1457.111	1	1	0	0	0.29072	0.22855	0.07011	0.40793	0.16709	0.33517	0.32321	0.1309	0.025126	0.16783	0.059692	0.29076	0.17384	0.0983	0.15169	0.22786	-0.24167	-1.5979	-1.0438	-0.96042	-1.5187	-0.83125	-1.3667	-1.5042	-0.75625	-1.875	-1.1063	-1.2458	-1.7646	-0.95208	-1.1792	-1.6333	194.576	38.578	23.155	276.028	358.877	243.937	342.998	298.278	180.103	71.651	239.400	376.405	26.393	87.535	140.886	371.357	0.0015911	0.00065743	0.00014257	615.21	3.5561e-06	4.1984e-06	1194.5	220.75	7.8735e-06	4.2983e-06	540.16	224.67	80.883	31.163	6.8887e-06	102.74	0.00018367	0.00010355	3.0133e-05	564.1	1.1178e-06	1.1015e-06	1097.5	203.26	1.203e-06	1.1148e-06	410.58	205.38	73.82	28.611	1.1266e-06	94.209	63.611	121.723	103.851	35.018	113.387	152.408	35.483	38.744	154.666	205.918	38.801	43.042	42.975	46.637	158.069	46.625	-8191	255	
1457.232	1	1	0	0	0.055726	0.20975	0.23366	0.43269	0.096637	0.26941	0.37011	0.18732	0.23255	0.17455	0.12038	0.21187	0.032527	0.11331	0.12988	0.44073	-0.26667	-1.6625	-1.0854	-1.0063	-1.6708	-0.86875	-1.4271	-1.6854	-0.81875	-1.6333	-1.2604	-1.025	-1.8438	-1.0292	-1.1812	-1.7854	288.244	134.098	70.681	263.124	80.068	333.458	357.457	379.991	257.823	27.418	170.151	328.880	282.797	300.711	317.814	327.816	0.0015855	0.0005445	0.00018159	617.61	9.4515e-06	7.1313e-06	1205.4	221.58	6.7327e-06	7.3779e-06	547.22	224.12	81.244	31.13	3.8503e-06	102.5	0.00018421	9.6385e-05	2.8457e-05	565.26	1.077e-06	1.0848e-06	1102.2	203.43	1.1423e-06	1.1143e-06	412.58	205.58	74.041	28.737	1.1687e-06	94.467	71.250	108.140	130.815	35.365	124.391	151.640	35.694	39.447	134.019	217.085	38.542	43.461	42.926	47.190	209.631	46.592	-8191	255	
1457.328	1	1	0	0	0.3043	0.4498	0.060262	0.19213	0.14416	0.24671	0.29092	0.079641	0.094932	0.19553	0.15548	0.19718	0.16444	0.074624	0.12023	0.25313	-0.072917	-1.4396	-1.0958	-0.91875	-1.7146	-0.99583	-1.2625	-1.7167	-0.77292	-1.4125	-1.3396	-0.91458	-1.7083	-1.125	-1.0542	-1.7458	188.721	156.629	29.103	315.686	34.131	319.458	337.615	362.454	103.338	46.156	116.301	51.453	46.744	29.744	294.892	331.994	0.0014425	0.00042937	0.00018978	614.43	3.6396e-06	2.4748e-06	1190.6	219.24	6.9251e-06	6.1723e-06	523.62	221.07	79.763	30.566	8.2566e-06	101.11	0.00017959	0.00010491	2.8773e-05	558.98	1.1258e-06	1.1302e-06	1093	200.86	1.1898e-06	1.1073e-06	403.94	202.58	72.657	28.187	1.1743e-06	93.017	68.600	123.519	113.866	35.015	153.037	211.838	35.910	38.860	167.807	187.095	38.603	43.185	43.226	46.702	153.850	46.483	-8191	255	
1457.424	1	1	0	0	0.11978	0.21575	0.16918	0.12265	0.081738	0.28473	0.22089	0.19538	0.26991	0.1134	0.14482	0.26036	0.3073	0.1384	0.48185	0.11533	-0.4625	-1.2479	-1.6583	-0.99583	-1.8104	-1.1333	-1.1562	-1.7854	-0.825	-1.2313	-1.5271	-0.93333	-1.7729	-1.2521	-1.0771	-1.9354	115.893	325.194	309.221	281.955	344.650	378.566	230.065	367.762	174.369	278.628	306.359	300.906	366.182	323.012	355.443	77.918	0.0014066	0.00042575	0.0001843	607.91	3.9647e-06	5.5331e-06	1182.6	218.03	6.0468e-06	7.2166e-07	531.77	220.71	80.49	30.629	4.558e-06	101.76	0.0001734	0.00010385	2.8087e-05	555.09	1.0675e-06	1.122e-06	1087.2	199.63	1.1347e-06	1.0781e-06	408.92	202.26	72.727	28.214	1.1175e-06	93.829	71.143	100.873	111.601	35.293	110.692	131.139	35.798	39.052	162.053	156.359	39.168	43.063	42.924	46.973	128.729	46.630	-8191	255	
1457.520	1	1	0	0	0.13414	0.2001	0.21249	0.34255	0.28356	0.014001	0.27079	0.26785	0.090578	0.16674	0.0946	0.25367	0.26198	0.10836	0.25376	0.21646	-0.62917	-1.0479	-1.5333	-0.87292	-1.6083	-1.2938	-0.91875	-1.7521	-0.99167	-1.2104	-1.7229	-0.92708	-1.6479	-1.5063	-0.825	-1.8792	84.175	276.767	131.133	290.396	251.496	161.303	302.482	110.101	29.442	334.852	44.414	298.744	356.577	340.062	364.162	364.407	0.0015239	0.00046599	0.00011948	612.43	9.9213e-06	6.2991e-06	1197.7	219.26	4.7087e-06	5.7741e-06	542.08	222.51	81.229	31.314	7.3073e-06	103.24	0.00017474	0.00010532	2.8332e-05	559.49	1.1195e-06	1.1232e-06	1096.8	201.47	1.0998e-06	1.0946e-06	410.64	204.65	74.203	28.831	1.1368e-06	95.121	69.030	103.295	116.084	35.413	155.368	178.880	35.832	39.244	154.813	183.499	39.436	43.106	43.450	46.504	125.144	46.468	-8191	255	
1457.617	1	1	0	0	0.19551	0.048796	0.24936	0.058548	0.19483	0.1452	0.27139	0.13976	0.15367	0.11812	0.15826	0.20755	0.10327	0.20053	0.27209	0.30846	-0.45625	-1.1208	-1.4792	-0.82708	-1.1708	-1.2375	-1.0187	-1.5958	-1.0646	-1.1771	-1.4604	-0.90625	-1.4312	-1.3563	-0.7875	-1.7563	37.583	178.961	272.327	83.081	227.173	84.107	296.498	354.717	121.432	233.434	303.641	347.274	301.968	308.268	119.010	288.550	0.0015129	0.00068621	0.00018878	618.96	5.1941e-06	4.2963e-06	1203.1	219.8	6.6654e-06	6.9217e-06	536.02	221.89	81.152	30.763	3.8189e-06	102.02	0.00017768	0.00010438	2.7778e-05	564.72	1.0804e-06	1.0842e-06	1102	202.67	1.1339e-06	1.02e-06	407.15	204	73.653	28.406	1.1231e-06	93.688	69.542	131.657	117.697	35.122	150.766	163.300	35.654	38.754	144.993	186.889	38.130	43.169	43.064	46.867	154.751	46.523	-8191	255	
1457.735	1	1	0	0	0.16757	0.14642	0.088781	0.38374	0.12788	0.09642	0.15847	0.12032	0.11893	0.12313	0.40687	0.41979	0.26654	0.15447	0.22878	0.3198	-0.65417	-0.86458	-1.5	-1.0854	-1.3896	-1.3229	-0.96875	-1.7604	-1.0271	-0.96875	-1.6333	-0.92708	-1.0833	-1.6604	-0.79583	-1.5604	79.942	346.506	357.795	369.995	108.315	36.615	324.945	251.561	141.546	310.383	293.821	313.063	39.187	353.338	221.743	308.082	0.0014392	0.00037906	0.00018425	611.87	4.9178e-06	6.6051e-06	1192.3	219.36	7.3797e-06	5.7839e-06	535.72	221.9	79.222	30.608	4.8245e-06	101.4	0.00017458	0.00010412	2.747e-05	558.06	1.1096e-06	1.0936e-06	1091.4	200.83	1.1609e-06	1.0843e-06	408.79	202.66	72.586	28.26	1.0884e-06	93.575	65.903	107.762	108.623	35.084	144.652	161.622	35.430	39.033	154.794	190.126	39.177	43.075	42.945	46.710	142.037	46.341	-8191	255	
1457.809	1	1	0	0	0.45986	0.070815	0.18213	0.23544	0.14837	0.089949	0.31124	0.33432	0.17302	0.1449	0.098627	0.092708	0.16818	0.070727	0.17834	0.21686	-0.83333	-0.86667	-1.4771	-1.0833	-1.1125	-1.525	-0.8	-1.5896	-1.4083	-0.86667	-1.5562	-1.2854	-1.15	-1.6271	-0.83125	-1.5562	245.316	83.239	201.694	361.095	166.954	366.172	274.727	345.696	167.305	309.565	163.785	106.569	325.049	348.440	22.953	129.662	0.0014555	0.00072309	0.00013438	609.48	9.9627e-06	5.8824e-06	1191.4	217.66	9.153e-06	6.2668e-06	535.41	220.42	80.059	30.956	7.3589e-06	101.82	0.00018055	9.7571e-05	2.7651e-05	556.37	1.14e-06	1.0798e-06	1091.2	200.03	1.1032e-06	1.1128e-06	406.25	202.34	72.737	28.379	1.1149e-06	93.567	70.678	116.624	120.577	35.072	122.394	181.333	35.578	39.045	165.371	154.712	38.374	43.128	43.358	46.693	156.669	46.726	-8191	255	
1457.905	1	1	0	0	0.25359	0.25303	0.29115	0.32052	0.1583	0.23023	0.057265	0.13144	0.23649	0.18622	0.12316	0.4592	0.26304	0.026868	0.11015	0.27722	-0.93958	-0.61875	-1.6458	-1.1271	-1.1938	-1.5938	-1.0312	-1.5167	-1.4396	-0.87292	-1.5875	-1.3937	-0.92292	-1.8146	-0.89167	-1.4604	43.135	330.684	379.933	279.485	281.849	370.595	219.507	23.698	57.449	351.016	297.544	40.981	307.660	107.562	356.646	363.177	0.0014984	0.00063651	0.00011125	608.43	6.131e-06	4.2881e-06	1191	217.13	3.7529e-06	6.5234e-06	527.33	222.91	79.774	30.837	4.8786e-06	102.16	0.00017367	9.5306e-05	2.5961e-05	554.68	1.139e-06	1.0339e-06	1094	199.72	1.0774e-06	1.1043e-06	407.27	203.42	72.627	28.308	1.095e-06	93.704	70.965	89.800	131.113	35.373	147.757	190.458	35.336	38.976	147.555	199.533	39.071	42.907	42.898	47.043	138.915	46.567	-8191	255	
1458.024	1	1	0	0	0.40266	0.17198	0.085977	0.23787	0.32689	0.18603	0.15484	0.25142	0.26072	0.22821	0.27033	0.50624	0.10982	0.24903	0.13399	0.40137	-0.99375	-0.83542	-1.6792	-1.3521	-0.95625	-1.6396	-1.0521	-1.2687	-1.4562	-0.625	-1.5646	-1.3833	-0.88958	-1.6521	-1.0021	-1.3917	130.475	342.860	330.541	29.642	380.485	90.732	338.079	49.528	274.034	84.737	301.236	362.366	202.325	254.878	112.843	289.211	0.0015312	0.00071648	8.2466e-05	609.35	6.1869e-06	3.8918e-06	1188.5	217.37	6.7038e-06	6.1539e-06	523.23	220.63	79.313	30.965	6.6822e-06	101.34	0.00017161	9.6635e-05	2.6515e-05	556.75	1.1037e-06	1.0107e-06	1089.3	200.18	1.0612e-06	1.0481e-06	401.09	202.26	72.464	28.282	1.1182e-06	93.377	68.122	109.894	103.988	34.970	149.124	152.902	35.105	38.887	139.886	203.796	38.707	43.225	42.625	47.133	121.975	46.663	-8191	255	
1458.120	1	1	0	0	0.13761	0.15582	0.11255	0.29676	0.15144	0.16171	0.33611	0.15299	0.12586	0.086632	0.2512	0.15333	0.11605	0.19088	0.23365	0.29448	-1.0792	-0.63542	-1.5646	-1.4833	-0.83958	-1.6208	-1.2812	-1.1375	-1.5333	-0.94167	-1.3354	-1.6125	-0.87292	-1.4208	-1.0646	-1.3625	308.243	236.206	328.306	361.827	352.064	313.931	300.650	359.038	175.401	310.543	380.455	209.699	240.229	79.952	230.015	320.100	0.0015877	0.00053619	0.00012935	608.19	6.2847e-06	7.0036e-06	1184.1	220.52	5.1898e-06	3.5994e-06	538.6	222.74	79.807	30.781	8.7638e-06	102.2	0.00017731	9.7844e-05	2.7469e-05	557.73	1.0694e-06	1.0051e-06	1087.8	201	1.093e-06	1.019e-06	406.03	203.68	73.087	28.372	1.1371e-06	94.018	67.754	87.497	124.297	35.113	122.989	182.413	35.830	39.175	178.859	200.236	39.113	42.888	43.274	47.074	146.920	46.717	-8191	255	
1458.216	1	1	0	0	0.18129	0.084273	0.051095	0.035965	0.18114	0.16202	0.23596	0.12228	0.33001	0.17346	0.17895	0.33343	0.1836	0.28754	0.10946	0.33659	-1.25	-0.91458	-1.3083	-1.7042	-0.75	-1.5729	-1.425	-1.1396	-1.6208	-0.73542	-1.3	-1.7271	-0.95	-1.8	-1.1354	-1.0063	291.710	362.187	315.644	158.035	352.629	148.049	319.523	177.008	163.754	331.760	312.993	42.198	93.457	346.274	139.518	337.751	0.0015337	0.0006033	0.00019689	611.63	8.1335e-06	3.6647e-06	1196.6	219.86	5.61e-06	4.6995e-06	538.79	222.8	80.767	31.035	3.0799e-06	102.42	0.0001722	9.9416e-05	2.8483e-05	560.26	1.073e-06	1.0794e-06	1097.4	202.18	1.0859e-06	1.0595e-06	412.3	204.74	73.594	28.56	1.1452e-06	94.329	70.729	119.698	115.512	34.927	147.904	155.579	35.226	38.933	143.072	166.822	39.719	42.963	43.217	46.913	123.738	46.559	-8191	255	
1458.312	1	1	0	0	0.054938	0.19992	0.31854	0.097452	0.058752	0.21362	0.29356	0.1848	0.13949	0.18144	0.14785	0.27561	0.25986	0.2665	0.26594	0.38589	-1.2021	-0.91875	-1.25	-1.7604	-0.70417	-1.6292	-1.4104	-0.79792	-1.6458	-0.94583	-1.1917	-1.75	-0.8875	-1.5854	-1.2708	-0.94583	132.152	47.846	171.470	285.265	358.992	116.319	143.711	112.124	319.638	273.297	66.565	301.206	329.337	342.775	250.325	368.398	0.0016003	0.00034486	0.0001999	608	6.867e-06	4.8536e-06	1188.8	220.43	6.9664e-06	6.0807e-06	537.47	222.98	80.3	30.778	7.9001e-06	101.59	0.00017446	9.9734e-05	2.7892e-05	558.38	1.1066e-06	1.1105e-06	1092.9	202.14	1.0871e-06	1.1091e-06	406.74	203.53	73.255	28.391	1.1072e-06	93.613	64.873	136.271	122.724	34.423	137.005	171.224	35.625	38.720	169.690	172.356	38.922	43.072	43.263	46.708	147.579	46.563	-8191	255	
1458.409	1	1	0	0	0.28297	0.21109	0.13351	0.25826	0.17305	0.20032	0.041087	0.26111	0.056636	0.20555	0.12685	0.51692	0.17824	0.13811	0.21694	0.38999	-1.475	-0.96875	-0.95	-1.675	-0.89375	-1.3062	-1.5354	-0.79583	-1.7188	-0.90208	-0.93333	-1.9854	-0.7125	-1.4396	-1.3687	-0.90625	114.330	30.840	327.893	28.203	48.656	304.292	329.715	328.612	246.503	173.661	48.418	317.544	120.788	378.092	237.321	330.506	0.0014816	0.00021606	0.00022773	609.98	8.8543e-06	3.2077e-06	1191.3	220.95	7.3364e-06	6.7547e-06	538.62	222.25	80.72	30.944	5.7631e-06	102.16	0.0001742	9.7338e-05	2.9218e-05	559.88	1.129e-06	1.1209e-06	1092.7	202.16	1.0833e-06	1.1091e-06	407.12	203.55	73.494	28.401	1.0968e-06	93.683	66.672	120.038	117.920	35.033	144.847	155.025	35.328	38.864	164.361	164.223	39.394	43.196	43.001	47.153	142.388	46.646	-8191	255	
1458.505	1	1	0	0	0.097653	0.087666	0.14879	0.25366	0.24546	0.039698	0.20321	0.18287	0.17806	0.028565	0.23018	0.51217	0.11828	0.29423	0.26307	0.037906	-1.2188	-1.1562	-0.98333	-1.6083	-0.7625	-1.3104	-1.7167	-0.80208	-1.6812	-1.3042	-0.88333	-1.7313	-0.83333	-1.2125	-1.7271	-0.97292	161.281	61.769	79.166	254.146	361.938	284.553	313.804	272.699	90.714	340.484	256.230	314.166	151.894	277.944	222.082	372.385	0.0015368	0.00064514	0.00010656	612.45	7.0977e-06	4.8205e-06	1200.6	219.03	7.2542e-06	6.1146e-06	539.98	223.53	81.8	31.266	6.5807e-06	102.92	0.00017723	0.00010376	2.8744e-05	561.14	1.1215e-06	1.1086e-06	1098.5	202.61	1.0864e-06	1.0626e-06	407.82	205.87	74.324	28.757	1.0832e-06	94.7	66.328	129.182	109.350	35.321	162.247	180.285	35.617	38.933	141.070	178.160	38.812	43.218	42.696	46.932	126.039	46.602	-8191	255	
1458.625	1	1	0	0	0.13659	0.0079034	0.13329	0.15519	0.27371	0.12204	0.30195	0.12806	0.16487	0.30366	0.041698	0.13661	0.12639	0.30254	0.07275	0.099211	-1.0542	-1.4813	-0.87917	-1.825	-1.0521	-1.2292	-1.6917	-0.8875	-1.65	-1.4562	-0.72083	-1.8104	-1.0125	-1.1083	-1.4438	-1.0146	256.481	204.449	235.546	248.360	222.491	189.295	365.991	59.363	70.492	174.909	271.975	106.198	165.524	345.932	280.624	31.682	0.0015619	0.0003273	0.00013582	613.92	4.1026e-06	6.4837e-06	1190.7	221.47	5.8707e-06	5.6408e-06	536.65	223.07	81.21	30.911	5.1992e-06	101.89	0.00018059	9.9342e-05	2.7195e-05	562.74	1.1337e-06	1.1127e-06	1097.7	203.2	1.0807e-06	1.054e-06	412.56	204.85	73.948	28.455	1.0673e-06	93.794	69.913	45.294	78.491	35.138	158.119	158.492	35.568	38.951	168.303	184.996	39.538	43.452	43.239	46.940	137.975	46.681	-8191	255	
1458.721	1	1	0	0	0.18394	0.26213	0.20361	0.10713	0.071287	0.19647	0.21448	0.027753	0.026039	0.12807	0.093157	0.19327	0.11958	0.1378	0.16467	0.27226	-1.1083	-1.275	-0.71042	-1.8292	-1.2313	-1.0833	-1.9167	-1.1271	-1.3271	-1.4375	-0.81667	-1.7271	-1.1396	-0.95	-1.8417	-1.1583	136.705	350.236	115.132	53.162	262.981	371.689	326.740	319.250	63.703	298.598	309.526	247.719	83.568	341.865	128.728	348.441	0.0014592	0.00058895	0.00017712	612.19	6.1487e-06	5.7134e-06	1189.6	221.49	9.3712e-06	5.5139e-06	531.59	223	81.336	30.92	8.3406e-06	102.37	0.0001783	0.00010096	2.7315e-05	562.42	1.0996e-06	1.0852e-06	1096.1	202.87	1.1537e-06	1.0404e-06	408.48	204.94	74.064	28.456	1.0817e-06	94.041	70.503	119.474	98.301	34.891	141.181	144.945	35.400	38.963	141.209	167.715	39.573	43.189	43.034	46.993	154.700	46.637	-8191	255	
1458.818	1	1	0	0	0.26588	0.19292	0.24785	0.10091	0.066314	0.14156	0.35829	0.23786	0.20051	0.17806	0.18465	0.30481	0.1305	0.35056	0.12525	0.29117	-0.75625	-1.525	-0.92083	-1.5083	-1.35	-1.2583	-1.9229	-1.075	-1.1437	-1.5458	-0.825	-1.5896	-1.3438	-0.96875	-1.7458	-0.975	21.398	349.760	327.507	257.865	150.715	286.799	67.807	354.057	171.900	75.529	161.719	332.254	317.380	348.715	369.421	199.725	0.0014695	0.00048231	0.00017567	615.98	6.6951e-06	6.6113e-06	1201	221.46	7.1412e-06	7.3836e-06	543.17	223.36	81.287	31.145	6.2003e-06	103.06	0.00017783	9.4903e-05	2.7272e-05	563.98	1.0513e-06	1.044e-06	1101.5	203.24	1.0548e-06	1.0353e-06	412.23	204.94	73.84	28.615	1.073e-06	94.656	67.112	107.041	133.205	35.376	136.461	158.907	35.592	38.966	144.343	172.972	37.716	43.341	43.062	46.909	162.147	46.649	-8191	255	
1458.912	1	1	0	0	0.12613	0.072761	0.021368	0.092365	0.25398	0.0291	0.23033	0.15066	0.094838	0.074496	0.13383	0.41853	0.25856	0.15643	0.1961	0.38884	-0.75208	-1.5729	-0.75208	-1.3875	-1.3375	-0.83333	-1.8896	-1.2271	-0.8625	-1.4854	-0.77292	-1.6	-1.4875	-0.95208	-1.7333	-1.3979	273.773	215.120	21.477	259.592	180.256	24.629	344.270	88.078	233.352	159.963	286.292	321.246	231.160	52.700	170.092	282.801	0.0014649	0.00050829	0.00019478	618.98	4.6886e-06	5.4811e-06	1199.1	221.13	4.3329e-06	5.6514e-06	532.36	224.93	81.626	31.024	8.4603e-06	102.49	0.00017597	9.597e-05	2.7399e-05	564.33	1.0728e-06	1.0441e-06	1097.2	203.36	1.1307e-06	1.0312e-06	408.46	205.31	74.117	28.501	1.088e-06	94.114	66.135	123.478	110.909	35.036	116.555	171.646	35.653	38.890	149.129	217.922	38.484	43.157	43.440	47.187	158.126	46.510	-8191	255	
1459.033	1	1	0	0	0.11802	0.23428	0.26636	0.08909	0.22708	0.1154	0.18898	0.26436	0.22649	0.056846	0.43236	0.28701	0.2506	0.25272	0.14605	0.31326	-0.46667	-1.7958	-0.79792	-1.1854	-1.3958	-0.83542	-1.725	-1.3188	-0.91042	-1.7583	-0.78333	-1.4458	-1.6521	-0.96458	-1.6313	-1.4646	201.492	221.719	188.991	99.521	217.491	258.614	29.575	262.762	236.230	257.606	250.750	309.886	289.013	199.210	232.279	286.280	0.0015286	0.00045588	0.00015342	616.1	8.6505e-06	3.0374e-06	1197.4	221.37	7.883e-06	3.3215e-06	537.98	222.28	80.99	31.191	4.1126e-06	101.75	0.00017236	9.4086e-05	2.7927e-05	563.22	1.0346e-06	1.0415e-06	1095.1	203.17	1.1029e-06	1.0086e-06	410.8	204.42	73.569	28.382	1.0927e-06	93.851	71.118	96.474	103.401	35.456	127.403	156.167	35.495	38.365	167.812	201.956	38.210	43.217	42.973	46.840	162.743	46.561	-8191	255	
#DATA ENDS
