BOXY.EXE: ISS Imagent and Oximeter Data Acquisition Program Version 0.80
Ascii Record File

#ACQ INFORMATION
2  Detector Channels 
16  External MUX Channels 
1  Auxiliary Channels 
5000  Waveform (CCF) Frequency (Hz)
1  Waveforms Skipped 
30  Waveforms Averaged 
1  Cycles Averaged 
16  Acquisitions per Waveform 
10.0806  Updata Rate (Hz) 

#FILE INFORMATION
TRUE -- External MUX Channel results are PARSED.
FALSE -- AC DC and Phase are NOT grouped.
TRUE -- Companion Program Settings File CREATED.
FALSE -- AC data not excluded
FALSE -- DC data not excluded
FALSE -- Phase data not excluded
FALSE -- Auxillary Chn. data not excluded
Tab delimiters

#CALIBRATION STATE
TRUE -- Waveform Calibration Values APPLIED.


#AUX CALIBRATION VALUES
Val Type	aux-1	

Term	1.0000e+00	
Factor	0.0000e+00	


#WF CALIBRATION VALUES
A = Detector Channel
Val Type	A-AC1	A-AC2	A-AC3	A-AC4	A-AC5	A-AC6	A-AC7	A-AC8	A-AC9	A-AC10	A-AC11	A-AC12	A-AC13	A-AC14	A-AC15	A-AC16	A-DC1	A-DC2	A-DC3	A-DC4	A-DC5	A-DC6	A-DC7	A-DC8	A-DC9	A-DC10	A-DC11	A-DC12	A-DC13	A-DC14	A-DC15	A-DC16	A-Ph1	A-Ph2	A-Ph3	A-Ph4	A-Ph5	A-Ph6	A-Ph7	A-Ph8	A-Ph9	A-Ph10	A-Ph11	A-Ph12	A-Ph13	A-Ph14	A-Ph15	A-Ph16	

Term	0.00000e+00	0.00000e+00	0.00000e+00	0.00000e+00	0.00000e+00	0.00000e+00	0.00000e+00	0.00000e+00	0.00000e+00	0.00000e+00	0.00000e+00	0.00000e+00	0.00000e+00	0.00000e+00	0.00000e+00	0.00000e+00	0.00000e+00	0.00000e+00	0.00000e+00	0.00000e+00	0.00000e+00	0.00000e+00	0.00000e+00	0.00000e+00	0.00000e+00	0.00000e+00	0.00000e+00	0.00000e+00	0.00000e+00	0.00000e+00	0.00000e+00	0.00000e+00	0.00000e+00	0.00000e+00	0.00000e+00	0.00000e+00	0.00000e+00	0.00000e+00	0.00000e+00	0.00000e+00	0.00000e+00	0.00000e+00	0.00000e+00	0.00000e+00	0.00000e+00	0.00000e+00	0.00000e+00	0.00000e+00	
Factor	1.00000e+00	1.00000e+00	1.00000e+00	1.00000e+00	1.00000e+00	1.00000e+00	1.00000e+00	1.00000e+00	1.00000e+00	1.00000e+00	1.00000e+00	1.00000e+00	1.00000e+00	1.00000e+00	1.00000e+00	1.00000e+00	1.00000e+00	1.00000e+00	1.00000e+00	1.00000e+00	1.00000e+00	1.00000e+00	1.00000e+00	1.00000e+00	1.00000e+00	1.00000e+00	1.00000e+00	1.00000e+00	1.00000e+00	1.00000e+00	1.00000e+00	1.00000e+00	X	X	X	X	X	X	X	X	X	X	X	X	X	X	X	X	

B = Detector Channel
Val Type	B-AC1	B-AC2	B-AC3	B-AC4	B-AC5	B-AC6	B-AC7	B-AC8	B-AC9	B-AC10	B-AC11	B-AC12	B-AC13	B-AC14	B-AC15	B-AC16	B-DC1	B-DC2	B-DC3	B-DC4	B-DC5	B-DC6	B-DC7	B-DC8	B-DC9	B-DC10	B-DC11	B-DC12	B-DC13	B-DC14	B-DC15	B-DC16	B-Ph1	B-Ph2	B-Ph3	B-Ph4	B-Ph5	B-Ph6	B-Ph7	B-Ph8	B-Ph9	B-Ph10	B-Ph11	B-Ph12	B-Ph13	B-Ph14	B-Ph15	B-Ph16	

Term	0.00000e+00	0.00000e+00	0.00000e+00	0.00000e+00	0.00000e+00	0.00000e+00	0.00000e+00	0.00000e+00	0.00000e+00	0.00000e+00	0.00000e+00	0.00000e+00	0.00000e+00	0.00000e+00	0.00000e+00	0.00000e+00	0.00000e+00	0.00000e+00	0.00000e+00	0.00000e+00	0.00000e+00	0.00000e+00	0.00000e+00	0.00000e+00	0.00000e+00	0.00000e+00	0.00000e+00	0.00000e+00	0.00000e+00	0.00000e+00	0.00000e+00	0.00000e+00	-1.67035e+02	-1.31813e+02	-1.18266e+02	-1.82254e+02	-6.73012e+01	-6.35805e+01	-1.58235e+02	-1.62015e+02	-8.21516e+01	-6.64069e+01	-1.73094e+02	-1.71848e+02	-1.81803e+02	-1.76217e+02	-6.66317e+01	-1.49574e+02	
Factor	2.60193e-05	1.31156e-04	3.55713e-05	1.77363e-01	1.14735e-06	1.42536e-06	1.59092e-01	4.36410e-02	1.28641e-06	1.31667e-06	9.75283e-02	2.78767e-02	2.36486e-02	8.18886e-03	1.35331e-06	1.16072e-02	5.50139e-06	6.60625e-06	1.84189e-06	9.54833e-02	7.04423e-08	7.31455e-08	8.05169e-02	2.35997e-02	6.98754e-08	7.28695e-08	5.07794e-02	1.45466e-02	1.29190e-02	4.45731e-03	7.13134e-08	6.10789e-03	X	X	X	X	X	X	X	X	X	X	X	X	X	X	X	X	



#DISTANCE SETTINGS
A = Detector Channel
A-1	A-2	A-3	A-4	A-5	A-6	A-7	A-8	A-9	A-10	A-11	A-12	A-13	A-14	A-15	A-16	

2.5000e+00	3.0000e+00	2.5000e+00	3.0000e+00	2.0000e+00	3.0000e+00	1.5000e+00	3.0000e+00	3.0000e+00	3.0000e+00	3.0000e+00	3.0000e+00	3.0000e+00	3.0000e+00	1.5000e+00	3.0000e+00	

B = Detector Channel
B-1	B-2	B-3	B-4	B-5	B-6	B-7	B-8	B-9	B-10	B-11	B-12	B-13	B-14	B-15	B-16	

1.0000e+01	1.0000e+01	1.0000e+01	1.4400e+00	1.0000e+01	1.0000e+01	1.5100e+00	1.9400e+00	1.0000e+01	1.0000e+01	1.9900e+00	2.4900e+00	2.4100e+00	2.9000e+00	1.0000e+01	2.9800e+00	




#DATA BEGINS
time	group	step	mark	flag	A-AC1	A-AC2	A-AC3	A-AC4	A-AC5	A-AC6	A-AC7	A-AC8	A-AC9	A-AC10	A-AC11	A-AC12	A-AC13	A-AC14	A-AC15	A-AC16	A-DC1	A-DC2	A-DC3	A-DC4	A-DC5	A-DC6	A-DC7	A-DC8	A-DC9	A-DC10	A-DC11	A-DC12	A-DC13	A-DC14	A-DC15	A-DC16	A-Ph1	A-Ph2	A-Ph3	A-Ph4	A-Ph5	A-Ph6	A-Ph7	A-Ph8	A-Ph9	A-Ph10	A-Ph11	A-Ph12	A-Ph13	A-Ph14	A-Ph15	A-Ph16	B-AC1	B-AC2	B-AC3	B-AC4	B-AC5	B-AC6	B-AC7	B-AC8	B-AC9	B-AC10	B-AC11	B-AC12	B-AC13	B-AC14	B-AC15	B-AC16	B-DC1	B-DC2	B-DC3	B-DC4	B-DC5	B-DC6	B-DC7	B-DC8	B-DC9	B-DC10	B-DC11	B-DC12	B-DC13	B-DC14	B-DC15	B-DC16	B-Ph1	B-Ph2	B-Ph3	B-Ph4	B-Ph5	B-Ph6	B-Ph7	B-Ph8	B-Ph9	B-Ph10	B-Ph11	B-Ph12	B-Ph13	B-Ph14	B-Ph15	B-Ph16	aux-1	digaux	

5237.529	1	1	0	768	0.1801	0.13738	0.26213	0.14179	0.31613	0.17331	0.10633	0.33028	0.21544	0.14824	0.20744	0.19262	0.19392	0.22083	0.12379	0.22544	-1.3667	-2.1937	-1.3729	-2.0563	-2.0125	-1.3292	-2.3979	-1.7437	-1.3604	-2.4688	-1.5312	-2.1208	-2.1937	-1.5667	-2.2687	-1.8979	202.283	195.387	26.612	196.076	13.420	-8.365	1.664	293.007	298.986	219.054	205.930	-27.429	10.168	91.375	152.706	-18.951	0.0001152	0.0017918	0.00012827	567.16	1.2403e-05	7.2196e-06	941.78	126.56	5.6279e-06	5.0468e-06	298.26	94.506	29.897	8.384	4.687e-06	34.733	0.0030778	0.0035998	0.0010108	550.84	3.957e-05	4.0949e-05	869.1	124.3	3.9167e-05	4.067e-05	292.11	91.985	33.73	9.8502	3.9343e-05	34.21	85.851	145.656	254.458	-21.810	152.446	305.408	-21.483	-17.509	58.782	19.421	-17.867	-13.850	-13.372	-9.484	124.379	-10.192	-8191	255	
5237.623	1	1	0	0	0.12062	0.25805	0.069513	0.060592	0.17359	0.070689	0.073427	0.092349	0.23925	0.066156	0.25918	0.15791	0.18027	0.035046	0.10887	0.10333	-1.2833	-2.3854	-1.2875	-2.1104	-2.1312	-1.5625	-2.3729	-1.9917	-1.6333	-2.4229	-1.725	-1.8792	-2.2812	-1.4208	-1.875	-1.9979	-10.565	317.140	252.085	67.350	264.504	270.280	239.434	220.015	102.110	121.880	236.070	121.286	40.966	241.928	282.906	267.474	0.0001675	0.0003031	0.00053351	560.21	5.0255e-06	9.5743e-06	925.7	124.9	1.0163e-05	2.3193e-06	295.47	93.103	29.446	8.2045	1.6146e-05	34.562	0.0031773	0.0037299	0.0010578	549.21	4.0807e-05	4.2333e-05	862.18	123.14	4.004e-05	4.1178e-05	289.35	91.39	33.682	9.7852	4.0708e-05	34	66.765	173.541	91.866	-22.346	62.832	94.651	-21.521	-17.613	297.645	84.548	-18.114	-13.443	-13.530	-9.088	78.004	-9.933	-8191	255	
5237.721	1	1	0	0	0.14276	0.063439	0.27912	0.29484	0.29655	0.13526	0.33129	0.16437	0.17823	0.13086	0.11449	0.20061	0.28713	0.20046	0.15718	0.10881	-1.225	-2.3792	-1.6396	-1.8312	-2.1979	-1.3062	-2.2562	-2.0062	-1.6521	-2.2875	-1.925	-1.6458	-2.5083	-1.5229	-2.0229	-1.9458	104.528	302.827	4.474	-32.444	154.709	297.624	264.264	58.574	171.760	7.583	168.027	262.026	307.167	274.324	210.513	-4.794	0.00021616	0.0002693	0.00037004	559.85	9.3457e-06	7.8246e-06	932.57	123.01	8.8983e-06	2.8893e-06	294.49	94.159	29.66	8.0459	6.4347e-06	34.228	0.0031958	0.0037438	0.0010636	548.5	4.0279e-05	4.1966e-05	863.89	122.5	4.0162e-05	4.0863e-05	288.9	91.503	33.509	9.7498	4.0148e-05	33.823	72.908	106.786	33.428	-21.308	1.785	309.885	-21.355	-17.723	137.876	29.758	-17.695	-13.462	-13.484	-10.040	78.367	-9.910	-8191	255	
5237.817	1	1	0	0	0.26096	0.063775	0.15011	0.014675	0.14644	0.17224	0.071607	0.28899	0.17238	0.24392	0.077028	0.12816	0.023576	0.096056	0.20248	0.22876	-0.96667	-2.1833	-1.8229	-1.6146	-2.4875	-1.3604	-2.1354	-2.1771	-1.4188	-2.0687	-1.8729	-1.5208	-2.2604	-1.4875	-1.9792	-2.175	189.292	289.117	198.850	93.342	84.333	49.020	288.573	158.851	288.502	49.906	230.739	21.268	179.353	41.654	-13.029	5.567	5.9543e-05	0.00099416	0.00014382	557.91	4.6205e-06	4.9657e-06	923.48	123.71	7.0027e-06	1.3023e-05	292.27	93.719	29.344	8.1389	7.0539e-06	33.694	0.0031912	0.0037522	0.0010606	545.98	4.0795e-05	4.2464e-05	861.98	122.87	4.0321e-05	4.1364e-05	288.01	91.191	33.633	9.7274	4.0985e-05	33.65	100.710	79.563	124.438	-22.103	195.446	33.526	-21.547	-17.435	72.814	178.367	-17.948	-13.506	-13.498	-9.105	-29.445	-10.206	-8191	255	
5237.912	1	1	0	0	0.27522	0.1048	0.16412	0.080927	0.3378	0.1658	0.23818	0.16324	0.062481	0.17994	0.27492	0.24484	0.15036	0.1721	0.16584	0.11611	-1.0354	-2.2313	-1.7646	-1.5	-2.1479	-1.525	-1.675	-2.3354	-1.5063	-2.2771	-1.9979	-1.6729	-2.1937	-1.5396	-1.8104	-2.1	2.268	14.637	47.306	179.000	23.364	97.436	248.472	267.400	145.644	323.266	248.683	225.207	177.250	98.159	284.815	56.561	0.00010188	0.0011435	0.00022279	560.16	6.7624e-06	1.4317e-05	925.89	121.33	9.7185e-06	1.2168e-05	291.24	92.783	29.537	8.0712	5.0851e-06	33.726	0.0032723	0.0038329	0.0010809	546.93	4.0904e-05	4.2796e-05	862.42	122.39	4.1353e-05	4.2838e-05	288.44	91.2	33.841	9.8636	4.3269e-05	33.57	102.904	232.822	60.788	-21.771	73.647	143.463	-21.437	-17.865	112.616	302.417	-18.168	-13.941	-13.764	-10.134	283.013	-9.981	-8191	255	
5238.010	1	1	0	0	0.24375	0.20295	0.14797	0.45847	0.18598	0.17008	0.30382	0.27472	0.37487	0.21524	0.1951	0.24722	0.1354	0.22242	0.10471	0.085361	-1.2396	-1.9729	-1.8229	-1.475	-2.1521	-1.6396	-1.6	-2.2625	-1.3312	-1.8687	-1.9333	-1.3333	-2.1104	-1.8229	-1.5771	-2.3854	319.319	132.953	18.108	290.106	111.412	212.532	298.721	297.664	296.716	286.905	229.567	252.931	-16.111	106.785	183.381	259.174	0.00019306	0.00028723	0.00031193	559.33	4.1906e-06	8.7573e-06	924.69	121.66	1.4313e-05	7.8774e-06	292.02	92.016	29.186	8.1453	9.0106e-06	33.337	0.003374	0.0039726	0.0011215	549.02	4.2638e-05	4.5344e-05	860.34	122.28	4.302e-05	4.4241e-05	287.97	90.036	33.647	9.8368	4.337e-05	33.306	136.099	206.168	96.119	-21.572	110.483	48.547	-21.326	-17.997	101.985	233.102	-18.041	-13.361	-13.458	-9.677	134.038	-9.528	-8191	255	
5238.128	1	1	0	0	0.18525	0.031072	0.24634	0.051874	0.1351	0.1914	0.11384	0.25378	0.33418	0.11996	0.1801	0.27913	0.10242	0.091787	0.11662	0.16522	-1.0583	-1.7687	-1.9562	-1.3354	-2.3271	-1.7958	-1.6812	-2.4188	-1.2396	-1.7417	-2.1437	-1.4021	-2.1375	-1.8479	-1.5604	-2.2875	288.857	223.047	10.641	251.392	313.677	102.284	166.411	320.917	159.994	255.100	282.883	309.012	56.849	316.104	-17.113	-12.469	0.00016329	0.001313	0.0003826	550.4	3.497e-06	7.8976e-06	911.37	119.21	9.9048e-06	1.0007e-06	284.35	91.903	28.613	7.7139	8.6052e-06	32.561	0.0033767	0.0040177	0.0011332	543.94	4.2784e-05	4.4733e-05	854.2	120.92	4.3202e-05	4.5424e-05	284.8	89.569	33.331	9.728	4.4855e-05	32.822	94.409	12.731	94.134	-21.656	105.542	176.882	-21.451	-17.703	3.480	-5.620	-18.020	-13.368	-13.315	-10.326	133.313	-9.528	-8191	255	
5238.225	1	1	0	0	0.41377	0.253	0.18047	0.23353	0.082407	0.16948	0.09477	0.42016	0.33922	0.20436	0.16664	0.22461	0.24272	0.16434	0.31977	0.12045	-1.2875	-1.5458	-2.325	-1.5729	-2.1396	-2.0021	-1.5042	-2.2833	-1.5021	-1.4729	-2.3021	-1.4917	-2.0896	-2.0312	-1.425	-2.3479	36.108	10.192	-32.452	139.303	183.048	142.862	289.743	256.959	203.059	-25.350	300.818	57.159	258.940	195.541	24.104	271.777	0.00033191	0.00058734	0.00014273	554.46	3.969e-06	1.1714e-05	904.96	118.42	7.3086e-06	1.0931e-05	283.14	89.583	28.012	7.7368	8.8485e-06	32.814	0.0034631	0.0041629	0.0011496	543.64	4.3459e-05	4.5903e-05	845.36	119.57	4.3457e-05	4.5209e-05	282.4	88.705	32.975	9.7088	4.4836e-05	32.864	83.252	292.128	289.656	-22.298	218.642	122.074	-21.471	-17.716	169.986	83.651	-17.690	-13.631	-13.577	-9.724	-7.572	-9.326	-8191	255	
5238.321	1	1	0	0	0.29247	0.19838	0.13569	0.12259	0.18507	0.13143	0.28094	0.24572	0.15192	0.25713	0.23178	0.28942	0.1712	0.064719	0.078058	0.30222	-1.2917	-1.6417	-2.3146	-1.5438	-1.8104	-2.0604	-1.5438	-2.1208	-1.7479	-1.575	-2.4458	-1.5375	-1.7167	-2.2687	-1.3229	-2.1729	97.365	94.012	69.177	274.286	10.185	45.139	216.560	317.626	132.014	194.973	225.426	18.607	298.553	217.008	194.714	223.430	0.00024475	0.0013853	3.8006e-05	545.67	5.0509e-06	2.022e-05	900.42	119.59	5.6684e-06	8.9874e-06	283.81	90.567	28.412	7.8576	1.0374e-05	32.859	0.0035317	0.0041037	0.0011431	541.24	4.317e-05	4.5957e-05	846.66	120.35	4.4419e-05	4.6073e-05	282.1	89.289	33.24	9.7717	4.511e-05	33.009	32.168	280.454	316.334	-21.969	153.436	82.864	-21.547	-17.486	180.828	225.646	-17.993	-13.766	-12.999	-9.225	42.657	-10.211	-8191	255	
5238.417	1	1	0	0	0.29627	0.19101	0.36588	0.17302	0.074236	0.19356	0.17504	0.046837	0.16548	0.24742	0.11669	0.19332	0.13522	0.2225	0.2213	0.17576	-1.5333	-1.3771	-2.4688	-1.6229	-1.9583	-2.2687	-1.5458	-2.2354	-1.9167	-1.525	-2.2833	-1.6708	-1.7667	-2.3583	-1.3583	-2.1625	132.736	222.362	-23.879	259.146	183.737	-2.759	257.269	238.408	202.126	165.688	314.498	229.110	47.430	0.699	200.973	-14.927	0.00032839	0.00028796	0.00021128	548.44	3.998e-06	1.0085e-05	911.88	120.48	5.4548e-06	1.754e-05	286.49	91.61	29.232	8.2176	8.7975e-06	33.345	0.003527	0.0042037	0.0011542	543.12	4.4256e-05	4.6532e-05	852.43	121.64	4.4371e-05	4.548e-05	284.26	89.878	33.821	9.885	4.4733e-05	33.212	76.187	67.767	58.633	-21.702	99.096	165.914	-21.066	-17.668	125.978	93.641	-17.761	-13.471	-12.741	-9.690	230.680	-9.677	-8191	255	
5238.513	1	1	0	0	0.051631	0.14261	0.2471	0.17123	0.20922	0.12188	0.26214	0.12732	0.15549	0.16572	0.042029	0.26284	0.25265	0.11619	0.48276	0.35634	-1.5354	-1.3687	-2.3104	-1.8083	-1.6333	-2.1333	-1.5625	-1.8521	-1.8542	-1.5167	-2.5354	-1.6875	-1.5083	-2.3083	-1.4792	-1.9896	12.782	106.409	-16.396	100.016	13.952	263.302	213.662	-29.499	11.166	36.256	308.071	254.607	273.989	114.974	46.885	25.223	0.0002665	0.00073712	0.00029976	554.24	1.1508e-05	2.8415e-06	911.93	122.82	6.256e-06	1.4866e-05	291.53	92.782	29.406	8.0714	2.2129e-05	33.429	0.0035138	0.0041314	0.001149	549.43	4.4139e-05	4.59e-05	855.22	123.28	4.3781e-05	4.5498e-05	287.84	90.857	34.09	9.9545	4.438e-05	33.424	77.223	305.642	61.492	-21.563	40.476	53.571	-21.377	-17.521	-9.782	70.003	-17.499	-13.309	-13.580	-10.031	164.700	-9.692	-8191	255	
5238.609	1	1	0	0	0.30469	0.11634	0.15771	0.29276	0.16746	0.072296	0.41418	0.17208	0.038307	0.057326	0.04946	0.11929	0.097108	0.1353	0.23392	0.32029	-1.7375	-1.2396	-2.0854	-2.0208	-1.4312	-2.2604	-1.4562	-1.8167	-2.0271	-1.3208	-2.3438	-1.6729	-1.6125	-2.3604	-1.5875	-1.9417	129.177	8.338	5.233	279.639	321.358	189.247	237.229	43.141	-23.884	16.401	-26.670	290.192	216.158	179.610	18.660	293.624	0.00023868	0.0018508	0.00012508	557.99	6.373e-06	1.0591e-05	916.9	123.91	3.1365e-06	3.6779e-06	292.08	92.374	29.147	8.1415	9.5911e-06	33.664	0.0035548	0.0041572	0.0011464	551.92	4.4476e-05	4.5762e-05	862.55	124.58	4.4809e-05	4.6576e-05	288.48	91.35	34.284	9.9858	4.612e-05	33.655	100.322	-4.541	64.011	-21.991	88.739	133.266	-21.036	-17.290	46.953	143.478	-18.396	-12.858	-12.883	-10.367	136.467	-9.405	-8191	255	
5238.730	1	1	0	0	0.32486	0.16739	0.35171	0.19007	0.075976	0.092983	0.19575	0.31783	0.15653	0.1784	0.063185	0.011121	0.2055	0.23492	0.22239	0.25322	-1.8854	-1.3583	-1.8771	-1.975	-1.6917	-2.0812	-1.8917	-1.7896	-2.2542	-1.4896	-2.3583	-2.025	-1.4729	-2.2125	-1.8958	-1.8646	72.494	256.154	290.819	232.971	280.440	164.621	-6.399	260.181	159.282	86.915	22.453	166.584	-32.424	230.294	68.142	274.859	0.00018845	0.0006161	0.00016384	553.56	5.2475e-06	8.5582e-06	915.67	123.4	6.9766e-06	6.6692e-06	287.43	91.853	28.921	8.1633	5.7074e-06	33.701	0.0035945	0.0042864	0.0012011	551.7	4.6608e-05	4.8152e-05	863.97	124.13	4.6515e-05	4.8684e-05	288.32	91.011	34.562	10.119	4.8765e-05	33.69	97.453	251.265	220.551	-21.444	280.574	174.751	-21.407	-17.319	174.877	184.977	-17.717	-13.438	-13.038	-11.030	198.678	-9.390	-8191	255	
5238.824	1	1	0	0	0.37214	0.18217	0.12193	0.36356	0.2178	0.23828	0.13334	0.38048	0.097012	0.085119	0.14202	0.29939	0.12003	0.1723	0.085183	0.14341	-1.75	-1.5604	-1.9438	-2.0646	-1.2396	-2.0896	-1.8792	-1.6708	-2.3521	-1.3208	-1.9813	-2.1833	-1.3896	-2.2021	-1.6938	-1.5	186.580	223.290	155.877	272.759	196.377	236.161	303.389	303.407	121.860	10.519	127.523	5.024	231.028	296.540	211.393	258.319	0.0003466	0.0006935	0.0001651	549.14	1.2043e-05	6.2257e-06	910.4	120.62	6.1686e-06	8.3892e-06	285.96	90.875	28.974	8.0549	1.64e-05	33.076	0.0037639	0.0044476	0.0012356	547.89	4.74e-05	4.8599e-05	855.71	122.71	4.6237e-05	4.8258e-05	285.57	90.302	34.019	9.9457	4.703e-05	33.476	156.767	30.063	-16.175	-21.315	133.760	179.021	-21.139	-18.110	20.227	115.151	-17.650	-13.425	-13.362	-10.030	191.968	-10.145	-8191	255	
5238.920	1	1	0	0	0.10172	0.26983	0.26404	0.19977	0.12727	0.11794	0.1485	0.28165	0.10481	0.081284	0.12224	0.21877	0.1612	0.1144	0.29214	0.44162	-1.7333	-1.5354	-1.8188	-2.225	-1.3438	-2.1771	-1.9542	-1.6542	-2.4	-1.7604	-1.7042	-2.3167	-1.3	-1.9771	-1.9813	-1.4875	111.159	214.029	-23.013	95.672	23.037	14.005	32.313	254.302	211.905	126.661	176.583	255.023	79.820	145.989	249.206	117.990	0.00032833	0.0014091	0.00027729	551.42	6.1117e-06	1.3283e-05	910.3	122.29	5.1308e-06	4.7444e-06	286.93	90.775	29.136	8.0769	5.0024e-06	33.488	0.0036747	0.0043557	0.0011964	548.41	4.6102e-05	4.7948e-05	855.89	122.72	4.5355e-05	4.7726e-05	286.28	90.331	34.215	9.9426	4.6254e-05	33.463	33.657	48.807	118.930	-22.148	160.701	278.000	-21.217	-17.426	212.481	3.299	-17.550	-13.864	-13.120	-9.348	28.287	-9.507	-8191	255	
5239.017	1	1	0	0	0.19704	0.16468	0.083073	0.17646	0.093688	0.071886	0.2096	0.10333	0.077966	0.31731	0.17782	0.12898	0.11571	0.27581	0.21639	0.13296	-1.6562	-1.7062	-1.5104	-2.3312	-1.3979	-2.0917	-2.075	-1.5354	-2.3333	-1.6708	-1.6458	-2.0521	-1.5667	-1.8083	-1.9771	-1.3813	270.672	18.477	258.264	188.222	261.767	9.527	295.338	151.912	168.897	18.314	-4.398	172.973	127.963	269.572	-15.136	222.673	0.00020198	0.0002768	0.000242	549.81	3.8024e-06	8.7245e-06	905.38	121.74	3.6637e-06	6.2992e-06	287.95	92.63	29.097	8.066	1.6821e-05	33.508	0.0035335	0.0042757	0.0011798	545.23	4.5356e-05	4.6831e-05	853.6	122.59	4.5174e-05	4.7019e-05	287.42	90.986	34.203	10.065	4.7812e-05	33.822	75.116	185.782	60.928	-21.869	111.381	53.056	-21.563	-17.636	54.741	91.730	-17.555	-13.379	-13.680	-9.245	229.314	-10.197	-8191	255	
5239.090	1	1	0	0	0.11285	0.10586	0.25875	0.37082	0.17254	0.32168	0.040455	0.21666	0.12126	0.074922	0.14402	0.10315	0.09769	0.056304	0.21021	0.10783	-1.8083	-1.9083	-1.3542	-2.1875	-1.4542	-1.7771	-2.1021	-1.3854	-2	-2.0604	-1.5812	-2.2125	-1.5021	-1.6625	-1.9875	-1.3729	152.155	53.280	19.822	261.475	278.783	55.875	73.586	-17.962	105.294	213.983	288.799	-7.694	170.629	-22.032	-22.540	37.520	0.00015619	0.00066352	0.00025002	556.73	9.3963e-06	5.4269e-06	905.77	122.42	4.0174e-06	1.0031e-05	293.25	91.79	29.16	8.1214	1.3377e-05	33.508	0.0036112	0.004371	0.0012091	550.33	4.6696e-05	4.8365e-05	857.9	123.78	4.6425e-05	4.9157e-05	289.99	91.275	34.72	10.152	4.819e-05	33.939	159.138	65.893	159.683	-22.177	77.699	288.745	-21.332	-17.932	312.114	45.761	-18.272	-13.056	-13.508	-9.762	147.686	-10.067	-8191	255	
5239.209	1	1	0	0	0.21316	0.12929	0.059571	0.13587	0.054455	0.074384	0.27194	0.169	0.13328	0.1715	0.20613	0.24874	0.21898	0.16765	0.016071	0.12178	-1.7479	-1.8271	-1.2938	-2.4437	-1.4979	-1.6104	-2.25	-1.4625	-1.9562	-1.9458	-1.6333	-2.3063	-1.4937	-1.4958	-2.1792	-1.2625	209.668	106.630	61.754	35.696	92.000	309.209	279.298	57.298	246.242	251.385	121.728	-2.049	-4.656	288.653	170.290	249.197	0.00044565	0.00081871	0.00035047	559.48	8.015e-07	1.4007e-05	912.49	122.63	1.1643e-05	8.1504e-06	290.12	92.069	29.455	8.1956	1.4982e-05	33.759	0.0037074	0.0045387	0.0012558	553.06	4.8153e-05	4.9964e-05	859.83	124.49	4.7602e-05	4.9277e-05	290.33	91.592	34.943	10.249	4.8527e-05	34.067	115.726	231.126	51.197	-21.996	-26.421	127.721	-21.225	-17.960	203.632	148.272	-17.494	-13.408	-14.048	-9.718	150.262	-10.044	-8191	255	
5239.305	1	1	0	0	0.098313	0.021332	0.11648	0.054804	0.2916	0.0074518	0.35912	0.18937	0.16899	0.17363	0.15274	0.10476	0.098995	0.19327	0.069202	0.44176	-1.6042	-2.0375	-1.4458	-2.2	-1.9438	-1.5708	-2.2833	-1.5896	-1.85	-2.0854	-1.3896	-2.1833	-1.6688	-1.6313	-2.2021	-1.4229	303.925	199.282	76.619	320.781	-27.212	113.936	247.598	172.123	175.825	94.449	308.345	136.393	290.055	-0.534	22.985	-25.290	0.00026608	0.0017955	0.00023545	560.71	6.1954e-06	1.0221e-05	915.46	124.5	1.1286e-05	4.2949e-06	289.58	92.799	29.929	8.3307	3.7639e-06	33.448	0.0037095	0.004502	0.0012496	556.07	4.8662e-05	4.9883e-05	864.25	125.34	4.6612e-05	4.9403e-05	290.93	91.946	35.265	10.272	4.8165e-05	33.938	93.124	-20.421	321.537	-21.445	56.035	207.270	-21.807	-17.398	46.852	173.120	-17.502	-13.147	-13.498	-9.687	225.862	-10.266	-8191	255	
5239.401	1	1	0	0	0.11773	0.13788	0.15477	0.26442	0.14933	0.065563	0.36539	0.12193	0.10787	0.52609	0.28005	0.41867	0.16796	0.092187	0.24291	0.13823	-1.2875	-2.1771	-1.3375	-2.2146	-1.6646	-1.675	-2.2375	-1.4396	-1.5729	-2.3583	-1.2708	-2.0083	-1.7229	-1.5375	-2.0646	-1.5771	202.165	137.535	272.202	285.526	95.198	270.543	289.099	266.857	45.211	52.069	256.589	-14.326	186.129	-4.650	297.886	259.759	0.00035385	0.0012324	0.00012661	556.38	5.4502e-06	1.6499e-05	914.11	124.68	4.9631e-06	1.3979e-05	290.58	92.556	29.632	8.2662	6.063e-06	33.822	0.0037311	0.0045292	0.0012529	553.05	4.84e-05	4.9876e-05	862.73	125.87	4.7786e-05	5.088e-05	291.47	92.264	35.67	10.455	5.0428e-05	34.326	106.376	118.695	232.571	-21.927	58.768	203.773	-21.862	-17.719	79.553	107.540	-17.930	-13.306	-13.254	-8.928	321.679	-10.061	-8191	255	
5239.522	1	1	0	0	0.14569	0.11447	0.22068	0.17289	0.33043	0.18804	0.086465	0.23339	0.24216	0.13974	0.28852	0.23024	0.1	0.18685	0.24643	0.27523	-1.2125	-2.1104	-1.4375	-2.075	-2.025	-1.4083	-2.1271	-1.7521	-1.2583	-2.2083	-1.4792	-2.0083	-1.9792	-1.3604	-1.9208	-1.7396	67.379	-34.649	151.259	294.613	181.817	287.693	172.844	125.696	67.950	-14.847	181.876	199.034	76.110	-32.247	44.127	-21.363	0.00010209	0.0012385	0.00023002	557.23	2.9958e-06	1.5876e-05	921.81	125.03	3.9683e-06	1.4572e-05	293.58	94.436	30.222	8.2762	1.1183e-05	33.987	0.0039675	0.0047256	0.0013149	558.83	5.1212e-05	5.2319e-05	870.84	127.41	5.0602e-05	5.2915e-05	296.23	93.707	36.484	10.655	5.2147e-05	34.69	211.514	159.101	230.655	-21.785	313.931	146.360	-21.433	-17.433	198.891	317.899	-17.971	-13.106	-13.856	-9.736	193.693	-9.699	-8191	255	
5239.618	1	1	0	0	0.15771	0.32203	0.079767	0.10116	0.12037	0.060181	0.31981	0.15414	0.27949	0.070393	0.145	0.10806	0.24789	0.27621	0.11724	0.39644	-1.0187	-2.2542	-1.4292	-1.7625	-2.1167	-1.3146	-2.2646	-1.8771	-1.5125	-2.3333	-1.4854	-1.6	-1.9583	-1.4062	-1.9562	-1.8083	319.238	284.903	213.029	31.458	-30.166	193.701	197.739	315.496	-32.684	286.648	6.344	-9.159	211.026	30.117	38.681	257.753	0.00012223	0.0011148	0.00027133	562.72	6.6196e-06	1.1601e-05	925.54	126.39	2.2659e-06	4.8752e-06	293.74	94.08	30.587	8.3128	1.0605e-05	33.236	0.0040937	0.0048807	0.0013745	566.57	5.3122e-05	5.4347e-05	876.55	128.82	5.2047e-05	5.5013e-05	296.45	93.609	36.388	10.655	5.3057e-05	34.458	75.467	-28.211	4.177	-21.750	2.768	108.899	-21.610	-17.630	233.384	266.189	-17.924	-13.328	-12.898	-10.050	130.246	-9.750	-8191	255	
5239.690	1	1	0	0	0.22288	0.19749	0.054675	0.29537	0.18465	0.24413	0.084493	0.09879	0.22805	0.20817	0.049639	0.22686	0.31766	0.31492	0.27034	0.11501	-1.0312	-2.1667	-1.4813	-1.7896	-2.2104	-1.5187	-1.9604	-1.8479	-1.3062	-2.1521	-1.675	-1.7146	-2.275	-1.4417	-1.9583	-1.9708	204.986	11.600	20.407	312.592	26.502	106.413	194.192	310.463	159.926	-6.686	241.510	263.234	275.284	178.314	270.570	300.194	0.00031193	0.0027461	0.00063633	563.84	1.0169e-05	1.6857e-05	923.32	124.97	6.4509e-06	7.3586e-06	295.24	93.178	30.452	8.23	4.9102e-06	33.859	0.0042002	0.0049379	0.0013917	565.35	5.2879e-05	5.5541e-05	876.99	129.26	5.3609e-05	5.5386e-05	297.93	93.478	36.685	10.76	5.3939e-05	34.626	86.935	-10.973	79.976	-21.594	227.136	-15.366	-21.252	-18.313	307.336	194.477	-17.799	-13.309	-12.950	-9.071	19.683	-10.510	-8191	255	
5239.810	1	1	0	0	0.097907	0.036962	0.19185	0.049858	0.21563	0.043487	0.12264	0.059734	0.3551	0.009168	0.16399	0.1965	0.12052	0.2078	0.069707	0.27627	-0.8875	-2.2146	-1.4979	-1.4438	-2.4021	-1.3958	-2.0104	-2.1375	-1.2854	-2.1813	-1.7708	-1.4854	-2.1396	-1.4937	-1.6958	-2.1229	211.947	146.967	80.959	258.583	308.046	167.192	174.377	20.211	77.052	134.173	268.776	308.529	182.828	-9.986	254.632	312.099	9.4416e-05	0.0015044	0.00052973	564.99	4.6529e-06	1.9619e-05	922.25	126	1.0629e-05	1.1708e-05	296.41	92.714	30.961	8.3064	1.0109e-05	33.552	0.0042987	0.0050533	0.0014444	571.16	5.5354e-05	5.8668e-05	877.99	130.57	5.6159e-05	5.8741e-05	300.27	94.243	37.571	11.002	5.7541e-05	34.76	140.057	263.359	72.561	-21.720	-18.045	117.757	-21.208	-17.817	205.953	110.330	-17.512	-13.859	-14.696	-9.492	259.010	-9.549	-8191	255	
5239.905	1	1	0	0	0.10048	0.13827	0.24017	0.13011	0.071446	0.36087	0.16349	0.19882	0.27033	0.21331	0.080906	0.13586	0.057547	0.21783	0.058779	0.12052	-1.0042	-2.1813	-1.8125	-1.2042	-2.2646	-1.5812	-1.9125	-2.3104	-1.2792	-2.0875	-1.9875	-1.4188	-2.3417	-1.3604	-1.4458	-2.1854	289.138	141.345	279.399	81.065	6.210	-4.681	245.740	7.481	140.277	305.921	-0.175	322.588	135.124	210.333	-14.546	220.854	0.0001321	0.0015478	0.00040553	566.17	1.3097e-05	1.2106e-05	928.02	124.17	6.6676e-06	4.3602e-06	292.84	92.995	30.437	8.109	1.0649e-05	33.511	0.004574	0.0053515	0.0015259	574.14	5.7882e-05	5.9849e-05	882.55	130.09	5.7113e-05	5.9471e-05	300.31	94.563	37.497	11.031	5.8702e-05	34.959	239.088	236.492	159.332	-21.789	159.526	100.051	-21.072	-18.357	101.040	80.368	-17.778	-13.223	-13.907	-9.741	-26.504	-10.178	-8191	255	
5240.001	1	1	0	0	0.15865	0.080262	0.14867	0.4156	0.079426	0.076854	0.095184	0.35324	0.038028	0.26664	0.21121	0.1944	0.067936	0.13352	0.14109	0.077665	-1.1	-1.9562	-1.8625	-1.3667	-1.9688	-1.6292	-1.6812	-2.2979	-1.3417	-2.0708	-1.9396	-1.4083	-2.3417	-1.6812	-1.5146	-2.2958	19.364	125.799	1.661	286.149	174.116	218.447	215.246	255.214	43.372	263.219	271.851	16.498	70.593	226.310	311.392	5.753	0.00045978	0.0013892	0.00013283	566.25	1.5557e-05	2.3112e-05	920.38	125.22	1.2379e-05	2.209e-05	293.2	92.698	29.776	8.2018	1.9774e-05	33.362	0.0045597	0.0054069	0.0015457	570.05	5.7389e-05	5.9872e-05	877.32	129.96	5.7755e-05	6.0492e-05	300.63	94.309	37.41	11.094	6.0108e-05	34.786	148.719	98.096	31.095	-21.548	237.931	90.887	-21.171	-17.741	26.346	58.814	-17.411	-13.157	-14.174	-9.382	168.834	-10.127	-8191	255	
5240.121	1	1	0	0	0.012468	0.20921	0.095937	0.18804	0.067594	0.039283	0.35081	0.25024	0.18157	0.24106	0.19302	0.22042	0.15615	0.11817	0.30474	0.18634	-0.94167	-1.9521	-2.1312	-1.3521	-2.1688	-1.6583	-1.5562	-2.2125	-1.6479	-1.8417	-2.1042	-1.4542	-1.8563	-1.7833	-1.45	-2.3812	100.262	136.840	46.376	-10.588	160.967	304.965	267.481	63.379	174.024	301.828	66.678	297.991	2.145	304.906	-25.845	288.951	0.00026135	0.00027248	0.00024703	558.6	7.7152e-06	9.0415e-06	916.43	123.91	9.2438e-06	1.3403e-05	291.23	91.988	30.381	8.3018	1.269e-05	33.424	0.0047255	0.0056045	0.0015863	571.95	5.9786e-05	6.3724e-05	876.38	129.97	5.9763e-05	6.136e-05	299.28	93.772	37.23	10.956	5.9462e-05	34.713	122.736	248.215	-31.579	-21.905	83.138	50.957	-21.346	-17.484	240.482	121.370	-17.283	-13.206	-13.471	-10.043	-21.196	-10.275	-8191	255	
5240.218	1	1	0	0	0.080733	0.112	0.14543	0.17915	0.16852	0.13208	0.15466	0.1398	0.17883	0.11388	0.22735	0.12893	0.18051	0.25488	0.20205	0.19439	-0.97917	-1.65	-2.0229	-1.4562	-2.0229	-2.0229	-1.5562	-2.3146	-1.5812	-1.6646	-2.3583	-1.4667	-1.8667	-1.9792	-1.2188	-2.4	177.101	267.363	243.564	9.329	270.269	257.309	277.086	169.273	-26.510	178.441	313.050	156.189	249.171	277.961	166.785	254.195	0.00025847	0.0014058	0.00027581	551.26	1.6886e-05	6.3137e-06	915.17	124.51	9.7683e-06	1.4855e-05	289.98	92.811	29.907	8.1859	7.4356e-06	33.641	0.0045642	0.0055154	0.0015641	564.87	5.9135e-05	6.2369e-05	873.64	129.47	6.0472e-05	6.2582e-05	299.18	94.071	37.625	11.119	6.195e-05	34.963	154.958	306.397	158.598	-21.440	41.239	5.086	-21.282	-17.481	85.688	114.802	-17.468	-13.205	-12.545	-9.120	198.795	-9.637	-8191	255	
5240.314	1	1	0	0	0.15733	0.47594	0.2108	0.23103	0.31118	0.28772	0.11954	0.31168	0.13178	0.19616	0.11659	0.1808	0.35075	0.20965	0.29359	0.16439	-1.2062	-1.45	-2.0625	-1.3312	-1.8917	-1.9104	-1.3854	-2.1937	-1.8042	-1.5438	-2.2333	-1.4958	-1.575	-2.0854	-1.3583	-2.2229	173.119	221.273	164.430	212.367	91.180	265.953	324.556	220.961	290.411	-27.724	50.275	-25.603	17.060	304.084	127.839	32.309	0.00029643	0.0019597	0.00020686	555.66	1.7456e-05	1.3823e-05	916.16	124.5	5.8813e-06	1.2591e-05	293.21	92.929	30.304	8.5654	1.4813e-05	33.509	0.0048571	0.0058151	0.0016285	573	6.2076e-05	6.4612e-05	881.11	130.86	6.208e-05	6.479e-05	302.95	95.153	38.29	11.36	6.4483e-05	35.227	38.363	61.148	316.768	-21.740	131.161	174.507	-21.300	-17.141	178.554	189.274	-17.406	-13.003	-13.389	-10.172	322.871	-9.695	-8191	255	
5240.385	1	1	0	0	0.18345	0.24986	0.19191	0.022926	0.097552	0.14392	0.28846	0.14093	0.074311	0.37955	0.090641	0.31187	0.29879	0.25091	0.12868	0.045107	-1.4958	-1.5	-2.2083	-1.5146	-1.8062	-2.2375	-1.4125	-2.1	-1.8729	-1.2958	-2.2979	-1.6562	-1.6771	-2.225	-1.3292	-2.1437	53.002	253.587	-11.229	307.099	292.803	-29.996	293.707	148.052	282.698	78.770	305.119	254.019	-5.707	260.361	73.988	221.849	3.2941e-05	0.00016421	0.00038394	557.13	1.1202e-05	5.1471e-07	915.22	125.18	4.7235e-06	1.0043e-05	292.94	91.19	30.006	8.3005	1.6433e-05	33.057	0.0051135	0.0060771	0.0017232	581.89	6.7024e-05	7.0739e-05	885.82	133.78	7.0152e-05	7.3532e-05	307.73	96.199	39.943	11.965	7.562e-05	35.704	106.157	180.548	81.721	-21.891	190.596	165.322	-21.252	-17.396	308.687	158.997	-17.862	-13.486	-13.532	-9.923	205.445	-9.455	-8191	255	
5240.506	1	1	0	0	0.050584	0.18488	0.13168	0.15192	0.034648	0.20851	0.2582	0.066517	0.2567	0.17642	0.19237	0.1446	0.18431	0.14298	0.14025	0.268	-1.6167	-1.3208	-2.1042	-1.7458	-1.4688	-2.1583	-1.3	-1.9896	-1.9375	-1.4146	-2.1375	-1.6229	-1.4958	-2.2125	-1.375	-2.0917	105.497	218.322	319.316	300.308	9.901	-5.366	230.867	221.535	125.814	30.307	116.315	204.282	250.924	246.644	34.603	214.508	0.00011156	0.00030549	0.00017731	554.25	5.7962e-06	1.5591e-05	902.73	122.49	1.9576e-05	1.9814e-05	289.1	92.133	29.58	8.0272	5.3594e-06	32.635	0.0060011	0.0070671	0.001972	590.43	7.6015e-05	7.8546e-05	888.85	133.58	7.5857e-05	7.9225e-05	309.05	97.065	40.731	12.153	8.0871e-05	35.761	86.667	305.149	284.132	-21.433	53.935	200.887	-21.028	-17.640	199.101	53.619	-17.844	-14.237	-13.448	-9.684	53.721	-10.372	-8191	255	
5240.602	1	1	0	0	0.3919	0.032829	0.13287	0.33751	0.26959	0.12238	0.24055	0.092073	0.32495	0.09152	0.31873	0.28302	0.090966	0.38179	0.14868	0.19886	-1.6875	-1.25	-2.0333	-1.8563	-1.6125	-2.1458	-1.4229	-1.7313	-2.1063	-1.0375	-1.9771	-1.8917	-1.4312	-2.2417	-1.3625	-1.8042	162.693	181.964	255.056	301.441	211.349	186.115	276.787	-13.085	63.558	116.050	280.792	170.357	178.341	-31.388	313.624	239.926	0.00040838	0.00078729	0.0001157	557.69	1.2139e-06	2.4792e-05	906.3	122.48	1.0539e-05	5.8579e-06	289.66	89.871	29.874	8.1086	7.3986e-07	32.467	0.0062496	0.0074964	0.0020519	594.46	7.9287e-05	8.2554e-05	891.35	134.93	7.9288e-05	8.2985e-05	311.2	97.055	41.135	12.288	8.3769e-05	35.982	134.654	279.683	165.602	-21.705	152.667	143.805	-22.138	-18.452	6.651	139.343	-18.597	-13.265	-13.969	-10.207	53.318	-9.844	-8191	255	
5240.698	1	1	0	0	0.12099	0.15429	0.14127	0.23161	0.069051	0.17901	0.056412	0.31204	0.12664	0.13589	0.20195	0.28748	0.060464	0.057501	0.021392	0.17753	-1.7646	-1.1938	-2.0354	-1.9	-1.2042	-2.2333	-1.7604	-1.6458	-2.2083	-1.2792	-1.9646	-2.0729	-1.3917	-2.1896	-1.5521	-1.7583	24.349	140.565	275.445	-28.452	277.622	148.215	320.327	252.228	11.273	97.034	255.463	238.243	-21.537	297.272	285.036	278.764	0.00028068	0.00035778	0.00023833	552.7	9.2894e-06	5.9515e-06	906.1	122.61	2.4409e-06	1.6491e-05	288.93	90.274	29.677	8.2183	1.5746e-05	32.69	0.0064935	0.0078167	0.0021975	600.62	8.4585e-05	8.819e-05	900.42	138.61	8.8058e-05	9.3588e-05	319.26	99.358	43.174	12.905	9.3315e-05	36.659	259.670	10.260	26.005	-22.483	169.122	274.504	-21.774	-17.493	275.570	154.662	-17.935	-14.631	-13.955	-10.125	152.249	-10.195	-8191	255	
5240.793	1	1	0	0	0.066161	0.11732	0.19184	0.049764	0.16054	0.05203	0.12308	0.16948	0.21772	0.040328	0.15547	0.13571	0.46632	0.19678	0.1562	0.37757	-1.8958	-1.4208	-1.8667	-1.8146	-1.3292	-2.1521	-1.7083	-1.4229	-2.1292	-1.3375	-1.85	-1.9771	-1.2458	-2.1083	-1.7479	-1.5792	-19.486	52.133	274.346	200.600	283.196	149.751	-23.379	261.509	217.763	169.765	242.853	247.541	249.216	304.912	210.664	305.953	9.0761e-05	0.0010224	0.00027181	549.26	1.2469e-06	3.7692e-06	909.69	123.29	5.6797e-06	3.5113e-06	286.25	89.306	29.024	7.8814	3.2485e-06	32.031	0.007047	0.0084119	0.002333	606.39	9.0485e-05	9.2791e-05	903.51	139.1	8.9585e-05	9.4951e-05	317.66	98.561	43.108	12.932	9.5095e-05	36.443	91.095	34.256	79.270	-22.059	39.866	23.352	-21.879	-17.641	129.258	188.982	-17.937	-13.863	-13.377	-11.187	154.553	-10.192	-8191	255	
5240.913	1	1	0	0	0.17474	0.14157	0.097151	0.02429	0.1317	0.24386	0.11967	0.14963	0.1035	0.39415	0.28336	0.12334	0.12567	0.17458	0.22752	0.15357	-1.8958	-1.5979	-1.7167	-2.1729	-1.2563	-2.0667	-2.0125	-1.4458	-2.1813	-1.5354	-1.6812	-1.9771	-1.2812	-1.95	-1.8583	-1.375	-10.653	177.424	68.636	121.970	117.355	73.603	36.117	110.717	116.173	157.673	-25.006	307.332	12.140	252.708	-11.006	317.354	0.00016499	0.0011458	0.00015539	544.21	1.756e-05	1.2598e-05	890.19	121.78	1.4558e-05	8.7825e-06	283.36	89.08	28.949	7.8167	1.189e-05	31.514	0.0073812	0.0088462	0.0024412	604.96	9.2314e-05	9.4723e-05	897.67	138.16	8.8155e-05	9.3407e-05	313.57	97.156	42.127	12.562	9.0484e-05	35.801	262.100	30.024	268.786	-21.833	8.339	143.307	-21.649	-17.974	76.529	224.284	-18.431	-14.052	-12.820	-9.389	162.966	-10.304	-8191	255	
5240.985	1	1	0	0	0.15732	0.15811	0.36518	0.18919	0.20746	0.2596	0.069819	0.14479	0.11154	0.12882	0.057178	0.11864	0.066497	0.21006	0.059195	0.097457	-1.9	-1.6417	-1.5604	-2.325	-1.2542	-1.9333	-2.0146	-1.3146	-2.3021	-1.8375	-1.5917	-2.2687	-1.1979	-1.9562	-2.1083	-1.4083	24.644	97.816	286.359	70.859	41.789	240.190	177.674	-24.905	172.971	300.231	176.433	220.164	262.549	148.090	124.620	-7.196	0.00027639	0.0012457	0.00026738	537.73	1.1381e-05	6.2536e-06	890.54	120.78	1.6105e-05	9.9167e-06	279.04	87.964	28.808	7.8725	2.7184e-05	31.579	0.0068599	0.0082758	0.0023087	591.16	8.6055e-05	8.8531e-05	885.73	134.86	8.2602e-05	8.6841e-05	307.28	95.302	40.59	12.1	8.2993e-05	35.112	70.990	52.721	120.468	-21.762	-17.143	88.944	-21.394	-17.892	240.463	149.978	-18.298	-14.093	-14.122	-9.846	85.495	-10.163	-8191	255	
5241.081	1	1	0	0	0.21162	0.17893	0.15139	0.22066	0.12538	0.21014	0.15012	0.52019	0.13273	0.27482	0.071742	0.22404	0.13358	0.25365	0.21169	0.16179	-1.8396	-1.8208	-1.4292	-2.1354	-1.5917	-1.7042	-2.2625	-1.3188	-2.1104	-1.7375	-1.4646	-2.2687	-1.5729	-1.7083	-2.2188	-1.7583	19.070	324.166	133.034	83.050	210.463	265.204	305.499	271.796	110.111	293.640	245.915	294.865	313.684	141.788	108.163	-23.022	0.00015649	0.00018937	0.0004977	538.07	4.7639e-06	1.0487e-05	885.81	119.25	8.2755e-06	4.9427e-06	280.27	88.583	28.337	7.767	2.1287e-05	31.421	0.0063041	0.0075595	0.0021143	579.95	8.1057e-05	8.4259e-05	875.9	132.37	8.0198e-05	8.3949e-05	304.21	94.391	39.6	11.779	7.868e-05	34.69	67.888	291.560	48.534	-21.906	108.145	-31.368	-21.880	-17.830	33.147	158.824	-18.206	-13.930	-13.310	-9.599	24.202	-10.286	-8191	255	
5241.202	1	1	0	0	0.14953	0.068607	0.083253	0.2261	0.15779	0.14249	0.078339	0.39797	0.15619	0.016982	0.2858	0.053113	0.15414	0.12565	0.13151	0.15553	-1.8208	-1.8125	-1.2792	-2.475	-1.5083	-1.6521	-2.3125	-1.2604	-2.1271	-2.1104	-1.2854	-2.0938	-1.6583	-1.4417	-2.0771	-1.4271	280.432	99.122	0.033	295.022	262.189	219.752	224.176	270.879	102.116	149.151	229.569	191.540	285.714	207.934	109.513	257.827	0.00024036	0.0015336	0.00015354	528.96	1.8487e-05	1.1026e-05	880.39	118.4	8.0371e-06	1.5738e-05	278.8	87.701	28.211	7.8133	9.691e-06	31.685	0.0059561	0.0071674	0.0019631	566.53	7.6873e-05	7.8855e-05	865.99	130.16	7.5946e-05	8.0066e-05	301.31	93.135	39.256	11.73	7.6386e-05	34.64	6.878	248.238	64.953	-21.974	188.834	70.886	-21.758	-18.174	193.411	92.938	-18.273	-13.953	-13.725	-10.286	153.484	-10.242	-8191	255	
5241.298	1	1	0	0	0.31511	0.15699	0.17274	0.11305	0.28801	0.27438	0.31129	0.39469	0.14855	0.34169	0.34394	0.1443	0.13496	0.11466	0.28145	0.23476	-1.4875	-1.9104	-1.3563	-2.1562	-1.5083	-1.6458	-2.3604	-1.3292	-1.8792	-2.2062	-1.2792	-2.2333	-1.8083	-1.4479	-2.2375	-1.5167	-12.267	200.426	204.617	228.438	81.319	-34.794	303.835	26.534	92.484	315.759	279.175	175.073	96.460	5.099	31.807	264.976	0.00025408	0.0010785	0.00011721	529.3	3.4728e-06	1.6956e-05	881.66	119.43	8.6335e-06	4.0184e-06	279.35	87.288	28.383	7.8863	8.2429e-06	31.46	0.0059466	0.0070898	0.0019517	564.59	7.4406e-05	7.5424e-05	860.21	129.21	7.0999e-05	7.5181e-05	297.95	92.46	38.617	11.522	7.2914e-05	34.424	270.313	120.787	265.733	-22.079	223.462	135.272	-21.586	-17.756	89.648	149.811	-18.571	-13.617	-13.828	-9.823	14.325	-10.258	-8191	255	
5241.394	1	1	0	0	0.35911	0.19157	0.19929	0.038372	0.10229	0.21576	0.25234	0.18253	0.14765	0.09676	0.10246	0.19401	0.11478	0.28462	0.088081	0.088882	-1.2542	-2.1646	-1.3521	-2.0875	-1.7792	-1.4167	-2.3583	-1.4771	-1.6708	-2.2625	-1.5521	-2.1646	-1.9125	-1.4688	-2.0479	-1.7854	141.130	-25.108	60.276	150.480	19.929	233.909	221.052	-3.393	48.846	177.811	93.986	285.483	249.701	191.497	-28.159	314.930	0.00011557	0.0013224	0.00039889	531.2	1.081e-05	1.7584e-05	880.37	119.34	5.2831e-06	1.0584e-05	280.8	87.969	28.73	7.7527	1.0595e-05	31.748	0.0056805	0.0068822	0.0019176	565.49	7.4763e-05	7.7602e-05	864.36	131.14	7.7148e-05	8.2038e-05	303.75	94.79	40.018	11.953	8.0468e-05	34.965	17.537	120.086	108.856	-22.202	42.961	71.038	-21.707	-17.202	80.015	87.385	-17.841	-13.249	-14.163	-9.854	89.381	-10.379	-8191	255	
5241.490	1	1	0	0	0.21611	0.075037	0.12349	0.094371	0.26671	0.061306	0.253	0.10618	0.15218	0.17588	0.22613	0.062725	0.16101	0.089363	0.10476	0.23569	-1.1625	-2.3	-1.3792	-1.7375	-2.1521	-1.1979	-2.3104	-1.8062	-1.7188	-2.2708	-1.3521	-1.775	-2.0583	-1.3583	-2.2521	-1.8917	173.267	-4.033	203.018	302.277	134.887	90.141	228.019	205.215	160.116	56.853	-30.764	283.641	38.238	288.743	-0.788	245.480	0.0001015	0.0018478	0.00033748	532.01	2.3012e-06	1.3128e-05	882.8	120.55	9.9058e-06	2.0472e-05	284.84	88.361	29.03	7.7727	9.7005e-06	32.009	0.0062467	0.0075262	0.0021193	575.99	8.0986e-05	8.5818e-05	876.63	134	8.2711e-05	8.6367e-05	309.59	95.476	40.464	12.012	8.0143e-05	35.519	183.392	250.484	284.731	-21.323	162.249	32.757	-21.499	-17.973	302.624	26.289	-17.695	-13.710	-12.979	-9.960	-18.534	-9.875	-8191	255	
5241.586	1	1	0	0	0.16755	0.0039715	0.37976	0.32178	0.023919	0.043341	0.32601	0.15698	0.085689	0.22114	0.061839	0.22104	0.074815	0.23039	0.068852	0.11192	-1.1604	-2.1562	-1.4958	-2.0083	-2.2292	-1.3354	-2.1	-1.8354	-1.4708	-2.1604	-1.5396	-1.875	-2.1708	-1.1292	-1.9896	-1.7313	279.935	256.923	92.820	258.864	48.871	287.740	302.508	301.299	33.664	74.356	209.322	159.923	133.083	293.585	227.718	278.066	0.00045702	0.00069669	0.00057748	523.21	1.2867e-05	1.8003e-05	887.12	120.51	1.3217e-05	4.2327e-06	281.31	88.681	28.442	8.0219	2.191e-06	32.234	0.0062757	0.0074264	0.0020962	573.19	8.0955e-05	8.4144e-05	874.19	133.4	8.0547e-05	8.4108e-05	307.43	95.588	40.496	12.044	8.1408e-05	35.506	199.904	296.453	63.678	-21.980	117.061	129.472	-21.335	-17.969	154.758	288.319	-17.852	-13.286	-13.705	-10.033	41.971	-9.522	-8191	255	
5241.682	1	1	0	0	0.15921	0.13841	0.1604	0.3989	0.18032	0.12558	0.29288	0.19893	0.076751	0.089242	0.18331	0.20133	0.30939	0.21139	0.091682	0.20241	-1.0375	-2.3063	-1.5208	-1.4917	-2.0667	-1.2479	-2.0708	-1.9458	-1.4021	-2.2812	-1.5833	-1.7313	-2.1958	-1.5812	-1.9521	-2.0625	5.011	80.090	25.512	267.179	35.349	204.729	290.395	275.168	-26.961	154.509	40.515	152.775	154.329	130.551	177.082	73.037	0.00038208	0.00052165	0.00013064	526.62	5.4246e-06	1.0048e-05	887.42	119.85	1.4456e-05	1.2668e-05	280.22	89.772	28.756	7.9739	1.129e-05	32.215	0.0063238	0.0075879	0.0021249	574.33	8.2024e-05	8.4193e-05	877.15	132.88	8.0841e-05	8.2642e-05	305.23	95.74	40.527	12.168	8.1353e-05	35.517	215.347	280.411	314.395	-21.131	-8.595	145.930	-20.996	-18.329	100.733	168.020	-17.500	-13.373	-14.337	-10.092	194.266	-9.959	-8191	255	
5241.803	1	1	0	0	0.037267	0.02721	0.2824	0.19849	0.098544	0.096536	0.16979	0.18809	0.20223	0.061713	0.1741	0.22453	0.053906	0.14218	0.095452	0.19044	-0.77083	-2.0292	-1.7229	-1.3	-2.1042	-1.2271	-1.8729	-1.9271	-1.3625	-2.1708	-1.6604	-1.4604	-2.2542	-1.4542	-1.7958	-2.1792	105.421	37.286	73.671	-19.321	31.550	310.359	130.304	285.655	234.307	1.395	71.171	270.263	98.836	206.932	274.749	191.424	0.0003067	0.0011928	0.00034722	532.41	5.9372e-06	1.4295e-05	889.25	121.56	1.3086e-05	7.9562e-06	283.19	88.961	29.414	7.9661	1.5389e-05	32.577	0.0062912	0.0074413	0.0020952	573.03	7.9868e-05	8.2614e-05	874.26	132.9	7.8273e-05	8.0185e-05	306.33	95.372	40.394	12.086	8.0616e-05	35.685	202.131	258.380	59.767	-21.531	102.063	91.026	-21.648	-18.008	153.420	107.038	-17.859	-13.973	-12.826	-10.136	18.741	-9.603	-8191	255	
5241.898	1	1	0	0	0.1697	0.098806	0.20381	0.23783	0.028095	0.2641	0.23483	0.43319	0.02518	0.27568	0.27626	0.14431	0.1417	0.10389	0.26034	0.21586	-0.95833	-2.0312	-1.6583	-1.3979	-2.2979	-1.5167	-1.9688	-2.2708	-1.4042	-2.2	-1.9688	-1.4979	-2.3375	-1.5021	-1.6313	-2.2604	96.622	196.647	154.119	316.451	120.915	81.956	242.110	82.571	63.535	127.824	272.956	180.078	269.842	31.874	201.639	274.843	0.00046024	0.0015455	0.00073726	542.34	1.6651e-05	2.2985e-05	888.83	122.63	7.4143e-06	2.1157e-05	283.85	89.741	28.753	8.0967	8.8465e-06	32.403	0.0063523	0.0075679	0.0021391	583.33	8.1166e-05	8.5701e-05	881.66	135.48	8.0535e-05	8.2984e-05	310.14	96.646	40.826	12.375	8.3424e-05	36.029	161.062	252.563	168.334	-22.527	53.699	147.165	-21.341	-17.587	112.897	94.223	-17.757	-13.110	-12.925	-10.701	264.290	-10.569	-8191	255	
5241.994	1	1	0	0	0.054842	0.16509	0.32269	0.22067	0.22086	0.069287	0.36545	0.23585	0.20334	0.23255	0.085364	0.12346	0.23928	0.25719	0.10697	0.07171	-0.99583	-1.9042	-2.025	-1.4438	-2.2208	-1.5979	-1.9104	-2.3896	-1.2521	-1.9083	-2.1063	-1.3729	-2.0958	-1.7833	-1.5604	-2.2396	284.373	81.489	89.454	323.716	277.595	80.025	248.515	-3.949	90.718	253.376	162.829	-18.878	74.562	243.776	308.092	20.586	0.00042436	0.0010978	0.00042609	533.74	8.7206e-06	1.8177e-05	899.34	121.37	1.3967e-05	6.4715e-06	285.42	88.775	28.961	8.1792	7.6042e-06	32.198	0.0066238	0.0079917	0.0022817	590.59	8.8531e-05	9.3006e-05	893.5	136.95	8.9169e-05	9.1631e-05	314.69	97.725	42.07	12.771	9.1081e-05	36.409	115.955	27.419	164.168	-21.641	315.680	164.609	-21.277	-17.880	185.548	45.313	-17.722	-13.216	-13.508	-10.404	124.765	-10.212	-8191	255	
5242.090	1	1	0	0	0.21212	0.10105	0.11353	0.13003	0.24736	0.066073	0.26835	0.083524	0.23632	0.13617	0.13603	0.22262	0.23693	0.030168	0.26299	0.19853	-1.0083	-1.7979	-2.0542	-1.4125	-2	-1.8208	-1.625	-2.4813	-1.5354	-1.5875	-1.9104	-1.4542	-2.1208	-1.8937	-1.5417	-2.3271	-5.715	245.000	89.654	-31.570	14.058	150.376	282.546	299.151	190.881	157.466	71.358	166.390	268.169	147.147	-13.744	242.350	0.00025698	0.0022984	8.4439e-05	536.78	1.6028e-05	1.2723e-05	896.4	122.58	1.5835e-05	2.6132e-05	285.45	90.742	29.52	7.9936	1.9644e-05	32.072	0.0072149	0.008624	0.002439	596.61	9.2915e-05	9.7257e-05	896.69	139.06	9.2e-05	9.5462e-05	319.02	99.133	42.869	12.955	9.3853e-05	36.487	-18.662	289.517	43.769	-22.227	148.263	92.200	-21.462	-17.823	115.414	179.497	-17.322	-13.438	-13.367	-9.631	-8.046	-10.108	-8191	255	
5242.210	1	1	0	0	0.22384	0.056407	0.32632	0.038734	0.17637	0.37959	0.3388	0.0726	0.20428	0.21508	0.16244	0.12433	0.22408	0.18602	0.059896	0.065322	-1.0521	-1.7083	-2.1167	-1.5583	-2.0333	-1.8542	-1.5896	-2.275	-1.7604	-1.8083	-2.4646	-1.4146	-2.0042	-2.0229	-1.1146	-2.2479	238.077	288.409	75.993	225.106	26.050	151.330	236.380	61.789	143.435	76.280	266.560	-34.578	-15.515	183.896	-6.548	-12.756	0.00017074	0.0012105	0.00024969	545.96	1.2137e-05	9.6404e-06	898.83	123.03	1.4569e-05	8.5418e-06	287.54	90.329	29.531	7.9729	2.1914e-05	31.684	0.0073767	0.0088315	0.0024533	598.28	9.2009e-05	9.5667e-05	898.07	139.61	9.0819e-05	9.5759e-05	319.05	99.193	43.319	13.04	9.5206e-05	36.459	214.727	265.592	261.321	-21.456	79.359	131.310	-21.230	-17.746	-28.931	310.089	-17.564	-13.912	-13.027	-10.321	212.884	-9.846	-8191	255	
5242.282	1	1	0	0	0.14201	0.13046	0.18995	0.15172	0.11891	0.26723	0.30294	0.1879	0.035115	0.23267	0.055032	0.27467	0.17019	0.18683	0.15658	0.10451	-1.1562	-1.5938	-2.0479	-1.4667	-1.8479	-2.0958	-1.4083	-1.9542	-1.8604	-1.5562	-2.4771	-1.55	-1.65	-2.1396	-1.4458	-2.0875	18.495	172.336	92.958	283.587	114.385	264.126	239.691	163.636	225.447	204.211	-29.426	320.751	61.849	241.092	192.266	104.643	0.00025796	0.0018039	0.0006611	539.42	1.2425e-05	5.7031e-07	897.6	122.88	2.4503e-05	1.1612e-05	290.68	91.209	29.936	8.0746	1.4425e-05	32.349	0.0073287	0.0088144	0.0024545	600.44	9.2172e-05	9.7738e-05	901.53	140.25	9.4874e-05	9.7822e-05	324.12	100.21	44.186	13.321	9.7427e-05	36.946	146.532	127.290	142.426	-21.012	289.042	104.871	-21.366	-17.538	302.100	302.512	-18.346	-13.750	-14.017	-10.459	219.916	-9.953	-8191	255	
5242.378	1	1	0	0	0.15219	0.06881	0.33753	0.31192	0.023615	0.094879	0.097918	0.2702	0.23085	0.17901	0.15037	0.15463	0.22809	0.16897	0.13595	0.14753	-1.4813	-1.4188	-2.025	-1.6417	-1.9021	-2.1604	-1.4167	-2.1292	-1.6771	-1.3479	-2.1937	-1.5938	-1.7396	-2.2646	-1.2563	-2.1646	46.673	183.375	83.843	200.703	111.093	269.932	49.442	268.269	-32.325	172.501	257.557	81.975	126.742	251.378	264.185	59.386	0.00021457	0.0023637	0.00019891	542.69	6.9852e-06	3.2926e-05	896.43	124.39	2.0195e-05	8.3741e-06	289.91	91.286	29.69	8.0384	1.0337e-05	32.219	0.0075337	0.0090328	0.0025044	607.61	9.6831e-05	0.00010228	906.65	142.02	9.7084e-05	0.0001	324.42	100.86	44.53	13.251	9.6502e-05	36.787	118.750	129.398	194.964	-21.856	98.927	269.339	-21.621	-17.506	72.357	86.916	-17.889	-13.375	-13.199	-10.322	-14.820	-10.054	-8191	255	
5242.474	1	1	0	0	0.10733	0.26535	0.087764	0.11731	0.25906	0.093826	0.0997	0.17058	0.1219	0.16704	0.2408	0.22441	0.1527	0.19258	0.23138	0.11034	-1.5375	-1.4208	-2.175	-1.775	-1.5021	-2.2167	-1.3188	-1.9042	-1.8896	-1.3188	-2.3375	-1.775	-1.4771	-2.0792	-1.3875	-1.9083	60.303	262.433	-1.383	237.676	254.844	231.425	-3.398	-1.542	34.059	306.562	-17.263	22.457	223.402	174.565	157.846	158.736	0.00033665	0.0015101	0.000379	538.6	4.5847e-06	3.947e-05	901.04	123.98	5.3136e-06	7.6202e-06	287.31	91.889	29.981	8.273	8.0504e-06	32.285	0.0073796	0.0087864	0.0024257	601.07	9.2303e-05	9.6971e-05	900.74	140.72	9.3346e-05	9.7287e-05	320.85	100.54	43.973	13.24	9.6045e-05	36.877	143.047	156.123	198.536	-22.346	139.234	42.026	-21.599	-18.163	35.560	13.950	-17.823	-13.458	-13.655	-10.376	307.247	-9.366	-8191	255	
5242.571	1	1	0	0	0.12564	0.22739	0.23314	0.072196	0.1056	0.22722	0.20452	0.12559	0.12948	0.39719	0.19091	0.15716	0.27035	0.07918	0.059904	0.23904	-1.7625	-1.3062	-2.1188	-1.55	-1.5208	-2.2021	-1.5312	-1.9	-2.1854	-1.3083	-2.3438	-1.9271	-1.5354	-2.0417	-1.4979	-1.6896	-22.812	4.199	121.638	255.272	211.529	2.023	207.764	219.747	228.264	298.845	-7.965	-9.041	211.141	271.162	-24.984	292.593	5.5925e-05	0.0012279	0.00034058	540.34	2.1692e-05	1.2436e-05	903.74	126.33	1.0339e-05	1.9832e-05	289.27	92.627	30.276	8.2851	1.1642e-05	32.598	0.0074915	0.0087845	0.0024431	602.45	9.2483e-05	9.5983e-05	903.18	141.66	9.1253e-05	9.5184e-05	321.46	100.62	43.908	13.134	9.3025e-05	36.93	-22.074	24.563	61.496	-22.143	153.162	11.382	-21.471	-17.270	130.055	95.650	-18.122	-14.129	-12.990	-10.379	285.415	-9.904	-8191	255	
5242.689	1	1	0	0	0.32011	0.13812	0.17797	0.020028	0.1353	0.13843	0.2078	0.1102	0.12071	0.27565	0.38955	0.099924	0.10155	0.26837	0.13942	0.098381	-1.7521	-1.3042	-2.15	-2.0479	-1.3625	-2.1771	-1.6604	-1.6229	-2.2354	-1.275	-1.9229	-2.2042	-1.3458	-2.2792	-1.775	-1.6063	19.401	303.926	236.845	204.308	323.231	64.189	-26.411	-29.246	34.041	158.546	268.449	309.478	243.872	216.896	90.817	13.458	0.00016369	0.00071941	0.0001557	550.37	1.9041e-05	1.2725e-05	905.17	126.71	6.8818e-06	2.7087e-05	296.34	93.189	30.457	8.2182	7.6426e-06	32.84	0.0072444	0.0085736	0.0023691	604.24	9.1152e-05	9.3761e-05	906.27	141.79	9.0544e-05	9.3595e-05	323.53	100.6	43.564	12.935	9.0911e-05	36.948	157.310	15.133	139.620	-21.667	115.124	188.200	-21.825	-17.773	95.348	278.789	-18.149	-13.733	-13.083	-9.370	169.678	-9.947	-8191	255	
5242.786	1	1	0	0	0.27384	0.32577	0.15241	0.04535	0.14374	0.18075	0.21848	0.1162	0.2366	0.14208	0.15798	0.035087	0.21359	0.070233	0.3747	0.23517	-1.8604	-1.4	-2.0687	-2.0479	-1.15	-2.3229	-1.7667	-1.6063	-2.1292	-1.4854	-2.0042	-1.8563	-1.3292	-2.1813	-1.8521	-1.3458	62.255	172.354	210.001	53.105	-14.263	77.881	266.883	-16.232	322.679	-30.452	286.524	244.932	150.084	40.152	114.300	320.934	0.00066192	0.00067598	0.00071423	547.23	1.1367e-05	1.2574e-05	914.39	126.67	1.0964e-05	1.7394e-05	294.64	93.168	31.055	8.3009	1.8647e-05	33.027	0.0069086	0.0082699	0.0022676	602.83	8.8996e-05	9.0987e-05	907.63	142.05	8.7077e-05	9.104e-05	323.54	100.92	43.315	12.802	8.7515e-05	36.74	135.382	152.526	38.281	-21.694	138.048	191.423	-21.329	-17.396	110.125	234.861	-17.776	-13.461	-14.083	-10.104	180.628	-10.074	-8191	255	
5242.883	1	1	0	0	0.14034	0.36469	0.17124	0.13324	0.04326	0.22468	0.13302	0.12128	0.12422	0.18066	0.081642	0.026914	0.15997	0.15591	0.15202	0.041316	-1.9937	-1.4854	-1.6708	-2.1542	-1.3333	-1.9208	-2.0687	-1.5708	-2.1521	-1.5083	-1.6792	-2.3729	-1.5083	-1.9125	-2.0729	-1.5083	-27.218	54.546	46.392	-4.185	205.381	163.519	292.879	39.356	180.639	176.915	34.269	250.123	177.709	-30.768	179.517	223.481	0.00044808	0.0026662	0.00024149	549.55	1.0158e-05	1.2856e-05	916.8	127.51	1.3231e-05	3.307e-05	298.2	92.794	31.336	8.339	7.9672e-06	32.776	0.0066929	0.0079719	0.0022143	598.13	8.5231e-05	8.7356e-05	907.18	141.62	8.5519e-05	8.8896e-05	322.11	100.32	43.11	12.666	8.6528e-05	36.483	72.396	64.423	307.749	-21.975	-2.409	140.252	-21.584	-17.843	1.069	163.317	-17.957	-13.515	-13.782	-10.001	79.381	-9.673	-8191	255	
5242.978	1	1	0	0	0.07804	0.25454	0.22454	0.045949	0.15386	0.027147	0.26346	0.088795	0.015124	0.09597	0.15349	0.019156	0.078432	0.28793	0.17735	0.33834	-1.9	-1.4604	-1.6208	-2.3792	-1.4937	-2.0896	-2.0229	-1.3354	-2.0167	-1.6979	-1.4813	-2.3937	-1.6042	-1.9667	-2.0979	-1.6187	267.943	229.122	190.902	256.403	14.368	66.938	-17.952	-6.596	34.747	159.190	226.098	307.724	-33.755	157.647	50.009	266.408	0.00032854	0.00084039	5.3794e-05	550.46	6.0032e-06	1.4813e-05	911.01	126.99	7.2748e-06	2.3199e-05	294.63	93.212	30.784	8.2504	1.2654e-05	32.869	0.0065745	0.0079347	0.0022092	597.81	8.3615e-05	8.7008e-05	902.02	140.5	8.2521e-05	8.7244e-05	320.36	99.672	42.427	12.501	8.3852e-05	36.268	131.854	23.245	198.458	-21.741	223.130	208.567	-21.564	-17.378	19.474	148.751	-17.597	-13.340	-13.713	-10.363	128.021	-9.434	-8191	255	
5243.074	1	1	0	0	0.036747	0.041341	0.11208	0.08985	0.17387	0.051904	0.030698	0.28226	0.27735	0.12855	0.12929	0.21737	0.085123	0.16484	0.1519	0.28021	-1.8563	-1.8125	-1.5583	-2.2208	-1.6812	-1.9188	-2.2146	-1.3146	-2.2188	-1.9312	-1.4083	-2.3333	-1.5063	-1.725	-2.4333	-1.5375	-25.457	254.215	155.438	54.181	79.164	-34.840	293.993	26.982	65.403	107.013	230.562	-20.849	98.239	99.330	195.860	248.111	0.00026225	0.0018528	0.00043963	551.06	1.0033e-05	1.9263e-05	915.14	125.98	3.8281e-06	1.2813e-05	295.29	92.616	30.619	8.2843	8.493e-06	32.834	0.006395	0.0076834	0.0021394	593.6	8.1527e-05	8.4934e-05	901.86	139.39	8.1517e-05	8.601e-05	319.71	99.43	42.499	12.553	8.5559e-05	36.43	81.743	95.564	65.970	-21.829	259.626	18.013	-21.248	-18.301	264.830	217.685	-17.593	-13.450	-14.183	-10.730	90.461	-10.126	-8191	255	
5243.170	1	1	0	0	0.22167	0.30649	0.31778	0.11125	0.090804	0.011039	0.2838	0.10765	0.19014	0.37226	0.18909	0.24295	0.20936	0.082766	0.066567	0.023542	-1.8	-1.8667	-1.2625	-2.2812	-1.6104	-1.6167	-2.2875	-1.2583	-2.0104	-2.0396	-1.4146	-2.3396	-1.55	-1.6458	-2.2417	-1.575	16.881	14.899	213.279	306.437	0.798	147.893	299.625	151.238	251.838	21.463	319.399	201.679	324.109	148.138	26.045	19.124	0.00015612	0.00081459	0.00020299	554.07	1.8357e-05	5.3746e-06	915.3	128	7.9257e-06	1.0926e-05	298.64	93.151	30.85	8.3779	1.6151e-05	32.773	0.0065474	0.0078513	0.0021751	598.56	8.3656e-05	8.6245e-05	904.44	140.53	8.1741e-05	8.6743e-05	320.67	99.94	42.498	12.615	8.3088e-05	36.283	257.276	227.456	227.000	-22.120	183.910	61.334	-21.140	-17.412	166.513	107.912	-18.288	-13.460	-13.456	-9.800	95.027	-10.370	-8191	255	
5243.291	1	1	0	0	0.095103	0.16808	0.2745	0.050368	0.29313	0.13194	0.24334	0.16474	0.099324	0.10388	0.20191	0.14974	0.24078	0.32141	0.18373	0.040475	-1.6354	-2.1083	-1.3104	-2.2896	-1.5958	-1.6437	-2.4417	-1.5104	-1.8458	-2.2104	-1.3875	-2.15	-1.7083	-1.4688	-2.1125	-1.5396	-14.373	101.545	112.504	263.447	320.257	75.122	259.523	225.728	307.284	300.666	310.523	314.206	4.497	-3.035	293.823	166.142	0.00013971	0.0021012	0.00023464	549.9	1.3313e-05	2.9256e-05	914.64	125.26	1.1607e-05	5.5871e-06	291.33	92.49	30.919	8.2191	3.0006e-06	32.907	0.0064126	0.0077697	0.002161	595.3	8.343e-05	8.5814e-05	902.85	139.08	8.166e-05	8.6097e-05	317.03	98.885	42.237	12.351	8.199e-05	36.141	140.242	259.947	28.060	-21.480	70.847	-8.898	-21.670	-17.935	18.196	72.956	-18.161	-13.237	-14.069	-10.109	176.278	-9.697	-8191	255	
5243.387	1	1	0	0	0.029287	0.30344	0.13016	0.065951	0.21207	0.062064	0.098652	0.23187	0.089308	0.05764	0.18202	0.14699	0.079336	0.053498	0.095112	0.025373	-1.4062	-2.0333	-1.3229	-2.2271	-1.7708	-1.5146	-2.2625	-1.4396	-1.6854	-2.0854	-1.4521	-2.0396	-1.9292	-1.4271	-2.1708	-1.5021	216.583	12.853	49.362	252.547	-21.287	74.998	233.560	252.223	238.270	205.586	229.662	302.786	48.853	202.569	53.639	320.771	0.00015301	0.0010684	0.00054553	549.95	1.3837e-05	9.5496e-06	904.23	125.02	6.8428e-06	2.2634e-06	291.33	92.167	31.116	8.3158	9.0316e-06	32.864	0.0062603	0.0075947	0.0021015	590.91	8.0199e-05	8.2191e-05	891.19	137.68	7.7502e-05	8.1114e-05	314.06	98.014	41.744	12.229	7.9693e-05	35.948	51.775	6.693	29.397	-21.472	69.696	62.902	-21.503	-18.041	323.765	221.303	-18.119	-13.284	-13.526	-10.380	46.589	-10.103	-8191	255	
5243.483	1	1	0	0	0.19172	0.061783	0.045974	0.369	0.03151	0.059931	0.036331	0.28976	0.20171	0.23798	0.38583	0.26364	0.019731	0.14786	0.18344	0.060646	-1.2229	-2.2687	-1.4312	-2.0667	-2.0583	-1.2979	-2.5833	-1.6417	-1.6104	-2.5125	-1.4354	-1.9854	-1.8896	-1.2042	-2.075	-1.7417	-12.785	282.914	136.186	-27.579	-30.462	208.689	321.542	296.003	295.758	292.453	305.969	226.874	257.439	-10.608	-24.957	35.703	0.00033077	0.0015233	0.00018209	543.58	7.882e-06	8.9967e-06	913.94	124.99	4.1134e-06	7.3638e-06	294.43	92.655	30.052	8.2959	1.2435e-05	33.293	0.0061194	0.0073554	0.0020514	587.32	7.8673e-05	8.0238e-05	889.31	136.4	7.4543e-05	7.8029e-05	310.41	97.032	40.365	11.992	7.325e-05	35.676	101.792	55.204	32.652	-21.644	164.524	106.951	-21.412	-17.845	131.026	13.377	-17.946	-13.762	-14.475	-9.113	37.122	-10.108	-8191	255	
5243.579	1	1	0	0	0.25312	0.33565	0.29941	0.20555	0.098216	0.21078	0.24473	0.36227	0.030283	0.34708	0.065693	0.27085	0.13591	0.070394	0.26498	0.10317	-1.1437	-2.2083	-1.2979	-1.8417	-2.0625	-1.3937	-2.3438	-1.9083	-1.4604	-2.1146	-1.5604	-1.7729	-2.0833	-1.4271	-1.9979	-1.7417	308.254	276.521	71.401	195.584	217.678	289.571	223.118	174.047	162.112	138.248	22.277	-31.761	171.184	-26.076	197.943	174.654	1.6788e-05	0.00096135	0.00025398	549.79	1.6016e-05	1.313e-05	909.91	123.53	5.6774e-06	5.368e-06	289.64	90.058	29.215	8.1969	2.2319e-06	32.446	0.0056837	0.0067708	0.0019017	577.48	7.283e-05	7.4622e-05	881.2	133.2	7.1571e-05	7.4612e-05	307.48	95.148	39.679	11.761	7.3315e-05	35.192	258.987	134.383	187.788	-22.144	134.652	149.840	-21.330	-17.785	317.008	95.503	-17.670	-13.634	-13.469	-9.562	-6.454	-10.174	-8191	255	
5243.675	1	1	0	0	0.10536	0.19267	0.16525	0.3696	0.15263	0.061546	0.036921	0.27838	0.047092	0.29507	0.059416	0.21192	0.27588	0.13508	0.24923	0.28266	-1.0812	-2.1667	-1.6271	-1.7229	-2.2812	-1.2625	-2.1375	-1.9333	-1.4813	-2.3729	-1.6521	-1.4917	-2.1625	-1.5187	-1.9312	-2.0521	118.174	61.049	237.338	-14.778	170.392	5.609	130.554	247.457	315.470	290.762	191.981	293.434	302.487	103.454	8.361	237.468	3.8803e-05	0.0010243	0.00020382	539.28	1.2857e-05	1.0905e-05	894.57	120.69	1.6699e-05	1.27e-05	287.24	89.602	29.502	7.906	1.1784e-05	32.379	0.0056598	0.0066915	0.001879	569.99	7.0818e-05	7.3479e-05	869.27	129.96	7.0096e-05	7.2082e-05	302.16	94.379	39.061	11.596	7.3066e-05	34.919	9.711	203.060	223.010	-21.682	188.408	14.587	-21.185	-18.329	106.885	-21.290	-18.081	-13.415	-13.482	-10.960	131.328	-10.052	-8191	255	
5243.770	1	1	0	0	0.13278	0.16018	0.42127	0.10024	0.2585	0.039488	0.26292	0.13574	0.25148	0.057243	0.10187	0.22226	0.37145	0.092052	0.22188	0.080648	-0.8625	-2.1125	-1.7479	-1.4375	-2.2	-1.3188	-2.125	-2.05	-1.4979	-2.2083	-1.6792	-1.4854	-2.3833	-1.5708	-1.7188	-2.1958	94.871	320.201	116.713	153.671	78.227	108.505	222.290	75.995	298.328	110.694	196.642	324.528	18.012	165.830	-33.553	-11.816	0.00019329	0.00093134	0.00021845	543.9	5.9662e-06	1.5942e-05	893.45	122.35	1.336e-05	6.4438e-06	288.04	89.696	29.568	7.999	1.4025e-05	31.925	0.0057671	0.0068733	0.0019638	581.96	7.6361e-05	7.9167e-05	878.18	133.76	7.489e-05	7.7009e-05	306.92	95.329	40.021	11.747	7.5842e-05	35.075	234.272	35.198	214.498	-22.109	189.613	-15.534	-21.422	-17.389	160.315	262.466	-17.521	-13.509	-13.579	-9.767	156.776	-10.344	-8191	255	
5243.866	1	1	0	0	0.21197	0.14076	0.097298	0.23674	0.30741	0.11322	0.26099	0.062465	0.18366	0.19192	0.33169	0.23421	0.12144	0.16777	0.22095	0.17923	-1.0292	-2.1479	-1.7687	-1.3958	-2.3	-1.6229	-1.8542	-2.1792	-1.3771	-2.1021	-2.1083	-1.5292	-2.2479	-1.5083	-1.7104	-2.225	6.874	17.283	244.875	277.300	291.117	165.738	11.859	265.744	109.428	99.641	-16.706	247.175	9.975	-21.725	255.414	315.266	0.00034591	0.0010342	9.703e-05	547.87	1.5037e-05	1.1447e-05	895.29	122.16	1.739e-06	6.6058e-06	285.48	89.593	29.351	7.9372	1.8858e-05	31.989	0.0058292	0.0069892	0.0019771	582.42	7.5454e-05	7.8309e-05	878.73	133.31	7.4647e-05	7.6605e-05	305.65	95.094	39.485	11.696	7.4066e-05	34.821	49.554	28.764	-23.093	-21.685	271.578	218.462	-21.565	-17.224	213.230	315.147	-17.679	-13.044	-13.454	-9.109	238.288	-10.050	-8191	255	
5243.987	1	1	0	0	0.067941	0.13288	0.25724	0.12954	0.16562	0.04268	0.23082	0.40935	0.049156	0.18755	0.31027	0.14612	0.30153	0.21492	0.13219	0.2403	-1.1063	-2.0521	-1.9	-1.4042	-2.2125	-1.5	-1.6125	-2.3042	-1.4	-2.2083	-2.0083	-1.3979	-2.1312	-1.7458	-1.5167	-2.2417	3.954	224.806	38.321	213.513	274.535	-26.920	227.517	264.240	301.483	40.673	113.333	271.542	255.190	68.575	322.195	230.797	2.2083e-05	0.0015197	0.00054413	546.27	6.8322e-06	9.808e-06	901.09	122.05	6.5419e-06	1.1625e-05	286.72	90.001	28.658	7.9477	1.3512e-05	31.737	0.0058261	0.0068466	0.0019522	576.77	7.4021e-05	7.8168e-05	877.95	133.48	7.6206e-05	7.8977e-05	307.68	95.535	40.149	11.896	7.9367e-05	34.95	308.165	10.286	122.473	-21.552	-26.001	102.038	-21.495	-18.446	320.414	268.253	-17.913	-13.564	-13.811	-9.663	173.300	-9.047	-8191	255	
5244.083	1	1	0	0	0.061005	0.12165	0.13738	0.090934	0.12683	0.014141	0.10206	0.25747	0.23608	0.15518	0.40308	0.10317	0.047688	0.046926	0.15509	0.1241	-0.95	-1.7792	-2.1083	-1.2646	-2.0917	-1.7792	-1.5562	-2.3083	-1.3417	-1.6125	-2.1188	-1.6313	-2.1312	-1.7729	-1.3021	-2.4104	162.055	147.869	163.514	-13.895	218.807	220.795	234.202	-1.379	18.254	52.508	19.884	212.452	-13.732	75.374	52.463	23.108	4.5724e-05	0.00050063	0.00062514	536.4	1.989e-05	1.3897e-05	885.06	120.34	1.704e-05	9.9151e-06	281.54	88.32	29.219	7.6655	8.7644e-06	31.637	0.0061169	0.0072798	0.0020264	578.74	7.6007e-05	7.9824e-05	869.9	131.75	7.4805e-05	7.75e-05	302.43	93.925	38.927	11.627	7.5714e-05	34.482	88.855	-33.354	78.739	-21.869	273.338	232.824	-21.513	-18.016	74.240	82.902	-18.584	-13.365	-14.066	-11.011	135.385	-9.485	-8191	255	
5244.154	1	1	0	0	0.17018	0.11427	0.32743	0.13056	0.18501	0.085325	0.11353	0.15251	0.32722	0.0054537	0.61078	0.28767	0.24593	0.013264	0.26268	0.094133	-1.1063	-1.5354	-2.2938	-1.4375	-2.1333	-1.9208	-1.3021	-2.2458	-1.6292	-1.6333	-2.475	-1.2958	-1.9708	-2	-1.3458	-2.375	178.330	77.897	201.724	247.282	210.164	138.595	29.897	315.170	194.139	191.950	306.197	251.188	280.641	198.271	-33.491	266.883	0.0002896	0.00071116	0.00018183	530.37	1.2067e-05	1.2369e-05	880.12	120.86	1.8005e-05	1.5097e-05	283.26	88.932	28.698	7.9243	6.9099e-06	31.972	0.0058209	0.0069734	0.0019542	570.81	7.2912e-05	7.7396e-05	865.34	130.57	7.2341e-05	7.5112e-05	299.79	93.46	38.58	11.443	7.1211e-05	34.319	134.480	15.291	275.802	-21.983	8.222	8.169	-21.007	-17.266	310.113	38.228	-17.723	-13.651	-12.898	-10.090	162.886	-9.729	-8191	255	
5244.275	1	1	0	0	0.14424	0.26135	0.1639	0.10474	0.20199	0.072688	0.25059	0.24785	0.37887	0.28572	0.20275	0.18953	0.1341	0.098199	0.077083	0.40151	-1.3583	-1.525	-2.1542	-1.4438	-1.8104	-2.1813	-1.3104	-2.25	-1.8792	-1.4312	-2.3312	-1.7604	-1.8458	-2.0563	-1.4833	-2.1292	271.118	-21.685	310.888	62.869	283.976	287.569	191.895	-20.082	81.640	22.744	224.684	-12.282	77.927	303.876	266.675	267.839	0.00034352	0.00068997	0.00016524	535.25	9.9381e-07	1.1735e-05	887.56	119.57	1.0313e-05	2.1222e-05	279.54	89.435	28.818	8.071	7.9153e-06	31.461	0.0053779	0.0064269	0.0017952	561.15	6.7724e-05	7.0785e-05	861.69	128.78	6.7542e-05	7.0255e-05	297.37	93.004	37.936	11.329	6.9027e-05	34.061	94.792	143.487	68.617	-21.319	36.834	85.637	-21.563	-17.245	-25.492	101.169	-17.647	-13.478	-13.091	-10.205	214.644	-10.096	-8191	255	
5244.371	1	1	0	0	0.33293	0.32547	0.08645	0.083714	0.2911	0.066677	0.042649	0.11762	0.13406	0.29155	0.24016	0.17455	0.016983	0.30102	0.25682	0.30955	-1.5417	-1.4396	-2.3312	-1.5146	-1.6771	-2.1813	-1.7687	-2.1521	-1.8396	-1.4667	-2.3792	-1.575	-1.7771	-2.2	-1.3104	-2.1146	222.203	-33.288	253.826	240.256	49.720	143.493	-10.290	182.234	50.020	-34.617	300.381	216.705	-12.378	35.122	-4.029	184.761	0.0003425	0.0010639	0.00047092	527.83	9.3769e-06	1.4004e-05	890.58	120.35	2.4735e-06	9.8091e-06	284.29	89.769	29.243	7.9393	1.972e-05	31.982	0.0053293	0.0064135	0.0017756	559.36	6.9086e-05	7.2267e-05	861.86	129.44	7.1189e-05	7.3955e-05	301.29	94.498	39.334	11.72	7.6399e-05	34.883	115.311	193.345	81.476	-21.702	323.449	288.886	-21.256	-17.649	215.400	116.553	-17.546	-13.256	-13.329	-10.201	174.750	-9.780	-8191	255	
5244.467	1	1	0	0	0.028759	0.12044	0.16454	0.33194	0.25202	0.1681	0.30441	0.17571	0.066241	0.19001	0.13665	0.084739	0.13265	0.27386	0.27113	0.11293	-1.4771	-1.225	-1.9667	-1.6542	-1.5229	-2.05	-1.3979	-1.9292	-1.7646	-1.3438	-2.1979	-1.7396	-1.5854	-2.2271	-1.3125	-1.9562	214.656	-35.531	263.782	11.817	312.819	216.524	-7.450	238.843	307.277	1.543	242.380	82.886	189.501	-10.898	297.395	80.771	0.00022202	0.00086715	0.00061197	534.05	5.8819e-06	2.3193e-05	893.67	120.76	1.0734e-05	8.9688e-06	282.31	89.752	29.389	8.0336	9.6618e-06	32.158	0.005926	0.0070953	0.0019515	570.89	7.4267e-05	7.8414e-05	870.92	131.7	7.4851e-05	7.7117e-05	303.59	94.811	39.805	11.819	7.8243e-05	35.075	33.288	293.044	20.170	-21.721	146.035	80.781	-21.329	-17.933	130.275	236.127	-17.847	-13.455	-13.964	-10.195	107.222	-9.368	-8191	255	
5244.564	1	1	0	0	0.22839	0.28814	0.16318	0.32635	0.207	0.072072	0.088015	0.098608	0.12815	0.23678	0.25076	0.28611	0.12986	0.10156	0.086156	0.079065	-1.7313	-1.3771	-2.0333	-1.9583	-1.4271	-2.2542	-1.5167	-2.0125	-2.3312	-1.4792	-2.0771	-1.8958	-1.2229	-2.3146	-1.4813	-1.7021	198.296	-19.086	-11.172	272.851	73.995	75.819	254.986	208.073	-9.121	62.202	201.025	170.623	-10.386	16.123	299.422	209.924	0.0001129	0.00077932	0.00017071	538.08	1.2262e-05	4.1123e-06	891.77	120.7	1.2499e-05	2.0207e-05	285.46	89.168	28.777	7.7766	1.5399e-05	32.301	0.0061803	0.007298	0.0020548	577.81	7.8835e-05	8.2639e-05	875.63	132.82	7.9402e-05	8.3454e-05	308.13	95.938	40.865	12.093	8.1955e-05	35.565	280.666	322.230	31.698	-21.694	262.404	113.438	-21.553	-17.473	235.829	238.309	-17.466	-13.511	-13.138	-9.687	232.291	-9.527	-8191	255	
5244.682	1	1	0	0	0.38307	0.10709	0.12953	0.14244	0.2933	0.36555	0.052786	0.28917	0.2448	0.056195	0.20855	0.081253	0.37771	0.19908	0.065814	0.28759	-1.875	-1.4312	-2.0292	-1.8438	-1.3458	-2.1417	-1.7729	-1.6021	-2.1083	-1.325	-1.8958	-1.9104	-1.4604	-2.1271	-1.6833	-1.4083	163.863	274.303	256.630	159.748	95.913	79.535	259.057	312.012	316.075	197.967	-15.167	184.360	30.653	239.985	263.873	286.360	0.00019344	0.0015123	0.00055119	533.49	9.2497e-06	4.8408e-06	890.79	121.7	9.1856e-06	2.6967e-06	286.74	90.296	29.529	7.9666	7.5492e-06	32.554	0.0064485	0.0077421	0.0021295	581.61	8.218e-05	8.4506e-05	879.36	135.15	8.2998e-05	8.5649e-05	312.37	97.827	41.825	12.401	8.5575e-05	36.267	126.307	128.974	-22.464	-22.104	132.021	291.559	-21.438	-17.727	39.902	288.549	-18.050	-13.959	-13.429	-9.033	51.246	-10.181	-8191	255	
5244.756	1	1	0	0	0.2856	0.20353	0.12132	0.13098	0.20016	0.28283	0.29645	0.30819	0.28083	0.23069	0.17102	0.2707	0.013963	0.10526	0.20883	0.12112	-1.6812	-1.3604	-1.7417	-1.8896	-1.3687	-2.0604	-1.9	-1.2604	-2.2583	-1.4312	-1.7687	-2.0812	-1.1938	-2.0354	-1.7125	-1.5042	130.943	85.484	115.679	108.870	195.980	323.316	253.627	249.345	270.205	123.954	12.228	298.091	53.651	113.378	69.849	258.594	0.00020424	0.0017303	0.00036479	540.35	2.8212e-06	8.6835e-06	904.25	124.28	1.5272e-05	1.1979e-05	293.61	91.588	30.719	8.0556	9.2208e-06	32.58	0.0067499	0.0080455	0.0022415	593.97	8.6467e-05	8.9349e-05	894.7	138.58	8.5237e-05	8.9901e-05	319.39	99.741	43.272	12.861	9.1872e-05	36.887	133.029	25.594	320.183	-21.794	59.533	204.327	-21.794	-17.432	210.243	262.713	-17.054	-12.975	-13.367	-10.012	18.340	-9.674	-8191	255	
5244.852	1	1	0	0	0.15592	0.13407	0.16971	0.1161	0.1349	0.046856	0.14334	0.24068	0.25167	0.11269	0.066525	0.040421	0.2946	0.17812	0.17328	0.20849	-1.6021	-1.2708	-1.6646	-2.2292	-1.3062	-2.0208	-1.7021	-1.0458	-1.8729	-1.5333	-1.7021	-2.0938	-1.1667	-1.8687	-1.8563	-1.1688	29.747	240.994	179.467	166.169	181.544	-20.921	34.094	316.028	57.421	200.681	321.888	200.678	-16.084	80.202	194.767	134.117	0.00039772	0.0019975	0.0004151	544.43	6.4385e-06	2.4791e-05	898.72	126.47	2.4652e-06	2.0947e-05	291.19	91.556	30.334	8.1417	9.1634e-06	32.45	0.007193	0.0084655	0.0023945	603.29	9.2435e-05	9.5031e-05	901.63	140.74	9.022e-05	9.4484e-05	322.46	100.66	43.559	12.991	9.3425e-05	36.85	103.341	240.357	288.850	-22.132	195.222	31.041	-21.759	-17.379	5.146	182.764	-17.837	-13.893	-13.282	-9.851	105.747	-9.863	-8191	255	
5244.971	1	1	0	0	0.12429	0.091915	0.12885	0.11657	0.092002	0.19412	0.16092	0.26126	0.18242	0.18624	0.062967	0.14386	0.050624	0.060047	0.19134	0.24875	-1.8458	-1.3375	-1.5833	-2.1604	-1.1896	-2.0333	-2.1	-1.3312	-2.0563	-1.5104	-1.5708	-2.2729	-1.4875	-1.7854	-2.1271	-1.2521	311.250	230.296	-34.377	-19.930	17.771	13.747	263.653	1.049	232.765	305.710	165.211	77.200	42.662	-23.183	204.022	22.650	0.00011069	0.0015536	0.00033541	543.04	1.4167e-05	7.0024e-06	903.22	126.19	1.2848e-05	9.6964e-06	291.82	93.27	30.294	8.2253	1.173e-05	32.774	0.0071666	0.0086677	0.0023961	602.33	9.0714e-05	9.4236e-05	901.95	141.9	8.888e-05	9.273e-05	323.04	100.54	43.372	12.847	9.0288e-05	36.813	255.907	37.711	151.336	-22.211	97.763	-6.484	-21.663	-17.106	-11.147	175.834	-17.634	-13.364	-13.775	-9.875	157.316	-9.607	-8191	255	
5245.067	1	1	0	0	0.084573	0.02195	0.28208	0.026843	0.076674	0.16353	0.30095	0.14399	0.15209	0.063971	0.22748	0.0069042	0.062044	0.2065	0.079611	0.082824	-1.775	-1.8542	-1.275	-2.2396	-1.3646	-1.8604	-2.2313	-1.3167	-2.175	-1.7333	-1.4	-2.2646	-1.6812	-1.7437	-2.2667	-1.3312	234.660	192.804	157.971	88.338	6.669	217.532	305.227	298.068	274.181	164.720	-32.396	259.936	145.535	283.439	217.884	225.934	0.00027706	0.0023535	0.00041599	549.62	5.6072e-06	6.5407e-06	902.2	124.65	5.0607e-06	3.2588e-05	296.86	92.319	30.958	8.3652	1.3917e-05	32.679	0.0068832	0.0084028	0.0023153	601.66	8.87e-05	9.1733e-05	902.31	140.81	8.8116e-05	9.3407e-05	323.84	100.75	43.804	13.007	9.2147e-05	36.957	67.150	-10.830	291.015	-22.130	96.530	227.454	-21.756	-18.463	245.624	99.074	-18.029	-13.454	-13.013	-9.203	317.486	-10.036	-8191	255	
5245.163	1	1	0	0	0.17957	0.2891	0.092618	0.18311	0.11706	0.13911	0.34435	0.073982	0.19833	0.087369	0.2276	0.18756	0.16422	0.17899	0.2435	0.183	-1.5333	-1.7729	-1.3479	-2.3063	-1.6812	-1.6667	-2.4562	-1.5854	-1.8771	-1.8771	-1.4646	-2.4458	-1.7208	-1.6562	-2.2021	-1.3792	121.567	82.193	166.861	88.268	99.760	269.370	216.913	280.388	142.778	-20.208	249.022	310.813	-28.797	300.459	109.728	-32.397	0.00053533	0.00097626	0.00015272	548.18	1.2599e-05	1.4683e-05	913.16	128.24	1.3988e-05	1.1199e-05	294.94	93.311	31.264	8.4548	9.5629e-06	33.335	0.0070364	0.0085205	0.0023707	604.74	8.9548e-05	9.2316e-05	909.83	142.44	8.6596e-05	9.265e-05	324.08	101.25	43.685	13.02	8.9955e-05	37.09	102.418	108.192	73.323	-22.019	156.861	230.197	-21.762	-17.470	240.728	195.036	-18.133	-13.305	-13.651	-9.533	168.275	-9.962	-8191	255	
5245.284	1	1	0	0	0.1309	0.22978	0.36826	0.2344	0.016964	0.21944	0.17423	0.043117	0.082058	0.16924	0.20831	0.026827	0.14464	0.094374	0.125	0.074496	-1.6313	-2	-1.2687	-2.1896	-1.7563	-1.4042	-2.2812	-1.4792	-1.8396	-1.9125	-1.525	-2.2021	-1.8396	-1.3104	-2.4167	-1.6458	241.946	142.330	233.871	238.569	97.861	137.738	239.708	264.248	303.985	253.734	310.242	241.802	287.924	-2.083	312.620	60.372	0.00012009	0.00091071	0.00044228	560.6	3.5845e-06	8.0428e-06	916.63	126.02	6.6294e-06	1.8864e-05	297.95	92.643	30.785	8.3645	1.0074e-05	33.116	0.0069396	0.0083986	0.0023373	607.88	9.02e-05	9.4529e-05	911.39	142.5	8.9836e-05	9.4085e-05	326.02	101.41	44.148	13.135	9.3209e-05	37.304	313.174	111.284	230.657	-21.659	106.840	191.979	-21.652	-18.031	173.861	164.995	-18.029	-13.327	-12.982	-9.598	107.024	-10.145	-8191	255	
5245.380	1	1	0	0	0.19854	0.22147	0.11012	0.13679	0.13054	0.31356	0.14287	0.15028	0.2832	0.090746	0.17341	0.078114	0.32824	0.19126	0.092682	0.16573	-1.275	-2.1708	-1.4104	-2.1521	-1.9021	-1.2917	-2.5083	-1.8563	-1.4854	-2.4083	-1.5729	-2.0146	-1.9979	-1.2854	-2.1688	-1.5458	-25.002	279.309	273.116	19.233	156.063	252.715	263.287	-35.914	161.751	135.558	-12.907	225.353	260.666	207.621	268.575	295.714	0.00012847	0.00096468	0.00026041	555.74	1.2229e-05	1.8481e-05	910.53	127.34	2.2655e-05	1.1541e-05	295.31	92.893	31.438	8.3775	3.0565e-05	33.109	0.0072173	0.0087686	0.0024095	608.35	9.2498e-05	9.5098e-05	908.49	143.34	9.1196e-05	9.6633e-05	326.34	101.53	44.637	13.225	9.3284e-05	37.163	129.421	120.966	52.368	-21.947	53.624	169.643	-21.456	-18.226	210.625	169.244	-17.452	-13.738	-13.664	-9.707	99.057	-10.057	-8191	255	
5245.452	1	1	0	0	0.13201	0.049703	0.16406	0.38294	0.34984	0.064901	0.17497	0.13049	0.1374	0.27267	0.047766	0.10104	0.18292	0.26714	0.22411	0.24623	-1.1187	-2.0208	-1.2271	-2.075	-2	-1.2167	-2.1708	-1.5333	-1.3188	-2.175	-1.4396	-2.0271	-1.8188	-1.2833	-2.1375	-1.8021	140.212	239.912	62.470	318.504	159.793	129.296	31.099	265.342	159.418	2.415	12.437	165.782	250.751	19.475	91.877	299.144	0.00040326	0.0010215	0.00032217	554.5	8.6651e-06	1.206e-05	913.5	128.53	3.2929e-06	1.3186e-05	294.97	93.161	31.501	8.5246	7.5023e-06	33.259	0.0072607	0.0086089	0.0023999	611.05	9.2962e-05	9.6354e-05	914.99	144.48	9.267e-05	9.636e-05	328.34	102.01	45.009	13.32	9.3267e-05	37.453	43.853	11.645	78.434	-21.809	21.031	-22.469	-21.318	-17.602	265.198	-21.137	-17.438	-13.776	-13.726	-9.701	314.840	-10.068	-8191	255	
5245.572	1	1	0	0	0.25792	0.10019	0.15083	0.21657	0.13732	0.1193	0.056166	0.11157	0.092855	0.060671	0.33592	0.11937	0.27665	0.073958	0.13627	0.10761	-1.3375	-2.275	-1.5229	-1.8	-2.0854	-1.3375	-2.3875	-1.8375	-1.5187	-2.2542	-1.6375	-1.7646	-1.9813	-1.3958	-2.0292	-1.9917	301.835	182.394	59.030	91.478	101.363	-13.058	164.110	48.519	195.315	41.566	307.395	38.851	82.580	205.051	313.722	24.527	0.00020494	0.00092532	0.00027605	558.04	1.6431e-05	4.6986e-06	927.5	130.42	1.8197e-05	1.3905e-05	300.94	95.718	32.203	8.7568	1.5957e-05	33.471	0.0073198	0.0087552	0.0024529	619.25	9.4408e-05	9.7916e-05	924.6	146.82	9.4604e-05	9.7304e-05	333.92	104.29	45.92	13.565	9.4481e-05	37.764	188.514	68.223	264.485	-22.293	272.856	39.813	-21.514	-17.551	115.429	307.348	-17.748	-13.164	-13.822	-10.367	319.126	-10.179	-8191	255	
5245.668	1	1	0	0	0.12353	0.21192	0.2126	0.18123	0.16707	0.37841	0.22661	0.068103	0.17095	0.11532	0.12397	0.17506	0.13169	0.18756	0.036614	0.36186	-0.96875	-2.1792	-1.5646	-1.5146	-2.2604	-1.4083	-2.1854	-1.9521	-1.2188	-2.1229	-1.625	-1.6375	-2.3354	-1.3625	-1.9438	-1.9146	107.411	63.669	275.678	253.167	177.240	310.247	300.858	173.254	207.583	216.914	84.825	-35.808	258.577	4.846	119.002	301.839	0.00051506	0.00065087	0.00051623	556.85	6.8943e-06	8.2481e-06	928.1	131.54	3.4156e-05	1.4087e-05	301.76	95.233	32.258	8.4553	6.5458e-06	33.297	0.0074932	0.0088794	0.0024816	624.58	9.5253e-05	9.8417e-05	930.31	147.8	9.3784e-05	9.7012e-05	333.85	104.36	45.988	13.576	9.5264e-05	37.759	91.866	275.222	185.971	-21.787	16.519	217.795	-21.172	-18.012	71.557	132.161	-17.623	-13.505	-13.513	-9.790	108.889	-9.428	-8191	255	
5245.765	1	1	0	0	0.22648	0.10879	0.12814	0.26798	0.41732	0.25725	0.13478	0.071267	0.085857	0.26	0.26566	0.15103	0.23356	0.30676	0.26099	0.15146	-0.89167	-2.0229	-1.7188	-1.5562	-2.0625	-1.5312	-1.9521	-1.9479	-1.2479	-2.2667	-1.7938	-1.5833	-2.3187	-1.3771	-1.5125	-2.0833	14.127	293.229	308.832	207.424	195.911	254.489	259.786	37.121	76.177	55.918	246.605	306.766	255.949	32.045	323.703	287.862	0.00023702	0.0023652	0.00034683	559.36	2.6644e-06	2.3365e-05	924.95	131.51	6.5834e-06	1.1139e-05	302.43	95.909	32.145	8.6132	8.6644e-06	33.11	0.0073491	0.0088012	0.0024754	621.57	9.4995e-05	9.8533e-05	929.29	148.51	9.5461e-05	9.8912e-05	335.34	104.54	46.346	13.814	9.9349e-05	37.936	121.349	17.385	120.176	-21.355	300.099	144.152	-21.256	-17.753	321.226	199.861	-18.063	-13.129	-13.770	-9.501	95.764	-9.849	-8191	255	
5245.859	1	1	0	0	0.25762	0.27139	0.076693	0.20417	0.24674	0.12962	0.4239	0.13874	0.14976	0.19496	0.053542	0.047263	0.059998	0.2504	0.13703	0.20816	-0.96458	-2	-1.9062	-1.5292	-2.2958	-1.5708	-1.7667	-2.3563	-1.3292	-2.1458	-1.9771	-1.5375	-2.2333	-1.5792	-1.7646	-2.1271	10.820	27.785	51.528	71.991	84.838	65.943	264.613	321.226	168.379	263.386	208.421	-21.114	36.475	25.021	209.918	180.701	0.00020399	0.0022437	0.00030959	562.89	2.0221e-05	3.5115e-06	928.64	129.97	1.9046e-05	6.1401e-06	299.44	96.151	32.123	8.5253	6.8397e-06	33.038	0.0076562	0.0090796	0.0025896	625.79	9.6746e-05	0.00010118	928.21	147.8	9.5117e-05	9.8994e-05	334.4	104.19	45.994	13.598	9.6661e-05	37.705	83.422	35.900	293.610	-21.291	321.256	133.003	-21.065	-18.029	148.522	97.836	-17.248	-13.148	-12.783	-9.178	91.483	-9.285	-8191	255	
5245.980	1	1	0	0	0.11945	0.11622	0.27299	0.082212	0.12263	0.20272	0.35415	0.10873	0.15587	0.073922	0.20079	0.15225	0.14395	0.092634	0.18811	0.16441	-1.0292	-1.9771	-1.9896	-1.1604	-2.1458	-1.6708	-1.7083	-2.3667	-1.3521	-2.0812	-2.1521	-1.5354	-2.0917	-1.8896	-1.3875	-2.3	-34.918	290.021	70.935	216.347	-27.167	77.205	251.733	318.644	119.669	173.545	20.651	179.933	-2.418	-2.499	290.709	-17.534	0.00020918	0.001296	0.00029121	564.55	6.6032e-06	9.6662e-06	929.54	132.37	1.9119e-05	1.5311e-05	303.72	96.083	32.603	8.7915	9.9221e-06	33.661	0.0074608	0.0089212	0.0025104	623.34	9.3949e-05	9.9792e-05	929.09	148.99	9.5252e-05	0.00010005	338.36	105.4	46.837	13.833	0.00010018	38.265	125.369	60.077	182.288	-21.405	225.135	290.654	-20.587	-17.309	30.752	170.228	-17.100	-13.403	-13.686	-8.736	150.304	-9.714	-8191	255	
5246.051	1	1	0	0	0.38407	0.22248	0.15474	0.50122	0.079124	0.077794	0.28156	0.29415	0.031685	0.06899	0.15614	0.24156	0.24335	0.16755	0.33213	0.12012	-0.8625	-1.7396	-2.0792	-1.4167	-2.075	-1.7333	-1.5292	-2.1292	-1.4479	-1.6458	-2.0938	-1.4	-2.1083	-1.7896	-1.3083	-2.4042	86.101	252.218	303.637	265.509	51.642	20.448	209.593	169.068	-20.114	49.753	-7.399	34.988	199.829	101.630	12.012	70.355	0.00024689	0.00088448	0.00058799	566.56	9.7531e-06	6.8298e-06	932.13	134.29	2.5882e-05	2.3258e-05	305.53	96.378	32.668	8.683	1.9508e-05	33.138	0.0078332	0.0093895	0.0026308	632.81	9.7755e-05	0.00010417	938.48	151.11	9.7649e-05	0.00010169	340.02	105.27	46.706	13.937	9.9997e-05	37.996	91.859	239.832	89.350	-21.582	297.784	34.355	-21.213	-17.130	75.750	-2.893	-17.211	-13.494	-12.964	-9.219	224.458	-9.613	-8191	255	
5246.147	1	1	0	0	0.19452	0.19427	0.079437	0.13947	0.27432	0.19635	0.1496	0.2038	0.1018	0.15752	0.10406	0.27307	0.28457	0.20556	0.13952	0.13631	-1.15	-1.5542	-2.3417	-1.4125	-1.8896	-1.7896	-1.3333	-2.1708	-1.6021	-1.4813	-2.225	-1.4125	-2.0729	-1.8792	-1.4917	-2.2625	299.456	286.653	149.822	65.554	188.200	164.128	234.099	268.719	180.205	129.927	-18.362	304.486	100.673	135.715	185.517	177.815	0.00018426	0.0019071	0.00059297	565.72	8.6694e-06	3.7879e-06	933.9	132.67	4.1035e-06	5.095e-06	303.75	95.454	32.413	8.5683	1.265e-05	33.185	0.0078026	0.009376	0.0026411	631.12	0.00010079	0.00010634	940.61	150.8	0.00010159	0.00010519	340.48	105.62	47.422	14.167	0.00010487	38.309	27.332	10.381	89.707	-21.179	-20.488	187.885	-20.934	-17.532	289.190	42.826	-17.558	-13.268	-13.015	-8.359	264.174	-9.578	-8191	255	
5246.244	1	1	0	0	0.12183	0.16642	0.12996	0.1379	0.19902	0.072337	0.077607	0.25621	0.087974	0.067169	0.15453	0.1775	0.077156	0.20627	0.1933	0.24147	-1.3729	-1.4021	-2.1583	-1.3354	-1.8542	-2.1354	-1.3729	-2.2521	-1.7979	-1.4021	-2.2333	-1.5063	-1.6833	-2.1375	-1.2521	-2.2333	-7.299	210.874	153.905	314.771	283.884	206.000	270.663	59.745	0.583	163.957	202.638	196.125	289.866	274.862	82.758	263.805	0.00024632	0.0018372	0.00047137	556.7	7.0823e-06	1.5358e-05	930.66	132.99	1.9307e-05	7.9215e-06	302.44	94.852	32.338	8.6543	9.4589e-06	33.136	0.0082305	0.0098426	0.002729	633.91	0.00010318	0.00010908	941.26	151.1	0.0001016	0.00010533	339.05	105.78	47.3	14.027	0.0001034	38.074	152.198	142.132	181.713	-21.268	245.478	150.066	-20.905	-17.268	58.795	-16.445	-17.504	-12.909	-12.243	-9.585	143.236	-9.097	-8191	255	
5246.364	1	1	0	0	0.067932	0.26764	0.064444	0.10787	0.16124	0.11823	0.14188	0.31372	0.062755	0.17975	0.045646	0.22151	0.29334	0.019922	0.20748	0.063514	-1.2708	-1.4646	-2.0104	-1.4458	-1.7625	-2.2	-1.4583	-2.0542	-1.8146	-1.3958	-2.3312	-1.6542	-1.7	-2.0938	-1.2896	-2.15	56.402	187.502	99.794	29.581	47.443	83.839	208.098	211.919	171.343	154.845	231.536	290.842	219.897	118.432	264.842	80.949	0.00033703	0.00064592	0.00062986	560.2	2.4032e-06	3.1724e-05	933.91	132.95	1.5607e-06	7.9396e-06	301.54	96.5	32.754	8.6955	6.9225e-06	33.172	0.0079887	0.0095856	0.0026698	634.4	0.00010258	0.00010665	938.06	151.24	0.00010167	0.00010524	339.64	106.06	47.226	13.846	9.9755e-05	38.125	99.997	28.458	16.166	-21.519	46.257	106.148	-20.474	-16.948	-12.272	165.384	-17.578	-13.080	-13.428	-8.348	230.145	-9.213	-8191	255	
5246.460	1	1	0	0	0.19615	0.11368	0.25549	0.21571	0.36321	0.13931	0.30866	0.18579	0.08968	0.15505	0.19095	0.13898	0.15229	0.077743	0.021807	0.17445	-1.4125	-1.1896	-2.2146	-1.6104	-1.5146	-2.3979	-1.4458	-1.9771	-2.0354	-1.1271	-2.2458	-1.7146	-1.6125	-2.3583	-1.5271	-1.8875	239.252	73.657	129.009	-24.468	-2.032	215.668	308.338	63.437	135.633	49.147	260.592	192.606	285.823	317.723	-33.213	221.409	0.00033801	0.00052496	0.00045568	562.3	1.4268e-05	1.7757e-06	936.22	131.81	1.6968e-05	4.1864e-06	302.73	94.515	31.546	8.4875	1.6004e-05	32.938	0.0076969	0.0091176	0.0025352	627.12	9.7899e-05	0.00010157	935.97	148.13	9.6861e-05	0.00010004	335.61	104.02	46.033	13.516	9.6048e-05	37.498	76.934	207.880	94.771	-20.968	251.360	10.002	-20.756	-16.668	36.634	275.834	-17.124	-13.070	-12.278	-8.254	239.754	-9.491	-8191	255	
5246.556	1	1	0	0	0.23143	0.14083	0.11848	0.056496	0.04733	0.3572	0.065639	0.13594	0.1074	0.23512	0.14249	0.1194	0.067839	0.11291	0.1067	0.18367	-1.7687	-1.4958	-2.0333	-1.8542	-1.3937	-2.1667	-1.4833	-1.7354	-1.9896	-1.2208	-1.9937	-1.8521	-1.2583	-2.1604	-1.6271	-1.8125	53.775	96.582	3.317	202.134	30.203	14.709	273.695	217.765	18.236	209.191	5.198	241.822	-24.677	6.311	102.838	118.135	0.00020997	0.0010899	0.0004833	554.34	1.4796e-05	2.3272e-06	919.19	129.04	2.2726e-05	1.5835e-05	297.69	93.876	31.464	8.4396	9.3662e-06	33.291	0.00746	0.0088741	0.0024129	615.49	9.3493e-05	9.613e-05	915.32	144.93	9.0639e-05	9.3019e-05	326.19	101.83	44.246	13.072	8.9235e-05	36.892	132.967	119.632	24.497	-21.414	302.477	4.509	-20.751	-16.704	152.799	294.830	-17.252	-12.937	-12.759	-9.184	46.367	-9.159	-8191	255	
5246.653	1	1	0	0	0.28137	0.21423	0.32302	0.24718	0.15971	0.13959	0.21487	0.17969	0.14969	0.041999	0.11184	0.094414	0.044122	0.29023	0.27977	0.28659	-1.7375	-1.3229	-1.9813	-2.0646	-1.3542	-2.0979	-1.7521	-1.5688	-2.2458	-1.3625	-2.1896	-1.8687	-1.4312	-2.0521	-1.5812	-1.5479	221.753	20.552	283.793	144.525	146.344	175.719	229.632	234.583	293.757	160.325	38.232	13.032	110.035	7.252	2.294	273.864	0.00036019	0.0010939	0.0003022	554.14	1.3943e-05	5.0651e-06	921.65	130.38	1.4242e-05	2.3298e-05	301.21	95.177	31.969	8.5297	9.4492e-06	33.808	0.0069904	0.0082368	0.0022572	608.33	8.6858e-05	8.8986e-05	912.29	143.77	8.4106e-05	8.8102e-05	326.04	101.62	43.704	12.819	8.4391e-05	36.799	78.646	15.602	277.696	-20.922	138.976	291.799	-20.850	-16.778	116.733	182.783	-17.498	-12.284	-12.390	-9.915	281.761	-8.932	-8191	255	
5246.749	1	1	0	0	0.036801	0.15584	0.074252	0.32906	0.0047217	0.15835	0.39973	0.13114	0.13806	0.15549	0.20566	0.049044	0.090553	0.095801	0.23529	0.35415	-1.8312	-1.3312	-1.9042	-1.9854	-1.3937	-2.2062	-1.8792	-1.5354	-2.2562	-1.5667	-2.0021	-2.1188	-1.2437	-2.0896	-1.8146	-1.5354	170.985	142.113	116.967	-3.190	51.905	194.507	235.203	4.000	51.302	124.316	226.925	164.125	272.580	47.726	68.928	245.946	0.00034219	0.0020584	0.00037582	561.42	1.8686e-05	1.6961e-05	934.51	131.04	2.238e-05	9.1938e-06	306	95.931	32.13	8.531	1.5772e-05	33.936	0.006461	0.0075278	0.0020768	600.88	7.9029e-05	7.9672e-05	911.79	142.32	7.6236e-05	7.9587e-05	324.45	101.6	42.77	12.408	7.8867e-05	36.535	92.707	14.403	6.023	-21.115	-14.561	267.758	-20.590	-16.690	83.116	180.703	-17.100	-12.988	-13.048	-9.525	198.400	-8.654	-8191	255	
5246.845	1	1	0	0	0.17814	0.33683	0.11379	0.21636	0.23096	0.17513	0.32993	0.14458	0.15094	0.16546	0.32919	0.10827	0.32843	0.054836	0.20496	0.31208	-1.7792	-1.4667	-1.8542	-2.0917	-1.4792	-2.0812	-1.8229	-1.4104	-2.2146	-1.4979	-1.7604	-2.2396	-1.4854	-1.9021	-1.7375	-1.3833	-26.823	241.096	56.103	270.653	-6.215	60.201	202.272	313.129	252.042	42.935	297.156	16.742	266.854	142.832	42.099	258.389	0.00025376	0.0012069	0.00080037	563.55	4.7696e-06	2.025e-05	924.94	131.26	5.1994e-06	1.2623e-06	300.59	94.878	31.731	8.3741	1.7163e-05	33.073	0.0059759	0.0071115	0.0019945	598.68	7.6966e-05	7.9902e-05	906.21	141.11	7.6152e-05	8.0085e-05	320.81	99.852	42.066	12.318	7.8407e-05	36.008	76.053	105.565	89.171	-21.054	9.635	222.080	-20.510	-16.552	151.449	311.715	-16.863	-12.657	-13.141	-9.610	127.736	-9.029	-8191	255	
5246.964	1	1	0	0	0.096977	0.26283	0.1466	0.29059	0.081315	0.11315	0.085296	0.20159	0.40414	0.10487	0.051234	0.14791	0.14718	0.12565	0.10181	0.26048	-1.8521	-1.6437	-1.4708	-2.225	-1.5604	-1.8896	-2.1063	-1.2521	-2.0208	-1.6896	-1.5229	-2.1167	-1.3104	-1.8479	-2.125	-1.1979	223.732	57.941	128.496	191.663	1.382	274.738	0.904	310.428	142.656	103.909	322.477	16.937	315.428	243.098	-6.034	248.255	0.00033948	0.00068756	0.00039624	553.27	1.21e-05	9.1885e-06	913.21	128.49	2.0085e-05	1.2113e-05	298.07	94.221	30.931	8.3185	1.9456e-05	32.755	0.0059237	0.0071688	0.0019907	589.53	7.5329e-05	7.8251e-05	892.6	138.34	7.4034e-05	7.9208e-05	315.94	98.761	41.467	12.126	7.8107e-05	35.598	92.297	57.307	94.684	-20.881	16.730	185.092	-20.620	-16.705	9.233	-17.663	-16.824	-12.557	-12.343	-9.020	87.379	-9.458	-8191	255	
5247.060	1	1	0	0	0.068366	0.070616	0.20843	0.070799	0.1745	0.074087	0.33054	0.054981	0.29981	0.25663	0.095329	0.20357	0.0060751	0.32981	0.056192	0.093849	-1.5417	-1.5667	-1.3042	-2.1	-1.4875	-1.775	-2.2542	-1.4875	-1.8792	-1.6729	-1.3875	-2.4188	-1.3687	-1.5938	-2.2583	-1.3917	275.046	238.606	61.279	-16.703	13.821	305.309	264.438	206.537	157.942	82.260	49.132	232.275	218.686	208.517	244.789	70.224	0.000177	0.0008472	0.00040678	553.05	6.6851e-06	6.4669e-06	911.78	127.54	1.9972e-05	8.9657e-06	298.13	93.668	31.395	8.3646	6.9759e-06	33.013	0.0059071	0.0071744	0.0019774	587.33	7.4614e-05	7.6855e-05	890.08	137.04	7.1405e-05	7.5069e-05	313.05	97.569	40.842	11.999	7.346e-05	35.427	169.686	-14.480	37.327	-21.685	249.620	58.139	-20.904	-17.163	172.776	17.179	-16.743	-13.108	-13.550	-9.507	22.813	-9.256	-8191	255	
5247.156	1	1	0	0	0.10287	0.10955	0.13607	0.15164	0.019829	0.066282	0.20897	0.06855	0.34876	0.17503	0.36982	0.13198	0.043274	0.1749	0.087028	0.16265	-1.6333	-1.9521	-1.3271	-2.3042	-1.3854	-1.4646	-2.1708	-1.3792	-1.8167	-1.8771	-1.3667	-2.3063	-1.6333	-1.4771	-2.2896	-1.3792	240.514	295.571	187.382	126.322	115.537	197.108	242.179	181.456	125.664	245.488	310.293	279.801	203.158	212.134	180.990	108.884	9.9251e-05	0.0003975	0.00023145	554.94	1.1384e-05	7.8041e-06	922.81	129.28	9.57e-06	1.6668e-05	297.57	93.338	31.502	8.28	6.152e-06	32.983	0.0056695	0.0069288	0.001897	585.22	7.1849e-05	7.4847e-05	892.51	137.49	7.0136e-05	7.3512e-05	313.75	97.616	40.628	11.786	7.043e-05	35.13	99.797	54.932	139.318	-21.218	218.753	181.557	-20.750	-17.294	266.825	64.414	-17.497	-13.048	-14.040	-9.392	232.001	-9.411	-8191	255	
5247.252	1	1	0	0	0.24093	0.070862	0.059639	0.17701	0.1336	0.16707	0.1295	0.10951	0.22125	0.2767	0.26573	0.15692	0.26194	0.026363	0.13667	0.16945	-1.5958	-2.0354	-1.3604	-2.1437	-1.4937	-1.5375	-2.2896	-1.3042	-1.7104	-2.0125	-1.225	-1.9562	-1.7354	-1.2771	-2.3	-1.3708	78.143	-12.886	141.300	176.108	205.490	169.830	-17.097	190.685	238.357	195.709	-28.646	308.680	45.351	-27.233	178.982	-35.471	0.00025781	0.0016192	0.00027875	551.45	6.5749e-06	1.1964e-05	912.44	128.36	1.0055e-05	1.2827e-05	296.34	94.054	31.193	8.3503	2.5719e-05	32.784	0.0054548	0.0066204	0.0018388	578.86	7.0772e-05	7.3757e-05	887.53	136.34	6.9925e-05	7.3461e-05	311.68	97.471	40.495	11.777	7.0282e-05	35.019	13.254	78.693	108.482	-21.863	283.267	213.433	-21.375	-18.078	289.725	94.770	-18.332	-12.874	-14.055	-9.097	4.843	-9.531	-8191	255	
5247.348	1	1	0	0	0.20952	0.019432	0.038046	0.028801	0.15395	0.22945	0.29204	0.033309	0.14833	0.080953	0.23104	0.3059	0.10678	0.069924	0.41845	0.083683	-1.1021	-2.0167	-1.4083	-2.1292	-1.9583	-1.3563	-2.3479	-1.4917	-1.6812	-2.075	-1.2104	-2.0146	-2.0208	-1.4271	-2.3458	-1.6625	70.805	0.737	-27.276	56.523	38.596	293.931	276.853	110.594	149.873	70.446	289.958	309.115	-6.627	33.275	219.620	8.629	0.0001991	0.0008478	0.00020185	549.1	1.5284e-05	1.5888e-05	911.63	127.13	5.0209e-06	1.8126e-05	295.86	92.875	31.469	8.3855	1.0139e-05	32.871	0.005421	0.0065585	0.001805	575.33	6.9148e-05	7.1245e-05	881.41	135.44	6.8412e-05	7.2775e-05	310.92	97.048	40.689	11.901	7.2503e-05	35.265	0.647	-27.302	125.161	-21.463	255.624	311.825	-20.899	-17.627	-24.270	121.336	-18.012	-13.314	-13.955	-9.709	81.401	-9.868	-8191	255	
#DATA ENDS
