BOXY.EXE: ISS Imagent and Oximeter Data Acquisition Program Version 0.80
Ascii Record File

#ACQ INFORMATION
2  Detector Channels 
16  External MUX Channels 
1  Auxiliary Channels 
5000  Waveform (CCF) Frequency (Hz)
1  Waveforms Skipped 
30  Waveforms Averaged 
1  Cycles Averaged 
16  Acquisitions per Waveform 
10.0806  Updata Rate (Hz) 

#FILE INFORMATION
TRUE -- External MUX Channel results are PARSED.
FALSE -- AC DC and Phase are NOT grouped.
TRUE -- Companion Program Settings File CREATED.
FALSE -- AC data not excluded
FALSE -- DC data not excluded
FALSE -- Phase data not excluded
FALSE -- Auxillary Chn. data not excluded
Tab delimiters

#CALIBRATION STATE
TRUE -- Waveform Calibration Values APPLIED.


#AUX CALIBRATION VALUES
Val Type	aux-1	

Term	1.0000e+00	
Factor	0.0000e+00	


#WF CALIBRATION VALUES
A = Detector Channel
Val Type	A-AC1	A-AC2	A-AC3	A-AC4	A-AC5	A-AC6	A-AC7	A-AC8	A-AC9	A-AC10	A-AC11	A-AC12	A-AC13	A-AC14	A-AC15	A-AC16	A-DC1	A-DC2	A-DC3	A-DC4	A-DC5	A-DC6	A-DC7	A-DC8	A-DC9	A-DC10	A-DC11	A-DC12	A-DC13	A-DC14	A-DC15	A-DC16	A-Ph1	A-Ph2	A-Ph3	A-Ph4	A-Ph5	A-Ph6	A-Ph7	A-Ph8	A-Ph9	A-Ph10	A-Ph11	A-Ph12	A-Ph13	A-Ph14	A-Ph15	A-Ph16	

Term	0.00000e+00	0.00000e+00	0.00000e+00	0.00000e+00	0.00000e+00	0.00000e+00	0.00000e+00	0.00000e+00	0.00000e+00	0.00000e+00	0.00000e+00	0.00000e+00	0.00000e+00	0.00000e+00	0.00000e+00	0.00000e+00	0.00000e+00	0.00000e+00	0.00000e+00	0.00000e+00	0.00000e+00	0.00000e+00	0.00000e+00	0.00000e+00	0.00000e+00	0.00000e+00	0.00000e+00	0.00000e+00	0.00000e+00	0.00000e+00	0.00000e+00	0.00000e+00	0.00000e+00	0.00000e+00	0.00000e+00	0.00000e+00	0.00000e+00	0.00000e+00	0.00000e+00	0.00000e+00	0.00000e+00	0.00000e+00	0.00000e+00	0.00000e+00	0.00000e+00	0.00000e+00	0.00000e+00	0.00000e+00	
Factor	1.00000e+00	1.00000e+00	1.00000e+00	1.00000e+00	1.00000e+00	1.00000e+00	1.00000e+00	1.00000e+00	1.00000e+00	1.00000e+00	1.00000e+00	1.00000e+00	1.00000e+00	1.00000e+00	1.00000e+00	1.00000e+00	1.00000e+00	1.00000e+00	1.00000e+00	1.00000e+00	1.00000e+00	1.00000e+00	1.00000e+00	1.00000e+00	1.00000e+00	1.00000e+00	1.00000e+00	1.00000e+00	1.00000e+00	1.00000e+00	1.00000e+00	1.00000e+00	X	X	X	X	X	X	X	X	X	X	X	X	X	X	X	X	

B = Detector Channel
Val Type	B-AC1	B-AC2	B-AC3	B-AC4	B-AC5	B-AC6	B-AC7	B-AC8	B-AC9	B-AC10	B-AC11	B-AC12	B-AC13	B-AC14	B-AC15	B-AC16	B-DC1	B-DC2	B-DC3	B-DC4	B-DC5	B-DC6	B-DC7	B-DC8	B-DC9	B-DC10	B-DC11	B-DC12	B-DC13	B-DC14	B-DC15	B-DC16	B-Ph1	B-Ph2	B-Ph3	B-Ph4	B-Ph5	B-Ph6	B-Ph7	B-Ph8	B-Ph9	B-Ph10	B-Ph11	B-Ph12	B-Ph13	B-Ph14	B-Ph15	B-Ph16	

Term	0.00000e+00	0.00000e+00	0.00000e+00	0.00000e+00	0.00000e+00	0.00000e+00	0.00000e+00	0.00000e+00	0.00000e+00	0.00000e+00	0.00000e+00	0.00000e+00	0.00000e+00	0.00000e+00	0.00000e+00	0.00000e+00	0.00000e+00	0.00000e+00	0.00000e+00	0.00000e+00	0.00000e+00	0.00000e+00	0.00000e+00	0.00000e+00	0.00000e+00	0.00000e+00	0.00000e+00	0.00000e+00	0.00000e+00	0.00000e+00	0.00000e+00	0.00000e+00	-1.67035e+02	-1.31813e+02	-1.18266e+02	-1.82254e+02	-6.73012e+01	-6.35805e+01	-1.58235e+02	-1.62015e+02	-8.21516e+01	-6.64069e+01	-1.73094e+02	-1.71848e+02	-1.81803e+02	-1.76217e+02	-6.66317e+01	-1.49574e+02	
Factor	2.60193e-05	1.31156e-04	3.55713e-05	1.77363e-01	1.14735e-06	1.42536e-06	1.59092e-01	4.36410e-02	1.28641e-06	1.31667e-06	9.75283e-02	2.78767e-02	2.36486e-02	8.18886e-03	1.35331e-06	1.16072e-02	5.50139e-06	6.60625e-06	1.84189e-06	9.54833e-02	7.04423e-08	7.31455e-08	8.05169e-02	2.35997e-02	6.98754e-08	7.28695e-08	5.07794e-02	1.45466e-02	1.29190e-02	4.45731e-03	7.13134e-08	6.10789e-03	X	X	X	X	X	X	X	X	X	X	X	X	X	X	X	X	



#DISTANCE SETTINGS
A = Detector Channel
A-1	A-2	A-3	A-4	A-5	A-6	A-7	A-8	A-9	A-10	A-11	A-12	A-13	A-14	A-15	A-16	

2.5000e+00	3.0000e+00	2.5000e+00	3.0000e+00	2.0000e+00	3.0000e+00	1.5000e+00	3.0000e+00	3.0000e+00	3.0000e+00	3.0000e+00	3.0000e+00	3.0000e+00	3.0000e+00	1.5000e+00	3.0000e+00	

B = Detector Channel
B-1	B-2	B-3	B-4	B-5	B-6	B-7	B-8	B-9	B-10	B-11	B-12	B-13	B-14	B-15	B-16	

1.0000e+01	1.0000e+01	1.0000e+01	1.4400e+00	1.0000e+01	1.0000e+01	1.5100e+00	1.9400e+00	1.0000e+01	1.0000e+01	1.9900e+00	2.4900e+00	2.4100e+00	2.9000e+00	1.0000e+01	2.9800e+00	




#DATA BEGINS
time	group	step	mark	flag	A-AC1	A-AC2	A-AC3	A-AC4	A-AC5	A-AC6	A-AC7	A-AC8	A-AC9	A-AC10	A-AC11	A-AC12	A-AC13	A-AC14	A-AC15	A-AC16	A-DC1	A-DC2	A-DC3	A-DC4	A-DC5	A-DC6	A-DC7	A-DC8	A-DC9	A-DC10	A-DC11	A-DC12	A-DC13	A-DC14	A-DC15	A-DC16	A-Ph1	A-Ph2	A-Ph3	A-Ph4	A-Ph5	A-Ph6	A-Ph7	A-Ph8	A-Ph9	A-Ph10	A-Ph11	A-Ph12	A-Ph13	A-Ph14	A-Ph15	A-Ph16	B-AC1	B-AC2	B-AC3	B-AC4	B-AC5	B-AC6	B-AC7	B-AC8	B-AC9	B-AC10	B-AC11	B-AC12	B-AC13	B-AC14	B-AC15	B-AC16	B-DC1	B-DC2	B-DC3	B-DC4	B-DC5	B-DC6	B-DC7	B-DC8	B-DC9	B-DC10	B-DC11	B-DC12	B-DC13	B-DC14	B-DC15	B-DC16	B-Ph1	B-Ph2	B-Ph3	B-Ph4	B-Ph5	B-Ph6	B-Ph7	B-Ph8	B-Ph9	B-Ph10	B-Ph11	B-Ph12	B-Ph13	B-Ph14	B-Ph15	B-Ph16	aux-1	digaux	

5206.332	1	1	0	256	0.11601	0.25989	0.060657	0.12225	0.22924	0.16019	0.12204	0.24705	0.24369	0.34697	0.13237	0.25512	0.29008	0.14213	0.27521	0.045712	-1.0583	-2.1813	-1.3896	-1.9146	-2.3417	-1.4625	-2.3563	-1.8458	-1.6	-2.2	-1.7188	-1.7313	-2.3604	-1.4583	-1.8563	-2.0979	320.883	113.047	213.904	351.908	111.065	81.543	251.193	331.770	317.334	352.510	179.103	-3.788	217.844	301.242	193.646	293.762	9.6661e-05	0.00071697	0.00043398	607.95	3.9523e-06	1.6055e-05	1222.4	116.03	3.0545e-05	2.588e-05	390.16	136.81	28.49	9.0566	1.1494e-05	57.344	0.0065173	0.007704	0.0021775	608.63	8.4218e-05	8.6541e-05	1100.1	123.75	8.4486e-05	8.7953e-05	386.23	131.28	39.437	12.826	8.5282e-05	54.924	53.059	257.671	119.123	8.107	275.774	169.414	9.509	13.162	126.405	98.055	13.313	17.745	18.079	21.329	84.653	21.773	-8191	255	
5206.451	1	1	0	0	0.20315	0.22002	0.21077	0.24439	0.060651	0.10818	0.22143	0.091613	0.19154	0.24239	0.21455	0.34788	0.25666	0.17074	0.29393	0.32263	-1.1125	-2.2271	-1.5521	-1.8458	-2.1167	-1.3521	-2.2	-2.1292	-1.2396	-2.1583	-1.8687	-1.5771	-2.3208	-1.3854	-1.8875	-2.1896	5.690	50.757	269.074	332.041	162.168	130.146	313.125	114.709	59.641	273.110	317.878	306.369	66.340	233.966	315.299	296.674	0.00054013	0.0022585	0.00014198	601.72	1.2281e-05	4.7216e-06	1217	114.15	2.2579e-05	1.4423e-05	392.27	137.75	27.913	8.9845	1.0739e-05	56.716	0.0066493	0.0079145	0.0022024	607.51	8.3587e-05	8.8007e-05	1094.9	122.3	8.4073e-05	8.7203e-05	383.45	130.64	38.912	12.73	8.3871e-05	54.751	125.904	84.438	268.509	8.492	17.559	58.239	9.690	13.335	139.249	73.418	13.573	17.598	16.604	21.526	136.891	21.301	-8191	255	
5206.547	1	1	0	0	0.25201	0.15201	0.079966	0.10087	0.23038	0.076921	0.18298	0.25073	0.27178	0.013184	0.25182	0.28021	0.096054	0.1505	0.22082	0.17074	-1.025	-2.0917	-1.6792	-1.4562	-2.3812	-1.5396	-1.9104	-2.1229	-1.2771	-2.0167	-1.9333	-1.5688	-2.0729	-1.475	-1.7375	-2.1729	334.204	228.435	11.301	105.323	263.574	55.650	277.860	58.931	20.206	63.829	208.011	19.601	52.633	293.613	190.499	30.145	0.0011484	0.0010426	0.00048419	592.07	2.5569e-05	1.6139e-05	1221.6	114.34	7.5697e-06	1.2151e-05	399.19	138.64	29.605	9.1518	5.2845e-06	57.853	0.0065704	0.0077184	0.0022181	601.66	8.3079e-05	8.6622e-05	1093.2	122.01	8.139e-05	8.3533e-05	386.58	130.64	38.862	12.835	8.2306e-05	55.104	161.079	113.098	289.815	8.510	217.890	169.905	9.464	13.305	344.448	217.484	13.594	17.513	16.048	21.888	66.661	21.795	-8191	255	
5206.644	1	1	0	0	0.20892	0.10208	0.097037	0.084045	0.35582	0.094814	0.44066	0.30313	0.16782	0.23085	0.090998	0.38682	0.1266	0.096444	0.17223	0.12922	-0.97708	-2.1229	-1.9083	-1.3813	-2.2021	-1.4646	-1.8604	-2.1458	-1.1854	-1.8771	-2.0375	-1.4708	-2.1646	-1.7146	-1.5167	-2.3542	19.034	17.362	138.521	24.352	20.070	225.743	332.134	72.724	178.549	97.223	282.284	2.361	253.293	99.699	110.587	162.263	0.00058763	0.0014342	0.00064136	601.97	2.0448e-05	3.1209e-05	1223.3	114.21	5.6976e-06	2.0297e-05	396.01	137.14	28.595	9.313	9.9431e-06	57.513	0.0064408	0.0076202	0.0021661	601.43	7.9914e-05	8.5842e-05	1096.7	121.51	8.137e-05	8.4087e-05	386.15	130.27	38.622	12.732	8.2084e-05	55.094	104.344	98.660	124.442	8.630	98.566	179.537	9.460	13.170	98.661	147.785	13.192	17.689	18.147	24.031	327.288	21.062	-8191	255	
5206.740	1	1	0	0	0.16916	0.091323	0.32059	0.28617	0.097597	0.25511	0.33115	0.1458	0.030463	0.28985	0.1105	0.20966	0.22472	0.042832	0.11065	0.12882	-1.0688	-1.8625	-1.9562	-1.4854	-2.1583	-1.7771	-1.6917	-2.2417	-1.4562	-1.8646	-2.0979	-1.3125	-1.9104	-1.9958	-1.4354	-2.2687	294.150	288.866	-0.775	353.264	122.677	93.654	276.518	220.337	240.596	252.467	341.441	343.728	94.830	207.088	290.942	285.726	0.00018949	0.0014938	0.00020759	601.81	1.5165e-05	1.82e-05	1214.3	114.65	1.3874e-05	1.9552e-05	399.77	135.78	28.991	9.0212	7.4078e-06	57.069	0.0064457	0.0076728	0.0021942	604.14	8.2225e-05	8.6903e-05	1098.2	122.14	8.2972e-05	8.5879e-05	386.35	130.52	39.011	12.817	8.5511e-05	54.663	79.625	285.963	218.257	9.043	329.020	153.242	9.555	13.237	206.030	175.652	13.948	17.234	19.073	22.405	87.196	21.621	-8191	255	
5206.860	1	1	0	0	0.21712	0.084959	0.11939	0.15906	0.045851	0.021813	0.18176	0.14734	0.15792	0.29815	0.23654	0.14884	0.2201	0.10881	0.052604	0.19906	-1.1583	-1.9062	-2.0812	-1.4292	-1.9854	-1.7979	-1.5875	-2.2125	-1.6708	-1.7125	-2.4417	-1.5688	-1.9604	-2.0187	-1.3958	-2.3292	206.394	191.464	224.998	23.109	323.444	20.434	28.783	339.874	232.925	160.159	244.191	271.119	301.997	128.515	335.227	10.455	0.00038704	0.0019899	0.00029995	604.59	7.3368e-06	2.1076e-05	1219.5	114.16	1.2895e-05	5.4395e-06	398.25	137.15	29.237	9.0634	1.5471e-05	56.646	0.0067162	0.0078791	0.0022139	609.43	8.3004e-05	8.923e-05	1099.7	122.53	8.5001e-05	8.7225e-05	387.13	130.31	39.229	12.905	8.5849e-05	54.362	114.718	126.902	161.288	8.465	11.952	241.334	9.506	13.575	129.332	164.377	12.975	17.581	18.624	21.742	100.456	21.649	-8191	255	
5206.932	1	1	0	0	0.16964	0.24849	0.18577	0.11274	0.25103	0.069131	0.33707	0.19309	0.083977	0.11955	0.17368	0.21644	0.218	0.093791	0.099645	0.26896	-1.0438	-1.6875	-2.2458	-1.3	-1.9271	-1.85	-1.5646	-2.2771	-1.6521	-1.5646	-2.2604	-1.4833	-1.7687	-1.8	-1.4125	-2.225	105.208	251.816	87.203	315.168	43.639	149.364	173.613	203.396	93.696	7.422	289.256	351.879	31.431	339.209	204.403	243.460	7.4966e-06	0.00085875	8.857e-05	595.47	1.6804e-05	1.079e-05	1207.1	114.57	1.4661e-05	1.458e-05	394.18	135.84	28.691	9.2053	1.9921e-05	57.42	0.0067647	0.0079591	0.0022412	607.77	8.4347e-05	8.9676e-05	1097	122.75	8.5706e-05	8.8717e-05	385.45	130.53	39.286	12.956	8.6955e-05	54.666	131.738	75.391	162.132	8.790	61.710	175.160	9.720	13.662	68.278	46.583	12.945	17.711	18.609	21.452	190.649	21.974	-8191	255	
5207.053	1	1	0	0	0.18217	0.17374	0.050211	0.16916	0.10697	0.0793	0.31753	0.17572	0.20393	0.1412	0.15361	0.18854	0.17529	0.076889	0.32747	0.17245	-1.2146	-1.4542	-2.2646	-1.6271	-1.8417	-2.2062	-1.6521	-2.1021	-1.9208	-1.3	-2.2667	-1.4667	-1.5979	-2.0687	-1.3104	-2.2333	340.952	52.412	251.843	302.802	26.866	38.980	342.804	-4.075	240.802	-3.530	209.286	281.819	134.972	74.231	1.541	9.804	0.00024812	0.0018275	0.00057928	606.72	7.1633e-06	1.2302e-05	1209.2	114.87	5.627e-06	7.5444e-06	395.41	137.39	29.074	9.1108	1.3941e-05	57.055	0.0067923	0.0079923	0.0022272	607.85	8.5713e-05	8.7992e-05	1094.2	122.54	8.3853e-05	8.5615e-05	384.88	130.77	39.177	12.841	8.3528e-05	54.684	111.898	270.355	81.690	8.067	253.627	170.925	9.347	13.425	87.285	30.754	13.824	17.234	19.065	21.809	332.880	21.761	-8191	255	
5207.147	1	1	0	0	0.32898	0.31415	0.010872	0.29681	0.10315	0.17743	0.050072	0.20725	0.29902	0.026032	0.26228	0.29852	0.18064	0.28345	0.15444	0.05452	-1.4021	-1.5021	-2.2083	-1.5479	-1.6333	-2.2208	-1.5146	-2.05	-2.1437	-1.3896	-2.1646	-1.6021	-1.4646	-1.9896	-1.4271	-2	191.583	169.366	337.585	265.926	97.582	89.575	305.486	27.474	143.422	218.495	265.155	329.581	245.322	305.797	217.867	207.793	0.00016313	0.0022033	0.00016824	583.4	1.6162e-05	2.5563e-05	1214.3	113.89	2.5667e-05	1.4928e-05	395.33	137.11	28.955	9.2115	5.9315e-06	57.56	0.0066323	0.0078327	0.0021383	595.67	8.1589e-05	8.5724e-05	1087	120.83	8.283e-05	8.4416e-05	383.23	130.45	38.731	12.75	8.2796e-05	54.446	94.838	164.885	149.853	9.068	40.755	254.647	9.476	13.577	179.801	273.483	13.082	17.736	18.204	22.672	164.574	21.380	-8191	255	
5207.243	1	1	0	0	0.25311	0.48497	0.15478	0.17636	0.18341	0.096026	0.10793	0.064791	0.07305	0.24418	0.13314	0.049522	0.16991	0.16372	0.12562	0.20674	-1.5542	-1.1896	-2.2687	-1.7396	-1.5146	-2.375	-1.5938	-1.9521	-2.0271	-1.2021	-2.1312	-1.825	-1.5417	-2.1917	-1.3604	-1.7812	137.616	258.192	317.272	283.644	355.877	230.280	240.319	319.625	160.877	154.386	132.965	-3.666	309.397	6.578	37.071	296.585	0.00036115	0.00051703	0.00068234	582.79	2.004e-05	1.0058e-05	1195.6	114.69	1.5061e-05	4.9494e-05	392.44	136.64	28.887	9.1364	2.324e-05	56.653	0.0064592	0.0076198	0.0020652	589.37	8.0405e-05	8.4202e-05	1079.2	120.02	8.0892e-05	8.4411e-05	379.85	129.74	38.795	12.6	8.3456e-05	53.949	353.311	237.142	106.178	8.865	98.979	112.603	8.845	13.997	108.264	160.190	13.580	17.172	18.456	21.321	194.322	21.436	-8191	255	
5207.339	1	1	0	0	0.27624	0.045327	0.12664	0.1008	0.10595	0.22533	0.43223	0.22166	0.21689	0.24699	0.04382	0.065026	0.068191	0.28817	0.03913	0.32617	-1.7021	-1.3687	-2.2	-1.8271	-1.5312	-2.2	-1.6125	-1.7604	-2.3229	-1.4062	-2.2896	-2.0458	-1.35	-2.2125	-1.6	-1.8875	135.768	240.194	204.331	183.517	293.594	313.890	305.302	-3.546	211.314	220.353	85.982	49.140	353.330	143.334	301.174	307.762	0.00039705	0.0016075	0.00031075	580.15	1.4157e-05	1.3628e-05	1196.4	113.01	9.1744e-06	1.43e-05	390.61	135.59	28.678	9.1977	1.6056e-05	56.903	0.0065004	0.0076526	0.0021017	587.76	8.2546e-05	8.4804e-05	1075.9	120.15	8.0831e-05	8.4397e-05	380.37	129.81	38.608	12.567	8.2591e-05	54.359	78.295	85.129	172.617	8.898	54.785	290.660	9.275	13.079	225.242	211.731	13.116	18.011	19.055	22.109	171.701	21.950	-8191	255	
5207.460	1	1	0	0	0.20506	0.16383	0.18627	0.12478	0.20104	0.12993	0.20954	0.060128	0.18945	0.052657	0.11219	0.21973	0.30988	0.13509	0.22814	0.16874	-1.7062	-1.6	-2.0417	-1.8417	-1.4625	-2.2521	-1.8104	-1.5438	-2.0708	-1.3542	-2.0479	-2.1833	-1.55	-2.1562	-1.7729	-1.7854	-3.414	77.988	243.674	272.610	27.934	319.179	224.923	281.956	48.594	299.165	43.304	260.732	43.957	343.897	6.128	307.035	0.00030929	0.0014171	0.00057896	579.15	1.209e-05	2.8056e-05	1200.3	113.22	2.2811e-05	9.1592e-06	397.24	137.03	28.841	9.2802	1.9995e-05	57.199	0.006488	0.0077169	0.0021207	592.33	8.1994e-05	8.4439e-05	1084.7	121	8.1212e-05	8.52e-05	383.29	130.74	38.736	12.619	8.3881e-05	54.654	149.040	307.276	95.692	8.837	89.773	166.834	9.498	13.305	102.515	6.448	13.900	17.654	17.897	22.477	153.426	21.552	-8191	255	
5207.532	1	1	0	0	0.091825	0.16501	0.073263	0.25403	0.29838	0.01631	0.32737	0.37449	0.15354	0.17178	0.10293	0.074673	0.095287	0.22862	0.1465	0.3109	-2.0667	-1.2125	-1.8375	-2.1229	-1.425	-2.0812	-1.8896	-1.4354	-2.2938	-1.5	-1.8979	-2.1188	-1.3062	-2.1	-1.9	-1.625	77.604	343.490	188.794	265.301	135.187	9.620	243.596	9.472	322.612	23.045	107.562	185.100	13.425	226.000	21.516	343.508	0.00039984	0.00091225	0.00040144	582.42	1.8436e-05	1.2766e-05	1189.2	114.9	1.5995e-05	4.6941e-06	391.18	137.38	28.505	8.9939	4.1463e-06	56.84	0.006433	0.0077037	0.0021477	587.29	8.0962e-05	8.2935e-05	1075.9	120.53	8.0327e-05	8.4768e-05	380.36	129.97	38.594	12.545	8.3327e-05	54.257	144.801	32.635	99.957	8.088	168.529	339.936	9.466	13.815	18.686	226.080	13.790	17.511	19.393	23.269	231.117	21.393	-8191	255	
5207.628	1	1	0	0	0.18678	0.095743	0.15657	0.15632	0.18692	0.2743	0.24951	0.17586	0.20364	0.17322	0.23843	0.16563	0.21316	0.18176	0.17302	0.2317	-1.7146	-1.4604	-1.6292	-2.2	-1.2354	-2.1792	-1.9917	-1.4062	-2.2125	-1.625	-1.6417	-2.3292	-1.3104	-2.0187	-2.0771	-1.4125	27.253	302.269	151.093	302.346	311.477	246.518	328.642	325.428	59.499	302.854	327.565	9.129	81.725	241.297	194.709	270.528	0.00068282	0.0014463	3.7778e-05	578.41	1.3325e-05	5.4545e-06	1182.2	112.3	1.3877e-05	1.5452e-05	394	135.08	28.54	8.8605	1.3541e-05	56.358	0.00634	0.0076701	0.0020825	580.95	8.1073e-05	8.3232e-05	1070	119.27	7.953e-05	8.4449e-05	378.74	128.82	38.487	12.496	8.3159e-05	53.913	63.314	260.133	334.278	8.393	122.514	205.685	9.567	13.317	53.088	182.553	13.864	17.215	18.101	22.913	213.093	22.067	-8191	255	
5207.748	1	1	0	0	0.24278	0.21439	0.051976	0.33494	0.16047	0.18719	0.43559	0.16316	0.18627	0.20304	0.28659	0.24879	0.22639	0.22895	0.29941	0.255	-1.725	-1.5958	-1.325	-2.1354	-1.3229	-1.8937	-2.1583	-1.1875	-2.0396	-1.7146	-1.625	-2.4958	-1.5646	-1.8979	-1.9542	-1.4958	66.549	92.680	7.008	318.114	160.825	19.911	297.641	20.890	226.464	318.047	225.463	348.716	2.503	311.060	109.929	294.338	0.00048586	0.0016374	0.00060725	576.39	9.5433e-06	1.6416e-05	1188.6	111.6	1.4708e-05	7.0305e-06	388.34	135.61	28.745	8.8487	1.4018e-05	56.953	0.0063652	0.0076969	0.002128	579.89	8.1616e-05	8.3542e-05	1071	118.04	7.8331e-05	8.4398e-05	376.09	128.59	38.476	12.4	8.0665e-05	54.088	34.737	338.912	310.443	8.527	196.740	13.014	9.396	13.030	102.461	67.718	13.872	17.846	18.086	23.252	337.532	21.936	-8191	255	
5207.845	1	1	0	0	0.20789	0.14627	0.39019	0.27315	0.12009	0.23301	0.24286	0.11696	0.15899	0.20922	0.16961	0.2551	0.075904	0.098147	0.082246	0.24622	-1.6979	-1.8937	-1.55	-2.3042	-1.6458	-1.6479	-2.2438	-1.5208	-2.0438	-1.9479	-1.3979	-2.4646	-1.5396	-1.5729	-2.1813	-1.3729	353.794	97.096	348.383	219.951	62.475	224.696	-3.028	210.639	36.660	19.764	289.016	269.581	24.789	3.469	297.797	32.174	0.00042993	0.00086341	0.00015033	572.52	1.4514e-05	1.9451e-05	1176.4	112.34	1.1114e-05	7.5576e-06	389.14	137.02	28.429	9.0867	1.0599e-05	57.313	0.0061591	0.0075797	0.0020639	574.21	8.0094e-05	8.2196e-05	1060.5	118.19	7.7881e-05	8.2749e-05	377.19	128.92	38.064	12.39	7.9242e-05	54.03	129.874	214.127	13.198	8.487	77.764	183.993	9.527	13.243	174.241	185.663	13.720	17.982	18.311	22.926	6.933	21.930	-8191	255	
5207.941	1	1	0	0	0.03593	0.10515	0.21725	0.25233	0.13363	0.10006	0.10949	0.08886	0.28117	0.16681	0.17267	0.18096	0.086324	0.14134	0.054238	0.26768	-1.5521	-1.9417	-1.3625	-2.2333	-1.6187	-1.7812	-2.4458	-1.575	-1.8208	-2.0167	-1.3646	-2.3229	-1.7083	-1.4417	-2.3937	-1.5875	233.642	23.693	60.080	320.059	317.498	272.371	-3.491	71.480	179.894	340.440	309.515	9.542	187.523	345.164	251.040	40.010	0.00049387	0.000768	0.00025294	571.46	6.9957e-07	1.0101e-05	1177.8	110.23	2.2205e-05	2.9916e-05	391.74	136.97	29.128	9.03	1.636e-05	57.048	0.0060529	0.0074235	0.0020559	569.58	7.8525e-05	7.9478e-05	1056.6	117.15	7.7251e-05	8.1087e-05	376.23	128.6	38.126	12.416	7.8616e-05	53.875	131.984	104.164	245.368	9.195	141.563	63.333	8.924	13.500	298.374	30.290	12.959	17.769	17.832	22.795	226.555	21.304	-8191	255	
5208.035	1	1	0	0	0.17742	0.1526	0.15921	0.17204	0.14692	0.35171	0.21807	0.25576	0.30399	0.08586	0.20378	0.25635	0.15185	0.25901	0.23129	0.20152	-1.4333	-1.9896	-1.3208	-2.2021	-1.7521	-1.4479	-2.4521	-1.5979	-1.7979	-2.0146	-1.5271	-2.3042	-1.9979	-1.4229	-2.0438	-1.5833	29.576	51.166	182.692	10.726	263.771	29.416	302.153	304.597	91.433	310.240	92.590	80.506	326.974	292.848	324.275	284.125	8.908e-05	0.00061525	0.00029271	560.57	6.2736e-06	2.0257e-05	1170.1	110.03	3.4297e-05	3.1628e-05	385.55	136.11	29.152	8.8176	3.3495e-05	55.974	0.0060805	0.0074312	0.0020277	564.69	7.8544e-05	8.133e-05	1055.5	116.94	7.7478e-05	8.1573e-05	373.68	127.99	37.995	12.325	7.7754e-05	53.398	287.406	223.660	187.458	8.769	267.835	140.969	9.486	13.323	216.360	140.598	13.116	17.890	17.502	22.231	79.450	21.157	-8191	255	
5208.133	1	1	0	0	0.030689	0.13012	0.13716	0.1206	0.082134	0.21757	0.18551	0.090437	0.34105	0.23358	0.18397	0.17781	0.14751	0.15282	0.18767	0.226	-1.1917	-2.1	-1.275	-2.0667	-1.9896	-1.3167	-2.3771	-1.5187	-1.4937	-2.3917	-1.6333	-2.075	-2.0958	-1.35	-2.0729	-1.7458	239.384	224.017	55.510	319.954	126.772	302.967	262.492	58.894	334.967	208.619	233.368	335.219	10.175	237.407	87.923	295.218	0.00036494	0.001347	0.00042251	566.67	1.997e-05	1.5947e-05	1171	107.99	2.2942e-05	1.3335e-05	386.33	135.8	28.269	9.068	6.9484e-06	56.29	0.0062393	0.007436	0.0020589	566.59	7.9512e-05	8.2968e-05	1053.7	116.53	7.8844e-05	8.2368e-05	374.02	128.02	38.054	12.344	7.8572e-05	53.445	77.687	33.283	293.797	8.868	117.603	75.956	9.475	12.606	215.883	285.807	13.605	17.981	17.788	22.655	94.506	21.331	-8191	255	
5208.227	1	1	0	0	0.18533	0.07212	0.052604	0.12633	0.17772	0.20768	0.42594	0.21355	0.10379	0.14779	0.12621	0.16461	0.19943	0.23578	0.040168	0.23616	-1.2083	-2.3604	-1.4542	-1.8979	-1.8375	-1.4396	-2.2458	-1.6875	-1.4542	-2.275	-1.5938	-2.0146	-2.1479	-1.4042	-1.9896	-1.9875	338.800	321.210	232.887	342.278	315.936	127.630	292.531	193.123	228.281	286.057	344.710	331.303	171.004	201.867	221.646	262.483	0.00036242	0.0035549	0.00023362	563.66	1.6835e-05	1.7196e-05	1173.9	109.74	1.7079e-05	3.9207e-06	385.59	136.24	28.172	8.888	1.7814e-05	56.496	0.0062151	0.0074812	0.0020677	568.74	7.9432e-05	8.1053e-05	1056.7	117.06	7.7369e-05	8.0045e-05	374.06	128.5	37.658	12.247	7.8052e-05	53.723	90.109	279.671	60.616	8.295	45.861	8.130	9.855	12.701	324.720	160.762	13.086	17.533	18.528	22.574	95.212	22.112	-8191	255	
5208.324	1	1	0	0	0.046251	0.16793	0.36735	0.064336	0.1332	0.15898	0.27358	0.1648	0.50416	0.36413	0.24555	0.15484	0.13518	0.22323	0.11423	0.2407	-0.96667	-2.2583	-1.4604	-1.7021	-2.1833	-1.275	-2.1479	-1.8062	-1.4583	-2.3896	-1.725	-1.8479	-2.1479	-1.3396	-2.0854	-2.0521	309.905	162.846	211.147	189.603	157.631	137.012	326.498	273.979	295.253	265.537	278.328	280.798	221.054	272.227	201.832	121.533	0.00057474	0.00050555	0.00040039	571.55	2.722e-06	1.1959e-05	1195.1	110.27	1.8014e-05	2.2914e-05	392.17	136.85	28.671	8.9171	2.5445e-05	56.319	0.0061553	0.0072724	0.002044	571.04	7.8487e-05	7.997e-05	1065	117.42	7.6175e-05	7.8323e-05	376.49	128.78	37.91	12.203	7.719e-05	53.823	95.873	95.128	315.263	8.510	172.176	106.804	9.491	12.471	242.428	261.883	13.434	17.850	17.892	22.494	137.447	20.989	-8191	255	
5208.444	1	1	0	0	0.11805	0.15106	0.32174	0.39074	0.24815	0.18298	0.19283	0.10981	0.11562	0.19163	0.20755	0.068153	0.095224	0.056116	0.06314	0.26455	-0.89583	-2.2021	-1.5896	-1.7625	-2.2521	-1.3146	-2.2021	-2.0625	-1.4292	-2.1354	-1.9312	-1.6646	-2.2979	-1.5187	-1.7646	-2.1729	51.877	100.975	63.383	233.039	67.174	273.887	305.746	98.296	337.838	111.346	302.877	344.436	60.328	165.206	352.366	323.194	0.00051753	0.0018649	0.00055353	567.51	1.3387e-05	3.0175e-05	1197.4	112.19	7.4487e-06	3.6332e-05	389.38	137.35	28.425	9.0217	8.4947e-06	57.047	0.0060639	0.0071721	0.0020286	569.79	7.6635e-05	8.0351e-05	1066	117.67	7.7693e-05	7.8099e-05	376.59	129.72	37.794	12.337	7.7881e-05	53.984	124.625	186.068	9.273	7.996	94.749	125.918	9.240	12.673	67.754	88.324	13.196	17.447	17.570	22.140	310.928	21.332	-8191	255	
5208.540	1	1	0	0	0.050536	0.32765	0.11584	0.12131	0.095753	0.26994	0.17493	0.12985	0.2786	0.086489	0.29286	0.10226	0.098415	0.058392	0.096548	0.11504	-0.9	-2.0438	-1.8479	-1.5604	-2.1625	-1.5646	-1.8458	-1.9917	-1.4396	-1.9896	-1.9771	-1.5896	-2.1917	-1.5854	-1.6604	-2.3	162.586	299.924	119.028	312.814	333.525	268.517	1.964	354.046	331.192	91.922	326.674	3.161	191.405	151.433	111.880	87.406	0.00061427	0.0016142	0.00023473	575.17	8.528e-06	1.9233e-05	1191.1	111.69	1.9395e-05	6.2592e-06	386.01	137.11	28.634	9.0251	2.8908e-05	56.472	0.0060956	0.0071319	0.0020401	572.51	7.7099e-05	8.084e-05	1070.8	118.24	7.7524e-05	7.9539e-05	377.28	129.58	38.139	12.377	7.7918e-05	54.055	73.044	82.573	108.790	8.040	250.294	36.634	9.456	13.529	47.759	124.748	13.080	17.894	18.622	22.926	66.092	21.613	-8191	255	
5208.635	1	1	0	0	0.1167	0.19531	0.19719	0.28165	0.20741	0.14485	0.095732	0.12233	0.088366	0.10421	0.35156	0.20958	0.17589	0.080793	0.063649	0.11754	-1.0604	-2.1021	-2.0146	-1.5354	-2.1042	-1.5229	-1.6167	-2.3208	-1.3687	-1.9833	-2.1188	-1.375	-2.1479	-1.6146	-1.3792	-2.3021	24.055	292.649	245.680	335.674	1.927	161.902	183.221	321.234	134.441	163.486	260.356	328.037	37.992	335.096	352.877	46.721	0.00029464	0.000628	0.000357	573.73	9.2749e-06	1.8927e-05	1202.6	112.86	1.1376e-05	3.2511e-05	395.19	138.94	28.886	9.1661	1.817e-05	57.536	0.0061019	0.007159	0.002031	575.09	7.6613e-05	8.1376e-05	1078.8	119.18	7.6942e-05	7.9202e-05	381.08	130.6	38.214	12.511	8.0476e-05	54.586	99.214	208.965	235.574	9.184	231.005	324.006	9.883	12.814	305.452	43.235	13.298	17.694	18.078	22.363	152.013	21.613	-8191	255	
5208.731	1	1	0	0	0.10312	0.16412	0.2182	0.10569	0.077108	0.097944	0.36151	0.069616	0.077627	0.031359	0.14009	0.14481	0.13237	0.23509	0.20741	0.090826	-0.90625	-1.8479	-2.0938	-1.3438	-2.1104	-1.7458	-1.5125	-2.1604	-1.6417	-1.6167	-1.95	-1.4125	-2.0812	-1.7958	-1.4479	-2.2687	191.850	289.472	80.500	250.509	337.147	5.517	298.384	339.094	245.936	245.688	149.582	196.117	252.170	86.305	94.581	91.345	0.0003362	0.00031606	0.00043401	584.83	2.3587e-05	2.3678e-05	1207.7	112.68	7.4198e-06	1.0539e-05	392.4	137.03	28.791	8.9714	1.104e-05	56.682	0.0062542	0.0073816	0.0021388	587.62	7.8969e-05	8.4132e-05	1083	119.73	8.1197e-05	8.2822e-05	380.7	129.95	38.52	12.73	8.2158e-05	54.023	13.011	345.265	128.930	8.381	281.576	203.223	9.041	13.124	40.196	175.739	13.184	17.024	18.039	21.404	95.079	20.875	-8191	255	
5208.827	1	1	0	0	0.37544	0.084917	0.22263	0.014467	0.23512	0.12529	0.34896	0.023895	0.20866	0.34249	0.095314	0.045266	0.17058	0.12915	0.23068	0.18569	-1.1187	-1.6437	-2.0792	-1.4146	-2.0479	-1.8646	-1.4104	-2.1792	-1.7875	-1.6542	-2.225	-1.4333	-2.0667	-1.8583	-1.4604	-2.2979	340.237	152.752	326.930	30.422	305.190	82.241	352.572	217.367	18.942	250.465	258.002	238.421	353.359	234.068	41.333	250.273	9.4743e-05	0.0025488	0.00052556	590.55	9.8985e-06	2.5612e-05	1211.7	114.21	5.7551e-06	2.0022e-05	391.31	135.31	27.903	9.057	1.6984e-05	56.429	0.0064456	0.007701	0.0021529	596.23	8.107e-05	8.6575e-05	1091.2	121.41	8.3771e-05	8.6216e-05	382.36	129.4	38.695	12.852	8.3792e-05	53.978	76.609	347.927	95.908	8.756	154.645	175.661	9.380	12.959	179.828	86.722	12.522	17.728	17.194	21.924	75.956	21.738	-8191	255	
5208.923	1	1	0	0	0.2761	0.09702	0.20209	0.079942	0.10373	0.095003	0.31402	0.19187	0.23217	0.092255	0.22149	0.20415	0.10631	0.30084	0.1419	0.28885	-1.0938	-1.3062	-2.1604	-1.4458	-1.9729	-1.9458	-1.3312	-2.35	-1.5458	-1.5896	-2.3792	-1.5583	-1.8042	-2.2521	-1.3333	-2.2042	106.892	279.294	321.596	307.151	342.842	292.134	289.624	75.738	120.927	65.793	337.639	304.309	196.086	112.918	269.380	330.674	0.00050456	0.0031744	0.00016294	597.69	1.7517e-05	1.4409e-05	1212	114.45	2.3757e-05	1.2483e-05	397.32	137.71	29.297	9.0806	1.3351e-05	57.36	0.0066659	0.007748	0.0021597	598.25	8.1673e-05	8.6635e-05	1088.8	120.7	8.1897e-05	8.3253e-05	381.59	130.19	38.555	12.702	8.1051e-05	54.467	89.773	112.482	82.552	7.874	203.493	48.482	9.555	13.538	343.945	109.217	13.171	17.049	18.489	22.687	203.193	22.058	-8191	255	
5209.044	1	1	0	0	0.086603	0.13741	0.12318	0.11724	0.32142	0.13001	0.21178	0.14095	0.1638	0.08865	0.18787	0.23366	0.1565	0.2463	0.056751	0.26591	-1.1833	-1.6083	-2.2375	-1.5896	-1.9146	-2.1729	-1.6292	-2.2396	-1.8667	-1.3458	-2.3563	-1.7854	-1.6812	-2	-1.3813	-2.1688	59.488	297.503	71.926	76.714	321.208	83.794	214.084	119.236	141.815	58.794	68.250	110.362	19.344	116.243	66.447	251.264	0.00035143	0.00033466	0.00034329	593.12	1.474e-05	1.3634e-05	1221.9	115.38	9.7188e-06	2.0052e-05	398.76	139.5	30.143	9.2983	1.5153e-05	58.509	0.0064568	0.0075766	0.0020764	590.31	7.9021e-05	8.2633e-05	1091.3	121.39	8.0388e-05	8.2073e-05	385.09	131.45	38.787	12.698	8.0545e-05	55.012	40.532	290.135	195.764	8.715	266.756	135.458	9.594	13.409	277.264	279.800	13.811	17.508	17.706	22.354	94.333	21.677	-8191	255	
5209.140	1	1	0	0	0.038999	0.15628	0.10904	0.29514	0.081171	0.051577	0.13025	0.24331	0.28802	0.20817	0.29093	0.037758	0.24135	0.24166	0.023321	0.068918	-1.5396	-1.3146	-2.0687	-1.6542	-1.6562	-2.5521	-1.4417	-2.0563	-2	-1.4937	-2.3542	-1.8333	-1.6437	-2.1125	-1.4167	-2.1104	210.078	291.083	87.513	324.728	238.876	74.804	349.317	261.654	155.731	311.513	323.000	266.936	62.963	28.134	224.238	229.124	0.00019627	0.00093307	0.00017042	592.18	6.7653e-06	1.3705e-05	1215	116.38	1.4862e-05	1.6012e-05	392.89	137.52	29.619	9.3227	1.1188e-05	57.653	0.0063712	0.0074222	0.0020693	593.52	8.0836e-05	8.2838e-05	1092.4	122.17	8.092e-05	8.3338e-05	381.35	131	38.609	12.663	8.0685e-05	54.827	73.120	307.628	153.471	8.842	275.629	235.060	9.425	13.526	39.856	10.186	13.564	17.062	18.238	21.940	242.990	21.874	-8191	255	
5209.236	1	1	0	0	0.2326	0.233	0.15782	0.16991	0.078517	0.3237	0.23854	0.13766	0.16358	0.10299	0.23308	0.090369	0.073437	0.084391	0.2148	0.12542	-1.7708	-1.3292	-2.1229	-1.6042	-1.3937	-2.3229	-1.7292	-1.9062	-2.1917	-1.35	-2.1625	-1.9688	-1.3729	-2.2125	-1.6021	-1.8438	281.295	39.952	17.731	349.750	160.070	159.601	302.820	277.565	343.615	63.143	339.980	231.138	328.116	55.033	178.087	227.473	0.00047031	0.00042903	0.00053806	591.13	2.2428e-05	1.3541e-05	1214.9	114.96	1.1215e-05	1.1411e-05	398.63	138.03	29.315	9.2681	1.9216e-05	56.675	0.0064015	0.0076659	0.0020817	596.77	8.0857e-05	8.3605e-05	1091.9	121.48	8.0275e-05	8.3383e-05	383.53	130.82	39.124	12.739	8.2947e-05	54.55	151.436	144.872	189.036	8.258	64.511	13.542	9.404	12.978	210.259	13.219	13.859	17.378	18.094	21.857	113.784	21.634	-8191	255	
5209.332	1	1	0	0	0.20096	0.24768	0.078339	0.11082	0.18484	0.19736	0.16204	0.2088	0.15649	0.21586	0.26279	0.23989	0.17486	0.12802	0.15389	0.077095	-1.9167	-1.5854	-1.9562	-1.9104	-1.5021	-2.2	-1.6313	-1.7479	-2.2313	-1.3167	-2.0854	-1.9292	-1.4396	-2.3458	-1.4979	-1.575	92.820	314.515	306.841	26.991	266.629	234.148	335.960	73.353	75.854	261.507	200.929	47.121	26.791	97.329	96.006	347.976	0.00041832	0.0008454	0.00070538	592.69	1.3929e-05	3.9586e-06	1207.2	114.68	8.6113e-06	1.8403e-05	390.47	136.34	29.448	9.3671	2.2668e-05	57.282	0.0065508	0.007714	0.0021209	598.75	8.1154e-05	8.3673e-05	1093.8	121.76	8.1114e-05	8.4615e-05	381.47	130.56	39.127	12.759	8.405e-05	54.429	161.631	151.624	267.956	8.219	183.613	132.597	9.725	13.240	270.863	105.418	13.239	17.402	18.791	22.845	135.595	21.914	-8191	255	
5209.404	1	1	0	0	0.17537	0.24045	0.16613	0.046953	0.1634	0.093223	0.25694	0.44759	0.12498	0.1097	0.1481	0.29676	0.068179	0.12617	0.16378	0.056659	-1.8312	-1.5583	-1.8292	-2.0375	-1.3375	-2.0833	-1.7458	-1.4083	-2.1125	-1.3375	-1.9854	-2.125	-1.3042	-2.1333	-1.7167	-1.6125	77.710	135.081	134.307	84.597	184.250	222.537	304.758	322.486	200.558	279.668	170.564	87.278	349.553	224.398	101.015	221.276	0.00048267	0.0021048	0.00015196	593.49	4.8656e-06	1.6487e-05	1207.3	114.37	6.4905e-06	2.3507e-05	391.65	138.26	29.031	9.2187	5.9724e-06	57.234	0.0065154	0.00776	0.0021314	599.24	8.3053e-05	8.5687e-05	1092	122.23	8.2521e-05	8.7048e-05	383.65	131.25	39.428	12.846	8.7577e-05	54.872	141.189	-2.214	129.424	8.438	262.145	115.236	9.169	13.127	302.215	90.035	13.316	17.325	17.785	23.431	297.825	21.904	-8191	255	
5209.523	1	1	0	0	0.15976	0.14571	0.090274	0.25689	0.25682	0.14418	0.31458	0.07634	0.27313	0.22136	0.23901	0.22743	0.2703	0.098288	0.066278	0.13174	-1.8521	-1.3958	-1.7542	-2.1458	-1.3563	-2.2104	-1.9604	-1.5187	-2.3458	-1.5938	-1.6604	-2.2417	-1.3021	-1.9854	-1.8458	-1.6021	116.694	-1.420	146.636	317.459	268.905	46.355	316.672	91.974	77.872	254.375	238.818	309.742	93.695	289.759	59.339	171.857	0.00010166	0.0020564	0.00026668	585.23	1.2045e-05	8.3295e-06	1200.7	113.14	9.719e-06	3.9863e-05	389.23	135.78	29.043	9.0895	1.4589e-05	57.027	0.006643	0.0079706	0.0022117	596.75	8.4539e-05	8.7073e-05	1086.6	121.85	8.3932e-05	8.7865e-05	382.6	130.53	39.409	12.769	8.6061e-05	54.565	112.867	86.664	41.218	8.573	172.617	153.661	9.646	13.585	52.073	137.882	13.679	17.777	17.896	22.397	162.156	21.452	-8191	255	
5209.619	1	1	0	0	0.30724	0.080953	0.3433	0.10101	0.028388	0.16792	0.18653	0.19292	0.14488	0.084511	0.02942	0.33119	0.44041	0.13836	0.20758	0.11963	-1.8708	-1.4396	-1.6854	-2.3083	-1.4729	-2.0812	-2.1792	-1.4479	-2.1375	-1.6542	-1.7583	-2.4	-1.4625	-1.9604	-2.0187	-1.4188	71.436	246.665	146.458	330.348	333.934	46.731	283.561	315.879	296.174	53.630	178.773	305.660	73.910	157.727	284.126	33.386	0.00064536	0.00084949	0.00029729	578.61	3.8863e-06	1.5022e-05	1192	111.77	1.0016e-05	1.4169e-05	391.41	137.33	28.511	9.2022	2.8287e-05	56.238	0.0066067	0.0080403	0.0021998	589.27	8.4051e-05	8.6912e-05	1078.6	119.82	8.1588e-05	8.5857e-05	379.28	129.94	38.796	12.734	8.4109e-05	53.947	87.904	226.737	110.389	8.551	213.079	215.255	9.129	13.551	88.124	156.442	13.236	17.584	17.324	22.266	249.637	21.147	-8191	255	
5209.715	1	1	0	0	0.1249	0.197	0.2464	0.096168	0.049072	0.16965	0.03381	0.11845	0.096409	0.046719	0.45469	0.079703	0.077248	0.071259	0.1446	0.18908	-1.8937	-1.7167	-1.7104	-2.35	-1.4708	-1.9083	-2.1771	-1.2021	-2.2771	-1.7	-1.4833	-2.4146	-1.4708	-1.7375	-2.2146	-1.5167	307.929	109.818	58.556	-0.448	239.118	37.746	319.577	326.339	21.645	343.955	280.078	275.848	8.771	26.133	309.101	308.291	0.0003429	0.0015633	0.00015998	572.7	1.0934e-05	4.7886e-06	1186	110.68	1.3623e-05	1.55e-05	387.69	135.19	29.075	8.8197	5.7881e-06	56.502	0.0064528	0.0078771	0.0021878	581.64	8.2974e-05	8.5452e-05	1074.2	119.74	8.1006e-05	8.7451e-05	379.64	128.8	39.242	12.694	8.6072e-05	53.964	74.935	155.818	306.502	8.712	285.015	317.278	9.390	12.829	198.700	127.899	13.380	17.840	17.915	22.600	340.189	21.224	-8191	255	
5209.811	1	1	0	0	0.13243	0.42639	0.13247	0.42329	0.14178	0.37306	0.023437	0.32632	0.22516	0.21351	0.12894	0.15527	0.10789	0.21113	0.018779	0.2991	-1.6042	-1.8771	-1.475	-2.1833	-1.425	-1.7417	-2.2292	-1.3708	-1.8271	-1.85	-1.575	-2.35	-1.6229	-1.7083	-2.2812	-1.4604	29.744	155.241	9.817	353.727	150.045	276.225	116.947	328.560	286.181	347.645	321.521	219.082	302.770	126.987	37.436	25.916	0.00051382	0.00099699	0.0001767	577.94	1.552e-05	5.468e-06	1194.7	112.59	1.5216e-05	1.022e-05	391.35	134.48	28.369	9.3415	7.1655e-06	56.398	0.0066416	0.0081303	0.0022334	586.96	8.7332e-05	8.9798e-05	1080.1	121.16	8.4744e-05	9.2531e-05	383.57	129.86	39.536	12.932	8.7679e-05	54.369	101.681	63.619	344.966	8.662	263.014	227.623	9.482	13.466	25.710	267.509	13.464	17.563	17.730	24.055	72.552	21.180	-8191	255	
5209.932	1	1	0	0	0.34177	0.12461	0.15159	0.1601	0.097972	0.010305	0.29613	0.16378	0.14175	0.04392	0.11129	0.1332	0.094487	0.3915	0.12036	0.052837	-1.5875	-2.0396	-1.3104	-2.3333	-1.75	-1.5104	-2.375	-1.3937	-1.9208	-2.0312	-1.5896	-2.2542	-1.8542	-1.5104	-2.3146	-1.6708	33.584	318.818	144.133	243.127	206.594	189.549	259.283	260.667	312.427	144.140	347.340	141.921	4.068	313.462	263.056	259.795	0.00015771	0.0015145	0.00025298	583.41	4.1003e-06	2.207e-05	1187.8	111.62	3.6035e-05	1.2099e-05	392.02	136.66	29.077	9.1399	2.6848e-05	57.037	0.006765	0.0081852	0.0022602	590.2	8.592e-05	8.9063e-05	1078.7	121.03	8.3962e-05	8.9247e-05	381.88	130.3	39.493	12.882	8.5412e-05	54.499	331.179	111.743	150.588	8.168	306.149	158.139	9.710	12.949	118.160	256.347	13.355	17.912	17.024	22.472	190.652	22.060	-8191	255	
5210.028	1	1	0	0	0.45473	0.061921	0.15056	0.22228	0.11211	0.26396	0.23771	0.022893	0.36118	0.32171	0.23079	0.29913	0.077075	0.1361	0.25437	0.36208	-1.5021	-2.0458	-1.4354	-2.2625	-1.9625	-1.2687	-2.375	-1.5146	-1.5708	-2.2687	-1.4188	-2.0875	-1.9083	-1.3354	-2.1667	-1.7292	95.026	246.576	30.270	7.434	219.958	159.545	271.874	332.431	351.029	2.656	293.212	353.222	327.205	238.236	181.125	-2.638	0.00024573	0.00078647	0.00034372	575.17	3.3703e-06	1.8215e-05	1189.7	112.25	1.9515e-05	3.6556e-06	392.32	136.8	28.819	9.2792	2.1485e-05	56.624	0.0065589	0.0078739	0.0021583	578.76	8.3234e-05	8.6087e-05	1074.6	120.11	8.1693e-05	8.6185e-05	380.36	129.82	39.065	12.775	8.2906e-05	54.225	148.628	4.939	211.208	8.550	245.322	194.829	9.604	12.776	43.765	66.126	13.657	17.295	18.997	22.346	73.981	22.096	-8191	255	
5210.124	1	1	0	0	0.080574	0.11218	0.10524	0.37748	0.34172	0.26347	0.33947	0.093104	0.20996	0.12198	0.097239	0.048595	0.13594	0.22441	0.16929	0.1225	-1.2833	-2.3563	-1.5146	-2.1021	-1.8729	-1.5375	-2.6479	-1.7083	-1.4625	-2.2708	-1.3771	-2.1167	-2.1271	-1.4146	-2.0229	-1.7521	223.895	259.810	164.865	342.426	219.739	177.028	286.279	221.655	319.275	292.343	18.628	301.410	89.232	246.932	304.702	140.942	0.00045793	0.0011723	0.00052701	580.14	2.0806e-05	7.4591e-06	1194.5	112.6	1.5303e-05	2.4603e-05	391.94	137.54	29.853	9.2561	1.8321e-05	57.03	0.006545	0.0077844	0.0021972	582.07	8.3725e-05	8.5471e-05	1074.9	119.93	8.0725e-05	8.3425e-05	380.91	129.79	38.731	12.648	8.1053e-05	54.49	92.922	69.109	100.758	9.271	332.125	161.635	9.223	12.920	227.632	212.584	13.728	17.899	17.308	22.836	100.121	21.659	-8191	255	
5210.220	1	1	0	0	0.146	0.19295	0.021772	0.21942	0.10999	0.31767	0.21687	0.18156	0.19353	0.11042	0.17482	0.23698	0.20602	0.079151	0.084162	0.2906	-1.2583	-2.2146	-1.4729	-2.0042	-2	-1.4167	-2.2583	-1.7542	-1.4771	-2.2833	-1.55	-1.825	-2.1083	-1.375	-1.9521	-1.8563	326.039	95.489	-0.003	320.675	234.186	221.554	328.560	83.749	344.348	119.531	242.401	310.298	234.244	304.768	287.535	-0.694	0.0002389	0.0022379	0.00050305	577.41	5.4689e-06	3.0739e-05	1197.9	114.27	1.0778e-05	2.1102e-05	396.48	138.76	29.024	9.256	1.8753e-05	57.341	0.0064379	0.007519	0.002118	578.05	8.2027e-05	8.4672e-05	1072.9	120.74	8.0859e-05	8.3804e-05	382.84	130.97	38.884	12.828	8.0735e-05	54.737	58.545	352.188	132.631	8.412	198.197	218.943	9.660	12.653	73.880	220.219	13.334	17.913	17.632	21.938	314.609	21.634	-8191	255	
5210.317	1	1	0	0	0.26452	0.099501	0.14566	0.17287	0.085021	0.34767	0.35914	0.13764	0.39544	0.24939	0.045409	0.37747	0.046551	0.14003	0.034684	0.24623	-1.0896	-2.1604	-1.4	-1.9583	-2.1854	-1.3312	-2.1708	-1.9854	-1.2146	-2.0875	-1.5542	-1.6646	-2.2104	-1.2021	-1.9854	-2.2396	219.277	258.525	336.433	303.110	293.576	249.769	235.313	267.101	136.087	76.400	115.815	271.674	233.054	348.226	267.778	257.501	0.00023903	0.0013528	0.00013979	564.08	6.4344e-06	7.459e-06	1199.2	112.22	1.5199e-05	9.7842e-06	393.06	137.84	29.363	9.0863	1.4881e-05	57.777	0.0063599	0.0075636	0.002122	574.44	8.0609e-05	8.3779e-05	1073.8	119.87	7.9822e-05	8.3518e-05	381.5	130.8	39.042	12.745	8.0459e-05	54.801	118.964	103.031	187.578	8.769	235.651	100.595	9.904	13.527	119.232	189.926	13.506	17.734	18.551	21.943	238.452	21.794	-8191	255	
5210.413	1	1	0	0	0.083889	0.235	0.20309	0.20591	0.18136	0.15376	0.27742	0.061213	0.19114	0.16264	0.13379	0.18998	0.069865	0.21944	0.32778	0.50085	-0.94792	-2.1479	-1.6625	-1.6208	-2.2042	-1.4583	-2.2458	-1.9562	-1.1875	-2.1937	-1.5938	-1.5812	-2.1396	-1.4333	-1.7792	-2.0604	143.946	15.519	334.165	349.075	304.132	61.964	269.472	77.089	195.722	261.371	340.254	297.115	147.282	303.638	113.016	292.725	0.0010044	0.001813	0.00043788	570.07	6.1867e-06	8.7702e-06	1199.3	111.41	9.2381e-06	2.2135e-05	391.12	137.18	29.037	9.191	2.8758e-05	57.724	0.0063417	0.0075456	0.0021396	576.49	8.0769e-05	8.4472e-05	1076.4	119.97	7.9486e-05	8.2672e-05	381.47	130.31	39.117	12.848	8.2374e-05	54.699	91.206	239.238	82.678	8.992	237.524	3.708	9.646	12.919	91.074	98.436	13.314	17.729	18.787	22.306	283.065	21.919	-8191	255	
5210.532	1	1	0	0	0.020182	0.13715	0.093334	0.20197	0.33356	0.16004	0.18993	0.32095	0.16757	0.12966	0.12406	0.031615	0.002961	0.20564	0.11092	0.16661	-0.88125	-2.0104	-1.7083	-1.2687	-2.2521	-1.4354	-1.7875	-2.1021	-1.4104	-1.8667	-2	-1.4875	-2.3438	-1.3563	-1.6	-2.3354	21.123	19.813	38.567	142.208	103.283	103.234	294.013	336.903	68.845	27.041	28.275	222.219	305.900	286.182	339.724	228.930	0.0001976	0.0022389	0.00029514	570.41	1.9049e-05	1.4315e-05	1186	112.83	2.0581e-05	8.4566e-06	390.82	137.37	29.305	9.3163	2.186e-05	56.963	0.0064339	0.0074719	0.0021448	573.39	8.0702e-05	8.4855e-05	1068.6	119.34	7.9578e-05	8.2511e-05	381.32	130.12	38.999	12.824	8.1756e-05	54.4	86.180	163.890	67.999	8.823	150.064	227.992	9.790	13.227	150.067	236.281	13.121	17.486	18.741	22.956	264.044	21.845	-8191	255	
5210.628	1	1	0	0	0.043776	0.11965	0.10174	0.095351	0.19059	0.060547	0.22417	0.10289	0.30731	0.21879	0.056183	0.10862	0.041439	0.09857	0.12155	0.21274	-0.87292	-2.225	-2.1208	-1.3833	-2.3854	-1.4396	-1.6417	-2.2292	-1.2167	-1.8979	-2.1083	-1.4875	-2.2521	-1.6625	-1.6208	-2.3292	165.096	260.106	108.701	18.543	42.925	10.923	340.942	262.861	314.413	267.369	234.420	107.512	183.058	208.905	293.933	106.900	0.00017255	0.0010044	0.00089013	564.67	1.7029e-05	3.927e-05	1177.8	113.25	1.479e-05	8.9466e-06	391.76	137.56	29.249	9.1947	2.2929e-05	56.995	0.0064474	0.0075242	0.0021531	572.19	8.1208e-05	8.5542e-05	1065.9	119.44	8.1836e-05	8.3283e-05	379.9	130.27	38.728	12.803	8.1177e-05	54.332	328.861	305.357	26.314	8.852	180.194	317.052	9.326	12.578	83.753	35.427	13.413	17.674	19.437	22.215	128.195	21.455	-8191	255	
5210.699	1	1	0	0	0.2641	0.17327	0.24693	0.13285	0.13928	0.27818	0.28412	0.19977	0.093902	0.052773	0.17257	0.26977	0.30098	0.17913	0.4286	0.15543	-1.0688	-1.8583	-2.1021	-1.6313	-2.1208	-1.8062	-1.7625	-2.3208	-1.4021	-1.8458	-2.2167	-1.4688	-2.1604	-1.8521	-1.3854	-2.4625	25.018	166.422	63.886	101.366	31.878	60.976	326.355	341.100	240.209	130.778	322.624	312.335	140.759	334.109	319.170	330.531	0.00066534	0.0023166	0.00051403	560.07	8.9143e-06	4.839e-06	1180.1	112.13	7.8579e-06	2.3883e-05	390.1	137.27	29.196	9.1001	6.6352e-06	57.125	0.0064045	0.0074773	0.0021201	571.27	7.9509e-05	8.4194e-05	1065.1	119.27	8.0205e-05	8.1325e-05	378.78	129.73	38.476	12.67	8.1591e-05	54.019	57.158	37.889	258.924	8.033	180.920	138.982	9.543	12.677	100.713	159.307	12.863	18.016	19.310	22.165	51.871	21.198	-8191	255	
5210.820	1	1	0	0	0.19007	0.11648	0.096971	0.30945	0.13015	0.18046	0.13914	0.15078	0.19081	0.12781	0.08081	0.27605	0.11211	0.33788	0.13924	0.10263	-1	-1.7	-2.075	-1.4583	-1.9708	-2.0729	-1.7229	-2.3021	-1.6063	-1.75	-2.2646	-1.4229	-1.9375	-2.0771	-1.3604	-2.3	295.561	80.855	36.184	16.859	308.226	279.858	24.801	350.333	158.169	319.567	331.157	304.117	165.189	325.343	246.032	231.917	0.00049337	0.0018098	0.00040416	558.9	2.2633e-05	1.9895e-05	1171.1	108.53	2.9211e-05	1.8087e-05	383.97	135.34	28.574	8.9952	2.5918e-05	55.844	0.0063658	0.007514	0.0021208	567.55	8.1568e-05	8.5849e-05	1059.1	117.54	8.3006e-05	8.4815e-05	375.99	128.37	38.535	12.735	8.3149e-05	53.368	142.125	96.681	340.517	8.957	140.593	182.590	9.759	13.342	193.164	130.656	13.193	17.689	17.204	20.776	86.410	20.949	-8191	255	
5210.916	1	1	0	0	0.20346	0.15002	0.10987	0.042313	0.07984	0.14921	0.2942	0.1548	0.17566	0.064764	0.13787	0.045039	0.17426	0.17752	0.12895	0.17531	-1.1375	-1.5979	-2.3708	-1.3417	-1.9729	-2.1625	-1.4292	-2.3312	-1.7188	-1.4937	-2.3563	-1.6625	-1.9188	-2.0479	-1.3458	-2.3271	272.010	15.750	206.082	200.580	124.445	5.015	216.655	98.326	141.344	329.790	120.455	-4.880	353.628	71.959	193.703	260.116	0.00065886	0.00071573	0.00053223	567.27	2.7529e-05	2.2706e-05	1180.4	112.33	3.8965e-06	2.6221e-05	384.6	135.91	28.64	8.9042	1.7563e-05	56.742	0.0064567	0.0076119	0.0021434	572.87	7.9731e-05	8.3714e-05	1063.2	117.92	7.8686e-05	8.1256e-05	375.16	128.73	37.917	12.526	8.0435e-05	53.885	81.277	137.232	297.141	8.204	46.653	98.638	9.024	12.475	303.777	317.998	12.887	17.783	18.433	22.408	209.313	21.415	-8191	255	
5211.012	1	1	0	0	0.075379	0.066791	0.080869	0.24767	0.24124	0.07756	0.26991	0.23741	0.031987	0.12411	0.19578	0.25673	0.18324	0.12615	0.22995	0.1767	-1.2188	-1.3417	-2.3979	-1.5708	-1.6979	-2.0833	-1.5125	-2.0979	-1.6812	-1.3042	-2.3187	-1.5396	-1.7708	-2.4042	-1.3604	-2.0042	319.129	68.086	43.800	59.695	85.816	275.266	238.375	257.138	94.336	120.868	111.965	319.400	24.387	3.327	9.507	248.027	0.00029795	0.0011554	0.00069266	563.05	5.3096e-06	9.8281e-06	1187.3	111.15	1.2584e-05	9.145e-06	385.27	136.42	28.709	9.1156	8.3626e-06	56.702	0.0062866	0.0074074	0.0020431	567.77	7.8187e-05	8.2778e-05	1062.2	117.92	7.9027e-05	8.2264e-05	374.26	129.24	38.34	12.637	8.1772e-05	53.896	55.311	58.452	299.199	8.344	275.065	202.844	8.979	12.785	111.149	79.837	13.377	17.508	16.888	20.726	112.708	21.463	-8191	255	
5211.108	1	1	0	0	0.056172	0.12335	0.11731	0.2614	0.34947	0.0038644	0.12885	0.17542	0.2178	0.11781	0.35374	0.22291	0.10683	0.15236	0.17426	0.089086	-1.6292	-1.3146	-2.1813	-1.5521	-1.5771	-2.1604	-1.6667	-1.9104	-2.0396	-1.3917	-2.325	-1.7667	-1.4875	-2.1583	-1.4292	-2.0292	82.508	175.963	149.846	267.783	349.719	13.693	318.707	71.209	201.614	80.908	288.760	266.522	135.993	161.322	42.467	208.383	0.00070336	0.00072116	4.5773e-05	558.6	8.3624e-06	1.0212e-05	1168.3	108.63	1.1496e-05	3.694e-06	382.21	132.48	27.548	8.6629	2.951e-05	54.407	0.0065181	0.0076942	0.002127	571.28	8.2881e-05	8.6764e-05	1063.7	118.5	8.594e-05	8.97e-05	375.9	128.23	39.438	12.907	9.4013e-05	53.205	96.655	293.804	8.526	8.484	200.435	260.502	9.350	13.099	353.489	135.301	13.067	17.460	18.598	22.464	146.003	21.577	-8191	255	
5211.229	1	1	0	0	0.22064	0.062138	0.20548	0.35858	0.18863	0.20164	0.055403	0.050044	0.24683	0.14308	0.30373	0.22201	0.34631	0.21265	0.098698	0.33779	-1.5042	-1.5	-2.0896	-1.9375	-1.5458	-2.2833	-1.6083	-1.825	-2.1	-1.3271	-2.1729	-2.05	-1.5708	-2.2417	-1.5083	-1.7792	92.731	55.571	102.796	296.765	158.309	20.432	259.312	68.966	107.459	2.110	337.493	74.327	304.160	263.826	228.334	58.419	0.00024977	0.0011959	0.00072119	555.66	1.6838e-05	2.3507e-05	1167	108.53	1.0112e-05	1.7177e-05	376.25	129.39	26.969	8.4779	8.8375e-06	53.482	0.0074508	0.0087852	0.0024563	588.37	9.7057e-05	0.00010196	1074.2	122.09	0.00010036	0.00010381	380.8	128.61	40.929	13.539	0.00010513	53.172	223.433	-3.290	170.198	8.502	214.479	34.460	9.205	13.311	28.289	240.400	13.421	17.599	17.833	22.369	67.032	21.063	-8191	255	
5211.323	1	1	0	0	0.088034	0.14023	0.094897	0.14963	0.20406	0.27095	0.11779	0.27613	0.13757	0.32902	0.12207	0.072976	0.083677	0.22488	0.067277	0.30149	-1.7625	-1.275	-1.9688	-1.9646	-1.4417	-2.2854	-1.4688	-1.7833	-2.1021	-1.4896	-2.0187	-2.1021	-1.4229	-2.4104	-1.7125	-1.6833	302.998	169.766	231.547	80.219	301.972	110.484	286.238	241.465	210.717	118.490	326.439	139.830	349.816	248.288	125.001	301.492	0.00013726	0.0015101	0.0001668	562.59	9.1695e-06	1.5706e-05	1169.1	107.23	1.3541e-05	6.9281e-06	372.43	127.14	26.858	8.4479	4.2326e-05	52.482	0.0083217	0.0098601	0.0027328	608.49	0.00011034	0.00011534	1092.4	126.9	0.00011708	0.00012429	393.79	131.53	45.644	15.133	0.00013517	55.457	21.908	29.616	326.545	8.399	111.616	168.288	9.124	13.291	334.086	137.885	12.578	17.864	17.904	21.059	193.555	21.563	-8191	255	
5211.397	1	1	0	0	0.11465	0.16619	0.18219	0.18876	0.19185	0.093701	0.37374	0.085529	0.25007	0.11089	0.05092	0.35531	0.18451	0.14753	0.20926	0.16103	-1.8542	-1.4937	-2.0042	-2.1896	-1.4646	-2.2646	-2.0438	-1.5396	-2.3479	-1.4417	-2.0042	-2.2458	-1.5187	-2.3271	-1.6458	-1.6979	210.830	224.783	108.792	349.082	269.447	23.525	284.644	85.290	193.951	207.551	155.280	287.927	19.437	334.733	89.863	321.391	0.00032271	0.00034013	0.00071172	562.39	1.0353e-05	2.8901e-05	1157.7	106.32	1.7797e-05	3.5223e-06	363.67	125.35	26.389	7.8436	1.3191e-05	51.007	0.011282	0.013987	0.0039642	674.92	0.00016033	0.00016782	1145.1	142.74	0.00016518	0.00017502	423.64	139.58	54.347	17.999	0.00018678	58.509	86.529	237.198	307.812	9.266	202.878	174.925	9.202	13.386	169.960	110.468	13.443	17.434	20.065	24.018	126.680	21.387	-8191	255	
5211.493	1	1	0	0	0.16172	0.063229	0.15456	0.19832	0.13611	0.12367	0.12584	0.092037	0.24263	0.31144	0.099378	0.11529	0.26592	0.16907	0.3331	0.34806	-1.8771	-1.4604	-1.8937	-2.0708	-1.4708	-2.2875	-2.0229	-1.325	-2.2396	-1.7875	-2.0187	-2.3042	-1.5125	-2.2333	-1.9562	-1.6042	272.825	178.440	347.630	350.217	193.013	311.178	347.257	352.019	326.488	208.243	283.675	33.328	309.871	169.242	131.422	308.485	0.00053117	0.0026597	0.00058451	546.53	6.9169e-06	4.8041e-05	1146.9	102.8	6.6725e-06	3.163e-05	363.32	122.09	24.911	8.0361	2.0576e-05	50.48	0.014882	0.018397	0.0052241	732.82	0.00020754	0.0002162	1191.2	155.34	0.00020921	0.00021844	445.8	144.45	58.415	19.098	0.00020018	58.569	25.346	74.908	212.747	8.194	183.344	113.169	9.590	13.627	183.216	208.511	13.484	17.390	16.717	22.054	33.690	21.633	-8191	255	
5211.612	1	1	0	0	0.20101	0.12155	0.01644	0.18765	0.19879	0.089177	0.1666	0.11536	0.20088	0.088072	0.21407	0.345	0.066763	0.24945	0.026103	0.18259	-2.1854	-1.5375	-1.7354	-2.2604	-1.4146	-2.0896	-2.2771	-1.5083	-2.2229	-1.8104	-1.8333	-2.2125	-1.3708	-1.9542	-2.225	-1.4979	250.553	153.506	269.274	260.777	316.565	200.430	293.783	5.847	67.906	314.157	26.599	29.184	39.553	49.624	303.946	14.232	0.00015689	0.0026728	0.00040201	547.06	2.8645e-05	1.4832e-05	1124.3	100.44	1.1853e-05	1.6033e-05	356.29	122.31	25.3	7.6258	2.1892e-05	50.025	0.014797	0.017494	0.0047529	684.91	0.00017339	0.00017865	1130.1	139.31	0.00016303	0.00017109	410.93	135.25	51.131	16.932	0.00017082	56.147	73.610	39.092	242.850	8.425	54.737	239.736	9.106	13.206	63.805	220.915	13.582	17.712	17.530	22.070	80.375	21.252	-8191	255	
5211.708	1	1	0	0	0.11715	0.31212	0.23836	0.053809	0.21323	0.03833	0.17176	0.18848	0.12002	0.13275	0.25712	0.066592	0.20898	0.32482	0.11015	0.24434	-1.775	-1.6333	-1.6292	-2.3	-1.5438	-1.875	-2.2896	-1.4458	-2.0958	-1.9042	-1.4833	-2.3354	-1.5375	-1.9646	-2.2354	-1.3917	301.716	352.780	99.249	102.443	299.061	161.661	269.924	339.912	351.985	28.319	221.994	268.401	0.967	328.974	223.504	326.641	0.0001484	0.00026811	0.00010796	530.05	2.5872e-05	3.213e-05	1116.5	99.522	2.941e-05	2.5165e-05	355.4	123.87	25.694	8.384	2.2452e-05	52.039	0.012888	0.015576	0.004319	660.39	0.00016198	0.00016461	1103.6	133.08	0.00014203	0.00014464	392.35	129.34	45.171	14.76	0.00012898	53.638	106.046	153.691	275.332	9.088	143.315	67.665	9.186	13.200	284.469	219.490	13.518	17.813	17.471	21.744	303.182	21.390	-8191	255	
5211.804	1	1	0	0	0.13104	0.13746	0.25638	0.18618	0.21264	0.13253	0.27392	0.24961	0.014071	0.039721	0.38569	0.0215	0.28732	0.16863	0.11054	0.15308	-1.6229	-1.875	-1.4792	-2.2083	-1.5146	-1.6583	-2.3167	-1.1667	-2.1458	-2.0958	-1.6917	-2.3479	-1.5396	-1.6042	-2.2167	-1.4312	139.248	20.078	236.615	346.390	161.651	113.409	4.261	339.016	296.402	124.133	54.174	338.362	293.031	97.236	156.074	293.351	0.00043536	0.0010264	0.00078198	542.67	1.0946e-05	5.6286e-05	1145.2	102.83	1.169e-05	1.9929e-05	364.44	125.2	26.429	8.2718	1.3171e-05	52.303	0.0097365	0.011805	0.0033175	615.96	0.00012872	0.00013367	1084.8	127.11	0.00012392	0.00013018	388.02	128.92	43.975	14.444	0.00012325	53.668	95.312	156.339	319.356	8.753	110.523	298.414	8.973	13.664	190.454	227.307	13.468	17.536	17.230	23.003	146.950	21.554	-8191	255	
5211.925	1	1	0	0	0.15514	0.19126	0.19817	0.19666	0.034605	0.11285	0.19549	0.11972	0.12776	0.13261	0.08362	0.14946	0.30294	0.23573	0.16209	0.13128	-1.5458	-1.95	-1.2896	-2.1458	-1.7167	-1.6146	-2.3708	-1.2333	-2.0375	-1.8167	-1.5438	-2.2896	-1.7	-1.425	-2.0938	-1.4937	81.342	41.313	349.342	140.588	248.563	328.006	291.132	284.748	259.701	141.595	226.220	318.000	342.155	130.205	26.465	168.230	0.00074285	0.0015666	0.00013518	550.09	2.2253e-05	8.8014e-06	1147.4	104.07	9.716e-06	1.646e-05	363.42	122.38	26.295	7.8778	2.2013e-05	50.167	0.0095756	0.011557	0.0032532	618.95	0.00012682	0.00013435	1097.1	130.39	0.00013571	0.00014743	402.27	131.78	48.463	16.013	0.00015171	54.828	80.908	316.663	266.897	8.934	67.010	210.075	9.372	13.187	270.789	296.122	13.210	17.728	18.143	22.917	145.180	21.651	-8191	255	
5211.997	1	1	0	0	0.28953	0.082542	0.087326	0.15649	0.162	0.14199	0.38131	0.17996	0.11059	0.030987	0.11035	0.14368	0.17112	0.14071	0.13723	0.22543	-1.5167	-1.9771	-1.5229	-1.9771	-1.7729	-1.3021	-2.4375	-1.5417	-1.7833	-2.2438	-1.5854	-2.2104	-1.9604	-1.1917	-2.1542	-1.6146	184.999	188.572	-4.499	9.226	222.033	165.426	332.223	291.358	74.714	275.600	275.353	261.840	35.849	0.953	289.725	230.291	0.00068344	0.0015805	0.00038534	550.7	9.8185e-06	6.6782e-06	1147.7	100.37	2.9164e-06	9.7525e-06	351.93	119.74	24.272	7.5657	4.1796e-05	48.117	0.011925	0.014634	0.0041068	662.75	0.00016091	0.00016912	1126.3	138.79	0.00016633	0.00017806	417.88	135.19	52.938	17.41	0.00017707	55.483	172.444	254.396	79.802	8.928	254.650	142.060	8.892	12.607	285.357	164.052	13.532	17.742	17.881	21.434	223.476	21.347	-8191	255	
5212.093	1	1	0	0	0.26701	0.031487	0.17532	0.35317	0.3417	0.14839	0.18307	0.25465	0.15301	0.23093	0.18299	0.10701	0.075385	0.11833	0.14237	0.09363	-1.4271	-2.0833	-1.4708	-2.0292	-1.9021	-1.55	-2.4375	-1.7917	-1.5958	-2.0771	-1.5167	-2.0792	-2.0958	-1.5417	-2.1354	-1.8896	254.067	53.180	2.186	315.289	104.390	91.430	177.135	56.518	257.611	242.858	59.602	17.434	13.061	249.917	45.949	321.910	0.0003006	0.0019818	0.00030973	540.47	1.1138e-05	2.1869e-05	1121.5	98.208	8.2442e-06	1.4509e-05	347.28	118.97	24.752	7.5827	7.1301e-06	48.776	0.013417	0.016108	0.0044368	671.14	0.00016828	0.00017242	1116	137.26	0.00016461	0.00017284	407.56	132.88	51.299	16.647	0.00016279	54.209	60.039	173.466	205.465	8.583	52.124	150.839	9.353	13.764	301.881	345.475	12.642	18.607	16.653	22.613	228.961	21.763	-8191	255	
5212.213	1	1	0	0	0.1394	0.098612	0.2717	0.11307	0.23954	0.1105	0.065463	0.24376	0.16137	0.14269	0.14732	0.2097	0.080931	0.060469	0.084317	0.21179	-1.2646	-2.2792	-1.4479	-1.8125	-2.2	-1.2708	-2.3063	-1.8021	-1.4562	-2.1417	-1.6542	-1.8583	-2.1146	-1.2	-2.1208	-1.7875	308.188	252.016	66.971	197.218	167.326	164.931	283.283	41.902	31.230	303.856	319.146	142.672	246.542	215.199	99.766	80.239	0.0001135	0.001793	0.0012344	535.22	1.919e-05	1.684e-05	1112.6	100.32	1.4321e-05	4.5488e-06	354.38	120.43	24.629	7.7434	2.7051e-05	49.672	0.012279	0.01436	0.0039767	635.64	0.00014653	0.00014918	1085.4	129.69	0.00014072	0.00014592	393.39	128.88	46.915	15.419	0.00014386	53.701	-3.488	46.439	134.047	8.798	7.206	28.090	9.470	13.200	179.883	150.759	13.049	17.836	17.817	22.704	349.996	21.922	-8191	255	
5212.309	1	1	0	0	0.091033	0.15441	0.13686	0.16578	0.15681	0.052016	0.25755	0.16966	0.11655	0.089792	0.2062	0.3666	0.24847	0.26555	0.19372	0.075346	-1.0729	-2.1937	-1.5646	-1.8625	-2.125	-1.45	-2.1979	-1.9729	-1.3458	-2.2458	-1.5688	-1.7854	-2.4437	-1.4333	-2.1146	-2.1708	107.326	317.768	138.645	234.892	58.262	270.764	314.235	127.329	331.711	81.262	265.820	332.230	47.649	45.411	232.971	208.419	0.00071908	0.0021509	0.00038774	535.44	1.8228e-05	4.5707e-05	1130.5	98.993	2.4779e-05	2.6829e-05	354.76	122.52	25.405	7.9963	3.2429e-05	50.097	0.011322	0.013436	0.0037879	639.17	0.00014405	0.00014961	1092.3	130.91	0.00014287	0.00014662	396.33	129.65	46.827	15.537	0.00014058	53.759	84.874	52.063	209.191	8.778	61.396	64.974	9.681	13.041	122.770	262.219	13.170	18.155	17.763	22.861	165.821	21.770	-8191	255	
5212.404	1	1	0	0	0.12278	0.1423	0.096914	0.045374	0.27578	0.18959	0.16688	0.12308	0.13492	0.020403	0.30151	0.2257	0.136	0.20145	0.18086	0.26805	-0.95625	-2.2354	-1.6021	-1.6187	-2.3146	-1.4333	-2.1396	-2.0854	-1.5312	-2.0542	-1.7542	-1.4813	-2.1583	-1.4542	-1.9062	-2.175	251.034	30.710	206.649	129.351	324.949	138.057	305.152	5.327	214.288	201.546	311.779	265.624	149.810	307.763	211.078	267.277	0.00065963	0.0010453	0.0011395	537.05	2.6369e-05	1.9392e-05	1134.8	101.76	1.1678e-05	2.4551e-05	356.25	121.23	25.699	8.1333	1.9705e-05	50.61	0.010844	0.012785	0.0035776	626.46	0.00013458	0.00013801	1085.5	128.03	0.00013032	0.00013368	390.11	128	45.055	14.941	0.00013005	53.387	103.246	273.276	152.777	8.868	127.870	146.913	9.337	13.448	59.087	259.895	13.773	17.800	18.099	22.383	228.370	21.711	-8191	255	
5212.524	1	1	0	0	0.10927	0.011483	0.098821	0.12696	0.085821	0.23537	0.46652	0.13147	0.33704	0.053085	0.27697	0.24239	0.17051	0.12362	0.23904	0.24866	-0.83333	-2.0833	-1.7958	-1.5479	-2.1271	-1.5958	-1.8729	-2.1604	-1.2313	-2.1937	-1.8438	-1.5417	-2.3812	-1.375	-1.5417	-2.35	96.613	144.362	184.640	255.745	232.272	251.111	326.619	301.283	293.823	304.113	3.522	309.778	209.248	29.271	236.461	342.893	6.0384e-05	0.0030576	0.00087248	544.84	7.3253e-06	3.6561e-06	1146.5	104.35	1.9254e-05	8.0134e-06	366.51	125.02	26.819	8.1301	1.797e-05	50.913	0.010033	0.011794	0.0033694	625.44	0.0001265	0.00013198	1089.1	128.17	0.00012443	0.00012705	390.6	128.59	44.309	14.736	0.00012565	53.661	100.397	136.787	66.775	8.669	-1.702	74.177	9.237	13.538	12.948	186.069	12.925	17.665	17.570	22.740	209.660	21.386	-8191	255	
5212.596	1	1	0	0	0.22562	0.14692	0.085373	0.12441	0.12833	0.33887	0.14025	0.12462	0.15149	0.29305	0.17226	0.21182	0.13831	0.22112	0.1445	0.14241	-1.0417	-2.1104	-1.9312	-1.4396	-2.3271	-1.6271	-1.7396	-2.1917	-1.2167	-1.9833	-2.1875	-1.3396	-2.275	-1.9167	-1.6063	-2.3021	131.062	13.215	268.280	62.249	24.444	17.958	258.934	7.738	170.738	3.116	91.936	19.987	219.304	240.179	109.283	260.709	0.00067729	0.0015036	0.00032747	556.35	2.2153e-05	3.4181e-05	1151.5	105.42	2.0287e-05	1.0719e-05	367.77	125.89	27.109	8.3996	1.038e-05	51.861	0.009725	0.011609	0.0032993	626.84	0.00012415	0.00012976	1094.1	129.11	0.00012416	0.00012777	392.02	129.49	44.854	14.839	0.00012552	53.699	144.355	204.093	212.432	8.327	214.989	136.431	9.582	13.683	121.358	6.523	13.261	18.396	18.318	23.197	135.247	21.372	-8191	255	
5212.692	1	1	0	0	0.11914	0.13074	0.3083	0.1424	0.20111	0.14138	0.14924	0.13948	0.10596	0.12575	0.24328	0.32322	0.18728	0.12617	0.15822	0.019542	-1.0604	-1.9188	-2.1708	-1.3604	-2.0292	-1.7437	-1.6458	-2.0708	-1.5104	-1.7687	-2.4375	-1.2771	-2.1479	-1.7979	-1.6063	-2.2354	129.484	324.953	104.265	346.610	164.978	33.273	336.214	296.233	53.064	260.530	282.387	254.460	337.363	245.083	16.696	234.421	0.00072967	0.00065136	0.00026404	558.83	1.3912e-05	5.0873e-06	1152.5	105.89	1.9908e-05	1.2162e-05	367.42	126.65	26.512	8.6047	2.3639e-05	52.017	0.0096253	0.011402	0.0032591	625.15	0.00012012	0.00012786	1096.2	127.98	0.0001196	0.0001237	389.3	129.8	43.774	14.593	0.00011983	53.5	93.399	102.413	62.475	8.360	31.640	336.470	9.501	13.619	205.264	315.214	12.978	17.836	17.880	23.377	145.610	21.849	-8191	255	
5212.788	1	1	0	0	0.11455	0.12456	0.13861	0.30126	0.22094	0.1207	0.18994	0.23765	0.16712	0.25465	0.15121	0.15849	0.18683	0.054286	0.22575	0.19059	-1.3375	-1.7896	-2.1312	-1.2917	-2.0896	-1.8146	-1.5792	-2.1146	-1.4125	-1.6958	-2.3104	-1.5312	-2.0708	-2.1208	-1.3146	-2.4583	276.132	142.286	123.741	340.232	7.022	30.080	7.166	250.059	226.352	276.643	236.101	308.298	347.775	121.506	221.015	324.085	0.00011087	0.00067223	0.00023045	562.01	1.1559e-05	1.9283e-05	1154.2	106.71	1.7249e-05	1.3045e-05	368.05	125.88	26.54	8.4775	1.7828e-05	52.653	0.009279	0.010863	0.0030593	616.72	0.00011422	0.00012102	1086.3	126.24	0.00011583	0.00011968	388.66	129.41	43.491	14.565	0.00011848	53.619	135.480	339.344	276.142	7.877	352.363	35.598	9.045	12.858	326.530	220.897	13.919	17.673	18.139	23.346	34.531	21.266	-8191	255	
5212.909	1	1	0	0	0.24876	0.12033	0.17877	0.14618	0.085048	0.24357	0.52796	0.31238	0.31415	0.2428	0.44714	0.11568	0.14686	0.13581	0.33406	0.19337	-1.1812	-1.7104	-2.3812	-1.5187	-1.9792	-2.2583	-1.6125	-2.3146	-1.5688	-1.6021	-2.2083	-1.75	-1.8021	-2.1375	-1.3312	-2.3771	195.336	223.599	353.578	277.508	318.718	257.930	341.147	218.268	209.990	90.806	318.836	285.494	299.273	87.815	190.105	283.018	0.0006965	0.0025161	0.0008755	552.33	2.4878e-05	1.5324e-05	1147.3	106.95	6.2555e-06	2.4849e-05	361.43	125.77	26.225	8.3476	2.4967e-05	51.453	0.0092782	0.010997	0.0030809	617.37	0.00011675	0.0001241	1084.1	126.4	0.00011935	0.00012481	387.84	128.76	43.91	14.654	0.00012274	53.325	132.222	133.579	69.697	8.883	194.604	-3.634	9.479	12.560	318.416	111.250	13.204	17.893	17.951	22.579	108.039	21.290	-8191	255	
5213.005	1	1	0	0	0.11029	0.05937	0.18756	0.14468	0.075759	0.27507	0.26873	0.03581	0.097549	0.093456	0.14764	0.14604	0.22935	0.37475	0.24865	0.26906	-1.4854	-1.4729	-2.2521	-1.5875	-1.7208	-2.1667	-1.6667	-2.1771	-1.8167	-1.6458	-2.3312	-1.6812	-1.7042	-2.1833	-1.4604	-2.1958	60.682	47.030	353.183	136.483	337.373	31.883	265.686	159.044	98.760	294.142	15.707	270.977	127.481	271.876	209.090	172.589	7.1855e-05	0.0017501	0.00056489	558.21	2.1602e-05	1.5144e-05	1144.4	105.05	5.0862e-06	1.1324e-05	369.23	126.61	26.692	8.4172	1.1887e-05	52.242	0.009557	0.011313	0.0031297	618.43	0.00011681	0.0001223	1078.2	125.7	0.00011603	0.00012092	385.9	128.36	43.295	14.354	0.00011842	53.198	278.208	203.183	41.792	7.535	286.753	226.386	9.347	13.227	254.631	273.260	12.780	17.336	17.955	23.864	156.425	21.325	-8191	255	
5213.101	1	1	0	0	0.13465	0.078498	0.09868	0.12006	0.11875	0.19903	0.38808	0.15658	0.11679	0.074918	0.43707	0.24718	0.14259	0.047026	0.19334	0.13587	-1.6292	-1.3917	-2.425	-1.6521	-1.7583	-2.2687	-1.6042	-2.0938	-1.9708	-1.4417	-2.2917	-1.5854	-1.4	-2.3396	-1.5	-2.15	146.697	323.959	254.967	336.267	318.043	3.610	341.923	323.251	10.059	279.554	318.292	338.302	329.505	320.264	247.046	187.293	0.00044423	0.00091455	0.00057017	553.13	1.186e-05	1.2772e-05	1146.2	106.46	7.4814e-06	2.1674e-05	368.57	126.56	27.002	8.8538	1.4291e-05	53.026	0.0093151	0.010905	0.0030044	616.09	0.00011365	0.00011911	1080.5	125.22	0.00011381	0.00011639	384.4	128.77	43.132	14.279	0.00011608	53.806	42.138	39.969	216.687	7.566	187.851	227.777	9.130	13.782	85.393	33.885	13.455	17.423	17.431	21.566	163.072	21.553	-8191	255	
5213.198	1	1	0	0	0.054705	0.043903	0.070317	0.099216	0.11601	0.21171	0.33507	0.18612	0.24321	0.15118	0.097774	0.37648	0.087741	0.16108	0.15748	0.55876	-1.8729	-1.2146	-2.1896	-1.6042	-1.4354	-2.425	-1.6833	-1.9333	-2.0062	-1.3708	-2.0917	-1.9708	-1.6771	-2.2313	-1.6521	-1.8104	19.081	34.582	166.804	290.277	194.064	283.859	348.991	14.767	143.538	60.030	23.702	15.600	19.371	253.692	5.128	265.950	0.00056104	0.0013569	0.00023976	554.61	1.7978e-05	2.8446e-05	1149.1	106.39	1.4937e-05	4.5864e-06	367.08	125.42	27.524	8.4542	1.4406e-05	51.946	0.0091851	0.010807	0.0030054	616.71	0.00011686	0.00012019	1081.6	125.87	0.00011598	0.00011879	384.98	128.15	43.468	14.061	0.00011683	53.22	62.691	39.498	129.972	8.296	14.486	274.342	8.864	13.674	230.696	127.897	13.067	17.840	16.898	22.371	82.287	21.176	-8191	255	
5213.294	1	1	0	0	0.27841	0.17527	0.14373	0.13332	0.060919	0.077602	0.13696	0.21348	0.061083	0.11323	0.18221	0.18887	0.3188	0.18732	0.099427	0.14308	-1.7771	-1.3687	-2.0083	-2.0083	-1.3229	-2.25	-1.8167	-1.6792	-2.3	-1.4542	-2.175	-2.0479	-1.3729	-2.2333	-1.85	-1.7771	48.336	47.789	343.679	305.966	132.405	31.143	279.389	-4.995	75.054	170.388	254.203	89.641	32.298	187.156	73.127	272.578	0.00039311	0.001826	0.00065439	552.63	2.6541e-05	1.765e-05	1139.4	106.21	8.8581e-06	3.0172e-06	368.52	126.9	27.028	8.5603	2.2088e-05	52.727	0.0092038	0.010894	0.0029978	615.42	0.00011604	0.00011802	1073.4	124.87	0.00011293	0.00011593	382.38	127.73	42.205	13.922	0.00011293	53.36	350.295	332.895	25.063	8.515	37.987	353.750	8.704	12.786	94.622	163.851	13.544	17.691	18.022	19.921	275.633	21.543	-8191	255	
5213.390	1	1	0	0	0.11452	0.19989	0.14527	0.13889	0.20684	0.14791	0.14635	0.37075	0.13976	0.25171	0.17153	0.078867	0.11135	0.3089	0.36062	0.31489	-1.8958	-1.2417	-2.1125	-2.2104	-1.4375	-2.275	-1.9688	-1.6708	-2.1917	-1.4271	-2.0312	-2.1396	-1.3896	-2.2062	-1.8	-1.7292	137.023	275.687	244.182	272.710	242.016	265.965	339.660	7.626	88.798	333.579	281.015	286.893	150.399	8.658	2.119	-1.807	0.00038679	0.00077906	0.0007291	551.33	2.2593e-06	2.1491e-05	1143	107.38	2.0946e-05	2.2619e-05	373.21	127.19	27.092	8.6126	1.1128e-05	52.636	0.0087305	0.010288	0.0028406	606.29	0.00010892	0.00011196	1070.2	124.27	0.00010844	0.00011313	381.81	128.14	42.171	13.785	0.00010986	53.192	63.634	56.913	74.820	7.956	175.668	157.914	9.099	13.062	207.562	162.774	13.277	17.435	19.302	22.632	174.391	21.306	-8191	255	
5213.486	1	1	0	0	0.36257	0.1533	0.20745	0.31452	0.13319	0.17685	0.11959	0.19149	0.13068	0.32938	0.10329	0.36463	0.19814	0.060474	0.27188	0.28621	-1.8771	-1.5542	-1.8104	-2.1188	-1.1521	-2.1854	-1.9021	-1.5771	-2.1646	-1.7125	-1.8271	-2.5083	-1.3813	-1.9708	-2.0187	-1.5771	252.619	84.947	157.447	309.927	236.452	346.669	60.221	122.123	67.707	144.991	37.138	337.467	331.497	126.851	324.631	307.801	0.00043611	0.0011898	6.7994e-05	554.62	1.3058e-05	3.0805e-05	1152.3	106.85	2.0477e-05	1.8055e-05	375.65	128.96	27.935	8.8173	7.3333e-06	54.033	0.0084206	0.010095	0.0027685	602.75	0.0001063	0.00010778	1074.6	123.39	0.00010381	0.00010969	383.83	128.95	42.124	13.824	0.00010826	53.849	8.912	60.028	231.955	8.320	42.560	180.115	8.908	13.116	137.503	60.669	12.857	17.959	17.490	22.032	79.668	21.572	-8191	255	
5213.605	1	1	0	0	0.4283	0.25141	0.058045	0.11637	0.062537	0.1383	0.24286	0.12233	0.057116	0.045276	0.01844	0.11417	0.32381	0.11427	0.13965	0.29877	-1.8021	-1.6896	-1.7958	-2.2521	-1.6104	-2.0917	-2.1375	-1.5458	-2.2167	-1.8396	-1.9021	-2.5062	-1.4521	-1.9438	-2.1833	-1.3667	147.068	57.045	38.759	324.168	72.542	132.669	258.257	155.897	72.302	227.452	233.691	336.162	287.047	148.292	319.520	6.144	0.00021265	0.001131	7.2681e-05	559.66	1.0026e-05	2.6754e-05	1169.2	108.09	1.55e-05	1.1278e-05	370.47	127.72	27.345	8.6205	8.0472e-06	53.058	0.008276	0.0099508	0.0027449	601.39	0.00010525	0.00010782	1079.9	124.77	0.00010261	0.00011007	382.9	128.5	42.013	13.767	0.00010901	53.275	72.032	45.951	287.538	7.967	251.737	137.682	9.056	13.009	99.049	3.279	13.624	17.185	16.974	22.937	341.910	21.826	-8191	255	
5213.701	1	1	0	0	0.15882	0.26814	0.050033	0.3698	0.411	0.12568	0.13537	0.31697	0.30093	0.15492	0.07645	0.29934	0.35998	0.23588	0.06903	0.093134	-1.7708	-1.6979	-1.4021	-2.2917	-1.6167	-1.8875	-2.4188	-1.4188	-2.1021	-2.0479	-1.5917	-2.5042	-1.6208	-1.8417	-2.0917	-1.5021	272.343	36.034	303.934	315.671	297.246	251.058	154.223	212.087	99.297	91.932	327.455	316.435	249.256	37.916	306.657	29.065	0.00060873	0.00097148	0.00066202	560.14	1.8919e-05	2.132e-05	1154.1	106.98	2.5857e-05	8.7869e-06	369.01	128.24	27.373	8.4878	7.8254e-06	52.798	0.0083463	0.010209	0.0027984	606.38	0.0001075	0.00011083	1075.4	124.25	0.00010447	0.0001103	380.72	127.39	41.42	13.526	0.00010545	52.83	313.779	193.330	125.259	8.657	204.512	240.175	9.264	13.099	179.883	144.655	13.588	18.314	18.230	21.980	68.752	21.237	-8191	255	
5213.797	1	1	0	0	0.26926	0.19379	0.17631	0.33589	0.032474	0.15414	0.17028	0.25628	0.36413	0.25675	0.20133	0.16394	0.29798	0.24509	0.15536	0.40094	-1.7083	-1.8729	-1.4042	-2.2604	-1.5375	-1.6292	-2.2938	-1.3542	-2.0438	-2.05	-1.5083	-2.2604	-1.75	-1.6562	-2.0583	-1.4229	335.140	178.890	153.765	266.512	296.628	84.902	296.838	287.807	283.340	2.752	188.524	351.848	306.383	64.311	51.208	269.397	8.6199e-05	0.0017579	0.00042409	559.28	2.6017e-05	2.143e-05	1153.6	108.23	2.1813e-05	1.6715e-05	373.82	126.88	26.755	8.5474	9.3316e-06	53.161	0.0080528	0.0098356	0.0027324	599	0.0001043	0.0001066	1074.6	123.31	0.00010176	0.00011002	381.18	126.39	41.462	13.574	0.00010488	52.945	213.786	305.814	22.310	8.174	229.703	152.605	9.204	13.250	173.867	260.224	13.359	17.412	18.927	21.859	204.708	21.352	-8191	255	
5213.893	1	1	0	0	0.14529	0.22798	0.22615	0.20619	0.24916	0.086821	0.22453	0.14317	0.19143	0.12944	0.17575	0.08184	0.17386	0.23171	0.13066	0.12584	-1.5917	-2.0167	-1.2812	-2.1583	-1.5375	-1.5938	-2.5646	-1.5521	-1.9083	-2.1417	-1.4458	-2.1813	-1.6271	-1.4667	-2.2125	-1.6125	110.209	335.464	11.556	130.114	250.415	119.016	275.888	343.001	35.517	52.856	10.337	37.053	53.626	111.957	100.658	294.796	0.0006725	0.0022404	0.00051747	558.01	2.0066e-05	7.9286e-06	1153.6	106.78	1.0912e-05	7.6279e-06	373.95	130.01	27.194	8.4673	1.663e-05	53.256	0.0079101	0.0096063	0.0026583	597.12	0.00010164	0.00010448	1069.9	121.96	0.00010079	0.00010775	381.12	127.3	41.299	13.622	0.00010512	53.051	69.019	78.304	33.477	8.048	258.485	196.551	9.877	12.635	248.748	238.633	13.171	17.551	18.149	21.798	41.394	21.476	-8191	255	
5213.989	1	1	0	0	0.20617	0.030046	0.17924	0.20443	0.19384	0.25044	0.24105	0.14518	0.16055	0.34266	0.12482	0.19143	0.098013	0.53144	0.12745	0.37276	-1.4375	-2.0417	-1.4854	-2.1937	-1.8062	-1.5688	-2.3438	-1.6771	-1.8604	-2.1562	-1.3937	-2.1104	-1.7563	-1.4312	-2.4917	-1.6729	30.098	346.385	210.457	277.253	254.376	-4.402	297.972	305.964	10.554	203.249	305.728	288.988	321.724	304.025	-1.504	354.737	0.00039816	0.0020712	0.00044235	565.34	2.9303e-05	2.6667e-05	1155.8	108.08	1.0011e-05	5.3642e-06	373.09	126.05	26.37	8.4494	1.7442e-05	52.516	0.0081716	0.0099602	0.0027494	601.71	0.00010614	0.00010881	1072.1	123.39	0.00010262	0.00010738	380.59	125.96	41.191	13.45	0.00010236	52.498	63.293	12.048	214.040	8.212	106.044	108.678	8.963	12.807	284.485	283.170	13.269	17.823	18.124	21.303	80.852	21.284	-8191	255	
5214.086	1	1	0	0	0.18996	0.07178	0.18147	0.24066	0.18486	0.23969	0.33288	0.24399	0.051507	0.11757	0.1982	0.1319	0.11225	0.13807	0.13451	0.22084	-1.225	-2.2167	-1.4896	-2.1312	-1.9521	-1.4521	-2.4333	-1.7667	-1.5458	-2.2708	-1.6688	-2.1417	-2.0938	-1.2833	-2.0792	-2.0292	70.928	75.726	343.780	329.505	279.973	36.393	279.049	190.132	-4.260	107.314	105.092	196.593	6.927	109.616	11.339	339.738	0.0005987	0.0018842	0.00054251	557.65	1.649e-05	1.2542e-05	1153	106.29	3.6049e-06	1.8513e-05	369.12	127.58	27.701	8.1519	2.2499e-05	52.512	0.0079955	0.0095582	0.0026255	591.66	0.00010117	0.00010255	1066.9	121.99	0.00010008	0.00010437	377.79	126.23	40.954	13.284	0.00010161	52.325	105.120	38.838	204.836	8.319	62.339	37.849	9.388	13.470	169.214	109.508	12.948	17.810	17.425	21.241	235.617	21.591	-8191	255	
5214.206	1	1	0	0	0.20372	0.16188	0.15429	0.23221	0.15563	0.16598	0.18009	0.035696	0.15538	0.37278	0.11162	0.14472	0.26273	0.27488	0.19314	0.0391	-0.98958	-2.3146	-1.4729	-1.8125	-2.0563	-1.5979	-2.3563	-1.7229	-1.4104	-2.2729	-1.5562	-1.9229	-1.9813	-1.3583	-2.2083	-1.9688	353.898	255.741	210.841	303.441	17.342	191.481	303.266	306.180	19.568	219.312	6.764	324.596	285.847	338.470	304.471	132.643	0.00034565	0.0015241	0.00058181	562.89	1.9031e-05	1.7349e-05	1162.8	107.12	1.9385e-05	2.3677e-05	373.52	126.69	26.996	8.393	6.0769e-06	53.845	0.0078837	0.0094543	0.0026272	597.57	0.00010029	0.00010236	1067.6	121.42	9.7971e-05	0.00010185	376.16	125.55	40.211	13.218	9.8058e-05	52.719	147.120	300.436	61.120	8.874	69.296	188.251	9.110	13.081	144.587	82.574	12.867	17.602	18.512	22.135	265.936	21.908	-8191	255	
5214.302	1	1	0	0	0.073585	0.17265	0.010345	0.10008	0.031845	0.092642	0.075799	0.1475	0.33153	0.17114	0.29746	0.43541	0.086035	0.16188	0.27038	0.094636	-0.81875	-2.2	-1.4229	-1.7292	-2.2917	-1.2938	-2.3167	-1.9625	-1.4208	-2.2375	-1.6917	-1.7333	-2.4667	-1.4729	-1.7625	-2.2625	6.388	68.360	129.780	337.808	156.143	307.000	304.365	80.655	98.960	93.060	292.855	290.634	332.461	350.103	210.970	238.998	0.00027984	0.0024854	0.00015311	561.14	3.2989e-06	2.0786e-05	1158.5	107.77	9.1055e-06	2.3627e-05	373.87	130.37	27.96	8.6518	2.1711e-05	53.799	0.0077457	0.0091231	0.0025761	593.28	9.8417e-05	0.00010129	1068.1	122.4	9.5801e-05	9.9936e-05	378.49	127.13	40.653	13.335	9.6085e-05	53.389	274.957	331.600	275.333	8.639	195.418	318.612	9.592	13.366	210.398	26.695	13.263	17.352	17.675	22.576	170.584	21.957	-8191	255	
5214.397	1	1	0	0	0.33963	0.11436	0.11317	0.19161	0.22465	0.23206	0.43765	0.094111	0.19088	0.28177	0.1544	0.099007	0.14049	0.083349	0.27261	0.11296	-1.2104	-2.1917	-1.7146	-1.7458	-2.125	-1.5896	-1.9521	-2.225	-1.4188	-2.2542	-1.8021	-1.5604	-2.2125	-1.4125	-1.7292	-2.1958	329.337	113.997	0.298	9.338	214.126	345.585	307.458	27.028	72.365	351.185	77.347	319.213	145.727	288.735	105.865	29.380	0.00053124	0.00081708	0.00099992	566.76	2.1925e-05	1.9154e-05	1165.6	111.99	9.7191e-06	1.641e-05	380.32	131.31	26.794	8.8094	4.9e-06	53.857	0.0075662	0.0089054	0.0025322	594.61	9.7425e-05	0.00010007	1072.3	122.29	9.5897e-05	9.7824e-05	380.83	128.12	40.107	13.284	9.6364e-05	53.251	140.178	180.214	120.459	9.054	185.097	150.680	9.556	12.639	335.047	23.270	12.881	17.380	17.129	21.202	41.451	20.976	-8191	255	
5214.493	1	1	0	0	0.3257	0.18586	0.20245	0.033292	0.11092	0.15637	0.14187	0.16111	0.11552	0.084319	0.26563	0.1734	0.31251	0.14821	0.17875	0.16421	-0.94583	-2.1167	-1.9104	-1.4813	-2.2146	-1.5021	-2.0208	-2.3104	-1.2875	-2.0542	-1.975	-1.2958	-2.2562	-1.5125	-1.8042	-2.2208	299.992	110.807	115.304	344.464	177.213	74.604	283.805	118.011	350.210	325.208	331.285	181.484	348.764	272.380	88.549	227.384	0.00047863	0.00059717	0.0003827	567.53	2.5151e-05	1.2911e-05	1171	110.62	1.137e-05	3.9399e-06	377.33	130.44	27.92	8.9509	1.1723e-06	53.609	0.0075079	0.0088424	0.0025344	592.2	9.5494e-05	0.00010004	1070.5	122.94	9.5279e-05	9.6808e-05	381.56	127.89	40.399	13.435	9.9111e-05	53.054	49.056	-2.730	252.465	8.941	202.024	147.556	9.615	12.395	338.611	252.142	13.506	17.575	17.900	22.350	15.050	22.053	-8191	255	
5214.566	1	1	0	0	0.082348	0.25762	0.21495	0.27694	0.17453	0.22045	0.22658	0.26865	0.1274	0.031691	0.19535	0.061223	0.15049	0.18436	0.21353	0.08001	-1.1	-1.9813	-1.9479	-1.4292	-2.2521	-1.5604	-1.725	-2.2104	-1.4375	-1.8687	-2.125	-1.4188	-2.125	-1.5958	-1.6063	-2.3937	341.604	209.049	128.501	344.298	242.384	234.156	241.346	265.686	85.652	93.722	264.993	192.992	8.477	22.521	136.559	292.178	0.00047819	0.0029306	0.0004361	566.33	2.7567e-05	3.3953e-05	1163	108.17	1.7514e-05	2.5784e-05	376.81	128.71	27.883	8.72	1.8962e-05	53.383	0.0077226	0.0091882	0.00267	600.38	9.8295e-05	0.00010497	1075.4	123.01	9.9715e-05	0.0001027	382.93	127.7	41.124	13.788	0.00010705	53.442	139.265	349.757	298.345	8.757	174.002	7.140	9.563	13.064	97.532	177.550	13.404	17.426	17.550	22.668	342.164	22.114	-8191	255	
5214.685	1	1	0	0	0.1261	0.055384	0.19541	0.27924	0.22307	0.096421	0.24584	0.060031	0.12205	0.13563	0.21884	0.17409	0.10987	0.18042	0.16118	0.23111	-1.2062	-1.8083	-1.9708	-1.2979	-2.2146	-1.8979	-1.7563	-2.3646	-1.5354	-1.8188	-2.1958	-1.4188	-2.2583	-1.9354	-1.5229	-2.3708	265.328	177.544	46.695	48.572	223.812	338.732	274.227	-4.927	252.308	231.842	245.964	327.736	22.499	241.953	308.788	327.676	0.00057816	0.0020864	0.00056687	565.34	2.8622e-05	1.8583e-05	1159	109.31	9.5307e-06	2.6486e-05	370.6	129.5	27.623	8.5197	1.0435e-05	53.043	0.0083508	0.0098717	0.0028417	610.37	0.00010619	0.00011245	1080.9	124.9	0.00010546	0.00011008	385.07	128.94	41.99	14.003	0.00010857	53.563	184.452	178.093	184.145	8.366	57.196	281.333	9.462	12.639	41.869	35.819	13.435	17.623	17.834	21.910	353.541	22.041	-8191	255	
5214.781	1	1	0	0	0.07167	0.1414	0.050202	0.31855	0.049717	0.17551	0.2077	0.22393	0.12437	0.17102	0.08088	0.40871	0.13007	0.25688	0.072773	0.24656	-1.1625	-1.6271	-2.2438	-1.4875	-1.9208	-1.875	-1.5	-2.1813	-1.5667	-1.7062	-2.3063	-1.4125	-1.7313	-2.1646	-1.2458	-2.1646	263.717	327.420	7.450	48.793	36.734	100.878	354.748	297.359	247.278	139.857	178.354	351.640	183.927	349.667	150.568	246.887	0.00027935	0.0017375	0.00024758	561.36	2.9469e-06	2.0156e-05	1164	107.72	3.0923e-05	3.4285e-05	374.66	128.38	26.999	8.4229	2.272e-05	52.286	0.0085668	0.010247	0.0028735	613.5	0.0001071	0.00011501	1086	124.68	0.0001083	0.00011207	386.17	129.03	42.387	14.154	0.00011291	53.232	0.221	178.036	237.545	8.589	125.904	164.275	9.438	13.006	275.472	81.653	13.436	17.716	18.152	22.857	58.576	21.704	-8191	255	
5214.878	1	1	0	0	0.2995	0.21216	0.022563	0.28243	0.17585	0.20989	0.17667	0.060171	0.024581	0.068181	0.10529	0.094401	0.040437	0.02439	0.091346	0.20486	-1.0771	-1.3917	-2.1063	-1.4271	-1.8604	-1.9438	-1.5604	-2.1167	-1.6229	-1.5604	-2.3208	-1.5688	-1.675	-2.1875	-1.5562	-2.2896	23.490	180.579	61.024	36.290	97.616	287.041	0.118	300.865	124.046	349.770	343.627	182.782	175.448	34.661	150.973	301.882	0.00058347	0.0030641	9.3941e-05	560.37	2.336e-05	2.3123e-05	1163	107.13	2.1064e-05	5.8969e-06	369.71	126.51	26.915	8.7161	1.9516e-05	51.944	0.0088763	0.010573	0.0029886	617.1	0.00011473	0.00012158	1086.4	126.26	0.00011655	0.00012002	386.38	128.95	43.301	14.476	0.00011939	53.334	49.229	124.797	171.238	8.972	125.680	262.285	9.470	13.344	232.651	21.178	13.154	18.063	18.087	21.093	135.296	21.758	-8191	255	
5214.974	1	1	0	0	0.19737	0.084765	0.11566	0.23006	0.17128	0.11619	0.20948	0.10894	0.08884	0.06839	0.1571	0.2902	0.10459	0.35735	0.21496	0.20937	-1.5583	-1.4917	-2.4375	-1.675	-1.8771	-2.1417	-1.4542	-2.0958	-1.8729	-1.4292	-2.3292	-1.775	-1.7646	-2.2146	-1.3896	-2.1813	193.274	344.021	274.648	185.536	6.608	169.346	303.665	113.788	322.183	341.023	338.642	285.615	314.097	8.396	122.828	270.252	0.00060194	0.0036987	0.00031394	555.11	1.2577e-05	1.5379e-05	1156.3	105.31	4.2325e-05	3.7612e-05	363.88	124.1	26.911	8.4541	8.5013e-06	52.154	0.0093534	0.011098	0.0030922	615.39	0.00011782	0.00012384	1085.6	125.48	0.00011872	0.00012132	384.75	127.89	43.275	14.373	0.0001196	53.02	80.649	125.472	214.868	9.143	129.258	7.244	9.210	13.641	173.525	355.548	13.961	17.862	18.392	22.086	175.110	21.729	-8191	255	
5215.094	1	1	0	0	0.42029	0.15994	0.098931	0.33902	0.15172	0.30662	0.18161	0.11122	0.13823	0.2063	0.12813	0.268	0.31975	0.38342	0.18127	0.19147	-1.4937	-1.4708	-2.2333	-1.6125	-1.675	-2.3688	-1.5938	-2.0208	-2.0479	-1.3917	-2.25	-1.7896	-1.5104	-2.3438	-1.4229	-2.0729	149.536	78.484	298.006	317.721	297.722	169.367	286.906	305.990	103.183	173.202	19.828	64.387	310.288	198.071	293.447	250.073	0.00023282	0.0027866	0.00054519	544.15	1.3331e-05	1.0299e-05	1147.5	104.64	4.8107e-05	3.0652e-05	362.56	124.98	26.41	8.3211	6.5967e-06	51.771	0.0094247	0.011158	0.0030605	614.32	0.00011926	0.00012562	1079.1	125.95	0.00012123	0.00012513	385.47	129.03	43.84	14.535	0.00012283	53.344	51.655	195.121	118.091	8.653	53.405	11.844	9.749	13.289	259.390	77.406	13.639	17.598	19.260	22.934	100.000	21.687	-8191	255	
5215.166	1	1	0	0	0.25543	0.20586	0.14501	0.084617	0.11287	0.34765	0.4149	0.10837	0.066402	0.13402	0.20429	0.14522	0.11323	0.20941	0.11768	0.23192	-1.775	-1.4312	-2.2125	-1.6917	-1.5187	-2.1583	-1.6396	-1.8708	-2.2062	-1.4438	-2.3042	-1.9896	-1.6229	-2.2562	-1.3229	-1.8667	110.139	306.335	10.110	186.065	81.507	171.820	273.659	195.248	182.882	4.599	294.133	68.345	333.487	2.980	169.844	285.625	0.00026141	0.0040753	0.0004799	557.31	4.66e-06	3.8141e-05	1131.9	103.7	7.7717e-06	1.182e-05	363.13	124.75	26.292	8.0344	9.7858e-06	50.808	0.009761	0.011489	0.0031805	622.59	0.00012415	0.00012942	1082.7	127.08	0.00012583	0.00013071	387.23	129.16	44.528	14.597	0.00012749	53.137	18.002	39.849	35.227	8.824	167.440	324.080	9.420	12.767	104.176	147.321	13.421	17.743	18.335	23.138	105.900	21.805	-8191	255	
5215.287	1	1	0	0	0.27523	0.11954	0.12281	0.059284	0.11259	0.16306	0.28677	0.1813	0.19463	0.29231	0.11407	0.022139	0.051752	0.071497	0.090526	0.13902	-1.7875	-1.4104	-2.1458	-2.0146	-1.4375	-2.1229	-1.8146	-1.7875	-2.2896	-1.4333	-2.0667	-2.15	-1.4521	-2.1688	-1.6875	-1.7396	305.957	-1.403	122.819	133.211	51.848	278.770	274.646	68.549	161.436	128.640	216.869	268.942	94.753	219.561	23.289	251.943	0.00036123	0.0030008	0.00012751	545.66	1.3035e-05	1.3043e-05	1134.6	101.75	1.1169e-05	1.483e-05	356.31	122.99	26.232	7.9828	7.0569e-06	49.834	0.0099868	0.011836	0.0032688	620.91	0.00012617	0.00013081	1078.5	126.88	0.00012587	0.00013112	384.41	127.94	44.473	14.609	0.00013005	52.492	169.982	329.752	328.432	8.925	12.314	70.638	9.545	13.711	140.042	334.158	13.737	17.417	18.269	23.426	279.439	21.429	-8191	255	
5215.383	1	1	0	0	0.23768	0.076302	0.18505	0.10364	0.27556	0.13623	0.38251	0.053342	0.19119	0.10438	0.16149	0.18897	0.051098	0.087582	0.23565	0.16071	-1.9917	-1.4167	-1.8875	-1.9438	-1.5104	-2.1417	-1.7521	-1.6875	-2.1875	-1.3958	-2.0354	-2.1958	-1.3604	-2.0146	-1.7896	-1.3583	172.694	154.268	350.776	347.719	306.193	19.986	335.173	74.669	90.530	171.487	340.640	326.231	-2.540	207.660	127.122	284.388	0.00020182	0.00068912	0.00017608	543.44	1.1274e-05	1.1866e-05	1116.4	100.32	1.874e-05	1.0918e-05	352.62	121	24.986	8.0089	1.377e-05	50.379	0.0099745	0.011875	0.0032785	614.36	0.00012703	0.00013085	1069.3	125.54	0.00012553	0.00012971	381.26	126.39	43.769	14.347	0.0001265	52.263	138.049	219.172	211.523	8.159	325.922	213.840	9.436	13.134	310.015	0.877	13.494	17.727	19.430	22.611	96.497	21.721	-8191	255	
5215.477	1	1	0	0	0.10145	0.12562	0.22072	0.084106	0.39192	0.2316	0.32841	0.16811	0.10637	0.12298	0.1965	0.31172	0.28136	0.17356	0.32194	0.14481	-1.8813	-1.5771	-1.8396	-2.2083	-1.5187	-2.1333	-1.9458	-1.5646	-2.3646	-1.4562	-1.7167	-2.3187	-1.3833	-2.0146	-1.9292	-1.6187	71.047	37.684	113.897	355.912	68.312	214.289	336.058	285.131	41.893	176.024	302.881	312.563	161.212	235.547	288.919	4.757	0.00024456	0.00053664	0.00044159	538.92	1.8589e-05	3.0917e-06	1120.1	102.12	9.9136e-06	1.1537e-05	357.19	123.07	25.657	8.0737	1.9632e-05	50.929	0.0096653	0.011516	0.0031858	604.45	0.00012046	0.00012362	1064.4	125.17	0.00011903	0.00012537	381.9	127.14	43.68	14.052	0.00012113	52.661	197.790	7.703	20.448	8.990	205.430	91.571	9.860	14.348	336.897	34.653	13.542	17.773	19.367	23.257	22.706	21.599	-8191	255	
5215.575	1	1	0	0	0.15843	0.092606	0.19442	0.079601	0.2432	0.13993	0.18519	0.23945	0.10232	0.092217	0.344	0.21578	0.13396	0.35864	0.14655	0.32407	-2.0312	-1.6875	-1.5271	-2.4188	-1.3479	-2.0833	-2.1771	-1.3813	-2.1854	-1.5479	-1.8125	-2.3875	-1.5312	-2.0375	-2.0583	-1.5229	227.461	266.851	107.387	279.573	251.431	250.160	322.174	352.904	169.100	162.367	280.187	322.955	349.047	307.876	168.358	296.696	0.00030484	0.0012999	0.00034745	550.26	1.5062e-05	2.5174e-05	1126.7	103.65	1.59e-05	2.7903e-05	362.62	124.91	27.03	8.2492	4.6112e-06	52.05	0.0092326	0.011081	0.0030505	605.15	0.0001167	0.0001206	1064.6	124.26	0.00011276	0.00011984	380.33	126.95	42.213	13.932	0.0001149	52.671	191.389	33.674	24.934	8.747	231.392	336.583	9.521	13.372	280.237	72.184	13.522	17.883	19.368	23.505	52.209	22.275	-8191	255	
5215.694	1	1	0	0	0.14408	0.40888	0.076626	0.23723	0.21038	0.31342	0.25668	0.36881	0.23371	0.28884	0.23802	0.33303	0.030024	0.22994	0.07553	0.16162	-1.8188	-1.925	-1.5958	-2.5187	-1.4188	-1.8333	-2.3708	-1.4188	-2.125	-1.6667	-1.5354	-2.3042	-1.5792	-1.7896	-2.2687	-1.5688	69.670	96.268	90.465	45.655	39.849	46.322	258.431	318.875	328.152	18.326	304.304	290.123	309.945	300.650	89.666	105.767	0.00037982	0.001257	0.00093296	550.44	1.1376e-05	1.5034e-05	1138.6	103.14	3.8414e-05	2.6996e-05	366.73	125.26	26.266	8.2781	1.4873e-05	52.264	0.0086438	0.010454	0.002953	600.52	0.00011207	0.00011614	1068.8	123.37	0.00011089	0.00011666	382.24	126.33	42.008	13.816	0.0001117	52.671	113.586	200.331	107.844	8.713	126.325	195.288	9.533	12.991	106.626	257.423	13.996	17.862	18.911	21.694	109.121	21.569	-8191	255	
5215.766	1	1	0	0	0.08462	0.021185	0.15659	0.25787	0.084965	0.087645	0.2651	0.19239	0.25614	0.2124	0.3103	0.15046	0.19328	0.071216	0.19383	0.11493	-1.6917	-1.9396	-1.3687	-2.2667	-1.5187	-1.7042	-2.2479	-1.3604	-2.0396	-1.9792	-1.4562	-2.3104	-1.6792	-1.7125	-2.2833	-1.5708	238.324	71.022	193.753	68.113	2.574	146.461	241.620	244.509	90.509	194.181	321.019	339.228	267.976	296.333	216.398	54.276	0.00049893	0.0026919	0.00051693	546.84	1.4804e-05	5.1377e-06	1141.3	106.54	1.5342e-05	1.3892e-05	362.81	125.89	26.788	8.612	2.1714e-05	52.23	0.0084775	0.010361	0.0028176	596.05	0.00010868	0.00011266	1059.8	123.39	0.0001063	0.00011421	379.48	126.83	42.197	13.924	0.00011128	52.837	80.525	88.375	112.773	8.992	260.885	138.287	9.266	13.126	301.660	286.018	13.491	17.778	17.898	22.653	156.888	21.949	-8191	255	
5215.862	1	1	0	0	0.18807	0.19174	0.2745	0.169	0.19419	0.021542	0.36671	0.13932	0.080443	0.016887	0.03755	0.35389	0.11897	0.31274	0.11201	0.2342	-1.5312	-2.0729	-1.2792	-2.3125	-1.65	-1.5354	-2.4938	-1.4521	-1.7812	-2.1833	-1.3062	-2.2729	-1.8771	-1.5979	-2.25	-1.6063	89.744	91.482	197.222	62.315	337.854	186.905	261.049	-3.078	85.385	18.420	352.164	-2.466	84.293	133.124	230.742	-4.762	0.00014315	0.00034214	0.00067534	558.31	9.3552e-06	2.1529e-05	1149.3	105.81	1.5268e-05	3.3825e-05	367.44	125.34	27.3	8.3939	2.2679e-05	52.009	0.0086192	0.010454	0.0028846	600.72	0.00011125	0.00011314	1066.5	123.9	0.00010852	0.00011432	382.15	126.84	42.817	14.108	0.00011335	53.235	89.091	152.282	5.121	8.929	295.999	169.602	9.863	13.036	76.814	70.729	13.935	18.144	18.458	22.252	224.707	22.428	-8191	255	
5215.982	1	1	0	0	0.069446	0.26967	0.036898	0.13839	0.042599	0.047104	0.24003	0.1071	0.073094	0.11352	0.085885	0.18426	0.15867	0.0073129	0.07889	0.30429	-1.475	-2.2062	-1.3	-2.1562	-1.9125	-1.4937	-2.4188	-1.4771	-1.7708	-2.2729	-1.4354	-2.2292	-1.9813	-1.6896	-2.2208	-1.6292	338.759	-3.614	332.886	342.651	192.666	189.889	34.933	185.845	250.680	174.048	354.244	0.707	284.949	110.773	161.904	355.460	0.00036764	0.0018091	0.0003933	555.48	2.1738e-05	4.2182e-05	1147.8	105.86	1.6608e-05	2.7065e-05	367.7	127.52	27.346	8.4158	1.4983e-05	52.629	0.0089285	0.010743	0.0029947	609.27	0.00011663	0.00011842	1073.4	125.13	0.00011031	0.00011617	383	127.69	42.631	13.917	0.00010878	53.06	52.950	55.657	217.457	9.253	153.777	42.991	9.237	13.741	295.253	245.353	13.372	17.873	17.957	22.763	192.537	22.257	-8191	255	
5216.079	1	1	0	0	0.30891	0.16679	0.23348	0.12824	0.15128	0.16483	0.20586	0.17811	0.18699	0.11361	0.036044	0.23066	0.016057	0.17165	0.18539	0.25036	-1.1583	-2.3292	-1.2854	-2.1021	-2.1688	-1.3917	-2.4229	-1.7667	-1.6	-2.2333	-1.5708	-2.0292	-2.2167	-1.2854	-2.2562	-1.9458	225.307	88.227	355.464	2.354	158.877	209.351	322.577	327.462	219.249	22.101	332.904	237.579	243.473	19.105	295.818	253.977	0.0002917	0.00020264	0.00013677	550.88	1.9997e-05	1.4475e-05	1142.2	105.67	8.4192e-06	2.9712e-06	365.81	127.87	26.742	8.4212	2.4074e-05	52.193	0.0084647	0.01023	0.0028084	596.48	0.00010977	0.00011286	1063.1	123.58	0.00010764	0.00011206	378.7	126.92	42.331	13.821	0.0001076	52.933	47.369	43.969	175.872	8.677	126.686	355.263	9.801	13.520	146.324	322.520	13.764	18.193	19.617	22.661	0.804	21.891	-8191	255	
5216.175	1	1	0	0	0.059683	0.11737	0.24708	0.36693	0.099672	0.12892	0.47231	0.19314	0.24789	0.11045	0.21441	0.14188	0.073954	0.24896	0.17989	0.25692	-1.1542	-2.2042	-1.5292	-1.9188	-2.2062	-1.4292	-2.3396	-1.8125	-1.4333	-2.4188	-1.5562	-1.8438	-2.1813	-1.525	-2.0438	-1.8417	249.226	21.730	316.440	42.361	68.046	47.423	299.116	311.614	232.534	14.875	3.135	19.584	221.083	301.519	153.222	268.406	0.00080319	0.0011322	0.0004046	552.02	8.8107e-06	1.8318e-05	1146.2	106.82	1.6196e-05	6.3529e-06	361.51	125.83	27.2	8.5568	8.7236e-06	52.334	0.0084502	0.010113	0.0028216	599.13	0.00010951	0.00011265	1065.3	124.39	0.00010896	0.00011229	379.26	126.83	42.845	13.991	0.00010988	52.889	66.439	182.617	262.682	9.288	206.988	122.331	9.517	13.000	114.713	10.570	13.608	18.500	17.330	23.301	154.453	21.074	-8191	255	
#DATA ENDS
