BOXY.EXE: ISS Imagent and Oximeter Data Acquisition Program Version 0.80
Ascii Record File

#ACQ INFORMATION
2  Detector Channels 
16  External MUX Channels 
1  Auxiliary Channels 
5000  Waveform (CCF) Frequency (Hz)
1  Waveforms Skipped 
30  Waveforms Averaged 
1  Cycles Averaged 
16  Acquisitions per Waveform 
10.0806  Updata Rate (Hz) 

#FILE INFORMATION
TRUE -- External MUX Channel results are PARSED.
FALSE -- AC DC and Phase are NOT grouped.
TRUE -- Companion Program Settings File CREATED.
FALSE -- AC data not excluded
FALSE -- DC data not excluded
FALSE -- Phase data not excluded
FALSE -- Auxillary Chn. data not excluded
Tab delimiters

#CALIBRATION STATE
TRUE -- Waveform Calibration Values APPLIED.


#AUX CALIBRATION VALUES
Val Type	aux-1	

Term	1.0000e+00	
Factor	0.0000e+00	


#WF CALIBRATION VALUES
A = Detector Channel
Val Type	A-AC1	A-AC2	A-AC3	A-AC4	A-AC5	A-AC6	A-AC7	A-AC8	A-AC9	A-AC10	A-AC11	A-AC12	A-AC13	A-AC14	A-AC15	A-AC16	A-DC1	A-DC2	A-DC3	A-DC4	A-DC5	A-DC6	A-DC7	A-DC8	A-DC9	A-DC10	A-DC11	A-DC12	A-DC13	A-DC14	A-DC15	A-DC16	A-Ph1	A-Ph2	A-Ph3	A-Ph4	A-Ph5	A-Ph6	A-Ph7	A-Ph8	A-Ph9	A-Ph10	A-Ph11	A-Ph12	A-Ph13	A-Ph14	A-Ph15	A-Ph16	

Term	0.00000e+00	0.00000e+00	0.00000e+00	0.00000e+00	0.00000e+00	0.00000e+00	0.00000e+00	0.00000e+00	0.00000e+00	0.00000e+00	0.00000e+00	0.00000e+00	0.00000e+00	0.00000e+00	0.00000e+00	0.00000e+00	0.00000e+00	0.00000e+00	0.00000e+00	0.00000e+00	0.00000e+00	0.00000e+00	0.00000e+00	0.00000e+00	0.00000e+00	0.00000e+00	0.00000e+00	0.00000e+00	0.00000e+00	0.00000e+00	0.00000e+00	0.00000e+00	0.00000e+00	0.00000e+00	0.00000e+00	0.00000e+00	0.00000e+00	0.00000e+00	0.00000e+00	0.00000e+00	0.00000e+00	0.00000e+00	0.00000e+00	0.00000e+00	0.00000e+00	0.00000e+00	0.00000e+00	0.00000e+00	
Factor	1.00000e+00	1.00000e+00	1.00000e+00	1.00000e+00	1.00000e+00	1.00000e+00	1.00000e+00	1.00000e+00	1.00000e+00	1.00000e+00	1.00000e+00	1.00000e+00	1.00000e+00	1.00000e+00	1.00000e+00	1.00000e+00	1.00000e+00	1.00000e+00	1.00000e+00	1.00000e+00	1.00000e+00	1.00000e+00	1.00000e+00	1.00000e+00	1.00000e+00	1.00000e+00	1.00000e+00	1.00000e+00	1.00000e+00	1.00000e+00	1.00000e+00	1.00000e+00	X	X	X	X	X	X	X	X	X	X	X	X	X	X	X	X	

B = Detector Channel
Val Type	B-AC1	B-AC2	B-AC3	B-AC4	B-AC5	B-AC6	B-AC7	B-AC8	B-AC9	B-AC10	B-AC11	B-AC12	B-AC13	B-AC14	B-AC15	B-AC16	B-DC1	B-DC2	B-DC3	B-DC4	B-DC5	B-DC6	B-DC7	B-DC8	B-DC9	B-DC10	B-DC11	B-DC12	B-DC13	B-DC14	B-DC15	B-DC16	B-Ph1	B-Ph2	B-Ph3	B-Ph4	B-Ph5	B-Ph6	B-Ph7	B-Ph8	B-Ph9	B-Ph10	B-Ph11	B-Ph12	B-Ph13	B-Ph14	B-Ph15	B-Ph16	

Term	0.00000e+00	0.00000e+00	0.00000e+00	0.00000e+00	0.00000e+00	0.00000e+00	0.00000e+00	0.00000e+00	0.00000e+00	0.00000e+00	0.00000e+00	0.00000e+00	0.00000e+00	0.00000e+00	0.00000e+00	0.00000e+00	0.00000e+00	0.00000e+00	0.00000e+00	0.00000e+00	0.00000e+00	0.00000e+00	0.00000e+00	0.00000e+00	0.00000e+00	0.00000e+00	0.00000e+00	0.00000e+00	0.00000e+00	0.00000e+00	0.00000e+00	0.00000e+00	-2.03808e+02	-1.26914e+02	-1.21665e+02	-1.82284e+02	-9.97973e+01	-6.70612e+01	-1.58386e+02	-1.62015e+02	-9.23245e+01	-5.47240e+01	-1.79153e+02	-1.73355e+02	-1.82277e+02	-1.78265e+02	-9.35483e+01	-1.51023e+02	
Factor	4.16203e-05	1.29908e-04	3.88856e-05	1.52783e-01	1.56517e-06	1.40541e-06	1.69293e-01	4.87466e-02	1.56402e-06	1.54847e-06	1.08150e+00	2.87519e-02	2.79038e-02	8.23139e-03	1.38566e-06	1.17084e-02	2.55365e-06	2.72466e-06	7.60423e-07	8.14313e-02	2.95165e-08	3.00081e-08	8.46997e-02	2.60561e-02	2.96002e-08	2.99262e-08	4.46141e-01	1.47748e-02	1.49295e-02	4.41557e-03	2.97076e-08	6.06583e-03	X	X	X	X	X	X	X	X	X	X	X	X	X	X	X	X	



#DISTANCE SETTINGS
A = Detector Channel
A-1	A-2	A-3	A-4	A-5	A-6	A-7	A-8	A-9	A-10	A-11	A-12	A-13	A-14	A-15	A-16	

2.5000e+00	3.0000e+00	2.5000e+00	3.0000e+00	2.0000e+00	3.0000e+00	1.5000e+00	3.0000e+00	3.0000e+00	3.0000e+00	3.0000e+00	3.0000e+00	3.0000e+00	3.0000e+00	1.5000e+00	3.0000e+00	

B = Detector Channel
B-1	B-2	B-3	B-4	B-5	B-6	B-7	B-8	B-9	B-10	B-11	B-12	B-13	B-14	B-15	B-16	

1.0000e+01	1.0000e+01	1.0000e+01	1.4400e+00	1.0000e+01	1.0000e+01	1.5100e+00	1.9400e+00	1.0000e+01	1.0000e+01	1.9900e+00	2.4900e+00	2.4100e+00	2.9000e+00	1.0000e+01	2.9800e+00	




#DATA BEGINS
time	group	step	mark	flag	A-AC1	A-AC2	A-AC3	A-AC4	A-AC5	A-AC6	A-AC7	A-AC8	A-AC9	A-AC10	A-AC11	A-AC12	A-AC13	A-AC14	A-AC15	A-AC16	A-DC1	A-DC2	A-DC3	A-DC4	A-DC5	A-DC6	A-DC7	A-DC8	A-DC9	A-DC10	A-DC11	A-DC12	A-DC13	A-DC14	A-DC15	A-DC16	A-Ph1	A-Ph2	A-Ph3	A-Ph4	A-Ph5	A-Ph6	A-Ph7	A-Ph8	A-Ph9	A-Ph10	A-Ph11	A-Ph12	A-Ph13	A-Ph14	A-Ph15	A-Ph16	B-AC1	B-AC2	B-AC3	B-AC4	B-AC5	B-AC6	B-AC7	B-AC8	B-AC9	B-AC10	B-AC11	B-AC12	B-AC13	B-AC14	B-AC15	B-AC16	B-DC1	B-DC2	B-DC3	B-DC4	B-DC5	B-DC6	B-DC7	B-DC8	B-DC9	B-DC10	B-DC11	B-DC12	B-DC13	B-DC14	B-DC15	B-DC16	B-Ph1	B-Ph2	B-Ph3	B-Ph4	B-Ph5	B-Ph6	B-Ph7	B-Ph8	B-Ph9	B-Ph10	B-Ph11	B-Ph12	B-Ph13	B-Ph14	B-Ph15	B-Ph16	aux-1	digaux	

954.595	1	1	0	768	0.19466	0.36909	0.14466	0.10331	0.10356	0.20612	0.13519	0.31159	0.27311	0.16966	0.19123	0.3633	0.20096	0.21939	0.068422	0.29965	-0.45625	-1.7062	-0.89792	-1.1708	-1.8833	-0.88125	-1.6354	-1.5021	-0.8875	-1.9375	-0.91875	-1.4188	-1.7208	-0.93542	-1.5104	-1.6479	317.876	331.163	271.042	190.218	376.537	231.866	487.905	400.647	391.482	326.349	192.039	435.024	387.606	433.390	158.988	300.649	0.00068425	8.1599e-05	7.9331e-05	1096.7	1.8111e-06	4.7654e-06	1174.1	222.62	3.2906e-06	9.2428e-07	277.32	77.736	62.541	17.533	2.4214e-06	24.401	0.00011814	9.6129e-05	2.7976e-05	1079.6	1.1168e-06	1.0992e-06	1156.1	220.37	1.1273e-06	1.1042e-06	235.98	77.315	61.393	17.557	1.069e-06	24.585	473.311	259.212	223.133	142.107	257.685	228.724	141.844	149.391	240.281	324.912	150.638	156.245	156.171	163.642	305.693	162.982	-8191	255	
954.691	1	1	0	0	0.15767	0.2196	0.055694	0.32789	0.060465	0.1723	0.05572	0.24015	0.12102	0.27105	0.14951	0.31177	0.30539	0.075712	0.13953	0.095409	-0.62708	-1.7396	-0.9875	-1.1646	-1.7938	-0.55417	-1.6	-1.6063	-0.62292	-1.7313	-1.0187	-1.2667	-1.7042	-0.93125	-1.3729	-1.7458	217.201	403.083	216.874	143.516	457.419	240.988	337.691	423.505	400.940	267.789	316.424	438.347	481.111	448.169	191.798	376.481	0.00070986	0.00012095	0.00010954	1094.9	3.4697e-06	2.4452e-06	1175.8	223.03	3.9324e-06	2.6963e-06	281	77.464	62.185	17.58	2.2638e-06	24.248	0.00012661	9.6924e-05	2.7618e-05	1080.1	1.1329e-06	1.102e-06	1157.6	220.69	1.1271e-06	1.0535e-06	238.5	77.392	61.39	17.605	1.0827e-06	24.537	477.175	258.636	254.100	142.278	210.089	311.950	142.064	149.211	279.562	242.617	148.878	156.205	156.047	163.904	278.183	162.814	-8191	255	
954.788	1	1	0	0	0.047864	0.17754	0.15033	0.27586	0.079191	0.2713	0.10118	0.35803	0.14412	0.29414	0.30814	0.10697	0.08984	0.1744	0.18268	0.15405	-0.44167	-1.5271	-1.0896	-0.95417	-1.6542	-0.77917	-1.5417	-1.8	-0.79583	-1.7271	-1.425	-1.0646	-1.5292	-0.96458	-1.2583	-1.4875	306.468	440.670	354.357	151.998	175.793	385.345	451.050	345.363	358.374	186.895	427.937	468.367	307.364	376.713	394.801	174.553	0.00068611	0.00026002	4.1135e-05	1094.2	3.0504e-06	2.9219e-06	1174.6	222.01	4.069e-06	3.6246e-06	284.57	77.826	62.666	17.48	1.1793e-06	24.462	0.00011885	9.6356e-05	2.7378e-05	1078.5	1.0975e-06	1.0327e-06	1157.2	220.07	1.1376e-06	1.0391e-06	239.19	77.33	61.654	17.605	1.0944e-06	24.602	477.779	163.737	263.313	142.248	215.425	316.700	141.891	149.269	269.338	286.597	149.337	156.414	156.163	164.064	327.980	162.707	-8191	255	
954.884	1	1	0	0	0.06649	0.12064	0.088545	0.32174	0.014532	0.054396	0.20323	0.18958	0.11954	0.27361	0.0404	0.23905	0.17642	0.33625	0.17396	0.22798	-0.42708	-1.55	-1.3687	-0.91458	-1.75	-1.0354	-1.2938	-1.8625	-0.73125	-1.4917	-1.5521	-0.95833	-1.9229	-1.0583	-0.96667	-1.8417	264.079	315.112	336.943	462.389	169.163	241.513	391.168	132.391	414.229	259.125	339.767	205.484	332.380	315.148	466.471	439.005	0.00060169	0.00040566	7.0129e-05	1094.2	5.3385e-06	3.2803e-06	1173.4	222.93	5.3817e-06	4.1483e-06	277.25	77.831	62.743	17.392	3.0502e-06	24.384	0.00012021	9.7793e-05	2.7144e-05	1076.4	1.1441e-06	1.062e-06	1156.6	220.25	1.1443e-06	1.1227e-06	236.46	77.387	61.556	17.552	1.1043e-06	24.546	479.214	233.941	270.466	142.144	254.172	303.043	142.215	149.308	251.998	278.322	150.022	156.410	156.182	163.897	238.083	162.785	-8191	255	
954.980	1	1	0	0	0.36201	0.039896	0.10468	0.24296	0.29404	0.15418	0.36603	0.24601	0.22094	0.058947	0.16533	0.22831	0.18329	0.10901	0.30849	0.25913	-0.55625	-1.4667	-1.4354	-1.125	-1.7938	-1.3208	-1.1583	-1.7229	-1.0312	-1.2729	-1.6125	-0.97292	-1.4333	-1.3979	-0.81875	-1.8333	143.546	285.889	319.551	436.393	285.672	483.847	414.508	144.976	394.251	485.542	337.065	151.608	203.030	485.145	185.263	175.810	0.00071114	0.00035691	7.4205e-05	1096.4	1.6041e-06	2.6029e-06	1173.7	223.18	4.6939e-06	3.4687e-06	274.17	77.626	62.272	17.371	3.3785e-06	24.373	0.00012791	9.739e-05	2.7741e-05	1078.8	1.1069e-06	1.0372e-06	1157.8	220.38	1.1013e-06	1.072e-06	234.09	77.215	61.492	17.546	1.0681e-06	24.589	475.151	233.726	204.598	142.207	233.909	283.474	141.933	149.390	234.764	319.839	149.160	156.098	156.204	163.514	227.056	163.453	-8191	255	
955.076	1	1	0	0	0.094176	0.039976	0.10484	0.31438	0.070203	0.20996	0.19907	0.25843	0.18132	0.17453	0.19561	0.17911	0.29911	0.27995	0.050277	0.17462	-0.60625	-1.3229	-1.6229	-1.0146	-1.35	-1.2333	-1.1708	-1.6625	-0.83333	-1.3687	-1.7958	-0.85208	-1.6458	-1.3104	-0.76667	-1.8042	260.909	279.702	269.549	474.866	295.512	142.847	447.690	338.003	440.575	328.088	227.367	400.357	423.507	370.085	386.972	469.542	0.00074266	0.00017566	7.1686e-05	1097.2	3.5785e-06	1.564e-06	1173.4	222.75	5.3169e-06	1.4276e-06	270.01	77.887	61.994	17.468	2.6522e-06	24.288	0.00012177	9.6487e-05	2.6965e-05	1078.7	1.1083e-06	1.0362e-06	1156.4	220.06	1.1264e-06	1.0669e-06	232.78	77.382	61.317	17.596	1.089e-06	24.515	474.270	171.914	240.039	142.183	225.472	329.474	141.982	149.485	252.740	288.317	148.503	156.341	156.191	163.726	253.928	162.997	-8191	255	
955.197	1	1	0	0	0.11129	0.17736	0.17004	0.1307	0.21781	0.21524	0.35154	0.32872	0.22518	0.091321	0.068104	0.11401	0.21873	0.17661	0.020596	0.053503	-0.82917	-1.0375	-1.6104	-0.93125	-1.375	-1.525	-0.81458	-1.8083	-1.3146	-0.7625	-1.7062	-0.71667	-1.425	-1.6979	-0.8875	-1.775	488.412	210.579	363.743	459.038	358.557	186.435	399.389	474.548	483.177	331.978	238.137	411.751	198.029	236.588	240.182	227.964	0.0007275	0.00015772	9.9657e-05	1094	4.9121e-06	3.3153e-06	1173.5	222.2	2.6815e-06	3.5955e-06	278.65	77.593	62.131	17.424	4.7081e-06	24.323	0.00012318	0.00010088	2.7586e-05	1076.6	1.1356e-06	1.1278e-06	1155.8	220.11	1.0917e-06	1.0643e-06	235.86	77.193	61.418	17.551	1.1449e-06	24.559	469.053	191.585	271.749	142.176	248.454	320.558	142.287	149.906	276.612	295.382	149.429	156.189	156.492	164.142	197.027	163.041	-8191	255	
955.291	1	1	0	0	0.22514	0.16862	0.17487	0.14249	0.058081	0.083254	0.20228	0.027468	0.10669	0.10434	0.25157	0.06753	0.30555	0.40914	0.16561	0.13669	-0.70417	-1.0375	-1.6208	-0.92708	-1.1833	-1.7313	-0.82083	-1.5562	-1.1083	-0.9125	-1.5021	-0.87292	-1.0646	-1.2896	-0.56875	-1.4813	189.047	367.200	399.740	367.388	491.265	222.485	399.286	352.197	135.193	141.209	194.102	183.055	366.452	436.863	347.851	376.905	0.00069352	0.00017642	0.00011434	1094.7	5.2381e-06	9.0527e-07	1171.7	222.67	3.2965e-06	1.832e-06	277.22	77.531	62.284	17.542	2.7101e-06	24.505	0.00012097	9.6396e-05	2.6637e-05	1078	1.1225e-06	9.7733e-07	1155.4	220.19	1.0619e-06	1.0242e-06	234.5	77.258	61.355	17.567	1.0566e-06	24.629	476.314	191.947	242.276	142.364	249.328	313.116	142.188	149.690	253.493	297.041	149.384	156.520	156.139	164.213	246.161	163.317	-8191	255	
955.389	1	1	0	0	0.34239	0.24713	0.21121	0.37487	0.16463	0.30984	0.20732	0.35183	0.20526	0.16122	0.13673	0.20711	0.26115	0.16062	0.16673	0.29114	-1.0812	-0.68333	-1.7729	-1.1208	-1.2125	-1.5979	-0.98542	-1.55	-1.35	-0.82292	-1.6875	-1.0958	-1.1396	-1.7146	-0.61042	-1.3937	355.576	220.398	380.114	427.261	186.046	348.168	349.709	453.712	408.799	307.459	307.849	405.491	448.567	195.592	262.116	189.376	0.00068708	0.00016359	4.8546e-05	1089.6	4.623e-06	1.7573e-06	1165.6	222.66	5.6366e-06	6.672e-07	271.01	77.71	62.27	17.37	3.0852e-06	24.251	0.00012188	9.7895e-05	2.6705e-05	1076.2	1.0933e-06	1.044e-06	1152.6	220.37	1.1064e-06	1.0487e-06	232.77	77.019	61.354	17.576	1.0898e-06	24.507	473.643	227.870	217.687	142.456	231.522	262.736	142.250	149.853	239.201	290.660	149.587	155.937	156.507	163.959	293.854	163.330	-8191	255	
955.485	1	1	0	0	0.074115	0.095796	0.086462	0.12838	0.081869	0.19576	0.1564	0.09495	0.090892	0.15992	0.19346	0.068209	0.24001	0.091277	0.14535	0.10486	-1.1562	-0.96875	-1.5042	-1.2667	-0.9	-1.7	-0.73542	-1.4062	-1.4146	-0.98542	-1.5208	-1.2417	-1.0396	-1.7208	-0.98958	-1.4771	418.367	161.588	161.774	401.401	342.016	183.213	377.314	403.882	378.198	146.623	345.215	309.376	482.249	429.461	276.927	408.579	0.00071703	0.0001375	4.4887e-05	1089.6	3.5378e-06	4.0097e-06	1170.8	222.41	7.6982e-06	4.1596e-06	280.43	77.279	62.255	17.373	4.0374e-06	24.206	0.00011975	9.651e-05	2.5576e-05	1072.9	1.1048e-06	1.0221e-06	1152.7	219.59	1.0966e-06	1.034e-06	235.82	76.912	61.4	17.515	1.0809e-06	24.518	472.092	133.230	209.807	141.797	241.646	290.784	141.799	149.557	236.388	257.427	148.973	156.061	156.261	164.094	287.214	163.574	-8191	255	
955.579	1	1	0	0	0.087529	0.12918	0.047854	0.17923	0.20325	0.03177	0.17379	0.16229	0.13021	0.14329	0.17252	0.13576	0.20846	0.41912	0.12998	0.050557	-1.2708	-0.66875	-1.5146	-1.3	-0.94583	-1.6625	-1.0625	-1.2812	-1.4792	-0.80625	-1.5354	-1.2188	-0.86875	-1.5875	-0.99375	-1.2396	264.919	404.731	172.387	472.741	272.766	205.184	408.877	429.048	330.730	223.673	468.077	398.096	297.315	142.523	427.260	378.822	0.00077725	0.00012985	2.6151e-05	1090	5.5758e-06	2.7934e-06	1170.7	222.19	2.6302e-06	1.563e-06	270.69	76.919	62.041	17.46	1.1257e-06	24.177	0.0001178	9.4415e-05	2.5455e-05	1072.6	1.0787e-06	1.013e-06	1151.5	220.33	1.067e-06	1.0275e-06	234.44	77.012	61.182	17.516	1.0578e-06	24.451	473.371	247.751	215.347	141.927	250.315	304.626	141.831	149.849	211.864	287.254	150.027	156.001	156.118	164.145	240.037	163.070	-8191	255	
955.676	1	1	0	0	0.083755	0.096565	0.28637	0.21533	0.20985	0.20717	0.051181	0.061181	0.16602	0.043335	0.036128	0.071361	0.17653	0.13788	0.19241	0.18644	-1.2979	-0.65417	-1.6583	-1.4937	-0.8875	-1.5083	-1.1479	-1	-1.6604	-0.76042	-1.4729	-1.4833	-0.94167	-1.8021	-1.0354	-1.0083	407.133	200.585	450.914	150.818	405.664	154.007	151.529	437.246	257.894	468.984	332.075	163.990	316.538	419.098	358.712	358.404	0.00066175	0.00023702	6.3223e-05	1085	1.7531e-06	8.8017e-07	1168.2	222.29	3.2846e-06	4.37e-06	282.2	77.029	62.195	17.4	3.5155e-06	24.387	0.00011609	9.4165e-05	2.5742e-05	1071.9	1.0892e-06	9.7752e-07	1148.2	219.62	1.0244e-06	1.0235e-06	233.98	76.805	61.337	17.545	1.0485e-06	24.486	471.752	304.160	182.898	142.317	243.742	237.121	141.958	149.439	260.031	352.716	149.350	156.086	156.270	163.835	279.562	162.980	-8191	255	
955.772	1	1	0	0	0.19506	0.12837	0.18735	0.17433	0.15469	0.22519	0.16451	0.47475	0.15718	0.18386	0.25599	0.10537	0.12197	0.17636	0.23597	0.25656	-1.325	-0.90417	-1.325	-1.5708	-0.57917	-1.6792	-1.1708	-1.1083	-1.6833	-1.0146	-1.0479	-1.5562	-0.7125	-1.7188	-1.3146	-0.94167	379.574	199.380	133.723	453.483	141.310	489.073	438.180	478.295	404.433	169.316	394.666	481.660	449.957	481.447	160.359	362.659	0.00068027	0.00036599	3.9065e-05	1084.1	2.7181e-06	3.5283e-06	1159.8	220.8	4.2914e-06	5.3612e-06	274.68	77.139	61.625	17.498	2.0805e-06	24.218	0.00011441	8.9454e-05	2.5352e-05	1068	1.0677e-06	9.6464e-07	1144.7	218.88	1.0214e-06	9.6169e-07	232.15	76.663	60.947	17.542	9.8976e-07	24.428	476.943	232.673	168.870	142.081	254.684	283.938	141.660	149.616	256.356	311.886	149.080	155.888	156.530	164.014	261.938	163.290	-8191	255	
955.892	1	1	0	0	0.32797	0.024645	0.12604	0.37823	0.20393	0.066405	0.16797	0.10798	0.21748	0.13476	0.10546	0.18497	0.15696	0.24202	0.30524	0.061057	-1.2229	-0.9875	-1.1479	-1.8104	-0.6875	-1.4771	-1.6667	-0.85417	-1.8521	-1.05	-0.96875	-1.6625	-0.70833	-1.525	-1.5167	-0.90625	207.469	481.242	479.564	456.228	339.229	460.497	301.821	471.749	272.904	334.197	382.626	263.532	294.769	485.641	390.091	404.296	0.00070181	0.00031724	8.3098e-05	1085.4	5.0927e-06	9.7694e-07	1165.2	220.47	3.4635e-06	3.459e-06	277.94	77.08	61.681	17.457	1.3724e-06	24.403	0.00011063	8.8165e-05	2.4294e-05	1067.5	1.0229e-06	9.1637e-07	1146.2	218.63	9.8982e-07	9.8382e-07	232.67	76.67	60.865	17.446	9.7911e-07	24.449	473.982	234.544	219.583	142.143	213.735	184.984	141.831	149.593	225.926	280.657	148.708	155.769	156.144	164.185	318.044	163.184	-8191	255	
955.989	1	1	0	0	0.14149	0.28391	0.1453	0.35202	0.24118	0.060144	0.1677	0.12738	0.045317	0.33616	0.15474	0.16258	0.1864	0.22624	0.28452	0.11049	-1.3104	-1.1604	-0.9375	-1.7021	-0.6	-1.2583	-1.5292	-0.77292	-1.6125	-1.1042	-0.81667	-1.5312	-0.72708	-1.4104	-1.4229	-0.84375	174.375	342.313	465.587	473.019	343.568	152.646	426.618	441.133	218.879	205.302	417.789	374.921	203.774	277.943	466.762	325.041	0.00065655	0.0001673	6.9223e-05	1088	5.0093e-06	2.2771e-06	1163	221.64	1.7251e-06	3.7535e-06	276.74	76.636	62.127	17.513	2.7589e-06	23.941	0.0001117	8.7842e-05	2.4693e-05	1068.1	1.0397e-06	9.37e-07	1145.8	218.91	1.0018e-06	9.7541e-07	233.61	76.536	60.96	17.528	9.7119e-07	24.37	472.954	234.447	229.243	142.110	228.905	325.478	141.931	149.632	158.759	283.953	150.412	156.249	156.313	164.140	258.373	163.456	-8191	255	
956.085	1	1	0	0	0.17625	0.28476	0.23016	0.27269	0.24999	0.1595	0.11546	0.079528	0.073472	0.097611	0.29883	0.27576	0.053203	0.29503	0.18445	0.034973	-1.2542	-1.1354	-1.0146	-1.7896	-0.89583	-1.2271	-1.6167	-0.82917	-1.4229	-1.1583	-0.87708	-1.8104	-1.0021	-1.2208	-1.5875	-0.96667	476.274	393.903	431.978	447.172	268.990	325.278	411.119	411.108	357.479	172.052	242.554	332.984	489.197	472.507	176.289	438.754	0.00069586	0.00026841	8.67e-05	1088.2	2.6478e-06	3.1824e-06	1157.7	219.88	4.8087e-06	3.5741e-06	278.88	77.028	62.311	17.589	8.5029e-07	24.307	0.00011463	8.8205e-05	2.4212e-05	1068	1.0509e-06	9.5751e-07	1144	218.36	1.0035e-06	8.9835e-07	232.49	76.592	61.06	17.589	9.1914e-07	24.471	476.789	248.141	198.999	142.338	268.338	297.367	142.002	149.636	243.445	310.872	149.881	155.898	156.222	164.065	183.828	163.334	-8191	255	
956.156	1	1	0	0	0.03822	0.066579	0.15136	0.20622	0.057286	0.31171	0.39508	0.19574	0.16991	0.15787	0.051394	0.16671	0.068589	0.15215	0.23106	0.25193	-0.92292	-1.4562	-0.71667	-1.9146	-0.90625	-1.2229	-1.7708	-0.8875	-1.3937	-1.3083	-0.84375	-1.5417	-1.0417	-1.1396	-1.5979	-0.95625	294.733	154.703	359.568	405.910	148.007	357.598	424.574	386.808	286.663	271.637	259.661	324.098	409.553	156.120	431.835	385.328	0.00066951	0.00023677	0.0001292	1086.3	3.0677e-06	3.2329e-06	1161.5	221.22	3.2749e-06	2.4192e-06	279.01	77.139	62.002	17.573	3.7449e-06	24.317	0.00011344	8.6008e-05	2.3877e-05	1069.1	1.0138e-06	9.4182e-07	1145.4	218.5	1.0066e-06	9.1325e-07	233.96	76.649	60.967	17.523	9.7014e-07	24.47	479.727	207.070	230.106	142.312	247.496	262.046	142.113	149.974	286.393	351.039	150.104	156.384	156.582	164.327	250.941	163.503	-8191	255	
956.277	1	1	0	0	0.17848	0.29219	0.14159	0.24598	0.16162	0.12202	0.11435	0.30009	0.11535	0.36223	0.01424	0.053591	0.067077	0.18474	0.19727	0.37208	-0.97083	-1.3729	-0.89167	-1.6583	-1.2375	-1.0208	-1.7875	-0.9125	-1.1583	-1.3937	-0.86875	-1.55	-1.2313	-0.86875	-1.7292	-0.89583	361.181	272.577	479.766	409.068	132.468	475.711	365.604	188.019	258.670	404.971	288.067	151.034	482.870	405.144	198.522	480.339	0.00065436	0.00029167	7.5458e-05	1085.3	2.0302e-06	1.5898e-06	1162.4	222.25	4.092e-06	4.3394e-06	280.45	76.847	61.904	17.315	3.126e-06	24.256	0.00010899	8.4981e-05	2.3633e-05	1067	1.0343e-06	9.6595e-07	1144.8	218.58	9.9895e-07	9.5053e-07	233.25	76.527	60.916	17.462	9.5584e-07	24.415	471.342	245.880	233.419	142.568	245.460	259.918	142.216	149.894	230.689	277.749	150.038	156.629	156.949	164.162	232.735	163.620	-8191	255	
956.373	1	1	0	0	0.19178	0.15021	0.43128	0.20347	0.1483	0.099023	0.091983	0.098409	0.068069	0.39379	0.15862	0.1561	0.29674	0.02591	0.073385	0.247	-0.77708	-1.6104	-0.78125	-1.7333	-1.1729	-0.79792	-1.9312	-1.15	-1.2104	-1.6854	-0.76875	-1.5688	-1.2375	-0.85833	-1.7	-1.1208	211.024	368.884	333.129	145.108	315.087	240.028	156.852	330.307	487.325	486.913	209.232	167.595	476.015	279.012	491.381	133.655	0.00060408	0.00034087	9.1622e-05	1085.3	4.5833e-06	4.2195e-06	1160.1	220.89	4.2637e-06	2.9937e-06	275.26	77.315	61.649	17.412	2.207e-06	24.453	0.00010889	8.384e-05	2.4541e-05	1065.1	9.8087e-07	9.642e-07	1143.2	217.89	1.017e-06	9.4149e-07	232.78	76.499	60.718	17.465	9.7379e-07	24.46	471.593	191.673	179.293	142.598	240.520	281.818	142.089	150.167	251.136	220.834	149.748	156.635	156.591	163.550	266.097	163.045	-8191	255	
956.469	1	1	0	0	0.17408	0.1207	0.065367	0.26332	0.39842	0.11541	0.13482	0.12605	0.37514	0.047175	0.20655	0.059992	0.060992	0.042256	0.25531	0.18675	-0.66458	-1.7563	-0.76875	-1.3979	-1.2458	-0.79583	-1.6708	-1.2292	-0.97083	-1.6958	-0.78958	-1.4292	-1.4562	-0.95	-1.7479	-1.4354	455.995	333.766	437.672	457.713	176.192	259.922	443.658	151.060	241.961	484.039	449.286	433.487	250.705	188.058	296.566	470.506	0.00075216	2.9161e-05	0.00010563	1084.8	5.5486e-06	1.465e-06	1157.7	220.17	4.3989e-06	3.1763e-06	275.82	76.655	61.962	17.31	1.3887e-06	24.209	0.00011665	8.7734e-05	2.4216e-05	1066.8	9.7638e-07	9.6651e-07	1140.9	217.69	9.7508e-07	9.274e-07	232.87	76.371	60.843	17.439	9.1357e-07	24.367	472.712	151.583	266.096	142.634	225.650	262.805	142.365	149.903	222.451	248.984	150.397	157.086	156.741	164.411	261.268	163.546	-8191	255	
956.588	1	1	0	0	0.23993	0.31388	0.11661	0.12739	0.28515	0.1182	0.3753	0.062327	0.26537	0.13417	0.040135	0.10266	0.24288	0.19697	0.054344	0.16074	-0.70417	-1.6229	-1.1708	-1.4333	-1.6104	-0.65417	-1.6583	-1.2062	-0.66875	-1.7083	-0.675	-1.3563	-1.5479	-0.92083	-1.4292	-1.3958	157.074	223.182	186.137	437.240	239.016	479.907	458.127	181.529	488.099	466.576	272.192	204.063	288.158	289.604	427.689	439.657	0.00066468	1.03e-05	3.2656e-05	1075.7	3.7458e-06	1.5856e-06	1154.9	219.79	5.1905e-06	1.0524e-06	276.05	77.106	61.48	17.267	1.2645e-06	24.303	0.00011085	8.3868e-05	2.4677e-05	1061.6	9.7669e-07	9.4394e-07	1140	217.65	9.9605e-07	9.2017e-07	231.96	76.666	60.701	17.414	9.9403e-07	24.428	472.151	437.845	214.160	142.911	232.415	264.284	143.035	150.217	229.699	292.477	150.237	156.439	156.918	164.062	243.342	163.178	-8191	255	
956.684	1	1	0	0	0.24182	0.097934	0.058671	0.18311	0.0068504	0.15959	0.21588	0.11753	0.0079965	0.044879	0.19115	0.17163	0.089288	0.045724	0.11077	0.17415	-0.48333	-1.6375	-0.93958	-1.0479	-1.375	-0.81875	-1.6396	-1.4875	-0.64792	-1.6521	-0.99583	-0.99583	-1.4771	-0.6625	-1.375	-1.425	179.775	392.054	357.926	199.365	172.095	279.499	465.273	457.617	460.298	373.869	312.657	356.862	444.503	301.120	234.517	446.673	0.00068114	0.00049133	6.5315e-05	1079.2	4.3989e-06	3.552e-06	1156.9	219.71	4.134e-06	6.5719e-07	273.82	76.892	62.137	17.406	2.1277e-06	24.197	0.00010942	8.7904e-05	2.3882e-05	1062.6	1.0017e-06	9.7883e-07	1141.1	218.04	9.9321e-07	9.5259e-07	230.69	76.466	60.854	17.48	9.6636e-07	24.367	473.504	215.536	236.492	142.770	251.928	322.430	142.233	149.742	255.295	283.748	150.458	156.820	157.063	164.593	215.941	163.698	-8191	255	
956.756	1	1	0	0	0.15571	0.087547	0.14027	0.3053	0.036396	0.3243	0.059825	0.36156	0.20661	0.2496	0.31808	0.33779	0.26418	0.055633	0.11737	0.11607	-0.47083	-1.6083	-1.1083	-1.3208	-1.5063	-0.74792	-1.4542	-1.3875	-0.69792	-1.6	-1.1583	-0.81875	-1.8438	-0.94167	-1.2563	-1.75	488.348	444.330	253.207	480.596	146.545	219.199	308.076	392.831	367.756	482.552	243.719	466.496	336.866	285.122	189.175	155.866	0.00071383	0.00044572	7.784e-05	1082.1	4.2648e-06	1.1275e-06	1156.8	220.8	1.9171e-06	2.2685e-06	276.67	77.104	61.232	17.318	2.7688e-06	24.045	0.00011143	8.8813e-05	2.4367e-05	1065.4	1.0164e-06	9.5957e-07	1141	217.93	1.0215e-06	1.0023e-06	234.34	76.661	60.651	17.476	9.7887e-07	24.379	469.634	214.361	234.603	143.281	199.395	310.614	142.839	149.499	314.770	315.884	149.300	156.589	156.901	163.679	229.067	163.990	-8191	255	
956.877	1	1	0	0	0.12355	0.082851	0.33192	0.36422	0.32535	0.097276	0.086647	0.025886	0.19928	0.22387	0.14508	0.33023	0.30773	0.14802	0.1027	0.16268	-0.33542	-1.6437	-1.1917	-0.93542	-1.5771	-0.94167	-1.4021	-1.5125	-0.77083	-1.5042	-1.3583	-0.98542	-1.5604	-0.91875	-0.91042	-1.75	242.148	332.291	327.474	442.575	406.022	180.957	303.012	257.839	311.592	142.689	482.554	318.325	203.198	285.124	141.913	329.831	0.00071983	0.00033243	0.00012982	1079.6	5.3924e-06	2.4339e-06	1156	219.93	2.4807e-06	2.294e-06	281.31	77.2	62.336	17.476	2.549e-06	23.916	0.00011371	9.2786e-05	2.4147e-05	1063	1.0065e-06	9.5676e-07	1140.5	217.66	1.0187e-06	9.6219e-07	233.64	76.431	60.949	17.52	9.7138e-07	24.277	471.849	243.139	211.841	143.124	229.344	304.353	142.178	149.624	261.282	319.566	149.065	155.855	156.728	163.876	227.724	163.101	-8191	255	
956.973	1	1	0	0	0.016355	0.10443	0.12528	0.079282	0.072714	0.066056	0.32435	0.030173	0.063455	0.13662	0.18144	0.069754	0.17887	0.20889	0.088774	0.054114	-0.25833	-1.4792	-1.3208	-1.0667	-1.5312	-0.83333	-1.1146	-1.7188	-0.60833	-1.4333	-1.4958	-0.79167	-1.4562	-0.92708	-1.0042	-1.75	445.021	182.210	243.920	357.310	246.433	218.294	373.697	400.755	207.621	158.476	140.149	489.498	329.895	424.595	437.745	417.656	0.00077263	0.00014275	0.00013178	1077.6	2.8574e-06	1.6992e-06	1159.2	220.15	3.3467e-06	1.2161e-06	274.34	76.35	61.677	17.28	2.1639e-06	24.063	0.00011305	8.8182e-05	2.4582e-05	1061.7	1.0416e-06	9.787e-07	1141.5	218.06	1.0396e-06	9.5558e-07	231.77	76.419	60.843	17.426	1.0014e-06	24.335	476.304	233.509	219.895	141.983	227.340	289.287	141.918	149.277	268.028	277.819	148.235	156.237	156.096	163.457	265.931	163.012	-8191	255	
957.069	1	1	0	0	0.20551	0.22585	0.18032	0.31872	0.21806	0.1031	0.61089	0.20074	0.31829	0.12141	0.18884	0.32162	0.12114	0.2621	0.25017	0.19592	-0.125	-1.4146	-1.3813	-0.84792	-1.5292	-1.1229	-1	-1.775	-0.84583	-1.2125	-1.4604	-0.81042	-1.5583	-1.0396	-0.72708	-1.7042	419.015	489.408	189.681	472.125	251.517	360.704	385.241	218.995	323.182	223.187	343.783	142.554	148.405	411.602	174.417	180.395	0.00066682	0.00024123	8.3504e-05	1078.8	3.8882e-06	2.7154e-06	1153.4	221.29	3.772e-06	2.9184e-06	278.68	76.6	61.429	17.215	1.783e-06	24.274	0.00011365	9.3944e-05	2.4551e-05	1061.3	1.0065e-06	1.0103e-06	1139.6	218.23	1.0612e-06	9.8526e-07	232.96	76.389	60.638	17.385	1.0122e-06	24.404	472.381	256.756	296.983	141.938	240.410	251.573	141.802	149.452	263.863	346.274	149.226	156.330	156.621	163.150	243.008	162.842	-8191	255	
957.190	1	1	0	0	0.16759	0.34197	0.13318	0.068124	0.072779	0.24943	0.034813	0.24458	0.22733	0.222	0.13556	0.33772	0.20348	0.28442	0.11758	0.31055	-0.30625	-1.1146	-1.5875	-0.725	-1.5	-1.35	-1.0292	-1.7167	-0.925	-1.0646	-1.6396	-0.79583	-1.3958	-1.1771	-0.55625	-1.5417	473.060	392.009	155.340	325.366	393.421	176.059	416.278	384.131	384.782	355.463	271.736	444.431	404.296	161.512	187.622	318.369	0.00063737	0.00059648	6.9753e-05	1083.1	2.082e-06	9.4713e-07	1157.7	219.15	3.7931e-06	4.2003e-06	276.13	76.419	61.662	17.415	4.7396e-06	24.286	0.00011393	9.4472e-05	2.3917e-05	1063.3	1.0195e-06	9.807e-07	1141.7	217.73	1.0384e-06	1.0089e-06	231.45	76.233	60.686	17.387	1.0072e-06	24.439	471.940	227.274	220.032	142.042	241.575	290.665	141.762	149.144	272.251	294.610	149.180	155.626	155.964	163.529	277.920	163.047	-8191	255	
957.286	1	1	0	0	0.10016	0.11995	0.29265	0.28347	0.16794	0.2246	0.26349	0.25055	0.187	0.26908	0.099747	0.28625	0.12504	0.40272	0.15427	0.27258	-0.64167	-0.86042	-1.5562	-1.1562	-1.4917	-1.5042	-1.0042	-1.6896	-1.1688	-1.0333	-1.9	-0.86875	-1.4042	-1.7542	-0.54792	-1.5333	184.806	464.611	379.440	433.962	180.405	184.028	457.666	266.504	435.523	282.271	381.284	383.407	208.623	436.498	327.435	349.519	0.00074935	0.00019312	9.1792e-05	1076.8	4.1276e-06	3.1156e-06	1153.1	220.58	5.9134e-06	3.993e-06	277.87	76.685	61.319	17.326	1.8278e-06	24.188	0.00011358	9.0322e-05	2.4166e-05	1059.9	1.072e-06	9.6951e-07	1140.6	217.86	1.0159e-06	9.8021e-07	231.95	76.564	60.503	17.413	1.0214e-06	24.403	476.436	243.606	243.372	141.775	248.015	254.175	141.700	149.257	258.850	275.809	148.692	155.585	156.294	163.723	255.615	162.991	-8191	255	
957.380	1	1	0	0	0.058372	0.12707	0.03819	0.25906	0.27961	0.082458	0.18745	0.21245	0.12401	0.14147	0.37905	0.26778	0.15487	0.066056	0.32276	0.026336	-0.69583	-0.7875	-1.8417	-1.0021	-1.4188	-1.475	-0.77292	-1.4688	-1.2167	-0.71042	-1.6229	-1.1354	-1.1125	-1.8042	-0.775	-1.4229	222.803	328.186	141.492	418.038	428.419	135.574	159.877	213.196	330.350	307.301	171.608	466.119	367.764	227.953	479.118	333.061	0.00067245	0.00020549	9.8047e-05	1073.6	2.4193e-06	1.5895e-06	1151.9	219.9	4.0358e-06	1.8833e-06	271.85	76.459	61.143	17.391	2.384e-06	24.097	0.00011491	8.6525e-05	2.444e-05	1059.1	1.0496e-06	9.9183e-07	1136.4	217.81	1.0319e-06	9.6992e-07	232.1	76.308	60.637	17.426	9.7589e-07	24.298	477.500	227.841	215.399	141.730	252.724	253.015	141.553	149.316	226.213	264.377	149.717	155.662	156.233	163.744	243.380	163.128	-8191	255	
957.454	1	1	0	0	0.2415	0.14642	0.31836	0.1704	0.065973	0.0619	0.38826	0.13917	0.13015	0.19173	0.21435	0.31339	0.11844	0.24671	0.23721	0.14165	-0.88333	-0.66875	-1.525	-1.2396	-1.0167	-1.6396	-0.9	-1.3687	-1.4583	-0.88125	-1.5979	-1.15	-1.0417	-1.9333	-0.66875	-1.3333	481.591	472.098	359.580	165.203	249.826	174.077	447.397	462.017	151.704	338.304	461.298	478.918	433.075	173.707	212.255	393.422	0.00067102	0.00038998	5.2423e-05	1074.5	3.4625e-06	2.8929e-06	1145.2	220.56	5.5607e-06	3.0547e-06	275.73	76.213	61.065	17.341	1.4289e-06	23.815	0.00011209	9.0686e-05	2.4951e-05	1058.3	1.0468e-06	9.5745e-07	1134.5	217.91	9.641e-07	9.6007e-07	230.78	76.197	60.671	17.463	9.9044e-07	24.249	477.702	259.737	237.277	141.801	212.686	261.379	141.533	149.213	235.196	282.926	148.847	155.528	156.282	163.609	232.924	162.844	-8191	255	
957.572	1	1	0	0	0.21105	0.10374	0.083169	0.22887	0.17262	0.23209	0.27873	0.11845	0.18651	0.12508	0.073362	0.18109	0.12649	0.15257	0.093408	0.24533	-1.0771	-0.65208	-1.4458	-1.2396	-0.7125	-1.5292	-1.0187	-1.1729	-1.5875	-0.81667	-1.6187	-1.1208	-1.1417	-1.775	-0.86875	-1.5729	164.139	371.984	383.709	370.811	331.451	246.251	410.783	392.774	429.567	324.826	353.820	151.700	368.315	425.980	328.749	465.604	0.00068805	0.00014444	3.5281e-05	1068.8	3.7563e-06	1.512e-06	1148	218.23	3.6385e-06	2.4072e-06	267.81	75.904	60.172	16.833	5.3414e-07	23.685	0.00011194	8.6667e-05	2.4964e-05	1058.5	1.0476e-06	9.2338e-07	1135.6	217.14	1.0068e-06	9.8937e-07	231.88	76.341	60.284	17.282	9.7614e-07	24.242	470.061	202.743	274.771	141.857	209.539	235.794	141.743	149.311	249.346	274.600	148.182	155.893	156.128	163.433	269.875	162.737	-8191	255	
957.669	1	1	0	0	0.13526	0.15155	0.10938	0.10056	0.19465	0.3155	0.14139	0.14785	0.094947	0.07794	0.14731	0.25741	0.17157	0.082035	0.12588	0.1768	-1.1562	-0.82292	-1.6542	-1.3333	-0.81667	-1.6917	-1.1812	-1.3188	-1.5146	-0.55417	-1.2917	-1.4438	-0.51667	-1.5792	-0.91667	-1.0458	195.827	189.136	269.876	446.518	380.114	490.538	421.966	380.830	314.328	260.902	295.333	139.688	160.025	395.126	161.371	139.186	0.00063121	0.00014823	6.1956e-05	1060.1	5.4458e-06	1.0139e-06	1139.6	216.51	4.9794e-06	1.5601e-06	278.15	75.758	60.498	17.123	2.7765e-06	23.588	0.00010875	9.2502e-05	2.4698e-05	1056.6	1.0035e-06	9.2219e-07	1134	216.78	9.8353e-07	9.9056e-07	231.48	75.971	60.269	17.361	1.0071e-06	24.153	475.611	214.627	272.830	141.636	268.492	332.630	141.278	148.990	252.628	301.829	148.685	155.466	155.923	163.679	202.618	162.708	-8191	255	
957.765	1	1	0	0	0.039197	0.29248	0.32758	0.13211	0.042828	0.17919	0.11477	0.14121	0.073231	0.37823	0.20813	0.1164	0.2012	0.15055	0.34079	0.078924	-1.225	-0.8125	-1.3	-1.4271	-0.70625	-1.4937	-1.1271	-0.81042	-1.5958	-0.64583	-1.2229	-1.5042	-0.71042	-1.6938	-1.0438	-0.93542	243.568	274.241	152.385	431.068	469.409	444.238	408.314	472.976	284.905	213.866	456.066	152.623	168.756	420.502	409.534	268.066	0.00064535	0.00017348	5.1813e-05	1045.4	4.4057e-06	3.3661e-06	1142.7	217.01	1.2512e-06	1.9467e-06	273.2	75.009	60.897	17.169	3.02e-06	23.931	0.00010835	8.623e-05	2.4441e-05	1051.6	1.0393e-06	9.3031e-07	1132.2	216.66	9.3469e-07	9.5583e-07	231.69	75.851	60.393	17.362	9.5931e-07	24.273	470.503	250.568	190.716	141.037	225.111	314.450	141.474	149.008	238.617	347.682	150.641	155.404	155.758	163.696	274.967	162.977	-8191	255	
957.861	1	1	0	0	0.25626	0.12987	0.27713	0.2397	0.095954	0.065934	0.25365	0.28107	0.21102	0.19227	0.28602	0.19827	0.23172	0.092274	0.067943	0.14601	-1.1479	-0.77083	-1.1667	-1.4896	-0.67083	-1.3625	-1.4083	-0.96042	-1.6958	-0.86875	-1.0438	-1.6958	-0.75417	-1.4917	-1.2083	-0.92292	337.653	485.171	322.404	435.551	444.503	452.982	487.396	428.435	348.036	381.570	408.472	154.216	299.779	476.740	241.215	445.569	0.00066834	7.8444e-05	7.7116e-05	1054.7	2.0619e-06	1.2676e-06	1137.2	215.93	4.0496e-06	4.901e-07	274.54	75.984	61.865	17.196	5.155e-06	23.933	0.00010901	8.6905e-05	2.3801e-05	1052.8	1.0576e-06	9.6476e-07	1132	216.75	9.7557e-07	9.5415e-07	230.68	76.178	60.603	17.409	9.304e-07	24.255	468.496	230.529	211.737	141.432	204.904	248.436	141.527	148.971	253.428	256.843	148.265	156.066	156.035	163.689	218.736	162.541	-8191	255	
957.981	1	1	0	0	0.44436	0.44212	0.10314	0.099295	0.4154	0.097275	0.14623	0.21141	0.033868	0.10897	0.16613	0.14726	0.070526	0.29026	0.28133	0.15702	-1.1854	-0.97708	-1.225	-1.4479	-0.68125	-1.5063	-1.5583	-0.73542	-1.4875	-1.0604	-1.0146	-1.6083	-1.0167	-1.525	-1.325	-0.74792	436.135	332.479	270.201	409.326	333.867	482.682	285.555	450.780	435.648	377.410	144.268	227.041	141.678	406.655	420.471	168.934	0.0007002	2.1666e-05	8.2833e-05	1075.4	4.9973e-06	3.5438e-06	1151	220.22	2.6794e-06	2.9956e-06	276.71	76.489	61.381	17.264	3.8302e-06	23.959	0.00010939	8.7808e-05	2.5078e-05	1059.9	9.8536e-07	9.2538e-07	1136.8	217.59	9.7033e-07	9.3706e-07	231.09	76.318	60.504	17.366	9.4315e-07	24.265	470.803	295.420	219.634	141.982	210.787	294.863	141.661	149.305	224.408	297.093	150.412	156.303	156.283	163.771	282.702	163.236	-8191	255	
958.053	1	1	0	0	0.10158	0.20197	0.30414	0.25346	0.10082	0.066753	0.22845	0.12854	0.11517	0.28062	0.030197	0.26074	0.11571	0.20303	0.23948	0.38456	-1.2542	-1.1333	-0.92292	-1.6688	-0.69792	-1.3542	-1.5167	-0.83333	-1.4167	-0.9375	-0.91667	-1.6979	-0.83542	-1.275	-1.5542	-0.71667	207.086	390.349	473.528	468.538	396.002	446.165	397.145	378.389	298.088	421.411	447.189	444.311	470.667	176.018	197.757	472.530	0.00066224	0.00035226	0.00011772	1069.6	4.1654e-06	3.7859e-06	1148.7	220.92	3.5827e-06	4.0923e-06	279.59	76.601	61.484	17.288	3.3456e-06	24.044	0.00010956	8.6616e-05	2.3969e-05	1056.9	9.9311e-07	9.1819e-07	1135.2	217.83	9.6848e-07	8.918e-07	233.52	76.271	60.6	17.434	9.2768e-07	24.303	469.157	206.627	221.676	141.890	266.336	310.699	141.766	149.303	257.018	283.115	149.253	155.914	156.189	163.725	265.493	162.852	-8191	255	
958.149	1	1	0	0	0.16765	0.10663	0.11769	0.41103	0.23595	0.362	0.095687	0.24641	0.389	0.11454	0.14668	0.12821	0.11487	0.20087	0.24989	0.1092	-1.1958	-0.99583	-0.87708	-1.6771	-0.98333	-1.1688	-1.5771	-0.91875	-1.6229	-1.3813	-0.87083	-1.8396	-1.0042	-1.2958	-1.7792	-0.70208	243.733	196.618	172.207	485.020	309.713	461.843	398.811	377.287	164.531	233.413	342.268	390.315	206.748	179.737	272.675	420.151	0.00066846	0.00016852	3.2159e-05	1069.2	2.9001e-06	7.9438e-07	1143.5	218.96	3.4643e-06	1.0685e-06	273.35	76.948	60.913	17.065	3.5104e-06	23.82	0.00010948	8.229e-05	2.3324e-05	1056.9	1.0019e-06	9.2144e-07	1132.4	216.68	9.2266e-07	8.9941e-07	229.15	76.361	60.387	17.35	9.0732e-07	24.177	473.796	279.351	259.452	142.084	229.194	350.724	141.860	149.073	273.392	318.365	148.510	156.063	156.096	163.330	225.536	162.885	-8191	255	
958.270	1	1	0	0	0.25842	0.071363	0.1693	0.26154	0.22766	0.14104	0.25192	0.067268	0.11336	0.092897	0.27949	0.13944	0.099992	0.18072	0.17183	0.12729	-1.025	-1.3917	-0.83958	-1.8021	-1.0063	-0.82083	-1.7563	-0.89792	-1.3708	-1.4271	-0.7375	-1.7479	-0.8	-1.0208	-1.6604	-0.77083	153.724	486.469	288.784	459.623	364.943	426.034	415.351	361.743	470.912	487.988	263.358	378.016	408.302	474.248	470.309	468.578	0.00068291	0.0002135	5.3272e-05	1063.7	2.8732e-06	4.0873e-06	1142.4	216.94	3.4322e-06	3.9044e-06	271.19	75.888	60.745	17.128	4.3222e-06	24.003	0.0001057	8.4294e-05	2.4238e-05	1054.7	9.7491e-07	9.3663e-07	1133.9	216.36	9.8852e-07	9.3738e-07	229.1	76.027	60.195	17.37	9.0819e-07	24.218	469.866	242.848	187.991	141.758	254.705	278.513	141.795	149.260	267.683	289.796	148.110	155.649	156.088	163.606	280.823	162.479	-8191	255	
958.364	1	1	0	0	0.43705	0.094821	0.17852	0.28431	0.30509	0.082858	0.294	0.17014	0.060864	0.36888	0.097576	0.099998	0.333	0.16293	0.1278	0.26783	-0.76042	-1.4104	-0.58542	-1.8062	-1.1896	-0.8875	-1.775	-0.99583	-1.2188	-1.5271	-0.77083	-1.5792	-1.1792	-0.78125	-1.7708	-1.0771	482.624	328.839	237.406	448.787	349.788	456.035	403.300	134.009	243.937	169.146	292.494	485.007	375.913	480.165	382.582	476.397	0.0006996	0.00021807	0.00012162	1063.8	3.5835e-06	2.9011e-06	1144.5	217.82	5.7809e-06	3.5957e-06	267.86	75.938	60.623	17.169	4.2404e-06	23.656	0.00011224	8.5611e-05	2.3277e-05	1054.9	9.77e-07	8.9149e-07	1133.5	216.77	9.9451e-07	9.0888e-07	229.66	76.019	60.361	17.343	9.0769e-07	24.145	473.182	206.112	190.856	141.902	205.518	311.600	141.599	149.220	227.041	236.758	149.690	155.944	156.181	163.665	274.329	162.615	-8191	255	
958.461	1	1	0	0	0.3479	0.093381	0.28389	0.19592	0.18794	0.33664	0.025567	0.22912	0.24809	0.2241	0.27565	0.11147	0.32122	0.11871	0.034213	0.21782	-0.60417	-1.5208	-0.61875	-1.6063	-1.2604	-0.64583	-1.8375	-0.9625	-0.94792	-1.4521	-0.67917	-1.3542	-1.2667	-0.71458	-1.5875	-1.1542	340.431	481.318	231.252	328.573	215.748	438.998	150.334	167.508	144.105	164.520	141.656	445.448	447.557	341.873	277.904	327.222	0.00057397	0.00026224	8.0833e-05	1056.5	1.1241e-06	2.7524e-06	1142.3	218.44	3.818e-06	4.1668e-06	278.96	75.927	60.89	17.029	2.2668e-06	23.999	0.00010606	8.1093e-05	2.3088e-05	1052.9	9.5621e-07	8.8768e-07	1134.1	217.08	9.1502e-07	8.6605e-07	231.26	75.899	60.356	17.328	8.7532e-07	24.217	472.876	195.436	213.994	141.716	237.073	331.716	141.739	149.213	254.605	305.551	148.898	155.942	155.808	163.676	213.528	162.994	-8191	255	
958.558	1	1	0	0	0.19351	0.1391	0.064581	0.11489	0.19788	0.091372	0.13997	0.20842	0.084089	0.059656	0.094987	0.15363	0.16806	0.22966	0.22367	0.1	-0.61042	-1.575	-0.8375	-1.4	-1.6271	-0.67708	-1.775	-1.1812	-0.76875	-1.6896	-0.75208	-1.2292	-1.6688	-0.8875	-1.6292	-1.1187	407.609	321.156	468.680	360.683	356.045	350.636	448.516	429.460	463.549	296.306	426.252	136.941	472.430	300.274	270.902	245.300	0.0006742	0.0003053	1.7817e-05	1070.9	3.2244e-06	1.9894e-06	1150.8	218.98	5.2176e-06	3.9386e-06	267.07	76.353	61.274	17.289	1.3895e-06	24.133	0.00010763	7.9106e-05	2.2374e-05	1053.3	9.1981e-07	8.8924e-07	1132.9	216.75	9.5714e-07	8.7628e-07	230.03	76.196	60.321	17.358	9.3078e-07	24.279	470.887	200.512	213.626	142.477	181.288	279.443	141.813	149.343	245.658	293.896	149.930	156.413	156.641	163.699	213.857	163.106	-8191	255	
958.653	1	1	0	0	0.12369	0.15518	0.14361	0.39926	0.16294	0.31953	0.068475	0.17579	0.25637	0.28462	0.077698	0.42426	0.24754	0.10936	0.082987	0.14362	-0.55833	-1.6354	-0.76458	-1.3646	-1.5083	-0.5125	-1.6104	-1.2437	-0.54167	-1.5896	-0.80208	-1.2479	-1.5104	-0.91458	-1.5187	-1.4	419.042	201.564	369.317	397.454	441.253	161.182	392.654	135.658	360.352	176.267	149.471	131.749	484.589	274.934	221.689	296.560	0.00071595	0.00017049	7.7666e-05	1070	3.323e-06	2.312e-06	1148.8	219.31	4.8552e-06	1.9421e-06	274.3	76.652	61.034	17.179	3.3096e-06	24.029	0.00010766	8.4056e-05	2.2989e-05	1056.1	9.5037e-07	9.4932e-07	1134.1	216.64	9.5424e-07	8.4891e-07	231.85	76.167	60.326	17.318	9.3096e-07	24.23	471.106	256.257	194.703	142.329	229.535	259.081	141.939	149.675	222.913	283.007	149.668	156.378	156.427	163.975	224.726	162.963	-8191	255	
958.749	1	1	0	0	0.15909	0.24058	0.19362	0.18701	0.080197	0.21834	0.018591	0.253	0.17765	0.13233	0.13884	0.23703	0.25042	0.20198	0.18133	0.19903	-0.36042	-1.8333	-0.825	-1.1021	-1.4625	-0.76667	-1.5667	-1.2979	-0.85208	-1.6104	-1.1458	-1.0979	-1.6208	-0.95625	-1.2542	-1.4688	206.173	183.246	336.164	464.082	370.703	362.858	291.079	454.275	341.880	293.815	314.287	400.925	136.343	351.290	438.356	464.281	0.00068217	0.00020306	4.7964e-05	1067	5.6833e-06	4.1199e-06	1154.6	219.16	2.6801e-06	6.1069e-07	275.72	76.476	61.567	17.269	6.7117e-07	24.046	0.00010827	8.2024e-05	2.3909e-05	1055.2	9.6439e-07	9.7752e-07	1135.7	216.72	9.4881e-07	8.9018e-07	230.29	76.194	60.499	17.344	9.0348e-07	24.243	472.026	228.327	212.784	142.270	225.656	302.598	142.263	149.482	274.974	268.430	149.803	156.458	156.753	164.430	265.366	163.101	-8191	255	
958.870	1	1	0	0	0.17676	0.32365	0.19956	0.21677	0.13963	0.17187	0.17313	0.13929	0.052233	0.17797	0.14333	0.21857	0.12527	0.11042	0.15652	0.24341	-0.36042	-1.6667	-1.15	-1.0438	-1.7062	-0.92917	-1.4833	-1.4458	-0.79375	-1.6125	-1.1271	-0.78958	-1.6729	-1.0542	-1.0604	-1.6875	165.144	312.183	180.191	478.180	382.225	141.880	438.805	330.040	240.776	210.165	311.857	142.929	412.498	354.082	214.525	417.958	0.00063552	0.0002955	7.1756e-05	1066.3	2.074e-06	7.8409e-07	1150.2	218.06	3.4082e-06	2.7228e-06	269.71	76.53	61.674	17.319	3.9589e-06	23.882	0.00010567	7.8447e-05	2.2843e-05	1052	9.5111e-07	8.748e-07	1130.6	216.3	9.4721e-07	8.4292e-07	229.69	76.15	60.429	17.353	9.1858e-07	24.159	476.295	244.572	232.756	142.417	269.060	291.054	142.022	149.776	228.609	280.865	150.290	156.202	156.322	163.979	279.000	163.154	-8191	255	
958.966	1	1	0	0	0.25301	0.24743	0.067286	0.26198	0.063697	0.24895	0.20841	0.15764	0.36538	0.23131	0.15501	0.052772	0.096558	0.19215	0.27287	0.12887	-0.33958	-1.5042	-1.2542	-0.55833	-1.5333	-0.85625	-1.2854	-1.7208	-0.99583	-1.3687	-1.2812	-1.0917	-1.7646	-1.1063	-0.87083	-1.7375	490.463	372.230	230.339	429.614	292.090	291.074	413.863	135.049	419.728	245.813	219.311	246.761	280.811	227.444	137.607	462.989	0.00070238	7.4423e-05	5.492e-05	1067.8	4.7502e-06	2.2882e-06	1142.1	218.63	3.6519e-06	1.7893e-06	272.28	75.76	61.193	17.164	3.0273e-06	23.991	0.00010823	8.0559e-05	2.2404e-05	1050.3	9.3795e-07	9.4013e-07	1130.3	216.74	9.4795e-07	8.8002e-07	230.44	75.808	60.492	17.288	9.1499e-07	24.267	468.312	162.610	222.787	142.409	230.599	302.752	142.031	149.769	255.746	260.723	150.211	156.599	156.505	164.270	255.187	162.811	-8191	255	
959.062	1	1	0	0	0.076098	0.071052	0.1388	0.27002	0.23389	0.1378	0.053752	0.06839	0.35743	0.15911	0.29566	0.24866	0.19419	0.39012	0.31903	0.10939	-0.44375	-1.3646	-1.3604	-0.90208	-1.7188	-0.81875	-1.1417	-1.7854	-0.8375	-1.2917	-1.4813	-0.76875	-1.5229	-1.1917	-0.94375	-1.4229	396.246	372.609	289.610	408.035	175.031	359.390	460.895	471.477	277.091	307.306	433.401	330.105	458.702	410.263	465.077	452.491	0.00060305	0.00023866	3.7412e-05	1071.3	4.4807e-06	1.8118e-06	1144.9	218.79	5.1582e-06	2.6467e-06	271.87	76.356	61.376	17.412	6.7799e-07	24.001	0.0001058	8.5776e-05	2.2882e-05	1053.6	9.6845e-07	9.0831e-07	1132	216.8	9.4141e-07	9.226e-07	229.89	75.953	60.368	17.441	9.2613e-07	24.27	470.941	250.058	258.256	142.368	229.847	313.950	142.032	149.635	261.330	334.009	148.818	156.292	156.835	164.178	217.291	163.445	-8191	255	
959.158	1	1	0	0	0.17538	0.10665	0.14346	0.41877	0.13724	0.13193	0.32958	0.1065	0.10451	0.1422	0.12049	0.17096	0.25507	0.35947	0.19816	0.06713	-0.45	-1.1167	-1.3875	-0.97708	-1.5667	-1.2792	-1	-1.6521	-0.76042	-1.0479	-1.5417	-0.59167	-1.4333	-1.3417	-0.71042	-1.6562	483.743	360.843	189.187	430.069	460.678	463.022	412.895	481.212	288.163	193.212	284.862	187.934	338.173	147.830	209.635	422.966	0.0006371	0.00049564	4.1572e-05	1067.4	2.7893e-06	4.3246e-06	1150.4	218.79	4.6909e-06	3.5717e-06	271.7	76.078	60.823	17.152	1.9914e-06	24.026	0.00010417	8.3358e-05	2.1488e-05	1052.2	9.0167e-07	8.8568e-07	1131.1	216.69	9.5041e-07	9.2796e-07	229.59	75.903	60.336	17.329	9.3146e-07	24.162	469.068	243.241	286.047	142.102	227.068	291.535	142.160	149.876	271.254	301.490	148.469	156.288	156.483	163.933	231.480	163.221	-8191	255	
959.279	1	1	0	0	0.20131	0.032218	0.24011	0.42932	0.20732	0.052165	0.14271	0.23482	0.18068	0.048898	0.1856	0.14202	0.067877	0.15665	0.1949	0.18792	-0.38542	-1.1354	-1.5125	-0.85625	-1.4271	-1.1917	-1.1021	-1.4646	-0.94167	-0.96042	-1.4813	-0.83333	-1.3646	-1.3854	-0.76042	-1.4979	406.377	197.678	377.919	446.717	279.455	418.804	352.226	475.532	408.725	147.334	202.751	409.861	364.450	146.240	383.257	478.063	0.00066118	0.00025155	7.2648e-05	1062.1	5.1286e-06	3.7596e-06	1140	217.57	3.8987e-06	1.8324e-06	274.45	75.845	60.736	16.928	2.5099e-06	23.708	0.00010924	8.069e-05	2.2209e-05	1048.3	9.5406e-07	8.8437e-07	1126.6	215.85	9.5189e-07	9.1294e-07	229.37	75.801	60.22	17.221	9.1475e-07	24.175	476.552	205.480	265.444	142.498	213.865	317.586	142.450	149.939	262.650	267.513	149.014	156.145	156.688	163.660	206.947	163.356	-8191	255	
959.350	1	1	0	0	0.21918	0.060047	0.15872	0.078479	0.2597	0.26591	0.13671	0.24376	0.17278	0.18001	0.15526	0.065965	0.17811	0.11811	0.093455	0.26152	-0.65625	-0.83125	-1.4271	-1.0167	-1.1417	-1.3937	-0.85625	-1.4917	-1.0938	-0.75417	-1.7313	-0.71875	-1.2542	-1.4229	-0.75417	-1.5521	434.323	199.062	291.347	376.275	269.203	402.023	465.737	399.896	338.509	477.193	168.111	418.608	470.631	176.310	431.939	410.239	0.00062884	0.00035382	9.6168e-05	1054.2	2.9487e-06	7.9822e-07	1133.7	216.6	4.1511e-06	2.7342e-06	272.19	75.502	60.641	17.073	3.6544e-06	23.71	0.000106	8.2841e-05	2.2106e-05	1046.5	9.9268e-07	8.7755e-07	1126.9	216.25	9.2957e-07	8.956e-07	230.51	75.611	59.938	17.377	9.3028e-07	24.142	477.769	248.945	212.224	142.039	257.572	221.955	142.094	149.833	215.181	258.695	149.472	155.880	156.229	163.938	238.566	163.359	-8191	255	
959.446	1	1	0	0	0.11891	0.12936	0.57266	0.12328	0.20863	0.23383	0.29379	0.38141	0.17213	0.11661	0.038024	0.2227	0.26569	0.17912	0.16652	0.19075	-0.74375	-0.93125	-1.7104	-0.77708	-1.0417	-1.5688	-0.88333	-1.6125	-1.1958	-0.84583	-1.5458	-1.1208	-1.1021	-1.5125	-0.62292	-1.2604	302.514	234.269	299.650	421.913	202.629	409.094	433.662	460.447	326.751	260.217	255.214	193.742	437.424	398.740	327.757	145.930	0.0006181	0.00040365	3.5681e-05	1052.4	3.0119e-06	2.6723e-06	1134.9	216.81	3.9218e-06	4.2972e-06	274.36	75.706	60.826	17.085	2.0625e-06	23.886	0.0001061	8.3692e-05	2.2669e-05	1045	9.473e-07	8.6886e-07	1125.1	216.3	9.2581e-07	8.938e-07	230.02	75.737	60.192	17.303	9.2694e-07	24.253	475.342	208.364	148.845	142.429	262.273	290.373	142.055	149.595	218.918	267.581	148.860	156.199	156.806	164.159	211.104	163.500	-8191	255	
959.541	1	1	0	0	0.11055	0.36789	0.1516	0.11466	0.024546	0.042325	0.25436	0.31549	0.25501	0.29234	0.2553	0.14025	0.13413	0.17599	0.196	0.14655	-0.93958	-0.67292	-1.6708	-1.175	-1.1083	-1.4875	-0.72292	-1.5312	-1.2125	-0.82917	-1.7687	-1.1021	-1.1313	-1.6896	-0.80417	-1.3708	442.989	228.584	477.205	383.791	275.832	444.774	413.131	386.251	472.725	362.488	291.798	392.315	216.514	153.762	313.435	400.384	0.00067439	0.00020525	1.8515e-05	1062.1	7.5106e-06	2.9004e-06	1137.6	218.74	4.3365e-06	2.5127e-06	277.61	75.683	61.194	17.224	3.3925e-06	24.165	0.00010493	8.405e-05	2.321e-05	1046.4	9.6298e-07	8.9212e-07	1126.6	216.63	9.6028e-07	9.1512e-07	231.17	75.913	60.074	17.332	9.3399e-07	24.24	468.282	200.231	167.001	142.652	224.160	279.284	142.166	149.922	223.172	296.080	149.290	156.663	156.780	164.293	307.375	163.908	-8191	255	
959.662	1	1	0	0	0.023166	0.083139	0.22503	0.16048	0.2287	0.19066	0.11734	0.23361	0.30607	0.21113	0.17384	0.062597	0.10841	0.29911	0.039784	0.13763	-1.2021	-0.7	-1.4771	-1.3167	-0.85208	-1.8375	-1.1375	-1.2833	-1.5438	-0.88542	-1.2938	-1.3062	-0.73958	-1.6	-1.0146	-1.0833	370.039	266.210	448.422	478.698	198.789	247.358	325.105	161.920	437.810	290.780	415.142	362.086	388.475	135.150	202.307	338.368	0.0006735	0.00018024	8.6562e-05	1064	5.5768e-06	2.6355e-06	1142.9	218.54	5.6115e-06	2.8373e-06	279.25	76.222	61.563	17.178	2.938e-06	24.055	0.0001066	8.4147e-05	2.2136e-05	1047.2	9.4643e-07	8.3198e-07	1125.4	216.33	9.0657e-07	8.4336e-07	231.21	75.679	60.347	17.258	8.7724e-07	24.184	473.515	170.623	280.231	142.690	232.915	308.250	142.378	150.356	219.629	278.358	150.115	156.641	157.127	164.702	238.358	163.737	-8191	255	
959.758	1	1	0	0	0.39718	0.28667	0.0036371	0.27738	0.099434	0.058507	0.12853	0.09524	0.11577	0.22024	0.1486	0.11236	0.12289	0.17918	0.028506	0.1469	-1.2687	-0.70417	-1.625	-1.5187	-0.78333	-1.6333	-1.0375	-1.1833	-1.7479	-0.8875	-1.4979	-1.5146	-0.73958	-1.8292	-1.1021	-0.91458	191.227	368.000	362.524	434.161	393.257	379.961	393.903	304.126	172.398	463.007	444.805	138.312	340.801	210.331	134.038	200.805	0.00065675	8.6606e-05	5.2095e-06	1064.8	3.5704e-06	2.5899e-06	1139.9	217.21	7.354e-06	2.4163e-06	273.03	75.676	60.966	17.109	3.3327e-06	24.035	0.00010419	8.1899e-05	2.1607e-05	1045.5	9.8388e-07	8.7161e-07	1124.6	215.89	8.7746e-07	8.6555e-07	229.61	75.648	60.101	17.307	9.1178e-07	24.146	473.024	203.166	434.560	142.258	243.613	295.828	142.226	149.976	228.753	276.844	149.980	156.592	156.993	164.480	235.292	163.660	-8191	255	
959.854	1	1	0	0	0.15976	0.1428	0.15501	0.17756	0.19374	0.070017	0.29476	0.12993	0.077685	0.20551	0.18332	0.0062851	0.27765	0.058326	0.25657	0.32777	-1.4458	-0.92708	-1.5104	-1.7313	-0.87083	-1.675	-1.2437	-1.2146	-1.5896	-0.80417	-1.2021	-1.7333	-0.92917	-1.6854	-1.325	-1.0354	408.211	478.328	288.957	176.674	485.913	417.656	365.666	485.996	244.726	134.346	302.216	415.093	415.056	482.297	400.274	267.871	0.00066946	0.00024138	7.5189e-05	1061.7	3.629e-06	4.3095e-06	1136.9	217.05	4.7849e-06	8.2045e-07	270.55	75.864	60.477	17.155	1.771e-06	24.14	0.00010174	8.1206e-05	2.2287e-05	1043.8	9.4127e-07	8.5117e-07	1122.8	215.8	9.3728e-07	8.6499e-07	228.4	75.945	59.937	17.334	8.898e-07	24.3	477.371	225.060	254.220	142.455	234.906	278.772	142.248	150.067	256.435	314.745	151.578	156.309	156.730	164.469	285.466	163.677	-8191	255	
959.950	1	1	0	0	0.27995	0.23568	0.15395	0.28116	0.20173	0.09759	0.13217	0.20033	0.16675	0.055721	0.22179	0.19373	0.14664	0.01912	0.1463	0.21518	-1.4042	-0.80417	-1.0521	-1.5646	-0.65	-1.3979	-1.5792	-0.64167	-1.8104	-0.99167	-1.1562	-1.65	-0.91667	-1.6313	-1.4646	-0.74583	239.429	457.111	240.778	151.553	416.963	361.914	468.503	365.156	177.435	164.934	457.549	464.461	424.270	236.058	450.956	488.331	0.00071864	0.00020511	0.00010747	1062.3	3.8085e-06	2.0869e-06	1142.3	217.48	2.5528e-06	1.2687e-06	274.88	75.715	59.907	16.975	1.8467e-06	23.887	0.00010533	8.2869e-05	2.3291e-05	1046.9	9.5929e-07	8.9218e-07	1126.6	215.81	9.0589e-07	8.7921e-07	230.16	75.596	59.78	17.26	8.9135e-07	24.173	474.335	221.451	230.286	142.607	224.543	258.763	142.542	149.883	266.534	274.723	148.395	156.576	156.051	164.208	249.372	163.415	-8191	255	
960.046	1	1	0	0	0.34255	0.32954	0.26236	0.092244	0.088197	0.061566	0.15711	0.12022	0.23592	0.13475	0.31579	0.25233	0.21046	0.10383	0.13629	0.12157	-1.4375	-0.95208	-0.94375	-1.6625	-0.71042	-1.3687	-1.8646	-0.74167	-1.5729	-1.0187	-0.975	-1.6812	-0.89792	-1.2313	-1.4375	-0.69167	138.619	190.756	250.421	149.938	296.223	381.140	352.685	198.779	406.945	225.307	156.801	358.939	474.839	482.575	469.475	269.039	0.00067457	0.00017968	5.4126e-05	1053.3	3.0332e-06	3.262e-06	1128.1	215.6	2.3816e-06	3.2483e-06	267.99	75.223	60.224	17.044	1.5565e-06	23.786	0.00010057	7.6205e-05	2.2234e-05	1044.3	9.2756e-07	8.5923e-07	1120.7	215.14	8.9288e-07	8.6755e-07	228.19	75.739	59.85	17.304	8.7947e-07	24.126	474.021	234.326	244.312	142.571	266.794	312.346	142.398	149.856	259.505	292.573	148.965	156.639	156.342	163.961	284.331	163.723	-8191	255	
960.142	1	1	0	0	0.32423	0.047648	0.10673	0.19188	0.15919	0.12868	0.19712	0.068203	0.35623	0.29258	0.14562	0.36106	0.12804	0.142	0.18277	0.24264	-1.05	-0.96042	-0.92083	-1.65	-0.775	-1.3646	-1.5375	-1.0354	-1.4188	-1.1792	-0.81875	-1.7125	-0.99167	-1.125	-1.5417	-0.76458	231.255	480.974	272.642	262.521	324.416	422.033	466.218	280.149	454.646	363.829	220.986	439.253	376.229	424.398	160.362	179.124	0.00075422	0.00012098	3.6517e-05	1052.7	4.6181e-06	2.6177e-06	1132.9	216.17	4.9088e-06	1.2625e-06	267.3	75.417	60.27	17	1.9502e-06	23.604	0.00010416	8.1155e-05	2.2231e-05	1042.8	9.3143e-07	8.4642e-07	1123.5	215	9.3753e-07	8.375e-07	227.19	75.555	59.866	17.269	8.3633e-07	24.126	475.855	255.403	180.617	142.624	263.742	292.602	142.173	150.172	251.715	314.499	150.135	156.939	156.145	164.337	199.299	163.501	-8191	255	
960.238	1	1	0	0	0.11028	0.14472	0.24381	0.37838	0.18968	0.039065	0.17127	0.098044	0.42012	0.059339	0.19066	0.10794	0.51142	0.30708	0.067202	0.14183	-1.0625	-1.1104	-0.79583	-1.8042	-0.98125	-1.1396	-1.8438	-0.89583	-1.3625	-1.5083	-0.775	-1.7417	-0.825	-1.05	-1.6833	-0.72917	383.364	177.709	390.695	457.298	193.003	426.589	375.765	437.252	421.292	468.100	324.083	190.344	490.025	151.508	164.342	449.585	0.0006609	0.00036118	7.4875e-05	1048.6	3.8146e-06	1.678e-06	1117.4	212.67	3.8122e-06	1.7189e-06	264.35	75.065	60.557	16.887	4.0741e-06	23.457	0.00010296	7.7341e-05	2.1286e-05	1041.8	9.0437e-07	8.3954e-07	1118.8	214.54	8.8573e-07	7.9853e-07	226.75	75.623	59.933	17.21	8.4902e-07	24.086	474.055	170.624	221.212	142.481	217.863	415.696	141.848	149.291	254.237	204.506	150.863	156.355	156.591	164.259	241.581	163.302	-8191	255	
960.359	1	1	0	0	0.27261	0.43369	0.13907	0.2388	0.13668	0.02027	0.2265	0.1068	0.3293	0.29266	0.12752	0.030692	0.29232	0.10051	0.27536	0.33113	-1.0562	-1.2687	-0.71875	-1.7042	-0.79792	-0.78333	-1.7875	-0.89167	-1.2417	-1.4771	-0.62083	-1.3917	-1.2979	-0.96458	-1.7417	-0.96667	215.430	267.692	311.508	322.349	141.800	483.886	427.339	476.020	322.870	163.380	431.929	460.962	433.295	139.420	173.090	316.187	0.00069233	0.00023628	0.00014149	1038.8	3.1887e-06	3.5707e-06	1129.4	214.13	2.3777e-06	2.7197e-06	268.68	75.482	59.982	17.006	3.9392e-06	23.79	0.00010043	7.6234e-05	2.1732e-05	1039.8	9.2048e-07	8.366e-07	1121.9	214.73	8.827e-07	8.0346e-07	228.35	75.668	59.67	17.274	8.1572e-07	24.044	474.131	196.940	241.173	142.463	271.009	277.089	142.145	149.337	262.037	287.667	149.717	156.257	156.293	164.279	239.117	163.231	-8191	255	
960.453	1	1	0	0	0.32499	0.17569	0.1148	0.18374	0.20705	0.17042	0.2334	0.15182	0.20162	0.10129	0.22154	0.15243	0.18385	0.099573	0.12481	0.28149	-0.88125	-1.4417	-0.74583	-1.6792	-1.1229	-0.66875	-1.8062	-0.76458	-1.0812	-1.7563	-0.74375	-1.5542	-1.3625	-0.71875	-1.6833	-0.99583	335.634	377.193	294.491	459.858	226.686	255.136	449.031	232.305	368.223	332.666	337.020	474.750	432.404	136.558	358.099	409.120	0.000713	0.00033022	6.9462e-05	1052.4	3.128e-06	2.9433e-06	1132	217.65	3.1887e-06	3.6464e-06	269.64	75.957	60.316	17.158	2.3309e-06	23.916	0.00010086	7.5467e-05	2.2136e-05	1041.9	8.7978e-07	8.4542e-07	1121.4	215.4	8.8511e-07	8.4205e-07	228.84	75.764	59.96	17.26	8.4103e-07	24.124	468.953	215.998	227.414	142.658	219.585	273.875	142.370	149.987	223.408	330.874	149.339	156.945	157.013	163.839	254.515	163.679	-8191	255	
960.550	1	1	0	0	0.23188	0.073166	0.06797	0.3074	0.21928	0.13154	0.30042	0.17677	0.059017	0.070954	0.16302	0.22001	0.070122	0.14327	0.16891	0.28681	-0.70833	-1.4771	-0.65	-1.4271	-1.4125	-0.75208	-1.6542	-1.1187	-0.97708	-1.5458	-0.85833	-1.2708	-1.4771	-0.89375	-1.5729	-1.2292	207.647	287.651	311.977	426.670	367.923	209.096	427.112	277.787	256.952	222.845	450.799	160.968	474.592	177.701	198.317	408.773	0.00066409	0.00033156	8.9953e-05	1053.3	1.8032e-06	2.804e-06	1132.5	216.32	2.831e-06	1.5568e-06	277.74	75.81	60.328	17.408	2.8399e-06	23.987	0.00010026	7.6313e-05	2.1165e-05	1041.8	8.7443e-07	8.0528e-07	1120.2	215.06	8.9664e-07	8.0065e-07	229.58	75.761	59.724	17.344	8.5205e-07	24.128	472.164	176.415	187.457	142.687	231.481	275.489	142.603	150.295	229.729	286.982	149.492	156.863	156.590	165.012	230.071	163.372	-8191	255	
960.646	1	1	0	0	0.051209	0.15941	0.14185	0.25297	0.12772	0.17605	0.16659	0.15516	0.079372	0.23753	0.20399	0.06687	0.26667	0.17323	0.0488	0.27222	-0.43958	-1.7729	-0.92292	-1.5646	-1.4458	-0.69792	-1.625	-1.0896	-0.83333	-1.575	-0.88958	-1.1708	-1.6167	-0.84375	-1.3771	-1.1917	228.593	190.182	367.363	490.439	337.180	199.801	446.367	380.891	198.566	409.447	348.865	392.933	434.643	433.201	255.887	491.656	0.00063898	0.00035223	4.6751e-05	1056.9	4.6976e-06	1.9418e-06	1141.9	217.95	2.3669e-06	3.6901e-06	272.06	75.61	60.901	17.238	1.2056e-06	23.944	0.00010497	7.4922e-05	2.1235e-05	1041	8.8248e-07	8.4223e-07	1121.9	215.15	8.9158e-07	8.2603e-07	228.77	75.528	59.949	17.312	8.682e-07	24.171	471.214	221.328	243.674	142.938	238.628	327.440	142.960	150.265	212.509	324.447	149.758	157.413	156.998	164.572	201.546	164.415	-8191	255	
960.742	1	1	0	0	0.19655	0.19989	0.25342	0.097999	0.20698	0.26869	0.11803	0.046009	0.26683	0.1027	0.13885	0.26053	0.20643	0.14592	0.053064	0.35566	-0.26042	-1.5417	-1.0729	-1.2646	-1.4604	-0.5875	-1.5646	-1.3292	-0.78542	-1.6521	-1.1063	-1.2708	-1.5229	-0.66875	-1.6104	-1.3604	250.500	400.272	281.803	177.848	449.763	305.793	414.796	351.305	481.909	351.095	462.055	390.309	246.926	376.338	413.781	424.072	0.00069743	0.0002798	5.867e-05	1057	3.5358e-06	1.6963e-06	1141.6	218.93	2.089e-06	1.1e-06	278.18	76.078	61.511	17.112	3.0418e-06	23.736	0.00010509	7.8958e-05	2.1952e-05	1041.8	8.5598e-07	8.7167e-07	1121.7	215.69	8.9491e-07	8.2752e-07	228.07	75.604	60.069	17.238	8.2748e-07	24.092	472.269	182.294	316.820	142.888	231.992	288.571	142.784	149.932	265.853	229.968	149.977	156.855	156.967	164.697	261.081	164.060	-8191	255	
960.838	1	1	0	0	0.074734	0.082636	0.054815	0.4181	0.19719	0.18569	0.33297	0.063705	0.23512	0.10733	0.22514	0.18948	0.18355	0.16184	0.18727	0.34239	-0.40833	-1.7417	-0.90208	-1.2687	-1.5938	-0.8375	-1.2792	-1.325	-0.80417	-1.525	-1.1854	-1.0875	-1.5979	-1.0146	-1.2708	-1.5625	244.542	424.786	242.564	448.944	273.960	337.028	430.505	172.980	355.889	137.271	430.121	257.552	450.305	185.294	410.173	448.366	0.00066053	0.00024635	4.531e-05	1058.9	2.2439e-06	1.6487e-06	1135.6	217.37	3.5849e-06	2.1142e-06	267.37	76.143	60.821	17.132	5.3657e-06	23.958	0.00010184	7.2521e-05	2.1029e-05	1041.2	9.0954e-07	8.5067e-07	1120.1	214.95	8.7006e-07	8.1954e-07	225.4	75.571	59.924	17.24	8.666e-07	24.158	475.242	261.486	277.955	143.068	230.075	321.452	142.706	150.081	229.978	293.456	149.075	156.804	157.006	164.406	229.507	164.100	-8191	255	
960.959	1	1	0	0	0.12409	0.324	0.1411	0.12551	0.22423	0.11706	0.1361	0.14389	0.04426	0.095178	0.079054	0.07851	0.16674	0.31652	0.098948	0.1232	-0.41667	-1.6667	-1.0479	-0.925	-1.6396	-0.94375	-1.2437	-1.5854	-0.79167	-1.3917	-1.3021	-0.98958	-1.6771	-0.99167	-1.0229	-1.6167	316.665	485.723	436.660	337.502	314.391	316.523	458.222	483.536	444.297	334.492	196.853	226.412	204.933	315.685	486.579	156.609	0.00066061	0.00018928	6.3467e-05	1058.9	3.8396e-06	2.2776e-06	1135.7	217.41	3.7522e-06	1.6818e-06	263.79	76.01	60.837	17.141	2.5572e-06	23.986	0.0001019	7.1375e-05	2.095e-05	1037	8.4024e-07	7.9297e-07	1118.1	214.44	8.4897e-07	7.7833e-07	225.47	75.509	59.744	17.275	8.3082e-07	24.111	471.875	258.857	244.848	142.778	259.025	300.502	142.682	150.029	249.465	262.178	149.500	157.064	156.793	164.690	265.746	164.088	-8191	255	
961.055	1	1	0	0	0.076366	0.13022	0.15405	0.24718	0.16286	0.21637	0.35169	0.25645	0.24768	0.086686	0.14244	0.15293	0.25165	0.17282	0.19186	0.11311	-0.30625	-1.375	-1.3083	-0.73333	-1.5125	-0.95208	-1.1354	-1.7896	-0.64375	-1.4208	-1.5125	-0.70833	-1.7542	-0.93958	-0.83333	-1.5625	274.394	211.381	446.144	312.989	485.872	334.740	449.792	432.997	397.536	454.237	338.111	211.785	328.102	176.273	142.526	202.111	0.00067073	0.00024697	6.0022e-05	1052.9	4.4465e-06	1.3871e-06	1136.4	217.8	2.426e-06	3.2149e-06	275.48	75.646	60.658	17.192	1.4742e-06	23.95	9.6278e-05	7.0921e-05	2.0026e-05	1035.2	8.4067e-07	7.9128e-07	1117.9	214.99	8.4743e-07	8.1549e-07	225	75.246	59.657	17.263	7.857e-07	24.057	472.219	185.781	192.285	143.144	269.507	298.033	142.825	150.207	261.802	294.665	149.669	157.151	157.449	164.422	302.604	163.529	-8191	255	
961.151	1	1	0	0	0.23245	0.18373	0.24989	0.052952	0.31447	0.26678	0.034607	0.050887	0.11519	0.17647	0.037786	0.17357	0.096008	0.12162	0.087225	0.038758	-0.35625	-1.175	-1.3	-0.82083	-1.5958	-1.0583	-1.1063	-1.6771	-0.98958	-1.1646	-1.2958	-0.85417	-1.6437	-1.3021	-0.72292	-1.8646	480.260	415.133	427.808	166.429	397.445	187.636	429.446	459.450	487.101	183.482	480.090	434.823	453.367	491.624	282.122	244.162	0.00064865	4.2847e-05	5.6072e-05	1046.3	3.6483e-06	2.7226e-06	1135.7	217.61	4.0076e-06	6.9339e-07	271.35	76.117	60.667	17.169	1.4276e-06	23.876	9.7331e-05	7.012e-05	1.9796e-05	1031.2	8.4565e-07	8.0291e-07	1115.2	214.45	8.3072e-07	7.5919e-07	226.75	75.146	59.538	17.223	7.9165e-07	24.034	473.212	163.902	170.401	142.961	221.372	292.797	142.922	150.272	247.358	141.119	147.735	156.969	157.102	164.491	243.388	164.026	-8191	255	
961.223	1	1	0	0	0.021155	0.061614	0.16601	0.19779	0.16635	0.20097	0.47364	0.22615	0.1857	0.11634	0.19757	0.17663	0.26068	0.17082	0.099479	0.39001	-0.47083	-1.1354	-1.5771	-0.83125	-1.4813	-1.0812	-0.86875	-1.7125	-0.90833	-1.2354	-1.5229	-0.475	-1.4792	-1.5417	-0.73958	-1.7292	196.167	217.794	473.861	449.113	156.870	325.207	401.875	383.713	339.314	483.946	406.877	378.880	191.878	255.211	242.916	398.768	0.00065765	0.00031333	8.1361e-05	1048.4	4.4403e-06	2.1967e-06	1127.1	217	4.511e-06	2.319e-06	270.78	75.59	60.661	17.049	5.6045e-07	23.987	9.7746e-05	7.1346e-05	1.9028e-05	1029.3	8.3237e-07	7.6752e-07	1110.1	214.71	8.0408e-07	7.8706e-07	224.71	75.149	59.612	17.254	7.7753e-07	24.026	477.456	215.547	206.769	143.171	268.366	292.698	142.859	150.436	257.548	351.643	150.196	157.001	157.561	164.876	205.450	164.080	-8191	255	
961.319	1	1	0	0	0.077818	0.1634	0.25656	0.25177	0.1679	0.1144	0.10675	0.050582	0.15981	0.12419	0.15833	0.27721	0.076865	0.14894	0.22927	0.12254	-0.79792	-1.0854	-1.7563	-1.0938	-1.5729	-1.5542	-0.83333	-1.5417	-1.075	-0.89792	-1.6604	-0.95417	-1.4	-1.5667	-0.85208	-1.6187	299.815	252.324	348.124	144.746	178.390	375.121	424.144	277.147	363.598	306.238	484.830	387.924	366.878	218.445	190.107	368.832	0.00067104	0.00013242	2.0451e-05	1040.5	2.7158e-06	2.8324e-06	1127.6	217.12	3.7668e-06	2.5179e-06	267.46	75.823	60.352	17.061	3.5745e-06	23.92	9.5134e-05	6.8554e-05	1.8916e-05	1024.6	7.8852e-07	7.2638e-07	1107.3	213.98	8.0957e-07	7.668e-07	225.52	75.183	59.349	17.158	8.2271e-07	24.014	469.930	163.191	241.459	143.279	259.309	259.816	143.123	150.645	222.250	260.708	151.205	157.327	157.261	164.817	235.010	163.714	-8191	255	
961.438	1	1	0	0	0.22595	0.10441	0.11039	0.20802	0.16351	0.061835	0.15529	0.14971	0.11744	0.10659	0.12517	0.31995	0.23231	0.24096	0.039777	0.12488	-0.77708	-0.81042	-1.6875	-0.95417	-1.3229	-1.6437	-0.91042	-1.5375	-1.1583	-1.0021	-1.6437	-0.97708	-1.1979	-1.6437	-0.84167	-1.3937	270.217	232.202	387.734	450.852	157.489	205.211	431.811	176.942	388.743	256.781	241.294	202.695	464.277	485.205	208.534	160.293	0.00069773	0.00011435	5.5052e-05	1043.6	1.6769e-06	2.421e-06	1123.9	216.34	5.154e-06	2.0869e-06	264.1	75.167	60.423	17.227	3.4503e-06	23.768	9.6597e-05	6.9933e-05	1.9307e-05	1025.1	8.1675e-07	7.4226e-07	1108.8	213.69	8.322e-07	8.0084e-07	223.43	74.897	59.511	17.234	8.0371e-07	24.029	469.837	200.715	217.664	143.006	215.926	315.082	142.907	150.689	263.852	286.648	149.538	157.150	157.338	164.506	210.835	163.927	-8191	255	
961.534	1	1	0	0	0.17326	0.22576	0.14246	0.13582	0.24272	0.1727	0.32338	0.096526	0.075568	0.085181	0.17061	0.30515	0.19799	0.067858	0.082268	0.15735	-0.90417	-0.75208	-1.5604	-1.1542	-0.925	-1.7437	-0.91875	-1.6667	-1.4	-0.83333	-1.8229	-1.1396	-0.99375	-1.7	-0.71667	-1.7083	440.316	296.048	325.494	214.643	154.246	422.793	456.213	403.342	342.403	162.628	448.124	465.242	222.623	206.771	263.461	380.623	0.00065354	0.00015353	0.00011208	1042.4	5.6336e-06	3.5896e-06	1124.3	216.63	2.8198e-06	4.5945e-06	271.49	75.956	60.866	17.121	1.2939e-06	23.846	9.5017e-05	7.3344e-05	2.007e-05	1025.5	8.644e-07	7.8459e-07	1109.7	214.1	8.4712e-07	8.1992e-07	226.4	75.318	59.618	17.205	8.2117e-07	24.04	474.196	256.550	236.336	142.997	214.404	341.382	142.923	150.453	266.521	378.117	150.799	157.039	157.228	164.877	257.763	164.184	-8191	255	
961.632	1	1	0	0	0.14057	0.23493	0.15592	0.4574	0.16303	0.50144	0.20649	0.12602	0.29937	0.2116	0.098556	0.1875	0.19561	0.24898	0.16043	0.17801	-0.94167	-0.64792	-1.5063	-1.2271	-1.0562	-1.8854	-0.96875	-1.3896	-1.3521	-0.70208	-1.4646	-1.1	-1.0521	-1.8	-0.86458	-1.2875	279.034	253.754	306.492	452.074	488.001	304.491	407.655	398.411	257.847	427.955	367.147	352.223	411.092	413.538	267.028	221.958	0.00066935	0.00021916	6.327e-05	1048.5	2.3487e-06	2.1048e-06	1132.4	217.7	4.8802e-06	2.2811e-06	273.54	75.245	60.854	17.175	3.8612e-06	23.843	9.7816e-05	7.6188e-05	2.0211e-05	1029.3	8.7652e-07	7.4645e-07	1113.1	214.69	8.3806e-07	8.2522e-07	225.21	75.047	59.87	17.251	8.2098e-07	24.002	472.021	195.575	199.122	142.622	287.417	289.933	142.752	150.814	238.544	347.832	148.743	156.658	156.958	164.822	269.892	163.817	-8191	255	
961.751	1	1	0	0	0.22329	0.33199	0.20521	0.17603	0.20445	0.30229	0.24739	0.1197	0.086961	0.088958	0.10687	0.18287	0.4046	0.19276	0.10246	0.12325	-0.94792	-0.79583	-1.4021	-1.2917	-0.71875	-1.6437	-1.175	-1.0938	-1.6688	-0.69792	-1.575	-1.3125	-0.92292	-1.8333	-0.86458	-1.2771	323.500	221.245	171.012	379.584	417.135	250.300	394.930	454.116	251.064	266.857	248.741	480.016	468.999	133.400	240.329	332.666	0.0006705	0.00017038	3.3778e-05	1050.3	3.6762e-06	2.465e-06	1127.7	217.25	4.1178e-06	1.5793e-06	275.01	75.245	60.505	17.203	3.2614e-06	24.025	9.9023e-05	7.4338e-05	2.0527e-05	1030.9	8.9632e-07	8.1553e-07	1112.7	214.21	8.576e-07	8.2659e-07	227.05	75.116	59.674	17.208	8.3893e-07	24.085	471.530	491.118	166.738	142.925	248.234	276.450	143.021	150.799	208.038	282.056	150.666	157.336	157.285	165.200	258.319	164.060	-8191	255	
961.822	1	1	0	0	0.1487	0.09595	0.08153	0.14908	0.2411	0.25958	0.26184	0.18984	0.10823	0.052875	0.10768	0.068674	0.12498	0.15859	0.19983	0.30991	-1.3687	-0.65	-1.5875	-1.3583	-0.825	-1.5458	-1.025	-1.1521	-1.6375	-0.93333	-1.3125	-1.7375	-0.92708	-1.7104	-1.0958	-0.90417	473.674	454.667	173.565	417.484	235.389	355.756	358.778	370.771	407.658	183.230	136.562	257.366	384.402	192.589	485.337	439.289	0.00070279	0.00019708	2.8676e-05	1048.4	3.6374e-06	2.8491e-06	1131.2	218.1	6.6774e-06	5.9936e-06	270.83	75.565	60.633	17.207	3.9212e-06	23.803	9.8199e-05	7.6183e-05	2.0124e-05	1030.1	8.8783e-07	7.9628e-07	1112.4	214.32	8.56e-07	8.3569e-07	226.84	75.165	59.642	17.241	8.156e-07	23.996	470.723	260.675	157.368	142.998	229.694	237.764	142.930	150.743	258.433	298.117	151.421	157.052	157.436	164.960	249.636	164.293	-8191	255	
961.918	1	1	0	0	0.17378	0.15371	0.28034	0.26371	0.03531	0.12194	0.098117	0.059916	0.024174	0.34839	0.12089	0.26649	0.1238	0.1844	0.076865	0.19055	-1.5667	-0.71458	-1.1208	-1.7104	-0.8125	-1.7479	-1.2833	-0.89167	-1.6875	-0.90208	-1.1896	-1.6729	-0.82708	-1.5917	-1.2188	-0.88125	329.301	339.938	273.232	444.271	403.181	216.139	327.207	194.794	469.263	188.532	143.347	471.361	167.319	350.225	201.610	158.801	0.00068265	0.00013826	0.00011636	1052.6	3.8448e-06	2.6759e-06	1129.3	218.45	2.9167e-06	1.1709e-06	275.96	75.756	60.377	17.284	2.4732e-06	23.905	9.8252e-05	7.255e-05	2.0861e-05	1032.2	8.7018e-07	8.0022e-07	1112.7	215.04	8.3288e-07	8.0414e-07	227.56	75.264	59.594	17.273	8.3899e-07	24.108	472.198	212.627	216.530	143.122	239.733	289.944	142.978	150.726	241.811	305.859	150.252	157.102	157.443	165.403	248.932	164.705	-8191	255	
962.039	1	1	0	0	0.17888	0.11591	0.13095	0.21363	0.095881	0.26406	0.094433	0.058417	0.25578	0.20015	0.06837	0.15684	0.13122	0.24418	0.38186	0.10792	-1.2021	-0.9125	-1.0583	-1.8958	-0.79792	-1.4625	-1.3333	-0.8125	-1.5729	-0.98542	-0.79792	-1.6208	-0.7875	-1.3	-1.1792	-0.89583	377.510	273.137	371.093	400.746	404.695	465.279	462.189	471.700	319.541	256.139	352.646	286.555	210.077	439.486	334.227	144.692	0.00059347	0.00015796	7.6606e-05	1049.5	5.4839e-06	4.0315e-06	1130.4	216.75	5.5525e-06	3.6502e-06	272.97	75.739	60.435	17.208	5.1685e-06	24.012	9.589e-05	7.4196e-05	2.0479e-05	1031	9.2079e-07	8.1497e-07	1111.9	214.48	8.4268e-07	8.3357e-07	226.81	75.178	59.558	17.265	8.3454e-07	24.073	472.973	174.247	280.640	143.407	261.179	289.568	143.237	150.422	245.515	284.172	149.428	156.173	156.495	164.135	282.208	163.387	-8191	255	
962.135	1	1	0	0	0.068264	0.19519	0.22435	0.24631	0.047372	0.010363	0.047571	0.46464	0.084939	0.24454	0.18154	0.3961	0.13206	0.26599	0.14962	0.13557	-1.2188	-0.92917	-0.89792	-1.925	-0.475	-1.3917	-1.5354	-0.85208	-1.675	-1.0688	-0.69583	-1.6021	-0.82917	-1.4312	-1.4958	-0.7	224.679	299.048	432.471	474.694	434.459	182.164	295.744	489.560	486.777	473.072	371.988	447.352	156.495	484.960	460.788	420.904	0.00065748	0.00023726	9.4918e-05	1048.3	1.9934e-06	1.5099e-06	1125.2	216.06	4.0875e-06	1.9824e-06	273.03	75.915	60.336	16.962	3.6434e-06	23.745	9.8715e-05	7.7329e-05	2.0634e-05	1032.6	9.1593e-07	8.1235e-07	1112.1	214.28	8.5477e-07	8.0975e-07	225.71	75.362	59.504	17.138	8.2989e-07	24.026	478.646	264.692	241.721	142.183	239.815	338.788	142.077	149.636	233.088	278.809	148.539	156.073	156.550	164.195	284.285	163.571	-8191	255	
962.231	1	1	0	0	0.17571	0.074641	0.1733	0.12791	0.14076	0.19983	0.016808	0.20108	0.028764	0.11643	0.026068	0.14072	0.18536	0.41501	0.086769	0.236	-0.975	-1.0958	-0.89583	-1.7021	-0.93125	-0.93958	-1.5875	-0.85625	-1.2646	-1.2833	-0.77292	-1.725	-0.99583	-1.0896	-1.6042	-0.86875	166.368	280.174	394.614	455.497	351.158	460.052	158.518	433.317	133.127	347.143	182.806	471.369	133.567	165.563	269.537	309.181	0.00066878	0.00010862	8.3155e-05	1044.5	9.2231e-08	1.8084e-06	1130.5	217.46	4.9713e-06	4.6242e-06	268.57	75.28	60.487	17.133	1.554e-06	23.972	9.9433e-05	7.3577e-05	2.0403e-05	1029.9	8.5702e-07	8.2429e-07	1112.9	214.54	8.7623e-07	7.9186e-07	227.44	75.14	59.499	17.225	8.2859e-07	24.051	474.505	291.857	230.930	142.302	195.825	274.764	142.128	149.751	249.023	310.491	149.974	156.468	156.342	163.866	219.624	163.551	-8191	255	
962.352	1	1	0	0	0.0067366	0.14268	0.16614	0.23354	0.20793	0.20627	0.23095	0.29615	0.12686	0.30254	0.031317	0.21152	0.10258	0.33664	0.19681	0.24182	-0.925	-1.4417	-0.65833	-1.7167	-1.1542	-0.87292	-1.8104	-0.75417	-1.1979	-1.3438	-0.73333	-1.6875	-0.96458	-0.81875	-1.4896	-0.78542	261.119	447.062	290.917	465.374	139.912	404.201	404.443	208.239	406.987	154.426	326.210	443.562	467.503	410.738	248.499	460.985	0.00079266	0.00016445	5.7972e-05	1048.7	4.1205e-06	1.6708e-06	1128.1	217.41	6.8551e-06	2.6334e-06	275.3	75.735	60.51	17.007	4.3303e-06	23.833	0.00010134	7.2851e-05	2.151e-05	1031.7	8.7646e-07	8.3098e-07	1110	214.94	8.6901e-07	7.696e-07	227.99	75.413	59.424	17.198	8.281e-07	24.053	473.842	251.304	190.765	142.311	260.667	239.311	142.306	149.841	252.150	321.390	148.335	156.471	156.710	164.274	235.758	163.781	-8191	255	
962.448	1	1	0	0	0.23168	0.1152	0.16003	0.18961	0.078279	0.17868	0.13103	0.42051	0.20781	0.11357	0.1851	0.17239	0.31769	0.25312	0.30115	0.054972	-1.0354	-1.4354	-0.65	-1.6917	-1.0187	-0.74583	-1.7875	-0.9625	-1.275	-1.4958	-0.48333	-1.4229	-1.0479	-0.75	-1.7604	-0.84167	486.284	296.604	333.551	179.052	382.376	377.957	368.848	450.966	261.927	359.275	274.168	398.749	490.357	137.250	468.660	272.760	0.00068728	0.00021309	0.00010712	1045.5	2.8082e-06	2.535e-06	1130.1	216.97	3.3088e-06	3.6079e-06	273.42	75.499	59.772	17.165	3.7021e-06	23.923	9.9582e-05	7.3753e-05	2.0275e-05	1030.2	8.866e-07	8.0366e-07	1112.7	214.04	8.5452e-07	7.9485e-07	227.2	75.244	59.343	17.263	7.8181e-07	24.069	473.178	234.752	251.899	142.553	241.675	299.169	142.469	149.712	223.666	245.318	148.581	156.158	156.527	164.337	222.776	163.627	-8191	255	
962.520	1	1	0	0	0.24367	0.070461	0.21308	0.16515	0.26064	0.31723	0.27836	0.42228	0.15837	0.18378	0.15296	0.3677	0.079372	0.091765	0.085171	0.23769	-0.76042	-1.3208	-0.74792	-1.4917	-1.2938	-0.78333	-1.8792	-0.79583	-1.0063	-1.5208	-0.825	-1.5146	-1.3417	-0.87708	-1.3917	-0.97708	449.215	483.778	340.797	136.079	262.919	186.060	418.413	489.399	140.948	360.227	471.394	457.154	443.097	334.069	278.787	378.888	0.00068631	0.00023117	4.6498e-05	1049	4.374e-06	1.5952e-06	1129.7	216.19	3.5725e-06	3.0422e-06	269.57	76.31	60.586	17.078	2.4389e-06	23.938	9.8741e-05	7.36e-05	2.0666e-05	1031.4	8.363e-07	7.6464e-07	1111.7	214.13	8.5051e-07	7.6218e-07	226.03	75.328	59.354	17.178	7.9425e-07	24.068	472.995	256.909	267.370	142.302	241.910	306.177	142.253	149.698	232.157	294.759	149.099	156.637	156.489	164.494	273.631	163.686	-8191	255	
962.614	1	1	0	0	0.26105	0.26199	0.38287	0.064995	0.23233	0.20164	0.12236	0.19492	0.17961	0.21078	0.19877	0.071583	0.072439	0.12381	0.17278	0.026729	-0.63542	-1.6437	-0.83333	-1.525	-1.4271	-0.75	-1.7687	-1.2	-0.78333	-1.4854	-0.7375	-1.3271	-1.5896	-0.62292	-1.4229	-1.0646	234.567	279.676	341.002	388.650	473.251	179.054	363.047	478.708	406.301	393.969	417.097	488.156	319.055	319.938	173.706	239.679	0.0006685	0.00029921	3.4247e-05	1042.8	4.5531e-06	3.0611e-06	1125.5	216.3	3.6318e-06	2.1444e-06	271.33	75.54	60.563	17.161	3.7161e-06	24.049	9.7996e-05	7.4281e-05	2.1086e-05	1028	8.4639e-07	8.1741e-07	1111.7	213.65	8.4182e-07	7.6617e-07	227.29	75.005	59.408	17.184	7.9233e-07	24.044	470.498	228.537	242.080	142.422	270.706	292.074	142.008	149.575	258.472	259.216	148.216	156.272	156.638	164.494	230.823	163.027	-8191	255	
962.735	1	1	0	0	0.088201	0.37014	0.19598	0.16037	0.14962	0.30412	0.27123	0.44457	0.050057	0.10154	0.18998	0.15003	0.17087	0.27098	0.18876	0.16051	-0.55208	-1.75	-0.79375	-1.3458	-1.4104	-0.75833	-1.5312	-1.1854	-0.85833	-1.5562	-0.83333	-1.1021	-1.6313	-0.6375	-1.0958	-1.2687	478.553	191.977	313.719	486.743	476.505	405.734	440.579	461.159	180.816	391.236	149.712	455.784	168.185	215.318	311.047	390.210	0.00067592	0.00017643	7.8626e-05	1047.3	1.8327e-06	1.069e-06	1130.4	217.04	3.6713e-06	3.6859e-06	272.33	75.893	60.432	16.997	1.5375e-06	23.718	0.00010042	6.9365e-05	1.9427e-05	1028.5	7.9141e-07	8.1566e-07	1113.4	214.52	8.465e-07	7.9236e-07	226.72	75.359	59.56	17.143	7.9672e-07	24.05	478.754	229.756	248.263	142.387	216.172	291.953	142.127	149.638	215.126	290.909	150.453	156.482	156.714	164.161	252.753	163.597	-8191	255	
962.831	1	1	0	0	0.015854	0.42543	0.22126	0.21405	0.11479	0.17331	0.2774	0.30038	0.2421	0.34354	0.15168	0.11711	0.1771	0.26494	0.24107	0.02737	-0.41875	-1.4875	-0.9125	-1.2208	-1.4229	-0.62292	-1.5271	-1.3875	-0.67917	-1.7458	-1.0833	-1.0521	-1.6458	-0.65625	-1.2687	-1.4333	146.404	349.197	370.607	176.356	350.128	337.542	389.454	294.345	304.146	441.492	305.546	199.367	163.916	341.310	191.717	469.302	0.00067365	0.00015116	5.8036e-05	1044.2	2.6723e-06	6.713e-07	1129.5	216.73	3.4314e-06	4.6421e-06	270.68	75.829	60.747	17.174	2.0212e-06	24.07	9.6475e-05	7.0853e-05	2.0292e-05	1028.8	8.2044e-07	7.6946e-07	1112.3	214.09	8.2868e-07	7.6823e-07	226.59	75.539	59.602	17.189	7.9684e-07	24.068	468.343	176.386	183.396	142.619	229.447	271.756	142.086	149.534	239.810	316.287	149.006	156.668	156.733	164.564	278.571	163.349	-8191	255	
962.927	1	1	0	0	0.10788	0.057323	0.19149	0.19816	0.057943	0.1603	0.035265	0.25386	0.084403	0.15381	0.23939	0.15516	0.05665	0.080362	0.1431	0.33965	-0.34375	-1.325	-0.9375	-0.71458	-1.6167	-0.69167	-1.3896	-1.3771	-0.68333	-1.4312	-1.1688	-1	-1.6688	-0.82083	-1.1917	-1.6104	140.901	372.574	213.324	463.034	458.623	412.055	266.615	140.641	298.649	344.258	368.329	463.163	417.251	225.487	361.790	398.182	0.00062306	7.2877e-05	7.3831e-05	1050.3	3.8087e-06	1.9365e-06	1128.4	216.87	4.9202e-06	5.0657e-06	271.73	75.27	60.638	17.011	3.2101e-06	23.767	9.672e-05	6.9689e-05	2.0085e-05	1031.5	8.264e-07	8.2998e-07	1112.9	214.58	8.4996e-07	7.5801e-07	227.03	75.114	59.561	17.178	7.8979e-07	23.988	472.062	269.363	227.259	142.241	218.226	263.305	142.161	149.814	237.512	296.763	148.759	156.744	156.340	164.076	253.744	163.364	-8191	255	
963.023	1	1	0	0	0.036527	0.18996	0.076958	0.28204	0.36432	0.15508	0.19971	0.1835	0.18801	0.19039	0.24999	0.19966	0.040822	0.075801	0.4015	0.1988	-0.40417	-1.4	-1.1875	-0.85208	-1.6646	-0.87083	-1.0833	-1.6771	-0.69375	-1.4	-1.3604	-0.89792	-1.5688	-0.91042	-1.1	-1.6229	481.067	237.232	359.195	444.674	214.810	418.873	395.212	472.757	460.297	383.554	193.003	491.513	469.556	161.505	474.949	208.986	0.00064824	0.00020987	9.85e-05	1042.2	4.2898e-06	1.4351e-06	1126.8	216.1	2.9388e-06	3.806e-06	272.33	75.654	60.244	17.073	4.713e-06	23.801	9.2953e-05	6.5749e-05	1.9812e-05	1028.9	8.2628e-07	7.4708e-07	1112.9	213.64	8.0118e-07	7.9822e-07	225.8	75.326	59.562	17.173	7.7747e-07	24.048	476.763	247.910	229.812	142.566	241.656	267.233	142.713	149.684	219.306	332.384	148.895	156.033	156.489	164.151	255.300	163.390	-8191	255	
963.119	1	1	0	0	0.22068	0.14879	0.30756	0.54132	0.13057	0.27163	0.20539	0.061156	0.11387	0.24161	0.077968	0.17224	0.056772	0.17225	0.34109	0.26344	-0.32708	-1.4646	-1.375	-0.78542	-1.6021	-0.91667	-1.0417	-1.7667	-0.86042	-1.2271	-1.2958	-0.66042	-1.375	-1.0938	-0.75833	-1.6729	481.453	420.116	412.112	449.147	419.204	488.811	153.118	325.964	301.773	424.339	258.372	295.352	440.803	387.041	148.679	383.812	0.00060713	0.00031826	6.4247e-05	1044.3	3.3458e-06	2.0446e-06	1125.1	216.76	4.0801e-06	3.5432e-06	270.84	75.166	60.013	17.107	3.7992e-06	23.93	9.4081e-05	6.7061e-05	1.9139e-05	1028.6	8.0217e-07	7.5133e-07	1109.5	213.91	7.8416e-07	7.5283e-07	224.89	75.138	59.394	17.183	7.4176e-07	24.047	472.446	228.639	224.421	142.322	240.785	290.838	142.036	149.598	257.940	271.681	149.926	156.329	156.122	164.094	215.025	163.279	-8191	255	
963.216	1	1	0	0	0.16563	0.090603	0.15651	0.17214	0.24618	0.097645	0.15683	0.28594	0.054389	0.36496	0.10942	0.27742	0.057894	0.11568	0.11327	0.18431	-0.30417	-1.175	-1.5562	-0.81458	-1.5292	-1.2271	-1.0667	-1.6542	-0.72292	-1.0917	-1.3729	-1.0125	-1.5063	-1.3333	-0.6625	-1.7229	422.838	398.433	439.344	409.669	420.181	324.523	314.911	409.788	196.830	311.282	483.467	313.651	460.997	489.590	380.335	444.446	0.00071696	0.00022424	0.00010362	1043.9	3.2839e-06	1.451e-06	1129.8	217.26	2.6242e-06	2.0419e-06	274	75.425	60.703	17.073	1.2071e-06	23.841	9.3607e-05	6.8854e-05	1.9405e-05	1028.5	7.9406e-07	7.0988e-07	1111.5	214.39	8.1444e-07	7.4816e-07	226.34	75.226	59.471	17.208	7.7481e-07	24.04	472.757	229.238	255.609	142.341	247.970	298.537	142.206	149.840	231.310	320.363	148.890	156.077	156.398	164.276	191.059	163.720	-8191	255	
963.312	1	1	0	0	0.31714	0.062253	0.13033	0.11001	0.23722	0.19695	0.16714	0.16596	0.043533	0.27522	0.34846	0.28277	0.18325	0.15133	0.11541	0.16478	-0.64167	-0.99583	-1.5396	-0.90625	-1.4625	-1.1437	-0.86042	-1.7062	-0.97292	-0.85208	-1.5708	-0.925	-1.3833	-1.4562	-0.77917	-1.8375	146.255	242.081	399.886	357.814	327.433	135.558	469.881	275.211	349.290	481.199	137.681	393.483	173.155	295.848	458.448	477.726	0.0006487	0.00026449	7.642e-05	1045.2	4.7109e-06	5.0687e-06	1130.4	216.15	5.1781e-06	4.1113e-06	265.92	75.473	60.477	17.083	1.2969e-06	23.85	9.2937e-05	6.777e-05	1.8006e-05	1027.7	8.0611e-07	7.2951e-07	1110.5	213.78	8.1222e-07	8.0745e-07	224.8	75.288	59.515	17.145	7.7791e-07	23.996	469.733	238.572	197.879	142.416	253.525	283.890	141.958	149.571	254.633	280.337	149.952	155.984	156.276	164.010	253.117	163.143	-8191	255	
963.432	1	1	0	0	0.11241	0.1448	0.097894	0.14707	0.21328	0.18694	0.27031	0.32304	0.16727	0.15454	0.21141	0.10387	0.11375	0.21457	0.24257	0.07094	-0.71875	-0.82708	-1.7167	-0.88125	-1.2396	-1.6125	-0.75625	-1.75	-1.1896	-0.69583	-1.4771	-0.8375	-1.0896	-1.4229	-0.72917	-1.4042	480.034	283.146	215.679	463.629	209.315	326.837	468.152	196.832	464.411	172.269	346.161	188.138	243.098	466.556	393.002	356.508	0.00059512	0.00023422	9.0638e-05	1041	1.5878e-06	1.5598e-06	1126.2	216.31	4.6674e-06	2.2998e-06	270.43	75.323	60.235	17.126	2.9527e-06	23.62	9.1251e-05	6.8037e-05	1.8377e-05	1025.6	8.2855e-07	7.1532e-07	1110.1	213.92	8.0445e-07	7.4778e-07	225	75.148	59.508	17.169	7.7654e-07	23.929	472.179	232.127	224.264	142.354	209.333	277.741	141.960	149.775	203.407	289.267	149.550	156.219	156.205	164.564	248.286	163.707	-8191	255	
963.527	1	1	0	0	0.030088	0.46275	0.16431	0.28773	0.17015	0.22328	0.050945	0.33784	0.18428	0.084529	0.1121	0.28359	0.28988	0.21948	0.29887	0.31749	-0.83333	-0.75417	-1.6146	-1.0354	-1.2542	-1.5896	-0.8	-1.5854	-1.1437	-0.98958	-1.7229	-0.97708	-1.0479	-1.6479	-0.67917	-1.525	138.956	367.364	400.752	454.198	151.944	233.920	400.333	431.427	429.158	170.521	170.770	380.100	152.158	135.626	152.095	449.051	0.00067028	0.00020894	5.2169e-05	1043.7	3.9059e-06	3.6361e-06	1124.5	216.46	5.0006e-06	4.0929e-06	272.57	75.28	60.42	17.115	4.4862e-07	23.817	9.0394e-05	7.0188e-05	1.812e-05	1027.7	8.2363e-07	7.3545e-07	1109.4	214.13	8.132e-07	7.1305e-07	225.34	74.99	59.372	17.214	7.6547e-07	24.017	473.339	216.437	226.716	142.680	253.630	268.157	142.474	150.241	238.934	319.321	150.455	156.233	156.880	164.597	225.830	163.640	-8191	255	
963.623	1	1	0	0	0.29212	0.11803	0.46332	0.16206	0.24089	0.25462	0.34981	0.22723	0.16304	0.34763	0.22644	0.19426	0.10806	0.35876	0.18626	0.048748	-0.95833	-0.45	-1.5229	-1.0167	-1.0083	-1.6333	-0.9125	-1.2875	-1.4375	-0.87292	-1.5812	-1.1646	-0.81042	-1.625	-0.70625	-0.9625	285.198	256.511	237.105	211.772	286.952	260.854	447.243	186.540	485.103	431.964	438.270	164.039	181.929	454.715	187.115	375.287	0.00058762	0.00025355	5.0308e-05	1046	4.1037e-06	1.4422e-06	1127.1	216.03	5.1069e-06	1.2897e-06	269.14	74.892	60.618	17.013	3.5992e-06	23.724	9.3512e-05	6.8894e-05	1.9351e-05	1027.8	7.9977e-07	7.1688e-07	1108.4	213.91	7.6751e-07	7.4473e-07	226.06	75.049	59.548	17.183	7.8007e-07	23.971	475.079	217.937	233.183	142.754	232.474	273.756	142.688	150.232	235.300	202.984	150.523	156.454	156.613	164.371	295.718	162.950	-8191	255	
963.719	1	1	0	0	0.096978	0.18082	0.10703	0.32782	0.21689	0.11411	0.33107	0.18422	0.1498	0.09093	0.21516	0.096979	0.17662	0.16114	0.098506	0.12593	-0.82708	-0.80833	-1.5146	-1.2563	-0.88958	-1.5042	-1.0688	-1.3521	-1.5083	-0.80417	-1.6042	-1.1917	-0.7125	-1.7271	-0.75625	-1.0896	386.414	412.098	457.219	430.141	304.172	269.583	437.627	391.136	291.700	284.401	184.993	378.396	138.949	312.614	390.564	217.782	0.00067477	0.00018367	8.9645e-05	1042.7	1.7262e-06	3.0906e-06	1124.5	216.98	4.8814e-06	3.0248e-06	276.62	75.92	60.45	17.158	2.769e-06	23.912	9.1373e-05	7.0739e-05	1.8765e-05	1026	8.0814e-07	7.1157e-07	1110	214.48	7.9711e-07	7.6331e-07	225.56	75.216	59.587	17.202	7.5748e-07	24.098	477.407	206.052	257.425	142.467	251.298	214.501	142.097	150.114	250.360	312.854	149.162	156.344	156.562	164.223	243.188	163.362	-8191	255	
963.815	1	1	0	0	0.15087	0.06018	0.22384	0.37263	0.22596	0.095122	0.17192	0.25022	0.088091	0.19035	0.067044	0.20095	0.34185	0.11706	0.21897	0.32018	-0.94583	-0.69583	-1.4375	-1.3458	-0.75625	-1.3729	-1.025	-1.1458	-1.6292	-0.72292	-1.4625	-1.5021	-0.52917	-1.6271	-1.0896	-1.0583	220.308	490.685	203.490	477.678	295.896	274.924	152.340	151.016	295.607	284.565	432.003	183.821	324.330	139.836	420.702	271.134	0.00064261	0.00013423	6.044e-05	1040	3.2576e-06	6.2182e-07	1125.7	216.38	5.8357e-06	2.1591e-06	264.55	75.437	60.852	17.144	1.7845e-06	23.731	8.9639e-05	6.6941e-05	1.9126e-05	1026.7	7.8508e-07	7.1601e-07	1107.8	214.4	7.9717e-07	7.6667e-07	225.73	75.144	59.75	17.15	7.5173e-07	24.029	472.531	268.180	250.888	142.354	281.835	409.132	142.014	149.920	237.604	279.302	150.171	156.227	156.643	164.067	284.940	163.424	-8191	255	
963.911	1	1	0	0	0.08339	0.18778	0.24599	0.43508	0.092806	0.22527	0.31409	0.16527	0.20007	0.19472	0.12534	0.13173	0.27287	0.1633	0.1167	0.18289	-1.1125	-0.60417	-1.3438	-1.5667	-0.73542	-1.6458	-1.2021	-1.0187	-1.6146	-0.6875	-1.2771	-1.4583	-0.49583	-1.3667	-1.0646	-0.87083	157.320	470.020	349.930	441.680	152.420	458.906	380.566	198.261	402.569	203.823	307.985	469.632	188.477	314.116	289.949	282.763	0.00068887	0.00035016	6.6948e-05	1043.6	3.5734e-06	1.1222e-06	1127.6	215.44	4.5001e-06	2.8573e-06	274.68	75.443	60.559	17.088	1.6537e-06	23.581	9.6698e-05	6.8718e-05	1.899e-05	1025.4	7.745e-07	7.2276e-07	1108.9	213.83	7.2817e-07	7.115e-07	225.76	75.196	59.435	17.231	7.4312e-07	23.959	471.062	198.133	178.129	142.441	267.537	380.911	142.128	149.996	230.708	260.712	150.380	156.286	156.714	164.068	251.559	163.670	-8191	255	
964.032	1	1	0	0	0.21923	0.11471	0.19565	0.28523	0.21685	0.16297	0.12854	0.24422	0.25221	0.26001	0.1574	0.16246	0.024114	0.0489	0.21563	0.085693	-0.93958	-0.71667	-1.0125	-1.4937	-0.7875	-1.5583	-1.2979	-0.76667	-1.5667	-0.83542	-1.1187	-1.4771	-0.62292	-1.3563	-1.1583	-0.79792	267.637	136.233	441.497	134.151	258.544	292.670	453.307	135.544	339.182	364.394	197.492	423.626	324.183	232.068	159.002	436.630	0.00068184	0.00017924	7.4123e-05	1038.5	4.2424e-06	3.1463e-06	1125.2	217.2	6.5884e-06	2.6851e-06	268.94	75.444	60.204	16.988	2.127e-06	23.837	9.165e-05	6.9263e-05	1.8437e-05	1024.3	7.8643e-07	7.2507e-07	1108	214.07	7.8046e-07	7.3612e-07	223.51	75.042	59.412	17.135	7.6144e-07	24.026	471.438	215.597	241.924	142.271	236.772	284.640	142.230	149.753	251.045	333.338	149.355	156.519	156.353	164.342	239.783	163.652	-8191	255	
964.128	1	1	0	0	0.19117	0.027621	0.1134	0.30499	0.12081	0.26197	0.33105	0.13008	0.20485	0.071552	0.095621	0.15856	0.34413	0.19954	0.19262	0.063447	-1.3271	-0.98542	-0.925	-1.6729	-0.70833	-1.2687	-1.4979	-0.72708	-1.4729	-1.1021	-1.0021	-1.6625	-0.65417	-1.2104	-1.3	-0.77083	294.634	408.924	441.225	466.818	354.171	476.917	369.153	231.416	359.568	239.875	304.626	283.435	488.863	475.537	309.602	157.468	0.00068865	0.00039611	5.5751e-05	1041.5	6.037e-06	1.5112e-06	1121.5	215.94	2.902e-06	1.0771e-06	270.35	75.407	60.113	17.167	4.7853e-06	23.964	8.9553e-05	6.8105e-05	1.8927e-05	1026	8.5456e-07	7.5771e-07	1106.4	213.8	7.8293e-07	7.3949e-07	224.07	75.185	59.336	17.164	7.6095e-07	24.047	470.519	237.060	243.239	142.412	251.661	312.340	142.353	149.830	206.648	312.582	149.848	156.702	156.719	164.771	265.286	163.998	-8191	255	
964.224	1	1	0	0	0.29573	0.10125	0.22036	0.328	0.19227	0.24937	0.25393	0.33355	0.11367	0.091696	0.10645	0.2071	0.11994	0.28157	0.25058	0.15763	-1.0812	-1.1625	-0.81667	-1.7396	-0.86875	-1.0979	-1.7687	-0.75417	-1.4979	-1.0479	-0.71667	-1.6229	-1.2437	-1.1604	-1.6313	-0.82917	203.376	391.040	427.796	395.893	412.739	273.136	420.640	447.170	179.230	254.679	168.525	249.316	484.738	198.479	451.677	296.018	0.00072177	0.00028444	7.7847e-05	1046	4.9467e-06	7.8909e-07	1128.5	214.91	3.0611e-06	2.0592e-06	266.76	76.045	60.228	17.047	2.0963e-06	23.734	9.1761e-05	6.8531e-05	1.9118e-05	1026.2	7.9492e-07	7.1832e-07	1106.9	213.41	8.0562e-07	7.3837e-07	225.07	75.363	59.317	17.133	7.3687e-07	23.923	473.816	240.020	190.686	142.633	208.346	289.273	142.507	150.041	233.757	274.862	149.504	156.377	156.582	164.364	259.414	163.750	-8191	255	
964.320	1	1	0	0	0.21815	0.11581	0.04865	0.17925	0.15697	0.24005	0.13255	0.21278	0.15873	0.081249	0.15014	0.1919	0.33556	0.2152	0.23597	0.21764	-1.1458	-1.2417	-0.74375	-1.7646	-0.95625	-1.0542	-2.0208	-0.83333	-1.4396	-1.25	-0.66042	-1.5938	-0.96458	-1.0292	-1.5187	-1.0146	214.475	444.229	427.409	398.166	274.452	471.251	147.068	384.328	318.751	454.972	487.253	476.213	140.718	290.961	456.998	285.310	0.00073574	0.000179	7.1105e-05	1041.9	4.6035e-06	2.3127e-06	1126.8	216.46	2.753e-06	1.1296e-06	268.67	75.555	60.147	17.113	2.2242e-06	23.868	9.1325e-05	6.6771e-05	1.8996e-05	1027.2	8.0469e-07	7.5464e-07	1107.8	213.5	8.2726e-07	7.2926e-07	224.95	75.212	59.302	17.233	7.464e-07	24.049	475.493	183.790	176.602	142.818	254.507	271.759	142.178	149.998	265.582	332.516	149.130	156.506	156.931	165.029	253.833	163.179	-8191	255	
964.415	1	1	0	0	0.096416	0.18051	0.1679	0.021969	0.12438	0.32361	0.2743	0.14063	0.13873	0.11777	0.14423	0.10198	0.16242	0.11992	0.1339	0.18529	-0.85833	-1.425	-0.56667	-1.6542	-1.0812	-0.93958	-1.8188	-1.0063	-1.3708	-1.3396	-0.79583	-1.5438	-1.1938	-0.91875	-1.6104	-0.88958	267.545	210.359	338.410	442.546	294.261	318.587	419.892	408.993	141.058	232.658	358.822	240.042	439.249	227.573	240.235	353.081	0.00066065	0.00020745	8.8995e-05	1042	4.7503e-06	2.051e-06	1120.5	216.1	3.4696e-06	1.8733e-06	273.42	75.631	60.781	17.051	3.7296e-06	23.952	9.1277e-05	6.5437e-05	1.8759e-05	1026.3	8.224e-07	7.4983e-07	1108	213.66	7.9507e-07	6.9173e-07	225.51	75.253	59.611	17.211	7.3316e-07	23.994	474.492	215.787	241.138	142.504	239.407	308.698	142.226	149.646	211.049	285.035	148.807	156.563	156.313	164.027	265.126	163.659	-8191	255	
#DATA ENDS
