BOXY.EXE: ISS Imagent and Oximeter Data Acquisition Program Version 0.80
Ascii Record File

#ACQ INFORMATION
2  Detector Channels 
16  External MUX Channels 
1  Auxiliary Channels 
5000  Waveform (CCF) Frequency (Hz)
1  Waveforms Skipped 
30  Waveforms Averaged 
1  Cycles Averaged 
16  Acquisitions per Waveform 
10.0806  Updata Rate (Hz) 

#FILE INFORMATION
TRUE -- External MUX Channel results are PARSED.
FALSE -- AC DC and Phase are NOT grouped.
TRUE -- Companion Program Settings File CREATED.
FALSE -- AC data not excluded
FALSE -- DC data not excluded
FALSE -- Phase data not excluded
FALSE -- Auxillary Chn. data not excluded
Tab delimiters

#CALIBRATION STATE
TRUE -- Waveform Calibration Values APPLIED.


#AUX CALIBRATION VALUES
Val Type	aux-1	

Term	1.0000e+00	
Factor	0.0000e+00	


#WF CALIBRATION VALUES
A = Detector Channel
Val Type	A-AC1	A-AC2	A-AC3	A-AC4	A-AC5	A-AC6	A-AC7	A-AC8	A-AC9	A-AC10	A-AC11	A-AC12	A-AC13	A-AC14	A-AC15	A-AC16	A-DC1	A-DC2	A-DC3	A-DC4	A-DC5	A-DC6	A-DC7	A-DC8	A-DC9	A-DC10	A-DC11	A-DC12	A-DC13	A-DC14	A-DC15	A-DC16	A-Ph1	A-Ph2	A-Ph3	A-Ph4	A-Ph5	A-Ph6	A-Ph7	A-Ph8	A-Ph9	A-Ph10	A-Ph11	A-Ph12	A-Ph13	A-Ph14	A-Ph15	A-Ph16	

Term	0.00000e+00	0.00000e+00	0.00000e+00	0.00000e+00	0.00000e+00	0.00000e+00	0.00000e+00	0.00000e+00	0.00000e+00	0.00000e+00	0.00000e+00	0.00000e+00	0.00000e+00	0.00000e+00	0.00000e+00	0.00000e+00	0.00000e+00	0.00000e+00	0.00000e+00	0.00000e+00	0.00000e+00	0.00000e+00	0.00000e+00	0.00000e+00	0.00000e+00	0.00000e+00	0.00000e+00	0.00000e+00	0.00000e+00	0.00000e+00	0.00000e+00	0.00000e+00	0.00000e+00	0.00000e+00	0.00000e+00	0.00000e+00	0.00000e+00	0.00000e+00	0.00000e+00	0.00000e+00	0.00000e+00	0.00000e+00	0.00000e+00	0.00000e+00	0.00000e+00	0.00000e+00	0.00000e+00	0.00000e+00	
Factor	1.00000e+00	1.00000e+00	1.00000e+00	1.00000e+00	1.00000e+00	1.00000e+00	1.00000e+00	1.00000e+00	1.00000e+00	1.00000e+00	1.00000e+00	1.00000e+00	1.00000e+00	1.00000e+00	1.00000e+00	1.00000e+00	1.00000e+00	1.00000e+00	1.00000e+00	1.00000e+00	1.00000e+00	1.00000e+00	1.00000e+00	1.00000e+00	1.00000e+00	1.00000e+00	1.00000e+00	1.00000e+00	1.00000e+00	1.00000e+00	1.00000e+00	1.00000e+00	X	X	X	X	X	X	X	X	X	X	X	X	X	X	X	X	

B = Detector Channel
Val Type	B-AC1	B-AC2	B-AC3	B-AC4	B-AC5	B-AC6	B-AC7	B-AC8	B-AC9	B-AC10	B-AC11	B-AC12	B-AC13	B-AC14	B-AC15	B-AC16	B-DC1	B-DC2	B-DC3	B-DC4	B-DC5	B-DC6	B-DC7	B-DC8	B-DC9	B-DC10	B-DC11	B-DC12	B-DC13	B-DC14	B-DC15	B-DC16	B-Ph1	B-Ph2	B-Ph3	B-Ph4	B-Ph5	B-Ph6	B-Ph7	B-Ph8	B-Ph9	B-Ph10	B-Ph11	B-Ph12	B-Ph13	B-Ph14	B-Ph15	B-Ph16	

Term	0.00000e+00	0.00000e+00	0.00000e+00	0.00000e+00	0.00000e+00	0.00000e+00	0.00000e+00	0.00000e+00	0.00000e+00	0.00000e+00	0.00000e+00	0.00000e+00	0.00000e+00	0.00000e+00	0.00000e+00	0.00000e+00	0.00000e+00	0.00000e+00	0.00000e+00	0.00000e+00	0.00000e+00	0.00000e+00	0.00000e+00	0.00000e+00	0.00000e+00	0.00000e+00	0.00000e+00	0.00000e+00	0.00000e+00	0.00000e+00	0.00000e+00	0.00000e+00	-8.19620e+01	-1.31387e+02	-1.23947e+02	-1.82180e+02	-6.73124e+01	-7.06461e+01	-1.57453e+02	-1.62015e+02	-5.26248e+01	-5.03545e+01	-1.74207e+02	-1.70246e+02	-1.81558e+02	-1.76604e+02	-6.38946e+01	-1.49731e+02	
Factor	1.74277e-05	1.42447e-04	4.46277e-05	1.46431e-01	1.15311e-06	1.52853e-06	1.67333e-01	5.49476e-02	1.18619e-06	1.77604e-06	9.88515e-02	2.93754e-02	2.77491e-02	9.55186e-03	1.29905e-06	1.36949e-02	3.85813e-06	4.49126e-06	1.24776e-06	7.72237e-02	4.81768e-08	4.92794e-08	8.25847e-02	2.90232e-02	4.80511e-08	4.91379e-08	5.01668e-02	1.50227e-02	1.47801e-02	5.06767e-03	4.82509e-08	7.00746e-03	X	X	X	X	X	X	X	X	X	X	X	X	X	X	X	X	



#DISTANCE SETTINGS
A = Detector Channel
A-1	A-2	A-3	A-4	A-5	A-6	A-7	A-8	A-9	A-10	A-11	A-12	A-13	A-14	A-15	A-16	

2.5000e+00	3.0000e+00	2.5000e+00	3.0000e+00	2.0000e+00	3.0000e+00	1.5000e+00	3.0000e+00	3.0000e+00	3.0000e+00	3.0000e+00	3.0000e+00	3.0000e+00	3.0000e+00	1.5000e+00	3.0000e+00	

B = Detector Channel
B-1	B-2	B-3	B-4	B-5	B-6	B-7	B-8	B-9	B-10	B-11	B-12	B-13	B-14	B-15	B-16	

1.0000e+01	1.0000e+01	1.0000e+01	1.4400e+00	1.0000e+01	1.0000e+01	1.5100e+00	1.9400e+00	1.0000e+01	1.0000e+01	1.9900e+00	2.4900e+00	2.4100e+00	2.9000e+00	1.0000e+01	2.9800e+00	




#DATA BEGINS
time	group	step	mark	flag	A-AC1	A-AC2	A-AC3	A-AC4	A-AC5	A-AC6	A-AC7	A-AC8	A-AC9	A-AC10	A-AC11	A-AC12	A-AC13	A-AC14	A-AC15	A-AC16	A-DC1	A-DC2	A-DC3	A-DC4	A-DC5	A-DC6	A-DC7	A-DC8	A-DC9	A-DC10	A-DC11	A-DC12	A-DC13	A-DC14	A-DC15	A-DC16	A-Ph1	A-Ph2	A-Ph3	A-Ph4	A-Ph5	A-Ph6	A-Ph7	A-Ph8	A-Ph9	A-Ph10	A-Ph11	A-Ph12	A-Ph13	A-Ph14	A-Ph15	A-Ph16	B-AC1	B-AC2	B-AC3	B-AC4	B-AC5	B-AC6	B-AC7	B-AC8	B-AC9	B-AC10	B-AC11	B-AC12	B-AC13	B-AC14	B-AC15	B-AC16	B-DC1	B-DC2	B-DC3	B-DC4	B-DC5	B-DC6	B-DC7	B-DC8	B-DC9	B-DC10	B-DC11	B-DC12	B-DC13	B-DC14	B-DC15	B-DC16	B-Ph1	B-Ph2	B-Ph3	B-Ph4	B-Ph5	B-Ph6	B-Ph7	B-Ph8	B-Ph9	B-Ph10	B-Ph11	B-Ph12	B-Ph13	B-Ph14	B-Ph15	B-Ph16	aux-1	digaux	

1970.957	1	1	0	768	0.12705	0.069542	0.1446	0.15451	0.094675	0.055858	0.27901	0.14554	0.14455	0.079202	0.082565	0.16122	0.23217	0.075802	0.021269	0.07211	-0.95208	-1.9625	-2.1667	-1.5542	-2.15	-1.4813	-1.7938	-2.2479	-1.3146	-1.9271	-2.3396	-1.3042	-2.2292	-1.825	-1.5229	-2.4313	107.651	178.444	242.370	272.471	94.211	103.969	335.685	348.462	48.543	62.174	150.881	228.035	352.640	272.333	198.939	223.487	0.00025263	0.00097846	0.00042897	811.72	1.1977e-05	4.1735e-05	965.48	262.5	2.3141e-05	2.9936e-05	357.51	124.72	82.719	32.338	5.2766e-06	54.61	0.020329	0.023548	0.006572	1179.6	0.00025192	0.00025832	1351.9	399.62	0.00024907	0.00025298	597.5	195.67	153.44	56.52	0.00024237	86.812	140.554	205.619	70.917	5.644	175.556	94.166	5.705	10.642	148.918	257.384	9.261	14.426	16.090	20.234	155.109	17.852	-8191	255	
1971.054	1	1	0	0	0.013819	0.32882	0.1551	0.12765	0.19706	0.20328	0.085933	0.15124	0.2436	0.20589	0.18295	0.22404	0.097609	0.16157	0.0852	0.14103	-1.0021	-1.6833	-2.1354	-1.4542	-2.1667	-1.8771	-1.7271	-2.3688	-1.7125	-1.7167	-2.2875	-1.5063	-2.2083	-2.0479	-1.4667	-2.2438	113.085	307.344	32.024	330.023	220.263	119.594	39.163	280.405	200.070	241.481	-4.914	313.426	72.256	257.674	99.616	280.282	0.00029681	0.0023084	0.0003919	802.25	6.8621e-06	2.9136e-05	958.96	258.03	1.1362e-05	3.3059e-05	354.04	123.32	82.359	31.969	3.6425e-05	54.1	0.019271	0.022228	0.0062012	1146	0.00023598	0.0002406	1310.6	386.22	0.00023017	0.00023582	578.37	190.18	148.71	55.014	0.00023361	85.52	235.338	184.671	19.783	5.339	102.549	128.201	5.642	10.820	97.577	337.323	9.719	14.897	15.696	19.553	-6.052	18.428	-8191	255	
1971.150	1	1	0	0	0.20431	0.10836	0.058861	0.068445	0.099686	0.14344	0.40046	0.35754	0.0091039	0.084749	0.20956	0.25624	0.12458	0.055462	0.18208	0.050724	-1.2938	-1.6917	-2.3667	-1.4771	-2.1917	-2.0958	-1.5875	-2.2292	-1.6083	-1.4125	-2.3604	-1.6667	-2.0604	-2.1875	-1.2583	-2.4938	188.943	216.350	321.129	311.343	316.222	124.856	18.064	278.674	221.111	263.712	303.810	274.205	352.688	130.473	114.393	146.914	0.00027026	0.0026267	0.00057216	807.45	1.093e-05	4.7584e-05	960.35	260.01	3.4494e-05	1.8538e-05	357.03	124.5	81.804	32.427	1.5817e-05	55.294	0.018648	0.021746	0.0060412	1138.1	0.00023102	0.00023786	1311.6	385.02	0.00022734	0.00023171	573.91	189.07	147.32	54.821	0.00022614	84.884	208.685	143.235	255.943	5.915	233.632	322.255	5.660	11.120	139.839	13.267	9.369	14.623	15.339	19.896	-3.496	17.968	-8191	255	
1971.246	1	1	0	0	0.077608	0.34206	0.17526	0.13966	0.010882	0.21559	0.039094	0.30398	0.21727	0.12186	0.11817	0.22606	0.10937	0.045395	0.13783	0.17014	-1.3646	-1.7083	-2.15	-1.3813	-1.9042	-1.95	-1.5438	-2.3396	-1.6792	-1.5896	-2.3667	-1.275	-1.8625	-2.1083	-1.2292	-2.3208	213.376	9.197	118.444	115.568	229.505	344.779	-1.146	306.574	101.707	285.268	30.031	302.644	251.889	335.733	152.500	194.866	0.00016499	0.0028764	0.00077825	807.26	1.3462e-05	1.2369e-05	963.12	262.33	3.1841e-05	2.7446e-05	362.94	126.86	82.874	33.375	2.2593e-05	56.375	0.018061	0.020973	0.0058116	1128.9	0.00022112	0.0002281	1295.6	380.77	0.00021915	0.00022319	570.6	189.29	146.22	54.71	0.00021809	85.257	95.088	37.606	114.127	5.745	96.672	145.386	5.497	10.688	87.436	204.633	9.457	14.743	15.300	19.848	335.580	17.929	-8191	255	
1971.342	1	1	0	0	0.083841	0.10184	0.31023	0.32426	0.15743	0.19646	0.2011	0.10803	0.15729	0.30497	0.20759	0.19719	0.27322	0.088151	0.073877	0.17326	-1.5	-1.3979	-2.2708	-1.5792	-1.7083	-2.0125	-1.3896	-2.1854	-1.9417	-1.4042	-2.4437	-1.5688	-1.6583	-2.2021	-1.3917	-2.125	296.453	117.654	331.406	347.643	194.872	287.482	280.852	97.859	329.966	255.360	59.083	236.541	105.357	333.405	114.582	315.545	7.9644e-05	0.0014443	0.0010036	815.59	2.5575e-05	3.1927e-05	961.81	262.32	3.2716e-05	2.7601e-05	361.53	127.95	83.611	33.617	2.0468e-05	57.399	0.017401	0.020108	0.0055534	1112.4	0.00021095	0.00021635	1275.6	375.17	0.00020796	0.00021262	559.45	186.74	143.53	53.728	0.00020503	83.742	86.570	91.020	169.296	5.443	13.590	231.410	5.676	10.840	123.259	1.530	9.643	14.617	15.872	19.454	106.237	18.169	-8191	255	
1971.438	1	1	0	0	0.0782	0.12025	0.10654	0.27933	0.090164	0.14043	0.15645	0.29513	0.088838	0.13925	0.047581	0.33302	0.26711	0.23977	0.039774	0.15305	-1.5896	-1.3417	-2.0771	-1.7062	-1.5958	-2.3417	-1.4062	-1.9271	-1.9688	-1.4625	-2.1396	-1.7083	-1.8021	-2.3083	-1.3	-1.9417	171.968	88.432	263.872	348.624	82.543	67.134	66.796	264.466	290.730	109.143	53.890	293.192	306.326	332.136	134.339	1.371	0.00047627	0.00095597	0.00046638	797.22	2.28e-05	1.6254e-05	956.65	259.09	2.038e-05	1.3832e-05	356.15	125.56	81.951	33.38	1.2045e-05	56.223	0.016385	0.018975	0.0052318	1077.4	0.00019994	0.00020493	1247.1	365.91	0.00019781	0.00020161	542.58	181.06	139.06	52.134	0.00019617	81.578	195.582	250.544	32.150	5.678	179.096	125.690	5.493	10.902	212.953	244.039	9.526	14.093	15.727	19.624	80.606	17.903	-8191	255	
1971.559	1	1	0	0	0.22297	0.062716	0.33683	0.2533	0.092624	0.28143	0.18733	0.21752	0.28434	0.060713	0.22028	0.27849	0.075317	0.32326	0.12405	0.20099	-1.7417	-1.3604	-2.1354	-1.7792	-1.5812	-2.2333	-1.5104	-1.7104	-1.9062	-1.3792	-2.1312	-1.7792	-1.3771	-2.2625	-1.2917	-2.0938	221.639	112.844	284.697	339.380	-5.806	322.452	253.115	265.237	179.894	293.381	240.111	-6.214	2.932	200.745	176.646	263.338	0.0004255	0.002183	0.00049671	800.13	3.3233e-05	1.7618e-05	948.01	259.71	1.7362e-05	2.6797e-05	356.56	125.7	81.737	32.953	1.3135e-05	55.648	0.015758	0.018178	0.0050436	1068	0.0001953	0.00019983	1235.6	364.06	0.00019413	0.00019881	538.94	179.8	136.94	51.386	0.00018897	80.322	196.335	178.053	120.532	5.517	270.122	352.834	5.491	10.869	262.956	67.534	10.426	14.352	15.759	20.041	187.510	17.721	-8191	255	
1971.653	1	1	0	0	0.25065	0.22988	0.19273	0.11701	0.2715	0.13444	0.18786	0.18831	0.26182	0.1603	0.26118	0.082068	0.27446	0.12014	0.13092	0.21118	-1.7583	-1.3583	-2.1104	-1.9188	-1.3396	-2.2458	-1.6125	-1.7333	-2.1958	-1.2979	-2.1917	-1.9979	-1.4271	-2.1562	-1.6167	-1.8646	220.150	72.570	184.639	57.854	113.467	22.179	220.758	307.619	224.067	286.451	231.218	347.507	159.141	258.362	281.582	7.305	0.00020853	0.0026566	0.00039924	800.79	1.3327e-05	3.2188e-05	957.24	257.93	1.7385e-05	3.2785e-05	358.71	126.7	82.97	33.507	9.8661e-06	56.979	0.015065	0.017306	0.0047748	1055.3	0.00018421	0.00018913	1226.6	357.71	0.00018494	0.00018857	533.84	178.88	136.06	51.391	0.00018609	80.961	224.541	316.160	173.953	5.657	163.708	335.633	5.764	11.087	339.272	32.652	9.573	14.345	15.633	19.831	178.286	18.161	-8191	255	
1971.749	1	1	0	0	0.1783	0.21227	0.081424	0.077636	0.061847	0.07272	0.18279	0.38286	0.10956	0.24497	0.3531	0.026822	0.057129	0.14695	0.031808	0.20907	-1.8062	-1.4042	-2.1417	-2.1479	-1.4188	-2.2625	-1.7854	-1.7354	-2.275	-1.4146	-2.0375	-1.8479	-1.1771	-2.3	-1.7167	-1.6437	256.839	294.224	117.777	5.367	103.462	299.958	272.468	313.799	347.006	98.807	312.108	92.096	12.664	307.096	17.249	243.587	8.1953e-05	0.0012743	0.00037545	806.45	2.1694e-05	7.2183e-06	964.62	263.38	2.5649e-05	2.208e-05	367.61	128.91	85.051	34.332	7.9896e-06	57.366	0.01495	0.017285	0.0048115	1058.6	0.00018464	0.00018823	1230.1	360.44	0.00018371	0.00018831	539.01	181.69	138	52.223	0.00018827	82.467	305.512	29.165	173.558	5.740	148.342	148.602	5.639	11.074	70.007	115.583	9.595	14.546	15.528	20.297	333.847	18.300	-8191	255	
1971.846	1	1	0	0	0.23761	0.16038	0.091057	0.057017	0.031291	0.18721	0.091398	0.048337	0.062821	0.12835	0.14177	0.15437	0.32146	0.12037	0.19039	0.067409	-1.9375	-1.2313	-1.9542	-2.2333	-1.2458	-2.2562	-1.7167	-1.4625	-2.2438	-1.4542	-2.0563	-2.2354	-1.3896	-2.3292	-1.7938	-1.6771	0.360	81.499	319.458	121.018	2.097	222.578	119.158	85.360	337.177	79.233	35.657	342.915	323.337	165.361	333.396	162.900	0.00017086	0.0023128	0.00078789	807.45	1.4866e-05	3.9278e-05	965.8	262.93	1.4204e-05	1.9303e-05	363.27	127.28	82.732	33.482	2.3455e-05	57.612	0.015274	0.017828	0.0049558	1074.1	0.00019296	0.00019795	1246.6	366.52	0.00019245	0.00019759	543.63	181.51	138.13	52.097	0.000193	82.119	161.516	66.965	85.667	5.980	195.760	186.083	5.597	11.030	135.393	299.141	9.531	14.333	15.675	19.496	9.685	18.076	-8191	255	
1971.942	1	1	0	0	0.1201	0.10418	0.15759	0.18807	0.16817	0.23836	0.2081	0.11821	0.34227	0.076917	0.22412	0.2244	0.052553	0.32865	0.12457	0.21224	-1.9417	-1.3125	-1.6917	-2.3208	-1.1792	-2.025	-2.0771	-1.4458	-2.2958	-1.4729	-1.6875	-2.4208	-1.3813	-2.0896	-1.9375	-1.4979	258.151	324.246	344.866	306.799	81.159	39.872	314.465	70.315	56.049	36.757	143.296	0.374	194.664	310.573	286.315	85.443	7.268e-05	0.0015779	0.00036737	800.54	8.2608e-06	5.5185e-06	961.37	258.46	2.485e-05	2.1564e-05	361.04	125.86	82.118	33.098	2.7614e-06	56	0.015516	0.018088	0.0050721	1077.1	0.0001973	0.0002025	1250.6	366.76	0.00019892	0.00020239	547.04	182.23	139.69	52.638	0.0002022	82.756	119.393	165.788	129.911	5.730	175.190	42.815	5.435	10.891	332.171	132.502	9.747	14.660	15.750	20.316	303.117	18.473	-8191	255	
1972.038	1	1	0	0	0.19608	0.14095	0.04718	0.16762	0.21972	0.25396	0.19643	0.23354	0.48069	0.25155	0.23411	0.078031	0.014569	0.28304	0.12002	0.088997	-2.0104	-1.7021	-1.6417	-2.3958	-1.5771	-1.9104	-2.0771	-1.4354	-2.2687	-1.6354	-1.7104	-2.2292	-1.5083	-1.9188	-1.9146	-1.3604	127.594	231.914	337.730	65.613	332.093	87.836	311.628	47.577	281.452	304.985	304.758	171.200	119.626	338.523	330.359	271.568	0.00067719	0.0024303	0.00025869	805	2.3749e-05	1.5811e-05	963.52	259.82	4.1783e-05	3.2137e-05	359.96	125.31	83.505	33.144	1.3648e-05	55.974	0.016281	0.019005	0.0052891	1093.5	0.00020465	0.00020932	1266.4	370.57	0.00020232	0.00020706	551.38	182.86	140.5	52.866	0.00020232	82.676	192.535	58.550	233.064	5.640	349.883	142.893	5.281	10.562	174.318	185.897	9.556	14.396	15.289	19.647	140.825	18.065	-8191	255	
1972.134	1	1	0	0	0.049905	0.040432	0.088727	0.23311	0.24121	0.1021	0.080809	0.23763	0.44871	0.35994	0.3059	0.1619	0.1901	0.34216	0.091277	0.074241	-1.7979	-1.8083	-1.4896	-2.3979	-1.3583	-1.9146	-2.4458	-1.5875	-1.9771	-1.7333	-1.2625	-2.3042	-1.4417	-1.7708	-2.2042	-1.5063	135.066	105.366	11.211	305.746	73.312	52.173	235.464	313.407	119.564	333.967	312.726	290.159	348.412	253.248	335.406	304.643	0.00037194	0.0031147	0.00087904	809.02	2.0492e-05	3.5975e-05	961.09	261.26	4.8422e-06	2.6157e-05	361.38	125.92	83.278	33.887	1.0587e-05	57.156	0.016183	0.018875	0.0052245	1092.8	0.00020064	0.00020471	1260.5	368.59	0.00019735	0.00020387	549.84	182.81	139.91	52.858	0.00019922	83.127	171.836	-1.826	194.508	5.432	101.062	12.798	5.604	10.753	254.544	346.265	10.100	14.533	15.616	19.917	81.039	18.527	-8191	255	
1972.255	1	1	0	0	0.10597	0.17152	0.21925	0.20075	0.060146	0.14355	0.26479	0.17597	0.30157	0.19056	0.26266	0.32131	0.20018	0.067548	0.10787	0.3112	-1.8292	-1.8687	-1.3458	-2.3292	-1.4042	-1.7354	-2.3792	-1.2479	-1.9854	-1.8667	-1.4604	-2.3667	-1.6521	-1.8	-2.3708	-1.5771	4.317	38.768	88.131	331.622	311.617	123.706	279.648	325.650	69.032	160.332	46.980	322.663	212.314	237.608	253.912	181.668	0.00043799	0.0012391	0.00061928	814.79	2.5718e-05	1.9845e-05	969.24	263.23	3.0768e-06	4.1717e-06	362.11	127.1	83.283	33.807	4.2934e-06	56.993	0.015948	0.018663	0.0052045	1092.5	0.00020033	0.00020478	1268	371.54	0.0002011	0.00020632	553.31	184.2	140.65	53.181	0.00019878	82.815	239.170	346.112	27.694	5.659	154.384	79.736	5.894	10.487	128.089	279.647	10.307	14.788	15.697	19.905	72.967	17.584	-8191	255	
1972.351	1	1	0	0	0.10634	0.20396	0.23423	0.19664	0.20402	0.32731	0.21735	0.067318	0.10913	0.35457	0.047581	0.047668	0.27977	0.24595	0.11493	0.32746	-1.5271	-2.1188	-1.1479	-2.2479	-1.5833	-1.6063	-2.3167	-1.5583	-1.8542	-2.0938	-1.4979	-2.0875	-1.8042	-1.6458	-2.1521	-1.3438	244.317	38.794	163.388	209.189	173.705	68.567	35.966	311.690	108.058	199.207	281.165	251.612	350.425	275.448	175.419	288.764	9.0272e-05	0.0023325	0.00073569	806.34	1.2388e-05	1.1594e-05	961.63	259.66	5.1236e-06	5.638e-06	357.16	125.4	82.094	33.089	8.7216e-06	55.864	0.015681	0.018211	0.0050415	1074.6	0.00019154	0.00019623	1238.6	361.13	0.00019049	0.00019425	534.74	177.33	134.91	51.204	0.00018715	80.209	82.950	345.367	29.089	5.704	176.100	133.335	5.531	10.150	137.407	59.803	9.638	14.628	15.681	20.219	264.562	18.537	-8191	255	
1972.445	1	1	0	0	0.20967	0.063524	0.07184	0.08836	0.35876	0.088388	0.10339	0.32463	0.0462	0.13696	0.098664	0.18282	0.068144	0.20905	0.16755	0.29539	-1.4688	-2.1229	-1.1583	-2.1792	-1.5958	-1.5812	-2.2687	-1.4625	-1.4833	-2.0667	-1.3208	-2.3271	-1.8479	-1.4625	-2.0958	-1.6375	181.947	135.940	225.376	308.885	214.026	82.461	6.538	12.786	7.693	271.969	230.345	53.206	217.298	15.948	338.862	24.130	0.0003433	0.00082283	0.00035741	803.13	1.4732e-05	1.5783e-05	957.43	259.04	1.3347e-05	1.9934e-05	357.51	124.25	81.516	32.737	5.1985e-06	55.09	0.015057	0.017724	0.0049419	1067.9	0.00019112	0.00019677	1239.3	361.88	0.00019319	0.00019887	541.26	180.09	138.31	52.064	0.00019836	81.391	157.170	279.604	287.947	5.398	170.198	144.076	5.647	11.033	330.798	92.131	9.867	14.320	14.826	20.154	186.152	17.745	-8191	255	
1972.519	1	1	0	0	0.25227	0.13151	0.17014	0.17783	0.042279	0.13015	0.34916	0.30072	0.26627	0.17349	0.22446	0.27129	0.28136	0.093682	0.052333	0.18843	-1.0542	-2.1833	-1.3708	-2.0479	-1.8979	-1.4208	-2.4458	-1.4604	-1.6083	-2.1667	-1.4562	-2.1417	-1.8937	-1.3229	-2.2958	-1.6729	37.198	78.338	77.224	35.975	189.453	223.591	238.853	230.831	349.340	164.626	294.052	308.173	283.402	316.175	258.461	177.615	0.00029457	0.0016321	0.00048868	807.12	1.6506e-05	4.8228e-05	961.65	259.11	9.8575e-06	3.2072e-05	357.31	125.46	81.626	33.193	1.9512e-05	56.286	0.015879	0.018687	0.005184	1084.8	0.00020002	0.00020504	1261.3	367.89	0.00020296	0.00020984	551.8	183.47	141.29	53.167	0.00020597	83.725	212.760	301.076	93.389	5.474	293.996	151.632	5.154	10.537	109.097	130.141	9.342	14.785	15.616	19.597	308.517	18.014	-8191	255	
1972.637	1	1	0	0	0.12874	0.085078	0.38932	0.035797	0.014842	0.20153	0.35772	0.086251	0.24196	0.23194	0.34875	0.18519	0.15988	0.030478	0.1673	0.033612	-1.1437	-2.2625	-1.4125	-2.1229	-1.9521	-1.2583	-2.4188	-1.5562	-1.6104	-2.2479	-1.5458	-1.9083	-2.1854	-1.3687	-2.2146	-1.8813	285.592	231.172	323.584	316.164	347.633	265.626	291.631	54.672	110.838	118.514	295.641	335.399	147.439	310.604	307.171	294.264	0.00039099	0.0020083	0.0004219	816.3	7.8589e-06	1.3653e-05	977.6	261.59	4.9113e-06	2.5278e-05	359.96	126.36	82.191	33.477	2.7957e-05	57.352	0.016602	0.019497	0.0053639	1107.6	0.00020832	0.00021304	1280	372.48	0.00020642	0.00021139	557.4	185.51	142.36	53.79	0.00020607	84.403	210.651	281.899	223.441	5.367	163.878	110.445	5.499	10.756	261.850	70.932	9.595	14.505	15.308	19.330	22.038	18.275	-8191	255	
1972.734	1	1	0	0	0.14448	0.42182	0.21271	0.15672	0.16878	0.1322	0.094934	0.12688	0.094056	0.10953	0.095613	0.14229	0.35172	0.041901	0.063027	0.15306	-1.0146	-2.2146	-1.2771	-1.7521	-2.0771	-1.1146	-2.1521	-1.5458	-1.3646	-2.2021	-1.6417	-1.6479	-2.0542	-1.4271	-2.1021	-2.05	306.825	303.409	247.300	300.955	275.121	58.985	317.718	280.943	232.171	324.863	331.656	11.104	325.884	258.382	257.723	327.977	0.00028195	0.0011514	0.00097767	819.56	1.6095e-05	4.1487e-05	974.27	260.26	2.9094e-05	9.5123e-06	362.57	126.41	81.809	33.237	2.5579e-05	56.217	0.016751	0.019411	0.0054161	1112.4	0.00021114	0.00021568	1289.1	377.15	0.00021639	0.00022183	568.7	190.03	147.61	55.632	0.0002271	87.243	156.248	73.184	325.839	5.405	180.137	210.216	5.861	10.797	266.407	345.443	9.325	14.163	15.717	19.503	148.947	18.052	-8191	255	
1972.830	1	1	0	0	0.15661	0.19322	0.33093	0.16927	0.11622	0.17328	0.19009	0.034123	0.19628	0.040089	0.35037	0.39352	0.3028	0.15703	0.10349	0.24962	-0.78333	-2.0979	-1.2812	-1.5562	-2.2021	-1.1708	-2.0458	-2.0229	-1.2854	-2.1188	-1.7521	-1.7646	-2.2375	-1.3979	-1.7896	-2.0896	154.295	271.861	26.940	241.743	50.650	116.392	247.639	245.382	159.237	211.178	4.988	244.960	48.426	22.550	201.957	334.187	0.00022137	0.0028926	0.00033039	816.7	2.0107e-05	3.3494e-05	978.36	260.45	2.3137e-05	7.4111e-06	358.77	125.54	82.524	33.057	8.628e-06	56.186	0.018694	0.021848	0.006107	1155.3	0.00023847	0.00024566	1336.1	393.48	0.0002435	0.00025006	595.51	197.86	155.06	57.77	0.00024754	89.747	133.472	178.407	308.625	5.624	91.825	88.082	5.387	10.627	192.304	281.010	9.880	14.835	14.904	19.794	161.740	18.111	-8191	255	
1972.950	1	1	0	0	0.12286	0.23701	0.17154	0.28229	0.12529	0.1527	0.1206	0.097054	0.12234	0.20718	0.20249	0.23733	0.26343	0.22085	0.22686	0.087099	-0.925	-2.2646	-1.6167	-1.4438	-2.3354	-1.2792	-1.9104	-2.0438	-1.4292	-2.025	-1.7521	-1.4458	-2.0521	-1.4271	-1.7	-2.1521	43.419	104.929	243.567	336.841	138.112	289.556	286.441	280.143	286.284	34.342	77.103	288.251	337.344	212.257	68.815	213.165	0.00045312	0.0018186	0.00017635	823.88	1.3994e-05	3.4932e-05	977.16	262.32	9.1634e-06	1.576e-05	358.9	125.58	82.45	33.57	1.8111e-05	56.921	0.01987	0.022946	0.0064	1177.8	0.00024919	0.00025341	1349.1	397.86	0.00024431	0.00024794	593.08	196.69	153.92	57.632	0.00024711	90.235	152.598	117.829	43.767	5.264	145.632	234.247	5.623	10.434	344.666	113.555	9.428	14.394	14.987	19.936	150.213	17.902	-8191	255	
1973.047	1	1	0	0	0.12917	0.14383	0.044934	0.15926	0.078298	0.062965	0.31702	0.20412	0.26028	0.063552	0.17147	0.242	0.14785	0.29477	0.24564	0.23446	-0.90208	-1.8521	-1.7479	-1.3771	-2.2271	-1.2979	-1.8292	-2.2792	-1.3667	-2.0625	-1.9521	-1.5479	-2.2521	-1.5083	-1.5458	-2.1667	260.950	61.439	122.783	330.069	26.573	310.630	321.953	24.973	301.604	9.779	-4.773	320.218	47.969	15.391	100.859	274.790	0.00091295	0.0014813	0.0002142	823.34	3.5955e-06	3.9923e-05	985.94	263.46	3.4389e-05	3.7867e-05	358.82	127.64	83.519	33.886	2.1942e-05	57.732	0.020185	0.02353	0.0066585	1194.4	0.00025931	0.00026632	1381.9	408.71	0.00026207	0.00026806	616.54	204.09	159.83	60.03	0.00026466	93.353	129.034	283.727	149.638	5.447	97.655	67.549	5.830	10.364	133.110	148.673	9.155	14.721	15.365	19.785	181.015	17.947	-8191	255	
1973.118	1	1	0	0	0.15997	0.031996	0.11263	0.077561	0.078496	0.059247	0.21466	0.16269	0.26768	0.046474	0.37927	0.31302	0.1283	0.19333	0.09599	0.11963	-0.93542	-1.8646	-1.8771	-1.2458	-2.2021	-1.5354	-1.8062	-2.1688	-1.3687	-1.8813	-2.1354	-1.3354	-2.1562	-1.7687	-1.4979	-2.2354	117.883	258.611	195.656	209.687	142.444	212.229	266.069	311.508	38.943	324.881	9.550	292.554	34.148	306.069	300.882	254.430	0.00027046	0.0021082	0.00057884	828.38	6.9976e-06	3.0399e-05	986.35	263.59	7.4876e-06	1.3826e-05	363.54	129.08	83.679	33.931	4.0843e-05	56.841	0.021337	0.024733	0.0069268	1214.8	0.00026563	0.00027266	1398.2	411.12	0.00026212	0.00026705	617.56	204.61	159.88	60.046	0.00026589	93.093	217.513	212.843	225.771	5.583	120.970	113.798	5.404	10.354	101.740	119.083	9.732	14.798	15.264	20.029	162.650	18.018	-8191	255	
1973.239	1	1	0	0	0.076538	0.16964	0.21841	0.13795	0.16466	0.11417	0.10666	0.16006	0.29831	0.15548	0.17729	0.19667	0.27965	0.051944	0.37791	0.060551	-0.94375	-1.8625	-1.9792	-1.4521	-2.1583	-1.7917	-1.5771	-2.4625	-1.4562	-1.8479	-2.3042	-1.4708	-2.2396	-1.8125	-1.5458	-2.2208	345.831	184.107	110.856	75.505	52.085	164.750	346.713	26.344	17.425	131.384	158.988	43.976	320.090	162.668	348.175	124.597	0.00022342	0.0039807	0.0011923	823.58	2.7077e-05	7.0908e-06	983.69	259.77	3.4888e-06	1.4747e-05	354.39	125.76	82.767	33.157	2.27e-05	55.826	0.021097	0.024521	0.0067983	1200.5	0.00025869	0.00026608	1374.5	404.2	0.00025599	0.00026257	606.04	199.86	157	58.629	0.00025748	90.717	261.678	291.144	155.205	5.402	218.950	60.789	5.615	10.759	69.128	63.856	9.415	14.716	15.719	19.573	131.248	18.059	-8191	255	
1973.335	1	1	0	0	0.11286	0.25328	0.084351	0.2033	0.28411	0.044692	0.11077	0.039384	0.13221	0.083379	0.10774	0.24019	0.22661	0.16139	0.22823	0.29024	-1.1271	-1.5938	-1.9271	-1.3292	-2.2604	-1.8	-1.6854	-2.5125	-1.6208	-1.6979	-2.3	-1.375	-2.0896	-2.0812	-1.5604	-2.5417	246.896	26.164	53.390	351.356	86.520	111.654	78.171	182.701	242.992	332.202	-1.747	29.283	32.801	63.149	333.837	255.639	0.00052401	0.0018286	0.00068563	807.44	2.7174e-05	8.3343e-06	968.47	258.2	3.176e-05	1.7431e-05	356.68	125.85	82.306	33.139	1.6121e-05	56.468	0.020578	0.023898	0.006696	1184.6	0.00025749	0.00026487	1363.4	400.74	0.00025618	0.00026344	608.25	201.15	158.52	59.484	0.00026359	91.946	172.516	81.266	74.521	5.491	19.371	104.510	5.685	10.498	54.928	321.246	9.413	14.338	14.642	19.599	32.529	18.162	-8191	255	
1973.431	1	1	0	0	0.13452	0.10088	0.060271	0.23664	0.059268	0.046962	0.2558	0.17396	0.044578	0.18069	0.12418	0.14876	0.24995	0.18056	0.16004	0.12341	-1.1	-1.6229	-2.15	-1.3354	-2.0187	-1.9604	-1.5729	-2.2417	-1.6313	-1.4479	-2.3021	-1.3104	-1.95	-2.0229	-1.1063	-2.0208	328.756	288.321	322.437	307.861	127.547	23.287	301.113	259.551	222.973	6.582	324.478	267.484	292.220	350.035	155.473	16.304	0.00024135	0.0014255	0.00078163	803.59	6.1028e-06	1.3765e-05	963.52	259.05	1.4331e-05	3.1579e-05	360.24	126.45	82.56	33.736	5.2354e-06	57.152	0.021142	0.024734	0.0068718	1192.4	0.00026452	0.00027359	1377.3	408.06	0.00026721	0.00027585	620.58	205.83	161.62	60.671	0.00026956	93.355	94.724	278.891	59.283	5.888	102.279	338.899	5.433	10.654	159.033	88.254	9.629	14.285	15.186	19.773	133.239	18.751	-8191	255	
1973.550	1	1	0	0	0.074101	0.18778	0.069963	0.080499	0.21177	0.15668	0.22767	0.094985	0.21766	0.11319	0.13438	0.23314	0.17376	0.17937	0.163	0.043142	-1.2292	-1.3875	-2.4104	-1.4042	-1.7771	-1.8042	-1.2792	-2.2417	-1.6417	-1.2146	-2.3708	-1.5667	-1.7979	-2.2417	-1.1542	-2.0708	343.133	140.363	70.549	323.079	244.891	331.341	305.831	347.826	183.493	312.339	-0.090	-6.081	343.908	306.165	209.197	9.986	0.00050523	0.0014488	0.00036021	804.69	1.2581e-05	1.5443e-05	968.84	259.85	2.4466e-05	2.8264e-05	364.32	129.58	83.725	34.17	1.539e-05	57.718	0.021311	0.024491	0.0067621	1178.6	0.00025537	0.00026122	1348.2	397.76	0.00024646	0.00025035	596.15	198.02	153.01	57.352	0.00023223	88.58	185.351	299.590	40.234	5.696	19.328	115.760	5.762	10.447	266.248	196.693	9.841	14.829	15.695	20.222	200.074	18.180	-8191	255	
1973.646	1	1	0	0	0.082822	0.059049	0.16455	0.12022	0.12331	0.10584	0.11444	0.23279	0.11302	0.21683	0.03129	0.34223	0.25349	0.39729	0.25	0.20659	-1.3292	-1.2437	-2.1417	-1.3813	-1.6396	-2.2042	-1.5625	-2.1042	-1.8104	-1.3021	-2.1937	-1.5063	-1.6667	-2.2396	-1.1604	-1.9104	43.664	103.802	276.386	72.147	230.063	112.264	339.656	285.852	84.948	34.999	112.810	301.717	144.595	338.656	170.952	303.036	0.00032437	0.002348	0.00088239	813.14	8.6902e-06	1.7486e-05	969.72	262.76	3.8066e-05	2.2414e-05	361.68	127.58	84.354	33.476	2.0995e-05	56.943	0.018291	0.021024	0.0057805	1124.9	0.0002214	0.00022822	1301.3	383.48	0.00022032	0.0002281	575.54	191.99	148.73	55.721	0.00022528	86.812	210.046	263.688	167.952	5.920	288.749	64.840	5.395	10.979	158.856	274.606	9.661	14.080	15.803	19.893	122.459	18.076	-8191	255	
1973.742	1	1	0	0	0.30997	0.24361	0.064375	0.22443	0.11801	0.047707	0.38692	0.12931	0.2168	0.1711	0.034542	0.18092	0.19496	0.26925	0.085886	0.097795	-1.5271	-1.2333	-2.0771	-1.8229	-1.5354	-2.2833	-1.4229	-1.9042	-2.1479	-1.3062	-2.2687	-1.8062	-1.5167	-2.2938	-1.4167	-1.8771	88.130	299.223	192.049	309.448	211.027	143.263	323.006	320.061	328.800	246.227	114.682	260.706	274.718	343.835	235.645	56.756	0.00051098	0.0026749	0.00030965	811.25	2.0788e-05	2.9098e-05	972.96	258.94	2.0653e-05	5.206e-05	357.27	124.19	82.544	32.613	1.6641e-05	55.313	0.018176	0.020917	0.0057863	1125.1	0.00022183	0.00022662	1297.4	380.65	0.00022169	0.00022714	571.91	189.29	147.25	54.677	0.00022361	84.984	230.661	-4.543	113.580	5.559	50.313	258.519	5.440	10.982	274.527	251.437	9.676	14.275	15.055	19.531	302.905	18.118	-8191	255	
1973.814	1	1	0	0	0.051806	0.077627	0.099831	0.30145	0.16308	0.22572	0.2184	0.15731	0.30299	0.15349	0.14712	0.39567	0.11742	0.29741	0.10812	0.14582	-1.7292	-1.2167	-2.1792	-1.9542	-1.4396	-2.2188	-1.5562	-1.7417	-2.1917	-1.4104	-2.0979	-1.975	-1.6208	-2.2458	-1.3396	-1.6729	137.228	75.881	73.993	279.920	289.009	311.269	244.775	283.406	257.166	282.715	286.106	325.811	6.278	298.077	78.909	21.211	0.00013627	0.0030778	0.00040607	813.3	1.0012e-05	2.9971e-05	963.28	259.25	1.4392e-05	2.1859e-05	357.79	124.64	82.35	32.721	5.4893e-06	55.673	0.017928	0.020661	0.0056947	1122.8	0.00021915	0.0002219	1285.8	375.65	0.00021267	0.00021412	553.7	182.81	140.19	52.095	0.00019792	81.328	194.734	326.215	295.651	5.742	151.139	294.905	5.603	10.614	116.651	8.978	9.790	13.964	15.231	19.966	206.925	18.040	-8191	255	
1973.935	1	1	0	0	0.46775	0.12981	0.059595	0.19611	0.21125	0.075874	0.19105	0.12116	0.3485	0.34946	0.28004	0.011368	0.22013	0.16216	0.18173	0.34305	-1.5917	-1.3312	-1.7625	-2.2521	-1.2062	-2.325	-1.6583	-1.7125	-2.1396	-1.1667	-2.0583	-1.9646	-1.2188	-2.2646	-1.7271	-1.6125	106.181	293.608	302.357	289.835	290.582	57.038	333.512	245.862	265.825	-0.600	335.769	321.720	238.783	253.278	281.122	264.667	0.00026615	0.00090666	0.00065441	808.1	1.726e-05	1.989e-05	966.18	257.5	9.4701e-06	3.7421e-05	361.06	125.64	81.902	33.068	3.1425e-05	56.864	0.015661	0.018181	0.0050419	1078.9	0.00019454	0.0001984	1245.6	361.76	0.00019128	0.00019484	536.78	179.46	136.69	51.409	0.00018928	81.392	167.393	109.929	115.814	5.940	322.567	341.825	5.250	10.616	-5.412	215.789	9.748	14.414	15.603	20.010	160.346	18.009	-8191	255	
1974.031	1	1	0	0	0.20021	0.37032	0.21829	0.1934	0.23111	0.18096	0.27465	0.22919	0.27377	0.063093	0.17621	0.23591	0.14744	0.26008	0.24614	0.15393	-1.7812	-1.3604	-1.9792	-1.9042	-1.2542	-2.0167	-1.7208	-1.5812	-2.1396	-1.2958	-2.0333	-2.1042	-1.2271	-2.0583	-1.7042	-1.4479	274.380	26.401	326.325	337.724	85.557	197.389	257.451	276.962	343.789	301.384	249.165	31.002	254.791	349.976	79.806	350.518	0.00030567	0.0016112	0.00037888	812.25	1.1607e-05	2.4557e-05	972.71	262.47	1.0682e-05	3.7667e-05	362.09	126.83	81.971	33.472	2.0787e-05	57.241	0.015315	0.01784	0.0049746	1080.9	0.00019259	0.00019777	1258.7	366.19	0.00019196	0.00019563	542.12	181.7	137.8	52.046	0.00019211	81.925	187.016	142.062	87.474	5.489	196.795	78.316	5.186	10.607	102.667	115.857	9.465	14.730	15.115	19.442	226.190	18.124	-8191	255	
1974.127	1	1	0	0	0.23835	0.25694	0.23644	0.20588	0.13967	0.040711	0.17492	0.20974	0.17916	0.28966	0.061832	0.15005	0.16197	0.093784	0.019603	0.43468	-1.8708	-1.3813	-1.8	-2.1937	-1.325	-1.9417	-1.9729	-1.3833	-2.3542	-1.4438	-1.6958	-1.9708	-1.3208	-2.1792	-1.8354	-1.4021	-4.185	331.620	-4.814	351.043	224.501	286.964	264.541	288.897	190.876	43.528	223.727	245.422	79.627	173.557	62.030	319.134	0.00045055	0.0019463	0.00026426	814.49	2.1249e-05	2.716e-05	966.67	258.99	1.8211e-05	1.2398e-05	357.12	124.41	82.155	32.771	9.0454e-06	55.666	0.015311	0.017887	0.004993	1079.9	0.00018945	0.00019043	1237.9	358.7	0.00018451	0.00018853	531.93	177.81	135.72	51.027	0.00019172	81.13	160.262	-1.600	333.065	5.474	233.255	102.848	5.380	10.378	83.497	330.007	9.615	14.267	15.230	19.845	245.347	17.770	-8191	255	
1974.223	1	1	0	0	0.34173	0.069265	0.29146	0.098917	0.1663	0.25761	0.22483	0.36524	0.37157	0.21768	0.13528	0.099573	0.21162	0.090471	0.11223	0.31087	-1.7771	-1.25	-1.675	-2.1896	-1.1938	-1.8521	-2.15	-1.1688	-2.2292	-1.6021	-1.5042	-2.3146	-1.3958	-1.9208	-1.8458	-1.4229	71.116	170.759	159.620	343.095	20.972	42.930	272.469	240.180	-2.118	218.885	29.424	80.353	348.665	322.442	215.128	283.831	5.9041e-05	0.0015222	0.0011622	813.16	1.8889e-05	7.5428e-06	963.31	259.54	1.5586e-05	3.3018e-05	358.33	125.7	82.218	32.775	2.9689e-05	55.571	0.015689	0.018368	0.0051554	1090	0.00020097	0.00020616	1264.1	368.59	0.00020101	0.00020649	548.76	182.52	140.25	52.43	0.0002022	81.899	227.776	165.109	128.302	5.335	149.565	262.712	5.597	10.749	352.481	31.233	10.160	14.424	15.030	19.652	199.817	18.140	-8191	255	
1974.342	1	1	0	0	0.11407	0.065811	0.18717	0.18969	0.20752	0.25396	0.2205	0.17425	0.044224	0.15537	0.25935	0.17943	0.18697	0.24581	0.081471	0.13138	-1.6125	-1.7437	-1.3729	-2.1604	-1.1417	-1.9875	-2.1229	-1.3604	-2.0687	-1.7146	-1.4708	-2.2354	-1.6167	-1.7563	-1.9396	-1.5104	193.787	63.965	194.301	321.986	268.254	322.191	244.910	286.922	60.738	41.565	50.581	228.209	336.482	198.832	61.003	206.815	0.00010695	0.00058072	0.00026689	812.21	2.5135e-05	1.0449e-05	976.27	260.91	1.923e-05	1.9049e-05	361.73	125.76	82.33	32.926	1.1864e-05	56.061	0.016018	0.018652	0.0051646	1086.4	0.00019596	0.00019879	1250	363.53	0.00018861	0.00019346	536.91	178.12	135.92	50.843	0.00018604	80.016	192.438	310.882	185.673	5.586	81.537	133.646	5.806	10.451	242.516	211.483	9.797	14.346	15.702	20.037	131.753	18.049	-8191	255	
1974.415	1	1	0	0	0.32161	0.21027	0.15236	0.27361	0.067257	0.15342	0.28001	0.10473	0.29741	0.11581	0.2904	0.12182	0.16153	0.061619	0.17623	0.14286	-1.8125	-1.8917	-1.3271	-2.3375	-1.4083	-1.6125	-2.1813	-1.2188	-2.0312	-1.9396	-1.3333	-2.4667	-1.4875	-1.8958	-2.1104	-1.275	229.645	312.332	275.587	330.506	49.666	337.189	277.520	130.489	155.965	128.020	312.313	276.722	25.022	219.470	158.801	259.939	0.00022815	0.0018051	0.0001791	813.5	2.4951e-05	1.2103e-05	970.06	260.19	4.4766e-06	2.1285e-05	362.41	127.1	82.217	33.288	3.2219e-06	56.648	0.014679	0.017068	0.0047432	1059.1	0.00017873	0.00018154	1219.3	351.5	0.00016993	0.00017321	516.39	172.88	129.45	48.958	0.00016507	77.58	239.236	36.972	86.202	5.629	331.792	5.197	5.425	10.902	137.671	198.616	9.695	14.482	15.725	20.018	69.211	18.271	-8191	255	
1974.512	1	1	0	0	0.19776	0.11013	0.10893	0.26467	0.17855	0.067213	0.20435	0.34472	0.074416	0.050079	0.045252	0.091012	0.16982	0.19209	0.13831	0.17754	-1.6167	-1.875	-1.3583	-2.3417	-1.5042	-1.4667	-2.2562	-1.4771	-1.9646	-2.0354	-1.4667	-2.1604	-1.525	-1.6125	-2.3521	-1.4896	246.399	61.044	15.674	282.697	306.401	269.743	285.127	316.435	71.913	165.094	295.060	267.307	2.864	316.693	232.246	284.204	0.00042897	0.0013213	0.00074935	820.23	8.1764e-06	3.6583e-05	971	261.63	4.0845e-06	2.4193e-05	357.9	126.13	82.065	32.896	1.1224e-05	55.572	0.013137	0.015418	0.0043035	1038.6	0.00016795	0.0001736	1216.8	352.89	0.00017344	0.00018021	525.44	176.36	134.41	50.938	0.00018757	80.712	197.809	191.618	164.149	5.572	84.964	82.845	5.952	10.961	233.175	231.943	9.714	14.401	15.011	19.992	230.397	18.439	-8191	255	
1974.630	1	1	0	0	0.22263	0.23082	0.10855	0.047883	0.1234	0.069402	0.37888	0.016113	0.25476	0.15795	0.15974	0.085724	0.36558	0.30779	0.2158	0.040693	-1.5792	-2.15	-1.1667	-2.3646	-1.6625	-1.5542	-2.3104	-1.3188	-1.5542	-2.1229	-1.3521	-2.2604	-1.725	-1.325	-2.2208	-1.6354	249.121	225.809	221.289	55.783	142.660	101.544	289.022	247.030	116.289	339.323	78.098	345.549	352.227	346.138	216.312	226.264	0.00037285	0.0026356	0.00030468	816.48	1.2299e-05	1.3184e-06	970.82	259.77	7.1412e-06	3.6231e-05	358.1	124.92	81.543	32.571	1.0416e-05	54.836	0.015391	0.017949	0.0049884	1079.9	0.00019103	0.00019382	1242.7	361.04	0.00018955	0.00019562	537.42	178.97	137.74	51.447	0.00019298	79.986	139.660	115.310	146.284	5.317	235.847	205.069	5.720	10.946	222.531	208.038	9.688	14.204	15.137	19.979	33.495	17.970	-8191	255	
1974.727	1	1	0	0	0.24931	0.042127	0.16674	0.027694	0.12387	0.28367	0.070264	0.13101	0.23402	0.17233	0.23328	0.15219	0.33165	0.29589	0.23641	0.21764	-1.3	-2.1396	-1.3062	-2.1312	-1.8	-1.3188	-2.2146	-1.6104	-1.6375	-2.1896	-1.2667	-2.1417	-2.0896	-1.3146	-2.2062	-1.4854	329.341	341.333	25.952	204.028	239.108	264.518	290.010	306.329	254.749	266.794	282.489	317.451	129.831	269.112	119.965	108.772	0.00025576	0.00041922	0.0003477	819.14	4.06e-06	1.4048e-05	966.16	259.21	1.7747e-05	4.1294e-05	356.59	124.54	81.964	32.646	1.1597e-05	55.547	0.015277	0.017626	0.0048373	1070.4	0.00018367	0.00018662	1227.1	354.79	0.00017598	0.00017871	517.84	171.82	129.71	48.392	0.0001623	75.897	170.233	83.025	160.801	5.700	-1.921	11.135	5.507	10.866	103.738	227.701	9.530	14.808	15.668	20.243	191.792	17.860	-8191	255	
1974.823	1	1	0	0	0.10151	0.12823	0.23191	0.15878	0.34075	0.12308	0.41836	0.06836	0.23255	0.16282	0.29694	0.36525	0.18954	0.21881	0.17264	0.11942	-1.2812	-2.2313	-1.3042	-2.1042	-1.8375	-1.2958	-2.3104	-1.6625	-1.7042	-2.275	-1.5938	-1.9021	-1.8021	-1.1917	-1.9188	-1.8479	185.313	164.074	274.947	-5.386	23.031	9.798	278.754	269.816	302.291	307.954	325.916	332.822	12.924	69.275	131.722	346.195	0.00029141	0.00019759	0.00044268	813.51	1.2351e-05	1.6658e-05	967.52	260.33	1.4636e-05	1.3843e-05	356.51	125.36	82.046	32.711	1.1578e-05	56.184	0.012779	0.014786	0.0040858	1019.4	0.00015671	0.0001607	1186.5	341.54	0.00015701	0.00016081	503.02	168.88	126.82	48.094	0.00015872	76.2	195.818	23.442	137.752	5.599	173.253	98.195	5.667	10.696	208.085	306.208	9.255	14.774	15.610	19.841	209.984	18.319	-8191	255	
1974.919	1	1	0	0	0.093805	0.072712	0.24589	0.18281	0.090886	0.17363	0.11467	0.34013	0.20907	0.043052	0.50426	0.14512	0.11269	0.13092	0.062005	0.10035	-0.85625	-2.2583	-1.3958	-1.9292	-1.9042	-1.1333	-2.3646	-1.5167	-1.4458	-2.0667	-1.5312	-1.9438	-2.0458	-1.5063	-1.9562	-1.8646	70.118	23.604	342.640	80.320	42.382	311.243	235.509	36.197	340.061	71.907	342.262	343.965	254.498	340.949	319.620	295.317	0.00028676	0.0018991	0.00055204	824.14	8.8144e-06	1.3338e-05	981.22	261	6.9049e-06	1.3496e-05	359.18	125.97	82.709	32.697	1.4699e-05	55.848	0.012817	0.0149	0.0041358	1035	0.00015959	0.0001633	1198.4	344.51	0.00015925	0.00016304	507.24	170.18	128.11	48.332	0.00016082	76.538	86.669	293.196	75.957	6.094	64.770	143.036	5.939	10.890	300.591	168.702	9.955	14.797	15.364	20.018	213.137	18.598	-8191	255	
1975.015	1	1	0	0	0.19368	0.06582	0.1755	0.23916	0.17852	0.26828	0.10121	0.078145	0.25282	0.15192	0.12334	0.20063	0.18633	0.32268	0.08151	0.18161	-0.93333	-2.0958	-1.575	-1.875	-2.1375	-1.4771	-2.0854	-2.0438	-1.2875	-2.0896	-1.6688	-1.6229	-2.2125	-1.2646	-2.0979	-1.9438	247.804	195.458	186.786	239.835	10.415	122.199	17.761	2.325	198.955	91.297	322.126	307.917	17.120	42.493	0.239	94.499	0.00025875	0.0019529	0.00045187	824.56	1.47e-05	2.0102e-05	978.09	262.87	8.7754e-06	2.8415e-05	358.77	124.56	82.099	32.634	1.2871e-05	55.188	0.013039	0.015088	0.0042056	1043.6	0.00016194	0.00016494	1201.6	345.75	0.00015915	0.00016112	503.05	168.08	125.89	47.144	0.00015291	74.67	240.569	88.778	40.413	5.816	214.135	159.269	5.717	11.265	315.522	-2.106	9.905	14.859	14.778	20.320	235.021	18.085	-8191	255	
1975.111	1	1	0	0	0.11408	0.13722	0.13692	0.30191	0.056371	0.15292	0.071887	0.056751	0.06489	0.40073	0.15061	0.077315	0.22668	0.086042	0.15266	0.014417	-0.89167	-2.2146	-1.4	-1.4271	-2.0958	-1.2604	-2.0229	-1.95	-1.1583	-2.0167	-1.8333	-1.35	-2.325	-1.2917	-1.9396	-2.0354	79.422	305.318	150.138	284.905	62.625	233.841	205.059	333.943	330.229	217.385	264.529	182.341	-2.079	338.061	255.205	293.538	0.00031188	0.00018413	0.00025234	821.74	1.9901e-05	3.1303e-05	968.99	259.08	3.3928e-06	4.0537e-05	359.66	124.63	82.429	32.489	7.8952e-06	55.141	0.012335	0.014273	0.0040033	1022.9	0.00015321	0.00015499	1175.8	337.92	0.00014975	0.00015158	491.73	164.98	123.21	46.564	0.00014831	74.075	234.288	109.788	78.705	5.638	186.233	207.046	5.237	10.655	179.275	140.177	9.442	14.372	15.816	19.697	231.685	17.589	-8191	255	
1975.232	1	1	0	0	0.1526	0.064198	0.11947	0.47337	0.2943	0.30713	0.33774	0.12745	0.23556	0.1719	0.22251	0.21548	0.20247	0.14209	0.086938	0.41183	-0.85208	-2.1417	-1.7083	-1.4917	-2.1333	-1.4583	-2.1229	-2.1042	-1.4271	-2.0708	-1.8458	-1.225	-2.375	-1.7521	-1.7583	-2.4771	225.410	286.216	140.636	291.561	124.080	72.893	10.764	249.610	31.823	165.973	45.104	210.911	270.735	82.990	223.217	331.525	0.00034465	0.0018595	0.00030683	817.03	1.1691e-05	1.0484e-05	975.45	261.01	1.2746e-05	1.2796e-05	361.81	126.17	82.679	33.372	2.2874e-05	56.287	0.012126	0.014136	0.0039824	1023	0.00015545	0.00015962	1189.7	343.86	0.00015734	0.00016099	505.88	170.32	128.12	48.335	0.00015929	76.598	172.216	17.296	327.662	5.629	41.675	22.050	5.451	10.706	184.121	191.308	9.721	14.480	15.200	19.665	224.033	17.906	-8191	255	
1975.328	1	1	0	0	0.13192	0.16239	0.25351	0.1171	0.31705	0.1303	0.19709	0.096558	0.13486	0.068548	0.074526	0.085094	0.20937	0.40006	0.21734	0.0498	-1.0063	-2.0229	-1.6333	-1.4188	-2.15	-1.5104	-1.7563	-2.1604	-1.3792	-2.0083	-1.8813	-1.5063	-2.2375	-1.5562	-1.4854	-2.3646	203.580	282.563	102.327	247.247	323.527	75.352	347.329	41.836	223.945	149.666	-0.173	229.044	296.475	329.839	21.415	80.262	0.00035194	0.0020385	0.00019549	821.74	1.153e-05	2.8343e-05	974.12	263.83	2.0258e-05	3.7834e-05	364.11	128.27	83.545	33.564	1.5898e-05	56.376	0.012768	0.01481	0.0041255	1032.3	0.00015817	0.0001631	1196.4	347.22	0.00015804	0.0001607	508.61	171.29	128.58	48.683	0.00016022	76.875	189.682	95.871	0.487	5.798	235.130	146.547	5.729	10.686	154.647	-1.748	9.909	14.303	15.410	19.860	179.139	17.979	-8191	255	
1975.424	1	1	0	0	0.22519	0.10436	0.19022	0.23827	0.18796	0.053198	0.14472	0.25614	0.24979	0.054869	0.25795	0.33122	0.25564	0.27553	0.24552	0.22216	-0.98125	-1.8104	-2.0167	-1.3292	-2.0312	-1.6875	-1.5042	-2.2604	-1.3542	-1.9729	-2.1708	-1.3	-2.3583	-1.9396	-1.4312	-2.1937	73.594	292.404	28.382	285.993	148.057	350.814	342.175	302.812	210.240	245.308	87.359	228.708	99.144	10.924	238.917	299.054	0.00023177	0.0015639	0.00063807	827.34	1.1462e-05	1.9873e-05	978.14	264.78	4.152e-06	1.8144e-05	362.21	126.45	82.951	33.198	7.4071e-06	55.301	0.012827	0.014938	0.0041478	1037.9	0.0001598	0.00016502	1204	349.06	0.00016171	0.00016647	511.56	171.59	128.82	48.564	0.00016283	76.192	116.980	313.407	103.739	5.777	242.777	268.381	5.819	10.386	350.758	335.322	9.602	14.127	15.134	19.543	257.806	17.968	-8191	255	
1975.520	1	1	0	0	0.087772	0.23205	0.047577	0.11868	0.34054	0.26758	0.23257	0.22729	0.26587	0.12364	0.37631	0.20784	0.064412	0.2279	0.36554	0.16405	-0.91875	-1.8021	-2.0021	-1.3646	-2.1521	-1.6938	-1.6667	-2.1063	-1.4042	-1.7563	-2.3417	-1.35	-2.0583	-2.0563	-1.4188	-2.3583	150.896	77.110	191.000	290.321	179.372	330.857	259.399	328.056	186.116	-0.748	301.085	158.069	316.117	215.338	18.827	272.815	0.00027071	0.0021847	0.0002797	822.89	2.065e-05	2.3959e-06	968.04	259.95	8.939e-06	2.8359e-05	351.14	123.12	80.381	32.368	2.525e-05	54.187	0.013092	0.0152	0.004233	1037.2	0.00016309	0.00016807	1199.2	345.96	0.00016397	0.00016844	504.88	168.59	128.15	48.312	0.00016804	75.916	104.755	148.559	271.860	5.315	79.601	194.739	5.390	10.935	54.781	67.232	9.475	14.217	15.653	19.907	123.637	18.134	-8191	255	
1975.639	1	1	0	0	0.14179	0.21857	0.17957	0.38625	0.080838	0.13697	0.18479	0.10829	0.19245	0.0065551	0.15368	0.11769	0.10483	0.19489	0.29658	0.35545	-1.1979	-1.5292	-2.1688	-1.4	-1.75	-2.0271	-1.5542	-2.2104	-1.7333	-1.5229	-2.2188	-1.4208	-1.9167	-1.9083	-1.2583	-2.2021	137.131	260.661	15.581	264.499	5.260	45.160	233.638	17.064	2.602	190.061	53.203	20.117	165.478	324.589	39.115	281.812	0.00060049	0.0019996	0.00079527	815.74	1.9487e-05	4.031e-06	965.03	256.27	1.4624e-05	1.9427e-05	348.75	122.88	80.652	31.838	1.4007e-05	54.252	0.013504	0.015609	0.0043328	1038.1	0.00016418	0.00016734	1191.7	340.99	0.00015894	0.00016146	493.17	164.54	123.09	46.518	0.00015096	73.123	205.730	5.848	79.493	5.438	146.448	32.935	5.476	10.765	213.894	339.898	9.564	14.416	15.501	19.743	273.455	18.109	-8191	255	
1975.711	1	1	0	0	0.15558	0.079833	0.11832	0.18428	0.12199	0.16247	0.18161	0.15587	0.22753	0.091232	0.20854	0.13083	0.35556	0.23869	0.14153	0.11025	-1.2896	-1.5792	-2.1792	-1.3771	-1.7146	-2.0875	-1.3583	-2.0958	-1.6917	-1.4417	-2.2333	-1.3146	-1.6792	-1.9854	-1.3	-2.1625	60.595	113.390	230.409	273.668	69.251	11.693	271.303	346.394	290.681	152.815	182.434	223.966	325.639	341.506	169.328	94.895	0.00011603	0.0022103	0.00043648	812.97	6.0364e-06	3.2306e-05	965.25	257.19	1.3158e-05	4.7176e-05	354.4	122.82	81.414	31.977	6.626e-06	54.764	0.01202	0.013977	0.0038705	1009.7	0.00015141	0.00015704	1176.4	337.53	0.00015596	0.00015959	496.25	166.12	124.76	46.915	0.00015365	73.962	205.286	295.273	8.388	5.343	198.848	125.152	5.722	11.034	179.213	239.455	9.127	14.081	15.439	20.364	211.090	18.027	-8191	255	
1975.807	1	1	0	0	0.23409	0.1179	0.12467	0.31292	0.18725	0.23526	0.17114	0.28243	0.11555	0.16988	0.16026	0.2761	0.23479	0.26518	0.12112	0.11607	-1.3937	-1.3979	-2.3417	-1.3937	-1.5083	-2.1375	-1.4979	-2.0333	-1.7104	-1.2229	-2.2792	-1.5104	-1.7188	-2.1729	-1.1021	-2.0771	235.266	241.808	262.884	12.317	332.206	116.307	254.971	302.144	255.463	18.972	337.972	6.444	0.857	66.608	134.509	304.892	0.00023231	0.0039202	0.00031044	810.57	2.3306e-05	3.946e-05	963.75	258.08	1.7651e-05	1.3311e-05	355.92	123.65	81.106	32.419	8.6265e-06	54.919	0.012171	0.014127	0.0038952	1011.5	0.00015125	0.00015485	1172.8	336.28	0.00015175	0.00015643	494.01	165.54	124.35	46.957	0.000152	74.126	181.939	68.054	316.094	5.175	164.904	147.058	5.346	10.746	172.705	96.194	9.320	14.322	15.698	19.631	306.666	17.981	-8191	255	
1975.903	1	1	0	0	0.09905	0.23202	0.096265	0.19913	0.25812	0.28168	0.19627	0.28394	0.14799	0.089106	0.097801	0.2657	0.14514	0.053196	0.27563	0.32071	-1.4021	-1.5021	-2.0521	-1.6542	-1.425	-2.1	-1.4	-2.0771	-1.8687	-1.2896	-2.2458	-1.8708	-1.5896	-2.2687	-1.3021	-2.05	117.495	91.104	19.465	26.580	236.691	10.229	210.832	307.852	292.623	9.086	308.318	347.403	285.773	306.680	37.980	280.184	0.00013972	0.0012339	0.00039929	819.79	2.6396e-05	1.0302e-05	966.55	256.74	3.0044e-05	3.3728e-05	350.38	121.32	80.21	31.873	2.7194e-05	54.021	0.012163	0.014093	0.0038899	1015.1	0.00015052	0.00015447	1174.8	335.78	0.00015117	0.0001543	489.08	163.51	122.54	46.184	0.0001496	73.036	165.026	217.142	21.686	5.503	237.740	286.181	5.503	10.664	161.382	29.242	9.582	14.029	15.223	19.770	102.261	18.042	-8191	255	
1976.024	1	1	0	0	0.17086	0.05994	0.15027	0.22553	0.078412	0.12631	0.088772	0.31356	0.062059	0.1876	0.14495	0.14927	0.30968	0.24993	0.18838	0.10614	-1.5521	-1.1729	-2.1104	-1.7917	-1.1896	-2.2979	-1.6229	-1.8479	-2.1271	-1.3	-2.3146	-1.6542	-1.4583	-2.1188	-1.2792	-1.6458	116.916	164.043	135.757	347.900	25.445	196.969	329.706	274.657	310.161	336.785	237.122	332.171	299.951	164.858	16.073	268.526	0.00013494	0.00026938	0.000789	809.52	5.2874e-06	1.5713e-05	957.8	255.83	1.2451e-05	2.0929e-05	351.55	121.92	80.262	32.091	2.0093e-05	53.78	0.012128	0.014107	0.003933	1009.5	0.00015289	0.00015652	1169.3	336.53	0.00015479	0.00015819	492.41	164.9	124.44	46.892	0.00015618	73.925	155.302	262.346	323.911	5.027	270.810	207.621	5.438	10.237	64.411	310.882	9.486	14.429	15.362	20.060	195.920	18.123	-8191	255	
1976.120	1	1	0	0	0.057999	0.16383	0.1262	0.39787	0.30889	0.22645	0.073535	0.33674	0.18332	0.26131	0.077364	0.068766	0.16485	0.10302	0.28056	0.088586	-1.5354	-1.225	-1.9542	-1.9875	-1.2917	-2.1604	-1.4979	-1.7271	-2.0583	-1.2875	-2.0521	-1.9396	-1.2833	-2.2562	-1.4021	-1.6875	174.509	71.173	128.067	316.235	207.025	60.952	276.205	329.810	144.918	19.887	135.293	42.814	229.232	51.230	0.630	345.925	0.00030799	0.00060094	0.00067811	806	1.0326e-05	2.5077e-05	950.3	254.59	2.0537e-05	3.4724e-05	352.21	122.64	81.089	32.201	6.4345e-06	54.641	0.012543	0.014431	0.0040068	1009.6	0.00015433	0.00015708	1164.2	335.19	0.00015182	0.00015501	490.75	164.87	123.64	46.581	0.00015091	73.596	185.058	309.868	27.606	5.480	155.810	253.882	5.659	10.514	183.536	139.696	9.655	14.119	15.192	19.610	34.515	18.061	-8191	255	
1976.216	1	1	0	0	0.1315	0.18509	0.18633	0.061772	0.019452	0.24625	0.12627	0.071453	0.22122	0.074988	0.26961	0.10434	0.14062	0.1263	0.29888	0.32051	-1.5938	-1.2938	-1.8375	-1.7958	-1.3625	-2.0792	-1.6167	-1.6417	-2.2458	-1.3687	-1.7646	-1.9208	-1.375	-2.1833	-1.6521	-1.6042	329.556	69.372	51.442	17.926	234.238	27.134	86.024	-6.060	287.838	2.974	263.486	343.003	215.497	25.166	298.294	322.049	0.00016522	0.0022201	0.0010806	807.25	9.3891e-06	2.5463e-05	951.15	257.88	3.0563e-06	1.6994e-05	352.9	123.66	81.035	32.228	1.3069e-05	55.087	0.012033	0.013876	0.003813	998.9	0.0001466	0.00014966	1158.8	333.38	0.00014594	0.00014881	485.74	163.48	121.87	46.223	0.00014556	73.584	279.049	24.696	133.868	5.348	349.217	142.916	5.489	10.566	180.884	173.884	9.538	14.925	15.240	20.242	113.142	18.212	-8191	255	
1976.312	1	1	0	0	0.22824	0.029793	0.21835	0.18216	0.14205	0.27354	0.22953	0.10029	0.17511	0.041316	0.22681	0.21466	0.24138	0.10321	0.046838	0.31066	-1.7104	-1.2313	-1.7437	-2.0729	-1.2833	-2.0208	-1.6958	-1.4354	-2.4104	-1.3854	-1.9458	-2.0833	-1.2521	-1.9667	-1.6313	-1.4042	192.339	124.768	179.701	325.298	231.991	121.980	298.992	77.564	148.123	138.028	316.215	270.526	321.962	120.072	143.739	278.575	0.00053167	0.00096409	0.00060039	811.72	1.6123e-05	4.1271e-06	969.24	259.62	1.8935e-05	9.1389e-06	357.91	124.41	81.856	32.496	1.633e-05	55.178	0.011749	0.013659	0.0038091	1007	0.00014936	0.00015427	1176.6	339.99	0.00015146	0.0001552	496.84	166.88	124.91	47.024	0.00015231	74.338	189.519	284.551	105.876	5.932	184.949	240.863	5.405	11.036	109.193	121.938	10.309	14.585	15.563	19.582	73.017	18.098	-8191	255	
1976.408	1	1	0	0	0.24066	0.3174	0.21785	0.29246	0.12004	0.12429	0.23098	0.42849	0.18984	0.096935	0.13799	0.1847	0.22489	0.056459	0.11255	0.18608	-1.7729	-1.325	-1.7188	-2.3063	-1.1354	-2.0167	-2.1229	-1.2979	-2.1146	-1.6625	-1.6333	-2.1854	-1.4854	-1.9333	-1.9208	-1.2146	83.669	131.344	278.405	316.531	175.286	45.097	14.579	-5.608	24.552	348.686	202.084	190.965	209.678	311.241	184.000	239.740	0.00033762	0.0008301	0.00049656	803.57	1.638e-05	1.0146e-05	952.16	256.78	7.8365e-06	2.9227e-05	352.66	123.24	81.59	32.301	5.9589e-06	54.123	0.012174	0.014196	0.0039279	1005.1	0.0001508	0.00015385	1161.7	334.46	0.00014783	0.000152	488.31	163.67	122.66	46.101	0.00014653	72.698	269.985	185.059	128.545	5.698	331.306	4.848	5.585	10.683	27.873	206.756	9.933	14.154	15.448	19.610	5.229	18.065	-8191	255	
1976.504	1	1	0	0	0.1299	0.16596	0.19335	0.060274	0.22729	0.12577	0.0055133	0.36704	0.026975	0.093117	0.29021	0.22468	0.26853	0.030883	0.158	0.22696	-1.7771	-1.5979	-1.4104	-2.3688	-1.0271	-1.8229	-2.2667	-1.2667	-2.1312	-1.5458	-1.525	-2.1896	-1.3667	-1.9229	-1.9583	-1.3854	2.661	328.378	214.469	185.265	239.987	-2.481	45.098	329.609	305.631	170.627	350.876	271.905	45.186	317.232	185.792	320.735	0.00029806	0.0028737	0.00031617	797.36	1.3183e-05	1.798e-05	950.35	254.17	1.436e-05	3.7968e-06	354.17	122.99	79.71	32.314	2.3271e-06	54.594	0.011594	0.013408	0.003708	980.29	0.00014178	0.0001451	1137.2	327.05	0.00013793	0.00014098	477	160.65	119.22	45.188	0.00013943	72.081	202.586	108.603	344.040	5.746	61.825	53.751	5.570	10.805	69.594	186.958	9.714	14.194	15.769	19.964	279.350	18.135	-8191	255	
1976.601	1	1	0	0	0.21314	0.14705	0.29548	0.3631	0.068727	0.17973	0.19529	0.098156	0.18161	0.20361	0.28212	0.18817	0.31494	0.36783	0.17826	0.14825	-1.6187	-1.5854	-1.2625	-2.3438	-1.35	-1.6	-2.1125	-1.4	-1.9333	-1.5958	-1.4083	-2.1188	-1.4188	-1.6437	-2.0417	-1.3833	297.801	160.127	151.610	284.301	216.939	118.141	267.328	148.148	16.475	199.973	309.650	345.665	319.831	339.122	110.023	334.984	0.0003097	0.0018676	0.00048419	796.99	2.1122e-05	1.8305e-05	953.03	256.26	7.9858e-06	1.4072e-05	355.45	123.88	81.317	32.514	8.993e-06	54.983	0.011196	0.013094	0.0036575	982.81	0.00014161	0.00014556	1147.8	330.24	0.000142	0.00014492	482.43	162.65	121.05	45.744	0.00014132	72.835	152.292	243.374	343.354	5.739	10.428	60.987	5.549	10.263	122.465	246.713	9.370	14.136	15.306	19.846	121.804	18.111	-8191	255	
1976.719	1	1	0	0	0.065805	0.27916	0.032002	0.13002	0.090706	0.12672	0.14667	0.032988	0.20599	0.023025	0.13148	0.24484	0.2087	0.40623	0.048868	0.11422	-1.5104	-1.75	-1.0042	-2.3042	-1.4771	-1.6458	-2.4458	-1.2896	-1.8021	-1.8062	-1.2896	-2.2062	-1.4479	-1.5167	-2.1396	-1.4417	-5.313	186.287	339.281	286.917	91.921	40.138	160.105	82.249	314.041	-3.629	176.273	57.901	29.169	280.150	76.948	244.312	0.00041736	0.0012446	0.00017219	796.94	1.3134e-05	3.1271e-05	959.5	258.93	2.336e-05	2.3387e-05	358.94	125.59	82.476	32.994	2.3466e-05	55.747	0.011318	0.013237	0.0036861	987.38	0.00014277	0.00014696	1155.1	332.98	0.00014522	0.00014935	490.5	165.78	123.36	46.857	0.00014742	74.162	153.851	214.055	182.123	5.752	239.553	279.934	5.736	10.658	158.632	32.676	9.754	14.751	15.557	19.903	238.502	18.204	-8191	255	
1976.816	1	1	0	0	0.20224	0.23966	0.065305	0.31329	0.13823	0.10397	0.068721	0.12567	0.22458	0.14405	0.093579	0.14074	0.13849	0.148	0.15265	0.24022	-1.5438	-1.7896	-1.2333	-2.1937	-1.4833	-1.4688	-2.3271	-1.4208	-1.6437	-1.9333	-1.4521	-2.3875	-1.9562	-1.425	-2.2542	-1.4062	233.117	233.777	112.014	327.343	273.609	328.652	322.044	326.347	306.269	101.292	59.064	86.394	320.379	6.220	235.817	6.492	0.00013138	0.0014659	0.0013044	801.42	8.128e-06	2.5977e-05	959.62	257.75	7.4395e-06	5.0764e-06	353.64	124.11	81.189	32.275	1.349e-05	54.25	0.01178	0.013765	0.0038461	999.79	0.00014969	0.00015428	1168	336.89	0.0001528	0.00015899	496.58	166.82	125.33	47.28	0.00015635	74.352	283.180	103.413	16.391	5.723	233.807	332.997	5.713	10.752	217.390	175.862	9.901	14.374	15.123	19.908	153.435	18.320	-8191	255	
1976.912	1	1	0	0	0.065063	0.21109	0.1003	0.23124	0.23718	0.15148	0.34165	0.090056	0.11339	0.12223	0.10911	0.27452	0.21735	0.019323	0.29664	0.1815	-1.4396	-1.9688	-1.1812	-2.2271	-1.6854	-1.3396	-2.5062	-1.5063	-1.575	-2.1979	-1.3563	-2.2833	-1.7271	-1.3312	-2.0833	-1.6083	192.414	217.171	194.283	339.036	294.952	55.009	313.385	218.761	177.005	44.722	260.821	260.312	240.201	226.417	130.429	18.683	0.00042716	0.0025409	0.00081879	799.81	9.0098e-06	1.3657e-05	952.15	254.76	1.1391e-05	2.1547e-05	347.7	121.6	79.263	31.708	1.0205e-05	53.448	0.01253	0.014594	0.0040444	1007.2	0.00015652	0.0001603	1168.3	336.75	0.00015644	0.00016081	493.82	165.17	124.91	46.917	0.00015834	73.686	165.672	93.990	144.757	5.865	112.550	71.814	5.434	10.271	49.159	335.153	9.522	14.666	15.610	19.771	247.015	18.248	-8191	255	
1977.008	1	1	0	0	0.19333	0.12599	0.24341	0.25472	0.17545	0.14761	0.12534	0.13898	0.34562	0.077377	0.11502	0.159	0.26548	0.13693	0.068131	0.12096	-1.0792	-2.2208	-1.0833	-1.9458	-1.8208	-1.1021	-2.3583	-1.5979	-1.625	-2.1521	-1.4667	-1.9688	-1.8813	-1.1	-1.9896	-1.7188	167.242	183.462	261.697	286.835	304.854	77.169	249.721	256.208	143.401	232.143	17.241	167.341	297.678	347.072	96.010	214.307	0.00042353	0.0023632	0.00078347	799.04	1.4115e-05	2.3196e-05	946.66	254.19	5.2394e-06	2.4034e-06	350.18	121.63	79.683	32.145	8.7105e-06	53.911	0.012716	0.014859	0.004114	1008.6	0.00015833	0.00016172	1165.9	334.96	0.00015432	0.00015797	490.97	164.14	123.77	46.706	0.00015605	73.97	193.001	43.913	-5.512	5.733	110.739	51.424	5.549	10.731	52.364	194.241	9.628	14.609	15.411	19.763	20.556	18.242	-8191	255	
1977.104	1	1	0	0	0.14774	0.11476	0.075967	0.32156	0.16332	0.23712	0.14527	0.086795	0.033781	0.16998	0.26377	0.06863	0.055148	0.28579	0.042556	0.24007	-1.0146	-1.975	-1.5125	-2.0187	-2.0667	-1.0396	-2.3271	-1.7875	-1.4104	-2.2958	-1.5875	-1.9542	-2.0687	-1.3583	-2.1063	-2.0292	158.700	318.331	298.949	303.850	151.954	215.022	246.203	26.912	265.768	98.871	13.519	299.498	81.721	253.231	336.565	257.903	0.00010938	0.0034556	0.0012158	801.97	1.7257e-05	1.1827e-05	957.29	256.28	9.9178e-06	6.9648e-06	354.29	124.49	80.324	32.403	9.9203e-06	54.698	0.012706	0.014857	0.0041313	1012.6	0.00016043	0.00016407	1175.5	338.66	0.00015841	0.00016173	499.1	167.22	125.9	47.462	0.00015808	74.996	216.142	41.248	60.439	5.632	265.677	5.602	5.564	10.331	27.732	161.019	9.597	14.379	15.321	19.471	-1.404	17.995	-8191	255	
1977.200	1	1	0	0	0.25011	0.1249	0.13497	0.32304	0.15293	0.1949	0.17909	0.1827	0.043856	0.054166	0.12774	0.20221	0.14312	0.075413	0.21382	0.13063	-0.88958	-2.15	-1.4417	-1.6625	-2.0604	-1.1708	-2.0333	-1.8833	-1.2125	-2.2188	-1.6417	-1.7396	-2.2375	-1.3146	-1.9271	-1.9875	321.102	-0.996	13.792	280.404	290.928	178.278	317.455	333.272	99.959	278.469	26.766	344.097	340.178	66.680	215.115	16.757	0.00016435	0.0014273	0.00020943	804.29	2.3721e-05	2.1549e-05	950.86	257.48	1.9546e-05	1.2808e-05	354.91	124.48	81.155	32.568	1.0862e-05	54.95	0.012718	0.014734	0.0041072	1011.6	0.00015766	0.00016106	1174.2	340.11	0.00015654	0.00016002	500.31	168.12	126.68	47.832	0.00016108	75.898	257.020	340.612	238.741	5.651	237.070	28.372	5.399	10.775	226.267	111.341	9.613	14.440	15.072	19.804	82.328	18.345	-8191	255	
1977.321	1	1	0	0	0.086022	0.067794	0.085501	0.31484	0.067665	0.048674	0.092233	0.0735	0.13182	0.07734	0.054891	0.20907	0.34929	0.12955	0.25449	0.24977	-0.98542	-2.0771	-1.3792	-1.8167	-1.9625	-1.3042	-2.0292	-1.9896	-1.3646	-2.2458	-1.5375	-1.4958	-2.2875	-1.4083	-1.8146	-1.9188	124.795	134.946	124.177	260.534	342.673	331.891	13.410	140.094	284.170	21.561	269.079	26.394	180.677	289.125	132.849	267.490	0.00036857	0.0012555	0.00057761	800.92	2.713e-05	1.6433e-05	951.16	255.43	1.5477e-05	2.2705e-05	350.58	122.29	80.429	32.004	1.2298e-05	53.415	0.013137	0.015394	0.0042601	1021.7	0.00016446	0.00016803	1182	341.45	0.00016234	0.00016588	500.36	167.15	126.52	47.324	0.00016175	74.402	184.109	4.394	30.458	5.285	256.469	281.297	5.640	10.662	184.930	346.900	9.476	14.200	15.176	19.960	150.778	17.893	-8191	255	
1977.415	1	1	0	0	0.18906	0.20094	0.26838	0.31253	0.13476	0.044806	0.43208	0.21732	0.082548	0.20733	0.091181	0.2657	0.1558	0.093705	0.24168	0.23214	-0.89583	-2.0521	-1.5812	-1.5396	-2.2542	-1.4479	-1.6938	-1.975	-1.2	-1.9875	-1.6896	-1.3167	-2.1958	-1.4979	-1.6396	-2.2188	227.299	124.100	251.672	335.507	277.926	174.543	318.454	269.971	231.860	155.749	318.234	261.819	316.825	131.086	259.937	348.835	0.00013638	0.00060126	0.00027189	797.19	1.0705e-05	1.0838e-05	944.21	253.16	2.1247e-06	1.279e-05	347.79	121.17	79.887	31.637	1.9857e-05	53.159	0.013011	0.015072	0.0042001	1010.5	0.00016133	0.0001654	1170.6	338.91	0.00016237	0.00016607	499.49	167.15	126.59	47.279	0.00016362	74.346	188.223	270.817	42.984	5.550	93.430	280.567	5.595	10.301	299.934	107.990	9.540	14.631	15.391	19.574	343.660	17.735	-8191	255	
1977.511	1	1	0	0	0.15211	0.036399	0.28722	0.25006	0.21811	0.052761	0.3239	0.12508	0.21446	0.18086	0.19051	0.38649	0.146	0.2873	0.10005	0.025064	-0.85625	-2.0042	-1.75	-1.4354	-2.2896	-1.3563	-1.7687	-2.3	-1.1521	-1.95	-2.0292	-1.4333	-2.3958	-1.7021	-1.4729	-2.2146	136.418	91.952	72.219	294.328	240.879	80.328	273.527	313.099	46.010	304.195	309.324	-5.991	175.169	314.335	177.662	189.478	0.00056575	0.00048702	0.00019959	795.29	6.8766e-06	2.4338e-05	948.28	254.68	1.1706e-05	3.8659e-05	349.07	122.61	80.414	32.011	1.8678e-05	54.025	0.013125	0.015066	0.004229	1015.2	0.00016234	0.00016626	1174.4	339.09	0.00016221	0.00016525	500.66	167.62	126.72	47.637	0.00016464	75.298	168.937	270.456	337.830	5.523	20.164	187.854	5.713	10.565	142.109	144.364	9.198	14.490	14.853	19.428	198.047	18.100	-8191	255	
1977.585	1	1	0	0	0.14211	0.12907	0.095444	0.39016	0.26713	0.039924	0.1307	0.27757	0.20467	0.20257	0.12521	0.091148	0.079857	0.066355	0.25817	0.22287	-0.875	-1.7792	-1.7583	-1.4417	-2.225	-1.4729	-1.5854	-2.1646	-1.1979	-1.9896	-2.0417	-1.3333	-2.0917	-1.6958	-1.5167	-2.2521	157.042	203.251	212.629	326.712	-4.786	221.127	252.007	283.792	240.804	331.416	233.934	338.556	334.194	64.728	13.108	126.089	0.00035503	0.00039055	0.00037023	798.72	7.7555e-06	1.4207e-05	949.1	256.12	1.1699e-05	2.2021e-05	353.92	123.53	81.523	32.355	9.2662e-06	54.223	0.013215	0.015207	0.004247	1016.6	0.00016146	0.00016623	1179	342.2	0.00016228	0.00016611	503.65	168.22	126.89	47.709	0.0001616	75.164	187.095	-3.762	78.177	5.361	191.782	160.778	5.518	10.744	45.906	290.900	9.113	14.052	15.356	19.547	308.600	17.910	-8191	255	
1977.681	1	1	0	0	0.21712	0.12776	0.043641	0.3448	0.088176	0.078288	0.057919	0.15484	0.18119	0.2817	0.15373	0.17748	0.38518	0.13762	0.19411	0.30798	-1.075	-1.9688	-2.1458	-1.3792	-1.9312	-1.6688	-1.5438	-2.2687	-1.2667	-1.7667	-2.0833	-1.3125	-2.025	-1.7979	-1.1271	-2.3	274.448	79.488	186.453	299.618	181.092	345.407	-4.912	323.140	68.132	111.063	229.895	339.921	12.812	344.831	29.578	150.415	6.4275e-05	0.00020607	3.7244e-05	794.54	2.5602e-06	5.7978e-06	949.16	255.97	9.7308e-06	4.0974e-06	352.09	121.82	80.694	31.659	9.1641e-06	53.817	0.012876	0.01492	0.0041718	1011.9	0.00016119	0.00016478	1176.1	340.24	0.00016109	0.00016488	501.67	167.3	126.17	47.428	0.00016416	74.807	334.366	27.173	267.666	5.532	216.195	161.549	5.570	10.620	323.777	36.015	9.593	14.225	15.262	19.387	155.057	17.810	-8191	255	
1977.800	1	1	0	0	0.1378	0.19001	0.093925	0.086189	0.079126	0.19158	0.39014	0.26982	0.13293	0.28431	0.18322	0.32599	0.097006	0.12915	0.10626	0.29622	-0.90625	-1.6833	-2.1813	-1.1875	-2.0312	-1.6146	-1.2771	-2.2562	-1.5812	-1.4333	-2.2479	-1.4208	-1.9354	-1.9917	-1.4854	-2.0146	-1.427	67.122	17.380	348.504	64.628	264.977	304.120	274.151	315.758	336.706	155.696	38.240	224.774	289.178	59.197	315.188	0.00017731	0.00063057	0.00050542	794.58	2.3934e-05	1.0071e-05	938.05	254.45	1.3811e-05	9.1478e-06	346.31	120.07	79.359	31.456	4.3852e-05	52.919	0.013132	0.015288	0.0042691	1012.9	0.00016401	0.00016891	1172.1	338.69	0.00016415	0.00016859	499.09	165.85	126.25	47.336	0.00016614	74.191	170.109	128.196	92.212	5.149	145.357	343.491	5.561	10.533	31.329	294.895	9.219	14.347	15.189	19.167	189.460	18.105	-8191	255	
1977.896	1	1	0	0	0.085976	0.10091	0.1935	0.23612	0.16693	0.14405	0.15907	0.078972	0.039867	0.058406	0.153	0.35869	0.064791	0.04576	0.15162	0.047101	-1.0729	-1.3083	-2.0833	-1.3042	-2.0146	-1.7854	-1.4125	-2.1021	-1.3417	-1.2604	-2.2479	-1.3167	-1.9854	-1.9375	-1.0375	-2.0812	270.852	61.078	10.123	285.677	28.027	138.783	230.088	321.912	161.836	72.017	334.580	306.498	249.635	42.396	158.777	1.713	0.00030802	0.00029978	0.00068724	792.48	1.4838e-05	2.0666e-05	933.73	251.46	1.5371e-05	1.6237e-05	343.99	119.46	78.663	31.373	3.862e-06	53.163	0.013269	0.015452	0.0043102	1012.9	0.00016561	0.00017049	1169.1	338.75	0.00016342	0.00016699	495.11	164.51	124.23	46.742	0.000159	73.414	112.858	184.437	192.262	5.395	139.326	262.743	5.387	10.197	186.935	140.801	9.155	14.176	15.489	20.441	94.667	17.992	-8191	255	
1977.992	1	1	0	0	0.12626	0.074125	0.20501	0.043828	0.32602	0.19076	0.063602	0.13267	0.011596	0.10899	0.12731	0.27952	0.23717	0.24733	0.12862	0.20001	-1.2542	-1.3792	-2.075	-1.5063	-1.6229	-2.0458	-1.1667	-2.0208	-1.9042	-1.2812	-2.1979	-1.6771	-1.6021	-1.8438	-1.2833	-2.15	197.833	253.273	135.150	348.885	140.355	170.558	337.923	12.677	126.192	90.660	314.009	343.484	31.703	223.425	251.094	302.684	0.0004312	0.002933	0.00031545	781.54	1.4651e-05	1.8296e-05	940.61	252.33	7.4615e-06	3.1232e-05	347.81	120.82	79.44	31.893	1.2998e-05	53.431	0.012748	0.014844	0.0041051	999.04	0.00015794	0.00016227	1161.3	332.92	0.00015669	0.00016105	490.99	163.84	123.4	46.902	0.00015656	73.473	157.280	194.269	233.937	5.386	206.210	162.303	5.683	10.304	97.008	116.954	9.493	14.451	15.169	19.767	100.482	18.102	-8191	255	
1978.113	1	1	0	0	0.059252	0.054701	0.17167	0.27024	0.35336	0.065318	0.3294	0.287	0.11178	0.23004	0.20809	0.35705	0.14296	0.12315	0.24156	0.13191	-1.6167	-1.2604	-2.1688	-1.5312	-1.6396	-2.275	-1.4521	-1.9604	-1.8771	-1.2292	-2.1583	-1.5104	-1.7458	-2.4042	-1.3167	-2.0542	9.818	46.820	112.026	279.617	342.854	221.229	83.341	308.215	134.652	248.085	296.993	12.497	302.427	288.095	347.107	-2.245	0.00019137	0.0023232	0.00071753	788.86	1.5114e-06	1.4848e-05	944.41	252.87	3.0593e-05	1.4424e-05	348.74	120.09	79.866	32.079	2.3728e-05	54.015	0.012527	0.014476	0.0039877	994.84	0.00015381	0.00015758	1156.3	331.3	0.00015186	0.00015503	486.39	162.84	121.93	46.262	0.00015	73.167	168.839	71.544	79.321	5.615	327.807	159.166	5.470	10.569	213.794	238.632	9.473	14.526	15.467	19.717	226.878	18.456	-8191	255	
1978.184	1	1	0	0	0.22381	0.17357	0.28062	0.11986	0.12544	0.19001	0.077666	0.26399	0.12176	0.10333	0.15899	0.21033	0.11662	0.039181	0.28623	0.17822	-1.5542	-1.2333	-2.1688	-1.8	-1.4292	-2.1833	-1.2667	-2.0125	-1.9854	-1.2313	-2.1271	-1.9312	-1.3375	-2.3333	-1.3	-1.8563	340.149	120.195	196.539	250.289	277.487	68.460	213.090	20.828	-4.733	224.442	340.799	350.186	81.640	172.556	187.769	350.962	0.00023245	0.0020516	0.00044702	793.67	1.5207e-05	3.4909e-05	937.16	251.5	1.4617e-05	2.73e-05	342.91	118.86	78.114	31.575	1.8106e-06	53.126	0.012176	0.014189	0.0039204	992.5	0.00015058	0.00015359	1143.5	327.04	0.00014782	0.00015154	477.81	159.73	119.7	45.357	0.00014791	71.715	184.021	136.378	318.599	5.304	289.495	131.814	5.462	10.684	308.598	175.290	9.899	14.393	15.620	19.852	179.997	17.828	-8191	255	
1978.281	1	1	0	0	0.11766	0.22282	0.1391	0.11411	0.13942	0.070452	0.27714	0.18954	0.13093	0.21271	0.077123	0.30141	0.23088	0.13752	0.14945	0.18039	-1.5167	-1.2729	-1.8833	-1.725	-1.2354	-2.1458	-1.4438	-1.8292	-2.1521	-1.1542	-2.0625	-1.7792	-1.3375	-2.1896	-1.5812	-1.6708	39.888	293.892	9.967	283.785	226.563	40.096	307.623	243.440	62.114	155.959	276.029	10.970	77.953	59.294	92.726	253.220	0.00035786	0.0019983	0.00036197	785.14	1.8044e-05	2.5272e-06	933.22	249.1	1.4213e-05	1.295e-05	343.12	118.1	77.881	31.175	7.0937e-06	52.709	0.011938	0.013899	0.0038719	980.72	0.00015055	0.00015316	1140.1	326.23	0.00015005	0.00015483	480.62	160.67	120.97	45.809	0.00015406	72.69	190.675	118.080	345.146	5.235	79.915	219.858	5.252	10.808	232.557	158.531	9.970	14.044	14.793	19.894	139.012	18.745	-8191	255	
1978.401	1	1	0	0	0.1693	0.069791	0.1433	0.24015	0.06984	0.20931	0.16387	0.19724	0.15424	0.035344	0.30276	0.095298	0.15223	0.070088	0.053934	0.14077	-1.5688	-1.4396	-2.0833	-1.8813	-1.325	-2.1479	-1.6771	-1.6375	-2.0438	-1.2729	-2.0042	-1.8271	-1.3833	-2.2271	-1.5583	-1.5562	113.426	83.912	17.637	267.286	67.893	347.137	325.065	74.016	224.145	112.169	301.670	145.191	325.987	285.703	281.051	22.910	0.00044248	0.00068349	0.00072435	786.62	2.4272e-05	3.1982e-05	935.27	247.4	1.6555e-05	2.1909e-05	340.03	118.83	77.506	31.151	3.0096e-05	53.139	0.012522	0.014534	0.0040445	996.11	0.00015613	0.0001593	1154.7	329.95	0.00015606	0.00015959	485.31	162.12	121.68	46.161	0.00015462	72.875	176.042	325.753	144.192	5.085	127.652	137.682	5.425	10.745	11.999	56.955	9.694	14.827	14.953	19.483	217.938	18.069	-8191	255	
1978.496	1	1	0	0	0.12863	0.11084	0.16971	0.087573	0.094572	0.48501	0.21293	0.087855	0.1649	0.099995	0.26763	0.26451	0.054345	0.22637	0.13035	0.069743	-1.7292	-1.2687	-1.6354	-2.0042	-1.3687	-2.1396	-1.7	-1.4792	-2.3542	-1.1896	-1.7771	-2.025	-1.3958	-2.2354	-1.5167	-1.3729	76.478	158.740	21.573	15.530	86.723	90.436	321.427	-2.532	64.767	216.640	246.412	-1.263	44.751	344.073	179.111	135.367	0.00039849	0.0030278	0.00085347	789.85	9.2546e-06	9.2809e-06	939.55	248.95	1.9414e-05	1.5549e-05	342.16	119.89	78.088	31.774	1.1587e-05	53.666	0.012439	0.014377	0.0039825	995.22	0.0001533	0.00015569	1152	328.67	0.00015229	0.00015488	482.97	161.93	120.8	45.871	0.00015059	72.867	168.424	90.076	215.824	5.368	32.788	231.718	5.410	10.486	222.242	222.868	10.056	14.450	15.145	20.283	30.332	18.153	-8191	255	
1978.594	1	1	0	0	0.13209	0.15523	0.15275	0.16993	0.24838	0.060201	0.1623	0.29064	0.23897	0.29079	0.18516	0.16494	0.25163	0.17352	0.17225	0.094012	-1.7146	-1.3958	-1.8438	-2.1771	-1.1042	-2.0667	-1.6542	-1.4833	-2.2104	-1.6146	-1.6625	-2.2708	-1.4146	-1.7479	-1.8458	-1.1104	45.949	256.576	272.768	351.786	64.218	0.628	295.529	350.492	27.318	351.250	298.310	242.717	270.841	-5.455	57.829	232.874	0.00027024	0.00071645	0.00060111	794.98	1.819e-05	3.0314e-05	947.03	250.5	2.086e-05	1.012e-05	346.48	119.93	78.441	31.628	1.144e-05	53.562	0.011956	0.013919	0.0038614	990.59	0.00014768	0.00015107	1151.8	327.71	0.0001472	0.00015175	481.72	161.59	120.88	46.071	0.00015201	73.126	189.469	104.352	217.956	5.453	251.626	78.723	5.645	10.466	230.699	218.651	9.594	14.579	15.435	19.947	304.878	17.991	-8191	255	
1978.712	1	1	0	0	0.15803	0.096371	0.2296	0.13591	0.10259	0.14314	0.26588	0.2945	0.16156	0.091593	0.32484	0.16949	0.064916	0.11539	0.26517	0.42267	-1.7333	-1.4688	-1.8292	-2.1979	-1.2313	-2.0042	-2.0792	-1.3208	-2.2375	-1.5021	-1.7042	-2.2583	-1.4813	-1.9583	-1.9604	-1.4188	312.225	108.949	202.016	209.525	82.721	263.420	339.384	310.944	281.601	27.325	336.065	102.169	46.948	269.950	125.541	271.491	0.00050379	0.002708	0.00060563	791.09	1.3321e-05	2.7788e-05	937.07	249.08	4.9141e-06	1.1963e-05	342.56	118.58	78.076	31.51	1.1315e-05	53.313	0.01221	0.014221	0.0039654	994.44	0.00015172	0.00015527	1151.8	328.9	0.00015306	0.00015779	484.92	161.73	122.6	46.548	0.00015808	73.11	200.880	154.026	83.892	5.586	256.286	109.530	5.671	10.809	184.616	66.344	9.615	14.325	15.678	19.812	186.910	17.958	-8191	255	
1978.809	1	1	0	0	0.36346	0.31639	0.093588	0.098727	0.12805	0.24091	0.15806	0.28062	0.089822	0.071942	0.081609	0.43328	0.33483	0.10231	0.20804	0.21992	-1.7188	-1.6271	-1.5562	-2.2083	-1.1833	-1.7771	-2.0042	-1.1604	-2.0958	-1.5292	-1.4271	-2.1729	-1.3625	-1.7292	-2.1792	-1.0646	263.413	99.533	188.467	64.390	47.067	349.668	190.596	193.747	51.345	118.932	269.048	288.714	321.523	341.427	66.961	-1.850	6.5163e-05	0.0015448	0.00013236	793.92	2.6764e-05	3.4383e-05	936.06	249.63	3.6356e-05	5.994e-05	343.38	118.36	77.675	31.266	7.8253e-06	53.105	0.012604	0.014784	0.0041067	1002.6	0.00015783	0.00016197	1163.3	333.48	0.00015915	0.00016467	490.93	162.66	122.95	46.488	0.00015901	72.962	140.821	195.293	179.411	5.509	83.749	169.838	5.517	10.626	200.197	97.225	9.719	14.185	14.760	20.221	320.048	18.039	-8191	255	
1978.880	1	1	0	0	0.14695	0.27377	0.1358	0.28037	0.082115	0.10346	0.32673	0.3022	0.23945	0.10181	0.33865	0.16417	0.32018	0.085061	0.24428	0.11619	-1.5	-1.7042	-1.4917	-2.1667	-1.4875	-1.6479	-2.1771	-1.4771	-2.1083	-1.8188	-1.5125	-2.2333	-1.5708	-1.5812	-1.9979	-1.3708	339.592	317.718	68.309	35.109	263.365	100.862	14.180	320.810	20.441	159.123	314.692	293.005	342.475	135.507	329.298	233.816	8.1993e-05	0.0014568	0.00035135	788.13	1.8082e-05	6.5119e-06	938.56	249.69	1.4931e-05	1.9982e-05	343.12	119.72	78.096	31.156	1.7813e-05	53.097	0.012598	0.014669	0.0040774	1000.4	0.00015659	0.00015963	1158	329.8	0.00015297	0.00015721	483.69	161.21	121.41	45.849	0.00015324	72.386	185.283	242.223	181.630	5.576	33.999	134.836	5.583	10.640	228.714	330.474	9.704	14.916	15.156	19.661	281.868	18.061	-8191	255	
1978.976	1	1	0	0	0.076012	0.1186	0.21602	0.054837	0.14693	0.064349	0.1291	0.27076	0.42295	0.25132	0.047914	0.15856	0.069523	0.10112	0.12271	0.20745	-1.375	-1.8396	-1.5104	-2.2646	-1.4417	-1.675	-2.4083	-1.5417	-1.7729	-1.7083	-1.0583	-2.2062	-1.5479	-1.3896	-2.3125	-1.3104	66.816	49.009	214.149	205.684	104.160	343.320	312.008	321.376	21.752	238.378	97.121	107.700	236.938	75.833	126.604	247.404	0.00020128	0.0012278	0.00047178	794.63	1.4054e-05	9.5761e-06	942.92	250.77	3.756e-06	2.1052e-05	344.97	119.56	78.503	31.544	1.5598e-05	53.472	0.01225	0.014333	0.0039916	997.99	0.00015448	0.00015835	1163.8	331.45	0.00015475	0.00015995	488.74	163.15	123.1	46.682	0.0001586	73.57	182.452	99.230	306.610	5.474	112.224	245.197	5.353	10.594	102.143	74.793	9.485	14.726	15.604	20.043	187.980	18.198	-8191	255	
1979.097	1	1	0	0	0.14508	0.064692	0.22212	0.072557	0.20011	0.10945	0.15079	0.10581	0.074191	0.18359	0.11991	0.099111	0.094852	0.22463	0.13317	0.12449	-1.45	-1.9562	-1.2437	-2.2062	-1.6437	-1.4729	-2.1854	-1.3583	-1.6708	-1.9562	-1.4875	-2.0208	-1.6437	-1.4354	-2.1771	-1.5812	92.124	238.787	175.140	110.332	39.849	155.805	28.848	249.155	166.458	160.225	319.479	317.431	4.721	256.018	76.984	86.649	0.00019841	0.00081828	0.00076392	793.86	2.2684e-05	5.0243e-06	945.51	249.62	9.7381e-06	1.6714e-05	340.43	118.32	77.455	30.918	9.5501e-06	52.175	0.012781	0.015045	0.0041635	1012.5	0.00016144	0.00016685	1172.8	335.48	0.0001624	0.00016614	489.59	162.76	123.65	46.394	0.0001594	72.634	196.002	116.751	63.137	5.545	284.045	41.562	5.324	10.587	299.389	219.306	9.359	14.482	14.705	19.966	207.323	18.422	-8191	255	
1979.193	1	1	0	0	0.10904	0.34693	0.20598	0.15199	0.20419	0.16312	0.12328	0.24241	0.038868	0.1846	0.17112	0.023926	0.131	0.41581	0.066506	0.17	-1.1208	-2.1083	-1.1917	-2.1292	-1.7396	-1.3875	-2.0792	-1.5542	-1.5958	-2.1396	-1.3896	-2.1083	-1.9458	-1.1917	-2.1208	-1.5417	179.024	139.290	169.032	312.615	181.357	209.821	61.062	317.268	281.735	263.024	246.435	266.944	307.036	311.572	171.277	262.209	0.00056087	0.0016602	0.00049502	782.26	2.5357e-05	6.6762e-06	936.57	245.56	3.0664e-05	1.7259e-05	336.73	117.59	77.063	30.714	2.0417e-05	51.939	0.012771	0.014847	0.0041033	999.22	0.00015996	0.00016411	1160	331.06	0.00015978	0.00016475	486.65	161.82	123.11	46.366	0.0001631	73.142	177.970	69.290	225.291	5.402	185.546	89.495	5.649	10.773	266.396	318.296	9.524	14.469	15.721	20.168	271.862	17.894	-8191	255	
1979.289	1	1	0	0	0.13051	0.23097	0.24238	0.29581	0.21555	0.13462	0.04439	0.10884	0.039483	0.26211	0.18097	0.56318	0.066915	0.16069	0.046483	0.22134	-0.77917	-2.0667	-1.3125	-1.9042	-1.8979	-1.2396	-2.2917	-1.6479	-1.4937	-2.2125	-1.5479	-1.7375	-1.9521	-1.2812	-2.3187	-1.5958	115.010	10.351	342.129	328.089	53.721	81.113	38.510	213.329	193.653	45.968	286.868	324.603	14.854	332.968	163.353	274.373	0.00031188	0.001512	0.00054423	790.88	7.0511e-06	3.3508e-05	938.02	245.95	9.6968e-06	2.8156e-05	339.81	116.46	76.417	30.834	1.6754e-05	52.487	0.013251	0.015559	0.0043299	1013.6	0.00016773	0.00017194	1172.6	335.15	0.00016855	0.00017264	495.24	164.22	125.19	47.163	0.00017042	74.701	219.269	45.248	273.762	5.587	164.077	190.927	5.325	10.647	303.340	193.196	9.687	14.928	14.737	19.806	105.466	18.519	-8191	255	
1979.385	1	1	0	0	0.08453	0.13945	0.071914	0.24751	0.10315	0.096577	0.28662	0.22177	0.083273	0.15957	0.09226	0.27227	0.1984	0.13805	0.045711	0.22997	-1.0625	-2.1042	-1.1833	-1.8708	-2.0021	-1.3167	-2.1167	-1.7292	-1.4167	-2.0292	-1.3583	-1.7208	-2.2625	-1.3563	-2.0771	-1.9125	35.256	2.985	26.592	253.940	229.511	192.827	321.302	350.410	174.703	67.233	6.053	279.495	231.694	114.427	36.978	-7.538	0.00038972	0.0012352	0.00012933	793.27	2.7196e-05	1.278e-05	940.88	248.96	1.5131e-05	3.7405e-05	339.38	117.69	77.689	31.211	5.3856e-06	53.364	0.013797	0.015976	0.0044245	1025.6	0.0001707	0.00017375	1180.9	336.87	0.00016823	0.00017154	496.25	165.06	124.94	47.181	0.0001642	74.387	216.899	43.429	73.461	5.319	155.172	54.474	5.391	10.270	33.560	150.630	9.565	14.537	15.117	19.908	107.265	18.151	-8191	255	
1979.482	1	1	0	0	0.32568	0.15672	0.23719	0.16638	0.19802	0.11451	0.17736	0.18948	0.26494	0.039682	0.13801	0.38967	0.12614	0.15349	0.062363	0.35294	-0.95625	-2.1042	-1.4167	-1.7146	-2.125	-1.1667	-1.9562	-1.8687	-1.2062	-2.1083	-1.4125	-1.6375	-2.2208	-1.4188	-2.0521	-1.9958	190.424	317.080	97.920	339.897	220.973	46.407	242.755	243.736	-5.972	48.778	295.513	327.168	4.071	205.204	268.609	293.054	0.00021584	0.0015819	0.00041186	797.54	6.0323e-06	1.987e-05	943.75	248.66	3.269e-06	4.275e-05	342.47	118.93	77.555	31.316	1.1225e-05	52.97	0.013108	0.015071	0.0041884	1014.3	0.00016179	0.00016482	1172.8	333.92	0.00016147	0.00016524	491.25	163.71	123.26	46.584	0.00015963	73.453	132.593	10.387	233.871	5.561	111.812	218.290	5.749	10.853	289.970	194.241	9.590	14.554	15.686	19.822	251.891	18.146	-8191	255	
1979.578	1	1	0	0	0.13371	0.080894	0.093422	0.088873	0.21023	0.072742	0.14088	0.032425	0.10642	0.16449	0.097326	0.25952	0.32212	0.20014	0.2223	0.20303	-0.94167	-2.0563	-1.5083	-1.6604	-2.0187	-1.3021	-1.9417	-2.0167	-1.3854	-2.1354	-1.7	-1.4729	-2.3438	-1.3479	-1.7479	-2.0896	351.263	232.828	153.426	251.422	315.891	330.281	207.945	44.744	30.750	55.540	231.430	290.566	337.890	307.560	110.699	193.873	0.00019291	0.0028713	0.0015341	799.11	9.7732e-06	1.2413e-05	940.23	247.82	1.9621e-05	5.5216e-06	339.13	116.74	76.718	31.071	2.8972e-05	52.896	0.012643	0.014656	0.0040807	1006.6	0.00015696	0.00016028	1161.6	330.65	0.00015927	0.00016281	487.98	162.16	122.96	46.577	0.00016154	73.585	233.685	86.062	132.904	5.802	172.109	-5.793	5.526	10.866	247.280	288.083	9.500	14.520	15.357	20.055	233.183	18.022	-8191	255	
1979.674	1	1	0	0	0.1852	0.23296	0.19999	0.26046	0.24092	0.17493	0.18305	0.17578	0.021338	0.069575	0.23725	0.27865	0.35215	0.092236	0.18255	0.068983	-0.80625	-2.0354	-1.6125	-1.4479	-2.2042	-1.3042	-2.0396	-2.1958	-1.2708	-2.3667	-2.0271	-1.4646	-2.2396	-1.4146	-1.6792	-2.3146	168.865	24.018	12.601	298.177	74.975	319.134	255.506	341.708	250.509	206.035	24.657	57.974	250.734	345.802	207.064	327.938	0.00023279	0.0025964	0.00090965	795.7	6.8081e-06	2.5139e-05	945.47	246.23	1.2628e-05	1.6711e-05	337.32	117.71	76.236	31.381	7.5775e-06	53.133	0.012855	0.014827	0.0041128	1003.4	0.00015588	0.00015911	1157.9	327.52	0.00015505	0.00015767	480.75	160.68	120.56	46.065	0.00015393	72.71	98.248	95.833	91.156	5.659	181.872	13.628	5.570	10.718	306.324	155.094	9.288	14.591	15.097	19.899	280.944	17.969	-8191	255	
1979.793	1	1	0	0	0.33139	0.15492	0.15	0.3304	0.12123	0.081551	0.37202	0.035973	0.12035	0.20188	0.28151	0.39219	0.17802	0.26176	0.16369	0.22419	-0.85833	-2.0229	-1.8854	-1.3146	-1.9542	-1.5187	-1.7687	-2.3271	-1.3062	-1.9396	-1.9833	-1.1	-2.2521	-1.5479	-1.4875	-2.3875	17.815	0.453	208.359	299.115	25.936	192.693	330.579	175.937	131.323	4.548	344.241	267.841	340.195	-3.434	296.030	77.792	0.00012075	0.0011505	0.00064705	794.04	8.4574e-06	1.0074e-05	941.87	248.64	5.5436e-06	4.6906e-06	341.1	118.53	77.735	31.716	5.2567e-06	53.545	0.012326	0.014297	0.0039888	999.15	0.00015301	0.00015743	1157.3	328.19	0.00015259	0.00015602	480.6	160.56	120.38	46.167	0.00015162	72.734	189.871	249.411	70.531	5.703	315.711	94.188	5.713	11.163	320.401	158.773	9.519	14.656	14.934	19.740	151.459	18.005	-8191	255	
1979.889	1	1	0	0	0.16616	0.16806	0.058409	0.13865	0.43276	0.16028	0.057208	0.16854	0.143	0.073336	0.13771	0.16177	0.32629	0.16339	0.085853	0.27031	-1.0167	-1.6021	-1.8333	-1.3292	-2.0271	-1.6083	-1.55	-2.2708	-1.3583	-1.8833	-2.0271	-1.3042	-2.0146	-1.7583	-1.3563	-2.3042	243.715	143.733	272.820	300.264	274.862	272.115	145.180	351.154	205.185	345.457	60.709	211.619	35.618	84.451	132.903	56.100	0.00016756	0.0013687	0.00044918	798.84	1.2674e-05	2.0824e-06	949.92	248.72	1.8807e-05	2.7874e-05	340.91	119.37	78.272	32.077	2.1711e-05	54.444	0.012074	0.013919	0.0038726	996.71	0.00014869	0.00015299	1155	325.62	0.0001463	0.0001478	476.07	159.09	118.72	45.425	0.00014133	71.908	159.947	141.049	35.436	5.462	41.184	348.125	5.405	10.388	216.627	52.727	9.727	14.155	15.555	20.164	93.027	18.184	-8191	255	
1979.985	1	1	0	0	0.21921	0.14123	0.056819	0.17701	0.11278	0.12811	0.19481	0.1532	0.10911	0.35847	0.070119	0.1095	0.1335	0.33914	0.23038	0.14996	-0.92708	-1.725	-1.9604	-1.3021	-1.9729	-1.7854	-1.5063	-2.4146	-1.4396	-1.7083	-2.1875	-1.2833	-2.05	-1.9792	-1.3146	-2.1562	278.916	70.031	147.373	336.645	71.762	308.644	335.401	265.697	242.087	231.769	-0.975	249.119	284.704	321.163	98.244	276.300	0.00061344	0.0010307	0.00092642	803.11	5.6505e-06	2.106e-05	952.96	246.98	1.2274e-05	2.1597e-05	342.94	118.73	77.898	31.942	1.4284e-05	53.931	0.011174	0.012851	0.003587	976.81	0.00013641	0.00013991	1133.2	317.57	0.00013573	0.00013932	464.67	155.8	115.76	44.542	0.00013532	70.568	169.586	284.910	170.255	5.494	72.855	159.098	5.525	10.859	56.335	50.247	9.622	14.272	15.680	19.444	66.202	18.487	-8191	255	
1980.081	1	1	0	0	0.2535	0.1275	0.015214	0.18359	0.1739	0.082559	0.22829	0.44101	0.15495	0.075937	0.15838	0.46923	0.098675	0.22824	0.16387	0.066602	-0.90417	-1.4813	-2.0979	-1.3208	-1.8979	-1.8875	-1.3333	-2.1354	-1.4729	-1.4542	-2.0667	-1.3229	-1.7083	-1.9312	-1.2792	-2.1688	276.557	138.138	90.361	291.669	338.881	178.079	215.529	342.303	258.426	198.124	239.881	295.952	271.235	278.305	185.061	167.855	8.847e-05	0.00095026	0.00064879	794.18	1.3314e-05	6.6993e-06	941.94	247.55	1.8807e-05	3.9596e-05	341.44	117.99	77.359	31.842	2.4757e-05	53.903	0.010848	0.012593	0.0035061	965.91	0.00013442	0.00013892	1123.2	315.02	0.00013487	0.00013792	461.97	155.01	114.86	44.27	0.00013318	70.281	244.084	290.352	320.695	5.292	79.613	192.577	5.404	10.674	273.631	145.980	9.200	14.342	14.859	19.597	204.566	17.929	-8191	255	
1980.177	1	1	0	0	0.39379	0.059751	0.32428	0.48083	0.10643	0.098056	0.16688	0.43453	0.22267	0.14572	0.14035	0.21843	0.095444	0.17826	0.17401	0.27301	-1.0646	-1.4625	-2.1354	-1.3417	-1.9167	-1.9833	-1.2083	-2.1667	-1.6187	-1.4188	-2.3937	-1.4875	-1.7479	-1.9583	-1.3104	-2.1562	247.676	209.404	337.588	164.449	131.133	116.743	335.859	290.374	54.545	273.092	166.448	96.163	188.648	322.125	31.100	307.503	0.00031894	0.0024155	0.00023664	790.39	8.7078e-06	1.6512e-05	939.61	249.87	6.3983e-06	2.4429e-05	342.96	118.62	77.99	31.786	5.8759e-06	54.18	0.01061	0.012295	0.0033895	956.7	0.00012935	0.00013247	1111.2	313.06	0.00012757	0.00013046	456.02	153.67	113.68	43.985	0.00012867	70.209	154.928	146.043	121.530	5.337	237.088	131.986	5.633	10.784	196.451	230.394	9.483	14.558	14.835	20.151	231.898	17.897	-8191	255	
1980.274	1	1	0	0	0.088227	0.21077	0.14085	0.54479	0.026809	0.18486	0.26571	0.38327	0.10349	0.36058	0.197	0.10483	0.31993	0.079241	0.28968	0.24377	-1.1854	-1.15	-2.3479	-1.4125	-1.6	-2.2	-1.4333	-2.2021	-1.9479	-1.3563	-2.3833	-1.5229	-1.5958	-2.2833	-1.5417	-2.1708	313.243	199.671	-0.637	333.647	351.341	215.104	82.512	3.629	169.121	301.888	289.945	304.576	25.679	340.163	244.167	4.594	0.0002707	0.00071237	0.00062754	796.54	7.3507e-06	1.9087e-05	945.42	249.43	1.4774e-05	2.994e-05	348.19	121.25	79.344	32.621	2.0468e-05	55.079	0.010358	0.012087	0.0033206	960.47	0.00012857	0.00013176	1118.2	315.32	0.00012929	0.00013218	461.17	155.93	115.36	44.398	0.00012966	71.087	239.434	43.380	37.387	5.442	72.924	43.686	5.407	10.612	111.241	203.203	9.789	14.483	15.229	20.064	0.580	18.257	-8191	255	
1980.394	1	1	0	0	0.12842	0.24024	0.24872	0.39487	0.21056	0.064047	0.40819	0.22622	0.10436	0.16292	0.15517	0.22294	0.10012	0.12062	0.1438	0.27571	-1.5938	-1.2271	-2.1667	-1.5562	-1.3854	-2.1417	-1.6458	-2.0042	-2.0333	-1.2437	-2.1708	-1.6021	-1.4979	-2.2896	-1.2604	-1.9333	75.278	297.233	171.252	336.742	74.142	320.030	287.319	4.485	5.050	18.651	335.271	319.852	210.416	309.672	229.767	39.338	0.00041274	0.0014948	0.00079728	805.24	1.0012e-05	2.4889e-05	954.64	253.37	1.2411e-05	1.1593e-05	349.02	122.2	79.351	32.319	2.7675e-05	54.832	0.010494	0.012099	0.0033911	968.67	0.00013044	0.00013351	1128.9	318.9	0.00013156	0.00013491	465.51	157.04	116.28	44.928	0.00013344	71.49	189.405	100.209	145.083	5.171	321.744	94.241	5.495	10.960	116.629	325.491	9.652	14.275	15.648	20.141	210.623	18.435	-8191	255	
1980.490	1	1	0	0	0.11643	0.1348	0.056671	0.22993	0.019424	0.21824	0.097797	0.20723	0.10048	0.19501	0.16692	0.19109	0.23135	0.29629	0.2159	0.44001	-1.5583	-1.2792	-2	-1.8687	-1.3687	-2.1333	-1.4813	-1.7479	-2.0104	-1.175	-2.2604	-1.625	-1.3458	-2.2188	-1.4583	-1.8729	122.405	201.916	170.381	294.208	82.015	19.483	299.078	324.510	225.368	120.886	280.056	0.543	71.884	337.432	261.901	299.020	0.00045003	0.0023558	0.0006485	797.36	1.3617e-05	4.7222e-06	942.07	250.31	2.3047e-06	9.6286e-06	343.9	119.2	78.398	31.788	1.2076e-05	53.667	0.010807	0.01249	0.0034504	968.9	0.00013359	0.00013573	1121.7	317.37	0.00013206	0.00013502	460.7	155.29	115.3	44.265	0.00013215	70.387	131.808	55.162	153.426	5.357	150.479	152.899	5.178	10.416	181.320	160.874	9.902	14.454	15.624	19.888	224.639	17.835	-8191	255	
1980.585	1	1	0	0	0.12027	0.20237	0.29926	0.16948	0.28404	0.20197	0.084491	0.12244	0.14838	0.15468	0.48232	0.13002	0.080308	0.1909	0.21193	0.12493	-1.6583	-1.0833	-2.1437	-1.9396	-1.1917	-2.1896	-1.6396	-1.6562	-2.275	-1.3771	-2.0458	-1.9646	-1.5187	-2.3542	-1.6354	-1.5938	2.771	32.842	107.045	43.385	268.617	224.583	196.125	291.042	-4.609	78.756	351.384	257.653	319.263	320.120	257.252	249.129	0.00012935	0.0034655	0.00082062	793.84	1.7897e-05	2.6168e-06	940.98	250.33	1.5342e-05	1.1744e-05	343.95	120.22	79.001	31.921	1.2984e-05	53.793	0.010755	0.01244	0.0034563	968.73	0.000135	0.00013854	1125.9	319.86	0.00013718	0.00014093	467.33	157.71	117.93	45.074	0.00014161	71.762	268.894	80.223	234.624	5.536	153.626	159.988	5.395	10.781	205.889	73.317	9.495	14.088	15.478	20.203	230.368	18.234	-8191	255	
1980.681	1	1	0	0	0.24142	0.20865	0.098974	0.09176	0.15365	0.089865	0.15349	0.25215	0.036365	0.33369	0.24873	0.10242	0.11268	0.030396	0.18937	0.23216	-1.8813	-1.1	-1.8083	-2.0812	-1.2896	-2.075	-1.5458	-1.5979	-2.0292	-1.3229	-1.8312	-2.0729	-1.0771	-2.1104	-1.6375	-1.5875	119.905	78.153	241.383	6.910	67.395	206.180	188.587	335.166	90.523	260.206	212.882	341.049	56.024	203.287	349.562	0.585	0.00020932	0.0011641	6.9032e-05	796.07	1.2247e-05	6.7644e-06	946.07	249.71	1.1957e-05	1.0309e-05	344.45	120.7	78.845	32.453	6.4058e-06	55.093	0.011385	0.013232	0.003699	983.48	0.00014299	0.00014615	1140.7	324.09	0.00014304	0.00014536	473.41	159.96	118.75	45.683	0.0001407	72.597	202.054	50.174	215.582	5.472	113.109	53.874	5.591	10.940	91.021	231.112	9.720	14.481	15.894	19.704	228.138	18.105	-8191	255	
1980.777	1	1	0	0	0.26286	0.099167	0.12447	0.22661	0.15414	0.33034	0.068309	0.12141	0.13483	0.36563	0.23485	0.24473	0.38189	0.031111	0.32624	0.067635	-1.8458	-1.1646	-1.6625	-2.2167	-1.2833	-2.2562	-1.9125	-1.3458	-1.9396	-1.6354	-1.9104	-2.1458	-1.4208	-2.1375	-1.8583	-1.4125	228.768	105.823	253.461	331.470	146.060	72.040	234.006	136.847	87.457	239.984	221.030	247.497	194.614	335.644	346.553	343.775	0.00042161	0.002548	0.00051188	791.3	2.8034e-05	1.0743e-05	945.02	253.15	8.1102e-06	1.5328e-05	347.27	122	80.578	32.951	2.5055e-05	55.99	0.01127	0.012994	0.0035883	970.1	0.00013882	0.00014176	1131.8	322.22	0.00013786	0.00014082	472.89	160.42	118.86	45.745	0.0001374	72.94	224.353	45.762	55.457	5.732	138.125	161.588	5.601	10.427	-5.256	277.385	10.202	14.405	15.405	20.065	180.156	18.116	-8191	255	
#DATA ENDS
