BOXY.EXE: ISS Imagent and Oximeter Data Acquisition Program Version 0.80
Ascii Record File

#ACQ INFORMATION
2  Detector Channels 
16  External MUX Channels 
1  Auxiliary Channels 
5000  Waveform (CCF) Frequency (Hz)
1  Waveforms Skipped 
30  Waveforms Averaged 
1  Cycles Averaged 
16  Acquisitions per Waveform 
10.0806  Updata Rate (Hz) 

#FILE INFORMATION
TRUE -- External MUX Channel results are PARSED.
FALSE -- AC DC and Phase are NOT grouped.
TRUE -- Companion Program Settings File CREATED.
FALSE -- AC data not excluded
FALSE -- DC data not excluded
FALSE -- Phase data not excluded
FALSE -- Auxillary Chn. data not excluded
Tab delimiters

#CALIBRATION STATE
TRUE -- Waveform Calibration Values APPLIED.


#AUX CALIBRATION VALUES
Val Type	aux-1	

Term	1.0000e+00	
Factor	0.0000e+00	


#WF CALIBRATION VALUES
A = Detector Channel
Val Type	A-AC1	A-AC2	A-AC3	A-AC4	A-AC5	A-AC6	A-AC7	A-AC8	A-AC9	A-AC10	A-AC11	A-AC12	A-AC13	A-AC14	A-AC15	A-AC16	A-DC1	A-DC2	A-DC3	A-DC4	A-DC5	A-DC6	A-DC7	A-DC8	A-DC9	A-DC10	A-DC11	A-DC12	A-DC13	A-DC14	A-DC15	A-DC16	A-Ph1	A-Ph2	A-Ph3	A-Ph4	A-Ph5	A-Ph6	A-Ph7	A-Ph8	A-Ph9	A-Ph10	A-Ph11	A-Ph12	A-Ph13	A-Ph14	A-Ph15	A-Ph16	

Term	0.00000e+00	0.00000e+00	0.00000e+00	0.00000e+00	0.00000e+00	0.00000e+00	0.00000e+00	0.00000e+00	0.00000e+00	0.00000e+00	0.00000e+00	0.00000e+00	0.00000e+00	0.00000e+00	0.00000e+00	0.00000e+00	0.00000e+00	0.00000e+00	0.00000e+00	0.00000e+00	0.00000e+00	0.00000e+00	0.00000e+00	0.00000e+00	0.00000e+00	0.00000e+00	0.00000e+00	0.00000e+00	0.00000e+00	0.00000e+00	0.00000e+00	0.00000e+00	0.00000e+00	0.00000e+00	0.00000e+00	0.00000e+00	0.00000e+00	0.00000e+00	0.00000e+00	0.00000e+00	0.00000e+00	0.00000e+00	0.00000e+00	0.00000e+00	0.00000e+00	0.00000e+00	0.00000e+00	0.00000e+00	
Factor	1.00000e+00	1.00000e+00	1.00000e+00	1.00000e+00	1.00000e+00	1.00000e+00	1.00000e+00	1.00000e+00	1.00000e+00	1.00000e+00	1.00000e+00	1.00000e+00	1.00000e+00	1.00000e+00	1.00000e+00	1.00000e+00	1.00000e+00	1.00000e+00	1.00000e+00	1.00000e+00	1.00000e+00	1.00000e+00	1.00000e+00	1.00000e+00	1.00000e+00	1.00000e+00	1.00000e+00	1.00000e+00	1.00000e+00	1.00000e+00	1.00000e+00	1.00000e+00	X	X	X	X	X	X	X	X	X	X	X	X	X	X	X	X	

B = Detector Channel
Val Type	B-AC1	B-AC2	B-AC3	B-AC4	B-AC5	B-AC6	B-AC7	B-AC8	B-AC9	B-AC10	B-AC11	B-AC12	B-AC13	B-AC14	B-AC15	B-AC16	B-DC1	B-DC2	B-DC3	B-DC4	B-DC5	B-DC6	B-DC7	B-DC8	B-DC9	B-DC10	B-DC11	B-DC12	B-DC13	B-DC14	B-DC15	B-DC16	B-Ph1	B-Ph2	B-Ph3	B-Ph4	B-Ph5	B-Ph6	B-Ph7	B-Ph8	B-Ph9	B-Ph10	B-Ph11	B-Ph12	B-Ph13	B-Ph14	B-Ph15	B-Ph16	

Term	0.00000e+00	0.00000e+00	0.00000e+00	0.00000e+00	0.00000e+00	0.00000e+00	0.00000e+00	0.00000e+00	0.00000e+00	0.00000e+00	0.00000e+00	0.00000e+00	0.00000e+00	0.00000e+00	0.00000e+00	0.00000e+00	0.00000e+00	0.00000e+00	0.00000e+00	0.00000e+00	0.00000e+00	0.00000e+00	0.00000e+00	0.00000e+00	0.00000e+00	0.00000e+00	0.00000e+00	0.00000e+00	0.00000e+00	0.00000e+00	0.00000e+00	0.00000e+00	3.99349e+01	-1.27183e+02	-1.30760e+02	-1.82253e+02	-7.82160e+01	-6.87738e+01	-1.58383e+02	-1.62015e+02	-6.51568e+00	-5.86521e+01	-1.73081e+02	-1.71715e+02	-1.81287e+02	-1.76244e+02	-6.42257e+01	-1.49702e+02	
Factor	5.52147e-05	1.09142e-04	2.94109e-05	1.60573e-01	1.55073e-06	1.56155e-06	1.48892e-01	4.20036e-02	1.58478e-06	1.42911e-06	9.25352e-02	2.65785e-02	2.40623e-02	7.73815e-03	1.51428e-06	1.10330e-02	2.94537e-06	3.18182e-06	8.85579e-07	8.69856e-02	3.45660e-08	3.49780e-08	7.56882e-02	2.28152e-02	3.43414e-08	3.49862e-08	4.82752e-02	1.38585e-02	1.31179e-02	4.22409e-03	3.45187e-08	5.81125e-03	X	X	X	X	X	X	X	X	X	X	X	X	X	X	X	X	



#DISTANCE SETTINGS
A = Detector Channel
A-1	A-2	A-3	A-4	A-5	A-6	A-7	A-8	A-9	A-10	A-11	A-12	A-13	A-14	A-15	A-16	

2.5000e+00	3.0000e+00	2.5000e+00	3.0000e+00	2.0000e+00	3.0000e+00	1.5000e+00	3.0000e+00	3.0000e+00	3.0000e+00	3.0000e+00	3.0000e+00	3.0000e+00	3.0000e+00	1.5000e+00	3.0000e+00	

B = Detector Channel
B-1	B-2	B-3	B-4	B-5	B-6	B-7	B-8	B-9	B-10	B-11	B-12	B-13	B-14	B-15	B-16	

1.0000e+01	1.0000e+01	1.0000e+01	1.4400e+00	1.0000e+01	1.0000e+01	1.5100e+00	1.9400e+00	1.0000e+01	1.0000e+01	1.9900e+00	2.4900e+00	2.4100e+00	2.9000e+00	1.0000e+01	2.9800e+00	




#DATA BEGINS
time	group	step	mark	flag	A-AC1	A-AC2	A-AC3	A-AC4	A-AC5	A-AC6	A-AC7	A-AC8	A-AC9	A-AC10	A-AC11	A-AC12	A-AC13	A-AC14	A-AC15	A-AC16	A-DC1	A-DC2	A-DC3	A-DC4	A-DC5	A-DC6	A-DC7	A-DC8	A-DC9	A-DC10	A-DC11	A-DC12	A-DC13	A-DC14	A-DC15	A-DC16	A-Ph1	A-Ph2	A-Ph3	A-Ph4	A-Ph5	A-Ph6	A-Ph7	A-Ph8	A-Ph9	A-Ph10	A-Ph11	A-Ph12	A-Ph13	A-Ph14	A-Ph15	A-Ph16	B-AC1	B-AC2	B-AC3	B-AC4	B-AC5	B-AC6	B-AC7	B-AC8	B-AC9	B-AC10	B-AC11	B-AC12	B-AC13	B-AC14	B-AC15	B-AC16	B-DC1	B-DC2	B-DC3	B-DC4	B-DC5	B-DC6	B-DC7	B-DC8	B-DC9	B-DC10	B-DC11	B-DC12	B-DC13	B-DC14	B-DC15	B-DC16	B-Ph1	B-Ph2	B-Ph3	B-Ph4	B-Ph5	B-Ph6	B-Ph7	B-Ph8	B-Ph9	B-Ph10	B-Ph11	B-Ph12	B-Ph13	B-Ph14	B-Ph15	B-Ph16	aux-1	digaux	

16162.515	1	1	0	768	0.044556	0.10015	0.073642	0.25888	0.21391	0.15743	0.15623	0.20184	0.2792	0.12596	0.070883	0.23772	0.33472	0.33586	0.091394	0.14163	-1.5958	-1.4771	-1.3854	-2.4375	-1.2958	-1.7812	-2.1271	-1.3479	-2.0167	-1.6208	-1.4229	-2.1292	-1.6792	-1.9104	-1.8396	-1.1375	81.008	299.711	90.270	292.080	-32.454	249.553	237.647	283.866	182.567	278.638	15.346	288.704	17.484	285.585	306.046	78.181	0.00069202	0.0002875	0.00012105	1304.8	3.8131e-06	7.741e-06	1305.4	365.55	2.4961e-06	2.4289e-06	421.31	140.09	120.98	41.173	4.8831e-06	51.629	0.00026528	0.00024418	6.8177e-05	1312.6	2.6364e-06	2.6665e-06	1319.8	370.24	2.718e-06	2.6377e-06	425.13	141.82	122.43	41.897	2.6502e-06	52.421	310.275	58.923	47.591	-25.257	127.456	100.501	-25.502	-20.653	224.578	84.288	-21.132	-16.608	-16.216	-11.896	143.986	-12.642	-8191	255	
16162.611	1	1	0	0	0.49488	0.18982	0.149	0.10276	0.11176	0.24561	0.3386	0.056807	0.2424	0.16295	0.18628	0.15705	0.044751	0.039314	0.14621	0.26736	-1.4438	-1.7333	-1.2833	-2.1667	-1.3833	-1.5208	-2.2854	-1.3188	-1.9771	-1.8542	-1.5187	-2.0438	-1.5417	-1.7146	-2.0979	-1.2708	249.162	296.475	201.510	314.207	-26.181	192.287	254.655	202.204	44.064	245.016	220.269	288.427	296.918	270.836	36.704	237.974	0.00053729	0.00032848	5.0307e-05	1300.1	2.3243e-06	5.2774e-06	1307.1	365.36	4.0269e-06	3.1778e-06	420.69	139.81	120.66	41.252	9.0442e-06	51.593	0.00027085	0.00024413	6.6883e-05	1312.5	2.7164e-06	2.702e-06	1319.4	369.85	2.7339e-06	2.6514e-06	424.87	141.95	122.26	41.931	2.717e-06	52.375	305.156	2.287	27.349	-25.279	101.080	109.368	-25.433	-20.677	212.350	125.903	-21.035	-16.935	-15.984	-11.642	121.464	-12.554	-8191	255	
16162.708	1	1	0	0	0.12541	0.22369	0.11798	0.10335	0.1342	0.14674	0.37077	0.23489	0.12628	0.11691	0.1794	0.12814	0.2604	0.21505	0.11147	0.11281	-1.4958	-1.6521	-1.2625	-2.2417	-1.5792	-1.5542	-2.1917	-1.4208	-1.8312	-1.8625	-1.2812	-2.1521	-1.5729	-1.4958	-2.0187	-1.3333	226.247	248.072	76.160	210.887	177.967	132.513	273.403	271.368	42.375	302.114	271.985	267.172	-6.543	195.914	-17.653	187.183	0.00060546	0.00037013	0.00016296	1298.4	6.3444e-06	4.0132e-06	1308.9	364.38	2.7723e-06	4.7343e-06	421.4	140.35	120.83	41.069	4.829e-06	51.777	0.00026214	0.00023994	6.8876e-05	1311	2.719e-06	2.681e-06	1319	369.93	2.7168e-06	2.6723e-06	425.53	142.08	122.68	41.9	2.7132e-06	52.5	300.140	69.754	62.985	-25.149	111.775	111.929	-25.269	-20.602	257.087	117.338	-21.188	-16.875	-15.980	-11.556	132.977	-12.558	-8191	255	
16162.804	1	1	0	0	0.30691	0.24124	0.1901	0.30149	0.10866	0.2594	0.29761	0.022588	0.16942	0.036806	0.10292	0.13081	0.1202	0.15334	0.19149	0.22245	-1.3292	-1.9188	-1.2417	-2.3458	-1.6083	-1.2938	-2.2271	-1.4667	-1.6313	-2.0521	-1.3563	-2.3083	-1.7313	-1.5	-1.7938	-1.5417	189.991	289.555	45.981	276.716	158.430	320.881	276.369	243.696	281.986	221.761	-11.753	284.750	-24.330	300.288	228.455	236.477	0.00062097	0.00031772	6.7664e-05	1301.6	6.5801e-06	5.1645e-06	1310.9	365.99	5.0165e-06	5.1247e-06	422.07	140.24	121.57	41.059	3.5228e-06	51.541	0.00026645	0.00024381	6.9813e-05	1310.6	2.7495e-06	2.7152e-06	1319.7	370.25	2.7798e-06	2.683e-06	424.98	142.15	122.67	41.863	2.6638e-06	52.327	304.756	61.776	66.103	-25.274	109.202	113.921	-25.183	-20.801	145.410	93.125	-21.131	-16.684	-16.006	-11.435	126.845	-12.564	-8191	255	
16162.900	1	1	0	0	0.26122	0.048756	0.19508	0.22659	0.24697	0.35306	0.44449	0.22113	0.12076	0.23969	0.14078	0.18859	0.215	0.26425	0.1307	0.31667	-1.3021	-1.7729	-1.1187	-2.0604	-1.6771	-1.3667	-2.275	-1.65	-1.4771	-2.1729	-1.3125	-1.8875	-1.9813	-1.2229	-2.1146	-1.5333	267.151	89.300	93.308	262.889	212.564	7.909	226.919	262.206	243.451	137.523	211.773	-18.152	319.060	303.618	283.446	249.543	0.00059817	0.00040166	0.00010196	1296.2	5.1961e-06	6.8611e-06	1305.4	365.22	5.6285e-06	6.1912e-06	420.13	139.7	120.4	41.238	6.7099e-06	51.501	0.00026858	0.00024701	6.8546e-05	1311.7	2.677e-06	2.7155e-06	1319	370.15	2.7135e-06	2.6747e-06	424.54	141.77	122.25	41.892	2.7004e-06	52.318	292.132	27.914	31.711	-25.315	117.711	112.949	-25.318	-20.393	168.121	92.644	-21.030	-16.126	-16.054	-11.660	101.493	-12.558	-8191	255	
16162.996	1	1	0	0	0.24776	0.23827	0.12186	0.2951	0.22388	0.22635	0.35506	0.095139	0.10765	0.12754	0.20985	0.22851	0.22173	0.18739	0.074733	0.38431	-1.0438	-2.0708	-1.5271	-2.0604	-1.8208	-1.0896	-2.1583	-1.7854	-1.4208	-1.7979	-1.5	-1.925	-2.125	-1.4	-2.0271	-1.6083	100.020	137.879	179.624	258.524	78.691	103.715	269.319	90.174	257.809	-18.332	65.690	235.482	22.009	12.148	-0.475	240.745	0.00057691	0.00037136	0.00014759	1298.6	6.4166e-06	7.2946e-06	1305.4	366.76	2.2448e-06	7.5002e-06	421.33	140.57	120.95	40.92	3.275e-06	51.296	0.00026368	0.00024371	6.9592e-05	1312.6	2.7236e-06	2.737e-06	1319	370.75	2.803e-06	2.7669e-06	425.03	142.05	122.39	41.768	2.7472e-06	52.221	300.104	41.492	68.097	-25.266	82.112	94.490	-25.375	-20.746	221.779	127.061	-21.061	-16.445	-15.983	-11.746	98.087	-12.444	-8191	255	
16163.117	1	1	0	0	0.17186	0.1287	0.065544	0.15495	0.24222	0.24205	0.12044	0.16617	0.12891	0.060603	0.14461	0.15	0.086679	0.22113	0.017897	0.16394	-1.0292	-2.0958	-1.0896	-1.8854	-1.8792	-1.2333	-2.1458	-1.65	-1.1063	-2.0417	-1.55	-1.8062	-2.1354	-1.25	-1.8375	-1.6479	58.645	281.591	243.149	259.478	172.621	215.079	256.404	218.547	134.530	200.240	291.451	170.733	137.806	285.918	319.485	281.379	0.00064972	0.00038087	0.00014381	1295.1	5.1977e-06	3.0658e-06	1309.4	364.8	1.0242e-06	9.2994e-06	423.04	139.99	120.39	41.043	4.1632e-06	51.402	0.00027081	0.00024609	6.9667e-05	1311.6	2.7591e-06	2.6592e-06	1320.8	369.68	2.7987e-06	2.6646e-06	425.75	141.93	122.07	41.799	2.6896e-06	52.328	305.453	44.480	39.773	-24.851	136.779	165.676	-25.400	-20.506	60.411	125.025	-21.129	-16.193	-15.907	-11.345	139.231	-12.473	-8191	255	
16163.213	1	1	0	0	0.051639	0.14052	0.12825	0.41486	0.17049	0.12126	0.15986	0.21141	0.12949	0.11329	0.022435	0.17414	0.10359	0.27598	0.055733	0.32943	-0.72708	-1.9208	-1.3	-1.7708	-2.1604	-1.2375	-2.225	-1.9167	-1.3729	-1.9646	-1.6292	-1.6812	-2.1937	-1.2729	-1.8937	-1.6375	250.902	205.384	133.427	282.214	265.696	320.804	-14.872	281.812	128.269	220.420	113.485	-31.313	76.549	227.667	277.831	264.982	0.00054029	0.00054274	0.00012193	1292.9	4.7057e-06	8.3709e-06	1309.1	364.64	4.5502e-06	2.3131e-06	420.43	139.54	120.7	41.169	5.031e-06	51.601	0.000269	0.00024382	6.806e-05	1308.2	2.7517e-06	2.6774e-06	1319.3	369.05	2.7968e-06	2.6436e-06	424.45	141.86	122.26	41.867	2.6625e-06	52.356	310.104	55.672	64.313	-25.102	106.597	131.825	-25.368	-20.509	180.490	96.108	-21.227	-16.345	-16.090	-11.835	104.490	-12.676	-8191	255	
16163.309	1	1	0	0	0.12768	0.057729	0.21197	0.21568	0.17347	0.10294	0.35713	0.33118	0.24874	0.051765	0.080606	0.20218	0.34651	0.049896	0.035126	0.21937	-0.91042	-1.9375	-1.4333	-1.4292	-1.9083	-1.2188	-2.0458	-2.0187	-1.0854	-1.925	-1.4562	-1.3125	-2.1271	-1.3167	-1.6313	-1.9167	133.674	-11.205	47.659	232.185	0.924	142.626	301.325	255.800	129.531	-28.546	253.930	296.104	62.138	66.592	81.642	99.684	0.00057116	0.0003972	0.0001743	1300.1	7.1944e-06	3.2081e-06	1303.3	366.02	6.8487e-06	6.2681e-06	420.8	139.88	121.06	41.093	5.9916e-06	51.354	0.00027023	0.00024401	6.8441e-05	1310.3	2.7624e-06	2.698e-06	1317.2	369.84	2.7468e-06	2.6544e-06	423.84	141.65	122.58	41.8	2.7654e-06	52.287	309.920	61.114	71.563	-25.272	69.257	98.000	-25.437	-20.854	166.782	114.602	-21.301	-16.583	-16.286	-11.969	128.476	-12.442	-8191	255	
16163.405	1	1	0	0	0.19897	0.18209	0.2662	0.087691	0.10555	0.14015	0.15008	0.25554	0.29782	0.16253	0.18364	0.28213	0.30889	0.26373	0.24052	0.18111	-0.79167	-1.8083	-1.5938	-1.4875	-1.7917	-1.5646	-1.7313	-2.1396	-1.0292	-1.9875	-1.6271	-1.3458	-2.1875	-1.3833	-1.3854	-2.0229	-4.592	151.350	311.201	273.839	195.628	306.765	270.398	269.873	-9.973	60.177	26.600	123.476	161.015	293.976	36.690	231.375	0.00073643	0.00028089	0.00010167	1297.1	6.7278e-06	5.4293e-06	1301.4	364.59	3.0143e-06	5.642e-06	418.5	140.13	120.33	40.936	4.4722e-06	51.32	0.00027354	0.00024857	6.7573e-05	1308.6	2.7532e-06	2.7125e-06	1316.6	369.8	2.7957e-06	2.7297e-06	423.82	141.62	122.1	41.767	2.6921e-06	52.237	294.943	64.121	65.616	-25.200	92.515	122.188	-25.550	-20.898	159.596	108.834	-21.514	-16.663	-16.399	-11.705	102.100	-13.077	-8191	255	
16163.500	1	1	0	0	0.33896	0.25062	0.25949	0.18714	0.12365	0.19325	0.50391	0.23021	0.22891	0.23956	0.17031	0.47926	0.25085	0.33381	0.13028	0.19636	-0.68542	-1.9688	-1.6125	-1.3917	-1.9312	-1.3917	-1.6313	-2.2854	-1.1583	-1.7667	-1.8979	-1.4542	-2.0458	-1.4896	-1.4396	-2.1813	125.455	9.903	-11.820	-33.847	80.098	40.365	290.584	-36.316	320.567	204.028	146.303	266.842	-16.851	317.650	20.520	180.243	0.00049327	0.00035513	0.00010115	1299	2.416e-06	5.0964e-06	1302.2	364.11	6.7766e-06	7.8261e-06	419.66	139.03	120.1	40.862	4.5923e-06	51.242	0.00027186	0.00024702	7.0505e-05	1309.8	2.7757e-06	2.6874e-06	1315.3	368.73	2.8253e-06	2.6673e-06	423.82	140.99	122.03	41.696	2.7552e-06	52.133	297.324	40.503	17.571	-25.376	58.456	98.624	-25.346	-20.918	188.220	120.981	-21.284	-16.829	-16.260	-11.651	122.108	-12.628	-8191	255	
16163.596	1	1	0	0	0.19509	0.12851	0.2603	0.20948	0.095171	0.22005	0.31062	0.34417	0.28175	0.1848	0.19439	0.23226	0.24041	0.23279	0.30815	0.18889	-0.73125	-1.7854	-2.0292	-1.4125	-1.9896	-1.575	-1.5917	-2.2083	-1.1063	-1.6875	-2.0187	-1.2313	-1.9875	-1.5938	-1.3563	-2.1188	123.849	101.886	56.852	291.288	307.338	210.226	226.960	281.607	136.768	-5.326	233.277	294.361	-23.402	287.762	133.881	256.593	0.00064638	0.00041105	0.00016017	1298.1	5.966e-06	3.8854e-06	1303.4	363.48	4.3544e-06	3.6958e-06	419.47	139.43	120.09	40.786	4.7721e-06	51.363	0.00027077	0.00024371	6.7254e-05	1309	2.7568e-06	2.6588e-06	1315.1	368.58	2.7605e-06	2.6849e-06	423.32	141.2	121.96	41.646	2.761e-06	52.137	301.777	49.824	25.914	-25.374	99.650	160.985	-25.398	-20.882	146.732	116.622	-21.306	-16.798	-16.426	-11.783	149.621	-12.566	-8191	255	
16163.694	1	1	0	0	0.19625	0.15783	0.21874	0.26192	0.13625	0.22389	0.38374	0.30805	0.19921	0.19276	0.21273	0.11341	0.15713	0.10622	0.15213	0.20838	-0.80208	-1.5938	-1.9708	-1.2854	-2.0062	-1.725	-1.4354	-2.2354	-1.2792	-1.5312	-2.0667	-1.2604	-1.9958	-1.7563	-1.2896	-2.0792	207.870	53.377	207.573	314.777	156.586	225.179	239.136	242.853	-2.586	-0.205	253.961	142.103	278.348	320.336	195.713	220.469	0.00062656	0.00048678	0.00014593	1289.2	5.8273e-06	4.4081e-06	1304.2	362.92	6.7083e-06	3.7415e-06	419.02	139.9	120.59	40.824	4.4248e-06	51.47	0.00027291	0.00024749	6.7433e-05	1306.1	2.7199e-06	2.7002e-06	1315.8	368.38	2.8389e-06	2.6783e-06	423.09	141.47	121.91	41.653	2.713e-06	52.176	305.345	47.923	28.671	-25.244	119.191	86.604	-25.539	-20.542	211.787	159.979	-21.306	-16.648	-16.121	-11.681	97.607	-12.230	-8191	255	
16163.812	1	1	0	0	0.21092	0.33744	0.15156	0.24471	0.10291	0.10642	0.12408	0.2308	0.11167	0.084226	0.14581	0.15545	0.10511	0.13848	0.21963	0.079927	-1.0542	-1.4708	-2.1083	-1.3583	-2.025	-1.7771	-1.2313	-2.0854	-1.3896	-1.5646	-2.3896	-1.3333	-1.7979	-1.8563	-1.0583	-1.9937	-38.648	241.408	154.164	249.049	180.046	216.130	251.382	266.106	236.969	260.365	252.296	-25.806	-8.224	225.346	317.607	59.225	0.00061399	0.00038784	0.0001517	1296.2	5.297e-06	5.9251e-06	1304.6	364.06	2.5503e-06	5.3227e-06	419.34	139.39	120.3	40.839	4.094e-06	51.227	0.00027095	0.00025236	6.9223e-05	1306.9	2.7337e-06	2.7117e-06	1317.4	369.1	2.8101e-06	2.7029e-06	423.68	141.52	122.03	41.689	2.79e-06	52.21	312.341	57.842	33.628	-25.341	153.984	138.032	-25.799	-21.166	206.055	121.546	-21.662	-17.308	-16.396	-12.392	134.317	-13.108	-8191	255	
16163.909	1	1	0	0	0.11666	0.13987	0.23239	0.31066	0.1755	0.12009	0.22219	0.23328	0.1293	0.22764	0.14338	0.21012	0.15506	0.084526	0.18216	0.15151	-1.1354	-1.2	-1.925	-1.425	-1.7188	-1.8833	-1.5667	-2.3104	-1.7104	-1.2083	-2.0229	-1.4792	-1.6896	-2.15	-1.0812	-1.8771	157.954	-35.522	30.636	279.355	198.457	-0.480	217.981	282.982	232.544	88.368	4.004	-32.315	296.331	287.021	294.946	318.640	0.00054189	0.0002713	0.00011039	1294.4	3.1885e-06	6.5914e-06	1298.2	363.43	8.1131e-06	3.9139e-06	419.61	139.29	120.58	40.649	6.49e-06	51.422	0.00026634	0.00024669	6.8199e-05	1306.4	2.7677e-06	2.6403e-06	1313.8	369.29	2.7585e-06	2.7716e-06	422.8	141.17	121.9	41.57	2.7334e-06	52.129	311.806	66.596	33.441	-25.937	34.817	104.155	-26.017	-21.333	202.404	93.977	-21.736	-17.235	-16.552	-12.399	115.414	-13.009	-8191	255	
16164.005	1	1	0	0	0.20904	0.066143	0.21915	0.12104	0.19043	0.13632	0.31363	0.26907	0.21009	0.15703	0.10169	0.055259	0.19718	0.17111	0.3148	0.19872	-1.3604	-1.2437	-1.7708	-1.3896	-1.4333	-2.0042	-1.3167	-1.9521	-1.6917	-1.2479	-2.2854	-1.4854	-1.5604	-2.2521	-1.2062	-1.9792	263.054	291.667	61.044	261.757	56.093	41.323	291.404	223.122	74.372	302.685	-32.685	-29.858	297.405	294.332	259.592	30.378	0.00079138	0.00034703	0.0001102	1294.9	5.7079e-06	5.5681e-06	1297.5	363.77	6.9461e-06	6.9113e-06	420.84	139.55	120.21	40.877	4.1086e-06	51.162	0.00026852	0.00024915	6.8874e-05	1306	2.7968e-06	2.6942e-06	1312.8	368.34	2.7923e-06	2.6909e-06	424	140.99	121.92	41.632	2.7885e-06	52.008	306.910	48.527	42.992	-25.848	108.982	124.782	-25.930	-21.046	201.028	113.393	-21.679	-16.977	-16.533	-12.083	133.357	-12.908	-8191	255	
16164.076	1	1	0	0	0.15002	0.35819	0.098617	0.32961	0.19018	0.1584	0.17375	0.39516	0.41306	0.027066	0.25687	0.31208	0.39518	0.1509	0.049485	0.11788	-1.4396	-1.1396	-1.9813	-1.6167	-1.3813	-2.1562	-1.3542	-1.8083	-2.0187	-1.1812	-2.1042	-1.6292	-1.5021	-2.2292	-1.3042	-1.8687	289.668	86.589	13.685	-34.352	70.018	-0.005	267.106	280.978	303.544	313.835	-12.654	275.092	315.704	31.893	106.709	42.770	0.00062103	0.00031767	0.00015169	1290.7	9.5522e-06	7.1883e-06	1303.1	362.99	3.7353e-06	3.4895e-06	417.21	139.28	119.43	40.726	3.6098e-06	51.172	0.000267	0.0002528	6.8219e-05	1304.2	2.819e-06	2.6489e-06	1314	368.87	2.7694e-06	2.7758e-06	422.57	140.63	121.49	41.586	2.7328e-06	52	300.000	53.126	58.290	-26.165	124.009	108.012	-26.402	-21.116	191.062	110.678	-21.868	-17.197	-16.766	-12.120	129.724	-13.114	-8191	255	
16164.197	1	1	0	0	0.12661	0.13983	0.17545	0.3114	0.099156	0.063564	0.30397	0.39692	0.22537	0.068614	0.26341	0.22098	0.24922	0.068378	0.12843	0.21791	-1.6979	-1.0604	-2.0833	-1.6896	-1.3188	-1.9167	-1.5729	-1.8458	-1.8667	-1.2417	-2.1979	-1.5792	-1.1958	-2.1479	-1.2292	-1.7354	315.265	247.084	293.451	291.940	289.595	241.284	285.906	291.185	63.228	128.476	318.597	224.294	95.072	-20.034	36.523	178.289	0.00061704	0.0004565	0.00011379	1285.2	4.8046e-06	5.6356e-06	1295	363.72	4.6515e-06	3.4627e-06	419.79	138.52	120.21	40.551	3.139e-06	50.915	0.00026935	0.00025529	6.8418e-05	1302.4	2.7866e-06	2.7586e-06	1310.4	368.52	2.851e-06	2.7564e-06	422.48	140.64	121.59	41.46	2.7866e-06	51.983	299.902	23.584	66.008	-25.976	97.077	144.036	-25.950	-21.233	182.594	106.819	-22.058	-17.189	-16.649	-12.486	194.865	-13.186	-8191	255	
16164.293	1	1	0	0	0.15858	0.1481	0.12934	0.073047	0.22553	0.2149	0.15649	0.15599	0.085697	0.26986	0.10728	0.12374	0.07846	0.14449	0.12661	0.090374	-1.5958	-1.3667	-1.8021	-1.9854	-1.1938	-2.2042	-1.5375	-1.5833	-2.0896	-1.2542	-2.0062	-2.0271	-1.3312	-2.1896	-1.2958	-1.5792	205.114	15.449	186.701	316.006	71.292	-38.618	195.639	249.291	52.298	169.846	20.513	291.737	274.803	298.513	212.339	215.141	0.00055896	0.00042074	0.00011217	1290.2	6.4318e-06	1.9461e-06	1296	362.39	3.6709e-06	2.7489e-06	416.23	138.02	119.64	40.63	6.4439e-06	51.118	0.00026365	0.00024975	6.9214e-05	1302.7	2.7732e-06	2.6698e-06	1310.3	367.55	2.809e-06	2.7376e-06	420.88	140.44	121.28	41.393	2.7567e-06	51.893	299.010	53.802	33.223	-25.777	84.281	116.305	-25.936	-21.305	188.047	130.023	-21.821	-17.465	-16.750	-12.222	151.778	-13.124	-8191	255	
16164.389	1	1	0	0	0.076851	0.26973	0.14808	0.27621	0.020505	0.13651	0.43923	0.25932	0.090883	0.14436	0.26381	0.12867	0.051072	0.33805	0.18174	0.3978	-1.8563	-1.1792	-1.7375	-1.9458	-1.1854	-2.1146	-1.6104	-1.5	-1.9312	-1.2417	-1.9438	-1.8792	-1.2333	-2.1021	-1.6375	-1.5396	109.702	19.617	213.748	296.828	152.933	10.091	284.717	251.763	292.480	111.800	283.538	181.324	186.106	285.249	177.423	274.814	0.00059567	0.00039357	6.8328e-05	1286.8	6.5036e-06	3.2179e-06	1291.9	362.84	5.8041e-06	4.2874e-06	418.24	138.28	119.39	40.566	5.2593e-06	50.853	0.00027558	0.00025334	6.9577e-05	1301.7	2.8515e-06	2.7351e-06	1307.1	367.52	2.795e-06	2.7743e-06	421.57	140.39	121.11	41.386	2.8456e-06	51.904	308.729	40.090	52.410	-25.705	113.991	57.310	-26.136	-21.177	184.785	142.659	-21.599	-17.083	-16.388	-12.198	157.512	-12.976	-8191	255	
16164.510	1	1	0	0	0.060863	0.29258	0.081258	0.28939	0.20393	0.11767	0.14914	0.15502	0.23939	0.13331	0.26408	0.24843	0.25008	0.15883	0.22811	0.22291	-1.7	-1.1688	-1.4875	-2.0312	-1.0625	-2.1042	-1.9167	-1.5104	-1.9958	-1.4312	-1.6667	-2.0208	-1.2667	-1.975	-1.7458	-1.2062	29.150	13.937	-37.620	301.422	131.402	119.745	215.921	258.521	105.027	245.055	45.449	312.291	-28.283	29.219	-12.012	288.670	0.00058497	0.00059668	6.4174e-05	1290.3	5.5163e-06	5.2128e-06	1301.9	362.05	1.012e-05	5.1161e-06	417.76	138.23	119.6	40.683	5.507e-06	50.827	0.00027613	0.00025502	7.0166e-05	1303.8	2.807e-06	2.7884e-06	1310	366.87	2.8084e-06	2.7356e-06	420.98	140.25	121.07	41.417	2.7667e-06	51.775	299.004	53.286	17.348	-25.799	108.176	133.553	-25.865	-21.060	191.049	101.933	-21.783	-17.255	-16.736	-12.210	101.893	-12.867	-8191	255	
16164.604	1	1	0	0	0.11728	0.2925	0.044652	0.19643	0.081518	0.16903	0.10079	0.18369	0.21535	0.14168	0.14433	0.11636	0.086202	0.15725	0.21117	0.25769	-1.7875	-1.3146	-1.5063	-2.0417	-1.1229	-1.8354	-1.8833	-1.4312	-1.9583	-1.5	-1.5625	-2.1	-1.1792	-1.9083	-1.7833	-1.4208	206.620	184.001	-33.707	-24.740	70.739	120.496	246.067	311.915	34.072	159.669	234.813	222.499	-3.538	229.119	281.674	258.142	0.00057917	0.00028753	0.00015616	1290.9	5.8233e-06	9.3923e-06	1296.8	361.04	3.7791e-06	2.5649e-06	416.22	138.09	119.5	40.554	5.24e-06	50.773	0.00027271	0.000251	7.0505e-05	1301.5	2.8194e-06	2.6863e-06	1309.1	366.37	2.8027e-06	2.6852e-06	420.59	140.2	120.94	41.339	2.7037e-06	51.742	302.553	32.161	43.313	-25.628	124.938	91.728	-26.030	-20.960	175.751	82.215	-21.770	-17.055	-16.464	-12.214	129.320	-13.164	-8191	255	
16164.678	1	1	0	0	0.28908	0.15882	0.017225	0.19708	0.21848	0.042818	0.16751	0.32621	0.091832	0.030755	0.19947	0.058681	0.44585	0.27334	0.10434	0.057023	-1.575	-1.4458	-1.2146	-2.3583	-1.0979	-1.5562	-2.0104	-1.2417	-2.0833	-1.5167	-1.3813	-2.1875	-1.5063	-1.8458	-1.7979	-1.1833	30.776	-28.493	187.583	269.907	118.026	85.395	151.474	261.271	196.113	298.712	-3.789	209.329	290.586	266.734	30.373	-17.484	0.00061488	0.00035317	0.00016071	1286.9	4.0658e-06	4.7938e-06	1293.9	361.21	7.1126e-06	2.6854e-06	417.36	137.99	119.14	40.617	6.0833e-06	50.951	0.00027285	0.00025248	7.0547e-05	1301.3	2.8814e-06	2.7208e-06	1308.6	366.92	2.8325e-06	2.768e-06	421.04	140.1	121.09	41.368	2.7363e-06	51.767	299.017	51.607	34.355	-25.821	74.330	92.823	-25.983	-21.212	187.622	84.727	-21.374	-17.025	-16.517	-12.060	124.294	-13.089	-8191	255	
16164.797	1	1	0	0	0.11623	0.44869	0.087927	0.24038	0.079499	0.035577	0.2197	0.52617	0.19365	0.028399	0.35741	0.15866	0.071222	0.076997	0.090247	0.45646	-1.6292	-1.4583	-1.2396	-2.3083	-1.2979	-1.85	-2.0187	-1.1833	-1.6354	-1.6667	-1.2083	-2.0979	-1.2792	-1.6167	-1.9458	-1.1583	279.407	9.644	31.466	10.109	279.785	277.800	215.632	240.949	-31.544	299.891	283.987	270.999	144.438	270.079	179.962	255.610	0.00067032	0.00029147	0.00011485	1289.6	6.1752e-06	4.4137e-06	1295.9	361.51	5.1469e-06	6.488e-06	415.92	138.33	119.24	40.679	2.9119e-06	50.96	0.00027489	0.00025073	6.8964e-05	1301.8	2.7821e-06	2.7249e-06	1309.2	366.87	2.7243e-06	2.681e-06	420.38	140.21	120.86	41.43	2.6575e-06	51.758	298.292	53.786	31.525	-25.540	87.370	137.672	-25.902	-21.101	217.048	102.832	-21.864	-16.895	-16.551	-11.783	96.948	-12.776	-8191	255	
16164.893	1	1	0	0	0.025702	0.2062	0.097795	0.46821	0.14317	0.11869	0.31739	0.3445	0.057511	0.079115	0.31527	0.18368	0.28575	0.10309	0.094925	0.209	-1.5354	-1.7437	-0.925	-2.0583	-1.5833	-1.4417	-2.0542	-1.1708	-1.925	-1.7396	-1.1021	-2.1208	-1.6375	-1.5542	-2.0687	-1.4042	44.640	56.782	127.154	260.339	2.576	195.196	242.678	247.650	281.548	10.904	281.813	222.545	311.421	277.573	27.246	272.804	0.00058791	0.000556	0.00012122	1286.4	6.7472e-06	3.6428e-06	1295.2	361.57	7.6949e-06	6.7696e-06	416.87	138.18	119.04	40.668	4.4593e-06	50.716	0.00026459	0.00024858	6.754e-05	1300.1	2.8162e-06	2.7251e-06	1307.7	366.57	2.7738e-06	2.6715e-06	420.32	140.07	120.88	41.414	2.6795e-06	51.661	305.290	39.468	61.937	-25.591	120.292	131.370	-26.114	-21.207	200.425	106.927	-21.778	-16.866	-16.661	-11.952	128.092	-13.278	-8191	255	
16164.989	1	1	0	0	0.23342	0.20129	0.051245	0.11736	0.13774	0.20091	0.29709	0.28723	0.2577	0.090772	0.032072	0.33071	0.20362	0.057865	0.19799	0.22388	-1.3229	-1.8687	-1.1375	-2.1417	-1.4937	-1.3417	-2.2	-1.2125	-1.5667	-1.8125	-1.1917	-1.9562	-1.4333	-1.2354	-2.1729	-1.4604	261.487	232.007	113.398	246.100	206.059	306.103	248.545	293.632	180.284	176.996	126.529	289.011	314.799	247.416	103.262	265.007	0.00060386	0.0005976	0.00015186	1286.5	5.7131e-06	4.2992e-06	1295.3	361.88	6.0767e-06	3.5641e-06	414.32	138.16	118.98	40.412	7.7232e-06	50.701	0.0002664	0.00024865	6.9564e-05	1301.1	2.7584e-06	2.6754e-06	1308.5	366.6	2.744e-06	2.6646e-06	419.15	140.13	120.71	41.334	2.6852e-06	51.696	296.392	62.933	36.572	-25.716	127.323	136.175	-25.889	-21.091	180.169	116.418	-21.204	-16.825	-16.469	-12.075	119.524	-13.206	-8191	255	
16165.110	1	1	0	0	0.13072	0.10868	0.1633	0.27921	0.29618	0.15542	0.14132	0.26094	0.030023	0.092826	0.33504	0.1329	0.19195	0.20711	0.044169	0.074065	-1.2333	-1.9208	-1.0667	-2.05	-1.8208	-1.1063	-2.0187	-1.5667	-1.3646	-1.9271	-1.2271	-1.9604	-1.6771	-1.5	-2.2375	-1.4688	255.704	184.118	82.343	312.932	72.255	190.496	313.780	193.673	162.183	122.962	290.795	214.502	288.189	184.866	207.141	21.426	0.00064418	0.00026824	8.9653e-05	1292.2	3.8362e-06	6.3788e-06	1289.7	360.9	5.1963e-06	2.3591e-06	415.68	138.16	119.62	40.504	4.0078e-06	50.704	0.00026537	0.00024556	6.9204e-05	1303.2	2.7405e-06	2.7077e-06	1305.8	366.06	2.7556e-06	2.6336e-06	420.29	140.19	121.11	41.338	2.7121e-06	51.62	302.399	82.289	55.829	-25.648	125.026	120.498	-25.982	-21.031	191.464	111.288	-21.491	-17.192	-16.716	-11.982	161.091	-12.861	-8191	255	
16165.206	1	1	0	0	0.11306	0.23734	0.18046	0.34015	0.16119	0.2221	0.097258	0.1895	0.053557	0.23055	0.49429	0.22612	0.12724	0.16571	0.15171	0.28459	-1.0521	-2.2208	-1.2667	-1.9375	-1.5729	-1.1646	-2.3625	-1.7021	-1.3292	-2.0563	-1.1417	-1.9	-1.8125	-1.3729	-1.9937	-1.7104	270.889	143.706	120.998	255.355	115.474	187.598	276.717	242.942	-20.548	49.436	222.812	220.438	243.785	38.529	11.923	244.228	0.00061187	0.00027462	0.00011502	1286	7.3137e-06	6.0669e-06	1297.2	362.39	7.0189e-06	5.9905e-06	415.8	138.54	119.36	40.484	2.7108e-06	50.933	0.00027236	0.00024289	6.7308e-05	1300.4	2.735e-06	2.7282e-06	1309.3	366.39	2.7066e-06	2.6209e-06	420.3	140.21	121	41.288	2.5922e-06	51.742	305.562	73.522	9.831	-25.553	120.215	134.498	-25.936	-20.982	186.230	121.618	-21.852	-17.150	-16.636	-12.223	135.658	-13.370	-8191	255	
16165.302	1	1	0	0	0.30709	0.11417	0.089659	0.3917	0.16263	0.19751	0.28805	0.1916	0.064219	0.2198	0.066057	0.033074	0.031443	0.12379	0.11606	0.0285	-0.9375	-1.9958	-1.2854	-2.0396	-2.0042	-1.0708	-2.3125	-1.7313	-1.1187	-1.9167	-1.4021	-1.8542	-1.9354	-1.35	-1.8521	-1.7625	79.864	50.728	-26.280	242.500	240.148	311.058	308.798	220.341	105.697	86.224	286.867	122.789	292.963	311.145	117.616	-34.444	0.00060048	0.0005543	0.00015957	1288	5.6417e-06	9.3211e-06	1292.4	361.09	6.0711e-06	5.1246e-06	416.32	138.4	119.53	40.577	3.7623e-06	50.661	0.00026314	0.00023561	6.5941e-05	1298.2	2.6378e-06	2.588e-06	1304.6	365.88	2.6827e-06	2.4814e-06	420.39	140.08	120.89	41.403	2.4893e-06	51.629	303.313	60.263	40.743	-25.614	126.424	104.996	-25.809	-21.308	175.200	121.199	-21.977	-17.129	-16.592	-12.246	135.457	-13.149	-8191	255	
16165.374	1	1	0	0	0.39233	0.12403	0.080543	0.39844	0.061558	0.22735	0.073406	0.26495	0.16712	0.46145	0.22512	0.19129	0.20921	0.27903	0.11328	0.16518	-0.91875	-1.9771	-1.2292	-1.6437	-1.7396	-1.2313	-1.9958	-1.7875	-1.1771	-1.9292	-1.4021	-1.425	-1.9667	-1.3104	-1.8563	-1.6125	20.826	247.476	263.815	-32.926	-17.697	63.026	308.804	318.249	263.813	154.509	77.647	176.146	274.351	281.073	113.254	165.301	0.00053116	0.00044717	8.1505e-05	1287.3	5.556e-06	3.8121e-06	1293.1	361.95	1.4869e-06	5.522e-06	416	138.04	119.63	40.63	4.0822e-06	50.959	0.00025455	0.00023289	6.3369e-05	1297.8	2.5437e-06	2.5286e-06	1303.8	366.78	2.577e-06	2.5521e-06	420.34	139.88	121.1	41.372	2.5662e-06	51.721	305.203	45.165	37.016	-25.808	95.629	132.861	-25.870	-21.241	73.059	112.898	-21.897	-17.075	-16.713	-12.278	92.152	-13.198	-8191	255	
16165.492	1	1	0	0	0.15342	0.062743	0.20955	0.3701	0.04753	0.18534	0.049681	0.27706	0.13511	0.0047124	0.28167	0.21246	0.070946	0.1167	0.18618	0.10094	-0.90208	-1.9896	-1.3625	-1.4813	-1.85	-1.2104	-2.0167	-1.8104	-0.98958	-2	-1.5917	-1.5146	-2.1125	-1.3687	-1.6354	-1.9083	257.771	-20.557	32.669	273.622	10.496	169.558	0.254	271.377	45.621	310.421	295.390	287.186	186.988	6.410	-24.984	-27.844	0.00056138	0.00048513	8.9795e-05	1291.2	4.9357e-06	6.1995e-06	1296.7	361.19	6.0174e-06	4.8771e-06	417.03	138.87	119.28	40.604	8.3063e-06	50.882	0.00026015	0.00023278	6.4898e-05	1301.6	2.6861e-06	2.5949e-06	1306.9	366.23	2.6085e-06	2.6014e-06	420.54	140.41	120.88	41.408	2.5811e-06	51.75	303.596	60.772	33.438	-25.850	88.342	118.066	-25.906	-21.194	159.586	117.636	-21.831	-17.184	-16.575	-12.227	113.205	-12.869	-8191	255	
16165.589	1	1	0	0	0.12049	0.083421	0.24833	0.23126	0.081257	0.10522	0.21588	0.12156	0.089872	0.1577	0.21814	0.31623	0.16806	0.078101	0.15899	0.23188	-0.875	-1.8958	-1.6187	-1.2125	-2.2292	-1.125	-1.7792	-2.1458	-0.95833	-1.9229	-1.5875	-1.3917	-2.1146	-1.4583	-1.5042	-1.9521	30.979	214.279	15.952	284.335	280.161	-21.870	311.476	196.362	-14.333	309.343	262.128	263.932	11.824	262.217	245.829	184.330	0.0005534	0.00043213	0.00016603	1285.8	6.3354e-06	4.9901e-06	1294.2	362.15	5.0052e-06	6.4975e-06	415.86	137.96	119.19	40.722	5.2995e-06	50.787	0.00026464	0.00023884	6.6252e-05	1299	2.6331e-06	2.6109e-06	1305.8	366.1	2.6803e-06	2.5378e-06	419.56	140.16	121.02	41.42	2.6269e-06	51.742	311.122	56.211	14.400	-25.931	121.323	117.373	-26.089	-21.256	203.396	91.860	-21.940	-16.765	-16.456	-12.276	110.968	-13.040	-8191	255	
16165.685	1	1	0	0	0.1976	0.14116	0.19961	0.22986	0.30175	0.31263	0.25188	0.36499	0.20346	0.23262	0.27633	0.30509	0.30202	0.24348	0.087626	0.32892	-0.94583	-1.7458	-1.4542	-1.3958	-1.9521	-1.2833	-1.6229	-2.1604	-1.1562	-1.8333	-1.8542	-1.2479	-2.0792	-1.6771	-1.4813	-2.2104	24.840	258.931	16.127	198.428	314.589	289.556	237.904	227.781	37.520	226.304	244.638	275.470	-23.680	242.600	-12.283	128.655	0.00045727	0.00033213	0.00010846	1283.9	5.232e-06	7.2101e-06	1296.1	361.69	2.7513e-06	5.0523e-06	415.42	138.22	118.91	40.54	3.5981e-06	50.964	0.00025957	0.00023458	6.7173e-05	1299.4	2.6146e-06	2.5131e-06	1306.7	366.13	2.6755e-06	2.5574e-06	419.49	140.06	120.9	41.349	2.6009e-06	51.79	296.934	50.710	43.620	-25.762	80.433	106.937	-25.958	-21.244	188.622	116.052	-22.197	-17.218	-16.539	-11.990	107.362	-13.222	-8191	255	
16165.781	1	1	0	0	0.11073	0.16621	0.15623	0.098881	0.36639	0.069082	0.35554	0.36399	0.1135	0.11869	0.1993	0.20987	0.10039	0.13998	0.23712	0.086007	-0.94583	-1.6958	-1.7333	-1.4333	-2.05	-1.4667	-1.5042	-2.2083	-1.2188	-1.7417	-1.9146	-1.3042	-1.9	-1.6083	-1.2229	-2.1021	-12.715	65.923	144.396	-7.302	90.148	146.073	265.730	283.843	65.194	67.716	269.125	292.284	207.826	293.900	295.628	251.901	0.00070708	0.00055743	7.4599e-05	1286.7	2.9776e-06	6.2943e-06	1297.9	361.27	5.3654e-06	6.0715e-06	416.71	138.34	119.5	40.595	3.487e-06	50.796	0.00026074	0.00023304	6.4603e-05	1299.1	2.6411e-06	2.5572e-06	1306.7	366.21	2.6698e-06	2.5372e-06	419.8	140.14	121.18	41.344	2.6921e-06	51.693	300.606	27.007	18.072	-25.837	133.516	116.270	-26.006	-21.224	181.667	113.481	-21.427	-17.077	-16.604	-12.475	106.622	-12.976	-8191	255	
16165.902	1	1	0	0	0.11445	0.19026	0.25841	0.27917	0.22846	0.2532	0.2371	0.31796	0.24552	0.033041	0.12431	0.12243	0.17145	0.27237	0.20877	0.13911	-0.77708	-1.6458	-2.0979	-1.3521	-1.8729	-1.6	-1.5354	-2.1188	-1.3104	-1.4979	-2.1417	-1.1792	-1.9312	-1.6313	-1.3104	-2.075	92.337	108.369	-22.770	280.671	55.964	145.690	185.618	297.044	261.190	78.574	-11.848	223.360	95.321	-30.544	284.998	276.751	0.00065027	0.0003464	8.8908e-05	1288.5	5.704e-06	4.1906e-06	1296.7	361.65	9.2521e-06	4.1372e-06	414.86	138.47	119.11	40.678	6.3927e-06	50.987	0.00025701	0.00023071	6.4882e-05	1298.2	2.5901e-06	2.5427e-06	1306.6	366.55	2.6444e-06	2.5363e-06	419.55	140.1	120.93	41.412	2.6257e-06	51.736	311.379	53.954	55.750	-25.909	121.712	106.602	-25.939	-21.108	174.359	123.556	-22.101	-17.346	-16.860	-12.164	135.619	-13.243	-8191	255	
16165.973	1	1	0	0	0.25397	0.10235	0.13957	0.43911	0.19423	0.26881	0.36139	0.14424	0.13651	0.049975	0.31852	0.18912	0.16192	0.18317	0.10384	0.26761	-1.1708	-1.5688	-1.8875	-1.2375	-1.7021	-1.6958	-1.3687	-2.0708	-1.4146	-1.4958	-2.0833	-1.1021	-1.8771	-1.9292	-1.075	-2.0146	182.692	1.958	279.360	302.912	256.436	230.111	293.380	-27.228	176.364	103.836	262.025	120.828	310.346	276.196	232.901	302.752	0.00056571	0.00065669	0.00011708	1288.2	4.6628e-06	7.5099e-06	1296.6	361.62	5.777e-06	3.9867e-06	417.88	137.93	119.5	40.603	4.9903e-06	50.732	0.00025786	0.0002396	6.5402e-05	1300.8	2.6724e-06	2.6272e-06	1306.2	366.57	2.7273e-06	2.6211e-06	420.32	139.98	120.97	41.306	2.6766e-06	51.719	311.970	71.558	25.713	-25.809	132.082	104.183	-25.971	-21.066	178.062	101.322	-21.661	-17.257	-16.557	-12.055	146.623	-13.140	-8191	255	
16166.069	1	1	0	0	0.30437	0.15924	0.025689	0.14446	0.22613	0.27736	0.048535	0.16637	0.087037	0.4411	0.32101	0.37346	0.077018	0.12494	0.2139	0.28612	-0.95	-1.3542	-2.0604	-1.425	-1.8188	-1.7021	-1.2208	-2.1042	-1.4062	-1.2437	-2.1125	-1.3583	-1.7958	-1.8813	-1.1042	-2.1125	118.804	-19.153	266.473	-7.191	275.718	95.217	-24.527	215.175	-6.469	-23.779	258.587	255.081	257.749	-7.821	202.703	155.341	0.00054745	0.00037413	0.00015033	1286.5	6.8025e-06	7.3427e-06	1291.6	360.86	2.0875e-06	5.4621e-06	415.42	137.97	119.1	40.617	1.9546e-06	50.8	0.00026459	0.00024027	6.6784e-05	1300.1	2.6094e-06	2.5899e-06	1304.5	366.52	2.6355e-06	2.61e-06	419.98	139.84	120.82	41.332	2.6981e-06	51.666	309.953	71.722	60.943	-25.822	91.751	88.868	-26.116	-21.175	195.077	131.822	-21.837	-17.329	-16.530	-12.211	120.922	-13.018	-8191	255	
16166.190	1	1	0	0	0.076062	0.052852	0.042364	0.30273	0.22327	0.089321	0.39053	0.40783	0.11757	0.1606	0.11997	0.18732	0.18543	0.37936	0.22754	0.067482	-1.0708	-1.1708	-1.9875	-1.4312	-1.6354	-1.9146	-1.3188	-1.9771	-1.675	-1.1958	-2.0938	-1.6354	-1.4937	-2.0104	-1.1021	-2	-34.982	-11.086	186.080	275.859	105.279	241.809	258.591	270.582	275.704	-38.916	184.262	121.133	-36.280	303.538	32.407	189.395	0.00061738	0.00049806	0.00012966	1288.8	5.5608e-06	3.7701e-06	1298.3	361.28	7.8015e-06	4.2586e-06	415.67	138.61	119.27	40.616	4.6289e-06	50.719	0.00026111	0.00023734	6.7221e-05	1300.5	2.6932e-06	2.6217e-06	1309.3	366.38	2.7233e-06	2.7102e-06	419.5	140.01	121.05	41.387	2.7117e-06	51.714	304.355	41.575	47.554	-25.989	105.357	86.636	-25.771	-21.118	178.525	151.553	-21.847	-17.227	-16.738	-12.428	103.337	-12.975	-8191	255	
16166.286	1	1	0	0	0.092381	0.21862	0.14199	0.45546	0.062639	0.13059	0.15303	0.21061	0.12612	0.15936	0.10708	0.34166	0.080347	0.26613	0.072747	0.11464	-1.4542	-1.2146	-1.9312	-1.5063	-1.5312	-1.9937	-1.4604	-2.0771	-1.7354	-1.1958	-2.2396	-1.7792	-1.2917	-2.1937	-1.1125	-1.9292	145.967	240.438	189.074	253.044	62.943	264.873	239.676	200.712	292.451	-29.470	219.449	246.946	222.871	261.287	256.386	229.750	0.00048815	0.00036183	0.00013686	1289.3	6.5699e-06	7.4885e-06	1297.9	361.3	3.957e-06	6.6046e-06	415.88	138.38	119.55	40.551	3.0614e-06	51.049	0.000261	0.00024929	6.659e-05	1298	2.6989e-06	2.5585e-06	1306.6	366.57	2.6992e-06	2.6565e-06	420.01	140.25	121.01	41.298	2.6745e-06	51.712	303.920	25.618	48.589	-26.064	120.018	96.433	-26.037	-21.102	183.164	119.775	-21.987	-17.311	-16.573	-12.283	105.443	-13.261	-8191	255	
16166.382	1	1	0	0	0.26728	0.12154	0.16812	0.3668	0.12033	0.17545	0.40698	0.38498	0.29455	0.24407	0.26297	0.48615	0.24174	0.28688	0.19294	0.074603	-1.4438	-1.2354	-1.8271	-1.6958	-1.3771	-2.075	-1.5417	-1.9625	-1.6792	-1.0333	-2.0271	-1.6583	-1.4667	-2.1833	-1.1854	-1.5854	309.047	7.980	232.174	-22.214	3.869	109.145	253.345	217.511	7.760	-17.669	313.661	311.524	-27.746	-37.444	155.142	48.923	0.00052943	0.00031809	0.00018006	1287.1	5.8528e-06	3.5132e-06	1300.9	361.18	1.009e-06	7.3593e-06	416.05	137.91	119.39	40.487	5.5881e-06	51.017	0.00025815	0.00024413	6.6608e-05	1299.6	2.6998e-06	2.5965e-06	1307.8	366.13	2.649e-06	2.5876e-06	420.42	140.06	120.85	41.334	2.6958e-06	51.808	310.332	45.301	38.719	-25.896	134.132	98.599	-25.996	-21.371	26.384	106.267	-21.822	-17.209	-16.495	-12.090	103.196	-12.957	-8191	255	
16166.478	1	1	0	0	0.099319	0.20311	0.05332	0.1092	0.042365	0.055454	0.46528	0.14286	0.031495	0.21171	0.10754	0.10927	0.14733	0.3353	0.31734	0.31186	-1.5063	-0.93333	-1.8042	-1.7292	-1.1375	-1.9542	-1.4479	-1.6833	-1.9688	-1.0375	-1.8583	-1.8104	-1.1187	-2.1521	-1.3167	-1.5458	117.755	-23.691	10.826	-1.764	55.018	142.611	258.049	279.686	202.002	195.476	244.734	125.368	-17.621	281.436	76.393	221.233	0.00055258	0.00031965	0.00010378	1293.1	4.8528e-06	6.0891e-06	1296	361.67	5.7559e-06	4.7501e-06	416.83	137.89	119.32	40.65	6.6524e-06	50.865	0.00025673	0.00023998	6.5981e-05	1299.9	2.7319e-06	2.6209e-06	1307	366.39	2.6566e-06	2.6979e-06	421.06	139.83	120.9	41.409	2.6515e-06	51.623	297.899	65.510	65.806	-26.022	119.902	135.584	-26.002	-21.026	225.802	129.397	-21.510	-17.418	-16.517	-12.341	107.751	-12.849	-8191	255	
16166.573	1	1	0	0	0.1669	0.048905	0.20712	0.11185	0.23043	0.13935	0.17935	0.10503	0.12764	0.35619	0.097585	0.11617	0.32929	0.1551	0.10743	0.22271	-1.6146	-1.125	-1.6792	-1.9625	-1.1208	-1.9854	-1.7188	-1.4417	-2.0208	-1.0896	-1.6917	-1.9312	-1.2958	-1.9458	-1.4229	-1.475	32.966	191.946	10.219	253.988	117.593	160.912	295.807	298.429	281.605	197.063	224.114	8.800	-7.286	86.117	65.565	234.490	0.00062343	0.00021284	0.00012267	1286	2.5671e-06	8.0867e-06	1294.5	362.2	3.4972e-06	4.9263e-06	417.34	138.39	119.7	40.627	5.2706e-06	50.848	0.00026399	0.00024523	6.6522e-05	1299.6	2.6797e-06	2.6464e-06	1306	366.5	2.6828e-06	2.6841e-06	420.1	139.94	121.02	41.351	2.6872e-06	51.621	308.187	51.255	63.967	-25.840	93.854	94.873	-26.009	-20.947	152.563	132.836	-21.830	-17.283	-16.696	-12.051	109.865	-12.965	-8191	255	
16166.669	1	1	0	0	0.12669	0.093694	0.23165	0.27293	0.070211	0.21764	0.26433	0.27368	0.20127	0.22076	0.1408	0.16329	0.096416	0.46356	0.06968	0.10563	-1.5479	-1.1938	-1.6229	-1.9312	-1.0646	-1.9604	-1.6375	-1.4625	-2.0062	-1.3625	-1.5646	-2.0958	-1.2625	-2.0229	-1.6167	-1.1792	79.247	268.890	169.838	315.156	-25.501	-4.114	171.852	273.373	131.975	316.148	299.796	1.787	-7.603	318.886	131.656	208.423	0.00060055	0.00044621	0.0001264	1287.7	4.94e-06	6.5093e-06	1296.3	361.99	3.0886e-06	3.609e-06	415	138.61	119.03	40.595	5.4107e-06	50.684	0.00026825	0.00024792	6.8166e-05	1300.9	2.7746e-06	2.7141e-06	1307.9	366.51	2.7769e-06	2.6831e-06	419.56	139.95	120.79	41.33	2.7021e-06	51.551	297.814	34.435	56.211	-25.942	111.345	79.872	-25.905	-21.085	152.416	138.871	-21.721	-17.108	-16.594	-12.240	107.835	-12.931	-8191	255	
16166.790	1	1	0	0	0.14155	0.19924	0.15262	0.17198	0.12705	0.20739	0.22311	0.17717	0.22319	0.14679	0.28889	0.16198	0.33039	0.12321	0.2383	0.011246	-1.525	-1.3563	-1.5833	-2.0646	-1.0625	-1.9146	-1.6729	-1.3167	-2.0958	-1.2833	-1.5354	-2.0396	-1.2104	-1.9292	-1.7021	-1.2437	242.167	262.479	-7.505	293.016	25.921	12.479	39.496	296.346	303.255	272.101	219.737	289.466	-19.781	246.122	89.285	93.453	0.00069207	0.00057235	0.00012345	1285.3	7.4863e-06	5.639e-06	1296.1	362.59	2.3815e-06	3.3572e-06	415.83	137.87	118.88	40.522	4.6747e-06	50.687	0.00026948	0.00025132	6.8182e-05	1299.5	2.8002e-06	2.6369e-06	1306.3	366.67	2.7478e-06	2.6639e-06	420.06	139.84	120.7	41.271	2.6834e-06	51.614	298.752	55.398	47.060	-25.741	113.213	117.593	-25.972	-21.150	224.497	121.480	-21.578	-16.970	-16.596	-12.331	96.543	-12.760	-8191	255	
16166.886	1	1	0	0	0.22168	0.10873	0.14311	0.28505	0.16476	0.10699	0.17226	0.33336	0.017917	0.15966	0.08017	0.33267	0.20869	0.14667	0.4643	0.3964	-1.4875	-1.3563	-1.3458	-2.1146	-1.1146	-1.6146	-1.8917	-1.2583	-1.7771	-1.3833	-1.4229	-2.0625	-1.3167	-1.8438	-1.8542	-1.0333	270.063	174.541	88.999	-26.559	159.916	47.344	276.065	266.907	58.681	194.237	-13.221	-33.641	21.137	313.234	28.189	-14.183	0.00052802	0.0006759	0.00010914	1290.3	2.8815e-06	7.4021e-06	1295.6	360.25	6.1621e-06	5.8827e-06	414.74	137.8	119.15	40.686	6.8186e-06	50.924	0.00026495	0.00024451	6.8562e-05	1301.2	2.758e-06	2.6878e-06	1307.4	365.48	2.6921e-06	2.6666e-06	420.09	139.97	120.82	41.397	2.6719e-06	51.767	305.729	52.094	67.847	-25.905	59.431	97.409	-25.971	-21.123	180.512	116.614	-21.905	-17.308	-16.682	-12.446	129.302	-12.976	-8191	255	
16166.982	1	1	0	0	0.33231	0.30123	0.26935	0.21501	0.25773	0.16016	0.37867	0.42176	0.10569	0.054234	0.30393	0.33469	0.32748	0.13044	0.10917	0.33551	-1.5354	-1.6625	-1.175	-2.1708	-1.1229	-1.5646	-1.9813	-1.4333	-1.9229	-1.7208	-1.3146	-2.3125	-1.3667	-1.6229	-1.7708	-1.1063	187.623	216.955	291.339	254.736	108.374	122.400	248.472	237.635	255.038	106.248	3.933	-28.722	267.647	161.874	-23.751	228.797	0.00063578	0.0005575	9.8589e-05	1290.6	6.0269e-06	5.9274e-06	1297.1	361.54	3.5737e-06	4.3164e-06	415.12	138.66	119.42	40.471	4.0443e-06	50.712	0.00026572	0.00024417	6.7857e-05	1302.7	2.7179e-06	2.6465e-06	1307.5	366.05	2.6638e-06	2.6329e-06	419.37	140.08	120.84	41.333	2.6444e-06	51.7	309.842	53.538	44.185	-25.921	82.386	117.204	-25.954	-21.034	167.153	133.078	-21.662	-16.957	-16.522	-11.981	113.865	-13.076	-8191	255	
16167.078	1	1	0	0	0.29729	0.041884	0.31496	0.39755	0.23996	0.1412	0.37431	0.2651	0.090286	0.21028	0.11003	0.1749	0.1168	0.29751	0.19903	0.26793	-1.5021	-1.6125	-1.2	-2.2833	-1.2917	-1.3583	-2.1437	-1.3229	-1.85	-1.9542	-1.2854	-2.0792	-1.5938	-1.5146	-2.0896	-1.3521	-2.605	186.218	-38.286	250.587	50.888	272.813	237.073	252.555	151.395	17.663	255.113	296.531	293.238	301.983	266.242	236.732	0.00058285	0.00042472	0.000114	1285.3	5.4546e-06	5.8966e-06	1298.7	362.74	5.2759e-06	4.1508e-06	419.58	137	119.42	40.641	6.0444e-06	50.785	0.00026072	0.00024214	6.9016e-05	1299.8	2.763e-06	2.6828e-06	1309.3	366.95	2.7832e-06	2.6466e-06	421.93	139.75	121.13	41.32	2.6922e-06	51.661	307.896	42.705	51.230	-25.698	99.473	130.638	-25.880	-21.083	206.358	101.398	-21.603	-17.108	-16.533	-12.218	102.784	-12.782	-8191	255	
16167.199	1	1	0	0	0.10591	0.12155	0.10409	0.25411	0.20944	0.18705	0.21622	0.24846	0.13178	0.22234	0.16149	0.31572	0.023445	0.21587	0.12721	0.29012	-1.4229	-1.7958	-1.1896	-2.1083	-1.5167	-1.2625	-2.3271	-1.3229	-1.8542	-1.7833	-1.0646	-2.2812	-1.6896	-1.3854	-1.9042	-1.1063	283.225	69.685	269.788	297.750	-36.580	259.844	313.706	286.068	147.458	97.491	250.986	278.244	22.292	36.963	212.980	260.801	0.0005522	0.00034213	6.2469e-05	1284.3	7.3276e-06	7.1659e-06	1302.4	363.1	5.3753e-06	7.0482e-06	415.44	138.47	118.82	40.512	3.9924e-06	50.564	0.00026551	0.00024627	6.9258e-05	1302	2.76e-06	2.6847e-06	1311.7	367.17	2.7269e-06	2.6978e-06	419.9	140.02	121.01	41.346	2.7635e-06	51.573	306.586	52.370	12.951	-25.620	118.738	95.340	-25.872	-21.052	162.337	120.223	-21.760	-17.139	-16.879	-11.984	94.517	-12.913	-8191	255	
16167.270	1	1	0	0	0.31251	0.07887	0.21084	0.065751	0.30723	0.48185	0.33198	0.31424	0.19017	0.10049	0.19977	0.019306	0.2958	0.18476	0.33925	0.059756	-1.3271	-1.8375	-1.1854	-1.9521	-1.5771	-1.2229	-2.3688	-1.4542	-1.4646	-1.8604	-1.0792	-1.9062	-1.95	-1.5604	-1.8708	-1.4042	221.137	105.987	143.630	287.095	308.585	313.735	257.508	299.837	5.200	119.304	298.060	287.560	307.606	272.416	125.826	161.725	0.00063514	0.00026096	8.8215e-05	1291.5	6.7574e-06	6.1736e-06	1297	360.63	7.0481e-06	4.7046e-06	416.55	138.82	119.38	40.615	7.7076e-06	50.746	0.0002688	0.00025168	7.0599e-05	1305.2	2.8156e-06	2.7757e-06	1312.8	366.79	2.8273e-06	2.7204e-06	420.68	140.27	120.9	41.411	2.7803e-06	51.738	309.384	45.360	65.429	-25.763	105.653	115.811	-25.880	-21.080	212.679	139.932	-21.663	-17.229	-16.506	-11.939	114.864	-12.994	-8191	255	
16167.367	1	1	0	0	0.19973	0.091249	0.15026	0.44405	0.18899	0.097042	0.30247	0.12752	0.14827	0.030247	0.4753	0.30054	0.19718	0.13157	0.18481	0.11785	-1.1208	-2.0042	-1.2875	-1.8396	-1.6417	-1.1667	-2.1437	-1.6083	-1.4792	-1.8687	-1.3625	-1.8958	-1.7167	-1.2	-1.9729	-1.4875	-38.868	160.945	49.898	-25.183	55.046	67.108	224.728	-28.870	126.977	188.373	285.214	-24.049	269.947	306.790	-36.721	179.104	0.00072555	0.00059377	8.4845e-05	1295.2	7.1247e-06	3.9582e-06	1298.1	362.38	4.7004e-06	4.6742e-06	416.86	138.06	119.55	40.7	6.5627e-06	50.684	0.0002785	0.00025218	7.1651e-05	1305.5	2.788e-06	2.7603e-06	1310.3	367.22	2.8536e-06	2.7749e-06	421.15	140.25	121.06	41.341	2.7333e-06	51.697	296.879	15.286	52.513	-25.742	106.478	83.980	-25.858	-21.158	226.061	126.621	-21.725	-16.988	-16.475	-11.917	90.955	-12.863	-8191	255	
16167.463	1	1	0	0	0.39143	0.15267	0.23925	0.1677	0.17698	0.20822	0.17108	0.36003	0.17011	0.10932	0.33593	0.3786	0.2681	0.16727	0.089414	0.17488	-0.95625	-1.9229	-1.1083	-1.7375	-1.8958	-0.99167	-2.1354	-1.3583	-1.2583	-1.9688	-1.2729	-1.8438	-1.8875	-1.3188	-2.0917	-1.6333	-38.291	76.922	206.850	21.167	53.782	-28.293	282.343	266.278	-32.981	0.287	245.326	319.572	4.737	277.119	-11.327	-16.340	0.00074781	0.00039366	9.0289e-05	1292	4.6269e-06	5.4168e-06	1298.7	361.69	4.2868e-06	5.2982e-06	417.2	138.96	119.65	40.497	6.3132e-06	51.02	0.0002718	0.00024844	6.9632e-05	1305.7	2.8162e-06	2.7609e-06	1309.8	366.94	2.7955e-06	2.7028e-06	420.38	140.36	121.14	41.421	2.7002e-06	51.886	293.330	37.517	46.669	-25.533	162.076	135.502	-26.037	-21.159	166.032	119.638	-21.597	-16.903	-16.609	-11.900	86.427	-13.108	-8191	255	
16167.582	1	1	0	0	0.18705	0.049081	0.090856	0.060999	0.28447	0.20008	0.031907	0.11955	0.19903	0.33941	0.14361	0.069146	0.1641	0.14972	0.21175	0.097171	-0.88333	-1.9792	-1.0708	-1.5708	-2.0333	-1.2313	-1.875	-1.7563	-1.0125	-1.9646	-1.3958	-1.6063	-1.8917	-1.2958	-1.6875	-1.7417	12.104	168.161	286.018	157.611	220.725	256.993	114.150	12.575	42.819	270.414	139.001	290.689	294.999	283.921	17.042	194.553	0.00057705	0.00079012	0.00010925	1291.9	5.307e-06	3.0912e-06	1296.5	361.2	3.2261e-06	5.9001e-06	415.99	138.67	119.45	40.703	2.1066e-06	51.044	0.00026694	0.00024647	6.892e-05	1303.9	2.7157e-06	2.6699e-06	1310.2	367.13	2.7467e-06	2.6751e-06	421.15	140.64	121.4	41.435	2.7072e-06	51.832	308.112	45.166	47.313	-25.635	125.506	88.513	-25.856	-21.178	206.736	88.249	-21.851	-17.074	-16.508	-12.197	117.964	-13.181	-8191	255	
16167.678	1	1	0	0	0.29414	0.11526	0.097214	0.072824	0.10682	0.20039	0.1067	0.2052	0.011597	0.2212	0.15363	0.10163	0.11562	0.0097909	0.15982	0.28792	-0.54583	-1.6958	-1.1938	-1.4583	-2.0333	-0.96042	-1.9917	-1.9604	-0.92292	-1.9813	-1.5792	-1.3229	-2.0625	-1.2542	-1.5729	-1.8417	61.253	112.241	285.127	205.520	122.118	133.943	259.476	159.114	258.926	232.478	-25.243	-16.584	85.894	140.796	145.449	301.135	0.00059766	0.00063762	7.8242e-05	1294.3	7.9942e-06	3.7224e-06	1304.2	361.19	2.7003e-06	3.8277e-06	417.71	138.26	119.2	40.82	6.1176e-06	50.801	0.00027089	0.00025219	6.8719e-05	1306.4	2.7856e-06	2.7141e-06	1314.2	366.54	2.8418e-06	2.7138e-06	420.66	140.38	121.1	41.482	2.7727e-06	51.758	312.269	87.850	48.926	-25.321	103.790	126.914	-25.806	-21.265	150.939	119.881	-21.616	-17.281	-16.307	-12.094	116.792	-13.288	-8191	255	
16167.774	1	1	0	0	0.25518	0.2188	0.13364	0.16285	0.11123	0.10748	0.097816	0.17595	0.074507	0.069337	0.024691	0.14814	0.024879	0.17717	0.19241	0.1774	-0.79375	-1.8458	-1.3687	-1.4479	-2.0854	-1.2521	-1.8375	-2.0083	-1.1479	-1.9312	-1.35	-1.3458	-2.0812	-1.3062	-1.5688	-1.9396	85.909	232.347	132.089	276.124	28.694	220.010	238.702	252.995	124.216	40.031	248.736	283.716	241.588	259.772	0.176	74.142	0.00062798	0.00032967	0.00010592	1287.9	4.5512e-06	2.9557e-06	1302.4	360.86	1.2967e-06	6.0247e-06	417.08	138.4	119.76	40.568	3.8662e-06	51.264	0.00027394	0.00024898	7.0136e-05	1304.4	2.7771e-06	2.7664e-06	1312.3	366.7	2.8139e-06	2.7114e-06	420.79	140.5	121.3	41.394	2.8006e-06	51.903	305.116	99.373	14.634	-25.732	86.895	90.057	-25.780	-21.072	312.510	115.283	-21.613	-16.905	-16.520	-12.073	126.810	-13.097	-8191	255	
16167.870	1	1	0	0	0.24558	0.29877	0.12443	0.32139	0.1147	0.10147	0.30344	0.36653	0.16803	0.26322	0.16273	0.36573	0.27631	0.22609	0.29004	0.17068	-0.71458	-1.7792	-1.7188	-1.4083	-1.9646	-1.2854	-1.6729	-2.1625	-1.0979	-1.6646	-1.875	-1.1396	-2.2042	-1.3521	-1.4708	-2.0521	164.976	179.552	65.236	253.868	72.624	93.926	267.731	277.317	65.786	-11.205	-29.648	309.851	315.434	237.700	59.252	298.210	0.00058505	0.00059815	9.2011e-05	1294.6	5.3986e-06	3.3552e-06	1298.1	361.65	5.4411e-06	3.2354e-06	419.5	138.12	119.55	40.518	3.6312e-06	50.912	0.00028219	0.00024961	6.856e-05	1306.3	2.7686e-06	2.7663e-06	1310.9	367.29	2.7968e-06	2.7327e-06	421.7	140.51	121.2	41.434	2.7578e-06	51.871	302.605	50.305	30.246	-25.507	134.799	84.388	-25.845	-21.108	201.933	159.726	-21.512	-16.998	-16.370	-11.944	76.793	-12.715	-8191	255	
16167.966	1	1	0	0	0.39313	0.083899	0.21456	0.15934	0.1245	0.1924	0.18227	0.10568	0.02019	0.094561	0.15348	0.34021	0.0084315	0.11793	0.095632	0.16071	-0.6875	-1.6958	-1.7708	-1.2646	-2.0042	-1.3896	-1.6208	-2.2417	-1.2333	-1.6708	-1.8458	-1.0688	-2.1958	-1.5625	-1.1958	-2.0917	249.081	207.248	243.623	-7.801	-36.346	296.287	193.045	246.615	91.066	62.500	270.655	273.126	238.748	177.804	1.794	306.145	0.00065294	0.00039195	7.1326e-05	1296.7	2.164e-06	3.3019e-06	1300.8	362.29	3.1718e-06	5.0786e-06	416.98	138.42	120.02	40.699	4.2893e-06	51.305	0.00027158	0.00025146	7.071e-05	1306.3	2.8527e-06	2.7515e-06	1312.8	366.93	2.8327e-06	2.695e-06	420.04	140.27	121.28	41.441	2.7418e-06	51.86	303.681	65.198	55.258	-25.735	74.784	134.002	-25.709	-21.098	190.297	118.512	-21.774	-16.933	-16.692	-12.347	133.090	-13.054	-8191	255	
16168.062	1	1	0	0	0.13085	0.15189	0.18417	0.20845	0.10184	0.19668	0.24981	0.14488	0.28605	0.090087	0.33911	0.32203	0.091943	0.18822	0.16661	0.25504	-1.0125	-1.4875	-1.8625	-1.2896	-1.8979	-1.5021	-1.575	-2.0563	-1.1833	-1.6229	-2.1875	-1.2542	-1.9125	-1.7125	-1.2646	-2.1146	312.729	151.071	132.094	15.132	48.490	140.974	214.798	294.806	81.501	286.433	246.772	256.629	44.497	286.848	135.908	265.977	0.00056065	0.00052107	7.7102e-05	1295.1	5.8327e-06	5.7819e-06	1306.4	362.62	3.9801e-06	5.769e-06	414.37	138.48	119.65	40.633	6.4039e-06	50.849	0.00027489	0.00025238	6.9852e-05	1307.4	2.78e-06	2.6725e-06	1313.9	367.58	2.7896e-06	2.7441e-06	420.12	140.42	121.27	41.442	2.7865e-06	51.87	300.852	41.347	49.175	-25.570	115.286	112.519	-25.978	-21.207	162.900	119.098	-21.571	-17.190	-16.779	-12.288	126.527	-13.018	-8191	255	
16168.158	1	1	0	0	0.11729	0.050331	0.10888	0.13091	0.1859	0.19332	0.29011	0.23628	0.077087	0.20263	0.11853	0.19459	0.33236	0.1083	0.12732	0.15381	-0.71875	-1.3521	-1.9188	-1.2563	-1.7771	-1.7687	-1.2604	-2.2146	-1.2896	-1.4292	-2.2521	-1.2979	-1.95	-1.9417	-1.0854	-2.2	198.618	273.441	295.496	257.258	22.964	70.892	275.627	-38.730	141.413	253.939	165.744	286.972	291.700	312.412	300.169	282.278	0.00057275	0.00044227	0.00014284	1290.2	6.9861e-06	4.5394e-06	1304.8	361.61	9.6227e-07	2.8073e-06	415.59	138.05	119.74	40.496	7.6211e-06	51.132	0.00026717	0.00024835	6.7828e-05	1303.9	2.7743e-06	2.7225e-06	1312.7	367.26	2.7715e-06	2.6826e-06	421.07	140.1	121.27	41.415	2.779e-06	51.895	-38.874	44.992	37.220	-25.713	102.741	77.919	-25.856	-21.116	221.477	154.515	-21.860	-16.868	-16.782	-12.286	105.618	-12.919	-8191	255	
16168.279	1	1	0	0	0.21973	0.15366	0.084273	0.11222	0.11289	0.18803	0.28386	0.14516	0.043132	0.066983	0.064933	0.070242	0.10456	0.37757	0.18284	0.35078	-1.0063	-1.3021	-1.9583	-1.3438	-1.6375	-1.7396	-1.3792	-2.0771	-1.3083	-1.1562	-2.1333	-1.2604	-1.8042	-1.9729	-1.1979	-2.0229	217.124	200.539	78.829	98.506	291.779	39.131	284.602	211.135	35.463	120.188	122.311	252.928	317.503	9.483	220.163	264.457	0.00055933	0.00057647	0.00011126	1293.9	6.1504e-06	8.8625e-06	1304.2	361.59	3.5067e-06	3.5716e-06	418.12	138.69	119.77	40.548	5.1867e-06	51.165	0.00027008	0.00025234	6.954e-05	1305.7	2.7935e-06	2.7127e-06	1313	367.08	2.7807e-06	2.7667e-06	421.19	140.25	121.32	41.382	2.7758e-06	51.856	305.710	30.083	44.929	-25.817	101.922	125.025	-26.097	-21.193	166.628	118.533	-21.615	-17.247	-16.510	-12.344	126.769	-12.957	-8191	255	
16168.373	1	1	0	0	0.11827	0.2636	0.11666	0.30216	0.29005	0.22023	0.1786	0.17036	0.016365	0.21474	0.38519	0.16227	0.35566	0.045485	0.17651	0.27168	-0.925	-1.1333	-1.9083	-1.5146	-1.5583	-1.7375	-1.2729	-2.0229	-1.5375	-1.2	-1.9708	-1.3917	-1.6125	-1.8312	-1.0042	-1.9521	256.410	69.966	23.361	303.840	39.777	198.324	306.039	227.084	285.908	307.650	222.692	58.833	14.693	118.868	74.648	227.053	0.000677	0.00047524	0.00010989	1292.6	6.7837e-06	6.0026e-06	1300.2	361.41	3.19e-06	6.4837e-06	418.01	138.16	119.51	40.684	4.065e-06	50.986	0.00027402	0.0002563	7.1605e-05	1304	2.7291e-06	2.6593e-06	1311.4	366.89	2.7664e-06	2.7498e-06	421.24	140.49	121.23	41.416	2.7329e-06	51.819	304.322	94.016	44.695	-26.043	114.312	119.212	-26.019	-21.145	224.812	116.297	-21.741	-17.024	-16.598	-12.207	119.854	-13.036	-8191	255	
16168.471	1	1	0	0	0.38184	0.29358	0.19879	0.24836	0.081138	0.11701	0.19479	0.43067	0.07834	0.29252	0.33109	0.17153	0.14083	0.13861	0.21278	0.11626	-1.3125	-1.0833	-1.8813	-1.5438	-1.3729	-1.9542	-1.3417	-2.1083	-1.5896	-0.98958	-2.1146	-1.4229	-1.5583	-2.1292	-1.1208	-1.7354	-24.059	258.497	183.609	-24.962	55.886	302.737	286.590	282.813	66.550	230.084	297.431	301.092	317.405	146.063	316.933	289.426	0.00060469	0.00018101	0.00015233	1293.8	5.4338e-06	4.1196e-06	1296.6	362.3	2.4412e-06	4.3748e-06	417.32	138.49	119.81	40.672	5.9869e-06	50.825	0.00026677	0.00025151	7.0643e-05	1307.2	2.7768e-06	2.7056e-06	1311.3	367.06	2.7643e-06	2.7534e-06	420.12	140.39	121.17	41.389	2.7974e-06	51.816	305.240	82.450	54.781	-25.806	111.903	134.503	-25.882	-21.142	164.516	107.221	-21.868	-17.204	-16.348	-12.341	127.921	-13.109	-8191	255	
16168.568	1	1	0	0	0.036037	0.11644	0.28845	0.24909	0.30046	0.18202	0.19375	0.028719	0.14587	0.24646	0.36386	0.1666	0.20379	0.25355	0.25903	0.11161	-1.3104	-0.97708	-1.8625	-1.6146	-1.3625	-1.95	-1.3188	-1.8292	-1.8146	-1.1583	-1.7833	-1.5833	-1.3062	-2.2146	-1.2083	-1.6063	145.811	-21.733	207.980	301.713	101.712	59.229	270.630	-4.805	213.885	-11.135	293.385	229.354	316.925	14.072	20.788	38.310	0.00060672	0.00033302	0.00010375	1295.4	8.0754e-06	2.3206e-06	1298.2	362.3	4.9643e-06	3.7581e-06	414.81	138.12	119.55	40.753	3.2103e-06	50.927	0.00027231	0.00025243	6.8221e-05	1305.6	2.774e-06	2.6823e-06	1312.1	367.26	2.8566e-06	2.8386e-06	420.09	140.24	121.16	41.427	2.7488e-06	51.789	298.629	19.290	25.350	-25.852	114.458	83.636	-25.999	-21.197	181.476	126.338	-21.588	-17.057	-16.345	-12.014	120.433	-13.131	-8191	255	
16168.662	1	1	0	0	0.065367	0.19042	0.22318	0.18124	0.13689	0.33421	0.22121	0.058618	0.1941	0.19615	0.11349	0.17535	0.18378	0.44557	0.07656	0.16671	-1.3729	-1.0458	-1.8125	-1.8854	-1.225	-2.0104	-1.475	-1.5042	-1.775	-0.9	-1.8	-1.7708	-1.3958	-1.9521	-1.2854	-1.6	224.239	-26.721	212.373	253.033	9.941	206.507	173.420	238.990	317.548	214.473	269.884	1.681	284.970	314.333	182.424	147.458	0.00039695	0.00037768	0.00012743	1292.1	3.7055e-06	4.9178e-06	1303.9	361.69	5.2681e-06	1.5334e-06	418.47	138.07	119.54	40.617	2.5944e-06	50.836	0.00027042	0.00025529	7.0444e-05	1304.6	2.8257e-06	2.7554e-06	1313.6	366.89	2.8396e-06	2.7741e-06	422.04	140.1	121.07	41.438	2.7189e-06	51.82	313.854	72.043	30.697	-25.917	54.438	109.500	-25.822	-21.125	181.208	88.357	-21.704	-17.125	-16.556	-12.145	180.099	-12.919	-8191	255	
16168.758	1	1	0	0	0.2443	0.28773	0.29983	0.40746	0.23415	0.22991	0.18995	0.26439	0.28095	0.25878	0.14411	0.13801	0.27875	0.31594	0.2281	0.26125	-1.4688	-1.4375	-1.8062	-1.8542	-1.2542	-1.9583	-1.7563	-1.4896	-1.8104	-1.0896	-1.9667	-1.9	-1.1125	-2.0958	-1.4292	-1.3021	-3.819	90.497	128.781	308.891	138.820	169.891	248.077	274.876	180.304	228.230	-24.189	-25.042	-31.238	262.459	-3.631	195.251	0.00049054	8.4984e-05	5.448e-05	1292.5	3.9449e-06	1.0081e-05	1301.2	361.88	8.5009e-06	4.7003e-06	418.82	138.2	119.27	40.67	1.3467e-06	50.985	0.00027397	0.00025082	6.8099e-05	1305.7	2.8068e-06	2.7468e-06	1312.2	367.58	2.8002e-06	2.7191e-06	420.87	140.1	121.34	41.46	2.7759e-06	51.862	313.617	62.228	25.128	-25.860	128.849	129.012	-26.063	-21.228	225.164	141.280	-22.096	-17.032	-16.564	-11.926	163.501	-12.942	-8191	255	
16168.879	1	1	0	0	0.062803	0.18012	0.33581	0.088684	0.23092	0.019061	0.30085	0.53197	0.15156	0.1048	0.30061	0.26395	0.24995	0.048463	0.13393	0.078376	-1.6583	-1.1146	-1.8042	-2.0062	-1.2188	-2.0375	-1.6333	-1.6063	-2.1063	-1.1354	-1.7417	-1.9125	-1.3833	-2.0417	-1.6146	-1.3896	115.809	28.281	16.284	310.328	229.573	293.190	274.979	289.536	-4.279	39.723	211.538	-28.721	314.713	173.284	162.258	220.996	0.00066758	0.00035493	0.0001557	1292.4	3.5315e-06	7.6743e-06	1302.3	361.82	8.3678e-06	3.4079e-06	415.5	138.61	119.75	40.511	4.7051e-06	50.936	0.00026563	0.00025189	7.0728e-05	1306.1	2.7886e-06	2.7774e-06	1313.9	366.87	2.8008e-06	2.777e-06	420.3	140.43	121.39	41.463	2.7677e-06	51.832	309.857	57.524	52.831	-25.728	132.335	114.820	-25.916	-21.185	196.982	103.859	-21.661	-17.263	-16.718	-12.283	131.240	-13.075	-8191	255	
16168.975	1	1	0	0	0.14883	0.094005	0.062543	0.085864	0.19697	0.085135	0.26616	0.2405	0.099931	0.20456	0.090425	0.33859	0.22066	0.29797	0.095111	0.18486	-1.525	-1.2417	-1.2896	-2.1771	-1.2271	-1.8375	-1.5479	-1.2917	-1.9646	-1.2875	-1.7354	-2.1083	-1.1458	-1.9458	-1.5312	-0.91667	86.218	-21.955	52.436	0.432	261.428	1.837	-3.045	278.997	34.707	286.277	129.130	229.026	263.165	314.624	130.179	204.181	0.00059756	0.00027089	0.00018059	1293.6	4.0227e-06	8.854e-06	1303	361.58	3.7483e-06	5.4066e-06	416.47	138.36	119.82	40.908	3.8014e-06	50.727	0.00027059	0.00024296	6.8686e-05	1306.6	2.787e-06	2.6564e-06	1314.6	367.38	2.7274e-06	2.6501e-06	420.92	140.56	121.24	41.601	2.6503e-06	51.856	302.470	36.888	56.952	-26.015	105.448	106.022	-25.898	-20.975	174.325	117.335	-21.779	-17.287	-16.719	-12.130	141.970	-12.995	-8191	255	
16169.071	1	1	0	0	0.25953	0.21848	0.14676	0.27937	0.1785	0.093902	0.11807	0.23062	0.20352	0.19592	0.15622	0.12518	0.16291	0.31348	0.31527	0.069953	-1.6354	-1.3146	-1.4937	-2.1667	-1.1437	-1.6313	-1.9604	-1.2625	-1.8708	-1.3417	-1.4979	-2.1437	-1.4312	-1.8146	-1.7854	-1.2437	215.336	166.206	253.059	309.573	222.482	178.688	304.832	279.952	88.662	228.411	109.879	251.905	275.246	-30.445	103.035	-14.306	0.00071731	0.00043536	0.00014046	1292.6	4.6217e-06	6.2611e-06	1299.5	362.5	4.1565e-06	6.0154e-06	415.53	138.42	119.73	40.993	5.376e-06	51.173	0.00026043	0.00024116	6.6061e-05	1304.5	2.6489e-06	2.5591e-06	1310.4	367.44	2.6234e-06	2.5305e-06	419.98	140.43	121.31	41.559	2.566e-06	51.994	302.948	69.623	41.419	-25.944	100.551	134.182	-25.840	-21.096	150.635	107.823	-21.616	-17.417	-16.680	-11.998	114.682	-12.962	-8191	255	
16169.143	1	1	0	0	0.079624	0.060632	0.055767	0.48847	0.32794	0.21076	0.309	0.49013	0.18967	0.14004	0.1944	0.082272	0.052802	0.26109	0.31115	0.2022	-1.4333	-1.4	-1.0938	-2.1896	-1.1896	-1.6604	-2.1813	-1.1833	-1.8813	-1.5083	-1.3167	-2.1792	-1.4042	-1.6375	-1.7917	-1.3958	176.491	185.956	226.396	262.330	258.159	161.934	317.597	239.317	202.202	275.756	262.460	-28.688	5.475	297.086	55.600	304.239	0.00059875	0.00054202	7.6973e-05	1292	5.5363e-06	6.844e-06	1293.5	362.49	5.0116e-06	4.0112e-06	417.79	137.94	119.97	40.868	8.3138e-06	51.249	0.00025392	0.00023203	6.6203e-05	1304.3	2.6005e-06	2.5564e-06	1309.3	367.39	2.609e-06	2.5574e-06	420.78	140.24	121.45	41.593	2.6482e-06	51.922	295.275	34.752	50.858	-25.658	74.914	82.397	-26.243	-21.092	164.966	144.860	-22.041	-17.307	-16.714	-12.254	115.731	-13.171	-8191	255	
16169.263	1	1	0	0	0.065938	0.12766	0.32182	0.42878	0.091096	0.14162	0.24143	0.036854	0.19026	0.20585	0.2638	0.11495	0.14223	0.33585	0.11155	0.26894	-1.5229	-1.475	-1.1979	-2.2625	-1.3813	-1.4396	-2.1396	-1.4354	-1.6313	-1.7542	-1.2604	-2.1146	-1.3896	-1.5104	-1.9208	-1.325	248.562	212.666	309.739	290.952	-27.745	182.463	221.090	27.495	255.430	51.949	-13.621	58.938	85.082	318.550	21.278	256.178	0.00062267	0.00057963	0.00018192	1289.9	7.376e-06	7.6607e-06	1296.5	361.27	5.3155e-06	4.9188e-06	417.26	138.29	119.45	40.631	4.4451e-06	50.647	0.00025789	0.00023404	6.6389e-05	1303.1	2.6635e-06	2.5831e-06	1308.7	366.61	2.6452e-06	2.5901e-06	420.87	140.23	120.99	41.368	2.6772e-06	51.706	304.282	39.530	43.657	-25.755	94.564	120.702	-25.914	-21.353	190.169	87.010	-21.979	-17.262	-16.520	-12.136	150.053	-13.142	-8191	255	
16169.359	1	1	0	0	0.23413	0.21652	0.29965	0.16579	0.081148	0.099466	0.39013	0.44959	0.18689	0.088093	0.11445	0.10959	0.11331	0.19488	0.21039	0.27392	-1.4875	-1.6333	-1.2563	-2.1458	-1.6271	-1.3792	-2.1021	-1.2563	-1.7021	-1.6958	-1.2771	-1.9792	-1.5083	-1.4021	-2.0062	-1.2771	230.339	272.296	142.226	261.377	298.741	141.749	209.021	240.581	156.336	214.520	308.327	212.857	283.725	271.249	92.102	241.351	0.00055876	0.0004165	0.00010746	1290.5	6.1307e-06	7.1104e-06	1297.1	363.63	3.2132e-06	3.2459e-06	417.99	138.29	119.36	40.598	5.4889e-06	50.781	0.00025863	0.00024304	6.7145e-05	1305.6	2.7117e-06	2.6138e-06	1310.7	367.45	2.5475e-06	2.571e-06	421.03	140.43	121.15	41.441	2.471e-06	51.825	302.430	75.431	22.991	-25.933	74.093	118.812	-26.148	-21.219	173.907	120.463	-21.839	-17.283	-16.590	-12.448	95.055	-13.473	-8191	255	
16169.456	1	1	0	0	0.19687	0.12208	0.1833	0.11213	0.10545	0.23455	0.2523	0.30526	0.12848	0.17971	0.10698	0.13126	0.23697	0.1267	0.073822	0.085695	-1.2979	-1.8333	-1.0396	-2.0312	-1.8125	-1.2292	-2.2938	-1.3354	-1.5292	-1.975	-1.2854	-2.0083	-1.6354	-1.3438	-1.9958	-1.5187	135.760	205.859	106.233	224.572	165.191	108.621	225.354	274.958	217.491	233.588	-14.461	14.943	5.078	241.194	255.441	-25.768	0.00066146	0.00056343	9.2136e-05	1288.9	5.0783e-06	6.0055e-06	1295.2	360.6	4.1561e-06	4.8012e-06	418.99	138.41	119.2	40.785	9.7456e-06	50.752	0.00025086	0.00022944	6.5197e-05	1304.7	2.5855e-06	2.5605e-06	1308.9	366.51	2.5316e-06	2.5024e-06	421.03	140.37	121.09	41.418	2.5659e-06	51.745	297.695	32.734	34.008	-25.924	101.689	115.599	-25.907	-21.280	170.270	134.254	-22.034	-17.147	-16.597	-12.354	127.423	-13.235	-8191	255	
16169.552	1	1	0	0	0.036757	0.11429	0.099362	0.16571	0.21488	0.019006	0.22483	0.33385	0.18157	0.20044	0.48654	0.3894	0.13827	0.33127	0.097895	0.11423	-0.99792	-1.8146	-1.0625	-2.0792	-1.5417	-1.0083	-2.0812	-1.3188	-1.4583	-1.9479	-1.3104	-1.9146	-1.85	-1.3062	-2.0187	-1.4083	310.550	-38.283	208.644	212.347	105.318	88.680	274.739	291.501	247.502	271.369	320.017	229.746	234.553	242.754	4.665	61.440	0.00055377	0.00050298	0.0001712	1291.4	4.9375e-06	6.9236e-06	1304.3	362.54	5.2262e-06	6.2301e-06	416.94	138.28	119.81	40.611	3.8204e-06	50.937	0.0002562	0.00023521	6.5105e-05	1305.8	2.6009e-06	2.6128e-06	1313.6	367.4	2.6195e-06	2.5187e-06	420.85	140.47	121.23	41.408	2.6211e-06	51.812	307.488	62.768	56.665	-25.698	74.375	117.071	-25.984	-21.276	217.101	121.403	-21.955	-16.940	-16.710	-12.153	120.237	-13.146	-8191	255	
16169.671	1	1	0	0	0.20444	0.23646	0.37227	0.19203	0.22278	0.26116	0.28104	0.22881	0.1385	0.11126	0.53616	0.15307	0.086202	0.173	0.16644	0.1827	-1.1437	-1.9104	-1.1604	-1.9458	-1.8646	-1.2021	-2.0667	-1.525	-1.4417	-2.1396	-1.4813	-1.7375	-2.0146	-1.2479	-2.0208	-1.65	229.292	212.327	165.129	286.084	-28.695	126.768	252.109	312.012	-18.450	13.586	289.069	60.586	70.260	233.583	-35.999	278.853	0.00049534	0.00046605	0.00011223	1291.6	5.7704e-06	6.2081e-06	1301.8	361.28	5.4613e-06	5.8503e-06	416.31	138.49	119.25	40.673	5.4157e-06	50.964	0.00025708	0.00023298	6.6976e-05	1304	2.6042e-06	2.5719e-06	1309.2	366.82	2.5599e-06	2.4952e-06	420.43	140.39	120.98	41.46	2.5613e-06	51.641	305.722	69.278	43.865	-25.846	89.131	120.959	-25.866	-21.456	172.740	89.059	-21.565	-17.121	-16.887	-12.182	122.624	-13.234	-8191	255	
16169.742	1	1	0	0	0.19483	0.2599	0.095375	0.21316	0.23158	0.11662	0.24169	0.10448	0.13525	0.32974	0.081216	0.10433	0.17512	0.25203	0.078807	0.15842	-0.86667	-2.0396	-1.3021	-1.8333	-1.975	-1.1667	-2.0104	-1.75	-1.2458	-1.9958	-1.4458	-1.7125	-2.0979	-1.1729	-1.7896	-1.7708	120.772	205.489	1.885	-7.029	220.859	-25.252	254.840	272.939	121.447	145.939	289.661	234.576	47.397	-26.115	250.098	244.184	0.00058095	0.00043255	8.2993e-05	1294.9	6.7458e-06	4.4054e-06	1301	360.85	3.8981e-06	5.0661e-06	417.7	138.95	120.2	40.589	7.9339e-06	50.622	0.00025347	0.00023066	6.5022e-05	1304.4	2.5895e-06	2.6083e-06	1311.3	366.99	2.6859e-06	2.5914e-06	421	140.58	121.48	41.419	2.6728e-06	51.791	299.779	42.075	34.467	-25.941	127.787	83.386	-26.049	-21.366	184.608	57.028	-21.952	-17.301	-16.692	-12.158	116.764	-13.235	-8191	255	
16169.840	1	1	0	0	0.38716	0.084732	0.22742	0.1316	0.12528	0.29873	0.038957	0.22005	0.10676	0.23829	0.20612	0.23248	0.094228	0.34652	0.11971	0.2266	-0.75	-1.8937	-1.0708	-1.3667	-1.9292	-1.2542	-1.8479	-1.8917	-0.95417	-1.9417	-1.425	-1.5625	-2.0958	-1.2125	-1.7646	-1.8875	-21.518	137.603	47.935	301.536	100.715	178.999	280.138	258.232	149.594	220.115	292.406	-36.419	220.513	316.211	122.460	288.220	0.00060926	0.00035846	0.00014821	1297.7	8.8914e-06	7.6369e-06	1295.4	361.57	5.0983e-06	6.0263e-06	416.94	138.18	119.07	40.726	5.8077e-06	50.619	0.00026948	0.00024172	6.7498e-05	1307.5	2.73e-06	2.659e-06	1310.1	366.72	2.7927e-06	2.6504e-06	421.27	140.27	121.04	41.419	2.713e-06	51.719	303.067	37.177	47.547	-25.926	128.120	85.947	-26.014	-21.353	193.477	107.622	-21.857	-17.107	-16.482	-12.160	131.325	-13.197	-8191	255	
16169.959	1	1	0	0	0.13586	0.071194	0.15465	0.20455	0.1486	0.10392	0.16864	0.22786	0.34491	0.048464	0.11859	0.26103	0.12211	0.37751	0.28865	0.20416	-0.66458	-2.0438	-1.4146	-1.5375	-2.2062	-1.1	-1.7812	-2.1021	-1.0312	-2.0021	-1.5229	-1.5771	-2.1125	-1.2292	-1.6375	-2.1042	240.573	184.315	265.361	275.169	62.801	166.438	319.257	293.612	116.842	-28.755	193.676	281.117	260.491	277.480	99.397	-19.796	0.00066614	0.00044505	0.00014492	1291.2	6.8174e-06	3.0333e-06	1295.6	361.21	3.6463e-06	4.9664e-06	415.48	139.15	120.33	41.064	4.8259e-06	50.771	0.00026263	0.00023779	6.6291e-05	1303.4	2.6413e-06	2.4863e-06	1309.5	367.1	2.578e-06	2.4779e-06	420.22	140.67	121.62	41.631	2.471e-06	51.882	315.256	35.447	41.183	-25.869	101.622	81.356	-26.045	-21.234	188.646	133.371	-21.763	-17.085	-16.602	-12.409	97.545	-13.027	-8191	255	
16170.055	1	1	0	0	0.17254	0.21296	0.25447	0.28627	0.18964	0.38014	0.2816	0.33169	0.15133	0.26768	0.22093	0.4021	0.21451	0.1982	0.18438	0.25774	-0.79583	-1.9333	-1.5542	-1.4396	-2.0563	-1.2563	-1.7542	-2.1354	-1.0417	-1.7542	-1.8667	-1.5042	-2.0104	-1.5167	-1.3708	-1.9583	206.477	92.612	1.264	305.810	312.973	-2.831	245.260	252.625	-28.104	283.813	29.238	268.962	230.781	311.385	260.535	-38.967	0.00061123	0.00052442	0.0001031	1296.2	4.1162e-06	3.4858e-06	1301.8	364.04	4.391e-06	3.7405e-06	416.75	139.19	120.59	40.723	6.7355e-06	51.007	0.00025209	0.0002236	6.2297e-05	1306	2.4967e-06	2.4404e-06	1311.9	368.21	2.5961e-06	2.4012e-06	420.94	140.86	121.76	41.55	2.513e-06	51.896	305.825	55.108	48.503	-25.877	138.907	128.165	-25.966	-21.255	191.957	94.250	-21.724	-17.147	-16.455	-12.356	131.379	-13.315	-8191	255	
16170.151	1	1	0	0	0.21827	0.26755	0.17668	0.30787	0.28474	0.26414	0.28802	0.15766	0.066414	0.10168	0.26006	0.33391	0.29434	0.17492	0.16221	0.050021	-0.83333	-1.8458	-1.6896	-1.3979	-2.025	-1.4438	-1.55	-2.2646	-1.1708	-1.6104	-2.0438	-1.2563	-2.075	-1.7292	-1.2792	-2.3771	215.364	266.431	258.484	244.760	251.772	304.077	227.665	-14.827	229.929	2.325	292.674	285.565	291.506	250.079	-38.439	14.103	0.00057591	0.00062626	0.00010395	1297.2	4.6969e-06	4.2465e-06	1307	363.63	3.2515e-06	4.2765e-06	419.06	139.81	120.08	41.117	4.8264e-06	51.252	0.00025171	0.00022515	6.3708e-05	1308	2.5231e-06	2.4784e-06	1315.6	368.88	2.5679e-06	2.4685e-06	423.39	141.59	122.02	41.877	2.5337e-06	52.131	294.952	42.594	59.191	-25.896	119.024	75.681	-25.823	-21.278	201.928	128.337	-21.963	-16.842	-16.636	-12.349	154.899	-13.095	-8191	255	
16170.272	1	1	0	0	0.24055	0.12387	0.13881	0.20777	0.14145	0.22635	0.4006	0.40438	0.087859	0.031336	0.43106	0.5562	0.12665	0.044966	0.32646	0.082284	-0.73333	-1.7042	-1.9479	-1.1646	-2.0312	-1.5042	-1.6437	-2.2208	-1.3125	-1.5167	-2.1542	-1.2875	-1.9667	-1.6667	-1.2479	-2.1896	285.929	-19.046	118.275	-0.071	102.340	46.669	287.901	298.916	120.934	249.875	286.679	300.489	-4.479	262.769	280.768	251.750	0.00063224	0.00055998	0.00018103	1291.8	5.9599e-06	5.438e-06	1304.3	365.16	2.885e-06	2.9238e-06	418.58	139.29	120.35	41.037	3.3846e-06	51.407	0.00025174	0.00022697	6.2871e-05	1307.4	2.4913e-06	2.4558e-06	1313.4	369.24	2.5844e-06	2.4891e-06	423.1	141.11	121.93	41.744	2.5699e-06	52.189	305.268	41.845	57.376	-25.873	99.468	137.892	-25.729	-21.131	224.975	149.945	-21.872	-17.046	-16.463	-12.407	154.438	-12.987	-8191	255	
16170.368	1	1	0	0	0.2098	0.15178	0.2591	0.25914	0.084181	0.15503	0.27045	0.25617	0.094235	0.17594	0.15673	0.10888	0.26916	0.19236	0.12125	0.27146	-0.96458	-1.5667	-1.6833	-1.2729	-1.7708	-1.6292	-1.4208	-2.2729	-1.1208	-1.4688	-1.8813	-1.2042	-1.8833	-1.9375	-1.1333	-2.1708	300.310	193.821	87.186	233.599	37.924	58.585	309.119	-0.472	49.505	49.635	253.357	284.702	231.564	17.993	255.708	301.334	0.00063135	0.00056423	0.00011164	1295.3	6.8746e-06	3.3585e-06	1306.4	365.29	4.2464e-06	6.7069e-06	418.34	139.81	120.75	41.061	5.1339e-06	51.384	0.0002499	0.00022926	6.3664e-05	1307.3	2.6046e-06	2.5374e-06	1315.8	369.33	2.6065e-06	2.5493e-06	422.34	141.36	122.07	41.764	2.6482e-06	52.168	312.770	52.185	39.297	-26.006	116.679	114.449	-25.981	-21.352	209.738	122.428	-21.692	-17.155	-16.492	-12.399	104.743	-13.075	-8191	255	
16170.440	1	1	0	0	0.17026	0.071637	0.2818	0.11665	0.039745	0.046641	0.088084	0.24813	0.047175	0.19148	0.20351	0.34804	0.19453	0.17911	0.1758	0.26697	-1.0979	-1.3792	-1.9312	-1.1083	-1.7083	-1.6125	-1.4479	-2.1229	-1.4375	-1.4854	-2	-1.3583	-1.7146	-1.9271	-1.2354	-2.0271	278.639	273.014	-0.518	246.719	256.937	100.117	-26.436	244.822	95.852	84.718	-19.436	297.032	289.327	-37.543	149.240	256.165	0.00063211	0.00036848	0.00013973	1295.2	8.0206e-06	5.0174e-06	1303.9	364.63	3.6902e-06	1.5076e-06	418.72	138.84	120.1	41.114	6.2084e-06	51.216	0.0002657	0.00023656	6.5747e-05	1306.5	2.6556e-06	2.5495e-06	1316.4	368.97	2.6123e-06	2.5335e-06	422.83	140.99	121.84	41.761	2.622e-06	52.043	311.448	33.521	52.117	-25.755	113.407	122.550	-26.012	-21.275	192.910	128.499	-21.923	-16.951	-16.287	-12.300	128.288	-12.975	-8191	255	
16170.560	1	1	0	0	0.1189	0.1971	0.11046	0.21544	0.13764	0.2079	0.23071	0.3401	0.33444	0.24685	0.094471	0.06789	0.16464	0.21781	0.1498	0.092857	-0.80208	-1.2708	-1.85	-1.4604	-1.6583	-1.9604	-1.3563	-2.0229	-1.575	-1.1333	-2.1271	-1.3771	-1.6812	-1.8833	-1.2104	-2.0458	88.923	139.167	34.979	-31.495	-20.937	124.293	-22.106	289.652	165.402	133.356	29.973	244.530	238.388	299.521	189.406	159.667	0.00061051	0.00061895	9.6025e-05	1297.7	5.2927e-06	2.6453e-06	1302.4	362.83	2.4736e-06	5.4367e-06	419.43	138.83	120.07	41.067	6.0361e-06	51.172	0.0002538	0.00023531	6.5094e-05	1307.8	2.5974e-06	2.5336e-06	1315.5	369.13	2.6411e-06	2.5841e-06	422.35	141.13	121.7	41.674	2.6535e-06	52.173	305.095	44.267	15.860	-25.933	114.867	146.471	-25.934	-21.131	234.240	132.130	-21.730	-17.248	-16.468	-12.287	113.737	-12.916	-8191	255	
16170.655	1	1	0	0	0.072186	0.18727	0.07759	0.053682	0.24302	0.12924	0.20729	0.30549	0.22245	0.054551	0.3965	0.046509	0.12966	0.18726	0.08971	0.16194	-1.3271	-1.0833	-1.7833	-1.4854	-1.4104	-1.9979	-1.4583	-1.9042	-1.6729	-1.2021	-2.1021	-1.45	-1.4	-2.0979	-1.2333	-1.7396	119.909	79.419	17.690	207.584	195.959	97.701	-16.471	218.999	65.238	10.097	296.703	101.305	316.947	314.533	149.837	299.865	0.00056035	0.00042371	9.83e-05	1297	5.7619e-06	7.1731e-06	1307.3	365.84	5.8838e-06	4.4107e-06	419.66	139.08	120.76	40.879	1.9663e-06	51.377	0.00025687	0.0002364	6.5692e-05	1308.4	2.6481e-06	2.4855e-06	1317.3	370.39	2.5667e-06	2.5799e-06	423.12	141.16	121.96	41.73	2.6297e-06	52.139	308.523	52.787	35.079	-25.759	116.529	116.280	-26.030	-21.151	214.157	114.215	-22.013	-17.200	-16.522	-12.160	64.130	-13.173	-8191	255	
16170.751	1	1	0	0	0.17994	0.35813	0.14142	0.3037	0.15063	0.19033	0.41521	0.099217	0.29726	0.11652	0.21612	0.10198	0.17087	0.1096	0.1104	0.30775	-1.3854	-0.98333	-1.8854	-1.5229	-1.2125	-2.1208	-1.3521	-1.8813	-1.6458	-1.2667	-1.9583	-1.7062	-1.4312	-2.2812	-1.1583	-1.7792	60.636	162.160	173.417	294.669	221.395	187.460	236.395	313.533	184.634	60.219	267.367	169.136	314.191	136.841	123.017	304.880	0.00065148	0.00046863	9.0521e-05	1298	5.7817e-06	6.2328e-06	1302	364.52	3.6959e-06	5.7308e-06	421.61	139.52	120.49	41.122	1.7444e-06	51.507	0.00025728	0.00023077	6.3961e-05	1308.8	2.5987e-06	2.4141e-06	1316.7	370.01	2.4406e-06	2.4236e-06	423.52	141.55	122.26	41.947	2.499e-06	52.321	292.107	41.802	48.190	-26.023	105.002	118.151	-26.143	-21.134	200.099	122.887	-21.711	-17.411	-16.407	-12.236	39.731	-12.907	-8191	255	
16170.847	1	1	0	0	0.068819	0.10219	0.243	0.21475	0.2621	0.22866	0.28591	0.10402	0.21865	0.25461	0.11694	0.19684	0.18138	0.27213	0.034238	0.34512	-1.4792	-1.0625	-1.8292	-1.7104	-1.1521	-1.8521	-1.3042	-1.7104	-1.8792	-0.98542	-2.05	-1.8479	-1.3167	-2.2542	-1.2167	-1.6021	222.349	156.973	70.205	305.463	72.285	105.747	263.853	68.121	295.034	64.661	242.662	212.067	265.482	304.577	-0.185	261.823	0.00059341	0.00041051	0.00013626	1295.2	5.7944e-06	5.7415e-06	1312.9	366.34	2.6676e-06	3.8444e-06	421.01	140.04	120.68	41.07	7.6204e-06	51.596	0.00025128	0.00022853	6.3893e-05	1310.3	2.5171e-06	2.4357e-06	1321.1	370.86	2.4795e-06	2.4819e-06	423.84	141.65	122.26	41.825	2.5444e-06	52.26	309.130	47.127	54.976	-25.830	131.595	84.732	-26.171	-21.291	168.353	138.499	-22.120	-17.410	-16.416	-12.275	132.343	-12.947	-8191	255	
16170.943	1	1	0	0	0.12479	0.11804	0.16172	0.10546	0.20302	0.25096	0.28153	0.24209	0.097022	0.097882	0.23655	0.19216	0.16303	0.31962	0.31102	0.23717	-1.55	-1.0979	-1.6167	-1.8083	-1.2458	-1.9646	-1.4646	-1.4854	-1.8854	-1.2854	-1.7396	-1.8896	-1.4458	-1.9771	-1.3021	-1.4708	28.629	11.820	280.146	-2.125	18.053	24.107	223.900	272.977	20.119	204.328	-30.791	280.642	237.032	271.086	85.002	317.368	0.00057104	0.00030208	0.00017907	1296.3	7.0261e-06	3.9765e-06	1307.2	364.96	3.8277e-06	6.3449e-06	419.84	139.36	120.72	40.85	4.0419e-06	51.298	0.00024737	0.00022748	6.2515e-05	1310.8	2.5086e-06	2.4738e-06	1316.1	370.13	2.5178e-06	2.4774e-06	423.59	141.34	122.08	41.759	2.4426e-06	52.103	305.759	61.021	34.281	-26.009	110.628	122.614	-26.078	-21.234	218.960	137.882	-21.780	-17.386	-16.688	-12.137	114.366	-13.192	-8191	255	
16171.039	1	1	0	0	0.24607	0.20178	0.25406	0.20806	0.098306	0.15154	0.25888	0.29121	0.25138	0.15817	0.18568	0.24683	0.26767	0.22944	0.15246	0.17574	-1.6167	-0.9125	-1.6646	-1.8687	-1.0354	-1.975	-1.6354	-1.5354	-1.9458	-1.2229	-1.7125	-2.0521	-1.3542	-1.9833	-1.5229	-1.3729	57.998	101.112	34.319	242.224	28.884	0.656	294.976	200.709	10.168	48.854	294.887	305.740	270.909	272.331	317.279	140.157	0.00056136	0.00072326	9.2188e-05	1296.4	5.9223e-06	8.0779e-06	1302	366.29	5.257e-06	7.1992e-06	419.8	139.88	120.54	41.096	6.429e-06	51.493	0.00024642	0.000222	6.1179e-05	1310.4	2.4733e-06	2.4243e-06	1316.7	370.74	2.4078e-06	2.3302e-06	423.12	141.77	122.15	41.908	2.3312e-06	52.282	306.569	57.308	60.845	-25.910	122.368	108.765	-26.173	-21.288	216.923	90.460	-21.736	-17.138	-16.701	-12.224	101.548	-12.979	-8191	255	
16171.136	1	1	0	0	0.033775	0.27601	0.15714	0.24371	0.23995	0.077115	0.080417	0.16908	0.23572	0.29876	0.15979	0.15351	0.25563	0.077382	0.073671	0.30171	-1.4125	-1.2979	-1.5667	-2.3	-1.225	-2.0521	-1.9229	-1.3583	-1.9562	-1.125	-1.5479	-2.1208	-1.1688	-1.825	-1.525	-1.1625	87.274	223.851	224.566	297.550	34.676	310.478	201.285	223.365	313.744	87.329	283.542	230.886	319.125	249.425	63.167	294.173	0.00054626	0.00063108	0.00014756	1299.7	5.3005e-06	4.7454e-06	1304	365.62	2.4021e-06	6.377e-06	418.84	139.6	120.14	41.048	4.9962e-06	51.117	0.00024181	0.00021256	5.8636e-05	1310.3	2.4116e-06	2.3247e-06	1317.4	370.59	2.4456e-06	2.3361e-06	423.22	141.25	121.96	41.741	2.3944e-06	52.05	306.851	50.518	32.304	-25.935	149.872	112.780	-26.071	-21.283	242.991	145.226	-21.909	-17.413	-16.552	-12.213	99.399	-13.337	-8191	255	
16171.232	1	1	0	0	0.073931	0.082255	0.028871	0.29707	0.11616	0.13473	0.6232	0.12171	0.17628	0.42331	0.18338	0.085715	0.10926	0.25056	0.079226	0.12266	-1.8021	-1.4792	-1.5	-2.2667	-1.2167	-1.9562	-1.9625	-1.4833	-1.9354	-1.4271	-1.4083	-2.1167	-1.3479	-2.0271	-1.7833	-1.3	279.332	100.046	80.060	314.698	196.767	115.201	246.024	235.506	-3.569	-33.475	-11.537	235.691	305.627	301.173	149.145	133.486	0.00052129	0.00034511	9.5017e-05	1295.1	5.3115e-06	4.6787e-06	1301.1	365.41	5.1779e-06	1.4963e-06	418.51	139.1	119.34	40.874	4.0811e-06	51.265	0.00024609	0.00022573	6.2435e-05	1308.7	2.5011e-06	2.4479e-06	1314.5	369.97	2.5335e-06	2.4407e-06	422.44	141.2	121.73	41.713	2.4888e-06	52.116	297.612	64.019	36.231	-25.796	108.772	149.960	-26.110	-21.274	240.898	99.003	-21.676	-17.262	-16.507	-12.098	124.875	-13.078	-8191	255	
16171.352	1	1	0	0	0.21234	0.19513	0.21229	0.10541	0.15891	0.46779	0.069484	0.099451	0.27258	0.052886	0.086822	0.14009	0.18324	0.27903	0.30296	0.040089	-1.5604	-1.5958	-1.0938	-2.0979	-1.2208	-1.625	-2.0854	-1.35	-1.8229	-1.6104	-1.3208	-2.1979	-1.3875	-1.7208	-1.9271	-1.3396	220.486	-3.106	4.664	253.221	83.301	119.414	194.771	231.556	261.864	292.180	316.689	185.319	27.189	258.291	-29.768	176.750	0.00054518	0.00040853	0.00010963	1297	6.8979e-06	5.5233e-06	1304.4	364.62	6.7369e-06	8.2009e-06	419.12	139.7	120.15	41.179	5.1323e-06	51.287	0.00024819	0.00022677	6.2407e-05	1309.7	2.5587e-06	2.4065e-06	1316.4	370.07	2.4775e-06	2.4503e-06	423.61	141.56	121.94	41.799	2.43e-06	52.229	315.939	37.675	39.139	-25.748	79.240	123.773	-25.929	-21.064	184.102	113.322	-21.921	-17.039	-16.801	-12.015	147.688	-12.894	-8191	255	
16171.449	1	1	0	0	0.23388	0.25859	0.025822	0.1456	0.14483	0.29726	0.021837	0.15945	0.21119	0.054695	0.20282	0.33304	0.098013	0.051715	0.11352	0.38313	-1.5771	-1.6083	-1.3083	-2.1083	-1.3937	-1.4104	-2.1208	-1.1958	-1.7125	-1.7146	-1.2146	-2.1063	-1.2646	-1.5417	-1.8729	-1.2708	286.003	59.969	231.235	293.874	86.790	209.278	28.289	-21.416	287.918	123.699	-31.940	-37.613	51.333	274.763	-36.194	230.264	0.00068462	0.00031202	0.0001039	1297.7	4.3817e-06	4.317e-06	1309.6	364.92	5.3401e-06	7.5387e-06	420.05	140.28	120.79	41.212	4.3953e-06	51.402	0.00023891	0.00021728	6.1428e-05	1310.8	2.3347e-06	2.4104e-06	1318.2	370.42	2.3771e-06	2.3902e-06	424.03	141.92	122.23	41.955	2.3681e-06	52.295	301.570	54.791	44.718	-25.686	95.829	135.537	-26.232	-21.199	184.371	100.481	-21.765	-17.331	-16.522	-12.118	100.048	-12.827	-8191	255	
16171.543	1	1	0	0	0.14299	0.19827	0.20152	0.32533	0.17667	0.089662	0.085398	0.097683	0.38863	0.14838	0.22696	0.055899	0.12324	0.21507	0.14367	0.39924	-1.4604	-1.5938	-1.0646	-2.1792	-1.3771	-1.4854	-2.3917	-1.2687	-1.7812	-1.6187	-1.2667	-2.1146	-1.6021	-1.4438	-2.0917	-1.4667	315.271	124.984	49.641	291.049	-20.490	118.334	293.280	226.006	25.860	245.335	263.191	158.767	9.932	312.909	50.701	274.050	0.00060003	0.00047747	9.6069e-05	1298.6	6.1965e-06	7.0887e-06	1307.3	365.03	4.4814e-06	4.0881e-06	421.37	140.04	120.32	41.106	1.7429e-06	51.128	0.00023747	0.00021162	6.0417e-05	1310.4	2.4693e-06	2.4028e-06	1317.6	370.18	2.4473e-06	2.3728e-06	424.11	141.56	121.97	41.807	2.4177e-06	52.122	309.879	69.273	49.979	-25.693	90.034	143.712	-26.025	-21.270	178.028	138.853	-21.739	-16.930	-16.832	-12.025	132.354	-13.149	-8191	255	
16171.641	1	1	0	0	0.096863	0.27427	0.16093	0.21136	0.12758	0.27593	0.31926	0.4076	0.097248	0.15668	0.46526	0.014928	0.17695	0.25595	0.066609	0.39388	-1.1542	-1.9646	-1.025	-2.0083	-1.5104	-1.1833	-2.2917	-1.3167	-1.5271	-1.8354	-1.2	-2.0458	-1.7188	-1.3521	-1.9854	-1.3979	320.630	188.357	256.499	283.544	95.942	102.198	240.255	262.104	174.382	195.732	272.051	99.276	20.217	249.026	-3.265	270.308	0.00058267	0.00031595	9.9481e-05	1302.8	3.3506e-06	6.6057e-06	1306.8	364.75	3.7421e-06	3.7115e-06	418.58	140.01	120.43	41.004	7.0704e-06	51.48	0.00024881	0.00021988	6.2026e-05	1311	2.4122e-06	2.4242e-06	1317.5	370.34	2.5176e-06	2.3825e-06	423.33	141.78	122.08	41.84	2.4159e-06	52.232	299.979	65.156	37.102	-25.571	125.463	84.595	-25.988	-21.267	190.268	122.531	-21.848	-16.959	-16.497	-12.058	125.061	-13.022	-8191	255	
16171.735	1	1	0	0	0.054638	0.22703	0.18014	0.29058	0.24303	0.1859	0.13021	0.30331	0.086661	0.18274	0.13326	0.26783	0.19728	0.26335	0.36883	0.20196	-1.2396	-1.9125	-1.2563	-2.0812	-1.8479	-1.2062	-2.2313	-1.5146	-1.5354	-2.0125	-1.2896	-1.9875	-1.8604	-1.3729	-1.8125	-1.4708	162.546	242.420	49.340	305.000	62.497	155.867	208.830	247.830	150.683	260.964	-18.858	279.445	223.946	313.993	209.930	222.754	0.00068678	0.00040208	0.00012209	1295.4	8.4814e-06	7.0565e-06	1307.6	365.38	3.9527e-06	5.3168e-06	420.86	139.1	120.8	40.937	4.5378e-06	51.089	0.00024574	0.00021644	6.0961e-05	1309.9	2.4285e-06	2.4144e-06	1317.2	370.51	2.4455e-06	2.3165e-06	423.21	141.25	121.95	41.814	2.4228e-06	52.081	299.785	27.636	68.238	-25.759	131.731	110.704	-25.951	-21.205	143.660	123.012	-21.940	-16.970	-16.741	-11.940	122.329	-13.115	-8191	255	
16171.831	1	1	0	0	0.11136	0.081103	0.080818	0.38503	0.028378	0.14625	0.16809	0.28316	0.14966	0.30361	0.20108	0.16809	0.21235	0.12672	0.17693	0.16685	-1.0979	-2.1521	-1.2417	-1.9729	-1.825	-1.1646	-2.4	-1.6125	-1.3479	-1.9146	-1.3604	-1.8042	-1.8583	-1.2229	-1.9917	-1.5833	320.141	-14.769	107.658	-28.063	186.089	-11.742	260.917	263.229	223.491	40.882	-38.714	282.096	307.534	-18.425	297.253	196.447	0.00070083	0.00039205	0.00011126	1298.2	3.5525e-06	6.4798e-06	1313	366.51	2.7856e-06	4.4655e-06	419.25	139.82	120.52	41.007	5.8082e-06	51.436	0.00024666	0.00022275	6.1299e-05	1311.5	2.414e-06	2.4157e-06	1320.9	370.89	2.5266e-06	2.3442e-06	423.47	141.65	122.23	41.874	2.405e-06	52.194	301.993	54.831	60.654	-25.760	89.686	105.460	-26.048	-21.107	209.567	104.780	-21.649	-17.054	-16.759	-12.513	127.419	-12.937	-8191	255	
16171.952	1	1	0	0	0.38715	0.11419	0.04496	0.37773	0.045894	0.21796	0.27073	0.31097	0.044469	0.14276	0.26544	0.18682	0.21735	0.070096	0.17779	0.28122	-0.9125	-2.1396	-1.2854	-1.7875	-1.9083	-1.2021	-2.1833	-1.7604	-1.3354	-1.9792	-1.3396	-1.7646	-1.9542	-1.1833	-1.8854	-1.8937	21.759	252.765	309.955	217.425	108.415	32.744	266.710	309.877	35.252	296.315	308.740	248.375	213.215	227.581	283.839	262.856	0.0006016	0.00056558	0.00011169	1293.8	4.0207e-06	5.7704e-06	1305.3	365.57	4.1459e-06	3.3327e-06	419.01	138.94	120.74	40.795	6.9969e-06	51.144	0.00024438	0.00022236	6.0884e-05	1309.8	2.4383e-06	2.4091e-06	1318.1	370.37	2.497e-06	2.3728e-06	422.98	141.19	122	41.693	2.5172e-06	52.079	298.166	61.581	35.266	-25.535	130.449	122.620	-25.993	-21.226	202.656	90.959	-21.706	-16.959	-16.520	-12.207	95.306	-13.215	-8191	255	
16172.048	1	1	0	0	0.20285	0.16071	0.020485	0.15521	0.055286	0.23931	0.071578	0.44017	0.24479	0.34377	0.18009	0.30718	0.32949	0.17045	0.16824	0.022212	-0.67708	-2.0708	-1.3292	-1.5771	-1.8042	-1.1917	-1.9792	-1.8292	-0.9875	-1.8521	-1.4813	-1.6958	-2.2271	-1.45	-1.8104	-1.9542	306.795	208.397	279.431	257.061	256.256	-19.156	302.599	288.553	80.667	124.858	93.067	264.264	243.017	270.447	55.550	34.664	0.00053587	0.00051898	0.00011815	1303.3	4.4252e-06	5.567e-06	1308	365.71	2.2886e-06	6.7206e-06	419.52	139.08	120.31	40.919	5.5536e-06	51.323	0.00024859	0.00022269	6.2612e-05	1312.2	2.4571e-06	2.4194e-06	1318.9	370.61	2.4851e-06	2.4141e-06	422.79	141.31	122.04	41.7	2.4001e-06	52.171	289.136	70.803	41.239	-25.684	111.287	112.764	-25.889	-21.115	227.798	108.881	-21.735	-17.256	-16.735	-11.982	107.038	-13.010	-8191	255	
16172.144	1	1	0	0	0.18572	0.068933	0.16038	0.24224	0.19017	0.16095	0.52139	0.27659	0.10881	0.13521	0.23959	0.080995	0.10465	0.21624	0.1395	0.17637	-0.64375	-2.0187	-1.5896	-1.6063	-2.0583	-1.3854	-2.0708	-2.0438	-1.275	-1.975	-1.4562	-1.4479	-2.2021	-1.3687	-1.475	-2.0312	155.915	-22.407	58.542	276.877	284.393	111.338	300.608	316.102	263.352	94.922	254.386	117.633	303.253	219.319	277.325	271.741	0.00060023	0.00045999	0.0001445	1296.5	4.5632e-06	3.4554e-06	1308.6	365.32	5.9093e-06	2.0909e-06	418.82	139.04	121.02	40.943	4.3334e-06	51.038	0.0002477	0.00022104	6.016e-05	1308.4	2.4691e-06	2.4552e-06	1316.5	370.12	2.4886e-06	2.37e-06	422.73	141.28	122.17	41.754	2.3995e-06	52.014	314.128	59.917	22.834	-25.709	125.470	94.870	-25.785	-21.331	179.242	120.926	-21.903	-16.936	-16.403	-12.110	109.447	-13.043	-8191	255	
16172.240	1	1	0	0	0.14851	0.17748	0.23175	0.2662	0.24868	0.30423	0.3932	0.15139	0.22535	0.25785	0.17808	0.2316	0.13734	0.066656	0.049532	0.19194	-0.76042	-1.9521	-1.5812	-1.3354	-2.0062	-1.4833	-1.8104	-1.9479	-1.0292	-1.9604	-1.9479	-1.1229	-2.2292	-1.5021	-1.3396	-2.0375	265.358	178.376	249.175	-33.798	218.643	133.911	242.149	293.215	237.867	234.361	50.709	-7.513	-23.181	239.004	242.406	183.850	0.00066373	0.00036251	8.0759e-05	1300.1	6.365e-06	5.159e-06	1305.4	364.53	4.7886e-06	7.1138e-06	419.75	138.91	119.82	40.987	6.4889e-06	51.475	0.00024708	0.00021705	6.1708e-05	1309.9	2.4763e-06	2.4377e-06	1315.9	370.06	2.4891e-06	2.4293e-06	423.05	141.29	121.9	41.766	2.4562e-06	52.121	294.941	52.135	58.826	-25.747	100.628	97.292	-26.055	-21.010	165.906	101.703	-21.845	-17.051	-16.753	-12.187	132.490	-13.168	-8191	255	
16172.337	1	1	0	0	0.32697	0.1379	0.15465	0.33241	0.025421	0.19369	0.26608	0.059224	0.3231	0.14633	0.089481	0.15215	0.205	0.024803	0.23803	0.32894	-0.82708	-1.9188	-1.6688	-1.2833	-1.9083	-1.4667	-1.5125	-2.2604	-1.0396	-1.8417	-1.8729	-1.4208	-2.1437	-1.6562	-1.2604	-2.0042	102.672	320.545	164.617	-20.647	239.151	157.082	-9.662	254.648	132.620	208.256	145.363	309.798	318.467	108.250	320.196	264.138	0.00051774	0.00038095	0.00012056	1301.4	4.094e-06	4.749e-06	1301.3	366.59	5.2623e-06	4.1936e-06	418.14	139.71	120.57	41.166	5.7162e-06	51.149	0.00024675	0.00022395	6.1535e-05	1309.6	2.437e-06	2.3357e-06	1315.2	370.2	2.5054e-06	2.3598e-06	422.51	141.4	122.01	41.791	2.4535e-06	52.074	298.176	40.345	61.180	-25.820	96.217	134.881	-25.730	-21.167	204.502	105.377	-21.485	-16.973	-16.658	-12.227	105.612	-13.089	-8191	255	
#DATA ENDS
