BOXY.EXE: ISS Imagent and Oximeter Data Acquisition Program Version 0.80
Ascii Record File

#ACQ INFORMATION
2  Detector Channels 
16  External MUX Channels 
1  Auxiliary Channels 
5000  Waveform (CCF) Frequency (Hz)
1  Waveforms Skipped 
30  Waveforms Averaged 
1  Cycles Averaged 
16  Acquisitions per Waveform 
10.0806  Updata Rate (Hz) 

#FILE INFORMATION
TRUE -- External MUX Channel results are PARSED.
FALSE -- AC DC and Phase are NOT grouped.
TRUE -- Companion Program Settings File CREATED.
FALSE -- AC data not excluded
FALSE -- DC data not excluded
FALSE -- Phase data not excluded
FALSE -- Auxillary Chn. data not excluded
Tab delimiters

#CALIBRATION STATE
TRUE -- Waveform Calibration Values APPLIED.


#AUX CALIBRATION VALUES
Val Type	aux-1	

Term	1.0000e+00	
Factor	0.0000e+00	


#WF CALIBRATION VALUES
A = Detector Channel
Val Type	A-AC1	A-AC2	A-AC3	A-AC4	A-AC5	A-AC6	A-AC7	A-AC8	A-AC9	A-AC10	A-AC11	A-AC12	A-AC13	A-AC14	A-AC15	A-AC16	A-DC1	A-DC2	A-DC3	A-DC4	A-DC5	A-DC6	A-DC7	A-DC8	A-DC9	A-DC10	A-DC11	A-DC12	A-DC13	A-DC14	A-DC15	A-DC16	A-Ph1	A-Ph2	A-Ph3	A-Ph4	A-Ph5	A-Ph6	A-Ph7	A-Ph8	A-Ph9	A-Ph10	A-Ph11	A-Ph12	A-Ph13	A-Ph14	A-Ph15	A-Ph16	

Term	0.00000e+00	0.00000e+00	0.00000e+00	0.00000e+00	0.00000e+00	0.00000e+00	0.00000e+00	0.00000e+00	0.00000e+00	0.00000e+00	0.00000e+00	0.00000e+00	0.00000e+00	0.00000e+00	0.00000e+00	0.00000e+00	0.00000e+00	0.00000e+00	0.00000e+00	0.00000e+00	0.00000e+00	0.00000e+00	0.00000e+00	0.00000e+00	0.00000e+00	0.00000e+00	0.00000e+00	0.00000e+00	0.00000e+00	0.00000e+00	0.00000e+00	0.00000e+00	0.00000e+00	0.00000e+00	0.00000e+00	0.00000e+00	0.00000e+00	0.00000e+00	0.00000e+00	0.00000e+00	0.00000e+00	0.00000e+00	0.00000e+00	0.00000e+00	0.00000e+00	0.00000e+00	0.00000e+00	0.00000e+00	
Factor	1.00000e+00	1.00000e+00	1.00000e+00	1.00000e+00	1.00000e+00	1.00000e+00	1.00000e+00	1.00000e+00	1.00000e+00	1.00000e+00	1.00000e+00	1.00000e+00	1.00000e+00	1.00000e+00	1.00000e+00	1.00000e+00	1.00000e+00	1.00000e+00	1.00000e+00	1.00000e+00	1.00000e+00	1.00000e+00	1.00000e+00	1.00000e+00	1.00000e+00	1.00000e+00	1.00000e+00	1.00000e+00	1.00000e+00	1.00000e+00	1.00000e+00	1.00000e+00	X	X	X	X	X	X	X	X	X	X	X	X	X	X	X	X	

B = Detector Channel
Val Type	B-AC1	B-AC2	B-AC3	B-AC4	B-AC5	B-AC6	B-AC7	B-AC8	B-AC9	B-AC10	B-AC11	B-AC12	B-AC13	B-AC14	B-AC15	B-AC16	B-DC1	B-DC2	B-DC3	B-DC4	B-DC5	B-DC6	B-DC7	B-DC8	B-DC9	B-DC10	B-DC11	B-DC12	B-DC13	B-DC14	B-DC15	B-DC16	B-Ph1	B-Ph2	B-Ph3	B-Ph4	B-Ph5	B-Ph6	B-Ph7	B-Ph8	B-Ph9	B-Ph10	B-Ph11	B-Ph12	B-Ph13	B-Ph14	B-Ph15	B-Ph16	

Term	0.00000e+00	0.00000e+00	0.00000e+00	0.00000e+00	0.00000e+00	0.00000e+00	0.00000e+00	0.00000e+00	0.00000e+00	0.00000e+00	0.00000e+00	0.00000e+00	0.00000e+00	0.00000e+00	0.00000e+00	0.00000e+00	0.00000e+00	0.00000e+00	0.00000e+00	0.00000e+00	0.00000e+00	0.00000e+00	0.00000e+00	0.00000e+00	0.00000e+00	0.00000e+00	0.00000e+00	0.00000e+00	0.00000e+00	0.00000e+00	0.00000e+00	0.00000e+00	-2.62276e+01	-1.15878e+02	-1.08409e+02	-1.83494e+02	-6.33589e+01	-7.54221e+01	-1.57928e+02	-1.62015e+02	-5.48854e+01	-9.11149e+01	-1.72828e+02	-1.71611e+02	-1.77707e+02	-1.75907e+02	-7.81365e+01	-1.49620e+02	
Factor	2.61661e-05	9.26201e-05	2.46974e-05	1.98797e-01	9.62366e-07	8.91135e-07	1.79104e-01	5.14304e-02	1.05170e-06	1.02584e-06	1.02012e-01	2.95886e-02	2.20963e-02	8.96045e-03	1.07712e-06	1.32210e-02	5.86835e-07	5.95880e-07	1.65773e-07	9.66592e-02	6.53574e-09	6.52599e-09	8.24644e-02	2.52020e-02	6.53566e-09	6.54143e-09	4.62961e-02	1.36781e-02	1.07972e-02	4.30996e-03	6.51163e-09	6.04044e-03	X	X	X	X	X	X	X	X	X	X	X	X	X	X	X	X	



#DISTANCE SETTINGS
A = Detector Channel
A-1	A-2	A-3	A-4	A-5	A-6	A-7	A-8	A-9	A-10	A-11	A-12	A-13	A-14	A-15	A-16	

2.5000e+00	3.0000e+00	2.5000e+00	3.0000e+00	2.0000e+00	3.0000e+00	1.5000e+00	3.0000e+00	3.0000e+00	3.0000e+00	3.0000e+00	3.0000e+00	3.0000e+00	3.0000e+00	1.5000e+00	3.0000e+00	

B = Detector Channel
B-1	B-2	B-3	B-4	B-5	B-6	B-7	B-8	B-9	B-10	B-11	B-12	B-13	B-14	B-15	B-16	

1.0000e+01	1.0000e+01	1.0000e+01	1.4400e+00	1.0000e+01	1.0000e+01	1.5100e+00	1.9400e+00	1.0000e+01	1.0000e+01	1.9900e+00	2.4900e+00	2.4100e+00	2.9000e+00	1.0000e+01	2.9800e+00	




#DATA BEGINS
time	group	step	mark	flag	A-AC1	A-AC2	A-AC3	A-AC4	A-AC5	A-AC6	A-AC7	A-AC8	A-AC9	A-AC10	A-AC11	A-AC12	A-AC13	A-AC14	A-AC15	A-AC16	A-DC1	A-DC2	A-DC3	A-DC4	A-DC5	A-DC6	A-DC7	A-DC8	A-DC9	A-DC10	A-DC11	A-DC12	A-DC13	A-DC14	A-DC15	A-DC16	A-Ph1	A-Ph2	A-Ph3	A-Ph4	A-Ph5	A-Ph6	A-Ph7	A-Ph8	A-Ph9	A-Ph10	A-Ph11	A-Ph12	A-Ph13	A-Ph14	A-Ph15	A-Ph16	B-AC1	B-AC2	B-AC3	B-AC4	B-AC5	B-AC6	B-AC7	B-AC8	B-AC9	B-AC10	B-AC11	B-AC12	B-AC13	B-AC14	B-AC15	B-AC16	B-DC1	B-DC2	B-DC3	B-DC4	B-DC5	B-DC6	B-DC7	B-DC8	B-DC9	B-DC10	B-DC11	B-DC12	B-DC13	B-DC14	B-DC15	B-DC16	B-Ph1	B-Ph2	B-Ph3	B-Ph4	B-Ph5	B-Ph6	B-Ph7	B-Ph8	B-Ph9	B-Ph10	B-Ph11	B-Ph12	B-Ph13	B-Ph14	B-Ph15	B-Ph16	aux-1	digaux	

8220.794	1	1	0	512	0.036962	0.12971	0.076255	0.35745	0.25448	0.10557	0.09398	0.21189	0.25448	0.15899	0.20817	0.22408	0.21543	0.3866	0.11895	0.37077	-1.8958	-1.2437	-1.6458	-1.8229	-0.975	-1.8375	-1.5438	-1.3458	-2.2833	-1.3646	-1.7	-1.9813	-1.0292	-1.8333	-1.7542	-1.2583	283.816	317.485	303.222	155.747	260.819	367.136	109.290	414.558	371.513	115.499	184.077	412.757	353.491	408.438	95.386	420.481	0.0010582	0.00032483	0.00014085	451.82	2.1119e-06	3.6522e-06	675.65	178.06	2.8315e-06	2.81e-06	322.68	130.18	65.334	28.088	3.9637e-06	66.162	0.00047938	0.00050562	0.00013698	499.06	5.1939e-06	5.5753e-06	706.43	187.19	5.2185e-06	5.5333e-06	331.64	130.57	69.053	29.793	5.2954e-06	64.776	278.439	240.712	288.979	108.716	176.681	226.900	108.039	113.129	262.113	219.419	111.740	116.261	116.988	122.340	244.527	120.120	-8191	255	
8220.915	1	1	0	0	0.16806	0.24594	0.28931	0.061814	0.36161	0.1417	0.393	0.17494	0.15945	0.19755	0.15532	0.2542	0.031534	0.17821	0.16597	0.34058	-1.7583	-1.2625	-1.4167	-1.9833	-1.1292	-2.0438	-2.0396	-1.2583	-1.9021	-1.6208	-1.3521	-1.9688	-1.2021	-1.8417	-1.8438	-1.2188	153.533	324.658	185.519	278.238	208.417	441.505	427.059	407.115	281.853	389.933	405.504	366.997	333.714	278.351	392.486	435.080	0.0011077	0.00049119	0.00022043	450.04	4.0919e-06	2.0142e-06	678.12	176.95	2.7808e-06	4.0678e-06	323.57	128.73	65.752	28.228	8.1316e-06	65.793	0.00048846	0.00050884	0.00013372	497.15	5.3084e-06	5.5149e-06	702.32	185.51	5.4101e-06	5.5046e-06	329.56	129.87	69.465	29.689	5.2166e-06	64.596	267.373	451.869	239.655	108.825	252.828	297.716	107.953	113.414	438.782	296.471	111.634	116.413	117.057	122.472	255.873	120.138	-8191	255	
8221.011	1	1	0	0	0.16498	0.10543	0.14328	0.15924	0.39064	0.013275	0.11113	0.22371	0.22011	0.05979	0.093133	0.24173	0.024146	0.18316	0.16554	0.1609	-1.2417	-1.1896	-1.2896	-2.15	-1.325	-1.6396	-2.15	-1.1125	-1.7375	-1.5271	-1.3687	-2.1396	-1.2854	-1.5125	-2.0396	-1.2375	309.915	249.803	367.205	411.836	299.576	217.004	441.342	337.738	371.846	391.027	434.872	405.386	165.243	253.495	265.714	368.492	0.0010031	0.00012389	0.00013345	452.66	8.9965e-06	7.4618e-06	674.97	175.9	6.7398e-06	7.2072e-06	322.33	130.68	65.628	28.117	2.2902e-06	66.129	0.00050708	0.00049507	0.0001322	498.91	5.4601e-06	5.4084e-06	701.29	185.7	5.4933e-06	5.3715e-06	328.55	130.66	69.679	29.669	5.1241e-06	64.868	275.659	109.541	231.645	108.388	191.977	210.452	107.903	113.367	296.139	246.925	112.367	116.388	117.151	122.540	233.613	120.195	-8191	255	
8221.107	1	1	0	0	0.26773	0.26151	0.25771	0.15012	0.29949	0.044599	0.12877	0.079842	0.12483	0.23042	0.19683	0.1931	0.097123	0.11974	0.13122	0.17265	-1.4	-1.5479	-1.1458	-1.9896	-1.2396	-1.4021	-2.0292	-1.1896	-1.7229	-1.6896	-1.0958	-2.1021	-1.5917	-1.4146	-1.8833	-1.3771	208.312	377.737	233.136	161.327	314.181	335.502	371.273	362.275	174.567	123.514	121.830	440.940	295.745	321.350	224.493	279.507	0.0010321	0.0006054	0.00018055	453.08	2.5812e-06	3.4264e-06	675.83	178.52	4.3588e-06	5.5135e-06	323.75	130.97	65.322	28.229	6.6677e-06	66.506	0.00050727	0.00048499	0.0001287	499.78	5.4974e-06	5.2463e-06	702.33	187.67	5.4994e-06	5.2804e-06	328.82	131.2	69.651	29.636	5.0323e-06	65.228	282.578	302.305	197.327	108.881	206.018	414.307	108.237	113.249	195.979	134.283	112.093	116.388	116.823	122.728	267.662	120.031	-8191	255	
8221.203	1	1	0	0	0.21221	0.21547	0.084691	0.11148	0.27078	0.12233	0.21577	0.12243	0.27926	0.20954	0.22558	0.25601	0.18555	0.1052	0.1129	0.075718	-1.3354	-2.0271	-1	-1.9438	-1.5104	-1.1375	-1.9354	-1.125	-1.8813	-1.9479	-0.9375	-1.9896	-1.5729	-1.3646	-2.0667	-1.1875	280.929	144.846	279.018	177.349	430.185	193.171	392.310	99.456	239.604	406.724	273.651	356.115	108.493	152.984	349.576	450.134	0.0010089	0.00037235	0.00017988	454	1.7704e-06	4.3508e-06	672.5	177.05	5.9566e-06	3.9787e-06	321.98	129.32	65.551	28.065	5.4917e-06	65.661	0.00050517	0.00048067	0.00012716	502.18	5.4227e-06	5.17e-06	698.75	187.47	5.3789e-06	5.1583e-06	327.27	130.7	69.476	29.506	5.0009e-06	64.821	278.492	106.280	256.741	108.976	405.100	208.917	108.500	113.183	299.350	252.456	112.067	116.487	117.415	122.655	294.562	120.243	-8191	255	
8221.300	1	1	0	0	0.21372	0.23248	0.07693	0.086112	0.14114	0.08907	0.071145	0.12664	0.065269	0.10944	0.21629	0.15971	0.24874	0.10659	0.1221	0.27503	-1.2792	-2.1188	-1.3542	-1.7646	-1.5417	-1.1646	-2.325	-1.4354	-1.4813	-1.8542	-1.275	-1.9667	-1.575	-1.2708	-2.075	-1.4937	361.202	173.624	335.162	343.812	269.643	311.022	315.804	423.110	410.919	234.261	174.370	401.125	337.376	446.582	246.595	389.163	0.00092512	0.00051685	7.0101e-05	451.4	2.6157e-06	5.4013e-06	670.62	175.05	4.1844e-06	6.5385e-06	319.73	129.19	65.088	27.833	8.2574e-06	65.051	0.00049223	0.0004699	0.00012891	502.93	5.2885e-06	5.0821e-06	695.86	186.52	5.2214e-06	5.096e-06	326.07	130.19	68.679	29.173	5.1534e-06	64.399	275.636	361.272	259.358	108.609	215.822	297.435	108.224	113.168	246.739	399.917	111.549	116.393	116.929	122.294	210.301	119.800	-8191	255	
8221.396	1	1	0	0	0.11512	0.13589	0.21898	0.076782	0.18804	0.21624	0.18322	0.29884	0.18396	0.20963	0.17391	0.47263	0.15637	0.090789	0.080115	0.18459	-0.9125	-1.7458	-1.1292	-1.7354	-1.8104	-1.1375	-2.0646	-1.5292	-1.3875	-2.0729	-1.3646	-1.7396	-1.7771	-1.2792	-2.0021	-1.5417	279.542	349.001	445.344	354.193	110.183	307.756	445.780	404.346	105.673	271.424	408.187	431.935	415.608	363.241	208.134	95.935	0.0010173	0.00019798	0.0002183	450.73	8.6393e-06	2.7815e-06	665.2	176.19	7.2103e-06	2.7458e-06	322.54	129.49	65.448	28.129	1.042e-05	65.616	0.00048248	0.00045938	0.00013069	500.47	5.2277e-06	4.9528e-06	695.37	186.28	5.1623e-06	5.0122e-06	328.03	130.42	68.977	29.257	5.3064e-06	64.697	278.946	250.247	156.784	108.717	148.323	252.423	108.471	113.047	273.389	204.230	111.649	116.151	117.241	122.369	193.829	119.795	-8191	255	
8221.492	1	1	0	0	0.3412	0.062654	0.15173	0.073393	0.050134	0.12464	0.12468	0.086223	0.20899	0.23191	0.19693	0.10802	0.097929	0.31723	0.16769	0.26039	-0.78125	-2.0146	-1.1625	-1.7313	-1.9292	-1.1917	-1.6917	-1.5458	-1.1771	-2.0312	-1.4688	-1.7313	-1.9042	-1.0854	-1.8125	-1.9	423.664	239.239	444.420	104.741	157.629	318.306	393.160	122.511	278.794	199.221	202.702	439.365	130.258	160.371	230.093	436.584	0.0010041	0.00075944	0.00022307	445.98	1.51e-06	2.2744e-06	671.86	175.83	4.1114e-06	5.0193e-06	321.43	130.03	65.377	28.274	7.1375e-06	65.979	0.0004752	0.00045652	0.00013482	499.04	5.1463e-06	4.9782e-06	699.82	186.26	5.0573e-06	5.0251e-06	329.69	130.59	68.826	29.45	5.379e-06	64.961	283.114	244.041	189.738	108.917	369.590	227.548	108.393	112.819	258.913	267.718	112.046	116.409	116.944	121.957	255.573	119.815	-8191	255	
8221.611	1	1	0	0	0.20286	0.029881	0.43871	0.15745	0.13145	0.066547	0.11926	0.26247	0.15132	0.1637	0.28527	0.32806	0.24278	0.4044	0.14408	0.19677	-0.93125	-2.2396	-1.4354	-1.4312	-2.0687	-1.1313	-1.9646	-1.7563	-1.3062	-1.9688	-1.3521	-1.3813	-1.8854	-1.2396	-1.6021	-1.9562	156.424	104.342	116.662	335.271	150.805	269.762	430.816	318.602	316.801	261.665	319.729	101.830	105.467	420.655	331.866	430.721	0.0010537	0.00075164	9.3691e-05	449.43	6.747e-06	6.9549e-06	673.17	176.16	3.0984e-06	2.4052e-06	318.58	129.98	65.19	28.055	5.8232e-06	65.61	0.00046466	0.00045867	0.00013745	497.73	4.9857e-06	5.0627e-06	699.48	186.05	4.9553e-06	5.1347e-06	329.01	129.92	68.392	29.379	5.3248e-06	64.53	282.041	184.289	382.855	108.200	300.857	192.813	108.057	113.254	229.764	183.305	111.783	116.720	117.010	122.509	209.964	119.931	-8191	255	
8221.707	1	1	0	0	0.14	0.092158	0.24796	0.080019	0.18906	0.24632	0.10309	0.081049	0.378	0.1671	0.1129	0.25072	0.16429	0.23233	0.19939	0.23261	-0.8375	-1.975	-1.5208	-1.3958	-1.9354	-1.0812	-1.8687	-1.9792	-1.2167	-1.9188	-1.5562	-1.3104	-2.2062	-1.5042	-1.6708	-1.9542	412.654	375.484	304.079	387.141	321.991	244.990	131.306	310.464	399.847	227.658	112.677	147.208	338.220	435.593	432.053	373.168	0.00091943	0.001008	0.00013895	448.74	3.9552e-06	7.2728e-06	667.08	174.9	6.242e-06	4.9491e-06	318.65	130.01	65.195	28.076	2.5491e-06	65.157	0.0004583	0.00047408	0.00013511	493.77	4.9173e-06	5.1755e-06	695.19	185.22	4.8864e-06	5.2954e-06	327.35	129.58	68.425	29.488	5.2519e-06	64.189	280.192	174.185	212.204	109.169	291.570	233.708	108.188	113.262	193.403	104.449	112.083	116.288	117.251	121.829	448.821	119.798	-8191	255	
8221.803	1	1	0	0	0.2101	0.23886	0.3214	0.13172	0.21113	0.1607	0.13541	0.22742	0.21815	0.1631	0.13754	0.17756	0.099516	0.24908	0.23336	0.20763	-0.80625	-1.8646	-1.6021	-1.2646	-2.1208	-1.2042	-1.8479	-2.0708	-0.95625	-1.8146	-1.9188	-1.45	-2.0542	-1.1396	-1.4333	-2.2729	227.712	276.572	210.751	234.753	266.290	404.977	331.751	454.049	147.432	103.450	397.052	109.584	289.959	344.837	252.173	125.656	0.0010358	0.00020957	4.3938e-05	446.48	4.2224e-06	4.1964e-06	665.19	175.67	4.5016e-06	4.1307e-06	322.82	128.77	65.371	28.025	5.873e-06	65.508	0.00045929	0.00048726	0.00013333	492.99	4.9889e-06	5.3543e-06	694.4	185.46	4.9747e-06	5.3608e-06	328.35	129.37	68.795	29.514	5.1427e-06	64.327	274.841	415.517	374.596	108.962	187.682	272.808	108.383	113.400	212.555	251.977	111.967	116.566	117.387	122.146	394.319	120.001	-8191	255	
8221.899	1	1	0	0	0.074824	0.06972	0.14655	0.048273	0.14559	0.080972	0.23208	0.19576	0.10706	0.25504	0.082938	0.18633	0.11741	0.23221	0.15849	0.047327	-0.87292	-1.7625	-1.6521	-1.3604	-2.1083	-1.2188	-1.4854	-2.2583	-0.99375	-1.8583	-2.0521	-1.3875	-2.0312	-1.4354	-1.375	-2.2896	399.732	254.067	382.016	360.388	415.948	421.928	250.208	145.235	159.808	321.274	186.587	411.607	99.630	421.851	290.284	357.167	0.0010604	0.00051443	6.0785e-05	447.61	3.9385e-06	4.3482e-06	667.85	176.73	7.2513e-06	8.7473e-06	321.82	129.12	65.093	28.091	5.0538e-06	65.753	0.00046977	0.00049205	0.0001311	490.66	5.1606e-06	5.3757e-06	693.26	185.2	5.1668e-06	5.3745e-06	328.47	129.17	68.903	29.537	5.0281e-06	64.427	272.369	314.257	292.610	108.917	189.875	328.719	108.343	113.268	217.757	244.859	111.845	116.155	117.359	122.213	280.373	120.157	-8191	255	
8221.995	1	1	0	0	0.057746	0.21572	0.12116	0.10701	0.197	0.13858	0.2261	0.29445	0.29515	0.35423	0.092497	0.22925	0.045443	0.2328	0.24309	0.041336	-0.80208	-1.6688	-1.8958	-1.3813	-2.1458	-1.4625	-1.3646	-2.2938	-1.275	-1.8438	-1.9583	-1.3167	-2.025	-1.6208	-1.0021	-1.9979	227.078	189.601	108.135	366.435	265.202	316.235	356.616	366.326	102.894	300.517	435.491	123.151	190.610	145.295	147.903	112.529	0.0011128	0.00073085	3.8576e-05	442.02	5.5969e-06	3.9719e-06	663.14	175.39	9.0206e-06	1.3485e-06	321.15	129.12	65.265	28.016	7.32e-06	64.925	0.0004845	0.00048003	0.00012937	487.24	5.2706e-06	5.2645e-06	689.2	184.48	5.2673e-06	5.2119e-06	325.74	128.71	68.963	29.337	4.9848e-06	63.793	263.440	125.698	208.834	108.779	247.343	234.833	108.463	113.264	223.215	151.101	111.760	116.135	117.310	121.986	280.228	120.242	-8191	255	
8222.092	1	1	0	0	0.18313	0.097474	0.039749	0.3426	0.25709	0.13647	0.1417	0.2596	0.1628	0.16439	0.34342	0.30331	0.068895	0.2308	0.073278	0.13241	-0.87708	-1.5979	-1.8937	-1.0604	-2.0583	-1.7521	-1.2479	-2.0729	-1.4979	-1.4375	-2.1208	-1.2396	-1.8958	-1.9271	-0.97083	-2.0479	434.485	122.014	436.327	396.997	295.531	387.437	314.569	453.874	336.390	356.202	440.658	437.995	288.652	110.482	191.092	438.883	0.00084704	0.00062378	0.00017102	446.44	1.1079e-05	3.6223e-06	659.99	175.27	4.9339e-06	4.9586e-06	321.69	128.99	65.157	27.802	4.0304e-06	64.994	0.00049428	0.00047312	0.00012677	489.17	5.335e-06	5.1277e-06	684.88	184.57	5.3493e-06	5.0849e-06	325.26	128.97	69.079	29.256	4.8515e-06	63.931	277.620	299.452	260.564	108.585	243.185	140.324	108.572	113.385	215.897	269.482	111.754	116.499	117.230	122.224	327.521	119.922	-8191	255	
8222.212	1	1	0	0	0.16698	0.33812	0.091849	0.093662	0.38906	0.11725	0.28237	0.31147	0.10453	0.18956	0.11965	0.32015	0.14618	0.22688	0.24228	0.22532	-1.0125	-1.3792	-1.9188	-1.2667	-1.6688	-1.4417	-1.2917	-2.1729	-1.4188	-1.4208	-2.1312	-1.3958	-1.6771	-1.8479	-1.1583	-2.3229	343.292	289.345	171.253	328.891	358.060	437.498	363.121	379.241	178.144	111.421	160.792	107.047	336.901	444.119	323.493	412.046	0.0010586	0.0004395	6.3408e-05	442.83	8.5428e-06	5.4326e-06	660.5	175.27	7.0508e-06	3.0512e-06	319.82	127.85	64.492	27.861	5.8567e-06	64.822	0.00049198	0.00046085	0.00012468	490.18	5.2527e-06	5.0435e-06	682.64	185.06	5.246e-06	5.0524e-06	323.21	128.71	68.566	29.111	4.8652e-06	64.01	279.086	340.292	328.462	109.173	348.733	225.302	108.434	113.611	296.813	380.059	112.005	116.349	117.455	122.320	264.391	120.032	-8191	255	
8222.308	1	1	0	0	0.41627	0.16823	0.33263	0.083349	0.11067	0.20944	0.16968	0.30539	0.19637	0.15814	0.19652	0.18853	0.22081	0.12355	0.12185	0.090311	-1.4188	-1.2833	-1.9167	-1.4458	-1.6229	-1.875	-1.1812	-2.0542	-1.7625	-1.2146	-2.1437	-1.4083	-1.4125	-1.8875	-1.2083	-1.9479	137.006	141.821	165.451	306.905	320.257	254.323	350.681	261.397	424.354	365.322	166.568	452.406	230.403	163.137	304.890	329.769	0.0010752	0.00018399	0.0002196	444.67	7.6907e-06	4.7477e-06	658.74	173.87	1.5358e-06	4.7439e-06	316.87	126.92	64.855	27.271	1.0359e-05	63.139	0.00048353	0.00045499	0.00012366	491.74	5.1813e-06	4.9754e-06	684.17	183.96	5.1857e-06	4.9513e-06	320.93	127.92	68.17	28.608	4.9346e-06	62.517	270.379	192.691	184.995	108.876	197.772	161.802	108.471	113.037	196.957	217.618	112.047	116.358	117.358	122.400	223.194	120.079	-8191	255	
8222.403	1	1	0	0	0.12001	0.10519	0.33818	0.11376	0.1127	0.18697	0.40508	0.035585	0.28797	0.082708	0.3709	0.11575	0.041421	0.085037	0.11448	0.17839	-1.575	-0.89167	-1.925	-1.3687	-1.2417	-1.8896	-1.3917	-1.9917	-1.7188	-1.2042	-2.275	-1.3062	-1.1938	-2.025	-1.1417	-1.9188	213.486	367.675	308.973	274.556	170.828	181.982	368.934	347.670	284.850	376.799	447.047	229.975	386.746	291.146	132.840	126.493	0.00094521	0.0002577	8.873e-05	441.79	3.9007e-06	3.6033e-06	658.47	171.1	1.3001e-05	6.9235e-06	311.95	126.33	64.376	27.372	4.9301e-06	63.441	0.00047548	0.00044802	0.00012752	493.64	5.1285e-06	4.9287e-06	683.73	181.76	5.1484e-06	4.8916e-06	318.96	127.43	67.932	28.556	5.1e-06	62.64	278.950	189.210	304.803	109.255	396.176	357.173	108.229	113.151	194.307	208.207	111.461	116.169	116.791	121.963	401.887	119.631	-8191	255	
8222.476	1	1	0	0	0.1387	0.087173	0.44872	0.14176	0.049377	0.068176	0.43566	0.17204	0.052973	0.22706	0.19258	0.4919	0.27076	0.49921	0.098583	0.21424	-1.4792	-1.1271	-1.9896	-1.5229	-1.3021	-2.0646	-1.2833	-1.9688	-1.9937	-0.96042	-1.8312	-1.6396	-1.5604	-2.2417	-0.97292	-1.6021	389.093	98.507	308.917	120.140	444.782	218.596	411.887	433.524	370.624	350.926	401.858	419.477	409.488	279.824	225.989	142.299	0.00084179	0.00011885	0.00015002	443.21	6.7535e-06	3.0905e-06	656.01	172.37	5.9426e-06	1.8265e-06	311.83	126.02	64.109	27.289	1.3018e-05	62.734	0.00046793	0.00043771	0.00013021	491.23	4.9343e-06	4.8281e-06	683.96	181.81	4.9262e-06	4.805e-06	319.57	126.78	67.406	28.437	5.1743e-06	61.841	271.360	345.143	262.047	108.027	209.308	186.960	108.089	112.950	155.217	158.616	111.884	116.064	116.667	121.694	220.564	119.763	-8191	255	
8222.595	1	1	0	0	0.25471	0.35729	0.14801	0.11703	0.11633	0.13997	0.10868	0.096747	0.22565	0.429	0.17701	0.22356	0.10592	0.20248	0.28348	0.24572	-1.5833	-1.0542	-1.8833	-1.5854	-1.0063	-2.1333	-1.4937	-1.4604	-1.9125	-1.0438	-2.1437	-1.8479	-1.1375	-1.9458	-1.2062	-1.5208	119.848	101.945	175.938	383.902	225.657	424.542	262.508	190.014	395.505	113.535	209.575	433.317	102.741	437.348	103.229	437.634	0.00091219	0.0010217	0.00019284	440.96	2.6014e-06	6.3383e-06	651.24	169.68	3.1835e-06	3.5616e-06	308.8	124.84	63.956	26.888	2.788e-06	61.952	0.00045711	0.00044432	0.00013286	488.55	4.8901e-06	4.919e-06	681.45	179.05	4.8618e-06	4.956e-06	316.67	125.35	67.269	28.172	5.2859e-06	61.164	273.065	144.498	209.879	108.534	269.876	326.740	108.171	113.144	266.308	197.854	111.304	116.070	117.045	121.894	196.098	119.571	-8191	255	
8222.691	1	1	0	0	0.20397	0.056675	0.1529	0.10613	0.25477	0.096682	0.072264	0.2222	0.11676	0.15739	0.23173	0.28463	0.29783	0.27409	0.24252	0.55882	-1.6875	-1.0771	-1.6125	-1.9	-1.1313	-1.9979	-1.3979	-1.3646	-1.9875	-1.3146	-1.825	-1.9813	-1.2104	-2.0979	-1.4292	-1.4188	450.698	100.515	285.864	246.201	96.694	150.665	168.632	413.847	274.498	391.762	95.753	440.572	394.730	145.421	253.179	333.359	0.00094925	0.00059744	6.1241e-05	441.65	4.2331e-06	6.4794e-06	656.25	169.65	3.404e-06	2.9068e-06	305.77	124.55	63.904	26.699	3.5204e-06	61.981	0.00045232	0.00046085	0.00013427	488.89	4.8541e-06	5.1403e-06	683.55	178.63	4.876e-06	5.1368e-06	315.35	125.16	67.132	28.181	5.2607e-06	60.945	274.787	205.946	122.122	108.019	315.301	215.080	107.856	112.777	260.052	176.368	111.850	115.876	116.805	122.173	248.364	119.747	-8191	255	
8222.787	1	1	0	0	0.24186	0.27687	0.0867	0.27455	0.069752	0.14207	0.31422	0.09872	0.15074	0.28783	0.11537	0.15132	0.20377	0.20836	0.27035	0.14103	-1.7687	-1.1396	-1.6375	-1.8896	-0.97292	-2.025	-1.5417	-1.1437	-2.2687	-1.2938	-1.4854	-1.85	-0.97708	-1.9854	-1.6833	-1.2729	451.074	212.434	165.869	426.651	304.235	399.020	340.686	305.782	406.520	436.452	95.490	394.210	337.232	305.743	270.376	372.205	0.00097021	0.00039634	0.00020539	443.52	3.7704e-06	4.4253e-06	656.52	168.22	3.6339e-06	2.732e-06	307.99	125.63	64.621	27.104	2.5627e-06	61.92	0.00045279	0.00047979	0.00013251	490.35	4.8508e-06	5.2359e-06	685.28	178.42	4.863e-06	5.2577e-06	314.96	125.52	67.561	28.428	5.0622e-06	60.988	265.606	234.267	230.932	108.451	201.741	203.982	107.854	113.154	192.517	255.821	112.052	116.007	116.876	122.021	181.858	119.807	-8191	255	
8222.883	1	1	0	0	0.10826	0.26632	0.1116	0.18199	0.26691	0.21692	0.063409	0.13874	0.1192	0.27163	0.17741	0.15803	0.26905	0.2333	0.29973	0.31043	-1.425	-1.2604	-1.6208	-1.8896	-1.1417	-1.85	-1.8271	-1.2271	-1.8604	-1.2229	-1.4542	-2.1813	-1.3083	-1.8875	-1.8458	-1.3271	189.425	98.883	280.372	317.622	237.244	187.063	102.079	392.876	97.387	390.130	126.310	329.900	444.267	454.651	284.392	411.205	0.0010701	0.00054954	5.7279e-05	443.8	5.6438e-06	1.0088e-05	656.01	167.85	3.2636e-06	6.0476e-06	305.11	124.56	63.659	26.648	7.0992e-06	62.097	0.00045506	0.00047498	0.00012781	485.9	4.9047e-06	5.2213e-06	680.41	177.17	4.9936e-06	5.2222e-06	311.57	124.34	67.193	28.179	4.9712e-06	60.911	279.664	222.728	231.128	108.407	130.018	308.543	107.550	113.390	300.044	171.638	111.912	116.248	117.071	122.092	218.207	119.841	-8191	255	
8223.004	1	1	0	0	0.15074	0.049117	0.12401	0.18827	0.22329	0.15152	0.24255	0.16653	0.10543	0.18993	0.31591	0.29718	0.04513	0.20242	0.12875	0.23013	-1.6688	-1.2833	-1.2979	-2.2417	-1.3417	-1.5583	-2.0625	-1.1313	-2.0187	-1.7292	-1.2479	-2.0354	-1.3229	-1.7646	-1.8146	-1.1896	301.089	374.089	413.796	357.941	208.209	308.211	307.578	420.752	171.950	414.253	432.557	373.490	406.222	443.262	297.458	372.332	0.00101	0.00047705	7.0023e-05	436.69	3.504e-06	4.0917e-06	648.48	170.52	5.1026e-06	3.6838e-06	308.91	125.37	63.917	27.287	2.5783e-06	64.085	0.00046898	0.00046944	0.00012413	479.12	5.0309e-06	5.1463e-06	673.57	178.32	5.1005e-06	5.0953e-06	314.84	125.24	67.551	28.653	4.8839e-06	62.705	274.937	103.405	395.753	108.415	244.068	414.799	107.925	113.253	288.548	379.011	111.605	116.286	116.856	122.458	253.229	119.652	-8191	255	
8223.076	1	1	0	0	0.059147	0.084397	0.11037	0.27118	0.033131	0.47939	0.21028	0.24084	0.087752	0.25026	0.35474	0.085783	0.14466	0.16859	0.21387	0.24889	-1.5833	-1.7729	-1.2333	-2.0125	-1.0229	-1.4688	-2.0979	-1.1917	-1.7792	-1.875	-1.4396	-2.2562	-1.4771	-1.3937	-1.9312	-1.3375	349.644	180.691	404.345	161.050	192.373	311.358	401.781	388.007	172.499	426.839	410.303	174.122	416.021	130.975	403.428	114.350	0.00099535	0.00016615	0.00010185	437.71	3.4932e-06	2.9065e-06	646.54	170.39	1.1429e-05	3.6788e-06	309.07	124.88	63.691	27.046	2.7395e-06	63.519	0.00047897	0.00046078	0.00012365	477.99	5.2001e-06	5.0526e-06	671	179.05	5.2077e-06	5.0712e-06	314.84	125.13	67.616	28.503	4.8516e-06	62.507	275.116	354.340	274.357	108.537	306.787	154.476	107.880	112.930	276.361	146.717	111.802	116.385	116.989	122.378	362.581	119.590	-8191	255	
8223.172	1	1	0	0	0.11218	0.090868	0.25396	0.32442	0.16068	0.023966	0.063363	0.12608	0.24673	0.099704	0.26059	0.21395	0.18559	0.1032	0.1364	0.14155	-1.3646	-1.9062	-0.90833	-2.0083	-1.4979	-1.6229	-2.1188	-1.3042	-1.8021	-1.8854	-1.0583	-2.0146	-1.5375	-1.3188	-2.0375	-1.1562	448.130	441.986	237.364	182.109	127.662	333.698	156.840	199.961	437.393	245.729	111.077	396.192	378.365	261.108	422.132	371.107	0.00099549	0.00056421	2.5313e-05	434.94	1.9359e-06	3.3239e-06	647.28	171.02	8.8141e-06	4.6476e-06	309.56	125.26	63.883	27.228	4.1602e-06	63.801	0.00048713	0.00046071	0.00012264	481.65	5.222e-06	4.9929e-06	671.32	180.31	5.2008e-06	5.0101e-06	315.02	126.1	67.901	28.578	4.8068e-06	62.804	280.108	150.674	270.243	108.802	269.350	171.178	108.339	113.114	230.748	342.501	111.599	116.505	117.054	122.462	131.215	119.828	-8191	255	
8223.293	1	1	0	0	0.10739	0.32934	0.2073	0.23997	0.22519	0.15542	0.17596	0.22221	0.32724	0.24671	0.17813	0.14899	0.10205	0.090202	0.09611	0.23882	-1.2354	-1.8958	-1.1854	-2.0187	-1.4208	-1.275	-2.2021	-1.4229	-1.3646	-1.7229	-1.2313	-2.1104	-1.5938	-1.2062	-2.1771	-1.3188	159.785	212.575	426.199	304.638	160.467	254.332	141.809	118.076	268.908	408.974	364.403	374.727	406.803	313.119	113.974	366.788	0.00091899	0.00025067	0.00011694	436.96	4.8771e-06	9.3024e-07	646.63	170.04	2.2249e-06	6.1664e-06	308.69	124.68	64.171	27.266	6.7286e-06	63.285	0.00047777	0.00045387	0.00012251	483.4	5.1767e-06	4.894e-06	668.27	179.93	5.0771e-06	4.9199e-06	313.54	125.92	67.478	28.441	4.8304e-06	62.751	271.322	117.030	374.425	108.636	209.831	278.520	108.398	113.486	271.317	391.658	111.621	116.149	117.037	122.441	310.613	119.754	-8191	255	
8223.389	1	1	0	0	0.070611	0.1889	0.13481	0.30632	0.23945	0.24268	0.10481	0.14957	0.23936	0.10356	0.12167	0.078593	0.24598	0.31466	0.13293	0.15283	-1.2938	-1.9771	-0.89167	-1.775	-1.7542	-1.1521	-2.0458	-1.2812	-1.3104	-2.0125	-1.3792	-1.8625	-1.6208	-0.97708	-1.9062	-1.5708	120.573	225.323	366.809	443.542	356.188	291.152	140.777	310.029	353.573	297.487	416.782	393.767	123.071	110.031	253.943	413.568	0.00099583	0.00049933	0.00024147	438.18	6.0211e-06	4.3266e-06	647.4	168.77	2.8647e-06	4.8625e-06	306.4	124.23	63.541	27.094	3.2605e-06	62.391	0.00046855	0.00044612	0.0001241	485.8	5.0337e-06	4.8601e-06	671.11	179.72	5.0553e-06	4.8832e-06	312.58	125.19	67.342	28.23	5.0611e-06	62.004	276.005	210.769	200.865	108.525	302.810	256.540	108.662	113.239	184.346	108.441	111.957	116.523	116.886	122.518	237.427	120.169	-8191	255	
8223.485	1	1	0	0	0.085065	0.10045	0.025453	0.056951	0.15247	0.12349	0.28266	0.24619	0.11979	0.27347	0.2379	0.13583	0.063086	0.059842	0.14858	0.13621	-0.91458	-1.9521	-1.2854	-1.8229	-1.5854	-1.325	-1.9625	-1.3667	-1.4208	-2.1875	-1.2104	-1.7042	-1.8563	-0.975	-1.8792	-1.7292	397.106	335.912	253.149	168.168	110.027	133.753	376.121	353.077	272.809	407.887	203.991	145.410	276.077	421.499	222.162	288.978	0.0010151	0.00032949	9.724e-05	436.85	2.9419e-06	3.0065e-06	646.41	168.71	2.4179e-06	3.4489e-06	306.15	124.42	63.906	27.204	1.2804e-05	62.6	0.00046786	0.00044453	0.00013002	487.02	5.0298e-06	4.8368e-06	674.03	179.48	5.0125e-06	4.8554e-06	314.28	125.41	67.342	28.333	5.2252e-06	62.055	280.470	346.749	202.804	108.651	177.720	352.363	107.882	113.288	221.761	202.597	112.138	116.370	117.171	122.248	253.065	119.819	-8191	255	
8223.604	1	1	0	0	0.11099	0.18245	0.16376	0.14046	0.26297	0.10997	0.099725	0.12576	0.1514	0.12856	0.24463	0.14754	0.14786	0.24232	0.056517	0.20662	-0.9	-2.05	-1.3833	-1.7521	-1.7604	-0.99375	-1.7729	-1.375	-1.3563	-2.1833	-1.3583	-1.6063	-1.8792	-1.3062	-2.0083	-1.6396	214.079	369.110	357.974	138.614	187.529	239.278	253.088	360.876	207.808	111.365	367.095	144.552	110.612	317.629	273.909	394.698	0.00096036	0.00031823	0.00015144	438.91	1.3786e-06	3.4651e-06	644.56	168.8	1.046e-05	6.2548e-06	306.98	124.73	63.881	27.147	5.9092e-06	62.886	0.0004631	0.00044973	0.00013514	486.28	4.9544e-06	4.9105e-06	675.66	178.58	4.9333e-06	4.9665e-06	314.28	125.29	67.355	28.413	5.2611e-06	62.163	277.150	286.769	200.664	108.876	175.924	184.923	108.332	113.433	290.853	265.883	112.118	116.525	117.172	122.457	192.681	119.996	-8191	255	
8223.700	1	1	0	0	0.21749	0.085758	0.14534	0.12475	0.26158	0.11614	0.063676	0.1055	0.17295	0.050087	0.12286	0.139	0.096065	0.26982	0.27419	0.26429	-0.65417	-2.2479	-1.4479	-1.6167	-1.775	-1.0854	-1.9917	-1.9229	-0.94375	-1.8937	-1.4021	-1.3708	-1.8687	-1.3042	-1.8229	-1.975	98.764	182.886	439.538	320.155	155.325	188.608	454.321	236.309	254.709	172.430	140.012	323.454	449.591	133.099	370.512	414.210	0.0010638	0.00067621	0.00016564	438.1	1.3456e-06	4.7602e-06	646.46	169.24	1.1612e-06	3.5503e-06	304.48	124.87	63.978	27.151	3.3254e-06	62.651	0.0004537	0.0004563	0.00013403	486.03	4.8691e-06	5.012e-06	677	178.58	4.8331e-06	5.0807e-06	313.97	125.24	67.305	28.526	5.1797e-06	61.783	271.821	95.225	315.998	108.890	328.579	205.753	108.559	113.099	285.069	151.624	112.060	116.769	117.095	122.401	336.108	119.841	-8191	255	
8223.772	1	1	0	0	0.1268	0.12086	0.09061	0.34611	0.31093	0.18777	0.1164	0.030913	0.1765	0.12795	0.10307	0.21036	0.25534	0.35249	0.16551	0.40044	-0.74167	-1.7646	-1.5292	-1.3646	-2.0458	-1.325	-1.8771	-1.8021	-1.3271	-2.0229	-1.6437	-1.25	-2.1937	-1.3104	-1.6333	-2.1958	218.105	212.027	317.447	448.513	122.622	302.535	452.124	372.185	180.844	241.503	367.540	450.495	417.304	107.665	232.331	378.528	0.00096557	0.00070991	3.3506e-05	436.95	7.899e-06	4.1986e-06	643.39	169.98	8.4977e-06	2.8245e-06	303.35	125.09	64.158	27.311	8.3484e-06	62.981	0.00044447	0.00047026	0.00013206	484.2	4.8125e-06	5.182e-06	674.16	178.57	4.8495e-06	5.2417e-06	312.99	125.08	67.31	28.735	5.1268e-06	61.952	272.290	161.372	308.138	108.919	249.451	197.769	108.158	113.466	234.918	168.634	111.939	116.376	117.090	122.372	250.248	119.955	-8191	255	
8223.892	1	1	0	0	0.064036	0.21836	0.24985	0.16319	0.23759	0.21932	0.12455	0.12536	0.45614	0.24536	0.072427	0.16681	0.22897	0.087183	0.24823	0.16269	-0.925	-1.8958	-1.7792	-1.2437	-2.0396	-1.4188	-1.4542	-1.9937	-1.1333	-1.8125	-2.0083	-1.225	-2.0771	-1.3667	-1.45	-1.9417	146.953	351.423	115.034	442.436	237.308	120.752	429.995	328.237	405.072	424.931	347.022	451.425	452.634	426.524	253.330	198.119	0.00081607	0.00026135	4.6083e-05	437.44	5.4754e-06	6.1408e-06	641.58	169.42	2.2562e-06	8.2479e-06	304.72	124.7	64.219	26.97	4.6206e-06	63.119	0.00045984	0.00048392	0.00012999	482.7	5.01e-06	5.3246e-06	671.88	178.22	5.0023e-06	5.3803e-06	313.18	125.13	67.736	28.69	5.1291e-06	62.095	267.730	209.438	237.185	108.889	197.355	254.258	108.701	113.185	207.483	423.185	111.834	116.627	117.355	122.479	148.082	120.150	-8191	255	
8223.988	1	1	0	0	0.14534	0.047081	0.055663	0.2294	0.21258	0.12658	0.27326	0.12871	0.19077	0.16576	0.18567	0.1859	0.15861	0.07281	0.35171	0.26926	-0.86875	-1.8937	-1.7875	-1.35	-2.0396	-1.3854	-1.5562	-2.1292	-0.9625	-1.8333	-1.9813	-0.99583	-1.9958	-1.7854	-1.3229	-2.1042	257.642	413.908	409.673	430.155	449.858	191.691	401.028	121.144	101.494	346.305	359.413	122.059	422.109	149.240	183.352	437.301	0.00096292	0.00020757	0.00021685	438.18	7.2306e-06	3.5545e-06	646.54	170.03	5.8711e-06	5.7089e-06	307.29	125.02	64.409	27.355	4.562e-06	63.589	0.00047767	0.00048876	0.00013107	482.46	5.2479e-06	5.355e-06	673.22	179.06	5.231e-06	5.3298e-06	314.8	125.39	68.424	28.833	5.0183e-06	62.533	273.681	329.345	242.616	109.002	198.917	232.225	108.641	113.611	332.590	257.735	111.902	116.576	117.577	122.492	253.242	119.947	-8191	255	
8224.084	1	1	0	0	0.22182	0.048547	0.23857	0.13464	0.20421	0.069445	0.099286	0.28227	0.25643	0.17875	0.45871	0.20469	0.41244	0.13708	0.15812	0.32442	-0.81875	-1.6979	-1.8	-1.1417	-2.0563	-1.7375	-1.1771	-2.2354	-1.2812	-1.5	-2.1542	-1.1292	-1.9229	-1.8229	-1.1604	-2.2896	158.868	289.989	126.369	420.324	201.160	278.526	153.158	366.975	211.152	158.933	423.570	405.344	127.381	112.915	192.743	361.313	0.001042	2.8256e-05	0.00015473	436.35	1.1885e-05	1.8525e-06	644.89	170.07	3.846e-06	5.4432e-06	307.53	125.15	64.104	27.29	1.1358e-05	63.072	0.00048451	0.00047314	0.00012608	480.67	5.3074e-06	5.1804e-06	669.54	179.31	5.3275e-06	5.1305e-06	313.41	124.93	68.053	28.602	4.8605e-06	62.178	274.471	274.644	176.196	108.895	229.432	314.634	108.439	113.335	332.714	193.076	112.134	116.534	117.327	122.285	396.357	120.153	-8191	255	
8224.181	1	1	0	0	0.24479	0.26571	0.13337	0.041639	0.21634	0.2459	0.25182	0.16847	0.42686	0.14025	0.26444	0.19216	0.086126	0.38625	0.046452	0.18873	-0.85208	-1.3062	-1.9979	-0.8625	-1.7854	-1.7896	-1.1854	-2.0104	-1.2458	-1.3229	-2.2229	-1.2896	-1.7208	-1.7646	-1.2729	-1.8917	260.369	98.343	337.795	310.776	103.204	112.750	202.409	362.938	182.000	119.319	107.737	442.512	450.867	420.069	392.338	249.954	0.00088857	0.00027893	0.00013121	436.01	5.2745e-06	2.4777e-06	642.62	170.24	4.8856e-06	6.6842e-06	305.71	124.44	64.065	27.088	1.0451e-05	63.187	0.00049165	0.00046107	0.00012425	481.82	5.344e-06	5.0961e-06	666.15	179.26	5.3773e-06	5.1237e-06	311.82	125.11	68.064	28.468	4.8722e-06	62.266	277.385	340.480	297.804	109.079	308.961	187.662	108.507	113.765	263.535	306.493	112.343	116.606	117.375	122.406	279.121	120.377	-8191	255	
8224.301	1	1	0	0	0.15497	0.27681	0.039946	0.24063	0.16636	0.053348	0.37304	0.21619	0.10213	0.15121	0.10609	0.26877	0.15574	0.18097	0.24976	0.26427	-1.0896	-1.4604	-1.8646	-1.3896	-1.7208	-1.8021	-1.2938	-2.2521	-1.6146	-1.3583	-2.1208	-1.4479	-1.6958	-1.7771	-1.1542	-1.8813	247.332	322.975	289.980	374.429	275.675	112.865	356.234	382.329	242.197	436.583	390.754	354.956	399.674	136.410	285.134	438.182	0.00074825	0.00032722	8.511e-05	431.49	5.4884e-06	5.4754e-06	640.28	169.45	2.2895e-06	5.8585e-06	307.73	124.76	64.157	27.227	3.7297e-06	63.177	0.00048908	0.000459	0.00012383	482.37	5.2867e-06	5.0529e-06	665.02	179.92	5.2794e-06	5.0652e-06	313.31	125.89	68.137	28.59	4.9627e-06	62.719	281.737	241.196	321.611	109.100	252.640	237.390	108.453	114.007	333.950	348.524	112.415	116.581	117.348	122.742	145.619	120.349	-8191	255	
8224.373	1	1	0	0	0.17419	0.019111	0.1416	0.29404	0.14004	0.22457	0.1545	0.25	0.27555	0.090633	0.047179	0.13648	0.093751	0.13724	0.098948	0.23169	-1.1667	-1.3146	-1.9479	-1.4021	-1.4354	-1.8146	-1.4021	-1.9937	-1.5	-1.2938	-2.0521	-1.25	-1.7062	-2.1229	-1.0125	-1.6979	213.231	285.736	405.349	97.410	187.790	430.905	370.398	411.790	248.047	264.083	327.595	448.632	380.124	340.007	294.491	323.510	0.00082068	0.000355	9.4825e-05	435.14	1.273e-06	1.0349e-05	641.57	169.98	3.2439e-06	3.0495e-06	307.91	125.4	64.373	27.294	3.4591e-06	63.606	0.00048717	0.00045845	0.00012759	487.48	5.2025e-06	5.0375e-06	668.6	180.95	5.1645e-06	4.9813e-06	314.65	126.59	68.041	28.62	5.0936e-06	62.933	272.682	140.877	334.781	108.848	208.215	251.409	108.783	113.926	119.868	180.648	112.732	116.477	117.991	122.384	258.799	120.249	-8191	255	
8224.469	1	1	0	0	0.071471	0.1217	0.045814	0.15451	0.10208	0.16918	0.035763	0.084648	0.1034	0.041404	0.30936	0.20338	0.10076	0.25434	0.015777	0.27924	-1.4646	-1.0833	-1.7458	-1.5646	-1.5562	-1.9688	-1.3021	-1.9917	-1.7792	-1.1375	-2.1063	-1.6	-1.4021	-2.0812	-1.2792	-1.7917	144.963	393.160	400.756	252.472	399.280	402.314	329.574	276.620	340.025	109.240	361.910	99.138	389.997	316.745	246.955	378.878	0.00073661	0.00078193	6.0979e-05	435.32	1.8367e-06	1.2182e-06	636.53	168.87	3.5623e-06	5.6833e-06	305.31	123.95	64.356	27.22	4.957e-06	63.121	0.00047803	0.00044943	0.00013219	488.14	5.1036e-06	4.9169e-06	670.12	180.09	5.1303e-06	4.8919e-06	314.2	125.24	67.74	28.464	5.2587e-06	62.475	281.133	283.827	412.063	109.332	258.512	137.229	108.993	113.605	253.755	334.588	112.353	116.827	117.823	122.941	268.898	120.428	-8191	255	
8224.565	1	1	0	0	0.25715	0.13588	0.18585	0.14385	0.051118	0.17119	0.080581	0.054415	0.32228	0.1049	0.19582	0.25095	0.14311	0.28409	0.21892	0.27066	-1.5271	-1.075	-1.8667	-1.5208	-1.2979	-2.1813	-1.2521	-1.6104	-2.0125	-1.0167	-1.9771	-1.9292	-1.2833	-1.9896	-1.4021	-1.5958	222.178	302.389	134.009	219.993	212.504	333.789	159.890	323.939	246.679	218.515	123.943	351.443	215.834	438.723	354.815	426.856	0.00097317	0.0003845	0.00021243	434.54	7.2307e-06	2.8166e-06	639.3	168.55	2.9858e-06	6.8767e-06	305.92	124.78	64.213	27.337	3.3007e-06	63.461	0.00046861	0.00045344	0.00013533	483.76	5.0725e-06	4.9542e-06	669.99	179.8	5.1019e-06	5.0277e-06	316.66	125.96	67.694	28.713	5.446e-06	62.689	275.604	222.025	230.890	109.422	395.674	145.651	108.580	114.210	385.314	198.363	112.517	117.153	117.857	122.612	361.080	120.610	-8191	255	
8224.684	1	1	0	0	0.29295	0.26438	0.095937	0.20653	0.05815	0.20326	0.26799	0.074554	0.22003	0.052739	0.11567	0.14159	0.084078	0.30694	0.23169	0.054146	-1.6104	-1.2	-1.9875	-1.9	-1.2563	-2.2854	-1.575	-1.4604	-2.2792	-1.2521	-1.775	-1.9292	-1.1146	-2.1375	-1.4979	-1.35	439.453	244.391	138.076	433.005	266.692	371.635	425.685	445.659	195.809	195.449	348.022	415.271	105.663	337.840	192.933	264.747	0.00076845	0.00038931	8.1191e-05	431.99	6.142e-06	3.8905e-06	637.09	169.16	2.9179e-06	1.2507e-05	306.11	125.26	64.51	27.45	6.4698e-06	63.707	0.00047058	0.00046678	0.00013848	482.72	4.9948e-06	5.1788e-06	670.1	179.97	5.0332e-06	5.2392e-06	316.63	125.84	67.681	28.887	5.4556e-06	62.856	267.983	238.303	260.363	109.558	320.237	297.518	108.785	113.965	300.987	234.877	112.863	117.056	117.711	122.915	415.323	120.377	-8191	255	
8224.780	1	1	0	0	0.20262	0.19887	0.15808	0.30008	0.20997	0.21338	0.10663	0.3376	0.16125	0.077205	0.36917	0.2628	0.19448	0.11891	0.035864	0.24995	-1.5	-1.0438	-1.4208	-1.675	-1.1313	-2.0375	-1.7417	-1.55	-1.9479	-1.2	-1.6083	-2.0375	-1.1771	-1.95	-1.4771	-1.25	174.369	364.592	401.493	102.445	306.957	414.565	291.324	436.065	115.604	119.425	108.730	97.511	270.331	382.476	440.303	452.979	0.0009025	0.00060654	0.00014312	430.9	3.8393e-06	2.8956e-06	641.2	169.23	2.6371e-06	7.0118e-06	307.5	125.48	64.431	27.275	1.0327e-05	63.714	0.00046863	0.00048549	0.00013673	482.17	5.0138e-06	5.3336e-06	671.18	179.83	5.0139e-06	5.3898e-06	316.67	126.06	67.748	28.915	5.2718e-06	62.652	278.340	179.589	455.787	109.355	264.272	261.982	108.844	114.016	269.345	188.000	112.676	116.081	116.788	121.744	362.595	119.601	-8191	255	
8224.876	1	1	0	0	0.22847	0.33818	0.39265	0.179	0.13895	0.22552	0.08162	0.1238	0.11225	0.28887	0.27077	0.12452	0.28942	0.1521	0.12226	0.19154	-1.8667	-1.1812	-1.4375	-2.2271	-0.97708	-1.6854	-1.9146	-1.4917	-2.0146	-1.2667	-1.7729	-2.2229	-1.1896	-1.7896	-1.4438	-1.3062	299.688	164.263	365.147	380.036	434.708	442.168	350.489	388.400	248.329	428.520	447.814	158.005	423.168	344.445	339.065	314.831	0.00088157	0.0005235	5.8348e-05	431.04	6.8336e-06	3.4937e-06	635.92	168.1	6.4352e-06	6.0334e-06	306.3	124.47	63.889	27.198	2.1701e-06	63.22	0.0004677	0.00049646	0.00013348	479.05	5.064e-06	5.4536e-06	667.08	179.06	5.0336e-06	5.3935e-06	314.82	125.33	67.516	28.756	5.1572e-06	62.297	270.463	253.710	447.557	108.260	245.977	143.881	107.558	113.073	236.358	212.239	111.828	115.860	116.663	121.750	229.278	119.309	-8191	255	
8224.973	1	1	0	0	0.18738	0.14259	0.15987	0.25791	0.016114	0.09892	0.035437	0.17898	0.15635	0.17823	0.29063	0.15447	0.094046	0.095996	0.1382	0.38468	-1.6313	-1.3042	-1.2646	-2.0062	-0.95	-1.7646	-2.0062	-1.1812	-2.0479	-1.3188	-1.4083	-2.1479	-1.0938	-1.7083	-1.8042	-1.2771	449.117	383.094	159.928	379.198	98.133	412.057	179.953	410.256	118.452	162.956	419.690	104.902	404.504	347.723	109.945	407.605	0.0010321	0.00027746	0.0001787	428.17	5.0512e-06	4.0862e-06	635.61	169.95	3.8423e-06	6.0807e-06	309.04	126.1	64.255	27.529	9.1664e-06	63.503	0.00047189	0.00048769	0.00012866	473.68	5.129e-06	5.2743e-06	662.17	178.87	5.1067e-06	5.2782e-06	315.09	125.72	68.067	28.871	5.0119e-06	62.609	268.616	218.177	187.090	108.323	241.666	139.225	107.826	113.128	262.468	207.445	111.410	116.003	116.757	122.085	193.374	119.673	-8191	255	
8225.069	1	1	0	0	0.14745	0.079223	0.023157	0.28541	0.3009	0.040518	0.36947	0.24012	0.18854	0.072392	0.14387	0.29777	0.11169	0.10451	0.10795	0.18081	-1.575	-1.2313	-1.2958	-2.0292	-1.0854	-1.5562	-2.1	-1.0583	-1.975	-1.7083	-1.4062	-2.0021	-1.3417	-1.6146	-1.9375	-1.0562	230.354	258.640	142.370	128.431	343.349	150.836	445.972	320.086	414.030	438.899	396.771	386.219	413.602	253.903	404.276	442.494	0.0011494	9.9279e-05	0.00025599	427.58	1.8536e-06	5.532e-06	632.25	169.48	8.5575e-06	3.9718e-06	305.74	124.62	64.408	27.143	2.909e-06	63.377	0.00048314	0.00047564	0.000126	472.16	5.2357e-06	5.1739e-06	660.74	178.46	5.308e-06	5.2158e-06	313.28	125.42	68.061	28.641	4.9632e-06	62.433	280.109	169.271	206.852	107.968	277.089	259.531	107.711	112.681	163.054	409.896	111.685	116.018	116.908	122.352	212.438	119.906	-8191	255	
8225.165	1	1	0	0	0.20282	0.11824	0.10376	0.13649	0.086292	0.20297	0.054214	0.16228	0.20894	0.23359	0.28527	0.13913	0.14332	0.27324	0.22247	0.061004	-1.3833	-1.5396	-1.2083	-1.8958	-1.4917	-1.5354	-2.025	-1.2917	-1.6604	-1.725	-1.3104	-2.0104	-1.4271	-1.55	-2.0458	-1.2479	175.035	350.287	192.537	416.826	279.230	187.034	415.023	334.387	212.519	227.016	450.930	105.452	124.005	99.970	288.901	419.681	0.0010169	0.00053413	6.6409e-05	427.84	2.5386e-06	2.9649e-06	630.37	169.28	8.2701e-06	1.3508e-06	306.7	125.2	63.999	27.161	3.6106e-06	62.987	0.00049153	0.00046855	0.00012477	472.91	5.3318e-06	5.0867e-06	657.65	178.62	5.3099e-06	5.0856e-06	312.27	125.73	68.03	28.522	4.8641e-06	62.313	273.015	299.532	451.338	108.595	335.154	198.599	108.367	113.482	273.890	371.279	111.952	116.138	117.459	122.223	159.941	119.999	-8191	255	
8225.285	1	1	0	0	0.10922	0.27138	0.28773	0.19074	0.02745	0.24561	0.28455	0.12818	0.15086	0.14362	0.28368	0.24429	0.25125	0.10849	0.14621	0.27673	-1.3708	-1.7042	-0.81667	-2.0208	-1.2854	-1.2542	-2.1042	-1.2542	-1.5562	-1.6125	-1.3104	-2.0938	-1.4688	-1.0271	-2.0917	-1.4	169.235	144.733	260.012	119.658	116.644	106.403	427.929	218.303	188.362	206.123	300.927	138.887	430.841	279.679	355.916	419.566	0.00085757	0.00042708	5.9934e-05	427.59	6.4446e-06	5.0902e-06	627.16	168.16	3.7755e-06	3.172e-06	305.41	123.52	63.879	26.967	9.4112e-06	62.312	0.00049096	0.00046351	0.00012264	474.57	5.2492e-06	5.0419e-06	653.95	178.11	5.194e-06	4.9972e-06	309.97	124.81	67.566	28.245	4.8372e-06	61.9	269.051	284.563	165.270	108.808	331.935	304.859	108.281	113.564	327.191	193.232	112.139	116.723	117.455	122.345	256.815	119.147	-8191	255	
8225.382	1	1	0	0	0.20655	0.17353	0.12831	0.1917	0.12289	0.19064	0.070422	0.25738	0.1656	0.22138	0.26278	0.13598	0.050205	0.16856	0.15041	0.17593	-1.175	-1.7229	-1.1875	-1.9	-1.5854	-1.3333	-2.1333	-1.2125	-1.55	-1.9521	-0.96458	-2.0646	-1.7125	-1.0708	-2.0854	-1.5375	209.541	374.463	138.664	141.994	194.354	323.260	397.988	319.007	138.324	125.729	429.436	109.297	105.583	103.876	294.182	375.958	0.00085061	0.00048993	0.00015298	423.15	4.4113e-06	8.4661e-06	625.6	167.15	3.4769e-06	6.8977e-06	301.61	123.65	63.305	26.714	3.3386e-06	62.406	0.00047245	0.00044943	0.00012358	474.64	5.0806e-06	4.8772e-06	652.1	177.68	5.0543e-06	4.8714e-06	308.37	124.55	66.99	28.069	4.9241e-06	61.768	267.044	183.239	135.409	108.112	268.399	205.057	107.843	112.626	180.056	195.727	111.224	115.836	116.209	121.672	153.615	119.275	-8191	255	
8225.476	1	1	0	0	0.106	0.23733	0.064702	0.32528	0.13108	0.18959	0.21082	0.18138	0.26611	0.24247	0.286	0.049119	0.33521	0.2471	0.028915	0.1505	-0.92708	-1.9354	-1.3375	-1.8604	-1.8833	-1.1292	-2.2104	-1.5938	-1.3333	-2.2167	-1.4542	-1.7917	-1.5812	-1.0583	-1.9646	-1.6396	318.333	187.525	171.725	138.600	321.916	302.831	309.361	404.780	334.343	192.389	391.930	432.784	380.891	105.154	280.500	316.138	0.00093146	0.00058345	7.4919e-05	424.38	1.6863e-06	5.2703e-06	624.58	165.56	8.6569e-06	7.5619e-06	303.48	123.97	63.249	26.666	1.1943e-05	62.352	0.00046521	0.00044122	0.00012659	473.92	4.9883e-06	4.8033e-06	653.18	176.5	4.9887e-06	4.8018e-06	309.73	124.61	66.899	27.945	5.0984e-06	61.646	286.042	331.585	156.446	108.448	112.343	187.774	107.534	112.760	387.867	186.135	111.339	115.652	116.315	121.530	209.770	119.294	-8191	255	
8225.572	1	1	0	0	0.076009	0.18705	0.084791	0.16314	0.094374	0.22439	0.06231	0.23976	0.046605	0.14211	0.27543	0.23607	0.17774	0.11808	0.2553	0.21773	-0.72708	-1.9562	-1.1875	-1.8667	-1.8625	-1.1354	-1.9625	-1.5	-1.0458	-2.225	-1.4625	-1.7125	-2.0687	-1.1104	-2.0333	-1.7708	230.950	248.338	168.038	408.619	213.430	176.788	378.405	110.152	138.030	196.982	313.045	134.415	109.758	385.262	349.716	370.632	0.00079459	0.00037389	0.00011125	423.08	1.0835e-06	4.2101e-06	622.32	165.95	3.5485e-06	6.6417e-06	301.23	124.04	63.277	26.77	2.9155e-06	62.457	0.00045883	0.00043927	0.00013072	472.6	4.9683e-06	4.7914e-06	654.24	175.7	4.8879e-06	4.8078e-06	309.06	124.23	66.57	27.907	5.1873e-06	61.485	273.831	183.202	210.484	108.268	340.704	275.646	107.905	112.929	257.213	245.327	111.578	116.080	116.434	121.800	164.196	119.190	-8191	255	
8225.668	1	1	0	0	0.20518	0.13647	0.16334	0.04762	0.17874	0.29623	0.10979	0.12293	0.11994	0.19448	0.13793	0.22952	0.058563	0.15999	0.09414	0.24782	-0.97917	-1.9354	-1.4521	-1.7396	-1.7708	-1.2229	-1.9792	-1.8062	-1.0312	-1.7521	-1.4625	-1.6833	-1.9854	-1.3604	-1.7083	-1.9438	268.584	377.437	426.376	150.647	205.084	325.449	224.998	104.511	120.213	446.499	364.860	431.991	415.388	440.072	391.408	449.957	0.00093383	0.00012277	0.00018987	422.04	3.696e-06	7.4444e-06	621.85	164.84	2.781e-06	8.4679e-06	300.68	123.27	62.468	26.672	9.7346e-06	61.881	0.00044569	0.0004421	0.00013124	469.28	4.8212e-06	4.8406e-06	653.31	174.6	4.7368e-06	4.9187e-06	307.86	123.3	66.081	27.942	5.1109e-06	61.079	273.743	198.504	231.184	108.504	261.838	172.331	107.749	112.908	388.176	171.908	111.383	115.605	116.668	121.966	249.276	119.109	-8191	255	
8225.764	1	1	0	0	0.17544	0.12592	0.1209	0.15114	0.16464	0.30656	0.0887	0.22157	0.2286	0.1705	0.42996	0.26948	0.11665	0.050129	0.086012	0.15977	-0.65417	-2.0375	-1.4708	-1.5688	-1.8021	-1.3208	-1.9333	-1.9896	-1.0604	-2.2125	-1.7188	-1.3125	-1.8604	-1.2396	-1.5333	-2.1333	348.026	337.096	295.747	278.726	439.674	255.941	98.006	97.071	142.161	97.208	189.763	284.308	199.197	371.137	313.945	376.942	0.00079712	0.00057741	0.00012093	418.91	4.1545e-06	3.5714e-06	617.11	164.19	2.9662e-06	6.7679e-07	297.54	121.78	62.575	26.498	8.501e-06	61.455	0.00043488	0.00045229	0.0001285	464.07	4.7212e-06	4.9887e-06	645.23	173.28	4.6784e-06	5.0571e-06	306.42	122.59	65.827	27.872	5.0048e-06	60.552	277.184	113.794	217.220	107.953	307.317	185.584	108.007	112.729	272.448	286.999	111.358	115.597	116.478	121.660	271.121	119.021	-8191	255	
8225.861	1	1	0	0	0.10036	0.28079	0.19737	0.13374	0.24489	0.14183	0.30416	0.10117	0.20588	0.18163	0.1202	0.40801	0.096134	0.072601	0.23855	0.40069	-0.62708	-1.7437	-1.7708	-1.2687	-1.9604	-1.5021	-1.7812	-1.7625	-1.2375	-2.1396	-1.7354	-1.1583	-2.2062	-1.575	-1.25	-1.8854	129.830	373.704	166.087	268.043	111.949	177.133	158.158	308.951	424.014	367.292	249.068	424.760	135.377	330.398	141.701	430.508	0.0009635	0.00024367	0.00011879	419.86	3.3441e-06	6.2848e-06	617.07	164.7	6.4067e-06	9.3821e-06	299.23	123.02	63.047	26.677	5.7893e-06	61.901	0.00043557	0.00046043	0.00012714	463.21	4.7229e-06	5.1135e-06	644.52	173.43	4.7492e-06	5.121e-06	305.97	123.01	66.098	28.062	4.9009e-06	60.97	268.556	133.356	258.675	108.120	244.643	213.916	107.742	112.511	197.214	234.156	111.614	115.587	116.119	121.275	321.637	119.016	-8191	255	
8225.957	1	1	0	0	0.11675	0.14156	0.14316	0.055311	0.23118	0.28966	0.16547	0.20761	0.26105	0.164	0.15938	0.2465	0.13683	0.2072	0.17655	0.13529	-0.58125	-1.7646	-1.6562	-1.0688	-1.7062	-1.3062	-1.4688	-2.0521	-0.99167	-1.6729	-1.8	-1.3625	-1.9271	-1.4646	-1.1333	-2.0042	298.698	307.947	207.281	304.628	188.330	309.111	271.100	166.784	436.835	158.308	119.033	131.812	444.555	112.925	329.740	147.680	0.0010587	0.00019261	1.6395e-05	420.81	7.7647e-06	5.3401e-06	622.41	164.83	4.3479e-06	1.0286e-05	300.18	123.68	63.421	26.73	1.4586e-06	62.352	0.00044492	0.00046726	0.00012494	463.04	4.9216e-06	5.1105e-06	648.06	173.57	4.9574e-06	5.0835e-06	306.91	123.57	66.748	28.192	4.8204e-06	61.369	274.850	168.316	419.199	108.132	215.854	273.083	107.623	112.840	278.030	190.115	110.900	115.833	116.719	121.770	264.689	118.988	-8191	255	
8226.077	1	1	0	0	0.30128	0.22072	0.3176	0.22954	0.2295	0.10681	0.13869	0.18241	0.20664	0.10891	0.15443	0.1751	0.13227	0.15153	0.12779	0.11751	-0.7125	-1.2958	-1.7667	-1.2375	-1.7708	-1.5063	-1.2271	-2.0771	-1.3062	-1.5104	-1.7812	-1.1646	-1.8396	-1.3646	-1.0083	-2.1437	347.900	111.745	109.184	358.428	269.979	252.335	122.598	387.171	299.205	278.673	300.752	422.187	399.565	345.790	190.829	438.211	0.00083538	0.00019511	0.00010355	419.39	4.8996e-06	3.504e-06	616.46	166.2	1.2212e-05	8.402e-06	302.81	124.2	64.188	27.017	4.9218e-06	63.173	0.00046465	0.00045793	0.0001225	460.18	4.9722e-06	4.9995e-06	645	175.14	5.0465e-06	4.9707e-06	308.73	124.36	67.481	28.261	4.7001e-06	61.955	287.207	248.999	389.191	107.847	249.412	306.282	107.723	112.369	272.420	254.628	111.296	115.649	116.653	121.221	336.194	119.132	-8191	255	
8226.174	1	1	0	0	0.14889	0.14953	0.28503	0.17715	0.26242	0.10934	0.10451	0.05241	0.16464	0.054497	0.030306	0.39941	0.2097	0.12136	0.2412	0.12211	-0.89792	-1.3229	-1.8708	-1.1583	-1.7333	-1.7917	-1.2896	-1.8979	-0.99583	-1.5208	-2.1292	-1.0271	-1.75	-2.0312	-1.0125	-2.1188	414.505	231.321	330.319	189.239	164.969	299.531	272.798	374.304	256.390	98.279	188.245	430.323	129.482	154.187	418.123	279.677	0.0011354	0.00072529	5.9598e-05	415.68	6.8715e-06	6.0062e-06	623.81	167.18	9.7958e-06	3.0269e-06	303.22	123.65	63.739	26.962	4.3911e-06	63.107	0.00047003	0.0004491	0.00011993	460.49	5.076e-06	4.904e-06	644.65	175.42	5.1194e-06	4.9136e-06	308.32	124.38	67.459	28.183	4.675e-06	62.183	266.999	100.641	290.661	108.163	217.068	130.356	107.366	112.849	312.776	335.110	111.053	115.613	116.601	121.468	257.669	119.065	-8191	255	
8226.245	1	1	0	0	0.13667	0.091689	0.16147	0.067159	0.18718	0.13221	0.1737	0.0082129	0.23722	0.19323	0.09659	0.1742	0.17239	0.23909	0.23061	0.19118	-1.2812	-1.3542	-1.9688	-0.99167	-1.7812	-1.6542	-1.1729	-2.0583	-1.7458	-1.2208	-1.9604	-1.2792	-1.6313	-1.8833	-1.0333	-1.9042	452.583	326.042	374.988	436.773	445.510	347.698	304.775	161.184	163.670	377.769	383.203	425.716	346.391	120.589	429.844	146.408	0.00079746	0.00043076	0.00010809	415.85	4.1139e-06	1.8686e-06	615.12	165.64	2.6533e-06	4.2354e-06	298.52	123.32	63.187	26.943	1.2252e-05	63.348	0.00047603	0.00044646	0.0001209	463.45	5.1457e-06	4.9323e-06	641.52	175.4	5.1443e-06	4.9032e-06	305.9	124.51	67.242	28.156	4.7288e-06	62.3	275.741	134.278	244.501	108.304	254.128	254.642	107.599	112.951	150.127	237.379	111.514	115.747	116.504	121.577	240.286	119.032	-8191	255	
8226.366	1	1	0	0	0.14788	0.31465	0.17636	0.088838	0.087032	0.047418	0.30701	0.21003	0.097177	0.31751	0.028119	0.28822	0.25204	0.40494	0.019826	0.21971	-1.2083	-1.175	-1.9833	-1.4271	-1.7479	-1.8396	-1.2687	-1.8917	-1.3854	-1.1208	-2.1542	-1.3667	-1.4271	-1.9708	-1.1396	-2.0583	277.349	138.282	188.930	244.761	303.674	267.492	390.509	161.140	316.628	447.381	114.993	340.383	353.665	265.308	324.289	405.431	0.00092148	0.00035194	0.00013745	415.5	5.3014e-06	7.6081e-06	618.34	166.01	1.1925e-06	4.9974e-06	303.19	124.3	63.654	26.973	4.8521e-06	63.556	0.00047118	0.00044571	0.0001212	467.53	5.0734e-06	4.8775e-06	644.14	176.17	5.0469e-06	4.814e-06	308.16	125.36	67.245	28.127	4.8019e-06	62.521	262.123	209.696	149.972	108.075	278.302	265.783	107.696	113.008	228.755	317.277	111.463	115.777	116.704	121.611	342.097	119.374	-8191	255	
8226.462	1	1	0	0	0.20305	0.1128	0.068871	0.10985	0.19952	0.18324	0.39966	0.22152	0.097173	0.10563	0.097478	0.22013	0.096181	0.27483	0.28569	0.073851	-1.0438	-1.1417	-2.1208	-1.1167	-1.15	-1.9729	-1.4229	-1.7896	-1.6437	-1.1854	-2.2729	-1.5187	-1.4208	-1.8604	-1.0521	-1.7208	338.329	449.039	413.923	368.319	347.548	441.334	377.632	409.170	250.761	433.377	303.998	346.422	360.957	348.602	392.198	202.884	0.00090072	0.00039717	0.00026676	422.42	3.0838e-06	5.6564e-06	615.88	165.38	8.6106e-06	5.4107e-06	300.14	123.8	63.219	26.847	7.6415e-06	62.642	0.00045862	0.0004308	0.00012354	470.61	4.9079e-06	4.7353e-06	644.98	175.76	4.92e-06	4.7006e-06	307.06	124.43	66.898	28.037	4.951e-06	61.931	272.248	261.671	189.361	108.379	268.835	174.642	107.830	112.966	390.472	205.882	111.188	115.721	116.850	121.775	202.829	119.274	-8191	255	
8226.556	1	1	0	0	0.18576	0.1167	0.07582	0.26239	0.08267	0.087824	0.14449	0.04923	0.48869	0.15791	0.17368	0.16479	0.33912	0.19839	0.12479	0.13795	-1.5396	-1.1417	-1.8125	-1.4333	-1.3396	-2.0208	-1.2979	-1.5583	-1.7771	-1.0229	-1.9958	-1.7229	-1.2958	-1.9625	-1.3792	-1.5958	357.300	360.046	115.772	427.273	106.627	445.636	100.579	147.946	450.459	337.661	172.143	314.738	424.583	443.128	190.070	403.150	0.0008144	0.00019484	0.00021358	418.91	3.0419e-06	5.6602e-06	620.49	165.05	4.4643e-06	5.6247e-06	299.62	123.68	62.968	26.675	9.6181e-06	62.34	0.0004516	0.00042687	0.00012628	467.97	4.8381e-06	4.6999e-06	646.45	175.26	4.8047e-06	4.7107e-06	307.15	123.99	66.316	27.838	5.0846e-06	61.254	282.993	186.462	209.279	108.481	258.090	285.921	107.696	112.981	347.196	156.692	111.420	115.910	116.831	121.476	256.399	119.458	-8191	255	
8226.654	1	1	0	0	0.12891	0.40284	0.079304	0.13353	0.15696	0.091054	0.2701	0.16463	0.14392	0.081929	0.10718	0.2873	0.14575	0.12417	0.27013	0.30712	-1.45	-1.1167	-2.0604	-1.3	-1.1833	-1.9792	-1.3792	-1.6229	-1.8208	-1.3438	-1.9167	-1.4062	-1.1854	-1.8937	-1.2625	-1.425	345.670	234.218	270.876	132.281	356.627	238.527	405.498	329.392	162.988	166.926	441.421	444.065	371.413	330.538	339.115	284.128	0.00086656	0.00045474	6.255e-05	418.41	3.1321e-06	4.7964e-06	619.42	163.08	2.4809e-06	6.036e-06	299.26	122.42	63.789	27.169	2.8276e-06	62.863	0.00044603	0.00042994	0.00012946	466.84	4.7708e-06	4.7959e-06	647.7	173.53	4.7883e-06	4.8714e-06	307.08	123.39	66.598	28.134	5.0899e-06	61.78	281.767	235.542	427.557	108.059	367.675	241.686	107.480	113.028	416.679	216.458	111.152	115.792	116.627	121.308	165.055	119.107	-8191	255	
8226.773	1	1	0	0	0.049429	0.21007	0.17736	0.060136	0.15052	0.22114	0.29634	0.065806	0.21594	0.16456	0.13769	0.27606	0.14989	0.17467	0.23423	0.25217	-1.5	-0.99583	-1.6917	-1.7292	-1.1625	-1.9958	-1.4417	-1.4917	-2.1583	-1.3188	-1.7812	-2.0062	-1.0896	-2.0417	-1.6063	-1.5083	183.572	305.384	203.420	180.782	332.164	245.929	129.649	223.388	98.402	308.828	412.666	447.287	443.330	100.870	111.629	333.015	0.0007856	0.00058608	0.00017061	419.96	2.1705e-06	7.0297e-06	624.77	165.11	7.481e-06	5.2697e-06	302.52	124.34	63.653	26.968	6.6425e-06	63.289	0.00043926	0.00044696	0.00012925	466.55	4.6925e-06	4.9526e-06	649.45	175.07	4.7074e-06	4.9733e-06	308.82	124.71	66.746	28.377	4.9786e-06	62.058	276.679	189.450	176.083	108.246	223.918	196.603	107.398	112.536	288.085	412.945	111.390	115.725	116.970	121.598	451.851	119.057	-8191	255	
8226.869	1	1	0	0	0.13023	0.29451	0.3277	0.2645	0.11566	0.082013	0.16468	0.1774	0.1381	0.056213	0.099104	0.25224	0.14501	0.25454	0.10637	0.22241	-1.6708	-0.99375	-1.6542	-1.9333	-1.0917	-1.8312	-1.6083	-1.1208	-2.0958	-1.2042	-1.5604	-1.8958	-1.1146	-1.95	-1.675	-1.1667	408.231	119.463	142.059	252.564	412.874	316.865	397.660	393.443	392.104	168.723	270.416	366.898	277.484	154.812	229.024	238.628	0.00089811	0.00057897	0.00011978	416.01	1.857e-06	3.0681e-06	612.75	163.67	1.1564e-05	9.8121e-06	297.9	123.48	63.074	26.706	4.9066e-06	62.584	0.00043866	0.0004592	0.0001267	461.55	4.6584e-06	5.0625e-06	644.41	172.93	4.7103e-06	5.0596e-06	305.63	123.31	66.325	28.219	4.9084e-06	61.448	282.630	171.748	382.684	107.443	189.742	216.974	107.391	112.404	237.186	211.944	110.994	115.123	116.122	121.000	273.366	118.457	-8191	255	
8226.965	1	1	0	0	0.13033	0.21629	0.18441	0.33175	0.16087	0.33826	0.33758	0.10536	0.24231	0.3801	0.18797	0.17866	0.36512	0.11794	0.14179	0.097647	-1.65	-1.1292	-1.4708	-2.0396	-0.8125	-1.8396	-1.8125	-1.1479	-1.9208	-1.3229	-1.5417	-1.9958	-0.8	-1.725	-1.6437	-1.3146	256.156	230.563	240.323	402.424	377.405	384.936	371.743	107.055	357.881	334.669	329.563	209.151	397.472	383.727	250.156	294.207	0.000937	0.000238	0.00018466	411.76	3.1761e-06	5.8603e-06	610.89	164.37	5.9625e-06	3.0104e-06	298.21	123.73	63.619	26.862	3.8629e-06	62.686	0.00044236	0.00046194	0.0001232	458.16	4.8101e-06	5.0957e-06	639.69	172.97	4.8693e-06	5.0767e-06	305.32	123.57	66.868	28.149	4.826e-06	61.523	276.306	190.068	128.552	107.802	301.742	237.776	107.345	112.685	193.881	100.840	111.068	115.330	116.296	121.207	216.742	118.635	-8191	255	
8227.062	1	1	0	0	0.16591	0.12567	0.24872	0.028764	0.060351	0.13018	0.11013	0.13471	0.11226	0.19534	0.34429	0.21887	0.184	0.17349	0.091439	0.13153	-1.7458	-1.4375	-1.3729	-1.8396	-0.80833	-1.5729	-1.8167	-1.0562	-1.8542	-1.4625	-1.1187	-2.1604	-1.2604	-1.5229	-1.9333	-1.1646	408.516	204.344	424.033	400.869	228.567	379.571	97.814	391.011	373.624	394.511	394.884	441.700	425.192	368.484	266.486	139.200	0.0011638	0.00084324	8.0538e-05	416.1	1.4943e-06	5.1059e-06	612.89	164.89	2.6634e-06	6.4216e-06	299.32	124.71	63.38	26.909	1.3124e-05	63.177	0.00045569	0.00045843	0.0001225	457.52	4.9796e-06	5.0216e-06	639.59	173.05	5.0173e-06	5.0051e-06	306.07	124.39	67.164	28.295	4.7829e-06	61.903	273.585	214.066	197.131	107.727	207.346	255.549	107.167	112.493	180.380	176.370	110.918	115.173	116.056	121.176	258.877	118.589	-8191	255	
8227.158	1	1	0	0	0.2734	0.33815	0.15225	0.15603	0.048448	0.0079398	0.083324	0.12792	0.20871	0.11219	0.10228	0.068606	0.1811	0.21742	0.11129	0.0811	-1.4104	-1.4042	-1.1	-1.9646	-1.2771	-1.3667	-1.9604	-1.2896	-2.025	-1.4	-1.1375	-2.0125	-1.3292	-1.625	-1.8958	-0.87292	328.227	442.806	371.005	453.747	357.754	372.092	328.395	297.241	319.132	144.452	301.262	176.727	112.655	106.700	304.216	105.821	0.00088375	0.00026061	7.9825e-05	415.09	5.7152e-06	3.2462e-06	614.07	164.54	4.7264e-06	4.991e-06	299.03	123.5	63.419	26.932	2.8664e-06	63.026	0.00046643	0.00045834	0.00012153	458.31	5.1017e-06	4.9218e-06	640.02	173.18	5.0951e-06	4.934e-06	304.96	124.1	67.124	28.165	4.7248e-06	61.923	263.501	275.631	166.477	107.960	224.286	330.201	106.917	112.119	240.641	249.874	111.126	115.342	116.089	121.212	405.594	118.885	-8191	255	
8227.254	1	1	0	0	0.17244	0.23685	0.30503	0.2421	0.053399	0.13165	0.068804	0.18033	0.067216	0.083144	0.39095	0.22942	0.22338	0.10944	0.1177	0.02923	-1.3604	-1.6396	-1.05	-1.8125	-1.2812	-1.2104	-1.9813	-1.2188	-1.7292	-1.7375	-0.96667	-1.9208	-1.6146	-1.2646	-1.9021	-1.1417	343.820	305.694	378.632	429.952	101.333	417.538	364.644	380.149	106.388	443.539	377.407	363.123	429.495	436.384	189.358	247.749	0.0010506	0.00027041	0.00014902	414.56	2.6941e-06	6.2838e-06	613.48	164.05	3.762e-06	7.3094e-06	297.65	123.28	63.14	26.699	6.206e-06	62.331	0.00047107	0.0004464	0.00011833	462.45	5.0645e-06	4.8168e-06	636.67	173.62	5.0917e-06	4.8301e-06	303.31	124.01	66.899	27.923	4.643e-06	61.605	285.010	399.153	214.427	107.563	177.608	329.869	107.325	112.054	354.335	238.302	111.091	115.415	116.018	121.336	236.505	118.868	-8191	255	
8227.375	1	1	0	0	0.07254	0.37007	0.015396	0.21807	0.11429	0.015203	0.16625	0.25913	0.17142	0.20569	0.12245	0.086324	0.30469	0.11946	0.12573	0.17578	-1.1542	-1.6833	-1.2021	-1.7875	-1.5479	-1.3521	-2.0271	-1.0812	-1.4	-1.9396	-1.2354	-1.8625	-1.5938	-1.0438	-1.8708	-1.3896	250.484	166.913	242.102	313.231	247.208	237.072	415.950	430.598	289.266	247.348	372.771	156.140	408.727	281.882	382.923	160.035	0.0010331	0.00032521	0.00012361	413.73	4.6621e-06	3.711e-06	613.96	163.89	7.8161e-06	3.8017e-06	299.76	123.83	63.518	26.747	5.1142e-06	62.66	0.00046219	0.00043518	0.00011815	463.29	4.992e-06	4.7706e-06	635.97	174.02	4.9392e-06	4.7597e-06	304.18	124.6	66.987	28.035	4.7237e-06	62.035	280.987	389.132	195.565	107.467	240.933	308.078	107.541	112.405	304.499	271.539	110.891	115.033	116.225	121.465	325.996	118.687	-8191	255	
8227.469	1	1	0	0	0.046649	0.039599	0.047246	0.39819	0.19868	0.078555	0.21805	0.086661	0.21099	0.050509	0.16207	0.22565	0.11691	0.0033618	0.091588	0.041206	-0.98333	-1.8083	-1.1313	-1.6646	-1.6479	-1.1729	-2.0687	-1.3813	-1.5708	-1.8979	-1.2625	-2.0021	-1.7479	-1.1375	-2.0521	-1.6042	452.559	225.843	396.601	406.300	277.982	117.406	365.844	220.432	300.831	329.442	452.889	409.814	335.559	427.666	371.741	309.400	0.00075595	0.00047305	8.9363e-05	412.18	2.5178e-06	4.7121e-06	612.49	163.31	4.6968e-06	3.5949e-06	298.25	123.31	63.353	26.918	1.3367e-05	62.712	0.00045591	0.00043353	0.00012064	462.97	4.9216e-06	4.73e-06	638.74	174.07	4.9024e-06	4.7148e-06	305.08	124.53	66.884	28.008	4.9218e-06	62.158	279.457	199.063	128.937	108.158	180.746	342.699	107.069	112.264	339.620	423.345	110.947	115.235	115.873	121.064	207.552	118.373	-8191	255	
8227.542	1	1	0	0	0.21696	0.085408	0.057922	0.047758	0.26332	0.069894	0.18121	0.038159	0.13162	0.20258	0.13357	0.28987	0.082829	0.24363	0.30151	0.065747	-0.78125	-2.0583	-1.1833	-1.7354	-1.6979	-1.2938	-1.9625	-1.5083	-1.1021	-2.1083	-1.1771	-1.55	-1.9438	-1.1854	-1.8375	-1.6688	146.632	216.247	101.892	193.316	362.148	147.662	135.857	219.751	231.471	201.243	438.359	407.631	441.603	397.024	212.323	141.086	0.00092716	0.00036343	0.00010783	419.89	5.8546e-06	7.3282e-06	617.6	164.96	4.2571e-06	3.8775e-06	300.36	124.97	63.759	27.02	5.9219e-06	63.775	0.00045006	0.0004328	0.00012586	465.03	4.913e-06	4.7076e-06	644.32	175.35	4.8598e-06	4.7138e-06	309.27	125.89	67.14	28.207	5.0364e-06	62.606	277.201	332.971	207.011	107.822	217.738	249.052	107.565	112.383	293.735	160.692	110.812	115.089	116.468	121.496	248.319	118.633	-8191	255	
8227.639	1	1	0	0	0.15324	0.16099	0.10628	0.2688	0.13047	0.26469	0.29887	0.2445	0.149	0.11767	0.22092	0.073117	0.27836	0.082501	0.054234	0.22189	-1.0833	-2.0104	-1.3375	-1.575	-1.9875	-0.88958	-1.9875	-1.8646	-1.0167	-1.9792	-1.5958	-1.4708	-1.9396	-1.1812	-1.6729	-1.6521	375.748	449.786	244.985	361.883	352.274	134.433	403.179	318.642	297.743	162.257	434.198	384.021	397.655	229.832	249.611	317.174	0.0011132	0.00032899	5.6381e-05	413.36	3.2368e-06	3.7473e-06	615.54	165.5	6.5634e-06	7.7808e-06	302.25	124.97	63.742	27.017	6.709e-06	63.146	0.00044991	0.00043286	0.0001297	461.92	4.8141e-06	4.7664e-06	644.64	175.43	4.726e-06	4.7995e-06	309.36	125.13	67.033	28.218	5.063e-06	62.243	264.067	139.597	97.425	107.734	278.628	296.572	107.345	112.665	277.542	207.289	110.743	115.428	115.894	121.101	227.595	118.689	-8191	255	
8227.757	1	1	0	0	0.081005	0.1305	0.11151	0.12467	0.026644	0.10289	0.085008	0.31678	0.20086	0.20253	0.13432	0.044871	0.21177	0.083417	0.062615	0.028299	-0.77083	-1.9792	-1.0875	-1.2792	-2.1562	-1.0688	-1.6688	-1.7437	-1.1521	-2.0125	-1.4	-1.3854	-2.0521	-1.0938	-1.6604	-1.8312	380.764	304.510	232.316	258.966	249.095	100.550	109.325	387.667	190.940	121.041	264.285	126.385	336.241	436.135	443.753	355.607	0.0010167	0.00034576	9.2567e-05	413.89	2.6908e-06	4.0678e-06	615.71	165	5.7063e-06	9.8919e-06	297.41	123.85	63.474	26.918	1.697e-06	63.015	0.0004364	0.00044127	0.000129	460.32	4.713e-06	4.8849e-06	642.91	173.95	4.645e-06	4.9712e-06	307.37	124.16	66.671	28.201	5.0409e-06	62.003	281.521	192.742	227.988	107.903	196.328	319.832	107.223	112.235	267.794	247.095	110.657	115.403	116.082	121.238	432.569	118.455	-8191	255	
8227.854	1	1	0	0	0.18768	0.25068	0.25605	0.12607	0.14642	0.13103	0.087018	0.045746	0.11568	0.20523	0.06451	0.11165	0.026547	0.23142	0.14111	0.49176	-0.69583	-1.8167	-1.2729	-1.4417	-2.0229	-1.0021	-1.6396	-2.0104	-1.15	-2.1542	-1.5271	-1.1458	-2.225	-1.3042	-1.3667	-1.7812	326.990	164.745	250.420	446.139	256.472	439.524	227.667	388.214	393.403	325.692	396.533	129.569	420.446	132.435	231.288	391.586	0.00095492	0.00060492	8.9296e-05	415.49	2.3298e-06	9.1947e-06	614.29	164.43	1.2075e-05	4.2328e-06	299.11	125.25	63.689	26.996	2.9355e-06	63.287	0.00043528	0.00046042	0.00012812	459.37	4.6794e-06	5.0439e-06	641.71	173.64	4.7247e-06	5.0844e-06	307.04	124.57	66.939	28.363	4.9514e-06	62.062	275.279	217.812	177.207	107.917	258.568	248.162	107.216	112.352	237.271	207.022	110.717	115.383	116.046	121.200	104.621	118.224	-8191	255	
8227.950	1	1	0	0	0.13059	0.14676	0.34885	0.1972	0.11931	0.20199	0.14764	0.32526	0.11837	0.14512	0.11956	0.096709	0.15395	0.15468	0.020817	0.18907	-0.67708	-1.7583	-1.5	-1.0271	-1.7437	-1.1729	-1.4188	-2.0938	-0.98542	-1.6708	-1.6271	-1.1208	-2.0646	-1.3458	-1.1688	-1.8542	121.824	283.828	103.252	360.818	254.298	219.523	347.900	98.498	186.995	184.417	245.481	390.218	297.627	149.736	319.553	174.754	0.0010495	0.00036759	3.9009e-05	415.17	4.0884e-06	6.3655e-06	615.16	165.51	9.7927e-06	6.1509e-06	299.92	124.55	64.084	26.96	2.0174e-06	63.603	0.00044236	0.00046902	0.00012654	460.71	4.8142e-06	5.16e-06	642.09	174.11	4.8125e-06	5.1485e-06	308.36	124.89	67.307	28.464	4.8757e-06	62.303	271.938	234.839	356.159	107.902	171.156	218.157	107.170	112.301	196.035	288.833	111.037	115.238	115.989	120.815	235.620	118.810	-8191	255	
8228.046	1	1	0	0	0.070737	0.14059	0.048624	0.053523	0.24118	0.11454	0.21289	0.2298	0.16463	0.2033	0.21153	0.0315	0.27991	0.14521	0.28041	0.23535	-0.72083	-1.875	-1.7104	-1.2667	-2.1396	-1.1938	-1.3271	-1.8792	-0.92708	-1.8167	-1.8813	-1.1208	-2.1417	-1.5146	-1.2833	-2.0062	240.577	224.338	310.800	284.796	273.456	357.371	424.724	412.161	340.843	423.213	397.789	367.809	146.586	437.886	168.964	109.410	0.001017	0.00029067	0.00012139	415.66	4.2579e-06	3.4326e-06	613.56	163.62	4.58e-06	1.1149e-05	299.33	123.56	63.799	26.919	6.6993e-06	62.807	0.00045757	0.0004664	0.00012438	458.96	4.9272e-06	5.0498e-06	640.77	173.02	4.9688e-06	5.0239e-06	305.58	123.7	67.415	28.274	4.7884e-06	61.815	281.258	308.759	241.877	107.744	256.664	308.781	107.353	112.425	256.467	195.720	110.726	115.013	116.112	120.632	328.446	118.499	-8191	255	
8228.142	1	1	0	0	0.072189	0.14316	0.26903	0.16812	0.10335	0.13497	0.099366	0.24677	0.18195	0.079429	0.22354	0.23211	0.10228	0.26206	0.36274	0.090979	-0.74167	-1.6167	-1.5938	-0.97708	-1.6458	-1.6708	-1.2188	-2.1188	-0.95417	-1.4208	-1.9625	-1.2062	-1.7583	-1.5292	-1.1688	-2.0625	422.858	347.284	273.451	417.252	172.773	328.341	356.175	349.242	385.057	286.997	371.301	326.340	283.379	453.736	140.827	410.227	0.00096797	0.0006258	0.0001608	412.89	5.9889e-06	3.2757e-06	612.19	163.74	5.8068e-06	7.2477e-06	295.26	123.12	63.342	26.683	2.9079e-06	62.517	0.00046634	0.0004545	0.00012189	457.16	5.0663e-06	4.968e-06	637.31	172.84	5.0736e-06	4.9233e-06	302.6	123.35	66.993	28.009	4.7121e-06	61.47	269.727	184.031	275.000	107.742	242.854	284.920	107.003	112.298	229.635	269.958	110.815	115.230	116.188	120.839	169.631	118.343	-8191	255	
8228.238	1	1	0	0	0.062033	0.27333	0.18934	0.31471	0.18021	0.14945	0.19434	0.25734	0.048106	0.11695	0.23112	0.35285	0.43398	0.12942	0.27375	0.048751	-1.0562	-1.2938	-1.725	-1.1792	-1.6667	-1.6167	-1.1812	-2.2021	-1.35	-1.2437	-1.8479	-1.2729	-1.8917	-1.6146	-1.1313	-2.1146	172.385	155.423	345.513	137.809	134.429	175.518	417.004	418.411	119.002	422.750	131.222	398.042	376.642	377.717	154.884	397.436	0.0011729	0.0001936	0.00016781	414.85	5.6864e-06	1.945e-06	611.45	163.02	2.3585e-06	5.2168e-06	295.85	122.95	62.989	26.817	1.21e-05	62.607	0.00046931	0.00044452	0.00011924	460.26	5.1363e-06	4.8662e-06	634.8	173.07	5.0448e-06	4.8656e-06	302.18	123.6	66.904	28.024	4.6602e-06	61.849	273.669	437.091	208.665	107.701	198.448	285.425	107.209	112.351	331.863	213.006	110.838	115.436	115.988	121.186	263.916	118.695	-8191	255	
8228.334	1	1	0	0	0.25913	0.28313	0.31607	0.21033	0.27973	0.070173	0.28069	0.058874	0.19892	0.20029	0.11153	0.30624	0.097628	0.20919	0.15647	0.15128	-1.1979	-1.2854	-1.9125	-1.2437	-1.6771	-1.7	-1.2146	-1.9208	-1.5187	-1.0708	-1.9937	-1.2812	-1.7146	-1.8333	-0.86667	-2.0667	397.923	198.427	214.083	138.923	438.261	357.673	121.008	251.123	386.855	291.698	417.673	158.275	334.597	206.754	362.474	432.951	0.00094227	0.00022887	0.00015115	414.26	4.2501e-06	3.2142e-06	609.96	164.19	4.361e-06	2.0885e-06	295.41	123.3	63.444	26.611	5.08e-06	62.793	0.00046897	0.00043658	0.00011883	462.88	5.0272e-06	4.8214e-06	636.67	173.79	4.9702e-06	4.7881e-06	302.37	123.91	66.916	27.941	4.7048e-06	62.048	269.731	177.839	205.713	107.412	95.201	299.868	106.999	112.235	203.665	99.027	110.625	115.105	116.011	121.057	300.045	118.412	-8191	255	
8228.455	1	1	0	0	0.21677	0.23119	0.2432	0.13277	0.1413	0.28824	0.19444	0.4221	0.20669	0.41958	0.22736	0.14372	0.2108	0.11426	0.21333	0.12526	-1.3083	-0.95833	-1.8625	-1.3354	-1.5833	-2.1021	-1.2188	-1.8188	-1.5083	-0.9	-2.1292	-1.2896	-1.2896	-1.9333	-1.1562	-1.975	196.346	366.746	381.060	156.904	95.409	439.704	149.386	381.043	261.840	108.285	169.263	207.501	239.646	193.075	308.206	239.041	0.00086514	0.0005979	0.00012632	411.58	6.1181e-06	6.4773e-06	609.02	162.62	4.0302e-06	4.9288e-06	296.73	122.65	62.954	26.413	6.4417e-06	62.093	0.00045799	0.00043261	0.0001201	462.79	4.8941e-06	4.7423e-06	633.85	173.27	4.8749e-06	4.6669e-06	302.03	123.27	66.228	27.715	4.7912e-06	61.419	279.222	169.978	147.476	107.462	325.771	130.626	107.306	112.417	248.066	181.857	110.965	115.063	116.313	120.937	164.674	118.706	-8191	255	
8228.549	1	1	0	0	0.34322	0.29181	0.065081	0.094814	0.12516	0.25255	0.12284	0.32913	0.36141	0.17252	0.1677	0.10307	0.20861	0.24385	0.13011	0.12887	-1.3979	-1.1562	-1.8083	-1.3208	-1.2146	-1.9208	-1.2542	-1.7729	-1.8708	-1.1083	-2.0875	-1.5292	-1.1313	-1.9979	-1.1167	-1.7292	394.061	423.848	119.855	144.242	452.470	295.319	419.023	355.214	354.476	382.013	123.482	150.524	121.127	347.168	308.398	364.795	0.00089543	0.00048174	0.00020382	411.36	4.8157e-06	2.6536e-06	607.72	162.31	1.2319e-05	1.5826e-06	296.18	122.56	63.03	26.635	6.5496e-06	62.348	0.00044589	0.00042255	0.00012279	460.19	4.7718e-06	4.6045e-06	633.14	172.64	4.788e-06	4.5897e-06	302.77	123.3	66.072	27.739	4.8849e-06	61.434	270.529	270.434	198.075	107.448	327.167	326.236	107.269	112.216	298.679	217.935	110.988	114.978	115.969	120.834	248.632	118.589	-8191	255	
8228.647	1	1	0	0	0.054362	0.17875	0.19152	0.30433	0.37654	0.1826	0.087088	0.14105	0.073978	0.21986	0.079692	0.2713	0.092789	0.071747	0.24951	0.11144	-1.6167	-0.78542	-1.7083	-1.5625	-1.3167	-1.9979	-1.1896	-1.4542	-1.9979	-0.82708	-1.6292	-1.5396	-1.2854	-1.9062	-1.3542	-1.6792	442.409	289.528	326.269	430.730	252.758	134.922	283.209	186.429	212.653	233.484	420.980	130.733	248.070	413.048	389.930	377.619	0.00094773	9.2449e-05	9.3168e-05	411.83	6.6242e-06	4.4826e-06	605.6	162.11	7.5078e-06	2.6643e-06	295.23	123.17	62.624	26.579	8.9136e-07	62.251	0.00044138	0.00041936	0.00012602	459.16	4.714e-06	4.6193e-06	635.11	172.23	4.703e-06	4.6207e-06	303.41	122.99	65.832	27.755	5.0089e-06	61.351	278.630	268.480	160.018	107.396	207.673	155.794	107.165	112.284	232.922	223.990	110.896	115.195	116.254	121.185	181.883	118.723	-8191	255	
8228.766	1	1	0	0	0.36488	0.23923	0.16318	0.25901	0.021341	0.11143	0.23401	0.15891	0.13887	0.22167	0.18297	0.24238	0.077042	0.11806	0.090405	0.063377	-1.5292	-1.0208	-1.8583	-1.6854	-0.94167	-2.1146	-1.5458	-1.2875	-1.8229	-0.90625	-1.7313	-1.7146	-1.0958	-2.0896	-1.3542	-1.2208	173.282	226.553	388.367	143.965	200.461	299.742	114.714	106.851	144.312	350.104	323.452	414.839	261.678	246.013	131.239	433.870	0.00093518	0.00026086	8.3773e-05	411.5	1.7422e-06	7.1546e-06	609.66	161.64	1.8946e-06	7.0891e-06	295.8	122.41	62.549	26.598	8.9972e-06	62.21	0.00043881	0.0004332	0.00012811	456.68	4.6506e-06	4.7691e-06	637.96	171.24	4.6484e-06	4.828e-06	303.01	122.73	65.699	27.788	4.9988e-06	61.162	278.567	141.277	229.346	107.626	237.590	247.190	107.279	112.358	306.039	196.271	110.827	115.231	115.803	121.097	95.441	118.732	-8191	255	
8228.838	1	1	0	0	0.20885	0.20884	0.069619	0.19918	0.12929	0.25787	0.26836	0.17393	0.18795	0.12704	0.081408	0.035297	0.35413	0.18296	0.12662	0.13154	-1.3979	-1.0562	-1.5604	-1.85	-1.3021	-1.9417	-1.5417	-1.3312	-1.9312	-1.2396	-1.7917	-2.0938	-1.1812	-1.8417	-1.5063	-1.1625	207.889	110.194	364.877	337.905	344.324	270.535	399.903	379.428	167.516	390.464	224.432	359.296	429.073	265.796	162.733	383.323	0.00075539	0.00053796	3.9637e-05	413.75	6.7678e-06	3.9021e-06	604.71	161.88	1.013e-05	3.4208e-06	292.88	121.49	62.448	26.328	4.2362e-06	61.721	0.00043089	0.00044484	0.00012626	456.6	4.6093e-06	4.9218e-06	634.45	170.93	4.6105e-06	4.9218e-06	300.77	121.67	65.424	27.772	4.8554e-06	60.507	274.682	194.907	334.299	107.615	207.683	267.775	106.978	112.363	279.633	211.877	111.319	115.055	116.214	120.967	325.333	118.292	-8191	255	
8228.934	1	1	0	0	0.12221	0.1664	0.21545	0.12926	0.17001	0.25488	0.055081	0.18772	0.13042	0.093275	0.296	0.051764	0.16735	0.16535	0.16175	0.19776	-1.4937	-1.2646	-1.45	-2.0542	-1.1	-1.6354	-1.8104	-1.1979	-1.7958	-1.1688	-1.4708	-2.0083	-1.2292	-1.5688	-1.6271	-1.2563	327.838	123.985	117.532	437.870	272.478	382.057	179.891	381.694	433.331	239.417	444.442	105.509	427.341	110.863	203.185	375.473	0.00092864	0.00040933	6.4148e-05	410.74	2.9211e-06	3.4978e-06	603.45	160.03	6.5178e-06	6.947e-06	289.71	120.49	61.822	26.124	1.7747e-06	61.194	0.0004322	0.00045503	0.0001229	454.78	4.6086e-06	4.9972e-06	631.27	168.69	4.7095e-06	5.0255e-06	297.16	120.81	64.953	27.588	4.7786e-06	60.138	272.176	155.542	292.494	108.192	185.415	199.759	107.197	112.560	177.381	215.190	111.303	115.343	115.839	120.905	145.392	118.505	-8191	255	
8229.055	1	1	0	0	0.28781	0.19695	0.19853	0.087488	0.042751	0.30047	0.27674	0.20729	0.068282	0.11918	0.090846	0.10549	0.27261	0.14848	0.20475	0.2423	-1.6521	-1.1938	-1.1917	-2.1688	-0.97292	-1.6667	-1.6646	-1.1437	-1.8229	-1.5646	-1.1646	-1.9146	-1.0438	-1.7708	-1.9146	-1.1437	282.992	143.062	352.985	424.491	362.219	245.311	281.341	148.523	431.455	283.049	437.744	96.866	98.155	436.368	297.602	337.138	0.00090411	0.00031538	7.5047e-05	411.08	3.5751e-06	1.795e-06	603	159.25	5.8784e-06	1.0652e-06	289.09	120.99	61.759	26.218	1.0306e-06	61.261	0.0004418	0.00045641	0.00012151	454.3	4.8415e-06	4.9934e-06	629.5	168.05	4.8626e-06	5.0322e-06	296.14	120.83	65.398	27.585	4.7767e-06	60.265	271.612	257.303	230.496	107.683	246.778	98.322	107.301	112.567	153.118	269.109	111.022	115.145	116.020	120.843	389.548	118.697	-8191	255	
8229.151	1	1	0	0	0.18439	0.25013	0.0158	0.23564	0.1603	0.043402	0.26114	0.16022	0.083146	0.080908	0.093441	0.15131	0.1708	0.13736	0.31407	0.066738	-1.2521	-1.3188	-1.0854	-1.9771	-1.3188	-1.6542	-2.0229	-0.82083	-1.7271	-1.4542	-1.1396	-2.1771	-1.3625	-1.5812	-1.9271	-1.275	454.109	294.712	182.378	139.065	241.292	382.814	446.705	294.268	201.815	325.527	140.400	445.390	254.067	369.950	288.140	340.851	0.00096598	0.0001594	3.8236e-05	412.75	4.0415e-06	2.7626e-06	606.47	159.8	8.6688e-06	6.0604e-06	289.44	121.37	61.86	26.245	3.3353e-06	61.934	0.00046325	0.0004525	0.00012033	455.72	5.0334e-06	4.9194e-06	632.03	169.23	5.0609e-06	4.9505e-06	297.08	121.43	65.773	27.627	4.7382e-06	60.743	267.606	247.820	257.211	107.583	215.221	211.085	106.998	112.343	235.074	258.639	111.077	115.178	115.901	121.203	313.296	118.730	-8191	255	
8229.247	1	1	0	0	0.33761	0.1713	0.012701	0.085069	0.18796	0.079413	0.15873	0.056295	0.14685	0.24647	0.15694	0.20541	0.15528	0.041039	0.14727	0.048921	-1.5187	-1.3917	-1.0583	-2.1021	-1.0292	-1.1458	-2.1	-1.2021	-1.7563	-1.7042	-0.90417	-1.8667	-1.375	-1.4458	-2.1063	-1.3042	152.245	270.993	398.264	356.096	175.053	448.111	302.025	340.783	244.695	199.937	374.558	343.974	389.217	323.375	338.412	441.231	0.00081089	0.00044912	0.00012818	414.5	2.0462e-06	4.5823e-06	602.79	160.91	3.0162e-06	2.2597e-06	290.78	121.23	62.06	26.103	2.0658e-06	61.507	0.00046998	0.00044739	0.00011887	457.61	5.0552e-06	4.8186e-06	629.69	169.76	5.0571e-06	4.8763e-06	296.97	121.75	65.848	27.516	4.6349e-06	60.638	267.182	135.162	224.337	107.583	219.827	330.092	107.436	112.035	234.724	268.307	111.224	115.035	115.831	121.221	253.077	118.795	-8191	255	
8229.343	1	1	0	0	0.23745	0.17428	0.31329	0.20039	0.058791	0.07338	0.15627	0.12721	0.11916	0.24432	0.15174	0.10974	0.12104	0.10483	0.20401	0.21674	-1.2687	-1.5125	-1.0333	-1.9375	-1.4021	-1.3292	-1.8042	-0.98542	-1.4771	-1.8354	-1.0125	-1.9	-1.2667	-1.2292	-2.0042	-1.2542	193.925	438.310	370.640	250.104	282.412	348.631	326.164	382.965	372.518	307.730	124.958	208.588	104.463	175.475	390.138	386.521	0.00091135	0.00034687	0.00018684	414.62	5.6321e-06	3.4717e-06	605.64	159.77	5.5609e-06	2.11e-06	290.34	120.91	62.452	26.262	1.8576e-06	61.593	0.00046681	0.00043958	0.00011696	461.25	5.0079e-06	4.7765e-06	628.45	169.82	4.9881e-06	4.7867e-06	295.62	122.1	65.957	27.533	4.618e-06	60.852	277.715	172.353	197.384	108.226	202.792	303.117	107.457	112.331	391.555	238.859	111.004	115.274	116.035	120.774	238.469	118.636	-8191	255	
8229.439	1	1	0	0	0.065196	0.20144	0.25925	0.15263	0.35841	0.099076	0.21572	0.37057	0.17372	0.081917	0.15503	0.35805	0.3882	0.15486	0.2408	0.14532	-1.0979	-1.7208	-0.825	-1.9562	-1.5167	-1.1167	-1.9896	-1.2375	-1.5187	-1.9917	-0.92292	-1.9292	-1.6625	-1.1479	-1.9667	-1.4271	397.691	249.080	324.497	248.782	384.539	430.428	349.611	392.141	191.026	352.879	115.106	412.387	313.204	423.959	367.015	95.131	0.00094879	0.00012965	0.00016136	413.89	1.1653e-06	4.7527e-06	603.65	159.93	5.4475e-06	9.9839e-07	293.17	121.19	62.194	26.179	4.7168e-06	62.035	0.00045823	0.00043702	0.00011885	463.67	4.9535e-06	4.766e-06	631.2	170.63	4.9628e-06	4.7779e-06	298.65	122.72	66.089	27.563	4.8222e-06	61.504	278.503	257.373	249.542	107.315	380.975	209.283	107.333	112.345	250.759	148.310	110.656	115.355	115.780	121.156	219.349	118.449	-8191	255	
8229.535	1	1	0	0	0.12986	0.15905	0.091373	0.18913	0.29804	0.049341	0.13598	0.14687	0.1557	0.068606	0.14507	0.25985	0.14638	0.06997	0.14442	0.16015	-1.1708	-1.875	-1.1021	-1.9604	-1.6542	-1.2271	-2.0187	-1.5063	-1.5083	-1.7104	-1.2021	-1.7771	-1.7667	-1.2625	-1.8042	-1.5354	118.268	292.373	313.572	362.091	384.943	431.803	113.248	159.381	174.404	294.624	94.411	209.313	431.833	173.575	140.657	342.912	0.00091582	0.00056518	8.4467e-05	415.03	2.6598e-06	4.2432e-06	604.84	160.62	1.8298e-06	3.0492e-06	292.1	122.99	62.736	26.404	1.3448e-05	62.512	0.00045708	0.00043114	0.00012449	463.23	4.9418e-06	4.7259e-06	634.77	171.86	4.8897e-06	4.7487e-06	301.57	123.68	66.3	27.686	5.0187e-06	61.747	280.776	156.559	124.790	108.113	226.578	229.318	107.469	112.217	402.538	348.845	110.690	115.481	116.094	121.350	129.071	118.540	-8191	255	
8229.630	1	1	0	0	0.059564	0.16824	0.26978	0.18522	0.16194	0.038597	0.11519	0.1271	0.23508	0.16697	0.26988	0.18832	0.32147	0.20038	0.17571	0.084987	-0.91042	-2.0771	-1.2521	-1.7729	-1.5271	-0.8875	-1.9833	-1.5604	-1.3479	-2.1562	-1.3687	-1.4229	-1.9	-1.0979	-1.8312	-1.7833	106.670	195.422	126.143	359.501	140.749	136.780	240.879	96.473	267.547	188.429	392.956	111.050	398.709	355.746	396.628	169.622	0.0010944	0.00084038	7.3903e-05	412.04	4.2306e-06	1.6749e-06	601.3	161.82	9.424e-06	8.785e-06	292.4	122.29	62.98	26.454	2.2963e-06	62.376	0.00045157	0.00043097	0.00012895	461.97	4.882e-06	4.7227e-06	635.62	171.72	4.799e-06	4.7591e-06	301.83	122.99	66.059	27.685	5.1096e-06	61.404	273.856	213.891	179.284	108.010	318.143	132.227	107.372	112.390	344.312	191.144	110.843	115.390	116.085	120.962	178.735	118.525	-8191	255	
8229.728	1	1	0	0	0.19804	0.22284	0.22982	0.021616	0.15763	0.18179	0.13661	0.15428	0.038719	0.24466	0.22364	0.21582	0.082522	0.23649	0.08446	0.32159	-0.84792	-1.9146	-1.1729	-1.4625	-1.9521	-1.0271	-1.7792	-1.5875	-1.0063	-1.8792	-1.3438	-1.5438	-1.95	-0.93333	-1.5875	-1.8438	177.523	195.108	299.908	359.090	198.741	97.967	120.183	425.908	147.728	163.888	373.793	115.225	343.205	391.049	213.248	380.288	0.00087782	0.0005387	6.8371e-05	410.9	3.6963e-06	8.1033e-06	601.98	161.44	1.3719e-06	5.2759e-06	292.98	121.16	62.111	26.366	4.4568e-06	61.98	0.00044534	0.00043701	0.00013131	458.49	4.7396e-06	4.8334e-06	633.83	170.76	4.7406e-06	4.9053e-06	300.9	122.34	65.766	27.721	5.1143e-06	61.219	268.573	191.805	166.312	107.844	237.226	244.901	107.483	112.464	282.405	171.547	110.604	115.157	116.101	121.171	135.271	118.568	-8191	255	
8229.846	1	1	0	0	0.094536	0.055878	0.41254	0.034494	0.28066	0.095502	0.37238	0.11408	0.15001	0.14757	0.31597	0.088368	0.19659	0.2206	0.19487	0.29151	-0.80417	-1.7208	-1.2979	-1.15	-2.075	-1.2437	-1.7062	-1.8792	-1.0229	-1.8042	-1.4479	-1.4813	-2.1771	-1.1396	-1.4958	-2.1104	363.728	412.797	281.170	373.164	116.357	320.038	443.610	378.732	253.919	358.852	397.780	401.680	362.706	445.236	160.336	370.525	0.0011082	0.00070238	0.00013498	411.77	7.6594e-06	1.0376e-05	608.1	160.91	2.732e-06	5.6183e-06	291.86	122.07	62.851	26.367	6.1348e-06	62.476	0.0004428	0.00045658	0.00013086	458.16	4.7656e-06	5.0372e-06	636.22	170.98	4.774e-06	5.1337e-06	301.34	122.85	66.019	27.996	5.1038e-06	61.576	276.347	174.253	293.748	107.884	206.642	230.824	107.711	112.278	208.917	301.795	110.752	115.129	115.929	120.904	327.831	118.480	-8191	255	
8229.943	1	1	0	0	0.16727	0.2156	0.049396	0.21712	0.040698	0.21427	0.15782	0.1781	0.095486	0.075718	0.32472	0.33788	0.13885	0.099079	0.1551	0.23611	-0.64375	-2.0729	-1.3062	-1.25	-2.0729	-1.2062	-1.4771	-1.9979	-1.1479	-2.1333	-1.8083	-1.0688	-1.9604	-1.3583	-1.4917	-2.3125	387.116	349.398	353.434	124.487	170.891	245.978	180.431	367.567	218.099	400.443	453.101	425.195	274.990	330.879	372.567	155.154	0.00095988	0.00058569	4.964e-05	413.51	9.1285e-06	4.6404e-06	605.29	161.5	6.5816e-06	1.9038e-06	293.23	123.11	63.268	26.637	4.5435e-06	62.809	0.00044563	0.00047367	0.00012905	460.04	4.8303e-06	5.2389e-06	635.93	170.94	4.858e-06	5.2143e-06	302.87	123.52	66.503	28.222	5.029e-06	61.838	266.893	207.394	174.542	107.641	270.547	202.683	107.352	112.263	246.617	179.544	111.106	115.261	116.062	120.946	302.645	118.650	-8191	255	
8230.039	1	1	0	0	0.25203	0.099561	0.053394	0.23717	0.27859	0.051892	0.35017	0.24073	0.129	0.16146	0.074799	0.14631	0.1815	0.14944	0.273	0.22269	-0.65208	-1.7625	-1.6917	-1.1021	-2.1146	-1.3896	-1.5896	-2.0312	-1.0771	-1.6938	-1.7875	-1.0521	-1.9562	-1.4562	-1.4854	-2.2625	336.756	383.954	223.970	169.843	385.840	202.586	104.741	430.440	242.853	391.023	375.661	391.194	152.236	107.728	195.540	386.865	0.00085813	0.00061732	0.00015402	410.32	8.8947e-06	2.1302e-06	600.64	162.1	6.3842e-06	2.2316e-06	293.53	122.88	62.939	26.47	3.2373e-06	62.508	0.00045951	0.00047792	0.00012764	455.69	4.9781e-06	5.2039e-06	632.96	170.82	4.9594e-06	5.167e-06	301.38	122.99	66.687	28.047	4.9052e-06	61.585	276.368	209.072	213.453	108.104	257.181	185.931	107.649	112.348	219.855	275.825	110.781	115.208	116.517	121.097	247.381	118.509	-8191	255	
8230.135	1	1	0	0	0.15293	0.26704	0.058028	0.26211	0.12801	0.14436	0.15748	0.14737	0.0792	0.22742	0.21335	0.2558	0.10177	0.12688	0.11994	0.24578	-0.82083	-1.7313	-1.8375	-1.1292	-1.9813	-1.2958	-1.3125	-1.9854	-1.1833	-1.5167	-1.8958	-0.93542	-1.7188	-1.4521	-1.1542	-2.0979	238.898	190.263	211.421	379.260	318.175	234.059	352.323	389.725	382.257	366.955	113.577	441.003	158.307	210.426	164.136	365.013	0.00088759	0.00034089	8.3706e-05	409.75	1.7433e-06	3.0637e-06	603.75	160.45	6.3932e-06	7.9473e-07	294.24	122.03	63	26.426	5.2775e-06	62.56	0.00046546	0.00046584	0.00012385	454.73	5.1078e-06	5.0864e-06	630.35	170.2	5.1547e-06	5.0821e-06	300.68	122.52	66.678	27.904	4.8199e-06	61.455	271.004	273.867	177.301	107.961	319.495	255.370	107.360	112.389	273.861	438.868	111.109	115.116	115.849	120.829	358.156	118.738	-8191	255	
8230.231	1	1	0	0	0.37245	0.032216	0.1299	0.11697	0.036065	0.071684	0.12092	0.12488	0.19353	0.085533	0.11998	0.14013	0.21832	0.065467	0.20703	0.047844	-0.93333	-1.5521	-1.8854	-0.96458	-1.725	-1.6	-1.1125	-1.9312	-1.3813	-1.4292	-2.0979	-1.2812	-1.875	-1.6896	-1.1354	-2.0979	241.046	339.399	146.708	398.841	121.430	269.746	452.361	143.125	349.930	116.215	407.434	178.913	126.960	294.338	228.292	407.546	0.00095812	0.00026495	2.3395e-05	409.8	4.7044e-06	1.7508e-06	604.76	160.2	5.7253e-06	2.8191e-06	292.56	122.67	62.829	26.538	7.9785e-06	62.904	0.00048052	0.0004573	0.00012268	456.54	5.2365e-06	5.0698e-06	630.7	171.01	5.2544e-06	5.0237e-06	299.89	123.21	66.995	27.926	4.7961e-06	62.026	268.776	397.203	194.671	108.050	213.186	197.647	107.485	112.632	235.621	379.663	110.651	115.282	116.436	120.837	230.587	118.738	-8191	255	
8230.327	1	1	0	0	0.20902	0.20338	0.12553	0.098229	0.10658	0.16528	0.1924	0.14061	0.16825	0.12794	0.2455	0.14455	0.2958	0.12892	0.26583	0.32749	-1	-1.3208	-1.9937	-1.2417	-1.7021	-1.7604	-1.1917	-1.9062	-1.3583	-1.0958	-1.9208	-1.0417	-1.7104	-2.0167	-1.3542	-2.1146	180.457	226.990	377.580	361.765	321.595	138.330	405.777	303.628	271.526	326.819	321.874	445.133	148.064	376.027	137.379	407.146	0.00096466	0.00028701	7.69e-05	410.89	3.6687e-06	4.9633e-06	601.23	162.19	1.0407e-06	4.6e-06	295.91	123.78	63.127	26.638	2.8281e-06	63.225	0.00048875	0.00045765	0.00012229	459.69	5.2704e-06	5.0296e-06	630.45	172.35	5.2168e-06	4.9912e-06	301.47	124.51	67.074	28.037	4.7861e-06	62.421	276.926	197.511	268.724	107.700	449.067	329.030	107.503	112.774	313.635	195.810	111.044	115.227	116.127	120.963	370.764	118.690	-8191	255	
8230.448	1	1	0	0	0.034133	0.17074	0.1582	0.19156	0.13901	0.17231	0.023072	0.10534	0.30843	0.13505	0.05073	0.171	0.15338	0.19754	0.10941	0.27089	-1.1729	-1.2854	-2.0667	-1.325	-1.7708	-1.9854	-1.1792	-1.8354	-1.4958	-1.1729	-2.3521	-1.3729	-1.2521	-1.8021	-0.95	-1.8958	366.681	429.735	291.036	139.829	174.961	195.779	216.660	393.565	388.699	212.136	420.292	313.926	273.295	402.603	377.589	445.918	0.0010072	0.00036997	0.00020506	413.62	2.7902e-06	5.0585e-06	604.85	160.14	7.1925e-06	6.5366e-06	293.43	122.05	62.779	26.553	1.6614e-06	62.497	0.00047616	0.00044748	0.00012274	462.42	5.109e-06	4.9264e-06	629.43	171.76	5.0987e-06	4.8946e-06	300.68	124.02	66.552	27.841	4.8555e-06	61.973	272.981	188.953	161.057	108.296	359.615	298.821	107.555	112.747	365.506	262.895	110.967	115.142	116.057	120.913	160.471	118.695	-8191	255	
8230.544	1	1	0	0	0.1063	0.12357	0.15279	0.25233	0.20883	0.098334	0.32911	0.45044	0.039574	0.21001	0.17469	0.13201	0.14266	0.23137	0.085077	0.16737	-1.2396	-1.0875	-1.9979	-1.375	-1.2854	-2.0917	-1.4104	-1.8604	-1.5583	-0.93333	-2.0354	-1.5146	-1.2854	-1.8771	-0.87292	-1.6104	205.262	414.533	152.468	330.363	435.972	269.368	127.173	419.199	406.352	128.145	349.268	393.886	437.143	213.275	337.212	381.901	0.00091486	0.00022994	0.00010835	407.52	5.3186e-06	3.3684e-06	600.33	159.48	4.8258e-06	3.0139e-06	292.01	122.23	62.583	26.423	7.6071e-06	62.583	0.00046528	0.00043763	0.00012576	461.01	4.9885e-06	4.8178e-06	629.08	171.02	5.0018e-06	4.7959e-06	300.14	123.49	66.264	27.783	5.0695e-06	61.917	282.859	162.622	218.482	107.798	430.200	238.502	107.295	112.646	345.926	426.448	111.238	115.042	116.150	121.076	305.756	118.854	-8191	255	
8230.638	1	1	0	0	0.20614	0.19274	0.22797	0.19522	0.070561	0.083903	0.25036	0.27902	0.064085	0.21138	0.13183	0.065089	0.15217	0.1877	0.095838	0.33262	-1.3125	-0.90625	-1.7542	-1.4396	-1.075	-2.0083	-1.2771	-1.9292	-1.9958	-0.975	-1.9958	-1.7437	-1.2292	-2.1063	-1.1	-1.5792	181.545	177.587	381.942	396.715	152.176	430.153	375.462	108.046	423.880	126.457	153.511	261.159	342.107	113.123	375.134	392.259	0.0010512	0.00032112	0.00023243	409.99	4.0347e-06	1.9992e-06	605.63	159.95	3.2076e-06	7.2724e-06	291.31	122.78	63.319	26.507	2.0647e-06	63	0.00046397	0.00043841	0.00012974	461.1	4.9744e-06	4.8183e-06	633.15	170.87	4.9702e-06	4.8135e-06	301.72	123.93	66.543	27.77	5.2117e-06	62.227	273.266	188.932	183.645	107.797	258.530	398.457	107.386	112.327	252.876	222.084	111.195	115.289	116.055	120.820	146.429	118.697	-8191	255	
#DATA ENDS
