BOXY.EXE: ISS Imagent and Oximeter Data Acquisition Program Version 0.80
Ascii Record File

#ACQ INFORMATION
2  Detector Channels 
16  External MUX Channels 
1  Auxiliary Channels 
5000  Waveform (CCF) Frequency (Hz)
1  Waveforms Skipped 
30  Waveforms Averaged 
1  Cycles Averaged 
16  Acquisitions per Waveform 
10.0806  Updata Rate (Hz) 

#FILE INFORMATION
TRUE -- External MUX Channel results are PARSED.
FALSE -- AC DC and Phase are NOT grouped.
TRUE -- Companion Program Settings File CREATED.
FALSE -- AC data not excluded
FALSE -- DC data not excluded
FALSE -- Phase data not excluded
FALSE -- Auxillary Chn. data not excluded
Tab delimiters

#CALIBRATION STATE
TRUE -- Waveform Calibration Values APPLIED.


#AUX CALIBRATION VALUES
Val Type	aux-1	

Term	1.0000e+00	
Factor	0.0000e+00	


#WF CALIBRATION VALUES
A = Detector Channel
Val Type	A-AC1	A-AC2	A-AC3	A-AC4	A-AC5	A-AC6	A-AC7	A-AC8	A-AC9	A-AC10	A-AC11	A-AC12	A-AC13	A-AC14	A-AC15	A-AC16	A-DC1	A-DC2	A-DC3	A-DC4	A-DC5	A-DC6	A-DC7	A-DC8	A-DC9	A-DC10	A-DC11	A-DC12	A-DC13	A-DC14	A-DC15	A-DC16	A-Ph1	A-Ph2	A-Ph3	A-Ph4	A-Ph5	A-Ph6	A-Ph7	A-Ph8	A-Ph9	A-Ph10	A-Ph11	A-Ph12	A-Ph13	A-Ph14	A-Ph15	A-Ph16	

Term	0.00000e+00	0.00000e+00	0.00000e+00	0.00000e+00	0.00000e+00	0.00000e+00	0.00000e+00	0.00000e+00	0.00000e+00	0.00000e+00	0.00000e+00	0.00000e+00	0.00000e+00	0.00000e+00	0.00000e+00	0.00000e+00	0.00000e+00	0.00000e+00	0.00000e+00	0.00000e+00	0.00000e+00	0.00000e+00	0.00000e+00	0.00000e+00	0.00000e+00	0.00000e+00	0.00000e+00	0.00000e+00	0.00000e+00	0.00000e+00	0.00000e+00	0.00000e+00	0.00000e+00	0.00000e+00	0.00000e+00	0.00000e+00	0.00000e+00	0.00000e+00	0.00000e+00	0.00000e+00	0.00000e+00	0.00000e+00	0.00000e+00	0.00000e+00	0.00000e+00	0.00000e+00	0.00000e+00	0.00000e+00	
Factor	1.00000e+00	1.00000e+00	1.00000e+00	1.00000e+00	1.00000e+00	1.00000e+00	1.00000e+00	1.00000e+00	1.00000e+00	1.00000e+00	1.00000e+00	1.00000e+00	1.00000e+00	1.00000e+00	1.00000e+00	1.00000e+00	1.00000e+00	1.00000e+00	1.00000e+00	1.00000e+00	1.00000e+00	1.00000e+00	1.00000e+00	1.00000e+00	1.00000e+00	1.00000e+00	1.00000e+00	1.00000e+00	1.00000e+00	1.00000e+00	1.00000e+00	1.00000e+00	X	X	X	X	X	X	X	X	X	X	X	X	X	X	X	X	

B = Detector Channel
Val Type	B-AC1	B-AC2	B-AC3	B-AC4	B-AC5	B-AC6	B-AC7	B-AC8	B-AC9	B-AC10	B-AC11	B-AC12	B-AC13	B-AC14	B-AC15	B-AC16	B-DC1	B-DC2	B-DC3	B-DC4	B-DC5	B-DC6	B-DC7	B-DC8	B-DC9	B-DC10	B-DC11	B-DC12	B-DC13	B-DC14	B-DC15	B-DC16	B-Ph1	B-Ph2	B-Ph3	B-Ph4	B-Ph5	B-Ph6	B-Ph7	B-Ph8	B-Ph9	B-Ph10	B-Ph11	B-Ph12	B-Ph13	B-Ph14	B-Ph15	B-Ph16	

Term	0.00000e+00	0.00000e+00	0.00000e+00	0.00000e+00	0.00000e+00	0.00000e+00	0.00000e+00	0.00000e+00	0.00000e+00	0.00000e+00	0.00000e+00	0.00000e+00	0.00000e+00	0.00000e+00	0.00000e+00	0.00000e+00	0.00000e+00	0.00000e+00	0.00000e+00	0.00000e+00	0.00000e+00	0.00000e+00	0.00000e+00	0.00000e+00	0.00000e+00	0.00000e+00	0.00000e+00	0.00000e+00	0.00000e+00	0.00000e+00	0.00000e+00	0.00000e+00	-8.19620e+01	-1.31387e+02	-1.23947e+02	-1.82180e+02	-6.73124e+01	-7.06461e+01	-1.57453e+02	-1.62015e+02	-5.26248e+01	-5.03545e+01	-1.74207e+02	-1.70246e+02	-1.81558e+02	-1.76604e+02	-6.38946e+01	-1.49731e+02	
Factor	1.74277e-05	1.42447e-04	4.46277e-05	1.46431e-01	1.15311e-06	1.52853e-06	1.67333e-01	5.49476e-02	1.18619e-06	1.77604e-06	9.88515e-02	2.93754e-02	2.77491e-02	9.55186e-03	1.29905e-06	1.36949e-02	3.85813e-06	4.49126e-06	1.24776e-06	7.72237e-02	4.81768e-08	4.92794e-08	8.25847e-02	2.90232e-02	4.80511e-08	4.91379e-08	5.01668e-02	1.50227e-02	1.47801e-02	5.06767e-03	4.82509e-08	7.00746e-03	X	X	X	X	X	X	X	X	X	X	X	X	X	X	X	X	



#DISTANCE SETTINGS
A = Detector Channel
A-1	A-2	A-3	A-4	A-5	A-6	A-7	A-8	A-9	A-10	A-11	A-12	A-13	A-14	A-15	A-16	

2.5000e+00	3.0000e+00	2.5000e+00	3.0000e+00	2.0000e+00	3.0000e+00	1.5000e+00	3.0000e+00	3.0000e+00	3.0000e+00	3.0000e+00	3.0000e+00	3.0000e+00	3.0000e+00	1.5000e+00	3.0000e+00	

B = Detector Channel
B-1	B-2	B-3	B-4	B-5	B-6	B-7	B-8	B-9	B-10	B-11	B-12	B-13	B-14	B-15	B-16	

1.0000e+01	1.0000e+01	1.0000e+01	1.4400e+00	1.0000e+01	1.0000e+01	1.5100e+00	1.9400e+00	1.0000e+01	1.0000e+01	1.9900e+00	2.4900e+00	2.4100e+00	2.9000e+00	1.0000e+01	2.9800e+00	




#DATA BEGINS
time	group	step	mark	flag	A-AC1	A-AC2	A-AC3	A-AC4	A-AC5	A-AC6	A-AC7	A-AC8	A-AC9	A-AC10	A-AC11	A-AC12	A-AC13	A-AC14	A-AC15	A-AC16	A-DC1	A-DC2	A-DC3	A-DC4	A-DC5	A-DC6	A-DC7	A-DC8	A-DC9	A-DC10	A-DC11	A-DC12	A-DC13	A-DC14	A-DC15	A-DC16	A-Ph1	A-Ph2	A-Ph3	A-Ph4	A-Ph5	A-Ph6	A-Ph7	A-Ph8	A-Ph9	A-Ph10	A-Ph11	A-Ph12	A-Ph13	A-Ph14	A-Ph15	A-Ph16	B-AC1	B-AC2	B-AC3	B-AC4	B-AC5	B-AC6	B-AC7	B-AC8	B-AC9	B-AC10	B-AC11	B-AC12	B-AC13	B-AC14	B-AC15	B-AC16	B-DC1	B-DC2	B-DC3	B-DC4	B-DC5	B-DC6	B-DC7	B-DC8	B-DC9	B-DC10	B-DC11	B-DC12	B-DC13	B-DC14	B-DC15	B-DC16	B-Ph1	B-Ph2	B-Ph3	B-Ph4	B-Ph5	B-Ph6	B-Ph7	B-Ph8	B-Ph9	B-Ph10	B-Ph11	B-Ph12	B-Ph13	B-Ph14	B-Ph15	B-Ph16	aux-1	digaux	

2224.687	1	1	0	768	0.1909	0.094506	0.10267	0.14812	0.20368	0.17621	0.12168	0.13388	0.17314	0.3071	0.26135	0.16024	0.11206	0.28149	0.22046	0.10757	-1.9333	-1.3583	-1.7167	-2.0458	-1.3083	-2.1771	-1.9875	-1.7333	-2.2625	-1.5063	-1.8792	-2.3	-1.4167	-2.1688	-1.8438	-1.5229	220.263	103.342	232.366	247.090	358.909	204.906	105.737	357.549	67.725	292.830	416.034	335.819	223.469	65.279	150.194	83.473	0.00021343	0.0010172	0.00015795	792.04	7.7375e-06	1.7783e-05	1004.8	219.29	2.9097e-05	1.0817e-05	305.74	93.363	64.542	20.333	2.9762e-05	31.835	0.014724	0.017126	0.0047348	1049.3	0.00018451	0.00018968	1279.4	322.1	0.0001876	0.00019483	487.55	148.96	120.44	39.702	0.00019485	58.625	114.905	253.154	275.751	74.485	111.931	206.629	74.505	79.763	248.478	281.846	78.059	83.243	83.645	87.741	165.530	86.563	-8191	255	
2224.784	1	1	0	0	0.19047	0.19289	0.17352	0.32285	0.20814	0.23303	0.094958	0.12733	0.089365	0.20638	0.17494	0.074498	0.11474	0.22804	0.24809	0.1919	-1.7625	-1.675	-1.7396	-2.3271	-1.2667	-2.0708	-2.1125	-1.6667	-2.3958	-1.7396	-1.8083	-2.2333	-1.5146	-2.0896	-2.0708	-1.5063	225.278	383.649	397.415	153.530	274.680	384.345	251.784	292.696	288.128	345.342	373.744	392.516	238.777	392.491	265.300	371.921	3.4609e-05	0.0017892	0.000656	807.88	2.2964e-05	1.33e-05	1018.9	222.06	1.7781e-05	4.1687e-05	308.01	92.962	65.954	20.302	2.3899e-05	31.727	0.015555	0.018112	0.0050325	1082.6	0.00019442	0.0001983	1303.2	328.31	0.00019243	0.00019929	495.88	151.56	123.18	40.635	0.00020368	60.311	188.337	173.961	141.750	74.958	237.436	297.225	74.350	79.665	176.418	295.592	78.577	83.598	84.397	88.559	66.832	87.143	-8191	255	
2224.880	1	1	0	0	0.21976	0.4158	0.080722	0.16722	0.18599	0.35243	0.044061	0.050941	0.11188	0.029363	0.11488	0.10652	0.14243	0.27404	0.31477	0.18492	-1.9438	-1.7687	-1.4875	-2.4562	-1.4104	-2.1354	-2.2083	-1.5396	-2.1854	-1.8146	-1.6771	-2.3229	-1.5083	-1.8188	-2.425	-1.3125	237.789	262.608	214.684	358.637	73.774	119.124	359.061	421.137	176.180	129.750	273.266	264.701	414.027	374.290	211.359	418.070	0.00031655	0.0021572	0.00054447	810.17	8.5213e-06	1.861e-05	1030.8	224.4	3.0279e-05	1.7288e-05	307.51	92.625	64.776	20.434	3.6333e-06	31.299	0.016551	0.019421	0.0054151	1109.7	0.00021066	0.00021484	1341	339.94	0.0002077	0.00021379	508.56	153.5	125.01	40.876	0.00020409	59.387	213.370	160.942	328.238	74.484	183.751	224.499	74.756	79.833	232.866	151.412	78.567	83.331	83.613	88.771	84.407	86.124	-8191	255	
2224.976	1	1	0	0	0.38999	0.42913	0.1356	0.12053	0.040327	0.077578	0.092464	0.17405	0.16679	0.10693	0.15937	0.17098	0.080578	0.18819	0.17679	0.29661	-1.7375	-1.8021	-1.3896	-2.3	-1.4604	-1.8687	-2.4458	-1.3125	-2.0833	-1.9771	-1.3125	-2.3833	-1.5625	-1.5125	-2.15	-1.4792	62.093	86.104	88.884	394.035	152.068	375.718	343.224	233.783	281.548	268.287	84.136	286.385	63.118	72.608	362.898	93.819	0.00018982	0.00037548	0.00023309	799	1.4435e-05	3.3239e-05	1016.2	223.17	1.0122e-05	1.4926e-05	304.13	94.016	65.031	20.602	9.8323e-06	32.117	0.015987	0.018183	0.0048995	1058	0.00017542	0.0001725	1247.5	307.53	0.0001535	0.00015524	443.41	134.47	105.39	34.326	0.00013811	50.454	209.679	353.322	411.326	74.937	342.588	195.296	74.550	79.573	226.199	286.080	78.279	82.734	83.442	88.097	91.381	87.007	-8191	255	
2225.072	1	1	0	0	0.2498	0.15489	0.12292	0.087876	0.21464	0.099285	0.24253	0.10817	0.061023	0.11072	0.077693	0.18205	0.092343	0.18772	0.086071	0.092609	-1.7854	-2.0167	-1.4125	-2.2396	-1.6125	-1.4771	-2.3708	-1.5292	-2.125	-1.8604	-1.4771	-2.2354	-1.7479	-1.4958	-2.2375	-1.5417	162.419	286.816	275.549	196.730	405.372	93.296	310.456	90.807	284.939	205.209	373.383	99.634	355.211	226.290	222.128	97.680	0.00011515	0.0018049	0.00024926	800.93	1.4046e-05	1.4361e-05	1016.1	225.51	1.5395e-05	1.3184e-05	309.27	94.789	66.502	21.077	5.0219e-06	32.688	0.010878	0.012545	0.0034975	980.44	0.00013469	0.00013678	1194.8	293.67	0.00013175	0.00013553	430.33	131.82	103.26	33.951	0.0001314	50.382	410.175	69.855	270.933	74.538	274.765	105.197	74.580	79.376	257.752	210.565	78.790	82.833	83.935	88.223	184.982	87.066	-8191	255	
2225.168	1	1	0	0	0.17964	0.11651	0.41089	0.18061	0.27698	0.18916	0.14304	0.31284	0.29916	0.074761	0.32264	0.11676	0.1595	0.24399	0.17682	0.3238	-1.5042	-2.1104	-1.3958	-2.3083	-1.7042	-1.4667	-2.3854	-1.4729	-1.7375	-2.3333	-1.3292	-2.2167	-1.6917	-1.3292	-2.2854	-1.5521	263.185	137.035	76.311	221.319	360.292	259.754	412.297	415.316	235.385	215.887	374.412	413.225	372.237	99.226	85.711	366.767	0.00026884	0.0010417	8.4747e-05	818.38	3.2718e-06	1.5155e-05	1023.6	228.23	9.1256e-06	3.4417e-05	313.01	96.675	67.199	21.251	1.3058e-05	32.918	0.01061	0.012369	0.0034487	988.57	0.00013324	0.00013687	1205.1	298.29	0.00013432	0.00013959	440.43	135.51	107.73	35.586	0.00014631	53.134	189.165	337.831	143.429	74.777	149.093	194.024	75.140	79.184	382.957	107.602	78.452	83.180	84.103	87.851	161.700	86.732	-8191	255	
2225.289	1	1	0	0	0.055932	0.081586	0.15666	0.039266	0.18748	0.26344	0.30505	0.20768	0.11854	0.089411	0.17354	0.19251	0.089205	0.070154	0.2705	0.064273	-1.4396	-2.0708	-1.4208	-2.2542	-1.975	-1.4937	-2.2313	-1.6375	-1.5521	-2.1958	-1.4333	-1.9979	-2.0667	-1.5583	-2.3542	-1.8479	313.171	165.052	261.138	110.650	144.432	291.681	311.809	224.434	235.484	71.860	347.772	99.812	349.446	145.312	168.200	393.977	0.00030894	0.001081	0.00049328	826.58	5.4507e-06	2.9619e-05	1036.2	226.77	1.5213e-05	2.2552e-05	312.34	95.582	66.559	20.852	1.7977e-05	32.4	0.012081	0.014374	0.0040604	1039.2	0.00016189	0.00016783	1269	316.07	0.00016712	0.0001731	472.75	145.24	116.2	38.368	0.00017414	56.239	223.107	179.886	367.730	75.412	156.313	88.745	74.984	79.573	202.270	106.778	78.197	83.164	84.341	87.560	170.973	87.347	-8191	255	
2225.385	1	1	0	0	0.17815	0.11004	0.12189	0.24928	0.14672	0.24489	0.35654	0.033736	0.12639	0.13249	0.24635	0.29946	0.27614	0.38427	0.18961	0.27662	-1.1958	-2.2188	-1.2979	-1.8687	-2.0979	-1.3958	-2.325	-1.6562	-1.5354	-2.2292	-1.65	-1.8937	-2.1667	-1.3729	-2.0542	-1.8583	107.523	83.290	88.091	382.785	324.919	263.637	359.521	347.836	370.701	63.536	385.558	309.568	420.931	364.488	158.677	394.662	0.00039594	0.00063449	0.00013783	820.82	1.7565e-05	1.6059e-05	1027.5	223.09	1.1296e-05	1.1268e-05	307.69	94.02	65.213	20.554	3.1426e-06	31.188	0.013928	0.016147	0.0044517	1053.1	0.00017013	0.00017213	1260.1	311.95	0.00016189	0.00016474	457.58	139.08	111.17	36.249	0.00015829	53.261	214.579	252.655	378.071	74.927	291.756	78.701	75.321	79.478	302.099	282.343	78.476	83.689	83.665	88.138	275.173	87.021	-8191	255	
2225.481	1	1	0	0	0.19227	0.15546	0.36418	0.30025	0.11643	0.14277	0.32987	0.2165	0.16349	0.054515	0.20202	0.2158	0.062228	0.053752	0.0716	0.30014	-1.1646	-2.1979	-1.3937	-1.9417	-2.2188	-1.1896	-2.0812	-1.9479	-1.2188	-2.2479	-1.5479	-1.6229	-2.3917	-1.3417	-1.9854	-2.0812	262.122	222.690	384.528	90.316	134.838	280.844	341.478	68.845	160.374	355.627	332.536	368.756	140.955	290.954	398.550	151.888	0.00036128	0.0023669	0.00023859	814.1	9.3698e-06	1.6611e-05	1021.7	223.98	1.5406e-05	1.2421e-05	308.12	93.975	65.003	20.35	3.5835e-05	32.029	0.012829	0.014928	0.0041654	1031.3	0.00016176	0.00016603	1249.8	311.32	0.0001631	0.00016649	460.93	140.49	112.48	36.708	0.0001628	54.022	198.471	350.427	81.667	74.922	291.684	252.158	75.094	79.984	207.666	71.956	78.239	83.524	84.212	88.695	308.804	86.535	-8191	255	
2225.577	1	1	0	0	0.12264	0.16615	0.32124	0.35469	0.13822	0.053954	0.38477	0.23029	0.093282	0.25634	0.17898	0.41819	0.14608	0.27421	0.25594	0.1607	-0.92083	-2.3438	-1.5417	-1.6333	-2.1167	-1.4688	-2.1208	-2.4854	-1.375	-2.3333	-1.6562	-1.5646	-2.2542	-1.4646	-1.9875	-2.1708	82.715	361.797	385.382	375.413	88.253	87.685	360.299	69.331	63.843	308.413	349.724	393.350	189.200	412.664	331.069	64.458	0.00031544	0.0011762	9.8574e-05	814.72	2.7671e-05	9.7466e-06	1029.9	224.52	1.0759e-05	1.4604e-05	310.42	94.271	66.143	20.646	1.7993e-05	32.118	0.01312	0.015116	0.0042009	1034.4	0.00016288	0.00016578	1253.8	311.84	0.00016177	0.00016645	462.14	140.99	112.85	37.011	0.00016343	54.606	165.739	117.300	137.462	74.843	181.716	191.891	74.764	79.833	279.153	81.195	78.590	83.603	83.756	87.675	270.513	86.204	-8191	255	
2225.673	1	1	0	0	0.042878	0.24756	0.39724	0.24106	0.063142	0.25326	0.20276	0.21406	0.15674	0.13468	0.22423	0.28623	0.21274	0.016398	0.12198	0.16679	-1.0854	-2.1583	-1.8271	-1.4917	-2.4375	-1.5458	-1.9813	-2.3896	-1.3312	-2.2167	-1.9958	-1.5854	-2.3875	-1.2812	-1.5646	-2.175	400.817	295.671	384.163	102.276	114.869	120.770	62.721	397.521	109.110	287.482	351.272	341.303	358.903	73.374	232.046	214.774	6.1405e-05	0.0021066	0.00043651	828.09	2.0034e-05	3.3108e-05	1033.9	228.11	5.8336e-06	2.5387e-05	310.53	96.858	66.456	20.953	2.5857e-05	32.398	0.013246	0.015312	0.0043014	1051.2	0.00016605	0.0001709	1270.2	317.28	0.00016553	0.00016827	469.01	143.22	114.08	37.265	0.00016419	54.726	252.702	180.935	213.340	74.209	255.662	320.468	74.748	79.010	178.639	161.755	77.732	82.821	83.096	87.999	342.379	86.419	-8191	255	
2225.768	1	1	0	0	0.027384	0.16039	0.10852	0.20216	0.25043	0.17145	0.14898	0.091423	0.12874	0.17199	0.1498	0.31457	0.22807	0.23933	0.1635	0.12252	-1.025	-2.0271	-2.0146	-1.6354	-2.2396	-1.5708	-1.8771	-2.2646	-1.3458	-1.9208	-2.1375	-1.3875	-2.1604	-1.6458	-1.45	-2.3729	108.770	229.732	244.529	169.444	307.939	362.325	311.761	363.465	247.187	404.312	104.405	86.331	291.066	179.820	315.872	96.294	0.00014756	0.0032583	0.00032211	828.05	2.3079e-05	1.1363e-05	1034.4	226.82	1.1698e-05	3.4907e-05	309.46	95.622	66.491	20.544	2.7521e-06	31.804	0.01313	0.015213	0.0042691	1051.2	0.00016407	0.00016774	1265.9	315.38	0.000164	0.00016616	465.51	141.27	112.68	36.865	0.00016237	53.99	175.672	177.381	65.413	74.496	230.603	125.335	74.412	79.312	222.229	94.219	78.392	82.282	83.539	87.474	335.397	85.516	-8191	255	
2225.888	1	1	0	0	0.13506	0.29354	0.35202	0.15991	0.35563	0.12991	0.087362	0.22358	0.066321	0.19058	0.30447	0.16473	0.073482	0.22073	0.12995	0.12609	-0.95208	-1.9979	-2.1063	-1.3896	-1.8958	-1.7	-1.6229	-2.2	-1.2479	-1.9083	-2.3063	-1.4271	-2.1854	-1.9688	-1.4771	-2.4021	178.534	98.275	97.761	404.653	218.462	105.699	150.281	362.856	137.867	222.364	373.415	70.928	114.707	421.258	347.752	313.835	0.00046267	0.0014797	5.5061e-05	816.45	1.7546e-05	9.016e-06	1023.4	222.65	2.0955e-06	3.1545e-05	305.91	93.14	64.983	20.471	8.3303e-06	31.605	0.013063	0.01507	0.0042408	1039.2	0.00016357	0.00016881	1257.3	313.55	0.00016538	0.00016833	464.38	141.11	112.55	36.932	0.00016569	54.148	236.561	140.983	161.828	74.242	373.752	201.012	74.335	79.381	94.481	252.040	77.952	83.009	83.465	88.385	294.696	86.657	-8191	255	
2225.985	1	1	0	0	0.13995	0.18913	0.29841	0.20622	0.1464	0.17462	0.12545	0.16745	0.17188	0.16747	0.1822	0.19983	0.090851	0.13011	0.13136	0.068214	-0.88333	-1.5521	-2.1854	-1.4583	-2.1896	-1.8	-1.7854	-2.2646	-1.3271	-1.6833	-2.3333	-1.4208	-2.1125	-1.9625	-1.3417	-2.3688	370.188	352.793	71.433	418.926	256.424	198.214	320.055	364.637	272.458	287.748	411.417	401.139	67.745	98.696	386.526	161.680	0.00037202	0.0038306	0.00028134	810.2	2.2337e-05	1.7627e-05	1022.3	222.04	7.3735e-06	2.7673e-05	305.91	94.183	65.337	20.486	1.6264e-05	31.995	0.013262	0.015315	0.0042852	1036.3	0.00016441	0.00016918	1252.5	311.7	0.00016523	0.00016886	464.02	141.44	113.27	37.27	0.00016909	55.022	261.410	107.358	192.007	74.342	264.616	335.677	74.411	79.667	121.983	257.631	77.668	82.746	83.878	88.413	322.149	86.541	-8191	255	
2226.081	1	1	0	0	0.15301	0.14676	0.044569	0.061128	0.11483	0.20856	0.14005	0.22698	0.10846	0.054725	0.32065	0.20999	0.072073	0.15872	0.20372	0.16566	-1.1667	-1.6938	-2.1813	-1.4375	-1.9708	-2.225	-1.7333	-2.5	-1.7417	-1.6167	-2.3271	-1.6292	-1.9542	-2.0167	-1.4562	-2.2562	125.278	236.370	205.166	365.127	299.489	79.104	382.640	330.298	131.969	387.775	129.323	97.901	340.368	368.396	129.359	294.200	0.00031464	0.0018654	0.00038022	816.95	1.813e-05	2.8993e-05	1027.8	222.48	1.4944e-05	2.7246e-05	311.26	95.64	66.342	20.496	4.1655e-06	32.324	0.013614	0.015833	0.0044077	1047	0.00016856	0.00017388	1266.5	315.45	0.00016832	0.00017152	468.52	142.83	113.6	37.402	0.00016567	54.724	193.215	208.627	116.223	74.259	207.194	231.298	74.517	79.516	291.682	298.049	78.204	82.559	84.040	87.822	89.852	86.834	-8191	255	
2226.177	1	1	0	0	0.28453	0.14374	0.13426	0.40431	0.13195	0.26957	0.071219	0.20312	0.23351	0.20869	0.32367	0.057354	0.12967	0.24236	0.020118	0.12691	-1.3042	-1.4354	-2.1688	-1.5771	-1.8333	-2.2	-1.4229	-2.3542	-2.0083	-1.5271	-2.3542	-1.4708	-1.5542	-2.1646	-1.4208	-2.2333	379.552	403.339	169.388	365.736	240.434	382.330	385.765	358.012	415.246	314.039	381.087	393.418	264.782	259.857	350.016	215.504	0.00050929	0.00019659	0.00041817	826.11	1.2792e-05	1.9214e-05	1032.9	228.07	1.481e-05	1.0182e-05	312.06	95.018	66.853	20.896	2.1234e-05	32.2	0.013203	0.015257	0.0042132	1043.7	0.00016095	0.00016485	1258.3	312.5	0.00015794	0.00016139	459.3	139.77	111.51	36.453	0.00015733	53.324	193.672	374.037	114.984	74.165	87.946	119.349	74.356	79.337	207.689	271.445	78.025	82.685	83.604	88.431	219.668	86.638	-8191	255	
2226.249	1	1	0	0	0.26759	0.065819	0.20475	0.21903	0.22083	0.10941	0.25345	0.17227	0.11416	0.17412	0.1362	0.18591	0.094586	0.22401	0.18369	0.27915	-1.7437	-1.4854	-2.1708	-1.7271	-1.8292	-2.3396	-1.45	-1.8563	-1.9833	-1.5625	-2.2542	-1.7896	-1.5396	-2.2479	-1.5	-1.8896	329.912	349.095	241.408	401.977	330.569	198.851	370.836	228.698	273.388	326.526	81.784	131.980	108.390	266.790	312.936	253.526	0.0004396	0.0029568	0.00013317	822.26	1.8755e-05	1.5557e-05	1027.2	226.07	7.9765e-06	2.2134e-05	307.7	94.028	65.98	20.256	6.2321e-06	31.729	0.01264	0.014637	0.0040551	1032.8	0.00015608	0.00015967	1240.9	307.75	0.00015431	0.00015727	450.68	137.07	109.32	35.662	0.00015224	52.181	233.956	376.131	164.180	74.324	118.435	181.220	74.657	79.416	316.852	141.296	78.337	82.998	83.963	87.801	160.542	86.599	-8191	255	
2226.369	1	1	0	0	0.14167	0.19255	0.27536	0.079793	0.12632	0.093485	0.081197	0.076948	0.015531	0.096353	0.28417	0.18069	0.17065	0.12335	0.13777	0.10836	-1.6	-1.3125	-2.2	-1.8104	-1.4875	-2.2062	-1.7	-2.0479	-2.1896	-1.525	-2.2583	-1.8917	-1.4667	-2.5187	-1.3792	-1.9458	72.876	94.848	127.299	334.084	378.675	137.160	291.486	174.408	321.366	420.020	351.057	141.962	69.762	374.915	248.626	182.560	4.1245e-05	0.0018211	0.00028241	815.57	5.0401e-06	1.0834e-05	1012.5	226.06	8.7789e-06	1.3445e-05	308.68	94.21	65.284	20.202	1.887e-05	31.249	0.012314	0.014234	0.0039277	1018.8	0.00015148	0.00015597	1229.2	305.47	0.00015322	0.00015674	449.78	137.37	109.42	35.685	0.00015516	52.299	369.584	95.077	336.036	73.996	373.496	194.944	74.476	79.550	356.053	309.415	78.028	82.812	83.292	87.713	192.889	87.113	-8191	255	
2226.465	1	1	0	0	0.31833	0.35838	0.21481	0.087853	0.1811	0.18265	0.25699	0.15798	0.053396	0.16344	0.13585	0.10091	0.29971	0.17701	0.11797	0.20656	-1.9292	-1.3687	-2.0333	-1.9583	-1.4667	-2.2979	-1.675	-1.6125	-1.9833	-1.1771	-2.025	-2.0896	-1.2896	-2.4688	-1.7646	-1.7125	116.736	312.480	180.785	310.787	161.125	273.037	301.290	330.731	96.691	292.936	309.163	210.912	79.132	385.792	89.315	417.173	0.00053627	0.00067493	0.00051402	809.18	1.4799e-06	1.016e-05	1012.9	223.09	1.9401e-05	4.1195e-05	307.29	93.245	65.373	20.386	9.9905e-06	31.112	0.012481	0.014406	0.0039864	1020	0.00015519	0.00015876	1232.6	306.41	0.000155	0.00015902	450.74	137.46	109.01	35.453	0.00015203	51.776	206.894	128.218	258.076	74.474	119.179	266.848	74.470	79.114	348.438	391.720	77.837	83.056	84.279	87.994	256.521	86.677	-8191	255	
2226.561	1	1	0	0	0.015078	0.10383	0.311	0.13932	0.25205	0.16703	0.090951	0.26873	0.18549	0.12054	0.21423	0.11837	0.14567	0.26797	0.083801	0.19919	-1.7292	-1.3292	-2.0271	-2.0104	-1.1771	-2.3688	-1.975	-1.7812	-2.3958	-1.675	-2.0146	-2.1771	-1.3333	-2.3125	-1.8458	-1.5583	266.321	73.149	198.055	75.825	321.407	244.044	104.017	297.589	397.676	336.753	325.390	280.179	358.966	287.846	83.711	261.014	0.00037187	0.0010337	0.00061835	806.72	1.445e-05	1.8143e-05	1010.1	223.4	1.5453e-05	2.3788e-05	307.55	94.355	65.555	20.602	1.4015e-05	32.089	0.012048	0.013924	0.0038326	1005.2	0.00014958	0.00015299	1221.1	304.68	0.00015556	0.00016313	458.83	141.99	114.84	37.884	0.00017804	56.673	236.111	194.563	161.930	74.480	201.772	212.594	74.778	79.822	145.091	240.144	78.688	82.487	84.210	87.565	231.001	85.922	-8191	255	
2226.658	1	1	0	0	0.15601	0.099807	0.055667	0.29152	0.12559	0.0998	0.20119	0.045064	0.034279	0.40743	0.23503	0.040488	0.21299	0.13066	0.35374	0.13339	-1.7146	-1.6104	-1.7375	-2.2646	-1.3167	-2.1271	-1.9104	-1.5104	-2.225	-1.5104	-1.8396	-2.3438	-1.4208	-2.4521	-1.9542	-1.5729	370.810	74.430	228.065	367.746	219.964	260.591	111.229	190.337	94.711	73.428	327.720	154.878	323.308	305.234	208.684	229.154	0.00023343	0.0016474	0.00079919	802.73	4.7108e-06	2.9366e-05	1014.8	222.7	2.203e-05	1.6034e-06	306.46	93.232	64.477	20.397	2.7145e-05	30.989	0.014783	0.017426	0.0049083	1078.4	0.00019407	0.00020045	1304.2	334.44	0.00020246	0.00020886	505.16	154.18	125.95	41.421	0.00020967	60.364	234.545	260.030	177.653	74.372	396.199	307.133	74.480	79.700	287.818	244.727	78.930	83.233	83.643	88.120	222.546	86.795	-8191	255	
2226.777	1	1	0	0	0.16768	0.081273	0.2821	0.2643	0.085231	0.10803	0.21842	0.27929	0.23131	0.035145	0.10221	0.16223	0.084038	0.19548	0.088479	0.090222	-1.7833	-1.7792	-1.6542	-2.3646	-1.3917	-1.9875	-2.0438	-1.3042	-2.3583	-1.7708	-1.7396	-2.2083	-1.3896	-1.6958	-1.8	-1.4312	67.292	100.740	339.043	168.241	283.628	191.081	281.168	158.848	371.104	162.191	356.807	375.069	81.611	358.216	371.863	296.289	5.5133e-05	0.0025816	0.00078578	796.77	7.896e-06	2.4064e-05	993.25	216.88	1.6367e-05	1.5537e-05	298.58	90.55	63.04	19.889	7.0809e-06	30.76	0.016612	0.019364	0.0053247	1080.4	0.00020376	0.00020599	1293.8	328.53	0.00019879	0.00020396	489.85	148.77	120.62	39.619	0.00019704	57.891	73.293	307.914	148.620	74.550	375.732	195.899	74.704	79.865	175.873	308.528	78.277	83.046	83.223	87.928	96.777	86.615	-8191	255	
2226.850	1	1	0	0	0.13413	0.28684	0.23999	0.12104	0.077137	0.17168	0.31581	0.31747	0.048713	0.098111	0.2038	0.035087	0.096777	0.094832	0.19914	0.14561	-1.9229	-1.6938	-1.5083	-2.3667	-1.5708	-1.7771	-2.1792	-1.4333	-2.0312	-1.8208	-1.425	-2.4375	-1.5146	-1.7042	-2.2458	-1.4	410.384	387.885	179.772	380.733	173.814	134.507	365.825	287.767	335.850	133.143	384.455	305.367	401.683	140.738	267.091	227.100	0.00035468	0.0019198	0.00044422	781.11	1.7394e-05	1.9971e-05	977.5	214.1	1.4522e-05	5.2753e-05	297.79	91.344	62.643	19.622	1.8384e-05	30.822	0.015692	0.018332	0.0050737	1055.9	0.00019402	0.00019705	1263.9	319.05	0.00018741	0.00019245	475.45	144.61	117.03	38.327	0.00018738	56.415	224.421	178.600	370.071	74.152	366.477	200.842	75.002	79.083	95.226	149.689	78.114	83.301	84.107	88.055	313.218	86.467	-8191	255	
2226.969	1	1	0	0	0.10463	0.31454	0.12977	0.28515	0.12458	0.13568	0.12324	0.23969	0.18225	0.1075	0.17289	0.27641	0.14195	0.18523	0.019866	0.13527	-1.7521	-1.9354	-1.3458	-2.4021	-1.6417	-1.7833	-2.4667	-1.475	-2.0625	-2.1792	-1.4958	-2.3667	-1.6917	-1.6542	-2.2917	-1.5354	287.980	76.838	351.723	365.082	137.404	71.475	319.120	123.540	418.956	135.888	105.877	300.212	382.558	407.040	413.035	317.477	9.4687e-05	0.00079159	0.00038313	776.23	4.0693e-05	1.293e-05	982.68	216.94	1.8721e-05	1.5349e-05	297.12	90.475	63.112	19.615	1.9919e-05	30.64	0.014987	0.01764	0.0049403	1047.2	0.00019347	0.00019864	1270.3	323.02	0.00019376	0.0002014	486.54	148.14	120.65	39.631	0.00019681	58.104	115.049	89.473	270.280	74.570	204.775	157.164	74.380	79.588	309.634	292.913	78.274	83.253	83.506	87.920	212.222	86.972	-8191	255	
2227.065	1	1	0	0	0.10126	0.034442	0.26914	0.12894	0.19203	0.20842	0.03725	0.39602	0.18151	0.084229	0.089301	0.21184	0.06809	0.30596	0.042165	0.32753	-1.5333	-1.8229	-1.1646	-2.2458	-1.6771	-1.6146	-2.5479	-1.2708	-1.7271	-2.25	-1.3333	-2.2771	-1.6521	-1.5354	-2.3396	-1.55	146.423	378.536	315.491	361.376	222.886	357.240	205.761	398.368	205.254	228.660	291.062	358.985	242.691	67.610	414.242	179.809	0.0002517	0.0012345	0.0012273	783.05	1.1786e-05	1.1751e-05	987.28	215.75	1.1909e-05	1.8096e-05	296.29	91.803	62.903	19.884	4.1948e-06	30.646	0.015741	0.018481	0.0051512	1061.5	0.00019699	0.00020346	1276.4	323.53	0.00019339	0.00019856	485.16	147.64	120.17	39.51	0.00019519	57.669	197.583	190.523	140.377	74.742	378.026	264.082	74.950	79.759	118.090	335.174	78.332	83.327	83.772	88.673	367.906	86.869	-8191	255	
2227.161	1	1	0	0	0.35946	0.30208	0.15463	0.14299	0.22775	0.47143	0.077397	0.092781	0.10532	0.078142	0.081779	0.44123	0.075954	0.14221	0.33773	0.21936	-1.5104	-2.3063	-1.3438	-2.3708	-1.9875	-1.5521	-2.4542	-1.3896	-1.5708	-2.0771	-1.4542	-2.1146	-1.9937	-1.3312	-2.2229	-1.7375	285.102	84.796	229.024	270.848	224.825	343.712	137.579	391.712	173.889	174.596	389.320	420.789	247.222	68.291	80.462	170.569	0.00054355	0.0012558	4.9593e-05	777.99	7.4693e-06	2.8129e-05	972.9	213.14	1.3532e-05	6.6042e-06	291.63	89.285	62.134	19.281	1.5375e-05	29.764	0.015553	0.018134	0.0049823	1039.8	0.00018766	0.00018993	1238.9	311.03	0.00017547	0.00017956	456.88	137.73	110.58	35.879	0.00016479	52.28	197.164	217.018	281.061	75.047	141.899	385.659	74.808	79.416	193.852	111.151	78.803	83.192	84.088	88.404	191.130	86.454	-8191	255	
2227.257	1	1	0	0	0.12856	0.10317	0.19489	0.53097	0.2274	0.093245	0.15438	0.1904	0.12497	0.037235	0.33265	0.23629	0.18029	0.31048	0.31091	0.15606	-1.2354	-2.1688	-1.4021	-2.1896	-1.6917	-1.2708	-2.5667	-1.8021	-1.4083	-2.3063	-1.4125	-2.0167	-2.0771	-1.2729	-2.2562	-1.8833	312.362	208.735	148.509	372.452	413.929	196.276	351.332	373.890	419.284	268.399	146.727	121.830	76.012	312.385	180.528	379.855	0.00021501	0.0016491	0.00030202	774.15	6.7014e-06	3.6897e-06	975.7	214.64	2.2034e-05	1.7276e-05	294.11	89.711	63.198	19.49	1.1856e-05	30.074	0.013066	0.015198	0.00422	993.74	0.00016495	0.00016934	1209.2	304.51	0.00016847	0.0001743	457.01	139.22	112.48	36.868	0.00017243	53.921	202.348	121.685	162.498	74.855	385.056	140.006	74.771	79.664	244.598	252.244	77.932	82.670	83.212	88.194	252.655	86.934	-8191	255	
2227.378	1	1	0	0	0.16392	0.078645	0.09458	0.048695	0.21253	0.1535	0.40413	0.3349	0.038021	0.29664	0.054311	0.095204	0.13285	0.1135	0.20103	0.097218	-1.1292	-2.2875	-1.3833	-1.85	-2.2083	-1.3375	-2.3063	-1.5917	-1.3667	-2.3104	-1.4188	-1.7875	-1.9813	-1.4188	-1.9333	-1.8062	82.818	183.237	335.856	290.530	344.038	116.928	419.977	393.919	355.834	197.221	88.640	108.722	74.427	270.302	219.381	168.617	0.00020522	0.0022575	0.00038189	777.66	2.1617e-05	4.3825e-05	978.13	215.48	2.133e-05	1.4119e-05	295.73	89.975	63.457	19.716	1.3947e-05	30.549	0.013791	0.01601	0.0043931	1007.9	0.00016771	0.0001703	1213	303.01	0.00016195	0.00016481	446.98	135.79	108.36	35.142	0.00015351	51.289	225.967	157.489	126.418	75.015	301.596	298.690	75.138	79.833	73.792	369.020	78.510	83.815	84.217	88.469	129.560	87.120	-8191	255	
2227.474	1	1	0	0	0.10433	0.24345	0.1979	0.21031	0.15267	0.14899	0.13137	0.17948	0.22448	0.12689	0.2792	0.08413	0.2604	0.23325	0.071542	0.11243	-0.97292	-1.9021	-1.4146	-1.8167	-2.1854	-1.3771	-2.2313	-2.0875	-1.2979	-2.2354	-1.4896	-1.6521	-2.15	-1.1667	-2.3021	-2.0792	64.714	279.857	321.879	260.965	242.935	328.692	344.818	345.589	262.903	93.662	83.833	85.615	402.597	345.373	386.129	209.505	0.00044804	0.00038879	0.00066479	792.25	1.98e-05	1.5597e-05	995.54	217.73	7.1489e-06	8.0772e-06	299.59	92.34	64.195	20.201	1.7093e-05	30.836	0.012134	0.013865	0.0038046	986.74	0.00014545	0.00014709	1193.2	294.48	0.0001425	0.00014482	433.77	132.24	105.01	34.21	0.00014432	50.719	194.048	191.598	420.746	75.242	340.118	315.451	74.878	79.541	410.022	245.553	78.123	83.272	84.372	88.459	132.184	86.779	-8191	255	
2227.570	1	1	0	0	0.2518	0.13474	0.080589	0.20509	0.15926	0.099034	0.20876	0.062223	0.013229	0.1451	0.48652	0.18093	0.18049	0.10453	0.18013	0.09553	-0.79583	-2.2458	-1.6271	-1.6917	-2.2062	-1.3417	-2.3396	-2.1292	-1.3167	-2.0542	-1.8813	-1.4771	-2.3083	-1.4646	-1.5708	-2.0417	296.130	375.763	144.572	356.982	138.781	420.207	75.581	101.783	368.113	237.067	65.062	153.844	99.512	239.606	196.924	313.177	6.9965e-05	0.002401	0.00020904	804.94	1.2878e-05	1.0477e-05	1011.6	222.17	1.8481e-05	2.516e-05	303.61	92.977	64.056	20.019	1.2777e-05	30.931	0.011759	0.013714	0.0038601	1008.6	0.00015152	0.00015695	1221.2	304.71	0.00015468	0.00015919	450.98	137.28	109.83	35.712	0.00015785	52.44	239.308	407.037	235.000	75.223	413.944	359.178	74.307	79.526	227.061	129.397	78.323	83.425	84.013	88.430	65.598	86.601	-8191	255	
2227.665	1	1	0	0	0.115	0.036299	0.3997	0.067371	0.077944	0.11651	0.15834	0.21356	0.18041	0.13667	0.12534	0.17771	0.13139	0.31224	0.15582	0.19139	-1.075	-2.0812	-1.7625	-1.6063	-2.1979	-1.3271	-2.0687	-2.1312	-1.2771	-2.1625	-1.9833	-1.4542	-2.1562	-1.6	-1.6354	-2.4479	308.168	139.374	108.829	295.135	316.175	212.357	315.556	352.199	128.179	101.339	172.429	322.013	85.517	347.249	174.976	387.561	8.2932e-05	0.0031073	0.00069345	796.46	3.1078e-06	2.1152e-05	1000.3	220.31	1.9737e-05	1.2801e-05	300.59	91.415	64.274	19.809	1.2498e-05	30.773	0.012767	0.014615	0.0041045	1013.4	0.00015691	0.00016085	1221	305	0.00015659	0.00015885	449.32	136.31	109.27	35.698	0.0001605	52.826	369.458	169.010	395.885	75.041	395.532	213.841	74.930	79.400	243.261	354.193	78.852	83.492	83.945	88.465	91.185	86.646	-8191	255	
2227.761	1	1	0	0	0.23968	0.21546	0.14506	0.040903	0.21051	0.10442	0.24252	0.15754	0.11795	0.19233	0.07961	0.11664	0.11196	0.24387	0.14397	0.040729	-0.71458	-1.9208	-1.7271	-1.3083	-2.2854	-1.5208	-1.6875	-2.3729	-1.3542	-1.9479	-2.1562	-1.3188	-2.1521	-1.8292	-1.6479	-2.4	108.183	354.319	221.895	346.399	102.343	332.937	349.214	416.049	227.500	225.007	373.377	110.482	344.817	87.753	71.035	315.093	0.00030608	0.0015777	0.00089405	802.14	2.0052e-05	1.2474e-05	1004.7	222.14	1.263e-05	1.5654e-05	300.73	92.116	64.603	20.017	6.0456e-06	30.775	0.013047	0.015141	0.0042746	1026.5	0.00016384	0.00016942	1235.7	311.2	0.00016627	0.00017053	462.73	141.7	113.86	37.458	0.0001763	55.334	121.385	82.693	192.937	75.050	290.744	366.424	74.904	79.486	262.173	84.576	78.639	83.134	83.722	88.079	418.117	87.203	-8191	255	
2227.857	1	1	0	0	0.23997	0.018008	0.18805	0.15117	0.34468	0.15741	0.29829	0.23803	0.17856	0.25567	0.31273	0.062999	0.18005	0.074889	0.15006	0.25111	-1.2417	-1.8229	-2.2313	-1.5125	-2.3646	-1.7104	-1.6458	-2.3688	-1.35	-1.9188	-2.1604	-1.4167	-2.1083	-1.8583	-1.3396	-2.4125	109.786	413.141	372.699	360.348	74.407	169.372	247.876	243.680	208.778	338.370	247.415	190.692	281.372	252.823	291.303	123.079	0.00026913	0.0014595	0.00059999	804.66	1.4753e-05	5.8821e-06	1009.7	221.9	2.307e-05	2.3609e-05	304.51	93.3	64.962	20.024	8.8914e-06	31.062	0.014344	0.016703	0.004671	1052.6	0.00017843	0.000184	1264.5	317.91	0.00017494	0.00017753	469.45	142.27	113.75	37.262	0.00017096	54.403	205.172	163.274	241.631	75.034	390.500	344.768	75.298	79.528	135.483	313.355	78.557	83.429	83.355	88.741	102.430	87.083	-8191	255	
2227.953	1	1	0	0	0.080683	0.044318	0.25271	0.58264	0.12705	0.2591	0.15204	0.25263	0.074172	0.11657	0.10373	0.10973	0.1644	0.22721	0.1789	0.11328	-1.2646	-1.7146	-2.2104	-1.3771	-2.1542	-1.8937	-1.4188	-2.1937	-1.5104	-1.6729	-2.3604	-1.3375	-1.9937	-1.9583	-1.4042	-2.1979	340.689	352.549	154.105	377.479	247.349	303.663	149.765	389.883	203.197	280.682	370.584	117.614	361.927	366.930	334.009	84.838	0.00063724	0.0016307	0.00037982	808.35	1.4833e-05	3.4497e-05	1015.9	224.57	1.3884e-05	2.78e-05	305.36	92.563	65.207	20.122	3.558e-05	30.556	0.013626	0.01576	0.0044259	1045.8	0.00016978	0.00017677	1260.8	316.76	0.00017202	0.00017709	471.89	142.92	115.4	37.794	0.0001775	55.257	239.824	91.559	202.254	74.439	242.037	273.062	74.953	79.823	255.054	387.171	78.522	83.794	84.262	88.069	232.372	86.966	-8191	255	
2228.074	1	1	0	0	0.23496	0.16971	0.30359	0.37695	0.038042	0.043648	0.087568	0.20874	0.079859	0.14516	0.29475	0.13514	0.25311	0.3665	0.27892	0.14543	-1.3083	-1.4333	-1.9979	-1.4396	-1.9688	-1.9521	-1.5021	-2.2771	-1.6146	-1.5521	-2.3958	-1.6271	-1.9792	-2.0667	-1.3875	-2.1188	375.726	152.678	421.853	410.289	185.373	333.437	403.199	210.475	264.340	205.762	355.773	392.206	330.533	159.764	90.760	399.377	0.00016204	0.0014883	0.00069819	809.72	8.5924e-06	8.1894e-06	1008.2	221.65	2.5628e-05	1.6039e-06	303.39	91.889	64.15	19.785	1.0681e-05	30.437	0.014349	0.016698	0.0046643	1056	0.00017856	0.0001834	1264.6	318.66	0.00017812	0.0001829	472.31	142.87	115.74	37.873	0.00017975	55.123	250.237	127.123	158.947	75.103	372.827	295.326	74.750	79.850	213.725	129.602	78.400	83.337	83.825	88.720	313.532	86.984	-8191	255	
2228.145	1	1	0	0	0.16731	0.36903	0.18645	0.22694	0.14803	0.091754	0.26713	0.20836	0.15875	0.1807	0.1934	0.26454	0.12231	0.26498	0.24401	0.12396	-1.3979	-1.5896	-2.2521	-1.775	-1.6542	-2.1208	-1.4542	-2.1792	-1.875	-1.5021	-2.3896	-1.5646	-1.8604	-2.2646	-1.4688	-2.0812	268.610	275.827	357.799	403.276	146.564	297.552	391.229	319.690	148.856	294.140	76.117	413.098	368.910	245.924	180.527	62.775	0.00031127	0.0015823	0.00068754	803.89	8.6522e-06	1.6819e-05	998.74	221.64	1.8917e-05	2.234e-05	301.66	91.44	64.301	19.781	9.066e-06	30.758	0.014494	0.016957	0.00469	1057	0.00018292	0.00019019	1272	322.52	0.00018774	0.00019266	482.13	146.65	119.13	38.985	0.00019129	56.821	201.179	163.975	403.027	74.636	243.062	117.877	75.305	80.048	203.945	147.488	78.280	82.785	83.951	88.922	397.699	87.464	-8191	255	
2228.241	1	1	0	0	0.39696	0.17011	0.22755	0.22217	0.13666	0.19578	0.25699	0.076743	0.30403	0.09491	0.16618	0.076833	0.30765	0.035749	0.1301	0.10582	-1.6146	-1.2417	-2.2125	-1.6875	-1.6417	-2.3458	-1.5938	-2.0896	-2.0125	-1.2979	-2.4313	-1.6771	-1.6021	-2.3625	-1.5583	-1.9833	79.814	238.666	381.964	259.976	314.231	411.825	386.587	391.161	227.758	132.474	143.926	379.639	334.055	374.138	62.894	409.059	0.00012392	0.0028092	0.00090554	808.47	7.988e-06	1.4838e-05	1007.5	222.01	1.2075e-05	1.2176e-05	304.45	91.904	64.582	19.97	1.826e-05	30.845	0.01544	0.01802	0.0050256	1081.6	0.00019541	0.00020154	1298	330.59	0.00019845	0.00020229	494.94	150.18	122.51	40.097	0.0001987	58.333	102.465	128.047	223.591	74.741	421.418	138.737	74.453	79.461	232.793	74.629	78.290	83.185	83.691	88.273	225.388	87.378	-8191	255	
2228.338	1	1	0	0	0.22585	0.065604	0.14652	0.30008	0.095604	0.13422	0.22751	0.26716	0.19435	0.52415	0.10787	0.15904	0.088907	0.1661	0.1995	0.28613	-1.5708	-1.3021	-2.1479	-1.7333	-1.4667	-2.1458	-1.7417	-1.8771	-2.2562	-1.35	-2.3375	-1.9104	-1.4354	-2.1875	-1.4104	-1.8167	229.148	340.857	91.747	329.417	298.635	86.032	405.337	306.903	111.399	77.891	83.096	400.808	237.063	153.115	300.668	387.711	8.3623e-05	0.0018412	0.00077766	813.38	1.3556e-05	2.454e-05	1019.8	224.57	1.8993e-05	1.8921e-05	307.14	93.076	64.36	20.539	7.0825e-06	31.297	0.01594	0.018553	0.0051065	1093.3	0.00019734	0.00020199	1305	332.3	0.00019654	0.00020148	494.97	151.09	122.88	40.324	0.00020002	59.071	92.289	134.403	311.619	74.959	172.464	412.029	74.726	80.017	164.294	282.992	78.442	83.791	84.079	88.413	191.326	87.628	-8191	255	
2228.458	1	1	0	0	0.25947	0.053344	0.14314	0.10714	0.18798	0.088804	0.11054	0.12605	0.026326	0.28279	0.2806	0.25335	0.21964	0.30936	0.18201	0.16018	-1.9375	-1.4167	-1.8625	-1.975	-1.3333	-2.375	-1.6458	-1.6562	-2.3396	-1.4708	-2.0375	-2.1229	-1.4146	-2.2021	-1.7333	-1.7729	355.913	164.797	145.207	107.355	384.908	126.478	318.528	290.011	94.377	124.076	341.675	385.327	99.230	109.905	408.018	341.832	0.00015463	0.0034357	0.0005753	819.43	5.9104e-06	9.6475e-06	1016.4	223.13	3.3413e-06	2.2252e-05	303.65	91.591	65.028	20.054	7.9077e-06	30.759	0.016361	0.019142	0.0053148	1113.1	0.00021042	0.0002163	1332.3	342.7	0.00021511	0.00022153	514.59	156.66	129.19	42.133	0.00022088	61.531	172.826	418.145	234.440	74.998	187.056	71.788	75.047	80.270	306.193	111.119	78.544	83.060	83.289	87.899	64.147	86.809	-8191	255	
2228.554	1	1	0	0	0.20362	0.22435	0.15743	0.3509	0.14147	0.18858	0.26288	0.2594	0.17869	0.23514	0.18482	0.10105	0.19962	0.12091	0.24778	0.019541	-1.8458	-1.4813	-1.9979	-2.2833	-1.1688	-2.2229	-1.8917	-1.3687	-2.3937	-1.3271	-2.0104	-2.1167	-1.3875	-2.0208	-1.8125	-1.4729	172.818	112.579	90.321	409.825	204.688	234.975	72.843	323.189	92.251	139.442	347.808	80.750	254.443	415.589	78.171	118.137	0.00022257	0.001948	0.00064442	799.88	2.6248e-05	1.9601e-05	1006.4	221.26	2.2145e-05	1.1922e-05	301.24	90.283	62.76	19.529	1.2081e-05	30.446	0.017847	0.020673	0.005713	1124.3	0.00022027	0.00022241	1328.8	341.38	0.00021329	0.0002159	502.55	152.21	124.08	40.347	0.00020323	58.235	255.820	206.977	299.621	74.321	214.760	155.978	74.555	79.289	166.522	259.378	77.686	82.769	82.805	88.842	396.380	86.702	-8191	255	
2228.651	1	1	0	0	0.092416	0.20405	0.21216	0.1425	0.1857	0.15045	0.11749	0.20834	0.18505	0.1874	0.038964	0.20799	0.21374	0.20567	0.16462	0.14195	-1.7271	-1.4917	-1.6958	-2.5	-1.325	-1.975	-1.9458	-1.3188	-2.2396	-1.6125	-1.8042	-2.2917	-1.2646	-2.0583	-1.75	-1.3687	282.810	399.861	232.611	310.357	131.755	254.666	284.739	416.799	268.286	172.378	391.184	410.544	316.568	113.972	81.118	239.481	0.00045613	0.0021347	0.00069883	800.07	6.0497e-06	4.3702e-05	994.39	220.03	6.4247e-06	1.9823e-05	298.48	91.218	64.445	19.854	1.0085e-05	30.588	0.016087	0.01848	0.0050914	1077.2	0.00019448	0.0001974	1284	326.17	0.00019178	0.00019666	486.73	147.94	120.62	39.375	0.00019583	57.536	241.917	105.219	107.999	74.610	128.196	329.909	74.196	79.433	173.581	232.348	78.113	82.977	83.407	87.560	178.490	86.198	-8191	255	
2228.745	1	1	0	0	0.065466	0.11653	0.14808	0.18972	0.21797	0.22408	0.020186	0.060788	0.073263	0.034075	0.35702	0.18823	0.30839	0.18456	0.24104	0.084631	-1.8792	-1.6146	-1.5792	-2.4458	-1.45	-2.1896	-2.1813	-1.5396	-2.2479	-1.8729	-1.5438	-2.2438	-1.4062	-1.9458	-2.0229	-1.1542	221.071	170.165	201.118	163.156	165.072	103.652	114.189	190.504	70.486	265.363	394.273	375.008	324.503	316.538	327.618	128.031	0.00030749	0.0029639	0.00093336	808.49	1.4194e-05	1.4739e-05	1016.5	223.42	1.966e-05	2.1983e-05	305.29	93.864	65.011	20.335	6.1385e-06	31.106	0.015552	0.018131	0.0050286	1084.8	0.00019251	0.00019655	1296	328.68	0.00019127	0.00019649	491.72	149.68	121.05	39.538	0.00019504	57.936	204.966	152.944	291.593	74.040	239.537	231.225	74.416	79.429	315.074	243.939	78.023	82.839	83.822	87.652	361.329	86.348	-8191	255	
2228.841	1	1	0	0	0.19036	0.21218	0.1593	0.13086	0.22656	0.10819	0.038206	0.028234	0.15387	0.27296	0.1288	0.2667	0.11016	0.049582	0.21138	0.17633	-1.9208	-1.8167	-1.4438	-2.2479	-1.2396	-1.8375	-2.2562	-1.3375	-2.1083	-1.7042	-1.3146	-2.2333	-1.5021	-1.7479	-1.9438	-1.5187	294.601	175.998	367.802	367.889	331.506	87.247	368.768	123.452	338.165	71.155	85.086	364.542	81.893	266.492	207.714	265.185	0.00024723	0.00086866	0.00066637	814.89	1.8554e-05	4.2056e-05	1019.8	226.82	4.7478e-06	2.9965e-05	308.41	92.663	64.623	20.06	1.4825e-05	31.258	0.015449	0.018105	0.0050357	1093.4	0.00019446	0.00019907	1307.7	333.62	0.00019563	0.00020381	499.4	151.3	123.69	40.585	0.00020424	59.145	166.069	393.009	142.310	74.341	267.835	370.019	74.605	78.937	268.934	258.255	77.808	82.456	83.293	87.844	364.320	86.525	-8191	255	
2228.939	1	1	0	0	0.06798	0.28805	0.27781	0.10153	0.16009	0.34351	0.087008	0.15777	0.11967	0.12417	0.31701	0.36047	0.10611	0.15347	0.062046	0.21885	-1.7437	-1.8896	-1.2521	-2.2208	-1.4667	-1.2938	-2.3646	-1.4042	-1.8396	-1.9688	-1.6354	-2.3521	-1.7104	-1.5292	-2.2958	-1.4625	341.578	223.563	370.751	100.371	309.851	353.796	367.399	341.951	359.531	351.693	362.747	398.306	319.764	220.436	399.855	276.082	0.00026938	0.0030317	0.00046458	806.98	2.2747e-05	3.1648e-05	1001.7	221.24	1.2516e-05	3.8917e-05	301.01	91.045	63.763	19.895	2.1936e-05	30.72	0.016331	0.019135	0.0053322	1098.2	0.00020442	0.00020891	1308.7	334.36	0.00020215	0.00020834	496.7	150.09	122.8	40.165	0.00020134	58.191	206.640	85.350	185.394	73.977	313.022	66.562	74.270	79.166	78.591	130.438	77.819	82.945	83.969	88.175	260.515	86.649	-8191	255	
2229.058	1	1	0	0	0.20799	0.25057	0.19069	0.24821	0.30376	0.17884	0.070578	0.095761	0.23509	0.09307	0.14426	0.16252	0.075495	0.15492	0.12986	0.3646	-1.6875	-1.9229	-1.3146	-2.2042	-1.8042	-1.5854	-2.3792	-1.5146	-1.8438	-2.0854	-1.2938	-2.3958	-1.8021	-1.5021	-2.4146	-1.2833	236.361	368.316	295.861	328.031	69.785	198.462	99.772	181.599	374.281	287.497	303.666	272.155	125.452	141.035	155.693	393.744	0.00034483	0.0021074	0.00049098	801.59	2.6397e-05	9.3393e-06	994.92	221.95	1.972e-05	2.6718e-05	303.07	90.44	63.485	19.864	1.7347e-05	30.596	0.015932	0.018737	0.00517	1082.2	0.00019955	0.00020544	1293.5	330.93	0.00019973	0.00020622	493.19	148.64	122	39.853	0.00019767	57.714	168.902	61.112	66.122	74.263	228.430	331.244	74.360	79.035	408.657	249.738	78.250	82.944	83.534	87.834	290.353	86.586	-8191	255	
2229.154	1	1	0	0	0.18432	0.070905	0.20815	0.34007	0.29445	0.044162	0.29057	0.2988	0.22646	0.024268	0.25424	0.04421	0.29148	0.18462	0.032617	0.065567	-1.4625	-2.0604	-1.375	-2.3021	-1.9562	-1.3687	-2.5667	-1.7167	-1.6021	-2.1979	-1.3771	-2.1562	-1.9813	-1.5729	-2.0521	-1.6229	352.874	89.959	151.140	396.225	276.844	222.087	122.722	317.627	190.340	213.613	116.296	314.872	62.685	412.781	81.558	307.928	0.00039173	0.0020875	0.00033382	799.12	1.0484e-05	1.5943e-05	1002.3	220.52	1.8356e-05	1.7873e-05	301.97	91.217	64.746	19.902	2.4633e-05	30.638	0.015848	0.018436	0.0051225	1080	0.00019858	0.00020301	1295.6	330.48	0.00019675	0.00020287	492.52	149.03	122.46	39.957	0.0001983	58.255	176.894	283.158	345.851	74.376	208.346	255.073	74.393	79.004	290.287	253.666	77.911	82.685	82.866	87.467	325.693	86.914	-8191	255	
2229.250	1	1	0	0	0.13024	0.20469	0.21705	0.058397	0.17592	0.043337	0.26889	0.24314	0.19292	0.10486	0.43534	0.1041	0.23181	0.25104	0.20436	0.18806	-1.2687	-2.075	-1.225	-2.0479	-2.1063	-1.3625	-2.3333	-1.7062	-1.6562	-2.3021	-1.4438	-1.8937	-2.1271	-1.3271	-2.0396	-1.6646	396.295	81.054	265.925	268.029	369.730	104.682	322.930	381.421	172.612	131.531	372.987	260.415	351.047	114.163	230.398	371.648	0.00015768	0.0012122	0.00081752	802.67	1.8809e-05	3.1126e-06	1007.5	224.33	2.5473e-05	2.4513e-06	303.1	92.439	64.924	19.756	8.4596e-06	30.547	0.015982	0.018739	0.0051865	1089.6	0.00020191	0.00020636	1301.5	333.21	0.00019937	0.00020416	494.35	149.66	122.6	39.696	0.00019337	57.376	131.365	287.511	188.083	74.136	232.312	105.017	74.424	78.427	144.677	173.879	77.800	83.135	83.405	88.460	131.087	86.256	-8191	255	
2229.371	1	1	0	0	0.15321	0.035611	0.087274	0.097704	0.21351	0.10775	0.23676	0.43738	0.05501	0.11221	0.17086	0.17287	0.19952	0.28824	0.16369	0.19397	-0.95	-2.2729	-1.325	-1.7563	-2.0458	-1.3583	-2.3833	-1.875	-1.4479	-2.2042	-1.6021	-1.8417	-2.1417	-1.3312	-2.0646	-1.9792	341.131	249.093	248.174	334.794	300.851	334.035	63.161	63.097	140.007	348.664	89.276	363.535	110.440	333.472	306.427	409.451	9.7203e-05	0.0014467	0.00088556	797.94	9.5478e-06	1.9764e-05	998.05	219.59	8.6978e-06	3.3103e-05	297.96	90.444	63.191	19.814	1.6503e-05	30.065	0.015365	0.017636	0.0048567	1061.3	0.00018438	0.00018636	1258.5	318.54	0.00017755	0.00017938	464.03	140.43	114.05	36.964	0.00017044	53.7	187.060	126.786	136.766	74.522	257.304	155.185	74.176	78.936	285.694	92.660	78.067	82.975	82.621	87.705	245.018	86.362	-8191	255	
2229.442	1	1	0	0	0.16702	0.087664	0.23981	0.24879	0.050376	0.26255	0.23712	0.16871	0.43012	0.064214	0.17794	0.067233	0.056428	0.022883	0.26902	0.09403	-1.0187	-2.3792	-1.6583	-1.7875	-2.0854	-1.3062	-1.9958	-1.9542	-1.2958	-2.375	-1.3958	-1.6625	-2.4708	-1.3667	-1.9646	-2.2208	212.270	172.612	247.908	341.690	328.896	178.482	344.673	269.979	65.554	135.466	62.799	225.804	397.634	287.012	357.737	212.776	0.00039921	0.0029097	0.0012201	795.39	1.7947e-05	1.4447e-05	989.01	218.9	2.8821e-06	2.0172e-05	297.07	89.615	63.321	19.632	1.0868e-05	30.07	0.013671	0.015708	0.0043666	1028.5	0.00016748	0.0001688	1222.9	307.64	0.00016203	0.00016357	448.18	135.6	108.72	35.199	0.00015585	51.446	197.020	131.419	111.006	74.351	278.546	316.636	74.502	78.750	70.115	270.158	77.714	82.554	83.453	88.282	272.651	86.446	-8191	255	
2229.539	1	1	0	0	0.35572	0.15761	0.16862	0.44864	0.18995	0.12667	0.28373	0.33808	0.03688	0.16163	0.058706	0.094259	0.19963	0.20883	0.07131	0.30233	-0.97917	-2.2521	-1.7833	-1.5562	-2.1521	-1.5396	-2.1937	-2.0187	-1.25	-2.2479	-1.9271	-1.5292	-2.2271	-1.4521	-1.7354	-2.1771	269.347	237.994	386.656	330.670	113.244	374.477	72.938	390.227	328.178	332.137	380.765	218.334	330.054	93.080	371.242	322.226	7.9164e-05	0.00052745	0.0006927	800.44	2.0997e-05	2.3292e-05	990.79	218.8	1.8923e-05	1.6391e-05	298.94	90.508	64.636	19.62	3.0514e-05	30.144	0.012365	0.014095	0.0039056	1000.5	0.00014892	0.00015209	1198.2	299.34	0.00014852	0.00015239	443.16	135.14	108.82	35.394	0.00015819	52.584	149.561	88.395	322.551	74.337	247.748	287.735	74.734	79.557	155.288	225.003	77.811	83.249	83.439	88.150	205.042	86.419	-8191	255	
2229.635	1	1	0	0	0.3119	0.31324	0.26381	0.28904	0.30809	0.15974	0.22955	0.15186	0.20986	0.15339	0.2932	0.28309	0.098664	0.27028	0.14511	0.25128	-0.87708	-2.0792	-1.8625	-1.6667	-2.2292	-1.575	-1.7104	-2.3354	-1.3417	-2.2042	-2.1063	-1.2771	-2.3583	-1.7437	-1.5208	-2.2313	210.301	206.314	90.215	377.314	264.543	218.388	269.719	301.425	187.118	201.734	416.656	331.109	180.128	280.769	208.376	398.831	0.00046273	0.002485	0.00056687	807.99	1.4197e-05	2.9806e-05	999.35	221.72	1.1977e-05	1.1026e-05	303.42	92.486	64.4	20.25	1.4806e-05	30.453	0.012977	0.015026	0.0042091	1027.3	0.00016166	0.00016501	1230.6	309.53	0.00015918	0.00016163	452.89	137.53	110.04	35.842	0.00016143	53.17	210.880	83.214	140.182	74.270	260.486	74.703	74.230	79.220	197.067	101.823	78.216	82.942	83.440	88.081	303.220	86.717	-8191	255	
2229.754	1	1	0	0	0.14795	0.1972	0.098475	0.10352	0.13862	0.1802	0.2395	0.31517	0.076997	0.11798	0.10926	0.3732	0.25892	0.14115	0.20338	0.052911	-0.97708	-2.0333	-1.9562	-1.5396	-1.9646	-1.7062	-1.675	-2.3417	-1.3875	-2.1208	-2.2708	-1.3646	-2.3583	-1.7125	-1.5083	-2.3854	71.159	369.637	384.826	393.231	365.376	380.303	390.540	338.573	99.071	65.964	219.366	404.847	376.108	82.447	339.800	417.214	0.0002564	0.0014732	0.00039512	799.14	6.8262e-06	3.0907e-06	992.6	219.87	3.5688e-06	2.4946e-05	299.11	90.425	63.757	19.531	1.3066e-05	30.077	0.013431	0.015757	0.0044553	1038.5	0.00016823	0.00017368	1239.5	312.98	0.00016624	0.00016798	454.96	137.7	110.32	36.148	0.00016663	53.534	189.028	153.182	255.133	74.336	271.301	310.620	74.734	78.904	99.250	351.344	77.624	83.115	82.936	86.717	186.746	86.858	-8191	255	
2229.850	1	1	0	0	0.032841	0.2244	0.26544	0.17065	0.18823	0.17079	0.27451	0.21256	0.2233	0.11818	0.077781	0.024938	0.20802	0.21765	0.12174	0.2151	-1.0792	-1.8604	-2.0375	-1.3542	-2.1854	-1.7104	-1.6646	-2.2812	-1.4062	-1.9479	-2.0979	-1.3646	-2.2687	-1.9229	-1.4708	-2.275	206.726	377.105	284.846	388.094	317.782	370.442	370.695	86.162	324.263	142.881	338.343	409.501	234.760	154.964	372.922	377.236	0.00058978	0.0028638	0.0007085	788.61	1.1865e-05	3.0133e-06	979.53	217.55	1.805e-05	8.0738e-06	292.01	88.539	61.996	19.137	1.9937e-05	29.681	0.013868	0.015952	0.0043889	1017	0.00016415	0.00017052	1220.3	306.82	0.00016599	0.0001693	451.31	136.35	109.92	35.95	0.00016569	52.114	197.953	125.860	246.329	74.079	288.801	370.836	74.333	79.199	256.864	394.437	77.626	82.647	83.545	87.828	339.325	86.522	-8191	255	
2229.946	1	1	0	0	0.086374	0.21225	0.098149	0.26723	0.041963	0.24237	0.1079	0.20987	0.17845	0.20084	0.16751	0.22636	0.18255	0.23191	0.35343	0.072252	-1.0896	-1.8583	-2.2583	-1.525	-1.9542	-1.8875	-1.4042	-2.3396	-1.4396	-1.5771	-2.1729	-1.3	-1.9438	-1.9021	-1.3354	-2.0687	293.083	357.017	397.239	327.371	401.195	373.510	86.393	117.144	402.427	262.432	298.917	61.562	157.313	224.043	264.865	92.858	0.00020349	0.0021976	0.0005306	784.19	2.7374e-05	1.1678e-05	975.05	213.16	8.1714e-06	2.6336e-06	293.29	88.032	61.74	19.242	1.0499e-05	29.283	0.013153	0.015339	0.0042815	1009.1	0.0001638	0.00017073	1212.5	304.7	0.00016526	0.00016988	451.38	136.21	109.99	35.921	0.00016643	51.913	225.557	373.344	198.817	74.384	187.720	178.092	74.788	79.075	106.417	217.478	77.958	82.682	83.787	87.420	213.074	86.803	-8191	255	
2230.019	1	1	0	0	0.26832	0.18269	0.12111	0.31354	0.22086	0.081069	0.13426	0.30889	0.11186	0.2301	0.15335	0.42314	0.12227	0.15297	0.18664	0.1829	-1.3042	-1.5417	-2.2083	-1.4125	-1.9062	-2.1021	-1.4646	-2.2708	-1.75	-1.5083	-2.2812	-1.4813	-1.9771	-2.1958	-1.2833	-2.15	193.472	194.339	242.375	363.647	364.472	246.741	402.661	394.507	104.781	350.629	272.211	361.954	297.861	321.511	303.883	369.437	0.00021762	0.0017696	0.00057938	780.39	2.5301e-05	1.8544e-05	975.19	215.07	1.7042e-06	8.4069e-06	289.24	87.818	61.64	18.935	1.5831e-05	29.622	0.013197	0.015288	0.0042292	1004.1	0.00016113	0.00016581	1199.2	295.8	0.00013822	0.00012844	397.24	117.02	87.434	27.247	8.09e-05	39.092	268.958	132.427	270.500	74.505	171.063	232.016	74.538	79.386	237.857	159.948	78.423	83.311	83.348	88.154	281.449	86.751	-8191	255	
2230.138	1	1	0	0	0.11118	0.24556	0.24479	0.27233	0.34509	0.092003	0.17059	0.18136	0.17888	0.22413	0.17659	0.10022	0.093264	0.096732	0.15542	0.1996	-1.425	-1.4312	-2.2292	-1.5063	-1.7938	-2.0896	-1.3208	-1.8375	-1.8146	-1.3917	-2.2188	-1.5938	-1.7896	-2.2396	-1.3958	-1.9062	326.806	76.308	84.887	376.831	271.056	375.773	312.446	306.395	105.572	195.497	67.636	171.432	354.875	216.965	138.268	342.881	0.00023936	0.0010348	0.00023465	773.1	1.0204e-05	2.1112e-05	965.85	212.33	1.8001e-06	1.6868e-05	292.61	88.079	62.329	18.943	1.1903e-06	29.552	0.0060714	0.0068409	0.0018652	852.2	7.2077e-05	7.4808e-05	1042.5	246.77	7.4208e-05	7.5775e-05	352.67	107.67	81.946	26.173	7.5816e-05	39.176	218.725	351.602	89.017	74.171	278.021	246.488	74.536	79.594	261.448	87.084	78.332	83.367	84.069	88.244	416.135	86.984	-8191	255	
2230.234	1	1	0	0	0.013219	0.092422	0.19108	0.19801	0.11222	0.15107	0.15697	0.14145	0.024696	0.26909	0.27181	0.24204	0.1331	0.080865	0.041369	0.17068	-1.4146	-1.4208	-2.2125	-1.5354	-1.6125	-2.2354	-1.3563	-1.9958	-1.8813	-1.1313	-2.2583	-1.6854	-1.4771	-2.1396	-1.3375	-1.9708	408.855	172.931	112.713	410.640	73.427	185.071	324.137	145.355	187.300	360.694	209.669	364.768	249.512	412.005	415.012	344.874	0.00023357	0.0011667	0.00040808	768	1.2571e-05	1.476e-05	949.91	210.65	1.4025e-05	4.533e-06	285.22	87.001	60.975	18.835	9.6827e-06	29.268	0.0062553	0.0072738	0.0020226	858.57	7.9307e-05	8.2045e-05	1044	249.01	8.1269e-05	8.3088e-05	355.28	108.73	83.217	26.826	8.45e-05	40.042	192.506	131.328	175.299	74.566	167.854	353.779	74.772	79.551	229.906	343.574	78.128	82.871	83.801	86.862	328.019	86.815	-8191	255	
2230.331	1	1	0	0	0.10003	0.025576	0.13214	0.35646	0.081789	0.24782	0.1279	0.070086	0.25568	0.041875	0.27684	0.3467	0.31385	0.050787	0.26381	0.25314	-1.7229	-1.3979	-2.0771	-1.8167	-1.4396	-2.2708	-1.8125	-2.0354	-2.2438	-1.325	-2.1375	-2.0312	-1.4771	-2.3083	-1.5354	-1.8458	355.206	304.146	248.881	380.805	189.420	302.965	290.059	179.796	102.547	172.592	72.002	101.330	332.400	292.352	248.372	340.633	0.00017942	0.00030611	0.00015079	765.57	2.3045e-05	5.5919e-06	952.66	209.91	9.6907e-06	2.9901e-05	286.88	87.133	60.013	18.948	8.0575e-06	29.173	0.0069729	0.0080734	0.0022519	867.43	8.8789e-05	9.1268e-05	1056.2	253.87	9.0625e-05	9.3122e-05	365.66	112.4	86.924	28.122	9.7472e-05	42.28	247.765	67.784	107.087	74.584	327.533	216.842	74.814	79.464	253.486	250.671	78.459	82.660	84.133	87.907	143.397	86.661	-8191	255	
2230.451	1	1	0	0	0.25252	0.16412	0.19573	0.30455	0.015069	0.1019	0.31571	0.13715	0.023466	0.080868	0.18202	0.047753	0.10246	0.12024	0.3083	0.11405	-1.7896	-1.3604	-2.2313	-1.9667	-1.3646	-2.1479	-1.625	-1.7542	-2.3208	-1.0458	-2.0854	-1.9354	-1.2521	-2.1542	-1.4688	-1.5354	363.264	180.919	96.768	391.826	373.112	177.084	375.212	74.144	224.328	418.726	329.898	99.517	123.851	103.913	276.789	116.200	9.9622e-05	0.0002194	0.00017471	765.54	1.2446e-05	1.2534e-05	955.59	210.01	8.0849e-06	1.5871e-05	289.82	87.866	62.163	19.033	4.0309e-06	29.899	0.0080647	0.0094029	0.0026301	893.39	0.0001026	0.0001048	1084.7	263.4	0.00010393	0.00010624	382.88	117.15	91.364	29.522	0.00010841	44.215	154.516	261.910	221.481	74.468	321.475	97.641	75.015	79.611	262.433	409.588	78.064	83.233	83.823	88.866	214.146	87.350	-8191	255	
2230.547	1	1	0	0	0.14216	0.16339	0.10611	0.019059	0.10551	0.24725	0.35255	0.34098	0.29584	0.19153	0.077298	0.40556	0.23497	0.26685	0.34086	0.25708	-1.8333	-1.2542	-2	-2.0083	-1.2917	-2.0771	-1.7938	-1.575	-2.3438	-1.7125	-1.9917	-2.2062	-1.3354	-1.9104	-1.7021	-1.3375	102.401	260.398	328.762	317.018	144.367	72.562	327.255	111.615	400.763	164.936	322.090	368.752	421.164	370.347	95.236	400.628	0.0003229	0.0013801	0.00016458	775.61	5.3359e-07	1.2245e-05	963.81	215.98	1.1003e-05	2.3523e-05	293.69	89.914	63.683	19.637	1.7305e-05	29.98	0.0088658	0.010286	0.0028763	916.93	0.00011198	0.00011354	1112	271.8	0.00011086	0.00011319	392.84	120.24	93.583	30.052	0.00010989	44.591	214.479	261.438	149.566	74.309	82.482	147.846	74.614	79.977	324.887	154.915	78.399	83.049	83.255	87.545	248.358	86.162	-8191	255	
2230.642	1	1	0	0	0.11328	0.087125	0.15528	0.035716	0.32842	0.10018	0.13272	0.26659	0.39944	0.083289	0.045102	0.16694	0.099193	0.17914	0.082547	0.14756	-1.9	-1.4542	-1.7646	-2.1625	-1.2396	-1.9188	-1.6479	-1.475	-2.1333	-1.525	-1.8292	-2.4125	-1.5208	-1.9333	-1.9875	-1.5542	419.276	380.457	217.913	367.154	364.245	127.349	369.598	69.273	415.259	246.486	119.458	243.263	326.447	122.712	418.608	389.688	0.00041469	0.0021209	0.00010914	784.26	7.9474e-07	1.1859e-05	975.34	215.9	1.8124e-05	1.3609e-05	292.76	89.696	62.641	19.562	2.2666e-05	30.003	0.0087143	0.010103	0.0027965	919.15	0.00010713	0.00010882	1111.3	270.93	0.00010739	0.00010934	389.33	118.58	92.202	29.678	0.0001068	43.852	184.109	63.134	204.913	74.218	149.837	300.785	74.698	79.585	261.322	353.448	78.848	82.774	83.823	87.972	290.210	86.936	-8191	255	
2230.740	1	1	0	0	0.093132	0.11956	0.16277	0.32311	0.18043	0.1679	0.17812	0.16178	0.12628	0.22459	0.094195	0.084931	0.26033	0.23508	0.23406	0.31767	-1.8937	-1.7042	-1.5042	-2.35	-1.3542	-1.9	-2.0354	-1.4438	-2.1479	-1.8896	-1.5667	-2.3708	-1.3188	-2.0792	-1.9833	-1.3083	277.361	64.512	354.141	407.296	188.880	151.088	345.025	343.710	126.329	141.298	288.828	319.902	160.213	404.215	107.236	83.179	0.00025144	0.00075283	0.00029171	780.42	1.1783e-05	1.3822e-05	969.46	214.48	1.8805e-05	7.4581e-06	293.4	88.406	62.211	19.249	6.0083e-07	29.458	0.0084029	0.0097318	0.0027021	907.14	0.00010248	0.00010504	1095.2	265.6	0.00010135	0.00010504	383.1	116.4	90.278	28.959	0.00010239	42.993	206.035	174.347	272.501	74.926	328.589	228.899	74.818	79.549	201.334	218.384	78.392	83.054	83.365	87.218	76.615	86.427	-8191	255	
2230.834	1	1	0	0	0.27358	0.071083	0.14028	0.17729	0.19544	0.096633	0.24471	0.062387	0.10434	0.1674	0.24534	0.16264	0.35525	0.085853	0.097471	0.23588	-1.6562	-1.6771	-1.5187	-2.3292	-1.2437	-1.6708	-2.1188	-1.4792	-2.0667	-1.6792	-1.6187	-2.3833	-1.5479	-1.5979	-2.3479	-1.3583	409.711	148.907	167.234	253.359	337.808	220.941	406.392	204.467	362.136	201.059	323.413	248.552	390.793	305.952	144.314	355.685	0.00019881	0.00080615	0.0004593	782.67	1.9116e-05	1.9568e-05	964.82	214.09	5.1632e-06	1.869e-05	292.12	89.182	62.932	19.277	1.2309e-05	30.015	0.0080679	0.0094712	0.0026311	904.88	0.0001017	0.00010401	1096.7	265.57	0.0001006	0.0001038	382.76	116.38	90.769	29.213	0.00010165	43.43	218.138	130.507	198.665	74.693	392.458	131.369	74.562	79.315	88.338	200.171	78.217	83.026	83.370	87.931	207.090	87.282	-8191	255	
2230.930	1	1	0	0	0.082975	0.31399	0.13577	0.2356	0.15391	0.14303	0.15115	0.02061	0.11956	0.067877	0.15643	0.24383	0.30784	0.12033	0.10621	0.097822	-1.5333	-1.8146	-1.2271	-2.2667	-1.7208	-1.65	-2.3917	-1.4562	-1.9708	-1.925	-1.5521	-1.9854	-1.6167	-1.6187	-2.2104	-1.1042	407.864	198.412	364.168	130.900	122.550	224.018	303.791	129.397	302.133	270.635	64.880	65.229	401.471	77.039	172.661	321.787	0.00028045	0.0012365	0.00031425	793.45	9.5933e-06	2.2377e-05	982.78	218.48	5.1936e-06	5.9102e-06	294.11	90.771	63.177	19.774	1.3225e-05	30.189	0.0081786	0.0095684	0.0026533	912.78	0.00010209	0.00010491	1109.2	268.85	0.00010081	0.00010459	386.17	118.02	91.594	29.517	0.0001014	43.733	257.400	294.892	387.020	74.506	133.425	74.231	74.383	79.306	290.326	104.963	78.124	82.748	83.097	87.762	148.841	86.285	-8191	255	
2231.051	1	1	0	0	0.1083	0.13848	0.12231	0.11072	0.087788	0.22047	0.27416	0.22049	0.2359	0.24484	0.181	0.1113	0.1181	0.29051	0.10426	0.11093	-1.5083	-1.7771	-0.99792	-2.4021	-1.6521	-1.4833	-2.3708	-1.3625	-1.65	-2.0896	-1.3583	-2.1917	-1.8896	-1.4042	-2.1667	-1.45	385.580	206.683	336.274	332.038	333.579	211.148	308.111	360.251	211.733	347.062	144.409	337.641	64.105	361.646	384.560	124.603	0.00036246	0.00056362	0.00043133	799.1	3.4813e-06	1.1673e-05	998.48	220.97	6.3324e-06	2.0282e-05	300.35	91.322	64.065	19.912	1.2469e-05	30.533	0.008124	0.0095891	0.002644	923.31	0.00010291	0.00010483	1121.3	272.11	0.00010176	0.00010541	389.66	118.58	92.369	29.776	0.00010275	43.936	234.883	136.277	139.802	74.550	165.804	239.542	74.642	79.062	235.106	343.795	78.026	82.964	83.781	87.896	109.586	86.416	-8191	255	
2231.147	1	1	0	0	0.22316	0.28091	0.33392	0.25506	0.12419	0.27832	0.27209	0.088151	0.19821	0.25548	0.1988	0.12487	0.098178	0.1591	0.090819	0.24769	-1.3333	-2.1188	-1.0583	-2.1104	-1.675	-1.2812	-2.3479	-1.4937	-1.6021	-2.2792	-1.3354	-2.0083	-1.7167	-1.2042	-2.2188	-1.625	352.693	184.925	382.726	268.512	140.169	107.466	346.677	352.713	172.831	74.915	387.445	311.334	258.330	97.207	208.247	390.138	0.00033467	0.00095322	0.00012807	804.71	9.3948e-06	6.5176e-06	987.67	220.08	9.0833e-06	1.1519e-05	296.66	89.966	63.668	19.502	5.8842e-06	30.216	0.0082973	0.0096457	0.0026751	926.65	0.00010312	0.00010548	1115.7	271.26	0.00010221	0.00010525	387.64	117.97	91.777	29.591	0.00010284	43.742	210.638	165.513	299.156	74.490	200.012	274.840	74.293	79.256	221.877	128.405	77.595	83.557	83.423	88.142	187.825	86.813	-8191	255	
2231.243	1	1	0	0	0.23368	0.13782	0.183	0.23301	0.059347	0.23371	0.16793	0.30204	0.27892	0.1419	0.028931	0.21662	0.22143	0.14595	0.29927	0.2854	-1.3188	-1.9896	-1.3229	-1.8062	-1.8083	-1.2854	-2.3187	-1.6042	-1.4917	-2.1708	-1.425	-1.7479	-1.9229	-1.2938	-2.1063	-1.6583	294.150	377.434	254.732	411.172	349.889	117.481	311.953	359.806	278.893	262.535	223.811	386.185	399.834	396.053	177.245	392.075	0.00037268	0.000535	0.00024358	796.47	1.6802e-05	1.1969e-05	993.16	219.32	9.5652e-06	1.0678e-05	296.23	89.867	63.902	19.643	6.3404e-06	30.097	0.0083307	0.0096582	0.0026831	922.77	0.00010401	0.00010578	1114.1	270.24	0.00010326	0.00010506	387.38	118.37	92.47	29.641	0.00010363	43.82	204.983	178.648	150.369	74.220	123.992	413.143	74.759	79.642	62.140	259.438	78.335	83.140	83.598	88.053	307.906	86.475	-8191	255	
2231.315	1	1	0	0	0.40953	0.25526	0.17993	0.080083	0.18943	0.21087	0.097376	0.45379	0.20436	0.18395	0.029417	0.21195	0.23156	0.17278	0.12285	0.15951	-1.125	-1.8396	-1.3292	-1.9062	-2.0792	-1.0271	-2.275	-1.6375	-1.3625	-2.2708	-1.5333	-1.4646	-2.1292	-1.0708	-1.9354	-1.9417	127.591	400.344	410.361	253.903	83.174	180.587	208.783	377.912	315.822	420.429	196.436	363.344	391.830	115.610	122.410	98.566	0.00021064	0.00075503	0.00029668	801.55	3.6721e-06	1.86e-05	991.33	218.7	1.249e-05	1.0998e-05	295.95	90.387	64.032	19.789	8.8022e-06	30.435	0.0084087	0.0096852	0.0026941	923.13	0.00010324	0.00010516	1111.6	270.11	0.00010248	0.00010422	388.7	118.33	92.407	29.594	0.00010215	43.862	213.334	193.620	143.397	74.567	267.694	129.576	74.889	79.499	246.216	354.465	78.237	83.047	83.764	88.116	346.213	86.444	-8191	255	
2231.435	1	1	0	0	0.084854	0.32875	0.18907	0.091528	0.16344	0.047816	0.41036	0.22696	0.04004	0.038817	0.18558	0.18428	0.063683	0.12223	0.16984	0.15472	-1.0146	-2.1208	-1.4375	-1.6083	-1.9979	-1.3312	-1.8917	-1.8417	-1.2521	-2.325	-1.6021	-1.6042	-2.0438	-1.2583	-1.7625	-2.1479	207.661	171.732	311.483	94.856	151.668	415.028	353.119	353.842	317.701	243.505	206.245	313.449	260.114	143.513	387.237	373.897	0.00038986	0.0022353	7.8927e-05	807.9	1.0802e-05	1.4236e-05	997.81	221.98	6.0926e-06	1.4325e-05	305.06	91.942	64.858	19.963	1.4795e-05	30.6	0.0082436	0.0094585	0.0026365	928.24	0.00010035	0.00010182	1115.7	270.12	9.5607e-05	9.6816e-05	383.45	116.67	90.247	28.856	9.1611e-05	42.764	136.058	65.455	122.303	74.428	131.920	247.839	74.326	79.575	277.793	394.689	78.442	83.130	83.541	88.147	261.556	87.244	-8191	255	
2231.532	1	1	0	0	0.18959	0.21142	0.1542	0.38659	0.17548	0.16296	0.15097	0.1297	0.14982	0.12258	0.29539	0.15833	0.18945	0.14849	0.18857	0.080031	-0.79792	-2.1917	-1.4604	-1.5688	-1.9896	-1.1771	-2.0167	-2.1125	-1.3854	-2.0062	-1.9542	-1.6146	-2.4	-1.3083	-1.7458	-2.1667	270.223	120.691	324.742	254.031	244.951	373.634	64.000	191.854	358.504	194.251	328.085	231.905	198.190	302.534	373.130	116.454	0.00028089	0.00047591	4.2396e-05	814.71	2.1477e-05	2.9876e-05	1005.7	224.45	2.623e-05	2.4679e-05	302.71	92.446	64.531	19.915	1.7167e-06	30.483	0.007413	0.0085608	0.002409	922.66	9.3156e-05	9.5742e-05	1115	269.62	9.2993e-05	9.42e-05	381.87	115.92	89.47	28.617	9.0753e-05	42.192	193.062	308.232	397.695	74.733	222.933	150.490	74.815	79.496	229.215	96.831	78.455	82.972	84.137	87.520	371.342	86.822	-8191	255	
2231.628	1	1	0	0	0.10374	0.18554	0.13704	0.20832	0.082096	0.073379	0.34877	0.30796	0.15766	0.1113	0.0083365	0.18154	0.10131	0.3231	0.055658	0.0831	-1.0104	-1.9833	-1.8208	-1.2792	-2.0458	-1.5667	-1.8062	-2.0396	-1.0896	-2.025	-2.05	-1.4979	-2.0792	-1.6313	-1.6042	-2.1146	230.712	61.323	398.889	120.463	388.471	398.679	377.264	109.544	61.458	298.012	344.469	216.258	247.420	73.456	157.474	90.907	0.00031617	0.00089135	0.00051872	810.37	1.4603e-05	1.239e-05	1001.6	221.26	1.9546e-05	2.1042e-05	298.82	91.169	64.418	19.933	1.0646e-05	30.33	0.0072489	0.0083446	0.0023431	912.97	8.9886e-05	9.2353e-05	1103.6	266.59	9.1796e-05	9.4493e-05	380.45	116.02	89.786	28.869	9.4718e-05	42.735	186.252	218.279	220.899	74.759	281.514	212.896	75.082	79.207	389.334	125.351	78.154	83.362	83.906	87.600	296.445	86.870	-8191	255	
2231.722	1	1	0	0	0.2046	0.13557	0.22139	0.22183	0.11318	0.24248	0.32232	0.24977	0.30201	0.21218	0.31254	0.22216	0.23595	0.28105	0.11032	0.19514	-0.85625	-1.8271	-1.9708	-1.325	-2.1958	-1.5979	-1.5917	-2.1042	-1.4146	-1.8979	-2.1271	-1.2667	-2.1583	-1.7146	-1.3583	-2.3	284.296	206.827	135.788	373.148	368.622	300.305	394.471	348.265	356.506	212.759	305.103	398.500	62.674	306.864	88.756	76.959	0.00014637	0.0021107	0.00027994	811.82	8.3293e-06	4.4081e-06	998.09	221.79	4.1565e-06	1.0826e-05	297.86	90.637	63.998	19.932	3.4777e-06	30.699	0.0076209	0.0087793	0.0024742	917.81	9.3824e-05	9.6549e-05	1106.6	266.94	9.351e-05	9.483e-05	380.37	115.87	89.588	28.892	9.4531e-05	42.818	214.803	408.447	66.009	75.198	245.861	261.158	75.221	79.635	141.470	190.946	78.354	83.356	84.121	88.323	107.766	86.532	-8191	255	
2231.843	1	1	0	0	0.13516	0.15093	0.21174	0.28063	0.090742	0.35141	0.21696	0.091508	0.19078	0.12833	0.11762	0.13145	0.25327	0.19029	0.24604	0.12322	-1.1167	-1.7333	-2.0833	-1.1854	-2.0229	-1.7042	-1.5187	-2.2479	-1.3687	-1.5292	-2.0896	-1.3292	-1.9688	-1.8083	-1.2792	-2.2271	159.163	157.701	411.017	80.554	251.994	116.752	389.841	377.581	346.777	256.437	225.883	353.904	368.781	400.355	322.218	353.529	0.0003469	0.0018596	0.00048388	807.4	1.0981e-05	2.1006e-05	1007.8	224.73	9.8122e-06	2.7321e-05	301.04	92.253	65.28	20.262	4.4158e-06	31.406	0.0076088	0.0088725	0.0025037	921.26	9.5576e-05	9.8813e-05	1119.5	270.36	9.5311e-05	9.7319e-05	385.96	117.39	90.792	29.187	9.2984e-05	43.042	226.650	332.379	411.643	74.686	95.498	286.198	74.734	79.569	264.142	175.319	77.838	83.428	84.065	88.331	312.967	86.863	-8191	255	
2231.914	1	1	0	0	0.14721	0.063016	0.19572	0.17231	0.071975	0.1794	0.2682	0.30205	0.24647	0.068217	0.36858	0.19057	0.18586	0.16276	0.10526	0.086344	-1.1375	-1.6271	-2.1271	-1.3083	-1.9792	-1.9146	-1.4604	-2.3292	-1.5625	-1.5438	-2.175	-1.3438	-1.8833	-1.9146	-1.2	-2.1188	75.421	253.958	304.152	312.803	148.508	181.658	117.523	85.734	284.631	323.366	379.667	329.175	120.620	140.773	113.605	393.950	0.00021061	0.0018746	0.00031881	821.73	1.6538e-05	1.5129e-05	1014.2	225.31	8.0075e-06	2.6392e-05	305.35	94.249	66.676	20.562	5.8508e-06	31.138	0.007339	0.0084394	0.0023352	921.82	8.8945e-05	9.2131e-05	1115.5	268.98	8.893e-05	9.1164e-05	381.27	116.77	89.856	28.911	8.9341e-05	42.662	196.017	293.063	156.368	75.097	245.553	146.621	74.891	79.629	170.633	222.908	78.748	83.361	84.372	88.753	293.985	87.221	-8191	255	
2232.011	1	1	0	0	0.15934	0.12025	0.032101	0.46201	0.19409	0.080144	0.14334	0.18068	0.16258	0.13869	0.14714	0.065483	0.20794	0.21675	0.36556	0.11943	-1.3375	-1.4417	-2.1375	-1.5167	-1.9562	-2.0812	-1.5938	-2.2354	-1.7729	-1.4833	-2.3	-1.4979	-1.7792	-2.0771	-1.2646	-2.1625	352.007	103.594	255.200	368.064	337.877	109.353	287.831	242.948	218.780	317.401	278.213	417.383	287.932	324.269	113.002	208.691	0.00036565	0.00095387	0.00049906	821.96	1.0996e-05	1.439e-05	1010.3	226.24	1.2293e-05	6.7026e-06	303.61	92.803	65.643	20.11	1.2329e-05	30.82	0.0071781	0.0082861	0.0023086	918.16	8.8154e-05	9.1138e-05	1107.5	266.98	8.843e-05	9.054e-05	377.88	115.35	88.879	28.554	8.845e-05	42.13	233.607	315.400	325.193	74.721	158.319	392.565	74.899	79.767	392.391	405.876	78.540	83.653	83.986	88.517	394.234	87.304	-8191	255	
2232.131	1	1	0	0	0.087568	0.26795	0.11328	0.16096	0.20591	0.11031	0.19086	0.16368	0.11177	0.22625	0.12535	0.21476	0.12899	0.1524	0.15456	0.18783	-1.3854	-1.3417	-2.2292	-1.6667	-1.7687	-2.0104	-1.5708	-2.1646	-1.7917	-1.2042	-2.3833	-1.55	-1.5958	-2.1917	-1.4312	-1.8875	340.544	271.729	144.812	375.353	283.460	195.214	381.624	77.957	347.998	152.013	220.793	171.685	380.612	91.105	74.327	305.476	0.0005058	0.0022752	0.00017713	810.92	9.1088e-06	2.2453e-05	1003.9	224.96	1.7272e-06	2.4735e-05	301.66	92.508	65.161	20.06	2.3836e-05	30.897	0.0071782	0.0083158	0.0023099	912.25	8.9203e-05	9.1524e-05	1100.4	266.43	9.0927e-05	9.2683e-05	379.44	115.85	89.825	28.81	9.2009e-05	42.636	166.580	128.347	149.488	74.909	185.522	283.422	75.020	79.889	339.686	154.093	78.964	83.642	84.034	89.071	156.575	87.668	-8191	255	
2232.227	1	1	0	0	0.040635	0.19483	0.10966	0.23549	0.22106	0.022146	0.17198	0.13989	0.19689	0.15728	0.16545	0.17861	0.19369	0.32525	0.14818	0.22897	-1.5688	-1.2229	-2.1333	-1.6417	-1.3292	-2.2771	-1.2417	-1.9333	-1.8813	-1.2687	-2.3708	-1.6354	-1.4958	-2.3187	-1.2458	-1.9896	69.538	312.043	143.256	99.852	357.997	174.908	324.970	102.768	126.717	191.369	99.815	93.453	380.902	309.525	243.914	330.482	0.00028802	0.0017343	0.00035134	809.4	6.6497e-06	1.2921e-05	1000.4	222.96	2.9899e-06	2.1934e-05	303.4	91.917	65.621	20.282	1.2827e-05	31.272	0.0075431	0.0087092	0.0024116	918.92	9.4054e-05	9.6916e-05	1112	269.69	9.6547e-05	9.8085e-05	385.94	118.19	91.895	29.603	9.8367e-05	44.004	187.149	343.797	348.021	75.099	341.329	277.827	75.215	80.322	323.031	267.299	78.962	83.484	84.016	88.107	200.619	87.979	-8191	255	
2232.323	1	1	0	0	0.13612	0.10992	0.069599	0.10261	0.12455	0.13944	0.25215	0.11014	0.13797	0.090776	0.18767	0.096521	0.08423	0.28077	0.055171	0.23069	-1.4917	-1.4146	-2.2833	-1.8333	-1.4521	-2.1458	-1.5	-1.8729	-2.3063	-1.1958	-2.2687	-1.6521	-1.2792	-2.225	-1.3188	-1.6562	308.015	128.387	104.033	363.071	241.223	373.385	345.878	386.446	366.023	241.131	297.672	134.285	152.321	362.155	383.637	343.666	0.00019554	0.0011852	0.00036303	814.32	5.0737e-06	6.2966e-06	1011.7	227.01	7.3607e-06	1.5781e-05	305.13	93.453	66.106	20.485	4.431e-06	31.387	0.0080005	0.0093122	0.0025959	932.81	0.0001008	0.0001027	1129	274.76	0.00010011	0.00010162	391.4	119.82	92.671	29.745	9.8355e-05	43.758	157.311	88.344	389.797	75.099	101.123	147.434	75.220	80.064	74.026	194.473	78.911	83.264	84.424	88.122	256.897	87.025	-8191	255	
2232.420	1	1	0	0	0.17973	0.18092	0.21877	0.18422	0.24057	0.16834	0.14553	0.22303	0.33813	0.22289	0.060665	0.14414	0.048091	0.083072	0.11044	0.062981	-1.6083	-1.3312	-1.9958	-2.0083	-1.1	-2.4521	-1.5771	-1.5542	-1.9562	-1.5125	-2.2292	-2.0979	-1.2208	-2.0312	-1.5458	-1.425	99.503	244.927	208.619	94.000	127.629	229.391	280.481	92.465	403.478	235.174	317.897	170.890	124.922	363.427	307.647	297.508	0.00014855	0.001199	5.6631e-05	810.37	7.811e-06	4.9387e-06	1007	224.23	3.2907e-06	1.219e-05	304.39	92.036	65.358	20.478	7.019e-06	31.192	0.0077583	0.0088371	0.0024096	922.74	9.1738e-05	9.2948e-05	1107.7	266.71	8.9105e-05	9.0943e-05	379.05	116.1	89.349	28.737	9.0525e-05	42.735	205.763	142.729	121.352	75.422	165.387	222.091	75.150	79.833	297.497	172.600	78.883	83.757	83.988	88.529	203.621	87.070	-8191	255	
2232.540	1	1	0	0	0.18808	0.16306	0.29766	0.33277	0.34975	0.034331	0.17974	0.119	0.063261	0.22989	0.19268	0.28098	0.13343	0.17863	0.17287	0.11565	-1.8	-1.25	-1.8792	-2.0479	-1.1771	-2.0146	-1.6271	-1.1833	-2.0875	-1.45	-1.8271	-1.9833	-1.1771	-2.1937	-1.7104	-1.4479	405.546	124.112	119.166	98.011	295.996	156.730	298.273	206.131	65.238	188.588	405.437	354.810	398.982	225.564	183.531	166.676	0.00038406	0.0015353	0.00057039	808.81	1.5249e-05	1.3254e-05	1003	222.96	2.2936e-05	3.9876e-06	302.24	91.866	64.891	20.275	1.1184e-05	30.879	0.0072827	0.0084723	0.0023698	916.02	9.2005e-05	9.3859e-05	1108.5	268.21	9.3861e-05	9.6595e-05	383.99	117.31	91.122	29.375	9.8623e-05	43.618	233.625	268.055	209.741	74.999	275.159	140.325	75.274	79.782	166.757	180.536	79.016	84.021	83.881	88.729	156.251	87.156	-8191	255	
2232.612	1	1	0	0	0.043883	0.17077	0.067644	0.089524	0.15305	0.23742	0.13868	0.10272	0.13515	0.041299	0.21072	0.14191	0.13734	0.1152	0.28693	0.15204	-1.8687	-1.4083	-1.7021	-2.1042	-1.1083	-2.0625	-1.9208	-1.3771	-2.1	-1.4229	-1.6646	-2.1063	-1.2979	-1.9583	-1.8917	-1.4917	252.664	185.629	238.145	130.608	363.145	254.633	373.357	352.196	260.264	290.223	410.473	217.804	320.445	373.469	292.167	132.411	0.00012012	0.0017767	0.00026163	803.61	6.2257e-06	7.4355e-06	994.21	222.15	1.4254e-05	2.0446e-05	301.87	91.419	64.117	20.138	1.1083e-05	30.651	0.0078761	0.0091872	0.0025469	921.92	9.7816e-05	9.9384e-05	1108.4	268.27	9.4542e-05	9.6343e-05	381.26	115.86	89.134	28.635	9.1547e-05	42.34	274.450	191.776	284.095	74.446	362.270	218.568	74.349	79.162	151.100	68.299	78.191	82.992	83.623	87.724	204.460	86.566	-8191	255	
2232.733	1	1	0	0	0.15675	0.20739	0.10771	0.023457	0.051751	0.30276	0.10083	0.076068	0.23244	0.092154	0.28869	0.072977	0.06383	0.3292	0.26847	0.043841	-1.8125	-1.5688	-1.5938	-1.9958	-1.3354	-1.9562	-2.1396	-1.3188	-2.0583	-1.5729	-1.4958	-2.2521	-1.2875	-1.9292	-2.2354	-1.1792	358.006	116.940	196.003	231.728	178.131	226.993	312.177	389.551	319.338	183.932	329.876	128.740	119.982	298.228	227.002	406.055	0.00018181	0.00083232	0.00046044	813.84	7.4773e-06	2.4349e-05	1009.9	224.37	2.1241e-05	4.5895e-06	300.56	92.729	65.304	20.144	8.8788e-06	31.082	0.0071671	0.0083607	0.0023287	912.57	8.8685e-05	9.0152e-05	1102.4	264.91	8.5567e-05	8.772e-05	374.51	114.18	87.811	28.064	8.4105e-05	41.609	199.757	166.341	198.039	74.250	115.876	241.891	74.264	79.098	223.163	212.729	77.614	83.254	82.941	87.763	264.724	86.291	-8191	255	
2232.827	1	1	0	0	0.59372	0.066545	0.1126	0.38281	0.033394	0.10391	0.31357	0.18853	0.079077	0.15927	0.35914	0.19634	0.23368	0.23117	0.227	0.091632	-1.6396	-1.5979	-1.4354	-2.1625	-1.1521	-1.7458	-2.1729	-1.1333	-1.8396	-1.8771	-1.4979	-2.2562	-1.4521	-1.7583	-2.0125	-1.3021	203.659	61.663	401.517	378.071	145.611	286.145	301.181	151.904	135.676	231.736	412.821	389.886	344.390	323.832	281.776	75.620	0.0004509	0.00097415	0.0007793	824.63	5.9852e-06	1.7227e-05	1025.5	227.23	8.4844e-06	8.1159e-06	306.11	93.617	65.977	20.533	8.3409e-06	31.335	0.0066338	0.0077521	0.002145	915.39	8.2122e-05	8.3757e-05	1106.3	265.38	8.0327e-05	8.2644e-05	374.19	114.06	87.655	27.903	8.0671e-05	41.458	265.930	413.887	163.634	74.142	136.211	203.662	74.557	78.961	253.264	137.736	77.559	82.584	83.576	87.625	267.548	86.371	-8191	255	
2232.923	1	1	0	0	0.16111	0.11845	0.39262	0.034205	0.23736	0.092694	0.14804	0.18261	0.18787	0.16139	0.045869	0.14894	0.31672	0.085748	0.053618	0.069583	-1.6417	-1.8271	-1.2729	-2.1771	-1.5958	-1.6167	-1.95	-1.325	-1.8188	-1.7062	-1.2583	-2.2313	-1.6521	-1.7229	-2.1146	-1.3479	295.155	66.049	363.924	65.349	298.888	201.847	353.348	348.618	94.897	117.738	172.157	332.851	376.049	227.072	148.716	111.861	0.00022956	0.00055758	0.0002906	829.24	2.8628e-06	9.01e-06	1020	225.69	8.6092e-06	8.3577e-06	304.11	93.509	66.184	20.283	2.4777e-06	30.88	0.006479	0.0076266	0.0020981	916.34	8.2907e-05	8.5043e-05	1107.4	266.78	8.3651e-05	8.6867e-05	377.14	115.34	89.278	28.489	8.7578e-05	42.052	206.743	137.770	408.831	74.104	75.935	311.427	74.218	78.964	371.812	183.403	77.833	82.625	83.548	87.676	316.297	86.145	-8191	255	
2233.019	1	1	0	0	0.10098	0.2454	0.22458	0.25542	0.25807	0.078539	0.1466	0.16427	0.12908	0.13845	0.27667	0.15653	0.091096	0.57269	0.30862	0.2867	-1.4104	-1.8	-1.1792	-2.0833	-1.6167	-1.3833	-2.4583	-1.2958	-1.7437	-1.9542	-1.4708	-2.0542	-1.6021	-1.4875	-2.2104	-1.3813	256.407	305.397	171.543	368.309	170.451	306.684	368.203	403.382	144.561	108.057	256.239	309.844	259.596	103.834	196.701	289.027	0.00014603	0.00065782	0.00052036	823.63	1.0685e-05	1.7174e-05	1003.2	225.78	5.554e-06	2.085e-05	305.31	92.235	65.126	20.156	1.0833e-05	30.797	0.0070648	0.0083284	0.0023251	922.95	8.935e-05	9.2146e-05	1108.6	268.93	8.9499e-05	9.1987e-05	380.83	115.78	89.957	28.72	8.9594e-05	42.359	179.858	113.976	200.367	74.360	208.567	241.707	74.035	78.811	197.985	222.181	77.553	83.077	83.248	87.881	263.301	85.766	-8191	255	
2233.140	1	1	0	0	0.24099	0.32632	0.074261	0.13554	0.10892	0.085206	0.26105	0.091864	0.23181	0.41	0.068168	0.10451	0.12599	0.21549	0.25567	0.31436	-1.3583	-2.2104	-1.1313	-2.2458	-1.8062	-1.325	-2.1458	-1.5271	-1.5438	-2.1708	-1.1458	-2.15	-1.6917	-1.2729	-1.9062	-1.4104	390.143	150.967	192.212	333.638	90.890	279.582	404.039	391.514	318.783	65.278	129.406	382.902	171.732	330.344	329.340	345.330	0.00030596	0.0003335	0.00047603	813.26	1.6699e-05	6.952e-06	1005.2	224.75	1.1975e-05	9.9374e-06	302.39	92.423	65.364	20.061	1.2537e-05	31.03	0.0072504	0.0084384	0.0023301	919.06	9.0296e-05	9.1764e-05	1107.3	268.12	9.007e-05	9.2791e-05	381	116.1	90.062	28.84	9.086e-05	42.684	180.209	158.447	183.865	74.275	236.944	150.423	74.289	78.741	189.828	178.830	77.416	82.721	83.129	87.760	153.429	86.022	-8191	255	
2233.212	1	1	0	0	0.052365	0.19396	0.14166	0.15665	0.28252	0.091873	0.10781	0.2377	0.31403	0.2593	0.1844	0.10325	0.27471	0.22577	0.060491	0.15346	-1.1021	-2.1396	-1.2771	-2.0021	-1.8958	-1.5021	-2.1479	-1.6333	-1.3563	-2.1229	-1.2833	-1.9104	-1.9896	-1.2062	-2.0479	-1.7667	236.084	90.073	160.822	80.825	297.034	380.552	247.396	314.191	91.852	64.142	165.435	383.107	407.763	326.562	126.113	246.332	0.00037225	0.0016858	0.00053646	810.21	2.7135e-06	1.0955e-05	1004.2	224.54	5.6728e-06	9.7391e-07	300.27	91.998	65.659	20.266	9.2354e-06	30.804	0.0073077	0.0085133	0.0023418	915.19	8.9316e-05	9.0602e-05	1100.8	266.07	8.7112e-05	8.9705e-05	378.04	115.58	89.874	28.871	9.2366e-05	43.043	185.452	174.163	328.343	74.186	350.750	308.217	74.535	78.922	269.103	72.570	77.684	82.485	83.583	87.854	170.258	86.195	-8191	255	
2233.308	1	1	0	0	0.14375	0.2929	0.1218	0.25615	0.070907	0.21724	0.27202	0.14525	0.2035	0.076605	0.093554	0.10758	0.16923	0.0076537	0.051112	0.30145	-1.2167	-2.1292	-1.2458	-1.6229	-1.8917	-1.2208	-2.0667	-1.7687	-1.25	-2.2521	-1.2896	-1.6437	-1.9646	-1.3188	-1.8375	-1.8167	232.100	228.506	150.538	103.082	304.312	242.351	405.927	83.747	411.948	164.384	112.284	81.475	206.474	242.837	110.379	367.279	0.00033439	0.002284	0.0003494	814.16	1.7361e-05	4.7454e-06	997.02	222.66	1.0952e-05	6.4992e-06	298.94	90.888	64.553	19.972	3.2253e-06	30.062	0.0076882	0.009014	0.0025348	927.78	0.00010027	0.00010401	1121.4	274.7	0.00010384	0.000107	392.77	119.57	93.632	30.064	0.00010609	44.237	211.882	220.471	312.044	74.400	241.346	171.952	74.629	78.767	77.170	298.920	77.759	82.713	83.317	87.509	390.781	86.437	-8191	255	
2233.404	1	1	0	0	0.37989	0.01006	0.16158	0.06057	0.20603	0.18112	0.13962	0.031182	0.10811	0.2176	0.085241	0.086308	0.26382	0.12281	0.21797	0.35157	-0.86667	-2.0521	-1.3917	-1.5208	-2.1208	-1.1708	-1.9042	-1.8479	-1.3833	-1.8646	-1.5375	-1.4521	-2.0854	-1.3167	-1.7854	-2.0479	418.358	370.895	139.682	221.667	290.996	352.707	352.503	76.180	176.118	247.601	68.806	321.057	175.259	236.227	111.803	399.551	9.0884e-05	0.0020475	0.0004609	800.03	1.0173e-05	2.4204e-05	980.68	219.84	8.1271e-06	2.636e-06	295.13	89.656	63.174	19.449	5.6784e-06	29.756	0.0086385	0.010002	0.0027839	931.87	0.00010727	0.00011003	1116.1	273.52	0.00010741	0.00010933	391.15	118.85	93.643	30.089	0.00011039	44.711	203.381	325.527	327.801	73.918	229.414	114.067	74.117	78.881	287.831	249.132	77.315	82.388	82.653	87.816	130.404	85.509	-8191	255	
2233.500	1	1	0	0	0.17116	0.21798	0.13318	0.25293	0.29928	0.24996	0.11069	0.18755	0.39191	0.13758	0.40594	0.16112	0.21186	0.26474	0.20588	0.1764	-0.91458	-2.2354	-1.3396	-1.5375	-2.0271	-1.1333	-1.8167	-2.1708	-1.0979	-2.2146	-1.5583	-1.6083	-2.2125	-1.2938	-1.6187	-2.0146	200.420	203.646	104.212	403.882	79.942	132.120	136.145	381.314	335.040	365.425	352.580	185.501	405.907	309.109	74.223	298.409	0.00029396	0.00096405	0.00048712	794.22	1.6636e-05	2.7598e-05	980.5	218.85	5.0154e-06	1.4493e-05	293.9	90.068	63.174	19.635	1.0097e-05	29.717	0.0090511	0.010506	0.0029538	939.43	0.00011498	0.00011881	1128.2	278.44	0.00011694	0.00011955	401.93	122.71	96.742	31.276	0.0001203	46.148	210.947	221.777	165.056	74.090	285.183	335.144	74.437	79.095	197.443	114.539	78.006	82.581	83.483	88.313	179.935	86.155	-8191	255	
2233.621	1	1	0	0	0.12101	0.10575	0.20904	0.14109	0.061252	0.06403	0.32171	0.11847	0.069537	0.19732	0.36808	0.17052	0.1878	0.25904	0.44406	0.12101	-0.69583	-1.8542	-1.6896	-1.2125	-2.1833	-1.3521	-1.6833	-2.2	-1.1042	-1.9604	-1.625	-1.2521	-2.2792	-1.4292	-1.5792	-2.2229	398.824	226.628	263.074	69.180	195.084	275.172	379.354	370.624	352.043	348.641	313.940	351.943	317.471	420.680	179.761	131.084	0.00032598	0.00023234	0.00041308	788.9	2.6983e-05	2.506e-05	980.88	220.1	3.1556e-06	2.892e-05	297.04	89.825	63.812	19.867	2.0077e-05	30.32	0.0097705	0.011349	0.0031913	949.65	0.00012404	0.00012798	1145.4	284.1	0.00012396	0.00012626	409.82	124.58	98.277	31.805	0.00012324	46.784	204.614	221.180	191.112	74.131	264.740	226.664	74.278	78.971	63.407	260.661	77.461	82.740	82.987	87.579	183.015	86.937	-8191	255	
2233.715	1	1	0	0	0.12922	0.08224	0.14449	0.11402	0.12866	0.092053	0.080271	0.089969	0.074342	0.19849	0.26451	0.22434	0.11887	0.084892	0.16799	0.077304	-0.90625	-1.7792	-1.8479	-1.3917	-2.0583	-1.3875	-1.7125	-2.1042	-1.0625	-1.9458	-1.8521	-1.2729	-2.2667	-1.7104	-1.4792	-2.0875	195.551	376.231	413.584	78.393	218.794	326.005	347.293	109.537	190.659	222.238	419.573	345.931	176.489	90.095	353.138	340.898	0.00011281	0.0020594	0.00014773	790.15	7.5279e-06	1.729e-05	990.11	218.76	9.3532e-06	2.1749e-05	296.89	89.461	63.831	19.764	4.3976e-06	30.132	0.0099036	0.011433	0.0031882	953.38	0.00012203	0.00012535	1145.4	282.08	0.00012208	0.00012395	406.27	123.56	97.102	31.396	0.00011886	45.76	69.719	187.862	236.515	73.961	144.570	227.235	74.478	79.116	175.415	283.130	77.859	82.751	83.078	87.936	185.599	86.373	-8191	255	
2233.813	1	1	0	0	0.045052	0.083026	0.13696	0.069001	0.015919	0.25431	0.18499	0.2062	0.12055	0.062471	0.15867	0.20533	0.16732	0.16992	0.16605	0.29982	-0.85833	-1.6625	-2.0979	-1.1792	-2.0542	-1.6958	-1.5104	-2.2	-1.2333	-1.6958	-2.0583	-1.2271	-1.9521	-1.8292	-1.2875	-2.3521	391.522	413.683	234.768	293.936	255.045	92.784	162.346	330.859	72.698	229.002	418.164	413.869	292.174	373.866	173.113	154.706	0.00034285	0.001362	0.00017893	792.91	3.8739e-06	1.1926e-05	976.95	217.96	1.2363e-05	1.5694e-05	294.22	89.303	62.693	19.494	1.0717e-05	29.687	0.0094177	0.010799	0.0030002	934.8	0.00011335	0.00011677	1120.2	274.08	0.00011211	0.00011438	392.89	119.54	93.974	30.426	0.00011161	44.553	183.827	120.408	160.754	74.103	221.521	360.139	74.444	78.731	259.772	395.277	77.820	82.428	83.208	87.326	294.833	86.365	-8191	255	
2233.907	1	1	0	0	0.020654	0.22635	0.10735	0.079254	0.092929	0.17114	0.070519	0.13217	0.11424	0.12951	0.41319	0.29503	0.14964	0.16191	0.13194	0.41903	-1.0854	-1.4896	-1.8854	-1.3458	-1.8979	-2.025	-1.2375	-2.1375	-1.5104	-1.5646	-2.2958	-1.2313	-1.9604	-1.9729	-1.325	-2.1542	234.752	232.665	322.219	355.312	370.170	223.244	263.497	214.071	125.603	62.626	412.467	352.781	164.443	279.874	188.273	406.347	0.00023418	0.0017467	0.00044909	792.27	7.676e-06	1.1877e-05	976.94	217.2	7.1668e-06	2.5139e-05	293.99	89.365	62.659	19.646	1.0316e-05	30.013	0.0090098	0.010338	0.0028953	927.86	0.00011005	0.00011352	1115.8	272.19	0.00011012	0.00011247	392.75	119.32	93.753	30.375	0.00011213	44.814	229.035	299.272	404.623	74.410	318.617	256.737	74.364	78.714	131.400	248.049	77.968	82.631	83.345	87.865	88.811	86.984	-8191	255	
2234.004	1	1	0	0	0.25301	0.34275	0.20107	0.31331	0.16253	0.29539	0.2631	0.087805	0.2647	0.15493	0.26229	0.080649	0.18917	0.045015	0.044766	0.29625	-1.0167	-1.3042	-2.0938	-1.3771	-1.5354	-1.8687	-1.2938	-2.0625	-1.4729	-1.2875	-2.1437	-1.3229	-1.5646	-1.9771	-1.0625	-2.1083	321.174	323.103	219.905	63.701	299.704	70.255	337.464	258.728	247.623	186.130	80.442	286.675	83.041	289.528	349.565	359.766	0.00031784	0.00048454	0.00015589	794.6	7.9784e-06	4.5895e-06	984.98	219.54	9.175e-06	1.3636e-05	297.44	90.707	64.786	19.669	6.13e-06	30.632	0.0090475	0.010461	0.0029217	935.78	0.00011201	0.0001159	1129.3	276.57	0.00011314	0.00011554	398.88	121.3	95.569	30.777	0.00011366	45.521	199.752	172.700	243.289	74.023	234.692	418.330	74.132	79.127	221.512	316.332	78.299	82.418	83.629	87.430	264.974	86.705	-8191	255	
2234.100	1	1	0	0	0.27763	0.14012	0.17664	0.13144	0.12401	0.054629	0.17868	0.27981	0.09892	0.11658	0.16382	0.23156	0.19879	0.21689	0.13496	0.040392	-1.2208	-1.3292	-2.2021	-1.3396	-1.5479	-2.1	-1.1917	-1.8813	-1.6187	-1.2542	-2.1188	-1.6979	-1.5208	-2.2146	-1.1604	-2.0625	164.394	184.728	364.816	329.360	362.833	137.589	346.593	330.691	79.512	201.153	332.488	364.616	257.217	362.576	283.337	268.719	0.00032106	0.0010164	0.0002863	803.05	3.8e-06	7.9322e-06	992.66	222.84	2.7588e-06	2.0276e-05	301.84	91.727	65.203	19.895	8.4554e-06	31.106	0.0091515	0.010627	0.0029638	947.67	0.00011419	0.00011686	1140	279.95	0.0001145	0.00011671	403.57	122.84	96.354	31.094	0.00011389	45.832	231.891	408.103	178.568	73.944	174.230	211.843	74.473	78.934	328.069	248.510	77.907	82.585	83.276	87.486	154.186	86.443	-8191	255	
2234.220	1	1	0	0	0.12526	0.074777	0.087936	0.2888	0.14625	0.076349	0.07385	0.1704	0.12167	0.077881	0.18135	0.20135	0.30242	0.11069	0.18997	0.076179	-1.5938	-1.1542	-2.0292	-1.6667	-1.2854	-2.1229	-1.3438	-1.8354	-1.8062	-1.2729	-2.0729	-1.525	-1.4062	-2.1958	-1.2958	-1.7125	131.165	232.006	69.032	420.296	375.903	172.468	400.700	157.040	349.804	153.751	155.341	399.080	353.689	89.342	184.548	355.478	0.00019191	0.0013675	0.00030537	811.37	1.2728e-05	3.6231e-06	998.01	221.49	1.4714e-05	1.4899e-05	297.76	90.687	63.93	19.908	1.2361e-05	30.463	0.0092027	0.010663	0.0029603	954.4	0.00011523	0.00011801	1143.6	279.61	0.00011509	0.00011749	402.47	122.16	96.032	30.945	0.00011528	45.509	278.084	208.663	104.011	74.196	134.675	346.018	74.201	78.906	101.108	300.843	77.826	82.496	83.196	87.964	91.418	86.377	-8191	255	
2234.316	1	1	0	0	0.10135	0.057547	0.064062	0.11921	0.17554	0.01555	0.090259	0.24277	0.10838	0.22562	0.23758	0.048291	0.088519	0.16115	0.17751	0.16281	-1.6729	-1.2521	-2.1458	-1.6521	-1.2563	-2.0438	-1.3958	-1.4854	-1.8521	-1.125	-2.1521	-1.7771	-1.4312	-2.1354	-1.3188	-1.4542	359.961	98.736	84.039	370.019	411.103	346.249	94.261	98.760	335.413	398.240	409.424	109.374	412.710	201.768	371.220	341.759	0.00037321	0.00082675	0.00017512	801.72	4.0523e-06	1.4301e-05	993.45	218.29	1.0621e-05	2.4946e-05	296.53	89.391	63.775	19.855	1.175e-05	30.475	0.0092633	0.010785	0.0029822	948.24	0.00011701	0.00012068	1139.6	279.77	0.00011825	0.00012171	404.25	123.1	97.025	31.442	0.00011987	46.102	186.017	300.096	251.488	74.211	219.802	234.604	74.200	78.982	278.254	264.569	77.563	82.486	83.502	87.986	211.548	86.812	-8191	255	
2234.413	1	1	0	0	0.25402	0.19669	0.040936	0.18482	0.082156	0.11763	0.24222	0.29356	0.21793	0.31771	0.16813	0.099948	0.21307	0.24437	0.099663	0.17084	-1.6812	-1.3687	-1.8042	-2.0979	-1.1229	-2.0354	-1.4854	-1.3625	-2.2917	-1.3604	-2.0292	-1.9542	-1.1042	-2.1417	-1.3854	-1.5292	312.001	374.519	312.483	350.210	215.302	333.178	378.692	338.193	125.271	232.373	336.727	400.633	72.423	367.689	73.862	143.732	0.00042534	0.00062418	0.00012887	799.52	6.5361e-06	9.877e-06	991.78	219.47	1.3037e-05	1.1181e-05	297.26	89.996	64.291	19.967	4.2916e-06	30.647	0.0096753	0.011196	0.0030882	951.89	0.00011955	0.00012153	1143.7	281.33	0.00011947	0.00012274	406.05	124.16	98.133	31.812	0.00012327	46.937	184.002	196.619	99.068	74.156	241.447	288.685	74.120	79.107	111.862	113.950	77.659	83.094	83.171	88.108	415.318	86.419	-8191	255	
2234.509	1	1	0	0	0.28167	0.16386	0.12797	0.13873	0.15134	0.22967	0.034075	0.34389	0.17889	0.32603	0.18678	0.15298	0.29407	0.20032	0.42906	0.26182	-1.7375	-1.3104	-1.675	-1.9292	-1.1313	-1.8979	-1.6396	-1.4479	-2.0646	-1.1187	-1.7708	-1.9958	-1.1479	-2.0271	-1.6458	-1.2333	377.383	296.682	251.122	347.981	84.083	194.446	284.864	407.071	296.687	242.412	235.684	348.845	321.289	362.526	88.523	233.049	0.00033786	0.0022261	0.00058466	806.01	1.4339e-05	2.6744e-05	996.85	223.52	1.9463e-05	1.5718e-05	300.88	90.916	65.497	20.094	1.3496e-05	31.409	0.0099855	0.011655	0.0032197	966.99	0.00012495	0.00012862	1158.8	287.3	0.00012465	0.00012737	413.36	126.23	99.751	32.124	0.00012362	47.536	186.447	291.571	244.191	74.060	203.795	368.840	74.432	79.262	405.649	410.668	77.708	82.871	83.185	88.015	218.076	86.383	-8191	255	
#DATA ENDS
