BOXY.EXE: ISS Imagent and Oximeter Data Acquisition Program Version 0.80
Ascii Record File

#ACQ INFORMATION
2  Detector Channels 
16  External MUX Channels 
1  Auxiliary Channels 
5000  Waveform (CCF) Frequency (Hz)
1  Waveforms Skipped 
30  Waveforms Averaged 
1  Cycles Averaged 
16  Acquisitions per Waveform 
10.0806  Updata Rate (Hz) 

#FILE INFORMATION
TRUE -- External MUX Channel results are PARSED.
FALSE -- AC DC and Phase are NOT grouped.
TRUE -- Companion Program Settings File CREATED.
FALSE -- AC data not excluded
FALSE -- DC data not excluded
FALSE -- Phase data not excluded
FALSE -- Auxillary Chn. data not excluded
Tab delimiters

#CALIBRATION STATE
TRUE -- Waveform Calibration Values APPLIED.


#AUX CALIBRATION VALUES
Val Type	aux-1	

Term	1.0000e+00	
Factor	0.0000e+00	


#WF CALIBRATION VALUES
A = Detector Channel
Val Type	A-AC1	A-AC2	A-AC3	A-AC4	A-AC5	A-AC6	A-AC7	A-AC8	A-AC9	A-AC10	A-AC11	A-AC12	A-AC13	A-AC14	A-AC15	A-AC16	A-DC1	A-DC2	A-DC3	A-DC4	A-DC5	A-DC6	A-DC7	A-DC8	A-DC9	A-DC10	A-DC11	A-DC12	A-DC13	A-DC14	A-DC15	A-DC16	A-Ph1	A-Ph2	A-Ph3	A-Ph4	A-Ph5	A-Ph6	A-Ph7	A-Ph8	A-Ph9	A-Ph10	A-Ph11	A-Ph12	A-Ph13	A-Ph14	A-Ph15	A-Ph16	

Term	0.00000e+00	0.00000e+00	0.00000e+00	0.00000e+00	0.00000e+00	0.00000e+00	0.00000e+00	0.00000e+00	0.00000e+00	0.00000e+00	0.00000e+00	0.00000e+00	0.00000e+00	0.00000e+00	0.00000e+00	0.00000e+00	0.00000e+00	0.00000e+00	0.00000e+00	0.00000e+00	0.00000e+00	0.00000e+00	0.00000e+00	0.00000e+00	0.00000e+00	0.00000e+00	0.00000e+00	0.00000e+00	0.00000e+00	0.00000e+00	0.00000e+00	0.00000e+00	0.00000e+00	0.00000e+00	0.00000e+00	0.00000e+00	0.00000e+00	0.00000e+00	0.00000e+00	0.00000e+00	0.00000e+00	0.00000e+00	0.00000e+00	0.00000e+00	0.00000e+00	0.00000e+00	0.00000e+00	0.00000e+00	
Factor	1.00000e+00	1.00000e+00	1.00000e+00	1.00000e+00	1.00000e+00	1.00000e+00	1.00000e+00	1.00000e+00	1.00000e+00	1.00000e+00	1.00000e+00	1.00000e+00	1.00000e+00	1.00000e+00	1.00000e+00	1.00000e+00	1.00000e+00	1.00000e+00	1.00000e+00	1.00000e+00	1.00000e+00	1.00000e+00	1.00000e+00	1.00000e+00	1.00000e+00	1.00000e+00	1.00000e+00	1.00000e+00	1.00000e+00	1.00000e+00	1.00000e+00	1.00000e+00	X	X	X	X	X	X	X	X	X	X	X	X	X	X	X	X	

B = Detector Channel
Val Type	B-AC1	B-AC2	B-AC3	B-AC4	B-AC5	B-AC6	B-AC7	B-AC8	B-AC9	B-AC10	B-AC11	B-AC12	B-AC13	B-AC14	B-AC15	B-AC16	B-DC1	B-DC2	B-DC3	B-DC4	B-DC5	B-DC6	B-DC7	B-DC8	B-DC9	B-DC10	B-DC11	B-DC12	B-DC13	B-DC14	B-DC15	B-DC16	B-Ph1	B-Ph2	B-Ph3	B-Ph4	B-Ph5	B-Ph6	B-Ph7	B-Ph8	B-Ph9	B-Ph10	B-Ph11	B-Ph12	B-Ph13	B-Ph14	B-Ph15	B-Ph16	

Term	0.00000e+00	0.00000e+00	0.00000e+00	0.00000e+00	0.00000e+00	0.00000e+00	0.00000e+00	0.00000e+00	0.00000e+00	0.00000e+00	0.00000e+00	0.00000e+00	0.00000e+00	0.00000e+00	0.00000e+00	0.00000e+00	0.00000e+00	0.00000e+00	0.00000e+00	0.00000e+00	0.00000e+00	0.00000e+00	0.00000e+00	0.00000e+00	0.00000e+00	0.00000e+00	0.00000e+00	0.00000e+00	0.00000e+00	0.00000e+00	0.00000e+00	0.00000e+00	3.94855e+01	-1.32128e+02	-1.27181e+02	-1.84490e+02	-6.72028e+01	-7.11501e+01	-1.59062e+02	-1.62015e+02	-4.80925e+01	-6.50300e+01	-1.70682e+02	-1.71722e+02	-1.81139e+02	-1.78172e+02	-6.66378e+01	-1.50327e+02	
Factor	6.14565e-05	1.43988e-04	4.12154e-05	2.02262e-01	1.95690e-06	1.65095e-06	1.56930e-01	5.15347e-02	2.54719e-06	1.60944e-06	8.43913e-02	3.21709e-02	2.84674e-02	9.18122e-03	1.99602e-06	1.31396e-02	2.11529e-05	3.98913e-05	1.12962e-05	1.08715e-01	3.85736e-07	4.59041e-07	7.93570e-02	2.79075e-02	3.67363e-07	4.60695e-07	4.42269e-02	1.68013e-02	1.55642e-02	5.02853e-03	4.02019e-07	6.94216e-03	X	X	X	X	X	X	X	X	X	X	X	X	X	X	X	X	



#DISTANCE SETTINGS
A = Detector Channel
A-1	A-2	A-3	A-4	A-5	A-6	A-7	A-8	A-9	A-10	A-11	A-12	A-13	A-14	A-15	A-16	

2.5000e+00	3.0000e+00	2.5000e+00	3.0000e+00	2.0000e+00	3.0000e+00	1.5000e+00	3.0000e+00	3.0000e+00	3.0000e+00	3.0000e+00	3.0000e+00	3.0000e+00	3.0000e+00	1.5000e+00	3.0000e+00	

B = Detector Channel
B-1	B-2	B-3	B-4	B-5	B-6	B-7	B-8	B-9	B-10	B-11	B-12	B-13	B-14	B-15	B-16	

1.0000e+01	1.0000e+01	1.0000e+01	1.4400e+00	1.0000e+01	1.0000e+01	1.5100e+00	1.9400e+00	1.0000e+01	1.0000e+01	1.9900e+00	2.4900e+00	2.4100e+00	2.9000e+00	1.0000e+01	2.9800e+00	




#DATA BEGINS
time	group	step	mark	flag	A-AC1	A-AC2	A-AC3	A-AC4	A-AC5	A-AC6	A-AC7	A-AC8	A-AC9	A-AC10	A-AC11	A-AC12	A-AC13	A-AC14	A-AC15	A-AC16	A-DC1	A-DC2	A-DC3	A-DC4	A-DC5	A-DC6	A-DC7	A-DC8	A-DC9	A-DC10	A-DC11	A-DC12	A-DC13	A-DC14	A-DC15	A-DC16	A-Ph1	A-Ph2	A-Ph3	A-Ph4	A-Ph5	A-Ph6	A-Ph7	A-Ph8	A-Ph9	A-Ph10	A-Ph11	A-Ph12	A-Ph13	A-Ph14	A-Ph15	A-Ph16	B-AC1	B-AC2	B-AC3	B-AC4	B-AC5	B-AC6	B-AC7	B-AC8	B-AC9	B-AC10	B-AC11	B-AC12	B-AC13	B-AC14	B-AC15	B-AC16	B-DC1	B-DC2	B-DC3	B-DC4	B-DC5	B-DC6	B-DC7	B-DC8	B-DC9	B-DC10	B-DC11	B-DC12	B-DC13	B-DC14	B-DC15	B-DC16	B-Ph1	B-Ph2	B-Ph3	B-Ph4	B-Ph5	B-Ph6	B-Ph7	B-Ph8	B-Ph9	B-Ph10	B-Ph11	B-Ph12	B-Ph13	B-Ph14	B-Ph15	B-Ph16	aux-1	digaux	

1353.739	1	1	0	512	0.15545	0.2238	0.093896	0.27057	0.20038	0.28055	0.29818	0.080721	0.1285	0.091737	0.28831	0.38467	0.12797	0.30587	0.039427	0.20484	-1.2333	-1.9771	-1.1396	-2.0875	-1.7521	-1.5021	-2.3917	-1.4958	-1.65	-1.6979	-1.3563	-1.9542	-1.8479	-1.225	-2.0979	-1.5958	183.514	423.804	363.854	334.831	287.766	173.751	401.956	270.826	415.530	265.220	422.310	342.986	418.243	345.845	93.953	370.245	0.0015885	0.00044239	0.00012934	1204.8	6.6113e-06	5.3152e-06	1222.3	338.47	1.1308e-05	4.8318e-06	391.62	132.3	114.2	39.149	7.2099e-06	49.61	0.0010029	0.0011258	0.00033456	1231	1.1644e-05	1.3045e-05	1246.1	346.9	1.1478e-05	1.3104e-05	401.26	135.84	116.87	40.648	1.2362e-05	51.401	337.759	171.546	180.397	89.795	211.043	224.329	89.464	94.661	250.190	233.702	93.990	98.709	99.499	103.457	246.601	102.143	-8191	255	
1353.836	1	1	0	0	0.14463	0.066597	0.22017	0.099058	0.070595	0.095867	0.29406	0.1433	0.34334	0.12913	0.23174	0.2833	0.43342	0.41647	0.058538	0.10847	-1.2687	-2.1333	-1.3937	-2.2188	-1.7208	-1.2458	-2.2396	-1.6667	-1.4625	-2.0354	-1.4104	-1.975	-1.9354	-1.2583	-2.0938	-1.6187	385.010	272.479	366.454	330.575	281.631	143.872	86.799	435.723	241.623	311.129	357.921	408.368	80.994	279.399	118.619	397.868	0.0014694	0.00045611	0.00015344	1200.6	6.005e-06	4.7526e-06	1226.6	337.55	9.5236e-06	5.4072e-06	388.89	133.12	113.91	39.127	8.5115e-06	49.413	0.0010128	0.0011126	0.00034063	1230.1	1.1638e-05	1.3444e-05	1247.9	346.85	1.1509e-05	1.268e-05	400.02	136.3	116.84	40.664	1.1807e-05	51.261	334.884	175.137	173.603	89.969	230.675	225.300	89.513	94.612	238.912	210.808	94.030	98.540	99.234	103.194	229.892	102.388	-8191	255	
1353.907	1	1	0	0	0.16583	0.20465	0.26371	0.23828	0.058323	0.2142	0.15307	0.17525	0.24147	0.21739	0.29355	0.070095	0.29316	0.093739	0.17619	0.12994	-0.92708	-2.1021	-1.2958	-1.9813	-2.0729	-1.225	-2.2667	-1.6562	-1.3125	-2.0396	-1.4479	-1.9771	-2.1312	-1.3021	-1.9292	-1.7667	165.504	377.727	354.600	289.919	410.592	376.547	420.848	434.105	296.139	176.800	290.397	200.042	373.575	135.840	193.506	376.699	0.0016246	0.00036639	9.0596e-05	1206.3	4.8069e-06	5.3661e-06	1223.4	336.81	1.041e-05	4.3122e-06	389.89	133.16	113.8	39.507	5.4379e-06	49.552	0.0010236	0.0011244	0.00032213	1231.1	1.1428e-05	1.3522e-05	1246.3	346.16	1.1312e-05	1.2656e-05	399.69	136.26	116.81	40.799	1.2028e-05	51.266	335.063	158.161	169.135	89.910	207.561	217.838	89.663	94.755	255.875	218.118	93.903	98.474	99.156	103.685	243.336	102.537	-8191	255	
1354.028	1	1	0	0	0.18458	0.092455	0.12168	0.23106	0.028168	0.19772	0.038696	0.16495	0.049573	0.24788	0.24397	0.44662	0.1447	0.29025	0.1659	0.18366	-0.76667	-2.0396	-1.4312	-1.8708	-2.1375	-1.2896	-2.2833	-1.8708	-1.1146	-2.2083	-1.425	-1.625	-2.2417	-1.4438	-1.8604	-2.05	165.443	299.402	373.403	416.892	139.781	366.904	417.626	392.918	323.275	291.476	435.230	428.131	421.100	119.237	356.454	337.004	0.0015707	0.00038453	0.0001632	1203	6.815e-06	4.9186e-06	1220.9	337.02	1.2836e-05	4.7745e-06	391.19	133.55	114.21	39.166	6.9239e-06	49.501	0.001028	0.0011322	0.00032253	1229.6	1.1888e-05	1.3233e-05	1246.6	346.19	1.177e-05	1.2776e-05	400.08	136.33	116.93	40.677	1.1973e-05	51.325	335.483	155.448	159.287	89.868	230.645	233.452	89.698	94.870	251.021	226.422	93.771	98.716	99.000	103.682	242.356	102.430	-8191	255	
1354.122	1	1	0	0	0.3162	0.26258	0.1483	0.16731	0.048076	0.097931	0.17144	0.27186	0.066404	0.32607	0.14647	0.23376	0.13635	0.21573	0.28406	0.12538	-0.91042	-2.1521	-1.5812	-1.6792	-2.1917	-1.2333	-2.1583	-2.2042	-1.2875	-2.1937	-1.6688	-1.6333	-2.2854	-1.2604	-1.7	-2.1792	400.931	305.718	356.689	347.782	235.750	246.491	383.158	422.019	257.550	404.286	138.666	191.155	264.800	120.348	97.930	342.803	0.0014453	0.00042444	0.00012265	1200.8	7.3636e-06	4.5194e-06	1226.4	337.52	9.0783e-06	7.1343e-06	387.68	133.69	114.3	39.213	5.9962e-06	49.477	0.0010005	0.0011603	0.00031933	1230.5	1.1545e-05	1.2718e-05	1247.4	346.06	1.1548e-05	1.3342e-05	399.52	136.26	116.83	40.704	1.1597e-05	51.334	335.318	146.030	182.417	90.143	227.239	230.438	89.778	94.754	258.823	234.949	93.990	98.724	99.212	103.467	236.129	102.655	-8191	255	
1354.218	1	1	0	0	0.22544	0.16942	0.26036	0.23324	0.3921	0.1119	0.30527	0.27549	0.44253	0.27186	0.36602	0.065826	0.093056	0.25907	0.12795	0.23152	-0.99167	-2.1271	-1.75	-1.4104	-2.1792	-1.2708	-1.725	-2.1708	-1.1917	-1.975	-1.9396	-1.4542	-2.1167	-1.4083	-1.6437	-2.1312	295.516	153.288	362.304	319.614	97.273	193.599	413.888	396.771	433.995	366.270	341.226	304.023	243.806	351.970	213.172	282.964	0.0015288	0.00036615	8.5178e-05	1205.1	9.3604e-06	4.84e-06	1221.3	338.01	1.0991e-05	4.9303e-06	389.91	133.49	114.12	38.958	7.1682e-06	49.603	0.0010197	0.0011616	0.00033465	1231.7	1.1687e-05	1.3479e-05	1246.8	346.42	1.1847e-05	1.2526e-05	399.98	136.24	116.9	40.577	1.2068e-05	51.329	336.136	167.998	181.845	89.998	223.727	242.134	89.807	94.847	251.745	247.403	93.757	98.805	99.341	103.522	232.026	102.371	-8191	255	
1354.339	1	1	0	0	0.036342	0.051111	0.012494	0.20638	0.12625	0.14423	0.19855	0.32142	0.24034	0.28451	0.27099	0.093049	0.23012	0.2574	0.11239	0.033354	-0.85833	-2.0479	-1.9146	-1.3917	-2.2167	-1.4354	-1.85	-2.2625	-1.1562	-1.8729	-2.0187	-1.3292	-2.1729	-1.6979	-1.5521	-2.1937	105.778	293.021	198.803	343.010	331.196	117.441	416.717	301.658	275.633	224.321	420.432	421.354	358.742	332.602	311.041	311.144	0.0016061	0.00044887	0.00014301	1198.6	6.6669e-06	7.2428e-06	1220.4	339.02	1.1464e-05	4.2657e-06	389.62	132.57	113.88	39.073	9.9295e-06	49.698	0.0010183	0.0011431	0.00032364	1230.6	1.1444e-05	1.2867e-05	1246.1	347	1.1433e-05	1.3368e-05	400.35	135.89	116.84	40.593	1.2713e-05	51.23	332.868	183.566	173.242	90.314	228.447	242.252	89.870	95.013	267.323	224.382	94.002	98.986	99.447	103.496	232.988	102.635	-8191	255	
1354.435	1	1	0	0	0.068754	0.2505	0.19044	0.19705	0.099349	0.13416	0.24857	0.31988	0.03627	0.094199	0.014796	0.067444	0.036642	0.050438	0.11074	0.087508	-0.91667	-1.9688	-1.9688	-1.3833	-1.9521	-1.6	-1.6396	-2.2917	-1.3167	-1.6625	-2.1646	-1.2708	-2.1229	-1.9333	-1.4854	-2.3146	410.669	260.157	154.231	402.014	328.608	381.999	340.926	419.709	242.865	83.860	290.599	153.972	298.217	270.212	282.206	299.243	0.0016275	0.000561	6.5585e-05	1204.8	7.2308e-06	5.0884e-06	1221.1	338.52	1.0262e-05	5.1588e-06	390.54	133.05	114.33	39.26	7.7758e-06	49.445	0.0010197	0.0011692	0.00031867	1230.5	1.1855e-05	1.281e-05	1246.2	347	1.1296e-05	1.3102e-05	399.98	136.27	117.01	40.684	1.1996e-05	51.308	334.386	169.628	162.819	89.948	222.064	206.413	90.088	94.927	256.228	230.241	93.902	98.943	99.267	103.503	221.354	102.735	-8191	255	
1354.507	1	1	0	0	0.17633	0.037134	0.28194	0.40421	0.14757	0.069694	0.31239	0.06295	0.2062	0.34781	0.24325	0.10219	0.19458	0.22727	0.19637	0.3039	-1.0083	-1.7292	-2.0854	-1.3854	-1.9479	-1.7583	-1.5	-2.1708	-1.3958	-1.6771	-2.0833	-1.4292	-2.0333	-1.9458	-1.3229	-2.2104	134.484	427.003	342.944	136.713	143.435	435.730	369.571	101.088	298.596	294.006	88.341	432.804	353.009	376.938	420.005	354.785	0.0016335	0.0005036	0.00017119	1198.6	6.4896e-06	3.9482e-06	1223.5	338	1.1567e-05	4.7639e-06	389.24	133.3	114.43	39.194	6.2623e-06	49.806	0.0010219	0.0011893	0.00032034	1229.8	1.1841e-05	1.2963e-05	1246.9	346.18	1.1357e-05	1.2897e-05	399.63	136.03	117.09	40.662	1.2035e-05	51.365	334.846	165.867	165.870	90.154	226.547	208.131	89.880	94.998	260.775	209.720	94.288	99.089	99.545	103.862	239.402	102.761	-8191	255	
1354.603	1	1	0	0	0.16062	0.18488	0.12207	0.15447	0.13147	0.29414	0.39699	0.32134	0.16421	0.13566	0.038968	0.097596	0.15344	0.31501	0.053731	0.14071	-1.0792	-1.5354	-1.9438	-1.3771	-1.9771	-1.7896	-1.4292	-2.2646	-1.4583	-1.3875	-2.075	-1.4813	-1.8792	-1.9875	-1.1187	-2.1	249.559	292.201	152.756	406.709	237.476	274.392	310.209	421.782	415.321	162.240	288.791	143.329	384.732	372.620	310.989	220.805	0.0015157	0.00058922	0.00014061	1205.9	4.9146e-06	4.8128e-06	1221	336.92	9.7922e-06	5.6924e-06	390.55	132.95	113.99	39.13	5.6125e-06	49.473	0.0010084	0.0011416	0.00032672	1232.2	1.2252e-05	1.2777e-05	1245.4	346.2	1.1511e-05	1.367e-05	400.55	136.1	116.71	40.62	1.2369e-05	51.309	334.584	168.745	171.318	90.009	223.581	232.136	89.765	94.993	240.678	208.456	94.243	98.771	99.375	103.842	231.067	102.720	-8191	255	
1354.724	1	1	0	0	0.025593	0.062955	0.17392	0.16041	0.20233	0.15018	0.25491	0.0063228	0.063415	0.082614	0.27733	0.14191	0.24197	0.15173	0.21817	0.25448	-0.97083	-1.5083	-2.0979	-1.5458	-1.7604	-2.1458	-1.3937	-2.1667	-1.6729	-1.375	-2.4083	-1.7021	-1.7583	-2.0917	-1.2521	-2.0125	426.767	173.005	254.131	77.930	331.880	92.973	379.074	136.077	405.839	180.930	419.545	283.482	306.510	280.122	312.446	416.547	0.0014921	0.0004041	0.00014042	1203.7	8.8436e-06	1.7459e-06	1220.7	338.01	8.7399e-06	4.7576e-06	389.1	133.42	114.71	39.191	8.3618e-06	49.872	0.0009922	0.0011698	0.00032206	1229.8	1.1744e-05	1.3049e-05	1245.6	346.49	1.1323e-05	1.3207e-05	400.09	136.21	117.07	40.652	1.2185e-05	51.363	339.104	163.563	162.018	90.027	235.744	231.757	90.110	95.177	252.781	228.084	94.373	99.013	99.324	103.751	231.535	102.756	-8191	255	
1354.820	1	1	0	0	0.023515	0.12551	0.11261	0.15828	0.17971	0.29211	0.26379	0.051996	0.12369	0.13916	0.07213	0.27838	0.12705	0.1977	0.3281	0.19367	-1.3438	-1.1729	-2.0146	-1.4146	-1.6167	-2.0396	-1.4292	-2.1521	-1.8937	-1.2167	-2.1833	-1.6271	-1.5979	-2.25	-1.3312	-1.8604	190.420	396.002	146.812	316.628	367.210	78.062	351.611	274.240	146.818	271.400	382.406	339.015	107.748	323.081	101.801	276.655	0.001541	0.00044028	0.00013625	1202.3	8.0824e-06	6.8173e-06	1221.6	338.17	9.9482e-06	4.1822e-06	388.17	132.68	114.8	39.083	7.1005e-06	49.646	0.0010094	0.0012028	0.00031747	1229.7	1.1775e-05	1.2804e-05	1245.7	346.44	1.1838e-05	1.3295e-05	400.14	136.1	117.04	40.607	1.2569e-05	51.289	336.659	164.920	173.918	90.049	238.999	214.125	89.864	95.060	252.747	233.044	94.231	98.874	99.651	104.022	230.111	102.994	-8191	255	
1354.916	1	1	0	0	0.10355	0.46612	0.14826	0.12058	0.18541	0.19737	0.20627	0.3622	0.2708	0.20091	0.21349	0.21535	0.093799	0.17419	0.13469	0.040639	-1.5271	-1.1667	-2.1333	-1.6229	-1.3896	-2.2188	-1.5125	-1.9375	-1.9042	-1.3188	-2.1542	-1.7271	-1.4333	-2.1188	-1.2542	-1.7896	365.093	330.926	225.057	276.410	433.476	78.985	386.620	403.963	147.273	353.187	177.504	311.732	208.548	90.803	321.669	129.815	0.0016349	0.00044884	9.5641e-05	1200.2	9.0495e-06	4.2259e-06	1223.8	338.69	1.2265e-05	5.5797e-06	390.26	133.09	114.16	39.238	5.6277e-06	49.357	0.0010241	0.001168	0.00031688	1230.1	1.2188e-05	1.2779e-05	1247.2	346.95	1.1394e-05	1.3161e-05	400.24	135.86	116.69	40.659	1.1829e-05	51.201	333.314	164.518	170.514	90.182	232.860	235.317	89.759	95.119	254.682	208.708	94.340	99.012	99.752	103.665	232.667	102.766	-8191	255	
1355.012	1	1	0	0	0.092657	0.18899	0.27947	0.38781	0.31248	0.19891	0.14864	0.27149	0.13255	0.22521	0.20831	0.15535	0.21868	0.16364	0.19083	0.2008	-1.5812	-1.3104	-1.8333	-1.8333	-1.2437	-2.2042	-1.6792	-1.8	-2.2208	-1.0312	-2.1375	-1.8958	-1.3354	-2.2104	-1.3583	-1.7667	259.649	171.480	298.793	364.899	358.730	167.922	349.313	313.480	77.649	215.413	410.820	407.239	213.677	219.032	328.548	385.049	0.0015428	0.00055744	0.00014915	1207.2	8.2859e-06	3.6278e-06	1220.5	338.46	9.1866e-06	4.8211e-06	389.92	132.67	113.99	39.28	7.936e-06	49.567	0.0010063	0.0011726	0.00032298	1229.5	1.1922e-05	1.2739e-05	1244.7	346.06	1.1128e-05	1.325e-05	400.18	135.91	116.74	40.647	1.2191e-05	51.217	333.183	172.191	177.492	90.266	237.339	206.949	89.840	95.128	250.712	202.502	94.499	98.814	99.387	103.807	231.100	103.212	-8191	255	
1355.131	1	1	0	0	0.41987	0.21299	0.1896	0.058693	0.11698	0.31139	0.27178	0.44305	0.14139	0.11542	0.048854	0.1054	0.29693	0.045481	0.13145	0.33201	-1.5583	-1.3	-1.7812	-1.9854	-1.3375	-2.0521	-1.7833	-1.6187	-2.1083	-1.4042	-2.0979	-1.9625	-1.4417	-2.05	-1.5938	-1.5896	83.275	208.796	252.031	434.966	205.865	87.927	405.663	330.893	393.984	204.028	429.049	89.369	108.732	207.234	347.270	81.664	0.0015741	0.00037891	5.5129e-05	1202.5	7.6495e-06	4.6684e-06	1225.2	338.42	1.0544e-05	4.1361e-06	390.36	133.28	113.46	39.296	6.0836e-06	49.453	0.00099494	0.0011714	0.00031764	1230.5	1.1827e-05	1.2975e-05	1245.3	345.98	1.1482e-05	1.3054e-05	400.85	136.13	116.76	40.701	1.2133e-05	51.365	333.572	165.146	157.232	90.436	221.080	222.501	90.085	95.109	250.109	198.732	94.342	98.946	99.578	104.029	213.011	102.690	-8191	255	
1355.203	1	1	0	0	0.08255	0.14089	0.14204	0.13697	0.16651	0.21525	0.17623	0.067274	0.10932	0.2464	0.32989	0.20589	0.11963	0.15261	0.15846	0.3122	-1.8396	-1.4458	-1.7854	-2.1083	-1.2167	-2.1458	-1.8333	-1.3583	-2.1417	-1.4417	-1.8937	-2.2	-1.0104	-2.0875	-1.7021	-1.4646	209.083	319.270	288.925	97.277	352.322	312.648	145.206	420.802	177.033	179.884	427.207	83.765	116.249	408.744	364.758	417.313	0.0016349	0.00050801	0.00011806	1206.5	7.2274e-06	6.4986e-06	1218.6	338.04	1.0461e-05	3.294e-06	391.06	133.06	114.16	39.08	7.9296e-06	49.629	0.001	0.0011523	0.0003158	1229	1.1687e-05	1.2879e-05	1243.9	346.24	1.1246e-05	1.3016e-05	400.47	136.1	117.01	40.645	1.2175e-05	51.274	333.288	169.356	150.597	90.291	224.576	219.325	90.025	95.391	254.159	251.189	94.636	99.230	99.602	104.122	222.650	102.788	-8191	255	
1355.299	1	1	0	0	0.19054	0.1731	0.20275	0.28762	0.20915	0.10603	0.43336	0.11272	0.1446	0.27304	0.16928	0.1785	0.18013	0.16978	0.074954	0.088604	-1.8583	-1.4688	-1.8208	-2.2208	-1.2792	-1.825	-1.8896	-1.4125	-2.2	-1.3813	-1.5583	-2.2167	-1.4125	-2.0479	-1.9625	-1.4562	431.013	373.551	260.258	382.320	434.572	158.695	386.412	83.906	140.641	380.229	384.913	203.483	197.897	279.409	136.694	84.208	0.0016371	0.00026143	8.4096e-05	1201.3	7.988e-06	5.549e-06	1221.2	336.78	1.1447e-05	6.8749e-06	390.23	132.72	114.17	39.18	8.1386e-06	49.459	0.00098348	0.0011147	0.00033178	1229.5	1.1546e-05	1.2956e-05	1245.5	346.18	1.1345e-05	1.3063e-05	400.64	136.02	116.9	40.667	1.1858e-05	51.287	337.763	175.359	164.678	90.312	238.421	217.140	90.041	95.328	255.558	234.795	94.618	99.180	99.704	104.293	227.071	102.923	-8191	255	
1355.419	1	1	0	0	0.21841	0.1107	0.17884	0.047005	0.2773	0.09109	0.35229	0.21938	0.18962	0.097708	0.094569	0.17417	0.34059	0.027549	0.062414	0.53276	-1.8292	-1.6229	-1.4396	-2.2687	-1.175	-1.9208	-2.1063	-1.325	-1.9229	-1.4062	-1.6167	-2.15	-1.225	-1.7208	-2.025	-1.175	388.219	132.519	212.230	429.366	194.892	197.097	397.839	111.121	360.245	170.708	321.817	323.440	105.642	355.821	100.219	393.022	0.0016015	0.00033332	0.00010306	1202.6	7.5435e-06	3.4919e-06	1219.2	337.04	9.5299e-06	4.6147e-06	389.53	133.6	114.01	39.271	6.8603e-06	49.393	0.0010188	0.0011484	0.00031608	1228.8	1.1781e-05	1.2894e-05	1243.9	345.94	1.1389e-05	1.2566e-05	400.15	136.24	116.88	40.628	1.1796e-05	51.246	339.139	145.367	194.905	90.469	232.298	222.285	89.881	95.151	236.978	214.547	94.429	98.795	99.617	104.045	233.059	102.999	-8191	255	
1355.516	1	1	0	0	0.2302	0.23927	0.3376	0.20268	0.19933	0.083572	0.42086	0.11424	0.088488	0.11494	0.072356	0.1357	0.29152	0.42763	0.085574	0.14497	-1.7292	-1.775	-1.4229	-2.4562	-1.4438	-1.8104	-2.2438	-1.4375	-2.1125	-1.6688	-1.4167	-2.1667	-1.5229	-1.6167	-2.0687	-1.225	307.661	370.797	372.778	396.051	180.866	132.645	416.150	373.170	184.702	379.821	345.731	353.581	388.632	372.927	237.785	432.587	0.0016412	0.00052501	0.00014578	1198.4	6.7653e-06	5.5402e-06	1220.3	338.04	1.112e-05	3.5642e-06	389.68	132.41	113.67	39.215	8.7807e-06	49.472	0.0010072	0.001125	0.00031674	1228.1	1.1754e-05	1.2919e-05	1245.7	346.09	1.1229e-05	1.2671e-05	400.27	135.87	116.71	40.659	1.1505e-05	51.281	335.449	158.892	179.478	90.138	230.615	237.005	90.008	95.203	249.167	248.456	94.372	99.010	99.713	103.864	237.663	102.575	-8191	255	
1355.612	1	1	0	0	0.034248	0.21192	0.24545	0.41777	0.090097	0.23657	0.14115	0.32841	0.039558	0.17479	0.26747	0.21271	0.069769	0.044847	0.16354	0.36874	-1.6854	-1.5958	-1.3167	-2.4125	-1.6333	-1.4646	-2.2021	-1.3833	-1.9771	-1.9062	-1.4229	-2.175	-1.6583	-1.6104	-2.0958	-1.4021	281.949	137.262	132.695	417.652	288.136	404.074	382.890	372.634	88.664	248.732	344.470	372.612	428.553	295.326	324.892	398.544	0.0016436	0.00040906	0.00010053	1203	7.0326e-06	4.3848e-06	1221.1	339.13	1.0075e-05	6.2249e-06	388.75	133.2	114.28	39.121	5.1085e-06	49.575	0.00099432	0.0011003	0.00032262	1229.5	1.1794e-05	1.2606e-05	1246.6	346.94	1.1305e-05	1.272e-05	399.77	135.97	116.75	40.625	1.1604e-05	51.333	333.650	134.103	140.832	90.432	212.580	224.634	90.217	95.128	271.794	220.309	94.591	99.170	99.198	103.851	223.728	102.984	-8191	255	
1355.708	1	1	0	0	0.090527	0.39773	0.097567	0.17195	0.11105	0.13672	0.23013	0.10104	0.09216	0.23491	0.12758	0.32069	0.081317	0.22804	0.11957	0.16627	-1.2708	-1.9208	-1.1104	-2.3958	-1.3646	-1.3542	-2.2708	-1.4521	-1.6021	-1.975	-1.3667	-2.0875	-1.6875	-1.5521	-2.0604	-1.4354	386.428	395.851	276.070	362.186	216.188	315.023	387.129	234.054	388.377	143.477	273.434	84.016	166.656	111.362	260.054	95.254	0.0016269	0.00048421	0.00012099	1207.5	8.0065e-06	4.0416e-06	1218.3	337.74	1.096e-05	2.7142e-06	392.98	133.1	114.77	39.262	6.4828e-06	49.337	0.0010135	0.0011658	0.00032018	1230.1	1.1669e-05	1.2995e-05	1244.5	346.02	1.1663e-05	1.2359e-05	400.15	136.09	116.93	40.636	1.1872e-05	51.212	333.038	154.417	140.998	90.235	218.892	213.714	89.880	94.938	244.551	190.497	94.080	98.729	98.949	103.589	253.305	102.525	-8191	255	
1355.804	1	1	0	0	0.27438	0.10364	0.040484	0.035294	0.1626	0.20645	0.26126	0.25858	0.37856	0.2564	0.18907	0.15325	0.20219	0.24778	0.10677	0.13593	-1.3062	-1.9917	-1.2542	-1.925	-1.7667	-1.3062	-2.4604	-1.4771	-1.6375	-2.15	-1.2	-1.9667	-1.7833	-1.2708	-2.1312	-1.6146	309.182	382.752	107.007	105.084	168.688	318.905	396.063	136.016	269.512	188.592	86.987	276.180	243.856	404.255	412.757	92.421	0.0015444	0.00033126	0.00013608	1204.5	8.6297e-06	2.661e-06	1223.4	337.81	8.6631e-06	3.2628e-06	392.13	132.72	114.15	39.131	6.2743e-06	49.472	0.001011	0.0011013	0.00032531	1230.5	1.1885e-05	1.3111e-05	1245.6	346.12	1.1416e-05	1.2781e-05	401.01	135.99	116.87	40.679	1.1464e-05	51.263	338.576	158.727	165.892	90.014	227.726	245.773	89.880	94.984	247.325	221.678	94.221	98.823	99.141	103.725	202.656	102.500	-8191	255	
1355.900	1	1	0	0	0.14259	0.14754	0.15636	0.21628	0.16556	0.090296	0.24317	0.074651	0.25342	0.1672	0.27026	0.3405	0.13778	0.23501	0.051433	0.21592	-1.0729	-1.9937	-1.1437	-2.0938	-1.7979	-1.1771	-2.1771	-1.7479	-1.6667	-2.225	-1.3167	-1.975	-1.8021	-1.3	-1.7875	-1.6104	102.086	215.653	281.750	414.117	216.348	169.437	301.618	344.861	216.095	244.049	355.058	397.078	286.188	391.996	404.595	341.727	0.0015391	0.00052876	0.00011837	1198.1	7.3646e-06	3.8886e-06	1221.2	337.25	1.2562e-05	6.6715e-06	390.33	133.3	113.92	39.301	7.438e-06	49.552	0.00096845	0.0010976	0.00031658	1228.2	1.1628e-05	1.3047e-05	1245.8	346.2	1.1186e-05	1.2565e-05	400.5	136.07	116.87	40.729	1.1958e-05	51.36	337.256	172.281	144.630	90.165	217.712	241.533	89.992	94.841	251.320	240.905	94.027	98.899	99.527	103.764	219.689	102.654	-8191	255	
1356.021	1	1	0	0	0.33491	0.053255	0.32643	0.1115	0.08305	0.055344	0.23974	0.069563	0.18211	0.22667	0.25671	0.1944	0.1565	0.13883	0.097608	0.35353	-0.93333	-2.2687	-1.2437	-1.9396	-2.1063	-1.1333	-2.1667	-1.8563	-1.3521	-2.2	-1.4375	-1.6479	-2.1792	-1.4625	-1.8979	-1.7	428.327	419.385	406.575	345.509	328.004	403.137	336.451	87.239	318.663	248.826	414.228	145.337	105.341	234.015	404.590	415.110	0.0015221	0.00036126	0.00013789	1203.7	6.1762e-06	4.109e-06	1220.5	338.3	1.2144e-05	3.6979e-06	389.67	133.15	114.38	39.094	8.0605e-06	49.556	0.0010164	0.0011107	0.00032067	1232.3	1.1778e-05	1.3085e-05	1246.4	346.72	1.1459e-05	1.2491e-05	400	136.37	117.11	40.635	1.2246e-05	51.335	334.997	189.232	176.773	90.273	222.775	224.610	89.679	94.730	253.470	243.140	94.017	98.813	99.530	103.564	237.584	102.563	-8191	255	
1356.115	1	1	0	0	0.24841	0.2642	0.19532	0.35624	0.13047	0.19639	0.19447	0.37561	0.2185	0.097619	0.12885	0.13566	0.20102	0.16853	0.069414	0.22273	-0.86458	-2.0812	-1.3667	-1.6021	-2.0854	-1.275	-2.1271	-1.9167	-1.2333	-2.0542	-1.5521	-1.7313	-2.2375	-1.1792	-1.9646	-1.8375	306.139	355.583	308.634	397.079	81.652	427.241	409.116	410.093	160.451	197.440	389.577	377.472	421.937	274.040	289.663	393.549	0.0015088	0.00060044	0.0001016	1202.3	5.683e-06	3.5649e-06	1227.8	337.95	1.1045e-05	5.8001e-06	389.86	133.2	114.28	39.102	8.478e-06	49.501	0.0010179	0.0011432	0.00032401	1230.7	1.1727e-05	1.3021e-05	1247.8	346.6	1.1708e-05	1.2594e-05	399.82	136.24	116.91	40.605	1.2101e-05	51.216	333.005	147.393	160.217	90.208	252.029	227.977	89.749	94.850	246.816	225.264	93.893	98.867	99.324	103.780	237.294	102.519	-8191	255	
1356.211	1	1	0	0	0.25332	0.32524	0.1427	0.089748	0.052881	0.18574	0.23783	0.27426	0.21054	0.15126	0.14815	0.14194	0.27833	0.11968	0.20757	0.12627	-0.84167	-2.1104	-1.4958	-1.6271	-2.0625	-1.2521	-1.9438	-1.9896	-1.1583	-2.0354	-1.6646	-1.4875	-2.1854	-1.4	-1.6771	-2.1188	139.080	330.800	230.903	111.702	293.153	400.819	347.099	91.559	206.201	320.350	138.321	124.201	391.963	244.399	311.693	357.419	0.0015584	0.00035218	0.00013249	1203.6	6.7315e-06	7.1062e-06	1221.4	338.09	9.7481e-06	5.6697e-06	387.34	133.28	114.07	39.146	9.1441e-06	49.296	0.0010125	0.0011113	0.00031893	1232.1	1.1783e-05	1.3187e-05	1245.3	346.12	1.1587e-05	1.242e-05	399.55	136.12	117	40.651	1.1927e-05	51.297	335.423	168.343	180.908	90.139	217.821	224.814	89.882	95.056	257.408	218.129	94.043	98.795	99.430	103.581	233.741	102.627	-8191	255	
1356.307	1	1	0	0	0.18504	0.16218	0.21072	0.19643	0.084057	0.30986	0.15263	0.1798	0.053794	0.20625	0.22847	0.24873	0.33721	0.18487	0.14979	0.30342	-0.82917	-2.0083	-1.6167	-1.5708	-1.9875	-1.4396	-1.6854	-2.0917	-1.2354	-1.875	-1.7521	-1.525	-2.1583	-1.5063	-1.5771	-2.1208	132.107	433.968	311.372	401.658	293.479	430.754	381.650	322.193	125.731	285.909	85.457	212.655	398.130	154.308	105.906	104.054	0.0014831	0.0003724	0.00011247	1197.5	7.153e-06	5.4468e-06	1221.9	338.35	1.0101e-05	4.5965e-06	389.35	132.96	114.37	39.161	7.3564e-06	49.491	0.00099167	0.001114	0.00032279	1229	1.1522e-05	1.3067e-05	1245.3	346.43	1.1353e-05	1.2923e-05	399.64	136.08	116.99	40.658	1.2127e-05	51.299	335.816	156.881	169.793	90.145	229.099	234.707	89.691	94.881	232.875	237.190	94.011	98.742	99.205	103.591	223.185	102.597	-8191	255	
1356.404	1	1	0	0	0.12024	0.1089	0.1053	0.34965	0.094716	0.075781	0.30872	0.057506	0.32709	0.13014	0.086696	0.12325	0.14881	0.23037	0.1335	0.14363	-0.7375	-1.9833	-1.7958	-1.4208	-2.0021	-1.3771	-1.7083	-2.3625	-1.3583	-1.9042	-1.9667	-1.4354	-2.1813	-1.625	-1.5208	-2.2729	259.338	241.229	183.304	384.978	258.035	113.099	414.427	396.719	386.804	369.308	382.071	87.508	250.112	102.257	346.361	421.373	0.0015836	0.00037996	0.00012399	1200.2	6.4373e-06	3.8993e-06	1218.1	338.81	1.285e-05	5.0657e-06	389.16	133.09	114.01	39.142	7.005e-06	49.349	0.0010145	0.0011313	0.00032154	1227	1.1717e-05	1.3247e-05	1245.8	346.36	1.1758e-05	1.3287e-05	399.43	135.88	116.87	40.595	1.1877e-05	51.243	337.244	170.720	148.710	89.898	221.998	204.690	89.726	94.900	261.918	237.548	94.112	98.874	99.496	103.623	220.882	102.710	-8191	255	
1356.500	1	1	0	0	0.10449	0.054133	0.12469	0.31221	0.32529	0.25957	0.15957	0.21812	0.1859	0.27538	0.13004	0.29726	0.11878	0.077491	0.17238	0.11839	-0.85833	-1.7667	-1.9167	-1.1479	-2.0583	-1.8229	-1.4875	-2.3812	-1.3229	-1.9125	-2.1396	-1.3333	-2.2292	-1.7563	-1.7021	-2.4146	94.508	364.728	270.555	386.582	237.229	272.693	414.611	388.425	382.142	435.722	429.098	328.199	164.973	359.229	197.569	342.591	0.0016187	0.00050011	0.00016882	1203	8.4101e-06	5.5665e-06	1219.9	337.89	1.0406e-05	4.5886e-06	388.7	133.26	114.32	38.887	5.5254e-06	49.364	0.0010033	0.0011548	0.00031992	1227.8	1.1424e-05	1.2652e-05	1244.6	346.1	1.1516e-05	1.286e-05	399.67	135.95	116.85	40.515	1.1917e-05	51.265	335.348	165.985	161.048	90.087	223.315	210.772	89.651	94.872	249.311	219.746	93.928	98.676	99.163	103.531	220.313	102.317	-8191	255	
1356.596	1	1	0	0	0.25853	0.36965	0.20457	0.29032	0.25339	0.13335	0.37473	0.27536	0.053233	0.084775	0.2614	0.33743	0.22186	0.17918	0.13546	0.24057	-1.1479	-1.7896	-2.0146	-1.3458	-2.1458	-1.9354	-1.5125	-2.2292	-1.4521	-1.5229	-2.1667	-1.4167	-2.0354	-2.0667	-1.2875	-2.2542	285.366	354.486	307.409	341.669	429.029	100.912	355.414	393.546	367.088	190.127	400.035	434.849	422.675	398.312	271.891	375.843	0.0015228	0.00054046	0.00016648	1205	6.7462e-06	6.3714e-06	1222.5	338.25	1.068e-05	5.3876e-06	389.07	132.64	114.08	39.095	5.1678e-06	49.288	0.0010008	0.0011263	0.00031535	1227.6	1.1849e-05	1.2825e-05	1244.8	346.22	1.1651e-05	1.3253e-05	399.45	136.12	116.97	40.583	1.2283e-05	51.165	335.892	173.719	175.407	89.951	205.438	239.131	89.432	94.615	244.956	230.459	94.031	99.112	99.452	103.403	257.916	102.819	-8191	255	
1356.692	1	1	0	0	0.3077	0.28431	0.14223	0.19545	0.13648	0.17894	0.29914	0.2246	0.094173	0.14834	0.13565	0.18517	0.16334	0.16905	0.072025	0.15822	-1.1938	-1.5708	-2.2479	-1.4896	-1.8687	-1.9458	-1.4208	-2.1667	-1.5646	-1.5167	-2.3833	-1.4625	-1.8062	-1.975	-0.99583	-2.1667	160.133	415.425	417.239	78.725	262.549	194.550	371.914	399.739	350.294	351.445	223.884	247.054	353.278	353.616	386.400	403.053	0.0015787	0.0005597	0.00017153	1202.1	6.4678e-06	3.9153e-06	1220.1	338.65	1.1109e-05	3.0041e-06	389.52	133.05	114.09	38.834	6.4769e-06	49.443	0.0010147	0.0011691	0.00033117	1227.8	1.1865e-05	1.3058e-05	1243.3	346.3	1.1501e-05	1.3197e-05	399.48	135.99	116.65	40.367	1.2456e-05	51.067	334.846	165.185	169.239	89.929	214.826	221.776	89.825	94.886	255.903	237.146	94.180	98.933	99.520	103.879	233.471	102.854	-8191	255	
1356.788	1	1	0	0	0.13338	0.060454	0.21896	0.32061	0.19638	0.21389	0.39395	0.14859	0.34344	0.33025	0.13221	0.12756	0.050327	0.039419	0.10459	0.17282	-1.2062	-1.575	-2.1562	-1.7125	-1.6437	-1.9292	-1.6271	-2.1688	-1.5854	-1.2917	-2.2583	-1.3583	-1.8146	-2.1042	-1.3396	-2.2208	418.399	205.700	315.016	414.249	235.246	390.361	360.063	334.885	423.950	398.878	433.845	104.961	100.320	210.199	167.083	376.602	0.0015817	0.00041208	0.00010528	1203.6	9.0176e-06	4.6016e-06	1218.5	338.53	6.34e-06	4.252e-06	386.47	132.77	113.48	38.998	8.2196e-06	49.607	0.001047	0.0011955	0.00033651	1228.9	1.2317e-05	1.3372e-05	1245.1	346.54	1.2048e-05	1.3667e-05	398.89	135.63	116.61	40.413	1.2841e-05	51.048	334.204	154.584	149.589	90.054	244.383	213.215	89.653	95.030	253.868	210.926	94.062	98.586	99.334	103.758	226.587	102.937	-8191	255	
1356.909	1	1	0	0	0.27056	0.15977	0.17767	0.10254	0.24432	0.21755	0.239	0.022482	0.16057	0.28899	0.16087	0.31619	0.16308	0.082477	0.16538	0.099849	-1.225	-1.3	-1.9792	-1.7687	-1.5771	-1.9458	-1.4292	-2.1125	-1.8813	-1.2417	-2.3063	-1.4667	-1.7271	-2.1646	-1.3583	-1.9583	142.917	207.928	399.393	331.681	223.230	421.264	427.164	390.168	419.982	290.902	271.547	405.548	420.143	108.164	136.883	94.327	0.001542	0.00048951	0.0001353	1199.2	7.8516e-06	6.0342e-06	1219	337.88	1.0926e-05	3.7057e-06	389.95	132.97	113.67	38.8	8.3023e-06	49.235	0.0010129	0.0012164	0.00034376	1229.4	1.2705e-05	1.3676e-05	1244.2	346.31	1.1709e-05	1.4329e-05	399.51	135.9	116.63	40.366	1.2668e-05	50.982	335.465	156.896	171.864	90.096	228.556	221.982	89.595	94.976	252.664	241.946	94.328	98.992	99.525	103.728	216.310	102.722	-8191	255	
1357.003	1	1	0	0	0.17148	0.18429	0.059519	0.16495	0.061042	0.26386	0.27504	0.23549	0.040117	0.24041	0.1003	0.20795	0.14691	0.11356	0.28319	0.47259	-1.3375	-1.3021	-2.0729	-1.6167	-1.4854	-2.2271	-1.6083	-1.9354	-2.0104	-1.1917	-2.0875	-1.7812	-1.575	-2.3646	-1.4458	-1.9354	364.581	254.683	129.545	404.762	224.078	417.354	395.643	291.513	80.871	177.274	267.930	427.106	369.357	400.260	338.728	377.009	0.0015552	0.00041607	0.00016484	1197.2	5.8623e-06	3.3018e-06	1214.6	337.36	1.352e-05	5.7522e-06	387.69	133.73	113.89	38.889	8.7141e-06	49.33	0.0010235	0.0012247	0.0003406	1229.1	1.2553e-05	1.3846e-05	1242.5	346	1.1945e-05	1.4308e-05	399	135.71	116.61	40.358	1.2968e-05	51.071	335.902	170.870	171.768	90.027	219.334	229.462	89.881	95.013	238.976	225.005	94.122	98.303	99.350	103.667	220.148	102.566	-8191	255	
1357.101	1	1	0	0	0.14866	0.26542	0.10473	0.16098	0.28796	0.0869	0.44722	0.43866	0.057098	0.22497	0.076579	0.11746	0.14362	0.16369	0.068048	0.29106	-1.6979	-1.1187	-2.0542	-1.9021	-1.3438	-2.2438	-1.5646	-1.8563	-2.1792	-1.2437	-1.8646	-2.1104	-1.3146	-2.2687	-1.4271	-1.6	251.541	432.322	381.678	427.791	396.820	243.033	406.959	391.514	244.186	136.176	295.930	417.328	308.313	388.451	426.374	330.182	0.0015696	0.00039709	0.00014097	1198.6	7.3169e-06	3.7129e-06	1222.9	339.1	1.151e-05	5.6542e-06	388.34	132.32	113.75	39.001	7.567e-06	49.303	0.0010321	0.001215	0.00033682	1227.6	1.2881e-05	1.3476e-05	1244.5	346.34	1.201e-05	1.3783e-05	399.34	135.45	116.46	40.374	1.2512e-05	50.947	337.056	138.367	166.815	90.035	244.551	219.793	89.788	94.925	259.075	227.252	94.328	98.729	99.343	103.645	251.706	102.969	-8191	255	
1357.196	1	1	0	0	0.071294	0.22285	0.32951	0.12032	0.27642	0.25725	0.27627	0.1232	0.11552	0.29533	0.10901	0.059965	0.41772	0.17654	0.13864	0.33074	-1.5458	-1.1812	-2.0042	-1.9958	-1.3375	-2.2188	-1.8146	-1.6979	-2.2	-1.1667	-1.9417	-2.0146	-1.4208	-2.1646	-1.5125	-1.5875	119.303	280.919	420.038	344.517	99.175	233.795	367.393	361.239	89.169	328.632	350.738	184.381	388.942	420.944	258.480	366.980	0.0014992	0.00051007	9.5172e-05	1203.6	4.6818e-06	7.6244e-06	1218.3	337.66	9.8909e-06	3.9903e-06	388.49	132.22	113.41	38.982	7.7057e-06	48.996	0.0010071	0.0012249	0.00034406	1230.3	1.2726e-05	1.3655e-05	1243.6	345.88	1.2095e-05	1.3857e-05	399.1	135.35	116.35	40.33	1.2913e-05	50.898	337.192	153.708	134.560	89.852	246.044	235.371	89.900	95.028	262.679	230.813	94.330	98.726	99.577	104.017	221.848	102.907	-8191	255	
1357.292	1	1	0	0	0.2329	0.10939	0.10301	0.20404	0.070917	0.067294	0.23561	0.18594	0.13264	0.057324	0.14281	0.21546	0.28351	0.1272	0.22843	0.34732	-1.8937	-1.525	-1.95	-2.1583	-1.3312	-2.2812	-1.9813	-1.7021	-2.2229	-1.4438	-1.7604	-2.1292	-1.3354	-2.1583	-1.6479	-1.4458	372.647	82.142	351.854	307.855	283.100	100.962	357.024	383.615	143.520	223.669	397.963	308.896	285.357	336.975	372.273	363.861	0.001583	0.00047855	0.00014249	1200.6	8.3132e-06	4.5339e-06	1222.3	337.32	1.2375e-05	3.4414e-06	389.16	132.58	113.9	39.07	8.806e-06	49.079	0.0010334	0.0012424	0.00034717	1228.3	1.2754e-05	1.3458e-05	1243.8	346.03	1.1661e-05	1.3874e-05	399.67	135.77	116.48	40.37	1.2695e-05	50.904	336.809	167.218	166.546	89.960	225.668	198.398	89.635	94.990	249.038	232.993	94.337	98.759	99.352	103.899	234.008	102.508	-8191	255	
1357.388	1	1	0	0	0.29822	0.068262	0.36635	0.13161	0.079763	0.30467	0.44992	0.1612	0.24764	0.039546	0.19773	0.1067	0.10947	0.39692	0.15963	0.26999	-1.8417	-1.4771	-1.6146	-2.3792	-1.2896	-2.0354	-2.025	-1.45	-2.1958	-1.7375	-1.6833	-2.3479	-1.5063	-1.8479	-2.0042	-1.4208	296.693	207.577	145.406	394.012	172.512	378.317	393.918	313.038	263.082	211.160	432.152	334.604	400.331	379.052	275.175	404.674	0.0016316	0.00056589	0.00014649	1203.5	7.3422e-06	3.9511e-06	1225.2	336.53	7.6886e-06	4.6801e-06	387.29	131.96	113.63	38.804	7.5405e-06	49.226	0.0010505	0.0012154	0.00034804	1229.5	1.2617e-05	1.3086e-05	1245.8	345.86	1.1878e-05	1.3697e-05	399.28	135.63	116.47	40.285	1.2675e-05	50.942	336.920	161.315	167.621	89.938	234.476	197.369	89.719	95.340	266.916	211.903	94.364	98.938	99.322	103.715	228.715	102.675	-8191	255	
1357.508	1	1	0	0	0.087968	0.0074613	0.14043	0.27554	0.32808	0.42268	0.1908	0.02095	0.31888	0.34297	0.29379	0.25176	0.26089	0.24374	0.12988	0.25669	-1.6854	-1.5521	-1.4458	-2.4062	-1.5063	-1.7521	-2.3042	-1.3208	-2.0521	-1.7917	-1.5208	-2.3354	-1.2125	-1.9917	-2	-1.3813	260.530	362.746	206.205	88.383	356.055	383.148	377.253	221.212	392.505	356.742	407.397	360.434	83.870	79.291	295.821	321.421	0.0015368	0.00043796	5.1774e-05	1203.1	6.599e-06	4.6615e-06	1223.2	336.56	8.5902e-06	4.7274e-06	388.41	132.99	113.67	38.973	6.1944e-06	49.243	0.00099912	0.0011939	0.00033161	1228.9	1.207e-05	1.3699e-05	1245.2	345.95	1.1568e-05	1.3621e-05	399.45	135.79	116.38	40.303	1.2233e-05	50.942	336.170	164.417	178.137	89.802	246.578	236.340	89.734	95.025	249.503	228.714	94.016	98.655	99.274	103.838	244.204	102.711	-8191	255	
1357.605	1	1	0	0	0.22697	0.22548	0.0092199	0.13026	0.31128	0.27514	0.30097	0.24063	0.07892	0.1507	0.28911	0.24956	0.31344	0.29277	0.33258	0.11705	-1.9104	-1.6375	-1.3708	-2.3083	-1.5063	-1.775	-2.3042	-1.5	-1.9813	-1.8062	-1.75	-2.4167	-1.4458	-1.8458	-2.1833	-1.5792	148.688	393.118	100.679	123.694	282.313	224.581	359.544	363.452	266.303	206.183	358.782	429.621	125.941	411.313	137.696	94.118	0.0015742	0.00047617	0.00010323	1207.9	7.126e-06	3.5947e-06	1219.2	338.72	9.5016e-06	4.1594e-06	388.87	132.87	114.27	38.866	6.6507e-06	48.977	0.001017	0.0012321	0.00034119	1231.1	1.2565e-05	1.3251e-05	1244.1	346.92	1.1786e-05	1.3836e-05	398.64	135.64	116.64	40.369	1.2492e-05	50.852	335.010	167.596	184.809	90.202	220.912	192.613	89.796	94.890	261.317	227.263	94.415	98.728	99.494	103.904	221.794	102.835	-8191	255	
1357.701	1	1	0	0	0.30251	0.43995	0.24728	0.20825	0.33053	0.20935	0.077069	0.17413	0.16557	0.12388	0.3684	0.33062	0.34047	0.039712	0.18051	0.11842	-1.6604	-1.8104	-1.4583	-2.4104	-1.5292	-1.5875	-2.4083	-1.4667	-1.9333	-1.8833	-1.5688	-2.2104	-1.7938	-1.6479	-2.0833	-1.4937	114.314	375.412	203.919	404.840	283.677	126.367	377.000	391.824	230.904	337.550	389.047	408.007	383.790	142.436	174.877	297.826	0.0015273	0.00065617	0.00012016	1200.4	7.1122e-06	6.3284e-06	1220.7	339.11	1.1421e-05	5.3494e-06	388.07	132.97	113.87	38.882	7.3168e-06	49.187	0.0010322	0.0012201	0.00034774	1227.6	1.2139e-05	1.3768e-05	1244.5	346.21	1.1743e-05	1.3413e-05	399.12	135.62	116.31	40.288	1.203e-05	50.905	333.479	160.876	165.754	90.119	248.191	211.911	89.642	94.982	264.088	199.187	94.292	98.972	99.387	104.199	234.503	102.817	-8191	255	
1357.797	1	1	0	0	0.023175	0.10768	0.26876	0.32473	0.28399	0.30523	0.3969	0.19801	0.15931	0.10292	0.21833	0.1622	0.31612	0.11742	0.12373	0.051295	-1.4792	-1.9167	-1.2479	-2.2854	-1.7292	-1.3604	-2.4813	-1.4729	-1.8417	-2.1229	-1.4167	-2.1854	-1.8417	-1.4708	-2.1917	-1.6396	105.702	107.547	92.898	406.181	317.062	236.210	379.364	327.689	265.646	178.944	384.813	365.995	97.383	98.266	268.951	149.672	0.0016352	0.00054285	0.00017801	1209.8	5.7272e-06	5.8769e-06	1219.3	336.71	1.126e-05	4.9219e-06	388.65	132.49	113.79	38.743	5.5089e-06	49.108	0.0010049	0.0012075	0.0003431	1231.1	1.23e-05	1.3665e-05	1242.9	345.74	1.1596e-05	1.3439e-05	399.59	135.53	116.28	40.23	1.2234e-05	50.858	338.329	162.746	170.608	90.216	211.422	228.515	89.650	94.973	234.640	210.706	94.297	98.952	99.479	103.864	226.947	102.701	-8191	255	
1357.893	1	1	0	0	0.079521	0.2107	0.15003	0.14767	0.066618	0.17404	0.31992	0.12082	0.12951	0.073907	0.15157	0.074261	0.214	0.2827	0.059538	0.034315	-1.4771	-2.0896	-1.3083	-2.2	-1.8729	-1.3396	-2.4333	-1.6479	-1.5438	-2.2167	-1.3667	-2.2042	-1.8667	-1.4813	-2.1521	-1.6938	244.216	224.044	219.160	85.060	363.494	395.373	366.194	82.262	205.351	384.525	365.925	144.443	375.525	419.160	408.695	170.424	0.0015491	0.00046377	0.00010495	1198.5	7.5789e-06	6.9986e-06	1222.9	337.87	9.8826e-06	7.2125e-06	390.54	133.29	113.6	39.026	6.595e-06	49.071	0.0010451	0.0011667	0.00034366	1228.9	1.1867e-05	1.3484e-05	1246	345.65	1.186e-05	1.3506e-05	400.11	135.98	116.17	40.348	1.2514e-05	50.876	334.183	159.792	153.735	90.037	204.421	214.792	89.899	94.769	250.676	221.514	94.158	99.126	99.345	103.964	238.302	102.389	-8191	255	
1357.987	1	1	0	0	0.040594	0.13832	0.2622	0.043122	0.28776	0.09929	0.2147	0.26971	0.3753	0.13482	0.18548	0.12887	0.21155	0.10654	0.14641	0.32678	-1.2188	-2.0458	-1.3625	-2.1354	-1.875	-1.3333	-2.3229	-1.6979	-1.5479	-2.2104	-1.4833	-1.9688	-2.1271	-1.3896	-2.0271	-1.5625	112.476	91.730	169.694	143.938	347.283	369.147	373.212	408.294	203.985	97.163	386.046	375.478	89.981	224.529	313.715	394.591	0.0016583	0.00049388	0.00013479	1200.4	7.3853e-06	5.0206e-06	1220	339.53	9.0745e-06	3.4017e-06	389.23	132.72	113.99	38.909	5.3494e-06	49.388	0.0010097	0.0011573	0.00033616	1227.6	1.1892e-05	1.3515e-05	1243.4	346.61	1.1971e-05	1.3227e-05	399.06	135.7	116.29	40.315	1.2303e-05	50.878	336.015	165.143	152.499	90.319	229.497	233.874	90.132	94.806	242.865	219.568	94.414	99.040	99.662	104.065	229.765	102.807	-8191	255	
1358.084	1	1	0	0	0.16947	0.026779	0.12379	0.32067	0.30821	0.28031	0.15217	0.24971	0.14545	0.1069	0.18279	0.31818	0.26925	0.087836	0.10317	0.32054	-1.0875	-2.0604	-1.2625	-2.0438	-1.9021	-1.1604	-2.1958	-1.875	-1.35	-2.1562	-1.6229	-1.8125	-2.2687	-1.2938	-1.9125	-2.0542	423.941	362.054	140.327	418.547	321.880	387.542	406.224	389.246	316.509	316.837	89.799	100.936	394.618	193.396	403.370	329.908	0.0014915	0.00045896	0.00010084	1201.5	7.5578e-06	5.1827e-06	1224.4	337.22	9.6094e-06	3.8626e-06	388.06	133.06	114	38.691	7.8609e-06	49.194	0.001027	0.0011482	0.00033505	1228.9	1.179e-05	1.3509e-05	1247.7	345.89	1.169e-05	1.3112e-05	398.68	135.96	116.46	40.213	1.2499e-05	50.864	334.172	163.532	160.348	90.184	239.077	211.773	89.942	94.951	242.328	211.821	94.067	99.275	99.515	104.031	228.722	102.598	-8191	255	
1358.204	1	1	0	0	0.060633	0.26697	0.088314	0.038421	0.10232	0.19295	0.29277	0.2461	0.19998	0.04213	0.05937	0.038752	0.21936	0.18267	0.10033	0.064686	-0.92292	-2.0354	-1.4271	-1.7229	-2.1417	-1.475	-2.0771	-1.9208	-1.2375	-2.0521	-1.6167	-1.4625	-2.1562	-1.3667	-1.9417	-2.0417	262.377	106.117	125.195	151.770	294.552	172.728	370.460	378.792	132.529	151.379	359.386	380.659	386.782	416.160	103.816	429.781	0.0015894	0.00058304	0.0001597	1201.9	4.9417e-06	5.5759e-06	1223.6	337.47	8.5926e-06	3.1042e-06	387.74	132.37	113.43	38.84	7.3157e-06	49.267	0.0010414	0.0011414	0.00033707	1230	1.1861e-05	1.3123e-05	1246.3	345.85	1.1851e-05	1.3158e-05	398.39	135.6	116.36	40.32	1.226e-05	50.953	335.149	144.001	160.701	90.499	234.447	237.433	90.116	95.192	236.150	221.422	94.116	98.989	99.353	103.883	208.789	102.859	-8191	255	
1358.300	1	1	0	0	0.14022	0.16337	0.28981	0.22767	0.24867	0.16612	0.25984	0.24932	0.094553	0.16826	0.36294	0.2073	0.12678	0.42778	0.05026	0.17371	-0.98125	-2.1333	-1.4833	-1.6604	-2.3271	-1.4208	-1.9875	-2.0896	-1.1542	-2.0312	-1.775	-1.5917	-2.1208	-1.5812	-1.8167	-2.1021	418.951	159.416	436.511	133.201	273.669	341.463	335.934	89.362	251.467	188.473	104.568	258.669	372.409	392.122	425.387	347.886	0.0014886	0.00036396	0.00010599	1203.8	5.6167e-06	5.7142e-06	1222.6	337.48	9.5049e-06	5.1571e-06	387.88	133.44	114.27	38.939	7.216e-06	49.243	0.0010094	0.0011987	0.00033037	1230.5	1.1791e-05	1.3573e-05	1246.1	346.12	1.1773e-05	1.311e-05	399.54	135.87	116.51	40.314	1.2543e-05	50.931	337.065	169.873	168.625	90.139	225.614	234.821	90.067	94.944	255.359	204.071	94.393	99.060	99.623	103.629	211.764	102.637	-8191	255	
1358.372	1	1	0	0	0.18577	0.12641	0.14406	0.23073	0.17076	0.17631	0.20403	0.06005	0.12686	0.010379	0.12845	0.083943	0.4343	0.1975	0.12221	0.088712	-0.89375	-2.0687	-1.7812	-1.5354	-2.0896	-1.5	-2.025	-2.1917	-1.2708	-2.0646	-1.9479	-1.4312	-2.4688	-1.5021	-1.5854	-2.3979	365.474	274.823	433.408	387.901	427.410	283.066	385.856	357.398	214.745	96.035	407.772	410.246	78.741	434.215	409.699	362.196	0.0014527	0.00040658	0.00013422	1204.1	6.2204e-06	4.7645e-06	1222.7	338.06	9.9989e-06	4.3101e-06	390.02	132.65	113.58	38.904	8.0644e-06	49.306	0.0010272	0.0011229	0.00032227	1230.4	1.2029e-05	1.3093e-05	1246.6	346.17	1.1973e-05	1.2821e-05	399.43	135.85	116.57	40.32	1.2779e-05	51.005	336.022	153.069	173.732	90.433	225.146	237.287	89.959	94.998	253.125	244.163	94.153	98.895	99.361	104.001	234.313	102.642	-8191	255	
1358.468	1	1	0	0	0.1171	0.069603	0.068661	0.23506	0.13765	0.13572	0.26896	0.12875	0.086637	0.19759	0.092863	0.36503	0.1485	0.17613	0.27508	0.17445	-0.775	-1.8417	-1.9521	-1.4125	-2.0729	-1.4917	-1.7958	-2.2146	-1.4083	-1.8771	-1.9667	-1.3188	-2.1813	-1.6542	-1.5042	-2.1813	396.449	328.554	125.071	290.918	300.110	130.018	338.209	277.676	387.284	327.533	354.979	420.491	311.376	411.845	381.109	426.111	0.0015654	0.00049794	0.00013694	1199.5	5.5966e-06	4.5083e-06	1215.3	337.39	7.1564e-06	4.742e-06	388.76	132.09	113.5	38.837	6.6842e-06	49.385	0.0010358	0.0011839	0.00032472	1227.8	1.182e-05	1.2939e-05	1242.3	345.89	1.1443e-05	1.3088e-05	399.26	135.61	116.55	40.325	1.2783e-05	50.941	335.132	145.213	170.879	90.194	236.574	208.825	89.960	94.778	236.784	228.120	94.079	98.761	99.367	103.487	229.484	102.618	-8191	255	
1358.589	1	1	0	0	0.1872	0.20464	0.19374	0.15969	0.29418	0.148	0.48184	0.27638	0.29548	0.18956	0.24784	0.13646	0.17939	0.25924	0.11474	0.072701	-0.98125	-1.825	-1.9562	-1.3979	-2.0979	-1.7104	-1.5521	-2.3875	-1.4396	-1.7521	-2.1917	-1.4917	-2.1854	-1.8458	-1.4521	-2.3688	293.050	318.943	429.849	414.940	220.509	213.198	401.160	422.019	202.469	374.408	390.799	427.318	407.465	369.659	191.434	170.587	0.0015414	0.0005465	7.3715e-05	1196.4	7.4453e-06	5.1359e-06	1224.6	338.7	8.5096e-06	4.3157e-06	389.35	132.68	113.66	38.834	6.8244e-06	49.342	0.0010331	0.0011996	0.00032512	1226.2	1.1818e-05	1.301e-05	1244.6	346.68	1.1857e-05	1.2942e-05	399.48	135.66	116.35	40.258	1.2586e-05	51.057	334.028	154.623	169.981	90.036	219.818	244.443	89.622	94.831	270.549	238.158	94.208	99.174	99.327	103.701	237.043	102.756	-8191	255	
1358.685	1	1	0	0	0.17634	0.13218	0.069689	0.26214	0.047256	0.15351	0.13017	0.11134	0.18895	0.28479	0.075755	0.35053	0.070909	0.061647	0.0944	0.15879	-1.1292	-1.5396	-2.1063	-1.2979	-2.0563	-1.7521	-1.5562	-2.3167	-1.5604	-1.6104	-2.35	-1.2854	-1.9771	-1.95	-1.3188	-2.3396	400.703	91.631	111.752	234.365	186.913	142.000	434.564	392.274	202.000	255.870	223.481	347.077	94.258	319.705	96.418	217.499	0.0015674	0.00033938	0.00013178	1199.5	8.7794e-06	4.9562e-06	1217.8	338.32	8.901e-06	6.1509e-06	390.21	132.8	114.13	38.91	6.7835e-06	48.983	0.0010156	0.0011904	0.0003354	1227.6	1.2049e-05	1.2946e-05	1243.1	346.44	1.1614e-05	1.3638e-05	400.15	135.63	116.62	40.334	1.2148e-05	50.912	337.742	149.119	155.984	90.103	233.910	214.973	89.692	94.894	257.795	225.299	93.967	99.007	99.263	103.774	245.536	102.796	-8191	255	
1358.781	1	1	0	0	0.09175	0.10836	0.24482	0.15542	0.086105	0.13626	0.45631	0.33355	0.056513	0.33267	0.079646	0.20529	0.12485	0.1504	0.40793	0.14965	-1.1854	-1.6333	-2.1917	-1.4792	-1.8792	-2.0667	-1.5833	-2.3708	-1.6896	-1.325	-2.2146	-1.625	-2.0396	-2.0854	-1.1562	-2.2042	433.721	164.265	358.431	89.736	124.783	233.349	396.727	392.688	109.834	359.032	277.432	242.182	339.880	87.662	101.484	293.348	0.0015596	0.00066149	0.00010449	1202.6	7.4972e-06	3.3377e-06	1224.2	337.33	7.6963e-06	2.8462e-06	388.99	133.38	113.52	38.918	7.2536e-06	49.283	0.001012	0.0011655	0.00032331	1231.8	1.1983e-05	1.2951e-05	1245.3	346.26	1.1314e-05	1.3068e-05	399.46	135.86	116.49	40.346	1.2748e-05	50.95	334.532	149.775	195.906	89.942	217.104	217.177	89.903	94.952	253.524	254.981	93.736	98.834	99.407	103.391	244.223	102.852	-8191	255	
1358.902	1	1	0	0	0.02935	0.017241	0.082372	0.16015	0.16964	0.095633	0.11667	0.15896	0.071401	0.15767	0.12164	0.04788	0.15007	0.15564	0.30269	0.11898	-1.3521	-1.6187	-2.15	-1.5583	-1.8875	-2.075	-1.6167	-2.1146	-1.8021	-1.3729	-2.2917	-1.4125	-1.7313	-2.2146	-1.225	-2	143.687	80.266	136.820	402.957	230.375	252.693	77.394	384.684	197.838	431.582	388.354	357.884	125.407	81.184	263.767	81.742	0.0015334	0.00045915	0.00015018	1201.5	7.9945e-06	1.7157e-06	1222.7	337.27	8.5717e-06	5.7673e-06	389.42	132.44	113.48	38.905	8.0594e-06	49.274	0.0010124	0.0011954	0.00031926	1228.5	1.1655e-05	1.3115e-05	1245.4	345.77	1.1508e-05	1.383e-05	399.52	135.5	116.47	40.317	1.2336e-05	50.943	334.609	172.404	147.719	89.859	218.700	230.110	89.867	95.065	242.018	245.740	94.123	98.964	99.534	103.688	214.055	102.889	-8191	255	
1358.973	1	1	0	0	0.11601	0.28255	0.25462	0.090323	0.23004	0.062678	0.21328	0.31261	0.15666	0.091001	0.21628	0.22456	0.17164	0.26052	0.19807	0.26915	-1.4438	-1.3458	-2.2062	-1.5042	-1.5021	-2.1979	-1.3687	-2.1917	-1.7083	-1.2458	-2.2833	-1.625	-1.4729	-2.2479	-1.2833	-1.9125	269.531	152.310	279.865	309.489	297.388	106.082	91.077	425.368	78.912	249.029	91.223	391.012	406.576	421.007	344.241	373.862	0.0015515	0.00052644	0.00014134	1202.5	7.424e-06	4.7851e-06	1221.1	338.22	9.3933e-06	4.0919e-06	386.92	132.68	113.32	38.84	7.7186e-06	49.228	0.0010193	0.0011598	0.00032425	1228.7	1.1808e-05	1.2966e-05	1245.6	346.07	1.1331e-05	1.3576e-05	398.27	135.54	116.42	40.315	1.2281e-05	51.021	335.812	184.466	148.120	89.852	223.837	210.917	89.814	95.156	255.876	220.941	94.053	98.853	99.621	103.600	235.871	103.094	-8191	255	
1359.070	1	1	0	0	0.29837	0.088436	0.3109	0.039878	0.21268	0.39964	0.2436	0.2105	0.1113	0.39573	0.32616	0.016567	0.25709	0.19809	0.018378	0.24558	-1.5	-1.2646	-2.1729	-1.6396	-1.45	-2.0333	-1.5479	-1.8875	-1.9542	-1.4146	-2.2188	-1.6458	-1.4312	-2.3563	-1.4875	-1.8104	215.509	267.260	268.417	402.073	391.291	218.197	321.905	327.369	396.589	243.856	387.750	284.766	284.649	409.647	207.006	320.923	0.0015316	0.00046759	9.7809e-05	1204.8	6.7519e-06	5.8116e-06	1225.1	337.75	8.749e-06	5.1155e-06	391.27	132.7	114.07	38.906	9.7607e-06	49.179	0.00099912	0.0011755	0.00032267	1228.1	1.1857e-05	1.3415e-05	1244.8	345.68	1.1527e-05	1.3049e-05	399.96	135.65	116.53	40.354	1.2571e-05	50.999	334.437	164.166	186.661	90.112	220.479	210.133	89.744	95.150	250.711	231.218	94.284	98.957	99.232	103.686	225.066	102.902	-8191	255	
1359.188	1	1	0	0	0.11944	0.071869	0.01037	0.1253	0.14482	0.12335	0.33621	0.15226	0.27032	0.15293	0.086776	0.15328	0.17365	0.21581	0.13911	0.15293	-1.5667	-1.1917	-1.9875	-1.9312	-1.35	-2.1521	-1.4479	-1.6479	-2.1479	-1.2021	-2.1375	-1.8646	-1.4229	-2.3792	-1.3396	-1.6938	332.121	168.323	124.254	363.217	162.896	117.913	403.017	342.425	257.256	290.071	376.215	92.185	213.664	395.910	299.054	349.230	0.0015439	0.00038106	0.00016497	1196.7	6.9939e-06	6.0406e-06	1219.2	337.06	6.8902e-06	4.2981e-06	390.88	132.3	113.99	38.788	5.9181e-06	49.231	0.00099635	0.0011647	0.00032048	1227.4	1.1738e-05	1.3109e-05	1243.7	346.11	1.1564e-05	1.3644e-05	399.08	135.42	116.39	40.314	1.2279e-05	50.878	335.181	166.246	152.307	89.817	232.981	199.764	89.717	95.070	263.420	241.815	94.024	98.759	99.435	104.014	231.002	102.721	-8191	255	
1359.285	1	1	0	0	0.16117	0.3377	0.18393	0.14591	0.22269	0.1259	0.21299	0.087088	0.15132	0.16393	0.16087	0.19752	0.1478	0.17725	0.13969	0.16708	-1.8854	-1.3958	-1.8604	-1.9667	-1.4667	-2.0167	-1.6875	-1.5458	-2.0187	-1.4062	-2.0979	-1.9792	-1.2292	-2.2854	-1.5625	-1.4937	201.855	178.730	99.588	435.892	151.045	344.295	388.137	390.168	114.242	280.225	318.295	266.246	117.641	405.198	176.000	385.696	0.0015499	0.00058968	0.00012749	1201.2	8.3904e-06	4.1733e-06	1219.8	338.1	9.9231e-06	6.2034e-06	389.03	132.55	113.39	38.714	7.9959e-06	49.261	0.0010032	0.0012188	0.00032084	1229.5	1.1812e-05	1.2711e-05	1244.3	345.96	1.1596e-05	1.3522e-05	399.62	135.52	116.36	40.255	1.2453e-05	50.954	336.465	160.712	171.687	90.392	222.959	227.029	89.874	95.003	255.529	236.458	94.332	99.037	99.426	103.793	220.792	102.711	-8191	255	
1359.381	1	1	0	0	0.087311	0.31364	0.16031	0.19503	0.2169	0.28711	0.17584	0.19761	0.12339	0.26499	0.28006	0.29613	0.24201	0.14994	0.060537	0.068047	-1.7958	-1.3	-1.8687	-2.3104	-1.1667	-1.9125	-2.0375	-1.7042	-2.1375	-1.2792	-2.0521	-2.0917	-1.1688	-1.9771	-1.6	-1.4167	363.470	262.773	241.112	387.076	210.742	341.507	373.611	335.730	110.610	293.779	108.294	399.464	160.472	344.531	132.361	377.859	0.0015883	0.00043788	0.00012866	1202.9	7.2809e-06	5.5474e-06	1221.7	338.07	9.6845e-06	3.4095e-06	387.29	132.47	113.37	38.821	6.9555e-06	49.153	0.0010137	0.0012137	0.00033218	1229.7	1.2266e-05	1.2814e-05	1245	346.18	1.1673e-05	1.3188e-05	399.67	135.4	116.27	40.368	1.2385e-05	50.857	335.377	137.765	176.717	90.185	214.695	219.462	89.795	95.068	257.314	219.581	94.164	98.975	99.662	103.696	235.509	102.529	-8191	255	
1359.501	1	1	0	0	0.18576	0.36757	0.17279	0.37434	0.43997	0.028305	0.13254	0.31335	0.11587	0.027944	0.13006	0.16738	0.16062	0.16114	0.13343	0.065105	-1.7042	-1.3875	-1.5708	-2.0771	-1.2771	-1.875	-2.0542	-1.4375	-2.1333	-1.7542	-1.6896	-2.3	-1.5333	-1.9979	-1.7188	-1.3667	222.452	207.141	180.211	414.856	142.439	340.805	380.965	339.672	112.315	430.008	349.796	382.417	334.224	414.045	280.965	91.892	0.0015504	0.00043875	0.00012403	1195.9	6.64e-06	4.3717e-06	1221.3	338.11	9.899e-06	3.7669e-06	390.2	132.45	113.74	38.936	8.5871e-06	49.073	0.0010111	0.001209	0.00033696	1226.6	1.2082e-05	1.2955e-05	1245.7	345.94	1.1275e-05	1.3958e-05	399.57	135.57	116.56	40.366	1.2443e-05	50.963	334.253	166.603	174.467	89.784	213.983	212.851	89.430	94.618	246.535	223.928	93.950	98.325	98.921	103.444	230.023	102.133	-8191	255	
1359.573	1	1	0	0	0.26958	0.22005	0.076597	0.34841	0.045998	0.10546	0.16876	0.25039	0.057163	0.11039	0.28411	0.1228	0.051131	0.18911	0.21595	0.23531	-1.9208	-1.6854	-1.4146	-2.3208	-1.2563	-1.8708	-2.125	-1.3417	-1.8542	-1.4625	-1.6604	-2.3292	-1.2146	-1.9167	-1.8521	-1.5438	120.889	344.928	163.564	90.200	328.371	199.949	355.424	113.511	98.502	200.268	431.730	248.954	178.322	135.204	195.518	340.564	0.0015803	0.00062909	0.0001035	1200.8	6.1697e-06	3.5375e-06	1220.8	337.34	8.5359e-06	3.8155e-06	390.17	132.58	113.43	38.745	7.6056e-06	49.062	0.0010243	0.0011947	0.00034068	1227	1.2275e-05	1.3739e-05	1247.5	346.12	1.143e-05	1.3376e-05	399.7	135.73	116.43	40.315	1.2224e-05	50.904	334.810	178.896	151.699	89.902	224.015	235.853	89.397	94.634	267.861	229.874	94.051	98.411	98.967	103.520	232.180	102.704	-8191	255	
1359.669	1	1	0	0	0.25464	0.14722	0.27083	0.19792	0.10516	0.12633	0.19919	0.45216	0.13292	0.032695	0.308	0.17249	0.21333	0.16277	0.33401	0.30791	-1.7021	-1.7458	-1.4083	-2.1292	-1.1792	-1.7229	-2.2104	-1.4271	-2.025	-1.7208	-1.4604	-2.3396	-1.5917	-1.5979	-2.1104	-1.5667	79.526	261.411	126.944	103.897	286.206	323.828	367.566	351.843	218.051	137.904	350.219	429.289	134.778	174.615	413.138	104.210	0.0014891	0.00059588	0.00014221	1199.4	6.4236e-06	5.8666e-06	1222.3	338.28	8.6903e-06	7.5504e-06	392.26	132.62	113.16	38.802	6.8552e-06	49.263	0.001015	0.001183	0.00033613	1228.2	1.263e-05	1.3566e-05	1246.1	346.33	1.1683e-05	1.3573e-05	400.51	135.73	116.35	40.353	1.237e-05	50.971	337.863	175.552	169.927	89.797	220.770	207.033	89.459	94.709	240.397	226.163	93.924	98.560	98.981	103.480	224.187	102.162	-8191	255	
1359.765	1	1	0	0	0.058515	0.19574	0.058797	0.15545	0.042956	0.086657	0.3276	0.20016	0.2123	0.10548	0.19984	0.17352	0.067831	0.12616	0.3534	0.22655	-1.5312	-1.6396	-1.4438	-2.4062	-1.6104	-1.4646	-2.1021	-1.2375	-1.8729	-1.9896	-1.2896	-2.1271	-1.6229	-1.4896	-2.2167	-1.5625	361.374	349.256	240.633	402.107	122.440	193.287	385.263	395.528	129.297	404.734	412.243	423.867	126.567	309.081	340.831	397.939	0.0015846	0.00050376	0.00015159	1206.3	6.0405e-06	3.0729e-06	1224.5	337.33	1.1824e-05	3.7019e-06	390.93	132.97	113.79	38.833	7.4374e-06	49.286	0.00097052	0.0011795	0.00034901	1232.1	1.2186e-05	1.3459e-05	1246	346.04	1.156e-05	1.3746e-05	399.61	135.66	116.56	40.326	1.2698e-05	50.866	335.750	150.761	181.302	89.810	240.554	218.704	89.561	94.399	253.049	243.535	93.758	98.776	98.788	103.785	227.924	102.460	-8191	255	
1359.884	1	1	0	0	0.18347	0.10359	0.036472	0.061232	0.19544	0.18989	0.29123	0.37455	0.14326	0.18192	0.16996	0.22777	0.1721	0.26127	0.29222	0.11769	-1.5104	-1.8625	-1.1896	-2.2833	-1.5583	-1.3729	-2.4083	-1.5229	-1.5708	-1.8312	-1.4271	-2.025	-1.6396	-1.2458	-2.1396	-1.5771	138.563	265.758	329.568	288.387	147.201	225.617	334.152	356.332	80.405	106.668	199.604	410.115	115.290	296.306	381.863	370.483	0.001517	0.00054317	5.6918e-05	1202.8	5.7256e-06	4.8085e-06	1223.7	337.75	9.3298e-06	5.3785e-06	391.11	132.54	113.21	38.806	6.0749e-06	49.109	0.0010183	0.0011857	0.00034355	1229.3	1.2098e-05	1.3828e-05	1246.5	346.42	1.1469e-05	1.366e-05	399.76	135.74	116.21	40.281	1.2056e-05	50.963	333.847	165.462	185.124	89.750	214.712	223.258	89.419	94.622	255.339	220.189	94.065	98.469	98.809	103.740	235.648	102.429	-8191	255	
1359.980	1	1	0	0	0.22352	0.073334	0.24062	0.17696	0.062986	0.1325	0.38976	0.23119	0.12972	0.037442	0.15884	0.15272	0.1406	0.23159	0.29856	0.22997	-1.0792	-1.9479	-1.1896	-1.9896	-1.6313	-1.3708	-2.3833	-1.4854	-1.5458	-1.8438	-1.3667	-2.1417	-2.0917	-1.3521	-2.0625	-1.7792	309.495	207.157	163.259	397.947	395.652	342.704	317.778	369.620	177.680	289.444	328.835	387.043	387.308	319.191	382.798	212.590	0.001502	0.00044101	9.7669e-05	1198.2	6.7181e-06	5.1235e-06	1222.8	336.83	9.6376e-06	5.1549e-06	390.06	132.57	113.61	38.819	8.9667e-06	49.207	0.0010144	0.0011715	0.00035287	1228.4	1.2122e-05	1.4068e-05	1246.1	345.98	1.2044e-05	1.3469e-05	400	135.64	116.39	40.243	1.26e-05	50.822	334.910	152.785	171.426	89.818	233.064	210.323	89.298	94.762	235.973	237.288	93.708	98.682	98.990	103.714	239.284	102.465	-8191	255	
1360.077	1	1	0	0	0.13691	0.083964	0.2087	0.081569	0.092341	0.086546	0.067849	0.37726	0.20481	0.19873	0.17172	0.10789	0.13752	0.064216	0.27034	0.26568	-1.0146	-2.0167	-1.1708	-1.9542	-1.9188	-1.3479	-2.3271	-1.75	-1.375	-2.1917	-1.575	-1.9479	-2.1333	-1.2563	-2.15	-1.8083	393.607	220.882	420.765	322.099	366.959	225.390	369.631	277.220	224.355	196.931	380.348	224.268	407.024	313.192	214.595	350.638	0.0015894	0.0004827	0.0001479	1202.3	6.5371e-06	3.7742e-06	1225.3	338.14	8.5483e-06	5.8958e-06	387.91	132.43	112.99	38.651	5.6445e-06	48.756	0.0010349	0.0011861	0.00034519	1230.6	1.2638e-05	1.3245e-05	1247.3	346.04	1.2192e-05	1.3724e-05	398.73	135.54	116.02	40.203	1.2148e-05	50.662	335.242	154.692	156.667	89.944	242.166	219.542	89.565	94.690	238.505	250.854	93.998	98.627	99.140	103.508	231.319	102.316	-8191	255	
1360.173	1	1	0	0	0.30106	0.1824	0.1783	0.089839	0.30078	0.14322	0.25758	0.33248	0.061357	0.022384	0.024003	0.18224	0.087515	0.22699	0.23788	0.24119	-1.0479	-2.3521	-1.4375	-1.9146	-2.0625	-1.4083	-2.1354	-1.9458	-1.1896	-2.1146	-1.8625	-1.8604	-2.1333	-1.3917	-1.8563	-1.9375	199.011	192.720	436.296	104.644	284.784	186.511	404.530	357.903	298.647	340.922	218.678	305.482	365.778	139.669	351.423	375.103	0.0016254	0.00068308	0.00012611	1201.9	7.7667e-06	5.6754e-06	1219.9	336.83	1.0042e-05	4.49e-06	387.97	132.3	113.58	38.906	8.5204e-06	49.293	0.0010385	0.0012188	0.00035122	1229.8	1.2397e-05	1.4011e-05	1246.4	346.06	1.2326e-05	1.3831e-05	398.8	135.78	116.26	40.258	1.2757e-05	50.897	333.448	166.107	185.378	90.034	235.761	209.744	89.644	94.575	251.522	208.954	94.040	99.002	99.096	103.408	223.821	102.390	-8191	255	
1360.269	1	1	0	0	0.19865	0.21208	0.17372	0.23561	0.040055	0.19399	0.18857	0.11758	0.066718	0.11233	0.27577	0.19063	0.1563	0.18294	0.099715	0.17195	-0.94792	-2.2208	-1.3771	-1.775	-2.1063	-1.4125	-2.2021	-2.0125	-1.2104	-2.0854	-1.5854	-1.6833	-2.2812	-1.3083	-1.8583	-2.0104	112.862	270.202	410.398	361.401	132.026	141.720	93.428	429.311	427.943	150.827	395.274	361.441	402.189	302.992	364.743	407.279	0.0015379	0.00039061	0.00012431	1203.8	5.6793e-06	3.488e-06	1224	336.68	1.0928e-05	5.3944e-06	388.84	133.33	113.66	38.631	6.9513e-06	48.952	0.0010257	0.0011603	0.00034119	1231.1	1.1922e-05	1.4159e-05	1245.7	345.74	1.2183e-05	1.3801e-05	399.12	135.86	116.46	40.181	1.286e-05	50.692	331.040	168.790	182.118	89.906	239.183	253.345	89.528	94.654	243.015	229.501	93.905	98.611	99.189	103.384	224.812	102.435	-8191	255	
1360.365	1	1	0	0	0.17522	0.076685	0.13769	0.14936	0.060898	0.065562	0.44127	0.16119	0.18752	0.22922	0.32038	0.1178	0.080073	0.23482	0.25557	0.1311	-0.71458	-1.925	-1.7542	-1.6938	-2.2042	-1.5396	-1.9604	-2.1167	-1.3542	-2.1396	-1.7646	-1.7646	-2.2979	-1.7563	-1.7833	-2.2604	91.469	149.574	245.712	175.128	98.364	205.837	403.090	366.549	346.804	265.943	374.377	144.948	237.384	86.984	256.221	193.692	0.0016255	0.00049443	0.00014483	1201.3	7.1093e-06	5.5137e-06	1223	337.54	8.4751e-06	4.4988e-06	390.13	132.74	113.15	38.644	7.4238e-06	49.165	0.0010493	0.0011712	0.00033872	1228.1	1.1992e-05	1.3818e-05	1245.6	345.89	1.2242e-05	1.3896e-05	399.37	135.72	116.05	40.204	1.2922e-05	50.868	336.385	152.587	168.960	90.120	239.061	256.278	89.655	94.740	261.132	249.380	93.926	98.854	99.106	103.743	243.188	102.530	-8191	255	
1360.461	1	1	0	0	0.10559	0.14287	0.19524	0.11032	0.050311	0.38018	0.22697	0.17033	0.089061	0.15762	0.32241	0.22501	0.19945	0.26779	0.36167	0.13617	-0.99375	-2.1083	-1.7854	-1.4583	-2.2833	-1.5167	-1.9417	-2.3563	-1.3625	-2.3542	-2.1854	-1.4188	-2.3854	-1.4854	-1.5021	-2.3521	415.670	96.971	129.717	126.385	385.247	362.531	398.398	319.715	293.573	431.762	319.153	357.354	122.046	372.054	188.416	240.862	0.0016203	0.00031865	0.00013455	1204.2	8.322e-06	5.9426e-06	1223.5	337.77	1.0131e-05	4.0333e-06	388.94	132.93	113.38	38.76	4.5521e-06	49.139	0.0010583	0.001202	0.00033387	1229.3	1.263e-05	1.3228e-05	1246.5	345.85	1.1968e-05	1.3977e-05	399.32	135.7	116.3	40.189	1.2471e-05	50.8	334.986	193.591	191.256	89.750	237.450	238.603	89.860	94.792	261.681	225.904	94.128	98.936	99.192	103.619	204.439	102.538	-8191	255	
1360.580	1	1	0	0	0.10593	0.24551	0.20566	0.044766	0.13862	0.12619	0.35724	0.23967	0.09413	0.10423	0.076713	0.25999	0.24513	0.063935	0.088277	0.14851	-0.94375	-1.8146	-1.9771	-1.5292	-2.2375	-1.6604	-1.7667	-2.4813	-1.5083	-1.8312	-2.425	-1.5229	-2.2854	-1.7917	-1.6979	-2.4083	95.075	280.267	314.844	107.250	293.870	387.701	355.329	366.140	196.948	261.574	113.497	413.076	122.471	428.520	211.063	359.343	0.0015366	0.00039569	0.00013233	1203.6	6.3979e-06	5.8815e-06	1223.2	336.95	9.5324e-06	4.9075e-06	388.77	133.46	112.96	38.678	7.0317e-06	48.914	0.001036	0.0011857	0.00034056	1230.6	1.2225e-05	1.3802e-05	1245.3	345.97	1.1782e-05	1.3847e-05	399.54	135.94	116.12	40.158	1.2728e-05	50.828	335.453	180.188	155.266	89.886	216.365	228.847	89.677	95.003	258.949	228.427	93.859	98.771	99.316	103.386	228.111	102.778	-8191	255	
1360.676	1	1	0	0	0.10003	0.12615	0.094212	0.26955	0.20309	0.046569	0.32418	0.14441	0.047821	0.19731	0.20601	0.34635	0.17789	0.1057	0.17686	0.093987	-1.0375	-2.1521	-2.0854	-1.5083	-2.2604	-1.7104	-1.8354	-2.4021	-1.4688	-1.6917	-2.3458	-1.4958	-2.3729	-1.8583	-1.3625	-2.3063	143.374	357.810	365.923	377.448	396.614	194.267	360.142	418.101	158.307	104.195	399.194	414.503	85.128	148.282	345.425	99.773	0.0015701	0.00052754	0.00011056	1201.9	8.8658e-06	4.9061e-06	1221.1	337.79	9.4445e-06	4.3042e-06	389.21	132.28	113.22	38.654	6.2639e-06	48.948	0.0010361	0.0011833	0.00034025	1228.9	1.1837e-05	1.3755e-05	1245.1	345.99	1.1814e-05	1.3855e-05	399.6	135.46	116.1	40.177	1.2628e-05	50.782	337.117	155.287	168.240	90.158	235.246	222.511	89.885	94.979	246.336	218.624	94.199	98.739	99.504	103.843	227.034	102.868	-8191	255	
1360.772	1	1	0	0	0.12914	0.14608	0.14339	0.30677	0.32057	0.037508	0.36729	0.14884	0.1436	0.14923	0.07867	0.17308	0.2506	0.10622	0.10113	0.13447	-1.2833	-1.8354	-2.275	-1.5875	-2.0292	-2.0396	-1.7188	-2.5479	-1.6917	-1.675	-2.4062	-1.5417	-2.2083	-1.9208	-1.4854	-2.4542	206.692	281.510	99.047	382.055	279.325	158.392	386.241	129.535	92.501	351.651	422.857	313.453	86.097	297.819	216.681	425.675	0.0015677	0.00054885	0.00010538	1204.7	9.9806e-06	4.5251e-06	1217.8	339.09	1.3165e-05	6.4454e-06	389.45	132.41	113.57	38.88	8.9278e-06	48.826	0.0010236	0.0012101	0.00033051	1231.5	1.2019e-05	1.3192e-05	1244.4	346.43	1.1639e-05	1.3736e-05	398.91	135.52	116.44	40.244	1.2751e-05	50.765	335.297	146.484	142.776	90.180	231.645	203.276	89.785	94.937	257.323	244.518	93.940	98.791	99.253	103.666	240.556	102.724	-8191	255	
1360.868	1	1	0	0	0.099138	0.28149	0.27062	0.40699	0.1488	0.16782	0.20061	0.21188	0.40881	0.1886	0.12974	0.23997	0.14116	0.1148	0.13365	0.04192	-1.1688	-1.7521	-2.2229	-1.6437	-2.0958	-2.0375	-1.5438	-2.3438	-1.8583	-1.6083	-2.3812	-1.75	-1.9688	-2.2125	-1.3021	-2.4854	402.091	353.144	368.711	356.370	267.412	342.272	386.336	274.124	248.038	275.695	182.602	348.509	207.821	191.156	120.477	354.603	0.0015039	0.00046501	0.00016476	1201	7.5396e-06	4.7679e-06	1226.9	337.34	9.5653e-06	4.4117e-06	388.14	132.43	113.95	38.924	9.5632e-06	48.883	0.0010092	0.0011992	0.00032067	1228.5	1.1795e-05	1.3428e-05	1245	345.94	1.1583e-05	1.3508e-05	399.68	135.62	116.37	40.275	1.2327e-05	50.737	330.933	168.557	169.453	90.045	239.138	209.576	89.646	94.954	257.169	217.320	94.101	98.811	99.364	103.610	224.641	103.048	-8191	255	
1360.965	1	1	0	0	0.18499	0.040838	0.18016	0.29473	0.20452	0.070041	0.39739	0.21023	0.099743	0.045544	0.10837	0.11197	0.25949	0.028837	0.14867	0.15057	-1.2708	-1.5	-2.3917	-1.6688	-1.9833	-2.1688	-1.5938	-2.1708	-1.9333	-1.6271	-2.4729	-1.6333	-1.9396	-2.4417	-1.3312	-2.3312	88.620	350.382	387.367	384.730	122.059	429.098	399.899	334.986	131.334	301.744	397.754	97.306	384.800	415.057	214.764	192.895	0.0015782	0.00061552	0.00014592	1200.6	8.1827e-06	5.0707e-06	1220.6	339.11	1.1226e-05	3.6317e-06	387.51	132.89	113.74	38.885	5.608e-06	49.226	0.0010492	0.0011836	0.00032856	1227.9	1.2141e-05	1.3101e-05	1245.6	346.73	1.1539e-05	1.348e-05	398.25	135.62	116.38	40.236	1.2453e-05	50.857	331.475	155.063	177.300	89.936	233.589	210.803	89.847	95.086	256.731	219.846	93.950	98.914	99.698	103.757	229.985	102.668	-8191	255	
1361.061	1	1	0	0	0.10442	0.11255	0.077528	0.022039	0.33196	0.24097	0.13239	0.088905	0.16465	0.05733	0.14526	0.021165	0.1291	0.44886	0.28633	0.03401	-1.5854	-1.3896	-2.2562	-1.7521	-1.5396	-2.2625	-1.6604	-2.2917	-1.9458	-1.4438	-2.1958	-1.7458	-1.575	-2.4313	-1.2271	-1.975	198.395	292.499	98.560	341.823	337.827	226.937	218.832	340.990	341.266	371.620	381.338	424.114	359.278	419.291	105.941	432.812	0.0015299	0.00055867	0.00013369	1200.6	6.9946e-06	6.8839e-06	1222.4	337.02	8.618e-06	5.9139e-06	388.42	133.11	113.48	38.798	5.5818e-06	49.079	0.0010192	0.0011657	0.00031709	1228.8	1.1995e-05	1.3431e-05	1244.9	345.84	1.1616e-05	1.3539e-05	399.28	135.53	116.21	40.242	1.2651e-05	50.827	334.277	155.802	192.541	90.062	238.860	235.672	89.914	94.975	239.038	226.620	94.262	98.778	99.393	103.663	226.069	102.698	-8191	255	
1361.181	1	1	0	0	0.22873	0.30931	0.1818	0.27298	0.29678	0.11344	0.18168	0.45939	0.14801	0.34478	0.28836	0.21742	0.14918	0.24492	0.097671	0.17093	-1.7979	-1.1083	-2.3583	-1.8375	-1.6479	-2.2896	-1.6542	-1.9062	-2.1063	-1.4583	-2.4792	-1.8833	-1.5375	-2.2875	-1.6562	-2.1208	236.782	374.158	166.643	377.320	82.697	254.698	373.603	346.067	195.636	285.572	310.357	427.568	338.090	137.828	376.979	333.600	0.0016513	0.00057571	0.00011858	1200.6	5.9749e-06	5.6831e-06	1227.4	336.71	9.4345e-06	5.3914e-06	389.43	133.14	113	38.786	7.438e-06	49.086	0.001018	0.0012403	0.00033081	1229.4	1.236e-05	1.306e-05	1247	345.64	1.2022e-05	1.3621e-05	399.91	135.66	116.37	40.259	1.2403e-05	50.798	336.625	146.306	171.378	90.458	205.527	222.417	90.062	95.056	231.493	230.423	94.218	98.527	99.669	103.686	241.299	102.782	-8191	255	
1361.278	1	1	0	0	0.22125	0.052983	0.14414	0.20168	0.025773	0.21462	0.19624	0.20488	0.068354	0.041945	0.061251	0.17505	0.25296	0.068699	0.17207	0.36706	-1.9271	-1.3875	-2.0917	-2.0687	-1.4958	-2.3708	-1.65	-1.95	-2.15	-1.5083	-2.2354	-2.0062	-1.6146	-2.5125	-1.8333	-1.6604	142.715	188.730	284.207	322.783	257.587	253.921	357.252	130.438	354.589	102.254	390.685	101.909	342.647	365.785	407.201	404.858	0.0015651	0.00061715	0.00012147	1199.9	6.7332e-06	4.2331e-06	1221.1	337.58	1.2553e-05	2.6927e-06	388.59	132.74	113.19	38.769	8.9009e-06	49.018	0.0010356	0.0012232	0.00033602	1229.5	1.1793e-05	1.3077e-05	1245.4	345.7	1.1544e-05	1.3673e-05	398.98	135.8	116.13	40.295	1.2424e-05	50.744	333.889	157.924	176.866	89.909	228.477	210.108	89.754	94.814	251.475	257.139	94.171	98.550	99.231	103.500	247.341	102.793	-8191	255	
1361.372	1	1	0	0	0.22506	0.24723	0.065455	0.17476	0.1831	0.23879	0.10033	0.12928	0.19483	0.035584	0.31751	0.13046	0.269	0.10712	0.067111	0.075268	-1.9188	-1.55	-2.0687	-2.2771	-1.5625	-2.05	-2.0708	-1.8917	-2.2646	-1.3417	-2.2146	-2.2854	-1.4062	-2.3292	-1.8396	-1.8375	224.510	361.228	103.779	306.093	303.740	330.804	204.801	399.426	145.905	381.013	325.786	82.249	410.390	150.797	197.207	132.247	0.0016064	0.00050382	0.00011755	1200.5	7.0135e-06	4.7554e-06	1221	336.14	1.0476e-05	4.6585e-06	389.28	132.77	114.3	38.716	7.0969e-06	49.074	0.0010394	0.0012406	0.00033545	1229.9	1.2383e-05	1.3425e-05	1245.4	345.23	1.1876e-05	1.3833e-05	399.78	135.71	116.45	40.253	1.2314e-05	50.986	333.796	163.352	185.940	90.100	231.513	225.216	89.989	94.956	245.098	212.873	94.365	98.722	99.405	103.962	235.152	102.609	-8191	255	
1361.468	1	1	0	0	0.043657	0.37963	0.13436	0.38528	0.32613	0.077558	0.16375	0.40596	0.019692	0.15322	0.036877	0.13381	0.35053	0.1285	0.23343	0.19771	-1.8563	-1.3354	-1.9562	-2.3	-1.3125	-2.2604	-2.1208	-1.7271	-2.1667	-1.5063	-2.0438	-2.1813	-1.4167	-2.0708	-1.8396	-1.6354	228.662	291.541	115.658	410.858	274.918	166.561	275.025	349.420	221.045	317.081	390.203	352.296	430.155	345.173	404.863	248.420	0.0014385	0.00043642	0.0001573	1202.3	8.4522e-06	4.1684e-06	1217.9	339.26	1.1604e-05	5.9021e-06	388.87	132.74	113.32	38.86	5.0268e-06	49.074	0.0010143	0.0011855	0.00034308	1229.6	1.2199e-05	1.3074e-05	1247	346.54	1.1704e-05	1.399e-05	399.11	135.75	116.13	40.227	1.2154e-05	50.845	334.704	165.067	147.694	90.044	232.666	236.832	89.763	95.032	242.420	239.795	94.253	98.958	99.266	103.810	228.449	102.750	-8191	255	
1361.564	1	1	0	0	0.15497	0.20783	0.24874	0.094706	0.16296	0.092798	0.20452	0.11328	0.086292	0.098707	0.1189	0.090427	0.38788	0.17398	0.12797	0.15057	-1.8687	-1.6958	-1.8312	-2.5	-1.4333	-2.1792	-2.1708	-1.55	-2.2	-1.6229	-1.8188	-2.3729	-1.525	-2.075	-2.0812	-1.5958	196.766	405.049	202.987	236.661	118.056	220.498	375.672	415.157	190.829	395.530	250.703	429.942	353.289	334.144	90.597	371.031	0.0015736	0.00053786	0.00013774	1201.9	7.1232e-06	3.0774e-06	1224.1	339.29	9.3243e-06	4.3438e-06	388.33	132.14	113.23	38.706	6.2393e-06	49.118	0.0010276	0.0012161	0.00033936	1230.2	1.2313e-05	1.2859e-05	1246.6	346.3	1.2023e-05	1.3883e-05	399.28	135.46	116.2	40.282	1.2525e-05	50.831	336.250	173.015	166.167	90.151	248.337	219.508	89.796	94.842	255.846	228.234	94.179	98.932	99.101	103.740	242.580	102.698	-8191	255	
1361.660	1	1	0	0	0.043636	0.11973	0.20872	0.1428	0.26847	0.18141	0.26542	0.14485	0.12564	0.07414	0.1942	0.23775	0.17423	0.13059	0.075199	0.18125	-1.7521	-1.8083	-1.5063	-2.2375	-1.4417	-1.7542	-2.2188	-1.5896	-2.0563	-1.8438	-1.6979	-2.3771	-1.5812	-1.8813	-2.1708	-1.5458	209.572	131.291	305.402	398.998	249.804	365.422	157.751	376.353	91.525	130.481	233.495	169.784	148.357	367.303	324.528	319.431	0.0015842	0.00037056	7.0592e-05	1204.5	7.3591e-06	5.7412e-06	1224.8	338.26	9.6096e-06	4.5241e-06	388.81	132.33	113.73	38.657	3.8197e-06	49.231	0.0010182	0.0011568	0.00033399	1230.5	1.2312e-05	1.3504e-05	1247.8	346.52	1.1697e-05	1.3451e-05	399.56	135.74	116.33	40.253	1.2617e-05	50.917	333.355	138.837	179.138	90.133	249.326	239.664	89.755	94.651	249.180	237.538	94.048	98.629	99.446	103.850	247.018	102.549	-8191	255	
1361.757	1	1	0	0	0.27807	0.088723	0.19571	0.32882	0.30328	0.08288	0.22084	0.2573	0.068182	0.082887	0.092805	0.10362	0.51844	0.26901	0.30193	0.27027	-1.8521	-2.0687	-1.5583	-2.4875	-1.4771	-1.7354	-2.2896	-1.5812	-2	-2.0521	-1.5042	-2.175	-1.6896	-1.6646	-1.9979	-1.4125	107.251	259.456	144.079	296.581	340.062	186.252	376.147	406.533	96.147	338.980	404.845	79.835	428.391	380.257	386.405	343.278	0.0015313	0.00052305	0.00017669	1202.5	6.5021e-06	6.6298e-06	1219.9	338.14	1.0561e-05	4.3537e-06	388.21	132.78	113.24	38.825	9.6276e-06	49.189	0.0010122	0.0012208	0.00033529	1230.3	1.2544e-05	1.3523e-05	1245.1	345.74	1.1978e-05	1.3828e-05	399.18	135.79	116.3	40.26	1.3089e-05	50.907	334.911	155.882	173.442	89.996	217.313	230.462	89.512	94.758	243.943	228.308	94.172	98.774	99.314	103.625	242.521	102.414	-8191	255	
1361.853	1	1	0	0	0.15857	0.025594	0.19262	0.13005	0.13041	0.17656	0.37872	0.17366	0.18173	0.079128	0.20585	0.23002	0.077981	0.10824	0.11258	0.1417	-1.6979	-2.0875	-1.4583	-2.2083	-1.7542	-1.7021	-2.4	-1.5042	-1.9167	-2.15	-1.5604	-2.1958	-1.8354	-1.6021	-2.3333	-1.5083	158.535	338.310	423.888	426.512	295.903	132.218	364.071	128.366	102.148	297.509	334.580	419.922	297.254	410.501	128.244	410.535	0.0015932	0.00041333	0.00017306	1203.4	7.6936e-06	7.7539e-06	1222.1	337.37	1.2446e-05	4.7031e-06	388.73	133.04	113.75	38.602	7.912e-06	49.027	0.0010303	0.0011834	0.00034329	1231.3	1.2479e-05	1.3583e-05	1244.6	345.99	1.1753e-05	1.3641e-05	399.45	135.68	116.41	40.223	1.2157e-05	50.76	336.921	144.238	157.572	90.181	248.777	233.421	89.734	94.987	252.745	225.637	94.136	99.035	99.370	103.998	223.135	102.775	-8191	255	
1361.973	1	1	0	0	0.14768	0.16526	0.1955	0.20965	0.022084	0.045234	0.13403	0.10472	0.25136	0.27565	0.11939	0.26801	0.17621	0.088467	0.12055	0.14445	-1.4833	-2.0896	-1.2896	-2.1813	-1.7604	-1.5458	-2.4437	-1.6187	-1.8521	-2.1854	-1.4604	-2.1625	-1.8438	-1.5625	-2.2313	-1.5271	78.062	171.525	122.466	389.561	210.728	243.307	82.990	415.831	130.560	138.301	361.017	132.376	204.661	430.304	395.503	313.247	0.0015915	0.0003935	0.00012426	1212.8	1.0286e-05	5.4796e-06	1218.4	337.3	1.0863e-05	3.1649e-06	389.85	132.39	113.55	38.888	6.9799e-06	49.106	0.001016	0.0011574	0.00034315	1233.7	1.2356e-05	1.3503e-05	1246.4	345.71	1.1686e-05	1.3317e-05	399.45	135.78	116.3	40.242	1.2493e-05	50.816	338.329	155.537	171.219	90.097	243.260	214.104	89.786	94.820	256.161	209.946	94.263	98.816	99.396	103.567	217.232	102.748	-8191	255	
1362.069	1	1	0	0	0.299	0.094352	0.13352	0.032123	0.14555	0.17513	0.30348	0.35765	0.18442	0.14872	0.17879	0.26378	0.17399	0.061238	0.1457	0.053044	-1.3521	-1.9854	-1.4792	-2.3229	-1.95	-1.3583	-2.4458	-1.6562	-1.7125	-2.4125	-1.6729	-2.1375	-1.9937	-1.4542	-2.225	-1.6354	84.542	80.056	93.339	180.004	171.889	285.506	379.604	346.732	434.013	262.183	408.289	375.230	391.341	205.714	205.589	87.597	0.001557	0.00037452	0.00015284	1202.2	8.9997e-06	6.1744e-06	1224.6	336.47	1.1267e-05	2.051e-06	391.29	132.72	113.6	38.609	6.4048e-06	48.85	0.0010278	0.0011531	0.0003507	1230.3	1.2219e-05	1.3492e-05	1248.1	345.96	1.2156e-05	1.3298e-05	399.93	135.69	116.29	40.171	1.256e-05	50.792	332.165	174.564	162.861	90.302	239.715	211.264	89.974	95.164	248.727	260.842	94.270	99.183	99.292	104.078	230.713	103.089	-8191	255	
1362.141	1	1	0	0	0.15675	0.10551	0.078043	0.16771	0.23357	0.1542	0.12129	0.074959	0.077916	0.20918	0.15157	0.04076	0.12127	0.28513	0.19798	0.16399	-1.3062	-2.2938	-1.3146	-2.1583	-2.1813	-1.4979	-2.4875	-1.875	-1.5583	-2.4271	-1.6875	-1.9354	-2.3042	-1.4792	-2.1167	-1.7479	140.450	239.394	421.673	246.433	160.232	185.400	354.993	402.229	179.313	407.877	347.818	148.041	95.251	90.926	220.121	390.168	0.0016095	0.00032667	0.00014284	1207.1	5.7272e-06	3.6388e-06	1223	338.29	9.5318e-06	5.2477e-06	390.41	132.85	113.69	38.906	5.4556e-06	49.158	0.0010486	0.0012049	0.0003487	1232.4	1.2241e-05	1.3985e-05	1247.3	346.45	1.2005e-05	1.3582e-05	399.87	135.79	116.34	40.241	1.2833e-05	50.86	333.973	117.703	176.781	90.367	244.967	218.735	89.932	94.913	252.709	221.287	94.398	99.067	99.473	104.012	236.986	102.560	-8191	255	
1362.262	1	1	0	0	0.22601	0.063615	0.25207	0.153	0.16587	0.18364	0.10454	0.14487	0.16594	0.24191	0.16368	0.23791	0.11543	0.05671	0.18259	0.063956	-1.1604	-2.3187	-1.7583	-1.8604	-2.1229	-1.3979	-2.4562	-1.8979	-1.4521	-2.3625	-1.6083	-2.0938	-2.2396	-1.4604	-2.0771	-2.1229	243.678	110.981	203.045	415.051	228.428	262.051	329.627	148.092	251.149	331.078	431.300	343.327	395.070	277.034	322.044	233.029	0.0015669	0.00041708	8.5575e-05	1203.9	5.6156e-06	2.7855e-06	1227	338.11	9.6083e-06	3.1632e-06	389.9	132.1	113.1	38.849	7.5461e-06	49.03	0.0010431	0.0012002	0.00034689	1232.5	1.2071e-05	1.388e-05	1249.6	346.08	1.2144e-05	1.3155e-05	399.88	135.65	116.27	40.269	1.2649e-05	50.8	331.930	179.721	161.450	90.351	224.400	180.576	89.973	95.125	249.457	213.858	94.341	99.204	99.702	103.943	230.920	102.979	-8191	255	
1362.358	1	1	0	0	0.085248	0.32252	0.084176	0.37943	0.13163	0.33096	0.26626	0.061449	0.33366	0.14684	0.27762	0.26954	0.42654	0.28925	0.20357	0.32316	-0.98542	-2.2396	-1.5875	-1.8312	-2.3417	-1.3979	-2.2042	-2.025	-1.3813	-2.2812	-1.8188	-1.7833	-2.0875	-1.6375	-1.9958	-2.0146	180.838	289.281	103.488	430.770	339.573	248.591	395.671	327.676	145.816	277.935	368.293	396.829	425.420	398.385	235.791	385.569	0.0014741	0.00065818	0.00016065	1211.1	6.6349e-06	4.2106e-06	1222.6	338.13	1.4392e-05	3.9731e-06	389.58	132.3	113.65	38.835	7.9346e-06	48.842	0.001037	0.0012273	0.00033912	1232	1.2483e-05	1.4087e-05	1247.5	346.16	1.2203e-05	1.3493e-05	399.81	135.71	116.39	40.247	1.2893e-05	50.801	333.560	159.986	145.276	90.340	218.240	237.876	89.942	95.026	245.836	216.553	94.237	99.138	99.380	103.951	224.723	102.676	-8191	255	
1362.454	1	1	0	0	0.27284	0.20902	0.32979	0.24074	0.10164	0.21436	0.07087	0.50352	0.1378	0.081949	0.38937	0.49877	0.26134	0.19481	0.15974	0.051137	-0.86667	-2.2792	-1.7021	-1.7833	-2.3229	-1.5583	-2.3312	-2.3667	-1.2479	-2.1	-1.8583	-1.4458	-2.4	-1.4042	-1.9354	-2.2833	211.903	135.985	128.008	87.339	297.752	386.714	340.673	383.281	180.113	179.476	84.963	319.090	397.527	83.784	282.416	239.523	0.0014698	0.00052867	0.00013388	1203.7	5.5093e-06	5.5112e-06	1223.1	338.39	1.0445e-05	3.0283e-06	389.31	133.01	114.1	38.843	7.1959e-06	49.141	0.0010369	0.0011709	0.00034395	1230	1.2024e-05	1.3674e-05	1246.4	346.27	1.2079e-05	1.368e-05	399.7	135.88	116.4	40.172	1.2446e-05	50.887	335.598	156.030	166.589	90.407	243.861	222.674	89.903	94.889	262.727	259.231	93.877	98.909	99.282	103.459	228.316	102.496	-8191	255	
1362.573	1	1	0	0	0.15751	0.19989	0.033919	0.15243	0.20883	0.10084	0.075669	0.22085	0.18769	0.27814	0.15528	0.27509	0.11943	0.32493	0.11811	0.11215	-1.0354	-1.9833	-1.8875	-1.4521	-2.2229	-1.4833	-1.8062	-2.4292	-1.4083	-2.1833	-2.0708	-1.4667	-2.2833	-1.775	-1.6437	-2.2021	226.200	308.707	304.435	413.844	297.448	361.700	311.761	348.000	88.514	205.869	92.768	413.900	91.130	382.031	155.355	293.190	0.0014663	0.00040919	0.00011934	1200.8	5.4994e-06	6.0783e-06	1223.3	337.44	1.006e-05	4.9972e-06	387.98	132.71	113.77	38.828	9.4332e-06	49.046	0.0010234	0.001148	0.00033823	1230.9	1.2241e-05	1.4079e-05	1247.9	346.13	1.2023e-05	1.4032e-05	399.12	135.76	116.58	40.292	1.2725e-05	50.83	331.644	178.351	168.920	90.243	223.393	227.582	90.006	94.961	257.949	236.281	94.149	99.084	99.352	103.672	228.212	102.783	-8191	255	
1362.669	1	1	0	0	0.25012	0.063379	0.20026	0.19252	0.080702	0.10907	0.18285	0.16405	0.084876	0.11394	0.078287	0.072693	0.15524	0.21599	0.10849	0.14035	-0.91667	-1.975	-1.9146	-1.4062	-2.2771	-1.6729	-1.875	-2.3812	-1.3813	-2.05	-2.2188	-1.3667	-2.2521	-1.7812	-1.7458	-2.4188	130.234	169.284	221.198	417.009	115.104	296.133	341.932	374.296	427.659	112.419	357.135	122.030	336.930	81.236	311.282	126.997	0.0015803	0.00041901	0.00016082	1204.6	4.939e-06	3.5619e-06	1225.3	337.71	1.001e-05	4.4814e-06	389	133.45	113.54	38.927	5.5818e-06	49.049	0.0010527	0.0011996	0.00034369	1231.1	1.2313e-05	1.356e-05	1247.6	346.34	1.2382e-05	1.4248e-05	398.82	135.93	116.46	40.277	1.2745e-05	50.699	333.338	188.786	152.440	90.140	234.055	239.277	89.883	95.025	243.035	233.628	93.989	98.848	99.588	103.637	237.319	102.821	-8191	255	
1362.741	1	1	0	0	0.23855	0.14447	0.11646	0.12429	0.099564	0.01644	0.25282	0.13619	0.15264	0.1129	0.38818	0.31999	0.18543	0.058843	0.25573	0.2948	-0.79375	-1.9583	-2.1208	-1.55	-2.0062	-1.9208	-1.7	-2.6	-1.3729	-1.8771	-2.2104	-1.5229	-2.1521	-2.0833	-1.4792	-2.325	425.496	160.458	298.318	426.210	406.083	339.590	357.356	378.172	409.716	344.134	399.669	338.619	234.279	361.028	391.030	388.292	0.0015126	0.00041327	0.00012793	1206.1	5.5547e-06	6.153e-06	1221.2	338.37	1.2059e-05	3.7313e-06	390.34	132.87	113.86	38.801	6.2957e-06	48.958	0.001055	0.0012427	0.00034371	1232.5	1.2229e-05	1.3795e-05	1248	346.23	1.2354e-05	1.4255e-05	400.39	135.85	116.48	40.249	1.313e-05	50.828	335.823	164.479	153.784	89.875	242.162	200.207	89.948	95.157	252.896	218.401	94.395	98.942	99.820	103.932	213.966	102.920	-8191	255	
1362.861	1	1	0	0	0.07239	0.23326	0.074344	0.30422	0.17975	0.14166	0.25758	0.18997	0.11627	0.22591	0.20387	0.28212	0.25732	0.11328	0.16115	0.23489	-1.0438	-1.7646	-2.1542	-1.7313	-1.9375	-1.9021	-1.5688	-2.5292	-1.65	-1.7667	-2.5125	-1.5938	-2.0812	-2.0938	-1.3771	-2.4167	166.087	236.699	401.359	369.684	267.689	345.754	320.530	426.832	201.095	383.503	363.242	384.377	397.289	434.815	284.659	425.685	0.0015401	0.00054318	8.925e-05	1205.1	6.5613e-06	5.2388e-06	1225.6	338.16	1.2004e-05	6.1788e-06	391.22	132.79	114.02	38.641	5.2841e-06	49.093	0.0010485	0.0012454	0.00033503	1233.8	1.2434e-05	1.3712e-05	1247.5	346.69	1.2296e-05	1.4203e-05	400.7	135.64	116.38	40.222	1.2839e-05	50.847	333.159	171.438	164.163	90.448	226.109	226.255	90.138	95.423	260.928	214.410	94.366	99.107	99.694	103.676	231.479	102.926	-8191	255	
1362.958	1	1	0	0	0.23327	0.2111	0.16109	0.069763	0.1524	0.19265	0.33115	0.38581	0.1116	0.060817	0.033036	0.2269	0.27038	0.14797	0.11932	0.1747	-1.2021	-1.5167	-2.0354	-1.5583	-1.8687	-2.0271	-1.4104	-2.3333	-1.5729	-1.4646	-2.4437	-1.4042	-2.0792	-2.2708	-1.4521	-2.2646	357.151	306.539	410.979	399.406	420.473	343.380	410.311	414.958	95.085	276.103	319.613	98.400	286.207	143.827	281.982	398.092	0.0014284	0.00047289	7.2616e-05	1199.7	7.8294e-06	5.5759e-06	1220.3	338.88	1.019e-05	5.274e-06	388.97	133.06	113.09	38.641	7.0985e-06	48.837	0.001015	0.0012359	0.00033896	1230	1.2143e-05	1.3653e-05	1245.7	346.93	1.2031e-05	1.4433e-05	399.73	135.76	116.17	40.209	1.3382e-05	50.65	333.498	177.674	139.579	90.116	209.880	232.872	89.999	95.201	259.272	197.830	94.562	98.930	99.236	103.906	214.119	102.787	-8191	255	
1363.054	1	1	0	0	0.1147	0.20104	0.13968	0.19249	0.18678	0.14827	0.11442	0.36017	0.17282	0.012606	0.12216	0.054191	0.25232	0.14105	0.18765	0.13076	-1.3896	-1.3958	-2.4313	-1.6458	-1.8188	-2.2333	-1.6063	-2.3479	-1.8917	-1.4	-2.5083	-1.7271	-1.7625	-2.3708	-1.4688	-2.1458	153.522	147.652	341.013	85.143	88.139	377.502	383.466	392.372	414.035	132.800	251.092	173.938	428.375	407.762	132.711	329.396	0.00158	0.00049747	0.00010982	1209.5	9.9778e-06	5.1151e-06	1222.9	337.72	1.1031e-05	5.5731e-06	389.37	132.96	113.86	38.812	4.8149e-06	49.037	0.0010297	0.0012258	0.00033722	1232.3	1.272e-05	1.359e-05	1247.1	346.28	1.2359e-05	1.4174e-05	400.23	135.69	116.56	40.203	1.27e-05	50.814	334.816	158.835	148.404	90.251	226.529	223.717	89.888	95.377	244.161	235.954	93.993	99.001	99.626	103.992	231.253	102.937	-8191	255	
1363.150	1	1	0	0	0.37867	0.33669	0.35527	0.10004	0.20876	0.14016	0.18427	0.08553	0.15111	0.10885	0.17169	0.26789	0.044592	0.32415	0.029546	0.35856	-1.5771	-1.4312	-2.4437	-1.7125	-1.4937	-2.4875	-1.6896	-2.1542	-1.85	-1.3375	-2.4333	-1.8854	-1.7458	-2.2417	-1.5896	-2.2083	109.990	324.998	153.895	410.603	378.639	143.530	371.880	310.989	194.884	349.853	428.100	350.893	174.284	79.943	425.066	411.618	0.001522	0.00049901	0.00014258	1206.4	8.1024e-06	5.9633e-06	1226.9	340.04	9.0178e-06	3.6396e-06	389.05	132.33	113.81	38.846	6.5519e-06	49.39	0.001034	0.0012195	0.00034823	1233.6	1.2874e-05	1.3553e-05	1248.1	346.71	1.208e-05	1.4204e-05	399.87	135.54	116.38	40.266	1.3067e-05	50.868	333.244	151.359	154.983	90.436	225.189	200.567	89.906	95.296	255.620	231.021	94.414	98.820	99.399	103.892	227.327	102.895	-8191	255	
1363.270	1	1	0	0	0.061532	0.14876	0.13367	0.16128	0.066486	0.34513	0.2223	0.33443	0.15194	0.27021	0.20731	0.27611	0.38054	0.059535	0.031868	0.33965	-1.7437	-1.4	-2.0708	-1.9333	-1.6	-2.2104	-1.7708	-1.8646	-2.0417	-1.3813	-2.4938	-2.1437	-1.6375	-2.3104	-1.5125	-1.9688	168.052	359.255	361.899	382.634	321.590	407.632	411.921	84.063	275.908	394.337	368.294	401.277	98.936	410.865	344.993	397.390	0.0014918	0.00050357	0.00011599	1208.4	6.3167e-06	6.5678e-06	1223.9	338.48	9.2941e-06	5.4637e-06	391.34	132.54	113.4	38.736	4.5515e-06	49.214	0.0010374	0.0012269	0.00034482	1232.1	1.2566e-05	1.3726e-05	1247.2	346.42	1.1685e-05	1.3777e-05	400.26	135.89	116.51	40.172	1.2796e-05	50.817	334.956	146.262	188.171	90.294	220.526	210.843	89.987	95.393	244.716	220.482	94.449	99.082	99.791	104.045	224.098	103.252	-8191	255	
1363.365	1	1	0	0	0.19225	0.1773	0.17542	0.05863	0.28337	0.17859	0.16021	0.28901	0.21421	0.20327	0.21578	0.16586	0.17416	0.28486	0.21373	0.27309	-1.7646	-1.5167	-2.0354	-1.9708	-1.4813	-2.3479	-1.65	-1.7292	-2.2375	-1.3792	-1.9771	-2.0604	-1.525	-2.2771	-1.6083	-1.6208	178.380	310.426	273.571	293.368	381.684	406.572	320.556	350.910	252.743	217.422	89.925	240.286	326.045	434.472	140.024	418.729	0.0015683	0.00036696	0.00012862	1199.9	5.8899e-06	4.4734e-06	1223.5	338.71	1.0556e-05	4.1303e-06	390.12	132.64	114.12	38.793	7.1074e-06	49.101	0.0010335	0.001194	0.0003351	1228.6	1.2715e-05	1.3867e-05	1247.8	346.59	1.1994e-05	1.3923e-05	400.23	135.66	116.35	40.239	1.2555e-05	50.717	335.052	160.487	163.992	90.200	222.123	222.670	90.037	95.026	239.894	237.999	94.717	99.221	100.103	103.952	244.650	103.133	-8191	255	
1363.438	1	1	0	0	0.047489	0.24902	0.17845	0.093395	0.038778	0.21231	0.21604	0.22919	0.29344	0.27274	0.031701	0.17391	0.21483	0.40991	0.19251	0.36789	-1.8813	-1.5125	-2.0438	-2.1354	-1.4083	-2.0396	-1.9146	-1.6042	-2.3583	-1.3979	-2.0833	-2.0583	-1.475	-2.1479	-1.7542	-1.6021	427.713	413.992	388.860	364.694	257.852	395.208	357.683	287.509	150.287	102.136	327.650	374.403	366.512	431.741	302.817	116.376	0.0016744	0.000542	0.00016229	1201.8	7.3685e-06	4.7856e-06	1224.6	339.62	1.3219e-05	6.0254e-06	393.25	133.16	113.66	38.724	6.8492e-06	49.236	0.0010355	0.0012355	0.0003431	1230.4	1.2705e-05	1.351e-05	1248	347.26	1.1703e-05	1.3883e-05	400.79	135.94	116.41	40.171	1.2813e-05	50.906	335.943	164.913	176.099	90.318	216.942	186.576	90.368	95.360	250.857	233.444	94.506	99.157	99.911	103.890	240.396	103.332	-8191	255	
1363.534	1	1	0	0	0.098687	0.11676	0.25177	0.28105	0.23222	0.14192	0.22756	0.11589	0.18692	0.16285	0.23926	0.16011	0.224	0.072109	0.24397	0.19295	-1.875	-1.5521	-1.8062	-2.3083	-1.4062	-2.2375	-1.9479	-1.375	-2.125	-1.6479	-1.5187	-2.2604	-1.4396	-2.2604	-1.9354	-1.3896	218.250	164.468	341.242	352.781	119.690	226.595	353.715	363.374	383.572	182.786	402.618	93.828	350.537	217.656	94.013	413.595	0.0015582	0.00062783	0.00015264	1206.6	6.5218e-06	3.7457e-06	1224.8	336.77	1.1056e-05	5.546e-06	388.58	132.92	113.29	38.829	4.551e-06	48.869	0.0010373	0.0012314	0.0003532	1231	1.257e-05	1.3861e-05	1249.2	345.82	1.1723e-05	1.3683e-05	399.82	135.82	116.32	40.244	1.2081e-05	50.724	335.934	147.786	169.942	90.153	219.804	233.415	89.903	95.588	246.446	216.400	94.677	99.392	100.039	104.370	229.558	103.373	-8191	255	
#DATA ENDS
